BOXY.EXE: ISS Imagent and Oximeter Data Acquisition Program Version 0.80
Ascii Record File

#ACQ INFORMATION
2  Detector Channels 
16  External MUX Channels 
1  Auxiliary Channels 
5000  Waveform (CCF) Frequency (Hz)
1  Waveforms Skipped 
30  Waveforms Averaged 
1  Cycles Averaged 
16  Acquisitions per Waveform 
10.0806  Updata Rate (Hz) 

#FILE INFORMATION
TRUE -- External MUX Channel results are PARSED.
FALSE -- AC DC and Phase are NOT grouped.
TRUE -- Companion Program Settings File CREATED.
FALSE -- AC data not excluded
FALSE -- DC data not excluded
FALSE -- Phase data not excluded
FALSE -- Auxillary Chn. data not excluded
Tab delimiters

#CALIBRATION STATE
TRUE -- Waveform Calibration Values APPLIED.


#AUX CALIBRATION VALUES
Val Type	aux-1	

Term	1.0000e+00	
Factor	0.0000e+00	


#WF CALIBRATION VALUES
A = Detector Channel
Val Type	A-AC1	A-AC2	A-AC3	A-AC4	A-AC5	A-AC6	A-AC7	A-AC8	A-AC9	A-AC10	A-AC11	A-AC12	A-AC13	A-AC14	A-AC15	A-AC16	A-DC1	A-DC2	A-DC3	A-DC4	A-DC5	A-DC6	A-DC7	A-DC8	A-DC9	A-DC10	A-DC11	A-DC12	A-DC13	A-DC14	A-DC15	A-DC16	A-Ph1	A-Ph2	A-Ph3	A-Ph4	A-Ph5	A-Ph6	A-Ph7	A-Ph8	A-Ph9	A-Ph10	A-Ph11	A-Ph12	A-Ph13	A-Ph14	A-Ph15	A-Ph16	

Term	0.00000e+00	0.00000e+00	0.00000e+00	0.00000e+00	0.00000e+00	0.00000e+00	0.00000e+00	0.00000e+00	0.00000e+00	0.00000e+00	0.00000e+00	0.00000e+00	0.00000e+00	0.00000e+00	0.00000e+00	0.00000e+00	0.00000e+00	0.00000e+00	0.00000e+00	0.00000e+00	0.00000e+00	0.00000e+00	0.00000e+00	0.00000e+00	0.00000e+00	0.00000e+00	0.00000e+00	0.00000e+00	0.00000e+00	0.00000e+00	0.00000e+00	0.00000e+00	0.00000e+00	0.00000e+00	0.00000e+00	0.00000e+00	0.00000e+00	0.00000e+00	0.00000e+00	0.00000e+00	0.00000e+00	0.00000e+00	0.00000e+00	0.00000e+00	0.00000e+00	0.00000e+00	0.00000e+00	0.00000e+00	
Factor	1.00000e+00	1.00000e+00	1.00000e+00	1.00000e+00	1.00000e+00	1.00000e+00	1.00000e+00	1.00000e+00	1.00000e+00	1.00000e+00	1.00000e+00	1.00000e+00	1.00000e+00	1.00000e+00	1.00000e+00	1.00000e+00	1.00000e+00	1.00000e+00	1.00000e+00	1.00000e+00	1.00000e+00	1.00000e+00	1.00000e+00	1.00000e+00	1.00000e+00	1.00000e+00	1.00000e+00	1.00000e+00	1.00000e+00	1.00000e+00	1.00000e+00	1.00000e+00	X	X	X	X	X	X	X	X	X	X	X	X	X	X	X	X	

B = Detector Channel
Val Type	B-AC1	B-AC2	B-AC3	B-AC4	B-AC5	B-AC6	B-AC7	B-AC8	B-AC9	B-AC10	B-AC11	B-AC12	B-AC13	B-AC14	B-AC15	B-AC16	B-DC1	B-DC2	B-DC3	B-DC4	B-DC5	B-DC6	B-DC7	B-DC8	B-DC9	B-DC10	B-DC11	B-DC12	B-DC13	B-DC14	B-DC15	B-DC16	B-Ph1	B-Ph2	B-Ph3	B-Ph4	B-Ph5	B-Ph6	B-Ph7	B-Ph8	B-Ph9	B-Ph10	B-Ph11	B-Ph12	B-Ph13	B-Ph14	B-Ph15	B-Ph16	

Term	0.00000e+00	0.00000e+00	0.00000e+00	0.00000e+00	0.00000e+00	0.00000e+00	0.00000e+00	0.00000e+00	0.00000e+00	0.00000e+00	0.00000e+00	0.00000e+00	0.00000e+00	0.00000e+00	0.00000e+00	0.00000e+00	0.00000e+00	0.00000e+00	0.00000e+00	0.00000e+00	0.00000e+00	0.00000e+00	0.00000e+00	0.00000e+00	0.00000e+00	0.00000e+00	0.00000e+00	0.00000e+00	0.00000e+00	0.00000e+00	0.00000e+00	0.00000e+00	6.90162e+01	-1.56128e+02	-1.16186e+02	-1.81639e+02	-7.96074e+01	-9.11058e+01	-1.56882e+02	-1.62015e+02	-1.33922e+02	-6.75792e+01	-1.72122e+02	-1.69516e+02	-1.85555e+02	-1.76516e+02	-9.85877e+01	-1.49146e+02	
Factor	6.21861e-05	1.15743e-04	3.18327e-05	1.64936e-01	1.44916e-06	1.20847e-06	1.76422e-01	5.14978e-02	1.99006e-06	1.27802e-06	8.81120e-02	2.83650e-02	2.55766e-02	8.90638e-03	1.90026e-06	1.25959e-02	1.53080e-06	1.58230e-06	4.40569e-07	8.63224e-02	1.72893e-08	1.73607e-08	8.67342e-02	2.69960e-02	1.72581e-08	1.73857e-08	4.42118e-02	1.42717e-02	1.32884e-02	4.65608e-03	1.73092e-08	6.35628e-03	X	X	X	X	X	X	X	X	X	X	X	X	X	X	X	X	



#DISTANCE SETTINGS
A = Detector Channel
A-1	A-2	A-3	A-4	A-5	A-6	A-7	A-8	A-9	A-10	A-11	A-12	A-13	A-14	A-15	A-16	

2.5000e+00	3.0000e+00	2.5000e+00	3.0000e+00	2.0000e+00	3.0000e+00	1.5000e+00	3.0000e+00	3.0000e+00	3.0000e+00	3.0000e+00	3.0000e+00	3.0000e+00	3.0000e+00	1.5000e+00	3.0000e+00	

B = Detector Channel
B-1	B-2	B-3	B-4	B-5	B-6	B-7	B-8	B-9	B-10	B-11	B-12	B-13	B-14	B-15	B-16	

1.0000e+01	1.0000e+01	1.0000e+01	1.4400e+00	1.0000e+01	1.0000e+01	1.5100e+00	1.9400e+00	1.0000e+01	1.0000e+01	1.9900e+00	2.4900e+00	2.4100e+00	2.9000e+00	1.0000e+01	2.9800e+00	




#DATA BEGINS
time	group	step	mark	flag	A-AC1	A-AC2	A-AC3	A-AC4	A-AC5	A-AC6	A-AC7	A-AC8	A-AC9	A-AC10	A-AC11	A-AC12	A-AC13	A-AC14	A-AC15	A-AC16	A-DC1	A-DC2	A-DC3	A-DC4	A-DC5	A-DC6	A-DC7	A-DC8	A-DC9	A-DC10	A-DC11	A-DC12	A-DC13	A-DC14	A-DC15	A-DC16	A-Ph1	A-Ph2	A-Ph3	A-Ph4	A-Ph5	A-Ph6	A-Ph7	A-Ph8	A-Ph9	A-Ph10	A-Ph11	A-Ph12	A-Ph13	A-Ph14	A-Ph15	A-Ph16	B-AC1	B-AC2	B-AC3	B-AC4	B-AC5	B-AC6	B-AC7	B-AC8	B-AC9	B-AC10	B-AC11	B-AC12	B-AC13	B-AC14	B-AC15	B-AC16	B-DC1	B-DC2	B-DC3	B-DC4	B-DC5	B-DC6	B-DC7	B-DC8	B-DC9	B-DC10	B-DC11	B-DC12	B-DC13	B-DC14	B-DC15	B-DC16	B-Ph1	B-Ph2	B-Ph3	B-Ph4	B-Ph5	B-Ph6	B-Ph7	B-Ph8	B-Ph9	B-Ph10	B-Ph11	B-Ph12	B-Ph13	B-Ph14	B-Ph15	B-Ph16	aux-1	digaux	

3454.632	1	1	0	256	0.22586	0.23631	0.27952	0.32686	0.34987	0.35892	0.10172	0.01566	0.048783	0.23951	0.12551	0.10591	0.23418	0.18874	0.21595	0.16829	-0.20417	-0.26042	-1.2687	-0.62708	-0.55	-1.1	-0.35417	-1.0875	-0.7875	-0.225	-1.3667	-0.55833	-0.59583	-1.3771	-0.44167	-1.0979	91.074	231.984	27.372	264.408	259.660	219.726	-13.752	96.364	-56.871	256.887	-39.746	-61.170	209.573	285.998	5.588	123.426	0.00046818	0.0015433	0.00018079	1200.9	1.1166e-05	1.7148e-05	771.07	332.75	9.5469e-06	2.6964e-05	216.76	75.788	114.26	45.884	6.1019e-06	34.464	0.002965	0.0030601	0.00085242	1282.7	3.304e-05	3.3282e-05	889.2	359.99	3.308e-05	3.3463e-05	283.36	97.098	131.12	51.688	3.3399e-05	43.944	62.534	68.433	230.932	-48.655	-57.572	54.167	-50.742	-44.130	-53.148	68.455	-46.739	-42.541	-39.633	-35.959	292.720	-40.230	-8191	255	
3454.729	1	1	0	0	0.14821	0.15902	0.11754	0.08451	0.16553	0.30954	0.37044	0.16184	0.053157	0.063091	0.16547	0.16234	0.11705	0.10133	0.057478	0.172	-0.34375	-0.15	-1.0042	-0.71458	-0.49583	-1.2896	-0.2875	-0.9125	-0.95625	-0.027083	-1.1562	-0.71667	-0.41458	-1.3833	-0.15833	-0.73958	111.003	284.362	45.806	176.008	95.742	167.784	243.807	219.011	253.455	250.666	-50.123	146.032	153.322	261.819	65.020	233.228	0.00034289	0.001301	0.00035851	1200.2	1.1376e-05	1.7247e-05	780.51	325.75	1.1923e-05	8.4689e-06	213.65	74.305	112.88	44.994	1.3647e-05	33.345	0.0029794	0.0030678	0.00085448	1283.6	3.3382e-05	3.3713e-05	891.72	356.11	3.3558e-05	3.3845e-05	282.08	95.835	129.43	50.79	3.3461e-05	42.855	87.163	262.915	87.762	-48.659	77.238	216.712	-50.484	-44.291	156.599	-9.377	-47.190	-42.642	-39.578	-35.749	272.780	-39.862	-8191	255	
3454.825	1	1	0	0	0.15034	0.21004	0.15664	0.18511	0.1784	0.24458	0.18579	0.24558	0.074089	0.30751	0.16565	0.10323	0.20155	0.055124	0.047483	0.20169	-0.575	-0.24583	-1.1083	-0.53125	-0.2875	-1.1042	-0.46667	-0.73125	-0.9	-0.12292	-1.1042	-0.80833	-0.20417	-1.1229	-0.21458	-0.55833	80.091	297.562	12.461	-60.621	56.478	171.474	-46.210	291.494	-47.459	170.431	197.782	103.936	-20.617	197.690	204.885	159.511	0.00013261	0.00068059	0.00022952	1196.2	8.3824e-06	8.7135e-06	770.09	327.23	1.3111e-05	1.9798e-05	213.95	73.716	113.01	45.7	1.108e-05	33.669	0.002957	0.0030423	0.00084378	1277.4	3.2728e-05	3.2938e-05	878.46	354.03	3.2245e-05	3.2405e-05	278.48	94.869	129.15	50.911	3.2055e-05	42.719	191.027	221.899	167.680	-48.865	10.808	267.388	-50.631	-44.197	-20.021	136.752	-46.714	-43.064	-39.971	-36.106	34.841	-39.527	-8191	255	
3454.921	1	1	0	0	0.31639	0.10389	0.20387	0.43405	0.20688	0.22712	0.22148	0.16064	0.21356	0.07311	0.26842	0.18039	0.31212	0.2229	0.24463	0.19375	-0.62917	-0.15	-0.99375	-0.76042	-0.14375	-1.0292	-0.5625	-0.475	-1.2167	-0.34375	-0.95625	-0.86458	0.052083	-1.1354	-0.54375	-0.38333	86.623	-35.075	270.915	291.894	-11.941	57.188	190.046	171.203	267.251	-37.059	-53.024	-31.149	-28.653	-39.162	16.952	172.564	0.0007514	0.00034761	0.0004149	1206.1	1.8697e-05	1.7885e-05	773	331.21	1.5983e-05	1.7055e-05	214.72	75.578	115.21	46.388	7.584e-06	34.414	0.0028485	0.0029521	0.00082121	1278.3	3.2195e-05	3.2191e-05	879.44	357.21	3.1838e-05	3.2006e-05	279.27	95.552	130.15	51.572	3.1649e-05	43.205	-17.974	-21.451	157.473	-48.883	128.365	57.863	-50.581	-44.040	175.281	138.415	-47.198	-42.600	-39.542	-35.948	31.437	-39.827	-8191	255	
3455.042	1	1	0	0	0.16355	0.13874	0.072265	0.18053	0.29426	0.053385	0.14762	0.18347	0.10549	0.44605	0.061608	0.26221	0.26015	0.47148	0.20086	0.12768	-0.55417	-0.16875	-0.77292	-1.0396	-0.060417	-0.89167	-0.68333	-0.35833	-0.95833	-0.27292	-0.725	-0.92917	-0.32917	-1.1437	-0.68958	-0.39792	-26.903	112.865	-32.774	22.087	59.019	56.786	11.227	175.569	195.124	130.847	-46.445	163.414	292.061	252.418	48.591	168.153	0.00024534	0.001873	8.4206e-05	1209.6	1.191e-05	2.0028e-05	782	332.89	3.4567e-05	2.2991e-05	219.62	76.968	116.72	47.309	2.2544e-05	35.1	0.0028028	0.0029008	0.00080144	1277.4	3.1634e-05	3.1621e-05	883.56	358.24	3.1497e-05	3.1807e-05	280.99	96.776	131.5	52.216	3.1538e-05	43.752	76.590	-15.478	260.562	-48.769	78.240	17.424	-50.268	-44.325	28.904	100.538	-46.725	-42.747	-39.972	-35.948	105.948	-39.854	-8191	255	
3455.138	1	1	0	0	0.19165	0.082325	0.27368	0.23249	0.039781	0.22449	0.14858	0.36556	0.17382	0.30302	0.26099	0.075676	0.039814	0.20513	0.15255	0.13084	-0.6875	-0.24167	-0.74583	-1.2604	-0.12083	-0.77083	-0.78958	-0.4375	-1.1417	-0.42917	-0.66042	-0.90833	-0.33125	-0.54583	-0.50417	-0.18958	261.711	218.310	80.233	256.743	54.889	80.544	-53.802	242.206	122.557	104.292	260.431	217.177	21.691	246.705	225.606	214.126	0.00023568	0.001417	0.00037951	1213.5	3.6306e-06	2.0541e-05	787.61	333.39	2.2598e-05	2.2353e-05	221.07	76.7	117	47.371	1.2046e-05	35.213	0.0028029	0.0028982	0.00080746	1283.5	3.1535e-05	3.1601e-05	889.59	359.48	3.1332e-05	3.169e-05	282.68	97.138	131.65	52.415	3.1391e-05	44.035	254.220	73.804	238.575	-48.770	128.454	54.190	-50.821	-44.279	18.658	38.463	-47.283	-42.317	-39.789	-35.927	-15.773	-40.161	-8191	255	
3455.209	1	1	0	0	0.11281	0.15251	0.15396	0.24416	0.30429	0.12264	0.17104	0.21704	0.15658	0.10039	0.22893	0.25666	0.16503	0.089049	0.12472	0.022862	-0.68542	-0.37292	-0.55833	-1.1729	-0.079167	-0.88333	-0.95	-0.31667	-0.95833	-0.30833	-0.43542	-1.2833	-0.4875	-0.84375	-0.86458	-0.3125	-9.264	55.826	72.158	222.442	135.731	156.904	217.808	260.981	75.902	192.466	283.441	207.631	-58.019	254.616	-41.833	-10.361	0.00080606	0.00074327	0.00018349	1212.3	1.1987e-05	5.265e-06	781.19	334.79	2.7471e-05	7.0363e-06	216.17	76.4	115.97	47.43	1.1672e-05	34.989	0.0027802	0.0028537	0.00079922	1280.4	3.113e-05	3.1158e-05	880.46	358.81	3.1009e-05	3.1307e-05	279.07	96.14	131.1	52.373	3.1039e-05	43.699	260.108	40.021	6.361	-48.713	113.165	175.876	-50.476	-44.207	111.330	-44.869	-46.933	-42.709	-39.326	-35.764	114.220	-39.404	-8191	255	
3455.306	1	1	0	0	0.2784	0.10505	0.16578	0.08028	0.26828	0.21609	0.18504	0.12049	0.038443	0.16402	0.18898	0.13778	0.14125	0.11896	0.33379	0.25816	-0.58958	-0.50833	-0.3	-1.0458	-0.2125	-0.775	-0.90208	-0.22708	-0.87083	-0.61875	-0.40833	-0.98125	-0.39167	-0.55833	-1.0375	0.010417	-2.474	101.164	12.076	190.693	52.978	254.516	271.654	204.951	107.988	78.287	219.249	216.874	185.906	-34.290	-10.619	252.090	0.00020078	0.00053897	0.00041224	1204.9	1.1196e-05	1.0389e-05	779.67	331.72	4.1891e-06	2.225e-05	219.1	77.775	116.66	47.905	1.0379e-05	35.685	0.0027727	0.0028471	0.00079071	1278.8	3.1094e-05	3.122e-05	881.08	358.01	3.102e-05	3.123e-05	279.91	97.046	131.27	52.743	3.1079e-05	44.25	274.533	51.718	158.698	-48.749	126.383	260.828	-50.514	-44.073	65.048	179.113	-46.888	-42.510	-39.599	-35.842	126.085	-39.365	-8191	255	
3455.424	1	1	0	0	0.33015	0.19482	0.08733	0.19657	0.18891	0.097663	0.18773	0.21496	0.13267	0.15539	0.21408	0.50831	0.13449	0.17299	0.22845	0.19311	-0.48542	-0.44375	-0.25	-1.3625	-0.40417	-0.475	-1.1354	-0.23333	-0.79375	-0.82708	-0.11667	-1.1125	-0.31042	-0.525	-1.0604	-0.125	-10.019	210.108	7.191	-23.498	133.236	-57.471	145.166	-53.153	-28.208	175.730	1.402	-49.507	-56.727	293.300	202.923	279.799	0.00039678	0.00091693	0.00027544	1210.7	6.5727e-06	1.0777e-05	786.01	333.03	1.9107e-05	1.1119e-05	221.81	78.013	118.08	48.034	3.2198e-05	36.169	0.0027604	0.0028477	0.00079383	1280.4	3.0979e-05	3.1221e-05	884.8	358.92	3.0718e-05	3.117e-05	282.02	97.409	132.15	52.957	3.1173e-05	44.505	293.932	0.628	34.758	-48.503	-2.809	35.024	-50.626	-44.088	-23.536	129.124	-46.344	-42.290	-39.622	-35.740	247.133	-39.578	-8191	255	
3455.521	1	1	0	0	0.22322	0.218	0.28511	0.28174	0.22355	0.11996	0.11784	0.19579	0.14601	0.23136	0.22307	0.15148	0.18443	0.25194	0.16472	0.14984	-0.37708	-0.93542	-0.18542	-1.1417	-0.43125	-0.25208	-1.325	-0.45833	-0.67708	-0.87292	-0.38542	-0.7	-0.72917	-0.3875	-0.98125	-0.29375	290.459	-47.242	244.494	-35.966	170.716	187.292	145.499	273.656	220.305	-19.563	192.548	-27.214	-60.569	-21.015	98.183	-9.068	0.00022712	0.0010248	0.000132	1219.8	1.4724e-05	4.361e-06	793.82	335.57	1.0862e-05	5.4171e-06	222.85	78.108	118.2	48.087	2.2484e-05	36.388	0.0027767	0.0028756	0.00079674	1288.1	3.128e-05	3.1566e-05	891.52	360.08	3.1201e-05	3.1689e-05	283.65	98.02	132.62	53.165	3.1548e-05	45.198	168.203	285.658	223.793	-48.504	69.553	71.249	-50.289	-44.191	-25.112	-27.939	-46.734	-42.707	-39.825	-36.174	140.359	-39.599	-8191	255	
3455.617	1	1	0	0	0.16245	0.12628	0.12649	0.13084	0.18304	0.13696	0.050955	0.40977	0.15043	0.21804	0.18525	0.14331	0.20172	0.16091	0.31794	0.16514	-0.41042	-0.78333	-0.3125	-1.0896	-0.64583	-0.35625	-1.1479	-0.46458	-0.57708	-0.99792	-0.11458	-0.98333	-0.75625	-0.30833	-1.0125	-0.24583	40.917	176.407	264.468	-14.902	27.392	109.009	258.467	-47.393	167.752	163.951	225.473	206.940	-33.894	-25.505	258.365	1.254	0.00054538	0.00086205	0.00033272	1214.7	6.4502e-06	5.2547e-06	792.87	335.99	4.8095e-05	1.5291e-05	223.43	78.665	117.46	48.203	8.3837e-06	36.029	0.0027955	0.0028987	0.00080952	1290.2	3.1591e-05	3.1774e-05	893.6	361.07	3.1484e-05	3.1891e-05	283.55	98.357	132.65	53.053	3.1507e-05	44.687	-15.571	-45.755	242.627	-48.593	86.347	22.875	-50.266	-44.175	53.512	166.555	-46.571	-42.345	-39.739	-35.591	-2.577	-39.397	-8191	255	
3455.737	1	1	0	0	0.059383	0.065587	0.15942	0.082774	0.10849	0.084547	0.041409	0.1269	0.27002	0.32826	0.16707	0.29633	0.025541	0.29667	0.24189	0.24739	-0.11667	-1.0396	-0.27292	-0.96042	-0.54375	-0.072917	-1.2271	-0.53333	-0.51042	-1.1729	-0.18958	-0.825	-0.78542	-0.2625	-1.0562	-0.34375	268.067	60.575	283.161	177.051	291.696	239.633	-8.980	-59.307	296.676	143.713	100.188	258.507	173.631	237.092	75.698	-59.313	0.00042359	0.00092202	0.00047092	1218.5	8.6214e-06	1.6433e-05	790.03	333.63	1.2706e-05	1.0696e-05	220.35	77.448	116.17	48.012	1.7184e-05	35.72	0.0028	0.0028905	0.00080669	1288.8	3.1378e-05	3.1638e-05	890.39	359.76	3.131e-05	3.1605e-05	282.52	97.467	131.74	52.847	3.1406e-05	44.516	185.141	-1.356	105.630	-48.431	93.434	87.009	-50.347	-44.127	12.751	68.091	-47.049	-41.775	-39.523	-35.760	293.400	-39.084	-8191	255	
3455.809	1	1	0	0	0.18465	0.29951	0.18144	0.21024	0.12163	0.28624	0.18272	0.54184	0.23841	0.25963	0.17425	0.094414	0.14494	0.029499	0.19897	0.26438	0.15833	-0.90625	0.01875	-0.79583	-0.9625	-0.091667	-1.2208	-0.92083	-0.29792	-1.0333	-0.21042	-0.87708	-1.0979	-0.28542	-1.0729	-0.60625	284.195	229.113	23.269	261.607	12.477	127.276	140.944	197.986	191.827	92.347	146.481	180.304	4.356	128.062	222.034	205.581	0.00078502	0.0013957	0.00030669	1212.5	2.8067e-05	9.545e-06	788.43	334.06	1.5301e-05	3.9279e-06	218.4	77.904	117.37	47.697	4.3983e-06	35.618	0.0028079	0.0028839	0.00080393	1285.5	3.1549e-05	3.1651e-05	890.62	359.39	3.1695e-05	3.1756e-05	283.01	97.937	132.06	52.635	3.1634e-05	44.423	-49.862	-16.383	62.939	-48.290	4.796	168.160	-50.271	-43.888	121.149	85.321	-46.752	-42.097	-39.363	-35.774	14.166	-39.290	-8191	255	
3455.905	1	1	0	0	0.17447	0.19004	0.21039	0.11832	0.068608	0.072111	0.23989	0.051629	0.1229	0.11689	0.30005	0.11303	0.13853	0.16692	0.31008	0.19089	0.1	-1.1229	-0.19375	-0.61042	-0.83958	-0.23958	-0.98542	-0.86875	-0.14583	-1.0063	-0.35417	-0.54583	-1.1542	-0.21042	-0.93333	-0.6	40.165	193.289	277.963	236.809	69.257	197.475	-26.633	131.493	228.966	-41.290	257.471	263.983	280.911	115.814	283.870	71.828	0.00028991	0.00081577	9.3535e-05	1216.9	6.2317e-06	6.1205e-06	789.67	332.67	1.4653e-05	1.6199e-05	220.34	78.159	116.46	47.845	2.7705e-05	35.67	0.0028211	0.0029045	0.0008073	1288.1	3.1603e-05	3.1916e-05	893.33	359.55	3.1582e-05	3.1969e-05	282.94	97.996	131.67	52.783	3.1596e-05	44.711	22.761	3.220	78.927	-48.424	116.908	295.849	-50.138	-43.894	269.832	147.785	-46.867	-41.997	-39.449	-35.461	12.271	-39.218	-8191	255	
3456.026	1	1	0	0	0.059835	0.065187	0.13522	0.34224	0.56146	0.16798	0.13471	0.34446	0.1822	0.056843	0.24229	0.28727	0.33578	0.36438	0.12448	0.22489	0.058333	-0.93333	-0.49167	-0.62083	-1.0812	-0.15625	-1.0604	-1.025	-0.22917	-0.95833	-0.53333	-0.32708	-1.1667	-0.38125	-0.94167	-0.95208	229.915	262.061	197.722	171.125	-60.319	69.915	261.190	247.146	236.975	128.859	-15.399	31.280	147.541	270.106	83.073	72.887	0.00049294	0.001016	0.00014616	1216.3	2.079e-06	5.455e-06	796.01	333.63	2.5039e-05	6.9616e-06	219.59	77.135	116.36	47.18	1.8178e-05	35.156	0.0028044	0.0028842	0.00080375	1286.2	3.1585e-05	3.175e-05	894.72	359.67	3.1657e-05	3.1889e-05	283.11	97.775	131.79	52.37	3.1668e-05	44.134	120.449	249.597	208.898	-47.984	203.083	33.804	-49.883	-43.855	151.596	178.024	-46.650	-41.886	-39.067	-35.735	-44.554	-39.452	-8191	255	
3456.122	1	1	0	0	0.16817	0.17913	0.1644	0.34568	0.24442	0.11736	0.28401	0.074208	0.18791	0.1248	0.14722	0.1064	0.21	0.059527	0.2509	0.19075	0.39167	-0.93958	-0.58333	-0.6125	-1.1833	-0.18958	-0.725	-1.1792	-0.1	-0.88333	-0.61042	-0.12917	-1.0812	-0.40833	-0.5625	-1.0833	88.545	-15.544	27.286	249.835	34.410	-48.980	208.415	196.085	40.220	84.334	268.149	270.358	183.633	250.728	67.683	22.609	0.00078371	0.0013466	0.00030595	1207.1	2.792e-05	9.4311e-06	783.24	329.57	1.551e-05	8.9312e-06	217.43	76.725	115.21	46.911	1.9755e-05	35.041	0.002798	0.0028801	0.0008058	1279.2	3.1278e-05	3.1423e-05	883.52	355.02	3.0994e-05	3.1389e-05	278.52	96.138	129.86	51.72	3.0869e-05	43.396	59.056	98.836	29.007	-48.194	130.381	-56.132	-49.886	-43.765	16.805	-19.147	-46.462	-41.905	-39.249	-35.234	135.770	-39.566	-8191	255	
3456.218	1	1	0	0	0.16975	0.14008	0.021002	0.034711	0.19968	0.41165	0.32163	0.36838	0.061632	0.054254	0.12442	0.21186	0.092436	0.22859	0.14621	0.084088	0.12917	-0.89167	-0.775	-0.31875	-1.1708	-0.48958	-0.54792	-1.4021	-0.2375	-0.9875	-0.84375	-0.21458	-1.2146	-0.33958	-0.42083	-1.0979	46.078	46.732	283.164	246.349	188.216	-6.206	233.499	227.392	5.317	216.477	284.448	-32.534	36.899	160.863	157.208	150.934	0.00034629	0.00027684	7.0758e-05	1198.8	7.8036e-06	7.457e-06	781	328.36	1.9563e-05	7.6502e-06	216.39	76.419	115.46	46.648	7.7147e-06	35.011	0.0027413	0.0028263	0.00078672	1269	3.0763e-05	3.101e-05	876.69	353.62	3.0608e-05	3.0919e-05	276.78	95.696	129.41	51.369	3.091e-05	43.39	192.857	-37.243	180.431	-48.296	227.123	170.376	-50.042	-43.889	82.785	-40.086	-46.231	-42.301	-39.260	-35.165	140.331	-39.094	-8191	255	
3456.314	1	1	0	0	0.041119	0.057587	0.07959	0.10195	0.15138	0.18787	0.14747	0.13683	0.1439	0.081841	0.11644	0.1625	0.18407	0.11953	0.22402	0.15149	0.16042	-0.88958	-0.82917	-0.42083	-0.93958	-0.57917	-0.41042	-1.1396	-0.091667	-0.79167	-1.0604	-0.041667	-0.94167	-0.7	-0.21042	-1.1417	281.344	162.017	57.518	-55.791	106.362	145.154	242.192	-50.005	133.436	113.211	212.052	280.904	269.720	-28.285	-12.604	-18.625	0.00050448	0.00076124	0.00022966	1205	1.5445e-05	1.0458e-05	780.32	327.89	3.2106e-05	3.3412e-05	220.34	76.599	114.28	46.621	3.3052e-05	35.049	0.0027441	0.0028351	0.00079495	1274	3.1023e-05	3.1202e-05	882.3	354.43	3.1059e-05	3.1343e-05	279.31	96.352	129.33	51.484	3.118e-05	43.517	246.630	285.633	203.875	-48.121	-41.988	296.883	-49.938	-43.886	5.751	100.749	-46.654	-42.317	-39.222	-35.735	108.056	-39.256	-8191	255	
3456.409	1	1	0	0	0.16062	0.13659	0.24392	0.32935	0.33913	0.27074	0.20307	0.16654	0.26625	0.11614	0.21708	0.19853	0.087679	0.11135	0.067074	0.054422	0.1125	-0.48333	-1.0646	-0.24792	-0.89167	-0.70625	-0.56667	-1.0333	-0.325	-0.64167	-1.0312	-0.19792	-0.99375	-1.0938	-0.34583	-1.2458	111.095	174.016	178.948	244.740	230.579	30.689	57.219	278.917	240.204	164.591	-48.100	171.067	172.039	290.465	96.270	89.058	0.00085711	0.0013411	0.00023569	1202.4	1.62e-05	1.0355e-05	783.59	328.78	1.379e-05	1.355e-05	218.19	76.315	115.46	46.618	1.9591e-05	35.143	0.0027581	0.0028363	0.00079413	1273.6	3.0997e-05	3.1288e-05	884	354.46	3.0774e-05	3.1192e-05	279.78	95.883	129.58	51.432	3.1094e-05	43.549	10.969	-47.680	150.712	-48.367	39.542	30.650	-50.395	-43.766	-14.845	53.756	-46.351	-41.930	-38.725	-35.209	273.014	-38.563	-8191	255	
3456.505	1	1	0	0	0.19385	0.21657	0.21952	0.18229	0.15049	0.20877	0.096594	0.20725	0.16439	0.20265	0.36789	0.23787	0.26986	0.047045	0.054741	0.28409	0.12083	-0.56667	-0.92917	-0.225	-0.8	-0.88125	-0.28542	-1.2354	-0.48542	-0.52708	-1.0542	-0.075	-1.0292	-1.0229	-0.05	-1.0417	26.417	-30.968	101.311	246.176	274.921	-50.237	-9.058	190.486	135.911	80.349	293.922	90.273	283.149	290.727	35.587	-0.502	0.0003037	0.0020848	0.00022276	1206.1	6.1866e-06	1.0273e-05	782.06	328.25	1.8928e-05	7.8857e-06	217.66	75.443	114.57	46.042	9.582e-06	34.616	0.0027658	0.0028411	0.00078823	1273	3.0932e-05	3.0821e-05	877.1	352.69	3.0472e-05	3.0701e-05	275.41	94.733	128.63	50.932	3.0532e-05	42.843	-55.732	-13.527	151.981	-48.072	-49.909	8.388	-50.062	-43.808	-29.020	-2.255	-47.010	-42.290	-38.763	-35.396	64.935	-38.912	-8191	255	
3456.601	1	1	0	0	0.13052	0.18017	0.14182	0.22953	0.26763	0.22963	0.27544	0.32697	0.12818	0.16862	0.48509	0.16943	0.29416	0.31723	0.09597	0.20702	-0.19792	-0.18125	-1.0438	-0.27292	-0.80625	-0.84167	-0.27708	-1.2896	-0.39375	-0.29167	-1.1125	-0.37292	-0.70417	-0.90833	-0.18125	-1.1042	180.053	45.124	159.160	-41.726	92.055	9.036	233.294	-41.657	213.612	85.498	213.448	-45.627	276.408	-9.351	211.381	125.975	0.0006209	0.00079812	0.00024984	1200.2	4.0156e-06	1.7155e-05	778.17	328.63	2.2596e-05	9.4133e-06	216.34	75.613	115.16	46.462	1.7035e-05	34.808	0.0027185	0.0027874	0.00078088	1265.7	3.0613e-05	3.0679e-05	875.27	352.24	3.0696e-05	3.0736e-05	276.69	95.021	128.85	51.07	3.054e-05	43.179	-26.829	129.046	-2.377	-48.128	65.687	133.263	-50.200	-43.817	-14.920	106.226	-46.541	-42.157	-39.180	-35.424	281.847	-38.999	-8191	255	
3456.699	1	1	0	0	0.28892	0.21464	0.18018	0.31858	0.20769	0.29072	0.18453	0.31063	0.19807	0.072131	0.31969	0.24484	0.28925	0.135	0.28532	0.33379	-0.325	-0.12292	-1.1896	-0.275	-0.6125	-0.99792	-0.275	-1.0562	-0.56042	-0.3375	-1.2208	-0.29583	-0.50833	-1.1437	-0.21875	-1.0646	132.868	139.417	22.208	271.933	-18.487	196.574	229.783	235.035	33.791	113.360	240.912	271.070	-57.982	265.415	109.078	174.096	0.00018865	0.0019656	0.00014619	1196	2.0042e-05	1.2938e-05	778.48	329.48	1.5418e-05	6.4473e-06	217.38	75.672	114.7	46.367	2.625e-06	34.856	0.002725	0.0028179	0.00077953	1266.5	3.0777e-05	3.1001e-05	879.26	353.71	3.0731e-05	3.1116e-05	277.68	95.708	129.52	51.387	3.1115e-05	43.588	287.439	57.760	251.950	-48.344	198.440	119.120	-49.850	-43.655	-22.879	4.076	-47.127	-42.030	-39.106	-35.321	290.613	-38.626	-8191	255	
3456.818	1	1	0	0	0.23781	0.090375	0.10008	0.11637	0.12742	0.26369	0.12192	0.21503	0.11468	0.12427	0.25156	0.22976	0.17363	0.33466	0.19009	0.38606	-0.43125	-0.1625	-1.0396	-0.50625	-0.48958	-1.125	-0.34792	-0.76667	-0.69583	-0.23542	-1.1604	-0.55833	-0.54792	-1.4333	-0.26875	-0.85	89.460	224.316	204.690	-46.284	285.286	35.814	264.791	222.191	14.416	81.284	257.540	267.536	294.629	-56.455	180.191	279.424	0.00022415	0.00061236	0.0005375	1206.5	1.0149e-05	1.4223e-05	783.94	331.1	3.2104e-05	1.0593e-05	216.84	76.271	114.85	47.072	5.9595e-06	35.466	0.0027854	0.0028708	0.00079746	1276.7	3.1441e-05	3.149e-05	885.17	356.15	3.148e-05	3.165e-05	280.85	96.632	130.37	51.957	3.1427e-05	44.186	265.101	199.715	102.412	-48.269	107.074	168.486	-50.241	-43.570	90.264	251.134	-46.390	-42.788	-39.547	-35.402	266.426	-39.539	-8191	255	
3456.914	1	1	0	0	0.41889	0.18944	0.2557	0.20724	0.17484	0.1773	0.15552	0.39356	0.094156	0.27283	0.094331	0.11902	0.16229	0.2052	0.15492	0.055453	-0.53542	-0.025	-0.99375	-0.70208	-0.35417	-1.2208	-0.4	-0.67292	-0.93333	-0.19583	-0.88958	-0.78333	-0.49375	-1.0792	-0.4	-0.55833	199.773	264.013	277.483	254.746	102.601	-48.239	155.208	238.505	286.820	74.406	-59.675	227.593	-33.216	241.164	258.070	55.490	0.00014952	0.00043058	0.00019365	1206.6	1.5088e-05	1.1746e-05	789.7	330.04	1.1518e-05	3.8355e-06	217.93	77.319	116.08	46.778	1.9303e-05	35.509	0.0028101	0.0028929	0.00080428	1280.3	3.1563e-05	3.1818e-05	889.86	357.4	3.1445e-05	3.171e-05	281.44	97.089	130.83	51.839	3.1644e-05	44.144	12.379	243.155	212.147	-48.535	202.035	110.932	-50.459	-43.837	23.943	215.414	-46.292	-42.378	-39.577	-35.610	61.843	-39.230	-8191	255	
3457.010	1	1	0	0	0.47253	0.3641	0.05027	0.17742	0.26676	0.11991	0.15557	0.11812	0.082129	0.12365	0.2277	0.10897	0.41248	0.12302	0.060949	0.073287	-0.60625	-0.34375	-0.89375	-0.95208	-0.25833	-1.1042	-0.41458	-0.64375	-1.1688	-0.37083	-0.7875	-0.71667	-0.3625	-0.98542	-0.49792	-0.45208	282.119	145.166	244.107	252.478	161.574	181.958	125.070	134.022	96.784	-2.705	146.847	76.897	241.041	-20.994	237.235	126.283	0.00065448	0.0014814	0.00010823	1200.3	7.9523e-06	9.4061e-06	783.12	331.54	2.3316e-05	5.3483e-06	220.48	76.979	115.99	46.95	9.9152e-06	35.785	0.0027755	0.0028829	0.00079788	1273.9	3.1516e-05	3.1557e-05	884.95	357	3.1349e-05	3.1436e-05	280.75	97.159	130.61	52.055	3.1332e-05	44.309	-32.663	61.201	63.099	-48.459	29.619	10.549	-50.555	-43.909	147.887	127.004	-47.021	-42.262	-39.030	-35.236	34.066	-39.201	-8191	255	
3457.106	1	1	0	0	0.018171	0.20807	0.53279	0.25806	0.30222	0.14863	0.26004	0.14275	0.13078	0.27906	0.092824	0.19858	0.1549	0.20849	0.15397	0.24121	-0.675	-0.095833	-0.68542	-0.93542	-0.24583	-1.0271	-0.675	-0.37292	-1.1229	-0.18958	-0.77292	-1.0417	-0.18542	-1.2917	-0.62083	-0.43125	39.480	32.227	125.105	-4.845	116.147	237.220	270.373	262.104	239.694	12.970	-21.837	257.732	180.761	252.943	-6.287	256.000	0.00048748	0.0013343	0.00028244	1208.8	4.9181e-06	2.2134e-05	790.88	331.68	9.5763e-06	9.2071e-06	220.03	77.404	115.23	47.061	6.2094e-06	35.832	0.0028027	0.0028917	0.00080731	1278.3	3.1587e-05	3.1531e-05	889.02	357.18	3.1543e-05	3.1811e-05	282.41	97.735	130.9	52.25	3.1375e-05	44.674	-12.067	290.031	47.111	-48.323	148.927	55.215	-50.264	-43.812	287.535	-56.461	-46.635	-42.158	-39.439	-36.036	277.212	-39.103	-8191	255	
3457.202	1	1	0	0	0.037154	0.12183	0.12923	0.58458	0.23664	0.14446	0.23365	0.26237	0.37228	0.097051	0.16988	0.20483	0.20463	0.10875	0.16748	0.17211	-0.68542	-0.29167	-0.5	-0.96667	-0.17917	-0.9625	-0.7	-0.46875	-0.98958	-0.28542	-0.49375	-1.1292	-0.29375	-0.99375	-0.37083	-0.19792	255.187	193.337	258.261	260.768	-49.970	2.763	260.363	268.354	-47.356	139.096	174.478	212.327	-35.271	165.385	137.882	221.796	0.00077559	0.0013866	0.0002205	1208.7	1.0898e-05	1.4039e-05	791.66	331.79	1.6277e-05	9.8989e-06	222.42	77.491	116.46	47.704	1.2208e-05	36.124	0.0028007	0.002889	0.00080622	1280.6	3.154e-05	3.1773e-05	894.2	358.13	3.1417e-05	3.186e-05	284.2	97.965	131.49	52.574	3.1881e-05	45.022	9.407	10.262	45.458	-48.441	151.840	30.833	-49.992	-43.838	-25.914	228.755	-46.650	-41.937	-39.416	-35.423	103.431	-39.377	-8191	255	
3457.298	1	1	0	0	0.1568	0.13413	0.40453	0.12234	0.25354	0.21806	0.075583	0.491	0.13917	0.14493	0.097045	0.1468	0.052762	0.30709	0.12462	0.14417	-0.71042	-0.20625	-0.57708	-1.0938	-0.20625	-0.9	-0.91458	-0.18125	-1.0812	-0.55417	-0.46042	-1.025	-0.19167	-0.95625	-0.82917	-0.29792	-43.465	-3.507	101.634	256.259	114.595	158.495	57.556	272.785	262.559	176.578	-50.803	154.137	-33.662	288.770	134.685	-39.020	0.0010218	0.00044357	0.00050781	1215.1	9.7114e-06	3.4983e-06	794.12	334.4	8.8607e-06	2.2783e-05	227.05	79.104	117.29	48.245	3.6876e-05	36.594	0.002821	0.0029149	0.00081348	1286.8	3.1825e-05	3.1945e-05	900.41	360.4	3.1758e-05	3.2152e-05	287.32	99.366	132.64	53.138	3.1839e-05	45.433	108.149	254.735	-59.907	-48.338	275.905	63.305	-50.193	-44.046	238.914	-47.967	-46.637	-42.327	-39.669	-35.705	239.864	-39.335	-8191	255	
3457.419	1	1	0	0	0.0080441	0.16846	0.23855	0.18062	0.051296	0.048876	0.11418	0.2953	0.1174	0.26305	0.37594	0.23544	0.21567	0.036085	0.27273	0.10806	-0.71458	-0.55	-0.3125	-1.1021	-0.022917	-0.66875	-0.88333	-0.20208	-1.0229	-0.62917	-0.44792	-1.1521	-0.24375	-0.63125	-1.0896	-0.44167	74.998	-1.152	-48.193	226.202	289.497	-37.174	100.101	-45.076	131.134	118.715	-37.756	-3.994	20.139	-54.495	157.565	32.125	0.00038275	0.0015376	0.00031159	1222.3	4.5439e-06	6.0984e-06	802.35	334.61	1.4806e-05	1.2369e-05	222.42	78.979	118.29	47.759	2.1035e-05	36.551	0.002826	0.0029248	0.00080944	1292.7	3.1723e-05	3.195e-05	900.78	361.2	3.1628e-05	3.1783e-05	285.53	98.977	132.13	52.922	3.153e-05	45.147	34.835	43.406	63.716	-48.565	193.324	59.956	-50.255	-43.655	127.122	69.551	-46.554	-42.147	-39.406	-35.658	-43.565	-39.227	-8191	255	
3457.513	1	1	0	0	0.1928	0.17121	0.18401	0.30504	0.36292	0.19762	0.31169	0.17554	0.48917	0.22604	0.11984	0.089241	0.18163	0.24165	0.26313	0.23202	-0.59375	-0.66458	-0.2625	-1.2979	-0.3625	-0.6	-1.0854	-0.47292	-1.0146	-0.77083	-0.28542	-1.1313	-0.63958	-0.65833	-0.975	-0.32292	-18.339	-31.712	123.760	-41.903	-46.106	18.503	249.137	260.722	239.932	216.578	-36.764	253.931	255.512	-1.716	204.607	150.136	0.00064877	0.0014224	0.00022009	1217.2	1.6416e-05	9.0275e-06	797.57	336.58	2.6719e-05	1.4087e-05	223.16	79.073	117.76	48.078	1.3765e-05	36.559	0.0027896	0.0029001	0.0008048	1288.7	3.1365e-05	3.1597e-05	897.9	361.56	3.1602e-05	3.1649e-05	285.72	98.862	132.52	53.066	3.1584e-05	45.235	98.259	27.985	84.299	-48.390	-27.878	105.873	-50.066	-43.700	297.190	278.710	-46.549	-42.349	-39.604	-35.563	119.032	-39.381	-8191	255	
3457.610	1	1	0	0	0.27088	0.24225	0.29901	0.035692	0.11456	0.13454	0.051308	0.27476	0.36343	0.16705	0.18955	0.064685	0.321	0.18371	0.077332	0.082434	-0.41458	-0.8125	-0.15417	-1.2583	-0.42292	-0.30208	-1.2125	-0.34167	-0.8125	-0.83542	-0.24167	-0.89375	-0.66458	-0.42292	-1.0833	-0.38333	129.715	258.649	190.892	185.638	-23.842	156.677	95.175	235.321	286.163	128.915	99.210	43.692	271.377	165.975	51.324	156.657	0.00083339	0.0012862	0.00057849	1218.3	7.2989e-06	1.3927e-05	800.31	334.48	9.6428e-06	1.3516e-05	221.24	77.843	116.83	47.887	2.0317e-05	36.422	0.0028224	0.0029139	0.00080828	1291.9	3.1633e-05	3.1682e-05	898.53	360.66	3.1676e-05	3.2023e-05	286.44	98.469	131.88	52.849	3.172e-05	45.12	-27.373	-48.301	-57.422	-48.092	243.680	-3.622	-50.019	-43.958	-25.771	9.090	-46.547	-42.180	-39.610	-35.950	285.050	-39.177	-8191	255	
3457.706	1	1	0	0	0.1049	0.38039	0.23479	0.26777	0.17259	0.12613	0.35605	0.19309	0.13368	0.13899	0.17424	0.071992	0.14044	0.33709	0.22158	0.11585	-0.40417	-0.81667	-0.14583	-1.1104	-0.50417	-0.19375	-1.3333	-0.49375	-0.3625	-0.96667	-0.19167	-0.91875	-1.0146	-0.58333	-1.0208	-0.40417	280.840	279.683	75.901	-59.449	124.200	37.178	203.367	18.671	-9.018	91.937	290.206	78.581	-14.065	-51.948	49.130	33.087	0.00041428	0.0003401	0.0003235	1217.5	4.0381e-06	1.6404e-05	794.13	334.07	1.5264e-05	1.4848e-05	223.14	78.356	115.85	47.467	2.7782e-05	36.709	0.0028297	0.0029244	0.0008091	1289.8	3.1804e-05	3.1989e-05	900.84	359.8	3.1814e-05	3.1913e-05	285.88	98.568	131.25	52.644	3.1894e-05	45.235	164.032	256.953	237.780	-48.154	269.608	192.611	-49.886	-43.980	56.974	32.317	-46.736	-41.896	-39.569	-35.446	119.390	-38.754	-8191	255	
3457.802	1	1	0	0	0.20439	0.17622	0.26504	0.25448	0.041717	0.11583	0.19275	0.056983	0.15914	0.2489	0.061287	0.1302	0.15475	0.2712	0.26305	0.10524	-0.34167	-0.85	-0.027083	-1.2292	-0.76667	-0.23542	-1.2208	-0.53542	-0.5625	-1.15	-0.34167	-0.86875	-0.77083	-0.275	-1.0229	-0.38542	213.565	242.139	169.247	226.730	39.248	72.910	206.297	195.501	-61.462	105.895	256.118	180.825	77.223	-35.960	-4.073	292.872	6.466e-05	0.0012406	0.00024625	1220.7	4.0458e-06	1.0978e-05	795.29	332.02	1.0572e-05	8.0532e-06	218.7	77.261	115.35	47.078	1.2824e-05	35.736	0.0028198	0.0029172	0.00081099	1290.4	3.1614e-05	3.1898e-05	896.81	356.94	3.1481e-05	3.1579e-05	282.06	97.149	129.83	51.823	3.1236e-05	44.31	278.944	50.376	14.369	-48.029	-9.542	123.329	-49.892	-43.886	128.021	56.378	-46.655	-41.993	-39.282	-35.594	-47.535	-38.932	-8191	255	
3457.898	1	1	0	0	0.11446	0.25603	0.259	0.20384	0.18978	0.15432	0.22377	0.14002	0.15008	0.19387	0.25703	0.07914	0.21272	0.21054	0.11739	0.23668	-0.23958	-1.0458	-0.20625	-0.975	-1.0333	-0.045833	-1.1938	-0.65625	-0.41458	-1.275	-0.48958	-0.82917	-1.0688	-0.29375	-1.0667	-0.70833	174.378	235.657	-4.400	213.707	92.519	-35.411	10.536	63.025	-30.290	122.266	-10.849	-40.408	267.824	-58.628	132.122	232.537	0.00040871	0.00069232	6.26e-05	1210.5	1.1138e-05	1.8369e-05	792.57	329.23	2.6772e-05	2.0775e-05	219.33	76.677	113.91	46.295	1.6274e-05	35.622	0.0027705	0.0028595	0.00079032	1274.6	3.1124e-05	3.1307e-05	888.61	354.54	3.0971e-05	3.1132e-05	280.1	96.649	128.81	51.3	3.0984e-05	43.919	69.820	26.758	182.845	-48.082	284.698	25.158	-50.085	-43.535	96.978	24.270	-46.447	-41.488	-38.526	-34.948	216.093	-39.062	-8191	255	
3458.019	1	1	0	0	0.17844	0.15768	0.034411	0.11092	0.3048	0.31665	0.25967	0.064808	0.27913	0.14161	0.15169	0.13606	0.08412	0.25305	0.052247	0.013932	0.12917	-1.0667	-0.22917	-0.8625	-0.98125	-0.21667	-0.92917	-0.99375	-0.3125	-1.1313	-0.50208	-0.53125	-1.2042	-0.11667	-0.90417	-0.95	28.676	76.727	223.557	-13.614	184.310	95.731	186.700	265.506	222.874	130.609	58.420	221.510	177.323	-33.012	277.562	163.665	0.00099817	0.00082388	0.00040244	1201.7	1.2119e-05	1.1574e-05	790.63	329.79	1.1758e-05	1.3669e-05	220.38	76.799	114.82	46.243	1.212e-05	35.328	0.0027559	0.0028453	0.00078982	1272.6	3.0936e-05	3.1261e-05	889.98	354.64	3.1213e-05	3.1668e-05	280.93	96.985	129.96	51.453	3.1383e-05	44.048	294.943	-46.161	133.382	-48.400	22.580	-20.030	-49.596	-43.488	167.661	153.421	-46.834	-41.813	-39.531	-35.668	167.227	-39.082	-8191	255	
3458.115	1	1	0	0	0.17223	0.1642	0.20072	0.18639	0.28936	0.28475	0.17708	0.18163	0.11062	0.16573	0.18699	0.099745	0.24283	0.20511	0.23383	0.089581	0.014583	-1.1167	-0.52083	-0.64792	-1.175	-0.060417	-0.83333	-1.0021	-0.28333	-1.0625	-0.3625	-0.42708	-1.3292	-0.19375	-0.70208	-0.99375	253.564	276.551	-24.519	45.442	34.562	82.505	99.781	252.180	259.821	279.033	197.130	233.601	256.435	263.277	-51.111	74.990	0.0003674	0.0013214	0.0002016	1211.8	9.0149e-06	2.8569e-06	786.4	327.18	1.4348e-05	1.1952e-05	219.66	77.062	114.88	46.134	1.6802e-05	35.437	0.0028047	0.002873	0.00080124	1279.5	3.1301e-05	3.1505e-05	888.25	354.04	3.1222e-05	3.1536e-05	280.1	96.924	129.28	51.395	3.1327e-05	44.116	110.465	102.615	59.376	-47.953	15.306	213.861	-49.562	-43.418	-45.821	123.317	-46.427	-42.101	-38.930	-35.302	17.298	-39.185	-8191	255	
3458.211	1	1	0	0	0.068356	0.14018	0.22836	0.1904	0.015576	0.21734	0.37905	0.34061	0.078078	0.37253	0.122	0.16561	0.13453	0.03072	0.093956	0.13278	0.12708	-0.90417	-0.56667	-0.44167	-1.25	-0.22917	-0.92708	-1.0146	-0.21042	-0.9875	-0.575	-0.40208	-1.1396	-0.375	-0.6125	-0.97917	31.962	-55.819	72.829	218.935	201.554	113.400	162.755	203.359	70.897	-28.791	66.831	-49.673	-38.245	167.975	158.686	198.719	0.00041705	0.0011819	0.00036616	1208.7	1.3641e-05	7.9551e-07	792.66	328.95	1.3507e-05	1.6849e-05	217.71	77.514	114.16	46.435	3.7458e-06	35.26	0.0027913	0.002877	0.00080418	1277.1	3.1307e-05	3.1521e-05	893.48	354.98	3.1144e-05	3.1459e-05	279.86	96.564	129.04	51.25	3.0995e-05	43.76	160.095	96.261	-12.958	-48.192	-7.118	259.865	-50.337	-44.012	94.565	101.988	-46.534	-41.921	-39.409	-35.476	238.759	-39.075	-8191	255	
3458.305	1	1	0	0	0.11711	0.20165	0.0059258	0.44471	0.29193	0.11434	0.11868	0.24245	0.25505	0.049983	0.45911	0.24487	0.27561	0.021268	0.019661	0.12401	0.24583	-0.84792	-0.60417	-0.34167	-1.2417	-0.27708	-0.56667	-1.0354	-0.15625	-0.95208	-0.84583	-0.36875	-1	-0.48125	-0.3	-1.1833	121.154	27.725	164.909	287.908	288.221	121.371	209.956	278.777	28.631	221.323	269.294	211.917	7.288	-20.856	-61.071	203.886	0.00018592	0.001242	5.9916e-05	1202	1.3896e-05	1.4362e-05	773.27	325.53	2.8917e-05	1.2127e-05	215.64	76.689	113.98	46.107	8.3463e-06	35.026	0.0027404	0.002823	0.00078526	1269.7	3.0707e-05	3.0721e-05	877.58	351.55	3.0605e-05	3.0868e-05	276.57	95.183	127.9	50.772	3.0613e-05	43.207	250.503	33.300	53.707	-48.255	-57.332	166.548	-50.388	-44.029	47.518	39.413	-47.130	-42.377	-39.758	-35.561	93.306	-39.299	-8191	255	
3458.379	1	1	0	0	0.028935	0.037387	0.16088	0.2835	0.075515	0.23403	0.089486	0.15822	0.18791	0.019287	0.18569	0.066842	0.11279	0.11534	0.13102	0.23889	0.083333	-0.69792	-0.94583	-0.3	-1.1104	-0.40833	-0.58542	-1.2625	-0.095833	-1.0312	-0.96042	-0.43333	-1.2792	-0.81667	-0.49167	-1.0479	-21.389	134.842	102.892	260.256	97.885	97.071	251.972	75.496	-21.714	-19.216	223.261	42.831	8.718	272.022	4.147	211.116	0.00075498	0.00080487	0.00012801	1196.2	8.2188e-07	1.2448e-05	785.35	325.34	1.1551e-05	1.9154e-05	216.31	76.013	113.92	46.083	1.8875e-05	34.641	0.0027056	0.0028035	0.00078164	1265.8	3.0635e-05	3.0795e-05	879.27	350.98	3.0424e-05	3.0795e-05	276.08	95.341	128.22	50.849	3.0593e-05	43.272	-17.919	244.482	60.046	-48.381	251.875	61.715	-49.977	-43.836	76.819	273.603	-47.211	-42.041	-39.129	-35.970	-22.193	-39.322	-8191	255	
3458.498	1	1	0	0	0.13155	0.17177	0.26468	0.25946	0.19324	0.21196	0.065758	0.2422	0.23826	0.16865	0.1115	0.071306	0.13623	0.17821	0.1235	0.12457	0.1625	-0.70833	-1.0479	-0.23333	-1.1479	-0.69583	-0.54375	-1.3354	-0.2875	-0.64167	-1.0271	-0.1375	-1.1354	-0.71667	-0.09375	-1.0667	-35.197	-49.883	291.356	223.824	14.741	209.298	254.709	197.324	-41.826	-12.609	-2.336	278.378	201.184	250.309	93.608	268.094	0.00054989	0.0010947	0.00014008	1203.9	2.6525e-06	1.0119e-05	782.5	328.62	8.1795e-06	5.7106e-06	218.27	76.318	114.09	46.415	2.7585e-05	35.21	0.0027252	0.0028343	0.00078656	1267.6	3.0818e-05	3.098e-05	881.86	353.2	3.0665e-05	3.1038e-05	278.83	95.765	128.83	51.19	3.0624e-05	43.721	292.224	-61.898	52.855	-48.656	-35.929	18.400	-50.113	-44.150	-2.915	255.596	-46.375	-42.270	-39.105	-35.892	202.681	-39.300	-8191	255	
3458.594	1	1	0	0	0.047535	0.20971	0.30944	0.51677	0.14266	0.082769	0.033591	0.20702	0.14813	0.088498	0.17704	0.20785	0.10344	0.18105	0.2128	0.071421	0.089583	-0.77083	-0.98125	-0.31667	-1.0542	-0.87292	-0.23542	-1.2479	-0.33125	-0.36667	-1.1833	-0.31042	-0.92292	-0.85625	-0.15417	-1.1479	83.410	189.011	92.163	228.533	167.335	137.111	268.561	220.509	208.638	170.750	80.433	156.242	152.973	249.668	241.689	117.712	0.00056006	0.0011203	0.00015649	1204.5	1.6766e-05	1.3614e-05	782.59	329.5	1.5535e-05	8.2892e-06	217.68	77.249	114.54	46.689	7.8948e-06	35.407	0.0027399	0.0028004	0.00078722	1271.4	3.0764e-05	3.0816e-05	881.54	353.49	3.0604e-05	3.0822e-05	278.4	96.05	129.45	51.401	3.0713e-05	43.872	236.197	12.900	103.127	-48.329	-7.403	59.168	-50.704	-44.617	3.062	65.252	-47.043	-42.627	-39.841	-35.851	56.529	-39.927	-8191	255	
3458.690	1	1	0	0	0.19373	0.075543	0.16191	0.59033	0.16707	0.054997	0.23327	0.22372	0.042892	0.23603	0.21943	0.28339	0.30157	0.26991	0.28375	0.42407	0.0020833	-0.40208	-0.99792	-0.41667	-0.71667	-0.86667	-0.19167	-1.1063	-0.67708	-0.39375	-1.0958	-0.49375	-0.70417	-1.125	-0.175	-0.98333	186.751	236.403	68.270	243.201	-17.348	130.280	190.882	223.537	68.205	-17.919	10.906	289.239	168.348	218.343	296.211	283.572	0.00022513	0.0014419	0.00050599	1204.1	1.5466e-05	1.4535e-05	783.92	328.63	1.3125e-05	1.0098e-05	216.66	76.347	114.56	46.401	1.8435e-05	35.499	0.002728	0.0027982	0.00078186	1269.7	3.0346e-05	3.0767e-05	879.72	352.92	3.0366e-05	3.0608e-05	276.9	95.432	128.72	51.09	3.021e-05	43.496	19.814	252.124	49.045	-48.832	-4.442	28.832	-50.485	-44.219	80.950	60.429	-46.589	-42.608	-40.128	-36.048	52.287	-39.369	-8191	255	
3458.786	1	1	0	0	0.080437	0.14215	0.24098	0.16926	0.091179	0.078732	0.11411	0.070385	0.17669	0.37087	0.010253	0.18586	0.14808	0.17242	0.3641	0.045796	-0.27292	-0.20833	-0.98333	-0.27292	-0.66875	-0.925	-0.2625	-1.1792	-0.62708	-0.17083	-1.2083	-0.57917	-0.50625	-1.1063	-0.23542	-1.0083	-23.221	136.927	27.104	-19.138	126.679	74.649	209.984	137.355	-60.697	149.306	171.327	74.348	172.371	43.770	-1.251	82.164	0.00028478	0.0024543	5.0271e-05	1199.9	9.3266e-06	5.1877e-06	782.01	327.47	1.6382e-05	1.1995e-05	218.66	76.205	115.02	46.755	1.6085e-05	35.633	0.0026852	0.002775	0.00076895	1266	3.0112e-05	3.0338e-05	878.25	353.24	3.0092e-05	3.0217e-05	276.56	95.654	128.86	51.372	3.0152e-05	43.757	13.632	-51.965	143.789	-48.906	-3.235	82.823	-50.569	-44.126	88.705	253.854	-47.377	-42.033	-39.965	-36.156	-59.551	-39.661	-8191	255	
3458.907	1	1	0	0	0.23471	0.10945	0.15495	0.11429	0.072971	0.24651	0.24221	0.13831	0.1594	0.17619	0.06149	0.18434	0.04298	0.13567	0.18104	0.2912	-0.34375	-0.18958	-1.1458	-0.525	-0.46042	-1.0271	-0.43125	-1.0375	-0.84375	-0.22708	-1.1875	-0.6875	-0.39375	-1.4375	-0.41875	-0.725	172.271	199.116	242.035	87.780	263.580	93.390	223.371	187.693	291.159	-42.828	-48.234	238.421	-27.306	232.644	7.751	200.426	0.00063258	0.0014728	0.00021509	1200.6	2.0886e-05	9.8597e-06	789.12	330.05	6.2159e-06	1.0487e-05	221	77.076	115.06	46.917	9.707e-06	35.663	0.0026777	0.0027612	0.00076811	1268.6	2.9994e-05	3.0223e-05	880.31	353.68	3.0037e-05	3.036e-05	278.11	96.259	129.55	51.728	3.0309e-05	44.013	-23.805	-20.797	94.701	-48.656	76.105	120.083	-50.520	-44.197	123.722	264.919	-47.243	-42.576	-39.306	-36.053	188.481	-39.525	-8191	255	
3458.978	1	1	0	0	0.070036	0.28681	0.14903	0.22509	0.11208	0.23143	0.16045	0.36505	0.28184	0.24745	0.061785	0.075656	0.16734	0.17109	0.17734	0.074945	-0.24583	-0.29375	-0.975	-0.81667	-0.24792	-1.2792	-0.24167	-0.86875	-0.99792	-0.24375	-1.0771	-0.49167	-0.26667	-1.2229	-0.16042	-0.70208	97.418	-15.050	252.999	277.490	174.776	192.836	219.942	282.826	149.779	164.174	253.350	2.122	150.817	7.197	239.621	43.756	0.0010006	0.00028582	0.00037591	1208	3.9175e-06	5.785e-06	790.36	331.06	1.9492e-05	1.0849e-05	221.9	77.941	115.64	47.433	2.2239e-05	36.317	0.0026927	0.0027819	0.00077575	1274.1	3.0319e-05	3.0562e-05	886	355.65	3.0352e-05	3.0458e-05	281.14	97.158	130.13	52.169	3.0742e-05	44.632	-26.555	152.899	17.488	-48.751	271.882	161.587	-50.450	-44.023	33.025	144.720	-47.092	-42.149	-39.832	-35.687	-28.119	-39.235	-8191	255	
3459.099	1	1	0	0	0.22167	0.24726	0.13978	0.09817	0.15281	0.14144	0.045135	0.22022	0.04529	0.14915	0.044717	0.11697	0.11008	0.066298	0.19372	0.26214	-0.82083	-0.20625	-0.95833	-0.80833	-0.33125	-1.2271	-0.40625	-0.6125	-1.0562	-0.17083	-0.91667	-0.92708	-0.28333	-1.2625	-0.49792	-0.54792	-9.139	36.925	8.414	127.812	-31.674	181.021	143.160	243.122	3.168	-9.544	78.518	101.484	46.289	26.068	102.839	-35.244	0.00071171	0.00071069	0.00023609	1211.8	2.4648e-05	1.8357e-05	800.6	333.92	6.9511e-06	2.7499e-06	222.98	77.86	116.35	47.069	2.2715e-05	36.084	0.0027385	0.0028432	0.0007887	1282.2	3.0954e-05	3.1228e-05	896.72	357.56	3.0941e-05	3.1435e-05	283.13	97.917	131.12	52.109	3.1022e-05	44.579	-42.295	185.605	66.002	-48.660	156.134	267.276	-50.535	-43.993	92.034	106.855	-46.776	-41.858	-39.729	-35.634	-33.753	-39.309	-8191	255	
3459.195	1	1	0	0	0.21922	0.35029	0.26562	0.04354	0.0086769	0.41489	0.24476	0.23388	0.2002	0.164	0.017899	0.16714	0.29867	0.61328	0.16842	0.060972	-0.5875	-0.091667	-0.85	-0.92917	-0.17083	-0.98958	-0.53958	-0.65208	-1.1021	-0.3375	-0.86667	-0.84375	-0.35625	-1.0625	-0.74375	-0.42292	284.843	172.000	207.555	72.386	49.717	193.731	288.299	271.510	137.316	25.087	108.549	-51.835	-23.643	248.262	42.445	273.692	0.00070979	0.001286	0.00019444	1205.8	1.9281e-05	1.0369e-05	796.96	331.66	9.2859e-06	7.5073e-06	219.97	78.116	115.53	47.404	1.129e-05	35.937	0.0027694	0.0028478	0.00079566	1277.8	3.0925e-05	3.1179e-05	892.63	357.63	3.0919e-05	3.1282e-05	282.64	97.592	130.91	52.347	3.1294e-05	44.637	18.969	-29.942	295.907	-48.576	101.715	76.066	-50.657	-44.028	290.582	138.716	-47.210	-42.479	-39.777	-35.917	1.004	-39.881	-8191	255	
3459.291	1	1	0	0	0.10874	0.1183	0.22316	0.057643	0.09292	0.19992	0.11747	0.068812	0.025676	0.15865	0.18128	0.13332	0.16708	0.33005	0.091117	0.048457	-0.87083	-0.070833	-0.5625	-1.0792	-0.25208	-1.1625	-0.89792	-0.35625	-0.99375	-0.57292	-0.78542	-1.0667	-0.16875	-0.90417	-0.82917	-0.35417	52.371	-51.856	109.277	8.523	2.070	45.621	-50.912	47.477	251.519	171.786	-35.662	282.986	13.748	295.422	170.982	31.517	0.00065498	0.001406	0.00031768	1215.8	4.128e-06	1.2655e-05	787.02	332.86	2.0798e-05	3.9148e-06	221.25	79.023	116.11	47.699	1.9375e-06	36.134	0.0027868	0.002865	0.00079796	1284.4	3.1337e-05	3.1612e-05	895.13	358.83	3.1411e-05	3.1697e-05	284.41	98.251	131.54	52.474	3.1509e-05	44.713	227.859	214.880	63.590	-48.970	50.354	182.705	-50.747	-44.084	192.751	239.343	-47.056	-42.815	-39.767	-35.535	61.512	-39.809	-8191	255	
3459.388	1	1	0	0	0.32197	0.15044	0.16937	0.32401	0.10024	0.1943	0.15026	0.3614	0.096819	0.25241	0.1973	0.22562	0.29168	0.33597	0.34686	0.073912	-0.80208	-0.41875	-0.64167	-1.3229	-0.28333	-0.87083	-0.95	-0.1875	-1.05	-0.4125	-0.65208	-1.0604	-0.32708	-0.88958	-1.0396	-0.30833	140.683	40.686	191.656	264.252	274.721	-39.793	235.781	248.487	122.771	15.545	86.465	297.019	286.432	-55.713	-40.776	187.173	0.00052196	0.00068646	0.00026625	1214.9	1.9192e-05	3.8202e-06	803.4	335.62	2.0906e-05	1.2095e-05	224.29	78.606	116.91	47.651	1.7805e-05	36.446	0.0027806	0.0028931	0.00080258	1287.7	3.1436e-05	3.1906e-05	900.87	360.53	3.1407e-05	3.1673e-05	285.66	98.609	131.92	52.696	3.1522e-05	45.123	209.300	179.314	101.959	-48.391	156.753	142.326	-50.286	-43.938	33.544	-40.052	-46.852	-42.378	-39.480	-35.658	30.850	-38.828	-8191	255	
3459.506	1	1	0	0	0.15081	0.27084	0.29051	0.24761	0.21469	0.26348	0.12137	0.10602	0.23035	0.19561	0.35297	0.045816	0.24592	0.3037	0.10356	0.15224	-0.77083	-0.57292	-0.23125	-1.1271	-0.26458	-0.86458	-1.0917	-0.2375	-1.0896	-0.79792	-0.40833	-1.125	-0.26458	-0.675	-0.81667	-0.10625	160.866	-52.084	118.817	-34.281	-54.880	-22.217	33.087	171.681	214.251	292.911	251.962	116.730	258.833	189.770	-54.143	139.097	0.00037561	0.0013837	0.00031847	1219.8	2.6246e-06	1.1662e-05	803.84	334.01	1.4049e-05	2.3309e-06	222.26	77.977	116.9	47.364	1.3538e-05	36.265	0.0028101	0.0028816	0.00080336	1288.9	3.1444e-05	3.175e-05	902.31	359.78	3.1434e-05	3.1669e-05	285.48	98.813	131.51	52.534	3.1584e-05	44.867	-1.766	26.294	70.976	-48.512	271.154	107.567	-50.405	-43.940	-17.649	90.872	-47.112	-41.760	-39.567	-35.681	66.530	-39.433	-8191	255	
3459.578	1	1	0	0	0.1503	0.080359	0.21077	0.27949	0.35525	0.28845	0.29611	0.25974	0.11032	0.017113	0.32087	0.13472	0.26447	0.11233	0.0307	0.12137	-0.59375	-0.58125	-0.1375	-1.0979	-0.32292	-0.64167	-0.975	-0.2375	-0.89792	-0.65208	-0.18125	-1.3042	-0.425	-0.51458	-0.99375	-0.072917	-15.180	76.228	271.478	-50.655	154.049	271.091	192.197	244.407	124.368	157.057	203.135	79.084	256.482	-28.446	153.403	249.680	0.0008324	0.00039629	0.00038791	1216.3	8.4533e-06	1.2518e-05	789.04	333.8	1.1035e-05	5.0352e-06	221.23	77.397	116.4	47.078	7.8119e-06	35.564	0.002802	0.0028691	0.00080207	1283.4	3.1356e-05	3.1499e-05	891.54	358.5	3.1155e-05	3.1375e-05	282.8	97.228	130.79	51.945	3.1237e-05	44.048	26.188	192.703	-32.550	-48.747	-59.278	59.897	-50.647	-44.075	156.515	-23.616	-46.879	-42.364	-39.770	-35.941	130.543	-39.343	-8191	255	
3459.674	1	1	0	0	0.18119	0.16888	0.31912	0.1868	0.10132	0.20542	0.18976	0.25263	0.17592	0.23087	0.20384	0.1989	0.15442	0.17569	0.064722	0.11265	-0.46458	-0.78333	-0.14583	-1.3	-0.5	-0.37083	-1.1063	-0.08125	-0.87708	-0.97292	-0.26458	-1.1083	-0.61667	-0.33958	-0.95	-0.375	16.178	154.090	191.805	261.132	206.350	69.419	-20.994	262.385	66.790	230.359	244.335	21.041	23.781	286.374	17.429	171.582	0.00085574	0.0016904	0.00030458	1210.3	2.2649e-05	5.4143e-06	794.31	330.45	9.1283e-06	1.9362e-05	218.74	76.696	115.57	46.999	1.3947e-05	35.353	0.0027854	0.0028724	0.00080419	1280.1	3.1344e-05	3.1604e-05	890.57	356.15	3.1366e-05	3.1552e-05	281.04	96.885	130.35	51.762	3.1427e-05	43.984	253.598	-59.320	59.674	-48.505	94.591	17.632	-50.108	-44.288	208.491	16.876	-46.595	-42.287	-39.633	-35.464	170.662	-39.442	-8191	255	
3459.795	1	1	0	0	0.2724	0.34239	0.053996	0.32243	0.22473	0.1126	0.15122	0.36055	0.19388	0.17326	0.21442	0.1097	0.11495	0.23394	0.17946	0.22719	-0.32292	-0.9375	-0.24583	-1.0604	-0.49583	-0.42292	-1.1542	-0.22708	-0.75625	-1.0646	-0.079167	-0.80208	-0.59583	-0.41042	-1.0208	-0.21458	25.201	12.365	-19.707	232.404	196.727	100.378	200.322	273.767	68.376	232.879	159.647	240.177	4.696	-44.175	-5.644	213.374	0.00094353	0.00052942	0.00025808	1202.4	1.5904e-05	3.9565e-06	786.92	330.48	6.3422e-06	5.4893e-06	216.98	76.5	114.98	46.905	1.3658e-05	35.309	0.0027895	0.0028796	0.00080445	1276.8	3.1265e-05	3.1587e-05	892.06	355.66	3.1331e-05	3.1577e-05	281.59	96.769	130.11	51.681	3.1526e-05	44.218	-53.420	56.808	2.783	-48.545	184.661	211.263	-49.900	-44.095	239.808	-26.422	-46.576	-42.275	-39.309	-35.810	-41.358	-39.654	-8191	255	
3459.891	1	1	0	0	0.058949	0.075926	0.061569	0.31017	0.2912	0.18926	0.30573	0.2608	0.17703	0.31713	0.23782	0.27708	0.17727	0.35118	0.083281	0.1565	-0.020833	-1.0938	-0.19792	-1.25	-0.675	-0.22083	-1.25	-0.39583	-0.69167	-1.1646	-0.35	-0.81042	-0.97708	-0.17917	-1.0812	-0.40625	161.049	245.481	17.487	-45.559	20.014	111.435	245.564	225.385	219.137	247.407	42.783	-41.322	104.019	296.576	-1.505	201.235	0.00030124	0.00088123	0.00038426	1206.6	9.5382e-06	1.5412e-05	786.25	328.73	1.81e-05	1.4242e-05	219.34	77.34	115.04	46.425	1.591e-05	35.463	0.0028106	0.0028854	0.00080934	1276.7	3.1678e-05	3.2064e-05	892.37	356.04	3.1814e-05	3.1707e-05	281.94	97.292	129.91	51.581	3.1569e-05	44.257	37.505	12.030	-7.680	-48.631	296.217	15.020	-50.288	-43.918	-39.447	291.567	-46.676	-42.485	-39.607	-35.704	273.528	-39.396	-8191	255	
3459.987	1	1	0	0	0.18973	0.078756	0.088617	0.15293	0.34433	0.30356	0.17942	0.36744	0.18265	0.24468	0.24031	0.095266	0.29994	0.11695	0.16468	0.28586	0.0125	-1.225	-0.24375	-0.80625	-0.98125	-0.22292	-1.0729	-0.56458	-0.48333	-1.0417	-0.19583	-0.84583	-0.94792	-0.37917	-1.05	-0.57708	277.283	94.955	-60.514	275.281	284.039	181.257	232.400	222.889	254.804	28.688	273.363	-1.980	200.533	278.629	195.352	187.055	0.00060742	0.00037469	0.00012757	1202.3	6.8735e-06	1.6586e-05	794.55	329.38	1.7195e-05	1.0271e-05	215.67	76.25	114.75	46.058	2.4657e-05	34.698	0.0028068	0.0029024	0.00080729	1276	3.1604e-05	3.1872e-05	891.49	354.47	3.1337e-05	3.1661e-05	279.95	96.207	129.19	51.108	3.1243e-05	43.326	-4.233	88.042	257.333	-48.398	149.350	-49.440	-49.680	-44.184	100.627	65.663	-46.860	-41.488	-39.611	-35.332	30.906	-39.356	-8191	255	
3460.083	1	1	0	0	0.19958	0.020059	0.19167	0.35193	0.038754	0.37706	0.25375	0.09446	0.10724	0.25528	0.22084	0.43928	0.12854	0.13971	0.050729	0.2608	-0.070833	-1.1437	-0.3	-0.775	-1.0479	-0.15	-1.0104	-0.71875	-0.22917	-0.98333	-0.35625	-0.65208	-1.225	-0.2125	-0.76042	-0.84792	-0.080	-61.140	210.907	277.579	-30.975	8.229	207.723	266.647	261.512	72.974	170.549	270.726	148.443	220.650	40.526	79.531	0.00053101	0.00058325	0.00028766	1195.4	1.5019e-05	6.9068e-06	784.35	328.54	1.308e-05	4.1694e-06	214.87	76.274	113.43	45.732	1.7872e-05	34.866	0.0027736	0.0028497	0.00079529	1268.2	3.0956e-05	3.114e-05	881.37	352.54	3.1002e-05	3.1182e-05	277.24	95.644	128.51	50.792	3.1138e-05	43.308	-15.498	210.743	212.791	-48.240	40.625	77.259	-50.126	-43.983	111.706	273.817	-46.963	-41.803	-39.354	-35.964	-18.742	-39.342	-8191	255	
3460.202	1	1	0	0	0.25358	0.11201	0.2837	0.12385	0.10822	0.16599	0.2401	0.47791	0.17963	0.17868	0.36815	0.38631	0.13522	0.042321	0.34449	0.09928	-0.052083	-0.9875	-0.4875	-0.36042	-1.0271	-0.4125	-1.0604	-0.83958	-0.12917	-1.2021	-0.41667	-0.48333	-1.0729	-0.21042	-0.76042	-0.78958	211.334	272.616	16.759	-9.368	-35.894	-53.983	226.459	274.585	127.523	196.188	198.510	86.890	-7.104	10.163	209.716	182.648	0.00019523	0.0007348	0.00036314	1204	6.9491e-06	1.4784e-05	784.19	327.25	1.8682e-05	2.4391e-05	217.17	76.188	114.09	46.427	3.2185e-07	34.872	0.0027578	0.0028444	0.00079217	1269.5	3.0854e-05	3.1126e-05	882.28	351.99	3.0934e-05	3.1084e-05	277.5	95.747	128.66	51.063	3.0767e-05	43.465	-50.102	-44.735	8.144	-48.161	162.646	56.845	-50.172	-44.183	259.213	121.590	-46.297	-41.536	-39.453	-35.929	20.755	-39.375	-8191	255	
3460.276	1	1	0	0	0.031463	0.24253	0.19604	0.34875	0.14177	0.20136	0.12965	0.16489	0.07448	0.18433	0.095908	0.30754	0.13709	0.043733	0.30147	0.070972	0.25417	-1.0833	-0.47708	-0.57917	-1.1708	-0.14792	-0.87292	-1.0417	-0.23333	-1.0604	-0.61042	-0.225	-1.0917	-0.31042	-0.675	-0.89375	62.737	72.269	295.425	284.958	68.931	273.122	194.103	152.941	262.329	176.293	51.788	66.180	249.184	-6.866	274.490	110.916	0.00053719	0.0011084	0.00029619	1202.3	2.0789e-05	1.636e-05	788.5	329.31	5.0976e-06	2.4331e-05	217.55	76.809	114.27	46.361	1.0956e-05	35.515	0.002746	0.002834	0.00078952	1270.5	3.0751e-05	3.1034e-05	885.74	353.45	3.0794e-05	3.134e-05	278.15	96.291	129.34	51.194	3.1024e-05	43.871	179.898	113.506	292.418	-48.571	156.403	248.573	-50.068	-43.835	-23.919	145.055	-46.078	-41.865	-39.285	-35.498	2.461	-38.988	-8191	255	
3460.372	1	1	0	0	0.20104	0.22986	0.16198	0.32774	0.1723	0.20567	0.1988	0.13095	0.12553	0.14093	0.17547	0.17074	0.1481	0.23979	0.094273	0.09556	0.15208	-0.975	-0.63958	-0.24792	-1.2208	-0.46667	-0.75417	-1.1729	-0.16667	-0.84583	-0.95833	-0.43542	-1.0521	-0.58125	-0.59375	-1.3229	-40.106	111.917	52.738	287.198	264.447	94.487	229.046	10.158	-13.456	41.684	-7.309	52.301	292.430	-46.442	184.489	200.327	0.00089493	0.00062526	0.00011731	1201.6	1.7004e-05	2.759e-05	787.15	328.31	2.1595e-05	3.6559e-06	217.64	76.655	114.69	46.177	1.3253e-05	35.34	0.0027623	0.0028461	0.00079779	1272.1	3.1272e-05	3.1384e-05	888.77	354.46	3.1232e-05	3.14e-05	280.36	96.717	129.87	51.224	3.107e-05	43.83	143.383	66.868	151.970	-48.306	128.220	80.462	-49.801	-44.040	150.570	88.020	-46.217	-42.219	-39.196	-35.577	140.168	-39.103	-8191	255	
3460.468	1	1	0	0	0.099199	0.27857	0.19005	0.19541	0.062314	0.041257	0.12599	0.10472	0.015865	0.27235	0.28883	0.098497	0.17995	0.334	0.090843	0.31214	0.1375	-0.8625	-0.74167	-0.34375	-1.1437	-0.55208	-0.57708	-1.1583	-0.13958	-0.75833	-0.84583	-0.027083	-1.0146	-0.53958	-0.18333	-1.1437	6.324	-18.876	-18.402	236.062	80.769	44.990	291.664	238.189	133.445	74.050	233.416	-61.096	282.315	-57.418	-39.276	-15.597	0.00065833	0.00032702	0.00016513	1204.2	1.5291e-05	6.2539e-06	783.05	330.81	1.7142e-05	2.0733e-05	216.15	75.8	114.36	46.546	1.3283e-05	35.309	0.0027609	0.0028435	0.00079177	1270.7	3.0947e-05	3.1019e-05	883.07	354.61	3.1115e-05	3.1381e-05	278.6	96.256	129.49	51.369	3.1142e-05	43.819	-23.091	208.727	17.969	-48.104	59.317	-30.728	-49.877	-43.907	130.861	188.497	-46.374	-42.129	-39.281	-35.832	295.710	-39.356	-8191	255	
3460.587	1	1	0	0	0.09906	0.21759	0.11907	0.027163	0.23249	0.056604	0.22916	0.12923	0.29795	0.19205	0.18414	0.31734	0.256	0.25653	0.16719	0.21734	0.095833	-0.7875	-0.925	-0.275	-1.175	-0.52708	-0.51875	-1.3708	-0.34583	-0.75625	-1.1479	-0.15833	-0.93125	-0.74375	-0.1	-1.2563	158.028	-22.148	-6.906	107.701	144.454	93.357	0.872	227.461	227.787	150.964	207.101	285.243	286.791	250.933	77.793	284.840	0.00059535	0.0013376	0.00034422	1200.2	9.9513e-06	3.3865e-06	785.46	329.91	2.4785e-05	9.7816e-06	218.44	76.803	115.78	46.771	8.5902e-06	35.859	0.0027736	0.0028549	0.00080193	1269.4	3.1294e-05	3.1537e-05	884.82	355.53	3.1257e-05	3.155e-05	280.91	97.082	130.57	51.808	3.1572e-05	44.327	-19.046	240.536	265.995	-48.330	157.613	126.227	-50.176	-43.980	-9.175	217.495	-46.731	-42.103	-39.179	-35.592	28.461	-39.279	-8191	255	
3460.683	1	1	0	0	0.11409	0.16291	0.051438	0.22241	0.15785	0.18256	0.18651	0.18961	0.12438	0.30623	0.18207	0.20842	0.28224	0.1988	0.31065	0.21715	-0.11875	-0.59375	-1.0083	-0.38958	-0.76667	-0.67292	-0.42917	-1.1458	-0.30625	-0.39792	-1.2104	-0.3	-0.99375	-0.80208	0.05	-1.2979	-24.177	166.704	25.213	236.865	185.751	101.289	239.565	258.628	291.076	252.768	90.283	254.208	282.737	277.927	94.021	-34.017	0.0007602	0.00085357	0.0002142	1203.1	7.355e-06	1.3783e-06	792.02	332.64	7.1792e-06	1.8597e-05	218.16	77.5	116.95	47.469	2.7888e-05	36.189	0.0027798	0.0028745	0.0008042	1275.7	3.1447e-05	3.1601e-05	889.73	357.26	3.1247e-05	3.1714e-05	281.53	97.833	131.73	52.384	3.1466e-05	44.916	33.544	249.268	89.761	-48.233	1.906	73.281	-50.282	-43.979	160.920	55.888	-46.361	-41.455	-39.149	-35.796	3.205	-38.941	-8191	255	
3460.779	1	1	0	0	0.051877	0.31574	0.15821	0.2829	0.25977	0.25475	0.067502	0.10255	0.18838	0.14862	0.25618	0.28539	0.39744	0.069477	0.093613	0.18329	-0.052083	-0.41875	-1.1229	-0.45833	-0.68958	-0.84583	-0.15	-1.1396	-0.50417	-0.45	-1.2208	-0.3375	-0.83125	-1.1625	-0.2625	-1.0438	216.428	194.154	45.690	223.987	92.520	81.732	-61.169	-51.207	290.585	171.850	253.647	296.005	274.067	109.647	-27.421	217.208	0.00041366	0.0014772	0.00035644	1214	1.9655e-05	1.8472e-05	793.81	333.93	9.9928e-06	6.8872e-06	221.55	78.606	117.19	48.3	2.786e-05	36.574	0.0028123	0.00289	0.00080644	1281.8	3.17e-05	3.1832e-05	895.54	360.01	3.1748e-05	3.21e-05	285.33	98.907	132.55	53.026	3.1993e-05	45.331	32.157	-22.299	0.560	-48.352	47.383	87.461	-50.247	-43.626	125.336	132.727	-46.477	-42.095	-39.078	-35.130	162.157	-39.318	-8191	255	
3460.875	1	1	0	0	0.20654	0.2979	0.24714	0.33006	0.097995	0.10212	0.30896	0.091223	0.26384	0.17082	0.17018	0.14825	0.18872	0.30466	0.077134	0.2032	-0.20625	-0.17083	-1.1083	-0.30208	-0.72708	-1.0917	-0.29583	-1.0396	-0.72292	-0.23333	-1.0708	-0.30833	-0.51875	-1.1833	-0.19375	-0.98333	140.768	25.023	89.479	232.412	198.334	-31.098	171.080	186.501	-2.971	59.047	270.086	289.403	297.710	3.223	26.888	95.271	0.000848	0.00029092	0.00011644	1217.5	1.2639e-05	8.7099e-06	794.07	332.77	2.4923e-05	6.698e-06	220.67	78.068	117.4	47.807	7.6306e-06	36.459	0.0028402	0.0029284	0.00081608	1287.4	3.185e-05	3.2107e-05	895.66	359.23	3.1789e-05	3.1997e-05	284.05	98.558	132.53	52.955	3.2064e-05	45.332	15.145	94.770	16.812	-48.191	-29.590	60.166	-49.970	-44.093	285.494	228.160	-46.480	-42.495	-39.180	-35.570	280.212	-39.212	-8191	255	
3460.971	1	1	0	0	0.17896	0.2536	0.19626	0.040189	0.044269	0.052754	0.11943	0.28924	0.20555	0.17336	0.38058	0.16136	0.34034	0.25684	0.06086	0.11026	-0.22917	-0.1875	-1.0417	-0.53125	-0.46458	-1.1021	-0.20625	-1.0187	-0.825	-0.22292	-1.3208	-0.55833	-0.51667	-1.1396	-0.32292	-0.66458	232.754	83.015	17.801	-53.633	70.331	284.202	151.453	188.098	35.616	292.128	-50.922	-5.344	272.206	256.130	33.830	240.130	0.00099535	0.0015571	0.00018654	1201.4	9.6715e-06	1.2682e-05	794.24	333.92	7.5386e-06	2.0687e-05	221.59	78.861	117.16	48.187	8.7361e-06	36.725	0.002847	0.002939	0.00082013	1280.6	3.2038e-05	3.2283e-05	896.61	360.46	3.2057e-05	3.254e-05	286.42	99.287	132.82	53.3	3.2404e-05	45.804	-15.397	-15.479	-23.569	-48.001	124.746	216.482	-50.175	-44.007	135.826	206.925	-46.497	-42.902	-39.096	-35.722	228.260	-39.320	-8191	255	
3461.068	1	1	0	0	0.13382	0.1971	0.049951	0.25608	0.16999	0.040061	0.18824	0.34643	0.10121	0.14507	0.3113	0.31704	0.16212	0.46428	0.10982	0.28473	-0.72292	-0.01875	-0.925	-0.66042	-0.44583	-0.95625	-0.34167	-0.56042	-0.83125	0.054167	-0.98333	-0.83125	-0.2625	-1.2313	-0.225	-0.55208	109.007	2.337	224.712	264.076	0.584	171.468	212.731	-27.290	98.560	179.192	243.386	134.394	234.752	-50.088	63.311	282.060	0.00017465	0.00039379	0.00020836	1214.9	1.0246e-06	3.311e-06	803.19	336.3	2.4606e-05	1.7768e-05	223.83	79.337	118.78	48.577	1.2576e-05	37.095	0.0028838	0.0029684	0.00083066	1287.4	3.2606e-05	3.2709e-05	904.52	362.84	3.2483e-05	3.2758e-05	287.54	100.3	134.29	53.626	3.2664e-05	46.061	34.794	-1.750	59.043	-48.440	39.764	67.010	-50.391	-43.819	224.353	124.214	-46.384	-41.567	-39.173	-35.588	80.303	-39.892	-8191	255	
3461.188	1	1	0	0	0.36612	0.18038	0.10481	0.22424	0.14288	0.12695	0.15293	0.13238	0.23455	0.11731	0.20137	0.061633	0.21733	0.21772	0.31944	0.3186	-0.73958	-0.23542	-0.9125	-0.81875	-0.15625	-1.0063	-0.59792	-0.775	-1.0333	-0.1	-1.0292	-0.72708	-0.35	-1.1083	-0.38542	-0.49167	-40.193	286.858	275.540	272.001	23.768	-35.153	278.717	95.611	230.740	15.410	227.772	275.944	50.885	266.315	26.236	181.341	0.00065573	0.0015581	0.00022532	1216.2	1.9717e-05	1.4335e-05	801.28	337.07	4.1714e-06	6.9697e-06	226.6	80.333	119.82	49.095	1.2103e-05	37.563	0.0029126	0.0030066	0.00083537	1294.6	3.2605e-05	3.2889e-05	910.34	365.07	3.2539e-05	3.3099e-05	291.75	101.41	135.44	54.318	3.2821e-05	46.734	45.782	37.473	129.978	-48.533	140.623	78.294	-50.493	-43.850	185.234	21.037	-46.589	-42.066	-39.940	-35.954	-57.457	-39.199	-8191	255	
3461.284	1	1	0	0	0.16086	0.12864	0.12508	0.021292	0.1138	0.22299	0.24044	0.18796	0.4216	0.086448	0.086598	0.30222	0.030228	0.203	0.17311	0.1861	-0.77083	-0.18542	-0.62083	-1.0562	-0.058333	-1.0729	-0.46875	-0.53542	-1.1479	-0.20625	-0.92708	-1.025	-0.13958	-1.2083	-0.67917	-0.52917	-41.988	213.510	-28.039	176.512	-59.374	224.030	219.341	109.208	-56.710	294.139	215.745	233.963	184.847	24.622	244.324	205.432	0.0003605	0.0011151	0.0001771	1223.2	9.1715e-06	1.8839e-05	809.71	339.48	6.3277e-06	2.4286e-06	228.32	80.402	119.65	49.042	1.5065e-05	37.61	0.0029362	0.0029999	0.00083637	1300.6	3.2586e-05	3.2859e-05	913.04	366.59	3.2581e-05	3.275e-05	291.46	101.14	135.42	54.138	3.2307e-05	46.313	156.721	94.478	88.601	-48.696	50.046	25.825	-50.453	-43.756	76.583	-46.852	-46.622	-42.684	-39.559	-35.857	-48.272	-39.137	-8191	255	
3461.379	1	1	0	0	0.25459	0.13049	0.16381	0.15545	0.2009	0.42741	0.27564	0.2506	0.16983	0.17321	0.16569	0.22806	0.30859	0.18293	0.13271	0.15116	-0.7	-0.31042	-0.57083	-0.97708	-0.43125	-1.1167	-0.8375	-0.56667	-1.1604	-0.2625	-0.49167	-1.0396	-0.37083	-0.92708	-0.61875	-0.43958	271.924	273.628	-41.273	231.623	-29.893	226.806	295.661	289.904	13.879	84.061	-33.590	-56.076	-60.580	242.583	137.238	244.211	0.00070262	0.0019934	0.00025011	1210.6	1.0978e-05	1.5883e-05	802.39	336.88	1.2015e-05	4.2414e-07	222.96	79.673	118.41	48.842	2.0974e-05	37.466	0.002879	0.0029713	0.00082707	1290.4	3.2245e-05	3.2317e-05	902.69	363.52	3.1956e-05	3.2277e-05	288.21	100.49	134.16	53.946	3.2282e-05	46.212	-42.369	13.164	97.679	-48.273	294.949	64.003	-50.095	-43.789	278.757	19.997	-46.670	-41.791	-39.332	-35.657	32.079	-39.357	-8191	255	
3461.499	1	1	0	0	0.2603	0.24847	0.21055	0.27725	0.42735	0.1431	0.11266	0.17494	0.10616	0.050174	0.08745	0.21162	0.2014	0.081445	0.13058	0.32185	-0.72083	-0.34583	-0.41875	-1.1146	-0.2	-0.81667	-0.86667	-0.31667	-1.0271	-0.54792	-0.35417	-1.0771	-0.41875	-0.84583	-0.66042	-0.47708	165.265	170.695	-37.377	-43.150	244.395	-13.336	94.340	9.128	51.248	68.060	-28.994	230.825	263.711	231.701	166.649	169.241	5.9528e-05	0.0017592	0.00031188	1218.1	1.0724e-05	2.3423e-06	793.96	333.87	1.2091e-05	1.7947e-05	223.04	80.095	117.75	48.438	1.9126e-05	36.897	0.0028793	0.0029587	0.00082386	1290.2	3.2368e-05	3.2501e-05	904.35	361.86	3.2253e-05	3.2543e-05	288.3	100.22	133.46	53.623	3.2223e-05	46.044	219.907	-54.656	-30.670	-48.299	201.300	-10.247	-50.226	-43.821	-49.438	58.011	-47.052	-42.712	-39.084	-36.005	41.322	-39.392	-8191	255	
3461.571	1	1	0	0	0.13681	0.23738	0.31977	0.18337	0.25626	0.25992	0.44833	0.15789	0.12196	0.1916	0.083044	0.17238	0.099128	0.31131	0.14758	0.072895	-0.6625	-0.40417	-0.40625	-1.3417	-0.31042	-0.81042	-0.94375	-0.20625	-1.0187	-0.375	-0.56458	-1.1938	-0.24583	-0.81667	-1.0646	-0.13125	154.779	266.338	116.744	253.909	65.867	132.769	272.588	8.141	-34.452	240.834	234.291	12.037	254.318	243.447	173.782	284.930	0.00050751	0.00056112	0.00053495	1211.4	4.073e-06	1.3062e-05	800.3	333.13	1.1171e-05	7.1607e-06	224.03	80.238	117.72	48.418	2.6671e-05	36.959	0.0028698	0.00295	0.00082369	1285.3	3.2211e-05	3.2477e-05	901.9	360.9	3.2254e-05	3.238e-05	287.53	100.2	133.01	53.378	3.2276e-05	46.004	9.526	36.149	97.953	-48.733	203.142	28.362	-50.652	-44.063	173.814	91.551	-47.049	-42.564	-39.342	-35.882	153.485	-39.273	-8191	255	
3461.667	1	1	0	0	0.19341	0.067291	0.19669	0.18193	0.075391	0.19894	0.12279	0.16995	0.14134	0.086325	0.24816	0.33491	0.17154	0.25389	0.26005	0.18581	-0.65833	-0.60625	-0.095833	-1.1479	-0.33542	-0.5625	-1.3563	-0.38958	-1.1583	-0.775	-0.42292	-1.0292	-0.35833	-0.50833	-1.0125	-0.25	224.989	64.171	217.684	272.628	56.711	48.213	37.329	141.986	287.596	128.049	3.574	184.427	53.321	292.761	223.361	176.612	0.0010537	0.00099169	0.0001125	1209.3	9.1897e-06	1.0732e-06	806.18	335.81	1.4954e-05	2.2016e-06	225.11	79.256	116.9	48.251	1.0459e-05	36.986	0.0028706	0.0029573	0.00082522	1284.8	3.2212e-05	3.2437e-05	905.82	360.75	3.2201e-05	3.2457e-05	288.25	99.991	132.86	53.328	3.227e-05	45.744	20.776	143.413	297.434	-48.848	182.564	-9.484	-50.808	-44.451	-38.344	191.260	-46.898	-42.812	-39.731	-35.808	259.978	-39.359	-8191	255	
3461.763	1	1	0	0	0.19901	0.3583	0.19526	0.25087	0.26604	0.04445	0.14707	0.088542	0.27573	0.3948	0.10533	0.16835	0.30857	0.53219	0.19303	0.25509	-0.36042	-0.78542	-0.22292	-1.4208	-0.41667	-0.36667	-1.1604	-0.34583	-0.8	-0.87917	-0.24792	-1.1479	-0.43542	-0.26875	-1.0479	-0.225	6.694	99.964	279.352	287.079	125.937	-22.965	203.507	162.392	252.702	141.537	197.751	51.255	-39.565	289.036	138.742	169.327	0.00016827	0.00048976	0.00040764	1211	3.1458e-05	1.5474e-05	792.31	331.55	3.7021e-05	2.3362e-06	222.23	78.595	116.13	47.53	2.1931e-05	35.881	0.0028513	0.0029296	0.00081576	1279.1	3.1819e-05	3.2074e-05	894.69	358.01	3.1675e-05	3.1892e-05	283.47	98.573	131.52	52.61	3.1576e-05	44.798	-25.001	12.335	63.941	-48.651	-6.555	55.083	-50.665	-44.120	-31.929	225.093	-46.833	-42.496	-40.002	-36.013	20.834	-39.386	-8191	255	
3461.859	1	1	0	0	0.17465	0.11896	0.065057	0.16248	0.12481	0.11739	0.057002	0.14501	0.020413	0.12955	0.17339	0.23401	0.27789	0.10233	0.19942	0.11018	-0.4125	-0.95833	-0.20833	-1.4021	-0.7625	-0.30625	-1.3375	-0.34583	-0.60833	-1.0104	-0.32708	-1.0229	-0.74583	-0.51042	-1.075	-0.50208	197.684	52.078	269.121	281.489	135.720	291.477	176.782	254.980	255.316	271.808	136.924	294.253	12.692	173.100	165.264	-22.028	0.00079267	0.00048646	0.00015231	1194.7	1.8078e-05	1.782e-05	784.37	330.7	2.0476e-05	8.3207e-06	218.15	77.739	116.24	47.582	2.5291e-05	35.829	0.0028192	0.0028986	0.00080056	1272.5	3.1527e-05	3.169e-05	885.31	356.43	3.1478e-05	3.1796e-05	282.16	97.831	130.83	52.465	3.1578e-05	44.762	-47.343	65.009	78.536	-48.526	136.009	86.161	-50.444	-44.007	41.553	283.902	-46.747	-42.509	-39.610	-35.625	101.928	-39.794	-8191	255	
3461.978	1	1	0	0	0.15592	0.32225	0.11829	0.31521	0.16715	0.051076	0.27878	0.23478	0.13224	0.26724	0.062349	0.32916	0.23971	0.21064	0.23043	0.13595	-0.20833	-0.85417	-0.05	-1.0562	-0.72292	-0.19167	-1.1333	-0.62292	-0.56042	-1.0771	-0.10417	-0.97708	-0.82708	-0.31042	-1.1125	-0.52083	273.459	81.048	225.856	265.059	210.831	127.446	254.708	205.340	75.114	-48.814	158.465	248.475	263.743	71.119	180.380	17.775	0.0012346	0.0012248	6.1123e-05	1195.5	2.5281e-05	1.036e-05	785.78	330.3	1.2544e-05	4.7831e-06	219.29	78.365	115.9	47.47	2.1735e-05	36.533	0.0028051	0.0028664	0.00080095	1271.9	3.1414e-05	3.1616e-05	887.93	355.95	3.1333e-05	3.1541e-05	281.67	97.922	131.09	52.496	3.1259e-05	44.963	-9.986	22.655	-33.486	-48.491	99.745	41.352	-50.350	-44.004	62.750	226.956	-47.029	-42.408	-39.529	-35.655	294.050	-39.135	-8191	255	
3462.075	1	1	0	0	0.24761	0.17407	0.29647	0.25137	0.14485	0.25169	0.37768	0.11867	0.065514	0.11295	0.17893	0.16208	0.10692	0.13557	0.053087	0.14984	0.022917	-1.1167	0.022917	-0.87083	-0.78333	-0.20417	-1.1812	-0.5625	-0.42083	-1.0021	-0.39792	-0.61458	-0.92917	-0.09375	-1.1333	-0.66458	5.686	147.999	279.520	249.529	82.412	-4.405	195.071	-9.868	258.351	270.876	192.513	180.913	220.896	227.703	145.002	158.095	0.00051333	0.00076776	6.918e-05	1204.3	1.4464e-05	8.8992e-06	784.66	330.46	9.5957e-06	3.7756e-06	222.11	78.377	116.58	47.692	2.2709e-05	36.671	0.0027907	0.0028675	0.00080248	1276.4	3.1159e-05	3.1467e-05	890.51	356.54	3.1053e-05	3.1343e-05	283.39	98.24	131.22	52.634	3.1356e-05	45.066	-1.804	282.709	171.677	-48.601	14.105	143.600	-50.185	-43.938	53.644	115.142	-46.614	-42.445	-39.727	-36.049	230.657	-39.610	-8191	255	
3462.171	1	1	0	0	0.2529	0.090511	0.14141	0.17711	0.13073	0.30709	0.31102	0.13811	0.26927	0.17657	0.23783	0.020844	0.43373	0.17505	0.20248	0.065659	0.06875	-1.0375	-0.11875	-0.6625	-0.73958	-0.325	-0.93333	-0.61042	-0.29583	-1.2417	-0.325	-0.625	-1.1542	-0.27292	-1.1042	-0.7	295.064	54.560	131.452	40.056	226.297	-28.126	281.068	-60.957	277.810	98.221	-2.737	4.248	-37.364	171.523	-30.293	40.077	0.00077256	0.00078766	0.00024636	1197.8	7.2021e-06	5.3853e-06	794.48	334.07	3.0097e-06	2.5612e-06	221.04	78.461	116.42	47.282	9.4231e-06	36.321	0.0027801	0.0028534	0.00079281	1275	3.1113e-05	3.1164e-05	889.82	357.04	3.0733e-05	3.1002e-05	280.85	97.47	130.62	52.111	3.0513e-05	44.587	190.195	34.279	37.120	-48.374	22.196	283.754	-50.171	-43.876	-42.494	60.395	-46.899	-42.204	-39.056	-35.648	256.471	-39.798	-8191	255	
3462.267	1	1	0	0	0.25172	0.10362	0.1655	0.28746	0.096647	0.20745	0.030868	0.216	0.4208	0.1564	0.1646	0.13331	0.18659	0.33664	0.23427	0.1382	0.13333	-1.1125	-0.275	-0.52292	-1.1167	-0.27917	-0.96458	-0.9875	-0.24375	-1.0646	-0.41042	-0.52708	-1.3188	-0.23333	-0.87917	-0.77292	208.858	69.643	47.227	-52.722	232.362	-54.569	269.962	297.254	-34.244	266.774	-17.480	254.952	-28.283	203.294	-19.297	185.541	0.00080278	0.0013027	6.0852e-05	1204.4	1.6183e-05	1.6173e-05	788.87	331.54	1.2899e-05	6.7241e-06	218.27	77.774	116.35	47.465	2.2018e-06	36.026	0.0027213	0.0027865	0.00077399	1267.3	3.0471e-05	3.0565e-05	884.39	355.13	3.0243e-05	3.0428e-05	279.19	96.79	130.42	52.05	3.0153e-05	44.306	121.874	-43.367	14.358	-48.379	13.674	117.603	-50.203	-43.867	72.224	-13.765	-46.623	-42.233	-39.628	-35.758	204.813	-39.333	-8191	255	
3462.363	1	1	0	0	0.12689	0.40294	0.16537	0.14443	0.083996	0.24461	0.076876	0.141	0.22436	0.22184	0.31824	0.36938	0.18727	0.12404	0.019194	0.28066	0.28125	-1.2188	-0.48333	-0.625	-1.1458	-0.1625	-1.1104	-1.3083	-0.14792	-1.0562	-0.62292	-0.39583	-1.2604	-0.27292	-0.65625	-1.1979	179.221	6.528	-24.356	79.297	178.720	269.671	180.275	-10.516	6.304	61.369	38.522	175.227	233.722	244.908	125.375	220.625	0.00038206	0.00046829	0.00012749	1206.2	2.1196e-05	7.3294e-06	792.02	329.84	1.764e-05	6.3966e-06	219.74	78.845	117.26	47.438	1.9442e-05	36.472	0.0027	0.0027651	0.00077146	1268.6	3.037e-05	3.0245e-05	883	354.95	3.0115e-05	3.034e-05	279.35	97.321	130.71	52.048	3.0216e-05	44.463	-38.038	-24.491	182.021	-48.644	4.852	235.634	-50.140	-43.783	127.689	23.431	-46.892	-42.639	-39.551	-35.820	69.795	-39.471	-8191	255	
3462.459	1	1	0	0	0.20731	0.083477	0.19598	0.4425	0.18793	0.14551	0.13859	0.38489	0.095343	0.031412	0.094403	0.24513	0.23335	0.05274	0.10071	0.26648	0.0625	-0.76042	-0.53125	-0.49375	-1.2437	-0.19583	-0.68542	-1.1792	-0.060417	-0.87708	-0.90625	-0.28958	-1.2083	-0.54792	-0.5	-0.975	52.680	257.183	26.399	272.105	103.277	72.342	214.649	235.099	-32.602	171.821	-26.786	264.201	212.239	235.017	227.408	140.693	0.00036634	0.0011157	0.00023093	1197	1.1778e-06	2.6128e-05	793.3	332.68	3.4795e-05	2.1717e-05	222.66	78.887	117.63	47.774	1.3188e-05	36.543	0.002682	0.0027477	0.0007658	1263.4	2.9811e-05	3.0033e-05	883.2	355.23	2.9819e-05	3.0084e-05	279.51	97.121	130.78	52.344	2.9748e-05	44.62	290.804	210.036	7.546	-48.174	279.959	31.218	-50.355	-44.118	62.777	72.458	-46.669	-42.497	-39.272	-35.598	17.045	-38.770	-8191	255	
3462.580	1	1	0	0	0.12588	0.1651	0.10358	0.26842	0.075123	0.27265	0.23753	0.15944	0.064572	0.012799	0.026699	0.24104	0.23283	0.19036	0.09547	0.1316	0.21875	-0.90417	-0.7125	-0.23958	-1.0604	-0.43958	-0.54375	-1.2479	-0.475	-0.85417	-0.97708	-0.28958	-1.1229	-0.56458	-0.38958	-1.4	266.950	281.761	140.820	288.991	92.488	-61.265	257.228	245.219	-25.657	207.170	103.797	-41.235	175.055	266.695	108.622	-46.038	0.00069224	0.0005922	0.00045404	1211.3	1.1243e-05	1.0943e-05	789.81	333.14	9.6599e-06	3.9125e-06	221.66	78.287	114.71	47.039	2.0621e-05	35.947	0.0026434	0.0027141	0.0007533	1269.6	2.9267e-05	2.9512e-05	882.25	354.45	2.9113e-05	2.9256e-05	277.05	95.959	128.32	51.201	2.8602e-05	43.458	292.249	157.533	-22.074	-48.496	31.891	-52.868	-49.941	-43.944	252.070	98.138	-46.735	-41.858	-39.206	-35.532	215.605	-39.089	-8191	255	
3462.676	1	1	0	0	0.13344	0.17718	0.1732	0.19737	0.30095	0.193	0.38533	0.043833	0.25866	0.28685	0.18263	0.36315	0.089779	0.16453	0.031407	0.038798	0.083333	-0.73125	-0.91667	-0.26875	-0.89375	-0.52917	-0.35625	-1.3271	-0.35208	-0.58958	-1.2437	-0.25833	-1.1167	-0.81458	-0.32083	-1.4104	94.401	187.868	103.140	272.171	68.888	61.909	279.045	57.598	75.772	214.849	114.329	284.815	262.609	287.103	130.578	213.084	0.00074052	0.0012606	0.0001724	1193.7	3.3175e-06	8.8159e-06	791.99	331.53	8.4351e-06	1.386e-05	220.04	76.929	115.06	46.469	2.348e-05	35.296	0.002533	0.0026085	0.00071789	1249.9	2.8117e-05	2.8281e-05	871.22	350.59	2.8083e-05	2.8295e-05	273.53	94.065	127.34	50.499	2.8091e-05	42.749	70.769	-33.772	76.484	-48.509	13.977	293.077	-49.989	-43.888	55.254	0.080	-46.627	-42.263	-39.509	-36.055	182.924	-39.793	-8191	255	
3462.772	1	1	0	0	0.087045	0.41093	0.17265	0.52114	0.3859	0.089439	0.16856	0.11859	0.3463	0.10934	0.10647	0.046995	0.23397	0.14994	0.23129	0.12521	0.0020833	-0.80833	-0.91042	-0.29167	-0.82708	-1.0208	-0.51667	-1.5458	-0.34792	-0.675	-1.2313	-0.35208	-1.1812	-0.89792	-0.43333	-1.0708	61.744	218.010	-15.631	286.418	190.812	28.270	235.140	-33.412	53.698	247.421	178.041	-30.595	276.850	240.258	201.215	220.373	0.00057442	0.00073708	0.00030546	1201.4	1.0061e-05	1.1789e-05	788.82	331.5	2.0784e-05	1.7198e-05	219.25	77.213	116.57	46.654	1.4209e-05	35.142	0.002512	0.002596	0.00072229	1254.5	2.8208e-05	2.8541e-05	871.22	352.08	2.8342e-05	2.8575e-05	273.99	94.423	128.57	50.837	2.8488e-05	42.79	-55.596	290.644	87.546	-48.543	213.573	-45.324	-50.123	-43.856	1.104	25.679	-46.750	-42.019	-39.460	-35.924	120.250	-39.582	-8191	255	
3462.868	1	1	0	0	0.22589	0.1043	0.14056	0.21804	0.14255	0.10409	0.06241	0.18784	0.1007	0.17152	0.20042	0.23714	0.16326	0.11167	0.060623	0.38328	-0.05625	-0.35417	-1.0292	-0.37083	-0.94583	-1.0063	-0.30833	-1.35	-0.58333	-0.34583	-1.1208	-0.2	-0.825	-0.89375	-0.020833	-1.0667	102.892	207.563	-16.725	202.714	5.586	152.482	245.591	170.001	87.563	146.462	297.485	270.208	266.583	-27.742	-26.414	293.970	0.00049102	0.00088578	0.00024143	1203.3	1.5159e-05	1.4615e-05	786.41	334.95	2.0812e-05	6.5472e-06	223.14	78.257	117.85	47.114	1.1015e-05	35.837	0.0025426	0.0026153	0.00073183	1259.5	2.8424e-05	2.8727e-05	875.89	355.62	2.8622e-05	2.8873e-05	277	96.086	130.91	51.662	2.8813e-05	43.495	109.038	215.632	148.407	-48.493	230.525	246.727	-50.433	-44.120	55.814	84.536	-46.551	-41.996	-39.281	-35.690	-20.483	-39.161	-8191	255	
3462.963	1	1	0	0	0.31246	0.17042	0.11157	0.1263	0.25625	0.060871	0.15752	0.16878	0.12957	0.34348	0.2512	0.12311	0.44621	0.21845	0.10362	0.22794	-0.30833	-0.36458	-1.0021	-0.26042	-0.82708	-1.225	-0.21042	-1.0229	-0.73542	-0.3375	-1.2375	-0.54375	-0.83125	-1.3229	-0.15833	-0.80625	179.210	128.332	49.744	259.155	252.991	-52.252	273.933	181.665	230.643	219.277	-0.231	-48.885	-59.146	-14.314	82.022	168.825	0.00065083	0.0012997	0.00035379	1210.4	2.0502e-05	7.2783e-06	797.84	341.76	3.2078e-06	9.4792e-06	229.43	80.704	120.61	49.057	1.0855e-05	36.877	0.0025613	0.0026548	0.00073697	1271.7	2.907e-05	2.9432e-05	887.28	362.14	2.902e-05	2.9572e-05	283.92	98.387	133.74	53.411	2.9411e-05	44.917	257.749	228.334	159.244	-48.550	99.737	-34.929	-50.142	-43.806	232.707	-51.819	-46.811	-42.509	-39.226	-35.665	187.239	-39.344	-8191	255	
3463.059	1	1	0	0	0.025384	0.25075	0.094919	0.10328	0.054786	0.21457	0.34569	0.19718	0.075046	0.20696	0.056495	0.025828	0.21622	0.34605	0.044469	0.14445	-0.37292	-0.30833	-1.2333	-0.74167	-0.43542	-1.1583	-0.40833	-1.0292	-0.88958	-0.39167	-1.1	-0.65208	-0.48125	-1.4792	-0.31875	-0.9375	260.912	29.115	187.493	216.214	192.673	-2.107	188.006	-45.182	6.220	84.395	132.767	48.563	-43.080	-35.486	78.839	203.765	0.00041542	0.0011425	0.0003919	1228.5	9.2931e-06	6.9866e-06	805.65	346.13	1.3212e-05	1.3902e-05	228.52	80.434	121.94	49.482	1.8688e-05	36.926	0.0026218	0.0027257	0.00075601	1286.6	2.9487e-05	2.9555e-05	894.17	367.85	2.9408e-05	2.9634e-05	284.4	98.647	135.28	53.754	2.9356e-05	44.647	-19.445	81.959	52.311	-48.324	-7.186	-17.534	-50.030	-44.037	-18.705	77.802	-46.591	-42.527	-39.296	-35.563	248.099	-39.645	-8191	255	
3463.155	1	1	0	0	0.1502	0.29115	0.15697	0.24322	0.13885	0.2099	0.14851	0.26952	0.1912	0.12298	0.07267	0.11586	0.10429	0.12388	0.20768	0.16401	-0.56458	-0.15	-1.1708	-0.66458	-0.37917	-1.2208	-0.51042	-0.95	-0.9875	-0.27083	-1.0875	-0.71042	-0.46458	-1.2292	-0.41667	-0.7375	125.651	131.754	272.355	280.492	21.786	20.767	283.597	-61.698	30.835	188.721	-32.074	88.483	120.367	8.032	164.204	252.125	0.00031346	0.00044203	0.00013233	1227	1.6038e-05	1.8111e-05	799.07	344.61	2.1845e-05	8.412e-06	229.5	80.337	123.08	50.122	1.5225e-05	37.08	0.0026146	0.0026774	0.00075078	1287.3	2.9571e-05	2.955e-05	887.63	367.02	2.9547e-05	2.9785e-05	284.85	99.127	135.79	54.264	2.9577e-05	45.047	85.472	-6.524	105.811	-48.180	194.931	19.657	-49.925	-43.962	33.106	-12.709	-46.720	-42.198	-39.273	-35.456	69.358	-39.165	-8191	255	
3463.276	1	1	0	0	0.30367	0.10869	0.429	0.21393	0.30094	0.13943	0.31968	0.17627	0.035899	0.26708	0.16388	0.25476	0.17941	0.10358	0.018447	0.012519	-0.80625	-0.19792	-0.92292	-0.8375	-0.59583	-1.2437	-0.48542	-0.88958	-1.0417	-0.072917	-0.89375	-0.925	-0.275	-1.1896	-0.46875	-0.46042	108.785	97.321	82.360	224.129	165.075	-46.414	224.937	245.107	89.002	16.085	244.225	213.762	-49.619	183.147	285.744	95.254	0.00048001	0.0015752	0.00024316	1227.5	6.7736e-06	1.0722e-05	797.72	346.55	5.7995e-06	1.0946e-05	227.21	80.374	122.58	49.493	9.8474e-06	36.915	0.0026466	0.0027152	0.0007572	1287.9	2.9784e-05	2.9763e-05	889.95	367.74	2.9681e-05	2.988e-05	284.49	98.862	135.68	53.955	2.9829e-05	44.859	-4.765	-31.001	253.759	-48.476	147.760	-15.021	-50.088	-43.601	129.299	-59.000	-47.156	-42.027	-39.669	-35.959	286.847	-39.105	-8191	255	
3463.372	1	1	0	0	0.11025	0.073902	0.23457	0.47703	0.1234	0.12414	0.10915	0.16337	0.032731	0.046504	0.082169	0.15244	0.11555	0.12958	0.24428	0.071306	-0.76458	-0.31458	-1.0562	-1.0792	-0.25	-1.2125	-0.48542	-0.64792	-1.2229	-0.38333	-1.0562	-0.89167	-0.21667	-1.2479	-0.60833	-0.31875	228.118	258.241	203.635	222.380	135.379	284.951	237.791	87.448	228.660	227.652	195.156	297.579	170.697	206.461	76.896	289.468	0.00063657	0.00059621	0.00031244	1219.8	4.0105e-06	1.4579e-05	797.14	345.35	1.7246e-05	8.7629e-06	227.29	80.318	122.14	49.304	5.5718e-06	36.626	0.0026502	0.0027213	0.00075847	1284	2.9714e-05	2.9957e-05	890.38	366.44	2.9728e-05	2.9892e-05	284.87	98.765	135.08	53.662	3.0051e-05	44.733	115.793	31.146	11.918	-48.611	224.290	64.119	-49.906	-44.027	96.968	81.258	-46.766	-42.739	-39.689	-35.673	143.256	-38.901	-8191	255	
3463.443	1	1	0	0	0.11982	0.087	0.038487	0.15501	0.18592	0.447	0.032001	0.16822	0.086977	0.036816	0.19446	0.057798	0.44439	0.16563	0.11774	0.29494	-0.90833	-0.28125	-0.60833	-1.2188	-0.26875	-1.1833	-0.73125	-0.47917	-1.1375	-0.13125	-0.67083	-0.975	-0.37917	-1.1125	-0.725	-0.47292	275.478	199.542	223.052	269.326	59.948	4.807	220.016	110.504	-24.026	129.547	224.934	223.749	-51.935	238.785	127.795	181.699	0.00031494	0.0011001	0.00036206	1223	1.9591e-05	8.6646e-06	798.33	344.27	1.9344e-05	1.7782e-05	224.71	79.897	120.42	48.488	4.855e-06	35.683	0.0026626	0.0027581	0.0007719	1289.3	3.013e-05	3.0371e-05	892.23	367.5	3.0233e-05	3.0563e-05	284.63	98.246	134.75	53.166	3.0601e-05	43.929	-56.959	2.575	154.719	-48.365	45.069	39.959	-50.331	-43.857	97.233	86.993	-46.927	-42.321	-39.267	-36.293	43.252	-39.732	-8191	255	
3463.564	1	1	0	0	0.19609	0.35454	0.080534	0.19052	0.016596	0.30697	0.22358	0.30756	0.17931	0.011633	0.36903	0.12752	0.24289	0.31577	0.14577	0.29767	-0.72083	-0.35833	-0.55833	-1.2896	-0.22292	-1.0125	-0.88542	-0.3375	-1.2042	-0.30208	-0.5875	-1.1896	-0.31042	-1.1875	-0.84167	-0.30417	-18.489	66.694	-19.611	124.881	226.388	97.631	242.194	205.563	-35.502	193.901	256.103	185.628	270.443	-31.861	258.082	158.925	0.00012826	0.0017152	0.00015553	1214.9	4.7555e-06	9.7878e-06	780.42	336.93	8.567e-06	4.5754e-06	220.93	77.466	118.45	47.738	3.1659e-06	34.643	0.002725	0.0028182	0.0007874	1281.3	3.0707e-05	3.0993e-05	880.37	362.13	3.0915e-05	3.1188e-05	280.76	96.898	132.85	52.423	3.1043e-05	43.176	76.810	-31.358	208.544	-48.625	-17.941	249.008	-50.314	-43.930	248.239	107.479	-47.299	-42.143	-39.643	-35.786	225.332	-39.791	-8191	255	
3463.660	1	1	0	0	0.11655	0.38979	0.19414	0.38384	0.3687	0.17696	0.075146	0.13758	0.19173	0.099546	0.16133	0.085662	0.32502	0.3367	0.10631	0.075793	-0.78958	-0.43958	-0.48958	-1.3708	-0.16042	-0.73125	-1.0688	-0.19792	-0.89792	-0.56458	-0.42708	-1.0833	-0.43333	-0.85833	-1.1229	-0.11042	124.897	250.410	22.491	296.142	265.781	202.725	15.444	-14.930	131.393	289.690	-46.412	185.558	-54.774	-28.328	270.676	249.401	0.00034992	0.00031792	0.00016636	1200.1	9.133e-06	9.3755e-06	774.85	333.33	1.5799e-05	1.2848e-05	217.44	76.91	117.74	46.774	6.6727e-06	34.115	0.0027556	0.0028355	0.0007902	1269.6	3.0951e-05	3.1102e-05	875.43	358.99	3.0803e-05	3.1152e-05	278.51	96.403	131.97	51.716	3.0885e-05	42.797	19.061	51.127	-4.093	-48.587	50.309	29.895	-50.241	-43.748	204.587	224.307	-47.091	-41.763	-39.641	-35.806	53.593	-39.799	-8191	255	
3463.756	1	1	0	0	0.24959	0.27669	0.30125	0.14388	0.05444	0.057309	0.30925	0.098031	0.081672	0.10864	0.13734	0.30503	0.11359	0.28502	0.48947	0.18607	-0.71875	-0.74375	-0.12292	-1.1417	-0.48958	-0.57083	-1.1521	-0.46042	-1.0438	-0.76667	-0.29167	-1.1292	-0.62292	-0.57292	-1.2708	-0.2125	190.918	153.925	133.263	-20.384	178.037	129.713	-35.207	39.924	72.180	77.198	267.547	249.635	119.595	-60.700	3.257	165.148	0.00090431	0.00094268	0.00044013	1198.4	9.3214e-06	1.9437e-05	777.25	333.68	5.2532e-06	4.9062e-06	216.78	76.561	117.13	46.346	7.0025e-06	34.017	0.0027632	0.0028314	0.00079353	1270	3.1123e-05	3.1478e-05	874.44	357.9	3.13e-05	3.1633e-05	278.79	96.091	131.32	51.398	3.1343e-05	42.744	-54.726	-24.068	186.608	-48.262	153.156	-43.950	-50.281	-43.716	231.939	209.561	-46.322	-42.402	-39.518	-35.728	-23.532	-39.476	-8191	255	
3463.852	1	1	0	0	0.068093	0.11092	0.24715	0.28634	0.42866	0.28941	0.15233	0.29639	0.092869	0.27621	0.090107	0.11224	0.17013	0.28541	0.033926	0.088252	-0.54792	-0.98333	-0.26667	-1.3937	-0.41667	-0.58333	-1.1208	-0.26667	-0.70625	-1.0625	-0.15625	-1.1313	-0.425	-0.57083	-1.0542	-0.45208	-17.289	56.059	252.673	241.161	134.841	137.406	121.433	265.799	139.463	-26.216	-49.966	292.925	-3.937	244.825	4.645	175.222	0.00072361	0.0016695	0.00020613	1200.5	2.7173e-05	4.2127e-06	776.72	333.58	3.4684e-05	1.8246e-05	216.59	75.854	117.17	46.144	1.6857e-05	33.753	0.0028027	0.0028955	0.00080403	1271.2	3.1416e-05	3.1591e-05	875.5	358.15	3.1327e-05	3.1547e-05	279.81	95.88	131.57	51.271	3.1056e-05	42.573	-11.944	43.092	206.148	-48.431	110.953	58.616	-50.446	-44.175	184.654	162.938	-47.123	-42.503	-39.662	-35.833	35.409	-39.662	-8191	255	
3463.971	1	1	0	0	0.3211	0.039325	0.3293	0.22034	0.13001	0.19295	0.3107	0.090425	0.26907	0.27697	0.14731	0.2743	0.36624	0.25218	0.1432	0.23187	-0.40417	-0.85	0.0020833	-1.1688	-0.59583	-0.425	-1.1958	-0.51458	-0.78333	-0.89792	-0.35833	-1.175	-0.88542	-0.3875	-1.2125	-0.3	23.256	249.739	47.784	208.661	6.305	47.033	207.413	280.003	297.640	179.865	62.973	217.351	243.199	278.920	253.237	215.177	0.0007073	0.001116	0.00040086	1189.4	1.2585e-05	7.9882e-06	759.51	328.87	2.2554e-05	1.8502e-05	212.63	74.646	114.84	45.53	2.0857e-05	32.945	0.0027809	0.0028524	0.00079152	1260.9	3.1059e-05	3.1046e-05	861.34	353.76	3.0396e-05	3.0757e-05	272.63	93.885	128.63	50.239	3.025e-05	41.507	-52.900	-40.403	262.378	-48.121	-53.693	-18.180	-50.290	-43.910	133.135	197.843	-46.608	-42.581	-39.309	-35.874	219.714	-39.265	-8191	255	
3464.043	1	1	0	0	0.26486	0.11797	0.12742	0.19387	0.17203	0.24665	0.31959	0.089314	0.29604	0.16707	0.22494	0.2177	0.092695	0.35059	0.12694	0.26432	-0.17708	-1.0875	-0.22083	-1.1396	-0.9	-0.47708	-1.225	-0.65208	-0.65833	-1.2271	-0.27083	-1.1313	-0.90417	-0.32292	-1.1083	-0.65208	81.681	87.251	83.250	165.178	258.195	256.358	288.036	173.919	221.368	49.101	43.720	288.683	185.091	263.272	79.399	195.169	0.00043551	0.0014242	0.00016211	1181.7	1.2428e-05	6.7634e-06	761.56	327.53	5.9034e-06	1.2795e-05	211.94	74.589	115.08	45.703	1.4344e-05	33.355	0.0026664	0.0027439	0.00076645	1246.1	3.0045e-05	3.022e-05	853.33	351.01	3.0303e-05	3.0765e-05	272.08	94.082	129.75	50.718	3.0805e-05	42.129	39.695	88.719	-38.317	-48.207	254.368	101.526	-49.919	-43.784	99.773	164.786	-46.709	-42.507	-39.695	-35.588	187.259	-39.001	-8191	255	
3464.141	1	1	0	0	0.1158	0.17071	0.068598	0.099861	0.13179	0.1577	0.20498	0.25663	0.029285	0.18486	0.12032	0.042418	0.19727	0.1023	0.063538	0.10792	-0.03125	-0.82083	-0.29583	-0.94167	-0.77917	-0.25208	-1.2729	-0.66667	-0.50417	-1.2479	-0.34583	-0.82917	-0.96458	-0.45208	-1.0896	-0.7625	-57.824	100.613	276.919	16.986	71.952	293.548	284.225	280.347	67.141	38.878	52.516	122.953	-15.079	280.001	247.412	156.302	0.0003646	0.00067608	0.00043945	1190.7	1.6942e-05	1.2023e-05	755.98	330.49	1.1971e-05	1.4875e-05	214.09	75.556	115.89	46.214	1.203e-05	33.513	0.0027546	0.0028336	0.00079236	1262.4	3.117e-05	3.1257e-05	863.86	354.75	3.1096e-05	3.1267e-05	275.94	95.346	130.7	50.997	3.1223e-05	42.427	129.021	101.061	220.497	-48.232	178.291	-18.437	-50.105	-43.899	159.499	87.731	-46.747	-42.484	-39.546	-36.210	231.816	-39.563	-8191	255	
3464.260	1	1	0	0	0.26619	0.10807	0.12859	0.32568	0.062891	0.34784	0.1437	0.23163	0.2596	0.38455	0.18907	0.056972	0.24483	0.42648	0.12403	0.27283	-0.070833	-1.1792	-0.17917	-0.95417	-1.0979	-0.23333	-1.1021	-0.8875	-0.26458	-1.1854	-0.41042	-0.65625	-1.0938	-0.38125	-1.0667	-0.78958	53.917	-8.668	154.282	267.174	250.127	202.050	297.464	211.145	205.702	238.158	166.464	131.265	244.837	184.810	-32.013	-40.134	0.00016213	0.00055584	0.0003937	1186.6	7.5373e-06	6.1525e-06	768.57	330.86	4.1939e-05	1.3817e-05	213.18	75.873	115.9	46.362	1.7801e-05	33.953	0.0027748	0.0028564	0.00079451	1257.6	3.1172e-05	3.1505e-05	865.86	356.23	3.1174e-05	3.1443e-05	276.92	95.826	130.71	51.252	3.1513e-05	42.739	-35.211	269.856	-38.431	-48.401	98.656	25.443	-50.053	-43.839	163.694	269.511	-46.290	-42.418	-39.503	-36.108	134.685	-39.624	-8191	255	
3464.356	1	1	0	0	0.094443	0.28043	0.1237	0.24238	0.17031	0.12863	0.19946	0.31963	0.11655	0.1875	0.10934	0.023898	0.10151	0.019974	0.2452	0.24466	0.06875	-1.1	-0.3875	-0.77083	-1.1792	-0.3375	-1.1625	-0.79167	-0.20208	-1.15	-0.64375	-0.49583	-1.1708	-0.43125	-0.92083	-0.84792	38.197	-50.203	172.190	-46.109	172.762	246.818	184.107	250.035	190.495	3.775	63.742	139.268	231.130	77.975	160.835	262.547	0.00039946	0.00073811	0.00022073	1188.9	8.5067e-06	8.2281e-06	768.16	328.21	3.0228e-05	1.1217e-05	211.01	74.69	115.65	45.598	2.347e-05	33.174	0.0027981	0.0028872	0.00080102	1261.9	3.1454e-05	3.1545e-05	866.01	354.29	3.13e-05	3.1276e-05	274.95	94.638	129.84	50.629	3.1171e-05	41.969	264.158	240.455	-62.095	-48.447	278.530	139.645	-50.564	-44.280	-42.868	284.758	-47.177	-42.468	-39.820	-35.850	293.516	-39.655	-8191	255	
3464.452	1	1	0	0	0.10386	0.070235	0.19263	0.3317	0.31197	0.13452	0.094696	0.31497	0.20772	0.11385	0.098685	0.084183	0.076804	0.18227	0.29497	0.11431	0.21667	-1.1354	-0.55	-0.47917	-1.0792	-0.38333	-0.91875	-1.1542	-0.27917	-1.2521	-0.6375	-0.37708	-1.1063	-0.44792	-0.675	-1.0812	60.214	119.736	52.808	281.058	9.783	136.927	-53.544	244.923	41.887	146.311	110.424	198.564	19.729	218.826	77.253	8.762	0.00055621	0.0002491	0.00016277	1173.9	1.0479e-05	1.1996e-05	757.37	327.02	1.0068e-05	6.6487e-06	211.04	74.339	114.29	45.365	1.0461e-05	33.18	0.0027559	0.0028511	0.00079631	1248.6	3.0992e-05	3.1291e-05	855.68	351.16	3.1089e-05	3.1235e-05	272.24	93.879	129.11	50.389	3.1098e-05	41.808	62.476	257.055	246.472	-48.411	-6.627	-15.725	-50.371	-44.126	191.921	132.061	-46.809	-42.305	-39.143	-35.725	-60.504	-39.479	-8191	255	
#DATA ENDS
