BOXY.EXE: ISS Imagent and Oximeter Data Acquisition Program Version 0.80
Ascii Record File

#ACQ INFORMATION
2  Detector Channels 
16  External MUX Channels 
1  Auxiliary Channels 
5000  Waveform (CCF) Frequency (Hz)
1  Waveforms Skipped 
30  Waveforms Averaged 
1  Cycles Averaged 
16  Acquisitions per Waveform 
10.0806  Updata Rate (Hz) 

#FILE INFORMATION
TRUE -- External MUX Channel results are PARSED.
FALSE -- AC DC and Phase are NOT grouped.
TRUE -- Companion Program Settings File CREATED.
FALSE -- AC data not excluded
FALSE -- DC data not excluded
FALSE -- Phase data not excluded
FALSE -- Auxillary Chn. data not excluded
Tab delimiters

#CALIBRATION STATE
TRUE -- Waveform Calibration Values APPLIED.


#AUX CALIBRATION VALUES
Val Type	aux-1	

Term	1.0000e+00	
Factor	0.0000e+00	


#WF CALIBRATION VALUES
A = Detector Channel
Val Type	A-AC1	A-AC2	A-AC3	A-AC4	A-AC5	A-AC6	A-AC7	A-AC8	A-AC9	A-AC10	A-AC11	A-AC12	A-AC13	A-AC14	A-AC15	A-AC16	A-DC1	A-DC2	A-DC3	A-DC4	A-DC5	A-DC6	A-DC7	A-DC8	A-DC9	A-DC10	A-DC11	A-DC12	A-DC13	A-DC14	A-DC15	A-DC16	A-Ph1	A-Ph2	A-Ph3	A-Ph4	A-Ph5	A-Ph6	A-Ph7	A-Ph8	A-Ph9	A-Ph10	A-Ph11	A-Ph12	A-Ph13	A-Ph14	A-Ph15	A-Ph16	

Term	0.00000e+00	0.00000e+00	0.00000e+00	0.00000e+00	0.00000e+00	0.00000e+00	0.00000e+00	0.00000e+00	0.00000e+00	0.00000e+00	0.00000e+00	0.00000e+00	0.00000e+00	0.00000e+00	0.00000e+00	0.00000e+00	0.00000e+00	0.00000e+00	0.00000e+00	0.00000e+00	0.00000e+00	0.00000e+00	0.00000e+00	0.00000e+00	0.00000e+00	0.00000e+00	0.00000e+00	0.00000e+00	0.00000e+00	0.00000e+00	0.00000e+00	0.00000e+00	0.00000e+00	0.00000e+00	0.00000e+00	0.00000e+00	0.00000e+00	0.00000e+00	0.00000e+00	0.00000e+00	0.00000e+00	0.00000e+00	0.00000e+00	0.00000e+00	0.00000e+00	0.00000e+00	0.00000e+00	0.00000e+00	
Factor	1.00000e+00	1.00000e+00	1.00000e+00	1.00000e+00	1.00000e+00	1.00000e+00	1.00000e+00	1.00000e+00	1.00000e+00	1.00000e+00	1.00000e+00	1.00000e+00	1.00000e+00	1.00000e+00	1.00000e+00	1.00000e+00	1.00000e+00	1.00000e+00	1.00000e+00	1.00000e+00	1.00000e+00	1.00000e+00	1.00000e+00	1.00000e+00	1.00000e+00	1.00000e+00	1.00000e+00	1.00000e+00	1.00000e+00	1.00000e+00	1.00000e+00	1.00000e+00	X	X	X	X	X	X	X	X	X	X	X	X	X	X	X	X	

B = Detector Channel
Val Type	B-AC1	B-AC2	B-AC3	B-AC4	B-AC5	B-AC6	B-AC7	B-AC8	B-AC9	B-AC10	B-AC11	B-AC12	B-AC13	B-AC14	B-AC15	B-AC16	B-DC1	B-DC2	B-DC3	B-DC4	B-DC5	B-DC6	B-DC7	B-DC8	B-DC9	B-DC10	B-DC11	B-DC12	B-DC13	B-DC14	B-DC15	B-DC16	B-Ph1	B-Ph2	B-Ph3	B-Ph4	B-Ph5	B-Ph6	B-Ph7	B-Ph8	B-Ph9	B-Ph10	B-Ph11	B-Ph12	B-Ph13	B-Ph14	B-Ph15	B-Ph16	

Term	0.00000e+00	0.00000e+00	0.00000e+00	0.00000e+00	0.00000e+00	0.00000e+00	0.00000e+00	0.00000e+00	0.00000e+00	0.00000e+00	0.00000e+00	0.00000e+00	0.00000e+00	0.00000e+00	0.00000e+00	0.00000e+00	0.00000e+00	0.00000e+00	0.00000e+00	0.00000e+00	0.00000e+00	0.00000e+00	0.00000e+00	0.00000e+00	0.00000e+00	0.00000e+00	0.00000e+00	0.00000e+00	0.00000e+00	0.00000e+00	0.00000e+00	0.00000e+00	6.90162e+01	-1.56128e+02	-1.16186e+02	-1.81639e+02	-7.96074e+01	-9.11058e+01	-1.56882e+02	-1.62015e+02	-1.33922e+02	-6.75792e+01	-1.72122e+02	-1.69516e+02	-1.85555e+02	-1.76516e+02	-9.85877e+01	-1.49146e+02	
Factor	6.21861e-05	1.15743e-04	3.18327e-05	1.64936e-01	1.44916e-06	1.20847e-06	1.76422e-01	5.14978e-02	1.99006e-06	1.27802e-06	8.81120e-02	2.83650e-02	2.55766e-02	8.90638e-03	1.90026e-06	1.25959e-02	1.53080e-06	1.58230e-06	4.40569e-07	8.63224e-02	1.72893e-08	1.73607e-08	8.67342e-02	2.69960e-02	1.72581e-08	1.73857e-08	4.42118e-02	1.42717e-02	1.32884e-02	4.65608e-03	1.73092e-08	6.35628e-03	X	X	X	X	X	X	X	X	X	X	X	X	X	X	X	X	



#DISTANCE SETTINGS
A = Detector Channel
A-1	A-2	A-3	A-4	A-5	A-6	A-7	A-8	A-9	A-10	A-11	A-12	A-13	A-14	A-15	A-16	

2.5000e+00	3.0000e+00	2.5000e+00	3.0000e+00	2.0000e+00	3.0000e+00	1.5000e+00	3.0000e+00	3.0000e+00	3.0000e+00	3.0000e+00	3.0000e+00	3.0000e+00	3.0000e+00	1.5000e+00	3.0000e+00	

B = Detector Channel
B-1	B-2	B-3	B-4	B-5	B-6	B-7	B-8	B-9	B-10	B-11	B-12	B-13	B-14	B-15	B-16	

1.0000e+01	1.0000e+01	1.0000e+01	1.4400e+00	1.0000e+01	1.0000e+01	1.5100e+00	1.9400e+00	1.0000e+01	1.0000e+01	1.9900e+00	2.4900e+00	2.4100e+00	2.9000e+00	1.0000e+01	2.9800e+00	




#DATA BEGINS
time	group	step	mark	flag	A-AC1	A-AC2	A-AC3	A-AC4	A-AC5	A-AC6	A-AC7	A-AC8	A-AC9	A-AC10	A-AC11	A-AC12	A-AC13	A-AC14	A-AC15	A-AC16	A-DC1	A-DC2	A-DC3	A-DC4	A-DC5	A-DC6	A-DC7	A-DC8	A-DC9	A-DC10	A-DC11	A-DC12	A-DC13	A-DC14	A-DC15	A-DC16	A-Ph1	A-Ph2	A-Ph3	A-Ph4	A-Ph5	A-Ph6	A-Ph7	A-Ph8	A-Ph9	A-Ph10	A-Ph11	A-Ph12	A-Ph13	A-Ph14	A-Ph15	A-Ph16	B-AC1	B-AC2	B-AC3	B-AC4	B-AC5	B-AC6	B-AC7	B-AC8	B-AC9	B-AC10	B-AC11	B-AC12	B-AC13	B-AC14	B-AC15	B-AC16	B-DC1	B-DC2	B-DC3	B-DC4	B-DC5	B-DC6	B-DC7	B-DC8	B-DC9	B-DC10	B-DC11	B-DC12	B-DC13	B-DC14	B-DC15	B-DC16	B-Ph1	B-Ph2	B-Ph3	B-Ph4	B-Ph5	B-Ph6	B-Ph7	B-Ph8	B-Ph9	B-Ph10	B-Ph11	B-Ph12	B-Ph13	B-Ph14	B-Ph15	B-Ph16	aux-1	digaux	

3374.155	1	1	0	256	0.13621	0.094124	0.23034	0.10975	0.54199	0.1971	0.3002	0.30109	0.30155	0.37183	0.17815	0.096467	0.16916	0.27953	0.21952	0.23562	0.29583	-1.1354	-0.3875	-0.59167	-1.1292	-0.23542	-0.95625	-0.98333	-0.10625	-1.0521	-0.59375	-0.52708	-1.3604	-0.2375	-0.87083	-1.1625	218.247	201.230	93.280	245.319	46.772	159.377	185.923	49.037	48.068	10.685	-45.352	-49.084	-23.790	279.375	231.734	78.215	0.00049218	0.00087815	9.3101e-05	770	6.3271e-07	6.3105e-06	610.61	239.12	8.8169e-06	2.4076e-06	195.01	65.349	73.022	24.245	1.3363e-05	25.939	0.00092541	0.00094194	0.00026466	765.15	1.0372e-05	1.0511e-05	616.33	238.33	1.0375e-05	1.0465e-05	205.28	69.174	74.838	25.359	1.0469e-05	27.59	58.865	-22.066	38.869	-48.442	-58.664	108.970	-50.115	-44.192	103.870	7.819	-46.876	-42.429	-39.774	-36.074	102.630	-39.777	-8191	255	
3374.251	1	1	0	0	0.083046	0.23204	0.022238	0.2906	0.37656	0.27025	0.12241	0.16671	0.11706	0.29713	0.18763	0.15562	0.13686	0.07651	0.1972	0.30514	0.22917	-0.91042	-0.65833	-0.41667	-1.1292	-0.33958	-0.70208	-1.0292	-0.275	-1.2354	-0.85208	-0.36875	-1.1292	-0.50833	-0.59792	-1.1792	-13.575	181.963	224.081	280.951	265.609	128.121	-55.731	272.586	91.605	50.839	272.118	104.339	60.020	281.200	163.584	258.247	0.00078619	0.00078861	0.00019028	769.6	1.0701e-06	7.0235e-06	615.12	240.18	1.0158e-05	7.6941e-06	198.68	66.232	73.133	24.409	1.2737e-05	26.476	0.00093594	0.00095893	0.00026512	765.93	1.0531e-05	1.045e-05	621.54	239.3	1.054e-05	1.0551e-05	207.65	69.61	75.279	25.482	1.0496e-05	27.993	-60.871	233.956	-8.193	-48.705	-22.976	12.441	-50.523	-44.225	115.148	92.701	-46.896	-42.859	-39.588	-35.712	45.763	-39.990	-8191	255	
3374.347	1	1	0	0	0.19199	0.13116	0.26526	0.27787	0.33189	0.12632	0.084041	0.13937	0.31873	0.17782	0.11872	0.17659	0.1373	0.26478	0.1391	0.22933	0.3	-0.80625	-0.52917	-0.25625	-1.1667	-0.36458	-0.625	-1.1437	-0.40625	-1.0146	-0.99375	-0.31042	-1.1833	-0.63125	-0.55625	-1.0771	220.876	173.022	212.035	218.791	-9.762	230.095	140.374	137.538	76.182	148.466	138.815	244.496	48.488	287.693	211.347	-61.760	0.00029584	0.00063204	0.00021097	778.16	4.6618e-06	1.5911e-06	617.35	241.82	6.3269e-06	2.8954e-06	198.99	66.036	71.795	24.3	8.1256e-06	25.751	0.00094524	0.00096727	0.00026829	771.8	1.0485e-05	1.0614e-05	626.09	240.2	1.0465e-05	1.0649e-05	207.64	69.639	74.494	25.232	1.0659e-05	27.581	-4.996	200.604	-16.635	-48.526	141.997	94.565	-49.947	-44.002	-30.477	247.545	-46.472	-42.624	-39.425	-35.839	27.569	-39.330	-8191	255	
3374.445	1	1	0	0	0.15694	0.17497	0.092714	0.29261	0.041348	0.16815	0.36044	0.064319	0.13919	0.057232	0.15741	0.31661	0.19114	0.38736	0.19923	0.1024	0.091667	-0.69167	-0.99375	-0.38542	-1.0458	-0.5875	-0.48125	-1.3875	-0.052083	-0.63958	-0.90417	-0.072917	-1.2708	-0.7125	-0.39167	-1.0042	240.999	99.249	149.449	205.741	47.092	44.240	261.432	237.843	137.011	19.758	184.234	287.850	296.305	196.572	32.375	7.900	0.00016311	0.00078923	0.00019881	759.2	3.9588e-07	1.3445e-05	600.79	234.95	1.0137e-05	2.8779e-06	191.97	63.096	70.767	23.652	6.5605e-06	25.306	0.00095925	0.00098091	0.00027303	756.79	1.0695e-05	1.0626e-05	610.15	234.87	1.0709e-05	1.0727e-05	202.2	67.253	73.298	24.712	1.0741e-05	27.082	224.708	87.430	-1.892	-48.604	239.959	153.970	-50.101	-43.908	152.280	49.896	-47.488	-42.795	-39.263	-35.877	55.117	-39.292	-8191	255	
3374.539	1	1	0	0	0.088622	0.095758	0.26822	0.19348	0.046876	0.13833	0.071018	0.17546	0.096581	0.14359	0.24719	0.13507	0.14294	0.080571	0.13299	0.20863	0.24792	-0.675	-0.92083	-0.21875	-0.94583	-0.57917	-0.49167	-1.4396	-0.27083	-0.36042	-1.05	-0.32708	-0.98333	-0.77708	-0.31458	-1.0917	215.369	161.820	199.800	297.189	116.655	142.590	201.227	267.621	39.982	287.964	52.591	272.409	-20.922	-16.143	108.826	248.111	0.00020274	8.836e-05	0.00010865	756.33	9.2383e-06	1.3749e-05	602.7	234.83	8.2177e-06	1.6834e-06	192.13	64.543	70.323	23.348	1.0489e-05	25.445	0.00095557	0.00097835	0.00027311	756.04	1.0663e-05	1.061e-05	610.69	234.55	1.0771e-05	1.084e-05	203.39	68.139	73.018	24.579	1.0862e-05	27.197	64.135	-46.426	85.601	-48.807	181.216	119.147	-50.290	-44.163	229.611	3.646	-46.777	-42.862	-39.866	-35.712	117.682	-39.705	-8191	255	
3374.635	1	1	0	0	0.25508	0.20394	0.12027	0.053506	0.12112	0.36432	0.36604	0.14427	0.073746	0.18713	0.1303	0.21243	0.39374	0.085643	0.1942	0.057905	0.10417	-0.55417	-1.2563	-0.32917	-0.74583	-1.0208	-0.3	-1.2979	-0.62708	-0.44583	-1.2437	-0.375	-0.94375	-1.0125	-0.11042	-1.0354	200.031	259.787	24.786	44.279	216.289	-4.247	-51.481	-14.827	258.487	213.741	173.330	70.200	38.825	-29.249	157.529	133.433	0.0005044	0.00050981	0.00022017	760.36	6.383e-06	1.2597e-05	604.47	235.22	1.1318e-05	1.1898e-06	193.19	64.884	71.373	23.813	2.1702e-06	25.605	0.00096063	0.00097976	0.00027368	756.85	1.081e-05	1.0914e-05	613.99	234.97	1.0873e-05	1.0868e-05	205.3	68.66	73.775	24.894	1.0873e-05	27.497	-22.841	282.842	26.577	-48.612	5.282	53.227	-50.184	-44.226	184.394	31.449	-46.900	-43.207	-39.594	-36.026	85.075	-39.363	-8191	255	
3374.732	1	1	0	0	0.095789	0.1395	0.09859	0.18866	0.23581	0.23222	0.033652	0.12226	0.1145	0.25163	0.10949	0.054841	0.062411	0.074466	0.14019	0.30868	-0.30417	-0.48542	-1.1792	-0.26667	-0.72292	-0.95	-0.27083	-0.95625	-0.81042	-0.40625	-1.0792	-0.38125	-0.6875	-1.1375	-0.26667	-0.95	133.414	41.603	-7.634	36.273	217.451	97.802	151.249	256.691	-4.758	-54.896	10.008	265.117	223.456	72.693	296.069	289.691	0.00027561	0.00035191	0.00031914	759.45	4.9773e-06	4.0384e-07	611.95	236.7	4.7607e-06	1.6134e-05	195.03	65.821	71.941	23.882	7.801e-06	25.99	0.00096643	0.00099299	0.00027723	761.02	1.0916e-05	1.0968e-05	622.79	237.23	1.082e-05	1.0975e-05	207.84	70.153	74.588	25.004	1.0903e-05	27.687	267.393	214.282	102.361	-48.660	116.874	38.357	-50.080	-44.214	186.321	92.711	-46.513	-42.767	-39.608	-35.747	105.334	-39.460	-8191	255	
3374.852	1	1	0	0	0.13093	0.19802	0.24243	0.09381	0.28808	0.074522	0.18786	0.26836	0.42697	0.10311	0.22077	0.14035	0.2485	0.38269	0.21159	0.13022	-0.42292	-0.3375	-1.0396	-0.45	-0.85625	-1.0604	-0.27917	-1.2271	-0.87917	-0.22917	-1.3021	-0.59167	-0.51458	-1.0604	-0.41667	-0.83333	246.751	119.706	192.803	284.270	216.545	58.725	11.266	272.415	4.343	35.856	234.224	20.424	52.731	275.605	95.916	228.197	0.00035208	0.00040398	0.00013718	756.31	2.5583e-06	3.5053e-06	611.17	236.4	1.0728e-05	5.9219e-06	192.82	64.861	70.533	23.788	1.5078e-05	25.882	0.00097569	0.00099842	0.00027984	757.35	1.0967e-05	1.0932e-05	618.63	235.79	1.0873e-05	1.0983e-05	204.55	68.651	73.537	24.943	1.0802e-05	27.487	55.830	3.832	34.905	-48.663	227.426	167.619	-49.997	-43.857	-27.321	-3.489	-46.384	-42.691	-39.655	-35.595	-25.806	-38.725	-8191	255	
3374.948	1	1	0	0	0.11492	0.18027	0.11909	0.13104	0.13843	0.3003	0.49039	0.30614	0.21335	0.16542	0.2316	0.19513	0.17132	0.12757	0.059879	0.23041	-0.54167	-0.12708	-1.0354	-0.525	-0.3625	-1.2271	-0.54583	-0.98958	-1.0375	-0.2625	-0.81042	-0.86042	-0.17292	-1.1646	-0.36875	-0.66875	220.845	253.243	167.990	273.685	235.429	111.638	246.861	217.364	51.030	115.421	203.965	287.874	155.375	259.780	283.725	289.140	0.00023645	0.00059188	0.00013105	754.93	5.0763e-06	3.6122e-06	603.23	235.68	8.4875e-06	6.8379e-06	194.19	65.121	71.42	23.883	7.7272e-06	25.859	0.00096617	0.00098686	0.00027659	755.26	1.0813e-05	1.0835e-05	612.72	236.27	1.068e-05	1.0844e-05	205.08	69.045	74.036	25.143	1.0797e-05	27.743	272.286	287.566	50.586	-48.242	231.377	51.070	-49.848	-43.971	257.348	68.166	-46.745	-42.401	-39.301	-35.487	45.703	-39.384	-8191	255	
3375.045	1	1	0	0	0.16305	0.075815	0.19383	0.21541	0.18402	0.23065	0.058502	0.33346	0.13395	0.14212	0.33003	0.18285	0.088322	0.18629	0.10153	0.14987	-0.55833	-0.0375	-1.2083	-0.83958	-0.275	-1.1604	-0.58958	-0.61458	-1.0958	-0.28125	-1.1688	-0.63333	-0.31667	-1.2625	-0.6	-0.64375	277.953	100.009	234.595	181.315	52.088	214.938	190.038	-27.008	4.989	247.590	224.408	145.003	-0.079	187.020	-54.761	287.018	0.00076586	0.00065931	3.3855e-05	767.48	2.6593e-06	7.9644e-06	611.77	238.9	5.2569e-06	1.09e-05	197.18	66.419	72.402	24.405	7.029e-06	26.401	0.00096309	0.00099496	0.00027383	764.4	1.073e-05	1.0705e-05	622.16	238.48	1.0701e-05	1.0873e-05	207.55	69.82	74.823	25.472	1.0848e-05	28.136	-57.087	22.019	17.206	-48.916	187.054	-49.100	-50.104	-44.053	149.236	76.385	-46.458	-42.691	-39.852	-34.962	24.563	-39.683	-8191	255	
3375.141	1	1	0	0	0.13021	0.095079	0.56188	0.28857	0.11806	0.062226	0.22039	0.027643	0.14729	0.19066	0.18496	0.11134	0.11347	0.042494	0.14999	0.20164	-0.73958	-0.17083	-0.86667	-0.87292	-0.37292	-1.0667	-0.64583	-0.5	-1.1583	-0.30833	-0.72917	-0.89583	-0.2125	-1.1417	-0.58542	-0.44167	191.950	135.064	4.476	242.424	284.540	38.113	242.941	-6.870	28.703	234.110	291.031	4.091	-40.734	-29.955	231.322	211.372	0.0002624	0.00041367	0.00017181	766.35	1.3676e-05	6.629e-06	614.91	235.92	1.4712e-05	9.1962e-06	195.94	64.942	71.56	23.929	9.7831e-06	25.712	0.00096995	0.00099725	0.0002772	762.55	1.0962e-05	1.0943e-05	622.33	236.47	1.0972e-05	1.1069e-05	208.24	69.491	74.252	25.065	1.1054e-05	27.869	-44.722	-20.669	256.017	-48.604	213.218	47.962	-49.826	-43.777	-34.793	131.984	-47.009	-42.177	-39.485	-35.615	32.294	-38.890	-8191	255	
3375.237	1	1	0	0	0.20946	0.081913	0.042758	0.14908	0.18069	0.36397	0.18959	0.090128	0.45628	0.09435	0.22321	0.22229	0.28112	0.28862	0.11967	0.14479	-0.74583	-0.42292	-0.80208	-1.1063	-0.2125	-1.0938	-0.73125	-0.34583	-1.0896	-0.45	-0.69375	-0.81667	-0.31458	-1.0146	-0.86042	-0.23542	16.648	11.960	79.558	275.723	271.937	213.230	222.809	150.155	131.589	237.001	225.725	279.048	291.281	-15.582	-3.714	244.097	0.00038114	0.0011521	8.2174e-05	754.63	1.1341e-05	3.1113e-06	614.21	234.47	8.439e-06	7.8669e-06	194.87	65.243	70.017	23.441	7.317e-06	25.671	0.00098525	0.0010119	0.00028271	759.18	1.1082e-05	1.1135e-05	625.2	235.18	1.0985e-05	1.1105e-05	207.08	69.061	73.277	24.715	1.1006e-05	27.476	281.622	51.497	-13.730	-48.418	60.321	266.862	-50.209	-43.842	2.018	62.828	-46.828	-42.597	-39.421	-35.708	131.975	-39.703	-8191	255	
3375.331	1	1	0	0	0.28504	0.08502	0.040876	0.5396	0.30709	0.18566	0.26469	0.26103	0.20391	0.055753	0.17665	0.23237	0.34577	0.16202	0.16933	0.17068	-0.77292	-0.21875	-0.45625	-1.0958	-0.11667	-0.84167	-0.97292	-0.25625	-1.0333	-0.55417	-0.70833	-1.1208	-0.072917	-0.85208	-0.99375	-0.1625	153.000	129.445	131.656	249.486	83.509	277.269	45.188	138.998	198.553	121.061	286.738	248.482	275.503	220.832	262.546	214.944	0.00021104	0.00091259	6.0958e-05	748.31	6.9512e-06	1.1578e-05	594	230.13	2.3307e-05	1.0993e-05	191.06	63.243	68.968	23.169	1.0115e-05	24.824	0.00099314	0.0010196	0.00028186	748.73	1.1178e-05	1.1106e-05	606.55	231.73	1.1054e-05	1.1212e-05	202.72	67.432	71.977	24.431	1.1097e-05	26.987	-46.638	65.221	-31.890	-48.438	286.201	140.745	-50.064	-43.824	-5.618	71.872	-46.784	-42.386	-39.219	-35.723	62.687	-39.359	-8191	255	
3375.452	1	1	0	0	0.35018	0.08056	0.069827	0.26031	0.060534	0.14649	0.13243	0.33249	0.15581	0.25694	0.14212	0.26058	0.21695	0.15346	0.19636	0.27827	-0.79167	-0.5875	-0.46042	-1.2979	-0.38542	-0.88125	-0.97083	-0.1875	-1.0542	-0.74792	-0.23333	-1.1313	-0.43542	-0.40833	-1.1229	-0.26042	190.774	255.881	73.780	133.622	280.700	-61.140	-40.958	263.512	-10.422	27.895	101.743	-60.785	37.854	-41.248	38.483	167.086	0.00043402	0.0005411	0.00017739	745.83	2.9127e-06	4.5693e-06	599.85	230.13	6.3197e-06	2.3886e-06	189.42	63.191	68.963	22.949	1.4153e-05	24.948	0.00099068	0.0010194	0.00028237	747.61	1.1159e-05	1.1182e-05	609.38	230.39	1.1115e-05	1.1117e-05	202.49	67.93	72.025	24.28	1.1201e-05	27.097	-17.005	238.605	131.431	-48.701	31.218	-15.094	-49.841	-43.897	213.263	83.933	-46.184	-42.637	-39.527	-35.846	76.645	-39.439	-8191	255	
3375.548	1	1	0	0	0.042437	0.13757	0.11897	0.12731	0.25044	0.093423	0.18462	0.14768	0.11633	0.13107	0.067956	0.12842	0.11797	0.23594	0.081044	0.22508	-0.64792	-0.64167	-0.37917	-1.3583	-0.3625	-0.42708	-1.1625	-0.24167	-0.98333	-0.70417	-0.39375	-1.3354	-0.57917	-0.48542	-1.125	-0.22083	225.422	118.423	64.960	149.952	-33.070	8.640	-23.042	163.313	83.815	4.464	170.254	277.756	232.352	113.237	178.647	47.750	0.00072348	0.00071932	5.9671e-05	747.05	1.2023e-05	4.7164e-06	601.35	229.56	9.8257e-06	7.3906e-06	191.38	64.311	68.884	22.699	1.4158e-05	25.011	0.00098918	0.001018	0.00028694	748.49	1.1206e-05	1.1324e-05	612.96	230.43	1.1123e-05	1.1205e-05	204.16	68.163	71.926	24.178	1.1194e-05	27.077	248.410	66.717	24.120	-48.590	13.806	120.306	-50.008	-43.840	103.171	167.753	-46.170	-42.269	-39.649	-35.146	-15.376	-39.577	-8191	255	
3375.644	1	1	0	0	0.17826	0.15154	0.13034	0.10041	0.21812	0.080243	0.18137	0.20397	0.19625	0.14237	0.24191	0.12318	0.19916	0.22239	0.16134	0.13198	-0.62292	-0.74792	-0.25208	-1.2271	-0.41042	-0.48542	-1.2	-0.4625	-0.87083	-0.71667	-0.1875	-1.2167	-0.35208	-0.29792	-1.1458	-0.29792	130.959	284.717	255.671	152.321	0.755	252.609	243.527	93.322	248.287	274.827	264.431	20.759	54.348	297.740	252.127	8.052	0.0001264	0.00037761	0.00019802	749.18	7.1083e-06	4.4804e-06	608.42	232.35	1.0171e-05	6.9948e-06	193.84	64.758	69.086	22.922	8.6243e-06	25.273	0.0010007	0.0010326	0.00028292	749.91	1.1239e-05	1.12e-05	619.59	232.15	1.1172e-05	1.1311e-05	206.03	68.824	72.045	24.249	1.1251e-05	27.068	52.573	194.434	296.115	-48.396	-47.767	28.718	-49.980	-43.863	-7.446	208.627	-46.815	-42.003	-39.645	-35.016	-33.643	-39.005	-8191	255	
3375.740	1	1	0	0	0.26073	0.12283	0.048364	0.068044	0.28094	0.099446	0.2272	0.24241	0.06988	0.066459	0.25794	0.14693	0.17536	0.18116	0.30957	0.29396	-0.375	-0.86875	-0.225	-1.1146	-0.53333	-0.36042	-1.1208	-0.45	-0.72083	-1.0333	-0.27292	-1.0479	-0.54583	-0.38125	-1.1708	-0.19792	241.102	-22.856	295.765	-9.940	-50.415	129.838	193.196	20.650	236.680	-51.491	247.440	218.891	133.126	-56.221	95.094	226.395	0.00061104	0.00051416	0.00020973	739.27	2.8166e-06	9.9216e-06	595.25	226.7	1.1656e-05	5.9058e-06	183.55	62.36	67.288	22.366	1.5112e-05	24.196	0.00099775	0.0010182	0.00028581	738.12	1.1297e-05	1.1285e-05	605.45	227.55	1.1202e-05	1.1226e-05	199.04	66.533	70.279	23.716	1.1205e-05	26.336	-50.513	70.282	188.251	-48.476	121.482	22.925	-50.114	-43.844	297.104	72.070	-46.495	-42.206	-39.408	-35.446	101.090	-39.302	-8191	255	
3375.836	1	1	0	0	0.25611	0.23732	0.088847	0.14427	0.055519	0.19603	0.12101	0.13285	0.051899	0.17331	0.10239	0.19172	0.1631	0.26909	0.027367	0.32267	-0.23958	-0.82708	-0.05	-1.0146	-0.84583	-0.25625	-1.2646	-0.67083	-0.53333	-0.98125	-0.20833	-0.78958	-0.85208	-0.17708	-1.1125	-0.55208	136.346	168.218	263.547	226.736	296.966	274.523	-22.277	264.317	149.292	0.803	64.378	186.808	-39.696	-44.428	274.993	-38.416	0.00026996	0.00092735	3.0165e-05	733.55	9.713e-06	8.4678e-06	589.4	223.96	1.8666e-06	9.8489e-06	186.48	62.612	67.123	22.34	1.875e-05	24.479	0.0010003	0.0010261	0.00028504	736.24	1.1287e-05	1.1292e-05	600.96	226.54	1.1243e-05	1.1269e-05	200.52	66.739	70.377	23.669	1.1317e-05	26.53	268.852	-22.967	209.839	-48.383	138.929	61.183	-50.042	-44.027	21.016	49.190	-46.757	-42.083	-39.811	-35.160	68.315	-39.513	-8191	255	
3375.933	1	1	0	0	0.10775	0.24626	0.28878	0.46933	0.2051	0.36826	0.084997	0.046615	0.10684	0.1022	0.46349	0.15022	0.19389	0.31803	0.11402	0.34022	-0.28125	-1.0104	-0.045833	-0.93333	-0.88125	-0.30208	-1.1417	-0.41042	-0.19583	-1.1021	-0.41667	-0.86875	-0.97292	-0.25208	-1.0646	-0.7375	-56.067	52.153	72.746	294.082	-32.624	-12.796	235.466	210.828	-48.917	164.501	-36.105	125.906	46.267	241.650	-33.664	213.067	0.00036061	0.00060476	5.7594e-05	729.5	1.3922e-05	3.28e-06	589.59	224.02	3.2873e-06	7.7309e-06	187.04	61.762	66.396	21.895	1.1293e-05	24.231	0.0010054	0.0010319	0.00028874	734.82	1.1369e-05	1.1445e-05	604.84	225.68	1.1377e-05	1.1567e-05	200.18	66.637	69.976	23.478	1.16e-05	26.465	258.099	85.391	78.835	-48.203	-25.952	151.214	-50.164	-44.072	84.632	183.097	-46.645	-42.254	-39.548	-35.370	193.041	-38.972	-8191	255	
3376.029	1	1	0	0	0.13251	0.29566	0.20354	0.26739	0.23829	0.12572	0.084605	0.40429	0.16886	0.10894	0.08238	0.26304	0.24275	0.092265	0.14485	0.16788	-0.00625	-1.0833	-0.15	-0.78542	-0.85208	-0.27292	-1.0333	-0.77292	-0.14375	-1.0896	-0.50208	-0.6875	-1.2396	-0.26458	-0.99583	-0.8375	-6.210	54.061	-57.829	-52.390	220.294	140.628	-14.019	236.865	-35.778	191.184	274.440	-44.386	264.236	-26.031	259.620	276.514	0.0001388	0.00071434	0.0002581	737.3	4.3102e-06	9.8596e-06	594.72	223.09	6.9957e-06	8.33e-06	185.26	62.298	65.821	21.787	6.1251e-06	23.958	0.0010258	0.0010497	0.00029379	736.75	1.1592e-05	1.1645e-05	608.68	225.56	1.1592e-05	1.1844e-05	201.18	67.165	69.603	23.293	1.1756e-05	26.432	74.654	-28.346	166.049	-48.089	239.747	180.666	-50.095	-44.091	164.459	153.968	-46.646	-42.121	-39.178	-35.162	5.685	-38.716	-8191	255	
3376.125	1	1	0	0	0.19363	0.2344	0.16967	0.17782	0.15911	0.23862	0.13886	0.14291	0.17061	0.11242	0.043905	0.35418	0.30919	0.34143	0.21222	0.076476	0.11667	-1.1667	-0.44583	-0.39583	-0.99167	-0.18125	-0.95833	-0.98333	-0.23542	-1.1021	-0.5	-0.53958	-1.1896	-0.16458	-0.73542	-0.76875	47.023	-58.500	241.725	247.090	-43.737	260.106	250.778	42.877	162.518	290.998	-61.403	292.469	-49.364	172.676	11.796	-38.330	0.00052898	0.00019595	0.00016115	725.21	5.4873e-06	4.6889e-06	587	217.97	6.9544e-07	1.2257e-05	182.08	59.802	64.248	21.278	8.2812e-06	23.444	0.0010547	0.0010818	0.00030209	731.79	1.1843e-05	1.1784e-05	603.07	221.59	1.1775e-05	1.1863e-05	197.43	65.24	68.12	22.863	1.1785e-05	25.806	-21.092	4.191	253.156	-48.315	130.526	61.255	-50.047	-43.821	-36.260	124.998	-46.729	-41.955	-39.551	-35.729	238.634	-39.116	-8191	255	
3376.244	1	1	0	0	0.14177	0.29233	0.21858	0.11694	0.15023	0.10073	0.22857	0.20622	0.11467	0.26222	0.10208	0.16348	0.17412	0.082245	0.11638	0.19384	0.10417	-0.95833	-0.41667	-0.54167	-0.9625	-0.39375	-0.77083	-1.0375	-0.025	-0.93333	-0.71875	-0.4625	-1.0396	-0.24792	-0.66458	-1.1146	151.352	53.632	150.557	281.334	200.884	151.685	247.598	267.767	140.961	164.058	263.168	38.776	104.214	-13.284	278.317	186.465	0.00043838	0.00051373	0.00011472	718.34	1.2522e-06	3.4365e-06	574.82	217.4	1.0221e-05	5.8489e-06	179.67	59.926	64.147	21.355	9.7093e-06	23.336	0.0010461	0.0010785	0.00029901	723.98	1.1718e-05	1.1735e-05	593.64	219.63	1.1676e-05	1.1752e-05	195.75	64.967	67.99	22.877	1.1785e-05	25.829	33.494	28.650	88.041	-48.820	-29.751	115.715	-50.175	-44.228	39.193	111.859	-46.588	-42.400	-39.600	-35.682	181.584	-39.212	-8191	255	
3376.340	1	1	0	0	0.1783	0.18149	0.11948	0.14402	0.13937	0.18172	0.31521	0.19775	0.38683	0.17512	0.24131	0.050797	0.092925	0.14405	0.1039	0.15513	0.2875	-0.88125	-0.73125	-0.42083	-1.1479	-0.42708	-0.65625	-0.8625	-0.18542	-0.83542	-0.68958	-0.30417	-1.2229	-0.32708	-0.22292	-0.93125	-11.933	0.340	277.577	243.943	-18.697	104.354	287.942	237.367	22.561	204.957	155.875	228.397	182.162	-48.983	-53.555	133.005	0.00014505	0.00084071	0.00017672	714.54	1.533e-05	1.2964e-06	588.55	217.79	1.3471e-05	4.4608e-06	182.43	60.468	64.352	21.352	2.0801e-05	23.566	0.0010523	0.001078	0.00029954	723.92	1.1877e-05	1.1885e-05	600.44	219.84	1.1752e-05	1.1922e-05	197.26	65.538	68.23	22.849	1.1885e-05	25.974	-48.891	170.927	59.923	-48.540	51.723	176.634	-50.216	-43.901	-26.864	19.830	-46.848	-42.062	-39.660	-35.854	97.893	-39.116	-8191	255	
3376.413	1	1	0	0	0.13216	0.32205	0.099571	0.21713	0.099236	0.10609	0.20018	0.16393	0.11697	0.16362	0.14819	0.17561	0.24748	0.083207	0.26059	0.1239	0.1625	-0.82917	-0.7	-0.28958	-0.91667	-0.63125	-0.43958	-1.2333	-0.19167	-0.85625	-0.91042	-0.13958	-1.2208	-0.68958	-0.30625	-1.3083	147.291	217.812	2.806	262.144	-10.052	245.264	-37.469	128.788	25.394	261.891	279.484	-48.756	296.214	230.635	173.511	221.203	0.00032482	0.00023618	0.00023731	721.61	7.6789e-07	3.8788e-06	588.49	217.59	1.3358e-05	1.1447e-05	184.69	60.879	64.815	21.631	5.5507e-06	24.161	0.001057	0.0010958	0.00030499	727.23	1.1853e-05	1.2009e-05	604.76	220.61	1.1954e-05	1.187e-05	200.19	66.257	68.785	23.146	1.1964e-05	26.494	-16.199	280.331	63.421	-48.458	209.315	27.512	-49.986	-43.765	280.372	279.389	-46.505	-42.039	-39.601	-35.489	-28.763	-39.193	-8191	255	
3376.532	1	1	0	0	0.10656	0.27558	0.39467	0.29736	0.21508	0.12264	0.095681	0.36646	0.27208	0.14794	0.087738	0.055517	0.055505	0.25252	0.18333	0.17863	0.054167	-0.8	-0.91667	-0.26042	-0.85833	-0.69792	-0.2125	-1.25	-0.3125	-0.77708	-1.0292	-0.097917	-0.82083	-0.7875	-0.41458	-1.1437	289.527	223.264	157.932	296.482	52.738	34.098	231.698	295.845	258.824	254.007	130.964	41.936	199.087	261.061	165.630	33.999	0.00057394	0.0010384	0.00023787	729.74	4.4691e-06	9.5889e-06	592.42	220.96	1.4188e-05	7.4665e-06	188.52	61.851	65.165	21.607	8.1331e-06	24.168	0.0010603	0.0010805	0.00030415	734.94	1.1931e-05	1.1906e-05	611.51	223.36	1.1905e-05	1.1847e-05	202.76	67.203	69.413	23.356	1.1817e-05	26.544	-46.191	122.301	53.896	-48.482	36.296	93.325	-49.906	-43.679	-11.171	116.530	-46.600	-41.949	-39.381	-35.648	165.030	-39.235	-8191	255	
3376.628	1	1	0	0	0.11079	0.030977	0.1186	0.16394	0.1972	0.34358	0.098096	0.064881	0.28533	0.088719	0.23412	0.13052	0.25526	0.40373	0.19804	0.11591	-0.05	-0.54167	-1.0521	-0.23958	-0.825	-0.77708	-0.31042	-1.1375	-0.58125	-0.50208	-1.0646	-0.2375	-0.99792	-0.85417	-0.15833	-1.0375	246.961	296.878	131.117	252.500	278.794	36.987	163.906	-46.202	226.335	291.313	37.820	116.380	145.480	-15.832	99.686	267.214	0.00044979	0.00041844	0.00018796	722.45	5.6358e-06	6.6849e-06	590.84	221.58	7.9943e-06	1.0107e-05	184.84	60.844	65.562	22.087	4.9742e-06	24.054	0.0010444	0.0010736	0.00029705	730.03	1.1698e-05	1.1647e-05	602.49	223.12	1.1628e-05	1.1779e-05	199.18	65.936	69.108	23.486	1.1732e-05	26.377	295.435	157.942	-42.931	-48.195	280.088	185.184	-50.123	-43.677	12.303	-0.526	-46.844	-42.450	-39.368	-35.508	-35.924	-38.413	-8191	255	
3376.725	1	1	0	0	0.36293	0.25251	0.073322	0.23218	0.10705	0.27267	0.22543	0.25203	0.16783	0.177	0.29977	0.020747	0.24403	0.11979	0.21029	0.13269	-0.095833	-0.24375	-1.0625	-0.18542	-0.68333	-1.0021	-0.060417	-1.0562	-0.63125	-0.4375	-1.0958	-0.3	-0.62708	-0.93333	-0.14583	-1.125	81.186	17.928	54.395	295.981	19.380	-8.600	153.091	-53.559	275.401	-7.486	288.401	45.873	282.657	165.858	-40.195	-3.404	0.00030271	0.00021719	0.00028966	725.81	1.0312e-05	1.1432e-05	584.09	220.09	6.2535e-06	3.0005e-06	184.3	61.541	65.769	22.125	1.0343e-05	24.05	0.001033	0.0010683	0.00029677	729.34	1.1783e-05	1.1775e-05	601.05	222.59	1.1691e-05	1.1793e-05	199.2	66.276	69.083	23.427	1.18e-05	26.466	-1.057	-28.992	-29.850	-48.258	107.795	88.227	-50.260	-43.776	-52.242	254.913	-46.231	-42.426	-39.051	-35.399	-4.189	-39.064	-8191	255	
3376.845	1	1	0	0	0.15212	0.13259	0.10607	0.24666	0.072258	0.083427	0.029443	0.086571	0.17579	0.10067	0.1782	0.062493	0.089378	0.21703	0.10447	0.24517	-0.30833	-0.4375	-1.0708	-0.34583	-0.58542	-1.1417	-0.029167	-1.0146	-0.63125	-0.3375	-1.0958	-0.56875	-0.43542	-1.0792	-0.31458	-0.9125	227.883	33.796	269.239	291.003	30.492	182.001	212.860	-24.666	154.209	118.760	235.570	168.168	56.090	-1.876	104.136	165.171	0.00030551	0.00073979	0.00023578	722.99	4.4941e-06	7.2207e-06	585.31	218.59	7.5146e-06	9.6754e-06	181.88	60.841	64.528	21.596	1.4338e-05	23.893	0.0010524	0.0010877	0.00030099	729.13	1.1974e-05	1.195e-05	601.08	221.26	1.1886e-05	1.2085e-05	198.79	66.208	68.478	23.228	1.2004e-05	26.371	58.766	104.921	80.551	-48.047	101.559	43.299	-49.916	-43.656	229.021	112.895	-46.426	-41.899	-39.262	-35.205	132.036	-39.201	-8191	255	
3376.941	1	1	0	0	0.31203	0.18585	0.14681	0.29098	0.2169	0.17915	0.21293	0.089609	0.16357	0.31952	0.16045	0.10667	0.046673	0.05487	0.11521	0.20415	-0.22292	-0.079167	-1.125	-0.47917	-0.29792	-1.1875	-0.26458	-0.85208	-0.72708	-0.22708	-1.1458	-0.59792	-0.5375	-1.1021	-0.28125	-0.81042	161.928	249.080	33.629	-61.604	146.091	-31.819	202.461	253.835	78.675	229.811	3.599	-32.243	49.191	87.750	-50.597	256.251	0.00081943	0.00084879	0.00015221	720.42	6.9873e-06	9.224e-06	583.87	217.43	1.6041e-05	4.9162e-06	183.67	61.208	64.606	21.676	7.7647e-06	23.802	0.0010688	0.0010995	0.00030574	725.34	1.1962e-05	1.1975e-05	602.01	220.21	1.1917e-05	1.2039e-05	200.02	66.082	68.74	23.132	1.1847e-05	26.28	-35.091	277.798	123.794	-48.694	-6.880	137.254	-49.949	-43.936	274.338	154.492	-46.132	-42.197	-38.927	-35.336	5.469	-38.847	-8191	255	
3377.013	1	1	0	0	0.12868	0.20068	0.13364	0.078968	0.069974	0.25726	0.067369	0.16945	0.30327	0.13708	0.17759	0.2609	0.1663	0.33913	0.32918	0.1928	-0.63333	-0.022917	-1.1646	-0.73333	-0.26667	-1.0458	-0.29167	-0.75417	-0.87917	-0.39167	-1.0688	-0.96458	-0.3375	-1.2875	-0.40417	-0.85	232.415	17.266	247.555	85.381	135.774	278.166	187.630	283.682	197.352	82.061	-50.426	135.962	-22.364	278.459	250.520	154.342	0.00026338	0.00028065	0.0002228	712.09	6.0227e-06	8.8745e-06	575.79	215.82	1.0238e-05	8.6357e-06	180.12	58.881	62.871	21.134	1.1397e-05	23.139	0.0010535	0.0010825	0.000301	720.68	1.186e-05	1.1898e-05	591.56	218.24	1.1729e-05	1.1862e-05	194.42	64.031	67.081	22.725	1.1676e-05	25.637	-12.912	292.214	76.707	-48.825	-5.035	112.178	-50.365	-43.480	121.607	62.916	-46.727	-42.307	-39.369	-35.673	-31.868	-39.373	-8191	255	
3377.109	1	1	0	0	0.14355	0.13062	0.19535	0.16669	0.1838	0.16081	0.064204	0.22053	0.20413	0.2579	0.11201	0.041189	0.24369	0.27593	0.20624	0.19398	-0.73958	-0.17292	-0.95833	-0.74167	-0.25	-1.1979	-0.4875	-0.55208	-1.1354	-0.32083	-0.91875	-0.84792	-0.3375	-1.3604	-0.53333	-0.45	53.736	42.718	171.658	-23.038	200.389	-23.388	125.499	170.928	236.780	3.967	266.360	-48.131	116.998	-33.639	11.567	238.413	0.00070315	0.00063726	3.5989e-05	713.18	7.6054e-06	8.6961e-06	569.38	213.08	1.0315e-05	5.6349e-06	178.77	58.891	63.263	21.066	1.1815e-05	23.219	0.0010408	0.0010674	0.00029796	716.66	1.1706e-05	1.1814e-05	587.31	216.51	1.1621e-05	1.1734e-05	193.43	63.966	66.896	22.656	1.1704e-05	25.607	-45.407	201.312	28.993	-48.659	150.979	110.448	-50.128	-43.747	255.573	3.721	-46.901	-42.039	-39.263	-35.166	-14.605	-38.781	-8191	255	
3377.228	1	1	0	0	0.073397	0.198	0.10286	0.14563	0.27837	0.074754	0.22754	0.14763	0.19465	0.17908	0.18107	0.1315	0.12853	0.04855	0.18779	0.19871	-0.67917	-0.29375	-0.64583	-0.99583	-0.26458	-1.2333	-0.425	-0.24583	-1.225	-0.25208	-0.73125	-0.84792	0.11042	-1.0625	-0.675	-0.33125	200.869	261.343	234.709	214.609	99.967	181.920	215.671	-11.199	272.210	244.882	32.134	124.463	-5.525	174.364	-55.236	191.955	0.00058559	0.00027023	0.00028138	709.08	7.3723e-06	1.311e-06	574.69	212.72	2.2689e-05	1.0445e-05	181.14	58.828	63.032	20.979	1.2421e-05	23.297	0.0010429	0.0010752	0.00029769	717.52	1.1698e-05	1.1661e-05	592.05	216.91	1.1644e-05	1.1702e-05	194.38	64.025	66.897	22.598	1.1657e-05	25.602	-31.107	244.596	20.346	-48.844	-18.860	9.839	-50.217	-43.885	19.821	284.514	-47.065	-42.108	-39.245	-35.365	130.299	-39.312	-8191	255	
3377.324	1	1	0	0	0.14524	0.11209	0.088943	0.23529	0.014824	0.19295	0.18404	0.31987	0.13499	0.19801	0.14455	0.25479	0.15013	0.09716	0.049908	0.077081	-0.77292	-0.37708	-0.64583	-1.1083	-0.2625	-0.91667	-0.68542	-0.34583	-1.0667	-0.46458	-0.5125	-0.94792	-0.14375	-0.75	-0.69167	-0.15833	289.320	55.807	136.846	186.729	62.503	182.281	143.246	287.562	244.626	136.500	267.028	154.527	280.855	-39.636	51.535	-5.006	0.00018697	0.00019093	0.00010019	711.36	1.0989e-05	8.0083e-06	576.18	214.39	1.0818e-05	1.3076e-05	180.17	59.038	63.705	21.132	1.2409e-05	23.224	0.0010328	0.0010682	0.00029596	719.48	1.1686e-05	1.1636e-05	594.1	217.08	1.1613e-05	1.1542e-05	195.79	64.319	67.356	22.647	1.1671e-05	25.665	59.797	-1.207	-17.540	-48.336	166.019	39.655	-50.780	-43.740	205.395	-32.484	-46.458	-42.286	-39.068	-35.688	24.746	-38.566	-8191	255	
3377.420	1	1	0	0	0.23265	0.16193	0.12149	0.16857	0.13677	0.15127	0.10176	0.37006	0.27593	0.051231	0.28789	0.37109	0.049142	0.39707	0.2533	0.15285	-0.64792	-0.61458	-0.5125	-0.9625	-0.21875	-0.975	-1.0542	-0.2625	-1.1042	-0.73542	-0.28542	-1.1396	-0.27708	-0.94583	-0.92292	-0.29167	64.724	-33.976	104.081	-41.962	156.657	172.171	-43.414	291.227	71.373	85.626	-58.727	188.067	196.954	175.076	-19.285	105.755	0.00043405	0.00029863	5.9859e-05	718.99	1.0802e-06	7.562e-06	582.95	213.76	6.9818e-06	2.4482e-06	179.07	59.008	62.813	21.187	9.0867e-06	22.945	0.0010339	0.0010597	0.00029637	721.69	1.1581e-05	1.162e-05	595.04	216.94	1.1399e-05	1.1506e-05	193.88	63.758	66.559	22.55	1.1387e-05	25.339	-18.729	189.173	267.720	-48.118	285.888	-26.431	-50.088	-43.742	246.832	297.444	-46.651	-42.648	-39.335	-35.792	20.955	-38.856	-8191	255	
3377.541	1	1	0	0	0.22744	0.24595	0.26084	0.18514	0.10019	0.15251	0.25293	0.36534	0.17879	0.19419	0.24703	0.092181	0.25318	0.55422	0.2258	0.248	-0.48542	-0.62292	-0.33333	-1.2729	-0.37083	-0.83333	-1.2021	-0.38958	-0.93958	-0.62292	-0.46875	-1.0833	-0.41875	-0.55417	-1.0979	-0.16875	189.746	235.397	155.816	236.715	68.748	-53.074	38.684	221.742	78.051	16.737	195.626	67.097	118.844	-34.944	19.444	121.550	0.00021193	0.0001976	0.00028995	708.06	8.3937e-06	6.7737e-06	575.2	213.35	5.4925e-06	2.7908e-06	176.9	58.589	62.59	20.969	1.2427e-05	23.086	0.001015	0.0010373	0.00029138	712.93	1.1303e-05	1.1348e-05	585.09	215.3	1.136e-05	1.1403e-05	191.16	63.051	66.327	22.47	1.1362e-05	25.362	-21.043	174.467	260.388	-48.595	111.343	261.783	-50.000	-43.683	261.617	122.897	-46.650	-42.586	-39.444	-35.164	36.406	-38.825	-8191	255	
3377.637	1	1	0	0	0.078664	0.18037	0.23614	0.17789	0.060675	0.14956	0.11762	0.20612	0.13833	0.30385	0.37966	0.17525	0.072294	0.12769	0.28332	0.19907	-0.56667	-0.78333	-0.21875	-1.0896	-0.38958	-0.67083	-1.1688	-0.21458	-1.0146	-0.76458	-0.29792	-1.1167	-0.5375	-0.63542	-1.1375	-0.32708	155.337	126.218	176.916	277.392	-59.486	251.219	97.124	261.767	249.012	144.507	224.195	210.038	295.561	-21.627	227.788	122.087	0.00070369	0.00054902	0.00012361	710.14	8.0068e-06	2.1168e-06	572.27	215.56	1.0522e-05	7.8151e-06	179.17	59.047	63.161	21.094	1.4528e-05	23.101	0.0010101	0.0010319	0.00028728	715.08	1.1332e-05	1.1255e-05	587.52	216.67	1.1252e-05	1.1334e-05	192.62	63.645	66.522	22.538	1.1259e-05	25.413	275.352	288.044	262.197	-48.371	228.997	114.265	-49.753	-44.095	179.536	133.847	-47.019	-42.012	-39.633	-34.758	30.845	-39.095	-8191	255	
3377.709	1	1	0	0	0.083429	0.17478	0.079015	0.12937	0.16985	0.14781	0.051916	0.16388	0.17865	0.1008	0.16508	0.14634	0.094151	0.36454	0.12245	0.26426	-0.43958	-0.95625	-0.34375	-1.0688	-0.39167	-0.27083	-1.1521	-0.29167	-0.71667	-1.0458	-0.10833	-0.95417	-0.58333	-0.30833	-1.225	-0.55625	265.789	244.985	238.129	233.098	20.971	149.413	-18.917	195.708	168.649	8.014	189.020	-19.277	232.502	246.098	61.434	117.770	0.00085734	0.00042261	0.00029676	710.79	4.6254e-06	1.327e-06	576.17	214.84	4.426e-06	3.3799e-06	180.69	59.195	63.752	21.201	5.0491e-06	23.582	0.0010006	0.001033	0.00028599	715.14	1.1321e-05	1.1236e-05	590.14	216.79	1.1211e-05	1.1259e-05	194.21	64.045	67.018	22.604	1.1129e-05	25.754	-40.688	160.460	132.249	-48.158	130.730	40.268	-50.017	-43.486	240.724	101.406	-46.695	-42.409	-39.675	-35.682	130.798	-39.437	-8191	255	
3377.805	1	1	0	0	0.062544	0.2224	0.12722	0.15424	0.21249	0.060829	0.17056	0.33649	0.091341	0.11272	0.20889	0.34141	0.20561	0.29791	0.097652	0.11963	-0.25625	-0.89375	-0.18125	-0.8625	-0.66042	-0.37292	-1.2542	-0.28958	-0.55	-0.88125	-0.22917	-0.90625	-0.9	-0.1875	-1.0958	-0.56458	93.878	286.829	191.450	-26.578	282.709	80.553	-22.250	228.427	-39.667	151.341	259.205	275.717	-15.574	-26.944	159.669	4.093	0.00021481	0.00051461	0.00023206	714.06	1.1111e-05	8.4704e-06	578.1	215.6	1.378e-05	3.6404e-06	182.56	59.961	63.284	21.263	4.0772e-06	23.548	0.00099159	0.0010296	0.00028544	718.76	1.1161e-05	1.1266e-05	593.4	217.72	1.1251e-05	1.126e-05	195.55	64.878	66.954	22.752	1.0961e-05	25.679	-32.223	260.229	97.211	-48.330	288.312	81.412	-49.606	-43.602	-43.931	-26.377	-46.368	-42.329	-38.795	-35.469	281.081	-38.598	-8191	255	
3377.926	1	1	0	0	0.20732	0.095024	0.11588	0.14162	0.092403	0.10491	0.2325	0.12816	0.2943	0.2721	0.21061	0.19849	0.094761	0.18986	0.29458	0.20952	-0.2875	-1.0375	0.0083333	-1.2604	-0.83125	-0.14583	-1.1708	-0.57083	-0.34167	-1.2708	-0.18125	-0.72083	-0.9375	-0.25	-1.075	-0.76042	66.913	81.563	234.044	-39.888	91.746	40.230	219.963	-47.604	186.116	206.255	-51.638	257.071	192.970	252.207	204.635	106.891	9.1155e-05	0.00069289	0.0002727	710.67	9.2558e-06	7.1118e-06	570.37	214.91	1.1786e-06	8.5171e-06	177.81	58.916	62.969	21.094	1.167e-05	23.216	0.00097749	0.0010193	0.00027981	714.06	1.0985e-05	1.107e-05	583.54	215.9	1.0912e-05	1.1048e-05	191.33	63.368	66.445	22.563	1.0903e-05	25.379	35.617	251.770	238.198	-48.155	222.810	81.622	-49.772	-43.554	126.138	18.072	-46.403	-42.425	-38.961	-35.185	119.702	-39.068	-8191	255	
3378.022	1	1	0	0	0.1476	0.078801	0.12371	0.17654	0.1114	0.34047	0.15419	0.35219	0.091267	0.21639	0.18107	0.16601	0.2197	0.17398	0.056243	0.16028	-0.054167	-1.1708	-0.30625	-0.85	-0.90417	-0.41042	-1.0146	-0.73333	-0.34792	-1.1854	-0.36667	-0.55625	-1.0562	-0.03125	-0.97708	-0.57708	227.992	208.320	6.594	275.664	77.162	84.915	-56.982	219.410	275.716	260.856	79.665	261.971	142.364	234.073	190.669	126.544	0.00039958	5.6288e-05	0.00017559	715.32	2.744e-06	6.5863e-06	575.17	214.16	6.5946e-06	1.0339e-05	180.42	59.145	63.002	21.203	7.0889e-06	23.606	0.00098609	0.00099817	0.00027904	715.24	1.0852e-05	1.092e-05	585.75	216.36	1.087e-05	1.0995e-05	192.45	63.701	66.596	22.611	1.095e-05	25.633	294.914	152.847	196.853	-48.331	148.776	159.349	-50.167	-43.989	147.142	112.376	-46.809	-42.429	-39.467	-35.090	94.123	-39.467	-8191	255	
3378.118	1	1	0	0	0.069387	0.21085	0.11595	0.2495	0.081021	0.32177	0.24794	0.089266	0.073596	0.12809	0.15625	0.072142	0.16437	0.19734	0.2296	0.12826	0.26042	-1.0375	-0.42292	-0.58333	-0.9125	-0.25625	-1.1313	-0.82292	-0.020833	-1.0729	-0.325	-0.48333	-0.92083	-0.19167	-0.90625	-0.79167	57.487	263.870	100.358	-43.489	257.795	-29.221	230.134	198.980	277.035	196.395	226.935	-44.932	31.240	272.676	273.816	144.721	0.00074236	0.00048453	0.00017269	715.69	1.851e-05	8.2697e-06	577.98	215.92	1.8482e-05	8.8545e-06	180.82	59.569	63.961	21.442	6.9272e-06	23.417	0.00098015	0.0010056	0.00027808	716.65	1.0947e-05	1.1013e-05	589	217.22	1.0967e-05	1.0997e-05	193.45	64.104	67.057	22.718	1.0939e-05	25.565	-14.014	133.715	283.942	-48.444	100.088	-20.732	-49.909	-43.929	52.371	-17.716	-46.610	-42.536	-39.528	-35.986	68.012	-39.075	-8191	255	
3378.214	1	1	0	0	0.19549	0.31445	0.20803	0.27145	0.12393	0.17666	0.092336	0.2702	0.27707	0.039531	0.23343	0.072516	0.081967	0.31156	0.12696	0.22949	0.32292	-1.1229	-0.38958	-0.35	-1.0187	-0.16042	-0.9125	-1.0562	-0.175	-1.0083	-0.51458	-0.17708	-1.0146	-0.48333	-0.7625	-0.85	292.076	272.015	236.574	-31.339	147.262	169.694	215.502	238.175	85.072	77.488	255.206	161.068	168.492	175.582	100.087	68.252	0.00027546	0.00024073	0.00015439	713.32	3.744e-06	5.6953e-06	583.32	216.16	2.6929e-06	2.006e-06	180.71	60.306	63.801	21.655	4.6739e-06	23.757	0.00097842	0.00099257	0.00027628	717.37	1.0914e-05	1.095e-05	590.14	217.46	1.0876e-05	1.0922e-05	194.46	64.572	67.257	22.947	1.0806e-05	25.914	125.436	283.105	42.969	-48.487	64.017	93.180	-50.168	-44.198	143.507	271.800	-47.272	-42.097	-39.090	-34.949	156.277	-39.156	-8191	255	
3378.308	1	1	0	0	0.19489	0.098419	0.21822	0.23347	0.13189	0.071726	0.14794	0.39605	0.11321	0.069605	0.3195	0.089223	0.18088	0.20556	0.18644	0.13486	0.28958	-0.94167	-0.62292	-0.3	-0.94583	-0.33125	-0.53542	-1.1167	-0.17917	-0.85625	-0.76458	-0.225	-1.2104	-0.51667	-0.49583	-1.0792	145.188	-59.136	41.128	291.766	164.835	-61.635	141.658	255.704	149.039	-18.304	172.197	223.428	-24.208	275.089	64.108	71.454	0.0003554	0.00064402	0.00024313	712.38	2.9775e-06	1.6665e-06	574.67	216.12	9.2153e-06	4.526e-06	178.09	58.776	63.348	21.592	1.0811e-05	23.54	0.0009692	0.00099282	0.00027721	714.92	1.079e-05	1.0791e-05	586.4	216.73	1.0662e-05	1.0745e-05	190.92	63.271	66.712	22.753	1.0758e-05	25.498	-58.276	73.283	80.786	-48.494	-33.063	-34.691	-49.917	-43.909	39.419	46.680	-46.872	-42.523	-39.538	-35.546	132.435	-39.406	-8191	255	
3378.406	1	1	0	0	0.12931	0.15876	0.17555	0.14281	0.18189	0.13299	0.087828	0.068744	0.15817	0.14554	0.056761	0.10957	0.05578	0.21412	0.24086	0.17931	0.27083	-0.78958	-0.79375	-0.095833	-1.0438	-0.50417	-0.49583	-1.1083	-0.17292	-0.8875	-0.94167	-0.22708	-1.0542	-0.47083	-0.4	-1.2146	26.959	234.457	285.335	288.503	275.496	266.692	205.812	16.760	-58.343	232.353	231.521	43.421	-8.776	64.466	189.413	146.901	0.0002336	0.00027737	0.00011471	713.49	3.1639e-06	3.3058e-06	568.36	214.67	1.3125e-05	3.8398e-06	178.45	58.835	64.025	21.551	1.3173e-05	23.284	0.00094032	0.000976	0.00027032	711.65	1.0623e-05	1.0712e-05	581.63	216.44	1.0567e-05	1.0657e-05	190.3	63.231	66.874	22.771	1.0515e-05	25.377	283.463	129.699	65.917	-48.488	213.077	38.637	-50.559	-43.990	208.696	244.213	-46.877	-42.065	-39.460	-35.709	68.105	-39.285	-8191	255	
3378.525	1	1	0	0	0.21006	0.075717	0.026936	0.32926	0.32281	0.144	0.19033	0.20015	0.12287	0.18999	0.21272	0.23897	0.27061	0.21741	0.09862	0.056187	0.16875	-0.71875	-0.82708	-0.37292	-1.025	-0.66458	-0.37708	-1.275	-0.26458	-0.45	-1.0479	-0.41458	-1.1313	-0.70208	-0.26458	-1.0562	7.931	53.931	37.886	240.366	85.104	292.520	36.556	137.409	172.230	273.071	78.012	229.732	128.985	249.507	270.012	73.377	0.00054531	0.0012045	0.00028556	711.59	8.5027e-06	7.6831e-06	574.37	217.05	1.4788e-05	8.7313e-06	180.44	59.7	63.537	21.638	2.2495e-05	23.691	0.00094201	0.00096574	0.00026922	713.88	1.0609e-05	1.0605e-05	584.38	217.11	1.0561e-05	1.0562e-05	192.01	63.513	66.993	22.771	1.0647e-05	25.565	-5.395	-54.377	14.732	-48.505	59.830	64.520	-50.002	-43.936	165.361	-4.653	-46.252	-42.365	-39.320	-35.400	0.173	-39.599	-8191	255	
3378.621	1	1	0	0	0.080355	0.32867	0.1678	0.1716	0.13689	0.1122	0.065146	0.24335	0.15322	0.23739	0.0074122	0.075064	0.046982	0.17829	0.23731	0.049195	0.14375	-0.79583	-0.95625	-0.2125	-0.92083	-0.87292	-0.32292	-1.1812	-0.61458	-0.21875	-1.3146	-0.275	-1.1021	-0.82083	-0.17292	-0.9125	190.419	256.154	148.228	-52.968	30.191	-54.464	165.812	201.097	137.654	135.441	-5.334	283.206	-7.142	122.236	289.831	7.038	0.00036702	0.00015393	0.000139	713.72	1.2956e-05	1.3806e-06	576.08	217.84	7.6549e-06	6.1364e-07	181.05	59.843	64.933	21.769	4.0555e-06	23.596	0.00095226	0.00097398	0.00027006	716.65	1.0659e-05	1.0573e-05	586.05	218.55	1.0629e-05	1.072e-05	193.13	63.881	67.432	22.905	1.064e-05	25.688	66.674	-46.297	58.526	-48.191	96.542	34.080	-50.098	-43.733	181.323	188.928	-46.131	-42.538	-39.140	-34.993	90.849	-39.213	-8191	255	
3378.717	1	1	0	0	0.047207	0.075902	0.1856	0.29687	0.14496	0.23636	0.06164	0.03923	0.29268	0.065602	0.14655	0.097047	0.16372	0.20926	0.17652	0.26152	-0.10625	-0.32292	-1.0521	-0.34583	-0.775	-0.89583	-0.41667	-1.1146	-0.63958	-0.30417	-1.2792	-0.36667	-0.71875	-0.82083	-0.125	-0.93958	-55.535	133.362	132.974	261.425	246.885	50.138	176.191	156.058	259.274	2.465	206.891	76.335	-20.146	225.217	241.970	175.718	5.9378e-05	0.00041297	0.00012759	719.02	2.6088e-06	7.57e-06	582.55	218.46	1.9565e-05	4.9987e-06	179.08	59.163	63.42	21.475	1.9112e-05	23.085	0.00095753	0.00097494	0.00027096	718.65	1.0589e-05	1.0681e-05	590.5	218.68	1.0649e-05	1.067e-05	191.28	63.255	66.443	22.653	1.0667e-05	25.181	-30.770	-58.045	63.804	-48.718	152.066	31.842	-49.712	-43.988	69.932	-10.097	-46.957	-42.416	-39.724	-35.815	156.176	-39.408	-8191	255	
3378.814	1	1	0	0	0.16096	0.23686	0.16317	0.052922	0.1339	0.26489	0.17976	0.46612	0.41084	0.18096	0.086001	0.051583	0.31146	0.30891	0.04464	0.055975	-0.14167	-0.18958	-0.83333	-0.40208	-0.77292	-1.0354	-0.34375	-1.0688	-0.66042	-0.28542	-1.3333	-0.46458	-0.65417	-0.98958	-0.18958	-1.1938	-61.890	30.126	-9.595	-58.189	240.684	-32.665	244.995	-43.758	186.210	98.862	23.636	-33.480	-17.185	221.525	249.907	-60.707	0.00016583	0.00047956	0.00013586	708.13	3.4673e-06	8.7139e-06	567.07	213.85	1.4258e-05	1.4116e-06	175.02	57.813	62.769	21.254	5.2785e-06	23.041	0.00094367	0.00097435	0.00026995	711.28	1.0572e-05	1.0556e-05	577.26	215.06	1.0471e-05	1.0627e-05	187.61	61.991	66.119	22.412	1.063e-05	25.003	-27.895	194.332	184.815	-48.765	124.873	268.919	-50.554	-44.358	73.331	50.663	-46.989	-42.786	-39.513	-35.530	-8.534	-39.504	-8191	255	
3378.934	1	1	0	0	0.099829	0.15394	0.11274	0.15968	0.081482	0.16432	0.054191	0.23881	0.13939	0.065805	0.18434	0.17766	0.43412	0.18254	0.090274	0.23314	-0.29792	-0.27917	-1.0063	-0.575	-0.56458	-0.98542	-0.39167	-0.95208	-0.86667	-0.12708	-1.0125	-0.35625	-0.53125	-1.1333	-0.23333	-1.0292	87.555	0.124	133.549	-43.033	-34.289	-46.531	-25.246	-52.534	259.975	217.332	177.267	231.379	-6.576	258.430	177.433	230.527	0.00055416	0.00040908	8.1977e-05	708.92	8.9641e-06	9.4852e-06	569.77	214.55	7.4379e-06	3.6604e-06	177.6	58.415	62.59	21.139	7.8954e-06	22.97	0.00093948	0.00096349	0.00026861	710.64	1.0692e-05	1.0572e-05	579.97	215.34	1.0627e-05	1.0533e-05	189.69	62.52	66.13	22.469	1.0574e-05	25.059	-52.654	-36.055	95.690	-48.628	41.148	150.210	-50.067	-44.231	-5.446	109.266	-46.997	-42.647	-39.507	-35.562	138.088	-39.270	-8191	255	
3379.006	1	1	0	0	0.12507	0.1592	0.15432	0.54088	0.07654	0.19774	0.10326	0.075643	0.33837	0.16302	0.20378	0.19704	0.15768	0.30958	0.1971	0.28289	-0.40208	-0.091667	-0.89792	-0.52917	-0.3	-0.975	-0.30833	-0.93958	-1.0125	-0.22083	-1.1729	-0.6625	-0.28958	-1.1271	-0.28542	-0.69375	220.990	86.157	63.072	289.296	191.326	148.528	284.501	156.896	195.633	147.457	218.947	-3.565	235.716	31.178	-44.303	188.157	0.00033941	0.00082878	0.00028374	714.59	1.8162e-06	8.0637e-06	572.97	213.73	1.1098e-05	2.7957e-06	178.28	58.506	63.562	21.009	5.601e-06	23.346	0.00094676	0.00097889	0.00027044	713.03	1.0761e-05	1.0714e-05	583.73	215.84	1.0675e-05	1.0782e-05	190.97	63.031	66.472	22.5	1.0723e-05	25.349	21.268	275.313	118.898	-48.821	24.516	-19.254	-50.643	-44.372	2.963	81.894	-47.237	-42.312	-40.046	-35.752	262.054	-39.125	-8191	255	
3379.102	1	1	0	0	0.23253	0.22021	0.19967	0.2672	0.052511	0.30033	0.11553	0.16252	0.21797	0.11538	0.13116	0.11786	0.085926	0.21813	0.10104	0.19768	-0.68125	0.022917	-0.86458	-0.82083	-0.18333	-1.1562	-0.62083	-0.69792	-1.0833	-0.26875	-1.0271	-0.84792	-0.27917	-1.0958	-0.64792	-0.4375	34.362	112.654	137.919	238.078	136.237	294.020	235.974	202.006	274.386	164.413	139.740	183.327	166.206	285.016	200.733	0.100	0.00078055	0.00063562	0.00015841	714.18	5.9287e-06	1.0371e-05	575.95	214.37	7.3538e-06	1.0562e-05	181.2	59.576	62.881	21.212	1.7756e-05	22.887	0.00095644	0.00098104	0.00027251	714.45	1.067e-05	1.0817e-05	587.05	216.19	1.0734e-05	1.0685e-05	192.76	63.727	66.339	22.521	1.0714e-05	25.263	3.772	-10.085	273.661	-48.505	91.149	263.841	-50.779	-44.012	-9.301	98.190	-46.780	-42.841	-39.575	-35.373	74.723	-39.797	-8191	255	
3379.198	1	1	0	0	0.060956	0.22528	0.14934	0.22312	0.040177	0.18107	0.10472	0.18363	0.21108	0.16131	0.27274	0.30925	0.19445	0.089951	0.3672	0.088176	-0.82917	-0.13333	-0.75417	-0.98542	-0.27708	-1.1792	-0.70417	-0.32917	-0.99583	-0.24167	-0.92708	-1.1167	-0.095833	-1.1708	-0.58958	-0.62292	79.517	295.656	-60.920	251.326	233.633	216.264	178.963	276.370	190.864	142.998	-47.932	-52.206	-46.592	219.638	59.249	245.004	0.00044974	0.00015321	0.0002508	708.85	7.104e-06	2.5574e-06	564.39	212.62	4.557e-06	8.2007e-06	175.04	57.205	62.716	21.259	2.3607e-06	22.777	0.00094737	0.00098601	0.00027313	711.6	1.0647e-05	1.0774e-05	576.9	214.56	1.0648e-05	1.073e-05	187.76	61.815	65.836	22.411	1.0584e-05	24.914	36.128	122.425	-36.124	-49.038	177.864	162.890	-50.361	-43.961	-45.963	-11.429	-46.950	-42.788	-40.156	-36.000	43.686	-39.344	-8191	255	
3379.317	1	1	0	0	0.086286	0.12507	0.1417	0.17231	0.26286	0.25183	0.25816	0.22306	0.07191	0.15195	0.053335	0.092337	0.06892	0.17929	0.13116	0.23235	-0.7125	-0.2625	-0.74375	-0.93958	-0.25	-1.0875	-0.68958	-0.42083	-1.0938	-0.26042	-0.6125	-1.0896	-0.25625	-0.8875	-0.79375	-0.27708	197.319	-42.362	250.039	-32.730	142.509	175.265	255.056	220.405	265.409	161.703	259.747	222.052	189.480	126.465	127.896	249.841	0.00012476	0.00046085	0.00017396	703.09	7.9644e-06	5.8271e-06	561.19	214.71	1.1754e-05	9.8092e-06	176.1	58.048	62.804	21.127	5.5963e-06	23.2	0.00094841	0.00096091	0.00026809	705.05	1.0532e-05	1.0517e-05	574.68	215	1.051e-05	1.0527e-05	188.77	62.204	65.901	22.466	1.056e-05	25.147	-28.546	248.591	67.429	-48.781	99.018	276.156	-50.670	-44.315	27.222	9.254	-47.135	-42.960	-39.949	-35.683	-3.103	-39.720	-8191	255	
3379.413	1	1	0	0	0.12731	0.12901	0.30721	0.25049	0.14952	0.25798	0.26174	0.15397	0.18632	0.20737	0.18082	0.22929	0.05664	0.066801	0.15455	0.21562	-0.55	-0.32083	-0.56875	-0.94375	-0.060417	-0.81458	-0.775	-0.21875	-0.925	-0.48125	-0.50625	-1.2188	-0.22917	-0.71875	-0.64792	-0.25417	271.783	-38.708	291.625	200.714	-9.242	-43.547	206.330	280.820	-33.301	-13.105	185.944	240.143	41.545	144.102	86.095	228.120	0.00010422	0.00013276	0.00022134	707.28	1.46e-05	1.0226e-06	570.33	214.27	9.8302e-06	4.2966e-06	177.91	58.546	62.982	21.187	6.562e-06	23.154	0.00093221	0.00097083	0.00026853	709.16	1.0497e-05	1.0616e-05	578.29	215.16	1.0513e-05	1.0536e-05	190.28	62.776	66.233	22.585	1.0443e-05	25.228	-2.354	49.438	63.269	-48.906	113.370	251.270	-50.586	-44.051	36.546	233.860	-47.073	-42.860	-40.103	-36.220	198.847	-40.103	-8191	255	
3379.509	1	1	0	0	0.21085	0.19985	0.13036	0.24099	0.060855	0.22646	0.10191	0.07832	0.097682	0.067219	0.018291	0.1435	0.15835	0.1599	0.13253	0.012072	-0.6875	-0.54583	-0.46667	-1.2479	-0.0041667	-0.82917	-0.92292	-0.2875	-1.1167	-0.58958	-0.225	-1.3896	-0.36875	-0.63958	-0.93958	-0.39583	203.573	-48.701	252.087	50.110	261.125	228.679	171.759	74.590	289.679	263.320	2.211	291.811	66.991	-55.978	174.961	102.371	0.00047295	0.00093671	0.00015696	712.69	9.2532e-06	3.7606e-06	574.69	215.3	7.0868e-06	9.6738e-06	180.78	59.86	64.229	21.715	1.7294e-05	23.79	0.00093727	0.00096564	0.00026804	713.6	1.053e-05	1.0541e-05	585.05	217.21	1.0515e-05	1.0563e-05	192.75	63.926	67.131	22.87	1.0572e-05	25.712	-23.716	41.464	-8.944	-49.181	223.507	172.473	-50.723	-44.469	213.386	-34.637	-47.312	-42.306	-39.984	-36.004	68.447	-40.039	-8191	255	
3379.606	1	1	0	0	0.2505	0.042211	0.14338	0.31449	0.17606	0.060912	0.11861	0.030781	0.061819	0.11518	0.12513	0.35629	0.13071	0.046787	0.22706	0.46107	-0.625	-0.64375	-0.15625	-1.0667	-0.42083	-0.63333	-0.94583	-0.19167	-1.0146	-0.67917	-0.225	-0.97708	-0.19375	-0.51458	-1.0229	-0.17917	236.392	-29.814	150.324	267.114	229.485	84.821	56.262	226.123	198.978	-54.981	-34.212	17.370	152.123	68.310	-13.435	290.077	0.00016103	0.000558	0.00017961	718.95	1.0864e-05	8.1102e-06	578.1	216.42	1.1738e-05	8.5221e-06	177.79	58.859	63.625	21.31	3.2462e-06	23.253	0.00093789	0.00095253	0.000267	718.32	1.0477e-05	1.0562e-05	585.89	217.93	1.0416e-05	1.0521e-05	190.04	62.874	66.574	22.593	1.0438e-05	25.279	-35.204	65.966	230.828	-48.899	61.712	-26.981	-50.506	-44.224	267.732	133.892	-47.197	-43.101	-39.941	-35.573	3.344	-39.244	-8191	255	
3379.702	1	1	0	0	0.40343	0.2024	0.043219	0.37473	0.17381	0.057683	0.029119	0.18054	0.26263	0.17913	0.21137	0.2701	0.0616	0.18906	0.082017	0.22247	-0.38542	-0.74583	-0.052083	-1.3521	-0.51458	-0.53333	-1.1938	-0.2375	-0.68125	-0.78542	-0.35	-1.1875	-0.63125	-0.37083	-1.2375	-0.31667	164.335	179.564	188.481	249.548	184.707	292.768	229.572	-0.567	19.919	153.366	129.996	256.123	-48.687	-56.157	24.728	37.103	0.00044454	9.8295e-05	0.00020872	708.94	3.8315e-06	8.0886e-06	563.97	214.52	4.0956e-06	4.2678e-06	174.1	58.177	63.326	21.31	1.7038e-05	23.082	0.00092971	0.0009515	0.00026495	706.98	1.0477e-05	1.0371e-05	574.12	214.71	1.0355e-05	1.0459e-05	187.18	62.065	65.926	22.554	1.043e-05	25.041	293.062	98.759	240.596	-49.035	104.635	63.871	-50.549	-44.323	266.307	126.394	-46.808	-43.425	-39.886	-35.813	67.655	-39.129	-8191	255	
3379.798	1	1	0	0	0.25977	0.29613	0.26784	0.26403	0.13717	0.13018	0.18579	0.18037	0.16839	0.061006	0.1578	0.069653	0.096057	0.11423	0.15761	0.33707	-0.27708	-0.87708	-0.10833	-0.92708	-0.71458	-0.29375	-1.1833	-0.36458	-0.70208	-1.1104	-0.13958	-1.0354	-0.69375	-0.36458	-1.0042	-0.45417	12.834	229.936	259.830	226.339	12.186	-7.231	-14.905	198.280	284.380	39.280	138.706	275.176	135.701	236.349	-15.840	82.056	0.00060959	0.00046843	4.4486e-05	711.79	4.2654e-06	1.1954e-05	562.94	214.48	1.2484e-05	3.1821e-06	176.76	58.402	63.291	21.282	6.6446e-06	23.292	0.00093454	0.00095197	0.00026202	710.16	1.0351e-05	1.0336e-05	574.89	215.1	1.0417e-05	1.0525e-05	189	62.305	65.785	22.434	1.0408e-05	25.096	294.462	20.960	106.855	-48.975	-3.883	-32.312	-50.413	-44.536	126.519	165.499	-47.346	-42.517	-39.935	-36.187	49.508	-39.807	-8191	255	
3379.894	1	1	0	0	0.35205	0.10489	0.21935	0.23506	0.16815	0.15456	0.20446	0.21021	0.12834	0.10579	0.19	0.062499	0.15229	0.3519	0.10581	0.15049	-0.32083	-0.95208	-0.11458	-1.0562	-0.77083	-0.2125	-1.0688	-0.3375	-0.375	-0.92708	-0.2	-0.89583	-0.67708	-0.4375	-0.83333	-0.49167	-15.004	156.496	141.400	248.195	132.374	22.878	-37.614	187.714	113.587	66.709	141.437	-24.988	108.249	288.697	-24.780	16.675	0.0005225	0.0010436	0.00017387	708.55	2.4614e-06	5.8807e-06	571.5	214.06	4.476e-06	6.7314e-07	177.09	58.26	63.239	21.158	1.1911e-05	23.044	0.00093384	0.0009548	0.0002651	707.95	1.0404e-05	1.045e-05	579.74	215.3	1.0488e-05	1.0449e-05	189.96	62.612	65.904	22.346	1.0464e-05	25.029	3.160	-61.599	120.914	-48.886	229.609	34.981	-50.534	-44.076	225.029	180.356	-46.751	-42.542	-39.946	-35.657	92.888	-39.140	-8191	255	
3380.015	1	1	0	0	0.23016	0.30257	0.21232	0.02794	0.15356	0.23057	0.15992	0.12481	0.18887	0.25751	0.20798	0.1749	0.16404	0.14387	0.29494	0.13681	0.03125	-1.2083	-0.10208	-0.81667	-0.77708	-0.070833	-1.0917	-0.60625	-0.39792	-1.0917	-0.42708	-0.85208	-1.1958	-0.12708	-0.97917	-0.54375	197.524	46.076	66.737	-17.790	33.477	157.431	177.136	226.273	-14.531	244.966	197.902	-40.926	282.400	-45.464	261.730	-2.457	0.00018369	0.00055854	2.702e-05	710.89	5.5311e-06	4.0786e-06	573.98	212.58	8.2886e-07	5.7789e-06	177.84	58.516	62.854	20.943	1.6198e-05	22.587	0.00093812	0.00096102	0.00026711	711.95	1.0492e-05	1.0555e-05	582.81	214.55	1.0391e-05	1.0541e-05	189.51	62.681	65.497	22.241	1.0329e-05	24.761	-39.217	146.998	6.456	-48.749	-26.750	49.590	-50.263	-44.204	183.091	68.395	-46.997	-42.602	-39.550	-35.422	20.392	-39.942	-8191	255	
3380.111	1	1	0	0	0.027348	0.32715	0.057956	0.27906	0.11374	0.27787	0.27116	0.14138	0.25598	0.090525	0.39229	0.23891	0.16594	0.2786	0.26876	0.40568	0.1875	-0.925	-0.325	-0.56042	-0.94375	-0.12292	-1.1208	-0.75	-0.33125	-1.0604	-0.37917	-0.68542	-1.1604	-0.375	-0.89167	-0.68333	118.886	143.218	170.090	-45.912	73.261	107.835	286.712	197.812	34.477	204.302	-8.740	227.841	221.739	84.028	-47.651	57.582	0.00032279	0.00073481	9.8231e-05	701.17	9.6522e-06	3.7851e-06	559.3	209.7	1.0599e-05	4.4059e-06	172.74	56.959	61.879	20.616	5.9451e-06	22.476	0.00092981	0.00095509	0.00026346	701.66	1.0312e-05	1.0503e-05	568.9	211.55	1.0369e-05	1.0393e-05	184.69	60.843	64.771	21.921	1.0328e-05	24.414	277.806	151.454	29.188	-48.703	13.584	127.364	-50.709	-44.649	88.459	-2.780	-47.068	-42.678	-39.816	-35.606	213.190	-39.773	-8191	255	
3380.207	1	1	0	0	0.35933	0.13191	0.090634	0.068109	0.10388	0.065091	0.24293	0.12999	0.15521	0.12434	0.090886	0.31812	0.23673	0.12216	0.17284	0.17479	0.19792	-1.025	-0.46458	-0.37083	-1.0938	-0.125	-0.83958	-0.94375	-0.29792	-1.1667	-0.48542	-0.47708	-1.1396	-0.30208	-0.85417	-0.78958	23.126	19.433	-46.576	139.310	272.683	119.692	-14.540	287.935	-17.814	57.138	147.294	-30.696	246.943	-0.819	162.512	23.583	0.00046287	0.00045625	0.00018728	700.38	8.2071e-06	9.852e-06	559.96	210.17	3.2065e-06	4.4621e-06	172.88	57.267	62.226	20.885	5.0424e-06	22.66	0.00091753	0.00094384	0.00026179	701.44	1.023e-05	1.0347e-05	570	211.43	1.029e-05	1.0412e-05	185.28	61.092	64.901	21.993	1.0191e-05	24.583	233.062	-58.816	101.345	-48.983	106.511	50.399	-50.448	-44.601	193.557	-56.362	-47.361	-42.928	-39.970	-35.560	-19.293	-39.651	-8191	255	
3380.301	1	1	0	0	0.02473	0.18274	0.090148	0.19908	0.024846	0.19115	0.23552	0.080358	0.20188	0.20356	0.36104	0.16725	0.12626	0.032456	0.13544	0.12607	0.33958	-0.97708	-0.5625	-0.25417	-1.1167	-0.091667	-0.65417	-1.0063	-0.18958	-1.0167	-0.50833	-0.28333	-1.2333	-0.39167	-0.59375	-1.1042	0.384	185.629	245.720	46.473	205.935	-3.911	252.248	124.495	222.438	-53.776	216.260	194.776	-49.903	30.985	-13.410	171.945	0.00031996	0.00088381	0.00024083	705.78	7.8726e-06	1.3608e-05	565.58	211.77	2.8179e-06	1.7728e-05	174.5	57.708	62.352	20.867	3.3019e-06	22.694	0.00092156	0.00093772	0.00026301	703.16	1.0188e-05	1.0407e-05	574.42	212.68	1.0245e-05	1.0304e-05	186.53	61.593	65.136	22.113	1.0332e-05	24.687	78.494	60.957	112.497	-48.965	65.352	230.036	-50.490	-43.754	-58.497	28.833	-47.174	-43.037	-39.755	-35.696	234.284	-39.792	-8191	255	
3380.398	1	1	0	0	0.17115	0.25857	0.37218	0.34999	0.14144	0.10392	0.12467	0.10072	0.16164	0.23419	0.27176	0.33743	0.24807	0.34524	0.32159	0.11692	0.16042	-0.97083	-0.71667	-0.32292	-1.0979	-0.47708	-0.52917	-1.1938	-0.17708	-1.025	-0.82917	-0.24167	-1.0771	-0.60417	-0.3375	-1.2354	145.145	227.994	23.943	153.588	57.148	251.384	76.412	297.889	70.599	268.236	206.430	225.665	18.143	173.811	183.041	-21.705	0.00032805	0.00066962	8.9052e-05	707.31	3.5681e-06	7.1721e-06	567.09	213.11	3.3766e-06	8.012e-06	177.91	58.566	63.272	21.062	1.0449e-05	22.669	0.00091064	0.00094735	0.00026207	707.45	1.0234e-05	1.0304e-05	577.7	213.86	1.0241e-05	1.0294e-05	188.69	62.378	65.796	22.17	1.0306e-05	24.822	264.152	45.017	-10.940	-48.803	125.552	65.797	-50.228	-44.018	33.260	283.248	-46.544	-42.178	-39.471	-35.302	81.756	-39.753	-8191	255	
3380.494	1	1	0	0	0.20673	0.087654	0.063145	0.23266	0.30276	0.176	0.19256	0.20019	0.12891	0.13335	0.20328	0.23843	0.067323	0.3948	0.076019	0.24238	0.1375	-0.81875	-0.96458	-0.22292	-0.92292	-0.67708	-0.34375	-1.3771	-0.29167	-0.6625	-0.90417	-0.054167	-1.1313	-0.56458	-0.3	-1.2313	-16.398	-39.457	101.707	204.438	167.109	251.984	191.829	221.980	-28.147	8.957	47.885	259.880	270.840	234.255	206.720	-9.324	0.00021315	0.00061792	0.00015271	702.21	1.2983e-05	7.8055e-06	563.51	212.54	1.0458e-05	2.7983e-06	174.13	56.481	61.86	20.753	6.9818e-06	22.514	0.00091501	0.00094036	0.00026249	704.42	1.0321e-05	1.0224e-05	572.17	212.67	1.0067e-05	1.0171e-05	184.92	60.897	64.716	22.042	1.0045e-05	24.429	268.373	-29.405	10.988	-48.559	115.863	63.410	-50.238	-43.781	47.531	91.223	-47.200	-42.221	-39.339	-35.649	3.564	-38.714	-8191	255	
3380.614	1	1	0	0	0.083692	0.37334	0.17814	0.14241	0.13651	0.083051	0.14997	0.094486	0.16494	0.30476	0.33152	0.069872	0.14621	0.33786	0.29341	0.30981	0.20417	-0.61042	-1.0083	-0.34583	-0.93542	-0.60208	-0.31875	-1.1333	-0.36458	-0.63125	-0.91042	-0.19375	-0.93333	-0.75208	-0.26875	-1.1833	-43.032	283.767	-30.952	287.735	252.825	115.533	289.016	263.209	-23.767	-53.314	134.287	192.665	23.090	-8.037	139.476	251.940	0.0004585	0.00053441	0.00011007	703.19	1.1011e-05	3.3699e-06	557.82	211.79	9.4206e-06	6.7983e-06	173.53	57.126	61.616	20.843	1.0759e-05	22.817	0.00089984	0.00092152	0.00025902	700.98	1.0097e-05	1.0156e-05	566.7	212.11	1.0007e-05	1.015e-05	185.12	60.957	64.68	21.974	1.0113e-05	24.59	285.080	63.513	16.591	-48.678	247.731	80.466	-50.461	-43.935	177.330	131.242	-47.389	-43.067	-39.542	-36.075	74.006	-39.646	-8191	255	
3380.710	1	1	0	0	0.41014	0.2644	0.26333	0.26767	0.018701	0.051575	0.085782	0.14532	0.18434	0.19289	0.12853	0.016552	0.13099	0.081883	0.21944	0.0255	-0.014583	-0.44792	-1.0104	-0.31042	-0.88125	-0.8	-0.18958	-1.125	-0.48333	-0.35625	-1.225	0.025	-0.99375	-0.75208	-0.18958	-1.025	26.827	190.041	190.200	292.112	236.127	218.836	138.168	204.945	204.397	48.903	196.610	95.556	-59.667	41.249	113.287	275.388	0.00014775	0.00066013	3.0657e-05	703.39	3.7975e-06	1.0157e-05	562.05	213.35	7.8845e-06	3.7465e-06	175.26	57.586	62.137	21.129	6.1035e-06	22.89	0.00090637	0.00092162	0.00025849	703.93	1.0072e-05	1.0074e-05	572.86	213.42	1.0045e-05	1.0136e-05	186.52	61.718	65.276	22.152	1.0143e-05	24.724	171.960	-6.562	82.426	-48.693	45.993	95.019	-50.348	-43.963	-39.594	195.831	-46.908	-42.380	-39.601	-35.568	112.652	-39.213	-8191	255	
3380.807	1	1	0	0	0.28975	0.059702	0.12406	0.37981	0.39724	0.17958	0.31652	0.26035	0.098229	0.18784	0.17372	0.04136	0.17101	0.32385	0.13776	0.19424	-0.17917	-0.23958	-1.0771	-0.26042	-0.74792	-1.0167	-0.21042	-1.0458	-0.50625	-0.39792	-1.0771	-0.45	-0.7375	-0.92083	-0.14167	-1.0375	156.288	294.776	204.204	49.011	66.849	53.789	276.118	234.957	40.771	7.118	-52.214	161.890	-14.182	17.022	165.344	193.304	0.00017399	0.00023241	0.0001207	707.65	7.3337e-06	6.2162e-06	570.01	214.32	4.9268e-06	1.2381e-05	179.56	58.785	63.794	21.159	1.0584e-05	23.084	0.00090284	0.00092908	0.00025717	707.75	1.0125e-05	1.015e-05	578.3	215.03	1.0119e-05	1.0196e-05	189.26	62.593	66.167	22.337	1.017e-05	25.035	-24.254	-56.561	19.325	-48.933	272.336	134.217	-50.211	-44.131	52.963	43.209	-46.176	-42.703	-40.074	-36.134	-19.119	-39.066	-8191	255	
3380.878	1	1	0	0	0.27809	0.090632	0.087517	0.19661	0.29426	0.25712	0.088762	0.18779	0.19077	0.08601	0.13131	0.15536	0.20886	0.146	0.16454	0.096452	-0.2625	-0.29375	-0.99792	-0.41667	-0.43542	-1.0833	-0.16458	-1.0292	-0.675	-0.19375	-1.125	-0.61458	-0.44583	-0.88542	-0.34167	-0.85833	132.218	81.887	128.838	274.453	277.987	292.019	20.850	212.910	10.547	-44.511	283.063	222.154	279.241	11.035	222.681	-23.888	0.00027786	0.00062417	8.5027e-05	712.86	6.5601e-06	5.1053e-06	574.51	215.61	8.6748e-06	1.1244e-05	178.01	58.7	62.967	21.186	1.3881e-05	22.998	0.00090514	0.00092444	0.00025787	711.08	1.0233e-05	1.0178e-05	582.1	216.04	1.0101e-05	1.0218e-05	188.72	62.546	65.721	22.389	1.0051e-05	24.83	217.836	14.231	-24.302	-48.742	24.060	78.892	-50.234	-44.230	83.403	73.525	-46.652	-42.902	-39.552	-35.795	92.249	-39.822	-8191	255	
3380.999	1	1	0	0	0.36064	0.14457	0.26237	0.21946	0.14201	0.13279	0.11281	0.057378	0.13589	0.21612	0.24454	0.11857	0.35147	0.21664	0.028077	0.28204	-0.50833	-0.12083	-1.1542	-0.64375	-0.43125	-0.95833	-0.29583	-0.71875	-0.93542	-0.1875	-0.97917	-0.32083	-0.52292	-0.97708	-0.15625	-0.79375	109.161	71.280	-51.697	-48.305	274.806	288.943	231.528	-31.655	112.614	-3.827	169.747	209.929	157.248	55.759	285.690	166.421	0.00013306	0.00045124	7.5955e-05	706.12	1.211e-06	1.0417e-05	559.64	213.92	3.3013e-06	2.7182e-06	175.86	58.138	62.806	21.253	1.1219e-05	22.83	0.00090184	0.00092232	0.00025647	704.96	1.0037e-05	1.0185e-05	570.52	214.08	9.9607e-06	1.0128e-05	186.54	61.538	65.655	22.37	1.0028e-05	24.782	156.077	107.334	272.029	-48.920	-23.923	94.958	-50.376	-44.228	15.325	97.046	-47.325	-43.022	-39.324	-36.032	38.367	-39.371	-8191	255	
3381.095	1	1	0	0	0.047492	0.17472	0.036498	0.20337	0.1996	0.030113	0.06015	0.17909	0.14391	0.12715	0.31452	0.28764	0.14207	0.15504	0.29173	0.12686	-0.59792	-0.3	-1.0708	-0.53125	-0.17292	-1.2292	-0.41875	-0.47083	-0.99583	-0.022917	-0.88542	-0.73542	-0.38125	-1.025	-0.44583	-0.51875	106.745	162.060	220.514	251.002	295.807	95.182	283.739	282.290	-22.593	-46.347	218.289	-40.723	27.742	-46.019	204.473	75.684	0.00032919	0.00056856	0.00018364	708.67	4.45e-06	4.3876e-06	567.07	214.66	1.0838e-05	3.6476e-06	178	59.048	62.862	21.153	4.008e-06	23.336	0.00089448	0.00092019	0.00025819	707.54	1.0169e-05	1.0099e-05	576.51	215.17	1.003e-05	1.0103e-05	188.58	62.54	66.118	22.431	1.0138e-05	25.199	-29.176	52.099	-49.489	-49.147	250.725	285.718	-50.435	-44.062	274.461	112.620	-47.028	-42.619	-39.388	-36.252	20.081	-39.704	-8191	255	
3381.191	1	1	0	0	0.12856	0.088691	0.37706	0.30075	0.11149	0.038749	0.11673	0.16791	0.11324	0.036978	0.077389	0.11548	0.24466	0.31373	0.26932	0.13835	-0.725	0.039583	-0.78333	-0.90417	-0.22083	-1.1854	-0.7	-0.56667	-1.2042	-0.08125	-0.825	-0.79167	-0.15833	-1.2146	-0.50625	-0.53125	178.845	-49.408	256.871	246.324	86.837	56.070	168.402	258.768	111.140	117.365	220.521	291.429	-30.100	56.510	-20.318	53.470	0.00043391	0.00065991	2.5164e-05	711.39	9.1549e-06	4.7569e-06	574.58	217.48	7.9376e-06	8.4089e-06	179.91	59.41	64.18	21.618	1.2677e-05	23.665	0.00090093	0.00092377	0.0002581	709.84	1.0222e-05	1.0083e-05	581.97	216.97	1.0134e-05	1.0216e-05	191.11	63.302	66.677	22.724	1.0213e-05	25.437	18.162	284.996	-28.877	-48.867	-39.021	190.619	-50.605	-44.078	-22.692	275.774	-46.671	-42.217	-40.164	-35.491	83.938	-39.427	-8191	255	
3381.287	1	1	0	0	0.077631	0.019946	0.24077	0.058964	0.1218	0.096882	0.2676	0.11834	0.15323	0.20851	0.31126	0.083599	0.25595	0.19866	0.18483	0.39543	-0.93125	-0.14583	-0.73542	-0.87083	-0.38958	-1.0583	-0.69583	-0.34583	-1.0604	-0.44375	-0.9125	-0.975	-0.18958	-1.0854	-0.60625	-0.40417	85.421	35.986	-39.054	59.048	-48.306	64.382	264.484	292.819	-40.521	277.422	159.697	221.075	4.157	248.797	-23.243	-47.365	0.0009321	0.00026309	0.00011004	712.62	5.0799e-06	1.4992e-06	579.63	216.8	1.5854e-05	4.7713e-06	181.92	60.487	64.869	21.74	6.9706e-06	23.39	0.00091182	0.00093766	0.00026013	714.27	1.0266e-05	1.0304e-05	587.21	218.03	1.0319e-05	1.0281e-05	193.08	64.033	67.162	22.88	1.0284e-05	25.405	23.363	206.544	285.551	-48.920	48.149	181.844	-50.387	-44.289	43.503	114.955	-46.767	-42.458	-40.057	-35.648	50.031	-39.637	-8191	255	
3381.406	1	1	0	0	0.37985	0.07722	0.25319	0.072205	0.051716	0.1278	0.32854	0.11558	0.30334	0.1199	0.36777	0.26635	0.021725	0.20719	0.19867	0.16261	-0.82708	-0.27083	-0.51667	-1.0646	-0.28542	-1.1292	-0.75833	-0.275	-1.125	-0.24792	-0.4125	-1.1396	-0.19167	-0.95	-0.84583	-0.33125	130.879	-53.188	154.756	295.943	-55.801	192.555	253.973	215.533	251.946	182.996	254.924	32.081	-3.824	295.472	118.645	207.365	0.00050328	0.0012374	0.00010828	710.64	5.1645e-06	4.0466e-06	566.33	213.99	7.5596e-06	8.4624e-06	174.8	58.59	63.301	21.453	4.9748e-06	23.286	0.00091015	0.00093793	0.0002606	708.06	1.0286e-05	1.0244e-05	576.41	214.61	1.0223e-05	1.0269e-05	187.47	62.362	66.031	22.643	1.027e-05	25.097	-43.604	-25.455	30.178	-48.815	69.640	84.396	-50.591	-44.324	52.489	67.395	-46.896	-43.079	-39.736	-35.696	278.320	-39.071	-8191	255	
3381.478	1	1	0	0	0.088193	0.088029	0.244	0.16875	0.03892	0.042703	0.11641	0.36207	0.093853	0.19498	0.19477	0.089665	0.11142	0.12967	0.072969	0.27413	-0.75	-0.32917	-0.29583	-1.0771	-0.077083	-0.79167	-0.95833	-0.20833	-0.85	-0.42083	-0.55208	-1.1021	-0.29792	-0.89583	-0.95417	-0.085417	55.291	258.841	191.858	265.819	62.416	62.691	211.809	260.150	117.642	-3.665	223.569	183.617	-25.473	289.612	-24.551	292.046	0.00028544	0.0009693	0.00014648	706.51	1.5244e-07	8.3914e-06	564.96	215.07	1.615e-05	4.4063e-06	176.17	58.768	63.129	21.411	3.1144e-06	23.144	0.00090919	0.00094151	0.00026251	706.21	1.0317e-05	1.0312e-05	576.75	215.34	1.0235e-05	1.0231e-05	187.96	62.427	66.001	22.58	1.0263e-05	25.103	12.614	182.632	24.331	-48.969	181.517	97.299	-50.703	-43.923	-24.034	-37.711	-46.954	-43.025	-39.718	-35.445	224.134	-38.965	-8191	255	
3381.576	1	1	0	0	0.046359	0.3387	0.075227	0.2307	0.22287	0.1428	0.16104	0.27192	0.10016	0.18937	0.323	0.095215	0.16249	0.25697	0.016179	0.17586	-0.65	-0.52708	-0.075	-0.93542	-0.29583	-0.91667	-1.25	-0.19792	-0.87708	-0.70833	-0.42917	-1.2208	-0.45833	-0.54583	-1.125	-0.37708	-0.522	258.028	49.303	182.710	85.915	56.118	-1.454	-13.376	114.896	-35.268	23.131	257.623	274.428	-30.333	52.243	-1.252	0.00065897	0.00072266	0.00027577	711.61	4.3933e-06	9.7848e-07	571.06	215.8	1.2648e-05	5.3763e-06	178.58	59.23	63.697	21.314	1.3997e-05	23.301	0.00091555	0.00092812	0.00025984	710.69	1.0231e-05	1.0296e-05	580.2	215.45	1.0283e-05	1.0248e-05	189.59	62.78	66.279	22.559	1.0224e-05	25.232	-5.526	-2.826	120.599	-48.356	55.999	168.636	-50.579	-44.077	72.646	175.464	-47.050	-42.250	-39.524	-35.485	192.187	-39.787	-8191	255	
3381.695	1	1	0	0	0.21551	0.052102	0.076515	0.16562	0.14604	0.15521	0.23284	0.061004	0.28518	0.098326	0.28405	0.10313	0.26371	0.37675	0.25963	0.12124	-0.59583	-0.55417	-0.16875	-0.96042	-0.37708	-0.6375	-1.1708	-0.27917	-0.89792	-0.79583	-0.10833	-0.86875	-0.45625	-0.33125	-1.0854	-0.30417	137.000	245.400	-29.062	281.406	70.494	62.293	260.752	212.582	211.299	260.235	285.505	251.180	205.163	249.274	87.395	268.053	0.00044093	0.00057693	0.00016347	713.36	8.6006e-06	7.5779e-06	571.14	215.12	6.6774e-06	3.97e-06	178.58	58.904	63.598	21.408	1.127e-05	23.484	0.00092805	0.000942	0.00026348	711.87	1.0304e-05	1.0265e-05	582.36	215.76	1.025e-05	1.0371e-05	190.65	63.095	66.268	22.455	1.0323e-05	25.299	-24.024	114.427	270.194	-48.547	135.053	-2.196	-50.380	-44.129	61.288	7.859	-47.210	-42.622	-39.556	-35.433	166.119	-39.080	-8191	255	
3381.791	1	1	0	0	0.31671	0.1055	0.13118	0.074013	0.1403	0.083238	0.13452	0.21009	0.10041	0.20493	0.23811	0.11299	0.10056	0.089561	0.15066	0.13067	-0.47083	-0.79167	-0.30208	-1.2125	-0.56667	-0.42708	-1.3292	-0.39375	-0.69375	-1.1396	-0.29792	-1.0229	-0.7625	-0.28333	-1.2563	-0.425	101.064	10.063	77.064	80.361	228.004	253.908	131.210	211.560	227.882	175.557	2.526	225.524	274.851	45.381	121.181	45.873	0.00033563	0.0014114	6.987e-05	712.26	4.5829e-06	5.012e-06	570.33	214.19	2.3776e-06	1.5249e-06	175.81	57.314	62.43	21.018	1.2462e-05	22.586	0.00091188	0.00095586	0.00026385	710.33	1.0307e-05	1.033e-05	580.16	213.65	1.0177e-05	1.0274e-05	186.61	61.581	65.223	22.189	1.0225e-05	24.644	-4.002	-38.941	115.199	-48.599	40.318	151.707	-50.273	-43.707	285.108	130.243	-46.586	-41.939	-39.268	-35.232	90.178	-38.880	-8191	255	
3381.887	1	1	0	0	0.25637	0.2753	0.31637	0.066478	0.1344	0.054517	0.19013	0.26679	0.17267	0.22354	0.095548	0.30921	0.38169	0.3089	0.19445	0.19801	-0.35208	-0.98125	-0.11875	-1.1604	-0.70417	-0.30417	-1.1854	-0.53958	-0.64167	-0.88958	-0.05	-0.80208	-0.83542	-0.1875	-1.0729	-0.37917	-36.237	32.044	109.831	262.527	183.430	274.359	261.910	282.009	-45.436	-3.105	213.526	291.742	176.229	-48.411	213.433	199.081	0.00058068	0.00060629	0.0001266	705.32	2.7237e-06	6.5978e-06	557.89	209.56	5.7566e-06	3.8876e-06	174.59	56.948	62.244	20.804	1.2844e-05	22.751	0.00090926	0.00094233	0.00026038	702.08	1.0216e-05	1.0301e-05	569.28	211.72	1.0175e-05	1.0207e-05	185.55	61.101	64.789	22.098	1.0175e-05	24.584	12.614	265.219	294.007	-48.529	17.156	-23.011	-50.261	-43.961	49.018	282.950	-47.336	-42.017	-39.722	-35.655	31.833	-39.707	-8191	255	
3382.008	1	1	0	0	0.25718	0.26754	0.54627	0.092573	0.30981	0.22295	0.24169	0.1288	0.30093	0.10222	0.11619	0.025175	0.12366	0.14254	0.26616	0.18807	-0.10417	-1.0792	-0.20625	-0.93958	-0.91875	-0.11667	-1.0542	-0.39167	-0.36458	-1.1313	-0.36875	-0.54792	-0.71667	-0.11875	-1.1063	-0.575	238.242	75.783	294.008	-58.141	152.808	81.805	-56.026	193.904	99.522	27.357	150.028	156.997	0.835	280.667	4.281	251.318	0.00025743	0.00027808	0.00017862	706.02	8.3214e-06	5.976e-06	557.37	211.69	6.955e-06	1.6618e-06	175.58	57.629	61.563	20.72	1.6453e-05	22.739	0.00091696	0.0009379	0.00025976	701.98	1.0281e-05	1.029e-05	571.46	212.72	1.0223e-05	1.0259e-05	186.19	61.537	64.716	21.942	1.0228e-05	24.59	72.186	48.015	-31.870	-48.696	231.248	222.467	-50.535	-44.176	-62.063	194.214	-47.284	-42.919	-40.009	-35.483	42.402	-39.009	-8191	255	
3382.102	1	1	0	0	0.1233	0.099346	0.21672	0.27765	0.30431	0.082777	0.24405	0.15342	0.1753	0.11526	0.14818	0.037008	0.13641	0.13834	0.3598	0.15461	0.0125	-1.075	-0.31875	-0.8375	-0.98125	-0.17708	-1.0042	-0.58542	-0.29792	-1.1396	-0.43125	-0.53125	-1.1333	-0.225	-1.0146	-0.61042	113.840	54.652	273.240	195.349	86.365	200.847	190.789	0.652	108.989	101.965	25.910	290.524	93.983	135.911	295.400	-28.859	0.0002063	0.00059021	0.00033762	704.14	5.4347e-06	5.0306e-06	563.05	210.38	1.228e-05	3.8285e-06	176.14	58.372	62.238	20.792	1.0123e-05	22.922	0.00091146	0.00094032	0.00026125	704	1.0334e-05	1.0248e-05	576.09	212.56	1.0293e-05	1.0311e-05	187.9	62.067	64.905	22.009	1.02e-05	24.769	292.459	-42.299	108.492	-49.060	199.709	3.249	-50.682	-44.260	199.724	61.776	-47.333	-42.200	-39.574	-35.776	4.578	-39.556	-8191	255	
3382.175	1	1	0	0	0.22027	0.22505	0.28724	0.18332	0.33903	0.16418	0.044808	0.1436	0.2929	0.085922	0.24196	0.31039	0.21405	0.29607	0.25163	0.33043	0.37083	-0.9625	-0.40833	-0.46042	-0.84167	-0.22292	-0.83542	-0.77917	-0.058333	-1.0167	-0.52917	-0.4375	-0.91667	-0.25208	-0.67917	-0.82708	26.784	-56.819	122.106	-51.175	250.126	-58.866	205.727	182.146	53.182	245.212	267.041	253.389	247.768	171.503	9.436	232.170	0.00079145	0.00098771	0.00019991	703.81	8.4344e-06	4.3014e-06	570.36	211.96	4.052e-06	5.1218e-06	175.82	57.787	62.087	20.721	1.1406e-05	22.594	0.00091594	0.00094489	0.00026088	705.09	1.0247e-05	1.0282e-05	580.95	213.3	1.0202e-05	1.0253e-05	187.69	61.866	64.8	21.939	1.0142e-05	24.429	-18.260	45.036	6.936	-48.573	171.246	263.558	-50.672	-44.423	-27.512	176.616	-46.567	-42.707	-39.587	-35.595	228.735	-40.238	-8191	255	
3382.296	1	1	0	0	0.13068	0.031723	0.23326	0.23706	0.17571	0.21886	0.43776	0.26708	0.20573	0.27176	0.11781	0.082065	0.31673	0.30528	0.15062	0.1363	0.29167	-1.0104	-0.47708	-0.37708	-1.0875	-0.2125	-0.58542	-1.1	-0.21042	-0.98542	-0.58958	-0.35	-1.1167	-0.29583	-0.55833	-1.0438	64.607	-0.122	41.065	37.337	49.819	219.609	216.017	223.522	63.569	91.409	118.500	267.082	229.335	222.185	252.690	-8.709	0.0001734	0.00091097	0.00017914	701.79	7.8241e-06	5.1775e-06	559.3	209.97	6.0949e-06	2.2143e-06	174.3	56.402	61.853	20.568	5.4157e-06	22.334	0.00090636	0.00092448	0.00025748	699.8	1.0049e-05	1.0115e-05	568.44	210.87	1.0101e-05	1.0099e-05	183.99	60.39	64.201	21.731	1.0074e-05	24.173	256.717	3.653	45.614	-48.834	38.872	80.807	-50.645	-44.387	13.258	203.959	-47.237	-42.039	-39.679	-35.766	146.200	-39.386	-8191	255	
3382.390	1	1	0	0	0.10729	0.096541	0.10818	0.24093	0.21098	0.25222	0.25217	0.11782	0.073961	0.15036	0.052924	0.012279	0.21884	0.19422	0.14116	0.030573	0.29375	-0.91667	-0.5375	-0.027083	-1.0312	-0.5375	-0.65	-1.1146	-0.125	-1.0042	-0.62292	-0.23333	-0.96875	-0.42917	-0.55208	-0.93542	51.578	179.902	-7.800	269.351	235.037	270.479	111.628	170.277	30.963	95.584	171.931	-26.943	286.647	284.270	292.050	259.566	0.00039426	0.00096578	2.043e-05	704.53	1.1505e-05	6.9028e-06	558.65	210.4	4.9095e-06	7.1435e-06	174.17	57.562	61.24	20.948	1.0173e-05	22.491	0.00089498	0.00091502	0.0002572	701.28	9.996e-06	9.9889e-06	570.28	211.08	1.0002e-05	1.0084e-05	184.91	60.885	64.375	21.812	9.9337e-06	24.325	63.383	268.073	-32.268	-48.933	23.205	20.616	-50.385	-44.070	281.074	14.933	-47.289	-43.040	-39.620	-35.898	100.734	-39.778	-8191	255	
3382.487	1	1	0	0	0.13161	0.30405	0.18046	0.19824	0.1762	0.094575	0.13432	0.13687	0.28289	0.1154	0.20397	0.18344	0.2206	0.24103	0.15577	0.17455	0.25417	-0.85208	-0.74375	-0.10833	-1.0625	-0.34167	-0.52083	-1.125	-0.16458	-0.82708	-0.85417	-0.28542	-1.0833	-0.72708	-0.31667	-1.0646	180.296	268.467	-5.781	33.123	-56.554	148.027	143.397	206.594	234.291	133.987	97.021	285.500	-58.038	85.094	0.976	283.570	0.00036228	0.00022194	0.00026239	699.44	9.3724e-06	2.5106e-06	565.93	211.39	4.4432e-06	5.9872e-06	174.75	57.74	61.71	20.655	1.3194e-05	22.591	0.00088421	0.00090889	0.00025187	700.33	9.9071e-06	9.9665e-06	572.66	211.58	9.9554e-06	9.9719e-06	185.98	61.309	64.465	21.758	9.8628e-06	24.357	150.404	198.375	142.597	-48.586	-56.475	217.527	-50.113	-44.130	-11.164	-23.099	-47.075	-42.366	-39.030	-35.876	0.299	-39.271	-8191	255	
3382.583	1	1	0	0	0.038569	0.14798	0.087969	0.23072	0.16891	0.15716	0.15526	0.08617	0.14544	0.32002	0.36524	0.1252	0.34768	0.071011	0.03863	0.31648	0.11875	-0.59167	-0.825	-0.10833	-0.90208	-0.6125	-0.28125	-1.1417	-0.2375	-0.78125	-0.95625	-0.11667	-1.0625	-0.42708	-0.20417	-1.0187	-26.557	57.595	-34.689	66.110	-55.932	147.397	198.444	125.170	128.908	-35.177	-5.563	53.562	44.979	202.830	242.825	-37.164	2.1004e-05	0.0010039	0.00016427	707.2	7.0318e-06	4.8047e-06	570.25	212.02	7.1354e-06	9.1062e-06	174.85	58.086	61.376	20.758	1.7026e-05	22.863	0.00089093	0.00091268	0.00025145	704.88	9.8476e-06	9.9174e-06	577.6	212.04	9.8256e-06	9.9416e-06	186.52	61.642	64.663	21.788	9.8362e-06	24.526	-44.581	60.372	67.721	-48.553	124.154	7.943	-50.128	-43.994	291.369	36.240	-47.105	-42.701	-39.622	-36.202	36.209	-39.532	-8191	255	
3382.679	1	1	0	0	0.060216	0.093988	0.19964	0.2387	0.10782	0.10337	0.081674	0.19308	0.16843	0.10909	0.24151	0.18504	0.26585	0.13652	0.27465	0.09085	0.1	-0.53125	-0.975	-0.43542	-0.78958	-0.85208	-0.10625	-1.1187	-0.25208	-0.49375	-0.93333	0.095833	-0.76667	-1.0229	-0.0375	-1.1354	157.740	49.362	275.623	247.303	-31.007	218.299	106.917	254.886	18.359	31.276	-59.308	245.011	195.008	124.161	265.491	-6.471	0.00043656	0.00021266	0.00017871	700.87	9.4094e-06	2.4928e-06	561.39	210	2.6499e-06	9.0432e-06	172.86	56.316	60.615	20.227	1.2349e-05	22.091	0.00088123	0.00091626	0.00025132	699.3	9.8962e-06	9.8609e-06	567.99	209.8	9.6809e-06	9.7838e-06	183.28	60.003	63.492	21.418	9.7298e-06	23.917	277.516	3.115	-14.496	-48.766	134.593	-2.174	-50.542	-44.494	55.704	60.824	-47.251	-42.837	-39.834	-35.690	265.496	-38.879	-8191	255	
3382.775	1	1	0	0	0.19839	0.055397	0.19375	0.2307	0.085887	0.08863	0.048327	0.021688	0.28681	0.13382	0.010063	0.20186	0.16144	0.15967	0.20537	0.11234	0.0083333	-0.35417	-1.0896	-0.22708	-0.75417	-0.87292	-0.11042	-1.0396	-0.49583	-0.44792	-1.1437	-0.34167	-0.65208	-0.96042	-0.060417	-1.0021	115.854	160.562	62.320	232.803	32.153	278.429	274.028	113.988	99.493	194.566	278.817	237.662	150.447	0.971	289.093	200.999	0.00033343	0.00019842	0.00012503	698.75	1.0595e-05	4.3489e-06	557.83	209.98	1.4952e-05	5.3719e-06	172.62	57.372	60.9	20.247	1.4039e-05	22.228	0.00086274	0.00089914	0.00024717	696.85	9.6715e-06	9.6942e-06	565.53	209.64	9.7372e-06	9.7101e-06	182.82	60.313	63.5	21.449	9.6686e-06	23.962	-46.104	161.638	96.701	-48.697	57.612	38.981	-50.723	-44.152	-35.519	99.255	-47.217	-42.680	-39.561	-36.019	145.424	-39.859	-8191	255	
3382.871	1	1	0	0	0.20102	0.05679	0.054211	0.28551	0.12739	0.15033	0.096935	0.16733	0.15052	0.21285	0.16045	0.030924	0.17204	0.16707	0.14018	0.14804	-0.2125	-0.15833	-1.0292	-0.42083	-0.65625	-0.99375	-0.38125	-0.83333	-0.61875	-0.53333	-1.0625	-0.22083	-0.55625	-1.075	-0.23125	-0.95625	72.616	16.943	244.010	250.204	-14.579	-39.994	239.241	-36.766	235.919	33.137	-50.076	117.681	238.077	88.031	179.898	-20.974	0.00042415	0.0010349	0.00016257	703	6.7823e-06	6.2567e-06	560.65	211	7.5474e-06	8.8063e-07	177.21	57.485	61.833	20.432	2.9791e-06	22.415	0.0008592	0.00087802	0.00024314	699.06	9.6191e-06	9.5692e-06	569.62	211.11	9.5337e-06	9.664e-06	185.61	60.807	64.106	21.662	9.7032e-06	24.269	-5.415	-43.522	114.090	-48.878	51.488	22.186	-50.572	-44.223	98.303	160.317	-47.130	-43.158	-39.964	-35.749	92.084	-38.925	-8191	255	
3382.967	1	1	0	0	0.087954	0.23698	0.17324	0.33726	0.17344	0.307	0.054238	0.23768	0.19589	0.31805	0.021532	0.25396	0.12204	0.18756	0.17242	0.011577	-0.2375	-0.13333	-1.1375	-0.29167	-0.29583	-0.94792	-0.25833	-0.72708	-0.82292	-0.25417	-1.1458	-0.42292	-0.3375	-0.97917	-0.15625	-0.71875	51.221	138.315	74.109	259.448	48.947	157.853	142.619	-55.796	98.045	0.599	255.223	148.309	230.572	-25.014	85.696	157.520	0.00013071	0.00037144	7.3738e-05	705.14	4.9497e-06	1.0249e-05	564.26	212.21	6.6572e-06	7.9678e-06	177.12	58.464	62.362	20.88	1.3757e-05	22.893	0.00086268	0.00088058	0.00024752	700.83	9.6186e-06	9.668e-06	574.09	211.98	9.5935e-06	9.7316e-06	187.07	61.719	64.659	21.894	9.6634e-06	24.525	295.643	12.022	20.896	-49.035	200.237	22.636	-51.025	-44.005	6.962	129.915	-47.867	-42.874	-39.927	-36.131	92.307	-39.836	-8191	255	
3383.088	1	1	0	0	0.13196	0.12854	0.079745	0.22716	0.068787	0.14266	0.14131	0.071147	0.27168	0.058881	0.065084	0.225	0.15388	0.043132	0.40985	0.16239	-0.29583	-0.079167	-1.0271	-0.52083	-0.22917	-1.0167	-0.30208	-0.74167	-0.92917	-0.13958	-0.98125	-0.58125	-0.16667	-1.1167	-0.12292	-0.50833	82.415	264.760	164.894	253.939	212.269	-62.207	295.084	281.028	281.710	80.596	281.779	-14.505	243.578	250.266	147.626	197.450	0.00082121	0.0010174	0.00011405	710.86	2.5322e-06	7.4465e-06	575.38	212.12	1.02e-05	6.8611e-06	176.5	57.966	62.207	20.9	5.1456e-06	22.697	0.00085765	0.0008839	0.00024633	705.72	9.6951e-06	9.6481e-06	577.91	212.87	9.4653e-06	9.5811e-06	185.38	61.223	64.337	21.838	9.5527e-06	24.342	-10.856	196.048	75.713	-48.970	292.146	9.103	-50.657	-44.249	58.560	-54.603	-46.748	-42.664	-39.782	-36.020	81.387	-39.415	-8191	255	
3383.184	1	1	0	0	0.22684	0.37745	0.14826	0.14083	0.18967	0.1474	0.16039	0.24649	0.16897	0.17813	0.14	0.3377	0.039709	0.16737	0.020776	0.0462	-0.70417	-0.045833	-0.94167	-0.75417	-0.09375	-0.98333	-0.34792	-0.45208	-1.0521	-0.3375	-0.78125	-0.68333	-0.27917	-0.88542	-0.32708	-0.46458	206.818	154.527	3.873	236.315	81.161	-13.356	230.254	225.783	-8.552	-12.158	-51.019	-26.849	136.551	192.366	-19.170	-15.034	0.00018138	0.00059494	2.6662e-05	704.31	1.2033e-05	1.7069e-06	560.19	211.46	1.7088e-05	7.2988e-06	177.47	56.865	62.672	20.882	9.8086e-06	22.831	0.0008496	0.00086117	0.00023872	699.55	9.4693e-06	9.51e-06	567.95	211.28	9.4949e-06	9.4895e-06	184.98	60.673	64.448	21.814	9.3935e-06	24.426	2.117	-43.597	61.264	-48.824	-58.689	234.107	-51.143	-44.100	287.364	48.643	-46.944	-42.752	-39.912	-35.995	-27.954	-39.698	-8191	255	
3383.279	1	1	0	0	0.14482	0.37348	0.27842	0.23758	0.40152	0.15459	0.06419	0.095103	0.19468	0.11662	0.25484	0.29147	0.3476	0.14787	0.3489	0.16054	-0.71667	-0.13333	-0.77708	-0.76875	-0.16875	-0.91667	-0.44792	-0.275	-1.0771	-0.1375	-0.87917	-0.7125	-0.25833	-0.84792	-0.39375	-0.30625	260.292	279.311	-2.377	256.569	275.829	14.627	-17.937	152.851	158.817	53.260	-40.631	229.792	-39.517	-28.574	62.450	10.066	0.00018507	0.0008309	0.00015122	705.33	5.1587e-06	8.1363e-06	570.75	212.36	1.0042e-05	8.146e-06	175.72	58.2	62.661	21.077	1.5775e-05	22.686	0.00084255	0.00085956	0.00023914	701.94	9.5022e-06	9.5232e-06	573.54	212.41	9.3948e-06	9.5973e-06	186.35	61.587	65.009	22.09	9.6165e-06	24.587	2.130	126.682	-7.715	-49.077	-38.736	66.659	-50.513	-44.198	109.459	17.527	-46.513	-42.582	-39.611	-35.927	-0.902	-39.519	-8191	255	
3383.376	1	1	0	0	0.083906	0.15466	0.33404	0.18775	0.14738	0.14022	0.35222	0.2833	0.14008	0.24717	0.11827	0.053139	0.13475	0.11947	0.045202	0.14601	-0.625	-0.225	-0.31875	-0.84375	-0.00625	-1.0708	-0.62292	-0.46458	-1.1	-0.38125	-0.47708	-0.87083	-0.047917	-0.94375	-0.63542	-0.1	165.174	191.486	232.483	213.063	209.630	279.446	194.114	215.189	151.304	163.503	277.919	72.775	178.268	218.004	-51.421	176.889	0.00016175	0.00066995	0.00015532	716.53	7.3605e-06	5.7144e-06	568.96	214.5	7.6906e-06	1.1449e-05	177.46	59.291	63.174	21.186	1.7987e-05	23.178	0.00084693	0.00087562	0.00024647	706.72	9.6336e-06	9.6498e-06	577.35	213.94	9.5679e-06	9.7573e-06	187.97	62.502	65.378	22.151	9.6806e-06	24.93	-33.864	57.887	-58.025	-48.849	94.745	187.755	-50.416	-44.083	-26.414	169.303	-46.703	-42.769	-39.648	-35.613	41.746	-39.439	-8191	255	
3383.471	1	1	0	0	0.24602	0.082405	0.063285	0.31232	0.092666	0.14339	0.18009	0.3643	0.11119	0.10562	0.19938	0.21226	0.024804	0.076909	0.11031	0.081067	-0.7125	-0.4	-0.48958	-1.0438	-0.091667	-0.82083	-0.80833	-0.1375	-0.78542	-0.38333	-0.40417	-1.0854	-0.39583	-0.84583	-0.75417	-0.15417	270.085	132.124	297.127	269.679	114.259	81.260	277.906	279.427	77.455	223.058	286.510	256.891	230.608	48.644	249.827	19.308	0.00062327	0.00090575	0.00020998	712.17	3.7252e-06	5.7468e-06	575.64	216.61	1.4938e-06	1.6108e-05	181.4	59.994	63.973	21.397	1.4618e-05	23.485	0.0008639	0.00088732	0.00024953	710.22	9.8772e-06	9.8201e-06	582.65	216.37	9.8137e-06	9.9393e-06	191.46	63.346	66.385	22.486	9.8471e-06	25.207	57.732	97.627	46.508	-48.820	93.620	25.938	-50.668	-44.038	186.227	-6.124	-47.088	-42.590	-40.118	-35.831	136.257	-39.774	-8191	255	
3383.567	1	1	0	0	0.25523	0.2434	0.13447	0.25655	0.15503	0.20095	0.16469	0.16532	0.18168	0.20293	0.055251	0.17668	0.25245	0.16335	0.085299	0.30022	-0.57083	-0.42708	-0.49167	-1.0896	-0.29792	-0.6125	-0.7375	-0.18542	-0.91042	-0.58125	-0.3875	-1.0083	-0.48333	-0.49792	-0.86458	0.022917	-34.573	52.847	169.725	280.802	67.954	231.936	35.492	259.829	221.650	182.321	248.475	210.810	273.159	-44.680	115.643	139.871	0.00022086	0.00025344	0.00012954	710.64	1.3346e-06	7.4684e-06	571.38	215.1	7.669e-06	5.0153e-06	178.95	58.823	63.874	21.612	1.5869e-05	23.624	0.00088066	0.00090108	0.00025208	708.59	9.8492e-06	9.941e-06	577.53	215.63	9.9195e-06	9.9319e-06	189.68	62.515	66.432	22.64	9.9306e-06	25.284	126.550	222.889	256.923	-48.949	162.383	-58.264	-50.597	-43.927	226.338	-61.113	-46.892	-42.677	-40.332	-35.689	41.196	-39.773	-8191	255	
3383.688	1	1	0	0	0.14436	0.17909	0.33464	0.083721	0.36544	0.20042	0.18107	0.40309	0.18459	0.36992	0.19131	0.15692	0.32335	0.18961	0.13772	0.082137	-0.34375	-0.75	-0.2	-1.0583	-0.33958	-0.61667	-1.0583	-0.18333	-0.91042	-0.84583	-0.21875	-0.96042	-0.48333	-0.46042	-0.7375	-0.30833	238.455	-59.956	-53.608	-6.366	77.752	275.516	269.728	292.612	181.784	295.967	196.009	292.889	2.732	71.705	-44.013	110.242	0.00045282	0.00085869	3.0519e-05	718.94	6.8916e-06	3.9081e-06	578.59	217.54	1.3814e-05	7.0459e-06	181.29	60.571	64.634	21.767	4.8555e-06	23.754	0.00088067	0.00090887	0.00025427	713.62	1.0026e-05	1.0083e-05	584.52	217.59	9.9674e-06	1.0039e-05	192	64.004	67.024	22.905	1.002e-05	25.57	220.261	282.912	42.470	-48.996	180.820	296.300	-50.735	-44.253	259.398	-28.450	-47.094	-43.096	-40.183	-35.776	286.038	-40.234	-8191	255	
3383.784	1	1	0	0	0.18473	0.029685	0.13261	0.2558	0.11348	0.12693	0.19033	0.4863	0.21328	0.068427	0.1053	0.10716	0.26258	0.24545	0.185	0.12157	-0.34792	-0.6875	-0.20833	-1.0708	-0.53125	-0.51875	-1.1187	-0.27708	-0.69167	-0.91667	-0.12917	-0.99375	-0.6625	-0.42708	-1.1375	-0.27917	189.578	-40.675	140.778	99.130	227.767	246.753	288.023	231.639	-0.847	253.463	140.309	171.929	-12.715	225.906	152.715	-44.052	0.00032414	0.0007649	9.998e-05	715.72	7.7978e-06	1.859e-06	579.94	218.13	1.2832e-05	5.0442e-06	182.81	60.191	65.157	21.718	2.0195e-05	23.742	0.0009041	0.00091998	0.00025373	715.71	1.0085e-05	1.0092e-05	584.68	218.19	1.0059e-05	1.0093e-05	192.86	64.047	67.529	22.998	1.0105e-05	25.766	45.980	-19.826	236.316	-48.534	-11.159	206.915	-50.374	-44.286	151.099	98.840	-47.157	-42.931	-39.565	-35.654	151.241	-39.453	-8191	255	
3383.880	1	1	0	0	0.18661	0.22476	0.16177	0.19365	0.055032	0.20848	0.2438	0.19202	0.098036	0.049031	0.12406	0.20126	0.23036	0.16336	0.22297	0.28193	-0.3625	-0.89167	0.00625	-1	-0.50417	-0.17083	-1.1604	-0.31667	-0.5875	-1.0021	-0.014583	-0.98542	-0.64583	-0.24167	-1.025	-0.32917	-56.614	96.813	290.315	256.127	223.512	92.154	213.905	-60.712	-42.578	-25.248	138.006	237.342	152.426	-26.603	7.156	230.400	0.00013371	0.00025707	0.00016824	723.1	1.2416e-06	1.3117e-06	583.86	219.43	1.1464e-05	4.8529e-06	183.37	60.881	64.653	21.914	5.8462e-06	24.275	0.00089946	0.00091533	0.00025842	720.18	1.0077e-05	1.0184e-05	592.23	219.46	1.0093e-05	1.0168e-05	194.7	64.488	67.689	23.112	1.0201e-05	25.904	20.291	34.174	-18.557	-48.741	36.083	233.114	-50.766	-44.417	28.113	4.033	-47.277	-42.561	-39.821	-35.604	33.211	-39.447	-8191	255	
3383.976	1	1	0	0	0.43697	0.15581	0.069109	0.018102	0.17264	0.31439	0.30286	0.026708	0.2972	0.06496	0.26243	0.29828	0.22341	0.10584	0.16189	0.093638	-0.16667	-1.1604	-0.060417	-0.7875	-0.75208	-0.30625	-1.2396	-0.35	-0.43333	-1.1375	-0.10208	-0.71667	-0.76667	-0.23125	-1.1604	-0.49167	287.409	289.525	-50.814	253.744	286.919	296.579	206.752	48.042	98.092	188.126	230.530	275.103	-60.875	84.038	-34.061	274.650	0.00026943	0.00045977	0.00017359	720.28	1.1789e-05	1.2137e-05	575.32	219.16	1.0986e-05	7.7606e-06	179.04	59.477	63.116	21.663	8.9743e-06	23.403	0.00090555	0.00092825	0.00025855	719.49	1.0195e-05	1.0209e-05	585.31	218.02	1.0148e-05	1.023e-05	190.1	63.096	66.34	22.732	1.0127e-05	25.312	226.332	197.207	134.587	-48.742	281.154	33.822	-50.619	-44.281	174.686	5.379	-47.085	-42.656	-40.382	-35.680	75.294	-39.197	-8191	255	
#DATA ENDS
