BOXY.EXE: ISS Imagent and Oximeter Data Acquisition Program Version 0.80
Ascii Record File

#ACQ INFORMATION
2  Detector Channels 
16  External MUX Channels 
1  Auxiliary Channels 
5000  Waveform (CCF) Frequency (Hz)
1  Waveforms Skipped 
30  Waveforms Averaged 
1  Cycles Averaged 
16  Acquisitions per Waveform 
10.0806  Updata Rate (Hz) 

#FILE INFORMATION
TRUE -- External MUX Channel results are PARSED.
FALSE -- AC DC and Phase are NOT grouped.
TRUE -- Companion Program Settings File CREATED.
FALSE -- AC data not excluded
FALSE -- DC data not excluded
FALSE -- Phase data not excluded
FALSE -- Auxillary Chn. data not excluded
Tab delimiters

#CALIBRATION STATE
TRUE -- Waveform Calibration Values APPLIED.


#AUX CALIBRATION VALUES
Val Type	aux-1	

Term	1.0000e+00	
Factor	0.0000e+00	


#WF CALIBRATION VALUES
A = Detector Channel
Val Type	A-AC1	A-AC2	A-AC3	A-AC4	A-AC5	A-AC6	A-AC7	A-AC8	A-AC9	A-AC10	A-AC11	A-AC12	A-AC13	A-AC14	A-AC15	A-AC16	A-DC1	A-DC2	A-DC3	A-DC4	A-DC5	A-DC6	A-DC7	A-DC8	A-DC9	A-DC10	A-DC11	A-DC12	A-DC13	A-DC14	A-DC15	A-DC16	A-Ph1	A-Ph2	A-Ph3	A-Ph4	A-Ph5	A-Ph6	A-Ph7	A-Ph8	A-Ph9	A-Ph10	A-Ph11	A-Ph12	A-Ph13	A-Ph14	A-Ph15	A-Ph16	

Term	0.00000e+00	0.00000e+00	0.00000e+00	0.00000e+00	0.00000e+00	0.00000e+00	0.00000e+00	0.00000e+00	0.00000e+00	0.00000e+00	0.00000e+00	0.00000e+00	0.00000e+00	0.00000e+00	0.00000e+00	0.00000e+00	0.00000e+00	0.00000e+00	0.00000e+00	0.00000e+00	0.00000e+00	0.00000e+00	0.00000e+00	0.00000e+00	0.00000e+00	0.00000e+00	0.00000e+00	0.00000e+00	0.00000e+00	0.00000e+00	0.00000e+00	0.00000e+00	0.00000e+00	0.00000e+00	0.00000e+00	0.00000e+00	0.00000e+00	0.00000e+00	0.00000e+00	0.00000e+00	0.00000e+00	0.00000e+00	0.00000e+00	0.00000e+00	0.00000e+00	0.00000e+00	0.00000e+00	0.00000e+00	
Factor	1.00000e+00	1.00000e+00	1.00000e+00	1.00000e+00	1.00000e+00	1.00000e+00	1.00000e+00	1.00000e+00	1.00000e+00	1.00000e+00	1.00000e+00	1.00000e+00	1.00000e+00	1.00000e+00	1.00000e+00	1.00000e+00	1.00000e+00	1.00000e+00	1.00000e+00	1.00000e+00	1.00000e+00	1.00000e+00	1.00000e+00	1.00000e+00	1.00000e+00	1.00000e+00	1.00000e+00	1.00000e+00	1.00000e+00	1.00000e+00	1.00000e+00	1.00000e+00	X	X	X	X	X	X	X	X	X	X	X	X	X	X	X	X	

B = Detector Channel
Val Type	B-AC1	B-AC2	B-AC3	B-AC4	B-AC5	B-AC6	B-AC7	B-AC8	B-AC9	B-AC10	B-AC11	B-AC12	B-AC13	B-AC14	B-AC15	B-AC16	B-DC1	B-DC2	B-DC3	B-DC4	B-DC5	B-DC6	B-DC7	B-DC8	B-DC9	B-DC10	B-DC11	B-DC12	B-DC13	B-DC14	B-DC15	B-DC16	B-Ph1	B-Ph2	B-Ph3	B-Ph4	B-Ph5	B-Ph6	B-Ph7	B-Ph8	B-Ph9	B-Ph10	B-Ph11	B-Ph12	B-Ph13	B-Ph14	B-Ph15	B-Ph16	

Term	0.00000e+00	0.00000e+00	0.00000e+00	0.00000e+00	0.00000e+00	0.00000e+00	0.00000e+00	0.00000e+00	0.00000e+00	0.00000e+00	0.00000e+00	0.00000e+00	0.00000e+00	0.00000e+00	0.00000e+00	0.00000e+00	0.00000e+00	0.00000e+00	0.00000e+00	0.00000e+00	0.00000e+00	0.00000e+00	0.00000e+00	0.00000e+00	0.00000e+00	0.00000e+00	0.00000e+00	0.00000e+00	0.00000e+00	0.00000e+00	0.00000e+00	0.00000e+00	6.90162e+01	-1.56128e+02	-1.16186e+02	-1.81639e+02	-7.96074e+01	-9.11058e+01	-1.56882e+02	-1.62015e+02	-1.33922e+02	-6.75792e+01	-1.72122e+02	-1.69516e+02	-1.85555e+02	-1.76516e+02	-9.85877e+01	-1.49146e+02	
Factor	6.21861e-05	1.15743e-04	3.18327e-05	1.64936e-01	1.44916e-06	1.20847e-06	1.76422e-01	5.14978e-02	1.99006e-06	1.27802e-06	8.81120e-02	2.83650e-02	2.55766e-02	8.90638e-03	1.90026e-06	1.25959e-02	1.53080e-06	1.58230e-06	4.40569e-07	8.63224e-02	1.72893e-08	1.73607e-08	8.67342e-02	2.69960e-02	1.72581e-08	1.73857e-08	4.42118e-02	1.42717e-02	1.32884e-02	4.65608e-03	1.73092e-08	6.35628e-03	X	X	X	X	X	X	X	X	X	X	X	X	X	X	X	X	



#DISTANCE SETTINGS
A = Detector Channel
A-1	A-2	A-3	A-4	A-5	A-6	A-7	A-8	A-9	A-10	A-11	A-12	A-13	A-14	A-15	A-16	

2.5000e+00	3.0000e+00	2.5000e+00	3.0000e+00	2.0000e+00	3.0000e+00	1.5000e+00	3.0000e+00	3.0000e+00	3.0000e+00	3.0000e+00	3.0000e+00	3.0000e+00	3.0000e+00	1.5000e+00	3.0000e+00	

B = Detector Channel
B-1	B-2	B-3	B-4	B-5	B-6	B-7	B-8	B-9	B-10	B-11	B-12	B-13	B-14	B-15	B-16	

1.0000e+01	1.0000e+01	1.0000e+01	1.4400e+00	1.0000e+01	1.0000e+01	1.5100e+00	1.9400e+00	1.0000e+01	1.0000e+01	1.9900e+00	2.4900e+00	2.4100e+00	2.9000e+00	1.0000e+01	2.9800e+00	




#DATA BEGINS
time	group	step	mark	flag	A-AC1	A-AC2	A-AC3	A-AC4	A-AC5	A-AC6	A-AC7	A-AC8	A-AC9	A-AC10	A-AC11	A-AC12	A-AC13	A-AC14	A-AC15	A-AC16	A-DC1	A-DC2	A-DC3	A-DC4	A-DC5	A-DC6	A-DC7	A-DC8	A-DC9	A-DC10	A-DC11	A-DC12	A-DC13	A-DC14	A-DC15	A-DC16	A-Ph1	A-Ph2	A-Ph3	A-Ph4	A-Ph5	A-Ph6	A-Ph7	A-Ph8	A-Ph9	A-Ph10	A-Ph11	A-Ph12	A-Ph13	A-Ph14	A-Ph15	A-Ph16	B-AC1	B-AC2	B-AC3	B-AC4	B-AC5	B-AC6	B-AC7	B-AC8	B-AC9	B-AC10	B-AC11	B-AC12	B-AC13	B-AC14	B-AC15	B-AC16	B-DC1	B-DC2	B-DC3	B-DC4	B-DC5	B-DC6	B-DC7	B-DC8	B-DC9	B-DC10	B-DC11	B-DC12	B-DC13	B-DC14	B-DC15	B-DC16	B-Ph1	B-Ph2	B-Ph3	B-Ph4	B-Ph5	B-Ph6	B-Ph7	B-Ph8	B-Ph9	B-Ph10	B-Ph11	B-Ph12	B-Ph13	B-Ph14	B-Ph15	B-Ph16	aux-1	digaux	

2047.498	1	1	0	256	0.31086	0.2999	0.22706	0.36097	0.095664	0.14703	0.2867	0.28708	0.1728	0.25192	0.25499	0.034817	0.17719	0.11362	0.14359	0.23203	-0.27708	-0.40208	-1.1979	-0.49167	-0.68542	-1.0604	-0.125	-1.1833	-0.43333	-0.40208	-1.1021	-0.35208	-0.52917	-0.96875	-0.25625	-0.96875	-26.161	131.921	51.126	183.353	34.334	-154.046	159.249	142.753	92.224	41.757	165.442	-144.295	-163.839	143.723	177.247	-23.869	0.00065275	0.00013326	7.2938e-05	1031.1	1.5453e-06	9.2812e-07	1121.7	218.91	4.7131e-06	1.6915e-06	272.68	73.901	59.196	16.509	3.6027e-06	22.972	3.7269e-05	2.6718e-05	7.3704e-06	998.61	3.249e-07	2.798e-07	1088.2	212.13	3.2262e-07	2.9458e-07	262.98	72.314	57.133	16.156	2.9573e-07	22.489	40.443	-122.173	-67.066	-158.416	-37.059	13.134	-158.517	-150.714	-96.543	26.501	-151.353	-145.029	-143.995	-136.804	-95.138	-137.486	-8191	255	
2047.619	1	1	0	0	0.11443	0.26052	0.32957	0.3221	0.22829	0.20575	0.18467	0.17885	0.17601	0.10934	0.1399	0.077702	0.063145	0.079312	0.16849	0.10474	-0.33125	-0.04375	-1.1604	-0.40208	-0.41042	-0.71667	-0.49583	-0.95833	-0.73542	-0.22917	-1.1021	-0.425	-0.50625	-1.3375	-0.05625	-0.70208	-138.478	-98.167	-96.038	165.127	54.982	-144.967	154.339	165.894	3.777	51.000	-147.937	-13.148	81.252	109.581	38.603	25.759	0.00066556	0.00028561	0.00010965	1029.1	2.996e-06	9.6617e-07	1121.9	216.44	5.0172e-06	2.0492e-06	272.53	74.511	58.872	16.409	2.9493e-06	22.943	3.7473e-05	2.7031e-05	7.2786e-06	999.42	3.4309e-07	2.7886e-07	1087.9	210.87	3.2693e-07	3.1436e-07	263.77	72.363	57.03	16.139	3.1607e-07	22.487	40.538	-101.162	-63.436	-158.495	-64.037	-8.187	-158.450	-151.250	-134.973	7.893	-151.487	-144.777	-144.338	-136.155	-67.048	-137.059	-8191	255	
2047.691	1	1	0	0	0.19943	0.26831	0.18875	0.21804	0.1641	0.21279	0.061873	0.15536	0.0819	0.1983	0.3326	0.21596	0.10319	0.064452	0.097055	0.22753	-0.37708	-0.21667	-1.0104	-0.55625	-0.275	-1.1125	-0.54375	-0.6375	-0.66667	-0.17292	-1.0917	-0.5625	-0.29167	-1.0083	-0.34583	-0.80208	34.837	-37.857	27.637	-63.346	-28.761	131.826	163.524	95.973	-66.482	-98.327	121.074	-11.570	136.375	-123.140	-127.199	151.467	0.00057145	0.0002349	6.0831e-05	1030.9	3.1427e-06	1.2899e-06	1123.7	216.54	4.8072e-06	2.211e-06	270.48	74.195	59.225	16.722	3.1728e-06	22.827	3.9871e-05	2.9988e-05	7.4722e-06	999.12	3.4442e-07	3.0251e-07	1085.9	211.06	3.3506e-07	3.1537e-07	262.71	72.295	57.111	16.228	3.3082e-07	22.442	44.979	-97.625	-90.323	-158.484	-44.897	-25.114	-158.511	-151.223	-109.577	0.335	-151.214	-145.056	-144.005	-136.097	-58.004	-137.525	-8191	255	
2047.787	1	1	0	0	0.37733	0.097182	0.087571	0.3019	0.10597	0.1719	0.23909	0.16632	0.23205	0.18255	0.14481	0.21398	0.02074	0.10402	0.1207	0.30084	-0.71875	0.066667	-0.96458	-0.54167	-0.16042	-1.1562	-0.33333	-0.73125	-1.0063	-0.089583	-0.92083	-0.73958	-0.18333	-1.0417	-0.41667	-0.52292	-53.862	-129.840	20.576	137.979	-71.590	-109.461	60.803	-112.478	-148.388	57.084	156.265	-152.196	33.129	-65.607	53.661	123.252	0.00072194	0.00022226	6.6157e-05	1030.8	3.0364e-06	2.8432e-06	1115.8	216.56	5.3437e-06	2.2679e-06	272.93	74.532	59.145	16.523	3.8348e-06	22.961	3.9785e-05	2.9154e-05	7.5741e-06	998.99	3.4381e-07	2.9314e-07	1084.7	211.19	3.0669e-07	2.9722e-07	262.94	72.563	57.145	16.19	3.0666e-07	22.472	47.145	-101.158	-67.411	-158.535	-101.935	-48.531	-158.455	-150.993	-148.903	11.757	-151.293	-144.796	-144.438	-135.960	-46.761	-137.849	-8191	255	
2047.907	1	1	0	0	0.1888	0.26749	0.045556	0.16406	0.16416	0.1547	0.1614	0.087308	0.25914	0.17128	0.19532	0.22288	0.22156	0.073346	0.37292	0.13768	-0.625	-0.15417	-0.675	-0.95	-0.27708	-1.0583	-0.375	-0.4125	-1.0625	-0.2375	-0.825	-0.86667	-0.2	-0.8625	-0.44583	-0.1625	11.491	118.880	-67.512	143.331	-95.071	-91.299	118.418	-78.113	147.092	-135.884	-42.731	148.026	-65.832	25.482	103.005	-49.935	0.00065933	9.6814e-05	9.8091e-05	1032.1	3.2106e-06	1.5604e-06	1116.4	217.74	4.601e-06	1.9467e-06	270.5	74.264	58.763	16.579	8.0441e-07	22.817	3.9762e-05	2.7611e-05	7.7109e-06	998.34	3.3167e-07	2.8996e-07	1085.1	211.45	3.2399e-07	3.0831e-07	262.33	72.374	57.083	16.152	3.0536e-07	22.418	44.815	-89.580	-67.740	-158.609	-63.515	-16.698	-158.933	-150.952	-108.239	-20.033	-151.276	-144.981	-143.609	-136.820	-52.914	-137.431	-8191	255	
2048.002	1	1	0	0	0.20264	0.1537	0.13692	0.24061	0.10027	0.2145	0.28097	0.26584	0.24672	0.27432	0.070818	0.24817	0.088684	0.076327	0.21751	0.15791	-0.7625	-0.23333	-0.65	-1.0646	-0.2	-0.93333	-0.825	-0.45208	-1.0875	-0.29792	-0.85625	-1.0167	-0.15833	-1.0104	-0.57708	-0.33333	123.894	-71.678	89.831	88.521	-26.989	144.147	145.747	50.992	131.432	-90.675	14.557	83.080	69.370	159.577	-119.188	145.217	0.00071471	0.00023395	4.0849e-05	1022.2	1.245e-06	1.7168e-06	1115.3	217.02	5.9073e-06	2.095e-06	270.04	74.505	58.431	16.387	1.7793e-06	22.892	3.7957e-05	2.6922e-05	7.4906e-06	994.68	3.3617e-07	2.8041e-07	1085.3	210.82	3.0299e-07	2.9983e-07	261.79	72.295	56.875	16.099	3.0839e-07	22.494	45.538	-100.230	-51.767	-158.572	-99.482	-28.552	-158.659	-151.438	-100.787	-27.804	-151.349	-144.668	-144.350	-137.057	-70.488	-138.028	-8191	255	
2048.098	1	1	0	0	0.41226	0.16966	0.11415	0.29342	0.13157	0.26494	0.27656	0.2987	0.11843	0.16896	0.22024	0.052323	0.26079	0.11338	0.1625	0.11885	-0.87292	-0.16042	-0.46667	-1.0083	-0.13542	-1.0875	-0.75833	-0.066667	-1.1437	-0.43958	-0.42292	-1.3354	-0.091667	-0.82708	-0.60417	0.064583	-121.943	158.188	46.973	183.939	125.935	59.565	68.627	-163.230	69.497	17.280	-153.131	37.731	33.947	2.926	19.002	105.541	0.00063043	0.00018573	4.781e-05	1032.6	1.4748e-06	1.4578e-06	1111.1	217.54	4.2177e-06	3.4964e-06	274.45	74.372	59.006	16.457	4.6744e-06	22.934	3.6988e-05	2.7532e-05	7.285e-06	998.7	3.3999e-07	2.8938e-07	1081.2	211.2	3.0155e-07	2.8878e-07	263.07	72.342	57.112	16.133	3.0558e-07	22.427	44.945	-94.115	-75.961	-158.532	-60.847	-58.023	-158.704	-151.015	-100.204	-17.527	-151.618	-144.911	-144.393	-136.277	-56.732	-137.951	-8191	255	
2048.194	1	1	0	0	0.097506	0.0255	0.21446	0.10138	0.26958	0.37826	0.3195	0.4176	0.055338	0.10916	0.31885	0.1719	0.39338	0.0020901	0.33368	0.31768	-0.79792	-0.30833	-0.27917	-1.2188	-0.30625	-0.6875	-0.92708	-0.1625	-1.1562	-0.5625	-0.425	-1.025	-0.26458	-0.76667	-0.91458	-0.225	42.304	-105.647	92.243	146.832	86.907	10.211	171.107	111.020	-110.451	140.726	77.190	116.729	-138.360	180.000	-130.465	-5.125	0.00069552	0.00020537	5.3102e-05	1031	4.1026e-06	2.0548e-06	1117.8	217.18	4.9467e-06	1.8201e-06	271.96	74.433	58.308	16.325	3.4643e-06	22.787	3.8458e-05	2.7104e-05	7.1134e-06	998.35	3.3844e-07	2.7524e-07	1085.6	211.09	3.2434e-07	2.8194e-07	262.88	72.276	56.818	16.059	2.8466e-07	22.366	40.734	-80.566	-61.632	-158.451	-52.468	-23.931	-158.652	-150.876	-115.770	-10.671	-151.201	-144.848	-144.509	-136.872	-44.214	-137.743	-8191	255	
2048.315	1	1	0	0	0.17918	0.31034	0.20006	0.10389	0.18828	0.26247	0.22933	0.18374	0.33368	0.012658	0.051081	0.11139	0.15318	0.42517	0.082824	0.17194	-0.52917	-0.54375	-0.44167	-1.1896	-0.37917	-0.64167	-1.15	-0.027083	-0.9875	-0.69792	-0.44583	-1.1333	-0.4875	-0.66458	-0.93542	-0.29167	105.556	18.189	-122.171	-128.523	108.527	20.048	170.728	101.607	-124.551	187.241	164.913	94.705	-63.205	88.800	17.144	3.057	0.00064553	0.00023909	7.6581e-05	1026.1	3.2586e-06	2.4697e-06	1112.5	216.7	4.2299e-06	1.8269e-06	270.28	74.613	58.244	16.4	3.9567e-06	22.948	3.6701e-05	2.6279e-05	7.7182e-06	996.18	3.2165e-07	2.7596e-07	1082.2	210.63	3.1449e-07	2.8252e-07	261.26	72.347	56.713	16.117	2.9408e-07	22.417	39.539	-121.686	-103.587	-158.434	-35.314	-59.727	-158.564	-151.141	-108.953	-37.097	-151.589	-144.880	-144.450	-136.330	-75.893	-138.014	-8191	255	
2048.386	1	1	0	0	0.18909	0.10945	0.092509	0.081308	0.176	0.30681	0.1653	0.267	0.076168	0.29667	0.1741	0.12165	0.21821	0.15521	0.22676	0.27958	-0.74375	-0.62708	-0.1875	-1.0646	-0.47292	-0.39792	-1.1625	-0.2125	-0.65417	-0.81458	-0.15208	-0.98542	-0.65625	-0.40625	-0.95625	-0.16875	-79.118	-141.267	-102.935	133.121	-22.655	-4.620	181.908	110.068	-94.945	188.719	154.366	-164.761	156.914	152.274	151.104	83.573	0.0007391	0.0002447	6.9808e-05	1027.8	2.6154e-06	2.7456e-06	1109	215.93	6.2504e-06	1.9051e-06	270.38	73.596	58.907	16.396	2.4903e-06	22.716	3.8142e-05	2.595e-05	7.4833e-06	995.37	3.2097e-07	2.7213e-07	1081	210.41	3.2082e-07	2.8839e-07	261.83	72.113	57.002	16.096	2.7641e-07	22.382	43.122	-122.280	-88.352	-158.375	-61.867	-45.796	-158.711	-150.933	-103.998	-16.892	-151.328	-144.637	-144.432	-136.815	-34.189	-137.133	-8191	255	
2048.482	1	1	0	0	0.20968	0.1242	0.24437	0.16	0.11739	0.096089	0.21985	0.2871	0.21945	0.12436	0.18983	0.081201	0.47896	0.080402	0.10744	0.26155	-0.31667	-0.74792	-0.22292	-1.2833	-0.41042	0.025	-1.2646	-0.22708	-0.64167	-0.92083	-0.19583	-1.0187	-0.62708	-0.22292	-1.1167	-0.42708	68.307	-99.608	-51.286	111.675	141.522	-141.573	173.016	128.605	-9.921	96.416	-38.571	-157.205	134.684	155.225	17.194	79.466	0.00067436	0.00026406	5.1409e-05	1023.3	1.8617e-06	1.545e-06	1108.9	215.05	2.468e-06	1.8771e-06	272.04	73.977	59.235	16.516	7.0018e-07	22.851	3.9176e-05	2.5528e-05	7.3593e-06	994.16	3.2291e-07	2.8641e-07	1082.7	210.72	3.2007e-07	2.769e-07	262.51	72.075	57.053	16.159	2.7431e-07	22.434	39.604	-109.314	-47.617	-158.324	-52.269	-82.650	-158.809	-151.233	-103.730	-8.923	-151.212	-145.286	-144.549	-136.166	-110.495	-137.499	-8191	255	
2048.579	1	1	0	0	0.15057	0.15837	0.16515	0.23192	0.26596	0.14272	0.19311	0.19635	0.24481	0.20258	0.28125	0.2153	0.036374	0.14242	0.1834	0.24698	-0.1375	-0.94375	0.08125	-0.95208	-0.79375	0.025	-1.1396	-0.30625	-0.37708	-1.0604	-0.20208	-0.85833	-0.78958	-0.25833	-0.83958	-0.30208	11.741	20.348	120.602	174.709	-123.670	-48.673	170.044	107.349	-37.684	148.885	118.863	90.539	4.017	15.619	-90.375	102.992	0.00073615	0.00012157	4.1941e-05	1023.4	2.3284e-06	2.0978e-06	1118.2	216.78	3.785e-06	1.7264e-06	271.29	74.749	58.638	16.443	3.9731e-06	23.023	3.8283e-05	2.5759e-05	7.3685e-06	995.92	3.1974e-07	2.9123e-07	1082.7	210.74	3.1733e-07	2.7603e-07	262.16	72.276	56.871	16.093	2.9123e-07	22.518	39.065	-101.552	-55.106	-158.356	-26.415	-19.137	-158.509	-151.434	-103.072	-35.792	-151.681	-144.830	-144.447	-136.817	-52.672	-137.379	-8191	255	
2048.699	1	1	0	0	0.40586	0.14445	0.078388	0.20851	0.1629	0.2566	0.45452	0.25518	0.10602	0.23057	0.18171	0.15061	0.36392	0.10915	0.16882	0.10821	-0.016667	-0.97708	-0.21875	-0.80417	-0.94583	-0.10417	-1.225	-0.48333	-0.36458	-1.0229	-0.27083	-0.68958	-0.76458	-0.25	-0.92083	-0.56875	71.672	108.696	-103.321	122.949	-5.567	42.836	48.569	128.384	28.119	92.108	90.492	-26.898	108.407	150.387	-113.881	181.767	0.00075273	0.00017397	7.6447e-05	1027.4	1.5427e-06	6.3762e-07	1116.2	216.1	5.5729e-06	2.2773e-06	270.76	74.862	58.943	16.419	2.975e-06	23.06	4.0024e-05	2.5729e-05	7.2694e-06	997.54	3.0483e-07	2.9723e-07	1083.1	210.63	3.1284e-07	2.8397e-07	261.75	72.352	57.027	16.1	3.001e-07	22.422	38.883	-95.004	-77.172	-158.413	-94.958	-33.691	-158.583	-151.019	-141.297	-28.962	-151.604	-144.475	-144.319	-136.573	-52.693	-137.684	-8191	255	
2048.795	1	1	0	0	0.03978	0.080268	0.084843	0.12723	0.12021	0.055374	0.1569	0.24789	0.2128	0.19699	0.19538	0.040464	0.30861	0.19031	0.22152	0.12932	0.27083	-1.0229	-0.32917	-0.76667	-1.0354	-0.22292	-1.0958	-0.72083	-0.35208	-1.2708	-0.61042	-0.41042	-0.95833	-0.28125	-0.96042	-0.77292	-78.015	-11.763	-1.971	-167.471	60.424	-37.668	89.116	156.569	-44.718	46.793	44.575	-13.650	-52.712	119.659	188.352	110.062	0.00071767	0.0002286	4.4207e-05	1029.1	2.6353e-06	2.5267e-06	1108.3	215.68	3.3059e-06	2.2563e-06	272.17	74.172	58.859	16.452	3.6967e-06	22.875	3.9482e-05	2.4723e-05	7.6173e-06	997.84	3.2619e-07	2.9383e-07	1081.6	210.74	3.0964e-07	2.7277e-07	262.09	72.378	56.868	16.149	2.9534e-07	22.361	41.321	-66.338	-47.519	-158.345	-42.119	-63.164	-158.615	-151.217	-146.203	-9.461	-151.718	-145.039	-144.583	-136.789	-60.830	-137.844	-8191	255	
2048.892	1	1	0	0	0.26874	0.048134	0.31395	0.088177	0.097286	0.19856	0.38826	0.30445	0.097745	0.17677	0.25615	0.14444	0.083457	0.077999	0.20553	0.29986	0.17292	-1.0187	-0.30417	-0.51667	-0.99375	0.010417	-0.87708	-0.84375	0.097917	-0.9625	-0.52917	-0.58125	-1.0333	-0.060417	-0.71458	-0.99375	-24.790	-164.771	-88.865	183.627	16.598	71.586	139.322	-109.339	-56.777	97.292	152.405	77.586	-117.893	4.725	162.393	174.510	0.00077221	0.00011478	5.8071e-05	1022.7	2.4971e-06	2.0856e-06	1114.8	216.22	4.0376e-06	2.7449e-06	271.41	74.033	59.05	16.465	3.558e-06	22.966	3.9153e-05	2.4888e-05	7.1831e-06	994.6	3.1074e-07	2.9578e-07	1084.1	210.6	3.2287e-07	2.7687e-07	262.13	72.24	56.904	16.143	2.8726e-07	22.497	38.544	-106.235	-71.811	-158.333	-54.860	-30.584	-158.647	-150.911	-101.902	0.329	-151.558	-144.769	-144.039	-136.562	-34.902	-137.869	-8191	255	
2048.988	1	1	0	0	0.27611	0.24166	0.20708	0.2028	0.17982	0.13229	0.22882	0.066482	0.13485	0.1361	0.078093	0.27049	0.16292	0.15768	0.22105	0.21885	0.21458	-0.83958	-0.3375	-0.41875	-1.2021	-0.22917	-0.825	-1.0729	0.016667	-0.97083	-0.73125	-0.22917	-1.0021	-0.16458	-0.63125	-0.93125	-52.408	-1.971	164.283	-152.270	11.300	158.543	132.002	-167.086	-84.442	53.294	157.290	-164.595	185.414	147.869	-33.104	158.618	0.00071272	0.00013942	3.6288e-05	1035.6	2.4147e-06	2.1821e-06	1117.1	216.59	5.7843e-06	1.4584e-06	269.51	74.243	58.882	16.456	3.2725e-06	22.874	3.8866e-05	2.5149e-05	7.14e-06	997.68	2.9309e-07	2.8699e-07	1083.9	210.88	3.21e-07	2.8437e-07	262.1	72.442	56.933	16.151	2.9555e-07	22.506	41.231	-67.746	-51.234	-158.135	-62.217	-87.006	-158.206	-151.261	-97.421	-37.679	-151.394	-144.754	-144.028	-137.080	-79.501	-137.249	-8191	255	
2049.082	1	1	0	0	0.14759	0.10626	0.36237	0.27239	0.13668	0.17335	0.34229	0.35759	0.15547	0.37244	0.24454	0.076074	0.16316	0.27587	0.20009	0.38808	0.24583	-0.76667	-0.63542	-0.45208	-1.0229	-0.18542	-0.88125	-1.1917	-0.275	-0.85208	-1.0479	-0.06875	-1.2729	-0.30833	-0.32292	-1	-55.688	-161.040	-142.574	130.817	-40.330	-101.107	121.728	83.611	30.250	-91.966	142.302	-18.328	-107.100	-154.414	77.504	82.770	0.00068597	0.00016647	3.655e-05	1025	4.3379e-06	2.6087e-06	1116.6	215.97	3.7119e-06	1.9086e-06	270.07	73.615	59.016	16.535	3.1121e-06	22.824	3.8012e-05	2.507e-05	7.2391e-06	995.55	3.1013e-07	2.7589e-07	1082.9	210.48	3.128e-07	2.8466e-07	261.98	72.137	56.946	16.141	2.9927e-07	22.459	42.502	-102.735	-77.889	-158.324	-45.253	-8.935	-158.660	-150.943	-133.318	-14.940	-151.402	-144.687	-144.284	-136.751	-62.206	-137.424	-8191	255	
2049.180	1	1	0	0	0.16736	0.061246	0.18471	0.14868	0.17918	0.16484	0.4038	0.20471	0.25659	0.28908	0.12709	0.19027	0.2716	0.13954	0.22033	0.19977	0.14792	-0.61458	-0.74167	-0.13958	-0.90625	-0.44167	-0.42292	-1.1604	-0.11458	-0.61458	-1.075	0.03125	-1.0229	-0.38125	-0.13333	-1.075	25.900	-93.193	-120.377	157.767	-58.161	161.438	115.323	189.306	3.182	-68.771	88.233	-151.916	-148.138	142.204	47.074	73.345	0.0007424	0.00024522	4.9944e-05	1028.9	2.5047e-06	3.2418e-06	1112	216.61	5.5689e-06	3.5574e-06	270.02	74.34	59.189	16.434	7.7449e-07	22.714	4.0285e-05	2.5673e-05	7.2905e-06	995.84	3.0487e-07	2.8197e-07	1082.2	210.6	3.1288e-07	2.7553e-07	261.82	72.417	56.986	16.109	2.9606e-07	22.409	44.497	-132.876	-47.111	-158.462	-46.047	-62.164	-158.434	-150.882	-127.739	-8.208	-151.244	-144.607	-144.296	-136.880	-5.559	-137.824	-8191	255	
2049.299	1	1	0	0	0.19994	0.12678	0.22291	0.22239	0.10838	0.25141	0.33445	0.12055	0.20718	0.26375	0.084568	0.26354	0.07082	0.16828	0.23094	0.16627	0.16458	-0.47292	-1.1104	-0.2375	-0.88542	-0.6875	-0.47292	-1.1625	-0.2375	-0.40625	-0.98958	-0.17708	-1.0187	-0.7375	-0.20833	-0.89375	14.056	-120.380	75.541	132.000	125.364	-142.458	144.320	172.216	57.052	-10.183	-139.308	182.504	-60.839	-132.235	147.403	-41.661	0.00062141	8.7862e-05	4.8156e-05	1024.7	1.8957e-06	1.6572e-06	1116.9	216.73	4.5687e-06	1.746e-06	271.46	74.168	59.108	16.615	2.2313e-06	22.767	3.7166e-05	2.5284e-05	7.1372e-06	995.03	3.1852e-07	2.7126e-07	1084.9	211.04	3.3337e-07	2.693e-07	262.37	72.317	57.13	16.177	3.0572e-07	22.503	44.141	-103.652	-41.404	-158.166	-34.654	-26.606	-158.570	-150.861	-89.052	5.593	-151.744	-145.005	-144.261	-136.268	-69.291	-137.732	-8191	255	
2049.395	1	1	0	0	0.16512	0.030188	0.25365	0.1556	0.10662	0.16357	0.37663	0.16977	0.10414	0.059799	0.1228	0.17916	0.15477	0.23701	0.11629	0.19839	-0.16875	-0.41042	-1.0646	-0.2625	-0.69792	-0.84792	-0.54375	-0.95833	-0.38125	-0.54375	-1.075	-0.17292	-0.85833	-0.92083	-0.16042	-1.0187	-147.293	122.626	82.887	-93.879	124.635	16.682	158.553	180.159	-130.399	-105.341	70.791	100.364	-94.731	-152.424	-60.327	71.567	0.0007153	0.00027302	2.5315e-05	1026.7	1.7425e-06	1.1924e-06	1114.8	216.32	5.6796e-06	1.9822e-06	269.4	74.64	59.086	16.353	3.3055e-06	22.869	3.7954e-05	2.6088e-05	6.7976e-06	996.18	3.0184e-07	2.5676e-07	1083.4	210.79	3.0809e-07	2.7712e-07	261.51	72.363	57.034	16.094	2.9494e-07	22.393	40.859	-88.456	-58.398	-158.596	-59.599	-44.761	-158.569	-151.034	-128.767	22.025	-151.677	-144.754	-144.335	-136.896	-57.814	-137.966	-8191	255	
2049.491	1	1	0	0	0.21707	0.28945	0.22434	0.28914	0.22612	0.092583	0.37953	0.063809	0.27119	0.2353	0.20161	0.19063	0.41479	0.2093	0.18125	0.13854	-0.22292	-0.23333	-0.96667	-0.38333	-0.68542	-1.0271	-0.30833	-0.95	-0.61875	-0.34792	-1.2792	-0.1875	-0.69583	-1.0208	-0.041667	-1.1021	65.492	113.815	127.232	119.467	-41.223	-75.646	121.143	80.871	95.825	-18.482	-165.912	86.327	-22.150	-128.396	91.911	169.905	0.00066281	0.00021534	5.4305e-05	1029.7	3.0779e-06	2.2932e-06	1109.9	216.29	6.8956e-06	1.7458e-06	270.58	74.548	58.773	16.431	3.3079e-06	23.031	3.6889e-05	2.7077e-05	7.1693e-06	996.58	3.2716e-07	2.713e-07	1081.8	210.82	3.2114e-07	2.7535e-07	262.21	72.537	56.912	16.124	2.9548e-07	22.47	48.754	-113.299	-54.442	-158.686	-47.778	-52.535	-158.381	-151.079	-110.064	-2.336	-151.698	-145.045	-143.932	-136.798	-46.113	-137.523	-8191	255	
2049.587	1	1	0	0	0.22702	0.42585	0.24532	0.21343	0.14369	0.1971	0.18124	0.13618	0.10378	0.18923	0.18544	0.19733	0.11176	0.043167	0.14824	0.19824	-0.3	-0.15833	-1.0312	-0.2375	-0.59583	-1.0625	-0.24792	-0.85417	-0.69583	-0.125	-1.2271	-0.49167	-0.525	-1.1646	-0.10208	-0.97708	8.676	-81.515	-142.570	148.484	-54.844	-76.235	142.318	181.725	158.863	13.946	12.481	125.656	-143.366	-132.196	32.572	30.530	0.00069295	0.00026403	4.8877e-05	1022.4	2.0129e-06	1.332e-06	1113.4	215.98	5.2877e-06	2.5251e-06	272.27	73.952	58.769	16.582	2.6354e-06	22.995	3.7457e-05	2.6975e-05	7.1106e-06	993.58	2.9943e-07	2.5766e-07	1082.9	210.67	3.1079e-07	2.8056e-07	262.49	72.311	56.991	16.087	2.8971e-07	22.469	41.254	-109.100	-31.980	-158.296	-61.484	-23.718	-158.799	-150.774	-121.844	-2.606	-151.458	-145.212	-144.497	-136.558	-39.172	-137.682	-8191	255	
2049.684	1	1	0	0	0.3473	0.20145	0.14063	0.12125	0.17617	0.37918	0.20729	0.3167	0.23486	0.13688	0.27957	0.12579	0.060736	0.21362	0.32545	0.18112	-0.52917	-0.15417	-1.0042	-0.70417	-0.36667	-1.0063	-0.34792	-0.89792	-1.0542	-0.27708	-1.2146	-0.67708	-0.49792	-1.1542	-0.25417	-0.65833	65.557	32.766	-107.982	-122.175	67.781	-43.791	151.622	-89.749	-125.589	-56.391	-145.750	110.758	113.213	24.197	-125.471	-135.336	0.00068006	0.00030815	5.2999e-05	1028.6	2.4281e-06	1.4797e-06	1118.1	215.84	4.9625e-06	1.8637e-06	269.58	74.528	58.39	16.47	6.1267e-06	22.894	3.7192e-05	2.6721e-05	7.0179e-06	996.4	3.1913e-07	2.5694e-07	1085	210.72	3.0648e-07	2.8629e-07	261.76	72.102	56.835	16.124	3.0594e-07	22.491	37.754	-100.495	-48.023	-158.458	-55.935	-52.961	-158.661	-150.908	-155.342	-29.693	-151.296	-144.724	-143.993	-136.759	-66.078	-137.573	-8191	255	
2049.780	1	1	0	0	0.11839	0.089723	0.28505	0.13775	0.19676	0.1703	0.32613	0.1419	0.17877	0.11339	0.12201	0.11232	0.2715	0.13399	0.18883	0.17783	-0.5375	0.03125	-1.1667	-0.70625	-0.34583	-1.1812	-0.50208	-0.78958	-1.1604	-0.16042	-1.1812	-0.72292	-0.3375	-1.2	-0.43542	-0.775	101.009	76.739	166.651	127.241	-85.685	-30.591	-156.745	134.040	-122.902	136.331	120.067	124.484	-88.825	-71.060	153.928	116.911	0.00072061	9.5333e-05	3.8169e-05	1025.5	2.751e-06	1.8748e-06	1114.7	216.52	6.2296e-06	1.4743e-06	269.63	74.165	58.897	16.509	3.858e-06	22.968	3.775e-05	2.593e-05	6.9417e-06	994.46	3.2187e-07	2.7379e-07	1083.8	210.99	3e-07	2.7694e-07	262.44	72.237	57.062	16.146	2.953e-07	22.46	40.682	190.249	-55.853	-158.370	-38.861	-33.869	-158.508	-151.072	-94.994	-44.184	-151.213	-145.006	-144.262	-136.887	-55.911	-137.101	-8191	255	
2049.876	1	1	0	0	0.20339	0.38772	0.12353	0.38937	0.1767	0.13506	0.13582	0.16347	0.016982	0.066355	0.15829	0.11482	0.17727	0.24431	0.14297	0.18423	-0.46042	-0.10417	-0.725	-0.74167	-0.28333	-1.0021	-0.66667	-0.59167	-1.2146	-0.33333	-0.9	-0.97917	-0.12917	-0.98542	-0.66458	-0.45417	-118.163	163.257	-38.935	-152.143	148.901	8.325	121.293	184.219	72.878	74.232	-129.652	-101.767	98.612	-139.207	-117.292	71.746	0.00065438	0.00029269	8.1461e-05	1030.8	1.896e-06	2.126e-06	1116.6	216.59	3.3976e-06	3.1949e-06	272.88	74.568	58.669	16.355	2.4696e-06	22.868	3.7648e-05	2.6454e-05	7.2951e-06	998.31	3.1766e-07	2.7773e-07	1085.1	211.01	3.1259e-07	2.7647e-07	262.67	72.303	57.116	16.148	2.8636e-07	22.414	43.939	-94.179	-54.830	-158.460	-35.610	-46.540	-158.667	-151.079	-100.928	-20.737	-151.320	-144.981	-144.431	-136.987	-36.151	-137.989	-8191	255	
2049.996	1	1	0	0	0.15559	0.079709	0.2512	0.1919	0.13738	0.11023	0.075527	0.10032	0.35019	0.23074	0.32672	0.25358	0.17018	0.0519	0.14281	0.3752	-0.6375	-0.125	-0.83333	-0.87917	-0.10417	-1.025	-0.66458	-0.5125	-1.0667	-0.11458	-0.72292	-1.0125	-0.21667	-0.96458	-0.61042	-0.43542	-1.681	-51.177	-49.297	135.112	142.147	-68.822	106.928	-88.890	-167.718	-42.297	-98.832	-97.834	-132.877	-128.179	8.947	0.977	0.00073842	0.00015884	6.4915e-05	1029.9	2.2923e-06	2.3275e-06	1114.6	216.32	6.1214e-06	3.0543e-06	271.23	74.452	58.954	16.432	2.3855e-06	22.834	3.7198e-05	2.5515e-05	7.1804e-06	997.97	3.33e-07	2.7332e-07	1083.4	210.73	3.2639e-07	2.8976e-07	261.99	72.293	57.096	16.204	2.8755e-07	22.491	39.347	-98.950	-40.862	-158.348	-39.703	-38.545	-158.395	-151.176	-109.027	-8.590	-151.346	-144.915	-144.425	-136.959	-73.255	-137.581	-8191	255	
2050.091	1	1	0	0	0.14965	0.10261	0.29136	0.13487	0.033136	0.19294	0.074577	0.1886	0.22154	0.016288	0.19403	0.17843	0.066016	0.23296	0.17291	0.1225	-0.77292	-0.2875	-0.65208	-1.2687	-0.035417	-0.85833	-0.77708	-0.40833	-1.1021	-0.44792	-0.61042	-1.0688	-0.01875	-0.93958	-0.86667	-0.29792	135.414	95.760	156.798	-117.827	-29.378	-7.134	37.777	168.473	-12.569	-8.710	183.803	58.164	-103.397	-117.108	-125.880	8.965	0.00071141	0.00023073	4.9255e-05	1023.4	2.3001e-06	2.3328e-06	1115.5	216.37	5.608e-06	1.864e-06	271.2	74.521	58.834	16.454	3.5035e-06	22.805	3.7967e-05	2.6161e-05	6.9527e-06	997.94	3.1967e-07	2.8283e-07	1085.4	210.64	3.1582e-07	2.9414e-07	262.03	72.307	57.143	16.161	2.8091e-07	22.486	44.222	-77.347	-111.585	-158.282	-60.028	-43.060	-158.267	-151.056	-110.086	-18.890	-151.272	-144.702	-143.924	-136.772	-82.827	-137.360	-8191	255	
2050.187	1	1	0	0	0.1318	0.22341	0.15266	0.19092	0.11036	0.14463	0.30469	0.27702	0.12065	0.11838	0.20605	0.085296	0.075552	0.24774	0.20509	0.34135	-0.72292	-0.30208	-0.30208	-1.2167	-0.16875	-0.74375	-1.1417	-0.31667	-0.95417	-0.3875	-0.42708	-1.1187	-0.23333	-0.75417	-1.1229	-0.14375	125.482	-117.347	-105.807	106.263	97.909	-161.648	97.522	179.621	-45.817	64.499	-154.462	178.875	-151.301	145.879	-107.761	-86.951	0.00067766	0.00025856	7.6509e-05	1032.4	2.2643e-06	1.5047e-06	1119.7	216.8	4.0333e-06	2.0743e-06	269.86	74.716	59.274	16.509	3.6251e-06	23.061	3.6924e-05	2.5716e-05	7.3428e-06	1000.5	3.3977e-07	2.7596e-07	1086.8	211.02	3.1579e-07	2.7553e-07	262	72.385	57.222	16.184	2.7875e-07	22.547	39.574	-113.931	-60.150	-158.433	-12.795	-70.662	-158.625	-151.028	-111.620	-29.655	-151.254	-144.695	-144.507	-136.310	-45.872	-137.335	-8191	255	
2050.260	1	1	0	0	0.23826	0.18965	0.12873	0.23305	0.16911	0.038554	0.23324	0.20076	0.15508	0.10783	0.076336	0.13705	0.23904	0.29486	0.094389	0.22619	-0.69583	-0.65833	-0.18125	-1.3354	-0.28958	-0.63542	-1.0417	-0.21042	-0.90833	-0.8625	-0.4125	-1.1021	-0.57083	-0.51875	-0.89375	-0.15417	130.690	-106.900	-149.178	85.634	154.421	-1.839	42.885	-140.711	143.163	121.603	-132.055	-43.994	108.767	-81.776	-11.879	86.925	0.00068851	0.00013225	4.2679e-05	1030.8	3.2202e-06	3.1587e-06	1118.4	216.02	3.8201e-06	2.5824e-06	271.09	74.231	59.114	16.535	3.6784e-06	22.846	3.6899e-05	2.6724e-05	7.252e-06	999.95	3.2418e-07	2.854e-07	1088.6	210.96	3.0374e-07	2.8114e-07	262.5	72.423	57.167	16.241	2.8286e-07	22.548	40.913	-118.255	-74.960	-158.150	-42.995	-50.372	-158.581	-150.896	-126.234	3.993	-151.538	-145.033	-144.015	-136.585	-39.790	-137.902	-8191	255	
2050.379	1	1	0	0	0.296	0.18093	0.35364	0.17129	0.22579	0.22782	0.3157	0.14542	0.087046	0.193	0.12696	0.21889	0.099464	0.26795	0.16732	0.22694	-0.49375	-0.69583	-0.3	-1.2521	-0.33958	-0.50417	-1.3188	-0.14375	-0.72708	-0.74583	-0.095833	-1.2313	-0.61667	-0.33125	-0.89792	-0.175	-72.500	158.946	-105.560	58.727	91.623	117.987	146.385	-52.322	-120.172	170.244	142.769	164.130	-105.673	145.515	-102.929	114.324	0.00069199	0.00032799	8.5466e-05	1028.2	2.2971e-06	2.3267e-06	1115.7	217.55	4.9276e-06	1.0026e-06	272.93	74.192	58.773	16.47	4.3715e-06	22.744	3.7613e-05	2.6602e-05	7.4888e-06	999.89	3.312e-07	2.8519e-07	1087.3	211.48	3.1169e-07	2.6821e-07	263.14	72.326	57.133	16.193	2.9249e-07	22.463	40.659	-92.505	-56.538	-158.444	-33.954	-20.245	-158.689	-151.016	-130.695	-10.235	-151.593	-145.024	-143.976	-136.701	-90.381	-137.576	-8191	255	
2050.475	1	1	0	0	0.10556	0.16792	0.25755	0.25402	0.1455	0.31232	0.27009	0.15108	0.20682	0.094894	0.082301	0.36364	0.21828	0.27874	0.31934	0.060776	-0.40417	-0.85208	-0.10625	-1.2042	-0.51042	-0.58125	-1.2437	-0.28125	-0.81458	-0.92292	-0.18958	-1.025	-0.58958	-0.27083	-1.1771	-0.15208	-127.936	-117.975	-73.177	149.545	114.468	111.755	148.885	104.636	148.977	33.613	125.571	28.555	153.463	-163.462	121.156	107.893	0.00071337	0.00016718	6.5608e-05	1029.1	2.2892e-06	2.2746e-06	1119	217.82	3.4806e-06	2.3536e-06	270.87	74.204	58.96	16.582	1.3285e-06	22.897	3.7871e-05	2.5475e-05	7.4172e-06	1000.3	3.2068e-07	2.832e-07	1089.3	211.14	3.0281e-07	2.7118e-07	262.68	72.527	57.085	16.239	2.6829e-07	22.557	42.573	-102.966	-44.088	-158.323	-62.178	-43.548	-158.424	-151.449	-125.754	-30.219	-151.276	-144.887	-144.658	-136.477	-54.387	-137.119	-8191	255	
2050.572	1	1	0	0	0.12395	0.23796	0.092095	0.5312	0.40286	0.090025	0.15214	0.35066	0.19513	0.34096	0.06101	0.19036	0.22309	0.073093	0.026545	0.12478	-0.225	-0.98125	-0.12083	-1.0979	-0.6375	-0.21042	-1.1958	-0.35208	-0.43333	-1.1333	-0.13542	-0.84375	-0.88958	-0.20417	-0.93333	-0.5	-164.830	137.526	-111.777	166.832	126.892	103.248	85.548	79.982	-55.562	-104.721	113.501	110.993	158.000	-138.215	56.442	-3.064	0.00071027	0.00017701	7.3254e-05	1031.7	2.5178e-06	1.5074e-06	1125.3	216.71	3.3355e-06	3.7146e-06	271.8	74.063	59.428	16.605	3.5829e-06	23.174	3.7964e-05	2.6263e-05	7.7109e-06	1000.9	3.0908e-07	2.8801e-07	1092	211.3	3.0558e-07	2.7046e-07	262.5	72.348	57.311	16.25	2.7947e-07	22.586	43.007	-94.107	-56.463	-158.181	-68.844	-31.228	-158.567	-151.116	-122.432	-33.256	-151.045	-144.723	-144.601	-136.860	-69.442	-138.183	-8191	255	
2050.668	1	1	0	0	0.16416	0.13201	0.13506	0.19622	0.25543	0.22281	0.41859	0.17406	0.10371	0.048878	0.28302	0.30698	0.095033	0.11903	0.36452	0.39745	-0.01875	-0.96042	-0.2	-1.0542	-0.7125	-0.24583	-1.3062	-0.475	-0.36458	-1.0167	-0.46458	-0.81667	-0.8125	-0.40833	-1.0604	-0.65833	-78.534	-38.773	44.858	-118.511	-9.546	-142.629	101.497	167.879	106.952	31.941	62.033	133.895	-38.775	135.783	91.398	30.616	0.00068126	0.00033102	6.1787e-05	1028.7	2.7595e-06	1.6384e-06	1117	216.21	3.9679e-06	1.6265e-06	271	74.47	58.874	16.55	3.3996e-06	22.926	3.6994e-05	2.5465e-05	7.2345e-06	999.61	3.1629e-07	2.8949e-07	1087.3	210.88	3.2233e-07	2.6955e-07	262.19	72.391	57.005	16.213	2.8131e-07	22.586	43.997	-111.405	-76.234	-158.423	-24.455	-43.520	-158.574	-151.079	-134.469	-9.095	-151.564	-144.951	-144.492	-135.978	-52.259	-137.863	-8191	255	
2050.788	1	1	0	0	0.16572	0.35768	0.096171	0.096635	0.0072098	0.21597	0.21062	0.12896	0.13992	0.11559	0.17853	0.039415	0.31001	0.061166	0.13598	0.17699	-0.085417	-1.225	-0.11667	-0.9875	-0.85417	-0.36667	-1.0958	-0.60208	-0.325	-0.98333	-0.36875	-0.61875	-0.9	-0.12083	-1.0667	-0.69583	-9.191	47.228	41.572	180.018	82.215	157.630	163.247	133.700	77.800	15.179	-25.267	1.243	-167.870	45.514	112.971	-153.248	0.00069839	0.00021916	7.0134e-05	1035.3	3.4885e-06	1.9256e-06	1121.9	217.46	6.8888e-06	1.8764e-06	272.84	74.027	59.073	16.597	4.5532e-06	22.901	3.8031e-05	2.4206e-05	7.6742e-06	1001.5	3.1247e-07	2.8819e-07	1089	211.16	3.1572e-07	2.7553e-07	262.95	72.201	57.171	16.301	3.0785e-07	22.519	40.544	-115.489	-59.661	-157.953	-67.226	-9.734	-158.613	-151.143	-103.507	-20.590	-151.466	-144.853	-144.207	-136.437	-62.830	-137.624	-8191	255	
2050.860	1	1	0	0	0.09653	0.15434	0.092601	0.093642	0.11768	0.29393	0.21601	0.16118	0.092955	0.14645	0.25767	0.02904	0.16693	0.097991	0.2938	0.30011	0.077083	-0.91875	-0.2625	-0.61458	-0.98958	-0.27292	-0.95	-0.88125	-0.21875	-1.0854	-0.29792	-0.59583	-1.0042	-0.035417	-0.83958	-0.80833	-60.948	89.168	169.259	138.032	-93.820	-61.077	180.877	175.476	155.027	44.495	-124.422	-89.769	-144.349	18.089	48.895	135.463	0.000719	0.0001162	7.6901e-05	1032	3.7358e-06	1.8892e-06	1121.2	216.21	4.0535e-06	1.5915e-06	272.26	74.723	58.959	16.54	4.1277e-06	22.986	3.8509e-05	2.4901e-05	7.274e-06	999.12	3.0404e-07	2.7517e-07	1088	210.84	3.1906e-07	2.7781e-07	262.73	72.618	57.166	16.253	2.8095e-07	22.561	38.408	-95.252	-70.975	-158.139	-45.306	-52.014	-158.511	-150.860	-87.377	16.779	-151.330	-144.694	-143.970	-136.529	-39.439	-137.642	-8191	255	
2050.981	1	1	0	0	0.12073	0.075228	0.13145	0.20629	0.29846	0.24944	0.10533	0.3362	0.13451	0.21533	0.33932	0.1369	0.14313	0.29189	0.20535	0.14423	0.29167	-1.2208	-0.32708	-0.45208	-1.0312	-0.19167	-1.0104	-1.0167	-0.31667	-0.89167	-0.7375	-0.45208	-1.1979	-0.19792	-0.6125	-1.225	-33.167	47.620	66.990	-109.772	138.826	106.052	77.914	65.165	-164.274	-104.760	113.015	-49.606	74.795	174.127	-24.343	-126.400	0.00064894	0.00019949	3.3932e-05	1026.6	3.2729e-06	2.4982e-06	1118.8	216.5	4.9396e-06	3.0218e-06	270.79	74.755	58.738	16.432	3.134e-06	22.896	3.878e-05	2.4387e-05	7.017e-06	1000.5	3.0451e-07	2.8717e-07	1088.2	210.96	3.2301e-07	2.6415e-07	262.46	72.434	57.014	16.213	2.785e-07	22.566	42.171	-139.208	-75.931	-158.188	-70.180	-30.510	-158.341	-151.269	-92.390	-35.657	-151.066	-144.378	-144.066	-136.772	-64.648	-136.956	-8191	255	
2051.077	1	1	0	0	0.031008	0.19257	0.021862	0.027197	0.16007	0.26147	0.076082	0.32022	0.12906	0.20258	0.1849	0.17302	0.052924	0.29289	0.10849	0.014041	0.2	-0.94167	-0.47292	-0.42708	-1.1125	-0.25833	-0.6375	-1.0333	-0.34167	-0.76667	-0.78125	-0.16042	-1.0042	-0.22917	-0.60417	-1.2271	78.214	-45.480	-5.949	-123.263	-132.550	-161.802	158.379	132.156	-87.252	179.749	180.615	-42.636	-119.612	-123.111	162.114	16.666	0.00069929	0.00032332	6.1597e-05	1034.6	1.5283e-06	2.5406e-06	1123	217.49	2.7634e-06	3.384e-06	272.93	74.581	59.174	16.689	2.2801e-06	23.139	3.7705e-05	2.597e-05	6.8536e-06	1001.8	3.0386e-07	2.6696e-07	1088.3	211.15	3.2093e-07	2.7256e-07	262.59	72.54	57.117	16.268	2.9101e-07	22.585	44.316	-95.531	-78.801	-158.237	-86.405	-38.496	-158.592	-151.075	-131.752	-28.612	-151.807	-144.672	-144.331	-136.713	-77.880	-137.026	-8191	255	
2051.171	1	1	0	0	0.18816	0.15491	0.19125	0.27903	0.2584	0.22559	0.06783	0.29313	0.044627	0.20194	0.20476	0.13486	0.12102	0.11236	0.066277	0.2625	0.3375	-0.71875	-0.75625	-0.17292	-1.1229	-0.52083	-0.6625	-1.2708	-0.35417	-0.81667	-1.0396	-0.35625	-1.2417	-0.52917	-0.19167	-1.1854	169.957	104.699	-114.704	155.722	-28.337	-47.340	-112.768	131.779	35.857	180.144	114.081	-139.165	35.411	-65.895	184.971	140.163	0.00072863	0.00012489	8.8068e-05	1033.9	3.1228e-06	2.3978e-06	1122.1	216.4	5.5033e-06	1.9741e-06	271.45	74.907	59.21	16.52	1.4318e-06	23.116	3.8742e-05	2.565e-05	6.8233e-06	1001.7	3.0285e-07	2.7553e-07	1088.1	210.61	3.2665e-07	2.6734e-07	262.48	72.574	57.248	16.226	2.8055e-07	22.568	41.564	-123.782	-85.259	-158.072	-84.982	-50.935	-158.466	-150.951	-108.491	-11.299	-151.569	-144.627	-144.139	-136.510	-58.738	-137.470	-8191	255	
2051.267	1	1	0	0	0.33919	0.060575	0.1987	0.057952	0.22165	0.17376	0.037437	0.2031	0.11469	0.13953	0.09127	0.1083	0.20089	0.17865	0.18497	0.15995	0.3	-0.6375	-0.96458	-0.27917	-0.9875	-0.53125	-0.60417	-1.2979	-0.14167	-0.86458	-1.2167	-0.31458	-0.95417	-0.61875	-0.26042	-1.1458	52.968	37.519	127.598	-156.215	-135.544	-13.688	51.985	177.062	4.560	94.153	-48.826	-107.601	-100.001	-107.613	53.429	92.099	0.00069276	0.00022578	7.808e-05	1032.3	2.2431e-06	1.8986e-06	1118	215.99	3.9216e-06	1.0362e-06	271.71	74.203	58.948	16.61	3.9877e-06	23.274	3.9137e-05	2.6965e-05	6.8977e-06	1001.3	3.0069e-07	2.905e-07	1088.5	210.8	3.077e-07	2.7814e-07	261.81	72.424	57.122	16.278	3.1247e-07	22.638	43.876	-93.786	-71.227	-158.397	-56.888	-23.053	-158.499	-150.952	-119.533	25.625	-151.381	-144.644	-144.055	-136.395	-57.698	-137.501	-8191	255	
2051.388	1	1	0	0	0.22423	0.032418	0.19736	0.17385	0.13226	0.13949	0.21972	0.16401	0.21646	0.13879	0.12658	0.18051	0.14825	0.21009	0.27075	0.25833	0.0375	-0.5625	-1.025	-0.11458	-1.0187	-0.69792	-0.46458	-1.3813	-0.30417	-0.44375	-1.1417	-0.17292	-1.0625	-0.95417	-0.48333	-1.0729	-25.048	187.737	3.383	-136.042	64.824	-63.793	168.846	-96.408	190.359	88.138	168.728	-128.925	68.358	7.058	-98.143	164.146	0.00075181	0.00020723	9.2328e-05	1033	2.2615e-06	2.158e-06	1119	217.59	4.3494e-06	1.4149e-06	270.74	74.69	59.273	16.533	4.54e-06	22.974	3.6691e-05	2.6909e-05	7.307e-06	999.66	3.0444e-07	2.7307e-07	1087.4	211.18	3.1971e-07	2.8502e-07	262.16	72.642	57.235	16.266	2.9343e-07	22.633	41.827	-97.992	-73.130	-158.355	-85.033	-38.390	-158.484	-150.690	-112.085	-1.943	-151.530	-144.940	-144.104	-137.013	-59.527	-137.478	-8191	255	
2051.484	1	1	0	0	0.30689	0.20506	0.029376	0.34641	0.076964	0.017733	0.23196	0.05427	0.12565	0.079148	0.15523	0.23548	0.26356	0.17705	0.065959	0.077875	-0.24375	-0.36042	-1.1729	-0.2875	-0.79583	-1.0292	-0.20833	-1.2437	-0.57917	-0.49375	-1.3521	-0.35833	-0.69792	-1.075	-0.097917	-1.2771	-105.302	-60.521	83.294	76.224	-157.592	51.536	116.623	95.378	135.178	129.965	80.710	93.824	-80.379	-62.079	-43.352	-126.072	0.00070385	0.00022062	7.3052e-05	1031.6	3.6314e-06	1.4336e-06	1118.1	217.9	5.0843e-06	3.2178e-06	270.94	74.266	58.912	16.682	1.4513e-06	23.13	3.716e-05	2.593e-05	6.7279e-06	1001.3	3.066e-07	2.6367e-07	1087.2	211.54	3.2262e-07	2.7133e-07	262.73	72.51	56.975	16.3	2.9505e-07	22.699	45.675	-121.574	-82.899	-158.483	-77.455	-69.999	-158.445	-150.850	-122.339	3.867	-151.334	-144.589	-144.040	-136.900	14.951	-137.408	-8191	255	
2051.556	1	1	0	0	0.15528	0.04554	0.10118	0.3359	0.19863	0.24343	0.45026	0.23995	0.17612	0.16126	0.042041	0.031843	0.29966	0.079575	0.076836	0.24773	-0.19167	-0.36667	-1.0896	-0.40625	-0.62083	-1.0292	-0.29792	-1.025	-0.89583	-0.38125	-1.1167	-0.70625	-0.63125	-1.05	-0.30208	-0.95	161.857	-50.032	-51.353	-152.422	-109.108	160.266	99.405	-97.418	80.386	-54.560	117.810	119.073	-35.164	-137.571	179.367	108.561	0.00074545	0.00032643	6.8835e-05	1030.5	2.3223e-06	2.0967e-06	1121.9	216.82	3.6659e-06	2.7049e-06	271.79	74.559	58.924	16.592	2.6921e-06	23.076	3.8184e-05	2.6375e-05	7.251e-06	999.35	3.0256e-07	2.7773e-07	1089.6	211.15	2.9979e-07	2.9201e-07	262.91	72.491	57.127	16.302	2.9332e-07	22.581	38.577	-80.560	-41.797	-158.134	-50.261	-35.625	-158.546	-150.840	-108.390	-22.666	-151.543	-144.661	-144.165	-136.501	-42.493	-137.682	-8191	255	
2051.676	1	1	0	0	0.20086	0.078581	0.059544	0.21774	0.2332	0.21021	0.10378	0.052594	0.10771	0.23613	0.032582	0.28829	0.16943	0.13846	0.1701	0.37232	-0.36875	-0.010417	-0.78333	-0.62083	-0.44375	-1.0375	-0.35417	-0.90833	-0.8625	-0.3625	-1.0042	-0.56667	-0.5125	-1.1542	-0.25833	-0.76042	170.100	-97.044	-39.463	174.479	124.909	90.003	167.442	-85.296	44.897	94.325	-73.101	151.267	85.011	-91.601	121.056	136.542	0.00064754	0.00016763	3.923e-05	1030.7	2.9307e-06	1.1516e-06	1114.1	215.9	4.1942e-06	1.7622e-06	271.27	74.099	58.914	16.497	4.018e-06	23.058	3.7575e-05	2.7222e-05	7.062e-06	1001	3.1074e-07	2.5958e-07	1086.7	211.2	3.0313e-07	2.7473e-07	262.98	72.373	57.252	16.217	2.9213e-07	22.656	36.001	-130.347	-52.198	-158.430	-43.862	-26.619	-158.501	-151.100	-123.491	-27.523	-151.234	-144.923	-144.106	-136.727	-68.617	-137.312	-8191	255	
2051.773	1	1	0	0	0.082313	0.17422	0.10176	0.3634	0.15626	0.16445	0.3507	0.17073	0.090285	0.27833	0.0098812	0.074719	0.21525	0.079407	0.23306	0.18297	-0.52292	-0.1375	-0.9125	-0.66667	-0.67708	-1.2646	-0.41042	-0.54583	-1.0083	-0.1	-1.0958	-0.55208	-0.49375	-1.2521	-0.22708	-0.58333	190.635	-163.319	145.163	168.306	60.322	-14.923	57.255	105.295	-140.713	72.498	47.628	-20.654	190.425	6.720	132.760	161.230	0.00063579	0.00021368	5.6855e-05	1032.2	5.2133e-07	3.0772e-06	1123.7	217.52	5.0121e-06	1.7635e-06	270.83	74.819	58.792	16.62	3.8895e-06	23.058	3.7284e-05	2.6563e-05	6.9059e-06	1001	3.1737e-07	2.7589e-07	1089.8	211.24	2.9641e-07	2.8331e-07	262.44	72.643	57.247	16.301	2.9069e-07	22.686	41.803	-111.550	-51.454	-158.411	-71.063	-26.356	-158.553	-150.832	-129.629	-31.335	-151.240	-144.778	-144.194	-136.687	-57.515	-137.140	-8191	255	
2051.869	1	1	0	0	0.13838	0.30491	0.16576	0.45881	0.13266	0.072592	0.24063	0.35074	0.029341	0.092463	0.13569	0.36115	0.2826	0.12291	0.27757	0.089538	-0.5375	-0.17083	-0.87083	-0.63958	-0.22292	-1.2271	-0.41875	-0.625	-1.1437	-0.20208	-0.9125	-0.85833	-0.1125	-0.95833	-0.34167	-0.47083	114.904	-98.712	179.493	163.206	46.324	48.179	84.262	144.979	189.378	-37.391	51.906	37.167	-157.954	127.710	86.643	-156.336	0.00070295	0.00029791	2.9497e-05	1027.9	2.9628e-06	4.3458e-07	1116.2	217.03	3.2733e-06	1.2594e-06	270.06	74.748	59.217	16.666	5.3976e-06	23.155	3.7157e-05	2.5277e-05	7.1391e-06	1000.2	3.2536e-07	2.8063e-07	1087.4	211.32	3.0709e-07	3.0345e-07	262.54	72.58	57.254	16.338	3.0226e-07	22.663	37.663	-108.479	-66.644	-158.128	-63.814	12.635	-158.609	-150.892	-128.178	31.885	-151.433	-144.780	-143.910	-136.715	-73.801	-137.602	-8191	255	
2051.963	1	1	0	0	0.084563	0.048022	0.24835	0.025654	0.11275	0.24294	0.26693	0.17182	0.11904	0.19937	0.095798	0.31782	0.20716	0.21337	0.0602	0.13843	-0.7625	-0.060417	-0.8625	-1.025	-0.0041667	-0.95833	-0.65833	-0.45208	-1.1292	-0.33958	-0.8125	-0.99792	-0.23958	-1.0458	-0.40417	-0.4	-55.295	37.873	91.358	-46.571	-117.928	119.064	96.154	-118.241	41.241	16.120	-24.237	-139.473	136.545	-159.851	29.736	-135.296	0.00081407	8.9231e-05	7.6816e-05	1033.1	2.3872e-06	1.9077e-06	1122.2	216.84	4.2285e-06	1.6214e-06	270.89	74.598	59.137	16.641	3.0559e-06	23.219	3.8158e-05	2.6715e-05	7.0399e-06	1001	3.4575e-07	2.9202e-07	1088.5	211.11	3.1262e-07	2.9549e-07	262.16	72.468	57.074	16.324	2.9202e-07	22.655	49.712	-82.642	-81.038	-158.425	-54.528	-47.670	-158.555	-150.983	-107.970	-5.484	-151.333	-144.712	-143.872	-136.543	-57.264	-136.958	-8191	255	
2052.084	1	1	0	0	0.13794	0.34204	0.17098	0.26808	0.082353	0.30548	0.29483	0.14762	0.16767	0.038213	0.08437	0.19168	0.1913	0.10165	0.051838	0.038748	-0.80417	-0.25625	-0.74792	-1.1354	-0.21458	-1.225	-0.72083	-0.079167	-0.9625	-0.28125	-0.4875	-1.0146	-0.17708	-0.96458	-0.50208	-0.37292	142.904	-34.648	-115.378	173.046	70.447	-0.744	13.962	186.652	-18.591	97.044	99.714	53.037	71.612	-152.303	-101.367	186.102	0.00071635	0.0001736	9.4495e-05	1033.2	1.6498e-06	1.1568e-06	1119.2	216.31	4.6235e-06	2.489e-06	273.79	74.645	58.891	16.591	2.5856e-06	22.847	3.8276e-05	2.7453e-05	7.3997e-06	1000.4	3.2515e-07	2.7788e-07	1088.6	211.01	3.0971e-07	2.9317e-07	263.4	72.479	57.205	16.283	2.8989e-07	22.639	39.223	-153.105	-76.605	-158.513	-72.532	-42.846	-158.685	-151.086	-124.451	-37.707	-151.050	-144.645	-143.811	-136.670	-65.526	-138.090	-8191	255	
2052.155	1	1	0	0	0.094491	0.064053	0.24102	0.37713	0.23513	0.12232	0.3483	0.37599	0.19072	0.13598	0.22246	0.034905	0.075056	0.13263	0.1137	0.23976	-0.70833	-0.37917	-0.50625	-1.2271	-0.30208	-0.75625	-1.1354	-0.01875	-0.92083	-0.3875	-0.4875	-1.0875	-0.14167	-0.8	-0.84375	-0.08125	-114.611	131.215	-65.965	121.523	22.616	46.908	94.647	78.764	-133.618	-106.621	156.313	-64.313	83.937	-67.600	92.790	186.802	0.00060511	0.00015677	4.2784e-05	1030.6	3.4034e-06	1.9992e-06	1118.5	216.71	5.196e-06	1.9836e-06	273.1	74.447	59.079	16.694	1.8523e-06	22.898	3.7294e-05	2.7865e-05	7.3593e-06	1000.3	3.2363e-07	2.7853e-07	1088.5	211.24	3.2158e-07	2.7817e-07	263.62	72.563	57.045	16.286	2.9891e-07	22.661	47.493	-70.168	-57.947	-158.308	-54.381	-43.313	-158.562	-150.898	-100.949	-12.051	-151.015	-144.882	-143.902	-136.034	-46.091	-137.286	-8191	255	
2052.252	1	1	0	0	0.1727	0.18164	0.32704	0.28738	0.024097	0.064893	0.255	0.26317	0.19308	0.21107	0.030939	0.2008	0.24216	0.18748	0.12654	0.19803	-0.67708	-0.43958	-0.37292	-1.1771	-0.26667	-0.625	-1.1437	-0.3125	-1.2125	-0.61042	-0.20833	-1.0938	-0.42292	-0.7375	-0.98333	-0.21042	126.689	-87.858	-76.698	163.214	190.059	-66.918	135.231	137.324	58.093	-142.329	76.954	98.871	132.481	-118.956	127.627	113.940	0.00066988	0.00016472	6.0567e-05	1034.1	2.482e-06	2.573e-06	1117.1	216.75	3.4933e-06	2.3855e-06	271.24	74.178	59.469	16.607	3.2075e-06	23.098	3.6404e-05	2.6655e-05	7.4319e-06	1001.8	3.3412e-07	2.9072e-07	1088.7	210.96	3.0335e-07	2.8933e-07	263.07	72.36	57.228	16.325	3.0089e-07	22.665	40.772	-92.251	-67.174	-158.127	-61.306	-74.810	-158.186	-150.861	-95.051	-53.683	-151.048	-144.765	-144.201	-136.263	-48.033	-137.651	-8191	255	
2052.349	1	1	0	0	0.1775	0.060074	0.28943	0.1041	0.10111	0.17651	0.25642	0.26073	0.082633	0.14815	0.073127	0.16202	0.04125	0.097481	0.20879	0.22191	-0.54167	-0.58125	-0.15625	-1.3042	-0.37083	-0.54167	-1.2333	-0.30417	-0.94375	-0.80625	-0.42292	-1.1938	-0.55417	-0.62083	-1.1562	-0.29167	-162.046	0.829	16.829	-113.172	-97.467	60.940	29.374	111.706	112.259	169.732	148.720	186.757	94.505	-109.891	167.635	113.081	0.00062609	0.00018707	4.7946e-05	1030.4	2.8735e-06	1.5877e-06	1122.6	216.59	5.0022e-06	3.8874e-06	271.65	74.887	58.687	16.659	4.3176e-06	23.145	3.7638e-05	2.6434e-05	7.4236e-06	1001.2	3.227e-07	2.8717e-07	1091.2	211.42	3.1352e-07	2.8697e-07	263.04	72.668	56.996	16.332	2.926e-07	22.691	41.437	-129.770	-26.817	-158.189	-40.929	-75.587	-158.582	-150.476	-106.312	0.767	-151.247	-144.535	-144.325	-136.684	-46.689	-137.306	-8191	255	
2052.468	1	1	0	0	0.1989	0.065066	0.13715	0.085418	0.22665	0.12727	0.20816	0.080675	0.13505	0.10394	0.016735	0.063875	0.21432	0.051199	0.022459	0.15772	-0.52708	-0.98958	-0.275	-1.1688	-0.6375	-0.39792	-1.2979	-0.27083	-0.66875	-0.93542	-0.2875	-0.96042	-0.54583	-0.35833	-1.225	-0.375	-14.356	14.061	159.091	92.142	-12.250	-161.819	-152.453	-13.612	-117.458	9.562	155.899	188.723	90.596	-126.002	9.988	-135.734	0.00066016	0.00012069	8.2824e-05	1032.1	2.5998e-06	1.9201e-06	1118.2	217.26	5.6182e-06	2.5239e-06	272.8	74.491	58.958	16.561	1.9361e-06	23.104	3.7983e-05	2.6312e-05	7.52e-06	1002.4	3.1063e-07	2.8269e-07	1090.2	211.29	3.2783e-07	2.7176e-07	263.22	72.649	57.068	16.322	2.8041e-07	22.689	44.398	-104.001	-69.364	-158.260	-37.715	-44.653	-158.447	-151.290	-147.100	-7.995	-151.103	-144.891	-144.646	-136.221	-99.111	-137.642	-8191	255	
2052.565	1	1	0	0	0.22618	0.13906	0.16351	0.10073	0.26047	0.13347	0.05731	0.16965	0.19832	0.025434	0.22345	0.33873	0.33009	0.087714	0.13238	0.13613	-0.44375	-0.83125	-0.24375	-1.3354	-0.69583	-0.32708	-1.3458	-0.31875	-0.71667	-1.1562	-0.27708	-1.1063	-0.775	-0.2125	-1.2229	-0.37708	-25.736	153.681	-156.577	-150.106	-127.056	-20.026	170.780	-130.960	-50.387	93.324	179.050	138.454	-143.420	98.540	-115.062	-126.685	0.00071994	0.0001721	8.6155e-05	1031	9.0221e-07	3.0699e-06	1123.8	218.05	3.1856e-06	1.6635e-06	272.12	74.424	59.147	16.638	2.2356e-06	22.93	3.8563e-05	2.6899e-05	7.2777e-06	1001.4	3.2468e-07	2.8511e-07	1091.5	211.3	3.2794e-07	2.84e-07	263.38	72.738	57.293	16.31	3.0183e-07	22.655	42.914	-129.519	-62.316	-158.070	-86.266	-43.837	-158.274	-150.948	-144.078	-16.720	-151.004	-144.451	-143.983	-136.522	-37.986	-137.628	-8191	255	
2052.661	1	1	0	0	0.12032	0.12194	0.10492	0.15548	0.070182	0.095301	0.44236	0.23002	0.1475	0.15436	0.23157	0.10677	0.20918	0.25	0.1233	0.15119	-0.085417	-0.975	-0.20833	-1.0292	-1.0938	-0.16042	-1.3396	-0.62083	-0.38125	-1.2188	-0.4875	-0.80625	-1.0792	-0.35625	-1.1646	-0.59375	-133.013	-146.554	75.593	-167.971	-41.955	72.918	133.813	136.274	-107.040	82.027	-132.102	-67.188	-133.363	151.471	-49.978	139.860	0.00063395	0.00020855	3.6929e-05	1034.4	2.6018e-06	3.4813e-06	1122.7	217.47	3.5998e-06	2.6304e-06	270.28	74.343	59.302	16.513	3.5274e-06	23.081	3.7654e-05	2.6372e-05	7.7412e-06	1002.8	3.2544e-07	2.9423e-07	1089.8	211.38	3.1625e-07	2.8187e-07	262.51	72.619	57.32	16.282	2.8109e-07	22.706	37.426	-123.874	-93.733	-158.130	-23.038	-51.842	-158.333	-150.720	-109.731	-37.793	-151.152	-144.293	-144.072	-136.360	-51.251	-137.561	-8191	255	
2052.757	1	1	0	0	0.020609	0.33991	0.15656	0.14637	0.51046	0.060768	0.2119	0.30595	0.10672	0.12353	0.18252	0.2412	0.10746	0.22994	0.15223	0.16357	-0.0041667	-1.1917	-0.28542	-0.85833	-1.0771	-0.30625	-1.2458	-0.67083	-0.40625	-1.1646	-0.38958	-0.63958	-1.0083	-0.15625	-1.1208	-0.90417	-139.781	-127.644	-35.135	170.984	-109.151	83.971	167.458	-119.898	-133.372	-102.845	129.343	178.858	-48.076	-161.243	188.106	50.931	0.00065204	0.00014516	7.5461e-05	1034.6	2.8595e-06	3.3688e-06	1125.5	217.81	4.1631e-06	8.4178e-07	271.55	74.475	59.295	16.592	2.6007e-06	23.111	3.916e-05	2.5271e-05	7.3529e-06	1002.8	3.093e-07	3.0211e-07	1091.1	211.45	3.2122e-07	2.7727e-07	263.4	72.589	57.325	16.354	3.089e-07	22.722	38.435	-132.811	-78.825	-158.271	-39.620	-36.270	-158.320	-150.640	-113.853	19.073	-151.501	-144.564	-144.020	-136.414	-90.812	-137.296	-8191	255	
2052.853	1	1	0	0	0.076937	0.050415	0.16579	0.08204	0.047399	0.25203	0.03337	0.19218	0.31919	0.3121	0.10765	0.25173	0.24014	0.28629	0.23815	0.13923	0.20208	-0.95625	-0.46042	-0.77917	-0.96458	-0.26042	-1.2521	-0.88333	-0.27917	-1.1479	-0.39167	-0.52917	-1.0854	-0.22708	-0.95417	-0.85208	159.748	1.283	-13.427	92.005	-165.838	-22.016	-22.386	66.377	-128.333	-7.115	-84.049	79.542	42.388	169.140	189.903	-63.341	0.00071888	0.00021516	5.9055e-05	1036.2	1.3987e-06	3.2771e-06	1126.3	216.69	4.2334e-06	3.0747e-06	271.93	74.418	58.978	16.628	2.8691e-06	23.26	3.8755e-05	2.5759e-05	7.5714e-06	1004.4	3.1762e-07	2.9036e-07	1093.1	211.31	3.2769e-07	2.7462e-07	262.98	72.607	57.196	16.357	2.9476e-07	22.822	39.371	-107.069	-74.256	-158.291	-52.354	-42.171	-158.070	-150.610	-114.540	-10.755	-151.602	-145.009	-144.295	-136.716	-57.938	-137.826	-8191	255	
2052.949	1	1	0	0	0.21132	0.10116	0.11903	0.1242	0.22748	0.039256	0.41161	0.20596	0.15173	0.16749	0.05607	0.3498	0.41861	0.23482	0.29427	0.3084	0.24375	-1.0542	-0.35625	-0.6125	-1.1083	-0.11458	-1.0167	-1.0063	-0.38542	-1.1354	-0.5875	-0.3125	-0.97292	-0.1125	-0.66667	-0.99792	129.545	-104.897	-109.412	-164.987	-13.788	58.530	60.548	-129.363	-113.913	-51.898	145.513	-149.099	133.345	180.465	137.078	123.482	0.00074757	0.00027421	6.0241e-05	1035.5	3.2602e-06	2.0442e-06	1114.7	216.81	4.2394e-06	2.673e-06	271.18	74.568	59.394	16.735	2.5299e-06	23.224	3.864e-05	2.6131e-05	7.531e-06	1003.5	3.1996e-07	2.9137e-07	1090	211.38	3.269e-07	2.8335e-07	263.02	72.732	57.446	16.366	3.0515e-07	22.783	45.912	-107.552	-79.505	-158.546	-72.285	-46.667	-158.346	-151.142	-114.982	-35.990	-151.546	-145.042	-144.403	-136.756	-84.415	-137.904	-8191	255	
2053.068	1	1	0	0	0.13685	0.27966	0.094188	0.26243	0.10724	0.16057	0.23642	0.15535	0.28594	0.084499	0.023634	0.11624	0.29014	0.092945	0.14623	0.12471	0.25833	-1.0021	-0.40208	-0.57708	-1.0667	-0.3625	-0.82708	-1.1771	-0.275	-0.93958	-0.81042	-0.3625	-1.1896	-0.38542	-0.66458	-1.2021	95.966	13.528	4.658	-165.902	67.807	-34.630	103.024	-37.781	-43.052	61.249	64.739	152.904	135.767	164.267	162.302	-163.175	0.00066445	0.0001343	5.5246e-05	1031.7	1.7121e-06	2.5348e-06	1123.2	217.69	3.6464e-06	2.5271e-06	273.68	74.885	59.806	16.598	3.3412e-06	23.156	3.952e-05	2.5976e-05	7.7081e-06	1003.2	3.0465e-07	2.9224e-07	1093.6	211.92	3.3341e-07	2.8629e-07	263.7	72.747	57.537	16.343	2.9083e-07	22.817	41.707	-95.440	-55.180	-158.560	-30.955	-35.990	-158.534	-151.495	-131.058	-18.280	-151.685	-144.832	-144.447	-137.182	-49.242	-137.843	-8191	255	
2053.164	1	1	0	0	0.16892	0.26147	0.26506	0.30043	0.12417	0.092389	0.02675	0.24096	0.091649	0.033412	0.1844	0.23675	0.12484	0.021296	0.19837	0.23279	0.25208	-0.9375	-0.81042	-0.27083	-0.98958	-0.41042	-0.66875	-1.2354	-0.091667	-1.025	-0.72083	-0.45208	-0.98333	-0.54583	-0.50208	-1.2167	-161.235	-127.414	98.966	100.807	17.130	-112.669	-114.860	147.965	56.205	-104.450	184.491	-143.058	-165.756	-57.678	-140.416	-129.749	0.00068864	0.00022666	4.4786e-05	1028.8	2.0362e-06	2.4955e-06	1125	217.52	3.4172e-06	2.3086e-06	272.47	74.684	59.319	16.627	1.9866e-06	23.169	3.9389e-05	2.591e-05	6.8444e-06	1001.5	3.1045e-07	2.9763e-07	1091.9	211.18	3.4196e-07	2.8494e-07	262.98	72.707	57.339	16.354	2.8755e-07	22.78	44.180	-73.860	-18.218	-158.320	-51.348	-51.394	-158.399	-151.263	-113.408	-49.687	-151.482	-144.909	-144.528	-136.773	-75.688	-137.423	-8191	255	
2053.260	1	1	0	0	0.06117	0.13771	0.30805	0.12123	0.13	0.19693	0.18341	0.18185	0.1754	0.1055	0.3315	0.14017	0.15417	0.079812	0.089433	0.31386	0.20417	-0.575	-0.94792	-0.15833	-1.0375	-0.54375	-0.58958	-1.1854	-0.1375	-0.79167	-0.97292	-0.11042	-0.87917	-0.6	-0.3125	-1.2292	136.573	-45.525	41.765	-137.154	-82.174	-156.589	158.116	84.245	-40.756	-115.911	-165.658	-91.725	-119.093	190.139	50.767	-109.272	0.00069881	0.00023153	3.935e-05	1032.7	2.5864e-06	2.8698e-06	1126.1	218.33	4.9015e-06	2.2625e-06	270.8	74.872	59.466	16.677	3.4843e-06	23.331	4.003e-05	2.772e-05	7.2207e-06	1002.2	3.2436e-07	2.8052e-07	1091.9	211.69	3.2416e-07	2.89e-07	262.63	72.741	57.642	16.36	3.1272e-07	22.793	37.761	-92.368	-41.740	-158.635	-52.418	-29.283	-158.720	-151.492	-104.878	-12.027	-151.943	-144.942	-144.233	-136.909	-31.383	-137.526	-8191	255	
2053.379	1	1	0	0	0.1667	0.019932	0.14228	0.23437	0.14847	0.076209	0.12682	0.1666	0.20836	0.049714	0.042938	0.4153	0.28071	0.34955	0.077769	0.28859	0.025	-0.64167	-0.98333	-0.0020833	-0.93333	-0.85	-0.23125	-1.0729	-0.20625	-0.57292	-1.1313	-0.19792	-1.075	-0.82708	-0.3125	-1.1958	-107.401	-32.441	-106.909	-158.885	97.485	181.589	-6.660	-31.232	-52.486	-65.732	44.002	98.727	179.213	176.482	153.335	64.770	0.00061825	0.00028896	5.6043e-05	1033.8	3.3094e-06	2.9198e-06	1122.5	216.32	3.845e-06	2.1176e-06	271.56	74.511	58.859	16.731	2.5387e-06	23.285	3.8834e-05	2.7235e-05	7.3676e-06	1003.1	3.192e-07	2.8186e-07	1090.8	211.21	3.3103e-07	2.7723e-07	263.25	72.679	57.236	16.354	3.0944e-07	22.793	47.161	-117.570	-56.182	-158.444	-76.868	-33.833	-158.424	-151.614	-140.047	11.468	-151.295	-144.958	-144.493	-136.584	-54.187	-138.251	-8191	255	
2053.451	1	1	0	0	0.077347	0.024213	0.18592	0.33609	0.14322	0.11296	0.083061	0.19759	0.30064	0.37985	0.16308	0.11254	0.25078	0.060268	0.34392	0.15167	0.1	-0.4125	-0.875	-0.33125	-0.70417	-0.84375	-0.20417	-1.1167	-0.57083	-0.22083	-1.2708	-0.17292	-0.75833	-0.8	-0.0625	-0.95208	-78.090	154.401	-149.421	104.007	-166.000	11.595	123.921	-162.127	-161.262	139.755	166.359	96.387	-15.742	107.998	99.487	43.799	0.00061768	9.6865e-05	4.1184e-05	1033.5	2.171e-06	2.4424e-06	1120.1	217.29	2.6041e-06	3.7965e-06	272.13	74.886	59.467	16.702	1.7268e-06	23.317	3.8653e-05	2.6444e-05	7.4419e-06	1003.2	3.2227e-07	2.9311e-07	1091.2	211.57	3.159e-07	2.9139e-07	262.74	72.666	57.455	16.342	3.1175e-07	22.858	42.422	-95.728	-44.700	-158.618	-45.816	-67.804	-158.459	-151.458	-136.927	-31.598	-151.274	-145.161	-144.193	-136.541	-83.848	-137.771	-8191	255	
2053.547	1	1	0	0	0.13038	0.27155	0.16788	0.077745	0.27024	0.094999	0.2312	0.19688	0.21225	0.44711	0.34601	0.073671	0.233	0.17322	0.092875	0.23737	-0.041667	-0.15833	-1.0063	-0.2625	-0.39792	-1.0271	-0.15417	-1.0688	-0.73125	-0.3625	-1.1812	-0.32083	-0.65625	-0.96667	-0.11458	-1.2146	-64.485	189.658	180.760	127.284	-6.456	-100.486	84.376	8.293	148.845	53.741	125.043	141.675	47.647	176.164	112.327	137.379	0.000694	0.00010591	7.4453e-05	1032.5	1.1697e-06	1.7487e-06	1122.6	217.75	5.1052e-06	1.5939e-06	272.05	74.931	59.497	16.723	3.3804e-06	23.393	3.9845e-05	2.7506e-05	7.5016e-06	1002.2	3.3008e-07	2.99e-07	1091.2	211.42	3.2165e-07	2.9549e-07	263.28	72.703	57.433	16.405	3.1618e-07	22.888	39.740	-141.028	-86.597	-158.227	-54.764	4.117	-158.360	-151.242	-116.498	-41.024	-151.329	-144.892	-143.994	-136.881	-101.104	-137.132	-8191	255	
2053.643	1	1	0	0	0.19425	0.065529	0.2548	0.34804	0.25157	0.13673	0.22156	0.18925	0.013102	0.1651	0.042292	0.18731	0.095132	0.22944	0.18128	0.17756	-0.30417	0.00625	-1.0938	-0.28333	-0.475	-1.1167	-0.35208	-1.0854	-0.70833	-0.3625	-1.0625	-0.29583	-0.37917	-1.1187	-0.3125	-0.71667	118.292	-77.938	134.134	137.322	-157.351	-20.722	143.719	-102.839	14.424	45.282	-152.249	80.132	-105.848	-164.347	-153.856	49.886	0.00069386	0.00027065	1.221e-05	1033.7	1.7587e-06	1.1551e-06	1122.7	215.3	4.4061e-06	1.5743e-06	271.77	74.442	59.136	16.67	3.3657e-06	23.296	3.8213e-05	2.8706e-05	6.9298e-06	1003.5	3.294e-07	2.9745e-07	1091.1	211.07	3.1924e-07	3.0124e-07	262.85	72.568	57.343	16.394	3.1283e-07	22.834	47.142	-108.064	-120.679	-158.340	-56.838	-46.805	-158.660	-151.134	-119.481	-28.844	-151.535	-144.596	-143.887	-137.088	-40.259	-137.690	-8191	255	
2053.739	1	1	0	0	0.18606	0.25098	0.25421	0.063079	0.36278	0.23765	0.57524	0.18552	0.18381	0.13459	0.06207	0.16905	0.036126	0.087434	0.050838	0.15363	-0.61667	-0.0041667	-1.0104	-0.63542	-0.35	-1.2146	-0.35625	-0.89583	-0.90208	-0.1	-1.0875	-0.56875	-0.54583	-1.0562	-0.17917	-0.69167	102.967	57.264	-45.853	89.168	-45.987	-136.136	103.969	136.854	51.844	-133.896	-128.379	-31.938	-139.989	144.064	45.377	182.720	0.00063035	0.00028973	2.983e-05	1038.7	1.0825e-06	1.8876e-06	1122.5	217.44	4.4808e-06	3.0178e-06	273.06	74.702	59.399	16.73	2.6667e-06	23.376	3.9495e-05	2.8762e-05	7.5181e-06	1004.8	3.393e-07	2.8327e-07	1090.3	211.6	3.141e-07	2.9925e-07	264	72.69	57.415	16.406	3.1506e-07	22.871	41.713	-106.891	-64.537	-158.075	-32.637	-62.338	-158.497	-150.658	-115.929	-34.030	-151.106	-144.825	-144.068	-136.391	-67.094	-137.552	-8191	255	
2053.860	1	1	0	0	0.41706	0.45882	0.17168	0.15823	0.24799	0.19221	0.29494	0.26775	0.19502	0.34648	0.08573	0.22445	0.12637	0.22491	0.065312	0.13275	-0.575	-0.10417	-0.88958	-0.9125	-0.33333	-1.1875	-0.62292	-0.57708	-1.0187	-0.17292	-0.95	-0.9125	-0.36875	-1.1958	-0.21875	-0.33125	151.880	-117.635	-81.669	60.818	-94.413	171.437	97.533	168.448	-152.497	150.498	120.156	95.914	29.826	86.836	-55.360	-158.589	0.00074463	0.00013362	5.1131e-05	1033.4	2.3513e-06	1.7991e-06	1122.7	217.63	4.5134e-06	1.5674e-07	271.58	75.119	59.078	16.771	2.8811e-06	23.203	3.8796e-05	2.6685e-05	7.4392e-06	1003.2	3.2493e-07	2.8667e-07	1091.8	211.63	3.1672e-07	2.8614e-07	263.26	72.752	57.353	16.423	3.0904e-07	22.858	42.858	-113.451	-71.093	-158.147	-48.728	-92.933	-158.489	-150.804	-117.081	-40.298	-151.055	-144.541	-144.062	-136.755	-73.492	-137.697	-8191	255	
2053.956	1	1	0	0	0.3501	0.050208	0.12566	0.30208	0.14695	0.091777	0.13191	0.35309	0.099192	0.12304	0.22889	0.31181	0.26868	0.091857	0.27575	0.2639	-0.71458	-0.32083	-0.75833	-0.86458	-0.19167	-0.99583	-0.47917	-0.66458	-1.0938	-0.11667	-0.99583	-0.91458	0.0125	-0.92292	-0.44583	-0.45	179.116	-87.652	-81.052	117.062	145.391	-22.970	127.669	189.639	163.457	-111.345	122.691	169.479	32.096	77.532	-55.405	100.950	0.00068572	0.00023246	6.6706e-05	1038.2	3.1662e-06	3.578e-06	1123.2	217.74	5.548e-06	1.7206e-06	272.3	74.214	59.36	16.67	1.7107e-06	23.222	3.7951e-05	2.7305e-05	7.4025e-06	1004.8	3.2558e-07	2.7716e-07	1093.1	211.53	3.2693e-07	2.8429e-07	263.21	72.646	57.335	16.384	3.0691e-07	22.841	41.113	-102.934	-75.438	-158.427	-24.902	-34.882	-158.367	-150.423	-108.250	-19.593	-151.041	-144.532	-144.193	-136.105	-41.157	-137.566	-8191	255	
2054.028	1	1	0	0	0.26885	0.22075	0.19455	0.12917	0.24326	0.097883	0.14554	0.20561	0.1151	0.070741	0.098505	0.3317	0.3431	0.1667	0.13023	0.085811	-0.825	-0.42083	-0.65417	-1.0438	-0.070833	-1.0458	-0.60208	-0.46667	-1.1375	-0.30833	-0.80417	-1.0417	-0.44583	-0.86667	-0.70208	-0.39792	-52.147	-125.903	-31.630	161.612	71.361	-148.413	185.238	140.953	-116.506	-132.595	76.801	107.343	-156.227	36.191	137.768	-154.350	0.0006992	0.0001955	4.7462e-05	1035.7	3.0789e-06	1.0614e-06	1121.5	217.47	2.1965e-06	1.5314e-06	272.06	74.432	59.443	16.592	3.5753e-06	23.343	3.8812e-05	2.7436e-05	7.7008e-06	1002.7	3.1827e-07	2.849e-07	1091.4	211.4	3.0795e-07	2.9538e-07	262.8	72.638	57.441	16.371	2.9884e-07	22.847	41.550	-101.471	-119.041	-158.268	-72.577	-38.846	-158.496	-150.798	-110.222	-43.324	-151.485	-144.679	-144.053	-136.783	-50.804	-137.313	-8191	255	
2054.148	1	1	0	0	0.41263	0.046322	0.31812	0.26041	0.13082	0.041555	0.414	0.30906	0.27895	0.13805	0.15948	0.40633	0.1816	0.17945	0.21126	0.14965	-0.8125	-0.375	-0.45625	-1.225	-0.24167	-0.92917	-1.0667	-0.11875	-1.2042	-0.23333	-0.57083	-1.0938	-0.22292	-0.98333	-0.68542	-0.26042	72.939	121.081	106.954	-146.965	-79.562	-19.180	177.199	155.998	-51.302	25.194	130.421	-152.436	188.294	60.522	134.600	41.698	0.00059815	0.00019497	6.2774e-05	1034.1	2.1429e-06	1.8031e-06	1125	217.05	4.1452e-06	1.986e-06	272.02	74.565	59.112	16.855	2.8709e-06	23.188	3.8433e-05	2.7311e-05	7.1455e-06	1003.6	3.2882e-07	2.8276e-07	1092	211.29	3.0849e-07	2.9002e-07	263.37	72.439	57.237	16.418	2.8427e-07	22.866	40.756	-79.428	-69.587	-158.532	-49.625	-76.416	-158.332	-151.113	-120.316	10.251	-151.220	-145.100	-144.220	-136.476	-80.417	-137.620	-8191	255	
2054.245	1	1	0	0	0.2446	0.35441	0.2915	0.043148	0.11242	0.19369	0.3845	0.24048	0.33615	0.19358	0.17993	0.13909	0.17097	0.088088	0.166	0.17576	-0.75208	-0.49583	-0.26667	-1.3167	-0.10833	-0.82708	-1.1292	-0.2625	-0.87083	-0.68542	-0.28333	-1.1479	-0.24792	-0.72083	-1.0063	-0.27083	122.544	140.142	-95.366	-111.385	-106.958	125.882	165.789	139.341	-35.296	15.465	161.827	118.489	159.434	91.327	-66.614	-11.432	0.00068034	8.2839e-05	5.629e-05	1036.7	4.0458e-06	1.7207e-06	1123.1	216.91	2.9488e-06	4.5233e-07	271.22	74.455	59.543	16.742	3.5509e-06	23.324	3.8627e-05	2.7476e-05	7.5034e-06	1004	3.4291e-07	2.8403e-07	1094.2	211.45	3.096e-07	2.8849e-07	262.81	72.657	57.339	16.409	2.9602e-07	22.845	43.944	-141.456	-21.049	-158.305	-35.388	-7.525	-158.574	-151.176	-112.160	-14.175	-151.439	-144.986	-144.001	-136.796	-51.509	-137.786	-8191	255	
2054.341	1	1	0	0	0.083953	0.15627	0.32043	0.11415	0.10373	0.21739	0.0094736	0.24162	0.24391	0.077526	0.14532	0.16273	0.10884	0.053329	0.0568	0.23056	-0.55625	-0.63333	-0.425	-1.5063	-0.1875	-0.52708	-1.3312	-0.29167	-1.1229	-0.75833	-0.33125	-1.4125	-0.39375	-0.55208	-0.83958	-0.033333	135.160	137.979	-20.531	-111.668	-21.871	38.430	-14.301	118.370	132.638	100.710	123.802	-108.599	-46.787	149.958	25.339	-111.658	0.00066247	4.9158e-05	7.2961e-05	1034.2	3.0139e-06	2.4369e-06	1121.1	217.44	5.2699e-06	1.9125e-06	271.81	74.377	58.936	16.652	3.023e-06	23.297	3.7374e-05	2.8284e-05	7.71e-06	1004	3.4636e-07	3.0294e-07	1093.6	211.48	3.3851e-07	2.8636e-07	262.33	72.788	57.202	16.396	3.2062e-07	22.893	43.203	-118.067	-80.700	-158.121	-45.668	-44.342	-158.614	-151.273	-103.762	-8.605	-151.488	-144.860	-143.646	-136.739	-47.978	-137.500	-8191	255	
2054.460	1	1	0	0	0.1101	0.13092	0.17224	0.14115	0.19505	0.077933	0.38564	0.24421	0.1134	0.19591	0.29978	0.10892	0.24223	0.053598	0.15362	0.13958	-0.45417	-0.66042	-0.039583	-1.3708	-0.30625	-0.38333	-0.95625	-0.2875	-0.85625	-0.83125	-0.2375	-0.98125	-0.66458	-0.2375	-0.97917	-0.28958	-133.794	56.293	-150.953	-131.312	40.836	75.553	105.889	138.662	-108.712	-65.712	181.367	124.027	-139.922	111.115	122.687	35.572	0.00071215	8.3512e-05	5.2743e-05	1041.5	3.4835e-06	1.9885e-06	1122.6	216.55	4.1551e-06	3.189e-06	272.31	74.618	59.646	16.731	2.9486e-06	23.402	3.9252e-05	2.7931e-05	8.3681e-06	1007.5	3.268e-07	3.0848e-07	1092.4	211.44	3.013e-07	3.0298e-07	263.21	72.696	57.559	16.417	3.1052e-07	22.956	38.589	-109.347	-61.416	-158.391	-41.914	-47.403	-158.315	-151.002	-149.177	-29.337	-151.480	-144.880	-144.576	-136.622	-39.597	-137.014	-8191	255	
2054.556	1	1	0	0	0.30052	0.31939	0.046537	0.18816	0.078775	0.13093	0.067739	0.28074	0.075458	0.2131	0.21695	0.15216	0.034411	0.28819	0.090333	0.031448	-0.15	-0.90208	-0.052083	-1.0792	-0.68125	-0.3	-1.3875	-0.2875	-0.63958	-1.1292	-0.36667	-1.1125	-0.72708	-0.3	-1.3146	-0.625	-144.827	-32.770	-156.808	151.455	-40.311	141.341	84.816	117.436	147.580	25.751	-79.945	-142.715	-135.793	185.502	-51.319	126.714	0.00072754	0.00018726	6.6458e-05	1037	3.7349e-06	2.2812e-06	1123.4	218.1	4.044e-06	2.9262e-06	272.42	75.397	59.404	16.801	4.2336e-06	23.231	4.108e-05	2.6734e-05	7.8045e-06	1006.8	3.3221e-07	3.1376e-07	1094	211.75	3.3355e-07	3.0718e-07	263.49	73.015	57.5	16.42	3.0233e-07	22.927	40.730	-72.261	-73.091	-158.475	-51.463	-17.992	-158.692	-151.138	-111.067	-6.912	-151.563	-144.567	-143.951	-136.636	-62.163	-137.574	-8191	255	
2054.652	1	1	0	0	0.32581	0.25637	0.30457	0.11849	0.12269	0.091791	0.27713	0.33013	0.039656	0.091188	0.18033	0.12544	0.29327	0.030663	0.11415	0.21447	-0.19792	-0.95417	-0.16875	-0.94583	-0.63333	-0.3375	-1.2583	-0.41458	-0.47917	-1.1146	-0.275	-0.975	-0.74167	-0.19792	-1.0604	-0.42292	76.336	-71.221	86.738	189.355	-87.194	99.178	134.547	101.300	177.077	52.949	169.794	36.091	76.790	166.289	-105.036	160.576	0.000683	0.00017459	4.5306e-05	1036.7	3.3407e-06	2.2334e-06	1125.8	218.13	4.5051e-06	2.1681e-06	273.66	74.725	59.414	16.726	1.648e-06	23.496	4.1306e-05	2.7443e-05	7.9312e-06	1007.6	3.0653e-07	2.9962e-07	1096.8	211.58	3.4491e-07	2.7564e-07	263.29	72.818	57.553	16.387	2.922e-07	22.986	41.817	-103.297	-67.658	-158.191	-54.344	-26.659	-158.561	-151.140	-112.775	-34.934	-151.387	-144.739	-144.237	-136.259	-77.706	-137.535	-8191	255	
2054.748	1	1	0	0	0.36019	0.33464	0.30756	0.10873	0.12541	0.27386	0.38942	0.2342	0.31046	0.1207	0.34389	0.11091	0.15474	0.31995	0.35369	0.079549	-0.0083333	-0.98333	-0.16042	-0.9	-0.65625	-0.054167	-1.1271	-0.68958	-0.17083	-1.2062	-0.34167	-0.93125	-0.97292	-0.31875	-0.875	-0.71667	33.124	135.752	155.730	-156.926	141.921	112.190	131.634	-135.970	-22.571	71.374	145.906	174.671	-153.408	190.458	99.732	76.946	0.0006731	0.00025272	3.634e-05	1044.8	2.8064e-06	1.8391e-06	1130.5	218.03	2.7853e-06	1.4726e-06	273.55	74.858	59.48	16.794	2.8808e-06	23.519	3.9849e-05	2.7552e-05	7.7935e-06	1009.7	3.3268e-07	3.0721e-07	1097.7	212.04	3.3423e-07	2.8911e-07	263.59	73.167	57.726	16.437	2.9905e-07	23.035	42.601	-106.821	-72.643	-158.426	-26.434	-41.853	-158.495	-151.024	-136.700	-78.771	-151.802	-144.903	-144.341	-137.144	-59.057	-137.548	-8191	255	
2054.844	1	1	0	0	0.17668	0.19082	0.25716	0.045249	0.19163	0.18813	0.30691	0.14991	0.083939	0.13883	0.32231	0.13954	0.1255	0.049868	0.20464	0.14121	0.21042	-1.0042	-0.15	-0.64375	-0.89792	-0.060417	-1.2271	-0.75833	-0.18958	-1.2417	-0.48333	-0.58958	-1.1833	-0.34583	-0.91458	-0.88958	136.608	-110.641	100.947	-81.165	98.890	-15.537	75.225	120.192	4.599	-48.036	54.594	52.256	158.237	-63.438	22.841	111.636	0.00068842	0.00016242	5.4076e-05	1046.2	2.0231e-06	2.2757e-06	1133.4	216.05	5.0156e-06	2.8534e-06	271.96	75.094	59.658	16.819	2.902e-06	23.437	3.9692e-05	2.6912e-05	7.8541e-06	1010.5	3.3376e-07	2.9072e-07	1099.3	211.58	3.3704e-07	2.8791e-07	263.41	73.213	57.767	16.49	2.948e-07	23.069	35.431	-79.985	-55.702	-158.364	-33.351	-12.361	-158.660	-151.156	-139.123	-6.127	-151.317	-144.813	-144.511	-136.902	-47.312	-137.718	-8191	255	
2054.940	1	1	0	0	0.20262	0.2263	0.19501	0.047398	0.17999	0.20165	0.14187	0.21045	0.12083	0.10514	0.20484	0.32471	0.25156	0.087251	0.097989	0.17468	0.24583	-1.1229	-0.22708	-0.64167	-0.94375	-0.11667	-1.05	-0.90208	-0.28333	-1.0729	-0.55833	-0.54792	-1.1146	-0.17917	-0.65	-0.9875	172.295	97.533	41.707	132.383	-62.986	-34.329	81.805	75.156	-73.232	-95.360	166.580	150.304	42.119	161.385	88.329	-161.580	0.00064629	0.00021265	7.6132e-05	1042.1	2.9997e-06	1.1426e-06	1130.6	217.82	5.0563e-06	1.1872e-06	271.98	75.183	59.865	16.832	3.4529e-06	23.388	3.8538e-05	2.6833e-05	7.7641e-06	1011.2	3.2464e-07	2.9752e-07	1100.5	212.03	3.4006e-07	2.8871e-07	263.76	72.978	57.826	16.472	2.9674e-07	23.07	39.755	-99.228	-34.482	-158.538	-57.524	-50.509	-158.542	-151.101	-132.089	-38.535	-151.479	-144.726	-143.957	-136.909	-68.716	-137.451	-8191	255	
2055.036	1	1	0	0	0.34771	0.19049	0.17063	0.17161	0.12706	0.068022	0.061957	0.36496	0.28834	0.069859	0.20415	0.3369	0.23527	0.16649	0.28364	0.031397	0.089583	-0.8625	-0.5	-0.425	-1.0729	-0.34375	-0.96458	-0.97917	-0.18333	-0.90208	-0.8875	-0.30833	-1.1104	-0.51458	-0.55	-0.94792	41.767	41.099	82.694	109.065	150.109	-5.747	-20.188	144.579	-168.915	83.997	169.629	-155.876	-126.240	90.820	-84.739	138.057	0.00074816	0.00012414	6.9213e-05	1045.9	3.2331e-06	2.2221e-06	1129	217.99	5.6493e-06	1.8314e-06	274.24	75.258	59.609	16.781	2.5726e-06	23.474	4.0809e-05	2.5511e-05	7.2345e-06	1011.5	3.1715e-07	2.7922e-07	1100	212.01	3.3653e-07	2.9701e-07	264.81	73.174	57.757	16.468	3.0287e-07	23.137	43.751	-155.649	-94.768	-158.459	-45.985	-55.808	-158.268	-151.045	-96.268	-15.942	-151.674	-144.556	-143.511	-136.619	-38.101	-137.534	-8191	255	
2055.157	1	1	0	0	0.11193	0.26375	0.017762	0.24124	0.030015	0.083516	0.14775	0.11647	0.12372	0.15275	0.10879	0.19987	0.20322	0.22446	0.24621	0.11149	0.13542	-0.93958	-0.83125	-0.3625	-1.2896	-0.39792	-0.48333	-1.1521	-0.13333	-0.9875	-0.90417	-0.325	-1.2583	-0.37083	-0.22083	-1.0729	-86.832	26.173	-90.014	-162.498	-142.003	101.384	154.593	149.363	38.475	117.457	28.312	128.880	-104.150	-84.001	127.142	13.123	0.00068418	0.0002351	5.2095e-05	1042.6	2.0584e-06	1.4174e-06	1128.1	218.91	3.0793e-06	1.7887e-06	273.6	75.168	59.661	16.71	5.4808e-06	23.611	3.8423e-05	2.7123e-05	7.5824e-06	1009	3.0919e-07	2.8088e-07	1098.9	212.01	3.255e-07	2.8331e-07	263.88	73.026	57.733	16.407	3.155e-07	23.188	40.421	-99.883	-53.983	-158.502	-23.897	-58.786	-158.217	-151.002	-89.504	-26.713	-151.321	-144.724	-144.082	-136.322	-39.008	-137.547	-8191	255	
2055.253	1	1	0	0	0.09098	0.32145	0.10198	0.15469	0.2083	0.1533	0.21362	0.14042	0.14231	0.11023	0.12463	0.35946	0.22505	0.24232	0.42753	0.18631	0.125	-0.90625	-0.89583	-0.25625	-1.1083	-0.6125	-0.43125	-1.1208	-0.32708	-0.71667	-0.99792	-0.13125	-1.1688	-0.65208	-0.38542	-1.2667	-142.304	83.773	17.940	152.887	177.388	73.098	133.012	61.311	178.086	-66.571	-159.866	107.707	-55.101	149.172	-103.134	77.710	0.0006991	0.00014099	4.543e-05	1039.8	2.3478e-06	2.4434e-06	1128.6	218.33	4.2318e-06	3.1025e-06	275.65	74.657	59.889	16.775	1.7034e-06	23.777	3.8975e-05	2.5277e-05	6.7884e-06	1009.5	3.0901e-07	2.8971e-07	1096.5	211.96	3.3801e-07	2.8176e-07	264.37	72.988	57.722	16.472	2.9905e-07	23.201	41.739	-62.643	-68.185	-158.136	-30.322	-26.276	-158.570	-150.777	-118.649	-45.092	-151.215	-144.441	-144.109	-136.772	-10.347	-137.235	-8191	255	
2055.325	1	1	0	0	0.22036	0.081167	0.14159	0.24305	0.19775	0.12237	0.28916	0.12866	0.1052	0.046372	0.19001	0.3153	0.24364	0.08442	0.18693	0.090735	0.05	-0.56458	-0.875	-0.43125	-1.0292	-0.44583	-0.5125	-1.2021	-0.34583	-0.55417	-1.4104	-0.17083	-1.0167	-0.77292	-0.09375	-1.2854	58.847	-5.489	-121.192	66.055	149.681	134.472	158.742	165.846	-62.690	-4.146	-78.122	184.289	-82.996	43.385	116.106	151.047	0.00064114	0.00034785	3.5079e-05	1040.3	5.312e-06	2.0134e-06	1130.7	216.39	4.8661e-06	2.5637e-06	273.39	75.152	59.7	16.869	2.362e-06	23.655	3.8525e-05	2.655e-05	7.3621e-06	1009.1	3.1114e-07	2.8887e-07	1098.2	211.49	3.3858e-07	2.9248e-07	263.81	73.043	57.818	16.499	2.9609e-07	23.171	34.258	-106.332	-70.164	-158.306	-64.443	-48.243	-158.256	-150.779	-97.951	-43.945	-151.655	-145.106	-144.345	-136.714	-61.795	-137.888	-8191	255	
2055.421	1	1	0	0	0.14293	0.20716	0.14138	0.17654	0.026065	0.25951	0.28812	0.22593	0.18373	0.12498	0.12372	0.38525	0.041968	0.048528	0.19797	0.1955	-0.10208	-0.42708	-1.1667	-0.14583	-0.94792	-1.0042	-0.43125	-1.1771	-0.30417	-0.37292	-1.3521	-0.17917	-0.7	-0.7875	-0.1875	-0.97083	-58.851	111.828	-113.308	-141.875	-64.428	103.527	144.268	110.716	96.459	24.650	176.427	-158.621	-54.313	39.134	-80.792	-123.731	0.00066527	0.0002685	4.7899e-05	1040.5	2.8485e-06	2.1743e-06	1124.9	218.65	4.8231e-06	5.9045e-07	274.35	74.412	59.721	16.784	3.3737e-06	23.744	3.9638e-05	2.6309e-05	6.9876e-06	1011.6	3.1409e-07	2.8273e-07	1098.3	212.29	3.1126e-07	2.9922e-07	264.25	72.826	57.773	16.508	3.1247e-07	23.265	39.902	-104.416	-27.942	-158.493	-66.308	-6.769	-158.198	-151.029	-125.676	9.973	-151.227	-144.927	-144.093	-136.810	-95.266	-137.927	-8191	255	
2055.540	1	1	0	0	0.1008	0.12727	0.19247	0.074646	0.30133	0.01969	0.24594	0.20634	0.17843	0.092775	0.27684	0.30702	0.078509	0.11856	0.10575	0.082938	-0.029167	-0.33958	-0.79167	-0.13958	-0.93542	-0.81667	-0.32292	-1.075	-0.71458	-0.56458	-1.0625	-0.44167	-0.5875	-0.93333	-0.20208	-0.96458	48.603	66.303	181.380	185.615	-17.915	98.137	121.900	90.182	139.886	54.462	6.172	99.203	-33.226	107.289	13.955	144.286	0.00067787	0.00028534	8.0575e-05	1041.4	3.346e-06	1.7067e-06	1128.9	217.08	1.9268e-06	3.6503e-06	273.21	75.32	59.753	16.773	3.9253e-06	23.582	3.9479e-05	2.7539e-05	7.519e-06	1009.9	3.3603e-07	2.8605e-07	1097	211.99	3.0773e-07	2.9925e-07	264.3	73.033	57.726	16.507	3.0248e-07	23.248	40.076	-75.574	-79.140	-158.496	-54.756	-45.189	-158.513	-151.126	-94.505	-13.546	-151.285	-144.798	-143.947	-136.681	-65.724	-137.597	-8191	255	
2055.636	1	1	0	0	0.12274	0.16101	0.036852	0.32492	0.18596	0.061308	0.41071	0.32021	0.39918	0.11445	0.18961	0.35743	0.40528	0.12161	0.021165	0.40134	-0.33958	-0.34792	-1.0312	-0.53542	-0.38125	-0.83542	-0.40833	-1.1187	-0.6625	-0.23958	-1.1125	-0.55833	-0.53958	-0.85417	-0.15208	-0.77917	176.268	-67.827	-93.960	147.780	-119.883	-129.363	26.020	-152.406	37.777	-40.503	102.088	179.268	-73.977	-74.075	-122.147	99.801	0.00068484	0.0001103	5.4913e-05	1038.6	3.5325e-06	1.9421e-06	1125.3	217.75	4.4689e-06	1.6418e-06	273.55	75.397	59.764	16.764	2.1954e-06	23.575	3.8366e-05	2.8715e-05	7.3548e-06	1008.7	3.3585e-07	2.8041e-07	1099	212.06	3.1931e-07	2.9672e-07	264.08	73.137	57.782	16.507	3.0922e-07	23.127	44.122	-95.800	-44.317	-158.380	-43.137	-43.790	-158.351	-150.738	-114.391	10.362	-151.230	-144.655	-143.461	-136.380	-87.274	-137.187	-8191	255	
2055.732	1	1	0	0	0.36627	0.32726	0.17198	0.18443	0.1145	0.051977	0.06616	0.06019	0.26022	0.15194	0.08702	0.1905	0.18352	0.17064	0.24748	0.032227	-0.42083	0	-0.80833	-0.60208	-0.31875	-1.2021	-0.36042	-0.88125	-1.0208	-0.064583	-1.0146	-0.59167	-0.12083	-1.1417	-0.31667	-0.69167	88.611	-63.610	-68.575	-162.645	-12.175	-7.244	-41.972	188.342	145.315	168.551	-118.504	-94.924	-27.837	-84.252	-25.856	6.567	0.00062095	0.00018624	8.2249e-05	1036.8	4.2287e-06	1.8142e-06	1131.7	218.3	5.0123e-06	2.4714e-06	272.25	74.778	59.447	16.855	3.6795e-06	23.62	3.9629e-05	2.8323e-05	7.3437e-06	1008.5	3.37e-07	2.9495e-07	1098.6	212.13	3.0425e-07	3.036e-07	264.15	73.049	57.766	16.504	3.0598e-07	23.193	51.651	-107.652	-66.818	-157.988	-54.494	-36.636	-158.764	-150.818	-92.692	-22.936	-151.250	-144.900	-144.118	-136.618	-52.116	-137.378	-8191	255	
2055.828	1	1	0	0	0.053397	0.10945	0.19347	0.16496	0.23621	0.20477	0.12992	0.14146	0.11965	0.1755	0.2675	0.23048	0.11064	0.34616	0.27903	0.20293	-0.63958	-0.31667	-0.95	-0.67708	-0.46458	-1.1229	-0.64167	-0.8375	-1.0667	-0.15417	-1.0146	-0.79375	-0.34583	-1.2229	-0.525	-0.47708	-135.310	-81.756	-139.393	138.918	-57.858	22.396	19.653	-89.948	36.106	110.740	185.673	-99.634	9.046	-166.665	-110.988	121.495	0.00069292	0.00014307	4.8019e-05	1051	2.9861e-06	2.5439e-06	1132.9	218.47	5.6379e-06	1.9554e-06	272.28	75.283	59.589	16.901	5.5626e-06	23.619	4.0748e-05	2.7822e-05	7.4465e-06	1012.9	3.3851e-07	2.9788e-07	1099.7	212.01	3.1172e-07	2.9759e-07	264.5	73.111	57.669	16.557	3.0583e-07	23.254	45.242	-109.451	-75.994	-158.431	-53.745	-31.660	-158.571	-151.049	-125.262	-36.780	-151.429	-144.563	-144.067	-136.090	-66.738	-137.521	-8191	255	
2055.925	1	1	0	0	0.11181	0.12945	0.045598	0.053551	0.14504	0.11032	0.096089	0.12321	0.16513	0.28637	0.29639	0.12052	0.17867	0.14753	0.036269	0.17295	-0.78333	-0.20208	-1.0438	-0.81875	-0.16042	-1.1562	-0.61667	-0.40625	-1.1375	-0.19167	-0.97292	-0.99583	-0.25417	-1.2563	-0.34583	-0.41667	113.678	-22.997	55.822	-150.727	-9.423	45.585	109.673	-127.787	173.474	-87.071	128.169	38.554	-165.566	-154.872	-101.373	28.204	0.00068939	0.00015337	5.9973e-05	1044.2	3.1028e-06	1.4673e-06	1127.2	218.14	3.7273e-06	1.5389e-06	275.18	75.372	59.563	16.84	2.9386e-06	23.731	3.7281e-05	2.8336e-05	7.6319e-06	1011.3	3.5429e-07	2.8768e-07	1098.4	212.4	3.2492e-07	2.9255e-07	264.67	73.3	57.793	16.579	3.0875e-07	23.202	39.061	-132.638	-55.987	-158.164	-22.787	-33.748	-158.635	-150.910	-125.082	-48.991	-150.934	-144.798	-144.362	-136.870	-44.920	-137.632	-8191	255	
2056.021	1	1	0	0	0.14923	0.11087	0.039393	0.27063	0.028934	0.0439	0.058651	0.049092	0.19167	0.16771	0.19821	0.27756	0.055812	0.30901	0.17202	0.099825	-0.9375	-0.22083	-0.85417	-0.95	0.010417	-0.975	-0.7375	-0.4375	-1.1729	-0.3625	-0.6375	-0.79375	-0.38333	-0.8625	-0.67708	-0.49792	-99.378	123.415	-39.944	116.031	67.773	145.264	14.345	-6.737	164.370	35.152	26.043	-129.399	-1.181	-100.208	-1.821	136.642	0.00079123	0.00024735	5.7251e-05	1044.6	1.1485e-06	1.994e-06	1134.1	217.21	5.1737e-06	2.0309e-06	273.63	74.87	59.57	16.993	2.1643e-06	23.6	3.9067e-05	2.7166e-05	7.5833e-06	1010.9	3.4085e-07	2.858e-07	1101.7	212.03	3.0554e-07	2.9918e-07	264.2	73.12	57.642	16.57	3.1239e-07	23.233	43.730	-108.672	-87.776	-158.294	-56.254	-21.086	-158.213	-150.883	-112.345	-49.188	-151.463	-144.697	-144.156	-136.753	-55.292	-137.536	-8191	255	
2056.141	1	1	0	0	0.16432	0.11458	0.20405	0.3673	0.046817	0.1547	0.053522	0.31625	0.15485	0.19507	0.24758	0.18864	0.21047	0.14359	0.14661	0.25211	-0.70833	-0.39583	-0.65208	-1.1583	-0.11458	-0.97292	-0.64167	-0.2375	-1.0125	-0.52917	-0.54583	-1.0917	-0.42083	-1.0542	-0.67083	-0.095833	-82.511	-7.252	44.100	154.883	-8.050	-78.412	145.417	131.727	21.530	157.610	-18.093	170.240	181.399	183.300	-2.488	170.165	0.00065922	0.00020648	5.4773e-05	1045	2.7632e-06	2.1914e-06	1133.8	218.21	4.362e-06	7.1988e-07	273.8	75.315	59.652	16.852	2.3309e-06	23.57	3.7135e-05	2.8287e-05	7.5842e-06	1011.7	3.3534e-07	2.943e-07	1101.1	212	3.1834e-07	2.8705e-07	264.31	73.099	57.873	16.57	3.0493e-07	23.23	43.085	-103.999	-55.225	-158.556	-67.790	-34.056	-158.673	-150.981	-132.341	-42.876	-151.333	-144.884	-144.571	-136.482	-79.467	-137.743	-8191	255	
2056.237	1	1	0	0	0.10965	0.17941	0.02304	0.15505	0.089335	0.46572	0.22403	0.095105	0.18771	0.062237	0.057324	0.23107	0.20272	0.13365	0.23053	0.15597	-0.47292	-0.45	-0.31042	-1.3563	-0.12708	-0.83542	-1.0688	-0.275	-1.0417	-0.475	-0.46042	-1.2417	-0.17917	-0.74792	-1.0229	-0.17708	-17.377	52.531	152.792	122.819	-146.790	-68.006	104.083	152.175	62.715	158.051	79.862	-110.102	95.409	147.161	50.522	-118.108	0.00069362	0.00024995	2.3958e-05	1044	1.2683e-06	1.4371e-06	1126.7	219.08	4.3905e-06	3.0397e-06	274.08	75.094	59.35	16.851	1.992e-06	23.821	3.974e-05	2.7578e-05	7.9201e-06	1012.5	3.3008e-07	2.9115e-07	1099.3	212.27	3.1539e-07	3.0794e-07	265	73.21	57.722	16.531	3.1517e-07	23.277	42.826	-117.641	-85.275	-158.120	-41.706	-37.628	-158.583	-151.115	-115.542	12.177	-151.272	-144.676	-144.173	-136.816	-30.281	-137.654	-8191	255	
2056.334	1	1	0	0	0.27688	0.15239	0.14469	0.11993	0.014825	0.18614	0.27452	0.15628	0.054168	0.090862	0.14598	0.16654	0.12565	0.29362	0.33211	0.13446	-0.49375	-0.53542	-0.23333	-1.1083	-0.25833	-0.41667	-1.1875	-0.21667	-1.0521	-0.51875	-0.27708	-0.9875	-0.29792	-0.57292	-0.77708	-0.39167	12.028	-134.366	-13.338	160.278	-1.796	-120.082	172.973	93.543	-139.154	24.245	-121.309	102.015	-93.171	-158.261	10.999	103.106	0.00079714	0.00021687	5.7852e-05	1041.4	3.0812e-06	1.8621e-06	1130.2	217.42	4.7891e-06	1.41e-06	273.17	74.823	59.67	16.97	1.7412e-06	23.741	4.085e-05	2.8237e-05	8.0266e-06	1010.8	3.4002e-07	2.9238e-07	1099.6	211.94	3.2546e-07	2.9882e-07	264.54	73.099	57.775	16.618	2.9797e-07	23.254	40.929	-114.370	-95.521	-158.248	-61.396	-39.010	-158.649	-151.155	-93.526	6.568	-151.529	-144.747	-144.254	-136.297	-70.453	-137.483	-8191	255	
2056.430	1	1	0	0	0.043756	0.11602	0.18164	0.16188	0.24568	0.1566	0.33076	0.23416	0.38752	0.17329	0.21324	0.089985	0.1794	0.091097	0.10724	0.065398	-0.54375	-0.52083	-0.14167	-1.1812	-0.18333	-0.65208	-1.2208	-0.19375	-0.775	-0.90417	-0.34583	-1.3521	-0.44792	-0.45208	-1.0083	-0.10417	100.666	-82.069	171.248	11.373	109.496	-143.114	111.884	-128.126	-101.090	-123.085	-140.942	-45.105	171.624	185.291	-65.488	-87.636	0.00072188	0.00022297	7.3505e-05	1041.7	3.8461e-06	2.1394e-06	1134.5	217.97	4.2911e-06	2.8663e-06	272.73	75.44	59.688	16.955	1.827e-06	23.82	3.8975e-05	2.8725e-05	8.0028e-06	1010.8	3.3775e-07	2.9755e-07	1101.9	212.33	3.2639e-07	2.9936e-07	264.4	73.273	57.85	16.576	2.9786e-07	23.3	40.104	-73.411	-67.089	-158.543	-51.210	-49.573	-158.479	-151.158	-142.830	5.262	-151.597	-144.900	-144.318	-136.401	-91.007	-138.211	-8191	255	
2056.549	1	1	0	0	0.20494	0.037486	0.17841	0.12725	0.2014	0.14543	0.24453	0.28119	0.23147	0.13239	0.18629	0.19144	0.088705	0.20539	0.12008	0.22664	-0.6	-0.76042	0.047917	-1.1667	-0.57292	-0.3875	-1.3833	-0.5375	-0.8	-0.85417	-0.17292	-1.0646	-0.57292	-0.30417	-1.2229	-0.45208	111.578	66.979	-6.790	70.872	59.730	86.791	137.689	166.779	-142.416	45.359	-84.779	123.859	105.132	-89.047	-165.269	-68.041	0.00067415	0.00026386	2.9078e-05	1043.5	2.9756e-06	1.9092e-06	1132.5	218.06	4.4583e-06	1.6097e-06	275.54	75.714	60.218	17.019	4.3661e-06	23.589	4.0308e-05	2.7005e-05	8.1294e-06	1013.6	3.3271e-07	3.2002e-07	1101.9	212.28	3.2977e-07	3.0045e-07	264.84	73.511	57.887	16.629	3.1344e-07	23.27	40.159	-99.905	-32.853	-157.990	-51.414	-55.678	-158.467	-151.020	-109.579	-39.446	-151.627	-144.625	-144.016	-136.787	-46.086	-137.096	-8191	255	
2056.620	1	1	0	0	0.23057	0.2085	0.062015	0.078128	0.23141	0.13173	0.1264	0.35259	0.12276	0.2112	0.096008	0.25015	0.16278	0.19845	0.041848	0.075528	0	-1.0354	0.13542	-1	-0.6375	-0.11458	-1.225	-0.39167	-0.41458	-1.0458	-0.41667	-0.85	-0.65625	-0.23958	-1.0083	-0.43125	-155.204	107.005	71.519	-41.610	13.270	-35.106	-41.544	-122.803	-5.833	-20.761	74.456	137.814	16.972	169.710	66.885	-128.061	0.00069083	0.00019283	4.5336e-05	1048.4	1.9032e-06	1.3999e-06	1136.2	218.87	1.5657e-06	1.1996e-06	275.43	75.092	59.388	16.857	3.156e-06	23.812	4.1657e-05	2.6952e-05	8.1753e-06	1015.3	3.4932e-07	3.0754e-07	1104.8	212.57	3.2636e-07	3.0628e-07	264.92	73.342	57.862	16.604	2.9801e-07	23.314	40.616	-118.301	-86.994	-158.099	-22.742	-65.985	-158.401	-150.969	-137.770	-4.827	-151.321	-144.896	-144.171	-136.498	-22.808	-137.745	-8191	255	
2056.716	1	1	0	0	0.42781	0.16391	0.16867	0.17836	0.25561	0.089301	0.24534	0.15365	0.047688	0.088921	0.20275	0.2704	0.09114	0.27938	0.11281	0.16384	-0.05625	-1.1354	-0.14375	-1.0729	-0.875	-0.2375	-1.3729	-0.38125	-0.46667	-1.1146	-0.19792	-0.89583	-1.0146	-0.10208	-1.1833	-0.68542	-17.186	-96.068	-81.462	52.517	-113.326	125.855	143.858	165.014	-38.052	147.652	60.662	145.283	-48.061	179.010	167.139	53.483	0.00070895	0.00014582	4.2172e-05	1049.4	2.1666e-06	1.6193e-06	1133.9	217.51	3.8403e-06	2.347e-06	273.17	75.315	59.86	17.164	4.0172e-06	23.588	3.9558e-05	2.6972e-05	7.8899e-06	1016.7	3.1827e-07	3.0671e-07	1103.4	212.76	3.3193e-07	2.969e-07	265.21	73.477	58.108	16.738	2.8232e-07	23.293	41.554	-103.932	-65.117	-158.319	-62.015	-47.223	-158.566	-151.096	-101.014	-13.635	-151.710	-144.619	-144.205	-136.830	-70.181	-137.529	-8191	255	
2056.837	1	1	0	0	0.02052	0.2378	0.15182	0.17425	0.12179	0.13157	0.19413	0.037952	0.25832	0.14443	0.28381	0.1537	0.18929	0.2571	0.17626	0.058936	0.064583	-1.2687	-0.24792	-0.83333	-0.9125	-0.30417	-1.1437	-0.7125	-0.35208	-1.0208	-0.53125	-0.45417	-0.76458	-0.18333	-0.88333	-0.64375	-93.707	-64.817	-97.692	90.840	125.577	-47.630	115.759	160.673	-102.774	-2.652	-158.806	103.612	138.079	169.513	-45.391	46.215	0.00071902	0.00022247	5.0904e-05	1047.2	2.801e-06	3.0884e-07	1136.3	218.07	4.0724e-06	1.8387e-06	275.41	75.871	60.286	17.056	9.3766e-07	23.949	4.0219e-05	2.6062e-05	7.8733e-06	1016.4	3.2284e-07	3.0537e-07	1105.6	212.62	3.4293e-07	2.982e-07	265.6	73.622	58.13	16.702	3.0522e-07	23.394	38.392	-113.475	-54.681	-158.446	-42.772	-83.483	-158.367	-151.085	-125.612	-3.810	-151.579	-144.599	-143.930	-136.708	8.794	-137.237	-8191	255	
2056.933	1	1	0	0	0.13083	0.20098	0.19842	0.33166	0.029881	0.29214	0.06709	0.38898	0.14834	0.47599	0.25379	0.21135	0.28982	0.17966	0.069204	0.21732	0.029167	-1.0083	-0.48333	-0.58333	-1.0771	-0.14375	-1.0792	-0.85	-0.21875	-1.0521	-0.60417	-0.63542	-1.175	-0.2	-0.79583	-1.1625	-15.097	-160.120	-57.748	131.655	-91.629	-32.984	-164.848	160.018	178.143	-59.971	-153.309	2.798	173.379	187.745	69.436	110.942	0.00073417	0.00031211	5.5584e-05	1050.8	2.1428e-06	2.1065e-06	1145.4	220.22	4.7421e-06	1.3552e-06	275.76	76.264	60.878	17.327	2.3851e-06	23.892	3.9418e-05	2.6876e-05	7.6668e-06	1019.3	3.1513e-07	2.9343e-07	1110.7	213.57	3.2309e-07	3.0266e-07	266.58	74.155	58.56	16.968	2.9188e-07	23.627	45.420	-105.688	-40.703	-158.340	-67.112	-3.482	-158.543	-151.321	-105.787	9.987	-151.414	-145.240	-144.243	-136.975	-37.305	-137.796	-8191	255	
2057.029	1	1	0	0	0.15877	0.14836	0.046575	0.12265	0.013032	0.24308	0.15853	0.31707	0.072615	0.29803	0.22225	0.28535	0.18648	0.054073	0.40966	0.14804	0.22917	-0.98542	-0.51042	-0.39167	-1.2812	-0.31458	-0.9	-1.1854	-0.14167	-1.1646	-0.67708	-0.37083	-1.3292	-0.15	-0.71458	-1.0812	-136.599	-100.178	177.142	-122.715	-130.020	-45.699	111.291	153.618	-42.172	181.441	-66.594	10.259	99.597	13.111	3.595	36.095	0.00068422	0.00020378	4.725e-05	1055.6	2.9931e-06	2.1543e-06	1144.6	220.47	4.7068e-06	2.6478e-06	275.75	76.393	61.035	17.491	6.1664e-06	24.131	4.0946e-05	2.6263e-05	7.7522e-06	1021.6	3.2122e-07	3.0132e-07	1110.4	214	3.4157e-07	2.8368e-07	266.41	74.189	58.684	17.116	3.0879e-07	23.817	37.133	-127.730	-68.590	-158.435	-59.416	-34.647	-158.567	-151.189	-128.472	-28.912	-151.470	-144.808	-144.319	-136.427	-57.364	-137.203	-8191	255	
2057.126	1	1	0	0	0.16291	0.036578	0.15903	0.042826	0.12494	0.11232	0.27965	0.22481	0.12293	0.11378	0.24991	0.10451	0.22756	0.17374	0.16467	0.16988	0.22708	-0.97708	-0.61667	-0.26458	-1.2479	-0.26042	-0.56458	-1.1021	-0.2	-0.79167	-0.9375	-0.225	-1.1	-0.45625	-0.52917	-1.1562	-2.875	89.907	110.357	75.441	129.027	50.071	99.924	133.005	58.144	12.952	-105.522	-131.651	156.583	-31.641	141.222	-112.001	0.00068854	0.00036167	7.7687e-05	1052.8	3.0495e-06	2.0658e-06	1144.5	220.11	4.1806e-06	2.6751e-06	275.46	75.683	60.705	17.365	3.0629e-06	24.253	3.9826e-05	2.6685e-05	7.5108e-06	1019.3	3.12e-07	3.0085e-07	1111.4	213.86	3.3822e-07	2.9056e-07	266.51	74.019	58.485	17.025	3.0374e-07	23.771	39.405	-99.233	-65.596	-158.094	-74.968	-22.702	-158.426	-151.222	-77.690	-13.607	-151.266	-144.572	-143.860	-136.463	-76.206	-137.516	-8191	255	
2057.222	1	1	0	0	0.21393	0.12984	0.34219	0.34197	0.078906	0.22455	0.26507	0.4056	0.1848	0.066173	0.12181	0.15515	0.27303	0.20943	0.26413	0.044794	0.26667	-0.95208	-0.6375	-0.40833	-1.2396	-0.44583	-0.84583	-1.3438	0.027083	-0.82292	-0.96667	-0.43958	-1.1063	-0.50833	-0.38542	-1.2042	-3.146	-38.659	24.002	-147.307	35.700	96.367	102.844	-161.614	-29.895	-9.134	108.934	-163.696	122.324	8.292	79.946	-89.581	0.00074271	0.0002035	4.1802e-05	1051.2	2.5568e-06	2.3892e-06	1142	218.56	3.6865e-06	1.5026e-06	273.89	75.805	60.418	17.29	1.865e-06	24.371	4.145e-05	2.739e-05	7.7705e-06	1019	3.2374e-07	2.9423e-07	1109	213.5	3.5099e-07	2.9172e-07	265.93	73.933	58.463	16.961	3.0482e-07	23.783	40.982	-118.432	-54.807	-158.313	-78.276	-31.497	-158.324	-151.206	-89.615	-1.849	-151.565	-144.418	-144.379	-136.701	-60.703	-137.212	-8191	255	
2057.318	1	1	0	0	0.065579	0.051799	0.20814	0.12149	0.069868	0.12497	0.34525	0.22647	0.26107	0.25751	0.27819	0.17876	0.10186	0.15416	0.41385	0.15985	0.16875	-0.85833	-0.89792	-0.45625	-1.1208	-0.63958	-0.6375	-1.0396	-0.21042	-0.83542	-1.2375	-0.11875	-1.0375	-0.63333	-0.22083	-1.2604	8.799	-70.185	128.390	-165.518	181.350	-117.299	4.890	128.553	-76.460	-152.938	147.365	86.013	190.726	39.441	86.436	97.148	0.00070546	0.00017615	7.0044e-05	1052.5	3.3806e-06	2.0291e-06	1140.7	220.44	5.8764e-06	1.4186e-06	274.49	75.863	60.466	17.374	3.1078e-06	24.306	4.107e-05	2.8926e-05	7.5824e-06	1020.1	3.2925e-07	2.9491e-07	1107.9	214.24	3.5099e-07	3.0501e-07	266.02	73.967	58.584	16.994	3.3295e-07	23.806	47.445	-105.596	-48.888	-158.216	-54.793	-37.071	-158.174	-150.949	-111.890	-26.662	-151.550	-144.996	-144.189	-136.590	-46.964	-137.560	-8191	255	
#DATA ENDS
