BOXY.EXE: ISS Imagent and Oximeter Data Acquisition Program Version 0.80
Ascii Record File

#ACQ INFORMATION
2  Detector Channels 
16  External MUX Channels 
1  Auxiliary Channels 
5000  Waveform (CCF) Frequency (Hz)
1  Waveforms Skipped 
30  Waveforms Averaged 
1  Cycles Averaged 
16  Acquisitions per Waveform 
10.0806  Updata Rate (Hz) 

#FILE INFORMATION
TRUE -- External MUX Channel results are PARSED.
FALSE -- AC DC and Phase are NOT grouped.
TRUE -- Companion Program Settings File CREATED.
FALSE -- AC data not excluded
FALSE -- DC data not excluded
FALSE -- Phase data not excluded
FALSE -- Auxillary Chn. data not excluded
Tab delimiters

#CALIBRATION STATE
TRUE -- Waveform Calibration Values APPLIED.


#AUX CALIBRATION VALUES
Val Type	aux-1	

Term	1.0000e+00	
Factor	0.0000e+00	


#WF CALIBRATION VALUES
A = Detector Channel
Val Type	A-AC1	A-AC2	A-AC3	A-AC4	A-AC5	A-AC6	A-AC7	A-AC8	A-AC9	A-AC10	A-AC11	A-AC12	A-AC13	A-AC14	A-AC15	A-AC16	A-DC1	A-DC2	A-DC3	A-DC4	A-DC5	A-DC6	A-DC7	A-DC8	A-DC9	A-DC10	A-DC11	A-DC12	A-DC13	A-DC14	A-DC15	A-DC16	A-Ph1	A-Ph2	A-Ph3	A-Ph4	A-Ph5	A-Ph6	A-Ph7	A-Ph8	A-Ph9	A-Ph10	A-Ph11	A-Ph12	A-Ph13	A-Ph14	A-Ph15	A-Ph16	

Term	0.00000e+00	0.00000e+00	0.00000e+00	0.00000e+00	0.00000e+00	0.00000e+00	0.00000e+00	0.00000e+00	0.00000e+00	0.00000e+00	0.00000e+00	0.00000e+00	0.00000e+00	0.00000e+00	0.00000e+00	0.00000e+00	0.00000e+00	0.00000e+00	0.00000e+00	0.00000e+00	0.00000e+00	0.00000e+00	0.00000e+00	0.00000e+00	0.00000e+00	0.00000e+00	0.00000e+00	0.00000e+00	0.00000e+00	0.00000e+00	0.00000e+00	0.00000e+00	0.00000e+00	0.00000e+00	0.00000e+00	0.00000e+00	0.00000e+00	0.00000e+00	0.00000e+00	0.00000e+00	0.00000e+00	0.00000e+00	0.00000e+00	0.00000e+00	0.00000e+00	0.00000e+00	0.00000e+00	0.00000e+00	
Factor	1.00000e+00	1.00000e+00	1.00000e+00	1.00000e+00	1.00000e+00	1.00000e+00	1.00000e+00	1.00000e+00	1.00000e+00	1.00000e+00	1.00000e+00	1.00000e+00	1.00000e+00	1.00000e+00	1.00000e+00	1.00000e+00	1.00000e+00	1.00000e+00	1.00000e+00	1.00000e+00	1.00000e+00	1.00000e+00	1.00000e+00	1.00000e+00	1.00000e+00	1.00000e+00	1.00000e+00	1.00000e+00	1.00000e+00	1.00000e+00	1.00000e+00	1.00000e+00	X	X	X	X	X	X	X	X	X	X	X	X	X	X	X	X	

B = Detector Channel
Val Type	B-AC1	B-AC2	B-AC3	B-AC4	B-AC5	B-AC6	B-AC7	B-AC8	B-AC9	B-AC10	B-AC11	B-AC12	B-AC13	B-AC14	B-AC15	B-AC16	B-DC1	B-DC2	B-DC3	B-DC4	B-DC5	B-DC6	B-DC7	B-DC8	B-DC9	B-DC10	B-DC11	B-DC12	B-DC13	B-DC14	B-DC15	B-DC16	B-Ph1	B-Ph2	B-Ph3	B-Ph4	B-Ph5	B-Ph6	B-Ph7	B-Ph8	B-Ph9	B-Ph10	B-Ph11	B-Ph12	B-Ph13	B-Ph14	B-Ph15	B-Ph16	

Term	0.00000e+00	0.00000e+00	0.00000e+00	0.00000e+00	0.00000e+00	0.00000e+00	0.00000e+00	0.00000e+00	0.00000e+00	0.00000e+00	0.00000e+00	0.00000e+00	0.00000e+00	0.00000e+00	0.00000e+00	0.00000e+00	0.00000e+00	0.00000e+00	0.00000e+00	0.00000e+00	0.00000e+00	0.00000e+00	0.00000e+00	0.00000e+00	0.00000e+00	0.00000e+00	0.00000e+00	0.00000e+00	0.00000e+00	0.00000e+00	0.00000e+00	0.00000e+00	6.90162e+01	-1.56128e+02	-1.16186e+02	-1.81639e+02	-7.96074e+01	-9.11058e+01	-1.56882e+02	-1.62015e+02	-1.33922e+02	-6.75792e+01	-1.72122e+02	-1.69516e+02	-1.85555e+02	-1.76516e+02	-9.85877e+01	-1.49146e+02	
Factor	6.21861e-05	1.15743e-04	3.18327e-05	1.64936e-01	1.44916e-06	1.20847e-06	1.76422e-01	5.14978e-02	1.99006e-06	1.27802e-06	8.81120e-02	2.83650e-02	2.55766e-02	8.90638e-03	1.90026e-06	1.25959e-02	1.53080e-06	1.58230e-06	4.40569e-07	8.63224e-02	1.72893e-08	1.73607e-08	8.67342e-02	2.69960e-02	1.72581e-08	1.73857e-08	4.42118e-02	1.42717e-02	1.32884e-02	4.65608e-03	1.73092e-08	6.35628e-03	X	X	X	X	X	X	X	X	X	X	X	X	X	X	X	X	



#DISTANCE SETTINGS
A = Detector Channel
A-1	A-2	A-3	A-4	A-5	A-6	A-7	A-8	A-9	A-10	A-11	A-12	A-13	A-14	A-15	A-16	

2.5000e+00	3.0000e+00	2.5000e+00	3.0000e+00	2.0000e+00	3.0000e+00	1.5000e+00	3.0000e+00	3.0000e+00	3.0000e+00	3.0000e+00	3.0000e+00	3.0000e+00	3.0000e+00	1.5000e+00	3.0000e+00	

B = Detector Channel
B-1	B-2	B-3	B-4	B-5	B-6	B-7	B-8	B-9	B-10	B-11	B-12	B-13	B-14	B-15	B-16	

1.0000e+01	1.0000e+01	1.0000e+01	1.4400e+00	1.0000e+01	1.0000e+01	1.5100e+00	1.9400e+00	1.0000e+01	1.0000e+01	1.9900e+00	2.4900e+00	2.4100e+00	2.9000e+00	1.0000e+01	2.9800e+00	




#DATA BEGINS
time	group	step	mark	flag	A-AC1	A-AC2	A-AC3	A-AC4	A-AC5	A-AC6	A-AC7	A-AC8	A-AC9	A-AC10	A-AC11	A-AC12	A-AC13	A-AC14	A-AC15	A-AC16	A-DC1	A-DC2	A-DC3	A-DC4	A-DC5	A-DC6	A-DC7	A-DC8	A-DC9	A-DC10	A-DC11	A-DC12	A-DC13	A-DC14	A-DC15	A-DC16	A-Ph1	A-Ph2	A-Ph3	A-Ph4	A-Ph5	A-Ph6	A-Ph7	A-Ph8	A-Ph9	A-Ph10	A-Ph11	A-Ph12	A-Ph13	A-Ph14	A-Ph15	A-Ph16	B-AC1	B-AC2	B-AC3	B-AC4	B-AC5	B-AC6	B-AC7	B-AC8	B-AC9	B-AC10	B-AC11	B-AC12	B-AC13	B-AC14	B-AC15	B-AC16	B-DC1	B-DC2	B-DC3	B-DC4	B-DC5	B-DC6	B-DC7	B-DC8	B-DC9	B-DC10	B-DC11	B-DC12	B-DC13	B-DC14	B-DC15	B-DC16	B-Ph1	B-Ph2	B-Ph3	B-Ph4	B-Ph5	B-Ph6	B-Ph7	B-Ph8	B-Ph9	B-Ph10	B-Ph11	B-Ph12	B-Ph13	B-Ph14	B-Ph15	B-Ph16	aux-1	digaux	

3393.699	1	1	0	256	0.13052	0.25352	0.19561	0.17788	0.10921	0.30336	0.15808	0.15595	0.2658	0.30496	0.22413	0.22092	0.28326	0.14676	0.21777	0.03783	-0.71458	-0.33333	-0.575	-1.1125	-0.12708	-0.82292	-0.9	-0.15625	-1	-0.43958	-0.48125	-1.0562	-0.23958	-0.80833	-0.91667	-0.32708	256.532	173.117	-56.214	268.204	262.385	180.937	228.242	-8.110	281.899	-37.531	237.423	160.765	215.139	262.215	171.869	139.766	0.00031887	0.0007626	0.00010187	686.02	1.829e-05	6.1275e-06	538.34	208.94	1.1613e-05	5.3289e-06	171.13	45.766	59.489	18.174	2.605e-06	15.352	0.0017295	0.0017763	0.00049438	736.64	1.9451e-05	1.957e-05	600.74	224.06	1.9707e-05	1.9676e-05	207.53	58.075	70.073	22.158	1.9972e-05	21.415	118.498	108.469	136.973	-48.728	232.729	296.984	-50.451	-44.016	-61.440	202.768	-45.912	-42.501	-40.160	-35.391	250.800	-39.387	-8191	255	
3393.794	1	1	0	0	0.26249	0.11855	0.28126	0.17784	0.1924	0.2638	0.25694	0.2509	0.17193	0.19618	0.055355	0.47741	0.2252	0.32373	0.22333	0.17568	-0.74167	-0.38125	-0.32708	-0.97917	-0.14167	-0.64583	-1.0917	-0.25208	-0.84792	-0.58542	-0.09375	-1.0167	-0.53333	-0.45417	-1.1917	-0.26667	117.274	68.911	132.652	119.542	250.221	257.799	61.481	36.085	172.363	221.484	217.612	133.811	-3.292	13.610	-30.487	257.140	0.00089917	0.0016549	2.2549e-05	687.16	5.1442e-06	1.3448e-05	532.96	208.2	1.4014e-05	1.0172e-05	169.16	45.005	58.959	18.291	7.0423e-06	15.609	0.0017713	0.0018306	0.00051165	739.78	2.0109e-05	2.0229e-05	596.21	224.01	2.0088e-05	2.0279e-05	206.23	57.867	69.809	22.36	1.9899e-05	21.581	208.837	-17.368	225.172	-48.819	-12.014	72.003	-50.297	-43.644	290.218	191.664	-47.002	-42.622	-39.946	-35.500	249.529	-40.198	-8191	255	
3393.892	1	1	0	0	0.2362	0.09372	0.22129	0.13968	0.13494	0.22125	0.1168	0.27384	0.37918	0.13927	0.2032	0.07405	0.064734	0.12076	0.14171	0.30253	-0.70417	-0.65417	-0.13125	-1.2729	-0.37292	-0.52917	-0.98125	-0.25833	-0.81042	-0.7125	-0.26667	-1.0646	-0.46875	-0.51875	-0.95833	-0.16042	162.942	122.905	287.856	211.417	-13.945	181.563	-52.704	233.683	204.870	277.427	85.513	267.357	94.144	192.282	61.686	270.520	0.0002991	0.0012124	0.00025325	709.69	8.2318e-06	4.8569e-06	543.62	220.85	1.0207e-05	1.6252e-05	178.02	47.182	62.696	18.529	2.2611e-05	15.425	0.0017314	0.0017736	0.00049044	754.71	1.9119e-05	1.9031e-05	602.76	233.44	1.8793e-05	1.8938e-05	210.38	58.73	72.02	22.069	1.856e-05	20.89	103.863	-48.923	120.651	-48.663	206.425	208.379	-50.419	-44.424	125.891	109.560	-46.244	-43.188	-40.195	-35.908	151.631	-39.604	-8191	255	
3394.011	1	1	0	0	0.12012	0.28866	0.096574	0.14152	0.1481	0.018118	0.22367	0.07736	0.20273	0.13673	0.10177	0.269	0.16394	0.17208	0.20638	0.23454	-0.5375	-0.775	-0.3625	-1.1708	-0.325	-0.59167	-1.1646	-0.38333	-0.64792	-0.91458	-0.20833	-1.1396	-0.6	-0.18542	-1.1938	-0.27917	-46.866	42.290	262.293	116.815	128.909	182.604	279.466	99.101	-16.975	252.107	93.678	-1.846	236.059	243.053	236.302	291.491	0.00024099	0.00089523	0.00018253	710.91	1.2263e-05	1.3218e-05	539.16	218.09	8.2878e-06	8.8488e-06	173.67	45.383	62.112	18.288	1.1082e-05	14.896	0.0016366	0.001673	0.00046331	748.4	1.7855e-05	1.7739e-05	589.25	229	1.6979e-05	1.6944e-05	201.16	55.693	69.239	21.009	1.5496e-05	19.273	-26.271	275.394	128.633	-48.647	-17.295	239.569	-50.327	-44.432	57.752	127.246	-46.972	-42.910	-40.116	-35.911	98.683	-40.232	-8191	255	
3394.107	1	1	0	0	0.20841	0.045371	0.20129	0.39626	0.10556	0.18666	0.25745	0.34994	0.11383	0.1902	0.22659	0.040384	0.2241	0.17109	0.15646	0.41673	-0.25833	-0.93125	0.0020833	-1.0146	-0.59792	-0.34583	-1.0562	-0.18958	-0.65208	-1.0354	-0.05625	-0.94583	-0.65833	-0.35	-1.2542	-0.32292	13.454	281.290	271.815	258.542	263.477	86.014	-35.796	283.277	174.174	227.410	295.352	66.111	-28.078	292.258	-21.205	293.087	7.8494e-05	0.0010119	9.656e-05	703.05	1.0353e-05	5.2288e-06	530.73	214.21	2.6123e-05	4.3035e-06	172.7	44.596	60.776	17.869	1.0429e-05	14.685	0.0013239	0.0013436	0.00036759	719.97	1.3843e-05	1.3664e-05	559.56	219.91	1.2856e-05	1.2776e-05	188.8	51.134	64.925	19.687	1.1176e-05	17.473	184.631	192.878	43.681	-48.926	0.288	260.635	-50.796	-44.477	47.527	156.188	-46.992	-42.922	-40.370	-36.039	19.577	-39.917	-8191	255	
3394.178	1	1	0	0	0.33911	0.22548	0.1005	0.12622	0.094509	0.28017	0.22704	0.19734	0.20832	0.18325	0.33126	0.066696	0.13236	0.015221	0.18646	0.21079	-0.20625	-0.95417	-0.089583	-0.81042	-0.74583	-0.13542	-1.0875	-0.39583	-0.52917	-1.3062	-0.11875	-0.72708	-0.93333	-0.20208	-1.1229	-0.67708	286.034	119.752	-29.782	263.671	170.827	226.020	50.086	286.886	-4.481	142.329	-39.107	205.973	250.396	33.526	57.387	-0.079	0.00030395	0.0004477	8.7647e-05	675.78	8.0134e-06	1.0488e-05	515.63	197.72	9.8511e-06	9.9572e-06	160.29	42.855	55.952	16.931	5.2545e-06	14.805	0.00092329	0.00092169	0.00025073	672.05	9.4161e-06	9.3324e-06	523.36	197.8	8.5644e-06	8.4065e-06	167.4	45.919	57.099	17.708	7.2417e-06	16.247	51.718	44.225	51.989	-48.743	281.537	165.835	-50.484	-44.181	-24.550	141.022	-46.850	-42.764	-39.947	-36.245	80.772	-39.533	-8191	255	
3394.299	1	1	0	0	0.12905	0.31491	0.21529	0.21082	0.16602	0.27637	0.19077	0.29114	0.014406	0.39295	0.12228	0.26618	0.050126	0.04498	0.070712	0.15971	-0.12708	-0.92708	-0.14792	-0.95208	-0.91875	-0.083333	-1.0646	-0.62292	-0.49167	-1.1208	-0.29375	-0.74792	-1.0625	-0.11875	-1.0021	-0.65208	261.962	64.859	287.685	-47.087	239.236	-20.754	190.920	216.988	31.379	241.814	260.056	-56.496	79.074	271.955	159.492	255.772	0.00017324	0.00062819	4.8451e-05	662.35	5.385e-06	5.1985e-06	511.94	193.03	5.7178e-07	7.9461e-06	157.15	41.332	53.399	16.132	3.3662e-06	14.476	0.00064005	0.00065038	0.00018225	646.39	7.0843e-06	7.0505e-06	508.92	189.49	7.035e-06	7.0258e-06	161.81	44.075	54.209	16.748	6.9011e-06	15.887	254.326	11.178	144.193	-49.146	169.202	139.060	-50.453	-44.307	131.507	241.673	-47.117	-43.086	-39.741	-35.685	152.918	-40.304	-8191	255	
3394.395	1	1	0	0	0.12886	0.124	0.25444	0.15504	0.37683	0.014592	0.27241	0.048855	0.061418	0.19999	0.37191	0.097417	0.0739	0.23873	0.21166	0.48698	0.26042	-0.95625	-0.31042	-0.80625	-0.95417	-0.27708	-1.0167	-0.71875	-0.34375	-1.0583	-0.25417	-0.53125	-0.98542	-0.041667	-0.71667	-0.71042	-14.500	273.155	1.211	254.913	5.132	-49.644	190.275	195.021	195.904	-54.161	163.479	208.112	189.257	25.351	-52.852	101.228	0.00038619	0.00024763	0.00019329	651.45	4.4305e-06	4.5675e-06	506.46	187.63	9.6779e-06	1.1111e-05	154.26	41.5	52.098	16.072	5.0938e-06	15.023	0.00062494	0.00063852	0.00017786	637.7	7.0588e-06	7.015e-06	505.63	184.87	7.0209e-06	7.0991e-06	159.11	43.905	53.264	16.709	7.1707e-06	16.357	4.420	67.810	93.795	-48.987	38.254	27.103	-50.086	-44.327	-33.785	250.974	-46.821	-42.818	-39.954	-35.833	48.026	-39.303	-8191	255	
3394.491	1	1	0	0	0.10777	0.082893	0.032277	0.12544	0.23171	0.10558	0.055762	0.18887	0.18642	0.027665	0.11879	0.18075	0.25362	0.17479	0.06828	0.11444	0.19375	-1.2042	-0.35	-0.525	-1.1562	-0.32292	-0.84167	-0.8375	-0.2625	-0.99792	-0.47292	-0.36042	-1.2854	-0.22292	-0.5875	-0.87083	145.281	276.969	-4.867	152.410	292.475	248.571	276.825	-9.110	2.441	146.103	161.949	209.059	7.399	-1.016	101.486	280.564	0.00049765	0.00066637	0.00011974	640.8	7.1567e-06	2.5094e-06	495.82	183.11	8.0339e-07	2.556e-06	151.9	40.716	51.916	15.929	5.9542e-06	15.42	0.00064704	0.00066221	0.00018688	630.19	7.3771e-06	7.4642e-06	497.69	182.07	7.4133e-06	7.5328e-06	157.55	43.783	53.31	16.79	7.4987e-06	16.94	221.332	241.001	287.277	-48.676	35.120	24.626	-51.000	-43.922	158.285	160.299	-47.213	-42.957	-39.932	-36.454	138.245	-39.848	-8191	255	
3394.588	1	1	0	0	0.11964	0.22499	0.31436	0.14798	0.054178	0.33681	0.0284	0.18384	0.10033	0.046128	0.19336	0.22953	0.19443	0.1746	0.19703	0.13467	0.18333	-0.87708	-0.4875	-0.34583	-1.1271	-0.39167	-0.86458	-0.76875	-0.089583	-0.95417	-0.62083	-0.41667	-1.15	-0.28542	-0.70833	-1.2479	16.233	91.256	90.150	52.294	101.396	21.148	98.610	191.674	229.845	11.783	291.306	168.636	-6.113	285.204	-27.145	95.025	0.00056755	0.00025661	4.4689e-05	645.53	4.425e-06	3.9646e-06	503.03	187.82	4.6332e-06	7.921e-06	153.18	43.126	53.025	16.728	3.274e-06	16.562	0.00067339	0.00069746	0.00019281	633.06	7.6755e-06	7.6526e-06	502.51	185.57	7.7912e-06	7.9419e-06	159.95	45.736	54.688	17.671	8.1222e-06	18.233	-37.545	84.489	237.310	-48.934	142.738	269.361	-50.115	-44.238	115.629	-36.131	-46.520	-42.773	-39.673	-36.184	210.855	-39.998	-8191	255	
3394.706	1	1	0	0	0.31798	0.22127	0.21257	0.29097	0.21198	0.17267	0.12671	0.26624	0.16173	0.18245	0.25648	0.1062	0.20817	0.2208	0.21354	0.18411	0.24167	-0.85625	-0.725	-0.36875	-1.0396	-0.36667	-0.69792	-1.0521	-0.28333	-0.97292	-0.70208	-0.26458	-1.0771	-0.31042	-0.57083	-1.1667	248.018	-23.596	-3.226	41.830	168.558	267.324	180.010	284.650	112.852	290.878	-31.919	198.919	177.262	246.049	44.283	158.162	0.00064926	0.00044262	0.00022436	637.91	8.5391e-06	6.0029e-06	501.3	188.62	5.1879e-06	7.9229e-06	154.14	44.197	53.81	17.352	1.1367e-05	17.044	0.00071751	0.00073981	0.00020824	635.17	8.226e-06	8.3288e-06	506.05	187.69	8.686e-06	8.7486e-06	163.45	47.729	56.274	18.383	9.2884e-06	19.181	-30.434	149.487	9.513	-48.773	-19.027	12.439	-50.342	-43.922	231.926	1.693	-47.166	-42.538	-39.502	-35.751	141.633	-39.756	-8191	255	
3394.803	1	1	0	0	0.1319	0.096663	0.04362	0.060001	0.31517	0.10267	0.42054	0.31142	0.45163	0.14726	0.084313	0.19934	0.17221	0.0079191	0.18806	0.16566	0.11042	-0.62917	-0.88958	-0.27708	-1.0833	-0.46875	-0.47083	-1.2208	-0.21458	-0.65208	-1.1604	-0.13125	-1.0292	-0.69167	-0.25208	-1.0417	163.180	101.563	259.934	-33.396	25.644	85.137	204.383	192.676	-48.645	72.328	146.903	-8.969	-10.062	34.440	-0.160	99.609	0.00059129	0.0004268	0.00016106	641.76	5.2554e-06	5.0367e-06	502.51	190.86	1.0384e-05	3.7857e-06	157.2	45.278	55.433	17.914	5.7618e-06	17.962	0.00084285	0.00087061	0.0002436	643.54	9.651e-06	9.717e-06	515.74	192.73	9.9699e-06	1.0036e-05	169.36	49.969	58.579	19.255	1.0196e-05	20.172	-18.167	-8.782	74.736	-48.517	76.837	191.753	-50.145	-43.847	248.167	5.742	-46.764	-42.652	-39.128	-35.593	239.175	-39.398	-8191	255	
3394.874	1	1	0	0	0.26912	0.14199	0.10778	0.18322	0.051597	0.20977	0.069541	0.13661	0.19423	0.22898	0.33536	0.28886	0.15214	0.31947	0.35738	0.23711	0.05625	-0.575	-0.92292	-0.31667	-1.0021	-0.66875	-0.30625	-1.2042	-0.18958	-0.65625	-0.97917	-0.12917	-0.97708	-0.82292	-0.1875	-0.93542	64.516	74.434	66.385	-36.406	-57.878	156.359	36.896	-24.263	129.202	219.101	255.904	-42.780	26.979	168.220	117.065	253.817	9.0333e-05	0.00066844	0.000253	652.58	1.0918e-05	9.5426e-06	508.5	194.43	8.0178e-06	1.2416e-05	158.25	44.806	55.977	18.125	6.4494e-06	17.671	0.00090821	0.00093135	0.00025871	653.84	1.0004e-05	1.0127e-05	519.57	195.55	9.9265e-06	9.9328e-06	169.57	49.464	58.884	19.442	9.7773e-06	19.813	269.113	29.624	178.939	-48.585	124.619	247.820	-50.256	-43.707	151.873	61.949	-46.392	-42.513	-40.079	-35.963	99.907	-39.201	-8191	255	
3394.972	1	1	0	0	0.12068	0.36831	0.32204	0.26504	0.17497	0.18622	0.080282	0.26234	0.17495	0.21872	0.14099	0.33907	0.09001	0.23314	0.17739	0.094029	-0.13958	-0.35625	-1.1583	-0.31458	-0.80208	-0.75	-0.21458	-1.2437	-0.35	-0.35625	-1.1104	-0.29583	-0.79167	-0.87083	-0.0083333	-1.0375	-23.698	27.855	297.673	226.254	167.695	247.151	289.294	8.654	55.855	103.900	-44.706	231.593	35.071	185.396	257.628	-61.137	8.3056e-05	0.00035964	0.00010913	650.72	6.573e-06	3.8738e-06	508.51	195.74	3.2637e-06	9.1087e-06	159.05	45.199	56.407	18.392	5.9714e-06	18.155	0.00087433	0.00089626	0.00024683	651.24	9.4978e-06	9.4652e-06	514.83	195.25	9.4195e-06	9.4599e-06	169.75	49.471	59.098	19.482	9.5253e-06	20.074	179.429	-12.347	193.553	-48.584	211.157	66.835	-50.266	-43.880	-27.908	64.171	-46.442	-42.261	-39.104	-35.870	196.372	-39.537	-8191	255	
3395.091	1	1	0	0	0.19748	0.13509	0.054333	0.064388	0.13086	0.081797	0.20257	0.26324	0.46759	0.12443	0.052795	0.29849	0.31624	0.5032	0.23461	0.14758	-0.32083	-0.35625	-1.1417	-0.29167	-0.78333	-1.0083	-0.15	-1.2771	-0.575	-0.38958	-1.0833	-0.19583	-0.74167	-0.94583	-0.19792	-0.97083	286.043	231.940	261.630	52.601	221.926	77.144	297.552	245.144	-60.209	209.999	288.734	-51.906	-11.386	-61.137	-30.470	-58.629	0.00024745	0.00063733	0.00017536	652.57	5.8312e-06	3.1942e-06	506.2	196.63	5.858e-06	4.5075e-06	161.4	46.472	57.261	18.666	3.3129e-06	18.509	0.00085375	0.00087862	0.00024327	652.64	9.7298e-06	9.6578e-06	517.55	196.93	9.7362e-06	9.7614e-06	172.06	50.521	59.87	19.843	9.8234e-06	20.585	271.711	101.140	173.278	-48.429	28.667	191.218	-50.726	-43.998	34.956	117.201	-47.683	-42.883	-39.423	-36.058	144.750	-39.979	-8191	255	
3395.187	1	1	0	0	0.11913	0.21521	0.11335	0.16823	0.18424	0.093882	0.16453	0.19396	0.21032	0.063488	0.30365	0.090395	0.15074	0.058218	0.15197	0.040075	-0.38542	-0.2375	-1.0583	-0.41042	-0.4875	-0.97083	-0.29375	-1.0458	-0.64792	-0.18958	-1.0917	-0.22917	-0.52708	-0.85833	-0.34792	-0.70625	221.919	279.791	52.954	135.169	254.977	198.052	261.038	13.859	154.966	144.553	-47.633	-6.188	160.188	153.525	108.034	106.723	0.00030349	0.00079785	0.00025865	660.47	8.6083e-06	3.9636e-06	515.78	200.46	7.4172e-06	2.1977e-06	164.61	47.664	58.405	19.036	2.6418e-06	19.115	0.00086717	0.00089246	0.0002486	658.37	9.7955e-06	9.8379e-06	525.74	201.39	9.8877e-06	9.9699e-06	176.47	51.934	61.031	20.195	9.9772e-06	21.086	2.582	67.191	61.719	-48.858	293.376	66.164	-50.600	-44.085	34.666	51.404	-46.683	-43.152	-40.003	-35.766	-41.255	-40.013	-8191	255	
3395.283	1	1	0	0	0.14556	0.28678	0.32171	0.20516	0.14552	0.15997	0.19644	0.044539	0.10074	0.29728	0.3513	0.20058	0.10425	0.1875	0.32566	0.089412	-0.34167	-0.045833	-1.0333	-0.53333	-0.37708	-1.1896	-0.30833	-0.87083	-0.82083	-0.31042	-0.98125	-0.45208	-0.27708	-1.0604	-0.30833	-0.62708	203.938	281.009	155.960	161.344	61.449	-28.132	-48.360	63.901	295.591	110.719	-50.510	-50.066	-36.978	145.950	-24.155	-20.005	0.00024968	0.00089396	0.00017342	659.31	8.9834e-06	1.0795e-05	518.29	203.68	6.8909e-06	2.9842e-06	166.24	48.819	58.69	19.13	3.1413e-06	19.329	0.00088869	0.0009135	0.00025339	660.03	9.8302e-06	9.9134e-06	528.84	203.73	9.8123e-06	9.8307e-06	178	52.962	61.556	20.355	9.6976e-06	21.215	30.093	-42.453	144.257	-48.854	88.022	28.303	-51.207	-44.081	13.282	-56.963	-47.261	-42.626	-39.465	-35.772	158.415	-38.984	-8191	255	
3395.404	1	1	0	0	0.07314	0.42699	0.20011	0.1975	0.098334	0.19782	0.24528	0.2078	0.2114	0.21269	0.28779	0.13665	0.021579	0.29211	0.25533	0.1719	-0.45	-0.047917	-0.8625	-0.64167	-0.32083	-1.0354	-0.21458	-0.80625	-1.075	-0.10417	-0.85417	-0.67708	-0.35208	-1.1938	-0.30625	-0.54167	102.661	58.662	272.274	280.758	274.982	238.043	-24.032	294.925	25.354	95.440	284.471	32.436	83.002	268.541	-45.171	30.011	0.00034113	0.00037382	0.0002566	659.08	8.0446e-06	2.2097e-06	514.47	204.49	5.8808e-06	1.1195e-05	168.33	49.063	59.906	19.548	9.8075e-06	19.812	0.00086227	0.00088721	0.0002474	659.25	9.5503e-06	9.652e-06	524.23	204.55	9.5602e-06	9.5986e-06	178.65	53.15	62.367	20.59	9.4966e-06	21.626	126.189	-11.243	233.689	-48.882	148.853	144.975	-50.423	-43.697	160.755	107.637	-46.462	-42.737	-39.752	-36.098	-18.641	-39.338	-8191	255	
3395.476	1	1	0	0	0.2072	0.22801	0.17024	0.066488	0.21737	0.15049	0.056929	0.25985	0.29629	0.038899	0.12484	0.39268	0.37139	0.62071	0.11679	0.30056	-0.58958	-0.08125	-0.975	-0.80208	-0.17708	-1.2208	-0.54583	-0.67292	-1.0917	-0.36667	-0.83958	-0.81875	-0.2375	-1.1125	-0.34375	-0.33333	-45.254	25.695	-31.348	75.252	52.143	114.679	-39.075	30.700	135.645	91.828	30.950	-2.232	275.220	285.768	225.760	43.999	0.00022994	0.00081528	0.00016126	663.76	5.2676e-06	1.1584e-05	521.86	208.38	1.6097e-05	5.5612e-06	171.5	51.247	61.038	19.629	4.4353e-06	19.824	0.00083759	0.00085685	0.00024006	661.36	9.5045e-06	9.444e-06	529.2	207.19	9.3509e-06	9.4127e-06	181.54	54.702	63.23	20.762	9.4013e-06	21.886	-26.306	27.702	102.248	-48.974	60.724	-33.344	-50.562	-44.133	283.267	-49.528	-46.420	-42.862	-39.148	-35.778	102.508	-39.645	-8191	255	
3395.572	1	1	0	0	0.056336	0.28427	0.02779	0.1677	0.040556	0.17335	0.34314	0.094627	0.18342	0.21943	0.11002	0.148	0.14619	0.20659	0.10209	0.22043	-0.66458	-0.077083	-0.75208	-0.86458	-0.010417	-1.0271	-0.53333	-0.32292	-1.0562	-0.24792	-0.72708	-0.9	-0.064583	-0.96042	-0.67292	-0.14167	245.609	-39.981	-54.427	-43.520	-2.818	64.868	109.747	9.861	92.476	227.065	49.868	101.248	18.862	37.672	3.892	185.018	0.00019527	0.00058917	0.00026569	662.15	1.4586e-05	2.1275e-06	523.88	209.71	4.44e-06	9.593e-06	173.05	51.067	60.829	19.913	1.2232e-06	20.361	0.00083719	0.00085246	0.00023929	662.44	9.3266e-06	9.437e-06	533.3	208.75	9.357e-06	9.4289e-06	182.4	55.194	63.298	20.891	9.4366e-06	22.135	271.385	-14.616	-28.368	-48.768	121.606	109.130	-50.120	-43.623	-57.983	49.679	-46.644	-43.052	-39.792	-35.798	56.080	-39.474	-8191	255	
3395.692	1	1	0	0	0.33081	0.14724	0.081677	0.28631	0.28659	0.060954	0.40417	0.46898	0.2492	0.24671	0.22412	0.22821	0.14375	0.21731	0.14611	0.12973	-0.77292	-0.46667	-0.68333	-1.1	-0.2625	-0.95833	-0.83333	-0.39583	-1.1646	-0.42292	-0.60208	-0.97917	-0.025	-0.80417	-0.84167	-0.19792	258.145	241.166	21.884	-24.083	144.056	-42.086	227.736	270.375	56.610	110.915	246.686	-10.581	-50.725	129.601	119.454	-39.995	0.00025657	0.00018864	5.2175e-05	665.44	4.7019e-06	5.7907e-06	530.99	209.47	9.5223e-06	1.9563e-06	171.21	51.487	60.942	19.959	1.7502e-05	20.388	0.00083974	0.00085455	0.00024141	664.96	9.3984e-06	9.3975e-06	535.33	208.26	9.4355e-06	9.5408e-06	182.71	55.432	63.422	20.939	9.3051e-06	22	-45.123	293.895	268.052	-48.495	294.378	73.300	-50.261	-43.728	60.388	281.225	-46.225	-42.959	-40.003	-35.674	123.618	-39.395	-8191	255	
3395.787	1	1	0	0	0.24925	0.28317	0.062317	0.25925	0.15666	0.13115	0.1028	0.15222	0.24598	0.10127	0.27258	0.1109	0.14592	0.28796	0.24998	0.01429	-0.4375	-0.41042	-0.19375	-1.0833	-0.15	-0.78125	-0.70208	-0.25	-0.9625	-0.55833	-0.32708	-1.1271	-0.13125	-0.68958	-0.91667	0.0020833	32.639	286.377	52.900	249.416	156.454	0.524	198.756	60.086	-38.060	119.080	-28.667	-10.884	-5.745	274.507	104.874	156.729	0.00060127	0.00051603	6.2949e-05	661.85	2.1211e-06	5.3349e-06	515.56	205.3	9.1884e-06	2.3652e-06	170.29	48.951	59.468	19.372	4.0702e-06	19.453	0.00083263	0.00085245	0.00023817	659.86	9.3601e-06	9.2843e-06	524.18	205.23	9.2294e-06	9.2874e-06	178.34	52.738	61.734	20.449	9.1886e-06	21.214	69.008	-11.047	178.470	-48.324	115.771	123.036	-50.518	-43.433	89.999	222.124	-46.516	-43.032	-40.002	-35.250	-57.695	-39.289	-8191	255	
3395.883	1	1	0	0	0.11102	0.32484	0.1251	0.26834	0.20316	0.1238	0.074454	0.038889	0.12812	0.10126	0.13202	0.25303	0.15698	0.46366	0.18015	0.14691	-0.69583	-0.72917	-0.21667	-1.0812	-0.30625	-0.63958	-0.71042	-0.24167	-1.05	-0.62917	-0.20417	-1.0708	-0.22083	-0.71875	-0.99583	-0.039583	191.247	-41.128	106.520	194.883	20.173	266.177	21.272	-56.805	-22.333	69.975	173.381	297.877	20.823	216.602	-37.351	87.223	0.00013795	0.00074965	0.00010609	658.34	1.3441e-05	6.5269e-06	509	202.36	9.0008e-06	6.3718e-06	166.97	48.373	58.662	19.316	1.0518e-05	19.268	0.00081778	0.00084098	0.00023405	653.72	9.185e-06	9.227e-06	519.63	202.42	9.3495e-06	9.3291e-06	176.52	52.131	61.119	20.332	9.481e-06	21.159	221.052	-53.609	235.636	-48.815	84.493	1.380	-50.493	-43.814	-13.835	51.396	-46.412	-43.296	-39.704	-35.496	50.302	-39.337	-8191	255	
3396.004	1	1	0	0	0.16323	0.17406	0.072212	0.19523	0.13554	0.10059	0.12566	0.2283	0.32372	0.307	0.34523	0.24799	0.073544	0.15727	0.16876	0.16703	-0.68333	-0.78542	-0.17708	-1.2729	-0.27917	-0.52708	-1.0375	-0.19375	-0.85625	-0.8875	-0.25625	-1.0229	-0.35	-0.43125	-1.275	-0.43333	72.072	41.261	-0.279	-38.612	-29.073	116.921	66.035	-33.228	195.641	-50.164	237.808	169.816	-56.719	190.134	15.281	238.012	0.00016354	0.00057164	0.00013301	654.18	1.1092e-05	2.0363e-06	509.94	200.46	1.7247e-05	6.6969e-06	165.36	48.126	57.607	19.052	1.1836e-05	18.972	0.00084681	0.0008721	0.0002434	652.92	9.6303e-06	9.6354e-06	520.3	200.89	9.7283e-06	9.7427e-06	175.63	52.37	60.531	20.158	9.8198e-06	21.09	274.108	-53.939	19.712	-48.652	164.035	259.549	-50.273	-43.820	109.127	90.328	-46.141	-42.520	-39.429	-35.439	130.200	-38.777	-8191	255	
3396.075	1	1	0	0	0.3184	0.0638	0.26211	0.018409	0.11592	0.15936	0.051942	0.099042	0.17331	0.081673	0.095438	0.16059	0.15045	0.28563	0.18222	0.1647	-0.60833	-0.76458	-0.022917	-1.0146	-0.38958	-0.5	-1.0333	-0.35417	-0.70833	-0.77708	-0.18333	-1.0792	-0.56042	-0.28333	-1.1708	-0.43958	73.784	296.005	58.377	199.817	11.104	183.382	153.551	96.555	196.680	138.177	96.182	2.355	-29.187	15.201	292.777	208.055	0.00042586	0.0005211	0.00027702	652.71	1.0759e-05	7.5674e-06	505.16	198.85	8.7247e-06	4.5456e-06	162.36	47.752	57.332	18.747	2.0806e-06	18.85	0.00088043	0.00089653	0.00025104	652.58	9.8775e-06	9.9476e-06	519.35	199.92	9.9631e-06	1.0028e-05	175.03	52.23	60.431	20.039	1.0011e-05	21.087	22.389	-28.256	-3.108	-48.562	213.745	172.975	-49.893	-43.965	-2.774	202.115	-46.781	-42.196	-39.545	-35.133	52.470	-39.173	-8191	255	
3396.171	1	1	0	0	0.23059	0.29945	0.23853	0.30223	0.23014	0.16993	0.16493	0.097636	0.048887	0.17341	0.21588	0.066335	0.11285	0.18065	0.19078	0.36807	-0.35208	-0.98333	-0.064583	-1.125	-0.55	-0.12917	-0.99375	-0.31875	-0.7875	-1.0521	-0.17708	-0.98542	-0.72083	-0.31667	-1.0917	-0.38125	164.121	191.939	85.912	294.661	79.565	24.845	131.386	263.673	281.799	13.416	-52.856	-41.480	-55.081	185.142	155.449	295.860	0.00043838	0.00044946	0.00036181	652.11	7.5414e-06	6.0187e-06	503.77	198.65	1.6679e-05	1.3891e-06	160.08	45.955	56.33	18.459	9.3129e-06	18.43	0.00089424	0.00091196	0.0002529	650.04	9.9328e-06	1.0044e-05	516.53	198.51	9.849e-06	9.8643e-06	172.7	50.499	59.414	19.67	9.7782e-06	20.382	120.661	-50.600	-51.037	-48.518	121.642	279.471	-50.250	-43.712	231.466	236.374	-46.475	-42.513	-39.548	-35.435	-10.745	-38.997	-8191	255	
3396.268	1	1	0	0	0.18023	0.13546	0.281	0.21017	0.14509	0.1129	0.017313	0.18592	0.098387	0.10202	0.095619	0.10097	0.14058	0.12151	0.10825	0.12062	-0.17292	-1.0271	-0.20625	-0.96458	-0.56458	-0.31458	-1.1667	-0.43333	-0.49375	-0.94583	-0.175	-0.81042	-0.68958	-0.24167	-1.1042	-0.50625	-20.751	196.677	45.687	220.112	17.647	15.035	290.611	120.471	159.220	135.899	214.713	100.902	-37.062	-5.382	277.821	196.205	0.00022678	0.00063873	0.00019932	641.37	2.5039e-06	2.4091e-06	494.94	194.98	1.0168e-05	1.9416e-06	158.35	45.847	55.686	18.25	1.1007e-05	18.192	0.00087667	0.00089555	0.00025041	644.88	9.7728e-06	9.7949e-06	508.82	196.32	9.6174e-06	9.7588e-06	170.63	49.979	58.934	19.501	9.5898e-06	20.26	8.311	33.065	248.135	-48.263	274.245	206.613	-50.223	-43.571	11.062	264.895	-46.561	-41.550	-39.560	-35.368	72.164	-39.041	-8191	255	
3396.388	1	1	0	0	0.13605	0.11093	0.37136	0.1412	0.14608	0.12932	0.15799	0.2131	0.28985	0.3451	0.24123	0.076032	0.10927	0.026579	0.064654	0.085693	0.089583	-1.0896	-0.11875	-0.70208	-0.93958	-0.1	-1.0125	-0.56875	-0.37292	-0.92708	-0.32917	-0.65625	-0.78333	0.058333	-0.83958	-0.69375	255.493	-22.531	-55.633	113.941	13.635	-33.191	233.438	113.189	93.608	176.294	127.674	140.324	101.723	0.210	133.752	269.827	0.00019282	0.00069195	0.00015122	644.38	2.6566e-06	8.0944e-06	499.27	194.6	1.2965e-05	9.7007e-06	158.35	45.702	55.598	18.34	8.8504e-06	18.202	0.00087287	0.00089742	0.0002486	645.82	9.7249e-06	9.6937e-06	509.87	195.89	9.7663e-06	9.6724e-06	170.42	50.152	58.861	19.582	9.6492e-06	20.327	113.570	-57.779	25.236	-48.386	11.814	145.046	-50.543	-43.545	-41.649	-7.342	-46.309	-42.375	-39.334	-35.728	154.909	-39.246	-8191	255	
3396.484	1	1	0	0	0.11729	0.25693	0.17226	0.14593	0.16965	0.074164	0.13154	0.063055	0.023843	0.22551	0.063318	0.32476	0.20818	0.10667	0.09742	0.046432	0.10208	-1.05	-0.28333	-0.65625	-1.0604	-0.12917	-0.90625	-0.84583	-0.38333	-1.0375	-0.32083	-0.80417	-0.93333	-0.020833	-0.91875	-0.70417	-7.958	293.180	156.346	236.890	220.299	219.338	210.000	-30.059	223.121	157.910	84.660	239.291	-55.560	55.160	264.028	-17.164	0.00013956	0.00057176	0.00011713	646.81	5.1073e-06	6.4737e-06	501.75	195.67	9.5435e-07	4.9694e-06	160.72	46.495	56.382	18.464	6.3668e-06	18.811	0.00085823	0.00087614	0.00024269	646.52	9.5312e-06	9.5161e-06	513.06	196.42	9.5505e-06	9.5877e-06	170.99	50.575	59.094	19.671	9.5283e-06	20.55	66.718	278.732	40.646	-48.444	154.150	80.096	-49.995	-43.952	243.721	201.047	-46.072	-42.598	-39.294	-34.997	-41.508	-39.477	-8191	255	
3396.580	1	1	0	0	0.052516	0.16501	0.10923	0.1032	0.35558	0.18306	0.10885	0.26423	0.04491	0.16638	0.14352	0.21748	0.25299	0.11357	0.30719	0.20634	0.3	-1.0458	-0.30833	-0.25417	-0.89583	-0.11458	-0.85833	-0.8125	-0.16875	-1.1604	-0.42708	-0.43958	-1.2333	-0.25	-0.77292	-0.85417	20.462	181.924	153.013	222.797	-22.610	291.968	87.784	252.300	-35.921	3.555	-13.876	201.260	47.420	205.689	-52.778	265.396	0.00011222	0.00097735	9.2601e-05	654.23	4.535e-06	1.5226e-06	502.98	196.01	2.5994e-06	7.5187e-06	160.73	46.266	56.274	18.662	1.7348e-05	18.28	0.00084674	0.00087393	0.00024171	648.68	9.486e-06	9.62e-06	514.54	196.36	9.615e-06	9.6079e-06	171.9	50.814	59.242	19.78	9.4789e-06	20.272	105.189	46.550	215.851	-48.360	218.774	55.785	-49.774	-43.674	43.882	207.697	-46.231	-42.784	-39.474	-35.403	101.107	-39.319	-8191	255	
3396.677	1	1	0	0	0.17161	0.2828	0.19141	0.095936	0.28456	0.21649	0.089754	0.14283	0.2781	0.16995	0.29202	0.046041	0.11585	0.19857	0.16356	0.18894	0.04375	-1.2938	-0.33333	-0.44792	-1.1354	-0.33542	-0.78333	-0.98125	-0.25	-0.82083	-0.44583	-0.13542	-1.0417	-0.36667	-0.51875	-1.025	217.536	78.763	144.296	95.408	66.328	173.461	-12.781	293.898	47.274	-38.684	-14.924	260.456	263.985	26.346	157.345	65.629	0.00050572	0.00011783	0.00023551	647.63	8.5831e-06	8.936e-07	495.72	194.42	1.689e-05	1.1116e-06	159.74	45.648	55.985	18.317	1.8911e-05	18.112	0.00083792	0.00086077	0.00024239	646.52	9.3966e-06	9.439e-06	508.86	195.23	9.3606e-06	9.4507e-06	169.53	49.732	58.802	19.542	9.4265e-06	20.094	-1.180	262.168	54.531	-48.290	242.807	195.707	-50.094	-43.534	30.356	118.205	-46.683	-42.299	-38.989	-35.495	-22.381	-38.827	-8191	255	
3396.773	1	1	0	0	0.024579	0.14354	0.041576	0.25573	0.31881	0.30835	0.086084	0.1894	0.056359	0.16325	0.16736	0.29317	0.1131	0.24586	0.18167	0.13388	0.26875	-0.73125	-0.65208	-0.22292	-1.1208	-0.35625	-0.44583	-1.0854	-0.22292	-0.67708	-0.71875	-0.13125	-0.95833	-0.31667	-0.26875	-1.1792	-10.748	129.259	242.788	266.480	9.718	210.510	278.695	15.964	170.391	-54.997	95.571	294.552	136.668	258.287	120.015	212.056	0.00018071	0.00035336	5.9549e-05	642.61	1.0441e-06	8.1318e-06	496.84	197.55	1.3449e-05	6.8895e-06	161.08	46.296	56.643	18.797	1.0204e-05	18.626	0.00083831	0.00086443	0.00024163	645.26	9.4679e-06	9.5038e-06	511.07	197.55	9.3657e-06	9.4212e-06	171.27	50.493	59.53	19.78	9.2769e-06	20.564	-22.368	104.246	245.467	-48.568	246.948	181.101	-50.011	-43.454	161.995	159.302	-46.611	-42.300	-39.318	-35.384	-58.081	-39.055	-8191	255	
3396.867	1	1	0	0	0.21754	0.33793	0.1649	0.38087	0.053739	0.049267	0.18633	0.33243	0.18308	0.21676	0.17982	0.10648	0.15387	0.3005	0.17878	0.18009	0.175	-0.56042	-0.75833	-0.17083	-1.0729	-0.51667	-0.39375	-1.1542	-0.22292	-0.73125	-1.0042	-0.027083	-0.86667	-0.51667	-0.15625	-1.1417	34.884	225.074	162.495	-16.704	294.017	205.648	142.068	293.400	285.430	126.577	31.792	227.166	75.520	36.090	115.803	-5.457	0.00034709	0.00040949	0.00015928	648.56	1.5306e-07	8.438e-06	504.78	198.56	9.4296e-06	5.127e-06	162.8	47.195	57.031	18.756	4.816e-06	18.772	0.00083541	0.00085178	0.00023807	648.3	9.3266e-06	9.3001e-06	513.54	197.89	9.3218e-06	9.3559e-06	172.43	50.859	59.688	19.89	9.4341e-06	20.705	-36.178	88.088	281.819	-48.675	96.427	69.246	-49.945	-43.643	-10.001	185.574	-46.836	-42.897	-39.895	-36.213	177.463	-39.580	-8191	255	
3396.965	1	1	0	0	0.1162	0.32141	0.21261	0.13414	0.23749	0.058443	0.11362	0.31494	0.096337	0.13588	0.20975	0.037475	0.21565	0.24237	0.21932	0.18568	0.00625	-0.61042	-0.69375	-0.1875	-1.1104	-0.78542	-0.25625	-1.0479	-0.17917	-0.60417	-0.99583	-0.11875	-0.96042	-0.58542	-0.070833	-1.1042	212.169	105.903	168.288	-34.419	4.045	106.132	217.308	268.076	-26.994	197.781	116.586	117.931	239.029	274.475	156.470	185.015	0.00039254	0.00012846	0.00020692	650.97	4.016e-06	4.7462e-06	510.41	197.65	7.2837e-06	5.5264e-06	162.18	47.627	57.771	19.106	5.3938e-06	19.141	0.00083205	0.00085464	0.00023974	648.87	9.3399e-06	9.428e-06	518.32	198.51	9.3262e-06	9.4894e-06	174.01	51.626	60.251	20.151	9.4169e-06	20.997	22.971	208.220	-59.631	-49.005	29.995	228.330	-50.557	-43.799	14.242	80.033	-46.609	-42.782	-39.586	-35.354	102.621	-40.031	-8191	255	
3397.084	1	1	0	0	0.22712	0.12638	0.12513	0.27721	0.16793	0.23597	0.31277	0.12008	0.15806	0.10226	0.21153	0.29796	0.17164	0.068013	0.05779	0.044522	-0.04375	-0.33333	-1.0938	-0.24375	-0.75	-0.72708	-0.27917	-1.0438	-0.62708	-0.33333	-0.92708	-0.14583	-0.81042	-0.8	-0.085417	-1.2417	256.846	297.038	158.491	268.209	45.982	-27.467	259.081	263.722	-11.380	234.147	-44.081	-50.625	178.104	269.077	164.493	-25.527	9.9447e-05	0.00022476	0.00022566	650.94	8.0578e-06	4.2278e-06	502.99	198.06	1.3967e-05	3.2637e-06	162.54	46.174	57.148	18.747	1.7874e-06	18.571	0.00084336	0.000862	0.00024033	651.49	9.3859e-06	9.3798e-06	514.95	198.32	9.3026e-06	9.3812e-06	172.18	50.555	59.71	19.867	9.3929e-06	20.474	53.981	67.701	1.813	-48.610	74.350	278.983	-50.410	-43.929	-40.727	247.965	-46.191	-42.503	-40.184	-35.653	103.281	-39.261	-8191	255	
3397.180	1	1	0	0	0.18456	0.2069	0.15173	0.066512	0.23955	0.13128	0.24988	0.18993	0.22892	0.083857	0.28244	0.31511	0.13007	0.14294	0.18067	0.14295	-0.089583	-0.2625	-1.0833	-0.26042	-0.71667	-0.80208	-0.15625	-1	-0.65208	-0.49583	-1.1812	-0.34583	-0.8375	-0.98333	-0.14167	-1.1604	155.428	268.730	38.157	110.844	153.597	100.231	262.961	295.977	262.421	82.079	163.964	182.534	82.692	284.548	10.932	-60.239	0.00028064	0.00045583	0.0002064	648.1	3.5175e-06	5.8962e-06	500.15	197.65	1.4475e-06	1.0448e-06	161.37	46.765	57.141	18.944	8.9735e-06	18.629	0.0008337	0.00086305	0.00023852	646.49	9.2491e-06	9.4163e-06	509.93	197.4	9.392e-06	9.474e-06	171.62	50.717	59.571	19.925	9.3894e-06	20.577	222.810	90.651	288.498	-48.751	6.713	220.720	-50.378	-44.023	158.038	272.651	-46.564	-42.597	-39.796	-35.899	-5.200	-39.577	-8191	255	
3397.276	1	1	0	0	0.066954	0.13438	0.13519	0.1933	0.24035	0.15229	0.18408	0.15367	0.071856	0.18125	0.072848	0.069962	0.2521	0.012315	0.18832	0.24533	-0.2375	-0.24167	-1.1271	-0.33542	-0.70208	-1.1187	-0.20625	-0.95417	-0.72917	-0.2	-1.2021	-0.50625	-0.46667	-1.2062	-0.28125	-0.89375	23.075	-48.215	113.118	280.994	60.052	71.214	34.131	256.095	59.351	73.544	182.246	37.775	59.650	262.718	52.079	136.175	0.00040471	6.0222e-05	0.00018871	648.65	3.4937e-06	5.6083e-06	503.12	197.68	1.0077e-05	5.8238e-06	159.4	46.536	56.982	18.625	1.3144e-05	18.893	0.00083427	0.00085237	0.00023782	647.13	9.4082e-06	9.4271e-06	512.52	197.66	9.3607e-06	9.385e-06	172.07	50.614	59.703	19.875	9.4948e-06	20.719	-5.466	17.715	99.139	-48.885	150.598	13.689	-50.969	-43.909	287.311	214.549	-46.856	-42.913	-39.821	-35.640	90.941	-38.965	-8191	255	
3397.372	1	1	0	0	0.10901	0.30752	0.2434	0.14521	0.013348	0.10765	0.30231	0.078151	0.22039	0.11556	0.027967	0.1454	0.24389	0.15487	0.22427	0.17686	-0.5	-0.064583	-1.0042	-0.51875	-0.27083	-1.1604	-0.21875	-0.89167	-1.0521	-0.060417	-1.0979	-0.59792	-0.21667	-1.1562	-0.34375	-0.87708	123.016	10.562	-25.717	285.438	266.532	117.408	222.143	180.391	7.038	149.222	124.453	-50.360	-49.940	-23.737	214.330	239.900	0.00060883	0.00034189	0.00013808	646.63	1.273e-05	5.7198e-06	502.31	196.5	9.355e-06	5.0411e-06	160.69	46.985	57.176	18.699	1.8087e-05	19.025	0.00083806	0.00086592	0.00024247	647.29	9.519e-06	9.6037e-06	513.45	196.66	9.5571e-06	9.6314e-06	172.12	51.031	59.712	19.831	9.6316e-06	20.858	7.851	33.608	247.694	-48.998	31.663	185.901	-50.531	-43.901	228.176	86.935	-46.422	-42.946	-39.375	-35.695	187.040	-39.094	-8191	255	
3397.469	1	1	0	0	0.17425	0.27607	0.087105	0.19885	0.12807	0.05284	0.11591	0.22712	0.22858	0.059624	0.043633	0.18013	0.21597	0.16171	0.14346	0.19995	-0.46667	-0.035417	-0.95417	-0.6875	-0.14375	-1.0896	-0.0083333	-0.51667	-0.9125	-0.2625	-1.1479	-0.43125	-0.014583	-1.2333	-0.35	-0.57292	7.003	237.264	63.791	127.431	42.287	-5.532	53.463	1.043	226.501	59.712	1.170	56.237	186.932	11.768	1.204	-28.594	0.00056535	0.0010682	0.00021457	646.25	1.2609e-05	6.2941e-06	505.58	196.89	1.7987e-05	6.0366e-06	159.92	46.261	56.612	18.392	1.0507e-05	18.236	0.00085407	0.00088099	0.0002432	647.35	9.557e-06	9.5472e-06	514.32	197.08	9.5052e-06	9.4398e-06	171.24	50.345	59.119	19.613	9.3981e-06	20.182	-21.736	-2.556	259.516	-48.447	153.589	121.397	-51.122	-43.838	52.436	248.953	-46.362	-42.776	-39.645	-35.761	115.317	-39.458	-8191	255	
3397.565	1	1	0	0	0.21711	0.11412	0.067115	0.16152	0.08398	0.11307	0.12838	0.13547	0.19014	0.12839	0.038909	0.15608	0.11938	0.028311	0.25671	0.1978	-0.56458	-0.079167	-0.83542	-0.67917	-0.15625	-1.0812	-0.53542	-0.43333	-0.98333	-0.14583	-0.95	-1.0104	-0.033333	-0.96667	-0.34792	-0.19792	-41.267	247.157	291.203	181.024	-6.268	283.569	255.680	151.725	118.980	18.317	78.417	293.064	37.403	155.119	284.354	200.926	0.00053317	0.00065792	0.00020894	641.53	1.567e-06	6.5358e-06	495.96	194.19	7.1522e-06	1.311e-05	157.34	45.177	55.889	18.274	1.2207e-05	18.222	0.00084043	0.00086898	0.000241	642.73	9.5589e-06	9.5574e-06	506.57	195.02	9.4647e-06	9.5368e-06	169.47	49.306	58.553	19.495	9.5442e-06	20.153	-27.651	69.598	136.725	-48.866	-5.301	101.276	-50.479	-44.037	-36.385	76.963	-46.763	-43.033	-39.413	-35.230	56.881	-39.348	-8191	255	
3397.685	1	1	0	0	0.19324	0.28504	0.26538	0.11788	0.13651	0.14876	0.091494	0.22081	0.17681	0.27596	0.028877	0.32693	0.26899	0.095593	0.17184	0.28523	-0.825	-0.2125	-0.7375	-1.1375	0.010417	-1.0125	-0.47708	-0.41875	-1.1208	-0.32708	-0.86667	-0.94583	-0.14583	-1.0917	-0.58333	-0.31667	242.108	22.664	213.871	251.041	182.877	-16.115	283.381	-51.975	19.461	46.504	18.511	274.096	66.648	285.648	-16.916	-7.723	0.00016661	0.00018074	7.3075e-05	638.94	8.2716e-06	5.0909e-06	496.75	193.08	2.123e-05	4.4068e-06	159.06	45.114	55.699	18.156	1.0701e-05	18.309	0.0008578	0.00088406	0.00024398	641.4	9.644e-06	9.6597e-06	508.47	194.88	9.6562e-06	9.7814e-06	170.31	49.944	58.901	19.497	9.8169e-06	20.333	51.466	181.402	254.681	-49.049	164.916	-10.209	-50.456	-43.731	58.523	7.592	-46.504	-43.015	-39.634	-35.038	164.210	-39.425	-8191	255	
3397.781	1	1	0	0	0.11733	0.34007	0.19139	0.19014	0.15298	0.23794	0.18709	0.30106	0.20347	0.13138	0.12453	0.17073	0.07154	0.21698	0.2592	0.13555	-0.50208	-0.11875	-0.58542	-0.91667	-0.23958	-0.92917	-0.55	-0.3625	-1.0458	-0.49375	-0.55417	-1.1833	-0.41042	-1.0438	-0.85625	-0.14375	263.598	1.650	18.267	245.368	81.630	-3.260	-41.082	232.182	206.564	246.491	9.528	268.366	-32.026	-51.045	59.669	46.794	0.00028416	0.00075419	0.00020917	642.98	8.1136e-06	5.6545e-06	496.8	194.34	8.5811e-06	1.2541e-05	159.01	45.881	55.656	18.27	6.8885e-06	18.368	0.00087967	0.00090026	0.00025056	644.23	9.876e-06	9.9494e-06	509.85	195.83	9.8653e-06	9.9837e-06	171.26	50.454	58.908	19.647	9.9227e-06	20.621	-53.330	132.893	104.783	-48.769	233.931	41.274	-50.251	-43.822	294.476	32.843	-46.597	-42.857	-39.432	-35.648	-10.329	-39.177	-8191	255	
3397.876	1	1	0	0	0.17067	0.16959	0.064269	0.32695	0.20427	0.24171	0.032124	0.24835	0.2093	0.4157	0.1888	0.0642	0.17682	0.26601	0.29939	0.20476	-0.66667	-0.19792	-0.48958	-1.2917	-0.30625	-0.87917	-0.84583	-0.11458	-0.95417	-0.62708	-0.47083	-0.98542	-0.38958	-0.80625	-0.96042	-0.01875	52.261	-48.149	89.892	290.212	166.021	-57.841	269.382	232.131	166.970	208.877	125.191	270.511	3.293	260.636	106.443	79.058	0.00014438	0.00077949	9.3772e-05	645.49	1.426e-05	8.4234e-06	500.1	194.3	4.0896e-06	9.9453e-06	160.79	46.587	55.755	18.335	2.1499e-05	18.441	0.00088361	0.0009091	0.00025485	648.13	9.9947e-06	1.0078e-05	513.36	195.89	1.0073e-05	1.0057e-05	173.09	51.013	59.148	19.696	9.9252e-06	20.47	246.797	50.749	249.188	-48.712	137.195	231.673	-50.699	-43.562	27.525	276.597	-47.105	-42.138	-39.438	-35.039	87.484	-39.844	-8191	255	
3397.972	1	1	0	0	0.17844	0.061741	0.10928	0.078805	0.12928	0.18534	0.19686	0.33265	0.30697	0.20654	0.17019	0.21426	0.31514	0.058106	0.28122	0.07363	-0.55833	-0.5125	-0.21667	-0.91042	-0.28958	-0.72708	-0.6875	-0.25208	-0.97708	-0.61875	-0.38333	-1.2292	-0.25208	-0.43333	-0.98125	-0.060417	253.346	146.603	-18.671	270.698	96.137	19.189	291.376	264.323	235.782	80.291	60.423	44.195	-43.865	134.176	10.451	72.858	0.00065391	0.00029495	0.00030432	641.94	1.5328e-05	1.7769e-07	496.73	192.47	8.7905e-06	3.5742e-06	158.15	44.993	55.044	18.25	1.0778e-05	18.141	0.00087692	0.00090116	0.00025041	642.79	9.8543e-06	9.7582e-06	508.4	194.38	9.7587e-06	9.7967e-06	169.84	49.717	58.466	19.459	9.7987e-06	20.112	87.767	281.552	59.255	-48.595	195.701	95.648	-50.425	-43.398	246.313	-38.325	-46.585	-42.546	-39.472	-35.553	-43.069	-39.142	-8191	255	
3398.045	1	1	0	0	0.070628	0.27146	0.046465	0.24067	0.23761	0.14615	0.090547	0.095266	0.61481	0.45531	0.1332	0.21964	0.17865	0.30755	0.08364	0.39898	-0.41667	-0.5625	-0.25208	-1.0562	-0.47917	-0.525	-1.125	-0.37708	-0.92083	-0.66458	-0.15625	-1.0812	-0.43125	-0.43125	-0.91458	0.10625	98.119	182.213	85.457	270.703	198.760	277.845	22.032	250.127	278.262	261.733	87.850	15.758	92.815	-48.724	95.177	252.828	0.00026334	0.0009311	0.00017991	644.33	1.1159e-05	9.5854e-06	497.28	193.64	7.4391e-06	1.9884e-06	158.88	45.253	55.481	18.258	9.6572e-06	18.165	0.00087218	0.00090789	0.00024992	643.26	9.9046e-06	9.9525e-06	508.76	194.45	9.994e-06	9.955e-06	170.67	50.041	58.798	19.597	9.9536e-06	20.339	-47.711	64.447	126.845	-48.536	106.718	64.939	-50.492	-43.888	287.516	243.513	-46.678	-42.630	-39.483	-35.741	23.386	-39.726	-8191	255	
3398.164	1	1	0	0	0.10793	0.11075	0.18099	0.057417	0.11922	0.098952	0.10798	0.04273	0.17281	0.1723	0.053657	0.044296	0.17338	0.13321	0.16643	0.17244	-0.50417	-0.72708	0.08125	-1.3708	-0.575	-0.3375	-0.81875	-0.37708	-0.79583	-0.85208	-0.23125	-1.0354	-0.34583	-0.22292	-1.1	-0.26458	73.546	-46.447	272.026	-48.874	117.328	94.381	-19.221	132.346	49.896	85.303	227.235	96.147	235.975	125.722	-2.878	115.603	0.00031861	0.0011149	0.00013574	640	4.6256e-06	2.17e-06	496.61	193.96	1.3861e-05	2.293e-06	160.87	46.047	55.466	18.33	2.1259e-05	18.321	0.00088995	0.00092145	0.00025392	645.52	1.004e-05	1.0138e-05	510.42	196.16	1.0066e-05	1.0147e-05	171.8	50.577	59.143	19.71	1.0162e-05	20.539	50.600	28.482	271.743	-48.656	64.617	-36.810	-50.495	-44.096	197.167	218.352	-46.688	-42.294	-40.050	-35.465	16.598	-39.092	-8191	255	
3398.260	1	1	0	0	0.25831	0.062609	0.10757	0.27694	0.33187	0.37374	0.21289	0.46285	0.07637	0.080403	0.11877	0.071923	0.16676	0.17969	0.073055	0.2002	-0.11042	-1.0479	-0.125	-0.96875	-0.63333	-0.24167	-1.2792	-0.4	-0.6125	-0.88125	-0.083333	-0.82292	-0.65	-0.13125	-1.1437	-0.27708	238.478	-32.841	217.282	4.083	-61.873	250.472	238.497	-54.244	-8.758	295.378	145.000	247.378	-2.112	139.172	142.901	225.740	0.00023305	0.0010344	0.00011602	645.59	7.1777e-06	7.5944e-06	500.54	194.57	1.703e-05	8.319e-06	159.2	46.187	56.233	18.444	9.6912e-06	18.577	0.00090885	0.00093134	0.00025921	647.08	1.0233e-05	1.0245e-05	515.62	196.26	1.0162e-05	1.0329e-05	172.73	51.056	59.458	19.84	1.0247e-05	20.787	-7.072	14.534	23.021	-48.672	163.382	41.769	-50.484	-44.034	-6.947	-16.949	-46.619	-41.778	-39.556	-35.670	25.039	-39.527	-8191	255	
3398.357	1	1	0	0	0.1258	0.28551	0.31436	0.25212	0.16584	0.31657	0.14065	0.22983	0.22618	0.061953	0.065093	0.27769	0.21725	0.10239	0.097641	0.12417	-0.066667	-0.84583	-0.058333	-0.97917	-0.67292	-0.20417	-1.0708	-0.34375	-0.40833	-0.96458	-0.19167	-0.75833	-0.79583	-0.10417	-0.91042	-0.49583	242.978	196.638	261.413	270.671	42.055	121.830	285.910	213.541	119.152	199.449	145.857	89.046	192.183	24.729	284.300	91.339	0.00031902	0.00033219	0.00021205	642.25	1.1634e-05	5.874e-06	499.12	194	8.2943e-06	8.6662e-06	158.75	45.539	55.377	18.338	8.7814e-06	18.019	0.00090644	0.00092763	0.00025703	648.6	1.0045e-05	1.0047e-05	514.05	195.69	9.9031e-06	9.9476e-06	171.17	50.026	58.681	19.539	9.7904e-06	20.297	270.280	11.503	1.195	-48.639	101.342	-11.617	-50.295	-43.509	-24.405	78.687	-46.306	-42.729	-39.539	-35.651	69.600	-38.851	-8191	255	
3398.453	1	1	0	0	0.041271	0.17141	0.27165	0.33793	0.12014	0.19917	0.070951	0.3488	0.16287	0.18495	0.11727	0.1472	0.16893	0.27048	0.21418	0.19581	0.077083	-0.94167	-0.079167	-0.84375	-0.95208	-0.21667	-1.2583	-0.62708	-0.33333	-1.1833	-0.35417	-0.66458	-0.86042	-0.15625	-0.90208	-0.76875	103.123	251.785	65.365	270.007	173.695	42.800	106.215	26.335	111.388	173.573	219.490	246.074	278.572	240.435	295.315	101.758	0.0003742	4.978e-05	9.7029e-05	642.35	9.0726e-06	5.6791e-06	495.34	193.05	4.9947e-06	2.3379e-06	158.97	45.201	56.233	18.215	2.3549e-06	18.145	0.00087267	0.00089929	0.0002479	643.23	9.7606e-06	9.8066e-06	508.99	195.01	9.6964e-06	9.8765e-06	170.65	49.883	59.056	19.565	9.8153e-06	20.3	18.644	49.730	-7.485	-48.600	95.361	67.667	-50.230	-43.835	1.079	121.861	-46.646	-42.100	-39.728	-35.479	96.757	-38.858	-8191	255	
3398.573	1	1	0	0	0.12555	0.22523	0.20096	0.25545	0.15209	0.071542	0.14239	0.16931	0.2112	0.13257	0.046121	0.023442	0.099802	0.15122	0.16905	0.30864	-0.041667	-1.1292	-0.13542	-0.5875	-1.1	-0.18542	-1.0125	-0.84583	-0.18958	-1.1792	-0.33333	-0.3875	-0.91458	-0.08125	-0.81667	-0.7	169.814	219.301	220.939	40.497	136.256	218.404	260.445	257.994	220.675	144.770	-59.154	32.886	203.158	116.164	99.755	-60.209	8.2564e-05	0.0006488	0.00013907	646.05	2.0867e-06	8.754e-06	500.46	195.95	1.2012e-05	5.3499e-06	160.23	45.835	56.036	18.579	6.4583e-06	18.263	0.00087038	0.00089855	0.00025113	644.98	9.7924e-06	9.7527e-06	511.67	196.27	9.7256e-06	9.8414e-06	171.2	50.281	59.296	19.723	9.8663e-06	20.47	87.610	103.105	-3.050	-48.466	-48.641	218.066	-50.399	-43.552	-38.509	18.065	-47.054	-42.096	-38.931	-35.641	135.798	-39.857	-8191	255	
3398.645	1	1	0	0	0.070021	0.17636	0.26035	0.19246	0.12822	0.20079	0.1737	0.06091	0.14046	0.074768	0.11954	0.057624	0.13702	0.13644	0.11837	0.20748	0.3125	-1.1167	-0.20417	-0.51667	-1.1667	-0.23333	-0.77083	-0.78958	-0.066667	-0.99792	-0.53125	-0.37292	-1.1021	-0.30833	-0.65625	-0.81042	268.475	231.173	243.569	298.190	112.068	159.261	-41.221	4.265	-29.703	256.598	160.277	285.753	-45.558	264.894	161.391	276.391	0.00040081	0.00062403	9.0226e-05	642.08	6.2837e-06	3.2352e-06	503.03	195.24	1.258e-05	6.9026e-06	160.4	46.348	55.951	18.638	1.0633e-05	18.611	0.000878	0.00088334	0.00024875	645.05	9.7346e-06	9.7249e-06	513.15	196.07	9.7501e-06	9.7271e-06	171.65	50.713	59.077	19.819	9.6386e-06	20.729	250.759	137.670	241.144	-48.510	80.699	-36.264	-50.515	-43.743	10.007	192.183	-46.655	-42.342	-39.525	-35.362	130.132	-39.232	-8191	255	
3398.766	1	1	0	0	0.30868	0.12362	0.19585	0.11108	0.17395	0.21255	0.096554	0.20976	0.24458	0.022952	0.076029	0.23388	0.2211	0.22841	0.12861	0.17214	0.37708	-1.0771	-0.23333	-0.46042	-1.15	-0.38125	-0.60417	-1.0896	-0.18542	-1.0583	-0.7375	-0.28333	-1.0458	-0.34792	-0.38333	-0.93958	265.178	153.342	30.778	-41.603	151.824	-45.832	105.212	96.777	186.807	-5.033	175.848	28.687	-25.445	241.093	186.211	76.775	0.00020545	0.00065207	7.2798e-05	640.54	7.9917e-06	1.132e-05	505.34	195.62	1.0939e-05	4.5958e-06	161.13	46.917	56.693	18.576	1.7324e-05	18.493	0.00086696	0.00088171	0.000245	644.61	9.7299e-06	9.8265e-06	516.42	197.02	9.7193e-06	9.8351e-06	172.92	51.194	59.494	19.798	9.9834e-06	20.645	124.281	-0.530	131.401	-48.304	96.092	57.674	-50.283	-43.661	89.558	158.581	-46.552	-42.291	-39.154	-35.802	108.023	-39.813	-8191	255	
3398.862	1	1	0	0	0.079546	0.20301	0.11384	0.32099	0.076613	0.21008	0.061916	0.16839	0.12746	0.29801	0.19599	0.10037	0.3027	0.21418	0.10711	0.015937	0.31042	-0.85833	-0.86667	-0.091667	-1.1125	-0.21875	-0.41042	-0.9375	-0.08125	-0.825	-0.675	-0.29583	-1.1313	-0.2875	-0.21667	-0.94375	-45.731	192.140	167.714	-30.834	273.248	126.028	-45.515	184.363	0.743	-7.104	227.595	297.441	269.098	-38.804	-26.765	289.925	0.00059293	0.00040078	0.00015092	642.86	2.6805e-06	6.3813e-06	498.49	193.78	1.7527e-05	3.4481e-06	160.43	45.573	56.006	18.448	1.6007e-05	18.24	0.00087686	0.00090891	0.00025273	646	9.9677e-06	1.0164e-05	511.85	195.59	1.0039e-05	1.0258e-05	172.34	50.644	59.338	19.904	1.031e-05	20.689	9.163	2.774	61.773	-48.330	287.475	211.868	-49.973	-43.905	182.338	197.727	-46.748	-42.571	-39.698	-35.270	102.892	-39.851	-8191	255	
3398.956	1	1	0	0	0.10899	0.33573	0.20056	0.29462	0.14257	0.14873	0.33296	0.31728	0.13751	0.0041872	0.22715	0.15107	0.23859	0.11621	0.18882	0.15261	0.38125	-0.79583	-0.70625	-0.0041667	-1.0896	-0.47917	-0.19167	-1.1229	-0.3	-0.77083	-0.8125	-0.23958	-0.95208	-0.47708	-0.1625	-1.1333	105.705	199.406	82.219	17.661	-51.849	91.552	201.110	213.297	181.253	-27.953	169.346	251.149	17.161	32.295	-7.813	243.604	0.00022776	0.00019211	0.00019003	641.24	7.8415e-06	4.7953e-06	497.85	196.17	9.1702e-06	2.5353e-06	159.11	46.119	56.808	18.48	3.9567e-06	18.623	0.00092222	0.00095752	0.00026704	646.74	1.0478e-05	1.0598e-05	516.3	197.51	1.0701e-05	1.0852e-05	174.04	51.587	60.093	20.052	1.0755e-05	21.073	211.577	27.905	79.751	-48.789	-6.642	31.740	-50.140	-43.662	-12.266	59.384	-46.835	-42.558	-39.261	-35.652	182.690	-39.053	-8191	255	
3399.052	1	1	0	0	0.1261	0.040986	0.16843	0.14221	0.07219	0.19199	0.058124	0.063661	0.26804	0.15974	0.20589	0.13183	0.21277	0.19699	0.17363	0.15219	0.0375	-0.5	-0.99583	-0.175	-0.85208	-0.54167	-0.26458	-1.0229	-0.32708	-0.59792	-1.0688	-0.1625	-0.91042	-0.7125	-0.16458	-1.1021	37.911	-6.458	264.263	-3.386	110.057	-5.223	117.858	262.030	51.615	44.775	164.297	169.464	289.270	32.172	-41.105	234.530	0.00040649	0.00022467	2.7632e-05	640.98	1.2098e-05	1.7972e-06	499.29	195.2	8.8387e-06	9.6956e-06	162.23	47.017	56.752	18.499	8.867e-06	18.763	0.00096677	0.00099954	0.00027809	649.78	1.0941e-05	1.1069e-05	518.53	198.12	1.0982e-05	1.1023e-05	175.8	52.148	60.505	20.163	1.111e-05	21.36	-38.073	156.546	-24.508	-48.840	105.661	130.364	-49.969	-43.874	0.759	31.231	-46.258	-42.300	-39.441	-35.108	117.342	-39.092	-8191	255	
3399.173	1	1	0	0	0.18298	0.16408	0.21663	0.034372	0.29764	0.15618	0.27875	0.26247	0.2675	0.27226	0.13711	0.13852	0.078954	0.19001	0.42282	0.13939	-0.06875	-0.34375	-0.9625	-0.12917	-0.7625	-0.82083	-0.19375	-1.1021	-0.56875	-0.30833	-1.1271	-0.089583	-0.7	-0.975	-0.275	-1.0812	187.133	152.471	198.126	92.768	199.295	225.036	219.923	49.623	-5.737	193.064	39.527	53.249	160.976	-15.469	210.051	-9.621	0.00042748	7.086e-05	0.00010284	645.88	7.4151e-06	2.9889e-07	501.9	194.6	1.5767e-06	6.201e-06	163.4	47.109	56.75	18.653	4.9254e-06	18.702	0.00098811	0.0010278	0.00028569	651.56	1.1198e-05	1.1318e-05	522.33	198.52	1.115e-05	1.1421e-05	177.4	52.79	60.831	20.321	1.137e-05	21.507	94.385	169.774	61.236	-48.673	223.757	38.072	-49.980	-43.354	-51.411	15.764	-46.352	-42.435	-39.387	-35.592	-5.534	-38.983	-8191	255	
3399.245	1	1	0	0	0.36007	0.14287	0.22628	0.34616	0.029995	0.45257	0.15631	0.19239	0.10437	0.10761	0.08619	0.21468	0.13045	0.17123	0.23915	0.075631	-0.10625	-0.38125	-1.0396	-0.17917	-0.6	-1.0229	-0.39167	-0.94167	-0.475	-0.45417	-1.1688	-0.025	-0.62083	-0.76875	-0.26667	-1.0688	-19.509	239.229	33.826	263.374	70.833	0.041	129.905	283.220	65.390	206.230	194.348	180.513	191.261	120.885	-56.365	188.627	0.00037499	0.00052932	6.1497e-05	642.02	4.1927e-06	3.0039e-06	500.8	193.99	8.1418e-06	6.521e-06	159.2	45.864	55.904	18.339	1.1138e-05	18.292	0.0010121	0.0010375	0.00028541	651.08	1.1319e-05	1.1326e-05	519.6	198.44	1.118e-05	1.1289e-05	174.53	51.414	60.027	20.017	1.1278e-05	20.965	87.151	101.612	181.701	-48.306	92.658	3.281	-50.542	-43.504	237.933	181.408	-46.191	-42.572	-39.205	-35.570	28.615	-39.123	-8191	255	
3399.341	1	1	0	0	0.20963	0.10367	0.097638	0.2186	0.058015	0.29454	0.11492	0.29059	0.053921	0.4058	0.28457	0.27345	0.053498	0.25679	0.16432	0.21205	-0.3375	-0.13125	-0.94167	-0.28958	-0.62708	-0.90625	-0.125	-0.87917	-0.46667	-0.44583	-1.1229	-0.59375	-0.59167	-0.88542	-0.125	-0.92708	-30.770	-25.738	-35.024	264.847	-21.526	278.157	282.922	-28.197	70.004	177.660	189.045	288.287	100.165	29.974	-27.980	285.308	0.00041051	0.0011331	0.00019596	638.57	9.4273e-06	8.6692e-06	501.13	193.96	1.89e-05	1.6254e-06	159.42	45.491	55.649	18.404	1.0708e-05	18.381	0.00099352	0.0010343	0.00028715	648.29	1.1159e-05	1.1245e-05	516.57	197.42	1.1178e-05	1.1297e-05	174.96	51.547	60.103	20.092	1.1291e-05	21.18	255.603	-38.809	119.127	-48.531	31.991	79.763	-50.409	-43.561	15.659	-40.079	-46.297	-42.481	-38.567	-35.017	195.701	-38.274	-8191	255	
3399.461	1	1	0	0	0.26855	0.11288	0.29331	0.12933	0.19601	0.046289	0.086932	0.097909	0.26676	0.20002	0.030905	0.24239	0.095959	0.1174	0.16949	0.21172	-0.63333	-0.052083	-1.1104	-0.49375	-0.41042	-0.97917	-0.14583	-1.0104	-1.025	-0.21458	-1.0396	-0.6625	-0.275	-1.1562	-0.49167	-0.6875	214.476	-36.542	278.163	268.635	266.316	256.220	44.607	253.889	122.476	297.304	180.896	198.172	-45.011	203.835	106.895	-6.883	0.00027831	0.00038553	5.8207e-05	641.62	8.2205e-06	1.6718e-06	498.99	194.03	1.3932e-05	5.6752e-06	160.87	46.408	56.598	18.53	1.0473e-05	18.678	0.0010084	0.0010307	0.0002892	651.18	1.1272e-05	1.1382e-05	519.53	197.84	1.1266e-05	1.1324e-05	176.24	52.012	60.335	20.101	1.1448e-05	21.315	-42.835	150.699	169.834	-48.421	55.129	15.734	-49.759	-43.310	248.405	25.516	-46.299	-41.900	-38.675	-34.770	240.777	-38.528	-8191	255	
3399.558	1	1	0	0	0.25607	0.13559	0.12346	0.06107	0.081346	0.36218	0.26984	0.096466	0.045203	0.17217	0.28212	0.10731	0.13165	0.01132	0.050022	0.18008	-0.44583	-0.10625	-1.0542	-0.57917	-0.18542	-1.15	-0.2375	-0.6875	-1.0833	0.014583	-0.76667	-0.69583	-0.1125	-1.1479	-0.47708	-0.675	237.410	211.229	148.027	269.744	-9.771	160.071	256.407	156.126	57.597	79.361	208.212	256.897	279.554	128.027	70.242	209.459	0.00013679	0.00071904	0.00012096	642.86	1.1246e-05	3.9229e-06	503.24	194.3	1.1481e-05	4.7307e-06	162.44	46.83	56.452	18.528	6.9498e-06	18.953	0.0010128	0.001049	0.00029236	650.28	1.1497e-05	1.1411e-05	523.26	198.34	1.1536e-05	1.1534e-05	177.79	52.741	60.814	20.336	1.1548e-05	21.589	-23.004	78.817	30.343	-48.238	249.471	66.809	-49.842	-43.265	208.558	98.042	-46.091	-41.248	-38.227	-34.702	-5.247	-38.581	-8191	255	
3399.654	1	1	0	0	0.070758	0.24382	0.27212	0.12195	0.12282	0.19577	0.31541	0.099664	0.24578	0.07421	0.36271	0.15222	0.16228	0.45617	0.14727	0.21975	-0.80625	-0.11042	-1.0604	-0.8625	-0.27083	-1.0833	-0.45625	-0.59375	-1.0375	-0.29792	-0.95208	-0.93125	-0.125	-1.1521	-0.475	-0.46458	-7.397	173.888	102.912	228.706	26.398	35.136	170.891	255.325	64.819	-18.451	159.393	93.124	233.677	98.271	181.810	-1.740	0.00016615	0.0010027	0.00010943	637.48	3.6279e-06	5.73e-06	505.21	196.46	9.7808e-06	3.6038e-06	160.41	46.071	55.799	18.515	4.7542e-06	18.479	0.0010315	0.0010626	0.00029354	652.54	1.1629e-05	1.152e-05	523.5	198.98	1.1505e-05	1.1573e-05	176.82	52.057	60.618	20.199	1.133e-05	21.218	25.639	256.980	214.922	-48.268	23.420	-55.868	-49.613	-43.548	97.557	4.636	-46.841	-42.382	-39.146	-35.381	108.799	-38.887	-8191	255	
3399.748	1	1	0	0	0.1539	0.1254	0.15966	0.1743	0.212	0.17374	0.12269	0.031569	0.1488	0.21266	0.14436	0.21787	0.34781	0.14108	0.23091	0.21491	-0.68333	-0.17083	-0.84583	-0.89167	-0.21042	-1.2625	-0.53542	-0.43333	-1.1646	-0.15417	-0.73125	-0.9125	0.12917	-1	-0.67708	-0.28125	74.908	23.677	121.662	298.259	-36.485	-42.106	297.116	230.559	174.282	222.831	264.669	-34.614	-48.443	184.759	142.951	99.032	9.544e-05	0.00040999	0.00012362	635.01	9.7442e-06	8.0035e-07	496.76	193.61	1.0972e-05	4.6781e-06	160.35	46.076	56.586	18.647	3.7953e-06	18.569	0.0010004	0.001039	0.00029029	647.22	1.1348e-05	1.13e-05	517.56	197.74	1.1314e-05	1.1311e-05	175.16	51.491	60.268	20.216	1.1231e-05	21.148	132.018	29.086	-18.107	-48.253	126.502	-11.270	-50.193	-43.120	203.118	101.760	-45.958	-42.057	-38.896	-34.920	100.264	-38.513	-8191	255	
3399.869	1	1	0	0	0.38778	0.092197	0.13332	0.16964	0.14961	0.29604	0.08383	0.065898	0.15789	0.098079	0.21506	0.011404	0.14019	0.065455	0.22335	0.18861	-0.72083	-0.34375	-0.64583	-0.86042	-0.0375	-0.96042	-0.66667	-0.175	-0.96458	-0.39167	-0.64792	-1.05	-0.32708	-0.91667	-0.63958	0	10.677	-16.247	157.683	-56.725	-44.640	124.308	212.980	66.739	145.366	119.517	142.844	-26.066	-52.411	9.325	32.088	107.020	0.00039907	0.0007465	3.7584e-05	639.2	7.3472e-06	1.1711e-05	502.58	194.52	9.9962e-06	9.6338e-06	161.26	46.491	56.344	18.824	3.8183e-06	18.851	0.00099525	0.0010328	0.00028756	649.82	1.1413e-05	1.1342e-05	518.59	198.23	1.1263e-05	1.1274e-05	176.24	52.248	60.617	20.345	1.1205e-05	21.436	248.292	-4.533	76.527	-48.370	67.130	278.118	-49.942	-43.122	222.157	59.206	-46.170	-42.714	-38.878	-35.062	262.671	-38.766	-8191	255	
3399.940	1	1	0	0	0.11033	0.085496	0.14946	0.2988	0.28321	0.0561	0.17918	0.10174	0.36885	0.10272	0.2179	0.23545	0.15323	0.17288	0.055086	0.13307	-0.64792	-0.27292	-0.36458	-0.89167	-0.022917	-0.80625	-0.88333	-0.25208	-1.1812	-0.51667	-0.33958	-1.0021	-0.25208	-0.60208	-0.78542	-0.077083	38.934	262.051	278.946	222.777	42.833	246.196	264.464	171.804	171.750	55.423	221.071	207.011	167.187	-49.859	286.447	35.086	0.00040949	0.00040223	6.9592e-05	643.39	1.0479e-05	2.2483e-06	508.17	194.16	1.8527e-05	3.8349e-06	162	46.92	56.472	18.711	6.1303e-06	19.169	0.00099403	0.0010235	0.00028339	650.54	1.1173e-05	1.1274e-05	523.19	198.58	1.1111e-05	1.1308e-05	177.08	52.577	60.799	20.389	1.1059e-05	21.584	34.597	-18.528	185.593	-48.258	51.391	289.066	-50.106	-42.834	15.274	77.448	-47.467	-42.867	-40.109	-35.810	149.560	-39.352	-8191	255	
3400.037	1	1	0	0	0.31209	0.039192	0.029118	0.23811	0.29301	0.20461	0.04593	0.37802	0.19518	0.21934	0.27888	0.09841	0.14504	0.097187	0.22684	0.14782	-0.72292	-0.45833	-0.21667	-1.2083	-0.26875	-0.76667	-0.86458	-0.2625	-1.0375	-0.52292	-0.36458	-1.025	-0.43958	-0.74792	-0.90833	-0.15208	237.196	2.052	-28.207	268.791	242.633	280.472	243.480	272.607	-39.438	167.424	-58.405	202.175	-8.811	146.163	66.219	-39.487	0.00019254	0.00065278	0.0001205	638.68	5.7239e-06	1.9537e-06	500.68	195.92	1.8526e-05	1.5019e-05	162.29	47.101	56.614	18.769	6.3567e-06	18.943	0.00099806	0.0010254	0.00028619	650.13	1.1298e-05	1.1328e-05	522.64	198.89	1.1151e-05	1.1284e-05	177.25	52.798	60.662	20.351	1.1074e-05	21.499	-43.322	13.018	100.793	-49.179	19.955	220.929	-51.375	-44.142	132.278	228.394	-46.978	-43.316	-39.590	-35.748	92.424	-39.834	-8191	255	
3400.133	1	1	0	0	0.24177	0.074895	0.17515	0.11595	0.19459	0.26221	0.25834	0.46371	0.15051	0.21767	0.05836	0.13184	0.054228	0.19942	0.096419	0.16741	-0.34167	-0.48958	0.0041667	-1.0271	-0.14375	-0.53125	-0.9625	-0.2375	-0.62083	-0.88333	-0.12292	-0.94167	-0.43333	-0.44792	-0.98333	-0.0083333	56.809	18.346	114.710	185.337	118.167	118.365	17.798	230.058	248.358	88.491	250.432	88.596	-59.942	177.520	-4.357	214.365	0.00017305	0.00077504	0.00027588	640.31	7.5856e-06	8.5616e-06	498.74	194.7	8.1345e-06	1.3538e-06	160.71	45.789	56.168	18.51	5.0106e-06	18.423	0.00097684	0.00099771	0.00027896	647.87	1.0947e-05	1.0901e-05	515.75	197.6	1.0816e-05	1.0865e-05	174.24	51.354	59.95	20.072	1.0863e-05	20.913	21.354	36.553	17.757	-49.386	251.668	136.596	-50.884	-44.462	122.112	147.673	-47.143	-42.362	-40.165	-35.834	131.330	-39.275	-8191	255	
3400.253	1	1	0	0	0.34402	0.14667	0.029692	0.25408	0.28442	0.071307	0.081783	0.1959	0.20215	0.085742	0.043917	0.25222	0.081754	0.19639	0.16076	0.19805	-0.43958	-0.82708	-0.28125	-1.0604	-0.50833	-0.34375	-1.1417	-0.23958	-0.7625	-0.82917	-0.022917	-0.83542	-0.36667	-0.19375	-1.0479	-0.22083	199.826	24.780	91.542	-18.107	259.463	259.112	92.850	6.399	160.240	219.768	-20.886	229.734	17.337	14.787	236.378	233.880	0.00043961	0.0011442	0.00013904	636.67	7.3691e-06	8.6709e-06	500.55	195.29	1.5276e-05	6.722e-06	161.08	46.235	56.402	18.527	1.3659e-05	18.513	0.00095703	0.00098803	0.00027529	646.69	1.0775e-05	1.0758e-05	515.87	197.52	1.0725e-05	1.0812e-05	174.84	51.485	59.978	20.146	1.0698e-05	21.015	23.298	-11.804	66.149	-49.219	211.039	231.436	-51.035	-44.393	295.726	12.261	-47.324	-43.373	-40.287	-35.869	222.209	-39.738	-8191	255	
3400.350	1	1	0	0	0.078457	0.23997	0.1675	0.27313	0.35809	0.052607	0.20132	0.10284	0.12742	0.098031	0.37404	0.11555	0.22714	0.28045	0.33653	0.21042	-0.42917	-0.8	0.033333	-1.05	-0.5375	-0.37917	-1.1313	-0.13958	-0.55417	-1.1271	-0.19583	-0.81667	-0.69167	-0.29375	-1.0021	-0.38125	67.502	7.917	110.606	-54.503	2.713	25.312	278.780	217.695	-38.908	156.234	-3.620	60.487	-24.712	274.402	45.386	-7.216	0.00032655	0.0005754	0.00026722	638.89	6.4639e-06	3.7323e-06	499.12	196.38	6.1677e-06	1.1084e-05	161.34	46.546	56.628	18.591	2.8415e-06	18.762	0.00095241	0.00098165	0.00027116	646.98	1.0696e-05	1.0655e-05	517.59	197.87	1.0757e-05	1.0708e-05	174.9	51.834	60.371	20.173	1.0633e-05	21.19	24.076	235.319	-24.991	-49.035	183.227	132.547	-50.991	-44.367	-14.232	119.739	-47.358	-42.830	-40.669	-36.465	57.312	-39.780	-8191	255	
3400.446	1	1	0	0	0.20404	0.083729	0.39635	0.11316	0.23386	0.31841	0.15447	0.22306	0.12952	0.36275	0.23257	0.031239	0.15515	0.11847	0.082416	0.26627	-0.06875	-0.9625	-0.2625	-0.94792	-0.675	-0.42917	-1.1333	-0.3625	-0.73958	-1.275	-0.31042	-0.90417	-0.90417	-0.091667	-0.9875	-0.52917	224.598	138.049	233.741	-59.207	14.822	-52.313	87.446	0.907	295.016	253.656	-60.923	75.619	181.942	103.221	280.271	159.699	0.00055861	0.00018412	0.0001	641.99	1.8749e-06	6.3113e-06	505.35	194.78	4.3315e-06	3.7942e-06	162.2	47.14	56.728	18.831	1.2995e-05	19.108	0.00096271	0.00098263	0.00027406	647.68	1.0691e-05	1.0731e-05	520.53	198.18	1.0764e-05	1.083e-05	176.24	52.422	60.255	20.235	1.0703e-05	21.407	-16.601	106.652	42.235	-49.636	240.665	-7.645	-51.331	-43.971	183.008	278.909	-47.621	-43.397	-40.365	-36.525	-16.741	-39.718	-8191	255	
3400.542	1	1	0	0	0.028699	0.19267	0.11648	0.017581	0.040992	0.16816	0.11178	0.085798	0.21015	0.050082	0.19665	0.24225	0.30061	0.23236	0.34411	0.20033	0.12917	-1.0208	-0.24167	-0.825	-0.77917	-0.3375	-1.1458	-0.68333	-0.30833	-1.0896	-0.45625	-0.49792	-0.86458	-0.27917	-1.0812	-0.62917	253.643	69.166	48.060	149.877	64.793	-35.958	-31.885	-39.611	291.382	202.820	100.287	-50.867	2.722	197.841	-0.316	290.652	0.00024382	0.00077006	0.00013349	646.03	2.0859e-06	5.2833e-06	504.52	194.9	8.3363e-06	3.0829e-06	162	45.798	56.22	18.613	9.016e-06	18.37	0.00095756	0.00097394	0.0002713	648.31	1.062e-05	1.0722e-05	519.03	197.63	1.0662e-05	1.0642e-05	174.78	51.021	59.721	20.005	1.0619e-05	20.805	226.141	53.819	-58.415	-49.677	85.374	-2.528	-50.895	-44.518	87.700	285.963	-47.477	-43.223	-40.307	-36.467	-13.916	-40.265	-8191	255	
3400.638	1	1	0	0	0.25171	0.19449	0.066943	0.29536	0.09688	0.030891	0.17292	0.049464	0.18679	0.092785	0.095634	0.094834	0.13207	0.40332	0.20153	0.3601	0.09375	-1.1271	-0.325	-0.59167	-1.0063	-0.079167	-0.86875	-0.775	-0.31458	-1.2521	-0.33542	-0.54792	-0.93542	-0.29583	-0.92292	-0.66667	284.278	113.080	34.140	236.517	44.103	198.877	166.417	195.509	-15.000	-19.652	-43.141	118.906	177.210	-16.267	-5.445	-6.634	0.00029365	0.0012724	7.095e-05	644.7	6.3097e-06	4.5585e-06	496.22	194.46	1.0057e-05	1.2671e-06	160.28	45.941	55.816	18.376	7.1684e-06	18.204	0.00093708	0.00096907	0.00026981	646.61	1.052e-05	1.0607e-05	513.24	197.07	1.0484e-05	1.0498e-05	173.26	51.02	59.501	19.895	1.0633e-05	20.795	-15.059	-28.264	124.248	-49.348	182.736	157.441	-50.842	-44.249	194.065	-16.875	-47.723	-42.605	-40.080	-36.382	151.194	-39.568	-8191	255	
3400.734	1	1	0	0	0.051885	0.26601	0.19753	0.16416	0.018469	0.07288	0.24027	0.16369	0.15563	0.075425	0.17416	0.1933	0.056658	0.13615	0.2871	0.10818	0.25625	-0.99167	-0.36042	-0.425	-0.91667	-0.19583	-0.92917	-0.775	-0.20625	-0.98958	-0.27917	-0.49792	-0.95417	-0.39792	-0.71667	-0.96875	143.908	-22.397	-33.027	229.181	-5.089	17.582	295.780	161.262	237.617	222.654	100.630	132.733	9.894	-45.546	-23.104	198.799	0.00040873	0.00086644	0.00021859	640.57	1.0067e-05	2.586e-06	503.48	195.81	6.3667e-06	4.8253e-06	161.72	46.466	57.11	18.559	5.8579e-06	18.734	0.00095359	0.00097431	0.00027065	646.87	1.063e-05	1.0647e-05	516.6	197.88	1.0634e-05	1.0709e-05	174.18	51.366	60.297	20.08	1.0636e-05	20.985	169.075	29.132	16.214	-49.299	78.671	210.082	-50.763	-44.444	52.823	132.292	-47.342	-42.617	-40.433	-36.205	-56.368	-39.652	-8191	255	
3400.855	1	1	0	0	0.19435	0.18423	0.21084	0.41302	0.11784	0.17459	0.21543	0.25818	0.091431	0.16002	0.15736	0.24195	0.19325	0.27791	0.10361	0.15468	0.19375	-1.0312	-0.47083	-0.36458	-1.1063	-0.15	-0.67917	-0.77917	-0.17917	-0.99375	-0.58542	-0.28958	-1.2229	-0.43333	-0.71042	-1.1625	221.570	61.558	141.589	191.770	219.770	145.944	-36.429	214.449	97.216	265.143	220.310	-44.114	163.479	21.265	262.154	133.545	0.00022209	0.00080314	0.00028155	638.82	1.2978e-05	7.234e-06	503.48	195.61	2.0041e-05	6.7307e-06	162.93	46.728	57.01	18.678	9.7409e-06	18.94	0.00095694	0.00097561	0.00027347	646.81	1.0641e-05	1.0725e-05	519.17	198.29	1.0791e-05	1.0871e-05	175.75	52.207	60.312	20.202	1.0681e-05	21.32	-35.000	-3.274	58.495	-49.321	123.213	0.754	-50.953	-44.229	-56.018	61.644	-47.688	-42.863	-40.266	-36.240	187.714	-39.933	-8191	255	
3400.949	1	1	0	0	0.16203	0.22636	0.23591	0.072175	0.19964	0.21073	0.19336	0.088099	0.18287	0.38751	0.066625	0.13393	0.15243	0.052097	0.24203	0.11535	0.175	-1.0271	-0.62292	-0.20833	-1.1771	-0.28333	-0.62708	-1.0063	-0.16458	-0.93333	-1.0187	-0.11667	-1.1292	-0.40208	-0.55	-1.2958	15.037	93.446	7.101	61.463	199.461	245.594	155.695	54.737	166.596	10.513	185.375	164.447	63.467	112.013	195.068	14.206	0.00024316	0.00037705	9.5169e-05	643.43	6.7971e-06	2.7557e-06	508.81	196.21	9.888e-06	3.304e-06	162.34	47.005	56.114	18.632	1.0042e-05	18.529	0.00096162	0.00098637	0.0002732	648.98	1.0755e-05	1.0876e-05	522.03	198.82	1.0832e-05	1.0761e-05	176.57	52.379	60.246	20.2	1.0746e-05	21.133	167.729	90.741	0.473	-49.401	-49.186	217.438	-51.312	-44.646	179.891	136.287	-47.208	-43.087	-40.197	-36.410	285.976	-39.530	-8191	255	
3401.045	1	1	0	0	0.20232	0.13343	0.18144	0.4244	0.16009	0.2321	0.19801	0.068824	0.24695	0.047788	0.10097	0.17114	0.17763	0.11877	0.11588	0.33429	0.085417	-0.80625	-0.78958	-0.18958	-1.2854	-0.57917	-0.41667	-1.1854	-0.20625	-0.76875	-0.85	-0.0875	-1.1146	-0.59583	-0.38542	-1.1354	163.577	277.236	225.610	257.008	286.592	128.642	158.143	270.993	262.668	185.882	113.449	53.105	9.879	10.971	223.271	3.591	0.00072337	0.00029142	0.00017064	637.4	1.358e-05	1.1878e-05	495.29	194.63	5.1794e-06	1.1423e-05	160.77	46.186	56.447	18.575	2.7104e-05	18.703	0.00095478	0.00097611	0.00027185	646.02	1.0674e-05	1.0646e-05	514.65	197	1.0584e-05	1.0662e-05	174.11	51.386	59.833	19.965	1.0726e-05	20.948	64.688	225.449	117.979	-49.203	131.542	-24.520	-50.828	-44.077	78.593	9.275	-47.203	-42.820	-40.460	-36.593	42.646	-40.094	-8191	255	
3401.166	1	1	0	0	0.18783	0.29377	0.1393	0.13431	0.28127	0.1266	0.49366	0.24971	0.22629	0.27565	0.12245	0.088633	0.25799	0.15426	0.045141	0.20562	0.24375	-0.64375	-0.79792	-0.08125	-0.8125	-0.58542	-0.20417	-1.1979	-0.19167	-0.47917	-1.0688	-0.052083	-0.89583	-0.71458	-0.15625	-1.0958	240.593	260.608	90.322	203.599	172.574	131.703	230.175	189.925	-48.585	146.015	115.792	240.987	151.895	54.765	288.988	248.054	0.00014091	0.00083221	0.00016114	633.02	2.0055e-06	4.0581e-06	500.25	194.67	7.0737e-06	6.2942e-06	161.63	47.256	56.711	18.776	1.9784e-05	18.825	0.00094437	0.00097539	0.00027029	643.69	1.0653e-05	1.0771e-05	515.9	197.9	1.0647e-05	1.07e-05	175.43	52.161	60.183	20.224	1.0663e-05	21.322	149.913	-47.405	-29.055	-49.712	174.647	267.102	-50.975	-44.102	17.462	200.339	-47.137	-43.060	-40.082	-36.151	-24.505	-39.997	-8191	255	
3401.238	1	1	0	0	0.070872	0.16619	0.040531	0.089897	0.16152	0.097552	0.090253	0.10902	0.28637	0.34602	0.049064	0.033775	0.1366	0.43871	0.14945	0.15529	0.041667	-0.37083	-1.0667	-0.13542	-0.63125	-0.60417	-0.079167	-1.1729	-0.28333	-0.45	-1.0417	-0.072917	-0.87917	-0.81875	-0.275	-1.0958	33.505	193.449	238.327	-44.244	107.924	-56.293	220.423	221.785	53.519	176.626	294.518	189.704	177.504	245.677	32.341	266.196	0.00018814	0.00068481	6.1579e-05	638.85	1.7614e-06	5.8757e-06	499.3	196.24	1.1695e-05	7.7241e-06	162.27	47.468	56.753	18.874	1.172e-05	18.928	0.00095662	0.00097596	0.00027369	646.29	1.0776e-05	1.08e-05	516.91	198.74	1.0803e-05	1.0849e-05	176.71	52.501	60.723	20.328	1.0925e-05	21.498	46.862	21.293	-0.741	-49.368	33.868	41.482	-50.425	-44.103	17.969	120.528	-47.135	-43.278	-40.208	-36.092	17.153	-39.571	-8191	255	
3401.334	1	1	0	0	0.0045723	0.23247	0.19401	0.33963	0.046524	0.1094	0.097173	0.28401	0.25218	0.052211	0.10423	0.048356	0.10886	0.13367	0.20536	0.17262	0.01875	-0.38958	-1.15	-0.091667	-0.71875	-0.81458	-0.4375	-1.1562	-0.35417	-0.23333	-0.96458	-0.21667	-0.61667	-0.95	-0.16458	-1.0021	282.383	108.722	258.600	-58.152	238.530	22.606	-8.617	246.674	-9.822	258.464	85.702	148.318	69.328	274.262	290.628	-24.136	0.00045866	0.00061368	0.00012891	634.82	5.7759e-06	6.4386e-06	500.8	196.73	5.4592e-06	4.688e-07	163.65	47.7	57.185	18.851	1.9097e-05	19.387	0.00097226	0.0010029	0.00027841	647.74	1.0916e-05	1.0973e-05	521.99	199.12	1.1028e-05	1.1022e-05	178.33	53.131	60.96	20.429	1.1018e-05	21.774	-4.202	11.119	194.229	-49.408	2.217	57.465	-50.909	-43.811	9.957	36.316	-46.559	-43.460	-39.622	-36.084	288.754	-39.957	-8191	255	
3401.430	1	1	0	0	0.056204	0.18247	0.27319	0.077982	0.14373	0.15786	0.272	0.13619	0.16022	0.089957	0.19641	0.14184	0.22365	0.02965	0.096702	0.094647	-0.2875	-0.10417	-0.95833	-0.30833	-0.56667	-1.15	-0.26042	-1.0625	-0.675	-0.0625	-1.1562	-0.35417	-0.57083	-1.1708	-0.027083	-0.80208	213.549	283.259	172.031	161.055	132.793	293.503	67.444	-17.675	68.483	144.264	-30.602	107.783	-38.074	204.207	53.607	273.820	0.00047456	0.0008046	0.00013213	637.81	3.2826e-06	5.4118e-06	497.48	194.36	7.8065e-06	3.9116e-06	160.64	46.616	56.293	18.574	8.7599e-06	18.993	0.00097982	0.0010112	0.00028213	647.93	1.1009e-05	1.098e-05	516.33	197.68	1.0933e-05	1.086e-05	175.81	51.874	60.223	20.145	1.0908e-05	21.329	23.711	111.735	139.880	-49.466	-22.610	-11.238	-50.774	-44.433	44.987	48.242	-47.106	-43.691	-40.553	-36.172	229.211	-40.072	-8191	255	
3401.551	1	1	0	0	0.21348	0.083702	0.16865	0.19513	0.13931	0.33654	0.10475	0.37952	0.032917	0.22146	0.16812	0.22176	0.069585	0.17424	0.0941	0.27556	-0.53958	-0.125	-1.1146	-0.45208	-0.44792	-1.0688	-0.19583	-0.8625	-0.80208	-0.25	-0.875	-0.27292	-0.36667	-1.2667	-0.25	-0.74167	151.401	11.002	187.047	176.918	92.376	-33.092	21.410	283.821	-47.303	119.138	166.537	134.818	31.164	280.825	46.076	206.090	0.0007558	0.00063075	0.00020903	635.69	1.4017e-05	5.4106e-06	497.14	193.61	5.0235e-06	4.2432e-06	163.18	46.562	56.646	18.657	3.4855e-06	18.684	0.0009793	0.0010083	0.00027459	646.13	1.0944e-05	1.1006e-05	514.95	197.05	1.0918e-05	1.0992e-05	176.47	52.031	60.485	20.251	1.0925e-05	21.371	16.126	172.423	283.766	-49.256	98.816	109.172	-50.926	-44.258	-53.976	83.325	-47.177	-42.996	-39.767	-35.913	289.112	-39.731	-8191	255	
3401.647	1	1	0	0	0.20497	0.14853	0.055821	0.047347	0.17493	0.17725	0.1314	0.19951	0.28159	0.19669	0.30826	0.33528	0.15282	0.20192	0.071768	0.25533	-0.42083	-0.17292	-1.0312	-0.62083	-0.54792	-1.1896	-0.2625	-0.57292	-0.75833	-0.15833	-0.95625	-0.70208	-0.13542	-0.93333	-0.25417	-0.50625	4.552	144.823	-57.030	-45.563	-25.833	52.671	270.315	275.582	19.971	90.341	233.974	6.037	84.186	1.889	-47.672	-40.242	0.00044024	5.302e-05	0.00020039	639.44	1.3122e-06	4.0953e-06	501.1	193.53	1.8204e-05	5.3698e-06	161.41	47.055	56.149	18.532	2.2821e-05	18.77	0.00098198	0.0010102	0.000281	647.5	1.1051e-05	1.1131e-05	518.51	197.54	1.1124e-05	1.1056e-05	176.55	52.434	60.38	20.211	1.1183e-05	21.469	6.598	-1.470	143.254	-49.390	117.471	185.265	-51.250	-44.496	276.499	111.041	-47.030	-43.492	-39.812	-36.411	34.129	-40.119	-8191	255	
3401.741	1	1	0	0	0.1243	0.20196	0.12484	0.10613	0.35561	0.074081	0.26185	0.073634	0.079258	0.25501	0.12259	0.080688	0.10323	0.097111	0.16746	0.16779	-0.59375	-0.14792	-0.90625	-0.68333	-0.33125	-0.96667	-0.3875	-0.54167	-1.2167	-0.097917	-0.95625	-0.7875	-0.079167	-1.1667	-0.54375	-0.37917	147.729	58.955	-42.789	192.168	293.564	54.624	13.310	57.659	176.328	157.935	-25.004	-26.201	-49.664	219.939	252.616	-59.423	0.00059171	0.00104	0.00016643	641.27	9.2128e-06	3.0674e-06	503.5	193.56	7.4937e-06	8.9901e-06	162.26	46.945	56.56	18.653	2.9727e-06	19.073	0.00098491	0.0010264	0.00028628	648.86	1.1253e-05	1.1224e-05	522.28	197.96	1.1174e-05	1.1274e-05	177.52	52.451	60.58	20.296	1.1248e-05	21.548	37.941	54.558	-54.109	-49.417	259.295	-7.118	-51.321	-44.734	285.363	-8.538	-47.030	-43.511	-40.636	-35.858	254.385	-39.596	-8191	255	
3401.815	1	1	0	0	0.058002	0.17157	0.11509	0.16725	0.2725	0.13843	0.14734	0.34476	0.26837	0.16898	0.059075	0.30713	0.28011	0.12091	0.18746	0.038914	-0.75417	-0.035417	-0.7625	-0.83958	-0.10417	-0.89583	-0.44167	-0.31875	-0.85208	-0.1375	-0.69792	-0.85833	-0.1875	-0.94583	-0.56458	-0.17917	102.655	176.889	105.951	215.390	271.579	176.767	215.223	-43.735	147.443	282.941	218.238	277.460	261.788	210.829	-45.555	17.824	0.00028303	0.0006398	0.00037948	642.36	5.5046e-06	8.3191e-06	504.03	194.23	8.3187e-06	1.1326e-05	160.66	46.228	55.715	18.349	2.0377e-05	18.366	0.00099499	0.0010234	0.00028621	649.61	1.1137e-05	1.1148e-05	521.53	197.7	1.1027e-05	1.1086e-05	175.49	51.543	59.837	20.023	1.1104e-05	20.988	-44.649	2.118	-30.191	-49.409	58.233	246.270	-51.199	-44.450	146.916	-23.848	-47.169	-43.349	-40.333	-36.454	271.350	-40.005	-8191	255	
3401.933	1	1	0	0	0.2362	0.25523	0.11279	0.14532	0.41768	0.17227	0.14238	0.12369	0.064117	0.084058	0.16165	0.17361	0.027339	0.26145	0.041647	0.12234	-0.44375	-0.225	-0.57292	-0.7875	0.020833	-1.0333	-0.55625	-0.24167	-1.1688	-0.21875	-0.75417	-1.1708	-0.020833	-0.85417	-0.75833	-0.32917	256.027	-3.385	248.104	109.979	57.591	119.050	147.901	180.454	125.583	102.115	30.044	29.743	-27.333	180.646	26.442	-0.339	0.00029504	0.001216	0.00024692	632.57	2.9135e-06	4.9752e-06	490.59	193.21	1.0676e-06	7.047e-06	158.53	44.771	55.297	18.188	1.1105e-05	18.175	0.00097905	0.0010052	0.00027928	643.51	1.0897e-05	1.1042e-05	510.84	196.3	1.0876e-05	1.0983e-05	173.1	50.521	59.171	19.811	1.0975e-05	20.67	278.259	52.575	49.107	-49.416	150.938	237.228	-51.439	-44.250	252.467	-41.175	-47.533	-43.860	-39.829	-36.202	25.907	-39.380	-8191	255	
3402.030	1	1	0	0	0.19872	0.12351	0.14005	0.25216	0.04344	0.11928	0.27333	0.19003	0.040625	0.16336	0.18026	0.11321	0.17476	0.024868	0.20723	0.079585	-0.68958	-0.21667	-0.4125	-1.1729	-0.11042	-0.775	-0.80208	-0.1625	-0.89583	-0.49583	-0.47292	-1.15	-0.31042	-0.68958	-0.82292	-0.3	40.370	115.293	88.968	31.025	45.522	104.771	293.786	80.264	81.002	257.747	61.821	254.224	251.482	102.058	99.982	104.192	0.00048039	0.00086905	0.00025361	635.7	3.4787e-06	4.1124e-06	489.3	192.11	1.0963e-05	5.8137e-06	159.67	45.333	55.516	18.051	1.7084e-05	18.169	0.00097429	0.0010045	0.00028191	642.79	1.0942e-05	1.106e-05	511.7	195.08	1.0962e-05	1.1177e-05	173.58	50.983	59.287	19.779	1.1026e-05	20.844	-20.196	60.159	-45.748	-49.483	244.018	139.391	-50.890	-44.394	130.270	-38.710	-47.318	-42.711	-40.140	-36.136	118.170	-40.046	-8191	255	
3402.126	1	1	0	0	0.29108	0.30573	0.23774	0.31787	0.36404	0.16323	0.14502	0.10133	0.21112	0.15376	0.1223	0.16175	0.076648	0.16231	0.41781	0.09061	-0.65	-0.32708	-0.32292	-1.0167	-0.18958	-0.9375	-0.99167	-0.14583	-1.1146	-0.56458	-0.30625	-0.93958	-0.18542	-0.49167	-0.9125	-0.039583	71.207	172.989	266.350	17.468	145.394	143.049	35.184	264.539	90.911	94.434	-38.315	226.040	108.027	135.594	-48.560	123.448	0.00065929	0.0011534	0.00013328	634.62	4.3122e-06	3.4391e-06	496.39	193.68	1.3564e-05	6.1766e-06	158.93	45.801	56.178	18.182	1.0428e-05	18.454	0.0009838	0.0010096	0.00027906	642.29	1.0971e-05	1.1101e-05	514.36	195.54	1.0881e-05	1.109e-05	173.77	51.449	59.687	19.86	1.0987e-05	21.005	55.876	1.526	-43.993	-49.572	232.706	153.202	-51.767	-44.217	34.282	115.405	-47.184	-43.702	-40.173	-36.699	147.805	-39.985	-8191	255	
3402.246	1	1	0	0	0.093545	0.29478	0.09034	0.19659	0.1593	0.11149	0.077549	0.21292	0.13136	0.065812	0.12458	0.15884	0.23799	0.076942	0.14123	0.20229	-0.53125	-0.575	-0.077083	-1.0021	-0.30833	-0.55417	-0.86042	-0.27292	-0.68958	-0.57292	-0.32917	-0.92708	-0.37917	-0.49375	-0.81042	-0.20417	195.526	196.555	235.803	193.330	188.893	180.496	112.541	122.855	195.222	55.575	140.206	-56.551	153.602	79.658	-46.310	199.858	0.00071798	0.00054172	0.0002446	633.71	4.275e-06	1.8273e-06	503.14	192.79	4.8725e-06	9.4583e-06	160.48	46.154	55.094	18.162	1.2043e-05	18.341	0.00097432	0.0010083	0.00028029	642.47	1.1054e-05	1.1064e-05	517.64	196.33	1.105e-05	1.1158e-05	175.05	51.622	59.463	19.859	1.1089e-05	20.831	-32.587	270.923	36.695	-49.340	218.864	254.642	-51.415	-44.608	272.334	120.640	-47.647	-43.337	-40.394	-35.831	152.388	-40.059	-8191	255	
3402.342	1	1	0	0	0.11701	0.24296	0.10504	0.095078	0.3727	0.12601	0.11931	0.3547	0.26779	0.2157	0.16761	0.14893	0.18512	0.24261	0.15391	0.079802	-0.33333	-0.65417	-0.21667	-1.1542	-0.38333	-0.42917	-1	-0.20833	-0.925	-0.73542	0.083333	-1.025	-0.4	-0.29792	-0.80833	-0.15417	-0.058	168.659	64.279	216.873	7.858	36.789	283.676	-53.256	-10.847	222.845	-54.512	-45.342	-35.214	271.038	144.760	191.828	0.00061845	0.00036167	0.00010968	633.11	7.3932e-06	9.0746e-06	494.37	191.22	2.8782e-06	7.4453e-06	159.23	44.529	54.426	17.87	1.7637e-05	17.648	0.00098019	0.0010091	0.00027892	642.93	1.0999e-05	1.0889e-05	511.13	194.15	1.087e-05	1.0974e-05	172.32	50.008	58.52	19.456	1.0944e-05	20.242	-48.159	148.749	104.029	-49.706	89.315	-5.543	-51.148	-44.478	290.225	212.333	-47.539	-43.373	-40.542	-36.735	69.151	-40.663	-8191	255	
3402.414	1	1	0	0	0.21238	0.21328	0.30304	0.073308	0.11959	0.25841	0.11824	0.18607	0.29008	0.25413	0.24846	0.22659	0.15255	0.22923	0.1459	0.17864	-0.21875	-0.68125	-0.06875	-1.0875	-0.42917	-0.10417	-0.95417	-0.079167	-0.45	-0.74583	-0.11042	-0.89583	-0.62083	-0.22917	-0.90833	-0.25833	156.839	-38.116	58.884	57.171	94.390	231.357	-5.710	286.709	89.761	245.111	228.326	200.758	-22.766	10.008	-38.724	80.224	0.00060137	0.00071358	0.00018046	632.07	4.426e-06	3.9187e-06	494.82	190.79	2.7526e-06	8.1692e-06	156.74	44.83	54.916	17.978	6.3626e-06	17.971	0.0009759	0.0010076	0.00027694	639.89	1.0948e-05	1.0994e-05	511.02	194.14	1.0854e-05	1.0995e-05	172.15	50.515	58.667	19.603	1.1075e-05	20.547	8.338	-15.431	254.896	-49.323	199.773	141.699	-51.370	-44.849	-44.943	-57.843	-47.513	-44.006	-40.891	-36.200	165.836	-39.904	-8191	255	
3402.535	1	1	0	0	0.20343	0.38675	0.28853	0.15188	0.17107	0.28779	0.12371	0.1701	0.049311	0.23216	0.15625	0.1219	0.21529	0.25497	0.32429	0.15223	-0.28542	-0.85417	-0.01875	-0.83125	-0.75417	-0.24167	-1.1417	-0.4875	-0.37708	-1.0229	-0.077083	-0.88542	-0.64583	-0.022917	-0.975	-0.36875	169.646	122.938	79.299	210.233	112.033	-1.154	155.533	226.992	-13.604	63.974	-41.503	287.576	-55.386	-55.193	-24.098	-29.990	0.00016097	0.00051328	0.0001866	635.88	2.9415e-06	4.5079e-06	493.59	192.13	1.435e-05	1.1031e-05	157.22	44.811	55.541	18.213	8.5772e-06	18.073	0.00098371	0.00099592	0.00027848	644.04	1.0902e-05	1.094e-05	513.12	194.99	1.0907e-05	1.0945e-05	173.58	50.61	59.259	19.798	1.0946e-05	20.759	263.563	100.423	292.848	-49.789	145.429	-44.772	-51.323	-44.648	42.883	8.476	-46.765	-43.322	-40.530	-37.151	8.435	-40.005	-8191	255	
3402.631	1	1	0	0	0.2666	0.093598	0.35425	0.08619	0.1403	0.12273	0.15968	0.28232	0.16968	0.084214	0.054756	0.09547	0.17603	0.21823	0.10767	0.18779	-0.10833	-0.98125	-0.1875	-0.825	-0.7375	-0.06875	-0.93333	-0.45833	-0.48125	-0.93958	-0.52917	-0.69375	-0.80833	-0.12708	-1.0458	-0.62917	290.333	100.343	107.979	-14.308	239.973	162.476	238.972	24.562	288.198	287.526	-6.614	27.989	-40.657	293.836	210.544	241.027	0.0001221	0.00031752	4.8858e-05	637.53	8.7984e-06	8.61e-06	503.43	193.3	3.3437e-06	2.7312e-06	159.96	46.159	55.497	18.284	3.9629e-06	18.472	0.00097241	0.0010078	0.00027728	647.6	1.0949e-05	1.0944e-05	518.83	196.62	1.0914e-05	1.0946e-05	174.43	51.471	59.673	19.978	1.1024e-05	21.02	199.908	27.410	295.106	-49.713	224.290	28.376	-51.256	-44.811	74.259	268.831	-47.389	-43.752	-40.234	-36.548	173.727	-40.206	-8191	255	
3402.727	1	1	0	0	0.061637	0.15629	0.1216	0.25349	0.16662	0.11109	0.11018	0.13918	0.077178	0.050764	0.24796	0.19375	0.18788	0.41814	0.20184	0.15334	-0.020833	-1.0854	-0.26458	-0.53125	-0.77708	-0.25	-1.0333	-0.7875	-0.25	-0.99167	-0.45208	-0.3625	-0.99583	-0.15	-0.87292	-0.6875	116.744	154.854	56.937	-36.341	242.318	170.832	-27.824	132.761	-16.986	283.451	0.226	237.096	-54.481	116.699	-17.664	-17.355	0.00032879	0.00036829	2.8944e-05	638.76	4.2268e-06	1.2582e-05	498.67	192.32	1.0738e-05	4.9459e-06	158.11	44.792	55.227	18.215	1.049e-05	17.857	0.00097623	0.001013	0.00027945	647.31	1.1015e-05	1.096e-05	516.15	196.09	1.0945e-05	1.1017e-05	172.94	50.419	59.138	19.74	1.0928e-05	20.402	16.787	258.635	221.069	-49.489	258.024	-47.817	-50.920	-44.636	274.802	195.811	-47.437	-42.874	-40.454	-35.920	-18.272	-39.498	-8191	255	
3402.846	1	1	0	0	0.10213	0.13816	0.32141	0.11875	0.24239	0.12215	0.051151	0.085955	0.068544	0.17847	0.21702	0.2741	0.22196	0.23859	0.13494	0.19771	0.29792	-0.97917	-0.41875	-0.42292	-0.9125	-0.20417	-0.92292	-0.82083	-0.15417	-1.175	-0.3	-0.36458	-0.91667	-0.15208	-0.45208	-0.8375	86.257	265.899	162.262	-49.021	56.523	107.824	54.566	179.389	109.517	189.029	221.273	268.134	242.457	104.084	152.922	206.224	0.00038939	0.00057677	0.00024053	637.94	8.2156e-06	6.4269e-06	493.61	191.85	1.3576e-05	6.2557e-06	157.04	45.021	55.305	18.087	5.5397e-06	17.979	0.00097299	0.0010095	0.00028083	644.25	1.1091e-05	1.1039e-05	512.04	195.04	1.0964e-05	1.0898e-05	172.85	50.399	59.14	19.694	1.1113e-05	20.587	239.092	244.083	111.718	-49.551	-0.591	21.002	-50.839	-44.567	58.005	119.295	-47.430	-43.073	-39.906	-36.496	163.036	-39.776	-8191	255	
3402.942	1	1	0	0	0.10235	0.057243	0.18308	0.14035	0.18876	0.25231	0.26665	0.3527	0.26452	0.38515	0.0075318	0.18614	0.30906	0.1441	0.20883	0.053313	0.21042	-1.1521	-0.55208	-0.12292	-1.1083	-0.23542	-0.62083	-0.86458	-0.00625	-0.925	-0.56458	-0.09375	-1.0333	-0.0625	-0.63542	-0.80417	106.185	218.273	37.275	-52.735	10.510	295.078	276.037	203.988	289.057	-1.300	184.964	170.436	276.719	140.216	247.931	158.241	0.00021023	0.00068462	0.0001355	634.25	5.6728e-06	5.9403e-06	499.61	193.7	1.5873e-05	8.243e-06	159.11	45.494	55.262	18.193	1.042e-05	18.215	0.00097935	0.0010104	0.00028204	646.27	1.1046e-05	1.1111e-05	515.59	196.65	1.1075e-05	1.1211e-05	174.33	51.109	59.469	19.864	1.1283e-05	20.793	203.757	62.247	154.956	-49.467	277.590	139.985	-50.787	-44.446	79.226	-51.441	-47.190	-43.241	-40.198	-36.175	-56.219	-40.036	-8191	255	
3403.038	1	1	0	0	0.37415	0.31663	0.22948	0.12626	0.10727	0.24633	0.13581	0.40712	0.099827	0.25063	0.17579	0.064754	0.39936	0.27499	0.12948	0.061238	0.33542	-0.85208	-0.64167	-0.31667	-1.0333	-0.34792	-0.66458	-1.0479	-0.095833	-0.8625	-0.55625	-0.0375	-1.2125	-0.33958	-0.40625	-1.0104	120.083	247.040	163.458	211.864	154.590	74.650	-18.209	262.684	138.054	92.114	-54.279	164.421	245.381	6.141	39.371	74.292	0.00051112	0.00048936	0.00025818	636.91	1.1777e-05	2.2707e-06	495.89	192.87	1.0749e-05	4.6004e-06	160.6	45.411	55.213	18.228	5.5569e-06	18.546	0.0010029	0.001036	0.00028839	648.13	1.1329e-05	1.1363e-05	518.5	196.11	1.1389e-05	1.1421e-05	175.31	51.316	59.624	19.967	1.1395e-05	21.073	73.836	244.117	-9.549	-49.514	205.434	-35.065	-51.179	-44.536	108.728	79.129	-47.412	-42.740	-40.075	-36.504	264.859	-40.033	-8191	255	
3403.110	1	1	0	0	0.23416	0.30404	0.25985	0.20799	0.18206	0.073193	0.21437	0.144	0.072556	0.35054	0.1441	0.16862	0.067324	0.014167	0.18406	0.18038	0.12083	-0.75833	-0.61458	-0.21667	-1.1333	-0.42917	-0.28958	-0.96042	-0.2625	-0.57708	-0.96667	0.0083333	-1.0625	-0.45417	-0.32917	-0.94167	-53.909	-35.671	25.572	166.641	254.712	10.629	275.162	200.252	15.174	114.424	235.987	195.794	-32.327	75.474	-10.693	241.184	0.00044254	0.0011093	4.3864e-05	638.35	9.1294e-06	4.1222e-06	501.21	194.1	1.1222e-05	3.6688e-06	159.23	45.993	56.152	18.431	1.2254e-05	18.077	0.001026	0.001062	0.00029526	651.14	1.141e-05	1.1412e-05	522.68	197.11	1.1378e-05	1.1496e-05	175.95	51.806	60.057	20.105	1.1227e-05	20.824	48.954	109.430	11.416	-49.221	123.670	33.428	-50.542	-44.527	-18.440	69.522	-47.365	-42.847	-39.822	-36.539	38.250	-40.320	-8191	255	
3403.206	1	1	0	0	0.23578	0.37083	0.11869	0.21184	0.18305	0.3424	0.23267	0.1085	0.25884	0.13986	0.23263	0.054299	0.20422	0.2078	0.17152	0.38357	0.17083	-0.45833	-0.81042	-0.0020833	-0.85833	-0.425	-0.30625	-1.3937	-0.14583	-0.71042	-0.98958	-0.060417	-1.0125	-0.67083	-0.19167	-1.1125	24.747	64.566	65.800	257.123	230.847	99.619	192.436	226.358	114.195	59.848	168.513	156.313	-31.576	47.577	295.891	206.921	0.00013006	0.00016548	0.00016701	638.91	1.9608e-05	5.2586e-06	495.68	192.93	1.0272e-05	5.5599e-06	156.25	44.572	55.314	18.054	5.626e-06	18.002	0.0010083	0.0010321	0.00028535	648.1	1.1245e-05	1.1165e-05	515.64	196.31	1.1266e-05	1.1298e-05	173.34	50.634	59.482	19.789	1.1413e-05	20.635	68.004	15.892	20.230	-49.463	108.588	45.103	-51.402	-44.491	86.642	7.229	-47.262	-43.390	-40.451	-36.130	250.768	-39.765	-8191	255	
3403.327	1	1	0	0	0.12573	0.15602	0.19128	0.18111	0.047122	0.17839	0.30065	0.24614	0.12292	0.22481	0.12315	0.13996	0.11769	0.078828	0.23257	0.18634	0.1625	-0.56458	-1.0938	-0.35208	-0.86875	-0.73958	-0.033333	-1.0604	-0.29583	-0.52083	-1.0812	-0.19167	-0.88542	-0.65833	-0.19583	-1.1646	4.199	206.652	239.343	286.897	171.391	80.355	254.048	225.216	280.503	-11.274	276.533	134.885	193.021	56.318	73.037	257.208	0.00048677	0.00059288	2.2135e-05	634.9	1.541e-06	3.3385e-06	496	192.24	1.2798e-05	4.4576e-06	159.58	45.211	56.137	18.2	7.6486e-06	18.294	0.0010165	0.0010393	0.00028581	645.76	1.1318e-05	1.1374e-05	517.8	196.14	1.1444e-05	1.146e-05	174.74	51.208	59.867	20.01	1.1494e-05	21.059	3.926	255.515	109.671	-49.309	29.389	33.424	-51.015	-44.578	88.432	232.685	-47.120	-42.544	-40.289	-36.916	266.696	-40.285	-8191	255	
3403.423	1	1	0	0	0.073591	0.096721	0.079347	0.12047	0.24253	0.058234	0.28125	0.096468	0.15787	0.052704	0.13582	0.17366	0.3489	0.31026	0.24113	0.24088	0.12083	-0.325	-0.99792	-0.18542	-0.70833	-0.88125	-0.29375	-1.2437	-0.44167	-0.41042	-1.2271	-0.3125	-0.65833	-1.0167	0.045833	-1.0458	103.004	163.041	137.502	152.031	-18.904	237.908	191.253	99.400	-46.387	200.620	265.012	-54.519	90.101	215.859	34.714	-22.350	0.00054758	0.00039443	0.0002874	640.46	8.0435e-06	9.8678e-06	496.35	193.92	7.41e-06	1.318e-06	158.85	45.286	55.699	18.249	2.5838e-06	18.359	0.0010263	0.0010451	0.00029445	647.98	1.1454e-05	1.159e-05	519.7	197.32	1.1561e-05	1.1661e-05	175.66	51.896	60.194	20.13	1.1793e-05	21.284	101.963	241.683	287.709	-49.600	111.964	118.902	-50.621	-44.334	206.965	-45.694	-47.250	-42.610	-40.168	-36.011	-35.129	-39.333	-8191	255	
3403.519	1	1	0	0	0.12976	0.19173	0.15963	0.29721	0.15206	0.13106	0.25189	0.18396	0.088179	0.23882	0.20892	0.28604	0.17505	0.19758	0.55654	0.17958	-0.18333	-0.35417	-1.1187	-0.49167	-0.62292	-0.91458	-0.14375	-0.90625	-0.50625	-0.30208	-0.92708	-0.34792	-0.49167	-1.1729	-0.15	-0.81667	282.190	-53.597	192.405	246.926	188.251	38.457	235.220	-19.375	-38.981	-3.759	210.523	245.268	263.912	73.374	218.238	47.034	0.0002875	0.00056602	0.00016574	638.39	8.8668e-06	6.5551e-06	498.64	193.17	1.2166e-05	5.2138e-06	160.57	46.58	55.859	18.532	4.7159e-06	18.691	0.0010487	0.0010902	0.00030335	650.54	1.1979e-05	1.191e-05	522.82	197.68	1.1875e-05	1.213e-05	177.66	52.716	60.533	20.33	1.1968e-05	21.626	292.295	-56.838	97.376	-49.333	69.258	71.758	-50.732	-44.530	90.689	159.332	-47.156	-42.900	-39.825	-36.246	-41.300	-39.417	-8191	255	
#DATA ENDS
