BOXY.EXE: ISS Imagent and Oximeter Data Acquisition Program Version 0.80
Ascii Record File

#ACQ INFORMATION
2  Detector Channels 
16  External MUX Channels 
1  Auxiliary Channels 
5000  Waveform (CCF) Frequency (Hz)
1  Waveforms Skipped 
30  Waveforms Averaged 
1  Cycles Averaged 
16  Acquisitions per Waveform 
10.0806  Updata Rate (Hz) 

#FILE INFORMATION
TRUE -- External MUX Channel results are PARSED.
FALSE -- AC DC and Phase are NOT grouped.
TRUE -- Companion Program Settings File CREATED.
FALSE -- AC data not excluded
FALSE -- DC data not excluded
FALSE -- Phase data not excluded
FALSE -- Auxillary Chn. data not excluded
Tab delimiters

#CALIBRATION STATE
TRUE -- Waveform Calibration Values APPLIED.


#AUX CALIBRATION VALUES
Val Type	aux-1	

Term	1.0000e+00	
Factor	0.0000e+00	


#WF CALIBRATION VALUES
A = Detector Channel
Val Type	A-AC1	A-AC2	A-AC3	A-AC4	A-AC5	A-AC6	A-AC7	A-AC8	A-AC9	A-AC10	A-AC11	A-AC12	A-AC13	A-AC14	A-AC15	A-AC16	A-DC1	A-DC2	A-DC3	A-DC4	A-DC5	A-DC6	A-DC7	A-DC8	A-DC9	A-DC10	A-DC11	A-DC12	A-DC13	A-DC14	A-DC15	A-DC16	A-Ph1	A-Ph2	A-Ph3	A-Ph4	A-Ph5	A-Ph6	A-Ph7	A-Ph8	A-Ph9	A-Ph10	A-Ph11	A-Ph12	A-Ph13	A-Ph14	A-Ph15	A-Ph16	

Term	0.00000e+00	0.00000e+00	0.00000e+00	0.00000e+00	0.00000e+00	0.00000e+00	0.00000e+00	0.00000e+00	0.00000e+00	0.00000e+00	0.00000e+00	0.00000e+00	0.00000e+00	0.00000e+00	0.00000e+00	0.00000e+00	0.00000e+00	0.00000e+00	0.00000e+00	0.00000e+00	0.00000e+00	0.00000e+00	0.00000e+00	0.00000e+00	0.00000e+00	0.00000e+00	0.00000e+00	0.00000e+00	0.00000e+00	0.00000e+00	0.00000e+00	0.00000e+00	0.00000e+00	0.00000e+00	0.00000e+00	0.00000e+00	0.00000e+00	0.00000e+00	0.00000e+00	0.00000e+00	0.00000e+00	0.00000e+00	0.00000e+00	0.00000e+00	0.00000e+00	0.00000e+00	0.00000e+00	0.00000e+00	
Factor	1.00000e+00	1.00000e+00	1.00000e+00	1.00000e+00	1.00000e+00	1.00000e+00	1.00000e+00	1.00000e+00	1.00000e+00	1.00000e+00	1.00000e+00	1.00000e+00	1.00000e+00	1.00000e+00	1.00000e+00	1.00000e+00	1.00000e+00	1.00000e+00	1.00000e+00	1.00000e+00	1.00000e+00	1.00000e+00	1.00000e+00	1.00000e+00	1.00000e+00	1.00000e+00	1.00000e+00	1.00000e+00	1.00000e+00	1.00000e+00	1.00000e+00	1.00000e+00	X	X	X	X	X	X	X	X	X	X	X	X	X	X	X	X	

B = Detector Channel
Val Type	B-AC1	B-AC2	B-AC3	B-AC4	B-AC5	B-AC6	B-AC7	B-AC8	B-AC9	B-AC10	B-AC11	B-AC12	B-AC13	B-AC14	B-AC15	B-AC16	B-DC1	B-DC2	B-DC3	B-DC4	B-DC5	B-DC6	B-DC7	B-DC8	B-DC9	B-DC10	B-DC11	B-DC12	B-DC13	B-DC14	B-DC15	B-DC16	B-Ph1	B-Ph2	B-Ph3	B-Ph4	B-Ph5	B-Ph6	B-Ph7	B-Ph8	B-Ph9	B-Ph10	B-Ph11	B-Ph12	B-Ph13	B-Ph14	B-Ph15	B-Ph16	

Term	0.00000e+00	0.00000e+00	0.00000e+00	0.00000e+00	0.00000e+00	0.00000e+00	0.00000e+00	0.00000e+00	0.00000e+00	0.00000e+00	0.00000e+00	0.00000e+00	0.00000e+00	0.00000e+00	0.00000e+00	0.00000e+00	0.00000e+00	0.00000e+00	0.00000e+00	0.00000e+00	0.00000e+00	0.00000e+00	0.00000e+00	0.00000e+00	0.00000e+00	0.00000e+00	0.00000e+00	0.00000e+00	0.00000e+00	0.00000e+00	0.00000e+00	0.00000e+00	6.90162e+01	-1.56128e+02	-1.16186e+02	-1.81639e+02	-7.96074e+01	-9.11058e+01	-1.56882e+02	-1.62015e+02	-1.33922e+02	-6.75792e+01	-1.72122e+02	-1.69516e+02	-1.85555e+02	-1.76516e+02	-9.85877e+01	-1.49146e+02	
Factor	6.21861e-05	1.15743e-04	3.18327e-05	1.64936e-01	1.44916e-06	1.20847e-06	1.76422e-01	5.14978e-02	1.99006e-06	1.27802e-06	8.81120e-02	2.83650e-02	2.55766e-02	8.90638e-03	1.90026e-06	1.25959e-02	1.53080e-06	1.58230e-06	4.40569e-07	8.63224e-02	1.72893e-08	1.73607e-08	8.67342e-02	2.69960e-02	1.72581e-08	1.73857e-08	4.42118e-02	1.42717e-02	1.32884e-02	4.65608e-03	1.73092e-08	6.35628e-03	X	X	X	X	X	X	X	X	X	X	X	X	X	X	X	X	



#DISTANCE SETTINGS
A = Detector Channel
A-1	A-2	A-3	A-4	A-5	A-6	A-7	A-8	A-9	A-10	A-11	A-12	A-13	A-14	A-15	A-16	

2.5000e+00	3.0000e+00	2.5000e+00	3.0000e+00	2.0000e+00	3.0000e+00	1.5000e+00	3.0000e+00	3.0000e+00	3.0000e+00	3.0000e+00	3.0000e+00	3.0000e+00	3.0000e+00	1.5000e+00	3.0000e+00	

B = Detector Channel
B-1	B-2	B-3	B-4	B-5	B-6	B-7	B-8	B-9	B-10	B-11	B-12	B-13	B-14	B-15	B-16	

1.0000e+01	1.0000e+01	1.0000e+01	1.4400e+00	1.0000e+01	1.0000e+01	1.5100e+00	1.9400e+00	1.0000e+01	1.0000e+01	1.9900e+00	2.4900e+00	2.4100e+00	2.9000e+00	1.0000e+01	2.9800e+00	




#DATA BEGINS
time	group	step	mark	flag	A-AC1	A-AC2	A-AC3	A-AC4	A-AC5	A-AC6	A-AC7	A-AC8	A-AC9	A-AC10	A-AC11	A-AC12	A-AC13	A-AC14	A-AC15	A-AC16	A-DC1	A-DC2	A-DC3	A-DC4	A-DC5	A-DC6	A-DC7	A-DC8	A-DC9	A-DC10	A-DC11	A-DC12	A-DC13	A-DC14	A-DC15	A-DC16	A-Ph1	A-Ph2	A-Ph3	A-Ph4	A-Ph5	A-Ph6	A-Ph7	A-Ph8	A-Ph9	A-Ph10	A-Ph11	A-Ph12	A-Ph13	A-Ph14	A-Ph15	A-Ph16	B-AC1	B-AC2	B-AC3	B-AC4	B-AC5	B-AC6	B-AC7	B-AC8	B-AC9	B-AC10	B-AC11	B-AC12	B-AC13	B-AC14	B-AC15	B-AC16	B-DC1	B-DC2	B-DC3	B-DC4	B-DC5	B-DC6	B-DC7	B-DC8	B-DC9	B-DC10	B-DC11	B-DC12	B-DC13	B-DC14	B-DC15	B-DC16	B-Ph1	B-Ph2	B-Ph3	B-Ph4	B-Ph5	B-Ph6	B-Ph7	B-Ph8	B-Ph9	B-Ph10	B-Ph11	B-Ph12	B-Ph13	B-Ph14	B-Ph15	B-Ph16	aux-1	digaux	

2073.620	1	1	0	256	0.28355	0.25517	0.18472	0.19031	0.12458	0.22155	0.25389	0.051677	0.33187	0.31273	0.23632	0.19424	0.23997	0.31195	0.27828	0.39049	0.027083	-0.65833	-0.80625	-0.46875	-1.2646	-0.66875	-0.65417	-1.2437	-0.2375	-0.625	-1.1292	-0.14167	-1.2667	-0.62708	-0.44792	-1.075	-35.416	-76.460	-23.014	-155.392	49.016	58.722	117.211	147.733	-158.097	169.735	154.329	-111.705	134.644	136.535	-97.996	61.421	0.0016796	0.00021335	0.00014309	1426.5	3.0451e-06	3.8789e-06	1420.4	395.51	3.815e-06	4.2167e-06	444.21	144.91	127.9	41.876	8.8407e-06	51.523	0.00010065	7.3844e-05	1.9886e-05	1421.5	8.3338e-07	8.0018e-07	1414.3	393.7	8.601e-07	7.7558e-07	440.69	143.25	125.93	41.702	8.0152e-07	51.361	39.497	-144.913	-77.889	-160.348	-64.567	-42.848	-160.361	-155.820	-104.217	-26.775	-156.140	-152.158	-151.525	-146.708	-97.957	-147.482	-8191	255	
2073.716	1	1	0	0	0.12426	0.18241	0.16349	0.31764	0.052568	0.16578	0.32609	0.074289	0.19935	0.14639	0.34483	0.26473	0.32278	0.16264	0.17785	0.073003	0.03125	-0.55417	-1.0917	-0.22292	-1.1	-0.50833	-0.69375	-1.4354	-0.29167	-0.85625	-1.1437	-0.60417	-1.0896	-1.0333	-0.33125	-1.3833	-135.093	-123.427	-163.013	135.486	-139.423	172.809	115.863	113.787	-144.402	-62.041	179.219	160.691	136.305	138.422	114.275	1.358	0.001718	0.00035592	0.00014143	1422.4	5.2252e-06	2.3508e-06	1413	393.35	7.7076e-06	2.3327e-06	444.78	144.56	127.92	41.952	1.0363e-05	51.49	0.00010164	7.03e-05	2.0062e-05	1417.2	8.207e-07	7.8673e-07	1410.5	392.49	8.3087e-07	7.7468e-07	439.66	143.1	125.91	41.636	7.9723e-07	51.253	39.662	-126.197	-77.405	-160.405	-71.639	-66.746	-160.710	-155.989	-108.935	-31.290	-156.732	-152.386	-151.851	-146.986	-72.907	-147.923	-8191	255	
2073.787	1	1	0	0	0.12422	0.20926	0.076522	0.14721	0.15377	0.20893	0.27095	0.2516	0.13942	0.14464	0.12575	0.21536	0.12996	0.047743	0.069138	0.51033	-0.12083	-0.54375	-1.1125	-0.39583	-0.8625	-0.80625	-0.40625	-1.4208	-0.64792	-0.45208	-1.4125	-0.26875	-0.87917	-1.1562	-0.072917	-1.2146	172.363	28.312	-77.047	140.437	38.098	52.869	58.379	15.751	143.254	-56.223	141.631	165.365	19.760	28.592	29.406	94.514	0.0016676	0.00044302	5.9517e-05	1419.5	4.7462e-06	2.5426e-06	1408.1	394.39	9.7003e-06	3.5036e-06	445.08	144.04	127.5	41.879	8.5589e-06	51.504	0.00010037	7.0571e-05	1.9585e-05	1415.8	8.0122e-07	7.6926e-07	1407.9	392.43	8.2389e-07	7.6226e-07	438.69	142.53	125.77	41.649	8.0502e-07	51.28	38.263	-112.979	-41.887	-160.747	-66.718	-40.625	-160.752	-155.746	-129.229	10.057	-156.300	-152.091	-151.274	-146.455	-48.295	-147.311	-8191	255	
2073.908	1	1	0	0	0.18782	0.10089	0.17753	0.40348	0.29548	0.24625	0.43914	0.13702	0.020131	0.16715	0.25021	0.16656	0.26223	0.36748	0.20929	0.092687	-0.30208	-0.41042	-1.2354	-0.45	-0.87708	-0.88125	-0.39583	-1.0812	-0.53958	-0.42292	-1.2542	-0.50417	-1.1458	-0.96875	-0.33125	-0.95625	-13.113	160.311	-66.072	146.677	-43.890	-155.311	158.442	49.862	-128.175	-165.266	121.445	119.041	182.350	161.857	-105.091	-85.047	0.0016849	0.00049009	7.0892e-05	1423.2	2.8973e-06	3.8458e-06	1411.8	392.24	6.3263e-06	7.6975e-06	445.07	144.09	127.4	41.933	3.9067e-06	51.718	9.9087e-05	7.0801e-05	1.9279e-05	1415.8	8.1199e-07	7.7042e-07	1408.4	392	8.3605e-07	7.9605e-07	439.43	142.88	125.73	41.614	8.1627e-07	51.273	39.224	-91.706	-65.953	-160.156	-72.396	-51.572	-160.780	-155.552	-126.614	-20.720	-156.182	-152.161	-150.947	-146.512	-74.280	-147.127	-8191	255	
2074.003	1	1	0	0	0.24282	0.16976	0.12675	0.36655	0.29088	0.084494	0.20151	0.24921	0.11722	0.21465	0.17823	0.23444	0.16908	0.244	0.10437	0.13394	-0.28958	-0.33542	-1.0104	-0.7	-0.61667	-1.0604	-0.28958	-1.1396	-0.76042	-0.40625	-1.525	-0.40417	-0.74375	-1.1375	-0.14167	-1.1125	-165.987	115.808	-82.215	156.753	-123.286	-165.828	79.324	-6.078	73.418	35.276	169.739	-74.721	142.060	182.175	-35.952	107.559	0.001713	0.00027716	7.5403e-05	1416	5.1029e-06	4.0208e-06	1410.9	393.46	9.5517e-06	4.7073e-06	445.26	144.13	127.45	41.906	8.9146e-06	51.566	9.7579e-05	7.2466e-05	1.9846e-05	1415.6	8.3763e-07	7.94e-07	1409	392.67	8.3817e-07	7.8e-07	439.88	142.76	125.55	41.647	8.299e-07	51.345	37.966	-131.995	-104.038	-159.848	-24.658	-21.688	-160.266	-155.246	-108.893	-25.033	-156.268	-152.203	-151.329	-146.606	-70.758	-147.697	-8191	255	
2074.099	1	1	0	0	0.19082	0.26726	0.26118	0.34783	0.088439	0.16178	0.17801	0.2848	0.35841	0.19011	0.11712	0.4448	0.35937	0.074056	0.21663	0.20042	-0.37292	-0.50208	-1.0646	-0.72083	-0.35833	-1.1271	-0.65625	-1.0583	-0.98125	-0.0125	-1.3521	-0.69167	-0.65833	-1.1812	-0.36667	-0.99167	44.719	-35.708	99.802	-164.417	-66.746	9.783	115.024	172.294	-41.081	103.384	-143.355	161.740	183.955	151.101	19.535	-116.856	0.001662	0.00043174	9.3534e-05	1425.7	3.7367e-06	3.6842e-06	1409.9	395.7	8.7047e-06	2.6267e-06	444.61	144.67	126.96	41.759	6.6909e-06	51.51	9.9527e-05	7.3472e-05	2.0316e-05	1416.5	8.4113e-07	8.2756e-07	1408.8	393.61	8.3486e-07	8.1097e-07	439.64	142.88	125.67	41.594	8.4588e-07	51.27	36.467	-127.418	-66.070	-160.117	-50.521	-31.612	-160.205	-155.523	-133.471	-16.644	-156.176	-152.374	-151.292	-146.856	-89.054	-147.356	-8191	255	
2074.195	1	1	0	0	0.20436	0.34859	0.21883	0.2991	0.14013	0.18814	0.19544	0.23752	0.10117	0.24237	0.10591	0.17012	0.21807	0.099772	0.043419	0.04819	-0.73125	-0.058333	-1.2833	-0.68958	-0.49583	-0.85833	-0.70417	-0.74167	-1.0063	-0.035417	-1.1625	-0.70417	-0.36042	-1.1792	-0.41875	-0.58542	-102.070	-69.970	-119.752	159.465	171.543	-77.279	154.467	147.045	110.047	-64.685	-153.553	146.352	-165.016	-140.348	55.605	124.826	0.0017451	0.00052685	0.00013907	1418.7	6.4811e-06	4.2456e-06	1410	394.78	1.1023e-05	5.3047e-06	443.79	144.26	127.1	42	5.4535e-06	51.428	0.00010222	7.5802e-05	2.0272e-05	1415.7	8.3857e-07	7.6231e-07	1408.5	392.53	8.3198e-07	8.189e-07	438.83	142.95	125.71	41.72	8.2265e-07	51.205	37.811	-123.204	-69.314	-160.359	-48.709	-80.209	-160.373	-155.673	-102.699	-2.815	-156.287	-152.327	-151.549	-146.911	-72.048	-147.566	-8191	255	
2074.291	1	1	0	0	0.055992	0.1046	0.045849	0.3246	0.04502	0.15368	0.39859	0.13968	0.36759	0.45412	0.35983	0.23104	0.16611	0.068227	0.16154	0.33408	-0.80208	-0.21458	-0.875	-0.97292	-0.3375	-0.97708	-0.81875	-0.60625	-1.1521	-0.45208	-1.0292	-0.79375	-0.47917	-1.1979	-0.56875	-0.51875	-65.134	105.459	-124.399	172.145	-68.442	-50.562	141.456	180.920	-16.295	79.019	-166.720	80.671	104.459	97.918	-122.424	168.342	0.0016991	0.00046142	0.00010855	1421	2.9078e-06	3.3886e-06	1409.9	394.66	1.1672e-05	4.2346e-06	442.79	144.13	127.39	41.826	8.1464e-06	51.272	9.939e-05	7.3663e-05	2.0125e-05	1415.5	8.4451e-07	8.0803e-07	1407.9	393.07	8.2336e-07	8.0471e-07	438.76	142.61	125.74	41.624	8.1634e-07	51.148	39.281	-95.977	-49.794	-160.360	-32.289	-41.448	-160.887	-156.131	-122.624	-22.948	-156.703	-152.665	-151.929	-147.101	-76.037	-148.194	-8191	255	
2074.387	1	1	0	0	0.18349	0.2686	0.11143	0.053859	0.21085	0.20357	0.40214	0.23985	0.26323	0.34861	0.30486	0.33886	0.06146	0.19034	0.070149	0.13973	-0.77083	-0.34167	-0.69375	-1.1625	-0.18958	-0.89167	-0.68125	-0.57292	-1.0354	-0.3875	-0.91667	-1	-0.22917	-1.1583	-0.53542	-0.60208	147.351	15.207	83.815	107.266	-151.181	33.477	137.259	155.608	141.441	18.177	174.644	181.449	-76.574	161.630	-58.246	24.184	0.0017012	0.00037853	0.00013384	1424	3.2408e-06	3.272e-06	1412.3	394.52	9.3829e-06	3.3177e-06	444.66	144.67	127.3	41.811	8.7337e-06	51.59	9.747e-05	7.1919e-05	2.0374e-05	1415.7	8.3518e-07	8.1208e-07	1409.7	393.36	8.4166e-07	7.9478e-07	439.66	143.13	125.69	41.646	8.0621e-07	51.214	38.858	-104.706	-74.925	-160.532	-28.458	-57.303	-160.910	-156.164	-117.424	-12.824	-156.440	-152.670	-151.497	-146.795	-54.963	-147.492	-8191	255	
2074.483	1	1	0	0	0.33121	0.16434	0.18758	0.24732	0.22746	0.28391	0.1459	0.15709	0.19062	0.20191	0.18664	0.23551	0.13518	0.27537	0.031849	0.067099	-0.90625	-0.58333	-0.77917	-1.1771	-0.052083	-1.1042	-0.4875	-0.58542	-1.2229	-0.43958	-0.89375	-1.0562	-0.37083	-1.1854	-0.84583	-0.32292	-170.295	108.626	-30.013	174.021	29.350	-103.913	22.894	-108.116	49.488	-48.451	-123.017	-154.725	-71.586	-159.632	-78.008	-87.340	0.0017113	0.00041815	5.9744e-05	1423.3	3.5433e-06	5.3348e-06	1410.8	394.32	7.3715e-06	4.5926e-06	444.65	144.25	127.9	42.106	8.9405e-06	51.295	0.00010086	7.2549e-05	2.0112e-05	1416.6	8.4966e-07	7.7747e-07	1407.8	393.19	8.4442e-07	7.9105e-07	438.89	142.87	125.74	41.646	8.277e-07	51.247	38.567	-93.748	-86.173	-160.527	-73.972	-43.241	-161.202	-156.011	-138.484	-25.714	-156.663	-152.620	-151.858	-146.856	-45.616	-147.928	-8191	255	
2074.579	1	1	0	0	0.29416	0.060581	0.087321	0.34896	0.2477	0.15975	0.36358	0.48787	0.1952	0.17576	0.40074	0.24528	0.29813	0.2737	0.15156	0.2027	-0.7	-0.35	-0.73958	-1.3312	-0.29167	-1.025	-1.0271	-0.48333	-1.0333	-0.40833	-0.73125	-1.2896	-0.6	-1.0021	-0.91042	-0.29583	-62.043	-145.839	20.423	149.412	118.260	48.472	133.527	176.860	-83.002	160.316	134.780	116.700	143.694	115.945	-41.112	101.052	0.0017136	0.00047669	9.9881e-05	1422.8	5.8817e-06	4.3345e-06	1410.3	393.92	9.1603e-06	2.8051e-06	445.21	144.56	126.92	41.723	6.6056e-06	51.352	0.00010078	7.3135e-05	2.0073e-05	1418.2	8.3371e-07	7.9063e-07	1409.7	392.83	8.4504e-07	7.6946e-07	439.73	142.84	125.58	41.63	8.0192e-07	51.222	36.611	-137.859	-81.410	-160.155	-49.567	-65.840	-160.620	-155.860	-104.440	3.940	-156.516	-152.304	-151.520	-146.556	-79.067	-147.771	-8191	255	
2074.700	1	1	0	0	0.10758	0.19734	0.17632	0.25301	0.14892	0.10102	0.35651	0.21718	0.22654	0.13745	0.33992	0.29367	0.48067	0.14987	0.17725	0.13174	-0.96667	-0.49167	-0.21042	-1.2792	-0.2875	-0.73542	-1.2771	-0.26458	-1.2521	-0.64583	-0.37292	-1.3021	-0.30417	-0.98542	-1.1812	-0.2875	97.732	186.106	13.576	174.930	-78.980	16.127	78.796	144.144	16.288	-79.083	117.736	179.849	125.669	105.054	51.561	133.017	0.0016286	0.00036319	0.00011077	1419.7	4.5361e-06	4.4787e-06	1413.1	392.97	1.1896e-05	4.0017e-06	443.77	144.54	127.65	41.746	7.0769e-06	51.607	9.9827e-05	7.3709e-05	2.0754e-05	1416.4	8.2557e-07	7.8496e-07	1410.1	392.26	8.4151e-07	7.7146e-07	439.35	142.8	125.64	41.592	8.3044e-07	51.273	37.095	-93.336	-50.077	-160.309	-53.696	-51.069	-160.852	-155.836	-125.227	-50.272	-156.847	-152.190	-151.609	-146.730	-84.634	-147.837	-8191	255	
2074.796	1	1	0	0	0.058133	0.23391	0.33755	0.335	0.13711	0.16818	0.22227	0.14756	0.15956	0.21903	0.18645	0.15093	0.18898	0.088958	0.092334	0.22682	-0.69375	-0.60208	-0.24375	-1.4	-0.28958	-0.63333	-1.0208	-0.49167	-1.0479	-0.88333	-0.53125	-1.0583	-0.60625	-0.45208	-1.1063	-0.40625	90.798	155.282	-118.088	116.021	-83.605	-27.883	184.255	-55.664	124.774	164.763	-101.179	88.275	185.469	85.688	138.954	135.426	0.0017486	0.00030349	9.8944e-05	1423.7	4.4925e-06	3.4055e-06	1415.7	394.23	7.4657e-06	2.7436e-06	444.12	144.11	127.36	41.819	6.6079e-06	51.514	9.9508e-05	7.2727e-05	2.0183e-05	1418.2	8.5676e-07	7.8553e-07	1411.2	392.87	8.5057e-07	7.9645e-07	439.12	142.8	125.74	41.583	8.1912e-07	51.231	37.397	-118.973	-50.476	-160.249	-50.244	-61.699	-160.849	-155.914	-118.787	-8.369	-156.297	-152.281	-151.609	-146.628	-76.307	-147.710	-8191	255	
2074.891	1	1	0	0	0.35964	0.18599	0.062249	0.3459	0.3926	0.2245	0.35184	0.27074	0.1272	0.19185	0.065925	0.11794	0.038945	0.13108	0.15588	0.2493	-0.84792	-0.7375	-0.28542	-1.3458	-0.44375	-0.44583	-1.1708	-0.39792	-0.63958	-0.84583	-0.29167	-1.2458	-0.53542	-0.48958	-1.1625	-0.46667	-18.358	131.228	-47.188	164.236	-11.025	47.472	95.256	126.245	-126.205	-171.486	-52.600	102.912	-29.677	-72.701	158.396	-18.582	0.0016069	0.00056766	0.00010248	1422.8	5.3321e-06	2.3695e-06	1409.5	393.58	1.0905e-05	4.3759e-06	444.67	144.43	127.43	41.701	6.5921e-06	51.687	0.00010083	7.3211e-05	2.0137e-05	1418.2	8.5049e-07	7.9776e-07	1410.3	392.18	8.5208e-07	7.8225e-07	439.77	143.03	125.59	41.586	8.0001e-07	51.235	38.061	-134.573	-72.383	-159.922	-56.604	-49.825	-160.606	-156.007	-114.197	-4.903	-156.595	-152.251	-151.626	-146.745	-52.001	-147.519	-8191	255	
2074.988	1	1	0	0	0.093073	0.099908	0.03947	0.12154	0.091687	0.047217	0.10766	0.44884	0.23483	0.36262	0.12907	0.23493	0.22403	0.33522	0.051114	0.073041	-0.46875	-0.95	-0.2125	-1.025	-0.65	-0.31875	-1.2687	-0.52917	-0.72708	-1.0792	-0.37708	-1.0521	-0.70417	-0.38542	-1.1229	-0.31458	-50.967	45.836	-84.592	111.742	-130.938	90.373	2.492	77.374	-54.868	82.009	-112.296	173.534	-155.536	88.404	-159.937	-165.940	0.0016099	0.00054116	5.9694e-05	1421.5	4.1777e-06	4.0406e-06	1414.9	393.34	8.6484e-06	4.3976e-06	445.01	144.31	127.27	41.774	6.979e-06	51.576	9.8963e-05	7.3458e-05	2.0229e-05	1417.7	7.9012e-07	7.5566e-07	1411.4	392.24	8.2141e-07	7.6117e-07	438.78	142.87	125.4	41.53	7.7859e-07	51.235	39.588	-105.401	-62.442	-159.915	-49.720	-45.198	-160.427	-156.176	-116.558	-4.379	-156.806	-152.527	-152.101	-146.845	-57.871	-148.001	-8191	255	
2075.083	1	1	0	0	0.11859	0.032494	0.23089	0.28615	0.21496	0.0095847	0.044675	0.42184	0.10822	0.21159	0.10007	0.079781	0.13065	0.10689	0.20836	0.29809	-0.25417	-0.8375	-0.03125	-1.0438	-0.93542	-0.36667	-1.1979	-0.67708	-0.46458	-0.97708	-0.19375	-1.0208	-0.99792	-0.17292	-0.96042	-0.5625	-167.193	55.451	13.617	-171.145	-80.793	-134.486	-23.762	177.622	33.999	-160.396	104.024	176.445	-156.400	138.278	-34.411	54.193	0.0017515	0.00041219	9.809e-05	1422.4	6.4669e-06	2.7745e-06	1413.5	394.28	7.7609e-06	3.0776e-06	444.37	144.42	126.76	41.754	5.9524e-06	51.258	9.6182e-05	6.9944e-05	1.943e-05	1415.3	8.0871e-07	7.6463e-07	1407.7	392.38	8.116e-07	7.5367e-07	438.74	142.69	125.26	41.545	7.7776e-07	51.116	37.016	-115.582	-90.129	-160.539	-46.264	-20.101	-161.110	-156.280	-112.727	-7.355	-156.568	-152.491	-151.987	-147.003	-65.330	-148.266	-8191	255	
2075.179	1	1	0	0	0.19332	0.17307	0.30922	0.23302	0.1607	0.20612	0.33247	0.43992	0.13495	0.25656	0.4506	0.26262	0.14193	0.29316	0.25798	0.047342	-0.020833	-1.1	-0.15625	-0.99375	-0.82083	-0.17083	-1.15	-0.75417	-0.17292	-1.0604	-0.5125	-0.8375	-1.0125	-0.22083	-0.94583	-0.67083	179.778	-29.210	-91.854	57.541	77.770	-20.990	110.231	124.897	-94.758	-1.741	106.099	134.732	-72.162	184.516	-35.969	120.606	0.0016659	0.00033676	0.00010922	1417.5	4.4758e-06	3.1846e-06	1412.3	391.81	9.2115e-06	2.5625e-06	443.3	143.78	126.96	41.781	6.9059e-06	51.215	9.8137e-05	7.0373e-05	1.9838e-05	1412.7	8.1433e-07	7.5338e-07	1407.9	391.77	8.2641e-07	7.6294e-07	438.57	142.39	125.34	41.517	8.0127e-07	51.081	37.905	-128.007	-87.827	-160.551	-73.155	-44.047	-160.900	-156.184	-125.130	-25.233	-156.815	-152.447	-151.926	-147.464	-76.080	-147.922	-8191	255	
2075.300	1	1	0	0	0.15351	0.11157	0.34746	0.38996	0.31671	0.03875	0.20381	0.55099	0.028555	0.24624	0.29083	0.30791	0.28502	0.16682	0.13818	0.078201	0.14375	-1.1854	-0.23333	-0.7875	-1.2125	-0.18958	-1.2125	-0.925	-0.1875	-1.4146	-0.6125	-0.725	-1.3146	-0.12292	-0.825	-0.93125	69.353	78.924	103.235	155.046	32.604	-41.785	2.421	131.468	71.564	-145.522	59.110	157.171	88.623	-66.128	51.183	147.961	0.0015967	0.00047063	0.00010499	1418.3	6.2958e-06	4.7395e-06	1412.8	394.31	5.0098e-06	3.8539e-06	441.34	143.76	127.06	41.676	5.0417e-06	51.374	9.7145e-05	7.0501e-05	1.9618e-05	1414.7	8.0208e-07	7.7646e-07	1408.5	391.85	8.148e-07	7.5708e-07	437.69	142.44	125.56	41.521	7.7437e-07	51.124	38.069	-108.165	-69.594	-160.500	-48.337	-42.974	-160.713	-156.023	-121.629	-32.613	-156.612	-152.348	-151.868	-146.909	-62.320	-148.040	-8191	255	
2075.396	1	1	0	0	0.13916	0.19178	0.30804	0.18153	0.23802	0.19952	0.35433	0.051129	0.092488	0.15906	0.1828	0.38642	0.34591	0.24411	0.20173	0.31827	0.089583	-0.91667	-0.47292	-0.74167	-1.1917	-0.079167	-1.0812	-0.9125	-0.18333	-1.1	-0.7375	-0.43958	-1.1375	-0.51667	-0.76458	-0.95625	-113.423	-24.985	-133.872	179.330	135.539	-19.606	117.799	-110.689	-122.240	-49.308	-160.230	171.528	-172.014	-99.650	165.913	-9.762	0.00161	0.00050367	0.00014471	1420.1	4.8468e-06	3.4246e-06	1408.7	392.45	1.1654e-05	3.8772e-06	443.24	144.09	127.2	41.656	5.5595e-06	51.594	9.7572e-05	7.0363e-05	2.0115e-05	1413.7	8.1616e-07	7.7772e-07	1405.4	391.75	8.6844e-07	7.8066e-07	438.37	142.42	125.52	41.398	8.0671e-07	51.141	38.337	-100.630	-72.865	-160.384	-57.886	-62.706	-160.503	-155.799	-130.375	-53.557	-156.687	-152.292	-151.401	-146.828	-74.690	-147.288	-8191	255	
2075.492	1	1	0	0	0.12312	0.19084	0.255	0.17011	0.11061	0.10773	0.34946	0.40765	0.20327	0.098959	0.10671	0.29229	0.22944	0.43022	0.23314	0.071382	0.13333	-1.1854	-0.58125	-0.35	-1.1292	-0.125	-1.0542	-1.1375	-0.23125	-1.1187	-0.83542	-0.525	-1.2792	-0.36667	-0.70625	-1.2083	159.196	-21.893	-97.641	83.360	51.553	-116.421	95.706	159.245	-18.126	-53.781	175.943	118.915	163.808	150.221	84.987	-37.052	0.0015796	0.00024295	0.00011725	1421.7	5.8501e-06	4.3567e-06	1414.2	393.61	6.7582e-06	3.7985e-06	444.11	143.74	127.24	41.553	6.4216e-06	51.394	9.9773e-05	7.0436e-05	2.0168e-05	1416.5	8.2092e-07	7.8434e-07	1409.1	391.98	8.4849e-07	7.783e-07	438.42	142.55	125.27	41.448	8.277e-07	51.082	39.486	-104.854	-77.150	-160.422	-53.272	-43.923	-160.770	-156.005	-123.669	-42.757	-156.510	-152.117	-151.806	-147.022	-63.346	-148.051	-8191	255	
2075.588	1	1	0	0	0.077341	0.23858	0.17955	0.28869	0.27819	0.072813	0.069594	0.21647	0.098566	0.031964	0.045564	0.24762	0.20267	0.12385	0.14565	0.046614	0.30833	-0.94375	-0.55625	-0.61875	-1.0583	-0.52292	-0.73125	-1.4083	-0.41042	-0.80417	-0.94583	0.022917	-1.275	-0.6	-0.39375	-1.1958	137.833	50.720	147.348	-159.062	53.443	79.503	83.897	80.342	143.925	14.466	-148.316	-122.999	-15.838	91.774	-106.329	59.125	0.0016171	0.0004483	8.1291e-05	1426.7	5.9625e-06	3.9501e-06	1416.2	392.64	9.9909e-06	3.401e-06	443.85	143.68	127.78	41.576	4.4614e-06	51.44	0.00010093	7.2407e-05	2.052e-05	1416.8	8.4451e-07	7.8658e-07	1410.9	391.88	8.7276e-07	8.0605e-07	438.54	142.31	125.54	41.466	8.4804e-07	51.142	38.118	-115.968	-56.374	-160.528	-61.462	-71.271	-160.654	-156.160	-106.018	-50.556	-156.785	-152.613	-151.437	-146.992	-55.317	-147.747	-8191	255	
2075.684	1	1	0	0	0.15455	0.12282	0.44775	0.31204	0.10195	0.14533	0.38427	0.32848	0.1314	0.13842	0.079254	0.22969	0.12853	0.51991	0.064245	0.17452	0.09375	-0.9875	-0.83333	-0.59792	-1.1083	-0.60833	-0.7	-1.2729	-0.3375	-0.81667	-1.2563	-0.35625	-1.2146	-0.76458	-0.53542	-1.1667	-112.724	-120.641	-54.577	105.718	-120.053	-3.375	68.361	106.899	-4.416	113.162	40.926	-154.776	164.460	179.973	-49.277	117.669	0.0015423	0.00024358	9.7163e-05	1421.9	2.8615e-06	4.2421e-06	1417.5	393.63	8.7158e-06	3.31e-06	443.09	144.25	127.1	41.717	7.1335e-06	51.261	0.00010335	7.5825e-05	2.0542e-05	1418.2	8.7243e-07	8.2159e-07	1413.7	392.52	8.8807e-07	7.984e-07	439.05	142.67	125.52	41.477	8.3582e-07	51.168	39.495	-136.234	-60.368	-160.214	-78.734	-42.327	-160.627	-155.692	-111.093	-59.258	-156.457	-152.481	-151.709	-146.860	-82.256	-147.965	-8191	255	
2075.780	1	1	0	0	0.23492	0.18282	0.28973	0.16677	0.11885	0.09779	0.21034	0.1687	0.1752	0.2181	0.077114	0.27481	0.092419	0.20511	0.25997	0.16796	-0.035417	-0.725	-1.0875	-0.31458	-1.2208	-0.6875	-0.50208	-1.1917	-0.32917	-0.54792	-1.2687	-0.3875	-1.0396	-0.94583	-0.11667	-1.3875	-86.990	29.351	168.197	138.525	-110.543	-144.117	160.089	-137.169	7.495	74.414	145.212	60.294	-146.708	139.893	-104.461	5.917	0.0016104	0.00038244	9.7236e-05	1427.2	3.7064e-06	3.1857e-06	1413.9	394.43	5.6743e-06	4.6518e-06	443.07	143.09	127.16	41.67	5.9213e-06	51.49	0.0001022	7.631e-05	2.0684e-05	1420.3	8.6976e-07	8.298e-07	1411.5	392.99	8.9239e-07	8.3046e-07	439.03	142.48	125.49	41.548	8.5471e-07	51.126	35.104	-127.994	-80.330	-160.410	-63.578	-89.417	-160.493	-155.945	-124.110	-19.298	-156.478	-152.386	-151.397	-146.850	-80.864	-147.684	-8191	255	
2075.877	1	1	0	0	0.29794	0.32166	0.024178	0.2997	0.21259	0.23788	0.14903	0.1692	0.29031	0.20074	0.19346	0.23042	0.41203	0.18769	0.25215	0.15532	0.30417	-0.6375	-1.1167	-0.56458	-0.96875	-1.05	-0.45833	-1.1729	-0.37917	-0.50625	-1.4125	-0.41667	-0.975	-0.86458	-0.28125	-1.3958	-66.340	64.412	89.963	-157.214	176.131	18.709	-110.569	160.388	166.810	-166.570	169.608	147.836	124.987	123.499	-23.864	125.092	0.0017151	0.0003862	8.6623e-05	1424.9	4.6113e-06	4.1155e-06	1417.1	393.21	8.1705e-06	3.8249e-06	443.25	144.26	127.12	41.75	6.574e-06	51.476	0.00010397	7.5891e-05	2.1019e-05	1418.1	8.5809e-07	8.0091e-07	1412.3	392.36	8.93e-07	8.2901e-07	438.61	142.55	125.37	41.517	8.5821e-07	51.126	40.272	-109.498	-83.927	-160.315	-46.449	-51.251	-160.665	-155.976	-122.901	-15.761	-156.495	-151.949	-151.485	-146.779	-60.664	-147.464	-8191	255	
2075.973	1	1	0	0	0.13838	0.16727	0.15462	0.11348	0.068744	0.030955	0.24469	0.17732	0.11249	0.0053343	0.24419	0.17123	0.15952	0.081292	0.03945	0.11456	-0.30417	-0.32292	-1.0438	-0.61667	-0.6625	-1.1208	-0.39583	-1.3875	-0.525	-0.22083	-1.4562	-0.67708	-0.77708	-1.2208	-0.10833	-1.1437	-79.649	138.592	-27.030	-161.173	116.519	68.988	-26.890	163.126	103.108	-94.243	-2.745	-126.864	-143.590	-71.863	86.523	32.708	0.0015737	0.00043688	5.6154e-05	1423	5.5114e-06	4.1067e-06	1413.9	394.34	9.3655e-06	4.0601e-06	444.58	143.28	127.35	41.756	5.4909e-06	51.393	0.00010294	7.4695e-05	2.022e-05	1419.3	8.6789e-07	7.8821e-07	1410.5	392.96	8.6179e-07	8.155e-07	439.62	142.48	125.57	41.534	8.3747e-07	51.193	42.008	-131.246	-94.809	-160.280	-56.321	-60.061	-160.685	-155.453	-146.025	-19.030	-156.246	-152.240	-151.608	-146.825	-73.931	-148.047	-8191	255	
2076.092	1	1	0	0	0.22793	0.12619	0.10257	0.36916	0.11505	0.046523	0.11817	0.13212	0.27465	0.036846	0.074939	0.18974	0.1765	0.14047	0.02152	0.17941	-0.24375	-0.325	-1.0604	-0.5375	-0.525	-1.1688	-0.31875	-1.0521	-0.88958	-0.26875	-1.3563	-0.52292	-0.81458	-1.4562	-0.34792	-1.1688	29.506	-144.341	93.481	108.418	155.297	7.020	112.192	56.727	-25.591	-83.151	70.072	78.348	96.025	-149.828	48.835	-122.482	0.0016324	0.00048828	9.8513e-05	1423.1	7.2345e-06	2.3857e-06	1413	392.71	1.022e-05	1.1503e-06	444.79	143.62	126.84	41.807	6.6146e-06	51.439	0.00010168	7.4553e-05	2.005e-05	1418.6	8.4707e-07	7.8575e-07	1411.8	392.32	8.4414e-07	8.1564e-07	439.34	142.5	125.52	41.537	8.4736e-07	51.127	40.257	-114.809	-32.425	-160.275	-49.793	-64.883	-160.802	-155.929	-128.694	-25.974	-156.756	-152.443	-151.651	-146.817	-64.251	-147.650	-8191	255	
2076.188	1	1	0	0	0.2253	0.23824	0.046882	0.29254	0.13625	0.078041	0.43704	0.18686	0.10796	0.34993	0.32615	0.16707	0.35884	0.40816	0.098648	0.08367	-0.43333	-0.25625	-1.075	-0.6625	-0.55	-1.1229	-0.66042	-0.87292	-1.0438	-0.42292	-1.3292	-0.4875	-0.56458	-1.1229	-0.32083	-0.65833	17.814	-49.401	67.868	-161.186	41.426	-164.091	125.754	153.681	151.957	-151.885	116.296	165.626	168.503	-133.432	-23.520	139.102	0.0016204	0.00034894	7.0146e-05	1422.8	4.3617e-06	5.9159e-06	1414.7	393.65	8.1602e-06	3.6782e-06	445.67	143.98	127.22	41.668	5.8893e-06	51.221	0.00010228	7.602e-05	2.0586e-05	1419.2	8.6868e-07	8.1089e-07	1411.2	393.06	8.5866e-07	8.2053e-07	439.43	142.64	125.71	41.487	8.2868e-07	51.144	36.253	-111.732	-48.523	-160.447	-44.269	-38.930	-160.708	-155.900	-114.183	-53.454	-156.413	-152.283	-151.472	-146.608	-86.633	-147.481	-8191	255	
2076.261	1	1	0	0	0.28802	0.19277	0.11309	0.22004	0.17778	0.33369	0.15273	0.22376	0.14462	0.13361	0.086728	0.072124	0.21236	0.12872	0.23929	0.034861	-0.82083	-0.014583	-1.1979	-0.66667	-0.40833	-1.1521	-0.49792	-0.6875	-1.0396	-0.00625	-1.2542	-0.63125	-0.32292	-1.2479	-0.47083	-0.72708	119.510	132.308	122.580	-172.229	114.610	39.197	148.725	168.435	-82.006	93.427	161.812	157.318	173.265	-148.789	131.690	166.670	0.0016907	0.00024649	8.8682e-05	1423.9	3.1755e-06	2.4451e-06	1415	394.4	6.8843e-06	2.6444e-06	446.18	144.25	127.43	41.616	4.3612e-06	51.536	0.0001006	7.5176e-05	2.0654e-05	1419.5	8.8539e-07	8.2825e-07	1413.1	393.06	8.7254e-07	8.343e-07	440.15	142.89	125.81	41.494	8.6712e-07	51.261	39.407	-119.447	-75.797	-160.637	-36.709	-50.861	-160.811	-155.892	-115.977	-53.618	-156.562	-152.277	-151.671	-146.928	-27.797	-147.685	-8191	255	
2076.380	1	1	0	0	0.23942	0.089583	0.14296	0.29808	0.24212	0.1621	0.45738	0.19353	0.19887	0.50665	0.19611	0.27965	0.071009	0.1206	0.3277	0.41577	-0.51875	-0.0375	-0.85833	-0.9625	-0.054167	-1.25	-0.525	-0.63958	-1.0896	-0.26875	-1.1396	-0.91667	-0.31042	-1.3083	-0.54583	-0.42083	-135.511	127.455	2.317	161.180	-89.439	169.978	147.054	-57.276	135.191	69.227	-99.911	166.759	79.044	-131.457	-114.088	-78.308	0.0017372	0.0003913	0.00011775	1427.6	3.2526e-06	2.3307e-06	1421.4	393.69	1.068e-05	6.3573e-06	445.16	144.01	127.49	41.732	1.7632e-06	51.5	0.00010525	7.5736e-05	2.107e-05	1422.9	8.9627e-07	8.2875e-07	1417.2	393.38	9.2036e-07	8.5491e-07	439.82	142.85	125.88	41.576	8.8233e-07	51.316	37.639	-118.032	-63.574	-160.510	-41.757	-50.086	-160.646	-155.794	-95.625	-47.008	-156.386	-152.342	-151.274	-146.936	-81.212	-147.302	-8191	255	
2076.476	1	1	0	0	0.025402	0.2313	0.12274	0.32402	0.15187	0.13391	0.23057	0.16995	0.22997	0.23488	0.09285	0.15579	0.25327	0.2634	0.2519	0.15569	-0.80208	-0.09375	-0.9125	-1.2896	-0.24167	-0.94167	-0.96875	-0.40208	-1.2646	-0.4625	-0.9	-1	-0.1625	-1.2687	-0.54167	-0.28542	-74.870	147.368	166.054	122.813	6.416	-30.033	130.419	-152.283	60.397	-67.687	181.681	125.233	135.972	137.142	21.021	-171.315	0.0017598	0.0004022	0.00011369	1423.1	4.5188e-06	5.4163e-06	1422.7	394.7	8.2763e-06	4.4201e-06	447.78	143.78	127.73	41.864	6.9513e-06	51.375	0.00010352	7.9023e-05	2.1735e-05	1422.3	9.2372e-07	8.4431e-07	1416.9	393.32	9.1382e-07	8.557e-07	441.3	142.77	125.83	41.578	8.7451e-07	51.175	37.814	-118.912	-82.359	-160.206	-59.455	-48.494	-160.697	-155.881	-109.783	-41.074	-156.293	-152.515	-151.753	-146.775	-61.301	-147.683	-8191	255	
2076.572	1	1	0	0	0.16389	0.2771	0.13216	0.43123	0.11362	0.17291	0.027627	0.13963	0.079277	0.19678	0.10151	0.24586	0.28658	0.19125	0.073548	0.069867	-0.83958	-0.2625	-0.66458	-1.1333	-0.38333	-0.80208	-0.76042	-0.33125	-1.1437	-0.17292	-0.82708	-1.1354	-0.30208	-0.9625	-0.64167	-0.125	-99.828	39.484	18.513	-171.580	23.187	-104.655	102.913	-115.588	52.832	-89.507	65.645	-141.810	-129.276	-116.770	-75.556	156.149	0.0016408	0.00054481	6.4614e-05	1428.7	4.6971e-06	2.9964e-06	1418.8	395.59	8.6836e-06	6.7731e-06	446.24	144.6	127.81	41.701	5.7299e-06	51.555	0.00010644	7.8232e-05	2.1814e-05	1424.6	9.2541e-07	8.4141e-07	1417	394.44	9.2601e-07	8.5042e-07	440.74	143.01	125.96	41.535	8.7552e-07	51.245	37.680	-99.639	-83.912	-160.551	-40.342	-62.899	-160.722	-156.047	-113.163	-14.099	-156.220	-152.210	-151.384	-146.714	-52.251	-147.622	-8191	255	
2076.669	1	1	0	0	0.10358	0.16365	0.21776	0.28394	0.097733	0.11299	0.48638	0.20826	0.2	0.30096	0.26352	0.46861	0.052983	0.22443	0.058987	0.04324	-0.76667	-0.27917	-0.75208	-1.2563	-0.1875	-0.9625	-1.0917	-0.3	-1.1396	-0.47708	-0.81042	-1.2938	-0.41042	-0.89375	-0.81042	-0.46875	-158.518	-109.798	-90.947	143.967	7.277	-37.704	126.267	-132.812	177.743	-7.586	175.773	-150.077	-42.561	98.616	119.554	117.453	0.0016779	0.00032241	0.00011869	1430	6.6185e-06	2.7783e-06	1415	395.13	6.9415e-06	4.2428e-06	445.79	143.74	127.39	41.762	3.765e-06	51.785	0.00010769	7.7902e-05	2.1815e-05	1423.4	9.0902e-07	8.3371e-07	1416.1	393.9	8.8336e-07	8.7396e-07	440.87	142.74	125.61	41.61	8.8003e-07	51.309	39.498	-82.691	-87.385	-160.225	-56.193	-34.090	-160.766	-155.701	-112.843	-6.376	-156.001	-151.997	-151.353	-146.390	-90.790	-147.381	-8191	255	
2076.789	1	1	0	0	0.11001	0.069067	0.3075	0.14128	0.3065	0.13769	0.17644	0.15969	0.078243	0.17706	0.15627	0.30059	0.14384	0.23818	0.2238	0.32086	-0.67708	-0.58125	-0.35833	-1.2917	-0.45417	-0.72708	-1.0729	-0.38125	-1.0042	-0.65417	-0.27083	-1.3146	-0.26042	-0.58542	-0.97292	-0.033333	147.239	59.938	-113.302	133.757	124.651	21.156	135.409	59.905	-94.073	171.730	-165.638	135.691	-132.430	-93.964	-132.957	124.969	0.0016163	0.00031618	0.00011443	1432.3	5.9577e-06	2.6097e-06	1421.3	395.6	8.7944e-06	5.1233e-06	446.11	143.96	127.03	41.791	6.5154e-06	51.316	0.00010527	7.8568e-05	2.2551e-05	1425.3	8.7639e-07	8.3668e-07	1417.7	393.57	9.332e-07	8.7432e-07	440.68	142.71	125.67	41.59	8.8233e-07	51.21	36.604	-119.578	-76.357	-160.047	-85.394	-30.054	-160.465	-155.603	-111.001	-32.917	-156.119	-152.009	-151.234	-146.518	-52.761	-147.662	-8191	255	
2076.884	1	1	0	0	0.078209	0.22413	0.18345	0.34068	0.16585	0.072074	0.26352	0.21497	0.21043	0.10929	0.25179	0.088926	0.27817	0.13445	0.17158	0.21191	-0.64792	-0.61875	-0.125	-1.2667	-0.25417	-0.45208	-1.4375	-0.35	-1.0312	-0.78333	-0.27292	-1.2021	-0.56458	-0.53958	-1.1271	-0.36667	-46.475	-151.436	-105.785	117.315	-91.714	-157.199	119.429	148.249	137.207	98.043	114.959	-168.830	-119.506	65.290	-4.330	8.782	0.0017009	0.00044182	0.00014395	1430	6.6334e-06	5.1637e-06	1414.8	394.26	1.1118e-05	5.2806e-06	445.84	144.38	127.37	41.665	2.3975e-06	51.631	0.00010614	7.87e-05	2.2027e-05	1425.2	8.9966e-07	8.6926e-07	1417.4	393.76	9.2748e-07	8.7776e-07	441.04	142.84	125.78	41.569	8.7144e-07	51.266	36.217	-94.961	-80.898	-159.927	-29.791	-81.016	-160.428	-155.777	-109.267	-8.340	-156.288	-152.393	-151.346	-146.561	-32.808	-147.459	-8191	255	
2076.981	1	1	0	0	0.040914	0.06402	0.056752	0.21934	0.14933	0.2533	0.2559	0.1733	0.074009	0.17339	0.075571	0.22983	0.12847	0.036992	0.16905	0.24403	-0.51667	-0.96667	-0.32917	-1.0729	-0.6625	-0.50833	-1.2917	-0.44167	-0.98542	-0.96875	-0.41875	-1.0938	-0.67917	-0.35625	-1.3458	-0.69583	75.037	-83.085	30.435	-172.386	62.226	-166.830	152.468	145.444	93.611	-155.135	-88.128	106.979	-103.689	176.722	-62.991	100.207	0.0017302	0.00036109	0.00010756	1425	4.4602e-06	3.5439e-06	1422.3	395.39	7.777e-06	4.0999e-06	446.08	144.38	127.27	41.768	5.8552e-06	51.586	0.00010675	7.9029e-05	2.2367e-05	1422.8	9.3625e-07	8.8322e-07	1418.1	393.87	9.204e-07	8.7657e-07	440.92	142.87	125.93	41.601	9.29e-07	51.313	37.734	-111.269	-101.639	-159.970	-75.039	-25.158	-160.548	-155.920	-113.436	-44.574	-156.666	-152.424	-151.574	-146.788	-57.058	-147.806	-8191	255	
2077.078	1	1	0	0	0.19333	0.11922	0.11172	0.41162	0.14009	0.13122	0.35434	0.15982	0.066218	0.16981	0.15746	0.2131	0.19423	0.039359	0.081634	0.072703	-0.28958	-1.1604	-0.0125	-1.3687	-0.75417	-0.28542	-1.3667	-0.57292	-0.79583	-1.1729	-0.18333	-0.9625	-0.83333	-0.30833	-1.1083	-0.49375	53.723	146.708	-160.310	145.937	94.885	-51.282	89.946	-140.045	25.446	173.578	106.582	185.998	-143.015	-72.021	-152.062	143.291	0.0016546	0.00028267	9.391e-05	1436.2	3.9059e-06	2.9585e-06	1423.4	394.78	8.9432e-06	3.6746e-06	445.77	144.9	127.62	41.835	7.6448e-06	51.597	0.00011092	8.3496e-05	2.3818e-05	1430.6	9.5588e-07	9.2981e-07	1422.1	394.15	9.9338e-07	9.2749e-07	441.53	143.35	125.97	41.631	9.2427e-07	51.39	38.395	-155.346	-58.795	-160.456	-17.888	-40.610	-160.523	-155.934	-103.188	-8.017	-156.593	-152.319	-151.527	-146.586	-41.559	-147.799	-8191	255	
2077.172	1	1	0	0	0.19201	0.28125	0.17328	0.18878	0.15447	0.12693	0.28822	0.39084	0.11423	0.054191	0.28851	0.13443	0.092848	0.3523	0.10557	0.098243	-0.2	-1.0396	-0.25	-1.2313	-0.94375	-0.35833	-1.4042	-0.50833	-0.49792	-1.2313	-0.475	-1.0854	-1.1208	-0.41875	-1.0917	-0.68333	-56.967	-55.515	167.626	153.219	103.146	102.336	155.969	90.625	155.927	142.848	146.871	100.676	142.487	110.609	-44.632	102.747	0.0016396	0.00045019	9.4293e-05	1434.9	3.2238e-06	3.194e-06	1427.2	396.02	8.9258e-06	3.4729e-06	445.4	144.8	128.09	41.99	4.4434e-06	51.684	0.00011383	8.3991e-05	2.4326e-05	1431.7	9.6669e-07	9.4279e-07	1423.8	394.9	9.7156e-07	9.0598e-07	441.41	143.32	126.28	41.692	9.3751e-07	51.456	38.852	-124.836	-66.603	-160.124	-57.043	-74.816	-160.734	-155.918	-140.272	-30.456	-156.336	-152.225	-151.731	-146.604	-69.709	-147.706	-8191	255	
2077.268	1	1	0	0	0.07617	0.27668	0.24138	0.37931	0.24886	0.12795	0.37256	0.11975	0.30673	0.43988	0.22831	0.11677	0.18035	0.23955	0.12166	0.16324	0.072917	-1.0562	-0.15	-0.98125	-0.85833	-0.34792	-1.2354	-0.7375	-0.45208	-1.3937	-0.71458	-0.91042	-1.0958	-0.13125	-0.91458	-0.72708	175.471	89.590	-0.294	125.893	-88.768	-148.926	116.570	76.710	99.048	-155.297	154.675	-168.472	80.734	75.498	-116.810	135.343	0.0017532	0.00057081	0.00010666	1438.5	3.8906e-06	3.8438e-06	1424	396.49	1.0831e-05	6.1889e-06	447.54	144.52	127.85	41.74	5.4414e-06	51.574	0.0001142	8.407e-05	2.3836e-05	1433	9.5992e-07	9.3943e-07	1424.7	395.21	9.6437e-07	9.2847e-07	441.79	143.48	126.32	41.664	9.4266e-07	51.443	39.988	-117.373	-68.608	-160.126	-58.600	-49.101	-160.489	-155.704	-128.259	-14.300	-156.456	-152.231	-151.680	-146.731	-84.107	-147.486	-8191	255	
2077.389	1	1	0	0	0.13918	0.19527	0.070418	0.24424	0.12219	0.31751	0.41089	0.23112	0.43724	0.086714	0.20932	0.19149	0.14662	0.15008	0.26367	0.29839	0.025	-1.2208	-0.10208	-0.74583	-1.0875	-0.15625	-1.1104	-0.7375	-0.425	-0.98333	-0.51042	-0.57292	-1.1354	-0.18333	-1.075	-0.775	129.600	-160.985	-29.206	157.287	41.951	-66.401	174.734	139.204	-60.894	115.516	87.213	-109.504	-124.107	158.857	91.346	135.775	0.0016556	0.00047633	9.0005e-05	1438.7	3.2703e-06	5.3329e-06	1429.5	395.39	7.9465e-06	6.1098e-06	448.39	144.94	128.35	41.963	6.0027e-06	51.654	0.00011094	8.2293e-05	2.3649e-05	1432.9	9.624e-07	9.3234e-07	1425.7	395.1	9.9835e-07	8.9696e-07	441.78	143.31	126.29	41.694	9.3361e-07	51.398	36.419	-111.992	-91.608	-160.121	-18.031	-45.754	-160.526	-155.955	-118.602	-30.673	-156.538	-152.208	-151.567	-146.982	-82.810	-147.967	-8191	255	
2077.485	1	1	0	0	0.11395	0.20778	0.10731	0.26169	0.13611	0.13513	0.36497	0.14182	0.088407	0.29371	0.19912	0.24175	0.20308	0.13062	0.32309	0.14389	0.10417	-1.2125	-0.51875	-0.80625	-1.0479	-0.25208	-1.0708	-1.1917	-0.42708	-1.1458	-0.52083	-0.48542	-1.1917	-0.43542	-0.49792	-1.2417	-58.805	-48.659	44.708	-151.769	-74.168	-4.269	113.354	145.621	-75.380	-36.061	-108.511	-156.461	152.641	3.864	-55.827	-151.392	0.0016939	0.00041046	0.0001143	1440.3	3.089e-06	5.6915e-06	1428.8	396.2	7.5949e-06	3.8948e-06	446.84	145.37	127.96	42.034	8.2992e-06	51.78	0.00011298	8.346e-05	2.3425e-05	1432.5	9.5232e-07	9.586e-07	1427.4	395.43	9.9245e-07	9.3503e-07	442.3	143.67	126.15	41.744	9.5579e-07	51.469	37.177	-100.142	-69.306	-160.248	-61.453	-69.752	-160.430	-155.867	-116.740	-0.431	-156.439	-152.435	-151.574	-146.626	-41.181	-147.339	-8191	255	
2077.557	1	1	0	0	0.30802	0.22285	0.1717	0.094105	0.35705	0.27945	0.4644	0.18574	0.29769	0.052417	0.16062	0.27178	0.21918	0.15527	0.14993	0.37114	0.14375	-0.82083	-0.625	-0.57708	-1.225	-0.29167	-0.97083	-1.0604	-0.21458	-1.0938	-0.8375	-0.44167	-1.3042	-0.42083	-0.78333	-1.0792	138.759	-172.598	-42.637	143.143	96.436	-19.492	156.951	174.861	-88.220	72.488	90.455	134.983	-60.048	173.128	-109.904	63.336	0.0016184	0.000447	0.00012454	1436.4	4.4038e-06	4.8583e-06	1431.1	396.34	7.9988e-06	3.6438e-06	446.88	144.87	128	41.884	1.1312e-05	51.695	0.00011507	8.609e-05	2.4241e-05	1433.5	9.6222e-07	9.5831e-07	1426.4	395.36	1.0001e-06	9.5201e-07	442.18	143.51	126.36	41.692	9.7793e-07	51.468	36.175	-120.861	-67.249	-160.041	-66.533	-16.318	-160.536	-155.780	-141.885	-18.183	-156.469	-152.211	-151.281	-146.448	-62.089	-147.606	-8191	255	
2077.653	1	1	0	0	0.20814	0.41737	0.13845	0.076303	0.30806	0.33431	0.3304	0.30041	0.27098	0.12049	0.25126	0.16683	0.27093	0.20427	0.053908	0.094226	0.13958	-1.0646	-0.65625	-0.38958	-1.125	-0.47292	-0.71875	-1.375	-0.3	-0.95208	-0.8375	-0.55625	-1.2917	-0.39583	-0.65208	-1.1688	68.904	-71.497	82.789	75.520	-72.715	37.971	86.326	139.803	181.964	145.068	104.442	128.479	172.570	179.790	42.428	170.142	0.0016271	0.00038157	0.00010226	1436.9	3.08e-06	2.8439e-06	1431.2	397.39	8.8643e-06	4.1296e-06	446.22	145	128.74	42.011	7.7979e-06	51.668	0.00011551	8.551e-05	2.4769e-05	1434.8	1.0028e-06	9.5632e-07	1427.2	395.57	1.0108e-06	9.3122e-07	442.28	143.48	126.62	41.752	1.008e-06	51.476	39.497	-103.093	-93.473	-160.154	-36.280	-83.359	-160.257	-155.828	-124.871	-33.895	-156.252	-152.042	-151.492	-146.848	-86.343	-147.696	-8191	255	
2077.773	1	1	0	0	0.18994	0.35244	0.08095	0.15905	0.18512	0.1991	0.34478	0.14215	0.25358	0.27027	0.2206	0.29657	0.29721	0.22374	0.015174	0.023969	0.26875	-0.92917	-0.63542	-0.38958	-1.1271	-0.525	-0.79167	-1.3104	-0.51042	-0.86875	-0.83333	-0.089583	-1.1875	-0.62083	-0.13542	-1.1792	-110.605	152.368	87.375	182.806	-34.385	-126.268	89.846	144.211	21.430	-140.696	-41.322	-117.153	136.674	-152.996	163.867	-140.918	0.0016748	0.0003624	9.0164e-05	1441.9	5.2959e-06	3.6051e-06	1431.3	395.49	7.9675e-06	2.0865e-06	446.76	144.6	128.17	41.781	3.7229e-06	51.645	0.00011565	8.6895e-05	2.42e-05	1434	1.0144e-06	9.3809e-07	1428.2	395.58	9.872e-07	9.2565e-07	442.61	143.68	126.6	41.685	9.7883e-07	51.451	36.897	-105.651	-81.635	-160.142	-74.730	-98.281	-160.574	-155.883	-118.860	-37.209	-156.571	-152.330	-151.277	-146.895	-56.319	-147.798	-8191	255	
2077.870	1	1	0	0	0.081874	0.24091	0.1774	0.2988	0.42122	0.1009	0.65157	0.23725	0.14849	0.13769	0.022579	0.23278	0.11502	0.14556	0.21659	0.14702	0.041667	-0.71667	-1.0708	-0.53333	-1.1083	-0.7625	-0.66667	-1.2292	-0.45	-0.75208	-1.1875	-0.17292	-1.3	-0.87292	-0.22083	-1.2687	164.670	-87.007	17.603	160.518	-99.909	185.029	113.431	101.373	23.143	-146.906	2.153	177.040	122.817	21.992	-9.674	106.022	0.0016261	0.00022547	0.00011127	1434.6	4.8175e-06	3.6927e-06	1433.8	396.48	8.6027e-06	3.8175e-06	447.39	144.96	128.66	42.202	5.3207e-06	51.744	0.0001143	8.788e-05	2.4601e-05	1433.1	9.9086e-07	9.4735e-07	1430.1	395.71	1.0035e-06	9.523e-07	443.24	143.79	126.61	41.865	9.7458e-07	51.508	40.943	-93.714	-45.756	-160.378	-55.647	-37.717	-160.388	-155.911	-116.289	-1.921	-156.634	-152.350	-151.651	-147.101	-56.071	-147.667	-8191	255	
2077.964	1	1	0	0	0.066779	0.11018	0.21374	0.31787	0.11915	0.30552	0.29662	0.16824	0.26217	0.085307	0.20914	0.20178	0.10678	0.098131	0.085363	0.027134	-0.0125	-0.54792	-1.1167	-0.49167	-0.95417	-0.77917	-0.45833	-1.4354	-0.58333	-0.56042	-1.2833	-0.5	-0.98125	-1.0729	-0.22708	-1.1479	-9.547	151.663	14.283	-171.046	-33.336	117.721	55.366	111.003	-89.023	-108.498	112.172	111.588	180.229	-100.052	-141.472	173.351	0.0016388	0.00060395	0.00012251	1439.3	5.4286e-06	3.1919e-06	1425.8	396.64	7.497e-06	3.6638e-06	448.52	145.05	127.93	41.867	7.0099e-06	51.794	0.00011427	8.9466e-05	2.4565e-05	1433.4	9.7642e-07	9.7932e-07	1426.7	396.36	1.005e-06	9.4118e-07	444.09	143.51	126.49	41.702	9.8889e-07	51.515	38.407	-108.812	-95.798	-160.304	-49.473	-55.039	-160.774	-155.913	-142.503	-15.291	-156.479	-152.559	-151.613	-147.073	-73.580	-147.853	-8191	255	
2078.062	1	1	0	0	0.22156	0.25001	0.15819	0.15035	0.089956	0.037671	0.38889	0.27371	0.15747	0.29222	0.29096	0.16792	0.30055	0.19277	0.23976	0.085814	-0.15417	-0.32708	-1.2875	-0.36042	-0.88542	-0.96667	-0.52292	-1.2437	-0.5625	-0.46458	-1.2792	-0.51667	-0.68125	-1.0229	-0.36042	-1.2646	47.104	-108.830	138.274	146.021	83.555	52.997	101.908	-148.080	-153.131	-121.669	87.670	106.392	86.099	136.139	-139.398	-93.218	0.0018165	0.0002924	6.5129e-05	1441	4.4239e-06	4.5751e-06	1432.2	396.05	9.9028e-06	5.7627e-06	449.2	144.63	128.19	41.794	4.7823e-06	51.68	0.00011466	8.9136e-05	2.4324e-05	1435.5	1.0124e-06	9.5462e-07	1430.4	395.69	9.9475e-07	9.8211e-07	443.51	143.62	126.51	41.724	1.01e-06	51.615	38.353	-105.721	-66.342	-160.239	-76.367	-39.254	-160.637	-155.868	-109.356	-37.998	-156.489	-152.302	-151.517	-146.983	-75.806	-147.660	-8191	255	
2078.158	1	1	0	0	0.075793	0.036657	0.36469	0.43692	0.17307	0.3983	0.16949	0.066582	0.052705	0.11616	0.17721	0.20836	0.1078	0.10685	0.085445	0.10465	-0.27083	-0.25833	-1.1063	-0.45833	-0.54792	-1.1875	-0.32917	-1.0979	-0.80625	-0.31875	-1.3854	-0.61667	-0.59792	-1.3125	-0.17083	-1.1187	129.775	-148.787	42.000	142.415	-152.760	99.625	-165.541	81.228	17.199	64.889	121.129	-148.845	152.901	-49.750	-13.558	130.504	0.0015959	0.00046559	9.5974e-05	1445.7	3.6264e-06	2.5081e-06	1428.4	397.28	9.1657e-06	3.2446e-06	450.28	145	128.72	41.824	9.2658e-06	52.13	0.0001164	8.8494e-05	2.4763e-05	1437.6	1.0187e-06	9.688e-07	1429.5	396.1	1.0361e-06	9.9142e-07	444.19	143.83	126.94	41.828	1.0264e-06	51.667	41.344	-109.733	-88.268	-160.402	-64.069	-36.680	-160.873	-155.915	-119.308	-30.795	-156.509	-152.400	-151.543	-146.818	-77.066	-147.750	-8191	255	
2078.252	1	1	0	0	0.15759	0.34531	0.1801	0.47243	0.11415	0.10267	0.30664	0.19658	0.14892	0.15831	0.58744	0.35131	0.15806	0.060096	0.18248	0.27447	-0.35	-0.097917	-1.0771	-0.71875	-0.37083	-1.1979	-0.49583	-1.0688	-0.95	-0.175	-1.3271	-0.58125	-0.65417	-1.0417	-0.3875	-0.93958	10.311	-0.396	116.615	141.164	-173.202	5.740	141.380	60.238	130.237	5.569	133.797	-138.926	179.700	56.209	-12.131	147.757	0.0016758	0.00021253	0.00012985	1441.1	4.9084e-06	5.3132e-06	1430.5	397.32	1.0916e-05	6.6198e-06	448.47	145.2	128.04	42.13	5.0905e-06	52.018	0.00011661	9.302e-05	2.4731e-05	1437.8	1.046e-06	9.9021e-07	1430.7	396.55	1.0431e-06	9.9454e-07	443.87	143.69	126.69	41.806	1.0047e-06	51.662	39.924	-116.873	-61.961	-160.498	-56.102	-6.254	-161.068	-156.030	-131.355	-34.025	-156.664	-152.632	-151.822	-147.133	-57.529	-147.851	-8191	255	
2078.349	1	1	0	0	0.18414	0.18333	0.26797	0.19955	0.096949	0.092547	0.27642	0.12608	0.15118	0.067224	0.22869	0.15835	0.10844	0.17664	0.13315	0.094935	-0.67083	-0.15833	-0.95625	-0.81458	-0.5375	-1.2812	-0.475	-0.90625	-1.0708	-0.24792	-1.2521	-0.94375	-0.30833	-1.4771	-0.50417	-0.79375	139.713	-97.999	-139.145	177.550	38.208	-25.589	4.336	114.012	-11.157	-100.956	137.440	167.326	183.710	164.146	-12.625	158.801	0.0017045	0.00046198	9.6943e-05	1444.1	5.0265e-06	4.1118e-06	1430.2	397.59	6.8728e-06	2.6292e-06	448.54	145.45	128.14	42.071	7.0637e-06	51.596	0.00011899	9.1437e-05	2.4489e-05	1438.5	1.0617e-06	1.0002e-06	1429.3	396.35	1.0378e-06	9.6085e-07	443.61	144.04	126.7	41.917	1.0288e-06	51.597	38.061	-104.700	-55.341	-160.476	-75.743	-61.406	-160.748	-156.048	-117.080	-21.513	-156.691	-152.715	-151.625	-146.963	-61.439	-148.048	-8191	255	
2078.469	1	1	0	0	0.1751	0.19432	0.073841	0.24099	0.27483	0.40194	0.33757	0.36588	0.081734	0.13401	0.2671	0.12606	0.16822	0.16034	0.12372	0.15009	-0.78333	-0.13958	-1.0375	-1.1771	-0.34792	-1.2208	-0.55625	-0.88542	-1.25	-0.31875	-1.0417	-0.975	-0.12083	-1.2292	-0.62292	-0.65417	-143.031	-75.101	-67.269	117.486	-65.708	-14.615	80.201	143.609	-27.362	182.362	148.134	73.831	127.665	80.386	-171.242	176.928	0.0016458	0.00047186	0.00012547	1442.5	3.2607e-06	3.6147e-06	1434.1	398.77	6.6218e-06	2.8483e-06	447.2	145.57	127.97	41.879	9.4629e-06	51.843	0.00011728	9.178e-05	2.5013e-05	1439.3	1.0712e-06	9.8594e-07	1432.2	397.24	1.0303e-06	1.0221e-06	443.3	143.85	126.79	41.799	1.0169e-06	51.588	41.196	-109.432	-76.044	-160.643	-17.723	-67.090	-160.728	-155.969	-92.477	-4.323	-156.303	-152.571	-151.805	-146.766	-63.997	-147.800	-8191	255	
2078.565	1	1	0	0	0.068602	0.14005	0.18882	0.22568	0.12821	0.16211	0.34163	0.073276	0.14175	0.12269	0.10936	0.093188	0.17442	0.26544	0.13919	0.12391	-0.69792	-0.26042	-0.78333	-1.0812	-0.25833	-1.2667	-0.69583	-0.73542	-1.1917	-0.13333	-1.1104	-1.1583	-0.36875	-1.0417	-0.65208	-0.5375	125.275	42.929	20.257	139.851	138.726	157.822	145.142	71.589	141.850	18.545	-34.615	-153.308	144.040	162.663	-75.406	88.762	0.0015722	0.00044795	0.00013334	1445.5	4.2947e-06	4.3582e-06	1436	396.9	8.9793e-06	4.8637e-06	450.09	145.26	128.84	41.979	6.9483e-06	51.79	0.00011808	9.18e-05	2.5337e-05	1441.3	1.0718e-06	9.7057e-07	1433.8	397.08	1.0388e-06	9.9327e-07	444.85	143.94	126.99	41.851	1.0229e-06	51.612	34.813	-114.356	-72.479	-160.412	-50.623	-39.137	-160.842	-155.894	-116.600	-17.774	-156.582	-152.403	-151.541	-146.647	-59.070	-147.966	-8191	255	
2078.661	1	1	0	0	0.096453	0.25874	0.084711	0.11208	0.05329	0.12625	0.21613	0.22887	0.097339	0.15907	0.096246	0.30979	0.28189	0.24611	0.12259	0.086135	-0.84167	-0.17083	-0.78958	-1.2667	-0.48125	-0.99375	-0.99583	-0.42708	-1.0146	-0.33542	-0.48333	-1.0104	-0.25208	-0.89583	-0.68125	-0.4	127.688	17.072	84.624	-99.238	159.961	-146.225	160.460	138.726	-47.901	176.641	-150.929	163.630	131.899	-103.270	58.679	44.628	0.0016878	0.00047045	8.3959e-05	1445.2	5.3375e-06	3.2307e-06	1436.8	396.61	8.7904e-06	5.6904e-06	448.98	145.8	128.5	41.904	9.5888e-06	51.747	0.00011949	9.1197e-05	2.5392e-05	1442	1.041e-06	9.693e-07	1433.9	397.13	1.0528e-06	9.8736e-07	444.71	144.24	127.1	41.846	1.0088e-06	51.659	40.156	-105.699	-90.173	-160.387	-54.174	-45.165	-160.780	-155.848	-126.344	-33.957	-156.347	-152.385	-151.600	-146.824	-59.575	-147.680	-8191	255	
2078.782	1	1	0	0	0.27936	0.16647	0.22292	0.20063	0.1217	0.27089	0.43245	0.19757	0.29885	0.092506	0.04175	0.098471	0.18367	0.013831	0.15165	0.20733	-0.91875	-0.49167	-0.52083	-1.2292	-0.125	-0.84375	-1	-0.31875	-1.1	-0.70417	-0.75833	-1.3208	-0.14375	-1.1729	-1.0333	-0.48125	54.992	-155.035	-126.509	-173.985	-50.351	57.093	128.053	-12.218	-41.068	-60.423	-19.448	92.493	-120.096	-73.226	-114.246	113.349	0.0017316	0.00047093	4.9559e-05	1443.4	4.6502e-06	4.3916e-06	1440.5	396.95	6.6982e-06	3.7712e-06	450.2	145.17	128.74	41.945	5.0238e-06	51.922	0.00011729	9.1586e-05	2.5132e-05	1441.6	1.0508e-06	9.9336e-07	1436	396.83	1.0395e-06	9.9533e-07	444.97	144.25	126.77	41.823	1.0138e-06	51.754	40.314	-118.707	-30.747	-160.418	-32.232	-38.679	-160.729	-156.140	-105.256	-42.255	-156.344	-152.337	-151.839	-146.714	-47.849	-147.859	-8191	255	
2078.854	1	1	0	0	0.35174	0.061679	0.25196	0.1199	0.18739	0.17006	0.093585	0.10366	0.040003	0.20085	0.11948	0.054999	0.30311	0.072237	0.090655	0.23666	-0.72917	-0.54375	-0.3	-1.3458	-0.475	-0.74167	-1.2208	-0.5	-1.2375	-0.81042	-0.51667	-1.3188	-0.35417	-0.8	-1.1667	-0.20833	-147.505	-30.398	101.336	-94.195	-30.805	-111.524	99.026	-157.357	-0.052	-99.633	116.511	-82.556	73.160	-28.603	38.733	-15.769	0.0018335	0.00046639	6.6989e-05	1448.5	6.7821e-06	2.8744e-06	1435.6	398.81	1.0333e-05	2.4742e-06	450.31	145.69	127.78	42.175	4.7535e-06	52.044	0.00011721	9.1661e-05	2.5604e-05	1442.5	1.0353e-06	9.8196e-07	1434.8	397.19	1.0651e-06	9.8208e-07	445.18	144.33	126.93	42.025	1.0168e-06	51.761	36.167	-106.147	-51.352	-160.349	-59.104	-52.319	-160.759	-155.848	-113.432	-1.548	-156.441	-152.344	-151.792	-146.862	-75.898	-147.794	-8191	255	
2078.950	1	1	0	0	0.29515	0.26476	0.176	0.52363	0.071066	0.023395	0.377	0.34718	0.10368	0.15429	0.27981	0.09264	0.22565	0.18934	0.12894	0.076017	-0.56042	-0.74792	-0.33333	-1.5562	-0.59375	-0.49792	-1.3354	-0.34583	-0.8875	-0.93542	-0.33542	-1.1625	-0.6625	-0.51458	-1.2854	-0.26667	180.195	118.165	-56.928	154.896	-56.475	53.183	112.973	109.446	-136.555	62.854	-142.229	63.583	153.234	-16.543	44.541	139.886	0.0017523	0.00027051	0.00014176	1445.7	4.0217e-06	3.6877e-06	1433.2	398.4	8.0194e-06	3.8025e-07	449.07	145.87	128.56	42.235	5.4908e-06	51.864	0.00011917	9.2476e-05	2.568e-05	1443.5	1.0782e-06	1.0183e-06	1436.3	397.78	1.0561e-06	9.9982e-07	445.07	144.33	127.05	42	9.9769e-07	51.72	36.641	-105.967	-59.713	-160.485	-58.412	-33.183	-160.803	-155.867	-123.314	-151.411	-156.506	-152.340	-151.698	-146.852	-60.626	-147.750	-8191	255	
2079.069	1	1	0	0	0.13504	0.16041	0.13092	0.15551	0.13424	0.27818	0.137	0.31439	0.03149	0.081409	0.098644	0.10102	0.14823	0.20868	0.20408	0.29357	-0.52708	-0.81458	-0.075	-1.3792	-0.4375	-0.41667	-1.4708	-0.475	-0.77708	-0.8625	-0.56667	-1.3521	-0.55625	-0.51667	-1.2229	-0.45	140.249	-109.444	145.118	-172.446	177.682	24.112	118.294	102.171	-18.103	-160.415	77.062	0.938	136.285	-168.842	108.608	53.876	0.0016985	0.00029938	0.00011341	1442.6	5.9766e-06	2.7906e-06	1445.9	398.45	1.2044e-05	3.5816e-06	451.05	145.21	128.16	42.146	6.2368e-06	51.916	0.00011954	9.0847e-05	2.5651e-05	1442.3	1.0525e-06	9.9585e-07	1438	397.74	1.0359e-06	9.9751e-07	445.09	144.18	127.04	41.936	1.0022e-06	51.829	37.882	-157.273	-89.110	-160.341	-37.442	-55.620	-160.668	-156.050	-97.233	-17.129	-156.585	-152.189	-151.576	-146.584	-61.296	-147.752	-8191	255	
2079.165	1	1	0	0	0.2012	0.091678	0.25513	0.12914	0.1219	0.1801	0.18341	0.2068	0.045073	0.34179	0.14028	0.10366	0.41293	0.15392	0.17924	0.16892	-0.325	-0.8875	-0.17292	-1.3271	-0.69375	-0.26042	-1.2646	-0.55	-0.71667	-0.87708	-0.36875	-1.1187	-0.92083	-0.51458	-1.2188	-0.53333	184.626	141.759	-32.279	-161.580	40.255	99.218	179.557	110.723	-107.905	-161.667	178.467	-144.707	151.310	139.220	133.498	3.665	0.0016528	0.00028693	9.9503e-05	1446.9	2.415e-06	1.6371e-06	1435.2	398.18	1.1738e-05	3.2641e-06	447.92	145.55	128.55	42.088	3.8924e-06	52.035	0.00012213	9.0854e-05	2.5977e-05	1444.9	1.057e-06	9.9846e-07	1435.6	397.56	1.0709e-06	9.9696e-07	444.66	144.42	126.96	41.922	1.0232e-06	51.834	39.790	-118.024	-73.006	-160.146	-86.425	-25.025	-160.689	-155.872	-112.431	-58.581	-156.489	-152.134	-151.697	-146.747	-73.169	-147.885	-8191	255	
2079.261	1	1	0	0	0.24047	0.2024	0.039749	0.082351	0.10055	0.36732	0.46629	0.37411	0.29693	0.26024	0.3089	0.2263	0.27768	0.030492	0.099452	0.42424	-0.2125	-1.0187	-0.33333	-1.3167	-0.84167	-0.19583	-1.6417	-0.66667	-0.47083	-0.95208	-0.41458	-1.0625	-1.0458	-0.26458	-1.0354	-0.625	-141.651	174.839	161.410	-23.184	-1.034	-65.114	121.530	166.746	-150.929	80.006	55.449	96.482	-169.747	91.863	141.624	145.639	0.0016842	0.00047966	0.00012028	1449.6	5.095e-06	4.8707e-06	1446	398.76	9.6749e-06	4.312e-06	450.97	145.7	128.62	42.035	9.3383e-06	52.017	0.00012051	9.1586e-05	2.6687e-05	1444.8	1.0593e-06	1.0209e-06	1437.7	397.59	1.0821e-06	1.0033e-06	445.35	144.43	127.15	41.939	1.0361e-06	51.764	41.115	-92.580	-100.901	-160.200	-47.017	-45.112	-160.939	-155.961	-112.502	-44.096	-156.231	-152.356	-151.590	-147.030	-60.101	-147.938	-8191	255	
2079.357	1	1	0	0	0.24396	0.33445	0.04132	0.26221	0.17622	0.16091	0.22724	0.073824	0.097408	0.28521	0.15072	0.24945	0.12439	0.19324	0.18364	0.21305	-0.16458	-1.2229	-0.041667	-1.0917	-1.0917	-0.325	-1.4042	-0.74583	-0.36667	-1.2729	-0.225	-0.97917	-1.1917	-0.31875	-1.0917	-0.89167	-25.304	-125.669	-41.158	161.813	-50.885	-99.171	149.575	172.273	81.010	-71.387	146.534	112.365	141.692	-144.946	149.466	144.974	0.0016943	0.00055897	0.00012427	1448.8	5.109e-06	4.7374e-06	1437.5	399.14	1.0068e-05	3.0392e-06	448.87	146.15	128.62	42.078	5.7384e-06	51.86	0.00012098	9.0702e-05	2.6405e-05	1446.8	1.046e-06	1.01e-06	1437.2	397.86	1.0607e-06	9.8972e-07	445.16	144.52	127.09	41.9	1.0021e-06	51.767	37.420	-129.450	-55.282	-160.335	-43.274	-48.589	-160.666	-155.909	-115.365	-9.342	-156.494	-152.234	-151.574	-146.875	-87.762	-147.700	-8191	255	
2079.429	1	1	0	0	0.15754	0.22087	0.034215	0.15967	0.41112	0.16934	0.23043	0.27878	0.044404	0.18154	0.24547	0.17673	0.16995	0.24529	0.29037	0.29127	0.027083	-0.975	-0.42708	-0.85208	-1.2167	-0.28958	-1.1417	-1.0271	-0.17917	-1.225	-0.65833	-0.54167	-1.2979	-0.32708	-1.0229	-0.91458	80.431	-77.369	-82.029	-108.498	-112.435	62.509	118.439	-173.997	-127.577	29.014	142.512	111.150	-131.167	136.912	-40.426	94.114	0.0016831	0.00013175	7.4022e-05	1451.6	6.6498e-06	2.6581e-06	1439.7	399.29	1.2491e-05	2.3848e-06	452.35	145.91	128.88	42.117	8.0356e-06	51.686	0.00012039	8.9011e-05	2.6648e-05	1446.5	1.0495e-06	1.0023e-06	1439	398.65	1.0703e-06	1.0368e-06	446.13	144.55	127.13	41.917	1.0609e-06	51.714	36.569	-147.264	-73.585	-160.282	-61.619	-44.764	-160.622	-156.019	-109.552	23.510	-156.475	-152.398	-151.744	-146.909	-71.148	-147.626	-8191	255	
2079.550	1	1	0	0	0.073027	0.11487	0.14991	0.27552	0.14679	0.10413	0.35483	0.17667	0.13548	0.085107	0.093003	0.10725	0.15234	0.3813	0.12914	0.15395	0.12708	-1.025	-0.4625	-0.76458	-1.2125	-0.2375	-1.0604	-1.0688	-0.14583	-1.0229	-0.64167	-0.68958	-1.1292	-0.32292	-0.9375	-1.0146	170.253	141.805	35.427	-168.310	-22.997	-105.748	140.594	156.343	69.644	-86.740	-74.546	133.741	98.562	158.693	-155.183	111.413	0.0017119	0.00061757	0.00011295	1452.4	3.7191e-06	5.6543e-06	1438.7	399.93	6.0702e-06	2.7164e-06	450.64	146.16	128.86	42.052	5.2865e-06	52.192	0.00012144	9.1579e-05	2.6087e-05	1447.4	1.061e-06	1.0281e-06	1438.5	398.44	1.0801e-06	1.0114e-06	445.59	144.55	127.24	41.883	1.0232e-06	51.892	40.631	-117.270	-59.097	-160.320	-36.543	-37.455	-160.559	-155.963	-105.376	-51.774	-156.586	-152.390	-151.383	-146.977	-62.934	-148.178	-8191	255	
2079.646	1	1	0	0	0.16379	0.25984	0.18266	0.45582	0.17482	0.093548	0.3539	0.25184	0.11713	0.33599	0.15438	0.26447	0.075976	0.36875	0.2293	0.27437	0.19583	-1.1521	-0.44792	-0.58958	-1.1313	-0.51458	-0.93333	-1.1187	-0.26042	-1.2417	-0.8625	-0.42083	-1.4062	-0.62917	-0.56042	-1.2771	-130.967	48.450	93.747	107.175	130.728	143.808	142.520	108.683	-171.207	-51.484	-122.082	-156.978	29.868	130.007	38.546	121.143	0.0016153	0.00035929	0.00011234	1453.3	3.3619e-06	3.5858e-06	1446.7	400	7.7779e-06	3.1943e-06	449.24	145.57	128.21	41.97	8.8044e-06	52.045	0.00012069	9.1081e-05	2.6522e-05	1448.8	1.0382e-06	1.0246e-06	1440	398.95	1.0753e-06	1.0197e-06	445.73	144.35	127.22	41.894	1.0597e-06	51.833	35.709	-109.293	-34.330	-160.298	-50.285	-15.783	-160.563	-156.110	-136.485	-32.976	-156.364	-152.351	-151.736	-146.769	-67.087	-147.680	-8191	255	
2079.742	1	1	0	0	0.088513	0.2155	0.03531	0.16696	0.14137	0.14381	0.53484	0.25855	0.10167	0.14985	0.16841	0.10157	0.13655	0.1658	0.22461	0.20592	0.30625	-0.93958	-0.8625	-0.39375	-1.4042	-0.65833	-0.7875	-1.4375	-0.33333	-1.0083	-0.88958	-0.275	-1.3729	-0.71458	-0.58542	-1.125	-133.896	155.870	139.526	156.891	-37.435	-107.263	150.699	110.866	-5.369	-20.512	28.937	-144.741	156.784	97.709	-122.065	111.476	0.0017273	0.00039509	0.00010826	1451.1	7.0718e-06	2.6756e-06	1440.5	399.88	9.1381e-06	5.5074e-06	448.71	145.08	128.69	42.005	5.6142e-06	51.84	0.00012046	9.2878e-05	2.5608e-05	1446.3	1.0496e-06	1.0211e-06	1437.9	398.36	1.0895e-06	1.0132e-06	445.35	144.34	127.2	41.846	1.0473e-06	51.82	40.827	-97.610	-50.866	-160.441	-55.781	-72.855	-160.578	-155.838	-109.758	-20.607	-156.784	-152.465	-151.608	-146.704	-71.150	-147.736	-8191	255	
2079.862	1	1	0	0	0.25156	0.19927	0.22589	0.24554	0.28564	0.21161	0.16447	0.60869	0.18155	0.17168	0.14975	0.28666	0.097416	0.19904	0.13315	0.37292	0.010417	-0.89583	-0.95625	-0.6625	-1.1667	-0.50625	-0.61667	-1.4083	-0.40208	-0.88125	-1.0375	-0.25208	-1.3687	-0.85	-0.47292	-1.4604	115.196	-8.456	32.353	159.463	-52.767	-64.474	158.498	142.208	46.359	-26.652	-136.332	159.306	170.938	163.195	-169.476	107.575	0.0016916	0.00037625	4.4101e-05	1453.5	1.5741e-06	3.8625e-06	1440.1	398.46	9.318e-06	4.7698e-06	449.85	145.98	128.96	42.022	5.3714e-06	52.057	0.00011906	9.5792e-05	2.656e-05	1447.1	1.0418e-06	1.0366e-06	1439.3	398.33	1.1097e-06	1.0765e-06	445.85	144.4	127.38	41.927	1.0765e-06	51.923	36.085	-112.546	-27.500	-160.393	-19.117	-50.312	-160.633	-155.748	-115.993	-12.644	-156.672	-152.377	-151.625	-146.705	-71.976	-147.896	-8191	255	
2079.957	1	1	0	0	0.091481	0.23049	0.41682	0.35498	0.10877	0.2356	0.13019	0.29041	0.14387	0.16606	0.28838	0.042658	0.3417	0.15061	0.19231	0.097444	0.14375	-0.73125	-1.0417	-0.4375	-1.1646	-0.67292	-0.68542	-1.4021	-0.3375	-0.69583	-1.2812	-0.4375	-1.2292	-0.91458	-0.39375	-1.1917	96.781	-107.007	-152.730	93.987	-92.963	-68.292	127.173	133.634	-122.752	52.036	104.618	-118.184	155.940	-98.116	-88.643	-45.680	0.001664	0.00044369	0.0001809	1451.7	3.1168e-06	3.1038e-06	1441.9	399.74	1.0073e-05	3.9829e-06	449.12	146.19	129.39	42.03	6.0525e-06	52.009	0.00012383	9.5268e-05	2.6385e-05	1446.4	1.089e-06	1.0659e-06	1439.7	399.14	1.1204e-06	1.0462e-06	446.15	144.92	127.62	41.924	1.0878e-06	51.91	39.366	-118.785	-68.014	-160.474	-53.393	-54.262	-160.493	-155.900	-119.313	-8.007	-156.511	-152.234	-151.313	-147.042	-102.630	-147.269	-8191	255	
2080.053	1	1	0	0	0.25042	0.030812	0.20579	0.18404	0.13394	0.19221	0.22834	0.31506	0.15361	0.23355	0.3432	0.19388	0.24029	0.20981	0.071487	0.040936	-0.16667	-0.61875	-1.2646	-0.2875	-1.0125	-0.97917	-0.34167	-1.3875	-0.69792	-0.49167	-1.3604	-0.31875	-1.0896	-0.98958	-0.22083	-1.1521	113.384	130.064	181.578	-149.047	-105.938	-116.072	180.875	178.795	52.278	41.191	97.578	126.488	-107.728	144.943	-36.072	58.024	0.0016497	0.00044382	0.0001192	1449.7	3.0829e-06	3.2115e-06	1442.4	399.56	9.0861e-06	3.1509e-06	449.92	146.21	128.86	42.09	8.8335e-06	52.142	0.0001261	9.6468e-05	2.6808e-05	1447.6	1.1136e-06	1.0773e-06	1441.2	398.85	1.1078e-06	1.038e-06	446.12	144.81	127.42	41.985	1.0751e-06	51.943	36.112	-125.126	-105.747	-160.334	-55.637	-50.361	-160.733	-155.947	-112.390	-16.395	-156.450	-152.516	-151.835	-146.975	-51.332	-148.049	-8191	255	
2080.149	1	1	0	0	0.068713	0.072905	0.17396	0.25407	0.21937	0.2419	0.18916	0.45404	0.21768	0.24834	0.17001	0.11483	0.15865	0.14211	0.089273	0.36317	-0.14583	-0.47708	-1.0688	-0.52708	-0.92083	-1.0354	-0.64792	-1.375	-0.74792	-0.38542	-1.3646	-0.4125	-0.48958	-1.3729	-0.35	-1.0479	-87.453	151.828	-14.720	111.207	-118.491	5.711	95.538	54.881	64.000	-83.910	184.767	-138.943	171.488	-158.328	32.638	-139.192	0.0017222	0.00038158	9.5351e-05	1456	2.9984e-06	3.5251e-06	1439.4	398.81	1.0493e-05	5.6401e-06	452.66	145.47	129.02	42.103	8.2604e-06	52.181	0.00012588	9.57e-05	2.6407e-05	1451	1.0785e-06	1.0352e-06	1439.5	398.77	1.1078e-06	1.0401e-06	446.54	144.67	127.42	41.909	1.082e-06	52.017	37.762	-127.967	-66.578	-160.421	-55.280	-4.080	-160.819	-155.948	-118.339	-30.573	-156.610	-152.566	-151.487	-146.776	-85.282	-147.669	-8191	255	
2080.245	1	1	0	0	0.12134	0.30078	0.12511	0.06663	0.10802	0.23589	0.16012	0.43578	0.090793	0.12554	0.17481	0.098017	0.24038	0.22857	0.14129	0.066216	-0.36667	-0.56042	-1.0208	-0.49792	-0.76667	-1.2188	-0.5625	-1.0063	-0.69583	-0.50833	-1.3271	-0.57708	-0.75417	-1.1562	-0.15417	-1.1688	-165.279	131.778	-112.241	138.584	152.679	83.207	140.192	109.183	-134.116	-19.358	153.319	185.230	165.351	-16.299	-135.132	-27.191	0.0016917	0.00044418	0.00011496	1453.5	6.4848e-06	4.4098e-06	1441.4	399.28	7.6355e-06	4.8998e-06	450.12	145.67	128.6	42.061	8.6224e-06	52.006	0.00012246	9.4628e-05	2.6179e-05	1448.4	1.1035e-06	1.032e-06	1439.4	398.89	1.0962e-06	1.0176e-06	446.27	144.75	127.35	41.976	1.0867e-06	51.902	36.763	-76.503	-57.854	-160.337	-51.416	-21.039	-160.677	-156.102	-123.969	-16.662	-156.453	-152.487	-151.325	-146.869	-66.454	-147.874	-8191	255	
2080.341	1	1	0	0	0.17219	0.2183	0.11365	0.39207	0.276	0.069605	0.17595	0.26458	0.044058	0.14507	0.26699	0.13351	0.28579	0.10718	0.07345	0.10073	-0.57083	-0.16875	-1.0542	-0.52917	-0.72917	-1.3687	-0.28542	-0.89375	-1.1396	-0.2375	-1.2875	-0.86458	-0.37083	-1.3708	-0.30208	-0.91042	-37.185	42.753	185.243	109.142	-144.670	-132.448	-159.819	144.824	-35.718	126.022	138.364	125.521	179.331	181.707	91.580	112.211	0.0016886	0.0004205	8.8517e-05	1450.9	4.7937e-06	3.5821e-06	1442.6	401.28	8.1574e-06	3.6916e-06	449.89	146.18	129.1	42.037	8.9575e-06	52.247	0.00012192	9.6085e-05	2.6609e-05	1448.9	1.068e-06	1.0119e-06	1440.6	399.55	1.094e-06	1.0166e-06	446.23	144.68	127.65	41.943	1.0706e-06	51.928	37.630	-107.810	-57.517	-160.674	-33.865	-28.570	-161.006	-156.298	-118.332	-43.901	-156.579	-152.571	-151.447	-146.841	-64.331	-147.839	-8191	255	
2080.462	1	1	0	0	0.32598	0.17733	0.13648	0.37717	0.24539	0.2918	0.31719	0.1984	0.14951	0.094334	0.22858	0.047164	0.37845	0.061236	0.063946	0.022225	-0.78125	-0.2875	-1.0458	-0.96667	-0.44792	-1.0833	-0.8125	-0.83542	-1.0979	-0.29583	-1.3729	-0.87292	-0.51042	-1.2167	-0.42083	-0.75625	-2.118	-83.547	-61.645	177.677	146.553	69.279	167.562	76.242	94.362	160.303	-162.758	47.907	98.225	-78.402	-51.042	-173.285	0.0017191	0.00051375	0.00019483	1449.2	6.1465e-06	4.9619e-06	1442.7	399.47	8.2393e-06	4.7205e-06	451.29	145.98	128.87	42.117	5.2745e-06	51.968	0.00012277	9.5693e-05	2.6197e-05	1447.9	1.0827e-06	1.0167e-06	1439.8	399.07	1.0598e-06	1.0034e-06	447.03	144.69	127.47	41.925	1.0574e-06	51.856	39.363	-119.157	-62.790	-160.298	-56.557	-56.387	-160.946	-156.080	-127.797	-50.281	-156.497	-152.566	-151.682	-147.061	-96.509	-147.716	-8191	255	
2080.558	1	1	0	0	0.32878	0.13639	0.12408	0.16258	0.2608	0.14264	0.24071	0.24936	0.15359	0.051319	0.1323	0.075993	0.111	0.3732	0.48043	0.18414	-0.775	-0.089583	-0.9375	-1.0729	-0.14375	-1.2292	-0.72917	-0.7375	-1.1812	-0.29583	-1.175	-0.825	-0.45	-1.2417	-0.40833	-0.6375	157.945	22.805	134.502	82.669	-165.164	23.040	89.510	-166.253	127.159	-129.185	164.929	116.706	17.214	173.840	154.914	-170.909	0.0017358	0.00058293	0.00011925	1446.2	5.7859e-06	6.1072e-06	1442.8	399.24	1.0926e-05	1.9032e-06	451.59	145.85	129	42.098	7.1931e-06	52.092	0.00012118	9.5073e-05	2.6148e-05	1446.8	1.0673e-06	1.0335e-06	1439.9	398.42	1.0462e-06	1.0224e-06	447.29	144.36	127.43	41.964	1.048e-06	51.908	34.766	-118.463	-77.038	-160.460	-70.680	-51.621	-160.681	-156.035	-115.031	-15.665	-156.758	-152.800	-151.776	-147.300	-61.328	-147.744	-8191	255	
2080.654	1	1	0	0	0.22902	0.15062	0.11315	0.31286	0.17861	0.11266	0.39789	0.19698	0.17238	0.047628	0.03421	0.084657	0.10943	0.21157	0.23063	0.29747	-0.89167	-0.14167	-1.0083	-1.2292	-0.24583	-1.275	-0.76667	-0.43125	-1.2437	-0.16458	-1.025	-1.1938	-0.28125	-1.3208	-0.61667	-0.33958	167.710	89.006	-170.509	157.927	91.336	-36.354	121.394	-173.545	-156.499	-104.010	129.149	-149.007	27.524	154.938	157.184	18.125	0.0017835	0.00050944	0.0001221	1452.3	8.4886e-06	3.4779e-06	1441	400.19	7.4339e-06	3.9764e-06	450.32	146.13	128.99	42.047	5.4567e-06	52.053	0.00012181	9.3995e-05	2.5815e-05	1449.2	1.0628e-06	1.0079e-06	1440.6	398.93	1.0669e-06	1.0416e-06	445.91	144.74	127.32	42.047	1.0338e-06	51.967	38.100	-135.506	-54.524	-160.631	-46.177	-50.275	-161.248	-155.642	-145.771	-7.012	-157.115	-153.038	-152.125	-147.457	-56.193	-148.214	-8191	255	
2080.726	1	1	0	0	0.083104	0.23185	0.28833	0.085307	0.078558	0.12279	0.032528	0.25858	0.12019	0.35408	0.28626	0.40587	0.24195	0.18757	0.19529	0.076636	-0.925	-0.22292	-0.73125	-1.1646	-0.16875	-0.96875	-0.78333	-0.4625	-1.1187	-0.40417	-0.65833	-1.3062	-0.29792	-1.0938	-0.89583	-0.31667	-171.002	107.530	-48.460	76.428	26.505	-116.583	46.429	126.703	179.196	-44.811	-156.514	34.877	138.798	170.721	-4.144	-71.643	0.0017161	0.0003069	5.6277e-05	1450.1	6.8643e-06	4.5707e-06	1442.7	398.44	8.2928e-06	2.7262e-06	450.95	145.73	128.63	42.167	7.2494e-06	51.922	0.00012099	9.2624e-05	2.6234e-05	1448.6	1.0729e-06	1.0002e-06	1441.1	398.24	1.0468e-06	1.0076e-06	446.51	144.5	127.3	42.021	1.035e-06	51.895	36.884	-98.960	-36.789	-161.129	-67.779	-53.054	-161.549	-156.394	-132.058	-65.720	-157.263	-153.061	-152.378	-147.696	-65.332	-148.430	-8191	255	
2080.847	1	1	0	0	0.32406	0.13227	0.091559	0.11521	0.17169	0.2209	0.081754	0.15225	0.065057	0.078968	0.30703	0.38531	0.44276	0.19068	0.14649	0.2697	-0.70417	-0.56458	-0.27292	-1.4208	-0.35625	-0.86875	-1.0667	-0.33125	-1.1646	-0.69375	-0.5375	-1.4333	-0.34583	-0.87708	-0.96458	-0.27083	101.539	63.050	123.040	169.701	-108.884	20.207	133.437	116.909	51.197	160.921	151.356	169.238	-157.255	-168.794	138.861	146.194	0.0015596	0.00034998	0.00013345	1455.9	3.5633e-06	4.14e-06	1443.2	398.53	8.4701e-06	3.2396e-06	451.19	145.56	129.11	42.082	7.6682e-06	52.048	0.00011777	9.1665e-05	2.5715e-05	1448.4	1.0778e-06	9.8873e-07	1440.7	398.22	1.0376e-06	9.9457e-07	446.25	144.74	127.53	41.96	1.02e-06	51.885	37.979	-103.510	-63.763	-160.857	-48.637	-75.656	-161.350	-156.597	-120.254	-60.282	-156.859	-153.296	-152.726	-148.016	-56.053	-148.649	-8191	255	
2080.943	1	1	0	0	0.17096	0.16033	0.064246	0.1764	0.13615	0.1475	0.16166	0.33094	0.13459	0.15382	0.11757	0.15654	0.18364	0.12774	0.19186	0.13728	-0.92083	-0.80208	-0.30208	-1.4562	-0.44792	-0.82083	-1.1896	-0.37292	-1.0938	-0.77708	-0.53958	-1.1812	-0.35	-0.70417	-1.1313	-0.43333	-171.174	143.796	-53.067	176.869	-2.878	166.089	147.105	-155.783	115.784	-164.055	121.567	85.200	-169.696	-139.787	64.622	139.324	0.0018021	0.0003506	0.00011687	1449.5	5.6329e-06	1.9292e-06	1443.5	398.25	7.1058e-06	5.5019e-06	449.6	146.39	128.71	42.32	6.867e-06	51.815	0.00011614	8.9987e-05	2.557e-05	1447.5	1.0579e-06	9.9473e-07	1440.3	398.61	1.0518e-06	9.7078e-07	445.59	144.76	127.3	42.12	9.9769e-07	51.738	41.015	-131.179	-78.433	-161.281	-26.828	-10.119	-161.875	-156.984	-128.784	-29.700	-157.730	-153.217	-152.703	-147.367	-73.284	-148.670	-8191	255	
2081.037	1	1	0	0	0.1807	0.11514	0.11076	0.15733	0.2135	0.19594	0.44603	0.19846	0.16063	0.28496	0.49617	0.10512	0.16837	0.21176	0.33558	0.093552	-0.66042	-0.76042	-0.31875	-1.4062	-0.4875	-0.65208	-1.5021	-0.375	-1.0292	-0.94792	-0.60625	-1.2104	-0.61667	-0.64583	-1.2292	-0.28333	-100.268	-124.854	162.400	-147.688	94.447	-83.895	114.668	160.078	82.603	-136.391	156.059	-162.691	-135.667	-19.247	71.260	80.240	0.0015445	0.00041813	0.00010117	1460.6	5.052e-06	3.8144e-06	1437.8	399.76	1.0077e-05	2.9008e-06	450.25	145.93	128.9	42.002	6.1307e-06	51.871	0.00011893	9.2443e-05	2.5196e-05	1452.5	1.0404e-06	9.9827e-07	1438.9	398.77	1.0509e-06	9.9685e-07	445.82	144.86	127.4	41.938	1.0087e-06	51.866	37.725	-86.491	-66.905	-161.280	-48.935	-55.315	-161.616	-156.866	-105.019	-44.920	-157.648	-153.340	-152.765	-147.734	-77.547	-148.834	-8191	255	
2081.133	1	1	0	0	0.1348	0.15407	0.15277	0.3433	0.10716	0.22837	0.097037	0.26274	0.2555	0.17945	0.10021	0.46558	0.12094	0.25831	0.035529	0.12894	-0.55417	-0.93958	-0.24167	-1.475	-0.89375	-0.44167	-1.5667	-0.64167	-0.84375	-0.96458	-0.40417	-1.3563	-0.82292	-0.56875	-1.1562	-0.43958	-100.657	155.108	123.591	-160.330	39.229	168.891	108.966	155.863	-61.268	49.208	-130.726	172.201	74.976	-111.598	65.287	148.704	0.0016713	0.00039391	9.3403e-05	1454.1	3.1585e-06	5.7369e-06	1441.2	398.18	1.1037e-05	5.0369e-06	450.12	146.26	128.79	42.158	6.2965e-06	51.949	0.00011721	8.9842e-05	2.5145e-05	1448.5	1.0438e-06	9.8258e-07	1441.3	398.5	1.0517e-06	9.928e-07	446.16	144.86	127.39	42.019	1.0213e-06	51.842	39.541	-110.226	-78.592	-161.203	-60.016	-55.497	-161.683	-156.978	-111.761	-32.222	-157.463	-153.353	-152.635	-147.818	-60.084	-148.850	-8191	255	
2081.254	1	1	0	0	0.46594	0.10009	0.17291	0.2639	0.2884	0.29216	0.18593	0.45774	0.18543	0.16692	0.08298	0.16814	0.11349	0.30977	0.32798	0.17685	-0.275	-1.1021	-0.24375	-1.5167	-0.74167	-0.44792	-1.4104	-0.525	-0.5875	-1.0958	-0.51458	-1.1875	-0.87292	-0.48333	-1.3167	-0.48542	106.165	167.146	-146.190	151.660	-82.154	118.481	-88.346	175.232	-173.678	3.057	-104.734	-127.033	130.162	170.241	131.704	21.181	0.001464	0.00045912	0.00011307	1452.9	2.0341e-06	3.7268e-06	1440.1	398.87	9.4411e-06	2.5448e-06	447.61	146.4	128.85	42.184	6.4956e-06	51.981	0.00011891	8.9331e-05	2.5192e-05	1450.6	1.0513e-06	1.0011e-06	1439.9	398.5	1.0307e-06	9.7639e-07	445.23	144.63	127.53	41.996	1.0206e-06	51.881	37.289	-124.228	-44.464	-161.400	-54.651	-0.557	-161.571	-156.922	-123.184	-41.682	-157.417	-153.393	-152.528	-147.911	-79.904	-148.949	-8191	255	
2081.326	1	1	0	0	0.065014	0.22426	0.1408	0.026613	0.2019	0.23403	0.39536	0.21723	0.15387	0.062074	0.23092	0.44766	0.207	0.044572	0.12529	0.16594	-0.38542	-0.98958	-0.39375	-1.15	-0.92917	-0.29583	-1.3208	-0.71667	-0.58958	-1.3917	-0.6375	-0.90625	-0.94583	-0.44583	-1.2563	-0.70833	43.851	80.476	-47.625	-162.599	-65.672	106.866	98.028	-78.488	-26.938	95.190	58.060	98.166	178.465	173.813	-30.257	132.000	0.0017245	0.00034821	0.00013831	1451.2	4.9475e-06	2.0139e-06	1443.4	399.69	9.3795e-06	2.3574e-06	450.26	145.14	128.56	42.23	6.6533e-06	52.038	0.0001175	8.9446e-05	2.5853e-05	1446.8	1.0399e-06	9.8109e-07	1441.2	398.34	1.0442e-06	9.84e-07	445.33	144.32	127.43	42.034	1.0406e-06	51.896	39.557	-102.297	-84.558	-160.978	-35.468	-50.277	-161.591	-156.655	-131.555	-14.833	-157.170	-153.160	-152.293	-147.581	-61.833	-148.624	-8191	255	
2081.422	1	1	0	0	0.04329	0.15755	0.18171	0.1793	0.095722	0.21791	0.19069	0.28605	0.14243	0.11015	0.10555	0.075423	0.13526	0.18445	0.097179	0.080707	-0.1375	-1.2188	-0.31875	-0.96875	-1.0417	-0.22708	-1.3958	-0.86458	-0.40833	-1.3458	-0.41042	-0.96667	-1.1542	-0.27708	-1.2313	-0.93333	124.936	147.403	51.165	176.180	170.102	182.503	-154.950	145.375	183.281	34.674	129.722	-162.634	-133.224	127.392	59.714	49.583	0.0016428	0.00046441	9.1479e-05	1445.8	7.6217e-06	4.6396e-06	1443.6	398.13	9.7144e-06	4.3227e-06	450.01	146.24	128.9	42.156	6.5343e-06	51.756	0.00012019	9.1427e-05	2.6214e-05	1445.9	1.0314e-06	1.0344e-06	1441.2	398.43	1.0512e-06	1.0328e-06	445.43	144.67	127.48	42.014	1.0284e-06	51.849	35.702	-123.614	-52.963	-161.135	-34.463	-61.486	-161.618	-156.719	-130.838	-31.701	-157.319	-153.038	-152.412	-147.623	-110.181	-148.926	-8191	255	
2081.542	1	1	0	0	0.08136	0.30034	0.055378	0.081624	0.14194	0.23608	0.14341	0.24878	0.15494	0.14323	0.15725	0.064556	0.18155	0.27829	0.13221	0.23177	-0.15417	-1.1812	-0.36667	-0.79167	-0.99583	-0.33542	-1.3813	-0.76042	-0.425	-1.1354	-0.68333	-0.78958	-1.3354	-0.32708	-0.9625	-0.98958	-102.964	71.248	-69.548	167.430	90.768	-92.403	-172.568	140.764	37.884	72.559	-161.114	-172.552	-119.575	111.825	136.622	55.903	0.0016636	0.00035426	0.00012993	1451.3	4.2451e-06	3.615e-06	1441.7	397.29	9.5028e-06	5.3357e-06	448.97	146.05	128.38	42.292	4.2839e-06	51.945	0.00012219	9.2522e-05	2.6444e-05	1448.3	1.0671e-06	1.0222e-06	1439.9	397.94	1.073e-06	1.0044e-06	445.68	145.04	127.22	41.969	1.0456e-06	51.81	38.104	-90.922	-74.377	-161.062	-101.067	-69.564	-161.315	-156.611	-124.623	-28.689	-157.118	-152.667	-152.127	-147.547	-83.902	-148.414	-8191	255	
2081.639	1	1	0	0	0.010699	0.045799	0.23085	0.15976	0.21379	0.2054	0.11375	0.23221	0.18129	0.06281	0.19922	0.25839	0.133	0.3398	0.24153	0.33429	0.10208	-1.15	-0.52917	-0.62083	-1.2771	-0.58542	-1.2708	-1.1729	-0.25208	-1.2	-0.65208	-0.5625	-1.1229	-0.52708	-0.83125	-1.0958	-148.873	-40.828	-170.820	177.688	117.681	65.781	120.096	-138.157	81.781	142.032	80.098	-157.974	-111.388	-149.351	129.841	134.469	0.0016928	0.00037209	8.6571e-05	1449.7	5.0058e-06	3.8693e-06	1440.7	398.54	6.2456e-06	3.5058e-06	451.53	145.78	128.63	42.16	7.1551e-06	52.193	0.0001217	9.2743e-05	2.5688e-05	1448.6	1.0605e-06	1.004e-06	1441.3	398	1.0688e-06	1.0019e-06	446.51	144.4	127.31	42.012	1.0346e-06	51.912	40.743	-121.217	-66.077	-161.110	-44.814	-48.261	-161.301	-156.873	-110.143	-35.248	-157.057	-153.081	-152.339	-147.548	-59.211	-148.718	-8191	255	
2081.735	1	1	0	0	0.14437	0.21942	0.070789	0.33039	0.19545	0.30531	0.36996	0.30924	0.30991	0.20416	0.045017	0.30907	0.17741	0.026852	0.15269	0.14736	0.079167	-1.1292	-0.63542	-0.48333	-1.2479	-0.41458	-0.85208	-1.2625	-0.18958	-1.1542	-0.87917	-0.51667	-1.3542	-0.5625	-0.48333	-1.1063	62.037	-18.771	-112.877	130.883	16.729	-113.360	101.650	113.380	-19.466	-11.652	-53.117	-117.877	-111.972	-102.665	6.807	-17.407	0.0017415	0.00038741	8.7191e-05	1449.4	4.5699e-06	5.051e-06	1443.1	399.03	8.2913e-06	2.6103e-06	449.2	145.08	128.96	42.019	5.3397e-06	52.494	0.00012256	9.2238e-05	2.6408e-05	1446.2	1.0498e-06	9.9318e-07	1441.1	398.36	1.0679e-06	9.9892e-07	445.66	144.51	127.63	42.001	1.0425e-06	52.024	36.633	-116.890	-62.665	-161.072	-76.843	-46.749	-161.607	-156.609	-124.394	-17.542	-157.491	-153.162	-152.337	-147.803	-59.015	-148.624	-8191	255	
2081.831	1	1	0	0	0.16315	0.13457	0.015315	0.40779	0.14097	0.12655	0.17164	0.21544	0.22053	0.017838	0.19324	0.21507	0.11062	0.22637	0.21298	0.20833	0.05625	-0.93125	-0.69792	-0.33958	-1.2146	-0.41042	-0.7	-1.4354	-0.43333	-0.89792	-0.95833	-0.51458	-1.1708	-0.525	-0.575	-1.3125	-56.899	10.462	-69.126	-169.954	-168.178	114.778	123.732	31.105	-130.003	14.143	20.537	-135.676	-31.984	88.797	-161.707	141.787	0.0017445	0.00029835	0.00013558	1449.7	4.4495e-06	6.0157e-06	1439.5	399.23	7.1879e-06	3.276e-06	450.62	145.96	128.73	42.086	7.5294e-06	52.035	0.00012157	9.477e-05	2.618e-05	1449.4	1.0555e-06	1.0252e-06	1441.2	398.69	1.0573e-06	1.0154e-06	445.9	144.64	127.59	42.01	1.0218e-06	51.915	35.346	-105.619	-94.594	-161.072	-29.539	-58.333	-161.343	-156.696	-103.633	-20.248	-157.467	-153.240	-152.196	-147.446	-78.574	-148.383	-8191	255	
2081.952	1	1	0	0	0.29852	0.16392	0.074896	0.42491	0.37564	0.15066	0.29833	0.15396	0.075321	0.31373	0.11528	0.20016	0.26694	0.23984	0.21528	0.33924	0.12708	-1.1396	-0.69792	-0.27292	-1.0417	-0.71042	-0.5375	-1.4937	-0.24375	-0.67708	-1.2125	-0.40208	-1.1417	-0.89792	-0.35208	-1.4312	-69.145	-171.390	-89.008	164.773	-76.957	-126.940	-166.159	158.759	137.064	-145.357	92.878	148.813	95.504	70.988	-94.682	-173.401	0.0016553	0.0003449	0.00013476	1455.1	3.6784e-06	2.3736e-06	1445.8	398.29	1.2222e-05	4.1719e-06	449.79	145.99	128.74	42.069	4.2809e-06	51.85	0.00012007	9.211e-05	2.5645e-05	1452.2	1.058e-06	1.0074e-06	1443.1	398.7	1.0763e-06	9.9522e-07	445.62	144.73	127.29	41.971	1.0457e-06	51.806	38.306	-98.942	-87.235	-161.019	-61.878	-20.934	-161.241	-156.621	-120.901	-8.927	-157.379	-153.039	-152.108	-147.489	-77.043	-148.591	-8191	255	
2082.023	1	1	0	0	0.09476	0.09773	0.12605	0.18969	0.41113	0.078967	0.032609	0.19243	0.058825	0.2113	0.28909	0.37796	0.14932	0.063355	0.11009	0.24175	0.0625	-0.61042	-1.1021	-0.48958	-0.85417	-0.76875	-0.50208	-1.4271	-0.375	-0.57917	-1.3771	-0.3625	-0.96458	-0.83958	-0.15208	-1.1875	-62.874	-34.444	72.198	124.116	105.890	-156.350	-150.062	182.741	-33.091	-21.551	125.401	-158.295	94.468	-28.466	3.592	-170.634	0.0017105	0.00047819	8.4543e-05	1449.7	2.9073e-06	3.7189e-06	1443.5	400.23	1.2e-05	4.3819e-06	449.98	145.34	128.49	42.387	8.4439e-06	51.927	0.00012165	9.4183e-05	2.5559e-05	1448.4	1.0612e-06	1.0215e-06	1442.8	399.09	1.0593e-06	1.0333e-06	446.84	144.46	127.34	42.076	1.0542e-06	51.848	39.199	-129.606	-33.341	-161.230	-48.918	-63.597	-161.482	-156.738	-120.015	-5.408	-157.379	-152.963	-152.088	-147.654	-65.551	-148.391	-8191	255	
2082.142	1	1	0	0	0.092045	0.10176	0.31307	0.23401	0.26897	0.18662	0.31116	0.26955	0.19811	0.10959	0.075023	0.097346	0.17728	0.009653	0.12449	0.36143	-0.13958	-0.68958	-1.2896	-0.4125	-0.99375	-0.83542	-0.55208	-1.2542	-0.46042	-0.72917	-1.2563	-0.5375	-0.97708	-1.0396	-0.19792	-1.0333	-14.763	102.901	174.952	161.158	-62.573	143.155	160.932	160.533	-18.090	96.461	-105.640	128.632	130.367	123.416	-121.785	-92.306	0.0017421	0.00038231	9.9098e-05	1453.1	4.8145e-06	4.4522e-06	1442.6	398.62	7.1294e-06	4.7011e-06	451.47	145.17	129.38	42.15	4.1236e-06	51.928	0.00012052	9.2416e-05	2.5756e-05	1449	1.0842e-06	9.9252e-07	1440.9	398.33	1.0832e-06	1e-06	446.68	144.62	127.99	41.946	1.05e-06	51.944	39.440	-153.767	-58.944	-161.054	-56.763	-57.477	-161.435	-156.671	-129.580	-24.889	-157.308	-152.758	-152.169	-147.513	-6.303	-148.425	-8191	255	
2082.238	1	1	0	0	0.29291	0.36154	0.28905	0.049578	0.22383	0.17811	0.20454	0.23714	0.15178	0.23422	0.14801	0.24341	0.12692	0.11818	0.35559	0.17464	-0.27083	-0.61458	-1.2313	-0.44583	-0.65	-1.2062	-0.34792	-1.2833	-0.675	-0.2	-1.35	-0.51875	-0.69583	-1.1208	-0.24583	-1.1771	-161.301	-137.314	-110.789	138.356	141.930	-130.593	39.321	166.348	34.611	158.423	125.220	-140.699	178.492	29.690	142.566	83.445	0.0016672	0.00041754	0.00011842	1455	6.1838e-06	5.1567e-06	1444.8	399.75	1.274e-05	6.1352e-06	448.93	145.91	128.29	42.104	5.7372e-06	52.086	0.00011947	9.1925e-05	2.5647e-05	1450.8	1.0781e-06	9.8894e-07	1442.8	399.2	1.0472e-06	1.0145e-06	446.62	144.68	127.22	41.984	1.0524e-06	51.899	41.637	-92.683	-62.408	-161.052	-59.715	-39.548	-161.304	-156.378	-109.824	-40.048	-157.159	-153.170	-152.356	-147.258	-70.679	-148.177	-8191	255	
2082.334	1	1	0	0	0.03515	0.24345	0.21449	0.36254	0.22267	0.11426	0.27612	0.325	0.076682	0.079488	0.11003	0.056084	0.092845	0.17479	0.1207	0.098515	-0.34375	-0.24792	-1.1771	-0.72708	-0.40625	-1.05	-0.34583	-1.2146	-0.575	-0.33125	-1.0417	-0.5625	-0.43333	-1.1917	-0.1125	-1.1083	62.424	-93.988	142.721	83.129	-9.769	130.357	95.189	162.200	-158.199	-153.618	-126.407	41.880	146.598	159.633	-130.206	-44.528	0.0016635	0.00026867	0.0001201	1448.1	5.2551e-06	3.8669e-06	1439.8	400.07	1.2098e-05	2.8444e-06	448.31	145.51	129	41.956	7.3928e-06	51.854	0.00012012	9.1553e-05	2.5255e-05	1446.9	1.0441e-06	9.9379e-07	1440.2	399.3	1.0537e-06	9.9834e-07	445.53	144.75	127.55	41.989	1.0613e-06	51.846	37.193	-96.022	-91.484	-160.971	-60.241	-29.888	-161.158	-156.463	-115.934	-52.702	-156.917	-152.923	-152.143	-147.290	-82.457	-148.662	-8191	255	
2082.431	1	1	0	0	0.037761	0.058245	0.22547	0.091552	0.027959	0.10739	0.41463	0.31058	0.26266	0.15719	0.074363	0.20078	0.10236	0.040712	0.054795	0.16764	-0.4875	-0.2375	-1.2125	-0.59583	-0.575	-1.2479	-0.42292	-0.88333	-0.99167	-0.19167	-1.3062	-0.67083	-0.4375	-1.2812	-0.21042	-0.82292	156.183	126.868	-66.321	152.976	106.721	23.051	114.121	152.422	93.285	109.113	10.123	141.202	-151.191	-50.354	114.372	130.036	0.0017976	0.00051233	0.00012678	1452.7	2.824e-06	3.2918e-06	1441.4	399.99	9.5304e-06	3.7725e-06	449.01	145.48	128.76	42.119	3.864e-06	51.926	0.0001216	9.5996e-05	2.6029e-05	1448.9	1.0589e-06	9.7762e-07	1441.4	399.11	1.0804e-06	1.0413e-06	444.95	144.57	127.29	42.012	1.0534e-06	51.828	38.005	-94.452	-66.611	-160.979	-65.867	-43.372	-161.339	-156.333	-126.680	-16.784	-157.134	-152.951	-152.186	-147.365	-81.881	-148.150	-8191	255	
2082.551	1	1	0	0	0.060938	0.21556	0.14778	0.028642	0.1346	0.30452	0.22101	0.11707	0.26825	0.2227	0.12473	0.055083	0.026396	0.1339	0.19326	0.093244	-0.60625	-0.095833	-1.0458	-0.88958	-0.26458	-1.2146	-0.76875	-0.85	-1.0958	-0.26042	-1.1458	-0.77083	-0.55417	-1.0854	-0.5625	-0.79167	-1.793	79.457	173.954	-16.199	-108.159	-6.660	159.131	150.476	95.500	-169.941	-145.786	-146.929	42.016	-10.075	155.083	86.573	0.0016278	0.00024217	7.0867e-05	1454.6	7.0419e-06	3.6007e-06	1447.4	399.15	1.1169e-05	2.2562e-06	450.85	145.82	129.14	42.113	6.3826e-06	51.967	0.00012057	9.4773e-05	2.5373e-05	1450.8	1.0572e-06	1.0171e-06	1441.4	398.77	1.0608e-06	1.0221e-06	446.33	144.54	127.67	42.036	1.0334e-06	51.837	37.180	-112.691	-47.849	-160.713	-52.092	-43.316	-161.285	-156.398	-109.434	-72.096	-156.996	-153.049	-152.109	-147.495	-72.643	-148.237	-8191	255	
2082.623	1	1	0	0	0.074115	0.11028	0.1097	0.28818	0.16862	0.22333	0.40628	0.099829	0.23984	0.14566	0.049936	0.13863	0.16855	0.13288	0.27247	0.22137	-0.61458	-0.30625	-0.83542	-1	-0.21042	-1.3208	-0.50833	-0.6625	-1.1896	-0.054167	-1.0125	-1.1979	-0.4625	-1.3667	-0.59167	-0.54792	-43.894	42.168	-169.734	106.763	70.210	-144.448	112.616	80.416	115.477	-96.268	-24.388	116.596	130.056	-160.631	170.461	145.167	0.0016682	0.00045505	6.5487e-05	1456.9	3.3266e-06	3.8883e-06	1443.1	399.79	8.3014e-06	2.3466e-06	451.23	145.55	129.09	42.159	7.2389e-06	52.169	0.00012144	9.479e-05	2.5564e-05	1450.3	1.0568e-06	1.0302e-06	1441.3	399	1.0788e-06	1.0253e-06	446.77	144.68	127.57	42.044	1.0601e-06	51.973	38.432	-137.355	-71.679	-161.020	-35.571	-50.667	-161.595	-156.440	-110.288	-65.756	-157.138	-152.948	-152.211	-147.251	-50.490	-148.194	-8191	255	
2082.719	1	1	0	0	0.24008	0.17841	0.16345	0.068272	0.089308	0.023604	0.084341	0.20436	0.10076	0.13271	0.057824	0.14983	0.18588	0.12394	0.055489	0.17	-0.79583	-0.16667	-0.99583	-1.2896	-0.19375	-1.1375	-0.7625	-0.62083	-1.3458	-0.3875	-0.78542	-1.0938	-0.24375	-1.0708	-0.94375	-0.46667	142.134	-17.777	50.351	31.027	-75.203	-1.356	122.517	180.335	74.944	-142.554	-7.922	150.749	-129.257	164.640	-8.521	34.366	0.0016267	0.00041773	0.00013465	1449.3	2.1875e-06	1.9463e-06	1445.8	400.49	1.2461e-05	2.905e-06	452.14	145.81	129.13	42.057	5.8385e-06	52.267	0.00012037	9.4711e-05	2.6302e-05	1447.7	1.103e-06	1.0106e-06	1441.7	399.21	1.0758e-06	1.0552e-06	447.29	144.64	127.62	42.019	1.0714e-06	51.984	37.545	-96.110	-76.312	-160.947	-61.650	-88.298	-161.455	-156.422	-122.224	-22.637	-157.087	-153.139	-152.163	-147.416	-66.347	-148.419	-8191	255	
2082.815	1	1	0	0	0.15997	0.13646	0.39971	0.20577	0.085449	0.14617	0.26502	0.11158	0.10659	0.11994	0.33119	0.18935	0.23238	0.26511	0.28988	0.047891	-0.825	-0.28333	-0.81042	-1.2521	-0.077083	-0.96458	-0.93958	-0.51458	-1.2625	-0.41042	-0.6375	-1.3396	-0.30417	-1.1583	-0.71042	-0.42292	-173.642	-26.627	-1.477	124.845	37.774	24.731	120.746	-48.284	-7.438	-1.202	156.495	-120.112	-78.239	124.552	-96.504	-24.249	0.0016471	0.00043592	8.0936e-05	1453.2	5.9e-06	5.6924e-06	1443.4	399.6	4.6817e-06	9.5286e-07	449.9	146.45	129.74	42.196	7.3557e-06	52.24	0.00012367	9.5288e-05	2.6624e-05	1453.4	1.1161e-06	1.0411e-06	1444.1	399.12	1.0748e-06	1.0275e-06	446.22	145.02	127.72	41.969	1.0735e-06	52.036	36.755	-105.230	-68.398	-160.941	-43.574	-39.382	-161.348	-156.321	-84.746	-57.260	-157.109	-152.854	-152.364	-147.336	-106.520	-148.192	-8191	255	
2082.934	1	1	0	0	0.25367	0.17567	0.046421	0.38766	0.44946	0.13212	0.086008	0.076143	0.22598	0.20752	0.24662	0.20048	0.32593	0.1484	0.18546	0.35646	-0.69375	-0.45625	-0.59375	-1.2271	-0.31042	-0.93958	-1.1396	-0.44583	-1.4	-0.425	-0.67083	-1.2917	-0.24375	-1.0354	-0.99375	-0.40833	50.734	149.921	-144.429	150.914	-53.605	-14.092	-148.802	81.387	-68.233	115.886	149.215	141.571	140.899	-8.529	159.948	154.343	0.001687	0.00035903	0.00011899	1455.8	5.1933e-06	3.6866e-06	1448.1	400.15	9.8316e-06	4.1955e-06	451.85	146.8	129.11	42.378	5.5711e-06	52.126	0.00012265	9.535e-05	2.637e-05	1451.9	1.0891e-06	1.0449e-06	1445.5	399.34	1.0863e-06	1.0573e-06	447.51	145.14	127.73	42.125	1.0259e-06	51.885	40.444	-86.898	-72.363	-160.662	-73.428	-49.231	-161.190	-156.398	-130.038	-40.857	-156.902	-152.843	-152.345	-147.344	-57.381	-148.447	-8191	255	
2083.030	1	1	0	0	0.1552	0.16762	0.075648	0.078462	0.21681	0.41392	0.15661	0.30406	0.14243	0.19094	0.20384	0.09718	0.13203	0.0298	0.092484	0.20315	-0.86667	-0.60208	-0.3875	-1.5667	-0.25833	-0.79792	-0.97708	-0.36667	-0.82708	-0.5875	-0.51458	-1.4458	-0.48333	-0.84167	-1.2188	-0.36875	91.962	-40.759	-23.504	123.481	83.477	41.269	86.093	114.539	67.704	95.553	-135.081	127.684	-78.036	-153.216	-78.199	107.147	0.0017163	0.00033047	6.5651e-05	1460.7	6.059e-06	2.8418e-06	1445.2	398.65	9.2643e-06	5.6698e-06	449.69	145.7	129.4	42.142	3.1052e-06	52.109	0.00012087	9.5083e-05	2.6241e-05	1452.4	1.1019e-06	1.0127e-06	1444.6	398.51	1.0724e-06	1.0354e-06	446.32	144.76	127.75	42.034	1.0623e-06	52.035	37.870	-111.342	-60.518	-161.032	-50.414	-37.079	-161.234	-156.554	-111.247	-21.010	-157.006	-153.033	-152.266	-147.519	-16.570	-148.533	-8191	255	
2083.126	1	1	0	0	0.20099	0.20319	0.13403	0.31827	0.23829	0.30218	0.28142	0.26887	0.1654	0.23932	0.31971	0.21093	0.33627	0.25009	0.16938	0.18459	-0.55417	-0.7875	-0.41667	-1.3083	-0.46875	-0.54167	-1.5688	-0.52708	-1.0542	-0.95	-0.68125	-1.2375	-0.55	-0.61042	-1.2417	-0.4125	-56.419	-85.022	170.718	-170.101	19.758	65.146	129.558	135.796	78.342	126.934	174.282	-157.549	-152.097	99.750	167.515	-31.571	0.0017044	0.00042251	0.00013416	1457.2	3.2633e-06	3.6911e-06	1442.7	400.86	6.8941e-06	6.1815e-06	450.51	146.01	129.49	42.242	8.9905e-06	52.087	0.00012281	9.446e-05	2.627e-05	1453.1	1.1215e-06	1.0442e-06	1443.7	399.58	1.0806e-06	1.0311e-06	446.73	145.02	127.67	42.075	1.0665e-06	51.898	38.161	-115.722	-70.612	-160.889	-90.517	-46.585	-161.271	-156.552	-124.315	-30.893	-157.232	-153.009	-152.089	-147.486	-66.781	-148.595	-8191	255	
2083.222	1	1	0	0	0.23731	0.39792	0.13983	0.34342	0.11902	0.086566	0.25718	0.38911	0.19475	0.20915	0.51726	0.15709	0.20761	0.27447	0.26232	0.16732	-0.53542	-0.97292	-0.20417	-1.2458	-0.4125	-0.2375	-1.4854	-0.47292	-0.95417	-0.96042	-0.38333	-1.2792	-0.7	-0.50625	-1.1583	-0.4375	115.171	91.709	-37.000	119.808	44.663	79.530	83.645	161.887	-84.221	-59.149	-168.252	-166.341	-115.606	175.390	114.187	15.343	0.0017306	0.00037273	8.9184e-05	1457.3	4.2544e-06	5.4388e-06	1446.8	400.57	1.0405e-05	5.078e-06	449.48	146.29	129.33	42.157	8.0001e-06	52.049	0.00012194	9.3178e-05	2.6826e-05	1452.7	1.0847e-06	1.0337e-06	1446.7	399.66	1.062e-06	1.0083e-06	446.74	145.31	127.86	42.088	1.0579e-06	51.914	38.845	-124.705	-52.032	-160.836	-71.126	-31.644	-161.148	-156.446	-117.628	-17.020	-157.062	-152.913	-152.318	-147.264	-79.821	-148.539	-8191	255	
2083.319	1	1	0	0	0.16594	0.157	0.22339	0.33953	0.272	0.21841	0.085574	0.086677	0.16792	0.11204	0.38082	0.079848	0.16824	0.065424	0.13803	0.064537	-0.69792	-1.0521	-0.22917	-1.3125	-0.63958	-0.57917	-1.3563	-0.72083	-0.65208	-1.1875	-0.37292	-1.2354	-0.92708	-0.47917	-1.2167	-0.6375	-2.110	-146.570	155.850	126.787	145.414	-45.090	42.021	155.541	31.822	50.467	139.609	65.609	-167.400	-121.406	171.929	149.230	0.0017445	0.00057995	0.00010491	1457.3	6.3696e-06	5.0835e-06	1452.1	399.8	8.8399e-06	4.398e-06	450.99	146.08	129.63	42.348	6.9931e-06	51.928	0.00012078	9.5123e-05	2.7023e-05	1453	1.0732e-06	1.0552e-06	1446.7	399.28	1.0658e-06	1.0109e-06	446.5	145.1	127.92	42.188	1.0438e-06	51.941	35.380	-88.824	-74.904	-160.697	-31.290	-36.870	-161.330	-156.378	-120.224	-32.486	-157.094	-152.901	-152.157	-147.154	-67.123	-148.250	-8191	255	
2083.415	1	1	0	0	0.19482	0.23031	0.1049	0.2903	0.27634	0.21055	0.24273	0.26966	0.1867	0.16214	0.15218	0.23091	0.24104	0.050059	0.12763	0.16273	-0.22292	-1.1625	-0.45	-0.95208	-0.875	-0.24167	-1.4062	-0.91458	-0.525	-1.2437	-0.48125	-1.1021	-1.0542	-0.43125	-1.1896	-0.5875	84.061	-11.369	-26.000	160.607	22.503	107.807	-103.112	-171.427	11.166	126.079	92.289	137.120	136.874	149.583	-121.756	-29.660	0.001622	0.00047498	9.2966e-05	1457.7	5.5114e-06	4.4185e-06	1444.9	399.48	6.8953e-06	5.1858e-06	451.59	146.82	128.87	42.082	7.6536e-06	52.212	0.00012187	9.4589e-05	2.6433e-05	1452.6	1.0736e-06	1.0142e-06	1444	399.29	1.1234e-06	1.0248e-06	447.78	145.29	127.65	42.055	1.0658e-06	52.052	38.384	-91.360	-110.504	-160.851	-99.563	-43.780	-160.869	-156.450	-151.069	-35.779	-157.180	-153.004	-151.956	-147.191	-97.877	-148.405	-8191	255	
#DATA ENDS
