BOXY.EXE: ISS Imagent and Oximeter Data Acquisition Program Version 0.80
Ascii Record File

#ACQ INFORMATION
2  Detector Channels 
16  External MUX Channels 
1  Auxiliary Channels 
5000  Waveform (CCF) Frequency (Hz)
1  Waveforms Skipped 
30  Waveforms Averaged 
1  Cycles Averaged 
16  Acquisitions per Waveform 
10.0806  Updata Rate (Hz) 

#FILE INFORMATION
TRUE -- External MUX Channel results are PARSED.
FALSE -- AC DC and Phase are NOT grouped.
TRUE -- Companion Program Settings File CREATED.
FALSE -- AC data not excluded
FALSE -- DC data not excluded
FALSE -- Phase data not excluded
FALSE -- Auxillary Chn. data not excluded
Tab delimiters

#CALIBRATION STATE
TRUE -- Waveform Calibration Values APPLIED.


#AUX CALIBRATION VALUES
Val Type	aux-1	

Term	1.0000e+00	
Factor	0.0000e+00	


#WF CALIBRATION VALUES
A = Detector Channel
Val Type	A-AC1	A-AC2	A-AC3	A-AC4	A-AC5	A-AC6	A-AC7	A-AC8	A-AC9	A-AC10	A-AC11	A-AC12	A-AC13	A-AC14	A-AC15	A-AC16	A-DC1	A-DC2	A-DC3	A-DC4	A-DC5	A-DC6	A-DC7	A-DC8	A-DC9	A-DC10	A-DC11	A-DC12	A-DC13	A-DC14	A-DC15	A-DC16	A-Ph1	A-Ph2	A-Ph3	A-Ph4	A-Ph5	A-Ph6	A-Ph7	A-Ph8	A-Ph9	A-Ph10	A-Ph11	A-Ph12	A-Ph13	A-Ph14	A-Ph15	A-Ph16	

Term	0.00000e+00	0.00000e+00	0.00000e+00	0.00000e+00	0.00000e+00	0.00000e+00	0.00000e+00	0.00000e+00	0.00000e+00	0.00000e+00	0.00000e+00	0.00000e+00	0.00000e+00	0.00000e+00	0.00000e+00	0.00000e+00	0.00000e+00	0.00000e+00	0.00000e+00	0.00000e+00	0.00000e+00	0.00000e+00	0.00000e+00	0.00000e+00	0.00000e+00	0.00000e+00	0.00000e+00	0.00000e+00	0.00000e+00	0.00000e+00	0.00000e+00	0.00000e+00	0.00000e+00	0.00000e+00	0.00000e+00	0.00000e+00	0.00000e+00	0.00000e+00	0.00000e+00	0.00000e+00	0.00000e+00	0.00000e+00	0.00000e+00	0.00000e+00	0.00000e+00	0.00000e+00	0.00000e+00	0.00000e+00	
Factor	1.00000e+00	1.00000e+00	1.00000e+00	1.00000e+00	1.00000e+00	1.00000e+00	1.00000e+00	1.00000e+00	1.00000e+00	1.00000e+00	1.00000e+00	1.00000e+00	1.00000e+00	1.00000e+00	1.00000e+00	1.00000e+00	1.00000e+00	1.00000e+00	1.00000e+00	1.00000e+00	1.00000e+00	1.00000e+00	1.00000e+00	1.00000e+00	1.00000e+00	1.00000e+00	1.00000e+00	1.00000e+00	1.00000e+00	1.00000e+00	1.00000e+00	1.00000e+00	X	X	X	X	X	X	X	X	X	X	X	X	X	X	X	X	

B = Detector Channel
Val Type	B-AC1	B-AC2	B-AC3	B-AC4	B-AC5	B-AC6	B-AC7	B-AC8	B-AC9	B-AC10	B-AC11	B-AC12	B-AC13	B-AC14	B-AC15	B-AC16	B-DC1	B-DC2	B-DC3	B-DC4	B-DC5	B-DC6	B-DC7	B-DC8	B-DC9	B-DC10	B-DC11	B-DC12	B-DC13	B-DC14	B-DC15	B-DC16	B-Ph1	B-Ph2	B-Ph3	B-Ph4	B-Ph5	B-Ph6	B-Ph7	B-Ph8	B-Ph9	B-Ph10	B-Ph11	B-Ph12	B-Ph13	B-Ph14	B-Ph15	B-Ph16	

Term	0.00000e+00	0.00000e+00	0.00000e+00	0.00000e+00	0.00000e+00	0.00000e+00	0.00000e+00	0.00000e+00	0.00000e+00	0.00000e+00	0.00000e+00	0.00000e+00	0.00000e+00	0.00000e+00	0.00000e+00	0.00000e+00	0.00000e+00	0.00000e+00	0.00000e+00	0.00000e+00	0.00000e+00	0.00000e+00	0.00000e+00	0.00000e+00	0.00000e+00	0.00000e+00	0.00000e+00	0.00000e+00	0.00000e+00	0.00000e+00	0.00000e+00	0.00000e+00	6.90162e+01	-1.56128e+02	-1.16186e+02	-1.81639e+02	-7.96074e+01	-9.11058e+01	-1.56882e+02	-1.62015e+02	-1.33922e+02	-6.75792e+01	-1.72122e+02	-1.69516e+02	-1.85555e+02	-1.76516e+02	-9.85877e+01	-1.49146e+02	
Factor	6.21861e-05	1.15743e-04	3.18327e-05	1.64936e-01	1.44916e-06	1.20847e-06	1.76422e-01	5.14978e-02	1.99006e-06	1.27802e-06	8.81120e-02	2.83650e-02	2.55766e-02	8.90638e-03	1.90026e-06	1.25959e-02	1.53080e-06	1.58230e-06	4.40569e-07	8.63224e-02	1.72893e-08	1.73607e-08	8.67342e-02	2.69960e-02	1.72581e-08	1.73857e-08	4.42118e-02	1.42717e-02	1.32884e-02	4.65608e-03	1.73092e-08	6.35628e-03	X	X	X	X	X	X	X	X	X	X	X	X	X	X	X	X	



#DISTANCE SETTINGS
A = Detector Channel
A-1	A-2	A-3	A-4	A-5	A-6	A-7	A-8	A-9	A-10	A-11	A-12	A-13	A-14	A-15	A-16	

2.5000e+00	3.0000e+00	2.5000e+00	3.0000e+00	2.0000e+00	3.0000e+00	1.5000e+00	3.0000e+00	3.0000e+00	3.0000e+00	3.0000e+00	3.0000e+00	3.0000e+00	3.0000e+00	1.5000e+00	3.0000e+00	

B = Detector Channel
B-1	B-2	B-3	B-4	B-5	B-6	B-7	B-8	B-9	B-10	B-11	B-12	B-13	B-14	B-15	B-16	

1.0000e+01	1.0000e+01	1.0000e+01	1.4400e+00	1.0000e+01	1.0000e+01	1.5100e+00	1.9400e+00	1.0000e+01	1.0000e+01	1.9900e+00	2.4900e+00	2.4100e+00	2.9000e+00	1.0000e+01	2.9800e+00	




#DATA BEGINS
time	group	step	mark	flag	A-AC1	A-AC2	A-AC3	A-AC4	A-AC5	A-AC6	A-AC7	A-AC8	A-AC9	A-AC10	A-AC11	A-AC12	A-AC13	A-AC14	A-AC15	A-AC16	A-DC1	A-DC2	A-DC3	A-DC4	A-DC5	A-DC6	A-DC7	A-DC8	A-DC9	A-DC10	A-DC11	A-DC12	A-DC13	A-DC14	A-DC15	A-DC16	A-Ph1	A-Ph2	A-Ph3	A-Ph4	A-Ph5	A-Ph6	A-Ph7	A-Ph8	A-Ph9	A-Ph10	A-Ph11	A-Ph12	A-Ph13	A-Ph14	A-Ph15	A-Ph16	B-AC1	B-AC2	B-AC3	B-AC4	B-AC5	B-AC6	B-AC7	B-AC8	B-AC9	B-AC10	B-AC11	B-AC12	B-AC13	B-AC14	B-AC15	B-AC16	B-DC1	B-DC2	B-DC3	B-DC4	B-DC5	B-DC6	B-DC7	B-DC8	B-DC9	B-DC10	B-DC11	B-DC12	B-DC13	B-DC14	B-DC15	B-DC16	B-Ph1	B-Ph2	B-Ph3	B-Ph4	B-Ph5	B-Ph6	B-Ph7	B-Ph8	B-Ph9	B-Ph10	B-Ph11	B-Ph12	B-Ph13	B-Ph14	B-Ph15	B-Ph16	aux-1	digaux	

2098.996	1	1	0	256	0.21125	0.26379	0.15003	0.2148	0.23181	0.09996	0.060103	0.26049	0.19749	0.17844	0.31211	0.030679	0.056662	0.32246	0.19902	0.18953	-0.23333	-0.31458	-1.0396	-0.28125	-0.75625	-1.0083	-0.38958	-1.2083	-0.64583	-0.4125	-1.2708	-0.45417	-0.37083	-1.05	-0.2625	-0.99583	55.536	48.086	-30.682	-164.803	56.972	77.252	158.236	136.465	-19.864	6.291	109.944	89.831	-141.439	144.662	186.816	123.548	0.00061537	0.00032086	5.8376e-05	983.99	2.5185e-06	1.5986e-06	1086.9	208.16	2.2564e-06	2.5153e-06	265.54	73.838	57.859	16.312	2.5773e-06	23.365	9.9247e-05	8.973e-05	2.4124e-05	958.22	9.9446e-07	9.76e-07	1058.9	203.96	1.0063e-06	9.6002e-07	258.8	72.652	56.379	16.229	9.9142e-07	23.181	45.183	-79.905	-97.719	-158.245	-65.795	-96.188	-158.267	-150.705	-165.505	-10.023	-151.272	-144.534	-143.592	-136.411	22.223	-137.471	-8191	255	
2099.117	1	1	0	0	0.14476	0.19248	0.26126	0.20995	0.16397	0.14596	0.14212	0.29721	0.073423	0.088071	0.17855	0.31705	0.1655	0.17457	0.36653	0.25622	-0.44375	-0.35625	-1.2083	-0.32708	-0.63542	-1.1708	-0.54792	-0.98958	-0.81042	-0.25	-1.1771	-0.64167	-0.49375	-1.0375	-0.325	-0.86458	-152.146	-91.495	33.193	139.642	43.553	34.021	119.009	190.420	189.249	-105.792	-94.760	72.386	-117.317	63.092	-22.754	47.259	0.00067338	0.00011176	4.3206e-05	983.29	2.0856e-06	3.3043e-06	1090.9	208.56	3.8028e-06	3.9642e-06	266.2	74.372	57.92	16.309	4.3474e-06	23.204	9.8934e-05	8.8886e-05	2.5123e-05	956.45	9.7904e-07	9.6135e-07	1061.8	203.94	1.0238e-06	9.9023e-07	258.47	72.811	56.44	16.217	1.0077e-06	23.077	34.665	-145.830	-111.733	-158.117	-68.719	-10.017	-158.044	-150.774	-145.600	-38.070	-150.481	-144.424	-143.698	-136.429	-41.214	-137.149	-8191	255	
2099.189	1	1	0	0	0.31956	0.21343	0.22308	0.13651	0.067262	0.23319	0.14035	0.11802	0.13647	0.10774	0.17888	0.09515	0.094926	0.04243	0.11991	0.23888	-0.60625	-0.12083	-0.99583	-0.55417	-0.39375	-0.96458	-0.33542	-0.77083	-0.92083	-0.13333	-1.2604	-0.6	-0.23542	-1.1521	-0.43542	-0.74583	11.326	-110.359	-119.187	144.877	133.481	109.215	176.799	-151.919	-43.362	-151.041	111.294	-39.605	-131.789	-72.269	8.908	-93.402	0.00061732	0.00046382	8.6342e-05	985.53	5.5099e-06	2.1769e-06	1090.2	207.83	7.5814e-06	2.3239e-06	267.46	73.764	57.755	16.297	4.5844e-06	23.418	0.00010126	9.1823e-05	2.5793e-05	956.76	1.0421e-06	9.8348e-07	1061.6	203.75	1.0559e-06	1.0587e-06	259.72	72.864	56.384	16.151	1.0421e-06	23.191	33.856	-79.798	-57.214	-157.860	-19.923	-39.463	-158.217	-150.459	-81.434	-30.243	-150.994	-144.654	-143.744	-136.717	-81.717	-137.456	-8191	255	
2099.309	1	1	0	0	0.10153	0.13762	0.093306	0.12106	0.11143	0.25614	0.15417	0.087557	0.16431	0.14342	0.23704	0.13303	0.10671	0.24241	0.25167	0.075643	-0.61458	-0.22083	-0.88542	-0.77083	-0.34792	-1.0167	-0.50833	-0.77292	-1.1271	-0.33958	-1.0063	-1.0438	-0.30208	-1.0208	-0.32083	-0.45208	-142.612	78.604	-44.087	57.437	-45.206	119.533	-109.660	-156.268	98.550	79.264	-144.088	150.049	-15.015	-149.794	-26.581	109.484	0.00063676	0.00017878	5.9715e-05	981.91	3.7133e-06	2.6403e-06	1092.6	209.18	4.0531e-06	2.0284e-06	268.6	74.51	57.794	16.329	2.3226e-06	23.429	0.00010316	9.7312e-05	2.7015e-05	958.25	1.1121e-06	1.0427e-06	1063.9	204.54	1.0927e-06	1.0846e-06	260.53	72.953	56.534	16.215	1.0903e-06	23.178	43.023	-124.549	-87.403	-158.111	-29.862	-32.545	-158.425	-150.786	130.239	-57.628	-151.313	-144.829	-144.143	-136.294	-64.967	-136.955	-8191	255	
2099.405	1	1	0	0	0.20176	0.065018	0.063219	0.067336	0.25118	0.19321	0.25371	0.12999	0.15009	0.18477	0.2589	0.083767	0.14605	0.096915	0.13435	0.11994	-0.82083	-0.18125	-1.0208	-0.95417	-0.15	-1.0958	-0.48958	-0.5125	-1.1521	-0.19375	-0.94167	-1.05	-0.22708	-1.0604	-0.64375	-0.37708	-88.210	-135.763	24.157	-122.584	-67.609	-23.600	114.326	29.468	-39.944	92.443	-94.039	29.932	29.486	137.830	-18.101	58.491	0.00070067	0.00023786	0.00012248	991.35	2.5136e-06	3.0522e-06	1093	208.72	1.9366e-06	2.2701e-06	265.58	74.781	57.793	16.4	3.727e-06	23.418	0.00010472	9.5729e-05	2.643e-05	962.61	1.0796e-06	1.0146e-06	1066.6	204.7	1.0216e-06	1.0423e-06	259.7	73.127	56.595	16.273	1.0208e-06	23.21	34.705	-125.534	-76.511	-158.381	-83.133	-98.548	-158.369	-150.707	-98.595	14.554	-151.090	-144.985	-144.232	-136.573	-99.734	-137.735	-8191	255	
2099.500	1	1	0	0	0.060187	0.30326	0.086917	0.074446	0.39205	0.097678	0.27802	0.19405	0.047431	0.051037	0.13048	0.14601	0.24232	0.093342	0.036271	0.083677	-0.77708	-0.14167	-0.73542	-1.1479	-0.1	-1.1979	-0.72292	-0.275	-1.1896	-0.26667	-0.57708	-1.1646	-0.12083	-1.1146	-0.7125	-0.43542	-145.218	104.478	88.836	-158.967	-11.293	92.020	128.936	39.517	51.406	37.300	59.006	-92.863	-55.765	-134.114	130.207	-137.258	0.00060378	0.0003328	4.2527e-05	988.54	2.8703e-06	7.2303e-07	1095.6	209.33	4.1775e-06	1.658e-06	266.06	74.218	57.987	16.317	2.8302e-06	23.145	0.00010099	9.4061e-05	2.5738e-05	960.55	1.0392e-06	9.948e-07	1065.4	205.03	1.0184e-06	1.0119e-06	259.6	72.837	56.613	16.177	1.0203e-06	23.074	44.316	-115.997	-122.477	-158.292	-30.122	160.412	-158.236	-150.720	-89.354	-45.011	-150.934	-144.600	-143.823	-136.719	-29.045	-137.569	-8191	255	
2099.596	1	1	0	0	0.31112	0.16769	0.1953	0.069697	0.042428	0.14139	0.13472	0.19185	0.11994	0.23522	0.28657	0.26764	0.056131	0.090768	0.25869	0.074238	-0.83125	-0.4125	-0.61667	-1.1688	-0.19375	-0.93125	-0.9125	-0.4375	-1.1625	-0.35	-0.48333	-1.1313	-0.225	-0.89792	-0.99167	-0.13542	-6.256	-12.460	-140.674	-143.137	69.637	-44.437	-46.287	179.041	-16.304	-159.419	140.942	-32.849	154.440	106.524	36.020	79.496	0.00061997	0.00028859	6.6096e-05	989.55	8.6047e-07	4.0926e-06	1091.4	207.62	2.7583e-06	1.3567e-06	267.75	74.3	57.998	16.374	3.3071e-06	23.394	0.0001021	9.418e-05	2.5732e-05	963.02	1.0434e-06	1.0229e-06	1064.1	204.32	1.0292e-06	1.0668e-06	260.51	72.956	56.453	16.225	1.028e-06	23.216	31.862	-137.048	-58.097	-158.507	-24.806	-36.259	-158.359	-150.954	-167.501	-86.154	-151.292	-144.701	-144.101	-136.054	-43.028	-137.322	-8191	255	
2099.717	1	1	0	0	0.16255	0.16562	0.132	0.019078	0.18552	0.16243	0.20198	0.31982	0.023319	0.127	0.061871	0.15299	0.21558	0.044099	0.20562	0.18135	-0.62292	-0.46042	-0.34792	-1.3521	-0.40417	-0.81875	-1.225	-0.28333	-1.0229	-0.59792	-0.23125	-1.1979	-0.3375	-0.78333	-1.0812	-0.14375	-113.418	112.103	178.709	-160.627	162.688	-63.085	178.030	177.804	-63.052	103.684	-9.818	94.069	-134.037	121.113	-149.070	-27.383	0.0006943	0.00015325	2.1492e-05	987.51	2.0603e-06	2.2901e-06	1093.3	208.76	5.4943e-06	2.4246e-06	266.61	74.544	57.903	16.404	2.8354e-06	23.267	0.00010077	9.5739e-05	2.5922e-05	962.42	1.0413e-06	1.0144e-06	1065.5	204.55	1.0465e-06	1.0058e-06	259.36	72.962	56.471	16.237	1.0044e-06	23.077	33.436	91.854	129.014	-158.409	-43.540	-28.673	-158.184	-150.714	-133.768	-25.959	-151.425	-144.740	-144.347	-136.357	-77.106	-137.414	-8191	255	
2099.788	1	1	0	0	0.44756	0.2572	0.21704	0.070346	0.058739	0.219	0.17661	0.36062	0.33162	0.094523	0.1152	0.10449	0.30505	0.32281	0.063909	0.20386	-0.54792	-0.73333	-0.18333	-1.3583	-0.13542	-0.63958	-1.1396	-0.32292	-1.0542	-0.6375	-0.48333	-1.0771	-0.45417	-0.45208	-1.1542	-0.32917	-30.628	-90.243	104.948	107.725	-165.578	-94.967	90.219	-147.049	-105.350	44.974	-158.916	131.244	-154.379	-87.261	134.600	185.555	0.00076393	0.00017905	9.0916e-05	989.19	5.0094e-06	2.8041e-06	1092	208.11	5.4044e-06	1.114e-06	268.71	74.32	57.88	16.408	4.2154e-06	23.169	0.0001013	9.4955e-05	2.6485e-05	961.27	1.0342e-06	1.0086e-06	1064.3	203.65	1.018e-06	1.0122e-06	260.04	72.996	56.545	16.218	1.044e-06	23.1	44.664	-142.446	-64.301	-158.159	-65.723	-28.436	-158.129	-150.742	-65.594	-65.663	-151.438	-144.681	-143.771	-136.220	-36.664	-137.282	-8191	255	
2099.884	1	1	0	0	0.29112	0.1423	0.23047	0.013657	0.11528	0.38272	0.14366	0.18266	0.10785	0.13238	0.19889	0.10632	0.12751	0.32937	0.25314	0.44439	-0.62708	-0.81875	-0.13542	-1.2396	-0.28542	-0.6375	-1.3896	-0.2	-0.74792	-1.0417	-0.43542	-1.0667	-0.62917	-0.37083	-1.2687	-0.40625	180.657	27.137	181.485	124.787	90.006	-164.409	-133.925	-144.397	-44.728	11.462	137.702	-112.705	19.978	-99.161	-91.489	25.922	0.0007445	0.00025956	2.2435e-05	986.69	4.7755e-06	4.553e-07	1092.5	209.39	3.1025e-06	3.1138e-06	266.44	74.341	57.77	16.362	4.1344e-06	22.997	0.00010358	9.1589e-05	2.6518e-05	960.99	1.0375e-06	1.0183e-06	1063.7	204.55	1.0155e-06	1.0189e-06	259.98	72.854	56.469	16.223	1.0083e-06	23.1	43.250	-31.500	-125.291	-158.075	-48.671	-153.597	-158.010	-150.946	-163.649	39.211	-151.224	-144.357	-144.202	-136.420	-54.015	-137.327	-8191	255	
2099.981	1	1	0	0	0.18023	0.12205	0.26538	0.19888	0.20447	0.20388	0.26461	0.11661	0.065847	0.083947	0.09762	0.11053	0.23953	0.31714	0.024633	0.3232	-0.38542	-0.91667	-0.19375	-1.1146	-0.39167	-0.40417	-1.3042	-0.44583	-0.73333	-0.93958	-0.25208	-1.1354	-0.76458	-0.52083	-1.0312	-0.62292	165.198	-10.904	-38.207	127.091	-9.509	166.249	165.409	140.396	-105.974	-18.264	127.927	-34.755	108.897	151.520	-166.716	87.351	0.00072932	0.00022648	0.000116	988.59	1.6351e-06	1.8634e-06	1089.5	208.19	5.9607e-06	3.7913e-06	265.83	74.45	57.959	16.331	8.6405e-07	23.317	0.0001021	9.2766e-05	2.6298e-05	962.11	1.0364e-06	1.0168e-06	1065.6	204.14	1.0157e-06	9.8483e-07	259.55	72.947	56.626	16.202	9.9275e-07	23.155	40.040	-124.350	-49.767	-158.102	128.430	180.098	-158.170	-150.959	-163.638	-75.613	-151.006	-144.340	-144.030	-136.312	-134.132	-137.650	-8191	255	
2100.101	1	1	0	0	0.36614	0.20473	0.072981	0.2139	0.1645	0.21783	0.20907	0.2902	0.24821	0.063093	0.24958	0.14174	0.39769	0.10818	0.34192	0.1375	-0.35833	-0.975	-0.035417	-1.225	-0.73542	-0.30625	-1.4417	-0.46458	-0.53542	-1.1396	-0.09375	-1.0042	-0.77292	-0.32917	-1.1146	-0.55625	-54.327	-111.220	25.882	117.253	74.141	32.047	153.243	96.974	97.841	-86.734	-118.013	-9.358	176.315	-140.050	-11.169	141.056	0.00066247	0.00016926	2.3766e-05	985.78	5.3311e-06	9.4018e-07	1090.2	207.76	5.1297e-06	1.4154e-06	265.21	74.335	57.979	16.348	2.7664e-06	23.327	9.9971e-05	8.9918e-05	2.5164e-05	960.6	1.0027e-06	9.824e-07	1062.5	203.83	9.9633e-07	9.7302e-07	259.04	72.829	56.532	16.211	9.779e-07	23.113	36.962	-34.522	-64.460	-158.022	-52.240	-0.033	-158.230	-150.982	-117.525	19.813	-151.003	-144.481	-144.021	-136.349	-70.346	-137.474	-8191	255	
2100.197	1	1	0	0	0.15864	0.053951	0.11334	0.22527	0.070405	0.044318	0.13271	0.19955	0.39097	0.076706	0.25845	0.27999	0.14571	0.13441	0.20621	0.07258	-0.095833	-0.97708	-0.3375	-1.0354	-0.87708	-0.15625	-1.1583	-0.6	-0.29167	-1.0438	-0.12292	-0.575	-0.91667	-0.19167	-1.2542	-0.63125	172.317	-60.870	-53.615	140.434	98.749	9.444	143.268	-147.298	-163.228	-80.955	171.835	-69.732	8.922	70.810	155.062	121.866	0.00077651	0.00029285	0.0001137	982.54	3.3699e-06	3.0565e-06	1091.5	208.24	5.0269e-06	1.2075e-06	266.7	74.617	57.976	16.314	5.401e-06	23.252	0.00010084	9.0059e-05	2.5139e-05	958.66	1.0127e-06	9.986e-07	1065.9	204	1.0361e-06	9.9765e-07	259.35	72.949	56.496	16.157	1.0078e-06	23.186	45.535	-111.004	-37.820	-158.314	-58.851	-36.482	-158.333	-151.046	-111.814	62.069	-151.241	-144.561	-143.919	-136.491	-61.291	-137.702	-8191	255	
2100.293	1	1	0	0	0.0716	0.17324	0.054206	0.083532	0.14895	0.27295	0.47086	0.27984	0.26783	0.31825	0.1749	0.14131	0.15479	0.078454	0.20623	0.11677	0.16667	-0.99375	-0.22083	-0.85	-0.91458	-0.18125	-1.1104	-0.67917	-0.2375	-1.1229	-0.50417	-0.61042	-0.99375	-0.17708	-0.925	-1.0271	70.429	177.396	-145.126	182.242	156.864	50.351	88.457	-167.484	-117.012	150.182	126.234	176.489	-63.464	74.296	178.651	173.435	0.0007231	0.00015844	8.9344e-05	987.06	3.6527e-06	2.1698e-06	1089	210.12	4.8031e-06	9.5755e-07	266.25	74.493	57.91	16.372	1.579e-06	23.232	0.00010054	9.1052e-05	2.57e-05	962.64	1.0204e-06	9.9874e-07	1064.6	204.45	1.0337e-06	9.9613e-07	259.53	73.187	56.55	16.197	9.9913e-07	23.133	47.374	-68.645	-48.326	-158.158	-20.590	-22.186	-158.447	-150.826	-68.158	-112.952	-151.089	-144.860	-144.187	-136.775	33.613	-137.441	-8191	255	
2100.390	1	1	0	0	0.15324	0.11935	0.05086	0.15837	0.21341	0.047602	0.12513	0.18697	0.10633	0.2444	0.2609	0.07934	0.21943	0.30672	0.20909	0.18115	0.18333	-1.1229	-0.14167	-0.625	-1.1479	-0.083333	-1.1667	-0.93125	-0.19375	-1.1812	-0.55208	-0.44375	-0.91667	-0.22708	-0.8	-0.9875	54.148	-46.284	34.824	148.788	-93.373	76.588	190.281	44.798	124.251	-165.636	58.045	-96.881	61.233	165.298	-129.749	100.403	0.00066903	0.00024103	5.8242e-05	984.53	1.0443e-06	4.3696e-06	1096.7	208.8	3.6538e-06	2.2877e-06	267.26	75.235	57.746	16.399	4.2808e-06	23.236	0.00010237	9.1385e-05	2.5359e-05	960.15	1.0154e-06	1.0078e-06	1066.7	204.11	1.0393e-06	9.9178e-07	259.82	73.312	56.445	16.174	1.0086e-06	23.13	41.249	-52.281	-96.969	-158.218	-6.210	-11.694	-158.266	-150.907	-129.221	-14.356	-151.604	-144.432	-144.119	-137.077	-70.174	-137.334	-8191	255	
2100.486	1	1	0	0	0.036753	0.11786	0.35044	0.31398	0.14613	0.34183	0.08703	0.10285	0.12594	0.18847	0.14333	0.19437	0.276	0.33357	0.3004	0.22931	0.19375	-0.95	-0.51667	-0.5375	-1.1125	-0.31042	-0.88542	-0.95625	-0.054167	-1.0438	-0.53542	-0.29167	-1.0396	-0.62917	-0.73542	-0.94375	183.728	154.604	141.842	-142.799	65.509	135.681	-16.375	-92.156	39.796	155.628	23.777	-138.141	75.741	172.750	147.063	130.715	0.00055167	5.1523e-05	9.9645e-05	991.5	1.6855e-06	4.7636e-07	1091.2	208.93	2.3223e-06	4.3039e-06	267.57	74.117	57.625	16.492	4.7285e-06	23.385	0.00010209	9.1279e-05	2.5023e-05	961.93	1.0129e-06	1.0243e-06	1065.5	204.92	1.0696e-06	1.0154e-06	260.69	72.942	56.563	16.253	1.0314e-06	23.215	42.428	-52.730	-109.742	-158.326	58.286	38.606	-158.400	-150.968	-70.622	-41.574	-151.324	-144.975	-144.015	-136.993	-71.287	-137.972	-8191	255	
2100.580	1	1	0	0	0.24369	0.25343	0.2188	0.30301	0.13197	0.081505	0.18947	0.11125	0.089286	0.067924	0.081831	0.10812	0.1406	0.21807	0.15404	0.067644	0.39792	-0.99375	-0.81875	-0.54167	-1.1167	-0.44375	-0.56667	-1.1437	-0.16042	-0.96458	-0.76875	-0.27292	-1.3312	-0.4625	-0.3625	-1.3042	11.185	43.707	-14.355	182.675	3.259	-15.839	119.814	-151.910	121.227	-27.443	-100.828	-109.249	167.741	68.242	-103.554	141.064	0.00064993	0.00041403	0.00010376	988.36	1.8811e-06	7.9674e-07	1100.4	209.86	4.645e-06	4.2658e-06	266.16	74.072	57.883	16.329	4.5626e-06	23.405	0.00010455	9.116e-05	2.576e-05	963.47	1.0528e-06	9.965e-07	1069.5	204.66	1.0461e-06	1.0062e-06	260.23	73.012	56.491	16.211	1.028e-06	23.186	41.733	-126.439	-33.959	-158.125	-28.154	41.279	-158.434	-151.031	-126.293	-48.564	-151.434	-144.468	-143.544	-136.743	-70.281	-137.144	-8191	255	
2100.678	1	1	0	0	0.093524	0.072868	0.015185	0.10585	0.21811	0.24281	0.17388	0.064181	0.14509	0.15826	0.098791	0.3546	0.03544	0.24033	0.13072	0.21348	0.22708	-0.7875	-0.72292	-0.35625	-1.1083	-0.4625	-0.50208	-1.1167	-0.25	-0.81667	-0.91458	-0.066667	-1.2062	-0.50417	-0.34375	-1.0792	-121.911	100.634	61.256	-88.173	47.432	-43.051	160.940	-57.367	36.930	-113.171	-153.362	-148.751	96.207	175.904	145.300	8.928	0.00069582	9.7228e-05	5.4038e-05	993.37	3.3846e-06	3.3509e-06	1096.4	207.91	4.9656e-06	1.873e-06	266.04	74.783	58.065	16.413	6.9362e-06	23.3	0.0001053	9.2637e-05	2.5753e-05	965.32	1.0383e-06	1.0101e-06	1069.6	204.41	1.0444e-06	1.042e-06	259.9	73.128	56.8	16.299	1.0401e-06	23.183	43.153	-158.477	-122.701	-158.084	-53.481	0.936	-158.137	-150.753	-86.857	-7.649	-151.636	-144.706	-143.884	-136.868	8.843	-137.338	-8191	255	
2100.797	1	1	0	0	0.30149	0.28039	0.14813	0.25772	0.22595	0.20547	0.24825	0.086985	0.16917	0.048964	0.12809	0.087136	0.067309	0.087433	0.19488	0.21504	0.047917	-0.725	-0.89375	-0.22917	-0.81042	-0.63333	-0.3125	-1.2563	-0.10417	-0.56667	-0.9125	-0.20833	-0.875	-0.68125	-0.38542	-1.2979	-132.746	-117.654	93.066	-129.037	-84.160	-61.931	148.293	128.425	-111.005	74.794	135.507	-121.710	142.675	-4.382	12.468	70.187	0.00066499	0.00024796	6.2453e-05	991.71	2.3697e-06	3.237e-06	1097.7	208.37	3.0519e-06	3.2735e-06	267.49	75.174	58.126	16.491	1.6273e-06	23.451	0.00010105	9.148e-05	2.6323e-05	964.04	1.033e-06	9.9741e-07	1069.1	204.29	1.0372e-06	1.0006e-06	260.2	73.257	56.728	16.265	1.003e-06	23.256	37.440	-120.698	-72.580	-158.141	-52.263	-83.257	-158.322	-151.090	-86.171	-62.119	-151.361	-144.588	-143.844	-136.897	-7.433	-138.083	-8191	255	
2100.893	1	1	0	0	0.10278	0.2229	0.14387	0.27531	0.24638	0.2692	0.16168	0.16012	0.12191	0.037657	0.14652	0.079687	0.19423	0.090149	0.19533	0.10834	0.10417	-0.46667	-1.1042	-0.35625	-0.91875	-0.725	-0.3125	-1.1875	-0.33958	-0.67708	-1.0396	-0.31042	-0.87083	-0.76458	-0.22083	-1.025	184.783	58.222	45.121	181.020	-160.176	-28.909	4.320	-155.160	81.857	-19.597	50.864	-14.148	-53.342	-148.009	96.220	-24.584	0.00082483	0.0003254	6.3463e-05	989.6	1.6955e-06	2.7532e-06	1092.7	209.09	7.2101e-06	4.0053e-06	267.43	74.704	57.71	16.336	2.6747e-06	23.318	0.00010262	9.4032e-05	2.5208e-05	963.94	1.0344e-06	1.0368e-06	1067.3	204.77	1.0413e-06	1.0141e-06	260.48	73.199	56.639	16.238	1.0443e-06	23.237	35.119	-85.492	-90.525	-158.347	-115.079	-124.910	-158.600	-151.129	-138.742	-3.665	-151.730	-145.072	-144.077	-136.906	184.460	-137.850	-8191	255	
2100.989	1	1	0	0	0.12234	0.13202	0.15591	0.23315	0.1526	0.096945	0.10163	0.21599	0.18412	0.21775	0.051384	0.25642	0.15258	0.34827	0.084914	0.065176	-0.10208	-0.27292	-1.0438	-0.49375	-0.69167	-0.84375	-0.35	-1	-0.48125	-0.26667	-1.025	-0.25625	-0.57708	-0.86042	-0.12083	-1.0104	-29.910	-26.796	2.136	-119.264	118.098	-77.473	38.627	163.444	139.593	118.650	52.873	128.763	-147.462	53.283	-44.703	-118.997	0.00062321	7.9411e-05	8.8487e-05	990.88	1.5837e-06	4.0929e-06	1097.1	208.84	5.9448e-07	2.021e-06	267.37	74.59	57.748	16.36	1.2276e-06	23.028	0.00010606	9.5522e-05	2.5469e-05	964.16	1.0757e-06	1.0346e-06	1068.9	204.89	1.0876e-06	1.0333e-06	260.63	73.168	56.865	16.283	1.0636e-06	23.209	45.564	165.242	-90.381	-158.345	-72.974	-35.730	-158.581	-151.264	-94.872	20.216	-151.454	-145.049	-144.044	-137.185	-50.383	-138.260	-8191	255	
2101.085	1	1	0	0	0.033226	0.21065	0.085658	0.14422	0.21886	0.14779	0.22863	0.26262	0.21571	0.21248	0.24006	0.036049	0.18056	0.062762	0.14269	0.093592	-0.21458	-0.29792	-1.1021	-0.51458	-0.60208	-1.0021	-0.27083	-0.98125	-0.74792	-0.30208	-0.94167	-0.425	-0.40417	-0.84792	-0.20833	-0.98125	69.141	67.107	100.181	147.477	-161.977	-28.500	167.463	161.572	-111.254	60.220	-150.332	-166.914	5.436	-132.951	185.213	47.316	0.00058584	0.00027154	3.5296e-05	991.26	9.9151e-07	2.9842e-06	1095.5	209.15	6.8954e-06	1.3712e-06	267.4	75.458	57.948	16.434	4.3351e-06	23.585	0.00010396	9.6758e-05	2.6326e-05	967.83	1.0608e-06	1.0522e-06	1070.6	204.71	1.0711e-06	1.0597e-06	261.13	73.439	56.925	16.3	1.0727e-06	23.369	51.346	-87.529	-1.583	-158.662	-63.925	6.433	-158.368	-150.932	-126.103	-93.345	-151.644	-145.073	-144.289	-136.878	-92.781	-137.565	-8191	255	
2101.182	1	1	0	0	0.10266	0.20719	0.22931	0.22597	0.12486	0.16519	0.47219	0.097005	0.049036	0.36878	0.20775	0.15074	0.15966	0.13561	0.037104	0.021595	-0.375	-0.31042	-1.0479	-0.50833	-0.52083	-1.175	-0.13958	-0.99167	-0.6125	-0.1375	-1.0625	-0.45417	-0.48542	-1.0042	-0.20625	-0.92292	106.225	-46.787	-120.660	-126.505	-160.496	-138.999	173.110	-53.359	-160.488	-119.947	148.289	187.608	56.173	-165.284	155.899	-90.635	0.00073	0.00018409	3.7141e-05	996.64	2.4559e-06	4.7251e-06	1098.4	210.18	3.2823e-06	1.9002e-06	267.6	74.553	58.193	16.348	5.2957e-06	23.613	0.00010109	9.5485e-05	2.607e-05	967.93	1.0581e-06	1.0084e-06	1069.9	205.13	1.054e-06	1.0445e-06	260.38	73.402	56.721	16.296	1.0414e-06	23.37	50.044	-64.897	-33.715	-158.226	-31.881	-40.661	-158.592	-150.717	-78.937	-69.870	-151.497	-144.778	-144.372	-137.087	-86.442	-137.799	-8191	255	
2101.278	1	1	0	0	0.19138	0.15525	0.054887	0.29256	0.11694	0.096973	0.15777	0.16671	0.12492	0.30809	0.11467	0.15465	0.079005	0.28073	0.26388	0.21989	-0.6	-0.075	-1.1896	-0.475	-0.22708	-1.2167	-0.55208	-0.775	-0.82083	-0.10208	-1.1375	-0.53125	-0.3375	-1.1104	-0.29375	-0.5625	111.507	-14.908	-94.749	87.382	118.276	153.567	-133.519	151.336	-166.236	130.502	114.036	128.606	81.170	175.455	-148.942	-90.314	0.00070006	0.00012271	6.4442e-05	991.91	2.152e-06	2.1888e-06	1097.6	209.36	4.3405e-06	1.5243e-06	269.12	74.371	58.175	16.236	4.7783e-06	23.345	0.00010169	9.239e-05	2.4703e-05	965.56	1.0154e-06	1e-06	1070.3	205.31	1.0118e-06	1.0213e-06	261.51	73.202	56.966	16.241	9.7973e-07	23.248	39.873	-106.550	-36.317	-158.669	-103.464	-72.788	-158.590	-151.265	-102.080	5.642	-151.167	-145.062	-144.233	-136.676	-10.371	-137.546	-8191	255	
2101.398	1	1	0	0	0.11264	0.12983	0.24589	0.32717	0.27961	0.092262	0.32479	0.044249	0.26764	0.14144	0.17746	0.34428	0.10716	0.12957	0.09153	0.24992	-0.6875	-0.11667	-0.83125	-0.80417	-0.27917	-0.96458	-0.45833	-0.39375	-0.82292	0.016667	-0.82917	-0.67083	-0.225	-1.1604	-0.47917	-0.45417	90.245	-10.841	166.320	149.432	125.453	74.578	65.660	118.330	34.710	109.406	-162.099	-142.084	-159.534	-144.887	-157.644	-66.000	0.00057558	0.00020002	8.9584e-05	994.11	1.3562e-06	2.2393e-06	1098.9	209.58	2.3082e-06	2.0274e-06	268.92	74.289	58.197	16.489	3.523e-06	23.5	9.9725e-05	9.0257e-05	2.5145e-05	965.76	1.0157e-06	9.8392e-07	1072.2	205.02	1.0153e-06	1.0117e-06	261.46	73.164	56.843	16.318	9.9463e-07	23.275	34.796	-98.529	-58.685	-158.540	11.951	33.813	-158.470	-151.124	-107.478	-39.271	-151.745	-144.753	-144.098	-136.551	-35.693	-137.527	-8191	255	
2101.493	1	1	0	0	0.078617	0.12845	0.28248	0.062097	0.25246	0.18228	0.25478	0.11912	0.12312	0.14887	0.2218	0.067458	0.094585	0.076717	0.23794	0.19795	-0.58333	-0.26458	-0.71042	-0.88333	-0.225	-0.99792	-0.52708	-0.37917	-1.1542	-0.23542	-0.68333	-0.75833	-0.18958	-1.05	-0.4625	-0.33542	-51.055	-25.982	-142.980	-106.258	-125.700	-34.724	99.009	72.985	-147.502	-123.253	92.414	-161.202	83.100	-130.026	-133.915	-49.438	0.00069202	0.00027501	7.8298e-05	995.61	2.6115e-06	2.9691e-06	1098.3	209.27	6.9808e-06	1.1144e-06	269.14	74.515	58.194	16.485	1.3512e-06	23.194	9.9346e-05	9.4932e-05	2.5168e-05	965.95	1.0485e-06	9.9762e-07	1071.8	204.99	1.0438e-06	1.0277e-06	261.23	73.303	56.818	16.297	1.0541e-06	23.313	31.001	-138.416	-61.911	-158.623	-38.213	13.246	-158.532	-150.695	-105.473	-37.620	-151.216	-144.791	-144.414	-137.030	-111.579	-137.308	-8191	255	
2101.589	1	1	0	0	0.099924	0.30095	0.16319	0.24113	0.15942	0.31411	0.33413	0.040601	0.13232	0.16489	0.1058	0.039317	0.31756	0.11522	0.054372	0.31283	-0.78333	-0.25417	-0.78542	-1.2396	-0.34167	-1.0792	-0.775	-0.19375	-1.1583	-0.27708	-0.6625	-1.1	-0.12292	-0.88125	-0.61042	-0.060417	114.648	141.169	102.290	78.755	-15.017	-57.223	67.844	-43.679	-46.608	-164.979	-84.619	-140.952	125.391	-127.617	-129.569	126.905	0.00058338	0.00034605	9.844e-05	1001	3.1241e-06	1.7507e-06	1098.1	209.29	2.6383e-06	3.4147e-07	268.18	74.745	57.991	16.423	2.7351e-06	23.46	0.00010351	9.2855e-05	2.5944e-05	969.6	1.0578e-06	1.0158e-06	1072.8	205.14	1.0365e-06	1.0245e-06	261.21	73.503	56.848	16.321	9.9885e-07	23.377	47.360	-103.837	-103.063	-158.312	-26.183	-145.957	-158.450	-150.996	-130.287	-152.232	-151.813	-145.024	-144.198	-136.929	-18.187	-138.031	-8191	255	
2101.662	1	1	0	0	0.082744	0.18843	0.074886	0.12922	0.22846	0.14644	0.47839	0.10468	0.17999	0.35944	0.032664	0.19567	0.095682	0.24624	0.037093	0.21135	-0.69583	-0.35833	-0.27083	-0.99583	-0.19792	-1.025	-0.90417	-0.27708	-1.1688	-0.53542	-0.71875	-1.3104	-0.14375	-0.92292	-0.90208	-0.14792	-29.165	-114.607	-21.310	160.653	-134.401	47.795	125.415	83.271	-0.177	-49.317	-68.072	100.915	-95.467	97.120	60.791	-152.825	0.00063752	0.00018448	7.3806e-06	991.87	5.487e-06	3.4777e-06	1098.7	209	6.4057e-06	9.0007e-07	268.03	74.893	58.426	16.382	6.9621e-06	23.564	0.00010038	9.0036e-05	2.5712e-05	969.83	1.066e-06	1.0261e-06	1072.8	205.14	1.0276e-06	1.0221e-06	261.41	73.408	57.151	16.354	9.8651e-07	23.409	49.220	-148.979	-62.274	-158.469	-87.207	-36.898	-158.572	-151.298	-104.875	0.286	-151.381	-144.627	-144.084	-137.025	-83.495	-137.809	-8191	255	
2101.781	1	1	0	0	0.12774	0.22644	0.05811	0.36783	0.11199	0.20937	0.066457	0.11939	0.11886	0.30654	0.043137	0.04595	0.040172	0.23579	0.032146	0.16906	-0.625	-0.49792	-0.48333	-1.4458	-0.091667	-0.79375	-1.0521	-0.35	-0.94167	-0.36667	-0.31875	-1.1833	-0.47083	-0.65	-0.96667	-0.175	-156.120	-151.998	178.490	-166.787	105.237	-28.415	-154.054	174.395	167.707	-98.855	-2.429	-22.639	45.190	170.809	-95.965	85.673	0.00075402	0.00029419	2.1123e-05	994.5	5.8002e-06	4.844e-06	1101.2	209.39	6.4106e-06	6.9527e-07	267.22	74.681	58.473	16.565	3.0501e-06	23.723	0.00010371	9.2944e-05	2.5257e-05	970.64	1.0197e-06	9.9303e-07	1073.6	205.28	1.0204e-06	1.0051e-06	261.09	73.547	57.069	16.397	9.8118e-07	23.417	42.088	-113.768	4.464	-158.296	-77.425	-56.786	-158.834	-150.962	-101.650	6.474	-151.355	-144.898	-144.022	-136.832	-96.137	-137.935	-8191	255	
2101.877	1	1	0	0	0.12708	0.16633	0.074678	0.23652	0.28949	0.029589	0.2692	0.28037	0.27814	0.1815	0.20763	0.40253	0.14245	0.28817	0.16535	0.16635	-0.58958	-0.57708	-0.22292	-1.3458	-0.23333	-0.65417	-1.2313	-0.34375	-0.81458	-0.66458	-0.42708	-1.0833	-0.41875	-0.52917	-1.0521	-0.29792	103.739	-12.466	-132.629	167.629	176.041	104.101	176.238	182.625	-10.137	-76.195	149.344	-115.244	155.197	-27.398	174.859	-111.036	0.00063269	6.9479e-05	5.1965e-05	999.3	5.8721e-06	2.5116e-06	1104.2	210.59	5.3754e-06	1.6469e-06	269.33	74.532	58.384	16.512	3.4437e-06	23.431	0.00010183	9.42e-05	2.6158e-05	971.64	1.0418e-06	1.0295e-06	1074	205.38	1.0145e-06	1.0112e-06	261.77	73.497	56.897	16.358	1.0236e-06	23.422	42.598	-166.316	-87.372	-158.365	-82.711	-65.809	-158.512	-151.325	-88.501	-16.843	-150.891	-144.853	-144.407	-137.067	-29.953	-137.831	-8191	255	
2101.973	1	1	0	0	0.11103	0.37817	0.11673	0.34937	0.20937	0.1058	0.35974	0.23495	0.18315	0.15789	0.032265	0.10793	0.051335	0.14845	0.10921	0.098399	-0.58958	-0.76667	-0.15417	-1.0667	-0.28542	-0.3875	-1.4229	-0.11042	-0.74792	-0.94583	-0.3375	-1.3188	-0.54792	-0.47292	-1.0979	-0.38542	28.965	175.558	74.327	137.739	139.730	175.795	151.271	60.534	93.566	-59.744	125.531	127.335	-56.243	184.954	53.764	121.570	0.00064529	0.00020531	6.4384e-05	1000.1	7.7859e-06	2.999e-06	1103	210.38	5.242e-06	2.851e-06	268.75	74.829	58.618	16.554	4.1369e-06	23.469	0.00010069	9.2904e-05	2.5726e-05	970.3	1.0484e-06	1.0247e-06	1074.9	205.77	1.0465e-06	9.9392e-07	262.01	73.603	57.102	16.359	1.0074e-06	23.363	44.123	-126.217	-74.830	-158.406	-67.436	-69.835	-158.424	-150.907	182.474	13.571	-151.756	-144.970	-143.989	-136.618	-59.822	-137.804	-8191	255	
2102.070	1	1	0	0	0.26492	0.030839	0.12781	0.17938	0.35503	0.031618	0.27379	0.1993	0.25428	0.077374	0.33248	0.28173	0.12996	0.2629	0.13099	0.10226	-0.575	-1.0104	-0.14375	-1.1479	-0.67917	-0.48125	-1.1896	-0.29375	-0.68125	-0.95	-0.4125	-0.95417	-0.67083	-0.28333	-0.90625	-0.31458	20.492	0.666	-144.960	88.879	-56.965	164.142	153.308	44.518	-15.172	-15.479	172.315	129.480	-17.123	-82.558	66.120	106.265	0.00072885	0.0001586	6.7357e-05	1003.6	3.2788e-06	2.2892e-06	1098.3	208.83	6.3798e-06	1.3295e-06	267.92	74.506	58.564	16.518	2.6084e-06	23.641	0.00010285	9.4908e-05	2.5889e-05	972.96	1.0651e-06	1.0097e-06	1075.8	205.32	1.0472e-06	9.9682e-07	261.32	73.637	57.196	16.386	1.014e-06	23.466	44.714	-91.478	-50.632	-158.391	-54.303	-112.231	-158.488	-151.332	-146.373	54.912	-151.207	-145.030	-144.211	-136.946	-90.962	-138.153	-8191	255	
2102.190	1	1	0	0	0.28906	0.24165	0.18802	0.2851	0.013492	0.036524	0.29477	0.26502	0.18224	0.32356	0.34103	0.16998	0.19791	0.10922	0.20424	0.2051	-0.41458	-0.9625	-0.33542	-1.1667	-0.66667	-0.2625	-1.1521	-0.48125	-0.42292	-1.0542	-0.38958	-1.125	-1.1313	-0.29583	-1.15	-0.36042	-157.138	-56.144	-19.427	-113.630	-142.353	0.757	109.956	-0.582	-156.222	97.702	146.370	184.344	82.161	-33.650	-64.335	130.480	0.00059703	0.00035687	4.7477e-05	1000.8	2.0247e-06	1.6809e-06	1104.8	209.35	6.3167e-06	3.1119e-06	268.33	74.766	58.503	16.584	2.0969e-06	23.537	0.0001035	9.3474e-05	2.6345e-05	973.16	1.055e-06	1.0457e-06	1077.7	205.14	1.0495e-06	1.0137e-06	261.54	73.703	57.116	16.417	1.0346e-06	23.397	43.579	-97.115	-63.145	-158.195	-71.639	-29.959	-158.409	-150.632	-112.708	-3.839	-151.231	-144.267	-144.423	-136.846	-124.833	-137.732	-8191	255	
2102.286	1	1	0	0	0.18432	0.20175	0.14592	0.25898	0.090944	0.1338	0.090312	0.2614	0.10303	0.21543	0.13274	0.048009	0.12525	0.092389	0.25713	0.33168	-0.10625	-1.3042	-0.35833	-0.90417	-0.92083	-0.15417	-1.2417	-0.77083	-0.34375	-1.1771	-0.49167	-0.77708	-1.0375	-0.24167	-1.0812	-0.72083	145.342	-70.175	-154.483	122.952	-37.001	28.830	124.699	110.624	-162.510	-45.735	1.548	-136.808	52.172	82.243	-60.143	121.613	0.00064024	8.3112e-05	2.9373e-05	1001.6	2.0081e-06	2.6023e-06	1100.8	210.8	6.4456e-06	1.1218e-06	269.78	74.403	58.313	16.487	3.765e-06	23.706	0.00010221	9.268e-05	2.6203e-05	974.76	1.0518e-06	1.0484e-06	1076.1	206.12	1.0681e-06	1.0376e-06	262.08	73.595	57.068	16.388	1.0469e-06	23.504	34.450	-99.215	-90.894	-158.355	-104.849	-62.838	-158.684	-151.251	-136.489	18.131	-151.670	-144.625	-144.154	-137.157	-65.279	-137.627	-8191	255	
2102.358	1	1	0	0	0.14982	0.061123	0.28798	0.1033	0.17024	0.15756	0.15533	0.30708	0.15249	0.24168	0.24518	0.22056	0.0097987	0.16129	0.042207	0.21152	-0.08125	-1.2021	-0.38125	-0.87917	-0.90417	-0.00625	-1.3292	-0.58333	-0.29583	-1.2687	-0.33125	-0.63542	-1.1063	0.075	-0.88958	-0.61667	175.405	-89.499	-30.609	-87.059	-157.627	-104.561	124.356	160.436	-54.558	-124.985	-162.536	166.577	23.900	-1.434	172.415	185.791	0.00067977	0.00015055	3.2326e-05	1001.9	1.8423e-06	6.4444e-07	1108.8	210.17	4.1587e-06	8.4225e-07	268.41	75.332	58.7	16.556	2.2285e-06	23.703	0.00010679	9.5891e-05	2.7259e-05	973.95	1.0577e-06	1.0505e-06	1079.5	206.09	1.0854e-06	1.0459e-06	261.77	73.894	57.171	16.444	1.085e-06	23.452	37.777	-107.762	-148.071	-158.391	-80.321	-57.456	-158.636	-150.937	-150.228	11.905	-151.457	-145.014	-144.171	-136.865	64.226	-137.699	-8191	255	
2102.479	1	1	0	0	0.21326	0.11007	0.093247	0.19403	0.1664	0.22861	0.16063	0.029466	0.065984	0.15899	0.13474	0.1248	0.25811	0.21163	0.15067	0.29767	0.039583	-1.0833	-0.31667	-0.80625	-1.0187	-0.13542	-0.84792	-1.0417	-0.12708	-1.0729	-0.60417	-0.4625	-1.2542	-0.24792	-0.82708	-0.84792	-45.659	-31.607	176.118	167.221	-67.231	-111.752	156.375	91.371	182.525	184.705	123.365	-106.420	150.529	156.589	-61.442	111.539	0.00071043	0.00026718	4.1897e-05	1003.3	2.1471e-06	2.8722e-06	1106	211.05	5.7652e-06	2.4384e-06	270.54	75.09	58.445	16.575	2.2496e-06	23.692	0.00010746	9.3151e-05	2.633e-05	976.41	1.0691e-06	1.0672e-06	1080.4	206.28	1.1028e-06	1.0332e-06	262.01	73.823	57.147	16.407	1.0591e-06	23.458	22.979	-123.193	-46.940	-158.220	-51.732	-51.095	-158.411	-151.004	-89.723	6.572	-151.322	-144.874	-144.218	-136.490	-70.530	-137.569	-8191	255	
2102.573	1	1	0	0	0.19166	0.17674	0.22526	0.14213	0.058298	0.16937	0.028648	0.13227	0.21753	0.20963	0.14777	0.22744	0.1849	0.13604	0.14591	0.096468	0.11667	-1.0771	-0.38333	-0.62292	-1.2104	-0.10208	-0.92292	-0.97917	0.083333	-0.93125	-0.6	-0.42292	-0.94375	-0.34792	-0.7375	-1.0688	17.365	-5.215	146.076	159.281	-120.240	-6.052	22.442	-53.145	-161.785	6.099	-95.427	88.208	178.260	75.946	-72.929	22.449	0.00074512	0.00033397	5.7171e-05	1001	5.514e-06	1.3592e-06	1114.5	211.34	3.0118e-06	2.0269e-06	271.86	75.637	58.287	16.549	5.725e-06	23.795	0.00010601	9.4655e-05	2.6474e-05	975.58	1.0722e-06	1.0561e-06	1083.1	206.39	1.0683e-06	1.0389e-06	263.83	74.006	57.229	16.418	1.0608e-06	23.528	41.533	-52.314	-121.004	-158.455	-60.605	93.245	-158.583	-151.251	-111.177	-99.352	-151.629	-144.711	-144.462	-136.990	-57.234	-137.627	-8191	255	
2102.671	1	1	0	0	0.27441	0.15364	0.329	0.3667	0.26448	0.081704	0.039424	0.20349	0.21468	0.10879	0.055578	0.24216	0.3222	0.1561	0.22306	0.19077	0.25417	-0.79375	-0.40208	-0.45417	-1.1063	-0.28125	-0.71458	-1.0333	-0.11875	-1.0333	-1	-0.17083	-1.1938	-0.46042	-0.31458	-1.2313	4.981	-42.136	-101.101	176.577	-60.848	48.453	-60.859	145.025	51.356	-47.615	152.253	111.796	-16.969	100.454	107.842	46.798	0.00068276	0.00012517	5.2047e-05	1001.5	3.1154e-06	1.4588e-06	1112.9	209.88	6.7653e-06	1.3623e-06	269.7	75.117	58.134	16.517	2.3797e-06	23.818	0.00010656	9.6204e-05	2.5846e-05	976.3	1.0689e-06	1.0508e-06	1083.9	205.99	1.0646e-06	1.0653e-06	262.46	73.966	57.207	16.431	1.0631e-06	23.542	43.931	67.608	-69.212	-158.266	-71.128	-85.100	-158.379	-150.962	-88.849	11.213	-151.364	-144.734	-144.059	-136.263	-21.965	-137.839	-8191	255	
2102.790	1	1	0	0	0.12638	0.20228	0.1822	0.16682	0.038892	0.1586	0.10171	0.10432	0.19605	0.33591	0.25136	0.10499	0.10733	0.25579	0.092977	0.13663	0.097917	-0.95	-0.72917	-0.14375	-1.0604	-0.56042	-0.61875	-1.0292	-0.25	-0.94583	-1.0021	-0.26042	-1.1417	-0.4	-0.54375	-1.125	69.503	115.500	-18.869	115.472	86.378	-135.274	100.888	-99.253	-64.605	-69.941	-126.314	-167.178	-80.419	-85.367	-144.852	172.039	0.00068305	0.00024483	5.9298e-05	1002	1.4965e-06	2.4032e-06	1107.3	211.31	8.0606e-06	1.8389e-06	270.83	75.85	58.75	16.754	2.0623e-06	23.816	0.00010224	9.4783e-05	2.6304e-05	976.34	1.0525e-06	1.0237e-06	1081.8	206.29	1.0616e-06	1.0056e-06	263.21	74.033	57.393	16.499	1.0466e-06	23.497	49.031	-105.858	-61.605	-158.350	-18.806	-21.548	-158.231	-151.191	-126.066	-9.037	-151.139	-144.749	-144.323	-136.466	-114.791	-137.841	-8191	255	
2102.886	1	1	0	0	0.40124	0.27175	0.21749	0.11047	0.07992	0.26977	0.16447	0.25593	0.069984	0.085554	0.073322	0.015448	0.087808	0.2528	0.13981	0.31182	0.1	-0.8	-0.92708	-0.21042	-0.99583	-0.55625	-0.49167	-1.0896	-0.29375	-0.7875	-0.95208	-0.25208	-1.0417	-0.775	-0.0625	-1.1417	176.352	-33.348	-116.728	-141.782	50.759	-21.071	121.822	136.537	182.644	-103.225	190.020	154.952	131.551	-151.124	185.972	-88.826	0.0006867	0.00033513	5.6151e-05	1005.1	1.9422e-06	6.135e-07	1112.2	211.1	9.3565e-06	1.4746e-06	269.85	75.105	58.761	16.729	3.1515e-06	23.736	0.00010377	9.3432e-05	2.6012e-05	978.56	1.0581e-06	1.0256e-06	1083.8	206.32	1.0549e-06	1.0399e-06	262.96	73.791	57.436	16.447	1.0182e-06	23.566	43.413	190.943	-55.633	-158.397	-118.623	-146.513	-158.345	-150.770	-97.471	-97.053	-151.363	-144.658	-144.063	-136.735	-83.896	-137.807	-8191	255	
2102.958	1	1	0	0	0.20307	0.20982	0.15878	0.40837	0.062545	0.018463	0.31874	0.18777	0.16115	0.11332	0.11635	0.14587	0.080352	0.15676	0.31113	0.26861	-0.010417	-0.51667	-0.94375	-0.48333	-0.90417	-0.79167	-0.37083	-1.1396	-0.43542	-0.46667	-1.1854	-0.26042	-0.95417	-1.0521	-0.14792	-1.125	71.914	42.759	72.809	157.399	-85.859	-137.903	149.596	185.563	-36.078	-83.829	154.661	119.213	95.277	-148.370	-151.797	47.089	0.00071043	0.00015965	9.4291e-06	1005.1	4.1102e-06	1.9423e-06	1114.1	211.31	5.9903e-06	5.6971e-06	269.43	75.419	58.488	16.628	5.038e-06	23.566	0.00010576	9.5772e-05	2.5917e-05	978.15	1.055e-06	1.021e-06	1082.1	206.48	1.0731e-06	1.0476e-06	262.77	73.837	57.39	16.525	1.0424e-06	23.51	45.256	-154.103	-72.271	-158.156	-46.116	-23.560	-158.560	-150.970	-106.758	19.981	-151.287	-144.432	-144.223	-136.664	-118.094	-137.286	-8191	255	
2103.078	1	1	0	0	0.16214	0.29041	0.22251	0.44428	0.15137	0.12864	0.16185	0.23548	0.21928	0.26846	0.11605	0.1232	0.32105	0.1443	0.10022	0.35202	-0.19167	-0.41042	-1.1083	-0.53125	-0.95417	-0.91875	-0.47292	-1.1125	-0.61667	-0.5	-1.3813	-0.37083	-0.79792	-0.93333	-0.12708	-1.1104	85.561	-9.730	55.891	135.677	-10.434	-45.927	169.967	126.759	-151.370	5.799	37.046	-7.241	-74.808	181.025	28.770	118.901	0.00065857	0.00020518	8.1521e-05	1006.5	3.0555e-06	3.719e-06	1109.8	210.93	2.2503e-06	2.5944e-06	270.4	75.198	58.714	16.515	5.9535e-06	23.764	0.00010595	9.5317e-05	2.6643e-05	978.59	1.0799e-06	1.031e-06	1082	206.59	1.0686e-06	1.0297e-06	263.25	73.896	57.405	16.41	1.0422e-06	23.555	40.997	-92.641	-63.982	-158.398	-33.410	43.319	-158.607	-150.667	-57.722	-106.228	-151.208	-144.809	-144.357	-136.732	-115.147	-137.340	-8191	255	
2103.175	1	1	0	0	0.17406	0.16559	0.14472	0.21064	0.35933	0.19581	0.20503	0.13358	0.072283	0.12108	0.208	0.13887	0.25394	0.17552	0.23113	0.18731	-0.25417	-0.26042	-1.1125	-0.31875	-0.63958	-1.0438	-0.51875	-1.0958	-0.67917	-0.25417	-1.175	-0.42708	-0.55417	-1.0542	-0.22292	-0.93542	-136.339	-22.343	156.803	164.978	-166.128	-60.734	149.462	74.841	-14.466	134.869	126.166	102.492	49.689	-76.054	-132.922	14.293	0.00068607	0.0002613	8.9355e-05	1001.8	1.283e-06	3.1667e-06	1108.2	210.77	4.5128e-06	4.9045e-06	270.23	75.4	58.753	16.51	4.5492e-06	23.757	0.00010526	9.3827e-05	2.6311e-05	977.04	1.0742e-06	1.0178e-06	1081.7	206.28	1.0361e-06	1.0455e-06	263.55	74.07	57.43	16.433	1.0511e-06	23.599	43.382	-85.362	-57.920	-158.070	-64.640	-37.997	-158.477	-151.092	-110.806	-20.179	-151.071	-145.187	-144.274	-137.079	-147.043	-137.840	-8191	255	
2103.271	1	1	0	0	0.16934	0.037667	0.062419	0.26124	0.033428	0.20084	0.20032	0.21111	0.078732	0.2051	0.10067	0.074259	0.094573	0.13042	0.086524	0.31774	-0.38542	-0.25	-0.86042	-0.61875	-0.53333	-1.1521	-0.25625	-0.9	-0.76667	-0.19167	-1.1875	-0.39583	-0.66875	-1.1667	-0.16667	-0.91875	179.059	-146.389	143.250	133.281	69.385	-158.302	-154.773	81.092	139.449	-100.851	107.294	181.433	89.494	-107.769	-97.693	114.612	0.00078151	0.00017681	3.4249e-05	1001.7	1.2057e-06	2.3528e-06	1109.7	210.64	3.0496e-06	3.4289e-06	270.04	74.992	58.775	16.571	2.2339e-06	23.851	0.00010363	9.6692e-05	2.6176e-05	977.79	1.092e-06	1.0495e-06	1083.6	206.7	1.0951e-06	1.0611e-06	262.57	73.979	57.532	16.424	1.0667e-06	23.521	37.557	-162.535	-105.609	-158.189	-28.389	-10.980	-158.479	-150.938	-129.028	-53.192	-151.255	-145.132	-144.138	-136.668	-117.195	-137.876	-8191	255	
2103.367	1	1	0	0	0.12638	0.19402	0.1734	0.16486	0.17382	0.24515	0.25216	0.12877	0.057733	0.052293	0.1296	0.29277	0.30908	0.33631	0.1149	0.11023	-0.68542	-0.15625	-0.91667	-0.57708	-0.275	-1.1583	-0.20208	-0.61875	-0.93958	-0.0875	-1.0417	-0.75	-0.3625	-1.1	-0.35625	-0.74375	-79.697	-134.792	-21.883	150.397	112.011	158.314	154.411	25.265	187.614	-155.878	168.172	-118.407	-136.449	179.132	44.397	58.853	0.000699	3.9307e-05	5.1255e-05	1005	3.8182e-06	2.58e-06	1113.3	211	5.2009e-06	2.1688e-06	269.57	75.099	58.948	16.546	3.9868e-06	23.706	0.00010581	9.7097e-05	2.6613e-05	977.5	1.1015e-06	1.0621e-06	1083	206.61	1.08e-06	1.0716e-06	263.22	73.937	57.513	16.522	1.0817e-06	23.571	35.399	-63.620	-34.876	-158.658	-48.812	-34.749	-158.501	-150.983	-87.692	9.044	-151.340	-144.815	-144.066	-136.738	-83.730	-137.655	-8191	255	
2103.486	1	1	0	0	0.10002	0.30444	0.34356	0.058381	0.073666	0.14658	0.054042	0.14332	0.32831	0.15832	0.20717	0.19651	0.34927	0.32653	0.3058	0.053142	-0.7	-0.37917	-0.90208	-0.88542	-0.26458	-1.0271	-0.45	-0.71458	-0.9875	-0.27083	-0.89375	-0.94167	-0.19583	-1.0688	-0.52292	-0.62708	-24.787	172.923	20.783	-29.071	-89.997	153.582	-35.493	-104.575	137.315	133.910	-117.509	46.865	121.910	177.650	-125.181	-149.005	0.00063703	0.00013824	7.3462e-05	1006.2	5.4139e-06	1.1621e-06	1106.3	210.62	6.0795e-06	2.1167e-06	269.46	75.347	58.865	16.527	6.8414e-06	23.708	0.00010491	9.6906e-05	2.6873e-05	978.54	1.0939e-06	1.0325e-06	1082	206.57	1.069e-06	1.0336e-06	263.01	73.778	57.493	16.489	1.0677e-06	23.556	41.434	3.112	-103.086	-158.487	-78.659	44.481	-158.535	-150.984	-118.563	-93.203	-151.561	-144.800	-144.471	-136.900	-80.415	-137.504	-8191	255	
2103.559	1	1	0	0	0.27777	0.23771	0.029956	0.2219	0.16157	0.14485	0.15591	0.099782	0.20931	0.10239	0.28386	0.13322	0.067862	0.30227	0.084386	0.15951	-0.70833	-0.34583	-0.73333	-1.0063	-0.29167	-1.0458	-0.56667	-0.55625	-1.2042	-0.25417	-0.8875	-0.90833	-0.125	-1.1125	-0.62292	-0.55417	-0.048	-107.702	-81.516	-135.657	24.238	-149.912	-162.193	-94.383	111.279	65.245	79.070	-164.186	185.739	181.454	44.409	186.016	0.00076829	0.00057694	0.00011197	1005.4	2.4891e-06	2.2507e-06	1108.7	210.73	5.3022e-06	4.2916e-06	269.88	75.152	58.99	16.707	4.6208e-06	23.66	0.0001046	9.7885e-05	2.6996e-05	977.04	1.0779e-06	1.0378e-06	1081.7	206.34	1.059e-06	1.0423e-06	263.09	74.019	57.476	16.516	1.0648e-06	23.579	51.551	-134.432	-65.256	-158.323	-18.490	7.711	-158.556	-151.304	-113.582	-9.170	-151.335	-144.471	-144.026	-136.565	-59.621	-137.522	-8191	255	
2103.654	1	1	0	0	0.09071	0.14994	0.25297	0.18988	0.12254	0.20376	0.17074	0.071461	0.14155	0.17528	0.13401	0.12286	0.3004	0.12131	0.078571	0.1625	-0.875	-0.19375	-0.62292	-1.0458	-0.041667	-1.2333	-0.70625	-0.44375	-1.1521	-0.26667	-0.59583	-1.0625	-0.19167	-1.0187	-0.68125	-0.18125	-17.832	-102.819	180.286	124.657	58.589	-84.766	-146.333	-43.621	178.749	-95.397	-150.490	93.229	185.150	154.750	114.759	119.795	0.00077067	0.00031159	0.00011948	1003.4	4.3598e-06	3.2938e-06	1108.9	211.3	3.3822e-06	3.435e-06	270.16	75.792	59.045	16.756	2.5479e-06	23.689	0.00010328	9.8212e-05	2.665e-05	976.95	1.0533e-06	1.0156e-06	1081.7	206.87	1.0488e-06	1.0278e-06	263.4	74.296	57.47	16.554	1.0303e-06	23.619	47.710	-91.772	-51.313	-158.267	-71.312	-12.970	-158.299	-150.730	-103.987	-87.256	-151.437	-144.764	-144.076	-136.763	-21.977	-137.534	-8191	255	
2103.751	1	1	0	0	0.24281	0.13311	0.26346	0.31257	0.12909	0.14187	0.19484	0.081308	0.18692	0.22215	0.16932	0.17353	0.20697	0.17006	0.0482	0.11817	-0.78542	-0.26042	-0.4625	-1.2021	-0.25208	-0.82708	-0.9	-0.26042	-1.2563	-0.52708	-0.4625	-1.0271	-0.3	-0.74792	-0.93542	-0.39792	-154.809	33.342	-43.891	-152.348	-104.056	-94.039	102.301	-65.333	-145.798	-21.678	61.537	151.024	128.689	26.533	150.357	47.254	0.0006645	0.00039721	2.2353e-05	1004.9	2.8106e-06	4.2853e-06	1110.9	211.89	3.4386e-06	1.2117e-06	269.95	75.337	58.872	16.523	7.8903e-06	23.743	0.00010477	9.6115e-05	2.6571e-05	978.35	1.0744e-06	1.0412e-06	1081.7	206.69	1.0415e-06	1.0372e-06	263.33	74.077	57.356	16.469	1.0224e-06	23.53	41.572	-83.804	-12.700	-158.474	-56.446	-10.178	-158.366	-150.904	-86.059	-82.157	-151.184	-145.294	-143.813	-136.778	-81.082	-138.119	-8191	255	
2103.870	1	1	0	0	0.17958	0.20689	0.28549	0.45275	0.1983	0.36791	0.074982	0.19409	0.23642	0.1386	0.13424	0.16535	0.25177	0.15803	0.097148	0.30501	-0.59792	-0.32917	-0.4875	-1.2792	-0.28333	-0.82917	-1.0479	-0.35833	-1.0667	-0.70417	-0.28542	-1.1792	-0.60625	-0.64792	-0.97292	-0.36042	59.282	63.011	-140.340	-151.915	25.394	-37.598	-167.246	76.316	110.797	115.191	-54.660	-80.309	134.236	-158.864	76.780	170.189	0.00069374	0.00024935	6.0087e-05	1003.6	2.5778e-06	2.4774e-06	1107.2	212.15	1.6171e-06	2.5382e-06	270.25	75.521	58.831	16.673	4.2148e-06	23.82	0.00010222	9.4444e-05	2.6786e-05	977.59	1.0525e-06	9.9708e-07	1080.4	206.54	1.0306e-06	1.0118e-06	263.29	73.908	57.426	16.517	1.0265e-06	23.578	38.145	-88.251	-73.244	-158.429	-100.580	-1.800	-158.202	-150.951	-112.998	-54.152	-151.197	-144.982	-144.389	-136.787	-53.883	-137.661	-8191	255	
2103.966	1	1	0	0	0.31321	0.055008	0.22678	0.11618	0.13189	0.028909	0.041895	0.21302	0.19584	0.18971	0.24165	0.068378	0.25412	0.22188	0.092239	0.22354	-0.6875	-0.53958	-0.14792	-1.3292	-0.14375	-0.5625	-1.35	-0.083333	-0.97708	-0.68125	-0.425	-1.1042	-0.475	-0.3	-0.93958	-0.36042	-22.663	-54.059	169.796	113.732	-113.455	-72.641	-116.617	179.193	163.805	137.666	101.665	188.316	-127.576	182.352	65.104	-98.937	0.00064598	0.00016251	2.7874e-05	1003.4	2.7002e-06	3.1696e-06	1103.5	209.72	6.303e-06	1.7944e-06	269.53	75.419	58.662	16.794	3.6222e-06	23.715	0.00010177	9.148e-05	2.5669e-05	977.09	1.0484e-06	1.0115e-06	1080.2	206.46	1.0407e-06	1.0061e-06	263.11	74.053	57.384	16.537	9.9827e-07	23.551	40.277	-108.605	-47.237	-158.415	44.301	-10.292	-158.580	-150.800	-131.346	-9.174	-151.280	-144.961	-143.875	-136.264	-61.780	-137.408	-8191	255	
2104.063	1	1	0	0	0.10873	0.41545	0.21855	0.17692	0.30795	0.14008	0.12422	0.041487	0.26252	0.15294	0.08456	0.051659	0.12891	0.12109	0.15691	0.12191	-0.45	-0.73333	-0.38333	-1.0063	-0.33125	-0.46875	-1.0688	-0.27708	-0.71875	-0.80833	-0.15208	-1.0896	-0.58958	-0.49792	-1.1792	-0.325	16.246	-59.325	-118.856	-104.999	137.897	-86.001	-158.286	107.141	-75.193	53.530	-126.026	-93.656	-121.676	101.908	153.553	64.825	0.00074237	0.00020919	9.9335e-05	1007.5	2.2636e-06	2.476e-06	1109.7	210.36	3.5745e-06	2.3306e-06	270.29	75.269	58.832	16.536	6.3836e-06	23.677	0.00010347	9.0854e-05	2.6046e-05	977.84	1.0531e-06	1.0319e-06	1081.4	206.57	1.0294e-06	1.0096e-06	263.44	74.068	57.388	16.498	1.0041e-06	23.544	32.077	-116.325	-58.830	-158.252	-61.082	-39.430	-158.648	-150.772	-100.768	-55.689	-151.051	-145.121	-143.998	-136.810	-63.209	-137.861	-8191	255	
2104.159	1	1	0	0	0.21463	0.056256	0.11763	0.18454	0.11037	0.035431	0.10371	0.21539	0.29736	0.23628	0.14696	0.24932	0.13855	0.087256	0.066891	0.29127	-0.47917	-0.975	-0.05625	-1.3396	-0.42708	-0.27917	-1.4167	-0.32708	-0.54583	-1.1083	-0.36667	-1.0312	-0.725	-0.15625	-1.0854	-0.4	-115.099	-2.932	189.862	96.057	118.343	132.036	118.061	171.125	176.581	51.398	110.949	185.389	43.418	173.876	-118.317	99.366	0.00065851	9.8349e-05	0.00011365	1007	2.6899e-06	2.9197e-06	1108.4	211.65	6.0512e-06	3.786e-06	269.16	75.308	58.833	16.733	4.0676e-06	23.728	0.00010344	9.2041e-05	2.5659e-05	977.73	1.0928e-06	1.0155e-06	1082.2	206.86	1.0559e-06	1.0173e-06	263.44	74.059	57.429	16.534	1.0125e-06	23.526	31.046	189.001	-114.165	-158.828	-67.868	64.469	-158.683	-151.191	-135.748	-67.760	-151.468	-145.196	-144.599	-136.840	-63.564	-138.093	-8191	255	
2104.255	1	1	0	0	0.1836	0.093615	0.13133	0.1514	0.16894	0.12075	0.077333	0.22889	0.064248	0.16238	0.055863	0.25752	0.21936	0.22986	0.24209	0.091729	-0.17708	-1.0063	-0.0625	-1.0083	-0.89167	-0.17917	-1.2583	-0.53333	-0.39583	-0.99375	-0.05	-0.90417	-0.7625	-0.11458	-0.92708	-0.48333	131.183	78.469	134.732	156.271	85.855	153.411	136.583	109.834	21.965	-156.557	-90.474	112.161	153.566	-150.616	28.549	-65.710	0.00072944	7.2546e-05	3.9605e-05	1005.1	2.0144e-06	2.437e-06	1103.3	210.02	9.0772e-06	1.0108e-06	267.8	75.497	58.901	16.552	6.0444e-06	23.696	0.00010278	9.2406e-05	2.5905e-05	975.91	1.0382e-06	1.0297e-06	1078.9	205.98	1.0372e-06	1.0031e-06	262.5	73.982	57.39	16.483	1.0081e-06	23.59	42.678	-34.089	-120.028	-158.626	-62.111	-58.634	-158.728	-151.486	-131.505	19.679	-151.835	-145.164	-144.293	-137.337	-136.901	-137.924	-8191	255	
2104.351	1	1	0	0	0.1771	0.23072	0.2767	0.31009	0.031544	0.11679	0.16499	0.26255	0.19332	0.10145	0.25556	0.17467	0.16935	0.11258	0.25796	0.11272	-0.027083	-1.1104	-0.19375	-0.91667	-0.99583	0.083333	-1.3292	-0.54375	-0.23542	-1.2583	-0.27917	-0.79167	-1.0938	0.09375	-1.0938	-0.55625	184.786	-91.615	-90.148	146.199	-84.219	146.375	163.168	126.700	-145.503	162.081	111.445	-95.493	179.803	146.101	-95.633	152.396	0.00067546	0.00025778	2.8559e-05	1002.6	4.1085e-06	8.2011e-07	1113.7	210.26	4.752e-06	1.6965e-06	270.12	75.321	58.698	16.566	7.8388e-06	23.72	0.00010287	9.481e-05	2.5757e-05	975.5	1.0467e-06	1.0159e-06	1081.9	206.15	1.0541e-06	1.0133e-06	263.28	73.993	57.357	16.498	1.0121e-06	23.546	38.875	-104.285	-51.216	-158.559	-71.157	-62.342	-158.902	-151.515	-143.489	-15.918	-151.768	-145.012	-144.878	-137.283	-27.379	-138.128	-8191	255	
2104.472	1	1	0	0	0.23079	0.16592	0.24236	0.095451	0.13664	0.096662	0.38071	0.22296	0.25579	0.14317	0.3097	0.38241	0.19448	0.24007	0.28753	0.41183	0.2	-1.0812	-0.24792	-0.49375	-0.95208	-0.19167	-1.0583	-0.67708	-0.16875	-1.2146	-0.48542	-0.37083	-1.0979	-0.30208	-0.84167	-0.74792	91.008	100.244	-7.226	-104.300	-134.822	157.992	63.045	119.401	77.243	64.354	64.471	115.903	53.296	155.078	-166.864	-7.403	0.00073928	0.00024358	6.3443e-05	1000.9	3.0689e-06	3.0228e-06	1105.3	210.32	6.0802e-06	4.5299e-06	269.14	75.343	59.036	16.619	2.2171e-06	23.448	0.00010419	9.0722e-05	2.547e-05	976.54	1.0413e-06	1.0347e-06	1080.4	206.32	1.036e-06	1.0016e-06	263	73.84	57.576	16.504	1.0079e-06	23.551	34.149	-131.368	-54.058	-158.331	-80.575	-63.973	-158.700	-151.413	-117.180	-5.426	-151.604	-145.232	-144.592	-137.626	41.667	-138.012	-8191	255	
2104.566	1	1	0	0	0.023349	0.22989	0.19967	0.41925	0.10419	0.17741	0.34226	0.069418	0.034353	0.25077	0.11464	0.16227	0.38581	0.24662	0.057284	0.11184	-0.0041667	-1.1021	-0.39583	-0.74583	-1.0354	-0.2625	-0.91875	-0.90833	-0.17083	-1.1792	-0.55625	-0.375	-1.2354	-0.17708	-0.76042	-1.2354	79.580	-45.454	7.397	167.966	-22.719	48.047	82.693	-128.344	111.488	-46.371	63.628	152.196	168.381	160.799	24.915	61.040	0.00068126	0.00032071	5.825e-05	1000.8	1.94e-06	1.9435e-06	1111.7	211.21	3.2795e-06	2.9425e-06	271.17	75.457	58.642	16.564	1.9083e-06	23.733	0.00010428	9.3151e-05	2.5762e-05	975.37	1.0339e-06	1.0206e-06	1082.1	206.5	1.0491e-06	9.9059e-07	263.62	74.037	57.299	16.471	1.0281e-06	23.536	31.420	-104.264	-21.463	-158.466	-16.884	-71.307	-158.829	-151.060	-107.006	29.151	-151.811	-145.196	-144.691	-136.559	-49.373	-137.836	-8191	255	
2104.662	1	1	0	0	0.16025	0.1881	0.21252	0.2334	0.21838	0.0552	0.16427	0.11568	0.19107	0.32982	0.1217	0.22509	0.1866	0.13536	0.13461	0.21222	0.27083	-0.71667	-0.72917	-0.4	-1.125	-0.1375	-0.9125	-1.1771	-0.0625	-1.0375	-0.72917	-0.32292	-1.0417	-0.35833	-0.60417	-0.89792	-46.976	116.198	48.680	177.362	-168.057	-150.370	-144.172	126.398	41.297	150.828	137.581	-121.315	-89.012	-165.277	-133.004	184.840	0.00065961	9.7735e-05	2.2031e-05	1003.4	4.4214e-06	2.3112e-06	1108.7	210.56	2.5063e-06	1.8612e-06	268.85	75.455	58.745	16.631	5.3817e-06	23.714	0.00010495	9.1124e-05	2.6135e-05	975.35	1.0356e-06	1.0035e-06	1081.4	206.59	1.0575e-06	1.0204e-06	262.72	74.042	57.262	16.483	1.0362e-06	23.56	33.123	113.427	-16.905	-158.725	-21.330	-12.936	-158.657	-151.228	-50.957	44.849	-151.506	-145.219	-144.524	-137.354	-96.701	-138.203	-8191	255	
2104.758	1	1	0	0	0.12424	0.1634	0.15988	0.069434	0.41244	0.13855	0.1547	0.17941	0.053291	0.30218	0.16898	0.23959	0.22628	0.4678	0.081016	0.090802	0.27083	-1.0104	-0.43958	-0.35	-1.1521	-0.48333	-0.49583	-0.99375	-0.26458	-0.79375	-0.95833	-0.24792	-1.075	-0.34792	-0.64167	-1.0792	-87.925	10.347	-32.481	143.463	-147.693	166.534	32.341	-41.388	19.120	21.481	87.102	172.105	-160.891	103.300	-2.137	38.359	0.00079616	6.3879e-05	8.0598e-05	1001.1	3.1303e-06	1.5914e-06	1110.5	210.73	3.5633e-06	1.7476e-06	270.88	75.311	58.278	16.687	2.0662e-06	23.696	0.00010481	9.1467e-05	2.5623e-05	974.79	1.02e-06	1.0037e-06	1081.2	206.39	1.0342e-06	1.0339e-06	263.31	74.043	57.322	16.496	1.0154e-06	23.558	39.400	-168.248	-42.997	-158.486	-61.948	-45.224	-158.717	-151.299	-89.767	-116.510	-151.413	-145.085	-144.619	-137.495	-65.809	-137.961	-8191	255	
2104.855	1	1	0	0	0.22199	0.11511	0.21161	0.2373	0.05389	0.1096	0.24764	0.39444	0.26208	0.10877	0.20414	0.0068847	0.018958	0.11591	0.17482	0.27313	0.20208	-0.76458	-0.86667	-0.22708	-1.3771	-0.63542	-0.62083	-1.2729	-0.35417	-0.9125	-1.3708	-0.36875	-1.2188	-0.63125	-0.2625	-1.2833	-145.564	-163.499	24.600	-145.049	-116.828	189.387	174.867	75.039	93.295	-159.977	99.198	173.569	2.341	-96.931	-105.769	-142.919	0.00072794	0.00018895	4.4053e-05	1001.9	2.4915e-06	3.0895e-06	1103.7	210.29	5.4115e-06	4.1567e-06	270.82	75.717	58.645	16.756	2.1176e-06	23.741	0.00010519	9.4576e-05	2.5279e-05	976.54	1.0366e-06	1.0458e-06	1079.2	206.07	1.0547e-06	1.0285e-06	263.22	74.115	57.545	16.492	1.0455e-06	23.534	46.299	-55.533	-56.074	-158.604	7.387	8.395	-158.920	-151.489	-131.321	-22.044	-151.690	-145.031	-144.563	-136.866	-57.460	-138.082	-8191	255	
2104.951	1	1	0	0	0.092078	0.099064	0.17852	0.06975	0.14882	0.32242	0.24511	0.014613	0.17052	0.07368	0.056096	0.056671	0.14222	0.17653	0.34827	0.36158	0.033333	-0.70417	-0.99583	-0.49375	-1.0646	-0.48333	-0.29375	-1.0854	-0.52083	-0.87292	-1.1375	-0.20417	-0.97917	-0.77292	-0.16667	-1.3333	-83.033	-139.179	135.060	169.187	-109.111	186.917	183.573	47.947	-161.532	-77.815	66.381	76.339	13.470	122.917	-50.450	168.175	0.00067712	0.00042803	7.9868e-05	1002.5	3.661e-06	2.9173e-06	1109.3	211.12	3.562e-06	2.8605e-06	269.87	75.387	58.895	16.538	1.948e-06	23.758	0.00010591	9.3409e-05	2.591e-05	975.14	1.0519e-06	1.0119e-06	1080.4	206.61	1.0661e-06	1.0212e-06	263.34	73.964	57.457	16.464	1.0314e-06	23.519	43.250	-130.072	-92.744	-158.711	-55.390	-1.680	-158.683	-151.236	-78.122	-64.100	-151.374	-144.922	-144.599	-136.914	-42.115	-138.129	-8191	255	
2105.047	1	1	0	0	0.24051	0.25731	0.18789	0.1567	0.18179	0.18429	0.15981	0.02068	0.33624	0.094337	0.1037	0.22856	0.33266	0.38601	0.27006	0.10716	-0.072917	-0.4375	-0.94167	-0.20417	-0.825	-0.87083	-0.38542	-1.3563	-0.40417	-0.57292	-1.1271	-0.34792	-1.0021	-0.77917	-0.2875	-1.1688	129.033	-100.909	-118.213	-151.427	-150.673	-116.634	124.288	-160.932	14.133	-15.207	-58.885	105.510	-125.511	41.083	64.677	-107.799	0.00078011	0.00027536	8.095e-05	1004.9	1.533e-06	2.5359e-06	1101.9	210.04	5.6483e-06	1.9154e-06	270.19	75.36	58.527	16.611	4.1148e-06	23.521	0.00010395	9.5785e-05	2.5604e-05	975.76	1.0518e-06	1.0397e-06	1079.4	206.32	1.0751e-06	1.0601e-06	263.61	73.846	57.376	16.492	1.0349e-06	23.473	35.123	-135.262	-76.177	-158.734	18.528	-19.028	-158.844	-151.437	-126.225	-87.498	-151.484	-144.980	-144.653	-137.151	-110.801	-138.325	-8191	255	
2105.167	1	1	0	0	0.12035	0.24292	0.068068	0.23656	0.1973	0.081676	0.18984	0.32944	0.41389	0.070043	0.20024	0.18695	0.12215	0.046835	0.2248	0.23499	-0.016667	-0.2125	-1.0562	-0.35	-0.81042	-1.0396	-0.30417	-1.1729	-0.69375	-0.28958	-1.2625	-0.34583	-0.57917	-1.1313	-0.06875	-1.2563	84.989	10.656	-0.790	145.492	85.043	56.034	48.217	-144.752	140.179	15.848	0.163	-160.894	110.844	-103.224	-26.366	157.191	0.00069222	0.00033465	3.7285e-05	1002.1	1.3489e-06	5.2675e-07	1103.5	210.15	3.4931e-06	3.2099e-06	269.65	74.898	58.751	16.603	1.8151e-06	23.632	0.0001039	9.747e-05	2.5628e-05	975.18	1.05e-06	1.0254e-06	1079.2	206.21	1.0463e-06	1.0637e-06	262.68	74	57.439	16.465	1.0429e-06	23.528	49.503	-83.748	-136.908	-158.783	-70.169	168.356	-158.781	-151.123	-127.237	18.458	-151.976	-145.156	-144.298	-136.720	-126.713	-137.725	-8191	255	
2105.264	1	1	0	0	0.10128	0.18282	0.13877	0.2985	0.22224	0.23635	0.23917	0.093742	0.12089	0.1232	0.1492	0.36808	0.15807	0.45322	0.15507	0.17275	-0.42083	-0.33125	-1.1417	-0.5875	-0.5375	-0.98333	-0.3375	-1.0521	-0.6125	-0.2625	-1.35	-0.3375	-0.6125	-1.2021	-0.12917	-1.1458	-30.464	-84.000	176.716	-132.112	-106.810	-160.841	83.771	101.050	-85.181	111.305	153.615	175.321	-159.468	64.302	37.574	-4.807	0.00082768	0.00017422	7.6199e-05	999.38	1.6392e-06	2.6596e-06	1109.7	210.51	4.4129e-06	3.0028e-06	268.24	74.953	58.203	16.483	2.7349e-06	23.613	0.00010434	9.6537e-05	2.5608e-05	973.58	1.0562e-06	1.016e-06	1079.7	206.37	1.0932e-06	1.0422e-06	262.82	73.758	57.403	16.464	1.0435e-06	23.522	42.988	-152.898	-47.861	-158.539	-84.795	-56.433	-158.719	-151.166	-97.831	-37.423	-151.800	-145.008	-144.487	-137.581	-33.447	-137.715	-8191	255	
2105.360	1	1	0	0	0.053589	0.12846	0.13676	0.24301	0.076191	0.16113	0.066449	0.28162	0.1215	0.061369	0.20508	0.045808	0.37892	0.14042	0.15923	0.29631	-0.23958	-0.21458	-1.2646	-0.65208	-0.37292	-1.2917	-0.375	-0.75833	-0.8875	-0.2375	-1.2604	-0.58333	-0.475	-1	-0.19167	-0.8875	14.646	173.340	-62.222	-124.164	20.069	144.565	148.907	157.084	-96.786	60.819	-53.138	-36.076	-51.958	-20.572	-105.639	62.771	0.00066988	0.00027293	1.1358e-05	1001.7	1.7421e-06	1.8983e-06	1110.1	210.47	1.8847e-06	1.6533e-06	270.63	75.508	58.521	16.537	1.3461e-06	23.818	0.00010519	9.5525e-05	2.587e-05	976.03	1.0669e-06	1.0233e-06	1080.3	206.39	1.0511e-06	1.041e-06	263.26	74.103	57.455	16.491	1.0468e-06	23.566	41.081	-108.248	30.624	-158.671	7.742	-130.637	-158.677	-151.063	-96.905	-24.347	-151.494	-144.881	-144.530	-137.155	-164.701	-137.785	-8191	255	
2105.456	1	1	0	0	0.16478	0.12665	0.12702	0.17947	0.10549	0.16811	0.11067	0.20782	0.061778	0.21416	0.044786	0.10129	0.27217	0.21115	0.038315	0.16758	-0.56667	-0.23542	-0.81667	-0.75417	-0.34167	-1.2125	-0.32708	-0.78333	-1.0917	-0.28333	-1.1187	-0.75208	-0.3125	-1.1417	-0.38333	-0.73125	-169.115	37.874	-114.181	-135.585	-85.144	-139.601	14.611	72.016	27.880	189.809	178.608	-157.422	141.662	167.319	140.052	-140.141	0.00068364	7.7243e-05	6.8297e-06	1001.1	3.3078e-06	1.7769e-06	1111.6	209.99	6.5847e-06	3.35e-06	270.11	75.215	58.515	16.557	5.6049e-06	23.928	0.00010407	9.5772e-05	2.5508e-05	974.14	1.0515e-06	1.0241e-06	1081.8	206.26	1.0444e-06	1.0334e-06	263.02	74.033	57.482	16.504	1.0483e-06	23.603	42.565	0.349	-164.714	-158.565	-10.448	-77.573	-158.713	-151.298	-106.367	-40.552	-151.413	-145.200	-144.503	-136.765	-63.466	-137.791	-8191	255	
2105.552	1	1	0	0	0.043607	0.2019	0.22988	0.10995	0.021492	0.081514	0.39663	0.35287	0.17592	0.1563	0.45762	0.26752	0.19695	0.19987	0.050161	0.29616	-0.81042	-0.16667	-1	-0.87917	-0.091667	-0.99792	-0.51042	-0.64375	-1.1437	-0.17917	-0.94792	-0.87917	-0.32083	-1.0146	-0.52083	-0.39583	176.106	-124.627	97.241	151.501	130.741	0.750	84.333	145.588	85.771	43.251	131.387	-155.596	168.491	-127.182	-146.133	183.620	0.0007735	0.00038628	5.0148e-05	1006.3	3.6128e-06	3.2641e-06	1102	210.98	5.6074e-06	4.4152e-06	269.82	74.909	59.176	16.789	1.392e-06	23.68	0.00010331	9.5373e-05	2.6313e-05	976.58	1.0624e-06	1.0136e-06	1077.8	206.52	1.0545e-06	1.0387e-06	262.86	73.821	57.398	16.542	1.0706e-06	23.532	36.789	-103.228	-112.070	-158.703	-71.793	-64.665	-158.609	-150.786	-88.027	21.699	-151.235	-144.761	-143.751	-136.595	11.067	-138.132	-8191	255	
2105.646	1	1	0	0	0.058228	0.17276	0.17742	0.25329	0.099632	0.37262	0.55724	0.27033	0.075693	0.13112	0.18687	0.16148	0.12036	0.24579	0.37985	0.27845	-0.55833	-0.32083	-0.95	-0.73125	-0.14167	-1.1792	-0.78542	-0.425	-1.2292	-0.13958	-0.79375	-1.0354	-0.16875	-1.1542	-0.66042	-0.4375	104.729	-156.357	97.815	-162.549	112.401	-147.135	161.361	16.753	10.179	136.771	119.578	-154.048	165.671	133.341	173.421	159.090	0.00061465	0.00023478	1.3604e-05	1002.5	4.8916e-06	3.8551e-06	1110	209.82	4.82e-06	2.7863e-06	270.94	75.312	58.654	16.489	6.4759e-07	23.75	0.00010393	9.6784e-05	2.6189e-05	976.9	1.0777e-06	1.0164e-06	1081.5	206.45	1.0509e-06	1.0548e-06	263.42	73.9	57.393	16.488	1.0547e-06	23.571	40.725	-154.304	-47.979	-158.433	-10.257	-33.909	-158.779	-150.997	-150.282	21.799	-151.620	-145.156	-144.649	-136.885	-110.072	-137.612	-8191	255	
2105.743	1	1	0	0	0.066043	0.38222	0.096625	0.23422	0.13476	0.12301	0.27799	0.24101	0.18898	0.10419	0.090306	0.17137	0.069799	0.27151	0.24517	0.3332	-0.71875	-0.21667	-0.56667	-1.1833	-0.19375	-0.80625	-1.1812	-0.18333	-1.1458	-0.37708	-0.7375	-1.1812	-0.3	-1.0792	-0.95833	-0.36042	-61.330	-86.835	-143.062	102.242	-52.234	-100.079	-164.493	100.332	-49.103	-63.691	189.291	43.568	-17.639	-86.225	160.926	171.700	0.00076369	0.00027839	9.4594e-05	1003.9	3.1777e-06	9.0443e-07	1107.8	210.46	4.5655e-06	2.0395e-06	269.3	75.346	58.868	16.605	3.9628e-06	23.544	0.00010402	9.6801e-05	2.6627e-05	976.06	1.0668e-06	1.0319e-06	1080	206.07	1.0513e-06	1.0465e-06	262.74	73.821	57.425	16.515	1.0471e-06	23.473	40.505	-103.614	-104.215	-158.542	-14.425	-24.210	-158.768	-150.786	184.701	-37.875	-151.430	-144.993	-144.394	-136.484	-76.289	-137.379	-8191	255	
2105.863	1	1	0	0	0.16369	0.23827	0.028246	0.26145	0.32056	0.24467	0.27852	0.22945	0.28231	0.18263	0.16804	0.16626	0.23057	0.10869	0.20902	0.30366	-0.71042	-0.55625	-0.4125	-1.3083	-0.077083	-0.825	-1.0396	-0.091667	-1.2333	-0.33958	-0.38958	-1.1208	-0.40417	-0.71667	-0.96458	-0.19375	162.280	-133.619	55.887	-126.330	-42.421	-105.475	40.732	153.494	-32.087	-98.712	92.225	31.274	-163.927	9.067	115.389	126.509	0.00058885	0.00024799	5.8324e-05	1000.9	3.4482e-06	3.5377e-06	1105.5	210.02	3.919e-06	1.3813e-06	270.58	74.856	58.667	16.683	3.5746e-06	23.709	0.000104	9.5004e-05	2.7499e-05	975.48	1.0858e-06	1.036e-06	1079.4	206.54	1.0598e-06	1.0706e-06	262.83	73.74	57.37	16.538	1.0634e-06	23.523	55.134	-68.421	-69.753	-158.383	-61.833	-74.450	-158.561	-151.177	-135.627	-92.295	-151.207	-145.110	-144.284	-136.892	-37.218	-137.860	-8191	255	
2105.959	1	1	0	0	0.059844	0.15887	0.38123	0.099273	0.038754	0.069256	0.25769	0.18713	0.022376	0.16161	0.16989	0.40427	0.18579	0.23594	0.090824	0.088442	-0.64583	-0.47292	-0.42917	-1.3625	-0.25833	-0.73958	-1.0792	-0.38958	-0.92708	-0.67917	-0.44167	-1.2417	-0.46667	-0.65417	-1.1292	-0.12917	50.086	10.396	131.905	152.763	110.379	-151.890	151.022	-76.298	33.038	-129.758	189.462	189.209	174.775	-130.728	-111.833	-142.371	0.00074503	0.00018337	7.3764e-05	996.7	1.6855e-06	2.3122e-06	1106.8	209.62	4.0168e-06	2.3263e-06	270.49	75.068	58.342	16.566	3.544e-06	23.505	0.00010683	9.5073e-05	2.7432e-05	975.8	1.0998e-06	1.0599e-06	1080.3	205.9	1.0601e-06	1.0449e-06	263.09	73.969	57.31	16.46	1.047e-06	23.464	29.867	-98.010	-45.352	-158.601	-87.129	-39.871	-159.018	-150.987	-105.055	-21.588	-151.247	-145.319	-144.459	-136.727	-48.573	-137.531	-8191	255	
2106.054	1	1	0	0	0.16124	0.40492	0.29611	0.39908	0.18292	0.28467	0.10606	0.17405	0.12743	0.055619	0.36212	0.17866	0.33144	0.3202	0.3237	0.27703	-0.48958	-0.61458	-0.17708	-1.2771	-0.3875	-0.53958	-1.0938	-0.20625	-0.85833	-0.66667	-0.26458	-1.1771	-0.39792	-0.51667	-1.2354	-0.28542	-22.670	42.137	13.222	146.875	-160.374	-65.840	-155.497	77.523	-51.721	-96.987	22.863	-102.161	166.387	132.470	-18.375	-167.986	0.00071298	0.00030287	9.4042e-05	998.9	1.058e-06	3.8087e-06	1105.7	209.54	2.1743e-06	4.0719e-06	270.17	75.479	58.277	16.551	1.6529e-06	23.712	0.00010702	9.6425e-05	2.7638e-05	977.04	1.109e-06	1.0727e-06	1080.4	206.26	1.0518e-06	1.0413e-06	263.17	73.958	57.164	16.502	1.0503e-06	23.532	52.103	-109.993	-33.311	-158.563	-26.254	-49.375	-158.847	-151.386	166.471	-49.319	-151.488	-145.137	-144.671	-137.293	-109.552	-138.181	-8191	255	
2106.150	1	1	0	0	0.2207	0.35016	0.13947	0.31456	0.036071	0.19348	0.2834	0.18235	0.084197	0.085165	0.24702	0.35759	0.15402	0.3098	0.1428	0.054241	-0.18958	-0.69792	-0.033333	-1.4021	-0.39583	-0.29375	-1.1646	-0.26042	-0.82917	-0.89167	-0.23125	-1.1958	-0.4625	-0.37292	-1.2	-0.34583	-138.078	82.856	2.546	126.906	2.768	-15.970	123.763	-165.822	175.816	-98.158	145.333	174.810	99.486	145.316	-161.831	-145.572	0.00060059	0.00016447	5.0562e-05	1003.5	4.0657e-06	2.2663e-06	1107	209.75	1.2317e-06	3.9025e-06	271.25	74.88	58.73	16.704	2.2213e-06	23.691	0.00010657	9.7354e-05	2.6833e-05	978.19	1.0912e-06	1.0531e-06	1080.7	206.12	1.0847e-06	1.0645e-06	263.06	73.924	57.374	16.562	1.0582e-06	23.57	40.934	-56.178	-2.791	-158.541	-23.380	-75.097	-158.718	-151.062	11.317	-65.766	-151.395	-144.758	-144.522	-137.092	-15.536	-137.749	-8191	255	
2106.246	1	1	0	0	0.27541	0.070791	0.15829	0.37576	0.25016	0.094414	0.37833	0.20096	0.23488	0.094397	0.26454	0.066223	0.40411	0.094374	0.18422	0.095184	-0.275	-0.95417	-0.027083	-1.2938	-0.60833	-0.39375	-1.3625	-0.45833	-0.60417	-1.0646	-0.33958	-0.96042	-0.76667	-0.23333	-1.2042	-0.30833	74.136	138.872	81.321	-137.961	-134.237	-41.166	-120.551	127.939	-8.758	186.943	189.897	-81.819	-86.113	80.132	157.080	-46.640	0.00063837	0.00034876	1.9307e-05	1000.7	1.2802e-06	2.4558e-06	1106.9	209.55	8.5399e-06	4.2377e-06	269.27	75.425	58.563	16.621	1.9804e-06	23.762	0.00010586	9.6481e-05	2.6669e-05	974.7	1.0729e-06	1.072e-06	1081.2	205.99	1.0704e-06	1.0692e-06	262.65	73.944	57.368	16.467	1.0314e-06	23.555	40.648	-84.842	-75.414	-158.419	-35.921	-28.811	-158.740	-151.283	-101.887	-28.623	-151.422	-145.256	-144.554	-136.913	-105.285	-138.175	-8191	255	
2106.342	1	1	0	0	0.13651	0.085795	0.13606	0.20419	0.070891	0.16892	0.32472	0.17734	0.50604	0.18321	0.10165	0.14593	0.31202	0.14171	0.31272	0.15368	-0.13958	-1.0312	-0.15417	-1.1646	-0.89792	-0.12708	-1.3104	-0.76042	-0.45417	-1.2271	-0.33333	-0.8125	-0.9125	0.039583	-1.1229	-0.51042	-9.564	-92.334	143.744	48.556	-16.218	94.741	175.260	124.893	148.111	117.015	-157.367	53.080	166.262	-84.409	-143.513	-64.789	0.00074366	0.00036595	6.7817e-05	998.09	2.6002e-06	2.4522e-06	1111.2	211.68	8.5297e-06	9.78e-07	268.85	75.188	58.532	16.658	4.675e-06	23.626	0.00010617	9.5192e-05	2.7669e-05	975.94	1.0952e-06	1.0579e-06	1081.3	206.66	1.0746e-06	1.0573e-06	262.39	73.877	57.339	16.462	1.0552e-06	23.513	35.771	-96.832	-73.034	-158.317	-114.262	86.967	-158.606	-151.015	-89.172	-57.445	-151.579	-144.953	-144.122	-136.321	-25.753	-138.282	-8191	255	
2106.463	1	1	0	0	0.11067	0.19536	0.20013	0.082827	0.20897	0.11346	0.27932	0.28467	0.24766	0.20401	0.17335	0.082486	0.12428	0.13258	0.068623	0.24829	-0.2125	-1.1354	-0.05625	-0.80625	-0.89583	0.033333	-0.93958	-0.53958	-0.4875	-0.88125	-0.35208	-0.57917	-0.97917	-0.25833	-0.98125	-0.57708	33.550	-35.758	80.720	167.773	180.151	-62.191	152.883	120.216	-149.809	129.325	-46.197	-128.126	-169.100	-20.812	-120.868	-94.636	0.00065997	0.00021333	0.00010042	1000.6	1.987e-06	3.2849e-06	1105.9	210.43	5.0736e-07	3.8521e-06	270.09	75.459	58.428	16.72	5.5993e-06	23.553	0.00010597	9.7954e-05	2.6567e-05	975.44	1.0646e-06	1.0662e-06	1081.4	206.19	1.0915e-06	1.0384e-06	263.04	73.965	57.233	16.541	1.0472e-06	23.547	38.944	-74.971	-42.292	-158.563	93.658	-73.724	-158.663	-151.266	-111.275	-11.124	-151.684	-145.269	-144.457	-137.138	-75.200	-138.159	-8191	255	
2106.559	1	1	0	0	0.023558	0.085416	0.097405	0.138	0.32112	0.14319	0.15349	0.26931	0.12926	0.057469	0.079036	0.12996	0.12605	0.12325	0.13675	0.24279	0.05625	-1.0333	-0.30833	-0.575	-1.1125	-0.25625	-1.05	-0.85	-0.27708	-1.1583	-0.47917	-0.42708	-1.1812	-0.19375	-0.925	-0.92917	151.009	165.345	21.637	63.110	-64.093	-152.106	134.709	132.741	106.120	-31.783	-99.948	-59.718	-119.042	91.716	-120.220	-119.713	0.00085251	0.0002148	8.6769e-05	1003.1	4.1175e-06	1.0285e-06	1107.2	210.23	6.0389e-06	1.8833e-06	270.04	75.032	58.886	16.599	2.4536e-06	23.85	0.00010785	9.6487e-05	2.7362e-05	975.11	1.0615e-06	1.0448e-06	1079.7	206.1	1.096e-06	1.0408e-06	262.93	74.122	57.385	16.491	1.0443e-06	23.589	41.626	-138.868	-77.316	-158.605	-28.293	59.358	-158.975	-150.980	-111.831	6.037	-151.556	-145.187	-144.482	-137.398	-81.917	-137.867	-8191	255	
2106.655	1	1	0	0	0.10668	0.17118	0.16961	0.01188	0.094438	0.094573	0.22282	0.014943	0.25378	0.32316	0.1582	0.22601	0.16538	0.22897	0.063078	0.19024	0.27917	-0.96875	-0.43125	-0.57083	-1.1417	-0.22917	-1.0063	-0.93542	-0.095833	-1.0208	-0.5625	-0.33958	-1.2583	-0.13125	-0.675	-1.0083	-168.471	36.092	-143.404	131.107	-1.141	100.839	78.238	87.741	-38.176	-123.883	179.087	94.239	66.553	-143.343	-60.909	66.875	0.00086038	0.0003119	9.1085e-05	999.33	1.0626e-06	3.7648e-06	1104.1	211.4	5.7772e-06	2.5891e-06	268.82	75.249	58.631	16.474	3.8197e-06	23.443	0.00010561	9.4523e-05	2.7443e-05	974.44	1.0737e-06	1.0643e-06	1079.3	206.62	1.0911e-06	1.08e-06	262.32	74.089	57.463	16.465	1.0432e-06	23.545	44.608	-90.337	-81.632	-158.447	-51.145	-39.181	-158.595	-151.374	-83.734	-37.586	-151.300	-144.962	-144.224	-136.722	-10.106	-137.673	-8191	255	
2106.727	1	1	0	0	0.19349	0.32957	0.1946	0.20052	0.17848	0.15086	0.13343	0.032693	0.33905	0.27045	0.48608	0.080377	0.20349	0.36196	0.063541	0.12333	0.49792	-0.91875	-0.7125	-0.41458	-1.1417	-0.28542	-0.875	-0.90417	-0.19375	-0.90625	-0.58333	-0.38542	-1.1167	-0.33333	-0.63542	-1.0854	75.440	175.869	-72.378	24.361	180.166	35.598	186.830	85.852	-166.311	12.404	163.716	129.035	14.264	30.378	-52.883	30.964	0.00074506	0.00024422	8.3957e-05	999.02	3.492e-06	1.8899e-06	1105.5	210.33	5.5625e-06	1.5142e-06	270.34	75.652	58.621	16.562	7.7324e-06	23.652	0.00010692	9.6985e-05	2.7364e-05	975.9	1.0822e-06	1.0468e-06	1080.9	206.37	1.0969e-06	1.0667e-06	263.38	74.013	57.445	16.495	1.079e-06	23.54	47.901	-114.583	-30.380	-158.249	-55.532	30.723	-158.207	-150.952	-103.096	-100.677	-151.516	-144.674	-143.825	-137.132	-47.621	-137.659	-8191	255	
2106.823	1	1	0	0	0.12918	0.044939	0.070532	0.45243	0.080848	0.14412	0.085008	0.11345	0.10357	0.22633	0.16912	0.19351	0.19825	0.087443	0.13335	0.11993	0.1375	-0.9	-0.71875	-0.31875	-1.0354	-0.34792	-0.53542	-1.0667	-0.13125	-1.0375	-0.92917	-0.32917	-0.88125	-0.52708	-0.59583	-1.1354	-4.571	-95.856	-10.643	124.436	-30.048	-57.414	143.617	169.252	-109.796	-49.810	56.896	172.952	50.280	138.943	60.027	91.192	0.00063312	0.0003012	7.6633e-05	1009.1	4.972e-06	2.6789e-06	1112.3	210.7	1.9284e-06	8.4369e-07	270.54	75.076	58.541	16.677	3.8319e-06	23.67	0.00010792	9.5802e-05	2.7155e-05	978.71	1.1012e-06	1.0783e-06	1082.9	206.61	1.0808e-06	1.0451e-06	262.97	73.914	57.41	16.536	1.0932e-06	23.487	36.296	-129.657	-105.277	-158.466	-48.688	-16.886	-158.678	-151.308	-144.090	-41.884	-151.979	-144.274	-144.002	-136.716	-67.484	-137.727	-8191	255	
2106.942	1	1	0	0	0.1257	0.25547	0.17417	0.24191	0.1713	0.35487	0.236	0.2238	0.39545	0.13818	0.12115	0.01896	0.13641	0.093301	0.14321	0.072448	0.17917	-0.85625	-0.9375	-0.18125	-0.875	-0.70208	-0.75625	-1.2104	-0.43958	-0.67917	-1.0896	-0.064583	-1.1521	-0.5125	-0.33958	-1.1437	0.356	-88.847	23.237	128.193	162.831	-82.612	-137.054	-159.516	-35.119	-129.828	68.198	142.423	160.068	190.019	-109.307	28.672	0.00080905	0.00027125	7.7674e-05	1001.8	2.0712e-06	2.3621e-06	1109.1	210.79	4.0418e-06	2.6105e-06	271.69	75.27	58.571	16.448	2.7331e-06	23.765	0.00011046	9.6042e-05	2.6614e-05	974.78	1.0836e-06	1.0713e-06	1081.8	205.98	1.1104e-06	1.0811e-06	263.61	73.95	57.317	16.451	1.067e-06	23.565	40.939	-58.366	-112.764	-158.258	-70.476	-78.095	-158.447	-150.871	-129.615	-42.744	-151.554	-144.900	-144.343	-137.077	-119.636	-137.775	-8191	255	
2107.038	1	1	0	0	0.14126	0.36694	0.34498	0.18734	0.17124	0.14193	0.21248	0.28958	0.35161	0.065972	0.10397	0.24211	0.11372	0.27918	0.17504	0.24935	-0.066667	-0.44583	-0.98958	-0.34583	-0.95	-0.68958	-0.52917	-1.1125	-0.325	-0.75208	-1.1083	-0.16042	-0.77708	-0.84167	-0.24583	-1.1938	147.548	73.009	-44.260	190.595	80.592	-4.366	-150.831	153.050	116.873	-37.023	126.851	135.078	141.883	65.785	-26.243	-149.973	0.0007116	0.00014565	2.6531e-05	1000.5	1.4323e-06	3.9045e-06	1106.4	209.52	4.6371e-06	2.6246e-06	271.85	75.338	58.685	16.581	2.2234e-06	23.707	0.00010911	9.7645e-05	2.6656e-05	974.76	1.0867e-06	1.0953e-06	1079.8	206.28	1.1091e-06	1.0478e-06	263.51	74.01	57.552	16.491	1.0993e-06	23.585	32.184	-117.404	-41.290	-158.332	27.595	-76.781	-158.429	-150.665	-75.166	43.056	-151.038	-144.973	-144.107	-136.841	-32.282	-137.021	-8191	255	
2107.134	1	1	0	0	0.14625	0.13012	0.26803	0.28672	0.22568	0.14536	0.26413	0.16672	0.18642	0.15528	0.055154	0.11101	0.37013	0.15705	0.12548	0.17342	-0.12917	-0.5625	-1.1021	-0.12292	-0.90833	-0.83958	-0.34375	-1.125	-0.75625	-0.46042	-1.4167	-0.41458	-0.8625	-0.71458	-0.22083	-1.1396	-128.501	160.436	-139.488	95.625	40.558	122.620	138.960	15.943	61.466	170.819	52.501	177.846	-128.092	-74.064	51.542	51.124	0.00078857	0.00029161	7.7121e-05	998.48	1.0542e-06	2.4492e-06	1109.2	211.21	4.7568e-06	2.0779e-06	268.12	75.319	59.058	16.734	4.2112e-06	23.492	0.00010827	9.7829e-05	2.6463e-05	974.71	1.0939e-06	1.0828e-06	1081.2	206.33	1.0873e-06	1.0711e-06	262.68	73.995	57.58	16.533	1.1245e-06	23.565	40.965	-27.845	-70.858	-158.454	74.561	-23.910	-158.662	-150.845	-125.633	-95.061	-151.427	-144.605	-143.844	-136.799	-17.635	-137.700	-8191	255	
2107.230	1	1	0	0	0.25107	0.20147	0.11421	0.26499	0.21764	0.097623	0.27153	0.25252	0.24454	0.25348	0.19452	0.35274	0.09784	0.11872	0.34212	0.28913	-0.18542	-0.41667	-1	-0.51042	-0.80208	-0.99583	-0.49583	-1.225	-0.59792	-0.1625	-1.2125	-0.2625	-0.53542	-0.93125	-0.15	-1.1833	-23.886	176.903	-153.750	135.400	-27.492	-125.940	78.952	161.467	157.391	-82.873	149.297	108.493	-101.536	-99.828	-131.676	183.937	0.00076512	0.00020142	0.00010828	1003	2.1198e-06	1.2591e-06	1108.1	211.22	6.8224e-06	3.2288e-06	268.46	74.959	58.65	16.687	3.4256e-06	23.671	0.00010763	9.8139e-05	2.6955e-05	976.65	1.0972e-06	1.037e-06	1081.8	206.39	1.0817e-06	1.0843e-06	262.14	73.941	57.418	16.545	1.059e-06	23.58	48.316	-42.755	-35.979	-158.405	0.641	-7.339	-158.738	-150.950	-149.706	-88.924	-151.513	-144.855	-144.556	-137.154	-16.289	-137.988	-8191	255	
2107.351	1	1	0	0	0.097389	0.10433	0.053899	0.27645	0.057264	0.25147	0.078456	0.028728	0.14874	0.18528	0.17641	0.0066808	0.2822	0.13815	0.1669	0.13528	-0.23542	-0.1375	-1.3354	-0.575	-0.5375	-1.0896	-0.40417	-1.2	-0.9125	-0.26667	-1.0625	-0.48542	-0.4875	-1.175	-0.083333	-0.83125	188.553	0.325	88.305	169.508	-60.708	59.652	29.186	111.217	5.212	-164.053	-125.984	59.890	175.275	-53.321	-135.350	41.887	0.00061051	0.00021486	7.7649e-05	999.66	4.1188e-06	1.583e-06	1110.5	211.85	9.6879e-07	1.9834e-06	268.92	75.329	58.922	16.645	2.6094e-06	23.835	0.0001059	9.6784e-05	2.7505e-05	974.04	1.1092e-06	1.0596e-06	1081.2	206.5	1.0787e-06	1.0859e-06	262.71	73.978	57.379	16.516	1.0982e-06	23.577	40.810	-147.656	-80.075	-158.546	-13.376	-149.862	-158.557	-151.134	-151.639	-1.150	-151.646	-145.177	-144.349	-136.866	-104.800	-137.607	-8191	255	
2107.423	1	1	0	0	0.31941	0.19931	0.15246	0.068111	0.26836	0.047524	0.36571	0.14888	0.17888	0.13986	0.19244	0.18455	0.42579	0.24678	0.097614	0.26216	-0.64375	-0.12708	-1.0354	-0.61042	-0.41042	-1.3646	-0.61667	-0.85625	-0.99375	-0.23125	-1.1896	-0.53958	-0.39792	-1.2271	-0.32292	-0.7625	-15.232	20.085	123.653	189.294	-4.787	16.363	82.474	174.166	42.800	157.258	155.469	-138.149	-100.062	159.332	-71.411	153.110	0.00052747	0.00032079	7.1725e-05	1003.1	1.4273e-06	1.8525e-06	1111	210.68	3.6925e-06	4.7768e-06	269.3	75.159	58.537	16.594	4.0996e-07	23.747	0.00010653	0.00010177	2.6859e-05	975.5	1.1319e-06	1.0537e-06	1080.8	206.92	1.0709e-06	1.0819e-06	263.2	73.915	57.504	16.508	1.0978e-06	23.573	33.145	-93.877	-63.736	-158.437	-105.081	-19.680	-158.411	-150.944	-60.798	-88.671	-151.261	-145.087	-144.226	-136.676	142.787	-137.722	-8191	255	
2107.543	1	1	0	0	0.18277	0.038514	0.1261	0.20963	0.044739	0.15478	0.18033	0.19601	0.20766	0.19575	0.14098	0.16109	0.41746	0.14445	0.27651	0.039597	-0.78542	-0.075	-1.075	-0.78333	-0.22083	-1.1938	-0.37292	-0.73333	-1.1521	-0.30417	-0.87708	-0.73958	-0.24792	-1.0854	-0.62708	-0.48333	15.215	-39.491	-118.356	-96.663	-146.741	28.302	118.502	-38.555	-100.759	3.659	175.895	66.627	-153.025	174.617	-0.728	147.875	0.00073206	0.00039921	7.1593e-05	999.67	6.121e-06	9.7392e-07	1106.3	210.52	5.3386e-06	3.1973e-06	268.95	75.407	58.515	16.615	4.9652e-06	23.72	0.00010614	9.8449e-05	2.6821e-05	975.92	1.0785e-06	1.067e-06	1079.5	206.47	1.0749e-06	1.0545e-06	262.71	74.084	57.348	16.473	1.094e-06	23.563	29.995	-86.700	-92.300	-158.319	-74.343	36.728	-158.539	-150.912	-141.699	-4.255	-151.281	-144.902	-144.378	-136.998	-91.247	-138.125	-8191	255	
2107.639	1	1	0	0	0.15867	0.20854	0.1154	0.15555	0.11746	0.10446	0.23759	0.26575	0.097225	0.37505	0.19411	0.13231	0.31367	0.11861	0.080957	0.097991	-0.57083	-0.077083	-0.93958	-1.0562	-0.35208	-1.0896	-0.67708	-0.44167	-1.1646	-0.34792	-1.0958	-0.95625	-0.36042	-0.79583	-0.54375	-0.60625	-50.799	-94.579	-6.278	169.531	124.843	74.853	166.199	126.759	181.319	-156.510	-131.531	121.962	-139.792	-84.627	-132.383	-14.631	0.00064044	0.00010394	5.225e-05	1002.5	4.2323e-06	2.5491e-06	1107.8	210.83	9.6485e-06	1.2195e-06	271.34	75.106	58.744	16.576	4.9794e-06	23.56	0.00010848	9.6965e-05	2.719e-05	976.08	1.1204e-06	1.0416e-06	1079.8	206.66	1.1079e-06	1.0765e-06	263.55	73.977	57.498	16.49	1.0968e-06	23.527	40.731	-158.153	-35.992	-158.677	-87.941	23.233	-158.663	-150.555	-107.248	6.871	-151.241	-145.156	-144.543	-136.798	-60.667	-137.473	-8191	255	
2107.736	1	1	0	0	0.27751	0.054243	0.121	0.025387	0.17398	0.14501	0.17138	0.19904	0.1259	0.17205	0.21087	0.10598	0.14718	0.42163	0.12869	0.14305	-0.81042	-0.36042	-0.57917	-1.1625	-0.1625	-1.1479	-0.88958	-0.38125	-1.4104	-0.31458	-0.75625	-1.1979	-0.13958	-1.0875	-0.73333	-0.56875	133.508	-62.790	125.296	46.368	-62.335	98.353	136.693	173.207	67.207	-107.385	64.456	69.176	78.402	-146.401	-167.595	-145.254	0.00064254	0.0003463	4.2887e-05	1005.6	3.4058e-06	3.5603e-06	1109.5	210.98	4.3992e-06	1.6628e-06	271.26	75.428	59.114	16.523	2.473e-06	23.806	0.0001071	0.00010076	2.7241e-05	977.25	1.1024e-06	1.0476e-06	1080.5	206.68	1.0964e-06	1.0865e-06	263.49	74.256	57.573	16.478	1.0863e-06	23.606	39.540	-144.564	-44.985	-158.510	-52.116	-42.047	-158.782	-151.008	-124.838	-28.140	-151.549	-144.742	-144.208	-136.886	-59.975	-137.818	-8191	255	
2107.832	1	1	0	0	0.11125	0.15235	0.10679	0.43483	0.35008	0.30849	0.31677	0.25663	0.34226	0.097305	0.10173	0.068698	0.11693	0.19446	0.077906	0.16137	-0.69167	-0.26458	-0.52292	-1.0833	-0.25625	-0.83333	-1.0271	-0.36667	-1.0854	-0.62083	-0.5125	-1.2625	-0.10625	-0.79792	-0.91875	-0.17917	162.096	-60.251	110.318	118.264	97.824	-97.885	131.776	97.181	189.574	-119.173	166.123	-109.116	112.131	-110.925	-43.841	54.224	0.00056086	0.00034016	6.8609e-05	1003.7	4.6303e-06	5.1369e-07	1102	211.87	2.9113e-06	1.0145e-06	269.95	75.381	58.913	16.669	1.057e-06	23.554	0.00010675	0.00010062	2.6919e-05	978.06	1.1396e-06	1.0854e-06	1079.2	206.62	1.1326e-06	1.0717e-06	263.51	73.999	57.468	16.545	1.0892e-06	23.547	42.165	-98.733	-39.281	-158.438	-14.524	-64.886	-158.522	-150.888	-136.230	10.886	-151.373	-144.892	-144.013	-136.803	135.128	-137.804	-8191	255	
2107.952	1	1	0	0	0.065151	0.099553	0.24062	0.16679	0.047895	0.21643	0.2741	0.24098	0.17275	0.19301	0.16931	0.16598	0.20423	0.10966	0.04701	0.097661	-0.54167	-0.41458	-0.49375	-1.1812	-0.29583	-0.79583	-1.1479	-0.25208	-1.0063	-0.69167	-0.32708	-1.225	-0.40833	-0.73333	-0.9875	-0.37083	-75.537	171.039	182.699	118.758	-55.913	169.594	127.196	90.230	-28.922	183.751	144.783	-130.727	109.383	138.783	-135.678	-91.342	0.00059491	0.00014751	7.6831e-05	1002.4	3.1211e-06	6.9023e-07	1108.8	210.87	4.454e-06	2.5271e-06	269.6	75.334	58.713	16.756	4.6224e-06	23.62	0.00010669	0.00010113	2.7778e-05	976.72	1.0999e-06	1.0709e-06	1081.5	206.54	1.0972e-06	1.0562e-06	263.36	74.017	57.501	16.542	1.07e-06	23.597	45.627	-111.705	-29.183	-158.138	-161.062	161.192	-158.574	-151.235	-121.522	-11.837	-151.362	-145.119	-144.608	-137.191	-62.542	-137.599	-8191	255	
2108.024	1	1	0	0	0.051833	0.062408	0.0056297	0.11315	0.17137	0.27708	0.20187	0.17023	0.24441	0.35306	0.19153	0.21601	0.044815	0.18316	0.20375	0.24784	-0.61458	-0.68333	-0.29583	-1.1958	-0.34167	-0.62292	-1.0104	-0.24167	-0.90208	-0.6625	-0.53125	-1.3646	-0.44792	-0.66042	-0.89583	-0.13958	38.707	11.816	57.192	78.952	41.642	-26.851	161.490	163.277	-135.861	188.851	-12.280	-139.945	190.249	-133.208	-155.132	-164.346	0.0005814	0.00018681	3.8642e-05	1001.8	3.2748e-06	1.7739e-06	1107.8	211.1	3.5624e-06	2.9578e-06	269.89	75.771	58.594	16.555	3.3655e-06	23.687	0.00010635	0.0001012	2.7717e-05	975.67	1.1023e-06	1.0617e-06	1081.4	206.67	1.1071e-06	1.0608e-06	262.73	74.097	57.435	16.474	1.0781e-06	23.577	47.049	-79.033	-75.055	-158.457	-118.185	37.258	-158.644	-151.083	-116.403	-24.110	-150.969	-145.316	-144.105	-136.789	-79.044	-138.045	-8191	255	
2108.118	1	1	0	0	0.12248	0.12531	0.10087	0.21167	0.27058	0.32868	0.14619	0.024603	0.049481	0.1655	0.033762	0.22963	0.077297	0.01251	0.086402	0.20294	-0.42083	-0.62917	-0.26458	-1.3208	-0.25208	-0.57083	-1.2208	-0.34583	-0.98958	-0.8875	-0.4125	-1.1833	-0.65	-0.42083	-1.1583	-0.4	-79.497	10.136	-104.584	135.302	38.572	-103.800	171.138	162.427	-93.654	172.067	-25.382	128.307	122.290	30.821	98.497	138.521	0.00064954	0.00022431	5.5156e-05	1004.4	5.4215e-06	2.4488e-06	1109.2	210.88	7.1079e-06	1.669e-06	269.62	75.23	58.678	16.741	4.3356e-06	23.566	0.00010562	9.7671e-05	2.6722e-05	978.09	1.1032e-06	1.0897e-06	1081.4	206.72	1.0934e-06	1.0586e-06	263.25	74.013	57.445	16.561	1.0719e-06	23.483	46.539	-54.588	-31.761	-158.574	-33.404	-12.478	-158.752	-151.157	-99.861	-14.586	-151.378	-144.772	-144.095	-136.841	-51.648	-137.897	-8191	255	
2108.239	1	1	0	0	0.34058	0.077169	0.16237	0.44987	0.2135	0.057287	0.10983	0.34271	0.27281	0.14522	0.33355	0.15938	0.23499	0.087889	0.088588	0.16006	-0.42708	-0.79792	-0.097917	-1.2167	-0.8625	-0.35625	-1.2687	-0.15	-0.74167	-1.0375	-0.25625	-1.1646	-0.64583	-0.43333	-1.125	-0.40417	-105.110	154.064	-38.543	115.852	-17.130	187.948	-126.622	107.522	131.688	-122.849	189.287	181.633	-153.959	169.885	-47.277	179.496	0.00074272	0.00024026	4.8146e-05	1000.4	1.939e-06	2.8658e-06	1106.1	211.99	2.4335e-06	2.1029e-06	271.51	75.187	58.829	16.619	3.545e-06	23.599	0.00010818	9.8986e-05	2.7553e-05	977.01	1.1523e-06	1.0763e-06	1081.6	206.6	1.0977e-06	1.087e-06	263.15	73.994	57.485	16.511	1.0741e-06	23.51	42.913	-89.862	-89.376	-158.617	-30.778	13.500	-158.789	-151.009	-15.795	-20.102	-151.350	-145.024	-144.306	-137.075	-122.916	-138.146	-8191	255	
2108.335	1	1	0	0	0.19347	0.17632	0.17498	0.40975	0.32152	0.15872	0.25113	0.20383	0.17083	0.18038	0.091454	0.15787	0.037944	0.23897	0.18917	0.14456	-0.22708	-0.95	-0.0375	-1.0896	-0.56042	-0.30417	-1.2271	-0.35625	-0.575	-1.0979	-0.40625	-1.1979	-0.98333	-0.35417	-1.0542	-0.41042	-22.656	122.558	169.485	115.579	84.519	-140.891	164.747	125.743	20.133	-68.835	-79.534	46.210	-125.238	-167.016	-29.462	122.504	0.00070029	0.00025301	8.7145e-05	1005.3	3.1657e-06	2.2961e-06	1111.6	211.37	3.6454e-06	3.2802e-06	269.49	75.534	58.356	16.663	6.6901e-06	23.727	0.00010694	9.7786e-05	2.8048e-05	978.78	1.0804e-06	1.0771e-06	1081.8	206.74	1.0713e-06	1.0705e-06	263.39	74.129	57.475	16.526	1.0607e-06	23.572	40.496	-104.919	-93.605	-158.398	-75.538	27.477	-158.493	-151.186	-102.934	10.166	-151.830	-144.977	-144.251	-136.866	-71.726	-138.145	-8191	255	
2108.431	1	1	0	0	0.15327	0.26749	0.24724	0.3722	0.13171	0.18181	0.13558	0.46418	0.22572	0.23727	0.20851	0.104	0.030016	0.13624	0.054324	0.18208	0.058333	-1.0417	-0.27708	-1.1479	-0.80208	-0.18542	-1.4688	-0.63333	-0.22917	-1.0667	-0.12083	-0.9375	-0.87292	-0.20208	-1.0208	-0.57708	-85.392	-109.150	142.162	144.179	120.729	152.235	170.459	173.280	-6.653	5.335	-78.816	160.885	117.321	-35.455	-159.352	-106.266	0.00071996	0.00016042	6.6476e-05	999.78	3.6817e-06	1.8248e-06	1110.4	211.13	3.6404e-06	2.3819e-06	268.36	75.285	58.864	16.61	8.7258e-07	23.673	0.00010744	9.9932e-05	2.7493e-05	975.5	1.0826e-06	1.0763e-06	1083.6	206.57	1.0835e-06	1.0236e-06	262.79	73.978	57.459	16.527	1.0851e-06	23.555	42.602	-151.407	-15.448	-158.387	-77.446	-9.900	-158.813	-151.279	178.518	-5.329	-151.532	-144.666	-144.402	-136.949	139.825	-137.749	-8191	255	
2108.527	1	1	0	0	0.1824	0.067807	0.16827	0.26718	0.065092	0.11745	0.015503	0.047459	0.0356	0.10719	0.30989	0.20231	0.083442	0.022225	0.15322	0.28123	-0.04375	-1.0583	-0.2375	-0.96667	-1.0187	-0.25833	-1.275	-0.775	-0.50208	-1.2042	-0.37708	-0.61458	-0.90208	-0.21042	-0.9375	-0.71875	-1.459	-27.910	-94.012	122.133	4.486	137.222	-28.757	-71.311	57.128	-4.945	-168.289	50.369	82.859	155.567	-128.860	-26.962	0.00070988	0.00024958	6.1496e-05	1000.4	7.7635e-07	3.2885e-06	1112.8	210.47	4.1982e-06	1.8451e-06	268.69	75.543	59.103	16.555	5.457e-06	23.816	0.00010649	9.6184e-05	2.7414e-05	976.7	1.1075e-06	1.1042e-06	1083.5	206.34	1.1116e-06	1.0746e-06	262.58	74.273	57.648	16.493	1.0909e-06	23.62	40.955	-119.488	-69.093	-158.556	-42.562	-98.623	-158.692	-151.031	-104.732	0.502	-151.457	-145.166	-144.511	-136.906	-60.649	-137.660	-8191	255	
2108.648	1	1	0	0	0.16286	0.18698	0.027496	0.14498	0.22649	0.23307	0.19123	0.070679	0.072259	0.058545	0.082728	0.16589	0.23789	0.36581	0.079511	0.18188	-0.025	-1.1125	-0.34583	-0.56458	-1.1458	-0.22083	-1.1542	-0.87292	-0.17083	-0.925	-0.625	-0.2625	-1.1313	-0.22292	-1.0063	-0.95417	-33.174	-167.175	26.783	141.415	-81.455	-2.581	115.579	-81.398	-67.491	134.462	-72.416	69.016	70.367	-121.836	169.536	141.870	0.0008707	0.0003157	8.9025e-05	1003.6	1.6173e-06	1.4226e-06	1110.3	211.24	5.0142e-06	2.265e-06	268.74	75.258	58.974	16.608	6.173e-06	23.802	0.00011092	9.8891e-05	2.838e-05	976.41	1.1224e-06	1.1066e-06	1082.4	206.36	1.1439e-06	1.1124e-06	262.94	73.942	57.427	16.576	1.0959e-06	23.531	30.961	-66.361	-77.064	-158.398	-127.384	-89.712	-158.548	-151.365	-104.721	57.919	-151.626	-145.256	-144.563	-137.119	-27.852	-137.426	-8191	255	
2108.720	1	1	0	0	0.30575	0.26299	0.29504	0.10099	0.1885	0.25483	0.1147	0.19728	0.15847	0.18136	0.44529	0.15181	0.17953	0.42026	0.32981	0.42165	0.38542	-1.1646	-0.47917	-0.65417	-1.0708	-0.36875	-0.97083	-1.1521	-0.16042	-1.1208	-0.6125	-0.45208	-1.1437	-0.39583	-0.86458	-0.98333	-167.114	122.354	-20.930	-52.335	106.417	65.336	142.781	92.547	123.475	186.120	179.365	-35.547	116.851	127.414	-80.402	126.243	0.00073091	0.00031107	9.0118e-05	1002.1	4.872e-06	3.2893e-06	1113.5	211.13	4.6587e-06	1.9235e-06	270.53	75.532	58.653	16.712	3.4713e-06	23.586	0.00011131	0.0001011	2.8309e-05	977.48	1.1295e-06	1.1044e-06	1084.7	206.61	1.1114e-06	1.1028e-06	263.55	74.212	57.439	16.558	1.1051e-06	23.577	38.740	-107.031	-13.866	-158.287	-3.643	-48.172	-158.739	-151.312	-125.253	-37.358	-151.501	-144.572	-144.320	-137.087	-32.419	-138.218	-8191	255	
2108.816	1	1	0	0	0.010773	0.094333	0.034605	0.13109	0.12234	0.13269	0.38783	0.26121	0.07383	0.28943	0.12539	0.15621	0.086748	0.15067	0.16828	0.18498	0.21875	-1.0708	-0.57917	-0.39792	-1.2229	-0.26042	-0.66667	-1.1688	-0.08125	-1.125	-0.81667	-0.18542	-1.1875	-0.32083	-0.575	-1.3146	70.233	-6.007	-64.502	-163.059	120.977	163.407	136.148	168.200	-128.486	27.234	-120.895	106.829	-153.887	167.018	-6.354	-146.943	0.00058645	0.00024238	6.9271e-05	1006.5	3.4757e-07	4.069e-06	1114.2	212.29	7.0901e-06	1.309e-06	270	75.27	59.091	16.69	2.3621e-06	23.837	0.00010932	9.7575e-05	2.7699e-05	979.26	1.1229e-06	1.0925e-06	1085.9	206.97	1.1436e-06	1.1109e-06	263.24	74.057	57.65	16.555	1.1088e-06	23.659	45.730	-92.852	-102.139	-158.208	190.457	44.011	-158.731	-150.998	-74.770	6.665	-151.349	-144.794	-144.365	-137.554	3.866	-137.814	-8191	255	
#DATA ENDS
