BOXY.EXE: ISS Imagent and Oximeter Data Acquisition Program Version 0.80
Ascii Record File

#ACQ INFORMATION
2  Detector Channels 
16  External MUX Channels 
1  Auxiliary Channels 
5000  Waveform (CCF) Frequency (Hz)
1  Waveforms Skipped 
30  Waveforms Averaged 
1  Cycles Averaged 
16  Acquisitions per Waveform 
10.0806  Updata Rate (Hz) 

#FILE INFORMATION
TRUE -- External MUX Channel results are PARSED.
FALSE -- AC DC and Phase are NOT grouped.
TRUE -- Companion Program Settings File CREATED.
FALSE -- AC data not excluded
FALSE -- DC data not excluded
FALSE -- Phase data not excluded
FALSE -- Auxillary Chn. data not excluded
Tab delimiters

#CALIBRATION STATE
TRUE -- Waveform Calibration Values APPLIED.


#AUX CALIBRATION VALUES
Val Type	aux-1	

Term	1.0000e+00	
Factor	0.0000e+00	


#WF CALIBRATION VALUES
A = Detector Channel
Val Type	A-AC1	A-AC2	A-AC3	A-AC4	A-AC5	A-AC6	A-AC7	A-AC8	A-AC9	A-AC10	A-AC11	A-AC12	A-AC13	A-AC14	A-AC15	A-AC16	A-DC1	A-DC2	A-DC3	A-DC4	A-DC5	A-DC6	A-DC7	A-DC8	A-DC9	A-DC10	A-DC11	A-DC12	A-DC13	A-DC14	A-DC15	A-DC16	A-Ph1	A-Ph2	A-Ph3	A-Ph4	A-Ph5	A-Ph6	A-Ph7	A-Ph8	A-Ph9	A-Ph10	A-Ph11	A-Ph12	A-Ph13	A-Ph14	A-Ph15	A-Ph16	

Term	0.00000e+00	0.00000e+00	0.00000e+00	0.00000e+00	0.00000e+00	0.00000e+00	0.00000e+00	0.00000e+00	0.00000e+00	0.00000e+00	0.00000e+00	0.00000e+00	0.00000e+00	0.00000e+00	0.00000e+00	0.00000e+00	0.00000e+00	0.00000e+00	0.00000e+00	0.00000e+00	0.00000e+00	0.00000e+00	0.00000e+00	0.00000e+00	0.00000e+00	0.00000e+00	0.00000e+00	0.00000e+00	0.00000e+00	0.00000e+00	0.00000e+00	0.00000e+00	0.00000e+00	0.00000e+00	0.00000e+00	0.00000e+00	0.00000e+00	0.00000e+00	0.00000e+00	0.00000e+00	0.00000e+00	0.00000e+00	0.00000e+00	0.00000e+00	0.00000e+00	0.00000e+00	0.00000e+00	0.00000e+00	
Factor	1.00000e+00	1.00000e+00	1.00000e+00	1.00000e+00	1.00000e+00	1.00000e+00	1.00000e+00	1.00000e+00	1.00000e+00	1.00000e+00	1.00000e+00	1.00000e+00	1.00000e+00	1.00000e+00	1.00000e+00	1.00000e+00	1.00000e+00	1.00000e+00	1.00000e+00	1.00000e+00	1.00000e+00	1.00000e+00	1.00000e+00	1.00000e+00	1.00000e+00	1.00000e+00	1.00000e+00	1.00000e+00	1.00000e+00	1.00000e+00	1.00000e+00	1.00000e+00	X	X	X	X	X	X	X	X	X	X	X	X	X	X	X	X	

B = Detector Channel
Val Type	B-AC1	B-AC2	B-AC3	B-AC4	B-AC5	B-AC6	B-AC7	B-AC8	B-AC9	B-AC10	B-AC11	B-AC12	B-AC13	B-AC14	B-AC15	B-AC16	B-DC1	B-DC2	B-DC3	B-DC4	B-DC5	B-DC6	B-DC7	B-DC8	B-DC9	B-DC10	B-DC11	B-DC12	B-DC13	B-DC14	B-DC15	B-DC16	B-Ph1	B-Ph2	B-Ph3	B-Ph4	B-Ph5	B-Ph6	B-Ph7	B-Ph8	B-Ph9	B-Ph10	B-Ph11	B-Ph12	B-Ph13	B-Ph14	B-Ph15	B-Ph16	

Term	0.00000e+00	0.00000e+00	0.00000e+00	0.00000e+00	0.00000e+00	0.00000e+00	0.00000e+00	0.00000e+00	0.00000e+00	0.00000e+00	0.00000e+00	0.00000e+00	0.00000e+00	0.00000e+00	0.00000e+00	0.00000e+00	0.00000e+00	0.00000e+00	0.00000e+00	0.00000e+00	0.00000e+00	0.00000e+00	0.00000e+00	0.00000e+00	0.00000e+00	0.00000e+00	0.00000e+00	0.00000e+00	0.00000e+00	0.00000e+00	0.00000e+00	0.00000e+00	6.90162e+01	-1.56128e+02	-1.16186e+02	-1.81639e+02	-7.96074e+01	-9.11058e+01	-1.56882e+02	-1.62015e+02	-1.33922e+02	-6.75792e+01	-1.72122e+02	-1.69516e+02	-1.85555e+02	-1.76516e+02	-9.85877e+01	-1.49146e+02	
Factor	6.21861e-05	1.15743e-04	3.18327e-05	1.64936e-01	1.44916e-06	1.20847e-06	1.76422e-01	5.14978e-02	1.99006e-06	1.27802e-06	8.81120e-02	2.83650e-02	2.55766e-02	8.90638e-03	1.90026e-06	1.25959e-02	1.53080e-06	1.58230e-06	4.40569e-07	8.63224e-02	1.72893e-08	1.73607e-08	8.67342e-02	2.69960e-02	1.72581e-08	1.73857e-08	4.42118e-02	1.42717e-02	1.32884e-02	4.65608e-03	1.73092e-08	6.35628e-03	X	X	X	X	X	X	X	X	X	X	X	X	X	X	X	X	



#DISTANCE SETTINGS
A = Detector Channel
A-1	A-2	A-3	A-4	A-5	A-6	A-7	A-8	A-9	A-10	A-11	A-12	A-13	A-14	A-15	A-16	

2.5000e+00	3.0000e+00	2.5000e+00	3.0000e+00	2.0000e+00	3.0000e+00	1.5000e+00	3.0000e+00	3.0000e+00	3.0000e+00	3.0000e+00	3.0000e+00	3.0000e+00	3.0000e+00	1.5000e+00	3.0000e+00	

B = Detector Channel
B-1	B-2	B-3	B-4	B-5	B-6	B-7	B-8	B-9	B-10	B-11	B-12	B-13	B-14	B-15	B-16	

1.0000e+01	1.0000e+01	1.0000e+01	1.4400e+00	1.0000e+01	1.0000e+01	1.5100e+00	1.9400e+00	1.0000e+01	1.0000e+01	1.9900e+00	2.4900e+00	2.4100e+00	2.9000e+00	1.0000e+01	2.9800e+00	




#DATA BEGINS
time	group	step	mark	flag	A-AC1	A-AC2	A-AC3	A-AC4	A-AC5	A-AC6	A-AC7	A-AC8	A-AC9	A-AC10	A-AC11	A-AC12	A-AC13	A-AC14	A-AC15	A-AC16	A-DC1	A-DC2	A-DC3	A-DC4	A-DC5	A-DC6	A-DC7	A-DC8	A-DC9	A-DC10	A-DC11	A-DC12	A-DC13	A-DC14	A-DC15	A-DC16	A-Ph1	A-Ph2	A-Ph3	A-Ph4	A-Ph5	A-Ph6	A-Ph7	A-Ph8	A-Ph9	A-Ph10	A-Ph11	A-Ph12	A-Ph13	A-Ph14	A-Ph15	A-Ph16	B-AC1	B-AC2	B-AC3	B-AC4	B-AC5	B-AC6	B-AC7	B-AC8	B-AC9	B-AC10	B-AC11	B-AC12	B-AC13	B-AC14	B-AC15	B-AC16	B-DC1	B-DC2	B-DC3	B-DC4	B-DC5	B-DC6	B-DC7	B-DC8	B-DC9	B-DC10	B-DC11	B-DC12	B-DC13	B-DC14	B-DC15	B-DC16	B-Ph1	B-Ph2	B-Ph3	B-Ph4	B-Ph5	B-Ph6	B-Ph7	B-Ph8	B-Ph9	B-Ph10	B-Ph11	B-Ph12	B-Ph13	B-Ph14	B-Ph15	B-Ph16	aux-1	digaux	

1966.132	1	1	0	768	0.37302	0.1218	0.24409	0.30269	0.096675	0.3777	0.34536	0.046391	0.13733	0.074949	0.4518	0.090949	0.097798	0.14104	0.2441	0.21569	-0.80625	-0.275	-0.84583	-1.0708	-0.43958	-1.2375	-0.40208	-0.60208	-1.2583	-0.05	-0.91458	-0.79375	-0.54375	-1.3229	-0.24167	-0.27083	-44.034	30.015	118.477	-168.608	139.130	161.177	-157.090	-156.557	-109.575	121.822	161.202	150.297	134.716	-169.285	-146.387	148.774	0.0017351	0.00060404	0.00015518	1357.2	9.1278e-06	7.8292e-06	1359.4	365.71	4.7709e-06	9.9536e-07	419.64	140.9	121.69	41.647	7.9635e-06	51.177	0.00057282	0.00056814	0.00015811	1382.2	6.2771e-06	6.233e-06	1381.9	374.96	6.168e-06	6.245e-06	429.23	143.74	124.92	42.958	6.2614e-06	53.108	42.325	-107.685	-44.471	-161.641	-54.472	-50.783	-161.955	-157.222	165.885	4.746	-157.413	-153.337	-152.655	-147.811	-40.819	-148.780	-8191	255	
1966.229	1	1	0	0	0.15716	0.31452	0.17431	0.22114	0.039967	0.075407	0.47455	0.24586	0.15371	0.30309	0.05899	0.31596	0.17315	0.41325	0.097008	0.10647	-0.9375	-0.16458	-0.6875	-0.95625	-0.24792	-1.1396	-0.64792	-0.63125	-1.2979	-0.30625	-0.94375	-1.3083	-0.21875	-1.2042	-0.7125	-0.67708	65.126	42.494	-23.164	-156.792	-154.040	-49.427	121.504	129.175	20.315	-78.378	93.700	150.343	-112.882	152.282	-17.438	103.974	0.0017577	0.00037344	0.00010619	1363.4	7.7829e-06	4.4029e-06	1354.7	366.79	4.473e-06	8.2411e-06	419.7	139.95	123.02	41.699	5.8941e-06	51.318	0.00058185	0.00057399	0.00015972	1387.2	6.3343e-06	6.2527e-06	1382.9	374.92	6.2652e-06	6.2867e-06	428.59	143.4	124.95	42.972	6.2203e-06	53.128	38.781	183.507	-38.123	-161.680	-68.281	-97.353	-161.850	-156.939	-48.865	-6.159	-157.584	-153.331	-152.860	-147.812	-21.456	-148.983	-8191	255	
1966.325	1	1	0	0	0.32892	0.14458	0.11654	0.24397	0.14365	0.13281	0.32049	0.32513	0.14907	0.04417	0.079877	0.15352	0.31955	0.018124	0.03779	0.21859	-0.80417	-0.22917	-0.64167	-1.1333	-0.24375	-1.0229	-0.87708	-0.56875	-1.1417	-0.39583	-0.85208	-1.0375	-0.31458	-1.1896	-0.91667	-0.24792	83.096	-7.569	-88.407	115.031	-9.548	80.765	107.034	147.154	-166.164	97.901	-28.031	-164.214	160.205	118.310	-106.200	127.594	0.0018503	0.00060243	0.00010732	1355.9	7.4955e-06	8.0501e-06	1358.8	365.78	8.755e-06	2.6932e-06	417.9	139.34	122.16	41.528	9.2831e-06	51.293	0.00058333	0.0005742	0.00016095	1383	6.2915e-06	6.3023e-06	1384.2	374.48	6.3078e-06	6.2857e-06	427.86	142.89	124.7	42.909	6.2459e-06	53.133	36.860	-120.131	-9.976	-161.677	-73.799	-70.571	-161.812	-157.044	-130.052	-43.966	-157.424	-153.406	-152.796	-148.033	-56.689	-148.712	-8191	255	
1966.421	1	1	0	0	0.2853	0.13078	0.1138	0.18521	0.2104	0.04134	0.28463	0.1322	0.17479	0.11086	0.34447	0.24082	0.20186	0.2737	0.26003	0.041897	-0.7375	-0.37917	-0.56667	-1.4042	-0.29792	-0.95833	-1.0083	-0.175	-0.89792	-0.37708	-0.47083	-1.2938	-0.34792	-1.0042	-1.1875	-0.11042	-135.247	174.902	59.339	104.786	176.912	20.181	115.488	128.910	174.574	20.930	160.564	180.829	154.153	131.533	-78.859	116.476	0.0016696	0.00050398	9.6195e-05	1359.8	9.6822e-06	1.3115e-06	1355.1	366.84	6.6236e-06	5.277e-06	417.8	140.01	121.89	41.778	3.0436e-06	51.314	0.00058398	0.00057277	0.00016038	1383.1	6.3251e-06	6.385e-06	1382.8	374.63	6.2992e-06	6.3203e-06	428.38	143.56	124.55	43.019	6.2439e-06	53.181	46.342	-138.602	-148.181	-161.570	-73.841	161.587	-161.891	-156.954	-51.988	-51.331	-157.292	-153.107	-152.628	-148.002	-89.333	-148.805	-8191	255	
1966.517	1	1	0	0	0.022572	0.12546	0.18325	0.08425	0.30907	0.33699	0.26122	0.54693	0.15674	0.081055	0.11963	0.36015	0.15349	0.031715	0.07525	0.04771	-0.73333	-0.54583	-0.3875	-1.3917	-0.46458	-0.63542	-1.3188	-0.175	-1.1625	-0.66458	-0.52083	-1.3771	-0.40833	-0.83958	-1.3292	-0.17708	4.448	45.762	148.930	150.598	72.395	-17.123	135.253	88.025	42.945	-55.953	-32.781	113.035	-117.556	153.580	-124.724	143.159	0.0018878	0.00021558	7.1185e-05	1359.6	3.1968e-06	5.5094e-06	1352.5	367.82	5.1756e-06	5.0879e-06	420.25	140.26	122.43	41.636	3.199e-06	51.443	0.00058507	0.00057316	0.00015738	1386.4	6.2885e-06	6.2279e-06	1384	375.59	6.1989e-06	6.2461e-06	429.52	143.85	125.06	43.029	6.1469e-06	53.204	43.121	-78.855	-111.559	-161.504	15.256	-67.699	-161.912	-156.891	-93.048	104.538	-157.502	-153.584	-152.762	-147.859	-85.756	-148.760	-8191	255	
1966.613	1	1	0	0	0.052464	0.13661	0.094977	0.27015	0.19578	0.075691	0.098263	0.21476	0.015919	0.10331	0.34014	0.30858	0.16177	0.22244	0.16537	0.2633	-0.52292	-0.68333	-0.43333	-1.3146	-0.42292	-0.63125	-1.3104	-0.57292	-1.0167	-0.97083	-0.27917	-1.0479	-0.47917	-0.79375	-1.2958	-0.40625	-88.400	94.558	119.865	173.418	-148.619	18.434	108.530	47.155	-145.281	43.552	178.064	148.048	-168.688	-166.212	-43.302	125.756	0.0016297	0.00033633	0.00014174	1361.9	7.055e-06	4.5654e-06	1354.4	367.37	7.5202e-06	7.6319e-06	419.83	140.78	122.38	41.674	3.7609e-06	51.419	0.00057557	0.00056325	0.0001582	1385	6.2489e-06	6.1631e-06	1384	375.44	6.1393e-06	6.1722e-06	428.78	143.7	125.19	43.075	6.1258e-06	53.202	38.210	-152.034	-73.803	-161.329	-24.292	-56.857	-161.596	-156.861	-100.675	-34.935	-157.250	-153.337	-152.658	-147.831	-69.258	-148.909	-8191	255	
1966.734	1	1	0	0	0.24163	0.10252	0.14174	0.092509	0.063966	0.26321	0.21995	0.11965	0.17206	0.052983	0.12438	0.089244	0.12939	0.028991	0.19056	0.24107	-0.45	-0.86667	-0.3625	-1.3833	-0.67083	-0.5875	-1.3583	-0.59583	-0.76875	-1.0375	-0.19167	-1.3292	-0.87292	-0.69167	-1.2542	-0.3625	83.623	11.697	-162.403	136.537	57.324	22.825	182.493	167.574	-110.032	70.409	-33.417	153.105	137.543	77.568	-174.882	133.226	0.0017887	0.00074193	2.5815e-05	1363.1	5.7371e-06	2.5456e-06	1360.7	368.28	5.9469e-06	6.4316e-06	418.79	140.83	122.78	41.661	5.6646e-06	51.258	0.00057951	0.00056765	0.00015671	1387	6.2101e-06	6.2216e-06	1384.5	375.33	6.1904e-06	6.1482e-06	428.8	143.82	124.92	42.924	6.2023e-06	53.147	40.340	-91.782	-40.882	-161.249	14.300	33.671	-161.651	-157.078	-140.043	-44.476	-157.370	-153.250	-152.696	-147.838	-67.165	-148.582	-8191	255	
1966.828	1	1	0	0	0.333	0.13574	0.32349	0.25668	0.036868	0.15806	0.16513	0.12007	0.24908	0.12553	0.24359	0.076758	0.03383	0.16644	0.01255	0.13606	-0.42708	-1.0542	-0.10833	-1.2854	-0.84167	-0.47083	-1.3937	-0.43125	-0.71458	-1.1313	-0.31875	-0.95417	-0.87917	-0.50625	-1.3917	-0.36667	-56.943	-109.102	40.339	139.717	-121.399	161.760	119.384	-138.474	-128.591	174.723	113.669	-142.122	-56.723	-108.554	-121.114	-84.966	0.0014386	0.00065897	6.5121e-05	1360.2	9.476e-06	3.2121e-06	1355.5	366.76	7.6754e-06	2.2105e-06	417.42	140.05	121.8	41.611	9.8895e-07	51.424	0.00058174	0.00057153	0.00015885	1385.4	6.2272e-06	6.2641e-06	1384.9	374.53	6.333e-06	6.299e-06	427.69	143.47	124.77	42.897	6.2781e-06	53.182	35.993	-85.110	-93.312	-161.399	-102.293	73.465	-161.709	-156.790	-118.231	-36.147	-157.649	-153.131	-152.587	-147.744	94.702	-148.824	-8191	255	
1966.926	1	1	0	0	0.24247	0.17751	0.18842	0.21048	0.12779	0.17022	0.5349	0.21691	0.38654	0.1726	0.057921	0.24244	0.14827	0.25415	0.14972	0.15381	-0.29375	-1.2125	-0.32917	-1.1396	-0.67917	-0.49792	-1.6417	-0.6	-0.4875	-1.3646	-0.3875	-1.0292	-0.76042	-0.51458	-0.93333	-0.65	-20.814	-104.337	-60.483	-151.354	113.917	-5.424	129.884	-172.445	-76.455	-78.808	53.673	-160.784	-51.751	183.475	-68.240	180.965	0.0018509	0.00074984	0.00016229	1361.7	5.6079e-06	8.401e-06	1355.9	365.51	6.2167e-06	7.032e-06	417.57	139.6	121.97	41.466	8.8785e-06	51.371	0.00058036	0.00057189	0.00016063	1385.6	6.3673e-06	6.3293e-06	1384.6	374.6	6.3596e-06	6.3619e-06	428.53	143.08	124.8	42.87	6.3227e-06	52.985	43.052	-158.466	-40.281	-161.485	-91.681	-8.129	-161.677	-156.911	-139.234	-74.732	-157.321	-153.209	-152.836	-147.728	-46.291	-148.658	-8191	255	
1967.021	1	1	0	0	0.15822	0.18734	0.048221	0.18295	0.13312	0.37201	0.12592	0.22964	0.23684	0.13237	0.13424	0.24017	0.075014	0.37153	0.41674	0.29855	-0.11458	-0.94167	-0.22917	-1.0708	-0.90833	-0.097917	-1.2021	-0.77917	-0.24583	-1.15	-0.5375	-0.69375	-0.8875	-0.020833	-0.95417	-0.91667	-160.328	105.023	34.734	149.100	101.590	-148.936	-130.826	22.997	-16.525	114.644	-133.626	181.857	67.617	-55.140	55.165	144.597	0.0019886	0.00025137	0.00019548	1359.8	5.4664e-06	4.7217e-06	1351.1	365.2	1.3234e-05	6.2941e-06	418.63	140.24	122.08	41.427	8.4376e-06	51.475	0.00058996	0.0005802	0.00016257	1384.7	6.34e-06	6.317e-06	1380.5	373.57	6.322e-06	6.2615e-06	427.98	143.28	124.85	42.837	6.2747e-06	53.089	39.709	-52.687	-54.145	-161.345	-38.980	-50.357	-161.684	-156.962	-137.865	-55.285	-157.409	-153.362	-152.745	-147.812	-78.501	-149.037	-8191	255	
1967.117	1	1	0	0	0.29136	0.070386	0.10768	0.39944	0.17881	0.094615	0.060857	0.12018	0.22183	0.38204	0.13832	0.20427	0.17698	0.066133	0.069502	0.38491	-0.054167	-1.1187	-0.13958	-0.80208	-1.1354	-0.24583	-1.1917	-0.99583	-0.24375	-1.2833	-0.65625	-0.60833	-1.1875	-0.40417	-0.87917	-0.83958	-43.011	-80.133	166.063	-170.400	40.842	69.239	-154.352	-78.572	-26.619	117.312	152.857	-108.064	148.017	-18.305	-76.568	58.387	0.0015207	0.00025259	0.000156	1357.5	5.7454e-06	5.4039e-06	1353.4	366.5	8.5914e-06	3.8147e-06	418.18	139.7	121.7	41.557	4.9401e-06	51.254	0.00058586	0.00057857	0.0001609	1381.9	6.2924e-06	6.3255e-06	1381.9	374.56	6.3205e-06	6.3802e-06	428.78	143.27	124.7	42.886	6.281e-06	53.044	31.312	-87.244	-90.514	-161.354	-21.939	-86.390	-161.739	-157.000	-120.478	55.112	-157.361	-153.517	-152.834	-147.914	-64.690	-148.905	-8191	255	
1967.213	1	1	0	0	0.087723	0.18239	0.21317	0.59883	0.13151	0.14991	0.23904	0.28321	0.31492	0.11782	0.25839	0.29451	0.21527	0.21665	0.35227	0.078005	0.21458	-1.1771	-0.58333	-0.71667	-1.1292	-0.20208	-1.2646	-1.3021	-0.13125	-1.0854	-0.56667	-0.49375	-1.2708	-0.56458	-0.58125	-1.0833	183.456	-126.915	64.411	168.462	-134.980	-142.800	85.295	-171.463	-22.784	-32.019	154.934	-10.854	142.752	-156.971	-62.581	-45.538	0.0017233	0.00054697	4.9566e-05	1363	7.5446e-06	5.8858e-06	1360.2	367.16	1.5077e-05	4.5155e-06	419.15	139.45	120.93	41.431	8.5498e-06	50.91	0.00058911	0.00057267	0.00016015	1385.6	6.2669e-06	6.2853e-06	1383.3	374.38	6.3207e-06	6.3259e-06	428.12	143.06	124.15	42.789	6.3053e-06	52.945	37.739	-89.156	-6.612	-161.350	-61.008	52.202	-161.617	-156.859	-133.028	50.092	-157.393	-153.114	-152.339	-147.770	-142.207	-148.774	-8191	255	
1967.309	1	1	0	0	0.06574	0.081987	0.27515	0.26324	0.10998	0.15579	0.20701	0.18612	0.13482	0.14967	0.063825	0.26004	0.30661	0.18385	0.26947	0.12571	0.31458	-1.1208	-0.63958	-0.44792	-0.94583	-0.48542	-0.86042	-1.0063	-0.0020833	-1.0292	-1	-0.35833	-1.3042	-0.42292	-0.6625	-1.2729	-58.561	62.539	88.535	132.578	17.811	41.013	175.027	-146.611	-47.049	-108.662	-73.096	113.845	153.654	143.061	183.495	121.408	0.0014196	0.00049913	6.9689e-05	1355.6	5.5328e-06	6.4702e-06	1355.6	365.17	4.9446e-06	7.4769e-06	416.34	139.44	121.51	41.374	8.0176e-06	51.234	0.0005911	0.00057435	0.00016124	1382.9	6.3523e-06	6.3587e-06	1381.1	373.54	6.3329e-06	6.3163e-06	427.54	142.94	124.24	42.673	6.2981e-06	52.934	35.260	-107.995	-33.610	-161.132	-44.879	-6.179	-161.604	-156.843	-114.121	-27.609	-157.151	-152.963	-152.453	-147.659	-56.233	-148.653	-8191	255	
1967.430	1	1	0	0	0.14406	0.11092	0.16671	0.15176	0.25835	0.1767	0.43935	0.13717	0.18034	0.31095	0.14865	0.221	0.15684	0.28019	0.029875	0.26283	0.36042	-0.92292	-0.66667	-0.34583	-1.1833	-0.39792	-0.45208	-1.3312	-0.18542	-0.80417	-1.0458	-0.37292	-1.3292	-0.4375	-0.7625	-1.2625	-128.017	30.485	131.978	118.025	-72.329	-80.016	112.502	104.003	-98.962	180.246	115.355	172.455	115.986	-66.138	119.081	114.037	0.001897	0.00033479	0.00018664	1361.2	5.9453e-06	8.0826e-06	1353.3	364.47	1.1797e-05	1.1399e-06	418.23	139.76	121.5	41.469	5.9323e-06	51.175	0.00058934	0.00057742	0.00016069	1382.1	6.3457e-06	6.4105e-06	1379.1	373.47	6.3818e-06	6.3419e-06	427.46	142.82	124.41	42.759	6.3496e-06	53.017	40.564	-130.521	-63.637	-161.084	-7.021	-77.360	-161.432	-156.629	-89.644	-64.756	-157.146	-153.190	-152.504	-147.492	-27.062	-148.204	-8191	255	
1967.526	1	1	0	0	0.23801	0.11328	0.25128	0.33686	0.38395	0.10709	0.17964	0.23097	0.11159	0.040338	0.26759	0.30974	0.18076	0.092553	0.14006	0.20133	0.033333	-0.65417	-1.1104	-0.45625	-1.1292	-0.69583	-0.65833	-1.35	-0.40208	-0.97292	-1.1625	-0.25	-1.4104	-1.0208	-0.55208	-1.0771	-15.689	184.965	-153.861	152.233	157.636	-21.117	-165.216	153.730	20.353	-125.521	-153.059	93.191	184.561	180.859	-31.564	-75.005	0.0017734	0.00027785	0.00020023	1359.7	9.61e-06	1.8645e-06	1352.1	366.23	1.3382e-05	7.6504e-06	415.73	139.79	122.09	41.568	1.8727e-06	51.307	0.00058885	0.00057469	0.00016071	1383.6	6.3459e-06	6.3252e-06	1380.9	374.09	6.2484e-06	6.2734e-06	426.69	143.15	124.53	42.867	6.2755e-06	53.12	42.309	-111.593	-79.780	-160.908	-123.855	-92.144	-161.229	-156.558	-156.661	-30.561	-156.887	-152.883	-152.512	-147.496	60.626	-148.195	-8191	255	
1967.622	1	1	0	0	0.093124	0.074932	0.21907	0.32897	0.11098	0.1935	0.19472	0.30623	0.31829	0.097072	0.40103	0.082045	0.2328	0.068123	0.18089	0.25049	-0.06875	-0.75208	-0.99583	-0.26458	-0.98542	-0.51458	-0.2875	-1.4771	-0.50625	-0.45417	-1.2437	-0.45208	-0.99583	-0.90625	-0.35833	-1.2938	131.620	107.432	-96.809	122.049	74.785	174.541	97.677	151.778	-88.750	-65.715	118.046	164.884	160.716	29.820	-167.210	181.282	0.0016763	0.00086796	7.3394e-05	1356	2.8249e-06	4.2496e-06	1350	365.38	3.5288e-06	3.7886e-06	418.29	139.68	121.61	41.452	8.0911e-06	51.391	0.000586	0.00057315	0.00015941	1381	6.2909e-06	6.2693e-06	1379.4	374.28	6.2595e-06	6.2841e-06	428.15	143.03	124.57	42.776	6.2238e-06	53.067	41.099	-75.790	-60.638	-161.012	-22.401	-46.832	-161.507	-156.572	112.834	-116.869	-157.067	-152.915	-152.358	-147.778	-97.861	-148.579	-8191	255	
1967.694	1	1	0	0	0.14878	0.11712	0.15742	0.29008	0.33236	0.13959	0.18714	0.11477	0.18123	0.22314	0.02376	0.27398	0.14236	0.05566	0.093154	0.21791	0.05	-0.42917	-1.05	-0.35625	-0.80625	-1.0187	-0.35208	-1.35	-0.53958	-0.39792	-1.3854	-0.51458	-0.92917	-1.2896	-0.12708	-1.0021	41.095	-33.509	-94.254	184.433	137.073	134.946	137.389	70.850	-81.024	-139.280	-118.116	154.315	134.667	150.972	-12.435	91.809	0.0013698	0.00088322	0.0001109	1358.1	3.9773e-06	8.0954e-06	1355.8	366.73	9.2033e-06	3.3071e-06	418.37	139.79	121.94	41.58	3.3375e-06	51.527	0.00058567	0.0005698	0.00016096	1382.4	6.2379e-06	6.2947e-06	1379.9	374.26	6.225e-06	6.2788e-06	428.81	143.36	124.82	42.917	6.2851e-06	53.248	31.618	-77.837	-64.487	-161.147	-19.970	-93.389	-161.257	-156.757	-125.474	-12.983	-157.222	-152.985	-152.379	-147.548	164.392	-148.480	-8191	255	
1967.812	1	1	0	0	0.30185	0.095578	0.061909	0.050591	0.24955	0.14875	0.10423	0.26245	0.032992	0.099957	0.41985	0.23459	0.22628	0.19486	0.10142	0.10859	-0.55417	-0.37708	-0.88542	-0.57083	-0.63542	-1.0958	-0.3	-0.98125	-0.58333	-0.125	-1.2396	-0.59375	-0.64375	-1.1625	-0.38333	-1.0562	177.780	85.911	106.821	11.134	51.244	-114.913	103.885	127.291	-74.493	127.193	182.401	117.317	145.304	150.119	-148.220	167.939	0.0018573	0.00017713	0.00021315	1353	8.3572e-07	8.3143e-06	1354.5	367.68	9.9011e-06	3.5693e-06	418.75	140.45	121.65	41.739	8.589e-06	51.474	0.00057902	0.00057078	0.00015956	1382	6.2601e-06	6.2206e-06	1381.4	374.65	6.2433e-06	6.2762e-06	428.65	143.6	124.75	43.024	6.1925e-06	53.215	42.061	53.092	-96.139	-160.976	-60.724	-109.067	-161.560	-156.673	-132.575	-5.174	-157.298	-152.830	-152.457	-147.446	-89.952	-148.427	-8191	255	
1967.909	1	1	0	0	0.16664	0.20849	0.071945	0.30775	0.036207	0.29333	0.24459	0.26685	0.13469	0.1897	0.33369	0.22396	0.13509	0.19039	0.052632	0.1821	-0.49375	-0.19583	-1.0438	-0.55833	-0.59375	-1.3312	-0.44375	-0.99375	-0.95	-0.35625	-1.1625	-0.60625	-0.64583	-1.2	-0.30417	-0.99583	157.412	-164.579	136.809	159.946	142.478	134.075	158.278	163.882	-66.369	-93.231	-172.276	153.828	-46.011	-169.166	-144.604	47.374	0.0015272	0.00052583	9.0913e-05	1357.4	5.573e-06	8.4459e-06	1359.6	367.56	1.5413e-05	6.4035e-06	417.25	140.52	121.92	41.409	1.293e-06	51.888	0.00057825	0.00056791	0.00015862	1381.5	6.2443e-06	6.2086e-06	1382.3	375.39	6.2081e-06	6.2487e-06	428.04	143.7	125.06	42.837	6.211e-06	53.352	34.647	-117.064	-64.242	-161.189	43.081	-19.542	-161.440	-156.659	-71.818	1.772	-157.222	-153.101	-152.150	-147.590	146.110	-148.645	-8191	255	
1968.007	1	1	0	0	0.11895	0.23379	0.20319	0.21145	0.15996	0.18338	0.46628	0.1657	0.033708	0.20552	0.074259	0.53219	0.14352	0.19814	0.085453	0.16159	-0.4125	-0.29583	-1.1875	-0.91042	-0.38542	-1.1979	-0.6125	-1.2021	-0.9625	-0.23333	-1.3729	-0.69792	-0.42917	-1.4833	-0.24792	-0.75417	2.321	-156.452	15.838	135.349	52.475	15.099	108.979	113.744	36.752	74.737	-149.587	120.433	183.144	160.729	-30.695	151.780	0.0016634	0.00014856	9.4338e-05	1358.7	3.1255e-06	8.5538e-06	1351.6	367.94	1.1482e-05	3.5482e-06	417.71	140.43	122.49	41.554	8.5429e-06	51.283	0.00057297	0.00056961	0.00015682	1383.3	6.1569e-06	6.2019e-06	1378.6	375.44	6.2001e-06	6.2563e-06	428.3	143.45	125.07	42.937	6.229e-06	53.245	43.427	176.039	-70.805	-161.281	-48.468	-48.706	-161.522	-156.364	-141.633	-97.586	-156.947	-153.085	-152.740	-147.432	-50.877	-148.337	-8191	255	
1968.125	1	1	0	0	0.29162	0.21588	0.017836	0.076491	0.10332	0.21214	0.20503	0.39641	0.22783	0.15741	0.15955	0.31213	0.22558	0.37419	0.14016	0.092939	-0.69792	-0.2625	-1.0167	-0.98542	-0.375	-0.99583	-0.76458	-0.78958	-1.275	-0.12292	-1.1125	-0.94167	-0.2	-1.2271	-0.65	-0.48958	181.690	-32.775	22.908	79.242	-52.831	100.800	107.515	95.665	-72.105	-47.338	162.789	115.524	-123.444	171.129	-35.317	76.131	0.0017098	0.00048526	4.6802e-05	1358.4	3.1787e-06	3.4339e-06	1352.3	367.37	8.6906e-06	7.0076e-06	417.34	140.65	121.91	41.74	9.2167e-06	51.451	0.00058038	0.00056414	0.00015667	1382.1	6.2373e-06	6.2107e-06	1381.2	375.36	6.2292e-06	6.2215e-06	427.99	143.82	125.04	43.017	6.2316e-06	53.226	38.391	-123.920	93.548	-161.196	-82.622	-16.276	-161.615	-156.542	-166.405	15.801	-157.200	-153.050	-152.214	-147.558	-108.216	-148.526	-8191	255	
1968.222	1	1	0	0	0.16478	0.32372	0.28181	0.17647	0.1367	0.17462	0.081495	0.3019	0.1251	0.050579	0.26733	0.11346	0.19314	0.086915	0.067461	0.11309	-0.83958	-0.039583	-0.95625	-1.0729	0.00625	-1.1	-0.79167	-0.36458	-1.2958	-0.45833	-1.0292	-1.0729	-0.53125	-1.2188	-0.5625	-0.53125	-90.788	-151.754	140.464	160.748	80.929	65.706	47.047	154.928	-92.075	-11.344	-83.884	117.153	179.329	181.213	174.271	-61.824	0.0015087	0.00036266	0.00019329	1356.3	4.4027e-06	4.2724e-06	1354.6	366.43	1.0145e-05	9.3057e-06	419.93	139.73	122	41.535	1.0367e-05	51.367	0.00057284	0.00057201	0.0001568	1382.7	6.2201e-06	6.2014e-06	1381	374.65	6.2675e-06	6.2724e-06	428.88	143.12	124.85	42.863	6.2136e-06	53.157	34.128	-84.995	-91.674	-161.186	94.302	-120.256	-161.470	-156.174	-173.257	-3.310	-157.027	-152.935	-152.288	-147.524	-38.295	-148.339	-8191	255	
1968.293	1	1	0	0	0.40042	0.35805	0.15313	0.30533	0.16705	0.11465	0.31193	0.1428	0.22056	0.14314	0.16397	0.084599	0.16395	0.11685	0.15189	0.19288	-0.94167	-0.15417	-0.71458	-1.1479	-0.28125	-0.95833	-0.77708	-0.3125	-1.0667	-0.53542	-0.67917	-1.15	-0.55417	-1.0438	-0.80208	-0.31667	7.734	12.304	-26.325	164.401	-94.526	-118.799	-162.025	62.738	-119.562	46.864	182.661	60.548	34.955	-81.232	69.212	102.531	0.0017962	0.00024158	8.5227e-05	1361.1	4.1252e-06	9.0316e-06	1355.9	366.59	1.0563e-05	2.1895e-06	417.91	139.95	122.03	41.503	9.5057e-06	51.167	0.00057767	0.00057134	0.00015793	1384	6.2177e-06	6.2216e-06	1379.9	374.74	6.2206e-06	6.209e-06	427.88	143.38	124.79	42.953	6.2216e-06	53.063	30.649	-60.247	-101.059	-160.955	-40.743	-59.639	-161.249	-156.401	-81.044	-55.346	-156.992	-152.907	-152.355	-147.248	-105.239	-148.259	-8191	255	
1968.414	1	1	0	0	0.12794	0.16489	0.25896	0.28111	0.27294	0.24414	0.34833	0.020797	0.15953	0.10275	0.12551	0.1654	0.23918	0.159	0.10033	0.019761	-0.93333	-0.45417	-0.43958	-1.3292	-0.41875	-0.90417	-0.99167	-0.37917	-1.0938	-0.63958	-0.53542	-1.2833	-0.30208	-1.0646	-1.0667	-0.08125	-55.300	27.225	-138.794	92.323	-125.879	124.749	173.537	-148.544	-170.000	139.401	179.742	-70.169	-145.933	-159.802	-162.448	-158.459	0.0015488	0.00047202	0.00017312	1360.4	6.3889e-06	1.8819e-06	1356.9	367.88	6.1348e-06	4.6523e-06	419.75	140.34	122.72	41.732	3.9858e-06	51.302	0.00057355	0.00057048	0.0001577	1384.2	6.1996e-06	6.1931e-06	1380.9	375.08	6.1271e-06	6.1986e-06	428.54	143.36	125.06	42.961	6.1495e-06	53.128	34.136	-68.595	-14.419	-160.884	-37.345	27.622	-161.410	-156.397	-121.117	-63.374	-157.146	-152.970	-152.350	-147.007	-48.715	-148.243	-8191	255	
1968.510	1	1	0	0	0.14753	0.11424	0.083153	0.19145	0.15189	0.2469	0.23618	0.22947	0.185	0.22747	0.18731	0.1855	0.13213	0.079055	0.1217	0.22735	-0.73958	-0.6125	-0.35625	-1.2	-0.35833	-0.78125	-1	-0.15625	-1.0583	-0.63125	-0.27917	-1.4188	-0.38542	-0.73125	-1.0021	-0.21667	-114.293	5.803	141.024	146.699	-69.426	3.357	131.942	-173.799	-18.368	-32.091	94.634	144.841	112.053	-117.526	178.335	94.288	0.0015975	0.00020202	0.00012413	1359.8	8.4248e-06	1.4368e-06	1354.1	367.92	1.0047e-05	6.2088e-06	417.7	141.06	122.13	41.826	3.8945e-06	51.679	0.00056774	0.00056162	0.00015678	1383.1	6.1705e-06	6.2126e-06	1381.1	375.12	6.1504e-06	6.0943e-06	428.04	143.73	124.91	43.122	6.0908e-06	53.339	33.466	-47.112	-122.016	-160.985	-50.778	-95.549	-161.220	-156.215	-161.355	18.146	-156.991	-152.677	-152.430	-147.105	-43.965	-148.643	-8191	255	
1968.606	1	1	0	0	0.11047	0.076461	0.1639	0.16493	0.40456	0.16082	0.19864	0.44769	0.21886	0.079086	0.0076436	0.1398	0.26243	0.21298	0.098689	0.34272	-0.58333	-0.62708	-0.17708	-1.4271	-0.43125	-0.68125	-1.5208	-0.2375	-0.96667	-0.77708	-0.53542	-1.3438	-0.28333	-0.53542	-1.2667	-0.25625	32.905	-134.074	182.046	148.787	166.738	-44.768	74.167	155.821	-75.240	1.556	98.331	-137.378	164.033	-130.610	73.215	106.596	0.001418	0.00027707	2.5075e-05	1363.5	7.209e-06	3.7844e-06	1356.1	367.96	3.0048e-06	5.1062e-06	419.73	140.4	122.7	41.93	8.951e-06	51.634	0.00056304	0.00055504	0.00015529	1385.4	6.0274e-06	6.1032e-06	1381.7	375.35	6.0471e-06	6.0596e-06	428.85	143.69	125.28	43.15	6.068e-06	53.337	27.438	173.421	65.521	-161.106	-69.037	-32.663	-161.226	-156.559	-16.781	-126.280	-157.095	-152.667	-152.032	-147.495	-74.415	-148.324	-8191	255	
1968.727	1	1	0	0	0.19556	0.29936	0.26231	0.11792	0.044191	0.29912	0.11345	0.32767	0.2473	0.26917	0.25015	0.24417	0.12298	0.17263	0.12153	0.18134	-0.52917	-1.0229	-0.19583	-1.4167	-0.45625	-0.65208	-1.4937	-0.14792	-1.0979	-0.95625	-0.35625	-1.0187	-0.52708	-0.55833	-1.2938	-0.52292	-13.077	47.837	141.414	169.382	-172.969	109.418	75.610	101.761	-59.397	51.969	120.082	-143.587	80.875	104.490	115.552	167.687	0.0016961	0.00063705	0.00012787	1359.6	6.5301e-06	5.8422e-06	1354.3	366.86	5.3949e-06	5.905e-06	421.02	140.08	122.18	41.528	5.2845e-06	51.311	0.00057139	0.00055468	0.00015655	1382.5	6.1241e-06	6.1675e-06	1381.2	374.8	6.0987e-06	6.1656e-06	429.01	143.33	124.56	42.878	6.1558e-06	53.036	29.713	-115.415	-104.726	-161.000	-26.325	-34.742	-161.088	-156.397	-98.051	9.030	-156.924	-152.824	-152.277	-147.383	-30.741	-148.582	-8191	255	
1968.823	1	1	0	0	0.25938	0.40575	0.077007	0.31448	0.12685	0.17761	0.23839	0.23821	0.18381	0.18987	0.12903	0.029719	0.25045	0.038471	0.32601	0.27769	-0.48958	-1.1	-0.2125	-1.1646	-0.65208	-0.34583	-1.5229	-0.54792	-0.59167	-1.125	-0.37708	-0.92708	-0.8375	-0.41875	-1.1646	-0.39375	128.724	-1.316	-173.426	-156.607	-79.133	81.691	61.699	150.115	-28.674	-29.795	163.838	176.812	-130.377	60.839	-131.784	65.281	0.0017445	0.00018578	0.00015079	1358.9	4.8277e-06	3.9146e-06	1357.1	365.56	5.5643e-06	2.9507e-06	416.13	139.75	121.68	41.6	1.1607e-05	51.769	0.00057539	0.00056764	0.0001584	1380.8	6.2255e-06	6.2063e-06	1382.1	373.61	6.2752e-06	6.2359e-06	427.23	143.3	124.41	42.91	6.2752e-06	53.203	38.226	-130.263	-38.429	-160.984	-92.299	-21.045	-161.385	-156.847	173.211	125.159	-157.055	-152.873	-152.529	-147.338	-57.821	-148.708	-8191	255	
1968.917	1	1	0	0	0.33525	0.097546	0.54091	0.21837	0.23322	0.099673	0.34197	0.39777	0.16972	0.097327	0.28533	0.21234	0.24034	0.25721	0.19306	0.12117	-0.25208	-0.99167	-0.21042	-1.0417	-0.775	-0.37083	-1.2125	-0.54375	-0.48333	-1.2521	-0.18958	-1.2062	-0.93333	-0.24583	-1.2437	-0.6	36.296	166.558	-30.049	137.071	-3.843	156.329	135.490	102.790	159.088	-89.514	-80.991	118.982	126.304	96.030	40.934	-122.969	0.0017254	0.00048198	0.00011871	1358.9	7.0567e-06	4.1668e-06	1362.4	365.11	5.8048e-06	7.1476e-06	419.07	140.02	121.55	41.489	2.8748e-06	51.331	0.00057619	0.00056942	0.0001589	1384.2	6.2311e-06	6.1975e-06	1383.8	374.09	6.2717e-06	6.2412e-06	428.45	143.25	124.61	42.898	6.1787e-06	53.059	35.761	-152.175	-150.813	-161.176	41.902	-58.318	-161.520	-156.914	-126.345	1.625	-157.387	-153.014	-152.442	-147.459	38.494	-148.830	-8191	255	
1968.989	1	1	0	0	0.16585	0.11563	0.27358	0.088785	0.19955	0.40812	0.327	0.22052	0.099557	0.046206	0.43116	0.063368	0.068704	0.37617	0.092338	0.062032	-0.052083	-1.0292	-0.30625	-0.83958	-0.82292	-0.35833	-1.1917	-0.77917	-0.47083	-1.3146	-0.16667	-1.0583	-0.86042	-0.14375	-1.3042	-0.7875	125.003	-110.547	129.037	-149.867	43.608	122.873	153.770	116.353	0.955	-85.921	105.725	127.791	-167.285	-150.269	-63.102	87.454	0.0018501	0.00038559	0.00010824	1360	1.5038e-05	5.7436e-06	1357.1	365.75	8.5702e-06	2.3804e-06	417.6	139.14	122.54	41.569	1.4039e-05	51.411	0.00058358	0.00056313	0.00015701	1384.8	6.232e-06	6.2255e-06	1382.4	374.27	6.2207e-06	6.2067e-06	427.48	143.22	124.77	42.827	6.1704e-06	53.154	43.115	-133.770	-78.921	-161.260	-42.126	-21.076	-161.644	-156.981	-63.907	37.673	-157.400	-152.937	-152.966	-147.570	-67.010	-148.798	-8191	255	
1969.110	1	1	0	0	0.036277	0.068509	0.058171	0.29997	0.24458	0.33455	0.41872	0.18949	0.24861	0.12723	0.16501	0.088764	0.22227	0.13088	0.13203	0.17755	0.30625	-1.0375	-0.39583	-0.83542	-1.0542	-0.05625	-1.3792	-0.93125	-0.26458	-1.1313	-0.66458	-0.7	-1.1354	-0.45	-1.1333	-0.86875	22.652	-110.477	-92.792	183.540	166.258	73.408	134.596	117.377	95.716	-123.790	86.408	112.547	-172.282	147.218	-55.290	110.742	0.0017723	0.00032902	5.4723e-05	1358.2	3.1362e-06	5.6674e-06	1359.5	367.08	3.4924e-06	2.5886e-06	418.15	140.49	122.28	41.503	9.6617e-07	51.559	0.00057315	0.00056202	0.00015794	1382.3	6.1393e-06	6.1744e-06	1381	375.11	6.1543e-06	6.1559e-06	427.52	143.56	124.83	42.952	6.1557e-06	53.2	32.320	-109.348	149.557	-161.386	-46.819	-133.601	-161.553	-156.720	-77.907	-27.171	-157.427	-153.212	-152.492	-147.965	-119.167	-148.489	-8191	255	
1969.206	1	1	0	0	0.18698	0.23461	0.23506	0.36105	0.040235	0.28575	0.33885	0.40699	0.28853	0.17748	0.15996	0.25389	0.28806	0.16392	0.10598	0.13556	0.014583	-1.3229	-0.20208	-0.46667	-1.2229	-0.27917	-0.82917	-0.96458	-0.30208	-1.2229	-0.5625	-0.69167	-1.2812	-0.27083	-0.83125	-1.0646	-92.612	108.781	78.186	129.002	63.069	6.396	132.610	126.979	40.350	-11.401	112.835	-114.531	174.699	107.021	-153.811	155.991	0.0016811	0.00059627	0.0001744	1363.7	4.6588e-06	3.7803e-06	1354.6	366.33	8.9083e-06	4.066e-06	418.49	140.29	122.65	41.564	1.1332e-05	50.983	0.00057669	0.00056157	0.00015727	1384.1	6.2086e-06	6.1599e-06	1381.6	374.69	6.2066e-06	6.2119e-06	427.62	143.52	125.07	42.934	6.2079e-06	53.104	40.068	-138.211	-45.889	-161.413	-82.445	-164.047	-161.558	-156.777	-146.614	-4.533	-157.500	-153.186	-152.828	-148.005	-58.204	-148.738	-8191	255	
1969.302	1	1	0	0	0.12313	0.26904	0.24567	0.31634	0.095878	0.16546	0.48713	0.26075	0.13017	0.062726	0.17901	0.33802	0.16011	0.1164	0.20383	0.32431	0.34167	-1.2687	-0.51667	-0.49792	-1.2729	-0.42083	-0.78333	-1.1417	-0.125	-1.1208	-0.925	-0.4	-1.225	-0.53542	-0.66042	-1.2313	-68.906	102.874	10.507	-163.081	116.466	-87.683	146.978	106.083	17.478	-23.618	151.001	123.960	-171.732	124.732	-5.412	124.376	0.0015776	0.00086987	0.0001509	1359.8	9.0552e-06	3.7044e-06	1359.3	365.42	9.6545e-06	5.5766e-06	418.42	140.31	123.12	41.633	3.6088e-06	51.357	0.00058328	0.00056711	0.00015766	1383.6	6.226e-06	6.1855e-06	1382.7	374.65	6.1998e-06	6.228e-06	428.38	143.59	125.11	42.922	6.1844e-06	53.123	36.525	-88.049	-150.634	-161.243	-35.830	-136.423	-161.748	-156.722	-133.773	-26.570	-157.227	-153.077	-152.495	-147.794	-120.559	-148.513	-8191	255	
1969.398	1	1	0	0	0.050157	0.16538	0.14429	0.15075	0.21611	0.10848	0.55198	0.057414	0.16444	0.38792	0.18826	0.13844	0.18419	0.1128	0.10811	0.21536	0.1125	-1.0521	-0.59792	-0.23542	-1.1604	-0.44583	-0.67083	-1.3417	-0.38958	-1.0229	-0.975	-0.27083	-1.1812	-0.51667	-0.25625	-1.1437	-109.730	49.176	-131.271	61.002	-161.644	-21.742	141.338	-171.247	-135.509	157.710	174.697	127.782	-164.296	-164.202	-142.803	164.499	0.0018377	0.00018201	0.00022516	1358.9	8.751e-06	3.6034e-06	1355.2	367.39	1.3118e-05	3.6428e-06	418.71	139.89	122.03	41.511	1.1592e-05	51.187	0.00057956	0.00056894	0.00015864	1384.1	6.2144e-06	6.1918e-06	1382.5	374.64	6.2279e-06	6.1824e-06	428.2	143.25	124.85	42.863	6.2921e-06	53.043	36.147	-75.421	-82.973	-161.238	-79.634	-10.331	-161.604	-156.820	-130.896	-62.527	-157.244	-153.041	-152.599	-147.695	-50.730	-148.715	-8191	255	
1969.519	1	1	0	0	0.04859	0.36413	0.50026	0.26275	0.12993	0.087964	0.24185	0.12221	0.068011	0.23515	0.17976	0.16838	0.21895	0.37144	0.050681	0.23222	0.16042	-0.70417	-0.85833	-0.4125	-1.0042	-0.48958	-0.65417	-1.3521	-0.26458	-0.73333	-0.96458	-0.19792	-1.1	-0.65208	-0.37083	-1.4708	104.475	153.036	-123.511	-109.847	101.946	-60.402	110.346	170.123	-159.938	182.636	176.503	28.323	-174.545	-98.702	-119.411	153.658	0.001638	6.5681e-05	0.00016071	1362.1	4.1295e-06	3.2456e-06	1355.8	367.26	7.0071e-06	2.9643e-06	417.95	140.66	122.44	41.574	1.1438e-05	51.268	0.00058278	0.00056584	0.00015762	1383.4	6.2329e-06	6.2001e-06	1382.6	374.93	6.2247e-06	6.1817e-06	428.2	143.51	124.82	42.923	6.1728e-06	53.29	32.977	-93.768	-87.684	-161.138	-93.417	-93.087	-161.647	-156.793	-164.011	-3.228	-157.318	-153.235	-152.645	-147.814	-66.507	-148.374	-8191	255	
1969.590	1	1	0	0	0.23533	0.23811	0.23578	0.15258	0.098459	0.19042	0.14806	0.13016	0.27208	0.29123	0.09905	0.42575	0.15229	0.13242	0.1157	0.15877	0.1625	-0.64792	-1.0875	-0.18542	-1.1521	-0.69583	-0.33542	-1.4542	-0.41042	-0.57292	-1.1542	-0.20417	-0.94792	-0.89583	0.029167	-1.4583	-154.555	-166.883	26.910	123.924	-83.686	178.670	111.285	66.354	89.884	-52.431	-159.954	166.487	146.752	69.879	36.381	166.743	0.0016258	0.00019162	3.2262e-05	1361.8	7.9806e-06	2.5112e-06	1360	368.31	1.0522e-05	1.0808e-06	418.14	140.52	122.64	41.663	7.9393e-06	51.436	0.00057769	0.0005666	0.00015943	1384	6.1453e-06	6.2219e-06	1383.3	374.89	6.1764e-06	6.1906e-06	428.33	143.7	125.15	42.962	6.246e-06	53.209	42.290	-119.729	60.312	-161.288	-58.597	-19.222	-161.626	-156.725	-80.862	63.613	-157.398	-153.263	-152.449	-147.627	-36.095	-148.575	-8191	255	
1969.687	1	1	0	0	0.056247	0.38587	0.47864	0.12293	0.2824	0.05358	0.1727	0.4772	0.083498	0.074719	0.2892	0.17546	0.1512	0.28577	0.16021	0.16403	0.016667	-0.39375	-1.1208	-0.23542	-0.89375	-0.88125	-0.29375	-1.1958	-0.3375	-0.43958	-1.4562	-0.29375	-0.70417	-0.775	-0.32292	-1.1146	-27.161	-97.059	-152.816	170.656	-55.848	43.378	127.915	149.583	-82.693	-125.951	52.464	108.243	-135.577	126.751	57.546	56.607	0.0017801	0.00029915	0.00016783	1359	2.9855e-06	8.2239e-06	1352.2	366.76	6.2647e-06	5.7087e-06	418.13	139.87	122.6	41.655	3.1172e-06	51.192	0.00057678	0.00056516	0.00015686	1383.3	6.1848e-06	6.2045e-06	1380.8	374.58	6.1497e-06	6.2044e-06	428.35	143.32	125.05	42.925	6.1632e-06	53.117	42.890	-135.590	-67.298	-161.510	-75.742	-5.539	-161.453	-156.666	-145.090	-27.888	-157.229	-152.863	-152.504	-147.422	60.303	-148.460	-8191	255	
1969.807	1	1	0	0	0.14446	0.17047	0.25522	0.073798	0.084029	0.18671	0.44272	0.14701	0.060905	0.077574	0.024185	0.4327	0.16599	0.27422	0.1234	0.097419	-0.058333	-0.54375	-1.3667	-0.51458	-0.78958	-1.1396	-0.34792	-1.1063	-0.70208	-0.70208	-1.4271	-0.3	-0.81875	-1.1854	-0.30833	-0.90833	-93.920	2.437	-114.534	100.017	157.554	-16.933	131.292	-143.525	77.346	55.214	-159.486	173.470	180.765	143.330	-121.098	105.510	0.0015051	0.00073466	0.00017766	1356.8	3.1051e-06	2.2089e-06	1351.7	367.7	1.1722e-05	4.233e-06	418.6	140.54	122.36	41.669	6.3971e-06	51.222	0.00057306	0.00056156	0.00015544	1381	6.1238e-06	6.1639e-06	1380.1	375.48	6.1435e-06	6.1773e-06	427.39	143.6	124.96	42.925	6.1419e-06	53.07	41.021	-107.750	-105.101	-161.190	-100.743	-122.677	-161.251	-156.582	-122.362	28.769	-157.516	-153.407	-152.456	-147.731	-83.587	-148.422	-8191	255	
1969.902	1	1	0	0	0.27663	0.21921	0.10602	0.085531	0.071505	0.058714	0.088417	0.19299	0.13795	0.37697	0.11045	0.37823	0.29088	0.12352	0.15482	0.12052	-0.42292	-0.25	-1.0312	-0.60417	-0.62708	-1.3625	-0.48125	-1.0875	-0.5375	-0.41458	-1.2667	-0.5	-0.5	-1.1	-0.20208	-0.98125	156.826	-16.648	-116.764	57.746	-15.321	149.961	125.658	125.926	135.558	-151.626	-159.896	-169.666	124.318	179.538	129.239	171.966	0.0015386	0.00033492	0.00013589	1361.5	4.8326e-06	1.5464e-06	1357.2	366.53	1.0151e-05	3.263e-06	418.49	140.22	122.8	41.836	6.5914e-06	51.569	0.000572	0.00055679	0.00015701	1384.9	6.1477e-06	6.1339e-06	1381.3	374.54	6.1282e-06	6.2111e-06	428.51	143.41	125.15	43.057	6.1863e-06	53.319	49.433	-44.481	-60.396	-161.106	-95.527	117.790	-161.344	-156.704	-109.067	-39.445	-157.119	-152.997	-152.452	-147.709	-25.707	-148.393	-8191	255	
1969.998	1	1	0	0	0.050249	0.25299	0.056015	0.33601	0.18082	0.15701	0.059975	0.29638	0.11972	0.37867	0.19047	0.1701	0.12598	0.33998	0.034403	0.14351	-0.33125	-0.20833	-1.0292	-0.51458	-0.32083	-1.2083	-0.54583	-0.98958	-0.67708	-0.35	-1.2104	-0.43333	-0.375	-1.1354	-0.19583	-0.81458	19.161	137.965	129.968	96.869	-78.150	185.143	125.472	-122.305	-82.900	-99.484	169.641	-147.057	141.048	-168.452	-152.443	42.775	0.0015352	0.00014772	6.4931e-05	1363.4	2.4431e-06	1.4986e-06	1356.9	367.42	1.6795e-05	3.8059e-06	419.45	140.6	122.23	41.716	1.0138e-05	51.634	0.00057075	0.00056611	0.00015593	1383.9	6.256e-06	6.1174e-06	1381.3	375.24	6.1656e-06	6.1855e-06	428.59	143.6	124.81	42.976	6.1174e-06	53.283	41.164	-120.693	-114.546	-161.246	1.593	56.453	-161.563	-156.475	-95.407	-20.224	-157.131	-153.073	-152.437	-147.421	-41.660	-148.665	-8191	255	
1970.094	1	1	0	0	0.12915	0.2619	0.14709	0.23787	0.20569	0.056406	0.36957	0.15216	0.26701	0.12272	0.11448	0.20651	0.26681	0.070842	0.15387	0.36887	-0.71458	-0.31042	-0.94792	-1.0292	-0.32708	-1.1375	-0.59792	-0.71667	-1.1917	-0.16042	-1.2354	-0.73333	-0.35208	-1.4646	-0.29167	-0.70417	-21.623	110.683	-55.880	-173.063	148.240	-2.237	89.390	-161.151	95.467	163.377	-5.104	156.776	136.253	82.124	139.001	109.364	0.0020403	0.00010882	7.6943e-05	1358.5	5.142e-06	2.2035e-06	1357	367.69	9.3056e-06	9.1294e-06	418.3	140.21	122.7	41.838	9.6563e-06	51.458	0.00057463	0.00056114	0.00015487	1382	6.1371e-06	6.1454e-06	1380.1	375.07	6.0878e-06	6.1357e-06	428.46	143.37	125.2	43.057	6.1095e-06	53.216	37.961	-131.853	-78.935	-161.198	-36.239	-82.811	-161.382	-156.393	157.449	-42.413	-157.322	-153.214	-152.359	-147.631	-109.505	-148.217	-8191	255	
1970.190	1	1	0	0	0.2894	0.23503	0.3949	0.13706	0.17374	0.1082	0.25279	0.31029	0.16002	0.13227	0.1769	0.24856	0.32847	0.15781	0.37115	0.092754	-0.84375	-0.04375	-0.96458	-1.0312	-0.2375	-1.0958	-0.80625	-0.65208	-1.1771	-0.25833	-0.975	-1.0667	-0.225	-1.1146	-0.61667	-0.51667	-138.919	55.767	-172.502	154.952	-114.744	1.656	112.402	174.826	117.996	-132.916	184.541	147.243	162.564	131.354	98.827	69.580	0.0015693	0.00060627	0.00012025	1360.1	6.1416e-06	7.1913e-06	1360.5	367.63	5.5405e-06	6.139e-06	419.69	140.22	122.93	41.965	1.2344e-05	51.461	0.00056752	0.0005554	0.00015481	1381.6	6.0768e-06	6.0875e-06	1382.3	375.43	6.0677e-06	6.0687e-06	428.8	143.28	125.22	43.078	6.0627e-06	53.308	29.089	-151.769	-23.191	-161.403	-100.331	33.174	-161.184	-156.204	-144.709	-94.930	-157.118	-153.263	-152.576	-147.563	-10.694	-148.600	-8191	255	
1970.286	1	1	0	0	0.24626	0.20497	0.22704	0.28211	0.21839	0.097053	0.11906	0.17557	0.0017933	0.27219	0.28325	0.017422	0.21687	0.15177	0.13963	0.018853	-0.625	-0.30417	-0.90625	-1.1604	-0.058333	-1.325	-0.77708	-0.39792	-0.99583	-0.39583	-0.975	-0.95833	-0.38333	-1.0583	-0.76875	-0.3625	167.390	152.472	-124.806	110.391	83.729	122.279	152.808	154.870	180.000	-47.913	65.848	50.538	118.529	156.057	129.903	-105.805	0.0014115	0.00046483	0.00019006	1357.8	9.6712e-06	8.3468e-06	1353.5	368.2	1.087e-05	5.6344e-06	419.62	140.7	122.73	42	9.4808e-06	51.485	0.00056789	0.00055577	0.00015436	1383	6.0395e-06	6.0764e-06	1380.3	375.36	6.0036e-06	6.1042e-06	428.76	143.62	125.1	43.138	6.0634e-06	53.246	45.935	-169.167	-65.229	-161.049	-25.716	-31.547	-161.297	-156.491	-99.668	12.799	-157.180	-152.986	-152.329	-147.679	-98.036	-148.581	-8191	255	
1970.407	1	1	0	0	0.10722	0.19878	0.19889	0.25099	0.20741	0.25362	0.16468	0.21783	0.15449	0.10066	0.26745	0.15351	0.08764	0.18964	0.022655	0.076839	-0.59583	-0.44792	-0.775	-1.0875	-0.17708	-1.1875	-0.99167	-0.36458	-1.125	-0.63333	-0.56667	-1.0958	-0.27917	-1.0875	-0.79167	-0.28333	-93.361	-106.966	-66.884	129.385	-63.998	-41.881	92.506	-174.059	37.240	-63.374	171.813	-159.655	168.965	-48.131	49.716	57.692	0.0019071	0.00044186	0.0001404	1365.4	1.1788e-05	5.8458e-06	1356.1	366.78	1.7734e-06	4.7886e-06	421.09	140.67	121.9	41.7	1.6326e-05	51.555	0.00056774	0.00055541	0.00015482	1384.1	6.0451e-06	6.1023e-06	1382.3	374.91	6.0637e-06	6.1163e-06	429.42	144.02	124.92	43.11	6.0809e-06	53.23	30.347	179.330	-49.868	-161.311	-67.818	-84.302	-161.530	-156.591	-109.861	16.754	-157.143	-153.025	-152.476	-147.531	-103.673	-148.592	-8191	255	
1970.503	1	1	0	0	0.03108	0.068588	0.27353	0.22493	0.14324	0.14353	0.081819	0.20536	0.17605	0.19724	0.18987	0.11388	0.12919	0.14553	0.31721	0.10781	-1.0312	-0.66667	-0.53125	-1.4333	-0.33333	-0.78125	-0.95833	-0.55	-1.0771	-0.67917	-0.39375	-1.275	-0.47292	-0.99167	-0.78958	-0.28958	104.746	104.494	-55.231	131.793	102.474	-51.525	58.576	132.786	-146.374	-148.029	98.618	-66.349	-17.214	65.526	-31.667	-171.593	0.0016453	0.00022944	0.00017568	1361	3.1609e-06	3.5668e-06	1354.1	367.84	1.2888e-05	8.4868e-06	418.85	140.9	122.81	41.686	9.1821e-06	51.48	0.00056488	0.00055505	0.00015467	1384.5	6.1018e-06	6.0778e-06	1382.1	375.95	6.0898e-06	6.0659e-06	428.44	143.85	125.27	43.061	6.1328e-06	53.372	36.187	-152.506	-132.130	-161.024	-130.733	-29.151	-161.494	-156.378	-134.043	-37.508	-157.006	-153.080	-152.264	-147.374	-105.330	-148.589	-8191	255	
1970.599	1	1	0	0	0.19254	0.074843	0.26632	0.34295	0.14527	0.077944	0.19194	0.14866	0.28582	0.36914	0.1008	0.16971	0.081498	0.047189	0.20042	0.12295	-0.71875	-0.56875	-0.28542	-1.5646	-0.30417	-0.625	-1.0292	-0.425	-1.1583	-0.75	-0.40625	-1.15	-0.69375	-0.63125	-1.1167	-0.28333	-45.394	-29.838	-17.479	132.057	-39.140	-88.935	-173.906	155.382	-13.709	-68.433	167.682	65.436	183.375	-146.202	-36.061	162.413	0.0020393	0.00063908	0.00012301	1356.2	5.061e-06	4.8943e-06	1363.5	367.03	3.1533e-06	5.4444e-06	421.76	140.66	122.39	41.759	4.4765e-06	51.367	0.00056967	0.00055822	0.00015425	1382	6.1239e-06	6.0966e-06	1383.9	375.04	6.0782e-06	6.1232e-06	429.35	143.72	125.32	43.069	6.1211e-06	53.292	37.354	-110.842	-17.206	-160.950	-93.002	-26.895	-161.139	-156.387	92.523	-16.846	-156.964	-152.960	-152.407	-147.339	-75.193	-148.462	-8191	255	
1970.695	1	1	0	0	0.095872	0.1556	0.112	0.10894	0.098706	0.39911	0.21555	0.24546	0.27941	0.15886	0.17553	0.19883	0.28034	0.22347	0.11875	0.48688	-0.58958	-0.81875	-0.17292	-1.2708	-0.39583	-0.55208	-1.3229	-0.48125	-1.0708	-0.96875	-0.46667	-1.1417	-0.57292	-0.46458	-1.1479	-0.59792	135.168	154.350	-79.882	-102.530	140.179	-11.013	136.306	172.411	-147.487	173.271	172.920	138.087	-146.748	-144.688	-18.223	-172.380	0.0018077	0.00014572	0.00021143	1361.3	4.02e-06	5.3998e-06	1358.3	367.79	8.5558e-06	1.3634e-06	417.12	140.1	122.89	41.938	1.2748e-05	51.561	0.00056912	0.00055938	0.00015594	1384.7	6.1362e-06	6.0704e-06	1382.8	375.25	6.1444e-06	6.135e-06	428.46	143.74	125.3	43.144	6.1024e-06	53.37	31.331	-57.242	-101.407	-160.961	-58.423	9.942	-161.381	-156.517	-148.148	-52.385	-157.056	-152.756	-152.288	-147.420	-61.226	-148.568	-8191	255	
1970.814	1	1	0	0	0.053667	0.31344	0.095477	0.12297	0.11869	0.22596	0.32671	0.19571	0.088317	0.27417	0.14408	0.22825	0.079346	0.19276	0.19542	0.21324	-0.47083	-0.70417	-0.275	-1.1875	-0.64583	-0.53958	-1.4479	-0.39792	-0.77083	-1.0479	-0.1875	-1.1479	-0.79583	-0.40625	-1.1771	-0.66667	30.853	54.864	-104.517	111.480	66.521	36.408	167.155	101.465	-61.781	61.789	96.510	122.582	43.979	-11.964	-60.726	99.635	0.0016446	0.0001373	0.00017475	1361.9	5.0895e-06	9.1586e-06	1358.1	366.96	3.7295e-06	4.3999e-06	420.07	140.48	122.64	42.037	7.0151e-06	51.88	0.00056479	0.00055373	0.0001537	1385.8	6.0833e-06	6.1126e-06	1382.7	375.47	6.07e-06	6.1205e-06	428.69	143.78	125.48	43.197	6.0133e-06	53.439	37.503	-139.420	-72.790	-160.946	-43.010	-77.365	-161.393	-156.469	-159.625	-74.640	-157.080	-152.964	-152.491	-147.160	13.266	-148.240	-8191	255	
1970.886	1	1	0	0	0.18705	0.10031	0.32165	0.15771	0.17713	0.27202	0.16039	0.14983	0.13074	0.10458	0.17509	0.11928	0.055723	0.25376	0.29638	0.32439	-0.39583	-0.87083	-0.28958	-1.1562	-0.73958	-0.25833	-1.1583	-0.63333	-0.65417	-1.2313	-0.18542	-1.0938	-0.78125	-0.46875	-1.0896	-0.36875	152.319	-126.986	-11.619	112.377	49.890	20.819	156.125	70.573	-131.208	149.488	113.336	174.233	-29.645	116.882	-160.347	125.122	0.0018548	0.00065569	0.00015893	1364.2	3.6947e-06	8.1813e-06	1355.2	368.09	6.5685e-06	7.8996e-06	421.38	140.74	122.95	41.892	1.0169e-05	51.81	0.00056197	0.00055131	0.00015282	1385.3	6.0975e-06	6.0266e-06	1383.8	375.52	6.0292e-06	6.0708e-06	429.03	143.87	125.13	43.151	6.0476e-06	53.39	41.278	-98.129	-4.684	-160.786	-94.982	17.506	-161.141	-156.481	-124.563	0.361	-156.857	-152.751	-152.279	-147.309	-66.279	-148.638	-8191	255	
1970.982	1	1	0	0	0.094728	0.2735	0.13349	0.18739	0.25277	0.084543	0.22161	0.40251	0.49096	0.13511	0.16869	0.2968	0.10935	0.39025	0.40841	0.38484	-0.05	-1.1917	-0.3375	-1.0417	-0.73333	-0.37292	-1.5458	-0.92917	-0.48333	-0.94375	-0.3	-0.77917	-0.97083	-0.13958	-0.99375	-0.85833	-112.944	95.878	158.638	-136.438	183.860	110.136	96.216	127.675	-55.549	-118.936	174.951	130.098	-32.661	182.942	88.886	136.118	0.0015394	0.00023771	0.00015425	1361.1	1.1204e-05	1.8177e-06	1360.2	366.58	6.9042e-06	2.3203e-06	417.55	140.48	122.71	41.821	3.3755e-06	51.51	0.00056092	0.00055189	0.00015428	1384.4	6.0468e-06	6.031e-06	1382.9	375.06	6.0444e-06	6.0325e-06	428.32	143.71	125.21	43.09	6.0402e-06	53.321	36.486	-78.759	-33.870	-160.967	-85.607	5.695	-161.601	-156.706	-63.179	-27.795	-157.163	-153.047	-152.413	-147.553	-36.264	-148.486	-8191	255	
1971.078	1	1	0	0	0.26907	0.17248	0.21353	0.19485	0.18039	0.25213	0.11803	0.17579	0.1911	0.18828	0.32173	0.46509	0.22984	0.15925	0.17715	0.26916	-0.11042	-1.2604	-0.40208	-0.76667	-1.0625	-0.2625	-1.1542	-0.76042	-0.2375	-1.3271	-0.69792	-0.85417	-1.1854	-0.17083	-0.98958	-1.0625	-138.456	-53.033	-96.609	126.917	-19.202	-106.146	-163.317	166.121	-160.767	136.854	150.290	101.922	-155.737	184.880	-54.488	168.076	0.0019594	0.00073092	5.8488e-05	1357.7	5.9518e-06	8.1661e-06	1359.1	367.1	1.006e-05	1.2102e-06	420.17	141.18	122.82	41.991	1.081e-05	51.771	0.00056033	0.00054563	0.00015341	1385.1	5.9925e-06	5.9706e-06	1384.4	375.96	6.0331e-06	6.0204e-06	428.66	143.86	125.37	43.185	6.0339e-06	53.502	38.311	161.425	-123.899	-160.967	-86.809	-51.258	-161.110	-156.484	-153.945	137.224	-156.692	-152.861	-152.314	-147.250	-76.849	-148.644	-8191	255	
1971.199	1	1	0	0	0.14427	0.20295	0.24763	0.087211	0.22656	0.15901	0.16511	0.28889	0.12982	0.20454	0.19188	0.075779	0.063152	0.055406	0.10708	0.12098	0.041667	-1.2146	-0.48958	-0.80417	-1.1667	-0.24792	-0.75625	-0.86042	-0.28333	-1.4542	-0.79167	-0.625	-1.1896	-0.35208	-1.1125	-0.825	-129.334	-97.947	156.606	162.921	36.413	145.792	88.854	80.081	-16.211	-106.782	-167.774	-74.343	133.505	73.332	179.633	-134.382	0.0017324	0.00018959	9.5814e-05	1363.7	5.737e-06	1.4672e-06	1362.6	370.25	7.8154e-06	5.9462e-07	417.71	141.17	122.88	41.765	9.5689e-06	51.625	0.00056179	0.00054651	0.00015215	1384.2	6.0274e-06	5.9985e-06	1384.5	376.07	6.0708e-06	6.0236e-06	428.46	143.98	125.45	43.044	6.0137e-06	53.298	36.447	-125.768	-69.943	-160.796	47.399	-99.331	-161.175	-156.352	-80.052	-42.447	-157.123	-153.083	-152.494	-147.510	-113.421	-148.541	-8191	255	
1971.295	1	1	0	0	0.39505	0.11361	0.25705	0.13481	0.26242	0.20424	0.18317	0.14163	0.27405	0.10558	0.047468	0.20603	0.038832	0.22083	0.14575	0.1707	0.31667	-0.97917	-0.67292	-0.77292	-1.2146	-0.23333	-1.0688	-1.25	-0.17917	-0.9375	-0.72083	-0.54375	-1.1479	-0.50625	-0.76042	-1.1083	39.117	78.195	-96.585	157.020	-43.374	-149.970	170.387	127.941	150.075	-168.461	26.201	-157.947	-165.130	-97.401	23.965	92.327	0.0018326	0.00055139	5.9994e-05	1364.6	6.3584e-06	6.7007e-06	1358.9	368.04	1.1884e-05	8.8654e-06	418.49	141.07	122.88	41.965	1.0124e-05	51.908	0.00055758	0.00055188	0.00015361	1384.4	6.032e-06	5.9788e-06	1381.8	375.96	5.9683e-06	6.074e-06	428.64	143.71	125.24	43.11	6.0276e-06	53.445	43.252	-122.050	-58.644	-161.049	-24.896	-67.845	-161.598	-156.553	-144.783	-5.823	-157.199	-153.107	-152.366	-147.522	-145.812	-148.649	-8191	255	
1971.391	1	1	0	0	0.20343	0.11026	0.12474	0.13197	0.1709	0.11153	0.39808	0.25334	0.21927	0.19737	0.15636	0.052034	0.17817	0.12619	0.13115	0.032556	0.38333	-1.0771	-0.65417	-0.46875	-1.0271	-0.35833	-1.0542	-1.1646	-0.1125	-0.92083	-0.74167	-0.37083	-1.2333	-0.43125	-0.6	-1.2458	-56.507	-36.945	-106.916	-116.226	1.208	-140.517	123.215	78.064	-141.017	-39.589	184.575	176.908	-154.100	-156.290	2.921	92.734	0.0016856	0.00020005	0.00011817	1361.4	3.7749e-06	1.3887e-06	1361.6	367.56	1.0545e-05	8.4287e-06	419.1	140.1	122.94	41.66	1.626e-05	51.279	0.00056409	0.00054808	0.00015392	1385	6.0561e-06	6.0585e-06	1384.7	375.3	6.0225e-06	6.0908e-06	428.07	143.42	125.18	42.984	6.1402e-06	53.186	31.233	172.854	-119.163	-161.089	42.302	44.612	-161.537	-156.471	-130.267	-34.070	-157.253	-152.999	-152.567	-147.427	-60.325	-148.804	-8191	255	
1971.487	1	1	0	0	0.089148	0.11709	0.15503	0.20074	0.2016	0.2372	0.2113	0.40709	0.17905	0.26635	0.075378	0.21525	0.14292	0.18311	0.11383	0.17133	0.15625	-0.81875	-0.74375	-0.425	-1.0812	-0.55	-0.55	-1.3687	-0.31875	-0.84375	-1.1333	-0.43125	-1.2208	-0.52708	-0.40833	-1.4896	14.804	-88.318	134.516	128.067	3.939	22.154	131.846	126.901	-107.523	42.185	154.922	147.684	182.655	161.227	142.874	149.006	0.0018453	0.00066558	0.00023282	1356.5	1.5624e-06	3.7232e-06	1350.7	367.77	8.5308e-06	9.5793e-06	419.45	140.56	122.22	41.718	7.6231e-06	51.421	0.00056757	0.00055536	0.00015424	1384.8	6.096e-06	6.1108e-06	1379.6	375.3	6.1119e-06	6.1197e-06	428.34	143.61	125.11	42.991	6.1109e-06	53.231	44.093	-91.259	-83.699	-161.075	-71.422	-101.405	-161.152	-156.752	-108.891	-21.372	-157.454	-153.002	-152.494	-147.634	-96.132	-148.445	-8191	255	
1971.583	1	1	0	0	0.19672	0.32629	0.077857	0.11734	0.13676	0.11554	0.07241	0.40099	0.13492	0.02517	0.13093	0.21781	0.35797	0.24897	0.050206	0.14091	-0.0020833	-0.8375	-1.1417	-0.40625	-0.96042	-0.55417	-0.5	-1.0583	-0.42292	-0.71875	-1.15	-0.27917	-1.2167	-0.71667	-0.32708	-1.2437	-75.532	-156.044	-0.339	98.853	-12.825	25.077	-41.882	135.857	-129.970	163.530	140.059	153.390	-163.734	167.961	-63.971	159.012	0.0016602	0.00061948	0.0001038	1358.5	8.0153e-06	9.5367e-07	1361.2	367.61	9.1577e-06	5.676e-06	420.19	140.75	122.32	41.793	6.7632e-06	51.502	0.00057069	0.0005633	0.00015712	1382	6.1295e-06	6.1104e-06	1381.9	375.54	6.1462e-06	6.1296e-06	428.06	143.55	125.29	42.984	6.1135e-06	53.247	35.898	-109.812	-92.249	-161.080	-12.947	-67.926	-161.443	-156.841	-166.140	35.447	-157.159	-153.254	-152.526	-147.346	15.833	-148.455	-8191	255	
1971.679	1	1	0	0	0.13561	0.13005	0.10675	0.25897	0.061612	0.122	0.20149	0.10388	0.31575	0.18552	0.44197	0.31146	0.23827	0.22693	0.1776	0.3476	-0.066667	-0.60833	-0.94375	-0.59792	-0.96667	-0.66458	-0.46875	-1.2083	-0.51042	-0.44167	-1.1313	-0.2625	-0.94375	-1.0604	-0.31875	-1.2896	-121.322	-81.193	179.294	-171.790	-120.133	37.604	126.906	-154.337	139.941	-54.781	124.826	-146.060	82.942	-160.219	-52.807	-153.976	0.0017039	0.00051764	0.00010456	1356.5	8.5137e-06	4.1516e-06	1356.4	366.99	6.0641e-06	4.7212e-06	419.15	140.05	122.4	41.644	5.4418e-06	51.454	0.00057374	0.00055972	0.00015621	1382.9	6.1225e-06	6.1563e-06	1383.2	375.22	6.1497e-06	6.1311e-06	428.11	143.26	125.01	42.905	6.1611e-06	53.168	45.732	-168.491	-82.923	-161.227	-42.170	-24.090	-161.227	-156.248	-99.421	-9.111	-157.092	-152.923	-152.404	-147.488	-94.825	-148.298	-8191	255	
1971.776	1	1	0	0	0.24277	0.19105	0.089614	0.35705	0.18172	0.19528	0.26148	0.12786	0.18738	0.091995	0.24217	0.059965	0.30971	0.062621	0.16211	0.12718	-0.016667	-0.1875	-0.92083	-0.65833	-1.1104	-1.0896	-0.21042	-1.3188	-0.68542	-0.60417	-1.5042	-0.27292	-0.86667	-1.2896	-0.52708	-1.1437	-146.115	68.129	-149.418	-169.494	78.517	-153.336	163.895	-129.553	-148.267	-96.887	133.624	-154.779	-54.803	180.830	-156.380	-140.679	0.001652	0.00045664	0.00019238	1358.5	6.1995e-06	8.4351e-06	1355.5	367.56	2.9863e-06	5.9829e-06	417.58	140.38	122.29	41.6	4.3673e-06	51.321	0.00057473	0.00056354	0.00015656	1382.5	6.1485e-06	6.1937e-06	1381.8	375.18	6.1817e-06	6.1951e-06	427.73	143.3	124.94	42.918	6.1536e-06	53.147	40.989	-113.618	-105.830	-161.261	17.043	-28.963	-161.494	-156.542	-106.539	-9.215	-157.224	-153.044	-152.322	-147.495	-148.273	-148.483	-8191	255	
1971.894	1	1	0	0	0.24059	0.10211	0.17127	0.054488	0.23409	0.31152	0.33561	0.26384	0.20711	0.12555	0.26919	0.31851	0.16586	0.30267	0.13755	0.21909	-0.20417	-0.41667	-1.3896	-0.52292	-0.64583	-1.2292	-0.57292	-1.175	-0.78333	-0.375	-1.0792	-0.42708	-0.6625	-1.1021	-0.27292	-1.15	-78.609	15.887	13.344	-14.992	-22.274	118.836	127.656	103.175	106.706	46.983	75.417	139.796	173.237	136.836	147.945	-23.296	0.0016451	0.00029448	0.00012323	1361.2	7.1064e-06	2.5072e-06	1359	367.64	4.6296e-06	5.7749e-06	418.42	140.53	122.03	41.639	7.1908e-06	51.438	0.00057174	0.00056617	0.0001565	1385.6	6.1812e-06	6.1494e-06	1381	375.06	6.164e-06	6.1916e-06	428.66	143.39	124.94	42.959	6.2011e-06	53.198	36.863	-132.909	-104.900	-161.044	-81.434	-63.914	-161.513	-156.473	-42.823	-17.710	-157.022	-152.964	-152.615	-147.737	-66.067	-148.116	-8191	255	
1971.991	1	1	0	0	0.061394	0.14838	0.09304	0.22097	0.13243	0.14596	0.069369	0.38828	0.08966	0.095109	0.15597	0.23243	0.098213	0.099266	0.096301	0.23308	-0.52917	-0.075	-1.2646	-0.60625	-0.20208	-1.1562	-0.40625	-0.77708	-0.70833	-0.42917	-1.1875	-0.59167	-0.55208	-1.2646	-0.14375	-0.80833	166.501	-128.486	-125.939	163.227	118.309	71.464	-116.157	120.119	-25.405	106.788	96.530	114.361	-121.253	173.949	101.046	-150.221	0.0016939	0.00034372	7.247e-05	1359.3	5.6322e-06	2.3593e-06	1357.8	366.45	5.1769e-06	2.4908e-06	418.62	140.45	122.34	41.706	6.9084e-06	51.244	0.00057596	0.00056546	0.00015763	1381.9	6.1525e-06	6.1807e-06	1382.2	374.94	6.2128e-06	6.1992e-06	429.03	143.28	124.86	42.964	6.2166e-06	53.187	39.035	-99.858	-142.349	-161.421	-61.815	28.223	-161.335	-156.760	-82.602	-62.528	-157.048	-153.287	-152.537	-147.730	-172.303	-148.542	-8191	255	
1972.087	1	1	0	0	0.14549	0.15222	0.045103	0.36378	0.28993	0.15356	0.23874	0.24766	0.019725	0.1593	0.16687	0.086148	0.17181	0.20918	0.016727	0.4414	-0.65208	-0.15208	-0.92292	-1.0646	-0.62917	-0.9125	-0.45	-1.0333	-0.89583	-0.29583	-1.1688	-0.97292	-0.55625	-1.2521	-0.29583	-0.775	-109.315	21.528	-42.308	184.318	-112.051	-173.429	98.997	154.602	-40.821	-103.724	160.482	-4.910	-1.579	174.608	142.525	111.354	0.0018224	0.00050293	0.00010827	1359.2	4.218e-06	4.373e-06	1352.2	367.55	1.3344e-05	3.3338e-06	418.56	141.29	122.28	41.767	9.6624e-06	51.548	0.00057245	0.00056052	0.00015759	1383.2	6.1856e-06	6.1499e-06	1380	375.31	6.1461e-06	6.196e-06	428.52	143.89	125.11	42.996	6.1715e-06	53.183	35.638	-74.222	-22.032	-161.454	5.571	3.445	-161.744	-156.706	-101.237	-21.250	-157.264	-153.320	-152.417	-147.720	-136.577	-148.472	-8191	255	
1972.183	1	1	0	0	0.32216	0.20847	0.15889	0.10036	0.17198	0.2612	0.23059	0.24997	0.18141	0.17677	0.26162	0.2769	0.1655	0.33336	0.099104	0.22301	-0.60833	-0.05	-0.84167	-0.9125	-0.125	-1.3958	-0.73333	-0.56667	-1.1729	-0.32708	-0.8875	-1.025	-0.40625	-1.1667	-0.55417	-0.51875	42.450	11.128	155.019	141.283	13.982	-103.590	114.667	151.247	-9.929	147.114	-144.855	131.034	84.872	91.141	-35.477	181.814	0.001641	0.00025568	9.2543e-05	1360.9	2.5822e-06	2.4454e-06	1351.9	365.44	1.2789e-05	6.5335e-06	417.34	140.81	122.25	41.777	1.4515e-05	51.394	0.00057277	0.00055393	0.00015531	1383.1	6.119e-06	6.106e-06	1380	374.01	6.0881e-06	6.0544e-06	428.5	143.61	124.87	43.013	6.0639e-06	53.101	39.073	-154.084	-71.913	-161.442	-58.556	-31.269	-161.506	-156.716	-139.440	-20.601	-157.312	-153.171	-152.821	-147.701	-87.460	-148.908	-8191	255	
1972.279	1	1	0	0	0.029333	0.089345	0.12727	0.34626	0.088545	0.29552	0.21726	0.39918	0.041581	0.12931	0.1524	0.1177	0.17297	0.11742	0.28619	0.16971	-0.78542	-0.1	-0.9625	-1.0375	-0.26667	-1.2563	-0.85833	-0.61667	-1.2479	-0.41458	-0.875	-1.2875	-0.28542	-1.0208	-0.60417	-0.55417	154.476	167.044	174.168	112.963	-165.692	103.863	111.622	109.121	125.448	124.821	181.186	95.431	59.759	56.196	26.383	2.592	0.0015756	0.00038245	0.00012817	1358.9	2.5116e-06	4.8605e-06	1350.4	367.7	1.6591e-05	4.0406e-06	418.12	139.7	122.05	41.697	1.0504e-05	51.478	0.00056497	0.0005567	0.00015596	1381.8	6.1202e-06	6.07e-06	1379.9	375.43	6.0368e-06	6.0565e-06	427.91	143.16	124.98	42.935	6.1582e-06	53.231	31.914	-50.241	-128.183	-161.579	-28.093	-115.070	-161.516	-156.623	-157.585	-25.551	-157.268	-153.298	-152.796	-147.763	-99.454	-148.885	-8191	255	
1972.375	1	1	0	0	0.087524	0.34554	0.22449	0.11795	0.18212	0.19702	0.24469	0.1602	0.026218	0.2507	0.36594	0.06992	0.49313	0.16759	0.086295	0.17025	-0.67292	-0.16875	-0.59583	-1.4188	-0.2	-0.99167	-0.88542	-0.47708	-0.99583	-0.42917	-0.93542	-1.0292	-0.17917	-1.1417	-1.0375	-0.32292	-49.048	162.167	-110.857	121.108	182.830	-96.863	43.815	-21.065	28.119	71.149	125.861	81.975	167.047	-134.316	44.125	-148.008	0.0017101	0.00057622	0.00010439	1359.6	6.5268e-06	3.8939e-06	1355.9	366.33	6.5052e-06	7.6376e-06	419.03	140.61	122.12	41.579	5.5865e-06	51.686	0.00056574	0.00055466	0.00015546	1383.5	6.0757e-06	6.1148e-06	1380.2	374.15	6.0389e-06	6.043e-06	428.36	143.45	124.89	42.975	6.0984e-06	53.273	41.437	-98.749	-2.029	-161.468	-80.010	-44.899	-161.603	-156.584	-124.693	-22.076	-156.832	-153.490	-152.737	-147.638	-52.111	-148.678	-8191	255	
1972.496	1	1	0	0	0.23707	0.11111	0.18739	0.38057	0.1783	0.067415	0.43991	0.31968	0.051864	0.27801	0.15181	0.064454	0.23883	0.24467	0.14276	0.16605	-0.74375	-0.55417	-0.74167	-1.1646	-0.13958	-1.1292	-1.0312	-0.23542	-1.1688	-0.60833	-0.4375	-1.3417	-0.35	-0.71667	-0.77292	-0.35417	7.783	-124.752	13.964	127.363	-32.841	19.854	122.623	-154.176	-19.045	3.556	-10.514	-53.821	139.410	140.287	158.989	147.096	0.0018656	9.0499e-05	2.4447e-05	1361.2	6.4811e-06	7.6665e-06	1353.9	367.87	6.2807e-06	6.7628e-06	418.71	140.29	122.6	41.648	4.7263e-06	51.296	0.00056523	0.00055552	0.00015587	1382.8	6.0735e-06	6.0578e-06	1382.2	374.96	6.0884e-06	6.0902e-06	428.16	143.42	124.87	42.968	6.0823e-06	53.198	36.692	-157.339	-100.934	-161.425	-104.423	-56.034	-161.762	-156.782	-154.149	-28.135	-157.151	-153.481	-152.593	-147.558	-83.046	-148.649	-8191	255	
1972.592	1	1	0	0	0.17621	0.14704	0.15106	0.33606	0.26792	0.20339	0.25659	0.28485	0.086927	0.15861	0.14033	0.1399	0.15825	0.25257	0.076096	0.15158	-0.99583	-0.50625	-0.51667	-1.3021	-0.25	-0.97917	-1.1604	-0.22708	-1.0667	-0.55208	-0.38333	-1.4958	-0.26458	-0.76667	-1.2	-0.21458	-166.373	-25.876	129.601	150.160	-148.058	143.792	-85.589	173.286	75.487	169.683	116.830	174.915	74.358	-95.490	-131.781	43.143	0.0017943	0.00032064	0.00011755	1358.5	2.9612e-06	8.0508e-06	1355	367.75	9.7408e-06	2.36e-06	418.86	140.19	122.48	41.838	9.9655e-06	51.57	0.00056279	0.00055205	0.00015415	1382.9	6.0677e-06	6.0121e-06	1381.1	375.17	6.0831e-06	6.0752e-06	427.7	143.39	125.14	43.005	6.0213e-06	53.23	35.067	-82.974	-72.797	-161.144	-99.149	-25.658	-161.691	-156.583	-111.965	-23.277	-157.242	-153.246	-152.674	-147.502	-82.411	-148.516	-8191	255	
1972.688	1	1	0	0	0.11332	0.10305	0.12545	0.2923	0.088407	0.045627	0.28988	0.20365	0.5283	0.23863	0.099248	0.17327	0.19533	0.16546	0.22543	0.12111	-0.76667	-0.7125	-0.26042	-1.4542	-0.61042	-0.78542	-1.1917	-0.67083	-0.8875	-0.89792	-0.66875	-1.3104	-0.81458	-0.68542	-1.0958	-0.52917	79.732	160.987	24.995	128.396	75.184	145.206	162.320	156.380	-1.514	-22.892	155.921	161.150	120.454	168.851	175.724	181.313	0.0016413	0.00026952	0.00018452	1357.5	2.7454e-06	5.9038e-06	1354.1	367.63	4.603e-06	2.2324e-06	418.02	140.23	122.83	41.682	3.0408e-06	51.275	0.0005638	0.00055574	0.00015441	1380.8	6.0598e-06	6.0386e-06	1379.6	374.91	6.0594e-06	6.0528e-06	427.31	143.43	125.08	42.934	6.0775e-06	53.19	34.598	-75.030	-18.865	-161.257	42.459	1.591	-161.402	-156.750	-101.466	-6.755	-157.353	-153.047	-152.473	-147.545	-6.460	-148.634	-8191	255	
1972.760	1	1	0	0	0.17791	0.062358	0.2091	0.22429	0.1912	0.084998	0.071255	0.080647	0.11969	0.24235	0.13035	0.18115	0.1642	0.21619	0.088563	0.2746	-0.63542	-0.85	-0.083333	-1.4729	-0.56042	-0.40625	-1.425	-0.46875	-0.72292	-1.0667	-0.27292	-1.1646	-0.75625	-0.45833	-1.1063	-0.66458	157.911	-81.160	-172.644	-155.022	-35.435	-149.687	-55.602	3.639	-82.161	-84.216	-160.884	-105.799	169.076	136.016	-27.668	171.526	0.0014929	0.00087464	1.0894e-05	1359.7	9.3987e-06	4.5875e-06	1360	365.42	1.0156e-05	7.5048e-06	418.64	140.2	123.23	41.636	7.2893e-07	51.216	0.00056919	0.00055116	0.00015479	1380.9	6.0485e-06	6.0965e-06	1382.5	374.53	6.0892e-06	6.1075e-06	428.25	143.24	125.14	42.938	6.0255e-06	53.007	44.089	-137.538	-5.311	-161.145	-43.115	-81.126	-161.353	-156.559	-138.451	-43.059	-157.093	-152.956	-152.496	-147.405	-103.241	-148.399	-8191	255	
1972.856	1	1	0	0	0.21116	0.24456	0.04639	0.44117	0.11547	0.069511	0.2941	0.21125	0.12141	0.1932	0.19092	0.20452	0.14185	0.43142	0.27399	0.11748	-0.38333	-1.0812	-0.20417	-1.0812	-0.74792	-0.30208	-1.5396	-0.55	-0.89375	-1.1938	-0.30208	-1.0167	-0.64583	-0.2375	-1.3729	-0.47708	0.547	131.854	-47.540	140.726	29.446	21.948	153.897	153.955	109.911	-37.344	145.290	122.577	-9.033	138.632	18.496	18.731	0.0015921	0.0002283	0.0002145	1361.3	5.5948e-06	4.313e-06	1357.3	366.89	1.1359e-05	6.2688e-06	418.82	139.69	122.1	41.623	1.2561e-05	51.323	0.00056308	0.00055458	0.0001552	1384.9	6.1157e-06	6.0921e-06	1381.5	374.79	6.1275e-06	6.1008e-06	428.34	143.2	124.87	42.972	6.0745e-06	53.115	41.198	-161.351	-84.762	-160.983	-16.259	8.350	-161.136	-156.644	-101.601	-0.257	-157.256	-153.003	-152.421	-147.457	-48.840	-148.393	-8191	255	
1972.975	1	1	0	0	0.25478	0.28473	0.21119	0.063957	0.10745	0.060763	0.17067	0.13509	0.098092	0.075476	0.32742	0.026196	0.034291	0.25439	0.20072	0.09467	-0.11458	-1.0562	-0.38542	-0.9	-1.2	-0.45833	-1.2938	-0.8	-0.33333	-1.2104	-0.5	-0.87708	-1.0042	-0.325	-0.94792	-0.71042	-81.436	-3.382	-109.197	56.695	109.131	-129.221	111.052	74.035	-47.510	183.108	141.583	16.642	-104.633	159.613	-75.936	-152.028	0.001798	0.00057469	0.00012527	1364.8	6.4481e-06	3.3674e-06	1357.9	367.55	1.2452e-05	4.4526e-06	418.3	141.14	122.81	41.859	1.0299e-05	51.772	0.0005669	0.00055395	0.00015488	1384.6	6.1037e-06	6.0742e-06	1381.7	375.01	6.0866e-06	6.0647e-06	427.42	143.59	125.17	43.022	6.083e-06	53.289	34.598	-115.148	-83.806	-160.906	-55.928	-52.716	-161.338	-156.453	-141.891	-32.656	-157.138	-152.646	-152.309	-147.469	-119.250	-148.313	-8191	255	
1973.071	1	1	0	0	0.054549	0.059256	0.056235	0.50561	0.18051	0.20191	0.17979	0.14056	0.085672	0.12539	0.32867	0.13826	0.13532	0.34938	0.14987	0.1164	-0.01875	-1.2354	-0.27708	-1.0312	-1.0562	-0.20417	-1.4167	-0.73542	-0.52292	-1.4188	-0.47292	-0.83333	-1.0604	-0.32292	-0.99167	-0.80208	114.506	100.114	-47.374	170.177	159.659	-169.362	40.336	-93.327	-171.425	109.885	-151.725	-84.398	65.917	148.426	64.336	165.103	0.0018208	0.00052555	0.00017038	1360.7	2.106e-06	3.0806e-06	1351.6	367.98	1.6227e-05	6.5814e-06	418.32	140.17	122.51	41.627	5.2801e-07	51.463	0.0005686	0.00055359	0.00015465	1383.1	6.0301e-06	6.0702e-06	1380.3	375.05	6.1074e-06	6.0537e-06	427.75	143.49	125.13	42.911	6.1058e-06	53.2	36.605	-115.155	-45.437	-160.740	-87.925	46.876	-161.069	-156.621	-107.430	-100.598	-157.009	-152.530	-152.247	-147.168	2.348	-148.193	-8191	255	
1973.167	1	1	0	0	0.13414	0.11532	0.24961	0.5302	0.11189	0.12415	0.15035	0.13234	0.068277	0.069667	0.19237	0.078836	0.26426	0.32397	0.1477	0.28229	0.10833	-1.0458	-0.39375	-0.88958	-1.175	-0.25833	-1.2271	-0.86875	-0.30833	-1.1083	-0.65208	-0.68542	-1.4271	-0.42917	-0.89167	-1.0438	174.187	-112.106	-30.691	183.371	-166.849	-33.822	134.760	70.710	-49.369	-52.857	-158.579	132.392	-139.482	170.775	-90.378	84.730	0.0017385	0.00037279	6.6876e-05	1358.2	6.7587e-06	4.2638e-06	1360	366.94	1.4991e-05	4.2975e-06	418.28	140.23	122.11	41.759	1.0793e-05	51.358	0.00056866	0.00055639	0.00015431	1383	6.109e-06	6.0684e-06	1382.6	374.83	6.0499e-06	6.0689e-06	427.8	143.5	125	43.016	6.0554e-06	53.134	41.681	184.178	157.956	-160.824	-77.861	-51.338	-161.010	-156.343	-118.783	-17.752	-156.992	-152.845	-152.321	-147.203	-146.041	-148.669	-8191	255	
1973.288	1	1	0	0	0.086609	0.20497	0.30235	0.33238	0.10268	0.16712	0.063296	0.23786	0.15956	0.093198	0.014316	0.21339	0.17751	0.10075	0.022735	0.0916	-0.1125	-1.2062	-0.57292	-0.5875	-1.2313	-0.10417	-1.1708	-0.83958	-0.325	-1.1875	-0.61458	-0.47708	-1.2938	-0.25625	-0.92708	-0.8	26.520	-112.247	27.752	138.073	18.426	-158.663	178.461	117.924	-155.270	72.958	101.934	-142.950	137.789	143.407	71.825	43.705	0.0017016	0.00016495	0.00022157	1358.4	6.0897e-06	2.9299e-06	1359.6	366.83	5.9445e-06	7.663e-06	418.59	140.32	122.66	41.718	4.3017e-06	51.371	0.00056603	0.00055453	0.00015488	1383.1	6.1116e-06	6.1009e-06	1381.6	374.72	6.0532e-06	6.0791e-06	427.97	143.24	125.1	42.947	6.0618e-06	53.149	37.156	-26.227	-81.956	-160.956	41.333	0.786	-161.109	-156.503	-83.650	0.707	-157.108	-152.696	-152.054	-147.391	-54.793	-148.105	-8191	255	
1973.359	1	1	0	0	0.075121	0.18437	0.072153	0.37599	0.20355	0.072754	0.2869	0.35542	0.30818	0.044459	0.13293	0.1955	0.090502	0.3523	0.14561	0.28478	-0.14375	-1.1771	-0.42083	-0.725	-1.0354	-0.49583	-0.82917	-1.3854	-0.21667	-1.0271	-0.73333	-0.51042	-1.1729	-0.775	-0.59167	-1.2417	138.814	10.602	-27.179	149.968	128.939	82.366	148.808	163.203	-80.834	-146.973	-165.642	136.581	121.994	147.516	159.503	127.990	0.0017883	0.00053577	3.8738e-05	1356.2	1.1292e-05	1.0443e-06	1360.1	367.33	1.1294e-05	5.8827e-06	418.91	140.64	122.92	41.766	1.1088e-05	51.397	0.00056468	0.00055834	0.00015288	1381.6	6.0745e-06	6.0839e-06	1381.1	374.29	6.0853e-06	6.0477e-06	428.36	143.46	125.18	42.928	6.0781e-06	53.121	36.311	-89.837	-128.416	-160.700	-26.856	-152.355	-161.136	-156.443	-152.408	1.861	-157.107	-152.656	-152.257	-147.495	-119.037	-148.650	-8191	255	
1973.456	1	1	0	0	0.12572	0.15464	0.097005	0.60134	0.13383	0.2136	0.035336	0.11712	0.3086	0.094501	0.053376	0.20542	0.27305	0.471	0.21947	0.22477	0.047917	-0.76667	-0.91458	-0.33542	-1.1604	-0.58542	-0.60417	-1.3542	-0.43542	-0.85208	-0.96875	-0.45833	-1.0938	-0.77708	-0.50417	-1.2062	69.070	181.834	5.236	108.930	136.457	33.981	12.320	88.595	-67.446	75.534	177.592	124.657	115.395	128.774	-60.396	184.232	0.0015308	0.00044523	0.00028272	1361.8	7.1025e-06	4.8475e-06	1355.2	367.18	1.504e-05	8.1475e-06	419.41	140.12	122.85	41.639	5.4556e-06	51.481	0.00056418	0.00055442	0.0001539	1383.8	6.076e-06	6.0672e-06	1380.5	375	6.0808e-06	6.1013e-06	427.79	143.28	125.18	43.008	6.078e-06	53.271	32.146	-90.501	-66.193	-160.728	21.480	-72.224	-161.340	-156.407	-109.291	12.686	-156.780	-152.860	-152.004	-147.116	-93.077	-148.226	-8191	255	
1973.576	1	1	0	0	0.12367	0.19345	0.18687	0.43477	0.17501	0.19653	0.07303	0.08501	0.30661	0.4411	0.092318	0.37213	0.23079	0.13097	0.15338	0.13391	-0.06875	-0.82917	-0.85833	-0.29375	-1.1646	-0.53958	-0.50625	-1.2583	-0.42917	-0.5875	-1.1521	-0.33958	-0.92292	-0.84792	-0.46458	-1.2146	168.975	47.289	122.521	-147.176	-104.905	108.003	-39.604	163.096	79.800	9.967	-99.028	52.655	-56.140	150.355	82.839	125.186	0.001824	0.00048891	8.0763e-05	1359.5	9.2946e-07	4.4714e-07	1358.2	367.49	1.151e-05	2.9889e-06	418.01	140.59	122.53	41.574	6.2003e-06	51.357	0.00056446	0.00055116	0.00015398	1384	6.0857e-06	6.0681e-06	1382.8	375.06	6.0697e-06	6.075e-06	427.94	143.61	125	42.974	6.06e-06	53.311	44.063	-106.688	24.602	-160.898	-29.532	-82.470	-161.239	-156.210	-86.877	41.994	-156.889	-152.783	-152.247	-147.245	-42.574	-148.291	-8191	255	
1973.672	1	1	0	0	0.25727	0.17275	0.17422	0.23615	0.12271	0.042795	0.23224	0.052118	0.17522	0.15262	0.24882	0.1207	0.13963	0.14505	0.036691	0.095745	-0.052083	-0.74583	-0.99792	-0.51458	-1.075	-0.75417	-0.83542	-1.5667	-0.45208	-0.72292	-1	-0.16667	-1.0187	-0.92083	-0.18333	-1.4042	-15.824	80.396	-23.479	53.436	10.433	150.134	11.240	176.821	-160.542	128.191	124.151	121.142	149.147	135.195	-132.816	76.133	0.001822	0.0005962	0.00012967	1362.2	7.8372e-06	7.4103e-06	1358.8	366.17	5.0498e-06	8.3496e-06	418.13	139.98	122.5	41.57	5.0232e-06	51.598	0.00056596	0.00054673	0.00015362	1384.5	6.0245e-06	5.9862e-06	1382.6	374.64	6.0027e-06	6.0139e-06	428.06	143.57	125.08	42.939	6.02e-06	53.307	34.750	-128.126	-3.936	-161.130	8.110	-41.086	-161.436	-156.410	-112.062	-2.466	-156.965	-152.792	-152.243	-147.538	-34.573	-148.510	-8191	255	
1973.769	1	1	0	0	0.092799	0.15154	0.17038	0.058059	0.16554	0.2388	0.16945	0.1027	0.19656	0.25393	0.07245	0.21205	0.13261	0.13291	0.14491	0.10342	-0.035417	-0.43542	-0.99583	-0.52083	-1.0187	-0.93333	-0.4	-1.2458	-0.49375	-0.41458	-1.3021	-0.15417	-0.90417	-1.0917	0.10625	-1.1875	-127.664	4.579	-48.264	-51.505	138.059	-113.602	126.437	-140.583	-108.596	-117.231	-134.342	135.301	179.230	140.988	-25.832	183.204	0.0016579	0.00057894	0.00017827	1358.2	5.6616e-06	5.4247e-06	1352.3	369.02	8.955e-06	4.3658e-06	419.41	140.8	122.84	41.63	8.0357e-06	51.615	0.00056061	0.00055454	0.00015211	1381.3	6.0081e-06	6.0086e-06	1380.7	375.54	5.9794e-06	5.9754e-06	428.16	143.43	124.95	42.959	6.0258e-06	53.268	41.019	-124.686	-101.051	-160.907	-67.004	-33.320	-161.403	-156.722	-95.612	-59.016	-157.196	-153.133	-152.365	-147.431	-148.935	-148.306	-8191	255	
1973.887	1	1	0	0	0.15292	0.23463	0.1238	0.044185	0.064775	0.02678	0.080193	0.21603	0.28405	0.18318	0.33109	0.22619	0.2458	0.13627	0.098036	0.073877	-0.48542	-0.32083	-1.0604	-0.775	-0.75417	-1.0354	-0.48542	-1.0938	-0.49792	-0.46042	-1.4917	-0.38125	-0.49583	-1.2083	-0.38958	-1.0854	46.151	-150.434	60.564	50.204	-116.646	-24.380	131.949	44.633	55.583	101.254	148.118	76.182	180.980	170.906	157.056	-110.068	0.0020596	0.00057649	8.5076e-05	1355.1	1.2564e-06	2.1865e-06	1352.2	367.74	1.7439e-05	3.8311e-06	420.87	140.49	122.89	41.903	8.2728e-06	51.521	0.00056093	0.00054953	0.00015174	1381.2	5.9837e-06	5.9895e-06	1379.9	375.19	5.9815e-06	6.0245e-06	429.18	143.35	125.15	43.09	6.0152e-06	53.317	40.005	-107.947	4.292	-161.053	-60.829	-154.258	-161.571	-156.482	-116.630	-114.352	-157.048	-153.192	-152.352	-147.309	-131.055	-148.448	-8191	255	
1973.984	1	1	0	0	0.15372	0.34093	0.3037	0.33561	0.12184	0.041926	0.34534	0.16315	0.16665	0.28199	0.25438	0.16378	0.22329	0.37423	0.037857	0.45583	-0.39167	-0.51875	-1.1063	-0.525	-0.52083	-1.3042	-0.73542	-1.0833	-0.9	-0.20208	-1.3917	-0.60833	-0.58958	-1.3125	-0.20208	-0.73542	25.665	30.056	123.351	-150.154	131.105	86.005	169.476	130.575	-26.951	153.408	148.999	179.748	65.701	121.215	78.883	152.709	0.0017558	0.00066984	0.00018826	1355.7	5.2313e-06	2.5227e-06	1354.4	367.93	1.1307e-05	7.3698e-06	417.85	141.03	123.05	41.847	8.3248e-06	51.591	0.00056304	0.00055023	0.00015195	1382.6	5.9979e-06	5.9802e-06	1380.8	375.61	5.9806e-06	6.0145e-06	427.77	143.81	125.35	43.18	6.0039e-06	53.408	34.964	-145.461	-111.814	-161.194	8.723	-140.467	-161.387	-156.577	-60.694	-69.953	-156.921	-152.988	-152.152	-147.215	-8.878	-148.394	-8191	255	
1974.055	1	1	0	0	0.13863	0.23555	0.14285	0.25111	0.042999	0.3577	0.40344	0.18875	0.16777	0.24851	0.12352	0.24494	0.27801	0.22921	0.15374	0.3693	-0.48333	-0.37292	-1.2396	-0.55417	-0.43958	-1.2646	-0.4375	-0.7875	-0.88958	-0.22917	-1.1812	-0.54792	-0.19583	-1.2833	-0.27708	-0.81667	41.231	46.741	-56.556	162.604	-40.044	-117.170	125.016	118.371	-14.818	182.683	-151.042	159.034	174.296	0.041	36.475	158.811	0.0018005	0.00059634	0.00016714	1365	2.9417e-06	5.0676e-06	1353.7	370.1	9.0649e-06	5.6406e-06	421.12	140.82	123.3	41.838	1.2716e-05	52.045	0.00056313	0.00054905	0.00015213	1383.8	6.0183e-06	5.964e-06	1382.5	376.35	5.9634e-06	5.936e-06	429.52	143.69	125.6	43.138	5.9039e-06	53.594	39.040	-120.953	-71.259	-161.225	-22.784	5.544	-161.458	-156.540	-145.416	-19.870	-157.100	-152.815	-152.242	-147.311	-67.829	-148.445	-8191	255	
1974.176	1	1	0	0	0.23363	0.12759	0.4169	0.35689	0.19339	0.25709	0.1751	0.047443	0.1322	0.17968	0.13614	0.091892	0.29507	0.036678	0.15956	0.017099	-0.64583	-0.19375	-0.99167	-0.77292	-0.43542	-1.2375	-0.5125	-0.94167	-1.1562	-0.22083	-0.99792	-0.91667	-0.46042	-1.2792	-0.65625	-0.39375	-22.687	-91.428	145.988	155.436	176.592	-166.710	-161.758	-146.334	-150.343	184.147	-13.712	174.250	93.667	109.135	-125.845	-18.472	0.0015956	0.00032274	7.3086e-05	1359.5	3.7152e-06	4.5483e-06	1356.1	368.41	1.2156e-05	6.6143e-06	418.08	140.6	123.38	41.8	6.9891e-06	51.516	0.00055252	0.00054142	0.00015062	1382.5	5.9804e-06	5.9839e-06	1380.6	375.46	5.9666e-06	5.9496e-06	428.25	143.72	125.58	43.142	6.0109e-06	53.269	40.647	-0.730	-120.438	-161.063	-27.130	-66.537	-161.316	-156.252	-76.766	-14.684	-156.890	-152.755	-152.185	-147.371	-113.694	-148.411	-8191	255	
1974.272	1	1	0	0	0.086053	0.088356	0.28739	0.065815	0.25129	0.12793	0.34828	0.059688	0.20827	0.20785	0.095114	0.11759	0.17038	0.085529	0.097257	0.017271	-0.72708	-0.14792	-0.975	-1.025	-0.17708	-1.0104	-0.60833	-0.37708	-1.0583	-0.21458	-1.1125	-1.0875	-0.35417	-1.2104	-0.7875	-0.52708	159.709	161.141	-114.846	-138.183	118.221	4.190	98.041	129.913	95.305	33.383	129.086	-71.976	124.604	154.926	170.507	-73.253	0.0015968	7.4926e-05	3.9528e-05	1360.2	3.5025e-06	5.0145e-06	1354.8	368.6	1.193e-05	7.1351e-06	419.61	140.77	123.05	41.869	8.3158e-06	52.037	0.00055176	0.00054934	0.00015309	1382.3	6.0002e-06	5.946e-06	1379.3	375.97	5.9695e-06	6.0358e-06	428.74	144.04	125.52	43.193	5.9684e-06	53.598	40.646	74.209	-99.027	-161.122	-9.531	-74.750	-161.591	-156.422	-128.109	-62.993	-157.096	-152.900	-152.364	-147.487	-128.500	-148.358	-8191	255	
1974.368	1	1	0	0	0.033002	0.16971	0.3704	0.32131	0.15389	0.15961	0.37882	0.3024	0.11648	0.23245	0.29367	0.082326	0.36385	0.198	0.018112	0.21209	-0.56042	-0.30417	-0.82292	-1.3062	-0.17708	-0.9875	-0.77083	-0.60833	-1.0979	-0.1875	-0.71875	-1.3	-0.31042	-0.99167	-0.76042	-0.38333	77.261	170.025	-98.382	171.996	161.152	31.162	123.253	121.761	-3.815	-162.536	150.854	128.273	-133.498	173.522	46.683	89.276	0.0016824	0.00060269	0.00014149	1359.1	4.0207e-07	3.1041e-06	1354	367.91	1.3709e-05	1.8827e-06	419.38	140.75	123.08	42.108	8.9521e-06	51.525	0.00055367	0.00054305	0.0001511	1383.5	5.9251e-06	5.9248e-06	1378.9	376.47	5.9201e-06	5.9426e-06	429.34	144.02	125.57	43.234	5.8956e-06	53.402	36.554	-96.574	-51.257	-161.362	-150.052	-44.730	-161.253	-156.319	-105.494	-131.768	-156.987	-152.999	-152.335	-147.546	-96.116	-148.307	-8191	255	
1974.464	1	1	0	0	0.20536	0.10819	0.054241	0.34217	0.19309	0.30877	0.27671	0.19582	0.10558	0.071167	0.2922	0.25161	0.24076	0.11715	0.24527	0.40542	-1.0104	-0.21667	-0.54375	-1.2271	-0.0041667	-0.92083	-1.0542	-0.28542	-1.1688	-0.57917	-0.46458	-1.1958	-0.24375	-0.95833	-0.925	-0.25625	-149.954	50.593	-54.608	183.660	-112.499	65.826	151.687	107.272	71.338	-154.322	93.449	-159.241	-116.916	28.146	69.952	73.537	0.0016137	0.0002719	9.0992e-05	1358.2	1.7956e-06	9.0745e-06	1355.5	367.48	1.5382e-05	3.3623e-06	419.62	141.2	122.88	41.927	8.4402e-06	51.485	0.00055592	0.00054128	0.00015103	1381.8	5.9784e-06	5.9677e-06	1381.7	375	5.962e-06	5.9123e-06	428.98	143.91	125.14	43.17	5.9357e-06	53.344	38.765	-80.253	-44.771	-161.071	167.668	9.958	-161.397	-156.536	-116.517	-6.593	-157.104	-152.847	-152.286	-147.352	-90.587	-148.429	-8191	255	
1974.560	1	1	0	0	0.076246	0.39572	0.34779	0.07862	0.22385	0.067065	0.23238	0.21851	0.10852	0.10427	0.26311	0.17345	0.2534	0.20897	0.16957	0.11635	-0.57292	-0.39583	-0.52708	-1.3854	-0.010417	-0.825	-0.95208	-0.40417	-1.125	-0.51667	-0.57917	-1.2437	-0.36042	-0.84583	-1.0854	-0.4	-121.210	75.989	139.358	43.921	2.135	19.156	149.603	-172.964	59.734	32.387	143.695	177.306	-100.205	-146.996	108.644	-171.673	0.0017519	0.0006586	0.00016254	1359.1	9.4641e-06	1.8489e-06	1356.8	367.72	9.7351e-06	3.3276e-06	418.49	140.42	122.55	41.892	6.4247e-06	51.587	0.00055502	0.00054217	0.00015148	1385.4	5.9646e-06	5.9547e-06	1381.1	375.64	5.9797e-06	5.999e-06	428.23	143.63	125.29	43.166	6.056e-06	53.301	43.404	-127.638	-36.483	-160.991	-95.244	-52.253	-161.421	-156.650	-91.286	-67.500	-157.342	-152.697	-152.556	-147.422	-43.166	-148.673	-8191	255	
1974.657	1	1	0	0	0.11128	0.14653	0.093202	0.46024	0.24053	0.21605	0.38017	0.48838	0.1014	0.34564	0.20367	0.13788	0.034901	0.23359	0.13602	0.043071	-0.8	-0.52917	-0.025	-1.3521	-0.63333	-0.72083	-1.3875	-0.20417	-0.87917	-0.84167	-0.53542	-1.3146	-0.42708	-0.82917	-1.3146	-0.46667	-58.780	94.248	35.618	157.487	-0.207	-110.013	117.421	128.725	25.969	-52.293	166.043	169.399	79.302	-58.736	77.922	2.415	0.0015605	0.00027926	5.4763e-05	1362.9	7.2278e-06	2.6071e-06	1355.6	368.45	3.939e-06	2.902e-06	420.11	141.03	123.01	41.904	8.0551e-06	51.735	0.00055625	0.00054476	0.00015327	1383.7	6.0373e-06	6.0235e-06	1380	375.91	6.0231e-06	6.046e-06	428.65	144	125.38	43.147	6.006e-06	53.476	28.158	-130.480	170.811	-160.991	-25.692	-113.089	-161.485	-156.649	-122.611	5.140	-157.564	-153.060	-152.712	-147.608	-76.815	-148.549	-8191	255	
1974.753	1	1	0	0	0.24257	0.18249	0.15534	0.3666	0.068842	0.32062	0.27449	0.29224	0.06006	0.17442	0.25822	0.052734	0.29435	0.29729	0.26659	0.18205	-0.40833	-0.79583	-0.425	-1.4292	-0.31458	-0.3125	-1.3167	-0.20208	-0.775	-0.57083	-0.32083	-1.1833	-0.69167	-0.35833	-1.0938	-0.47917	78.361	-24.038	57.511	109.141	126.782	-9.666	118.019	52.161	-121.247	115.630	-147.018	-13.018	156.618	134.781	70.233	2.044	0.0017328	0.00043044	0.00023604	1361.3	9.8939e-06	4.0112e-06	1358	367.72	9.0203e-06	4.5534e-06	419.36	140.94	122.59	41.897	8.0991e-06	51.378	0.0005579	0.00054703	0.000152	1383.8	6.0211e-06	6.0565e-06	1381.2	376.14	5.9328e-06	6.0108e-06	428.22	143.93	125.34	43.181	6.0105e-06	53.396	30.164	-13.539	-120.400	-161.214	-49.146	-101.930	-161.883	-156.927	136.686	-30.337	-157.635	-153.363	-152.778	-147.899	-100.701	-149.031	-8191	255	
1974.849	1	1	0	0	0.23186	0.28588	0.19481	0.2149	0.060095	0.16935	0.35763	0.39301	0.17864	0.068302	0.19522	0.15908	0.24106	0.23104	0.11682	0.10984	-0.24583	-0.91875	-0.060417	-1.0625	-0.51667	-0.16458	-1.2521	-0.56458	-0.56458	-0.93125	-0.31042	-1.1792	-0.85625	-0.47083	-1.0625	-0.59167	157.674	156.128	-116.913	174.543	47.936	-23.168	144.307	105.473	-142.141	-47.205	124.671	5.006	169.780	148.262	2.874	-136.131	0.0016948	0.0004885	8.3652e-05	1362.8	2.2042e-06	4.7629e-06	1354.1	369.93	1.0294e-05	2.6518e-06	420.46	140.31	123.19	41.821	9.9559e-06	51.589	0.00055632	0.00053657	0.00015032	1384.9	5.9239e-06	5.92e-06	1381.1	376.47	5.9377e-06	5.8896e-06	428.93	144.03	125.48	43.108	5.9176e-06	53.354	38.375	-104.346	-81.160	-161.397	-102.856	-85.677	-161.814	-156.848	-142.063	-143.580	-157.495	-153.318	-152.860	-147.873	-65.356	-148.939	-8191	255	
1974.968	1	1	0	0	0.04791	0.22224	0.1478	0.26232	0.031428	0.097328	0.19485	0.26398	0.34029	0.13944	0.24353	0.13995	0.21257	0.09788	0.060265	0.18379	-0.24583	-0.95	0.052083	-1.2167	-0.725	-0.19583	-1.0646	-0.4625	-0.44792	-1.1583	-0.22292	-0.85625	-1.0771	-0.48542	-1.0979	-0.41458	-132.767	143.798	114.334	123.378	150.188	12.258	116.517	174.024	28.772	39.421	150.308	0.882	-164.534	44.211	118.579	96.018	0.0017026	0.00051642	0.00012648	1360	7.236e-06	5.4424e-06	1352.3	366.97	9.2452e-06	5.4974e-06	417.85	140.58	122.32	41.873	1.9554e-06	51.477	0.00055854	0.00054629	0.00015271	1383.2	5.9373e-06	6.0309e-06	1378.8	374.98	5.9812e-06	6.0042e-06	427.58	143.74	125.22	43.094	6.0438e-06	53.16	38.549	-99.388	-45.710	-161.315	-84.505	-27.219	-161.685	-157.015	-68.632	1.263	-157.531	-153.399	-152.922	-147.742	-31.490	-149.070	-8191	255	
1975.064	1	1	0	0	0.066727	0.093097	0.25972	0.065222	0.18998	0.21056	0.29381	0.40876	0.14779	0.32745	0.077226	0.44055	0.17607	0.045847	0.22562	0.13732	-0.12708	-1.1896	-0.10833	-0.98542	-0.8375	-0.31042	-1.1979	-0.575	-0.45833	-1.3	-0.3625	-0.72083	-1.2854	-0.34583	-1.1688	-0.79792	-18.372	-151.132	59.350	-109.668	-34.484	-132.235	-147.241	-140.794	-17.781	170.444	3.525	97.502	-170.580	1.407	143.999	110.139	0.0017223	0.00026521	0.00018867	1357.8	1.0573e-05	2.2669e-06	1350.5	366.77	1.7782e-05	2.8718e-06	415.13	140.04	121.74	41.746	1.4121e-05	51.361	0.00056419	0.00055744	0.00015476	1383	6.0976e-06	6.1156e-06	1378.6	374.56	6.0829e-06	6.1501e-06	426.43	143.11	124.66	42.982	6.0075e-06	53.102	46.928	-75.188	-87.150	-161.278	-50.885	24.514	-161.567	-157.095	-135.260	-16.901	-157.161	-153.288	-152.610	-147.866	-66.760	-148.661	-8191	255	
1975.160	1	1	0	0	0.10222	0.1033	0.14761	0.2983	0.034833	0.24488	0.25194	0.29778	0.23359	0.062035	0.22955	0.11268	0.23315	0.19415	0.10252	0.21838	0.2	-1.1125	-0.25	-1.0646	-0.78333	-0.25417	-1.2875	-0.86042	-0.275	-1.3229	-0.55833	-0.70208	-1.2375	-0.55625	-0.71667	-0.84792	-58.937	161.239	11.311	157.667	97.696	-122.543	-134.866	-154.613	-161.686	-25.714	66.676	-71.290	-174.705	-60.398	-57.974	19.504	0.0016595	0.0006729	0.00012964	1357	6.4107e-06	2.3237e-06	1351.9	367.72	1.1158e-05	7.0324e-06	419.3	140.04	121.73	41.654	1.0368e-05	51.582	0.00056818	0.00055838	0.00015487	1379.5	6.0275e-06	6.1352e-06	1377.9	374.51	6.0816e-06	6.0602e-06	427.82	143.19	124.87	42.967	6.0582e-06	53.129	36.836	-91.149	-83.639	-161.377	-59.244	55.791	-161.665	-156.827	-123.837	-27.415	-157.296	-153.112	-152.587	-148.008	-127.255	-148.920	-8191	255	
1975.256	1	1	0	0	0.21486	0.10331	0.23095	0.035134	0.086141	0.13063	0.33231	0.47759	0.13605	0.23713	0.41729	0.18429	0.27749	0.19841	0.26866	0.25089	0.18542	-1.1063	-0.20208	-0.70625	-1.1479	-0.35	-1.0292	-0.82083	-0.40417	-1.2292	-0.37708	-0.49375	-1.3458	-0.31458	-0.75833	-1.2313	-172.760	-60.632	-152.544	-78.030	-12.938	-16.427	82.516	109.368	-134.792	-153.556	184.458	92.028	-110.299	139.349	-116.402	86.806	0.0016838	0.00096727	9.4269e-05	1358.1	1.2108e-05	5.8653e-06	1353.9	367.3	6.2542e-06	5.4619e-06	419.2	140.57	122.41	41.61	1.1609e-05	51.468	0.00056472	0.00055507	0.00015549	1380.9	6.1149e-06	6.0986e-06	1380.2	374.66	6.1254e-06	6.0937e-06	427.68	143.5	124.98	42.946	6.103e-06	53.198	39.444	-137.936	-72.247	-161.270	-86.161	-60.097	-161.634	-157.040	-158.268	-20.965	-157.436	-153.176	-152.858	-147.624	-59.278	-148.946	-8191	255	
1975.352	1	1	0	0	0.19157	0.1587	0.20846	0.35004	0.12423	0.13606	0.13467	0.15462	0.17224	0.074123	0.20996	0.19418	0.2596	0.14877	0.03354	0.35223	-0.0041667	-1.05	-0.5625	-0.7375	-1.0938	-0.33542	-1.0729	-1.2354	-0.13125	-0.86042	-0.72292	-0.61042	-1.1083	-0.45417	-0.5	-1.1292	-151.604	25.081	123.205	85.706	-101.776	165.083	-127.610	168.364	-95.969	-143.258	180.511	61.296	162.284	-135.784	151.290	45.935	0.0015831	0.00054513	0.00017381	1366.2	4.5264e-06	4.4655e-06	1358.9	367.07	6.4472e-06	4.5568e-06	417.69	140.29	122.74	41.688	1.3645e-05	51.513	0.00056634	0.00055507	0.00015415	1383.1	6.1166e-06	6.0734e-06	1380.9	374.45	6.1539e-06	6.0696e-06	427.05	143.29	124.92	42.976	6.146e-06	53.231	33.481	-135.306	-66.532	-161.222	-114.933	-9.753	-161.600	-156.941	-132.484	-105.531	-157.312	-153.126	-152.664	-147.759	-93.976	-148.662	-8191	255	
1975.449	1	1	0	0	0.074486	0.16536	0.13854	0.11515	0.26264	0.16162	0.084338	0.13258	0.23008	0.13042	0.14312	0.42006	0.027011	0.073938	0.2728	0.36351	0.12708	-0.85833	-0.53125	-0.36458	-1.1688	-0.31458	-0.73333	-1.1792	-0.1	-1.0458	-1.1646	-0.1875	-1.0604	-0.30833	-0.47083	-1.2917	-136.092	-12.429	-77.956	114.497	116.123	-139.331	122.869	-126.024	35.222	-166.795	-98.423	176.302	127.544	-49.852	-43.169	135.489	0.0017148	0.00029483	0.00013703	1354	9.6718e-06	2.3237e-06	1353	365.94	1.5551e-05	4.6208e-06	415.5	139.45	122.56	41.639	1.5035e-06	51.299	0.00056975	0.00055428	0.00015523	1382.1	6.0497e-06	6.129e-06	1379.2	374.17	6.1314e-06	6.0707e-06	427.51	143.22	124.83	42.889	6.1761e-06	53.146	34.258	-121.852	-85.376	-161.247	-55.282	-30.091	-161.476	-156.907	-135.263	-15.615	-157.621	-153.393	-152.711	-147.864	-165.217	-148.738	-8191	255	
1975.569	1	1	0	0	0.085478	0.1755	0.057061	0.34199	0.37471	0.10206	0.32109	0.29007	0.14681	0.15905	0.29154	0.14827	0.099533	0.39341	0.1409	0.26815	0.041667	-0.95	-0.86875	-0.3125	-1.1146	-0.4625	-0.60833	-1.4917	-0.43958	-0.8875	-1.1271	-0.23333	-1.2	-0.83542	-0.40417	-1.2396	-11.808	-37.915	-26.366	175.345	130.891	-133.844	140.769	166.942	11.169	173.024	89.737	-18.323	180.562	184.644	-82.069	-132.322	0.001809	0.0007171	0.00012548	1358.6	2.1178e-06	5.8044e-06	1354.3	366.5	1.805e-05	6.5532e-06	415.4	139.63	122.72	41.767	1.0657e-05	51.16	0.00056826	0.00056078	0.00015611	1381.8	6.1643e-06	6.1173e-06	1380.5	374.21	6.1343e-06	6.0736e-06	427.14	143.35	124.94	42.917	6.0855e-06	53.101	40.656	-96.968	-138.248	-161.240	-33.480	-10.347	-161.713	-156.901	-85.164	-70.082	-157.271	-153.427	-152.718	-147.652	-76.716	-148.717	-8191	255	
1975.665	1	1	0	0	0.033288	0.18302	0.069861	0.43507	0.35566	0.20946	0.34486	0.2042	0.1564	0.29476	0.09892	0.13098	0.1354	0.3486	0.1413	0.16541	0.079167	-0.81458	-1.0542	-0.29583	-0.85625	-0.46875	-0.35833	-1.3208	-0.35417	-0.68125	-1.3271	-0.325	-1.025	-0.79167	-0.22917	-0.97083	182.582	-116.641	-13.774	171.677	155.847	20.552	106.093	102.983	140.060	137.439	18.996	-146.482	170.023	-159.501	-150.573	144.413	0.0015725	0.00025689	0.00012465	1352.3	7.8938e-06	3.0672e-06	1355.5	366.76	6.5038e-06	6.5276e-06	419.73	140.06	122.13	41.426	7.6345e-06	51.495	0.0005653	0.00054829	0.00015391	1378.4	6.0556e-06	6.0592e-06	1378.4	374.36	6.0754e-06	6.0251e-06	426.92	143.3	124.71	42.791	6.1037e-06	53.169	38.309	-33.144	-131.259	-161.350	-70.995	85.716	-161.327	-156.707	-94.925	-36.680	-157.474	-153.089	-152.417	-147.955	-123.044	-148.759	-8191	255	
1975.760	1	1	0	0	0.1301	0.20016	0.12905	0.19184	0.14464	0.12741	0.18319	0.3626	0.1102	0.095309	0.33548	0.089971	0.15373	0.052676	0.12343	0.25951	0.11042	-0.55208	-1.0312	-0.054167	-1.0417	-0.72708	-0.34167	-1.2062	-0.425	-0.51667	-1.2938	-0.23333	-0.80417	-1.0729	-0.30833	-1.0771	-69.187	-136.326	-18.068	178.933	-145.727	-173.399	130.610	101.338	142.998	-67.411	-146.294	11.230	169.860	122.903	-81.248	109.092	0.0017909	0.00031737	0.00011718	1354.1	4.3085e-06	5.8309e-06	1353.4	366.71	5.1161e-06	5.0511e-06	419.55	139.59	121.98	41.776	1.0394e-05	51.599	0.00056702	0.00055731	0.0001558	1378.6	6.1263e-06	6.0986e-06	1377.7	374.31	6.0856e-06	6.0485e-06	427.81	143.07	125.03	42.908	6.1244e-06	53.231	50.776	163.305	-29.977	-161.312	-21.005	-72.171	-161.510	-156.753	-119.822	-87.969	-157.442	-153.206	-152.375	-147.651	-107.330	-148.536	-8191	255	
1975.856	1	1	0	0	0.098117	0.098083	0.28565	0.07304	0.083295	0.30842	0.24811	0.28669	0.088627	0.12391	0.21605	0.022091	0.18933	0.20939	0.38025	0.14398	-0.22708	-0.41667	-1.0688	-0.32917	-0.69792	-1.0771	-0.37292	-1.2333	-0.47917	-0.32917	-1.1583	-0.50417	-0.71667	-0.96875	-0.17292	-1.3333	-119.868	156.744	-138.417	-136.905	49.193	108.160	-166.797	170.800	-73.123	-37.138	-153.114	-11.756	135.819	144.692	-125.732	143.642	0.0014709	0.00070324	4.2187e-05	1352.6	2.9624e-06	4.1835e-06	1354.4	367.97	7.3309e-06	4.7245e-06	418.99	139.62	122.13	41.676	1.0564e-05	51.35	0.00056721	0.00055841	0.0001554	1380.3	6.0681e-06	6.0681e-06	1380.2	375.08	6.1663e-06	6.0976e-06	427.71	143.24	125.06	42.959	6.1211e-06	53.199	32.444	-86.357	-154.262	-161.394	-17.004	-90.799	-161.513	-156.709	-108.368	-60.957	-157.215	-153.165	-152.701	-147.716	-117.074	-148.510	-8191	255	
1975.952	1	1	0	0	0.17375	0.3707	0.15974	0.18417	0.40417	0.1651	0.2407	0.26184	0.159	0.27687	0.18962	0.21983	0.34974	0.17875	0.026075	0.10521	-0.45417	-0.11458	-1.1625	-0.54792	-0.48333	-1.0562	-0.56458	-1.1	-0.61458	-0.3875	-1.3708	-0.34583	-0.60417	-1.3292	-0.34375	-0.95625	-76.123	59.632	-21.771	99.642	-139.725	60.504	139.902	137.328	119.760	-14.018	136.051	144.530	151.368	146.664	-105.418	-159.363	0.0016558	0.00035476	4.8518e-05	1352.3	4.5181e-06	2.3892e-06	1353.4	366.52	9.6531e-06	3.4524e-06	416.59	139.77	122.48	41.511	2.8496e-06	51.379	0.00057218	0.00055787	0.00015506	1378.8	6.1032e-06	6.098e-06	1377.5	374.82	6.1609e-06	6.1288e-06	427.38	143.13	125.02	42.908	6.0967e-06	53.173	29.818	-110.040	-66.786	-161.302	-47.398	-52.739	-161.551	-156.707	-162.765	-77.798	-157.329	-153.366	-152.547	-147.778	178.950	-148.679	-8191	255	
#DATA ENDS
