BOXY.EXE: ISS Imagent and Oximeter Data Acquisition Program Version 0.80
Ascii Record File

#ACQ INFORMATION
2  Detector Channels 
16  External MUX Channels 
1  Auxiliary Channels 
5000  Waveform (CCF) Frequency (Hz)
1  Waveforms Skipped 
30  Waveforms Averaged 
1  Cycles Averaged 
16  Acquisitions per Waveform 
10.0806  Updata Rate (Hz) 

#FILE INFORMATION
TRUE -- External MUX Channel results are PARSED.
FALSE -- AC DC and Phase are NOT grouped.
TRUE -- Companion Program Settings File CREATED.
FALSE -- AC data not excluded
FALSE -- DC data not excluded
FALSE -- Phase data not excluded
FALSE -- Auxillary Chn. data not excluded
Tab delimiters

#CALIBRATION STATE
TRUE -- Waveform Calibration Values APPLIED.


#AUX CALIBRATION VALUES
Val Type	aux-1	

Term	1.0000e+00	
Factor	0.0000e+00	


#WF CALIBRATION VALUES
A = Detector Channel
Val Type	A-AC1	A-AC2	A-AC3	A-AC4	A-AC5	A-AC6	A-AC7	A-AC8	A-AC9	A-AC10	A-AC11	A-AC12	A-AC13	A-AC14	A-AC15	A-AC16	A-DC1	A-DC2	A-DC3	A-DC4	A-DC5	A-DC6	A-DC7	A-DC8	A-DC9	A-DC10	A-DC11	A-DC12	A-DC13	A-DC14	A-DC15	A-DC16	A-Ph1	A-Ph2	A-Ph3	A-Ph4	A-Ph5	A-Ph6	A-Ph7	A-Ph8	A-Ph9	A-Ph10	A-Ph11	A-Ph12	A-Ph13	A-Ph14	A-Ph15	A-Ph16	

Term	0.00000e+00	0.00000e+00	0.00000e+00	0.00000e+00	0.00000e+00	0.00000e+00	0.00000e+00	0.00000e+00	0.00000e+00	0.00000e+00	0.00000e+00	0.00000e+00	0.00000e+00	0.00000e+00	0.00000e+00	0.00000e+00	0.00000e+00	0.00000e+00	0.00000e+00	0.00000e+00	0.00000e+00	0.00000e+00	0.00000e+00	0.00000e+00	0.00000e+00	0.00000e+00	0.00000e+00	0.00000e+00	0.00000e+00	0.00000e+00	0.00000e+00	0.00000e+00	0.00000e+00	0.00000e+00	0.00000e+00	0.00000e+00	0.00000e+00	0.00000e+00	0.00000e+00	0.00000e+00	0.00000e+00	0.00000e+00	0.00000e+00	0.00000e+00	0.00000e+00	0.00000e+00	0.00000e+00	0.00000e+00	
Factor	1.00000e+00	1.00000e+00	1.00000e+00	1.00000e+00	1.00000e+00	1.00000e+00	1.00000e+00	1.00000e+00	1.00000e+00	1.00000e+00	1.00000e+00	1.00000e+00	1.00000e+00	1.00000e+00	1.00000e+00	1.00000e+00	1.00000e+00	1.00000e+00	1.00000e+00	1.00000e+00	1.00000e+00	1.00000e+00	1.00000e+00	1.00000e+00	1.00000e+00	1.00000e+00	1.00000e+00	1.00000e+00	1.00000e+00	1.00000e+00	1.00000e+00	1.00000e+00	X	X	X	X	X	X	X	X	X	X	X	X	X	X	X	X	

B = Detector Channel
Val Type	B-AC1	B-AC2	B-AC3	B-AC4	B-AC5	B-AC6	B-AC7	B-AC8	B-AC9	B-AC10	B-AC11	B-AC12	B-AC13	B-AC14	B-AC15	B-AC16	B-DC1	B-DC2	B-DC3	B-DC4	B-DC5	B-DC6	B-DC7	B-DC8	B-DC9	B-DC10	B-DC11	B-DC12	B-DC13	B-DC14	B-DC15	B-DC16	B-Ph1	B-Ph2	B-Ph3	B-Ph4	B-Ph5	B-Ph6	B-Ph7	B-Ph8	B-Ph9	B-Ph10	B-Ph11	B-Ph12	B-Ph13	B-Ph14	B-Ph15	B-Ph16	

Term	0.00000e+00	0.00000e+00	0.00000e+00	0.00000e+00	0.00000e+00	0.00000e+00	0.00000e+00	0.00000e+00	0.00000e+00	0.00000e+00	0.00000e+00	0.00000e+00	0.00000e+00	0.00000e+00	0.00000e+00	0.00000e+00	0.00000e+00	0.00000e+00	0.00000e+00	0.00000e+00	0.00000e+00	0.00000e+00	0.00000e+00	0.00000e+00	0.00000e+00	0.00000e+00	0.00000e+00	0.00000e+00	0.00000e+00	0.00000e+00	0.00000e+00	0.00000e+00	6.90162e+01	-1.56128e+02	-1.16186e+02	-1.81639e+02	-7.96074e+01	-9.11058e+01	-1.56882e+02	-1.62015e+02	-1.33922e+02	-6.75792e+01	-1.72122e+02	-1.69516e+02	-1.85555e+02	-1.76516e+02	-9.85877e+01	-1.49146e+02	
Factor	6.21861e-05	1.15743e-04	3.18327e-05	1.64936e-01	1.44916e-06	1.20847e-06	1.76422e-01	5.14978e-02	1.99006e-06	1.27802e-06	8.81120e-02	2.83650e-02	2.55766e-02	8.90638e-03	1.90026e-06	1.25959e-02	1.53080e-06	1.58230e-06	4.40569e-07	8.63224e-02	1.72893e-08	1.73607e-08	8.67342e-02	2.69960e-02	1.72581e-08	1.73857e-08	4.42118e-02	1.42717e-02	1.32884e-02	4.65608e-03	1.73092e-08	6.35628e-03	X	X	X	X	X	X	X	X	X	X	X	X	X	X	X	X	



#DISTANCE SETTINGS
A = Detector Channel
A-1	A-2	A-3	A-4	A-5	A-6	A-7	A-8	A-9	A-10	A-11	A-12	A-13	A-14	A-15	A-16	

2.5000e+00	3.0000e+00	2.5000e+00	3.0000e+00	2.0000e+00	3.0000e+00	1.5000e+00	3.0000e+00	3.0000e+00	3.0000e+00	3.0000e+00	3.0000e+00	3.0000e+00	3.0000e+00	1.5000e+00	3.0000e+00	

B = Detector Channel
B-1	B-2	B-3	B-4	B-5	B-6	B-7	B-8	B-9	B-10	B-11	B-12	B-13	B-14	B-15	B-16	

1.0000e+01	1.0000e+01	1.0000e+01	1.4400e+00	1.0000e+01	1.0000e+01	1.5100e+00	1.9400e+00	1.0000e+01	1.0000e+01	1.9900e+00	2.4900e+00	2.4100e+00	2.9000e+00	1.0000e+01	2.9800e+00	




#DATA BEGINS
time	group	step	mark	flag	A-AC1	A-AC2	A-AC3	A-AC4	A-AC5	A-AC6	A-AC7	A-AC8	A-AC9	A-AC10	A-AC11	A-AC12	A-AC13	A-AC14	A-AC15	A-AC16	A-DC1	A-DC2	A-DC3	A-DC4	A-DC5	A-DC6	A-DC7	A-DC8	A-DC9	A-DC10	A-DC11	A-DC12	A-DC13	A-DC14	A-DC15	A-DC16	A-Ph1	A-Ph2	A-Ph3	A-Ph4	A-Ph5	A-Ph6	A-Ph7	A-Ph8	A-Ph9	A-Ph10	A-Ph11	A-Ph12	A-Ph13	A-Ph14	A-Ph15	A-Ph16	B-AC1	B-AC2	B-AC3	B-AC4	B-AC5	B-AC6	B-AC7	B-AC8	B-AC9	B-AC10	B-AC11	B-AC12	B-AC13	B-AC14	B-AC15	B-AC16	B-DC1	B-DC2	B-DC3	B-DC4	B-DC5	B-DC6	B-DC7	B-DC8	B-DC9	B-DC10	B-DC11	B-DC12	B-DC13	B-DC14	B-DC15	B-DC16	B-Ph1	B-Ph2	B-Ph3	B-Ph4	B-Ph5	B-Ph6	B-Ph7	B-Ph8	B-Ph9	B-Ph10	B-Ph11	B-Ph12	B-Ph13	B-Ph14	B-Ph15	B-Ph16	aux-1	digaux	

3357.085	1	1	0	768	0.16853	0.26179	0.15173	0.11986	0.073315	0.063884	0.072187	0.36446	0.12432	0.078962	0.17394	0.069887	0.3008	0.21224	0.19425	0.25865	-0.58542	-0.17708	-1.1729	-0.68333	-0.28542	-1.0875	-0.33333	-0.8875	-0.875	-0.13333	-1.15	-0.56667	-0.43125	-1.2667	-0.55	-0.66667	68.934	-18.597	15.612	293.350	284.081	170.229	78.534	259.854	-44.491	177.035	38.300	233.337	34.603	84.446	81.812	111.164	0.0001116	0.00012111	7.3221e-05	666.8	5.7239e-06	1.1929e-06	555.87	193.5	1.2441e-06	5.0484e-06	171.53	57.022	56.926	19.46	4.7148e-06	23.585	0.0002444	0.00023854	6.7925e-05	628.76	2.6479e-06	2.6379e-06	525.88	183.78	2.654e-06	2.658e-06	163.65	54.701	54.448	18.812	2.6757e-06	22.601	-9.963	-46.455	91.123	-48.626	153.064	97.155	-49.864	-43.455	13.349	214.434	-46.289	-42.393	-39.057	-34.935	109.405	-38.635	-8191	255	
3357.182	1	1	0	0	0.1185	0.085162	0.11328	0.14293	0.04139	0.1802	0.12216	0.43919	0.0051685	0.24829	0.18663	0.09473	0.1503	0.31897	0.053497	0.12375	-0.53333	-0.20833	-1.0479	-0.74167	-0.30417	-1.1167	-0.33542	-0.72292	-1.1354	-0.12917	-0.91042	-0.82708	-0.33333	-1.2167	-0.41458	-0.47917	50.342	-40.690	266.172	-59.518	-1.599	61.105	89.308	264.999	175.010	169.554	152.387	-56.914	288.197	-50.237	84.868	203.993	0.00025153	0.00071156	8.1574e-05	668.25	1.9399e-06	4.3078e-06	563.68	194.44	4.5123e-06	2.3118e-06	173.92	57.824	57.211	19.639	8.7767e-06	23.779	0.00024302	0.00024309	6.8115e-05	630.88	2.6687e-06	2.6087e-06	532.08	184.71	2.6838e-06	2.6895e-06	166.46	55.28	54.715	18.922	2.6404e-06	22.806	-4.289	-8.764	-26.471	-48.931	221.233	62.038	-50.366	-43.713	2.261	52.541	-46.075	-41.974	-39.152	-35.286	65.914	-38.745	-8191	255	
3357.278	1	1	0	0	0.16105	0.14853	0.2891	0.17651	0.23017	0.10922	0.16506	0.12045	0.21286	0.25569	0.12861	0.10371	0.069909	0.45322	0.10436	0.17415	-0.87083	-0.0083333	-0.78125	-0.91875	-0.28125	-1.1562	-0.52083	-0.58958	-1.1271	-0.22083	-0.71875	-1.0333	-0.083333	-1.0542	-0.61875	-0.525	44.354	220.260	261.112	96.644	12.504	60.400	49.601	33.506	240.487	109.700	268.613	155.528	71.827	286.545	34.707	2.360	0.00032464	0.00038619	4.7336e-05	664.25	3.7288e-06	2.7917e-06	562.16	196.81	6.2386e-06	3.3642e-06	176.6	58.585	57.92	19.744	5.2256e-06	23.934	0.00024344	0.00024926	6.9011e-05	631.19	2.6707e-06	2.6675e-06	533.18	185.48	2.6904e-06	2.7109e-06	167.98	56.004	55.189	18.994	2.6987e-06	22.929	-30.133	294.033	165.516	-48.475	235.574	-49.402	-50.188	-43.389	9.814	176.659	-46.411	-42.227	-39.372	-34.860	69.230	-38.955	-8191	255	
3357.374	1	1	0	0	0.32227	0.064719	0.20077	0.1478	0.055443	0.16688	0.2979	0.077881	0.18338	0.10771	0.16697	0.25438	0.34883	0.1119	0.21643	0.25379	-0.79375	-0.14792	-0.83125	-1.1167	-0.23333	-1.0208	-0.65	-0.26875	-1.2208	-0.34792	-0.75625	-1.0396	-0.18125	-0.96042	-0.66875	-0.29792	-48.265	106.564	210.692	-58.382	198.083	140.686	173.108	-48.563	111.166	90.346	-10.137	241.954	-32.703	225.720	229.353	267.854	0.00025222	0.00027965	7.8517e-05	670.15	3.3017e-06	2.1019e-06	569.94	196.07	1.5582e-06	2.8477e-06	178.74	58.91	58.265	19.76	1.209e-07	23.912	0.00024775	0.00024474	7.0029e-05	633.94	2.7193e-06	2.6908e-06	541.27	185.67	2.6706e-06	2.6959e-06	170.07	56.532	55.522	19.092	2.7306e-06	23.087	-5.527	249.855	58.640	-48.435	-8.905	-20.731	-50.427	-43.754	-5.316	-23.977	-46.020	-41.730	-38.757	-34.982	-60.094	-38.655	-8191	255	
3357.470	1	1	0	0	0.19216	0.23895	0.032886	0.32187	0.015441	0.040612	0.44251	0.13979	0.020476	0.30574	0.28181	0.14083	0.02954	0.18547	0.15671	0.23838	-0.92083	-0.28958	-0.56458	-1.1042	-0.095833	-0.925	-0.66875	-0.22292	-1.0771	-0.18958	-0.60625	-1.1604	-0.35208	-0.7625	-0.61875	-0.085417	148.707	132.279	9.513	227.439	-7.557	222.838	100.177	276.760	248.658	159.305	271.381	222.988	49.068	162.302	39.118	276.773	0.0002561	0.00056431	0.00014549	665.29	4.8415e-06	2.2382e-06	558.41	194.08	7.0859e-06	2.8743e-06	173.11	57.547	57.575	19.846	7.027e-06	23.738	0.00024724	0.00024678	6.8464e-05	631.38	2.6897e-06	2.6971e-06	530.11	184.41	2.6297e-06	2.6495e-06	165.13	55.101	54.783	18.942	2.6218e-06	22.695	0.809	-39.953	39.529	-48.537	7.050	-2.209	-49.535	-43.680	68.132	41.473	-46.487	-41.904	-39.238	-34.941	162.086	-38.981	-8191	255	
3357.566	1	1	0	0	0.22912	0.20358	0.093387	0.24788	0.16193	0.29995	0.02008	0.2412	0.32151	0.17476	0.14229	0.083726	0.16669	0.34606	0.16644	0.10685	-0.4625	-0.36458	-0.2375	-1.0979	-0.33542	-0.70833	-0.92292	0.06875	-1.0312	-0.58542	-0.34583	-1.1458	-0.41667	-0.87292	-0.96875	-0.44167	110.536	38.307	64.055	262.675	165.012	114.847	245.619	197.267	-33.359	19.964	-53.220	163.757	221.401	261.086	293.920	160.928	5.8721e-05	4.574e-05	5.5423e-05	666.11	3.9102e-06	3.5557e-07	559.52	194.87	2.2312e-06	4.5871e-06	175.03	58.353	58.066	19.959	3.2252e-06	23.979	0.0002458	0.00024528	6.7198e-05	628.86	2.6687e-06	2.6493e-06	531.34	184.91	2.6748e-06	2.6779e-06	167.15	55.92	55.263	19.165	2.6884e-06	23.016	13.308	8.373	103.673	-48.472	27.081	74.421	-49.989	-43.339	27.319	47.673	-46.320	-41.591	-39.661	-35.170	293.704	-38.521	-8191	255	
3357.687	1	1	0	0	0.23722	0.39527	0.039513	0.2464	0.15632	0.081531	0.11714	0.32776	0.031828	0.14097	0.10305	0.35049	0.084889	0.13347	0.017712	0.039852	-0.47292	-0.66458	-0.41667	-1.2437	-0.34167	-0.48958	-1.1083	-0.01875	-1.0646	-0.70625	-0.2625	-1.1604	-0.27292	-0.60833	-1.0083	-0.325	31.610	75.293	139.209	-20.519	3.332	88.798	227.065	32.075	234.041	22.421	282.338	-25.959	59.437	-52.359	4.298	116.005	0.00017762	0.00023981	5.7705e-05	672.39	3.9421e-06	4.5036e-06	569.86	198.21	4.3839e-06	2.2001e-06	179.45	59.645	59.338	20.577	2.4786e-06	24.449	0.00024087	0.00024351	6.7654e-05	635.18	2.7275e-06	2.6606e-06	539.98	188.09	2.6703e-06	2.6283e-06	170.71	57.22	56.615	19.637	2.6605e-06	23.573	-12.331	28.505	250.981	-48.365	-56.144	41.565	-50.157	-43.595	53.365	9.898	-46.545	-41.405	-39.143	-35.204	11.492	-38.704	-8191	255	
3357.781	1	1	0	0	0.40571	0.18118	0.10137	0.10782	0.28598	0.17493	0.32393	0.19955	0.087944	0.12209	0.11778	0.12939	0.12446	0.21681	0.11926	0.1413	-0.49375	-0.60833	-0.089583	-1.0021	-0.41875	-0.4875	-1.2125	-0.2625	-0.92292	-1.05	0.045833	-1.2083	-0.5625	-0.3625	-1.0458	-0.34375	95.694	58.323	120.211	219.239	63.129	-38.662	252.280	248.464	58.323	256.772	163.416	3.883	168.591	-27.884	34.092	148.027	0.00046462	0.0004938	0.00012949	679.01	2.0665e-06	3.4942e-06	583.47	201.87	1.043e-06	2.9453e-06	182.35	60.98	60.095	20.63	6.3804e-06	24.943	0.00024601	0.00024147	6.795e-05	643.15	2.6899e-06	2.6406e-06	549.19	191.02	2.6869e-06	2.6489e-06	173.81	58.231	57.158	19.82	2.6765e-06	23.891	-12.167	266.936	-7.848	-48.419	9.928	65.035	-50.363	-43.579	86.940	41.177	-46.482	-42.012	-38.819	-34.983	38.752	-38.509	-8191	255	
3357.877	1	1	0	0	0.11416	0.28462	0.18485	0.2737	0.18609	0.24724	0.14363	0.11131	0.19763	0.057204	0.1256	0.40703	0.082494	0.082049	0.19843	0.067646	-0.23542	-0.87292	-0.31667	-0.925	-0.425	-0.31042	-1.1	-0.26875	-0.90625	-1.0958	-0.12917	-1.0979	-0.69792	-0.40833	-0.98958	-0.225	269.441	268.820	-28.951	-3.198	-8.023	-2.394	227.409	220.403	56.374	192.323	21.462	-52.838	96.574	201.960	117.568	-7.942	0.00037588	0.00012468	0.00011749	680.91	3.8774e-06	1.192e-06	576.08	203.05	2.7125e-06	4.1244e-06	179.71	59.745	59.66	20.518	1.4042e-06	24.347	0.00024995	0.00024346	6.8358e-05	645.34	2.6333e-06	2.6398e-06	547.88	191.06	2.6422e-06	2.6321e-06	171.46	57.252	56.753	19.691	2.5724e-06	23.476	-36.105	85.505	41.620	-48.339	133.007	165.140	-49.619	-43.908	201.824	35.679	-46.282	-42.364	-39.504	-35.014	262.810	-38.390	-8191	255	
3357.974	1	1	0	0	0.19183	0.030701	0.072634	0.26225	0.22376	0.073266	0.23476	0.23135	0.10169	0.057713	0.24983	0.22441	0.071605	0.17875	0.17847	0.23577	-0.39583	-0.98125	0.052083	-0.98125	-0.70625	-0.10417	-1.075	-0.66667	-0.59583	-1.075	-0.38542	-1.0604	-0.97083	-0.25417	-1.1771	-0.3	83.392	58.886	142.696	274.555	25.934	208.325	191.701	284.056	103.567	132.216	168.734	169.316	251.089	263.003	163.369	201.529	0.0001097	0.00047952	2.6952e-05	672.88	3.771e-06	1.5859e-06	563.45	199.36	3.6732e-06	3.3768e-06	177.82	59.605	59.365	20.552	5.096e-06	24.729	0.00023976	0.00023571	6.5863e-05	636.18	2.5529e-06	2.6106e-06	535.38	189.03	2.6095e-06	2.5676e-06	169.6	56.993	56.653	19.74	2.5662e-06	23.686	30.014	50.738	-52.430	-48.141	193.572	189.969	-50.155	-43.371	36.810	-28.130	-46.474	-41.789	-39.208	-35.115	123.097	-38.234	-8191	255	
3358.070	1	1	0	0	0.14513	0.18521	0.11346	0.25883	0.056571	0.10852	0.1906	0.25723	0.33957	0.063758	0.055022	0.079768	0.033785	0.27381	0.12447	0.049508	0.022917	-1.0667	-0.08125	-0.7875	-0.8125	-0.25417	-1.1083	-0.64792	-0.1125	-1.0208	-0.33958	-0.54792	-0.9125	-0.2	-0.89375	-0.75833	293.971	223.983	106.060	284.147	200.149	34.762	97.860	231.547	151.214	-11.632	224.954	298.339	228.872	109.232	71.840	182.164	0.00030708	0.00012585	1.4034e-05	678.08	4.4723e-06	8.5121e-06	579.62	200.81	5.3685e-06	5.3718e-06	180.87	60.236	59.709	20.798	4.9241e-06	25.057	0.0002363	0.00023769	6.6817e-05	642.06	2.6043e-06	2.6157e-06	546.53	190.4	2.6485e-06	2.5886e-06	173.59	58.135	57.298	19.934	2.6203e-06	23.977	-32.811	148.697	36.720	-48.367	86.599	146.414	-49.946	-43.564	244.506	55.320	-46.095	-41.898	-39.238	-35.064	115.039	-38.712	-8191	255	
3358.166	1	1	0	0	0.20481	0.14297	0.16669	0.31401	0.11953	0.28506	0.14145	0.2916	0.31867	0.10324	0.12913	0.44856	0.26519	0.071874	0.25572	0.038271	0.11875	-0.90833	-0.34167	-0.66458	-1.1021	-0.075	-1.1437	-0.85	-0.43542	-1.2354	-0.3875	-0.59375	-1.1437	-0.38958	-1.0729	-0.74792	-11.783	192.583	222.970	281.061	147.005	58.370	237.498	107.396	126.385	-14.829	147.828	189.823	198.129	30.617	44.328	279.797	0.0003472	0.0001441	2.3384e-05	679.31	3.4579e-06	5.0655e-06	578	202.31	8.4502e-06	4.1851e-06	184.17	61.295	60.359	20.749	6.7095e-06	25.37	0.00023985	0.00024012	6.6774e-05	642.76	2.6492e-06	2.6071e-06	549.86	191.39	2.6475e-06	2.5725e-06	175.15	58.776	57.504	19.905	2.6686e-06	24.119	1.903	67.981	224.181	-48.203	178.713	69.246	-49.694	-43.574	155.277	241.351	-46.470	-42.019	-39.186	-34.852	-54.409	-38.582	-8191	255	
3358.286	1	1	0	0	0.023195	0.034538	0.15166	0.12817	0.10468	0.073068	0.14504	0.40167	0.067548	0.33841	0.34662	0.06243	0.23977	0.18788	0.10796	0.055478	0.097917	-0.86667	-0.325	-0.66875	-1.0312	-0.1375	-1.0458	-0.7875	-0.19375	-1.0604	-0.55208	-0.525	-1.0417	-0.25208	-0.7875	-0.85208	266.785	248.173	222.868	221.428	209.364	223.212	256.653	225.629	8.123	267.002	280.047	-55.953	20.865	-16.266	229.552	44.615	0.00026405	4.1939e-05	3.2204e-05	686.3	1.9355e-06	3.8987e-06	585.4	202.9	3.8362e-06	1.2461e-06	183.21	60.941	58.901	20.429	4.0485e-06	24.567	0.00023965	0.00024444	6.7754e-05	648.22	2.6398e-06	2.6437e-06	555.73	191.99	2.6194e-06	2.6475e-06	175.19	58.292	56.555	19.621	2.6373e-06	23.605	20.078	288.885	-19.576	-48.029	-48.698	31.019	-49.797	-43.781	-19.706	68.567	-46.033	-41.658	-39.283	-34.846	138.342	-38.759	-8191	255	
3358.383	1	1	0	0	0.18141	0.21803	0.075273	0.1304	0.17717	0.098865	0.22124	0.3234	0.052517	0.13881	0.28625	0.088378	0.16363	0.060477	0.16281	0.069947	0.26458	-1.0458	-0.37083	-0.4	-1.1313	-0.32292	-0.83333	-1.0583	-0.18333	-0.98958	-0.675	-0.24792	-1.3625	-0.14167	-0.47083	-0.97292	134.988	191.104	124.973	219.824	80.263	127.067	238.601	185.499	-29.161	180.674	-37.707	262.291	198.028	294.085	259.223	275.365	7.0334e-05	0.00035805	8.5616e-05	668.85	8.2742e-07	2.9958e-07	561.24	198.87	5.314e-06	4.1127e-06	176.58	59.958	59.512	20.675	1.1606e-05	24.565	0.00024552	0.000241	6.7114e-05	631.34	2.5834e-06	2.6122e-06	535.05	188.42	2.6428e-06	2.5748e-06	168.8	56.95	56.615	19.78	2.5893e-06	23.542	-8.690	-31.127	230.218	-48.245	219.167	265.452	-49.860	-43.495	31.622	69.999	-46.500	-42.355	-39.171	-35.505	96.796	-38.934	-8191	255	
3358.479	1	1	0	0	0.25019	0.33125	0.058609	0.20786	0.096195	0.12604	0.51008	0.15688	0.050799	0.16389	0.07879	0.38898	0.19123	0.23914	0.31484	0.16126	0.28958	-0.64583	-0.78333	-0.30208	-1.1875	-0.4125	-0.425	-1.1667	-0.17292	-0.78125	-0.6375	-0.27708	-1.1437	-0.54375	-0.4	-1.1229	-36.034	267.049	-1.190	-19.515	4.154	143.913	203.459	191.499	9.075	239.090	140.384	-32.962	31.062	8.024	95.624	-10.919	7.8842e-05	0.00020152	0.00013705	667.96	2.2762e-06	1.6792e-06	565.31	198.73	6.864e-06	5.7396e-07	177.74	58.649	58.726	20.315	5.2733e-06	24.527	0.00023773	0.00023476	6.6816e-05	633.11	2.6096e-06	2.667e-06	534.88	187.88	2.6439e-06	2.5882e-06	168.76	56.597	56.166	19.59	2.6297e-06	23.388	-22.573	-11.032	63.049	-48.497	78.648	-58.470	-50.302	-43.844	152.363	69.027	-47.334	-42.066	-39.597	-35.183	100.066	-38.719	-8191	255	
3358.573	1	1	0	0	0.18286	0.19948	0.18214	0.096028	0.25983	0.050268	0.38045	0.19557	0.30705	0.2347	0.23515	0.089314	0.11974	0.27529	0.037662	0.068004	0.14583	-0.62708	-0.86875	-0.15208	-1.0812	-0.63958	-0.37083	-1.1146	-0.24375	-0.62292	-0.97292	-0.11875	-1.0187	-0.43333	-0.3625	-1.1979	242.344	194.280	290.716	158.558	47.242	61.747	253.362	226.678	-13.532	213.270	101.471	122.400	252.842	71.406	234.455	207.900	0.00039282	0.00036915	0.00014614	670.97	9.9825e-07	2.2191e-06	565.62	198.49	3.5002e-06	3.5274e-06	178.77	59.827	58.947	20.244	8.3216e-06	24.401	0.00024372	0.00023968	6.6016e-05	634.18	2.6223e-06	2.5999e-06	538.62	187.66	2.6473e-06	2.6088e-06	170.14	56.967	56.287	19.574	2.6305e-06	23.521	-39.362	-55.281	97.596	-48.898	286.377	158.614	-50.808	-44.172	88.279	147.888	-46.842	-42.832	-39.340	-35.709	101.842	-39.603	-8191	255	
3358.647	1	1	0	0	0.18474	0.26324	0.11362	0.22884	0.28444	0.21466	0.16416	0.47993	0.15011	0.23525	0.089465	0.11431	0.25259	0.26671	0.09317	0.054437	0.19167	-0.78958	-0.99375	-0.05625	-0.91458	-0.76875	-0.30625	-1.1604	-0.26667	-0.575	-0.975	-0.22917	-0.75208	-0.74167	-0.2375	-0.96667	30.212	200.333	25.310	274.848	-13.441	138.528	-3.027	256.014	222.815	-7.888	233.329	16.757	-26.732	29.578	-45.321	127.774	0.00024655	0.00018967	6.1137e-05	676.28	6.1478e-06	3.2437e-06	571.43	198.95	8.8049e-06	2.7422e-06	180.08	59.903	59.449	20.479	3.0997e-06	24.673	0.00024366	0.00023441	6.741e-05	637.16	2.6709e-06	2.6681e-06	542.56	188.84	2.6301e-06	2.6138e-06	172.02	57.448	56.471	19.676	2.6334e-06	23.723	-18.779	66.961	115.281	-48.787	73.121	-17.741	-50.374	-44.127	-50.098	237.695	-46.829	-42.397	-39.320	-35.754	-28.684	-39.484	-8191	255	
3358.765	1	1	0	0	0.12397	0.20771	0.38091	0.38041	0.19155	0.087775	0.051634	0.086182	0.25041	0.11711	0.20605	0.06953	0.16828	0.15423	0.14882	0.15999	0.0625	-0.53542	-0.83125	-0.020833	-0.8	-0.64792	-0.21875	-0.93542	-0.4375	-0.22083	-1.0917	-0.225	-0.68333	-0.86667	-0.14583	-1.1146	186.568	-35.797	-12.041	-58.510	48.924	129.820	284.115	-38.283	235.418	177.380	236.165	241.750	-54.936	21.807	112.843	212.768	0.00025919	0.00015081	0.00011362	671.22	3.4692e-06	2.8342e-06	558.01	196.36	7.2815e-06	1.8004e-06	173.68	57.459	58.232	20.152	5.6635e-06	23.797	0.00023997	0.00024068	6.5663e-05	633.8	2.6319e-06	2.6316e-06	532.17	186.33	2.6453e-06	2.6163e-06	166.21	55.375	55.375	19.262	2.5849e-06	22.829	1.832	279.461	20.643	-49.092	132.025	-8.018	-50.736	-44.169	261.006	76.920	-46.853	-42.235	-40.016	-35.677	150.598	-39.021	-8191	255	
3358.862	1	1	0	0	0.18255	0.23104	0.28975	0.22792	0.12154	0.084342	0.35201	0.081685	0.032759	0.072738	0.26922	0.13417	0.16153	0.2514	0.20905	0.16101	0.05625	-0.44792	-0.89375	-0.22083	-0.8	-1.0958	-0.3375	-1.1771	-0.54167	-0.23958	-1.2125	-0.25208	-0.63333	-1.025	-0.30208	-0.9875	87.205	-18.984	-48.004	-27.779	208.718	142.030	286.757	-46.701	71.016	77.315	259.037	294.673	187.173	279.903	111.364	213.450	0.0003567	0.00028787	0.00013538	665.62	4.9722e-06	3.1042e-06	554.28	195.93	2.3771e-06	3.8832e-06	172.71	57.347	58.228	19.98	8.8946e-06	23.922	0.00024012	0.0002383	6.5652e-05	627.45	2.5713e-06	2.5941e-06	524.66	185.35	2.6146e-06	2.5915e-06	165.18	55.091	55.273	19.153	2.6624e-06	22.861	-16.409	-2.232	46.365	-49.107	60.463	93.949	-50.789	-44.119	163.165	82.855	-46.583	-42.373	-39.644	-35.642	-5.953	-39.005	-8191	255	
3358.960	1	1	0	0	0.15597	0.14507	0.082211	0.020591	0.26444	0.11898	0.15521	0.24211	0.13864	0.14668	0.1432	0.16497	0.20785	0.10282	0.31073	0.19814	-0.39167	-0.12708	-1.1042	-0.4875	-0.47917	-1.2125	-0.17292	-0.95833	-0.87083	-0.20417	-1.1812	-0.48125	-0.60833	-1.1063	-0.32292	-0.87083	159.635	44.180	42.100	291.431	277.459	147.887	-41.905	-44.996	99.588	-14.811	15.945	237.483	282.061	59.254	283.866	-36.460	0.0003826	0.00048099	3.4236e-05	661.74	7.5443e-07	4.4648e-06	558.4	197.1	3.0986e-06	3.8969e-06	175.52	58.298	58.087	20.115	6.754e-06	23.944	0.00023592	0.00024198	6.6776e-05	626.91	2.6436e-06	2.581e-06	530.41	186.14	2.6896e-06	2.6318e-06	167.01	55.739	55.364	19.315	2.672e-06	23.087	21.812	-15.130	77.014	-49.130	129.072	19.571	-50.630	-43.868	33.518	152.372	-47.204	-42.241	-39.471	-34.915	254.976	-39.260	-8191	255	
3359.078	1	1	0	0	0.18075	0.045395	0.16313	0.16222	0.092586	0.13438	0.24415	0.16933	0.17122	0.14441	0.20797	0.31023	0.3697	0.085993	0.21028	0.14837	-0.22083	-0.14375	-0.93542	-0.41875	-0.41875	-1.0438	-0.30625	-0.82292	-0.88125	-0.064583	-1.0583	-0.56667	-0.18333	-1.2167	-0.19792	-0.67917	-5.531	191.396	222.145	265.966	274.976	170.796	180.994	242.044	216.198	-52.720	274.170	290.400	-0.954	255.933	167.470	86.070	0.00037497	0.00029984	0.00010683	672.01	3.0876e-06	3.4126e-06	564.15	199.04	7.0097e-06	3.2972e-06	176.72	58.848	57.989	19.948	4.915e-06	23.896	0.00023876	0.00024003	6.6818e-05	634.31	2.5969e-06	2.622e-06	537.02	187.94	2.6058e-06	2.6442e-06	168.73	56.305	55.639	19.199	2.6553e-06	23.05	-23.019	10.383	77.693	-49.198	73.679	77.807	-50.775	-44.012	34.037	-56.154	-46.720	-41.941	-39.734	-35.523	125.358	-39.413	-8191	255	
3359.175	1	1	0	0	0.081835	0.082807	0.095701	0.16744	0.21798	0.26982	0.067949	0.18708	0.26273	0.086353	0.40614	0.15731	0.41151	0.26557	0.058928	0.059576	-0.44583	0.041667	-0.96042	-0.57083	-0.31042	-1.0625	-0.3875	-0.5875	-0.8375	-0.15417	-1.0604	-0.61458	-0.24792	-1.0917	-0.33125	-0.64792	5.270	2.012	11.849	59.858	-56.695	3.768	108.037	-42.647	147.985	66.175	262.371	-8.255	-58.415	203.852	294.891	158.183	0.00020066	0.00031792	0.00012475	670.69	2.5858e-06	3.9997e-06	571.36	195.84	2.562e-06	1.2862e-06	173.42	57.226	57.789	19.713	6.1549e-06	23.3	0.00023981	0.00023968	6.6243e-05	634.57	2.7037e-06	2.6474e-06	537.7	186.29	2.6368e-06	2.6681e-06	165.92	54.865	54.809	18.847	2.592e-06	22.3	-53.346	-11.544	3.864	-49.048	165.229	219.809	-50.465	-43.752	256.654	227.805	-46.742	-42.294	-39.393	-35.516	246.570	-38.736	-8191	255	
3359.246	1	1	0	0	0.16223	0.013021	0.32643	0.18371	0.14933	0.07172	0.25735	0.17591	0.27609	0.08484	0.028021	0.21229	0.086268	0.23715	0.15913	0.16169	-0.81667	-0.39792	-0.82083	-1.0167	-0.1625	-1.1437	-0.5375	-0.375	-1.0938	-0.2375	-1.0458	-0.74792	-0.24167	-1.1063	-0.43958	-0.28125	-25.326	182.175	3.528	244.111	222.595	142.336	255.223	171.275	18.294	222.080	-37.154	159.055	-3.811	211.264	177.770	277.101	0.00015281	0.00046725	5.8136e-05	659.74	6.4951e-06	4.0542e-07	548.08	193.27	1.5229e-06	2.5237e-06	170.07	56.426	57.251	19.581	5.714e-06	23.301	0.00023634	0.00023694	6.6295e-05	622.98	2.5889e-06	2.5717e-06	518.54	183.55	2.625e-06	2.5877e-06	161.9	53.93	54.458	18.829	2.5629e-06	22.266	32.972	47.189	116.330	-48.651	124.833	286.804	-50.423	-43.437	243.229	274.654	-46.799	-42.799	-39.414	-36.180	147.448	-38.656	-8191	255	
3359.367	1	1	0	0	0.17179	0.18176	0.14933	0.16195	0.11154	0.12859	0.33879	0.26643	0.2259	0.19262	0.12093	0.056762	0.19516	0.23761	0.21795	0.40364	-0.67083	-0.22917	-0.72917	-1.1104	-0.23125	-1.075	-0.75417	-0.22083	-1.0083	-0.41667	-0.77917	-1.1313	-0.035417	-0.71875	-0.69375	-0.23958	65.149	96.637	204.912	244.194	10.187	132.445	246.484	237.818	292.045	246.520	67.644	-48.967	26.711	237.591	175.214	141.346	0.00040173	0.00023618	6.324e-05	662.84	2.9559e-06	4.1508e-06	555.43	194.31	5.4598e-06	2.1656e-06	171.76	56.958	57.181	19.764	6.1348e-07	23.345	0.00023166	0.00023066	6.5028e-05	626.87	2.5518e-06	2.5821e-06	526.82	184.54	2.5937e-06	2.5759e-06	164.31	54.596	54.608	18.888	2.56e-06	22.462	-31.450	74.698	-56.983	-48.816	79.106	7.213	-50.341	-44.159	-48.531	65.702	-47.146	-42.642	-39.436	-35.423	162.477	-39.176	-8191	255	
3359.463	1	1	0	0	0.14406	0.13164	0.096534	0.37343	0.28753	0.20449	0.12382	0.27305	0.15577	0.075344	0.014933	0.068998	0.33715	0.17871	0.15088	0.095674	-0.70833	-0.30208	-0.55208	-1.1771	-0.19583	-1.1208	-0.97708	-0.21875	-1.1875	-0.61667	-0.48125	-1.1021	-0.38958	-0.77917	-0.875	-0.16875	146.834	-23.237	186.359	-41.164	191.408	3.544	202.209	262.752	267.909	191.886	2.161	267.834	151.233	93.593	294.671	-40.708	0.00027168	0.00053562	3.8169e-05	662.92	3.0158e-06	3.5648e-06	558.64	195.64	2.6848e-06	2.7847e-06	174.58	57.958	57.936	19.7	8.0067e-08	23.471	0.00023664	0.00023404	6.4533e-05	628.57	2.5947e-06	2.56e-06	530.28	185.16	2.593e-06	2.5331e-06	166.59	55.32	55.182	18.945	2.5981e-06	22.596	-25.247	116.993	-44.339	-49.053	92.930	32.685	-50.366	-43.781	151.868	101.162	-47.007	-42.505	-39.131	-35.805	265.674	-39.288	-8191	255	
3359.559	1	1	0	0	0.15841	0.15059	0.17128	0.34634	0.13541	0.17624	0.13811	0.25775	0.11255	0.26009	0.13954	0.23589	0.01426	0.087711	0.15022	0.13326	-0.8125	-0.3625	-0.55625	-1.0917	-0.30833	-0.71458	-1.2083	-0.29375	-1	-0.77292	-0.4375	-1.0604	-0.41667	-0.7625	-0.94375	-0.26875	202.997	184.438	246.328	275.330	3.544	-22.129	224.469	-0.831	100.738	84.987	17.563	86.543	231.527	197.095	219.883	186.091	0.00016876	0.00026972	0.00012142	668.94	2.919e-06	2.1441e-06	568.8	199.17	5.5003e-06	2.6203e-06	177.29	58.597	58.789	19.903	8.0649e-06	23.986	0.00023897	0.00023416	6.5422e-05	633.11	2.5565e-06	2.5819e-06	538.81	188.1	2.5719e-06	2.6071e-06	169.18	56.09	55.824	19.157	2.5706e-06	22.813	40.156	-1.843	14.691	-48.872	91.785	239.155	-50.493	-43.967	66.791	76.146	-46.632	-42.492	-39.378	-35.344	67.419	-39.362	-8191	255	
3359.680	1	1	0	0	0.33897	0.14367	0.15982	0.11052	0.093538	0.11276	0.074564	0.26503	0.095865	0.24413	0.38875	0.19547	0.28688	0.22958	0.13659	0.24377	-0.69583	-0.56042	-0.38333	-1.2521	-0.13333	-0.55208	-1.15	-0.13125	-1.0375	-0.67083	-0.033333	-1.2104	-0.34167	-0.60833	-1.05	-0.28125	275.344	112.943	287.390	281.089	219.246	165.576	218.679	-56.150	172.096	228.920	229.240	223.049	208.575	-58.849	201.238	-29.890	0.00013233	0.00052098	0.00020621	669.44	9.7749e-07	2.5779e-06	555.93	196.47	5.361e-06	3.0915e-06	171.66	56.9	58.026	19.888	2.5873e-06	23.26	0.00023197	0.00023073	6.5248e-05	632.67	2.5791e-06	2.5381e-06	525.88	185.87	2.5236e-06	2.5263e-06	163.91	54.723	55.24	19.094	2.5149e-06	22.261	12.228	205.940	27.068	-48.553	236.692	-20.454	-50.442	-43.534	129.622	116.226	-46.875	-42.471	-39.896	-35.520	269.668	-38.896	-8191	255	
3359.774	1	1	0	0	0.16843	0.17623	0.17919	0.18181	0.092536	0.1905	0.11266	0.1459	0.25112	0.13899	0.34464	0.20489	0.16416	0.19063	0.12808	0.068428	-0.55833	-0.86875	-0.17708	-1.1562	-0.40625	-0.54583	-1.0542	-0.020833	-0.78958	-0.88333	-0.24167	-1.1021	-0.62917	-0.3	-1.2375	-0.45417	289.849	83.682	-15.172	188.422	275.537	193.605	5.517	276.832	-31.095	-7.049	237.196	151.907	187.539	249.256	213.178	260.777	0.00032491	0.0001699	0.00010172	668.81	1.3965e-06	4.4908e-06	549.8	196.55	8.6958e-06	1.9845e-06	170.95	56.912	58.471	19.893	3.8499e-06	23.608	0.00023049	0.00022621	6.5142e-05	630.39	2.5813e-06	2.5069e-06	524.47	186.2	2.4914e-06	2.527e-06	164.19	54.793	55.479	19.116	2.5066e-06	22.544	18.168	222.190	36.364	-48.696	140.660	66.193	-50.129	-43.581	-39.292	50.956	-46.239	-42.305	-39.289	-35.530	34.246	-39.536	-8191	255	
3359.870	1	1	0	0	0.3468	0.23425	0.252	0.17991	0.35858	0.071136	0.15424	0.26353	0.18569	0.04095	0.12619	0.18504	0.10931	0.27788	0.22822	0.10806	-0.20625	-0.85833	-0.29792	-1.125	-0.61875	-0.32708	-1.1875	-0.10625	-0.73542	-1.0938	-0.18333	-0.9375	-0.7125	-0.052083	-1.1063	-0.21875	115.900	53.337	152.799	4.145	70.471	-2.850	-50.598	218.550	150.375	208.349	119.653	189.869	162.592	-26.615	9.994	6.102	0.00022809	0.00072406	5.7389e-05	668.34	1.9119e-06	4.6811e-06	560.76	198.17	2.1165e-06	4.3771e-06	175.18	58.458	59.002	20.144	5.6002e-07	23.961	0.00022733	0.0002293	6.4525e-05	633.16	2.5164e-06	2.4957e-06	532.04	187.9	2.4913e-06	2.4976e-06	167.13	55.699	56.02	19.256	2.5336e-06	22.779	-23.000	29.817	55.799	-48.686	68.804	55.983	-50.391	-43.875	140.665	48.127	-46.820	-42.335	-39.613	-35.354	20.716	-39.270	-8191	255	
3359.942	1	1	0	0	0.11705	0.1681	0.14652	0.30673	0.14307	0.11147	0.11008	0.053901	0.088819	0.1359	0.10736	0.10405	0.18071	0.10935	0.054446	0.22013	-0.16875	-1.05	-0.17917	-1.0708	-0.97708	-0.31667	-1.1875	-0.34375	-0.45833	-1.2417	-0.39583	-0.80208	-0.78125	-0.25417	-1.1146	-0.43958	218.004	104.449	286.409	282.812	50.937	165.778	-38.606	238.866	87.498	241.390	122.318	272.580	145.828	168.394	6.675	270.596	0.00029127	2.208e-05	5.8389e-05	678.25	3.914e-06	2.5657e-06	565.36	200.23	9.3332e-07	1.1912e-06	177.25	59.231	59.406	20.224	4.6577e-06	23.997	0.00022991	0.00022783	6.4436e-05	639.15	2.5606e-06	2.4916e-06	538.11	189.4	2.5276e-06	2.5223e-06	169.33	56.386	56.477	19.433	2.4641e-06	23	-51.744	289.770	23.015	-48.769	127.828	77.254	-49.990	-44.339	257.023	128.130	-47.105	-42.416	-39.771	-35.434	50.399	-39.222	-8191	255	
3360.063	1	1	0	0	0.06488	0.12377	0.13778	0.060355	0.1648	0.13529	0.33712	0.093316	0.049184	0.15657	0.12695	0.13526	0.21157	0.23632	0.46078	0.15023	-0.15208	-0.99583	-0.33125	-0.8875	-0.77292	-0.18542	-0.94375	-0.51875	-0.52708	-0.98958	-0.37708	-0.76667	-1.1208	-0.24792	-1.0312	-0.5875	-30.353	107.174	201.050	196.887	217.896	222.165	271.182	-30.559	246.773	14.964	-28.632	31.828	59.831	-31.614	-13.976	159.092	0.00022233	0.00027435	8.4047e-05	678.53	2.1513e-06	4.0606e-06	563.25	199.4	4.5322e-06	3.4455e-06	175.06	58.408	59.09	20.12	6.6158e-06	23.291	0.00022846	0.00022859	6.295e-05	640.95	2.4848e-06	2.5299e-06	534.51	188.96	2.4823e-06	2.4888e-06	166.26	55.53	56.105	19.276	2.4255e-06	22.454	10.940	213.660	4.090	-48.641	136.410	65.256	-50.204	-44.054	102.013	84.970	-46.836	-42.257	-39.684	-35.405	36.677	-39.639	-8191	255	
3360.159	1	1	0	0	0.064372	0.29868	0.13057	0.27526	0.051682	0.21014	0.12721	0.060312	0.13642	0.096431	0.1759	0.039825	0.19698	0.18176	0.33025	0.12823	-0.05625	-1.1396	-0.28333	-0.50625	-1.0417	-0.19375	-0.97708	-0.76458	-0.32292	-1.2271	-0.48333	-0.59375	-1.1792	-0.21667	-1.2396	-0.75417	-59.217	203.742	18.709	273.424	18.897	-23.956	47.590	218.546	196.210	6.460	2.630	-6.156	237.329	69.138	-4.226	228.576	0.00015824	0.00045003	7.1611e-05	670.34	1.5749e-06	5.406e-07	553.12	199.41	2.9432e-06	2.8579e-06	173.43	57.785	59.053	20.238	6.4623e-06	23.731	0.00022487	0.00022531	6.2529e-05	634.2	2.4376e-06	2.4173e-06	525.69	188.22	2.435e-06	2.3885e-06	165.33	55.271	56.028	19.301	2.403e-06	22.641	-32.397	-17.751	60.230	-48.538	65.277	119.719	-50.168	-44.041	-38.092	241.503	-47.170	-41.787	-39.588	-35.634	15.482	-38.959	-8191	255	
3360.255	1	1	0	0	0.092225	0.20374	0.22817	0.32566	0.21353	0.031233	0.18847	0.11531	0.084572	0.10072	0.078919	0.18848	0.21506	0.24	0.12453	0.13292	0.17917	-0.95	-0.28542	-0.4375	-1.1354	-0.027083	-0.96875	-0.99375	-0.35	-1.1896	-0.65208	-0.60833	-1.2354	-0.37083	-0.80833	-0.99167	74.082	198.011	161.122	163.883	-55.996	60.157	168.692	215.302	-29.084	264.778	265.648	207.665	123.843	164.903	56.272	238.756	1.5323e-05	0.00030413	0.00012371	672.57	5.8104e-07	2.7455e-06	564.89	200.67	9.6715e-06	3.9618e-06	176.84	58.847	59.772	20.53	2.3287e-06	23.955	0.0002205	0.00021933	6.126e-05	637.85	2.4154e-06	2.4588e-06	535.29	190.16	2.4405e-06	2.3984e-06	168.5	56.169	56.717	19.519	2.4242e-06	22.909	19.517	45.841	147.027	-48.626	-55.290	90.186	-50.205	-44.066	-24.001	24.346	-46.909	-42.699	-39.324	-35.507	96.560	-39.067	-8191	255	
3360.351	1	1	0	0	0.19347	0.15258	0.16404	0.20438	0.18172	0.088029	0.40111	0.11254	0.19409	0.021431	0.22524	0.04431	0.14854	0.12705	0.10965	0.032542	0.17083	-1.0625	-0.68958	-0.27292	-1.0542	-0.44792	-0.70417	-1.0146	-0.20625	-1.0333	-0.75625	-0.33958	-1.3125	-0.44375	-0.56667	-1.0646	107.715	-46.308	-29.426	223.851	238.362	64.368	171.114	208.206	109.112	21.901	292.935	-44.084	28.107	-5.652	-14.378	-37.824	0.0003313	0.00051568	0.00012514	680	5.3971e-06	3.8272e-06	572.42	201.91	6.6349e-06	1.5882e-06	180.54	59.553	60.507	20.451	2.1384e-06	24.487	0.00022409	0.00022195	6.1368e-05	642.78	2.4695e-06	2.4079e-06	541.25	191.27	2.4722e-06	2.4644e-06	171.41	56.999	57.356	19.693	2.447e-06	23.369	16.622	-33.870	40.490	-48.750	112.091	47.344	-50.200	-43.908	56.264	88.991	-46.805	-42.550	-39.715	-35.595	7.094	-38.908	-8191	255	
3360.472	1	1	0	0	0.16718	0.14132	0.13752	0.12722	0.17948	0.12431	0.16378	0.12104	0.36539	0.10027	0.28329	0.018733	0.30057	0.065431	0.22944	0.1341	0.10625	-1.0208	-0.83125	-0.27708	-0.83125	-0.44792	-0.71458	-1.0708	-0.29375	-0.90625	-0.84583	-0.20833	-1.0854	-0.48542	-0.3125	-1.0146	173.426	46.665	24.709	199.400	131.004	80.771	281.670	284.905	256.516	39.375	275.881	241.635	266.294	-46.055	231.895	223.407	0.00033629	0.00026905	1.8279e-05	686.52	4.0059e-06	4.2009e-06	581.68	206.88	5.2289e-06	2.4167e-06	184.34	60.942	61.347	21.048	7.7239e-06	24.397	0.00022804	0.00022514	6.2591e-05	649.52	2.4343e-06	2.4879e-06	551.39	195.58	2.509e-06	2.5065e-06	174.54	58.298	58.22	20.176	2.4328e-06	23.481	-0.030	-16.429	-36.319	-48.147	230.419	60.923	-49.733	-44.211	6.926	100.177	-47.318	-42.430	-39.732	-35.436	57.554	-39.371	-8191	255	
3360.543	1	1	0	0	0.089781	0.18269	0.12289	0.16057	0.20678	0.22932	0.12909	0.20873	0.211	0.31801	0.056192	0.33702	0.090693	0.18237	0.25948	0.064295	0.1875	-0.80208	-0.94167	-0.1125	-1.05	-0.3375	-0.41875	-1.225	-0.091667	-0.66667	-1.0375	-0.22083	-1	-0.425	-0.4875	-1.2042	-54.071	190.285	64.073	288.071	295.554	6.461	239.601	241.276	121.541	236.719	20.200	196.918	-4.322	-16.752	153.119	114.393	6.2029e-05	0.00026758	4.2111e-05	685.66	1.9678e-06	3.5561e-06	570.57	205.43	1.3574e-06	5.0117e-06	181.22	59.744	61.424	21.094	2.3853e-06	24.632	0.00022548	0.00022203	6.2036e-05	646.16	2.4134e-06	2.398e-06	538.66	194.35	2.4382e-06	2.4252e-06	170.53	57.057	58.197	20.153	2.3925e-06	23.373	280.185	239.829	209.346	-48.626	1.582	18.236	-50.395	-43.781	48.766	131.085	-46.310	-42.317	-39.158	-35.852	84.132	-39.585	-8191	255	
3360.640	1	1	0	0	0.22602	0.20598	0.223	0.10092	0.28664	0.14351	0.15982	0.069019	0.10106	0.28091	0.2982	0.13209	0.26713	0.19708	0.10644	0.14574	0.066667	-0.48125	-0.79167	-0.21042	-1.125	-0.75208	-0.39792	-1.0854	-0.4875	-0.46875	-1.0729	-0.19583	-0.93542	-0.90625	-0.21875	-1.125	209.836	278.816	18.830	69.055	17.576	86.913	297.069	106.574	37.291	172.453	-2.337	188.168	290.655	105.396	213.341	17.684	0.00043885	0.00037003	9.3892e-05	687.13	4.2367e-06	3.8901e-06	573.52	205.8	8.9185e-06	8.5943e-07	179.79	60.192	61.241	21.081	5.3125e-06	24.593	0.00022203	0.00022205	6.1111e-05	646.99	2.4291e-06	2.4651e-06	543.2	194.3	2.4304e-06	2.4405e-06	171.17	57.372	57.991	19.983	2.4835e-06	23.449	-6.141	-18.489	-33.754	-48.616	90.320	51.765	-49.938	-43.694	87.695	148.975	-47.054	-42.469	-39.458	-35.332	-19.808	-39.005	-8191	255	
3360.760	1	1	0	0	0.12857	0.31608	0.16951	0.10062	0.4322	0.25642	0.12346	0.081302	0.10265	0.14559	0.043278	0.21379	0.030755	0.22469	0.27358	0.22771	-0.020833	-0.16667	-1.0604	-0.30833	-0.70208	-0.96042	-0.30417	-1.3937	-0.40833	-0.52083	-1.1521	-0.24792	-1.0125	-0.76458	-0.11667	-1.1479	260.742	125.731	121.995	163.607	95.144	53.974	-59.931	199.827	-26.688	132.116	130.769	153.746	-57.962	-15.845	18.355	53.518	7.7426e-05	0.0002777	0.00011294	687.46	5.9334e-06	3.7623e-06	577.17	207.21	9.0152e-06	3.6156e-06	182.92	60.479	61.731	21	1.3879e-06	24.734	0.0002307	0.00022231	6.1559e-05	649.63	2.4441e-06	2.4492e-06	547.03	195.22	2.4816e-06	2.4537e-06	173.85	57.983	58.414	20.131	2.4971e-06	23.706	242.271	-6.684	55.789	-48.675	48.130	69.177	-49.903	-43.907	190.978	80.175	-47.265	-41.882	-39.425	-35.360	45.919	-38.464	-8191	255	
3360.856	1	1	0	0	0.044845	0.19098	0.099252	0.038633	0.069194	0.22661	0.20885	0.18789	0.296	0.20791	0.047475	0.066417	0.31205	0.098038	0.24007	0.077655	0.060417	-0.45208	-1.1187	-0.375	-0.67917	-0.93125	-0.14375	-0.84375	-0.58958	-0.21458	-1.0417	-0.34375	-0.56458	-1.0938	0.08125	-0.95625	281.934	3.394	64.328	-51.751	-32.666	35.634	251.477	97.249	-11.248	132.183	243.952	203.709	278.962	278.345	-56.425	103.659	0.00025167	0.00016135	4.4217e-05	691.78	5.3889e-06	1.5255e-06	583.7	206.54	5.4049e-06	4.0683e-06	184.42	61.137	62.259	20.98	3.1037e-06	24.754	0.00022799	0.00022746	6.1829e-05	651.58	2.5264e-06	2.4589e-06	552.21	195.46	2.5171e-06	2.5258e-06	174.91	58.354	58.536	20.086	2.5076e-06	23.721	-15.702	124.912	22.967	-48.433	118.066	-52.255	-50.278	-43.840	-52.746	146.383	-46.661	-42.461	-39.305	-35.758	-7.820	-39.307	-8191	255	
3360.951	1	1	0	0	0.2757	0.24734	0.13304	0.07278	0.10996	0.12135	0.32741	0.20123	0.058041	0.18689	0.16673	0.11067	0.26195	0.22633	0.073399	0.28191	-0.19792	-0.19792	-1.0896	-0.30833	-0.625	-1.175	-0.25417	-0.82917	-0.98958	-0.20208	-1.2271	-0.37083	-0.43333	-1.0125	-0.43125	-0.68542	98.508	291.343	95.566	280.681	101.532	194.365	259.230	149.749	285.861	41.513	294.421	97.688	21.034	-48.665	-55.064	-35.113	0.00021	7.3369e-05	9.6081e-05	686.12	7.001e-06	1.9703e-06	575.27	204.15	4.3648e-06	5.7589e-06	179.45	59.259	60.189	20.677	1.9782e-06	24.342	0.00022953	0.00023123	6.3822e-05	648.13	2.5308e-06	2.531e-06	543.47	192.84	2.482e-06	2.4714e-06	170.32	56.863	57.275	19.843	2.5178e-06	23.304	-42.499	-47.868	38.048	-48.886	2.926	6.443	-50.020	-44.009	176.796	57.268	-46.971	-42.349	-39.462	-35.482	281.315	-39.094	-8191	255	
3361.047	1	1	0	0	0.15128	0.16508	0.26148	0.31959	0.22813	0.23751	0.058924	0.089903	0.13435	0.16449	0.12652	0.20954	0.16194	0.073714	0.21597	0.098066	-0.55208	-0.1375	-0.875	-0.59375	-0.32708	-1.0375	-0.25208	-0.82917	-1.0208	-0.19167	-1.0104	-0.69792	-0.24375	-1.1167	-0.31875	-0.66458	-27.562	157.258	79.921	283.432	59.626	-11.328	274.980	220.206	292.026	32.115	123.193	-37.931	-45.699	257.950	222.940	19.608	0.0004293	0.00023812	8.8018e-05	681.39	1.1757e-06	1.1278e-06	571.45	205.71	2.9359e-06	3.3331e-06	180.91	60.409	61.59	21.169	5.0974e-06	25.032	0.00022352	0.00022189	6.2935e-05	643.3	2.4807e-06	2.4436e-06	542.3	194.47	2.4611e-06	2.4294e-06	171.83	57.912	58.441	20.287	2.4192e-06	23.821	-28.131	14.957	64.459	-48.451	68.745	150.486	-50.375	-43.785	53.720	31.124	-46.881	-42.201	-39.430	-35.444	263.555	-38.785	-8191	255	
3361.143	1	1	0	0	0.16118	0.2478	0.092268	0.15682	0.16023	0.14787	0.20508	0.2356	0.11285	0.14418	0.14317	0.26343	0.14307	0.074404	0.35418	0.052808	-0.57917	0.0125	-0.87708	-0.775	-0.077083	-1.1917	-0.44375	-0.56042	-0.95	-0.31458	-0.89167	-0.73542	-0.25417	-1.0875	-0.3	-0.51458	107.750	105.291	23.581	133.594	201.105	291.549	136.465	199.350	-17.586	249.136	205.650	98.452	11.291	285.317	24.096	75.065	0.00039687	0.00047079	0.0001139	691.6	2.1865e-06	1.4508e-06	583.18	208.5	2.748e-06	2.2111e-06	184.46	61.754	62.815	21.52	6.5892e-06	25.562	0.00022393	0.00022633	6.0818e-05	651.26	2.4434e-06	2.3557e-06	551.75	197.28	2.3942e-06	2.3965e-06	175.19	58.904	59.405	20.593	2.4041e-06	24.235	4.375	62.600	294.254	-48.815	193.081	55.013	-50.099	-43.642	-2.295	115.155	-46.761	-41.986	-39.722	-35.475	44.932	-39.016	-8191	255	
3361.239	1	1	0	0	0.10388	0.30304	0.20027	0.41087	0.13018	0.31417	0.079566	0.078469	0.12324	0.26981	0.26722	0.070002	0.25752	0.16899	0.30453	0.25035	-0.75833	-0.09375	-0.92708	-0.83333	-0.1125	-1.2167	-0.49375	-0.52917	-1.1354	-0.12917	-0.7625	-0.75	0.00625	-1.0271	-0.52708	-0.60208	42.908	-39.596	132.126	196.063	205.360	243.905	21.944	295.234	221.960	-50.426	34.296	60.701	260.452	263.509	4.106	207.815	0.00022204	0.00042161	0.00016128	695.07	2.6419e-06	1.3771e-07	583.75	211.1	5.6734e-06	3.3305e-06	185.68	62.914	62.924	21.638	2.0831e-06	25.576	0.0002193	0.00022205	6.1718e-05	656.29	2.4136e-06	2.4199e-06	555.67	199.23	2.3977e-06	2.428e-06	177.37	59.659	59.918	20.751	2.4583e-06	24.37	42.483	44.211	22.288	-48.457	203.555	253.659	-50.398	-43.749	289.217	39.103	-46.119	-42.469	-39.521	-35.158	236.741	-39.075	-8191	255	
3361.360	1	1	0	0	0.10947	0.044084	0.06085	0.18759	0.20929	0.11379	0.16708	0.11401	0.093782	0.089032	0.20321	0.20827	0.22828	0.29562	0.078274	0.040846	-0.71667	-0.10625	-0.86042	-0.98125	-0.00625	-0.99167	-0.37917	-0.36667	-1.0979	-0.23333	-0.7	-0.99583	-0.10833	-0.95625	-0.71875	-0.37292	206.247	-34.280	72.423	19.203	248.796	134.046	127.363	211.093	185.577	269.112	253.155	265.376	-55.579	211.779	282.067	284.629	8.5888e-05	0.000242	7.7165e-05	697.91	3.7312e-06	1.5747e-06	584.86	210.64	8.8963e-06	3.0536e-06	182.58	61.714	62.61	21.587	8.3347e-06	25.149	0.00021976	0.00021774	6.1511e-05	657.83	2.4363e-06	2.3552e-06	555.34	198.71	2.4251e-06	2.4188e-06	174.14	58.737	59.171	20.593	2.3966e-06	23.865	223.952	72.916	-9.585	-48.432	125.767	103.376	-50.242	-43.762	41.897	111.600	-46.458	-42.220	-39.264	-34.993	42.688	-38.738	-8191	255	
3361.456	1	1	0	0	0.35474	0.1504	0.28909	0.14006	0.16091	0.111	0.44478	0.1867	0.036997	0.022076	0.19661	0.17257	0.38369	0.18708	0.11928	0.080859	-0.68125	-0.15625	-0.48333	-1.275	-0.33542	-0.82708	-0.85833	-0.33542	-1.0583	-0.11042	-0.39583	-1.1938	-0.12708	-0.85833	-0.86042	-0.05625	137.157	127.738	197.093	263.635	-48.547	-0.625	288.084	211.424	4.187	293.749	21.498	271.056	92.483	18.955	2.888	66.120	7.7761e-05	7.9448e-05	0.00012238	690.44	2.3042e-06	3.4081e-06	567.93	207.74	2.7848e-06	1.1734e-06	180.21	60.008	62.051	21.287	3.157e-06	24.86	0.00021784	0.00021716	5.9723e-05	648.89	2.4151e-06	2.3819e-06	537.9	195.8	2.3887e-06	2.4244e-06	170.74	57.482	58.61	20.425	2.3981e-06	23.754	13.064	242.847	107.935	-48.396	145.764	147.159	-50.493	-43.892	103.719	141.578	-46.878	-42.608	-39.477	-35.371	-6.521	-39.407	-8191	255	
3361.552	1	1	0	0	0.049875	0.16575	0.086918	0.27882	0.091467	0.178	0.16565	0.080714	0.1765	0.10401	0.22681	0.065512	0.12138	0.28038	0.23106	0.23052	-0.40417	-0.34583	-0.28333	-0.88958	-0.13333	-0.69583	-0.78125	-0.16667	-0.89375	-0.64583	-0.59583	-1.0875	-0.17917	-0.74583	-0.76875	-0.04375	275.631	269.214	-52.353	-11.531	234.656	241.878	1.021	62.020	114.359	286.251	225.980	-4.791	175.588	-31.714	110.040	264.616	0.00031901	0.00020243	9.0739e-05	686.21	3.4698e-06	2.3514e-06	572.51	207.47	5.1624e-06	5.8852e-06	182.99	60.959	61.779	21.364	1.1725e-05	25.041	0.00022145	0.00022369	6.1274e-05	648.38	2.4398e-06	2.4178e-06	542.02	196.03	2.4177e-06	2.4269e-06	173.66	58.314	58.936	20.396	2.4741e-06	23.903	281.902	224.045	44.885	-48.543	0.410	57.482	-50.596	-43.963	-11.364	128.654	-47.070	-42.136	-39.273	-35.404	8.867	-38.780	-8191	255	
3361.648	1	1	0	0	0.12619	0.24975	0.085814	0.12614	0.12025	0.09681	0.26301	0.32808	0.17849	0.049018	0.095427	0.23201	0.14308	0.18019	0.16698	0.11022	-0.65833	-0.38333	-0.2125	-0.975	-0.21458	-0.51458	-0.88958	-0.19375	-0.99167	-0.7875	-0.19792	-1.15	-0.22083	-0.36042	-1.0042	-0.29583	81.021	-15.208	80.753	244.027	233.870	117.689	19.129	-19.360	56.719	48.799	12.722	16.647	-26.409	168.551	-1.985	190.862	0.00028278	0.00038779	6.5135e-05	687.03	1.4126e-06	2.5103e-06	578.81	208.42	1.9977e-06	4.5107e-06	184.75	61.345	62.491	21.232	5.2066e-06	25.222	0.00022966	0.00022409	6.3336e-05	649.08	2.488e-06	2.4964e-06	548.97	196.76	2.4727e-06	2.5087e-06	175.67	58.772	59.309	20.43	2.5077e-06	24.168	-47.735	9.758	65.138	-48.303	127.552	78.426	-50.193	-43.605	74.082	53.593	-46.419	-42.235	-39.636	-35.480	88.968	-38.989	-8191	255	
3361.767	1	1	0	0	0.19447	0.087911	0.24815	0.24275	0.30338	0.12484	0.045201	0.23599	0.1699	0.036808	0.26955	0.086268	0.28932	0.076723	0.31709	0.26371	-0.54167	-0.75208	-0.16875	-1.0396	-0.47083	-0.44167	-0.97083	-0.05	-0.725	-0.87292	-0.19583	-1.1146	-0.30417	-0.18958	-1.1271	-0.29167	2.680	115.994	284.540	253.844	97.859	113.189	206.107	-46.534	68.343	93.522	262.188	-37.625	-58.185	147.322	-1.004	294.670	6.3483e-05	6.2543e-05	0.00018365	689.41	1.116e-06	3.7509e-07	586.66	209.6	2.3106e-06	4.7293e-06	187.37	61.981	61.336	21.264	1.0574e-05	24.348	0.00023353	0.00023209	6.5422e-05	653.08	2.5955e-06	2.5866e-06	557.45	198.16	2.6399e-06	2.6185e-06	177.23	59.062	58.613	20.32	2.6984e-06	23.587	14.426	288.674	61.865	-48.472	175.813	-49.629	-50.199	-43.746	180.041	103.564	-46.708	-42.048	-39.206	-34.797	48.073	-39.129	-8191	255	
3361.839	1	1	0	0	0.10218	0.20285	0.14087	0.073066	0.33161	0.054396	0.1714	0.19986	0.14396	0.13344	0.13787	0.16261	0.13882	0.10621	0.21275	0.055756	-0.41458	-0.94583	-0.14792	-0.925	-0.61042	-0.28958	-1.1604	-0.20833	-0.85417	-0.8875	-0.066667	-0.87083	-0.57292	-0.089583	-1.1625	-0.45417	269.398	93.302	-1.251	145.372	217.306	60.888	271.274	197.084	215.236	289.820	257.646	-25.878	4.961	266.184	19.874	227.271	0.00011438	0.00032481	0.00013978	668.16	6.0029e-06	2.0739e-06	559.89	198.36	2.3498e-06	1.2284e-06	173.6	57.855	59.201	20.622	1.5255e-06	24.202	0.00024998	0.00024619	6.9581e-05	631.94	2.7751e-06	2.7499e-06	532.38	188.29	2.7732e-06	2.7493e-06	166.77	55.764	56.558	19.816	2.7994e-06	23.097	1.116	286.515	13.780	-48.590	101.990	100.905	-50.425	-44.003	37.348	-34.972	-46.980	-42.622	-39.340	-35.270	129.585	-39.337	-8191	255	
3361.935	1	1	0	0	0.089362	0.12718	0.15264	0.19551	0.045793	0.18072	0.048967	0.11468	0.13856	0.13835	0.19306	0.21865	0.049641	0.23118	0.11269	0.098948	-0.19583	-0.99167	-0.17917	-0.91042	-0.59167	-0.04375	-0.94792	-0.30625	-0.42708	-0.96667	-0.27083	-0.76875	-0.77917	-0.064583	-0.8875	-0.5125	279.883	91.323	180.699	-48.026	26.962	31.300	221.940	83.325	186.547	167.018	47.637	2.149	93.902	284.804	85.356	185.753	0.00011026	0.00043375	8.641e-05	665.67	8.159e-06	1.7733e-06	559.32	196.64	4.6355e-06	4.7837e-06	173.49	57.131	58.023	20.069	2.8115e-06	23.779	0.00026504	0.00025558	7.3631e-05	630.44	2.9733e-06	3.003e-06	531.59	186.68	2.988e-06	3.0023e-06	165.95	55.174	55.874	19.412	3.0137e-06	22.782	53.228	38.644	14.552	-48.304	14.166	-55.461	-50.311	-43.695	16.845	92.032	-46.697	-41.959	-39.498	-34.963	219.669	-39.280	-8191	255	
3362.031	1	1	0	0	0.20644	0.30038	0.039586	0.10479	0.21788	0.33891	0.14901	0.029581	0.070533	0.10547	0.071596	0.092913	0.18945	0.070188	0.27498	0.16229	-0.03125	-0.85833	0.0125	-0.75625	-0.75833	-0.3375	-1.0979	-0.65833	-0.35208	-1.1354	-0.35833	-0.5375	-0.83958	-0.2375	-1.0104	-0.59792	157.444	97.017	285.351	294.351	80.063	219.234	31.482	68.745	205.050	265.683	247.665	170.667	1.733	-46.698	-1.239	38.935	0.0002272	0.00032722	6.6331e-06	664.29	2.4298e-06	3.4086e-06	550.76	193.68	6.4122e-06	2.5837e-06	171.14	56.371	57.235	19.764	2.3746e-06	23.197	0.0002751	0.0002719	7.8338e-05	629.7	3.1115e-06	3.1288e-06	527.37	184.74	3.1763e-06	3.2222e-06	165	54.853	55.203	19.197	3.2417e-06	22.483	8.352	99.981	-39.062	-48.564	240.300	156.366	-50.324	-43.603	-11.410	95.551	-46.628	-42.507	-39.518	-34.969	158.971	-38.760	-8191	255	
3362.127	1	1	0	0	0.079759	0.2986	0.21939	0.15152	0.22731	0.43703	0.21366	0.17541	0.11377	0.20938	0.032809	0.1494	0.095708	0.20878	0.18844	0.14122	0.25833	-1.0771	-0.24792	-0.61875	-0.99792	-0.1125	-0.925	-0.62708	-0.2625	-1.0917	-0.27292	-0.53333	-1.0396	-0.12708	-0.96875	-0.80417	217.928	250.181	276.272	66.027	128.641	-31.438	254.352	-42.547	91.773	192.117	214.763	-28.999	-42.820	9.552	188.296	200.688	0.00039928	0.00031477	0.00012688	659.86	3.7571e-06	2.2319e-06	556.27	193.04	3.7597e-06	3.4014e-06	171.78	56.839	57.129	19.79	6.3569e-06	23.148	0.00029633	0.00029843	8.1446e-05	629.44	3.2539e-06	3.2736e-06	532.37	184.29	3.3328e-06	3.3134e-06	165.82	55.029	55.166	19.222	3.288e-06	22.558	80.293	93.378	54.259	-48.685	62.583	272.364	-50.001	-44.240	144.704	-27.659	-46.623	-42.357	-39.037	-35.251	-18.993	-39.361	-8191	255	
3362.248	1	1	0	0	0.2338	0.12245	0.065045	0.31729	0.12864	0.13104	0.11313	0.036417	0.1252	0.011406	0.14697	0.17472	0.44604	0.22285	0.11508	0.17296	0.275	-1.0625	-0.36667	-0.69583	-1.1854	-0.21458	-0.95	-0.90833	-0.1125	-1.1625	-0.49167	-0.31875	-1.0208	-0.10833	-0.62292	-0.8375	244.249	207.522	-25.780	128.323	-12.303	-42.209	-31.788	295.638	52.929	-20.827	-28.121	90.210	283.323	-45.043	1.632	-44.006	0.00018369	0.00035472	0.00010355	664.31	3.7687e-06	2.7671e-06	548.55	192.65	3.9494e-06	3.4907e-06	169.2	55.758	57.071	19.639	1.0724e-05	22.799	0.0002948	0.00029922	8.5049e-05	629.43	3.3049e-06	3.234e-06	525.63	183.67	3.2437e-06	3.3157e-06	162.23	53.918	54.999	19.089	3.281e-06	22.19	-32.051	50.212	154.969	-48.461	109.496	199.611	-50.050	-43.904	37.720	140.792	-46.416	-42.003	-39.024	-34.929	119.099	-38.711	-8191	255	
3362.344	1	1	0	0	0.14574	0.16125	0.094489	0.071408	0.20469	0.18082	0.12113	0.13639	0.11577	0.29048	0.050146	0.19677	0.22388	0.25754	0.14978	0.14434	0.29375	-1.0042	-0.65417	-0.23125	-1.1604	-0.28958	-0.72083	-0.78958	-0.31875	-0.93958	-0.7625	-0.26458	-1.2687	-0.43542	-0.56667	-0.95	224.548	196.994	126.914	254.541	-13.504	218.009	269.927	25.482	223.518	-10.778	288.688	82.352	256.270	272.092	218.373	-57.469	0.00046232	0.00024323	4.4443e-05	656.66	3.6751e-06	3.8747e-06	543.36	192.42	2.376e-06	5.1416e-06	167.39	55.622	57.991	20.159	4.8418e-06	23.064	0.00030003	0.00030069	8.4843e-05	624.84	3.3444e-06	3.3238e-06	519.25	183.43	3.3087e-06	3.2587e-06	162.33	54.15	55.732	19.425	3.3541e-06	22.386	-56.247	218.620	-12.815	-48.521	155.169	38.399	-50.164	-43.995	-44.555	192.700	-46.902	-42.277	-39.257	-35.148	183.093	-39.564	-8191	255	
3362.440	1	1	0	0	0.2424	0.37333	0.1876	0.068859	0.26772	0.064394	0.21224	0.17304	0.086387	0.16991	0.2789	0.080378	0.27163	0.26997	0.25602	0.24864	0.10208	-1.0167	-0.7875	-0.28542	-1.2	-0.51458	-0.5875	-1.2521	-0.09375	-0.83958	-0.74792	-0.2	-0.98333	-0.47083	-0.69167	-1.225	-20.087	90.969	229.456	147.799	14.025	-27.109	268.131	170.264	265.627	-3.206	180.645	-35.444	-53.972	-11.065	-46.037	268.776	0.0001659	0.00063115	8.896e-05	667.22	2.8068e-06	2.0989e-06	554.26	196.8	1.7679e-06	7.0477e-06	170.96	56.799	59.185	20.381	1.1612e-05	23.337	0.00029852	0.0003072	8.5173e-05	632.69	3.3198e-06	3.36e-06	528.58	187.43	3.3744e-06	3.3717e-06	165.13	55.209	56.699	19.773	3.3281e-06	22.743	291.299	39.295	-10.073	-48.428	92.430	54.677	-50.020	-43.534	142.969	71.220	-46.679	-41.740	-39.094	-35.537	24.417	-39.009	-8191	255	
3362.536	1	1	0	0	0.24271	0.071777	0.080747	0.14079	0.12592	0.14685	0.1766	0.16545	0.15744	0.26738	0.061104	0.21978	0.39913	0.02157	0.043467	0.15445	0.054167	-0.8625	-0.92292	-0.15208	-0.95417	-0.35625	-0.37708	-1.0854	-0.010417	-0.83333	-0.96042	-0.27292	-1.0604	-0.65208	-0.32708	-1.2292	183.124	260.754	-60.613	56.788	270.829	41.536	290.189	27.494	73.821	170.352	250.156	274.008	199.776	147.001	274.122	228.137	7.6506e-05	0.00036324	0.00016526	668.28	3.4192e-06	3.341e-06	559.31	199.56	6.2193e-06	2.2789e-06	175.22	58.602	60.766	21.06	5.6106e-06	24.402	0.00030443	0.0003077	8.3883e-05	638.17	3.2933e-06	3.3155e-06	534.66	190.52	3.3148e-06	3.3527e-06	169.45	56.679	58.141	20.334	3.227e-06	23.594	7.122	290.807	201.981	-48.723	195.939	127.359	-49.955	-43.384	-56.957	94.047	-46.776	-42.260	-39.393	-35.701	46.777	-39.357	-8191	255	
3362.632	1	1	0	0	0.087802	0.081517	0.20272	0.14355	0.17562	0.057786	0.052869	0.32604	0.1428	0.15183	0.096218	0.3446	0.17874	0.077868	0.10732	0.33965	0.075	-0.5375	-0.84792	-0.27083	-0.93958	-0.5625	-0.25833	-1.05	-0.28333	-0.54583	-0.98333	-0.0125	-0.90833	-0.94167	-0.089583	-1.1604	7.400	283.812	188.756	274.762	15.940	96.457	118.519	251.693	265.319	165.953	-35.971	-54.861	-45.025	54.679	4.998	-16.286	0.00043304	0.00078082	7.9526e-05	695.62	2.0318e-06	2.9866e-06	586.08	211.62	2.3395e-06	2.9323e-06	186.21	62.776	65.762	22.984	3.3102e-06	26.113	0.00029291	0.00028659	7.9765e-05	657.99	3.1082e-06	3.1124e-06	554.53	201.07	2.9784e-06	3.0212e-06	177.49	60.107	62.723	22.064	2.8655e-06	24.955	16.817	-19.354	156.803	-48.782	107.825	107.925	-49.749	-43.804	233.386	184.060	-46.414	-41.766	-39.517	-35.264	101.003	-39.145	-8191	255	
3362.729	1	1	0	0	0.26736	0.13536	0.21381	0.074371	0.24641	0.21615	0.095312	0.20069	0.23447	0.059317	0.12762	0.1597	0.10356	0.16412	0.25131	0.36552	-0.070833	-0.45208	-1.0729	-0.33958	-0.74792	-0.78542	-0.17083	-1.1583	-0.5625	-0.44792	-1.1333	-0.14583	-0.67917	-0.93333	-0.14792	-1.1583	138.674	-40.449	170.925	56.447	295.774	278.262	209.508	297.696	125.793	71.583	89.851	221.107	43.581	11.567	143.597	196.259	0.00035991	0.00033299	0.00011073	720.15	3.9774e-06	3.6482e-06	586.01	224.24	8.0791e-06	2.1927e-06	188.87	65.537	70.257	24.89	6.1746e-06	27.376	0.00025903	0.00025496	7.1715e-05	683.28	2.7193e-06	2.725e-06	557.83	212.21	2.6352e-06	2.6075e-06	179.93	62.421	66.517	23.708	2.6103e-06	26.072	-18.753	-1.943	80.734	-48.326	48.852	244.870	-50.025	-43.845	104.025	16.520	-46.365	-42.151	-39.424	-35.234	136.311	-39.090	-8191	255	
3362.847	1	1	0	0	0.13304	0.18653	0.14902	0.15765	0.13977	0.18408	0.18844	0.10786	0.26173	0.15206	0.12493	0.25896	0.18506	0.17108	0.2643	0.065981	-0.16667	-0.16875	-0.99375	-0.3625	-0.48333	-0.85417	-0.18542	-1.0646	-0.56042	-0.34375	-1.1979	-0.25833	-0.51875	-0.94792	-0.4125	-0.95	126.300	-59.254	258.322	-53.035	5.259	258.785	75.097	147.990	226.054	207.151	249.387	195.361	-30.952	-39.147	43.534	246.282	0.00017985	0.00016923	0.00013142	752.81	1.9038e-06	1.5243e-06	599.72	236.76	1.107e-06	1.3892e-06	195.48	66.719	74.25	27.524	6.4268e-06	29.493	0.00023974	0.00023701	6.5954e-05	712.74	2.631e-06	2.6143e-06	570.29	222.84	2.6398e-06	2.6255e-06	185.58	64.348	70.791	26.109	2.7305e-06	28.02	-36.014	6.301	93.231	-47.935	91.832	170.605	-49.754	-43.627	233.205	-7.516	-46.234	-42.644	-38.967	-35.506	30.692	-38.858	-8191	255	
3362.944	1	1	0	0	0.14577	0.14467	0.04041	0.34814	0.075397	0.28067	0.21023	0.15396	0.19399	0.33131	0.031556	0.15685	0.18613	0.14974	0.059478	0.056977	-0.4625	-0.16042	-1.0333	-0.45625	-0.25833	-1.1979	-0.28125	-1.0896	-0.8625	-0.26667	-1.0812	-0.63333	-0.6	-0.95417	-0.16667	-0.81667	130.481	231.135	222.653	228.470	254.006	191.772	255.341	-54.214	-41.982	190.803	144.065	193.661	274.306	18.798	-35.348	229.006	0.00046041	0.00055953	7.9229e-05	784.61	6.7175e-06	3.1167e-06	611.75	244.05	7.6416e-06	1.3129e-06	201.07	69.914	77.692	28.337	2.6647e-06	30.501	0.00025202	0.00025534	6.9246e-05	742.39	2.8495e-06	2.7968e-06	582.07	230.63	2.8749e-06	2.9067e-06	191.04	66.693	73.391	27.004	3.0233e-06	29.064	6.532	88.659	50.223	-48.009	178.298	12.581	-49.621	-43.159	31.219	172.587	-46.036	-42.270	-39.187	-35.332	-28.247	-39.053	-8191	255	
3363.040	1	1	0	0	0.23247	0.10835	0.036331	0.15074	0.042533	0.22512	0.0061977	0.22939	0.13376	0.19816	0.12832	0.071117	0.35338	0.12405	0.12361	0.19096	-0.47292	-0.079167	-1.0854	-0.50417	-0.47917	-1.15	-0.21042	-0.7375	-0.96042	-0.17083	-0.95208	-0.53542	-0.25208	-1.0146	-0.30625	-0.63125	49.274	-26.913	125.147	199.208	132.850	219.338	252.120	-18.367	92.414	128.339	-30.568	247.469	-30.459	17.120	159.308	248.993	0.00023798	0.00066388	9.5633e-05	796.89	4.0696e-06	4.268e-06	631.26	251.49	3.8281e-06	4.6718e-06	208.07	72.271	79.669	29.738	8.5321e-06	31.804	0.00027852	0.00027624	7.9084e-05	757	3.1388e-06	3.1513e-06	600.61	237.93	3.2084e-06	3.2357e-06	198.88	69.082	75.95	28.441	3.3031e-06	30.35	-45.073	39.374	123.322	-47.977	103.180	-36.803	-49.733	-42.989	231.874	80.514	-46.266	-41.426	-38.887	-35.048	73.210	-38.965	-8191	255	
3363.136	1	1	0	0	0.25035	0.17191	0.038414	0.098861	0.10006	0.16477	0.18271	0.034436	0.12758	0.27776	0.21539	0.070366	0.31259	0.052542	0.17033	0.075473	-0.47917	-0.22292	-0.975	-0.79167	-0.35833	-1.0333	-0.41875	-0.82708	-1.0938	-0.14375	-1.0667	-0.88125	-0.14167	-1.2875	-0.44583	-0.27083	64.960	243.051	73.234	256.363	-42.531	19.302	187.421	-26.400	248.088	282.973	-40.726	46.375	244.917	-54.256	257.224	262.061	0.00028205	3.2312e-05	3.3575e-05	803.1	5.249e-06	2.8863e-06	627.83	252.21	5.2052e-06	1.3302e-06	205.46	71.164	79.426	29.588	6.7425e-06	31.389	0.00029997	0.0003028	8.387e-05	760.67	3.3478e-06	3.2572e-06	597.7	239.28	3.1924e-06	3.2574e-06	196.17	68.338	75.528	28.334	3.128e-06	30.049	-33.712	-60.194	62.808	-47.980	118.420	79.092	-49.740	-42.784	47.418	190.461	-45.971	-41.742	-39.045	-35.328	58.901	-39.001	-8191	255	
3363.232	1	1	0	0	0.13305	0.16112	0.10421	0.065407	0.1295	0.23002	0.30371	0.097623	0.13967	0.18183	0.17483	0.14892	0.22548	0.077869	0.074303	0.2431	-0.725	-0.12708	-0.7125	-0.7125	-0.091667	-1.0896	-0.46875	-0.62917	-1.1646	-0.25	-0.87917	-0.63542	-0.18333	-0.91875	-0.33958	-0.57292	72.450	155.601	-20.776	66.051	193.712	76.528	271.299	205.391	168.017	227.173	170.107	295.728	188.378	92.967	278.004	236.267	0.0001757	0.00055617	3.9732e-05	801.21	1.9987e-06	4.6058e-06	629.18	252.51	3.1252e-07	5.6629e-06	206.63	72.087	79.968	29.742	1.2682e-06	31.89	0.00028333	0.00028284	7.867e-05	757.54	3.1177e-06	3.0307e-06	595.44	238.87	3.0468e-06	3.0386e-06	196.95	69.164	75.862	28.356	3.0083e-06	30.257	2.291	-10.403	233.726	-48.047	280.403	14.821	-50.171	-43.474	125.356	8.925	-46.404	-42.481	-39.384	-35.299	21.519	-39.297	-8191	255	
3363.328	1	1	0	0	0.34304	0.23048	0.21949	0.40079	0.16071	0.039128	0.16573	0.37061	0.13419	0.11903	0.081506	0.10081	0.21914	0.32295	0.23914	0.09272	-0.58125	-0.10208	-0.79792	-0.81875	-0.18333	-0.9	-0.78333	-0.3125	-1.0604	-0.34375	-0.68542	-1.0208	-0.18333	-1.025	-0.64583	-0.18542	265.731	-16.640	243.554	284.973	114.984	32.942	30.760	256.316	279.015	191.689	227.552	71.936	227.167	223.802	4.098	-39.075	0.00016114	0.00045717	4.324e-05	804.5	3.0335e-06	3.5552e-06	638.12	252.2	6.4456e-06	4.2874e-06	211.24	74.443	80.004	29.613	1.1126e-05	31.712	0.00027264	0.00027402	7.6386e-05	757.31	3.0242e-06	3.0018e-06	604.03	239.41	2.9604e-06	2.9441e-06	200.37	70.673	75.882	28.112	2.9594e-06	30.293	-38.952	199.658	53.130	-47.988	97.326	60.241	-49.650	-43.417	34.236	120.793	-46.681	-42.179	-39.777	-35.724	87.179	-38.899	-8191	255	
3363.449	1	1	0	0	0.070349	0.20039	0.083701	0.16025	0.1165	0.22721	0.15074	0.27628	0.087633	0.16137	0.16377	0.033667	0.10464	0.33216	0.22679	0.056508	-0.83542	-0.175	-0.42292	-1.0042	-0.11458	-0.96458	-0.6	-0.44792	-0.97292	-0.48542	-0.40833	-1.2396	0.041667	-0.85	-0.65208	-0.089583	-56.526	234.701	33.289	258.036	180.679	-39.869	292.875	221.619	112.240	195.697	-41.719	88.678	53.064	230.462	284.851	-58.878	0.00020927	0.00052925	5.8723e-05	798.89	4.4872e-06	4.5527e-06	644.9	253	7.1699e-06	1.5894e-06	212.61	74.582	81.049	29.363	7.2865e-06	32.117	0.00026658	0.00026891	7.4109e-05	754.9	2.9498e-06	2.9067e-06	608.31	239.79	2.9069e-06	2.8882e-06	202.15	71.006	76.168	28.052	2.905e-06	30.564	8.485	34.403	169.021	-48.007	110.350	22.734	-49.959	-43.256	27.514	89.447	-46.067	-42.458	-39.313	-35.412	36.496	-39.116	-8191	255	
3363.545	1	1	0	0	0.21498	0.067633	0.14246	0.18425	0.056695	0.13893	0.048204	0.039877	0.071104	0.06805	0.14204	0.19578	0.14641	0.21792	0.084428	0.2467	-0.55	-0.43958	-0.4	-1.0396	-0.29792	-0.57917	-0.93542	-0.16875	-1.1479	-0.62708	-0.48125	-1.0542	-0.25208	-0.44375	-1.1208	-0.05	161.648	5.944	186.578	-34.455	16.883	82.431	121.995	166.189	33.287	34.145	267.562	152.609	210.852	21.196	265.464	47.072	0.00033579	0.00042306	5.765e-05	796.41	2.5645e-06	1.9e-06	638.78	248.58	8.4177e-06	2.3759e-06	208.78	73.078	78.652	28.512	8.6543e-07	30.717	0.00026575	0.00026479	7.3264e-05	754.27	2.8601e-06	2.9176e-06	607.13	235.96	2.8426e-06	2.8598e-06	198.6	69.336	74.085	27.077	2.8363e-06	29.287	-4.201	-23.886	141.036	-48.265	8.150	25.373	-50.157	-43.701	62.190	141.414	-46.655	-42.491	-38.888	-35.521	-3.881	-39.830	-8191	255	
3363.639	1	1	0	0	0.34803	0.25607	0.24636	0.20603	0.20104	0.033343	0.094799	0.1527	0.156	0.32679	0.38165	0.30367	0.20373	0.19216	0.20201	0.13631	-0.43125	-0.42292	-0.4375	-1.0771	-0.39375	-0.69583	-1.0063	-0.21667	-0.95	-0.82292	-0.28958	-1.1875	-0.4875	-0.60833	-1.1292	-0.22083	49.712	277.414	147.154	223.388	-20.280	165.917	158.160	258.526	12.503	16.459	165.998	-9.996	-15.025	145.158	280.451	72.875	0.00011738	0.0004708	0.00013002	775.32	3.3178e-06	5.0139e-06	629.51	244.05	3.5808e-06	1.462e-06	207.01	71.065	75.733	27.188	3.012e-06	29.826	0.00025969	0.00025752	7.1379e-05	730.97	2.815e-06	2.8784e-06	595.17	230.75	2.8835e-06	2.796e-06	196.18	67.715	71.839	26.005	2.8948e-06	28.519	-22.464	45.385	86.807	-48.254	58.425	117.664	-50.168	-43.834	233.967	0.225	-46.015	-42.371	-39.726	-35.185	-25.905	-39.169	-8191	255	
3363.713	1	1	0	0	0.20263	0.2806	0.19242	0.2476	0.13167	0.14752	0.25655	0.3847	0.27245	0.16878	0.034173	0.33063	0.10099	0.35342	0.17849	0.20132	-0.54167	-0.59167	-0.2125	-1.3021	-0.33958	-0.33333	-1.0625	-0.33958	-0.84375	-1.0521	-0.35417	-1.0875	-0.68542	-0.42083	-1.0854	-0.42083	60.728	265.894	176.417	192.979	-21.369	201.212	289.722	289.487	-16.636	83.843	-2.593	222.046	-39.725	247.332	55.157	176.391	0.00022556	5.0668e-05	8.8486e-05	761.89	4.4873e-06	9.8964e-06	626.91	239.35	7.2777e-06	4.2789e-06	204.21	70.088	74.057	26.299	5.1909e-06	29.269	0.00026515	0.00026649	7.4883e-05	721.03	2.9808e-06	2.9686e-06	594.41	226.91	2.9595e-06	2.9641e-06	194.94	67.048	70.405	25.082	2.9727e-06	27.988	18.305	33.819	118.824	-47.797	101.827	49.350	-49.891	-43.718	158.386	183.969	-46.322	-41.953	-39.472	-35.558	218.526	-39.200	-8191	255	
3363.833	1	1	0	0	0.17576	0.1496	0.33759	0.27968	0.1627	0.17247	0.30589	0.10827	0.13487	0.066625	0.08174	0.22765	0.045534	0.12081	0.18099	0.25169	-0.1	-1.0125	-0.18333	-0.92083	-0.59583	-0.43542	-1.2542	-0.3625	-0.6375	-1.1625	-0.23958	-0.93958	-0.53958	-0.30208	-1.2458	-0.33542	105.809	218.548	207.347	223.803	271.141	188.157	214.974	266.901	263.266	263.867	179.138	234.530	17.037	253.704	-6.746	178.094	0.00028881	0.00014843	2.3316e-05	753.2	1.9184e-06	2.0941e-06	627.97	239.28	8.172e-07	7.291e-06	207.4	71.656	75.328	27.54	7.2061e-06	30.682	0.00027277	0.0002699	7.6956e-05	716.91	3.0307e-06	3.0148e-06	596.61	226.76	3.0354e-06	3.0224e-06	197.84	68.171	71.811	26.226	2.9695e-06	29.327	-7.285	173.858	130.602	-48.330	7.168	75.136	-50.354	-43.730	213.512	53.887	-46.546	-42.351	-39.667	-35.503	109.649	-39.261	-8191	255	
3363.928	1	1	0	0	0.082547	0.22932	0.14943	0.50114	0.053122	0.22283	0.083096	0.081568	0.24841	0.19187	0.1874	0.17562	0.090684	0.25668	0.11236	0.099869	-0.19167	-0.96458	-0.14167	-1.1167	-0.90625	-0.16458	-1.1104	-0.5625	-0.44792	-1.1313	-0.35	-0.88125	-0.72292	-0.2	-1.0729	-0.5	93.632	272.327	112.891	241.687	204.036	127.048	22.692	225.240	287.209	89.615	259.288	-53.444	245.713	158.734	153.315	-8.463	0.00035462	0.00078318	0.00016543	790.24	1.5749e-06	4.9054e-06	658.6	254.23	1.0986e-05	6.9892e-06	218.6	74.478	79.836	29.646	9.7022e-06	32.524	0.00027016	0.0002611	7.3682e-05	746.42	2.8973e-06	2.9167e-06	625.82	239.87	2.8645e-06	2.8295e-06	207.37	71.055	76.059	28.398	2.7492e-06	31.016	20.561	9.886	61.325	-48.300	251.165	25.429	-49.916	-43.836	67.904	51.053	-46.467	-42.581	-39.645	-35.666	84.456	-39.342	-8191	255	
3364.024	1	1	0	0	0.17225	0.17327	0.10242	0.013439	0.36282	0.0065528	0.22595	0.20594	0.20682	0.081743	0.074079	0.057319	0.11167	0.22526	0.064469	0.14439	-0.11042	-1.0521	-0.083333	-0.83333	-0.89583	-0.10417	-1.1208	-0.4625	-0.43125	-1.1875	-0.33333	-0.79375	-0.99583	-0.0875	-1.0458	-0.53333	-42.645	46.042	166.363	-8.317	122.906	-22.658	255.646	16.448	25.756	84.906	259.346	239.183	-50.268	-59.411	202.129	49.267	0.00020311	0.00031296	0.00016514	818.23	4.9488e-06	1.3088e-06	642.5	256.92	2.4842e-06	1.3071e-06	208.13	71.132	80.068	30.008	5.8473e-06	30.942	0.00025262	0.00025125	6.9438e-05	771.77	2.7801e-06	2.7828e-06	610.35	242.61	2.764e-06	2.7816e-06	197.77	67.93	75.458	28.588	2.7727e-06	29.505	-1.668	-19.976	34.932	-48.223	167.735	95.530	-49.714	-43.456	297.295	134.495	-46.469	-42.436	-39.144	-35.174	6.670	-39.402	-8191	255	
3364.120	1	1	0	0	0.10566	0.44087	0.22156	0.090653	0.042713	0.10778	0.20714	0.11182	0.33324	0.03847	0.40346	0.24491	0.17452	0.26456	0.12146	0.36199	0.19792	-0.80625	-0.24583	-0.6375	-0.8375	-0.36042	-0.94583	-0.82708	-0.15625	-1.0417	-0.22292	-0.40208	-0.85417	-0.21667	-0.93542	-0.85417	-39.361	171.052	0.296	-10.028	166.311	268.141	269.393	209.866	258.143	45.739	-9.694	277.407	113.839	34.106	-60.942	225.673	0.00013221	0.00023312	6.8088e-05	790.89	2.6623e-06	5.9018e-06	618	245.3	6.3062e-06	5.5266e-06	201.6	68.08	74.73	27.178	5.5216e-06	29.116	0.00025449	0.00025902	7.1093e-05	747.21	2.8489e-06	2.8149e-06	589.66	231.88	2.9053e-06	2.8802e-06	192.07	65.398	71.095	26.015	2.9737e-06	27.736	9.323	64.182	125.725	-48.067	174.083	67.112	-49.981	-43.589	-29.975	130.458	-46.416	-42.149	-39.092	-35.678	-55.883	-38.852	-8191	255	
3364.241	1	1	0	0	0.1432	0.13038	0.25752	0.095436	0.10135	0.12321	0.078332	0.16037	0.12538	0.25147	0.066002	0.24507	0.26082	0.21195	0.079756	0.17338	0.1375	-1.1688	-0.43125	-0.4375	-1.0896	-0.1375	-0.59375	-0.85208	-0.11042	-0.88333	-0.64583	-0.17917	-1.1771	-0.14583	-0.69375	-0.95417	-17.744	104.725	234.476	160.700	208.990	284.834	-54.234	246.111	58.554	-22.158	29.506	-54.839	57.551	-29.945	231.032	21.949	0.00017269	0.00016303	6.6397e-05	758.77	3.8413e-06	3.9075e-06	603.19	232.12	6.739e-06	2.8572e-06	196.2	65.292	71.437	25.524	4.2283e-06	27.993	0.000275	0.00027523	7.7358e-05	716.94	3.115e-06	3.0876e-06	574.54	220.11	3.1219e-06	3.1492e-06	186.67	63.307	68.227	24.5	3.1445e-06	26.757	53.706	-51.380	-37.903	-48.136	151.098	56.855	-50.031	-43.451	-47.773	89.694	-46.740	-42.127	-39.021	-35.598	235.855	-39.201	-8191	255	
3364.312	1	1	0	0	0.27482	0.14008	0.12703	0.073926	0.22055	0.24578	0.2753	0.34533	0.13785	0.11751	0.22111	0.36896	0.25765	0.41439	0.09694	0.34772	0.42708	-0.85208	-0.53125	-0.33333	-0.93958	-0.22083	-0.76458	-0.87083	0	-1.0729	-0.61042	-0.2875	-1.1187	-0.29167	-0.57917	-1.0146	161.098	157.400	195.163	185.448	54.343	275.540	261.591	-58.943	41.537	246.661	63.996	213.175	-16.289	288.390	103.440	249.611	0.00037395	0.00029375	0.00013117	742.3	3.1834e-06	5.4446e-06	599.69	227.05	2.7861e-06	6.1189e-06	193.56	65.524	70.289	24.779	4.0016e-06	27.239	0.00028687	0.00028529	8.0464e-05	704.56	3.1612e-06	3.1769e-06	571.4	215.94	3.2022e-06	3.2334e-06	185.32	63.137	66.968	23.795	3.3415e-06	26.281	-9.961	25.800	130.392	-48.380	144.128	44.003	-49.307	-43.517	9.358	57.952	-46.230	-42.040	-38.996	-35.051	188.839	-39.048	-8191	255	
3364.409	1	1	0	0	0.090315	0.17507	0.09783	0.22258	0.1325	0.071201	0.32538	0.26173	0.30183	0.34507	0.23163	0.30437	0.046848	0.18159	0.11689	0.25451	0.19583	-0.89167	-0.60417	-0.2375	-1.1729	-0.38958	-0.33333	-1.0812	0.0125	-0.98542	-0.93333	-0.047917	-1.1521	-0.37917	-0.31667	-1.3375	95.458	49.713	54.850	219.762	162.369	184.434	210.166	270.620	138.627	-23.016	239.128	267.214	233.283	272.562	136.946	173.050	0.00011824	0.00042873	7.1628e-05	722.33	4.4431e-06	2.4426e-06	581.99	218.72	2.2325e-06	3.1773e-06	183.87	61.773	65.67	23.253	5.7968e-06	25.529	0.00029968	0.0003003	8.404e-05	687.09	3.3243e-06	3.3319e-06	555.16	207.37	3.3191e-06	3.3951e-06	176.98	60.055	63.397	22.475	3.4413e-06	24.711	-40.790	-29.553	32.970	-48.171	79.785	222.849	-50.085	-43.712	-38.891	164.300	-46.311	-42.277	-39.215	-35.448	42.557	-38.988	-8191	255	
3364.529	1	1	0	0	0.29599	0.25325	0.32157	0.20916	0.26058	0.23813	0.1311	0.25745	0.12715	0.12104	0.32001	0.14059	0.14622	0.14155	0.16081	0.083532	0.08125	-0.80833	-0.81458	-0.29167	-1.0375	-0.6	-0.35625	-1.1313	-0.31875	-0.78958	-0.95	-0.23125	-1.0187	-0.65625	-0.29583	-1.3125	190.161	236.559	203.166	210.984	166.065	56.953	-18.466	182.663	215.898	118.269	146.230	295.565	-43.603	93.938	287.108	234.752	0.00018208	0.00046092	2.2508e-05	704.59	9.8157e-06	3.8852e-06	563.09	213.77	5.7297e-06	3.4234e-06	180.8	60.521	66.135	23.384	1.443e-05	25.478	0.00031693	0.0003151	8.7593e-05	667.89	3.4495e-06	3.4954e-06	537.17	203.55	3.5548e-06	3.4675e-06	174.53	58.809	63.221	22.531	3.54e-06	24.573	50.103	-4.041	84.183	-48.175	34.898	50.902	-49.869	-43.462	48.698	211.943	-46.879	-41.729	-39.129	-35.492	47.132	-38.720	-8191	255	
3364.625	1	1	0	0	0.4548	0.17098	0.47996	0.038162	0.16436	0.071442	0.22111	0.10492	0.13143	0.2388	0.022447	0.4928	0.20342	0.11964	0.14998	0.14436	0.08125	-0.69792	-0.86458	-0.029167	-1.0917	-0.62708	-0.32083	-1.1208	0.03125	-0.69167	-1.1125	-0.095833	-0.81875	-0.77708	-0.13333	-1.0354	-46.288	12.699	-31.796	293.804	12.009	98.759	-14.742	193.992	191.021	135.029	-43.739	10.010	234.697	-61.390	129.965	11.819	0.00020072	0.0003288	0.00010951	703.78	4.7812e-06	4.4296e-06	565.18	212.86	7.9712e-06	3.1881e-06	181.1	61.709	65.159	23.072	1.1433e-06	25.934	0.00031989	0.00032677	8.8811e-05	670.82	3.5114e-06	3.451e-06	540.41	203.6	3.5506e-06	3.5625e-06	174.63	59.61	62.781	22.409	3.6102e-06	24.891	58.824	185.358	-54.098	-48.397	95.702	21.443	-50.251	-43.525	268.094	-4.996	-47.198	-42.562	-39.777	-35.626	31.421	-39.291	-8191	255	
3364.722	1	1	0	0	0.082886	0.35665	0.31267	0.18164	0.26685	0.41021	0.28948	0.073068	0.10715	0.20882	0.19111	0.19605	0.18732	0.09701	0.16783	0.17234	0.064583	-0.42292	-1.0583	-0.30833	-0.85625	-0.9125	-0.23542	-1.1354	-0.41875	-0.26875	-1.2042	-0.17917	-0.71458	-0.77917	-0.30833	-1.0625	64.983	236.627	260.879	265.377	38.491	237.399	260.421	4.605	140.754	29.454	216.968	274.334	-51.287	-21.422	101.453	116.661	0.00034257	0.00040509	5.9306e-05	705.82	6.1432e-06	2.4889e-06	571.14	216.62	7.2851e-06	5.3007e-06	185.06	63.397	68.256	24.113	3.7571e-06	26.864	0.00032722	0.00032409	9.1447e-05	672.25	3.5843e-06	3.5799e-06	547.46	206.57	3.5534e-06	3.5646e-06	179.24	61.171	65.119	23.304	3.4817e-06	25.854	-1.805	-29.559	-21.728	-48.688	27.508	-16.914	-50.420	-43.513	37.185	12.031	-46.367	-42.237	-39.447	-35.567	81.681	-39.083	-8191	255	
3364.840	1	1	0	0	0.16014	0.2011	0.21797	0.15169	0.10705	0.15694	0.23916	0.13261	0.1115	0.24501	0.3974	0.22674	0.35922	0.23935	0.12647	0.040107	-0.20417	-0.28958	-1.0417	-0.26667	-0.72083	-0.71042	-0.25417	-0.93542	-0.70833	-0.38125	-1.025	-0.33542	-0.72083	-1.0042	-0.21042	-1.1104	63.027	15.974	-60.057	283.009	216.364	55.641	269.052	216.398	2.567	126.205	116.370	-35.340	265.104	28.364	291.950	50.824	0.0003851	0.00046711	0.00023811	724.21	3.3601e-06	3.0196e-06	582.01	222.85	5.3203e-06	5.3972e-06	185.85	63.013	68.851	24.438	1.2253e-05	26.294	0.00031669	0.00032423	8.749e-05	688.18	3.4869e-06	3.4728e-06	556.69	211.69	3.4734e-06	3.447e-06	179.88	61.128	65.542	23.566	3.4585e-06	25.545	-23.533	263.520	27.658	-48.726	218.411	105.258	-50.157	-43.683	-2.421	90.308	-46.631	-42.057	-39.465	-35.276	-15.944	-39.302	-8191	255	
3364.937	1	1	0	0	0.15156	0.43374	0.25506	0.29407	0.11584	0.13984	0.27297	0.19941	0.11699	0.20674	0.1001	0.1127	0.3174	0.25279	0.11565	0.10449	-0.325	-0.31875	-0.96667	-0.2625	-0.67083	-1.1292	-0.22708	-0.74167	-0.85833	-0.25625	-1.0438	-0.30833	-0.5	-0.96667	-0.11875	-0.925	136.397	-50.060	211.181	283.729	256.211	-53.107	271.913	241.183	279.661	48.987	63.774	282.736	-38.614	-25.262	287.976	224.157	0.00038558	0.00053665	0.00011339	715.86	2.1382e-06	3.4141e-06	564.66	220.8	1.2511e-06	3.1227e-06	182.93	61.732	68.347	24.552	6.499e-06	26.53	0.00031357	0.00030884	8.6142e-05	681.56	3.4172e-06	3.4333e-06	540.62	210.03	3.4023e-06	3.4169e-06	176.13	60.019	65.815	23.678	3.3865e-06	25.573	-18.402	-46.578	-12.458	-48.543	35.339	74.058	-50.219	-43.706	145.713	165.011	-46.336	-42.619	-39.233	-35.786	54.543	-39.262	-8191	255	
3365.008	1	1	0	0	0.15074	0.1548	0.16851	0.10827	0.060439	0.19665	0.26631	0.46074	0.30062	0.15453	0.15302	0.15131	0.12338	0.24943	0.41674	0.09921	-0.57083	0.025	-0.96042	-0.50833	-0.13125	-1.0854	-0.29792	-0.76875	-0.79375	-0.12917	-1.0438	-0.59375	-0.13958	-1.1104	-0.3875	-0.54167	294.441	-8.753	34.383	272.544	-29.249	-1.194	59.011	292.594	82.568	3.446	255.665	201.060	295.531	-13.575	19.672	56.672	0.00013194	0.00038766	5.4514e-05	720.8	1.7969e-06	3.5462e-06	571.84	220.58	3.737e-06	1.2542e-06	184.12	62.054	68.217	24.371	6.9614e-06	26.415	0.00030586	0.00030953	8.671e-05	685.25	3.3501e-06	3.3524e-06	544.01	210.55	3.4255e-06	3.4751e-06	177.57	60.427	65.266	23.498	3.4719e-06	25.544	-11.891	4.073	179.357	-48.756	24.351	-43.096	-49.912	-43.729	238.633	50.437	-46.891	-42.814	-39.245	-35.602	80.457	-39.209	-8191	255	
3365.129	1	1	0	0	0.054838	0.13876	0.20857	0.25566	0.18194	0.13381	0.18701	0.20355	0.1305	0.17156	0.058717	0.074833	0.20364	0.20004	0.1996	0.082038	-0.5625	-0.09375	-0.88333	-0.60208	-0.21875	-1.0583	-0.29167	-0.56458	-1.0458	-0.15	-0.85833	-0.70833	-0.36667	-0.99375	-0.32083	-0.42917	162.706	278.864	21.199	-50.421	130.651	194.825	-55.273	292.848	58.152	25.351	158.265	57.317	145.406	78.515	109.521	234.426	0.00026462	0.00038853	0.00017459	712.88	1.4759e-06	5.8934e-06	570.83	218.74	3.6966e-06	5.6283e-06	183.54	61.738	67.173	23.872	6.7281e-06	26.112	0.00031581	0.00032049	8.8555e-05	678.95	3.5109e-06	3.5535e-06	545.14	207.79	3.5423e-06	3.5726e-06	177.3	60.095	64.39	22.976	3.6088e-06	25.395	266.818	-52.192	-5.880	-48.722	289.428	136.121	-50.757	-43.668	162.788	59.410	-46.835	-42.421	-39.658	-35.443	67.205	-39.421	-8191	255	
3365.225	1	1	0	0	0.079907	0.29656	0.19073	0.13273	0.16546	0.16828	0.086966	0.21209	0.068545	0.33339	0.041692	0.34779	0.17418	0.099668	0.1511	0.30895	-0.67292	0.11667	-0.83958	-0.75625	-0.1625	-1.0229	-0.33542	-0.62917	-1.0521	-0.10833	-0.7875	-0.83125	-0.083333	-0.91875	-0.40833	-0.46458	32.567	5.288	205.214	147.466	246.721	253.145	226.016	195.502	131.299	13.498	263.088	224.428	111.968	-43.401	33.127	208.047	4.2206e-05	0.00034423	0.00014889	713.93	4.5848e-06	6.0615e-06	572.31	217.9	7.4964e-07	3.0522e-06	184.97	62.371	67.902	23.986	6.7648e-07	26.063	0.00032015	0.00032312	9.0023e-05	677.64	3.5074e-06	3.5066e-06	547.94	208.34	3.4671e-06	3.4694e-06	178.76	60.777	64.875	23.267	3.4722e-06	25.33	46.637	95.460	179.943	-48.478	286.077	43.907	-50.276	-43.648	-8.610	185.234	-46.797	-42.630	-39.627	-35.532	101.097	-38.473	-8191	255	
3365.321	1	1	0	0	0.20825	0.30451	0.15038	0.1436	0.13523	0.24694	0.27564	0.22618	0.21849	0.11977	0.038913	0.33217	0.22472	0.13923	0.13655	0.10729	-0.58958	-0.21458	-0.76875	-1.1833	-0.13958	-1.1375	-0.68958	-0.45	-1.3417	-0.52292	-0.74583	-0.925	-0.175	-1.1625	-0.77917	-0.23542	-29.126	-47.818	46.646	-38.270	-48.716	-13.077	190.929	268.294	202.713	-32.014	99.319	175.133	154.956	273.339	204.937	-60.566	0.00017459	0.0005736	0.00011029	711.9	2.5193e-06	3.5994e-06	558.1	215.62	6.6835e-07	4.9269e-06	179.82	60.195	65.763	23.398	6.5788e-06	25.092	0.00030863	0.00032083	8.8766e-05	674.07	3.4545e-06	3.4247e-06	533.5	205.44	3.4681e-06	3.4859e-06	172.76	58.589	63.305	22.624	3.4475e-06	24.339	49.702	-23.921	82.995	-48.410	220.224	228.608	-50.170	-43.667	197.183	28.702	-46.713	-42.298	-39.608	-35.210	131.322	-39.665	-8191	255	
3365.417	1	1	0	0	0.28958	0.30784	0.069933	0.020682	0.078017	0.14319	0.36697	0.18154	0.18828	0.27223	0.10777	0.12661	0.23818	0.1076	0.13731	0.17321	-0.75208	-0.33542	-0.41875	-1.0438	-0.22917	-0.76875	-0.93958	-0.125	-1.0438	-0.6125	-0.4	-1.1146	-0.38125	-0.86458	-1	-0.14167	2.753	236.104	59.151	214.902	65.892	211.362	294.495	-55.074	278.731	1.610	9.452	283.070	-6.460	292.112	293.179	218.837	0.00025921	0.00038867	0.00010264	691.44	4.9731e-06	1.9807e-06	546.27	209.03	3.047e-06	4.085e-06	173.03	58.525	63.745	22.431	9.5245e-06	24.269	0.0003231	0.00032272	9.0235e-05	659.64	3.57e-06	3.5086e-06	523.29	199.55	3.6268e-06	3.6849e-06	169.1	57.268	61.153	21.713	3.6998e-06	23.838	-33.336	22.857	25.768	-48.733	87.376	192.763	-49.772	-43.802	-9.636	89.417	-46.739	-42.002	-39.596	-35.768	36.466	-39.496	-8191	255	
3365.513	1	1	0	0	0.1455	0.24391	0.025167	0.053811	0.21067	0.19858	0.25353	0.30067	0.25559	0.057896	0.1793	0.20358	0.39525	0.019003	0.061446	0.19233	-0.81458	-0.42917	-0.3875	-1.0917	-0.36458	-0.74792	-0.96667	-0.27708	-0.95417	-0.49583	-0.46042	-1.1938	-0.23958	-0.67292	-0.87917	-0.15208	223.427	91.916	113.313	279.789	104.183	166.864	254.429	197.078	154.146	242.032	190.700	220.011	256.369	207.361	-61.817	263.537	0.00019927	0.00011896	5.9332e-05	686.08	7.1595e-06	4.9838e-06	545.01	205	4.1866e-06	5.9204e-06	173.48	58.475	62.472	22.131	6.2679e-06	24.635	0.000334	0.00034412	9.5386e-05	653.75	3.836e-06	3.7771e-06	523.68	195.97	3.7817e-06	3.7709e-06	168.82	57.142	60.527	21.429	3.8366e-06	23.806	-60.068	47.645	-36.265	-48.494	-25.960	223.577	-50.263	-43.857	208.355	41.774	-46.773	-42.575	-39.236	-35.607	102.457	-38.883	-8191	255	
3365.610	1	1	0	0	0.041849	0.30545	0.093646	0.21182	0.090701	0.12765	0.20625	0.15182	0.16227	0.22583	0.21429	0.1377	0.20468	0.12192	0.15439	0.12845	-0.52083	-0.65417	-0.42708	-1.2417	-0.40417	-0.6125	-1.1187	-0.28333	-0.99792	-0.63958	-0.35417	-1.1354	-0.49792	-0.55208	-1.0125	-0.48542	140.776	-33.879	114.831	-31.061	-46.225	58.650	188.744	241.411	249.517	274.307	258.888	75.957	245.372	267.470	63.566	155.772	0.00032435	0.00077736	0.00014096	682.5	2.0305e-06	2.374e-06	546.31	204.35	3.1434e-06	1.5781e-06	173.13	57.936	61.427	21.814	4.084e-06	23.919	0.00034616	0.00035196	9.8263e-05	652.12	3.8689e-06	3.8694e-06	524.74	195.45	3.8926e-06	3.8609e-06	168.91	56.865	59.943	21.292	3.875e-06	23.536	33.363	292.545	37.106	-48.379	61.460	94.889	-50.262	-43.779	22.001	42.556	-46.471	-42.388	-39.346	-35.315	139.311	-39.015	-8191	255	
3365.706	1	1	0	0	0.097839	0.13769	0.071689	0.20159	0.26876	0.096053	0.094561	0.20975	0.21992	0.14109	0.052002	0.26718	0.33379	0.1362	0.15809	0.13827	-0.58333	-0.65417	-0.064583	-1.1354	-0.44583	-0.32708	-1.0417	-0.24167	-0.87708	-1.0583	-0.01875	-0.9	-0.48542	-0.35833	-0.9625	-0.1625	159.136	172.077	86.639	253.308	-4.560	-5.404	231.774	71.995	23.402	-37.975	-36.574	-11.375	251.342	205.781	53.950	209.383	0.00040351	0.00039414	7.1541e-05	674.67	8.481e-06	3.2576e-06	529.8	199.4	4.4522e-06	2.0729e-06	166.7	55.559	59.806	20.975	4.1725e-06	22.662	0.00035561	0.00035947	9.9921e-05	646.07	3.9278e-06	3.9341e-06	511.23	191.42	3.9118e-06	3.9765e-06	162.54	54.536	58.198	20.544	3.9649e-06	22.433	-30.501	227.566	10.858	-48.595	109.224	112.615	-50.165	-43.435	151.159	45.175	-46.486	-42.271	-39.634	-35.026	-16.404	-39.531	-8191	255	
3365.802	1	1	0	0	0.16036	0.19095	0.083029	0.12637	0.14289	0.17303	0.18354	0.17923	0.32415	0.077017	0.13164	0.10328	0.30548	0.29885	0.30359	0.1814	-0.32292	-0.93333	-0.25833	-1.2125	-0.45	-0.1625	-1.0875	-0.36042	-0.67708	-1.0167	-0.13542	-0.94375	-0.825	-0.49375	-1.15	-0.36458	224.397	90.294	286.840	225.128	2.173	74.311	8.639	115.255	181.517	-51.234	115.474	71.133	0.033	-31.496	13.351	39.914	0.00030807	0.00040547	7.094e-05	657.88	3.9614e-06	4.9023e-06	516.61	193.65	4.9576e-06	5.8182e-06	161.97	54.339	58.529	20.62	3.3912e-06	22.513	0.00036304	0.00036266	0.00010303	629.48	4.0126e-06	4.0168e-06	495.49	186.47	4.0737e-06	4.1192e-06	159.05	53.564	56.975	20.083	4.1353e-06	22.201	-0.714	-32.705	-5.064	-48.268	27.146	-32.844	-50.567	-43.769	121.291	106.510	-47.145	-42.413	-39.161	-34.893	99.220	-38.882	-8191	255	
3365.921	1	1	0	0	0.22242	0.13887	0.13709	0.043659	0.13818	0.11422	0.27394	0.15804	0.12357	0.34123	0.22622	0.26004	0.098066	0.15405	0.14941	0.33685	-0.14792	-0.93125	-0.15417	-0.975	-0.79167	-0.20417	-1.0958	-0.33542	-0.54792	-1.0292	-0.26667	-0.78333	-0.84583	-0.175	-1.1854	-0.54375	5.116	68.852	296.043	30.903	273.606	24.145	188.601	292.933	-34.865	-22.369	-38.917	49.009	-4.039	-29.591	206.427	293.675	0.00031063	0.00024874	9.6263e-05	650.31	6.9892e-06	4.5137e-06	520.51	191.09	2.228e-06	2.6653e-06	163.92	54.444	58.144	20.305	1.2727e-05	22.513	0.0003706	0.00037878	0.00010762	624.05	4.1847e-06	4.2046e-06	499.58	184.47	4.1705e-06	4.2304e-06	160.15	53.817	56.605	19.942	4.2308e-06	22.33	47.693	50.139	176.544	-48.393	-18.818	196.930	-50.274	-43.712	-19.528	297.978	-46.255	-41.893	-39.421	-35.220	20.421	-39.239	-8191	255	
3366.017	1	1	0	0	0.17132	0.19314	0.24098	0.44404	0.044138	0.021086	0.17997	0.18169	0.30679	0.26628	0.34878	0.30805	0.27117	0.13492	0.15796	0.20853	-0.052083	-1.0417	-0.37708	-0.83958	-0.90417	-0.26458	-1.0833	-0.55417	-0.27708	-1.2292	-0.33125	-0.6625	-0.92708	-0.15417	-1.0104	-0.63542	55.661	108.320	46.978	271.276	-32.793	-23.697	162.568	140.316	150.267	225.149	245.514	287.627	-45.806	284.225	209.807	157.472	0.0003048	0.00024503	5.7033e-05	653.88	5.2698e-06	3.026e-06	527.21	194.06	6.0068e-06	1.9224e-06	168.11	56.345	59.474	20.618	8.7623e-06	23.198	0.00038075	0.00038234	0.0001094	628.62	4.2392e-06	4.2469e-06	508.62	186.41	4.2091e-06	4.2187e-06	163.64	55.113	57.598	20.206	4.2933e-06	22.791	30.728	279.724	254.336	-48.442	86.501	293.482	-50.248	-43.847	54.644	46.188	-47.513	-42.115	-39.378	-35.126	208.545	-38.814	-8191	255	
3366.113	1	1	0	0	0.075082	0.22198	0.22924	0.1461	0.1733	0.10591	0.17791	0.04566	0.12056	0.1332	0.14909	0.09672	0.11419	0.032409	0.18514	0.030079	-0.035417	-1.1042	-0.34792	-0.60833	-0.93333	-0.18958	-1.0208	-0.6875	-0.12292	-1.0646	-0.475	-0.65208	-1.0229	-0.20625	-0.91667	-0.87917	292.294	18.208	128.254	-49.616	-45.681	75.599	134.285	112.630	-37.334	129.619	268.917	66.981	289.344	-3.584	-61.459	117.958	0.0001212	0.00022803	6.2518e-05	662.83	5.7911e-06	3.9776e-06	535.1	196.85	3.6047e-06	1.2667e-06	169.14	56.298	58.998	20.697	8.6836e-06	23.039	0.00038128	0.00039797	0.00010808	634	4.2105e-06	4.2698e-06	516.45	188.91	4.3157e-06	4.2506e-06	165.49	55.118	57.528	20.319	4.2171e-06	22.642	2.754	6.864	272.024	-48.333	-39.167	21.669	-50.223	-43.695	280.957	77.909	-46.809	-41.619	-39.952	-34.919	132.800	-39.296	-8191	255	
3366.209	1	1	0	0	0.15124	0.11769	0.1419	0.18456	0.0559	0.40647	0.1717	0.036516	0.18278	0.1306	0.18247	0.28149	0.2298	0.11466	0.16973	0.096475	0.070833	-1.1437	-0.5125	-0.63542	-1.0208	-0.35833	-0.9875	-0.8625	0.025	-1.0729	-0.58958	-0.39792	-1.2292	-0.35833	-0.75833	-0.90833	275.273	288.449	66.444	287.536	48.748	136.310	213.291	112.568	297.220	15.555	142.427	-26.995	-40.561	161.541	-0.134	-44.604	8.8824e-05	0.00032051	0.00011634	650.26	8.2151e-06	3.709e-06	516.26	193.18	7.4757e-06	9.849e-07	162.59	54.541	58.689	20.542	6.2065e-06	22.668	0.00038192	0.00038214	0.00010854	624.64	4.166e-06	4.2109e-06	499	185.99	4.2266e-06	4.1877e-06	159.72	53.704	57.079	20.18	4.2287e-06	22.413	264.638	134.705	3.722	-48.526	84.481	102.526	-49.911	-43.637	249.691	55.192	-46.349	-41.861	-39.318	-35.133	195.283	-38.997	-8191	255	
3366.305	1	1	0	0	0.12877	0.30009	0.09814	0.28298	0.21766	0.27469	0.15797	0.03742	0.20607	0.3093	0.057556	0.05216	0.18841	0.40985	0.14851	0.16504	0.12708	-1.1938	-0.48542	-0.32917	-1.1313	-0.3125	-0.66042	-1.0854	-0.50417	-0.98125	-0.86875	-0.44375	-1.275	-0.40208	-0.64375	-1.0292	204.037	127.609	154.954	257.871	241.630	202.292	-52.798	47.149	111.765	210.487	130.772	228.582	-5.312	65.155	245.925	90.178	0.00018814	0.0002574	6.611e-05	657.12	3.5871e-06	1.903e-07	524.49	196.3	1.1884e-05	4.4191e-06	166.98	55.857	59.489	20.977	1.6277e-06	23.201	0.0003802	0.0003879	0.00010806	630.32	4.2198e-06	4.2471e-06	506.45	188.04	4.2219e-06	4.2725e-06	163.16	54.871	57.939	20.473	4.2865e-06	22.998	40.064	-61.015	249.477	-48.458	43.377	206.236	-50.048	-43.401	-32.508	68.295	-46.467	-42.056	-39.271	-35.416	52.559	-38.902	-8191	255	
3366.402	1	1	0	0	0.3013	0.032052	0.088708	0.36902	0.24248	0.40526	0.23533	0.18321	0.16422	0.50829	0.13927	0.024145	0.23625	0.015832	0.098325	0.073723	0.12083	-0.92708	-0.55833	-0.3375	-0.87917	-0.33333	-0.58958	-1.0583	-0.28125	-0.74583	-0.97292	-0.00625	-1.1021	-0.37292	-0.56458	-1.0333	-59.715	206.154	121.718	54.702	284.864	98.081	239.648	-41.221	100.548	156.072	168.288	72.079	278.898	86.128	-9.550	133.731	8.9339e-05	0.00024506	2.0176e-05	668.38	4.1911e-06	4.2259e-06	533.65	198.13	4.5911e-06	4.7121e-06	168.68	56.078	59.53	21.218	1.4099e-05	23.6	0.00038164	0.00038388	0.00010765	636.99	4.207e-06	4.2763e-06	514.5	189.96	4.3014e-06	4.2289e-06	165.62	55.429	58.137	20.661	4.313e-06	23.147	-2.407	-23.316	148.689	-47.993	34.484	-14.038	-50.235	-43.481	28.889	194.555	-46.610	-42.115	-39.212	-35.342	27.600	-38.887	-8191	255	
3366.522	1	1	0	0	0.11476	0.21032	0.18943	0.29439	0.15617	0.19995	0.19727	0.1984	0.088081	0.17472	0.1507	0.12384	0.24031	0.16036	0.20977	0.20442	0.035417	-0.74583	-0.83125	-0.42708	-1.0854	-0.64375	-0.55	-1.1833	-0.23958	-0.61042	-1.1417	-0.11667	-1.1646	-0.67292	-0.39792	-1.1646	96.351	25.528	265.707	213.371	51.162	190.958	247.446	213.041	60.894	79.351	141.216	-29.089	-2.279	204.092	-50.040	-56.136	0.00015071	2.7275e-05	3.4947e-05	665.84	5.007e-06	3.245e-07	533.83	195.85	3.3038e-06	4.2781e-06	170.37	56.555	60.119	20.931	5.8007e-06	23.493	0.00038657	0.00039482	0.00010991	637.86	4.3063e-06	4.2587e-06	514.51	189.35	4.2736e-06	4.3552e-06	165.96	55.613	58.269	20.546	4.412e-06	23.032	244.137	-31.933	70.272	-48.513	111.423	197.109	-49.975	-43.627	129.420	0.657	-46.673	-41.966	-39.059	-35.347	190.523	-38.840	-8191	255	
3366.618	1	1	0	0	0.10826	0.20543	0.20338	0.19912	0.13468	0.22369	0.11586	0.037215	0.10918	0.13881	0.087289	0.17165	0.11292	0.38709	0.13558	0.38225	0.11458	-0.49375	-1.1125	-0.30417	-1.0021	-0.72292	-0.24583	-1.025	-0.52708	-0.80417	-1.2979	-0.49583	-0.92083	-0.9375	-0.37708	-1.1313	34.375	239.535	-46.121	188.877	-44.922	63.394	-57.585	253.662	156.854	224.212	144.958	6.582	-6.885	36.752	196.040	-41.745	5.1952e-05	0.00018524	4.6019e-05	651.4	5.5434e-06	6.3739e-06	514.23	192.58	1.2205e-05	2.3028e-06	161.56	53.961	57.922	20.365	9.1494e-06	22.122	0.00039023	0.0004008	0.00010944	627.08	4.3716e-06	4.381e-06	497.39	185.36	4.3876e-06	4.3935e-06	158.96	53.022	56.37	19.97	4.4373e-06	22.058	69.770	-37.761	286.676	-48.218	293.669	19.340	-49.749	-43.348	42.918	89.130	-46.681	-41.735	-39.215	-35.426	139.791	-38.404	-8191	255	
3366.713	1	1	0	0	0.053789	0.20143	0.087942	0.10307	0.29727	0.01968	0.19655	0.388	0.1554	0.3489	0.082824	0.22613	0.048353	0.067487	0.14619	0.20184	0.047917	-0.48542	-1.2292	-0.060417	-0.80208	-0.80417	-0.39583	-0.98333	-0.41667	-0.56667	-1.2854	-0.31667	-0.6625	-0.74583	-0.17292	-1.0812	257.260	-54.295	85.372	232.455	171.023	189.117	286.296	-19.403	174.488	-37.325	78.851	272.726	93.980	218.387	139.619	267.330	0.00019103	0.00014067	4.2922e-05	648.61	3.5768e-06	2.5345e-06	506.04	191.68	5.6544e-06	9.9516e-06	161.93	53.152	57.325	20.366	5.2283e-06	22.414	0.00039725	0.00040298	0.00011128	619.65	4.4145e-06	4.4264e-06	492.4	183.65	4.3888e-06	4.3771e-06	158.75	52.908	56.38	19.963	4.3798e-06	22.172	-47.204	-42.563	66.279	-48.135	173.676	41.265	-50.100	-43.055	-34.079	149.036	-46.150	-41.709	-38.880	-35.429	56.246	-38.070	-8191	255	
3366.809	1	1	0	0	0.021086	0.019274	0.21325	0.035068	0.28639	0.16291	0.063866	0.2065	0.20199	0.10791	0.096418	0.22069	0.24125	0.085755	0.1111	0.060784	-0.2	-0.22917	-1.0604	-0.42292	-0.65833	-0.99375	-0.28125	-0.81875	-0.75417	-0.4	-1.2354	-0.40208	-0.74375	-1	-0.18333	-0.98125	-41.683	203.970	153.182	35.559	243.367	-46.046	113.680	102.434	70.613	222.759	194.254	181.209	218.856	194.425	3.680	-47.289	0.00029912	0.00064049	0.00020141	643.15	7.5513e-06	3.3765e-06	508.02	190.66	1.852e-06	2.5449e-06	162.11	53.768	57.566	20.172	3.4485e-06	22.524	0.00039893	0.00040054	0.00011299	621.4	4.4653e-06	4.4036e-06	495.64	183.5	4.3696e-06	4.4075e-06	159.81	53.382	56.465	19.881	4.4479e-06	22.232	-22.464	24.136	32.183	-48.322	87.757	228.032	-49.890	-42.915	75.635	208.668	-46.246	-41.930	-38.595	-34.560	81.236	-37.993	-8191	255	
3366.905	1	1	0	0	0.21709	0.086432	0.033457	0.12716	0.16681	0.029227	0.09201	0.18365	0.16814	0.31259	0.067872	0.14978	0.056903	0.19951	0.14405	0.063838	-0.3625	-0.33958	-1.0167	-0.40833	-0.575	-1.2604	-0.28958	-0.925	-0.72708	-0.23333	-1.0396	-0.42083	-0.4125	-1.1396	-0.26458	-0.87083	222.171	171.405	36.129	263.864	273.480	122.478	-56.983	232.528	136.869	21.458	227.992	96.314	11.306	-19.735	77.233	287.279	0.00023178	0.00013109	0.00013706	644.68	6.3347e-06	2.3221e-06	515.73	189.89	8.657e-06	3.7569e-06	162.06	54.241	57.459	19.894	4.1554e-06	22.256	0.00040083	0.00040278	0.00011233	622.44	4.471e-06	4.4691e-06	501.41	183.65	4.4681e-06	4.4905e-06	160.59	53.558	56.224	19.7	4.4814e-06	22.183	-14.534	219.194	237.605	-47.937	81.579	219.845	-49.833	-43.069	85.472	123.986	-46.653	-41.752	-38.870	-35.431	-24.404	-38.384	-8191	255	
#DATA ENDS
