BOXY.EXE: ISS Imagent and Oximeter Data Acquisition Program Version 0.80
Ascii Record File

#ACQ INFORMATION
2  Detector Channels 
16  External MUX Channels 
1  Auxiliary Channels 
5000  Waveform (CCF) Frequency (Hz)
1  Waveforms Skipped 
30  Waveforms Averaged 
1  Cycles Averaged 
16  Acquisitions per Waveform 
10.0806  Updata Rate (Hz) 

#FILE INFORMATION
TRUE -- External MUX Channel results are PARSED.
FALSE -- AC DC and Phase are NOT grouped.
TRUE -- Companion Program Settings File CREATED.
FALSE -- AC data not excluded
FALSE -- DC data not excluded
FALSE -- Phase data not excluded
FALSE -- Auxillary Chn. data not excluded
Tab delimiters

#CALIBRATION STATE
TRUE -- Waveform Calibration Values APPLIED.


#AUX CALIBRATION VALUES
Val Type	aux-1	

Term	1.0000e+00	
Factor	0.0000e+00	


#WF CALIBRATION VALUES
A = Detector Channel
Val Type	A-AC1	A-AC2	A-AC3	A-AC4	A-AC5	A-AC6	A-AC7	A-AC8	A-AC9	A-AC10	A-AC11	A-AC12	A-AC13	A-AC14	A-AC15	A-AC16	A-DC1	A-DC2	A-DC3	A-DC4	A-DC5	A-DC6	A-DC7	A-DC8	A-DC9	A-DC10	A-DC11	A-DC12	A-DC13	A-DC14	A-DC15	A-DC16	A-Ph1	A-Ph2	A-Ph3	A-Ph4	A-Ph5	A-Ph6	A-Ph7	A-Ph8	A-Ph9	A-Ph10	A-Ph11	A-Ph12	A-Ph13	A-Ph14	A-Ph15	A-Ph16	

Term	0.00000e+00	0.00000e+00	0.00000e+00	0.00000e+00	0.00000e+00	0.00000e+00	0.00000e+00	0.00000e+00	0.00000e+00	0.00000e+00	0.00000e+00	0.00000e+00	0.00000e+00	0.00000e+00	0.00000e+00	0.00000e+00	0.00000e+00	0.00000e+00	0.00000e+00	0.00000e+00	0.00000e+00	0.00000e+00	0.00000e+00	0.00000e+00	0.00000e+00	0.00000e+00	0.00000e+00	0.00000e+00	0.00000e+00	0.00000e+00	0.00000e+00	0.00000e+00	0.00000e+00	0.00000e+00	0.00000e+00	0.00000e+00	0.00000e+00	0.00000e+00	0.00000e+00	0.00000e+00	0.00000e+00	0.00000e+00	0.00000e+00	0.00000e+00	0.00000e+00	0.00000e+00	0.00000e+00	0.00000e+00	
Factor	1.00000e+00	1.00000e+00	1.00000e+00	1.00000e+00	1.00000e+00	1.00000e+00	1.00000e+00	1.00000e+00	1.00000e+00	1.00000e+00	1.00000e+00	1.00000e+00	1.00000e+00	1.00000e+00	1.00000e+00	1.00000e+00	1.00000e+00	1.00000e+00	1.00000e+00	1.00000e+00	1.00000e+00	1.00000e+00	1.00000e+00	1.00000e+00	1.00000e+00	1.00000e+00	1.00000e+00	1.00000e+00	1.00000e+00	1.00000e+00	1.00000e+00	1.00000e+00	X	X	X	X	X	X	X	X	X	X	X	X	X	X	X	X	

B = Detector Channel
Val Type	B-AC1	B-AC2	B-AC3	B-AC4	B-AC5	B-AC6	B-AC7	B-AC8	B-AC9	B-AC10	B-AC11	B-AC12	B-AC13	B-AC14	B-AC15	B-AC16	B-DC1	B-DC2	B-DC3	B-DC4	B-DC5	B-DC6	B-DC7	B-DC8	B-DC9	B-DC10	B-DC11	B-DC12	B-DC13	B-DC14	B-DC15	B-DC16	B-Ph1	B-Ph2	B-Ph3	B-Ph4	B-Ph5	B-Ph6	B-Ph7	B-Ph8	B-Ph9	B-Ph10	B-Ph11	B-Ph12	B-Ph13	B-Ph14	B-Ph15	B-Ph16	

Term	0.00000e+00	0.00000e+00	0.00000e+00	0.00000e+00	0.00000e+00	0.00000e+00	0.00000e+00	0.00000e+00	0.00000e+00	0.00000e+00	0.00000e+00	0.00000e+00	0.00000e+00	0.00000e+00	0.00000e+00	0.00000e+00	0.00000e+00	0.00000e+00	0.00000e+00	0.00000e+00	0.00000e+00	0.00000e+00	0.00000e+00	0.00000e+00	0.00000e+00	0.00000e+00	0.00000e+00	0.00000e+00	0.00000e+00	0.00000e+00	0.00000e+00	0.00000e+00	6.90162e+01	-1.56128e+02	-1.16186e+02	-1.81639e+02	-7.96074e+01	-9.11058e+01	-1.56882e+02	-1.62015e+02	-1.33922e+02	-6.75792e+01	-1.72122e+02	-1.69516e+02	-1.85555e+02	-1.76516e+02	-9.85877e+01	-1.49146e+02	
Factor	6.21861e-05	1.15743e-04	3.18327e-05	1.64936e-01	1.44916e-06	1.20847e-06	1.76422e-01	5.14978e-02	1.99006e-06	1.27802e-06	8.81120e-02	2.83650e-02	2.55766e-02	8.90638e-03	1.90026e-06	1.25959e-02	1.53080e-06	1.58230e-06	4.40569e-07	8.63224e-02	1.72893e-08	1.73607e-08	8.67342e-02	2.69960e-02	1.72581e-08	1.73857e-08	4.42118e-02	1.42717e-02	1.32884e-02	4.65608e-03	1.73092e-08	6.35628e-03	X	X	X	X	X	X	X	X	X	X	X	X	X	X	X	X	



#DISTANCE SETTINGS
A = Detector Channel
A-1	A-2	A-3	A-4	A-5	A-6	A-7	A-8	A-9	A-10	A-11	A-12	A-13	A-14	A-15	A-16	

2.5000e+00	3.0000e+00	2.5000e+00	3.0000e+00	2.0000e+00	3.0000e+00	1.5000e+00	3.0000e+00	3.0000e+00	3.0000e+00	3.0000e+00	3.0000e+00	3.0000e+00	3.0000e+00	1.5000e+00	3.0000e+00	

B = Detector Channel
B-1	B-2	B-3	B-4	B-5	B-6	B-7	B-8	B-9	B-10	B-11	B-12	B-13	B-14	B-15	B-16	

1.0000e+01	1.0000e+01	1.0000e+01	1.4400e+00	1.0000e+01	1.0000e+01	1.5100e+00	1.9400e+00	1.0000e+01	1.0000e+01	1.9900e+00	2.4900e+00	2.4100e+00	2.9000e+00	1.0000e+01	2.9800e+00	




#DATA BEGINS
time	group	step	mark	flag	A-AC1	A-AC2	A-AC3	A-AC4	A-AC5	A-AC6	A-AC7	A-AC8	A-AC9	A-AC10	A-AC11	A-AC12	A-AC13	A-AC14	A-AC15	A-AC16	A-DC1	A-DC2	A-DC3	A-DC4	A-DC5	A-DC6	A-DC7	A-DC8	A-DC9	A-DC10	A-DC11	A-DC12	A-DC13	A-DC14	A-DC15	A-DC16	A-Ph1	A-Ph2	A-Ph3	A-Ph4	A-Ph5	A-Ph6	A-Ph7	A-Ph8	A-Ph9	A-Ph10	A-Ph11	A-Ph12	A-Ph13	A-Ph14	A-Ph15	A-Ph16	B-AC1	B-AC2	B-AC3	B-AC4	B-AC5	B-AC6	B-AC7	B-AC8	B-AC9	B-AC10	B-AC11	B-AC12	B-AC13	B-AC14	B-AC15	B-AC16	B-DC1	B-DC2	B-DC3	B-DC4	B-DC5	B-DC6	B-DC7	B-DC8	B-DC9	B-DC10	B-DC11	B-DC12	B-DC13	B-DC14	B-DC15	B-DC16	B-Ph1	B-Ph2	B-Ph3	B-Ph4	B-Ph5	B-Ph6	B-Ph7	B-Ph8	B-Ph9	B-Ph10	B-Ph11	B-Ph12	B-Ph13	B-Ph14	B-Ph15	B-Ph16	aux-1	digaux	

3411.465	1	1	0	256	0.27732	0.12481	0.10599	0.1425	0.12141	0.09345	0.34502	0.17719	0.081809	0.19613	0.16516	0.29672	0.3118	0.25541	0.018785	0.19645	0.20417	-0.9375	-0.57083	-0.12292	-1.1125	-0.39792	-0.56042	-1.0063	-0.15208	-1.0438	-0.73542	-0.17083	-1.0063	-0.20625	-0.46458	-0.86458	68.833	128.586	144.149	290.880	-3.113	279.881	295.277	271.266	37.040	-40.534	276.116	-56.604	158.964	-40.239	5.972	-37.920	0.00048513	8.1292e-05	0.00023186	725.74	5.0951e-06	1.1089e-05	541.98	233.37	5.6238e-06	8.6466e-06	193.33	57.349	75.237	22.491	1.0533e-05	18.492	0.0010827	0.0011153	0.00030721	732.52	1.2098e-05	1.2058e-05	562.21	234.81	1.1901e-05	1.1947e-05	207.97	62.644	78.117	23.946	1.1842e-05	21.35	107.172	94.643	21.368	-49.789	218.135	47.859	-51.253	-45.032	12.312	256.854	-48.408	-43.802	-41.047	-36.729	146.831	-40.211	-8191	255	
3411.561	1	1	0	0	0.17543	0.18569	0.069193	0.2325	0.014099	0.14995	0.21812	0.41932	0.33349	0.097125	0.26186	0.090819	0.23041	0.21961	0.15605	0.32047	0.19375	-0.82292	-0.52917	-0.22083	-0.93958	-0.475	-0.57708	-1.0125	-0.1375	-0.82917	-0.81667	-0.09375	-0.96667	-0.31458	-0.27292	-1.1604	-50.695	-58.002	117.452	54.345	33.751	-22.559	212.939	-53.453	-12.334	165.080	-10.544	32.680	1.496	26.020	-10.256	122.656	0.00060387	0.00046582	5.6996e-05	727.69	4.8965e-06	7.2732e-06	538.98	233.02	6.6268e-06	6.8803e-06	193.94	57.104	75.534	22.361	7.1565e-06	18.65	0.0010472	0.0010701	0.00029916	731.72	1.1676e-05	1.1778e-05	557.78	234.18	1.1785e-05	1.1823e-05	207.69	62.318	78.114	23.954	1.1771e-05	21.392	10.433	34.824	226.421	-49.671	-37.654	183.036	-51.851	-45.050	-19.479	206.022	-47.579	-43.969	-40.747	-37.437	67.390	-41.235	-8191	255	
3411.657	1	1	0	0	0.15949	0.27641	0.43233	0.1107	0.055656	0.20454	0.32019	0.11045	0.17138	0.19411	0.19583	0.086921	0.23661	0.0067654	0.15293	0.090651	0.15833	-0.77292	-0.825	-0.1625	-0.92292	-0.52917	-0.19167	-1.0979	-0.15625	-0.70208	-0.89375	0.064583	-1.0292	-0.42708	-0.19167	-0.91042	28.426	168.392	127.475	266.327	152.783	276.239	130.843	-60.341	-23.056	253.500	239.826	63.101	264.402	112.806	218.020	-45.563	0.00013837	0.00058772	0.00010702	722.93	5.9422e-06	1.0881e-05	537.19	235.57	6.4202e-06	2.7869e-06	194.79	57.564	75.486	22.576	3.2809e-06	18.535	0.0010526	0.0010749	0.00030105	729.31	1.1779e-05	1.1901e-05	559.31	235.91	1.1833e-05	1.1909e-05	209.48	62.889	78.822	24.042	1.1848e-05	21.521	45.340	84.521	159.397	-50.120	147.929	138.444	-51.601	-44.943	55.932	-27.992	-47.727	-43.917	-40.463	-36.766	14.590	-40.593	-8191	255	
3411.753	1	1	0	0	0.31935	0.29817	0.098552	0.048683	0.20744	0.10182	0.16359	0.32078	0.24249	0.11104	0.28884	0.14284	0.39922	0.022779	0.29308	0.15952	0.039583	-0.50833	-0.93125	-0.058333	-0.91667	-0.51042	-0.13333	-1.2333	-0.45833	-0.61667	-1.0812	-0.035417	-0.94375	-0.59375	-0.17708	-0.90417	43.491	234.374	152.222	177.745	270.896	39.106	-27.008	290.253	224.943	111.161	-37.272	-13.713	264.612	179.710	14.746	222.432	0.00041858	0.0013533	4.3909e-05	723.12	5.823e-06	3.6932e-06	543.08	233.71	1.9536e-06	1.1373e-05	196.63	57.929	75.941	22.695	3.753e-06	18.864	0.001062	0.0010899	0.00030444	730.54	1.1864e-05	1.2041e-05	563.12	236.15	1.1988e-05	1.2046e-05	211.42	63.577	79.134	24.259	1.2021e-05	21.773	-20.692	-25.868	79.519	-49.990	83.946	74.919	-51.798	-45.000	-57.182	197.303	-47.744	-43.710	-40.467	-36.860	6.252	-40.315	-8191	255	
3411.874	1	1	0	0	0.20466	0.17848	0.047245	0.1341	0.041843	0.12878	0.15911	0.11322	0.02051	0.2248	0.23023	0.095237	0.20183	0.14121	0.22415	0.12344	0.18125	-0.35833	-0.95417	-0.22083	-0.91667	-0.82708	-0.12917	-1.1583	-0.36667	-0.30833	-1.0729	-0.20208	-0.87708	-0.78125	-0.12292	-1.0083	162.488	224.193	160.504	228.255	200.245	7.294	-60.337	9.587	19.160	-44.555	288.303	-36.131	136.145	163.182	49.642	-17.069	0.00033773	0.00042037	0.00018052	729.23	3.1912e-06	3.3022e-06	540.67	235.44	7.6463e-06	1.1184e-05	197.61	58.38	76.629	22.574	9.2123e-06	18.617	0.0010682	0.0011051	0.00030547	734.39	1.201e-05	1.2058e-05	563.54	237.19	1.1933e-05	1.196e-05	210.9	63.589	79.47	24.165	1.1702e-05	21.473	189.642	85.341	68.159	-50.015	120.398	221.899	-51.338	-44.858	291.763	48.543	-48.095	-43.739	-40.651	-36.661	96.173	-40.612	-8191	255	
3411.945	1	1	0	0	0.12742	0.11119	0.36365	0.40044	0.13894	0.10732	0.17599	0.15734	0.34087	0.018989	0.26427	0.25438	0.23452	0.31036	0.0957	0.12648	-0.23958	-0.30833	-0.96458	-0.33958	-0.64583	-0.85	-0.21042	-1.0146	-0.78542	-0.21042	-1.1	-0.22917	-0.62708	-0.8125	0.022917	-0.86042	14.322	-31.116	277.649	-43.080	130.695	106.312	160.996	289.102	230.627	82.930	229.908	182.856	-54.576	294.976	217.922	199.837	0.00051817	0.00041902	2.9259e-05	729.45	4.6411e-06	6.3002e-06	537.73	235.14	1.684e-05	6.4786e-06	197.51	57.223	76.164	22.659	1.3077e-05	18.481	0.0010376	0.0010643	0.00029746	732.14	1.1519e-05	1.1659e-05	557.7	236	1.1609e-05	1.1561e-05	209.07	62.484	78.744	24.01	1.152e-05	21.25	-57.012	170.320	234.866	-49.741	121.435	259.829	-51.791	-44.846	26.343	46.825	-47.712	-43.737	-40.584	-36.570	277.909	-40.559	-8191	255	
3412.041	1	1	0	0	0.14504	0.29694	0.20335	0.074444	0.19154	0.19695	0.16493	0.097249	0.093487	0.12128	0.074682	0.37178	0.22269	0.17089	0.24991	0.21367	-0.30208	-0.13542	-1.0083	-0.25833	-0.59792	-1.0729	-0.016667	-1.0021	-0.70208	-0.31875	-0.98333	-0.25833	-0.42083	-0.79792	-0.014583	-0.81875	218.218	244.529	-31.852	183.765	75.280	229.866	-41.585	92.451	221.286	24.252	1.124	244.544	86.877	215.252	162.209	71.670	6.3025e-05	0.00037471	4.0506e-05	729.85	9.6105e-06	1.0773e-07	536.77	236.02	2.0839e-06	2.8206e-06	195.28	57.896	76.204	22.773	1.2901e-05	18.73	0.001023	0.0010616	0.00029431	731.63	1.1542e-05	1.1735e-05	556.94	236.75	1.1552e-05	1.1624e-05	209.85	62.945	78.829	24.065	1.159e-05	21.478	248.507	239.584	249.081	-49.948	-21.098	293.659	-51.635	-44.668	109.675	148.789	-47.777	-43.692	-40.672	-36.869	-1.021	-40.174	-8191	255	
3412.138	1	1	0	0	0.12951	0.19248	0.22245	0.17272	0.12502	0.11256	0.20706	0.10895	0.08937	0.12607	0.16078	0.2463	0.24474	0.16161	0.10672	0.19156	-0.27292	-0.12917	-0.9875	-0.475	-0.36667	-1.3	-0.30208	-1.0271	-0.81875	-0.06875	-0.97083	-0.52083	-0.425	-1.1375	-0.17917	-0.56875	289.255	277.246	182.358	277.534	28.372	153.947	260.430	-17.302	25.775	191.300	285.610	106.836	158.348	-61.665	228.337	29.128	0.00012532	0.00032787	0.00012249	729.82	1.3567e-05	1.028e-05	540.07	234.79	1.4683e-05	1.3595e-06	196.62	58.208	76.643	22.776	5.891e-06	18.78	0.0010407	0.0010743	0.00029798	733.26	1.1594e-05	1.1739e-05	560	236.74	1.1717e-05	1.1709e-05	210.57	63.102	79.199	24.245	1.185e-05	21.772	266.899	160.794	82.583	-50.153	84.387	53.499	-51.411	-45.017	167.928	186.923	-47.225	-43.763	-40.352	-36.671	136.436	-40.719	-8191	255	
3412.256	1	1	0	0	0.22003	0.16882	0.23235	0.12572	0.14769	0.28919	0.067682	0.21708	0.17786	0.21464	0.22281	0.14776	0.17509	0.014443	0.20641	0.13668	-0.43125	-0.12917	-0.91875	-0.48958	-0.36875	-1.2437	-0.37292	-0.70625	-0.93542	-0.27083	-0.96458	-0.625	-0.24583	-1.05	0.0041667	-0.43125	120.871	76.593	90.515	284.736	77.702	51.498	-9.496	-54.574	86.259	153.468	213.745	294.963	76.215	89.165	90.225	245.487	0.00029005	0.0011361	0.00014164	727.67	1.1026e-05	3.4952e-07	544.05	235.13	1.7368e-05	1.6268e-06	197.47	58.343	76.101	22.811	1.6132e-05	19.284	0.0010436	0.0010771	0.00030205	734.41	1.1914e-05	1.189e-05	564.73	237.19	1.1938e-05	1.1975e-05	211.48	63.623	79.213	24.322	1.1833e-05	21.954	7.015	-22.485	75.468	-49.925	45.394	29.253	-51.720	-44.783	141.671	95.700	-47.849	-43.752	-40.581	-37.020	-4.357	-40.322	-8191	255	
3412.353	1	1	0	0	0.050201	0.30533	0.05527	0.07581	0.24497	0.061658	0.07445	0.30658	0.096219	0.14021	0.2185	0.086203	0.090946	0.11152	0.23936	0.07188	-0.50833	0.066667	-0.92292	-0.66667	-0.091667	-0.80208	-0.3875	-0.42083	-0.9875	-0.24375	-0.76667	-0.69583	-0.010417	-1.0979	-0.2125	-0.28542	-30.368	271.379	277.563	11.930	-56.082	201.321	58.963	-31.426	-29.591	32.779	257.008	209.505	-7.025	267.747	266.151	143.126	0.00027454	0.00048728	0.00015607	732.44	9.0065e-06	7.6532e-06	544.42	234.77	1.4024e-05	9.0082e-07	195.13	58.148	76.449	22.691	9.5093e-06	18.352	0.0010477	0.0010767	0.00029945	734.83	1.1709e-05	1.1724e-05	561.42	236.45	1.1613e-05	1.1698e-05	209.52	62.861	78.956	24.126	1.1727e-05	21.344	146.303	5.131	96.313	-49.925	150.336	247.076	-51.333	-44.495	102.120	-5.177	-47.947	-43.449	-40.610	-36.572	52.953	-39.322	-8191	255	
3412.450	1	1	0	0	0.26881	0.19574	0.31509	0.26513	0.42882	0.089068	0.24368	0.29526	0.302	0.14228	0.26001	0.28387	0.18652	0.042277	0.093869	0.095321	-0.58542	-0.17917	-0.775	-0.88125	-0.020833	-0.96875	-0.59583	-0.31042	-0.86667	-0.14583	-0.62083	-0.89792	-0.19583	-0.93958	-0.52708	-0.27708	207.258	-30.341	20.045	-30.885	239.888	245.179	-16.022	-14.611	173.486	145.726	195.875	258.380	204.587	257.826	145.629	276.198	0.00019338	0.00053776	0.00012955	729.98	1.1987e-05	6.8147e-06	538.14	236.23	1.3935e-05	4.69e-06	196.49	57.904	76.34	22.81	3.5419e-06	18.943	0.0010271	0.0010657	0.00029519	731.54	1.1573e-05	1.163e-05	559.94	237.32	1.1625e-05	1.1753e-05	210.33	63.082	79.353	24.352	1.1641e-05	21.683	55.643	5.544	266.688	-50.132	42.110	-9.502	-51.398	-44.890	6.431	11.486	-47.266	-43.974	-40.566	-36.386	206.058	-40.296	-8191	255	
3412.569	1	1	0	0	0.20543	0.17059	0.22757	0.28542	0.18157	0.41317	0.086439	0.20312	0.19092	0.13033	0.32002	0.1013	0.24006	0.14475	0.14044	0.29551	-0.53958	-0.28125	-0.45833	-0.93958	0.047917	-0.95833	-0.52917	-0.085417	-1.1333	-0.19792	-0.55625	-1.0812	-0.12917	-0.72708	-0.66667	-0.0875	119.889	187.761	9.922	-11.851	203.550	242.696	-56.879	240.147	10.765	159.160	92.113	282.066	-6.886	202.253	140.107	192.627	4.551e-05	0.00093731	0.00029074	725.99	5.9673e-06	3.7576e-06	541.33	237.36	1.4635e-05	9.3421e-06	198.14	58.595	76.782	23.103	5.706e-06	19.213	0.0010444	0.0010705	0.00030122	731.77	1.1763e-05	1.1819e-05	561.69	238.21	1.1719e-05	1.193e-05	212	63.675	79.822	24.437	1.1898e-05	21.888	131.634	22.017	-54.158	-49.782	-16.517	154.727	-51.423	-44.728	39.791	26.749	-47.495	-44.147	-41.123	-36.286	49.314	-40.051	-8191	255	
3412.641	1	1	0	0	0.1077	0.16564	0.11691	0.13854	0.099985	0.15686	0.13832	0.22296	0.16709	0.10384	0.16108	0.18654	0.098009	0.12138	0.23025	0.11861	-0.56875	-0.40833	-0.425	-1.1042	-0.097917	-0.73542	-0.77917	-0.15625	-1.0521	-0.57083	-0.32292	-1.1542	-0.1625	-0.78125	-0.71042	-0.10625	109.723	-24.725	153.416	203.911	85.241	-55.255	169.498	24.943	61.165	31.870	224.408	37.535	138.651	219.518	169.583	-3.061	0.00040645	0.00044822	0.00043439	727.14	4.7913e-06	1.4967e-06	548.19	237.1	6.5504e-06	5.661e-06	200.52	59.463	77.378	23.297	1.138e-05	19.419	0.0010564	0.0010882	0.00030422	734.78	1.1946e-05	1.192e-05	566.73	238.68	1.1954e-05	1.2052e-05	213.81	64.76	80.238	24.736	1.1968e-05	22.24	-24.566	2.330	11.997	-49.737	266.631	101.969	-51.473	-44.707	261.576	94.059	-47.024	-43.713	-40.548	-36.473	140.822	-39.701	-8191	255	
3412.737	1	1	0	0	0.27989	0.050917	0.25566	0.27218	0.15278	0.13028	0.14336	0.060559	0.10746	0.16652	0.4311	0.19954	0.1993	0.035963	0.15827	0.29868	-0.60833	-0.40417	-0.40417	-0.95417	-0.2	-0.6875	-1.0354	-0.32292	-0.94167	-0.5	-0.26667	-1.2042	-0.32083	-0.58542	-1.05	0	141.697	12.755	49.302	206.554	296.151	83.553	227.938	189.951	291.336	30.885	171.007	205.128	121.931	197.090	30.250	200.530	0.00033561	0.00094583	0.00018208	729.8	8.2753e-06	8.9185e-06	552.2	238.37	9.2963e-06	6.9924e-06	199.91	59.282	77.11	23.304	1.7424e-06	19.079	0.0010644	0.001103	0.0003033	738.16	1.1905e-05	1.2087e-05	570.62	240.14	1.1876e-05	1.1924e-05	214.36	64.3	80.386	24.645	1.1841e-05	21.967	80.076	-59.319	116.340	-49.662	127.642	259.456	-51.184	-44.712	75.068	-32.968	-47.629	-43.119	-40.478	-36.710	-4.420	-40.530	-8191	255	
3412.858	1	1	0	0	0.17823	0.081505	0.26766	0.34755	0.17857	0.05058	0.11458	0.093271	0.11278	0.25009	0.10783	0.12542	0.25515	0.094957	0.051178	0.16564	-0.71875	-0.72708	-0.058333	-0.98333	-0.31042	-0.53542	-1.0562	-0.25625	-0.95	-0.775	-0.20208	-0.84167	-0.41458	-0.43125	-1.0854	-0.066667	230.917	179.770	164.885	-15.021	294.132	34.163	144.786	272.042	-27.709	1.073	268.435	219.748	68.994	149.079	52.275	-40.989	0.00089804	0.00030619	0.00013645	732.66	9.9236e-06	5.263e-06	545.62	235.83	7.593e-06	6.0674e-06	197.9	58.861	77.447	23.196	6.8366e-06	19.105	0.0010471	0.0010858	0.00030312	736.52	1.1869e-05	1.191e-05	563.52	237.75	1.1887e-05	1.1977e-05	212.5	64.037	80.209	24.628	1.1978e-05	21.968	3.823	252.175	83.966	-49.664	99.477	-0.463	-51.366	-44.751	188.831	56.267	-47.702	-43.336	-40.551	-36.666	-42.087	-39.909	-8191	255	
3412.954	1	1	0	0	0.054186	0.039257	0.098481	0.12867	0.12968	0.21905	0.19035	0.095447	0.063026	0.012551	0.054455	0.28274	0.13314	0.28827	0.051544	0.19684	-0.23333	-0.48333	-0.0041667	-0.97292	-0.32708	-0.22083	-1.0354	-0.20417	-0.60417	-0.84375	-0.50417	-0.83333	-0.52292	-0.36667	-1.1646	-0.23333	93.118	86.820	282.159	119.472	191.434	96.946	132.415	282.462	161.735	125.986	272.571	295.954	60.356	-43.953	67.415	192.027	0.00024464	0.00026654	0.00027797	732.32	5.0128e-06	2.0814e-06	547.94	237.4	1.3698e-05	5.1418e-06	200.81	58.928	76.877	23.27	1.235e-05	19.222	0.001054	0.0010792	0.00030333	736.88	1.1835e-05	1.1933e-05	565.16	239.37	1.1989e-05	1.2121e-05	213.38	64.314	80.016	24.76	1.2059e-05	22.121	3.610	200.797	-1.806	-49.523	-8.205	-12.129	-50.802	-44.745	123.255	217.536	-47.970	-43.164	-40.981	-36.277	-9.000	-40.638	-8191	255	
3413.050	1	1	0	0	0.12343	0.21756	0.12471	0.17728	0.048404	0.17615	0.23136	0.26797	0.18474	0.13818	0.10697	0.27863	0.15814	0.08719	0.21396	0.17251	-0.066667	-0.8875	0.00625	-1.0125	-0.53125	-0.32292	-1.3917	-0.3875	-0.62708	-0.87083	-0.125	-0.90208	-0.71042	-0.20833	-0.99583	-0.21042	88.449	193.154	270.405	193.801	140.591	170.536	293.123	215.032	286.924	214.490	151.752	290.109	-47.620	60.254	-22.360	33.116	0.00029647	0.00077943	0.00012958	729.64	1.0164e-05	8.6374e-06	542.01	237.83	5.8183e-06	3.1992e-06	198.29	59.649	77.032	23.53	1.2959e-05	19.421	0.0010831	0.0011043	0.00030965	735.96	1.2095e-05	1.2134e-05	566.09	239.38	1.203e-05	1.2263e-05	213.62	65.087	80.399	24.851	1.2171e-05	22.301	220.222	107.423	291.285	-49.561	84.357	15.563	-51.348	-44.430	165.350	54.373	-47.642	-43.633	-41.009	-36.585	86.174	-40.371	-8191	255	
3413.171	1	1	0	0	0.11614	0.1219	0.076736	0.17063	0.040262	0.11299	0.13498	0.07275	0.31823	0.045898	0.15743	0.096793	0.23846	0.044357	0.20715	0.27486	-0.14792	-1.0771	-0.18333	-0.86667	-0.90833	-0.26875	-1.1875	-0.41667	-0.37083	-0.95417	-0.33125	-0.86667	-0.61667	-0.1	-0.91458	-0.4	33.354	137.471	188.399	92.333	172.464	127.301	153.008	163.823	282.640	279.241	261.315	251.609	169.183	-44.170	170.035	-36.000	0.00011293	0.00073121	0.00022115	729.27	4.5268e-06	8.6748e-06	550.89	238.23	1.7595e-05	6.2705e-06	200.66	58.926	76.893	23.415	1.8095e-05	19.32	0.0010955	0.0011193	0.00031091	737.9	1.2311e-05	1.2445e-05	568	239.55	1.2186e-05	1.2282e-05	214.49	64.67	80.206	24.818	1.2143e-05	22.099	167.114	158.140	12.012	-49.553	2.191	-46.480	-50.912	-44.741	120.463	34.995	-48.141	-43.854	-40.681	-36.507	67.840	-40.073	-8191	255	
3413.242	1	1	0	0	0.27066	0.19775	0.26523	0.22628	0.026869	0.20608	0.26556	0.11683	0.1581	0.17539	0.173	0.056065	0.31975	0.071715	0.18599	0.2346	0.19583	-1.0396	-0.16042	-0.66042	-0.99792	-0.029167	-1.2958	-0.47708	-0.17083	-1.0271	-0.22292	-0.5	-0.8375	-0.033333	-0.92083	-0.40625	-54.401	-36.204	-51.782	261.143	269.342	266.256	130.591	106.879	-53.546	-36.212	206.800	86.099	79.593	41.894	250.025	246.125	0.00040184	0.00038214	0.00025933	731.37	6.1487e-06	4.9164e-06	542.4	236.15	1.8761e-05	7.3128e-06	196.73	58.116	76.862	22.881	1.0332e-05	18.777	0.0010717	0.0010945	0.00030631	735.61	1.1956e-05	1.2074e-05	561.81	237.71	1.193e-05	1.1962e-05	209.93	63.419	79.569	24.416	1.1854e-05	21.612	-3.463	257.800	169.554	-49.832	-22.824	-37.823	-51.350	-44.876	-20.963	295.511	-47.954	-43.431	-40.884	-37.036	173.571	-40.533	-8191	255	
3413.339	1	1	0	0	0.20133	0.098077	0.05311	0.014449	0.32134	0.16804	0.049539	0.24522	0.25335	0.19897	0.0091367	0.17694	0.26246	0.37788	0.32023	0.16841	0.1	-1.1396	-0.18333	-0.65625	-0.73333	-0.091667	-0.94375	-0.84375	-0.0375	-0.9125	-0.2	-0.43958	-1.2167	-0.17292	-0.94167	-0.83333	97.226	126.032	56.553	206.221	1.373	-46.180	206.699	258.631	252.093	242.948	3.698	-37.422	273.707	224.785	155.059	282.645	0.00014196	0.00036829	0.00032011	726.34	7.0713e-06	7.7382e-06	539.26	236.32	8.5213e-06	4.9696e-06	194.58	58.236	76.626	23	1.0779e-05	18.919	0.0010614	0.0010806	0.00030088	732.17	1.1815e-05	1.1929e-05	559.71	237.28	1.1859e-05	1.188e-05	209.85	63.392	79.517	24.399	1.1842e-05	21.684	-10.416	226.484	43.609	-49.585	225.718	258.619	-51.651	-44.815	-9.077	122.642	-47.892	-43.860	-40.360	-36.720	27.670	-41.014	-8191	255	
3413.433	1	1	0	0	0.20455	0.12993	0.13576	0.19263	0.11209	0.15676	0.24438	0.19905	0.068614	0.20371	0.34988	0.10901	0.2668	0.12964	0.085229	0.21017	0.34583	-1.0812	-0.225	-0.49167	-0.94167	-0.22083	-0.80833	-0.95833	-0.070833	-1.2188	-0.4875	-0.37917	-1.0562	-0.37917	-0.69792	-0.79375	279.920	50.308	206.366	272.737	99.171	54.989	224.924	218.726	226.164	61.544	136.300	197.153	219.070	-51.430	287.000	-53.503	0.00047652	0.00091285	0.0001614	724.92	8.0273e-06	3.5807e-06	537.12	235.71	5.0366e-06	4.7493e-06	196.63	57.659	76.772	23.031	1.7077e-05	19.032	0.00106	0.0010979	0.00030406	732.54	1.1857e-05	1.1969e-05	559.41	236.93	1.1943e-05	1.1981e-05	210.76	63.591	79.694	24.474	1.2037e-05	21.877	-50.029	256.498	11.505	-49.716	240.231	183.186	-51.171	-44.749	92.418	-59.827	-47.953	-43.833	-40.485	-36.309	87.072	-39.979	-8191	255	
3413.554	1	1	0	0	0.22555	0.055921	0.046605	0.27294	0.16274	0.22092	0.31589	0.13081	0.052803	0.18155	0.20901	0.19383	0.29673	0.24232	0.12745	0.16368	0.26458	-0.91042	-0.44375	-0.45417	-1.0396	-0.24167	-0.84583	-1.1562	-0.34375	-0.91042	-0.6375	-0.28125	-1.1562	-0.32917	-0.71458	-1.1313	229.473	194.070	286.283	-49.051	221.521	182.175	267.249	138.913	206.402	282.764	186.230	288.140	10.283	-20.850	-34.201	19.121	0.00045009	0.00035374	0.00021769	734.3	1.2976e-05	8.7198e-06	543.15	235.07	1.1657e-05	7.0533e-06	197.69	58.856	76.369	23.162	2.0915e-05	19.172	0.0010727	0.0011038	0.00030548	735.18	1.2036e-05	1.2034e-05	562.29	237.31	1.2015e-05	1.2083e-05	212.73	63.934	79.478	24.572	1.2157e-05	21.971	-58.480	104.479	-31.657	-49.620	164.445	124.396	-51.096	-44.637	61.766	115.046	-47.412	-43.732	-40.285	-36.349	16.418	-40.127	-8191	255	
3413.650	1	1	0	0	0.27883	0.38558	0.24286	0.20635	0.080949	0.14302	0.12279	0.07901	0.22789	0.28978	0.063819	0.16227	0.21978	0.13329	0.055747	0.16074	0.22917	-0.81875	-0.69792	-0.40208	-0.97917	-0.4125	-0.47917	-0.93125	-0.14792	-0.96458	-0.78542	-0.2	-1.0854	-0.3625	-0.26042	-1.0354	162.558	279.994	-13.888	250.184	293.041	241.963	4.784	97.287	29.066	202.976	184.362	181.858	245.307	209.327	218.759	195.379	0.000402	0.0005331	0.00027236	726.38	5.6489e-06	3.2955e-06	541.38	234.38	1.1139e-05	6.642e-06	195.46	58.047	75.474	22.568	7.4329e-06	18.368	0.0010721	0.0011047	0.00030605	731.61	1.1803e-05	1.1901e-05	562.66	236.39	1.1764e-05	1.1883e-05	209.51	62.906	78.767	24.119	1.1763e-05	21.343	284.146	70.308	48.854	-49.696	98.348	32.810	-51.737	-45.069	69.472	294.687	-47.545	-43.240	-40.665	-36.578	-26.095	-40.296	-8191	255	
3413.746	1	1	0	0	0.090804	0.25396	0.065925	0.25626	0.092379	0.26144	0.21611	0.29133	0.3823	0.34582	0.25843	0.14219	0.31175	0.22312	0.084609	0.066092	0.13542	-0.66458	-0.60208	-0.18125	-1.0354	-0.41875	-0.68125	-1.0104	-0.12917	-0.73333	-0.95833	-0.11667	-1.1688	-0.48333	-0.44167	-0.95	155.036	227.599	55.048	272.081	188.644	-40.100	165.481	-9.110	78.515	234.920	156.448	238.321	204.246	207.291	40.576	198.765	0.00011396	0.00060429	1.1244e-05	725	1.1258e-05	9.1739e-06	532.85	234.38	1.4e-05	4.8802e-06	194.85	56.839	75.609	22.565	1.2613e-06	18.356	0.0010456	0.0010724	0.00030052	728.08	1.1562e-05	1.1683e-05	553.69	235.78	1.1636e-05	1.1736e-05	208.5	62.299	78.684	24.074	1.1744e-05	21.295	59.864	134.842	132.748	-49.808	-45.138	-27.187	-51.169	-45.004	252.115	30.423	-47.856	-43.429	-40.345	-36.168	-11.316	-39.968	-8191	255	
3413.842	1	1	0	0	0.21957	0.11936	0.020052	0.41587	0.08222	0.020324	0.27168	0.13808	0.26608	0.19679	0.21858	0.3211	0.13171	0.060384	0.26075	0.062487	0.23542	-0.725	-0.89583	-0.18333	-0.85208	-0.47917	-0.31042	-1.1604	-0.11875	-0.65	-0.92292	-0.27083	-1.0208	-0.37292	-0.27292	-0.95208	215.200	57.658	168.150	-42.111	130.961	71.172	-42.962	248.412	133.842	-0.457	297.366	275.872	-56.735	-29.818	64.969	22.818	0.00018691	0.0015882	9.8025e-05	717.76	5.7516e-06	1.5755e-05	537.3	234.88	9.158e-06	8.4024e-06	196.91	56.906	75.006	22.777	8.1038e-06	18.609	0.0010476	0.0010681	0.00029966	725.93	1.1678e-05	1.1779e-05	555.02	235.79	1.1756e-05	1.1913e-05	209.04	62.512	78.332	24.099	1.1877e-05	21.521	-5.142	46.080	170.054	-49.816	142.088	-15.419	-51.718	-44.580	-18.165	43.706	-47.715	-43.813	-40.569	-36.931	183.697	-40.274	-8191	255	
3413.938	1	1	0	0	0.12995	0.1982	0.21721	0.30829	0.016626	0.20138	0.24557	0.18372	0.13506	0.32965	0.30914	0.1967	0.14499	0.21511	0.26823	0.14585	0.05	-0.45833	-0.93125	-0.31042	-0.72292	-0.51042	-0.375	-1.2125	-0.24375	-0.39375	-0.92083	0.0020833	-0.68125	-0.67708	0.052083	-0.93125	-46.667	295.813	35.732	286.170	-18.184	287.908	27.785	55.529	42.848	18.416	-27.575	189.294	282.798	277.812	177.398	20.255	0.00018434	0.001127	8.7925e-05	714.5	9.1595e-06	6.7238e-06	536.25	233.69	7.1567e-06	6.1283e-06	197.07	57.455	75.327	22.584	9.1764e-06	19.021	0.00106	0.0011048	0.00030106	726	1.1932e-05	1.1944e-05	556.45	235.29	1.1991e-05	1.2036e-05	210.22	63.111	78.629	24.167	1.214e-05	21.771	256.336	0.926	22.418	-49.665	150.349	4.381	-51.557	-44.359	111.450	144.429	-48.045	-43.749	-40.536	-36.839	75.075	-40.049	-8191	255	
3414.034	1	1	0	0	0.13023	0.097961	0.24028	0.10023	0.10487	0.11971	0.23726	0.10377	0.063691	0.13878	0.13866	0.14122	0.25923	0.28301	0.44882	0.19287	0.010417	-0.15833	-0.95417	-0.29583	-0.81667	-0.78333	-0.23333	-1.1708	-0.52083	-0.45833	-0.98958	-0.20417	-0.66667	-0.93333	-0.041667	-0.73333	277.983	-25.478	-17.473	1.529	284.333	45.376	176.951	212.120	182.728	35.256	37.125	-18.430	-61.027	242.135	230.978	16.268	0.00028199	0.00035494	0.00014595	719.79	8.6016e-06	3.039e-06	535.58	234.8	5.5862e-06	1.0545e-05	195.58	58.059	75.44	22.545	9.0774e-06	18.812	0.0010748	0.0011091	0.00030583	728.51	1.2076e-05	1.2018e-05	559.69	235.92	1.1925e-05	1.1997e-05	209.95	63.124	78.823	24.087	1.1609e-05	21.351	-21.181	37.013	33.558	-50.021	168.187	74.810	-51.192	-44.778	134.046	-16.115	-47.586	-43.194	-40.372	-36.709	81.977	-40.134	-8191	255	
3414.131	1	1	0	0	0.09704	0.22659	0.29441	0.1537	0.21912	0.19166	0.082532	0.37522	0.20021	0.19898	0.2052	0.18853	0.15835	0.08783	0.18033	0.0557	-0.029167	-0.125	-0.87917	-0.2375	-0.29375	-0.98333	-0.041667	-0.81458	-0.5875	-0.09375	-1.0104	-0.2625	-0.60208	-0.91875	-0.10833	-0.95417	218.813	72.806	280.943	194.142	267.530	28.092	292.167	-62.446	33.354	112.518	272.083	92.506	-49.739	89.834	217.830	110.930	0.0004132	0.0001055	4.753e-05	719.99	5.1958e-06	2.9831e-06	533.8	233.77	5.6632e-06	8.208e-06	193.42	56.925	76.308	22.634	1.1071e-05	18.492	0.0010361	0.0010692	0.00029406	726.77	1.1517e-05	1.1588e-05	552.94	234.7	1.1496e-05	1.1543e-05	206.54	62.17	78.659	24.002	1.1481e-05	21.221	2.882	264.159	179.880	-49.695	94.017	82.585	-51.626	-44.606	127.335	17.227	-47.507	-43.977	-40.459	-36.813	128.446	-40.401	-8191	255	
3414.251	1	1	0	0	0.015309	0.17004	0.16989	0.16365	0.13411	0.22887	0.2659	0.17309	0.2508	0.13201	0.16272	0.18374	0.12609	0.096468	0.073621	0.17838	-0.12708	-0.1625	-0.90833	-0.36042	-0.30833	-1.0187	-0.10625	-0.80208	-0.80208	-0.060417	-1.1021	-0.29375	-0.45417	-1.1521	-0.12708	-0.81667	8.406	72.541	283.885	226.748	115.531	157.249	294.124	-57.205	112.642	-1.331	160.661	25.972	225.857	290.634	214.966	154.326	0.00028616	0.0010052	0.00031638	723.3	1.0312e-05	6.124e-06	536.16	233.93	4.2511e-06	1.4007e-05	197.64	58.002	76.045	22.877	1.0264e-05	18.942	0.0010104	0.0010468	0.00029192	727.22	1.1415e-05	1.1561e-05	553.66	235.48	1.1374e-05	1.1444e-05	208.28	62.446	78.808	24.193	1.1404e-05	21.454	296.407	179.581	218.188	-49.460	-6.263	100.045	-51.383	-44.299	232.933	133.542	-47.607	-43.746	-40.343	-36.486	142.124	-40.201	-8191	255	
3414.346	1	1	0	0	0.16949	0.34137	0.16601	0.083705	0.2455	0.10837	0.2015	0.095339	0.15158	0.073719	0.092462	0.28589	0.3699	0.16727	0.052364	0.10786	-0.4375	0.066667	-0.90625	-0.68958	-0.2	-1.0479	-0.23958	-0.77292	-0.88333	-0.18542	-1.025	-0.54792	-0.16042	-1.1542	-0.20417	-0.57708	111.535	217.354	282.468	173.366	-43.293	214.021	11.086	-20.286	185.809	161.892	172.579	-49.345	292.621	274.047	163.255	261.838	0.000442	0.00063589	0.00025589	730.97	8.1663e-06	7.0013e-06	540.19	235.99	3.0146e-06	4.4476e-06	198.04	58.274	77.49	23.083	4.251e-06	19.041	0.0010108	0.0010445	0.00028851	730.71	1.1226e-05	1.1262e-05	557.83	237.2	1.1246e-05	1.1296e-05	210.09	63.02	79.664	24.316	1.1206e-05	21.636	268.330	30.215	-24.423	-49.735	212.647	176.563	-51.216	-44.372	7.399	141.406	-47.732	-43.429	-40.716	-36.578	165.096	-39.782	-8191	255	
3414.442	1	1	0	0	0.1101	0.076189	0.41455	0.17669	0.15196	0.10538	0.10784	0.31708	0.050018	0.028632	0.14952	0.1389	0.13751	0.093348	0.11386	0.40329	-0.6	0.0041667	-1.0833	-0.46667	-0.18333	-1.1854	-0.39167	-0.31042	-0.93333	-0.23542	-0.82292	-0.73542	-0.10417	-1.1313	-0.46458	-0.29583	218.083	-13.976	20.664	-22.956	253.793	-7.659	13.691	292.475	69.747	254.924	-41.292	-1.663	219.509	9.446	-42.329	-18.422	0.00011885	0.0010028	9.0283e-05	731.92	9.1792e-06	7.9459e-06	548.09	237.55	4.5853e-06	1.0444e-05	197.67	58.559	77.666	23.283	6.8646e-06	19.084	0.0010008	0.0010388	0.00028626	733.51	1.1314e-05	1.1335e-05	563.39	238.76	1.1342e-05	1.1441e-05	211.55	63.735	79.945	24.54	1.1336e-05	21.786	56.782	46.996	18.241	-49.404	114.534	78.135	-51.471	-44.550	-33.699	126.728	-47.425	-43.491	-40.469	-36.400	-28.878	-40.267	-8191	255	
3414.538	1	1	0	0	0.20066	0.24466	0.1726	0.1482	0.13859	0.23212	0.10598	0.17079	0.19686	0.24397	0.13817	0.33297	0.30708	0.15221	0.28029	0.081769	-0.54375	-0.010417	-0.75	-0.87083	-0.11458	-0.92917	-0.41667	-0.41875	-0.87708	0.0041667	-0.89167	-1.0646	0.0020833	-0.95208	-0.55625	-0.21667	167.432	-27.811	270.782	233.293	155.270	120.610	131.594	-59.593	-45.277	256.789	262.980	-22.351	41.978	-21.942	194.058	-7.009	0.00048171	0.00033208	0.00030035	730.94	2.4076e-06	7.6511e-06	543.31	237.62	9.3871e-06	1.1127e-05	197.97	58.299	77.399	22.989	3.8393e-06	18.869	0.0010039	0.0010322	0.00028714	733.13	1.1158e-05	1.1259e-05	559.75	237.88	1.107e-05	1.1123e-05	210.12	63.005	79.689	24.206	1.1024e-05	21.357	-35.349	-18.223	31.611	-49.567	66.184	2.329	-50.490	-44.437	46.224	60.058	-47.242	-43.432	-40.365	-36.379	-36.465	-40.238	-8191	255	
3414.634	1	1	0	0	0.2306	0.21875	0.26762	0.13288	0.2055	0.33123	0.12076	0.17569	0.26532	0.26254	0.016203	0.11899	0.2303	0.062483	0.24783	0.1714	-0.64167	-0.16458	-0.65833	-0.96667	-0.11042	-0.63542	-0.49167	-0.28125	-1.0104	-0.42083	-0.56042	-0.97292	-0.089583	-1.1417	-0.73333	-0.22708	-37.246	206.073	128.871	288.633	267.282	-3.472	205.978	234.725	45.440	65.499	276.156	206.146	226.705	142.420	-1.236	224.539	0.00035729	0.00062479	0.00017375	733.43	2.1868e-06	4.7005e-06	542.55	239.95	5.5129e-06	5.1363e-06	197.92	59.227	78.306	23.245	4.847e-06	18.87	0.00097604	0.0010082	0.0002819	733.32	1.0984e-05	1.1096e-05	558.65	238.81	1.1031e-05	1.1107e-05	210.59	63.363	80.093	24.49	1.1035e-05	21.528	35.339	267.561	69.892	-49.654	70.230	12.736	-51.425	-44.501	2.454	113.737	-47.667	-43.669	-40.660	-36.349	85.802	-39.608	-8191	255	
3414.730	1	1	0	0	0.21495	0.06914	0.084348	0.16816	0.13791	0.23006	0.218	0.35207	0.048907	0.27356	0.3258	0.36301	0.19166	0.23722	0.10711	0.17624	-0.62083	-0.3875	-0.3375	-1.1521	-0.11042	-0.86875	-0.75417	-0.41458	-0.97083	-0.26667	-0.24583	-1.0354	-0.1375	-0.81875	-0.7	-0.27917	228.072	118.799	274.533	274.800	-18.917	-14.197	180.412	296.561	-25.873	45.893	274.889	288.497	251.723	227.679	-30.837	228.376	6.6915e-05	0.00052469	6.1689e-05	735.06	5.4653e-06	7.4928e-06	551.28	240.3	6.4462e-06	2.0074e-06	201.18	59.325	78.022	23.431	1.1375e-05	19.389	0.00097195	0.001005	0.00027976	735.55	1.0904e-05	1.1028e-05	563.31	239.9	1.0978e-05	1.1026e-05	212.06	63.817	80.175	24.638	1.093e-05	21.844	124.041	171.211	-34.383	-49.632	216.603	72.916	-50.966	-44.320	265.122	249.688	-46.923	-43.075	-40.394	-36.208	-46.909	-39.875	-8191	255	
3414.851	1	1	0	0	0.099944	0.24421	0.27339	0.337	0.13008	0.088398	0.090098	0.17058	0.13934	0.15163	0.25396	0.19005	0.079445	0.25807	0.38904	0.17389	-0.52917	-0.41667	-0.58958	-1.0729	-0.12708	-0.52292	-0.84583	-0.20625	-0.83333	-0.56875	-0.34167	-1.1437	-0.31875	-0.72917	-0.93958	-0.041667	86.216	-34.371	51.487	191.020	268.091	210.122	149.247	285.372	24.298	120.985	99.285	-47.577	4.994	244.519	-40.104	219.060	0.00028722	0.00029625	7.8553e-05	735.66	1.179e-05	6.4522e-06	551.2	241.09	5.9986e-06	5.9325e-06	203.99	59.704	78.914	23.707	1.1308e-05	19.614	0.00097731	0.0010133	0.00028367	738.13	1.1024e-05	1.1014e-05	567.69	241.99	1.0994e-05	1.1112e-05	214.46	64.771	81.154	24.944	1.1026e-05	22.193	12.021	-23.614	228.675	-49.421	158.229	175.467	-51.237	-44.506	41.508	256.668	-47.263	-43.444	-40.686	-36.674	133.097	-40.355	-8191	255	
3414.947	1	1	0	0	0.09145	0.29217	0.21966	0.071836	0.21603	0.058673	0.095778	0.27547	0.074965	0.3593	0.27313	0.27541	0.11915	0.10362	0.052645	0.13949	-0.59583	-0.59583	-0.097917	-1	-0.175	-0.39792	-1.0187	-0.12708	-0.93542	-0.72292	-0.34792	-1.1313	-0.32708	-0.57292	-0.97083	-0.020833	259.333	148.033	-17.160	155.118	158.598	155.612	185.739	234.624	5.425	12.227	153.900	286.208	276.920	246.918	62.066	131.200	0.00027044	0.0012805	0.00012051	739.89	7.3239e-06	7.0343e-06	553.76	241.25	1.4748e-05	5.2118e-06	199.43	59.565	79.242	23.494	1.7029e-05	19.325	0.00098771	0.0010132	0.00028454	742.17	1.1056e-05	1.1132e-05	569.5	241.9	1.1228e-05	1.1224e-05	212.75	64.176	80.797	24.804	1.1015e-05	21.802	276.807	-42.021	103.870	-49.699	38.914	208.353	-51.481	-44.754	126.911	70.105	-47.265	-43.223	-40.248	-36.324	50.234	-39.942	-8191	255	
3415.043	1	1	0	0	0.33361	0.11109	0.18451	0.25145	0.16257	0.11008	0.18604	0.27839	0.3029	0.17963	0.083165	0.17293	0.11073	0.067111	0.074489	0.26483	-0.55833	-0.725	-0.27917	-1.1396	-0.53125	-0.41042	-0.99792	-0.10208	-0.67708	-0.97083	-0.033333	-0.85625	-0.4875	-0.36458	-1.0125	-0.20417	254.974	184.800	253.749	-32.701	168.396	146.445	172.171	122.913	9.093	225.700	89.191	51.063	10.736	198.056	223.923	246.952	0.00012758	0.0012887	0.00015029	732.61	1.3383e-05	7.7144e-06	547.94	240.15	2.04e-05	6.9969e-06	198.51	59.232	77.549	23.389	9.5145e-06	19.057	0.0009789	0.00099863	0.00028049	735.01	1.1105e-05	1.106e-05	559.55	239.42	1.1078e-05	1.116e-05	210.21	63.714	80.202	24.617	1.1153e-05	21.748	25.807	-41.775	25.223	-49.418	165.975	128.664	-50.759	-44.704	85.842	20.309	-47.420	-43.405	-40.202	-36.401	11.627	-40.122	-8191	255	
3415.115	1	1	0	0	0.28219	0.19478	0.26457	0.12097	0.22323	0.20094	0.0411	0.18309	0.042989	0.27544	0.14913	0.092597	0.15344	0.20921	0.1666	0.14468	-0.38333	-0.94375	-0.1125	-1.0792	-0.52917	-0.24167	-0.99167	-0.32292	-0.56875	-0.7875	-0.275	-0.99167	-0.52917	-0.225	-1.2667	-0.44167	292.385	-6.922	-0.325	252.236	230.180	62.300	73.890	263.863	264.816	78.049	-25.923	29.713	-36.794	46.727	-8.673	-37.011	3.6307e-05	0.00010892	0.00015266	733.97	9.345e-06	2.0586e-06	550.68	237.7	2.6427e-05	3.3443e-06	200.52	59.432	77.834	23.363	1.4527e-05	19.226	0.00099822	0.0010301	0.00028487	734.77	1.1131e-05	1.1316e-05	561.82	238.88	1.1255e-05	1.1258e-05	211.85	63.832	80.057	24.669	1.1143e-05	21.824	-25.608	-23.143	175.837	-49.304	3.283	-60.875	-51.042	-44.278	-39.559	29.256	-47.213	-42.955	-40.589	-36.001	13.710	-40.311	-8191	255	
3415.235	1	1	0	0	0.12077	0.046739	0.29115	0.13095	0.12522	0.050813	0.11308	0.054994	0.19558	0.14443	0.35262	0.18172	0.19499	0.073617	0.13561	0.38936	-0.23125	-0.83125	-0.29167	-0.88333	-0.74167	-0.225	-1.2208	-0.20625	-0.62708	-1.0104	-0.16042	-0.98125	-0.74792	-0.18333	-1.0917	-0.50833	124.769	52.246	-3.416	202.846	246.800	-47.816	226.161	214.569	20.470	296.057	202.124	-47.383	254.470	8.355	28.374	108.516	0.00020609	0.0010725	0.00011904	734.69	3.5814e-06	1.0326e-05	550.52	240.04	1.5982e-05	2.8953e-06	200.27	59.447	77.695	23.564	1.1226e-05	19.242	0.00099802	0.001038	0.00028536	735.19	1.123e-05	1.1359e-05	564.17	240.1	1.1451e-05	1.1427e-05	213.09	64.122	80.259	24.712	1.1402e-05	21.95	283.168	179.550	64.048	-49.450	257.600	52.349	-51.007	-44.887	291.561	238.798	-47.266	-43.148	-40.178	-36.021	229.835	-40.092	-8191	255	
3415.330	1	1	0	0	0.056884	0.17221	0.18608	0.23214	0.13937	0.088548	0.075461	0.2081	0.12731	0.39329	0.23458	0.18982	0.1684	0.10726	0.15312	0.24644	-0.054167	-1	-0.047917	-0.80417	-0.81875	-0.095833	-0.91875	-0.56667	-0.27292	-1.1646	-0.17917	-0.75833	-0.85208	-0.075	-0.97917	-0.64167	10.937	215.756	200.920	190.422	209.839	-13.310	160.530	284.308	-13.923	-38.670	243.169	166.076	194.485	103.586	40.685	28.471	0.00011872	0.0011441	0.00015188	733.6	5.3946e-06	7.8996e-06	550.86	239.41	1.5053e-05	7.9309e-06	199.85	59.619	78.306	23.414	1.0395e-05	19.464	0.0010192	0.0010479	0.00028881	737.09	1.143e-05	1.1402e-05	567.5	240.36	1.1442e-05	1.1291e-05	213.36	64.481	80.334	24.679	1.1348e-05	21.961	210.456	156.314	93.501	-49.313	149.328	-12.888	-50.939	-44.583	152.187	162.572	-47.362	-42.996	-40.469	-35.914	86.388	-39.627	-8191	255	
3415.426	1	1	0	0	0.14489	0.15908	0.14485	0.21372	0.02669	0.20047	0.32717	0.01403	0.077823	0.15003	0.19696	0.1561	0.049086	0.088138	0.30063	0.26838	0.075	-1.1667	-0.15208	-0.63958	-1.0125	-0.26458	-1.0229	-0.71042	-0.17083	-1.1396	-0.27292	-0.44167	-1.0896	-0.21667	-0.91875	-0.70833	23.862	154.547	277.392	-46.927	46.372	180.915	201.716	-31.981	198.348	66.792	133.814	151.037	171.781	63.843	137.548	183.410	0.00030576	0.00027245	0.00027386	732.77	2.9409e-06	3.3017e-06	542.99	237.63	6.5361e-06	4.4654e-06	199.91	58.536	76.832	22.957	5.01e-06	18.974	0.0010081	0.0010367	0.00028694	733.32	1.1174e-05	1.128e-05	560.29	238.09	1.1138e-05	1.122e-05	210.49	63.184	79.379	24.325	1.1201e-05	21.45	158.846	239.468	14.650	-49.140	265.955	-36.011	-50.778	-44.441	-53.206	59.097	-47.366	-43.297	-40.297	-36.428	88.726	-40.572	-8191	255	
3415.522	1	1	0	0	0.25	0.13194	0.15662	0.064118	0.30103	0.088379	0.18496	0.19372	0.15702	0.088644	0.083989	0.17067	0.18973	0.16203	0.027376	0.23333	0.175	-1.1562	-0.35	-0.48333	-1.0042	-0.12708	-1.0375	-0.98125	-0.045833	-1.1792	-0.48125	-0.57292	-1.0354	-0.3375	-0.83958	-0.71875	237.008	95.020	39.930	74.555	292.587	228.050	242.922	173.362	220.362	199.589	-49.673	289.849	125.838	-35.702	52.620	106.453	0.00053761	0.00076565	2.9262e-05	721.64	7.9996e-06	2.7954e-06	541.58	236.5	7.7509e-06	9.639e-06	196.64	58.535	77.081	23.151	1.8373e-05	18.852	0.00099481	0.00102	0.0002849	729.4	1.1265e-05	1.1386e-05	558.34	237.58	1.1318e-05	1.128e-05	210.19	63.273	79.573	24.399	1.1315e-05	21.57	-28.696	0.442	288.102	-49.537	158.830	47.321	-51.182	-44.107	282.418	65.214	-47.607	-43.043	-40.297	-36.170	101.039	-39.778	-8191	255	
3415.643	1	1	0	0	0.27258	0.086922	0.12286	0.32625	0.045801	0.21399	0.18431	0.31206	0.10576	0.1406	0.13522	0.065538	0.035995	0.25809	0.048154	0.053282	0.28542	-0.91667	-0.44583	-0.56042	-1.0292	-0.21875	-0.8875	-1.0792	-0.0083333	-1.2354	-0.34375	-0.11875	-1.075	-0.28333	-0.74583	-0.96458	70.707	39.779	292.095	-43.048	-41.755	35.237	-49.286	238.695	45.054	34.172	23.153	119.730	129.846	-25.463	226.342	266.441	0.00014523	0.0004165	9.3991e-05	729.44	8.9077e-06	4.8145e-06	546.88	238.18	5.7473e-06	2.1196e-06	199.03	58.406	77.373	23.436	8.9047e-07	19.207	0.0010013	0.0010302	0.00028528	731.1	1.1323e-05	1.1369e-05	561.55	238.43	1.1393e-05	1.1473e-05	211.05	63.597	79.687	24.543	1.1307e-05	21.795	-37.528	9.140	45.763	-49.548	-15.624	115.251	-50.607	-44.712	124.940	166.629	-47.500	-43.470	-39.998	-36.011	-25.025	-39.979	-8191	255	
3415.739	1	1	0	0	0.25872	0.084757	0.043881	0.37534	0.21436	0.20352	0.16968	0.15055	0.15152	0.22608	0.13097	0.26879	0.046241	0.13302	0.16965	0.041856	0.19375	-0.86042	-0.475	-0.17083	-1.0354	-0.32292	-0.44167	-1.0521	0.022917	-0.96667	-0.67708	-0.31667	-1.1854	-0.51042	-0.57708	-1.0625	257.646	-44.778	-9.871	259.247	187.979	292.985	285.218	6.742	82.157	14.362	-45.671	-35.574	-49.022	-37.006	114.118	47.751	0.00034082	0.00025225	0.00030795	732.16	3.7159e-06	7.9447e-06	550.28	240.85	4.3982e-06	7.896e-06	201.63	59.554	78.027	23.744	3.9121e-06	19.478	0.0010157	0.0010415	0.00028811	735.81	1.137e-05	1.1352e-05	565.23	240.25	1.141e-05	1.1363e-05	212.46	64.084	80.584	24.804	1.1204e-05	22.037	19.938	178.792	34.934	-49.093	-31.257	241.205	-50.817	-44.284	96.211	6.381	-47.151	-43.225	-40.190	-36.435	187.614	-39.720	-8191	255	
3415.811	1	1	0	0	0.1866	0.3487	0.11891	0.27884	0.085147	0.040473	0.034196	0.14993	0.14188	0.2654	0.23903	0.18411	0.062188	0.11302	0.22763	0.064783	0.14792	-0.89375	-0.61042	-0.17292	-1.1104	-0.17917	-0.48125	-1.2812	-0.325	-0.74583	-0.88333	-0.19167	-0.83542	-0.39583	-0.47292	-0.975	167.659	122.457	47.282	-26.655	3.864	266.280	62.223	76.512	194.369	93.736	-4.266	241.857	54.723	253.185	29.133	196.019	0.00036566	0.00046865	0.00012109	733.55	8.2172e-06	8.5523e-06	541.81	240.48	5.3516e-06	7.2857e-06	200.61	59.539	78.701	23.416	1.4491e-05	19.089	0.0010056	0.0010293	0.00028174	736.95	1.1195e-05	1.113e-05	562.71	240.53	1.0919e-05	1.0928e-05	211.62	63.645	80.596	24.549	1.096e-05	21.528	13.191	112.080	20.666	-49.481	231.577	255.821	-50.784	-44.384	213.731	81.780	-47.414	-43.021	-40.260	-36.218	276.557	-39.760	-8191	255	
3415.931	1	1	0	0	0.27285	0.17839	0.051788	0.4756	0.059706	0.19995	0.16119	0.1979	0.37764	0.13623	0.27091	0.27876	0.11964	0.076598	0.21162	0.14625	0.41667	-0.68333	-0.89792	-0.15208	-0.97708	-0.48958	-0.3875	-1.275	-0.11458	-0.65	-0.79792	-0.045833	-1.1583	-0.63125	0.0041667	-1.1792	41.642	199.222	-1.299	71.536	-55.861	49.948	122.701	192.020	284.274	-11.612	150.650	156.584	34.568	246.905	24.702	201.168	0.00037682	0.00052631	0.00015796	739.46	9.7928e-06	1.4517e-06	549.06	241.4	1.6351e-05	4.9267e-06	199.33	59.246	78.709	23.333	1.0719e-05	19.152	0.00096007	0.00099699	0.00027201	736.75	1.0678e-05	1.082e-05	561.32	240.78	1.0741e-05	1.0755e-05	210.31	63.662	80.835	24.57	1.0798e-05	21.518	-46.723	255.143	179.019	-49.482	168.407	-22.224	-50.624	-44.647	11.510	109.832	-47.726	-43.319	-40.205	-36.189	85.085	-40.105	-8191	255	
3416.027	1	1	0	0	0.14458	0.098675	0.23968	0.27328	0.16932	0.13111	0.16241	0.026946	0.25207	0.21978	0.096455	0.16702	0.26358	0.086051	0.068786	0.078373	-0.070833	-0.27917	-0.88958	-0.22083	-0.77708	-0.57083	-0.26042	-1.1125	-0.29792	-0.38958	-1	-0.079167	-0.96458	-0.87292	-0.13125	-0.85417	20.413	-15.764	-27.780	260.867	-28.530	38.789	245.408	165.885	20.498	-44.474	274.702	252.098	17.147	-47.646	283.431	-3.125	0.00032638	0.0010134	0.0001625	735.93	5.8978e-06	6.2474e-06	555.03	244.27	6.2969e-06	1.3503e-06	200.38	59.844	79.504	23.579	1.2696e-05	19.4	0.00095546	0.00098205	0.00027241	737.18	1.0728e-05	1.0787e-05	563.23	242.15	1.0752e-05	1.0774e-05	212.68	64.097	81.003	24.777	1.087e-05	21.734	260.712	32.168	294.185	-49.473	34.190	-60.134	-51.325	-44.212	145.424	277.787	-47.148	-43.376	-40.059	-36.237	264.361	-40.325	-8191	255	
3416.123	1	1	0	0	0.24198	0.19985	0.23304	0.1215	0.30212	0.13489	0.17283	0.060811	0.096142	0.1064	0.10704	0.17509	0.27107	0.097211	0.22636	0.088594	0.08125	-0.22917	-0.94375	-0.375	-0.68125	-0.79583	-0.37292	-0.88125	-0.36667	-0.4375	-1.075	-0.23125	-0.66042	-0.97708	-0.14167	-1.1271	192.749	-49.978	39.754	97.828	282.438	-2.859	-61.689	24.564	-60.589	247.855	245.218	-0.328	-29.871	129.708	84.785	257.641	0.00019889	0.00097538	0.00028685	739.13	9.5658e-07	6.2912e-06	551.51	243.56	1.0876e-05	3.1841e-06	204.97	59.921	79.511	23.728	8.2335e-06	19.546	0.00095088	0.00097201	0.00027258	739.2	1.077e-05	1.0818e-05	566.28	242.74	1.0672e-05	1.0819e-05	214.15	64.325	81.715	25.001	1.0757e-05	21.964	-33.590	280.027	38.560	-49.451	53.837	230.861	-50.962	-44.151	-25.588	91.467	-47.078	-43.425	-39.594	-35.632	86.106	-39.959	-8191	255	
3416.220	1	1	0	0	0.047762	0.12065	0.23481	0.16859	0.13919	0.12786	0.31127	0.20172	0.19376	0.055989	0.21246	0.052685	0.19905	0.131	0.1755	0.15052	-0.22083	-0.17292	-1.1667	-0.475	-0.525	-0.98125	-0.11458	-0.95625	-0.74167	-0.225	-1.0604	-0.31458	-0.5625	-1.0979	-0.039583	-0.83333	185.724	241.717	-37.368	254.807	237.916	26.620	6.337	286.349	266.077	63.827	42.731	284.869	288.115	227.710	48.203	189.140	0.00029694	3.8546e-05	0.00013003	745.17	4.8557e-06	1.9006e-06	552.85	245.93	1.39e-05	7.7734e-06	204.84	60.497	79.876	23.818	1.2248e-05	19.326	0.00095269	0.00098618	0.00027233	742.62	1.0874e-05	1.0784e-05	568.7	244.05	1.0619e-05	1.0713e-05	214.59	64.517	81.681	24.893	1.0586e-05	21.65	48.212	14.705	-13.009	-49.192	49.262	48.331	-51.008	-44.610	-48.006	135.526	-47.435	-43.536	-39.763	-36.125	118.117	-39.601	-8191	255	
3416.338	1	1	0	0	0.21823	0.084372	0.1936	0.12497	0.4179	0.15537	0.064772	0.20734	0.066315	0.22861	0.19269	0.33608	0.16363	0.15364	0.2279	0.22701	-0.14792	-0.16458	-1.0583	-0.48958	-0.65625	-1.1292	-0.060417	-0.8375	-0.66458	-0.16875	-1.0812	-0.27917	-0.39583	-0.90833	-0.041667	-1.0917	-0.214	-9.361	290.345	266.965	63.768	271.850	18.993	263.457	-49.761	-37.239	47.332	4.218	112.864	249.394	167.827	184.350	0.00020686	0.00050492	0.00018596	745.06	1.4203e-05	4.0591e-06	551.45	244.56	1.8413e-05	8.0251e-06	202.25	60.091	79.875	23.602	9.9096e-06	19.148	0.00093833	0.0009671	0.00026673	739.79	1.0424e-05	1.0537e-05	562.93	243.11	1.0517e-05	1.0518e-05	211.18	63.718	81.495	24.696	1.0441e-05	21.369	88.613	28.708	-26.823	-49.264	287.772	34.193	-50.923	-44.325	5.716	44.988	-47.170	-43.344	-40.213	-36.320	146.171	-39.889	-8191	255	
3416.412	1	1	0	0	0.077681	0.20115	0.21167	0.15014	0.14321	0.02319	0.31587	0.12586	0.089096	0.22131	0.015241	0.023691	0.16627	0.097369	0.24947	0.10278	-0.43542	0.035417	-1.1229	-0.36458	-0.40417	-1.1	-0.175	-0.76458	-0.85625	-0.05	-1.0229	-0.50417	-0.24792	-1.1667	-0.48958	-0.6875	-44.147	17.620	20.941	182.814	125.112	282.759	63.544	-44.753	84.313	32.599	148.089	211.659	277.138	15.824	257.223	177.758	0.00042761	0.00038179	2.0486e-05	746.34	5.9242e-06	8.684e-06	547.61	243.7	8.8879e-06	4.5195e-06	200.79	59.736	79.583	23.808	7.5887e-06	19.239	0.00093024	0.00096173	0.00026411	740.28	1.042e-05	1.0475e-05	560.77	243.13	1.0552e-05	1.0497e-05	211.3	63.626	81.247	24.77	1.0537e-05	21.516	-57.566	-29.089	269.849	-49.227	179.460	-19.905	-51.097	-44.371	-29.428	286.977	-47.147	-43.396	-39.745	-36.148	107.916	-39.108	-8191	255	
3416.508	1	1	0	0	0.060069	0.11837	0.17957	0.064447	0.29896	0.16846	0.13975	0.22122	0.18103	0.29622	0.087021	0.10474	0.12286	0.17418	0.25026	0.24107	-0.59583	-0.23125	-0.9625	-0.35208	-0.19792	-1.0542	-0.3	-0.59167	-0.8375	0.022917	-0.92292	-0.68542	-0.064583	-1.2083	-0.22708	-0.58125	220.908	199.149	269.557	228.198	123.342	262.128	262.284	279.843	19.506	201.233	199.872	94.526	40.833	39.807	100.873	173.730	0.00052058	0.00093412	0.00018135	743.83	2.3856e-06	8.0487e-06	550.97	243.94	1.1276e-05	5.7703e-06	204	59.8	79.218	23.814	1.1889e-05	19.426	0.00093787	0.00095842	0.00026957	742.14	1.0542e-05	1.071e-05	563.63	242.19	1.0629e-05	1.0706e-05	212.59	63.789	81.014	24.866	1.0635e-05	21.783	9.646	-59.907	-31.909	-49.268	268.943	113.517	-50.754	-43.956	-3.855	186.985	-47.006	-42.890	-39.878	-36.165	-39.745	-39.987	-8191	255	
3416.627	1	1	0	0	0.086489	0.085705	0.29305	0.13242	0.2082	0.10934	0.13479	0.25951	0.14632	0.16667	0.098808	0.19752	0.087135	0.23223	0.12829	0.26823	-0.41458	0.045833	-0.73125	-0.82083	-0.085417	-1.1104	-0.42083	-0.33542	-1.1083	-0.25833	-0.97917	-0.89375	-0.12083	-1.025	-0.51667	-0.24583	251.847	39.190	212.983	-6.411	156.761	-47.197	88.020	185.474	242.682	123.328	278.121	4.078	4.785	119.134	69.263	294.862	0.00028619	0.00030834	0.00013306	745.74	3.9192e-06	6.5643e-06	556.09	244.18	3.1675e-06	4.5491e-06	203.38	60.167	79.865	23.89	7.8708e-06	19.495	0.00094747	0.0009793	0.0002726	744.09	1.0786e-05	1.0761e-05	567.29	243.57	1.0717e-05	1.0767e-05	213.89	64.481	81.567	25.015	1.0695e-05	21.932	-18.287	20.204	295.405	-49.301	178.089	72.327	-50.895	-44.178	-0.029	91.405	-47.150	-43.592	-39.715	-35.915	202.014	-39.077	-8191	255	
3416.723	1	1	0	0	0.21042	0.15829	0.35353	0.20033	0.066623	0.056498	0.1074	0.029101	0.081911	0.18661	0.53501	0.11981	0.14365	0.18385	0.034971	0.13738	-0.68125	-0.45	-0.64167	-1.0938	-0.095833	-1.0417	-0.61667	-0.17708	-1.0208	-0.097917	-0.825	-1.0208	-0.13958	-0.875	-0.69375	-0.1875	152.092	271.589	16.128	108.792	-34.252	272.836	-16.869	-45.798	-32.313	212.440	261.752	209.866	235.029	-26.639	154.518	146.172	0.00038503	0.00053006	0.00021076	746.88	4.4733e-06	4.0023e-06	551.71	243.1	3.9088e-06	4.8935e-06	203.13	59.244	80.104	23.767	1.0041e-05	19.164	0.00096054	0.00097544	0.00027074	744.21	1.0605e-05	1.0691e-05	564.61	242.82	1.0531e-05	1.0654e-05	212.38	63.584	81.328	24.879	1.0615e-05	21.523	-2.572	146.966	-14.398	-49.407	-32.469	52.602	-51.062	-44.003	-39.864	-7.434	-47.401	-42.932	-40.223	-36.393	215.786	-39.855	-8191	255	
3416.819	1	1	0	0	0.039637	0.39082	0.10728	0.11086	0.1196	0.06447	0.19533	0.2345	0.23332	0.33678	0.23853	0.41467	0.094654	0.27875	0.15859	0.1494	-0.71042	-0.36667	-0.29375	-1.0708	-0.34167	-0.83125	-0.70833	-0.42708	-1.0417	-0.48542	-0.51458	-0.97708	-0.21875	-0.80417	-0.73958	-0.31875	191.944	253.291	143.936	1.007	15.849	72.077	277.053	-19.043	90.015	134.588	91.315	274.858	97.154	291.096	151.053	196.858	0.00020367	0.00060603	1.6887e-05	744.66	9.0705e-06	2.9589e-06	546.61	243.1	4.0424e-06	6.5489e-06	201.5	60.056	79.507	23.783	1.1173e-05	19.122	0.00094128	0.00096846	0.00026837	739.95	1.0572e-05	1.0597e-05	559.83	242.74	1.0584e-05	1.0699e-05	211.34	63.806	81.34	24.949	1.0698e-05	21.719	50.846	114.585	-18.279	-49.164	98.374	85.231	-50.933	-44.216	35.976	40.451	-47.477	-43.508	-39.989	-36.263	43.044	-40.188	-8191	255	
3416.940	1	1	0	0	0.11493	0.26575	0.22802	0.16436	0.20528	0.27254	0.08014	0.1729	0.17236	0.26779	0.22966	0.12749	0.14819	0.24698	0.23747	0.024075	-0.70625	-0.59792	-0.54167	-1.0229	-0.25417	-0.84583	-0.85208	-0.12292	-1.1375	-0.53333	-0.50625	-1.0562	-0.41042	-0.9375	-0.8	-0.27083	253.217	252.295	208.447	231.091	-9.142	57.719	225.968	218.533	165.614	108.713	272.729	269.548	-39.356	-48.523	-11.682	289.858	0.00042201	0.00029123	0.00015261	742.29	5.9322e-06	1.2937e-05	548.32	242.89	1.2499e-05	2.6855e-06	202.06	59.69	79.328	23.865	9.115e-06	19.47	0.00095084	0.00098035	0.00027522	741.33	1.0664e-05	1.0772e-05	562.24	242.55	1.0638e-05	1.0841e-05	212.05	63.861	81.466	24.959	1.073e-05	21.809	-26.013	280.944	101.263	-49.419	-12.285	53.913	-50.829	-44.128	177.452	206.925	-46.727	-43.383	-40.110	-35.730	-28.139	-39.479	-8191	255	
3417.036	1	1	0	0	0.10262	0.078479	0.049642	0.12003	0.15167	0.06496	0.14926	0.017237	0.161	0.045015	0.094556	0.16676	0.050634	0.23736	0.053107	0.27809	-0.69792	-0.42917	-0.25625	-1.05	-0.43542	-0.5625	-1.0104	-0.16458	-0.79792	-0.7875	-0.21458	-1.225	-0.45208	-0.63333	-1.0479	-0.15417	251.569	-31.750	201.847	-22.982	253.370	267.814	207.939	178.948	259.119	-45.805	133.417	9.808	-28.918	212.804	237.926	-22.387	0.00031931	0.0004781	7.0339e-05	744.8	1.2825e-05	7.0339e-06	553.65	245.11	1.891e-05	3.9223e-06	204.76	60.286	79.923	23.898	2.4356e-06	19.786	0.0009514	0.00098542	0.00027472	741.22	1.0745e-05	1.0772e-05	565.86	243.5	1.0722e-05	1.0788e-05	213.45	64.342	81.67	25.072	1.0874e-05	22.023	-22.117	-38.174	9.531	-49.371	58.477	57.170	-50.854	-44.324	-36.803	225.175	-47.061	-42.956	-40.138	-35.464	184.031	-39.556	-8191	255	
3417.108	1	1	0	0	0.063364	0.16592	0.058817	0.24487	0.30797	0.043453	0.26333	0.10755	0.20902	0.11516	0.13068	0.18989	0.14396	0.097745	0.14902	0.28514	-0.4	-0.775	-0.20417	-1.2125	-0.425	-0.43125	-1.1021	-0.51875	-0.84583	-0.71875	-0.1625	-1.2396	-0.32292	-0.4375	-1.0271	-0.2625	180.322	39.437	40.510	221.839	169.710	-31.059	288.918	127.895	173.249	81.070	-34.949	-17.356	-41.860	279.655	248.131	134.630	0.00024574	0.00058456	9.7041e-05	744.97	5.5235e-06	1.4168e-05	552.39	243.9	5.3504e-06	2.1485e-06	202.24	60.651	79.04	23.916	7.1557e-06	19.269	0.00097026	0.00098436	0.0002757	743.38	1.0728e-05	1.0746e-05	566.73	243.69	1.0604e-05	1.0658e-05	213.1	63.966	81.007	24.895	1.061e-05	21.507	126.145	-21.596	174.897	-48.984	202.898	156.805	-50.957	-44.319	14.999	272.255	-46.893	-42.731	-40.118	-36.180	5.993	-40.052	-8191	255	
3417.204	1	1	0	0	0.35635	0.069497	0.33141	0.14578	0.13491	0.25355	0.22326	0.20802	0.12926	0.16415	0.33931	0.20198	0.35805	0.41862	0.12552	0.18232	-0.34583	-0.84375	0.0083333	-1.0792	-0.41667	-0.4125	-1.0312	0.0083333	-0.64583	-1.15	-0.275	-0.85833	-0.52708	-0.4	-1.0729	-0.28958	-6.221	-17.926	284.027	11.467	-24.372	58.208	55.499	232.083	261.651	60.261	2.333	28.380	297.297	-61.790	248.560	269.244	0.00041717	0.00085258	6.6947e-05	743.62	4.6746e-06	3.6242e-06	545.78	242.65	1.5218e-05	7.5244e-06	199.82	58.958	79.246	23.704	1.3775e-05	19.055	0.00093439	0.00096622	0.00026764	741.29	1.0445e-05	1.0567e-05	558.94	242.41	1.0583e-05	1.0514e-05	209.95	63.208	80.807	24.73	1.0592e-05	21.423	264.809	63.489	-22.255	-49.134	158.839	42.592	-50.588	-44.159	-40.611	117.589	-47.375	-43.188	-39.756	-35.807	-5.390	-39.482	-8191	255	
3417.300	1	1	0	0	0.12124	0.10166	0.16763	0.30209	0.15185	0.19969	0.36419	0.32567	0.1638	0.29091	0.23852	0.2566	0.077532	0.18545	0.08744	0.097898	-0.22917	-1.0604	-0.22292	-1.0875	-0.62917	-0.13958	-1.2646	-0.53958	-0.47917	-1.1958	-0.1125	-0.98958	-0.60417	-0.14583	-0.99375	-0.31875	135.390	-38.481	250.491	256.408	102.150	268.058	234.063	250.523	13.689	219.654	54.095	291.593	214.526	80.329	269.672	209.258	0.00041794	0.00071226	0.00024013	743.26	2.1782e-06	6.656e-06	548.55	244.28	6.5758e-06	8.1446e-06	201.45	59.647	79.542	23.724	1.0789e-05	19.267	0.0009392	0.00096295	0.00026858	739.43	1.0545e-05	1.058e-05	561.06	242.39	1.055e-05	1.0604e-05	211.27	63.591	81.136	24.814	1.0574e-05	21.531	-27.842	61.234	77.243	-49.101	97.117	109.090	-51.165	-44.116	222.482	196.933	-46.868	-42.715	-39.944	-36.212	164.281	-39.563	-8191	255	
3417.419	1	1	0	0	0.2077	0.19024	0.10767	0.29822	0.11561	0.022897	0.303	0.17407	0.14791	0.21281	0.17907	0.16318	0.20337	0.28897	0.28534	0.24059	0.072917	-1.0562	-0.30208	-0.97292	-0.90417	-0.2	-1.1333	-0.45	-0.51875	-1.1604	-0.12292	-0.82708	-0.84375	-0.20208	-0.94375	-0.37917	225.855	184.112	233.985	83.548	175.664	-58.572	125.017	208.894	73.335	148.350	241.404	-6.644	4.505	277.958	70.283	-54.594	0.00043712	0.0004014	0.00019189	742.77	6.6212e-06	9.0896e-06	552.56	244.49	1.1447e-05	3.4692e-06	202.57	59.538	80.03	23.791	1.9377e-06	19.173	0.0009474	0.00096195	0.00027267	740.58	1.0665e-05	1.068e-05	564.14	243.18	1.0519e-05	1.0682e-05	212.52	64.051	81.641	24.907	1.0665e-05	21.745	24.185	251.602	-6.012	-49.430	120.272	55.366	-50.804	-44.333	41.259	55.587	-47.435	-42.659	-40.060	-35.987	125.813	-39.689	-8191	255	
3417.515	1	1	0	0	0.076548	0.11194	0.14795	0.032149	0.29114	0.061642	0.32477	0.308	0.11125	0.21634	0.038917	0.26796	0.23639	0.13244	0.020782	0.11487	0.072917	-0.99375	-0.16875	-0.80625	-0.925	-0.079167	-1.0063	-0.50208	-0.34167	-1.1396	-0.27292	-0.80625	-0.99375	-0.15417	-0.98125	-0.62708	85.989	210.362	279.982	25.101	209.380	63.086	184.611	-8.177	-6.821	128.778	220.061	165.254	-15.832	58.375	121.759	-50.146	0.0007021	0.00069421	0.00020057	743.23	5.8394e-06	9.3357e-06	557.21	244.26	1.2961e-05	5.9e-06	203.21	60.168	79.71	23.805	4.4148e-07	19.392	0.00095413	0.00098435	0.00027399	742.36	1.0768e-05	1.0817e-05	567.86	244.45	1.0769e-05	1.0804e-05	213.83	64.503	81.522	25.006	1.0711e-05	21.779	-21.331	108.259	63.455	-48.963	260.608	-49.378	-50.607	-44.414	90.145	228.255	-47.466	-43.600	-39.882	-35.721	76.581	-40.039	-8191	255	
3417.611	1	1	0	0	0.21421	0.3089	0.44254	0.2888	0.12681	0.19368	0.088377	0.19973	0.01077	0.24713	0.13439	0.16763	0.13646	0.2469	0.085535	0.078318	0.2125	-1.0812	-0.36042	-0.50625	-0.8875	-0.27292	-0.94583	-0.9125	-0.11667	-0.97083	-0.38958	-0.54167	-1.3271	-0.27708	-0.96875	-0.86042	89.926	111.320	193.754	240.384	2.357	275.139	232.514	-38.884	243.262	83.846	112.419	49.894	5.409	173.428	145.033	196.876	0.00032419	0.0010278	0.00023929	741.4	1.4125e-05	6.3901e-06	547.81	244.15	1.5836e-05	8.442e-07	201.15	59.196	79.395	23.762	1.2907e-05	18.95	0.00094365	0.00096626	0.00027041	739.94	1.0478e-05	1.0632e-05	561.07	243.01	1.0491e-05	1.0556e-05	211.25	63.459	81.265	24.75	1.0631e-05	21.317	-25.835	-29.318	31.706	-49.129	76.777	9.440	-50.875	-44.391	132.417	-3.694	-47.382	-42.771	-40.377	-35.838	18.413	-40.034	-8191	255	
3417.707	1	1	0	0	0.060563	0.12147	0.1251	0.15177	0.12462	0.042721	0.49795	0.22664	0.2943	0.019797	0.12544	0.16721	0.12851	0.22463	0.19232	0.13009	0.19375	-0.76667	-0.35833	-0.46875	-1.05	-0.14583	-0.78333	-1.0625	-0.28333	-0.99792	-0.4625	-0.24792	-1.2542	-0.29792	-0.65417	-1.0708	209.516	266.474	50.996	-60.255	141.698	239.585	237.867	233.354	-19.047	-49.003	237.813	-59.553	283.304	205.603	177.037	181.280	0.00022827	0.00060052	0.00031606	739.33	3.071e-06	7.1802e-06	551.48	244.12	1.0402e-05	3.5495e-06	200.85	60.324	79.47	23.758	1.0414e-05	19.346	0.00092778	0.00096149	0.00026501	739.09	1.0466e-05	1.0553e-05	561.17	242.88	1.062e-05	1.0554e-05	211.57	63.988	81.55	24.911	1.0514e-05	21.576	283.778	288.375	198.182	-48.734	116.913	271.485	-50.801	-44.000	196.383	-47.676	-46.840	-42.768	-40.063	-35.899	80.027	-39.350	-8191	255	
3417.803	1	1	0	0	0.23242	0.24117	0.24495	0.061954	0.073579	0.094368	0.13679	0.1973	0.19026	0.31585	0.041118	0.29686	0.019716	0.21811	0.086471	0.10245	0.55833	-0.87708	-0.33333	-0.27708	-0.91667	-0.3375	-0.8625	-1.0854	-0.1625	-0.93125	-0.84583	-0.29583	-1.1479	-0.58958	-0.62083	-0.91667	214.816	167.374	153.896	139.391	243.898	-43.980	274.539	-38.699	102.735	-1.121	111.300	2.944	252.672	210.246	80.619	251.483	0.00042054	0.0004913	2.8937e-05	743.69	6.9237e-06	3.2718e-06	554.48	244.32	5.1239e-06	6.8839e-06	203.11	60.087	80.033	23.871	9.9657e-06	19.335	0.00094045	0.00096194	0.00026893	741.27	1.0635e-05	1.0607e-05	565.72	243.93	1.0545e-05	1.0662e-05	213.23	64.276	81.794	24.983	1.0627e-05	21.785	-7.462	76.235	234.182	-49.385	246.288	297.221	-50.872	-43.997	278.661	75.024	-46.861	-43.424	-39.996	-36.166	107.995	-39.641	-8191	255	
3417.900	1	1	0	0	0.07714	0.27666	0.20737	0.36746	0.23376	0.21374	0.1486	0.21171	0.083558	0.26878	0.061892	0.17887	0.1821	0.15078	0.14523	0.21736	0.15	-0.72292	-0.76667	-0.18333	-1.0583	-0.4875	-0.56458	-1.0771	-0.08125	-0.8625	-0.85625	-0.15625	-1.0667	-0.40625	-0.2875	-1.025	183.200	278.334	181.820	261.953	66.068	53.707	-4.574	275.320	-34.411	141.798	223.872	162.959	-53.991	-5.677	297.159	-29.435	0.00023912	0.00040556	0.00010642	746.04	6.559e-06	2.6483e-06	554.37	246.38	7.3691e-06	6.1332e-06	203.71	60.392	79.893	24.069	1.4899e-05	19.929	0.00094924	0.00097093	0.00027245	742.52	1.0795e-05	1.0705e-05	567.04	245.36	1.0675e-05	1.0774e-05	214.05	64.596	81.871	25.173	1.0758e-05	22.137	56.841	17.037	-39.743	-49.058	223.406	103.128	-50.489	-44.022	-41.962	10.273	-46.995	-43.176	-39.985	-35.767	145.944	-39.279	-8191	255	
3418.020	1	1	0	0	0.23556	0.18924	0.022045	0.22473	0.27457	0.10148	0.10198	0.16014	0.29073	0.19332	0.097188	0.19281	0.088465	0.14407	0.2063	0.25555	0.27708	-0.76875	-0.775	-0.095833	-0.95417	-0.42708	-0.40208	-1.2021	-0.041667	-0.58958	-0.83333	0.11875	-1.0583	-0.50417	-0.29792	-0.90833	199.461	-47.027	-48.777	37.342	72.266	146.333	243.682	-16.682	213.669	-58.322	20.053	261.612	3.470	-37.295	61.944	289.142	0.00050115	0.00027115	9.9809e-05	743.65	1.2358e-05	5.4452e-06	553.03	246.01	1.4429e-05	4.1925e-06	204.9	60.144	80.432	24.1	1.3458e-05	19.103	0.00095357	0.0009779	0.00027217	743.77	1.058e-05	1.0642e-05	567.66	244.6	1.0521e-05	1.0701e-05	213.27	64.034	81.684	24.892	1.0468e-05	21.498	3.518	19.116	93.756	-48.876	146.912	-14.179	-50.448	-44.074	18.061	135.886	-47.039	-43.262	-39.981	-36.225	53.069	-39.330	-8191	255	
3418.116	1	1	0	0	0.083699	0.15128	0.23191	0.14638	0.26674	0.11248	0.044819	0.27768	0.20958	0.15814	0.11348	0.16261	0.2369	0.017788	0.23486	0.29757	0.23333	-0.65	-1.0667	-0.21667	-0.80833	-0.62708	-0.45417	-1.1437	-0.22083	-0.45	-1.0646	-0.24583	-0.93125	-0.78333	-0.20625	-1.2	194.001	183.603	261.413	-12.326	284.685	-35.589	3.208	269.507	179.828	-10.100	7.667	292.259	199.942	213.802	233.074	235.720	0.00012647	0.00033439	8.7753e-05	744.74	1.1207e-05	2.8921e-06	546.81	244.98	1.0483e-05	1.093e-05	200.67	59.875	79.901	23.785	2.0926e-05	19.221	0.00093886	0.00095304	0.00026622	739.09	1.0442e-05	1.0484e-05	559.95	243.24	1.0398e-05	1.0378e-05	210.94	63.685	81.631	24.863	1.0456e-05	21.421	134.022	148.901	134.326	-49.046	28.223	32.906	-50.413	-44.155	61.612	16.430	-47.042	-43.044	-39.325	-36.086	240.040	-39.749	-8191	255	
3418.213	1	1	0	0	0.058208	0.094048	0.32316	0.12572	0.24916	0.1533	0.047078	0.13564	0.11792	0.13422	0.13638	0.23052	0.19666	0.20055	0.13615	0.051682	0.077083	-0.42708	-1.0104	-0.18542	-0.97917	-0.675	-0.079167	-1.1208	-0.21458	-0.32292	-1.2062	-0.23333	-0.84167	-0.96667	-0.041667	-1.1542	83.663	234.281	256.371	80.482	262.198	110.166	63.288	41.361	127.896	-14.777	30.106	278.778	25.527	250.947	214.802	55.067	0.0001433	0.00044437	0.0002074	739.19	8.501e-06	7.7848e-06	552.71	244.63	1.8115e-05	4.2607e-06	201.63	60.511	80.756	23.942	1.2117e-05	19.348	0.00092651	0.00095608	0.00026786	740.25	1.0475e-05	1.0477e-05	561.43	243.65	1.0466e-05	1.0509e-05	211.79	63.978	81.975	24.896	1.0387e-05	21.635	166.618	31.702	7.163	-49.154	190.483	27.626	-50.623	-43.728	-59.258	27.941	-46.635	-42.549	-39.722	-35.941	26.501	-39.780	-8191	255	
3418.309	1	1	0	0	0.22134	0.11818	0.145	0.033407	0.072784	0.11568	0.28681	0.35464	0.29463	0.16837	0.040361	0.11975	0.31368	0.22951	0.29064	0.02697	-0.0020833	-0.05625	-1.1229	-0.20833	-0.71875	-0.99375	-0.091667	-1.2313	-0.65	-0.26458	-1.3208	-0.29792	-0.97083	-0.80625	-0.29583	-1.0542	-7.887	88.737	187.489	295.433	77.085	194.044	131.700	286.931	66.315	37.589	239.426	245.316	258.710	171.334	10.738	83.156	0.00024845	0.0010604	0.0001595	740.77	1.1426e-05	4.0741e-06	555.11	248.71	2.1346e-05	1.3725e-05	202.25	60.421	80.108	24.143	1.1013e-05	19.673	0.00092356	0.00096125	0.00026578	743.28	1.0455e-05	1.052e-05	566.22	245.14	1.0408e-05	1.0512e-05	213.61	64.226	82.025	25.055	1.0458e-05	21.866	79.810	259.015	1.778	-49.315	-12.830	221.616	-50.957	-44.187	258.088	42.666	-46.806	-42.855	-39.516	-36.078	291.351	-39.334	-8191	255	
3418.403	1	1	0	0	0.23039	0.15551	0.12406	0.072129	0.14031	0.043555	0.1433	0.38849	0.22172	0.14803	0.085505	0.061105	0.14904	0.29212	0.24236	0.1608	-0.27292	-0.20833	-1.1167	-0.5	-0.43333	-1.0104	-0.23125	-0.9	-0.93125	0.05	-0.94792	-0.44375	-0.42708	-0.96875	-0.20208	-0.87917	26.413	150.841	289.774	-58.299	189.934	288.458	174.932	190.477	144.189	65.204	224.931	110.656	44.251	298.044	255.067	41.834	0.000552	0.00034291	0.00018233	747.14	8.0406e-06	5.9707e-06	558.63	247.79	1.3126e-05	3.6478e-06	204.82	60.8	80.569	24.088	6.9446e-06	19.432	0.0009292	0.00096433	0.00026573	744.34	1.0517e-05	1.0496e-05	569.8	245.88	1.0374e-05	1.0496e-05	214.22	64.766	82.167	25.071	1.0319e-05	21.637	10.487	210.211	42.577	-48.994	228.932	261.781	-50.311	-43.891	110.991	213.834	-47.066	-42.896	-39.468	-36.089	56.700	-39.403	-8191	255	
3418.499	1	1	0	0	0.17371	0.25954	0.15986	0.14425	0.05952	0.090206	0.15229	0.21205	0.14385	0.24905	0.18582	0.22668	0.30971	0.10249	0.081579	0.14537	-0.55417	-0.052083	-0.97917	-0.54583	-0.47292	-1.1375	-0.16875	-1.0458	-0.79167	-0.275	-1.0417	-0.2375	-0.36667	-1.1771	-0.23333	-0.64375	-38.294	225.312	213.244	259.695	223.884	210.310	142.110	288.200	271.691	74.654	26.988	134.960	285.651	174.766	176.452	268.747	0.00038091	0.00018248	6.5426e-05	746.57	2.8435e-06	1.5977e-05	550.93	245.87	4.5476e-06	3.5645e-06	202.46	59.854	80.622	24.069	1.1141e-05	19.216	0.0009091	0.00093737	0.00026204	742.79	1.0271e-05	1.0172e-05	560.39	244.24	1.0295e-05	1.0263e-05	211.43	63.466	81.798	24.95	1.0116e-05	21.376	-60.603	-57.882	272.316	-49.169	88.647	14.969	-50.850	-43.959	291.428	50.012	-47.626	-44.051	-40.186	-36.064	53.913	-39.668	-8191	255	
3418.595	1	1	0	0	0.17529	0.3731	0.21646	0.12912	0.069349	0.10334	0.11658	0.068998	0.02938	0.13039	0.15443	0.029608	0.25484	0.16324	0.096081	0.19797	-0.61458	-0.11042	-0.96667	-0.65417	-0.2875	-1.1313	-0.14792	-0.76042	-0.86042	-0.13125	-0.77708	-0.59167	-0.070833	-1.0375	-0.19167	-0.52917	64.731	101.041	184.278	287.013	235.322	47.217	-25.450	-33.024	131.585	133.109	146.375	8.576	7.852	187.396	255.476	234.827	0.00016962	0.00052496	1.4962e-05	745.71	6.6151e-06	2.551e-06	550.07	246.99	2.8668e-06	7.6758e-06	204.16	60.312	81.47	23.888	1.0204e-05	19.697	0.00090451	0.00093958	0.00025646	741.18	1.0116e-05	1.0398e-05	562.41	244.96	1.0192e-05	1.0288e-05	212.63	64.204	82.336	24.98	1.019e-05	21.745	295.154	34.204	64.857	-49.186	162.010	263.228	-51.039	-44.279	284.045	14.902	-47.031	-43.274	-39.969	-35.907	84.830	-39.547	-8191	255	
3418.716	1	1	0	0	0.056645	0.041475	0.21184	0.088874	0.095973	0.20338	0.17647	0.3116	0.29611	0.19273	0.048558	0.096276	0.13834	0.23427	0.073567	0.27413	-0.54583	-0.19167	-0.65833	-0.62083	-0.039583	-1.0417	-0.4	-0.49375	-1.2604	-0.21042	-0.98125	-0.82917	-0.20625	-1.1458	-0.39167	-0.34375	258.031	213.323	259.919	269.495	8.237	-61.921	158.309	275.499	15.629	108.817	-23.020	234.497	-47.900	13.461	127.222	-35.589	6.8704e-05	0.00070306	0.00014646	746.76	7.1918e-06	1.2503e-05	557.02	247.47	1.1962e-05	1.1179e-05	204.49	60.136	80.605	24.302	2.9522e-06	19.713	0.00090987	0.00094016	0.00025992	743.67	1.0205e-05	1.0217e-05	565.51	245.49	1.0187e-05	1.0349e-05	213.89	64.192	82.095	25.185	1.0301e-05	21.81	183.826	89.892	77.361	-49.288	104.865	68.595	-51.139	-44.114	162.232	111.985	-47.230	-43.202	-39.838	-36.456	247.805	-40.251	-8191	255	
3418.812	1	1	0	0	0.064102	0.14417	0.1611	0.13974	0.28868	0.070733	0.11938	0.18728	0.19929	0.19249	0.14641	0.053231	0.23297	0.19916	0.10784	0.089216	-0.74167	-0.091667	-0.73333	-0.70417	-0.06875	-0.94375	-0.42708	-0.38542	-0.99792	-0.25208	-0.76875	-0.85833	-0.22083	-0.88125	-0.77083	-0.21458	280.978	283.293	153.568	44.992	30.985	133.736	249.872	236.250	23.487	117.837	-11.466	198.376	26.397	246.040	-14.086	296.135	0.00028792	0.00058835	0.00018094	748.3	1.2438e-05	4.4682e-06	555.15	247.66	5.4045e-06	7.6179e-06	204.56	60.917	80.844	24.234	8.7408e-06	19.875	0.00092292	0.00094035	0.0002645	744.4	1.0327e-05	1.0408e-05	567.44	246.12	1.0394e-05	1.0406e-05	214.29	64.708	82.29	25.313	1.0409e-05	21.97	-38.544	236.206	104.193	-49.463	238.858	14.375	-50.911	-44.040	55.505	24.868	-47.025	-43.284	-40.092	-36.112	186.819	-39.791	-8191	255	
3418.908	1	1	0	0	0.11451	0.11484	0.37311	0.25261	0.11661	0.14153	0.41551	0.095838	0.10587	0.028278	0.16513	0.41426	0.34664	0.099483	0.29616	0.064535	-0.69375	-0.33125	-0.64167	-0.93333	-0.16042	-0.94375	-0.54167	-0.26042	-1.1625	-0.38333	-0.60625	-1.0625	-0.22917	-0.97917	-0.65625	-0.091667	163.919	-23.926	230.047	174.949	39.947	19.473	281.844	-45.116	8.334	55.357	291.473	35.431	112.662	121.896	64.421	116.724	0.00043027	0.00068619	0.000174	748.84	6.7691e-06	2.6276e-06	550.96	246.76	2.7412e-06	3.5219e-06	202.68	59.835	80.036	23.966	7.0557e-06	19.063	0.00092652	0.00095455	0.00026516	743.95	1.028e-05	1.0268e-05	563.06	244.88	1.0292e-05	1.0276e-05	212.25	63.501	81.719	24.999	1.0209e-05	21.35	-54.445	28.832	33.562	-49.543	40.250	89.798	-51.243	-44.479	199.549	122.729	-47.066	-43.647	-40.109	-36.170	-46.350	-39.794	-8191	255	
3418.980	1	1	0	0	0.34228	0.17898	0.15449	0.23199	0.29763	0.19178	0.1837	0.18829	0.12304	0.19575	0.0035677	0.12991	0.020408	0.46326	0.20934	0.037044	-0.45625	-0.25	-0.43125	-1.0208	-0.027083	-0.83958	-0.78958	-0.23333	-0.92708	-0.53333	-0.41667	-0.94375	-0.28333	-0.68958	-0.96875	-0.21667	254.746	141.648	-46.607	192.693	213.437	4.884	248.842	278.339	265.786	147.505	113.361	282.607	174.512	-44.182	16.721	-30.584	0.00033531	0.00095616	8.987e-05	743.55	9.8003e-06	3.4729e-06	548.29	244.53	5.4751e-06	9.7088e-06	202.32	60.094	80.4	23.753	5.4367e-06	19.215	0.00091348	0.00093701	0.00025966	740.51	1.0315e-05	1.0187e-05	558.64	243.75	1.0181e-05	1.0273e-05	211.05	63.666	81.674	24.911	1.0247e-05	21.367	171.187	274.973	167.362	-49.157	145.581	110.519	-50.831	-44.294	211.570	-56.954	-47.199	-42.726	-40.011	-35.893	49.079	-39.863	-8191	255	
3419.101	1	1	0	0	0.052085	0.21025	0.35143	0.27664	0.15107	0.32506	0.31768	0.17699	0.17777	0.054293	0.012171	0.10731	0.12276	0.055045	0.041682	0.24697	-0.72917	-0.50417	-0.38958	-1.1729	-0.085417	-0.87917	-0.87917	-0.34375	-0.92083	-0.58542	-0.15208	-0.91667	-0.37083	-0.66042	-1.0104	-0.13125	-52.869	121.170	212.575	-36.206	-46.655	232.837	223.223	183.911	87.902	258.985	123.342	158.176	212.401	199.927	115.645	84.400	0.00056067	0.00027841	0.0001314	747.03	6.5264e-06	1.3519e-05	550.16	245.8	1.1301e-05	4.9347e-06	201.91	60.319	80.666	24.076	1.1555e-05	19.416	0.00091379	0.00093719	0.0002613	743.52	1.0305e-05	1.0406e-05	561.17	244.71	1.0285e-05	1.0437e-05	211.82	63.936	82.037	25.047	1.0418e-05	21.629	42.861	10.209	41.736	-49.438	54.714	40.998	-50.892	-44.381	-48.563	91.905	-47.090	-42.996	-39.740	-36.263	160.330	-40.052	-8191	255	
3419.197	1	1	0	0	0.1344	0.058086	0.25518	0.22682	0.13004	0.39221	0.22086	0.12271	0.10489	0.20941	0.20919	0.098552	0.30044	0.034334	0.20529	0.29467	-0.525	-0.51875	-0.26042	-1.0917	-0.13333	-0.5375	-0.94583	-0.31042	-0.94167	-0.83542	-0.16875	-0.91667	-0.24375	-0.46458	-1.0396	-0.20625	207.734	-17.423	265.576	219.041	110.593	-52.237	200.546	243.816	-5.352	149.140	123.298	205.718	-53.002	-25.430	150.234	161.618	0.00037023	0.00021231	0.00012912	749.53	1.4319e-06	6.4943e-06	552.06	247.12	1.624e-06	6.6573e-06	204.84	60.039	80.92	24.312	1.3339e-05	19.581	0.00092794	0.00094571	0.00026575	745.28	1.0452e-05	1.0437e-05	564.84	245.68	1.0379e-05	1.0508e-05	214.09	64.247	82.351	25.236	1.0556e-05	21.817	184.481	-36.840	-12.166	-49.285	269.152	11.557	-50.470	-44.157	223.545	149.496	-47.243	-42.865	-40.142	-35.773	83.628	-39.955	-8191	255	
3419.293	1	1	0	0	0.15026	0.075737	0.090261	0.03872	0.13355	0.23163	0.1102	0.19083	0.14406	0.22893	0.15689	0.28075	0.17377	0.078045	0.17793	0.33111	-0.58333	-0.94375	-0.11875	-1.3104	-0.475	-0.30833	-1.2292	-0.29583	-0.65833	-0.88542	-0.27292	-1.1479	-0.5	-0.24792	-1.0625	-0.3875	125.929	124.249	118.408	150.460	79.188	289.543	71.491	161.559	175.685	41.435	171.133	149.297	237.307	223.516	235.409	292.326	0.00022671	0.00049475	0.00014699	744.66	7.5849e-06	7.5678e-06	561.35	247.58	4.3476e-07	5.6566e-06	204.06	60.61	80.643	24.196	1.9664e-05	19.21	0.00093825	0.00095014	0.00026624	746.18	1.0496e-05	1.0447e-05	570.21	246.13	1.0403e-05	1.0413e-05	213.58	64.124	82.189	25.073	1.0449e-05	21.47	42.932	198.462	78.556	-49.046	292.291	123.930	-51.006	-44.105	-13.274	115.099	-47.265	-43.137	-39.533	-36.097	252.720	-39.817	-8191	255	
3419.412	1	1	0	0	0.13555	0.10113	0.2495	0.022536	0.12356	0.048419	0.22602	0.22525	0.099534	0.21156	0.16628	0.13961	0.32243	0.20418	0.075503	0.12248	-0.275	-0.925	-0.14792	-0.95833	-0.49375	-0.40625	-1.1396	-0.45	-0.68542	-0.79167	-0.27917	-0.97083	-0.57917	-0.25208	-1.0417	-0.3375	221.428	67.470	37.410	67.053	137.268	-14.488	262.232	221.157	204.225	169.923	-55.658	-56.720	246.608	7.176	70.958	213.155	0.00025622	0.00062766	5.7265e-05	750.58	5.0869e-06	5.5402e-06	553.15	246.58	1.0744e-05	1.0707e-05	202.44	59.431	80.655	24.178	1.1801e-05	19.263	0.00092475	0.00093792	0.0002607	743.65	1.0276e-05	1.0289e-05	563.02	245.62	1.0269e-05	1.0187e-05	211.81	63.568	81.78	24.987	1.028e-05	21.337	-35.290	31.274	66.527	-49.057	217.652	143.720	-50.697	-44.323	84.676	-28.335	-47.295	-42.941	-39.799	-35.879	20.827	-39.834	-8191	255	
3419.508	1	1	0	0	0.096532	0.11102	0.19744	0.26423	0.24082	0.055933	0.13587	0.30211	0.2203	0.12117	0.15968	0.15424	0.044699	0.32119	0.085517	0.35444	-0.17917	-0.93958	-0.060417	-0.91875	-0.59583	-0.15208	-1.0229	-0.27292	-0.60833	-1.0708	-0.275	-0.84792	-0.8	-0.2875	-1.0854	-0.7375	239.001	140.228	55.704	-44.916	256.496	257.972	263.659	266.946	251.496	53.487	-48.825	-6.161	78.848	254.571	149.219	234.022	0.00032926	0.00055059	0.00010699	753.27	4.791e-06	6.5804e-06	549.66	246.24	2.694e-06	4.3165e-06	203.22	60.063	80.806	23.92	1.4566e-05	19.192	0.00092542	0.00094575	0.00026244	744.39	1.0207e-05	1.0433e-05	562.43	245.29	1.0296e-05	1.0361e-05	212.67	64.108	82.005	25.078	1.0304e-05	21.451	-52.138	21.330	20.843	-49.163	72.023	260.024	-51.016	-44.181	7.565	197.255	-47.182	-43.085	-39.760	-36.141	109.559	-40.413	-8191	255	
3419.581	1	1	0	0	0.11799	0.13942	0.28912	0.19388	0.27549	0.1486	0.054692	0.08726	0.28938	0.092976	0.1865	0.12035	0.17476	0.13023	0.20661	0.15386	-0.1125	-1.0042	-0.14167	-0.825	-0.91667	-0.16458	-1.1333	-0.63958	-0.34375	-1.0646	-0.19167	-0.80833	-1.1667	0.0083333	-1.0917	-0.63542	182.045	219.299	287.598	222.886	215.334	22.989	263.442	131.920	199.785	20.027	226.600	33.593	190.351	115.371	9.850	112.903	8.8658e-05	0.00081679	0.0002491	744.33	5.7248e-06	4.6919e-06	552.41	245.73	1.2342e-05	5.0497e-06	204.75	59.531	80.149	24.017	9.5286e-06	19.374	0.00092261	0.00095709	0.00026269	745.24	1.0435e-05	1.0519e-05	564.2	245.44	1.0463e-05	1.0435e-05	213.18	64.17	81.971	25.082	1.0456e-05	21.739	257.447	216.204	41.005	-49.180	-40.358	50.473	-51.021	-44.137	100.335	98.960	-47.103	-43.370	-40.244	-36.399	235.394	-39.957	-8191	255	
3419.700	1	1	0	0	0.1144	0.10906	0.21072	0.27646	0.30499	0.075088	0.15583	0.34009	0.16244	0.14189	0.24908	0.17129	0.077401	0.17316	0.19387	0.12185	0.11667	-1.0938	0.0625	-0.75833	-0.91667	-0.27292	-1.0104	-0.675	-0.24167	-1.1688	-0.32917	-0.48125	-1.1063	-0.23542	-1.0583	-0.80208	-9.643	166.149	194.543	193.944	193.461	52.546	88.912	242.144	125.395	272.296	235.996	-39.170	41.361	187.706	169.956	44.045	0.0003764	0.00063364	7.5102e-05	750.43	5.2342e-06	5.2416e-06	558.35	247.91	1.2709e-05	9.5104e-06	206.41	61.132	81.466	24.07	1.1453e-05	19.393	0.00093598	0.00095364	0.00026694	746.17	1.056e-05	1.0538e-05	569.4	246.14	1.0497e-05	1.0608e-05	214.19	64.654	82.689	25.159	1.0447e-05	21.649	11.288	-47.503	166.706	-49.200	83.977	-51.406	-51.020	-44.444	277.869	257.884	-47.234	-42.879	-40.151	-35.860	42.249	-39.505	-8191	255	
3419.796	1	1	0	0	0.27216	0.13957	0.072598	0.14176	0.043054	0.2098	0.078656	0.22818	0.20822	0.31992	0.045125	0.184	0.072525	0.14739	0.20684	0.16086	0.23542	-1.1354	-0.41875	-0.62292	-1.0042	-0.26875	-0.84583	-0.85208	-0.1125	-1.0208	-0.5875	-0.53125	-1.2062	-0.1875	-0.67292	-0.95208	170.895	150.264	-47.421	217.923	174.277	147.069	255.684	207.729	-54.305	49.671	237.000	246.618	96.713	-47.930	-5.080	216.084	0.00060192	0.00058243	2.5065e-05	742.64	1.0147e-05	6.1332e-07	553.51	246.25	2.0854e-05	9.4676e-06	201.48	59.51	81.03	23.926	1.853e-05	19.003	0.00093127	0.00094819	0.00026162	743.78	1.0376e-05	1.04e-05	563.68	244.7	1.0339e-05	1.0275e-05	210.96	63.549	81.985	24.865	1.0312e-05	21.182	238.680	-11.683	201.349	-49.081	-10.050	265.261	-51.089	-44.368	141.017	206.781	-47.230	-42.947	-39.955	-36.112	138.151	-39.747	-8191	255	
3419.893	1	1	0	0	0.18375	0.073197	0.067885	0.15773	0.26634	0.071729	0.088893	0.4378	0.12152	0.080426	0.1984	0.18631	0.22503	0.031633	0.071711	0.024003	0.35833	-0.97292	-0.43542	-0.30208	-0.8875	-0.11042	-0.7125	-1.1729	-0.21667	-0.89583	-0.55625	-0.38958	-0.8125	-0.49375	-0.71458	-0.85417	119.379	56.171	107.094	-49.320	-59.316	150.176	-53.544	233.005	270.064	16.344	-39.472	267.117	294.858	202.087	137.665	49.218	0.00050341	0.00077182	0.00023858	745.03	1.298e-06	3.5043e-06	550.87	245.39	9.4876e-06	1.3856e-05	200.27	59.602	80.881	23.723	1.6476e-05	18.965	0.00091756	0.00093686	0.00026224	741.32	1.0229e-05	1.0288e-05	560.25	244.16	1.0227e-05	1.0346e-05	210.78	63.381	81.735	24.78	1.0367e-05	21.218	-14.867	111.869	113.586	-49.138	214.964	79.515	-50.874	-44.365	-29.970	-38.101	-47.599	-43.213	-39.943	-36.010	54.503	-40.412	-8191	255	
3420.013	1	1	0	0	0.023217	0.058113	0.17701	0.082345	0.18791	0.2918	0.30103	0.26181	0.11711	0.21882	0.41193	0.22381	0.16051	0.14838	0.095273	0.14531	0.1	-1.05	-0.68542	-0.44792	-1.1792	-0.30833	-0.66875	-1.0625	0.0041667	-1.0875	-0.73125	-0.070833	-1.0604	-0.44792	-0.50208	-1.0312	44.169	-10.455	13.510	-17.984	243.418	95.649	251.102	291.662	182.992	-39.146	119.154	-1.942	280.479	287.945	267.870	43.768	0.00071305	0.00028696	0.00021646	741.75	7.248e-06	1.9101e-06	554.13	247.06	2.5601e-05	4.3188e-06	201.17	60.476	80.19	23.698	4.5547e-06	19.255	0.00092443	0.0009528	0.00026338	740.07	1.0349e-05	1.0341e-05	563.44	245.03	1.0393e-05	1.037e-05	211.8	63.672	81.695	24.878	1.0484e-05	21.464	231.245	283.853	143.437	-49.460	232.568	176.036	-50.745	-44.521	41.601	131.462	-47.009	-42.743	-40.205	-35.906	213.011	-39.955	-8191	255	
3420.109	1	1	0	0	0.059495	0.16334	0.054058	0.30426	0.38195	0.014199	0.40669	0.055802	0.32191	0.17291	0.044511	0.27294	0.21351	0.27271	0.020721	0.21584	0.19167	-0.68333	-0.67083	-0.35417	-1.2229	-0.5375	-0.4625	-1.125	-0.0875	-0.76042	-1.0583	-0.19583	-1.2563	-0.67083	-0.2625	-1.1771	-6.703	287.150	203.858	20.952	43.509	132.877	-50.578	221.002	-26.978	85.884	75.058	259.160	69.322	227.777	203.264	-9.057	0.00030197	0.00033336	0.00016912	745.08	1.7442e-06	6.0117e-06	551.31	245.95	7.1444e-06	4.6369e-06	203.24	60.055	81.032	23.913	7.4362e-06	19.236	0.00093941	0.00096078	0.00026573	743.01	1.0537e-05	1.0522e-05	563.83	245.15	1.0345e-05	1.0534e-05	213.22	64.219	82.181	24.983	1.0524e-05	21.629	199.405	6.751	-1.170	-49.409	-59.708	94.320	-51.056	-44.331	147.465	77.497	-47.018	-43.015	-39.857	-36.561	277.889	-39.655	-8191	255	
3420.204	1	1	0	0	0.13306	0.091131	0.17948	0.12173	0.01175	0.16945	0.29048	0.16354	0.27914	0.091833	0.17107	0.28276	0.18447	0.23132	0.26681	0.2581	0.05625	-0.60833	-0.97708	-0.27917	-0.78958	-0.64792	-0.23958	-1.1083	-0.41458	-0.58125	-1.0521	-0.13125	-1.1125	-0.67917	-0.24167	-1.0833	78.746	172.673	189.747	-35.125	63.317	279.801	-58.794	173.812	271.837	-27.853	215.700	159.578	201.882	207.763	190.342	166.393	0.00022695	0.0011208	9.0589e-05	745.82	9.3093e-06	3.326e-06	551.47	247.19	7.9063e-06	4.1261e-06	201.08	59.508	80.527	23.836	4.0725e-06	18.943	0.00093987	0.00096242	0.00026863	743.52	1.0401e-05	1.0359e-05	564.59	245.26	1.0358e-05	1.0382e-05	211.41	63.601	81.84	24.848	1.0256e-05	21.28	287.909	45.257	157.565	-49.099	137.398	39.617	-50.930	-44.452	22.193	112.659	-47.323	-43.616	-40.245	-36.470	193.447	-40.277	-8191	255	
3420.277	1	1	0	0	0.020444	0.12327	0.14505	0.068655	0.089634	0.10479	0.039727	0.21979	0.27705	0.1879	0.092137	0.30454	0.16381	0.07568	0.04767	0.32825	0.097917	-0.51875	-0.96458	-0.34792	-0.99792	-0.75417	-0.22292	-1.3583	-0.25208	-0.7125	-1.1042	-0.20625	-0.79375	-0.8375	-0.15417	-1.0021	288.158	188.194	65.670	34.994	-52.706	108.110	-50.642	194.476	272.737	240.129	138.200	58.266	227.846	235.376	146.008	245.250	0.00032137	0.0015455	0.00014276	741.72	6.9664e-06	7.9739e-06	550.28	246.62	3.0258e-06	1.1537e-05	199.64	59.746	80.781	24	1.6219e-06	18.767	0.00092624	0.00093959	0.00026342	740.46	1.0308e-05	1.0272e-05	559.55	244.46	1.018e-05	1.0326e-05	210.47	63.317	81.908	24.935	1.023e-05	21.218	265.434	-38.851	78.953	-49.498	156.087	-14.184	-50.997	-44.193	135.063	171.196	-47.185	-43.532	-40.123	-36.390	-28.788	-40.220	-8191	255	
3420.396	1	1	0	0	0.45921	0.26186	0.18321	0.11442	0.22224	0.13497	0.089485	0.070475	0.17896	0.34094	0.23205	0.41426	0.29223	0.054884	0.27114	0.13351	-0.15417	-0.35625	-1.2563	-0.33542	-0.82292	-0.59167	-0.3125	-1.0729	-0.41667	-0.4	-1.1667	-0.3	-0.73333	-0.97917	-0.22708	-1.1458	150.589	58.531	-47.161	282.350	-29.612	179.626	87.174	168.822	285.786	125.233	242.259	7.941	145.937	-43.465	117.162	244.649	0.00016819	0.0006879	0.0001364	747.96	1.1084e-05	1.0339e-05	551.13	246.75	6.1913e-06	1.7486e-06	202.51	59.973	80.836	23.927	5.5234e-06	19.189	0.00091454	0.00093631	0.00025971	742.07	1.0223e-05	1.0227e-05	561.69	244.74	1.0247e-05	1.0424e-05	211.63	63.557	82.092	24.946	1.0375e-05	21.451	207.670	-49.908	291.276	-49.352	256.782	108.317	-50.535	-44.282	238.748	67.503	-47.640	-43.232	-39.827	-36.100	22.285	-39.154	-8191	255	
3420.492	1	1	0	0	0.23981	0.13465	0.028802	0.14943	0.12929	0.09176	0.1133	0.18157	0.13591	0.020742	0.11992	0.40223	0.12388	0.17809	0.024718	0.14973	-0.16458	-0.2	-1.2542	-0.37292	-0.66875	-0.84167	-0.28333	-0.85625	-0.53958	-0.32917	-1.2229	-0.20625	-0.40625	-1.0521	-0.10833	-0.87917	199.853	293.908	286.509	134.091	66.950	4.816	139.930	120.877	70.854	55.706	243.651	206.994	273.387	-29.153	140.994	261.614	7.8545e-05	0.0010473	0.00026393	741.7	1.1737e-06	5.9466e-06	554.63	246.8	1.2958e-06	5.887e-06	201.67	60.167	80.5	23.953	2.4387e-06	19.32	0.00092005	0.00095006	0.00026603	740.77	1.0385e-05	1.0474e-05	563.17	244.96	1.0192e-05	1.044e-05	211.88	64.008	81.909	24.989	1.0406e-05	21.519	68.117	-53.031	6.648	-49.309	148.495	-4.166	-50.755	-44.420	-25.695	-2.910	-47.270	-42.741	-39.935	-35.812	180.147	-40.043	-8191	255	
3420.588	1	1	0	0	0.343	0.080602	0.214	0.2193	0.057583	0.069969	0.16306	0.094436	0.017438	0.18497	0.10054	0.16328	0.18098	0.34109	0.15002	0.066747	-0.36458	-0.2375	-0.91458	-0.39167	-0.3625	-0.975	-0.33542	-0.97083	-0.88125	-0.0875	-1.0021	-0.44375	-0.46458	-1.0479	-0.19583	-0.66875	25.921	70.348	277.773	-56.493	-42.338	131.066	8.276	-29.085	-26.363	188.926	174.937	255.412	67.367	277.555	206.951	273.944	0.00033844	0.00039936	0.00021473	744.87	1.1904e-05	1.068e-05	556.88	245.77	1.649e-05	2.5132e-06	203.34	60.446	80.005	23.864	7.392e-06	19.038	0.0009289	0.00095365	0.0002653	743.15	1.0461e-05	1.0513e-05	565.46	244.99	1.039e-05	1.0477e-05	212.88	63.922	81.801	24.985	1.0251e-05	21.285	219.895	46.518	58.283	-49.107	47.075	141.106	-51.055	-44.405	120.405	193.217	-47.561	-43.636	-39.719	-35.468	172.673	-39.497	-8191	255	
3420.684	1	1	0	0	0.10262	0.19287	0.14662	0.28296	0.12824	0.12376	0.1106	0.044678	0.26561	0.1354	0.27129	0.3683	0.31556	0.12604	0.11656	0.23611	-0.55833	-0.10417	-1.1583	-0.69583	-0.40625	-1.1583	-0.24167	-0.65625	-0.95625	-0.17083	-1.1187	-0.70417	-0.36042	-1.1125	-0.15208	-0.50208	127.962	156.803	73.454	9.755	183.445	192.308	18.436	151.788	144.166	293.973	136.752	272.575	275.646	281.392	-35.463	150.142	0.00040989	0.00056749	0.00022991	746.79	7.6104e-06	7.4819e-06	544.3	246.61	4.0981e-06	4.3151e-06	201.2	58.597	80.081	23.764	1.539e-05	18.521	0.00091752	0.0009311	0.00025897	741	1.0253e-05	1.0258e-05	556.41	243.74	1.0139e-05	1.0197e-05	210.04	62.696	81.316	24.565	1.0086e-05	20.879	75.908	276.259	202.007	-49.151	72.416	53.814	-50.807	-44.048	85.043	151.570	-47.232	-43.512	-39.751	-36.476	-22.262	-39.450	-8191	255	
3420.781	1	1	0	0	0.11779	0.053435	0.29834	0.36036	0.12797	0.25018	0.32457	0.19837	0.21328	0.090484	0.11124	0.37213	0.10245	0.20528	0.11315	0.2547	-0.48333	-0.15	-1.0375	-0.70208	-0.22292	-1.0938	-0.35833	-0.61458	-1.0312	-0.30625	-1.0021	-0.85625	-0.16042	-1.1479	-0.40417	-0.49792	-13.892	247.035	169.377	-56.716	64.434	203.911	231.393	255.169	-59.018	76.383	224.243	-47.821	40.127	-8.957	154.361	115.456	7.15e-05	0.00054904	9.2041e-05	746.19	5.5257e-06	3.327e-06	547.44	245.38	9.3118e-06	1.4441e-05	201.85	59.048	79.863	23.387	9.8772e-06	18.923	0.00089928	0.00092932	0.00025845	739.53	1.0263e-05	1.0163e-05	555.59	243.1	1.0205e-05	1.0285e-05	209.54	62.882	81.158	24.508	1.0322e-05	21.03	138.470	126.834	274.099	-49.566	34.436	47.761	-51.059	-44.047	289.631	191.991	-47.361	-42.996	-39.825	-35.936	47.836	-40.067	-8191	255	
3420.877	1	1	0	0	0.23447	0.10745	0.067112	0.19972	0.27019	0.032843	0.17809	0.32983	0.45417	0.15627	0.10922	0.13696	0.10597	0.34959	0.15539	0.17303	-0.67083	-0.2125	-0.70625	-0.9125	-0.13125	-1.0875	-0.54167	-0.3125	-1.0708	-0.22292	-0.76042	-0.91458	-0.2375	-0.92292	-0.50833	-0.2875	6.493	10.763	199.257	-5.544	-19.714	109.181	242.126	-58.609	-38.354	19.383	-18.740	10.856	-7.683	279.931	130.434	-21.699	0.00018406	0.00048053	0.00016922	740.31	3.5549e-06	1.9605e-06	548.49	242.82	7.5983e-06	2.711e-06	199.72	59.005	79.849	23.64	7.101e-06	18.872	0.00091237	0.00094064	0.00025871	737.91	1.0241e-05	1.0298e-05	558.67	242.17	1.0281e-05	1.0309e-05	209.75	62.782	81.062	24.599	1.0355e-05	21.041	153.142	-43.834	235.512	-49.367	-39.662	211.912	-50.852	-44.266	60.345	126.954	-46.990	-43.969	-39.551	-35.829	157.834	-39.935	-8191	255	
3420.973	1	1	0	0	0.24443	0.14262	0.08656	0.21623	0.11497	0.17687	0.25109	0.1925	0.081464	0.17474	0.10374	0.17092	0.17871	0.2872	0.081201	0.10653	-0.73125	-0.24167	-0.62292	-0.97917	-0.1	-1.1458	-0.71875	-0.2125	-1.0792	-0.28333	-0.50833	-0.94375	-0.19167	-1.0729	-0.70625	-0.13125	-36.319	70.651	61.439	226.295	-43.422	139.890	285.319	11.264	188.611	33.229	115.926	-19.846	-45.938	13.128	15.607	259.024	0.00041282	0.0010291	0.00022301	743.13	7.7387e-06	5.3371e-06	546.84	245.01	8.9672e-06	6.5438e-06	200.57	58.976	79.582	23.523	1.032e-05	18.99	0.00092166	0.00093947	0.00026265	738.85	1.0458e-05	1.0346e-05	559.9	243.23	1.0367e-05	1.0396e-05	211.17	63.126	81.04	24.698	1.0375e-05	21.385	275.566	37.206	-18.948	-49.536	185.362	69.933	-50.788	-44.131	-31.985	154.997	-47.027	-43.148	-40.044	-35.909	10.972	-39.632	-8191	255	
3421.094	1	1	0	0	0.099146	0.051818	0.25902	0.11044	0.21193	0.14237	0.046388	0.18924	0.090205	0.21662	0.12532	0.10933	0.17039	0.042231	0.10756	0.048508	-0.825	-0.30417	-0.62708	-1.1812	-0.125	-0.70625	-0.77708	-0.31458	-1.2	-0.5	-0.36458	-1.1125	-0.23333	-0.89792	-0.62292	-0.29167	25.193	203.580	287.154	-20.573	214.771	-13.397	265.412	66.439	-23.693	40.646	109.049	225.671	138.082	138.306	271.476	208.308	0.00011071	0.0004156	0.00020371	744.24	5.1009e-06	5.5017e-06	545.22	242.55	1.2789e-05	7.8554e-06	199.13	58.639	79.509	23.593	8.1718e-06	18.71	0.00092288	0.00095166	0.00026474	739.08	1.0308e-05	1.029e-05	556.76	242.23	1.0204e-05	1.028e-05	208.47	62.577	80.918	24.548	1.0246e-05	20.852	261.798	93.969	59.084	-49.665	149.856	255.444	-51.019	-43.911	44.883	-39.850	-47.129	-43.331	-39.712	-35.891	60.882	-40.206	-8191	255	
3421.190	1	1	0	0	0.18884	0.057445	0.10194	0.10407	0.17131	0.37637	0.191	0.087547	0.28958	0.088214	0.31784	0.10734	0.093099	0.17747	0.20216	0.1414	-0.71458	-0.56667	-0.25417	-1.2167	-0.21458	-0.72708	-0.92708	-0.17917	-0.92083	-0.66875	-0.31042	-0.98542	-0.19375	-0.65625	-0.83333	-0.085417	212.004	59.726	164.480	219.978	175.537	33.375	200.822	195.959	105.513	150.926	263.647	279.230	66.549	-28.879	115.069	240.317	0.00033333	0.00068895	0.00017251	738.26	3.5094e-06	4.216e-06	543.41	243.31	7.325e-06	7.9362e-06	200.1	58.482	79.657	23.568	1.3338e-05	18.888	0.00091634	0.00094452	0.00026313	734.66	1.0315e-05	1.0268e-05	553.47	241.88	1.015e-05	1.0299e-05	208.64	62.399	80.829	24.534	1.0389e-05	20.97	-49.905	6.516	-33.256	-49.092	62.015	17.790	-50.823	-44.353	41.662	117.298	-47.215	-43.145	-39.817	-35.982	219.342	-39.665	-8191	255	
3421.286	1	1	0	0	0.31642	0.14603	0.14913	0.18242	0.11073	0.088295	0.2278	0.43741	0.17355	0.12626	0.31251	0.24678	0.063815	0.13514	0.058062	0.20667	-0.45208	-0.43333	-0.16875	-1.1	-0.1	-0.71042	-0.90417	-0.1125	-0.7125	-0.70208	-0.34792	-1.0312	-0.2625	-0.675	-1.1396	-0.37292	97.103	169.735	133.328	-26.134	35.801	0.508	258.529	251.555	238.085	279.138	-17.541	268.167	-42.821	-41.911	72.264	258.660	0.0001764	0.00073	3.3241e-05	739.57	6.2096e-06	3.3887e-06	546.53	242.44	7.1147e-06	1.503e-06	199.7	59.012	79.752	23.681	9.4289e-06	18.899	0.00090797	0.00094189	0.00026292	735.46	1.0293e-05	1.0367e-05	555.64	241.75	1.0228e-05	1.0411e-05	209.11	62.932	81.288	24.721	1.0415e-05	21.189	19.380	36.833	190.377	-49.419	116.249	153.619	-51.032	-44.151	9.397	175.037	-47.530	-43.156	-39.929	-35.722	132.981	-39.376	-8191	255	
#DATA ENDS
