BOXY.EXE: ISS Imagent and Oximeter Data Acquisition Program Version 0.80
Ascii Record File

#ACQ INFORMATION
2  Detector Channels 
16  External MUX Channels 
1  Auxiliary Channels 
5000  Waveform (CCF) Frequency (Hz)
1  Waveforms Skipped 
30  Waveforms Averaged 
1  Cycles Averaged 
16  Acquisitions per Waveform 
10.0806  Updata Rate (Hz) 

#FILE INFORMATION
TRUE -- External MUX Channel results are PARSED.
FALSE -- AC DC and Phase are NOT grouped.
TRUE -- Companion Program Settings File CREATED.
FALSE -- AC data not excluded
FALSE -- DC data not excluded
FALSE -- Phase data not excluded
FALSE -- Auxillary Chn. data not excluded
Tab delimiters

#CALIBRATION STATE
TRUE -- Waveform Calibration Values APPLIED.


#AUX CALIBRATION VALUES
Val Type	aux-1	

Term	1.0000e+00	
Factor	0.0000e+00	


#WF CALIBRATION VALUES
A = Detector Channel
Val Type	A-AC1	A-AC2	A-AC3	A-AC4	A-AC5	A-AC6	A-AC7	A-AC8	A-AC9	A-AC10	A-AC11	A-AC12	A-AC13	A-AC14	A-AC15	A-AC16	A-DC1	A-DC2	A-DC3	A-DC4	A-DC5	A-DC6	A-DC7	A-DC8	A-DC9	A-DC10	A-DC11	A-DC12	A-DC13	A-DC14	A-DC15	A-DC16	A-Ph1	A-Ph2	A-Ph3	A-Ph4	A-Ph5	A-Ph6	A-Ph7	A-Ph8	A-Ph9	A-Ph10	A-Ph11	A-Ph12	A-Ph13	A-Ph14	A-Ph15	A-Ph16	

Term	0.00000e+00	0.00000e+00	0.00000e+00	0.00000e+00	0.00000e+00	0.00000e+00	0.00000e+00	0.00000e+00	0.00000e+00	0.00000e+00	0.00000e+00	0.00000e+00	0.00000e+00	0.00000e+00	0.00000e+00	0.00000e+00	0.00000e+00	0.00000e+00	0.00000e+00	0.00000e+00	0.00000e+00	0.00000e+00	0.00000e+00	0.00000e+00	0.00000e+00	0.00000e+00	0.00000e+00	0.00000e+00	0.00000e+00	0.00000e+00	0.00000e+00	0.00000e+00	0.00000e+00	0.00000e+00	0.00000e+00	0.00000e+00	0.00000e+00	0.00000e+00	0.00000e+00	0.00000e+00	0.00000e+00	0.00000e+00	0.00000e+00	0.00000e+00	0.00000e+00	0.00000e+00	0.00000e+00	0.00000e+00	
Factor	1.00000e+00	1.00000e+00	1.00000e+00	1.00000e+00	1.00000e+00	1.00000e+00	1.00000e+00	1.00000e+00	1.00000e+00	1.00000e+00	1.00000e+00	1.00000e+00	1.00000e+00	1.00000e+00	1.00000e+00	1.00000e+00	1.00000e+00	1.00000e+00	1.00000e+00	1.00000e+00	1.00000e+00	1.00000e+00	1.00000e+00	1.00000e+00	1.00000e+00	1.00000e+00	1.00000e+00	1.00000e+00	1.00000e+00	1.00000e+00	1.00000e+00	1.00000e+00	X	X	X	X	X	X	X	X	X	X	X	X	X	X	X	X	

B = Detector Channel
Val Type	B-AC1	B-AC2	B-AC3	B-AC4	B-AC5	B-AC6	B-AC7	B-AC8	B-AC9	B-AC10	B-AC11	B-AC12	B-AC13	B-AC14	B-AC15	B-AC16	B-DC1	B-DC2	B-DC3	B-DC4	B-DC5	B-DC6	B-DC7	B-DC8	B-DC9	B-DC10	B-DC11	B-DC12	B-DC13	B-DC14	B-DC15	B-DC16	B-Ph1	B-Ph2	B-Ph3	B-Ph4	B-Ph5	B-Ph6	B-Ph7	B-Ph8	B-Ph9	B-Ph10	B-Ph11	B-Ph12	B-Ph13	B-Ph14	B-Ph15	B-Ph16	

Term	0.00000e+00	0.00000e+00	0.00000e+00	0.00000e+00	0.00000e+00	0.00000e+00	0.00000e+00	0.00000e+00	0.00000e+00	0.00000e+00	0.00000e+00	0.00000e+00	0.00000e+00	0.00000e+00	0.00000e+00	0.00000e+00	0.00000e+00	0.00000e+00	0.00000e+00	0.00000e+00	0.00000e+00	0.00000e+00	0.00000e+00	0.00000e+00	0.00000e+00	0.00000e+00	0.00000e+00	0.00000e+00	0.00000e+00	0.00000e+00	0.00000e+00	0.00000e+00	6.90162e+01	-1.56128e+02	-1.16186e+02	-1.81639e+02	-7.96074e+01	-9.11058e+01	-1.56882e+02	-1.62015e+02	-1.33922e+02	-6.75792e+01	-1.72122e+02	-1.69516e+02	-1.85555e+02	-1.76516e+02	-9.85877e+01	-1.49146e+02	
Factor	6.21861e-05	1.15743e-04	3.18327e-05	1.64936e-01	1.44916e-06	1.20847e-06	1.76422e-01	5.14978e-02	1.99006e-06	1.27802e-06	8.81120e-02	2.83650e-02	2.55766e-02	8.90638e-03	1.90026e-06	1.25959e-02	1.53080e-06	1.58230e-06	4.40569e-07	8.63224e-02	1.72893e-08	1.73607e-08	8.67342e-02	2.69960e-02	1.72581e-08	1.73857e-08	4.42118e-02	1.42717e-02	1.32884e-02	4.65608e-03	1.73092e-08	6.35628e-03	X	X	X	X	X	X	X	X	X	X	X	X	X	X	X	X	



#DISTANCE SETTINGS
A = Detector Channel
A-1	A-2	A-3	A-4	A-5	A-6	A-7	A-8	A-9	A-10	A-11	A-12	A-13	A-14	A-15	A-16	

2.5000e+00	3.0000e+00	2.5000e+00	3.0000e+00	2.0000e+00	3.0000e+00	1.5000e+00	3.0000e+00	3.0000e+00	3.0000e+00	3.0000e+00	3.0000e+00	3.0000e+00	3.0000e+00	1.5000e+00	3.0000e+00	

B = Detector Channel
B-1	B-2	B-3	B-4	B-5	B-6	B-7	B-8	B-9	B-10	B-11	B-12	B-13	B-14	B-15	B-16	

1.0000e+01	1.0000e+01	1.0000e+01	1.4400e+00	1.0000e+01	1.0000e+01	1.5100e+00	1.9400e+00	1.0000e+01	1.0000e+01	1.9900e+00	2.4900e+00	2.4100e+00	2.9000e+00	1.0000e+01	2.9800e+00	




#DATA BEGINS
time	group	step	mark	flag	A-AC1	A-AC2	A-AC3	A-AC4	A-AC5	A-AC6	A-AC7	A-AC8	A-AC9	A-AC10	A-AC11	A-AC12	A-AC13	A-AC14	A-AC15	A-AC16	A-DC1	A-DC2	A-DC3	A-DC4	A-DC5	A-DC6	A-DC7	A-DC8	A-DC9	A-DC10	A-DC11	A-DC12	A-DC13	A-DC14	A-DC15	A-DC16	A-Ph1	A-Ph2	A-Ph3	A-Ph4	A-Ph5	A-Ph6	A-Ph7	A-Ph8	A-Ph9	A-Ph10	A-Ph11	A-Ph12	A-Ph13	A-Ph14	A-Ph15	A-Ph16	B-AC1	B-AC2	B-AC3	B-AC4	B-AC5	B-AC6	B-AC7	B-AC8	B-AC9	B-AC10	B-AC11	B-AC12	B-AC13	B-AC14	B-AC15	B-AC16	B-DC1	B-DC2	B-DC3	B-DC4	B-DC5	B-DC6	B-DC7	B-DC8	B-DC9	B-DC10	B-DC11	B-DC12	B-DC13	B-DC14	B-DC15	B-DC16	B-Ph1	B-Ph2	B-Ph3	B-Ph4	B-Ph5	B-Ph6	B-Ph7	B-Ph8	B-Ph9	B-Ph10	B-Ph11	B-Ph12	B-Ph13	B-Ph14	B-Ph15	B-Ph16	aux-1	digaux	

1996.504	1	1	0	256	0.34086	0.08251	0.19354	0.14249	0.18336	0.27285	0.20652	0.20181	0.36575	0.34774	0.14879	0.26356	0.18298	0.14628	0.22932	0.04413	-0.39167	-0.19167	-1.1979	-0.5875	-0.61042	-0.84792	-0.60625	-0.73125	-0.83958	-0.091667	-1.1042	-0.52292	-0.4	-1.2208	-0.2	-0.9	144.997	68.839	52.314	187.016	-95.410	-10.738	-92.368	155.682	-73.222	144.259	-105.315	-118.978	60.988	-132.642	118.544	97.578	0.00070104	0.00025948	6.4345e-05	978.28	3.6575e-06	1.7897e-06	1072.5	211.31	4.1005e-06	2.8679e-06	266.36	73.174	58.671	16.77	3.7364e-06	23.439	6.0135e-05	5.1606e-05	1.379e-05	950.48	5.923e-07	5.4809e-07	1043	206.29	5.6714e-07	5.4015e-07	256.93	71.771	56.744	16.568	5.5955e-07	23.076	32.111	-78.118	-92.134	-158.584	-37.654	-118.076	-158.713	-150.860	-115.009	-42.211	-151.305	-144.660	-144.413	-136.624	-67.824	-137.884	-8191	255	
1996.600	1	1	0	0	0.37341	0.070523	0.22242	0.26393	0.14731	0.20326	0.25404	0.11649	0.26382	0.21492	0.21825	0.12291	0.14267	0.17474	0.17215	0.14776	-0.43333	-0.06875	-0.92708	-0.7875	-0.37708	-1.0938	-0.5125	-0.82083	-1.0292	-0.18958	-0.95833	-0.7125	-0.325	-1.1063	-0.25625	-0.5	87.890	149.910	-158.301	181.418	19.702	128.843	108.274	-132.545	82.681	-52.948	-15.714	191.028	172.598	-56.232	-71.457	73.207	0.00068037	0.00014549	1.9159e-05	979.52	4.4703e-06	2.0205e-06	1074.3	212.63	6.1189e-06	3.0469e-06	266.52	73.734	58.209	16.84	9.3606e-07	23.536	6.0961e-05	5.1234e-05	1.3883e-05	951.12	5.8366e-07	5.325e-07	1041.7	206.67	5.6761e-07	5.5819e-07	257.22	72.041	56.671	16.6	5.6172e-07	23.155	43.118	-162.863	-114.701	-158.291	-56.602	-52.229	-158.028	-150.407	-104.514	-57.584	-150.731	-144.285	-144.148	-136.598	-115.716	-137.609	-8191	255	
1996.696	1	1	0	0	0.17643	0.28361	0.016649	0.24005	0.19719	0.13087	0.13408	0.13695	0.090075	0.10256	0.1751	0.37265	0.19475	0.059387	0.10695	0.4157	-0.47083	-0.027083	-0.80625	-0.74583	-0.33333	-0.85833	-0.65833	-0.52708	-1.0229	-0.097917	-0.83125	-0.93125	-0.052083	-1.1208	-0.57083	-0.47292	122.495	53.034	5.946	73.499	141.495	-44.369	-141.450	-124.678	151.983	187.402	182.577	157.649	-48.876	105.498	90.180	118.641	0.00073089	0.00016966	1.9013e-05	977.18	1.1465e-06	1.696e-06	1068	211.08	3.5788e-06	1.7232e-06	264.97	73.92	58.273	16.859	5.3332e-06	23.562	6.0651e-05	4.9856e-05	1.3432e-05	951.01	5.7955e-07	5.4234e-07	1040.3	206.26	5.5992e-07	5.499e-07	256.26	71.966	56.582	16.601	5.6125e-07	23.165	46.161	-110.232	136.632	-158.245	-20.616	-80.797	-158.213	-150.735	-119.951	-38.632	-150.861	-144.578	-143.876	-136.629	-41.101	-137.176	-8191	255	
1996.792	1	1	0	0	0.46373	0.20588	0.25607	0.2185	0.16826	0.131	0.10995	0.29989	0.29139	0.096255	0.21208	0.1138	0.21442	0.29924	0.3439	0.23886	-0.80833	-0.045833	-0.82292	-0.92083	0.060417	-1.0375	-0.66458	-0.39375	-0.98125	-0.26458	-0.84375	-0.90625	-0.010417	-0.94583	-0.47917	-0.20625	13.267	-35.947	1.201	37.029	45.093	-164.130	143.684	66.497	139.561	75.936	146.106	53.537	77.955	130.865	78.016	6.270	0.00065656	0.00040136	8.3935e-05	981.33	1.832e-06	2.4828e-06	1071.5	212.33	4.0902e-06	2.2938e-06	264.16	73.621	58.168	16.807	3.3064e-06	23.467	6.0323e-05	4.9866e-05	1.3855e-05	950.11	5.8604e-07	5.308e-07	1042.8	206.54	5.4374e-07	5.6228e-07	256.33	71.956	56.686	16.564	5.4066e-07	23.178	43.591	-130.752	-50.528	-158.189	-27.048	-22.912	-158.014	-150.396	-124.786	-30.504	-150.560	-144.422	-143.712	-135.909	-45.978	-136.899	-8191	255	
1996.864	1	1	0	0	0.21943	0.36518	0.18293	0.16015	0.14824	0.28201	0.14524	0.10286	0.20033	0.27293	0.12141	0.036472	0.082778	0.2071	0.1923	0.14039	-0.60625	-0.35625	-0.65417	-1.0833	-0.16042	-1.0458	-0.71875	-0.18125	-1.1854	-0.45417	-0.55625	-0.88333	-0.20417	-0.99375	-0.75	-0.175	-52.687	129.021	-42.750	66.539	-91.683	186.810	-163.273	-94.073	98.586	43.085	54.706	-39.646	-13.234	180.161	-68.920	-97.737	0.00073003	0.00032227	9.9708e-05	980	2.8281e-06	2.3653e-06	1068.7	211.33	3.4724e-06	1.2491e-06	264.2	73.277	58.697	16.853	4.3932e-06	23.261	6.0125e-05	5.0752e-05	1.4336e-05	950.57	5.7498e-07	5.4263e-07	1039.8	206.49	5.6179e-07	5.7619e-07	256.02	71.68	56.858	16.596	5.5321e-07	22.999	50.019	-80.070	-53.254	-158.183	-51.180	1.740	-158.092	-150.935	-112.354	-128.085	-150.801	-144.426	-143.581	-136.198	-83.337	-137.255	-8191	255	
1996.984	1	1	0	0	0.17425	0.1837	0.35032	0.074813	0.095423	0.035644	0.016171	0.16944	0.21544	0.064796	0.24918	0.32262	0.17413	0.18715	0.31781	0.35739	-0.76667	-0.1625	-0.45208	-1.0396	-0.35625	-0.92292	-0.96667	-0.28542	-1.0688	-0.56667	-0.47708	-1.3583	-0.064583	-0.61667	-0.75	0.05	-58.930	97.748	-154.410	13.335	81.266	-68.577	14.103	100.992	142.066	166.976	-155.232	154.358	154.459	-160.414	-61.222	-87.067	0.00064292	0.00022961	3.6845e-05	978.08	2.5756e-07	3.4959e-06	1067	212	5.0637e-06	2.8071e-06	266.56	73.927	58.031	16.862	3.3783e-06	23.467	5.9497e-05	4.9219e-05	1.4526e-05	950.2	5.8218e-07	5.376e-07	1039.6	205.97	5.7016e-07	5.387e-07	256.49	71.985	56.553	16.593	5.5508e-07	23.05	36.866	-134.356	-70.869	-157.738	-104.960	-24.300	-158.137	-150.313	-112.507	-7.511	-150.988	-144.418	-144.096	-136.475	-64.569	-137.346	-8191	255	
1997.081	1	1	0	0	0.064909	0.0972	0.30675	0.23204	0.040422	0.33037	0.30021	0.301	0.10666	0.12651	0.2392	0.15763	0.13222	0.1332	0.11374	0.28799	-0.89792	-0.39167	-0.43333	-1.3458	-0.24167	-0.69375	-1.0792	-0.091667	-1.1688	-0.58542	-0.35208	-1.0729	-0.30208	-0.58125	-1.0042	-0.18958	-25.838	155.901	-8.438	178.677	65.910	34.388	149.220	186.381	128.208	2.755	186.454	127.389	41.672	139.928	-162.416	-164.031	0.00059609	0.00018664	7.5469e-05	980.79	2.5303e-06	1.4751e-06	1067.7	210.53	5.7359e-06	2.6997e-06	266.15	74.142	58.305	16.699	3.0996e-06	23.427	6.1465e-05	5.2124e-05	1.4009e-05	952.46	5.927e-07	5.5688e-07	1039.3	205.94	5.6844e-07	5.5102e-07	256.84	72.145	56.791	16.572	5.3377e-07	23.1	40.563	188.838	-60.148	-157.638	-36.477	-68.580	-158.367	-150.672	-125.429	-61.687	-151.318	-144.415	-144.452	-136.485	-10.945	-137.286	-8191	255	
1997.177	1	1	0	0	0.050215	0.11326	0.11683	0.10837	0.14807	0.059479	0.12144	0.17451	0.14902	0.22288	0.054806	0.16815	0.0062648	0.06014	0.091973	0.19184	-0.57083	-0.48542	-0.24792	-1.2563	-0.36458	-0.54167	-0.91042	-0.24583	-1	-0.76667	-0.11458	-1.0875	-0.35208	-0.28333	-1.2021	-0.14375	86.423	-19.701	81.596	87.747	19.987	164.800	179.321	-144.172	121.371	72.143	-24.173	-76.650	-121.707	-124.710	148.684	43.201	0.00070849	0.00027848	1.6094e-05	977.01	3.1105e-06	2.4949e-06	1071.2	211.96	5.839e-06	2.8595e-06	263.45	74.113	58.675	16.997	4.1803e-06	23.216	6.009e-05	5.0086e-05	1.4145e-05	950.95	5.668e-07	5.6234e-07	1041	206.09	5.5219e-07	5.4982e-07	255.8	71.961	56.681	16.658	5.5566e-07	23.018	37.051	-104.056	-88.020	-158.288	-65.682	-40.205	-158.034	-150.500	-128.369	-29.879	-150.952	-144.154	-143.516	-136.192	-46.963	-137.614	-8191	255	
1997.296	1	1	0	0	0.13527	0.29666	0.30705	0.24487	0.16753	0.26603	0.12237	0.31203	0.14337	0.13683	0.24895	0.14077	0.087525	0.34544	0.19654	0.16813	-0.4375	-0.725	-0.060417	-1.2292	-0.45	-0.29167	-1.0833	-0.18333	-0.73958	-0.72083	-0.28542	-1.1229	-0.39375	-0.1125	-1.0688	-0.175	83.660	-128.330	-77.173	172.343	39.747	65.986	170.994	108.489	17.020	100.650	179.329	156.397	74.598	184.945	-63.101	103.682	0.00064326	0.00040723	7.0935e-05	979.44	3.4289e-06	1.1821e-06	1063.8	210.64	4.233e-06	3.904e-06	262.04	73.982	58.303	16.886	5.5807e-06	23.409	6.0518e-05	4.7159e-05	1.3712e-05	950.55	5.5434e-07	5.3655e-07	1040.4	205.85	5.6535e-07	5.219e-07	255.55	71.995	56.53	16.648	5.2876e-07	23.017	32.612	-147.108	-69.038	-158.393	-77.698	-26.337	-158.364	-151.239	-109.211	4.419	-151.233	-145.007	-144.226	-136.979	-57.625	-137.684	-8191	255	
1997.392	1	1	0	0	0.020588	0.09188	0.017539	0.18421	0.26309	0.15144	0.15891	0.25986	0.08799	0.12071	0.25081	0.19992	0.21567	0.21437	0.16646	0.18701	-0.18125	-0.7625	-0.11042	-1.0125	-0.54792	-0.41042	-1.1812	-0.26667	-0.41667	-0.90208	-0.30208	-1.0146	-0.5625	-0.16667	-0.95833	-0.22917	-134.634	13.752	130.006	158.270	-52.807	-65.815	148.958	-164.472	-52.631	-155.886	171.893	81.400	-115.151	182.461	118.848	-142.676	0.00071918	0.0001268	5.1897e-05	978.9	3.6183e-06	1.5302e-06	1070.9	212.3	4.8099e-06	5.7222e-07	262.77	73.3	58.17	16.795	1.6611e-06	23.348	6.3598e-05	4.9793e-05	1.3255e-05	951.69	5.7844e-07	5.3102e-07	1039.9	206.33	5.8081e-07	5.2201e-07	255.56	71.803	56.694	16.541	5.4152e-07	23.029	37.010	-99.237	-45.220	-158.425	-10.529	-45.096	-158.582	-151.029	-129.310	-51.319	-151.746	-144.976	-144.565	-136.430	-66.132	-137.752	-8191	255	
1997.488	1	1	0	0	0.094846	0.11993	0.06644	0.33232	0.1035	0.28098	0.062892	0.25006	0.10347	0.2505	0.26339	0.10017	0.17702	0.10347	0.066351	0.070787	-0.11875	-1.0396	0.175	-1.3042	-0.85208	-0.4125	-1.2396	-0.30625	-0.5	-1.1771	-0.23125	-0.89375	-1.0521	-0.05625	-1.025	-0.49792	-160.708	-72.113	154.967	133.235	-144.897	-155.798	179.433	129.115	125.694	-140.333	149.764	-81.458	-123.240	56.291	80.082	93.139	0.00063777	0.00024879	2.6343e-05	979.78	3.9363e-06	1.8353e-06	1066.6	211.71	7.2355e-06	2.2182e-06	263.06	73.595	58.192	16.738	2.0084e-06	23.152	6.053e-05	4.9981e-05	1.4134e-05	950.99	5.7372e-07	5.5167e-07	1040.7	206.16	5.8904e-07	5.4338e-07	255.43	71.847	56.621	16.529	5.5757e-07	22.933	42.436	-38.250	1.440	-158.346	-61.198	-14.974	-158.764	-151.348	-128.348	-24.183	-151.746	-145.065	-144.184	-137.107	-28.400	-137.488	-8191	255	
1997.586	1	1	0	0	0.16853	0.038422	0.09271	0.30995	0.078561	0.097185	0.14308	0.073543	0.13506	0.20982	0.23053	0.21346	0.12449	0.22052	0.10744	0.22563	0.23333	-1.0604	0.035417	-0.80417	-0.66875	-0.00625	-1.1667	-0.62292	-0.41458	-1.0958	-0.21042	-0.4375	-1.0729	-0.26875	-0.92708	-0.525	-89.764	-20.538	-42.805	168.772	49.273	-122.121	126.950	137.707	-77.051	123.813	167.869	33.905	-131.063	77.603	-28.952	125.042	0.00064046	0.00015794	8.2189e-05	979.23	3.2207e-06	3.1094e-06	1074.5	211.11	3.2636e-06	1.1285e-06	262.1	73.703	58.194	16.813	4.2078e-06	23.185	6.2482e-05	5.0004e-05	1.4078e-05	950.52	5.8258e-07	5.5102e-07	1042.2	205.83	5.8314e-07	5.2212e-07	255.93	71.988	56.614	16.569	5.5342e-07	22.924	48.059	-112.629	-49.371	-158.491	-73.234	-47.846	-158.578	-151.356	-145.055	-22.274	-151.149	-144.794	-144.525	-136.499	-52.712	-138.245	-8191	255	
1997.680	1	1	0	0	0.13657	0.10407	0.10394	0.021152	0.12274	0.18361	0.20407	0.1005	0.31247	0.24805	0.042884	0.096671	0.0055176	0.21089	0.28397	0.26984	0.10833	-1.0688	-0.16458	-0.58333	-0.99167	-0.11875	-1.0292	-0.825	-0.15625	-1.05	-0.31667	-0.65	-0.9875	0.0125	-0.79167	-0.83958	189.321	141.193	37.790	-158.966	55.730	182.050	171.460	84.713	54.936	-26.338	187.772	-148.541	43.411	31.526	-123.433	85.811	0.00068765	0.00026171	6.0221e-05	981.45	3.3577e-06	3.4753e-06	1072.3	211.07	5.31e-06	1.9712e-06	263.91	73.64	58.381	16.763	1.6701e-06	23.377	6.1921e-05	4.9361e-05	1.3849e-05	950.26	5.6846e-07	5.5135e-07	1041.9	205.77	5.9235e-07	5.3113e-07	255.49	71.844	56.633	16.496	5.3886e-07	22.983	41.228	-85.689	-76.600	-158.496	-49.583	-50.537	-158.637	-151.207	-98.483	-21.130	-151.772	-144.949	-144.446	-137.161	-73.413	-138.196	-8191	255	
1997.776	1	1	0	0	0.31884	0.02812	0.16694	0.049885	0.33617	0.17694	0.12982	0.23724	0.13764	0.18706	0.20673	0.2659	0.24683	0.13665	0.08627	0.14402	0.32292	-0.85208	-0.2875	-0.55	-1.1562	-0.275	-1.0792	-0.84167	-0.01875	-1.0021	-0.6875	-0.37917	-1.0104	-0.19167	-0.62917	-0.96875	-84.007	-93.812	123.922	123.674	157.923	-53.174	82.498	134.095	160.774	85.965	58.387	124.042	147.479	101.500	62.547	-162.801	0.00067185	0.00017567	4.4502e-05	985.46	3.4149e-06	3.7314e-06	1067.2	211.71	2.0066e-06	1.6738e-06	262.06	73.502	58.543	16.794	3.7074e-06	23.355	6.2795e-05	4.9213e-05	1.3704e-05	951.82	5.5009e-07	5.3775e-07	1038.6	205.94	5.5974e-07	5.3233e-07	255.32	71.778	56.676	16.525	5.5238e-07	22.951	41.780	-88.829	-65.370	-158.596	-20.770	-40.281	-158.853	-151.181	-144.642	31.616	-151.547	-145.098	-144.768	-136.573	-82.727	-138.139	-8191	255	
1997.897	1	1	0	0	0.067797	0.092117	0.21119	0.21209	0.27502	0.17649	0.18558	0.32692	0.11341	0.30136	0.0057321	0.15968	0.23905	0.19825	0.084956	0.067381	0.42917	-0.81875	-0.50833	-0.525	-1.0042	-0.16042	-0.83333	-1.1542	0.027083	-0.8125	-0.69167	-0.39375	-0.96875	-0.30833	-0.63125	-1.0271	15.186	-156.840	-0.631	171.061	129.598	79.494	112.298	141.787	-124.693	18.772	-74.546	95.088	179.007	-108.628	143.448	113.733	0.00069075	0.00025905	6.8268e-05	979.44	4.7401e-06	9.9965e-07	1066.5	211.34	4.7573e-06	1.3058e-06	263.32	73.537	58.241	16.749	5.3491e-06	23.092	6.164e-05	4.9688e-05	1.4015e-05	951.41	5.3813e-07	5.2762e-07	1039.8	205.75	5.9167e-07	5.198e-07	255.85	71.937	56.585	16.497	5.3987e-07	22.911	35.445	-98.096	-75.872	-158.688	-62.763	-114.964	-158.774	-151.493	-109.455	-100.024	-152.007	-145.157	-144.339	-137.223	-55.976	-138.029	-8191	255	
1997.993	1	1	0	0	0.17202	0.32339	0.117	0.11486	0.16158	0.11345	0.1623	0.063457	0.14714	0.34328	0.227	0.20463	0.044456	0.31964	0.50945	0.079696	0.30833	-0.71458	-0.68333	-0.33333	-0.99375	-0.36042	-0.5875	-0.98125	-0.10208	-0.65	-1.0458	-0.19167	-1.0708	-0.375	-0.5375	-1.0896	42.856	-56.245	77.965	191.195	-1.563	-5.759	-135.049	-18.206	61.815	-164.845	132.077	182.449	59.585	80.057	-30.332	32.146	0.00074407	0.00034325	8.3509e-05	979.89	3.372e-06	9.6254e-07	1066.3	211.41	5.4033e-06	1.4484e-06	263.43	73.789	58.096	16.812	4.5748e-06	23.137	6.0014e-05	4.9015e-05	1.3381e-05	949.78	5.5304e-07	5.3858e-07	1038	205.99	5.5395e-07	5.0792e-07	255.09	71.781	56.402	16.534	5.5184e-07	22.957	41.775	-100.375	-65.072	-158.389	-26.932	-49.617	-158.494	-150.794	-106.918	-37.513	-151.663	-144.724	-143.861	-136.871	-52.908	-137.666	-8191	255	
1998.089	1	1	0	0	0.068877	0.2164	0.15162	0.19534	0.0092704	0.064899	0.23317	0.1927	0.097405	0.29169	0.14274	0.42718	0.19817	0.25443	0.069159	0.25024	0.23333	-0.72292	-0.88958	-0.23333	-0.99792	-0.52917	-0.29375	-1.2167	-0.38125	-0.67083	-0.93958	-0.13958	-1.0875	-0.50625	-0.27292	-1.1167	-144.788	65.927	6.600	167.680	-120.264	-74.185	51.378	87.460	-97.349	-134.583	25.765	69.266	104.513	137.478	-17.975	160.014	0.00074891	0.00025785	5.2478e-05	979.2	3.0961e-06	2.8283e-06	1065.4	211.1	3.9933e-06	2.2367e-06	263.92	73.686	58.367	16.679	2.547e-06	23.418	6.1436e-05	4.9348e-05	1.3717e-05	950.14	5.6082e-07	5.2979e-07	1038	205.93	5.8156e-07	5.3555e-07	255.21	71.935	56.585	16.453	5.5389e-07	22.953	45.221	-141.371	-33.668	-158.273	-44.679	2.499	-158.499	-150.998	-120.489	-44.955	-151.474	-144.395	-144.473	-136.571	-37.138	-137.699	-8191	255	
1998.185	1	1	0	0	0.23993	0.2049	0.36182	0.40511	0.11542	0.09005	0.1199	0.17948	0.30216	0.29021	0.054314	0.15115	0.27385	0.12528	0.27659	0.16518	0.5125	-0.50208	-1.0396	-0.14792	-1.0208	-0.60417	-0.475	-1.1542	-0.4375	-0.625	-1.0021	-0.31042	-1.025	-0.73333	-0.18125	-1.1542	-86.563	33.958	134.505	-164.070	-148.542	-43.610	170.946	55.509	164.707	-89.783	115.640	-113.882	-132.981	8.148	5.145	-141.989	0.00067523	0.00026983	6.8636e-05	977.11	5.4751e-07	3.9371e-06	1060.9	209.74	3.2977e-06	2.5285e-06	262.56	73.204	58.025	16.662	2.2494e-06	23.334	6.0074e-05	4.9622e-05	1.3219e-05	949.48	5.6497e-07	5.4408e-07	1037.5	205.23	5.4809e-07	5.2049e-07	254.6	71.648	56.53	16.429	5.3366e-07	22.951	40.472	-54.534	-59.645	-157.945	-90.749	-30.164	-158.343	-150.768	-115.128	-40.286	-151.481	-144.855	-144.332	-136.537	-10.890	-137.751	-8191	255	
1998.282	1	1	0	0	0.22732	0.096796	0.08245	0.35076	0.16706	0.12866	0.21391	0.26283	0.099032	0.10738	0.18697	0.092444	0.089299	0.28935	0.23784	0.072256	-0.10208	-0.49792	-1.0229	-0.26458	-0.75417	-0.89167	-0.20417	-0.9	-0.18125	-0.32917	-1.1271	-0.19167	-0.825	-1.0083	-0.035417	-1.2396	99.391	-156.578	54.407	60.397	-151.278	131.859	70.102	-150.690	151.319	11.050	40.585	141.896	-66.995	188.861	-147.177	-12.575	0.00080133	0.00029727	6.4422e-05	974.42	2.4736e-06	2.2211e-06	1063.4	211.78	3.6101e-06	1.2032e-06	263.73	73.263	58.231	16.713	4.232e-06	23.086	6.0355e-05	5.0416e-05	1.3317e-05	945.15	5.4047e-07	5.2162e-07	1036	205.59	5.6801e-07	5.1755e-07	254.79	71.545	56.489	16.479	5.5241e-07	22.816	47.077	-92.486	-9.482	-158.049	-46.273	-46.786	-158.181	-150.769	-137.922	-5.132	-151.230	-144.479	-143.818	-135.744	-55.999	-136.938	-8191	255	
1998.378	1	1	0	0	0.21352	0.22416	0.30278	0.084972	0.043648	0.035767	0.21412	0.16682	0.29088	0.012924	0.33216	0.10468	0.39073	0.14816	0.013755	0.374	-0.00625	-0.34375	-1.075	-0.49792	-0.6125	-0.86458	-0.32292	-1.0625	-0.59792	-0.32708	-1.0792	-0.14375	-0.65417	-0.9375	0.054167	-0.93958	-96.466	182.564	78.470	11.813	-152.126	161.620	129.245	153.316	133.521	-132.877	-159.354	-82.910	136.920	-167.802	171.636	123.327	0.00065187	0.00030388	5.7753e-05	972.06	1.3813e-06	2.7287e-06	1058.9	210.37	4.7901e-06	3.0013e-06	262.3	72.704	58.516	16.729	4.8565e-06	23.225	5.9251e-05	4.8903e-05	1.3438e-05	945.99	5.7379e-07	5.3493e-07	1035.1	205.17	5.6959e-07	5.3189e-07	254.33	71.473	56.687	16.483	5.4693e-07	22.892	43.728	-75.020	-86.212	-157.938	-75.358	-20.545	-158.147	-150.680	-122.652	-41.514	-151.162	-144.566	-143.475	-136.385	-66.086	-137.117	-8191	255	
1998.472	1	1	0	0	0.15919	0.06243	0.21262	0.096005	0.17724	0.15285	0.44369	0.27211	0.15582	0.068115	0.05896	0.17477	0.033925	0.076474	0.15145	0.28037	-0.14583	-0.13542	-0.97083	-0.43333	-0.35625	-0.96875	-0.28333	-0.6625	-0.81042	-0.1375	-0.97917	-0.18333	-0.4125	-0.86875	-0.097917	-0.8	-85.141	-50.660	68.911	79.387	-152.832	-72.346	169.055	111.928	56.697	191.175	64.175	58.223	26.143	105.439	-103.807	140.453	0.0006558	0.00029838	1.3147e-05	976.14	2.3206e-06	2.8856e-06	1066.6	209.95	1.6316e-06	1.4272e-06	262.95	73.228	58.225	16.618	3.397e-06	23.223	6.2147e-05	4.9724e-05	1.3155e-05	946.58	5.7537e-07	5.2834e-07	1036.3	205.76	5.6909e-07	5.3867e-07	254.64	71.546	56.51	16.408	5.3828e-07	22.901	45.504	-93.439	-108.807	-158.068	-23.107	-43.141	-158.244	-150.556	-78.902	-60.815	-151.141	-144.653	-143.995	-136.463	-43.340	-137.295	-8191	255	
1998.570	1	1	0	0	0.30156	0.025184	0.17606	0.063507	0.24521	0.19689	0.32598	0.13134	0.26071	0.13259	0.057881	0.043969	0.063035	0.06759	0.12128	0.12053	-0.33542	-0.1625	-0.875	-0.55208	-0.40833	-1.0438	-0.26042	-0.7625	-0.84375	-0.035417	-0.9875	-0.5375	-0.32917	-0.87292	-0.17708	-0.68333	59.085	-91.227	184.007	-146.943	31.055	-107.994	130.497	-144.871	2.021	-165.434	100.670	41.609	-38.584	145.321	-142.945	-144.222	0.00069459	0.00029867	5.2438e-05	978.23	2.31e-06	2.8784e-06	1070.2	210.28	4.5262e-06	2.111e-06	261.65	72.716	58.322	16.783	1.4905e-06	23.028	5.9918e-05	5.1069e-05	1.3728e-05	949.64	5.7696e-07	5.5294e-07	1039.1	205.37	5.8361e-07	5.6265e-07	254.55	71.516	56.673	16.426	5.5707e-07	22.77	50.218	-116.895	-62.445	-158.047	-69.187	-66.806	-158.249	-150.718	-134.824	-12.860	-150.735	-144.743	-143.894	-136.585	-53.114	-137.241	-8191	255	
1998.689	1	1	0	0	0.10307	0.16838	0.089316	0.019057	0.12358	0.11049	0.28955	0.22878	0.40341	0.12237	0.22488	0.16026	0.1726	0.10563	0.1762	0.26598	-0.52708	0.0625	-0.89167	-0.56042	-0.3375	-0.86667	-0.49792	-0.65625	-1.0229	-0.12708	-1.125	-0.81875	-0.31875	-0.92083	-0.41042	-0.45	-16.431	-80.185	33.995	118.659	28.082	144.653	95.827	-160.333	-126.952	139.794	-164.439	51.816	-78.351	-25.447	80.074	150.733	0.00066473	0.00017405	6.484e-05	975.62	4.0229e-06	2.6735e-06	1066.3	212.22	4.1579e-06	2.9845e-06	263.32	73.56	58.329	16.604	2.4568e-06	23.253	6.3085e-05	5.1514e-05	1.4169e-05	948.5	6.0307e-07	5.5167e-07	1037.1	206.19	5.8343e-07	5.8358e-07	255.38	71.703	56.617	16.464	6.0391e-07	22.885	35.128	-87.425	-80.927	-158.203	-73.529	-65.077	-158.378	-150.580	-117.213	-21.970	-150.896	-144.592	-143.817	-136.441	-30.974	-137.371	-8191	255	
1998.761	1	1	0	0	0.1903	0.14837	0.26524	0.3066	0.18299	0.16771	0.23973	0.1151	0.069533	0.026468	0.15293	0.27535	0.041432	0.23096	0.069541	0.15816	-0.76042	-0.28542	-0.6875	-1.0458	-0.12917	-1.2083	-0.50625	-0.62292	-1.0771	-0.26042	-0.9	-0.77917	-0.079167	-1.075	-0.57708	-0.38333	180.674	-120.417	4.219	144.616	-30.013	187.297	160.346	-3.536	5.205	-78.993	180.231	189.692	35.817	55.500	-67.033	1.909	0.00072873	0.00027926	3.3949e-05	976.73	3.7382e-06	2.5984e-06	1072.3	211.22	5.5157e-06	2.5554e-06	263.53	73.609	58.142	16.828	2.0835e-06	23.189	6.0671e-05	5.2588e-05	1.4258e-05	951.32	6.1561e-07	5.648e-07	1041.6	206.29	5.67e-07	5.759e-07	255.76	71.914	56.735	16.562	5.7401e-07	22.891	42.434	-132.333	-125.792	-157.939	-45.970	-23.083	-158.103	-150.539	-140.268	-15.136	-151.201	-144.790	-144.068	-136.637	-81.870	-137.324	-8191	255	
1998.857	1	1	0	0	0.26982	0.1693	0.30334	0.39941	0.12404	0.34682	0.12534	0.19263	0.12098	0.12018	0.07523	0.14183	0.13248	0.17929	0.13314	0.11976	-0.6875	-0.13542	-0.70625	-0.99792	-0.2125	-0.76042	-0.62917	-0.32292	-1.1792	-0.20625	-0.73333	-1.0187	-0.016667	-0.9125	-0.53333	-0.33958	-76.064	159.092	44.231	48.398	31.856	83.907	69.067	-162.966	32.038	-155.770	-48.863	-97.204	157.892	123.804	-135.575	177.524	0.00071086	7.9267e-05	7.846e-05	986.31	3.5479e-06	1.1712e-06	1069.6	210.74	4.4189e-06	2.7308e-06	263.96	73.834	58.082	16.853	4.2675e-06	23.354	6.5473e-05	5.2668e-05	1.4413e-05	956.56	6.0653e-07	5.7948e-07	1043.6	206.48	6.2219e-07	5.8065e-07	256.13	71.902	56.475	16.503	5.99e-07	22.949	38.732	-99.025	-57.617	-158.451	-60.704	-46.523	-158.501	-150.773	-100.651	41.605	-151.483	-144.294	-143.757	-136.218	-17.188	-137.313	-8191	255	
1998.977	1	1	0	0	0.16055	0.065383	0.15099	0.20496	0.22897	0.29592	0.40479	0.18152	0.15886	0.14648	0.0053693	0.18728	0.105	0.21408	0.21575	0.32653	-0.65417	-0.23958	-0.52917	-1.0708	-0.16042	-0.87292	-0.85	-0.39167	-1.275	-0.32917	-0.5125	-1.1604	-0.3375	-0.84167	-0.7	-0.23542	175.608	28.911	80.863	142.361	-94.469	139.855	152.850	124.600	-142.529	152.382	61.901	98.852	99.979	60.192	117.278	130.506	0.0006894	0.00022122	6.8152e-05	988.97	1.7547e-06	1.1529e-06	1072.8	212.04	5.4227e-06	2.8729e-06	262.73	73.294	58.286	16.713	3.2986e-06	23.256	6.3461e-05	5.4784e-05	1.4885e-05	957.17	6.2559e-07	5.703e-07	1044.8	206.61	5.9641e-07	5.8858e-07	255.64	71.947	56.614	16.473	5.6233e-07	22.898	42.851	-104.982	-57.871	-158.034	-57.745	-17.292	-158.357	-150.685	-93.140	-33.278	-151.201	-144.513	-143.766	-136.591	-65.591	-137.087	-8191	255	
1999.074	1	1	0	0	0.41696	0.27704	0.23058	0.41648	0.13835	0.20764	0.060489	0.44202	0.13111	0.065672	0.17525	0.055364	0.11254	0.13346	0.041557	0.18463	-0.6125	-0.39792	-0.35625	-1.2583	-0.1125	-0.76458	-0.82917	-0.16875	-1.1521	-0.50625	-0.47083	-1.0792	-0.30625	-0.82708	-0.8	-0.11042	156.459	13.009	92.356	167.096	-112.413	117.986	98.836	140.172	25.167	176.917	-15.195	-23.177	-13.665	-37.717	-48.166	113.798	0.00064328	0.00026674	9.9417e-05	984.67	3.1394e-06	3.3657e-06	1072.9	211.48	4.8349e-06	2.8383e-06	264.22	74.185	58.48	16.603	5.3822e-07	23.272	6.2938e-05	5.3535e-05	1.4525e-05	956.4	5.7732e-07	5.6787e-07	1045	206.13	6.1072e-07	5.8441e-07	255.81	71.848	56.792	16.432	5.6731e-07	22.94	44.326	-110.412	-50.619	-157.763	-49.195	-35.556	-158.064	-150.578	-145.053	-52.434	-150.869	-144.278	-143.948	-136.516	27.106	-137.472	-8191	255	
1999.170	1	1	0	0	0.056493	0.14633	0.30059	0.070088	0.12145	0.25903	0.29557	0.17992	0.21934	0.11034	0.192	0.15403	0.27869	0.1429	0.24319	0.11066	-0.68958	-0.48333	-0.275	-1.3375	-0.25	-0.4625	-1.0833	-0.10625	-1.0104	-0.4375	-0.3375	-1.1792	-0.32292	-0.65417	-1.3188	-0.29792	118.184	136.328	67.766	44.897	-132.759	-1.928	160.153	-50.477	-125.023	-21.054	116.864	57.337	130.358	-18.806	8.642	-167.148	0.00065918	0.000245	8.6451e-05	986.65	2.9902e-06	1.339e-06	1072.6	211.52	3.4508e-06	1.9806e-06	263.65	74.016	58.164	16.665	2.1976e-06	23.255	6.3391e-05	5.1056e-05	1.4717e-05	956.96	6.074e-07	5.5579e-07	1043.5	206.06	5.9936e-07	5.7782e-07	256.06	71.981	56.557	16.508	5.7282e-07	22.929	43.056	-100.247	-65.678	-157.780	-55.742	-30.981	-158.103	-150.435	-130.992	23.649	-150.999	-143.842	-143.576	-135.896	-72.914	-136.541	-8191	255	
1999.266	1	1	0	0	0.32812	0.12566	0.42073	0.16346	0.092157	0.30994	0.072265	0.13778	0.072391	0.17283	0.24566	0.1442	0.12203	0.098555	0.18705	0.19718	-0.49375	-0.6375	-0.052083	-1.2354	-0.22917	-0.56875	-1.4438	-0.22083	-0.9875	-0.77292	-0.325	-1.0792	-0.31875	-0.5125	-0.95417	-0.21458	-125.934	56.610	34.455	183.171	103.307	-52.106	55.358	142.056	188.705	87.375	-2.183	36.103	56.424	-20.410	-147.178	-59.705	0.00064148	0.00033273	6.0491e-05	985.34	3.7601e-06	1.6964e-06	1072.3	212.32	1.8554e-06	1.279e-06	264.01	73.437	58.331	16.682	3.1418e-06	23.22	6.2326e-05	5.2829e-05	1.4513e-05	955.03	6.0318e-07	5.7142e-07	1045.2	206.7	5.7883e-07	5.4874e-07	256.34	71.926	56.698	16.443	5.7463e-07	22.955	41.944	-134.983	-28.791	-157.820	-36.258	-22.206	-157.616	-150.216	-104.062	10.300	-150.811	-144.569	-143.497	-136.229	-99.781	-137.485	-8191	255	
1999.385	1	1	0	0	0.12961	0.23709	0.20997	0.25258	0.10488	0.10364	0.25758	0.17194	0.30629	0.099567	0.23261	0.19336	0.084311	0.059775	0.17425	0.1225	-0.38542	-0.77708	-0.25208	-1.2917	-0.61042	-0.22292	-1.1812	-0.14375	-0.46875	-0.9	-0.14167	-1.0271	-0.54583	-0.17917	-1.1208	-0.27292	180.957	-42.476	-154.283	158.222	-36.899	-100.064	172.649	50.377	115.024	15.435	-118.141	22.992	-153.662	153.807	-79.055	155.635	0.00083922	0.00019446	4.4404e-05	986.2	2.2238e-06	2.9566e-06	1075.3	211.36	2.6187e-06	1.1388e-06	264.35	73.543	58.452	16.857	6.1531e-06	23.275	6.3857e-05	5.1042e-05	1.4708e-05	956.94	5.9468e-07	5.6491e-07	1045.9	206.15	5.7642e-07	5.4374e-07	255.86	71.929	56.718	16.545	5.6691e-07	22.878	41.886	-79.308	-84.384	-157.704	-52.111	-68.785	-157.948	-150.273	-114.698	-57.268	-151.198	-144.511	-143.803	-136.188	-62.020	-137.205	-8191	255	
1999.458	1	1	0	0	0.052653	0.14022	0.31202	0.10479	0.20483	0.19418	0.19669	0.13423	0.090721	0.22868	0.057141	0.17799	0.33263	0.34182	0.2146	0.21182	-0.19375	-0.94792	-0.020833	-1.0438	-0.46875	-0.12917	-1.3813	-0.18958	-0.44792	-1.0958	0.020833	-1.1146	-0.73333	-0.13333	-1.1688	-0.2375	29.280	89.848	-17.547	-86.532	54.225	51.376	115.485	76.696	151.835	-98.883	29.232	159.041	178.742	6.030	88.834	177.506	0.00059717	0.0001407	3.5774e-05	986.97	3.0362e-06	2.143e-06	1072.6	211.37	3.9598e-06	2.1026e-06	264.59	73.196	58.343	16.627	1.438e-06	23.252	6.0878e-05	5.1656e-05	1.4044e-05	957.2	5.8175e-07	5.4885e-07	1043.6	206.31	5.908e-07	5.5004e-07	256.36	71.851	56.739	16.406	5.5508e-07	22.918	39.204	-122.824	-24.709	-157.854	-15.979	-94.271	-158.000	-150.504	-124.949	-13.469	-150.645	-144.179	-143.694	-136.317	-102.920	-137.098	-8191	255	
1999.577	1	1	0	0	0.19279	0.28181	0.21819	0.23369	0.10556	0.078353	0.16437	0.23165	0.076279	0.022901	0.082661	0.30224	0.19138	0.18691	0.12355	0.054496	-0.077083	-1.0063	-0.085417	-0.97708	-0.76458	-0.3625	-1.1063	-0.39583	-0.15625	-1.0896	-0.0875	-0.7125	-0.99583	0.060417	-0.9375	-0.50625	-129.930	-137.178	148.886	64.068	45.005	155.865	-144.139	157.839	30.683	0.301	173.491	180.476	-11.673	129.124	167.457	-61.349	0.00073436	0.00032931	9.3214e-05	987.49	2.2932e-06	1.9366e-06	1076.7	212.05	4.9582e-06	2.0308e-06	264.92	74.025	58.246	16.772	2.2685e-06	23.233	6.304e-05	5.0119e-05	1.4553e-05	956.75	5.6507e-07	5.678e-07	1047.1	206.58	5.8785e-07	5.5703e-07	256.1	72.078	56.828	16.499	5.5104e-07	22.983	38.218	-81.133	-91.240	-158.088	-69.147	24.623	-158.487	-150.995	-111.821	15.253	-151.537	-144.937	-143.727	-136.568	-129.477	-137.730	-8191	255	
1999.673	1	1	0	0	0.1763	0.032017	0.045434	0.090121	0.10965	0.16636	0.42972	0.18279	0.15513	0.11881	0.10365	0.17359	0.24748	0.18296	0.24586	0.25219	0.10625	-0.91458	-0.18542	-0.80833	-0.88125	0.035417	-1.3687	-0.43958	-0.35833	-1.1458	-0.43958	-0.825	-0.88958	-0.24792	-0.80625	-0.72083	-72.726	27.429	86.811	100.028	-48.764	14.966	123.034	108.982	-163.430	110.677	-116.264	145.046	-19.181	-58.664	171.986	138.652	0.00064371	0.00013769	8.8579e-05	989.79	3.5292e-06	2.3027e-06	1071.7	210.84	6.0853e-06	1.4673e-06	264.6	74.207	58.397	16.746	2.8845e-06	23.258	6.0923e-05	5.0729e-05	1.4178e-05	957.83	5.8654e-07	5.5384e-07	1045.7	205.62	5.8225e-07	5.7782e-07	255.82	72.063	56.75	16.523	5.9078e-07	22.902	43.163	-122.725	-55.397	-157.831	-71.218	-17.542	-158.264	-150.945	-118.184	-11.458	-151.447	-145.003	-144.459	-136.805	-81.490	-137.649	-8191	255	
1999.769	1	1	0	0	0.2645	0.067958	0.14311	0.25598	0.18255	0.27582	0.19161	0.12727	0.032843	0.094613	0.31601	0.12284	0.19643	0.19143	0.12886	0.18199	0.14583	-1.0208	-0.41875	-0.69167	-1.025	-0.15625	-1.0917	-0.71875	-0.072917	-1.2729	-0.53542	-0.36667	-1.1729	-0.3125	-0.74583	-0.84792	-156.563	95.101	24.770	-129.430	28.321	-58.363	-7.074	-96.031	181.500	183.499	111.566	-87.336	-132.326	132.868	-162.844	103.621	0.00067064	0.00014988	5.3093e-05	985.65	3.4481e-06	2.2655e-06	1078.2	211.88	1.2481e-06	1.9774e-06	263.28	73.926	58.182	16.709	3.4929e-06	23.21	6.3637e-05	5.2325e-05	1.4341e-05	956.67	5.7058e-07	5.52e-07	1048.6	206.43	5.9167e-07	5.5062e-07	255.55	72.007	56.798	16.489	5.4874e-07	22.928	40.287	-128.336	-69.878	-158.261	-62.506	-43.328	-158.671	-151.012	-138.933	-37.797	-151.443	-144.925	-144.335	-136.816	-34.053	-137.503	-8191	255	
1999.865	1	1	0	0	0.46453	0.16005	0.09491	0.087187	0.069835	0.17904	0.11432	0.21813	0.20892	0.10475	0.26689	0.16917	0.12519	0.093355	0.16432	0.17537	0.44167	-0.90417	-0.53125	-0.61667	-1.1562	-0.16875	-0.82917	-0.8125	-0.11042	-0.97708	-0.4375	-0.41042	-1.2062	-0.01875	-0.8375	-0.96042	74.881	148.709	-165.763	-121.790	44.532	-112.691	2.794	-137.271	94.804	141.885	112.187	-110.197	69.443	-142.826	-128.264	-77.626	0.00075337	0.00034007	4.1398e-05	983.16	1.9069e-06	1.2765e-06	1073.2	211	1.5166e-06	1.7922e-06	264.68	73.982	58.206	16.723	7.5964e-07	23.295	6.1599e-05	4.9289e-05	1.3929e-05	956.11	5.8445e-07	5.4469e-07	1045.2	206.49	6.1665e-07	5.3222e-07	256.05	71.981	56.616	16.553	5.4286e-07	22.922	38.883	-107.496	-92.031	-158.376	-50.842	5.273	-158.587	-151.133	-133.462	-43.403	-150.818	-145.444	-144.220	-136.809	-113.941	-137.590	-8191	255	
1999.986	1	1	0	0	0.17522	0.34435	0.093545	0.072841	0.12023	0.22257	0.25338	0.30632	0.14492	0.25381	0.22413	0.21797	0.026413	0.13244	0.31805	0.11556	0.25208	-0.87083	-0.51042	-0.40625	-1.0042	-0.28958	-0.71875	-0.98125	-0.19167	-0.9125	-0.69375	-0.13125	-1.2208	-0.30208	-0.64375	-1.15	-156.350	108.969	38.222	-163.425	17.109	146.361	175.498	129.679	115.421	60.452	186.940	111.727	109.948	-33.629	-83.792	-14.218	0.00074478	0.00011157	6.1085e-05	987.24	4.3478e-07	8.2232e-07	1074.2	212.18	1.7813e-06	2.0279e-06	264.1	73.634	57.752	16.929	4.5383e-06	23.272	6.3161e-05	4.9351e-05	1.4226e-05	958.06	5.73e-07	5.4064e-07	1045.8	206.73	5.9109e-07	5.4627e-07	256.35	71.931	56.607	16.543	5.6439e-07	22.948	51.041	-137.278	-77.436	-158.432	-145.642	-4.801	-158.527	-151.330	-117.364	-22.763	-151.736	-144.658	-144.229	-136.924	-70.068	-137.721	-8191	255	
2000.058	1	1	0	0	0.18998	0.23012	0.17396	0.25634	0.29506	0.09143	0.48904	0.22263	0.091264	0.18417	0.30583	0.396	0.24411	0.11573	0.38228	0.038783	0.24583	-0.63542	-0.65625	-0.175	-1.0854	-0.28958	-0.67292	-1.1417	-0.095833	-0.75625	-0.92292	-0.27292	-1.2667	-0.42292	-0.4875	-1.0229	156.965	-25.137	190.321	-78.822	161.180	-129.391	101.373	-81.908	173.999	154.940	-60.797	135.817	-146.905	-26.338	-149.985	-91.763	0.00066646	0.00031126	2.0168e-05	988.62	3.7917e-06	3.3152e-06	1077	211.82	4.7952e-06	2.3685e-06	264.07	73.731	58.282	16.627	3.953e-06	23.437	6.2377e-05	5.1237e-05	1.4121e-05	957.3	5.9583e-07	5.6668e-07	1046.5	206.53	5.8749e-07	5.5247e-07	255.91	71.832	56.798	16.466	5.6875e-07	22.968	37.455	-81.022	-15.623	-158.397	-88.459	-52.532	-158.560	-151.191	-95.878	-44.799	-151.542	-145.205	-144.266	-137.260	-36.042	-138.137	-8191	255	
2000.154	1	1	0	0	0.27539	0.1433	0.25386	0.29561	0.16233	0.05428	0.20356	0.12403	0.14555	0.24384	0.097176	0.13634	0.16746	0.070699	0.073848	0.14069	0.1625	-0.70625	-0.94792	-0.32917	-1.0083	-0.8125	-0.45625	-1.1958	-0.25208	-0.54583	-1.2417	-0.14792	-0.9375	-0.59792	-0.33125	-1.0583	-31.873	-111.335	14.089	137.723	115.212	-68.096	139.993	-103.570	101.835	-33.122	-20.628	114.683	-14.116	51.941	179.737	-110.489	0.00070522	0.00038869	6.3148e-05	988.46	3.1991e-06	2.4273e-06	1077.2	211.61	4.5941e-06	2.8237e-06	265.73	73.56	58.629	16.599	1.8548e-06	23.184	6.2744e-05	5.1164e-05	1.4345e-05	957.25	5.7375e-07	5.4375e-07	1047.1	206.25	5.9972e-07	5.667e-07	256.84	71.783	56.836	16.468	5.7539e-07	22.984	38.192	-80.022	-71.722	-158.540	-52.824	-49.162	-158.639	-151.058	-95.920	-0.524	-151.801	-145.140	-144.532	-136.855	-88.032	-137.652	-8191	255	
2000.250	1	1	0	0	0.28072	0.16822	0.18036	0.21784	0.23131	0.14877	0.098454	0.083296	0.36871	0.1571	0.12721	0.053741	0.26871	0.38135	0.092683	0.065395	-0.13958	-0.48125	-1.05	-0.17708	-0.83958	-0.90625	-0.51875	-1.1292	-0.18542	-0.55	-1.1583	-0.23958	-0.86458	-0.66875	-0.05625	-1.0063	81.707	-130.260	108.410	162.095	-113.157	-149.505	154.808	140.173	-29.610	-15.341	-133.811	166.877	-165.348	-99.796	175.158	-121.755	0.00065823	0.00029916	5.396e-05	987.32	2.851e-06	1.7159e-06	1074.5	210.73	3.0906e-06	2.0179e-06	265.4	73.825	58.202	16.804	4.1988e-06	23.29	6.3815e-05	5.2509e-05	1.4578e-05	958.17	5.9479e-07	5.4364e-07	1046.9	206.15	5.9706e-07	5.4555e-07	256.63	72.124	56.619	16.472	5.7726e-07	22.909	39.556	-96.199	-47.169	-158.340	-57.670	-86.876	-158.759	-151.043	-95.894	-21.851	-151.210	-144.822	-144.307	-137.040	-46.216	-137.678	-8191	255	
2000.369	1	1	0	0	0.20779	0.07107	0.24944	0.21619	0.12589	0.20583	0.28738	0.11836	0.21575	0.087101	0.14904	0.10837	0.16652	0.31417	0.24137	0.16698	-0.060417	-0.48125	-1.0875	-0.24792	-0.80208	-0.85417	-0.375	-1.2229	-0.45208	-0.41458	-1.2208	-0.35208	-0.6875	-1.0125	-0.095833	-0.97708	-162.784	33.929	91.176	78.954	-41.787	90.686	134.237	-102.448	134.040	-23.141	76.363	-134.416	167.421	179.443	170.038	-138.960	0.00072935	0.00022183	0.00010443	986.29	2.0734e-06	2.9445e-06	1071.1	211.84	4.8176e-06	5.7509e-07	264.1	73.781	58.39	16.71	3.7789e-06	23.26	6.2862e-05	5.1652e-05	1.4659e-05	957.36	5.7876e-07	5.5051e-07	1045.4	206.75	5.8138e-07	5.5975e-07	256.23	71.934	56.81	16.514	5.712e-07	22.974	46.003	-53.887	-66.661	-158.578	-55.782	-5.946	-158.638	-150.948	-95.795	-15.764	-151.460	-144.812	-144.445	-137.099	-90.791	-137.853	-8191	255	
2000.465	1	1	0	0	0.21058	0.30311	0.25196	0.35134	0.331	0.16839	0.13994	0.23456	0.19681	0.21971	0.42332	0.31993	0.19475	0.03511	0.35486	0.14097	-0.091667	-0.18958	-0.89375	-0.45208	-0.48958	-0.95417	-0.23958	-1.1833	-0.62917	-0.3125	-0.98125	-0.3625	-0.47917	-1.05	-0.0625	-0.94583	-32.634	-137.793	134.165	180.640	22.255	37.177	168.090	132.705	-120.308	173.654	-133.482	-94.086	-38.253	-62.125	-93.167	119.035	0.00071978	0.00019101	4.4036e-05	983.99	3.2908e-06	1.4703e-06	1078.7	211.94	3.4272e-06	2.4355e-06	264.27	74.415	58.472	16.746	4.7864e-06	23.062	6.2157e-05	5.1174e-05	1.3693e-05	955.8	5.748e-07	5.5352e-07	1047.9	206.52	5.8278e-07	5.4747e-07	256.49	72.194	56.86	16.518	5.6511e-07	22.888	36.114	-130.257	-91.728	-158.483	-50.055	-76.657	-158.492	-151.051	-119.852	13.541	-151.574	-144.952	-144.125	-136.529	-43.288	-137.993	-8191	255	
2000.561	1	1	0	0	0.24562	0.088891	0.33585	0.39482	0.13905	0.17707	0.36488	0.11398	0.072602	0.038623	0.16166	0.061604	0.22812	0.072541	0.32406	0.1232	-0.32917	-0.11875	-0.93125	-0.48333	-0.525	-1.2229	-0.40417	-0.98333	-0.70833	-0.325	-1.1042	-0.42083	-0.39792	-1.0542	-0.2	-0.90625	66.144	-90.610	-158.347	-142.116	105.842	43.232	123.239	-2.871	77.708	-138.935	-142.438	-131.561	-47.411	-162.426	55.612	171.516	0.00080108	0.00031797	7.4259e-05	990.38	2.8767e-06	3.6221e-06	1075.1	211.2	4.299e-06	1.4584e-06	263.4	73.564	58.504	16.838	9.574e-07	23.195	6.2967e-05	5.1158e-05	1.4375e-05	958.27	5.8071e-07	5.5619e-07	1047.6	206.32	5.7991e-07	5.5566e-07	256.19	71.948	56.668	16.539	5.6969e-07	22.921	40.997	-111.364	-12.521	-158.529	-70.879	-52.728	-158.426	-150.934	-79.873	-33.700	-151.471	-144.954	-144.114	-136.759	-84.586	-137.603	-8191	255	
2000.657	1	1	0	0	0.11746	0.08962	0.28481	0.23593	0.20954	0.04857	0.09569	0.32688	0.12964	0.17633	0.16808	0.15956	0.30289	0.11904	0.43155	0.27576	-0.45417	-0.14583	-0.94167	-0.72708	-0.24375	-1.1042	-0.33125	-0.83542	-0.79167	-0.175	-0.95	-0.47292	-0.18958	-0.96667	-0.55833	-0.64583	149.156	-65.763	109.244	-145.946	-12.336	115.897	149.193	115.331	89.776	47.622	133.043	34.617	186.267	-5.428	67.034	120.290	0.00062864	0.00022723	6.9308e-05	985.16	3.8188e-06	2.369e-06	1075.4	211.75	4.0102e-06	1.6834e-06	262.95	73.441	58.206	16.668	4.0346e-06	23.239	6.2983e-05	5.2377e-05	1.4079e-05	957.51	5.8074e-07	5.5663e-07	1046.7	206.04	5.5575e-07	5.575e-07	255.18	71.956	56.668	16.494	5.7207e-07	22.969	35.247	-59.323	-39.163	-158.336	-52.500	29.932	-158.421	-150.487	-108.753	-36.373	-150.967	-144.735	-143.782	-136.541	-54.459	-137.091	-8191	255	
2000.754	1	1	0	0	0.06847	0.17438	0.26203	0.36079	0.13975	0.2657	0.38729	0.17389	0.15731	0.096763	0.22634	0.039428	0.20716	0.19807	0.08762	0.11133	-0.5875	-0.083333	-0.88333	-0.79792	-0.29792	-1.2354	-0.30625	-0.59792	-1.0146	-0.066667	-0.90417	-0.7375	-0.052083	-1.1167	-0.22083	-0.4875	-151.229	115.929	151.642	80.437	42.386	124.829	188.203	-74.317	-142.428	-165.677	17.722	-70.773	151.610	171.546	-90.449	-23.165	0.00065895	0.00021964	5.9769e-05	983.28	2.1248e-06	2.2951e-06	1075.5	211.17	4.0313e-06	2.1981e-06	265.51	73.051	58.513	16.765	1.4459e-06	23.32	6.2141e-05	5.0861e-05	1.344e-05	956.68	5.9248e-07	5.4024e-07	1045.5	206.47	5.6326e-07	5.4732e-07	256.67	71.757	56.715	16.481	5.5534e-07	22.994	34.887	-89.366	-79.488	-157.417	-26.564	-34.038	-158.310	-150.299	-148.910	-70.306	-151.134	-144.526	-143.617	-135.780	-82.502	-137.056	-8191	255	
2000.850	1	1	0	0	0.1035	0.1487	0.11367	0.092169	0.22578	0.20378	0.10476	0.30548	0.26147	0.13051	0.17408	0.069723	0.27324	0.13028	0.18892	0.066312	-0.77292	-0.1	-0.95417	-0.93333	-0.0041667	-0.96875	-0.49167	-0.425	-1.1521	-0.1875	-0.9375	-1.0625	-0.29792	-1.0854	-0.65833	-0.53542	4.901	25.567	-94.778	102.901	-145.589	56.936	121.495	118.402	-98.506	75.706	120.091	-33.150	124.398	-97.983	188.303	125.261	0.00070516	0.0001823	7.5104e-05	985.32	2.125e-06	1.7277e-06	1075.8	212.51	4.721e-06	1.5529e-06	262.84	73.864	58.583	16.777	3.4961e-06	23.295	6.0658e-05	5.1171e-05	1.3972e-05	955.85	5.8636e-07	5.4118e-07	1046	206.96	5.6578e-07	5.3773e-07	256.59	71.943	56.738	16.541	5.6251e-07	22.996	47.458	-113.469	-41.406	-157.854	-118.526	-48.363	-158.021	-150.222	-137.437	-55.670	-150.775	-144.000	-143.493	-135.691	-21.427	-136.846	-8191	255	
2000.969	1	1	0	0	0.1033	0.12332	0.12371	0.20739	0.11266	0.091188	0.33116	0.15194	0.17688	0.092512	0.22508	0.22882	0.33136	0.36438	0.21333	0.3007	-0.60208	-0.48958	-0.81458	-0.89167	-0.24375	-1.0667	-0.7625	-0.46667	-1.1187	-0.4375	-0.80625	-0.85417	-0.34375	-0.85833	-0.58333	-0.20208	-146.015	-97.629	-3.496	168.389	142.580	-142.761	133.002	182.618	-157.550	-88.868	-126.450	-77.898	186.155	-121.962	91.060	181.279	0.00073112	0.00013334	3.6081e-05	986.85	2.6212e-06	1.0683e-07	1069.8	212.13	4.0889e-06	3.1304e-06	262.73	73.343	58.415	16.763	2.3272e-06	23.089	6.0304e-05	4.9414e-05	1.3797e-05	957.19	5.6612e-07	5.4118e-07	1043.7	206.65	5.624e-07	5.5287e-07	255.66	71.829	56.753	16.528	5.7373e-07	22.91	44.448	-99.566	-97.784	-158.081	-39.849	187.230	-158.040	-150.019	-112.105	-19.940	-150.460	-144.349	-142.940	-135.795	-26.266	-136.741	-8191	255	
2001.065	1	1	0	0	0.14281	0.063803	0.1357	0.23683	0.10729	0.18412	0.072723	0.078293	0.095191	0.23411	0.12795	0.21338	0.32438	0.29536	0.16334	0.20528	-0.58958	-0.3	-0.46458	-1.0604	-0.24167	-1.1208	-0.87083	-0.3375	-1.2854	-0.36875	-0.80625	-1.1104	-0.32917	-0.63333	-0.93958	0.033333	64.276	-161.684	-1.125	138.317	-36.116	92.116	12.286	101.288	179.598	-56.618	-157.137	-16.402	56.706	-106.597	169.830	56.020	0.00066124	0.00032837	7.9326e-05	986.18	3.7909e-06	2.0179e-07	1073.5	211.23	3.6599e-06	3.0697e-06	263.42	73.533	58.475	16.759	2.8834e-06	23.446	6.0604e-05	5.0429e-05	1.4678e-05	958.61	6.0134e-07	5.2549e-07	1044.5	206.31	5.4611e-07	5.3595e-07	255.65	71.95	56.666	16.538	5.3842e-07	23.032	45.131	-108.521	-55.241	-157.730	-53.253	-38.521	-157.789	-150.181	-127.986	-44.389	-150.674	-144.671	-144.141	-136.545	-77.661	-137.011	-8191	255	
2001.161	1	1	0	0	0.20917	0.18572	0.071512	0.30884	0.4197	0.18521	0.34032	0.22791	0.051438	0.22255	0.18496	0.1347	0.028044	0.184	0.08537	0.17201	-0.75833	-0.35833	-0.3875	-1.1812	-0.43125	-0.67292	-1.0562	-0.41042	-1.175	-0.63125	-0.51667	-1.0917	-0.22083	-0.61458	-0.93542	0.0041667	188.578	26.058	-121.334	164.785	-128.822	-33.115	168.876	161.306	-137.752	-113.290	89.125	85.720	136.198	117.375	186.639	171.278	0.00063806	0.00029389	3.4135e-05	989.22	2.6015e-06	1.7119e-06	1071.1	211.54	4.2731e-06	2.7414e-06	264.73	74.156	58.48	16.815	5.6787e-07	23.244	6.039e-05	4.9421e-05	1.3862e-05	958.63	5.8247e-07	5.622e-07	1045.3	206.07	5.5722e-07	5.3526e-07	255.8	72.166	56.879	16.517	5.364e-07	23.007	37.506	-114.537	-70.590	-158.247	-14.767	-77.223	-158.349	-150.771	-150.478	-29.091	-151.554	-144.976	-143.766	-136.719	40.134	-137.768	-8191	255	
2001.257	1	1	0	0	0.033886	0.30591	0.14072	0.20782	0.0051446	0.1909	0.33863	0.080331	0.14935	0.088086	0.23415	0.21216	0.064221	0.27591	0.14967	0.11651	-0.73125	-0.43333	-0.11042	-1.2125	-0.42917	-0.675	-1.2354	-0.125	-1.1042	-0.81458	-0.33333	-1.3292	-0.24583	-0.60625	-1.1396	-0.23125	33.273	103.551	81.892	164.209	154.515	-129.431	167.529	109.569	162.286	-65.287	38.593	127.336	69.594	-165.660	96.512	124.748	0.00069697	0.00013696	6.1476e-05	988.52	3.479e-06	1.4956e-06	1071.3	211.22	5.9221e-06	2.4018e-06	263.72	73.725	58.45	16.744	4.9507e-06	23.539	6.1465e-05	5.0568e-05	1.3816e-05	958.86	5.8063e-07	5.5956e-07	1045.3	206.12	5.922e-07	5.5279e-07	256.37	71.875	56.794	16.527	5.5252e-07	23.048	48.661	-128.682	-55.751	-158.340	-52.619	-120.687	-158.236	-150.767	-98.374	16.488	-151.269	-144.456	-144.482	-136.902	-78.518	-137.677	-8191	255	
2001.353	1	1	0	0	0.11574	0.15182	0.095922	0.28895	0.24135	0.27165	0.49472	0.17852	0.073493	0.19517	0.17941	0.32253	0.20041	0.23996	0.48694	0.17752	-0.77292	-0.66458	-0.2	-1.1833	-0.31667	-0.51667	-1.1437	-0.2875	-0.93958	-0.86042	-0.11875	-1.0083	-0.48125	-0.25208	-1.1979	-0.17917	-110.722	-20.449	81.359	157.258	-131.535	46.789	145.051	155.559	68.638	-18.442	-112.357	125.385	46.449	67.795	-3.338	-91.208	0.00077712	0.00020782	6.2723e-05	985.27	1.9165e-06	1.5931e-06	1075.7	211.39	4.8716e-06	2.2044e-06	263.57	73.453	58.118	16.911	1.1207e-06	23.392	6.2339e-05	4.9374e-05	1.4251e-05	957.44	5.7221e-07	5.3116e-07	1047	206.4	5.7678e-07	5.4526e-07	256.47	71.722	56.579	16.54	5.4271e-07	23.027	42.465	-85.239	-94.590	-158.256	-40.968	-74.096	-158.736	-151.082	-116.776	-7.261	-151.138	-144.560	-143.879	-136.653	-51.106	-137.771	-8191	255	
2001.449	1	1	0	0	0.19869	0.129	0.23237	0.28387	0.077719	0.18656	0.22317	0.22801	0.0072736	0.083499	0.11366	0.27133	0.14185	0.17018	0.054755	0.059604	-0.41042	-0.9875	-0.17917	-1.1396	-0.48542	-0.54792	-1.1354	-0.25208	-0.85625	-0.97917	-0.125	-0.92917	-0.625	-0.20833	-1.0167	-0.16667	105.905	34.716	-101.515	120.005	-132.903	-136.195	150.389	75.159	151.682	-6.903	-70.440	-44.585	17.122	-79.174	-63.817	-67.678	0.00068156	0.000225	6.4142e-05	989.82	1.2148e-06	6.8314e-07	1075.2	211.99	6.3252e-06	2.8632e-06	262.7	73.365	58.622	16.79	4.017e-06	23.139	6.0585e-05	5.0601e-05	1.4487e-05	958.89	5.7743e-07	5.5359e-07	1045.9	206.41	5.5212e-07	5.3932e-07	256.2	72.034	56.847	16.587	5.4863e-07	22.913	33.389	-98.076	-55.381	-158.503	-119.391	-80.701	-158.610	-150.644	-134.084	-41.704	-151.392	-144.719	-143.895	-136.936	-45.810	-137.862	-8191	255	
2001.570	1	1	0	0	0.081997	0.058903	0.045713	0.32389	0.16	0.19143	0.20369	0.085673	0.23287	0.022244	0.10961	0.15287	0.023173	0.32685	0.08561	0.13795	-0.31667	-0.95	0.0125	-1.0187	-0.79375	-0.47083	-1.3417	-0.47083	-0.51458	-1.2021	-0.42292	-0.74167	-0.96667	-0.18333	-1.1437	-0.39375	85.856	-59.293	62.819	-152.157	-116.722	137.122	79.931	159.090	4.664	109.503	40.602	177.055	140.304	23.492	-73.679	112.278	0.00069992	0.00016941	2.6822e-05	985.5	2.8101e-06	1.4342e-07	1074.5	211.87	4.0886e-06	1.3018e-06	264.48	73.949	58.291	16.836	2.708e-06	23.239	6.1203e-05	5.1359e-05	1.392e-05	958.25	5.6932e-07	5.3843e-07	1046.4	206.68	5.5737e-07	5.3515e-07	256.25	72.102	56.555	16.54	5.3377e-07	22.995	42.581	-102.975	-108.851	-158.659	-63.112	-51.612	-158.695	-151.007	-116.041	79.878	-151.556	-144.862	-144.385	-136.565	-95.510	-137.713	-8191	255	
2001.666	1	1	0	0	0.15112	0.10801	0.20644	0.14735	0.39646	0.30957	0.075933	0.15017	0.3195	0.46053	0.24409	0.023215	0.1911	0.20866	0.21139	0.35959	-0.06875	-1.1187	-0.097917	-1	-0.83333	-0.097917	-1.175	-0.70208	-0.46667	-1.0146	-0.33333	-0.88125	-0.97083	-0.25625	-0.83958	-0.61875	-109.055	-11.722	-40.155	-159.520	5.190	126.944	56.518	143.886	-47.636	75.012	-64.153	-156.763	-75.639	116.071	189.530	3.887	0.000711	0.00020838	5.1652e-05	987.09	2.8414e-06	1.4883e-06	1074.2	212.21	3.4367e-06	2.8207e-06	266.16	74.001	58.741	16.912	2.2748e-06	23.235	6.1289e-05	5.0439e-05	1.427e-05	957.7	5.6021e-07	5.3272e-07	1045.1	206.44	5.6323e-07	5.4294e-07	256.28	72.15	56.951	16.559	5.395e-07	22.921	41.258	-99.809	-75.675	-158.175	-38.928	-20.972	-158.489	-151.087	-135.285	-21.003	-151.620	-144.987	-144.446	-136.823	-35.373	-138.357	-8191	255	
2001.760	1	1	0	0	0.087724	0.13069	0.12994	0.15376	0.11717	0.13732	0.16889	0.26152	0.18647	0.12277	0.26285	0.12497	0.25514	0.083823	0.058637	0.37557	0.04375	-1.1208	-0.25	-0.77292	-0.98125	-0.12917	-1.0688	-0.74583	-0.27917	-1.2062	-0.375	-0.65625	-1.1271	-0.41667	-0.94167	-0.77083	-146.486	-127.093	84.942	172.696	175.137	40.020	165.536	-145.135	145.346	-156.453	18.373	-90.091	-137.111	163.667	39.797	158.914	0.0007566	0.00020309	5.8216e-05	983.12	2.5064e-06	2.0285e-06	1075.4	210.87	3.9684e-06	2.6627e-06	264.89	73.87	58.317	16.872	3.6426e-06	23.339	6.2332e-05	4.9905e-05	1.3647e-05	957.86	5.5315e-07	5.529e-07	1046.3	205.98	5.6384e-07	5.2777e-07	256.32	72.134	56.746	16.565	5.3597e-07	23.016	45.026	-132.382	-55.880	-158.556	-52.295	-2.759	-158.465	-150.991	-67.711	-39.449	-151.571	-144.971	-144.303	-136.069	-57.002	-136.846	-8191	255	
2001.857	1	1	0	0	0.1571	0.24372	0.22466	0.12728	0.17361	0.13887	0.35126	0.39084	0.2247	0.20847	0.096449	0.12057	0.12189	0.10211	0.23844	0.12098	0.19792	-1.2542	-0.22708	-0.64583	-1.0458	-0.08125	-0.93958	-0.90208	-0.29375	-1.0458	-0.56458	-0.46667	-1.2792	-0.25208	-0.66042	-0.96458	-73.671	140.364	141.810	108.411	-10.732	171.217	174.623	111.466	-166.034	-98.429	24.150	87.960	-7.531	-86.177	146.240	129.538	0.00070647	0.00018445	7.1397e-05	987.04	2.706e-06	1.7581e-06	1076.3	211.06	3.7555e-06	1.3277e-06	263.06	73.971	58.827	16.825	2.3971e-06	23.218	6.1902e-05	4.795e-05	1.3935e-05	958.35	5.5801e-07	5.5721e-07	1046.2	205.93	5.8278e-07	5.3023e-07	256.08	72.059	56.796	16.583	5.4906e-07	22.965	38.254	-126.189	-27.794	-158.270	-98.787	-55.684	-158.538	-151.225	-137.986	9.689	-151.269	-144.778	-144.015	-137.123	-52.434	-137.796	-8191	255	
2001.930	1	1	0	0	0.10887	0.15375	0.14106	0.13268	0.16058	0.067457	0.13366	0.38478	0.29776	0.033969	0.27788	0.031387	0.21108	0.27437	0.23944	0.20703	0.15208	-1.0312	-0.38333	-0.45625	-0.91667	-0.24792	-0.7625	-0.99375	-0.05	-0.85625	-0.82083	-0.32292	-1.0417	-0.30833	-0.62708	-0.98125	180.357	32.468	-84.762	146.021	62.895	-18.302	-27.545	-136.653	-76.415	-2.244	165.633	6.417	126.673	143.407	-122.340	125.743	0.00065802	0.00022665	1.911e-05	988.47	2.0169e-06	3.5704e-06	1074.8	211.31	6.3246e-06	3.3821e-06	262.33	73.946	58.884	16.891	3.5519e-06	23.372	6.2007e-05	4.6928e-05	1.3879e-05	957.59	5.52e-07	5.5692e-07	1046	206.16	5.8606e-07	5.1886e-07	256.1	72.1	56.925	16.538	5.5411e-07	23.029	42.804	-109.542	-92.096	-158.443	-97.427	-49.510	-158.382	-150.941	-117.873	-25.653	-151.781	-144.549	-144.460	-136.603	-63.640	-138.235	-8191	255	
2002.049	1	1	0	0	0.092951	0.10372	0.30002	0.21302	0.17441	0.29172	0.22606	0.34349	0.34383	0.060108	0.2937	0.085931	0.32458	0.28191	0.036832	0.11836	0.11875	-0.73125	-0.45833	-0.2125	-1.1708	-0.20625	-0.5625	-1.1	-0.1	-0.84792	-0.6875	-0.20833	-1.1458	-0.45417	-0.4625	-0.82917	106.416	-88.340	89.721	78.113	-3.274	-69.529	168.200	81.243	40.869	11.495	132.309	-120.167	-109.556	-159.574	25.851	-154.611	0.00069464	0.00016036	8.2446e-05	986.74	1.9603e-06	1.8767e-06	1073.3	211.48	3.9077e-06	3.4421e-06	262.72	73.533	58.444	16.758	3.3451e-06	23.534	6.1436e-05	4.8039e-05	1.3441e-05	957.93	5.7638e-07	5.4983e-07	1045.3	206.18	5.6409e-07	5.3407e-07	255.9	72.052	56.912	16.502	5.5317e-07	23.03	40.410	-105.529	-73.301	-158.128	-100.786	-67.828	-158.449	-151.091	187.329	-67.282	-151.577	-144.873	-144.272	-136.799	-126.650	-137.967	-8191	255	
2002.145	1	1	0	0	0.32447	0.14065	0.15567	0.16003	0.20378	0.22249	0.10677	0.23103	0.11074	0.30524	0.38873	0.21558	0.14738	0.31135	0.30511	0.27341	0.23958	-0.79583	-0.64375	-0.25417	-0.92083	-0.44375	-0.27917	-1.2188	-0.29375	-0.85625	-1.0833	-0.039583	-0.92917	-0.49792	-0.43333	-0.9375	-67.276	174.412	-77.240	-155.783	-31.130	179.061	73.831	1.993	17.677	-100.889	189.564	91.149	-117.394	-105.395	73.288	153.732	0.00072575	0.00025814	7.5425e-05	984.6	3.7265e-06	2.3665e-06	1082.1	211.62	2.7879e-06	2.4318e-06	265.57	74.109	58.773	16.902	3.6906e-06	23.372	6.2632e-05	4.9783e-05	1.3904e-05	956.93	5.5848e-07	5.4708e-07	1047.6	206.47	5.6154e-07	5.3461e-07	256.49	72.029	57.015	16.594	5.6651e-07	22.981	41.446	-110.309	-37.338	-158.175	-40.985	-13.861	-158.374	-151.221	-59.764	-55.531	-151.279	-144.703	-144.078	-137.172	-43.755	-137.967	-8191	255	
2002.241	1	1	0	0	0.2697	0.4086	0.18304	0.23621	0.29061	0.11922	0.14824	0.16079	0.24393	0.18219	0.21668	0.25298	0.20009	0.1564	0.27657	0.07304	0.20625	-0.57917	-0.81667	-0.17292	-1.0583	-0.7	-0.50833	-1.2104	-0.2625	-0.74583	-0.92917	-0.19167	-0.8125	-0.68542	-0.1875	-0.99583	-87.879	-160.730	108.907	167.808	-70.790	10.120	-65.045	-117.579	155.269	61.793	-98.531	-168.144	-88.500	108.214	75.624	164.145	0.00076385	0.00026298	5.9216e-05	981.16	1.8086e-06	8.0534e-07	1075.4	211.95	8.7028e-06	2.5661e-06	264.29	73.489	58.531	16.769	2.7626e-06	23.256	6.1331e-05	4.9945e-05	1.3501e-05	956.06	5.7566e-07	5.5044e-07	1045.7	206.51	5.6416e-07	5.2436e-07	255.86	71.932	56.861	16.579	5.5407e-07	23.027	37.963	-58.554	-105.831	-158.552	-16.786	-80.103	-158.470	-151.083	-111.365	-10.749	-151.571	-144.781	-144.430	-136.909	-83.829	-137.678	-8191	255	
2002.337	1	1	0	0	0.16011	0.074589	0.094998	0.078455	0.21156	0.32601	0.31601	0.14447	0.03845	0.4078	0.16637	0.06463	0.012906	0.10788	0.044961	0.079096	0.027083	-0.66667	-0.96875	-0.475	-0.75625	-0.81042	-0.4125	-1.2021	-0.27708	-0.36875	-0.94792	-0.095833	-0.83958	-0.72292	-0.16875	-1.0938	20.910	-103.514	8.502	165.975	-38.802	-86.811	112.390	137.630	-26.313	-1.709	141.568	-134.206	137.043	43.042	127.461	-123.192	0.00067447	0.00030309	5.1608e-05	984.9	1.8766e-06	3.7574e-06	1071.5	211.27	3.5008e-06	2.7409e-06	267.24	73.604	58.52	16.768	3.1568e-06	23.568	6.1946e-05	4.9935e-05	1.3313e-05	957.07	5.6932e-07	5.3941e-07	1044.9	206.26	5.5632e-07	5.4055e-07	256.79	72.118	56.876	16.549	5.5119e-07	23.101	43.375	-81.074	-58.482	-158.486	-97.504	-45.861	-158.439	-151.095	-103.752	-7.519	-151.836	-144.710	-144.519	-136.853	-41.049	-138.082	-8191	255	
2002.458	1	1	0	0	0.11576	0.2422	0.060546	0.26087	0.25529	0.10985	0.15351	0.43815	0.071494	0.063545	0.22035	0.23596	0.23442	0.3894	0.30967	0.17952	-0.1875	-0.31458	-1.1292	-0.27917	-0.86667	-0.94583	-0.16667	-1.2479	-0.54167	-0.525	-1.1292	-0.41458	-0.48333	-1.0271	0.033333	-1.1167	168.256	-26.970	140.347	-125.416	127.462	-43.436	107.936	116.411	-94.462	174.884	108.217	16.831	79.268	-84.979	-17.245	75.213	0.00074222	0.00019288	9.01e-05	983.29	3.883e-06	3.1212e-06	1076.5	211.03	5.037e-06	2.2571e-06	264.45	73.547	58.738	16.791	3.824e-06	23.336	6.1742e-05	5.003e-05	1.3039e-05	955.6	5.6853e-07	5.4267e-07	1045.5	206.24	5.8056e-07	5.2842e-07	256.04	72.023	56.843	16.575	5.5642e-07	22.983	44.485	-121.852	-53.477	-158.448	-57.540	-73.912	-158.316	-151.136	-117.034	26.248	-151.500	-144.994	-144.603	-136.659	-87.768	-137.790	-8191	255	
2002.554	1	1	0	0	0.37885	0.37984	0.12174	0.15624	0.048571	0.070543	0.19902	0.34483	0.13604	0.16778	0.17608	0.26989	0.17155	0.10983	0.31677	0.11365	-0.10417	-0.28333	-1.0938	-0.32083	-0.60417	-0.87292	-0.41667	-1.1375	-0.90833	-0.29375	-1.3125	-0.13542	-0.58542	-1.1458	-0.041667	-0.98333	-125.309	4.264	-117.984	144.988	-4.707	117.757	156.858	177.499	-17.478	-49.396	122.817	-143.573	-83.770	30.805	-50.833	-86.619	0.00065888	0.00028009	4.7577e-05	983.21	1.4617e-06	3.5482e-06	1077.1	212.38	5.434e-06	2.5025e-06	264.07	73.973	58.151	16.789	5.7945e-07	23.54	6.3078e-05	4.9724e-05	1.3644e-05	956.36	5.8056e-07	5.2552e-07	1045.9	207.11	5.5589e-07	5.5232e-07	256.13	71.961	56.872	16.587	5.7373e-07	23.089	35.802	-109.034	-41.081	-158.521	-40.300	-29.775	-158.544	-151.014	-116.036	-32.602	-151.633	-145.241	-144.324	-137.141	120.279	-137.430	-8191	255	
2002.650	1	1	0	0	0.035349	0.12674	0.082113	0.16154	0.18778	0.25211	0.28634	0.31179	0.090303	0.18347	0.43138	0.24735	0.17757	0.16788	0.19346	0.087479	-0.27917	-0.1625	-1.1292	-0.62292	-0.55833	-1.1792	-0.20625	-1.0146	-0.6625	-0.21875	-1.0938	-0.33958	-0.37083	-0.91667	-0.21875	-0.71458	57.431	-166.654	-164.811	-153.969	-74.709	126.763	123.073	2.414	173.290	72.990	141.197	-78.292	-92.056	-61.262	-154.525	153.446	0.00064596	0.00022318	5.3892e-05	984.4	2.556e-06	8.631e-07	1072.2	210.62	5.7616e-06	1.7583e-06	263.93	73.822	58.713	16.816	5.105e-06	23.13	5.8199e-05	5.0785e-05	1.3724e-05	957.19	5.7008e-07	5.554e-07	1045	206.04	5.8455e-07	5.4696e-07	255.68	72.062	56.874	16.609	5.637e-07	22.995	42.321	-124.565	-60.807	-158.412	-31.254	-92.222	-158.626	-151.237	-140.077	-17.567	-151.134	-145.244	-144.558	-136.528	-51.251	-137.265	-8191	255	
2002.746	1	1	0	0	0.21645	0.12692	0.1318	0.35191	0.14785	0.14346	0.20025	0.13198	0.02557	0.081162	0.1651	0.19371	0.13655	0.23613	0.39451	0.24663	-0.48958	-0.20417	-0.95625	-0.42917	-0.19167	-1.1729	-0.20833	-0.70417	-0.84167	-0.1	-1.0229	-0.64167	-0.36875	-1.0125	-0.34167	-0.71875	174.702	127.277	172.582	122.143	-73.246	-120.793	93.065	-165.479	-151.197	102.945	35.083	-114.089	66.409	140.631	117.315	-164.004	0.00067986	0.00032033	1.8828e-05	988.63	3.8587e-06	2.6258e-06	1072.3	210.63	1.8542e-06	3.7259e-06	264.94	73.569	58.241	16.896	4.1197e-06	23.458	6.1076e-05	5.127e-05	1.3303e-05	958.07	5.744e-07	5.2433e-07	1045.1	206.64	5.6984e-07	5.3936e-07	256.25	71.863	56.773	16.608	5.4542e-07	23.112	40.000	-87.643	-69.044	-158.429	-16.461	1.120	-158.616	-150.634	-89.796	-10.354	-151.357	-144.670	-144.022	-136.688	-50.301	-137.755	-8191	255	
2002.843	1	1	0	0	0.1639	0.15256	0.02901	0.29513	0.24999	0.26325	0.48998	0.050883	0.40447	0.19667	0.090676	0.18384	0.1682	0.034901	0.29946	0.19047	-0.70833	-0.10208	-0.96458	-0.6125	-0.24583	-1.1479	-0.63125	-0.62708	-1.1063	-0.022917	-1.0708	-0.8625	-0.15625	-1.2583	-0.46667	-0.48333	-131.726	-109.397	-99.723	-150.525	27.051	3.307	131.749	2.514	164.909	48.615	46.350	130.524	64.716	150.540	-69.917	178.513	0.0006705	0.00027563	0.000121	985.76	1.8038e-06	3.1462e-06	1074.1	211.71	3.4869e-06	2.4427e-06	265.19	73.434	58.499	16.875	1.3199e-06	23.435	6.1481e-05	5.0314e-05	1.3251e-05	958.04	5.7926e-07	5.2617e-07	1044.4	206.52	5.441e-07	5.3686e-07	256.22	71.912	56.906	16.526	5.4362e-07	22.994	38.989	-109.195	-65.947	-158.273	-63.443	-15.116	-158.846	-151.043	-127.773	-18.838	-151.193	-144.841	-144.569	-136.821	-81.126	-137.664	-8191	255	
2002.939	1	1	0	0	0.10889	0.14529	0.17436	0.12637	0.20372	0.17856	0.095692	0.17944	0.18711	0.23005	0.12808	0.1495	0.088263	0.11797	0.051498	0.069009	-0.79167	-0.20833	-0.82292	-0.55417	-0.13958	-1.1125	-0.6	-0.71042	-1.2313	-0.32083	-0.92083	-0.91042	-0.16042	-1.1	-0.54167	-0.5375	30.596	-44.743	190.633	-140.056	-53.592	149.306	181.867	132.454	-142.085	175.897	-125.781	168.300	16.166	-138.989	58.652	-164.629	0.00068036	0.00012684	8.6523e-05	987.46	3.3669e-06	2.0735e-06	1071.4	211.81	5.4485e-06	2.381e-06	264.66	73.469	59.031	16.841	4.6601e-06	23.5	5.7877e-05	4.9925e-05	1.3242e-05	956.85	5.7559e-07	5.2541e-07	1043.2	206.85	5.5787e-07	5.6254e-07	256.21	71.836	56.959	16.565	5.5516e-07	23.078	35.584	-156.990	-44.962	-158.513	-49.703	-118.402	-158.328	-150.729	-114.545	-21.375	-151.007	-144.654	-144.012	-136.456	-51.012	-137.173	-8191	255	
2003.058	1	1	0	0	0.034341	0.071098	0.10297	0.27771	0.11389	0.20794	0.084636	0.037585	0.44397	0.056586	0.18866	0.23007	0.10051	0.22857	0.2316	0.41931	-0.77708	-0.29583	-0.92708	-1	-0.30417	-1.0583	-0.825	-0.35833	-1.2687	-0.42083	-0.79375	-1.3042	-0.11667	-1.2729	-0.91667	-0.36042	79.134	-59.186	-85.268	143.464	-32.305	-152.502	63.727	-10.108	180.455	49.131	-10.363	-136.343	-3.418	-54.257	41.110	-47.880	0.00075526	0.00027422	7.5158e-05	984.99	3.5966e-06	2.6832e-06	1070.4	212.29	3.8775e-06	2.0512e-06	263.72	73.693	58.631	16.84	2.8137e-06	23.253	6.1522e-05	4.9028e-05	1.3689e-05	956.2	5.7512e-07	5.3276e-07	1044.2	206.69	5.4532e-07	5.4008e-07	255.62	71.802	56.818	16.565	5.4059e-07	23.004	40.097	-107.219	-61.663	-158.127	-67.681	-72.297	-158.151	-150.534	-94.438	-41.668	-150.478	-144.225	-143.975	-136.597	-27.786	-137.276	-8191	255	
2003.154	1	1	0	0	0.07106	0.32793	0.04923	0.20225	0.041288	0.0094725	0.41782	0.3847	0.11409	0.098286	0.071709	0.13463	0.23245	0.19204	0.085404	0.18443	-0.87708	-0.39792	-0.70208	-1.1313	-0.35625	-1.0667	-0.87083	-0.41458	-1.2042	-0.50833	-0.54375	-1.2042	-0.27083	-0.9375	-0.71667	-0.20417	-56.471	168.778	-96.275	134.694	-22.421	24.821	115.742	118.285	-83.504	150.148	79.116	22.375	-128.240	183.287	7.223	-124.363	0.00065229	0.00030608	9.1213e-05	984.62	1.3718e-06	4.1784e-06	1073.6	211.56	2.1727e-06	2.3299e-06	263.99	74.021	58.383	16.856	6.4019e-06	23.375	5.8304e-05	4.8198e-05	1.3651e-05	955.83	5.8967e-07	5.1992e-07	1045	206.15	5.5733e-07	5.4591e-07	255.64	72.133	56.701	16.605	5.4394e-07	23.078	35.993	-120.384	-85.227	-158.318	-76.749	-29.173	-158.230	-150.484	-99.259	14.990	-150.808	-144.279	-143.616	-136.025	-64.749	-136.758	-8191	255	
2003.225	1	1	0	0	0.18754	0.17761	0.13199	0.17618	0.20191	0.35142	0.17311	0.17069	0.29803	0.27532	0.19431	0.28917	0.23707	0.26186	0.1374	0.46104	-0.85625	-0.5	-0.4625	-1.2062	-0.23125	-0.76667	-1.1042	-0.31458	-1.2146	-0.68958	-0.48125	-1.2354	-0.32708	-0.88333	-1.0938	-0.28333	-49.235	114.744	-11.668	92.347	191.412	56.252	92.250	87.452	152.668	143.935	-72.746	90.407	-141.318	-97.498	106.616	110.928	0.00062792	9.7121e-05	3.6917e-05	990.35	4.1985e-06	2.6566e-06	1079.1	212.58	2.999e-06	1.8554e-06	266.15	73.531	58.376	16.802	2.65e-06	23.143	6.0706e-05	4.8952e-05	1.4004e-05	958.11	5.8478e-07	5.2136e-07	1046.3	206.57	5.6258e-07	5.4291e-07	257.14	71.882	56.883	16.559	5.4762e-07	22.987	48.034	-149.398	-97.854	-157.646	-10.915	-66.762	-158.253	-150.420	-94.332	7.342	-150.774	-144.188	-144.116	-135.794	-54.710	-136.500	-8191	255	
2003.346	1	1	0	0	0.13788	0.27048	0.47309	0.12066	0.10286	0.10079	0.07575	0.27079	0.2846	0.092747	0.15637	0.18006	0.1887	0.11299	0.18534	0.086453	-0.675	-0.53333	-0.26875	-1.0958	-0.30208	-0.58125	-1.2188	-0.1875	-1.1729	-0.7	-0.20833	-1.2896	-0.28542	-0.60417	-1.1271	-0.26875	-16.433	76.605	-66.742	-135.287	23.415	-155.921	51.320	170.842	166.295	-57.711	184.596	-146.775	119.914	30.943	143.638	96.253	0.00071323	0.00015807	6.8462e-05	988.63	4.0109e-06	7.3631e-07	1076.1	212.22	6.2307e-06	1.3618e-06	263.69	73.758	58.065	16.795	3.0542e-06	23.318	6.1095e-05	4.9938e-05	1.412e-05	957.5	5.6302e-07	5.5026e-07	1044.2	206.69	5.7549e-07	5.3258e-07	256.01	71.934	56.66	16.591	5.024e-07	23.003	54.167	184.593	-71.797	-157.842	-70.931	-53.543	-158.118	-150.296	-112.361	-147.089	-151.110	-144.581	-144.377	-136.593	-52.164	-137.141	-8191	255	
2003.442	1	1	0	0	0.096078	0.19221	0.24324	0.11315	0.081502	0.059945	0.050554	0.15436	0.046645	0.4566	0.063112	0.2021	0.26133	0.36	0.11149	0.22691	-0.46458	-0.59792	-0.27917	-1.3146	-0.58333	-0.46667	-1.25	-0.23333	-0.79167	-0.96875	-0.25208	-1.0896	-0.28333	-0.52292	-0.97292	-0.41875	172.224	0.030	-149.608	94.423	186.319	-156.245	-30.024	-156.894	-30.843	86.253	36.485	39.711	12.177	42.352	-138.433	-152.217	0.00073043	0.00031411	6.9676e-05	983.77	5.2392e-06	1.8428e-06	1072.7	211.83	2.2786e-06	2.8658e-06	263.68	73.851	58.299	16.822	5.8844e-06	23.435	6.0731e-05	4.8959e-05	1.3987e-05	957.09	5.7451e-07	5.3739e-07	1043.6	206.61	5.5381e-07	5.1835e-07	255.79	71.877	56.746	16.576	5.5198e-07	23.048	40.904	-115.589	-60.054	-158.050	-11.740	-47.269	-158.475	-150.851	-74.774	3.154	-151.359	-144.562	-144.019	-137.053	-49.075	-137.772	-8191	255	
2003.538	1	1	0	0	0.41277	0.1309	0.28345	0.24954	0.11022	0.13503	0.15155	0.16832	0.067231	0.13584	0.16467	0.054697	0.32575	0.1137	0.060569	0.047168	-0.20417	-0.85	-0.20417	-1.2	-0.58542	-0.27708	-1.2313	-0.18542	-0.71667	-1.0458	-0.15208	-1.2271	-0.7	-0.32917	-1.1375	-0.079167	165.203	168.934	19.789	94.386	-154.859	161.587	-72.395	45.506	87.220	96.356	174.386	19.481	103.169	-33.155	13.440	19.116	0.00066152	0.00028596	8.6335e-05	984.94	2.0833e-06	2.5216e-06	1076.6	211.4	6.6028e-06	2.6839e-06	263.75	73.249	58.265	16.884	9.1429e-07	23.465	6.2067e-05	5.0021e-05	1.3861e-05	956.14	5.6795e-07	5.4173e-07	1045.4	206.56	5.5553e-07	5.3468e-07	255.69	71.935	56.757	16.589	5.3684e-07	23.03	47.450	-128.657	-62.946	-158.252	-21.901	-60.880	-158.508	-150.706	-98.191	-5.684	-151.004	-144.449	-144.538	-136.824	-38.813	-137.605	-8191	255	
2003.635	1	1	0	0	0.22275	0.21052	0.13009	0.36323	0.12557	0.21806	0.23428	0.22505	0.21165	0.048605	0.081025	0.11387	0.17891	0.15835	0.35656	0.034444	-0.42083	-0.85625	-0.1125	-0.93958	-0.76667	-0.19167	-1.2812	-0.3875	-0.40833	-0.9625	-0.15	-0.86458	-0.94583	-0.19792	-1.0729	-0.32708	148.854	-38.670	143.107	146.579	-161.757	-103.400	-14.357	165.747	-40.250	84.961	113.383	-141.990	179.909	37.982	-148.365	12.735	0.00060819	0.00013211	5.6626e-05	988.81	2.421e-06	2.8997e-06	1078.8	212.16	5.6932e-06	1.0817e-06	262.98	73.468	58.656	16.795	5.043e-06	23.347	5.9596e-05	4.9737e-05	1.4006e-05	957.69	5.6846e-07	5.4867e-07	1044.5	206.16	5.7344e-07	5.2128e-07	255.05	71.805	56.961	16.544	5.3359e-07	23.031	37.763	-99.293	-79.787	-158.261	-24.861	-33.494	-158.380	-151.174	-81.602	-6.445	-151.180	-144.723	-144.039	-136.435	-84.983	-137.784	-8191	255	
2003.753	1	1	0	0	0.091725	0.26033	0.17678	0.069713	0.29084	0.13645	0.093003	0.039302	0.1082	0.11596	0.081983	0.27373	0.19771	0.27093	0.058987	0.052004	-0.13333	-1.0708	-0.29167	-0.84375	-0.95208	-0.18125	-1.1375	-0.70833	-0.42708	-1.2792	-0.36875	-0.70208	-1.125	-0.22917	-1.05	-0.47292	-86.821	-148.422	168.879	-111.708	-33.671	-31.726	154.110	-20.623	31.857	40.016	109.378	98.226	184.525	-73.949	178.719	87.434	0.00072413	0.00022125	4.5869e-05	984.94	2.0894e-06	2.4079e-06	1072.7	211.41	1.5921e-06	2.1991e-06	262.07	73.319	58.507	16.789	8.6403e-07	23.381	6.0234e-05	4.7733e-05	1.3528e-05	959.02	5.6388e-07	5.427e-07	1045.5	206.2	5.6542e-07	5.3356e-07	255.6	71.721	56.748	16.551	5.5717e-07	23.041	41.714	-115.752	-80.902	-158.358	-47.755	-83.738	-158.132	-151.153	-91.539	45.300	-151.312	-144.479	-144.407	-137.084	-80.649	-138.066	-8191	255	
2003.850	1	1	0	0	0.16769	0.28651	0.418	0.18657	0.14073	0.14164	0.039787	0.22128	0.22888	0.20867	0.51572	0.13295	0.26713	0.12507	0.28984	0.11818	0.13542	-1.1208	-0.1125	-0.6	-1.0979	-0.14792	-1.2083	-0.71667	-0.19167	-1.0792	-0.26667	-0.6125	-0.98125	-0.13125	-0.84375	-0.59792	185.353	20.456	-4.269	110.838	-133.680	-28.983	-0.165	178.877	-86.485	54.248	186.808	122.632	-46.547	-27.868	-165.267	-165.114	0.00069059	0.00029076	4.1291e-05	982.26	1.8081e-06	2.7582e-06	1075.7	211.35	3.2132e-06	1.9997e-06	263.9	74.203	58.896	16.674	7.004e-06	23.4	6.3659e-05	4.8616e-05	1.3665e-05	955.73	5.4901e-07	5.5088e-07	1046.1	206.61	5.9418e-07	5.2534e-07	256.34	71.911	56.908	16.54	5.5386e-07	23.07	38.958	-132.229	-127.685	-158.590	-32.138	-16.144	-158.508	-151.150	-112.273	-14.790	-150.964	-145.024	-144.465	-136.935	-52.893	-137.532	-8191	255	
2003.923	1	1	0	0	0.12839	0.10736	0.30997	0.29948	0.33791	0.031593	0.34089	0.10353	0.086556	0.05298	0.21935	0.076302	0.070334	0.17935	0.068379	0.22987	0.14583	-1.0104	-0.25	-0.79375	-0.91042	-0.0875	-1.0083	-0.875	-0.1375	-1.1437	-0.44792	-0.48333	-1.1125	-0.25208	-1.0729	-0.84375	143.367	-35.013	-159.548	87.919	-144.816	-17.131	102.367	-151.337	60.220	128.788	-42.567	5.825	168.167	95.303	-104.169	-27.681	0.00068063	2.5771e-05	8.6701e-05	988.59	2.7525e-06	3.6429e-06	1076	211.52	6.5844e-06	2.3959e-06	263.21	73.448	58.157	16.837	3.4964e-06	23.568	6.1299e-05	4.9368e-05	1.41e-05	958.45	5.6493e-07	5.4903e-07	1045.8	206.18	5.9997e-07	5.4935e-07	255.64	71.873	56.646	16.589	5.6165e-07	23.033	48.002	-165.551	-105.386	-158.202	-25.258	-37.738	-158.374	-151.165	-141.285	22.681	-151.677	-144.556	-144.363	-136.944	-81.486	-137.795	-8191	255	
2004.019	1	1	0	0	0.34418	0.25933	0.10418	0.1215	0.093232	0.071632	0.10958	0.12469	0.14434	0.17724	0.1758	0.20646	0.090941	0.11923	0.088225	0.086188	0.13125	-0.92708	-0.51042	-0.22083	-1.1083	-0.30625	-0.85833	-0.85833	-0.14792	-1.0167	-0.50833	-0.31458	-1.0917	-0.40208	-0.74792	-1.0104	-33.010	115.592	-5.994	-163.517	9.671	-116.905	117.685	-28.605	-19.393	-159.476	-42.961	-113.797	170.717	130.826	59.582	104.034	0.00069813	5.1328e-05	8.7376e-05	988.78	3.102e-06	1.3155e-06	1068.1	211.36	6.97e-06	1.2599e-06	263.67	73.519	58.235	16.827	3.8904e-06	23.336	6.178e-05	4.9236e-05	1.4478e-05	959.04	5.7408e-07	5.482e-07	1044.5	205.89	5.8325e-07	5.2197e-07	255.58	71.943	56.759	16.607	5.4838e-07	23	49.951	2.689	-65.361	-158.339	-61.462	-23.529	-158.495	-150.845	-87.286	-33.160	-151.634	-144.567	-144.198	-136.991	-78.849	-137.626	-8191	255	
2004.138	1	1	0	0	0.1072	0.16529	0.18089	0.16725	0.16119	0.34233	0.30415	0.39529	0.30095	0.28513	0.055847	0.042832	0.20494	0.24257	0.18118	0.053478	0.29375	-0.72292	-0.7625	-0.3625	-1.0042	-0.20625	-0.56042	-1.1271	-0.29583	-0.77083	-0.89583	-0.18542	-1.0938	-0.49583	-0.59167	-1.3021	-46.437	61.848	-54.812	-139.051	111.695	-76.250	124.928	-157.552	-40.848	-156.506	148.157	58.847	-18.269	-103.747	8.997	-73.800	0.00076671	0.00022741	7.2633e-05	987.51	1.8531e-06	2.4487e-06	1074.5	211.16	4.5946e-06	2.3349e-06	262.94	73.794	58.571	16.792	2.3313e-06	23.254	6.4415e-05	4.7535e-05	1.3939e-05	957.7	5.6043e-07	5.461e-07	1044.8	206.35	5.6617e-07	5.4729e-07	255.2	71.807	56.833	16.564	5.6201e-07	22.988	41.663	-93.748	-47.984	-158.338	-51.914	-14.695	-158.537	-150.886	-127.781	-72.822	-151.292	-144.449	-144.552	-136.890	-41.933	-137.537	-8191	255	
2004.234	1	1	0	0	0.27431	0.16262	0.29698	0.21754	0.59848	0.32045	0.28472	0.13527	0.29323	0.21192	0.33699	0.11985	0.18632	0.3349	0.28978	0.25999	0.066667	-0.89167	-0.75625	-0.089583	-1.2479	-0.44167	-0.78958	-1.2854	-0.40625	-0.75208	-0.94792	-0.30417	-1.2333	-0.45	-0.43333	-1.125	-79.374	76.715	148.672	-144.370	116.517	88.325	190.739	186.984	110.924	-3.636	171.702	93.559	156.195	30.622	72.960	107.440	0.00074506	0.00028079	3.0643e-05	988.67	6.488e-07	1.0172e-06	1076.9	210.93	3.1488e-06	2.0604e-06	265.45	73.67	58.462	16.852	1.5122e-06	23.632	6.2769e-05	4.9038e-05	1.3527e-05	956.84	5.5441e-07	5.5901e-07	1045	206.31	5.6776e-07	5.4341e-07	256.13	71.959	56.918	16.604	5.6399e-07	23.068	41.799	-100.790	-52.356	-157.790	-31.548	-56.042	-157.587	-150.410	-113.041	24.294	-151.030	-143.996	-143.258	-136.339	-105.419	-137.589	-8191	255	
2004.330	1	1	0	0	0.13895	0.35138	0.15318	0.24827	0.28769	0.068219	0.16497	0.091149	0.14095	0.19373	0.033018	0.026212	0.2695	0.099304	0.087026	0.085229	0.091667	-0.66042	-0.87292	-0.20833	-1.0625	-0.70625	-0.5125	-1.1771	-0.175	-0.7	-1.1125	-0.21458	-0.83958	-0.875	-0.2	-1.1146	58.424	-46.583	79.698	132.113	-20.632	67.334	-65.419	-31.703	-46.135	-78.785	-132.306	-155.255	155.470	-72.439	16.632	176.702	0.00076988	0.00038576	6.4189e-05	990.11	3.866e-06	3.3322e-06	1072.3	211.3	2.1731e-06	1.5827e-06	261.59	73.668	58.608	16.934	3.8692e-06	23.346	6.4134e-05	4.9483e-05	1.3372e-05	959.04	5.6338e-07	5.3525e-07	1045.1	206.42	5.9062e-07	5.5551e-07	255.63	71.935	56.876	16.583	5.522e-07	23.039	36.092	-142.294	5.262	-158.219	-132.629	-60.373	-158.206	-150.408	-87.768	-6.245	-150.737	-144.160	-143.468	-136.056	-37.609	-136.657	-8191	255	
2004.451	1	1	0	0	0.031577	0.076914	0.11177	0.26009	0.30059	0.25188	0.11895	0.20762	0.10105	0.1249	0.37724	0.041102	0.15263	0.1626	0.10885	0.23695	0.0041667	-0.44167	-1.15	-0.097917	-0.85417	-0.88333	-0.29375	-1.1729	-0.49792	-0.56042	-1.2687	-0.10208	-0.93542	-0.79375	-0.23333	-1.3813	152.831	-124.221	93.831	172.717	76.531	97.266	179.844	-81.806	65.764	-49.467	157.953	-121.514	68.919	3.970	131.069	60.278	0.00072328	0.00022488	6.0681e-05	986.54	2.6019e-06	2.3888e-06	1071.8	211.35	4.1766e-06	1.866e-06	264.54	73.831	58.602	16.696	2.3929e-06	23.311	5.9723e-05	4.9688e-05	1.4036e-05	959.41	5.561e-07	5.3695e-07	1043.4	206.14	5.6333e-07	5.4703e-07	256.24	71.927	56.823	16.584	5.558e-07	23.007	38.106	-102.477	-83.091	-157.486	-46.282	-0.581	-157.703	-150.184	-134.620	4.100	-150.616	-143.768	-143.402	-135.380	-61.518	-137.081	-8191	255	
2004.523	1	1	0	0	0.17625	0.28529	0.14547	0.23567	0.2526	0.21434	0.042306	0.11707	0.13048	0.15276	0.11752	0.22697	0.2739	0.25067	0.12209	0.11427	-0.0041667	-0.58542	-1.0521	-0.39792	-0.82708	-0.90833	-0.33333	-1.0208	-0.73333	-0.40625	-0.90625	-0.45	-0.54792	-0.92292	-0.33125	-0.83125	167.590	85.170	-78.591	188.975	53.349	-4.666	-13.965	151.865	-136.819	125.551	-27.397	-33.540	-127.599	103.409	39.367	183.437	0.000657	0.00031451	5.2595e-05	988.48	1.916e-06	1.3505e-06	1069.6	211.74	3.5934e-06	1.9362e-07	264.58	73.695	58.818	16.793	2.1156e-06	23.247	5.9287e-05	4.8583e-05	1.3049e-05	957.06	5.5816e-07	5.308e-07	1043.6	206.5	5.734e-07	5.4124e-07	256.87	71.857	56.892	16.577	5.3175e-07	22.998	48.533	-127.714	-86.868	-157.502	-56.731	-12.173	-158.551	-150.766	-125.844	25.657	-151.335	-144.685	-144.462	-136.758	-76.129	-137.727	-8191	255	
2004.619	1	1	0	0	0.15948	0.11479	0.29348	0.45903	0.21643	0.065755	0.060994	0.20032	0.22532	0.041831	0.33403	0.12342	0.015841	0.30657	0.1944	0.15022	-0.17292	-0.089583	-1.2	-0.24792	-0.74792	-0.8875	-0.525	-1.1562	-0.425	-0.25417	-1.0562	-0.38125	-0.47292	-1.0667	-0.064583	-1.1208	-75.382	-115.838	-66.895	136.950	183.008	-22.046	169.353	93.683	-147.541	-81.205	-130.450	80.629	118.726	107.285	61.173	109.173	0.00079541	0.00020598	6.1693e-05	984.97	2.6789e-06	3.0482e-06	1073.2	211.36	5.2832e-06	3.9134e-06	264.17	73.635	58.651	16.866	1.543e-06	23.425	6.0282e-05	4.9302e-05	1.3297e-05	955.5	5.5661e-07	5.3554e-07	1044.9	206.22	5.4618e-07	5.3975e-07	255.89	72.001	56.916	16.592	5.641e-07	23.13	36.127	-92.488	-43.706	-158.203	-32.870	-32.490	-158.194	-150.368	-128.769	-25.144	-151.270	-144.294	-143.846	-136.239	-63.150	-137.511	-8191	255	
2004.739	1	1	0	0	0.11056	0.27291	0.21577	0.25479	0.11821	0.084278	0.1262	0.30699	0.16146	0.14118	0.13757	0.13836	0.22317	0.098314	0.094297	0.16431	-0.35208	-0.17292	-0.8125	-0.53542	-0.40417	-1.0854	-0.30625	-0.91667	-0.98333	-0.070833	-1.2167	-0.60417	-0.50208	-1.0771	-0.28958	-0.97083	84.404	-35.385	68.870	-147.269	186.225	70.357	-166.523	18.436	107.325	104.345	-149.916	107.854	175.488	-145.513	144.759	144.765	0.00071332	0.00032925	6.0424e-05	989.01	1.6188e-06	7.4847e-07	1075.7	212.17	3.3505e-06	3.4843e-06	263.27	73.492	58.661	16.855	3.5983e-06	23.424	5.9475e-05	4.9358e-05	1.3479e-05	957.55	5.6468e-07	5.2125e-07	1044.3	206.88	5.597e-07	5.3204e-07	255.94	71.861	56.816	16.582	5.417e-07	23.019	42.258	-75.084	-62.045	-157.674	-67.740	-44.566	-157.937	-150.106	-123.059	-29.511	-150.785	-143.987	-143.646	-136.194	-86.693	-136.336	-8191	255	
2004.834	1	1	0	0	0.41021	0.045667	0.29414	0.31269	0.14261	0.35618	0.37321	0.18503	0.16408	0.21565	0.046395	0.085597	0.1373	0.23575	0.19287	0.059044	-0.48333	-0.20208	-0.95417	-0.51875	-0.34583	-1.1667	-0.4375	-0.67708	-0.84792	-0.38333	-1.0333	-0.775	-0.2	-1.0208	-0.13958	-0.60417	61.223	111.553	103.072	146.224	-74.020	4.459	118.701	82.876	23.901	109.076	-133.405	144.393	-5.093	117.438	106.553	-159.338	0.00065839	0.0003696	6.3941e-05	984.78	2.0661e-06	1.1575e-06	1072.6	211.25	5.0661e-06	2.3494e-06	263.2	73.23	58.676	16.733	2.851e-06	23.572	5.9618e-05	5.0067e-05	1.3453e-05	956.98	5.6194e-07	5.3192e-07	1043	206.17	5.391e-07	5.4175e-07	255.91	71.758	57.001	16.547	5.5115e-07	23.05	47.619	-92.459	-16.400	-157.561	-82.483	-30.270	-157.739	-149.926	-91.812	-12.802	-150.433	-144.013	-143.170	-135.858	-57.106	-136.541	-8191	255	
2004.930	1	1	0	0	0.1562	0.30207	0.21629	0.29333	0.12825	0.035165	0.31094	0.32266	0.19122	0.28061	0.38915	0.24457	0.10948	0.21883	0.26173	0.065087	-0.55625	-0.11042	-0.82292	-0.83542	-0.17708	-1.1125	-0.58125	-0.53333	-1.0021	-0.31875	-0.80417	-0.85833	-0.070833	-1.1437	-0.37708	-0.43333	-112.481	-26.495	-159.743	115.748	159.323	-94.814	142.070	137.210	-121.472	-114.003	67.236	-21.059	-161.203	-126.309	-151.125	-87.069	0.00079893	0.00037154	8.2623e-05	983.96	2.5337e-06	2.58e-06	1070.4	210.73	5.2223e-06	2.6661e-06	265.39	73.442	58.413	16.75	3.8731e-06	23.518	6.171e-05	4.9371e-05	1.3488e-05	956.97	5.7199e-07	5.3417e-07	1044	205.72	5.6132e-07	5.3447e-07	256.38	71.957	56.92	16.564	5.5598e-07	23.067	37.051	-121.467	-71.920	-157.549	-39.804	-37.932	-157.660	-150.694	-114.782	-25.765	-151.555	-144.723	-144.146	-137.038	-60.725	-137.940	-8191	255	
2005.051	1	1	0	0	0.22416	0.11634	0.10719	0.21452	0.15292	0.053607	0.11916	0.15492	0.013973	0.11044	0.35121	0.15086	0.27471	0.16231	0.12457	0.2306	-0.62083	-0.058333	-0.675	-0.86667	0.064583	-1.1958	-0.6	-0.49375	-0.80625	-0.3	-0.78958	-0.87083	0.0020833	-1.0438	-0.31458	-0.29792	-114.314	-124.952	65.308	176.452	-77.692	133.437	-76.919	95.164	-138.574	-42.247	-35.909	-14.150	-123.739	59.229	-60.705	162.821	0.00075818	0.00018818	9.0751e-05	988.16	2.3885e-06	1.6781e-06	1072.6	211.13	5.3504e-06	2.5084e-06	262.73	73.321	58.808	16.869	2.2123e-06	23.241	5.9778e-05	4.918e-05	1.3441e-05	958.3	5.8445e-07	5.2397e-07	1043.5	206.25	5.588e-07	5.4037e-07	255.95	71.75	56.868	16.593	5.5169e-07	22.973	39.312	-101.531	-41.657	-158.465	-29.229	-11.612	-158.441	-150.924	-129.193	-1.418	-151.480	-145.064	-144.181	-136.625	-37.671	-137.641	-8191	255	
2005.122	1	1	0	0	0.13126	0.081921	0.23693	0.24161	0.062127	0.07589	0.14462	0.07163	0.32325	0.29976	0.16547	0.09333	0.13579	0.1143	0.13211	0.091061	-0.64792	-0.097917	-0.41042	-1.1979	-0.12708	-0.99792	-0.9125	-0.32708	-1.2833	-0.070833	-0.65208	-1.1688	-0.21042	-0.92917	-0.69792	-0.14583	63.474	4.423	132.906	97.284	-130.960	-119.246	-84.283	96.048	31.179	8.506	112.527	29.391	-39.769	-43.377	125.541	-102.366	0.00072067	0.00017635	7.5318e-05	985.71	1.103e-06	2.1132e-06	1075.8	212.08	4.3602e-06	3.0913e-06	264.44	73.763	58.185	16.793	1.8102e-06	23.336	5.9028e-05	4.8521e-05	1.3164e-05	957.09	5.6597e-07	5.3851e-07	1045.7	206.59	5.6542e-07	5.5837e-07	256.34	72.028	56.77	16.617	5.3244e-07	23.067	40.260	-142.818	-72.476	-158.128	-22.137	-39.892	-158.823	-150.910	-94.057	-29.130	-151.590	-144.849	-144.308	-136.397	-92.265	-137.471	-8191	255	
2005.218	1	1	0	0	0.4198	0.24543	0.12356	0.045178	0.2455	0.12969	0.28127	0.093621	0.29429	0.15056	0.28584	0.12648	0.092425	0.18249	0.11377	0.10374	-0.81667	-0.44375	-0.54792	-1.1479	-0.12083	-0.77708	-0.90208	-0.09375	-1.0333	-0.24167	-0.52083	-1.0667	-0.18958	-0.68125	-0.88542	-0.24167	106.973	-138.145	-169.018	102.051	-88.754	-6.802	79.550	-28.716	-153.160	140.758	179.401	-93.270	-41.611	52.679	80.494	94.443	0.00063928	0.00021747	8.1489e-05	987.68	3.3431e-06	2.9078e-06	1074.7	212.26	3.0508e-06	3.1019e-06	264.34	73.551	58.54	16.875	4.4798e-06	23.531	6.0199e-05	5.1909e-05	1.3553e-05	957.59	5.8153e-07	5.3558e-07	1044.8	206.49	5.5391e-07	5.3164e-07	256.4	71.903	56.787	16.551	5.3319e-07	23.037	33.736	-133.585	-40.326	-158.649	-69.846	-42.742	-158.410	-151.161	-111.482	8.865	-151.530	-145.079	-144.454	-136.838	-70.673	-137.554	-8191	255	
2005.315	1	1	0	0	0.21122	0.17801	0.13175	0.19363	0.11534	0.18876	0.16956	0.066068	0.20614	0.11302	0.39544	0.03273	0.22197	0.19485	0.10817	0.22282	-0.6875	-0.56458	-0.21667	-1.3188	-0.079167	-0.71042	-1.0146	-0.29792	-0.98542	-0.62708	-0.33542	-1.0333	-0.32708	-0.63958	-1.0083	0.025	44.874	0.250	151.744	138.151	-21.458	91.260	86.230	-87.284	-12.898	-71.367	78.508	-55.270	183.184	138.367	126.961	-27.651	0.00075528	0.00017663	5.3539e-05	989.04	2.9541e-06	1.9778e-06	1071.7	212.08	4.8947e-06	3.4587e-06	263.7	73.426	58.327	16.889	2.4838e-06	23.346	5.891e-05	4.8029e-05	1.4141e-05	958.89	5.5996e-07	5.2791e-07	1044.1	206.52	5.6323e-07	5.5384e-07	256.11	72.043	56.669	16.59	5.3312e-07	23.061	37.563	-53.072	-102.779	-158.387	-44.671	-24.400	-158.454	-150.909	-131.188	3.313	-151.609	-144.701	-144.563	-136.674	-40.945	-137.628	-8191	255	
2005.435	1	1	0	0	0.17534	0.14911	0.099604	0.20864	0.27689	0.050475	0.32869	0.18798	0.15526	0.068046	0.06731	0.14247	0.071093	0.049535	0.12182	0.50101	-0.59375	-0.525	-0.083333	-1.3167	-0.34375	-0.80417	-1.1812	-0.09375	-1.0417	-0.64375	-0.14375	-1.2125	-0.28125	-0.36458	-1.0562	-0.12083	171.737	26.675	-96.709	172.127	96.305	-78.093	95.236	125.128	-97.170	-97.378	162.112	9.387	118.942	-83.486	-150.014	106.079	0.00073933	0.00020842	5.2974e-05	985.69	2.7396e-06	1.6961e-06	1076.4	210.61	2.8925e-06	2.2492e-06	264.71	73.649	58.097	16.922	3.0799e-06	23.395	5.8311e-05	4.9374e-05	1.3857e-05	957.95	5.8236e-07	5.2328e-07	1044.8	206.07	5.7236e-07	5.2646e-07	256.53	71.905	56.67	16.634	5.4434e-07	23.033	44.583	-140.031	-62.132	-158.407	-77.661	-51.026	-158.913	-150.906	-112.810	-2.953	-151.684	-145.241	-144.499	-136.685	-122.752	-137.799	-8191	255	
2005.531	1	1	0	0	0.11195	0.28444	0.1904	0.026711	0.29976	0.11624	0.2434	0.087331	0.17663	0.41446	0.20724	0.11684	0.15318	0.055114	0.21104	0.13399	-0.40625	-0.75833	-0.18125	-1.2146	-0.49792	-0.29375	-1.2917	-0.32917	-0.64583	-0.81458	-0.34167	-1.1729	-0.45833	-0.43333	-1.0812	-0.12708	-119.173	26.044	-69.442	156.312	-105.252	-44.663	-88.903	18.258	-159.715	163.603	170.384	48.910	-88.481	-53.673	84.935	50.276	0.00059702	0.00010904	6.1291e-05	983.31	3.4506e-06	1.1781e-06	1073	211.22	3.004e-06	3.336e-06	264.57	73.616	58.178	16.944	2.9591e-06	23.214	5.9076e-05	4.8824e-05	1.3826e-05	956.16	5.685e-07	5.4277e-07	1043.8	206.06	5.7477e-07	5.4378e-07	255.86	71.876	56.825	16.574	5.3579e-07	22.963	37.270	-153.448	-0.407	-158.401	-88.932	-49.603	-158.775	-150.993	-103.322	-8.210	-151.533	-145.044	-144.575	-136.857	-68.692	-137.606	-8191	255	
2005.627	1	1	0	0	0.11274	0.13973	0.23606	0.2474	0.18872	0.26808	0.16701	0.1733	0.12588	0.11104	0.30459	0.19119	0.20437	0.16405	0.27191	0.16849	-0.28542	-0.87083	-0.19792	-0.96667	-0.36042	-0.26458	-1.3083	-0.31667	-0.51875	-0.975	-0.16875	-0.95	-0.83958	-0.20417	-1.3062	-0.18542	154.192	97.831	22.287	-127.354	-50.421	-69.614	173.491	-161.753	-89.176	184.616	-133.659	-117.735	-154.375	-160.590	-138.298	27.840	0.00070351	0.00020492	4.6678e-06	985.76	3.0481e-06	2.5265e-06	1073.1	211.85	4.3287e-06	8.0867e-07	262.54	73.075	58.305	16.869	3.2546e-06	23.456	6.0406e-05	4.6876e-05	1.4129e-05	957.05	5.5308e-07	5.3731e-07	1045.9	205.94	5.7527e-07	5.3994e-07	255.55	71.729	56.706	16.586	5.4124e-07	23.06	38.018	-82.050	173.894	-158.365	-73.131	-17.315	-158.527	-151.302	-114.834	-60.648	-151.586	-144.934	-144.162	-136.941	-30.937	-137.091	-8191	255	
2005.724	1	1	0	0	0.083501	0.22095	0.25698	0.42714	0.22685	0.3654	0.34074	0.20869	0.20301	0.081115	0.084858	0.22111	0.22105	0.26988	0.22397	0.12258	-0.15833	-1.0562	-0.13958	-1.0312	-0.66875	-0.35417	-1.1187	-0.49375	-0.30625	-1.125	-0.2375	-0.925	-0.75208	-0.26042	-0.94375	-0.58958	-102.473	172.814	6.203	-156.133	140.935	148.747	154.228	151.732	46.383	115.680	183.278	-60.210	-144.264	87.903	-65.979	178.550	0.00077179	0.00016033	6.2116e-05	985.67	2.2397e-06	1.2713e-06	1073.5	210.72	4.2781e-06	1.1828e-06	264.52	73.455	58.6	16.837	3.166e-06	23.216	6.2039e-05	4.95e-05	1.3896e-05	956.65	5.7127e-07	5.5341e-07	1044.9	206.24	5.6628e-07	5.1172e-07	256.26	71.764	56.681	16.547	5.2696e-07	22.955	38.231	-77.551	-45.926	-158.354	-58.526	-53.570	-158.593	-150.984	-95.035	-46.652	-151.683	-144.913	-144.387	-136.924	-57.545	-137.829	-8191	255	
2005.820	1	1	0	0	0.24949	0.04232	0.099177	0.12869	0.12522	0.23337	0.024562	0.084159	0.10952	0.091374	0.29516	0.23051	0.11808	0.11513	0.087148	0.039984	-0.03125	-1.1042	0.0020833	-1.0021	-0.88542	-0.27083	-1.1729	-0.58958	-0.23958	-1.2042	-0.25208	-0.64583	-0.79375	-0.22292	-1.1083	-0.69792	131.821	82.401	-18.764	141.041	148.401	15.031	126.318	166.863	-68.619	-122.286	181.675	150.412	151.120	123.563	12.744	36.751	0.00063626	0.00038994	4.4554e-05	982.9	3.6537e-06	9.3544e-07	1074	212.56	5.2412e-06	2.5419e-06	262.52	73.686	58.351	16.834	4.0727e-06	23.462	6.2409e-05	4.8339e-05	1.4055e-05	956	5.5996e-07	5.2585e-07	1044.9	206.47	5.6844e-07	5.3889e-07	255.62	71.887	56.87	16.584	5.4585e-07	23.061	47.935	-96.115	-91.067	-158.541	-43.943	-32.703	-158.628	-151.024	-127.688	-17.079	-152.096	-144.832	-144.676	-137.005	-78.087	-137.816	-8191	255	
2005.914	1	1	0	0	0.17118	0.26194	0.28813	0.44531	0.17004	0.19865	0.26041	0.37678	0.22627	0.13707	0.075175	0.29001	0.074578	0.16664	0.19752	0.16543	0.10417	-0.92292	-0.079167	-0.68542	-0.925	-0.18125	-1.0958	-0.70208	-0.31458	-1.0792	-0.39583	-0.48333	-1.0021	-0.1625	-1.0042	-0.77292	36.689	-18.069	15.462	109.600	142.604	62.842	129.178	177.348	-80.793	-37.770	104.713	186.644	-114.970	-154.647	185.914	-160.916	0.00075104	0.00023184	6.0754e-05	985.78	2.4155e-06	6.1878e-07	1070.7	211.48	3.6027e-06	2.2236e-06	263.65	74.057	58.802	16.741	2.6354e-06	23.493	6.0623e-05	4.8547e-05	1.3364e-05	957.25	5.4397e-07	5.1275e-07	1044.3	206.3	5.5327e-07	5.2936e-07	255.87	72.257	56.882	16.573	5.2912e-07	23.051	42.841	-96.282	-46.551	-158.111	-26.012	-30.038	-158.530	-151.086	-116.531	-24.004	-151.375	-145.159	-144.255	-137.037	-144.894	-137.661	-8191	255	
2006.012	1	1	0	0	0.19416	0.20195	0.21138	0.27808	0.13055	0.11428	0.278	0.18208	0.019037	0.32184	0.16325	0.098627	0.40303	0.23792	0.1723	0.27508	0.37917	-0.98958	-0.17917	-0.63125	-1.1562	-0.045833	-0.83333	-0.91667	0.10417	-1.2188	-0.51667	-0.38542	-1.1104	-0.064583	-0.7375	-0.89375	54.477	-58.544	1.662	-161.542	108.883	102.382	101.756	160.607	180.120	-30.084	183.653	152.579	-107.952	93.998	-80.498	122.365	0.00071957	0.00015309	7.8575e-05	984.99	1.2735e-06	2.4192e-06	1076.3	211.38	5.8857e-06	4.7622e-06	264.44	74.036	58.701	16.97	4.3175e-06	23.323	6.084e-05	4.8313e-05	1.4036e-05	956.94	5.4955e-07	5.3735e-07	1046.1	206.4	5.7383e-07	5.3262e-07	255.81	72.011	56.811	16.596	5.4041e-07	22.995	42.101	-119.261	-70.505	-158.455	-71.987	-63.734	-158.319	-151.531	-105.542	8.326	-151.612	-144.775	-144.216	-136.691	-85.232	-138.278	-8191	255	
2006.131	1	1	0	0	0.2511	0.18012	0.13707	0.33869	0.043294	0.084892	0.15766	0.20935	0.074275	0.22926	0.27187	0.094469	0.032036	0.3363	0.11673	0.086331	0.19167	-1.0083	-0.6375	-0.48542	-0.89167	-0.25833	-0.96042	-0.93333	-0.20417	-1.0208	-0.6375	-0.21458	-1.2354	-0.38125	-0.63542	-0.93542	140.163	-163.710	-151.902	148.191	54.118	-119.815	-35.785	171.806	-119.070	-129.423	-125.189	37.710	118.428	156.457	62.647	150.021	0.00070386	0.00020684	7.1301e-05	985.39	4.2905e-06	1.8957e-06	1075.3	211.99	4.3263e-06	1.6165e-06	264.6	73.918	58.509	16.769	2.0005e-06	23.334	6.1053e-05	4.8761e-05	1.3849e-05	957.04	5.4987e-07	5.2957e-07	1048.3	207.02	5.6265e-07	5.2375e-07	256.34	72	56.943	16.569	5.3125e-07	23.056	36.395	-114.601	-53.372	-158.493	-99.782	-1.719	-158.361	-151.090	-119.237	0.863	-151.579	-144.713	-144.150	-136.633	-65.249	-138.056	-8191	255	
2006.227	1	1	0	0	0.11399	0.13796	0.2264	0.18989	0.055827	0.23201	0.11816	0.081418	0.10022	0.30093	0.070293	0.042288	0.12125	0.11094	0.16169	0.18431	0.24583	-0.7875	-0.58333	-0.26667	-1.0187	-0.17708	-0.67917	-0.96875	-0.20625	-0.80417	-0.86458	-0.3875	-1.1729	-0.54583	-0.3875	-1.2458	185.993	-53.257	27.689	-160.950	52.940	-93.436	68.926	123.583	-162.553	76.500	-66.248	-28.057	100.583	-22.047	103.072	71.810	0.00075231	0.0002468	6.1105e-05	983.26	2.3762e-06	2.3304e-06	1074.2	212.01	2.1813e-06	1.6544e-06	262.73	73.841	58.605	16.805	3.3066e-06	23.36	6.0811e-05	4.7907e-05	1.341e-05	957	5.7512e-07	5.4447e-07	1046	206.16	5.5294e-07	5.4461e-07	255.67	71.87	56.777	16.571	5.615e-07	23.023	41.360	-90.151	-92.652	-158.411	-74.272	-82.514	-158.521	-151.352	-112.676	6.275	-151.602	-145.163	-144.732	-137.306	-56.038	-137.764	-8191	255	
2006.323	1	1	0	0	0.18916	0.23169	0.044296	0.044566	0.14304	0.088117	0.33278	0.077161	0.21825	0.11461	0.30128	0.11293	0.13131	0.1238	0.097499	0.28551	0.085417	-0.74583	-0.81667	-0.33542	-1.125	-0.60833	-0.23542	-1.2125	-0.09375	-0.71042	-0.975	-0.15417	-0.81875	-0.5375	0.039583	-1.1333	177.861	-52.945	60.046	144.047	22.192	118.055	139.370	85.996	172.703	-23.418	152.856	105.459	35.160	-145.145	-101.220	144.160	0.00073749	0.00025508	7.166e-05	987.19	1.2178e-06	2.6867e-06	1073	211.34	4.7926e-06	2.4649e-06	262.52	73.726	58.221	16.748	2.2182e-06	23.24	6.0974e-05	4.7182e-05	1.3894e-05	955.99	5.5178e-07	5.4238e-07	1043.2	206.21	5.5923e-07	5.2621e-07	255.33	71.981	56.792	16.55	5.5598e-07	22.974	39.382	-103.412	-62.153	-158.356	-133.073	-91.692	-158.576	-151.272	-107.989	-10.025	-151.578	-145.015	-144.087	-137.115	-86.947	-137.894	-8191	255	
#DATA ENDS
