BOXY.EXE: ISS Imagent and Oximeter Data Acquisition Program Version 0.80
Ascii Record File

#ACQ INFORMATION
2  Detector Channels 
16  External MUX Channels 
1  Auxiliary Channels 
5000  Waveform (CCF) Frequency (Hz)
1  Waveforms Skipped 
30  Waveforms Averaged 
1  Cycles Averaged 
16  Acquisitions per Waveform 
10.0806  Updata Rate (Hz) 

#FILE INFORMATION
TRUE -- External MUX Channel results are PARSED.
FALSE -- AC DC and Phase are NOT grouped.
TRUE -- Companion Program Settings File CREATED.
FALSE -- AC data not excluded
FALSE -- DC data not excluded
FALSE -- Phase data not excluded
FALSE -- Auxillary Chn. data not excluded
Tab delimiters

#CALIBRATION STATE
TRUE -- Waveform Calibration Values APPLIED.


#AUX CALIBRATION VALUES
Val Type	aux-1	

Term	1.0000e+00	
Factor	0.0000e+00	


#WF CALIBRATION VALUES
A = Detector Channel
Val Type	A-AC1	A-AC2	A-AC3	A-AC4	A-AC5	A-AC6	A-AC7	A-AC8	A-AC9	A-AC10	A-AC11	A-AC12	A-AC13	A-AC14	A-AC15	A-AC16	A-DC1	A-DC2	A-DC3	A-DC4	A-DC5	A-DC6	A-DC7	A-DC8	A-DC9	A-DC10	A-DC11	A-DC12	A-DC13	A-DC14	A-DC15	A-DC16	A-Ph1	A-Ph2	A-Ph3	A-Ph4	A-Ph5	A-Ph6	A-Ph7	A-Ph8	A-Ph9	A-Ph10	A-Ph11	A-Ph12	A-Ph13	A-Ph14	A-Ph15	A-Ph16	

Term	0.00000e+00	0.00000e+00	0.00000e+00	0.00000e+00	0.00000e+00	0.00000e+00	0.00000e+00	0.00000e+00	0.00000e+00	0.00000e+00	0.00000e+00	0.00000e+00	0.00000e+00	0.00000e+00	0.00000e+00	0.00000e+00	0.00000e+00	0.00000e+00	0.00000e+00	0.00000e+00	0.00000e+00	0.00000e+00	0.00000e+00	0.00000e+00	0.00000e+00	0.00000e+00	0.00000e+00	0.00000e+00	0.00000e+00	0.00000e+00	0.00000e+00	0.00000e+00	0.00000e+00	0.00000e+00	0.00000e+00	0.00000e+00	0.00000e+00	0.00000e+00	0.00000e+00	0.00000e+00	0.00000e+00	0.00000e+00	0.00000e+00	0.00000e+00	0.00000e+00	0.00000e+00	0.00000e+00	0.00000e+00	
Factor	1.00000e+00	1.00000e+00	1.00000e+00	1.00000e+00	1.00000e+00	1.00000e+00	1.00000e+00	1.00000e+00	1.00000e+00	1.00000e+00	1.00000e+00	1.00000e+00	1.00000e+00	1.00000e+00	1.00000e+00	1.00000e+00	1.00000e+00	1.00000e+00	1.00000e+00	1.00000e+00	1.00000e+00	1.00000e+00	1.00000e+00	1.00000e+00	1.00000e+00	1.00000e+00	1.00000e+00	1.00000e+00	1.00000e+00	1.00000e+00	1.00000e+00	1.00000e+00	X	X	X	X	X	X	X	X	X	X	X	X	X	X	X	X	

B = Detector Channel
Val Type	B-AC1	B-AC2	B-AC3	B-AC4	B-AC5	B-AC6	B-AC7	B-AC8	B-AC9	B-AC10	B-AC11	B-AC12	B-AC13	B-AC14	B-AC15	B-AC16	B-DC1	B-DC2	B-DC3	B-DC4	B-DC5	B-DC6	B-DC7	B-DC8	B-DC9	B-DC10	B-DC11	B-DC12	B-DC13	B-DC14	B-DC15	B-DC16	B-Ph1	B-Ph2	B-Ph3	B-Ph4	B-Ph5	B-Ph6	B-Ph7	B-Ph8	B-Ph9	B-Ph10	B-Ph11	B-Ph12	B-Ph13	B-Ph14	B-Ph15	B-Ph16	

Term	0.00000e+00	0.00000e+00	0.00000e+00	0.00000e+00	0.00000e+00	0.00000e+00	0.00000e+00	0.00000e+00	0.00000e+00	0.00000e+00	0.00000e+00	0.00000e+00	0.00000e+00	0.00000e+00	0.00000e+00	0.00000e+00	0.00000e+00	0.00000e+00	0.00000e+00	0.00000e+00	0.00000e+00	0.00000e+00	0.00000e+00	0.00000e+00	0.00000e+00	0.00000e+00	0.00000e+00	0.00000e+00	0.00000e+00	0.00000e+00	0.00000e+00	0.00000e+00	6.90162e+01	-1.56128e+02	-1.16186e+02	-1.81639e+02	-7.96074e+01	-9.11058e+01	-1.56882e+02	-1.62015e+02	-1.33922e+02	-6.75792e+01	-1.72122e+02	-1.69516e+02	-1.85555e+02	-1.76516e+02	-9.85877e+01	-1.49146e+02	
Factor	6.21861e-05	1.15743e-04	3.18327e-05	1.64936e-01	1.44916e-06	1.20847e-06	1.76422e-01	5.14978e-02	1.99006e-06	1.27802e-06	8.81120e-02	2.83650e-02	2.55766e-02	8.90638e-03	1.90026e-06	1.25959e-02	1.53080e-06	1.58230e-06	4.40569e-07	8.63224e-02	1.72893e-08	1.73607e-08	8.67342e-02	2.69960e-02	1.72581e-08	1.73857e-08	4.42118e-02	1.42717e-02	1.32884e-02	4.65608e-03	1.73092e-08	6.35628e-03	X	X	X	X	X	X	X	X	X	X	X	X	X	X	X	X	



#DISTANCE SETTINGS
A = Detector Channel
A-1	A-2	A-3	A-4	A-5	A-6	A-7	A-8	A-9	A-10	A-11	A-12	A-13	A-14	A-15	A-16	

2.5000e+00	3.0000e+00	2.5000e+00	3.0000e+00	2.0000e+00	3.0000e+00	1.5000e+00	3.0000e+00	3.0000e+00	3.0000e+00	3.0000e+00	3.0000e+00	3.0000e+00	3.0000e+00	1.5000e+00	3.0000e+00	

B = Detector Channel
B-1	B-2	B-3	B-4	B-5	B-6	B-7	B-8	B-9	B-10	B-11	B-12	B-13	B-14	B-15	B-16	

1.0000e+01	1.0000e+01	1.0000e+01	1.4400e+00	1.0000e+01	1.0000e+01	1.5100e+00	1.9400e+00	1.0000e+01	1.0000e+01	1.9900e+00	2.4900e+00	2.4100e+00	2.9000e+00	1.0000e+01	2.9800e+00	




#DATA BEGINS
time	group	step	mark	flag	A-AC1	A-AC2	A-AC3	A-AC4	A-AC5	A-AC6	A-AC7	A-AC8	A-AC9	A-AC10	A-AC11	A-AC12	A-AC13	A-AC14	A-AC15	A-AC16	A-DC1	A-DC2	A-DC3	A-DC4	A-DC5	A-DC6	A-DC7	A-DC8	A-DC9	A-DC10	A-DC11	A-DC12	A-DC13	A-DC14	A-DC15	A-DC16	A-Ph1	A-Ph2	A-Ph3	A-Ph4	A-Ph5	A-Ph6	A-Ph7	A-Ph8	A-Ph9	A-Ph10	A-Ph11	A-Ph12	A-Ph13	A-Ph14	A-Ph15	A-Ph16	B-AC1	B-AC2	B-AC3	B-AC4	B-AC5	B-AC6	B-AC7	B-AC8	B-AC9	B-AC10	B-AC11	B-AC12	B-AC13	B-AC14	B-AC15	B-AC16	B-DC1	B-DC2	B-DC3	B-DC4	B-DC5	B-DC6	B-DC7	B-DC8	B-DC9	B-DC10	B-DC11	B-DC12	B-DC13	B-DC14	B-DC15	B-DC16	B-Ph1	B-Ph2	B-Ph3	B-Ph4	B-Ph5	B-Ph6	B-Ph7	B-Ph8	B-Ph9	B-Ph10	B-Ph11	B-Ph12	B-Ph13	B-Ph14	B-Ph15	B-Ph16	aux-1	digaux	

3436.266	1	1	0	256	0.22589	0.15257	0.12605	0.3928	0.27008	0.16827	0.11153	0.17038	0.050297	0.14992	0.10222	0.17649	0.18973	0.3833	0.15474	0.057012	-0.375	-1.0125	-0.09375	-1.325	-0.55208	-0.325	-1.2583	-0.51458	-0.74375	-1.0333	-0.27292	-1.1792	-0.64792	-0.43542	-1.0146	-0.43542	280.229	189.326	102.845	264.033	289.974	137.747	275.234	278.802	96.655	162.319	-17.533	-10.157	72.579	-48.013	278.878	271.637	0.00026141	0.0011339	6.0518e-05	1243.7	4.769e-06	1.0425e-06	885.59	349.8	1.8966e-05	8.7135e-06	261.45	87.063	111.68	41.91	6.5896e-06	36.595	0.001957	0.0020024	0.00055863	1259.9	2.1904e-05	2.1925e-05	931.26	358.92	2.2e-05	2.2231e-05	295.71	98.52	119.92	44.813	2.2051e-05	41.765	-22.669	10.807	137.508	-48.358	-35.266	219.203	-50.275	-43.858	14.001	139.897	-46.323	-42.161	-39.428	-34.822	83.534	-38.389	-8191	255	
3436.362	1	1	0	0	0.30494	0.31478	0.08973	0.32654	0.17286	0.037076	0.1467	0.13301	0.079222	0.015868	0.30883	0.25649	0.17507	0.13627	0.35855	0.02748	-0.25208	-0.975	0.027083	-1.2563	-0.81667	-0.22083	-1.1021	-0.67917	-0.48542	-1.0688	-0.22708	-0.99375	-0.91667	-0.25208	-1.4125	-0.31875	253.528	229.660	179.577	235.143	88.618	185.695	285.797	87.155	181.257	46.733	103.948	286.853	290.887	-31.342	-7.799	11.142	0.00036512	0.00015279	9.3632e-05	1237.7	8.0697e-06	6.6774e-06	885.38	347.21	2.3631e-05	3.2273e-06	259.42	86.688	111.82	42.142	9.9096e-06	36.226	0.0019723	0.0019862	0.00056346	1262.6	2.2069e-05	2.2051e-05	929.98	357.71	2.1946e-05	2.2271e-05	294.17	97.945	119.38	44.742	2.1946e-05	41.442	30.448	-31.301	232.572	-48.210	104.219	34.395	-49.911	-43.950	-26.561	164.131	-46.162	-41.989	-39.182	-35.336	292.369	-38.372	-8191	255	
3436.458	1	1	0	0	0.156	0.23769	0.2353	0.13352	0.1623	0.2675	0.16971	0.16371	0.075415	0.18851	0.23178	0.028244	0.47823	0.23962	0.45653	0.01947	-0.11875	-0.98125	-0.2625	-0.98333	-0.73542	-0.18125	-1.2229	-0.45	-0.44375	-1.1417	-0.34167	-0.95417	-1.0208	-0.16667	-1.0208	-0.54583	-44.280	-40.527	217.202	-23.211	45.520	269.084	202.860	234.455	210.293	108.635	177.807	265.443	255.584	-56.571	39.711	211.802	0.00053825	0.00045707	0.00028338	1229.6	2.3341e-05	8.3458e-06	876.68	348.73	2.3146e-05	2.1215e-06	259.21	86.684	111.39	41.973	1.2758e-05	36.482	0.0019496	0.0019983	0.00055956	1252.8	2.1929e-05	2.2028e-05	923.49	357.56	2.17e-05	2.2095e-05	293.55	97.96	119.71	44.834	2.1733e-05	41.61	16.097	256.130	8.449	-48.543	78.740	139.594	-50.729	-44.196	-49.565	-55.906	-46.514	-42.304	-39.504	-35.416	256.183	-38.896	-8191	255	
3436.579	1	1	0	0	0.21571	0.39459	0.14514	0.22377	0.085812	0.33101	0.22811	0.23279	0.076179	0.18193	0.086011	0.3763	0.27319	0.21574	0.13208	0.20252	0.05625	-1.1437	-0.089583	-0.8125	-0.74792	-0.15	-1.1917	-0.77292	-0.31667	-1.0812	-0.36875	-0.65625	-0.96875	-0.33958	-1.0187	-0.67083	275.705	96.735	245.653	280.407	53.935	221.782	206.616	168.332	-9.255	-47.688	215.016	-26.035	100.741	86.121	255.572	227.075	0.00067645	0.0009089	0.0001931	1233	2.4589e-05	7.7851e-06	872.15	347.72	1.3362e-05	1.6918e-06	259.78	86.391	111.49	42.203	1.4258e-05	36.484	0.0019501	0.0020147	0.00055534	1252.8	2.1972e-05	2.2155e-05	925.6	357.87	2.1885e-05	2.2111e-05	293.55	97.944	119.68	44.946	2.2034e-05	41.744	-8.949	-36.720	24.029	-48.527	125.513	103.255	-50.427	-44.214	-51.560	4.683	-46.796	-42.284	-39.439	-35.307	-15.624	-39.150	-8191	255	
3436.675	1	1	0	0	0.11776	0.21609	0.18091	0.11909	0.23756	0.10184	0.0837	0.24253	0.047194	0.14241	0.23508	0.097212	0.18666	0.32074	0.15675	0.011383	0.225	-1.25	-0.31458	-0.65833	-0.92708	-0.16667	-1.0542	-0.85208	-0.20833	-1.0729	-0.36042	-0.5875	-1.1604	-0.34167	-0.91042	-0.93125	107.951	-30.581	4.170	-36.654	-60.013	6.764	216.700	-57.418	138.592	69.418	-59.757	238.047	181.890	296.823	150.811	281.054	0.00036408	0.00043157	0.0001822	1228.6	8.4211e-06	8.1569e-06	875.94	347.58	1.6297e-05	1.4386e-05	258.83	87.24	112.48	41.914	1.9099e-05	36.853	0.0019605	0.002017	0.00055821	1252.8	2.1974e-05	2.2096e-05	924.92	357.5	2.2003e-05	2.1888e-05	294.19	98.461	120.14	44.797	2.2012e-05	41.906	264.344	251.252	32.511	-48.573	147.103	-28.813	-49.841	-44.096	-6.315	203.556	-46.799	-41.534	-39.083	-35.427	197.803	-38.782	-8191	255	
3436.771	1	1	0	0	0.15118	0.26697	0.11155	0.3121	0.24432	0.11542	0.07775	0.13156	0.19929	0.23106	0.28398	0.20927	0.1031	0.27219	0.2372	0.096844	0.020833	-0.95	-0.70417	-0.57083	-0.94792	-0.077083	-0.86458	-0.77708	-0.23542	-0.86875	-0.45833	-0.35625	-1.1812	-0.43958	-0.7875	-0.92083	122.342	244.649	240.979	227.602	140.671	108.304	218.010	263.449	-12.837	288.548	-17.589	289.509	278.456	-45.543	140.917	278.893	0.00088819	0.00096422	0.00022752	1225.9	2.3826e-06	9.9016e-06	883.09	348.68	2.0557e-06	1.2504e-05	259.58	85.269	111.7	41.609	4.6652e-06	35.986	0.0019668	0.0020224	0.00056411	1250.4	2.1821e-05	2.2124e-05	930.54	357.32	2.1799e-05	2.215e-05	293.29	97.347	119.11	44.435	2.1956e-05	41.237	-54.818	-43.152	-11.306	-48.449	40.428	47.965	-50.059	-44.347	5.170	36.823	-46.629	-41.844	-39.120	-35.245	-36.457	-38.680	-8191	255	
3436.867	1	1	0	0	0.074587	0.11522	0.35893	0.042424	0.21708	0.073839	0.22488	0.14331	0.3834	0.086673	0.18704	0.28019	0.40137	0.11147	0.21391	0.21524	0.064583	-1.075	-0.75625	-0.45	-1.0812	-0.25	-0.86667	-1.2271	-0.022917	-1.1333	-0.63542	-0.36042	-1.2417	-0.24375	-0.73333	-0.9	125.246	265.289	199.510	211.427	0.947	220.363	-24.916	-47.611	290.813	79.975	200.803	242.091	-28.933	95.494	282.891	189.906	0.0009523	0.00035274	0.00011388	1229.8	1.0178e-05	5.328e-06	879.14	345.19	2.8111e-05	2.7848e-05	256.02	85.222	110.73	40.968	2.25e-05	35.667	0.0019652	0.0019968	0.00055546	1247.3	2.1789e-05	2.1879e-05	920.17	354.3	2.1815e-05	2.19e-05	290.25	96.259	117.96	43.811	2.1735e-05	40.692	39.383	295.609	238.635	-48.471	132.847	268.444	-49.571	-43.876	89.012	176.107	-47.068	-41.861	-39.447	-35.296	204.657	-38.917	-8191	255	
3436.962	1	1	0	0	0.2207	0.18782	0.10905	0.13963	0.25293	0.10771	0.18418	0.2189	0.28372	0.12673	0.24883	0.17245	0.20539	0.1478	0.19203	0.16658	0.041667	-0.94583	-0.5125	-0.50625	-1.0021	-0.375	-0.74375	-1.2167	-0.175	-1	-0.89792	-0.35208	-1.1604	-0.69583	-0.5375	-1.2875	172.538	226.618	290.477	228.515	223.894	259.067	236.898	221.793	268.919	121.331	162.004	164.075	-31.373	292.962	166.877	-47.260	0.00037022	0.00047809	0.00024239	1221.8	7.4473e-06	2.2046e-05	877.17	343.37	1.773e-05	1.4039e-05	256.8	84.32	108.84	40.649	1.596e-05	35.316	0.0019426	0.0019881	0.00055634	1245	2.1932e-05	2.2022e-05	920.97	353.19	2.1837e-05	2.2019e-05	290.88	96.139	117.49	43.661	2.1773e-05	40.646	-28.192	18.606	156.829	-48.598	95.950	53.654	-50.299	-44.423	-5.188	218.341	-46.302	-42.117	-39.179	-35.134	24.816	-38.942	-8191	255	
3437.060	1	1	0	0	0.15223	0.12515	0.076143	0.11192	0.17019	0.28476	0.072266	0.28181	0.17089	0.12294	0.20643	0.14259	0.37391	0.15387	0.30685	0.059093	0.025	-0.80833	-0.88958	-0.40833	-1.0063	-0.60208	-0.54792	-1.1583	-0.18542	-0.64167	-0.99167	-0.11667	-1.1333	-0.64583	-0.30625	-1.2417	115.782	76.540	174.956	257.364	145.957	264.482	47.002	237.127	136.668	27.251	-54.924	252.840	170.457	176.817	179.030	270.800	0.00033728	0.00038009	0.0001751	1221.5	1.1607e-05	1.2519e-05	876.72	342.67	2.8365e-05	7.1277e-06	256.17	85.574	109.88	40.895	1.6833e-05	35.84	0.0019516	0.0019961	0.00055676	1245.5	2.1898e-05	2.2118e-05	922.1	353.5	2.1986e-05	2.2206e-05	292.21	96.713	118.06	43.744	2.2157e-05	40.942	76.008	-23.504	-42.366	-48.509	-56.906	45.985	-50.173	-44.059	-14.689	90.139	-46.448	-42.051	-39.453	-35.499	73.969	-38.772	-8191	255	
3437.179	1	1	0	0	0.061018	0.1432	0.35057	0.25919	0.25313	0.19667	0.057897	0.20295	0.12682	0.19979	0.18347	0.21802	0.051475	0.29005	0.13337	0.18745	0.060417	-0.8125	-0.97708	-0.43333	-1	-0.65625	-0.44583	-1.5542	-0.25833	-0.62708	-1.0583	-0.22292	-1.1729	-0.825	-0.2375	-1.2521	-26.694	218.690	116.515	143.092	212.766	295.414	-58.871	213.691	0.812	32.174	244.167	14.843	8.037	-57.531	263.046	285.113	0.00018802	0.00046074	0.0001297	1221.5	6.799e-06	1.3457e-05	879.82	345.45	1.2416e-05	1.01e-05	258.82	85.569	110.65	40.696	1.0679e-05	35.819	0.0019597	0.0020208	0.00056187	1245.1	2.1942e-05	2.2043e-05	927.99	354.93	2.1884e-05	2.2066e-05	293.43	97.197	118.27	43.768	2.1977e-05	40.991	153.849	230.012	31.437	-48.409	111.313	51.992	-50.294	-44.240	-18.617	120.193	-46.355	-42.082	-39.145	-35.070	37.552	-38.801	-8191	255	
3437.275	1	1	0	0	0.062354	0.1606	0.20258	0.19036	0.25572	0.13852	0.1247	0.14996	0.17895	0.10253	0.13131	0.18054	0.25054	0.10463	0.25512	0.10754	-0.2	-0.62708	-1.1604	-0.3375	-1.1	-0.91042	-0.49792	-1.4479	-0.675	-0.32083	-1.1	-0.41667	-0.95208	-0.92292	-0.14375	-1.2208	32.217	294.845	-16.865	-56.898	8.775	55.884	213.182	252.947	159.663	67.654	-57.539	192.458	218.480	241.585	202.645	192.591	0.00039967	0.00097008	0.00024265	1221.6	1.3148e-05	4.9225e-06	881.97	343.52	1.2735e-05	5.7364e-06	256.37	84.911	109.5	40.703	1.0098e-05	35.322	0.0019552	0.0020102	0.00056305	1239.5	2.1817e-05	2.1857e-05	923.98	352.86	2.1877e-05	2.2096e-05	291.09	96.211	117.84	43.692	2.1802e-05	40.518	2.407	82.585	-20.642	-48.623	124.483	25.411	-50.165	-44.266	-46.443	289.327	-46.809	-42.441	-39.359	-35.462	220.712	-38.573	-8191	255	
3437.346	1	1	0	0	0.2487	0.068041	0.32781	0.26595	0.086911	0.36935	0.036291	0.2242	0.23361	0.22441	0.07049	0.26708	0.089863	0.058334	0.17825	0.19379	0.029167	-0.4625	-1.0021	-0.4125	-0.76458	-0.82083	-0.31667	-1.3833	-0.54583	-0.50625	-1.2667	-0.3	-0.89375	-1.0938	-0.09375	-0.99375	293.111	-5.163	207.728	280.609	159.188	4.288	187.194	26.094	186.927	223.838	98.094	280.085	268.536	139.454	73.113	248.022	0.00052835	0.0010677	0.00010571	1217.4	2.2525e-05	1.0312e-05	873.74	344.56	1.3726e-06	1.1551e-05	258.23	85.31	110.39	40.918	2.3618e-06	35.718	0.0019446	0.0019897	0.0005556	1240.3	2.1723e-05	2.1994e-05	920.28	353.84	2.1785e-05	2.1782e-05	292.02	96.64	118.27	43.705	2.1826e-05	40.854	-16.846	78.948	-9.639	-48.497	50.119	70.276	-50.146	-43.919	203.880	38.884	-46.738	-42.460	-39.440	-35.169	190.851	-38.917	-8191	255	
3437.443	1	1	0	0	0.14517	0.3335	0.12682	0.18519	0.29882	0.27715	0.26258	0.096846	0.079456	0.21138	0.043976	0.077474	0.18388	0.36429	0.31847	0.062265	-0.19375	-0.30625	-1.0896	-0.46042	-0.65625	-1.1667	-0.4	-1.0458	-0.6625	-0.40208	-1.2062	-0.48125	-0.71458	-1.1833	-0.033333	-0.97083	-8.496	-0.166	-33.740	-50.144	142.320	40.765	217.269	257.111	176.435	128.327	74.080	163.147	-27.917	-40.299	236.725	63.892	4.0958e-05	0.0012704	0.00029015	1220.1	1.5419e-05	1.2184e-05	876.15	344.32	2.1486e-05	5.6611e-06	259.13	86.009	110.91	41.041	1.9646e-06	35.979	0.0019395	0.0020104	0.00056024	1241.8	2.1778e-05	2.2006e-05	924.37	354.84	2.1814e-05	2.1837e-05	292.86	97.001	118.48	44.014	2.1675e-05	41.134	120.470	-21.020	79.408	-48.743	132.354	-30.899	-50.407	-44.201	265.574	273.000	-46.770	-42.391	-39.193	-35.292	277.256	-38.400	-8191	255	
3437.563	1	1	0	0	0.12247	0.2625	0.21979	0.168	0.13355	0.24441	0.0052942	0.16599	0.41291	0.14455	0.13287	0.29661	0.38082	0.076013	0.052704	0.399	-0.28958	-0.175	-1.1375	-0.5	-0.43542	-1.1458	-0.32708	-1.2313	-0.73542	-0.17917	-1.2458	-0.52708	-0.4875	-1.2708	-0.095833	-0.70625	91.117	138.564	51.158	230.802	256.101	59.846	214.807	295.216	239.527	27.670	30.928	236.685	-61.473	247.988	243.301	235.373	0.00048734	0.00027222	0.00011074	1222.1	9.0044e-06	1.4586e-05	878.47	343.5	5.8285e-06	6.197e-06	256.84	86.23	111.36	41.349	1.9863e-05	36.358	0.0019512	0.002004	0.00055602	1243.4	2.198e-05	2.1841e-05	926.15	354.82	2.1896e-05	2.1886e-05	293.13	97.504	118.88	44.216	2.1921e-05	41.471	-19.243	-37.818	99.660	-48.893	161.397	63.122	-50.274	-44.151	198.482	29.194	-46.540	-42.258	-39.350	-35.421	2.058	-38.690	-8191	255	
3437.659	1	1	0	0	0.093594	0.20119	0.20333	0.25664	0.20173	0.04432	0.27604	0.18947	0.12006	0.11836	0.17697	0.021181	0.14781	0.29469	0.20824	0.1947	-0.52708	-0.13125	-0.95208	-0.725	-0.44583	-1.2917	-0.40833	-0.88542	-0.90208	-0.29792	-1.2375	-0.71458	-0.21458	-1.3396	-0.26875	-0.55	46.982	160.958	-12.670	-1.239	-21.404	230.260	252.419	265.532	215.801	207.916	222.759	216.604	-54.262	284.248	220.506	-19.878	0.00023906	1.6593e-05	0.00033202	1219.2	1.6982e-05	2.9343e-06	880.06	345.41	2.0203e-06	1.3437e-05	257.84	85.621	110.31	41.027	1.2626e-05	35.854	0.0019543	0.0020124	0.00055967	1244	2.1921e-05	2.207e-05	924.8	355.72	2.1827e-05	2.1968e-05	291.98	96.805	118.1	43.879	2.1745e-05	40.956	75.822	136.959	-3.049	-48.731	92.708	274.581	-49.974	-44.055	148.088	165.892	-46.400	-42.256	-39.329	-35.660	29.175	-38.727	-8191	255	
3437.755	1	1	0	0	0.25046	0.13501	0.089148	0.029075	0.16578	0.12123	0.2051	0.14054	0.11463	0.18373	0.20592	0.36611	0.12421	0.20188	0.29442	0.16532	-0.7	-0.23125	-1.0208	-0.63542	-0.31458	-1.0646	-0.62083	-0.69792	-1.0729	-0.035417	-1.0104	-0.72292	-0.40417	-1.2	-0.55	-0.53958	141.066	208.018	60.409	275.775	207.418	-58.140	289.302	238.910	217.176	238.211	-51.268	124.808	-33.712	-19.789	157.869	232.050	0.00024868	0.0012725	0.00014971	1223.9	8.4215e-06	7.6344e-06	868.36	343.59	2.0863e-05	7.0048e-06	257.52	85.019	109.71	40.968	5.9746e-06	35.878	0.001945	0.0020004	0.00055984	1240.3	2.1735e-05	2.1815e-05	916.21	353.38	2.1645e-05	2.183e-05	290.33	96.386	117.95	43.782	2.1751e-05	40.881	233.788	96.534	-21.643	-48.595	58.533	188.805	-50.087	-43.908	-41.011	28.580	-46.524	-42.273	-39.142	-35.758	6.388	-38.933	-8191	255	
3437.852	1	1	0	0	0.26524	0.234	0.031158	0.241	0.19089	0.10522	0.044836	0.093979	0.03836	0.041535	0.17791	0.11276	0.33396	0.34665	0.16409	0.44367	-0.5875	-0.085417	-0.80208	-1.0875	-0.26875	-1.075	-0.51667	-0.47292	-1.0125	-0.2125	-0.67708	-0.87083	-0.36042	-1.1208	-0.62083	-0.35208	-25.839	74.904	11.896	290.775	23.093	-24.159	281.722	114.494	199.178	72.426	-5.208	-49.924	211.848	243.020	70.474	206.881	0.00060632	0.0007141	0.00018536	1222.1	7.2985e-06	3.013e-06	873.84	343.97	5.291e-06	1.7138e-05	257.11	86.116	110.25	41.325	3.0939e-06	36.096	0.0019336	0.0020042	0.00055941	1239.5	2.1748e-05	2.1929e-05	919.26	353.87	2.1892e-05	2.1986e-05	292.11	96.956	117.98	44.058	2.2089e-05	41.111	-27.603	21.065	98.146	-48.549	112.650	80.787	-50.181	-44.149	20.160	77.718	-46.450	-42.220	-39.336	-35.101	-3.021	-38.800	-8191	255	
3437.971	1	1	0	0	0.089921	0.034723	0.24918	0.35616	0.24014	0.31776	0.20055	0.062328	0.081538	0.097911	0.33502	0.23453	0.05543	0.14402	0.3106	0.20316	-0.94167	-0.26667	-0.70417	-0.86458	-0.30208	-0.95625	-0.78958	-0.37917	-1.1542	-0.40625	-0.71042	-1.1938	-0.29167	-1.1979	-0.80625	-0.12292	-14.402	149.734	272.935	-47.295	253.949	-9.939	206.475	176.732	-9.669	145.776	290.873	163.419	18.743	277.766	-41.595	192.489	0.00048314	0.00054525	0.00021366	1213	1.6307e-05	8.1149e-06	876.43	345.24	1.9208e-05	1.329e-05	256.31	85.563	110.24	41.46	1.5513e-05	36.555	0.0019626	0.0020148	0.00055936	1240.8	2.1949e-05	2.2047e-05	922.91	354.45	2.2022e-05	2.2243e-05	293.23	97.491	118.55	44.237	2.2217e-05	41.531	45.685	288.109	290.446	-48.633	-42.010	41.586	-50.114	-44.308	257.338	109.933	-46.445	-42.174	-39.064	-35.447	270.801	-38.741	-8191	255	
3438.042	1	1	0	0	0.25859	0.32187	0.17505	0.19982	0.20426	0.1255	0.11982	0.18353	0.056551	0.16865	0.16101	0.17066	0.2563	0.12465	0.19435	0.14413	-0.71875	-0.3375	-0.66458	-1.2104	-0.18542	-1.0083	-1.0271	-0.17917	-1.1875	-0.46875	-0.50625	-1.1229	-0.25833	-0.96875	-0.775	-0.15	167.924	42.119	250.669	239.207	157.271	-19.653	-14.247	191.332	-3.233	275.861	202.691	162.099	193.783	-14.103	60.607	254.026	0.00014635	0.00055382	7.5147e-05	1225.8	1.0892e-05	8.7801e-06	880.69	345.82	8.0293e-06	2.3966e-06	257.77	85.802	110.58	41.407	1.238e-05	35.823	0.0019738	0.0020126	0.00056451	1245.5	2.2176e-05	2.2132e-05	926.16	355.09	2.2072e-05	2.2198e-05	294.04	97.873	118.56	44.195	2.2108e-05	41.305	-8.257	191.013	42.257	-48.747	15.523	70.454	-50.223	-44.301	131.360	95.823	-45.811	-42.115	-39.415	-35.481	116.355	-38.736	-8191	255	
3438.140	1	1	0	0	0.14647	0.10022	0.28477	0.34053	0.30154	0.066953	0.36216	0.26772	0.2532	0.29407	0.028014	0.20228	0.28903	0.11236	0.26746	0.33855	-0.59583	-0.27917	-0.39167	-1.2125	-0.079167	-0.91875	-1.0938	-0.19375	-1.1396	-0.41875	-0.41042	-1.1708	-0.25417	-0.7625	-0.975	-0.23125	14.324	-2.885	282.752	290.748	196.882	268.136	235.435	259.850	-15.337	-61.236	-56.343	197.175	269.037	61.246	180.223	51.269	0.00035499	0.00029634	0.00024512	1217.8	8.9342e-06	1.7381e-05	870.93	343.7	1.6857e-05	1.3339e-05	259.08	85.047	109.15	40.832	1.7201e-05	35.945	0.0019498	0.0020124	0.00055994	1241.3	2.1858e-05	2.1935e-05	917.73	354.21	2.1777e-05	2.1903e-05	291.59	96.388	117.6	43.837	2.1638e-05	40.933	32.229	4.828	44.510	-48.555	155.099	189.916	-50.193	-43.979	285.592	182.307	-46.828	-42.285	-39.257	-35.125	73.303	-38.636	-8191	255	
3438.259	1	1	0	0	0.22195	0.045748	0.11217	0.18798	0.30606	0.078686	0.070827	0.078651	0.089068	0.3072	0.19464	0.045031	0.15249	0.16047	0.33559	0.24925	-0.53333	-0.55417	-0.3875	-1.4	-0.42708	-0.6625	-0.9625	-0.20208	-0.89167	-0.79583	-0.37083	-1.0271	-0.34167	-0.5875	-0.99375	-0.34792	-59.998	261.711	218.534	251.588	216.565	66.587	106.547	251.783	148.150	123.811	205.611	0.074	258.384	221.852	196.090	-52.951	0.00032933	0.00032695	0.00023098	1215.5	8.3201e-06	1.096e-05	875.26	341.92	2.0166e-05	9.789e-06	257.77	85.337	109.38	40.885	4.1476e-06	35.501	0.0019287	0.0019961	0.00055194	1235.6	2.1575e-05	2.1733e-05	920.41	353.08	2.1523e-05	2.1734e-05	290.3	96.273	117.4	43.671	2.1607e-05	40.576	1.565	21.322	53.523	-48.559	-31.202	8.002	-50.421	-44.103	-38.686	153.951	-46.344	-41.975	-39.311	-35.443	49.393	-39.277	-8191	255	
3438.355	1	1	0	0	0.12752	0.1426	0.18146	0.24813	0.16679	0.11396	0.14938	0.35881	0.28454	0.26157	0.030943	0.30993	0.10515	0.13372	0.065414	0.11255	-0.55208	-0.7	-0.21042	-1.1292	-0.28125	-0.62083	-1.1229	-0.35833	-0.93125	-0.8125	-0.17708	-1.1604	-0.47708	-0.42917	-1.2229	-0.33542	7.147	167.513	100.289	-29.898	56.667	242.059	257.558	224.406	196.503	128.158	250.885	250.249	-25.104	276.153	118.138	2.317	0.00048153	0.0019954	0.00043251	1217.2	2.4588e-05	5.1611e-06	871.25	343.75	1.704e-05	1.2614e-05	257.22	85.721	109.14	40.655	7.6218e-06	35.958	0.0019091	0.0019593	0.00054902	1237.8	2.1408e-05	2.1646e-05	918.21	353.38	2.1488e-05	2.1698e-05	290.84	96.525	117.44	43.552	2.1511e-05	40.866	5.979	17.629	36.835	-48.804	101.006	-15.477	-50.348	-44.205	82.543	80.021	-46.677	-41.984	-39.911	-35.331	-43.204	-39.462	-8191	255	
3438.451	1	1	0	0	0.28777	0.075521	0.15588	0.26709	0.15156	0.23835	0.19473	0.24204	0.072974	0.062838	0.17981	0.24558	0.13013	0.25063	0.18584	0.10148	-0.43125	-0.74167	-0.26458	-1.1313	-0.57917	-0.29792	-1.3146	-0.37917	-0.76667	-0.90625	-0.06875	-1.1333	-0.63125	-0.29375	-1.0625	-0.26458	105.886	212.435	-32.452	201.971	86.099	94.583	222.658	234.562	98.627	154.185	290.718	-34.824	-12.249	6.723	202.245	207.461	0.00066943	0.00033955	0.00038235	1213.4	4.7851e-06	3.5949e-06	874.4	344.23	1.0304e-05	8.541e-06	257.24	85.833	109.86	40.819	1.3724e-05	36.01	0.001915	0.0019565	0.00054826	1236.5	2.1612e-05	2.1616e-05	919.88	353.63	2.1548e-05	2.1791e-05	291.14	96.943	117.93	43.586	2.151e-05	40.905	116.381	274.365	279.543	-48.668	184.157	-2.740	-50.476	-44.255	7.438	96.739	-47.117	-41.785	-39.327	-35.459	49.741	-39.653	-8191	255	
3438.572	1	1	0	0	0.22345	0.29435	0.039542	0.26385	0.037386	0.23811	0.078672	0.26342	0.1877	0.27016	0.051181	0.2576	0.083693	0.28955	0.1738	0.13584	-0.19167	-0.85	0.0375	-1.1083	-0.70625	-0.097917	-1.1187	-0.41458	-0.38125	-0.99792	-0.27292	-0.55417	-0.71042	-0.26458	-0.92708	-0.46042	289.931	77.973	241.672	270.193	-12.776	7.979	219.210	231.850	-53.893	179.649	-44.161	-19.625	-51.393	272.979	-51.368	84.350	7.9847e-05	0.00078445	0.00026533	1220.8	8.135e-06	1.0841e-06	872.92	343.41	6.0529e-06	1.7486e-05	254.71	84.62	109.06	40.494	1.5829e-05	35.324	0.0019303	0.0019742	0.00055069	1239.5	2.1454e-05	2.1703e-05	917.43	352.2	2.1315e-05	2.1625e-05	289.18	95.738	116.94	43.244	2.1432e-05	40.138	70.919	180.864	249.345	-48.482	206.268	285.730	-50.543	-44.071	151.451	135.386	-46.629	-42.098	-39.373	-35.409	-26.685	-38.600	-8191	255	
3438.644	1	1	0	0	0.22901	0.079953	0.15305	0.20494	0.11229	0.098264	0.4682	0.027118	0.16473	0.081322	0.16198	0.19288	0.17622	0.15874	0.032569	0.035099	-0.01875	-1.1125	-0.05625	-1.0292	-0.61875	-0.12083	-1.1063	-0.63958	-0.37708	-1.225	-0.24792	-0.83542	-0.92708	-0.3125	-0.96458	-0.6375	235.737	221.782	173.740	99.732	171.818	117.144	257.544	270.745	282.064	-9.276	199.207	144.737	185.153	193.576	-60.496	233.959	0.00055255	0.00059074	0.00026572	1206.7	1.4146e-05	1.4481e-05	866.38	342.09	1.7155e-05	4.6767e-06	255.33	84.723	109.65	40.296	7.6916e-06	34.953	0.0019023	0.0019507	0.000543	1229.6	2.1335e-05	2.1474e-05	910.81	350.87	2.125e-05	2.1423e-05	288.17	95.537	116.67	42.971	2.1216e-05	40.036	-26.524	50.568	-11.096	-48.433	-50.350	46.908	-50.308	-44.249	72.348	167.647	-47.016	-41.780	-39.421	-35.614	175.816	-38.845	-8191	255	
3438.740	1	1	0	0	0.11339	0.1989	0.15742	0.069819	0.16744	0.21133	0.10458	0.06909	0.11661	0.23041	0.20858	0.31229	0.19204	0.19454	0.047306	0.33936	0.079167	-1.1792	-0.32917	-0.69583	-0.83958	-0.11667	-1.1042	-0.77083	-0.28125	-1.1917	-0.42917	-0.475	-0.93125	-0.24167	-1.1417	-0.80417	177.496	207.212	155.965	205.202	1.867	38.684	227.543	295.248	44.809	272.008	123.210	180.323	-53.430	220.914	-61.644	291.358	0.00050046	0.00067698	0.0001741	1211	6.8757e-06	1.7005e-05	868.81	342.23	1.6876e-05	1.9607e-05	257.37	84.338	108.47	40.631	3.5194e-06	35.186	0.0019046	0.0019398	0.00053972	1231.3	2.1196e-05	2.1403e-05	913.08	350.82	2.1312e-05	2.1501e-05	288.69	95.51	116.54	43.132	2.1452e-05	40.254	-46.975	13.373	176.407	-48.621	278.756	31.087	-50.077	-44.405	280.362	-22.751	-47.098	-42.013	-39.491	-35.596	240.970	-39.269	-8191	255	
3438.860	1	1	0	0	0.055412	0.17831	0.025307	0.13559	0.25211	0.25926	0.35504	0.25715	0.17522	0.068514	0.2657	0.21345	0.13643	0.20452	0.1793	0.15793	0.175	-1.0625	-0.33542	-0.75833	-1.1458	-0.033333	-0.9375	-1.0021	-0.1	-1.1437	-0.34583	-0.45208	-1.1625	-0.22917	-1.0271	-0.8875	228.778	-51.171	91.194	259.142	-59.645	-36.625	266.463	226.239	-26.116	6.991	259.337	13.747	259.444	65.101	40.241	214.871	0.00040469	0.00069298	8.2021e-05	1212.7	1.7786e-06	1.6604e-05	878.03	341.84	1.9139e-05	7.5725e-06	255.95	84.96	109.76	40.377	2.2151e-05	35.565	0.0019039	0.001947	0.00054613	1234.6	2.1385e-05	2.1452e-05	917.13	351.58	2.1343e-05	2.1502e-05	290.03	96.033	117.13	43.251	2.1322e-05	40.556	-58.048	243.373	92.519	-48.622	127.579	104.505	-50.292	-44.343	287.672	164.540	-46.660	-41.513	-39.099	-35.848	76.915	-39.255	-8191	255	
3438.955	1	1	0	0	0.22474	0.040799	0.080005	0.14654	0.058392	0.21587	0.10944	0.046254	0.04884	0.075234	0.27011	0.064749	0.050661	0.12517	0.09583	0.22914	0.18125	-1.0958	-0.42292	-0.40833	-1.2375	-0.23542	-0.81667	-0.98542	-0.31042	-0.92292	-0.63333	-0.52292	-1.2479	-0.26667	-0.74167	-0.81667	-59.594	16.281	71.276	270.799	32.276	219.051	139.248	264.109	273.744	25.897	257.044	266.031	126.262	189.763	-16.214	-30.325	0.0001801	0.0010742	0.00012841	1210.7	6.0598e-06	1.944e-06	878.28	342.51	4.0132e-06	1.3507e-05	253.78	85.547	110.09	40.739	1.8346e-05	35.128	0.0018994	0.0019624	0.00054539	1234.6	2.1312e-05	2.1527e-05	921.33	352.63	2.1347e-05	2.1522e-05	289.58	96.243	117.5	43.375	2.128e-05	40.24	29.850	291.573	292.936	-48.642	94.789	-20.700	-50.361	-44.381	155.980	182.269	-46.731	-42.594	-39.362	-35.278	54.905	-38.550	-8191	255	
3439.051	1	1	0	0	0.1159	0.26117	0.28836	0.25543	0.10602	0.16242	0.12209	0.32221	0.23884	0.43456	0.24434	0.13472	0.18214	0.31481	0.1221	0.21735	0.060417	-0.9875	-0.43542	-0.31667	-1.1458	-0.26667	-0.74583	-1.1146	-0.14167	-1.0479	-0.80625	-0.34583	-1.1688	-0.46875	-0.63125	-1.0792	-21.233	46.788	174.485	239.564	202.245	65.235	75.109	273.513	142.660	214.821	105.004	96.205	-31.298	235.307	-1.143	134.010	0.00021728	0.0008708	0.00015728	1206.6	5.7572e-06	3.9746e-06	865.83	341.75	1.6084e-05	8.1194e-06	256.12	83.879	109.4	40.5	1.2769e-05	35.198	0.0018908	0.0019532	0.00053944	1230.7	2.1289e-05	2.1313e-05	909.24	351.3	2.1082e-05	2.1211e-05	287.99	95.496	117.2	43.298	2.1262e-05	40.253	-62.030	22.489	161.183	-48.670	-61.306	-28.653	-50.260	-44.425	197.015	43.586	-46.758	-42.079	-39.284	-35.470	158.163	-38.741	-8191	255	
3439.147	1	1	0	0	0.10783	0.20295	0.3223	0.44393	0.099742	0.23336	0.15828	0.094509	0.081095	0.26443	0.21816	0.062598	0.17034	0.16188	0.13208	0.10536	0.26875	-0.73958	-0.75	-0.32292	-1.1021	-0.36667	-0.47292	-1.1	-0.18958	-0.84167	-0.87708	-0.28542	-1.1542	-0.55	-0.40833	-1.1938	-2.790	210.732	92.077	269.245	103.271	248.020	251.120	228.924	271.478	22.944	31.980	205.240	279.273	217.732	148.723	126.105	0.0009061	0.0016059	0.00021263	1211.1	1.7012e-05	9.3937e-06	868.54	344.78	1.8365e-05	6.6474e-06	257.76	85.418	110.4	40.693	2.2684e-05	35.595	0.0019018	0.0019408	0.00054438	1231	2.1304e-05	2.1489e-05	912.09	353.13	2.1189e-05	2.1552e-05	290.14	96.289	117.68	43.539	2.1323e-05	40.613	3.953	272.568	8.400	-48.845	104.395	191.915	-50.015	-44.291	70.450	164.828	-47.023	-42.155	-39.426	-35.388	50.119	-38.744	-8191	255	
3439.268	1	1	0	0	0.16063	0.23623	0.20815	0.42675	0.13091	0.32677	0.28519	0.096804	0.20804	0.041124	0.19114	0.41243	0.14287	0.15201	0.26115	0.1051	0.1875	-0.74167	-0.68125	-0.1875	-0.96875	-0.68333	-0.57292	-1.1458	-0.32917	-0.72292	-0.85208	-0.37917	-1.0479	-0.64375	-0.21667	-1.1938	144.233	205.775	19.563	228.190	26.214	168.056	-30.493	219.015	91.401	132.463	294.749	230.688	234.038	262.908	31.246	191.266	0.00028575	0.00089745	0.00018801	1210.2	1.2868e-05	1.1498e-05	870.21	345.07	7.7377e-06	1.2366e-05	255.24	85.622	110.14	41.039	2.0974e-06	35.747	0.0019084	0.0019529	0.0005464	1230.4	2.1412e-05	2.1516e-05	914.98	353.08	2.141e-05	2.1596e-05	291.09	97.022	118.01	43.872	2.1643e-05	41.041	176.785	-40.907	-26.324	-48.357	93.989	13.888	-50.450	-44.146	91.192	294.133	-46.439	-42.123	-39.390	-35.415	15.646	-39.114	-8191	255	
3439.339	1	1	0	0	0.12936	0.14295	0.14569	0.31108	0.09786	0.21568	0.37497	0.3158	0.25749	0.11285	0.23984	0.19324	0.26033	0.075974	0.17126	0.15674	0.05	-0.60208	-0.9875	-0.077083	-1.0688	-0.5875	-0.43542	-1.2313	-0.26667	-0.57917	-1.1646	-0.29375	-1.025	-0.84167	-0.052083	-1.1437	-51.352	208.310	101.161	283.902	-52.731	127.968	200.132	257.852	257.560	151.373	196.845	-17.655	218.151	-23.278	188.822	279.332	0.0012686	0.00031996	0.00045916	1212.6	1.7628e-05	2.7941e-06	873.99	345.18	6.0973e-06	7.1405e-06	258.32	86.458	110.82	41.122	4.6847e-06	36.385	0.0019181	0.0019831	0.00054949	1233.5	2.1573e-05	2.1561e-05	918.53	354.61	2.1536e-05	2.1724e-05	292.52	97.496	118.42	44.047	2.1561e-05	41.303	4.134	-54.528	23.281	-48.930	46.086	38.026	-50.631	-44.354	293.869	-8.782	-46.502	-42.014	-39.386	-35.542	55.490	-38.969	-8191	255	
3439.435	1	1	0	0	0.29381	0.23471	0.31507	0.14871	0.25125	0.26627	0.13037	0.27016	0.051448	0.18566	0.21501	0.065514	0.15105	0.12278	0.27846	0.11279	0.0375	-0.39167	-0.90417	-0.39167	-0.90833	-1.0083	-0.43125	-1.1562	-0.54792	-0.53125	-1.1229	-0.24167	-0.83958	-0.9375	-0.27917	-1.2125	48.967	27.586	153.214	242.706	268.917	70.998	254.753	267.825	-28.124	297.889	225.682	105.446	-48.123	30.797	168.097	-53.493	0.00066629	0.00086484	0.00020249	1205.9	2.1474e-05	5.7152e-06	868.21	343.43	1.2922e-05	9.1846e-06	255.7	85.197	109.97	40.956	4.5237e-06	35.82	0.0019222	0.0019716	0.00054752	1230.9	2.1337e-05	2.1224e-05	912.06	352.34	2.1179e-05	2.1449e-05	289.1	95.999	117.55	43.637	2.1058e-05	40.678	-2.673	8.953	-11.751	-48.551	194.558	174.569	-50.050	-44.062	64.561	35.687	-46.333	-42.225	-39.148	-35.734	254.361	-39.056	-8191	255	
3439.532	1	1	0	0	0.050843	0.056512	0.054621	0.21185	0.055142	0.083369	0.18477	0.23973	0.021484	0.042821	0.11623	0.2988	0.19455	0.31204	0.10081	0.16147	-0.15	-0.45	-1.1396	-0.43125	-0.52917	-1.0583	-0.39792	-1.0833	-0.54583	-0.26042	-1.2917	-0.31042	-0.77083	-1.0771	-0.18125	-1.2771	131.494	221.232	42.876	209.765	206.648	152.089	155.817	155.716	294.139	-50.131	-11.964	178.204	247.819	281.447	35.002	273.023	0.00041119	0.00037642	0.00038741	1201.3	7.9585e-06	1.7373e-05	866.3	342.31	2.3959e-05	1.1632e-05	255.77	85.161	110.16	40.718	4.7952e-06	35.578	0.0018909	0.0019325	0.00053801	1225.5	2.1087e-05	2.108e-05	910.45	351.46	2.1129e-05	2.1279e-05	289.61	96.208	117.19	43.609	2.1176e-05	40.619	-17.019	237.905	30.567	-48.969	19.903	27.347	-49.910	-44.089	110.649	104.351	-46.464	-42.243	-39.147	-35.168	117.331	-38.692	-8191	255	
3439.652	1	1	0	0	0.20324	0.069953	0.11947	0.067719	0.11544	0.15855	0.15683	0.10202	0.19222	0.23405	0.32594	0.080305	0.22119	0.067963	0.023126	0.25234	-0.35417	-0.19792	-1.1833	-0.5625	-0.50208	-0.93333	-0.25833	-1.0208	-0.58125	-0.40417	-1.025	-0.44583	-0.625	-1.2042	-0.16667	-1.0542	143.794	276.651	-48.139	69.156	215.295	238.467	206.082	251.801	243.520	272.702	60.030	197.856	-29.134	-60.390	150.615	54.156	0.00057727	0.0010055	0.00017488	1205.3	1.2802e-05	3.8747e-06	868.37	343.1	1.2927e-05	1.7028e-05	256.94	84.839	110.04	40.908	1.6703e-05	35.835	0.0018917	0.0019386	0.00053814	1225.8	2.1208e-05	2.13e-05	911.35	351.28	2.1319e-05	2.135e-05	290.37	96.408	117.53	43.572	2.1155e-05	40.765	3.995	-28.443	-9.453	-48.936	122.344	256.933	-50.779	-44.147	194.336	94.427	-46.483	-42.138	-39.105	-35.195	265.345	-38.985	-8191	255	
3439.748	1	1	0	0	0.22317	0.21132	0.18372	0.12272	0.075765	0.070963	0.2129	0.41899	0.17982	0.085087	0.12688	0.17137	0.16896	0.045727	0.13233	0.26315	-0.61458	-0.20625	-1.0417	-0.72292	-0.325	-1.2042	-0.30208	-0.96458	-1.0417	-0.1125	-1.2146	-0.69583	-0.48542	-1.1604	-0.3625	-0.85	182.466	217.944	-43.547	56.059	115.306	-15.327	272.216	266.477	-40.024	231.563	161.542	200.746	16.722	98.267	-2.323	293.018	0.0010256	0.0024926	9.8684e-05	1201.1	9.1909e-07	4.3073e-06	873.22	343.25	1.9971e-05	8.894e-06	257.27	85.869	110.48	41.124	1.0492e-05	36.06	0.0018999	0.001947	0.00054457	1223.7	2.127e-05	2.125e-05	915.41	352.23	2.1209e-05	2.141e-05	290.17	96.577	117.64	43.567	2.1409e-05	40.962	296.015	58.752	95.378	-48.489	228.204	196.312	-50.401	-44.081	58.363	8.404	-46.562	-42.511	-39.557	-35.224	48.931	-38.947	-8191	255	
3439.843	1	1	0	0	0.26075	0.22517	0.20732	0.34503	0.024074	0.093547	0.24774	0.30888	0.15197	0.04588	0.13561	0.29881	0.22631	0.052362	0.043226	0.097159	-0.5	-0.39375	-1.1063	-0.69583	-0.23333	-1.2313	-0.39375	-0.77083	-0.91875	-0.10208	-1.0896	-0.72292	-0.35417	-1.2625	-0.32917	-0.72083	-43.596	-47.048	252.565	242.057	82.456	84.961	263.590	239.958	8.399	167.415	209.088	247.153	281.911	-39.109	157.144	254.379	0.00032709	0.00037522	0.0003559	1210.6	8.0915e-06	1.6053e-05	875.24	343.91	1.6278e-05	1.0583e-05	256.13	83.799	109.23	40.501	2.1673e-05	35.175	0.0018937	0.0019606	0.00054219	1228.4	2.126e-05	2.1336e-05	913.2	351.24	2.0973e-05	2.1296e-05	288.66	95.516	116.56	43.169	2.0981e-05	40.138	-6.402	15.081	114.770	-48.560	45.329	163.567	-50.623	-44.075	-17.695	82.434	-47.075	-42.409	-39.539	-35.565	21.170	-39.009	-8191	255	
3439.941	1	1	0	0	0.2055	0.059457	0.1033	0.23736	0.086979	0.17654	0.076294	0.085778	0.085255	0.19175	0.14339	0.0016729	0.069517	0.15483	0.11393	0.054257	-0.66458	-0.15833	-0.9	-1.1	-0.31667	-1.1125	-0.375	-0.55208	-1.075	-0.22917	-0.85	-0.82083	-0.23958	-1.1979	-0.45417	-0.47083	231.073	-49.400	260.193	211.993	259.530	79.427	247.970	274.016	254.951	47.003	229.484	180.000	-3.233	-19.204	204.140	77.611	0.00051821	0.00014359	0.00011642	1202.2	7.3732e-06	1.0559e-05	860.42	341.77	5.2771e-06	1.5639e-05	255.53	84.672	108.65	40.353	3.8936e-06	35.025	0.0018854	0.001937	0.00053801	1222.2	2.107e-05	2.0991e-05	904.56	349.8	2.0989e-05	2.1171e-05	286.61	95.093	116.4	43.074	2.1156e-05	40.138	-44.517	274.116	163.582	-48.850	22.663	120.215	-50.338	-44.390	160.359	60.780	-46.709	-42.017	-39.565	-35.737	140.950	-38.524	-8191	255	
3440.035	1	1	0	0	0.08354	0.10991	0.15359	0.18283	0.16016	0.13155	0.40062	0.071134	0.21828	0.24034	0.16257	0.13902	0.11378	0.065975	0.3248	0.1977	-0.80833	-0.097917	-0.67083	-1.1104	-0.2	-1.0604	-0.77292	-0.57917	-1.025	-0.13958	-0.64792	-0.92708	-0.24375	-1.2729	-0.5875	-0.225	212.455	98.102	189.720	256.276	7.571	165.591	270.774	58.659	-58.370	21.037	272.743	-45.841	-16.351	86.741	94.661	265.180	0.00024355	0.00013456	4.3405e-05	1201.5	2.4141e-05	6.4967e-06	866.83	340.7	1.0091e-05	6.4213e-06	253.83	84.829	109.05	40.408	7.1896e-06	35.708	0.001881	0.0019262	0.00053387	1220	2.102e-05	2.1154e-05	906.76	350.22	2.1111e-05	2.111e-05	288.51	95.676	116.57	43.163	2.1183e-05	40.5	-16.790	58.226	185.149	-48.843	185.508	193.786	-50.833	-44.224	114.813	90.083	-46.712	-42.572	-39.124	-35.117	257.564	-39.122	-8191	255	
3440.133	1	1	0	0	0.20151	0.12582	0.34964	0.16711	0.089448	0.20473	0.065339	0.12625	0.14109	0.10625	0.25359	0.18745	0.3154	0.094037	0.15323	0.080638	-0.71042	-0.21458	-0.7	-1.1583	0.03125	-0.90625	-0.725	-0.34167	-1.1938	-0.38333	-0.73542	-0.99792	-0.35208	-1.1562	-0.82292	-0.43125	178.303	293.975	112.083	284.193	8.241	45.967	-44.103	207.508	52.254	247.176	257.125	243.148	-55.074	67.437	74.989	63.372	0.00031468	0.0018194	0.00026505	1201.7	9.0935e-06	6.4892e-06	868.44	342.24	2.447e-05	1.1796e-05	255.55	85.26	108.86	40.445	8.9628e-06	35.478	0.0018701	0.001944	0.00054161	1222.4	2.1169e-05	2.1179e-05	911.64	350.51	2.1212e-05	2.1301e-05	288.7	95.889	116.46	43.329	2.1273e-05	40.663	221.431	16.937	8.504	-48.747	64.068	-13.000	-50.430	-44.094	297.171	29.642	-46.763	-42.209	-39.507	-35.371	161.938	-38.918	-8191	255	
3440.252	1	1	0	0	0.2724	0.15183	0.22238	0.20735	0.039566	0.31114	0.17208	0.24608	0.21364	0.15941	0.26394	0.16624	0.20753	0.16472	0.24112	0.25839	-0.57708	-0.55833	-0.45417	-1.2292	-0.17708	-0.875	-1.2	-0.4875	-1.0646	-0.5875	-0.50625	-1.2208	-0.52917	-0.98542	-0.85833	-0.19375	-42.845	74.868	17.996	297.272	88.094	36.727	224.152	241.855	120.231	-9.890	-14.086	217.105	293.259	250.600	31.847	-60.237	0.00077862	0.0013937	0.00018021	1206.7	7.7356e-06	8.385e-06	870.01	341.31	2.4982e-05	3.3749e-06	256.43	84.789	109.56	40.508	2.6204e-05	35.27	0.0018951	0.0019573	0.00054431	1224.2	2.1346e-05	2.1486e-05	913.35	351.14	2.1279e-05	2.1343e-05	289.82	95.836	117	43.379	2.1181e-05	40.474	-4.989	-56.917	184.135	-48.938	-36.734	84.028	-50.462	-44.118	-47.589	183.870	-46.266	-41.689	-39.422	-35.535	-28.707	-38.811	-8191	255	
3440.348	1	1	0	0	0.047793	0.17637	0.25849	0.11089	0.24737	0.37177	0.23941	0.21365	0.18528	0.16201	0.041075	0.18522	0.22078	0.096932	0.079798	0.14944	-0.62917	-0.6125	-0.44167	-1.3229	-0.27292	-0.75833	-1.2021	-0.18333	-1.2521	-0.60833	-0.40625	-1.1562	-0.32708	-0.79583	-1.0479	-0.25208	198.152	140.192	235.476	-56.800	162.388	196.188	-52.012	253.361	-8.644	212.405	277.765	129.446	219.578	248.591	16.078	105.211	0.00084159	0.00070206	8.5991e-05	1200.7	1.2367e-05	7.9129e-06	859.1	342.26	2.1334e-05	1.6008e-05	252.18	83.999	108.87	40.307	1.014e-05	35.089	0.0018777	0.0019437	0.00054205	1219.6	2.1145e-05	2.1235e-05	903.41	349.86	2.1125e-05	2.1368e-05	285.76	94.966	116.32	43.076	2.1128e-05	40.144	-20.714	-3.523	214.666	-48.636	188.720	84.389	-50.329	-44.292	189.343	71.166	-46.672	-41.731	-39.435	-35.463	283.588	-39.003	-8191	255	
3440.444	1	1	0	0	0.1146	0.26969	0.060455	0.20001	0.14988	0.11842	0.042539	0.36302	0.18014	0.14947	0.051086	0.35025	0.27075	0.071718	0.017554	0.082405	-0.68333	-0.63333	-0.33333	-1.3542	-0.3875	-0.58333	-1.1896	-0.17917	-0.875	-0.66458	-0.30833	-1.2292	-0.61667	-0.75	-1.1646	-0.33542	-60.520	144.176	-10.271	254.310	152.956	132.840	220.445	218.351	207.222	147.597	68.236	222.319	259.967	-12.682	152.071	211.501	0.0010385	0.0007536	0.00030544	1200.4	5.6889e-06	1.1648e-05	856.51	338.87	1.5102e-05	4.2697e-06	254.16	83.591	109.1	40.339	2.1125e-05	35.395	0.0018766	0.0019333	0.00053853	1219.9	2.1146e-05	2.1273e-05	902.29	348.53	2.1112e-05	2.1355e-05	286.39	95.005	116.31	43.126	2.1329e-05	40.269	32.949	11.606	30.998	-48.734	157.622	295.759	-50.059	-44.103	30.996	89.485	-46.420	-41.707	-39.366	-35.299	10.061	-39.065	-8191	255	
3440.540	1	1	0	0	0.26422	0.098822	0.10448	0.20853	0.11484	0.14571	0.14127	0.40505	0.080944	0.034496	0.18509	0.25326	0.096425	0.22481	0.17319	0.35931	-0.54583	-0.87292	-0.32292	-1.3375	-0.40833	-0.68333	-1.1333	-0.28125	-1.0542	-1.0312	-0.34167	-1.2333	-0.42708	-0.33125	-1.1437	-0.32708	116.151	-53.134	53.557	270.405	-29.064	77.778	195.827	252.829	59.800	219.108	265.033	9.824	-62.013	-55.159	5.696	255.577	1.8078e-05	0.0012894	0.0004765	1198.5	5.7075e-06	3.2639e-06	862.66	340.14	1.6053e-05	7.0407e-06	253.95	84.195	109.15	40.581	1.0211e-05	35.477	0.0018864	0.0019376	0.00053769	1220.9	2.1307e-05	2.1239e-05	907.05	348.98	2.1119e-05	2.1274e-05	287.86	95.575	116.69	43.266	2.1295e-05	40.544	259.145	16.708	36.000	-48.551	143.896	288.952	-50.300	-44.079	-11.970	89.850	-46.910	-41.815	-39.589	-35.417	-11.598	-38.491	-8191	255	
3440.637	1	1	0	0	0.13352	0.096392	0.1799	0.22575	0.029087	0.15301	0.16703	0.074286	0.14583	0.23027	0.19025	0.19126	0.20502	0.32901	0.30365	0.11595	-0.64167	-0.85	-0.18958	-1.1375	-0.80208	-0.31667	-1.3312	-0.27083	-0.5625	-1.0104	-0.23542	-0.95625	-0.59583	-0.5875	-1.1021	-0.24167	84.194	-59.334	134.470	224.883	132.293	63.621	240.558	266.788	248.232	285.557	1.480	-48.687	282.109	-57.281	276.040	281.455	0.0004904	0.00042924	0.00012952	1199.4	1.4456e-05	1.3404e-05	865.06	339.68	5.8367e-06	1.1247e-05	255.55	84.577	109.03	40.712	8.9881e-06	35.838	0.0018927	0.0019554	0.0005449	1221.4	2.1244e-05	2.1425e-05	910.53	349.14	2.1185e-05	2.1331e-05	288.96	96.184	116.72	43.408	2.1287e-05	40.854	292.752	55.499	172.993	-48.512	113.081	-21.503	-50.275	-44.366	-37.637	17.880	-46.664	-41.896	-39.356	-35.085	24.401	-39.144	-8191	255	
3440.733	1	1	0	0	0.19795	0.37312	0.20946	0.33579	0.12702	0.089804	0.17046	0.50631	0.17329	0.15909	0.13669	0.1905	0.3692	0.038539	0.18287	0.15079	-0.34375	-1.0333	-0.21875	-1.1917	-0.79792	-0.35833	-1.3021	-0.61042	-0.65625	-1.0688	-0.2125	-0.79167	-0.875	-0.2625	-1.0896	-0.49375	15.478	184.095	214.848	266.344	43.261	-44.707	268.486	295.165	-15.618	177.881	197.668	-60.552	271.662	140.624	258.633	228.035	3.5231e-05	0.00037057	0.00030544	1197.1	1.0991e-05	4.2008e-06	861.15	338.87	2.159e-05	8.5311e-06	252.92	84.064	109.43	40.478	1.6277e-05	35.298	0.0018989	0.0019557	0.00054109	1220.3	2.1326e-05	2.1331e-05	907.04	348.14	2.1246e-05	2.1415e-05	287.04	95.174	116.38	43.278	2.1326e-05	40.349	111.065	231.346	222.982	-48.354	23.615	259.950	-50.129	-44.102	87.679	220.258	-46.639	-41.898	-39.457	-35.550	5.133	-38.849	-8191	255	
3440.829	1	1	0	0	0.26451	0.19254	0.11165	0.29783	0.16461	0.15221	0.11384	0.3068	0.23376	0.17606	0.22733	0.19737	0.2572	0.31379	0.05447	0.23353	-0.029167	-1.0396	-0.18958	-0.82083	-0.79583	-0.21667	-1.2104	-0.71042	-0.51042	-1.0458	-0.17083	-0.65625	-1.0521	-0.058333	-1.1458	-0.54792	136.472	-32.566	62.144	276.722	227.421	183.491	239.331	274.291	192.711	-53.270	171.487	60.545	278.278	242.539	-43.602	236.676	0.00034121	0.00076866	0.00042688	1196.4	8.0597e-06	4.8172e-06	860.35	336.64	9.743e-06	8.4939e-06	252.27	84.7	108.5	40.25	1.1579e-05	35.309	0.0019022	0.0019542	0.00054158	1217.6	2.1191e-05	2.1393e-05	902.85	347.22	2.1323e-05	2.143e-05	286.29	95.551	116.45	43.19	2.1302e-05	40.486	-28.585	60.337	60.982	-48.405	171.601	64.168	-49.889	-44.038	54.420	-44.838	-47.046	-41.897	-39.318	-35.361	113.324	-39.468	-8191	255	
3440.948	1	1	0	0	0.3287	0.099191	0.2012	0.26555	0.090165	0.19258	0.28214	0.31144	0.29775	0.071231	0.24694	0.28928	0.18231	0.24146	0.093672	0.23205	-0.089583	-1.1354	-0.29792	-0.85	-0.88125	-0.2375	-1.1625	-0.81042	-0.20417	-1.2417	-0.46458	-0.55833	-1.1021	-0.41875	-0.97917	-0.675	-16.441	-20.163	212.023	268.012	253.626	263.678	198.311	285.567	13.764	63.708	252.757	250.780	254.041	-32.633	-40.051	99.566	0.00092397	0.0013986	0.00044677	1200.8	5.6599e-06	1.0924e-05	858.08	336.79	1.049e-05	1.6885e-05	254.63	84.161	109.14	40.677	1.8589e-05	35.728	0.0019026	0.0019587	0.00054256	1219.4	2.1142e-05	2.1453e-05	904.86	348.66	2.1425e-05	2.1392e-05	287.97	95.61	116.36	43.436	2.1299e-05	40.751	-54.468	15.705	4.996	-48.572	230.631	151.412	-50.101	-44.213	101.084	163.234	-46.633	-42.117	-38.941	-35.298	15.623	-39.331	-8191	255	
3441.044	1	1	0	0	0.11729	0.12389	0.29172	0.35598	0.28826	0.15945	0.22021	0.082478	0.27192	0.16487	0.16656	0.43142	0.26212	0.21106	0.093136	0.038589	0.15	-1.0375	-0.38542	-0.72708	-0.94167	-0.066667	-0.83542	-0.95417	-0.27083	-1.0333	-0.7	-0.6625	-1.0562	-0.15	-0.84375	-1.0271	153.490	-56.864	52.135	243.847	106.758	188.211	194.471	117.706	-50.600	39.828	254.288	-47.588	227.015	296.300	-56.526	35.605	0.00068189	0.00047532	0.000414	1194	7.2183e-06	7.2851e-06	865.56	340.03	3.0724e-05	1.3835e-05	253.83	85.795	109.16	41.136	1.0706e-05	35.816	0.0018997	0.0019668	0.00054816	1219	2.1388e-05	2.1572e-05	907.9	350.1	2.1413e-05	2.1537e-05	289.16	96.754	116.87	43.796	2.1702e-05	41.068	-31.582	258.937	22.110	-48.453	120.290	76.327	-50.265	-44.165	201.020	29.451	-46.718	-41.895	-39.287	-35.470	4.037	-38.635	-8191	255	
3441.140	1	1	0	0	0.21765	0.079326	0.061755	0.080175	0.15965	0.084231	0.23031	0.32895	0.12917	0.12475	0.13444	0.08257	0.2174	0.097382	0.20859	0.35595	0.047917	-1.1104	-0.49375	-0.49167	-1.0479	-0.20208	-0.95	-1.0125	-0.23958	-1.1208	-0.62708	-0.38125	-1.2687	-0.54167	-0.48125	-1.0896	262.358	128.872	35.026	232.028	218.168	19.886	200.406	-52.904	213.663	113.974	214.257	284.347	-57.611	92.374	275.958	239.661	0.00051443	0.00087942	0.00039437	1202.9	1.609e-05	3.4354e-06	863.19	340.87	1.5486e-05	1.2221e-05	255.18	85.415	109.06	40.63	2.0272e-05	35.684	0.0019219	0.0019748	0.00055017	1223.8	2.1623e-05	2.1824e-05	911.62	350.46	2.1524e-05	2.1636e-05	289.12	96.431	116.74	43.511	2.1681e-05	40.736	8.084	0.149	14.625	-48.588	180.730	155.217	-50.198	-44.184	193.386	196.740	-46.557	-41.874	-39.537	-35.236	-20.009	-38.592	-8191	255	
3441.213	1	1	0	0	0.18695	0.071591	0.22112	0.21568	0.26306	0.053152	0.22451	0.048965	0.13779	0.13716	0.18403	0.10234	0.21322	0.26732	0.094689	0.11768	0.19792	-1.2	-0.54375	-0.41875	-1.0938	-0.3375	-1.0042	-1.2083	-0.10208	-0.81667	-0.79167	-0.10833	-1.1604	-0.53958	-0.49583	-1.0833	-51.413	291.717	124.722	276.423	88.682	65.768	127.652	-0.864	-35.679	51.840	113.055	76.439	-31.697	285.520	15.130	3.490	0.00081419	0.00038683	5.7639e-05	1191.7	1.5279e-05	1.4106e-05	857.7	339.03	8.1822e-06	5.4399e-06	252.45	83.804	108.83	40.511	4.3535e-06	35.357	0.0019376	0.001977	0.00055552	1214.5	2.1727e-05	2.1816e-05	902.89	349.45	2.1527e-05	2.1656e-05	286.41	95.748	117.03	43.2	2.173e-05	40.42	-39.428	157.889	87.947	-48.750	95.236	57.667	-50.019	-44.225	141.610	276.466	-46.581	-41.921	-39.485	-35.413	226.852	-39.172	-8191	255	
3441.332	1	1	0	0	0.22791	0.24988	0.33157	0.28433	0.12906	0.028964	0.27359	0.23397	0.14917	0.1672	0.043183	0.073026	0.094035	0.21571	0.14429	0.12556	0.26458	-0.77917	-0.90417	-0.45	-1.1229	-0.41458	-0.425	-1.3104	-0.28958	-0.85208	-1.0688	-0.26458	-1.2917	-0.54375	-0.3875	-1.3042	187.944	73.581	226.623	236.126	-1.056	263.954	270.449	-46.096	286.165	108.211	108.528	148.509	46.580	99.684	46.989	239.685	0.00054149	0.00062084	3.6386e-05	1192.3	1.5149e-05	9.3082e-06	860.39	338.4	8.1876e-06	7.516e-06	251.68	83.974	109.24	40.421	1.9451e-05	35.168	0.0019451	0.0019881	0.00055514	1217.7	2.1765e-05	2.1806e-05	907.37	349.32	2.1745e-05	2.201e-05	288.33	95.643	117	43.226	2.1789e-05	40.261	36.026	184.542	1.071	-48.657	176.965	15.827	-50.223	-44.392	138.384	98.802	-46.393	-42.056	-39.123	-35.269	-6.625	-39.165	-8191	255	
3441.428	1	1	0	0	0.14188	0.073675	0.19528	0.091373	0.38433	0.2015	0.23111	0.24508	0.23261	0.17827	0.2014	0.11046	0.1812	0.2417	0.089739	0.028575	0.05	-0.60417	-0.8	-0.12083	-0.98958	-0.64583	-0.34375	-1.1104	-0.3375	-0.825	-1.1208	-0.060417	-1.0125	-0.64167	-0.18958	-1.2021	101.843	33.313	47.451	203.534	-13.107	76.774	207.898	-54.022	77.361	69.896	273.538	291.128	256.652	280.620	-46.942	-57.369	0.00095707	0.00089941	0.00028552	1192	1.1673e-05	1.4827e-05	864.37	341.12	2.6446e-05	3.1184e-06	253.76	84.256	109.15	40.134	1.5542e-05	34.927	0.0019338	0.0019992	0.00055448	1219.7	2.185e-05	2.1913e-05	911.01	350.69	2.1745e-05	2.1762e-05	288.45	96.027	116.93	43.028	2.1735e-05	40.441	2.251	275.092	165.059	-48.583	-13.949	228.215	-50.458	-44.320	70.978	239.803	-46.494	-42.180	-39.252	-35.680	89.132	-39.159	-8191	255	
3441.525	1	1	0	0	0.16841	0.35373	0.0704	0.30684	0.064477	0.22158	0.11885	0.19665	0.30245	0.27438	0.20858	0.12018	0.24265	0.17209	0.11296	0.0095295	0.014583	-0.81042	-1.0438	-0.28125	-0.88542	-0.76875	-0.24583	-1.3	-0.38333	-0.49167	-1.1812	-0.22292	-1.0354	-0.88958	-0.085417	-1.1542	-26.960	29.502	122.428	248.909	119.298	97.176	89.086	-37.467	222.080	-37.645	140.325	197.137	-41.121	257.540	283.014	29.878	0.00054828	0.00017376	0.0002587	1200	8.7527e-06	5.8801e-06	871.96	343.05	1.607e-05	1.209e-05	254	84.832	108.77	40.052	1.4116e-05	35.035	0.0019387	0.0019854	0.00055637	1222.3	2.1796e-05	2.1778e-05	913.93	352.11	2.1818e-05	2.1929e-05	290.1	96.394	116.92	42.917	2.1752e-05	40.388	297.744	-39.603	138.392	-48.557	137.491	236.887	-50.371	-44.152	-38.076	152.682	-46.328	-41.979	-39.234	-35.546	178.208	-39.000	-8191	255	
3441.621	1	1	0	0	0.15599	0.21539	0.059272	0.12369	0.09669	0.15855	0.047376	0.14455	0.10282	0.022057	0.10787	0.25254	0.15825	0.11312	0.16707	0.041568	-0.12292	-0.38958	-1.0729	-0.24583	-0.94792	-0.7125	-0.43958	-0.96458	-0.48333	-0.42292	-1.2521	-0.25417	-0.96458	-1.0521	-0.13958	-0.92917	108.680	-26.238	250.585	227.368	-31.773	222.234	60.790	-20.851	-36.692	47.225	123.054	259.113	221.013	47.795	-20.281	216.657	0.0003093	0.0010153	0.00027953	1199.3	8.3878e-06	1.5244e-05	858.86	340.16	1.2291e-05	8.0115e-06	253.44	83.133	107.81	39.589	3.7868e-06	34.811	0.0019308	0.0019849	0.00054945	1218.9	2.1539e-05	2.1747e-05	904.32	348.74	2.1503e-05	2.1633e-05	287.46	94.696	115.99	42.545	2.1638e-05	39.789	49.868	18.193	-39.083	-48.559	236.400	135.738	-50.616	-44.300	32.577	218.941	-46.543	-41.938	-39.164	-35.547	161.943	-38.732	-8191	255	
3441.740	1	1	0	0	0.06998	0.1577	0.35679	0.19137	0.20907	0.064602	0.13652	0.51081	0.070705	0.092555	0.30436	0.23879	0.053124	0.41047	0.18969	0.18049	-0.20208	-0.32708	-1.0688	-0.51875	-0.725	-0.975	-0.2	-1.1292	-0.4875	-0.30208	-1.1417	-0.48333	-0.68125	-1.2146	-0.0083333	-1.1458	129.621	195.112	82.004	-41.907	118.394	190.398	75.164	265.323	263.608	67.959	-56.872	290.155	192.530	270.710	201.638	-51.245	0.00084821	0.00033643	9.4292e-05	1194.7	1.297e-05	7.4427e-06	854.92	338.33	3.2533e-05	1.0314e-05	252.36	83.601	107.99	39.344	1.1808e-05	34.881	0.0019175	0.0019602	0.00054582	1213.7	2.1568e-05	2.1408e-05	901.05	348.57	2.1372e-05	2.1766e-05	286.63	94.818	115.6	42.359	2.1258e-05	39.886	62.560	81.065	-24.172	-48.598	32.508	61.034	-50.190	-43.897	68.615	83.642	-46.697	-41.857	-39.481	-35.190	146.896	-38.673	-8191	255	
3441.813	1	1	0	0	0.20142	0.2874	0.15545	0.22426	0.38029	0.15791	0.1285	0.20569	0.18808	0.21143	0.1331	0.15924	0.21956	0.20494	0.11994	0.2305	-0.37083	-0.18333	-1.1667	-0.65625	-0.60833	-1.1187	-0.31458	-1.0938	-0.79792	-0.31042	-1.1063	-0.58542	-0.55417	-1.2646	-0.16042	-0.91875	88.033	83.769	176.674	295.690	-49.794	92.598	108.816	220.754	236.275	262.125	276.458	295.551	245.586	-49.607	-21.847	289.747	0.00053972	0.00057552	0.00019461	1197.3	1.5474e-05	1.5087e-05	859.33	340.18	1.4433e-05	8.6699e-07	255.21	83.779	108.35	39.697	1.3211e-05	34.871	0.0019101	0.0019703	0.00054602	1216	2.1451e-05	2.1453e-05	906.65	349.34	2.1245e-05	2.1416e-05	287.64	95.029	116.02	42.607	2.1447e-05	39.939	207.671	269.940	34.315	-49.040	63.503	18.140	-50.308	-43.912	93.571	231.187	-46.517	-42.361	-39.291	-35.391	-11.106	-38.592	-8191	255	
3441.934	1	1	0	0	0.19398	0.075388	0.1837	0.18331	0.26423	0.2448	0.22138	0.15379	0.18975	0.028722	0.29736	0.08388	0.20068	0.11345	0.20692	0.14278	-0.44167	-0.1	-1.0312	-0.53542	-0.53542	-1.1271	-0.29375	-1.0542	-0.82917	-0.19167	-1.1271	-0.7625	-0.45833	-1.2625	-0.23542	-0.85	136.026	92.128	156.775	202.604	152.890	294.673	193.151	256.188	250.396	277.020	248.205	-18.770	-21.252	176.071	179.378	92.290	0.00041059	0.00088341	0.00013527	1196.9	5.565e-06	1.5269e-05	861.45	340.47	2.9153e-05	6.9166e-06	256.7	84.117	108.38	39.876	5.6119e-06	35.3	0.0019038	0.0019558	0.00054749	1218	2.1495e-05	2.1563e-05	908.75	350.05	2.1423e-05	2.165e-05	289.35	95.516	116.3	42.766	2.1652e-05	40.212	-43.184	180.139	-16.955	-48.861	108.578	99.566	-50.272	-43.860	-11.669	25.844	-46.742	-41.926	-38.818	-35.499	218.835	-38.920	-8191	255	
3442.030	1	1	0	0	0.073668	0.016958	0.091938	0.13958	0.18692	0.062634	0.20728	0.15523	0.16445	0.25353	0.39567	0.17363	0.16696	0.038913	0.20357	0.32161	-0.69792	0.1875	-0.98333	-0.96875	-0.21458	-1.3083	-0.4125	-0.77708	-1.0854	-0.24167	-1.0396	-0.625	-0.22708	-1.1667	-0.325	-0.71875	83.476	97.957	-40.244	192.060	147.897	50.175	267.724	242.401	54.269	24.225	255.123	41.227	267.594	-56.884	229.547	262.336	0.00065699	0.00025867	0.00020232	1200.3	5.4968e-06	1.0823e-05	870.04	341.06	7.4782e-06	4.4038e-06	253.04	83.676	108.61	39.712	1.4649e-05	34.797	0.0019179	0.0019684	0.00054719	1220.1	2.1392e-05	2.1544e-05	911.76	349.83	2.128e-05	2.1576e-05	288.17	95.093	116.1	42.593	2.1342e-05	39.935	34.281	142.269	211.653	-48.461	187.640	175.270	-50.261	-43.900	258.379	251.500	-46.880	-42.449	-39.152	-35.067	-2.435	-38.538	-8191	255	
3442.124	1	1	0	0	0.1061	0.27043	0.014715	0.082565	0.095856	0.28388	0.040088	0.34624	0.036483	0.21258	0.19554	0.13012	0.21125	0.26419	0.13154	0.138	-0.68333	-0.16875	-1.0042	-0.875	-0.42708	-1.2708	-0.74792	-0.575	-1.0396	-0.34792	-0.8875	-0.91042	-0.36667	-1.0917	-0.43125	-0.52083	225.767	28.962	139.444	231.742	275.604	248.394	140.218	-49.781	-1.731	125.305	189.314	247.364	-39.407	169.089	52.550	168.860	0.00053836	0.00011533	0.00044483	1192.7	1.4058e-05	5.3126e-06	856.12	337.76	1.4154e-05	1.0888e-05	254.27	83.58	107.79	39.742	1.5157e-05	34.691	0.001906	0.0019684	0.00054262	1213.9	2.139e-05	2.1667e-05	899.53	347.65	2.1255e-05	2.1564e-05	286.96	94.744	115.81	42.711	2.1491e-05	39.97	182.327	251.690	-31.088	-48.605	133.990	166.350	-50.423	-43.756	76.910	41.267	-46.588	-42.210	-39.300	-34.917	295.044	-38.627	-8191	255	
3442.220	1	1	0	0	0.12877	0.14662	0.23946	0.35898	0.15024	0.28578	0.16269	0.3366	0.24681	0.10297	0.18641	0.2894	0.24722	0.063925	0.197	0.16912	-0.77708	-0.070833	-0.79792	-1.1146	-0.225	-1.0875	-0.68542	-0.48125	-1.0583	-0.17917	-0.70417	-0.98542	-0.42917	-1.0625	-0.7875	-0.41875	-52.812	242.020	-16.482	245.409	99.379	218.411	204.209	265.497	-22.005	-40.788	177.159	143.972	224.469	255.251	-3.944	177.122	0.00035191	0.00051336	0.00012189	1196.7	1.2581e-05	1.4017e-05	862.36	340.78	1.8717e-05	1.2392e-05	255.34	83.915	108.8	39.952	8.7141e-06	34.801	0.0019054	0.0019668	0.0005489	1216.4	2.1567e-05	2.155e-05	906.35	349.19	2.1401e-05	2.1515e-05	288.4	95.243	116.34	42.775	2.1589e-05	40.148	-29.165	294.756	51.697	-48.498	264.017	19.468	-50.305	-44.081	3.886	136.870	-46.362	-42.251	-39.149	-35.385	123.103	-38.513	-8191	255	
3442.341	1	1	0	0	0.10417	0.090895	0.11779	0.3209	0.11636	0.25005	0.1931	0.16384	0.051162	0.090373	0.10674	0.1004	0.30916	0.40897	0.099638	0.22441	-0.78542	-0.2375	-0.49375	-1.2042	-0.13542	-0.98542	-0.97917	-0.58125	-1.2417	-0.49583	-0.60208	-1.2458	-0.22292	-1.1208	-0.80208	-0.275	39.928	276.491	-14.095	-57.119	81.367	258.534	-28.944	225.204	-36.490	70.162	-21.327	83.923	271.024	-47.876	-59.365	-38.828	0.00048033	0.00028918	0.00028117	1192.9	5.5413e-06	1.0433e-05	861.13	339.76	2.1837e-05	8.5667e-06	255.53	84.985	108.19	40.379	8.0951e-06	35.573	0.0019205	0.0019757	0.00054974	1217	2.1556e-05	2.152e-05	908.54	349.8	2.1381e-05	2.161e-05	289.65	95.995	116.58	43.206	2.1544e-05	40.613	-43.581	272.258	120.448	-48.323	-16.419	138.833	-50.125	-43.969	103.922	112.358	-46.373	-42.475	-38.740	-34.926	81.668	-38.801	-8191	255	
3442.437	1	1	0	0	0.22417	0.09561	0.11168	0.262	0.2729	0.24729	0.31156	0.1937	0.19778	0.07745	0.031456	0.29888	0.18953	0.18663	0.21841	0.094847	-0.70833	-0.38333	-0.35625	-1.1479	-0.15417	-0.77292	-0.875	-0.49375	-1.1542	-0.50625	-0.67083	-1.2333	-0.42708	-0.75625	-0.93125	-0.16458	-24.854	-52.587	42.090	201.086	93.227	47.000	-34.521	285.616	285.961	216.271	-53.094	76.397	248.900	205.244	243.209	247.514	0.00064087	0.00089384	0.00044616	1197.7	7.8561e-06	1.4703e-05	872.32	340.55	2.0679e-05	1.1514e-05	257.41	85.187	108.8	40.739	2.0238e-05	35.513	0.0019452	0.0019788	0.0005548	1221	2.1874e-05	2.1827e-05	913.79	349.8	2.169e-05	2.1875e-05	291.06	96.665	116.94	43.347	2.1707e-05	40.662	46.898	9.225	50.679	-48.459	7.573	81.862	-50.069	-44.347	-57.194	294.058	-46.670	-42.373	-39.164	-35.237	58.230	-38.310	-8191	255	
3442.509	1	1	0	0	0.059881	0.29971	0.18738	0.45876	0.30609	0.12779	0.17446	0.373	0.11555	0.18834	0.095536	0.15544	0.33782	0.14291	0.02511	0.42279	-0.69167	-0.34792	-0.2375	-1.1604	-0.26458	-0.82083	-1.15	-0.32083	-1.0938	-0.55	-0.44792	-1.0292	-0.3125	-0.78333	-1.0333	-0.23125	40.329	116.894	3.290	235.000	19.966	153.361	213.186	234.182	-1.545	98.171	-17.931	-35.118	25.583	-56.090	42.053	86.038	0.0002161	0.0018797	0.00010687	1191.3	5.3182e-06	1.3234e-05	864.85	340.28	1.4802e-05	5.2781e-06	255.75	83.717	109.01	40.137	2.0878e-05	35.268	0.0019312	0.0019674	0.00055232	1215.2	2.1528e-05	2.174e-05	907.65	349.4	2.1502e-05	2.1621e-05	287.62	95.341	116.7	43.045	2.1597e-05	40.357	-6.703	-57.427	281.934	-48.325	64.727	109.898	-50.020	-44.098	127.270	216.937	-46.412	-41.681	-38.965	-35.150	-17.923	-38.669	-8191	255	
3442.629	1	1	0	0	0.095434	0.20008	0.17375	0.18533	0.08902	0.073914	0.22103	0.29673	0.14161	0.041312	0.05387	0.22406	0.31737	0.31687	0.22195	0.17804	-0.6375	-0.60208	-0.077083	-1.1958	-0.39792	-0.37083	-1.1313	-0.225	-1	-0.61042	-0.29792	-1.1583	-0.26458	-0.54375	-1.1	-0.15208	197.932	242.710	264.855	-17.947	104.176	236.958	210.880	270.331	224.220	-4.538	-30.030	225.928	-50.512	286.796	95.024	231.225	0.00025984	0.0010649	0.00012165	1195.2	6.4633e-06	1.095e-05	864.04	338.76	1.1815e-05	2.7132e-06	253.62	83.284	108.49	40.108	3.9802e-06	35.232	0.0019361	0.0019805	0.000553	1217	2.1697e-05	2.1655e-05	905.69	349.17	2.143e-05	2.1747e-05	288.47	95.127	116.17	42.968	2.1659e-05	40.308	215.979	71.453	65.884	-48.438	167.401	113.478	-50.190	-44.226	82.388	130.086	-46.694	-41.798	-39.543	-35.091	31.173	-38.653	-8191	255	
3442.726	1	1	0	0	0.12395	0.14221	0.20729	0.41966	0.26819	0.033278	0.1293	0.17823	0.1252	0.065149	0.17815	0.094315	0.17083	0.10347	0.093059	0.11327	-0.51042	-0.67708	-0.11042	-1.3042	-0.41667	-0.5375	-1.3854	-0.4125	-0.98542	-0.8125	-0.29583	-1.1042	-0.54167	-0.44167	-1.0312	-0.36667	2.132	211.957	204.225	289.163	289.452	89.137	238.426	230.914	-3.923	47.772	206.662	132.275	261.794	-27.877	182.099	-37.949	0.00055002	0.00050611	0.00018188	1189.2	8.8334e-06	6.4399e-06	860.78	339.36	8.5974e-06	1.2679e-05	253.77	83.535	107.67	39.812	1.1836e-05	35.11	0.0019159	0.0019788	0.00054565	1215.4	2.1507e-05	2.1741e-05	907.26	349.05	2.1475e-05	2.174e-05	288.55	95.395	116	42.711	2.1598e-05	40.23	283.763	87.116	258.112	-48.613	110.546	209.241	-50.555	-44.025	134.627	-36.612	-46.677	-41.912	-39.362	-35.259	19.746	-39.166	-8191	255	
3442.822	1	1	0	0	0.2469	0.29424	0.36236	0.19516	0.14699	0.22976	0.56887	0.37752	0.28937	0.13571	0.34271	0.19355	0.18925	0.25246	0.24744	0.1213	-0.30208	-0.98542	-0.10417	-1.1063	-0.56667	-0.40208	-1.2354	-0.36458	-0.75208	-1.1604	-0.20208	-0.94792	-0.7625	-0.2625	-1.2604	-0.58958	236.740	204.025	-21.653	192.595	126.680	50.685	192.682	210.952	56.343	-52.329	38.532	-14.994	252.850	-53.532	197.985	-29.019	8.9056e-05	0.00071309	0.00016924	1191.8	7.378e-06	1.6136e-05	863.05	339.44	1.527e-05	7.4383e-06	253.27	84.154	107.55	39.729	8.2238e-06	35.135	0.0019304	0.0019724	0.0005517	1216.3	2.169e-05	2.1794e-05	908.54	348.99	2.1396e-05	2.1625e-05	288.6	95.517	115.74	42.621	2.1593e-05	40.184	275.122	-9.869	125.185	-48.535	18.565	184.683	-49.819	-44.300	35.838	53.149	-46.877	-41.577	-39.493	-35.300	-4.793	-39.354	-8191	255	
3442.916	1	1	0	0	0.27899	0.18203	0.030362	0.17582	0.25682	0.060838	0.024341	0.078428	0.19877	0.12664	0.079492	0.14035	0.077255	0.16689	0.067586	0.20279	-0.16667	-1.1562	-0.31042	-0.95	-0.71458	-0.26667	-1.1938	-0.62083	-0.55208	-0.9875	-0.14792	-0.88125	-1.0042	-0.30833	-1	-0.55208	272.485	118.342	201.036	271.110	288.457	15.718	139.837	-15.150	29.291	-26.138	154.696	290.814	225.479	272.998	166.830	257.159	0.0008811	0.0010536	0.00023446	1192	9.0526e-06	4.3865e-06	860.15	336.31	1.151e-05	3.8276e-06	252.71	83.173	106.52	39.131	6.4829e-06	34.504	0.00192	0.0019736	0.00054561	1217.4	2.1454e-05	2.1364e-05	906.49	346.98	2.132e-05	2.1513e-05	286.21	93.962	114.65	42.024	2.1181e-05	39.316	16.121	212.463	67.309	-48.397	143.471	75.189	-50.304	-43.894	235.584	169.946	-46.688	-42.199	-38.948	-35.503	49.791	-38.857	-8191	255	
3443.014	1	1	0	0	0.028776	0.25127	0.16679	0.20953	0.30747	0.29106	0.37952	0.36229	0.068882	0.15799	0.15939	0.35107	0.19813	0.15732	0.29132	0.087722	-0.083333	-1.0875	-0.11667	-0.95	-0.87292	-0.29375	-1.2875	-0.67708	-0.40833	-1.1146	-0.33333	-0.73958	-1.1437	-0.30625	-1.1146	-0.5875	8.298	240.482	30.944	268.359	54.697	262.222	229.294	251.930	287.841	174.380	-58.090	253.387	198.170	43.942	33.086	252.622	0.00071733	0.00064435	2.5056e-05	1185.9	9.5948e-06	7.0499e-06	850.41	335.47	1.7146e-05	4.91e-06	250.79	83.073	106.27	39.25	7.6902e-06	33.926	0.0018987	0.0019382	0.00053686	1207.2	2.1068e-05	2.1188e-05	893.47	344.44	2.1071e-05	2.1165e-05	283.42	93.566	113.96	41.875	2.1177e-05	39.112	282.867	297.311	101.746	-48.643	104.635	-56.731	-50.324	-44.100	66.941	7.206	-46.495	-41.834	-38.967	-35.286	127.588	-38.893	-8191	255	
3443.108	1	1	0	0	0.31961	0.024334	0.23978	0.18488	0.069029	0.18782	0.14488	0.44783	0.21454	0.21157	0.27914	0.23102	0.18534	0.28431	0.079602	0.13715	0.15625	-1.1104	-0.225	-0.825	-0.83542	-0.16458	-1.1083	-0.775	-0.17917	-1.2	-0.41875	-0.5125	-1.1229	-0.10208	-0.95208	-0.72917	2.663	-57.036	71.518	250.867	19.816	54.220	-24.185	248.534	-53.242	91.566	59.886	260.908	283.450	279.737	248.034	47.848	0.00050281	0.00065986	0.00031841	1185.9	7.0382e-06	1.5806e-05	853.48	335.76	1.4409e-05	1.3447e-05	251.28	82.637	106.94	39.329	1.5989e-05	34.1	0.0018875	0.00193	0.00053913	1204.8	2.1184e-05	2.1127e-05	895.52	344.74	2.0921e-05	2.1116e-05	283.91	93.82	114.22	41.889	2.0908e-05	39.15	283.705	-36.098	116.540	-48.381	163.471	102.938	-49.884	-44.070	-15.696	-30.080	-46.756	-41.451	-39.135	-35.208	150.504	-38.829	-8191	255	
3443.205	1	1	0	0	0.12724	0.27359	0.059091	0.3082	0.11598	0.040611	0.39899	0.15778	0.2782	0.14026	0.2525	0.10103	0.15841	0.45271	0.13593	0.1867	0.22292	-0.925	-0.3125	-0.67917	-1.0312	-0.14167	-1.0042	-1.0208	-0.33333	-1.0875	-0.72083	-0.475	-1.1187	-0.19167	-0.65833	-0.81667	-33.105	274.635	247.880	205.322	237.167	264.250	276.773	206.547	215.850	-44.081	266.919	230.745	228.772	278.330	-56.616	282.835	0.00049109	0.00017759	0.00023989	1188.7	2.3038e-05	1.0841e-05	854.7	335.28	2.728e-05	1.5195e-05	253.14	83.173	106.83	39.146	1.8453e-05	34.327	0.0018609	0.0019149	0.00053463	1205.5	2.0785e-05	2.0955e-05	899.9	344.4	2.087e-05	2.0789e-05	284.36	93.852	113.93	41.884	2.0818e-05	39.159	76.512	110.374	86.158	-48.418	91.963	-8.252	-50.450	-44.116	43.108	113.549	-46.482	-42.486	-39.819	-35.430	228.549	-39.063	-8191	255	
3443.301	1	1	0	0	0.19945	0.099641	0.36642	0.32935	0.189	0.14426	0.22057	0.45207	0.15867	0.13447	0.16746	0.21322	0.057941	0.08425	0.12908	0.080952	0.15833	-1.1042	-0.49167	-0.40417	-1.0125	-0.34167	-0.69583	-0.87708	-0.10625	-0.92083	-0.58542	-0.51458	-1.225	-0.45833	-0.53958	-0.99792	-60.085	136.927	208.954	271.830	-57.702	250.276	272.940	288.307	76.994	-28.700	263.542	225.835	181.786	168.186	-33.189	228.440	0.00028249	0.0003902	7.9611e-05	1181.6	9.0988e-06	9.2609e-06	856.65	335.11	1.3889e-05	1.1228e-05	251.92	81.958	106.04	38.731	4.2467e-06	33.985	0.0018429	0.0018833	0.00052512	1203.4	2.0567e-05	2.057e-05	899.16	343.95	2.0515e-05	2.0558e-05	283.51	92.995	113.39	41.426	2.046e-05	38.572	255.176	86.553	191.909	-48.426	10.746	14.737	-50.020	-44.215	226.771	65.909	-46.656	-42.428	-39.663	-35.327	-50.225	-39.007	-8191	255	
3443.421	1	1	0	0	0.20645	0.14785	0.26492	0.3817	0.28381	0.1377	0.34046	0.39072	0.15486	0.099703	0.19035	0.21596	0.13361	0.1378	0.11126	0.14081	0.3	-0.88958	-0.69167	-0.53542	-1.1646	-0.23125	-0.50625	-1.0479	-0.37917	-0.9875	-0.82708	-0.23333	-1.1646	-0.46042	-0.58542	-1.0583	146.410	172.008	125.325	207.795	14.990	236.709	270.644	278.493	-26.417	270.203	24.535	-9.730	273.832	286.557	110.620	285.079	0.00055704	0.0018365	8.662e-05	1176.8	4.3475e-06	4.9793e-06	847.32	334.61	7.8683e-06	6.5806e-06	247.12	81.457	105.26	38.556	8.2052e-06	33.351	0.0018113	0.0018653	0.00052052	1195.4	2.0256e-05	2.0272e-05	887.1	341.79	2.0104e-05	2.0263e-05	279.78	91.77	112.52	41.071	2.0044e-05	38.146	291.852	296.472	-2.671	-48.402	5.475	149.173	-50.084	-43.789	-9.119	108.113	-46.820	-41.941	-39.081	-35.541	-11.585	-38.499	-8191	255	
3443.518	1	1	0	0	0.18749	0.2345	0.039227	0.29131	0.14387	0.19551	0.28685	0.2035	0.22033	0.091343	0.24341	0.49441	0.33489	0.1107	0.21877	0.2775	-0.064583	-0.99792	-0.88333	-0.31458	-1.0438	-0.48125	-0.45417	-1.2021	-0.125	-0.8875	-1	-0.36667	-1.1521	-0.70417	-0.37708	-1.2375	238.401	281.784	114.281	282.496	18.487	21.109	239.232	292.590	260.239	162.824	254.398	277.875	-0.896	295.599	261.721	151.909	0.0006972	0.00075411	8.3145e-05	1183.2	5.076e-06	1.4785e-05	850.99	334.61	1.0385e-05	9.5274e-06	249	81.266	105.46	38.339	2.437e-06	33.545	0.0017939	0.0018412	0.00051264	1195.4	2.0229e-05	2.0189e-05	889.37	341.8	2.0001e-05	2.0259e-05	279.65	91.656	112.31	40.996	2.005e-05	38.322	-37.618	-30.302	185.137	-48.560	137.257	70.934	-50.193	-44.206	101.712	37.917	-46.710	-41.915	-39.016	-35.385	109.420	-38.633	-8191	255	
3443.614	1	1	0	0	0.19449	0.24138	0.097199	0.33407	0.069621	0.093064	0.09601	0.19819	0.089161	0.11931	0.13579	0.218	0.1845	0.10734	0.13443	0.37273	0.083333	-0.64375	-0.98333	-0.38125	-1.0938	-0.58958	-0.30208	-1.2896	-0.52917	-0.53958	-1.1	0.0875	-1.0292	-0.85625	-0.060417	-1.1729	254.890	229.241	245.495	-55.690	41.025	-58.172	173.071	279.791	220.043	176.652	-23.285	-9.604	248.205	222.498	-26.259	227.193	0.00015165	0.00033397	1.9539e-05	1187.1	1.8041e-05	1.0799e-05	853.71	331.96	4.9038e-06	1.2578e-05	251.02	81.742	105.85	38.432	6.3091e-06	33.6	0.001789	0.0018431	0.00051141	1197.4	2.0084e-05	2.0213e-05	891.5	341.01	1.9982e-05	2.0155e-05	281.27	92.16	112.64	41.066	2.0013e-05	38.442	19.934	265.859	15.645	-48.786	94.295	197.338	-49.600	-44.142	115.885	185.306	-46.573	-41.962	-39.272	-35.196	9.458	-39.149	-8191	255	
3443.710	1	1	0	0	0.18556	0.058779	0.21223	0.35728	0.2197	0.19198	0.16213	0.11528	0.1225	0.11058	0.39379	0.35645	0.079737	0.1807	0.16342	0.14972	0.16458	-0.49167	-0.97917	-0.33542	-0.85	-0.84375	-0.27917	-1.3042	-0.40417	-0.62917	-1.2313	-0.2125	-1.0187	-0.94792	-0.04375	-1.2104	202.021	218.287	0.462	271.548	262.885	31.745	230.497	-0.375	38.603	140.720	-16.838	-46.034	190.094	44.222	2.916	246.458	0.00029573	0.00094992	0.0001655	1181.7	1.1268e-06	4.7404e-06	857.1	334.78	1.7328e-05	1.1359e-05	251.2	82.17	106.19	38.733	1.4202e-05	33.927	0.0017891	0.001833	0.00051089	1200.1	1.995e-05	2.0127e-05	894.69	342.6	1.9987e-05	2.0147e-05	282.11	92.798	112.95	41.257	1.9989e-05	38.629	257.872	269.092	-21.582	-48.643	128.131	7.259	-50.482	-44.172	55.483	75.871	-47.128	-42.544	-39.420	-35.592	273.871	-39.239	-8191	255	
3443.806	1	1	0	0	0.2387	0.1853	0.23364	0.1305	0.21114	0.20763	0.27	0.32627	0.08371	0.1627	0.35474	0.22294	0.067991	0.074457	0.23578	0.20169	-0.072917	-0.29792	-1.1229	-0.28125	-0.69375	-0.84375	-0.40417	-0.97083	-0.51042	-0.41458	-1.2437	-0.26875	-0.80625	-0.92292	-0.30208	-1.2271	293.969	197.046	20.193	265.711	-41.089	24.253	255.639	206.893	11.097	48.654	240.565	-45.273	65.188	294.558	142.216	245.527	0.00066372	0.00093769	0.00029847	1179	1.0196e-05	7.369e-06	856.06	334.63	9.3939e-06	5.7141e-06	250.58	81.368	105.41	38.378	1.9609e-05	33.427	0.0017829	0.0018246	0.00050953	1195.8	1.9901e-05	1.9967e-05	891.43	341.39	1.9837e-05	1.9982e-05	279.79	91.698	112.46	41.021	1.9829e-05	38.163	27.235	-31.242	222.653	-48.758	117.875	67.962	-50.535	-44.478	-33.908	12.890	-47.027	-42.229	-39.531	-35.799	149.297	-39.015	-8191	255	
3443.902	1	1	0	0	0.16552	0.14837	0.29647	0.10615	0.12957	0.34317	0.42591	0.47477	0.28178	0.29889	0.2519	0.29327	0.067976	0.14013	0.14303	0.34112	-0.16042	-0.31458	-1.0354	-0.37083	-0.68542	-0.81458	-0.24583	-1.1021	-0.61458	-0.28542	-1.1688	-0.38542	-0.45	-0.91042	-0.10625	-0.98958	-17.831	230.329	147.574	-39.531	214.751	-60.219	256.649	213.249	45.954	-9.972	-28.285	-40.756	-51.517	-56.069	152.181	227.859	0.0006152	0.00097243	0.0002649	1181.4	1.2043e-05	4.5934e-06	852.26	336	9.8898e-06	6.5578e-06	251.68	82.464	106.05	38.901	1.4045e-05	34.017	0.001776	0.0018204	0.00050776	1193.9	2.0062e-05	2.0041e-05	888.79	342.47	1.9988e-05	2.0092e-05	280.9	92.387	112.99	41.302	2.017e-05	38.656	-3.643	-27.639	108.862	-49.013	29.511	33.170	-50.476	-44.206	-17.247	-33.465	-46.498	-42.484	-39.376	-35.590	112.916	-39.331	-8191	255	
3444.021	1	1	0	0	0.1864	0.18729	0.16002	0.29019	0.19497	0.19029	0.33067	0.24939	0.18914	0.10878	0.17962	0.34443	0.016316	0.17206	0.38658	0.12932	-0.33125	-0.075	-1.1938	-0.54583	-0.57292	-1.1625	-0.10417	-1.1042	-0.85208	-0.20833	-0.88542	-0.47708	-0.51458	-1.1542	-0.27292	-0.65	13.604	99.274	194.432	207.410	89.966	202.120	284.869	245.195	180.609	286.794	262.404	-56.170	150.473	-36.750	242.749	258.417	0.00024126	0.00053969	0.00014745	1182.3	2.8107e-06	3.1063e-06	854.98	335.64	2.3839e-05	7.6031e-06	252.9	83.138	107	39.044	7.3348e-06	34.096	0.0017996	0.0018521	0.00050992	1196.6	2.0219e-05	2.0296e-05	892.13	343.86	2.0189e-05	2.0272e-05	282.19	92.994	113.64	41.665	2.0244e-05	38.976	132.653	106.577	-28.773	-48.880	-3.826	254.223	-50.255	-44.131	268.148	250.181	-47.095	-42.245	-39.343	-35.592	-28.959	-39.055	-8191	255	
3444.117	1	1	0	0	0.19353	0.18231	0.2381	0.22347	0.12007	0.23552	0.1452	0.15511	0.13523	0.26096	0.044462	0.15485	0.3165	0.25243	0.084999	0.1573	-0.67708	-0.11875	-0.89792	-0.6	-0.42292	-1.1812	-0.35208	-0.63333	-0.97083	-0.29375	-1.175	-0.82292	-0.425	-1.2542	-0.3625	-0.73542	27.519	-40.478	7.473	220.930	45.547	-7.346	-45.410	51.202	277.299	296.735	297.491	147.802	249.380	-58.065	107.858	-58.867	0.00072789	0.00066577	0.00019943	1182.9	5.3043e-06	6.1249e-06	855.45	336.18	3.9181e-06	3.3338e-06	255.09	82.631	106.78	39.376	1.0535e-05	34.607	0.0018057	0.0018517	0.00051726	1200.8	2.0198e-05	2.0404e-05	895.01	344.59	2.0354e-05	2.0496e-05	284.74	93.525	114.05	41.942	2.0368e-05	39.412	9.699	0.182	204.233	-49.029	147.960	106.788	-50.483	-44.280	-42.025	5.483	-46.651	-42.046	-39.560	-35.498	58.551	-39.225	-8191	255	
3444.213	1	1	0	0	0.10521	0.098548	0.15302	0.26037	0.1853	0.13861	0.246	0.47372	0.18356	0.2261	0.22216	0.1111	0.076031	0.366	0.17574	0.22749	-0.92708	-0.1875	-1.175	-0.79792	-0.30417	-1.2354	-0.51667	-0.66875	-0.98542	-0.35833	-0.92083	-0.87083	-0.42292	-1.3687	-0.54583	-0.65833	29.440	247.270	-42.848	269.737	101.567	-36.975	253.662	222.130	108.507	-55.610	265.683	68.992	-47.652	264.856	82.794	226.787	0.00046901	0.001025	7.914e-05	1190.8	1.5537e-05	1.0382e-05	857.35	335.66	3.0644e-05	4.0314e-06	252.49	82.408	106.68	39.312	2.9903e-05	34.498	0.00183	0.0018695	0.00052012	1202.6	2.04e-05	2.0426e-05	898.54	344.5	2.0253e-05	2.0614e-05	284.24	93.122	113.96	41.874	2.0251e-05	39.109	-13.905	19.197	-33.923	-48.831	-9.969	72.829	-50.384	-44.187	-32.858	194.770	-46.926	-42.268	-39.504	-35.499	68.550	-39.058	-8191	255	
3444.308	1	1	0	0	0.21403	0.13583	0.1095	0.15903	0.098379	0.17909	0.4653	0.18642	0.12719	0.35081	0.11796	0.18858	0.28549	0.21138	0.012681	0.069393	-0.82708	-0.14792	-0.82292	-1.0333	-0.36667	-1.1063	-0.70208	-0.6125	-1.2042	-0.35417	-0.84167	-1.1229	-0.36667	-1.2417	-0.6875	-0.51875	170.481	260.092	-58.700	233.204	-1.206	84.334	262.783	175.925	122.444	66.198	156.136	-49.810	171.474	296.121	190.095	83.968	0.00047252	0.0006646	8.5303e-05	1183.3	8.7093e-06	9.7459e-06	852.86	334.77	2.0116e-05	5.9768e-06	248.16	82.495	106.29	39.542	5.8312e-06	34.493	0.0018102	0.0018542	0.0005176	1198.2	2.0278e-05	2.0414e-05	892.06	343.09	2.0322e-05	2.029e-05	281.17	92.863	113.6	42.037	2.0354e-05	39.214	132.597	76.619	111.329	-48.983	82.730	118.585	-50.353	-43.933	40.808	196.272	-46.755	-42.459	-39.402	-35.535	214.570	-38.759	-8191	255	
3444.404	1	1	0	0	0.076459	0.16584	0.17651	0.096934	0.23721	0.12661	0.045018	0.13044	0.12768	0.11112	0.2183	0.3356	0.12003	0.14657	0.1679	0.16427	-0.66875	-0.21875	-0.84792	-1.1021	-0.24167	-1.1875	-0.73125	-0.3875	-1.275	-0.43958	-0.82917	-1.1354	-0.19375	-1.2938	-0.76875	-0.56875	207.619	185.533	237.931	114.870	54.303	114.865	70.705	183.737	10.616	204.246	26.196	214.957	-47.735	160.282	143.611	206.013	0.00065947	0.00097044	9.3098e-05	1181.6	8.2506e-06	1.0323e-05	853.46	335.22	6.9417e-06	1.1275e-05	250.01	83.326	106.64	39.681	2.0777e-05	34.838	0.0018083	0.0018817	0.0005213	1198.4	2.0487e-05	2.0476e-05	893.63	343.09	2.032e-05	2.0476e-05	283.55	93.709	114.17	42.161	2.0502e-05	39.547	-17.306	214.226	-58.009	-48.626	167.564	22.798	-50.366	-44.204	204.844	-14.772	-46.873	-42.098	-39.120	-36.009	82.239	-38.904	-8191	255	
3444.500	1	1	0	0	0.020924	0.032816	0.044869	0.24971	0.18658	0.11354	0.027238	0.66013	0.026386	0.327	0.14675	0.14152	0.093534	0.37466	0.082878	0.1077	-0.88958	-0.21667	-0.47708	-1.2104	-0.21042	-0.88125	-0.87917	-0.38333	-1.2792	-0.61875	-0.75417	-1.0438	-0.2625	-0.91875	-0.75833	-0.37083	94.470	-45.435	133.219	267.468	147.074	44.377	67.621	244.202	33.329	232.925	-30.217	171.831	181.309	258.072	284.568	89.070	0.00059895	0.00088417	0.00016307	1177.8	6.0628e-06	2.7252e-06	852.91	335.78	9.1587e-06	1.0785e-05	252.57	84.101	108.18	40.115	8.2658e-06	35.428	0.0018242	0.0018688	0.00052163	1198.4	2.0502e-05	2.0579e-05	895.54	343.92	2.0372e-05	2.0574e-05	284.43	94.146	114.86	42.518	2.0391e-05	40.028	273.607	148.388	-39.098	-48.852	-24.125	53.650	-50.530	-44.166	195.215	53.290	-46.610	-41.969	-39.248	-35.269	192.621	-38.441	-8191	255	
3444.596	1	1	0	0	0.11651	0.33633	0.12424	0.31181	0.27318	0.38423	0.06035	0.1961	0.10205	0.26881	0.18898	0.19947	0.19624	0.28306	0.075801	0.072772	-0.69167	-0.41667	-0.48333	-1.1146	-0.21875	-0.76042	-1.0688	-0.31042	-1.1562	-0.67083	-0.44375	-1.2625	-0.47708	-0.91042	-0.77917	-0.41667	224.678	92.047	-20.375	290.105	-50.051	-18.879	99.874	255.964	33.153	96.550	147.587	144.696	183.730	273.031	272.201	-45.733	0.00077414	0.00031725	0.00032822	1183.8	3.3688e-06	5.9827e-06	856.93	337.37	1.4977e-05	1.864e-05	253.89	84.588	108.45	40.712	5.885e-06	35.597	0.0018273	0.0018743	0.00052382	1202.2	2.0507e-05	2.0633e-05	899.78	345.29	2.0498e-05	2.0682e-05	285.84	95.219	115.33	43.17	2.0606e-05	40.466	18.004	276.942	191.573	-48.619	-56.109	-3.495	-50.481	-43.844	237.701	20.940	-46.732	-41.868	-39.430	-35.227	14.866	-38.424	-8191	255	
3444.692	1	1	0	0	0.36611	0.12532	0.2525	0.14122	0.19575	0.26109	0.1138	0.38533	0.075335	0.17695	0.13437	0.29249	0.057533	0.35795	0.24643	0.02943	-0.73333	-0.50208	-0.32083	-1.2729	-0.17708	-0.5375	-0.99375	-0.44167	-1.1208	-0.54583	-0.29583	-1.0042	-0.38542	-0.525	-0.87083	-0.30625	-44.500	1.417	297.636	200.587	113.530	283.085	221.888	252.495	212.470	78.468	281.475	172.201	107.706	268.324	197.842	86.059	0.00030936	0.00076423	0.00018006	1184.7	5.7355e-06	9.4454e-06	852.25	337.27	1.7455e-05	5.5392e-06	252.96	83.761	107.55	40.267	1.1771e-05	35.369	0.0018246	0.0018737	0.00052001	1199.6	2.0369e-05	2.0554e-05	892.34	344.51	2.0232e-05	2.0491e-05	283.15	93.978	114.54	42.612	2.0241e-05	39.946	-0.968	-38.576	-42.076	-48.350	-23.664	131.392	-50.495	-44.175	184.364	-43.924	-46.916	-42.148	-39.169	-35.326	254.469	-38.996	-8191	255	
3444.813	1	1	0	0	0.51384	0.15327	0.36698	0.14369	0.17669	0.18073	0.091988	0.16261	0.14142	0.15627	0.20752	0.21278	0.086052	0.17766	0.13072	0.10284	-0.73958	-0.77917	-0.28542	-1.1896	-0.44375	-0.44792	-1.1812	-0.1875	-1.1125	-0.8	-0.025	-1.1292	-0.64792	-0.36875	-1.1	-0.31458	-30.741	78.998	144.931	263.733	178.854	218.150	249.663	148.355	19.174	-42.247	-39.054	239.923	-34.023	294.298	212.488	234.624	0.00058859	0.0020912	0.00019255	1180.3	1.9346e-05	6.4003e-06	854.22	336.5	2.1311e-05	9.6753e-06	251.92	83.868	107.83	40.29	1.6531e-05	35.313	0.0018049	0.0018563	0.00052024	1199.2	2.0479e-05	2.0615e-05	895.72	344.54	2.0336e-05	2.0555e-05	283.87	94.463	115.02	42.762	2.0559e-05	39.981	61.336	-40.438	50.726	-48.653	48.304	132.254	-50.420	-44.080	124.646	15.776	-46.575	-42.074	-39.060	-35.191	100.003	-38.961	-8191	255	
3444.909	1	1	0	0	0.1167	0.28032	0.34939	0.16894	0.08328	0.16272	0.12949	0.24574	0.1523	0.26505	0.30769	0.089209	0.18209	0.086524	0.30613	0.48172	-0.48958	-0.85625	-0.0875	-1.2292	-0.47292	-0.30833	-1.35	-0.34583	-0.6625	-1.0167	-0.15833	-1.2687	-0.69375	-0.49792	-0.92708	-0.47708	263.151	39.723	190.293	39.917	5.432	277.127	294.097	-47.256	217.472	160.241	-23.283	200.952	-57.256	43.605	9.425	247.170	0.00099947	0.00030489	8.0827e-05	1182.8	1.4108e-05	1.6703e-05	850.38	337.73	2.2379e-05	1.1977e-05	253.69	83.934	107.58	40.459	1.5858e-05	35.533	0.0018389	0.0018881	0.00052414	1198.3	2.0628e-05	2.0802e-05	892.94	345.27	2.064e-05	2.0838e-05	284.42	94.904	115.26	42.954	2.0816e-05	40.276	2.232	72.215	57.649	-48.507	79.330	58.041	-50.586	-44.313	203.172	113.435	-47.018	-41.725	-39.605	-35.160	-48.239	-38.777	-8191	255	
3444.981	1	1	0	0	0.11717	0.0094118	0.22815	0.29396	0.1127	0.26365	0.063734	0.19691	0.30163	0.18099	0.061068	0.094671	0.17089	0.044422	0.16144	0.23948	-0.37292	-0.9375	-0.10417	-1.0896	-0.71458	-0.44792	-1.3875	-0.27083	-0.60625	-0.95	-0.17917	-0.84375	-0.78958	-0.26667	-1.0896	-0.49375	197.177	-7.043	231.923	235.347	28.480	88.713	7.157	-25.794	288.570	-3.617	28.639	270.450	288.133	-35.841	263.257	-20.512	0.00041861	0.0016146	0.00031295	1178.2	1.1178e-05	4.1005e-06	860.01	336.92	1.6999e-05	6.5434e-06	255.8	85.176	107.95	40.388	1.7173e-05	35.342	0.0018432	0.0019069	0.00053385	1201.3	2.0826e-05	2.0999e-05	901.51	344.9	2.1053e-05	2.1058e-05	286.96	95.532	115.38	43.04	2.105e-05	40.397	1.748	-36.851	-57.150	-48.563	187.762	81.232	-50.312	-43.825	48.237	250.016	-46.430	-42.135	-39.301	-35.354	28.537	-38.812	-8191	255	
3445.101	1	1	0	0	0.13802	0.075153	0.17714	0.23032	0.29656	0.095362	0.051264	0.25856	0.14326	0.1893	0.095952	0.055764	0.19719	0.068174	0.18595	0.1955	-0.25833	-1.1187	-0.32292	-0.98958	-0.84583	-0.25833	-1.2125	-0.63333	-0.55	-1.2188	-0.4875	-0.86042	-0.87917	-0.21458	-1.1167	-0.71458	-0.855	-60.536	195.583	-60.343	152.360	-27.403	61.087	283.820	243.648	155.603	111.834	295.011	281.430	68.511	166.348	271.664	0.00030799	0.00077903	0.00028132	1181.2	4.4624e-06	1.2624e-05	853.79	336.5	1.1006e-05	3.9545e-06	252.14	82.972	107.39	39.509	1.1199e-05	34.574	0.0018866	0.001936	0.00053863	1201.5	2.1135e-05	2.1231e-05	898.89	344.55	2.104e-05	2.1213e-05	285.43	94.274	114.78	42.37	2.1059e-05	39.707	207.602	67.085	96.572	-48.520	259.666	133.555	-50.279	-44.210	34.960	59.052	-46.415	-41.847	-39.287	-35.301	12.030	-39.113	-8191	255	
3445.198	1	1	0	0	0.13343	0.12204	0.22291	0.21558	0.019708	0.055038	0.099056	0.1864	0.033498	0.30828	0.06726	0.18579	0.14635	0.12899	0.25356	0.34922	-0.058333	-1.0979	-0.21042	-0.91667	-0.8625	-0.10625	-1.2708	-0.96458	-0.45417	-1.2667	-0.44375	-0.825	-1.1187	-0.3	-0.96458	-0.7625	207.828	47.999	211.811	289.840	266.323	42.594	-9.754	164.322	163.571	215.837	250.480	-28.573	161.770	270.454	-15.825	237.225	0.00037082	0.00037572	0.00022459	1176.3	1.2323e-05	7.8038e-06	846.79	331.61	6.7993e-06	1.1615e-05	249.77	82.617	105.37	39.308	1.3601e-05	34.589	0.0018766	0.0019273	0.00053789	1194.3	2.1262e-05	2.1241e-05	888.81	341.72	2.0883e-05	2.1263e-05	283.09	93.891	113.62	42.138	2.1056e-05	39.267	290.258	10.223	295.676	-48.448	223.492	12.484	-50.147	-43.796	284.448	191.205	-46.369	-41.946	-38.744	-35.102	132.280	-38.814	-8191	255	
3445.294	1	1	0	0	0.26311	0.12723	0.15936	0.2007	0.25287	0.095092	0.13333	0.10983	0.082712	0.11474	0.29939	0.30818	0.12832	0.1295	0.29515	0.45848	0.21667	-1.2583	-0.26042	-0.75417	-0.98125	-0.275	-1.2167	-0.84583	-0.1375	-1.1729	-0.37083	-0.68958	-1.3646	-0.33542	-0.98542	-0.975	234.390	72.685	48.661	243.175	81.777	296.715	-50.531	203.021	286.457	11.133	285.676	235.981	259.585	-52.644	233.673	223.645	0.0004488	0.00020536	0.00048112	1176.4	1.0833e-05	1.0949e-05	845.27	332.16	1.2789e-05	1.0396e-05	250.18	83.228	105.86	39.153	5.1859e-06	34.431	0.0018728	0.0019154	0.00053462	1192.4	2.0909e-05	2.108e-05	895.04	342.08	2.0861e-05	2.1051e-05	283.72	93.598	113.81	41.935	2.0969e-05	39.402	132.798	-4.318	26.436	-48.460	245.618	202.468	-49.875	-44.114	253.691	75.439	-46.693	-41.951	-39.442	-35.146	17.821	-38.844	-8191	255	
3445.413	1	1	0	0	0.11093	0.23782	0.51635	0.092252	0.070112	0.36803	0.33358	0.10271	0.10408	0.23987	0.34409	0.38422	0.15803	0.085304	0.1053	0.22989	0.13333	-1.0229	-0.36667	-0.45208	-1.1375	-0.25208	-0.99167	-1.0229	-0.19167	-1.1437	-0.49792	-0.3875	-1.3667	-0.33125	-0.81875	-1.1646	171.874	8.413	63.559	34.808	219.413	236.094	251.582	212.408	256.618	155.851	149.386	225.912	287.232	107.369	248.878	136.029	0.00033312	0.00017516	0.00017	1174.2	1.2524e-05	8.6294e-06	847.67	333.3	8.5772e-06	9.3534e-06	250.36	82.631	106.04	39.192	9.4341e-06	34.396	0.0018564	0.0019087	0.00053336	1194.4	2.0893e-05	2.1074e-05	894.4	342.17	2.0776e-05	2.0901e-05	283.5	94.068	113.7	41.91	2.0847e-05	39.407	39.867	26.077	41.751	-48.576	205.551	197.054	-49.899	-43.703	50.639	34.427	-46.488	-41.876	-39.467	-35.092	166.413	-39.344	-8191	255	
3445.509	1	1	0	0	0.1364	0.15324	0.31541	0.046338	0.17054	0.039371	0.2315	0.16644	0.25589	0.051564	0.20385	0.20535	0.086421	0.14075	0.1889	0.20727	0.0083333	-1.0604	-0.55625	-0.42708	-1.1521	-0.24375	-0.69167	-1.05	-0.29583	-1.1646	-0.90208	-0.70417	-1.3333	-0.27292	-0.69375	-1.0375	-33.810	13.123	180.871	149.979	173.021	-40.352	198.184	276.895	26.592	131.674	170.697	168.388	201.620	-52.794	-30.710	-27.262	0.00056696	0.00099449	6.4094e-05	1178.9	9.0009e-06	1.0605e-05	853.96	334.8	4.0794e-06	1.3812e-05	250.79	82.283	105.54	39.24	1.4389e-05	34.284	0.0018508	0.0018926	0.00052873	1196	2.069e-05	2.09e-05	896.29	342.95	2.0634e-05	2.0725e-05	282.61	93.376	113.1	41.673	2.0439e-05	38.953	12.088	289.290	133.573	-48.521	46.497	30.118	-50.202	-44.367	202.940	236.768	-46.247	-41.730	-39.053	-35.246	62.773	-39.168	-8191	255	
3445.605	1	1	0	0	0.15071	0.31654	0.12772	0.33248	0.17897	0.1658	0.19702	0.39852	0.25549	0.24862	0.049568	0.29105	0.20045	0.13137	0.24234	0.15503	0.17708	-0.99375	-0.79167	-0.53125	-1.2062	-0.47083	-0.50417	-0.95833	-0.16042	-1.0292	-0.80417	-0.32917	-1.275	-0.68542	-0.5875	-1.1187	2.068	33.567	47.347	233.359	214.467	-18.608	220.220	263.944	70.657	109.269	117.787	75.378	191.801	23.953	-6.124	140.401	0.00065648	0.0013474	0.00024877	1172.8	1.3794e-05	7.1144e-06	845.83	333.33	7.9925e-07	8.8458e-06	248.31	81.21	105.12	38.907	1.4653e-05	33.851	0.0018098	0.0018723	0.00051953	1188.7	2.0406e-05	2.0434e-05	883.41	340.5	2.0181e-05	2.0263e-05	279.55	91.92	112.44	41.351	2.004e-05	38.453	-14.140	-30.578	91.026	-48.576	122.059	162.617	-49.815	-43.988	-30.768	104.822	-46.520	-41.857	-39.267	-35.356	13.025	-38.912	-8191	255	
3445.701	1	1	0	0	0.23307	0.12231	0.17058	0.36286	0.091713	0.029104	0.04948	0.2466	0.16874	0.20466	0.36979	0.14501	0.087607	0.16722	0.32397	0.13082	0.11667	-0.78333	-0.97083	-0.26875	-1.3146	-0.68542	-0.6875	-1.3208	-0.27292	-0.87292	-1.1708	-0.15625	-1.1208	-0.72292	-0.3625	-1.1938	-34.780	18.769	271.868	11.687	293.301	45.854	287.346	178.815	133.979	297.192	114.433	56.556	233.592	287.715	168.623	281.411	0.00041923	0.0012458	0.0002449	1167.5	1.1469e-05	1.0903e-05	850.62	333.43	2.2128e-05	2.0831e-05	249.35	82.3	106.2	38.674	2.0272e-05	33.881	0.0017914	0.0018482	0.00050915	1185.6	2.006e-05	2.0011e-05	886.13	340.28	1.9865e-05	2.0185e-05	279.4	92.158	112.83	41.145	2.0025e-05	38.481	288.746	3.711	263.948	-48.355	142.858	71.190	-50.109	-44.242	23.723	88.071	-46.901	-42.136	-39.040	-35.360	-49.395	-38.619	-8191	255	
3445.797	1	1	0	0	0.24966	0.12572	0.10413	0.094809	0.23822	0.20328	0.15609	0.20659	0.11277	0.19183	0.031156	0.3929	0.049268	0.010683	0.038773	0.24884	-0.091667	-0.70417	-1.15	-0.32083	-0.99583	-0.64375	-0.36875	-1.3792	-0.38542	-0.6125	-1.1104	-0.12083	-1.1688	-0.82917	-0.25833	-1.1417	81.215	274.202	229.386	231.329	53.620	202.854	-35.820	207.325	179.326	47.200	201.888	287.609	72.928	280.724	286.674	200.904	0.00077764	0.00072737	0.00012666	1174.1	5.3527e-06	6.2248e-06	847.16	331.25	1.905e-05	5.0059e-06	250.6	83.022	106.17	38.785	1.0359e-05	34.214	0.0017741	0.0018175	0.00050759	1188.7	1.9888e-05	2.0092e-05	887.24	340.1	1.9773e-05	2.0078e-05	279.85	92.544	112.98	41.449	1.9902e-05	38.748	7.368	34.570	149.340	-48.587	-4.856	123.218	-50.005	-44.188	144.304	-52.405	-47.016	-42.201	-39.225	-34.990	262.158	-38.930	-8191	255	
3445.893	1	1	0	0	0.28311	0.082314	0.29236	0.22811	0.16897	0.23974	0.15609	0.10082	0.14736	0.19983	0.03273	0.31964	0.28413	0.35993	0.20187	0.28625	-0.16875	-0.48125	-1.0938	-0.46042	-1.0063	-0.82083	-0.35625	-1.3813	-0.52708	-0.49792	-1.1063	-0.45833	-1.0271	-0.87917	-0.13542	-1.2667	39.747	224.764	150.372	242.780	-26.041	270.875	232.944	147.410	151.260	207.801	-43.735	209.482	4.254	-60.987	-18.837	18.696	0.00075246	0.00074232	0.00023147	1172.1	7.9544e-06	1.9502e-06	855.61	334.17	1.2318e-05	4.1922e-06	251.49	83.284	105.36	39.051	1.2492e-05	34.459	0.001759	0.001824	0.00050759	1188	1.9934e-05	2.0066e-05	891.59	340.96	1.9767e-05	1.9855e-05	281.97	93.086	112.77	41.558	1.9909e-05	38.956	33.341	15.204	250.646	-48.557	157.922	106.819	-50.250	-43.812	5.429	-38.503	-46.438	-41.814	-39.145	-35.136	97.432	-38.490	-8191	255	
3445.989	1	1	0	0	0.19255	0.32256	0.24984	0.28684	0.078093	0.25913	0.15778	0.097645	0.17709	0.31822	0.27247	0.27497	0.31575	0.058799	0.013311	0.16566	-0.020833	-0.21458	-1.0896	-0.4125	-0.72083	-1.0583	-0.175	-0.96875	-0.54792	-0.425	-1.0979	-0.29375	-0.76875	-0.85833	-0.11875	-1.0063	-38.961	96.566	136.558	-28.439	90.963	-8.840	218.657	-6.514	98.145	167.492	-25.150	257.935	-58.282	237.384	273.742	-50.659	0.00074216	0.001327	0.00012116	1170.3	1.1575e-05	6.9858e-06	848.67	333.22	1.5383e-05	1.0446e-05	251.76	81.838	105.65	38.837	2.7139e-05	34.053	0.0017529	0.0018023	0.00050415	1185.6	1.9689e-05	1.9719e-05	886.99	340.03	1.958e-05	1.9775e-05	280.06	92.038	112.53	41.383	1.9506e-05	38.496	-60.094	126.377	294.254	-48.149	-50.946	198.438	-50.306	-44.017	3.448	278.796	-46.485	-41.867	-38.806	-34.895	97.027	-38.881	-8191	255	
3446.110	1	1	0	0	0.086211	0.46128	0.18123	0.27821	0.11659	0.10809	0.34684	0.11709	0.3161	0.063425	0.074196	0.21863	0.13003	0.15381	0.24188	0.22515	-0.36458	-0.24583	-1.1812	-0.4125	-0.6	-1.25	-0.39167	-1.0542	-0.47292	-0.3	-1.3104	-0.45833	-0.4875	-1.0688	-0.37917	-1.1063	204.635	235.635	113.195	268.095	203.101	283.069	213.190	231.722	132.104	291.519	31.573	83.725	214.170	-42.766	282.945	234.935	0.00048381	0.0013513	0.0003923	1169.2	7.57e-06	1.0778e-05	845.54	333.9	1.772e-05	1.0709e-05	251.26	83.546	106.35	39.101	5.7191e-06	34.23	0.0017386	0.0017885	0.00049968	1183.2	1.9498e-05	1.9595e-05	881.37	340.02	1.9476e-05	1.9713e-05	279.54	92.495	112.59	41.525	1.9449e-05	38.72	270.500	279.736	-20.446	-48.533	78.056	55.287	-50.000	-44.120	-26.026	92.895	-45.996	-42.242	-39.283	-35.410	0.260	-38.280	-8191	255	
#DATA ENDS
