BOXY.EXE: ISS Imagent and Oximeter Data Acquisition Program Version 0.80
Ascii Record File

#ACQ INFORMATION
2  Detector Channels 
16  External MUX Channels 
1  Auxiliary Channels 
5000  Waveform (CCF) Frequency (Hz)
1  Waveforms Skipped 
30  Waveforms Averaged 
1  Cycles Averaged 
16  Acquisitions per Waveform 
10.0806  Updata Rate (Hz) 

#FILE INFORMATION
TRUE -- External MUX Channel results are PARSED.
FALSE -- AC DC and Phase are NOT grouped.
TRUE -- Companion Program Settings File CREATED.
FALSE -- AC data not excluded
FALSE -- DC data not excluded
FALSE -- Phase data not excluded
FALSE -- Auxillary Chn. data not excluded
Tab delimiters

#CALIBRATION STATE
TRUE -- Waveform Calibration Values APPLIED.


#AUX CALIBRATION VALUES
Val Type	aux-1	

Term	1.0000e+00	
Factor	0.0000e+00	


#WF CALIBRATION VALUES
A = Detector Channel
Val Type	A-AC1	A-AC2	A-AC3	A-AC4	A-AC5	A-AC6	A-AC7	A-AC8	A-AC9	A-AC10	A-AC11	A-AC12	A-AC13	A-AC14	A-AC15	A-AC16	A-DC1	A-DC2	A-DC3	A-DC4	A-DC5	A-DC6	A-DC7	A-DC8	A-DC9	A-DC10	A-DC11	A-DC12	A-DC13	A-DC14	A-DC15	A-DC16	A-Ph1	A-Ph2	A-Ph3	A-Ph4	A-Ph5	A-Ph6	A-Ph7	A-Ph8	A-Ph9	A-Ph10	A-Ph11	A-Ph12	A-Ph13	A-Ph14	A-Ph15	A-Ph16	

Term	0.00000e+00	0.00000e+00	0.00000e+00	0.00000e+00	0.00000e+00	0.00000e+00	0.00000e+00	0.00000e+00	0.00000e+00	0.00000e+00	0.00000e+00	0.00000e+00	0.00000e+00	0.00000e+00	0.00000e+00	0.00000e+00	0.00000e+00	0.00000e+00	0.00000e+00	0.00000e+00	0.00000e+00	0.00000e+00	0.00000e+00	0.00000e+00	0.00000e+00	0.00000e+00	0.00000e+00	0.00000e+00	0.00000e+00	0.00000e+00	0.00000e+00	0.00000e+00	0.00000e+00	0.00000e+00	0.00000e+00	0.00000e+00	0.00000e+00	0.00000e+00	0.00000e+00	0.00000e+00	0.00000e+00	0.00000e+00	0.00000e+00	0.00000e+00	0.00000e+00	0.00000e+00	0.00000e+00	0.00000e+00	
Factor	1.00000e+00	1.00000e+00	1.00000e+00	1.00000e+00	1.00000e+00	1.00000e+00	1.00000e+00	1.00000e+00	1.00000e+00	1.00000e+00	1.00000e+00	1.00000e+00	1.00000e+00	1.00000e+00	1.00000e+00	1.00000e+00	1.00000e+00	1.00000e+00	1.00000e+00	1.00000e+00	1.00000e+00	1.00000e+00	1.00000e+00	1.00000e+00	1.00000e+00	1.00000e+00	1.00000e+00	1.00000e+00	1.00000e+00	1.00000e+00	1.00000e+00	1.00000e+00	X	X	X	X	X	X	X	X	X	X	X	X	X	X	X	X	

B = Detector Channel
Val Type	B-AC1	B-AC2	B-AC3	B-AC4	B-AC5	B-AC6	B-AC7	B-AC8	B-AC9	B-AC10	B-AC11	B-AC12	B-AC13	B-AC14	B-AC15	B-AC16	B-DC1	B-DC2	B-DC3	B-DC4	B-DC5	B-DC6	B-DC7	B-DC8	B-DC9	B-DC10	B-DC11	B-DC12	B-DC13	B-DC14	B-DC15	B-DC16	B-Ph1	B-Ph2	B-Ph3	B-Ph4	B-Ph5	B-Ph6	B-Ph7	B-Ph8	B-Ph9	B-Ph10	B-Ph11	B-Ph12	B-Ph13	B-Ph14	B-Ph15	B-Ph16	

Term	0.00000e+00	0.00000e+00	0.00000e+00	0.00000e+00	0.00000e+00	0.00000e+00	0.00000e+00	0.00000e+00	0.00000e+00	0.00000e+00	0.00000e+00	0.00000e+00	0.00000e+00	0.00000e+00	0.00000e+00	0.00000e+00	0.00000e+00	0.00000e+00	0.00000e+00	0.00000e+00	0.00000e+00	0.00000e+00	0.00000e+00	0.00000e+00	0.00000e+00	0.00000e+00	0.00000e+00	0.00000e+00	0.00000e+00	0.00000e+00	0.00000e+00	0.00000e+00	-6.63820e+01	-1.32221e+02	-1.32598e+02	-1.82128e+02	-5.54045e+01	-6.81716e+01	-1.55839e+02	-1.62015e+02	-4.79085e+01	-6.04191e+01	-1.71365e+02	-1.71126e+02	-1.82066e+02	-1.77488e+02	-4.97492e+01	-1.50542e+02	
Factor	1.73107e-05	1.54295e-04	4.51476e-05	4.38225e-01	1.60551e-06	1.62400e-06	1.61763e-01	5.30960e-02	1.05840e-06	1.60533e-06	8.42355e-02	2.85716e-02	2.33515e-02	8.60720e-03	1.42458e-06	1.24910e-02	5.84177e-06	7.47084e-06	2.07437e-06	2.24426e-01	8.03748e-08	8.19727e-08	7.87615e-02	2.75353e-02	7.88756e-08	8.23536e-08	4.22450e-02	1.44254e-02	1.22567e-02	4.50262e-03	8.00578e-08	6.30654e-03	X	X	X	X	X	X	X	X	X	X	X	X	X	X	X	X	



#DISTANCE SETTINGS
A = Detector Channel
A-1	A-2	A-3	A-4	A-5	A-6	A-7	A-8	A-9	A-10	A-11	A-12	A-13	A-14	A-15	A-16	

2.5000e+00	3.0000e+00	2.5000e+00	3.0000e+00	2.0000e+00	3.0000e+00	1.5000e+00	3.0000e+00	3.0000e+00	3.0000e+00	3.0000e+00	3.0000e+00	3.0000e+00	3.0000e+00	1.5000e+00	3.0000e+00	

B = Detector Channel
B-1	B-2	B-3	B-4	B-5	B-6	B-7	B-8	B-9	B-10	B-11	B-12	B-13	B-14	B-15	B-16	

1.0000e+01	1.0000e+01	1.0000e+01	1.4400e+00	1.0000e+01	1.0000e+01	1.5100e+00	1.9400e+00	1.0000e+01	1.0000e+01	1.9900e+00	2.4900e+00	2.4100e+00	2.9000e+00	1.0000e+01	2.9800e+00	




#DATA BEGINS
time	group	step	mark	flag	A-AC1	A-AC2	A-AC3	A-AC4	A-AC5	A-AC6	A-AC7	A-AC8	A-AC9	A-AC10	A-AC11	A-AC12	A-AC13	A-AC14	A-AC15	A-AC16	A-DC1	A-DC2	A-DC3	A-DC4	A-DC5	A-DC6	A-DC7	A-DC8	A-DC9	A-DC10	A-DC11	A-DC12	A-DC13	A-DC14	A-DC15	A-DC16	A-Ph1	A-Ph2	A-Ph3	A-Ph4	A-Ph5	A-Ph6	A-Ph7	A-Ph8	A-Ph9	A-Ph10	A-Ph11	A-Ph12	A-Ph13	A-Ph14	A-Ph15	A-Ph16	B-AC1	B-AC2	B-AC3	B-AC4	B-AC5	B-AC6	B-AC7	B-AC8	B-AC9	B-AC10	B-AC11	B-AC12	B-AC13	B-AC14	B-AC15	B-AC16	B-DC1	B-DC2	B-DC3	B-DC4	B-DC5	B-DC6	B-DC7	B-DC8	B-DC9	B-DC10	B-DC11	B-DC12	B-DC13	B-DC14	B-DC15	B-DC16	B-Ph1	B-Ph2	B-Ph3	B-Ph4	B-Ph5	B-Ph6	B-Ph7	B-Ph8	B-Ph9	B-Ph10	B-Ph11	B-Ph12	B-Ph13	B-Ph14	B-Ph15	B-Ph16	aux-1	digaux	

40378.434	1	1	0	512	0.16993	0.13891	0.044111	0.075699	0.17844	0.1295	0.11972	0.058919	0.13279	0.22409	0.1072	0.18268	0.075019	0.036165	0.14993	0.19402	-2.4	-2.5292	-2.425	-2.8563	-2.6042	-2.6896	-2.6083	-2.4875	-2.7687	-2.8229	-2.4313	-2.7833	-2.5542	-2.7875	-2.7708	-2.5229	223.734	290.982	180.798	257.563	345.043	122.595	248.276	41.012	63.958	362.280	169.355	356.546	231.711	333.591	376.192	108.739	4.066e-05	0.00011859	5.4453e-05	69.708	2.5776e-06	1.7873e-06	106.28	16.592	1.5514e-06	5.298e-07	32.366	11.331	5.2275	1.9796	1.2884e-06	5.0611	0.00031406	0.00039485	0.0001176	83.611	3.9174e-06	4.5164e-06	114.78	18.797	4.0672e-06	4.404e-06	36.153	12.724	6.166	2.3351	4.3034e-06	5.646	190.682	170.246	247.343	39.490	143.704	88.478	40.373	46.864	177.403	192.276	44.627	50.716	51.764	54.183	375.500	53.521	-8191	255	
40378.531	1	1	0	0	0.13082	0.23617	0.21031	0.044322	0.028589	0.15657	0.17289	0.1548	0.13218	0.21716	0.17975	0.17604	0.21425	0.30415	0.27266	0.12056	-2.3167	-2.7062	-2.3792	-2.8521	-2.4979	-2.7021	-2.7583	-2.5187	-2.825	-2.725	-2.5042	-2.825	-2.7417	-2.6188	-2.8833	-2.5104	145.122	62.586	350.270	270.622	221.576	32.628	155.272	205.633	347.741	131.382	162.181	137.216	365.577	51.124	260.334	124.370	4.3177e-05	6.6558e-05	4.0342e-05	68.561	1.5748e-06	2.3703e-06	105.61	16.763	1.2777e-06	1.167e-06	31.826	11.238	5.2459	1.9181	7.563e-07	4.9641	0.0003098	0.00040525	0.00011678	83.403	3.9879e-06	4.4332e-06	113.3	18.668	4.1668e-06	4.4577e-06	35.477	12.576	6.1465	2.3019	4.3153e-06	5.5573	206.705	170.145	221.306	40.282	181.284	199.294	39.909	46.712	218.603	213.489	45.327	51.140	51.204	55.899	88.790	53.574	-8191	255	
40378.625	1	1	0	0	0.21629	0.049095	0.23498	0.14712	0.30367	0.11858	0.135	0.027558	0.12093	0.10811	0.18052	0.12655	0.26659	0.18687	0.15178	0.14807	-2.15	-2.7354	-2.6354	-2.6292	-2.5021	-2.5521	-2.8417	-2.6042	-2.7333	-2.9229	-2.5125	-2.8396	-2.6104	-2.7021	-2.75	-2.4562	380.007	356.789	297.517	368.964	148.367	256.686	93.291	293.763	117.448	303.056	290.980	88.756	154.779	123.421	343.204	347.610	4.0779e-05	0.00012316	4.1486e-05	69.285	2.7964e-06	1.2245e-06	104.82	16.32	6.373e-07	2.1294e-06	31.658	11.215	5.2182	1.9492	2.3746e-06	4.989	0.00032143	0.00040948	0.00011213	83.779	4.2173e-06	4.4342e-06	113.06	18.634	4.4517e-06	4.6513e-06	35.369	12.558	6.1614	2.3242	4.2391e-06	5.5854	204.697	353.177	255.067	39.928	245.331	100.318	40.124	46.719	139.244	47.921	45.390	51.298	50.969	54.955	276.315	53.540	-8191	255	
40378.723	1	1	0	0	0.15018	0.13137	0.23375	0.23642	0.18339	0.2148	0.17141	0.11595	0.0052281	0.1698	0.057207	0.095097	0.069673	0.33597	0.25709	0.35913	-2.2229	-2.9125	-2.4979	-2.6625	-2.5938	-2.5125	-2.8	-2.6333	-2.7292	-2.9188	-2.5687	-2.7958	-2.725	-2.3458	-2.8458	-2.6333	175.010	179.824	358.123	75.881	238.636	212.631	39.280	372.501	364.547	217.625	360.172	159.795	362.650	384.481	150.665	78.340	3.5223e-05	0.00027051	2.6803e-05	71.279	1.7421e-06	1.5198e-06	105.07	16.655	1.8545e-06	1.3872e-06	31.94	11.191	5.3032	1.9622	1.1668e-06	5.0728	0.00033083	0.00041623	0.00011371	84.331	4.3853e-06	4.4282e-06	113.61	18.826	4.4609e-06	4.5056e-06	35.566	12.616	6.1755	2.3356	4.1678e-06	5.648	204.374	211.270	188.359	40.113	312.032	182.742	40.037	45.279	127.888	140.725	45.362	50.783	51.349	54.816	97.393	54.198	-8191	255	
40378.844	1	1	0	0	0.49834	0.1928	0.15008	0.24049	0.26094	0.19509	0.095619	0.046818	0.099327	0.19365	0.1515	0.20472	0.039129	0.025528	0.18031	0.051908	-2.1979	-2.8312	-2.4771	-2.6792	-3.0083	-2.5521	-2.8021	-2.5	-2.5542	-2.8729	-2.6708	-2.7333	-2.8583	-2.6792	-3.0062	-2.8438	81.139	224.492	63.178	360.435	341.861	176.095	359.883	144.999	34.843	52.400	90.009	261.579	167.264	46.921	141.930	376.065	4.1276e-05	0.00013169	7.8368e-05	69.094	1.657e-06	2.0692e-06	105.2	16.581	1.6117e-06	2.2865e-07	32.142	11.368	5.1884	1.9795	1.6144e-06	5.0631	0.00033002	0.00039816	0.00010815	84.463	4.3978e-06	4.1683e-06	114.19	18.946	4.3575e-06	4.3361e-06	35.677	12.727	6.1621	2.3322	4.1281e-06	5.6289	226.861	169.563	225.973	40.415	195.365	28.650	40.724	46.206	175.873	234.481	45.113	50.824	50.229	55.216	101.104	53.682	-8191	255	
40378.938	1	1	0	0	0.18098	0.30296	0.22455	0.065768	0.1891	0.090024	0.1985	0.18411	0.18029	0.069053	0.042825	0.15272	0.14313	0.074782	0.20041	0.33012	-2.2042	-2.9729	-2.5229	-2.8271	-2.8646	-2.5833	-3.0229	-2.7458	-2.7062	-2.7771	-2.6146	-2.6125	-2.7	-2.5312	-2.7438	-2.875	360.034	181.249	79.498	286.231	234.560	279.536	272.215	274.987	198.431	135.511	206.651	85.211	379.567	264.486	165.195	349.841	3.7036e-05	5.832e-05	1.9136e-05	70.424	1.4181e-06	9.8374e-07	105.37	16.624	6.6411e-07	9.2204e-07	31.607	11.174	5.2036	1.9615	1.8123e-06	5.0381	0.00032109	0.00039152	0.00011441	84.372	4.3602e-06	3.9799e-06	113.57	18.661	4.3597e-06	4.2863e-06	35.409	12.587	6.1527	2.2954	4.176e-06	5.5999	207.056	160.871	139.997	39.889	78.866	295.826	39.425	46.168	302.006	233.897	45.131	50.730	51.462	54.379	130.393	53.640	-8191	255	
40379.035	1	1	0	0	0.064815	0.18582	0.11054	0.11008	0.14263	0.2224	0.15098	0.41593	0.25795	0.054407	0.12516	0.36122	0.14286	0.23566	0.20323	0.22059	-2.1021	-2.8937	-2.5854	-2.55	-2.9875	-2.5125	-2.6521	-2.7687	-2.5458	-2.7938	-2.6562	-2.5833	-3.0021	-2.5208	-2.875	-2.6813	291.033	43.444	46.968	226.383	354.589	318.505	273.597	44.215	162.096	83.856	298.801	347.443	80.579	35.517	47.300	98.095	3.3698e-05	4.7197e-05	4.4969e-05	71.112	1.4789e-06	3.4985e-06	105.21	16.364	2.119e-07	1.2308e-06	31.68	11.154	5.1341	2.0015	1.2324e-06	4.9847	0.00031178	0.00037158	0.00011106	84.787	4.1341e-06	3.8476e-06	113.86	18.65	4.311e-06	4.0427e-06	35.672	12.578	6.0881	2.3075	4.0646e-06	5.6167	197.507	201.341	152.257	40.158	217.304	163.051	39.923	46.621	295.698	332.299	45.200	50.709	51.377	55.430	189.189	53.819	-8191	255	
40379.129	1	1	0	0	0.14542	0.1113	0.13813	0.25794	0.050177	0.16444	0.15268	0.13185	0.059858	0.19061	0.010963	0.042379	0.098063	0.033392	0.10152	0.14208	-2.1771	-2.7125	-2.6625	-2.4333	-2.95	-2.4875	-2.7083	-2.5563	-2.5292	-2.7438	-2.6688	-2.4646	-2.8812	-2.6646	-2.75	-2.8104	125.387	336.789	202.380	262.970	332.859	153.613	246.500	341.722	266.501	369.665	143.702	174.829	276.763	195.858	41.809	199.426	3.7822e-05	6.3753e-05	5.486e-05	69.894	2.0735e-06	1.0352e-06	106.34	16.559	2.0559e-06	6.4875e-07	32.184	11.186	5.2275	1.9774	1.8069e-06	5.0167	0.00028824	0.00036915	0.00011257	84.47	3.9799e-06	3.8643e-06	114.29	18.755	4.0021e-06	4.0386e-06	35.806	12.586	6.1078	2.3188	4.1959e-06	5.6176	254.548	378.070	351.341	39.815	311.810	297.135	40.161	46.482	91.692	68.758	43.932	51.134	52.299	54.170	288.232	52.948	-8191	255	
40379.250	1	1	0	0	0.33309	0.14181	0.37528	0.10273	0.20257	0.033277	0.080724	0.16001	0.18145	0.17235	0.091664	0.039608	0.10641	0.21675	0.10122	0.13976	-2.1333	-2.875	-2.8792	-2.6604	-2.7792	-2.5979	-2.7625	-2.7167	-2.5479	-2.6833	-2.6667	-2.6125	-2.7687	-2.5854	-2.7708	-2.8646	262.786	227.325	92.367	226.399	102.665	161.917	364.661	244.648	236.678	340.686	172.297	156.161	128.637	68.234	358.334	283.329	2.9058e-05	0.0001995	1.4564e-05	69.626	2.9537e-06	1.7936e-06	105.83	16.342	8.8019e-07	1.4263e-06	32.424	11.27	5.2514	1.9766	1.5882e-06	4.9936	0.00028297	0.00037642	0.00010702	84.29	3.9255e-06	3.9484e-06	114.12	18.791	4.0087e-06	4.2028e-06	35.814	12.619	6.0708	2.3163	4.1041e-06	5.5727	230.422	265.260	110.654	39.972	63.285	218.632	39.903	46.481	226.512	236.335	44.692	50.887	51.588	53.886	263.203	54.402	-8191	255	
40379.324	1	1	0	0	0.20156	0.067459	0.085089	0.057096	0.0047974	0.25622	0.092534	0.041946	0.067274	0.092226	0.21994	0.13421	0.16913	0.12259	0.26305	0.28485	-2.0062	-2.8292	-2.7812	-2.7375	-2.925	-2.8083	-2.5667	-2.8125	-2.5667	-2.7729	-2.6646	-2.35	-2.9667	-2.7854	-2.6729	-2.8521	159.534	102.408	197.044	76.744	234.870	137.153	266.389	31.539	278.781	205.765	359.673	112.797	374.853	228.691	117.380	368.006	2.773e-05	0.00026208	6.0518e-05	68.928	7.6051e-07	1.4967e-06	105.66	16.396	5.0019e-07	8.2456e-07	31.455	11.072	5.144	1.935	9.434e-07	5.0033	0.00028062	0.00037599	0.0001059	83.371	3.8359e-06	3.9829e-06	113.07	18.449	3.8587e-06	4.1741e-06	35.312	12.356	5.9936	2.2631	3.9992e-06	5.5118	176.453	134.636	96.893	40.058	196.389	162.627	40.076	46.554	258.286	213.262	44.844	51.247	52.352	54.561	303.746	53.496	-8191	255	
40379.418	1	1	0	0	0.26571	0.12898	0.041404	0.10622	0.36798	0.16043	0.064141	0.14437	0.046551	0.16583	0.18291	0.085204	0.1886	0.097554	0.0389	0.17968	-2.05	-2.8354	-2.7896	-2.3937	-2.5833	-2.7292	-2.5792	-2.9646	-2.5604	-2.7292	-2.8792	-2.5042	-2.8479	-2.6458	-2.5854	-2.8729	265.935	233.763	269.609	278.879	167.993	267.598	131.688	163.400	297.189	130.905	338.315	371.996	163.329	272.328	280.130	74.530	5.9304e-05	0.00014492	4.3712e-05	70.359	7.5821e-07	1.9252e-06	105.08	16.739	1.4985e-06	6.6592e-07	32.18	11.271	5.1976	1.956	1.4351e-06	5.0611	0.0002737	0.00037012	0.0001019	82.969	3.8245e-06	3.9168e-06	113.64	18.631	3.9195e-06	3.9183e-06	35.585	12.422	6.0154	2.2758	3.742e-06	5.5216	203.721	323.381	220.639	39.863	259.437	328.980	39.940	47.225	152.558	323.398	44.969	50.555	51.234	55.036	173.784	53.767	-8191	255	
40379.516	1	1	0	0	0.12722	0.027299	0.089716	0.13309	0.083167	0.017014	0.076651	0.12854	0.24107	0.28412	0.10611	0.31687	0.08808	0.10236	0.1908	0.14149	-2.3083	-2.5083	-2.7521	-2.675	-2.7896	-2.4479	-2.5646	-2.8438	-2.5646	-2.5354	-2.8667	-2.6542	-2.6917	-2.7458	-2.45	-2.7958	373.642	108.148	156.751	78.887	142.977	70.829	272.069	200.603	252.554	186.705	92.191	321.102	280.208	284.585	159.835	271.470	4.4185e-05	9.9809e-05	2.8626e-05	70.171	2.0428e-06	1.9697e-06	107.14	16.441	1.5959e-06	1.6759e-06	32.525	11.391	5.2713	1.9655	1.627e-06	5.0637	0.00027571	0.00035245	9.3852e-05	83.863	3.7505e-06	3.8175e-06	113.99	18.662	3.8988e-06	3.9079e-06	35.765	12.539	6.0984	2.2925	3.8439e-06	5.6013	192.149	97.957	241.733	40.557	208.473	194.337	40.353	45.759	139.705	311.372	44.777	51.392	51.366	54.596	149.775	53.901	-8191	255	
40379.609	1	1	0	0	0.25265	0.115	0.34707	0.22313	0.14358	0.18029	0.32636	0.18705	0.027208	0.15709	0.060287	0.07518	0.080361	0.12448	0.15735	0.11588	-2.1417	-2.6917	-2.7146	-2.35	-2.8042	-2.7521	-2.4792	-2.6937	-2.7125	-2.6562	-2.7729	-2.3958	-2.7104	-2.8021	-2.7583	-2.9396	75.037	319.029	202.617	61.962	296.822	306.974	246.184	108.833	302.500	196.805	162.256	207.476	121.099	382.223	167.851	70.236	4.9046e-05	0.00010672	5.806e-05	69.779	1.0664e-06	2.1141e-06	106.04	16.586	7.5695e-07	7.6534e-07	32.157	11.404	5.2569	1.9605	9.5259e-07	5.021	0.00028333	0.00034912	9.3493e-05	82.814	3.8781e-06	3.8355e-06	113.67	18.684	4.0075e-06	3.9526e-06	35.669	12.59	6.184	2.2868	3.7095e-06	5.5926	200.884	169.245	163.063	39.913	341.114	282.302	40.163	46.065	236.995	32.443	45.263	50.862	50.201	54.815	301.205	54.328	-8191	255	
40379.730	1	1	0	0	0.11208	0.095133	0.22521	0.1746	0.26817	0.22852	0.34573	0.12457	0.26297	0.088344	0.026034	0.060606	0.31012	0.37181	0.20139	0.36267	-2.2917	-2.7646	-2.9813	-2.5604	-2.775	-2.8187	-2.5104	-2.7979	-2.6583	-2.5792	-2.9521	-2.5271	-2.5	-2.7	-2.4646	-2.8958	76.798	325.477	89.316	369.222	267.666	193.701	111.740	312.889	374.419	219.113	224.254	223.202	301.248	229.069	52.539	29.490	4.8761e-05	0.0001925	1.4361e-05	70.133	8.6916e-07	1.5657e-06	105.28	16.145	1.4269e-06	6.7695e-07	31.804	11.096	5.1489	1.9422	2.0155e-06	4.9655	0.00029304	0.00034635	9.3359e-05	84.065	3.8518e-06	3.8884e-06	112.72	18.503	3.7757e-06	3.9974e-06	35.161	12.39	6.0333	2.2606	3.8323e-06	5.5331	193.961	388.179	88.710	39.948	229.456	183.877	40.264	46.196	365.750	59.360	45.166	51.565	51.165	54.008	305.860	53.425	-8191	255	
40379.824	1	1	0	0	0.26057	0.25289	0.18912	0.099192	0.10626	0.13309	0.093903	0.1198	0.12639	0.20757	0.058359	0.20301	0.2397	0.329	0.13987	0.098274	-2.3438	-2.6896	-2.925	-2.7667	-2.5271	-2.775	-2.8083	-2.8688	-2.7313	-2.5667	-2.6979	-2.5833	-2.6104	-2.6792	-2.7021	-2.6958	325.045	63.073	77.438	46.123	206.832	277.273	285.008	43.458	365.183	86.243	194.094	147.217	379.866	210.338	147.482	159.882	2.7849e-05	6.9978e-05	2.154e-05	71.233	1.2743e-06	3.7866e-06	105.06	16.588	1.1629e-06	1.0409e-06	31.918	11.087	5.2882	1.9455	2.2906e-06	4.9391	0.0002975	0.00033497	9.705e-05	84.353	3.903e-06	3.7897e-06	112.64	18.611	3.8304e-06	4.0588e-06	35.227	12.46	6.0506	2.2451	3.9143e-06	5.5328	236.690	99.073	125.878	38.761	261.654	358.684	40.047	46.332	168.802	114.156	44.628	50.399	51.832	54.218	326.075	53.400	-8191	255	
40379.922	1	1	0	0	0.24119	0.19461	0.38155	0.079967	0.26588	0.18405	0.17231	0.051215	0.3583	0.11533	0.24767	0.0054123	0.25008	0.18	0.090061	0.041062	-2.2375	-2.4604	-2.7396	-2.6813	-2.5187	-2.95	-2.5812	-2.6625	-2.7625	-2.6729	-2.6854	-2.5333	-2.5271	-2.9042	-2.6208	-2.8896	180.974	246.300	321.306	335.031	180.139	122.451	210.475	238.679	148.393	352.299	135.659	44.006	349.731	207.926	354.003	291.563	4.5217e-05	6.6113e-05	3.3019e-05	68.56	1.5381e-06	1.6182e-06	105.49	16.306	1.2092e-06	8.3924e-07	32.095	11.143	5.2613	1.943	1.9925e-06	5.055	0.00029113	0.00031683	9.7971e-05	83.075	3.8962e-06	3.7573e-06	112.93	18.521	3.7387e-06	3.7663e-06	35.394	12.497	6.034	2.2574	4.0056e-06	5.5932	221.982	224.858	33.279	39.900	235.207	325.121	40.042	46.003	211.611	194.348	44.967	51.025	51.066	54.957	291.354	53.480	-8191	255	
40380.020	1	1	0	0	0.2862	0.12053	0.22424	0.27084	0.047069	0.23114	0.27503	0.07306	0.30876	0.21154	0.0024673	0.21994	0.08191	0.36815	0.17713	0.098385	-2.375	-2.6396	-2.8042	-2.6625	-2.5021	-2.7687	-2.7188	-2.6521	-2.8729	-2.575	-2.6833	-2.7667	-2.4333	-2.7313	-2.6146	-2.6604	247.853	148.843	189.738	282.311	211.895	356.776	305.059	316.106	366.038	70.722	180.000	227.328	303.101	168.983	75.040	83.564	5.3022e-05	0.00011759	2.5105e-05	69.758	2.513e-06	2.1378e-07	105.63	16.461	1.205e-06	2.1616e-07	32.415	11.321	5.2148	1.9537	1.4685e-07	5.0843	0.00028441	0.00032682	0.00010352	82.976	3.9052e-06	3.7624e-06	113.67	18.703	3.6708e-06	3.949e-06	35.592	12.591	6.0313	2.2921	4.0654e-06	5.6263	201.299	213.742	353.792	39.518	183.953	306.946	40.223	46.108	181.251	251.577	44.642	50.347	52.198	53.909	331.196	53.122	-8191	255	
40380.113	1	1	0	0	0.061884	0.16506	0.21824	0.13735	0.031197	0.23068	0.18675	0.20316	0.2127	0.26208	0.19977	0.20007	0.14603	0.23644	0.12133	0.15018	-2.5271	-2.4771	-2.7875	-2.6458	-2.5167	-2.8458	-2.8	-2.7167	-2.75	-2.5938	-2.7812	-2.6229	-2.4437	-2.6896	-2.8563	-2.7188	196.096	232.517	210.809	104.478	386.073	204.353	40.008	358.951	87.739	302.612	318.809	147.664	200.471	238.130	302.450	93.090	3.2998e-05	0.0001612	5.1366e-05	70.928	1.2512e-06	1.9344e-06	105.27	16.498	9.5141e-08	7.4448e-07	32.082	11.146	5.1119	1.9525	1.0519e-06	4.938	0.0002829	0.00032922	0.00010291	82.94	3.8829e-06	3.8319e-06	113.01	18.509	3.5225e-06	4.0036e-06	35.288	12.408	5.9402	2.2531	4.0159e-06	5.491	223.968	307.749	335.599	39.396	319.653	158.278	40.075	46.696	158.256	156.788	44.508	50.673	51.066	54.738	190.327	53.125	-8191	255	
40380.211	1	1	0	0	0.33043	0.11813	0.040211	0.29143	0.089996	0.14671	0.064187	0.040085	0.14272	0.072111	0.079392	0.088151	0.21355	0.1405	0.18665	0.11436	-2.2354	-2.7	-2.7458	-2.6771	-2.4833	-2.8146	-2.6771	-2.5646	-2.7354	-2.6083	-2.7313	-2.7083	-2.5646	-2.8708	-2.6771	-2.4917	179.342	221.317	164.833	367.304	292.200	380.897	186.875	365.642	47.644	119.942	85.160	37.216	91.390	89.346	358.367	237.734	3.8021e-05	0.00017041	2.9962e-05	69.425	1.4055e-06	9.9257e-07	104.63	16.347	2.093e-07	1.9526e-06	31.374	11.254	5.1839	1.9646	5.0436e-07	4.9304	0.00027479	0.00034341	0.00010061	82.956	3.6609e-06	4.0153e-06	113	18.412	3.565e-06	4.2258e-06	35.199	12.457	5.984	2.2797	3.8374e-06	5.5519	207.853	163.812	128.492	38.792	46.890	245.058	39.819	46.464	130.769	168.941	45.330	51.407	51.608	54.981	243.551	54.334	-8191	255	
40380.332	1	1	0	0	0.22623	0.17325	0.18436	0.25703	0.18117	0.06002	0.091068	0.24367	0.18252	0.14233	0.21671	0.10641	0.027522	0.20885	0.14117	0.25055	-2.2729	-2.5917	-2.7	-2.8208	-2.4958	-2.7021	-2.6667	-2.5125	-2.7917	-2.5479	-2.5792	-2.8083	-2.4104	-2.6229	-2.7208	-2.8	133.028	242.471	349.371	109.606	46.584	156.891	365.850	249.668	266.949	39.261	328.142	166.325	160.674	300.922	251.062	340.168	2.8637e-05	8.9043e-05	1.8458e-05	69.501	5.9221e-07	9.9952e-07	105.38	16.646	4.3548e-07	2.2906e-06	32.502	11.308	5.1714	1.9173	4.9737e-07	5.0362	0.00027971	0.00034732	0.00010007	81.976	3.8379e-06	4.0032e-06	113.42	18.588	3.6478e-06	4.1347e-06	35.663	12.528	6.0511	2.2869	3.8188e-06	5.6103	218.835	234.847	210.700	40.668	359.007	72.504	39.987	46.308	250.485	152.708	45.175	51.252	50.956	54.798	99.961	53.637	-8191	255	
40380.426	1	1	0	0	0.21936	0.16051	0.17387	0.055193	0.1565	0.22212	0.22369	0.32765	0.10038	0.17874	0.18719	0.083843	0.20236	0.24058	0.26299	0.13328	-2.4417	-2.4458	-2.5375	-2.7687	-2.5333	-2.6792	-2.6479	-2.3563	-2.8563	-2.65	-2.5208	-3.0875	-2.6354	-2.5042	-2.7604	-2.5	353.813	50.013	87.677	70.826	168.231	128.946	96.393	250.627	188.967	178.172	238.747	93.013	229.992	139.834	238.915	77.231	3.6344e-05	0.00017679	7.931e-05	69.164	1.3706e-06	2.4461e-06	105.41	16.256	2.0792e-07	1.1083e-06	32.265	11.257	5.2377	1.9893	2.2014e-07	4.9885	0.00029236	0.00035862	9.839e-05	82.439	4.0132e-06	4.0711e-06	113.18	18.4	3.8172e-06	4.0314e-06	35.495	12.531	6.0481	2.2881	3.6478e-06	5.5699	188.552	284.538	62.774	39.546	180.089	191.538	40.198	46.581	201.923	244.456	45.280	50.872	50.745	55.286	292.618	53.262	-8191	255	
40380.523	1	1	0	0	0.36078	0.1659	0.12392	0.14697	0.30603	0.23513	0.2502	0.12951	0.14791	0.19826	0.20889	0.1956	0.16518	0.18461	0.089566	0.13938	-2.3083	-2.6	-2.5792	-2.8354	-2.6354	-2.5958	-2.8625	-2.4313	-2.6542	-2.7125	-2.5187	-2.7313	-2.5083	-2.5542	-2.9792	-2.5667	270.290	378.333	163.315	38.588	267.156	56.067	206.778	321.560	65.488	206.127	289.414	30.610	177.629	280.452	133.139	209.287	2.4904e-05	0.00031798	6.3065e-05	70.228	1.1335e-06	7.372e-07	104.68	16.281	1.9525e-06	2.7671e-06	32.139	11.046	5.1965	1.9189	6.6828e-07	4.9574	0.00030484	0.00036557	9.4168e-05	82.146	4.3538e-06	4.106e-06	113.12	18.352	4.1577e-06	4.0995e-06	35.261	12.444	6.0356	2.2687	3.7415e-06	5.515	162.668	356.268	133.096	39.138	185.780	339.536	40.068	46.984	342.997	163.319	45.143	50.538	51.117	54.803	146.353	53.875	-8191	255	
40380.621	1	1	0	0	0.16132	0.096829	0.15917	0.15137	0.055246	0.12113	0.022612	0.10294	0.21817	0.41413	0.10957	0.22335	0.15163	0.088649	0.041435	0.31099	-2.3271	-2.7604	-2.5896	-2.7896	-2.5938	-2.5625	-2.8208	-2.2667	-2.8312	-2.8292	-2.3083	-2.65	-2.6792	-2.6583	-2.7542	-2.6354	282.479	315.244	195.916	330.599	352.546	244.099	116.335	259.889	99.638	268.325	87.609	135.866	322.545	214.023	362.870	286.443	4.7419e-05	0.0001498	2.6077e-05	69.841	2.2375e-06	9.0378e-07	105.73	16.291	1.7255e-06	2.1484e-06	31.908	11.103	5.1777	1.9451	6.701e-07	4.9601	0.00031916	0.00036785	9.38e-05	83.686	4.2401e-06	3.941e-06	113.3	18.335	4.0412e-06	3.9101e-06	35.214	12.456	6.0596	2.2661	3.6421e-06	5.5544	193.506	151.801	192.140	40.460	366.210	140.488	40.118	46.005	180.563	184.311	44.286	50.902	51.250	53.864	64.101	53.248	-8191	255	
40380.715	1	1	0	0	0.089072	0.1514	0.14627	0.047071	0.20595	0.028063	0.13681	0.20689	0.18035	0.33897	0.14804	0.11689	0.20738	0.062164	0.23613	0.16325	-2.4354	-2.675	-2.5917	-2.875	-2.5458	-2.5667	-2.8208	-2.4896	-2.6708	-2.8271	-2.5396	-2.7625	-2.8021	-2.5396	-2.7292	-2.5	156.231	253.986	364.493	243.031	56.018	366.007	128.237	123.207	229.765	198.753	310.791	333.802	326.493	43.587	34.097	329.474	1.1643e-05	8.4904e-05	3.1695e-05	69.806	1.498e-06	2.8824e-07	105.21	16.058	1.1259e-06	2.0643e-06	31.849	11.235	5.3079	1.964	2.7732e-06	4.8977	0.00030326	0.00034943	9.2711e-05	83.124	4.1005e-06	3.8032e-06	113.4	18.421	3.8054e-06	3.7059e-06	35.391	12.549	6.1183	2.2733	3.7942e-06	5.595	187.859	156.628	66.153	39.551	94.399	216.864	40.338	46.512	299.727	139.421	45.171	50.624	50.813	54.542	211.574	53.479	-8191	255	
40380.809	1	1	0	0	0.26211	0.17197	0.058737	0.10389	0.2353	0.18341	0.27252	0.16283	0.034813	0.041105	0.0065106	0.15874	0.24261	0.25296	0.20014	0.16476	-2.175	-2.9229	-2.3271	-2.8021	-2.7812	-2.6083	-2.7083	-2.5208	-2.575	-2.8146	-2.7083	-2.7313	-2.7771	-2.5583	-2.7938	-2.7104	209.691	343.065	195.510	117.119	72.956	76.706	48.092	137.740	300.290	165.921	338.030	254.628	271.853	143.293	63.390	288.957	4.676e-05	0.00011176	7.6782e-06	69.175	2.7556e-06	2.3217e-06	105.47	16.679	1.2716e-06	7.0502e-07	32.236	11.26	5.2559	2.0067	1.7748e-06	5.1177	0.00030477	0.00034146	9.4423e-05	83.741	3.7214e-06	3.7767e-06	113.86	18.669	3.6687e-06	3.7073e-06	35.899	12.653	6.1181	2.2935	3.9779e-06	5.6796	164.668	244.433	152.917	39.323	285.947	188.237	40.255	46.044	357.087	181.781	45.301	50.814	51.416	54.844	225.363	53.479	-8191	255	
40380.930	1	1	0	0	0.20063	0.28819	0.13401	0.26915	0.14213	0.13139	0.061985	0.12582	0.25512	0.22518	0.21714	0.16216	0.10401	0.31494	0.19584	0.19579	-2.3458	-2.9167	-2.6042	-2.6958	-2.8708	-2.6312	-2.8625	-2.5917	-2.5542	-2.8771	-2.6083	-2.6104	-2.8292	-2.4917	-2.7521	-2.7396	165.967	226.824	58.051	44.177	64.296	180.098	205.503	59.528	115.188	299.853	383.807	259.556	225.290	378.369	370.690	108.176	2.5838e-05	5.9701e-05	1.9984e-05	70.374	2.0251e-06	2.7717e-06	104.14	16.417	2.901e-07	1.25e-06	31.361	11.18	5.1293	1.9299	2.2868e-06	4.9399	0.00028317	0.00034288	9.5991e-05	83.45	3.7257e-06	3.9765e-06	113.09	18.386	3.5777e-06	3.7663e-06	35.165	12.449	6.0043	2.2479	4.0112e-06	5.5259	205.147	75.324	327.380	38.971	172.861	217.154	40.204	46.598	266.806	170.351	44.715	50.827	51.519	53.978	349.904	53.717	-8191	255	
40381.027	1	1	0	0	0.2349	0.099172	0.149	0.094094	0.32745	0.1309	0.11228	0.24664	0.13935	0.27874	0.16167	0.2353	0.11676	0.095904	0.067273	0.25409	-2.3083	-2.9729	-2.5708	-2.6521	-2.5167	-2.5812	-2.7396	-2.875	-2.5208	-3.0021	-2.5354	-2.5875	-2.9167	-2.625	-2.7958	-2.7542	70.419	223.936	235.823	216.007	45.048	337.332	255.010	363.603	279.831	387.537	59.582	30.858	221.827	294.274	346.563	109.007	2.4953e-05	9.2307e-05	2.8527e-05	70.52	1.7193e-06	1.3497e-06	105.88	16.111	7.4559e-07	1.1637e-06	31.269	11.035	5.1673	1.9297	1.0721e-06	4.9804	0.0002926	0.00035891	9.9155e-05	83.456	3.6336e-06	3.9712e-06	112.84	18.24	3.4324e-06	3.9307e-06	35.09	12.354	5.9565	2.2426	3.9582e-06	5.5152	287.160	212.090	182.750	39.011	169.092	145.662	40.507	45.955	381.578	152.944	44.607	50.236	50.563	54.057	266.642	54.675	-8191	255	
40381.121	1	1	0	0	0.14183	0.099633	0.29702	0.17822	0.017041	0.31938	0.20875	0.1454	0.34736	0.25849	0.12598	0.082552	0.098296	0.049284	0.20495	0.27397	-2.0146	-2.6958	-2.5833	-2.5958	-2.8542	-2.5979	-2.8542	-2.6937	-2.6104	-2.9021	-2.5687	-2.6854	-2.8833	-2.5125	-2.7021	-2.725	326.717	292.640	118.532	146.148	362.131	55.813	372.871	237.255	151.496	39.555	163.769	252.450	139.714	242.290	289.787	67.961	3.5583e-05	9.6995e-05	4.6362e-05	69.321	1.6104e-06	3.4739e-06	104.16	16.145	1.4962e-06	9.4883e-07	30.554	10.906	5.1075	1.9209	2.4461e-06	4.9178	0.00028768	0.00036682	9.9397e-05	82.36	3.6154e-06	4.1716e-06	112	18.091	3.4367e-06	4.0564e-06	34.646	12.2	5.925	2.238	3.7864e-06	5.4795	240.073	74.595	348.473	39.359	293.665	29.367	40.188	46.763	140.826	279.989	45.643	50.996	50.795	54.550	170.126	53.345	-8191	255	
40381.195	1	1	0	0	0.24	0.033569	0.09343	0.06166	0.18574	0.33048	0.071667	0.24858	0.12543	0.26966	0.034537	0.11296	0.24774	0.17143	0.15543	0.16313	-2.0708	-2.85	-2.8042	-2.5938	-2.8792	-2.5812	-2.6375	-2.7083	-2.7313	-2.9188	-2.75	-2.6417	-2.7583	-2.6708	-2.8187	-2.8521	84.331	190.545	316.621	280.170	114.853	71.710	359.799	109.212	61.893	112.173	342.829	150.237	371.863	328.162	30.125	370.134	4.147e-05	0.00010854	3.2249e-05	68.243	2.7232e-06	1.4579e-06	104.58	16.207	1.0123e-06	2.0033e-07	31.111	11.18	5.1529	1.945	1.3813e-06	4.885	0.00029359	0.00036746	9.7625e-05	81.364	3.6964e-06	4.1557e-06	112.5	18.195	3.4536e-06	4.0557e-06	34.884	12.367	5.9812	2.263	3.8813e-06	5.5031	242.149	142.302	140.488	39.050	136.934	378.499	39.843	46.770	250.428	362.604	45.030	50.920	52.006	54.288	185.094	53.275	-8191	255	
40381.289	1	1	0	0	0.13981	0.072815	0.14559	0.26597	0.13258	0.26845	0.1771	0.10675	0.13561	0.19891	0.17703	0.15719	0.12275	0.17238	0.18088	0.082108	-2.2729	-2.7958	-2.6583	-2.5875	-2.9792	-2.5833	-2.75	-2.7958	-2.5521	-2.7896	-2.675	-2.4313	-2.9208	-2.5292	-2.7188	-2.9104	214.950	28.622	336.760	290.601	253.384	114.876	127.984	194.703	212.477	38.326	148.973	193.642	105.064	129.190	236.939	369.936	3.2051e-05	4.4879e-05	5.5574e-05	68.364	8.3728e-07	2.0955e-06	103.34	16.013	4.2688e-07	2.5519e-06	31.336	10.812	5.14	1.923	2.0141e-06	4.8506	0.00030729	0.0003776	9.8334e-05	81.611	3.9215e-06	4.3447e-06	111.97	18.17	3.7141e-06	4.1354e-06	34.55	12.209	5.9792	2.2396	3.8163e-06	5.416	227.045	131.003	51.782	39.906	127.383	150.057	40.242	46.256	169.834	89.937	44.843	50.760	50.487	55.805	94.310	53.612	-8191	255	
40381.410	1	1	0	0	0.1993	0.23593	0.18126	0.23799	0.16697	0.089895	0.28174	0.29013	0.22001	0.18277	0.034279	0.088952	0.10774	0.14458	0.036069	0.40217	-2.1813	-2.7917	-2.7104	-2.5333	-2.85	-2.7417	-2.5667	-2.825	-2.5833	-2.95	-2.9104	-2.4688	-2.6792	-2.7333	-2.7042	-3.075	273.064	212.262	247.871	182.425	187.896	121.509	359.376	55.352	291.749	155.139	119.045	312.874	212.593	84.447	376.351	383.999	2.0474e-05	0.00016776	8.997e-05	67.378	1.7023e-06	1.7102e-06	103.57	15.954	1.2159e-06	1.2845e-06	30.612	10.955	5.1261	1.9335	1.2427e-06	4.9162	0.00032387	0.00037091	9.6851e-05	80.726	4.0696e-06	4.3053e-06	111.72	18.25	3.8904e-06	4.3217e-06	34.422	12.26	6.0183	2.2544	3.7052e-06	5.4626	213.629	249.149	49.057	39.419	85.608	56.724	40.565	46.353	213.738	167.326	45.679	50.959	51.398	54.080	182.677	53.924	-8191	255	
40381.508	1	1	0	0	0.052171	0.20133	0.16575	0.10898	0.10635	0.22142	0.1429	0.16714	0.089865	0.28563	0.12531	0.21196	0.23055	0.067072	0.18779	0.20948	-2.1104	-2.5625	-2.7062	-2.4979	-2.7708	-2.8083	-2.525	-2.7896	-2.6604	-2.8625	-2.7333	-2.5792	-2.7812	-2.6125	-2.5708	-2.9875	152.396	106.735	210.840	148.643	205.217	320.163	216.642	130.162	97.967	178.065	239.157	344.035	277.988	253.046	359.025	359.129	2.3193e-05	5.4255e-05	3.2885e-05	69.495	1.7822e-06	1.4122e-06	103.59	15.782	3.8117e-07	1.5614e-06	31.256	10.855	5.0889	1.892	1.4125e-06	4.9818	0.00031513	0.00037104	9.3074e-05	81.546	4.0881e-06	4.1236e-06	111.95	18.099	3.8986e-06	4.0053e-06	34.512	12.171	5.9855	2.2326	3.5557e-06	5.5099	240.429	234.362	32.611	38.960	142.717	176.895	40.170	45.951	84.659	151.408	45.073	51.114	51.531	54.442	236.210	53.158	-8191	255	
40381.605	1	1	0	0	0.12932	0.18914	0.32195	0.12553	0.26774	0.032782	0.24039	0.098152	0.22376	0.22299	0.22475	0.03641	0.12959	0.15737	0.14798	0.089845	-2.2021	-2.7021	-2.8125	-2.4854	-2.7958	-2.7	-2.7292	-2.9375	-2.7313	-2.5917	-2.9125	-2.7125	-2.9188	-2.6521	-2.4667	-2.7313	239.892	135.847	247.301	164.196	315.772	115.526	89.831	113.566	38.552	201.485	64.190	190.774	259.834	30.725	279.995	68.793	2.5481e-05	4.1616e-05	3.4079e-05	69.807	1.8814e-06	2.3057e-06	103.81	16.039	3.0982e-07	1.1452e-06	31.291	10.955	5.0725	1.9134	1.0745e-06	4.9645	0.00032826	0.00034837	9.4436e-05	81.776	4.1102e-06	3.8095e-06	111.6	18.235	3.9178e-06	3.7136e-06	34.585	12.289	5.9584	2.2257	3.4974e-06	5.4935	153.158	368.540	48.431	39.645	266.183	164.043	39.986	46.211	100.703	385.233	45.030	51.532	51.368	54.742	318.033	53.706	-8191	255	
40381.723	1	1	0	0	0.29745	0.066675	0.26072	0.15921	0.065021	0.14459	0.047914	0.26528	0.085291	0.1547	0.19526	0.23932	0.17434	0.17752	0.14607	0.08763	-2.2771	-2.5833	-2.8896	-2.6771	-2.7479	-2.7208	-2.6437	-2.9854	-2.5333	-2.5375	-2.7833	-2.4833	-2.6625	-2.7625	-2.7667	-2.7542	381.486	261.773	267.476	117.944	348.999	263.760	99.151	148.244	181.310	148.241	135.254	257.434	306.246	91.111	44.895	211.147	2.5949e-05	0.0001135	4.398e-05	69.702	1.4026e-06	3.6477e-07	102.68	15.882	8.6386e-07	1.8517e-06	30.354	10.776	5.0945	1.8828	1.955e-06	4.7991	0.00031554	0.00034229	0.00010062	81.812	4.0936e-06	3.7327e-06	111.48	18.073	3.797e-06	3.652e-06	34.185	12.129	5.8769	2.1917	3.7832e-06	5.3795	245.027	34.779	30.922	39.258	73.351	302.118	39.826	45.638	140.173	238.839	44.735	51.274	50.523	54.544	202.099	53.137	-8191	255	
40381.793	1	1	0	0	0.23179	0.17771	0.078671	0.27648	0.082352	0.1859	0.13563	0.096652	0.15114	0.22602	0.074024	0.19764	0.069958	0.32545	0.22072	0.12554	-2.2479	-2.7354	-2.8521	-2.575	-2.6208	-2.9417	-2.6271	-2.8042	-2.8083	-2.6	-2.7958	-2.5875	-2.6792	-2.8875	-2.6458	-2.9875	349.070	39.080	258.099	63.762	285.186	336.068	331.818	275.556	144.250	65.584	153.541	203.011	360.816	202.384	323.601	30.160	7.5635e-06	5.2548e-05	2.7143e-05	69.078	3.1292e-06	8.2137e-07	102.39	15.304	7.4032e-07	1.6516e-06	30.372	10.709	5.0075	1.8405	2.2969e-06	4.7278	0.00029764	0.00035429	0.00010389	81.364	3.8356e-06	3.7347e-06	110.91	17.888	3.718e-06	3.7141e-06	34.053	12.057	5.7937	2.1759	3.9283e-06	5.3502	287.884	267.399	89.365	39.595	190.222	249.781	39.579	46.232	167.389	152.463	43.851	50.978	51.356	54.471	119.629	53.633	-8191	255	
40381.891	1	1	0	0	0.10494	0.22236	0.081026	0.16269	0.3656	0.1553	0.13357	0.36816	0.082499	0.22951	0.22201	0.18882	0.11078	0.32112	0.10475	0.1583	-2.4354	-2.5271	-2.8271	-2.6771	-2.6188	-3.0312	-2.625	-2.7375	-2.9396	-2.55	-2.8583	-2.7167	-2.7167	-2.8438	-2.6104	-2.8333	246.400	33.798	386.408	142.579	274.402	253.825	386.878	313.916	163.021	353.814	51.116	244.338	284.262	168.980	279.314	54.249	3.1115e-05	4.4877e-05	5.9133e-05	67.135	8.5524e-07	5.2366e-07	103.13	15.873	1.2218e-06	7.4213e-07	30.733	10.742	5.0775	1.8933	1.1891e-06	4.8939	0.00028319	0.00036918	0.00010868	81.668	3.7505e-06	3.9606e-06	110.96	17.939	3.764e-06	3.9042e-06	34.46	12.097	5.8455	2.225	4.0668e-06	5.4371	199.271	251.232	345.844	39.931	127.731	375.580	40.343	46.398	111.025	288.446	45.929	50.866	51.045	54.062	90.275	53.488	-8191	255	
40382.012	1	1	0	0	0.23136	0.17191	0.12889	0.15006	0.23089	0.22864	0.20908	0.085757	0.1629	0.17814	0.13823	0.22394	0.16768	0.028649	0.15293	0.12643	-2.4917	-2.525	-2.825	-2.7458	-2.5417	-2.8521	-2.4792	-2.8812	-2.7875	-2.6833	-2.8229	-2.8458	-2.5521	-2.7479	-2.6896	-2.8063	387.288	153.962	65.793	205.978	198.976	105.888	378.239	344.398	291.647	154.827	345.279	70.748	81.553	127.618	41.856	311.160	4.36e-05	0.00017532	2.3366e-05	68.133	1.8624e-06	7.9071e-07	102.54	15.661	4.9298e-07	8.1568e-07	30.899	10.723	5.1518	1.8857	6.6232e-07	4.8752	0.00028626	0.00040009	0.00011066	81.513	3.713e-06	4.2228e-06	111.43	17.964	3.6733e-06	3.937e-06	34.585	12.084	5.945	2.2481	3.956e-06	5.4592	185.342	110.512	187.056	39.439	349.892	207.553	39.542	46.192	254.570	159.336	44.612	50.842	52.572	54.394	71.763	53.051	-8191	255	
40382.105	1	1	0	0	0.31528	0.2059	0.072925	0.29469	0.0957	0.011814	0.24742	0.15705	0.13752	0.14122	0.10902	0.22293	0.089145	0.10908	0.12117	0.26847	-2.4167	-2.4854	-2.9042	-2.7271	-2.6417	-2.8958	-2.5979	-2.7167	-2.8312	-2.4708	-2.8438	-2.8063	-2.4625	-2.8208	-2.7625	-2.6771	218.142	218.785	122.185	376.550	159.746	296.863	33.762	138.726	286.767	172.783	368.366	31.339	344.740	255.383	230.447	285.232	4.3222e-05	0.00023802	7.2594e-05	66.238	9.7106e-07	1.8956e-06	102.42	15.983	4.778e-07	7.5408e-07	30.693	10.736	4.8886	1.8509	1.0431e-06	4.8114	0.00029338	0.00040638	0.00010896	81.238	3.7356e-06	4.3977e-06	111.08	17.883	3.9382e-06	4.1784e-06	34.236	12.008	5.8322	2.2162	4.0336e-06	5.3204	225.279	275.219	109.436	39.581	177.685	159.564	40.233	46.704	227.089	138.053	44.629	50.221	51.187	54.746	220.536	53.236	-8191	255	
40382.203	1	1	0	0	0.16745	0.092766	0.078815	0.10995	0.011842	0.16794	0.17708	0.22466	0.30522	0.10341	0.21202	0.12267	0.24302	0.1151	0.13748	0.17405	-2.3104	-2.5833	-2.9104	-2.8937	-2.625	-2.8063	-2.7188	-2.6625	-2.775	-2.5729	-2.8729	-2.8146	-2.5125	-2.7729	-2.5771	-2.6583	307.270	259.623	132.886	189.589	182.028	268.341	263.214	75.947	236.064	45.551	93.302	286.759	235.730	90.964	258.977	246.716	4.5287e-05	0.00020044	4.8685e-05	68.004	4.5812e-07	1.1352e-06	101.41	15.64	1.3758e-06	1.0885e-06	30.453	10.572	4.9782	1.8588	9.7038e-07	4.7027	0.00030484	0.00041784	0.00010866	80.879	3.9292e-06	4.5025e-06	110.15	17.682	4.1443e-06	4.2345e-06	34.042	11.932	5.9072	2.2158	3.9805e-06	5.3292	213.799	111.887	227.707	39.793	370.970	192.310	40.076	46.195	219.895	244.297	44.535	50.837	50.789	54.340	146.888	53.462	-8191	255	
40382.324	1	1	0	0	0.17278	0.1984	0.33871	0.19892	0.26989	0.16409	0.26865	0.19404	0.2704	0.26952	0.15189	0.14443	0.35046	0.18129	0.11385	0.22071	-2.4458	-2.5583	-2.7583	-2.8396	-2.5687	-2.8417	-2.6417	-2.5042	-2.8021	-2.6479	-2.7104	-2.8646	-2.3438	-2.7375	-2.6729	-2.5979	95.806	74.853	351.211	220.365	367.674	293.809	129.767	376.771	71.064	311.441	58.602	244.156	294.872	127.583	262.552	164.436	4.9293e-05	0.00018471	8.1515e-05	68.37	1.2121e-06	1.9067e-06	102.13	15.61	1.0146e-06	1.0072e-06	30.294	10.735	4.971	1.9175	1.1032e-06	4.8441	0.00033002	0.00041798	0.00010528	81.454	4.1641e-06	4.5189e-06	110.43	17.973	4.3672e-06	4.3085e-06	34.028	12.03	5.9132	2.2472	4.0439e-06	5.3871	219.714	378.018	102.984	39.951	61.579	228.507	39.279	45.794	289.232	257.557	44.841	51.171	50.293	54.775	288.297	53.057	-8191	255	
40382.422	1	1	0	0	0.13479	0.085627	0.019143	0.13992	0.2472	0.16529	0.16159	0.078763	0.1105	0.12965	0.18528	0.14383	0.22619	0.12619	0.10635	0.096549	-2.3604	-2.5417	-2.6125	-2.6854	-2.4729	-3.0583	-2.7333	-2.7125	-2.7896	-2.6625	-2.6188	-2.8667	-2.5792	-2.6979	-2.9083	-2.6458	126.540	167.602	277.527	178.454	112.114	151.334	163.674	314.241	40.048	79.982	342.894	246.930	112.277	321.465	299.013	126.827	3.7973e-05	0.00028166	2.2385e-05	68.903	6.8499e-07	4.3874e-07	102.65	15.624	1.7746e-06	1.5276e-06	30.774	10.737	5.0815	1.8559	1.166e-06	4.9017	0.00033454	0.00042978	0.00010299	81.885	4.1507e-06	4.3335e-06	110.38	18.027	4.3916e-06	4.2599e-06	34.022	12.086	5.9958	2.2354	3.9949e-06	5.4418	211.481	371.173	380.867	39.968	167.134	303.831	40.293	47.240	215.225	386.271	44.804	51.466	49.938	54.782	369.874	53.188	-8191	255	
40382.492	1	1	0	0	0.22874	0.17732	0.29087	0.17632	0.21656	0.25587	0.29306	0.16164	0.30895	0.17749	0.22288	0.15795	0.16573	0.089163	0.1198	0.11348	-2.4625	-2.7438	-2.5604	-2.8625	-2.5354	-2.7562	-2.7792	-2.575	-2.8979	-2.7417	-2.6104	-2.9125	-2.6521	-2.7313	-2.8688	-2.375	263.956	365.771	355.866	348.619	153.475	379.043	53.176	283.000	135.185	98.364	218.881	210.050	30.092	318.046	84.787	209.077	4.4118e-05	0.00013198	4.7189e-05	68.058	1.5218e-06	1.5728e-06	102.9	15.543	4.9032e-07	7.5829e-07	30.181	10.74	5.0098	1.851	7.5372e-07	4.7065	0.00033681	0.00040111	0.00010539	82.545	4.2843e-06	4.2933e-06	110.78	18.025	4.4366e-06	4.0883e-06	33.777	12.043	5.9113	2.1988	4.1572e-06	5.3254	231.658	92.968	366.251	40.866	220.543	328.014	39.952	46.322	376.606	152.085	45.279	51.305	51.481	55.600	80.902	52.795	-8191	255	
40382.590	1	1	0	0	0.27329	0.14933	0.14708	0.24204	0.31724	0.09902	0.035352	0.2147	0.14696	0.40989	0.099516	0.1027	0.067534	0.051802	0.12055	0.069761	-2.4313	-2.7958	-2.5167	-2.9583	-2.5833	-2.7188	-2.9875	-2.4896	-2.7958	-2.7417	-2.35	-2.7604	-2.7208	-2.6312	-2.8312	-2.5896	70.748	295.033	62.920	345.530	251.334	275.804	153.517	289.737	41.892	376.519	156.458	40.572	112.716	34.401	40.714	83.809	4.8417e-05	0.00019536	5.7439e-05	67.272	1.3552e-06	1.7755e-06	101.93	15.731	4.5494e-07	1.2351e-06	30.129	10.694	4.9889	1.852	1.8256e-06	4.7546	0.00033881	0.00037595	0.0001136	82.514	4.3836e-06	4.2322e-06	110.06	18.024	4.3815e-06	4.0029e-06	33.894	12.022	5.9689	2.1928	4.3186e-06	5.3384	197.718	302.617	120.194	39.019	70.055	93.205	40.205	47.526	235.599	344.166	44.938	51.152	50.635	55.044	128.472	53.755	-8191	255	
40382.707	1	1	0	0	0.14563	0.12809	0.10833	0.084484	0.085239	0.29418	0.090006	0.1495	0.24563	0.055804	0.015921	0.028928	0.19843	0.19149	0.070571	0.20135	-2.2833	-2.5958	-2.6375	-2.8042	-2.6896	-2.5938	-2.7438	-2.5146	-2.7792	-2.6937	-2.3667	-2.6604	-2.5187	-2.5958	-2.9583	-2.525	352.776	115.677	30.038	50.288	111.642	316.621	181.420	300.619	348.778	140.457	141.652	232.544	48.481	185.651	213.890	48.795	4.3259e-05	7.3116e-05	2.2538e-05	68.616	9.8818e-07	1.2167e-06	101.51	15.656	3.0061e-07	3.552e-06	30.301	10.636	5.0508	1.8698	1.2445e-06	4.8289	0.00032488	0.00038083	0.00011721	83.626	4.084e-06	4.1516e-06	110.3	18.215	4.1812e-06	4.1891e-06	34.057	12.109	5.9054	2.2051	4.4824e-06	5.3675	220.766	103.921	244.828	39.721	227.649	262.926	40.472	46.158	353.666	135.903	44.825	50.975	50.344	55.242	86.385	53.902	-8191	255	
40382.805	1	1	0	0	0.013352	0.10408	0.12265	0.097661	0.1243	0.23294	0.10308	0.054835	0.11304	0.20111	0.25377	0.22291	0.23409	0.091718	0.11552	0.40767	-2.2146	-2.8417	-2.6771	-2.9	-2.875	-2.6542	-2.875	-2.5479	-2.7958	-2.7938	-2.4813	-2.7229	-2.6833	-2.5438	-2.8729	-2.5938	385.876	93.231	106.817	382.315	191.954	344.507	164.377	155.224	329.905	211.265	68.573	326.313	273.694	222.963	346.218	199.651	4.0816e-05	7.1618e-05	1.6075e-05	68.978	2.8836e-06	4.9478e-08	102.89	15.627	4.0547e-07	2.239e-06	31.053	10.924	5.0395	1.8982	2.0953e-06	4.8518	0.00031768	0.00037334	0.00012033	83.048	3.9618e-06	4.0689e-06	110.94	18.044	3.9265e-06	4.2002e-06	34.501	12.17	5.8512	2.2365	4.4065e-06	5.3981	187.042	353.397	111.229	39.573	289.252	196.203	39.801	45.315	325.030	31.277	44.846	50.228	50.615	54.099	116.865	53.660	-8191	255	
40382.898	1	1	0	0	0.1586	0.1294	0.35918	0.26247	0.06036	0.21784	0.40926	0.085692	0.14793	0.18029	0.3235	0.095402	0.23065	0.20406	0.18668	0.06162	-2.2875	-2.725	-2.4875	-2.8271	-2.6792	-2.4938	-2.8	-2.8104	-2.8125	-2.9354	-2.675	-2.7708	-2.9729	-2.4458	-2.9458	-2.6979	104.279	289.168	261.094	377.257	250.745	278.763	177.780	226.136	259.953	76.414	378.756	224.983	150.765	265.803	290.413	162.590	9.5732e-06	0.00024631	2.8555e-05	70.153	2.5193e-07	1.8618e-06	102.07	15.809	1.0711e-06	3.4909e-06	30.589	10.695	4.9755	1.8544	2.2483e-06	4.713	0.00029882	0.0003895	0.00011677	83.061	3.8945e-06	4.0797e-06	110.88	18.085	3.7617e-06	4.2669e-06	33.986	11.952	5.8241	2.2097	4.3336e-06	5.2887	164.257	175.712	52.377	39.295	106.310	112.952	39.520	46.258	132.195	217.567	44.383	50.047	51.318	54.614	180.240	53.470	-8191	255	
40383.020	1	1	0	0	0.1195	0.20295	0.12483	0.057779	0.30086	0.27086	0.17842	0.082656	0.046501	0.25496	0.1378	0.2115	0.21358	0.29809	0.14315	0.10976	-2.125	-2.7292	-2.5438	-2.7521	-2.775	-2.4208	-2.9646	-2.7021	-2.6667	-2.8937	-2.5396	-2.7333	-2.6688	-2.4958	-2.825	-2.7417	107.950	372.505	176.036	29.190	79.543	254.169	85.138	174.261	123.191	59.339	135.354	266.592	92.097	46.175	172.263	287.637	4.3759e-05	0.00032852	6.4215e-05	66.313	6.4174e-07	1.977e-07	101.06	15.94	8.2812e-07	1.161e-06	30.662	10.654	5.0581	1.861	2.0391e-06	4.8543	0.00029206	0.00039704	0.00011443	80.188	3.8679e-06	4.0582e-06	109.74	17.947	3.7551e-06	4.21e-06	34.186	11.945	5.8575	2.23	4.0936e-06	5.3188	204.410	226.339	86.224	40.606	41.334	274.349	40.197	46.365	215.122	184.927	44.151	51.149	50.443	54.275	62.672	52.527	-8191	255	
40383.094	1	1	0	0	0.086154	0.10999	0.18335	0.076611	0.27195	0.17826	0.17029	0.1739	0.14194	0.10564	0.091584	0.13241	0.057492	0.34132	0.33083	0.043091	-2.1042	-2.7771	-2.6167	-2.6708	-2.8	-2.65	-2.875	-2.7333	-2.4979	-2.7583	-2.6542	-2.6958	-2.6604	-2.4958	-2.9583	-2.7146	328.332	50.350	114.081	336.446	235.288	37.129	65.924	56.467	320.787	324.599	104.748	359.080	169.720	215.883	321.549	277.594	4.8623e-05	0.00015448	3.8202e-05	69.117	2.0766e-06	1.7984e-06	101.06	15.874	1.2032e-06	1.8844e-06	30.57	10.862	5.0436	1.8821	6.95e-07	4.7987	0.00028519	0.0003836	0.00010818	81.177	3.9337e-06	4.0993e-06	110.06	17.908	4.1697e-06	4.247e-06	33.924	12.028	5.8684	2.2356	3.9697e-06	5.3434	233.195	114.945	157.445	38.958	151.139	297.737	39.986	46.328	214.542	138.305	45.597	51.045	50.713	53.845	154.664	53.798	-8191	255	
40383.188	1	1	0	0	0.12022	0.099718	0.13109	0.17372	0.13128	0.15463	0.18303	0.13592	0.095416	0.35572	0.054609	0.05386	0.13879	0.18351	0.11518	0.090456	-1.95	-2.7958	-2.6146	-2.7604	-2.9313	-2.8208	-2.7062	-2.8375	-2.4313	-2.6229	-2.5833	-2.6	-2.7042	-2.6104	-2.8042	-2.7396	310.515	206.812	121.979	318.063	153.604	100.273	309.667	199.207	206.920	302.472	165.056	80.035	195.900	159.250	329.815	369.775	5.4308e-05	7.0448e-05	7.9728e-05	68.801	5.4551e-07	2.1676e-06	101.46	16.177	1.1487e-06	5.605e-07	30.839	10.727	5.0039	1.9443	2.1986e-06	4.8962	0.00029679	0.0003856	0.00010568	80.564	4.0735e-06	3.9217e-06	109.91	17.986	4.1914e-06	4.3605e-06	34.047	12.029	5.9487	2.2726	3.7861e-06	5.4065	220.459	272.676	71.622	39.428	290.835	41.840	39.934	46.549	237.221	89.338	44.937	50.468	51.472	55.175	74.863	52.882	-8191	255	
40383.285	1	1	0	0	0.2675	0.076372	0.10605	0.2154	0.23893	0.17586	0.22779	0.047992	0.35121	0.10434	0.081385	0.066025	0.14289	0.04152	0.11359	0.048263	-2.0146	-2.7354	-2.5604	-2.7208	-2.8396	-2.6125	-2.7958	-2.6875	-2.4729	-2.8646	-2.6229	-2.5625	-2.7562	-2.4125	-2.7604	-2.8688	264.811	231.489	44.994	383.602	105.551	338.978	357.186	31.663	378.114	196.582	276.079	175.306	179.425	71.377	116.378	350.730	5.1252e-05	8.9362e-05	3.7426e-05	69.74	1.2299e-06	2.1809e-06	102.03	16.04	7.4665e-07	1.9621e-07	30.887	10.742	5.0317	1.9197	7.7485e-07	4.8745	0.00030153	0.00037949	9.9163e-05	80.972	4.1373e-06	3.9026e-06	110.13	17.998	4.2116e-06	4.0551e-06	33.92	11.992	5.8641	2.2314	3.6651e-06	5.3565	222.592	116.779	282.279	40.153	382.855	88.034	40.215	46.610	313.462	240.853	44.444	50.779	50.666	54.855	385.007	54.126	-8191	255	
40383.406	1	1	0	0	0.17575	0.040104	0.066409	0.23652	0.027555	0.14806	0.16369	0.14026	0.0072551	0.19799	0.20615	0.19776	0.030755	0.24167	0.21295	0.26673	-2.1208	-2.7625	-2.7042	-2.5312	-2.7583	-2.7729	-2.6854	-2.8979	-2.6229	-2.6604	-2.7125	-2.5375	-2.7917	-2.7146	-2.6125	-2.8542	240.798	91.166	349.678	189.415	158.040	309.521	296.604	273.761	135.550	56.948	243.753	210.842	33.930	91.008	83.055	236.213	2.1718e-05	7.2319e-05	5.0281e-05	68.725	1.5202e-06	1.7605e-06	101.29	15.745	1.3129e-06	1.5816e-06	30.425	10.626	4.9896	1.8838	1.5074e-06	4.7921	0.00029539	0.00037427	9.4392e-05	81.691	4.1524e-06	3.8344e-06	109.32	17.932	4.1845e-06	3.9085e-06	33.672	11.926	5.8668	2.2147	3.6226e-06	5.3448	248.919	286.906	101.321	39.130	89.132	189.589	40.345	46.181	174.215	336.198	45.478	51.719	50.509	54.297	233.449	53.594	-8191	255	
40383.500	1	1	0	0	0.25173	0.085358	0.29665	0.21975	0.14235	0.089756	0.080669	0.13872	0.21141	0.15897	0.22713	0.35449	0.13014	0.36121	0.37705	0.16888	-2.325	-2.7188	-2.6625	-2.5292	-2.7729	-2.7208	-2.5104	-2.8375	-2.5792	-2.9188	-2.7417	-2.5417	-2.7708	-2.6875	-2.7854	-2.7687	122.683	235.166	207.911	348.136	307.898	271.179	372.339	382.258	302.965	67.222	153.765	173.841	185.470	51.682	329.944	35.339	3.6611e-05	0.00012476	3.5792e-05	68.356	3.2049e-06	4.2244e-07	101.55	15.788	4.6959e-07	1.2752e-06	30.358	10.772	5.0093	1.8813	1.5422e-06	4.8604	0.00028577	0.0003445	9.5875e-05	81.339	3.9369e-06	3.5576e-06	109.28	18.045	4.1091e-06	3.7196e-06	33.917	12.027	5.8978	2.2071	3.7679e-06	5.3999	198.648	136.874	151.566	39.943	335.677	225.080	40.221	46.164	101.039	183.756	44.395	50.740	51.672	55.784	220.676	53.431	-8191	255	
40383.598	1	1	0	0	0.10629	0.28068	0.24041	0.16123	0.1038	0.16793	0.14505	0.20477	0.33261	0.18438	0.063625	0.2385	0.35252	0.084605	0.062998	0.15139	-2.1958	-2.8083	-2.8583	-2.575	-2.7479	-2.8729	-2.55	-2.8208	-2.6542	-2.7542	-2.5729	-2.5062	-2.7438	-2.6833	-2.6521	-2.7812	139.418	281.658	191.773	280.560	165.663	185.399	264.423	259.506	220.626	335.733	257.165	261.190	29.598	236.322	152.201	194.365	1.9973e-05	0.00017399	3.1105e-05	68.463	5.5569e-07	2.3193e-06	103.27	16.131	1.0966e-06	2.4645e-06	30.836	10.722	5.0702	1.9297	1.4623e-06	4.9263	0.00027671	0.00034308	9.9734e-05	82.56	3.8865e-06	3.5901e-06	110.53	18.188	3.9254e-06	3.8006e-06	34.111	12.083	5.9335	2.2374	4.2816e-06	5.4801	231.853	54.640	257.487	39.304	340.878	197.037	40.239	45.966	279.798	183.897	44.941	50.331	49.878	55.221	215.880	52.995	-8191	255	
40383.691	1	1	0	0	0.1847	0.14645	0.19029	0.20541	0.0038985	0.091	0.29515	0.18276	0.11702	0.089914	0.1351	0.22293	0.28965	0.22345	0.094063	0.17148	-2.1792	-2.7771	-2.7917	-2.4813	-2.8937	-2.7833	-2.5146	-2.8125	-2.7604	-2.625	-2.8479	-2.5667	-2.8125	-2.7542	-2.7104	-2.875	172.561	134.442	200.335	346.286	215.413	100.627	334.789	115.118	154.306	52.870	284.677	76.858	162.579	160.487	132.226	131.695	4.8791e-05	0.00011794	1.4633e-05	68.39	6.9849e-07	1.2224e-06	102.44	16.107	1.473e-06	5.2587e-07	30.803	10.809	5.0728	1.8846	7.5509e-07	4.798	0.00027176	0.00034497	0.0001047	82.23	3.8044e-06	3.6901e-06	110.54	18.196	3.951e-06	3.9008e-06	34.208	12.065	5.8961	2.2287	4.088e-06	5.4065	211.515	85.968	150.897	39.168	60.972	323.470	39.494	45.885	201.396	263.991	45.080	50.745	50.622	54.522	370.326	53.988	-8191	255	
40383.785	1	1	0	0	0.18105	0.14134	0.061721	0.2703	0.088222	0.012397	0.15798	0.07779	0.013473	0.33885	0.026296	0.15323	0.040486	0.15974	0.12729	0.21263	-2.4333	-2.6229	-2.9354	-2.4979	-2.9083	-2.8625	-2.6708	-2.8812	-2.6396	-2.7125	-2.7	-2.6875	-2.6562	-2.7812	-2.4833	-2.8458	382.329	242.926	318.542	175.873	75.688	168.422	168.154	302.183	267.217	283.887	49.259	127.019	318.918	185.291	254.298	341.352	4.0307e-05	0.00014917	2.2498e-05	68.01	9.4612e-07	2.5947e-06	101.35	15.983	6.3173e-07	6.7662e-07	30.482	10.632	4.9918	1.913	1.1396e-06	4.7923	0.00026384	0.00034783	0.00010345	82.429	3.6693e-06	3.9176e-06	109.88	18.031	3.6667e-06	4.0082e-06	33.987	11.955	5.8396	2.215	4.3663e-06	5.3456	210.282	215.844	240.231	39.592	74.579	155.976	39.995	46.739	279.452	64.757	45.209	50.139	51.163	55.131	48.972	53.763	-8191	255	
40383.887	1	1	0	0	0.10807	0.12766	0.20593	0.12413	0.25728	0.15677	0.14838	0.38407	0.10203	0.066899	0.23136	0.14699	0.25389	0.071831	0.081146	0.14293	-2.2521	-2.4146	-2.8875	-2.5979	-2.6646	-2.7604	-2.6979	-2.7917	-2.6896	-2.4917	-2.8688	-2.5521	-2.6333	-2.8083	-2.5792	-2.8354	297.116	325.871	341.394	230.324	140.367	295.802	276.717	369.032	276.831	291.553	386.019	330.091	279.766	264.993	317.762	363.858	2.1247e-05	0.00023364	1.6806e-05	68.212	8.4829e-07	1.4595e-06	101.91	15.884	1.7261e-06	1.8718e-06	30.551	10.703	5.0009	1.9003	1.6675e-06	4.8541	0.00028053	0.00035754	0.00010505	81.097	3.7798e-06	3.988e-06	109.83	17.961	3.6058e-06	4.4694e-06	34.052	11.924	5.8598	2.2247	4.0998e-06	5.3511	174.023	121.415	47.916	39.329	131.083	221.053	40.103	45.967	317.689	93.556	45.135	51.013	51.728	55.120	140.825	53.603	-8191	255	
40384.004	1	1	0	0	0.15786	0.07139	0.089037	0.19702	0.16703	0.25138	0.29735	0.30378	0.1684	0.048664	0.13071	0.11641	0.13129	0.21564	0.11119	0.055764	-2.3063	-2.4688	-2.9646	-2.6854	-2.5187	-2.9542	-2.6271	-2.7938	-2.8354	-2.6479	-2.8854	-2.6917	-2.6375	-2.7438	-2.6271	-2.9271	166.404	167.455	356.370	166.211	176.536	59.790	157.757	97.829	274.762	332.892	144.081	255.532	252.654	251.940	350.016	293.104	3.9468e-05	7.481e-05	3.5838e-05	67.534	1.4346e-06	2.2935e-06	102.17	15.835	7.7645e-07	4.6176e-07	30.804	10.897	4.9971	1.905	4.6651e-07	4.801	0.00028031	0.00036288	0.00010141	81.379	3.7803e-06	4.1058e-06	109.66	18.009	3.765e-06	4.3004e-06	34.194	11.964	5.8769	2.227	4.0254e-06	5.3813	218.272	182.617	144.255	39.849	193.713	181.549	40.011	46.676	244.058	111.938	45.146	50.242	51.421	54.016	200.353	53.152	-8191	255	
40384.102	1	1	0	0	0.057829	0.10513	0.24249	0.10022	0.29564	0.1524	0.25013	0.2551	0.24746	0.30752	0.19554	0.094071	0.17785	0.23088	0.098022	0.019932	-2.2583	-2.5854	-2.9667	-2.5792	-2.4437	-2.9271	-2.7958	-2.7104	-2.7313	-2.5896	-2.7854	-2.6854	-2.4458	-2.9917	-2.6542	-2.6667	185.147	341.663	233.294	349.042	252.908	382.301	279.792	88.503	261.947	156.983	148.562	371.143	350.250	321.658	205.872	55.231	1.5478e-05	0.00013485	6.7369e-05	69.575	2.5513e-06	3.9641e-07	102.71	15.909	1.3494e-06	1.3e-06	30.511	10.648	4.9957	1.8753	2.1384e-06	4.7522	0.00029163	0.00035317	0.0001002	80.924	3.9318e-06	4.0812e-06	110.23	18.051	3.8894e-06	4.3448e-06	33.911	11.899	5.8295	2.2159	3.8414e-06	5.3216	200.822	37.634	162.826	39.894	180.009	230.498	40.007	46.309	242.952	270.359	44.563	50.857	51.388	53.604	93.756	53.788	-8191	255	
40384.195	1	1	0	0	0.14206	0.024254	0.086747	0.070095	0.24013	0.27682	0.14819	0.29978	0.087674	0.19182	0.17665	0.35285	0.11483	0.37002	0.10273	0.14797	-2.3396	-2.5062	-2.7958	-2.7229	-2.575	-2.825	-2.7667	-2.7521	-2.8292	-2.6063	-2.8229	-2.7687	-2.5104	-2.9667	-2.5812	-2.5208	321.425	167.592	307.648	375.692	354.956	152.340	214.431	374.939	312.627	372.669	186.945	226.176	331.804	186.612	226.999	331.670	2.7994e-05	0.00018261	3.3029e-05	68.35	1.2084e-06	1.3575e-06	101.25	15.788	1.0056e-06	8.3742e-07	29.996	10.64	4.9888	1.894	1.963e-06	4.8424	0.00030051	0.0003535	9.3839e-05	80.646	4.287e-06	3.9455e-06	108.58	17.798	3.893e-06	4.0602e-06	33.484	11.877	5.864	2.2068	3.9073e-06	5.3412	203.000	84.021	262.693	39.468	129.750	77.148	40.154	46.004	179.521	258.711	45.337	50.713	52.334	54.761	367.876	54.059	-8191	255	
40384.293	1	1	0	0	0.24629	0.11783	0.10026	0.17516	0.13918	0.41452	0.10385	0.24295	0.16275	0.065176	0.20395	0.11498	0.086279	0.14451	0.11008	0.24994	-2.2313	-2.6104	-2.6479	-2.6542	-2.5979	-2.7146	-2.5917	-2.4958	-2.8438	-2.4417	-2.7979	-2.7979	-2.5187	-2.9188	-2.5479	-2.7417	30.375	164.312	125.171	97.434	240.792	262.920	62.910	343.770	265.359	78.236	342.988	247.330	168.603	250.253	339.459	303.747	4.5377e-05	8.2174e-05	4.9395e-05	67.622	1.508e-07	1.5597e-06	101.99	15.767	9.343e-07	3.2448e-06	30.279	10.625	4.9672	1.907	2.9101e-06	4.7694	0.00030577	0.00033508	9.788e-05	80.552	4.1083e-06	3.939e-06	109.7	17.952	3.896e-06	4.0195e-06	33.861	11.968	5.8358	2.2317	3.6648e-06	5.3909	187.275	47.474	75.143	40.926	201.333	383.344	39.663	46.698	218.683	289.485	45.058	50.863	50.669	55.114	139.673	54.007	-8191	255	
40384.391	1	1	0	0	0.15415	0.079859	0.16666	0.16793	0.27437	0.26968	0.091669	0.03967	0.075451	0.15281	0.32321	0.1222	0.13546	0.20074	0.14451	0.10837	-2.5312	-2.4625	-2.7062	-2.8021	-2.5125	-2.9354	-2.75	-2.4083	-2.9646	-2.5771	-2.7979	-2.7833	-2.6083	-2.8833	-2.8396	-2.7292	359.132	314.481	307.108	198.548	371.838	54.714	220.535	27.593	297.885	154.161	49.417	332.487	50.326	89.443	335.946	111.985	5.8433e-05	0.00024928	5.2051e-05	67.725	1.4597e-06	4.7147e-07	102.93	16.055	1.2967e-06	8.9124e-07	30.271	10.749	5.0815	1.933	5.9454e-07	4.8289	0.000301	0.00032357	9.5114e-05	81.169	4.1005e-06	3.6988e-06	110.05	18.13	3.8784e-06	3.7761e-06	33.878	12.076	5.8832	2.2358	3.6777e-06	5.4179	195.764	115.510	335.557	40.074	177.073	118.830	40.512	45.525	158.159	228.216	45.015	50.965	50.768	53.673	119.985	53.320	-8191	255	
40384.484	1	1	0	0	0.16155	0.16792	0.15836	0.20098	0.086407	0.12416	0.17498	0.15615	0.068777	0.19648	0.025938	0.27517	0.091708	0.060283	0.018916	0.22874	-2.4271	-2.5312	-2.6312	-2.8167	-2.4417	-2.8646	-2.9021	-2.525	-2.9833	-2.5938	-2.6271	-2.8646	-2.4188	-2.8896	-2.8771	-2.6063	191.980	60.399	337.305	64.604	203.066	131.709	177.387	36.110	327.053	146.037	166.807	33.928	44.152	212.723	342.806	370.983	4.8286e-05	8.6461e-05	9.6095e-06	68.673	1.8501e-06	1.2484e-06	102.94	15.934	8.8337e-07	5.9991e-07	30.761	10.672	5.0312	1.8702	7.1104e-07	4.8543	0.00029214	0.00031712	9.9587e-05	81.993	3.8916e-06	3.6784e-06	110.37	18.102	3.7122e-06	4.0278e-06	34.133	12.019	5.8524	2.2207	3.7662e-06	5.3855	215.434	61.783	245.108	39.904	192.766	377.456	39.503	45.535	39.780	256.850	45.221	50.078	51.611	56.047	282.110	54.173	-8191	255	
40384.582	1	1	0	0	0.51034	0.091983	0.17797	0.20477	0.17385	0.34698	0.13117	0.11904	0.10806	0.10365	0.3834	0.15491	0.067427	0.16472	0.087481	0.069253	-2.1271	-2.6667	-2.6375	-2.8917	-2.5604	-2.8104	-2.6542	-2.7167	-2.7625	-2.8125	-2.6188	-2.9562	-2.5125	-2.8063	-2.8042	-2.7583	354.663	249.406	40.584	334.884	51.496	66.234	58.457	215.069	320.509	355.943	343.535	137.113	187.991	243.552	308.963	155.938	5.3933e-05	0.00021153	1.6187e-05	67.918	1.5802e-06	2.2371e-06	101.83	15.857	1.2127e-06	2.7054e-06	30.398	10.548	4.9763	1.8919	5.4822e-07	4.6832	0.00028421	0.00032403	9.7988e-05	80.745	3.8335e-06	3.7388e-06	109.71	17.854	3.7374e-06	3.7437e-06	33.863	11.899	5.7903	2.2072	3.8748e-06	5.3135	202.870	215.602	360.933	39.190	187.524	240.416	40.204	46.799	198.620	187.082	45.386	50.177	50.412	54.326	202.161	53.443	-8191	255	
40384.676	1	1	0	0	0.35133	0.1177	0.24996	0.2823	0.14831	0.19363	0.13275	0.034699	0.20829	0.070704	0.15374	0.26002	0.036888	0.20522	0.2594	0.15834	-2.5187	-2.7375	-2.5542	-2.9229	-2.7083	-2.9333	-2.7729	-2.5083	-2.8042	-2.8917	-2.6437	-2.9625	-2.5292	-2.6042	-2.9417	-2.4188	285.051	207.328	351.215	43.796	229.196	296.594	102.022	78.442	267.062	254.291	31.989	129.703	195.736	331.913	114.617	53.370	4.7774e-05	6.815e-05	7.7585e-05	69.25	1.7817e-06	2.3203e-06	103.38	16.099	1.438e-06	1.9377e-06	30.674	10.747	5.0516	1.9078	1.0328e-06	4.6889	0.00026954	0.00033357	9.7733e-05	81.271	3.717e-06	3.8266e-06	110.13	17.976	3.587e-06	3.7809e-06	34.23	11.976	5.852	2.2168	3.8428e-06	5.3004	255.410	269.932	139.197	39.426	257.909	133.506	40.189	45.693	154.963	128.299	45.404	51.065	50.606	53.678	111.035	53.422	-8191	255	
40384.797	1	1	0	0	0.28165	0.15013	0.068461	0.23744	0.098718	0.16253	0.28168	0.17519	0.071825	0.15491	0.19953	0.17192	0.15904	0.11065	0.2626	0.15477	-2.4833	-2.5917	-2.7562	-2.9417	-2.7021	-2.7208	-2.7521	-2.475	-2.8187	-2.8333	-2.5958	-2.6583	-2.4062	-2.5729	-3.0146	-2.5604	326.331	288.028	108.822	365.052	125.731	56.493	173.764	305.513	228.327	299.099	117.592	88.662	381.560	166.316	284.685	311.033	2.4086e-05	0.00019807	2.2853e-05	68.851	1.477e-06	2.1828e-06	101.8	15.866	6.9448e-07	3.0638e-06	31.076	10.652	4.9928	1.8817	6.0929e-07	4.8503	0.00027459	0.0003518	9.8934e-05	80.576	3.8716e-06	3.8484e-06	109.97	17.806	3.5785e-06	3.9094e-06	34.158	11.933	5.8048	2.218	3.8479e-06	5.3556	258.963	92.497	79.565	39.238	161.724	384.769	40.167	45.720	170.462	277.075	45.042	50.165	51.190	54.541	90.752	52.841	-8191	255	
40384.891	1	1	0	0	0.25937	0.19078	0.18843	0.12783	0.086471	0.074139	0.12098	0.1566	0.21827	0.20943	0.1622	0.18568	0.21835	0.21295	0.11022	0.019413	-2.525	-2.6625	-2.3875	-2.8104	-2.7167	-2.7354	-2.7771	-2.6688	-2.6792	-2.8354	-2.6604	-2.9292	-2.6708	-2.5521	-2.8708	-2.5396	200.094	119.064	373.130	279.821	362.665	80.593	379.728	36.051	41.546	190.837	349.338	141.193	364.835	268.607	48.055	99.141	2.4521e-05	5.6547e-05	4.648e-05	67.543	9.7612e-07	7.2069e-07	101.52	16.044	2.1118e-06	1.9832e-06	30.648	10.567	5.0066	1.8826	1.0751e-06	4.8108	0.00027927	0.00035913	9.3463e-05	80.348	3.6478e-06	4.0939e-06	109.7	17.898	3.6871e-06	3.8514e-06	34.225	11.872	5.8527	2.2113	3.7679e-06	5.3104	211.304	51.797	132.029	39.123	185.306	228.275	40.016	45.774	162.189	104.786	44.800	51.611	50.725	54.758	70.496	53.726	-8191	255	
40384.965	1	1	0	0	0.20753	0.087989	0.1524	0.27183	0.24743	0.22238	0.13673	0.30265	0.13612	0.14082	0.25921	0.079739	0.16281	0.20317	0.18852	0.12028	-2.2	-2.7292	-2.5083	-2.6646	-2.8854	-2.6312	-2.8	-2.7104	-2.7208	-2.95	-2.6542	-2.8167	-2.7542	-2.7562	-2.9313	-2.7417	305.933	101.895	315.384	96.992	88.564	283.662	222.024	41.301	199.563	259.537	197.790	354.147	70.196	88.938	88.722	244.855	2.1486e-05	0.00020649	5.0759e-05	67.803	2.1775e-06	6.0522e-07	100.38	15.983	6.974e-07	3.1158e-07	30.015	10.602	5.006	1.8655	4.3855e-07	4.6126	0.00028778	0.00035595	9.1588e-05	80.107	3.7674e-06	4.2011e-06	108.75	17.766	3.8066e-06	4.0331e-06	33.328	11.685	5.765	2.1722	3.7344e-06	5.2135	191.539	115.289	159.286	38.652	215.281	239.419	39.870	46.837	386.847	339.820	45.963	50.475	50.966	54.993	239.278	54.287	-8191	255	
40385.086	1	1	0	0	0.16758	0.044473	0.11099	0.093352	0.10789	0.097534	0.23258	0.14082	0.25246	0.020572	0.13957	0.16302	0.13982	0.24972	0.060415	0.11119	-2.175	-2.7583	-2.5271	-2.7792	-2.7896	-2.4271	-2.6875	-2.625	-2.3604	-2.8479	-2.6229	-2.725	-2.5208	-2.3125	-2.9792	-2.5229	219.821	154.939	135.261	249.246	277.836	54.800	352.987	122.052	238.709	87.194	382.414	186.856	70.728	179.921	262.352	177.817	4.2389e-05	7.1057e-05	1.992e-05	66.832	1.0744e-06	1.0348e-06	99.514	15.555	1.5168e-06	2.0857e-06	30.007	10.425	4.8557	1.852	1.6178e-06	4.7428	0.00029489	0.00035899	8.8925e-05	79.474	3.9439e-06	4.121e-06	108.03	17.615	3.8598e-06	4.0249e-06	33.27	11.732	5.7678	2.1782	3.6863e-06	5.2308	222.737	372.217	132.299	39.717	266.612	209.115	39.421	45.872	76.021	290.302	45.358	50.602	50.730	55.140	207.290	53.473	-8191	255	
40385.180	1	1	0	0	0.056011	0.092913	0.32827	0.16471	0.13922	0.15104	0.12706	0.22635	0.11938	0.15965	0.24923	0.2936	0.21982	0.15201	0.19606	0.29304	-2.1458	-2.8979	-2.6833	-2.5479	-2.7583	-2.3833	-2.8729	-2.5833	-2.5104	-2.7854	-2.4771	-2.5917	-2.6229	-2.4875	-2.8125	-2.6479	304.252	225.811	368.395	179.024	194.286	52.270	59.316	279.152	160.171	170.431	89.449	192.700	61.239	288.131	354.265	304.932	4.384e-05	0.00010502	3.4316e-05	67.346	3.1439e-06	9.4957e-07	100.55	15.934	1.1269e-06	8.5503e-07	30.026	10.387	4.8983	1.8595	6.9535e-07	4.7313	0.00030949	0.00035641	9.0339e-05	80.426	3.8885e-06	4.1273e-06	108.57	17.819	3.8128e-06	3.8454e-06	33.587	11.778	5.768	2.1724	3.7754e-06	5.2628	246.281	309.877	55.929	40.659	213.666	153.106	40.132	46.838	335.967	263.132	45.394	51.284	50.701	54.373	231.320	53.688	-8191	255	
40385.277	1	1	0	0	0.18593	0.25785	0.091673	0.21163	0.052831	0.16105	0.16524	0.098625	0.22537	0.19866	0.12171	0.084911	0.24205	0.2696	0.23712	0.15626	-2.2	-2.7958	-2.3833	-2.4688	-2.8021	-2.5896	-2.6396	-2.7375	-2.4021	-2.8125	-2.5479	-2.6104	-2.9062	-2.6333	-2.9104	-2.6625	182.601	162.626	242.767	146.238	153.589	112.595	191.139	235.705	357.781	317.473	48.463	88.606	57.946	333.508	131.465	308.378	1.4818e-05	2.9633e-05	2.5593e-05	68.418	1.8686e-06	3.0176e-06	100.92	15.551	9.2039e-07	1.3822e-06	30.25	10.56	4.9966	1.9084	9.5647e-07	4.6857	0.00031527	0.00035223	9.2504e-05	80.72	3.9002e-06	3.9731e-06	108.76	17.722	3.717e-06	3.8346e-06	33.801	11.845	5.8246	2.1861	3.8067e-06	5.2824	226.845	114.898	258.002	39.625	80.094	215.348	40.186	45.928	41.815	170.074	45.081	50.686	51.120	55.106	379.359	54.140	-8191	255	
40385.371	1	1	0	0	0.21368	0.20154	0.099776	0.29093	0.087349	0.17942	0.31321	0.17175	0.20034	0.11804	0.24947	0.31684	0.43377	0.12181	0.14913	0.17907	-1.8271	-2.7875	-2.6104	-2.6042	-2.7438	-2.6271	-2.7521	-2.7687	-2.6688	-2.7667	-2.6063	-2.4792	-2.8292	-2.4583	-2.7	-2.9313	336.916	320.961	186.822	193.264	357.964	97.964	236.688	157.123	295.222	48.105	175.105	227.000	116.457	382.916	227.617	65.914	5.9153e-05	0.00010756	3.0694e-05	67.937	4.5683e-07	8.6836e-07	100.17	15.877	4.3777e-07	1.3034e-06	29.633	10.269	4.9265	1.8161	1.7603e-06	4.7115	0.00030341	0.00034841	9.5455e-05	80.766	3.9297e-06	3.9856e-06	107.95	17.723	3.5808e-06	3.7883e-06	33.1	11.655	5.7516	2.1463	3.9672e-06	5.2239	185.307	205.188	97.903	39.916	181.310	231.733	39.746	46.461	356.502	274.857	45.085	50.659	50.894	54.700	209.934	53.975	-8191	255	
40385.492	1	1	0	0	0.12172	0.070983	0.13263	0.11316	0.22294	0.067641	0.056895	0.38874	0.10823	0.17988	0.091106	0.17861	0.13229	0.23303	0.19007	0.039194	-2.1188	-2.8042	-2.6146	-2.6167	-2.8854	-2.6458	-2.65	-2.8229	-2.7125	-2.7417	-2.6312	-2.4958	-2.9167	-2.6875	-2.6125	-2.7542	30.448	237.953	302.873	235.313	378.208	259.331	163.863	236.954	80.168	155.034	188.712	168.643	228.409	123.647	157.617	122.877	5.2416e-05	0.00017453	2.753e-05	67.582	1.2802e-06	1.1817e-06	100.87	15.695	1.1311e-06	4.2178e-07	29.744	10.363	4.9891	1.8369	1.1824e-06	4.6079	0.00030616	0.00034727	0.00010103	80.438	3.7433e-06	3.8906e-06	108.59	17.732	3.4914e-06	3.8706e-06	33.312	11.735	5.7423	2.1524	3.9355e-06	5.2136	189.452	129.364	312.706	39.787	73.858	186.700	40.403	46.371	65.404	172.162	44.752	50.348	50.750	55.450	266.289	53.284	-8191	255	
40385.590	1	1	0	0	0.20485	0.19858	0.14771	0.20929	0.11177	0.24363	0.27007	0.072606	0.035792	0.31303	0.24765	0.10724	0.089879	0.24996	0.056645	0.04755	-2.2646	-2.8542	-2.7146	-2.4437	-2.8375	-2.6146	-2.6833	-2.6667	-2.6875	-2.7729	-2.8458	-2.5938	-2.9021	-2.55	-2.7812	-2.7438	188.922	134.421	28.933	120.780	322.266	109.913	284.291	313.301	179.202	200.054	123.760	184.953	102.788	30.110	379.973	128.904	2.4843e-05	0.00015548	5.0407e-05	65.747	7.4217e-07	2.7811e-06	100.22	15.628	1.0939e-06	6.3558e-07	29.849	10.484	4.9354	1.8651	7.534e-07	4.6474	0.00028191	0.00035287	0.00010187	79.302	3.6113e-06	4.0988e-06	108.15	17.687	3.4027e-06	3.9492e-06	33.29	11.72	5.7457	2.1775	3.8519e-06	5.2357	166.197	30.386	260.484	40.437	379.424	296.514	39.932	45.850	169.866	223.622	45.207	50.818	50.685	54.938	132.774	54.068	-8191	255	
40385.688	1	1	0	0	0.082859	0.2315	0.10689	0.19305	0.15014	0.11261	0.19802	0.27178	0.078219	0.086847	0.10112	0.29484	0.27103	0.17257	0.050807	0.16526	-2.1521	-2.7062	-2.7792	-2.4167	-2.7	-2.7104	-2.65	-2.9688	-2.6021	-2.8333	-2.8521	-2.5167	-2.9229	-2.8	-2.7833	-2.7875	268.804	281.935	89.086	126.446	271.967	263.486	201.730	371.309	358.898	246.107	322.133	379.490	204.520	265.407	282.226	260.499	3.0285e-05	2.6263e-05	7.4408e-05	67.809	1.5898e-06	3.0797e-06	100.69	15.6	9.8448e-07	1.0595e-06	30.186	10.398	4.9971	1.8659	2.6679e-06	4.6998	0.00030447	0.00037155	0.00010077	79.749	3.713e-06	3.9255e-06	108.89	17.691	3.3958e-06	3.9852e-06	33.483	11.757	5.8042	2.1932	3.8196e-06	5.2469	228.804	159.915	146.816	41.068	132.080	338.854	40.422	46.093	138.537	205.567	45.132	51.244	50.817	55.138	223.242	53.686	-8191	255	
40385.781	1	1	0	0	0.22836	0.1357	0.080814	0.054089	0.074387	0.15475	0.030829	0.22374	0.20915	0.17478	0.36729	0.26561	0.024618	0.26579	0.083829	0.28399	-2.1958	-2.6688	-2.8729	-2.4646	-2.7792	-2.8104	-2.55	-2.8083	-2.6042	-2.6396	-2.8604	-2.6271	-2.8542	-2.5458	-2.7188	-2.9208	253.232	102.438	236.493	299.511	92.481	180.188	335.466	69.114	339.031	302.405	319.029	317.806	280.630	367.942	105.667	71.440	3.5773e-05	9.0927e-05	3.9265e-05	67.746	2.3211e-06	2.7725e-06	100.33	15.509	7.447e-07	5.1526e-07	29.616	10.284	4.8803	1.8291	1.1958e-06	4.6371	0.00029382	0.00037292	0.00010127	79.1	3.8319e-06	3.9673e-06	108.4	17.508	3.6202e-06	3.9741e-06	32.99	11.603	5.7386	2.1691	3.6553e-06	5.1676	215.379	190.120	76.454	40.202	141.720	88.752	39.423	45.871	250.336	257.755	45.002	51.039	51.834	55.019	175.793	53.279	-8191	255	
40385.875	1	1	0	0	0.15343	0.057233	0.20385	0.24781	0.12156	0.25067	0.258	0.081547	0.13731	0.067953	0.040733	0.0618	0.34168	0.032058	0.19087	0.12681	-2.2146	-2.7208	-3.0542	-2.5792	-2.8354	-2.9667	-2.3854	-2.8458	-2.625	-2.7375	-2.8896	-2.6958	-2.7896	-2.6917	-2.6688	-2.8312	389.018	142.305	105.480	145.066	145.705	80.631	130.410	114.748	30.160	189.562	295.467	44.126	62.666	261.959	127.761	121.381	2.6412e-05	6.8394e-05	9.7601e-05	67.6	2.0314e-06	1.1341e-06	100.35	15.5	6.3928e-07	1.4998e-06	29.794	10.491	4.9303	1.8652	6.4895e-07	4.6488	0.0003057	0.00036833	9.8476e-05	78.577	3.903e-06	3.9304e-06	107.84	17.558	3.7676e-06	3.9696e-06	33.092	11.662	5.7784	2.1697	3.4101e-06	5.1994	200.864	355.800	160.482	39.737	185.080	207.639	40.375	47.037	46.842	169.925	44.584	50.693	50.902	54.782	292.435	53.543	-8191	255	
40385.973	1	1	0	0	0.036582	0.088639	0.27156	0.1495	0.07617	0.22142	0.048102	0.30197	0.0056907	0.13519	0.28723	0.24737	0.17668	0.30521	0.1092	0.17524	-2.3187	-2.5312	-2.8625	-2.6417	-2.8083	-2.8792	-2.6063	-2.6646	-2.6354	-2.7229	-2.7979	-2.5333	-2.5792	-2.9562	-2.4313	-2.9875	46.310	258.602	336.339	109.663	300.625	314.232	342.969	171.009	274.236	154.810	149.303	209.248	319.428	271.513	156.403	319.721	3.4945e-05	4.2621e-05	3.4337e-05	67.851	1.7059e-06	1.1032e-06	99.759	15.766	1.4209e-06	1.218e-06	30.161	10.406	5.013	1.898	1.1197e-06	4.7223	0.00029396	0.0003718	9.3805e-05	79.533	3.9042e-06	3.9497e-06	108.27	17.702	3.6786e-06	3.7413e-06	33.174	11.735	5.8022	2.1721	3.3471e-06	5.273	209.572	198.385	75.718	40.513	64.845	218.118	40.317	46.796	246.441	145.479	44.884	51.636	52.397	53.290	237.456	53.490	-8191	255	
40386.094	1	1	0	0	0.1144	0.26461	0.072373	0.2438	0.018586	0.056532	0.13842	0.11646	0.10604	0.11454	0.13979	0.10719	0.11278	0.1495	0.081205	0.13012	-2.0833	-2.5604	-2.6854	-2.4229	-2.6396	-2.8146	-2.575	-2.6292	-2.7292	-2.6771	-2.9062	-2.6396	-2.6896	-2.8625	-2.7062	-2.8583	382.029	172.579	250.686	361.391	334.925	323.338	136.139	111.966	165.522	147.890	117.123	357.902	252.546	345.906	298.018	58.016	3.3877e-05	6.8821e-05	5.0258e-05	67.59	3.5965e-07	1.2168e-06	101.2	15.839	1.1678e-06	5.8101e-07	30.11	10.479	5.0646	1.873	1.1017e-06	4.7313	0.00028352	0.00037287	8.96e-05	80.066	3.7324e-06	3.672e-06	108.85	17.834	3.6708e-06	3.4259e-06	33.302	11.767	5.8331	2.1816	3.3032e-06	5.2835	202.636	294.729	282.230	40.067	185.851	144.865	39.745	46.166	187.486	105.922	45.038	50.675	51.032	54.359	376.279	54.166	-8191	255	
40386.188	1	1	0	0	0.079998	0.044607	0.32312	0.30515	0.12872	0.094827	0.13304	0.062026	0.050265	0.23388	0.19543	0.20688	0.26637	0.17022	0.35364	0.12851	-2.5208	-2.55	-2.8	-2.6708	-2.5146	-3.0604	-2.6312	-2.9396	-2.8063	-2.5667	-2.8125	-2.6521	-2.4583	-3.0417	-2.5396	-2.9188	314.224	320.462	162.560	81.473	314.451	330.130	277.602	384.443	213.675	299.748	382.325	376.468	211.356	208.876	137.776	290.298	2.5655e-05	2.3047e-05	6.3541e-05	67.884	5.5904e-07	7.0194e-07	100.83	15.703	1.473e-06	4.7174e-07	29.379	10.309	4.8876	1.866	2.4034e-06	4.53	0.00027427	0.00033314	8.9833e-05	80.275	3.6314e-06	3.5296e-06	108.15	17.7	3.6189e-06	3.3616e-06	32.959	11.562	5.7236	2.1425	3.4478e-06	5.1378	232.009	278.297	251.064	40.711	216.815	337.644	40.490	46.204	199.665	80.246	44.637	50.718	51.028	54.930	255.457	54.372	-8191	255	
40386.262	1	1	0	0	0.092983	0.074508	0.16641	0.16281	0.18758	0.059296	0.1526	0.16024	0.19381	0.1237	0.060797	0.083103	0.059692	0.19103	0.13125	0.20033	-2.4208	-2.5438	-2.9604	-2.6875	-2.6937	-2.8438	-2.8083	-2.7438	-2.7771	-2.6354	-2.7979	-2.6937	-2.4875	-2.9188	-2.6125	-2.5833	190.317	229.643	69.737	317.739	51.044	42.855	81.832	277.308	118.443	50.256	210.465	317.911	102.364	231.730	223.578	96.133	1.952e-05	0.00022571	5.9513e-05	67.534	9.5955e-07	1.9909e-06	99.502	15.353	8.8532e-07	1.5646e-06	29.587	10.408	4.9308	1.8721	1.6462e-06	4.5914	0.00027392	0.00034168	9.6851e-05	80.133	3.5795e-06	3.6186e-06	107.72	17.614	3.5443e-06	3.3623e-06	33	11.641	5.7677	2.1598	3.7167e-06	5.1759	221.429	152.451	173.504	38.491	222.725	369.649	39.814	46.961	110.982	382.366	45.006	50.731	50.872	54.249	200.745	53.273	-8191	255	
40386.355	1	1	0	0	0.13566	0.09692	0.021554	0.11972	0.1616	0.043829	0.1079	0.17472	0.20687	0.086645	0.22584	0.18395	0.32121	0.0061806	0.182	0.21675	-2.5792	-2.4938	-2.8937	-2.7188	-2.7521	-2.7917	-2.6229	-2.7542	-3.0729	-2.7396	-2.7938	-2.9437	-2.6437	-2.7792	-2.7292	-2.6479	283.342	320.466	120.562	357.901	76.663	37.502	173.591	244.986	133.941	281.777	294.861	164.136	74.476	246.262	143.072	144.596	3.7379e-05	8.3901e-05	2.6973e-05	68.019	7.7929e-07	2.2168e-06	99.998	15.593	4.3642e-07	3.4972e-06	29.705	10.375	4.8782	1.8726	6.864e-07	4.6586	0.00027769	0.00033947	9.874e-05	80.26	3.4533e-06	3.6722e-06	108.1	17.722	3.5818e-06	3.5853e-06	33.096	11.669	5.7504	2.1731	3.8233e-06	5.2239	194.045	237.109	198.822	39.625	183.764	136.839	40.005	45.896	187.477	153.587	44.686	51.768	50.786	55.409	151.164	53.576	-8191	255	
40386.477	1	1	0	0	0.23348	0.43589	0.30661	0.35536	0.046696	0.12234	0.038035	0.23996	0.2261	0.098227	0.038002	0.37598	0.065546	0.11707	0.3703	0.23976	-2.6396	-2.5062	-2.7062	-2.8187	-2.6167	-2.8771	-2.7521	-2.4875	-3.1229	-2.5604	-2.7375	-2.5896	-2.7604	-2.7792	-2.7687	-2.6979	99.542	130.821	82.569	123.215	385.864	341.856	319.726	189.091	318.826	257.325	260.884	95.898	180.961	251.474	363.481	238.347	2.8844e-05	9.531e-05	5.9148e-05	66.971	2.5518e-06	1.2962e-06	100.59	15.826	6.3241e-07	2.0958e-06	29.376	10.561	4.9211	1.8745	1.7313e-06	4.7152	0.00027124	0.00037603	0.00010432	80.244	3.4513e-06	3.9364e-06	108.55	17.834	3.552e-06	3.7754e-06	33.239	11.726	5.7905	2.2054	3.9173e-06	5.2341	218.660	102.840	56.757	38.758	190.106	235.570	40.203	46.298	300.196	165.412	45.136	50.577	51.804	55.175	238.622	53.521	-8191	255	
40386.574	1	1	0	0	0.19293	0.31845	0.15335	0.05045	0.28355	0.21818	0.1166	0.15362	0.19259	0.1869	0.15657	0.33231	0.23969	0.12681	0.11042	0.082498	-2.5333	-2.4792	-2.6771	-2.9188	-2.6354	-2.8187	-2.6771	-2.5875	-2.9104	-2.7521	-2.8458	-2.9479	-2.525	-2.7521	-2.8542	-2.5979	366.155	150.624	356.342	185.231	111.095	353.490	134.899	154.668	294.205	214.621	175.043	333.413	63.000	276.026	324.266	333.515	4.4086e-05	8.1477e-05	7.7126e-05	66.977	1.8626e-06	1.5469e-06	99.855	15.567	8.285e-07	1.6175e-06	29.599	10.181	4.9783	1.8479	2.9884e-06	4.5922	0.00028553	0.0003896	0.0001024	80.141	3.5636e-06	4.1251e-06	107.86	17.724	3.764e-06	3.9394e-06	33.026	11.545	5.7372	2.1697	3.9352e-06	5.1477	215.041	88.457	274.305	39.942	45.279	195.470	40.381	46.588	301.306	185.242	44.767	50.439	50.783	54.408	167.782	53.785	-8191	255	
40386.672	1	1	0	0	0.17602	0.10655	0.15713	0.058273	0.14783	0.17899	0.066281	0.42672	0.058811	0.04222	0.25104	0.092575	0.20356	0.12076	0.14625	0.097262	-2.4125	-2.5	-2.6292	-2.9188	-2.6792	-2.7729	-2.6958	-2.4583	-2.9146	-2.7375	-2.7271	-2.6125	-2.5896	-2.8167	-2.8521	-2.5958	93.235	66.014	125.570	124.373	375.406	355.641	237.720	74.117	324.525	107.685	232.356	183.510	131.805	326.448	186.806	373.645	3.1576e-05	7.4886e-05	4.6953e-05	65.544	2.2025e-06	1.5613e-06	99.784	15.457	4.7582e-07	1.5348e-06	29.199	10.366	4.865	1.8636	1.1671e-06	4.603	0.00028704	0.00038585	0.000101	79.682	3.7187e-06	4.1294e-06	107.99	17.569	3.8946e-06	4.007e-06	33.016	11.553	5.7919	2.1948	3.8376e-06	5.1592	213.401	273.639	73.436	38.426	184.693	364.346	39.848	45.912	74.141	201.697	44.621	50.357	50.342	55.423	115.558	53.498	-8191	255	
40386.766	1	1	0	0	0.092093	0.20549	0.349	0.087503	0.10226	0.35361	0.123	0.055032	0.020321	0.1487	0.13712	0.088977	0.093783	0.064524	0.30018	0.09669	-2.35	-2.6646	-2.5167	-3.0354	-2.6167	-2.6958	-2.9437	-2.3417	-2.9417	-2.675	-2.5854	-2.7729	-2.6479	-2.7833	-2.8937	-2.5333	370.456	299.147	344.598	232.402	190.962	256.117	136.530	170.358	85.035	49.082	343.558	358.481	114.155	95.901	176.017	240.222	2.8542e-05	0.00016104	5.2247e-05	66.864	1.5292e-06	4.1954e-07	99.805	15.472	6.5936e-07	7.1322e-07	29.484	10.374	4.9348	1.8657	1.7762e-06	4.6788	0.00030336	0.00036059	0.00010067	80.03	3.7718e-06	4.0312e-06	107.76	17.628	3.9106e-06	3.9938e-06	32.725	11.594	5.796	2.1935	3.7169e-06	5.2014	232.906	49.911	121.705	40.566	133.572	377.520	39.875	45.342	335.566	354.301	45.450	50.172	50.683	54.512	211.718	53.720	-8191	255	
40386.887	1	1	0	0	0.26817	0.2089	0.41577	0.2117	0.30747	0.18706	0.06768	0.096738	0.14954	0.10715	0.063624	0.07807	0.25103	0.27658	0.056251	0.068432	-2.4188	-2.8312	-2.6979	-2.9479	-2.7708	-2.6271	-2.8271	-2.5729	-2.7917	-2.8104	-2.3479	-2.8333	-2.5958	-2.5917	-2.8458	-2.5833	308.583	249.637	340.993	65.592	291.879	354.014	72.585	380.442	304.415	261.520	136.911	242.985	186.894	204.830	47.421	164.163	3.7936e-05	7.9377e-05	7.1328e-06	67.284	1.2911e-06	1.95e-06	99.807	15.385	1.6775e-06	7.3352e-07	29.633	10.43	4.9589	1.8493	1.8096e-06	4.6894	0.00031106	0.00037118	0.00010459	80.427	3.9606e-06	4.0402e-06	107.68	17.68	4.1286e-06	4.0693e-06	32.96	11.719	5.8504	2.1959	3.8258e-06	5.2779	235.322	229.142	125.228	39.876	227.389	221.091	39.228	47.220	383.549	276.887	43.867	51.400	51.469	54.705	91.721	54.235	-8191	255	
40386.957	1	1	0	0	0.17528	0.121	0.04828	0.094965	0.039098	0.24057	0.16915	0.21134	0.30045	0.20089	0.57587	0.27333	0.080692	0.22839	0.25815	0.17774	-2.4646	-3.0125	-2.5271	-2.7646	-2.6958	-2.7125	-2.8979	-2.5979	-2.7292	-2.9396	-2.6813	-2.8833	-2.7208	-2.4062	-2.9396	-2.6	262.850	188.934	153.331	307.697	302.702	68.257	219.928	199.730	141.467	221.697	134.446	78.492	350.302	79.865	342.840	254.830	3.4305e-05	7.5097e-05	3.5818e-05	67.819	3.7616e-07	2.6126e-06	98.924	15.292	2.9657e-07	8.2855e-07	29.129	10.425	4.9128	1.8214	1.0768e-06	4.6531	0.00031376	0.00036536	0.00010021	80.719	4.1344e-06	3.9499e-06	107.43	17.686	4.0618e-06	3.9564e-06	32.699	11.592	5.7515	2.1719	3.8499e-06	5.1656	163.152	349.373	365.973	39.970	376.128	350.507	40.407	46.327	174.824	101.740	44.415	51.116	50.789	55.303	333.486	53.458	-8191	255	
40387.055	1	1	0	0	0.27343	0.074504	0.054524	0.1506	0.26753	0.13348	0.083052	0.10041	0.15856	0.23847	0.27208	0.25621	0.030987	0.24483	0.039163	0.12993	-2.2583	-2.6792	-2.4792	-2.8583	-2.8271	-2.4625	-2.9729	-2.6979	-2.6521	-2.7	-2.4646	-2.8875	-2.8917	-2.5375	-3.0979	-2.5479	161.598	176.684	191.679	319.022	352.032	290.529	264.687	105.832	321.715	132.454	356.381	123.974	203.563	50.323	334.678	121.132	2.7986e-05	0.00023369	4.1021e-05	66.366	1.9271e-06	1.2028e-06	100.09	15.323	3.6472e-07	9.0257e-07	29.375	10.523	4.9339	1.8326	1.9212e-07	4.6497	0.00030681	0.00036103	0.00010688	80.59	4.0308e-06	3.817e-06	107.8	17.677	4.058e-06	3.8502e-06	32.743	11.704	5.7564	2.164	3.8906e-06	5.1924	248.024	299.225	346.534	39.118	238.837	90.264	39.944	46.156	219.448	330.412	45.380	50.933	51.035	54.403	353.747	54.173	-8191	255	
40387.176	1	1	0	0	0.070216	0.028241	0.2104	0.1384	0.1043	0.15247	0.2185	0.10177	0.2099	0.17513	0.16712	0.11242	0.013705	0.15454	0.12549	0.088373	-2.1083	-2.7021	-2.2792	-2.6937	-2.8333	-2.6813	-2.8917	-2.4646	-2.7292	-2.8	-2.6521	-2.6229	-2.7583	-2.4	-2.7812	-2.7917	208.771	128.502	326.487	242.563	52.538	99.155	113.998	30.221	96.410	160.359	281.301	160.431	160.453	127.440	351.178	146.644	2.1876e-05	0.00020533	5.0776e-05	66.918	6.8744e-07	1.8086e-06	99.143	15.621	1.8456e-06	9.7199e-08	29.347	10.492	4.8632	1.8404	7.2257e-07	4.6379	0.00030316	0.0003494	0.00010434	81.055	3.9193e-06	3.6386e-06	108.16	17.817	4.09e-06	3.8588e-06	33.09	11.708	5.7518	2.1835	4.1338e-06	5.1924	230.760	150.806	60.951	39.722	376.988	116.786	39.863	45.469	187.382	317.026	44.471	51.251	50.773	55.108	327.490	53.717	-8191	255	
40387.270	1	1	0	0	0.11107	0.12853	0.095762	0.11693	0.23355	0.20782	0.38299	0.054732	0.11059	0.33813	0.19649	0.073245	0.17216	0.34987	0.18055	0.23018	-2.1937	-2.7562	-2.5646	-2.8563	-2.875	-2.55	-2.8625	-2.7208	-2.6479	-2.875	-2.6917	-2.6792	-2.7812	-2.3667	-2.8229	-2.8187	311.730	331.088	224.859	31.483	274.443	74.959	54.395	103.479	327.491	42.523	375.048	91.809	57.019	339.201	181.840	111.837	3.5089e-05	9.4643e-05	3.7617e-05	68.187	2.0781e-06	2.7023e-06	99.302	15.342	1.5543e-06	1.4406e-06	29.524	10.473	4.9276	1.8583	1.5404e-06	4.6785	0.00029205	0.00036263	0.00011426	81.442	3.852e-06	3.7455e-06	108.24	17.767	4.0107e-06	4.0767e-06	33.268	11.754	5.7833	2.213	4.3176e-06	5.2397	228.890	104.497	129.736	41.158	353.900	221.301	39.980	46.211	302.315	194.574	45.333	51.188	50.247	53.453	112.149	53.356	-8191	255	
40387.367	1	1	0	0	0.25691	0.20094	0.096644	0.052175	0.16376	0.12002	0.19348	0.11351	0.078384	0.136	0.24713	0.1868	0.18791	0.059725	0.26312	0.12886	-2.0854	-3.0167	-2.6354	-2.6688	-2.7375	-2.6354	-2.8667	-2.8083	-2.6583	-2.9583	-2.9521	-2.6167	-2.9813	-2.5646	-2.8208	-2.7604	323.036	244.641	28.892	348.361	256.987	95.519	329.846	298.532	53.993	170.064	257.373	208.090	305.087	345.623	199.192	119.739	3.2076e-05	0.00019213	3.4841e-05	65.991	3.5888e-07	1.7114e-06	99.427	15.499	8.8098e-07	2.0132e-06	28.822	10.181	4.858	1.8169	9.7185e-07	4.5465	0.00028487	0.00037585	0.00011417	81.1	3.9096e-06	3.8999e-06	107.81	17.565	4.0448e-06	4.1453e-06	32.706	11.469	5.6891	2.1389	4.2764e-06	5.0923	226.995	58.842	360.616	40.664	362.243	260.744	40.644	46.466	48.258	242.345	45.022	50.866	50.294	55.303	169.331	53.797	-8191	255	
40387.488	1	1	0	0	0.15334	0.159	0.24227	0.16296	0.2017	0.089065	0.30432	0.19157	0.21098	0.13133	0.066907	0.1352	0.045849	0.1836	0.17174	0.21969	-2.0438	-2.8271	-2.5896	-2.6792	-2.8458	-2.5062	-2.8125	-2.7167	-2.3583	-2.9333	-2.7875	-2.4646	-2.7604	-2.5354	-2.6771	-2.7958	341.770	355.439	44.377	90.760	242.972	299.533	308.923	52.937	41.746	254.327	135.887	90.923	170.576	384.432	259.052	254.460	3.8163e-05	0.0002244	4.2599e-05	65.69	2.8261e-06	1.8325e-06	99.202	15.251	1.0451e-06	7.9328e-07	29.429	10.092	4.7548	1.7906	4.6549e-07	4.5363	0.00028672	0.00038492	0.0001108	80.2	3.9626e-06	4.0882e-06	107.35	17.468	4.0545e-06	4.4459e-06	32.917	11.407	5.6523	2.1657	4.1832e-06	5.077	205.325	80.825	329.494	37.825	224.943	124.011	39.792	46.125	29.620	164.081	44.922	50.224	50.141	55.040	185.477	54.091	-8191	255	
40387.559	1	1	0	0	0.17535	0.0094863	0.1871	0.073498	0.15588	0.060419	0.22168	0.258	0.076298	0.14149	0.17553	0.093582	0.23361	0.13321	0.25829	0.14503	-2.0583	-2.775	-2.5875	-2.5521	-2.8458	-2.7125	-2.9125	-2.8167	-2.6479	-2.9521	-2.5687	-2.4375	-2.7833	-2.5521	-2.6063	-2.8542	153.816	53.965	116.832	247.970	275.822	381.974	194.826	94.777	308.461	175.182	153.863	129.239	245.531	371.508	71.660	179.762	3.3638e-05	0.00020522	9.6925e-06	65.7	3.3281e-07	2.6505e-06	99.971	15.439	1.1542e-06	8.2667e-07	29.191	10.161	4.7283	1.8281	1.6096e-06	4.5968	0.0002941	0.00040361	0.00010511	80.279	4.0442e-06	4.1434e-06	107.72	17.349	4.3145e-06	4.5727e-06	32.81	11.4	5.708	2.1733	4.1263e-06	5.1382	234.190	146.013	220.647	40.092	85.702	388.183	39.680	46.649	260.386	250.191	44.501	50.240	50.485	53.661	175.537	53.885	-8191	255	
40387.652	1	1	0	0	0.12356	0.040692	0.14835	0.27727	0.1392	0.28816	0.14802	0.27296	0.093848	0.065542	0.09595	0.24351	0.11829	0.0877	0.16633	0.15664	-2.0875	-2.8333	-2.7542	-2.5646	-2.7917	-2.6417	-2.6167	-2.925	-2.6833	-2.7479	-2.9667	-2.5125	-2.7771	-2.6167	-2.5812	-2.9042	90.050	70.580	185.197	354.323	166.503	60.504	177.519	326.157	45.534	128.857	274.405	223.334	246.290	263.128	358.528	375.127	4.6832e-05	0.00013476	2.5925e-05	66.41	3.0575e-06	3.2085e-06	99.986	15.525	1.8996e-06	1.3525e-06	29.248	10.127	4.8752	1.837	1.3127e-06	4.6425	0.00030134	0.00041149	0.00010326	80.754	4.3414e-06	4.2585e-06	107.52	17.497	4.3038e-06	4.403e-06	32.859	11.505	5.8156	2.1812	4.0766e-06	5.1692	210.502	254.846	136.696	40.912	178.619	316.792	39.624	46.334	326.902	228.340	44.700	50.752	51.779	54.059	149.608	53.944	-8191	255	
40387.773	1	1	0	0	0.050889	0.12651	0.13381	0.10063	0.028853	0.099244	0.12953	0.087332	0.1467	0.097464	0.24887	0.19246	0.12508	0.034297	0.3255	0.22983	-2.1396	-2.5417	-2.5792	-2.5854	-2.8979	-2.8792	-2.5729	-2.7812	-2.6437	-2.8417	-2.7833	-2.4771	-2.8792	-2.4875	-2.7375	-2.9062	190.962	203.848	85.982	181.288	343.457	279.475	333.687	189.273	189.483	116.805	363.393	327.029	96.840	277.110	237.892	321.866	2.6609e-05	9.786e-05	9.8781e-05	68.143	5.1589e-07	9.751e-07	99.782	15.553	5.8786e-07	1.3597e-06	29.413	10.301	4.7759	1.8278	1.234e-06	4.5261	0.00030969	0.00040097	0.00010151	81.343	4.4278e-06	4.2499e-06	107.74	17.553	4.5237e-06	4.282e-06	32.656	11.463	5.7527	2.1423	4.1463e-06	5.0974	193.282	218.600	71.992	40.146	362.603	161.585	40.096	47.234	47.868	115.270	44.580	50.188	51.455	54.385	127.436	53.114	-8191	255	
40387.867	1	1	0	0	0.054377	0.10612	0.175	0.26377	0.14239	0.047936	0.12583	0.21488	0.15969	0.21287	0.17317	0.16847	0.14	0.20471	0.04549	0.39081	-2.2458	-2.6458	-2.8667	-2.5375	-2.7854	-2.7417	-2.6667	-2.7938	-2.6771	-2.7083	-2.8333	-2.6125	-2.8104	-2.7104	-2.6146	-2.8	240.367	292.674	167.253	338.441	86.974	180.384	387.129	191.462	187.294	256.136	244.783	134.443	199.697	172.904	162.857	62.169	3.4674e-05	9.8086e-05	3.0289e-05	67.456	2.487e-06	1.2869e-06	98.381	15.335	2.4098e-07	1.0485e-06	29.586	10.162	4.8927	1.8055	1.3717e-06	4.5355	0.00031653	0.00038683	0.0001017	81.776	4.4136e-06	4.1265e-06	107.07	17.485	4.442e-06	4.1549e-06	32.669	11.439	5.7697	2.1362	4.3139e-06	5.1299	227.566	147.338	321.544	39.336	102.218	245.030	40.273	46.032	212.361	115.075	44.535	51.905	49.580	54.991	195.816	52.974	-8191	255	
40387.965	1	1	0	0	0.17817	0.20623	0.087839	0.059259	0.1691	0.23768	0.14836	0.031615	0.1217	0.050711	0.14255	0.17687	0.11576	0.045308	0.21023	0.089973	-2.0604	-2.6021	-2.6833	-2.55	-2.8333	-2.6479	-2.6354	-2.6458	-2.6833	-2.4146	-2.8229	-2.5771	-2.7292	-2.7896	-2.4917	-2.65	182.269	285.044	308.008	360.905	242.799	336.345	246.829	251.551	171.009	84.247	245.430	107.092	320.646	130.535	29.553	168.924	5.1186e-05	9.1894e-06	6.8627e-05	66.417	1.7182e-06	6.2661e-07	98.997	15.025	2.3323e-06	1.5272e-06	28.864	10.153	4.7691	1.8264	2.2886e-06	4.5654	0.00031724	0.00036626	0.00010534	81.341	4.3392e-06	4.2006e-06	106.84	17.53	4.247e-06	4.2793e-06	32.549	11.455	5.7007	2.137	4.3053e-06	5.1516	208.738	219.817	132.646	39.664	193.013	85.063	40.509	46.912	34.526	218.935	44.298	50.557	52.111	54.107	278.840	53.320	-8191	255	
40388.062	1	1	0	0	0.2069	0.31798	0.19757	0.18247	0.037555	0.060358	0.36207	0.28219	0.14651	0.22015	0.25273	0.18779	0.063149	0.15599	0.1286	0.21713	-2.1625	-2.625	-2.9542	-2.4229	-2.7708	-2.8417	-2.3875	-2.8	-2.5417	-2.6292	-2.7542	-2.4333	-2.7917	-2.8896	-2.5958	-2.8167	384.543	268.062	354.081	139.131	155.688	132.013	126.473	168.309	107.558	203.798	193.513	96.899	234.985	153.550	125.259	302.367	2.5391e-05	4.7352e-05	3.8889e-05	66.863	1.6794e-06	3.638e-07	99.884	15.41	6.1396e-07	7.1783e-07	29.095	10.14	4.769	1.7709	6.9787e-07	4.6082	0.00031653	0.00035541	0.00010991	82.447	4.2585e-06	4.0382e-06	107.68	17.624	4.0222e-06	4.2649e-06	32.936	11.505	5.6961	2.1302	4.5399e-06	5.1573	232.924	34.212	48.028	39.442	191.827	338.093	39.970	45.828	283.869	177.089	44.651	51.399	50.788	54.555	123.674	53.685	-8191	255	
40388.133	1	1	0	0	0.070103	0.15938	0.24104	0.11914	0.21972	0.23308	0.11528	0.30076	0.099153	0.11157	0.1843	0.1479	0.17437	0.17963	0.084526	0.10495	-2.0833	-2.4396	-2.975	-2.5687	-2.6667	-2.7438	-2.4833	-2.8792	-2.825	-2.4771	-2.9375	-2.6229	-2.6958	-2.8479	-2.65	-2.8396	185.705	269.073	70.849	129.569	64.231	297.552	101.099	275.844	289.591	246.779	65.735	328.898	155.422	385.634	237.527	309.036	2.347e-05	6.1959e-05	7.5515e-05	66.687	8.3254e-07	2.0655e-06	99.19	15.197	1.2702e-06	1.6925e-06	29.211	10.052	4.815	1.8051	9.4119e-07	4.4496	0.00030672	0.00036408	0.00011184	81.45	4.0705e-06	4.1531e-06	107.6	17.543	3.8412e-06	4.4097e-06	32.726	11.423	5.6667	2.1115	4.4701e-06	5.0516	211.940	359.330	245.752	39.231	313.707	203.614	40.008	45.321	279.738	94.268	44.559	51.134	51.190	54.370	137.462	53.385	-8191	255	
40388.254	1	1	0	0	0.23883	0.09847	0.2125	0.11557	0.14812	0.11789	0.064848	0.2026	0.30125	0.25902	0.02026	0.13427	0.10265	0.27916	0.041698	0.19869	-2.0938	-2.4792	-2.9542	-2.7625	-2.8563	-3.0875	-2.7354	-2.7042	-2.9042	-2.5521	-2.6354	-2.5542	-2.5958	-2.9229	-2.5312	-2.6583	350.059	97.023	333.898	365.448	367.377	302.921	373.710	309.298	294.562	65.603	162.350	117.608	45.505	300.367	358.538	217.823	3.8075e-05	7.6538e-05	2.1518e-05	66.503	1.9782e-06	2.0078e-06	99.177	15.203	1.4221e-06	2.9904e-06	29.016	9.9869	4.7419	1.8182	2.0919e-06	4.445	0.00029834	0.00036346	0.00011566	80.826	4.0676e-06	4.1929e-06	107.14	17.392	3.8148e-06	4.4543e-06	32.566	11.298	5.6012	2.132	4.6067e-06	5.0409	261.086	164.732	205.451	38.164	177.815	105.767	40.216	45.221	372.693	357.325	44.667	51.057	50.790	55.001	225.899	53.867	-8191	255	
#DATA ENDS
