BOXY.EXE: ISS Imagent and Oximeter Data Acquisition Program Version 0.80
Ascii Record File

#ACQ INFORMATION
2  Detector Channels 
16  External MUX Channels 
1  Auxiliary Channels 
5000  Waveform (CCF) Frequency (Hz)
1  Waveforms Skipped 
30  Waveforms Averaged 
1  Cycles Averaged 
16  Acquisitions per Waveform 
10.0806  Updata Rate (Hz) 

#FILE INFORMATION
TRUE -- External MUX Channel results are PARSED.
FALSE -- AC DC and Phase are NOT grouped.
TRUE -- Companion Program Settings File CREATED.
FALSE -- AC data not excluded
FALSE -- DC data not excluded
FALSE -- Phase data not excluded
FALSE -- Auxillary Chn. data not excluded
Tab delimiters

#CALIBRATION STATE
TRUE -- Waveform Calibration Values APPLIED.


#AUX CALIBRATION VALUES
Val Type	aux-1	

Term	1.0000e+00	
Factor	0.0000e+00	


#WF CALIBRATION VALUES
A = Detector Channel
Val Type	A-AC1	A-AC2	A-AC3	A-AC4	A-AC5	A-AC6	A-AC7	A-AC8	A-AC9	A-AC10	A-AC11	A-AC12	A-AC13	A-AC14	A-AC15	A-AC16	A-DC1	A-DC2	A-DC3	A-DC4	A-DC5	A-DC6	A-DC7	A-DC8	A-DC9	A-DC10	A-DC11	A-DC12	A-DC13	A-DC14	A-DC15	A-DC16	A-Ph1	A-Ph2	A-Ph3	A-Ph4	A-Ph5	A-Ph6	A-Ph7	A-Ph8	A-Ph9	A-Ph10	A-Ph11	A-Ph12	A-Ph13	A-Ph14	A-Ph15	A-Ph16	

Term	0.00000e+00	0.00000e+00	0.00000e+00	0.00000e+00	0.00000e+00	0.00000e+00	0.00000e+00	0.00000e+00	0.00000e+00	0.00000e+00	0.00000e+00	0.00000e+00	0.00000e+00	0.00000e+00	0.00000e+00	0.00000e+00	0.00000e+00	0.00000e+00	0.00000e+00	0.00000e+00	0.00000e+00	0.00000e+00	0.00000e+00	0.00000e+00	0.00000e+00	0.00000e+00	0.00000e+00	0.00000e+00	0.00000e+00	0.00000e+00	0.00000e+00	0.00000e+00	0.00000e+00	0.00000e+00	0.00000e+00	0.00000e+00	0.00000e+00	0.00000e+00	0.00000e+00	0.00000e+00	0.00000e+00	0.00000e+00	0.00000e+00	0.00000e+00	0.00000e+00	0.00000e+00	0.00000e+00	0.00000e+00	
Factor	1.00000e+00	1.00000e+00	1.00000e+00	1.00000e+00	1.00000e+00	1.00000e+00	1.00000e+00	1.00000e+00	1.00000e+00	1.00000e+00	1.00000e+00	1.00000e+00	1.00000e+00	1.00000e+00	1.00000e+00	1.00000e+00	1.00000e+00	1.00000e+00	1.00000e+00	1.00000e+00	1.00000e+00	1.00000e+00	1.00000e+00	1.00000e+00	1.00000e+00	1.00000e+00	1.00000e+00	1.00000e+00	1.00000e+00	1.00000e+00	1.00000e+00	1.00000e+00	X	X	X	X	X	X	X	X	X	X	X	X	X	X	X	X	

B = Detector Channel
Val Type	B-AC1	B-AC2	B-AC3	B-AC4	B-AC5	B-AC6	B-AC7	B-AC8	B-AC9	B-AC10	B-AC11	B-AC12	B-AC13	B-AC14	B-AC15	B-AC16	B-DC1	B-DC2	B-DC3	B-DC4	B-DC5	B-DC6	B-DC7	B-DC8	B-DC9	B-DC10	B-DC11	B-DC12	B-DC13	B-DC14	B-DC15	B-DC16	B-Ph1	B-Ph2	B-Ph3	B-Ph4	B-Ph5	B-Ph6	B-Ph7	B-Ph8	B-Ph9	B-Ph10	B-Ph11	B-Ph12	B-Ph13	B-Ph14	B-Ph15	B-Ph16	

Term	0.00000e+00	0.00000e+00	0.00000e+00	0.00000e+00	0.00000e+00	0.00000e+00	0.00000e+00	0.00000e+00	0.00000e+00	0.00000e+00	0.00000e+00	0.00000e+00	0.00000e+00	0.00000e+00	0.00000e+00	0.00000e+00	0.00000e+00	0.00000e+00	0.00000e+00	0.00000e+00	0.00000e+00	0.00000e+00	0.00000e+00	0.00000e+00	0.00000e+00	0.00000e+00	0.00000e+00	0.00000e+00	0.00000e+00	0.00000e+00	0.00000e+00	0.00000e+00	-6.63820e+01	-1.32221e+02	-1.32598e+02	-1.82128e+02	-5.54045e+01	-6.81716e+01	-1.55839e+02	-1.62015e+02	-4.79085e+01	-6.04191e+01	-1.71365e+02	-1.71126e+02	-1.82066e+02	-1.77488e+02	-4.97492e+01	-1.50542e+02	
Factor	1.73107e-05	1.54295e-04	4.51476e-05	4.38225e-01	1.60551e-06	1.62400e-06	1.61763e-01	5.30960e-02	1.05840e-06	1.60533e-06	8.42355e-02	2.85716e-02	2.33515e-02	8.60720e-03	1.42458e-06	1.24910e-02	5.84177e-06	7.47084e-06	2.07437e-06	2.24426e-01	8.03748e-08	8.19727e-08	7.87615e-02	2.75353e-02	7.88756e-08	8.23536e-08	4.22450e-02	1.44254e-02	1.22567e-02	4.50262e-03	8.00578e-08	6.30654e-03	X	X	X	X	X	X	X	X	X	X	X	X	X	X	X	X	



#DISTANCE SETTINGS
A = Detector Channel
A-1	A-2	A-3	A-4	A-5	A-6	A-7	A-8	A-9	A-10	A-11	A-12	A-13	A-14	A-15	A-16	

2.5000e+00	3.0000e+00	2.5000e+00	3.0000e+00	2.0000e+00	3.0000e+00	1.5000e+00	3.0000e+00	3.0000e+00	3.0000e+00	3.0000e+00	3.0000e+00	3.0000e+00	3.0000e+00	1.5000e+00	3.0000e+00	

B = Detector Channel
B-1	B-2	B-3	B-4	B-5	B-6	B-7	B-8	B-9	B-10	B-11	B-12	B-13	B-14	B-15	B-16	

1.0000e+01	1.0000e+01	1.0000e+01	1.4400e+00	1.0000e+01	1.0000e+01	1.5100e+00	1.9400e+00	1.0000e+01	1.0000e+01	1.9900e+00	2.4900e+00	2.4100e+00	2.9000e+00	1.0000e+01	2.9800e+00	




#DATA BEGINS
time	group	step	mark	flag	A-AC1	A-AC2	A-AC3	A-AC4	A-AC5	A-AC6	A-AC7	A-AC8	A-AC9	A-AC10	A-AC11	A-AC12	A-AC13	A-AC14	A-AC15	A-AC16	A-DC1	A-DC2	A-DC3	A-DC4	A-DC5	A-DC6	A-DC7	A-DC8	A-DC9	A-DC10	A-DC11	A-DC12	A-DC13	A-DC14	A-DC15	A-DC16	A-Ph1	A-Ph2	A-Ph3	A-Ph4	A-Ph5	A-Ph6	A-Ph7	A-Ph8	A-Ph9	A-Ph10	A-Ph11	A-Ph12	A-Ph13	A-Ph14	A-Ph15	A-Ph16	B-AC1	B-AC2	B-AC3	B-AC4	B-AC5	B-AC6	B-AC7	B-AC8	B-AC9	B-AC10	B-AC11	B-AC12	B-AC13	B-AC14	B-AC15	B-AC16	B-DC1	B-DC2	B-DC3	B-DC4	B-DC5	B-DC6	B-DC7	B-DC8	B-DC9	B-DC10	B-DC11	B-DC12	B-DC13	B-DC14	B-DC15	B-DC16	B-Ph1	B-Ph2	B-Ph3	B-Ph4	B-Ph5	B-Ph6	B-Ph7	B-Ph8	B-Ph9	B-Ph10	B-Ph11	B-Ph12	B-Ph13	B-Ph14	B-Ph15	B-Ph16	aux-1	digaux	

40928.516	1	1	0	768	0.16929	0.21166	0.24601	0.067355	0.078471	0.11036	0.061435	0.34034	0.11929	0.16866	0.03709	0.12995	0.11548	0.14148	0.37555	0.37996	-2.4229	-2.7375	-2.3167	-2.875	-2.5542	-2.5208	-2.6646	-2.5083	-2.6688	-2.5375	-2.5375	-2.5021	-2.625	-2.6667	-2.9375	-2.4292	-141.405	115.364	9.529	190.327	182.471	97.032	-125.999	161.159	174.542	105.410	-132.702	160.792	58.381	16.956	134.537	104.050	0.00012615	0.00017905	3.4608e-05	212.58	1.6303e-06	1.0503e-06	271.91	59.673	1.0326e-06	7.5564e-07	93.583	30.444	17.12	6.3257	1.3157e-06	13.856	4.7428e-05	3.0117e-05	4.6371e-06	220.47	2.0697e-07	1.6719e-07	284.5	62.862	2.4879e-07	1.6659e-07	97.892	32.121	18.049	6.6942	1.9531e-07	14.645	-98.466	-90.179	-57.475	-150.479	-5.017	-2.639	-150.690	-145.640	-49.005	7.462	-146.441	-141.271	-141.483	-136.013	18.373	-136.899	-8191	255	
40928.609	1	1	0	0	0.16417	0.19433	0.086345	0.19349	0.10913	0.11507	0.29536	0.11008	0.10089	0.11098	0.14839	0.13566	0.024546	0.17118	0.36246	0.058248	-2.4229	-2.6937	-2.425	-2.7833	-2.7021	-2.5625	-2.9458	-2.6417	-2.5438	-2.875	-2.4729	-2.85	-2.7708	-2.5021	-2.6562	-2.4896	4.223	-63.839	-117.741	-89.553	-102.785	-19.085	182.399	-105.640	183.304	37.563	16.491	103.284	65.425	100.205	11.079	-19.607	0.00011718	0.00021754	3.4294e-05	211.66	7.5759e-07	1.8839e-06	273.26	59.34	5.1097e-07	8.9812e-07	93.672	30.623	17.291	6.4264	1.1164e-06	14.028	4.5627e-05	2.6039e-05	3.9499e-06	220.1	1.5104e-07	1.5011e-07	284.61	62.586	2.2118e-07	1.8461e-07	98.05	32.32	18.143	6.7659	2.0448e-07	14.748	-99.318	-108.931	-94.198	-151.262	1.176	-7.785	-150.530	-145.872	13.387	15.175	-146.380	-141.074	-141.699	-135.990	23.808	-137.024	-8191	255	
40928.707	1	1	0	0	0.13981	0.16556	0.28432	0.10308	0.30286	0.32331	0.031938	0.18138	0.43056	0.21148	0.12394	0.0787	0.28941	0.11025	0.013673	0.24497	-2.2979	-2.7687	-2.4437	-2.8521	-2.6354	-2.4437	-2.8438	-2.6417	-2.5479	-2.8958	-2.6208	-2.7042	-2.5146	-2.5771	-2.8583	-2.7479	136.657	68.464	-139.223	94.624	116.020	-74.056	-57.235	-95.912	-57.823	-132.019	24.047	89.870	152.701	13.014	-0.346	59.164	0.00011457	0.00014496	5.2261e-05	211.96	2.973e-07	1.4289e-06	272.75	59.9	4.9693e-07	1.2594e-06	94.188	30.742	17.316	6.3705	1.1544e-06	14.03	4.3302e-05	3.0833e-05	4.3821e-06	221.44	1.718e-07	1.3235e-07	286.13	63.074	2.031e-07	1.587e-07	98.788	32.546	18.262	6.7907	2.0582e-07	14.834	-98.034	-84.611	-73.873	-150.393	30.727	-19.985	-150.260	-146.009	-18.022	-14.493	-146.232	-141.356	-141.645	-135.820	-21.669	-136.771	-8191	255	
40928.805	1	1	0	0	0.071187	0.20307	0.13999	0.12669	0.17313	0.21631	0.065645	0.14167	0.050936	0.048499	0.26374	0.16089	0.19408	0.33188	0.12584	0.19295	-2.0854	-2.7938	-2.4667	-2.7271	-2.7833	-2.5708	-2.8771	-2.6208	-2.5667	-2.7729	-2.3979	-2.5812	-2.4625	-2.5021	-2.6479	-2.5667	152.233	85.743	2.297	50.230	23.738	-11.065	27.709	-72.296	85.986	-121.890	-54.126	149.801	-2.862	-128.555	-36.394	96.644	0.00011578	0.00011993	3.2982e-05	214.92	1.4454e-06	1.1713e-06	273.47	60.834	5.4055e-07	9.7832e-07	94.58	30.623	17.349	6.3803	1.3403e-06	13.73	4.503e-05	2.1199e-05	5.1989e-06	222.66	1.3999e-07	1.3696e-07	287.61	63.619	1.8454e-07	1.5253e-07	99.034	32.522	18.274	6.7221	2.0565e-07	14.571	-96.555	-93.118	-83.626	-150.777	1.950	-37.441	-150.776	-145.239	19.746	-6.240	-146.749	-141.040	-141.387	-135.813	31.545	-137.484	-8191	255	
40928.898	1	1	0	0	0.23407	0.14605	0.19927	0.19597	0.03297	0.26913	0.39314	0.089928	0.22407	0.11767	0.11287	0.094151	0.31169	0.028154	0.16126	0.1879	-1.9979	-2.7229	-2.3937	-2.5625	-2.7812	-2.4813	-2.7625	-2.3292	-2.5833	-2.9042	-2.6146	-2.4729	-2.825	-2.4583	-2.7062	-2.8021	46.721	-79.443	95.154	78.990	-129.997	-103.385	5.409	-140.332	74.986	49.506	59.245	108.992	129.164	-109.283	-46.657	-81.542	0.00011753	6.7855e-05	3.608e-05	212.56	1.5958e-06	1.0613e-06	273.82	60.078	7.3507e-07	1.0259e-06	93.851	30.282	17.074	6.2239	1.1542e-06	13.646	4.5821e-05	1.6685e-05	7.0917e-06	221.05	1.4853e-07	1.2193e-07	285.5	62.941	1.7336e-07	1.4892e-07	97.792	31.94	18.049	6.5893	2.1699e-07	14.363	-97.012	-72.719	-65.572	-150.677	-17.027	-14.170	-150.334	-145.005	-6.824	-8.889	-146.613	-141.293	-141.217	-136.047	-51.858	-137.182	-8191	255	
40928.996	1	1	0	0	0.14342	0.17099	0.25385	0.31472	0.042358	0.13171	0.28353	0.33527	0.28351	0.10009	0.14019	0.24866	0.17978	0.24445	0.19868	0.36293	-2.0167	-2.6854	-2.3604	-2.4146	-2.8854	-2.4396	-2.5958	-2.5625	-2.4104	-2.9417	-2.65	-2.3688	-2.7417	-2.6063	-2.5917	-2.9417	-56.125	-151.138	83.932	100.748	125.893	-144.629	-87.613	134.614	-39.623	19.380	-159.671	49.018	164.102	146.819	11.292	-30.053	0.00011536	0.00012843	3.6114e-05	214.49	1.0741e-06	1.3777e-06	272.66	59.922	1.1787e-06	1.3048e-06	93.359	30.183	16.979	6.1965	1.0041e-06	13.59	4.0844e-05	1.793e-05	6.2966e-06	220.61	1.6393e-07	1.508e-07	284.11	62.925	1.7418e-07	1.4704e-07	97.806	31.844	17.958	6.5364	1.833e-07	14.29	-95.627	-77.610	-76.161	-150.013	-21.263	-18.394	-150.757	-145.910	-3.586	47.128	-146.617	-141.005	-141.897	-135.816	-6.129	-136.558	-8191	255	
40929.113	1	1	0	0	0.3037	0.081301	0.24782	0.30277	0.17411	0.1641	0.18891	0.15403	0.21909	0.25443	0.043208	0.24269	0.24045	0.091914	0.10372	0.20783	-2.0833	-2.6542	-2.5708	-2.5042	-2.7021	-2.5938	-2.7729	-2.7292	-2.6958	-2.7708	-2.7375	-2.625	-2.6646	-2.4083	-2.5896	-2.8229	34.345	-162.630	-37.794	-110.417	38.079	-76.260	-140.795	-162.583	66.776	-36.540	196.527	13.224	-140.138	121.567	33.580	52.585	0.00012344	0.00013331	4.1837e-05	215.67	9.4379e-07	5.3734e-07	271.81	60.367	5.9734e-07	1.2935e-06	93.906	30.685	17.164	6.312	8.5104e-07	13.739	4.3436e-05	1.5222e-05	7.5758e-06	221.74	1.5238e-07	1.1305e-07	284.55	63.108	1.7796e-07	1.6677e-07	98.397	32.072	18.063	6.6033	1.7029e-07	14.479	-96.697	-79.139	-68.234	-150.597	8.865	-11.831	-150.960	-145.471	1.901	4.700	-146.770	-141.198	-141.494	-136.153	20.138	-137.070	-8191	255	
40929.211	1	1	0	0	0.083538	0.18205	0.12957	0.094304	0.1888	0.49408	0.28853	0.28552	0.097321	0.15346	0.18432	0.25098	0.18143	0.22373	0.26276	0.022624	-1.8958	-2.6792	-2.7854	-2.2188	-2.6708	-2.6042	-2.5646	-2.9229	-2.5187	-2.7687	-2.6292	-2.45	-2.7104	-2.625	-2.5229	-2.8083	23.247	-29.745	62.064	-34.279	99.083	-91.897	74.930	141.328	46.280	157.780	5.267	38.833	-54.499	141.989	-104.977	-5.248	0.00012019	0.00012673	4.1423e-05	213.67	1.1233e-06	9.4639e-07	274	60.617	8.6614e-07	2.254e-06	94.012	30.808	17.266	6.4008	1.1732e-06	13.725	4.4239e-05	1.4366e-05	5.8947e-06	221.53	1.4116e-07	1.3218e-07	287.09	63.447	1.4789e-07	1.3743e-07	98.695	32.468	18.219	6.7168	1.8797e-07	14.566	-100.313	-97.624	-81.541	-150.488	-7.990	-20.637	-150.508	-145.556	-12.048	-25.968	-146.914	-140.924	-141.533	-136.144	-40.881	-136.768	-8191	255	
40929.309	1	1	0	0	0.36304	0.11355	0.13042	0.21386	0.24545	0.20692	0.14676	0.17062	0.256	0.22553	0.17443	0.23541	0.028554	0.36232	0.10016	0.16367	-2.1917	-2.8312	-2.7271	-2.4917	-2.7354	-2.6979	-2.7812	-2.9604	-2.5229	-2.7604	-2.7938	-2.5583	-2.6729	-2.7083	-2.5083	-2.7667	83.233	-60.165	-34.844	154.565	-92.048	62.026	173.962	15.034	3.141	100.164	196.168	177.092	-34.453	151.108	46.962	175.893	0.00011979	0.00012942	2.7797e-05	213.1	1.1206e-06	6.549e-07	274.23	59.56	1.0575e-06	1.0604e-06	93.224	30.168	16.998	6.3046	9.569e-07	13.855	4.3886e-05	1.572e-05	8.1894e-06	222.03	1.7565e-07	1.2586e-07	285.23	62.647	2.2052e-07	1.6985e-07	97.625	31.864	17.925	6.6516	1.5361e-07	14.549	-91.900	-71.638	-69.145	-150.851	-14.448	-0.628	-150.770	-145.581	-30.830	4.935	-146.625	-141.262	-141.443	-136.316	-10.144	-136.774	-8191	255	
40929.402	1	1	0	0	0.1328	0.16266	0.1532	0.24577	0.20472	0.20404	0.24901	0.18605	0.081336	0.11631	0.17423	0.14021	0.25544	0.18774	0.12939	0.24528	-2.1437	-2.65	-2.8	-2.4188	-2.8583	-2.6917	-2.6333	-2.9542	-2.5292	-2.525	-3.0292	-2.3896	-2.6167	-2.625	-2.4625	-2.7896	-67.576	-111.898	146.626	102.802	154.984	-40.046	-85.489	112.551	-1.531	52.126	-106.698	115.769	-76.108	132.982	33.261	7.333	0.00011433	0.00010222	3.7726e-05	211.02	1.0902e-06	2.2065e-06	271.8	60.038	5.3839e-07	8.5098e-07	93.334	30.287	16.96	6.2615	4.4696e-07	13.807	4.3509e-05	1.5315e-05	6.2663e-06	219.89	1.6745e-07	1.508e-07	284.42	62.474	3.1945e-07	1.5407e-07	97.623	31.943	17.927	6.6408	1.6262e-07	14.55	-96.647	-71.387	-73.250	-150.527	-58.910	-9.757	-150.655	-145.636	-10.993	-2.652	-146.512	-141.119	-141.777	-135.743	-11.173	-136.642	-8191	255	
40929.500	1	1	0	0	0.1654	0.23729	0.053671	0.39602	0.14947	0.13008	0.10097	0.1878	0.041234	0.17504	0.030506	0.009046	0.30957	0.22302	0.15786	0.29916	-2	-2.4813	-2.8979	-2.4208	-2.7729	-2.8688	-2.6521	-2.8646	-2.5667	-2.4625	-2.8583	-2.6437	-2.5729	-2.8812	-2.5604	-2.8792	-11.631	-59.990	79.381	-1.594	-111.041	176.258	131.781	67.918	-46.851	126.204	-52.770	-94.902	138.042	66.868	2.831	-152.048	0.00012471	0.00020029	4.6476e-05	214.91	1.1781e-06	8.3521e-07	272.58	59.646	6.829e-07	1.1324e-06	93.016	30.599	17.187	6.2699	4.7659e-07	13.692	4.5006e-05	1.3043e-05	7.2473e-06	221.32	1.7783e-07	1.1579e-07	285.14	62.628	2.9151e-07	1.4343e-07	97.768	32.162	18.071	6.6481	1.5044e-07	14.512	-97.038	-66.919	-76.033	-151.367	22.572	19.641	-150.522	-145.530	6.178	-14.561	-146.259	-141.213	-140.896	-136.055	-66.942	-137.133	-8191	255	
40929.598	1	1	0	0	0.2304	0.048321	0.30632	0.092098	0.23401	0.15328	0.19067	0.10411	0.27971	0.076433	0.13758	0.19331	0.12822	0.028672	0.13691	0.084262	-2.1833	-2.5417	-2.9313	-2.5396	-2.7708	-2.7458	-2.6063	-2.7292	-2.675	-2.4021	-2.7604	-2.3937	-2.65	-2.775	-2.5792	-2.7917	61.374	45.408	-100.838	124.761	29.076	-45.661	95.612	132.796	7.546	136.378	77.817	-124.981	152.740	-132.698	-37.487	5.813	0.00012113	0.0001055	3.8709e-05	214.58	1.2711e-06	2.2794e-07	275.19	60.231	7.3434e-07	1.3314e-06	95.145	30.463	17.08	6.3082	8.2471e-07	13.904	4.1671e-05	1.3852e-05	5.5619e-06	222.4	1.8419e-07	1.4567e-07	286.84	63.137	3.4557e-07	1.2027e-07	98.685	32.181	18.092	6.6686	1.5628e-07	14.596	-99.572	-91.865	-58.071	-149.906	-8.569	-43.473	-150.516	-145.704	7.589	-0.925	-146.199	-140.826	-141.638	-136.300	-6.090	-136.943	-8191	255	
40929.715	1	1	0	0	0.10511	0.084592	0.042411	0.1689	0.052572	0.14644	0.13293	0.081025	0.19589	0.23433	0.057176	0.13261	0.14201	0.085696	0.04842	0.034738	-2.2542	-2.4354	-2.7104	-2.5458	-2.5417	-2.8708	-2.4604	-2.6917	-2.7167	-2.4813	-2.9688	-2.6146	-2.7417	-2.75	-2.5417	-2.7229	69.725	-93.304	-160.872	129.498	179.797	77.751	193.466	-148.063	-70.115	32.354	123.854	-84.731	141.428	195.002	-133.469	8.519	0.00011233	0.00013174	3.074e-05	213.18	1.0566e-06	1.5442e-06	272.57	59.77	8.0934e-07	1.0198e-06	93.296	30.121	17.062	6.3022	9.8233e-07	13.665	4.2608e-05	1.1533e-05	3.4054e-06	222.18	1.5974e-07	1.4533e-07	285.23	62.571	2.8017e-07	1.2782e-07	97.316	31.76	17.87	6.629	1.7313e-07	14.436	-96.577	-80.683	-58.687	-151.246	-17.472	-9.194	-150.539	-145.453	-24.353	-33.598	-146.529	-141.261	-141.627	-135.813	-7.749	-137.091	-8191	255	
40929.812	1	1	0	0	0.071481	0.35358	0.28785	0.025644	0.1263	0.084591	0.029636	0.079896	0.12532	0.056247	0.076532	0.12043	0.17242	0.1155	0.10499	0.16745	-2.5271	-2.425	-2.7354	-2.5563	-2.6458	-2.8417	-2.4646	-2.7188	-2.6125	-2.6458	-2.8146	-2.5854	-2.6562	-2.7313	-2.4792	-2.6437	90.869	-140.103	-65.289	5.229	1.490	129.776	-140.583	90.530	-96.444	-119.733	164.312	-59.945	-138.557	163.561	104.653	160.846	0.0001176	0.00012284	2.8298e-05	215.85	8.4973e-07	1.6864e-06	273.01	59.756	1.7732e-07	9.809e-07	93.387	30.423	17.113	6.3434	1.0755e-06	14.007	4.4531e-05	1.4911e-05	4.0926e-06	222.38	1.641e-07	1.3252e-07	284.85	62.61	3.2832e-07	1.4034e-07	98.061	32.061	17.964	6.719	2.1199e-07	14.696	-97.079	-83.816	-86.350	-150.769	13.799	-2.233	-150.860	-145.652	-43.114	48.911	-146.630	-141.069	-141.618	-136.122	18.223	-136.851	-8191	255	
40929.906	1	1	0	0	0.073239	0.005493	0.12148	0.036796	0.17129	0.18671	0.19306	0.2222	0.24208	0.14318	0.20659	0.13712	0.05429	0.086494	0.076043	0.20132	-2.3646	-2.4771	-2.7583	-2.7583	-2.4604	-2.8167	-2.7146	-2.7771	-2.6354	-2.475	-2.7375	-2.6583	-2.6521	-2.7583	-2.6604	-2.5958	-125.328	-88.868	50.583	176.713	86.034	-109.241	-42.002	147.645	-23.051	-122.337	132.197	195.346	180.283	-117.976	-56.258	-146.891	0.00011802	0.00014488	3.0688e-05	214.41	7.8269e-07	1.2033e-06	273.57	60.264	5.4174e-07	1.5768e-06	93.779	30.512	17.428	6.4033	1.2157e-06	14.004	4.2462e-05	1.4599e-05	4.3086e-06	223.11	1.574e-07	1.7453e-07	286.13	63.092	3.0236e-07	1.225e-07	98.526	32.345	18.156	6.7437	3.1206e-07	14.81	-97.667	-81.741	-92.384	-150.789	-24.387	-31.087	-150.892	-145.693	-29.358	0.753	-146.592	-141.277	-141.689	-135.921	-28.214	-137.310	-8191	255	
40930.004	1	1	0	0	0.29311	0.15766	0.36726	0.21219	0.1449	0.065897	0.21246	0.056767	0.12274	0.26673	0.008393	0.13523	0.080019	0.05848	0.32974	0.11198	-2.4083	-2.6333	-2.6688	-2.5625	-2.5583	-2.8042	-2.5229	-2.4062	-2.675	-2.5062	-2.7854	-2.7208	-2.4354	-2.8708	-2.5812	-2.6562	-135.901	6.729	-62.446	149.131	156.007	159.336	-93.746	-29.747	171.237	-69.397	15.159	87.273	91.933	-21.205	130.826	-130.312	0.00011037	0.00013815	2.4877e-05	214.82	3.5486e-07	4.4732e-07	276.07	60.417	7.9222e-07	1.1906e-06	95.073	30.78	17.399	6.3921	7.5273e-07	14.099	4.4045e-05	1.3697e-05	4.2913e-06	223.2	1.5974e-07	1.8393e-07	288.8	63.403	3.1747e-07	1.3931e-07	99.473	32.688	18.339	6.8019	2.7787e-07	14.888	-95.988	-105.181	-76.382	-150.271	12.247	-4.867	-150.623	-145.676	-0.285	6.045	-146.523	-141.415	-140.973	-135.704	-35.973	-136.816	-8191	255	
40930.074	1	1	0	0	0.050755	0.13102	0.14258	0.24153	0.29739	0.15139	0.13586	0.14718	0.2381	0.085784	0.1174	0.22097	0.16189	0.19562	0.061584	0.21639	-2.3396	-2.5042	-2.9104	-2.6937	-2.7083	-3.0625	-2.6208	-2.3979	-3.0667	-2.6229	-2.6833	-2.8792	-2.5312	-2.7104	-2.6583	-2.5917	35.438	-29.063	175.831	35.315	86.853	-109.603	-2.655	-93.326	-126.536	-64.995	-89.842	-157.240	-139.000	155.441	-45.808	-115.127	0.0001149	0.00011188	3.7433e-05	214.8	1.1222e-06	1.6258e-06	274.25	60.175	9.6673e-07	1.3535e-06	93.778	30.509	17.036	6.3817	1.0427e-06	13.896	4.5164e-05	1.3261e-05	4.8402e-06	223.83	1.5974e-07	1.9537e-07	287.54	63.082	2.3531e-07	1.8787e-07	98.204	32.165	18.001	6.6901	2.9905e-07	14.634	-97.869	-54.987	-107.172	-150.686	3.509	-8.563	-150.526	-145.558	-30.743	-33.273	-146.085	-141.419	-141.808	-135.802	-6.212	-136.591	-8191	255	
40930.195	1	1	0	0	0.099627	0.12899	0.16209	0.2464	0.1524	0.10033	0.1734	0.15381	0.1511	0.088357	0.13627	0.17699	0.21116	0.24496	0.089161	0.18413	-2.3833	-2.4542	-2.4729	-2.8438	-2.4271	-2.8646	-2.7812	-2.6	-2.8937	-2.6271	-2.4729	-2.7313	-2.4208	-2.6396	-2.4625	-2.4375	175.890	29.558	-64.529	151.330	11.444	111.035	143.279	182.405	-87.640	175.124	113.282	-30.169	-46.543	144.397	-68.465	-140.814	0.00012754	6.7797e-05	2.6428e-05	216.07	1.4898e-06	1.4267e-06	274.64	60.102	1.0059e-06	1.0331e-06	94.097	30.32	17.368	6.3739	1.5828e-06	13.792	4.4008e-05	1.3105e-05	4.4599e-06	222.5	1.7348e-07	1.7624e-07	286.62	62.657	2.34e-07	3.1878e-07	98.465	32.067	18.086	6.7215	2.4785e-07	14.631	-100.107	-67.017	-90.132	-149.819	-18.144	2.589	-150.499	-145.467	-29.914	-43.869	-146.494	-141.476	-141.510	-135.809	-30.462	-136.616	-8191	255	
40930.289	1	1	0	0	0.40413	0.17381	0.019974	0.17993	0.13055	0.164	0.14967	0.2077	0.24435	0.14821	0.18026	0.13256	0.061629	0.15923	0.20817	0.32137	-2.3438	-2.5479	-2.475	-2.875	-2.4792	-2.5958	-2.5854	-2.425	-2.75	-2.5563	-2.4938	-2.7396	-2.4771	-2.5438	-2.5042	-2.4167	176.292	172.673	142.405	-2.348	129.269	-86.029	25.293	142.169	-108.269	-37.110	55.632	185.336	-52.914	-102.061	102.421	41.001	0.00012631	0.00015843	4.225e-05	215.01	9.4323e-07	1.35e-06	273.87	60.17	7.9189e-07	7.9389e-07	94.354	30.667	17.335	6.3223	9.2769e-07	13.891	4.4836e-05	1.351e-05	4.5074e-06	223.04	1.3915e-07	1.7897e-07	287.32	62.951	2.3301e-07	2.7177e-07	98.804	32.331	18.122	6.6942	3.4842e-07	14.686	-97.548	-71.347	-51.812	-150.651	5.843	7.139	-150.779	-145.358	-12.035	1.679	-146.491	-141.118	-141.263	-136.373	7.348	-137.141	-8191	255	
40930.387	1	1	0	0	0.19717	0.31777	0.20702	0.11939	0.23342	0.041178	0.13135	0.21897	0.18415	0.11571	0.34713	0.11226	0.10937	0.061601	0.23755	0.28396	-2.4354	-2.6042	-2.6521	-2.6021	-2.4125	-2.5792	-2.7333	-2.3479	-2.7729	-2.8146	-2.5042	-2.7104	-2.4688	-2.5375	-2.7458	-2.4125	73.787	114.236	-89.472	97.783	37.752	1.498	94.479	-70.090	42.500	166.530	104.703	-122.944	-132.833	-132.364	84.883	46.783	0.00011324	0.00012404	3.3155e-05	220.57	1.1781e-06	9.3911e-07	277.06	60.723	1.1814e-06	7.8187e-07	95.441	30.835	17.454	6.406	8.876e-07	14.158	4.6503e-05	1.3759e-05	4.3605e-06	225.12	2.1048e-07	1.6019e-07	289.81	63.483	2.3219e-07	2.8498e-07	99.544	32.688	18.289	6.7766	2.837e-07	14.895	-95.737	-101.569	-86.447	-150.500	-27.381	-36.912	-150.775	-145.299	1.851	87.541	-146.328	-141.373	-141.798	-135.564	27.099	-136.741	-8191	255	
40930.508	1	1	0	0	0.12998	0.2426	0.20932	0.094946	0.16496	0.17795	0.21414	0.10222	0.20586	0.26246	0.21597	0.2166	0.022213	0.078996	0.16933	0.25275	-2.2583	-2.6396	-2.3729	-2.7562	-2.6833	-2.5312	-2.7021	-2.6229	-2.6896	-2.6312	-2.5333	-2.8583	-2.6125	-2.5583	-2.7542	-2.5479	12.892	-38.288	102.589	71.686	87.573	-148.348	81.270	136.784	-47.429	-86.915	120.495	-146.805	-8.354	157.945	122.946	-2.203	0.00011993	0.00014206	1.8852e-05	219.52	1.2244e-06	3.9093e-07	276.57	59.844	5.7792e-07	9.21e-07	94.242	30.351	17.085	6.3637	1.11e-06	13.752	4.5408e-05	1.4459e-05	3.4184e-06	225.32	2.9169e-07	1.648e-07	289.33	63.043	2.2562e-07	2.8069e-07	98.371	32.133	17.985	6.6732	3.1539e-07	14.564	-97.132	-107.768	-112.054	-150.266	-14.911	20.605	-150.748	-145.951	-1.289	-10.669	-146.843	-141.225	-141.674	-135.713	19.977	-136.764	-8191	255	
40930.605	1	1	0	0	0.16256	0.07989	0.21524	0.15134	0.13301	0.19185	0.084254	0.15916	0.23765	0.019718	0.16054	0.22224	0.10768	0.19348	0.154	0.12191	-2.2229	-2.7604	-2.1813	-2.8021	-2.6396	-2.5875	-2.825	-2.4771	-2.7146	-2.8	-2.6208	-2.8083	-2.6604	-2.4229	-2.7396	-2.5354	-44.191	-51.412	-5.877	85.983	30.249	-29.712	-112.343	-35.931	180.665	-15.021	87.545	77.015	-86.556	184.299	-105.063	54.037	0.00011402	0.00015802	3.016e-05	215.01	8.1984e-07	1.2279e-06	275.81	59.995	8.6232e-07	9.8296e-07	93.969	30.25	17.157	6.3573	8.273e-07	13.903	4.4507e-05	1.4195e-05	4.0364e-06	223.52	2.7043e-07	1.7078e-07	287.99	62.685	2.0097e-07	3.1088e-07	98.729	32.155	18.027	6.7032	2.2716e-07	14.691	-95.576	-76.679	-66.197	-150.881	12.088	-20.591	-150.944	-145.527	8.509	-3.530	-146.180	-140.894	-141.460	-136.468	9.515	-136.868	-8191	255	
40930.676	1	1	0	0	0.029819	0.16078	0.21979	0.036912	0.26312	0.11787	0.10299	0.10866	0.11152	0.067733	0.21497	0.2443	0.16393	0.23144	0.10499	0.30911	-2.2729	-2.5375	-2.3771	-2.5854	-2.7167	-2.6104	-2.7812	-2.3688	-2.6021	-2.7104	-2.625	-2.6896	-2.5625	-2.4688	-2.6396	-2.6833	-58.531	136.177	-110.652	178.194	-119.792	-51.134	150.754	4.753	-22.729	6.756	-63.766	142.889	-124.400	94.045	128.742	92.258	0.00012331	0.00013299	3.1327e-05	216.79	1.1711e-06	5.1296e-07	275.36	60.223	1.1487e-06	7.3445e-07	93.967	30.441	17.258	6.2727	6.6597e-07	13.746	4.3765e-05	1.6716e-05	3.8246e-06	222.86	2.8181e-07	1.3491e-07	288.69	62.986	2.1346e-07	2.4226e-07	98.828	32.248	18.067	6.6474	2.2316e-07	14.561	-98.308	-59.376	-80.184	-150.603	18.134	-18.351	-150.697	-145.736	8.888	-15.806	-146.325	-141.122	-141.409	-135.907	11.157	-136.892	-8191	255	
40930.797	1	1	0	0	0.24838	0.20975	0.020335	0.34416	0.078867	0.3496	0.064802	0.084254	0.060611	0.2366	0.10825	0.24549	0.15301	0.14492	0.26989	0.15584	-2.1333	-2.6979	-2.3417	-2.7917	-2.7979	-2.575	-2.8312	-2.5479	-2.5917	-2.6542	-2.6125	-2.85	-2.6167	-2.3771	-2.8375	-2.6042	-6.777	51.447	161.233	-135.440	35.240	188.415	1.524	-98.782	-56.071	-30.344	52.270	2.706	61.926	-0.176	-32.117	125.573	0.00011895	0.00010902	2.8173e-05	218.14	1.0202e-06	1.6889e-06	276.97	60.862	5.5993e-07	4.6825e-07	93.713	30.428	17.06	6.1767	1.06e-06	13.421	4.6978e-05	1.5984e-05	3.5653e-06	225.23	2.5854e-07	1.274e-07	289.96	63.509	1.6909e-07	2.5753e-07	99.015	32.081	18.023	6.5116	2.1082e-07	14.197	-97.703	-93.903	-59.108	-150.676	42.709	-16.801	-150.641	-145.391	-17.414	23.078	-146.711	-141.272	-141.617	-136.040	-5.681	-136.924	-8191	255	
40930.891	1	1	0	0	0.26506	0.13154	0.39143	0.093091	0.44588	0.22021	0.31226	0.069041	0.20241	0.028656	0.33473	0.35263	0.063157	0.1889	0.093347	0.006767	-2.0312	-2.6937	-2.5729	-2.5479	-2.7979	-2.6979	-2.725	-2.6708	-2.5062	-2.8542	-2.4562	-2.6292	-2.6958	-2.2667	-2.8021	-2.6937	32.293	32.702	-100.721	50.954	72.497	94.212	137.058	-47.196	-129.242	-46.712	114.797	-57.164	136.930	3.945	-150.183	-12.957	0.0001129	0.00012189	3.5585e-05	218.3	1.0082e-06	9.7888e-07	276.09	60.248	8.8169e-07	7.3324e-07	93.831	29.455	16.792	5.8521	1.0369e-06	12.843	4.2754e-05	1.5984e-05	3.5524e-06	224.04	3.0107e-07	1.4038e-07	287.93	63.148	1.8552e-07	1.6814e-07	97.811	31.174	17.615	6.1979	1.6929e-07	13.548	-97.880	-96.294	-100.558	-150.246	9.644	-34.523	-150.615	-145.653	-17.503	-23.311	-146.356	-141.238	-141.473	-135.935	-1.004	-136.527	-8191	255	
40930.988	1	1	0	0	0.13488	0.057598	0.19142	0.11853	0.14869	0.20276	0.1973	0.17733	0.11949	0.42306	0.15993	0.13148	0.059795	0.23376	0.33859	0.16186	-2.0771	-2.7958	-2.5729	-2.5417	-2.7583	-2.5208	-2.7188	-2.5854	-2.5687	-2.7875	-2.4958	-2.6042	-2.7917	-2.4188	-2.7417	-2.6312	-18.687	138.552	-100.005	155.733	-149.383	-91.655	186.965	71.542	-138.000	29.851	-125.392	-9.894	-3.713	-24.002	9.977	179.904	0.00011814	0.00015353	3.3517e-05	213.29	9.7755e-07	1.2694e-06	270.56	59.297	1.1609e-06	1.3216e-06	91.714	29.119	16.46	5.7152	7.8549e-07	12.595	4.1744e-05	1.5113e-05	3.7511e-06	221.06	2.3225e-07	1.1118e-07	283.19	62.153	1.6416e-07	1.6797e-07	96.135	30.626	17.328	6.056	1.7646e-07	13.309	-90.991	-104.078	-64.836	-150.812	-17.062	-33.373	-150.482	-145.862	19.476	-24.480	-146.581	-141.197	-141.551	-136.048	-16.045	-137.369	-8191	255	
40931.109	1	1	0	0	0.42519	0.15556	0.18114	0.2049	0.25402	0.2439	0.17641	0.20346	0.063046	0.2388	0.13504	0.2068	0.16803	0.11674	0.084448	0.26103	-1.9229	-2.6188	-2.5917	-2.4833	-2.8083	-2.4708	-2.5812	-2.625	-2.3937	-2.7646	-2.7271	-2.5083	-2.8458	-2.4542	-2.7687	-2.7271	110.169	-44.283	157.793	180.555	186.324	88.200	79.913	-97.627	15.418	-29.736	-116.522	103.946	91.062	-20.155	96.026	3.908	0.00010826	0.00014215	4.0616e-05	210.72	1.6867e-06	8.445e-07	269.35	59.025	7.0803e-07	1.4848e-06	92.751	29.003	16.586	5.7237	1.0093e-06	12.503	3.7898e-05	1.4817e-05	3.2714e-06	219.31	2.4012e-07	1.455e-07	282.36	62.116	1.6597e-07	1.6608e-07	96.497	30.562	17.421	6.0543	1.5845e-07	13.317	-100.260	-88.954	-59.294	-150.631	-9.574	9.018	-150.588	-145.633	8.489	-5.769	-146.193	-141.672	-141.621	-135.797	-15.987	-137.338	-8191	255	
40931.203	1	1	0	0	0.27223	0.15392	0.036141	0.11293	0.10132	0.16218	0.12258	0.15308	0.10015	0.22333	0.20408	0.23856	0.31008	0.20453	0.13409	0.12919	-1.9062	-2.7604	-2.6021	-2.5312	-2.8542	-2.5187	-2.6792	-2.7313	-2.4167	-2.9042	-2.7729	-2.5687	-2.8146	-2.3625	-2.625	-2.7354	-96.969	190.984	108.438	-50.639	2.882	-154.843	63.215	120.810	17.202	32.285	-69.824	112.957	20.353	-33.871	-83.635	-84.938	0.00010823	9.9166e-05	1.7282e-05	212.71	1.2718e-06	1.5265e-06	269.47	59.238	8.7446e-07	1.1536e-06	92.087	29.072	16.384	5.6531	7.2697e-07	12.585	4.0406e-05	1.4817e-05	3.1591e-06	219.59	1.5204e-07	1.9349e-07	282.63	61.996	1.5331e-07	1.4789e-07	96.415	30.543	17.303	6.0156	1.6645e-07	13.349	-96.442	-82.495	-74.721	-150.702	-4.457	-27.106	-151.062	-145.984	7.794	35.884	-146.880	-141.570	-141.561	-136.134	-20.104	-137.063	-8191	255	
40931.301	1	1	0	0	0.16659	0.15249	0.15585	0.29214	0.055398	0.15202	0.1949	0.23056	0.2111	0.29401	0.33529	0.11841	0.15304	0.18637	0.069404	0.069671	-2.0062	-2.6625	-2.4688	-2.3333	-2.8479	-2.4958	-2.6521	-2.65	-2.4562	-2.75	-2.8167	-2.425	-2.6146	-2.5521	-2.5167	-2.8875	-42.176	67.455	179.742	14.298	-151.031	-155.023	148.426	127.064	14.874	-130.939	167.260	8.807	99.503	132.395	115.420	-52.528	0.00010537	9.1196e-05	5.5605e-05	213	3.2304e-07	9.3154e-07	269.31	58.885	1.2368e-06	1.5762e-06	91.473	28.701	16.39	5.6646	1.2093e-06	12.532	3.8483e-05	1.6436e-05	3.5005e-06	219.2	1.4166e-07	2.7666e-07	282	61.885	1.7123e-07	1.6093e-07	95.553	30.345	17.149	5.9953	1.6245e-07	13.199	-94.570	-77.375	-65.812	-151.157	72.970	15.388	-150.933	-145.918	-8.649	20.646	-146.361	-141.223	-141.561	-135.734	-16.223	-136.817	-8191	255	
40931.371	1	1	0	0	0.15248	0.17989	0.21352	0.079948	0.25523	0.28756	0.20586	0.11026	0.13337	0.11935	0.12457	0.084682	0.24741	0.10432	0.062833	0.1642	-2.0958	-2.5417	-2.6875	-2.5333	-2.875	-2.6854	-2.5583	-2.6729	-2.5729	-2.6312	-2.7354	-2.5104	-2.6521	-2.6542	-2.3417	-2.8438	127.741	37.431	98.473	168.583	-130.469	95.306	-100.734	51.960	95.342	-58.507	74.805	150.902	42.204	123.235	-120.062	-105.158	0.00010711	0.00010795	2.9844e-05	209.77	7.1863e-07	1.0607e-06	267.05	58.23	6.7613e-07	1.3967e-06	90.754	28.828	16.183	5.7439	6.6665e-07	12.695	4.0588e-05	1.5128e-05	2.9689e-06	217.33	1.78e-07	2.1142e-07	278.83	61.072	1.4707e-07	1.352e-07	94.728	30.316	17.073	6.0887	1.5211e-07	13.451	-95.970	-60.040	-64.650	-150.732	31.876	-39.489	-150.674	-145.407	-21.251	-32.177	-146.368	-141.359	-141.387	-136.567	18.480	-136.721	-8191	255	
40931.492	1	1	0	0	0.074119	0.23454	0.16449	0.11586	0.18941	0.12458	0.17186	0.24427	0.23583	0.23341	0.19118	0.12508	0.27698	0.077525	0.22679	0.013569	-2.1479	-2.4938	-2.4104	-2.3708	-2.7125	-2.6083	-2.6521	-2.7438	-2.4	-2.6437	-2.8312	-2.475	-2.8042	-2.7542	-2.5042	-2.8479	-18.193	-74.907	-139.016	172.480	35.669	71.834	124.678	117.632	186.190	68.109	94.331	1.014	95.511	114.439	-94.249	-84.707	0.00011637	9.9024e-05	2.9112e-05	211.02	1.1225e-06	3.4222e-07	267.3	58.387	1.3078e-06	1.3821e-06	90.475	29.091	16.437	5.9772	1.3162e-06	13.156	4.2499e-05	1.4008e-05	3.3536e-06	216.44	1.6929e-07	2.4848e-07	278.49	61.02	1.6169e-07	1.2645e-07	95.169	30.667	17.209	6.2531	1.5511e-07	13.885	-98.315	-82.685	-62.641	-150.282	-10.148	-13.489	-150.385	-145.575	-21.590	-10.959	-146.204	-141.293	-141.703	-136.106	-22.374	-136.785	-8191	255	
40931.590	1	1	0	0	0.20685	0.10402	0.18491	0.11868	0.26026	0.19198	0.083466	0.21273	0.038508	0.083974	0.15062	0.28147	0.23863	0.25259	0.14005	0.26599	-2.1271	-2.5854	-2.6583	-2.6271	-2.7917	-2.6479	-2.4729	-2.7417	-2.6396	-2.6	-2.7604	-2.4896	-2.6479	-2.6292	-2.3021	-2.8417	95.173	-37.020	-105.133	-94.506	112.327	-28.124	24.550	92.341	-125.704	-77.310	63.347	-136.746	-74.645	71.589	69.037	-118.452	0.00011305	0.00015843	3.1136e-05	211.27	2.1177e-07	1.1664e-06	268.47	58.861	1.0161e-06	9.3461e-07	91.758	29.53	16.573	6.0982	1.3117e-06	13.544	4.9521e-05	1.2483e-05	3.7382e-06	217.4	1.5941e-07	2.2167e-07	280.03	61.339	1.8503e-07	1.2233e-07	96.11	31.227	17.457	6.4534	1.5311e-07	14.22	-102.332	-77.421	-90.085	-150.967	31.485	34.637	-150.438	-145.646	-28.261	-21.322	-146.349	-141.338	-141.844	-135.797	-28.033	-136.590	-8191	255	
40931.684	1	1	0	0	0.26985	0.1427	0.14408	0.18905	0.24552	0.1931	0.25133	0.02704	0.27155	0.22783	0.29362	0.055587	0.15789	0.16159	0.19591	0.209	-2.1104	-2.4313	-2.7375	-2.5938	-2.6042	-2.6167	-2.4896	-2.6458	-2.5479	-2.5917	-2.7479	-2.4458	-2.5729	-2.6479	-2.325	-2.8479	174.899	60.821	-98.927	-57.338	145.283	24.308	177.800	168.171	-19.933	-136.236	-123.656	-148.083	72.583	86.520	2.683	90.931	0.00010539	0.00017579	2.4465e-05	209.78	1.3467e-06	8.6317e-07	268.72	59.001	7.706e-07	1.0954e-06	91.808	29.897	16.843	6.1184	7.3692e-07	13.422	4.8511e-05	1.4101e-05	3.6172e-06	216.98	1.7766e-07	2.5873e-07	282.19	61.762	1.566e-07	1.3863e-07	96.088	31.359	17.545	6.4351	1.3943e-07	14.169	-92.235	-80.258	-89.676	-150.666	14.773	-14.315	-150.566	-145.314	-31.639	-2.430	-146.487	-141.517	-141.438	-135.865	-36.166	-136.859	-8191	255	
40931.781	1	1	0	0	0.043543	0.09855	0.3002	0.11952	0.16399	0.081121	0.057767	0.16071	0.16275	0.21441	0.38172	0.22955	0.30394	0.11599	0.2325	0.15617	-2.2146	-2.5021	-2.8146	-2.5667	-2.5438	-2.8146	-2.5875	-2.8771	-2.65	-2.4813	-2.7938	-2.6167	-2.7125	-2.7042	-2.4271	-2.6771	-86.129	87.725	54.340	-78.125	-131.591	87.112	91.345	133.082	-44.797	1.141	-92.245	-121.469	40.303	20.926	146.793	-60.250	0.00011255	7.2057e-05	4.0182e-05	209.11	8.8154e-07	8.2563e-07	266.18	57.777	7.1644e-07	1.2964e-06	91.18	29.455	16.545	6.0565	1.4208e-06	13.429	5.2479e-05	1.2918e-05	4.0969e-06	216.47	1.2659e-07	2.2594e-07	278.04	60.794	1.5874e-07	1.1444e-07	94.989	30.965	17.332	6.4341	1.5778e-07	14.213	-94.769	-58.290	-71.764	-150.315	-45.973	-19.070	-150.606	-145.746	-40.796	-9.044	-146.453	-141.303	-141.457	-136.519	-14.728	-136.537	-8191	255	
40931.898	1	1	0	0	0.33079	0.089148	0.14842	0.17154	0.11141	0.15004	0.012355	0.15759	0.11329	0.1803	0.2048	0.29468	0.11463	0.32265	0.13342	0.28077	-2.1104	-2.4188	-2.7396	-2.4521	-2.6333	-2.7958	-2.7333	-2.5917	-2.7687	-2.3104	-2.8563	-2.5896	-2.5563	-2.675	-2.3521	-2.6417	-161.136	-35.607	111.021	-76.707	-5.492	167.727	-67.732	152.259	-134.536	90.030	158.262	-136.716	57.482	-90.294	99.468	100.894	0.00011247	0.00015917	4.4884e-05	209.16	6.8316e-07	1.2182e-06	264.49	58.222	8.4498e-07	1.0796e-06	91.265	29.512	16.609	6.1571	9.2635e-07	13.615	4.7136e-05	1.323e-05	3.7252e-06	215.96	1.3831e-07	2.2167e-07	277.87	60.924	1.4937e-07	1.2473e-07	95.669	31.219	17.396	6.4858	1.7112e-07	14.339	-95.449	-59.879	-68.536	-151.014	-2.123	34.470	-150.405	-145.200	-10.043	-13.082	-146.097	-140.759	-141.085	-136.228	4.157	-136.750	-8191	255	
40931.973	1	1	0	0	0.026551	0.086991	0.12449	0.11856	0.22621	0.088286	0.13521	0.13333	0.061076	0.20499	0.071459	0.29241	0.10971	0.014497	0.19886	0.19396	-2.1333	-2.4125	-2.6875	-2.5854	-2.7208	-2.8917	-2.4104	-2.6312	-2.7104	-2.6542	-2.9625	-2.825	-2.4417	-2.8417	-2.4917	-2.7854	-21.617	-58.131	-82.765	106.746	27.796	-16.003	-8.538	74.776	-53.861	-108.791	-129.238	166.166	19.275	-160.587	-5.944	34.685	0.00011664	0.00013826	3.8821e-05	207.73	1.6957e-06	1.0507e-06	265.29	58.176	6.6382e-07	1.2915e-06	92.183	29.663	16.508	6.1584	8.0558e-07	13.691	5.3574e-05	1.3681e-05	4.7797e-06	215.06	1.5171e-07	1.4277e-07	278.07	60.732	1.7977e-07	1.201e-07	95.64	31.342	17.453	6.5177	1.436e-07	14.476	-98.876	-79.736	-59.879	-150.898	5.945	12.650	-150.292	-145.588	-1.387	6.579	-146.602	-141.187	-141.429	-135.805	-1.038	-136.537	-8191	255	
40932.070	1	1	0	0	0.075021	0.14627	0.021207	0.20797	0.22428	0.10834	0.14338	0.041355	0.084861	0.1402	0.036648	0.21367	0.14711	0.12311	0.059559	0.12104	-2.4062	-2.5083	-2.8333	-2.5854	-2.3646	-2.6562	-2.4854	-2.4458	-2.6562	-2.3937	-2.7687	-2.6646	-2.6104	-2.7646	-2.4979	-2.4958	-128.788	-60.773	-99.545	-120.501	-146.893	-150.299	-23.027	101.391	64.303	144.101	141.037	-156.363	150.760	-63.336	153.024	192.507	0.00010116	0.00012587	2.8792e-05	207.46	1.5196e-06	9.9719e-07	266.24	58.052	8.2848e-07	1.4441e-06	91.805	29.675	16.62	6.2259	1.4042e-06	13.597	4.5432e-05	1.2669e-05	3.574e-06	215.95	1.435e-07	1.6121e-07	278.98	60.968	1.7747e-07	1.2902e-07	96.045	31.371	17.501	6.5212	1.7346e-07	14.31	-100.421	-79.362	-93.249	-150.552	-28.800	-43.278	-150.697	-145.098	-30.782	-30.551	-146.218	-141.568	-141.516	-135.722	9.093	-137.031	-8191	255	
40932.188	1	1	0	0	0.26419	0.17197	0.09353	0.077285	0.1156	0.1892	0.16386	0.097394	0.23364	0.35077	0.1483	0.20176	0.24184	0.16153	0.077451	0.12635	-2.3417	-2.5292	-2.7229	-2.6354	-2.4146	-2.8375	-2.6021	-2.5104	-2.8812	-2.5333	-2.65	-2.7146	-2.4979	-2.9292	-2.7083	-2.5417	-51.723	172.206	47.375	183.702	-76.783	161.546	104.329	162.059	-127.613	0.045	-105.177	144.971	-133.463	-106.026	-28.362	172.947	0.00011039	0.00013663	4.3225e-05	204.52	1.0465e-06	7.7946e-07	265.32	57.45	6.5176e-07	8.9522e-07	90.236	29.366	16.297	6.0684	1.1185e-06	13.547	4.6223e-05	1.6467e-05	3.7598e-06	213.79	1.4853e-07	1.4072e-07	276.42	60.036	1.7303e-07	1.4034e-07	94.547	30.924	17.223	6.4452	1.4094e-07	14.318	-96.671	-85.390	-107.223	-150.746	-44.918	-26.763	-150.732	-145.835	-26.733	2.519	-146.568	-141.225	-141.346	-136.058	-22.001	-137.236	-8191	255	
40932.285	1	1	0	0	0.12817	0.30409	0.053754	0.066459	0.17274	0.064243	0.046934	0.046081	0.17892	0.044432	0.36995	0.19024	0.08282	0.2627	0.15279	0.063434	-2.4125	-2.3479	-2.5396	-2.5	-2.5104	-2.8042	-2.625	-2.5938	-2.8063	-2.4896	-2.4271	-2.6542	-2.5458	-2.75	-2.9	-2.5687	11.007	1.545	116.587	-48.476	-41.331	35.638	70.613	18.170	195.413	-43.626	-99.712	-153.011	1.782	-7.201	165.096	43.219	0.00011385	8.1892e-05	3.251e-05	206.01	1.022e-06	8.1969e-07	264.64	57.569	7.9915e-07	7.2054e-07	91.351	29.728	16.529	6.1967	1.1032e-06	13.658	4.0162e-05	1.9269e-05	3.4313e-06	214.16	1.3362e-07	1.5711e-07	277.1	60.123	1.7418e-07	1.4275e-07	95.282	31.252	17.402	6.5507	1.4894e-07	14.479	-96.650	-76.406	-78.935	-150.835	-20.028	-12.574	-150.462	-145.616	-4.840	-7.594	-146.462	-141.037	-141.832	-136.067	0.040	-137.320	-8191	255	
40932.379	1	1	0	0	0.013149	0.2813	0.21013	0.14326	0.19695	0.38844	0.058783	0.11355	0.10141	0.069945	0.060724	0.19856	0.044761	0.05922	0.25964	0.19552	-2.4354	-2.4229	-2.4979	-2.8521	-2.3979	-2.5979	-2.7313	-2.5958	-2.6937	-2.7521	-2.6063	-2.7958	-2.5125	-2.3771	-2.7521	-2.4333	91.066	-118.032	-11.441	-94.972	45.450	-123.132	1.843	53.535	6.907	-66.440	172.587	-120.719	61.151	-102.664	12.054	-51.639	0.00011388	0.00010162	4.7666e-05	210.33	1.4883e-06	8.9709e-07	265.9	58.047	6.4123e-07	1.8884e-07	92.613	30.142	16.688	6.2623	1.1169e-06	13.973	4.5128e-05	2.7035e-05	3.8808e-06	216.16	1.2977e-07	1.385e-07	278.93	60.829	2.1198e-07	1.3262e-07	96.301	31.628	17.575	6.6236	1.5928e-07	14.679	-96.157	-57.078	-74.744	-150.293	-2.213	-5.826	-150.615	-145.438	9.162	-4.368	-146.428	-141.238	-141.298	-136.191	7.304	-137.156	-8191	255	
40932.477	1	1	0	0	0.0074521	0.16992	0.23021	0.061498	0.25517	0.30414	0.10406	0.18568	0.13129	0.1263	0.1246	0.21992	0.042495	0.3023	0.25398	0.2035	-2.0958	-2.4146	-2.4375	-2.725	-2.5812	-2.6229	-2.7417	-2.4479	-2.8229	-2.7604	-2.5208	-2.8708	-2.6125	-2.6083	-2.6167	-2.3417	-34.998	157.695	22.502	-4.402	-132.270	83.241	-160.589	165.411	111.356	19.363	-51.206	116.016	122.482	140.743	-146.749	-127.127	0.00011549	0.00010068	3.3212e-05	208.06	8.0483e-07	7.8966e-07	268.33	58.411	1.1864e-06	1.1992e-06	92.404	30.284	16.874	6.3253	1.2948e-06	13.98	4.6564e-05	2.2179e-05	4.0104e-06	215.76	1.3948e-07	1.508e-07	281.91	61.324	2.1609e-07	1.3897e-07	96.841	31.942	17.666	6.6515	1.5611e-07	14.689	-100.548	-73.689	-125.443	-149.926	-10.971	-27.055	-150.665	-145.941	6.045	29.325	-146.450	-141.667	-141.432	-136.137	15.947	-137.445	-8191	255	
40932.574	1	1	0	0	0.16289	0.12838	0.075936	0.15899	0.049949	0.21882	0.21651	0.15927	0.45789	0.1219	0.026214	0.1059	0.065818	0.05071	0.2374	0.21522	-2.3417	-2.7	-2.5917	-2.75	-2.2792	-2.5792	-2.8167	-2.4813	-2.7958	-2.8083	-2.4125	-2.7125	-2.4188	-2.3958	-2.7875	-2.6562	3.058	-114.551	59.219	106.133	146.509	-78.915	19.607	36.954	180.259	-145.284	43.946	-69.239	-43.136	50.796	-146.000	32.654	0.00012202	0.00012417	3.7762e-05	208.85	7.0788e-07	1.0562e-06	267.08	58.491	1.1011e-06	1.4805e-06	91.689	29.488	16.644	6.238	8.4158e-07	13.738	4.5055e-05	2.5401e-05	3.4919e-06	217.4	1.3429e-07	1.5985e-07	280.25	60.819	1.9982e-07	1.2954e-07	95.755	31.333	17.468	6.5794	1.7396e-07	14.477	-96.110	-104.382	-62.894	-150.757	-16.452	-19.033	-150.806	-145.636	-12.826	-24.836	-146.151	-141.128	-142.129	-136.254	0.290	-137.243	-8191	255	
40932.668	1	1	0	0	0.16376	0.36375	0.01641	0.11062	0.11692	0.21625	0.15173	0.15882	0.28829	0.20258	0.20892	0.18807	0.17218	0.13291	0.174	0.3332	-2.3354	-2.6833	-2.6125	-2.7562	-2.4625	-2.65	-3.0208	-2.5146	-2.5396	-2.7021	-2.3521	-2.8167	-2.575	-2.4417	-2.8104	-2.3333	-6.359	-78.821	-7.060	174.110	13.938	-17.460	170.672	10.254	-153.436	190.624	143.273	-130.079	121.212	86.340	131.043	-77.593	0.00011123	0.0001583	2.9026e-05	207.37	1.33e-06	6.8977e-07	265.41	57.883	1.0171e-06	9.4273e-07	91.578	29.924	16.681	6.234	8.3295e-07	13.846	4.3241e-05	2.2521e-05	3.561e-06	214.77	1.44e-07	1.455e-07	278.52	60.778	1.9193e-07	1.376e-07	95.784	31.505	17.522	6.6317	1.8096e-07	14.604	-101.518	-71.975	-61.715	-150.660	14.072	-50.366	-150.568	-145.799	-13.898	-0.837	-146.254	-141.386	-141.668	-135.989	20.089	-136.747	-8191	255	
40932.789	1	1	0	0	0.33086	0.17537	0.22555	0.27975	0.11538	0.10618	0.20738	0.25644	0.31318	0.13101	0.092689	0.21469	0.16506	0.050756	0.085642	0.06358	-2.15	-2.6792	-2.5062	-2.7833	-2.6167	-2.5542	-2.7271	-2.5417	-2.5667	-2.825	-2.5271	-2.8	-2.6979	-2.5417	-2.7958	-2.5958	-123.047	34.132	-105.893	191.767	-66.064	114.302	-14.248	144.606	-153.833	-108.250	-82.041	123.722	-155.670	30.389	30.080	-103.503	0.00011177	6.9374e-05	1.3414e-05	208.08	1.5826e-06	1.5965e-06	267.91	58.048	1.1575e-06	9.8132e-07	91.504	30.239	16.796	6.3382	7.2546e-07	13.991	4.4312e-05	2.4202e-05	3.0899e-06	215.92	1.6175e-07	1.2006e-07	280.22	60.968	2.0425e-07	1.4566e-07	96.258	31.89	17.736	6.6963	1.8013e-07	14.798	-95.802	-91.526	-40.864	-150.202	-23.496	-19.304	-150.905	-145.636	-12.370	30.386	-146.195	-141.526	-141.309	-136.102	-17.756	-136.346	-8191	255	
40932.887	1	1	0	0	0.11696	0.25112	0.027515	0.15191	0.18378	0.05683	0.088371	0.22376	0.1205	0.10915	0.25846	0.20695	0.038758	0.23508	0.30271	0.17881	-2.1646	-2.7146	-2.3792	-2.7188	-2.6167	-2.2583	-2.725	-2.5417	-2.55	-3.0146	-2.4375	-2.6562	-2.6667	-2.4854	-2.725	-2.3896	-127.338	96.982	-36.409	169.552	-23.615	-54.733	-22.635	94.415	120.835	-86.442	-78.259	1.908	9.850	-32.519	59.282	-52.464	0.00012902	0.00014866	4.9825e-05	211.6	1.2943e-06	1.5031e-06	271.36	58.564	9.8534e-07	1.1264e-06	93.12	30.385	16.88	6.3666	1.1883e-06	14.001	4.5249e-05	2.5479e-05	3.4746e-06	217.74	1.7113e-07	1.4226e-07	282.11	61.527	1.9653e-07	1.4532e-07	97.163	32.063	17.739	6.7104	1.9347e-07	14.821	-96.114	-43.796	-57.869	-150.924	-15.568	-3.080	-150.530	-145.966	3.698	-26.211	-146.684	-141.273	-141.478	-136.463	-11.236	-137.080	-8191	255	
40932.980	1	1	0	0	0.053267	0.19878	0.16972	0.091203	0.094908	0.14666	0.1859	0.43764	0.24093	0.051727	0.26221	0.029142	0.15154	0.28742	0.066139	0.1326	-2.1479	-2.7562	-2.3271	-2.5958	-2.6562	-2.4771	-2.8396	-2.4313	-2.5812	-2.8646	-2.5833	-2.4667	-2.6521	-2.4771	-2.6688	-2.6167	-11.087	1.106	-155.538	-37.503	-77.674	-143.264	1.555	50.892	180.861	-129.591	161.337	-83.183	156.206	134.303	103.397	-80.549	0.00012247	5.9935e-05	4.6282e-05	210.46	1.8409e-06	9.1996e-07	267.67	58.318	7.3248e-07	8.4689e-07	91.488	30.146	16.594	6.2828	7.463e-07	13.932	4.346e-05	2.0623e-05	4.7192e-06	217.33	1.4585e-07	1.3611e-07	280.64	60.86	1.7796e-07	1.4909e-07	96.003	31.714	17.541	6.6296	1.8146e-07	14.686	-97.479	-110.309	-43.460	-150.320	-36.306	-6.796	-150.513	-145.840	-22.064	-1.174	-146.425	-140.879	-141.558	-135.908	-5.814	-136.956	-8191	255	
40933.074	1	1	0	0	0.11885	0.07452	0.27223	0.22584	0.2138	0.028775	0.12955	0.21153	0.081422	0.17584	0.12184	0.26031	0.21587	0.50853	0.16511	0.11024	-2.0146	-2.6063	-2.4313	-2.6583	-3.0833	-2.5771	-2.7396	-2.5771	-2.4646	-2.8208	-2.7021	-2.5167	-2.7604	-2.3875	-2.7479	-2.4979	33.380	-96.888	-10.689	56.884	34.848	-18.632	110.890	-2.655	101.725	-86.211	22.776	106.606	71.270	151.799	104.676	-146.695	0.00011769	3.6622e-05	2.7038e-05	206.58	1.0902e-06	6.4343e-07	269.38	58.297	5.3192e-07	1.1939e-06	92.141	29.982	16.656	6.342	1.194e-06	14.065	4.5335e-05	1.4226e-05	6.37e-06	214.6	1.4769e-07	1.2996e-07	280.6	60.994	1.9604e-07	1.7191e-07	96.348	31.786	17.617	6.6665	1.9547e-07	14.779	-96.759	-127.245	-60.857	-150.958	16.084	-27.764	-150.702	-145.228	-9.558	14.359	-146.769	-141.103	-141.488	-135.820	1.664	-136.876	-8191	255	
40933.195	1	1	0	0	0.14435	0.20661	0.076537	0.18856	0.13111	0.23547	0.11462	0.37353	0.0096589	0.17604	0.11754	0.25466	0.16296	0.21061	0.18632	0.22831	-2.0083	-2.5958	-2.2479	-2.5521	-2.8438	-2.3521	-2.6979	-2.6562	-2.4125	-2.6917	-2.6583	-2.4833	-2.7938	-2.6125	-2.7687	-2.5583	-13.528	119.029	112.868	-148.808	-33.538	-77.240	-59.489	66.646	-126.808	12.655	107.684	163.153	-126.538	-154.514	143.589	103.959	0.00012266	8.4721e-05	2.2005e-05	209.1	1.0696e-06	1.4037e-06	266.64	58.351	1.0211e-06	1.1014e-06	92.475	30.583	16.809	6.3959	1.3302e-06	14.145	4.5481e-05	1.67e-05	7.001e-06	216.66	1.7515e-07	1.2552e-07	279.85	61.157	1.7961e-07	1.7037e-07	96.749	32.088	17.707	6.7456	1.6795e-07	14.925	-97.833	-78.558	-115.261	-151.166	-26.292	-22.684	-150.467	-145.337	-26.975	8.405	-146.766	-141.261	-141.628	-136.110	-1.082	-137.252	-8191	255	
40933.270	1	1	0	0	0.19497	0.26617	0.0554	0.24684	0.097955	0.29754	0.14845	0.11488	0.067169	0.092734	0.20945	0.26574	0.20773	0.36593	0.10404	0.19014	-1.9146	-2.5729	-2.4333	-2.3542	-2.6771	-2.3771	-2.5396	-2.7208	-2.3625	-2.6458	-2.6083	-2.6271	-2.6229	-2.4229	-2.5896	-2.9083	93.258	-46.766	-89.138	-123.736	-120.364	118.862	-157.711	-124.388	-130.266	145.062	111.811	185.567	-71.259	-85.883	-5.881	137.390	0.00012554	7.0096e-05	1.8984e-05	209.11	7.5058e-07	9.9435e-07	269.74	58.745	9.7081e-07	1.5394e-06	92.989	30.614	16.949	6.374	1.2364e-06	14.137	4.4154e-05	1.7743e-05	6.2404e-06	217.34	1.6778e-07	1.4721e-07	282.64	61.453	1.9127e-07	1.412e-07	97.55	32.299	17.888	6.7545	1.6695e-07	14.981	-100.640	-44.260	191.570	-150.693	7.867	0.780	-150.417	-145.404	-22.834	9.644	-146.899	-140.892	-141.783	-136.159	-3.171	-136.936	-8191	255	
40933.363	1	1	0	0	0.21968	0.23025	0.19554	0.16272	0.15042	0.30527	0.15014	0.13359	0.23492	0.12329	0.29289	0.091515	0.10712	0.2565	0.33569	0.093623	-2	-2.6625	-2.4708	-2.4104	-2.7542	-2.6583	-2.6542	-2.7	-2.4375	-2.7208	-2.7458	-2.6292	-2.8771	-2.4542	-2.5104	-2.9313	-129.548	-68.917	-23.647	-25.963	-60.208	132.870	141.399	58.093	-137.837	170.075	179.529	-155.588	-105.369	-76.753	98.664	131.600	0.00013242	0.000165	3.537e-05	211.41	1.2343e-06	1.1171e-06	271.68	58.65	1.2362e-06	1.1369e-06	92.791	30.235	16.596	6.2797	1.5382e-06	13.878	4.3399e-05	1.6218e-05	7.7659e-06	218.52	1.8905e-07	1.093e-07	282.5	61.38	1.7057e-07	1.7809e-07	96.841	31.775	17.625	6.6616	1.6712e-07	14.633	-97.233	-73.400	-74.811	-150.046	8.969	-31.859	-150.633	-145.354	-20.907	-57.954	-146.140	-141.257	-141.265	-136.366	-11.168	-137.018	-8191	255	
40933.461	1	1	0	0	0.11834	0.082042	0.083638	0.25969	0.10519	0.15957	0.25045	0.18338	0.28368	0.18707	0.039427	0.014704	0.15586	0.11936	0.14068	0.18119	-2.0417	-2.6167	-2.6917	-2.3937	-2.6417	-2.6437	-2.6125	-2.8208	-2.4479	-2.425	-2.7229	-2.4437	-2.9792	-2.4708	-2.6208	-2.6896	121.254	82.694	-99.580	78.841	9.791	106.282	129.069	146.120	134.769	-134.759	58.551	-129.393	-136.205	7.194	23.165	-161.324	0.00012184	0.00010627	2.3882e-05	208	1.405e-06	7.5656e-07	270.42	57.988	7.5072e-07	1.0767e-06	91.141	30.22	16.664	6.1516	1.3701e-06	13.652	4.3643e-05	1.5035e-05	6.3182e-06	216.66	1.9826e-07	1.2996e-07	281.5	60.986	2.4846e-07	1.6265e-07	96.321	31.705	17.603	6.5427	1.8347e-07	14.524	-95.252	-108.099	-53.069	-150.443	9.495	-13.884	-150.795	-145.826	-7.224	-0.142	-146.382	-141.082	-141.391	-136.079	-7.211	-136.586	-8191	255	
40933.582	1	1	0	0	0.30795	0.11181	0.094117	0.05487	0.16215	0.045714	0.24598	0.10517	0.11324	0.31552	0.14176	0.082362	0.04508	0.19365	0.25105	0.15108	-2.1104	-2.5062	-2.6063	-2.4875	-2.8042	-2.3646	-2.4667	-2.7313	-2.3083	-2.5792	-2.7146	-2.3208	-2.5062	-2.7438	-2.5104	-2.7854	129.240	44.180	-124.661	-117.057	166.721	65.199	-137.987	-129.313	-141.133	19.456	140.914	167.384	13.896	-99.649	-0.064	59.914	0.00011488	0.00010941	2.2344e-05	210.41	9.8185e-07	1.1472e-06	268.73	58.392	9.2948e-07	1.2567e-06	92.153	29.783	16.771	6.1449	1.1048e-06	13.673	4.1927e-05	1.7167e-05	8.2154e-06	218.35	1.8453e-07	1.2603e-07	281.21	61.353	2.5437e-07	1.7106e-07	96.702	31.454	17.487	6.4828	1.7679e-07	14.399	-95.679	-77.714	-82.682	-151.212	-30.240	7.075	-150.511	-145.756	-10.393	-22.773	-146.502	-141.081	-142.031	-135.770	12.031	-136.973	-8191	255	
40933.680	1	1	0	0	0.29305	0.04849	0.084471	0.072165	0.37926	0.29567	0.068905	0.22038	0.32575	0.071368	0.36666	0.32182	0.28412	0.18597	0.19093	0.23675	-2.0687	-2.7271	-2.7208	-2.3937	-2.5208	-2.7458	-2.45	-2.8542	-2.5208	-2.45	-2.6562	-2.3604	-2.6542	-2.8438	-2.4271	-2.7687	-34.686	170.036	184.353	-71.976	155.369	-40.179	-20.886	-49.910	-70.830	109.050	-71.787	-38.808	-148.352	186.441	-155.248	88.471	0.00012056	7.3773e-05	4.6824e-05	210.81	1.1669e-06	9.0771e-07	268.99	58.287	6.6278e-07	1.1496e-06	92.561	30.367	16.652	6.1767	1.1009e-06	13.961	4.0917e-05	1.5767e-05	5.8428e-06	217.92	1.5774e-07	1.0725e-07	281.96	61.074	3.0597e-07	1.5733e-07	96.818	31.91	17.601	6.591	1.7212e-07	14.665	-97.250	-75.183	-45.509	-150.545	-11.448	-22.476	-150.493	-145.324	-36.090	-1.770	-146.736	-141.030	-141.085	-135.970	6.338	-137.087	-8191	255	
40933.773	1	1	0	0	0.19726	0.12925	0.04005	0.30547	0.28411	0.1018	0.089954	0.15406	0.07747	0.36724	0.10583	0.05142	0.066391	0.051902	0.15981	0.071	-2.2021	-2.35	-2.65	-2.4854	-2.45	-2.8375	-2.3417	-2.5396	-2.6021	-2.6604	-2.5417	-2.4021	-2.6188	-2.5896	-2.3063	-2.7458	-51.365	5.513	-49.581	127.155	-28.930	158.273	-50.719	155.821	-69.121	97.056	153.721	154.451	66.888	66.601	129.743	-12.175	0.00010676	0.00015755	3.2475e-05	208.75	9.6502e-07	1.2265e-06	268.05	57.371	9.459e-07	1.5826e-06	90.947	29.634	16.339	6.0654	1.0697e-06	13.58	4.0637e-05	1.4475e-05	5.0865e-06	216.49	1.708e-07	1.4909e-07	279.63	60.415	2.552e-07	1.587e-07	95.399	31.229	17.249	6.4615	1.6679e-07	14.388	-96.623	-70.610	-83.638	-150.759	-1.544	-19.897	-150.693	-145.527	-40.032	-1.814	-146.377	-141.265	-141.126	-135.772	-10.570	-136.866	-8191	255	
40933.871	1	1	0	0	0.020029	0.19916	0.2326	0.095468	0.099776	0.23661	0.11253	0.10177	0.19329	0.25574	0.18618	0.17721	0.1719	0.1768	0.24769	0.14412	-2.1625	-2.4667	-2.5896	-2.4708	-2.5062	-2.7167	-2.3458	-2.6937	-2.6312	-2.4104	-2.6979	-2.2854	-2.5687	-2.8167	-2.5812	-2.7	-124.228	-14.859	-42.699	-93.589	-130.706	-12.628	-2.210	94.050	-85.145	60.985	103.392	36.928	-120.025	156.071	127.232	137.774	0.00012514	0.00017769	4.5196e-05	203.79	1.7793e-06	5.0219e-07	264.95	57.184	1.0894e-06	5.8884e-07	90.719	29.588	16.291	6.1296	4.4887e-07	13.655	4.2913e-05	1.5253e-05	4.3086e-06	213.16	1.6778e-07	1.3372e-07	277.33	59.822	3.3834e-07	1.5321e-07	95.054	31.208	17.189	6.4778	1.5194e-07	14.433	-98.317	-90.675	-82.445	-150.466	-15.717	1.057	-150.679	-145.779	-51.749	11.287	-146.591	-141.649	-141.596	-135.827	28.324	-137.192	-8191	255	
40933.965	1	1	0	0	0.33767	0.068647	0.15457	0.14592	0.099238	0.13686	0.081984	0.14242	0.14038	0.087199	0.050292	0.17366	0.29606	0.071695	0.3583	0.16949	-2.2083	-2.425	-2.7458	-2.4188	-2.4542	-2.9917	-2.6646	-2.625	-2.7667	-2.5521	-2.8458	-2.4854	-2.5042	-2.775	-2.4813	-2.4292	-161.135	128.590	-21.532	-118.486	129.812	140.358	162.862	-156.319	37.491	150.097	-0.343	-91.365	128.977	-68.435	-161.931	-12.355	0.00011228	0.00015155	1.4925e-05	205.42	9.8216e-07	7.4025e-07	266.35	57.338	6.8179e-07	2.7028e-07	91.179	29.798	16.322	6.1911	1.382e-06	13.832	4.3156e-05	1.351e-05	4.0882e-06	213.23	1.5589e-07	1.3594e-07	278.46	59.842	2.6013e-07	1.3262e-07	95.344	31.393	17.219	6.5119	2.6402e-07	14.541	-100.244	-55.668	-72.582	-150.670	-16.950	-15.244	-150.584	-145.893	-42.309	10.459	-146.493	-141.521	-141.066	-135.708	15.426	-137.093	-8191	255	
40934.059	1	1	0	0	0.34997	0.53017	0.087783	0.17444	0.25449	0.24163	0.17699	0.078863	0.29934	0.027008	0.17263	0.091305	0.11659	0.07018	0.12667	0.12271	-2.1979	-2.3	-2.6771	-2.4667	-2.6063	-2.8021	-2.4979	-2.5	-2.7479	-2.3396	-2.6229	-2.7271	-2.4583	-2.6375	-2.5458	-2.6792	-97.468	132.774	-109.360	-61.694	58.336	167.067	172.761	122.363	88.130	-6.461	13.287	159.685	150.773	33.344	-99.207	183.513	0.00012451	9.968e-05	2.705e-05	207.57	8.8063e-07	1.4392e-06	268.24	57.23	1.1496e-06	9.4665e-07	91.644	29.96	16.518	6.1829	9.0898e-07	13.898	4.357e-05	1.4241e-05	4.0969e-06	214.61	1.6761e-07	1.6958e-07	279.79	60.096	3.3851e-07	1.2542e-07	95.934	31.668	17.408	6.5231	2.5769e-07	14.624	-98.405	-75.085	-136.162	-150.440	-16.014	2.467	-150.587	-145.559	-51.898	-15.918	-146.908	-141.143	-141.395	-135.986	-4.989	-136.929	-8191	255	
40934.156	1	1	0	0	0.13746	0.060829	0.20761	0.31705	0.22536	0.1867	0.1682	0.2762	0.14159	0.10605	0.11281	0.41846	0.23717	0.15245	0.17894	0.063278	-2.2625	-2.3417	-2.5521	-2.5479	-2.5167	-2.8729	-2.7833	-2.4542	-2.7917	-2.4167	-2.7646	-2.5187	-2.3479	-2.5771	-2.5563	-2.6437	47.511	192.845	123.564	123.855	-7.969	12.396	115.918	-143.589	4.548	89.813	60.842	166.870	183.006	-80.365	-95.827	154.424	0.00011303	0.00013999	4.7093e-05	206.41	1.4044e-06	1.3244e-06	270.43	57.903	1.178e-06	1.2645e-06	92.565	29.659	16.428	6.1191	9.2829e-07	13.612	4.1562e-05	1.3401e-05	4.6371e-06	215.44	1.3731e-07	1.6582e-07	281.43	60.477	2.7721e-07	1.5081e-07	96.11	31.317	17.252	6.4531	3.0055e-07	14.385	-95.509	-94.704	-83.132	-150.672	-15.083	-11.269	-150.467	-145.779	-0.756	-7.039	-146.559	-141.672	-141.622	-136.414	-14.211	-137.178	-8191	255	
40934.277	1	1	0	0	0.063043	0.28601	0.12627	0.1399	0.21726	0.13255	0.20438	0.11763	0.12333	0.10168	0.12063	0.073108	0.20175	0.15748	0.032019	0.12361	-2.3458	-2.4	-2.5625	-2.5563	-2.3312	-2.8792	-2.6104	-2.4188	-2.7917	-2.4979	-2.7021	-2.6729	-2.4083	-2.7167	-2.6167	-2.5021	105.629	35.292	167.434	-88.243	-20.676	-78.636	126.289	-96.993	121.092	-56.882	66.059	-52.916	190.337	6.311	111.252	-41.208	0.00011629	0.00013544	3.0971e-05	205.99	1.2845e-06	8.6354e-07	265.4	56.996	5.8655e-07	1.0689e-06	91.861	29.731	16.418	6.1251	8.6548e-07	13.634	4.3168e-05	1.2016e-05	4.1963e-06	213.47	1.4216e-07	1.467e-07	278.39	59.916	2.2463e-07	2.4243e-07	95.776	31.351	17.253	6.4654	2.5902e-07	14.416	-96.587	-76.885	-81.723	-150.421	-3.323	-21.799	-151.016	-145.809	-53.829	-24.416	-146.273	-141.314	-141.636	-135.967	23.812	-136.831	-8191	255	
40934.371	1	1	0	0	0.21899	0.15933	0.082617	0.076159	0.10247	0.012616	0.25034	0.26807	0.20101	0.090808	0.059445	0.12046	0.16535	0.093518	0.27661	0.11511	-2.4021	-2.4688	-2.5167	-2.7625	-2.2938	-2.6813	-2.4938	-2.4938	-2.7208	-2.5854	-2.6646	-2.7917	-2.3667	-2.8646	-2.6771	-2.4979	68.734	130.071	69.921	161.294	-66.223	107.765	-58.435	7.499	-10.738	-128.113	120.799	6.996	144.791	35.958	27.814	-7.254	0.00012661	0.0001048	3.1421e-05	207.49	1.5728e-06	1.3454e-06	268.28	57.576	1.1145e-06	8.8011e-07	91.942	29.771	16.508	6.1544	9.4651e-07	13.7	4.4556e-05	1.27e-05	3.9975e-06	214.73	1.3295e-07	1.7863e-07	279.82	60.357	2.2102e-07	2.3162e-07	95.832	31.435	17.329	6.4997	3.0038e-07	14.483	-94.834	-110.634	-68.107	-149.914	13.148	1.066	-150.711	-145.354	-17.536	-5.444	-146.664	-141.003	-141.494	-135.758	-14.720	-136.688	-8191	255	
40934.469	1	1	0	0	0.32228	0.12605	0.080071	0.097727	0.17233	0.14539	0.1719	0.20675	0.15629	0.31744	0.30827	0.27884	0.087647	0.14132	0.076295	0.2526	-2.1771	-2.4375	-2.3812	-2.7896	-2.5083	-2.6896	-2.5875	-2.5812	-2.6813	-2.4729	-2.3604	-2.6333	-2.4208	-2.6354	-2.6125	-2.5333	-77.021	-29.807	-81.401	16.046	155.924	-18.316	-60.149	-58.812	176.705	74.567	157.832	-98.059	-21.179	-75.837	-135.273	-15.175	0.00011709	0.00019508	4.209e-05	206.74	1.2833e-06	1.6154e-06	267.68	58.014	8.446e-07	1.3525e-06	91.95	29.745	16.586	6.2009	7.1943e-07	13.797	4.5639e-05	1.27e-05	3.9802e-06	214.62	1.6996e-07	1.5233e-07	280.93	60.697	1.8371e-07	2.9613e-07	96.516	31.565	17.432	6.504	2.7403e-07	14.573	-97.658	-72.612	-91.361	-150.477	-12.384	-19.441	-150.809	-145.436	10.352	-15.955	-146.708	-141.242	-141.747	-136.328	35.756	-137.155	-8191	255	
40934.566	1	1	0	0	0.28758	0.23418	0.39056	0.26919	0.047104	0.13112	0.22994	0.18308	0.30004	0.19803	0.2289	0.14426	0.059653	0.12169	0.080094	0.22563	-2.3521	-2.6021	-2.4708	-2.7958	-2.4958	-2.8333	-2.6188	-2.2938	-2.6188	-2.5854	-2.4708	-2.6063	-2.5521	-2.6813	-2.7625	-2.3438	51.091	126.593	2.116	76.040	113.159	85.943	86.240	181.650	186.813	36.126	99.436	-63.711	24.954	-49.945	56.726	62.015	0.00011495	0.00015544	2.8752e-05	209.22	1.0193e-06	1.3699e-06	270.28	58.48	6.5621e-07	1.7011e-06	92.03	29.657	16.597	6.0834	1.7025e-06	13.581	4.4032e-05	1.4023e-05	4.0796e-06	216.57	2.6658e-07	1.4977e-07	282.16	61.036	2.1346e-07	2.5856e-07	96.124	31.349	17.327	6.4073	2.7803e-07	14.272	-99.208	-64.623	-103.681	-150.275	-6.919	-38.363	-150.597	-145.977	-18.425	-16.654	-146.718	-141.522	-142.145	-136.082	-17.130	-137.125	-8191	255	
40934.660	1	1	0	0	0.072227	0.16964	0.13309	0.22498	0.26518	0.11662	0.29326	0.1391	0.29473	0.053327	0.19848	0.12887	0.089182	0.13022	0.082905	0.037207	-2.3104	-2.5896	-2.5563	-2.775	-2.6896	-2.6042	-2.7625	-2.275	-2.9354	-2.8312	-2.2917	-2.6729	-2.5021	-2.4417	-2.8604	-2.3271	42.489	69.773	3.568	-32.267	39.437	22.390	138.560	-54.915	-92.689	-76.991	151.005	162.110	-103.706	53.494	187.883	92.264	0.00011885	0.000149	3.1111e-05	208.72	9.5118e-07	1.2614e-06	266.77	57.592	9.6457e-07	1.2447e-06	91.005	29.322	16.488	6.0621	1.4066e-06	13.638	4.402e-05	1.544e-05	3.6647e-06	215.66	2.1802e-07	1.4004e-07	278.42	60.272	2.1264e-07	2.6834e-07	95.246	31.152	17.289	6.4283	2.2433e-07	14.34	-97.045	-84.732	-74.254	-149.953	-51.530	-31.252	-151.017	-145.578	-7.550	-24.221	-146.517	-141.136	-141.906	-136.064	-17.443	-137.052	-8191	255	
40934.758	1	1	0	0	0.29175	0.18846	0.0061227	0.14336	0.13431	0.24947	0.13857	0.21995	0.029725	0.22315	0.37193	0.19612	0.13684	0.095292	0.15801	0.18807	-2.225	-2.5958	-2.55	-2.8646	-2.55	-2.5833	-3.0125	-2.4271	-2.4854	-2.7333	-2.5417	-2.6813	-2.575	-2.4562	-2.8875	-2.4062	-137.654	127.191	46.534	-47.987	-72.130	80.504	131.988	158.715	-49.130	-1.270	172.787	157.418	135.617	157.681	-22.738	140.362	0.00011518	9.0386e-05	3.9146e-05	206.6	5.5682e-07	1.1475e-06	266.49	58.173	8.971e-07	6.8774e-07	92.3	29.847	16.449	6.0902	1.4593e-06	13.539	4.3047e-05	1.5922e-05	3.2931e-06	214.76	2.855e-07	1.3201e-07	279.04	60.983	2.1264e-07	2.3454e-07	95.952	31.387	17.38	6.4361	1.9047e-07	14.27	-97.173	-51.081	-79.676	-150.460	-72.423	-16.646	-150.421	-145.370	18.174	6.573	-146.493	-141.225	-141.996	-136.339	-8.617	-136.592	-8191	255	
40934.879	1	1	0	0	0.20925	0.06265	0.096521	0.15827	0.155	0.044663	0.087547	0.21465	0.078449	0.20038	0.19286	0.095394	0.11748	0.17399	0.038233	0.17037	-2.1063	-2.6562	-2.4562	-2.6333	-2.6458	-2.5187	-2.9021	-2.5229	-2.7729	-2.7292	-2.5542	-2.7562	-2.4708	-2.4854	-2.8063	-2.4188	-112.988	-124.816	28.676	168.615	-131.301	-69.476	-21.660	132.043	184.960	95.568	-118.859	-15.674	-10.866	-74.988	-50.935	38.672	0.00011956	0.00010054	4.1238e-05	206.34	1.0608e-06	1.2251e-06	268.2	58.02	6.642e-07	1.2268e-06	91.049	29.665	16.573	6.1129	4.8885e-07	13.562	4.3485e-05	1.2358e-05	3.7339e-06	214.89	2.3694e-07	1.3987e-07	279.23	60.711	1.8815e-07	2.9527e-07	95.602	31.336	17.38	6.4379	1.6996e-07	14.337	-101.364	-109.147	-66.526	-149.792	-37.418	-22.061	-150.694	-145.886	-14.066	-30.431	-146.331	-141.319	-141.538	-135.860	-31.362	-137.282	-8191	255	
40934.973	1	1	0	0	0.13321	0.11423	0.11484	0.16799	0.19572	0.12704	0.19073	0.24205	0.043962	0.23383	0.11974	0.16138	0.14184	0.15687	0.16097	0.061243	-2.0771	-2.6792	-2.5104	-2.5875	-2.6521	-2.45	-2.8063	-2.6042	-2.5417	-2.7333	-2.4688	-2.6354	-2.5938	-2.3625	-2.7938	-2.45	-25.272	156.129	-30.935	15.362	138.739	-50.104	119.162	-154.547	180.249	48.631	-12.361	109.466	110.036	87.265	-77.591	-128.379	0.00011324	7.6916e-05	2.1345e-05	207.68	1.6082e-06	7.2983e-07	266.1	57.522	7.076e-07	1.4941e-06	90.472	29.557	16.485	6.0426	1.1932e-06	13.272	4.4434e-05	1.2685e-05	3.1548e-06	215	2.9739e-07	9.2219e-08	279.41	60.741	1.7566e-07	1.7998e-07	95.382	31.186	17.299	6.3656	1.6212e-07	14.134	-97.725	-94.388	-77.902	-150.682	-35.763	-29.280	-150.703	-145.044	-19.020	-2.561	-146.856	-141.138	-141.620	-135.648	24.137	-136.738	-8191	255	
40935.070	1	1	0	0	0.2181	0.19858	0.25317	0.099577	0.18159	0.23925	0.17072	0.21792	0.15735	0.13119	0.11472	0.25502	0.095544	0.27662	0.28093	0.062266	-2.1437	-2.6667	-2.3708	-2.4938	-2.7188	-2.6146	-2.7521	-2.525	-2.5	-2.85	-2.4229	-2.6271	-2.6833	-2.2812	-2.7	-2.6958	21.204	-17.855	-110.262	65.154	-78.629	-153.866	52.934	0.418	-1.412	-10.893	105.092	-130.446	-84.638	-0.936	117.051	-8.080	0.00011328	0.00014034	2.2763e-05	205.08	1.0281e-06	1.3501e-06	265.1	57.678	1.2974e-06	1.851e-06	90.569	29.278	16.312	6.0243	9.0697e-07	13.362	4.2219e-05	1.4226e-05	2.7701e-06	212.38	2.4397e-07	9.7513e-08	275.82	60.004	1.9571e-07	1.4704e-07	94.506	30.821	17.13	6.3439	1.6479e-07	14.145	-99.547	-69.859	-34.121	-150.694	-66.900	-19.175	-150.529	-145.353	-11.122	-50.691	-146.284	-140.973	-141.834	-136.235	4.596	-136.902	-8191	255	
40935.141	1	1	0	0	0.17083	0.17518	0.10551	0.0041071	0.090692	0.15218	0.23669	0.2885	0.31231	0.096959	0.22079	0.16653	0.12288	0.15153	0.13922	0.26856	-1.9979	-2.6792	-2.4917	-2.7104	-2.9104	-2.4021	-2.7833	-2.775	-2.5979	-2.6813	-2.5854	-2.7271	-2.8021	-2.3354	-2.5812	-2.6396	39.075	192.152	-30.652	187.335	81.196	-67.476	-90.653	170.106	-145.346	-38.735	-100.678	-4.112	141.189	-143.254	-120.228	-44.842	0.0001073	0.00018287	2.3012e-05	203.78	1.311e-06	1.4497e-06	263.11	57.486	9.4251e-07	1.3074e-06	90.016	29.43	16.43	6.0355	9.6335e-07	13.538	4.1075e-05	1.3665e-05	2.9992e-06	211.87	3.0475e-07	1.0503e-07	275.42	60.069	1.824e-07	1.2439e-07	94.63	30.964	17.193	6.3602	1.4227e-07	14.259	-95.240	-80.771	-66.672	-150.710	-9.707	-0.721	-150.500	-145.407	-15.308	6.911	-146.335	-141.400	-141.953	-136.285	20.668	-137.078	-8191	255	
40935.238	1	1	0	0	0.075851	0.1512	0.15565	0.11391	0.12089	0.16851	0.31269	0.20763	0.2222	0.31697	0.17944	0.23551	0.1422	0.30919	0.065755	0.16306	-1.9396	-2.8	-2.5208	-2.6292	-2.6542	-2.4354	-2.8542	-2.5583	-2.625	-2.6813	-2.6063	-2.4792	-2.8667	-2.5354	-2.5292	-2.8021	100.517	39.220	49.464	171.951	125.593	28.586	121.758	130.851	-117.149	53.239	64.634	77.727	47.738	-123.669	-25.637	150.680	0.00011344	0.00011197	5.6821e-05	204.03	9.8754e-07	1.4553e-06	264.57	57.277	6.9536e-07	1.2446e-06	90.452	29.44	16.379	6.0197	1.091e-06	13.676	3.9639e-05	1.4272e-05	3.7252e-06	212.06	1.8402e-07	1.2552e-07	275.82	60.03	1.7139e-07	1.1478e-07	94.898	31.143	17.299	6.4081	1.6278e-07	14.358	-98.936	-43.316	-81.294	-149.817	10.100	2.215	-150.847	-145.631	3.152	-8.698	-146.515	-141.183	-141.253	-135.970	14.283	-137.068	-8191	255	
40935.359	1	1	0	0	0.073872	0.2816	0.11559	0.20979	0.097073	0.16216	0.12476	0.31151	0.11333	0.088721	0.050926	0.25347	0.11082	0.31619	0.17419	0.11331	-1.9229	-2.6604	-2.6	-2.5146	-2.8958	-2.4875	-2.6396	-2.6979	-2.3417	-2.6875	-2.6312	-2.5771	-2.6375	-2.6	-2.4292	-2.8438	5.906	-9.072	-152.197	-143.993	-4.092	-11.022	-50.318	127.734	-104.419	94.941	40.976	50.147	181.048	-5.570	87.386	159.627	0.00011519	0.00011912	1.7753e-05	204.09	1.3787e-06	1.132e-06	265.86	57.499	8.1453e-07	9.7397e-07	91.08	29.688	16.546	6.0843	1.0686e-06	13.596	4.0588e-05	1.309e-05	3.3363e-06	212.02	1.3279e-07	2.5412e-07	276.57	60.332	1.681e-07	1.5287e-07	95.127	31.269	17.324	6.4505	1.5561e-07	14.308	-92.350	-75.861	-89.637	-150.215	-5.180	-56.185	-150.493	-145.425	-0.968	-3.380	-146.634	-140.940	-141.801	-136.511	-36.506	-137.118	-8191	255	
40935.453	1	1	0	0	0.032475	0.075661	0.070804	0.12555	0.23485	0.23996	0.056141	0.074512	0.21537	0.11602	0.27417	0.1896	0.039537	0.21325	0.13261	0.09111	-1.8937	-2.6271	-2.4167	-2.5292	-2.8688	-2.4792	-2.7021	-2.7313	-2.4042	-2.6688	-2.6646	-2.6208	-2.7062	-2.6042	-2.5958	-2.6854	68.268	21.312	132.213	153.834	-59.514	-120.853	-35.716	-156.697	186.798	118.374	67.519	79.289	-25.130	-7.725	-114.977	-154.836	0.00011162	0.00012333	3.6702e-05	203.89	7.7489e-07	9.3489e-07	261.16	56.897	1.137e-06	1.4412e-06	89.11	29.268	16.247	6.0978	1.2726e-06	13.366	4.1148e-05	1.3868e-05	3.5999e-06	212.17	1.8101e-07	2.2235e-07	273.64	59.683	1.7221e-07	1.7123e-07	93.864	30.823	17.078	6.3986	1.6278e-07	14.185	-99.819	-86.049	-87.988	-150.373	-24.085	-92.226	-150.467	-145.727	-6.880	-15.965	-146.615	-141.439	-141.928	-135.678	16.045	-136.799	-8191	255	
40935.551	1	1	0	0	0.096452	0.034944	0.15389	0.25185	0.21238	0.31765	0.16533	0.11847	0.11641	0.20576	0.063629	0.31962	0.038391	0.2486	0.31886	0.065702	-2.0458	-2.7687	-2.4833	-2.4688	-2.8417	-2.4083	-2.6063	-2.7062	-2.4958	-2.7687	-2.7271	-2.5563	-2.7	-2.7313	-2.4813	-2.9542	-42.240	108.026	194.433	-102.318	-92.687	-93.768	87.155	-57.584	189.219	-63.890	-54.846	191.708	-113.802	5.999	-48.538	113.276	0.00011846	0.00014299	8.1749e-06	204.46	1.2291e-06	1.5597e-06	263.04	57.06	7.1432e-07	2.5432e-07	89.94	28.964	16.414	6.0949	1.3023e-06	13.468	4.1927e-05	1.6031e-05	3.1159e-06	212.68	1.718e-07	2.7119e-07	275.39	59.815	1.6268e-07	1.6454e-07	94.173	30.772	17.257	6.4039	1.5645e-07	14.187	-98.161	-60.118	-119.608	-150.420	8.183	-41.832	-150.340	-145.743	-12.212	-111.075	-146.152	-140.957	-140.974	-135.985	18.029	-136.912	-8191	255	
40935.672	1	1	0	0	0.37403	0.10981	0.04811	0.23563	0.19889	0.13394	0.023988	0.19213	0.10481	0.15693	0.086065	0.13944	0.20954	0.057629	0.074525	0.12119	-2.1625	-2.7812	-2.7917	-2.4208	-2.7333	-2.6292	-2.6333	-2.7375	-2.5771	-2.7375	-2.8479	-2.4333	-2.7458	-2.8312	-2.6	-2.7667	22.071	-43.487	-138.124	-139.857	-85.463	-92.913	15.148	-1.309	10.987	133.147	39.179	68.797	-114.245	27.208	-103.646	-46.474	0.00012414	0.00012375	3.6401e-05	202.87	6.8444e-07	1.3097e-06	265.04	57.518	8.9587e-07	1.0864e-06	90.556	29.46	16.373	6.0359	4.3377e-07	13.415	5.0105e-05	1.393e-05	3.9802e-06	211.85	1.574e-07	2.2765e-07	275.95	60.167	1.7599e-07	1.2833e-07	94.978	30.994	17.283	6.3774	1.416e-07	14.175	-100.160	-63.785	-90.740	-150.436	-26.241	-35.438	-150.493	-145.626	-30.021	-52.734	-146.699	-141.073	-141.502	-136.247	23.608	-136.755	-8191	255	
40935.742	1	1	0	0	0.075464	0.045036	0.152	0.13825	0.2478	0.033308	0.033186	0.17429	0.13712	0.21578	0.096672	0.073292	0.35198	0.076171	0.18544	0.17663	-2.0125	-2.4938	-2.6917	-2.2625	-2.6667	-2.575	-2.4271	-2.7625	-2.55	-2.5542	-2.7333	-2.5958	-2.7125	-2.6063	-2.55	-2.825	-140.125	102.068	-125.709	159.633	-93.354	190.818	24.334	180.921	-58.332	-95.173	69.749	57.174	159.782	-57.158	-92.178	136.375	0.00011535	9.8488e-05	2.0664e-05	209.4	1.3588e-06	9.3376e-07	266.23	58.736	1.0221e-06	1.4079e-06	92.112	29.109	16.315	5.9134	9.9516e-07	12.98	4.8328e-05	1.3852e-05	3.8938e-06	216.05	1.4752e-07	2.6248e-07	277.74	61.001	1.6662e-07	1.5287e-07	95.576	30.888	17.279	6.2411	1.6462e-07	13.778	-99.347	-94.378	-90.943	-150.059	7.946	-66.865	-150.488	-145.850	12.583	4.086	-146.632	-141.525	-141.609	-136.136	3.205	-137.135	-8191	255	
40935.840	1	1	0	0	0.19486	0.14645	0.15597	0.091143	0.045416	0.17105	0.22231	0.24178	0.11049	0.24422	0.21697	0.22523	0.10656	0.13732	0.34866	0.22883	-2.0292	-2.5729	-2.8625	-2.4958	-2.6	-2.7167	-2.6729	-2.8688	-2.5333	-2.4875	-2.9062	-2.5854	-2.6271	-2.675	-2.4188	-2.8792	-26.034	-73.472	185.870	184.747	-100.493	-139.337	142.345	-74.447	-41.463	162.662	147.402	-80.247	139.618	144.452	181.009	-150.730	0.00010699	0.00010331	2.1663e-05	207.02	1.0811e-06	9.6782e-07	261.8	57.298	8.3633e-07	1.2081e-06	89.367	28.565	15.962	5.6621	6.5625e-07	12.415	5.103e-05	1.5751e-05	3.6345e-06	213.37	1.7615e-07	2.1296e-07	273.1	60.029	1.6909e-07	1.4137e-07	93.459	29.935	16.922	5.963	1.5645e-07	13.109	-98.578	-89.898	-62.914	-150.463	0.601	-14.245	-150.188	-145.899	-35.800	18.526	-146.320	-141.338	-141.490	-136.199	-25.243	-136.713	-8191	255	
40935.961	1	1	0	0	0.090606	0.1393	0.24725	0.055724	0.1801	0.039366	0.20752	0.13286	0.16089	0.27398	0.2654	0.21352	0.29108	0.15832	0.30787	0.16264	-2.0667	-2.5312	-2.6333	-2.7479	-2.6021	-2.8375	-2.4417	-2.6667	-2.6208	-2.5521	-2.8688	-2.6167	-2.5042	-2.8104	-2.55	-2.7958	94.661	95.956	-24.745	193.042	125.977	-127.308	5.349	-137.436	-162.536	7.627	-74.482	65.772	51.119	-104.609	140.085	94.789	9.9458e-05	7.8015e-05	2.4372e-05	203.11	7.0116e-07	1.0069e-06	260.98	57.182	7.6085e-07	5.0811e-07	89.053	27.853	15.93	5.3917	7.4651e-07	12.098	4.5444e-05	1.2529e-05	4.0493e-06	210.68	1.7716e-07	2.6231e-07	272.38	60.053	1.727e-07	1.237e-07	93.025	29.493	16.821	5.7562	1.2759e-07	12.727	-97.628	-85.426	-79.747	-149.771	9.137	-62.640	-150.424	-145.365	-16.594	21.450	-146.615	-141.222	-141.516	-135.418	-53.056	-137.151	-8191	255	
40936.055	1	1	0	0	0.2326	0.053553	0.19327	0.1775	0.19911	0.35246	0.14163	0.26401	0.13713	0.077332	0.18776	0.25849	0.22341	0.15503	0.085042	0.084088	-2.4146	-2.3396	-2.7812	-2.5229	-2.6562	-2.9396	-2.4604	-2.6979	-2.7854	-2.5625	-2.7479	-2.5312	-2.6562	-2.7792	-2.6437	-2.5792	-149.030	37.938	94.606	11.966	-146.884	-79.584	139.322	69.262	58.350	-94.173	16.544	-92.440	22.939	-123.345	107.030	-55.254	9.6478e-05	0.00011207	3.1871e-05	204.67	8.1734e-07	1.2531e-06	259.52	57.843	7.8879e-07	1.6062e-06	89.743	27.718	15.801	5.2583	9.3053e-07	11.589	4.6308e-05	1.1486e-05	3.9715e-06	211.4	1.291e-07	1.3748e-07	271.68	60.5	1.8191e-07	1.2353e-07	93.451	29.198	16.707	5.555	1.2276e-07	12.266	-101.188	-66.831	-78.355	-150.713	-21.087	-1.522	-150.567	-145.315	-18.975	8.291	-146.614	-140.998	-141.416	-136.339	-8.672	-136.537	-8191	255	
40936.148	1	1	0	0	0.07708	0.30502	0.054347	0.12627	0.093395	0.13957	0.22199	0.061368	0.033917	0.097699	0.15296	0.14317	0.11374	0.055492	0.23061	0.075224	-2.3792	-2.5312	-2.7875	-2.5708	-2.6625	-2.85	-2.4375	-2.6854	-2.6375	-2.3521	-2.7917	-2.5125	-2.6396	-2.7583	-2.5146	-2.7333	-40.623	-13.646	148.473	58.053	-70.178	-118.572	101.790	117.649	-20.567	42.161	-24.398	-133.966	133.914	44.610	-35.774	-89.571	9.4469e-05	0.00012712	1.9708e-05	203.89	2.502e-07	6.0946e-07	261.71	58.217	4.0094e-07	8.7967e-07	89.617	27.7	15.974	5.1503	1.0375e-06	11.398	4.4069e-05	1.1455e-05	3.6734e-06	210.59	1.1889e-07	1.3765e-07	273	60.857	1.4937e-07	1.1787e-07	93.756	29.181	16.877	5.4562	1.0341e-07	12.046	-96.651	-73.108	-80.817	-150.417	-45.142	-19.255	-150.704	-145.732	-22.527	-6.455	-146.407	-141.207	-141.910	-136.542	-18.269	-137.291	-8191	255	
40936.270	1	1	0	0	0.068375	0.16212	0.069746	0.1792	0.1343	0.1713	0.2192	0.050688	0.13484	0.1193	0.24482	0.09129	0.21327	0.14959	0.21391	0.12861	-2.2771	-2.6188	-2.8937	-2.6708	-2.4708	-2.8333	-2.5792	-2.4375	-2.8729	-2.5292	-2.6979	-2.6542	-2.5521	-2.8125	-2.4688	-2.3812	158.007	-139.420	68.384	-102.653	-94.974	-136.097	47.743	108.727	-6.647	144.624	101.102	-43.824	-64.968	105.618	72.500	-91.563	9.9156e-05	0.00010977	3.7493e-05	206.07	1.2357e-06	1.0619e-06	259.27	58.219	1.044e-06	1.5228e-06	88.906	27.05	15.73	5.0166	6.0704e-07	11.006	4.789e-05	9.8522e-06	4.4858e-06	212.7	1.219e-07	1.2911e-07	271.49	60.844	1.5414e-07	1.3863e-07	92.371	28.57	16.561	5.2773	1.3226e-07	11.601	-100.045	-80.651	-67.776	-150.538	18.605	-7.493	-150.606	-145.583	-4.740	5.257	-146.666	-141.160	-141.994	-135.762	-4.962	-136.884	-8191	255	
40936.367	1	1	0	0	0.16867	0.040901	0.18932	0.32121	0.14339	0.19748	0.24316	0.09472	0.052607	0.133	0.29591	0.20685	0.051735	0.20828	0.208	0.11505	-2.2708	-2.5312	-2.6771	-2.8563	-2.4958	-2.6396	-2.4021	-2.3688	-2.7812	-2.4458	-2.7	-2.7062	-2.3375	-2.5771	-2.5458	-2.6229	-110.177	-92.590	-139.741	-35.682	-97.182	-117.734	154.953	-72.704	194.125	-25.620	114.019	182.297	91.082	165.797	-42.992	-124.024	0.00010008	0.0001307	1.4319e-05	202.58	1.5486e-06	9.7451e-07	257.8	57.606	1.007e-06	1.3088e-06	88.737	26.699	15.745	4.9136	3.1081e-07	10.866	4.1769e-05	1.4817e-05	3.6085e-06	210.83	1.2659e-07	1.4448e-07	270.14	60.342	1.9834e-07	9.8653e-08	92.304	28.35	16.558	5.192	1.3026e-07	11.387	-96.537	-102.422	-105.786	-149.965	-21.917	-2.591	-150.679	-145.567	-16.438	19.844	-146.347	-141.339	-142.063	-135.875	13.490	-137.004	-8191	255	
40936.438	1	1	0	0	0.35384	0.066663	0.15808	0.21182	0.1347	0.35683	0.17449	0.15144	0.37229	0.22006	0.12768	0.062292	0.11006	0.10011	0.12638	0.25264	-2.4208	-2.5812	-2.5646	-2.9021	-2.4437	-2.6146	-2.5375	-2.4354	-2.8104	-2.5208	-2.5604	-2.7625	-2.3708	-2.7042	-2.5542	-2.35	103.099	36.898	-120.896	-38.935	-21.558	-103.031	107.226	73.475	9.118	-98.510	81.561	-157.974	69.677	151.880	-129.032	84.758	9.6529e-05	8.6031e-05	1.4388e-05	203.29	1.0083e-06	9.6224e-07	259.18	57.938	7.4691e-07	1.2311e-06	88.779	26.827	15.719	4.841	1.0517e-06	10.605	3.5732e-05	2.3969e-05	2.9733e-06	210.62	1.4518e-07	1.5028e-07	271.19	60.74	1.8667e-07	9.0761e-08	92.822	28.245	16.551	5.0974	1.5311e-07	11.179	-94.848	-93.797	-79.750	-149.799	-40.398	-32.859	-150.756	-145.772	-31.411	-3.024	-146.859	-141.677	-141.834	-136.068	23.970	-136.519	-8191	255	
40936.559	1	1	0	0	0.016692	0.16872	0.1199	0.17558	0.070387	0.19234	0.164	0.17375	0.26415	0.12703	0.28902	0.16191	0.12918	0.12788	0.17569	0.14436	-2.3479	-2.4437	-2.55	-2.5771	-2.5021	-2.7208	-2.7708	-2.3125	-2.5833	-2.5104	-2.4437	-2.7854	-2.6229	-2.725	-2.5812	-2.5312	-66.067	-124.238	-79.694	-103.840	-73.901	39.531	-95.060	-70.378	92.167	-19.211	161.396	136.137	67.033	90.658	126.644	-153.780	9.8644e-05	3.3186e-05	5.0793e-05	204.49	1.3136e-06	1.3146e-06	259.02	58.385	7.501e-07	8.9243e-07	88.987	26.684	15.717	4.7374	7.4043e-07	10.247	3.7351e-05	1.9113e-05	3.1807e-06	211.97	1.0901e-07	1.2603e-07	270.9	61.01	1.8536e-07	1.0757e-07	92.611	28.112	16.493	5.0162	1.5578e-07	10.893	-95.085	-123.374	-66.632	-150.096	6.956	-23.312	-150.512	-145.730	-14.747	31.152	-146.574	-141.554	-141.792	-136.165	-18.907	-136.896	-8191	255	
40936.656	1	1	0	0	0.12821	0.23154	0.097328	0.22021	0.038837	0.10049	0.11695	0.37662	0.19341	0.19233	0.22354	0.30643	0.21789	0.15713	0.15349	0.10833	-2.4479	-2.5104	-2.4729	-2.6896	-2.3542	-2.7125	-2.7979	-2.4875	-2.6167	-2.7521	-2.5479	-2.8	-2.55	-2.5312	-2.7062	-2.3917	67.859	14.089	-2.545	193.915	-68.462	-133.090	-38.954	-98.818	103.477	-14.291	-131.421	4.617	156.213	45.258	-103.511	122.479	8.5353e-05	5.6102e-05	2.2985e-05	201.68	1.0532e-06	1.4634e-06	257.37	57.552	7.5324e-07	9.5453e-07	86.901	26.039	15.377	4.5845	5.5661e-07	10.032	3.5416e-05	2.2599e-05	3.5135e-06	210.57	1.3245e-07	1.4584e-07	268.11	60.231	1.8109e-07	1.3348e-07	91.015	27.402	16.148	4.8298	1.401e-07	10.536	-98.699	-96.591	-76.441	-149.629	45.202	-33.271	-150.531	-145.763	-30.894	-22.249	-146.471	-141.516	-142.318	-135.552	-11.135	-137.010	-8191	255	
40936.750	1	1	0	0	0.17821	0.26246	0.073143	0.0713	0.29496	0.12651	0.18655	0.07053	0.10418	0.35018	0.10064	0.21353	0.11506	0.20333	0.11157	0.24165	-2.2667	-2.5854	-2.4167	-2.7438	-2.625	-2.575	-2.9354	-2.5583	-2.9146	-2.7917	-2.45	-2.8187	-2.5667	-2.4625	-2.8396	-2.375	87.361	-144.608	34.970	-87.628	163.039	151.050	110.348	73.850	-162.068	140.402	-93.696	-65.267	160.657	-46.622	-97.908	106.204	8.8405e-05	0.0001091	3.3975e-05	199.8	9.1714e-07	8.427e-07	254.15	56.915	7.4793e-07	5.9766e-07	86.042	25.777	15.19	4.5307	1.2331e-06	9.9706	3.4588e-05	1.6529e-05	2.7485e-06	207.66	1.1805e-07	1.3884e-07	265.78	59.311	1.7813e-07	9.5736e-08	89.886	27.157	15.983	4.7844	1.1942e-07	10.522	-95.742	-44.837	-96.542	-150.532	-11.186	17.643	-150.344	-145.740	1.039	-10.904	-146.122	-141.293	-141.770	-135.885	1.892	-136.869	-8191	255	
40936.848	1	1	0	0	0.16001	0.23549	0.3891	0.2032	0.06562	0.26623	0.16164	0.071458	0.18394	0.27205	0.11219	0.17246	0.28706	0.044703	0.077102	0.24047	-2.3833	-2.6354	-2.3771	-2.7979	-2.6604	-2.6396	-2.7208	-2.6458	-2.6917	-2.7021	-2.4771	-2.7812	-2.4958	-2.5521	-2.8	-2.5812	177.409	-149.260	-22.677	-141.334	100.717	-17.655	-64.730	32.756	23.338	141.146	101.872	174.935	-133.741	-151.309	143.593	163.090	8.1237e-05	0.00010429	3.2428e-05	199.87	1.0435e-06	4.7128e-07	254.34	56.678	4.7903e-07	1.3906e-06	86.297	25.995	15.203	4.5361	6.5666e-07	9.9726	3.3894e-05	2.137e-05	2.6275e-06	206.8	1.2123e-07	1.3099e-07	266.29	59.265	1.7501e-07	1.3211e-07	90.052	27.211	15.985	4.7764	1.4394e-07	10.505	-93.204	-102.039	-55.105	-149.894	-31.427	-7.125	-150.670	-145.617	-7.190	13.446	-147.034	-141.527	-141.313	-136.442	-94.253	-136.876	-8191	255	
40936.941	1	1	0	0	0.19066	0.12574	0.26196	0.36492	0.18118	0.21792	0.12056	0.21287	0.27414	0.21037	0.10061	0.18194	0.12653	0.13208	0.10021	0.063424	-2.2604	-2.7583	-2.3125	-2.6979	-2.6021	-2.4688	-2.725	-2.6813	-2.5104	-2.7792	-2.4229	-2.5729	-2.65	-2.3896	-2.7229	-2.5917	159.536	63.908	-96.148	-56.106	30.317	53.563	-155.640	100.675	-135.808	-91.937	-78.861	-152.509	8.346	91.062	-73.932	43.728	7.9311e-05	5.0102e-05	4.0068e-05	200.07	9.7797e-07	1.4169e-06	254.4	56.574	5.9997e-07	1.3027e-06	86.003	25.989	15.182	4.5752	8.8984e-07	10.093	3.4686e-05	1.9502e-05	3.0597e-06	206.33	1.2358e-07	1.0537e-07	265.32	59.094	1.6186e-07	9.6937e-08	89.913	27.245	15.948	4.7961	1.7029e-07	10.562	-96.926	-51.720	-62.626	-150.756	-9.324	3.612	-150.671	-145.988	-37.050	10.136	-146.539	-141.579	-141.908	-136.172	-39.434	-137.043	-8191	255	
40937.039	1	1	0	0	0.11657	0.16705	0.23143	0.037289	0.24094	0.17495	0.12747	0.21427	0.25513	0.16437	0.045777	0.096124	0.048993	0.25599	0.12014	0.11577	-2.2021	-2.6208	-2.4813	-2.7562	-2.6792	-2.4396	-2.8229	-2.5458	-2.5375	-2.625	-2.5708	-2.6458	-2.6708	-2.4271	-2.7917	-2.5812	-141.421	-136.423	-147.763	57.123	168.888	111.299	179.315	117.512	-157.740	77.631	-29.020	163.483	81.572	185.140	160.291	-143.323	8.3613e-05	5.0583e-05	2.9597e-05	200.58	1.422e-06	1.0646e-06	253.05	56.352	2.6707e-07	1.2356e-06	85.277	25.502	15.074	4.4617	9.5338e-07	9.8413	3.2045e-05	2.0841e-05	3.077e-06	207.13	1.2508e-07	1.0725e-07	264.82	58.821	1.5677e-07	1.0895e-07	89.091	26.812	15.764	4.7211	1.3727e-07	10.36	-99.763	-113.645	-94.259	-150.623	-42.281	-42.711	-150.363	-145.341	-39.776	-25.855	-146.986	-141.261	-141.800	-135.960	6.887	-136.705	-8191	255	
40937.133	1	1	0	0	0.33483	0.21306	0.1051	0.039533	0.1288	0.10424	0.24474	0.16085	0.21458	0.22766	0.23891	0.1472	0.065926	0.042087	0.2661	0.39162	-2.0187	-2.8292	-2.5604	-2.6146	-2.7479	-2.4646	-2.7062	-2.4604	-2.5458	-2.9771	-2.7292	-2.5938	-2.7042	-2.3812	-2.8812	-2.6208	151.246	-131.590	109.767	132.833	59.884	123.599	178.861	-148.657	150.311	64.984	-41.323	189.290	-54.509	41.845	-141.787	88.211	8.6002e-05	8.0432e-05	1.3958e-05	198.09	1.0939e-06	1.3996e-06	251.64	55.218	4.5914e-07	6.441e-07	84.971	25.773	14.871	4.522	8.0202e-07	9.9665	3.1521e-05	1.3074e-05	3.6777e-06	204.82	9.1761e-08	8.5047e-08	262.97	58.161	1.4641e-07	1.0346e-07	88.606	26.841	15.636	4.7372	1.5344e-07	10.479	-93.970	-89.275	-93.255	-150.342	-24.222	-1.910	-150.484	-145.985	-34.831	-14.972	-146.831	-141.682	-142.126	-135.858	1.293	-136.762	-8191	255	
40937.230	1	1	0	0	0.23913	0.2613	0.2642	0.016454	0.026045	0.12908	0.12799	0.22323	0.18615	0.11207	0.11844	0.11442	0.14043	0.11966	0.197	0.16019	-2.2333	-2.775	-2.5917	-2.7188	-2.6646	-2.5146	-2.9437	-2.7417	-2.5375	-2.8104	-2.4271	-2.5083	-2.8229	-2.3812	-2.6708	-2.9062	-42.497	101.584	-100.618	43.078	-1.991	-125.951	-148.040	105.023	-54.192	121.683	-14.750	-116.896	87.098	-111.641	41.984	-120.885	9.5462e-05	2.1732e-05	2.7605e-05	197.44	1.154e-06	4.3948e-07	252.58	55.523	9.2228e-07	1.4059e-06	85.24	25.517	14.947	4.4863	1.0515e-06	9.9549	3.2434e-05	1.0646e-05	6.2058e-06	205.03	1.2927e-07	8.2656e-08	263.2	58.286	1.4921e-07	1.3382e-07	88.902	26.901	15.704	4.7607	1.4494e-07	10.514	-93.729	-48.322	-59.423	-150.355	31.111	50.220	-150.488	-145.739	-18.453	10.600	-147.224	-141.664	-142.021	-136.867	15.615	-136.461	-8191	255	
40937.352	1	1	0	0	0.05243	0.065214	0.1762	0.063557	0.094559	0.39229	0.28228	0.11905	0.22398	0.097782	0.10365	0.13121	0.045391	0.10954	0.21584	0.22362	-2.1396	-2.6958	-2.5563	-2.5021	-2.6604	-2.3354	-2.9521	-2.7062	-2.4354	-2.8375	-2.5354	-2.4813	-2.6833	-2.4437	-2.6667	-2.7458	-37.959	117.324	-23.689	-62.135	127.008	-82.482	64.076	-82.747	176.622	86.180	96.644	77.385	104.945	12.767	117.353	-12.620	8.34e-05	0.00011129	2.1556e-05	194.33	1.3438e-06	7.7932e-07	252.72	56.04	3.0715e-07	1.3735e-06	85.557	25.488	15.099	4.5412	1.3151e-06	10.01	3.0974e-05	1.2529e-05	5.4971e-06	204.27	1.502e-07	9.0682e-08	264.05	58.525	1.3047e-07	1.3125e-07	89.298	26.907	15.754	4.763	1.6829e-07	10.49	-95.487	-88.015	-54.173	-150.659	-4.249	-14.902	-150.624	-145.634	-32.819	-3.384	-146.841	-141.901	-141.866	-136.093	-10.834	-136.682	-8191	255	
40937.445	1	1	0	0	0.10659	0.15246	0.30629	0.15366	0.2785	0.12839	0.12891	0.031538	0.21855	0.055349	0.088364	0.1684	0.25042	0.11979	0.23839	0.024633	-2.0458	-2.7021	-2.6604	-2.4417	-2.7917	-2.6146	-2.7208	-2.7979	-2.4021	-2.8521	-2.5938	-2.4938	-2.6396	-2.4771	-2.7667	-2.8146	79.525	66.443	-5.674	193.810	18.555	-161.752	173.475	102.385	-93.820	107.117	-86.042	-6.772	178.024	-154.537	-25.643	153.098	9.47e-05	7.8276e-05	1.3563e-05	197.64	1.1549e-06	6.3433e-07	248.47	55.085	7.1824e-07	9.9448e-07	83.643	25.023	14.799	4.4947	1.3109e-06	9.9504	3.1606e-05	1.2234e-05	6.2966e-06	203.86	1.2609e-07	7.2922e-08	261.04	57.839	1.359e-07	9.6251e-08	87.788	26.344	15.521	4.7146	1.0674e-07	10.461	-88.566	-82.237	-104.387	-150.556	-35.992	-10.411	-150.428	-146.008	-13.255	-32.680	-146.970	-141.539	-141.555	-135.768	6.956	-136.358	-8191	255	
40937.543	1	1	0	0	0.17094	0.26618	0.17535	0.30183	0.15292	0.12627	0.044974	0.1288	0.053518	0.16979	0.32219	0.12311	0.065296	0.078469	0.19335	0.31848	-2.1375	-2.5083	-2.5354	-2.3958	-2.85	-2.575	-2.725	-2.8042	-2.4354	-2.7667	-2.7042	-2.55	-2.8563	-2.55	-2.5187	-2.8146	-132.370	22.504	165.053	-146.208	166.669	-58.750	-71.337	165.149	66.348	-65.026	151.803	154.298	90.587	-93.987	121.603	2.977	7.9871e-05	0.00010816	5.1607e-05	197.68	5.7236e-07	1.0122e-06	249.25	54.958	6.8763e-07	1.2328e-06	83.989	25.191	14.81	4.4776	6.6483e-07	10.013	3.1777e-05	1.3572e-05	5.0736e-06	202.81	1.2274e-07	7.2238e-08	260.56	57.551	1.6054e-07	1.2799e-07	87.855	26.571	15.518	4.7668	1.2042e-07	10.536	-102.496	-80.882	-74.102	-150.372	-8.687	20.720	-150.706	-145.718	-47.764	-5.309	-146.341	-141.264	-141.953	-135.800	-11.207	-137.231	-8191	255	
40937.641	1	1	0	0	0.29082	0.33139	0.15217	0.26118	0.24777	0.060234	0.16942	0.089534	0.14766	0.10256	0.19256	0.062249	0.44772	0.14602	0.17155	0.13047	-2.1458	-2.5417	-2.6417	-2.5646	-2.9771	-2.6437	-2.5687	-2.5875	-2.4146	-2.7125	-2.6896	-2.3271	-2.7812	-2.6333	-2.5458	-2.8771	-42.570	163.481	-144.070	63.470	-92.872	-4.824	172.630	194.971	86.306	-101.212	127.501	-151.635	2.995	154.896	-56.396	124.806	7.598e-05	0.00010552	3.8145e-05	195.12	1.2492e-06	8.1375e-07	248.75	55.076	9.7205e-07	5.8965e-07	84.706	25.467	14.777	4.6036	1.0037e-06	10.283	3.1972e-05	1.2638e-05	6.1885e-06	203.06	1.4267e-07	8.2485e-08	259.78	57.558	1.6893e-07	1.0105e-07	88.097	26.814	15.602	4.8439	1.3493e-07	10.792	-95.447	-70.574	-85.239	-149.787	-26.691	-4.460	-150.555	-145.798	5.191	6.368	-146.740	-141.545	-142.482	-136.200	-13.746	-136.529	-8191	255	
40937.734	1	1	0	0	0.076681	0.15014	0.066018	0.072833	0.14227	0.2823	0.32283	0.11346	0.078234	0.032782	0.058839	0.23709	0.041291	0.10774	0.038454	0.27162	-2.1312	-2.6604	-2.5646	-2.4729	-2.5583	-2.7667	-2.6125	-2.65	-2.5354	-2.7167	-2.8312	-2.4667	-2.6979	-2.5062	-2.3271	-2.9562	163.659	-111.031	123.652	100.509	-162.966	46.018	-55.243	103.349	21.721	110.663	54.370	61.591	-84.861	-90.478	29.562	124.739	8.3068e-05	8.2602e-05	4.2442e-05	197.92	7.4265e-07	1.2256e-06	250.8	55.237	7.875e-07	9.8021e-07	84.706	25.515	15.053	4.6155	2.8813e-07	10.481	3.0134e-05	1.2047e-05	4.4123e-06	203.39	1.3597e-07	1.1152e-07	261.41	57.8	2.4484e-07	1.1427e-07	88.52	27.079	15.764	4.9247	1.1692e-07	10.996	-95.759	-80.040	-69.563	-150.430	-59.727	9.647	-150.573	-145.332	16.217	15.435	-147.090	-141.498	-141.694	-136.598	10.768	-136.738	-8191	255	
40937.832	1	1	0	0	0.050144	0.17536	0.058857	0.18859	0.36479	0.062031	0.1255	0.19871	0.24978	0.19078	0.14259	0.11346	0.027939	0.25523	0.21002	0.13753	-2.0687	-2.6146	-2.7146	-2.3583	-2.8042	-2.6396	-2.4979	-2.8708	-2.575	-2.575	-2.6937	-2.4833	-2.7604	-2.6208	-2.525	-2.9042	-12.998	-39.742	-111.319	-35.318	-66.916	81.872	-96.470	116.734	-79.857	42.046	-124.780	-116.169	22.523	18.465	170.185	21.842	9.243e-05	9.1959e-05	2.5107e-05	196.74	8.8598e-07	1.1425e-06	249.46	55.017	5.8261e-07	1.315e-06	84.282	25.205	14.753	4.6852	1.2203e-06	10.321	3.2458e-05	1.0739e-05	5.0087e-06	203.82	1.3664e-07	9.0512e-08	260.7	57.772	2.2282e-07	1.1049e-07	87.915	26.764	15.56	4.908	1.431e-07	10.892	-93.948	-43.886	-68.129	-149.939	27.011	22.522	-150.568	-145.548	-40.360	-1.141	-146.419	-141.841	-142.152	-136.412	-7.800	-137.369	-8191	255	
40937.953	1	1	0	0	0.29789	0.20078	0.21523	0.16487	0.23881	0.17998	0.020644	0.030731	0.22253	0.063087	0.16553	0.20675	0.059042	0.069512	0.20736	0.21841	-2.3896	-2.6021	-2.7625	-2.4104	-2.7771	-2.8083	-2.35	-2.7042	-2.5667	-2.5563	-2.8583	-2.6063	-2.5125	-2.6458	-2.475	-2.6937	184.539	18.670	-109.061	-0.905	23.478	178.675	108.620	-96.556	-12.816	55.745	-147.026	-101.785	-159.671	149.844	33.370	-152.899	9.0771e-05	6.4934e-05	3.9834e-05	194.37	1.3446e-06	1.2744e-06	247.71	54.393	5.6028e-07	7.3184e-07	83.472	25.338	14.618	4.6663	8.3505e-07	10.425	3.2994e-05	1.0708e-05	3.44e-06	201.74	1.3362e-07	6.6774e-08	258.41	57.23	2.4304e-07	8.5099e-08	87.475	26.809	15.511	4.9316	1.0374e-07	10.982	-95.285	-66.916	-86.651	-150.436	-2.056	-52.850	-150.477	-145.898	14.339	-13.447	-146.725	-141.020	-141.267	-136.068	6.808	-136.730	-8191	255	
40938.047	1	1	0	0	0.12591	0.25867	0.14007	0.13144	0.063357	0.22808	0.10945	0.20926	0.22875	0.256	0.23756	0.18147	0.15913	0.23319	0.19799	0.17809	-2.2292	-2.425	-2.6854	-2.3854	-2.6229	-2.8417	-2.4437	-2.6896	-2.7208	-2.6312	-2.7833	-2.4896	-2.7292	-2.8167	-2.5167	-2.6708	-51.078	150.890	-91.946	39.664	72.827	-66.011	19.711	162.997	43.779	116.535	-100.772	-52.521	-154.452	51.232	101.402	-64.451	8.4474e-05	0.00010569	3.1555e-05	196.78	1.4227e-06	1.2365e-06	249.91	55.273	7.1502e-07	1.0571e-06	83.873	25.598	14.915	4.7189	4.087e-07	10.503	3.0949e-05	9.5253e-06	3.4054e-06	202.4	1.1906e-07	1.0195e-07	260.34	57.684	2.0573e-07	1.0912e-07	88.035	26.935	15.689	5.0202	1.2092e-07	11.115	-97.270	-57.576	-80.651	-150.462	6.520	6.207	-150.505	-145.322	-41.130	13.827	-146.598	-141.628	-141.707	-136.291	-6.900	-136.577	-8191	255	
40938.141	1	1	0	0	0.10901	0.33567	0.098614	0.049808	0.12641	0.19338	0.014602	0.04045	0.054666	0.13396	0.097286	0.020741	0.27677	0.070189	0.26524	0.10703	-2.3771	-2.4708	-2.7521	-2.6458	-2.7938	-2.7833	-2.4833	-2.6729	-2.6437	-2.5146	-2.8354	-2.5083	-2.4979	-2.8896	-2.6562	-2.6583	-151.684	129.929	-149.949	-57.600	-151.024	134.363	-133.129	62.742	-108.317	153.312	32.374	87.309	-6.091	119.544	-57.580	-109.584	8.0288e-05	0.00010726	2.8046e-05	194.94	1.2094e-06	1.2053e-06	250.24	55.171	7.8655e-07	4.0364e-07	84.597	25.824	15.06	4.7673	9.0032e-07	10.587	3.1144e-05	7.6109e-06	3.0554e-06	202.85	1.4149e-07	8.4193e-08	261.32	57.768	2.4879e-07	1.0998e-07	88.655	27.173	15.784	5.0271	1.8613e-07	11.184	-95.855	-69.870	-35.918	-150.732	-28.295	-39.238	-150.845	-145.232	6.392	-33.377	-146.597	-141.760	-141.865	-136.264	-18.048	-137.214	-8191	255	
40938.238	1	1	0	0	0.14534	0.30367	0.22133	0.022166	0.21047	0.17018	0.078321	0.12681	0.087146	0.26447	0.083162	0.058765	0.31092	0.19005	0.1067	0.16887	-2.2208	-2.2438	-2.6917	-2.4188	-2.5271	-2.8167	-2.4354	-2.7396	-2.7125	-2.4646	-2.9125	-2.6396	-2.4813	-2.7604	-2.5708	-2.6417	-102.634	66.670	-19.058	-70.841	141.820	25.684	147.942	183.743	-81.216	49.519	180.465	-151.714	85.109	74.401	140.040	140.990	0.00010257	0.00011209	4.1318e-05	196.94	8.2435e-07	5.4958e-07	251.97	55.637	8.946e-07	1.0609e-06	84.862	25.595	14.91	4.7008	3.3841e-07	10.346	3.4174e-05	1.2342e-05	3.4184e-06	205.24	1.0298e-07	1.0212e-07	262.56	58.045	2.3597e-07	9.7623e-08	88.735	27.006	15.661	4.9649	2.2249e-07	10.964	-94.578	-83.303	-87.388	-150.880	25.864	-13.775	-150.732	-145.699	2.989	0.116	-146.289	-141.956	-141.682	-135.982	-25.331	-137.138	-8191	255	
40938.336	1	1	0	0	0.24151	0.15597	0.27299	0.22637	0.2384	0.22156	0.054951	0.21384	0.089993	0.043744	0.13653	0.2785	0.22426	0.10228	0.18295	0.21864	-2.1667	-2.3812	-2.65	-2.6729	-2.4958	-2.7042	-2.6833	-2.4083	-2.8229	-2.5792	-2.8438	-2.6	-2.5354	-2.7542	-2.7313	-2.5062	-80.823	-42.997	-104.467	86.966	76.963	90.036	-118.506	-67.250	-133.877	-68.758	-39.051	-1.031	114.074	-21.891	179.738	128.305	9.058e-05	9.3963e-05	2.9323e-05	195.59	1.0425e-06	1.3085e-06	250.14	54.8	1.0071e-06	3.0549e-07	83.248	25.596	14.792	4.6983	8.888e-07	10.368	3.3809e-05	8.4047e-06	3.185e-06	202.57	1.3563e-07	1.3235e-07	259.98	57.385	2.3564e-07	9.6594e-08	87.58	26.885	15.55	4.944	2.0748e-07	10.949	-94.567	-88.377	-71.929	-150.485	-16.143	1.081	-150.869	-145.759	-26.053	-12.355	-146.745	-141.432	-142.064	-135.535	-0.111	-136.985	-8191	255	
#DATA ENDS
