BOXY.EXE: ISS Imagent and Oximeter Data Acquisition Program Version 0.80
Ascii Record File

#ACQ INFORMATION
2  Detector Channels 
16  External MUX Channels 
1  Auxiliary Channels 
5000  Waveform (CCF) Frequency (Hz)
1  Waveforms Skipped 
30  Waveforms Averaged 
1  Cycles Averaged 
16  Acquisitions per Waveform 
10.0806  Updata Rate (Hz) 

#FILE INFORMATION
TRUE -- External MUX Channel results are PARSED.
FALSE -- AC DC and Phase are NOT grouped.
TRUE -- Companion Program Settings File CREATED.
FALSE -- AC data not excluded
FALSE -- DC data not excluded
FALSE -- Phase data not excluded
FALSE -- Auxillary Chn. data not excluded
Tab delimiters

#CALIBRATION STATE
TRUE -- Waveform Calibration Values APPLIED.


#AUX CALIBRATION VALUES
Val Type	aux-1	

Term	1.0000e+00	
Factor	0.0000e+00	


#WF CALIBRATION VALUES
A = Detector Channel
Val Type	A-AC1	A-AC2	A-AC3	A-AC4	A-AC5	A-AC6	A-AC7	A-AC8	A-AC9	A-AC10	A-AC11	A-AC12	A-AC13	A-AC14	A-AC15	A-AC16	A-DC1	A-DC2	A-DC3	A-DC4	A-DC5	A-DC6	A-DC7	A-DC8	A-DC9	A-DC10	A-DC11	A-DC12	A-DC13	A-DC14	A-DC15	A-DC16	A-Ph1	A-Ph2	A-Ph3	A-Ph4	A-Ph5	A-Ph6	A-Ph7	A-Ph8	A-Ph9	A-Ph10	A-Ph11	A-Ph12	A-Ph13	A-Ph14	A-Ph15	A-Ph16	

Term	0.00000e+00	0.00000e+00	0.00000e+00	0.00000e+00	0.00000e+00	0.00000e+00	0.00000e+00	0.00000e+00	0.00000e+00	0.00000e+00	0.00000e+00	0.00000e+00	0.00000e+00	0.00000e+00	0.00000e+00	0.00000e+00	0.00000e+00	0.00000e+00	0.00000e+00	0.00000e+00	0.00000e+00	0.00000e+00	0.00000e+00	0.00000e+00	0.00000e+00	0.00000e+00	0.00000e+00	0.00000e+00	0.00000e+00	0.00000e+00	0.00000e+00	0.00000e+00	0.00000e+00	0.00000e+00	0.00000e+00	0.00000e+00	0.00000e+00	0.00000e+00	0.00000e+00	0.00000e+00	0.00000e+00	0.00000e+00	0.00000e+00	0.00000e+00	0.00000e+00	0.00000e+00	0.00000e+00	0.00000e+00	
Factor	1.00000e+00	1.00000e+00	1.00000e+00	1.00000e+00	1.00000e+00	1.00000e+00	1.00000e+00	1.00000e+00	1.00000e+00	1.00000e+00	1.00000e+00	1.00000e+00	1.00000e+00	1.00000e+00	1.00000e+00	1.00000e+00	1.00000e+00	1.00000e+00	1.00000e+00	1.00000e+00	1.00000e+00	1.00000e+00	1.00000e+00	1.00000e+00	1.00000e+00	1.00000e+00	1.00000e+00	1.00000e+00	1.00000e+00	1.00000e+00	1.00000e+00	1.00000e+00	X	X	X	X	X	X	X	X	X	X	X	X	X	X	X	X	

B = Detector Channel
Val Type	B-AC1	B-AC2	B-AC3	B-AC4	B-AC5	B-AC6	B-AC7	B-AC8	B-AC9	B-AC10	B-AC11	B-AC12	B-AC13	B-AC14	B-AC15	B-AC16	B-DC1	B-DC2	B-DC3	B-DC4	B-DC5	B-DC6	B-DC7	B-DC8	B-DC9	B-DC10	B-DC11	B-DC12	B-DC13	B-DC14	B-DC15	B-DC16	B-Ph1	B-Ph2	B-Ph3	B-Ph4	B-Ph5	B-Ph6	B-Ph7	B-Ph8	B-Ph9	B-Ph10	B-Ph11	B-Ph12	B-Ph13	B-Ph14	B-Ph15	B-Ph16	

Term	0.00000e+00	0.00000e+00	0.00000e+00	0.00000e+00	0.00000e+00	0.00000e+00	0.00000e+00	0.00000e+00	0.00000e+00	0.00000e+00	0.00000e+00	0.00000e+00	0.00000e+00	0.00000e+00	0.00000e+00	0.00000e+00	0.00000e+00	0.00000e+00	0.00000e+00	0.00000e+00	0.00000e+00	0.00000e+00	0.00000e+00	0.00000e+00	0.00000e+00	0.00000e+00	0.00000e+00	0.00000e+00	0.00000e+00	0.00000e+00	0.00000e+00	0.00000e+00	-6.63820e+01	-1.32221e+02	-1.32598e+02	-1.82128e+02	-5.54045e+01	-6.81716e+01	-1.55839e+02	-1.62015e+02	-4.79085e+01	-6.04191e+01	-1.71365e+02	-1.71126e+02	-1.82066e+02	-1.77488e+02	-4.97492e+01	-1.50542e+02	
Factor	1.73107e-05	1.54295e-04	4.51476e-05	4.38225e-01	1.60551e-06	1.62400e-06	1.61763e-01	5.30960e-02	1.05840e-06	1.60533e-06	8.42355e-02	2.85716e-02	2.33515e-02	8.60720e-03	1.42458e-06	1.24910e-02	5.84177e-06	7.47084e-06	2.07437e-06	2.24426e-01	8.03748e-08	8.19727e-08	7.87615e-02	2.75353e-02	7.88756e-08	8.23536e-08	4.22450e-02	1.44254e-02	1.22567e-02	4.50262e-03	8.00578e-08	6.30654e-03	X	X	X	X	X	X	X	X	X	X	X	X	X	X	X	X	



#DISTANCE SETTINGS
A = Detector Channel
A-1	A-2	A-3	A-4	A-5	A-6	A-7	A-8	A-9	A-10	A-11	A-12	A-13	A-14	A-15	A-16	

2.5000e+00	3.0000e+00	2.5000e+00	3.0000e+00	2.0000e+00	3.0000e+00	1.5000e+00	3.0000e+00	3.0000e+00	3.0000e+00	3.0000e+00	3.0000e+00	3.0000e+00	3.0000e+00	1.5000e+00	3.0000e+00	

B = Detector Channel
B-1	B-2	B-3	B-4	B-5	B-6	B-7	B-8	B-9	B-10	B-11	B-12	B-13	B-14	B-15	B-16	

1.0000e+01	1.0000e+01	1.0000e+01	1.4400e+00	1.0000e+01	1.0000e+01	1.5100e+00	1.9400e+00	1.0000e+01	1.0000e+01	1.9900e+00	2.4900e+00	2.4100e+00	2.9000e+00	1.0000e+01	2.9800e+00	




#DATA BEGINS
time	group	step	mark	flag	A-AC1	A-AC2	A-AC3	A-AC4	A-AC5	A-AC6	A-AC7	A-AC8	A-AC9	A-AC10	A-AC11	A-AC12	A-AC13	A-AC14	A-AC15	A-AC16	A-DC1	A-DC2	A-DC3	A-DC4	A-DC5	A-DC6	A-DC7	A-DC8	A-DC9	A-DC10	A-DC11	A-DC12	A-DC13	A-DC14	A-DC15	A-DC16	A-Ph1	A-Ph2	A-Ph3	A-Ph4	A-Ph5	A-Ph6	A-Ph7	A-Ph8	A-Ph9	A-Ph10	A-Ph11	A-Ph12	A-Ph13	A-Ph14	A-Ph15	A-Ph16	B-AC1	B-AC2	B-AC3	B-AC4	B-AC5	B-AC6	B-AC7	B-AC8	B-AC9	B-AC10	B-AC11	B-AC12	B-AC13	B-AC14	B-AC15	B-AC16	B-DC1	B-DC2	B-DC3	B-DC4	B-DC5	B-DC6	B-DC7	B-DC8	B-DC9	B-DC10	B-DC11	B-DC12	B-DC13	B-DC14	B-DC15	B-DC16	B-Ph1	B-Ph2	B-Ph3	B-Ph4	B-Ph5	B-Ph6	B-Ph7	B-Ph8	B-Ph9	B-Ph10	B-Ph11	B-Ph12	B-Ph13	B-Ph14	B-Ph15	B-Ph16	aux-1	digaux	

39629.910	1	1	0	256	0.23809	0.17094	0.13106	0.19908	0.078527	0.18456	0.41867	0.3309	0.061164	0.091089	0.14247	0.091391	0.23446	0.39535	0.088043	0.011956	-2.1917	-2.7979	-2.3688	-2.8042	-2.6375	-2.6188	-2.9208	-2.6125	-2.6083	-2.7979	-2.6312	-2.8792	-2.8458	-2.7979	-2.8479	-2.7125	112.196	131.250	49.481	235.436	107.335	220.656	264.822	247.437	162.780	178.938	285.666	-10.509	3.868	250.581	2.783	79.616	0.00016784	0.00068409	0.00013543	1490.1	7.4663e-06	5.3164e-06	1491.7	395.15	2.445e-06	5.5991e-06	453.1	153.85	134.2	45.992	3.7958e-06	57.375	0.00048689	0.00052302	0.00014205	1496.4	5.581e-06	5.7099e-06	1502.5	401.72	5.6874e-06	5.7979e-06	458.66	157.5	136.98	47.34	5.8315e-06	58.412	204.761	35.993	-7.316	-29.647	149.361	86.879	-29.518	-24.788	137.520	117.997	-25.695	-20.695	-20.606	-16.063	158.970	-16.949	-8191	255	
39630.008	1	1	0	0	0.23968	0.18558	0.13665	0.097386	0.18716	0.27155	0.3373	0.34386	0.45564	0.15741	0.063237	0.18551	0.28089	0.20812	0.10767	0.26474	-2.1667	-2.9583	-2.4208	-2.8792	-2.8042	-2.5833	-2.9604	-2.7	-2.6792	-2.7667	-2.6312	-2.9688	-2.85	-2.6167	-2.9021	-2.6896	215.841	99.971	70.463	225.522	266.571	25.867	228.572	209.061	-20.848	-28.678	207.457	267.353	-41.401	296.967	306.498	248.665	0.00020143	0.00039526	0.00017594	1491.3	6.6289e-06	5.6046e-06	1497.1	396.22	2.936e-06	4.6855e-06	455.03	153.3	134.44	46.144	2.7821e-06	57.63	0.00049548	0.00053888	0.00014614	1496.1	5.8699e-06	5.8404e-06	1505.1	401.71	5.8915e-06	5.8963e-06	459.24	157.09	137.44	47.366	5.7802e-06	58.519	204.223	43.308	69.992	-29.776	116.660	91.835	-29.443	-24.769	151.378	94.583	-25.522	-20.489	-20.346	-15.962	118.447	-16.897	-8191	255	
39630.102	1	1	0	0	0.22238	0.14353	0.11571	0.0782	0.020527	0.24251	0.26757	0.19227	0.20464	0.16331	0.21241	0.12469	0.23157	0.23578	0.13513	0.37133	-2.1042	-2.7917	-2.4083	-2.7021	-2.8542	-2.4396	-3.2729	-2.75	-2.5833	-2.8354	-2.7479	-3.0396	-2.825	-2.4625	-2.7417	-2.7438	239.097	302.716	276.377	281.270	-3.946	35.551	283.305	260.397	68.935	-18.385	268.051	265.347	-31.649	209.600	142.519	-27.542	0.00020654	0.00065582	8.1032e-05	1488	4.9254e-06	3.2232e-06	1493.8	396.55	2.3865e-06	7.3218e-06	453.72	152.89	134.73	46.336	4.116e-06	57.636	0.00050883	0.00052946	0.0001452	1497.5	5.7702e-06	5.7716e-06	1504.9	402.23	5.7694e-06	5.8984e-06	458.94	157	137.38	47.411	5.8165e-06	58.55	198.953	63.560	56.564	-29.549	117.380	94.016	-29.653	-24.888	119.607	99.694	-25.612	-20.645	-20.328	-16.293	133.522	-16.905	-8191	255	
39630.199	1	1	0	0	0.12774	0.21177	0.061765	0.2646	0.18859	0.073486	0.27565	0.11145	0.099429	0.31794	0.14652	0.033135	0.36118	0.25857	0.26986	0.45024	-2.1813	-2.7938	-2.4083	-2.5458	-2.65	-2.6937	-3.0333	-2.8042	-2.5292	-2.7667	-2.6063	-2.7333	-2.8792	-2.2896	-2.8063	-2.6562	130.584	85.232	208.452	288.161	119.111	-33.507	232.125	268.716	254.138	113.150	256.021	199.393	296.908	7.972	153.531	291.218	0.00020414	0.00064772	0.00013744	1483.9	4.6201e-06	3.4887e-06	1492.3	396.69	2.9849e-06	4.6849e-06	453.08	153.04	134.23	46.278	3.5512e-06	57.298	0.00050223	0.00054461	0.00014602	1494.1	5.8699e-06	5.8732e-06	1503.7	401.59	5.8169e-06	5.9627e-06	458.29	156.75	136.88	47.316	5.939e-06	58.243	202.787	21.977	26.304	-29.904	125.966	134.421	-29.511	-24.919	164.348	122.885	-25.401	-20.409	-20.468	-16.196	131.217	-16.693	-8191	255	
39630.297	1	1	0	0	0.18389	0.22922	0.19444	0.14137	0.23372	0.1906	0.21753	0.060679	0.10063	0.11964	0.22742	0.078813	0.16031	0.18686	0.17811	0.072525	-2.05	-2.8125	-2.5375	-2.7354	-2.8688	-2.6271	-2.9021	-2.7667	-2.4625	-2.65	-2.6917	-2.6146	-2.8312	-2.6	-2.7438	-2.9208	121.917	170.504	239.132	199.626	190.681	277.126	230.545	218.405	171.857	89.347	192.782	292.703	292.806	310.974	50.040	138.923	0.00018167	0.00031554	0.00019676	1483.8	2.5679e-06	4.4895e-06	1490.8	395.55	4.117e-06	5.1568e-06	453.77	153.65	134.03	46.12	6.2487e-06	57.268	0.00050774	0.00054434	0.00015294	1492.3	5.9725e-06	5.9772e-06	1501.7	401.36	5.9489e-06	6.0043e-06	458.31	156.7	137.03	47.292	6.0522e-06	58.249	207.020	51.575	45.281	-29.691	142.064	126.968	-29.657	-24.802	142.377	101.734	-25.664	-20.599	-20.492	-16.184	124.787	-16.553	-8191	255	
39630.414	1	1	0	0	0.36493	0.24054	0.084981	0.18107	0.11407	0.12443	0.23689	0.17949	0.093388	0.2488	0.057855	0.18902	0.25212	0.11639	0.18051	0.14347	-2.1021	-2.6354	-2.6042	-2.7354	-2.8375	-2.4792	-3.0021	-3.025	-2.3438	-2.8083	-2.7313	-2.7771	-2.9479	-2.7021	-2.6937	-2.9042	2.714	-11.090	277.966	224.461	239.163	115.190	267.724	307.239	44.847	233.624	84.305	279.517	6.134	33.376	98.068	262.431	0.0002157	0.00039339	0.00022724	1486.3	5.9145e-06	3.7172e-06	1493.4	394.46	3.7119e-06	5.084e-06	453.13	152.95	133.63	46.068	5.999e-06	57.454	0.00052417	0.00055427	0.00015449	1496.7	6.1132e-06	6.1707e-06	1503.6	400.99	6.101e-06	6.0084e-06	458.55	156.72	136.65	47.219	6.1541e-06	58.294	208.082	48.214	62.062	-29.383	129.990	168.882	-29.493	-24.855	136.764	119.394	-25.597	-20.624	-20.343	-16.319	116.231	-16.656	-8191	255	
39630.512	1	1	0	0	0.058106	0.21768	0.17032	0.31293	0.279	0.056044	0.25191	0.32067	0.03621	0.16088	0.20322	0.13286	0.29497	0.2968	0.2121	0.15565	-2.0667	-2.55	-2.7021	-2.5563	-2.8604	-2.6354	-2.7771	-2.6875	-2.4583	-2.6625	-2.9146	-2.5708	-2.8187	-2.6333	-2.4396	-2.8729	18.726	288.092	80.138	289.919	-20.557	138.609	259.742	254.560	88.857	204.587	255.282	9.160	253.844	-35.006	106.910	158.865	0.00020019	0.00066447	0.00018554	1481.3	6.4933e-06	6.6838e-06	1488.5	395.01	3.2585e-06	7.8297e-06	451.88	152.94	133.95	46.28	6.3765e-06	57.145	0.00051527	0.00056066	0.00015694	1493.4	6.0505e-06	6.0299e-06	1501.5	401.09	6.0287e-06	6.1237e-06	458.29	156.46	136.86	47.256	6.0639e-06	58.226	204.743	43.516	80.005	-29.576	142.496	121.972	-29.359	-24.873	157.112	106.562	-25.612	-20.757	-20.480	-16.202	121.401	-16.979	-8191	255	
39630.582	1	1	0	0	0.070905	0.12714	0.067779	0.21882	0.03526	0.2242	0.14611	0.22762	0.12463	0.066052	0.13266	0.26192	0.24009	0.11481	0.16644	0.0094057	-1.9667	-2.7854	-2.6521	-2.4667	-2.6188	-2.7125	-2.6312	-2.8146	-2.4958	-2.5604	-2.7417	-2.3771	-2.9417	-2.6688	-2.4083	-2.9813	230.034	159.600	237.422	57.715	228.066	159.054	235.636	254.314	199.919	83.854	226.140	275.791	220.119	285.049	108.820	163.534	0.00021411	0.0007202	6.7102e-05	1486.4	7.3766e-06	3.605e-06	1492.1	394.56	3.8445e-06	4.1583e-06	454.45	152.8	133.58	46.12	4.3426e-06	57	0.00051184	0.0005546	0.00015302	1493.3	5.9839e-06	5.9574e-06	1499.8	401.06	5.9122e-06	6.0388e-06	458.53	156.5	136.6	47.155	6.0974e-06	58.179	208.023	22.170	60.048	-29.608	158.469	103.160	-29.544	-24.951	157.238	108.629	-25.641	-20.520	-20.498	-16.180	106.126	-16.778	-8191	255	
39630.680	1	1	0	0	0.16688	0.10849	0.21493	0.17163	0.13405	0.21086	0.24727	0.038329	0.035289	0.20502	0.22008	0.096458	0.05951	0.27134	0.28513	0.2139	-1.9271	-2.6667	-2.5625	-2.5938	-2.7917	-2.4854	-2.6833	-3.0417	-2.6875	-2.6583	-3.0062	-2.5042	-2.7979	-2.7708	-2.5292	-2.875	88.735	95.117	-23.387	245.933	229.912	-37.162	238.868	213.469	81.106	-7.066	-27.966	166.062	263.874	-41.553	273.812	192.713	0.00018005	0.00052376	0.00015679	1477	6.8956e-06	6.0238e-06	1486.2	393.56	4.125e-06	5.6539e-06	450.45	152.35	134.16	45.984	5.2996e-06	56.979	0.00051111	0.00055795	0.00015406	1491.6	6.0634e-06	5.9627e-06	1499.4	400.85	5.9367e-06	6.047e-06	457.47	156.19	136.67	47.128	5.9274e-06	58.079	194.549	34.992	64.396	-29.625	110.751	114.729	-29.522	-24.839	157.706	131.058	-25.410	-20.884	-20.527	-15.944	138.530	-17.034	-8191	255	
39630.797	1	1	0	0	0.11762	0.098593	0.35691	0.29503	0.25444	0.18142	0.21647	0.20557	0.19049	0.29458	0.058885	0.19238	0.36203	0.15219	0.19591	0.23895	-1.9937	-2.5958	-2.7979	-2.4021	-2.6833	-2.6083	-2.6604	-2.9562	-2.4479	-2.75	-2.8854	-2.5604	-2.7583	-2.7958	-2.4917	-2.8896	36.524	244.370	121.330	69.400	60.971	113.732	224.348	262.245	144.507	-18.903	170.998	258.892	-17.795	87.445	312.298	40.527	0.0002085	0.00053449	0.00014741	1483.6	5.0254e-06	4.5763e-06	1485.4	395.97	3.5236e-06	7.2333e-06	450.17	152.18	133.22	45.872	3.5316e-06	57.213	0.00050674	0.00056003	0.00014837	1490.4	5.8819e-06	5.88e-06	1496.7	401.57	5.8678e-06	5.9053e-06	456.83	155.9	136.39	47.036	5.8896e-06	58.102	202.182	24.784	46.673	-29.774	150.809	175.605	-29.435	-24.921	126.823	106.068	-25.402	-20.683	-20.266	-16.111	108.877	-16.599	-8191	255	
39630.895	1	1	0	0	0.094791	0.083714	0.067311	0.1169	0.13883	0.24616	0.43808	0.21718	0.17186	0.17863	0.31058	0.10016	0.16323	0.2966	0.046954	0.18404	-2.175	-2.3625	-2.6937	-2.5687	-2.8	-2.7583	-2.7021	-2.9604	-2.6729	-2.5729	-2.9813	-2.5896	-2.7292	-2.8167	-2.4437	-2.8479	-37.674	132.407	276.378	171.534	228.201	107.748	264.991	282.833	5.768	113.353	65.066	269.301	18.112	258.626	24.938	-27.885	0.00020038	0.00078777	0.00019482	1477	1.7111e-06	4.3239e-06	1481.4	394.11	4.4568e-06	8.7841e-06	453.87	152.42	133	45.978	5.9996e-06	57.097	0.00051102	0.00053851	0.00014873	1487.4	5.9141e-06	5.9056e-06	1495.7	400.43	5.8935e-06	5.908e-06	458.04	156.02	136.19	47.043	5.9531e-06	58.022	206.328	54.870	55.568	-29.845	126.096	106.848	-29.511	-24.858	96.283	123.770	-25.511	-20.640	-20.368	-16.321	152.253	-16.887	-8191	255	
39630.988	1	1	0	0	0.18656	0.11244	0.14063	0.16003	0.39873	0.12001	0.2943	0.28744	0.18902	0.1667	0.19532	0.099233	0.33236	0.27653	0.058219	0.37043	-2.2021	-2.5812	-2.6792	-2.4729	-2.8958	-2.675	-2.6167	-2.95	-2.6625	-2.2958	-2.8667	-2.5812	-2.5208	-2.7896	-2.6604	-2.9792	268.882	169.817	168.386	229.505	162.871	89.140	219.433	296.076	116.643	144.031	276.304	3.730	-31.928	258.711	151.530	227.290	0.00020553	0.00041085	0.00015918	1474.3	5.109e-06	6.0681e-06	1476.7	395.42	1.2395e-06	6.5058e-06	452.59	152.22	132.72	46.132	5.8184e-06	56.714	0.0005168	0.00054687	0.00015234	1483.7	5.8642e-06	5.9697e-06	1492.2	400.6	5.907e-06	5.8975e-06	457.62	155.61	136.25	47.079	5.9083e-06	57.859	203.604	48.602	57.523	-29.646	152.692	110.501	-29.578	-24.678	124.399	136.533	-25.531	-20.782	-20.513	-16.445	129.825	-16.891	-8191	255	
39631.086	1	1	0	0	0.086836	0.15909	0.11493	0.076295	0.024685	0.11427	0.30783	0.088868	0.17212	0.17188	0.070962	0.31521	0.15109	0.42486	0.19626	0.16783	-2.35	-2.6417	-2.8229	-2.6063	-2.4667	-2.7583	-2.6437	-2.7333	-2.5896	-2.5146	-2.8563	-2.4542	-2.6229	-2.8667	-2.4188	-2.7042	316.722	133.198	92.724	229.895	179.285	217.194	227.474	225.077	161.875	291.150	117.377	315.248	293.968	266.963	246.166	293.855	0.00016775	0.00065293	0.00013418	1473.5	4.2744e-06	3.6259e-06	1485.4	394.99	2.538e-06	7.1771e-06	452.16	152.11	133.05	45.722	3.5082e-06	56.956	0.00050025	0.00054195	0.00014938	1485.4	5.8014e-06	5.8774e-06	1493.4	400.59	5.8192e-06	5.9981e-06	457.13	155.7	136.22	46.884	5.9807e-06	57.909	210.714	25.825	33.582	-29.767	132.257	83.369	-29.577	-24.827	164.113	132.986	-25.573	-20.578	-20.286	-16.169	101.573	-16.908	-8191	255	
39631.207	1	1	0	0	0.1844	0.10712	0.04487	0.096299	0.27489	0.1345	0.234	0.33817	0.19711	0.29534	0.21937	0.31596	0.25373	0.12819	0.10508	0.2185	-2.2167	-2.5604	-2.7792	-2.8021	-2.5208	-2.9271	-2.8688	-2.8083	-2.8187	-2.4958	-2.8979	-2.6521	-2.5646	-2.7333	-2.5021	-2.6917	0.815	71.609	54.872	227.682	25.235	81.223	-28.588	259.112	4.441	93.493	237.204	294.969	253.691	190.693	225.416	306.473	0.00016944	0.00078723	0.00017503	1472.5	5.7449e-06	6.1972e-06	1483.6	394.69	3.342e-06	4.5659e-06	451.94	151.97	133.49	45.902	4.3472e-06	56.56	0.00050481	0.00055796	0.0001516	1482.7	5.8704e-06	6.031e-06	1493.5	400.4	5.9416e-06	5.9528e-06	456.76	155.74	136.23	46.943	5.9318e-06	57.756	198.607	72.630	35.293	-29.494	144.088	89.491	-29.517	-24.829	135.652	122.949	-25.650	-20.637	-20.120	-16.058	153.786	-16.764	-8191	255	
39631.277	1	1	0	0	0.17584	0.062929	0.078788	0.17751	0.17105	0.15262	0.19247	0.089133	0.15152	0.29389	0.20082	0.22965	0.22043	0.17013	0.14344	0.075887	-2.35	-2.5583	-2.8438	-2.6854	-2.3896	-2.6979	-2.7375	-2.7438	-2.7083	-2.4625	-2.7646	-2.8312	-2.6437	-3.0417	-2.7646	-2.7646	20.528	-31.537	-28.465	300.296	242.822	292.716	265.874	114.975	296.623	181.178	180.623	308.357	-7.481	-6.695	-15.633	178.007	0.00017945	0.00056054	0.00010177	1476.7	5.8466e-06	4.3561e-06	1477.8	394.09	2.3279e-06	8.1712e-06	449.65	152.09	132.93	45.93	6.0082e-06	56.746	0.00051789	0.00054467	0.00015351	1485.4	5.9529e-06	5.9608e-06	1491.5	400.16	5.9355e-06	6.0449e-06	456.72	155.57	136.01	46.963	6.0354e-06	57.841	210.342	66.495	38.805	-29.618	144.208	121.216	-29.693	-24.870	129.453	122.768	-25.678	-20.389	-20.276	-16.182	147.264	-16.595	-8191	255	
39631.398	1	1	0	0	0.24257	0.033115	0.08071	0.10143	0.0639	0.27838	0.21146	0.36567	0.29679	0.033168	0.19915	0.24564	0.22262	0.15789	0.3992	0.10108	-2.4208	-2.5021	-2.6042	-2.6813	-2.4917	-2.8125	-2.9875	-2.5458	-2.8312	-2.6479	-2.8771	-2.8292	-2.7333	-2.8563	-2.6271	-2.3646	45.638	275.851	-27.988	-36.128	202.338	194.351	265.749	263.891	9.117	8.593	233.035	282.098	147.766	231.687	232.679	198.674	0.00021333	0.00084678	7.8446e-05	1480.8	5.6981e-06	5.242e-06	1480.7	394.18	3.3122e-06	7.5352e-06	450.72	151.91	132.62	45.858	3.0023e-06	56.827	0.00050973	0.00055697	0.00015139	1484.5	5.9819e-06	5.894e-06	1491.5	400.7	5.8687e-06	5.8423e-06	456.94	155.65	135.72	46.91	5.96e-06	57.764	208.734	50.385	65.572	-29.482	124.611	105.015	-29.644	-25.002	167.625	122.339	-25.716	-20.811	-20.247	-16.103	101.507	-16.761	-8191	255	
39631.496	1	1	0	0	0.069587	0.11051	0.16335	0.25415	0.1751	0.12275	0.15978	0.27242	0.062601	0.064662	0.045395	0.36486	0.2295	0.27022	0.060343	0.23619	-2.3729	-2.4542	-2.6896	-2.8167	-2.6667	-2.7167	-2.8563	-2.7146	-2.8167	-2.3542	-2.9062	-2.8729	-2.6979	-3.0438	-2.7687	-2.7625	187.564	-13.956	66.359	-19.164	85.932	302.478	261.565	261.948	-20.997	2.423	239.450	-35.508	173.252	292.493	141.414	240.502	0.00016005	0.00056948	0.00018015	1476.4	7.1253e-06	5.7665e-06	1481	393.98	2.5358e-06	5.3399e-06	451.66	151.74	133.39	45.732	3.5531e-06	56.36	0.00050747	0.00053972	0.00014879	1482.4	5.9034e-06	5.9143e-06	1491.1	399.85	5.8294e-06	5.883e-06	456.58	155.44	135.91	46.789	6.0549e-06	57.68	201.612	28.993	57.231	-29.852	129.757	107.141	-29.462	-24.951	130.345	121.981	-25.472	-20.663	-20.507	-16.176	170.470	-16.826	-8191	255	
39631.590	1	1	0	0	0.19927	0.26715	0.21853	0.12258	0.29461	0.29048	0.10039	0.022615	0.20073	0.18688	0.074693	0.18765	0.19756	0.22756	0.09609	0.28712	-2.4083	-2.4938	-2.6146	-2.9229	-2.5354	-2.7854	-2.9938	-2.5042	-2.8021	-2.6646	-2.6417	-2.8854	-2.6729	-2.9125	-2.6229	-2.5062	76.728	118.940	-29.431	155.726	236.153	259.828	299.185	148.272	24.385	266.489	-22.328	-3.130	-6.402	288.094	3.133	310.584	0.00018729	0.00044852	0.00013489	1465.1	3.2064e-06	8.211e-06	1483	394.47	1.5918e-06	2.4084e-06	449.03	151.4	132.95	45.675	5.0349e-06	56.494	0.00050741	0.00056313	0.00015083	1477.8	5.9963e-06	6.0448e-06	1491.2	399.59	6.0136e-06	5.9684e-06	456.24	155.16	135.5	46.715	6.0504e-06	57.557	206.637	53.774	44.827	-29.698	165.204	133.160	-29.615	-24.848	138.287	114.723	-25.592	-20.468	-20.289	-15.993	155.028	-16.878	-8191	255	
39631.688	1	1	0	0	0.10476	0.19822	0.17498	0.076216	0.072267	0.18895	0.14053	0.26713	0.22713	0.15531	0.16979	0.23122	0.14705	0.26832	0.059097	0.20022	-2.3604	-2.5417	-2.7687	-2.9396	-2.4667	-2.7917	-3.1333	-2.7062	-2.9688	-2.6875	-2.6	-3.0354	-2.5771	-2.7646	-2.8146	-2.7479	165.995	-1.857	170.819	302.964	-3.120	73.399	255.365	276.515	157.411	278.404	301.745	295.914	200.693	307.558	38.023	50.271	0.00021319	0.00045236	0.00012562	1470.4	3.9244e-06	6.5245e-06	1474.8	393.73	2.8652e-06	5.2841e-06	450.66	151.62	132.25	45.517	2.2109e-06	56.656	0.0005112	0.00054671	0.00015596	1482.1	6.0407e-06	6.0508e-06	1487.7	399.81	6.0279e-06	6.0895e-06	456.18	155.21	135.31	46.664	5.9782e-06	57.636	209.244	12.066	2.796	-29.431	137.142	102.485	-29.400	-24.711	128.551	124.267	-25.537	-20.676	-20.332	-16.262	170.038	-17.035	-8191	255	
39631.809	1	1	0	0	0.23805	0.10503	0.23892	0.11021	0.17139	0.12579	0.31338	0.13546	0.16669	0.28053	0.36587	0.13411	0.24888	0.19015	0.23219	0.14449	-2.2229	-2.5542	-2.5896	-2.8542	-2.5979	-2.6229	-3.0208	-2.7229	-2.7417	-2.6417	-2.5	-2.9667	-2.7208	-2.7146	-2.7917	-2.7229	200.344	73.925	39.697	164.015	228.175	210.529	269.091	279.652	-31.557	2.493	-15.956	275.542	267.991	296.944	199.944	25.826	0.00018899	0.00048794	0.00015964	1471	4.6224e-06	5.8808e-06	1482.1	394.55	2.9962e-06	2.6779e-06	450.14	152.24	132.77	45.456	4.1053e-06	56.561	0.00051868	0.00056255	0.00015563	1482	6.1559e-06	6.1623e-06	1490	399.85	6.1449e-06	6.1884e-06	455.35	155.44	135.39	46.679	6.0455e-06	57.559	194.495	55.612	55.646	-29.890	123.216	103.159	-29.697	-24.835	145.536	100.627	-25.618	-20.742	-20.389	-16.196	154.172	-17.053	-8191	255	
39631.879	1	1	0	0	0.083159	0.093575	0.14954	0.25081	0.19985	0.19602	0.27636	0.41875	0.23709	0.20795	0.14189	0.16871	0.13714	0.15228	0.2781	0.097608	-2.1875	-2.5563	-2.4979	-2.8792	-2.6063	-2.5917	-2.8958	-2.5958	-2.7979	-2.6375	-2.6417	-3.0917	-2.7417	-2.7208	-2.9813	-2.7021	15.678	290.228	291.554	39.961	52.393	55.525	264.977	287.267	241.452	157.639	253.780	265.060	305.734	290.345	280.144	294.914	0.0001633	0.00050791	0.00022939	1469.1	4.8113e-06	6.1685e-06	1475.6	391.6	2.086e-06	5.6967e-06	450.57	151.79	132.62	45.309	2.6213e-06	56.507	0.00052378	0.00056915	0.00015719	1480.3	6.1711e-06	6.2038e-06	1486.4	398.93	6.1058e-06	6.1628e-06	456.09	155.41	135.47	46.613	6.1751e-06	57.505	205.399	42.397	39.555	-29.829	116.640	98.455	-29.369	-24.825	89.528	119.664	-25.514	-20.733	-20.408	-15.948	103.535	-16.517	-8191	255	
39631.977	1	1	0	0	0.17732	0.16756	0.097256	0.23346	0.13571	0.13007	0.20996	0.36203	0.34088	0.074692	0.33217	0.02708	0.3488	0.13799	0.20868	0.29032	-2.2062	-2.8229	-2.3208	-2.9979	-2.5583	-2.6271	-3.0187	-2.6688	-2.6625	-2.6813	-2.5354	-2.7708	-2.8333	-2.5604	-2.7792	-2.6729	-34.799	228.959	134.362	274.530	139.480	110.823	265.372	281.030	93.474	76.660	296.223	86.035	-14.333	242.284	5.783	264.767	0.00022237	0.00050282	0.00021589	1471.5	5.5267e-06	4.7851e-06	1477.2	393.87	2.0844e-06	7.2135e-06	451.44	151.15	132.03	45.669	4.0246e-06	56.358	0.00052727	0.00055781	0.00015718	1479.4	6.2058e-06	6.1659e-06	1488.7	399.66	6.2667e-06	6.3908e-06	456.45	154.81	135.26	46.621	6.3159e-06	57.459	209.550	15.380	42.027	-29.926	123.772	133.552	-29.316	-24.952	96.319	122.563	-25.397	-20.514	-20.436	-16.232	121.938	-17.059	-8191	255	
39632.094	1	1	0	0	0.080163	0.057328	0.10524	0.050243	0.075733	0.043868	0.26204	0.30622	0.26441	0.08422	0.18897	0.25303	0.16308	0.23137	0.12138	0.24767	-2.1271	-2.8688	-2.4021	-2.8458	-2.7625	-2.4792	-3.0312	-2.6208	-2.65	-2.8583	-2.5604	-2.8667	-2.7708	-2.5	-2.7208	-2.7625	90.790	271.738	131.542	213.396	69.133	-10.704	212.215	-3.659	153.486	127.407	292.627	227.865	72.630	297.902	150.722	282.092	0.000169	0.00052829	0.00014896	1474.5	5.7642e-06	6.2922e-06	1477.8	393.59	1.9722e-06	4.7184e-06	450.11	151.76	132.03	45.375	5.5536e-06	56.358	0.00053759	0.00057792	0.00016066	1483.7	6.3158e-06	6.3375e-06	1489.7	399.92	6.4946e-06	6.4135e-06	455.97	155.04	135.13	46.518	6.4555e-06	57.492	207.961	37.506	22.533	-29.662	138.432	117.654	-29.398	-25.049	224.066	155.323	-25.549	-20.553	-20.580	-16.427	115.754	-16.917	-8191	255	
39632.191	1	1	0	0	0.11678	0.097099	0.085349	0.18215	0.26933	0.16107	0.17377	0.19815	0.25537	0.11199	0.27094	0.037743	0.10813	0.13246	0.17189	0.17144	-2.1896	-2.8979	-2.4542	-2.75	-2.7479	-2.4729	-3.0208	-2.8125	-2.5958	-2.7333	-2.4771	-2.7167	-2.7562	-2.4813	-2.7667	-2.7438	196.378	314.278	85.830	-16.313	207.320	292.873	238.790	216.727	35.787	-25.596	286.016	191.907	283.738	228.775	25.136	285.610	0.0001796	0.0005601	0.00020355	1477	7.1209e-06	7.3991e-06	1478.8	392.83	2.4882e-06	5.2591e-06	447.89	151.15	132.44	45.561	5.3626e-06	56.443	0.00055072	0.00057672	0.00016684	1487.6	6.5857e-06	6.6716e-06	1490.8	399.04	6.6244e-06	6.7056e-06	455.66	154.98	135.2	46.581	6.6491e-06	57.459	208.955	45.155	47.350	-29.402	130.102	76.977	-29.528	-25.046	157.246	116.492	-25.489	-20.628	-20.177	-16.236	132.393	-16.896	-8191	255	
39632.289	1	1	0	0	0.33162	0.31582	0.11059	0.2255	0.060259	0.20417	0.39399	0.03782	0.050761	0.1626	0.17521	0.21625	0.18785	0.1832	0.073596	0.24498	-2.0438	-2.6333	-2.2979	-2.7771	-2.9354	-2.5604	-2.9917	-2.9437	-2.5021	-2.8083	-2.55	-2.5938	-2.8417	-2.6917	-2.8563	-2.9542	102.474	45.173	266.570	-20.837	6.180	77.273	249.452	111.385	16.688	251.045	217.955	311.837	304.383	292.586	176.864	299.125	0.00018648	0.00044022	0.00021386	1468.5	1.5872e-06	5.4995e-06	1477.6	393.61	1.8165e-06	4.8824e-06	451.94	151.23	131.89	45.524	5.7292e-06	56.359	0.00055326	0.00061273	0.00016782	1481.4	6.6093e-06	6.5652e-06	1490.8	400.04	6.5493e-06	6.5749e-06	456.83	154.94	135.26	46.558	6.5571e-06	57.455	195.511	48.564	21.020	-29.639	140.011	129.531	-29.665	-24.972	122.334	117.522	-25.573	-20.653	-20.406	-16.269	133.204	-16.936	-8191	255	
39632.383	1	1	0	0	0.076811	0.14681	0.19455	0.23382	0.17075	0.069091	0.29148	0.40607	0.30222	0.154	0.19128	0.069843	0.13077	0.3676	0.080211	0.31531	-1.8958	-2.7229	-2.5396	-2.675	-2.8187	-2.5125	-2.9125	-2.8771	-2.4583	-2.8063	-2.5854	-2.7062	-2.8396	-2.3625	-2.5396	-2.7458	143.608	167.178	179.327	275.039	143.505	28.047	303.510	0.491	117.838	46.699	187.125	-27.397	303.973	296.162	285.193	297.814	0.00017266	0.00050933	0.00013004	1476.8	1.4747e-06	5.2602e-06	1478.5	392.99	2.1104e-06	6.8714e-06	451.21	151.45	131.84	45.467	5.2089e-06	56.129	0.00054689	0.00061182	0.00016872	1486.5	6.6535e-06	6.6251e-06	1495.3	399.98	6.602e-06	6.8156e-06	456.76	154.95	135.16	46.569	6.8431e-06	57.446	212.284	15.838	21.053	-29.543	78.627	110.941	-29.496	-24.923	147.259	142.394	-25.500	-20.715	-20.489	-16.483	129.641	-16.872	-8191	255	
39632.480	1	1	0	0	0.13887	0.32784	0.069335	0.15821	0.23383	0.13446	0.32578	0.1627	0.16042	0.085834	0.16032	0.20652	0.31991	0.096911	0.11735	0.14306	-1.8604	-2.6479	-2.5021	-2.5208	-2.7958	-2.4646	-2.9958	-2.9646	-2.45	-2.8896	-2.8354	-2.5875	-2.8104	-2.6417	-2.7	-2.8625	205.748	43.539	281.249	37.635	231.879	49.138	-34.915	-28.759	-29.938	150.452	251.664	260.486	262.713	-18.162	4.402	208.104	0.00024076	0.00040373	0.00019694	1472.2	5.6806e-06	5.0738e-06	1484.9	394.04	2.8053e-06	3.7635e-06	448.68	150.71	131.97	45.517	4.9146e-06	56.238	0.00055979	0.00061992	0.0001739	1485.9	6.6902e-06	6.7303e-06	1492.1	399.73	6.7419e-06	6.7717e-06	455.41	154.85	135.11	46.492	6.8483e-06	57.338	202.730	82.928	42.312	-29.715	123.008	115.848	-29.647	-24.999	107.930	157.492	-25.589	-20.586	-20.638	-16.224	151.938	-16.867	-8191	255	
39632.574	1	1	0	0	0.25165	0.12225	0.21599	0.31274	0.126	0.014798	0.076242	0.37861	0.14193	0.1735	0.0497	0.15748	0.1948	0.024093	0.22909	0.26371	-1.9604	-2.6437	-2.8	-2.6583	-2.8063	-2.3917	-2.9938	-2.8417	-2.5854	-2.8333	-2.6479	-2.5146	-2.9146	-2.6167	-2.6479	-2.8917	166.983	23.349	70.267	288.496	1.410	298.426	288.313	222.833	151.542	288.321	174.236	316.040	58.973	140.227	263.862	-23.277	0.00020644	0.00054432	0.00016693	1470.8	6.2059e-06	6.2618e-06	1480.6	393.02	1.4187e-06	5.634e-06	451.19	150.85	132.44	45.293	5.1375e-06	56.484	0.00056464	0.00062911	0.00017375	1489.6	6.6981e-06	6.8205e-06	1491.2	399.41	6.6216e-06	6.7211e-06	456	154.95	135.15	46.459	6.8971e-06	57.498	203.537	19.560	34.537	-29.495	112.234	82.612	-29.592	-24.999	59.245	124.289	-25.729	-20.664	-20.447	-16.059	113.093	-16.566	-8191	255	
39632.672	1	1	0	0	0.08227	0.071241	0.29591	0.27781	0.037068	0.10861	0.19547	0.27309	0.21673	0.23675	0.084073	0.19237	0.27303	0.28728	0.29152	0.012665	-1.9875	-2.8625	-2.6458	-2.4417	-2.6646	-2.5229	-2.8333	-2.9417	-2.5354	-2.8458	-2.8021	-2.6396	-3.0208	-2.7667	-2.525	-2.8583	155.681	-12.544	254.239	268.034	221.522	274.087	280.254	240.023	-27.663	119.072	57.142	284.750	-38.287	-2.423	137.416	163.845	0.00021046	0.00023321	0.00022625	1476.4	3.5631e-06	4.1024e-06	1483.6	393.96	2.8757e-06	4.9708e-06	448.44	151.22	132.01	45.457	4.6793e-06	56.346	0.00057058	0.00062213	0.00017157	1485.2	6.8032e-06	6.8183e-06	1493.5	399.62	6.7848e-06	6.8897e-06	455.85	154.86	135.13	46.474	6.8204e-06	57.454	207.203	51.720	26.037	-29.831	139.701	80.007	-29.512	-24.897	152.839	156.310	-25.670	-20.706	-20.247	-16.392	118.921	-17.149	-8191	255	
39632.766	1	1	0	0	0.19381	0.16522	0.10947	0.32858	0.047785	0.1054	0.40189	0.45106	0.24693	0.24546	0.34958	0.25898	0.19453	0.25276	0.11292	0.25281	-2.1417	-2.6708	-2.5729	-2.3667	-2.8729	-2.6021	-2.8	-2.9833	-2.4479	-2.7042	-2.7354	-2.5333	-2.8229	-2.8563	-2.6021	-2.8583	149.199	170.178	153.736	268.767	64.952	243.265	285.300	305.198	252.440	294.813	271.902	35.048	-10.844	315.785	189.526	251.420	0.00019881	0.00073188	0.00017324	1473.3	5.0857e-06	2.3266e-06	1485.8	392.95	2.3191e-06	4.083e-06	451.18	151.52	132.53	45.335	5.5339e-06	56.492	0.00057386	0.00064151	0.00017538	1490.2	6.8156e-06	6.9786e-06	1494.3	399.92	6.8806e-06	7.126e-06	456.37	154.9	135.34	46.446	6.8683e-06	57.457	202.042	41.094	21.847	-29.870	97.376	115.549	-29.457	-24.632	135.103	120.596	-25.568	-20.548	-20.342	-15.984	113.793	-16.813	-8191	255	
39632.887	1	1	0	0	0.17685	0.15568	0.26175	0.11597	0.16836	0.017232	0.30213	0.11708	0.195	0.042539	0.24991	0.21845	0.028688	0.1714	0.12646	0.21314	-1.975	-2.5708	-2.7042	-2.5479	-2.7896	-2.7562	-2.8021	-3.0292	-2.675	-2.6312	-3.0167	-2.5396	-2.5333	-2.6354	-2.3792	-2.8333	-32.135	152.191	87.446	295.931	49.416	9.257	281.168	277.224	98.914	55.675	277.787	199.790	215.090	-38.119	148.115	-38.498	0.00017872	0.00061549	0.0001746	1477.6	4.9697e-06	4.9062e-06	1480.5	394.15	1.2271e-06	3.5715e-06	450.01	150.9	131.81	45.409	2.9062e-06	56.302	0.0005722	0.00065686	0.0001756	1488.6	7.0238e-06	6.9716e-06	1494.4	400.61	6.8416e-06	6.9862e-06	456.64	154.91	135.11	46.507	6.89e-06	57.415	204.819	54.988	38.510	-29.613	103.445	110.547	-29.297	-24.810	178.669	152.965	-25.633	-20.647	-20.505	-16.267	186.212	-16.886	-8191	255	
39632.984	1	1	0	0	0.13669	0.083197	0.16881	0.21188	0.26146	0.12061	0.022214	0.11415	0.33074	0.073413	0.097519	0.19663	0.41628	0.34615	0.11652	0.12887	-2.2396	-2.35	-2.85	-2.4437	-2.7	-2.7667	-2.5167	-3.0646	-2.5875	-2.4437	-2.9604	-2.6688	-2.7146	-2.7271	-2.4958	-2.7229	105.642	73.231	80.640	290.662	-14.806	310.307	149.991	-37.544	203.096	132.930	237.648	218.814	268.008	-32.741	220.175	192.358	0.00018062	0.00049837	0.00018311	1479.4	4.7575e-06	4.5106e-06	1484.2	393.45	2.8691e-06	3.5282e-06	451.13	151.09	132.28	45.365	2.8929e-06	56.371	0.00058771	0.00064842	0.00017616	1490	7.0857e-06	6.8666e-06	1494.5	400.19	6.8947e-06	7.0112e-06	457.71	154.93	135.38	46.544	6.8113e-06	57.442	201.644	31.376	37.633	-29.760	128.527	121.278	-29.557	-24.925	141.313	115.216	-25.613	-20.559	-20.282	-16.085	154.097	-16.733	-8191	255	
39633.078	1	1	0	0	0.12147	0.075887	0.2246	0.13131	0.13538	0.15497	0.20794	0.18456	0.1646	0.28727	0.094045	0.034613	0.33075	0.34266	0.22694	0.091936	-2.2333	-2.5125	-2.7229	-2.6583	-2.5521	-2.8292	-2.8417	-2.9729	-2.6646	-2.5563	-2.9854	-2.6562	-2.6417	-2.8937	-2.675	-2.8833	59.728	184.200	127.186	17.363	123.446	59.813	199.824	262.868	245.667	-5.865	247.847	261.378	208.740	-19.995	31.518	309.207	0.00019493	0.00068061	0.00015414	1468.9	5.0819e-06	4.0852e-06	1485.5	394.62	4.362e-06	5.9768e-06	449.84	151.12	131.93	45.391	2.7377e-06	56.26	0.00058261	0.00062758	0.00017509	1488.3	6.9464e-06	7.0266e-06	1495.4	401.25	7.0485e-06	6.9539e-06	456.62	154.97	135.27	46.445	6.8501e-06	57.391	207.190	48.827	12.880	-29.927	121.888	99.870	-29.613	-24.861	107.928	100.591	-25.570	-20.599	-20.374	-16.321	114.110	-16.859	-8191	255	
39633.176	1	1	0	0	0.076406	0.062048	0.16882	0.12695	0.11367	0.19321	0.21923	0.29997	0.21455	0.11867	0.077349	0.062731	0.26697	0.37918	0.020781	0.12051	-2.1813	-2.4104	-2.7812	-2.7042	-2.725	-2.9375	-2.4938	-3.0208	-2.5375	-2.4646	-2.9688	-2.6813	-2.7021	-2.8833	-2.5438	-2.7542	8.926	152.456	-3.816	-3.763	225.466	64.939	224.080	238.680	200.849	6.742	299.972	6.420	316.819	304.448	302.085	120.649	0.00017424	0.00078239	0.00015622	1487.1	6.2211e-06	2.1705e-06	1486.5	394.06	1.6824e-06	4.8595e-06	451.92	151.73	132.47	45.276	5.2861e-06	56.295	0.00058535	0.00064112	0.00018114	1493.9	7.0939e-06	7.0777e-06	1497.4	400.82	7.1481e-06	7.113e-06	457.98	154.97	135.43	46.468	7.1815e-06	57.39	211.840	69.574	50.656	-29.616	114.119	166.794	-29.658	-25.072	111.196	83.522	-25.471	-20.474	-20.514	-16.183	98.338	-16.819	-8191	255	
39633.273	1	1	0	0	0.2028	0.14784	0.12159	0.21408	0.10225	0.20709	0.33837	0.04961	0.02441	0.12812	0.11954	0.13766	0.23046	0.35949	0.04721	0.21058	-2.2833	-2.3833	-2.8417	-2.6396	-2.6063	-2.9417	-2.5542	-2.825	-2.8396	-2.4792	-2.9437	-2.9271	-2.5938	-2.9354	-2.5458	-2.8479	282.439	264.340	299.691	18.025	116.050	56.713	289.910	-20.316	157.109	44.310	227.210	-23.222	296.953	301.733	42.011	186.856	0.0002014	0.00055453	0.00011292	1476.8	6.1021e-06	5.7787e-06	1484.9	396.11	3.743e-06	7.5313e-06	452.12	151.44	132.18	45.497	4.7759e-06	56.317	0.0005941	0.00065831	0.00018596	1493.5	7.0521e-06	7.2117e-06	1497.6	401.27	7.2628e-06	7.168e-06	457.32	154.83	135.42	46.522	7.2159e-06	57.509	211.044	30.784	61.588	-29.918	151.852	75.778	-29.566	-24.937	141.364	110.575	-25.692	-20.761	-20.427	-16.165	118.696	-16.857	-8191	255	
39633.367	1	1	0	0	0.052185	0.27859	0.057661	0.10807	0.22021	0.14428	0.21239	0.27228	0.27174	0.20487	0.078229	0.047619	0.51368	0.022224	0.14815	0.26966	-2.3729	-2.4396	-2.6771	-2.6396	-2.4646	-2.9042	-2.9229	-2.6708	-2.7125	-2.6042	-2.7687	-2.8187	-2.5563	-2.9771	-2.6896	-2.6958	-25.374	126.983	208.434	314.797	190.315	250.126	212.335	219.745	14.556	137.521	186.983	156.682	-42.250	-22.882	-10.511	308.862	0.00023683	0.00057018	0.00013703	1481.8	2.6471e-06	5.5457e-06	1481.5	395.57	2.7916e-06	4.3044e-06	450.09	151.33	132.56	45.35	2.6082e-06	56.18	0.00060196	0.00066283	0.00018419	1494.4	7.1957e-06	7.3089e-06	1498.2	401.19	7.3279e-06	7.3362e-06	457.68	155.04	135.42	46.553	7.443e-06	57.437	203.867	29.513	56.374	-29.843	112.290	85.978	-29.459	-24.802	153.857	132.732	-25.510	-20.750	-20.334	-15.979	140.715	-17.068	-8191	255	
39633.488	1	1	0	0	0.15491	0.17622	0.099713	0.08299	0.17418	0.29087	0.14497	0.24958	0.20051	0.35553	0.10403	0.17023	0.10195	0.23958	0.16925	0.090884	-2.2479	-2.4292	-2.6875	-2.7854	-2.4688	-2.6604	-2.7792	-2.6979	-2.9313	-2.5333	-2.8833	-2.7854	-2.6646	-2.9646	-2.6271	-2.6396	-2.117	190.023	256.321	201.708	203.003	245.463	216.401	276.025	298.004	7.455	213.640	279.763	312.699	307.856	297.006	252.508	0.00020993	0.00049117	0.00014019	1485.5	6.8163e-06	7.3603e-06	1480.4	394.62	2.8115e-06	7.0249e-06	452.91	151.46	132.96	45.451	4.3811e-06	56.6	0.00060109	0.00067812	0.00018788	1497.7	7.3928e-06	7.3084e-06	1497.8	402.14	7.2924e-06	7.2042e-06	458.69	154.92	135.64	46.566	7.2419e-06	57.475	205.346	54.937	54.163	-29.545	116.645	101.588	-29.588	-24.831	189.525	98.511	-25.594	-20.519	-20.387	-16.283	103.386	-16.780	-8191	255	
39633.582	1	1	0	0	0.093491	0.15425	0.23041	0.12076	0.1589	0.10524	0.43077	0.23278	0.14919	0.079552	0.053774	0.34736	0.11307	0.25648	0.038414	0.12582	-2.4604	-2.4583	-2.6771	-2.7625	-2.575	-2.8458	-2.8354	-2.7938	-2.8667	-2.5104	-2.7167	-2.9792	-2.7042	-3.0438	-2.6958	-2.5542	-27.291	262.338	141.725	79.443	285.877	111.782	265.130	246.822	251.719	197.146	171.738	244.532	220.333	-0.704	211.236	193.479	0.00023183	0.00040531	0.00015267	1481.6	6.9918e-06	4.4116e-06	1490.1	396.4	3.3995e-06	4.959e-06	451.08	151.23	132.13	45.517	4.1634e-06	56.182	0.00060455	0.00066953	0.00018964	1496.1	7.2552e-06	7.4983e-06	1500.5	402.25	7.3964e-06	7.4547e-06	457.92	155.1	135.52	46.57	7.2254e-06	57.403	202.814	50.188	45.836	-29.589	146.339	117.203	-29.698	-24.775	130.373	118.324	-25.728	-20.594	-20.416	-16.132	138.877	-16.928	-8191	255	
39633.680	1	1	0	0	0.29213	0.039883	0.1019	0.18782	0.13594	0.25083	0.15087	0.31721	0.25166	0.13232	0.19669	0.21448	0.12063	0.16097	0.086477	0.070694	-2.2229	-2.8063	-2.6063	-2.9188	-2.4604	-2.7396	-2.9688	-2.7479	-2.8854	-2.5042	-2.7771	-2.8542	-2.6479	-2.8917	-2.5604	-2.65	98.023	-38.254	-27.642	239.364	48.803	312.197	261.295	293.348	191.789	204.806	158.265	-19.905	241.112	209.101	42.058	258.335	0.00021326	0.00061183	0.00016501	1478.3	4.2859e-06	3.5736e-06	1487.9	395.02	2.4577e-06	5.0628e-06	452.29	151.89	132.23	45.429	5.3976e-06	56.315	0.00060658	0.00067873	0.00018795	1496.2	7.1418e-06	7.5393e-06	1500.1	401.53	7.2718e-06	7.4439e-06	458.96	155.37	135.44	46.575	7.4992e-06	57.439	202.285	32.597	86.074	-29.667	108.731	100.277	-29.559	-24.985	112.033	95.766	-25.546	-20.740	-20.540	-16.388	154.035	-16.722	-8191	255	
39633.750	1	1	0	0	0.28808	0.15895	0.25643	0.22047	0.096836	0.034695	0.17775	0.20664	0.10688	0.13594	0.070276	0.13789	0.18746	0.10209	0.094628	0.17036	-2.4771	-2.6583	-2.5604	-2.9437	-2.5708	-2.6625	-2.9688	-2.6729	-2.8042	-2.7021	-2.7333	-2.9292	-2.7562	-2.7875	-2.8583	-2.4062	112.217	179.296	78.495	96.255	90.166	155.851	226.150	309.637	232.057	113.259	267.682	-29.762	154.296	44.412	312.900	273.670	0.00019122	0.00064765	0.00014437	1482	7.4991e-06	6.0428e-06	1489.6	394.66	2.87e-06	7.3188e-06	452.08	150.68	132.03	45.499	7.863e-06	56.462	0.00062048	0.00068808	0.00019223	1496.5	7.3617e-06	7.6076e-06	1499.3	401.48	7.4475e-06	7.5014e-06	457.89	155	135.56	46.577	7.3672e-06	57.484	200.776	66.146	63.934	-29.863	132.028	105.700	-29.536	-24.983	124.370	122.717	-25.367	-20.645	-20.250	-16.195	123.156	-16.948	-8191	255	
39633.871	1	1	0	0	0.082772	0.16395	0.16948	0.21303	0.088055	0.21961	0.072125	0.33331	0.066474	0.042234	0.34659	0.080729	0.07761	0.33834	0.037545	0.25052	-2.3125	-2.475	-2.4896	-2.8521	-2.4938	-2.7979	-3.1208	-2.6229	-2.8854	-2.8271	-2.6063	-2.8646	-2.6021	-2.8146	-3.0729	-2.6958	167.754	184.597	290.985	274.077	106.784	149.582	31.613	289.320	119.581	187.231	280.356	45.455	157.743	250.909	125.597	264.902	0.00017628	0.00055727	0.00023832	1480.7	3.9512e-06	5.7341e-06	1484.9	393.73	3.6966e-06	5.7351e-06	453.89	151.23	132.3	45.576	4.3169e-06	56.171	0.00061548	0.00068175	0.0001884	1497.3	7.5502e-06	7.5857e-06	1500.4	401.41	7.4547e-06	7.6368e-06	458.45	155.03	135.43	46.538	7.3912e-06	57.415	206.808	37.689	59.707	-29.692	103.018	122.470	-29.569	-24.717	145.349	86.347	-25.452	-20.716	-20.309	-16.044	148.374	-16.816	-8191	255	
39633.969	1	1	0	0	0.17409	0.16897	0.20806	0.26256	0.14554	0.2819	0.1641	0.3515	0.1217	0.23192	0.047687	0.20414	0.16572	0.27726	0.15189	0.20624	-2.4688	-2.6354	-2.4792	-2.8229	-2.5229	-2.4146	-3.0542	-2.6479	-2.675	-2.6896	-2.6146	-2.9667	-2.5958	-2.6083	-2.8104	-2.55	147.086	189.052	114.803	-12.081	160.725	44.771	224.249	274.861	213.623	68.986	212.582	-0.385	44.874	18.585	230.978	22.903	0.00020314	0.00055603	0.00018007	1479.2	5.9663e-06	4.4627e-06	1490.9	395.18	5.4652e-07	7.5438e-06	451.92	150.75	132.3	45.466	5.5453e-06	56.368	0.0006227	0.00068909	0.00019104	1498	7.5675e-06	7.5389e-06	1502.5	401.88	7.6343e-06	7.564e-06	458.71	155.01	135.49	46.538	7.6102e-06	57.414	193.290	72.026	18.536	-29.863	132.554	114.032	-29.559	-24.793	138.675	134.412	-25.678	-20.667	-20.362	-16.182	111.358	-16.924	-8191	255	
39634.062	1	1	0	0	0.055287	0.082555	0.043655	0.28175	0.081504	0.049352	0.3182	0.11191	0.27319	0.17002	0.096421	0.25213	0.21346	0.30673	0.03511	0.10893	-2.2042	-2.6708	-2.2938	-2.7583	-2.7146	-2.5771	-3.0146	-2.5875	-2.7125	-2.7333	-2.8063	-2.9875	-2.5438	-2.6167	-2.8833	-2.7792	49.932	207.576	315.622	-41.730	246.922	-27.393	286.957	230.458	118.750	130.591	107.907	209.713	302.627	281.894	9.267	294.618	0.00021557	0.00052275	0.00021668	1473.2	5.2784e-06	6.4077e-06	1491.5	396.3	4.5281e-07	5.6664e-06	451.71	150.83	132.67	45.229	1.4374e-06	56.273	0.00062469	0.00069136	0.00018847	1496.9	7.5551e-06	7.4609e-06	1503.8	402.19	7.3933e-06	7.5139e-06	458.25	155.13	135.6	46.539	7.4559e-06	57.449	203.364	27.586	57.636	-29.695	121.317	101.845	-29.703	-24.871	237.102	111.099	-25.702	-20.694	-20.360	-16.195	163.534	-16.971	-8191	255	
39634.160	1	1	0	0	0.22199	0.16835	0.12092	0.074616	0.1272	0.04506	0.134	0.10805	0.11008	0.12826	0.1133	0.11509	0.13457	0.070243	0.16882	0.25166	-2.1979	-2.8187	-2.325	-2.7271	-2.5583	-2.3208	-2.9125	-2.6729	-2.55	-2.8104	-2.6312	-2.8167	-2.8542	-2.5417	-2.7188	-2.7375	113.737	65.168	-31.319	34.457	314.403	187.658	229.085	258.303	-2.611	206.609	248.768	175.857	314.302	266.505	154.338	315.421	0.00022082	0.0004071	0.00019418	1480.7	5.8312e-06	5.2375e-06	1487.1	396.16	2.3333e-06	4.942e-06	452.07	151.84	132.27	45.397	5.6987e-06	56.526	0.00062483	0.00068005	0.00019015	1499.4	7.468e-06	7.4476e-06	1500.4	402.28	7.4102e-06	7.4875e-06	458.43	155.43	135.67	46.515	7.5908e-06	57.444	191.288	57.393	63.965	-29.479	102.465	141.684	-29.464	-24.917	105.003	117.657	-25.446	-21.029	-20.333	-16.193	146.923	-16.942	-8191	255	
39634.281	1	1	0	0	0.18806	0.32566	0.14398	0.19257	0.24434	0.17494	0.23453	0.063018	0.085658	0.18976	0.15225	0.34757	0.14238	0.042604	0.08764	0.34526	-2.2042	-2.7375	-2.5604	-2.7417	-2.6792	-2.475	-3.0167	-2.8792	-2.6333	-2.8333	-2.675	-2.9396	-2.8896	-2.5146	-2.8583	-2.7396	-5.966	117.167	170.305	-25.441	181.859	299.611	237.295	6.159	99.569	151.480	36.216	267.868	-41.587	243.324	156.463	278.535	0.00019608	0.00052149	0.00012523	1485.7	2.8106e-06	6.3991e-06	1489.3	395.83	2.3096e-06	4.1969e-06	452.29	151.27	132.56	45.491	4.5842e-06	56.357	0.00062138	0.00067835	0.00019362	1499.9	7.3983e-06	7.5999e-06	1501.6	402.32	7.4578e-06	7.5396e-06	458.67	155.15	135.58	46.576	7.4626e-06	57.391	201.692	25.910	33.121	-29.519	117.757	106.273	-29.487	-24.913	123.182	151.618	-25.531	-20.684	-20.419	-16.138	139.257	-16.853	-8191	255	
39634.379	1	1	0	0	0.065334	0.10868	0.23787	0.12673	0.092374	0.080309	0.1578	0.059188	0.33095	0.055937	0.036735	0.034583	0.19868	0.15103	0.20974	0.10635	-2.0979	-2.6583	-2.5917	-2.7167	-2.7479	-2.3937	-2.8979	-2.8187	-2.5625	-2.8937	-2.5958	-2.6312	-2.7875	-2.675	-2.775	-2.7167	141.919	137.670	206.123	14.529	302.747	264.979	249.155	16.757	102.794	260.919	260.919	126.173	303.538	299.768	242.741	210.238	0.00018917	0.00050788	0.00019381	1482.6	7.5205e-06	5.44e-06	1491.6	394.31	3.8011e-06	5.1644e-06	450.26	151.04	132.31	45.589	5.4126e-06	56.076	0.00061398	0.00067698	0.00019186	1498.5	7.478e-06	7.4735e-06	1502.4	401.89	7.4463e-06	7.3549e-06	457.56	154.86	135.57	46.539	7.5628e-06	57.32	204.622	26.781	77.120	-29.777	123.401	93.892	-29.494	-24.893	111.978	80.163	-25.503	-20.539	-20.293	-16.253	152.233	-16.842	-8191	255	
39634.449	1	1	0	0	0.19951	0.20362	0.40022	0.080088	0.17392	0.094645	0.12449	0.28649	0.22112	0.15123	0.27619	0.25651	0.23423	0.23113	0.23588	0.37214	-1.9667	-2.7542	-2.5479	-2.5625	-2.9479	-2.5583	-2.9667	-2.7646	-2.3729	-2.8958	-2.6875	-2.7354	-2.8417	-2.6188	-2.9188	-2.8771	144.468	69.615	169.732	20.750	306.659	287.276	248.737	-12.387	296.540	153.125	155.977	-33.811	295.546	277.101	288.531	311.362	0.00019336	0.00064018	0.00014964	1478.1	2.1533e-06	7.6143e-06	1487.2	396.07	3.5793e-06	6.0055e-06	452.32	151.2	132.57	45.255	4.8436e-06	56.256	0.00061098	0.00068613	0.00019242	1498.1	7.4698e-06	7.5359e-06	1502.6	402.42	7.4141e-06	7.5583e-06	458.17	155.04	135.52	46.411	7.4899e-06	57.381	212.527	18.687	25.571	-29.717	104.754	95.275	-29.506	-25.058	144.843	107.998	-25.715	-20.523	-20.191	-16.411	104.959	-16.806	-8191	255	
39634.570	1	1	0	0	0.19368	0.17863	0.045706	0.24452	0.26738	0.13922	0.20593	0.27571	0.17749	0.006339	0.090487	0.17498	0.039971	0.095108	0.08713	0.2234	-1.9458	-2.7667	-2.4271	-2.6312	-2.9104	-2.4271	-2.9437	-2.8708	-2.7125	-2.7875	-2.7875	-2.5875	-2.7604	-2.4917	-2.5208	-2.6688	117.213	-3.295	270.683	-8.587	22.403	307.250	279.099	297.544	12.303	39.642	192.926	-40.708	-12.048	274.553	7.279	295.696	0.00018264	0.00055228	0.00020481	1477.2	4.3642e-06	5.7902e-06	1490.6	394.76	4.1561e-06	5.0583e-06	452.93	150.93	132.33	45.294	5.4046e-06	56.249	0.00061644	0.00069319	0.0001908	1496.8	7.3806e-06	7.4539e-06	1501.9	402	7.352e-06	7.4552e-06	457.74	154.92	135.36	46.513	7.4559e-06	57.412	207.677	-1.088	74.570	-29.674	138.964	126.258	-29.363	-24.983	149.689	152.591	-25.417	-20.533	-20.461	-16.234	88.386	-16.844	-8191	255	
39634.664	1	1	0	0	0.18795	0.28711	0.067418	0.14275	0.13653	0.32258	0.10166	0.11513	0.051543	0.17627	0.063907	0.084235	0.41025	0.072757	0.21558	0.064436	-1.7604	-2.8146	-2.5208	-2.5312	-2.8	-2.6583	-2.9417	-2.8875	-2.6833	-2.8125	-2.7875	-2.65	-2.8521	-2.5458	-2.6333	-2.8375	233.920	263.115	87.026	255.565	44.897	160.999	245.757	-15.082	60.915	106.299	-3.625	243.300	229.827	33.785	34.716	192.329	0.00018911	0.00035557	0.00020843	1482.2	5.8628e-06	2.7703e-06	1489.9	396.3	2.9863e-06	3.4895e-06	451.7	151.53	132.3	45.336	2.1603e-06	56.265	0.00060869	0.00066873	0.00018585	1497.6	7.2764e-06	7.4307e-06	1501.4	401.93	7.2156e-06	7.3525e-06	457.43	155.04	135.49	46.428	7.2681e-06	57.421	205.859	60.233	32.596	-29.823	125.035	128.299	-29.414	-25.037	173.353	117.244	-25.674	-20.820	-20.413	-16.098	165.688	-16.836	-8191	255	
39634.762	1	1	0	0	0.21723	0.21738	0.075201	0.36292	0.1777	0.1391	0.24457	0.44863	0.14055	0.21672	0.17704	0.31158	0.23331	0.29727	0.13603	0.018277	-1.9813	-2.6917	-2.4562	-2.6833	-2.7792	-2.6042	-2.7	-2.8771	-2.6521	-2.825	-2.85	-2.5479	-2.8354	-2.7646	-2.5771	-2.8625	67.370	47.696	308.153	303.628	242.957	316.308	235.144	305.444	218.019	141.228	222.738	265.922	231.315	-15.697	229.712	153.556	0.00016761	0.00057666	0.00012871	1475.6	4.4168e-06	5.2973e-06	1483.1	394.62	2.7518e-06	5.0737e-06	451.15	151.49	132.57	45.265	4.0608e-06	56.248	0.00060641	0.00067357	0.00018477	1494.2	7.2372e-06	7.3005e-06	1497.9	402.37	7.3047e-06	7.3432e-06	457.43	154.95	135.55	46.391	7.2225e-06	57.429	197.260	84.873	57.701	-29.799	147.903	142.623	-29.670	-24.749	139.737	114.210	-25.467	-20.661	-20.227	-16.096	152.708	-17.080	-8191	255	
39634.879	1	1	0	0	0.19781	0.073861	0.15539	0.17089	0.19132	0.18316	0.2872	0.30086	0.077253	0.21593	0.28925	0.10034	0.22642	0.13538	0.086608	0.089799	-2.0187	-2.75	-2.7375	-2.6208	-2.8708	-2.4167	-2.6854	-2.8354	-2.3958	-2.7604	-2.8917	-2.5312	-2.7062	-2.7854	-2.3438	-2.7729	63.656	109.838	216.652	309.420	155.054	196.106	280.510	245.962	117.127	-13.317	278.750	-7.683	216.609	253.245	127.758	67.041	0.00015907	0.00023459	0.00014128	1488.1	5.798e-06	7.7636e-06	1486.7	394.84	2.9025e-06	7.2132e-06	450.43	151.01	131.93	45.39	5.0533e-06	56.203	0.00060606	0.00067831	0.00018555	1500.8	7.248e-06	7.3246e-06	1500.1	402.25	7.3203e-06	7.5614e-06	457.66	154.89	135.34	46.453	7.3737e-06	57.307	213.631	72.010	22.988	-29.595	124.420	84.674	-29.347	-24.931	121.885	154.301	-25.451	-20.717	-20.314	-16.198	160.393	-16.669	-8191	255	
39634.977	1	1	0	0	0.076437	0.24419	0.11567	0.1213	0.34036	0.098603	0.18588	0.17974	0.3307	0.16924	0.29453	0.14426	0.076833	0.32994	0.20134	0.13388	-2.0896	-2.6771	-2.4521	-2.5396	-2.7917	-2.6229	-2.5229	-2.8833	-2.4021	-2.7792	-2.8854	-2.4917	-2.8167	-2.7979	-2.4146	-2.7729	80.694	179.552	249.602	-11.213	141.244	208.178	285.095	269.645	171.601	-9.871	305.013	183.298	-36.141	-24.668	120.492	0.757	0.00018568	0.00053504	0.00016078	1483.5	8.3547e-06	8.0566e-06	1491.4	395.27	3.0502e-06	5.556e-06	451.91	151.07	131.89	45.342	5.6295e-06	56.072	0.00060629	0.00067919	0.00018506	1497.5	7.2975e-06	7.1864e-06	1500.9	401.78	7.2406e-06	7.4031e-06	458.38	154.9	135.29	46.423	7.2381e-06	57.256	194.629	73.805	39.954	-29.760	124.568	86.779	-29.680	-24.815	153.151	129.265	-25.643	-20.584	-20.267	-16.225	138.067	-17.047	-8191	255	
39635.047	1	1	0	0	0.05795	0.058132	0.23329	0.16845	0.16318	0.13438	0.46715	0.11269	0.19041	0.13421	0.21582	0.034505	0.23259	0.39699	0.29908	0.17195	-2.1375	-2.4958	-2.8333	-2.5396	-2.6562	-2.5875	-2.6208	-3.1354	-2.5	-2.5792	-2.9271	-2.4896	-2.7542	-2.9208	-2.4917	-2.7542	102.864	199.683	126.343	-7.698	-31.094	82.956	273.546	280.684	225.997	288.978	277.689	168.836	13.353	275.887	90.687	208.795	0.00022199	0.000607	0.00020644	1490.7	6.5859e-06	5.5592e-06	1487	395.26	4.9524e-06	4.777e-06	451.89	151.39	132.26	45.232	5.9523e-06	56.135	0.00060566	0.00068153	0.00018455	1500.4	7.4161e-06	7.2363e-06	1500.6	401.71	7.309e-06	7.4595e-06	459.01	154.8	135.39	46.412	7.3251e-06	57.397	203.897	68.581	26.946	-29.786	95.941	118.246	-29.458	-24.880	157.350	105.993	-25.460	-20.802	-20.310	-16.276	124.618	-16.731	-8191	255	
39635.168	1	1	0	0	0.1703	0.10576	0.24841	0.17828	0.21722	0.096612	0.26528	0.46968	0.14359	0.24994	0.036779	0.092653	0.23578	0.14093	0.29301	0.20952	-2.2208	-2.525	-2.6875	-2.5708	-2.8042	-2.5896	-2.6396	-2.8771	-2.6667	-2.7167	-2.9417	-2.7062	-2.8375	-2.7854	-2.5687	-2.8375	161.633	162.581	229.881	-13.068	97.743	5.496	284.297	272.627	238.170	-17.205	19.887	198.717	-3.810	200.134	-35.647	-26.978	0.00018642	0.00067552	0.00015583	1480.7	3.4368e-06	5.2478e-06	1488.4	396.23	2.8309e-06	1.0923e-05	452.17	150.98	132.18	45.332	4.2765e-06	56.278	0.00060315	0.00067448	0.00018698	1495.2	7.3253e-06	7.3246e-06	1500.7	401.98	7.3844e-06	7.3334e-06	458.1	154.77	135.32	46.377	7.2778e-06	57.436	201.124	58.804	44.054	-29.708	129.368	121.828	-29.586	-25.052	169.019	117.120	-25.541	-20.588	-20.304	-16.099	144.096	-16.741	-8191	255	
39635.266	1	1	0	0	0.28611	0.041402	0.3205	0.2016	0.26607	0.14308	0.50872	0.32954	0.11822	0.20139	0.086105	0.065302	0.21854	0.11878	0.18052	0.072204	-2.3458	-2.5146	-2.8063	-2.5771	-2.7667	-2.9104	-2.8563	-3.0375	-2.6188	-2.5938	-2.9313	-2.6229	-2.7938	-2.9708	-2.3854	-2.7812	218.313	34.685	5.421	306.280	239.621	251.963	243.789	218.619	117.827	315.117	176.731	31.908	-30.403	57.934	191.661	-38.500	0.00018274	0.00048846	6.6667e-05	1483	3.975e-06	4.306e-06	1483.3	395.24	2.4497e-06	6.6483e-06	451.63	150.7	132.42	45.139	5.1817e-06	56.152	0.00061511	0.00066019	0.00018827	1497.9	7.2498e-06	7.3082e-06	1500.3	401.73	7.3267e-06	7.3657e-06	457.99	154.76	135.44	46.384	7.2429e-06	57.319	195.384	11.637	13.890	-29.909	58.468	88.597	-29.567	-24.949	118.221	90.624	-25.395	-20.969	-20.216	-16.109	118.389	-16.579	-8191	255	
39635.359	1	1	0	0	0.15338	0.12401	0.11971	0.29878	0.15787	0.19126	0.51064	0.1821	0.045358	0.079639	0.11665	0.20615	0.14468	0.28664	0.24103	0.016626	-2.2812	-2.4938	-2.9167	-2.7062	-2.8125	-2.9542	-2.7458	-3.0271	-2.6229	-2.5083	-2.9354	-2.6979	-2.6271	-2.9542	-2.6063	-2.8312	170.325	162.683	-25.365	169.844	163.674	263.280	254.293	248.451	118.748	34.397	207.923	177.217	28.255	-39.567	-11.542	221.214	0.00017567	0.00060497	0.00022686	1483.1	6.426e-06	4.8481e-06	1482.5	396.44	2.1019e-06	5.7961e-06	452.61	150.82	132.36	45.309	4.7472e-06	56.188	0.00059974	0.00066808	0.00018643	1496.6	7.1837e-06	7.1417e-06	1498.1	402.18	7.1631e-06	7.2046e-06	458.05	154.73	135.41	46.449	7.2232e-06	57.417	204.413	17.920	31.291	-29.886	143.667	95.339	-29.713	-25.072	175.626	140.838	-25.512	-20.720	-20.570	-16.278	140.159	-16.821	-8191	255	
39635.457	1	1	0	0	0.3329	0.08329	0.13515	0.25655	0.15534	0.25797	0.043053	0.36947	0.058865	0.15565	0.23919	0.33638	0.1587	0.20202	0.13496	0.35545	-2.3396	-2.4792	-2.675	-2.6083	-2.6708	-2.7417	-2.7729	-2.7708	-2.7292	-2.3708	-2.9146	-2.8479	-2.6688	-2.9229	-2.3417	-2.5354	161.924	157.637	-26.385	316.405	-32.366	67.096	247.366	236.170	-18.052	-18.317	220.534	256.881	289.017	310.754	70.651	284.619	0.0001858	0.00067847	0.00014413	1475.6	7.4735e-06	6.6635e-06	1489.9	395.56	2.6813e-06	2.6451e-06	451.73	151.33	132.26	45.265	4.5264e-06	56.036	0.00059709	0.00066772	0.00018549	1495	7.048e-06	7.1656e-06	1500.7	401.48	7.2051e-06	7.4581e-06	458.12	154.94	135.19	46.365	7.2237e-06	57.345	206.887	50.340	28.284	-29.771	107.074	102.073	-29.581	-24.923	128.774	90.636	-25.572	-20.779	-20.307	-16.210	118.034	-16.984	-8191	255	
39635.574	1	1	0	0	0.099437	0.1386	0.060588	0.09039	0.17447	0.26059	0.43672	0.15013	0.20318	0.24452	0.12401	0.33442	0.22971	0.11037	0.061212	0.091329	-2.4729	-2.5854	-2.6917	-2.7958	-2.4813	-2.7333	-2.8479	-2.6583	-2.9896	-2.5229	-2.8083	-2.8063	-2.6458	-2.7438	-2.5271	-2.575	15.940	56.887	156.818	294.209	145.863	67.123	280.156	133.835	-10.523	257.138	-12.192	256.228	308.490	121.820	308.700	161.775	0.00021715	0.0005338	0.00010908	1477.3	4.9986e-06	9.317e-06	1487.4	394.69	4.9461e-06	7.3804e-06	454.67	150.94	131.94	45.331	2.2519e-06	56.475	0.0006044	0.00065831	0.00018112	1498.3	7.2173e-06	7.2642e-06	1500.1	401.63	7.275e-06	7.2653e-06	458.53	154.67	135.39	46.468	7.3348e-06	57.412	200.532	19.489	59.341	-29.810	127.689	87.523	-29.790	-24.983	146.081	103.056	-25.566	-20.707	-20.441	-16.160	161.340	-16.694	-8191	255	
39635.648	1	1	0	0	0.20338	0.052421	0.12031	0.039354	0.1177	0.15672	0.24905	0.30445	0.13203	0.17642	0.22598	0.013277	0.036708	0.1889	0.036763	0.26186	-2.3354	-2.4938	-2.8021	-2.6479	-2.4083	-2.7271	-2.7708	-2.6021	-2.8104	-2.4292	-2.6625	-2.9479	-2.5917	-2.8312	-2.7792	-2.7271	42.721	120.015	122.634	50.514	247.160	47.530	262.435	-39.754	57.840	10.230	246.092	241.192	285.837	310.593	260.334	249.123	0.00015633	0.00076362	0.00020779	1490.7	6.2362e-06	5.8387e-06	1487.8	395.58	2.9053e-06	3.1031e-06	451.82	151.74	132.34	45.313	2.0224e-06	55.878	0.00060449	0.00066528	0.00018496	1497.6	7.2811e-06	7.2947e-06	1498.6	401.48	7.2748e-06	7.3274e-06	457.87	154.93	135.41	46.429	7.2492e-06	57.304	203.505	10.649	41.441	-29.472	134.703	104.708	-29.567	-24.785	153.412	153.368	-25.529	-20.768	-20.391	-16.129	149.125	-16.944	-8191	255	
39635.742	1	1	0	0	0.026499	0.32985	0.14899	0.14086	0.068287	0.070682	0.16768	0.29511	0.22085	0.20843	0.21579	0.2003	0.11594	0.049203	0.23793	0.05346	-2.4083	-2.5896	-2.6104	-2.825	-2.5417	-2.6979	-2.7625	-2.4375	-2.7479	-2.4458	-2.5229	-2.7313	-2.525	-2.7354	-2.8604	-2.725	-39.812	-21.564	15.048	17.879	-15.776	183.357	224.127	275.390	66.867	128.399	20.841	-36.678	42.556	5.585	209.330	191.984	0.00017818	0.00045284	0.00023968	1478.6	9.474e-06	4.4571e-06	1489.4	395.92	3.1154e-06	5.891e-06	452.12	151.25	132.16	45.298	4.6375e-06	56.389	0.00060804	0.00067715	0.00018818	1494.7	7.3054e-06	7.2114e-06	1502.1	402.05	7.3612e-06	7.3094e-06	458.7	154.63	135.49	46.409	7.2074e-06	57.386	190.671	59.748	38.934	-29.795	137.426	116.042	-29.565	-25.043	135.705	151.102	-25.263	-20.819	-20.611	-15.912	134.310	-16.864	-8191	255	
39635.840	1	1	0	0	0.15306	0.033651	0.17675	0.15816	0.21895	0.02251	0.24692	0.2059	0.14852	0.18154	0.1848	0.1002	0.16841	0.074222	0.24811	0.22459	-2.3563	-2.3167	-2.5396	-2.9521	-2.6042	-2.5875	-2.7771	-2.5563	-2.8042	-2.5542	-2.525	-3.0042	-2.6125	-2.6875	-2.4958	-2.6	256.624	5.730	263.383	135.528	136.389	30.295	239.588	265.636	268.859	246.619	261.189	-15.031	273.255	279.208	92.495	240.989	0.00019985	0.00040512	0.00019664	1481.1	4.6454e-06	1.3386e-06	1484.2	395.67	1.3601e-06	4.4267e-06	451.01	150.34	132.49	45.254	3.4943e-06	56.041	0.00060697	0.00066506	0.00018897	1495.8	7.2964e-06	7.32e-06	1499.3	402.23	7.4197e-06	7.4561e-06	457.77	154.5	135.5	46.361	7.2758e-06	57.236	208.596	21.194	60.304	-29.948	162.357	86.683	-29.560	-24.638	133.729	135.805	-25.569	-20.572	-20.409	-16.196	129.055	-16.953	-8191	255	
39635.961	1	1	0	0	0.21159	0.18967	0.16247	0.24188	0.31554	0.30023	0.2271	0.21183	0.085902	0.16465	0.18872	0.073217	0.15559	0.35084	0.018381	0.25258	-2.1312	-2.4354	-2.65	-2.7354	-2.5187	-2.5938	-2.9042	-2.6562	-2.7896	-2.6229	-2.6771	-2.9833	-2.725	-2.7396	-2.6396	-2.6375	-6.215	281.250	146.752	216.865	-35.141	228.791	261.985	263.584	121.570	127.616	215.057	217.978	288.451	-21.747	311.675	251.126	0.00015488	0.00046532	0.00022405	1482.7	6.2628e-06	6.9397e-06	1489.5	396.03	3.8922e-06	8.7971e-06	451.75	150.79	132.59	45.305	4.9921e-06	56.181	0.00060258	0.00066951	0.00018928	1497.4	7.3051e-06	7.4151e-06	1500.2	402	7.3875e-06	7.3652e-06	457.73	154.67	135.31	46.454	7.3632e-06	57.399	208.378	37.818	68.205	-29.759	75.279	88.472	-29.614	-24.880	128.918	144.711	-25.424	-20.756	-20.509	-16.441	112.471	-16.716	-8191	255	
39636.059	1	1	0	0	0.18082	0.19503	0.15233	0.073831	0.14748	0.14876	0.11205	0.15706	0.1969	0.13219	0.20495	0.29409	0.064219	0.029933	0.20057	0.25591	-2.0979	-2.45	-2.2167	-2.8771	-2.6208	-2.6188	-2.925	-2.6458	-2.8229	-2.4771	-2.5208	-2.7667	-2.7625	-2.5417	-2.5229	-2.5729	235.676	241.366	152.944	298.238	76.945	198.619	272.870	180.976	62.077	48.521	-7.197	313.026	95.863	267.344	154.400	215.768	0.00015718	0.00024144	0.00018477	1488.7	5.312e-06	5.6214e-06	1487.2	395.44	4.3962e-06	6.5698e-06	451.55	150.41	132.25	45.197	6.8269e-06	56.119	0.00062036	0.00068349	0.00018699	1498.4	7.2041e-06	7.3745e-06	1501.1	401.57	7.3486e-06	7.3502e-06	458.22	154.48	135.26	46.432	7.2944e-06	57.388	197.741	37.839	48.782	-30.001	124.406	112.972	-29.556	-24.853	132.343	105.651	-25.608	-20.549	-20.133	-16.371	133.586	-16.667	-8191	255	
39636.152	1	1	0	0	0.10174	0.051459	0.23125	0.27933	0.34956	0.077927	0.2381	0.20843	0.15095	0.080987	0.30647	0.14707	0.13251	0.25618	0.1429	0.1182	-2.3271	-2.4917	-2.4458	-2.9208	-2.4375	-2.5896	-2.9271	-2.5771	-2.6875	-2.7792	-2.5167	-2.7062	-2.6354	-2.5729	-2.8021	-2.5229	27.907	-3.791	116.379	80.807	262.226	309.262	296.934	240.109	22.440	203.267	237.731	263.529	288.618	165.332	202.225	287.963	0.00019794	0.00067035	0.00016895	1482.8	3.5623e-06	2.5607e-06	1487.7	393.71	2.7046e-06	6.4814e-06	451.11	150.95	131.86	45.18	4.8747e-06	56.162	0.00061019	0.00067348	0.00018786	1494.5	7.3376e-06	7.2874e-06	1500.2	401.09	7.3481e-06	7.4496e-06	457.74	154.96	135.22	46.424	7.2709e-06	57.241	201.123	48.188	59.713	-29.623	121.877	95.482	-29.544	-24.896	147.480	131.392	-25.555	-20.436	-20.388	-16.462	131.691	-17.088	-8191	255	
39636.250	1	1	0	0	0.19983	0.2039	0.075665	0.024925	0.1186	0.11461	0.12005	0.22653	0.087851	0.17823	0.1684	0.15295	0.19752	0.39647	0.24625	0.10321	-2.3708	-2.6688	-2.2812	-2.675	-2.6292	-2.6125	-2.875	-2.6312	-2.5875	-2.8792	-2.5854	-2.8	-2.6813	-2.75	-2.8688	-2.7812	289.946	16.342	134.646	197.906	50.092	205.186	194.491	294.684	-40.488	-38.679	234.295	252.364	281.293	288.888	79.741	42.632	0.00018565	0.00086432	0.0001034	1477.5	7.7326e-06	6.5126e-06	1483.6	393.57	5.0577e-06	7.9171e-06	449.95	150.78	132.21	45.169	4.1387e-06	56.277	0.00059769	0.00066476	0.00018561	1496.1	7.3049e-06	7.3116e-06	1499.7	400.91	7.2669e-06	7.393e-06	457.11	154.77	135.49	46.389	7.2139e-06	57.321	206.289	32.829	36.176	-29.614	108.029	106.970	-29.605	-25.042	120.729	109.385	-25.496	-20.799	-20.501	-16.386	84.431	-16.832	-8191	255	
39636.344	1	1	0	0	0.086984	0.25172	0.34004	0.37664	0.13931	0.18873	0.15553	0.15714	0.12827	0.078224	0.15987	0.18162	0.032955	0.21671	0.074259	0.40319	-2.2271	-2.5292	-2.4437	-2.7167	-2.6333	-2.3625	-3.0521	-2.5479	-2.3729	-2.9875	-2.5938	-2.7438	-2.7958	-2.6854	-2.725	-2.5396	294.139	128.872	71.434	227.069	59.741	177.270	316.689	171.894	-1.650	187.802	256.387	300.696	-16.275	159.884	99.435	252.116	0.0002246	0.00032051	0.00020607	1470.8	7.9559e-06	7.6038e-06	1489	395.14	2.0598e-06	8.6354e-06	451.13	150.91	132.12	45.099	2.9553e-06	56.164	0.00060941	0.00068221	0.0001864	1494.9	7.373e-06	7.3839e-06	1499	401.74	7.3637e-06	7.5607e-06	457.47	154.71	135.16	46.365	7.3131e-06	57.288	202.913	21.899	19.625	-30.074	117.207	111.107	-29.492	-24.781	151.354	116.193	-25.569	-20.725	-20.413	-16.235	99.054	-16.945	-8191	255	
39636.441	1	1	0	0	0.12267	0.069269	0.25378	0.29956	0.052825	0.025641	0.35361	0.19444	0.19066	0.096423	0.091201	0.098796	0.13129	0.21556	0.061862	0.13057	-2.0938	-2.8104	-2.4125	-2.6771	-2.7042	-2.5729	-2.8438	-2.6104	-2.5187	-2.7917	-2.6271	-2.6854	-2.7771	-2.4813	-2.6354	-2.6979	228.704	296.128	68.658	288.660	226.869	99.492	247.616	223.603	40.060	34.798	244.346	210.002	6.363	240.605	316.212	162.302	0.00018955	0.00043011	8.5157e-05	1484.5	5.4125e-06	2.9779e-06	1485.9	394.86	2.2924e-06	4.2537e-06	452.06	151.13	132.13	45.292	6.0331e-06	56.268	0.00059742	0.00068321	0.00018504	1498	7.1843e-06	7.1572e-06	1500.2	401.74	7.3777e-06	7.4144e-06	458.44	154.65	135.29	46.403	7.3725e-06	57.358	203.684	28.627	51.688	-29.740	119.322	70.296	-29.423	-25.020	152.089	115.391	-25.372	-20.518	-20.590	-15.980	159.350	-16.992	-8191	255	
39636.559	1	1	0	0	0.22245	0.24825	0.23884	0.22689	0.16546	0.2175	0.28835	0.085752	0.30984	0.22252	0.1154	0.16765	0.34057	0.094384	0.11153	0.13999	-2.1813	-2.8021	-2.3896	-2.5875	-2.7396	-2.5771	-3.0125	-2.7188	-2.4188	-2.8146	-2.6875	-2.5979	-2.7583	-2.6646	-2.6667	-2.7833	161.352	55.282	263.576	164.234	-31.409	8.320	219.904	263.206	29.734	202.620	238.562	191.350	245.035	114.432	57.984	-19.760	0.00015834	0.00050184	0.00021976	1482.2	6.656e-06	3.3291e-06	1488.1	396.08	1.1096e-06	4.9633e-06	449.55	150.8	131.93	45.322	3.9753e-06	56.186	0.00059913	0.00067908	0.00018565	1497.2	7.2731e-06	7.3907e-06	1500.1	401.76	7.2648e-06	7.3894e-06	457.13	154.79	135.25	46.311	7.4295e-06	57.301	203.272	69.152	51.543	-29.318	129.812	130.379	-29.470	-24.943	161.290	53.323	-25.560	-20.828	-20.445	-16.172	102.817	-17.118	-8191	255	
39636.656	1	1	0	0	0.11384	0.062217	0.1551	0.13618	0.33358	0.15157	0.23421	0.13978	0.082957	0.15659	0.052736	0.17009	0.27927	0.2002	0.085368	0.17127	-2.075	-2.6833	-2.5271	-2.5312	-2.7521	-2.3792	-2.9521	-2.7479	-2.4	-2.7396	-2.6042	-2.5979	-2.9396	-2.4604	-2.6917	-2.7562	271.033	264.564	186.040	281.100	125.242	124.816	243.976	231.172	10.627	114.105	61.422	311.033	296.921	251.988	25.185	17.786	0.00015756	0.00051969	0.00013234	1483.6	4.6772e-06	6.766e-06	1479.6	396.13	3.0677e-06	5.6673e-06	451.92	150.24	131.8	44.995	8.8254e-06	56.009	0.0006134	0.00068304	0.00018961	1497.1	7.3285e-06	7.2898e-06	1497	402.03	7.235e-06	7.5446e-06	457.67	154.48	135.18	46.299	7.4062e-06	57.212	200.292	50.915	39.048	-29.723	117.036	84.624	-29.557	-24.809	127.660	96.004	-25.515	-20.664	-20.317	-16.256	164.439	-16.854	-8191	255	
39636.754	1	1	0	0	0.098133	0.098903	0.077449	0.2256	0.24628	0.1406	0.11447	0.10671	0.33441	0.19799	0.07587	0.15872	0.1773	0.13155	0.25838	0.077031	-2.0667	-2.725	-2.6167	-2.4437	-2.675	-2.5917	-2.7625	-2.8417	-2.3854	-2.8646	-2.6583	-2.4688	-2.7896	-2.4625	-2.5312	-2.7958	-42.691	-35.766	50.822	273.503	284.961	-37.756	223.902	300.419	130.037	250.888	134.592	25.421	291.100	286.703	126.388	208.341	0.00018996	0.00040022	0.00018245	1483.6	4.8881e-06	7.0062e-06	1481.4	395.98	3.4041e-06	3.9788e-06	451.96	151.24	131.93	45.153	4.8112e-06	56.244	0.00061045	0.00067392	0.0001905	1495.9	7.2773e-06	7.3762e-06	1497.2	401.53	7.3609e-06	7.5101e-06	458.02	154.82	135.32	46.352	7.4559e-06	57.251	211.526	3.002	66.797	-29.625	121.857	70.395	-29.678	-24.970	171.107	116.637	-25.733	-20.563	-20.367	-16.216	131.913	-16.883	-8191	255	
39636.848	1	1	0	0	0.021147	0.25166	0.33612	0.14442	0.14605	0.10146	0.33182	0.098195	0.093677	0.071321	0.090597	0.18107	0.12356	0.29116	0.1117	0.12587	-1.9813	-2.7417	-2.6	-2.5646	-2.7896	-2.525	-2.6292	-3.0125	-2.4521	-2.6875	-2.7729	-2.5479	-2.8771	-2.6708	-2.5875	-2.925	-4.584	26.744	210.347	-13.177	280.463	64.361	251.783	129.348	119.481	39.199	237.563	239.588	-3.314	270.585	100.627	237.976	0.0001763	0.00066704	0.00018008	1482.4	5.6256e-06	8.5878e-06	1483.3	395.48	4.6505e-06	5.5704e-06	450.22	151.46	132.01	45.183	6.7889e-06	56.184	0.0006229	0.00068606	0.00019262	1498	7.4566e-06	7.4759e-06	1499.2	401.63	7.4276e-06	7.5925e-06	457.25	154.9	135.48	46.374	7.3223e-06	57.307	185.832	50.922	10.066	-29.809	131.257	102.759	-29.478	-24.937	137.430	112.687	-25.521	-20.856	-20.352	-16.126	101.925	-17.059	-8191	255	
39636.945	1	1	0	0	0.25052	0.16673	0.17119	0.20338	0.19865	0.13745	0.14043	0.10355	0.12693	0.11118	0.40031	0.32874	0.30695	0.36586	0.24526	0.11529	-1.9979	-2.5583	-2.6896	-2.475	-2.675	-2.5667	-2.7938	-2.9938	-2.6854	-2.5583	-2.7229	-2.525	-3.0062	-2.9083	-2.5687	-2.8438	23.188	265.555	88.188	293.930	113.203	16.107	272.537	-12.783	298.907	302.707	-16.840	-14.888	-22.735	23.742	195.029	-20.103	0.00016496	0.00059133	0.00018295	1487.7	6.1831e-06	3.4059e-06	1487.1	394.79	2.9707e-06	4.1516e-06	450.76	150.74	132.39	45.226	4.9484e-06	56.22	0.00061485	0.00067113	0.00019014	1500.7	7.5018e-06	7.5374e-06	1499.4	401.79	7.4467e-06	7.5384e-06	457.98	154.64	135.31	46.34	7.4409e-06	57.325	201.242	39.819	36.644	-29.855	130.919	142.495	-29.454	-24.933	173.808	109.625	-25.727	-20.570	-20.348	-15.983	137.429	-16.840	-8191	255	
39637.039	1	1	0	0	0.30963	0.26854	0.094546	0.35856	0.14007	0.2312	0.27995	0.089377	0.086384	0.18258	0.17458	0.13681	0.14317	0.11898	0.029674	0.039628	-1.8875	-2.525	-2.7875	-2.6458	-2.6208	-2.6542	-2.7687	-2.9	-2.4729	-2.6896	-2.9521	-2.4958	-2.9021	-2.7229	-2.4583	-2.9042	69.204	1.854	133.386	145.433	297.473	249.660	285.418	263.924	136.625	257.018	192.949	297.057	194.836	255.278	228.079	273.550	0.00019662	0.00058547	0.00010036	1476.8	2.6104e-06	6.8404e-06	1487.9	396.19	3.1203e-06	4.846e-06	450.77	150.78	131.96	45.156	5.5238e-06	56.248	0.00061318	0.00069021	0.00019227	1496.5	7.3518e-06	7.4353e-06	1500.3	402.21	7.403e-06	7.5637e-06	457.81	154.65	135.26	46.324	7.5166e-06	57.248	202.417	33.258	28.007	-29.780	120.087	111.383	-29.371	-24.812	149.267	114.850	-25.519	-20.707	-20.363	-16.263	164.337	-17.024	-8191	255	
39637.137	1	1	0	0	0.30307	0.035388	0.1333	0.11805	0.17703	0.17596	0.15315	0.084995	0.27369	0.18112	0.16524	0.18083	0.16358	0.05747	0.1218	0.33148	-2.1688	-2.5312	-2.7208	-2.5729	-2.7229	-2.7375	-2.6771	-2.8021	-2.7542	-2.6104	-2.9437	-2.4146	-2.9125	-2.7521	-2.4688	-2.875	144.388	-21.818	6.648	30.139	-14.505	292.206	282.768	239.384	150.412	76.880	82.054	186.512	-42.360	267.009	116.400	234.814	0.0001805	0.00062689	6.3104e-05	1483.1	6.0225e-06	6.7361e-06	1481.4	395.57	2.4884e-06	5.8316e-06	450.8	150.22	132.13	45.196	3.1845e-06	56.038	0.00061737	0.00069631	0.00019148	1497.1	7.5532e-06	7.5963e-06	1496.5	402.39	7.4312e-06	7.6184e-06	457.71	154.57	135.28	46.299	7.378e-06	57.187	202.374	66.708	65.309	-29.999	123.202	92.490	-29.501	-24.884	186.569	89.843	-25.687	-20.804	-20.394	-16.135	151.777	-16.613	-8191	255	
39637.258	1	1	0	0	0.11992	0.1154	0.11137	0.30452	0.14973	0.1568	0.33056	0.2748	0.20676	0.30191	0.22101	0.20913	0.21992	0.21059	0.084503	0.11568	-2.275	-2.4583	-2.7542	-2.4375	-2.6813	-2.8396	-2.7938	-2.9542	-2.6104	-2.5125	-2.9938	-2.5812	-2.7646	-2.7625	-2.4083	-2.8417	170.303	119.537	89.185	268.934	120.048	240.620	265.558	255.989	161.640	150.521	294.696	22.275	295.145	188.784	80.146	267.706	0.00017031	0.00070814	0.00013958	1486	3.4434e-06	4.4774e-06	1491.2	395.14	1.0751e-06	7.2078e-06	452.02	150.6	132.2	45.252	5.3956e-06	56.001	0.00059962	0.00068427	0.00018539	1497.6	7.3252e-06	7.4397e-06	1498.3	401.77	7.3045e-06	7.3166e-06	458.53	154.84	135.34	46.32	7.2115e-06	57.179	193.817	54.233	30.918	-30.031	138.461	122.135	-29.713	-24.981	241.363	89.105	-25.363	-20.604	-20.388	-16.002	125.941	-16.752	-8191	255	
39637.355	1	1	0	0	0.16336	0.1892	0.14219	0.30183	0.21297	0.34706	0.13641	0.43677	0.17964	0.12446	0.13715	0.22704	0.23232	0.19961	0.24303	0.10597	-2.3021	-2.4896	-2.6917	-2.4833	-2.5354	-2.7521	-2.6667	-2.9	-2.6813	-2.4854	-2.9021	-2.6208	-2.8125	-2.9188	-2.4583	-2.7062	14.555	207.112	307.356	-5.350	260.807	296.660	226.103	257.357	162.725	279.702	-4.405	279.247	311.193	-29.753	309.965	56.080	0.00017019	0.0007225	0.00017092	1477.4	3.2935e-06	5.098e-06	1487	395.26	1.9186e-06	6.4946e-06	451.7	150.66	132.07	45.329	5.0412e-06	56.099	0.0006132	0.00067113	0.00018614	1495.2	7.4224e-06	7.2563e-06	1497.6	402.04	7.2373e-06	7.4165e-06	457.93	154.79	135.34	46.414	7.2547e-06	57.23	200.431	71.191	33.395	-29.950	136.120	98.248	-29.611	-24.975	146.163	121.266	-25.677	-20.725	-20.468	-16.004	135.404	-17.076	-8191	255	
39637.449	1	1	0	0	0.12627	0.047672	0.25042	0.18257	0.18978	0.075321	0.27142	0.10647	0.050252	0.17991	0.3135	0.27019	0.10827	0.22374	0.14191	0.17644	-2.1688	-2.45	-2.7	-2.5583	-2.7958	-2.9167	-2.7625	-2.6	-2.6708	-2.3979	-2.825	-2.7479	-2.7562	-2.8146	-2.3896	-2.7313	106.516	268.856	83.021	-13.890	158.650	101.652	276.589	199.823	276.417	-23.068	257.986	-23.993	22.011	-28.842	176.294	301.077	0.00019477	0.00051475	0.0001921	1478.6	5.2003e-06	5.3009e-06	1486.6	394.69	3.3283e-06	3.1673e-06	450.59	150.46	132.03	44.97	1.1773e-06	55.947	0.00060158	0.00067108	0.00018652	1496.9	7.3337e-06	7.2252e-06	1497.9	401.78	7.3249e-06	7.1919e-06	457.84	154.4	135.11	46.275	7.3675e-06	57.267	207.002	22.956	76.749	-29.263	79.357	117.205	-29.642	-24.640	144.889	117.849	-25.703	-20.692	-20.355	-16.157	116.760	-16.844	-8191	255	
39637.543	1	1	0	0	0.10011	0.06333	0.11662	0.22386	0.014909	0.018696	0.40365	0.24141	0.15781	0.20415	0.017857	0.23073	0.29438	0.27552	0.15099	0.033487	-2.2125	-2.4125	-2.7542	-2.65	-2.5708	-2.8417	-2.6521	-2.6167	-2.6292	-2.6083	-3.0042	-2.7771	-2.7375	-2.6771	-2.3979	-2.6417	51.751	59.328	118.121	291.719	295.021	217.049	277.027	-37.822	213.881	13.522	290.417	286.817	314.273	315.172	209.939	259.498	0.00020659	0.00064024	0.00021509	1482	3.9287e-06	3.3744e-06	1485.5	394.54	3.5468e-06	5.9823e-06	451.19	150.07	132.24	45.291	2.0551e-06	56.139	0.00060242	0.00066601	0.00018457	1498.2	7.1865e-06	7.2845e-06	1498.1	401.74	7.2183e-06	7.2794e-06	458.02	154.42	135.38	46.416	7.4202e-06	57.271	207.878	44.057	43.590	-29.728	97.539	88.183	-29.590	-24.995	169.162	124.403	-25.584	-20.752	-20.298	-16.125	125.590	-16.906	-8191	255	
39637.641	1	1	0	0	0.23619	0.040502	0.22251	0.22937	0.52135	0.15284	0.14696	0.089918	0.13362	0.15152	0.099616	0.1194	0.16439	0.088916	0.080907	0.15696	-2.3667	-2.575	-2.7687	-2.6792	-2.3438	-2.7396	-2.8563	-2.8688	-2.8667	-2.5229	-2.8312	-2.8146	-2.5187	-2.7604	-2.375	-2.7333	82.703	129.072	201.972	300.394	278.789	130.887	291.618	299.828	155.350	174.860	251.490	22.054	273.643	-34.449	169.177	262.044	0.00022111	0.0005155	0.00022423	1483.7	5.1965e-06	2.6163e-06	1483.4	395.38	2.1527e-06	5.7107e-06	451.09	150.81	132.33	45.068	2.9514e-06	56.081	0.0005961	0.00066402	0.00018941	1496.2	7.3376e-06	7.2891e-06	1495.6	401.44	7.2878e-06	7.3628e-06	457.41	154.54	135.35	46.304	7.2773e-06	57.267	203.266	12.398	40.347	-29.653	126.569	155.044	-29.571	-24.859	140.529	111.653	-25.720	-20.605	-20.512	-16.394	96.988	-16.868	-8191	255	
39637.738	1	1	0	0	0.078759	0.14406	0.11829	0.33697	0.16668	0.2078	0.36456	0.32984	0.12976	0.13493	0.11808	0.15716	0.15368	0.097783	0.21966	0.11388	-2.5	-2.5104	-2.7021	-2.9062	-2.3833	-2.9375	-2.8625	-2.6937	-2.7438	-2.4208	-2.7458	-2.9167	-2.5146	-2.9167	-2.5917	-2.4604	84.419	-23.971	158.362	-21.644	310.470	101.853	270.353	283.340	149.486	61.693	285.817	263.520	282.529	224.073	255.632	165.290	0.00012114	0.0010518	0.00015625	1484.4	4.0063e-06	7.3493e-06	1490.5	396.94	3.2349e-06	5.375e-06	451.54	150.59	132.02	45.197	2.4121e-06	56.139	0.00059741	0.00067171	0.00018515	1498.1	7.2552e-06	7.2179e-06	1498.8	402.26	7.331e-06	7.3156e-06	458.34	154.69	135.16	46.408	7.2801e-06	57.253	201.425	47.122	49.619	-29.740	85.276	129.556	-29.751	-24.842	174.102	135.896	-25.452	-20.645	-20.434	-16.157	148.152	-16.990	-8191	255	
39637.832	1	1	0	0	0.079423	0.085276	0.11315	0.28681	0.20447	0.23807	0.14568	0.34707	0.028972	0.18639	0.22821	0.11874	0.20402	0.054207	0.17936	0.09737	-2.3	-2.5104	-2.7	-2.6437	-2.4354	-2.7271	-2.8167	-2.6917	-2.6813	-2.5896	-2.8229	-2.6875	-2.4271	-2.8146	-2.7062	-2.5	165.871	171.119	-12.946	293.565	215.376	-5.401	278.784	306.361	130.619	221.582	273.177	303.448	297.541	251.305	179.471	258.563	0.00019387	5.932e-05	0.00014616	1475.4	5.4026e-06	3.23e-06	1489.1	395.44	2.1153e-06	4.4068e-06	451.91	150.86	132.67	45.264	4.4406e-06	56.23	0.00061518	0.00067465	0.00019021	1494.4	7.2738e-06	7.4105e-06	1500.6	401.95	7.4367e-06	7.5062e-06	458.12	154.97	135.54	46.361	7.3126e-06	57.326	203.111	-6.046	28.719	-29.769	124.715	155.282	-29.470	-24.916	144.813	113.713	-25.787	-20.629	-20.412	-16.321	100.516	-16.837	-8191	255	
39637.930	1	1	0	0	0.144	0.19598	0.11034	0.26025	0.040487	0.1414	0.1804	0.10374	0.24168	0.29777	0.075958	0.29035	0.29677	0.1725	0.16577	0.085391	-2.4021	-2.4688	-2.4792	-2.9104	-2.3875	-2.6813	-2.8792	-2.4771	-2.6979	-2.5479	-2.6979	-3.0292	-2.6688	-2.6896	-2.5771	-2.6479	285.415	115.193	290.590	245.391	38.477	238.554	-41.580	-33.135	313.830	217.655	-14.672	254.541	-34.624	-18.897	78.813	144.793	0.00015568	0.00064011	0.00010533	1481.2	6.5524e-06	5.328e-06	1487.9	394.9	4.3198e-06	9.3157e-06	453.32	151.12	132.78	45.223	3.9698e-06	55.737	0.00060156	0.00066838	0.00018973	1494.7	7.1542e-06	7.2428e-06	1498.3	401.75	7.2971e-06	7.4202e-06	458.36	154.75	135.54	46.394	7.2667e-06	57.147	193.345	48.322	20.568	-30.025	166.748	118.510	-29.531	-24.813	156.035	124.628	-25.575	-20.450	-20.309	-16.198	150.706	-16.918	-8191	255	
39638.051	1	1	0	0	0.097411	0.2244	0.064099	0.014838	0.17832	0.12672	0.26075	0.25213	0.086227	0.12532	0.163	0.38324	0.14592	0.23007	0.16704	0.14166	-2.2771	-2.5229	-2.3896	-2.6937	-2.5271	-2.8563	-2.8792	-2.7417	-2.7396	-2.5354	-2.5083	-2.9437	-2.4729	-2.7625	-2.6229	-2.4792	9.150	55.465	141.786	86.186	146.818	41.576	230.100	236.518	192.325	8.983	276.981	202.588	289.719	271.811	-37.676	305.314	0.0001775	0.00077274	0.00025799	1484.5	4.7895e-06	7.8303e-06	1484.8	395.54	1.2017e-06	7.1407e-06	451.92	150.63	131.83	45.107	3.113e-06	56.103	0.00061079	0.00066894	0.00018781	1496.8	7.2106e-06	7.4252e-06	1497.9	401.76	7.2993e-06	7.3466e-06	457.35	154.74	135.19	46.292	7.2841e-06	57.245	203.037	53.475	57.323	-29.862	123.107	61.525	-29.536	-24.832	133.563	91.610	-25.609	-20.663	-20.239	-16.157	116.502	-16.928	-8191	255	
39638.145	1	1	0	0	0.036347	0.28261	0.34541	0.069172	0.10632	0.13908	0.11761	0.14313	0.21336	0.19965	0.18338	0.18857	0.23397	0.13716	0.35718	0.35379	-2.3333	-2.575	-2.475	-2.7042	-2.6979	-2.6958	-2.9167	-2.5938	-2.7083	-2.8125	-2.5417	-2.8146	-2.6646	-2.7812	-2.8312	-2.3792	-11.544	316.836	131.071	16.422	153.717	278.021	231.803	-29.673	-38.674	-9.312	-18.464	254.802	241.679	306.787	301.588	220.470	0.00018473	0.00053668	8.6484e-05	1488.4	7.3888e-06	4.5669e-06	1485.6	395.54	6.2538e-07	2.5415e-06	449.76	151.14	132.02	45.154	7.8732e-06	56.062	0.00060221	0.00067719	0.00018495	1496.4	7.3381e-06	7.3931e-06	1498	401.72	7.3869e-06	7.364e-06	457.31	154.88	135.13	46.358	7.3773e-06	57.203	195.054	53.093	41.521	-29.387	118.673	122.574	-29.398	-25.082	178.645	121.898	-25.808	-20.652	-20.543	-16.183	158.070	-16.927	-8191	255	
39638.242	1	1	0	0	0.12865	0.20602	0.17258	0.15131	0.12636	0.13315	0.15374	0.20962	0.15835	0.31566	0.051157	0.29444	0.060953	0.3239	0.15304	0.1276	-2.0833	-2.6167	-2.2271	-2.9813	-2.6292	-2.5104	-3.0271	-2.7083	-2.7917	-2.7396	-2.6292	-2.9625	-2.7271	-2.7583	-2.8312	-2.7479	2.480	313.806	138.043	315.265	123.080	121.243	159.045	-23.144	191.068	18.185	200.433	-37.674	-7.171	256.763	183.832	256.702	0.00017463	0.00083047	0.00013231	1478	5.9084e-06	6.0475e-06	1496	394.21	2.8797e-06	4.4155e-06	451.58	150.93	131.78	45.198	5.2128e-06	56.13	0.00060728	0.00068129	0.00018846	1491.8	7.391e-06	7.4389e-06	1501.5	401.84	7.3011e-06	7.3815e-06	458.14	154.8	135.28	46.352	7.1221e-06	57.24	212.952	47.455	58.262	-29.606	89.897	94.802	-29.698	-24.893	136.782	125.560	-25.591	-20.946	-20.518	-16.091	130.433	-16.845	-8191	255	
39638.340	1	1	0	0	0.25405	0.23484	0.13395	0.10815	0.13578	0.10913	0.18865	0.15166	0.19009	0.040966	0.16915	0.22241	0.14511	0.049858	0.10658	0.33047	-2.2333	-2.7208	-2.5563	-2.8083	-2.5687	-2.6479	-2.9625	-2.6208	-2.7333	-2.8	-2.7708	-2.725	-2.6521	-2.5854	-2.7208	-2.5854	308.909	38.164	74.662	295.301	171.135	270.914	291.869	166.097	80.915	17.570	252.146	258.677	-19.841	198.816	222.136	296.164	0.00019274	0.0010029	0.00018644	1476.6	4.1378e-06	8.8986e-06	1487.1	396.03	5.2596e-07	9.5669e-06	451.97	151.01	131.46	45.339	6.1898e-06	55.86	0.00061662	0.0006748	0.00018678	1494.6	7.4268e-06	7.3991e-06	1499.8	402.14	7.3803e-06	7.4214e-06	458.04	154.77	135.17	46.388	7.4259e-06	57.137	209.420	49.225	19.413	-29.857	128.201	129.832	-29.454	-24.852	169.918	113.331	-25.567	-20.839	-20.370	-16.302	141.031	-17.054	-8191	255	
39638.434	1	1	0	0	0.27422	0.041727	0.074185	0.1268	0.25379	0.23648	0.20595	0.31591	0.24043	0.024112	0.123	0.35466	0.21401	0.33027	0.42519	0.04734	-2.0083	-2.7333	-2.3083	-2.8542	-2.6667	-2.5917	-2.9437	-2.75	-2.5687	-2.8021	-2.4417	-2.7333	-2.6208	-2.5917	-2.8083	-2.75	183.793	92.696	-18.542	-37.083	55.492	100.525	292.315	262.877	258.530	249.122	-35.456	27.150	43.384	276.622	204.257	198.777	0.00019213	0.00077979	0.00017496	1485.5	6.691e-06	2.9767e-06	1489	395.31	3.1871e-06	2.3837e-06	452.6	151.32	131.94	45.204	5.6817e-06	55.992	0.0006199	0.0006821	0.00018582	1496.5	7.3593e-06	7.3413e-06	1498.5	401.73	7.4283e-06	7.3696e-06	457.53	154.93	135.15	46.327	7.2794e-06	57.11	211.309	39.773	50.067	-29.815	135.030	94.099	-29.540	-24.964	167.920	66.339	-25.458	-20.662	-20.401	-16.289	124.231	-16.790	-8191	255	
39638.531	1	1	0	0	0.29708	0.089371	0.13729	0.19115	0.1378	0.16804	0.10836	0.23314	0.11582	0.13656	0.31223	0.06796	0.041614	0.26515	0.27773	0.27092	-2.0479	-2.8125	-2.4	-2.6813	-2.5812	-2.4437	-2.9771	-2.9146	-2.3625	-2.8604	-2.6646	-2.7438	-2.7812	-2.4771	-2.7313	-2.6979	23.451	175.031	15.776	237.574	264.477	118.601	290.484	284.657	142.811	57.415	293.403	294.592	-16.965	294.909	284.076	242.209	0.00019404	0.00048498	0.00017807	1485.1	6.4775e-06	5.369e-06	1485.8	394.33	2.6103e-06	5.1884e-06	449.54	150.6	131.74	45.347	3.1407e-06	56.081	0.00060184	0.00067432	0.00018327	1497.3	7.3252e-06	7.3975e-06	1497.4	401.55	7.2357e-06	7.2571e-06	457.09	154.59	134.98	46.41	7.4152e-06	57.203	207.147	59.599	45.015	-29.871	79.999	111.407	-29.579	-25.003	118.966	131.585	-25.565	-20.652	-20.365	-16.194	128.422	-17.249	-8191	255	
39638.648	1	1	0	0	0.28409	0.17272	0.076269	0.22182	0.10278	0.13716	0.4303	0.076581	0.0068679	0.024954	0.13496	0.041562	0.22488	0.21189	0.13063	0.31244	-1.9958	-2.7917	-2.3708	-2.6604	-2.6688	-2.35	-2.9062	-2.7604	-2.4	-2.6792	-2.4938	-2.5625	-2.8646	-2.5521	-2.7146	-2.7313	156.689	30.777	87.560	232.470	217.271	-16.257	227.386	-22.369	187.561	86.682	288.612	66.478	263.628	240.482	229.236	306.224	0.0001996	0.0006269	0.00011465	1487.8	3.3591e-06	6.0013e-06	1482.9	394.2	2.3582e-06	7.088e-06	450.99	150.93	132.1	45.138	6.6462e-06	56.155	0.0006072	0.00068332	0.00018846	1498.1	7.358e-06	7.3248e-06	1497.3	401.21	7.3298e-06	7.4156e-06	457.67	154.88	135.36	46.356	7.4977e-06	57.176	205.073	44.274	37.626	-29.809	80.000	78.407	-29.610	-25.027	148.365	140.917	-25.373	-20.525	-20.423	-16.147	127.314	-16.797	-8191	255	
39638.746	1	1	0	0	0.25364	0.12076	0.22495	0.13825	0.21419	0.1137	0.18068	0.18415	0.088724	0.023258	0.18296	0.19257	0.19042	0.07571	0.17088	0.22786	-2.0833	-2.6646	-2.4604	-2.4917	-2.7042	-2.3021	-3.0167	-2.8229	-2.5563	-2.5021	-2.675	-2.8	-2.9667	-2.5583	-2.7938	-2.8917	174.023	70.254	66.133	183.481	210.408	-40.438	215.384	277.635	-19.091	274.403	12.222	310.003	-1.501	192.093	145.192	308.304	0.00021813	0.00042832	0.00017397	1484.3	2.802e-06	5.7347e-06	1485	395.41	2.5856e-06	7.0302e-06	452.47	150.98	132.13	45.211	6.0436e-06	56.02	0.00059999	0.00068171	0.00019267	1495.6	7.463e-06	7.3188e-06	1498.7	402.09	7.2506e-06	7.4638e-06	457.72	154.57	135.33	46.314	7.5243e-06	57.148	196.455	25.683	54.001	-29.637	139.667	88.781	-29.584	-24.886	123.963	142.028	-25.596	-20.749	-20.348	-16.404	149.761	-16.810	-8191	255	
39638.816	1	1	0	0	0.13303	0.28446	0.072081	0.23086	0.053954	0.091602	0.16984	0.40668	0.11311	0.23051	0.08791	0.26583	0.18534	0.22947	0.09087	0.16863	-2.1083	-2.7438	-2.4771	-2.6625	-2.5521	-2.4375	-2.8958	-3.0021	-2.3646	-2.65	-2.7646	-2.6979	-3.0187	-2.7792	-2.5708	-2.8167	61.023	95.284	70.766	65.817	-13.487	311.872	229.737	307.152	30.217	58.623	19.486	309.744	287.150	303.700	291.266	260.209	0.00019082	0.00066718	0.00018798	1483.3	2.5569e-06	5.1575e-06	1483.7	394.92	2.0781e-06	7.7074e-06	451.53	151.09	131.94	45.167	5.8791e-06	56.009	0.00060836	0.00069068	0.00019308	1495.3	7.4829e-06	7.3837e-06	1498.7	401.65	7.3367e-06	7.4017e-06	457.86	154.82	135.03	46.296	7.6275e-06	57.192	199.605	37.734	24.696	-29.758	101.675	90.106	-29.524	-24.958	136.386	132.481	-25.692	-20.401	-20.379	-16.180	134.310	-17.158	-8191	255	
39638.938	1	1	0	0	0.26915	0.20352	0.14943	0.16643	0.2052	0.1636	0.28908	0.17708	0.17423	0.12468	0.19956	0.078993	0.27648	0.13202	0.11769	0.30012	-1.9229	-2.6958	-2.4938	-2.4271	-2.7542	-2.3104	-2.7917	-2.8563	-2.4708	-2.6688	-2.6104	-2.5021	-2.8167	-2.5958	-2.5375	-2.9313	90.656	-24.510	247.994	253.225	-40.906	289.364	242.596	151.930	152.998	237.819	10.359	301.468	-36.649	26.836	83.862	289.725	0.00019745	0.00096345	0.00019985	1479.6	4.5655e-06	6.0865e-06	1488.6	394.86	3.6539e-06	4.8152e-06	450.85	150.86	131.56	45.188	4.5367e-06	56.103	0.00061894	0.00068514	0.00019066	1496.9	7.3771e-06	7.4018e-06	1499.2	401.38	7.3851e-06	7.4446e-06	457.82	154.8	135.06	46.356	7.4157e-06	57.216	204.687	57.102	38.377	-29.978	141.668	98.094	-29.580	-24.814	129.138	141.088	-25.630	-20.348	-20.568	-15.986	119.022	-16.808	-8191	255	
39639.035	1	1	0	0	0.12838	0.1228	0.053461	0.18795	0.095416	0.1318	0.14054	0.25718	0.20219	0.33127	0.11874	0.12394	0.16144	0.026689	0.26133	0.081632	-1.9271	-2.6354	-2.7333	-2.45	-2.6708	-2.3417	-2.6146	-2.9146	-2.4354	-2.6	-2.7208	-2.6021	-2.6792	-2.7479	-2.3646	-2.8312	-12.699	-32.001	-12.570	-9.499	276.742	234.890	266.828	309.908	-32.351	177.738	-37.458	61.585	105.874	271.673	244.337	215.766	0.00018795	0.00048626	0.00014979	1486.5	3.1134e-06	7.8605e-06	1487.9	397.39	1.4808e-06	7.9055e-06	449.4	150.97	131.83	45.291	2.6217e-06	55.613	0.00061064	0.00068436	0.00018713	1501	7.4638e-06	7.5041e-06	1498.8	402.1	7.3211e-06	7.4611e-06	457.54	154.65	135.23	46.351	7.3957e-06	57.008	197.604	61.010	44.021	-29.748	151.247	89.754	-29.641	-25.029	163.067	139.348	-25.730	-20.776	-20.486	-16.276	160.578	-16.850	-8191	255	
39639.129	1	1	0	0	0.14339	0.22343	0.12968	0.058548	0.17022	0.16244	0.3102	0.012508	0.29163	0.096767	0.11257	0.23951	0.19784	0.16641	0.20481	0.2635	-2.0687	-2.5771	-2.5604	-2.6604	-2.8063	-2.6625	-2.6854	-2.8187	-2.4896	-2.6479	-2.8479	-2.3333	-2.8271	-2.6542	-2.4333	-2.7167	96.987	189.159	51.264	91.298	194.921	303.104	-40.194	162.007	-6.204	94.672	-15.808	285.044	-1.308	306.519	211.146	261.270	0.00021466	0.00036843	0.0001766	1474.8	5.5362e-06	4.4201e-06	1486	393.64	4.3476e-06	1.0284e-05	450.46	151.12	131.99	45.213	4.5771e-06	55.876	0.0006087	0.00068408	0.00018348	1495	7.293e-06	7.3232e-06	1500.1	401.66	7.3088e-06	7.4197e-06	457.32	154.82	135.25	46.266	7.2884e-06	57.064	188.578	17.038	36.758	-29.718	126.429	140.413	-29.582	-24.877	161.813	128.171	-25.326	-20.641	-20.330	-16.196	113.766	-16.765	-8191	255	
39639.227	1	1	0	0	0.13408	0.22434	0.1527	0.068281	0.2479	0.095272	0.36958	0.042719	0.087216	0.17731	0.18785	0.23329	0.1777	0.28359	0.27539	0.14665	-2.0333	-2.3771	-2.7271	-2.3125	-2.6979	-2.5271	-2.6292	-2.9667	-2.5125	-2.6521	-2.9854	-2.6813	-2.8542	-2.6792	-2.4188	-2.7896	-28.673	260.010	265.926	299.829	152.064	286.607	258.308	141.840	198.539	199.769	250.246	252.367	-23.341	277.454	-21.206	165.874	0.00017543	0.00076255	5.6652e-05	1476.6	4.8137e-06	4.0502e-06	1488.1	395.32	2.3792e-06	4.5069e-06	452.19	150.87	131.67	45.108	6.1835e-06	55.78	0.00059856	0.00066676	0.00018152	1494.1	7.3136e-06	7.2418e-06	1498.8	401.63	7.2503e-06	7.4007e-06	457.22	154.55	135.04	46.287	7.3235e-06	57.074	203.880	65.637	-12.734	-29.788	103.732	77.089	-29.688	-24.970	71.598	100.650	-25.691	-20.710	-20.448	-16.248	112.352	-16.724	-8191	255	
39639.348	1	1	0	0	0.1241	0.24422	0.1071	0.043418	0.25555	0.21468	0.49466	0.13906	0.2638	0.10606	0.12477	0.27504	0.11935	0.38858	0.14048	0.23257	-2.1875	-2.3917	-2.8125	-2.525	-2.8	-2.5521	-2.6417	-2.6521	-2.7271	-2.6125	-3.1104	-2.4479	-2.5979	-2.6833	-2.4854	-2.6792	186.289	277.456	-6.569	220.409	220.873	227.918	278.009	-29.376	71.553	-2.745	247.347	238.086	213.617	-34.009	-17.621	311.418	0.00017695	0.00044043	0.00014147	1480.7	5.9977e-06	4.5206e-06	1483.6	396.04	3.8287e-06	4.5075e-06	452.52	150.82	131.61	45.069	4.2845e-06	56.124	0.00060562	0.00066993	0.0001814	1495	7.2011e-06	7.3043e-06	1496.8	401.72	7.169e-06	7.2176e-06	457.64	154.47	134.94	46.19	7.0019e-06	57.15	205.466	4.183	61.860	-29.637	139.007	109.970	-29.532	-24.996	154.835	117.939	-25.714	-20.623	-20.299	-16.310	145.537	-17.154	-8191	255	
39639.441	1	1	0	0	0.14631	0.076857	0.15726	0.14728	0.31393	0.1924	0.43336	0.27308	0.12311	0.11707	0.12856	0.21432	0.22772	0.25054	0.21655	0.19636	-2.05	-2.4229	-2.7417	-2.6479	-2.4271	-2.8833	-2.7417	-2.8875	-2.5167	-2.3438	-3.0187	-2.7438	-2.5854	-2.8937	-2.5438	-2.7687	24.407	96.269	118.719	-29.948	177.147	64.028	283.400	251.889	124.332	60.600	298.316	294.696	303.148	1.739	3.958	315.625	0.0002165	0.0006013	0.00016915	1481.2	3.4745e-06	1.0458e-05	1481.2	394.21	3.378e-06	5.8534e-06	450.99	150.46	132.12	45.021	6.4838e-06	56.205	0.0005925	0.00066002	0.00018292	1494.4	7.1611e-06	7.1202e-06	1495.9	400.93	7.1576e-06	7.132e-06	456.81	154.42	135.09	46.234	7.2399e-06	57.178	209.659	41.972	53.257	-29.797	127.452	109.215	-29.496	-25.027	160.365	133.253	-25.389	-20.522	-20.557	-16.199	128.365	-16.904	-8191	255	
39639.516	1	1	0	0	0.086546	0.16717	0.16449	0.0996	0.11219	0.21101	0.1375	0.18544	0.1768	0.16436	0.1455	0.025554	0.22833	0.17896	0.14502	0.23969	-2.1021	-2.4333	-2.6146	-2.5812	-2.4396	-2.6542	-2.6792	-2.875	-2.7354	-2.5687	-2.9292	-2.6729	-2.6208	-2.8563	-2.5292	-2.7708	247.258	152.499	23.157	297.702	236.414	88.685	268.360	283.689	156.057	71.451	247.593	185.180	286.042	214.198	32.454	270.990	0.00018168	0.00061355	6.1161e-05	1472.4	6.3705e-06	8.0034e-06	1488.9	394.29	3.5826e-06	4.5646e-06	451.54	150.87	131.8	44.981	5.9242e-06	56.102	0.00059486	0.00065596	0.000178	1490.7	7.0551e-06	6.9445e-06	1498	401.05	7.1013e-06	7.2512e-06	457.05	154.43	135.05	46.217	7.211e-06	57.103	206.181	12.440	61.526	-29.694	98.228	104.629	-29.429	-24.832	126.799	105.330	-25.577	-20.517	-20.547	-16.435	123.887	-16.859	-8191	255	
39639.609	1	1	0	0	0.19126	0.077014	0.16598	0.12868	0.088173	0.10066	0.23061	0.1498	0.15704	0.3201	0.026077	0.014452	0.20592	0.089816	0.11288	0.27784	-2.2521	-2.4125	-2.6937	-2.4417	-2.3958	-2.9313	-2.6813	-2.7917	-2.9437	-2.5687	-2.8271	-2.7438	-2.7625	-2.9208	-2.5708	-2.7417	125.639	206.950	173.536	195.202	224.207	115.575	244.917	311.495	103.270	-12.933	39.971	-28.556	302.706	146.849	27.254	114.864	0.0002311	0.00073948	0.00023094	1485.2	5.846e-06	6.627e-06	1481.3	394.49	1.7296e-06	7.9121e-06	450.09	150.41	132.11	45.071	3.873e-06	55.976	0.00059337	0.00065966	0.00018169	1494.6	7.1421e-06	7.2988e-06	1493.9	401.33	7.1652e-06	7.1394e-06	456.73	154.33	135.02	46.215	7.1984e-06	57.134	198.853	33.512	45.027	-29.781	112.252	121.965	-29.676	-24.908	153.157	126.807	-25.681	-20.896	-20.316	-16.319	131.286	-17.048	-8191	255	
39639.730	1	1	0	0	0.31553	0.072168	0.025347	0.26052	0.081663	0.086166	0.48958	0.34139	0.11218	0.19552	0.095864	0.11689	0.1526	0.2507	0.18558	0.25248	-2.2854	-2.3958	-2.7438	-2.5292	-2.3667	-2.9646	-2.7333	-2.7354	-2.6646	-2.4313	-2.8375	-2.7708	-2.4854	-2.8417	-2.4708	-2.6229	49.339	132.735	39.831	192.911	24.825	141.158	237.055	216.446	-21.530	59.584	-41.931	10.891	268.571	287.370	268.071	-3.933	0.00016909	0.00044329	0.00014659	1472.3	4.7175e-06	3.9311e-06	1480.1	394.78	2.6009e-06	5.3145e-06	452.39	150.72	131.45	44.899	4.4707e-06	55.767	0.00059334	0.00065312	0.0001817	1487.7	7.1225e-06	7.2088e-06	1493.9	400.7	7.0975e-06	7.1687e-06	456.9	154.56	134.59	46.205	7.0549e-06	57.026	203.169	52.895	28.638	-29.695	149.852	165.269	-29.535	-24.812	165.912	143.825	-25.559	-20.726	-20.424	-16.095	138.318	-17.051	-8191	255	
#DATA ENDS
