BOXY.EXE: ISS Imagent and Oximeter Data Acquisition Program Version 0.80
Ascii Record File

#ACQ INFORMATION
2  Detector Channels 
16  External MUX Channels 
1  Auxiliary Channels 
5000  Waveform (CCF) Frequency (Hz)
1  Waveforms Skipped 
30  Waveforms Averaged 
1  Cycles Averaged 
16  Acquisitions per Waveform 
10.0806  Updata Rate (Hz) 

#FILE INFORMATION
TRUE -- External MUX Channel results are PARSED.
FALSE -- AC DC and Phase are NOT grouped.
TRUE -- Companion Program Settings File CREATED.
FALSE -- AC data not excluded
FALSE -- DC data not excluded
FALSE -- Phase data not excluded
FALSE -- Auxillary Chn. data not excluded
Tab delimiters

#CALIBRATION STATE
TRUE -- Waveform Calibration Values APPLIED.


#AUX CALIBRATION VALUES
Val Type	aux-1	

Term	1.0000e+00	
Factor	0.0000e+00	


#WF CALIBRATION VALUES
A = Detector Channel
Val Type	A-AC1	A-AC2	A-AC3	A-AC4	A-AC5	A-AC6	A-AC7	A-AC8	A-AC9	A-AC10	A-AC11	A-AC12	A-AC13	A-AC14	A-AC15	A-AC16	A-DC1	A-DC2	A-DC3	A-DC4	A-DC5	A-DC6	A-DC7	A-DC8	A-DC9	A-DC10	A-DC11	A-DC12	A-DC13	A-DC14	A-DC15	A-DC16	A-Ph1	A-Ph2	A-Ph3	A-Ph4	A-Ph5	A-Ph6	A-Ph7	A-Ph8	A-Ph9	A-Ph10	A-Ph11	A-Ph12	A-Ph13	A-Ph14	A-Ph15	A-Ph16	

Term	0.00000e+00	0.00000e+00	0.00000e+00	0.00000e+00	0.00000e+00	0.00000e+00	0.00000e+00	0.00000e+00	0.00000e+00	0.00000e+00	0.00000e+00	0.00000e+00	0.00000e+00	0.00000e+00	0.00000e+00	0.00000e+00	0.00000e+00	0.00000e+00	0.00000e+00	0.00000e+00	0.00000e+00	0.00000e+00	0.00000e+00	0.00000e+00	0.00000e+00	0.00000e+00	0.00000e+00	0.00000e+00	0.00000e+00	0.00000e+00	0.00000e+00	0.00000e+00	0.00000e+00	0.00000e+00	0.00000e+00	0.00000e+00	0.00000e+00	0.00000e+00	0.00000e+00	0.00000e+00	0.00000e+00	0.00000e+00	0.00000e+00	0.00000e+00	0.00000e+00	0.00000e+00	0.00000e+00	0.00000e+00	
Factor	1.00000e+00	1.00000e+00	1.00000e+00	1.00000e+00	1.00000e+00	1.00000e+00	1.00000e+00	1.00000e+00	1.00000e+00	1.00000e+00	1.00000e+00	1.00000e+00	1.00000e+00	1.00000e+00	1.00000e+00	1.00000e+00	1.00000e+00	1.00000e+00	1.00000e+00	1.00000e+00	1.00000e+00	1.00000e+00	1.00000e+00	1.00000e+00	1.00000e+00	1.00000e+00	1.00000e+00	1.00000e+00	1.00000e+00	1.00000e+00	1.00000e+00	1.00000e+00	X	X	X	X	X	X	X	X	X	X	X	X	X	X	X	X	

B = Detector Channel
Val Type	B-AC1	B-AC2	B-AC3	B-AC4	B-AC5	B-AC6	B-AC7	B-AC8	B-AC9	B-AC10	B-AC11	B-AC12	B-AC13	B-AC14	B-AC15	B-AC16	B-DC1	B-DC2	B-DC3	B-DC4	B-DC5	B-DC6	B-DC7	B-DC8	B-DC9	B-DC10	B-DC11	B-DC12	B-DC13	B-DC14	B-DC15	B-DC16	B-Ph1	B-Ph2	B-Ph3	B-Ph4	B-Ph5	B-Ph6	B-Ph7	B-Ph8	B-Ph9	B-Ph10	B-Ph11	B-Ph12	B-Ph13	B-Ph14	B-Ph15	B-Ph16	

Term	0.00000e+00	0.00000e+00	0.00000e+00	0.00000e+00	0.00000e+00	0.00000e+00	0.00000e+00	0.00000e+00	0.00000e+00	0.00000e+00	0.00000e+00	0.00000e+00	0.00000e+00	0.00000e+00	0.00000e+00	0.00000e+00	0.00000e+00	0.00000e+00	0.00000e+00	0.00000e+00	0.00000e+00	0.00000e+00	0.00000e+00	0.00000e+00	0.00000e+00	0.00000e+00	0.00000e+00	0.00000e+00	0.00000e+00	0.00000e+00	0.00000e+00	0.00000e+00	-6.63820e+01	-1.32221e+02	-1.32598e+02	-1.82128e+02	-5.54045e+01	-6.81716e+01	-1.55839e+02	-1.62015e+02	-4.79085e+01	-6.04191e+01	-1.71365e+02	-1.71126e+02	-1.82066e+02	-1.77488e+02	-4.97492e+01	-1.50542e+02	
Factor	1.73107e-05	1.54295e-04	4.51476e-05	4.38225e-01	1.60551e-06	1.62400e-06	1.61763e-01	5.30960e-02	1.05840e-06	1.60533e-06	8.42355e-02	2.85716e-02	2.33515e-02	8.60720e-03	1.42458e-06	1.24910e-02	5.84177e-06	7.47084e-06	2.07437e-06	2.24426e-01	8.03748e-08	8.19727e-08	7.87615e-02	2.75353e-02	7.88756e-08	8.23536e-08	4.22450e-02	1.44254e-02	1.22567e-02	4.50262e-03	8.00578e-08	6.30654e-03	X	X	X	X	X	X	X	X	X	X	X	X	X	X	X	X	



#DISTANCE SETTINGS
A = Detector Channel
A-1	A-2	A-3	A-4	A-5	A-6	A-7	A-8	A-9	A-10	A-11	A-12	A-13	A-14	A-15	A-16	

2.5000e+00	3.0000e+00	2.5000e+00	3.0000e+00	2.0000e+00	3.0000e+00	1.5000e+00	3.0000e+00	3.0000e+00	3.0000e+00	3.0000e+00	3.0000e+00	3.0000e+00	3.0000e+00	1.5000e+00	3.0000e+00	

B = Detector Channel
B-1	B-2	B-3	B-4	B-5	B-6	B-7	B-8	B-9	B-10	B-11	B-12	B-13	B-14	B-15	B-16	

1.0000e+01	1.0000e+01	1.0000e+01	1.4400e+00	1.0000e+01	1.0000e+01	1.5100e+00	1.9400e+00	1.0000e+01	1.0000e+01	1.9900e+00	2.4900e+00	2.4100e+00	2.9000e+00	1.0000e+01	2.9800e+00	




#DATA BEGINS
time	group	step	mark	flag	A-AC1	A-AC2	A-AC3	A-AC4	A-AC5	A-AC6	A-AC7	A-AC8	A-AC9	A-AC10	A-AC11	A-AC12	A-AC13	A-AC14	A-AC15	A-AC16	A-DC1	A-DC2	A-DC3	A-DC4	A-DC5	A-DC6	A-DC7	A-DC8	A-DC9	A-DC10	A-DC11	A-DC12	A-DC13	A-DC14	A-DC15	A-DC16	A-Ph1	A-Ph2	A-Ph3	A-Ph4	A-Ph5	A-Ph6	A-Ph7	A-Ph8	A-Ph9	A-Ph10	A-Ph11	A-Ph12	A-Ph13	A-Ph14	A-Ph15	A-Ph16	B-AC1	B-AC2	B-AC3	B-AC4	B-AC5	B-AC6	B-AC7	B-AC8	B-AC9	B-AC10	B-AC11	B-AC12	B-AC13	B-AC14	B-AC15	B-AC16	B-DC1	B-DC2	B-DC3	B-DC4	B-DC5	B-DC6	B-DC7	B-DC8	B-DC9	B-DC10	B-DC11	B-DC12	B-DC13	B-DC14	B-DC15	B-DC16	B-Ph1	B-Ph2	B-Ph3	B-Ph4	B-Ph5	B-Ph6	B-Ph7	B-Ph8	B-Ph9	B-Ph10	B-Ph11	B-Ph12	B-Ph13	B-Ph14	B-Ph15	B-Ph16	aux-1	digaux	

40968.609	1	1	0	256	0.15505	0.055537	0.23296	0.12204	0.15662	0.21133	0.24928	0.28399	0.25919	0.29727	0.22724	0.093626	0.13563	0.029507	0.18633	0.11895	-2.525	-2.8042	-2.8917	-2.6125	-2.7687	-2.7792	-2.8042	-2.9938	-2.6083	-2.7021	-3.0187	-2.6813	-2.7833	-2.7875	-2.6083	-2.8688	-0.144	82.882	-10.505	-161.380	-127.889	105.101	170.419	91.575	193.923	143.056	44.537	98.081	-95.031	-75.682	31.035	122.303	0.00011739	0.00014012	3.2191e-05	314.35	1.2082e-06	1.3907e-06	365.79	88.878	8.1416e-07	7.429e-07	119.66	34.61	23.402	7.0645	1.3947e-06	13.755	4.8974e-05	2.4965e-05	7.3208e-06	326.96	2.9822e-07	3.8425e-07	382.77	92.833	3.0038e-07	2.5358e-07	124.87	36.522	24.722	7.4408	2.7336e-07	14.508	-96.692	-32.044	-69.420	-150.446	-36.356	-28.654	-150.849	-146.011	-22.582	-23.949	-147.015	-141.460	-142.057	-135.916	-4.845	-136.825	-8191	255	
40968.707	1	1	0	0	0.14985	0.044415	0.037754	0.19442	0.16461	0.19681	0.18282	0.13027	0.053503	0.027639	0.04896	0.023696	0.058594	0.25776	0.34049	0.15408	-2.2812	-2.6562	-2.9437	-2.7042	-2.8896	-2.7771	-2.5646	-2.9	-2.7604	-2.9188	-2.8937	-2.8208	-2.9083	-2.8479	-2.5229	-2.9229	-155.120	-94.382	132.346	66.161	-108.760	-55.709	79.973	85.413	185.809	58.580	127.577	-83.382	-115.865	53.441	-88.393	79.334	0.00012524	0.00010004	4.0214e-05	319.45	1.8758e-06	1.1104e-06	369.26	89.526	1.1163e-06	1.1253e-06	121.14	35.48	23.684	7.1882	9.3289e-07	13.982	5.0093e-05	2.6086e-05	7.3683e-06	330.45	2.9755e-07	3.9876e-07	386.28	93.689	2.8658e-07	2.4878e-07	126.49	37.124	24.951	7.5671	2.9371e-07	14.781	-92.927	-90.791	-69.504	-150.983	-20.689	-15.855	-150.844	-145.821	-19.387	-26.337	-147.208	-141.906	-141.527	-135.631	-9.592	-136.504	-8191	255	
40968.801	1	1	0	0	0.14925	0.17344	0.053186	0.21051	0.15923	0.14894	0.17519	0.075041	0.12368	0.11116	0.1609	0.21569	0.015446	0.040727	0.12497	0.092991	-2.1458	-2.7583	-2.9333	-2.55	-2.7188	-2.9313	-2.7875	-2.8708	-2.8896	-2.6479	-2.9271	-2.8187	-2.5312	-2.7979	-2.5542	-2.9167	-89.041	164.477	158.237	165.461	-23.089	-149.224	26.303	132.518	-14.352	95.306	-145.003	126.513	27.478	99.015	172.838	-88.455	0.00011988	0.00014704	2.6421e-05	320.65	1.2863e-06	1.7556e-06	370.3	89.655	1.4136e-06	1.2648e-06	120.48	35.16	23.679	7.0749	9.7671e-07	13.866	5.4742e-05	2.523e-05	7.0226e-06	332.82	2.5971e-07	3.7656e-07	387.45	94.082	3.1846e-07	2.3642e-07	126.18	36.869	24.914	7.5176	2.7603e-07	14.619	-95.293	-66.870	-42.769	-151.203	-14.987	-12.112	-150.800	-146.166	-8.977	-29.288	-146.960	-141.986	-141.628	-136.103	42.139	-137.000	-8191	255	
40968.898	1	1	0	0	0.35297	0.30476	0.16523	0.36766	0.15105	0.095256	0.077131	0.21583	0.10709	0.45736	0.2	0.27092	0.08515	0.10378	0.11936	0.085394	-2.2208	-2.6771	-2.9167	-2.6958	-2.9313	-2.9583	-2.7958	-2.9625	-2.7583	-2.6917	-2.9062	-2.7333	-2.5854	-3.0292	-2.5812	-2.9229	35.784	140.474	-128.301	149.216	-142.823	1.425	185.585	18.646	51.342	32.686	192.557	-93.197	-17.183	-51.354	-48.291	40.352	0.00012729	0.0001638	5.1171e-05	319.25	1.1584e-06	1.573e-06	368.18	89.786	1.3703e-06	1.2936e-06	119.81	35.261	23.95	7.2153	1.3657e-06	13.849	5.8552e-05	2.2848e-05	6.9405e-06	331.8	2.5938e-07	4.2267e-07	386.16	94.358	2.8642e-07	2.4517e-07	126.24	36.929	25.112	7.6121	2.5869e-07	14.702	-100.086	-77.011	-61.889	-151.054	-2.613	1.042	-151.245	-145.599	-20.249	-21.749	-147.146	-142.137	-141.385	-135.798	-7.571	-137.312	-8191	255	
40968.992	1	1	0	0	0.1347	0.092728	0.33799	0.20698	0.15645	0.095131	0.10194	0.24524	0.20372	0.047544	0.12145	0.30326	0.033461	0.21322	0.19571	0.16857	-2.3625	-2.7167	-2.9396	-2.8792	-2.8167	-2.9167	-2.6292	-2.8646	-2.7687	-2.6583	-2.8375	-2.7979	-2.7062	-3.1437	-2.7917	-2.8542	156.450	-88.339	62.586	126.422	-115.296	21.336	82.412	-25.366	-157.772	122.800	18.100	182.396	42.393	90.016	-92.128	30.570	0.00011779	9.5797e-05	3.8448e-05	321.04	1.2547e-06	1.4834e-06	367.67	89.918	9.8525e-07	1.1445e-06	121.74	35.457	24.004	7.2236	1.401e-06	14.056	6.3201e-05	2.1027e-05	6.2534e-06	332.51	2.8399e-07	3.7844e-07	386.62	94.426	2.6736e-07	2.2287e-07	127.06	37.35	25.243	7.6341	2.2333e-07	14.852	-97.379	-83.726	-62.485	-150.832	-18.190	-10.816	-150.628	-146.269	-22.735	-29.379	-146.908	-141.858	-141.386	-135.859	10.690	-136.753	-8191	255	
40969.113	1	1	0	0	0.11871	0.28879	0.193	0.19472	0.15854	0.082849	0.20183	0.1329	0.24899	0.23317	0.27497	0.11515	0.074956	0.16692	0.13229	0.2512	-2.5146	-2.7417	-3.0146	-2.8438	-2.5354	-3.0104	-2.7542	-2.8375	-2.9979	-2.6792	-2.9313	-2.7104	-2.5312	-3.0083	-2.7271	-2.8625	-162.853	68.217	78.742	181.536	-79.130	108.739	60.030	-64.699	-54.608	-20.586	-136.970	131.615	42.690	-160.637	81.417	-15.438	0.00012789	0.00012878	4.271e-05	319.74	1.1697e-06	2.5849e-06	373.29	90.172	7.8987e-07	1.1764e-06	121.96	35.828	24.112	7.2326	1.1143e-06	14.19	6.213e-05	2.0016e-05	7.1868e-06	333.17	2.6206e-07	4.2677e-07	389.79	95.238	2.8954e-07	2.3042e-07	127.75	37.692	25.455	7.7015	2.32e-07	14.981	-92.321	-64.682	-62.805	-150.575	11.119	-12.068	-150.679	-145.719	-20.728	-12.022	-146.976	-141.822	-141.504	-135.602	-16.048	-136.725	-8191	255	
40969.211	1	1	0	0	0.23538	0.20604	0.072793	0.065233	0.053311	0.063824	0.083645	0.19269	0.24462	0.085189	0.060001	0.11315	0.028627	0.18529	0.22726	0.21821	-2.4167	-2.5625	-2.7917	-2.8937	-2.6958	-3.0396	-2.7542	-2.75	-3.0208	-2.7667	-2.9188	-2.9333	-2.6271	-2.975	-2.6312	-2.8667	-11.425	157.287	107.032	53.878	151.777	169.944	110.044	142.317	-149.188	-28.815	-51.037	-157.251	142.622	-154.526	150.568	-82.455	0.00012268	0.00015029	3.6638e-05	326.25	1.7632e-06	1.9321e-06	371.72	90.878	1.3373e-06	9.5012e-07	120.85	35.319	24.057	7.1872	1.1472e-06	13.941	6.3809e-05	2.0623e-05	5.5878e-06	335.66	2.5184e-07	3.5078e-07	389.35	95.466	2.9595e-07	2.0623e-07	126.92	37.289	25.295	7.5857	2.6002e-07	14.696	-95.605	-78.441	-110.982	-150.878	3.365	3.875	-151.009	-146.044	-33.183	21.190	-146.919	-141.869	-141.757	-135.767	20.494	-137.171	-8191	255	
40969.305	1	1	0	0	0.2124	0.24744	0.065088	0.1139	0.087784	0.28732	0.18535	0.24292	0.1728	0.11273	0.25463	0.13965	0.16805	0.054093	0.092234	0.14801	-2.6792	-2.5146	-2.7979	-2.8417	-2.6625	-2.8563	-2.7292	-2.6083	-2.9646	-2.7875	-2.8208	-2.8417	-2.6104	-3.0938	-2.9104	-2.6813	-85.117	172.310	155.020	-65.805	48.859	-42.865	172.050	123.462	113.650	170.883	119.546	88.660	89.064	-130.506	-118.915	2.049	0.00012063	0.00013779	5.1195e-05	319.65	1.3762e-06	1.0124e-06	370.1	90.477	1.3354e-06	1.6419e-06	120.59	35.089	23.906	7.236	1.7303e-06	13.906	5.9002e-05	2.0747e-05	6.1885e-06	332.87	2.356e-07	2.9783e-07	386.99	94.952	2.8888e-07	1.8478e-07	126.97	37.158	25.265	7.6008	2.5919e-07	14.699	-94.509	-64.690	-58.347	-151.244	-19.276	-19.603	-150.932	-145.835	-25.086	15.979	-147.048	-141.932	-141.837	-135.968	-0.239	-137.205	-8191	255	
40969.402	1	1	0	0	0.22172	0.2682	0.067313	0.22641	0.068645	0.26672	0.21364	0.19937	0.14023	0.44401	0.13708	0.21287	0.0939	0.23278	0.026843	0.25792	-2.6667	-2.6688	-2.6375	-2.9958	-2.6	-2.8812	-2.7917	-2.5042	-2.9688	-2.7208	-2.9208	-3.0625	-2.7562	-2.9125	-2.7667	-2.7792	190.354	61.390	52.554	-160.414	-2.990	189.631	-146.007	159.107	154.820	67.974	-12.621	73.185	-144.809	66.262	179.682	121.690	0.00011403	0.00019409	3.8985e-05	320.49	2.0151e-06	1.4173e-06	370.54	90.686	8.4025e-07	1.6192e-06	122.69	35.498	24.098	7.2	1.3061e-06	13.854	6.2726e-05	2.1339e-05	6.4694e-06	333.4	2.3007e-07	2.1586e-07	388.63	95.315	3.0515e-07	2.0365e-07	127.84	37.489	25.374	7.5847	2.26e-07	14.645	-94.544	-86.525	-81.944	-150.926	-22.651	-25.520	-150.883	-145.655	-29.500	-0.601	-146.912	-141.436	-141.639	-135.980	-5.638	-136.555	-8191	255	
40969.473	1	1	0	0	0.13888	0.16206	0.040474	0.042584	0.18398	0.13143	0.14338	0.062694	0.15116	0.12253	0.11963	0.079182	0.12091	0.24871	0.08459	0.050609	-2.7125	-2.8521	-2.6021	-2.8563	-2.725	-2.9604	-2.8792	-2.6521	-2.9542	-2.8125	-2.6729	-3	-2.6188	-2.6792	-2.9958	-2.5542	-94.512	30.501	126.880	110.151	11.368	-47.522	-132.957	-6.755	-51.303	157.274	183.369	160.941	-81.250	142.309	64.538	151.165	0.00011886	0.00010931	3.8095e-05	321.92	1.2048e-06	1.2629e-06	371	92.091	9.955e-07	1.1763e-06	122.96	35.53	24.383	7.2222	1.5834e-06	13.886	6.0949e-05	1.9829e-05	5.5014e-06	335.19	2.2438e-07	2.1415e-07	389.74	96.117	3.183e-07	2.2424e-07	128.55	37.513	25.568	7.5641	2.6603e-07	14.575	-91.367	-79.457	-72.772	-150.464	-11.796	-46.664	-150.844	-145.952	-39.793	9.104	-146.867	-141.851	-141.777	-135.543	-9.680	-136.885	-8191	255	
40969.594	1	1	0	0	0.158	0.088531	0.22687	0.20555	0.32896	0.12268	0.12822	0.13546	0.14451	0.23823	0.20455	0.20806	0.12812	0.11184	0.13364	0.037581	-2.4771	-2.6875	-2.5708	-2.9479	-2.5625	-2.6813	-2.9208	-2.7271	-2.9667	-2.8042	-2.6708	-2.9708	-2.6458	-2.6188	-3.0208	-2.4646	89.540	52.386	-47.912	-117.339	-57.807	51.847	3.169	-130.504	-92.121	149.852	160.843	176.366	-96.967	74.247	173.480	183.264	0.00012205	0.0001619	4.0211e-05	326.38	1.3857e-06	1.8433e-06	369.92	90.995	7.6079e-07	2.3436e-06	121.41	34.985	24.19	7.0069	1.201e-06	13.47	5.2089e-05	3.1798e-05	6.5948e-06	335.33	2.5268e-07	2.0442e-07	388.58	95.754	2.9529e-07	2.3402e-07	127.05	36.95	25.361	7.4311	2.5869e-07	14.256	-95.825	-78.557	-68.983	-150.583	-22.807	-45.252	-150.797	-146.046	-11.826	-11.813	-146.621	-141.520	-141.715	-135.814	9.452	-136.763	-8191	255	
40969.691	1	1	0	0	0.079533	0.053237	0.1	0.068643	0.19404	0.30727	0.091798	0.1556	0.21581	0.2433	0.015722	0.029226	0.088613	0.22971	0.20677	0.11313	-2.5229	-2.85	-2.6083	-2.7604	-2.6875	-2.6896	-2.9917	-2.4979	-2.9479	-2.8271	-2.7125	-3.0646	-2.6708	-2.775	-2.9833	-2.5583	-41.380	-51.751	-106.852	153.591	-63.976	-59.796	77.507	-54.841	-154.223	82.194	169.639	63.166	-125.194	12.936	-9.478	73.972	0.0001171	0.0001885	2.8043e-05	322.24	1.1456e-06	1.3205e-06	369.92	90.54	7.4955e-07	8.4931e-07	121.14	34.949	23.958	7.0424	1.4895e-06	13.648	4.9509e-05	3.1346e-05	6.0589e-06	333.14	2.289e-07	2.2867e-07	386.81	95.136	2.8724e-07	2.0485e-07	126.8	36.899	25.277	7.4431	2.4468e-07	14.349	-96.385	-76.511	-64.888	-150.850	-13.862	-29.661	-150.832	-145.993	-1.593	-13.385	-147.018	-141.846	-141.918	-136.091	27.050	-137.267	-8191	255	
40969.785	1	1	0	0	0.046221	0.088709	0.19444	0.19933	0.21454	0.18716	0.1622	0.066007	0.17406	0.12835	0.065637	0.38012	0.39408	0.021996	0.026049	0.098071	-2.25	-2.7438	-2.6792	-2.8917	-2.775	-2.8521	-3.0021	-2.8375	-3.0854	-2.9104	-2.6354	-2.8771	-2.7687	-2.6667	-2.9833	-2.8	-4.219	85.716	149.442	124.763	174.914	185.416	-132.444	122.939	-93.196	162.698	100.043	80.621	154.152	17.719	-64.899	-63.183	0.00010536	0.00010994	1.673e-05	323.98	1.2041e-06	1.5835e-06	371.95	91.708	1.1465e-06	1.3864e-06	121.31	35.45	24.156	7.0885	1.0993e-06	13.642	4.7976e-05	3.7152e-05	6.2015e-06	334.89	2.2538e-07	2.1108e-07	387.78	95.863	2.7163e-07	2.2218e-07	127.34	37.25	25.521	7.5027	2.5368e-07	14.445	-95.546	-82.031	-72.481	-150.888	-21.789	-9.419	-151.075	-145.913	-12.439	5.046	-146.917	-142.051	-141.706	-136.081	-31.099	-136.969	-8191	255	
40969.883	1	1	0	0	0.12464	0.10734	0.15127	0.063052	0.09907	0.12188	0.23722	0.21235	0.18493	0.17734	0.0446	0.16156	0.24477	0.22949	0.20939	0.16719	-2.2979	-2.8979	-2.5958	-2.8208	-2.7417	-2.7687	-2.8979	-2.6375	-2.5646	-3.0979	-2.5958	-2.825	-2.9062	-2.7542	-2.825	-2.6167	-121.569	185.572	-123.727	-98.576	2.999	-80.114	68.221	-70.975	-61.943	-99.988	-143.265	178.001	-143.991	-95.575	170.892	11.298	0.00011893	0.00020177	5.153e-05	321.52	1.6579e-06	9.1966e-07	371.24	91.939	1.1826e-06	1.1141e-06	123.17	35.502	24.573	7.1473	1.0287e-06	13.802	5.3026e-05	3.835e-05	5.4236e-06	335.41	2.3526e-07	2.3106e-07	389.68	96.457	2.92e-07	2.3985e-07	128.96	37.495	25.723	7.5783	2.827e-07	14.57	-95.424	-95.216	-78.592	-150.368	0.243	-18.471	-150.921	-146.098	5.620	-24.356	-147.054	-141.793	-141.736	-136.009	-12.488	-137.240	-8191	255	
40970.000	1	1	0	0	0.32646	0.039156	0.23153	0.055381	0.13402	0.19129	0.17833	0.098145	0.26066	0.16318	0.14408	0.1933	0.014619	0.030312	0.20661	0.21971	-2.1396	-2.8563	-2.5958	-2.7771	-2.8396	-2.4958	-2.95	-2.7604	-2.5958	-2.8667	-2.7146	-2.6667	-2.8	-2.6229	-2.9771	-2.8125	34.372	16.883	122.341	191.087	136.766	129.354	-38.590	-14.857	-57.840	195.194	75.128	88.938	-58.800	17.233	35.976	157.196	0.00011573	0.0002202	4.8947e-05	326.12	1.7992e-06	8.2592e-07	374.43	91.854	1.396e-06	1.4713e-06	122.49	35.491	24.285	7.1244	9.7865e-07	13.614	4.8353e-05	3.8148e-05	5.9465e-06	337.74	2.2672e-07	2.4131e-07	391.43	96.663	3.0482e-07	2.6542e-07	128.24	37.37	25.711	7.5041	2.6803e-07	14.38	-96.106	-52.118	-59.217	-150.659	16.335	1.188	-151.028	-146.010	-18.530	3.056	-146.806	-142.216	-141.854	-135.364	-11.310	-137.123	-8191	255	
40970.074	1	1	0	0	0.21631	0.15944	0.088068	0.063259	0.28356	0.31819	0.22386	0.15384	0.18553	0.087103	0.09884	0.15139	0.23678	0.25198	0.051016	0.22743	-2.1771	-3.0708	-2.7125	-2.7042	-2.8438	-2.5021	-3.1312	-2.8542	-2.7188	-3.0833	-2.6875	-2.6167	-2.95	-2.5979	-2.9437	-2.8604	120.522	-68.789	41.455	156.848	-116.698	-53.107	-29.314	-14.799	-143.144	64.656	28.528	-89.266	117.442	190.254	160.566	183.482	0.00012311	4.061e-05	5.4818e-05	322.78	9.0208e-07	1.8119e-06	371.66	91.58	1.0497e-06	6.9298e-07	122.71	35.406	24.51	7.1279	1.6405e-06	13.6	4.8341e-05	3.3868e-05	5.752e-06	334.02	2.1835e-07	1.8512e-07	388.32	96.208	2.7048e-07	2.1069e-07	128.22	37.303	25.748	7.5104	2.4268e-07	14.317	-94.790	-92.021	-66.565	-150.272	20.186	-14.686	-150.721	-146.004	-41.702	36.604	-147.271	-141.418	-141.639	-136.053	-5.531	-137.156	-8191	255	
40970.195	1	1	0	0	0.11063	0.25726	0.086109	0.13746	0.065253	0.085335	0.11864	0.040589	0.19261	0.25697	0.19265	0.32608	0.2654	0.34343	0.14523	0.27414	-2.2562	-3.0021	-2.6562	-2.9854	-3.1083	-2.8167	-2.8917	-2.8812	-2.6917	-2.9771	-2.6833	-2.6875	-2.9146	-2.6167	-3.0396	-2.8208	-97.550	-125.838	-1.531	30.690	128.958	-41.353	-64.189	-110.135	40.618	-85.518	191.782	130.194	121.279	72.729	189.122	10.525	0.0001138	0.00023396	6.2652e-05	325.07	1.34e-06	1.525e-06	373.95	92.09	1.051e-06	1.0543e-06	122.95	35.781	24.591	7.146	1.9296e-06	13.69	4.9497e-05	4.4996e-05	5.402e-06	336.65	2.4163e-07	2.0032e-07	391.43	96.834	2.7426e-07	2.3865e-07	129.04	37.627	25.942	7.5388	2.6436e-07	14.452	-98.721	-78.757	-101.125	-150.371	-8.438	-2.674	-151.118	-145.838	-31.994	-1.001	-147.182	-141.867	-141.657	-135.854	-20.544	-136.844	-8191	255	
40970.289	1	1	0	0	0.13328	0.098425	0.26992	0.20337	0.24912	0.27731	0.17614	0.28402	0.23306	0.35261	0.16142	0.24781	0.09641	0.21743	0.22032	0.11665	-2.3563	-2.8042	-2.8125	-2.7458	-2.9625	-2.5979	-2.95	-3.0396	-2.5646	-2.8896	-2.75	-2.5542	-2.9583	-2.6021	-2.8563	-2.9688	32.250	-147.332	115.461	-116.294	144.737	18.093	-29.657	-114.511	55.312	-8.947	162.334	172.402	175.853	-108.653	102.055	-85.148	0.00011965	0.0001511	3.6222e-05	327.64	9.6224e-07	1.7151e-06	376.24	93.688	9.6725e-07	1.737e-06	124.64	36.113	24.804	7.19	1.8019e-06	13.71	4.7683e-05	3.3728e-05	5.5619e-06	339.43	2.3208e-07	2.0732e-07	394.58	98.128	2.5848e-07	2.6713e-07	130.46	38.115	26.161	7.5891	2.822e-07	14.504	-96.351	-76.361	-68.793	-150.580	-30.308	-9.630	-150.921	-146.132	14.557	6.256	-146.706	-141.687	-141.924	-135.662	-17.388	-137.297	-8191	255	
40970.387	1	1	0	0	0.066556	0.17465	0.12713	0.068237	0.22911	0.22508	0.11275	0.25203	0.21595	0.13932	0.095719	0.083261	0.053497	0.16854	0.31076	0.14556	-2.1312	-2.9458	-2.7479	-2.4896	-2.8979	-2.6146	-2.6771	-2.9521	-2.725	-2.8458	-2.8729	-2.5792	-2.8729	-2.5062	-2.75	-2.9188	-103.607	-138.906	32.357	34.814	171.206	48.141	121.344	-117.378	-24.733	180.155	175.177	192.235	-125.201	78.334	-103.324	70.702	0.00011719	0.00015884	6.5786e-05	327.61	4.2785e-07	1.4755e-06	378.4	93.895	1.4891e-06	1.3544e-06	123.52	35.654	24.578	7.0609	1.1683e-06	13.335	4.8255e-05	2.2257e-05	9.2698e-06	341.67	2.582e-07	1.9349e-07	395.74	98.658	2.6801e-07	2.2716e-07	129.62	37.62	25.932	7.4829	2.2967e-07	14.164	-97.068	-54.599	-92.320	-150.791	-83.195	-16.650	-150.908	-145.676	12.669	7.506	-147.076	-141.898	-141.781	-135.823	19.797	-137.010	-8191	255	
40970.480	1	1	0	0	0.21783	0.14102	0.14523	0.14143	0.15769	0.11754	0.16863	0.11961	0.19325	0.20558	0.33006	0.069284	0.26661	0.11612	0.18675	0.1039	-2.2208	-2.8771	-2.8563	-2.7104	-2.9583	-2.7938	-2.8187	-2.95	-2.6021	-2.8604	-2.6771	-2.6042	-2.8771	-2.7333	-2.6354	-2.7771	189.363	145.370	59.666	-114.503	149.377	-75.239	-136.580	195.346	107.719	171.421	83.749	78.575	136.323	-160.347	-134.162	91.129	0.00012119	0.00013458	3.5854e-05	327.14	6.8233e-07	1.2882e-06	375.68	92.798	1.1061e-06	1.4757e-06	122.79	35.517	24.596	7.0138	1.1184e-06	13.45	4.744e-05	2.0311e-05	9.1359e-06	339.69	2.2321e-07	1.9417e-07	392.14	97.389	2.6473e-07	2.251e-07	128.66	37.391	25.774	7.4037	2.5735e-07	14.189	-93.998	-70.485	-96.578	-150.568	-33.164	-12.487	-151.006	-146.009	-20.979	-10.666	-147.538	-141.913	-141.812	-136.323	-0.382	-136.635	-8191	255	
40970.602	1	1	0	0	0.135	0.10938	0.17001	0.12342	0.32679	0.091455	0.14107	0.075964	0.19363	0.087415	0.10832	0.0082531	0.16299	0.18222	0.087429	0.18519	-2.1979	-2.7396	-2.8979	-2.6833	-2.7958	-2.7062	-2.6667	-2.8125	-2.725	-2.7646	-2.8875	-2.6729	-2.8438	-2.7292	-2.5646	-2.9979	-52.277	43.667	50.652	-108.846	72.595	-112.609	-40.725	164.996	-8.685	-15.935	-151.706	-15.705	169.326	137.982	136.796	-35.219	0.00010954	0.00017743	4.919e-05	325	9.1908e-07	1.1878e-06	375.15	92.778	1.0585e-06	1.5353e-06	123.1	35.17	24.474	7.0693	1.4097e-06	13.393	4.6479e-05	2.3269e-05	1.0419e-05	337.56	2.4213e-07	1.8068e-07	392.67	97.562	2.6489e-07	2.3059e-07	129.03	37.333	25.77	7.4492	2.31e-07	14.191	-94.913	-61.604	-103.979	-150.954	-30.212	0.890	-150.683	-146.190	-24.751	-8.617	-146.879	-142.156	-142.098	-136.218	-45.844	-136.827	-8191	255	
40970.676	1	1	0	0	0.11609	0.41609	0.081374	0.17972	0.10717	0.082711	0.20321	0.13948	0.19386	0.22666	0.20093	0.13281	0.1032	0.19675	0.20623	0.15243	-2.2542	-2.6542	-2.8563	-2.5521	-2.8979	-2.6604	-2.6917	-2.6875	-2.7417	-2.7604	-2.9479	-2.7042	-2.85	-2.7687	-2.5208	-2.9729	-79.947	46.705	-94.860	-141.868	150.429	12.891	-78.212	108.075	-82.385	139.938	-136.032	3.209	156.364	9.396	-93.079	-39.624	0.0001178	8.9903e-05	3.604e-05	328.42	1.7257e-06	8.1832e-07	375.33	93.057	1.0907e-06	2.0959e-06	124.11	35.626	24.423	7.0236	1.7136e-06	13.481	4.6576e-05	2.1697e-05	9.1704e-06	339.39	2.5586e-07	2.2064e-07	392.9	97.624	2.8494e-07	2.4397e-07	129.39	37.569	25.766	7.4253	2.4785e-07	14.26	-97.333	-119.934	-77.194	-150.633	1.114	-16.240	-150.984	-146.196	-23.829	-10.645	-147.140	-141.887	-141.699	-135.616	17.055	-136.500	-8191	255	
40970.770	1	1	0	0	0.13403	0.14943	0.081231	0.4151	0.23197	0.16605	0.11825	0.18085	0.3787	0.081227	0.12434	0.32065	0.24462	0.13698	0.075956	0.16107	-2.4167	-2.8083	-2.7521	-2.7188	-2.8042	-2.8833	-2.7792	-2.9479	-2.7687	-2.6146	-2.7979	-2.7	-2.8063	-2.975	-2.5625	-3.0292	-4.732	4.038	47.146	162.700	26.162	-143.426	115.436	63.654	-153.367	-50.933	176.294	33.330	164.283	29.748	38.387	101.284	0.00012019	0.00014009	3.5582e-05	326.74	1.1886e-06	1.4935e-06	376.49	92.964	1.6191e-06	1.9325e-06	123.11	35.11	24.294	7.0225	1.5305e-06	13.36	4.8146e-05	2.3269e-05	1.0774e-05	339.65	2.7562e-07	2.5651e-07	393.76	97.247	3.04e-07	2.2338e-07	128.46	37.026	25.565	7.4035	2.5869e-07	14.125	-95.225	-18.498	-94.109	-150.837	0.952	-59.127	-150.896	-146.101	-61.167	4.527	-147.077	-141.784	-141.595	-136.315	-3.365	-137.205	-8191	255	
40970.891	1	1	0	0	0.1474	0.11952	0.19691	0.084483	0.31661	0.16574	0.22856	0.12041	0.24501	0.18693	0.14656	0.1517	0.093212	0.22951	0.22601	0.23496	-2.3208	-2.7604	-2.8563	-2.6583	-2.6312	-2.9688	-2.5083	-2.975	-2.725	-2.5542	-2.8875	-2.5417	-2.6188	-2.925	-2.6354	-2.8458	-80.862	65.708	-63.751	-18.101	27.793	195.617	-163.787	-109.560	-122.968	163.418	37.867	-137.476	54.686	183.986	-38.333	-14.458	0.00011262	0.00019788	4.1534e-05	324.44	1.4163e-06	1.6434e-06	371.69	91.602	9.448e-07	1.1803e-06	122.05	34.976	24.178	7.0284	1.0726e-06	13.414	4.9655e-05	2.2693e-05	9.8662e-06	336.97	2.649e-07	2.3823e-07	388.55	95.885	4.136e-07	2.1618e-07	127.41	36.883	25.45	7.418	2.4401e-07	14.237	-96.491	-88.677	-48.448	-150.681	4.905	-19.331	-151.177	-145.860	-43.441	-14.387	-146.976	-142.357	-141.605	-135.899	-61.565	-136.820	-8191	255	
40970.984	1	1	0	0	0.26761	0.24657	0.093135	0.14625	0.1166	0.10769	0.2104	0.2336	0.13386	0.059877	0.092489	0.17425	0.18171	0.1175	0.17913	0.23689	-2.4146	-2.5625	-2.8833	-2.8104	-2.725	-2.9208	-2.6354	-2.8271	-2.9062	-2.7062	-2.9938	-2.6271	-2.6604	-2.9	-2.7333	-2.9104	-99.953	143.892	136.591	38.268	-59.063	7.941	126.172	126.581	63.711	-116.809	64.368	93.561	97.332	56.910	-97.760	-58.655	0.00011841	0.00015646	4.7809e-05	322.83	1.3185e-06	1.0962e-06	372.45	91.754	8.5779e-07	1.9994e-06	122.21	35.097	24.372	7.105	1.4321e-06	13.7	5.0288e-05	2.0311e-05	1.1089e-05	336	2.6808e-07	2.5463e-07	389.76	96.256	4.2626e-07	2.0966e-07	127.69	37.174	25.62	7.5084	2.4351e-07	14.39	-92.627	-60.239	-65.293	-150.325	-44.594	-25.698	-150.978	-145.826	-15.846	-2.569	-147.187	-141.905	-142.093	-135.817	10.464	-136.794	-8191	255	
40971.082	1	1	0	0	0.29521	0.46256	0.061188	0.38303	0.16587	0.11149	0.1812	0.24423	0.038847	0.20339	0.26498	0.1943	0.089401	0.25338	0.11628	0.12873	-2.4562	-2.7208	-2.8125	-2.7875	-2.6042	-3.0417	-2.6604	-2.8104	-2.8708	-2.6333	-2.9083	-2.7729	-2.5042	-3.0604	-2.6729	-2.7125	31.451	-36.694	68.627	-97.990	88.502	-49.978	142.731	82.478	75.882	-83.128	42.599	179.045	-86.287	-56.533	-104.473	13.018	0.00012148	8.0477e-05	1.7025e-05	326.3	1.8357e-06	1.6e-06	371.93	91.918	1.5564e-06	1.7021e-06	122.6	35.546	24.613	7.1751	1.5782e-06	13.866	4.957e-05	1.8911e-05	8.7858e-06	337.48	2.7595e-07	2.5104e-07	390.53	96.65	5.0563e-07	1.9936e-07	128.79	37.47	25.767	7.5884	2.3484e-07	14.586	-94.767	-72.172	-94.443	-150.537	-22.406	35.101	-150.797	-146.144	-25.052	-11.831	-146.810	-141.831	-141.675	-135.394	-7.379	-136.683	-8191	255	
40971.180	1	1	0	0	0.038553	0.41196	0.03738	0.11509	0.13093	0.016475	0.10951	0.29403	0.10399	0.28637	0.19306	0.1635	0.12985	0.165	0.051018	0.20317	-2.3417	-2.4896	-2.8667	-2.7188	-2.7521	-3.1479	-2.7604	-2.5792	-2.925	-2.6437	-2.9688	-2.8875	-2.6833	-2.85	-2.6583	-2.6375	105.240	-57.736	159.489	188.684	4.556	-121.798	103.714	159.490	-13.350	50.150	-6.217	-113.894	152.946	48.094	192.973	-75.496	0.00012134	0.00016896	2.447e-05	325.43	2.2772e-06	1.1067e-06	373.65	92.26	9.2775e-07	1.4487e-06	122.97	35.636	24.553	7.2003	1.639e-06	13.774	5.1858e-05	2.3315e-05	6.6682e-06	338.78	2.4581e-07	2.2662e-07	392.23	96.888	4.4022e-07	2.203e-07	129.07	37.633	25.845	7.5793	2.4184e-07	14.509	-96.353	-80.884	-79.681	-150.728	-24.192	-46.192	-150.944	-145.948	-14.194	12.494	-147.016	-141.871	-141.755	-136.045	-27.853	-137.001	-8191	255	
40971.301	1	1	0	0	0.075675	0.058844	0.16766	0.016999	0.14124	0.14615	0.068328	0.081304	0.080068	0.14047	0.18852	0.1692	0.049124	0.32325	0.12934	0.068957	-2.4167	-2.55	-2.7938	-2.8354	-2.7292	-2.8479	-2.8375	-2.5938	-2.9333	-2.5708	-2.7687	-2.8479	-2.6125	-3.0646	-2.8417	-2.7438	-129.663	-35.780	-153.565	164.927	20.530	99.348	-117.970	50.851	127.095	143.442	-53.943	134.182	111.559	-123.141	79.436	31.946	0.00012144	0.00011439	4.4617e-05	325.43	1.7446e-06	1.5831e-06	373.05	91.666	7.7389e-07	1.3913e-06	122.23	35.329	24.374	7.1679	1.1444e-06	13.684	5.0836e-05	2.1977e-05	6.1367e-06	336.98	2.6607e-07	2.5924e-07	389.85	96.274	4.9659e-07	2.2201e-07	127.92	37.285	25.577	7.5497	2.9138e-07	14.52	-95.952	-58.726	-83.165	-150.564	-15.411	-38.828	-150.946	-146.049	-38.148	-13.437	-147.171	-142.073	-141.645	-136.390	-38.696	-136.944	-8191	255	
40971.371	1	1	0	0	0.13116	0.16709	0.12763	0.069496	0.084387	0.19635	0.18877	0.14858	0.090099	0.16435	0.16074	0.15915	0.073625	0.21289	0.086074	0.31889	-2.5604	-2.6146	-2.6875	-2.85	-2.3812	-3.0604	-2.8667	-2.7583	-3.0312	-2.4813	-2.8875	-2.9292	-2.5229	-2.8812	-2.6667	-2.7021	-9.819	-23.611	52.490	-140.505	-12.639	143.860	147.385	71.165	46.754	2.119	-160.647	-146.337	113.710	185.241	91.667	128.575	0.0001077	0.00010994	4.8853e-05	323.41	1.2367e-06	1.8295e-06	375.29	92.075	6.7346e-07	1.1178e-06	123.35	35.637	24.49	7.2261	1.7262e-06	13.928	4.7708e-05	2.165e-05	6.2361e-06	337.41	2.4146e-07	2.7768e-07	391.65	96.653	4.5222e-07	2.2373e-07	128.75	37.681	25.768	7.6441	4.2264e-07	14.704	-94.150	-90.328	-91.603	-150.551	0.116	-19.545	-151.021	-146.021	-45.664	-15.563	-147.074	-141.794	-141.915	-135.952	25.244	-136.947	-8191	255	
40971.465	1	1	0	0	0.16126	0.2372	0.15629	0.058823	0.06958	0.049798	0.037327	0.084801	0.14838	0.14649	0.085877	0.073231	0.20287	0.12198	0.19078	0.30438	-2.5604	-2.5938	-2.6979	-2.8896	-2.5042	-2.7167	-2.8958	-2.6167	-2.8812	-2.65	-2.8583	-2.9979	-2.8708	-2.8937	-2.9083	-2.7562	-130.272	-108.830	194.706	153.530	-54.576	-59.750	8.634	99.219	0.765	-150.578	-100.392	91.087	132.214	176.843	193.271	-138.753	0.00012401	0.00018962	4.6526e-05	324.74	1.0103e-06	9.8402e-07	375.44	92.179	1.1105e-06	1.0195e-06	123.69	36.143	24.614	7.3091	1.5973e-06	14.145	5.2393e-05	2.3082e-05	6.6466e-06	339.84	2.4079e-07	2.6163e-07	394.41	97.044	5.1713e-07	2.2407e-07	129.43	38.01	25.937	7.7639	3.9545e-07	14.967	-98.808	-71.929	-99.079	-150.751	-26.585	39.426	-150.968	-146.047	-20.271	-20.165	-147.404	-141.756	-141.377	-135.481	-14.951	-137.100	-8191	255	
40971.562	1	1	0	0	0.098791	0.27073	0.10577	0.15353	0.10876	0.12534	0.12641	0.24434	0.25676	0.10065	0.24363	0.12268	0.14176	0.17916	0.41928	0.12676	-2.475	-2.8354	-2.6354	-3.0187	-2.7208	-2.7938	-2.8063	-2.5812	-2.7292	-2.8771	-2.7667	-2.9104	-2.6979	-2.8625	-3.0896	-2.5646	12.869	136.915	3.740	87.762	181.567	159.900	-96.067	-154.930	189.415	98.546	-104.859	-161.705	147.544	193.705	108.650	25.776	0.00012006	0.00016639	4.3194e-05	331.83	9.6495e-07	1.0092e-06	380.37	92.764	1.2522e-06	1.3451e-06	124.27	35.883	24.642	7.3292	2.0897e-06	14.013	5.1176e-05	2.3035e-05	6.2879e-06	341.99	2.212e-07	2.5804e-07	397.85	97.663	3.9158e-07	2.7125e-07	129.94	38.022	25.877	7.7173	4.5616e-07	14.749	-96.787	-82.454	-98.454	-150.523	-39.499	-33.102	-150.717	-145.849	-34.397	-19.965	-146.829	-141.287	-141.530	-136.015	-23.333	-136.615	-8191	255	
40971.684	1	1	0	0	0.12559	0.19979	0.11031	0.15897	0.11407	0.096416	0.14934	0.32378	0.074907	0.19773	0.24433	0.18011	0.15008	0.089933	0.095438	0.073698	-2.4896	-2.9188	-2.7479	-2.9125	-2.7229	-2.6667	-2.9792	-2.5417	-2.8167	-2.825	-2.6229	-3.025	-2.9646	-2.8208	-2.9938	-2.6521	178.505	-46.090	113.099	1.865	-150.481	89.915	167.118	-126.866	-67.951	18.254	103.378	174.670	-44.156	-103.527	119.007	138.690	0.00011889	0.00014158	2.9341e-05	325.01	1.1422e-06	7.5565e-07	374.92	91.373	7.2644e-07	4.4808e-07	122.32	35.67	24.212	7.2456	1.364e-06	13.928	5.0507e-05	2.2817e-05	6.2145e-06	339.56	2.3895e-07	2.3857e-07	393.37	96.185	3.0597e-07	4.2309e-07	128.31	37.618	25.619	7.6103	3.9545e-07	14.663	-98.168	-93.633	-76.319	-150.863	-27.429	-10.237	-150.984	-145.746	-35.714	13.875	-147.088	-142.093	-141.602	-135.615	20.675	-136.613	-8191	255	
40971.777	1	1	0	0	0.11392	0.060704	0.10552	0.24791	0.34134	0.14364	0.17302	0.25068	0.21308	0.0748	0.16681	0.22408	0.099556	0.1645	0.19227	0.16475	-2.3958	-2.9104	-2.575	-2.8292	-2.6833	-2.6958	-2.9708	-2.5292	-2.7687	-2.7604	-2.6562	-2.8125	-2.6979	-2.5917	-2.8125	-2.5833	14.394	147.427	-28.023	5.803	125.359	-133.790	-75.018	169.269	115.389	21.374	159.930	66.447	19.786	-131.929	-23.522	25.808	0.00012343	0.00012926	4.6087e-05	325	1.2883e-06	1.3623e-06	377.12	91.767	1.0791e-06	1.1635e-06	122.49	35.23	24.43	7.2318	1.5668e-06	14.01	5.2028e-05	2.2148e-05	5.4452e-06	338.92	2.3275e-07	2.2543e-07	393.51	96.362	3.2438e-07	3.9581e-07	128.38	37.584	25.697	7.6291	4.5616e-07	14.75	-94.595	-74.678	-84.774	-150.814	4.792	-17.982	-150.760	-145.966	-40.042	-17.190	-146.932	-141.621	-141.853	-136.215	-30.989	-137.169	-8191	255	
40971.875	1	1	0	0	0.15137	0.035213	0.19403	0.22406	0.23976	0.1764	0.29654	0.18036	0.11881	0.17705	0.18702	0.32193	0.18513	0.22047	0.14323	0.17243	-2.2917	-2.9146	-2.5687	-2.8	-2.6896	-2.5396	-2.9667	-2.6396	-2.6354	-2.8583	-2.6542	-2.9479	-2.8958	-2.7521	-2.8625	-2.7917	99.107	92.047	42.437	30.239	111.650	-22.318	133.041	194.292	-53.262	-43.913	-74.680	-117.310	-112.285	146.014	191.142	-58.417	0.0001153	0.00015978	3.92e-05	329.06	1.2333e-06	1.6721e-06	377.32	92.155	1.238e-06	1.6333e-06	122.6	35.684	24.472	7.2868	1.2893e-06	14.117	5.2162e-05	2.3253e-05	5.6051e-06	339.77	3.0995e-07	2.437e-07	393.5	96.546	3.4541e-07	4.3407e-07	128.56	37.729	25.77	7.7201	4.1864e-07	14.876	-99.687	-84.567	-48.175	-150.516	-35.372	-14.587	-151.027	-145.778	-45.692	9.192	-147.322	-141.471	-141.689	-135.937	-11.774	-136.781	-8191	255	
40971.973	1	1	0	0	0.16327	0.17497	0.10217	0.23281	0.13788	0.09406	0.18473	0.19767	0.19951	0.17319	0.15188	0.25809	0.036562	0.15714	0.24246	0.19753	-2.3521	-2.8354	-2.6188	-2.9354	-2.7646	-2.8	-2.9479	-2.7979	-2.6146	-3.0479	-2.7229	-2.8542	-2.9	-2.4667	-2.8854	-2.8604	-161.005	-30.459	171.079	135.182	97.253	81.919	55.482	114.175	-117.700	-159.105	-19.303	-5.428	119.495	-78.927	-134.917	53.230	0.00011418	0.0001921	2.242e-05	325.23	8.9495e-07	1.2288e-06	375.52	92.334	1.0477e-06	1.3346e-06	123.03	35.826	24.554	7.2987	1.2472e-06	14.025	5.3063e-05	2.6148e-05	5.8298e-06	338.73	4.8962e-07	2.1432e-07	393.31	96.859	3.5593e-07	4.4557e-07	128.85	37.828	25.798	7.7041	4.4599e-07	14.778	-91.934	-70.160	-68.633	-150.471	69.410	-17.826	-151.110	-145.858	-14.564	-34.159	-146.818	-141.626	-142.117	-135.946	10.821	-137.241	-8191	255	
40972.066	1	1	0	0	0.043621	0.23276	0.0232	0.05618	0.10355	0.16018	0.099498	0.13861	0.17019	0.21868	0.12401	0.21418	0.11806	0.045549	0.062169	0.10865	-2.2583	-2.8667	-2.5542	-2.6875	-2.7083	-2.6042	-2.9062	-2.7	-2.575	-3.1125	-2.7042	-2.6188	-2.9542	-2.6083	-3.1604	-2.9167	103.980	148.414	123.048	-61.212	35.225	76.706	102.314	118.393	-28.301	-76.793	68.392	37.541	17.364	-70.806	-6.719	-25.879	0.00011409	0.00016978	4.7515e-05	326.36	1.5839e-06	1.4425e-06	372.46	91.286	1.0109e-06	9.2025e-07	122.04	35.442	24.324	7.2249	1.2727e-06	13.93	5.0251e-05	2.2241e-05	5.6786e-06	337.93	4.0891e-07	2.1347e-07	390.78	96.049	3.2339e-07	4.2361e-07	127.6	37.358	25.582	7.6468	3.4792e-07	14.73	-95.631	-75.272	-88.717	-150.967	3.173	-10.721	-150.876	-146.118	-26.461	-85.393	-147.027	-142.008	-141.859	-135.890	-2.559	-137.051	-8191	255	
40972.164	1	1	0	0	0.14949	0.27006	0.14268	0.13508	0.15981	0.054051	0.060858	0.074833	0.15136	0.24595	0.092374	0.19206	0.093078	0.35203	0.27172	0.077187	-2.1458	-3.0292	-2.7146	-2.7083	-3.0021	-2.7229	-2.9167	-2.7438	-2.6437	-2.8937	-2.7917	-2.8375	-3.0229	-2.5375	-2.85	-2.7229	-54.819	-92.821	-2.346	53.062	79.707	120.520	106.464	84.765	42.713	179.889	-163.190	-148.591	-68.312	155.516	-104.927	121.335	0.00011291	0.00017948	2.3217e-05	327.22	5.4855e-07	1.3194e-06	372.67	92.115	9.5465e-07	9.1466e-07	122.56	35.925	24.141	7.343	1.3983e-06	14.14	5.041e-05	2.4592e-05	6.2577e-06	337.81	4.5127e-07	1.9007e-07	389.97	96.155	2.7459e-07	4.2189e-07	127.93	37.628	25.592	7.7102	3.0555e-07	14.917	-90.932	-69.548	-57.350	-150.684	23.528	-11.645	-150.914	-146.028	-12.871	29.335	-146.954	-141.801	-141.730	-136.171	-8.972	-136.915	-8191	255	
40972.281	1	1	0	0	0.36359	0.016572	0.16164	0.2542	0.038714	0.056481	0.27891	0.15976	0.19557	0.052661	0.047515	0.1093	0.14015	0.12184	0.35347	0.18375	-2.2417	-2.6729	-2.5292	-2.4896	-2.9708	-2.6167	-2.8208	-2.8271	-2.6146	-2.8583	-2.8271	-2.6688	-3.0979	-2.7854	-2.9479	-2.8187	122.097	71.419	99.044	52.040	-98.199	111.194	182.143	5.084	181.286	73.957	49.034	191.452	-161.832	137.635	-108.494	170.806	0.00012024	0.00015697	4.4422e-05	325.91	1.0591e-06	1.7283e-06	375.33	91.872	1.1556e-06	1.1432e-06	122.7	35.902	24.351	7.3463	1.9587e-06	14.216	4.9862e-05	2.5323e-05	5.7175e-06	337.89	4.2682e-07	2.203e-07	391.37	96.073	3.0006e-07	4.3407e-07	128.39	37.839	25.661	7.7716	2.9138e-07	15.058	-98.539	-79.046	-85.222	-151.253	19.585	8.932	-150.920	-146.267	-24.970	-43.519	-146.510	-142.066	-141.714	-135.853	-5.791	-136.969	-8191	255	
40972.379	1	1	0	0	0.067462	0.11268	0.069904	0.19206	0.27543	0.15189	0.13169	0.11713	0.24618	0.20961	0.085843	0.11481	0.13842	0.24946	0.057108	0.24249	-2.3208	-2.8458	-2.8229	-2.6479	-2.7812	-2.725	-2.8312	-3.0604	-2.5833	-2.8292	-2.8354	-2.5812	-2.9938	-2.6854	-2.7396	-2.9979	-72.974	4.136	40.766	174.256	-1.904	65.475	-96.271	92.056	-131.295	83.202	173.472	176.294	191.714	182.762	114.722	157.304	0.00013454	0.00022721	4.2987e-05	326.72	3.0692e-07	1.1053e-06	375.15	92.091	8.0871e-07	6.7103e-07	122.63	35.902	24.463	7.3949	1.5434e-06	14.156	5.2089e-05	2.7237e-05	6.5818e-06	339.21	4.6015e-07	2.3789e-07	392.61	96.745	2.7952e-07	2.9802e-07	129.06	37.988	25.836	7.8092	2.9405e-07	15.031	-97.635	-77.076	-84.033	-149.983	4.397	-27.363	-150.958	-145.822	-1.348	10.875	-146.969	-141.544	-141.624	-135.731	-14.485	-136.807	-8191	255	
40972.477	1	1	0	0	0.03524	0.084003	0.069199	0.13471	0.14918	0.2081	0.082673	0.18383	0.10647	0.022666	0.074197	0.20567	0.18958	0.26669	0.22701	0.1061	-2.2083	-2.9417	-2.9938	-2.65	-3.0333	-2.9333	-2.9104	-2.9646	-2.7042	-2.9604	-2.9458	-2.6188	-2.9354	-2.7104	-2.8	-3.0083	-21.208	-151.935	43.608	64.197	-163.664	-129.785	75.750	-141.939	-94.095	-142.967	-56.006	34.237	190.262	-12.043	-133.092	-68.914	0.00011616	0.00013816	4.1024e-05	321.24	1.269e-06	2.0339e-06	369.69	90.582	1.1295e-06	8.844e-07	120.52	35.172	24.073	7.2608	1.1254e-06	14.058	4.9168e-05	2.6973e-05	6.3441e-06	335.92	4.5847e-07	2.396e-07	388.41	95.262	3.0959e-07	2.7863e-07	126.89	37.337	25.408	7.6874	2.7386e-07	14.864	-92.529	-67.288	-83.992	-150.942	-15.113	-13.965	-150.993	-145.975	-29.739	-21.791	-146.651	-141.840	-141.722	-136.050	-36.033	-136.751	-8191	255	
40972.598	1	1	0	0	0.15768	0.42906	0.27289	0.14311	0.15993	0.10289	0.11704	0.058057	0.17972	0.1626	0.18586	0.091905	0.16799	0.12699	0.1943	0.23524	-2.2479	-2.7188	-2.9354	-2.7146	-2.8521	-2.7229	-2.6583	-2.8771	-2.775	-2.7938	-2.8208	-2.7208	-2.8646	-2.8438	-2.7354	-2.9521	-74.666	-94.373	115.176	104.109	149.329	-161.546	148.129	-136.143	-121.646	65.131	-50.787	83.327	59.575	143.937	-39.841	-97.892	0.00012298	0.00014668	5.0787e-05	323.21	1.1777e-06	1.4219e-06	370.08	90.645	1.2077e-06	1.3167e-06	120.67	35.144	24.036	7.3618	1.073e-06	14.081	4.845e-05	2.6381e-05	6.2231e-06	333.88	4.5797e-07	2.1876e-07	387.06	94.957	3.1304e-07	2.7434e-07	126.77	37.366	25.435	7.7763	2.6219e-07	15.017	-95.259	-90.104	-66.673	-150.767	25.600	-15.958	-150.835	-145.750	-37.219	-8.722	-147.238	-141.596	-142.022	-136.044	-42.123	-136.956	-8191	255	
40972.668	1	1	0	0	0.043675	0.079224	0.26247	0.10387	0.10251	0.14776	0.027186	0.09857	0.10799	0.057309	0.19239	0.33864	0.06611	0.12337	0.2132	0.090022	-2.2042	-2.6771	-2.9354	-2.65	-3.0104	-2.7375	-2.7313	-2.8354	-2.7354	-2.7604	-3.05	-2.5042	-2.7812	-2.7938	-2.5271	-2.9021	-10.912	167.586	188.994	96.101	162.501	56.257	75.583	163.976	168.737	193.169	2.004	193.821	-160.084	116.036	106.159	152.464	0.00012328	0.0001876	4.0244e-05	320.43	1.5272e-06	5.2762e-07	371.18	91.015	5.9076e-07	1.1661e-06	122.49	35.96	24.193	7.376	9.5752e-07	14.395	4.8937e-05	2.7004e-05	6.5515e-06	333.04	3.1731e-07	3.436e-07	388.15	95.053	3.3128e-07	2.4826e-07	127.63	37.812	25.56	7.8329	2.5518e-07	15.165	-95.922	-67.531	-57.787	-150.044	7.527	-50.060	-150.871	-145.968	1.109	-38.245	-146.962	-141.670	-141.734	-136.221	-0.367	-136.743	-8191	255	
40972.766	1	1	0	0	0.32548	0.18372	0.046307	0.25773	0.15751	0.33849	0.17159	0.085959	0.14334	0.053852	0.11558	0.049669	0.13317	0.11444	0.29623	0.247	-2.3333	-2.6167	-2.7771	-2.5771	-2.9917	-2.9208	-2.6042	-2.9479	-2.8458	-2.6375	-2.8854	-2.7875	-2.7812	-2.8417	-2.5687	-2.8208	193.054	120.220	-156.476	76.483	-152.215	77.633	-113.774	-7.233	185.573	-85.357	186.277	94.845	-103.428	26.293	-0.463	-88.945	0.00013563	0.00016663	4.5121e-05	322.92	1.1313e-06	1.3839e-07	369.87	91.316	7.4689e-07	7.4646e-07	122.14	36.012	24.462	7.5265	1.4311e-06	14.585	5.0738e-05	2.3595e-05	6.8541e-06	335.17	2.7562e-07	4.5392e-07	388.96	95.406	3.1419e-07	2.6816e-07	128.17	37.959	25.706	7.941	2.4451e-07	15.354	-99.043	-87.266	-87.838	-150.837	-25.267	-87.352	-150.663	-146.199	-14.053	-30.844	-147.332	-141.853	-141.310	-136.173	19.300	-137.118	-8191	255	
40972.859	1	1	0	0	0.12382	0.25852	0.14607	0.2663	0.1527	0.12714	0.26626	0.20565	0.036947	0.089148	0.11909	0.21696	0.097106	0.03519	0.23954	0.10772	-2.3375	-2.7562	-2.8583	-2.6354	-2.8521	-2.8167	-2.6604	-2.825	-2.7979	-2.55	-2.9979	-2.7583	-2.7938	-3.0104	-2.6458	-2.8979	-32.730	109.470	-42.579	191.758	-25.120	-138.063	-134.768	89.889	27.803	-70.932	-149.467	100.350	-136.161	71.535	15.115	-155.462	0.00013429	0.00016068	3.4455e-05	319.31	1.5308e-06	1.1497e-06	370.77	90.143	1.1386e-06	1.4364e-06	120.18	35.241	23.94	7.3234	9.8047e-07	14.188	5.4365e-05	2.3269e-05	6.9189e-06	333.41	3.0007e-07	4.2062e-07	387.06	94.55	3.252e-07	2.728e-07	126.01	37.215	25.337	7.7612	2.3784e-07	15.025	-96.602	-88.090	-73.268	-150.665	-9.819	5.240	-151.187	-145.616	-3.275	-18.644	-147.253	-141.791	-142.039	-136.201	25.127	-136.723	-8191	255	
40972.980	1	1	0	0	0.16074	0.071208	0.10405	0.26459	0.20504	0.063599	0.19912	0.14138	0.047599	0.21892	0.095775	0.15591	0.24504	0.096959	0.30654	0.032159	-2.4833	-2.4771	-2.8812	-2.7292	-2.6521	-3.0875	-2.6479	-2.7625	-2.9	-2.5875	-2.9979	-2.8688	-2.7812	-3.0125	-2.6021	-2.8083	-145.942	77.306	-95.975	-35.265	-44.963	-151.879	-149.074	-103.700	140.420	115.426	-161.196	117.395	136.108	94.636	-104.840	-72.559	0.00012189	0.00015175	5.4486e-05	319.6	1.5358e-06	1.0757e-06	368.21	90.03	1.7086e-06	1.8269e-06	119.73	35.333	24.054	7.4035	6.822e-07	14.315	5.8661e-05	2.2786e-05	7.2473e-06	330.69	2.788e-07	4.8074e-07	384.78	94.302	3.1452e-07	2.1515e-07	126.03	37.358	25.404	7.8235	2.5568e-07	15.141	-95.802	-54.634	-94.041	-150.251	14.566	-73.360	-150.967	-145.405	-25.647	-5.566	-147.330	-141.604	-141.713	-136.232	20.112	-137.137	-8191	255	
40973.074	1	1	0	0	0.10737	0.054787	0.21038	0.093928	0.13272	0.086237	0.093465	0.13538	0.27967	0.14768	0.10356	0.019797	0.22388	0.10074	0.21574	0.20891	-2.4271	-2.6854	-2.8312	-2.6729	-2.6771	-3.0042	-2.7396	-2.7792	-2.9188	-2.7562	-2.8937	-2.8021	-2.6708	-3.0083	-2.7667	-2.8667	182.886	137.010	-94.124	130.698	75.598	-45.003	64.074	159.776	-101.127	-5.769	-48.059	147.307	-118.035	-125.111	-130.218	164.399	0.0001239	0.00012492	2.7425e-05	319.17	1.8569e-06	9.9262e-07	365.67	89.867	4.9191e-07	1.4269e-06	120.16	35.369	24.378	7.4757	1.2125e-06	14.368	6.5939e-05	2.2584e-05	6.7028e-06	330.93	2.8215e-07	3.8766e-07	383.37	94.409	3.1731e-07	2.6096e-07	125.96	37.435	25.562	7.8847	2.747e-07	15.226	-99.912	-61.294	-119.086	-150.657	-7.724	-3.245	-150.809	-146.230	-40.765	-9.557	-146.990	-142.036	-141.540	-136.127	-18.356	-137.026	-8191	255	
40973.172	1	1	0	0	0.11506	0.090963	0.079221	0.19765	0.25049	0.034599	0.19196	0.14595	0.33318	0.15278	0.091538	0.094674	0.088818	0.25368	0.027668	0.1154	-2.4646	-2.7167	-2.9188	-2.9042	-2.7354	-3.125	-2.8563	-2.7667	-3.15	-2.8271	-2.825	-2.7792	-2.7583	-2.8229	-2.7062	-2.8271	-34.376	-76.768	25.978	-92.790	10.488	-81.211	-160.443	65.824	-91.351	-5.238	-135.788	-129.864	150.512	120.470	-43.836	138.367	0.00011441	0.00017464	2.8384e-05	319.99	1.6039e-06	9.2067e-07	366.12	90.511	9.6159e-07	1.4603e-06	121.37	35.576	24.356	7.5095	9.5202e-07	14.43	6.3188e-05	2.2895e-05	6.8497e-06	331.08	2.4749e-07	4.8261e-07	384.18	94.861	3.2454e-07	2.4003e-07	127.04	37.775	25.61	7.9237	2.777e-07	15.276	-98.140	-101.021	-63.865	-150.440	-37.346	-0.158	-151.003	-146.092	-43.593	-9.094	-146.914	-141.773	-141.624	-135.575	-11.591	-136.771	-8191	255	
40973.242	1	1	0	0	0.13928	0.136	0.079543	0.13565	0.064706	0.24259	0.13893	0.082786	0.090436	0.15387	0.20928	0.24413	0.16092	0.20451	0.082198	0.085953	-2.5354	-2.5583	-2.8792	-2.8583	-2.625	-2.9292	-2.7417	-2.6958	-2.8667	-2.6771	-2.8563	-2.8896	-2.7104	-2.8208	-2.9313	-2.7917	193.325	40.132	-141.566	5.966	26.597	55.497	78.614	128.675	-139.042	188.580	-8.385	-135.810	-158.073	189.488	83.217	33.523	0.00012007	0.00014348	4.4869e-05	318.16	1.6445e-06	5.5335e-07	366.05	89.183	4.5836e-07	1.319e-06	120.64	35.264	23.979	7.3734	1.0592e-06	14.375	6.7095e-05	2.3128e-05	8.1721e-06	331.6	2.4347e-07	4.1891e-07	383.58	93.946	2.9726e-07	2.1704e-07	125.83	37.362	25.335	7.825	2.6786e-07	15.113	-91.813	-56.266	-82.834	-150.189	-27.667	-63.671	-151.079	-145.882	1.525	-8.819	-147.310	-141.755	-141.466	-136.451	-8.292	-137.120	-8191	255	
40973.363	1	1	0	0	0.24391	0.10139	0.14184	0.31021	0.36929	0.075067	0.16742	0.18248	0.17598	0.18711	0.069259	0.21089	0.24667	0.037808	0.31478	0.14352	-2.5604	-2.4604	-2.825	-3.0104	-2.7542	-3.1146	-2.8792	-2.7167	-2.8042	-2.8271	-2.7021	-2.9292	-2.5646	-2.7729	-2.75	-2.7458	110.221	-83.285	61.779	76.384	165.707	47.120	104.494	-83.497	-133.958	174.091	-80.567	-115.349	8.540	13.328	-92.834	140.538	0.00012455	0.00012167	4.6567e-05	317	1.4955e-06	1.6453e-06	365.3	89.784	1.0415e-06	1.5644e-06	120.44	35.166	24.133	7.4551	1.2748e-06	14.243	6.4357e-05	2.0934e-05	6.5299e-06	330.85	2.1919e-07	4.2148e-07	382.65	94.139	3.3801e-07	2.3642e-07	125.64	37.372	25.383	7.8793	2.6219e-07	15.153	-96.635	-87.340	-93.358	-150.759	2.601	6.496	-151.082	-146.119	-15.315	-19.913	-146.740	-141.785	-141.395	-135.772	-12.802	-137.231	-8191	255	
40973.461	1	1	0	0	0.11112	0.096854	0.17023	0.065424	0.275	0.1232	0.089565	0.12329	0.19455	0.16314	0.063873	0.19187	0.20854	0.15832	0.18072	0.16382	-2.5646	-2.7146	-2.8667	-2.9104	-2.5833	-3.0438	-2.8979	-2.5896	-3.0396	-2.8771	-2.6792	-2.7938	-2.5958	-2.8688	-3.0479	-2.4375	-138.129	151.212	177.284	19.477	-33.806	33.531	170.244	76.847	79.119	70.411	-143.712	93.005	180.934	-77.008	-145.317	172.299	0.00012069	8.1876e-05	4.8125e-05	319.07	2.3416e-06	1.2056e-06	365.8	89.64	9.1491e-07	1.6009e-06	120.09	35.562	24.283	7.4302	2.0619e-06	14.46	6.9164e-05	2.1743e-05	6.6682e-06	330.75	2.4447e-07	2.9015e-07	382.92	94.29	3.1682e-07	2.39e-07	126.18	37.574	25.491	7.8852	2.7453e-07	15.242	-94.759	-63.905	-89.008	-150.674	0.618	-4.223	-151.136	-145.785	-17.576	-30.314	-146.840	-141.803	-141.661	-136.344	8.984	-137.219	-8191	255	
40973.555	1	1	0	0	0.12992	0.18726	0.21683	0.12095	0.1186	0.044826	0.1772	0.034741	0.12917	0.25094	0.14797	0.20554	0.16799	0.025969	0.16645	0.056857	-2.4792	-2.7188	-2.7042	-3.1417	-2.8167	-3.05	-3.2042	-2.5646	-2.8271	-2.7	-2.7938	-2.8979	-2.8688	-2.8667	-3.0875	-2.7021	27.423	-158.963	157.117	-120.615	-95.735	160.153	-23.707	-41.145	91.877	93.678	51.737	-145.844	112.578	187.762	-158.706	-150.540	0.00012323	0.00018471	5.3304e-05	320.93	9.5655e-07	1.8032e-06	367.48	90.289	1.4407e-06	1.9798e-06	121.16	35.668	24.173	7.4333	9.5118e-07	14.425	6.4746e-05	2.3611e-05	6.7719e-06	332.14	2.5569e-07	2.6283e-07	384.14	94.442	3.3999e-07	2.4346e-07	126.63	37.617	25.467	7.9094	2.8737e-07	15.277	-98.308	-68.517	-38.770	-150.521	-21.429	11.186	-151.051	-145.691	-13.696	-19.536	-146.854	-141.838	-141.985	-135.483	-28.779	-136.810	-8191	255	
40973.676	1	1	0	0	0.1958	0.12115	0.13508	0.2654	0.098805	0.082148	0.050822	0.13718	0.16352	0.04054	0.13708	0.13742	0.098959	0.080667	0.34243	0.2667	-2.6625	-2.7333	-2.7313	-2.9271	-2.6979	-2.8583	-3.0104	-2.7146	-2.8896	-2.9271	-2.6437	-2.9146	-2.5875	-2.7146	-3.075	-2.6063	-160.552	-103.073	59.260	-75.978	-92.111	0.518	189.399	-22.055	48.034	141.118	-139.589	39.561	79.355	19.044	-92.296	28.505	0.00012057	0.00013611	4.7722e-05	320.48	2.3686e-06	8.014e-07	365.21	89.432	7.3545e-07	1.3053e-06	119.47	35.127	23.988	7.3159	1.5959e-06	14.216	6.3931e-05	2.6568e-05	6.6855e-06	332.71	2.726e-07	2.3943e-07	382.79	94.054	3.6464e-07	2.5101e-07	125.08	37.136	25.229	7.7698	2.8687e-07	15.042	-98.121	-91.386	-67.384	-150.499	-3.077	-3.485	-150.688	-146.129	-23.538	-14.647	-146.829	-141.428	-141.501	-135.905	-12.842	-137.074	-8191	255	
40973.773	1	1	0	0	0.18206	0.076588	0.11386	0.22929	0.33494	0.25844	0.062039	0.20184	0.03938	0.20118	0.17283	0.10432	0.20043	0.22976	0.14023	0.18624	-2.5583	-2.8688	-2.6833	-2.8646	-2.7583	-2.8042	-2.975	-2.6208	-2.9604	-2.9792	-2.6146	-3.0312	-2.9062	-2.5958	-2.9917	-2.625	-74.785	-62.410	62.933	19.224	7.810	151.605	124.635	125.499	-22.997	-33.824	185.007	163.535	-55.852	129.161	165.880	-103.533	0.00012224	0.00015178	5.7576e-05	316.7	1.1215e-06	1.3127e-06	363.07	89.003	1.2869e-06	8.3727e-07	118.73	34.679	23.82	7.3234	1.7104e-06	14.233	5.5667e-05	3.1424e-05	6.2231e-06	327.96	2.8349e-07	2.5668e-07	379.33	93.126	3.2191e-07	2.7863e-07	124.34	36.862	24.992	7.75	2.6753e-07	15.003	-98.608	-124.048	-68.847	-150.647	34.671	-42.800	-151.029	-146.093	-6.121	-26.415	-146.559	-141.375	-141.415	-135.660	-4.747	-137.220	-8191	255	
40973.844	1	1	0	0	0.27742	0.17069	0.2909	0.10957	0.13625	0.12659	0.058613	0.27375	0.10429	0.056032	0.20635	0.20779	0.082382	0.084941	0.22438	0.12928	-2.3875	-2.9042	-2.3771	-3.0854	-2.8187	-2.7229	-3.1292	-2.5917	-2.7167	-2.9667	-2.6375	-2.9354	-2.6813	-2.5583	-2.9771	-2.7917	101.584	77.436	-44.258	81.108	-28.427	161.053	99.096	-127.289	-20.016	71.212	182.888	-6.738	-154.169	178.639	-76.145	19.514	0.00011861	0.00011757	3.2138e-05	314.23	1.3743e-06	5.3573e-07	362.99	88.016	9.8543e-07	1.6747e-06	119.29	34.88	23.913	7.2849	1.3469e-06	14.329	5.4109e-05	4.4374e-05	6.1799e-06	326.79	2.6256e-07	2.5497e-07	379.23	92.823	3.4722e-07	2.5804e-07	124.27	37.079	25.068	7.7535	2.9555e-07	15.085	-94.404	-75.883	-97.054	-150.304	-31.230	119.468	-150.765	-145.819	-26.772	-7.269	-147.106	-141.442	-141.772	-136.105	9.383	-136.532	-8191	255	
40973.965	1	1	0	0	0.17692	0.082282	0.058036	0.0385	0.10979	0.20294	0.091616	0.17361	0.18338	0.2477	0.18426	0.14424	0.21092	0.37596	0.1461	0.18093	-2.2292	-2.775	-2.4979	-2.8646	-2.7021	-2.725	-2.875	-2.7792	-2.6813	-2.8479	-2.6562	-2.9	-2.9375	-2.5042	-2.6792	-2.7375	170.982	96.503	-124.759	92.697	54.130	4.702	-20.425	156.569	-158.899	30.634	188.671	-124.682	182.075	-156.005	73.217	-99.143	0.00011358	0.00013515	4.8411e-05	313.54	1.4762e-06	1.0218e-06	362.14	88.514	8.6239e-07	1.2968e-06	118	35.216	23.556	7.3523	1.1444e-06	14.403	5.1103e-05	4.0202e-05	6.6293e-06	326.94	2.9538e-07	2.4916e-07	379.63	93.016	3.1402e-07	2.5118e-07	124.27	37.092	25.086	7.7982	3.2507e-07	15.165	-97.476	-63.408	-90.666	-150.456	-4.172	20.244	-150.946	-145.573	-10.984	-3.214	-146.825	-141.931	-142.080	-135.910	-6.271	-137.535	-8191	255	
40974.059	1	1	0	0	0.24093	0.12526	0.21334	0.3489	0.12846	0.14632	0.24324	0.098599	0.15136	0.039035	0.20052	0.06932	0.3865	0.22175	0.24935	0.073839	-2.425	-2.9813	-2.7438	-2.9208	-2.9104	-2.6292	-2.875	-2.7687	-2.6625	-3.1167	-2.7104	-2.7875	-2.7479	-2.5146	-2.9229	-2.9104	45.240	-118.030	-68.549	0.815	-32.862	57.395	60.810	-145.358	-140.532	122.254	13.638	-0.946	-154.499	66.359	-31.333	33.041	0.00012839	9.9836e-05	5.8398e-05	316.77	1.0267e-06	6.7551e-07	361.84	88.312	9.1698e-07	6.4206e-07	118.45	34.677	23.477	7.3569	1.433e-06	14.057	5.4548e-05	4.7144e-05	6.4132e-06	328.35	2.6708e-07	2.2167e-07	378.44	92.811	3.1353e-07	2.5838e-07	123.84	36.725	24.8	7.7104	3.3724e-07	14.885	-96.729	-98.903	-97.862	-150.593	-34.631	-41.382	-151.185	-145.994	-24.141	-0.665	-147.034	-141.887	-141.745	-135.594	10.784	-137.155	-8191	255	
40974.156	1	1	0	0	0.07106	0.12448	0.30967	0.04836	0.15663	0.17875	0.16518	0.31487	0.13398	0.20306	0.21674	0.11623	0.16718	0.048521	0.065844	0.087213	-2.1833	-2.8979	-2.8917	-2.8375	-2.9125	-2.6104	-2.8812	-2.7062	-2.7313	-3.1229	-2.8833	-2.8896	-2.9479	-2.8187	-2.9729	-2.8104	62.137	90.394	148.761	189.503	73.352	-65.360	90.087	26.184	97.691	144.801	-162.165	191.537	65.766	-37.791	-3.124	-74.151	0.00012372	0.00011145	3.8934e-05	311.46	1.0786e-06	1.0263e-06	358.93	87.042	1.3065e-06	1.9307e-06	117.02	34.64	23.634	7.3495	1.2872e-06	14.308	5.013e-05	4.1759e-05	7.1047e-06	323.62	2.6289e-07	2.536e-07	375.48	91.549	3.2865e-07	2.8995e-07	122.7	36.605	24.849	7.7295	3.1706e-07	15.031	-101.317	-87.037	-86.239	-150.645	-26.310	-34.952	-150.932	-146.265	-20.982	-6.540	-146.957	-142.144	-141.876	-135.703	-0.991	-137.472	-8191	255	
40974.277	1	1	0	0	0.13022	0.14199	0.17504	0.13029	0.13201	0.1668	0.14733	0.080816	0.07825	0.1102	0.088377	0.092335	0.27504	0.20732	0.19033	0.15374	-2.1729	-3.0042	-2.7979	-2.825	-2.9813	-2.9062	-2.9375	-2.9125	-2.7208	-3.1146	-2.85	-2.7833	-2.8438	-2.7167	-2.7188	-2.8812	134.707	-24.075	144.059	187.558	-24.879	-122.158	110.634	58.145	128.191	99.760	180.113	-81.837	-112.371	108.065	65.186	152.305	0.00011164	7.0064e-05	2.7346e-05	313.34	1.2802e-06	6.7135e-07	357.3	87.961	1.1337e-06	1.3876e-06	117.31	34.927	23.728	7.3344	6.6368e-07	14.266	5.1128e-05	4.551e-05	6.0632e-06	324.36	2.9404e-07	2.3857e-07	375.22	92.322	3.0203e-07	2.6731e-07	123.16	36.707	24.916	7.7719	2.9621e-07	15.09	-98.115	-67.292	-99.023	-150.462	-3.792	23.140	-150.536	-146.061	-10.850	-0.942	-146.813	-141.690	-141.793	-135.898	40.748	-136.989	-8191	255	
40974.371	1	1	0	0	0.24689	0.11856	0.15297	0.046221	0.0078946	0.13175	0.31532	0.11703	0.17221	0.057568	0.30753	0.12996	0.11926	0.10166	0.27397	0.35701	-2.0396	-2.9042	-2.875	-2.6208	-2.9333	-2.8104	-2.9292	-2.9	-2.5958	-2.8375	-2.7583	-2.7521	-2.9542	-2.8083	-2.6437	-2.8646	-31.340	-94.994	92.357	-54.184	24.432	95.099	83.357	191.542	149.373	-147.092	192.772	1.814	87.852	25.252	-24.428	119.695	0.00011356	0.00012692	2.7536e-05	312.44	7.5077e-07	1.3661e-06	358.95	87.989	1.3623e-06	1.6737e-06	118.53	35.063	23.7	7.436	9.8575e-07	14.535	5.2552e-05	4.3409e-05	6.4219e-06	324.2	3.0425e-07	2.5207e-07	376.04	92.336	2.9759e-07	3.0162e-07	124.19	37.1	25.029	7.8655	2.8421e-07	15.342	-97.528	-53.864	-75.987	-150.436	1.242	-42.820	-150.771	-145.980	-16.015	-3.829	-146.988	-141.492	-141.504	-135.945	-16.564	-136.916	-8191	255	
40974.469	1	1	0	0	0.18713	0.11453	0.16652	0.23936	0.28628	0.30887	0.14178	0.10217	0.035942	0.11349	0.058896	0.059737	0.16173	0.16316	0.26557	0.18707	-2.1604	-2.9667	-2.6146	-2.6437	-2.8	-2.7271	-2.8812	-2.9125	-2.5938	-2.9479	-2.7646	-2.8292	-2.9979	-2.8583	-2.8771	-3.0062	47.386	55.764	158.774	-145.843	146.886	-75.285	98.460	135.433	11.432	81.933	-89.932	12.674	87.101	-50.204	139.171	149.851	0.00012419	0.0001648	2.9646e-05	315.77	2.0678e-06	2.0313e-06	361.2	88.689	6.7767e-07	1.1402e-06	118.5	34.943	23.857	7.4955	9.8965e-07	14.407	5.2077e-05	3.8724e-05	8.7642e-06	325.51	3.5733e-07	2.6641e-07	378.61	93.086	2.9759e-07	3.1414e-07	124.1	36.925	25.127	7.8813	3.0806e-07	15.156	-96.094	-62.677	-73.983	-150.658	2.026	0.213	-150.644	-145.718	-2.814	2.836	-146.832	-141.674	-141.377	-135.881	-25.484	-137.501	-8191	255	
40974.539	1	1	0	0	0.38023	0.15906	0.21543	0.12112	0.32147	0.2343	0.18731	0.17649	0.15006	0.16468	0.12562	0.15243	0.17827	0.2688	0.18612	0.084203	-2.1063	-2.8375	-2.9167	-2.675	-2.85	-2.8333	-2.9333	-3.1083	-2.8333	-2.8	-2.8563	-2.7021	-2.9562	-2.7104	-2.8146	-3.1333	182.078	-21.620	60.778	-90.427	-120.815	119.754	73.228	106.870	105.665	25.804	-141.739	33.115	-122.215	179.526	-23.963	152.900	0.00014063	0.00021767	3.1999e-05	313.04	1.4105e-06	1.648e-06	357.18	87.336	1.0068e-06	1.3111e-06	117.51	35.078	23.735	7.3679	1.5254e-06	14.392	5.361e-05	2.7876e-05	1.0852e-05	324.05	2.9102e-07	2.1484e-07	374.47	91.911	3.2043e-07	2.987e-07	123.04	36.872	24.981	7.8262	2.8487e-07	15.259	-94.656	-65.179	-118.584	-150.870	-13.790	-24.307	-150.804	-145.807	-25.440	-21.107	-146.624	-141.683	-141.323	-135.824	7.090	-137.305	-8191	255	
40974.660	1	1	0	0	0.13146	0.11896	0.1876	0.30779	0.10391	0.012933	0.02046	0.046845	0.20337	0.0888	0.2798	0.092043	0.17605	0.21532	0.11539	0.30406	-2.2708	-2.8625	-3.0042	-2.6188	-2.6375	-2.7812	-2.8167	-2.9854	-2.9625	-2.6312	-3.0271	-2.6708	-2.7583	-2.7375	-2.825	-2.9167	-61.974	150.189	-10.092	78.062	-32.257	56.586	-147.634	167.822	-50.218	28.213	122.571	-139.704	-99.796	149.084	111.759	58.706	0.00011359	0.00016677	3.6624e-05	307.99	5.6398e-07	1.6687e-06	358.62	87.558	8.2455e-07	8.0174e-07	118.63	35.041	23.612	7.5352	7.3628e-07	14.517	5.058e-05	2.8545e-05	1.2057e-05	323.44	3.3992e-07	2.1808e-07	376.33	92.076	3.1369e-07	2.4895e-07	123.88	37.077	25.049	7.9505	2.5485e-07	15.396	-100.545	-82.455	-65.861	-150.753	-10.117	-34.726	-150.855	-145.770	-16.848	1.665	-147.027	-141.951	-141.813	-135.687	-9.753	-137.267	-8191	255	
40974.758	1	1	0	0	0.22932	0.19424	0.071139	0.041963	0.16563	0.09191	0.12037	0.27994	0.23783	0.27833	0.16945	0.22352	0.028899	0.24522	0.13357	0.19467	-2.1375	-2.6771	-3.0792	-2.5208	-2.9729	-2.9271	-2.6083	-2.8333	-2.7188	-2.8521	-3.0229	-2.5292	-2.9146	-2.8542	-2.7521	-2.9229	-96.718	6.599	-108.543	150.162	-117.599	-1.408	82.007	177.438	13.235	-8.547	98.627	104.693	18.044	162.750	91.645	106.669	0.00013222	0.00014125	4.3006e-05	313.36	1.3513e-06	1.2382e-06	361.64	88.689	1.2371e-06	1.2599e-06	118.77	35.168	23.874	7.6128	1.0792e-06	14.763	5.3075e-05	2.4778e-05	1.0592e-05	325.25	3.364e-07	2.7e-07	378.37	92.944	3.229e-07	2.6182e-07	124.66	37.36	25.228	8.0132	2.8437e-07	15.631	-94.753	-61.906	-49.483	-150.762	-14.750	-4.115	-150.928	-145.769	-37.373	-11.458	-147.191	-142.020	-141.260	-135.606	26.564	-137.142	-8191	255	
40974.852	1	1	0	0	0.22466	0.14983	0.082957	0.15638	0.17962	0.15447	0.24143	0.14311	0.39663	0.29767	0.42938	0.060793	0.10325	0.10769	0.17165	0.15917	-2.3521	-2.7292	-2.8396	-2.8083	-2.8333	-2.9562	-2.5229	-2.8458	-2.9208	-2.6625	-2.9188	-2.7229	-2.7938	-2.8083	-2.5146	-2.9417	69.050	36.194	90.203	-143.862	-19.344	-33.382	-157.746	137.221	-22.553	-63.076	-156.944	38.944	162.364	-52.234	45.855	15.528	0.0001219	0.00019415	5.6519e-05	317.15	1.0802e-06	1.1065e-06	363.44	88.918	1.1575e-06	1.8146e-06	119.94	35.492	23.96	7.5173	1.3775e-06	14.637	5.3051e-05	2.814e-05	1.2113e-05	328.49	3.3808e-07	2.5087e-07	381.34	93.523	3.252e-07	2.788e-07	125.2	37.512	25.214	7.9855	2.8821e-07	15.436	-97.511	-62.476	-60.921	-150.816	-8.217	-31.510	-151.071	-145.748	-14.693	-7.658	-146.867	-141.817	-141.724	-135.810	-16.788	-137.110	-8191	255	
40974.949	1	1	0	0	0.25477	0.31605	0.17305	0.29222	0.12295	0.053396	0.29028	0.067777	0.18286	0.12223	0.19567	0.1588	0.084456	0.19391	0.23924	0.24081	-2.2354	-2.5854	-2.9146	-2.7333	-2.825	-2.9625	-2.7167	-3.1083	-2.8438	-2.7396	-2.9729	-2.8271	-2.7542	-2.7771	-2.6771	-3.1667	-109.483	120.034	70.948	-89.779	-111.441	53.052	164.441	82.782	-90.515	-112.056	113.772	97.394	-85.073	98.131	-47.657	-134.526	0.00012606	0.0001906	3.9075e-05	314.41	1.1655e-06	1.1808e-06	362.04	87.732	1.2634e-06	1.1199e-06	117.7	35.064	23.81	7.4594	1.2358e-06	14.495	5.832e-05	2.4389e-05	1.1647e-05	325.92	2.8818e-07	2.8981e-07	377.27	92.123	3.6809e-07	2.6096e-07	123.78	37.104	24.992	7.9081	2.9021e-07	15.38	-93.958	-87.801	-61.683	-150.425	58.910	-37.711	-150.656	-145.670	-20.651	10.286	-147.004	-141.811	-141.760	-135.902	5.850	-136.863	-8191	255	
40975.047	1	1	0	0	0.23326	0.11345	0.15501	0.13651	0.011465	0.11993	0.13678	0.20714	0.075327	0.14387	0.13635	0.11742	0.25108	0.066476	0.11744	0.056979	-2.425	-2.7604	-3.0646	-2.6083	-2.5708	-3.0771	-2.7687	-2.7687	-2.85	-2.6771	-2.7833	-2.8688	-2.6729	-3.1937	-2.6667	-2.8063	-72.682	-17.762	54.058	-36.020	136.673	124.191	-65.868	76.213	-29.732	155.684	14.939	84.293	-122.899	-133.464	-97.841	-53.779	0.0001249	0.00011923	2.8781e-05	313.75	1.4084e-06	1.5769e-06	362.18	87.634	1.3121e-06	1.101e-06	118.5	35.037	23.772	7.4512	1.2656e-06	14.603	5.3647e-05	2.6257e-05	1.2861e-05	325.09	2.7562e-07	3.2448e-07	378.29	92.239	4.5846e-07	2.7383e-07	124.26	37.157	25.053	7.9307	3.0522e-07	15.427	-96.376	-69.147	-72.085	-150.768	-13.050	-9.390	-150.912	-145.532	-15.375	10.903	-146.957	-141.930	-141.567	-136.243	-12.257	-136.853	-8191	255	
40975.141	1	1	0	0	0.063341	0.12253	0.15136	0.33102	0.17182	0.40637	0.29538	0.075239	0.20039	0.087714	0.11369	0.10874	0.2139	0.3196	0.22951	0.17986	-2.4437	-2.7062	-2.8521	-2.7104	-2.6542	-2.9604	-2.7292	-2.9583	-2.8396	-2.5958	-3.0062	-2.7812	-2.6042	-2.8875	-2.7521	-2.8438	92.899	132.692	170.229	191.613	146.633	96.296	89.424	10.343	-118.651	8.491	187.672	68.782	-49.350	159.196	133.274	177.782	0.00012666	9.0507e-05	3.3759e-05	315.58	1.737e-06	1.3763e-06	360.33	88.858	9.7388e-07	1.3074e-06	118.44	35.507	23.806	7.5989	8.4182e-07	14.712	5.6957e-05	2.4996e-05	1.2334e-05	326.98	2.6909e-07	3.1355e-07	377.38	92.6	5.4293e-07	2.2664e-07	124.39	37.362	25.162	8.0109	2.9855e-07	15.602	-98.094	-143.859	-112.550	-150.487	3.361	-31.324	-151.045	-145.834	-6.081	5.730	-147.046	-141.832	-141.749	-135.435	11.073	-137.102	-8191	255	
40975.238	1	1	0	0	0.16855	0.24185	0.051433	0.073576	0.17025	0.0979	0.14099	0.068789	0.14421	0.23216	0.19207	0.25364	0.19521	0.22787	0.025471	0.21684	-2.6063	-2.6688	-2.6979	-2.7208	-2.8271	-2.9542	-2.6458	-2.6	-2.9896	-2.8688	-3.0667	-2.9313	-2.5771	-2.8937	-2.7875	-2.9583	84.226	-134.222	152.122	-147.310	-141.396	-132.116	112.933	149.385	108.074	113.940	-158.615	-14.877	43.609	-27.334	-136.395	-69.926	0.00014431	0.00011344	3.4209e-05	314.5	1.3853e-06	1.1979e-06	361.76	88.423	2.0651e-06	1.4698e-06	118.88	35.614	23.922	7.501	1.0043e-06	14.66	5.9489e-05	2.5214e-05	1.1085e-05	325.7	2.9186e-07	3.0005e-07	379.05	92.983	5.1055e-07	2.565e-07	124.84	37.519	25.171	7.9893	2.7103e-07	15.512	-93.929	-80.900	-113.139	-150.401	-25.973	-34.309	-150.708	-145.937	-28.756	-7.489	-147.000	-141.519	-141.608	-135.809	-16.613	-137.165	-8191	255	
40975.355	1	1	0	0	0.1362	0.039435	0.1799	0.27381	0.41145	0.20045	0.14861	0.26876	0.16995	0.45974	0.18575	0.1055	0.090827	0.06741	0.13367	0.13044	-2.5229	-2.7062	-2.8333	-2.8771	-2.7417	-3.0375	-2.7833	-2.6708	-2.975	-2.8479	-2.7521	-2.9646	-2.6896	-3.0312	-2.8521	-2.675	-43.975	-65.020	151.054	55.151	40.895	114.343	-117.456	-159.690	179.878	133.944	57.827	-112.890	115.268	62.559	-131.519	-28.790	0.00011992	0.00019157	4.2246e-05	314	1.4694e-06	1.591e-06	358.77	87.993	1.2772e-06	6.5222e-07	117.29	34.795	23.59	7.404	1.1126e-06	14.534	5.6142e-05	2.6397e-05	8.6129e-06	326.66	2.6189e-07	3.0432e-07	376.12	91.953	5.7891e-07	2.5066e-07	123.11	36.864	24.832	7.8867	3.0022e-07	15.351	-98.078	-105.000	-70.431	-150.498	-9.827	10.516	-151.020	-145.906	-22.684	71.538	-147.185	-141.318	-141.250	-135.946	-19.708	-137.022	-8191	255	
40975.453	1	1	0	0	0.17498	0.33296	0.34835	0.12825	0.17508	0.12804	0.10564	0.32683	0.087681	0.11614	0.39138	0.21275	0.11108	0.28363	0.045952	0.037989	-2.6417	-2.5875	-2.9104	-2.9854	-2.575	-3.0167	-2.7833	-2.6229	-2.8146	-2.7208	-2.7562	-3.0125	-2.6729	-2.7938	-2.8563	-2.425	-7.019	-121.023	60.224	-117.745	-117.104	166.421	110.214	4.112	41.033	80.395	24.823	-122.745	-142.067	-160.141	89.363	135.551	0.00013231	8.4461e-05	3.6955e-05	309.49	1.014e-06	1.059e-06	359.91	87.169	1.3079e-06	1.7163e-06	118.42	35.31	23.681	7.5348	8.5337e-07	14.739	5.7834e-05	2.4996e-05	6.7374e-06	324.15	2.6072e-07	3.1577e-07	377.26	91.99	5.2091e-07	2.6439e-07	123.74	37.147	25.006	7.9713	3.8428e-07	15.528	-94.799	-81.385	-93.894	-150.210	-13.977	-32.617	-151.093	-146.080	-20.496	23.631	-146.786	-141.972	-141.668	-135.526	-20.668	-136.781	-8191	255	
40975.547	1	1	0	0	0.10494	0.19991	0.18661	0.12951	0.13735	0.21191	0.15876	0.0997	0.17436	0.093257	0.014332	0.13679	0.19891	0.13865	0.15878	0.20774	-2.4708	-2.5917	-2.7042	-3.0187	-2.8396	-2.8104	-2.9167	-2.6937	-3.0354	-2.8	-2.8688	-2.9938	-2.6917	-2.8187	-2.9292	-2.7021	6.270	-48.391	107.336	-100.575	-112.964	116.507	174.797	1.809	98.392	-62.735	154.731	129.274	-126.952	38.952	47.666	-124.797	0.0001209	0.00011319	4.2786e-05	315.75	1.185e-06	1.5695e-06	362.32	87.712	9.4305e-07	1.4745e-06	119.32	35.678	23.787	7.6496	1.6151e-06	14.904	5.7444e-05	2.5339e-05	7.0485e-06	326.91	2.6792e-07	2.9903e-07	380.17	92.318	5.684e-07	2.5615e-07	124.93	37.7	25.142	8.0705	4.8135e-07	15.805	-95.060	-77.651	-42.104	-150.933	-15.526	35.132	-150.691	-145.868	-22.770	1.104	-146.779	-141.800	-141.300	-136.066	3.038	-136.843	-8191	255	
40975.645	1	1	0	0	0.10881	0.1421	0.12158	0.13888	0.18009	0.31898	0.060965	0.16122	0.11414	0.25663	0.076496	0.27053	0.14053	0.068814	0.039135	0.10847	-2.7479	-2.8	-2.7	-2.9917	-2.675	-2.8771	-2.9146	-2.8625	-2.8646	-2.95	-2.5854	-3.1625	-2.7854	-2.7313	-3.0583	-2.8646	-41.883	135.898	44.181	-32.333	-132.165	170.078	-36.508	189.355	122.024	9.841	96.455	194.631	59.982	158.740	-126.576	24.926	0.00013281	0.00013578	2.8995e-05	316.89	2.0019e-06	1.978e-06	366.56	89.213	1.539e-06	1.4859e-06	120.22	36.034	24.075	7.6553	1.0688e-06	15.055	5.798e-05	2.4965e-05	6.8713e-06	329.96	2.9102e-07	2.9493e-07	384.29	93.411	5.2074e-07	2.7726e-07	126.13	38.033	25.395	8.1255	5.0753e-07	15.835	-96.564	-67.045	-31.686	-150.932	-9.975	-32.287	-150.698	-145.868	-19.924	-24.446	-146.863	-141.817	-141.702	-135.726	19.715	-137.129	-8191	255	
40975.766	1	1	0	0	0.051625	0.24547	0.099221	0.11224	0.023079	0.21743	0.12875	0.12962	0.16931	0.33696	0.23032	0.27041	0.076171	0.21872	0.23072	0.20846	-2.5417	-2.6937	-2.6979	-2.9958	-2.6958	-2.8042	-3.1958	-2.5917	-2.9875	-2.8375	-2.8083	-3	-2.8167	-2.7229	-3.05	-2.725	-26.581	-104.296	-37.232	50.557	192.573	44.502	-71.373	-158.851	-44.222	-2.077	107.721	-102.209	-54.093	-114.576	106.373	66.146	0.00013132	0.00020695	3.8152e-05	314.24	1.1009e-06	8.9983e-07	365.89	88.483	1.4419e-06	1.9898e-06	118.85	35.423	23.85	7.5314	6.9936e-07	14.779	5.8223e-05	2.579e-05	7.3424e-06	329.28	2.7629e-07	2.8059e-07	381.43	92.857	4.1755e-07	3.7334e-07	124.39	37.353	25.125	7.983	4.4132e-07	15.636	-97.507	-74.715	-81.261	-151.182	-47.114	-49.262	-151.422	-146.020	-4.217	4.621	-147.109	-141.702	-141.475	-136.123	8.482	-137.018	-8191	255	
40975.836	1	1	0	0	0.22504	0.054106	0.19098	0.17722	0.076758	0.12395	0.14331	0.29589	0.18645	0.078812	0.15503	0.15336	0.098874	0.098816	0.2517	0.092336	-2.3667	-2.8167	-2.6875	-2.7687	-2.7208	-2.6792	-2.9771	-2.6396	-2.7729	-2.9958	-2.7167	-2.9188	-2.8146	-2.7562	-3.0312	-2.8187	-97.282	-116.660	152.566	89.045	-96.960	-63.666	-148.738	140.179	-101.890	-149.618	189.961	133.393	194.045	136.483	89.877	84.096	0.00012612	0.00011706	5.466e-05	317.55	1.658e-06	1.1369e-06	365.72	88.602	9.1552e-07	1.6332e-06	119.63	35.728	23.929	7.624	1.4466e-06	14.925	5.6373e-05	2.6226e-05	6.4738e-06	329.96	2.7914e-07	2.6009e-07	382.22	92.682	3.6694e-07	4.3407e-07	125.11	37.61	25.181	8.0695	5.1637e-07	15.781	-93.013	-60.238	-75.526	-150.456	27.740	-26.147	-150.805	-145.675	-40.310	-29.494	-146.920	-141.619	-141.196	-136.214	15.165	-137.131	-8191	255	
40975.957	1	1	0	0	0.1302	0.28357	0.184	0.067767	0.17605	0.096665	0.11639	0.145	0.10287	0.17148	0.12513	0.18274	0.24793	0.22659	0.039872	0.16182	-2.7146	-2.8542	-2.6312	-2.9688	-2.8875	-2.7917	-3.1458	-2.8875	-2.9062	-3.1063	-2.7708	-2.8563	-3.0333	-2.7229	-2.9333	-2.8187	61.065	-67.189	48.402	-149.961	163.144	-22.864	180.911	-145.223	127.954	-116.735	-119.949	108.913	-21.474	-115.969	-157.022	-140.412	0.00013408	0.00013223	4.7355e-05	318	1.3233e-06	1.1029e-06	367.39	89.136	9.2516e-07	1.6284e-06	120.9	36.098	23.946	7.6463	1.9049e-06	15.019	5.5777e-05	2.428e-05	6.8065e-06	330.41	2.6524e-07	2.4643e-07	384.34	93.125	3.0614e-07	4.7937e-07	126.23	38.031	25.335	8.1302	4.9219e-07	15.931	-91.939	-62.706	-74.980	-150.187	-25.702	9.192	-151.107	-145.905	-6.683	0.570	-147.212	-141.648	-141.514	-136.062	19.961	-136.750	-8191	255	
40976.055	1	1	0	0	0.088447	0.060082	0.28431	0.23881	0.1355	0.13319	0.27485	0.12303	0.1968	0.13011	0.23205	0.10061	0.16572	0.22318	0.073851	0.046388	-2.4583	-2.7812	-2.6625	-2.8625	-2.9375	-2.8271	-3.025	-2.7313	-2.8917	-3.1604	-2.8063	-3.0375	-3.0708	-2.6625	-2.9375	-2.7917	-120.527	-11.734	122.202	-57.806	-81.391	41.414	-72.869	188.794	-64.962	-28.415	-158.458	55.898	-104.716	171.806	-49.858	46.193	0.00013693	0.00019455	2.7889e-05	317.11	9.463e-07	1.611e-06	369.55	89.699	6.2976e-07	1.723e-06	121.18	36.338	23.92	7.6854	1.7541e-06	15.043	5.6093e-05	2.8903e-05	6.0632e-06	331.39	3.8999e-07	2.2525e-07	386.22	93.876	3.1632e-07	4.7611e-07	126.77	38.152	25.481	8.1668	5.2821e-07	15.934	-96.447	-101.753	-92.552	-150.628	-21.702	-13.694	-151.007	-145.615	-48.660	-0.722	-146.947	-141.642	-141.436	-136.140	21.744	-137.196	-8191	255	
40976.148	1	1	0	0	0.058863	0.2039	0.19252	0.19609	0.10699	0.16227	0.25257	0.14782	0.1306	0.024808	0.23697	0.14673	0.18274	0.12282	0.2479	0.2939	-2.2333	-3.075	-2.9042	-2.6917	-3.0042	-2.7458	-2.9354	-2.9396	-2.7833	-2.9271	-2.8208	-2.7812	-3.0146	-2.5187	-2.9062	-2.9292	84.938	167.377	93.777	-32.440	-112.917	-80.496	-92.264	-136.557	73.675	-149.656	102.465	-131.444	184.247	107.900	-1.674	-132.123	0.00013041	0.00010949	3.8611e-05	319.42	2.0534e-06	1.4044e-06	365.47	88.87	1.3787e-06	2.3212e-06	120.46	35.782	24.011	7.6486	8.6378e-07	14.957	5.473e-05	2.5774e-05	6.2577e-06	331.17	4.3587e-07	2.3413e-07	383.45	93.165	3.3095e-07	5.0888e-07	125.76	37.746	25.196	8.057	4.66e-07	15.72	-96.715	-81.692	-89.277	-150.919	-18.504	-14.242	-151.075	-145.976	-21.964	-10.519	-147.103	-141.652	-141.648	-135.337	0.679	-137.096	-8191	255	
40976.242	1	1	0	0	0.15408	0.32224	0.048127	0.12083	0.27713	0.13829	0.28123	0.21068	0.055693	0.25657	0.14568	0.20604	0.24794	0.083481	0.25082	0.31667	-2.2583	-2.9417	-2.7979	-2.8	-3.0021	-2.7896	-2.9896	-2.7521	-2.5875	-2.9646	-2.7875	-2.75	-3.0917	-2.7167	-3.0396	-2.8646	-107.172	-24.330	28.185	25.642	174.269	-128.614	184.451	-93.954	20.509	-6.726	161.811	-114.813	-162.405	-43.771	-80.238	-122.898	0.00012589	0.00017935	4.5345e-05	316.09	1.3104e-06	8.3836e-07	364.31	88.891	1.2161e-06	1.8343e-06	120.14	35.824	24.087	7.6389	1.0719e-06	14.896	5.3452e-05	2.9307e-05	6.6942e-06	329.41	5.0854e-07	2.174e-07	383.66	93.018	3.0745e-07	4.4574e-07	125.51	37.747	25.341	8.081	3.4775e-07	15.789	-94.721	-63.415	-58.647	-150.142	-41.216	16.591	-150.719	-146.026	-34.104	-36.716	-147.117	-141.620	-141.792	-136.008	23.981	-137.113	-8191	255	
40976.340	1	1	0	0	0.14367	0.076744	0.12154	0.15996	0.21187	0.17069	0.089325	0.10067	0.098583	0.15724	0.18803	0.081947	0.33861	0.1666	0.10745	0.30908	-1.9958	-2.8708	-2.9396	-2.6729	-2.8729	-2.7021	-2.9333	-2.8854	-2.6646	-2.8708	-3.0354	-2.7771	-3.0563	-2.9292	-3.1042	-3.0771	141.848	73.501	-147.238	93.268	145.255	-155.138	125.943	-146.025	77.925	-60.699	180.162	97.015	152.490	-70.760	-130.846	180.741	0.00012147	0.00016562	4.4293e-05	317.37	1.2256e-06	1.6623e-06	366.55	88.917	1.177e-06	1.6474e-06	120.7	35.908	24.244	7.6809	1.6636e-06	14.894	5.3817e-05	2.6786e-05	6.0589e-06	329.4	4.9832e-07	2.2423e-07	383.21	93.197	2.971e-07	4.9858e-07	125.75	37.87	25.383	8.123	3.1773e-07	15.862	-94.775	-76.015	-49.378	-150.021	31.185	9.654	-151.011	-145.754	-13.306	1.781	-146.960	-141.474	-141.463	-135.845	-21.859	-136.944	-8191	255	
40976.438	1	1	0	0	0.17255	0.21486	0.17936	0.23642	0.25182	0.15305	0.25602	0.10112	0.062466	0.13784	0.18728	0.11833	0.31449	0.12058	0.054952	0.06022	-2.3292	-2.8583	-2.975	-2.7146	-3.05	-2.8563	-2.95	-3.05	-2.8625	-3.05	-2.9104	-2.5958	-3.0479	-2.9167	-2.9479	-2.9792	-159.522	109.763	-137.980	14.972	133.500	160.493	93.245	-106.548	-13.971	129.501	-99.878	73.100	110.395	-152.217	-135.180	0.217	0.00014025	0.00015763	2.6504e-05	318.93	9.5277e-07	1.3196e-06	367.35	89.127	9.9618e-07	2.1312e-06	120.98	36.076	24.254	7.7821	1.3407e-06	15.14	5.6677e-05	2.7627e-05	6.9405e-06	330.86	5.0067e-07	2.5924e-07	385.6	93.607	2.92e-07	4.6015e-07	126.81	38.271	25.637	8.1834	3.0772e-07	15.994	-94.961	-87.745	-104.642	-150.516	-7.349	-22.490	-151.006	-145.790	-32.444	32.793	-146.342	-141.832	-141.597	-135.801	11.860	-136.651	-8191	255	
40976.531	1	1	0	0	0.25326	0.072614	0.1042	0.16768	0.1856	0.069503	0.13141	0.21533	0.29678	0.19499	0.10176	0.18895	0.25339	0.34464	0.15756	0.11463	-2.2979	-2.9625	-2.9042	-2.7833	-2.9583	-2.8104	-2.6583	-2.8583	-2.7562	-2.9146	-3.1625	-2.85	-3.0687	-2.8208	-2.7667	-3.1292	-17.862	-60.688	-122.293	-41.470	-30.703	119.222	95.148	-150.549	-89.096	-6.825	120.586	2.111	81.358	-155.993	165.151	-8.668	0.00013528	0.00011421	2.3077e-05	317.77	7.9166e-07	2.1167e-06	367.87	89.649	1.044e-06	2.1111e-06	120	35.721	24.067	7.6428	1.5492e-06	14.838	5.4621e-05	2.8529e-05	6.638e-06	331.61	4.8208e-07	2.7529e-07	385.36	93.913	3.2125e-07	3.4331e-07	125.86	37.69	25.397	8.0679	2.9671e-07	15.666	-101.867	-98.276	-78.893	-151.021	-7.997	-11.672	-151.317	-145.951	-11.722	-20.966	-146.762	-141.813	-141.509	-136.158	-18.513	-137.203	-8191	255	
40976.629	1	1	0	0	0.26794	0.21759	0.16257	0.092795	0.099135	0.11864	0.10802	0.035225	0.0068256	0.24263	0.1918	0.14463	0.1802	0.1448	0.056323	0.20009	-2.2229	-2.7583	-2.9188	-2.5	-2.8958	-2.9125	-2.8333	-2.9396	-2.925	-2.8333	-2.8875	-2.7313	-2.9	-2.7771	-2.5229	-2.9854	17.816	-65.390	66.707	-131.410	195.956	-161.888	-105.293	-59.115	77.678	-10.345	-36.603	26.835	-138.407	173.660	87.013	44.500	0.00013761	8.9659e-05	4.4024e-05	313.87	1.6486e-06	1.0537e-06	363.13	88.188	1.315e-06	1.5539e-06	119.23	35.494	23.828	7.6508	9.5734e-07	15.037	5.4949e-05	2.8623e-05	6.4349e-06	327.28	5.36e-07	2.3875e-07	381.49	92.928	3.1254e-07	2.7966e-07	125.32	37.657	25.231	8.1009	2.6052e-07	15.865	-97.286	-62.896	-95.479	-150.830	-41.507	5.090	-150.714	-145.791	-1.975	-34.661	-146.978	-141.433	-141.057	-136.004	0.795	-137.158	-8191	255	
40976.727	1	1	0	0	0.059043	0.11033	0.24559	0.091769	0.21151	0.14156	0.17908	0.12039	0.12562	0.10012	0.2399	0.10774	0.11089	0.12802	0.19602	0.27883	-2.2458	-2.7062	-2.8396	-2.6229	-2.8812	-3.0187	-2.9062	-3.0021	-2.7208	-2.8083	-3.2	-2.7375	-2.9042	-3.0021	-2.6417	-3.0458	-70.059	-154.243	-0.408	61.345	-35.636	-143.962	146.967	152.195	-65.523	190.030	-85.804	89.675	42.809	-41.552	54.842	-114.250	0.00013598	0.00014253	3.7315e-05	319.29	1.788e-06	7.3383e-07	364.24	89.495	1.0852e-06	1.7156e-06	120.06	35.55	24.174	7.6616	9.3123e-07	15.077	5.3428e-05	2.6833e-05	6.6682e-06	329.99	4.4307e-07	2.4438e-07	382.88	93.678	3.1254e-07	2.7022e-07	126.06	37.956	25.47	8.1377	2.9938e-07	15.908	-96.272	-83.300	-81.323	-150.290	-29.085	-25.128	-150.582	-145.761	-32.156	-25.433	-146.794	-141.259	-141.803	-135.962	4.433	-136.888	-8191	255	
40976.848	1	1	0	0	0.22602	0.13403	0.21402	0.056298	0.076945	0.095029	0.26787	0.15306	0.077115	0.18725	0.082803	0.11541	0.1981	0.18247	0.064662	0.037397	-2.4146	-2.7667	-2.7521	-2.7229	-2.7521	-3.0792	-2.6292	-2.9896	-2.7313	-2.6729	-2.9333	-2.7646	-2.6875	-2.8604	-2.6854	-2.9813	70.740	65.205	-84.839	62.637	98.106	102.970	128.565	130.406	-126.720	110.881	-148.998	130.678	110.366	-142.564	-141.601	-45.083	0.0001362	0.00014646	3.0882e-05	315.8	2.1975e-06	1.6385e-06	365.39	89.393	1.2665e-06	1.0574e-06	120.77	36.186	24.293	7.6664	1.1042e-06	14.99	5.3477e-05	2.6023e-05	6.6596e-06	329.89	3.1698e-07	4.1738e-07	383.17	93.944	3.0104e-07	2.577e-07	126.34	38.135	25.57	8.1411	2.5869e-07	15.879	-96.183	-74.431	-94.795	-150.979	-3.762	-27.159	-150.934	-145.729	-33.101	-17.091	-147.034	-141.872	-141.339	-135.965	-14.842	-136.739	-8191	255	
40976.941	1	1	0	0	0.16218	0.15918	0.26754	0.13502	0.18888	0.15001	0.073854	0.031203	0.034971	0.10707	0.32426	0.22676	0.067374	0.2497	0.10613	0.20056	-2.4688	-2.5187	-2.8979	-2.6375	-2.7771	-3.0187	-2.6458	-2.8958	-2.9042	-2.6583	-2.9083	-2.6354	-2.8812	-2.8854	-2.7667	-2.8125	-96.318	-160.063	-124.601	161.059	131.595	-111.169	-23.907	-113.282	-133.886	15.648	106.019	-43.964	109.028	121.103	-85.193	15.566	0.00012294	0.00015471	4.5457e-05	316.34	9.3267e-07	1.7147e-06	365.15	89.29	7.4971e-07	1.016e-06	119.19	35.717	23.765	7.5076	1.4823e-06	14.747	5.2783e-05	2.5557e-05	7.2127e-06	329.55	3.1246e-07	4.0474e-07	383.06	93.788	3.0992e-07	2.4758e-07	125.31	37.606	25.187	7.9515	2.747e-07	15.545	-93.412	-72.212	-45.831	-150.662	12.718	-12.912	-150.979	-146.079	-54.289	-25.209	-146.858	-141.907	-141.546	-136.048	-14.398	-136.995	-8191	255	
40977.039	1	1	0	0	0.19726	0.27599	0.13821	0.12321	0.14407	0.042551	0.20146	0.16048	0.2121	0.24706	0.045664	0.13151	0.10852	0.065564	0.19346	0.047953	-2.3167	-2.6708	-2.9813	-2.6875	-2.6188	-2.9896	-2.7875	-2.8812	-2.8292	-2.5958	-2.8354	-2.9	-2.8167	-2.9833	-2.6979	-2.9188	-81.769	-11.410	-160.135	112.628	-144.553	-87.775	99.624	125.561	-139.514	-97.792	122.499	-27.936	-151.240	36.425	82.365	117.485	0.00013553	0.00012564	3.641e-05	312.22	2.0809e-06	1.3438e-06	361.53	88.175	5.6004e-07	8.5755e-07	117.77	35.773	23.902	7.5533	1.1068e-06	14.802	5.7249e-05	2.4763e-05	7.6449e-06	324.86	3.0928e-07	4.7647e-07	377.78	92.484	3.0367e-07	2.6593e-07	124.27	37.501	25.053	7.9995	2.7253e-07	15.698	-99.003	-86.088	-57.359	-150.873	20.995	-29.213	-150.720	-145.749	10.211	-6.106	-147.026	-141.732	-141.503	-135.626	18.192	-137.215	-8191	255	
40977.133	1	1	0	0	0.15357	0.39718	0.15594	0.085648	0.031185	0.093246	0.2764	0.16565	0.10833	0.18404	0.12242	0.16436	0.20191	0.21203	0.18988	0.1815	-2.5104	-2.6917	-2.8354	-2.8375	-2.8625	-2.9104	-2.775	-3.0146	-2.9313	-2.5417	-2.8271	-2.8063	-2.7667	-3.0604	-2.825	-2.9062	47.128	-25.127	-33.918	128.021	109.697	-56.468	75.632	-151.578	188.852	181.411	36.337	141.664	170.471	15.364	-58.945	148.212	0.00013819	7.6912e-05	3.8246e-05	310.83	1.68e-06	4.7903e-07	359.8	87.549	9.5593e-07	1.4091e-06	118.2	35.757	23.597	7.6977	1.2951e-06	15.189	6.7253e-05	2.4093e-05	7.0442e-06	324.03	2.86e-07	4.5409e-07	376.85	91.63	3.3867e-07	2.3128e-07	123.97	37.619	24.961	8.1515	2.4951e-07	16.031	-97.055	-67.944	-75.840	-150.251	-5.269	-16.085	-151.082	-145.770	-24.267	9.603	-147.117	-141.481	-141.656	-135.942	-13.321	-136.750	-8191	255	
40977.227	1	1	0	0	0.1145	0.085358	0.23943	0.19217	0.082442	0.0087194	0.10384	0.072387	0.26074	0.21432	0.051629	0.1122	0.13196	0.2709	0.22109	0.037836	-2.4604	-2.6688	-2.9021	-2.9333	-2.7583	-3.1458	-2.8063	-2.8875	-2.9667	-2.7042	-3.0729	-2.9938	-2.4792	-2.8	-2.6667	-3.0229	163.740	-63.673	33.364	17.055	-121.065	-96.825	-160.499	89.801	-144.785	113.925	-57.132	54.435	-28.428	174.288	-36.926	31.036	0.00012458	0.00020363	4.4178e-05	312	1.4616e-06	1.441e-06	359.7	87.557	1.2131e-06	2.2196e-06	117.99	35.884	23.721	7.8339	9.9775e-07	15.447	6.5282e-05	2.4498e-05	8.7037e-06	322.88	3.0442e-07	5.0738e-07	375.67	91.336	3.1304e-07	2.6954e-07	123.89	37.762	25.03	8.2573	2.5735e-07	16.278	-96.987	-81.305	-78.254	-150.299	24.307	-23.214	-150.776	-145.780	0.956	-6.100	-146.883	-141.619	-141.544	-135.566	8.212	-137.549	-8191	255	
40977.324	1	1	0	0	0.10784	0.21147	0.26985	0.15357	0.087445	0.45207	0.13496	0.15954	0.13356	0.075043	0.27249	0.14298	0.10616	0.12982	0.006869	0.040381	-2.7125	-2.5792	-2.8563	-3.0979	-2.6396	-3.0708	-2.8563	-2.6917	-3.0667	-2.6875	-2.9042	-2.7479	-2.5104	-2.8312	-2.8167	-2.7313	90.777	-104.790	71.845	161.922	-58.866	-162.830	149.198	101.664	164.854	193.043	27.013	163.403	56.802	-35.832	-14.006	-163.728	0.00013731	6.8145e-05	4.4866e-05	312	1.2843e-06	1.1745e-06	360.99	86.914	1.2017e-06	7.7486e-07	117.75	35.654	23.497	7.7497	1.1339e-06	15.227	7.2024e-05	2.5977e-05	7.9777e-06	322.1	2.9973e-07	4.6571e-07	376.53	91.129	3.6381e-07	2.637e-07	123.2	37.626	24.814	8.196	2.6186e-07	16.136	-98.654	-38.625	-98.470	-150.164	7.068	3.295	-150.990	-146.013	-11.978	26.894	-147.165	-141.300	-141.631	-135.807	-5.718	-137.037	-8191	255	
40977.445	1	1	0	0	0.11852	0.24597	0.24678	0.16547	0.032635	0.21732	0.062133	0.1825	0.049936	0.15288	0.16846	0.30177	0.143	0.10947	0.25363	0.10059	-2.5396	-2.7812	-2.8688	-3.0167	-2.5687	-2.9646	-3.0062	-2.45	-2.9854	-2.9625	-2.8312	-2.9417	-2.6896	-2.8667	-2.8292	-2.7604	31.464	-73.402	147.128	110.902	-111.562	93.185	10.742	179.528	29.567	-26.662	-82.372	188.352	53.569	17.611	177.532	133.490	0.00012984	9.6062e-05	3.6783e-05	307.37	1.6918e-06	1.3755e-06	354.87	85.617	1.1354e-06	7.6549e-07	116.35	35.326	23.444	7.755	1.052e-06	15.315	6.8166e-05	2.6833e-05	7.0917e-06	318.63	2.5737e-07	5.1028e-07	371.48	89.814	3.579e-07	2.4895e-07	122	37.436	24.681	8.2156	2.8454e-07	16.227	-98.296	-56.787	-78.891	-150.679	-20.677	-32.888	-150.949	-145.779	-16.452	-26.795	-146.703	-141.653	-141.428	-136.135	-0.223	-136.962	-8191	255	
40977.539	1	1	0	0	0.20698	0.036689	0.16758	0.17528	0.22773	0.11982	0.12283	0.15198	0.13328	0.082179	0.16106	0.099093	0.01555	0.37465	0.1693	0.075108	-2.7125	-2.7396	-2.6292	-2.8833	-2.6083	-2.9375	-2.8667	-2.7542	-2.9792	-2.8375	-2.7062	-2.8625	-2.6792	-2.7396	-2.7917	-2.7812	-76.596	-137.475	-11.295	-92.412	-53.808	179.353	-18.958	-66.581	125.018	-6.341	24.601	118.754	-44.698	-8.597	-107.621	-13.435	0.00013423	0.00015144	5.6775e-05	308.88	1.0623e-06	1.2558e-06	355.08	85.941	1.5707e-06	1.7018e-06	116.61	35.658	23.5	7.8554	1.4963e-06	15.667	7.3046e-05	2.4109e-05	7.5455e-06	318.87	2.9019e-07	4.0816e-07	371.71	90.112	3.5313e-07	2.6765e-07	122.43	37.734	24.723	8.308	2.9304e-07	16.494	-102.551	-58.831	-79.246	-150.343	-23.606	-22.152	-151.107	-145.351	-37.069	-3.177	-146.860	-142.147	-141.887	-135.956	8.811	-136.921	-8191	255	
40977.637	1	1	0	0	0.15594	0.092556	0.46273	0.075388	0.21818	0.14471	0.21235	0.041923	0.24866	0.015297	0.18232	0.24002	0.138	0.084298	0.17851	0.069732	-2.5187	-2.5229	-2.7812	-3.0625	-2.6437	-2.9125	-2.9583	-2.5021	-2.9938	-2.7438	-2.8625	-2.7979	-2.6792	-2.725	-3.0625	-2.6042	192.909	-102.091	-67.333	103.033	27.854	72.969	109.396	-3.816	72.593	-114.755	-137.591	86.861	133.850	37.200	73.181	120.028	0.00013489	0.00012386	6.4667e-05	307.79	4.4217e-07	1.9064e-06	356.74	86.092	5.1554e-07	1.3123e-06	117.92	35.77	23.702	7.9304	9.4179e-07	15.869	7.0016e-05	2.3798e-05	7.1955e-06	319.59	2.5519e-07	3.2106e-07	374.01	90.358	3.7137e-07	2.6919e-07	123.49	38.02	25.035	8.4415	2.9621e-07	16.717	-99.358	-76.209	-71.187	-150.437	7.409	-12.046	-150.922	-145.742	-22.577	20.061	-146.549	-141.804	-141.475	-135.511	11.738	-137.240	-8191	255	
40977.734	1	1	0	0	0.037442	0.10796	0.2249	0.38194	0.06044	0.22347	0.18629	0.075537	0.17847	0.24113	0.1015	0.13611	0.11788	0.32705	0.13203	0.24828	-2.5563	-2.7375	-2.4979	-3.0687	-2.6958	-2.9104	-3.0563	-2.6146	-2.7958	-2.7188	-2.7104	-2.9021	-2.8104	-2.5625	-3.1437	-2.7083	195.567	-9.954	117.736	112.108	83.551	33.025	103.955	-14.155	73.544	157.815	-14.826	29.606	132.338	41.104	67.694	184.602	0.00013302	0.00018728	2.5732e-05	311.09	1.7497e-06	8.8701e-07	360.5	86.908	1.1529e-06	1.0656e-06	119.26	36.053	23.799	8.0197	8.6808e-07	15.778	7.7805e-05	2.73e-05	7.0874e-06	321.1	2.8784e-07	2.6641e-07	375.81	91.07	3.6759e-07	2.5804e-07	124.48	38.24	25.094	8.4795	3.3274e-07	16.678	-97.371	-93.921	-78.351	-150.877	-5.314	-39.674	-151.102	-146.067	-65.813	-9.739	-147.069	-141.462	-141.124	-136.159	-20.561	-137.016	-8191	255	
40977.828	1	1	0	0	0.15508	0.089224	0.063485	0.092761	0.11247	0.086335	0.14638	0.19167	0.08459	0.070612	0.057942	0.03498	0.22703	0.062239	0.13801	0.076109	-2.5708	-2.85	-2.5604	-2.9958	-2.9479	-2.5958	-3.2	-2.6104	-2.9167	-2.8854	-2.6417	-3.0771	-2.7896	-2.875	-3.1771	-2.775	189.942	-162.445	-159.758	164.560	185.235	-142.300	90.216	104.369	24.648	49.656	-100.532	-70.090	-138.238	86.595	5.214	72.510	0.00012806	0.00019953	4.0258e-05	307.43	9.1418e-07	9.49e-07	356.4	85.737	1.2186e-06	1.1937e-06	118	35.655	23.609	7.9663	9.8558e-07	15.676	6.5294e-05	3.1113e-05	6.6553e-06	319.52	2.649e-07	2.7854e-07	373.8	90.206	3.8879e-07	3.0385e-07	122.74	37.802	24.831	8.3786	3.3758e-07	16.619	-99.261	-100.320	-94.470	-150.569	-24.044	-12.293	-150.801	-146.105	-21.625	-58.530	-146.609	-141.697	-141.954	-136.357	-14.129	-137.278	-8191	255	
40977.926	1	1	0	0	0.15566	0.16021	0.36369	0.12382	0.15893	0.15399	0.22922	0.24237	0.14961	0.040515	0.22778	0.18062	0.10986	0.13112	0.11155	0.10252	-2.5354	-2.8771	-2.6729	-3.0583	-2.9	-2.725	-2.9104	-2.6396	-2.9604	-2.8937	-2.7646	-2.7313	-2.8187	-2.7438	-3.0646	-2.7083	172.492	143.400	107.362	-53.465	-18.925	-130.293	118.447	180.962	-61.877	33.969	158.833	93.337	68.124	-56.342	4.604	85.831	0.00013583	0.00012513	3.968e-05	305.39	2.1926e-06	1.6025e-06	356.04	86.194	5.562e-07	1.6471e-06	117.86	36.194	23.749	7.9363	9.627e-07	15.885	5.7189e-05	4.579e-05	6.8152e-06	318.97	2.6792e-07	2.7615e-07	373.78	90.295	3.5231e-07	3.0213e-07	123.43	38.16	25.022	8.4554	3.5642e-07	16.752	-95.414	-106.998	-76.781	-150.509	-4.807	11.855	-150.989	-145.830	-11.293	-15.945	-146.729	-141.469	-141.573	-136.417	-34.627	-137.154	-8191	255	
40978.023	1	1	0	0	0.41015	0.15739	0.063752	0.24595	0.15674	0.25222	0.36286	0.15539	0.20763	0.26523	0.23969	0.26815	0.213	0.099487	0.11383	0.1163	-2.3354	-2.9458	-2.6646	-2.8729	-2.7875	-2.6396	-3.0812	-2.8083	-2.7708	-3.0896	-2.7917	-2.9667	-2.7958	-2.775	-2.9229	-2.7396	41.666	-25.010	92.749	96.783	-147.403	129.168	112.055	-35.776	27.653	145.650	149.552	-107.684	-0.753	62.130	-135.672	-130.220	0.00015274	0.00017889	1.558e-05	307.23	9.8923e-07	1.5758e-06	359.46	86.703	1.4244e-06	1.4642e-06	118.06	35.951	23.758	8.0561	1.6647e-06	15.908	6.0085e-05	4.537e-05	6.6985e-06	320.86	2.8433e-07	2.5497e-07	375.73	90.817	3.4064e-07	3.0299e-07	123.99	38.278	25.135	8.4848	3.5042e-07	16.864	-94.928	-78.792	-39.286	-150.655	-24.657	-28.381	-151.030	-145.493	13.243	-0.967	-146.750	-141.709	-141.529	-136.152	-12.413	-136.884	-8191	255	
40978.141	1	1	0	0	0.1406	0.10115	0.055616	0.25752	0.089477	0.37664	0.075937	0.3031	0.028757	0.03737	0.36578	0.11969	0.067951	0.12619	0.092563	0.32332	-2.3167	-3.1542	-2.725	-2.9708	-2.9208	-2.7146	-2.9458	-2.6729	-2.6958	-3.0312	-2.8854	-2.8875	-2.8208	-2.6667	-2.9938	-2.85	151.858	141.636	43.548	162.688	145.998	49.903	-161.186	188.606	-85.591	-16.992	49.798	-90.404	-120.870	58.662	126.314	147.358	0.00013487	0.00014307	2.8506e-05	306.34	1.8523e-06	1.1473e-06	361.65	86.728	1.2379e-06	1.6015e-06	118.85	36.37	23.972	8.0922	1.0248e-06	15.919	5.8357e-05	4.9572e-05	6.3873e-06	321.9	2.9889e-07	2.3209e-07	378.63	91.295	3.3226e-07	3.126e-07	125.18	38.674	25.415	8.5294	3.3474e-07	16.81	-97.947	-63.339	-127.948	-150.821	-13.042	-25.433	-150.676	-145.768	-0.616	-25.510	-146.230	-141.493	-141.092	-135.843	2.889	-137.102	-8191	255	
40978.238	1	1	0	0	0.22096	0.15569	0.27121	0.1114	0.12609	0.21441	0.046839	0.097033	0.1509	0.17339	0.10396	0.12272	0.25987	0.2125	0.13202	0.14932	-2.1479	-2.9729	-2.8292	-2.7771	-2.9479	-2.6833	-3.05	-2.7833	-2.6521	-2.9188	-2.725	-2.7396	-2.9604	-2.7458	-2.8375	-2.8979	71.820	187.992	-100.486	-70.546	-136.384	152.054	171.170	92.326	88.066	84.276	81.123	169.941	-14.400	-143.001	61.346	67.389	0.00012672	0.00015176	5.4533e-05	309.85	1.2823e-06	1.293e-06	359.81	86.211	6.04e-07	1.5459e-06	118.2	35.844	23.914	7.9819	9.8453e-07	15.763	5.6641e-05	4.0965e-05	6.6812e-06	321.88	2.9722e-07	2.7188e-07	376.63	90.952	3.4755e-07	3.1912e-07	123.94	38.15	25.189	8.4399	3.3024e-07	16.676	-95.482	-113.623	-94.509	-151.064	1.566	-25.691	-150.884	-145.792	-5.572	-14.738	-147.060	-141.616	-141.564	-135.855	-53.645	-136.819	-8191	255	
40978.309	1	1	0	0	0.12747	0.18484	0.1388	0.24312	0.068156	0.13328	0.1939	0.013607	0.22771	0.17558	0.25898	0.26813	0.33662	0.14488	0.050816	0.25609	-2.2708	-2.8896	-2.6937	-2.8229	-2.9417	-2.8646	-2.8625	-2.8125	-2.7771	-3.0917	-2.9146	-2.7021	-3.1083	-2.6604	-3.0708	-2.9292	-128.549	114.136	127.842	59.079	-99.906	120.092	66.445	-124.825	-162.751	190.536	42.834	184.751	-120.531	-93.903	174.793	143.333	0.00014156	9.9544e-05	4.2275e-05	309.39	1.9978e-06	1.3879e-06	360.18	86.784	1.1414e-06	9.5667e-07	118.84	36.342	23.979	8.0491	1.176e-06	15.988	5.9099e-05	4.9121e-05	6.4738e-06	321.89	3.1865e-07	2.4968e-07	377.05	90.946	3.206e-07	3.114e-07	124.26	38.462	25.306	8.513	3.1173e-07	16.901	-97.108	-79.958	-72.566	-150.292	-14.728	-31.353	-150.547	-145.561	-25.333	-26.465	-147.055	-141.673	-141.729	-136.027	1.907	-137.081	-8191	255	
40978.406	1	1	0	0	0.32746	0.33153	0.115	0.24657	0.21122	0.089912	0.19735	0.063547	0.31151	0.095176	0.29023	0.12314	0.22105	0.23472	0.091535	0.089712	-2.1437	-3.0229	-2.8479	-2.7021	-2.9542	-2.7938	-2.8167	-2.9083	-2.6708	-2.85	-2.9521	-2.7833	-2.9	-2.6437	-2.9292	-3.0583	190.309	-69.077	17.969	136.514	158.056	-147.686	88.114	-157.635	-12.149	60.636	50.427	97.159	39.479	-40.082	159.213	-153.959	0.00014061	8.1903e-05	3.6551e-05	311.03	1.1993e-06	1.4103e-06	361.32	87.441	8.3712e-07	1.1326e-06	119.01	36.568	24.201	8.1516	1.4007e-06	16.164	5.5144e-05	4.2973e-05	7.1047e-06	323.11	2.9772e-07	2.5412e-07	378.27	91.567	2.9332e-07	3.301e-07	125.16	38.753	25.421	8.6528	3.0722e-07	17.125	-97.530	-112.595	-65.088	-149.894	-19.206	32.068	-151.120	-145.440	-14.728	-15.680	-147.184	-141.768	-141.360	-135.964	12.652	-137.528	-8191	255	
#DATA ENDS
