BOXY.EXE: ISS Imagent and Oximeter Data Acquisition Program Version 0.80
Ascii Record File

#ACQ INFORMATION
2  Detector Channels 
16  External MUX Channels 
1  Auxiliary Channels 
5000  Waveform (CCF) Frequency (Hz)
1  Waveforms Skipped 
30  Waveforms Averaged 
1  Cycles Averaged 
16  Acquisitions per Waveform 
10.0806  Updata Rate (Hz) 

#FILE INFORMATION
TRUE -- External MUX Channel results are PARSED.
FALSE -- AC DC and Phase are NOT grouped.
TRUE -- Companion Program Settings File CREATED.
FALSE -- AC data not excluded
FALSE -- DC data not excluded
FALSE -- Phase data not excluded
FALSE -- Auxillary Chn. data not excluded
Tab delimiters

#CALIBRATION STATE
TRUE -- Waveform Calibration Values APPLIED.


#AUX CALIBRATION VALUES
Val Type	aux-1	

Term	1.0000e+00	
Factor	0.0000e+00	


#WF CALIBRATION VALUES
A = Detector Channel
Val Type	A-AC1	A-AC2	A-AC3	A-AC4	A-AC5	A-AC6	A-AC7	A-AC8	A-AC9	A-AC10	A-AC11	A-AC12	A-AC13	A-AC14	A-AC15	A-AC16	A-DC1	A-DC2	A-DC3	A-DC4	A-DC5	A-DC6	A-DC7	A-DC8	A-DC9	A-DC10	A-DC11	A-DC12	A-DC13	A-DC14	A-DC15	A-DC16	A-Ph1	A-Ph2	A-Ph3	A-Ph4	A-Ph5	A-Ph6	A-Ph7	A-Ph8	A-Ph9	A-Ph10	A-Ph11	A-Ph12	A-Ph13	A-Ph14	A-Ph15	A-Ph16	

Term	0.00000e+00	0.00000e+00	0.00000e+00	0.00000e+00	0.00000e+00	0.00000e+00	0.00000e+00	0.00000e+00	0.00000e+00	0.00000e+00	0.00000e+00	0.00000e+00	0.00000e+00	0.00000e+00	0.00000e+00	0.00000e+00	0.00000e+00	0.00000e+00	0.00000e+00	0.00000e+00	0.00000e+00	0.00000e+00	0.00000e+00	0.00000e+00	0.00000e+00	0.00000e+00	0.00000e+00	0.00000e+00	0.00000e+00	0.00000e+00	0.00000e+00	0.00000e+00	0.00000e+00	0.00000e+00	0.00000e+00	0.00000e+00	0.00000e+00	0.00000e+00	0.00000e+00	0.00000e+00	0.00000e+00	0.00000e+00	0.00000e+00	0.00000e+00	0.00000e+00	0.00000e+00	0.00000e+00	0.00000e+00	
Factor	1.00000e+00	1.00000e+00	1.00000e+00	1.00000e+00	1.00000e+00	1.00000e+00	1.00000e+00	1.00000e+00	1.00000e+00	1.00000e+00	1.00000e+00	1.00000e+00	1.00000e+00	1.00000e+00	1.00000e+00	1.00000e+00	1.00000e+00	1.00000e+00	1.00000e+00	1.00000e+00	1.00000e+00	1.00000e+00	1.00000e+00	1.00000e+00	1.00000e+00	1.00000e+00	1.00000e+00	1.00000e+00	1.00000e+00	1.00000e+00	1.00000e+00	1.00000e+00	X	X	X	X	X	X	X	X	X	X	X	X	X	X	X	X	

B = Detector Channel
Val Type	B-AC1	B-AC2	B-AC3	B-AC4	B-AC5	B-AC6	B-AC7	B-AC8	B-AC9	B-AC10	B-AC11	B-AC12	B-AC13	B-AC14	B-AC15	B-AC16	B-DC1	B-DC2	B-DC3	B-DC4	B-DC5	B-DC6	B-DC7	B-DC8	B-DC9	B-DC10	B-DC11	B-DC12	B-DC13	B-DC14	B-DC15	B-DC16	B-Ph1	B-Ph2	B-Ph3	B-Ph4	B-Ph5	B-Ph6	B-Ph7	B-Ph8	B-Ph9	B-Ph10	B-Ph11	B-Ph12	B-Ph13	B-Ph14	B-Ph15	B-Ph16	

Term	0.00000e+00	0.00000e+00	0.00000e+00	0.00000e+00	0.00000e+00	0.00000e+00	0.00000e+00	0.00000e+00	0.00000e+00	0.00000e+00	0.00000e+00	0.00000e+00	0.00000e+00	0.00000e+00	0.00000e+00	0.00000e+00	0.00000e+00	0.00000e+00	0.00000e+00	0.00000e+00	0.00000e+00	0.00000e+00	0.00000e+00	0.00000e+00	0.00000e+00	0.00000e+00	0.00000e+00	0.00000e+00	0.00000e+00	0.00000e+00	0.00000e+00	0.00000e+00	-6.63820e+01	-1.32221e+02	-1.32598e+02	-1.82128e+02	-5.54045e+01	-6.81716e+01	-1.55839e+02	-1.62015e+02	-4.79085e+01	-6.04191e+01	-1.71365e+02	-1.71126e+02	-1.82066e+02	-1.77488e+02	-4.97492e+01	-1.50542e+02	
Factor	1.73107e-05	1.54295e-04	4.51476e-05	4.38225e-01	1.60551e-06	1.62400e-06	1.61763e-01	5.30960e-02	1.05840e-06	1.60533e-06	8.42355e-02	2.85716e-02	2.33515e-02	8.60720e-03	1.42458e-06	1.24910e-02	5.84177e-06	7.47084e-06	2.07437e-06	2.24426e-01	8.03748e-08	8.19727e-08	7.87615e-02	2.75353e-02	7.88756e-08	8.23536e-08	4.22450e-02	1.44254e-02	1.22567e-02	4.50262e-03	8.00578e-08	6.30654e-03	X	X	X	X	X	X	X	X	X	X	X	X	X	X	X	X	



#DISTANCE SETTINGS
A = Detector Channel
A-1	A-2	A-3	A-4	A-5	A-6	A-7	A-8	A-9	A-10	A-11	A-12	A-13	A-14	A-15	A-16	

2.5000e+00	3.0000e+00	2.5000e+00	3.0000e+00	2.0000e+00	3.0000e+00	1.5000e+00	3.0000e+00	3.0000e+00	3.0000e+00	3.0000e+00	3.0000e+00	3.0000e+00	3.0000e+00	1.5000e+00	3.0000e+00	

B = Detector Channel
B-1	B-2	B-3	B-4	B-5	B-6	B-7	B-8	B-9	B-10	B-11	B-12	B-13	B-14	B-15	B-16	

1.0000e+01	1.0000e+01	1.0000e+01	1.4400e+00	1.0000e+01	1.0000e+01	1.5100e+00	1.9400e+00	1.0000e+01	1.0000e+01	1.9900e+00	2.4900e+00	2.4100e+00	2.9000e+00	1.0000e+01	2.9800e+00	




#DATA BEGINS
time	group	step	mark	flag	A-AC1	A-AC2	A-AC3	A-AC4	A-AC5	A-AC6	A-AC7	A-AC8	A-AC9	A-AC10	A-AC11	A-AC12	A-AC13	A-AC14	A-AC15	A-AC16	A-DC1	A-DC2	A-DC3	A-DC4	A-DC5	A-DC6	A-DC7	A-DC8	A-DC9	A-DC10	A-DC11	A-DC12	A-DC13	A-DC14	A-DC15	A-DC16	A-Ph1	A-Ph2	A-Ph3	A-Ph4	A-Ph5	A-Ph6	A-Ph7	A-Ph8	A-Ph9	A-Ph10	A-Ph11	A-Ph12	A-Ph13	A-Ph14	A-Ph15	A-Ph16	B-AC1	B-AC2	B-AC3	B-AC4	B-AC5	B-AC6	B-AC7	B-AC8	B-AC9	B-AC10	B-AC11	B-AC12	B-AC13	B-AC14	B-AC15	B-AC16	B-DC1	B-DC2	B-DC3	B-DC4	B-DC5	B-DC6	B-DC7	B-DC8	B-DC9	B-DC10	B-DC11	B-DC12	B-DC13	B-DC14	B-DC15	B-DC16	B-Ph1	B-Ph2	B-Ph3	B-Ph4	B-Ph5	B-Ph6	B-Ph7	B-Ph8	B-Ph9	B-Ph10	B-Ph11	B-Ph12	B-Ph13	B-Ph14	B-Ph15	B-Ph16	aux-1	digaux	

40947.074	1	1	0	256	0.15862	0.21198	0.14394	0.20595	0.18182	0.31835	0.12446	0.23801	0.094364	0.11003	0.13885	0.27631	0.090528	0.083318	0.27537	0.1609	-2.125	-2.4854	-2.3667	-2.8	-2.2583	-2.6021	-2.7625	-2.3958	-2.8271	-2.4271	-2.5375	-2.6354	-2.3917	-2.5938	-2.8	-2.4229	90.471	-2.581	112.271	177.817	185.670	163.535	41.174	-17.741	78.340	154.404	-89.729	180.469	37.754	163.111	-59.525	90.493	9.7037e-05	7.7499e-05	3.3221e-05	205.19	1.1696e-06	1.405e-06	260.63	57.679	9.3406e-07	1.0927e-06	87.365	27.165	15.89	5.2365	6.8385e-07	11.502	4.1574e-05	1.4272e-05	4.8013e-06	213.32	2.4196e-07	1.9844e-07	272.28	60.342	2.1132e-07	2.7314e-07	91.94	28.699	16.742	5.5351	2.812e-07	12.06	-96.568	-90.834	-59.430	-150.736	-14.785	-35.295	-150.490	-146.054	-11.080	3.132	-146.517	-141.527	-141.348	-135.880	-6.204	-136.481	-8191	255	
40947.172	1	1	0	0	0.1161	0.18561	0.24985	0.19113	0.17488	0.075531	0.14187	0.20738	0.14604	0.11692	0.088869	0.22507	0.16086	0.16993	0.15487	0.16124	-2.2833	-2.4833	-2.4208	-2.7979	-2.5	-2.6937	-2.8542	-2.4	-2.7333	-2.6958	-2.3833	-2.7229	-2.4875	-2.3583	-2.7146	-2.5667	137.765	194.408	-156.732	139.466	-92.561	-153.237	14.797	24.887	31.869	168.939	26.674	-54.325	-127.729	169.566	-133.287	89.579	9.9485e-05	0.00011045	2.8452e-05	210.23	7.8777e-07	1.3433e-06	261.37	57.911	9.6521e-07	1.0989e-06	88.084	27.218	15.938	5.2381	1.0843e-06	11.2	4.2231e-05	1.7821e-05	4.4383e-06	215.4	2.8952e-07	1.7539e-07	273.88	60.69	1.9571e-07	2.5444e-07	92.394	28.629	16.665	5.5084	2.2516e-07	11.852	-98.266	-63.067	-89.917	-150.680	-41.202	-4.431	-150.441	-145.684	-19.500	-2.904	-146.747	-141.343	-141.758	-135.448	8.383	-137.011	-8191	255	
40947.266	1	1	0	0	0.069971	0.15702	0.10061	0.18843	0.18438	0.14034	0.041528	0.092359	0.046902	0.23372	0.17125	0.11103	0.16623	0.033499	0.18733	0.2469	-2.1188	-2.525	-2.3729	-2.7146	-2.5812	-2.5687	-2.6583	-2.4208	-2.6146	-2.6354	-2.4417	-2.7771	-2.6063	-2.3937	-2.8604	-2.5792	-39.723	-53.362	-25.536	158.637	-67.016	-132.928	17.341	158.582	173.285	-158.483	24.321	42.434	-90.222	-135.477	168.561	97.063	8.8097e-05	0.00010827	3.987e-05	205.31	2.0681e-07	1.3443e-06	259.18	56.735	6.9224e-07	1.7729e-06	86.064	26.776	15.519	5.0345	9.8094e-07	10.995	4.0187e-05	1.7074e-05	4.4253e-06	212.87	2.3074e-07	1.5028e-07	270.13	59.671	2.036e-07	2.8361e-07	90.514	28.11	16.353	5.3618	1.913e-07	11.613	-92.846	-73.983	-76.848	-151.110	-49.095	-17.773	-150.523	-145.754	-28.039	-8.405	-147.197	-141.478	-141.849	-136.249	12.236	-136.629	-8191	255	
40947.363	1	1	0	0	0.14192	0.11837	0.18205	0.24104	0.29529	0.44001	0.079979	0.086098	0.2458	0.11869	0.16462	0.12599	0.13863	0.31538	0.14756	0.14821	-2.2229	-2.5687	-2.3479	-2.6396	-2.7375	-2.4542	-2.7979	-2.5146	-2.525	-2.9292	-2.5687	-2.5771	-2.55	-2.4292	-2.7729	-2.5333	55.580	-74.436	131.086	144.238	-84.176	-148.002	-75.665	175.824	191.430	156.184	131.102	70.444	-93.794	-126.701	12.286	25.643	9.4321e-05	7.1899e-05	4.0597e-05	204.85	5.1324e-07	1.0706e-06	257.05	57.492	8.4805e-07	9.969e-07	86.487	26.788	15.749	5.1461	7.941e-07	11.224	3.8738e-05	1.4942e-05	3.7295e-06	211.43	2.7294e-07	1.3372e-07	269.41	59.818	2.1839e-07	2.462e-07	90.77	28.259	16.446	5.4174	1.9814e-07	11.831	-98.667	-26.885	-85.385	-150.803	20.208	-21.418	-150.599	-145.877	-0.094	0.170	-146.995	-141.575	-141.668	-136.252	-4.023	-136.813	-8191	255	
40947.461	1	1	0	0	0.1888	0.12748	0.052992	0.053148	0.051418	0.13524	0.19707	0.16455	0.15628	0.08066	0.10539	0.054623	0.096091	0.10755	0.16691	0.18022	-2.1312	-2.7604	-2.4667	-2.6396	-2.65	-2.3542	-2.9292	-2.6042	-2.6333	-2.8458	-2.5125	-2.5833	-2.6021	-2.3854	-2.6271	-2.6229	127.696	138.524	-120.544	-146.144	58.284	-76.802	106.250	153.694	194.827	120.352	-142.508	101.624	-51.910	-103.052	56.233	-113.497	0.00010434	0.00014878	1.2617e-05	203.71	1.2206e-06	1.6392e-06	257.74	57.192	6.7769e-07	6.966e-07	86.669	26.725	15.813	5.2261	1.4583e-07	11.389	3.9286e-05	1.4848e-05	3.1245e-06	212.22	2.4849e-07	1.2518e-07	270.04	59.757	1.709e-07	2.1137e-07	90.98	28.341	16.562	5.502	2.1082e-07	12.047	-94.355	-101.531	-62.948	-150.080	-55.569	-6.829	-150.804	-145.307	-15.334	-19.465	-146.728	-141.380	-141.238	-135.747	-4.096	-136.654	-8191	255	
40947.555	1	1	0	0	0.46144	0.17517	0.24505	0.09672	0.039538	0.27913	0.28826	0.23502	0.31882	0.33901	0.12687	0.208	0.21009	0.073502	0.055171	0.18273	-2.0021	-2.6771	-2.575	-2.6271	-2.6604	-2.6208	-2.7021	-2.5875	-2.5833	-2.7354	-2.4437	-2.5146	-2.9167	-2.4562	-2.6708	-2.6042	-130.263	-33.489	-47.297	-1.341	-95.497	117.987	127.257	-135.156	-101.226	131.363	117.342	165.196	-32.663	-58.286	14.142	-10.873	0.00010091	7.0612e-05	2.0541e-05	205.77	3.8364e-07	1.3065e-06	260.82	56.974	9.8177e-07	1.0263e-06	88.024	27.237	15.713	5.3686	5.378e-07	11.635	3.9395e-05	1.5813e-05	3.4659e-06	211.99	3.1982e-07	1.3406e-07	271.72	59.574	1.9407e-07	1.5424e-07	91.636	28.777	16.632	5.6577	1.7162e-07	12.281	-96.643	-36.034	-68.214	-150.990	-70.713	-4.892	-150.515	-145.593	8.259	-30.262	-146.849	-141.126	-141.559	-135.920	3.654	-137.011	-8191	255	
40947.676	1	1	0	0	0.16535	0.029347	0.19009	0.050729	0.15149	0.13094	0.17262	0.17408	0.10744	0.29336	0.059268	0.30809	0.15859	0.13091	0.13876	0.21547	-2.1229	-2.725	-2.5375	-2.7458	-2.5958	-2.4	-2.7062	-2.5604	-2.4938	-2.8521	-2.5583	-2.5125	-3.0312	-2.35	-2.5292	-2.6958	-17.155	159.796	125.384	115.163	183.709	12.172	-124.859	19.403	-25.112	180.463	-69.957	150.488	183.897	-55.971	-20.802	72.547	9.6072e-05	9.9111e-05	4.3317e-05	205.63	1.0435e-06	3.8591e-07	256.81	56.352	6.4386e-07	1.1676e-06	86.77	27.101	15.802	5.4059	5.8008e-07	11.741	3.9067e-05	1.7276e-05	3.9586e-06	211.92	2.5402e-07	1.5114e-07	268.8	58.866	1.9735e-07	1.3657e-07	90.662	28.535	16.487	5.708	1.8663e-07	12.42	-97.396	-48.627	-101.450	-150.722	-7.203	-4.531	-150.529	-145.968	-17.478	-43.079	-146.465	-141.519	-141.812	-136.055	-10.731	-137.478	-8191	255	
40947.770	1	1	0	0	0.18857	0.49033	0.040109	0.3201	0.2454	0.19038	0.08998	0.18992	0.12908	0.22359	0.24834	0.28143	0.31393	0.1685	0.20575	0.1473	-2.1042	-2.6063	-2.4896	-2.7313	-2.8167	-2.4521	-2.6208	-2.7354	-2.4333	-2.8229	-2.5	-2.375	-2.5896	-2.4583	-2.6562	-2.7979	-54.670	6.156	48.739	-142.712	-150.681	-145.852	29.530	-26.890	-53.638	49.144	139.345	-121.170	184.470	77.865	-162.747	193.925	0.000101	7.6749e-05	3.2722e-05	204.06	9.1065e-07	9.4819e-07	255.37	56.371	7.867e-07	5.8658e-07	86.586	27.34	15.818	5.5433	1.0632e-06	11.924	3.9274e-05	1.6872e-05	3.8851e-06	212.02	1.9759e-07	2.2081e-07	268.46	59.109	2.0541e-07	1.6488e-07	91.051	28.773	16.635	5.8024	1.7479e-07	12.609	-101.205	-101.893	-72.270	-150.694	26.640	-30.370	-150.719	-146.203	-31.180	-8.119	-146.752	-141.336	-141.381	-135.428	-17.314	-136.585	-8191	255	
40947.840	1	1	0	0	0.16401	0.16557	0.11084	0.083374	0.15512	0.10806	0.11853	0.19242	0.27312	0.08633	0.37086	0.0098873	0.026554	0.035467	0.010064	0.1355	-1.9583	-2.6917	-2.5563	-2.5021	-2.875	-2.3917	-2.6042	-2.6021	-2.4708	-2.5854	-2.6063	-2.4125	-2.8396	-2.6437	-2.6	-2.8021	3.339	-155.497	-51.079	-140.711	-77.599	-58.159	-37.355	-103.037	-54.189	-146.755	182.902	20.450	43.931	74.671	-144.056	171.159	9.2631e-05	0.0001384	3.3584e-05	204.18	7.2444e-07	1.2359e-06	259.95	57.035	7.0567e-07	1.1962e-06	87.51	27.768	16.026	5.5544	7.9113e-07	12.057	3.7643e-05	1.877e-05	3.574e-06	212.16	1.7549e-07	2.3448e-07	271.58	59.49	1.7336e-07	1.4395e-07	91.489	29.161	16.742	5.9022	1.6812e-07	12.799	-96.844	-73.431	-56.161	-150.498	-6.471	-11.448	-150.598	-145.744	-6.227	13.901	-146.669	-141.396	-141.763	-136.042	-10.570	-136.878	-8191	255	
40947.961	1	1	0	0	0.11083	0.21064	0.22713	0.2098	0.20912	0.202	0.16876	0.19942	0.15237	0.27557	0.095847	0.045619	0.33495	0.14965	0.27304	0.15482	-1.9417	-2.5729	-2.4938	-2.4958	-2.7542	-2.6104	-2.4333	-2.7	-2.5875	-2.7958	-2.8896	-2.5938	-2.7313	-2.5021	-2.4938	-2.65	1.654	-108.164	-79.825	60.648	-154.669	187.750	127.390	121.792	-127.139	3.292	47.315	-15.532	142.687	-31.724	160.375	-157.900	0.00010746	0.00013852	3.4511e-05	208.18	8.1805e-07	1.1971e-06	259.9	57.555	7.5481e-07	1.05e-06	88.235	27.991	16.07	5.6843	1.033e-06	12.372	4.0235e-05	1.7245e-05	4.5161e-06	214.68	1.7967e-07	2.7461e-07	272.88	60.149	1.6893e-07	1.6797e-07	92.63	29.615	16.971	6.0336	1.9114e-07	13.038	-95.980	-61.669	-70.207	-150.552	18.568	-15.556	-150.588	-145.426	2.160	-27.134	-146.600	-141.535	-141.543	-135.854	10.626	-136.992	-8191	255	
40948.059	1	1	0	0	0.13993	0.13897	0.26155	0.16287	0.11031	0.31407	0.13388	0.08771	0.099359	0.076171	0.079452	0.24002	0.10173	0.16337	0.093584	0.040705	-2.0896	-2.6583	-2.5833	-2.3708	-2.6417	-2.5604	-2.3896	-2.7	-2.5083	-2.55	-2.8208	-2.3312	-2.7542	-2.5729	-2.4313	-2.7208	195.282	-45.384	61.534	164.412	121.353	-32.180	147.560	122.985	133.459	-101.577	178.080	-77.603	30.176	36.488	189.795	-98.028	0.00010793	0.00013927	2.5801e-05	207.98	1.5193e-06	1.6235e-06	260.7	57.416	5.9509e-07	1.1486e-06	88.27	27.769	16.01	5.635	1.5167e-06	12.085	4.57e-05	1.6763e-05	3.548e-06	215.58	1.6527e-07	2.2116e-07	273.12	60.188	1.8996e-07	1.611e-07	91.827	29.318	16.885	5.9323	1.6845e-07	12.808	-94.079	-66.399	-77.269	-150.629	2.144	-16.856	-150.593	-145.654	-13.511	63.949	-146.869	-141.101	-141.413	-136.412	0.075	-137.040	-8191	255	
40948.152	1	1	0	0	0.289	0.12759	0.13485	0.173	0.15085	0.20256	0.25321	0.11127	0.1863	0.15642	0.1443	0.13581	0.28227	0.20036	0.17873	0.12889	-2.1021	-2.5625	-2.6625	-2.2896	-2.6917	-2.6167	-2.3625	-2.7667	-2.5333	-2.5333	-2.8021	-2.4708	-2.7229	-2.5812	-2.4646	-2.7542	100.110	-22.644	-97.105	83.256	-113.879	-66.616	4.948	-141.756	-125.498	-66.156	61.663	-85.722	-128.240	112.142	-19.377	114.245	0.00010948	4.8426e-05	2.5969e-05	207.74	1.2218e-06	8.4869e-07	260.94	57.447	9.555e-07	1.2471e-06	88.07	27.721	16.132	5.6544	1.1513e-06	12.333	4.8122e-05	1.6607e-05	3.7166e-06	213.26	1.7281e-07	2.9083e-07	271.87	60.032	1.7961e-07	1.5647e-07	92.053	29.36	16.984	6.0184	1.6795e-07	13.022	-94.338	-89.034	-64.472	-150.744	-38.842	-0.610	-150.588	-145.356	-14.600	4.616	-146.707	-141.426	-141.484	-136.035	-26.837	-136.983	-8191	255	
40948.273	1	1	0	0	0.17173	0.20502	0.07267	0.25186	0.27617	0.088818	0.065153	0.12629	0.2152	0.18823	0.21308	0.3834	0.052896	0.082545	0.11436	0.23692	-2.0125	-2.6042	-2.7646	-2.5687	-2.7146	-2.7812	-2.3667	-2.6	-2.6208	-2.425	-2.8187	-2.5729	-2.5896	-2.5521	-2.4208	-2.4854	110.996	100.430	-111.442	-77.484	-74.033	-29.107	-163.523	163.892	106.481	-95.520	-154.993	50.386	-147.279	-150.416	59.792	1.987	0.0001043	0.00011585	2.1554e-05	205.6	1.0599e-06	5.3642e-07	260.28	57.269	8.1606e-07	7.5213e-07	88.03	28.115	16.193	5.697	6.1969e-07	12.359	4.783e-05	1.2903e-05	4.058e-06	213.22	1.6041e-07	2.3755e-07	271.17	60.005	1.7369e-07	1.575e-07	91.984	29.651	16.996	6.037	1.5628e-07	13.055	-98.390	-109.693	-70.297	-150.143	34.027	17.459	-150.574	-145.611	-8.022	-18.442	-147.061	-141.272	-141.164	-136.098	-14.842	-136.930	-8191	255	
40948.367	1	1	0	0	0.26252	0.059737	0.32711	0.074703	0.25603	0.27204	0.25845	0.25535	0.13593	0.050216	0.042559	0.15783	0.06347	0.047856	0.14655	0.21598	-2.3125	-2.3125	-2.7604	-2.4625	-2.6188	-2.7687	-2.5583	-2.5771	-2.4313	-2.4271	-2.7979	-2.4292	-2.4896	-2.8	-2.2521	-2.6063	-6.494	2.098	188.121	21.797	65.583	-4.968	-152.784	-110.745	-55.479	-47.698	-112.141	9.176	-31.980	-126.344	136.640	79.781	0.00010546	6.3508e-05	1.9926e-05	205.56	1.5918e-06	1.1047e-06	261.8	57.968	8.3021e-07	8.5381e-07	87.875	28.051	16.288	5.7542	6.5696e-07	12.286	4.6564e-05	1.6483e-05	4.5939e-06	215.31	1.5874e-07	2.9971e-07	273.07	60.646	1.7402e-07	1.6368e-07	92.48	29.726	17.14	6.0914	1.6012e-07	13.099	-99.811	-48.136	-74.179	-150.436	-19.579	-42.014	-150.486	-145.652	-14.996	-19.919	-146.698	-141.656	-141.143	-135.823	12.116	-136.902	-8191	255	
40948.441	1	1	0	0	0.057262	0.07168	0.21404	0.196	0.07798	0.17204	0.079295	0.27422	0.17545	0.33824	0.088306	0.21632	0.11479	0.29056	0.11106	0.090168	-2.2833	-2.3	-2.7583	-2.5438	-2.4875	-2.7687	-2.4708	-2.6667	-2.6396	-2.5	-2.8333	-2.5646	-2.5021	-2.8396	-2.3812	-2.5125	104.919	-22.908	-19.438	-163.325	-97.381	-146.250	164.103	54.048	-19.125	-143.850	101.011	-2.269	-154.061	104.592	132.200	173.520	0.00010829	5.6529e-05	4.017e-05	205.22	1.1978e-06	1.0271e-06	258.4	57.156	9.96e-07	6.1451e-07	86.854	27.697	15.995	5.6152	1.1604e-06	12.111	4.9546e-05	1.2825e-05	4.1963e-06	214.45	1.7013e-07	2.0749e-07	270.47	59.925	1.7665e-07	1.4292e-07	91.042	29.102	16.816	5.9451	1.3727e-07	12.809	-99.112	-58.445	-88.944	-150.113	-23.999	-18.070	-150.759	-145.727	-17.416	-39.540	-146.160	-141.320	-141.406	-135.862	3.779	-137.155	-8191	255	
40948.562	1	1	0	0	0.23515	0.17701	0.10433	0.25786	0.3108	0.25038	0.37708	0.17766	0.19546	0.16371	0.074917	0.17715	0.33555	0.30099	0.050728	0.049103	-2.1167	-2.5667	-2.6833	-2.4875	-2.4896	-2.9729	-2.4292	-2.6562	-2.8458	-2.5	-2.6958	-2.3979	-2.3604	-2.8563	-2.325	-2.5563	49.172	121.479	83.489	138.084	-23.024	100.124	75.675	78.366	-156.029	-115.268	22.371	-21.260	-123.427	166.317	108.849	91.538	0.0001033	0.0001108	4.5796e-05	203.3	7.5479e-07	1.4929e-06	257.48	56.434	7.0611e-07	1.0748e-06	86.195	27.705	16.032	5.6618	1.1728e-06	12.176	4.5846e-05	1.2747e-05	3.682e-06	211.37	1.6628e-07	1.6634e-07	269.08	59.367	1.7451e-07	1.3863e-07	90.649	29.137	16.837	5.9878	1.5378e-07	12.854	-95.953	-66.976	-84.743	-151.089	-16.461	1.460	-150.493	-145.772	30.263	6.670	-146.460	-141.478	-141.426	-136.392	-8.255	-137.131	-8191	255	
40948.656	1	1	0	0	0.14828	0.024256	0.12969	0.13471	0.35563	0.15535	0.18144	0.20186	0.066331	0.1302	0.21273	0.24777	0.11244	0.13314	0.060984	0.24663	-2.2083	-2.3875	-2.725	-2.6167	-2.4396	-2.7438	-2.5187	-2.4979	-2.8646	-2.5125	-2.7667	-2.5812	-2.5125	-2.8271	-2.7708	-2.5229	-4.030	-105.177	-72.185	-67.550	116.716	-47.272	-56.484	52.370	167.552	185.706	106.402	-85.209	-152.632	191.696	-4.123	68.349	9.9798e-05	8.7987e-05	3.4719e-05	207.21	1.4143e-06	1.1034e-06	255.15	57.174	6.646e-07	1.7665e-06	87.555	27.775	15.89	5.783	9.3625e-07	12.347	4.918e-05	1.3276e-05	4.7408e-06	213.38	1.6561e-07	1.4755e-07	268.61	59.751	1.6498e-07	1.503e-07	91.519	29.31	16.812	6.0465	1.4077e-07	13.004	-97.568	-58.699	-44.105	-150.511	-24.762	-65.043	-150.748	-145.476	-13.239	13.922	-146.382	-141.254	-141.242	-136.408	-36.721	-136.619	-8191	255	
40948.754	1	1	0	0	0.10647	0.12268	0.17165	0.30482	0.040904	0.085561	0.18281	0.10209	0.10347	0.2745	0.070216	0.13434	0.18744	0.20792	0.10415	0.044582	-2.2562	-2.3542	-2.7125	-2.7292	-2.4104	-2.825	-2.6604	-2.5875	-2.8167	-2.3292	-2.7875	-2.6125	-2.4917	-2.6333	-2.525	-2.4646	-38.261	140.632	-99.422	87.326	7.981	131.117	-151.019	50.108	61.853	165.221	73.121	-103.214	130.829	103.870	-145.417	1.703	0.00010371	4.4486e-05	3.3792e-05	206.29	1.0902e-06	1.55e-06	259.78	57.825	8.488e-07	1.0204e-06	87.945	27.867	16.157	5.7147	1.1851e-06	12.383	4.5578e-05	1.3245e-05	4.1401e-06	213.12	1.6192e-07	1.5848e-07	270.47	60.06	1.6728e-07	1.3159e-07	91.8	29.441	16.978	6.0741	1.6862e-07	13.099	-99.405	-103.234	-72.436	-150.578	-44.585	19.538	-150.518	-145.515	-13.484	-25.198	-146.685	-141.456	-141.634	-135.823	30.960	-137.096	-8191	255	
40948.852	1	1	0	0	0.22774	0.039619	0.073068	0.20105	0.22439	0.26165	0.1426	0.094179	0.23535	0.27882	0.23627	0.092647	0.25039	0.14337	0.37635	0.21714	-2.3396	-2.5104	-2.4646	-2.5146	-2.3563	-2.8812	-2.5563	-2.5	-2.5979	-2.5646	-2.5396	-2.5812	-2.3937	-2.5958	-2.5438	-2.3083	21.781	118.805	-17.835	129.676	61.721	-140.584	56.989	31.016	40.703	50.493	167.768	133.346	-159.261	-84.847	82.231	192.961	0.00010432	8.3639e-05	2.9053e-05	205.75	1.1805e-06	9.4588e-07	259.12	56.923	7.194e-07	1.1027e-06	87.358	27.612	16.068	5.7282	3.7887e-07	12.349	4.2353e-05	2.1946e-05	4.4383e-06	213.44	1.5238e-07	1.5814e-07	270.85	59.718	2.1247e-07	1.3314e-07	91.28	29.287	16.878	6.0516	1.7446e-07	13.007	-93.049	-146.131	-88.886	-150.400	10.962	8.614	-150.496	-145.593	-33.084	10.738	-146.452	-141.436	-141.431	-136.222	-58.134	-137.306	-8191	255	
40948.973	1	1	0	0	0.28869	0.091452	0.12683	0.076351	0.10418	0.023557	0.21072	0.26855	0.11249	0.06074	0.17217	0.19181	0.22969	0.10542	0.036548	0.064034	-2.3458	-2.4271	-2.4458	-2.825	-2.2938	-2.8208	-2.7646	-2.4125	-2.6854	-2.5771	-2.4792	-2.825	-2.3792	-2.5187	-2.7917	-2.4542	20.054	124.007	-71.082	73.734	47.227	122.234	-77.722	127.019	-30.101	-127.906	83.988	159.726	-94.027	-106.595	92.869	8.608	0.0001147	0.00010375	4.8287e-05	204.36	1.7383e-06	1.2976e-06	257.18	56.892	7.6707e-07	1.3409e-06	87.985	27.673	15.97	5.7304	9.9495e-07	12.363	4.0503e-05	2.3673e-05	3.9759e-06	212.21	1.3429e-07	1.6736e-07	269.86	59.6	2.008e-07	1.249e-07	91.486	29.271	16.916	6.0652	1.4294e-07	13.08	-97.234	-82.347	-80.234	-150.426	-8.085	-18.687	-151.072	-145.234	-35.615	19.122	-146.294	-140.859	-141.639	-135.778	-13.020	-137.270	-8191	255	
40949.066	1	1	0	0	0.38009	0.33928	0.11425	0.25669	0.11855	0.1391	0.037774	0.21306	0.19121	0.11229	0.24767	0.16037	0.081379	0.24368	0.18321	0.099719	-2.2938	-2.5375	-2.5167	-2.8104	-2.4625	-2.6833	-2.7229	-2.5021	-2.9104	-2.5187	-2.5187	-2.675	-2.3167	-2.525	-2.7667	-2.6437	36.951	-40.044	175.505	20.282	-4.149	174.234	-99.350	98.324	-53.635	-139.299	33.457	47.615	-133.167	-105.277	177.736	130.415	0.00010918	9.2501e-05	5.458e-05	204.99	1.1654e-06	1.1481e-06	257.33	57.088	7.4477e-07	1.5456e-06	87.418	28.014	16.144	5.7736	4.705e-07	12.431	4.0089e-05	2.7191e-05	4.4383e-06	211.95	1.281e-07	1.6668e-07	269.66	59.813	1.847e-07	1.261e-07	91.435	29.465	16.951	6.0763	1.4844e-07	13.09	-100.636	-105.203	-90.805	-150.337	8.723	-41.197	-150.275	-145.884	3.830	-9.559	-145.989	-141.151	-140.804	-135.737	-3.022	-136.604	-8191	255	
40949.141	1	1	0	0	0.28354	0.0096841	0.23454	0.20621	0.27606	0.058088	0.39213	0.095791	0.14491	0.076323	0.4441	0.15818	0.1367	0.22431	0.33943	0.38249	-2.0771	-2.5146	-2.3917	-2.7438	-2.5667	-2.5292	-2.6979	-2.3458	-2.4896	-2.6833	-2.5104	-2.75	-2.5146	-2.5625	-2.8292	-2.5	-133.679	49.575	-148.331	65.713	-42.298	42.712	-39.412	96.591	-78.195	173.693	161.294	104.093	-116.666	-150.950	-69.269	-99.590	0.00010737	0.00011455	1.5169e-05	204.2	9.8224e-07	9.1641e-07	258.81	56.999	6.6731e-07	1.1039e-06	88.398	27.901	16.224	5.7993	9.1545e-07	12.51	4.0393e-05	2.4374e-05	3.9499e-06	211.95	1.2726e-07	1.6702e-07	270.95	59.803	2.1033e-07	1.5081e-07	91.832	29.594	17.001	6.1274	1.6795e-07	13.183	-98.795	-60.801	-65.469	-150.422	-26.230	-29.254	-150.492	-145.671	-12.465	-26.234	-146.847	-141.208	-141.382	-136.391	-34.032	-137.095	-8191	255	
40949.234	1	1	0	0	0.2342	0.19931	0.21415	0.1766	0.072105	0.27586	0.13267	0.084281	0.1306	0.055136	0.18152	0.21428	0.040476	0.10813	0.071472	0.13786	-2.1271	-2.7271	-2.2896	-2.6063	-2.6188	-2.5521	-2.8063	-2.6625	-2.6958	-2.6521	-2.4813	-2.75	-2.6729	-2.4729	-2.7854	-2.2	107.457	-75.949	-155.067	189.537	104.285	150.076	149.819	-119.119	23.999	187.942	-0.838	173.581	-143.517	-10.541	-6.645	-73.507	0.00011351	0.00011076	2.1991e-05	206.21	7.872e-07	6.2004e-07	259.59	57.22	7.6383e-07	1.3462e-06	87.106	27.676	15.975	5.7578	7.8611e-07	12.362	4.3984e-05	2.7829e-05	3.6172e-06	214.17	1.5003e-07	1.4277e-07	270.56	59.888	2.082e-07	1.5356e-07	91.171	29.189	16.856	6.084	1.7546e-07	13.011	-101.297	-77.691	-79.532	-150.576	-0.004	-14.484	-150.609	-145.681	-27.201	-20.608	-146.318	-141.386	-141.051	-136.162	28.761	-137.146	-8191	255	
40949.355	1	1	0	0	0.11195	0.19471	0.18354	0.11372	0.15465	0.25887	0.28324	0.11153	0.23213	0.14763	0.2394	0.053621	0.053516	0.22359	0.062136	0.081225	-2.1396	-2.75	-2.5729	-2.7771	-2.4833	-2.4	-2.7771	-2.5896	-2.6437	-2.7687	-2.5938	-2.7167	-2.5208	-2.4333	-2.8875	-2.6583	21.279	-47.837	13.502	-18.403	27.341	-10.620	96.092	118.888	-29.047	126.349	23.930	85.488	178.471	163.206	74.492	-47.158	9.7438e-05	9.9166e-05	3.1906e-05	204.52	1.21e-06	1.2985e-06	257.42	56.703	9.3512e-07	1.0465e-06	87.016	27.689	16.032	5.7269	7.0116e-07	12.348	4.1148e-05	2.1759e-05	3.6517e-06	212.06	1.4819e-07	1.4926e-07	268.16	59.426	2.1395e-07	1.6968e-07	90.683	29.147	16.814	6.043	1.7813e-07	12.987	-95.534	-48.204	-66.633	-150.909	5.973	-37.023	-150.758	-145.693	-14.732	11.895	-146.340	-141.436	-141.638	-136.271	16.980	-137.897	-8191	255	
40949.449	1	1	0	0	0.2761	0.16668	0.34835	0.16667	0.15853	0.17559	0.22628	0.13646	0.18363	0.36743	0.13564	0.14293	0.073035	0.30281	0.10027	0.066128	-2.1813	-2.6208	-2.5729	-2.5417	-2.6312	-2.4938	-2.825	-2.4104	-2.8	-2.7458	-2.5979	-2.5917	-2.7792	-2.5292	-2.85	-2.7167	69.080	-87.611	-69.181	-19.123	-29.005	148.778	72.081	180.729	-102.868	60.929	98.526	-98.832	95.257	41.540	10.248	117.018	0.00010301	0.00013541	4.6958e-05	203.68	5.0263e-07	7.3615e-07	257.6	56.914	9.4272e-07	9.3466e-07	87.361	27.74	16.106	5.768	5.6143e-07	12.277	4.3339e-05	2.6506e-05	3.6863e-06	211.99	1.4518e-07	1.2706e-07	268.45	59.507	1.8273e-07	1.5098e-07	90.822	29.225	16.951	6.0667	1.873e-07	12.935	-96.873	-79.504	-99.659	-150.777	-109.829	-1.224	-150.773	-145.470	-2.251	34.324	-146.127	-141.322	-140.935	-136.068	7.654	-137.513	-8191	255	
40949.547	1	1	0	0	0.19605	0.054014	0.13123	0.38515	0.066245	0.072551	0.098625	0.059157	0.1569	0.026784	0.078488	0.18159	0.13746	0.23049	0.22951	0.016939	-1.9688	-2.7938	-2.4542	-2.5375	-2.6688	-2.4792	-2.6167	-2.6354	-2.4042	-2.8042	-2.3292	-2.7083	-2.4771	-2.5896	-2.8146	-2.5896	175.224	-94.668	9.345	45.477	-118.477	-124.165	109.453	117.375	166.068	161.145	55.481	-83.509	-76.969	-34.302	120.032	-44.931	0.00011732	0.0001099	1.6165e-05	205.01	8.27e-07	8.5048e-07	257.19	57.238	4.1681e-07	1.0786e-06	86.745	27.968	16.064	5.6942	8.7098e-07	12.222	4.3838e-05	2.0918e-05	4.166e-06	212.36	1.3697e-07	1.2057e-07	268.26	59.926	1.8486e-07	1.7449e-07	91.274	29.365	16.939	6.0218	2.0848e-07	12.907	-100.517	-38.347	-95.515	-150.644	39.845	-43.407	-150.385	-145.343	-28.084	-53.512	-146.704	-141.392	-141.160	-135.325	14.723	-136.776	-8191	255	
40949.641	1	1	0	0	0.081885	0.017426	0.12602	0.17199	0.16146	0.27995	0.050174	0.06689	0.08736	0.39655	0.069391	0.30615	0.20916	0.064461	0.18284	0.13566	-2.0667	-2.8063	-2.5271	-2.5354	-2.7479	-2.4062	-2.7708	-2.4646	-2.5667	-2.7771	-2.5583	-2.5958	-2.6646	-2.4938	-2.6813	-2.8104	138.425	-142.868	-58.270	102.819	14.968	-154.142	-76.090	-69.595	-104.759	52.905	67.824	100.626	92.864	103.118	23.296	-76.290	0.00011842	7.4049e-05	4.8793e-05	204.81	1.1487e-06	7.1724e-07	256.83	56.689	7.5543e-07	7.8081e-07	86.792	27.066	15.911	5.556	7.7493e-07	11.943	4.1416e-05	1.5409e-05	6.1626e-06	212.1	1.6343e-07	1.2228e-07	268.4	59.491	1.9489e-07	1.3743e-07	90.64	28.55	16.664	5.8726	1.6495e-07	12.586	-97.260	-65.613	-74.544	-150.093	-15.368	45.915	-150.371	-145.954	-11.813	20.515	-146.581	-141.418	-141.352	-135.527	8.894	-137.054	-8191	255	
40949.738	1	1	0	0	0.1174	0.082296	0.0072122	0.19874	0.0076407	0.018579	0.107	0.12101	0.052631	0.2079	0.014552	0.17925	0.27729	0.22542	0.096612	0.3072	-2.0604	-2.8729	-2.4667	-2.4417	-2.6813	-2.4938	-2.7979	-2.5917	-2.4375	-2.7833	-2.5729	-2.4771	-2.9292	-2.4688	-2.7083	-2.6792	-148.472	-94.669	-142.627	49.223	-61.014	-38.334	124.504	-160.961	-138.977	137.228	48.807	-159.230	-158.980	97.631	177.244	191.009	9.9156e-05	3.9704e-05	2.0193e-05	202.43	8.8871e-07	1.0504e-06	254.06	55.652	1.8658e-07	9.4722e-07	85.497	27.076	15.533	5.5299	6.2627e-07	11.892	3.7777e-05	1.5953e-05	5.9681e-06	209.26	1.7632e-07	1.3355e-07	265	58.407	1.7698e-07	1.6265e-07	89.311	28.477	16.382	5.8331	1.868e-07	12.567	-94.459	-118.754	-20.377	-150.563	-45.446	-13.348	-150.570	-145.488	39.462	7.572	-146.318	-141.848	-141.231	-136.331	-15.956	-136.533	-8191	255	
40949.836	1	1	0	0	0.32536	0.20171	0.21616	0.047474	0.15648	0.19297	0.13076	0.32002	0.093718	0.1892	0.021197	0.075708	0.31161	0.099498	0.19048	0.074473	-2.1667	-2.7708	-2.3771	-2.5771	-2.8521	-2.5458	-2.6646	-2.7292	-2.4458	-2.9188	-2.7271	-2.5521	-2.8229	-2.5271	-2.6271	-2.6375	102.834	51.454	184.054	169.789	-108.009	-117.878	101.455	-125.751	18.955	7.855	49.495	-49.677	54.461	-151.785	-120.962	112.143	0.00010511	4.1438e-05	3.7482e-05	200.42	1.2566e-06	9.8613e-07	253.36	56.175	5.6046e-07	9.8842e-07	86.127	27.048	15.646	5.4821	7.186e-07	11.952	3.8763e-05	1.5969e-05	7.8912e-06	208.28	1.8302e-07	1.1527e-07	264.87	58.5	1.6876e-07	1.8478e-07	89.664	28.504	16.468	5.7812	1.7613e-07	12.517	-99.491	-156.264	-102.216	-150.567	-15.945	-4.019	-150.538	-145.557	-9.279	21.718	-146.648	-141.703	-141.705	-136.999	-28.579	-137.022	-8191	255	
40949.953	1	1	0	0	0.14474	0.054355	0.019768	0.11889	0.28659	0.071474	0.13499	0.26447	0.39668	0.13425	0.27096	0.34776	0.098782	0.25365	0.02785	0.16238	-1.975	-2.6354	-2.6	-2.35	-2.6396	-2.4271	-2.6688	-2.7417	-2.425	-2.8042	-2.6813	-2.5312	-2.6896	-2.6083	-2.5792	-2.8	-162.318	83.602	-57.970	-25.043	149.786	32.428	172.170	88.483	70.271	62.920	-33.543	-129.459	53.181	-121.716	21.797	174.768	9.6042e-05	0.00010151	4.1748e-05	204.68	1.0033e-06	1.0063e-06	253.53	55.923	6.4444e-07	9.9342e-07	85.298	27.028	15.536	5.4641	1.1872e-06	11.773	3.5878e-05	1.4163e-05	6.8929e-06	209.44	2.0646e-07	1.2877e-07	264.9	58.671	1.7665e-07	1.8375e-07	89.25	28.44	16.381	5.7807	1.6479e-07	12.496	-95.059	-71.646	-69.256	-149.908	-11.954	-1.574	-150.626	-145.544	-17.212	-40.711	-146.425	-140.961	-142.080	-136.184	-25.435	-136.870	-8191	255	
40950.051	1	1	0	0	0.13102	0.1311	0.062444	0.12602	0.095456	0.34472	0.044432	0.084909	0.12077	0.42648	0.16353	0.1734	0.064182	0.069548	0.2129	0.23678	-2.1396	-2.7104	-2.7938	-2.5354	-2.8396	-2.5812	-2.5021	-2.7396	-2.5125	-2.7687	-2.6375	-2.6729	-2.6771	-2.5958	-2.5417	-2.8792	91.353	132.077	-50.003	56.575	120.514	27.143	-28.313	55.066	-58.467	-122.204	13.741	-57.070	-49.490	149.626	16.913	94.249	0.00010769	0.0001388	3.8539e-05	200.89	9.5336e-07	1.2228e-06	252.81	55.997	6.8385e-07	1.6374e-06	85.691	27.209	15.646	5.4699	1.1939e-06	11.819	3.7643e-05	1.8693e-05	6.8497e-06	208.21	1.7934e-07	1.3594e-07	265.37	58.647	2.1346e-07	1.6574e-07	89.622	28.52	16.477	5.7918	1.7696e-07	12.5	-94.671	-65.552	-94.579	-150.672	27.078	-22.808	-151.062	-144.950	-22.182	-29.210	-146.144	-141.210	-141.901	-135.594	20.834	-137.052	-8191	255	
40950.148	1	1	0	0	0.1653	0.15644	0.18964	0.15426	0.36687	0.28661	0.14736	0.13309	0.21469	0.10348	0.093249	0.1232	0.27057	0.034247	0.035222	0.054133	-2.1688	-2.6729	-2.6542	-2.4583	-2.8063	-2.5854	-2.6375	-2.7271	-2.6854	-2.8812	-2.8417	-2.5104	-2.7	-2.5729	-2.6333	-2.8875	176.017	-73.957	-22.601	72.405	-31.063	94.310	-97.557	93.098	-127.829	110.212	4.532	85.603	139.521	159.573	-134.117	-79.374	0.0001016	0.00012773	3.0378e-05	199.15	1.1252e-06	1.048e-06	252.01	55.399	8.2601e-07	1.0546e-06	85.607	26.699	15.564	5.4935	5.2543e-07	11.767	3.6487e-05	1.6545e-05	6.4435e-06	207.36	1.8402e-07	1.4157e-07	263.32	58.204	3.0466e-07	1.5973e-07	89.167	28.312	16.361	5.7416	1.7729e-07	12.373	-100.438	-58.825	-77.427	-151.301	21.791	-3.120	-150.795	-145.621	-6.644	2.445	-146.617	-141.239	-141.122	-135.946	4.300	-136.528	-8191	255	
40950.242	1	1	0	0	0.10306	0.21324	0.22867	0.095339	0.12638	0.2429	0.082213	0.1466	0.27343	0.012573	0.17818	0.23952	0.1894	0.045704	0.068175	0.2424	-2.1083	-2.725	-2.8646	-2.4896	-2.6813	-2.7479	-2.5729	-2.8792	-2.5687	-2.4917	-2.8375	-2.5938	-2.5208	-2.5187	-2.6292	-2.9271	156.611	-135.440	-93.787	-91.140	-124.511	141.165	67.858	1.587	-108.756	168.726	138.066	149.344	-95.087	-162.747	-149.691	0.320	0.00010232	0.00012231	3.2952e-05	200.53	8.0026e-07	1.6787e-06	254.25	55.649	3.4949e-07	1.5532e-06	85.872	26.996	15.559	5.5265	1.3583e-06	11.883	3.9116e-05	1.4366e-05	7.9733e-06	207.98	1.6728e-07	1.245e-07	265.45	58.343	2.8921e-07	1.2507e-07	89.848	28.506	16.438	5.848	1.4761e-07	12.562	-97.934	-51.327	-89.457	-150.598	12.597	8.593	-150.622	-145.727	-15.519	10.118	-146.261	-141.082	-140.510	-136.230	6.380	-137.069	-8191	255	
40950.363	1	1	0	0	0.14126	0.082346	0.12155	0.36117	0.072139	0.16043	0.24456	0.21929	0.14048	0.064612	0.1251	0.31923	0.25689	0.028402	0.22093	0.067421	-1.9521	-2.3875	-2.7104	-2.375	-2.6917	-2.8896	-2.6333	-2.7958	-2.4938	-2.4708	-2.7708	-2.5771	-2.6167	-2.8396	-2.7708	-2.7292	117.855	-116.603	-9.077	-21.708	150.276	-102.811	65.861	-67.584	-7.435	-92.892	-36.407	159.972	-32.390	-73.296	167.133	183.055	0.00011303	7.7097e-05	3.3594e-05	201.68	1.2685e-06	2.8685e-07	254.51	55.708	9.1124e-07	1.8713e-06	86.542	26.975	15.677	5.4994	9.6864e-07	11.958	4.1184e-05	1.3121e-05	4.8791e-06	208.45	1.8503e-07	1.2894e-07	266.02	58.635	3.0761e-07	1.1735e-07	89.991	28.663	16.535	5.8545	1.5178e-07	12.632	-95.030	-55.293	-56.024	-150.221	-27.748	2.134	-150.521	-145.434	25.871	-7.840	-146.567	-141.483	-141.229	-135.849	18.928	-136.545	-8191	255	
40950.438	1	1	0	0	0.12753	0.1003	0.22419	0.030835	0.089688	0.27921	0.28405	0.13888	0.11708	0.078791	0.046675	0.14028	0.10026	0.074024	0.24098	0.27155	-2.4104	-2.4313	-2.7583	-2.5896	-2.6833	-2.7083	-2.3583	-2.5583	-2.6271	-2.5854	-2.9458	-2.7083	-2.5875	-2.9583	-2.5583	-2.7812	143.653	-97.149	192.513	-112.068	191.343	142.620	177.521	90.220	-51.630	52.443	-92.755	-19.984	185.708	-136.860	-60.787	-127.867	0.00010159	0.00011358	4.3363e-05	201.53	1.409e-06	1.1957e-06	256.7	56.322	1.0623e-06	8.1371e-07	86.867	27.213	15.86	5.5097	5.7387e-07	11.797	3.9919e-05	1.1658e-05	4.3346e-06	210.03	1.7331e-07	1.4823e-07	268.23	59.031	2.8034e-07	1.2662e-07	90.913	28.8	16.642	5.8491	1.1425e-07	12.531	-94.653	-88.347	-60.243	-149.985	4.929	-3.982	-150.787	-145.499	-26.051	-43.899	-146.554	-141.540	-141.720	-135.778	-22.403	-137.007	-8191	255	
40950.531	1	1	0	0	0.27955	0.23798	0.078026	0.1188	0.047343	0.24004	0.22273	0.19467	0.26714	0.10399	0.21047	0.060887	0.095457	0.124	0.064992	0.058393	-2.2604	-2.375	-2.8583	-2.6104	-2.6021	-2.9229	-2.7062	-2.6375	-2.7667	-2.425	-2.8042	-2.5687	-2.5729	-2.7938	-2.5062	-2.6042	63.575	3.100	38.833	82.462	-101.159	-159.204	-121.791	72.940	-118.432	169.800	181.272	40.085	96.469	-11.999	131.097	136.990	0.0001034	0.00010636	3.8257e-05	202.06	7.5192e-07	1.3666e-06	252.8	55.851	1.5615e-06	7.5026e-07	85.288	27.148	15.619	5.5173	8.4909e-07	11.857	4.0406e-05	1.1642e-05	4.8143e-06	209.68	1.8654e-07	1.2979e-07	265.81	58.57	3.5708e-07	1.0809e-07	89.408	28.499	16.48	5.8115	1.9581e-07	12.525	-98.046	-67.557	-114.051	-150.483	31.948	-31.359	-150.360	-145.384	8.589	-68.280	-146.598	-140.917	-141.772	-135.990	23.408	-137.054	-8191	255	
40950.625	1	1	0	0	0.032683	0.306	0.20692	0.17478	0.17247	0.29301	0.17563	0.20176	0.17405	0.17176	0.20901	0.17591	0.14525	0.26027	0.081642	0.16303	-2.3187	-2.4729	-2.6	-2.4479	-2.5062	-2.9146	-2.375	-2.4292	-2.7562	-2.5625	-2.6646	-2.7292	-2.5042	-2.9021	-2.4396	-2.7708	-64.735	126.755	136.405	-72.994	-39.634	119.565	119.521	77.546	-149.016	48.923	38.496	119.538	143.331	-139.471	-8.106	153.996	9.856e-05	0.00011568	1.8945e-05	201.93	3.0292e-07	1.2588e-06	253.91	56.1	8.5241e-07	5.6184e-07	86.155	27.204	15.874	5.5619	3.9493e-07	11.862	4.0089e-05	1.3183e-05	4.784e-06	209.26	1.6192e-07	1.3952e-07	265.83	58.67	2.6013e-07	1.4172e-07	90.143	28.663	16.624	5.8596	2.9388e-07	12.588	-97.908	-52.884	-106.559	-151.387	44.368	-21.123	-150.308	-146.107	-4.204	-2.930	-146.448	-141.511	-141.192	-135.886	12.815	-136.676	-8191	255	
40950.746	1	1	0	0	0.060475	0.16235	0.19402	0.14031	0.36469	0.20884	0.070702	0.086109	0.14413	0.22517	0.13452	0.091852	0.23088	0.045686	0.056854	0.14235	-2.375	-2.2521	-2.7021	-2.7604	-2.5583	-2.7479	-2.5729	-2.5333	-2.9104	-2.5396	-2.8312	-2.6813	-2.3937	-2.8708	-2.5187	-2.4375	-13.821	43.957	-90.971	14.167	-8.947	-108.865	184.735	-35.080	134.598	141.859	-21.859	-96.512	-118.556	151.003	-58.104	24.683	9.3227e-05	0.00018888	3.3733e-05	202.56	9.3812e-07	5.4398e-07	254.67	56.771	7.1918e-07	1.1867e-06	85.917	27.135	15.8	5.5556	1.5383e-06	11.903	3.7692e-05	1.1502e-05	4.408e-06	210.36	1.6376e-07	1.8068e-07	266.55	59.079	3.3046e-07	1.2387e-07	90.341	28.789	16.663	5.8583	2.6769e-07	12.535	-97.420	-82.185	-84.472	-150.169	-28.769	-16.394	-150.165	-145.303	-1.344	-0.634	-146.543	-141.445	-141.484	-136.004	10.084	-136.985	-8191	255	
40950.844	1	1	0	0	0.14758	0.22314	0.081749	0.16717	0.17101	0.058947	0.10192	0.13054	0.19043	0.21167	0.13099	0.21852	0.053158	0.19441	0.024319	0.25363	-2.2458	-2.5	-2.5208	-2.5521	-2.4146	-2.8708	-2.75	-2.5917	-2.8563	-2.7354	-2.7687	-2.6042	-2.3083	-2.7542	-2.5375	-2.5521	-15.123	-81.338	15.689	-19.726	99.628	112.148	-156.323	-100.051	34.599	-160.029	125.128	-90.799	20.095	-29.440	-63.978	-90.543	0.00010194	7.0424e-05	2.2033e-05	204.11	1.7115e-06	7.0988e-07	255.82	56.376	1.0347e-06	2.0519e-06	86.35	27.249	15.907	5.458	4.3937e-07	11.728	3.8032e-05	1.2685e-05	4.2568e-06	211.27	1.3044e-07	1.5711e-07	267.59	59.376	2.0656e-07	2.1223e-07	90.669	28.53	16.664	5.7657	3.0689e-07	12.277	-93.841	-51.533	-64.345	-150.588	-10.234	-26.389	-150.209	-145.217	-19.232	-14.112	-146.720	-141.537	-141.380	-135.716	-81.785	-136.767	-8191	255	
40950.938	1	1	0	0	0.25994	0.18457	0.14276	0.39783	0.051894	0.11612	0.27969	0.15519	0.1079	0.13026	0.14097	0.20765	0.13411	0.12864	0.13237	0.30105	-2.3833	-2.4562	-2.6417	-2.9146	-2.6542	-2.7125	-2.6979	-2.4667	-2.6688	-2.5687	-2.6021	-2.875	-2.475	-2.8125	-2.5958	-2.4604	42.824	-120.445	3.400	-161.170	-53.122	-147.229	10.807	16.818	6.279	139.950	75.693	63.886	-36.276	-90.991	174.757	-43.846	0.000106	8.8876e-05	2.7242e-05	200.7	1.5043e-06	6.1901e-07	253.27	56.07	1.0562e-06	1.2914e-06	85.152	26.741	15.569	5.4158	9.8038e-07	11.539	4.0393e-05	1.3136e-05	4.0709e-06	209.21	1.4166e-07	1.2774e-07	263.97	58.525	1.9144e-07	2.6645e-07	88.955	28.079	16.284	5.7025	2.2383e-07	12.184	-96.186	-82.992	-67.661	-150.797	11.153	-19.027	-150.709	-145.381	-20.783	17.616	-146.068	-141.625	-141.461	-136.115	-78.341	-137.167	-8191	255	
40951.035	1	1	0	0	0.23657	0.28012	0.14679	0.21644	0.28689	0.12036	0.11619	0.28248	0.036689	0.15029	0.078878	0.11554	0.30539	0.15967	0.25199	0.39377	-2.3021	-2.4958	-2.5646	-2.8708	-2.4167	-2.8167	-2.7354	-2.4958	-2.7708	-2.6958	-2.65	-2.9542	-2.4188	-2.6813	-2.7646	-2.4958	189.380	46.658	84.019	175.449	36.699	192.787	115.465	46.003	165.322	-132.918	108.492	181.760	-144.717	93.000	-100.550	159.529	9.5769e-05	4.4797e-05	2.5587e-05	199.38	8.2438e-07	7.5107e-07	252.47	55.149	1.5321e-06	8.1569e-07	84.42	26.413	15.314	5.324	4.3496e-07	11.479	3.7229e-05	1.309e-05	3.4702e-06	207.57	1.1219e-07	1.525e-07	262.66	58.2	1.9292e-07	2.2767e-07	88.611	28.013	16.314	5.6383	2.7286e-07	12.166	-94.601	-120.493	-101.789	-150.203	-19.931	23.029	-150.393	-145.684	-2.499	-10.263	-146.801	-141.401	-141.146	-136.107	-5.844	-136.897	-8191	255	
40951.133	1	1	0	0	0.2224	0.18262	0.1566	0.22878	0.25945	0.11407	0.20814	0.14993	0.26072	0.10802	0.17661	0.1555	0.20126	0.21934	0.23469	0.25053	-2.3042	-2.6937	-2.5396	-2.8646	-2.4417	-2.7375	-2.6937	-2.5062	-2.7417	-2.6396	-2.6125	-2.7875	-2.7042	-2.5854	-2.7104	-2.4271	40.528	-21.322	-60.757	128.933	96.635	-161.647	172.945	-62.899	115.039	-6.594	-114.451	-95.892	-3.446	70.741	-23.915	-60.347	0.00010572	9.4017e-05	4.566e-05	201.08	1.3069e-06	7.4626e-07	252.06	55.44	7.7957e-07	1.5094e-06	85.237	26.761	15.579	5.331	4.7857e-07	11.823	3.9736e-05	1.1424e-05	3.4789e-06	208.52	1.6108e-07	1.4396e-07	263.92	58.416	1.8224e-07	2.8343e-07	89.159	28.306	16.429	5.6858	2.3117e-07	12.351	-95.593	-51.792	-73.296	-150.984	-17.303	-25.709	-150.209	-145.457	-35.651	-11.283	-146.637	-141.364	-141.823	-135.767	-94.310	-136.753	-8191	255	
40951.227	1	1	0	0	0.15138	0.12964	0.21127	0.27221	0.14651	0.15258	0.025031	0.09795	0.096577	0.13991	0.061964	0.050983	0.070045	0.079038	0.18322	0.10481	-2.3375	-2.5729	-2.3833	-2.8021	-2.7062	-2.5021	-2.8333	-2.4208	-2.7854	-2.6396	-2.5458	-2.7708	-2.6125	-2.4375	-2.8625	-2.6771	60.418	-75.848	-85.177	152.114	173.035	-40.989	169.508	5.801	162.793	-48.420	69.417	-118.386	151.177	-75.040	-96.411	110.274	0.00010184	9.8236e-05	2.5772e-05	201.95	1.2591e-06	1.3217e-06	253.78	56.76	1.354e-06	7.0084e-07	86.213	27.018	15.536	5.4956	7.9107e-07	11.77	3.9055e-05	1.4055e-05	3.1937e-06	208.64	2.423e-07	1.1801e-07	265.21	59.21	1.985e-07	1.937e-07	90.268	28.615	16.58	5.8182	3.0555e-07	12.406	-93.082	-85.436	-89.855	-150.517	-35.583	-51.620	-150.343	-145.420	-16.188	49.886	-146.525	-140.958	-141.226	-136.367	1.847	-136.943	-8191	255	
40951.324	1	1	0	0	0.16059	0.22375	0.088374	0.10688	0.12327	0.10496	0.078829	0.175	0.019734	0.050046	0.15091	0.21396	0.12065	0.13097	0.13377	0.22647	-2.4188	-2.5667	-2.3563	-2.8438	-2.7146	-2.5771	-2.8354	-2.4021	-2.6583	-2.7292	-2.5958	-2.8396	-2.4667	-2.5875	-2.7125	-2.5292	-143.055	110.170	11.298	38.347	-162.449	-50.245	31.113	179.179	23.208	-96.982	177.573	-89.813	192.495	172.369	-105.533	28.536	9.5782e-05	7.7379e-05	2.6266e-05	200.86	1.3859e-06	1.1019e-06	253.33	56.558	8.9665e-07	1.9163e-06	84.11	26.812	15.69	5.4825	9.3583e-07	11.624	3.9201e-05	1.1066e-05	3.0813e-06	208.6	2.0429e-07	1.1784e-07	264.1	59.063	1.9012e-07	2.4106e-07	88.768	28.236	16.471	5.7583	1.6195e-07	12.287	-94.351	-43.944	-78.287	-149.716	-13.680	-8.852	-150.766	-145.534	-2.657	-12.134	-146.393	-141.482	-141.283	-136.453	-6.972	-136.915	-8191	255	
40951.445	1	1	0	0	0.24695	0.13211	0.2633	0.13268	0.17635	0.2688	0.2861	0.20724	0.066106	0.16073	0.066604	0.21118	0.1421	0.21207	0.026815	0.067957	-2.3792	-2.7938	-2.4646	-2.5854	-2.575	-2.5021	-2.8875	-2.5083	-2.4688	-2.6875	-2.525	-2.7083	-2.4	-2.4917	-2.7125	-2.475	107.740	-104.744	-48.143	-51.476	136.838	21.429	29.724	155.652	10.454	-90.839	-89.466	164.313	162.946	100.017	-101.864	60.915	9.1731e-05	4.0515e-05	2.0173e-05	201.98	7.9915e-07	1.3114e-06	251.57	55.743	6.5468e-07	1.0083e-06	84.846	26.941	15.677	5.5452	6.4973e-07	11.708	3.9176e-05	1.2934e-05	3.2109e-06	209.08	2.8248e-07	1.2193e-07	263.15	58.601	1.9883e-07	2.426e-07	88.827	28.341	16.481	5.8281	1.5361e-07	12.439	-95.019	-56.487	-63.762	-150.029	-32.802	-11.588	-150.709	-145.718	-7.340	-17.430	-146.429	-140.978	-141.344	-136.144	-9.874	-136.578	-8191	255	
40951.539	1	1	0	0	0.1682	0.1996	0.1043	0.14719	0.091631	0.095738	0.049446	0.24649	0.13411	0.15353	0.25064	0.24504	0.25388	0.31541	0.19743	0.28203	-2.0812	-2.6417	-2.4667	-2.6333	-2.775	-2.5687	-2.7708	-2.6208	-2.5854	-2.8292	-2.5729	-2.6021	-2.6792	-2.3563	-2.8521	-2.6063	-102.444	-122.528	-144.797	-95.797	192.602	-134.707	165.446	138.839	-126.556	-40.357	66.943	-83.559	-114.100	65.878	-94.367	139.030	9.1405e-05	9.3891e-05	4.3743e-05	203.07	1.04e-06	1.0444e-06	253.3	56.365	8.9639e-07	1.0434e-06	85.385	27.047	15.765	5.5724	5.9153e-07	11.817	3.8081e-05	1.3012e-05	3.1245e-06	209.54	2.2019e-07	1.1169e-07	264.11	58.666	2.0163e-07	2.5787e-07	89.435	28.474	16.518	5.8508	2.0732e-07	12.495	-99.291	-91.151	-59.529	-150.394	-1.547	15.528	-150.545	-145.095	-41.467	-30.685	-146.449	-141.148	-141.183	-135.643	2.540	-136.674	-8191	255	
40951.637	1	1	0	0	0.14403	0.2167	0.19228	0.37679	0.081116	0.19676	0.045569	0.12117	0.23322	0.10591	0.15682	0.15148	0.1543	0.30214	0.18558	0.03523	-2.0729	-2.7083	-2.4042	-2.4958	-2.6396	-2.5167	-2.7854	-2.5646	-2.4271	-2.9229	-2.3312	-2.6292	-2.6896	-2.3083	-2.6417	-2.4979	-26.260	184.227	-30.047	182.403	78.492	186.568	1.319	-94.321	-17.162	181.070	-124.704	138.268	167.747	149.248	-119.107	60.960	0.00010237	5.7141e-05	3.7309e-05	202.23	9.7026e-07	1.5919e-06	253.98	56.139	7.5728e-07	8.9337e-07	85.196	27.169	15.857	5.5409	4.8839e-07	11.73	3.6803e-05	1.4568e-05	3.3708e-06	210.62	3.1664e-07	1.4243e-07	266.48	58.967	1.8224e-07	2.076e-07	89.68	28.64	16.749	5.8284	1.7796e-07	12.371	-99.852	-43.369	-71.150	-150.457	-4.434	4.917	-150.234	-145.560	-9.258	-15.038	-146.473	-141.544	-141.643	-135.565	-21.617	-137.127	-8191	255	
40951.730	1	1	0	0	0.19523	0.048798	0.23205	0.20403	0.21471	0.081882	0.14148	0.11044	0.15961	0.10963	0.11575	0.35109	0.15208	0.11841	0.15588	0.2278	-2.0792	-2.8792	-2.4875	-2.4458	-2.5729	-2.5125	-2.7167	-2.6271	-2.3604	-2.7875	-2.6188	-2.65	-2.8187	-2.4437	-2.7812	-2.7083	30.137	-107.581	133.079	-10.789	157.632	22.311	-152.842	-3.735	18.507	-135.450	-163.666	84.688	137.067	171.504	-21.909	114.980	0.00010321	9.1256e-05	3.7101e-05	201.08	7.8787e-07	5.5276e-07	254.23	56.263	5.6086e-07	2.7635e-07	85.253	26.715	15.564	5.4517	7.9201e-07	11.581	3.8665e-05	1.5673e-05	4.0148e-06	209.64	2.4782e-07	1.1083e-07	265.45	58.736	1.8815e-07	1.4172e-07	89.033	28.153	16.493	5.7402	1.7262e-07	12.247	-97.135	-135.246	-79.236	-150.357	-34.792	1.558	-150.901	-145.926	17.506	-23.900	-145.917	-141.336	-141.657	-135.598	-30.623	-136.992	-8191	255	
40951.828	1	1	0	0	0.16942	0.27458	0.23973	0.16928	0.24914	0.14217	0.3491	0.10356	0.33509	0.14364	0.20235	0.203	0.20528	0.2382	0.25648	0.064671	-1.8479	-2.8271	-2.4771	-2.6479	-2.8187	-2.4375	-2.7083	-2.6312	-2.3229	-2.9042	-2.5312	-2.5521	-2.7083	-2.3458	-2.6271	-2.5896	112.315	79.438	-133.389	-70.006	-121.494	86.999	119.380	-82.625	-162.334	-144.670	60.289	-99.182	-150.994	93.220	108.279	-8.131	0.00010354	0.00014232	2.7539e-05	204.04	1.2641e-06	1.2112e-06	251.66	56.064	1.1963e-06	7.6539e-07	85.01	26.71	15.643	5.5397	7.3239e-07	11.589	3.9846e-05	1.5533e-05	3.077e-06	209.94	2.6339e-07	1.5302e-07	263.84	58.836	1.7385e-07	1.5493e-07	89.146	28.234	16.516	5.7929	1.6529e-07	12.275	-95.724	-66.586	-70.459	-150.981	-13.823	-16.574	-150.622	-145.854	8.375	0.321	-146.625	-141.231	-141.624	-136.432	-18.060	-136.738	-8191	255	
40951.922	1	1	0	0	0.12904	0.17093	0.11322	0.3002	0.17004	0.16658	0.26951	0.20388	0.14504	0.182	0.25491	0.25649	0.33005	0.16787	0.21813	0.03589	-1.8521	-2.6833	-2.6312	-2.4313	-2.6646	-2.6125	-2.6458	-2.7271	-2.6083	-2.8792	-2.8375	-2.5417	-2.8208	-2.3896	-2.5896	-2.6937	-157.765	-92.759	-120.175	-25.816	-121.015	-45.395	131.496	-105.467	58.734	-66.804	-61.777	126.486	-118.489	110.918	-22.111	129.465	0.00010242	0.00015028	3.2987e-05	204.19	1.4439e-06	1.5247e-06	253.44	55.736	4.5061e-07	1.4477e-06	85.501	27.196	15.732	5.5291	1.1234e-06	11.739	3.8276e-05	1.5767e-05	3.4486e-06	210.14	1.8637e-07	2.0117e-07	265.17	58.965	1.686e-07	1.6419e-07	89.853	28.438	16.629	5.83	1.7079e-07	12.413	-92.506	-80.104	-71.018	-150.418	2.466	-19.171	-150.754	-145.544	-60.088	10.255	-146.464	-141.309	-141.178	-135.965	14.985	-136.793	-8191	255	
40952.043	1	1	0	0	0.13754	0.14418	0.061866	0.13016	0.37971	0.21748	0.04383	0.15943	0.27428	0.13161	0.16053	0.14143	0.089449	0.077005	0.040892	0.23877	-2.0708	-2.6646	-2.5229	-2.4625	-2.9375	-2.5021	-2.6917	-2.8563	-2.5042	-2.6146	-2.7062	-2.6854	-2.7146	-2.475	-2.5438	-2.7812	-50.955	-29.515	139.504	-25.249	127.924	-62.044	-1.721	136.469	-125.247	194.336	-132.679	-12.715	-94.230	148.726	-100.026	-6.040	9.4428e-05	0.00011919	4.7709e-05	202.51	1.2784e-06	1.4678e-06	252.58	56.616	1.03e-06	5.1705e-07	86.406	26.936	15.796	5.5346	8.78e-07	11.705	3.6414e-05	1.7012e-05	3.0856e-06	210.8	1.7699e-07	2.548e-07	265.47	59.366	1.7402e-07	1.4017e-07	89.987	28.498	16.666	5.8321	1.6195e-07	12.426	-98.815	-93.201	-101.668	-149.773	9.748	-28.585	-150.623	-145.742	-3.765	-38.274	-146.700	-141.465	-141.159	-136.366	10.326	-137.253	-8191	255	
40952.141	1	1	0	0	0.23273	0.17609	0.18995	0.083406	0.23767	0.08167	0.19805	0.075593	0.21057	0.18823	0.17078	0.20367	0.13172	0.17952	0.08495	0.2152	-2.0979	-2.7021	-2.5771	-2.4562	-2.7938	-2.6854	-2.4667	-2.7479	-2.6312	-2.6583	-2.5708	-2.6625	-2.7125	-2.5	-2.55	-2.7021	122.646	-6.457	101.317	2.538	91.080	24.640	-62.249	79.766	36.031	-103.216	-25.812	74.601	-71.998	-159.260	-104.157	-58.147	9.2256e-05	0.00010051	2.8506e-05	205.13	1.0553e-06	1.1577e-06	253.36	56.324	8.5827e-07	1.2119e-06	84.836	26.735	15.559	5.4764	1.3774e-06	11.464	3.7594e-05	1.7868e-05	2.9733e-06	211.09	1.7013e-07	2.2901e-07	264.63	58.833	1.5956e-07	1.7483e-07	88.516	28.024	16.443	5.7786	1.5845e-07	12.207	-104.108	-49.070	-62.899	-150.728	-17.582	-22.507	-150.487	-145.578	-9.709	16.706	-146.536	-141.555	-141.587	-136.121	2.227	-137.330	-8191	255	
40952.234	1	1	0	0	0.052618	0.16337	0.26563	0.097924	0.12814	0.058547	0.20651	0.16033	0.27296	0.18499	0.21155	0.020488	0.12222	0.089289	0.11078	0.11715	-1.9958	-2.6583	-2.7562	-2.4062	-2.9083	-2.6958	-2.5229	-2.8042	-2.7333	-2.7	-2.9854	-2.5104	-2.6354	-2.5875	-2.5625	-2.8083	-107.373	188.736	-103.891	182.283	-156.926	-146.118	119.148	81.405	155.776	118.832	125.864	118.625	51.363	101.303	-97.917	-42.722	0.0001017	7.2966e-05	2.4439e-05	201.64	1.004e-06	1.0043e-06	251.47	55.719	7.2869e-07	5.7492e-07	84.596	26.81	15.715	5.4785	1.13e-06	11.617	4.1927e-05	1.4008e-05	3.8419e-06	209.21	1.713e-07	2.8639e-07	262.56	58.536	1.5085e-07	1.6248e-07	88.563	28.108	16.53	5.7791	1.5861e-07	12.291	-103.968	-76.342	-80.119	-150.642	7.871	-47.561	-150.578	-145.400	-1.161	33.366	-146.985	-141.703	-140.963	-135.836	0.355	-136.798	-8191	255	
40952.309	1	1	0	0	0.035474	0.11792	0.33846	0.16941	0.27277	0.080588	0.14666	0.23236	0.10797	0.2713	0.14736	0.092554	0.026465	0.10552	0.11677	0.14977	-2.0542	-2.6167	-2.725	-2.4979	-2.6917	-2.7458	-2.6333	-2.9208	-2.5792	-2.5687	-2.8854	-2.4271	-2.6125	-2.7542	-2.45	-2.7354	-38.596	37.062	114.351	149.930	51.414	-32.185	92.755	130.460	63.786	53.156	95.044	106.317	191.874	-135.474	55.542	-29.440	9.6221e-05	7.615e-05	3.4684e-05	201.75	1.3101e-06	5.935e-07	252.13	56.249	1.022e-06	1.6594e-06	84.22	27.058	15.914	5.5357	1.0674e-06	11.828	4.8852e-05	1.5082e-05	4.3475e-06	209.53	1.8202e-07	2.0357e-07	264.23	58.883	1.9604e-07	1.4017e-07	88.739	28.352	16.675	5.887	1.5495e-07	12.472	-99.347	-85.927	-82.405	-150.167	15.346	22.847	-150.518	-145.451	-18.936	5.266	-146.584	-141.778	-141.256	-136.123	18.388	-136.569	-8191	255	
40952.426	1	1	0	0	0.28757	0.059613	0.13657	0.32186	0.077738	0.24694	0.14502	0.14356	0.22056	0.0807	0.20095	0.22412	0.082557	0.10485	0.035277	0.21719	-2.1562	-2.3187	-2.6458	-2.3792	-2.6688	-2.7375	-2.5042	-2.7208	-2.8229	-2.6104	-2.7479	-2.4896	-2.6542	-2.7667	-2.3812	-2.8167	168.182	137.949	111.781	57.789	-26.146	95.318	-60.191	-103.482	111.824	-57.221	-116.188	188.261	-98.827	-88.958	124.863	176.590	0.00010757	0.00013069	3.5922e-05	202.01	9.8356e-07	1.1802e-06	252.52	56.684	5.6982e-07	8.5268e-07	85.546	27.012	15.923	5.5991	4.9121e-07	12.021	4.8e-05	1.4553e-05	4.1401e-06	209.69	1.7867e-07	2.8793e-07	264.68	59.238	1.8339e-07	1.6368e-07	89.576	28.577	16.774	5.9108	1.5194e-07	12.622	-96.728	-69.255	-110.546	-150.356	37.684	-3.622	-150.817	-145.483	-43.698	-2.873	-146.450	-141.311	-141.680	-136.327	-9.997	-136.931	-8191	255	
40952.523	1	1	0	0	0.26578	0.26071	0.13549	0.23457	0.22793	0.089126	0.37296	0.21292	0.31577	0.14015	0.01818	0.1758	0.14453	0.17359	0.12576	0.04487	-2.0938	-2.3729	-2.7417	-2.5833	-2.6437	-2.8417	-2.5958	-2.7583	-2.5938	-2.5625	-2.6458	-2.5458	-2.6	-2.9271	-2.5938	-2.6479	135.928	128.318	30.112	-152.396	-131.711	-69.699	21.116	184.214	137.599	156.605	53.928	-134.839	30.867	-108.176	136.167	-78.400	9.7934e-05	5.9094e-05	3.2107e-05	205.42	1.086e-06	9.3355e-07	253.34	56.288	8.7572e-07	1.1055e-06	84.304	26.607	15.755	5.5081	7.658e-07	11.711	4.9022e-05	1.3167e-05	3.9456e-06	213.01	1.8068e-07	2.7324e-07	265.25	59.164	1.7188e-07	1.4103e-07	88.79	28.216	16.557	5.8408	1.5761e-07	12.318	-101.666	-67.560	-85.520	-150.426	37.390	-23.935	-150.412	-145.222	-9.624	-22.884	-146.559	-141.245	-141.636	-135.830	19.792	-136.878	-8191	255	
40952.617	1	1	0	0	0.18969	0.073112	0.049222	0.24279	0.30169	0.24417	0.25564	0.21467	0.14295	0.046146	0.21386	0.37074	0.18565	0.053551	0.061992	0.18838	-2.2021	-2.5354	-2.7875	-2.65	-2.5833	-2.7958	-2.6271	-2.6292	-2.8521	-2.4396	-2.875	-2.5438	-2.5062	-2.7042	-2.4938	-2.7521	30.445	-92.289	17.529	-73.865	96.570	123.514	-56.172	140.040	20.345	65.645	-154.893	108.830	187.156	35.575	-49.676	35.380	9.6069e-05	0.00012632	3.7402e-05	203.2	1.4666e-06	1.3537e-06	253.19	56.105	2.2172e-07	1.3669e-06	85.506	26.922	15.887	5.584	1.2239e-06	11.742	4.6941e-05	1.2031e-05	4.9698e-06	210.57	1.7482e-07	2.5155e-07	264.14	58.753	1.4871e-07	1.3691e-07	89.018	28.235	16.671	5.8793	1.6695e-07	12.373	-96.082	-56.671	-95.167	-150.537	-36.960	-2.404	-150.802	-145.752	-54.453	16.033	-146.301	-141.330	-141.234	-136.240	-12.722	-137.034	-8191	255	
40952.715	1	1	0	0	0.14481	0.02873	0.13405	0.17337	0.30327	0.090033	0.13866	0.29621	0.047052	0.15372	0.080703	0.35268	0.020965	0.2096	0.074906	0.10144	-2.2958	-2.5854	-2.6333	-2.6479	-2.6521	-2.7479	-2.7083	-2.6729	-2.8729	-2.5062	-2.6042	-2.7021	-2.5417	-2.8208	-2.5958	-2.6333	56.849	2.609	-1.026	-127.009	-144.998	56.287	-121.372	-76.704	156.531	-139.640	-9.320	99.831	97.266	-26.993	20.119	29.897	9.7158e-05	0.0001208	4.3488e-05	205.03	1.3398e-06	1.8612e-06	251.75	56.165	5.1192e-07	1.0929e-06	84.923	26.698	15.897	5.5626	1.2801e-06	11.742	4.9229e-05	1.5206e-05	4.3907e-06	211.68	1.569e-07	1.6992e-07	264.34	58.987	1.7846e-07	1.4395e-07	89.12	28.344	16.698	5.8751	1.7513e-07	12.419	-100.241	-60.424	-89.001	-150.600	-24.290	0.422	-150.563	-145.687	0.637	-9.542	-146.576	-141.502	-141.360	-136.145	-5.689	-136.980	-8191	255	
40952.836	1	1	0	0	0.042948	0.17051	0.13774	0.019066	0.11845	0.065341	0.090515	0.16973	0.19195	0.33222	0.19702	0.30413	0.092961	0.079012	0.22856	0.21574	-2.3292	-2.5271	-2.6833	-2.6771	-2.5	-2.95	-2.7271	-2.5812	-2.8917	-2.5375	-2.6521	-2.6312	-2.5417	-2.8646	-2.5583	-2.6083	111.380	38.734	101.540	-8.044	130.202	-119.372	161.386	-151.470	139.593	-129.652	-153.550	176.176	-3.313	-141.991	75.746	136.445	0.0001104	9.7836e-05	4.2531e-05	204.35	7.2032e-07	3.3359e-07	253.41	56.655	1.391e-06	1.2335e-06	85.701	27.102	16.003	5.6575	9.7467e-07	11.82	4.7087e-05	1.2202e-05	4.6457e-06	211.88	1.3362e-07	1.6839e-07	265.68	59.441	2.1625e-07	1.3777e-07	89.758	28.629	16.836	5.9473	1.5144e-07	12.528	-95.707	-75.277	-79.122	-150.437	25.091	-49.883	-150.239	-145.309	-21.464	-21.996	-146.375	-141.607	-141.364	-136.450	12.117	-136.686	-8191	255	
40952.906	1	1	0	0	0.29087	0.25524	0.2367	0.3377	0.2207	0.10668	0.12372	0.15388	0.12286	0.092786	0.084325	0.043226	0.27676	0.11647	0.38727	0.14643	-2.3396	-2.5292	-2.65	-2.6729	-2.4104	-2.6771	-2.8438	-2.5104	-2.9167	-2.525	-2.7875	-2.7375	-2.3438	-2.6792	-2.4271	-2.5625	-9.290	125.535	110.035	8.083	-63.228	-54.035	-46.693	-70.303	108.087	-3.728	57.411	-135.163	77.858	145.739	186.622	-150.295	0.00010258	0.000115	3.7731e-05	206.68	9.6142e-07	1.7914e-06	254.75	56.634	1.006e-06	1.3232e-06	85.357	26.779	15.786	5.5349	7.6819e-07	11.656	4.5809e-05	1.7385e-05	4.2352e-06	212.34	1.3212e-07	1.7402e-07	265.55	59.346	2.1559e-07	1.364e-07	89.112	28.266	16.669	5.863	1.416e-07	12.284	-96.628	-104.172	-62.294	-150.481	-7.633	-3.048	-150.344	-145.642	-12.818	-11.291	-146.397	-141.226	-141.697	-136.074	11.211	-137.111	-8191	255	
40953.004	1	1	0	0	0.11519	0.19833	0.24485	0.23499	0.17653	0.16899	0.24403	0.18531	0.25499	0.28881	0.17873	0.26959	0.12999	0.078361	0.14449	0.05717	-2.3771	-2.4354	-2.5542	-2.7313	-2.4875	-2.6417	-2.6958	-2.5875	-2.9771	-2.7562	-2.5812	-2.8042	-2.45	-2.7146	-2.8833	-2.5604	-71.735	194.295	141.146	78.873	108.693	27.103	-17.982	-69.094	175.988	-98.452	13.431	-139.098	47.484	-67.968	-21.558	-157.747	9.105e-05	0.00011875	4.1077e-05	203.59	1.0865e-06	1.322e-06	250.87	56.341	9.1595e-07	1.3669e-06	85.066	26.532	16.008	5.5501	9.4622e-07	11.627	3.9225e-05	2.0514e-05	4.0623e-06	210.57	1.4032e-07	1.636e-07	263.69	59	1.9785e-07	1.5338e-07	88.828	28.184	16.689	5.8613	1.5078e-07	12.291	-99.667	-83.323	-64.112	-150.100	-30.286	-40.091	-150.366	-145.684	11.380	-3.057	-146.505	-141.822	-142.091	-136.156	35.173	-136.952	-8191	255	
40953.125	1	1	0	0	0.11137	0.22114	0.16643	0.10014	0.050592	0.14522	0.21169	0.1999	0.19678	0.19063	0.043814	0.15315	0.081429	0.23858	0.14427	0.20478	-2.2292	-2.5333	-2.7354	-2.8937	-2.5979	-2.625	-2.8063	-2.3708	-2.85	-2.5375	-2.5833	-2.8083	-2.5167	-2.6771	-2.6292	-2.5062	-53.239	191.343	31.107	-111.653	8.750	139.068	-97.871	70.568	122.535	138.223	-49.139	-5.481	-86.517	192.034	191.788	147.392	0.00010375	4.3089e-05	5.8085e-05	204.26	1.294e-06	1.4987e-06	251.67	56.557	9.2551e-07	1.4835e-06	84.424	26.707	15.788	5.5389	5.3556e-07	11.662	4.0199e-05	2.5774e-05	4.1487e-06	211.2	1.5137e-07	1.8017e-07	264.05	59.208	2.0294e-07	1.4395e-07	88.636	28.273	16.667	5.8785	1.7763e-07	12.311	-96.741	151.730	-59.430	-150.045	-23.376	7.576	-150.792	-145.108	-31.443	16.972	-146.141	-141.473	-141.369	-135.674	9.420	-137.101	-8191	255	
40953.223	1	1	0	0	0.30453	0.16736	0.10347	0.25079	0.093668	0.14139	0.14921	0.3063	0.29852	0.2522	0.085873	0.20125	0.18994	0.11743	0.14318	0.16723	-2.5167	-2.7167	-2.525	-2.8729	-2.6667	-2.7292	-3.0687	-2.375	-2.8312	-2.6979	-2.4813	-2.6708	-2.5792	-2.4979	-2.8021	-2.4938	88.509	-60.234	-12.502	144.532	-75.475	-13.373	162.108	189.336	-121.313	107.758	-88.040	-130.055	-94.770	-103.050	118.575	-162.329	0.00011029	0.00016144	2.9418e-05	205.44	6.7023e-07	1.3094e-06	253.77	56.493	7.7443e-07	7.5007e-07	84.716	26.832	15.992	5.579	9.2075e-07	11.719	4.0296e-05	2.4451e-05	3.7382e-06	211.77	1.4099e-07	1.5831e-07	264.3	59.212	2.2595e-07	1.2868e-07	88.968	28.302	16.842	5.9097	1.7146e-07	12.408	-96.212	-90.391	-71.437	-150.348	46.271	-27.167	-150.458	-145.627	-33.642	11.691	-146.490	-141.431	-141.317	-136.628	34.381	-136.687	-8191	255	
40953.316	1	1	0	0	0.063052	0.12653	0.13662	0.065846	0.0582	0.15572	0.21237	0.11583	0.11893	0.31899	0.30648	0.15054	0.13764	0.26614	0.20161	0.11341	-2.2854	-2.5917	-2.5958	-2.7188	-2.4542	-2.6646	-2.85	-2.55	-2.6604	-2.6583	-2.575	-2.875	-2.6458	-2.5396	-2.8104	-2.5396	0.860	33.402	-60.037	165.108	-25.592	129.332	166.967	101.852	143.999	35.356	-111.881	172.990	130.262	169.875	-59.965	100.074	9.8024e-05	9.8694e-05	3.7042e-05	207.21	7.7096e-07	7.8014e-07	253.6	56.822	6.5378e-07	1.1657e-06	85.038	26.538	15.959	5.4979	6.4277e-07	11.517	3.7972e-05	2.8841e-05	3.7295e-06	212.52	1.5673e-07	1.4618e-07	265.96	59.367	2.3712e-07	1.2748e-07	88.909	28.142	16.769	5.8238	1.9464e-07	12.152	-96.912	-144.389	-92.316	-150.662	-38.439	-19.378	-150.754	-145.667	-54.678	8.765	-146.502	-141.309	-141.147	-136.219	-26.058	-136.523	-8191	255	
40953.438	1	1	0	0	0.1783	0.13926	0.27367	0.35547	0.1377	0.043344	0.33427	0.12046	0.074923	0.26606	0.081073	0.17905	0.22975	0.11872	0.13735	0.068921	-2.3063	-2.6208	-2.4521	-2.8458	-2.7792	-2.3312	-2.8354	-2.5333	-2.6479	-2.7562	-2.6021	-2.8146	-2.5354	-2.2667	-2.7146	-2.4792	126.115	120.186	158.497	150.637	-52.279	-162.705	-159.458	-28.009	188.342	130.127	171.927	-41.047	93.461	65.985	41.686	-47.299	0.00010184	8.3792e-05	2.5476e-05	204.18	1.7022e-06	9.1674e-07	250.36	55.931	8.2119e-07	5.7283e-07	83.875	26.608	15.708	5.4374	1.5741e-06	11.374	4.1258e-05	2.6381e-05	3.6604e-06	211.12	1.4618e-07	1.6446e-07	262.71	58.771	2.0853e-07	1.4069e-07	87.893	28.002	16.626	5.7839	2.0515e-07	12.055	-99.837	-31.815	-68.503	-150.569	-9.997	-5.203	-150.555	-145.159	-1.794	-17.503	-146.378	-140.957	-140.945	-135.642	27.805	-136.900	-8191	255	
40953.531	1	1	0	0	0.26009	0.33375	0.097592	0.25612	0.24271	0.1045	0.24955	0.064522	0.052237	0.068025	0.33103	0.19168	0.042167	0.054598	0.10383	0.18832	-2.2583	-2.6292	-2.4938	-2.6583	-2.6125	-2.55	-2.8625	-2.6375	-2.55	-2.8063	-2.3312	-2.6813	-2.7229	-2.5	-2.8937	-2.4583	14.262	102.791	27.428	84.296	-120.579	-97.789	-160.756	-139.787	-77.572	50.021	115.435	-13.057	43.402	133.695	53.566	18.725	9.598e-05	0.00015678	3.0231e-05	203.71	6.4055e-07	1.0322e-06	252.59	55.921	8.5805e-07	1.1327e-06	84.261	26.48	15.951	5.4555	9.3192e-07	11.432	4.0381e-05	2.8187e-05	3.6647e-06	211.05	1.3664e-07	1.3645e-07	263.29	58.785	2.0195e-07	1.4995e-07	88.349	27.979	16.654	5.7822	1.8063e-07	12.052	-97.500	-53.294	-88.579	-150.108	-5.043	-61.970	-150.509	-145.459	-32.851	-5.534	-146.464	-141.516	-141.457	-136.309	-27.592	-137.454	-8191	255	
40953.602	1	1	0	0	0.19538	0.10115	0.18915	0.1683	0.15473	0.16329	0.17789	0.066554	0.081469	0.077782	0.046171	0.10903	0.2196	0.14723	0.15799	0.28298	-2.2333	-2.7729	-2.4354	-2.7417	-2.5854	-2.4854	-2.8333	-2.5896	-2.5396	-3.0021	-2.35	-2.6	-2.6937	-2.4792	-2.8458	-2.6208	120.968	13.988	26.697	107.559	-115.667	-129.322	36.058	-152.425	-83.018	118.203	115.037	161.672	5.378	112.764	110.619	-37.215	9.1558e-05	0.00011827	2.0017e-05	204.06	4.3804e-07	1.0859e-06	251.81	56.279	3.9145e-07	1.5138e-06	84.904	26.658	15.879	5.5386	1.431e-06	11.494	3.8738e-05	2.4389e-05	3.7295e-06	211.63	1.5355e-07	1.3713e-07	263.67	59.255	1.8569e-07	1.575e-07	88.577	28.086	16.743	5.8052	1.8897e-07	12.097	-98.904	-94.648	-45.013	-150.104	-21.419	-12.200	-150.528	-145.326	-3.283	-22.545	-146.142	-141.318	-141.755	-135.949	-7.076	-136.930	-8191	255	
40953.723	1	1	0	0	0.098311	0.16614	0.15057	0.28199	0.21199	0.029579	0.24039	0.31106	0.083961	0.19545	0.27408	0.16152	0.0821	0.12729	0.2601	0.21924	-2.1729	-2.6875	-2.5438	-2.6167	-2.8271	-2.4479	-2.7625	-2.8271	-2.4708	-2.7375	-2.5854	-2.7188	-2.5396	-2.4333	-2.5771	-2.7479	-62.386	-48.869	86.250	27.633	-29.144	-8.504	189.830	33.234	-101.607	-75.359	117.565	-19.055	138.707	111.484	11.744	-160.113	0.00010001	0.0001643	1.3057e-05	203.84	1.1735e-06	1.2922e-06	250.83	56.402	6.9488e-07	7.9579e-07	83.72	26.315	15.816	5.3817	6.2068e-07	11.237	3.7996e-05	2.3315e-05	4.8791e-06	211.17	1.4685e-07	1.1784e-07	263.06	58.901	1.7911e-07	1.6436e-07	87.962	27.693	16.475	5.6878	1.8447e-07	11.872	-94.886	-57.162	-29.136	-150.973	-14.457	-27.978	-150.175	-145.556	0.851	6.995	-146.959	-141.245	-140.965	-136.456	1.675	-137.311	-8191	255	
40953.820	1	1	0	0	0.096657	0.2127	0.37498	0.079945	0.1089	0.11577	0.098664	0.12387	0.2299	0.073029	0.2719	0.086781	0.17493	0.062968	0.159	0.26564	-2.1562	-2.8937	-2.5812	-2.4479	-2.6479	-2.2708	-2.7083	-2.6125	-2.4167	-2.8729	-2.5958	-2.5396	-2.6646	-2.6583	-2.8542	-2.6979	-118.581	26.411	60.260	57.687	41.523	-132.352	74.222	-18.408	-117.071	-15.962	143.169	-51.047	-100.015	-50.929	141.695	-148.114	8.8589e-05	0.00011727	2.2057e-05	199.44	9.265e-07	9.6619e-07	247.1	55.268	1.0812e-06	1.3304e-06	82.952	25.936	15.521	5.3401	8.2166e-07	11.198	3.6767e-05	1.6856e-05	6.3484e-06	208.13	1.708e-07	1.2279e-07	259.17	58.079	1.8881e-07	1.5905e-07	86.91	27.389	16.306	5.6403	1.7479e-07	11.831	-102.437	-56.004	-81.138	-150.763	-4.108	-31.086	-150.665	-145.434	-12.664	-8.322	-146.650	-141.201	-141.673	-136.200	-51.897	-137.251	-8191	255	
40953.914	1	1	0	0	0.083996	0.2643	0.23793	0.23616	0.11491	0.29034	0.14631	0.13138	0.23596	0.20463	0.30013	0.26706	0.31545	0.17324	0.034662	0.019621	-2.0729	-2.7417	-2.5812	-2.5187	-2.8667	-2.6437	-2.7479	-2.9813	-2.7229	-2.7667	-2.625	-2.5021	-2.8417	-2.5687	-2.6604	-2.9292	43.416	93.949	-90.246	107.306	55.400	-131.375	127.974	-99.474	-41.064	101.740	70.799	-34.080	188.919	101.536	-125.590	188.072	9.8714e-05	5.0202e-05	2.7532e-05	201.49	1.6771e-06	1.1944e-06	249.65	55.676	5.4921e-07	1.3169e-06	83.064	25.832	15.461	5.3382	5.2224e-07	11.144	3.9481e-05	1.6171e-05	6.7633e-06	208.34	1.7314e-07	1.4174e-07	260.2	58.078	1.8454e-07	1.6728e-07	86.875	27.399	16.252	5.6302	1.6862e-07	11.829	-91.555	-63.395	-97.247	-150.670	-16.407	-44.672	-150.504	-145.425	-39.811	-8.858	-146.324	-141.184	-141.829	-136.447	-28.420	-137.112	-8191	255	
40954.012	1	1	0	0	0.10295	0.053224	0.035658	0.22413	0.082895	0.15808	0.24147	0.26431	0.14892	0.16353	0.2514	0.16391	0.11304	0.19715	0.16625	0.13161	-1.9729	-2.8771	-2.5875	-2.3854	-2.8083	-2.4021	-2.8208	-2.6542	-2.6729	-2.7625	-2.8583	-2.5958	-2.8979	-2.525	-2.6813	-3.0542	-88.933	170.362	-59.522	184.830	-75.470	-24.688	125.949	76.641	78.668	4.706	89.423	-30.756	-145.226	-7.715	-79.837	42.521	8.9597e-05	9.608e-05	3.814e-05	199.78	1.5537e-06	9.0195e-07	247.98	55.431	7.442e-07	1.1535e-06	83.933	26.037	15.547	5.4034	9.8547e-07	11.429	3.5197e-05	1.7494e-05	5.9033e-06	206.6	1.5974e-07	1.0776e-07	259.96	58.057	1.7303e-07	1.4155e-07	87.737	27.654	16.341	5.6946	1.416e-07	12.014	-96.851	-59.117	-62.143	-149.931	-16.808	-7.414	-150.281	-145.207	-23.325	-6.109	-146.766	-141.628	-141.129	-136.134	0.712	-137.049	-8191	255	
40954.133	1	1	0	0	0.20883	0.18272	0.28049	0.11978	0.20213	0.24784	0.12107	0.082978	0.16994	0.15896	0.11698	0.20068	0.059671	0.050439	0.41506	0.20041	-2.2667	-2.725	-2.5458	-2.5625	-2.8583	-2.7625	-2.7396	-2.9729	-2.3854	-2.9083	-2.9	-2.5354	-2.5646	-2.3396	-2.3625	-2.875	-117.055	45.227	179.040	112.369	166.222	119.160	177.577	180.417	-10.700	111.275	118.254	-102.615	-106.388	10.214	-34.929	-52.069	9.4692e-05	0.00015772	3.2948e-05	200.05	1.1112e-06	1.0119e-06	249.25	55.221	9.2543e-07	9.1191e-07	84.107	26.32	15.506	5.4457	6.1321e-07	11.31	3.6195e-05	1.7432e-05	6.6769e-06	208.09	1.6577e-07	1.3047e-07	261.39	58.288	1.7911e-07	1.5098e-07	87.699	27.684	16.297	5.7058	1.6879e-07	11.943	-92.615	-88.991	-86.577	-150.724	0.965	-13.439	-150.527	-145.640	-16.876	33.816	-146.222	-141.345	-141.215	-136.084	25.477	-136.919	-8191	255	
40954.203	1	1	0	0	0.22678	0.33991	0.10337	0.20356	0.13923	0.14662	0.20755	0.11474	0.11293	0.20451	0.2438	0.20835	0.076364	0.11181	0.10514	0.058699	-2.0417	-2.7146	-2.6354	-2.4854	-2.7625	-2.4521	-2.6688	-2.7188	-2.5917	-2.4771	-2.6458	-2.5667	-2.7896	-2.5792	-2.55	-2.6958	115.029	133.478	74.962	-85.382	28.797	114.540	94.000	196.182	145.937	-110.649	111.919	81.700	-64.746	193.148	-59.370	-28.725	0.0001082	0.00012601	4.9544e-05	198.42	1.3905e-06	1.2369e-06	249.91	55.362	6.9506e-07	1.1812e-06	83.63	26.286	15.491	5.4372	9.3866e-07	11.328	3.7643e-05	1.4413e-05	6.128e-06	207.13	1.6695e-07	1.1476e-07	260.71	57.877	2.3038e-07	1.5767e-07	87.364	27.594	16.301	5.7232	1.2793e-07	12.002	-99.308	-79.090	-83.908	-150.032	-1.170	-21.318	-150.803	-145.386	-11.614	-2.517	-146.623	-141.453	-141.294	-135.648	-18.962	-137.280	-8191	255	
40954.301	1	1	0	0	0.1739	0.11009	0.032173	0.1106	0.060779	0.089092	0.083569	0.28462	0.15209	0.21705	0.12348	0.28894	0.072293	0.3066	0.10957	0.089123	-2.0229	-2.4437	-2.6063	-2.2833	-2.8208	-2.4688	-2.5667	-2.4771	-2.4583	-2.6063	-2.9375	-2.5021	-2.6083	-2.5625	-2.3646	-2.8063	-127.644	173.906	145.080	182.092	2.709	-98.978	148.988	146.096	-85.736	8.350	120.605	-89.111	-65.504	-121.005	55.497	182.645	9.654e-05	5.3544e-05	4.9318e-05	200.55	7.7083e-07	8.6077e-07	248.56	55.339	6.9894e-07	6.8492e-07	84.431	26.597	15.679	5.4632	6.913e-07	11.732	3.4746e-05	1.2249e-05	7.2603e-06	207.95	1.5489e-07	9.6318e-08	261.47	58.034	2.7146e-07	1.7414e-07	88.145	27.934	16.441	5.8156	1.3643e-07	12.31	-96.051	-59.667	-78.954	-150.954	14.832	-10.616	-150.744	-145.667	14.859	1.501	-146.583	-141.125	-141.455	-136.097	-10.319	-136.987	-8191	255	
40954.398	1	1	0	0	0.22083	0.079118	0.040012	0.19804	0.11673	0.20233	0.071485	0.074289	0.1306	0.15971	0.11132	0.11089	0.1604	0.22043	0.12734	0.0056714	-2.0875	-2.4688	-2.6562	-2.55	-2.7771	-2.7604	-2.6125	-2.8083	-2.4979	-2.5875	-2.8375	-2.475	-2.6125	-2.7979	-2.3875	-2.6542	150.985	-58.526	12.030	-152.217	34.043	61.815	-3.439	-39.524	64.217	57.069	-17.717	-152.202	171.611	160.602	127.629	64.170	0.0001019	0.00014395	2.9163e-05	201.46	7.707e-07	1.4028e-06	252.5	55.687	4.9266e-07	1.1426e-06	84.247	26.936	15.917	5.6192	1.0848e-06	11.885	3.8166e-05	1.3463e-05	5.5273e-06	209.07	1.5673e-07	1.1203e-07	263.64	58.661	2.8346e-07	1.4927e-07	88.933	28.42	16.681	5.9415	1.356e-07	12.508	-97.073	-68.663	-66.318	-150.930	17.665	-30.148	-150.309	-145.691	-9.911	1.766	-146.311	-141.346	-141.219	-135.928	10.478	-136.946	-8191	255	
40954.520	1	1	0	0	0.19491	0.019841	0.044538	0.092461	0.1782	0.04181	0.085692	0.23142	0.18617	0.26211	0.11969	0.045657	0.078414	0.11558	0.071589	0.20154	-2.1833	-2.5333	-2.7229	-2.4708	-2.7208	-2.9125	-2.6896	-2.7104	-2.6646	-2.6104	-2.9083	-2.4146	-2.6375	-2.7708	-2.4875	-2.6292	-74.760	-73.911	41.201	112.722	-147.923	-0.610	-160.435	120.252	35.026	-14.974	65.544	30.604	89.396	134.406	-110.345	-108.207	9.9082e-05	0.00011114	4.1829e-05	204.28	1.1237e-06	1.4411e-06	253.17	56.62	9.1849e-07	6.426e-07	86.009	27.123	16.003	5.6745	9.39e-07	11.717	3.8337e-05	1.407e-05	5.3588e-06	211.08	1.79e-07	1.3047e-07	265.71	59.285	2.4616e-07	1.3382e-07	89.85	28.645	16.815	5.976	1.5945e-07	12.454	-95.675	-56.500	-76.221	-150.215	-32.947	-15.401	-150.489	-145.284	-9.052	1.497	-146.488	-141.278	-141.272	-136.569	-5.164	-137.342	-8191	255	
40954.613	1	1	0	0	0.23944	0.2713	0.056266	0.10192	0.14071	0.28443	0.16961	0.30856	0.10453	0.082227	0.057659	0.162	0.10914	0.1886	0.084099	0.10855	-2.3042	-2.5042	-2.7354	-2.5812	-2.6583	-2.8563	-2.4646	-2.8375	-2.7292	-2.6354	-2.8125	-2.5187	-2.3812	-2.8104	-2.4375	-2.8187	-146.564	-25.048	127.114	134.820	-29.663	-124.189	-160.194	35.208	133.759	194.097	-15.910	-114.862	-136.518	123.731	-24.465	116.178	0.00010113	5.2156e-05	1.5467e-05	206.14	8.471e-07	1.0834e-06	251.59	56.459	2.7538e-07	9.3273e-07	85.447	26.778	15.971	5.6158	1.0116e-06	11.891	3.9128e-05	1.27e-05	3.7641e-06	212	1.353e-07	1.1152e-07	263.65	58.918	2.8444e-07	1.2147e-07	89.319	28.339	16.711	5.9739	1.6312e-07	12.554	-98.206	-72.222	-35.541	-150.562	11.426	-22.973	-150.629	-145.530	42.439	28.520	-147.073	-141.510	-141.395	-136.771	17.565	-137.015	-8191	255	
40954.707	1	1	0	0	0.1692	0.11791	0.39658	0.14472	0.17578	0.12866	0.10651	0.082096	0.32179	0.14446	0.31641	0.28783	0.25506	0.11461	0.32006	0.04408	-2.1937	-2.6125	-2.6771	-2.7417	-2.475	-2.9104	-2.6417	-2.7854	-2.7521	-2.45	-2.5938	-2.65	-2.5167	-2.9021	-2.4521	-2.6646	113.881	-30.452	-2.339	-0.445	122.687	36.254	-138.035	85.708	15.162	19.719	7.061	66.116	-39.699	-61.825	-127.043	-144.168	0.00010488	5.2349e-05	2.7397e-05	203.57	1.4555e-06	1.3733e-06	255.17	56.702	5.3452e-07	1.007e-06	86.196	27.083	16.093	5.7166	1.3406e-06	11.978	3.9164e-05	1.214e-05	4.2611e-06	211.02	1.5958e-07	1.4226e-07	265.63	59.277	2.6621e-07	1.2799e-07	89.739	28.627	16.856	6.0472	2.0531e-07	12.691	-97.665	-36.503	-67.471	-150.335	-13.284	-19.299	-150.536	-145.798	22.236	38.111	-146.606	-141.830	-141.095	-135.894	-8.596	-137.135	-8191	255	
40954.805	1	1	0	0	0.081201	0.18684	0.074427	0.21631	0.30513	0.20167	0.15658	0.29995	0.022058	0.32953	0.08608	0.10074	0.053133	0.17217	0.12331	0.17494	-2.4021	-2.4542	-2.7125	-2.7062	-2.6562	-2.9313	-2.6208	-2.4688	-2.9	-2.5792	-2.6271	-2.6958	-2.6042	-2.7458	-2.6167	-2.6708	90.695	27.674	-18.968	-101.973	179.320	130.688	71.633	157.025	83.459	86.448	-110.904	-118.352	-89.734	143.681	170.828	-145.447	0.00010861	0.00011764	2.4563e-05	202.38	3.8734e-07	1.5235e-06	252.98	56.631	7.7853e-07	9.629e-07	87.407	27.535	16.045	5.7957	8.634e-07	12.117	3.9943e-05	1.393e-05	4.313e-06	210.9	1.6192e-07	1.4038e-07	265.29	59.335	3.4015e-07	1.5115e-07	90.272	28.877	16.892	6.116	2.3834e-07	12.838	-99.132	-72.881	-130.522	-150.540	21.524	-36.750	-150.427	-145.550	-5.279	2.841	-146.307	-141.331	-141.809	-136.180	-21.959	-137.276	-8191	255	
40954.902	1	1	0	0	0.25972	0.14333	0.18074	0.12229	0.24132	0.076151	0.22057	0.059111	0.049752	0.16909	0.096709	0.13155	0.041474	0.19982	0.10345	0.014007	-2.2958	-2.4854	-2.7708	-2.6396	-2.4417	-2.7458	-2.7104	-2.7917	-2.8833	-2.6	-2.8333	-2.75	-2.5146	-2.6021	-2.4167	-2.575	75.868	79.181	97.197	19.405	21.548	35.502	133.021	-13.299	-121.573	79.247	-31.076	40.396	16.104	-136.529	101.675	-158.630	0.00010065	0.00010634	2.185e-05	205.02	8.2034e-07	1.3949e-06	253.88	56.895	9.8927e-07	1.5567e-06	85.748	27.137	15.95	5.7289	8.3102e-07	11.933	3.8604e-05	1.228e-05	3.8592e-06	211.95	1.43e-07	1.5592e-07	265.38	59.481	2.5224e-07	1.2507e-07	89.496	28.522	16.794	6.0433	2.777e-07	12.615	-99.102	-104.233	-102.955	-150.419	-9.204	-17.329	-150.841	-145.531	-18.896	23.646	-146.728	-141.802	-141.384	-136.044	-15.673	-137.146	-8191	255	
40954.996	1	1	0	0	0.23356	0.18102	0.087947	0.11909	0.31277	0.23335	0.1369	0.081167	0.19055	0.22002	0.078073	0.21469	0.098312	0.12414	0.042963	0.11832	-2.4583	-2.5583	-2.6792	-2.6479	-2.5521	-2.775	-2.6583	-2.5312	-2.7958	-2.3771	-2.7062	-2.9062	-2.5042	-2.6208	-2.5958	-2.35	105.359	-107.123	-157.836	93.594	142.027	-133.859	33.183	-52.362	181.129	-62.436	-102.299	149.130	-77.215	185.069	-34.425	-149.756	9.5094e-05	8.1384e-05	3.3283e-05	202.46	1.2543e-06	1.497e-06	251.83	55.956	9.1381e-07	4.6675e-07	85.678	26.957	15.928	5.759	1.1598e-06	12.085	4.0199e-05	1.0475e-05	4.0796e-06	209.15	1.2274e-07	1.7692e-07	263.46	58.936	2.197e-07	2.5272e-07	89.524	28.555	16.716	6.0437	2.34e-07	12.696	-94.051	-61.417	-54.833	-149.794	-9.733	23.678	-150.676	-145.739	-13.513	-7.802	-146.220	-142.222	-140.816	-136.205	-8.892	-137.267	-8191	255	
40955.117	1	1	0	0	0.033001	0.091944	0.080738	0.14005	0.21073	0.38604	0.085566	0.058417	0.17418	0.18732	0.075286	0.122	0.13433	0.28591	0.16525	0.20093	-2.3812	-2.4479	-2.4167	-2.5979	-2.5938	-2.7104	-2.8417	-2.4813	-2.8521	-2.6479	-2.6021	-2.8354	-2.4917	-2.7271	-2.7438	-2.7417	172.696	109.959	22.174	19.395	-100.012	-130.790	-116.975	-117.435	-75.702	-150.174	188.556	-25.328	11.853	-33.083	103.933	180.581	0.00010401	9.5612e-05	1.8054e-05	203.38	1.0375e-06	4.4834e-08	251.63	56.584	4.8839e-07	8.4033e-07	85.299	27.325	15.893	5.7731	7.0004e-07	12.164	3.9675e-05	1.1689e-05	3.9413e-06	210.55	1.5539e-07	1.3269e-07	263.81	59.311	1.8864e-07	2.1927e-07	89.649	28.784	16.829	6.1109	2.9071e-07	12.83	-94.886	-69.881	-58.872	-149.936	0.624	-99.822	-150.555	-145.580	-7.026	6.831	-146.987	-141.479	-140.930	-136.253	-57.620	-137.041	-8191	255	
40955.215	1	1	0	0	0.2028	0.12455	0.13309	0.089985	0.17051	0.088029	0.28491	0.14062	0.087718	0.28353	0.13198	0.16986	0.15575	0.2168	0.23061	0.22197	-2.4708	-2.6	-2.5812	-2.8646	-2.6729	-2.8312	-2.8521	-2.3979	-2.9104	-2.6625	-2.6854	-2.9062	-2.6083	-2.5396	-2.7083	-2.6021	-143.287	110.604	90.227	-80.203	-29.811	-78.296	152.189	-143.496	188.042	177.683	126.623	68.280	58.240	0.685	-38.055	-76.616	0.00010603	8.4186e-05	2.2339e-05	202.69	2.0588e-06	9.7979e-07	253.7	57.185	4.4417e-07	9.7048e-07	86.328	27.451	16.308	5.941	1.2144e-06	12.265	4.0211e-05	9.2296e-06	3.5005e-06	210.72	1.4719e-07	1.4721e-07	265.71	59.798	1.7303e-07	2.6679e-07	90.417	29.097	17.106	6.2116	2.722e-07	13.002	-96.028	-117.014	-87.827	-150.314	-11.153	-5.106	-150.440	-145.397	-54.550	-16.864	-146.131	-141.032	-141.717	-135.518	-14.391	-136.929	-8191	255	
40955.309	1	1	0	0	0.16907	0.26533	0.24094	0.10669	0.050237	0.087852	0.37669	0.061252	0.27742	0.14264	0.062715	0.073086	0.14274	0.1815	0.12567	0.092219	-2.1875	-2.5833	-2.5354	-2.6437	-2.4833	-2.6937	-2.6312	-2.4188	-2.8063	-2.6833	-2.5875	-2.8688	-2.4688	-2.6333	-2.7229	-2.6937	120.346	-99.261	-159.500	167.961	155.363	120.436	147.870	-162.079	157.317	179.579	59.163	-31.940	81.939	-151.518	-121.910	96.934	0.00010675	0.0001414	3.1463e-05	205.2	1.1948e-06	5.5989e-07	257.53	57.347	9.0405e-07	9.2854e-07	86.894	27.801	16.321	5.8401	4.8681e-07	12.17	4.1051e-05	1.4864e-05	4.1012e-06	212.04	2.0077e-07	1.5336e-07	267.73	60.184	2.013e-07	2.3368e-07	91.059	29.178	17.121	6.1916	2.9938e-07	12.853	-97.400	-69.750	-70.226	-150.901	-39.913	-12.461	-150.259	-145.455	-5.076	4.384	-146.765	-141.346	-141.251	-135.852	-31.167	-137.166	-8191	255	
40955.406	1	1	0	0	0.21474	0.11857	0.30225	0.10007	0.16063	0.34187	0.30654	0.22799	0.22404	0.17079	0.13058	0.098834	0.091691	0.079132	0.13485	0.2627	-2.2229	-2.5125	-2.3875	-2.7521	-2.5438	-2.5521	-2.85	-2.7479	-2.7604	-2.7438	-2.6667	-2.7	-2.6833	-2.45	-2.6521	-2.6937	-78.237	128.434	71.928	-148.236	162.126	159.710	190.320	20.918	-45.981	141.900	-154.476	-17.449	-126.120	24.741	-104.171	-144.876	0.00011735	0.00014598	2.6203e-05	201.68	1.5583e-06	8.9527e-07	252.08	56.495	1.1742e-06	3.7777e-07	85.13	27.097	15.959	5.8059	1.2439e-06	12.142	4.1647e-05	1.2249e-05	3.4443e-06	210.56	2.1567e-07	1.4277e-07	263.74	59.423	1.7073e-07	2.5101e-07	89.555	28.732	16.818	6.1083	2.2967e-07	12.755	-96.885	-95.333	-74.430	-150.398	-4.213	-12.629	-150.657	-145.519	-31.489	182.756	-146.602	-141.186	-141.516	-135.467	16.841	-136.955	-8191	255	
40955.500	1	1	0	0	0.18455	0.077063	0.15952	0.12639	0.10146	0.10596	0.18529	0.054279	0.07601	0.2855	0.10118	0.26321	0.14613	0.044023	0.17376	0.12352	-2.2729	-2.6521	-2.525	-2.7021	-2.8417	-2.4313	-2.6854	-2.4604	-2.7229	-2.8646	-2.5792	-2.7583	-2.6958	-2.4542	-2.7958	-2.5542	-6.158	115.072	19.191	-138.612	-136.379	-138.650	-121.612	-2.376	-100.753	130.556	-149.822	193.300	-117.341	20.446	-117.909	-94.422	9.602e-05	6.8375e-05	3.627e-05	202.28	1.5125e-06	7.578e-07	253.01	56.984	9.9251e-07	1.343e-06	86.306	27.12	16.197	5.838	1.3167e-06	12.173	3.9541e-05	1.242e-05	3.1332e-06	210.83	2.7143e-07	1.2023e-07	263.88	59.474	1.7139e-07	2.3865e-07	90.097	28.753	17.021	6.1615	1.878e-07	12.851	-96.288	-71.746	-60.370	-149.968	-22.216	36.666	-150.504	-145.546	-24.287	-44.943	-146.438	-141.348	-142.175	-136.003	-22.590	-136.907	-8191	255	
40955.598	1	1	0	0	0.080917	0.25192	0.13122	0.24303	0.065465	0.1305	0.29159	0.0864	0.18464	0.1441	0.17823	0.18936	0.097563	0.056802	0.3628	0.036954	-2.3479	-2.8458	-2.4188	-2.5708	-2.8625	-2.6146	-2.8458	-2.5312	-2.6667	-3.0708	-2.4729	-2.6333	-2.7062	-2.5875	-2.7458	-2.5646	42.325	169.269	-100.795	-150.153	-53.197	-40.951	134.785	-133.284	-36.330	65.512	127.181	-6.243	-82.729	8.173	-146.456	174.409	0.00010253	0.00017233	2.0617e-05	204.52	8.2811e-07	1.3328e-06	252.45	56.879	8.1564e-07	1.1038e-06	85.671	27.604	16.455	5.9122	1.0643e-06	12.336	3.9602e-05	1.5984e-05	3.0467e-06	211.45	2.1718e-07	1.5131e-07	264.14	59.668	2.0508e-07	2.5615e-07	90.248	29.03	17.125	6.2126	1.883e-07	12.987	-99.240	-80.555	-106.205	-150.613	9.734	-15.755	-150.771	-145.235	2.227	-15.470	-146.534	-141.518	-141.742	-136.196	34.023	-136.990	-8191	255	
40955.691	1	1	0	0	0.11277	0.039439	0.13468	0.22536	0.11719	0.088612	0.2164	0.36288	0.18176	0.10728	0.075701	0.11351	0.1279	0.21618	0.18436	0.036734	-2.1271	-2.7167	-2.5917	-2.8042	-2.8479	-2.45	-2.8729	-2.7646	-2.8812	-2.9354	-2.9854	-2.9292	-2.9771	-2.6792	-3.1146	-2.8542	32.361	126.398	15.346	-110.308	-120.782	180.987	-42.192	131.660	-42.115	-96.496	-0.532	-104.794	-43.114	-145.040	-77.076	81.850	0.00010609	7.7429e-05	3.3116e-05	205.13	1.5138e-06	3.9458e-07	253.87	57.173	9.0252e-07	3.5338e-07	86.879	27.77	16.288	5.918	1.1481e-06	12.328	4.099e-05	1.4008e-05	2.9862e-06	212.56	3.0074e-07	1.3099e-07	265.12	60.086	1.6137e-07	2.1172e-07	90.736	29.189	17.134	6.2294	1.6779e-07	12.971	-95.158	-25.530	-75.313	-150.234	2.045	-41.364	-150.640	-145.257	-42.194	-5.742	-146.337	-141.376	-141.539	-135.593	-13.255	-137.964	-8191	255	
40955.789	1	1	0	0	0.037796	0.12571	0.063095	0.11578	0.30079	0.24271	0.1687	0.14051	0.10531	0.2278	0.042826	0.12721	0.26229	0.20589	0.23424	0.053574	-2.4167	-3.0354	-2.8146	-2.8146	-2.8479	-2.7833	-2.9875	-2.6708	-2.6833	-3.1917	-2.9042	-2.9313	-2.8958	-2.7625	-2.9479	-2.7542	-129.819	120.029	137.307	-60.125	-29.787	148.451	196.162	75.685	170.184	-96.138	34.197	129.913	180.627	186.431	-5.022	114.503	0.00010945	0.00012679	4.2882e-05	204.68	1.062e-06	2.2221e-07	254.41	57.341	1.0109e-06	8.0124e-07	85.696	27.126	16.094	5.7228	1.0309e-06	11.959	3.7387e-05	1.2591e-05	2.7745e-06	211.01	2.0797e-07	8.9316e-08	264.56	59.91	1.3787e-07	1.4275e-07	89.799	28.631	16.909	6.0623	1.6579e-07	12.613	-100.700	-118.107	-57.803	-150.318	51.280	-14.261	-150.743	-145.407	-26.251	74.780	-146.512	-142.075	-141.258	-135.365	9.183	-137.571	-8191	255	
40955.910	1	1	0	0	0.17531	0.15726	0.16291	0.31087	0.14335	0.35464	0.099527	0.094739	0.26296	0.021942	0.024582	0.29984	0.06445	0.10279	0.14896	0.14948	-2.2354	-2.9896	-2.8667	-2.7875	-2.9375	-2.7979	-3.0542	-2.7604	-2.6854	-3.0812	-2.9375	-2.7479	-3.0042	-2.7146	-3.0354	-2.9396	196.378	18.877	-39.670	-74.944	45.131	-41.005	77.069	151.912	181.084	-72.886	-90.041	55.225	-112.095	162.969	111.414	-77.355	0.00010151	0.00010326	3.9879e-05	205.77	4.1604e-07	1.1662e-06	252.73	57.088	1.0028e-06	8.0233e-07	86.402	26.898	16.033	5.7849	9.6598e-07	11.945	3.5282e-05	1.2949e-05	2.3682e-06	211.02	2.4498e-07	7.924e-08	263.53	59.642	1.7008e-07	1.4034e-07	89.615	28.634	16.848	6.0608	1.4744e-07	12.637	-94.173	-118.761	-81.054	-150.635	-84.530	22.855	-150.721	-145.626	-1.219	-26.494	-146.377	-141.062	-141.590	-136.252	-5.968	-136.978	-8191	255	
40956.004	1	1	0	0	0.17097	0.26456	0.052918	0.13519	0.059355	0.044384	0.04759	0.09676	0.16018	0.18335	0.14916	0.095933	0.12261	0.17235	0.18843	0.36761	-2.3125	-2.9604	-2.7875	-2.9229	-3.1562	-2.875	-2.9562	-3.0208	-2.7938	-2.9813	-2.9729	-2.825	-2.9104	-2.7708	-2.9583	-3.0104	0.210	-36.786	-86.737	176.040	-68.085	-78.674	193.693	173.833	-94.803	-92.361	157.826	41.386	-105.841	133.647	-118.115	156.586	9.6382e-05	0.00013383	1.8289e-05	201.89	7.9624e-07	8.8896e-07	251.64	56.617	8.9279e-07	1.1289e-06	85.726	27.398	16.2	5.7666	8.8443e-07	11.995	3.7533e-05	1.2763e-05	2.593e-06	209.71	1.7565e-07	1.2057e-07	263.65	59.557	1.3573e-07	1.2284e-07	89.881	28.782	16.977	6.0736	1.4761e-07	12.755	-96.979	-79.451	-64.955	-150.109	15.805	-26.061	-150.236	-145.537	-13.519	-2.684	-146.828	-140.717	-141.728	-136.473	32.482	-137.248	-8191	255	
40956.078	1	1	0	0	0.13959	0.11785	0.14732	0.045969	0.1088	0.33235	0.12398	0.18588	0.22412	0.18885	0.18113	0.084403	0.047562	0.2467	0.2249	0.18899	-2.1729	-2.9979	-2.8792	-2.7396	-3.0167	-2.8167	-2.9167	-3.0792	-2.5458	-2.9854	-2.8	-2.7042	-3.0354	-2.8479	-2.85	-3.025	195.494	70.064	-64.858	-15.984	-152.431	-19.873	-143.392	161.258	-90.518	-85.272	137.385	-100.938	102.570	103.076	-48.036	-116.770	0.00010152	0.0001226	3.3208e-05	201.73	1.0889e-06	3.7542e-07	253.1	57.127	1.3569e-06	8.7182e-07	86.098	27.452	16.146	5.7344	9.6806e-07	12.074	3.5781e-05	1.3572e-05	2.8393e-06	211.18	1.2726e-07	1.8768e-07	265.11	59.84	1.4e-07	1.1838e-07	90.333	28.91	16.936	6.0796	1.1492e-07	12.764	-98.688	-66.617	-61.322	-150.576	23.737	-20.061	-150.599	-145.457	-14.585	-24.167	-146.509	-141.542	-141.460	-136.102	10.332	-136.592	-8191	255	
40956.199	1	1	0	0	0.35273	0.17226	0.37669	0.10843	0.08413	0.14631	0.2667	0.34059	0.20739	0.17444	0.1052	0.091816	0.018683	0.05231	0.27683	0.16179	-2.2687	-2.85	-2.7729	-2.5687	-2.9375	-2.7479	-2.6958	-3	-2.6604	-2.8125	-2.9062	-2.6771	-2.8917	-2.8146	-2.85	-3.1792	-144.378	89.594	-30.923	55.364	87.257	68.219	168.659	-96.061	-129.279	34.112	71.583	-32.198	-63.950	153.852	182.032	111.618	9.6943e-05	0.00013656	3.6746e-05	204.1	1.1777e-06	7.7317e-07	253.34	56.433	7.3777e-07	1.1889e-06	85.404	27.142	15.948	5.6937	1.0296e-06	11.956	3.432e-05	1.0895e-05	2.2904e-06	211.45	1.1922e-07	1.6719e-07	264.26	59.215	1.285e-07	1.1855e-07	89.53	28.549	16.767	6.0237	1.0674e-07	12.65	-97.966	-81.552	-74.337	-150.386	0.995	-2.818	-150.493	-145.650	-13.276	13.274	-146.648	-141.627	-141.244	-136.337	-16.460	-137.029	-8191	255	
40956.293	1	1	0	0	0.31519	0.061306	0.25537	0.082408	0.011725	0.12703	0.26945	0.17031	0.0081935	0.23811	0.26064	0.25926	0.029429	0.17044	0.044003	0.034607	-2.3354	-2.9104	-2.9208	-2.8688	-3.1958	-2.9042	-2.8875	-3.1167	-2.8208	-2.9	-3.1146	-2.7687	-3.0062	-2.8583	-2.8979	-2.8667	-147.745	-66.324	-95.349	-120.821	63.172	178.498	29.776	194.610	57.995	-65.147	-157.606	-108.037	-20.850	92.852	196.099	-155.210	0.00010413	0.00012573	1.8857e-05	199.37	1.3206e-06	5.3368e-07	253.36	56.517	1.1707e-06	6.4883e-07	86.19	27.372	16.075	5.7613	1.2998e-06	12.145	3.718e-05	9.821e-06	2.5497e-06	209.67	1.0616e-07	2.2525e-07	265.04	59.342	1.1437e-07	1.0054e-07	89.95	28.84	16.89	6.1135	1.2009e-07	12.822	-90.915	-82.250	-52.828	-150.048	14.320	19.727	-150.805	-145.772	-37.709	40.874	-146.219	-141.196	-141.511	-136.185	-13.580	-136.896	-8191	255	
40956.391	1	1	0	0	0.023844	0.17487	0.10082	0.27714	0.19356	0.14082	0.21264	0.11294	0.094852	0.12047	0.11989	0.16128	0.14007	0.19183	0.10975	0.12084	-2.5667	-2.675	-3.0104	-2.725	-2.8917	-2.9125	-2.9021	-3.0187	-2.8833	-2.9167	-3.1729	-2.7208	-2.9292	-2.8458	-2.6188	-3.0917	-137.305	-16.036	96.626	-115.690	-8.461	-104.159	-30.535	77.394	17.755	58.027	-93.045	-81.096	82.297	185.089	-48.213	-67.001	0.00010139	9.72e-05	4.6798e-05	204.85	1.0697e-06	6.9764e-07	255.44	57.501	5.6684e-07	8.7381e-07	86.859	27.703	16.192	5.8955	1.3535e-06	12.24	4.3765e-05	1.3058e-05	2.7485e-06	212.09	1.348e-07	1.5626e-07	266.6	59.695	1.3327e-07	1.2113e-07	90.727	29.172	17.035	6.2184	1.2859e-07	12.977	-93.490	-86.458	-75.956	-150.720	-18.970	-18.925	-150.657	-145.708	-9.383	-6.586	-146.333	-141.646	-141.585	-135.863	-11.208	-136.799	-8191	255	
40956.484	1	1	0	0	0.11298	0.10586	0.055295	0.082627	0.066301	0.14902	0.19978	0.086876	0.20275	0.12679	0.17805	0.20961	0.13749	0.079737	0.072335	0.086365	-2.4875	-2.7958	-3.1604	-2.5917	-3.1292	-3.0771	-2.7188	-2.8312	-2.8833	-2.7604	-3.1958	-2.7729	-2.8458	-3.075	-2.775	-2.9708	146.663	141.735	155.293	187.229	21.372	129.361	185.831	139.564	135.835	-159.874	154.574	-17.492	164.412	-95.039	-91.620	-76.469	9.8362e-05	6.8696e-05	1.4372e-05	209.11	1.3987e-06	1.1122e-06	257.77	57.267	5.3538e-07	7.344e-07	87.324	28.283	16.533	5.952	1.2427e-06	12.435	4.3813e-05	1.1175e-05	2.8695e-06	213.54	1.3413e-07	2.5002e-07	268.87	60.354	1.3672e-07	1.1015e-07	91.803	29.691	17.318	6.3001	1.2009e-07	13.147	-95.674	-53.940	-17.189	-150.125	-29.251	-7.477	-150.717	-145.567	-5.177	4.515	-146.587	-141.373	-141.877	-136.238	-25.589	-137.029	-8191	255	
40956.605	1	1	0	0	0.12846	0.2044	0.33703	0.10821	0.10691	0.25513	0.083229	0.067716	0.19268	0.16131	0.1281	0.051652	0.26966	0.089026	0.2677	0.22907	-2.4625	-2.7479	-2.9521	-2.8187	-2.9417	-2.9458	-2.6583	-3.0292	-2.8625	-2.8187	-2.9333	-2.7396	-2.6729	-2.9208	-2.7	-2.9646	129.518	-1.648	-54.745	-61.645	48.447	-7.218	157.603	-49.859	-46.915	132.843	145.659	-163.339	184.138	-136.226	48.785	189.589	0.00010639	6.1593e-05	2.8318e-05	207.85	2.0562e-06	8.1851e-07	257.96	57.931	5.8969e-07	8.2459e-07	87.75	27.656	16.375	5.878	1.2929e-06	12.223	4.7416e-05	8.9494e-06	3.1072e-06	215.51	1.5623e-07	1.8512e-07	269.55	60.527	1.4904e-07	1.0723e-07	91.38	29.258	17.172	6.2086	1.1041e-07	12.92	-97.721	-65.465	-81.631	-151.412	5.147	62.306	-151.039	-145.519	-13.612	-0.400	-146.327	-141.592	-141.683	-135.362	-26.758	-137.278	-8191	255	
40956.699	1	1	0	0	0.24748	0.058321	0.054164	0.2302	0.10662	0.087736	0.10082	0.1424	0.1774	0.47308	0.1066	0.013385	0.37529	0.15324	0.066157	0.01213	-2.4479	-2.8229	-3.1	-2.7271	-2.6562	-3.1375	-2.6813	-2.8729	-2.9354	-2.875	-2.9104	-2.8896	-2.9021	-2.9083	-2.7125	-3.1063	-109.714	89.947	-22.886	149.674	-69.522	112.487	113.216	12.185	76.435	164.775	119.519	-155.983	144.463	106.901	-70.990	98.350	0.00010696	0.00016617	1.207e-05	206.45	1.6504e-06	8.161e-07	257.03	57.838	1.2037e-06	9.6991e-07	86.931	27.634	16.352	5.973	7.2192e-07	12.382	4.4617e-05	1.1626e-05	3.3881e-06	214.16	1.358e-07	2.3909e-07	269.1	60.347	1.4822e-07	1.0449e-07	91.275	29.263	17.184	6.2693	1.2259e-07	13.029	-97.910	-67.166	-81.746	-150.414	-12.435	-13.889	-150.740	-145.737	8.914	28.190	-146.981	-141.348	-141.260	-135.913	11.778	-137.543	-8191	255	
40956.797	1	1	0	0	0.23315	0.15991	0.23601	0.063477	0.019334	0.089486	0.12638	0.16651	0.057684	0.14944	0.20001	0.293	0.11978	0.11376	0.19032	0.16492	-2.5667	-2.7521	-2.9042	-2.8229	-2.7687	-2.9375	-2.7438	-2.8229	-2.8375	-2.7271	-2.9708	-2.9396	-2.7812	-3.0208	-2.9208	-2.8042	125.441	27.250	-115.093	41.046	-101.902	-40.406	138.598	98.707	-46.935	171.154	-19.470	-2.164	-13.072	66.768	32.515	91.984	0.00010737	8.2737e-05	2.4356e-05	209.82	1.6246e-06	1.6581e-06	259.67	57.931	1.0176e-06	8.9867e-07	88.412	27.981	16.536	6.0494	7.7052e-07	12.615	4.9911e-05	9.1829e-06	3.6863e-06	215.34	1.4568e-07	1.8444e-07	270.35	60.672	1.4674e-07	1.1358e-07	92.323	29.695	17.371	6.3684	1.1492e-07	13.24	-91.374	-89.572	-79.527	-150.641	5.653	-0.660	-150.658	-145.207	-12.594	1.470	-146.644	-141.054	-141.421	-135.802	-1.971	-137.185	-8191	255	
40956.895	1	1	0	0	0.1086	0.081009	0.3597	0.11525	0.11966	0.14699	0.17716	0.03915	0.20273	0.21061	0.055596	0.15353	0.19533	0.26342	0.32992	0.036201	-2.6271	-2.8833	-3.0542	-2.6	-2.6063	-3.1646	-2.7979	-2.8667	-2.9625	-2.8896	-2.9833	-2.8417	-2.6813	-3.0354	-2.9375	-2.8104	52.259	-145.900	-150.167	104.195	-161.152	-62.249	62.610	-151.222	118.665	151.161	145.829	-71.589	-5.192	-68.538	-85.101	139.000	0.00010477	8.1713e-05	2.2658e-05	210.24	7.1919e-07	1.0934e-06	260.72	58.494	5.8928e-07	1.0052e-06	88.884	28.511	16.662	6.0618	7.7852e-07	12.773	4.3886e-05	9.6031e-06	3.0943e-06	216.81	1.1219e-07	9.7855e-08	273.14	61.318	1.5726e-07	9.9167e-08	92.832	30.063	17.552	6.4102	1.4427e-07	13.399	-93.350	-95.168	-62.927	-150.499	-42.689	-19.315	-150.649	-145.502	-6.624	-27.338	-146.389	-141.498	-141.745	-135.977	13.837	-137.104	-8191	255	
#DATA ENDS
