BOXY.EXE: ISS Imagent and Oximeter Data Acquisition Program Version 0.80
Ascii Record File

#ACQ INFORMATION
2  Detector Channels 
16  External MUX Channels 
1  Auxiliary Channels 
5000  Waveform (CCF) Frequency (Hz)
1  Waveforms Skipped 
30  Waveforms Averaged 
1  Cycles Averaged 
16  Acquisitions per Waveform 
10.0806  Updata Rate (Hz) 

#FILE INFORMATION
TRUE -- External MUX Channel results are PARSED.
FALSE -- AC DC and Phase are NOT grouped.
TRUE -- Companion Program Settings File CREATED.
FALSE -- AC data not excluded
FALSE -- DC data not excluded
FALSE -- Phase data not excluded
FALSE -- Auxillary Chn. data not excluded
Tab delimiters

#CALIBRATION STATE
TRUE -- Waveform Calibration Values APPLIED.


#AUX CALIBRATION VALUES
Val Type	aux-1	

Term	1.0000e+00	
Factor	0.0000e+00	


#WF CALIBRATION VALUES
A = Detector Channel
Val Type	A-AC1	A-AC2	A-AC3	A-AC4	A-AC5	A-AC6	A-AC7	A-AC8	A-AC9	A-AC10	A-AC11	A-AC12	A-AC13	A-AC14	A-AC15	A-AC16	A-DC1	A-DC2	A-DC3	A-DC4	A-DC5	A-DC6	A-DC7	A-DC8	A-DC9	A-DC10	A-DC11	A-DC12	A-DC13	A-DC14	A-DC15	A-DC16	A-Ph1	A-Ph2	A-Ph3	A-Ph4	A-Ph5	A-Ph6	A-Ph7	A-Ph8	A-Ph9	A-Ph10	A-Ph11	A-Ph12	A-Ph13	A-Ph14	A-Ph15	A-Ph16	

Term	0.00000e+00	0.00000e+00	0.00000e+00	0.00000e+00	0.00000e+00	0.00000e+00	0.00000e+00	0.00000e+00	0.00000e+00	0.00000e+00	0.00000e+00	0.00000e+00	0.00000e+00	0.00000e+00	0.00000e+00	0.00000e+00	0.00000e+00	0.00000e+00	0.00000e+00	0.00000e+00	0.00000e+00	0.00000e+00	0.00000e+00	0.00000e+00	0.00000e+00	0.00000e+00	0.00000e+00	0.00000e+00	0.00000e+00	0.00000e+00	0.00000e+00	0.00000e+00	0.00000e+00	0.00000e+00	0.00000e+00	0.00000e+00	0.00000e+00	0.00000e+00	0.00000e+00	0.00000e+00	0.00000e+00	0.00000e+00	0.00000e+00	0.00000e+00	0.00000e+00	0.00000e+00	0.00000e+00	0.00000e+00	
Factor	1.00000e+00	1.00000e+00	1.00000e+00	1.00000e+00	1.00000e+00	1.00000e+00	1.00000e+00	1.00000e+00	1.00000e+00	1.00000e+00	1.00000e+00	1.00000e+00	1.00000e+00	1.00000e+00	1.00000e+00	1.00000e+00	1.00000e+00	1.00000e+00	1.00000e+00	1.00000e+00	1.00000e+00	1.00000e+00	1.00000e+00	1.00000e+00	1.00000e+00	1.00000e+00	1.00000e+00	1.00000e+00	1.00000e+00	1.00000e+00	1.00000e+00	1.00000e+00	X	X	X	X	X	X	X	X	X	X	X	X	X	X	X	X	

B = Detector Channel
Val Type	B-AC1	B-AC2	B-AC3	B-AC4	B-AC5	B-AC6	B-AC7	B-AC8	B-AC9	B-AC10	B-AC11	B-AC12	B-AC13	B-AC14	B-AC15	B-AC16	B-DC1	B-DC2	B-DC3	B-DC4	B-DC5	B-DC6	B-DC7	B-DC8	B-DC9	B-DC10	B-DC11	B-DC12	B-DC13	B-DC14	B-DC15	B-DC16	B-Ph1	B-Ph2	B-Ph3	B-Ph4	B-Ph5	B-Ph6	B-Ph7	B-Ph8	B-Ph9	B-Ph10	B-Ph11	B-Ph12	B-Ph13	B-Ph14	B-Ph15	B-Ph16	

Term	0.00000e+00	0.00000e+00	0.00000e+00	0.00000e+00	0.00000e+00	0.00000e+00	0.00000e+00	0.00000e+00	0.00000e+00	0.00000e+00	0.00000e+00	0.00000e+00	0.00000e+00	0.00000e+00	0.00000e+00	0.00000e+00	0.00000e+00	0.00000e+00	0.00000e+00	0.00000e+00	0.00000e+00	0.00000e+00	0.00000e+00	0.00000e+00	0.00000e+00	0.00000e+00	0.00000e+00	0.00000e+00	0.00000e+00	0.00000e+00	0.00000e+00	0.00000e+00	-6.63820e+01	-1.32221e+02	-1.32598e+02	-1.82128e+02	-5.54045e+01	-6.81716e+01	-1.55839e+02	-1.62015e+02	-4.79085e+01	-6.04191e+01	-1.71365e+02	-1.71126e+02	-1.82066e+02	-1.77488e+02	-4.97492e+01	-1.50542e+02	
Factor	1.73107e-05	1.54295e-04	4.51476e-05	4.38225e-01	1.60551e-06	1.62400e-06	1.61763e-01	5.30960e-02	1.05840e-06	1.60533e-06	8.42355e-02	2.85716e-02	2.33515e-02	8.60720e-03	1.42458e-06	1.24910e-02	5.84177e-06	7.47084e-06	2.07437e-06	2.24426e-01	8.03748e-08	8.19727e-08	7.87615e-02	2.75353e-02	7.88756e-08	8.23536e-08	4.22450e-02	1.44254e-02	1.22567e-02	4.50262e-03	8.00578e-08	6.30654e-03	X	X	X	X	X	X	X	X	X	X	X	X	X	X	X	X	



#DISTANCE SETTINGS
A = Detector Channel
A-1	A-2	A-3	A-4	A-5	A-6	A-7	A-8	A-9	A-10	A-11	A-12	A-13	A-14	A-15	A-16	

2.5000e+00	3.0000e+00	2.5000e+00	3.0000e+00	2.0000e+00	3.0000e+00	1.5000e+00	3.0000e+00	3.0000e+00	3.0000e+00	3.0000e+00	3.0000e+00	3.0000e+00	3.0000e+00	1.5000e+00	3.0000e+00	

B = Detector Channel
B-1	B-2	B-3	B-4	B-5	B-6	B-7	B-8	B-9	B-10	B-11	B-12	B-13	B-14	B-15	B-16	

1.0000e+01	1.0000e+01	1.0000e+01	1.4400e+00	1.0000e+01	1.0000e+01	1.5100e+00	1.9400e+00	1.0000e+01	1.0000e+01	1.9900e+00	2.4900e+00	2.4100e+00	2.9000e+00	1.0000e+01	2.9800e+00	




#DATA BEGINS
time	group	step	mark	flag	A-AC1	A-AC2	A-AC3	A-AC4	A-AC5	A-AC6	A-AC7	A-AC8	A-AC9	A-AC10	A-AC11	A-AC12	A-AC13	A-AC14	A-AC15	A-AC16	A-DC1	A-DC2	A-DC3	A-DC4	A-DC5	A-DC6	A-DC7	A-DC8	A-DC9	A-DC10	A-DC11	A-DC12	A-DC13	A-DC14	A-DC15	A-DC16	A-Ph1	A-Ph2	A-Ph3	A-Ph4	A-Ph5	A-Ph6	A-Ph7	A-Ph8	A-Ph9	A-Ph10	A-Ph11	A-Ph12	A-Ph13	A-Ph14	A-Ph15	A-Ph16	B-AC1	B-AC2	B-AC3	B-AC4	B-AC5	B-AC6	B-AC7	B-AC8	B-AC9	B-AC10	B-AC11	B-AC12	B-AC13	B-AC14	B-AC15	B-AC16	B-DC1	B-DC2	B-DC3	B-DC4	B-DC5	B-DC6	B-DC7	B-DC8	B-DC9	B-DC10	B-DC11	B-DC12	B-DC13	B-DC14	B-DC15	B-DC16	B-Ph1	B-Ph2	B-Ph3	B-Ph4	B-Ph5	B-Ph6	B-Ph7	B-Ph8	B-Ph9	B-Ph10	B-Ph11	B-Ph12	B-Ph13	B-Ph14	B-Ph15	B-Ph16	aux-1	digaux	

39957.035	1	1	0	512	0.38185	0.32892	0.13741	0.079135	0.010648	0.10104	0.29877	0.1499	0.11765	0.079808	0.18533	0.22659	0.059296	0.060758	0.048961	0.34061	-2.3083	-2.2229	-2.6458	-2.5604	-2.4708	-2.5292	-2.5521	-2.4729	-2.6667	-2.5896	-2.6104	-2.7042	-2.3729	-2.5542	-2.5583	-2.4729	239.437	179.548	-47.954	207.552	13.661	57.206	254.899	20.450	135.477	-54.818	57.955	285.869	238.930	180.921	55.311	157.735	2.249e-05	0.00048162	0.0002147	129.09	1.9822e-06	5.5478e-06	202.29	27.576	2.7087e-06	3.7174e-06	59.409	18.664	7.0403	2.8133	2.5491e-06	8.8772	0.002438	0.0030099	0.00078727	222.17	3.326e-05	3.4479e-05	237.62	39.456	3.2856e-05	3.2154e-05	76.828	25.273	12.33	4.6331	2.9663e-05	11.643	270.319	154.514	-4.660	-48.204	76.734	-59.673	-47.791	-42.066	28.716	68.821	-42.155	-36.000	-36.173	-32.771	182.749	-31.888	-8191	255	
39957.156	1	1	0	0	0.045995	0.051836	0.21519	0.20588	0.07296	0.12668	0.18166	0.18957	0.13906	0.16738	0.1921	0.17227	0.099167	0.12408	0.097036	0.032623	-2.3208	-2.3271	-2.5083	-2.8875	-2.5375	-2.8042	-2.6937	-2.3	-2.5729	-2.6021	-2.5438	-2.9437	-2.4458	-2.5479	-2.6354	-2.3604	228.641	235.088	161.840	8.165	51.062	230.207	27.830	271.052	167.990	247.207	81.300	-51.408	140.221	65.513	50.315	206.863	4.3257e-05	0.00060219	0.00010418	136.05	1.1568e-06	7.9246e-06	205.04	27.776	1.235e-06	5.7915e-06	58.082	18.269	6.9341	2.6479	2.6372e-06	8.4711	0.0024207	0.0028455	0.0007671	226.46	3.1873e-05	3.12e-05	239.05	39.404	3.1383e-05	3.0527e-05	75.67	24.769	12.056	4.4077	2.9706e-05	11.283	203.170	39.274	10.325	-48.986	195.968	9.355	-47.617	-42.501	-2.102	31.209	-42.044	-36.204	-37.132	-31.992	66.301	-31.906	-8191	255	
39957.254	1	1	0	0	0.039776	0.18824	0.084915	0.16287	0.32901	0.17069	0.18464	0.33536	0.36721	0.11855	0.10495	0.24538	0.051368	0.22522	0.094248	0.053222	-2.1813	-2.5792	-2.4813	-2.6875	-2.7	-2.6333	-2.5062	-2.3354	-2.6625	-2.5083	-2.6354	-2.6667	-2.4229	-2.5396	-2.7771	-2.4271	24.348	197.399	-58.401	-41.307	208.315	292.205	-16.941	287.829	272.382	241.427	31.861	-5.441	167.230	89.525	187.320	100.304	5.9697e-05	0.00026166	9.5768e-05	136.07	4.6999e-06	4.409e-06	206.31	28.528	4.88e-06	1.0456e-06	58.586	18.163	6.9089	2.6185	2.4586e-06	8.5581	0.0023612	0.0027357	0.00077426	228.78	3.1492e-05	3.1088e-05	241.99	40.133	3.108e-05	2.9936e-05	76.522	24.69	11.881	4.3532	3.0807e-05	11.242	153.532	117.227	42.008	-49.642	126.888	110.883	-48.045	-42.410	70.334	195.974	-42.369	-36.312	-37.257	-32.752	-30.882	-32.058	-8191	255	
39957.348	1	1	0	0	0.2049	0.14773	0.28784	0.23738	0.09103	0.27118	0.11179	0.12264	0.14034	0.17248	0.016535	0.25708	0.16866	0.42484	0.30304	0.20589	-2.1292	-2.6458	-2.35	-2.6208	-2.6	-2.65	-2.7625	-2.2667	-2.6604	-2.6437	-2.5	-2.8083	-2.5083	-2.5187	-2.7604	-2.3625	93.881	-1.138	130.220	277.360	159.544	122.609	244.976	2.634	245.680	244.890	-43.762	247.398	126.220	286.368	215.068	63.379	5.7587e-05	0.00022531	0.00014956	134	4.0161e-06	2.8426e-06	206.74	27.377	2.6085e-06	5.1477e-06	56.944	17.748	6.6302	2.5404	4.587e-06	8.3784	0.0022829	0.0026978	0.0007947	226.44	2.9718e-05	3.0102e-05	242.3	39.314	2.9647e-05	2.9845e-05	75.747	24.269	11.458	4.2851	3.1696e-05	11.024	73.602	296.369	-47.333	-48.502	118.929	229.484	-47.642	-43.054	132.669	179.966	-42.180	-36.591	-37.691	-31.767	184.047	-32.110	-8191	255	
39957.445	1	1	0	0	0.26696	0.093829	0.17376	0.061666	0.12665	0.12678	0.046191	0.17136	0.039909	0.24993	0.41822	0.26048	0.2341	0.055614	0.11962	0.12168	-2.1729	-2.6667	-2.4813	-2.6729	-2.4646	-2.5333	-2.7042	-2.4083	-2.7083	-2.6625	-2.4625	-2.6562	-2.6229	-2.4708	-2.7542	-2.4979	175.257	45.146	18.099	234.235	-0.079	14.824	156.727	120.132	-19.776	161.448	291.786	253.464	280.778	1.551	165.961	220.593	7.5972e-05	0.0004997	4.7594e-05	133.97	8.073e-06	1.8561e-06	202.37	26.714	4.8837e-06	3.0311e-06	57.132	17.75	6.6593	2.5763	4.7317e-06	8.3697	0.0022305	0.0027753	0.00082233	224.32	2.9849e-05	3.1631e-05	238.88	38.793	2.9603e-05	3.179e-05	75.693	24.346	11.523	4.4221	3.3418e-05	11.142	-43.753	194.014	24.782	-48.861	25.922	182.355	-47.632	-42.427	113.726	116.268	-41.888	-35.759	-36.999	-32.993	125.967	-31.944	-8191	255	
39957.539	1	1	0	0	0.16264	0.15619	0.084663	0.41221	0.29532	0.20481	0.10671	0.36259	0.29063	0.15649	0.10675	0.09654	0.19622	0.018372	0.22894	0.27241	-2.2646	-2.7042	-2.4188	-2.6875	-2.5396	-2.4396	-2.9771	-2.3375	-2.6083	-2.6583	-2.4042	-2.7271	-2.4646	-2.4271	-2.6125	-2.225	223.008	92.332	49.463	17.036	263.799	26.201	128.592	-56.119	141.351	-13.917	231.611	2.467	148.941	43.735	22.159	200.645	4.4412e-05	0.00039804	9.3991e-05	133.6	1.5894e-06	4.0788e-06	205.77	27.249	4.8769e-06	3.8939e-06	57.914	18.03	6.9077	2.6355	5.3276e-06	8.7291	0.0023093	0.0030222	0.00086109	228.79	3.1142e-05	3.4096e-05	245.36	39.692	3.1671e-05	3.555e-05	77.999	24.957	12.114	4.7153	3.5833e-05	11.571	88.956	168.380	89.500	-48.416	-34.538	115.570	-47.937	-41.584	2.038	-8.525	-41.478	-36.817	-36.156	-32.474	32.869	-32.098	-8191	255	
39957.637	1	1	0	0	0.26067	0.24769	0.096443	0.096997	0.18855	0.072309	0.16074	0.22769	0.28626	0.19526	0.12229	0.062169	0.21679	0.18922	0.16541	0.079698	-2.1333	-2.7083	-2.4771	-2.6125	-2.5938	-2.4208	-2.7229	-2.325	-2.3771	-2.7042	-2.3958	-2.7313	-2.475	-2.4062	-2.8542	-2.5229	1.447	139.132	201.271	156.322	114.139	277.200	-39.440	78.282	77.499	289.643	104.196	-16.706	235.390	177.747	67.707	6.009	8.0561e-06	0.00040983	0.00011729	139.06	4.7413e-06	3.5885e-06	209.17	28.385	2.1975e-06	4.58e-06	58.937	18.163	6.8771	2.7266	8.8097e-06	8.8603	0.0024563	0.0033318	0.00091873	234.46	3.3734e-05	3.7159e-05	250.28	40.669	3.3529e-05	3.7825e-05	79.312	25.099	12.429	4.8489	3.6098e-05	11.709	121.693	-56.192	242.871	-50.018	-31.246	17.313	-47.733	-42.402	-2.794	101.426	-42.595	-36.490	-35.944	-31.836	125.142	-32.352	-8191	255	
39957.734	1	1	0	0	0.22907	0.13411	0.12573	0.16744	0.15099	0.18263	0.13295	0.085097	0.096754	0.040685	0.12437	0.061391	0.070585	0.2989	0.18735	0.18367	-2.0875	-2.5292	-2.5292	-2.5229	-2.6458	-2.425	-2.6854	-2.5333	-2.5229	-2.8729	-2.3875	-2.5896	-2.6667	-2.4104	-2.7771	-2.7125	203.210	-39.927	232.563	192.229	-44.698	145.337	251.944	163.377	-0.950	200.248	-60.430	181.897	133.888	158.306	47.955	174.921	4.5085e-05	0.00052363	0.00017698	136.35	5.6349e-06	3.8646e-06	205.12	27.669	4.6618e-06	3.7277e-06	57.922	18.277	6.6329	2.647	1.898e-06	8.6976	0.0025868	0.0034468	0.00091405	231.94	3.5396e-05	3.7207e-05	248.09	40.132	3.4565e-05	3.7828e-05	77.81	24.943	12.487	4.7467	3.4544e-05	11.613	268.121	116.985	118.857	-48.647	261.847	276.081	-47.765	-43.362	-48.917	-38.812	-42.875	-36.366	-38.311	-32.222	267.505	-32.420	-8191	255	
39957.852	1	1	0	0	0.21363	0.25412	0.21024	0.13711	0.23506	0.17923	0.15939	0.20044	0.014437	0.19015	0.19675	0.04261	0.14661	0.15981	0.14679	0.082254	-2.0333	-2.7708	-2.3792	-2.6208	-2.6792	-2.4979	-2.7333	-2.5167	-2.3521	-2.6729	-2.3667	-2.5125	-2.6833	-2.4	-2.6813	-2.5812	252.974	71.690	101.462	158.546	120.905	297.568	-37.690	56.916	93.547	-58.772	290.426	217.577	186.706	-54.501	128.500	78.999	3.6228e-05	0.00047206	0.00021358	132.89	1.9885e-06	5.1477e-06	204.98	27.511	5.0086e-07	5.3804e-06	58.387	17.984	6.709	2.6382	1.8091e-06	8.7859	0.0025734	0.0033556	0.00086849	229.42	3.602e-05	3.6179e-05	244.72	39.946	3.5242e-05	3.7293e-05	76.84	24.899	12.636	4.7801	3.3968e-05	11.807	224.462	238.054	-43.155	-48.254	168.396	-21.380	-47.701	-42.503	282.808	24.105	-42.131	-35.435	-36.772	-32.722	-38.587	-32.163	-8191	255	
39957.949	1	1	0	0	0.18985	0.28042	0.09901	0.22989	0.15642	0.36624	0.24149	0.073939	0.08259	0.10688	0.15486	0.26625	0.072483	0.036968	0.20586	0.045965	-1.9125	-2.5771	-2.3708	-2.5167	-2.6688	-2.6458	-2.625	-2.6042	-2.2875	-2.7646	-2.3688	-2.5312	-2.7625	-2.4792	-2.6125	-2.575	154.268	119.274	63.076	-35.490	-50.910	-14.736	158.307	-50.422	165.833	176.261	-35.309	64.717	-6.356	253.584	203.231	54.347	4.3338e-05	0.00026464	0.00016001	138.02	1.6679e-06	6.9564e-06	206.88	27.928	3.7547e-06	4.9352e-06	58.427	18.133	6.8205	2.7175	2.5329e-06	8.7646	0.0026951	0.0034876	0.00087709	238.24	3.7736e-05	3.6895e-05	247.51	41.166	3.6529e-05	3.7569e-05	78.2	25.545	12.939	4.8222	3.4788e-05	12.004	235.340	232.609	38.166	-48.760	37.225	5.956	-47.745	-42.073	90.859	193.068	-42.008	-35.825	-35.881	-33.156	67.142	-32.163	-8191	255	
39958.047	1	1	0	0	0.11891	0.26819	0.15305	0.11304	0.17444	0.11566	0.23774	0.12662	0.2803	0.11561	0.22465	0.25522	0.10915	0.060655	0.054706	0.16991	-1.9438	-2.7479	-2.4292	-2.5438	-2.7792	-2.4708	-2.7354	-2.9083	-2.1979	-2.5979	-2.4271	-2.4167	-2.6562	-2.45	-2.55	-2.7354	171.606	139.342	156.809	61.767	84.751	-55.407	292.152	228.423	46.345	50.253	177.875	0.115	113.114	-22.832	224.121	73.382	9.4616e-05	0.00095023	9.9603e-05	136.99	1.9325e-06	2.3013e-06	206.68	28.269	1.4817e-06	6.7143e-06	58.416	18.145	6.8389	2.7454	1.8765e-06	8.7288	0.0027404	0.003391	0.00089514	242.82	3.8144e-05	3.6274e-05	248.47	41.985	3.7027e-05	3.7067e-05	78.879	25.728	12.965	4.7729	3.5382e-05	12.078	-55.351	-1.855	259.017	-47.774	3.930	85.657	-48.148	-42.679	252.031	151.045	-42.512	-35.071	-36.886	-31.999	220.242	-32.232	-8191	255	
39958.141	1	1	0	0	0.16374	0.14713	0.10192	0.15666	0.17263	0.099443	0.20754	0.10589	0.22651	0.17688	0.098206	0.15203	0.18407	0.187	0.30785	0.027712	-1.8979	-2.6396	-2.6688	-2.5792	-2.9979	-2.6208	-2.5417	-2.7	-2.4208	-2.6521	-2.5896	-2.3958	-2.8875	-2.6	-2.5375	-2.8604	67.886	290.383	58.641	41.711	282.927	139.338	202.395	195.967	184.866	213.584	-48.924	88.239	214.546	18.844	-49.393	69.270	3.7133e-05	0.0002391	5.1108e-05	136.58	4.7333e-06	3.3232e-07	208.03	28.412	3.8045e-06	4.912e-06	57.712	17.706	6.787	2.5634	2.3169e-06	8.6108	0.0027267	0.0033592	0.00091563	244.69	3.7597e-05	3.5089e-05	248.33	42.039	3.5403e-05	3.4943e-05	78.224	25.117	12.536	4.5449	3.5002e-05	11.673	75.526	191.086	113.424	-48.104	60.293	117.674	-47.913	-42.250	54.903	93.061	-42.564	-35.261	-37.312	-31.744	230.659	-31.785	-8191	255	
39958.238	1	1	0	0	0.38887	0.15754	0.1277	0.12776	0.15398	0.18703	0.088986	0.12345	0.30321	0.051629	0.10483	0.18475	0.18592	0.17945	0.28323	0.022288	-1.8958	-2.6437	-2.5604	-2.3875	-2.6604	-2.4708	-2.3521	-2.5583	-2.3604	-2.5187	-2.4688	-2.4625	-2.7	-2.475	-2.3917	-2.7958	60.304	164.765	192.062	-42.628	-6.618	115.240	-35.861	91.321	137.755	21.116	24.754	134.558	210.658	36.293	-40.536	261.910	3.3183e-05	0.00055631	0.0001846	136.52	9.5056e-07	6.7403e-06	204.47	27.284	3.5043e-06	1.481e-06	57.339	17.851	6.5953	2.6012	4.0771e-06	8.6389	0.0025255	0.0031291	0.000905	236.18	3.4584e-05	3.3409e-05	245.78	40.646	3.3121e-05	3.4022e-05	77.71	24.898	12.213	4.5656	3.5531e-05	11.716	-27.525	181.620	35.654	-49.616	-32.763	174.797	-47.920	-42.357	206.947	-47.549	-42.266	-36.485	-36.453	-32.875	186.644	-32.018	-8191	255	
39958.332	1	1	0	0	0.20985	0.089445	0.11995	0.1794	0.152	0.31535	0.088815	0.064444	0.034095	0.11685	0.039863	0.071234	0.22868	0.053244	0.34121	0.045864	-2.05	-2.5146	-2.6979	-2.3	-2.7313	-2.6208	-2.5646	-2.7167	-2.4646	-2.725	-2.6833	-2.4604	-2.6792	-2.5667	-2.4042	-2.7042	0.973	233.652	255.725	247.193	203.825	-1.561	222.798	199.565	192.707	282.654	104.879	19.313	21.120	-40.195	76.423	198.354	3.7056e-05	0.00042384	2.2517e-05	133.25	5.4736e-06	7.6225e-06	205.57	27.278	4.2068e-06	4.2102e-06	58.58	17.92	6.6973	2.6618	5.4454e-06	8.6621	0.0024391	0.003184	0.0009286	236.75	3.3847e-05	3.4317e-05	246.82	40.631	3.2644e-05	3.5223e-05	79.067	25.022	12.25	4.6552	3.6223e-05	11.756	115.612	-56.234	85.833	-47.621	110.182	25.088	-47.962	-42.009	182.078	280.781	-42.665	-35.666	-36.205	-30.647	136.727	-31.479	-8191	255	
39958.453	1	1	0	0	0.27369	0.14129	0.14727	0.070248	0.052573	0.29981	0.17995	0.048942	0.13032	0.025311	0.19908	0.10594	0.12789	0.12362	0.12209	0.1687	-2.0938	-2.4604	-2.7875	-2.4521	-2.5563	-2.7292	-2.375	-2.7875	-2.4792	-2.5146	-2.7938	-2.3688	-2.6312	-2.6042	-2.3833	-2.6729	87.065	-23.595	-37.518	73.669	170.780	161.670	217.698	163.396	295.375	47.253	18.551	121.725	247.340	154.617	226.559	116.120	1.4971e-05	0.00018409	6.0319e-05	138.86	4.405e-06	4.57e-06	207.42	27.771	1.0556e-06	7.0477e-06	58.708	18.171	6.8797	2.6236	2.3569e-06	8.7507	0.0024007	0.0032723	0.00096058	237.78	3.4233e-05	3.6533e-05	250.65	41.252	3.3503e-05	3.7634e-05	80.284	25.247	12.571	4.8352	3.7893e-05	11.928	80.479	167.043	284.685	-49.989	230.428	226.987	-47.783	-42.116	269.398	172.894	-42.068	-35.917	-36.377	-32.516	115.289	-32.282	-8191	255	
39958.547	1	1	0	0	0.15112	0.15591	0.26939	0.21464	0.24292	0.12998	0.2523	0.010514	0.19713	0.22953	0.17737	0.17952	0.11334	0.30803	0.17898	0.13772	-1.9646	-2.7083	-2.7438	-2.2271	-2.6979	-2.6688	-2.4208	-2.6688	-2.4938	-2.5417	-2.8396	-2.5687	-2.7188	-2.6875	-2.3354	-2.5333	48.701	171.431	170.663	-49.223	250.974	159.552	177.090	-41.957	-36.161	37.751	284.716	84.118	61.109	271.980	103.744	290.921	3.6483e-05	0.00079475	8.9091e-05	140.37	3.5039e-06	4.917e-06	212.22	28.869	1.1885e-06	7.5822e-06	60.009	18.482	7.157	2.6583	2.1441e-06	8.8727	0.002607	0.0036162	0.00099965	243.53	3.6623e-05	4.0058e-05	256.77	42.362	3.6095e-05	4.0731e-05	82.367	25.748	13.259	5.0485	3.9131e-05	12.076	103.475	117.717	58.545	-48.477	209.756	159.664	-47.841	-42.301	11.600	6.768	-42.315	-36.222	-36.801	-32.002	85.199	-32.257	-8191	255	
39958.645	1	1	0	0	0.14185	0.13365	0.16649	0.17304	0.20688	0.080065	0.24037	0.089158	0.32522	0.066987	0.27451	0.2309	0.11192	0.12535	0.11744	0.10861	-2.1396	-2.4479	-2.6583	-2.3563	-2.5583	-2.7062	-2.4021	-2.5333	-2.5479	-2.5167	-2.7521	-2.4521	-2.6083	-2.6437	-2.5542	-2.5563	96.274	178.405	185.998	141.675	28.394	-36.745	269.497	219.599	221.175	223.288	-57.053	262.189	141.719	265.237	84.352	-12.912	0.00010419	0.00066011	0.00014583	141.43	7.3718e-07	1.352e-05	214	29.735	6.9297e-07	4.9792e-06	60.668	18.751	7.2042	2.8163	3.6357e-06	9.2165	0.0027996	0.0038154	0.0010412	249.57	3.9483e-05	4.2156e-05	259.02	43.548	3.8731e-05	4.2078e-05	83.707	26.412	13.784	5.2622	3.9711e-05	12.506	183.348	168.314	124.104	-50.027	-5.702	37.127	-47.843	-42.607	84.462	8.629	-42.572	-36.054	-36.843	-32.166	156.647	-32.198	-8191	255	
39958.715	1	1	0	0	0.061199	0.20856	0.26798	0.20826	0.13678	0.099235	0.2992	0.21821	0.062817	0.074808	0.13106	0.14963	0.095456	0.17295	0.16829	0.10911	-2.2083	-2.3792	-2.7188	-2.4604	-2.6292	-2.9125	-2.4208	-2.5646	-2.6375	-2.4542	-2.7687	-2.5896	-2.45	-2.6604	-2.3063	-2.675	201.247	34.872	286.303	273.475	249.177	250.133	238.693	126.262	-35.648	60.218	87.096	-34.668	110.573	234.182	11.548	-25.313	6.0183e-05	6.9529e-05	8.7682e-05	149.54	6.375e-06	4.4755e-06	220.58	30.862	1.5445e-06	1.0694e-05	64.77	20.047	7.7121	3.0629	3.2476e-06	9.6726	0.0030763	0.0039639	0.0010812	260.07	4.3193e-05	4.4953e-05	267.32	46.219	4.3779e-05	4.5795e-05	88.699	28.287	15.025	5.6533	4.1762e-05	13.421	240.315	186.696	79.118	-50.100	219.436	207.882	-47.550	-42.568	-46.408	85.891	-42.402	-35.917	-36.921	-32.643	55.876	-31.876	-8191	255	
39958.812	1	1	0	0	0.089316	0.22182	0.19667	0.12484	0.14867	0.064101	0.1018	0.28905	0.1921	0.24944	0.22153	0.22024	0.036416	0.16035	0.10298	0.21995	-2.3125	-2.3125	-2.6125	-2.3896	-2.4896	-2.7167	-2.5083	-2.5917	-2.7313	-2.3646	-2.7604	-2.6063	-2.4167	-2.7167	-2.5125	-2.4771	13.312	4.854	252.530	169.098	266.476	52.900	-12.508	12.645	-44.703	114.060	1.051	24.618	121.621	-35.770	100.564	151.450	3.8076e-05	0.00090625	0.00023556	145.96	6.4248e-06	4.6832e-06	225.02	31.737	3.5465e-06	1.427e-05	65.082	20.004	7.62	2.9736	1.053e-05	9.5345	0.003372	0.0041953	0.0011061	270.35	4.6265e-05	4.5913e-05	270.73	47.927	4.5247e-05	4.497e-05	88.45	28.571	14.726	5.4827	3.9534e-05	13.166	262.745	-21.312	71.568	-47.382	48.452	82.208	-47.983	-42.599	157.025	27.063	-42.193	-36.193	-36.533	-32.281	48.176	-31.988	-8191	255	
39958.934	1	1	0	0	0.087884	0.082451	0.13693	0.12538	0.16882	0.132	0.083337	0.019179	0.37184	0.072468	0.16411	0.25696	0.20984	0.10639	0.34923	0.01714	-2.275	-2.2354	-2.5208	-2.4938	-2.4271	-2.6875	-2.4479	-2.4146	-2.7771	-2.5812	-2.5542	-2.6729	-2.3021	-2.6063	-2.6854	-2.5812	89.484	-31.246	257.479	-29.154	198.475	2.522	293.554	210.930	96.915	206.219	-54.758	171.986	-46.528	280.108	20.262	115.342	8.7331e-05	0.00064879	0.00019126	144.23	3.4209e-06	2.5851e-06	220.34	30.879	2.5478e-06	5.6214e-06	63.152	19.241	7.315	2.899	6.7245e-06	9.37	0.0031948	0.0038157	0.0010511	265.83	4.2648e-05	4.1451e-05	264.65	46.353	4.169e-05	4.0307e-05	85.925	27.787	14.059	5.2558	3.9019e-05	12.975	104.512	-16.399	282.675	-48.021	90.591	-9.425	-47.854	-42.764	-10.199	55.180	-42.469	-36.671	-36.490	-32.889	237.664	-31.467	-8191	255	
39959.027	1	1	0	0	0.14622	0.22586	0.23542	0.18983	0.20147	0.38404	0.16946	0.207	0.33441	0.042771	0.25858	0.12345	0.15162	0.22549	0.15908	0.14382	-2.3438	-2.3125	-2.6458	-2.5167	-2.5062	-2.8292	-2.5792	-2.625	-2.6396	-2.6312	-2.775	-2.7062	-2.5208	-2.8271	-2.5208	-2.6583	138.944	286.604	-33.840	250.694	178.473	43.304	224.619	91.417	23.291	195.757	214.491	120.819	188.988	84.680	101.640	-37.155	5.6364e-05	0.00089083	5.6525e-05	140.83	3.9392e-06	5.6847e-06	218.17	30.736	1.7634e-06	2.6229e-06	62.349	19.428	7.3877	2.9035	1.0408e-05	9.4749	0.0030595	0.0035472	0.0010249	263.27	4.0921e-05	3.9098e-05	262.06	45.941	3.9959e-05	3.8232e-05	85.187	27.722	13.737	5.1465	3.9604e-05	12.962	66.745	113.911	104.570	-47.875	0.449	-23.081	-48.140	-43.389	120.863	-40.064	-41.968	-36.686	-36.451	-33.554	292.378	-32.542	-8191	255	
39959.125	1	1	0	0	0.13739	0.072784	0.093951	0.3392	0.099248	0.19472	0.047781	0.29023	0.047117	0.23623	0.084542	0.24708	0.18501	0.20309	0.10187	0.064583	-2.5375	-2.4708	-2.7854	-2.8021	-2.4792	-2.7708	-2.6542	-2.3771	-2.625	-2.6333	-2.5563	-2.5646	-2.3125	-2.5667	-2.5229	-2.4229	-57.500	60.070	-21.256	16.706	-56.042	222.692	272.047	152.020	31.611	126.530	22.734	291.041	187.897	280.469	-46.478	-40.543	6.4699e-05	0.00060323	7.5893e-05	140.02	1.3866e-06	6.1359e-06	215.59	29.979	8.3904e-06	5.5881e-06	62.555	19.411	7.5642	2.9174	2.0275e-06	9.4696	0.002955	0.0035172	0.0010641	260.39	4.0159e-05	3.9871e-05	261.12	45.539	3.986e-05	4.0083e-05	87.016	28.017	13.802	5.2902	4.3431e-05	13.198	262.008	81.740	71.420	-48.376	279.707	158.942	-47.684	-42.695	66.026	91.509	-42.477	-36.453	-36.164	-31.409	239.620	-32.629	-8191	255	
39959.246	1	1	0	0	0.17658	0.063345	0.27909	0.19689	0.11822	0.13472	0.25499	0.21026	0.066188	0.15651	0.057214	0.14241	0.20893	0.081007	0.15211	0.20499	-2.1771	-2.3875	-2.3563	-2.4917	-2.4208	-2.825	-2.5958	-2.4417	-2.8729	-2.6104	-2.5771	-2.85	-2.4292	-2.6417	-2.55	-2.4437	-12.726	193.111	167.910	-1.621	115.127	251.208	231.040	251.341	167.925	-13.902	-9.236	216.709	265.976	287.862	73.455	-57.951	7.5133e-05	0.0004134	7.9891e-05	136.3	6.1709e-06	5.599e-06	215.43	30.522	2.4582e-06	2.8994e-06	64.16	19.305	7.4223	2.9092	7.6787e-06	9.3201	0.0030555	0.00382	0.0011639	267.25	4.1659e-05	4.3618e-05	268.14	47.003	4.2765e-05	4.4905e-05	90.582	28.763	14.339	5.6167	4.8574e-05	13.289	263.209	102.484	62.124	-48.326	265.785	186.488	-48.369	-42.746	105.854	296.589	-42.872	-36.111	-37.503	-32.444	93.517	-32.467	-8191	255	
39959.316	1	1	0	0	0.16837	0.12983	0.15075	0.025038	0.053297	0.097642	0.11355	0.236	0.27215	0.25228	0.10565	0.20926	0.11027	0.24941	0.19408	0.22378	-2.3792	-2.4208	-2.3542	-2.5833	-2.4583	-2.7125	-2.5833	-2.1875	-2.8354	-2.5312	-2.5292	-2.6292	-2.4083	-2.5563	-2.5667	-2.2458	269.609	103.642	244.016	-20.750	215.671	98.752	220.846	28.464	198.246	17.656	164.074	50.080	-22.626	216.963	-48.076	-58.539	4.0076e-05	0.00079024	6.454e-05	142.72	5.7362e-06	7.2978e-06	220.18	31.323	3.7631e-06	2.5997e-06	63.915	19.652	7.2848	2.8297	1.4841e-06	9.1281	0.0032688	0.0043422	0.0012983	280.01	4.4932e-05	4.9364e-05	275.7	48.58	4.5853e-05	5.0018e-05	92.386	28.862	14.611	5.7478	5.036e-05	13.12	279.427	201.484	114.209	-48.943	213.159	258.653	-47.729	-42.975	82.126	133.979	-42.515	-36.678	-36.621	-33.066	-50.300	-32.589	-8191	255	
39959.414	1	1	0	0	0.070881	0.24284	0.06486	0.15881	0.32169	0.13205	0.29309	0.16652	0.085359	0.10263	0.2378	0.14888	0.14894	0.11236	0.1703	0.18904	-2.2729	-2.65	-2.5312	-2.8354	-2.5729	-2.5979	-2.8063	-2.6208	-2.7229	-2.6146	-2.7812	-2.7792	-2.4854	-2.5458	-2.875	-2.3667	229.866	290.557	-3.138	47.276	259.090	111.678	194.239	266.621	57.052	-19.420	67.088	-14.912	246.525	225.851	130.274	111.210	3.0389e-05	0.00071535	0.00018402	140.76	2.0565e-06	3.2016e-06	219.73	31.385	1.6216e-06	7.6029e-07	64.04	19.186	7.2114	2.7887	5.363e-06	9.0357	0.0034127	0.0046418	0.0012926	275.83	4.6153e-05	5.1071e-05	273.26	47.722	4.7003e-05	5.1358e-05	91.918	28.323	14.723	5.7609	5.0072e-05	12.991	143.990	177.552	220.710	-48.568	169.753	119.777	-47.806	-42.923	169.081	-7.219	-42.885	-36.128	-36.265	-31.963	261.536	-32.688	-8191	255	
39959.535	1	1	0	0	0.11732	0.18152	0.23825	0.12804	0.037241	0.2183	0.13173	0.23264	0.16841	0.14322	0.22076	0.29353	0.16292	0.32628	0.14191	0.10727	-2.2396	-2.6104	-2.3812	-2.7208	-2.6292	-2.4458	-2.7375	-2.3833	-2.6646	-2.5292	-2.3396	-2.4479	-2.5208	-2.55	-2.7562	-2.4896	8.276	298.661	104.777	-19.236	69.895	216.394	36.261	283.308	88.268	94.397	73.892	227.697	122.751	-56.150	-34.271	128.759	7.6991e-05	0.00059218	0.00031367	140.77	9.0503e-06	6.6836e-06	217.87	31.4	2.4207e-06	6.1951e-06	65.587	19.202	7.4331	2.8738	5.0691e-06	9.3045	0.0035666	0.0048399	0.001302	277.9	4.9944e-05	5.3667e-05	274.01	48.655	5.1249e-05	5.5765e-05	94.316	29.173	15.839	6.061	5.3304e-05	13.581	251.528	96.834	-0.819	-47.949	146.883	202.711	-47.681	-43.196	200.346	-34.175	-42.915	-35.959	-37.984	-33.237	63.729	-32.523	-8191	255	
39959.629	1	1	0	0	0.15757	0.35468	0.22212	0.21773	0.034738	0.035512	0.079241	0.095538	0.088264	0.15088	0.22331	0.074287	0.10455	0.11083	0.293	0.18799	-2.1854	-2.5417	-2.2062	-2.6333	-2.5896	-2.5417	-2.7917	-2.4146	-2.6063	-2.6937	-2.5042	-2.7854	-2.6042	-2.4396	-2.6625	-2.5875	-10.899	6.617	36.388	-21.385	172.772	235.281	248.630	49.470	113.924	-19.175	223.145	48.621	-60.357	160.081	-49.417	86.594	4.9911e-05	0.0013223	0.00011874	145.1	4.2428e-06	1.1136e-06	227.76	33.177	2.4034e-06	3.2224e-06	67.771	19.746	7.5376	2.9081	8.9049e-07	9.2706	0.0040511	0.0052806	0.0013698	296.9	5.6299e-05	5.8151e-05	285.69	52.938	5.7564e-05	5.9659e-05	98.89	30.467	17.023	6.2485	5.4442e-05	13.892	-58.755	0.123	217.658	-48.700	-0.464	160.457	-48.028	-44.020	67.682	221.012	-43.332	-36.077	-37.560	-32.756	32.357	-32.387	-8191	255	
39959.727	1	1	0	0	0.27237	0.20988	0.11849	0.11385	0.24937	0.12259	0.1401	0.042607	0.031659	0.28753	0.13147	0.14171	0.070854	0.040865	0.10186	0.22115	-2.125	-2.5583	-2.4229	-2.5917	-2.4771	-2.3917	-2.7062	-2.5354	-2.6625	-2.7604	-2.325	-2.6833	-2.6375	-2.4417	-2.6771	-2.5438	267.629	256.647	126.963	58.637	236.771	42.158	47.402	97.573	47.131	-41.895	-1.896	-48.030	2.082	133.654	252.050	118.766	6.6592e-05	0.00043848	5.555e-05	147.82	2.2837e-06	9.6632e-06	225	33.909	3.9883e-06	5.4356e-06	67.809	19.176	7.5002	2.8786	4.7375e-06	9.2986	0.0042863	0.0053592	0.0013545	305.74	5.7771e-05	5.7181e-05	282.92	53.297	5.6317e-05	5.6954e-05	96.269	30.149	16.534	5.9794	5.1875e-05	13.815	209.104	0.568	-49.860	-48.670	-38.878	-12.251	-48.277	-43.372	188.697	139.120	-43.181	-36.659	-38.480	-31.411	163.569	-32.675	-8191	255	
39959.844	1	1	0	0	0.19129	0.19755	0.22332	0.18153	0.1022	0.17048	0.40001	0.19996	0.24943	0.13485	0.053477	0.19725	0.064745	0.11086	0.07287	0.28335	-2.2625	-2.7062	-2.3729	-2.5187	-2.7104	-2.4938	-2.7708	-2.6521	-2.5812	-2.875	-2.525	-2.5521	-2.7229	-2.2667	-2.8625	-2.5479	-55.115	-48.120	-31.614	273.689	-36.453	-40.681	6.664	153.819	86.915	45.543	179.022	55.225	126.485	-34.549	70.989	290.505	9.1803e-05	0.00060395	0.00023297	145.92	3.2564e-06	1.5644e-06	222.72	32.628	2.5555e-06	7.9315e-06	65.874	19.478	7.4759	2.9321	7.7699e-06	9.6571	0.004108	0.0049898	0.0013057	301.86	5.563e-05	5.2843e-05	278.38	52.325	5.4509e-05	5.351e-05	94.712	30.295	16.202	5.8527	5.1903e-05	14.165	210.806	10.169	184.442	-47.980	20.599	82.599	-47.864	-43.208	8.802	87.120	-43.481	-36.426	-37.427	-33.231	213.591	-32.323	-8191	255	
39959.941	1	1	0	0	0.1044	0.18994	0.2097	0.12691	0.17301	0.21785	0.10209	0.21253	0.235	0.089792	0.20205	0.30381	0.44469	0.13968	0.31152	0.054791	-1.8417	-2.7062	-2.5167	-2.6542	-2.7917	-2.3729	-2.8083	-2.625	-2.3833	-2.8646	-2.5438	-2.6646	-2.6083	-2.4979	-2.7021	-2.6375	243.683	73.814	49.867	278.812	124.508	117.579	-41.961	178.144	14.093	243.178	246.730	-10.487	240.975	287.545	183.025	178.992	3.7103e-05	0.00021706	5.2679e-05	141.53	1.2835e-06	2.0513e-06	220.06	31.909	8.5124e-07	4.8588e-06	64.679	20.078	7.5787	3.1637	7.7276e-06	10.137	0.0039776	0.004752	0.0013176	301.05	5.4865e-05	5.1294e-05	275.69	51.9	5.3533e-05	5.2224e-05	94.791	30.848	16.125	6.0333	5.4143e-05	14.864	191.309	23.881	130.266	-48.482	-2.275	117.942	-48.283	-43.746	264.300	-39.501	-43.245	-36.249	-37.830	-33.116	182.152	-32.508	-8191	255	
39960.012	1	1	0	0	0.15723	0.11066	0.25277	0.17442	0.058483	0.069411	0.045427	0.25442	0.1726	0.11253	0.13859	0.091017	0.19992	0.07186	0.26	0.22358	-2.05	-2.6437	-2.3896	-2.5583	-2.7104	-2.5042	-2.7062	-2.6146	-2.4896	-2.625	-2.4917	-2.3292	-2.7458	-2.4688	-2.5229	-2.325	44.622	223.473	-31.336	255.471	184.765	99.366	233.975	272.676	-17.631	-33.889	48.691	269.973	66.428	189.532	120.765	130.850	3.3223e-05	0.00072798	0.00032548	138.99	4.5811e-06	6.7638e-06	215.68	31.673	6.9872e-06	5.1819e-06	65.083	20.52	7.6599	3.3929	3.7672e-06	10.923	0.0038663	0.0047225	0.0013839	297.64	5.3304e-05	5.0761e-05	274.09	51.472	5.1494e-05	5.3017e-05	95.772	31.598	16.21	6.3734	5.6419e-05	15.764	258.639	207.043	159.012	-49.261	70.538	-38.824	-48.322	-43.050	47.497	138.036	-42.556	-36.892	-37.638	-32.984	-10.519	-32.637	-8191	255	
39960.133	1	1	0	0	0.13264	0.086419	0.14974	0.31482	0.046128	0.20647	0.48504	0.063809	0.42961	0.10673	0.033163	0.23415	0.10732	0.13377	0.34613	0.097219	-1.9813	-2.4875	-2.425	-2.6458	-2.8792	-2.4021	-2.6104	-2.5875	-2.4771	-2.7521	-2.6771	-2.5146	-2.8521	-2.4417	-2.5958	-2.7667	89.394	255.786	265.040	258.070	173.857	155.302	266.486	18.124	183.319	57.765	244.990	119.876	81.230	269.338	112.696	188.160	7.7807e-05	0.00014106	0.00017248	135.99	1.0982e-05	8.6997e-06	209.67	31.017	4.0038e-06	2.7467e-06	65.682	21.609	8.0577	3.5626	4.9552e-06	11.465	0.003866	0.0049336	0.0014742	298.93	5.3693e-05	5.3586e-05	272.39	51.571	5.0403e-05	5.4341e-05	96.872	32.221	16.044	6.5973	5.578e-05	16.107	-30.816	153.520	175.558	-48.356	-5.674	254.214	-47.535	-43.071	208.872	-38.394	-42.760	-36.021	-36.039	-33.254	125.608	-32.438	-8191	255	
39960.230	1	1	0	0	0.14732	0.11409	0.22458	0.22695	0.030033	0.3574	0.4112	0.22536	0.2899	0.035624	0.20126	0.13998	0.13576	0.13569	0.15299	0.31341	-2.0333	-2.7667	-2.3396	-2.4	-2.8125	-2.6271	-2.5938	-2.7229	-2.4938	-2.8271	-2.5292	-2.4333	-2.6813	-2.4396	-2.4083	-2.7708	271.806	-1.436	-34.034	94.063	110.508	55.473	281.695	56.392	19.373	187.521	115.404	158.975	69.117	30.982	-40.556	208.727	3.4068e-05	0.00064377	0.00011661	130.79	1.6895e-06	5.113e-06	203.68	30.061	4.2604e-06	5.7035e-06	63.88	21.886	7.9362	3.7052	5.1014e-06	11.823	0.0035694	0.0048652	0.0014004	277.81	4.8948e-05	5.123e-05	261.67	48.043	4.5197e-05	5.1119e-05	92.688	31.091	15.298	6.5439	4.9085e-05	15.943	192.021	75.400	247.025	-48.043	-40.862	-57.172	-47.828	-43.159	64.293	169.815	-42.237	-35.726	-35.398	-32.675	60.557	-33.104	-8191	255	
39960.324	1	1	0	0	0.050965	0.13602	0.14856	0.15769	0.34111	0.10363	0.050454	0.083568	0.1103	0.11854	0.10008	0.082415	0.17519	0.10186	0.10942	0.17027	-1.7896	-2.5938	-2.6167	-2.3667	-2.8771	-2.6646	-2.4229	-2.925	-2.5646	-2.5958	-2.5125	-2.4229	-2.6958	-2.5708	-2.65	-2.7729	-28.701	227.679	-26.644	8.894	249.963	250.243	-3.390	60.508	90.183	259.587	267.777	-57.068	213.051	-59.355	-8.727	25.216	3.7345e-05	0.00035511	0.00011515	124.2	3.0986e-06	2.8119e-06	200.07	29.195	4.747e-06	5.3596e-06	65.285	22.385	8.1853	3.9987	7.5044e-06	12.758	0.003204	0.00447	0.0012453	249.16	4.5118e-05	4.7956e-05	252.17	45.326	4.241e-05	4.953e-05	91.573	31.201	15.544	6.8759	4.9104e-05	16.675	208.107	-8.936	-36.804	-48.756	160.341	151.197	-47.280	-41.995	181.754	-24.419	-42.448	-36.192	-37.172	-33.057	93.666	-33.080	-8191	255	
39960.422	1	1	0	0	0.32737	0.10332	0.25756	0.25657	0.13643	0.12496	0.076513	0.32038	0.13132	0.1404	0.069086	0.062734	0.015594	0.27606	0.082418	0.10865	-2.1542	-2.825	-2.7042	-2.3771	-2.6833	-2.7042	-2.4771	-2.7438	-2.3083	-2.7208	-2.6813	-2.4688	-2.6354	-2.6354	-2.5062	-2.8521	22.248	181.918	100.562	207.662	-33.853	205.573	159.279	-42.474	21.115	197.238	-31.909	-49.980	-8.680	271.483	-55.802	136.072	7.1893e-05	0.00028488	0.00017946	121.72	6.5682e-06	5.1487e-06	202.88	30.26	4.1875e-06	2.0411e-06	67.662	24.661	9.1205	4.6021	1.1047e-05	14.183	0.0034149	0.0047797	0.0012936	253.03	4.9583e-05	5.3138e-05	258.17	47.865	5.0372e-05	5.7016e-05	97.457	34.398	17.865	7.9622	5.3946e-05	18.891	219.614	66.197	-6.827	-47.185	214.538	182.248	-47.827	-42.461	199.276	62.141	-41.788	-36.668	-37.473	-33.249	104.105	-33.430	-8191	255	
39960.520	1	1	0	0	0.089466	0.098592	0.14316	0.076011	0.17073	0.17444	0.071285	0.13699	0.092669	0.033233	0.030811	0.25338	0.15867	0.15366	0.20749	0.14612	-1.8687	-2.5771	-2.4833	-2.4896	-2.6417	-2.4813	-2.3042	-2.7896	-2.4562	-2.4167	-2.8729	-2.5187	-2.7729	-2.6063	-2.375	-2.6979	199.013	77.370	48.733	290.801	173.215	114.877	17.626	138.079	107.260	177.138	199.587	258.599	77.688	193.145	72.294	94.801	1.3822e-05	0.00073818	0.0003276	126.74	9.232e-06	5.7524e-07	205.9	31.683	1.0941e-06	5.5669e-06	69.777	25.523	9.6514	4.8474	3.7846e-06	14.764	0.0040872	0.0053799	0.001408	272.79	5.7703e-05	5.8387e-05	263.68	50.943	5.513e-05	5.8282e-05	99.09	35.817	18.663	8.2029	5.1344e-05	19.523	297.450	-57.295	5.875	-47.181	211.202	75.347	-46.919	-42.215	233.231	-12.053	-42.046	-36.318	-36.670	-33.643	267.304	-33.228	-8191	255	
39960.613	1	1	0	0	0.068032	0.13783	0.11967	0.34715	0.097715	0.17541	0.076676	0.044453	0.10243	0.016686	0.26533	0.15254	0.31767	0.10673	0.14859	0.092965	-2.0896	-2.4729	-2.5938	-2.4188	-2.5979	-2.6646	-2.5229	-2.7646	-2.6437	-2.4875	-2.9042	-2.3729	-2.475	-2.7812	-2.525	-2.7667	252.079	39.179	67.151	82.980	-57.666	240.325	270.655	1.165	208.428	55.706	292.161	207.260	137.229	137.664	281.343	40.830	5.8475e-05	0.00018504	4.7996e-05	120.46	9.0689e-06	3.2951e-06	204.36	31.133	4.1475e-06	3.7557e-06	69.222	25.374	9.5042	4.9101	2.8777e-06	14.823	0.0041109	0.0051986	0.0013397	269.49	5.7146e-05	5.6631e-05	258.92	50.778	5.5435e-05	5.6419e-05	98.238	36.087	18.617	8.1251	5.0698e-05	19.654	184.745	-41.328	-8.645	-48.583	201.272	156.822	-46.937	-42.210	196.693	54.246	-41.508	-36.162	-38.027	-33.293	168.456	-32.977	-8191	255	
39960.711	1	1	0	0	0.070076	0.1204	0.11235	0.24705	0.21236	0.32158	0.14319	0.27179	0.10103	0.075456	0.09199	0.17716	0.12208	0.26524	0.1526	0.068096	-2.175	-2.4271	-2.6417	-2.4083	-2.6833	-2.6125	-2.5062	-2.7188	-2.7729	-2.3292	-2.6833	-2.4667	-2.4896	-2.6833	-2.5125	-2.6813	-19.029	216.827	86.629	111.274	187.680	71.135	221.680	272.757	165.702	68.473	-49.225	-15.215	4.953	-7.286	-36.420	-35.892	4.882e-05	0.00041827	0.00011283	124.28	3.8277e-06	4.6967e-06	203.75	31.942	5.4771e-06	9.4449e-06	69.178	25.445	9.6171	4.7218	4.7374e-06	14.514	0.0041617	0.0050596	0.0013524	278.43	5.7631e-05	5.4754e-05	259.79	51.791	5.4477e-05	5.3151e-05	98.367	36.1	18.275	7.826	4.9844e-05	19.507	151.586	278.962	216.312	-47.253	24.830	83.579	-47.295	-42.018	249.463	35.073	-41.882	-36.917	-37.110	-33.375	285.485	-33.480	-8191	255	
39960.809	1	1	0	0	0.36361	0.23344	0.11064	0.07971	0.10053	0.16565	0.1637	0.19406	0.052282	0.16633	0.1411	0.021203	0.13192	0.11207	0.099101	0.22551	-2.0312	-2.1979	-2.7979	-2.5438	-2.6104	-2.775	-2.3479	-2.65	-2.6667	-2.4458	-2.7167	-2.5333	-2.4083	-2.8229	-2.45	-2.6583	131.197	149.591	149.831	43.161	-38.565	136.886	142.060	113.519	86.645	-56.903	169.543	-49.663	286.499	125.088	-58.051	158.382	7.1832e-05	0.00079404	8.8743e-05	118.75	4.6642e-06	6.2411e-06	200.98	31.42	1.2639e-06	5.98e-06	68.105	24.944	9.2676	4.5723	6.1063e-06	14.149	0.0040204	0.0047019	0.0013291	277.23	5.5037e-05	5.1861e-05	257.72	51.355	5.373e-05	5.0851e-05	98.264	35.844	17.875	7.5991	5.1907e-05	19.134	145.368	285.945	-47.318	-48.065	129.589	87.807	-46.856	-41.997	-52.206	-41.196	-42.058	-36.024	-36.222	-32.942	204.130	-32.930	-8191	255	
39960.926	1	1	0	0	0.40045	0.048189	0.034511	0.11504	0.097191	0.11741	0.067187	0.1603	0.1592	0.27223	0.057298	0.22903	0.23407	0.11139	0.27914	0.10765	-2.1354	-2.3917	-2.6021	-2.5167	-2.6104	-2.6417	-2.5021	-2.6792	-2.7708	-2.3438	-2.7167	-2.5021	-2.3479	-2.5958	-2.475	-2.6146	105.762	-52.634	-17.075	80.894	4.158	283.263	270.406	13.703	-47.816	60.826	262.967	69.577	49.759	45.302	191.734	69.742	3.1845e-05	0.00041443	0.00016083	115.95	8.6844e-07	3.1242e-06	199.36	30.206	6.3977e-06	6.5061e-06	66.609	24.754	9.0905	4.6542	1.0675e-06	14.257	0.0039124	0.0045953	0.0013693	274.03	5.2467e-05	5.0706e-05	255.31	49.864	4.9706e-05	4.9191e-05	96.575	35.286	17.017	7.5136	5.118e-05	18.93	108.552	250.947	7.209	-48.104	-52.345	-46.913	-47.172	-42.134	128.793	24.874	-41.823	-36.055	-36.557	-32.274	7.141	-33.556	-8191	255	
39961.023	1	1	0	0	0.20688	0.067342	0.20032	0.036055	0.043755	0.15811	0.12583	0.31943	0.35672	0.23238	0.051041	0.28095	0.18741	0.099929	0.10125	0.23309	-2.3396	-2.3604	-2.7438	-2.5625	-2.4875	-2.6667	-2.5312	-2.6042	-2.9917	-2.4958	-2.7354	-2.5333	-2.4313	-2.6479	-2.3292	-2.4896	286.741	218.775	152.820	150.734	239.604	62.657	93.414	30.161	208.248	-30.313	170.545	182.551	220.810	263.373	102.818	63.057	5.0211e-05	0.00041129	0.00039443	118.77	8.7846e-06	4.0199e-06	196.2	29.977	2.4064e-07	2.72e-06	67.2	24.737	8.9086	4.6782	3.3046e-06	14.467	0.0035668	0.0043749	0.0013407	262.99	4.8001e-05	4.9394e-05	252.76	48.485	4.7118e-05	4.9016e-05	96.649	34.906	16.696	7.5936	5.1616e-05	18.976	10.836	68.974	124.321	-47.889	45.381	199.324	-46.555	-42.281	35.617	171.370	-42.907	-36.434	-36.868	-32.841	135.434	-33.361	-8191	255	
39961.117	1	1	0	0	0.23737	0.073007	0.31605	0.018235	0.26162	0.13933	0.22653	0.29695	0.13414	0.062098	0.29324	0.082995	0.42168	0.14523	0.10255	0.088807	-2.3646	-2.3063	-2.775	-2.7854	-2.4792	-2.75	-2.4813	-2.7292	-2.6479	-2.4813	-2.7125	-2.5958	-2.3729	-2.6479	-2.5771	-2.5125	157.919	-46.899	39.081	236.015	-14.534	236.745	223.717	20.500	-6.303	254.306	74.268	273.662	232.202	155.328	11.216	115.725	4.7565e-05	0.00051857	4.5421e-05	115.38	6.8659e-06	7.0861e-07	195.5	29.989	3.7087e-06	7.4295e-06	67.879	24.983	9.1902	4.7586	1.7467e-06	14.607	0.003451	0.0045297	0.0013423	257.21	4.62e-05	5.1571e-05	251.99	47.917	4.6347e-05	5.0982e-05	97.075	35.047	16.929	7.8251	5.2434e-05	19.199	148.815	161.337	-38.370	-46.888	23.198	46.263	-47.158	-41.958	204.947	160.408	-41.626	-36.852	-36.974	-33.347	140.714	-33.788	-8191	255	
39961.215	1	1	0	0	0.29124	0.059629	0.15679	0.30571	0.20364	0.22154	0.13866	0.19332	0.14112	0.073825	0.081147	0.14007	0.15995	0.19917	0.23558	0.20902	-2.4042	-2.6167	-2.6146	-2.7458	-2.6083	-2.7354	-2.4917	-2.3708	-2.6917	-2.4813	-2.7021	-2.7146	-2.2125	-2.6354	-2.4313	-2.5021	10.573	122.705	113.601	288.798	270.908	31.448	121.167	226.890	263.846	76.523	-37.996	270.739	211.886	191.692	108.498	48.820	5.4188e-05	0.00045188	0.00015556	115.51	6.0043e-06	1.8327e-06	197.85	30.218	4.6982e-06	7.3545e-06	69.8	25.853	9.4938	4.9476	9.5992e-06	15.283	0.003583	0.0048291	0.0013807	258.1	4.8547e-05	5.4883e-05	255.92	48.875	5.0091e-05	5.6465e-05	101.11	36.425	18.069	8.3566	5.6949e-05	19.869	250.261	141.776	242.789	-48.293	193.187	277.171	-47.139	-41.884	124.585	34.625	-42.408	-36.804	-36.431	-33.850	154.907	-33.522	-8191	255	
39961.309	1	1	0	0	0.18178	0.19368	0.052089	0.13143	0.23785	0.093199	0.22028	0.2033	0.15639	0.2871	0.25138	0.1409	0.26257	0.21988	0.098976	0.092011	-2.3208	-2.5438	-2.5375	-2.7062	-2.5625	-2.6104	-2.6937	-2.4729	-2.8167	-2.5521	-2.5292	-2.6771	-2.3896	-2.7229	-2.6979	-2.4208	244.472	-8.752	90.874	139.933	81.879	293.199	81.255	216.135	58.432	-30.783	143.046	-26.072	259.356	282.227	134.503	289.254	0.00018554	0.0011399	0.00022278	126.47	4.6202e-06	5.3511e-06	210.22	32.688	2.1683e-06	1.9152e-06	71.764	26.385	9.8261	4.9748	2.248e-06	15.193	0.0040792	0.0055024	0.0015141	281.16	5.6472e-05	6.3325e-05	274.54	53.018	5.7958e-05	6.2379e-05	105.06	37.479	19.178	8.5989	5.7563e-05	19.999	221.198	21.334	176.050	-48.015	34.087	266.654	-46.853	-41.309	215.408	210.038	-42.375	-36.471	-37.274	-32.907	247.630	-33.677	-8191	255	
39961.406	1	1	0	0	0.092747	0.1871	0.11087	0.12061	0.28483	0.17419	0.089821	0.16756	0.12499	0.23789	0.307	0.11276	0.097293	0.10948	0.11198	0.25252	-2.3854	-2.5146	-2.5125	-2.7375	-2.2938	-2.95	-2.6604	-2.4313	-2.7208	-2.4479	-2.4354	-2.7146	-2.5125	-2.4938	-2.6521	-2.5542	42.697	-3.872	45.145	92.456	-0.734	-8.516	97.560	-6.188	299.975	-13.176	70.673	22.652	224.208	103.310	187.974	265.507	9.0813e-05	0.00042688	0.00019142	124.81	3.5171e-06	2.7236e-06	205.23	31.313	5.7444e-06	3.2071e-06	69.786	25.692	9.6266	4.8668	2.7761e-06	14.909	0.0043211	0.0054791	0.0014381	276.7	5.5777e-05	5.913e-05	263.62	50.374	5.4594e-05	5.651e-05	98.656	35.966	18.095	7.9886	4.9412e-05	19.211	261.930	140.913	37.205	-46.901	107.162	-19.379	-46.936	-41.797	223.497	197.268	-41.634	-36.028	-35.749	-33.496	51.200	-33.665	-8191	255	
39961.527	1	1	0	0	0.2538	0.23364	0.11703	0.20674	0.04491	0.2483	0.089405	0.080545	0.1258	0.12532	0.14638	0.033947	0.099094	0.13345	0.20461	0.18503	-2.2104	-2.5979	-2.4521	-2.6917	-2.6063	-2.5875	-2.6125	-2.3375	-2.6646	-2.6708	-2.3875	-2.7125	-2.4208	-2.6813	-2.7313	-2.525	172.129	201.927	292.135	62.213	2.371	230.605	125.720	276.216	-19.913	90.940	65.367	294.377	46.482	-51.980	284.464	193.446	8.9563e-05	0.00042168	0.00024777	120.74	7.6991e-06	1.2746e-05	201.21	30.237	3.4006e-06	2.5704e-06	67.008	23.915	8.6547	4.125	3.2069e-06	12.93	0.0038955	0.0048193	0.001223	256.73	5.078e-05	5.1626e-05	252.03	47.009	4.8734e-05	4.9052e-05	91.994	33.194	16.336	6.8535	4.2597e-05	16.764	182.319	66.404	-18.516	-46.956	102.440	-52.793	-46.927	-41.655	81.697	283.884	-42.121	-36.461	-36.041	-32.578	159.708	-32.758	-8191	255	
39961.621	1	1	0	0	0.05079	0.1085	0.17451	0.065921	0.16924	0.18324	0.25686	0.045718	0.1842	0.16865	0.18929	0.078907	0.11291	0.065676	0.17797	0.14413	-2.3646	-2.5396	-2.4062	-2.6562	-2.4229	-2.6562	-3.0146	-2.4479	-2.775	-2.6979	-2.4271	-2.6562	-2.5083	-2.7396	-2.8021	-2.7083	218.500	198.165	282.405	-6.998	70.276	266.427	-17.437	164.453	169.545	86.542	269.483	-48.819	174.804	54.466	-2.575	281.807	1.5337e-05	0.00079694	0.00014313	117.18	7.5906e-06	2.3739e-06	197.21	27.841	2.0207e-06	2.5273e-06	63.208	22.135	7.9667	3.7074	5.5818e-06	12.003	0.0034542	0.0041002	0.001068	243.31	4.5337e-05	4.4097e-05	241.63	43.946	4.5047e-05	4.4126e-05	86.925	31.46	15.294	6.2526	4.248e-05	16.036	156.500	62.865	256.244	-48.395	247.275	51.927	-47.222	-41.223	95.490	38.675	-41.999	-35.918	-37.387	-33.365	107.490	-32.950	-8191	255	
39961.719	1	1	0	0	0.2665	0.11444	0.041599	0.20495	0.071697	0.097693	0.11469	0.06426	0.19774	0.11391	0.18344	0.11042	0.14318	0.16959	0.20483	0.027107	-2.1583	-2.5958	-2.3875	-2.5979	-2.6729	-2.5708	-2.7333	-2.4188	-2.6604	-2.8167	-2.5229	-2.5875	-2.5854	-2.5062	-2.6896	-2.5042	228.482	202.498	-4.622	-59.749	148.066	294.992	68.691	0.306	62.455	-29.185	-5.527	7.331	-49.698	93.890	9.319	155.482	4.4579e-05	0.00032265	0.00013226	122	1.462e-06	4.9254e-06	196.93	28.947	1.611e-06	5.3641e-06	64.071	22.301	7.9803	3.6065	1.0227e-05	11.751	0.0034077	0.0040339	0.0011151	252.94	4.7235e-05	4.5462e-05	248.04	46.325	4.7763e-05	4.6103e-05	90.192	32.069	15.722	6.2696	4.7402e-05	16.037	254.860	164.880	13.515	-47.891	2.256	62.326	-47.141	-42.208	23.237	15.009	-42.581	-36.136	-37.322	-32.730	217.774	-32.570	-8191	255	
39961.812	1	1	0	0	0.14165	0.24583	0.18221	0.18198	0.29231	0.36002	0.052751	0.21715	0.12795	0.13335	0.051807	0.21492	0.11701	0.12382	0.096204	0.16808	-2.1354	-2.5563	-2.4688	-2.5625	-2.6146	-2.5458	-2.6688	-2.4875	-2.4562	-2.7042	-2.4396	-2.6708	-2.5271	-2.3854	-2.9125	-2.4062	43.439	152.181	64.183	94.243	93.919	160.012	47.478	99.641	125.206	224.131	45.341	-57.882	-59.520	165.352	264.270	7.774	6.9048e-05	0.00035142	0.00037276	119.73	3.6827e-06	9.0832e-06	202.44	29.295	3.1572e-06	1.1685e-05	63.566	21.523	7.6106	3.4775	1.2205e-06	11.282	0.003622	0.0042661	0.0012381	269.26	4.8806e-05	4.6792e-05	257.46	47.079	4.7249e-05	4.6783e-05	90.603	31.258	15.082	6.0457	4.8132e-05	15.417	-7.354	240.788	177.103	-48.764	84.568	-53.724	-47.528	-42.292	55.179	63.518	-42.536	-36.143	-36.987	-32.263	291.098	-33.374	-8191	255	
39961.910	1	1	0	0	0.1457	0.037204	0.1852	0.089813	0.15217	0.21446	0.16559	0.11213	0.32787	0.30331	0.16209	0.10721	0.28843	0.37978	0.24624	0.014516	-2.1458	-2.7896	-2.3208	-2.7292	-2.5396	-2.5354	-2.6604	-2.4146	-2.5646	-2.8333	-2.5104	-2.6854	-2.6562	-2.5521	-2.6854	-2.475	282.169	263.129	-5.284	110.112	249.065	184.935	175.034	170.177	-53.286	57.395	245.011	-41.862	177.856	102.587	15.500	158.913	5.2666e-05	0.00025633	0.00026756	122.55	6.0922e-06	4.9279e-06	200.96	28.266	5.3369e-06	3.6822e-06	63.037	21.138	7.7297	3.3883	1.7557e-06	11.393	0.0033357	0.0041622	0.001226	260.78	4.4866e-05	4.5146e-05	255.8	45.705	4.3715e-05	4.6294e-05	90.316	30.896	14.839	6.1032	4.9882e-05	15.523	-4.133	97.032	137.618	-47.580	259.922	226.508	-47.092	-42.400	114.218	276.636	-42.662	-36.536	-37.544	-33.182	224.469	-33.249	-8191	255	
39962.008	1	1	0	0	0.16872	0.11206	0.21415	0.20498	0.16239	0.17697	0.071595	0.039057	0.20363	0.14795	0.19957	0.11286	0.23755	0.1471	0.1462	0.17841	-2.0812	-2.6583	-2.3937	-2.5187	-2.6396	-2.4625	-2.7562	-2.5938	-2.6	-2.6042	-2.3937	-2.6542	-2.6979	-2.4938	-2.6146	-2.7188	136.714	262.731	260.002	163.593	288.272	227.202	59.844	197.539	214.528	-14.768	-0.820	-25.529	64.097	76.114	108.531	180.340	7.1574e-05	0.00091233	0.00028235	122.61	6.5786e-06	4.9001e-06	202.47	28.361	2.9983e-06	1.9364e-06	62.113	21.157	7.5557	3.3206	2.0215e-06	10.985	0.0033264	0.0044038	0.0012958	263.71	4.574e-05	4.8335e-05	258.06	45.927	4.4394e-05	4.9524e-05	90.521	30.499	14.773	6.1288	5.0436e-05	15.051	-36.024	132.472	38.675	-47.898	37.507	61.849	-47.606	-42.346	-24.260	21.885	-42.647	-36.280	-36.158	-33.325	-40.954	-32.521	-8191	255	
39962.102	1	1	0	0	0.22207	0.27969	0.23517	0.11282	0.17319	0.21187	0.25447	0.20557	0.048089	0.1865	0.25275	0.05863	0.12592	0.13289	0.11792	0.083447	-2.1021	-2.6813	-2.5583	-2.7042	-2.7896	-2.475	-2.7542	-2.6	-2.5542	-2.7188	-2.5292	-2.4583	-2.6542	-2.3937	-2.75	-2.6167	184.954	222.570	0.353	205.603	-59.832	100.475	249.071	-49.025	220.602	267.446	239.269	62.806	219.073	243.181	56.254	164.683	0.0001521	0.00096073	0.00028495	122.98	8.1982e-06	6.3112e-06	201.31	27.849	5.7654e-06	1.1754e-05	61.788	21.169	7.4421	3.3844	3.3256e-06	11.252	0.003309	0.0046022	0.0012885	254.68	4.6106e-05	4.9937e-05	254.49	44.938	4.5243e-05	5.1891e-05	90.645	30.55	15.086	6.3669	5.079e-05	15.317	223.129	86.756	-29.288	-48.289	207.511	140.279	-47.434	-42.267	55.164	140.543	-42.406	-36.217	-36.714	-32.211	34.784	-32.578	-8191	255	
39962.199	1	1	0	0	0.05266	0.13518	0.05239	0.23903	0.21854	0.061219	0.29521	0.28178	0.17005	0.045447	0.27493	0.36171	0.27396	0.21475	0.095892	0.28841	-1.8687	-2.6458	-2.2938	-2.5708	-3.0521	-2.525	-2.6667	-2.7583	-2.4833	-2.8083	-2.425	-2.5563	-2.7604	-2.2979	-2.5167	-2.7896	288.317	246.627	105.006	73.995	41.624	27.979	220.182	48.830	-35.540	177.692	-16.257	252.076	216.833	130.384	13.400	224.726	0.0001318	0.00025022	0.00021678	119.69	2.9469e-06	1.2124e-05	200.15	28.356	1.9469e-06	7.3004e-06	62.888	21.567	7.7815	3.5754	4.1377e-06	11.676	0.0034293	0.004894	0.0013053	254.76	4.8731e-05	5.2812e-05	255.63	45.197	4.8119e-05	5.3861e-05	90.924	30.916	15.729	6.5683	5.0075e-05	15.833	244.713	-20.102	97.960	-48.174	1.629	148.091	-47.568	-42.302	235.809	-31.346	-42.188	-36.086	-36.507	-32.896	37.377	-33.210	-8191	255	
39962.320	1	1	0	0	0.1855	0.15039	0.22874	0.095593	0.020626	0.13992	0.16032	0.034982	0.2034	0.34588	0.35906	0.078943	0.073133	0.20254	0.086495	0.11024	-2.1729	-2.6521	-2.5062	-2.4729	-2.575	-2.5417	-2.6	-2.5958	-2.5479	-2.7083	-2.5229	-2.2333	-2.6896	-2.4437	-2.6042	-2.6146	275.607	237.104	169.376	217.912	17.666	214.121	139.747	126.339	73.975	71.673	293.989	-39.246	78.319	74.827	75.387	116.327	9.9818e-05	0.0010417	3.5097e-05	119.17	4.5315e-06	1.2519e-05	195.34	27.961	5.2455e-06	4.8811e-06	63.817	22.255	8.0134	3.6942	4.1898e-06	12.249	0.0036427	0.0048717	0.001266	249.65	5.0487e-05	5.177e-05	247.77	44.814	4.8673e-05	5.241e-05	90.121	31.244	15.975	6.6433	4.684e-05	16.389	205.776	30.548	108.155	-48.462	185.533	-18.699	-47.074	-42.036	15.913	258.252	-42.201	-35.911	-36.672	-32.581	67.674	-32.574	-8191	255	
39962.414	1	1	0	0	0.19322	0.11441	0.10204	0.20312	0.11308	0.09273	0.36575	0.21269	0.19451	0.1671	0.35909	0.24469	0.018062	0.13222	0.19954	0.20027	-1.9979	-2.5854	-2.6958	-2.35	-2.7458	-2.6562	-2.4729	-2.7	-2.4313	-2.6271	-2.6792	-2.4833	-2.5625	-2.5542	-2.5771	-2.6396	294.196	162.308	16.031	167.514	-15.207	86.626	19.176	247.406	200.931	19.014	157.598	84.992	293.698	179.348	4.547	-43.804	0.00011278	0.00039472	0.00013882	115.81	4.1215e-06	7.2187e-06	199.11	28.65	3.8475e-06	1.4056e-05	63.592	22.619	8.2251	3.8487	2.8263e-06	12.526	0.0036811	0.0047927	0.0012376	254.04	5.3274e-05	5.3548e-05	251.19	46.954	5.3167e-05	5.494e-05	91.62	32.618	16.984	6.9937	4.9154e-05	17.17	252.232	82.224	170.986	-48.502	52.311	54.127	-46.986	-42.150	-53.734	34.145	-41.939	-36.033	-36.853	-33.710	58.884	-33.317	-8191	255	
39962.488	1	1	0	0	0.070169	0.18498	0.19144	0.41222	0.065193	0.15438	0.14439	0.12086	0.2247	0.12534	0.17586	0.062903	0.1837	0.32189	0.30839	0.13643	-2.0438	-2.5354	-2.5625	-2.2021	-2.5271	-2.6875	-2.5208	-2.7229	-2.3708	-2.7125	-2.5708	-2.2	-2.5833	-2.6854	-2.6063	-2.6125	116.801	-53.246	90.779	288.532	38.942	8.282	247.957	249.238	-32.804	-18.025	-46.053	-19.935	298.293	275.515	14.947	250.345	5.4843e-05	0.00054905	4.1041e-05	116.26	6.1263e-06	5.4199e-06	197.49	28.934	1.0284e-05	5.6827e-06	66.171	23.469	8.5088	4.2365	2.7969e-06	13.294	0.0039773	0.0049793	0.0013003	267.03	5.6075e-05	5.461e-05	252.37	49.002	5.5748e-05	5.573e-05	95.766	34.652	17.872	7.405	5.3201e-05	18.479	119.308	278.305	178.706	-47.133	-48.579	8.466	-47.630	-41.165	96.258	37.950	-41.992	-36.563	-37.527	-33.453	189.983	-33.050	-8191	255	
39962.605	1	1	0	0	0.10011	0.22461	0.02819	0.10526	0.28928	0.13657	0.12189	0.20498	0.13748	0.33598	0.27705	0.09053	0.1632	0.18697	0.13381	0.049273	-1.9333	-2.475	-2.7604	-2.3937	-2.6188	-2.6396	-2.4958	-2.7979	-2.4625	-2.6521	-2.6729	-2.5417	-2.4875	-2.6063	-2.3958	-2.8417	124.878	187.584	115.094	39.155	18.693	136.324	-8.230	291.996	120.802	223.729	9.694	-20.842	-37.236	-12.344	220.800	-27.610	3.5309e-05	3.1019e-05	7.85e-05	119.16	4.2246e-06	5.3678e-06	199.59	30.059	4.9277e-06	6.4277e-06	67.338	24.351	9.1103	4.647	6.7025e-06	14.617	0.0042877	0.0052167	0.0014272	287.19	6.0052e-05	5.6282e-05	259.28	51.649	5.7393e-05	5.6226e-05	98.601	36.327	18.642	7.8431	5.6752e-05	19.884	62.642	7.695	182.034	-47.009	104.328	74.056	-46.936	-41.796	77.269	4.214	-42.036	-36.590	-36.833	-32.971	258.282	-32.939	-8191	255	
39962.703	1	1	0	0	0.074778	0.07506	0.086367	0.18075	0.12974	0.14759	0.17429	0.31399	0.24815	0.21651	0.26717	0.24961	0.20324	0.12882	0.34482	0.3199	-2.0417	-2.55	-2.7667	-2.3917	-2.8125	-2.6125	-2.4708	-2.7125	-2.4271	-2.4688	-2.7375	-2.6417	-2.5375	-2.7896	-2.4083	-2.6	250.104	184.088	122.818	36.630	209.928	145.312	240.140	173.290	98.954	79.516	37.769	85.122	240.014	60.474	186.407	-34.663	6.4903e-05	0.00039121	3.2425e-05	121.12	6.4411e-06	5.7739e-06	199.06	30.289	2.6043e-06	4.7264e-06	67.017	24.845	9.321	4.7004	1.2472e-06	15.055	0.0043058	0.005138	0.0014829	287.8	5.812e-05	5.4933e-05	258.73	51.699	5.4441e-05	5.4564e-05	99.177	36.579	18.083	7.9437	5.5956e-05	20.066	155.524	21.623	-15.635	-48.354	-12.374	277.596	-46.284	-41.790	128.979	-40.672	-42.811	-36.952	-37.175	-33.283	13.944	-33.373	-8191	255	
39962.797	1	1	0	0	0.24348	0.15829	0.15068	0.41333	0.13737	0.048821	0.27425	0.10292	0.20302	0.30225	0.14602	0.061808	0.1773	0.15795	0.1975	0.23404	-2.0708	-2.4625	-2.6583	-2.2667	-2.6271	-2.6042	-2.4125	-2.6417	-2.5604	-2.3708	-2.7313	-2.4958	-2.6708	-2.5604	-2.3187	-2.6646	125.389	38.404	82.213	162.891	199.196	166.288	94.032	186.393	277.352	269.775	34.737	254.100	79.530	276.834	48.974	10.429	8.869e-05	0.0003855	0.00028418	114.98	6.4731e-06	1.9623e-06	192.1	29.301	3.4917e-06	5.1649e-06	67.107	25.214	9.3877	4.829	1.0067e-05	14.844	0.0040004	0.0050333	0.0015065	278.55	5.5405e-05	5.5829e-05	254.04	50.668	5.4439e-05	5.6818e-05	100.76	37.195	18.534	8.2937	6.2253e-05	20.394	208.036	67.842	168.746	-48.374	53.155	294.605	-46.957	-42.101	11.318	212.817	-41.129	-36.683	-36.734	-33.781	144.874	-33.152	-8191	255	
39962.895	1	1	0	0	0.25355	0.33916	0.21742	0.010136	0.029035	0.034197	0.13699	0.093426	0.25379	0.016339	0.386	0.048523	0.23023	0.057288	0.21069	0.13395	-2.2021	-2.5542	-2.6833	-2.4208	-2.6521	-2.7542	-2.5438	-2.6042	-2.4208	-2.3521	-2.5812	-2.5062	-2.6354	-2.7833	-2.3688	-2.6437	21.716	60.230	162.063	165.628	-21.612	-29.440	47.008	244.864	274.137	-52.678	231.853	152.871	-14.221	-12.353	299.392	161.379	0.00011653	0.00064744	4.8661e-05	120.17	9.7008e-06	5.4887e-06	202.77	31.374	1.2838e-06	4.7781e-06	68.582	24.958	9.53	4.6069	5.9329e-06	14.402	0.0042995	0.0056121	0.0017029	299.91	6.1125e-05	6.5531e-05	272.77	55.464	6.3336e-05	7.0149e-05	110.08	38.977	20.704	9.1131	7.9359e-05	21.09	168.399	185.349	237.249	-47.265	107.419	106.588	-46.961	-41.120	17.252	200.101	-40.928	-36.833	-36.402	-32.735	94.967	-33.178	-8191	255	
39963.016	1	1	0	0	0.20119	0.051781	0.22523	0.043095	0.077855	0.057158	0.22368	0.15871	0.16377	0.11151	0.082526	0.11233	0.1801	0.092911	0.11955	0.15723	-2.325	-2.4792	-2.6521	-2.45	-2.4417	-2.7208	-2.3896	-2.7292	-2.5354	-2.5354	-2.7146	-2.4667	-2.5083	-2.7146	-2.4208	-2.5729	262.275	247.678	205.163	-48.895	36.915	37.856	187.312	-52.562	164.460	119.884	156.153	124.437	248.575	238.727	106.992	-44.940	0.00011382	0.00064188	0.00015878	155.91	7.443e-06	6.2085e-06	241.22	38.978	7.0184e-06	2.4539e-06	77.363	25.333	9.7407	4.55	5.007e-06	14.188	0.0056169	0.0077058	0.0022708	393.1	8.2989e-05	9.1278e-05	337.78	70	8.5511e-05	9.6224e-05	129.14	42.504	23.983	10.175	9.445e-05	21.702	244.883	126.579	61.435	-47.720	212.435	134.405	-47.501	-42.891	167.412	271.014	-43.123	-36.510	-36.837	-32.666	248.747	-33.004	-8191	255	
39963.109	1	1	0	0	0.04582	0.45798	0.18221	0.23712	0.16624	0.16244	0.40452	0.23325	0.22927	0.14909	0.079163	0.23543	0.11978	0.21999	0.057981	0.17634	-2.2167	-2.5354	-2.5938	-2.4562	-2.4042	-2.7313	-2.5021	-2.3021	-2.7583	-2.4333	-2.5646	-2.4729	-2.4708	-2.8812	-2.5354	-2.5479	-26.416	206.936	231.769	138.274	181.009	34.152	166.329	279.669	222.263	32.768	234.048	229.445	77.054	233.352	-51.447	219.345	1.099e-05	0.00061106	0.00027652	165.33	7.3461e-06	7.3869e-06	252.48	40.753	3.0879e-06	1.9432e-06	78.571	25.304	10.133	4.5385	6.2226e-06	13.998	0.0065058	0.0087472	0.0024464	414.22	8.9078e-05	9.792e-05	349.84	71.932	8.9557e-05	9.7715e-05	130.95	42.403	24.51	10.182	9.2377e-05	21.445	195.446	72.205	35.037	-47.747	203.318	144.649	-47.503	-42.410	241.229	17.936	-43.259	-36.643	-36.393	-32.033	33.793	-32.750	-8191	255	
39963.207	1	1	0	0	0.10239	0.20066	0.11288	0.27698	0.19532	0.23375	0.081063	0.18183	0.27473	0.28291	0.3046	0.10889	0.22186	0.084028	0.14484	0.19623	-2.2604	-2.3292	-2.4854	-2.5854	-2.4229	-2.9229	-2.3917	-2.4229	-2.5792	-2.3167	-2.5542	-2.6208	-2.1833	-2.7292	-2.6354	-2.5875	-25.555	157.916	30.911	246.553	246.825	258.639	56.144	29.259	56.791	133.529	242.430	-51.598	59.087	294.649	155.478	0.275	2.8304e-05	0.00077614	0.00033733	176.94	1.0001e-05	5.3923e-06	261.33	42.518	3.9768e-06	5.7384e-06	80.623	25.168	10.073	4.3193	1.9117e-06	13.069	0.0067878	0.0088159	0.0023816	425.14	9.0898e-05	9.5685e-05	353.94	73.206	8.9157e-05	9.2971e-05	128.17	41.052	24.008	9.5749	8.3651e-05	20.145	256.229	85.100	-25.911	-47.165	-30.261	255.581	-47.694	-42.579	295.320	148.117	-43.712	-36.561	-36.765	-32.217	111.840	-33.189	-8191	255	
39963.305	1	1	0	0	0.23702	0.078389	0.051227	0.095204	0.23929	0.097415	0.14308	0.32359	0.10166	0.085327	0.076815	0.21198	0.15822	0.26109	0.15453	0.23241	-2.2188	-2.2896	-2.4917	-2.5229	-2.2687	-2.6146	-2.4979	-2.425	-2.6917	-2.45	-2.6917	-2.6604	-2.325	-2.7396	-2.5292	-2.3667	-8.349	211.807	-42.203	147.128	134.320	-38.722	71.132	251.532	134.732	127.984	13.888	269.718	41.184	112.403	128.079	-51.254	8.0225e-05	0.00060709	0.00038768	190.94	1.2311e-05	1.0522e-05	278.04	49.167	3.0126e-06	1.0195e-05	89.862	24.24	10.754	3.8763	4.9016e-06	11.635	0.0065166	0.0081741	0.0021548	425.9	8.7062e-05	8.9407e-05	362.92	78.81	8.5375e-05	8.5811e-05	133.61	39.847	23.833	8.6058	7.4009e-05	18.173	175.846	101.337	29.692	-48.525	247.335	97.749	-47.833	-44.531	266.210	7.956	-44.259	-37.311	-39.413	-33.687	78.299	-33.241	-8191	255	
39963.398	1	1	0	0	0.13057	0.16537	0.033036	0.17673	0.31112	0.21724	0.18958	0.30686	0.20616	0.30786	0.17384	0.065137	0.12881	0.12928	0.086289	0.11366	-2.1021	-2.4604	-2.5187	-2.8	-2.4458	-2.7625	-2.5896	-2.3979	-2.6688	-2.4938	-2.4396	-2.3979	-2.25	-2.7042	-2.5917	-2.4333	145.779	26.322	2.525	71.161	293.342	184.918	-51.005	140.359	166.968	104.821	246.148	143.515	155.643	-8.954	194.671	81.164	0.0001113	0.0014835	0.00016226	191.55	7.0083e-06	5.6658e-06	277.28	51.374	4.5943e-06	8.8252e-06	89.803	23.989	10.927	3.5408	3.4967e-06	10.632	0.0059614	0.0072383	0.0019137	414.83	7.8996e-05	7.8271e-05	356.65	78.694	7.818e-05	7.6064e-05	130.45	39.142	23.252	7.8743	7.1896e-05	17.201	272.770	-38.185	140.686	-48.326	216.436	-18.965	-48.513	-44.974	11.379	285.395	-45.304	-37.969	-40.100	-34.368	281.147	-33.356	-8191	255	
39963.496	1	1	0	0	0.051706	0.032862	0.073694	0.050347	0.13215	0.083878	0.1744	0.2929	0.2813	0.25264	0.011543	0.049729	0.1606	0.15691	0.12451	0.15139	-2.3708	-2.5208	-2.45	-2.7958	-2.5917	-2.7438	-2.5979	-2.6063	-2.7292	-2.4417	-2.5354	-2.8167	-2.3958	-2.6292	-2.7188	-2.4333	295.247	-55.513	81.302	180.205	0.193	-51.814	-0.299	16.028	80.085	-23.974	-19.777	112.247	-41.508	267.461	10.021	245.998	6.2092e-05	0.00051343	4.3293e-05	190.16	7.9358e-06	2.5252e-06	273.97	49.473	5.2101e-06	2.8317e-06	86.297	23.05	10.475	3.3539	9.3936e-06	10.188	0.0057104	0.0067942	0.0018674	413.29	7.7162e-05	7.4992e-05	353.56	78.009	7.7248e-05	7.3362e-05	127.5	38.232	22.379	7.4978	7.2817e-05	16.615	24.018	-27.454	201.648	-48.413	12.937	57.775	-48.058	-44.851	144.058	181.430	-44.496	-37.751	-40.281	-32.997	225.768	-33.807	-8191	255	
39963.613	1	1	0	0	0.13226	0.11518	0.15668	0.082555	0.1558	0.1127	0.035353	0.13286	0.16375	0.26136	0.16086	0.081166	0.048993	0.16709	0.29244	0.18933	-2.2729	-2.6521	-2.5563	-2.6854	-2.4938	-2.4646	-2.6208	-2.2667	-2.7083	-2.5021	-2.4375	-2.6958	-2.3708	-2.6521	-2.7292	-2.4354	-38.206	116.314	124.409	87.459	22.680	232.251	-8.464	94.768	291.725	138.304	89.906	233.334	278.832	-24.695	290.384	278.735	0.00014588	0.00038005	8.8683e-05	190.05	9.9547e-06	8.9609e-06	272.36	50.004	2.1868e-06	9.9742e-06	86.925	22.894	10.519	3.2473	1.297e-05	10.004	0.0055571	0.0065717	0.0018946	411.95	7.4685e-05	7.2846e-05	353.12	77.914	7.4267e-05	7.2823e-05	129.37	38.117	22.304	7.4316	7.6466e-05	16.427	18.732	-33.908	133.516	-48.620	92.151	66.655	-48.296	-44.955	112.523	241.078	-44.587	-37.817	-40.424	-33.551	194.426	-33.468	-8191	255	
39963.711	1	1	0	0	0.0083022	0.08498	0.090661	0.23065	0.10855	0.093226	0.21057	0.08361	0.14226	0.067976	0.10026	0.23359	0.043803	0.097017	0.19673	0.24246	-2.1604	-2.4458	-2.4958	-2.6646	-2.5792	-2.5021	-2.6458	-2.2396	-2.7188	-2.4771	-2.3729	-2.7729	-2.3979	-2.4292	-2.7521	-2.3812	210.946	115.617	87.828	-9.128	181.187	63.665	177.838	235.903	100.168	14.754	10.447	102.114	226.239	118.146	-9.280	45.171	4.4066e-05	0.000186	0.0001553	186.7	1.0305e-05	1.8076e-06	266.95	48.021	4.7508e-06	4.4425e-06	84.63	22.871	10.199	3.173	1.0899e-05	9.9038	0.0054371	0.006678	0.0019703	410.21	7.3086e-05	7.4009e-05	350.88	76.457	7.3344e-05	7.5136e-05	128.91	37.912	21.834	7.5049	8.0372e-05	16.41	125.128	120.190	199.702	-49.481	44.969	92.854	-48.447	-45.234	258.107	263.831	-45.067	-37.494	-39.504	-33.005	151.079	-33.037	-8191	255	
39963.781	1	1	0	0	0.093939	0.13689	0.23096	0.15757	0.1675	0.16628	0.12728	0.16782	0.23383	0.20742	0.089076	0.093595	0.21069	0.1114	0.1743	0.11187	-2.1063	-2.6354	-2.4583	-2.3896	-2.5208	-2.4437	-2.5979	-2.3271	-2.7062	-2.6667	-2.425	-2.8604	-2.5	-2.5958	-2.7625	-2.4729	231.414	169.275	21.901	283.761	85.234	58.950	286.075	64.129	-24.547	120.091	-41.779	92.749	293.306	130.604	208.275	-58.798	5.0666e-05	9.8397e-05	0.00014878	183.14	5.0123e-06	2.1121e-06	265.38	47.417	1.7627e-06	1.2829e-05	83.616	22.585	9.9662	3.1102	7.5189e-06	9.7649	0.0054337	0.0070266	0.0020579	408.36	7.2983e-05	7.6835e-05	351.11	75.156	7.1837e-05	7.7926e-05	127.8	37.13	21.294	7.5715	8.085e-05	16.136	132.026	286.706	81.497	-49.357	20.082	170.952	-48.365	-44.685	186.868	184.711	-44.787	-38.138	-39.817	-32.717	-19.310	-33.597	-8191	255	
39963.879	1	1	0	0	0.08269	0.020992	0.043785	0.12776	0.1573	0.036824	0.13108	0.15083	0.12448	0.11707	0.16013	0.10457	0.22653	0.10003	0.10707	0.19744	-2.2062	-2.5479	-2.35	-2.5438	-2.6771	-2.4167	-2.7979	-2.4979	-2.5125	-2.5458	-2.4188	-2.7188	-2.5812	-2.4979	-2.6021	-2.6917	174.909	-0.162	-61.110	83.374	62.622	-62.539	-22.151	-5.555	165.058	12.019	42.240	230.725	165.473	-45.274	233.536	46.670	8.4813e-05	0.00061476	0.00023928	183.95	5.2063e-06	6.2839e-06	264.97	46.415	6.9512e-06	5.6489e-06	82.96	21.916	9.4226	3.1225	6.7833e-06	9.8306	0.0054171	0.0073193	0.0020595	399.34	7.4154e-05	7.9624e-05	351.44	74.066	7.3273e-05	8.0901e-05	126.57	36.31	21.108	7.6638	8.0268e-05	15.925	192.039	58.299	29.001	-49.520	193.205	78.711	-48.396	-45.007	235.308	192.641	-44.184	-37.579	-39.009	-33.568	82.429	-32.553	-8191	255	
39964.000	1	1	0	0	0.14603	0.1166	0.23723	0.055725	0.11872	0.063163	0.17884	0.076567	0.1644	0.19657	0.39791	0.21031	0.026663	0.23772	0.15911	0.073843	-2.0938	-2.6937	-2.3438	-2.7979	-2.6	-2.4396	-2.8271	-2.2938	-2.6979	-2.8292	-2.4583	-2.5938	-2.6604	-2.5312	-2.7833	-2.5771	92.214	143.567	38.180	-52.428	216.673	96.707	74.407	51.454	290.302	140.790	195.285	199.439	-6.033	233.880	208.531	54.393	6.0642e-05	0.00066159	0.00016294	175.26	7.4244e-06	7.8499e-06	259.1	45.582	2.7565e-06	6.8848e-06	81.59	22.278	9.5369	3.2216	1.1726e-05	9.9456	0.0054805	0.0074914	0.0020424	392.75	7.6146e-05	8.2713e-05	346.65	72.446	7.6337e-05	8.4786e-05	125.57	36.487	21.788	7.87	8.0247e-05	16.149	250.780	188.088	-12.111	-47.999	263.740	253.512	-48.449	-44.682	238.607	26.935	-44.701	-37.241	-38.871	-34.001	46.542	-33.080	-8191	255	
39964.094	1	1	0	0	0.050109	0.16751	0.10369	0.12435	0.19677	0.13998	0.040734	0.045376	0.18623	0.052791	0.11165	0.20618	0.26172	0.11808	0.18751	0.17867	-1.8771	-2.6479	-2.25	-2.5729	-2.4229	-2.425	-2.6542	-2.5563	-2.4917	-2.8396	-2.3729	-2.5125	-2.5208	-2.4208	-2.7792	-2.5354	113.774	153.795	272.546	80.713	221.479	269.123	-16.106	54.647	112.194	126.895	109.701	241.513	44.619	-44.289	-9.858	205.984	0.00013547	0.00095342	0.0001694	166.62	1.4793e-06	1.3725e-05	252.69	43.975	5.5149e-06	6.7779e-06	80.097	21.823	9.151	3.2416	7.8172e-06	10.345	0.0057405	0.0076718	0.0020096	384.79	7.9726e-05	8.3208e-05	337.89	71.307	7.8769e-05	8.4999e-05	122.77	36.745	21.988	7.9517	7.7971e-05	16.644	286.040	129.776	150.124	-49.094	-61.343	76.480	-48.185	-43.925	-55.213	62.201	-44.306	-37.288	-36.944	-33.012	137.153	-32.504	-8191	255	
39964.191	1	1	0	0	0.26328	0.073942	0.32901	0.1143	0.15352	0.031149	0.056406	0.29867	0.11369	0.31128	0.19841	0.24085	0.094103	0.25004	0.21043	0.15092	-1.8312	-2.6729	-2.3312	-2.3896	-2.6667	-2.6063	-2.7521	-2.6604	-2.2833	-2.7	-2.65	-2.6667	-2.6708	-2.5083	-2.7229	-2.5229	95.991	148.215	179.344	-32.036	98.554	240.070	-51.126	214.247	128.837	69.786	-20.943	107.086	-39.479	178.660	98.391	-48.781	3.0239e-05	0.00039615	0.0001273	166.37	1.2738e-05	1.8009e-06	246.81	42.855	2.9031e-06	4.992e-06	78.67	22.558	9.4302	3.3609	5.6401e-06	10.651	0.0059572	0.0076801	0.0019773	386.05	8.32e-05	8.3315e-05	333.44	71.292	8.2092e-05	8.5994e-05	121.88	37.814	22.692	8.1047	7.7878e-05	17.41	288.497	152.346	7.056	-48.223	158.135	195.192	-48.219	-44.201	153.266	211.014	-44.283	-37.354	-37.929	-33.219	-48.838	-33.235	-8191	255	
39964.285	1	1	0	0	0.083504	0.17618	0.46779	0.10688	0.18566	0.26396	0.1457	0.17505	0.23886	0.26363	0.13342	0.20707	0.16088	0.048734	0.17777	0.057952	-1.9604	-2.6583	-2.4708	-2.6042	-2.7604	-2.4729	-2.7896	-2.6688	-2.4188	-2.8646	-2.5208	-2.5729	-2.7229	-2.4062	-2.5667	-2.6417	61.212	92.730	90.045	-53.938	294.083	132.834	244.851	101.114	-23.692	243.813	119.650	205.746	51.657	109.716	189.860	197.529	5.9798e-05	0.00048104	0.0002676	159.11	8.6308e-06	1.2477e-05	247.43	41.365	7.6799e-06	5.339e-06	78.227	23.013	9.3846	3.636	3.5565e-06	11.236	0.0061102	0.0076522	0.0019709	390.95	8.4988e-05	8.218e-05	330.34	71.637	8.2996e-05	8.4428e-05	122.37	39.049	22.794	8.1825	7.9247e-05	18.283	138.885	168.459	222.508	-48.981	170.141	15.719	-48.004	-43.699	55.833	90.712	-43.792	-37.197	-38.647	-33.517	-1.664	-32.740	-8191	255	
39964.406	1	1	0	0	0.081869	0.18194	0.11668	0.034527	0.08838	0.216	0.21849	0.061131	0.1152	0.14236	0.099805	0.15757	0.061263	0.16514	0.30497	0.061616	-2.0167	-2.6896	-2.5646	-2.4792	-2.7188	-2.5521	-2.7313	-2.6458	-2.4813	-2.7083	-2.5875	-2.3792	-2.7604	-2.3125	-2.5146	-2.8292	20.687	-11.350	-52.455	126.751	234.681	232.062	99.871	202.891	210.675	165.528	195.751	239.739	-4.169	267.279	-60.948	246.083	1.1079e-05	0.00048441	0.00029244	153.72	1.0953e-05	3.6011e-06	237.23	40.326	3.6745e-06	5.4648e-06	76.225	23.49	9.5473	3.8641	6.918e-06	12.147	0.0061013	0.0074453	0.0020092	390.28	8.3762e-05	7.8281e-05	320.92	69.661	7.967e-05	7.8836e-05	119.42	39.236	22.268	8.1385	7.7454e-05	19.063	16.690	3.306	-25.838	-48.955	1.599	270.849	-47.111	-43.068	-24.311	-16.237	-44.168	-37.261	-38.864	-33.755	-43.262	-33.217	-8191	255	
39964.480	1	1	0	0	0.19985	0.063803	0.053301	0.17899	0.11438	0.1223	0.21023	0.020389	0.11218	0.10969	0.063359	0.13982	0.1962	0.10898	0.13134	0.1856	-1.9917	-2.6708	-2.6125	-2.3521	-2.7812	-2.4479	-2.6542	-2.8438	-2.3625	-2.7417	-2.6312	-2.4958	-2.5521	-2.5167	-2.3896	-2.7104	175.697	273.499	104.120	49.252	276.646	-2.810	282.754	244.506	-20.544	76.986	273.861	-5.499	291.707	-6.125	281.519	7.929	2.1594e-05	0.00072593	1.6223e-05	148.33	2.1017e-06	1.3004e-06	232.53	38.029	7.4506e-06	5.8455e-06	76.446	25.666	10.292	4.4563	4.1629e-06	14.041	0.0058349	0.0070119	0.0020134	380.74	8.0591e-05	7.5989e-05	316.52	68.154	7.7514e-05	7.7986e-05	120.84	41.308	22.552	8.8448	8.0598e-05	21.17	122.393	-17.996	210.747	-47.192	72.955	103.439	-47.565	-42.942	27.238	-1.755	-42.773	-36.721	-38.175	-32.355	66.363	-33.524	-8191	255	
39964.574	1	1	0	0	0.18518	0.046286	0.2223	0.25395	0.19742	0.1376	0.19181	0.08334	0.13813	0.14085	0.081344	0.079619	0.1489	0.076453	0.17661	0.088582	-2.1271	-2.6542	-2.6333	-2.4021	-2.6188	-2.6271	-2.6333	-2.5479	-2.5104	-2.6979	-2.6188	-2.4646	-2.7438	-2.3667	-2.3563	-2.7646	233.319	54.192	-42.896	284.222	-34.389	23.131	187.363	248.466	19.402	-44.785	94.946	57.850	-27.232	71.059	263.991	89.784	6.8921e-05	0.00093118	0.00025946	142.44	2.1854e-06	7.4207e-06	232.66	37.798	6.6354e-06	1.2269e-05	78.326	27.571	10.791	5.2053	7.1319e-06	15.878	0.0056466	0.0071144	0.0020908	374.6	7.8361e-05	7.6851e-05	318.29	67.066	7.4353e-05	7.7952e-05	123.41	43.217	23.064	9.6017	8.1299e-05	22.911	-5.536	11.995	182.172	-47.634	188.993	240.175	-47.060	-42.526	-26.639	190.796	-43.349	-36.355	-36.725	-33.807	135.656	-33.624	-8191	255	
39964.695	1	1	0	0	0.24118	0.21763	0.21722	0.087065	0.22904	0.10655	0.099208	0.14882	0.14482	0.23569	0.060304	0.11414	0.15619	0.38537	0.25215	0.11433	-2.0354	-2.6083	-2.6479	-2.1979	-2.6813	-2.5479	-2.4792	-2.7812	-2.4708	-2.7771	-2.7667	-2.5187	-2.6167	-2.5396	-2.3167	-2.9479	101.336	79.768	266.940	246.502	278.500	-50.016	126.692	-38.304	10.231	-38.600	91.943	-26.750	10.183	288.658	173.609	158.721	2.9701e-05	0.00076015	0.00020139	148.52	3.6829e-06	8.3245e-06	235.14	38.718	4.7411e-06	1.0233e-05	77.785	28.906	11.044	5.4306	4.9322e-06	16.519	0.0054836	0.0071383	0.0021207	375.1	7.6146e-05	7.8589e-05	323.6	67.66	7.2649e-05	8.0671e-05	123.99	43.922	23.131	10.062	8.1105e-05	23.459	266.645	105.041	39.221	-47.865	59.481	170.071	-47.107	-42.276	162.140	232.809	-42.308	-36.792	-36.439	-33.984	283.695	-34.066	-8191	255	
39964.789	1	1	0	0	0.04792	0.073652	0.18596	0.16296	0.35151	0.094148	0.13121	0.18243	0.32094	0.22446	0.21771	0.41379	0.22486	0.12271	0.05364	0.19958	-1.85	-2.3187	-2.7562	-2.5083	-2.6604	-2.7479	-2.4313	-2.8479	-2.7729	-2.5	-2.8	-2.5792	-2.5479	-2.75	-2.5083	-2.6479	81.642	244.433	45.605	256.515	163.749	216.524	0.170	170.199	125.149	260.514	125.121	-39.398	254.907	232.135	235.674	256.041	0.00012334	0.00099752	0.0001444	156.5	4.2553e-06	1.0721e-05	237.83	39.26	1.9765e-06	1.1858e-05	79.037	29.566	11.432	5.6244	5.2511e-06	16.866	0.0054584	0.0074434	0.0021466	372.45	7.8062e-05	8.369e-05	326.34	67.809	7.6183e-05	8.6276e-05	125.74	44.773	24.031	10.491	8.361e-05	23.842	265.704	70.687	105.441	-47.249	245.954	248.081	-46.731	-42.989	178.101	134.572	-42.586	-37.081	-36.887	-33.528	15.193	-34.501	-8191	255	
39964.887	1	1	0	0	0.19302	0.28667	0.095304	0.30371	0.1831	0.08735	0.073522	0.11375	0.21742	0.12281	0.22552	0.16535	0.12513	0.24926	0.39478	0.040825	-2.0146	-2.3354	-2.6708	-2.3208	-2.6937	-2.6937	-2.5021	-2.7729	-2.5875	-2.4583	-2.775	-2.4167	-2.5396	-2.5938	-2.4042	-2.8604	207.920	23.573	41.560	261.810	142.939	-50.731	3.329	-6.702	130.284	144.782	294.981	216.032	161.428	-22.889	115.522	5.112	0.00015502	0.0012238	0.00028856	152.61	5.7445e-06	1.4822e-06	232.37	38.28	5.4194e-06	8.9641e-06	77.378	29.395	11.239	5.5999	6.4864e-06	16.908	0.0057667	0.0078865	0.0021716	370.36	7.9258e-05	8.584e-05	320.72	65.958	7.7691e-05	8.6615e-05	124.55	44.523	24.399	10.576	8.2621e-05	23.802	223.259	171.983	-43.041	-47.744	-23.039	129.116	-47.263	-42.643	220.605	73.026	-42.134	-36.534	-36.210	-33.929	-18.793	-33.377	-8191	255	
39965.008	1	1	0	0	0.10759	0.078262	0.024013	0.17421	0.19808	0.15744	0.18641	0.22448	0.082492	0.25565	0.10386	0.11955	0.092986	0.0093653	0.12429	0.20044	-2.1833	-2.5146	-2.7417	-2.5187	-2.5375	-2.7917	-2.3021	-2.6333	-2.5833	-2.5271	-2.8292	-2.5354	-2.5354	-2.6146	-2.5187	-2.6646	294.654	131.713	226.481	97.872	175.427	272.182	155.581	279.380	74.478	-29.130	229.599	225.699	183.289	150.267	137.075	229.252	0.00014358	0.00012177	0.00011249	152.58	9.3357e-06	6.5311e-06	238.28	38.379	1.1855e-05	1.0435e-05	78.511	29.506	11.509	5.5289	2.7892e-06	16.638	0.0060572	0.0080094	0.002164	375.24	8.4678e-05	8.8861e-05	324.2	67.576	8.4149e-05	8.9703e-05	125.77	45.144	25.355	10.683	8.2584e-05	23.934	201.524	89.787	136.660	-48.132	113.455	228.279	-47.253	-41.795	244.077	-22.494	-42.777	-37.008	-37.837	-33.493	26.850	-33.585	-8191	255	
39965.078	1	1	0	0	0.10371	0.22062	0.14642	0.26996	0.15163	0.20266	0.17653	0.11152	0.14505	0.10596	0.29793	0.088183	0.24208	0.073378	0.16518	0.18925	-2.1813	-2.4792	-2.6917	-2.5146	-2.4771	-2.8125	-2.5062	-2.4625	-2.7083	-2.3563	-2.7375	-2.4688	-2.4333	-2.7333	-2.5187	-2.6271	-14.676	261.050	76.144	239.507	186.855	277.087	158.442	285.564	-9.666	-20.475	54.039	19.425	258.431	-13.908	154.235	237.812	8.9326e-05	0.00055572	0.0001176	163.56	1.9392e-06	6.3737e-06	245.47	40.905	6.0705e-06	1.9861e-05	80.867	29.151	11.372	5.4569	9.0097e-06	16.305	0.0064501	0.0082423	0.0021959	399.88	9.0618e-05	9.3001e-05	336.02	72.059	9.1043e-05	9.3849e-05	129.12	46.274	26.375	10.817	8.5794e-05	24.133	248.042	233.926	-56.330	-49.025	182.329	34.148	-47.715	-42.066	121.905	28.115	-42.029	-36.548	-38.353	-33.499	249.782	-33.772	-8191	255	
39965.176	1	1	0	0	0.17527	0.31912	0.23835	0.18791	0.34172	0.017505	0.16601	0.0825	0.18721	0.22088	0.18201	0.24397	0.11414	0.34801	0.24188	0.1437	-2.2583	-2.2833	-2.6188	-2.5875	-2.6042	-2.9688	-2.375	-2.5771	-2.675	-2.6437	-2.7313	-2.6333	-2.5312	-2.8771	-2.55	-2.5521	277.616	232.140	253.325	7.838	0.353	-5.383	156.432	250.078	195.777	169.664	20.333	-38.036	184.105	41.509	147.250	70.252	0.00013975	0.0017455	0.00024742	171.63	1.1921e-05	6.8187e-06	256	44.173	5.6946e-06	1.2794e-05	84.897	28.967	12.069	5.3883	9.8268e-06	16.171	0.0070055	0.0086143	0.0022998	432.78	9.6904e-05	9.7915e-05	352.42	78.98	9.75e-05	9.6606e-05	136.32	47.903	27.631	11.007	9.3511e-05	24.87	240.254	1.053	190.842	-48.409	147.876	42.855	-47.584	-43.490	126.110	31.186	-42.446	-37.264	-37.026	-33.788	51.724	-33.511	-8191	255	
39965.297	1	1	0	0	0.065993	0.11554	0.21372	0.19991	0.14086	0.25555	0.12843	0.11957	0.038543	0.095365	0.11231	0.1537	0.11132	0.073563	0.14044	0.094277	-2.3583	-2.3312	-2.7146	-2.6875	-2.5	-2.9375	-2.5938	-2.4792	-2.6625	-2.4708	-2.7604	-2.75	-2.4958	-2.8521	-2.5312	-2.5479	-0.987	167.262	132.654	283.981	190.865	112.876	-30.649	-58.893	6.374	215.257	-40.811	142.233	72.831	238.154	241.000	46.313	2.4144e-05	0.0011756	0.00040641	185.4	1.3887e-06	6.95e-06	275.18	51.472	8.1772e-06	1.601e-05	92.75	30.192	13.082	5.5268	3.4939e-06	16.557	0.0075462	0.0090476	0.0025287	484.86	0.00010518	0.00010359	381.53	90.919	0.00010792	0.00010472	152.91	51.727	30.495	11.644	0.00010465	25.983	-32.908	-27.677	31.989	-47.468	245.846	181.968	-47.622	-44.171	148.146	78.334	-43.346	-36.937	-38.876	-34.911	135.371	-33.982	-8191	255	
39965.391	1	1	0	0	0.31351	0.30222	0.38789	0.2032	0.2014	0.14466	0.11134	0.2009	0.087283	0.064171	0.065371	0.16142	0.26804	0.21567	0.21561	0.32408	-2.2542	-2.4188	-2.7292	-2.5187	-2.6167	-2.7292	-2.6583	-2.45	-2.775	-2.4833	-2.6729	-2.7417	-2.3375	-2.7792	-2.5021	-2.6312	126.164	63.313	-13.460	280.508	-45.876	80.073	237.464	99.909	98.285	98.748	87.568	-45.378	139.147	-10.470	38.243	156.267	8.0943e-05	0.0020195	0.0002625	200.86	3.2889e-06	4.9297e-06	283.84	55.488	4.0553e-06	1.2474e-05	98.02	30.375	13.351	5.5832	1.1402e-05	16.568	0.0080339	0.0094079	0.0027334	510.01	0.00010654	0.00010424	393.28	95.248	0.00010442	0.00010206	156.48	51.543	29.639	11.448	0.00010482	25.783	141.058	-23.130	120.946	-48.297	289.141	290.736	-47.513	-44.699	173.847	55.597	-43.821	-37.192	-38.684	-33.157	5.215	-33.501	-8191	255	
39965.488	1	1	0	0	0.25586	0.034012	0.29138	0.36392	0.25017	0.16515	0.222	0.31271	0.21385	0.12237	0.16029	0.40789	0.13463	0.12341	0.04281	0.15022	-2.2917	-2.5375	-2.6625	-2.5687	-2.525	-2.8042	-2.55	-2.3521	-2.8667	-2.4437	-2.6708	-2.775	-2.4938	-2.5938	-2.6625	-2.4437	4.737	251.281	211.474	274.575	104.219	-20.211	133.823	-5.020	194.156	30.334	290.958	42.473	-61.067	-32.286	-0.096	77.133	0.00014502	0.0002677	8.94e-05	197	7.1552e-06	4.4758e-06	285.42	58.356	6.1095e-06	8.8274e-06	102.52	31.741	14.608	5.7106	5.709e-06	16.86	0.0076157	0.0091261	0.0027426	501.26	0.00010029	0.00010253	396.53	97.205	9.9593e-05	0.0001018	163.53	52.612	30.5	11.639	0.00010562	25.576	255.345	256.975	288.187	-48.247	46.394	-60.164	-47.634	-44.328	74.403	287.858	-44.062	-37.449	-38.745	-33.944	177.141	-34.085	-8191	255	
39965.582	1	1	0	0	0.029946	0.19475	0.14792	0.10741	0.31524	0.34306	0.25589	0.057831	0.17087	0.095045	0.21131	0.3348	0.29787	0.37343	0.088615	0.16986	-2.3708	-2.5479	-2.2979	-2.5708	-2.4562	-2.3229	-2.6375	-2.4562	-2.7354	-2.5104	-2.5062	-2.8146	-2.5979	-2.4688	-2.5271	-2.3396	147.785	-61.022	250.465	-56.194	216.399	4.905	291.825	34.927	193.830	140.917	21.747	-59.307	291.480	-20.113	292.275	117.280	0.00019783	0.001231	0.00022124	192.37	9.3795e-06	9.3933e-06	276.56	58.079	3.0315e-06	1.0545e-05	101.36	31.79	14.059	5.6687	5.0766e-06	17.144	0.0070599	0.0088467	0.0026406	474.18	9.1607e-05	9.7285e-05	384.13	92.964	8.9672e-05	9.5828e-05	156.82	50.174	28.146	11.15	9.4881e-05	24.784	258.257	223.607	33.377	-48.063	108.587	169.806	-47.292	-44.559	20.401	171.090	-44.443	-38.162	-40.060	-34.429	292.031	-33.606	-8191	255	
39965.656	1	1	0	0	0.11939	0.17072	0.33761	0.20364	0.1991	0.14522	0.25752	0.15007	0.030956	0.15283	0.10002	0.16895	0.0877	0.14366	0.090853	0.15975	-2.3021	-2.3438	-2.3125	-2.6562	-2.3083	-2.7167	-2.7104	-2.3146	-2.7333	-2.4458	-2.4813	-2.8729	-2.525	-2.5	-2.6104	-2.3438	-52.288	68.724	138.476	15.210	18.031	-45.806	148.184	218.548	-42.527	30.591	-6.704	-28.102	52.734	285.901	190.678	34.753	0.00010752	0.0006772	0.00022109	177.37	1.3646e-05	2.7545e-06	270.37	55.842	7.5715e-06	1.0203e-05	99.35	31.42	13.658	5.6393	4.5184e-06	16.939	0.0063052	0.0082581	0.0023385	422.71	8.1054e-05	8.896e-05	363.58	85.803	7.9727e-05	8.7753e-05	148.31	47.514	26.477	10.706	8.4557e-05	23.758	241.875	-2.266	-25.644	-47.782	176.073	-28.461	-47.456	-43.850	193.352	259.986	-44.076	-37.345	-38.354	-34.538	57.711	-34.024	-8191	255	
39965.773	1	1	0	0	0.12302	0.26768	0.090409	0.20243	0.19496	0.038411	0.19047	0.25358	0.23117	0.067576	0.17832	0.19368	0.081233	0.074406	0.22207	0.052708	-2.3479	-2.4833	-2.2854	-2.7542	-2.4708	-2.5125	-2.7313	-2.3125	-2.65	-2.5167	-2.4292	-2.6521	-2.425	-2.6	-2.6167	-2.1958	231.692	-46.782	103.190	114.141	81.286	158.930	69.408	265.569	150.207	256.762	52.996	152.040	91.635	232.256	83.262	71.714	0.00010429	0.00026666	0.00018039	173.96	5.518e-06	6.5889e-06	262.32	55.411	4.2973e-06	7.986e-06	99.726	31.269	13.483	5.5954	8.0436e-06	16.998	0.0057748	0.0077679	0.0021159	394.87	7.5916e-05	8.5213e-05	352.74	82.118	7.6289e-05	8.3935e-05	144.34	45.958	25.895	10.39	7.8059e-05	23.193	210.339	-18.738	264.050	-47.632	190.528	-24.703	-47.306	-44.134	235.465	137.701	-44.081	-37.343	-38.360	-34.434	66.927	-33.721	-8191	255	
39965.871	1	1	0	0	0.083261	0.13973	0.17075	0.050229	0.10595	0.052111	0.090681	0.17061	0.21444	0.13111	0.20081	0.26469	0.20285	0.38545	0.060045	0.22271	-2.1688	-2.4625	-2.3979	-2.6312	-2.675	-2.375	-2.8542	-2.3979	-2.5438	-2.5938	-2.5	-2.7812	-2.4167	-2.375	-2.6688	-2.4917	-56.629	-29.749	227.492	228.932	91.913	186.461	221.233	207.767	268.428	141.941	113.605	187.306	128.977	115.845	180.783	109.651	0.00015952	0.00076326	0.00024774	172.33	8.5858e-06	7.891e-06	259.07	52.535	1.3061e-06	7.1896e-06	96.871	30.938	13.379	5.5832	1.1506e-05	16.954	0.0056024	0.0073227	0.0019221	372.29	7.3892e-05	7.7984e-05	339.09	77.318	7.1439e-05	7.4941e-05	135.28	44.373	24.63	9.7162	6.5628e-05	22.419	242.932	79.079	73.465	-47.542	227.196	117.357	-47.357	-43.540	146.713	96.988	-43.793	-37.372	-38.639	-34.162	69.945	-34.230	-8191	255	
39965.969	1	1	0	0	0.13617	0.088004	0.13783	0.1777	0.13496	0.22333	0.030499	0.06147	0.2511	0.1163	0.15037	0.27781	0.22994	0.31684	0.09594	0.17208	-2.1479	-2.7354	-2.4292	-2.8333	-2.7354	-2.5896	-2.9125	-2.4104	-2.6292	-2.6562	-2.4979	-2.5417	-2.5438	-2.4688	-2.6312	-2.3771	245.464	103.178	60.354	-27.705	148.325	127.332	-47.210	248.756	183.274	-19.696	66.261	55.335	72.628	8.856	-50.510	287.820	3.4493e-05	0.00076844	0.00017502	160.5	6.9732e-06	6.1729e-06	256.21	50.782	6.0228e-06	6.0312e-06	96.365	31.441	13.728	5.6838	2.6523e-06	17.056	0.0049396	0.0062329	0.0015722	337.61	6.4432e-05	6.4493e-05	321.97	72.758	6.1848e-05	6.2846e-05	128.77	43.189	23.564	9.1062	5.4157e-05	22.097	21.170	233.273	181.386	-47.867	-24.052	154.668	-47.312	-43.751	94.545	159.058	-43.695	-37.278	-39.243	-33.794	260.414	-34.446	-8191	255	
39966.090	1	1	0	0	0.19616	0.37505	0.15948	0.040712	0.23362	0.11825	0.12892	0.18448	0.18897	0.055215	0.29875	0.11368	0.15686	0.20461	0.056766	0.26004	-2.1604	-2.6979	-2.3479	-2.7146	-2.6	-2.4813	-2.6354	-2.5333	-2.5687	-2.7438	-2.4292	-2.6792	-2.6771	-2.2938	-2.7021	-2.425	11.013	216.539	-42.191	-28.017	279.860	86.924	-56.272	203.670	-45.299	153.786	251.269	257.884	6.368	181.198	54.407	-53.336	5.6464e-05	0.00022327	0.00022926	167.29	5.0482e-06	9.1206e-06	261.47	53.326	2.0255e-06	1.0657e-05	99.75	32.273	14.58	5.6767	2.1005e-06	17.127	0.004334	0.0053455	0.0013465	326.18	5.7955e-05	5.6132e-05	320.68	74.246	5.6695e-05	5.7041e-05	129.99	43.93	23.903	8.9796	5.3103e-05	22.246	278.535	-28.952	-20.856	-47.666	-9.036	-16.667	-46.820	-43.755	-2.910	67.245	-44.148	-37.281	-39.129	-34.489	98.742	-33.736	-8191	255	
39966.184	1	1	0	0	0.066822	0.21875	0.12803	0.17219	0.096669	0.38597	0.14091	0.07404	0.22503	0.056527	0.16357	0.13242	0.053499	0.22928	0.13238	0.090274	-1.9875	-2.8229	-2.1583	-2.5479	-2.6479	-2.4229	-2.7833	-2.6521	-2.5833	-2.6292	-2.5771	-2.65	-2.5604	-2.2542	-2.7812	-2.5833	12.578	102.026	102.281	-14.668	186.550	232.849	279.831	157.755	-48.165	203.199	269.287	139.075	162.425	40.281	285.296	-41.543	0.00010412	0.00034508	0.00013964	164.94	1.0815e-05	8.7819e-06	260.94	53.212	3.8994e-06	5.3842e-06	98.428	31.763	14.418	5.6543	7.5307e-06	17.117	0.0041561	0.005028	0.0013441	332.08	5.7674e-05	5.4831e-05	322.22	74.87	5.6562e-05	5.4841e-05	129.31	43.793	23.539	8.6541	5.1503e-05	21.995	95.284	113.807	43.775	-48.121	132.810	120.147	-47.131	-43.671	78.683	127.860	-43.588	-37.667	-39.289	-34.166	226.343	-33.573	-8191	255	
39966.281	1	1	0	0	0.1406	0.34719	0.056587	0.23828	0.18775	0.11892	0.030502	0.1588	0.04096	0.022856	0.27444	0.14699	0.32229	0.16907	0.34122	0.085847	-2.05	-2.75	-2.3708	-2.4604	-2.6604	-2.2958	-2.5583	-2.525	-2.3229	-2.6417	-2.3521	-2.475	-2.625	-2.2812	-2.5354	-2.6	61.066	244.926	282.037	267.342	168.162	-2.589	127.278	171.780	9.577	0.880	246.499	-20.275	290.348	112.333	161.143	60.517	5.7217e-05	0.00099685	0.00026329	163.22	7.0502e-06	8.1756e-06	254.91	51.167	4.0945e-06	4.7486e-06	95.215	31.468	14.263	5.5534	1.5543e-06	17.03	0.0038261	0.0045966	0.0012717	317.8	5.169e-05	4.847e-05	313.39	70.813	4.8791e-05	4.7959e-05	123.92	42.083	21.964	8.118	4.3955e-05	20.975	18.017	288.854	195.873	-48.080	100.047	55.854	-47.089	-43.336	12.066	288.156	-43.582	-37.053	-39.472	-34.245	-13.925	-33.902	-8191	255	
39966.375	1	1	0	0	0.12775	0.18953	0.09049	0.11375	0.2618	0.10971	0.19888	0.29503	0.15222	0.2073	0.36701	0.20961	0.10213	0.16853	0.2901	0.065526	-2.0375	-2.7938	-2.4313	-2.4521	-2.7521	-2.4958	-2.5375	-2.5021	-2.3896	-2.5812	-2.6646	-2.4646	-2.6604	-2.2479	-2.6604	-2.5208	255.153	73.164	-19.567	67.525	25.609	-59.339	23.214	-52.873	-1.140	295.716	81.239	217.018	155.080	210.696	129.951	95.511	9.21e-05	0.00031915	0.00010858	163.62	6.2747e-06	7.5196e-06	250.68	49.92	4.7213e-06	3.3951e-06	93.01	31.395	13.814	5.6163	3.5721e-06	17.19	0.0028562	0.0034035	0.00092997	266.06	3.2822e-05	3.1318e-05	291.82	63.164	3.0302e-05	3.164e-05	113.36	38.667	19.128	7.4914	3.3213e-05	20.307	248.324	122.562	74.809	-46.840	-4.631	122.101	-46.891	-43.430	141.881	248.721	-43.495	-36.793	-37.915	-34.249	221.482	-33.935	-8191	255	
39966.473	1	1	0	0	0.057249	0.10097	0.15504	0.19097	0.16028	0.11306	0.33209	0.082708	0.098679	0.055459	0.13482	0.11818	0.11021	0.21949	0.19217	0.093448	-1.9583	-2.8187	-2.4062	-2.4104	-2.7313	-2.5646	-2.5958	-2.6021	-2.3979	-2.7979	-2.5979	-2.4396	-2.8042	-2.4437	-2.375	-2.6937	173.008	274.712	1.803	-30.069	256.312	295.618	42.221	28.891	254.468	57.305	273.286	29.329	89.647	28.774	256.382	32.271	5.5503e-05	0.00023357	0.00013342	159.69	1.1455e-06	1.5243e-06	252.37	50.464	3.052e-06	5.406e-06	98.387	32.407	15.164	5.5826	2.2305e-06	16.769	0.0022167	0.002949	0.00086326	255.8	3.1498e-05	3.2762e-05	294.34	64.256	3.1207e-05	3.5031e-05	118.95	40.012	20.868	7.6597	3.5116e-05	19.954	225.353	156.784	-10.316	-47.071	290.999	136.134	-46.598	-42.717	55.500	106.334	-42.941	-37.271	-38.927	-33.109	38.704	-33.273	-8191	255	
39966.566	1	1	0	0	0.14093	0.084545	0.17149	0.12503	0.4958	0.11876	0.20111	0.3518	0.059638	0.26572	0.15981	0.12417	0.14858	0.095893	0.18301	0.22099	-2.0896	-2.3458	-2.3125	-2.4875	-2.8833	-2.3812	-2.4813	-2.5375	-2.4396	-2.6771	-2.3958	-2.4854	-2.6146	-2.3438	-2.4938	-2.6958	266.851	278.915	161.305	251.941	161.934	133.963	233.712	-9.984	49.564	100.757	159.140	201.651	281.160	37.975	5.065	237.898	8.6763e-05	0.00060446	0.00022619	172.01	2.0405e-06	4.7919e-06	259.18	52.199	1.8048e-06	4.1994e-06	96.035	31.789	15.196	5.2599	5.8517e-06	15.916	0.0022551	0.0030671	0.00085355	262.6	3.1202e-05	3.2907e-05	300.03	64.531	2.9217e-05	3.367e-05	116.23	38.576	20.355	7.2745	3.2533e-05	18.951	235.400	228.993	113.745	-46.975	141.583	14.834	-46.463	-43.133	166.586	149.202	-43.281	-37.464	-39.384	-33.177	63.754	-33.336	-8191	255	
39966.688	1	1	0	0	0.28103	0.093354	0.053869	0.031647	0.063725	0.20074	0.16219	0.11359	0.21468	0.090503	0.12103	0.34553	0.20208	0.19333	0.24441	0.14274	-1.9708	-2.8	-2.5854	-2.3625	-2.7104	-2.475	-2.4688	-2.6813	-2.4583	-2.6542	-2.6229	-2.2438	-2.7729	-2.4104	-2.5354	-2.7062	247.750	78.024	148.045	26.804	207.923	-22.405	119.957	253.394	153.464	42.161	292.342	254.997	-47.668	262.257	32.182	106.219	6.1393e-05	9.185e-05	0.000209	169.82	1.3672e-06	2.2298e-06	259.79	50.759	2.2105e-06	6.1131e-06	96.175	30.921	14.637	5.1305	8.2047e-06	15.396	0.0022042	0.0031525	0.00085481	257.78	3.1158e-05	3.3142e-05	297	62.998	2.9432e-05	3.4187e-05	116.57	38.069	20.931	7.5164	3.8161e-05	18.945	268.161	-18.025	52.029	-47.309	189.256	195.600	-46.286	-43.358	232.294	253.728	-42.482	-37.420	-38.897	-33.220	160.288	-33.165	-8191	255	
39966.785	1	1	0	0	0.087413	0.3115	0.16327	0.052538	0.35287	0.056906	0.21244	0.21999	0.1465	0.11689	0.23557	0.22274	0.18623	0.16403	0.14704	0.21784	-1.9771	-2.6229	-2.6333	-2.3333	-2.6	-2.7167	-2.4896	-2.4562	-2.3333	-2.4875	-2.5667	-2.4062	-2.7333	-2.4146	-2.4167	-2.7417	226.904	170.168	112.035	-34.164	262.416	94.277	25.590	268.237	101.252	81.937	188.382	57.902	-59.178	-56.768	-52.684	234.153	9.8445e-05	0.00080552	0.00011511	178.29	3.6041e-06	9.6015e-06	261.63	53.513	1.442e-06	4.6905e-06	94.346	28.046	12.695	4.4609	2.7682e-06	13.586	0.002956	0.0041742	0.0011389	299.92	4.672e-05	4.9348e-05	315.97	71.624	4.8669e-05	5.2782e-05	122.1	37.574	20.905	7.4123	4.6174e-05	17.685	215.232	39.059	-32.633	-47.976	133.104	224.794	-47.000	-43.422	277.686	283.526	-44.004	-37.141	-39.481	-33.354	39.796	-33.440	-8191	255	
39966.879	1	1	0	0	0.20367	0.31729	0.09455	0.060174	0.28731	0.10125	0.24701	0.078861	0.10045	0.18244	0.21228	0.17643	0.29844	0.28445	0.17504	0.15377	-1.9917	-2.3104	-2.7438	-2.4542	-2.6583	-2.5812	-2.5333	-2.6646	-2.4979	-2.5104	-2.725	-2.6646	-2.4708	-2.5417	-2.3688	-2.6063	100.384	156.763	6.208	175.830	125.400	188.298	75.914	-12.140	155.630	76.683	40.159	-0.500	-7.397	23.067	250.903	191.607	4.4999e-05	0.00048816	5.6003e-05	148.4	6.6265e-06	4.9897e-06	227.45	40.309	2.3393e-06	4.4646e-06	77.661	24.718	10.022	4.3348	4.4599e-06	13.481	0.003462	0.0044748	0.0011426	271.4	4.5815e-05	4.5259e-05	272.33	55.861	4.1435e-05	4.2967e-05	100.52	32.756	16.781	6.6798	3.7997e-05	17.103	136.183	4.553	297.355	-46.081	91.497	145.360	-46.554	-42.398	30.673	134.949	-43.344	-36.424	-36.959	-34.021	-2.421	-33.208	-8191	255	
#DATA ENDS
