BOXY.EXE: ISS Imagent and Oximeter Data Acquisition Program Version 0.80
Ascii Record File

#ACQ INFORMATION
2  Detector Channels 
16  External MUX Channels 
1  Auxiliary Channels 
5000  Waveform (CCF) Frequency (Hz)
1  Waveforms Skipped 
30  Waveforms Averaged 
1  Cycles Averaged 
16  Acquisitions per Waveform 
10.0806  Updata Rate (Hz) 

#FILE INFORMATION
TRUE -- External MUX Channel results are PARSED.
FALSE -- AC DC and Phase are NOT grouped.
TRUE -- Companion Program Settings File CREATED.
FALSE -- AC data not excluded
FALSE -- DC data not excluded
FALSE -- Phase data not excluded
FALSE -- Auxillary Chn. data not excluded
Tab delimiters

#CALIBRATION STATE
TRUE -- Waveform Calibration Values APPLIED.


#AUX CALIBRATION VALUES
Val Type	aux-1	

Term	1.0000e+00	
Factor	0.0000e+00	


#WF CALIBRATION VALUES
A = Detector Channel
Val Type	A-AC1	A-AC2	A-AC3	A-AC4	A-AC5	A-AC6	A-AC7	A-AC8	A-AC9	A-AC10	A-AC11	A-AC12	A-AC13	A-AC14	A-AC15	A-AC16	A-DC1	A-DC2	A-DC3	A-DC4	A-DC5	A-DC6	A-DC7	A-DC8	A-DC9	A-DC10	A-DC11	A-DC12	A-DC13	A-DC14	A-DC15	A-DC16	A-Ph1	A-Ph2	A-Ph3	A-Ph4	A-Ph5	A-Ph6	A-Ph7	A-Ph8	A-Ph9	A-Ph10	A-Ph11	A-Ph12	A-Ph13	A-Ph14	A-Ph15	A-Ph16	

Term	0.00000e+00	0.00000e+00	0.00000e+00	0.00000e+00	0.00000e+00	0.00000e+00	0.00000e+00	0.00000e+00	0.00000e+00	0.00000e+00	0.00000e+00	0.00000e+00	0.00000e+00	0.00000e+00	0.00000e+00	0.00000e+00	0.00000e+00	0.00000e+00	0.00000e+00	0.00000e+00	0.00000e+00	0.00000e+00	0.00000e+00	0.00000e+00	0.00000e+00	0.00000e+00	0.00000e+00	0.00000e+00	0.00000e+00	0.00000e+00	0.00000e+00	0.00000e+00	0.00000e+00	0.00000e+00	0.00000e+00	0.00000e+00	0.00000e+00	0.00000e+00	0.00000e+00	0.00000e+00	0.00000e+00	0.00000e+00	0.00000e+00	0.00000e+00	0.00000e+00	0.00000e+00	0.00000e+00	0.00000e+00	
Factor	1.00000e+00	1.00000e+00	1.00000e+00	1.00000e+00	1.00000e+00	1.00000e+00	1.00000e+00	1.00000e+00	1.00000e+00	1.00000e+00	1.00000e+00	1.00000e+00	1.00000e+00	1.00000e+00	1.00000e+00	1.00000e+00	1.00000e+00	1.00000e+00	1.00000e+00	1.00000e+00	1.00000e+00	1.00000e+00	1.00000e+00	1.00000e+00	1.00000e+00	1.00000e+00	1.00000e+00	1.00000e+00	1.00000e+00	1.00000e+00	1.00000e+00	1.00000e+00	X	X	X	X	X	X	X	X	X	X	X	X	X	X	X	X	

B = Detector Channel
Val Type	B-AC1	B-AC2	B-AC3	B-AC4	B-AC5	B-AC6	B-AC7	B-AC8	B-AC9	B-AC10	B-AC11	B-AC12	B-AC13	B-AC14	B-AC15	B-AC16	B-DC1	B-DC2	B-DC3	B-DC4	B-DC5	B-DC6	B-DC7	B-DC8	B-DC9	B-DC10	B-DC11	B-DC12	B-DC13	B-DC14	B-DC15	B-DC16	B-Ph1	B-Ph2	B-Ph3	B-Ph4	B-Ph5	B-Ph6	B-Ph7	B-Ph8	B-Ph9	B-Ph10	B-Ph11	B-Ph12	B-Ph13	B-Ph14	B-Ph15	B-Ph16	

Term	0.00000e+00	0.00000e+00	0.00000e+00	0.00000e+00	0.00000e+00	0.00000e+00	0.00000e+00	0.00000e+00	0.00000e+00	0.00000e+00	0.00000e+00	0.00000e+00	0.00000e+00	0.00000e+00	0.00000e+00	0.00000e+00	0.00000e+00	0.00000e+00	0.00000e+00	0.00000e+00	0.00000e+00	0.00000e+00	0.00000e+00	0.00000e+00	0.00000e+00	0.00000e+00	0.00000e+00	0.00000e+00	0.00000e+00	0.00000e+00	0.00000e+00	0.00000e+00	-6.63820e+01	-1.32221e+02	-1.32598e+02	-1.82128e+02	-5.54045e+01	-6.81716e+01	-1.55839e+02	-1.62015e+02	-4.79085e+01	-6.04191e+01	-1.71365e+02	-1.71126e+02	-1.82066e+02	-1.77488e+02	-4.97492e+01	-1.50542e+02	
Factor	1.73107e-05	1.54295e-04	4.51476e-05	4.38225e-01	1.60551e-06	1.62400e-06	1.61763e-01	5.30960e-02	1.05840e-06	1.60533e-06	8.42355e-02	2.85716e-02	2.33515e-02	8.60720e-03	1.42458e-06	1.24910e-02	5.84177e-06	7.47084e-06	2.07437e-06	2.24426e-01	8.03748e-08	8.19727e-08	7.87615e-02	2.75353e-02	7.88756e-08	8.23536e-08	4.22450e-02	1.44254e-02	1.22567e-02	4.50262e-03	8.00578e-08	6.30654e-03	X	X	X	X	X	X	X	X	X	X	X	X	X	X	X	X	



#DISTANCE SETTINGS
A = Detector Channel
A-1	A-2	A-3	A-4	A-5	A-6	A-7	A-8	A-9	A-10	A-11	A-12	A-13	A-14	A-15	A-16	

2.5000e+00	3.0000e+00	2.5000e+00	3.0000e+00	2.0000e+00	3.0000e+00	1.5000e+00	3.0000e+00	3.0000e+00	3.0000e+00	3.0000e+00	3.0000e+00	3.0000e+00	3.0000e+00	1.5000e+00	3.0000e+00	

B = Detector Channel
B-1	B-2	B-3	B-4	B-5	B-6	B-7	B-8	B-9	B-10	B-11	B-12	B-13	B-14	B-15	B-16	

1.0000e+01	1.0000e+01	1.0000e+01	1.4400e+00	1.0000e+01	1.0000e+01	1.5100e+00	1.9400e+00	1.0000e+01	1.0000e+01	1.9900e+00	2.4900e+00	2.4100e+00	2.9000e+00	1.0000e+01	2.9800e+00	




#DATA BEGINS
time	group	step	mark	flag	A-AC1	A-AC2	A-AC3	A-AC4	A-AC5	A-AC6	A-AC7	A-AC8	A-AC9	A-AC10	A-AC11	A-AC12	A-AC13	A-AC14	A-AC15	A-AC16	A-DC1	A-DC2	A-DC3	A-DC4	A-DC5	A-DC6	A-DC7	A-DC8	A-DC9	A-DC10	A-DC11	A-DC12	A-DC13	A-DC14	A-DC15	A-DC16	A-Ph1	A-Ph2	A-Ph3	A-Ph4	A-Ph5	A-Ph6	A-Ph7	A-Ph8	A-Ph9	A-Ph10	A-Ph11	A-Ph12	A-Ph13	A-Ph14	A-Ph15	A-Ph16	B-AC1	B-AC2	B-AC3	B-AC4	B-AC5	B-AC6	B-AC7	B-AC8	B-AC9	B-AC10	B-AC11	B-AC12	B-AC13	B-AC14	B-AC15	B-AC16	B-DC1	B-DC2	B-DC3	B-DC4	B-DC5	B-DC6	B-DC7	B-DC8	B-DC9	B-DC10	B-DC11	B-DC12	B-DC13	B-DC14	B-DC15	B-DC16	B-Ph1	B-Ph2	B-Ph3	B-Ph4	B-Ph5	B-Ph6	B-Ph7	B-Ph8	B-Ph9	B-Ph10	B-Ph11	B-Ph12	B-Ph13	B-Ph14	B-Ph15	B-Ph16	aux-1	digaux	

40411.180	1	1	0	256	0.18814	0.326	0.22422	0.20965	0.15175	0.27559	0.18437	0.27521	0.29045	0.15733	0.16674	0.063925	0.12928	0.12226	0.021642	0.14729	-1.9583	-2.4146	-2.7875	-2.4542	-2.7708	-2.5625	-2.5021	-2.8479	-2.4479	-2.4813	-2.7	-2.4771	-2.7333	-2.4667	-2.3979	-2.8875	205.293	168.667	278.087	78.188	337.079	252.887	163.457	39.814	143.523	45.752	175.952	281.919	71.335	264.420	216.792	154.573	3.5051e-05	0.00011823	4.3331e-05	73.192	1.1558e-06	2.0857e-06	101.21	17.09	7.6861e-07	1.7388e-06	30.718	10.678	5.3876	2.044	1.8156e-06	4.8842	0.00028588	0.00038851	9.4215e-05	86.166	3.9789e-06	3.9636e-06	111	19.158	3.8697e-06	4.0283e-06	34.11	12.091	6.3855	2.3904	3.6068e-06	5.4942	229.937	172.432	79.126	39.054	263.611	256.776	39.376	46.175	154.403	103.934	44.548	50.949	51.479	54.324	221.721	53.458	-8191	255	
40411.277	1	1	0	0	0.33779	0.056465	0.25339	0.099951	0.24218	0.24768	0.25317	0.2244	0.10702	0.077198	0.048384	0.16473	0.057349	0.13001	0.033406	0.14136	-2.2333	-2.5792	-2.7104	-2.3937	-2.6	-2.7354	-2.4313	-2.6896	-2.575	-2.7958	-2.6604	-2.3625	-2.5396	-2.6896	-2.2562	-2.8396	185.507	105.928	143.286	30.381	271.717	62.079	377.282	210.413	223.088	318.704	313.373	48.937	116.114	227.237	185.573	164.596	5.0043e-05	0.00015477	4.3241e-05	74.061	1.8165e-06	7.3899e-07	102.39	17.34	5.752e-07	1.3863e-06	30.488	10.693	5.4659	2.0121	3.0738e-07	4.9155	0.0002938	0.00040739	9.4665e-05	86.739	4.0233e-06	3.8741e-06	110.91	19.256	3.8974e-06	3.8708e-06	34.256	12.131	6.419	2.3873	3.5611e-06	5.5325	197.015	281.584	182.410	38.924	158.494	180.264	39.396	45.810	209.160	255.901	45.277	51.026	50.929	54.935	238.108	53.159	-8191	255	
40411.375	1	1	0	0	0.43281	0.10618	0.31606	0.2219	0.057584	0.010686	0.20974	0.05398	0.080605	0.14109	0.16789	0.17775	0.16482	0.27595	0.19288	0.31113	-2.1104	-2.5167	-2.55	-2.2625	-2.725	-2.7562	-2.5083	-2.8688	-2.5896	-2.5625	-2.5125	-2.4437	-2.5292	-2.4917	-2.4625	-2.8042	254.097	157.748	200.840	218.503	131.188	218.641	237.977	86.782	36.139	241.386	64.418	30.049	339.604	145.992	161.762	261.495	1.6745e-05	0.00012818	2.7893e-05	73.739	2.0014e-07	5.9189e-07	102.13	17.132	9.514e-07	1.9902e-06	30.192	10.932	5.4311	2.0782	1.6803e-06	5.0653	0.0002927	0.00037525	9.5265e-05	86.568	4.0254e-06	3.7511e-06	110.72	19.447	3.8077e-06	3.7226e-06	34.311	12.306	6.434	2.4204	3.6283e-06	5.6279	255.928	111.620	163.256	40.187	368.173	73.609	39.447	45.811	170.581	109.258	44.902	51.236	51.194	54.419	213.627	53.001	-8191	255	
40411.492	1	1	0	0	0.091194	0.11248	0.046409	0.060421	0.10658	0.039799	0.1568	0.16939	0.11394	0.34032	0.18914	0.05832	0.14048	0.092938	0.27536	0.23904	-2.2021	-2.4938	-2.7687	-2.3187	-2.6333	-2.7146	-2.4729	-2.9208	-2.6167	-2.3688	-2.7938	-2.6063	-2.5062	-2.775	-2.4688	-2.7625	353.462	34.918	321.320	179.402	266.985	248.271	250.062	296.778	308.450	371.557	78.194	305.856	78.912	143.257	223.423	261.868	2.1734e-05	0.00037719	2.1152e-05	73.486	1.9778e-06	1.9072e-06	102.37	17.18	7.5843e-07	1.2017e-06	30.992	10.944	5.4793	2.1099	1.9907e-06	5.1012	0.00029195	0.0003779	9.9898e-05	87.763	3.9653e-06	3.7916e-06	111.65	19.574	3.7785e-06	3.634e-06	34.712	12.373	6.4733	2.4388	3.6813e-06	5.6686	210.653	91.000	190.302	39.581	322.232	103.936	39.715	46.070	50.239	190.352	44.683	50.035	50.614	54.745	189.625	53.274	-8191	255	
40411.590	1	1	0	0	0.3534	0.092901	0.24003	0.10878	0.046029	0.0085274	0.28569	0.37507	0.090238	0.18287	0.13355	0.26365	0.19166	0.047996	0.17793	0.048385	-1.9146	-2.4708	-2.6083	-2.4208	-2.5979	-2.7771	-2.4188	-2.6625	-2.6312	-2.5187	-2.8833	-2.4521	-2.5375	-2.7271	-2.3875	-2.6875	274.795	109.849	201.117	172.328	219.998	316.278	217.570	135.191	366.108	314.034	274.257	269.478	244.483	247.431	301.551	233.111	4.4106e-05	0.00024395	6.8111e-05	73.03	6.1875e-07	1.2908e-06	101.24	16.768	5.2024e-07	2.1496e-07	30.496	10.905	5.3611	2.0455	1.3666e-06	4.8709	0.0002899	0.00034722	0.00010394	87.116	3.7932e-06	3.8203e-06	111.19	19.499	3.6613e-06	3.7136e-06	34.348	12.231	6.359	2.4077	3.8419e-06	5.5367	215.546	378.683	116.071	39.816	66.708	253.053	39.401	46.443	267.296	265.923	43.928	50.159	50.437	55.362	279.248	52.776	-8191	255	
40411.660	1	1	0	0	0.15678	0.22637	0.20001	0.24326	0.20101	0.10642	0.2032	0.14704	0.1468	0.17389	0.28445	0.094334	0.14198	0.2289	0.10546	0.15554	-2.2292	-2.4104	-2.6896	-2.4104	-2.5021	-2.925	-2.4104	-2.5729	-2.7521	-2.5583	-2.6417	-2.7146	-2.625	-2.8229	-2.4292	-2.6063	280.125	143.663	364.679	287.775	265.081	346.231	186.771	33.610	350.768	72.348	61.373	65.062	189.292	275.749	121.157	277.225	4.6374e-05	8.984e-05	9.861e-05	72.108	1.4752e-06	8.5595e-07	101.35	16.94	7.1652e-07	1.2669e-06	30.409	10.723	5.3152	2.0264	8.4725e-07	4.8914	0.00027937	0.00033497	0.00011563	87.222	3.573e-06	3.9116e-06	111.13	19.45	3.5621e-06	3.6888e-06	34.292	12.142	6.3575	2.398	3.7654e-06	5.5134	225.518	149.005	69.027	39.946	139.572	313.945	39.472	45.902	305.307	129.971	44.540	49.709	51.187	54.175	332.832	54.247	-8191	255	
40411.781	1	1	0	0	0.049999	0.18622	0.16455	0.16238	0.3016	0.16134	0.15784	0.15931	0.067954	0.18111	0.242	0.14772	0.26895	0.06497	0.24873	0.15783	-2.1979	-2.4083	-2.8271	-2.475	-2.375	-2.7667	-2.5917	-2.5333	-2.7542	-2.3292	-2.6833	-2.6917	-2.2896	-2.7271	-2.55	-2.6396	237.931	231.312	211.539	282.671	222.163	222.809	31.368	38.411	387.469	153.608	258.476	383.108	332.224	357.804	95.589	305.381	4.0263e-05	0.00016045	8.1534e-06	75.203	1.7595e-06	2.6535e-06	102.82	16.571	6.4121e-07	2.4119e-06	30.451	10.887	5.4012	2.0507	2.4495e-07	4.9156	0.00027144	0.00034803	0.00011072	87.152	3.461e-06	3.9986e-06	111.19	19.302	3.5151e-06	3.814e-06	34.502	12.204	6.3371	2.4199	3.7631e-06	5.5348	199.304	87.650	196.644	40.095	312.395	365.391	39.675	46.247	119.478	192.760	43.788	51.439	50.832	54.893	201.829	52.722	-8191	255	
40411.879	1	1	0	0	0.17712	0.32713	0.10366	0.082813	0.20471	0.16558	0.13629	0.11783	0.10932	0.34622	0.23557	0.045708	0.068027	0.16461	0.23356	0.10619	-2.2938	-2.4833	-2.8125	-2.5104	-2.6021	-2.7542	-2.3854	-2.5583	-2.5604	-2.6083	-2.7458	-2.6375	-2.4021	-2.6792	-2.6063	-2.6937	379.687	96.371	373.034	373.091	355.422	260.011	60.648	123.293	241.504	68.033	88.547	94.275	196.883	295.105	66.268	292.010	4.335e-05	0.00014388	9.6374e-05	73.29	1.4624e-06	1.0681e-06	102.48	17.053	6.7307e-07	1.5441e-06	30.941	11.019	5.5397	2.0792	1.0392e-07	4.9616	0.00027192	0.00034118	0.00011445	86.302	3.5348e-06	3.9528e-06	111.74	19.372	3.6143e-06	3.7756e-06	34.745	12.279	6.3393	2.4583	3.652e-06	5.5586	249.466	323.789	79.019	39.429	116.428	161.072	39.602	45.895	228.463	138.210	44.671	50.488	51.096	54.312	316.812	54.104	-8191	255	
40411.973	1	1	0	0	0.056912	0.27905	0.12688	0.23382	0.037354	0.1401	0.18978	0.027047	0.16164	0.18426	0.058323	0.38896	0.086541	0.17748	0.14679	0.19508	-2.325	-2.2812	-2.5708	-2.7188	-2.5438	-2.8167	-2.6021	-2.3604	-2.8292	-2.4	-2.525	-2.6167	-2.4271	-2.6521	-2.4813	-2.4375	115.202	236.796	216.070	197.573	256.228	35.476	278.655	153.251	59.425	207.211	321.246	185.330	313.656	234.851	102.511	324.872	4.2127e-05	0.00012986	2.7533e-05	75.029	1.3182e-06	1.7293e-06	101.05	16.8	1.4691e-06	1.0216e-06	30.728	10.818	5.4063	2.0129	1.7979e-06	4.8341	0.00028138	0.00034437	0.00010544	86.652	3.5616e-06	3.8872e-06	110.72	19.274	3.6626e-06	3.8018e-06	34.147	12.121	6.2949	2.4136	3.5674e-06	5.456	198.075	35.453	193.215	39.742	251.597	177.814	39.459	45.232	151.331	340.228	45.084	50.285	51.230	54.566	268.297	53.062	-8191	255	
40412.070	1	1	0	0	0.32689	0.3548	0.19154	0.15005	0.1422	0.17324	0.096137	0.047159	0.23228	0.10637	0.19446	0.22695	0.26298	0.17085	0.11414	0.25667	-2.2396	-2.5146	-2.5792	-2.6896	-2.3208	-2.7313	-2.4167	-2.425	-2.7812	-2.6292	-2.5458	-2.7438	-2.5417	-2.6188	-2.6458	-2.4375	50.693	152.653	42.257	150.849	271.392	269.004	300.605	279.679	73.139	37.977	374.099	375.936	119.986	205.211	45.598	153.765	4.5253e-05	9.9054e-05	5.2634e-05	73.514	2.035e-06	1.306e-06	102.11	16.796	8.953e-07	2.9845e-06	30.868	10.687	5.422	1.9991	9.7621e-07	4.8609	0.00028704	0.00033186	0.00010205	86.499	3.6006e-06	3.8864e-06	110.82	19.167	3.7998e-06	3.6361e-06	34.264	12.119	6.335	2.4121	3.3326e-06	5.4726	198.524	68.419	66.176	38.740	231.814	261.128	40.078	46.336	173.750	198.246	43.943	50.570	51.110	55.381	326.437	53.650	-8191	255	
40412.191	1	1	0	0	0.10253	0.06412	0.22135	0.1684	0.17126	0.11564	0.20925	0.19954	0.11405	0.17226	0.080159	0.030989	0.12669	0.042503	0.21632	0.029657	-2.2833	-2.3792	-2.4396	-2.5625	-2.3625	-2.6167	-2.5938	-2.2062	-2.6854	-2.5875	-2.5542	-2.7083	-2.3937	-2.6667	-2.7417	-2.3958	153.954	85.366	190.765	61.625	311.195	55.298	94.833	38.072	177.401	298.186	246.441	175.008	386.433	302.774	162.945	275.131	1.6934e-05	8.8408e-05	3.618e-05	73.323	2.4989e-06	1.2148e-06	101.42	16.781	1.2491e-06	3.5627e-07	30.262	10.69	5.3363	2.0276	5.8372e-07	4.9021	0.00028152	0.00032872	9.4258e-05	86.187	3.6232e-06	3.776e-06	110.78	19.178	4.2098e-06	3.622e-06	34.124	12.209	6.3203	2.4125	3.416e-06	5.5056	206.780	169.838	121.357	38.355	167.844	210.840	39.726	46.068	295.628	149.894	44.590	49.864	50.992	53.291	85.523	52.941	-8191	255	
40412.285	1	1	0	0	0.12061	0.069404	0.35066	0.087943	0.24786	0.22962	0.12036	0.037547	0.13921	0.2079	0.21177	0.11302	0.14646	0.1185	0.12641	0.16108	-2.2188	-2.5125	-2.3146	-2.6021	-2.6583	-2.5208	-2.6937	-2.4479	-2.6667	-2.425	-2.4375	-2.7875	-2.4646	-2.4479	-2.6792	-2.5021	377.089	136.261	65.148	226.559	199.342	330.184	49.804	376.575	202.782	243.819	92.988	84.396	385.196	67.862	58.199	182.759	3.2691e-05	0.00015951	5.1827e-05	72.64	2.0968e-06	1.1571e-06	101.6	17.05	1.3631e-06	7.2404e-07	30.782	10.83	5.4263	2.0781	2.4742e-06	4.9572	0.00028134	0.00032595	9.9271e-05	86.88	3.5847e-06	3.5682e-06	111.24	19.327	3.9862e-06	3.5352e-06	34.526	12.29	6.3853	2.442	3.6061e-06	5.5784	213.550	210.565	141.741	39.602	179.989	255.059	40.297	45.665	296.963	168.895	44.850	50.128	50.625	54.367	251.567	53.314	-8191	255	
40412.359	1	1	0	0	0.099386	0.066603	0.19546	0.29299	0.18393	0.171	0.18972	0.086496	0.092715	0.09086	0.14484	0.12133	0.20739	0.070705	0.054186	0.12117	-2.1813	-2.5812	-2.5146	-2.5104	-2.4188	-2.3667	-2.7167	-2.4208	-2.7438	-2.7125	-2.2979	-2.7146	-2.4	-2.5375	-2.6667	-2.4833	227.042	166.945	164.381	285.990	195.839	270.124	254.229	81.757	314.927	81.167	360.937	61.905	260.320	293.819	31.950	90.219	5.5255e-05	0.00023908	2.7875e-05	73.545	8.0754e-07	1.0179e-06	101.83	16.807	1.5094e-06	1.705e-06	30.116	10.667	5.3018	2.0347	1.8332e-07	4.9254	0.00028734	0.00032045	9.4496e-05	88.549	3.6656e-06	3.527e-06	111.03	19.357	4.2225e-06	3.5014e-06	33.957	12.203	6.2983	2.405	3.7177e-06	5.4949	203.491	92.675	104.929	40.060	28.288	273.717	39.854	45.469	296.164	148.173	44.643	50.765	51.194	54.427	231.863	52.735	-8191	255	
40412.453	1	1	0	0	0.35333	0.056295	0.23671	0.078319	0.0498	0.13413	0.18903	0.080433	0.17759	0.082956	0.16212	0.21254	0.31091	0.010601	0.13323	0.11825	-2.0979	-2.6813	-2.275	-2.6896	-2.5146	-2.4562	-2.6937	-2.4875	-2.6729	-2.7458	-2.3063	-2.6729	-2.6396	-2.5375	-2.7021	-2.525	237.775	225.215	257.571	65.981	137.817	381.953	274.985	173.382	88.995	64.890	205.731	55.999	330.398	357.076	184.858	352.264	3.3527e-05	0.00028191	3.4243e-05	74.811	2.7405e-06	6.1792e-07	101.48	16.963	1.4738e-06	1.1827e-06	30.501	10.876	5.4509	2.069	2.8087e-06	4.9562	0.00028609	0.00032612	9.3472e-05	88.846	3.6823e-06	3.6082e-06	111.24	19.315	3.9589e-06	3.6579e-06	34.305	12.287	6.3245	2.4127	3.9679e-06	5.5114	194.603	292.711	65.355	39.600	167.287	285.185	39.473	45.427	241.296	302.387	45.209	50.063	51.139	55.007	189.501	53.503	-8191	255	
40412.574	1	1	0	0	0.18713	0.1781	0.12286	0.21823	0.054969	0.095681	0.11477	0.20516	0.091754	0.12989	0.12807	0.095717	0.04109	0.14365	0.22165	0.092217	-2.1437	-2.7292	-2.4208	-2.6021	-2.6604	-2.3292	-2.7917	-2.5938	-2.5208	-2.7313	-2.2729	-2.5854	-2.5396	-2.3438	-2.6604	-2.3458	349.025	87.898	105.549	381.028	303.810	66.336	126.939	120.452	342.367	230.766	375.748	286.430	40.146	108.156	271.797	37.061	4.1092e-05	7.1788e-05	5.3406e-05	73.86	9.0765e-07	2.3871e-06	104.3	17.166	2.6027e-07	4.2073e-07	31.034	10.987	5.599	2.0845	9.1496e-07	4.9988	0.00027601	0.00033669	9.5166e-05	88.701	3.583e-06	3.6425e-06	112.26	19.314	4.0304e-06	3.8082e-06	34.581	12.299	6.3804	2.4159	4.2227e-06	5.5909	239.258	122.862	176.802	40.651	216.846	123.759	39.604	46.037	303.184	171.362	45.011	50.491	50.531	55.130	63.586	53.449	-8191	255	
40412.668	1	1	0	0	0.1001	0.2443	0.10639	0.17516	0.24313	0.14285	0.20831	0.17923	0.18851	0.11812	0.089221	0.22281	0.23283	0.1422	0.13819	0.12795	-2.0167	-2.6833	-2.5542	-2.5875	-2.5625	-2.3312	-2.7604	-2.5021	-2.4979	-2.7167	-2.3792	-2.6208	-2.65	-2.3896	-2.7125	-2.625	96.722	107.845	148.118	350.253	64.584	206.828	355.338	279.574	37.247	156.221	308.930	315.376	215.602	304.994	326.785	230.714	1.8053e-05	2.0563e-05	3.3353e-05	74.359	3.6823e-06	5.0116e-07	104.58	17.466	1.6321e-06	6.309e-07	31.25	11.143	5.5947	2.1129	1.3064e-06	5.0477	0.00027719	0.00035323	9.9487e-05	89.406	3.6015e-06	3.8182e-06	112.68	19.503	3.7928e-06	4.0561e-06	34.647	12.384	6.4116	2.4401	4.4257e-06	5.5951	214.046	160.319	295.323	41.118	240.144	212.599	39.863	45.884	165.528	143.463	44.476	50.596	50.625	54.292	375.667	53.557	-8191	255	
40412.766	1	1	0	0	0.086444	0.049305	0.070634	0.20574	0.10442	0.15656	0.14729	0.14652	0.12906	0.19476	0.20453	0.066927	0.15954	0.16531	0.18027	0.22292	-2.2417	-2.8083	-2.3812	-2.5271	-2.4333	-2.5062	-2.6667	-2.4854	-2.3396	-2.9917	-2.4062	-2.525	-2.6896	-2.4042	-2.7583	-2.7167	281.632	62.448	384.090	262.844	148.593	357.788	332.526	145.902	268.450	224.593	91.255	255.821	127.646	144.485	128.416	346.226	2.4021e-05	0.00023863	5.7331e-05	74.152	8.5414e-07	1.8111e-06	104.19	17.306	1.9608e-06	6.2987e-07	31.132	10.882	5.5756	2.0703	3.9193e-06	4.9729	0.00027151	0.00036881	9.8061e-05	88.141	3.6696e-06	3.8389e-06	112.06	19.383	4.0823e-06	4.1216e-06	34.495	12.175	6.3769	2.402	4.2347e-06	5.4914	211.051	120.771	234.996	39.052	219.608	251.307	40.345	46.652	246.080	103.164	45.144	50.700	50.717	54.549	174.818	53.627	-8191	255	
40412.887	1	1	0	0	0.29656	0.20317	0.21519	0.24715	0.17067	0.22436	0.038679	0.34575	0.25437	0.20041	0.06952	0.058032	0.030349	0.088031	0.18415	0.25438	-2.0062	-2.5417	-2.3312	-2.6396	-2.6	-2.5354	-2.5396	-2.5062	-2.2604	-2.7646	-2.4333	-2.6	-2.5708	-2.3187	-2.7104	-2.5104	207.349	93.075	361.796	75.795	38.315	277.973	285.891	240.929	261.447	121.656	244.443	351.997	183.880	322.591	178.960	120.137	2.9898e-05	6.9072e-05	2.5003e-05	72.487	2.8336e-06	2.08e-06	102.4	17.131	4.7895e-07	1.4569e-06	30.666	10.825	5.5144	2.0639	2.3804e-06	4.9405	0.00028501	0.00037673	9.6285e-05	87.618	3.8434e-06	3.9038e-06	111.36	19.251	3.7099e-06	4.268e-06	34.165	12.14	6.3843	2.4082	4.3541e-06	5.4542	179.215	315.713	383.006	39.075	262.122	209.609	39.815	46.481	188.233	253.348	45.100	51.112	51.425	54.584	94.238	53.378	-8191	255	
40412.957	1	1	0	0	0.080723	0.2971	0.37542	0.23968	0.13513	0.057475	0.13307	0.11488	0.022139	0.027251	0.13422	0.033594	0.25825	0.20675	0.088243	0.076493	-1.9021	-2.7354	-2.5396	-2.4688	-2.7729	-2.3979	-2.6479	-2.6875	-2.5375	-2.7812	-2.4875	-2.6146	-2.7521	-2.4188	-2.6708	-2.7396	115.706	207.498	54.992	247.882	260.078	371.314	316.044	50.947	196.928	299.022	72.378	277.333	45.073	135.392	286.685	108.796	2.8557e-05	0.00019551	5.9464e-05	74.979	2.0263e-06	1.2334e-06	102.95	17.438	1.1709e-06	1.1806e-06	31.607	10.992	5.6379	2.0711	3.9385e-07	5.0095	0.00028341	0.0003755	9.3459e-05	88.001	3.8124e-06	3.8744e-06	111.15	19.441	3.7341e-06	4.4742e-06	34.456	12.232	6.447	2.3982	3.8196e-06	5.5358	221.960	87.016	371.615	41.116	162.814	202.191	40.209	45.662	332.696	93.532	45.242	50.497	50.786	55.057	278.853	54.044	-8191	255	
40413.055	1	1	0	0	0.2061	0.037814	0.077759	0.26182	0.13544	0.17393	0.17119	0.031702	0.40864	0.1299	0.061199	0.068901	0.18556	0.071098	0.0953	0.21174	-1.9375	-2.6521	-2.4313	-2.2896	-2.8187	-2.5	-2.6333	-2.5938	-2.4854	-2.7083	-2.5062	-2.4667	-2.8	-2.5417	-2.7396	-2.7375	354.115	31.120	124.608	212.203	203.333	306.774	130.369	241.562	348.147	68.904	258.332	319.642	127.806	48.033	195.459	111.100	2.2847e-05	0.0001174	3.587e-05	73.279	1.5549e-06	2.6939e-06	104.83	17.431	1.2162e-06	1.3463e-06	31.291	10.9	5.4205	2.0895	9.4079e-07	4.9981	0.00028105	0.00036234	8.9228e-05	88.227	3.9305e-06	3.8314e-06	111.98	19.537	3.6871e-06	4.334e-06	34.461	12.229	6.3838	2.3988	4.128e-06	5.5374	222.080	205.927	110.804	38.771	161.469	133.309	39.627	46.079	273.547	251.282	45.226	51.198	50.655	54.126	303.639	53.518	-8191	255	
40413.176	1	1	0	0	0.19729	0.17683	0.19521	0.18514	0.15446	0.029071	0.19532	0.18822	0.087257	0.27867	0.0777	0.085546	0.12291	0.28313	0.13477	0.058423	-1.9792	-2.775	-2.5083	-2.3688	-2.6792	-2.5	-2.3688	-2.7062	-2.3917	-2.625	-2.6104	-2.3729	-2.7354	-2.575	-2.4583	-2.7812	61.251	260.823	365.262	333.581	348.849	77.246	199.031	104.132	170.912	263.181	170.675	58.840	296.559	228.494	375.181	225.977	4.2153e-05	9.8292e-05	3.3379e-05	73.886	1.6605e-06	8.2719e-07	103.5	17.174	1.648e-06	1.4153e-06	30.501	10.754	5.4121	2.029	7.7501e-07	4.7608	0.00028852	0.00035533	9.3921e-05	87.039	4.1339e-06	3.6469e-06	111.28	19.364	3.7826e-06	4.3975e-06	34.135	12.065	6.3287	2.3606	3.8508e-06	5.427	226.697	173.571	235.836	40.554	209.120	343.731	39.711	46.002	178.875	213.377	45.113	50.216	50.703	54.310	326.357	52.552	-8191	255	
40413.270	1	1	0	0	0.086768	0.072926	0.12964	0.44347	0.094108	0.045686	0.074523	0.057959	0.16906	0.1123	0.16167	0.18771	0.14445	0.14847	0.017988	0.079631	-1.9708	-2.6042	-2.5021	-2.1521	-2.5896	-2.4688	-2.4729	-2.775	-2.4271	-2.7292	-2.6583	-2.3937	-2.6958	-2.4875	-2.3104	-2.8812	326.505	300.965	352.734	329.882	198.054	69.361	188.357	200.007	313.965	294.130	117.057	348.912	332.521	237.554	52.374	81.929	5.4475e-05	0.00016663	5.3967e-05	73.837	1.3848e-06	7.8891e-07	101.02	16.736	5.2929e-07	2.4952e-06	30.187	10.571	5.2699	1.9957	6.9933e-07	4.8528	0.00028335	0.00034865	9.4911e-05	87.028	4.4407e-06	3.5798e-06	110.17	19.237	3.6312e-06	3.9465e-06	34.009	12.06	6.2666	2.3318	4.0848e-06	5.4423	160.995	267.111	135.086	39.947	199.519	103.107	39.807	46.138	103.908	273.191	44.039	50.707	51.112	54.190	63.694	53.254	-8191	255	
40413.367	1	1	0	0	0.14574	0.14615	0.051219	0.19713	0.088183	0.12426	0.3264	0.17089	0.25625	0.16826	0.11201	0.095372	0.39051	0.17711	0.1791	0.19856	-1.9167	-2.5708	-2.5646	-2.3438	-2.7667	-2.6875	-2.2833	-2.6021	-2.4042	-2.5729	-2.5687	-2.4813	-2.7208	-2.5479	-2.4208	-2.85	134.159	359.552	319.854	329.251	101.719	248.770	128.980	28.494	217.900	153.282	43.889	175.502	154.987	119.901	269.184	44.120	4.6403e-05	0.00020364	5.2464e-05	72.351	9.2802e-07	1.0693e-06	100.56	16.796	3.177e-07	1.3869e-06	30.335	10.744	5.3962	2.0582	1.8801e-06	4.8471	0.00027293	0.00033569	9.5097e-05	86.492	4.0919e-06	3.5482e-06	110.42	19.237	3.5078e-06	4.1036e-06	34.298	12.131	6.2922	2.3653	3.7667e-06	5.522	196.422	260.643	375.647	40.465	350.278	109.700	39.989	45.530	276.852	338.210	44.136	50.834	50.680	54.195	165.736	53.534	-8191	255	
40413.488	1	1	0	0	0.15472	0.041166	0.17696	0.052695	0.16239	0.089441	0.25312	0.10927	0.12681	0.11492	0.14777	0.30401	0.2012	0.20449	0.1556	0.15521	-2.1	-2.3021	-2.7208	-2.3958	-2.7021	-2.7708	-2.4896	-2.6937	-2.5833	-2.6167	-2.8292	-2.5312	-2.5646	-2.6104	-2.3146	-2.5979	233.670	239.602	95.228	35.870	183.988	148.104	87.386	146.847	310.401	358.886	240.245	194.521	253.231	339.277	305.718	118.292	4.3579e-05	0.00019664	8.6834e-05	74.187	7.059e-07	2.0546e-06	102.26	17.234	1.4606e-07	1.1431e-06	30.841	10.683	5.4321	2.0487	3.2023e-07	4.9021	0.00026774	0.00033276	0.00010084	87.388	4.0827e-06	3.6796e-06	111.2	19.402	3.4603e-06	4.0617e-06	34.604	12.158	6.3394	2.3882	3.7664e-06	5.5504	219.765	109.631	177.349	40.541	202.549	217.690	39.012	45.643	275.400	83.854	45.040	49.995	51.293	53.905	133.257	53.106	-8191	255	
40413.559	1	1	0	0	0.12706	0.10878	0.10102	0.16882	0.075873	0.21062	0.094745	0.1159	0.22915	0.1012	0.17616	0.067991	0.12266	0.28854	0.29323	0.14306	-2.0687	-2.5229	-2.8208	-2.3625	-2.6771	-2.6125	-2.4083	-2.6896	-2.3917	-2.3521	-2.5833	-2.5125	-2.4521	-2.7687	-2.5229	-2.7396	352.582	226.993	168.442	97.998	277.475	64.022	226.671	91.222	251.151	222.032	281.781	86.676	330.454	160.139	327.406	232.268	5.5792e-05	0.00032159	4.6138e-05	73.292	8.2409e-07	1.0354e-06	102.26	17.004	1.1326e-06	2.2911e-06	30.348	10.634	5.2994	2.0306	1.572e-06	4.8787	0.00026766	0.00034437	0.00010273	87.331	3.8848e-06	3.8032e-06	111.47	19.329	3.5363e-06	4.2941e-06	34.287	12.12	6.2907	2.3708	3.7552e-06	5.4897	207.404	46.518	169.154	38.837	135.923	333.104	39.668	46.072	262.974	72.163	43.676	50.631	51.205	54.264	285.378	53.492	-8191	255	
40413.656	1	1	0	0	0.20092	0.11962	0.2902	0.058342	0.22046	0.17432	0.15881	0.11767	0.15066	0.12241	0.06184	0.10759	0.1427	0.35818	0.047273	0.16095	-2.0938	-2.3167	-2.6813	-2.3167	-2.5583	-2.7354	-2.2375	-2.6458	-2.6083	-2.375	-2.6271	-2.5062	-2.5187	-2.8271	-2.2958	-2.7562	356.744	155.245	65.714	70.147	271.856	320.414	342.862	296.025	224.053	383.967	90.623	280.741	358.379	35.346	95.607	202.448	2.76e-05	0.00019766	3.5344e-05	72.495	2.8892e-06	1.1787e-06	100.71	16.769	1.3629e-06	6.8419e-07	30.097	10.568	5.407	2.0228	4.0499e-07	4.8617	0.0002806	0.00034738	0.00010159	86.371	4.1381e-06	3.9663e-06	110.65	19.174	3.5788e-06	3.9324e-06	34.392	12.042	6.2818	2.3731	3.688e-06	5.4988	183.201	179.764	67.054	38.841	203.047	192.315	39.406	46.045	237.779	169.105	44.720	50.085	50.079	54.713	157.849	52.825	-8191	255	
40413.750	1	1	0	0	0.1175	0.3832	0.28042	0.2404	0.15361	0.30468	0.11615	0.1182	0.10697	0.3506	0.26149	0.13135	0.34288	0.073006	0.066579	0.045491	-2.2208	-2.3979	-2.6625	-2.4417	-2.5333	-2.7375	-2.2021	-2.6208	-2.6375	-2.5187	-2.7062	-2.5979	-2.4375	-2.6604	-2.4813	-2.6625	385.493	110.964	291.020	294.871	247.685	224.172	66.755	288.885	193.978	175.055	38.729	43.592	271.035	61.763	237.114	357.980	2.5037e-05	0.00015776	3.4129e-05	71.52	3.2912e-06	3.0261e-06	101.8	16.88	3.2131e-07	1.39e-06	29.683	10.772	5.3013	2.0298	2.2125e-06	4.8648	0.0002751	0.00035499	0.00010129	86.349	4.0055e-06	3.9595e-06	110.64	19.18	3.7274e-06	3.8583e-06	34.494	12.077	6.299	2.3829	3.5764e-06	5.5038	185.882	128.620	299.396	39.902	237.943	233.373	39.766	45.954	280.623	81.485	44.206	50.155	50.770	53.969	179.187	52.996	-8191	255	
40413.848	1	1	0	0	0.20608	0.12218	0.31944	0.05182	0.081085	0.13414	0.12381	0.30834	0.058791	0.24491	0.18393	0.11941	0.29094	0.12822	0.17869	0.11744	-2.2271	-2.45	-2.6417	-2.4688	-2.25	-2.7958	-2.625	-2.6104	-2.8417	-2.3583	-2.4833	-2.2521	-2.4229	-2.7146	-2.525	-2.5563	35.416	284.201	212.236	69.721	358.190	216.441	369.075	111.520	100.744	254.335	328.485	321.725	313.736	198.548	328.925	376.948	2.749e-05	6.9273e-05	4.3987e-05	72.085	3.6204e-07	1.1317e-06	101.36	17.014	1.7327e-06	9.7404e-07	30.653	10.738	5.2971	2.0304	7.2407e-07	4.899	0.00028961	0.00034473	9.7876e-05	86.292	4.1194e-06	4.0132e-06	110.87	19.253	3.8442e-06	3.7809e-06	34.676	12.194	6.3508	2.3971	3.5784e-06	5.5445	262.747	368.690	205.317	39.724	198.144	118.916	39.514	46.027	210.567	230.106	44.740	50.831	51.012	53.530	203.517	54.011	-8191	255	
40413.965	1	1	0	0	0.079323	0.2433	0.28691	0.21306	0.014077	0.14229	0.16442	0.027725	0.099311	0.16458	0.12411	0.14234	0.21505	0.14392	0.18265	0.26104	-2.2667	-2.425	-2.55	-2.6958	-2.4062	-2.9333	-2.4979	-2.625	-2.7396	-2.3667	-2.6146	-2.6125	-2.4938	-2.7667	-2.5354	-2.4667	262.017	222.303	167.491	369.421	162.536	291.923	335.290	250.457	90.788	64.562	378.448	383.340	334.656	132.604	135.883	297.383	4.6145e-05	0.00010862	4.9141e-05	73.499	1.9511e-06	1.8992e-06	101.12	16.728	1.0435e-07	1.6203e-06	29.76	10.576	5.294	1.9827	5.8227e-07	4.7647	0.00029732	0.00035102	9.4768e-05	86.994	3.8972e-06	4.2669e-06	110.59	19.234	3.9425e-06	3.778e-06	34.209	11.955	6.2068	2.3328	3.5732e-06	5.3999	195.192	75.897	319.495	39.491	153.314	193.523	39.515	46.156	274.106	381.662	44.106	50.292	50.458	54.292	127.851	52.859	-8191	255	
40414.062	1	1	0	0	0.15233	0.14861	0.2531	0.097666	0.13066	0.061494	0.12582	0.16331	0.31227	0.043384	0.14023	0.069265	0.19986	0.093953	0.15842	0.12407	-2.3375	-2.3688	-2.4646	-2.7458	-2.375	-2.8021	-2.6708	-2.4125	-2.75	-2.4667	-2.6917	-2.8542	-2.4396	-2.6833	-2.6042	-2.5187	44.273	337.433	362.124	81.203	103.879	116.000	156.689	290.902	199.856	55.585	202.712	94.054	133.022	255.783	82.026	255.229	3.3135e-05	5.6264e-05	5.7541e-05	73.287	2.5601e-06	2.0441e-06	100.87	16.139	9.3766e-07	5.4355e-07	29.823	10.455	5.1814	1.9392	7.3222e-07	4.6603	0.00030978	0.0003504	9.6233e-05	86.439	3.8607e-06	4.3832e-06	109.59	18.823	3.9855e-06	3.7697e-06	33.669	11.808	6.1283	2.2968	3.7219e-06	5.3204	195.178	344.248	331.648	39.180	341.599	248.930	39.331	45.335	349.525	81.155	45.649	50.777	49.886	54.624	240.848	53.207	-8191	255	
40414.160	1	1	0	0	0.20085	0.12493	0.059108	0.24306	0.16288	0.16591	0.10203	0.23822	0.11506	0.30997	0.27261	0.27762	0.062876	0.15157	0.1079	0.32585	-2.1354	-2.3667	-2.4896	-2.75	-2.5021	-2.7375	-2.4125	-2.3354	-2.5563	-2.4604	-2.5333	-2.7583	-2.4625	-2.5625	-2.6104	-2.475	327.398	316.750	51.763	104.168	335.046	71.588	358.660	296.771	216.779	370.617	273.281	59.751	219.148	323.728	101.759	36.922	4.4927e-05	4.204e-05	3.5648e-05	72.499	1.8187e-06	6.9311e-07	99.74	16.476	5.6664e-07	1.06e-06	29.48	10.493	5.2236	1.9304	1.4983e-06	4.6652	0.00030348	0.00034378	0.00010173	86.625	3.7669e-06	4.2225e-06	109.37	18.893	4.0176e-06	3.768e-06	33.633	11.816	6.1125	2.2739	3.8991e-06	5.2973	196.090	111.064	201.610	38.963	240.247	94.246	39.761	46.860	86.101	383.558	43.931	50.741	50.581	54.048	247.053	52.659	-8191	255	
40414.254	1	1	0	0	0.10823	0.3908	0.26306	0.17289	0.025777	0.11597	0.14403	0.17358	0.037709	0.152	0.069946	0.04823	0.23317	0.23821	0.29522	0.022136	-2.2687	-2.5208	-2.5729	-2.8208	-2.5438	-2.6104	-2.5938	-2.4354	-2.7354	-2.6292	-2.4667	-2.7729	-2.5458	-2.5646	-2.8083	-2.4083	312.599	104.553	38.024	214.274	82.081	354.013	139.033	303.353	317.201	368.992	363.253	187.066	299.838	153.985	133.728	211.733	5.6056e-05	7.2433e-05	2.6798e-05	72.601	1.5597e-06	2.5832e-06	99.68	16.469	7.6146e-07	5.3714e-07	29.821	10.451	5.1529	1.9176	3.9068e-07	4.6269	0.00032036	0.00033395	0.00010052	87.178	3.7857e-06	4.2836e-06	109.64	18.84	3.8245e-06	3.7035e-06	33.715	11.822	6.0664	2.274	3.889e-06	5.2811	207.044	279.880	191.077	39.736	288.187	251.587	39.794	46.222	268.280	89.592	45.230	50.473	50.696	53.703	82.179	53.040	-8191	255	
40414.352	1	1	0	0	0.16079	0.043618	0.23745	0.25716	0.15989	0.064112	0.34648	0.10501	0.15655	0.25181	0.075402	0.19081	0.14979	0.15442	0.28447	0.12999	-2.3875	-2.6604	-2.6188	-2.8812	-2.4896	-2.6354	-2.6021	-2.4	-2.6729	-2.5771	-2.3917	-2.7792	-2.4708	-2.7104	-2.6729	-2.3354	380.665	198.934	157.244	49.086	368.466	55.869	137.991	317.927	70.212	300.014	219.290	257.616	80.051	235.649	131.410	153.623	2.0531e-05	0.00012591	3.6226e-05	71.336	8.6866e-07	1.4282e-06	100.63	16.227	8.3249e-07	7.2876e-07	29.307	10.212	5.0355	1.859	1.5827e-06	4.5473	0.00032048	0.0003426	0.00010315	86.392	3.6562e-06	4.1244e-06	109.99	18.676	3.6434e-06	3.8087e-06	33.349	11.697	5.9779	2.233	4.0271e-06	5.1721	181.692	367.778	157.489	39.350	171.812	310.104	39.182	45.566	272.326	339.504	45.263	50.566	51.735	54.925	148.875	53.083	-8191	255	
40414.445	1	1	0	0	0.14329	0.047598	0.17884	0.043048	0.14892	0.2835	0.14521	0.12	0.1381	0.2248	0.16708	0.12276	0.17392	0.14364	0.043225	0.21591	-2.1396	-2.6333	-2.4042	-2.625	-2.5729	-2.6437	-2.7938	-2.6542	-2.9271	-2.6167	-2.3958	-2.8292	-2.6542	-2.4021	-2.7146	-2.4229	284.476	386.551	287.988	197.246	228.597	76.434	257.085	369.696	160.188	322.231	381.702	217.210	304.729	188.283	31.714	221.568	3.2622e-05	8.9016e-05	3.1881e-05	71.773	1.6012e-06	8.9465e-07	99	16.295	1.4042e-06	3.2597e-06	28.68	10.291	5.1562	1.8369	1.1228e-06	4.6088	0.00030644	0.00035722	0.00010269	85.596	3.574e-06	4.4084e-06	109.17	18.555	3.6178e-06	3.9243e-06	33.013	11.704	6.0036	2.2152	3.919e-06	5.1746	224.194	273.162	175.736	37.584	328.381	208.181	40.131	46.042	386.560	224.210	44.554	51.186	51.306	54.141	59.156	53.089	-8191	255	
40414.566	1	1	0	0	0.13267	0.18472	0.31509	0.34484	0.22607	0.10182	0.20405	0.10439	0.073947	0.095689	0.16625	0.16284	0.17808	0.10645	0.059297	0.07683	-2.4042	-2.5875	-2.6979	-2.7771	-2.5312	-2.6417	-2.7333	-2.4813	-2.5958	-2.6646	-2.5958	-2.75	-2.5333	-2.6229	-2.8563	-2.4479	122.761	338.853	86.044	179.449	326.787	83.436	216.918	51.162	86.497	95.919	239.280	185.270	316.823	371.292	84.532	88.755	5.7646e-05	0.00011505	1.4426e-05	72.126	2.2339e-06	1.8773e-06	100.02	16.434	1.0158e-06	6.7155e-07	29.442	10.224	5.1369	1.8749	1.8948e-06	4.5666	0.00031552	0.00035505	9.8247e-05	85.415	3.5676e-06	4.1903e-06	109.29	18.574	3.6698e-06	3.961e-06	33.194	11.704	5.9901	2.235	3.8825e-06	5.1645	215.766	141.940	125.566	39.135	239.062	256.792	39.284	44.703	168.777	205.550	44.567	49.971	50.349	53.689	43.206	53.576	-8191	255	
40414.664	1	1	0	0	0.18319	0.053967	0.18193	0.13633	0.17493	0.23401	0.15456	0.11447	0.26743	0.062859	0.077931	0.18796	0.066707	0.29974	0.14962	0.050391	-2.3	-2.5646	-2.5438	-2.7188	-2.5229	-2.5833	-2.6729	-2.5042	-2.5333	-2.7979	-2.6646	-2.7771	-2.6604	-2.325	-2.7417	-2.4979	386.840	298.229	206.594	352.790	54.162	126.103	172.944	219.245	89.924	159.775	383.057	345.605	378.495	380.233	215.356	230.285	4.3721e-05	4.9875e-05	5.129e-05	72.093	1.4141e-06	2.5417e-06	101.08	16.34	7.4106e-07	1.8667e-06	29.611	10.467	5.1324	1.8814	1.1887e-06	4.6302	0.00029922	0.00035806	9.514e-05	85.754	3.6525e-06	4.1929e-06	110.06	18.482	3.6202e-06	4.0142e-06	33.336	11.742	6.0476	2.2327	3.7314e-06	5.2044	211.553	347.409	127.600	38.367	297.790	379.700	39.573	46.782	59.974	63.197	44.390	50.591	51.333	55.380	196.641	52.888	-8191	255	
40414.758	1	1	0	0	0.069356	0.040626	0.11333	0.15128	0.27443	0.11619	0.21428	0.12771	0.14455	0.31245	0.25373	0.059441	0.065657	0.090037	0.087807	0.18452	-2.0438	-2.8187	-2.5062	-2.6625	-2.6437	-2.4688	-2.8625	-2.4292	-2.3646	-2.8312	-2.5167	-2.9125	-2.6917	-2.4208	-2.7938	-2.7125	28.893	352.593	98.524	124.026	345.256	217.258	254.243	154.116	382.064	388.029	173.377	148.286	272.872	94.360	215.063	237.573	2.7623e-05	0.00014283	4.0235e-05	71.337	1.0286e-06	8.4104e-07	99.86	16.42	9.8977e-07	2.9131e-06	29.533	10.173	5.0669	1.8803	6.5461e-07	4.5608	0.00031608	0.00036008	9.1207e-05	85.947	3.7319e-06	3.8729e-06	109.97	18.541	3.7507e-06	4.0101e-06	33.075	11.611	6.0047	2.2166	3.6625e-06	5.0983	198.283	299.329	138.268	38.683	357.218	352.426	39.753	46.021	209.791	157.809	43.919	51.235	50.231	54.426	45.358	53.187	-8191	255	
40414.855	1	1	0	0	0.087926	0.098472	0.1227	0.21288	0.13479	0.18935	0.21092	0.054106	0.2908	0.30085	0.18484	0.21329	0.080014	0.24446	0.11375	0.12526	-2.2729	-2.8729	-2.3625	-2.5563	-2.7354	-2.5146	-2.7062	-2.5646	-2.7	-2.8521	-2.65	-2.6771	-2.7667	-2.3958	-2.7729	-2.6562	337.372	222.331	342.970	241.160	86.195	326.968	203.138	96.353	265.888	307.119	317.545	61.269	97.924	111.120	69.885	185.769	6.5951e-05	0.00016262	5.2428e-05	70.402	1.4206e-06	1.9616e-06	99.625	16.119	1.3518e-06	5.3384e-07	29.239	10.093	5.0551	1.8525	8.7019e-07	4.534	0.00031331	0.00035499	8.8519e-05	85.658	3.8312e-06	3.7248e-06	109.24	18.383	3.7497e-06	3.8902e-06	32.818	11.53	5.9672	2.1917	3.6857e-06	5.1217	178.806	163.205	235.537	39.770	162.441	377.436	39.438	46.018	177.144	338.602	44.585	49.877	52.151	54.500	53.681	53.144	-8191	255	
40414.949	1	1	0	0	0.12987	0.065527	0.12218	0.18241	0.14049	0.12451	0.036508	0.31255	0.10898	0.20963	0.15385	0.10842	0.12879	0.072623	0.084113	0.10823	-2.0396	-2.6437	-2.55	-2.5667	-2.8125	-2.4437	-2.6354	-2.4667	-2.5563	-2.9479	-2.525	-2.5896	-2.7812	-2.4521	-2.8688	-2.6375	246.588	252.290	307.561	156.948	125.890	188.069	56.453	124.622	237.083	194.721	85.583	94.090	32.700	29.469	154.404	125.126	3.0174e-05	0.00033393	3.4137e-05	70.994	1.3515e-06	1.2786e-06	99.844	16.142	1.0724e-06	1.1455e-06	28.549	10.264	4.9924	1.8839	9.7664e-07	4.4883	0.00031072	0.00036716	9.0728e-05	85.575	3.8059e-06	3.6837e-06	109.36	18.464	3.7537e-06	3.791e-06	32.753	11.679	5.9685	2.2091	3.6987e-06	5.1269	199.887	126.715	231.978	39.235	67.115	320.305	39.279	45.126	149.033	142.184	44.799	50.092	50.872	54.246	145.561	53.209	-8191	255	
40415.047	1	1	0	0	0.12669	0.047114	0.13393	0.098698	0.07708	0.055884	0.17152	0.26753	0.14446	0.32231	0.035806	0.093442	0.10448	0.070004	0.065463	0.14256	-1.9562	-2.7833	-2.5687	-2.4625	-2.7917	-2.4188	-2.7854	-2.7021	-2.5979	-2.8792	-2.475	-2.4813	-2.775	-2.4292	-2.75	-2.6021	279.919	186.225	239.095	162.706	300.634	183.059	126.061	134.178	206.490	105.219	171.658	330.345	100.420	270.752	106.861	28.038	2.5589e-05	2.888e-05	4.0902e-05	72.278	6.1605e-07	6.7911e-07	99.799	16.051	7.3924e-07	1.0894e-06	29.34	10.204	5.1243	1.8793	1.9805e-06	4.475	0.00028515	0.00037116	9.2543e-05	86.037	3.8861e-06	3.5619e-06	109.64	18.511	3.6968e-06	3.7646e-06	32.989	11.625	6.0235	2.1908	3.7714e-06	5.1498	167.859	79.793	337.919	39.186	293.831	224.170	39.792	45.986	87.706	69.211	44.486	50.327	50.794	54.400	190.546	54.820	-8191	255	
40415.168	1	1	0	0	0.23926	0.096937	0.26537	0.10914	0.071437	0.19664	0.31307	0.065181	0.20965	0.16446	0.057334	0.18432	0.16418	0.1692	0.066376	0.24602	-2.1146	-2.7875	-2.4083	-2.5625	-2.8083	-2.4688	-2.8167	-2.7958	-2.3896	-2.6104	-2.4521	-2.5938	-2.7458	-2.5208	-2.5687	-2.9542	207.390	158.977	222.790	207.898	213.347	301.266	317.325	367.340	347.228	87.074	165.270	192.124	192.325	209.536	71.104	267.452	4.3212e-05	0.0001819	2.4312e-05	69.945	3.1407e-07	1.2133e-06	101.76	16.35	1.0504e-06	1.6041e-06	29.325	10.102	5.0155	1.8673	9.0575e-07	4.5046	0.00027814	0.00038855	9.5404e-05	85.946	3.8908e-06	3.5885e-06	110.22	18.622	3.5688e-06	3.8905e-06	32.96	11.566	5.9891	2.1877	3.9385e-06	5.0991	222.090	48.313	211.005	40.719	387.698	255.200	39.275	45.822	175.883	46.910	44.953	50.795	51.043	54.409	230.659	53.770	-8191	255	
40415.262	1	1	0	0	0.073859	0.13383	0.24309	0.028403	0.086749	0.014843	0.080331	0.14033	0.12338	0.12092	0.086541	0.045527	0.31644	0.26084	0.1693	0.078722	-2.0104	-2.7333	-2.5229	-2.3208	-2.8292	-2.5062	-2.6042	-2.7646	-2.575	-2.7729	-2.5312	-2.4854	-2.5896	-2.725	-2.575	-2.7271	200.977	381.999	262.664	331.259	295.774	334.618	273.486	324.536	230.827	187.908	354.387	65.604	81.574	248.869	183.732	62.619	1.5723e-05	0.00022217	3.7888e-05	72.394	1.9832e-06	1.4964e-06	100.24	15.974	4.9231e-07	5.1344e-07	29.113	10.025	5.099	1.8767	5.2867e-07	4.4973	0.00027319	0.00037978	9.9565e-05	85.599	3.7965e-06	3.6866e-06	110.02	18.487	3.4659e-06	3.8919e-06	32.84	11.413	6.0107	2.1896	3.937e-06	5.1017	250.873	166.813	178.644	40.226	154.456	319.614	39.702	46.700	359.188	234.402	44.111	50.398	51.650	53.883	204.480	53.751	-8191	255	
40415.359	1	1	0	0	0.099889	0.11101	0.062818	0.095579	0.08337	0.043529	0.15838	0.25566	0.19085	0.16885	0.24226	0.22266	0.042666	0.26857	0.1333	0.15538	-2.0396	-2.65	-2.8167	-2.3417	-2.7771	-2.4792	-2.6562	-2.7083	-2.4688	-2.7562	-2.8021	-2.4188	-2.7146	-2.5458	-2.3396	-2.8708	226.284	222.275	328.706	104.429	307.118	176.731	186.745	140.144	365.040	110.784	295.571	380.209	116.559	84.972	102.950	40.053	1.8849e-05	0.00043395	3.4516e-05	72.103	1.8017e-06	1.7543e-06	101.62	16.205	7.641e-07	8.2585e-07	29.332	10.311	5.0773	1.8554	1.166e-06	4.5413	0.00026456	0.00040753	0.00010137	85.8	3.7106e-06	3.8582e-06	110.21	18.55	3.4802e-06	3.9945e-06	33.221	11.525	6.0539	2.211	3.8555e-06	5.1357	302.477	90.097	94.620	39.552	359.482	40.684	39.603	46.168	225.855	320.665	44.746	50.714	51.162	54.491	159.466	52.605	-8191	255	
40415.457	1	1	0	0	0.13912	0.33798	0.1746	0.080235	0.08261	0.18512	0.25171	0.066122	0.27887	0.046923	0.081844	0.1335	0.071475	0.093224	0.18784	0.1212	-2.0229	-2.5542	-2.7333	-2.3521	-2.6458	-2.5083	-2.55	-2.8292	-2.5958	-2.5333	-2.8146	-2.4229	-2.7833	-2.6729	-2.5146	-2.6063	185.052	335.944	267.851	114.782	68.760	106.081	156.180	303.746	383.682	57.965	108.121	125.887	130.502	335.613	241.529	225.745	4.8769e-05	0.00017193	1.4306e-05	70.311	1.8068e-06	2.6387e-06	100.31	16.354	3.2504e-07	1.6577e-06	29.343	10.213	5.1398	1.8804	1.5244e-06	4.5339	0.00027092	0.00039499	0.00010002	85.241	3.7806e-06	3.9009e-06	109.92	18.618	3.4193e-06	3.982e-06	33.356	11.54	6.0781	2.2371	3.753e-06	5.1775	270.036	160.381	200.512	39.357	189.878	194.152	39.257	46.518	115.994	143.903	44.523	50.610	51.417	54.014	90.088	53.190	-8191	255	
40415.527	1	1	0	0	0.10436	0.23541	0.16891	0.11757	0.23184	0.048295	0.15155	0.093186	0.079909	0.17345	0.070648	0.15373	0.13506	0.10675	0.26723	0.1543	-1.9729	-2.6083	-2.7667	-2.4917	-2.5438	-2.8271	-2.5875	-2.6063	-2.5917	-2.7292	-2.8708	-2.3021	-2.6271	-2.6125	-2.3604	-2.6896	217.141	47.883	140.114	318.657	175.442	266.935	143.929	147.926	100.977	133.905	248.493	77.765	89.412	46.609	254.911	109.250	5.145e-05	0.00021069	2.4934e-05	71.718	9.372e-07	8.6808e-07	100.91	16.247	2.5983e-07	1.5811e-06	29.061	10.082	5.0667	1.8675	3.7758e-07	4.4459	0.0002729	0.00040904	0.00010066	85.569	3.8064e-06	3.9359e-06	110.07	18.711	3.6825e-06	4.063e-06	33.108	11.444	6.0904	2.2219	3.6188e-06	5.0761	217.537	78.961	119.806	38.461	151.483	72.250	39.286	46.268	257.953	257.679	44.781	50.710	51.347	53.137	69.993	53.547	-8191	255	
40415.645	1	1	0	0	0.061301	0.012653	0.2636	0.12308	0.083799	0.24864	0.039845	0.16795	0.16302	0.16006	0.061357	0.0595	0.24769	0.097806	0.2424	0.18183	-2.1562	-2.5854	-2.7417	-2.2271	-2.6917	-2.7229	-2.5062	-2.9292	-2.8021	-2.6937	-2.6833	-2.5438	-2.5979	-2.55	-2.4479	-2.7396	267.891	181.816	239.804	249.192	283.217	339.373	264.087	124.970	297.142	254.066	164.987	208.944	377.087	85.292	355.225	196.123	6.2475e-05	0.00012791	3.627e-05	71.809	4.3823e-07	9.3771e-07	99.088	16.188	1.7648e-06	8.0179e-07	29.728	10.12	5.0257	1.8692	1.2801e-06	4.5535	0.00028191	0.00039083	9.7197e-05	85.108	3.935e-06	3.9325e-06	109.43	18.615	3.7132e-06	3.9727e-06	33.081	11.492	6.0207	2.1963	3.4522e-06	5.0983	222.138	57.917	287.170	39.424	150.120	96.324	39.503	46.201	243.026	323.120	44.162	50.496	51.464	54.519	32.627	53.559	-8191	255	
40415.742	1	1	0	0	0.17337	0.24337	0.15247	0.16812	0.30842	0.1599	0.1881	0.23049	0.085617	0.05074	0.21496	0.30771	0.16181	0.25437	0.060869	0.060066	-2.15	-2.3646	-2.7083	-2.4688	-2.6375	-2.7333	-2.4833	-2.5646	-2.5417	-2.5	-2.7375	-2.5083	-2.5979	-2.6979	-2.2417	-2.625	306.258	97.400	356.094	171.045	328.919	242.052	373.822	289.922	279.478	330.280	51.388	262.387	47.552	154.685	378.861	360.528	3.4796e-05	0.00012651	3.6017e-05	73.633	6.2509e-07	1.0086e-06	101.13	16.384	1.0935e-06	7.723e-07	29.423	10.146	5.1076	1.8392	1.8508e-06	4.5114	0.00028543	0.00037908	0.00010028	86.303	3.9139e-06	4.0109e-06	109.91	18.835	3.814e-06	3.8195e-06	33.052	11.415	6.0592	2.1949	3.4278e-06	5.1064	215.991	182.664	100.546	40.046	51.481	337.166	39.346	45.762	331.661	260.286	44.384	50.549	51.023	54.230	370.826	53.434	-8191	255	
40415.840	1	1	0	0	0.20598	0.30768	0.29451	0.16598	0.20812	0.063521	0.29603	0.18832	0.34325	0.19547	0.069076	0.20119	0.23444	0.15676	0.25339	0.027265	-2.1667	-2.3	-2.5104	-2.4729	-2.4188	-2.675	-2.5396	-2.6146	-2.5875	-2.5604	-2.7562	-2.3479	-2.6104	-2.7583	-2.3333	-2.65	292.255	82.339	36.483	194.743	277.187	373.634	79.855	177.438	358.181	190.546	306.830	101.588	134.766	148.295	306.093	333.207	3.4686e-05	0.00018249	0.00010752	73.639	1.4177e-06	4.6635e-07	100.63	16.186	7.032e-07	1.0107e-06	29.006	10.198	5.1121	1.8132	1.8627e-06	4.5024	0.00029563	0.00034531	0.0001037	86.582	3.8955e-06	3.9067e-06	109.58	18.774	3.7956e-06	3.7365e-06	33.081	11.602	6.0867	2.1822	3.5566e-06	5.1266	214.528	162.477	222.164	38.854	340.748	248.148	39.592	45.599	67.386	54.593	44.077	50.348	50.507	53.985	346.598	52.678	-8191	255	
40415.938	1	1	0	0	0.1082	0.08598	0.16326	0.14773	0.12489	0.19209	0.16376	0.15765	0.12316	0.076977	0.12436	0.15081	0.45256	0.043362	0.047782	0.095136	-2.3396	-2.3458	-2.5938	-2.6417	-2.4896	-2.7417	-2.4	-2.7062	-2.6583	-2.4813	-2.6625	-2.6521	-2.5875	-2.7271	-2.3312	-2.4313	212.164	182.318	258.441	161.019	114.371	41.513	150.184	236.463	111.055	275.578	61.484	379.886	75.844	219.217	175.355	233.547	2.3821e-05	8.4746e-05	6.665e-05	72.073	1.3221e-06	1.1151e-06	100.74	16.252	6.7922e-07	1.6758e-06	29.001	10.035	5.084	1.858	1.2868e-06	4.4635	0.00029069	0.00033125	0.00010886	86.706	3.716e-06	3.7542e-06	109.47	18.751	3.7435e-06	3.4951e-06	32.872	11.466	5.9716	2.1781	3.6737e-06	5.0476	229.050	288.859	82.867	38.951	195.906	44.606	39.617	45.546	316.797	227.033	45.206	49.958	49.773	54.296	207.579	53.543	-8191	255	
40416.055	1	1	0	0	0.19777	0.24911	0.10956	0.052621	0.31554	0.21139	0.2175	0.31531	0.19905	0.051483	0.15299	0.18159	0.061219	0.070203	0.17312	0.23346	-2.1521	-2.5292	-2.7479	-2.5125	-2.5458	-2.7646	-2.6437	-2.5687	-2.7521	-2.4146	-2.8083	-2.575	-2.4625	-2.8312	-2.7771	-2.6604	262.501	253.421	345.119	251.437	233.143	181.035	234.726	272.807	59.261	180.946	170.066	39.338	215.110	210.478	151.828	231.399	2.4682e-05	0.00012498	9.5172e-05	71.772	2.2571e-06	1.0997e-06	98.482	16.081	9.8685e-07	1.7706e-07	28.938	10.057	5.0623	1.8605	4.9296e-07	4.413	0.00029511	0.0003184	0.00010732	86.73	3.7605e-06	3.7921e-06	108.52	18.591	3.7673e-06	3.656e-06	32.699	11.426	5.9528	2.2029	3.9532e-06	5.0579	213.796	168.176	104.181	39.981	196.223	142.107	38.994	45.852	274.984	189.601	44.329	49.893	50.506	53.869	63.041	53.755	-8191	255	
40416.129	1	1	0	0	0.25094	0.13772	0.13968	0.035148	0.17201	0.23036	0.15473	0.076157	0.17842	0.18651	0.16529	0.24033	0.3136	0.24297	0.051098	0.23703	-2.3271	-2.5646	-2.6021	-2.4646	-2.5333	-2.8104	-2.575	-2.6417	-2.7438	-2.5417	-2.775	-2.7583	-2.4188	-2.7458	-2.8604	-2.3104	217.611	73.230	225.124	196.363	238.669	366.217	184.408	236.045	265.148	200.834	60.877	344.408	52.522	68.986	243.822	134.538	3.0075e-05	0.00012496	9.7922e-05	72.233	1.0806e-06	5.7554e-07	99.636	15.901	1.0511e-06	1.2378e-06	28.941	10.053	5.0274	1.8415	6.6549e-07	4.4471	0.00028888	0.00033563	0.00011445	86.398	3.6046e-06	3.9246e-06	109.1	18.54	3.6679e-06	3.7612e-06	32.906	11.437	5.9178	2.2204	4.0049e-06	5.0841	226.091	158.704	101.745	38.190	246.126	61.268	39.876	44.845	265.402	132.722	44.577	49.658	50.480	54.192	251.818	53.352	-8191	255	
40416.246	1	1	0	0	0.17393	0.098253	0.14734	0.086714	0.27353	0.2025	0.19664	0.1158	0.080133	0.14202	0.42995	0.090777	0.02618	0.34539	0.14021	0.13726	-2.3083	-2.5479	-2.5167	-2.6188	-2.4292	-2.6229	-2.7542	-2.4313	-2.7979	-2.5104	-2.6896	-2.7562	-2.6	-2.625	-2.65	-2.375	196.369	168.534	323.109	287.026	337.744	132.969	247.676	157.294	247.705	38.668	305.362	83.338	213.214	246.328	294.198	188.541	2.1546e-05	3.0742e-05	2.1067e-05	72.372	8.4509e-07	1.598e-06	100.51	16.407	1.3319e-06	1.4828e-06	29.114	10.029	5.1816	1.8752	7.7804e-07	4.4887	0.00028888	0.00034394	0.00011275	86.23	3.5733e-06	3.996e-06	109.66	18.592	3.9137e-06	3.9495e-06	33.108	11.519	5.9675	2.243	3.8778e-06	5.1144	216.329	231.066	129.614	38.679	182.322	191.790	39.543	45.850	244.734	138.515	45.105	50.478	51.139	55.301	210.943	54.102	-8191	255	
40416.344	1	1	0	0	0.033664	0.082704	0.051319	0.29035	0.13686	0.41905	0.28308	0.099255	0.18564	0.24039	0.13427	0.15368	0.16566	0.055882	0.15072	0.13894	-2.3625	-2.5062	-2.5542	-2.7396	-2.4792	-2.5812	-2.5083	-2.3792	-2.7396	-2.4938	-2.4479	-2.8063	-2.3521	-2.8146	-2.6063	-2.4833	76.211	141.183	258.586	373.176	193.683	69.065	49.175	348.034	287.378	113.233	84.788	56.887	247.766	29.370	130.543	337.339	4.7836e-05	4.7125e-05	8.5853e-05	72.685	1.2429e-06	2.2194e-06	99.512	16.325	1.5294e-06	1.0265e-06	29.291	9.9405	5.1058	1.8311	6.959e-07	4.4677	0.00028093	0.00035547	0.00011464	86.107	3.5474e-06	4.0549e-06	109.73	18.509	4.0501e-06	4.0295e-06	32.959	11.453	5.9722	2.25	3.9372e-06	5.0712	215.020	202.548	120.130	38.942	309.732	176.164	39.811	46.965	185.704	197.104	44.724	49.931	50.812	54.756	294.686	52.728	-8191	255	
40416.441	1	1	0	0	0.35269	0.087945	0.22046	0.05726	0.30594	0.20091	0.18172	0.17388	0.24611	0.18684	0.10786	0.33016	0.20692	0.14387	0.091813	0.048761	-2.1625	-2.4688	-2.4146	-2.7375	-2.4667	-2.7375	-2.6208	-2.3125	-2.575	-2.5417	-2.4583	-2.7125	-2.5354	-2.4167	-2.8625	-2.4521	166.942	153.835	251.815	161.489	96.842	92.785	199.079	309.342	201.636	164.565	380.531	355.725	68.857	266.139	382.403	45.924	4.5344e-05	3.6987e-05	8.3256e-06	72.769	1.6143e-06	2.3939e-06	99.946	16.186	6.9256e-07	9.2459e-07	28.699	10.087	5.0701	1.8737	1.9706e-06	4.4283	0.0002861	0.00036976	0.00010825	85.929	3.6704e-06	4.134e-06	109.26	18.421	4.3418e-06	3.9622e-06	32.805	11.461	5.9726	2.2378	3.8071e-06	5.0736	227.487	301.085	375.457	38.998	306.728	227.670	39.587	45.673	276.758	134.551	43.888	50.786	51.090	54.132	190.571	53.852	-8191	255	
40416.535	1	1	0	0	0.20927	0.12614	0.22413	0.052078	0.12021	0.15305	0.13911	0.21192	0.094029	0.11883	0.1311	0.37343	0.16812	0.16995	0.25211	0.052683	-2.2625	-2.6229	-2.475	-2.6667	-2.3937	-2.4771	-2.7042	-2.3333	-2.8083	-2.6354	-2.4437	-2.6688	-2.2646	-2.4688	-2.5854	-2.1896	281.817	110.525	348.942	56.390	353.799	294.369	84.138	218.211	275.299	116.208	106.580	107.391	115.069	376.321	134.038	34.533	2.539e-05	0.00014922	4.2566e-05	70.826	1.5675e-06	2.1437e-06	99.303	16.222	4.9998e-07	7.9363e-07	29.376	10.264	5.1734	1.9137	1.9805e-06	4.5735	0.00029952	0.00036193	9.9267e-05	86.223	3.7776e-06	4.0097e-06	109.03	18.499	4.2097e-06	3.8929e-06	32.98	11.541	6.0746	2.261	3.6635e-06	5.157	199.440	181.152	279.728	39.241	252.136	159.213	38.628	46.551	375.167	100.062	45.401	50.616	50.813	53.598	188.550	52.752	-8191	255	
40416.656	1	1	0	0	0.1959	0.058453	0.24871	0.076177	0.024535	0.22126	0.30495	0.042788	0.0872	0.14672	0.099624	0.23598	0.14433	0.021553	0.084708	0.023002	-2.2979	-2.4938	-2.5333	-2.8125	-2.2583	-2.6042	-2.8312	-2.4354	-2.5083	-2.775	-2.3063	-2.7646	-2.3646	-2.4021	-2.8208	-2.4229	369.530	316.894	279.902	380.127	214.891	381.494	250.797	296.438	53.615	92.239	270.374	310.158	208.458	152.026	67.054	227.460	5.4292e-05	0.00025434	9.4214e-05	73.061	4.3112e-07	1.3001e-06	101.09	16.135	6.075e-07	1.307e-06	30	10.224	5.2142	1.9222	5.1007e-07	4.6666	0.00030044	0.00035069	8.9954e-05	87.472	3.7788e-06	3.879e-06	110.3	18.602	4.3722e-06	3.9665e-06	33.255	11.722	6.0918	2.2684	3.5769e-06	5.2227	186.680	160.290	90.436	39.460	291.597	314.428	39.625	45.937	53.074	253.393	44.624	50.299	51.589	54.576	85.320	53.446	-8191	255	
40416.727	1	1	0	0	0.1844	0.23649	0.46054	0.1497	0.32403	0.3489	0.13804	0.066349	0.13227	0.33041	0.092258	0.11032	0.22949	0.22376	0.24651	0.059452	-2.225	-2.6396	-2.3583	-2.6583	-2.4938	-2.4125	-2.825	-2.3563	-2.5438	-2.6917	-2.5396	-2.6979	-2.3979	-2.5438	-2.6937	-2.4188	87.456	357.268	274.857	71.191	213.082	285.672	369.321	218.132	94.752	30.745	62.813	69.651	106.014	50.355	303.634	365.928	3.0864e-05	0.000102	6.3099e-05	72.674	1.076e-06	1.0767e-06	99.838	16.071	1.2851e-06	3.0556e-06	29.374	10.144	5.1779	1.9013	1.1801e-06	4.5952	0.00029638	0.00034579	8.7815e-05	88.135	3.7841e-06	3.7829e-06	110.05	18.54	4.2192e-06	3.7562e-06	33.031	11.539	6.0848	2.2327	4.0092e-06	5.1291	220.494	67.730	63.809	39.419	249.265	62.635	39.385	46.316	75.743	219.006	43.964	50.784	50.078	54.291	209.189	53.344	-8191	255	
40416.824	1	1	0	0	0.070678	0.16857	0.23661	0.19651	0.065035	0.11329	0.21886	0.33428	0.21296	0.18676	0.054356	0.13352	0.11236	0.075862	0.095851	0.073087	-2.1958	-2.7604	-2.425	-2.6354	-2.5083	-2.3958	-2.5792	-2.4042	-2.4625	-2.7417	-2.4562	-2.6458	-2.6208	-2.4437	-2.85	-2.4604	380.937	268.277	54.183	272.447	238.353	216.011	351.712	242.791	304.316	334.227	328.762	366.451	309.204	105.690	64.347	332.617	1.1333e-05	8.4921e-05	5.7673e-05	71.579	1.017e-06	1.4146e-06	99.702	16.452	2.0311e-06	1.5808e-06	29.548	10.141	5.0483	1.8518	2.678e-06	4.505	0.00029343	0.00033886	9.0352e-05	87.679	3.8357e-06	3.5896e-06	109.7	18.681	4.2967e-06	3.7929e-06	32.878	11.576	6.0203	2.2118	4.1136e-06	5.1323	272.332	293.973	65.968	40.448	343.853	131.642	39.052	45.705	190.867	120.413	44.807	51.029	51.953	54.890	166.936	52.626	-8191	255	
40416.941	1	1	0	0	0.2215	0.13953	0.2752	0.19324	0.15057	0.23929	0.19377	0.1301	0.15107	0.065416	0.16154	0.24092	0.086712	0.14424	0.23153	0.23125	-2.0958	-2.6562	-2.5917	-2.6437	-2.7354	-2.4229	-2.7562	-2.5021	-2.4313	-2.6958	-2.5042	-2.7396	-2.775	-2.3438	-2.7958	-2.5646	318.977	326.129	321.550	90.362	322.994	331.697	112.164	62.380	191.886	155.716	96.737	70.345	177.814	182.637	261.526	34.022	2.8939e-05	0.00018872	1.7772e-05	72.943	2.3749e-06	2.2504e-06	100.05	16.305	1.0864e-06	9.3265e-07	29.174	10.241	5.1823	1.863	2.3675e-06	4.5602	0.00029086	0.00033557	9.3964e-05	88.198	3.7043e-06	3.4637e-06	109.49	18.628	3.9035e-06	3.6803e-06	32.943	11.602	6.059	2.2058	4.3596e-06	5.1395	172.546	299.806	234.363	39.456	213.307	151.447	39.096	45.963	217.714	230.567	44.603	50.510	50.793	54.610	182.288	54.201	-8191	255	
40417.039	1	1	0	0	0.15873	0.13983	0.080027	0.10863	0.17397	0.18795	0.19428	0.025269	0.1134	0.1691	0.27933	0.19666	0.13809	0.21893	0.1796	0.047536	-2.0708	-2.6875	-2.3958	-2.6417	-2.5875	-2.5229	-2.7	-2.5229	-2.3604	-2.8667	-2.4083	-2.6625	-2.6104	-2.3479	-2.6458	-2.6292	271.943	345.815	44.918	338.924	262.254	165.454	123.765	95.981	262.796	346.459	174.918	345.409	197.252	102.118	54.968	188.854	3.4279e-05	3.237e-05	3.1515e-05	71.499	7.9116e-07	2.1177e-06	99.592	16.405	7.4924e-07	2.5204e-06	29.355	10.168	5.1735	1.8979	1.0293e-06	4.6457	0.00027728	0.00034816	9.82e-05	87.66	3.7003e-06	3.7199e-06	109.94	18.748	3.7234e-06	4.0993e-06	33.208	11.67	6.0774	2.2293	4.3675e-06	5.2237	205.773	387.254	67.803	39.242	151.869	245.617	40.184	45.485	273.640	158.398	44.993	50.769	50.679	54.613	342.222	53.688	-8191	255	
40417.137	1	1	0	0	0.14071	0.086393	0.08571	0.21576	0.13423	0.19284	0.1943	0.25861	0.094917	0.19563	0.33998	0.11473	0.19042	0.53211	0.25934	0.33983	-1.875	-2.6146	-2.4688	-2.4104	-2.6792	-2.5146	-2.7083	-2.6	-2.5042	-2.7083	-2.4313	-2.4604	-2.6417	-2.4437	-2.6188	-2.5604	197.248	29.217	370.223	45.842	89.699	365.314	141.148	61.655	92.022	253.537	260.525	362.847	260.431	77.589	85.997	327.360	3.3695e-05	0.00029113	7.717e-05	71.776	2.3079e-06	1.9487e-06	101.54	16.565	5.6302e-07	2.3217e-06	29.275	10.179	5.0808	1.9047	1.2429e-07	4.5645	0.0002761	0.00035938	0.00010184	88.266	3.6967e-06	3.7588e-06	110.57	18.843	3.5476e-06	4.3991e-06	33.242	11.644	6.0526	2.2449	4.5605e-06	5.1649	182.034	126.600	150.293	39.127	221.317	350.138	39.927	46.421	352.368	178.403	44.728	50.425	50.197	53.303	360.076	53.544	-8191	255	
40417.230	1	1	0	0	0.17288	0.12531	0.013657	0.04861	0.12947	0.23273	0.28103	0.080561	0.077785	0.10817	0.30772	0.14881	0.14178	0.039234	0.34491	0.040778	-2.0604	-2.6479	-2.5042	-2.4396	-2.7	-2.3229	-2.5375	-2.4333	-2.4083	-2.5833	-2.4562	-2.3312	-2.6042	-2.375	-2.7229	-2.6021	73.144	361.116	84.522	168.732	286.166	280.999	106.025	120.616	34.256	381.331	292.034	336.415	311.608	51.630	166.969	328.969	3.8042e-05	0.00015089	5.0598e-05	72.636	6.5384e-07	2.1058e-06	101.15	16.374	5.6848e-07	2.2573e-06	29.196	10.346	5.1917	1.9055	1.0092e-06	4.5643	0.00027319	0.00037317	0.00010318	87.467	3.7302e-06	3.9487e-06	110	18.625	3.5583e-06	4.6156e-06	33.216	11.606	6.0424	2.2418	4.2442e-06	5.1411	223.495	160.242	100.141	39.115	304.681	235.251	39.895	45.342	51.662	185.777	45.007	50.922	50.719	54.305	131.846	52.813	-8191	255	
40417.352	1	1	0	0	0.20082	0.086894	0.11078	0.075188	0.10054	0.22313	0.24046	0.10097	0.076933	0.15513	0.27706	0.20027	0.16962	0.14628	0.087614	0.24444	-1.8021	-2.6833	-2.5333	-2.2854	-2.7021	-2.5604	-2.6604	-2.6229	-2.3042	-2.7396	-2.3833	-2.4667	-2.6354	-2.3792	-2.4729	-2.7396	351.139	202.046	101.544	324.175	171.318	37.638	94.474	45.755	144.557	380.065	336.901	378.832	241.668	290.710	202.045	316.313	3.0656e-05	0.00016477	5.291e-05	71.856	2.1729e-06	1.8419e-06	100.7	16.418	7.167e-07	2.4125e-06	29.716	10.314	5.1915	1.9138	3.3708e-06	4.6133	0.00027459	0.00036892	0.00010052	85.737	4.082e-06	3.9477e-06	110.13	18.643	3.5773e-06	4.4625e-06	33.331	11.657	6.1276	2.2549	4.3063e-06	5.1841	189.674	71.070	381.551	38.675	267.096	206.775	39.789	45.956	168.484	32.257	44.301	50.339	51.229	55.139	202.123	53.323	-8191	255	
40417.426	1	1	0	0	0.13909	0.18271	0.34244	0.1259	0.095571	0.29833	0.24364	0.28225	0.093657	0.10064	0.03283	0.11113	0.080297	0.12887	0.35177	0.17419	-1.8979	-2.6	-2.5542	-2.3354	-2.5312	-2.4458	-2.6125	-2.7875	-2.4313	-2.8167	-2.7417	-2.525	-2.6	-2.4625	-2.55	-2.725	118.573	116.515	308.263	108.682	129.316	85.060	167.060	137.012	361.019	174.878	278.322	343.281	371.736	82.619	247.193	71.442	3.0343e-05	0.00014221	3.9793e-05	72.697	2.6744e-06	7.0282e-07	101.39	16.561	8.7652e-07	2.8029e-07	29.55	10.468	5.2281	1.9025	8.9909e-07	4.6402	0.00027927	0.00037513	9.7132e-05	86.345	4.2508e-06	3.8268e-06	110.4	18.744	3.6774e-06	4.5874e-06	33.388	11.715	6.168	2.2761	3.8656e-06	5.2486	208.621	38.056	57.549	39.466	346.407	219.939	39.649	46.335	179.340	358.607	44.718	50.949	51.269	54.486	318.322	53.787	-8191	255	
40417.520	1	1	0	0	0.23594	0.11516	0.25351	0.072286	0.074273	0.082354	0.027048	0.21641	0.29418	0.15312	0.21125	0.29409	0.059994	0.24351	0.27625	0.13858	-2.1167	-2.6375	-2.5979	-2.3333	-2.8021	-2.625	-2.5208	-2.65	-2.3917	-2.6583	-2.4896	-2.3479	-2.7417	-2.5187	-2.5125	-2.8729	215.653	307.087	194.743	258.597	90.855	286.326	288.063	268.838	175.213	117.230	30.492	307.228	273.467	313.578	245.631	297.337	1.2402e-05	0.00014343	2.2613e-05	74.108	2.7364e-06	1.0231e-06	100.33	16.377	8.2837e-07	2.5214e-07	29.754	10.354	5.1701	1.9273	2.6483e-06	4.5681	0.00029279	0.00037778	9.3316e-05	86.668	4.4424e-06	3.8575e-06	110.03	18.833	3.7445e-06	4.2693e-06	33.239	11.666	6.0898	2.2732	3.5441e-06	5.21	188.407	28.134	282.817	39.912	364.629	121.696	39.388	45.806	265.418	129.963	45.180	50.557	51.311	54.471	29.741	53.678	-8191	255	
40417.617	1	1	0	0	0.13077	0.029571	0.28271	0.16787	0.16713	0.14112	0.21991	0.33021	0.23672	0.12585	0.17793	0.089759	0.085887	0.033683	0.25934	0.11083	-2.0542	-2.6	-2.6708	-2.4313	-2.6771	-2.5812	-2.4375	-2.6021	-2.4938	-2.4979	-2.75	-2.4688	-2.725	-2.6979	-2.4625	-2.7125	223.287	230.697	342.773	32.489	130.384	167.312	253.792	370.448	314.221	254.340	75.695	264.776	313.441	385.491	210.029	294.618	2.9805e-05	0.00029268	1.3998e-05	72.501	2.1177e-06	1.7024e-06	101.38	16.498	8.9748e-08	1.6168e-06	30.181	10.298	5.2256	1.8998	8.2719e-07	4.6147	0.00028088	0.00035398	9.0568e-05	86.356	4.2835e-06	3.7629e-06	109.59	18.816	3.7165e-06	4.187e-06	33.336	11.689	6.1225	2.255	3.4587e-06	5.2298	212.568	116.069	318.551	38.744	113.874	351.698	39.733	45.693	358.900	107.547	44.353	50.396	51.425	54.105	259.077	53.507	-8191	255	
40417.734	1	1	0	0	0.039907	0.24421	0.012247	0.10269	0.167	0.2288	0.28852	0.030001	0.02872	0.20591	0.15163	0.18794	0.062268	0.17732	0.33359	0.14825	-2.1104	-2.4583	-2.7729	-2.3438	-2.6396	-2.4854	-2.3	-2.6312	-2.4625	-2.4271	-2.5021	-2.4271	-2.4208	-2.65	-2.4979	-2.8187	90.021	123.279	137.999	280.032	43.888	213.843	137.861	168.346	217.150	81.432	66.255	326.142	62.683	220.043	196.057	160.979	4.8918e-05	0.00019881	5.3629e-05	71.748	1.4678e-06	4.8529e-07	100.64	16.545	6.1245e-07	1.2059e-06	29.843	10.454	5.1999	1.9534	2.3474e-06	4.6964	0.00028845	0.00033441	9.2262e-05	86.472	4.3794e-06	3.6956e-06	109.96	18.83	3.6367e-06	3.7898e-06	33.344	11.725	6.0941	2.2531	3.5382e-06	5.2868	222.375	198.234	135.574	39.423	253.370	28.200	39.716	45.847	255.569	379.668	44.409	50.175	51.667	54.117	240.130	53.888	-8191	255	
40417.832	1	1	0	0	0.14493	0.088902	0.21822	0.057428	0.25142	0.18352	0.097112	0.071109	0.030513	0.17395	0.33132	0.18754	0.054056	0.38025	0.015513	0.33438	-2.175	-2.3312	-2.6542	-2.5812	-2.7208	-2.6063	-2.375	-2.5812	-2.6021	-2.6458	-2.8104	-2.4208	-2.5604	-2.675	-2.35	-2.6729	148.594	160.770	46.337	214.709	332.463	227.483	306.319	333.198	248.108	124.430	171.143	362.447	45.966	271.828	241.521	329.773	5.115e-05	0.00017621	4.9173e-05	74.766	1.487e-06	3.1715e-06	102.65	16.475	8.7265e-07	8.8869e-07	30.062	10.299	5.2958	1.9341	1.4153e-06	4.6756	0.00027941	0.00032271	9.4574e-05	87.018	4.0115e-06	3.534e-06	110.63	18.93	3.5722e-06	3.5753e-06	33.559	11.71	6.1449	2.2534	3.6213e-06	5.287	208.408	115.838	387.094	39.735	61.943	197.605	39.608	45.944	204.106	110.525	44.835	50.538	51.157	54.245	379.801	53.818	-8191	255	
40417.930	1	1	0	0	0.066636	0.11559	0.14615	0.4423	0.26528	0.12347	0.11437	0.28877	0.20848	0.12166	0.050885	0.14255	0.15845	0.025665	0.26402	0.088368	-2.1167	-2.4375	-2.8	-2.6479	-2.425	-2.65	-2.3396	-2.5083	-2.7313	-2.45	-2.7042	-2.375	-2.5687	-2.7625	-2.3812	-2.6875	174.607	309.381	361.936	321.163	205.008	85.245	190.922	85.098	242.624	53.734	196.233	42.118	226.374	301.326	319.883	202.981	2.6476e-05	0.00014524	2.4925e-05	74.656	6.0281e-07	6.4856e-07	102.57	16.715	8.2072e-07	6.0764e-07	29.73	10.471	5.1854	1.9421	1.4802e-06	4.5447	0.00027357	0.00031404	9.6985e-05	87.216	4.0298e-06	3.5392e-06	110.65	18.988	3.4137e-06	3.4961e-06	33.503	11.663	6.0115	2.2477	3.6209e-06	5.1942	169.207	146.786	286.841	39.499	308.574	226.669	39.287	44.930	72.064	64.560	44.456	50.947	51.800	54.185	208.269	52.921	-8191	255	
40418.023	1	1	0	0	0.261	0.25314	0.32753	0.077371	0.19974	0.34287	0.22564	0.064147	0.039996	0.12548	0.17614	0.19724	0.20999	0.08009	0.15526	0.24887	-2.1083	-2.5146	-2.5354	-2.4604	-2.4313	-2.6167	-2.6479	-2.5646	-2.6521	-2.2833	-2.7687	-2.4229	-2.3583	-2.6958	-2.3729	-2.5292	265.261	348.295	146.238	168.394	361.697	137.936	132.703	87.479	382.029	207.995	306.107	144.189	34.137	269.499	58.947	386.117	6.2532e-05	0.00013685	2.6899e-05	71.06	1.5394e-06	6.3721e-07	100.78	16.585	2.2492e-06	2.8417e-06	29.753	10.361	5.1394	1.901	9.0641e-07	4.6116	0.00026443	0.00031525	9.9397e-05	85.636	3.6261e-06	3.7783e-06	109.57	18.758	3.4357e-06	3.6103e-06	33.533	11.608	6.0656	2.2474	3.7017e-06	5.1954	222.643	107.345	241.438	38.497	348.663	75.105	40.035	46.221	199.403	196.798	45.165	51.024	50.940	53.572	208.880	53.462	-8191	255	
40418.121	1	1	0	0	0.15533	0.077316	0.094058	0.10362	0.218	0.12436	0.083723	0.18758	0.12332	0.087102	0.28123	0.13655	0.19741	0.1952	0.18968	0.096938	-1.9771	-2.4375	-2.6688	-2.4021	-2.5	-2.7188	-2.5833	-2.5187	-2.7292	-2.4208	-2.6583	-2.5125	-2.4188	-2.525	-2.2771	-2.5396	255.543	217.989	174.723	316.486	252.077	312.023	248.160	263.919	318.686	348.564	129.607	244.054	66.731	35.361	339.205	170.181	2.0017e-05	6.3106e-05	7.947e-05	72.661	6.0154e-07	1.1975e-06	101.71	16.649	1.1503e-06	8.9973e-07	30.195	10.315	5.2541	1.9402	3.0194e-07	4.63	0.00027044	0.00033821	9.9639e-05	85.655	3.4271e-06	4.1751e-06	109.95	18.889	3.5044e-06	3.7341e-06	33.762	11.591	6.0816	2.2777	3.5908e-06	5.2634	216.237	147.797	198.565	38.713	334.733	53.738	39.721	46.258	265.322	192.505	45.517	50.804	51.144	54.471	289.577	53.243	-8191	255	
40418.215	1	1	0	0	0.14687	0.21632	0.3143	0.078167	0.25593	0.091981	0.12609	0.27613	0.15522	0.0266	0.25915	0.03769	0.22336	0.083659	0.089267	0.24682	-2.475	-2.3375	-2.7521	-2.6792	-2.3812	-2.6646	-2.275	-2.5396	-2.7146	-2.2771	-2.4313	-2.5771	-2.3312	-2.7708	-2.6271	-2.5646	143.135	147.386	107.656	377.583	379.940	330.988	183.942	255.884	301.685	91.332	328.849	132.864	152.313	378.957	83.225	179.068	2.7396e-05	2.9749e-05	1.0732e-05	71.874	2.883e-07	7.9559e-07	101.26	16.653	1.1525e-06	6.7846e-07	30.366	10.441	5.2896	1.9579	1.7471e-06	4.7106	0.00026576	0.00034159	9.7046e-05	85.459	3.4985e-06	4.1926e-06	110.33	18.805	3.6531e-06	3.7821e-06	33.877	11.715	6.1535	2.2886	3.6411e-06	5.2579	259.249	158.670	29.196	38.615	336.257	174.219	39.531	46.455	235.070	113.843	45.080	50.573	51.372	54.907	77.319	53.744	-8191	255	
40418.336	1	1	0	0	0.11481	0.13205	0.020721	0.12532	0.21865	0.094115	0.10539	0.19315	0.045994	0.22106	0.071688	0.10962	0.1872	0.24623	0.073981	0.25646	-2.3854	-2.4188	-2.5417	-2.5292	-2.4979	-2.5438	-2.5021	-2.3396	-2.6396	-2.2667	-2.4896	-2.75	-2.5375	-2.8354	-2.5021	-2.5187	374.197	36.772	201.096	314.646	386.876	238.348	319.480	230.753	187.402	135.827	113.129	257.599	227.428	34.237	344.420	82.379	3.7125e-05	0.00010094	5.2433e-05	72.494	1.315e-06	3.8013e-06	101.13	16.649	8.078e-07	4.5546e-07	29.337	10.25	5.1465	1.9407	2.1405e-06	4.6284	0.0002795	0.00034873	9.4695e-05	85.941	3.5398e-06	4.3367e-06	110.3	18.887	3.6763e-06	3.8842e-06	33.395	11.647	6.1018	2.2825	3.4311e-06	5.1831	256.098	88.107	109.002	38.793	280.285	375.653	39.373	45.299	198.547	60.730	44.537	50.414	50.939	53.672	148.702	53.237	-8191	255	
40418.434	1	1	0	0	0.10873	0.015479	0.12503	0.12493	0.37967	0.03495	0.10904	0.037454	0.16283	0.10416	0.19046	0.13753	0.15296	0.18597	0.13847	0.089481	-2.3479	-2.4979	-2.3979	-2.7792	-2.4083	-2.6896	-2.4708	-2.2313	-2.6354	-2.4896	-2.4646	-2.6729	-2.3812	-2.5812	-2.5354	-2.4958	184.788	376.593	235.035	154.994	357.585	362.827	61.970	261.189	384.286	162.985	144.811	291.071	341.578	348.250	162.845	219.165	4.614e-05	0.00015848	2.1739e-05	72.844	1.5693e-06	1.711e-06	101.07	16.058	4.9167e-07	1.0553e-06	29.881	10.183	5.1642	1.9228	6.4229e-07	4.66	0.00031718	0.00034848	9.1138e-05	85.951	3.7016e-06	4.2959e-06	110.02	18.661	3.776e-06	3.8329e-06	33.452	11.573	6.0879	2.2621	3.4735e-06	5.1894	204.978	238.185	207.570	39.217	296.892	263.840	39.579	46.377	29.384	329.841	44.630	49.455	50.882	54.011	242.363	52.839	-8191	255	
40418.527	1	1	0	0	0.38343	0.12836	0.338	0.15301	0.066695	0.28335	0.10002	0.0456	0.21654	0.058914	0.2748	0.17243	0.17736	0.1514	0.148	0.24464	-2.1813	-2.4437	-2.5208	-2.8729	-2.35	-2.5021	-2.5854	-2.3375	-2.8667	-2.5021	-2.4708	-2.6937	-2.5812	-2.8083	-2.7396	-2.4813	99.627	151.116	113.681	117.134	47.493	40.287	236.058	329.556	106.407	253.287	207.332	253.982	68.830	36.757	235.416	340.039	4.2296e-05	0.00026172	6.5542e-05	71.599	2.4291e-06	2.6037e-06	101.04	15.997	5.0313e-07	2.561e-06	28.839	10.314	5.2674	1.9553	7.9467e-07	4.5476	0.00032085	0.0003315	9.0257e-05	85.756	3.6726e-06	4.2489e-06	109.56	18.641	3.7633e-06	3.6128e-06	33.012	11.661	6.1112	2.2697	3.4672e-06	5.1912	206.870	115.179	90.386	38.417	97.123	336.734	39.422	46.205	148.683	250.658	43.947	50.857	50.022	54.819	103.491	52.696	-8191	255	
40418.648	1	1	0	0	0.14257	0.21462	0.13679	0.22814	0.15054	0.32376	0.1712	0.11494	0.2478	0.11106	0.095827	0.15592	0.11819	0.19377	0.040742	0.15739	-2.2146	-2.5021	-2.3979	-2.6813	-2.4188	-2.5875	-2.6125	-2.3146	-2.7188	-2.3292	-2.3271	-2.7042	-2.4875	-2.425	-2.6958	-2.2854	121.638	168.820	72.401	89.579	278.132	298.963	34.536	353.504	87.067	133.933	327.638	289.407	378.160	54.371	258.415	239.410	5.0526e-05	0.00016822	3.5351e-05	72.488	2.3666e-06	1.8858e-06	100.44	16.272	5.7394e-07	2.4357e-06	29.742	10.372	5.1732	1.9265	1.2041e-06	4.6496	0.0003291	0.00032274	8.8044e-05	86.057	3.6522e-06	3.9569e-06	109.46	18.632	3.8026e-06	3.4824e-06	33.18	11.785	6.1155	2.2572	3.5187e-06	5.2431	216.819	161.156	387.793	39.884	217.829	323.704	39.482	46.438	127.262	198.406	44.978	50.856	49.627	53.914	208.036	53.245	-8191	255	
40418.719	1	1	0	0	0.22566	0.096082	0.13631	0.19443	0.034479	0.040075	0.16441	0.088763	0.079493	0.28609	0.14563	0.066686	0.16878	0.27654	0.1847	0.31837	-2.2708	-2.5458	-2.5854	-2.5146	-2.4583	-2.6667	-2.8021	-2.4625	-2.725	-2.7062	-2.3375	-2.5792	-2.5396	-2.45	-2.6937	-2.4708	151.445	318.767	149.978	279.181	109.235	328.165	29.792	60.355	338.892	149.180	208.094	356.915	34.413	52.661	27.639	98.541	3.6874e-05	7.2952e-05	4.4453e-06	72.661	2.0391e-06	2.9745e-06	99.961	16.459	1.0439e-06	8.3552e-07	29.571	10.274	5.1273	1.9332	1.2034e-06	4.5107	0.00031156	0.00032087	9.0252e-05	87.557	3.6135e-06	3.9902e-06	109.98	18.752	3.5925e-06	3.5498e-06	33.158	11.722	6.0094	2.2453	3.6146e-06	5.1533	206.672	378.956	95.237	39.367	236.911	41.919	39.965	44.890	98.270	285.023	44.812	50.445	52.295	54.356	120.204	53.224	-8191	255	
40418.816	1	1	0	0	0.14641	0.15617	0.23646	0.078885	0.14309	0.16744	0.24022	0.17711	0.12748	0.211	0.31757	0.098039	0.13462	0.093013	0.19231	0.079991	-2.225	-2.6458	-2.3854	-2.6542	-2.4625	-2.7021	-2.8354	-2.2729	-2.7812	-2.8021	-2.4813	-2.7042	-2.5021	-2.3438	-2.8229	-2.5167	183.206	185.888	40.827	374.997	220.784	127.182	331.157	89.323	356.172	277.107	79.662	208.236	211.777	357.269	384.183	332.084	3.8213e-05	0.00028966	1.2314e-05	72.973	1.8821e-06	1.3543e-06	99.551	16.316	1.039e-06	9.577e-07	29.329	10.32	5.2067	1.9151	6.3999e-07	4.5702	0.00030301	0.00032546	9.2888e-05	86.088	3.4427e-06	3.6524e-06	109.36	18.628	3.498e-06	3.5608e-06	33.055	11.689	6.0523	2.2401	3.7325e-06	5.1592	229.300	149.675	280.050	38.085	187.385	318.898	39.607	45.911	153.906	89.269	43.820	50.453	51.049	54.098	295.476	53.573	-8191	255	
40418.910	1	1	0	0	0.14854	0.025581	0.21904	0.12884	0.057787	0.15948	0.058491	0.11939	0.13709	0.14126	0.15177	0.17773	0.36589	0.21328	0.24708	0.16448	-2.1375	-2.6542	-2.3208	-2.6229	-2.5083	-2.4896	-2.6229	-2.55	-2.5687	-2.6646	-2.3375	-2.7417	-2.5646	-2.4229	-2.8063	-2.5375	123.102	313.063	347.133	41.436	123.483	143.396	376.678	275.327	308.823	372.384	217.154	41.898	97.431	246.435	179.027	216.648	2.5352e-05	0.00014272	1.2612e-05	72.254	7.3554e-07	1.5076e-06	100.23	16.127	1.5453e-06	1.7929e-06	29.127	10.447	5.1526	1.911	1.9745e-06	4.5778	0.00029169	0.00032405	9.3558e-05	86.209	3.3438e-06	3.5168e-06	110.35	18.572	3.4112e-06	3.7268e-06	33.081	11.735	6.0185	2.2426	3.7909e-06	5.1471	229.964	77.239	113.953	39.202	163.921	184.905	39.813	45.542	231.430	215.027	44.522	49.672	51.777	54.207	193.631	53.100	-8191	255	
40419.031	1	1	0	0	0.20131	0.072417	0.051876	0.20611	0.13167	0.2283	0.17808	0.17813	0.022102	0.23372	0.072667	0.13031	0.025595	0.12898	0.13034	0.03578	-2.1604	-2.6542	-2.2875	-2.7313	-2.4583	-2.6208	-2.6604	-2.45	-2.6312	-2.5625	-2.4437	-2.6	-2.6146	-2.4104	-2.7292	-2.3708	118.654	193.252	160.946	253.254	254.603	98.854	128.533	117.544	44.256	377.241	199.916	289.703	117.057	255.396	102.881	250.442	3.7435e-05	0.0001044	2.8904e-05	71.974	1.9423e-06	1.3454e-06	100.73	16.235	6.9375e-07	1.0529e-06	29.614	10.235	5.0826	1.9422	1.1467e-06	4.6135	0.00030158	0.00034151	9.2028e-05	85.557	3.3474e-06	3.6951e-06	110.43	18.621	3.4209e-06	3.7145e-06	33.209	11.689	6.0088	2.2556	3.7906e-06	5.1968	224.269	225.859	273.724	39.359	336.290	297.413	40.041	45.550	264.224	170.211	44.748	50.049	50.454	55.902	193.241	53.751	-8191	255	
40419.129	1	1	0	0	0.11635	0.22527	0.28458	0.0084578	0.29297	0.26003	0.16711	0.021868	0.28555	0.20147	0.15241	0.2466	0.25498	0.22319	0.02175	0.19217	-2.1125	-2.6396	-2.4146	-2.5125	-2.7167	-2.4896	-2.6729	-2.3812	-2.4458	-2.6562	-2.4229	-2.7854	-2.5271	-2.3104	-2.6375	-2.5271	286.375	290.700	277.870	338.090	104.121	382.455	150.394	83.560	388.230	100.426	167.434	46.248	40.727	158.029	259.695	117.016	4.1838e-05	0.00013073	5.7243e-05	72.955	2.2368e-06	5.1458e-07	100.47	16.296	1.7838e-06	8.1842e-07	29.374	10.096	5.1279	1.9143	3.2202e-07	4.5	0.00028114	0.00036455	9.1255e-05	86.273	3.5065e-06	3.6533e-06	110.72	18.607	3.4096e-06	3.8631e-06	33.074	11.584	6.0351	2.2367	3.6186e-06	5.1032	241.598	46.892	198.972	39.941	143.360	281.245	39.143	46.626	200.552	256.953	44.110	50.284	50.400	53.634	114.322	53.641	-8191	255	
40419.227	1	1	0	0	0.48633	0.27905	0.15848	0.23581	0.17346	0.22669	0.15701	0.1158	0.13537	0.22382	0.1832	0.11754	0.14657	0.0074035	0.17626	0.086004	-2.0208	-2.7604	-2.3563	-2.6333	-2.6604	-2.4104	-2.6625	-2.4688	-2.3854	-2.8771	-2.6625	-2.5438	-2.6188	-2.5021	-2.5646	-2.4125	275.249	248.372	358.314	70.852	148.606	77.075	355.714	112.540	312.922	348.771	107.704	136.337	198.148	267.958	130.572	261.809	4.4331e-05	7.0056e-05	2.7946e-05	72.359	1.6135e-06	7.729e-07	100.83	16.316	2.2681e-06	1.6101e-06	29.413	10.155	5.1299	1.8713	9.0397e-07	4.5657	0.00026449	0.00040061	8.9345e-05	85.104	3.5256e-06	3.5716e-06	110.17	18.502	3.4853e-06	3.8013e-06	32.826	11.553	6.0118	2.1919	3.5794e-06	5.102	209.517	138.141	276.638	38.393	241.483	251.541	39.342	46.740	281.727	205.905	43.969	50.139	51.208	54.425	241.701	53.331	-8191	255	
40419.297	1	1	0	0	0.12069	0.29484	0.26989	0.20508	0.19956	0.14392	0.20396	0.14377	0.088132	0.12114	0.11573	0.21447	0.072811	0.22485	0.16711	0.030409	-2.0604	-2.5854	-2.4854	-2.4062	-2.8292	-2.5167	-2.6354	-2.7479	-2.4771	-2.7917	-2.6125	-2.6542	-2.7854	-2.6167	-2.6583	-2.5771	283.369	126.838	326.604	179.944	351.077	261.800	194.469	382.776	171.851	75.211	47.027	271.740	277.020	316.037	68.650	260.759	2.2607e-05	6.578e-05	2.4632e-05	71.512	1.5418e-06	1.3331e-06	100.69	16.289	4.8222e-07	1.2537e-06	29.317	10.269	5.1133	1.894	1.3055e-07	4.4836	0.00027129	0.00038072	8.5226e-05	85.473	3.7704e-06	3.7011e-06	109.81	18.46	3.5859e-06	3.7689e-06	32.827	11.463	6.0266	2.2121	3.4241e-06	5.1177	229.401	260.682	354.017	39.347	246.049	216.482	39.905	46.031	142.169	176.952	44.618	50.029	50.779	55.410	375.173	53.016	-8191	255	
40419.418	1	1	0	0	0.19299	0.13331	0.14085	0.13253	0.21074	0.20128	0.095534	0.049067	0.17695	0.1916	0.079755	0.11514	0.20009	0.27763	0.24275	0.15109	-1.9542	-2.7687	-2.5896	-2.5083	-2.8354	-2.3438	-2.5875	-2.4458	-2.5125	-2.7875	-2.6188	-2.5979	-2.6958	-2.4354	-2.8354	-2.7604	314.547	333.799	283.081	78.312	111.075	127.663	298.712	90.393	168.392	359.252	108.638	113.881	41.062	42.678	141.114	366.862	4.1284e-05	3.0593e-05	3.3478e-05	71.356	6.5844e-07	1.2998e-06	101.01	16.472	6.0981e-07	8.8308e-07	29.583	10.315	5.1837	1.8399	1.3489e-06	4.5972	0.00027926	0.00038795	8.6186e-05	84.935	3.7399e-06	3.5815e-06	109.83	18.694	3.5782e-06	3.7613e-06	33.05	11.55	6.0975	2.2094	3.5082e-06	5.1618	187.544	77.335	156.078	38.427	198.229	195.372	39.240	45.678	323.788	330.960	44.496	50.690	50.902	54.594	355.104	53.795	-8191	255	
40419.512	1	1	0	0	0.14071	0.24702	0.16104	0.26519	0.25699	0.2182	0.069299	0.15016	0.17134	0.12082	0.22032	0.064041	0.24314	0.12036	0.20854	0.26218	-2.0604	-2.7854	-2.6354	-2.4062	-3.0083	-2.9958	-2.6604	-2.5917	-2.3479	-2.8063	-2.5854	-2.5104	-2.7604	-2.5042	-2.5438	-2.8438	247.992	177.267	35.285	165.842	180.976	61.978	323.224	199.316	353.564	256.955	76.144	204.187	169.967	309.307	138.608	108.603	3.4183e-05	8.8814e-05	5.1566e-05	71.887	1.2998e-06	9.8612e-07	101.36	16.363	1.1617e-06	1.6909e-06	29.922	10.292	5.1109	1.8633	1.4727e-06	4.5544	0.00027184	0.00036632	8.7642e-05	86.179	3.833e-06	3.5757e-06	110.01	18.597	3.5791e-06	3.7234e-06	33.11	11.534	6.0462	2.1869	3.5391e-06	5.1093	208.939	279.595	37.992	40.441	113.431	126.109	39.234	46.685	108.091	274.755	44.703	50.467	50.168	54.027	171.212	53.637	-8191	255	
40419.609	1	1	0	0	0.29265	0.096756	0.12335	0.15607	0.062071	0.057033	0.12716	0.22813	0.25052	0.22576	0.25195	0.24217	0.24774	0.074206	0.31941	0.21674	-1.8729	-2.6792	-2.6437	-2.3125	-2.7083	-2.5417	-2.6104	-2.6604	-2.6271	-2.6083	-2.7062	-2.4729	-2.9292	-2.5375	-2.575	-2.8229	340.498	362.581	107.199	188.855	166.001	305.197	46.144	279.166	46.901	35.152	221.288	278.841	145.197	212.287	286.330	110.707	3.7627e-05	0.00011022	3.2785e-05	71.807	1.4421e-06	1.3707e-06	99.709	16.429	3.0993e-07	1.3948e-06	29.103	10.234	5.1009	1.8827	1.0716e-06	4.587	0.00027528	0.00036878	9.256e-05	85.925	3.7269e-06	3.4444e-06	108.84	18.581	3.5415e-06	3.6857e-06	32.634	11.446	6.0633	2.188	3.6717e-06	5.1333	227.147	165.753	111.024	38.404	56.110	113.642	39.564	46.465	205.187	279.492	43.800	50.624	50.227	54.421	104.220	53.679	-8191	255	
40419.730	1	1	0	0	0.23116	0.19737	0.16324	0.015608	0.026468	0.23195	0.092954	0.33734	0.25477	0.20652	0.33286	0.23811	0.2347	0.14577	0.063515	0.28254	-1.8813	-2.5625	-2.6813	-2.6625	-2.8146	-2.5771	-2.5938	-2.7521	-2.45	-2.6458	-2.725	-2.5375	-2.8063	-2.6875	-2.5125	-2.6708	231.744	91.536	246.593	94.307	110.940	356.748	321.728	313.899	321.821	179.105	26.635	263.859	258.437	374.827	180.875	151.994	1.5646e-05	8.1896e-05	4.0885e-06	69.029	1.2195e-06	8.3389e-07	100.14	16.245	1.3304e-06	6.7429e-07	29.563	10.033	5.1083	1.8697	3.0034e-07	4.6401	0.00027103	0.00036098	9.6168e-05	85.122	3.6802e-06	3.6111e-06	109	18.735	3.4363e-06	3.7243e-06	32.978	11.48	6.0548	2.2183	3.8398e-06	5.1683	218.915	287.299	227.099	37.615	175.592	358.188	38.948	44.431	122.736	355.841	45.089	50.863	50.799	54.128	272.223	53.571	-8191	255	
40419.824	1	1	0	0	0.31104	0.15898	0.12669	0.057224	0.13328	0.10378	0.12834	0.08708	0.047787	0.080661	0.083336	0.14226	0.10146	0.07867	0.01731	0.06612	-2.0875	-2.6146	-2.6604	-2.5875	-2.6667	-2.7313	-2.4	-2.6833	-2.4938	-2.8833	-2.8125	-2.4521	-2.6875	-2.5563	-2.4583	-2.6813	83.488	228.663	304.497	306.151	355.388	80.203	371.569	189.862	332.852	204.303	327.092	261.066	105.614	353.069	193.784	192.200	3.2478e-05	0.00019596	2.3839e-05	71.631	1.063e-06	1.6298e-06	100.07	16.371	4.607e-07	1.9858e-06	29.632	10.186	5.2894	1.9027	1.066e-06	4.591	0.00026565	0.00038287	0.00010083	85.59	3.6485e-06	3.6118e-06	109.94	18.782	3.4653e-06	3.7491e-06	33.281	11.6	6.1259	2.24	3.7072e-06	5.1876	189.260	207.721	358.215	39.198	177.646	218.429	39.423	45.947	204.211	172.586	45.407	50.582	51.087	54.538	124.106	53.974	-8191	255	
40419.898	1	1	0	0	0.058392	0.076321	0.15055	0.21055	0.11662	0.47201	0.13946	0.05733	0.24582	0.042066	0.17156	0.22109	0.33661	0.086793	0.19244	0.12914	-2.1625	-2.5458	-2.6417	-2.3854	-2.725	-2.7208	-2.3396	-2.6854	-2.5792	-2.6188	-2.7208	-2.55	-2.5792	-2.7146	-2.5292	-2.7875	236.797	319.665	249.058	150.614	33.507	34.263	268.179	289.809	260.084	313.117	106.690	43.458	189.369	250.854	83.708	88.058	3.5995e-05	6.3321e-05	2.3974e-05	71.281	1.269e-06	9.8455e-07	100.83	16.382	1.1311e-06	1.8199e-06	29.225	10.355	5.279	1.9113	3.3643e-07	4.5887	0.00027005	0.00035258	0.00010525	86.227	3.6624e-06	3.9036e-06	110.16	19.027	3.4631e-06	3.8586e-06	33.311	11.59	6.1417	2.2513	3.6975e-06	5.1488	202.407	243.536	43.966	39.639	106.251	182.375	39.811	45.761	265.901	318.363	45.317	50.446	50.969	54.585	31.727	52.514	-8191	255	
40420.016	1	1	0	0	0.014049	0.050697	0.27794	0.11641	0.27664	0.065774	0.11979	0.17124	0.065204	0.12948	0.24217	0.069316	0.15671	0.048434	0.23045	0.2233	-2.0792	-2.4062	-2.6146	-2.475	-2.5854	-2.575	-2.3833	-2.7583	-2.625	-2.425	-2.7271	-2.5792	-2.575	-2.7313	-2.2667	-2.575	359.311	307.934	247.532	323.489	282.206	212.733	35.176	239.917	195.760	65.711	226.630	45.609	295.286	368.736	43.468	292.526	1.7438e-05	0.0001974	7.7181e-05	72.496	1.2839e-06	2.124e-06	101.36	16.244	1.2553e-07	1.9871e-06	29.593	10.095	5.1875	1.8557	1.4153e-06	4.5526	0.00027302	0.00036134	0.00011354	85.868	3.6716e-06	3.9465e-06	109.88	18.654	3.6137e-06	3.9041e-06	33.354	11.516	6.1327	2.2421	3.6318e-06	5.1527	223.541	358.142	222.556	38.682	181.988	125.897	39.688	46.766	31.323	205.876	44.218	50.276	51.513	54.812	248.477	52.619	-8191	255	
40420.113	1	1	0	0	0.12048	0.28577	0.41818	0.17397	0.21064	0.40133	0.28391	0.16143	0.18814	0.081787	0.18995	0.09372	0.1268	0.11459	0.047822	0.16002	-2.2	-2.4167	-2.7646	-2.4708	-2.5396	-2.8146	-2.5104	-2.6667	-2.5062	-2.4104	-2.6875	-2.3729	-2.4938	-2.7583	-2.4417	-2.7062	371.737	260.742	248.983	273.672	293.331	205.910	343.647	223.466	91.774	297.002	387.627	112.121	152.180	307.630	151.446	196.334	5.2925e-05	0.00020805	6.7026e-05	72.481	1.4937e-06	1.0732e-06	101.21	16.565	1.2529e-06	1.7056e-06	29.475	10.378	5.1838	1.8772	8.9185e-07	4.6368	0.00028179	0.00036058	0.00010635	85.579	3.7379e-06	4.0577e-06	109.87	18.989	3.7773e-06	3.9581e-06	33.384	11.612	6.0634	2.2409	3.4947e-06	5.1714	188.887	347.612	256.067	39.739	151.860	280.515	39.801	46.042	166.483	51.492	44.345	50.883	50.826	54.115	125.999	53.202	-8191	255	
40420.211	1	1	0	0	0.18981	0.15829	0.11877	0.074291	0.05195	0.035128	0.080295	0.1172	0.059169	0.17167	0.057141	0.20146	0.38429	0.18631	0.077104	0.24708	-2.2167	-2.6083	-2.8417	-2.5104	-2.5187	-2.8063	-2.4854	-2.6375	-2.7417	-2.5896	-2.8	-2.6312	-2.5521	-2.7542	-2.4479	-2.8125	232.993	293.721	118.630	155.024	188.823	305.224	326.009	386.658	282.994	159.015	91.178	286.011	107.454	351.549	272.763	194.287	4.1038e-05	2.8101e-05	3.6051e-05	73.363	2.7985e-06	9.9476e-07	100.88	16.701	2.5275e-07	1.8967e-06	29.92	10.309	5.2169	1.8983	2.2235e-06	4.6076	0.00029037	0.00035479	0.00010907	86.003	3.8116e-06	3.9554e-06	110.31	18.948	3.8314e-06	3.7438e-06	33.427	11.651	6.0774	2.2766	3.484e-06	5.206	235.389	134.423	310.589	39.823	185.562	365.532	39.472	45.992	174.405	135.951	44.351	50.620	50.638	55.731	172.277	54.104	-8191	255	
40420.328	1	1	0	0	0.13949	0.1246	0.17555	0.2759	0.047954	0.014301	0.16711	0.12276	0.25913	0.094375	0.3041	0.16246	0.22106	0.16912	0.24809	0.14248	-2.3146	-2.6271	-2.5667	-2.4167	-2.4792	-2.8812	-2.7	-2.5354	-2.5354	-2.5354	-2.6688	-2.675	-2.4688	-2.775	-2.6042	-2.6333	109.853	120.367	177.951	229.384	267.270	379.290	255.401	111.718	88.203	351.920	256.903	91.228	150.407	255.342	60.815	47.482	3.303e-05	0.0002928	4.6349e-05	74.692	1.3511e-06	8.3798e-07	100.9	16.659	4.0818e-07	1.1666e-06	29.255	10.283	5.1613	1.9001	1.6675e-06	4.6003	0.00028722	0.00033829	0.00010161	86.617	3.7964e-06	3.8802e-06	110.3	18.971	3.8018e-06	3.6713e-06	33.241	11.608	6.0276	2.2411	3.4763e-06	5.1378	201.332	112.974	106.371	39.578	263.846	35.553	39.839	45.348	323.500	28.763	45.028	51.106	50.240	54.513	57.154	53.527	-8191	255	
40420.426	1	1	0	0	0.085527	0.16576	0.23337	0.042713	0.18383	0.2301	0.095772	0.2567	0.066477	0.14265	0.12302	0.17458	0.28065	0.12557	0.073292	0.18851	-2.3604	-2.4833	-2.7042	-2.7625	-2.5646	-2.7667	-2.4979	-2.6292	-2.7667	-2.5687	-2.8292	-2.9062	-2.3375	-2.6875	-2.7146	-2.6583	373.019	161.616	196.768	355.343	379.019	230.620	117.574	374.273	72.780	364.431	365.328	242.817	119.006	272.183	55.248	113.760	3.3143e-05	0.00014073	5.8856e-05	72.971	2.3003e-06	2.1194e-06	100.69	16.295	1.2384e-06	1.3723e-06	29.308	10.042	5.0499	1.8451	1.214e-06	4.4838	0.00029288	0.00033538	0.00010766	86.188	3.7942e-06	3.878e-06	109.22	18.681	3.9753e-06	3.5819e-06	32.945	11.474	6.004	2.2356	3.6183e-06	5.1075	206.319	182.665	248.934	40.396	83.709	133.740	39.004	46.401	222.125	280.219	44.521	50.166	50.786	54.017	189.419	53.091	-8191	255	
40420.520	1	1	0	0	0.17675	0.21575	0.16647	0.099273	0.074147	0.095929	0.072195	0.27243	0.36334	0.19685	0.146	0.073752	0.078523	0.1685	0.10087	0.16383	-2.325	-2.4417	-2.5896	-2.6729	-2.4437	-2.7333	-2.4542	-2.4229	-2.9729	-2.4333	-2.7208	-2.7042	-2.4062	-2.7208	-2.5438	-2.5062	271.778	346.367	73.494	299.253	109.675	311.598	84.960	84.022	65.352	57.935	295.602	354.928	246.652	381.651	323.917	339.560	2.6624e-05	0.00020058	4.1619e-05	72.261	1.1394e-06	6.3167e-07	101.06	16.571	1.0034e-06	3.0393e-06	29.396	10.282	5.217	1.8831	1.726e-06	4.6499	0.0002962	0.00033353	0.00010703	86.577	3.7274e-06	3.7725e-06	109.49	18.741	4.4282e-06	3.6589e-06	33.349	11.617	6.0378	2.2448	3.8331e-06	5.1815	189.575	196.475	274.960	40.001	211.871	334.773	39.153	46.124	197.307	184.854	44.331	49.971	50.816	55.146	313.324	52.712	-8191	255	
40420.594	1	1	0	0	0.21751	0.11612	0.10359	0.085824	0.11906	0.10986	0.13876	0.28775	0.094648	0.22975	0.13041	0.1645	0.24142	0.045779	0.14535	0.23457	-2.3292	-2.3979	-2.5458	-2.7708	-2.4938	-2.6104	-2.3667	-2.4479	-2.7833	-2.7146	-2.4021	-2.6562	-2.3542	-2.7062	-2.7125	-2.3063	271.613	278.682	331.340	234.360	338.693	244.796	55.272	38.080	190.938	133.053	87.352	358.751	160.841	244.404	246.467	124.656	3.394e-05	2.0356e-05	8.4036e-05	73.521	7.2005e-07	8.5331e-07	101.28	16.547	7.16e-07	1.5642e-06	30.09	10.253	5.2673	1.9261	1.448e-06	4.644	0.00029546	0.0003379	0.00011164	87.486	3.6885e-06	3.9014e-06	110.32	18.849	4.1539e-06	3.6884e-06	33.434	11.689	6.0542	2.2791	3.8371e-06	5.2109	226.260	305.215	309.567	39.700	126.597	129.750	39.842	46.398	65.100	99.592	44.057	50.439	51.747	54.583	140.680	53.713	-8191	255	
40420.691	1	1	0	0	0.10199	0.21986	0.25965	0.12255	0.19216	0.17984	0.25579	0.03814	0.16843	0.14445	0.10492	0.15169	0.11087	0.23062	0.051192	0.20702	-2.2562	-2.4625	-2.5146	-2.8417	-2.4667	-2.7875	-2.5563	-2.3333	-2.9167	-2.6813	-2.7125	-2.9313	-2.4396	-2.6813	-2.7083	-2.3979	29.021	93.718	348.609	162.707	82.641	238.472	322.404	295.477	173.919	357.669	317.002	166.284	159.904	241.836	161.067	59.173	2.8e-05	0.000202	5.662e-05	71.096	3.0988e-07	1.13e-06	101.12	16.41	8.7545e-07	1.2561e-06	29.854	10.401	5.1078	1.9297	1.2126e-06	4.6302	0.00027921	0.00033953	0.00010267	87.252	3.5601e-06	3.9405e-06	110.69	18.85	4.2215e-06	3.8267e-06	33.469	11.713	6.0251	2.2681	4.0141e-06	5.1751	240.896	103.854	278.992	38.502	146.477	122.272	39.488	46.147	111.958	330.146	44.933	50.574	51.006	54.345	116.714	53.558	-8191	255	
40420.809	1	1	0	0	0.15056	0.17268	0.077916	0.20776	0.071171	0.044571	0.16446	0.32965	0.12037	0.063398	0.2516	0.19898	0.22944	0.12624	0.076464	0.080955	-2.1937	-2.4938	-2.4917	-2.8292	-2.5083	-2.7792	-2.7812	-2.4229	-2.7729	-2.6396	-2.4292	-2.7979	-2.4979	-2.525	-2.7604	-2.4896	295.090	111.895	110.292	131.419	342.536	254.045	44.863	84.612	267.048	66.278	296.220	316.142	109.891	382.569	57.190	101.344	4.6133e-05	0.0001565	5.9415e-05	71.268	8.3826e-07	2.5201e-06	102.12	16.338	1.0979e-06	1.9469e-06	29.809	10.271	5.1997	1.8632	1.115e-06	4.6241	0.00028836	0.00036369	0.00010357	87.955	3.612e-06	4.0454e-06	110.5	18.687	4.0851e-06	3.9652e-06	33.385	11.58	6.0176	2.2579	4.1338e-06	5.1487	208.951	177.327	366.274	39.213	270.276	319.111	39.898	46.175	262.920	372.605	43.511	50.332	50.058	54.878	352.920	53.244	-8191	255	
40420.906	1	1	0	0	0.084532	0.12663	0.09904	0.1644	0.20385	0.034609	0.18823	0.12633	0.14063	0.24983	0.21349	0.067622	0.047524	0.20191	0.21067	0.39455	-2.2354	-2.7979	-2.3937	-2.7854	-2.475	-2.55	-2.6833	-2.5271	-2.8063	-2.5583	-2.3563	-2.8646	-2.5521	-2.3542	-2.9417	-2.4708	139.358	372.516	146.994	50.463	343.689	190.332	121.271	386.559	115.495	163.246	286.779	135.079	136.507	378.159	140.203	364.000	2.3674e-05	2.0478e-05	2.9063e-05	72.954	1.137e-06	1.2129e-06	101.65	16.53	1.3896e-06	1.7956e-06	29.427	10.23	5.2186	1.8882	7.5687e-07	4.6331	0.00030056	0.00038383	0.00010408	88.097	3.9004e-06	4.1722e-06	110.57	18.698	4.3551e-06	4.2752e-06	33.242	11.6	6.108	2.2648	4.3807e-06	5.1715	211.583	114.890	38.505	39.918	320.018	93.774	39.788	45.120	215.139	203.670	44.531	50.926	50.265	54.503	277.397	52.813	-8191	255	
40421.000	1	1	0	0	0.15953	0.27492	0.041396	0.18118	0.15525	0.12089	0.24013	0.12769	0.15186	0.15696	0.24712	0.24869	0.028558	0.15906	0.21721	0.31109	-2.3083	-2.7292	-2.2396	-2.6521	-2.5729	-2.8771	-2.8083	-2.3354	-2.6583	-2.6	-2.5729	-2.6604	-2.5771	-2.4938	-2.8583	-2.3667	285.420	127.075	57.606	273.574	317.526	142.276	48.921	100.158	232.293	303.418	106.112	212.713	186.976	299.183	39.981	359.132	3.9322e-05	9.5631e-05	2.7116e-05	72.261	2.1446e-06	2.2687e-06	101.21	16.27	3.715e-08	1.4855e-06	29.81	10.314	5.2327	1.9174	5.9184e-07	4.621	0.00030966	0.00039995	0.00010292	88.279	4.0425e-06	4.2926e-06	110.82	18.793	4.5256e-06	4.3932e-06	33.537	11.697	6.139	2.2877	4.6982e-06	5.2245	241.254	242.069	145.782	39.330	306.008	256.612	39.815	46.409	49.168	107.497	44.166	50.417	51.425	54.905	249.928	53.135	-8191	255	
#DATA ENDS
