BOXY.EXE: ISS Imagent and Oximeter Data Acquisition Program Version 0.80
Ascii Record File

#ACQ INFORMATION
2  Detector Channels 
16  External MUX Channels 
1  Auxiliary Channels 
5000  Waveform (CCF) Frequency (Hz)
1  Waveforms Skipped 
30  Waveforms Averaged 
1  Cycles Averaged 
16  Acquisitions per Waveform 
10.0806  Updata Rate (Hz) 

#FILE INFORMATION
TRUE -- External MUX Channel results are PARSED.
FALSE -- AC DC and Phase are NOT grouped.
TRUE -- Companion Program Settings File CREATED.
FALSE -- AC data not excluded
FALSE -- DC data not excluded
FALSE -- Phase data not excluded
FALSE -- Auxillary Chn. data not excluded
Tab delimiters

#CALIBRATION STATE
TRUE -- Waveform Calibration Values APPLIED.


#AUX CALIBRATION VALUES
Val Type	aux-1	

Term	1.0000e+00	
Factor	0.0000e+00	


#WF CALIBRATION VALUES
A = Detector Channel
Val Type	A-AC1	A-AC2	A-AC3	A-AC4	A-AC5	A-AC6	A-AC7	A-AC8	A-AC9	A-AC10	A-AC11	A-AC12	A-AC13	A-AC14	A-AC15	A-AC16	A-DC1	A-DC2	A-DC3	A-DC4	A-DC5	A-DC6	A-DC7	A-DC8	A-DC9	A-DC10	A-DC11	A-DC12	A-DC13	A-DC14	A-DC15	A-DC16	A-Ph1	A-Ph2	A-Ph3	A-Ph4	A-Ph5	A-Ph6	A-Ph7	A-Ph8	A-Ph9	A-Ph10	A-Ph11	A-Ph12	A-Ph13	A-Ph14	A-Ph15	A-Ph16	

Term	0.00000e+00	0.00000e+00	0.00000e+00	0.00000e+00	0.00000e+00	0.00000e+00	0.00000e+00	0.00000e+00	0.00000e+00	0.00000e+00	0.00000e+00	0.00000e+00	0.00000e+00	0.00000e+00	0.00000e+00	0.00000e+00	0.00000e+00	0.00000e+00	0.00000e+00	0.00000e+00	0.00000e+00	0.00000e+00	0.00000e+00	0.00000e+00	0.00000e+00	0.00000e+00	0.00000e+00	0.00000e+00	0.00000e+00	0.00000e+00	0.00000e+00	0.00000e+00	0.00000e+00	0.00000e+00	0.00000e+00	0.00000e+00	0.00000e+00	0.00000e+00	0.00000e+00	0.00000e+00	0.00000e+00	0.00000e+00	0.00000e+00	0.00000e+00	0.00000e+00	0.00000e+00	0.00000e+00	0.00000e+00	
Factor	1.00000e+00	1.00000e+00	1.00000e+00	1.00000e+00	1.00000e+00	1.00000e+00	1.00000e+00	1.00000e+00	1.00000e+00	1.00000e+00	1.00000e+00	1.00000e+00	1.00000e+00	1.00000e+00	1.00000e+00	1.00000e+00	1.00000e+00	1.00000e+00	1.00000e+00	1.00000e+00	1.00000e+00	1.00000e+00	1.00000e+00	1.00000e+00	1.00000e+00	1.00000e+00	1.00000e+00	1.00000e+00	1.00000e+00	1.00000e+00	1.00000e+00	1.00000e+00	X	X	X	X	X	X	X	X	X	X	X	X	X	X	X	X	

B = Detector Channel
Val Type	B-AC1	B-AC2	B-AC3	B-AC4	B-AC5	B-AC6	B-AC7	B-AC8	B-AC9	B-AC10	B-AC11	B-AC12	B-AC13	B-AC14	B-AC15	B-AC16	B-DC1	B-DC2	B-DC3	B-DC4	B-DC5	B-DC6	B-DC7	B-DC8	B-DC9	B-DC10	B-DC11	B-DC12	B-DC13	B-DC14	B-DC15	B-DC16	B-Ph1	B-Ph2	B-Ph3	B-Ph4	B-Ph5	B-Ph6	B-Ph7	B-Ph8	B-Ph9	B-Ph10	B-Ph11	B-Ph12	B-Ph13	B-Ph14	B-Ph15	B-Ph16	

Term	0.00000e+00	0.00000e+00	0.00000e+00	0.00000e+00	0.00000e+00	0.00000e+00	0.00000e+00	0.00000e+00	0.00000e+00	0.00000e+00	0.00000e+00	0.00000e+00	0.00000e+00	0.00000e+00	0.00000e+00	0.00000e+00	0.00000e+00	0.00000e+00	0.00000e+00	0.00000e+00	0.00000e+00	0.00000e+00	0.00000e+00	0.00000e+00	0.00000e+00	0.00000e+00	0.00000e+00	0.00000e+00	0.00000e+00	0.00000e+00	0.00000e+00	0.00000e+00	-1.18791e+02	-1.25215e+02	-1.17839e+02	-1.82053e+02	-6.42788e+01	-6.59928e+01	-1.56652e+02	-1.62015e+02	-6.99740e+01	-7.11695e+01	-1.71895e+02	-1.71978e+02	-1.87684e+02	-1.76726e+02	-7.17241e+01	-1.49677e+02	
Factor	1.79471e-05	1.88059e-04	5.59287e-05	1.76571e-01	1.47773e-06	1.73745e-06	1.86571e-01	6.64046e-02	1.16227e-06	1.86482e-06	9.07154e-02	3.26452e-02	8.76552e-02	1.00672e-02	1.43800e-06	1.46748e-02	5.01725e-06	6.20844e-06	1.73368e-06	8.55426e-02	6.61984e-08	6.81833e-08	8.52622e-02	3.23439e-02	6.62346e-08	6.80223e-08	4.26692e-02	1.55219e-02	4.23821e-02	4.92464e-03	6.68454e-08	6.95878e-03	X	X	X	X	X	X	X	X	X	X	X	X	X	X	X	X	



#DISTANCE SETTINGS
A = Detector Channel
A-1	A-2	A-3	A-4	A-5	A-6	A-7	A-8	A-9	A-10	A-11	A-12	A-13	A-14	A-15	A-16	

2.5000e+00	3.0000e+00	2.5000e+00	3.0000e+00	2.0000e+00	3.0000e+00	1.5000e+00	3.0000e+00	3.0000e+00	3.0000e+00	3.0000e+00	3.0000e+00	3.0000e+00	3.0000e+00	1.5000e+00	3.0000e+00	

B = Detector Channel
B-1	B-2	B-3	B-4	B-5	B-6	B-7	B-8	B-9	B-10	B-11	B-12	B-13	B-14	B-15	B-16	

1.0000e+01	1.0000e+01	1.0000e+01	1.4400e+00	1.0000e+01	1.0000e+01	1.5100e+00	1.9400e+00	1.0000e+01	1.0000e+01	1.9900e+00	2.4900e+00	2.4100e+00	2.9000e+00	1.0000e+01	2.9800e+00	




#DATA BEGINS
time	group	step	mark	flag	A-AC1	A-AC2	A-AC3	A-AC4	A-AC5	A-AC6	A-AC7	A-AC8	A-AC9	A-AC10	A-AC11	A-AC12	A-AC13	A-AC14	A-AC15	A-AC16	A-DC1	A-DC2	A-DC3	A-DC4	A-DC5	A-DC6	A-DC7	A-DC8	A-DC9	A-DC10	A-DC11	A-DC12	A-DC13	A-DC14	A-DC15	A-DC16	A-Ph1	A-Ph2	A-Ph3	A-Ph4	A-Ph5	A-Ph6	A-Ph7	A-Ph8	A-Ph9	A-Ph10	A-Ph11	A-Ph12	A-Ph13	A-Ph14	A-Ph15	A-Ph16	B-AC1	B-AC2	B-AC3	B-AC4	B-AC5	B-AC6	B-AC7	B-AC8	B-AC9	B-AC10	B-AC11	B-AC12	B-AC13	B-AC14	B-AC15	B-AC16	B-DC1	B-DC2	B-DC3	B-DC4	B-DC5	B-DC6	B-DC7	B-DC8	B-DC9	B-DC10	B-DC11	B-DC12	B-DC13	B-DC14	B-DC15	B-DC16	B-Ph1	B-Ph2	B-Ph3	B-Ph4	B-Ph5	B-Ph6	B-Ph7	B-Ph8	B-Ph9	B-Ph10	B-Ph11	B-Ph12	B-Ph13	B-Ph14	B-Ph15	B-Ph16	aux-1	digaux	

638.240	1	1	0	768	0.13316	0.054371	0.15333	0.093394	0.088937	0.065717	0.26677	0.24405	0.19219	0.12137	0.098363	0.15704	0.20039	0.14162	0.13169	0.090402	-3.0625	-3.3542	-3.6042	-3.4521	-3.4333	-3.7521	-3.3729	-3.4729	-3.575	-3.1729	-3.7333	-3.3417	-3.4437	-3.5312	-3.1979	-3.5896	96.068	276.030	148.198	168.581	202.554	55.314	309.811	7.390	327.971	270.682	226.217	223.822	12.361	-1.140	112.396	152.108	0.00024068	0.00036785	2.2462e-05	840.54	4.5776e-06	3.5302e-06	1050.1	247.39	3.1115e-06	5.867e-06	401.53	144.14	74.392	25.92	3.1392e-06	62.77	0.00062671	0.00065291	0.00018515	809.28	7.3484e-06	7.3054e-06	1013.7	241.12	7.4657e-06	7.3759e-06	388.86	140.75	75.52	25.505	7.2483e-06	61.196	142.221	109.943	192.042	-4.792	180.215	140.884	-4.578	0.187	140.503	143.735	0.228	4.658	5.377	9.677	105.859	9.216	-8191	255	
638.336	1	1	0	0	0.15864	0.029322	0.21431	0.18359	0.24726	0.067029	0.28974	0.047583	0.20023	0.31473	0.065	0.093755	0.17018	0.16392	0.08675	0.26553	-2.8688	-3.2146	-3.4958	-3.5271	-3.1604	-3.8625	-3.4562	-3.4042	-3.3438	-3.3958	-3.7208	-3.3375	-3.3833	-3.6646	-3.2229	-3.5771	272.488	170.540	-16.258	17.756	-14.537	84.886	261.154	125.146	218.919	291.711	291.474	86.418	334.182	66.009	150.781	304.656	0.00026322	0.00079462	0.00017139	842.55	3.2583e-06	7.9098e-06	1055.9	247.49	2.0286e-07	4.9171e-06	400.33	142.7	73.526	25.695	5.1589e-06	61.871	0.00063913	0.0006765	0.00019387	810.67	7.4886e-06	7.579e-06	1014.7	240.87	7.5781e-06	7.3636e-06	387.45	139.79	74.875	25.261	7.6253e-06	60.469	142.455	77.467	74.871	-4.893	158.736	149.186	-4.672	-0.018	196.658	122.750	0.072	4.772	5.727	9.816	154.947	9.269	-8191	255	
638.432	1	1	0	0	0.27578	0.13752	0.088529	0.26835	0.055935	0.18075	0.13253	0.20977	0.06936	0.086568	0.078401	0.1051	0.26381	0.034621	0.19304	0.23699	-3.1667	-3.1875	-3.4833	-3.5208	-3.2958	-3.5292	-3.3563	-3.4188	-3.3563	-3.2562	-3.7	-3.6521	-3.1813	-3.6063	-3.2292	-3.4292	295.335	8.501	124.535	-12.389	83.600	78.437	296.461	259.350	218.776	35.571	30.101	319.842	11.415	303.276	69.799	-3.979	0.00026425	0.00054913	0.00015144	846.8	1.9939e-06	3.8033e-06	1057.9	246.95	3.9295e-06	5.355e-06	397.42	139.16	72.216	24.931	2.4244e-06	60.078	0.00065177	0.00068989	0.0001997	814.89	7.6749e-06	7.7595e-06	1019.9	239.89	7.6551e-06	7.7792e-06	383.79	137.13	74.377	24.546	8.3891e-06	58.551	149.381	38.216	133.913	-4.801	179.842	114.632	-4.295	0.112	153.186	177.483	0.214	4.970	6.039	9.879	136.306	9.468	-8191	255	
638.528	1	1	0	0	0.29021	0.02351	0.30742	0.21213	0.28237	0.16887	0.10554	0.091787	0.17786	0.1424	0.13428	0.1694	0.16127	0.070412	0.25708	0.13133	-3.0396	-3.3333	-3.4562	-3.3688	-3.1271	-3.7167	-3.475	-3.3604	-3.6125	-3.2917	-3.3604	-3.4313	-3.1833	-3.5687	-3.1562	-3.2125	298.243	211.505	-17.676	313.648	305.004	323.969	260.373	193.556	182.958	105.493	319.078	141.368	39.142	292.869	322.946	287.274	0.0002766	0.00053538	1.5013e-05	854.9	4.5041e-06	4.6909e-06	1061	245.65	9.8676e-07	6.5531e-06	393.27	138.26	71.044	24.286	4.273e-06	58.341	0.00069656	0.0007718	0.00022633	825.16	8.6058e-06	8.825e-06	1025.9	239.88	8.761e-06	8.9376e-06	381.51	135.66	73.572	24.171	9.1875e-06	57.161	147.625	89.200	330.949	-4.876	148.466	166.726	-4.540	0.238	64.566	148.675	0.047	5.050	5.744	9.555	95.046	9.379	-8191	255	
638.625	1	1	0	0	0.12878	0.074853	0.17135	0.38121	0.090309	0.17428	0.15263	0.14528	0.16953	0.11584	0.14	0.19407	0.12255	0.13659	0.1129	0.035001	-3.0083	-3.1521	-3.3708	-3.4813	-3.0438	-3.5646	-3.4208	-3.3479	-3.4938	-3.2521	-3.575	-3.3667	-3.1875	-3.5563	-3.3625	-3.3208	59.296	141.977	4.155	262.781	137.080	28.284	-5.531	1.830	257.227	146.088	1.447	12.112	44.426	147.637	115.653	56.684	0.00025822	0.0005364	0.00013307	854.73	1.5688e-06	1.1022e-05	1056.4	242.36	3.1023e-06	5.9992e-06	385.51	133.81	68.75	23.555	3.5973e-06	56.271	0.00075453	0.00084467	0.00024314	824.92	8.9939e-06	9.5915e-06	1020.5	236.32	9.1907e-06	9.1797e-06	375.34	131.53	72.123	23.269	9.053e-06	55.165	150.452	69.863	56.605	-4.664	134.837	131.350	-4.816	0.130	160.837	180.141	0.191	4.891	5.389	10.065	36.716	9.494	-8191	255	
638.721	1	1	0	0	0.020989	0.12853	0.15552	0.075366	0.055508	0.18133	0.42145	0.16299	0.21411	0.10354	0.040133	0.20796	0.098289	0.2589	0.15143	0.12759	-3.075	-3.1521	-3.3896	-3.4417	-3.3375	-3.4771	-3.3792	-3.3	-3.3604	-3.1083	-3.4021	-3.4021	-3.2229	-3.3937	-3.3083	-3.4396	309.496	51.635	241.732	163.074	284.154	126.039	254.007	143.335	193.237	155.093	65.247	299.366	285.408	13.779	8.450	327.561	0.00020948	0.00068541	6.0159e-05	854.89	1.5231e-06	3.8708e-06	1052.1	242.05	3.3453e-06	5.2321e-06	382.92	130.94	68.571	23.045	2.8377e-06	55.549	0.00075436	0.00083807	0.0002379	825.79	8.856e-06	9.4056e-06	1017.9	235.64	8.9524e-06	9.2848e-06	371.62	129.5	71.135	22.859	8.8861e-06	54.192	147.107	98.570	41.524	-4.779	253.514	98.860	-4.448	0.325	163.407	103.757	0.201	5.312	5.948	9.684	256.771	9.247	-8191	255	
638.841	1	1	0	0	0.2371	0.18107	0.15166	0.067652	0.13587	0.11201	0.16292	0.27409	0.19082	0.2053	0.026562	0.098438	0.17402	0.093213	0.060012	0.25083	-2.9958	-3.3312	-3.2083	-3.5896	-3.1417	-3.1625	-3.5604	-3.0854	-3.4938	-3.3458	-3.5667	-3.6375	-3.2938	-3.35	-3.5917	-3.1646	201.381	251.291	157.531	310.188	287.665	77.878	218.122	29.499	3.776	274.053	106.308	281.900	33.615	29.857	122.936	290.389	0.00021529	0.00041058	0.00013779	861.18	4.6851e-06	5.0763e-06	1056.7	238.61	2.7681e-06	2.4423e-06	381.55	129.73	67.766	22.656	3.9116e-06	54.318	0.00073193	0.00080782	0.00022556	828.29	8.4174e-06	8.7461e-06	1019.1	233.22	8.1705e-06	8.4601e-06	368.46	127.83	69.836	22.379	7.94e-06	53.122	149.185	70.792	52.933	-4.906	133.284	140.244	-4.484	0.253	155.760	93.007	-0.039	5.057	6.056	9.699	117.290	9.744	-8191	255	
638.938	1	1	0	0	0.087895	0.27541	0.071306	0.061501	0.20411	0.20157	0.29977	0.1962	0.13006	0.1696	0.22561	0.1943	0.06554	0.31043	0.1921	0.22772	-3.0458	-3.1875	-3.25	-3.5417	-3.2292	-3.2896	-3.5542	-3.2271	-3.475	-3.3958	-3.25	-3.5563	-3.1583	-3.2354	-3.5271	-3.0875	56.796	108.972	48.442	71.679	82.059	80.703	331.578	247.531	235.735	320.994	53.152	335.400	295.647	277.923	246.865	-13.789	0.00023516	0.00040829	0.00018589	861.83	1.9227e-06	4.3353e-06	1053.7	239.88	1.3311e-06	6.9376e-06	380.06	129.95	67.595	22.489	1.9149e-06	54.543	0.00066821	0.00072828	0.00019943	828.44	7.8988e-06	7.9689e-06	1016.3	233.11	7.8426e-06	7.8199e-06	368.06	127.83	69.596	22.257	7.6361e-06	53.256	146.415	37.207	76.932	-4.740	106.721	136.767	-4.585	0.217	244.635	144.551	0.124	5.291	5.961	10.019	72.705	9.523	-8191	255	
639.034	1	1	0	0	0.17168	0.10547	0.2412	0.063671	0.042801	0.093203	0.15503	0.25653	0.1024	0.24063	0.27718	0.21251	0.12409	0.14171	0.15066	0.29922	-3.2667	-3.4667	-3.1104	-3.625	-3.1625	-3.2333	-3.6667	-3.0875	-3.5563	-3.3479	-3.2896	-3.4	-3.1354	-3.2521	-3.5563	-3.2521	217.509	226.035	333.098	277.209	-9.755	158.289	270.945	301.557	11.216	131.194	288.321	329.355	234.745	174.659	171.848	201.543	0.0002542	0.00062307	0.00010001	860.77	3.7482e-06	1.1482e-06	1057.8	238.88	1.6836e-06	4.7558e-06	380.63	129.9	67.519	22.698	2.8491e-06	54.455	0.00065858	0.00072095	0.00019772	826.7	7.8991e-06	8.0776e-06	1016.4	232.87	8.0748e-06	8.1954e-06	368.13	127.78	69.885	22.341	8.1173e-06	53.182	139.368	40.795	148.761	-4.833	124.101	40.748	-4.666	0.022	148.227	173.516	0.049	5.214	6.035	10.045	175.317	9.550	-8191	255	
639.130	1	1	0	0	0.37368	0.13522	0.26256	0.16635	0.19447	0.060254	0.30386	0.13958	0.15394	0.19016	0.20124	0.20274	0.019864	0.061137	0.11697	0.15504	-2.9208	-3.2708	-3.1021	-3.5417	-3.3438	-3.2792	-3.6562	-3.2604	-3.4938	-3.3708	-3.2917	-3.5229	-3.1896	-3.3354	-3.4313	-3.3542	185.291	89.573	104.451	255.913	84.458	30.975	268.586	136.995	161.438	225.571	326.404	5.824	151.191	70.602	38.501	257.364	0.0001958	0.00012318	0.00023102	856.63	2.6702e-06	5.3225e-07	1048.3	239.11	3.7782e-06	4.2386e-06	380.08	130.56	67.334	22.722	2.0134e-06	54.847	0.00069284	0.00075586	0.00020587	825.93	8.4015e-06	8.2888e-06	1014.1	233.28	8.6175e-06	8.4783e-06	367.99	128.14	70.171	22.478	8.2934e-06	53.54	147.185	110.468	55.399	-4.604	156.107	177.159	-4.632	0.214	113.196	185.768	0.058	4.929	6.377	9.912	309.918	9.486	-8191	255	
639.224	1	1	0	0	0.063452	0.193	0.2523	0.122	0.14322	0.19423	0.2359	0.24588	0.27274	0.10425	0.1056	0.16369	0.11855	0.06363	0.090558	0.27154	-3.0729	-3.3812	-3.2208	-3.3187	-3.3312	-3.1458	-3.5187	-3.3333	-3.4729	-3.4125	-3.5583	-3.5729	-3.1792	-3.2583	-3.5292	-3.4083	43.260	207.843	46.621	31.479	182.283	72.117	240.672	285.558	230.350	22.394	144.262	339.883	320.717	151.613	254.964	29.781	0.00021123	0.00036488	0.00022096	857.35	4.4044e-06	3.6683e-06	1053.1	238.95	1.4933e-06	4.702e-06	379.33	129.88	67.335	22.612	4.5754e-06	54.179	0.00069832	0.0007574	0.00021181	825.92	8.4126e-06	8.1718e-06	1015.8	233.05	8.2673e-06	8.0166e-06	367.63	127.62	69.577	22.28	7.8496e-06	52.956	149.062	104.707	85.480	-4.864	167.650	144.880	-4.470	0.292	210.949	34.593	0.232	5.037	6.048	10.353	125.322	9.533	-8191	255	
639.320	1	1	0	0	0.10388	0.19387	0.21729	0.16845	0.12309	0.16167	0.092284	0.12645	0.17027	0.21835	0.12302	0.058714	0.14881	0.12035	0.11692	0.18792	-3.0083	-3.3792	-3.1146	-3.6458	-3.4708	-3.2729	-3.6063	-3.4708	-3.2438	-3.4542	-3.2979	-3.5687	-3.5104	-3.1958	-3.5396	-3.3083	69.597	140.381	-0.844	307.664	178.563	263.889	226.776	285.069	186.720	210.507	285.079	143.046	260.780	127.301	101.888	290.675	0.00024666	0.00020807	0.00033313	864.78	4.1095e-06	5.1373e-06	1054.4	236.89	3.7683e-06	2.4512e-06	375.74	128.45	66.991	22.266	3.7208e-06	53.098	0.00063396	0.0006966	0.00019078	830.86	7.3335e-06	7.3683e-06	1018.1	231.74	7.1377e-06	7.2031e-06	363.79	125.86	68.561	21.817	7.0064e-06	51.907	149.827	155.185	60.163	-4.877	130.695	180.560	-4.586	0.007	188.512	149.407	-0.117	4.937	5.749	10.327	70.637	9.450	-8191	255	
639.441	1	1	0	0	0.068873	0.12882	0.038188	0.16092	0.24918	0.42847	0.31678	0.26606	0.14444	0.15369	0.21321	0.068175	0.12357	0.1511	0.038893	0.067756	-2.8271	-3.3021	-3.2	-3.475	-3.5563	-3.0542	-3.7	-3.4	-3.2396	-3.4917	-3.1937	-3.3792	-3.3667	-3.0563	-3.5312	-3.4104	331.914	57.875	250.557	328.344	168.012	157.779	275.554	335.324	298.409	303.147	264.900	252.864	259.266	71.859	203.676	274.032	0.00020607	0.0003983	0.00015761	866.26	1.854e-06	2.8364e-06	1059.3	236.25	3.2548e-06	2.3398e-06	371.92	126.22	65.242	21.9	3.1945e-06	52.243	0.00056074	0.00060874	0.00017786	831.36	6.716e-06	6.7281e-06	1017	229.92	6.6403e-06	6.7457e-06	360.11	123.72	67.396	21.538	6.9042e-06	51.072	153.277	91.543	68.388	-5.133	153.890	182.312	-4.517	0.274	138.326	107.879	0.092	5.047	5.787	10.016	150.199	9.632	-8191	255	
639.537	1	1	0	0	0.18028	0.26653	0.12199	0.095144	0.12568	0.22045	0.22561	0.15567	0.11875	0.093526	0.2159	0.22288	0.19334	0.10686	0.20831	0.1248	-2.7708	-3.5312	-3.1875	-3.5104	-3.4062	-3.1063	-3.5771	-3.3458	-3.2479	-3.6083	-3.2021	-3.4	-3.3792	-3.2771	-3.3438	-3.3646	302.528	41.796	301.646	248.853	322.350	198.530	278.180	214.041	245.310	290.210	262.419	-7.982	236.877	297.022	319.204	191.894	0.00022171	0.00041012	0.00017033	863.74	4.7638e-06	5.8486e-06	1055.3	237.96	1.6342e-06	4.5551e-07	371.66	127.22	66.007	22.203	1.7961e-06	53.396	0.00057319	0.0006292	0.00018044	828.94	6.9391e-06	7.1935e-06	1013.3	230.2	7.1564e-06	7.6609e-06	360.82	124.82	68.173	21.919	7.9588e-06	52.21	157.516	117.841	114.277	-4.788	168.358	86.882	-4.763	0.004	160.911	204.240	0.451	5.232	5.628	9.990	126.866	9.643	-8191	255	
639.633	1	1	0	0	0.11124	0.16335	0.14469	0.12439	0.081327	0.083288	0.085381	0.16783	0.039689	0.15355	0.13858	0.11521	0.17165	0.12196	0.13971	0.14991	-2.6437	-3.4292	-3.1083	-3.3771	-3.4417	-3.1146	-3.3333	-3.25	-3.0979	-3.3479	-3.175	-3.1896	-3.4125	-3.1937	-3.1875	-3.5417	-7.338	158.229	313.479	-12.721	18.157	64.831	328.725	308.856	143.819	301.802	215.050	312.102	46.748	257.378	91.447	306.630	0.00019778	0.00078422	0.00010691	861.78	5.4142e-06	9.9813e-07	1055.5	237.56	4.9031e-06	4.265e-06	378.72	130.4	67.783	23.1	4.2213e-06	55.854	0.00065918	0.00076674	0.00021531	828.96	8.4727e-06	8.785e-06	1018.5	232.3	9.1079e-06	9.7701e-06	368.51	128.6	71.527	22.935	1.0593e-05	54.63	147.435	56.480	34.641	-4.759	141.361	113.818	-4.552	0.409	182.118	153.953	0.422	5.093	5.631	9.741	121.357	9.391	-8191	255	
639.729	1	1	0	0	0.20171	0.013791	0.052923	0.13444	0.39512	0.16056	0.1516	0.29469	0.14601	0.17431	0.0064095	0.15482	0.042805	0.049665	0.12249	0.02343	-2.7354	-3.5438	-3.0396	-3.2354	-3.4458	-3.3333	-3.3625	-3.6875	-3.2417	-3.2583	-3.4958	-3.3333	-3.3854	-3.1729	-3.3479	-3.7083	176.459	206.098	97.551	-8.980	0.950	331.548	321.565	49.667	113.868	42.878	319.962	49.825	246.685	163.878	-3.144	156.823	0.00024978	0.000756	0.00021094	864.14	5.2607e-06	5.581e-06	1060.2	241.03	1.76e-06	5.2793e-06	383.29	133.35	68.489	23.773	3.9502e-06	57.28	0.00088032	0.0010456	0.00029539	834.22	1.1898e-05	1.2742e-05	1027.5	236.71	1.3273e-05	1.4222e-05	375.92	132.12	75.406	24.017	1.5714e-05	56.702	144.530	57.114	104.264	-4.627	132.483	116.243	-4.528	0.441	251.401	52.351	0.143	5.011	5.642	9.651	117.678	9.378	-8191	255	
639.801	1	1	0	0	0.040784	0.06404	0.19834	0.095329	0.27289	0.13652	0.30173	0.21352	0.085628	0.028823	0.12913	0.26028	0.14484	0.2618	0.083173	0.11922	-2.7896	-3.275	-3.3771	-3.1104	-3.4896	-3.3229	-3.4437	-3.5729	-3.2229	-3.4188	-3.4479	-3.2604	-3.3979	-3.1937	-3.2208	-3.5521	197.342	40.403	266.583	50.646	298.536	151.478	312.380	48.070	198.084	273.088	277.229	200.640	337.029	323.304	11.906	300.141	0.00027465	0.00083232	0.00021661	860.97	7.6195e-06	5.126e-06	1060	241.21	4.049e-06	5.7836e-06	381.99	132.24	69.084	23.817	6.6848e-07	57.032	0.0013085	0.0015805	0.00044105	840.34	1.7593e-05	1.8131e-05	1034.4	239.44	1.7744e-05	1.8336e-05	377.02	132.19	77.503	24.153	1.721e-05	56.545	152.814	51.223	67.939	-4.733	128.140	210.196	-4.576	0.113	51.507	181.325	0.047	4.895	6.252	9.867	110.519	9.304	-8191	255	
639.922	1	1	0	0	0.077454	0.12658	0.10489	0.3151	0.19175	0.3116	0.061969	0.031421	0.068584	0.10319	0.042617	0.11903	0.18175	0.0078028	0.15911	0.010965	-2.8896	-3.3563	-3.4354	-3.1937	-3.4042	-3.4042	-3.3312	-3.5187	-3.2229	-3.4	-3.5708	-3.2208	-3.5479	-3.1708	-3.0792	-3.5542	150.693	261.656	289.505	306.664	197.826	140.194	51.678	269.006	108.068	145.756	121.909	94.182	101.683	202.709	276.638	185.961	0.00028707	0.00061595	0.00031843	852.58	4.1591e-06	4.2228e-06	1054.1	240.13	3.9183e-06	4.5907e-06	381.63	132.95	69.256	23.794	2.1627e-06	57.113	0.0013856	0.0016344	0.00044595	835.57	1.763e-05	1.8142e-05	1027	238.69	1.7663e-05	1.7928e-05	376.49	132.27	77.577	24.16	1.768e-05	56.77	149.265	144.173	59.129	-4.701	158.927	131.611	-4.468	0.092	179.277	216.342	-0.104	4.869	6.025	9.612	99.281	9.636	-8191	255	
640.018	1	1	0	0	0.16402	0.06681	0.18534	0.049266	0.2261	0.20319	0.059165	0.17554	0.19961	0.044681	0.39956	0.15425	0.052752	0.30604	0.33455	0.12969	-2.7479	-3.2708	-3.5167	-3.25	-3.4667	-3.2208	-3.3063	-3.5729	-3.2938	-3.2542	-3.4167	-3.1813	-3.2188	-3.2208	-3.0833	-3.65	213.463	331.779	275.623	332.614	28.381	121.748	-6.863	245.763	0.512	192.118	310.480	296.692	-2.620	132.528	43.942	258.108	0.00026892	0.0001395	0.0001093	856.27	9.5547e-07	1.1077e-05	1047.5	240.37	1.1611e-06	4.1711e-06	380.23	131.61	68.667	23.532	2.5046e-06	56.32	0.0014418	0.0017164	0.00047148	834.12	1.8941e-05	1.9182e-05	1025.9	239.73	1.9779e-05	2.0549e-05	376.92	132.45	79.202	24.174	2.1316e-05	56.499	139.845	-12.126	306.941	-4.835	160.496	154.621	-4.634	0.217	118.832	57.133	0.232	4.972	5.886	9.642	172.198	9.185	-8191	255	
640.114	1	1	0	0	0.023478	0.1451	0.12559	0.18208	0.09459	0.098146	0.11002	0.21545	0.032882	0.019955	0.26471	0.2748	0.07695	0.21307	0.10312	0.13913	-2.9188	-3.1917	-3.3937	-3.3729	-3.4167	-3.4729	-3.2208	-3.6104	-3.2042	-3.3896	-3.6979	-3.3521	-3.2479	-3.5042	-3.1083	-3.6792	250.971	150.132	137.075	269.651	222.459	30.847	276.015	304.383	-5.990	175.708	307.910	292.494	106.013	264.377	46.688	219.260	0.00018944	2.344e-05	7.69e-05	856.35	9.4324e-06	3.5761e-06	1052.7	241.13	2.9483e-06	3.5425e-06	381.83	131.67	68.643	23.895	4.2544e-06	56.952	0.0017279	0.0020264	0.00057233	842.6	2.2744e-05	2.2957e-05	1034.3	241.25	2.3356e-05	2.3333e-05	379.27	133.27	80.928	24.543	2.3511e-05	57.204	144.582	143.237	151.209	-5.104	73.744	41.416	-4.726	0.302	60.121	99.098	-0.197	4.747	5.479	9.712	151.531	9.528	-8191	255	
640.233	1	1	0	0	0.068957	0.20782	0.11109	0.12025	0.20262	0.047843	0.25637	0.2186	0.079234	0.11041	0.10258	0.13915	0.073469	0.28279	0.095827	0.13497	-2.9062	-3.1708	-3.3833	-3.3833	-3.3729	-3.4125	-3.3792	-3.5333	-3.1562	-3.4062	-3.5042	-3.1417	-3.1646	-3.4583	-3.2375	-3.5417	285.339	283.675	34.644	274.456	278.381	225.249	250.606	336.962	122.057	294.741	-2.684	208.361	261.708	322.725	79.258	335.270	0.00028036	0.00025275	0.00020617	854.21	7.5693e-07	3.4636e-06	1050.3	240.55	1.9395e-06	1.0653e-06	381.46	132.38	68.65	23.789	4.8507e-06	56.813	0.0018175	0.0021232	0.00059758	842.24	2.2652e-05	2.2833e-05	1033.3	242.04	2.2332e-05	2.2765e-05	379.79	133.9	80.315	24.579	2.3054e-05	57.169	142.473	37.891	179.055	-4.968	261.190	311.817	-4.705	0.427	153.431	131.649	0.244	4.940	5.923	9.766	172.341	9.622	-8191	255	
640.329	1	1	0	0	0.05972	0.04332	0.081084	0.12949	0.16273	0.12601	0.027633	0.11983	0.15228	0.18009	0.15357	0.046405	0.13636	0.12458	0.097807	0.16252	-2.8896	-3.3312	-3.4167	-3.4333	-3.4333	-3.4708	-3.4792	-3.5917	-3.3521	-3.0604	-3.5438	-3.25	-3.2208	-3.4729	-3.2167	-3.4021	102.662	2.342	111.068	319.758	100.972	39.364	175.889	277.310	233.789	156.366	321.020	312.736	136.880	299.498	-5.185	32.869	0.00021994	0.00012715	3.2495e-05	855.02	1.2649e-06	5.3706e-06	1047.1	238.52	5.8905e-06	6.6798e-06	379.23	131.59	68.562	23.438	5.7849e-06	56.287	0.0018036	0.0021356	0.0006098	839.5	2.2817e-05	2.3454e-05	1029.4	240.08	2.2755e-05	2.3545e-05	377.75	132.75	80.416	24.358	2.3782e-05	56.511	159.923	172.403	29.405	-4.747	44.477	95.342	-4.467	0.185	106.980	93.484	-0.126	4.979	5.894	9.982	91.887	9.362	-8191	255	
640.403	1	1	0	0	0.247	0.15274	0.21378	0.19569	0.11856	0.13818	0.36214	0.20884	0.1834	0.162	0.131	0.17311	0.15835	0.11359	0.095676	0.32498	-2.9813	-3.15	-3.45	-3.3979	-3.3146	-3.5021	-3.4062	-3.4646	-3.5729	-3.1167	-3.6	-3.3812	-3.4583	-3.5021	-3.3375	-3.3667	169.018	134.328	-10.466	325.784	290.451	167.571	256.233	306.912	331.739	91.642	43.622	255.434	119.854	253.451	127.151	251.313	0.00016739	0.00018435	0.00021922	850.58	9.0367e-07	3.7825e-06	1045.9	237.78	1.3225e-06	4.6861e-06	379.21	131.73	67.722	23.488	3.7803e-06	56.292	0.0018249	0.0022088	0.00063104	840.33	2.3647e-05	2.4785e-05	1029.2	240.27	2.3897e-05	2.4598e-05	377.99	133.12	80.678	24.427	2.4305e-05	56.683	147.495	29.892	94.884	-4.750	202.303	257.271	-4.550	0.200	218.339	-3.205	0.195	5.022	6.126	9.861	118.470	9.403	-8191	255	
640.521	1	1	0	0	0.18394	0.093619	0.22079	0.22285	0.15996	0.041919	0.074765	0.080367	0.19161	0.21497	0.12182	0.15354	0.16534	0.19862	0.28167	0.15752	-2.9437	-3.0812	-3.4396	-3.3604	-3.0167	-3.5312	-3.2833	-3.3604	-3.3958	-3.1458	-3.4688	-3.3958	-3.1125	-3.5083	-3.3042	-3.2625	52.360	225.508	149.737	102.579	25.748	102.734	1.665	224.661	-8.872	152.275	190.263	298.762	11.938	18.302	234.535	21.020	0.00026177	0.00079177	0.00013765	851.42	7.1486e-06	1.7878e-06	1051.5	239.35	3.2495e-06	2.3899e-06	378.28	131.16	68.06	23.498	6.6817e-06	56.478	0.0018655	0.0022311	0.00062369	841.3	2.3181e-05	2.4281e-05	1031	240.27	2.2797e-05	2.3544e-05	377.64	132.33	79.905	24.352	2.313e-05	56.541	161.964	310.883	199.942	-4.824	4.237	208.503	-4.559	0.214	297.484	193.189	0.362	4.656	5.306	9.591	134.672	9.364	-8191	255	
640.618	1	1	0	0	0.15663	0.23595	0.072099	0.19352	0.19127	0.19578	0.35891	0.29148	0.27842	0.048225	0.014723	0.33721	0.23706	0.015394	0.061942	0.3683	-2.9396	-3.0333	-3.3438	-3.5167	-3.0312	-3.4583	-3.4354	-3.3417	-3.3583	-3.0771	-3.3667	-3.3854	-3.35	-3.3979	-3.1521	-3.1708	16.924	185.577	229.695	281.030	101.251	94.058	245.639	223.234	80.754	49.631	135.087	317.962	332.970	-5.697	177.024	266.493	0.0002434	0.0001058	0.00020851	848.49	5.5682e-06	3.02e-06	1047.3	239.76	3.3544e-06	3.9677e-06	378.89	131.58	69.373	23.643	8.9891e-06	56.092	0.0018071	0.0021352	0.00059947	838.86	2.2216e-05	2.3246e-05	1029.6	240.17	2.1838e-05	2.2716e-05	377.69	132.44	79.663	24.27	2.1954e-05	56.241	141.341	243.452	157.282	-4.801	147.075	136.033	-4.590	0.193	170.374	142.207	0.034	4.833	5.684	9.775	151.094	9.421	-8191	255	
640.714	1	1	0	0	0.13946	0.084078	0.10761	0.2837	0.151	0.33335	0.17269	0.17662	0.16416	0.30285	0.18427	0.16989	0.12805	0.21242	0.16736	0.058735	-2.9958	-3.2271	-3.3604	-3.4292	-3.0625	-3.3208	-3.3688	-3.2042	-3.3833	-3.1729	-3.3917	-3.4562	-3.2562	-3.4292	-3.2396	-3.2583	152.085	161.017	76.315	2.839	83.971	29.773	264.037	19.079	311.584	70.576	280.395	301.279	311.038	19.205	250.087	125.171	0.00024518	0.00075572	0.00019782	845.21	3.4427e-06	1.1944e-05	1041	238.54	6.1348e-06	4.1103e-06	378.08	130.5	67.477	23.476	1.0596e-06	56.2	0.0017525	0.0021229	0.000587	835.64	2.2928e-05	2.4088e-05	1025.9	240.07	2.4079e-05	2.4553e-05	377.14	132.08	80.461	24.342	2.3958e-05	56.552	146.897	76.146	40.700	-4.838	51.131	-14.237	-4.701	0.021	103.105	38.916	0.086	4.899	5.497	9.940	256.001	9.329	-8191	255	
640.834	1	1	0	0	0.1681	0.17631	0.18417	0.10508	0.21843	0.21769	0.052864	0.11954	0.078345	0.40958	0.16858	0.1797	0.071191	0.13746	0.094918	0.27005	-2.9854	-3.175	-3.3042	-3.7646	-3.15	-3.3833	-3.5187	-3.2625	-3.4021	-3.2729	-3.4188	-3.4458	-3.1208	-3.4313	-3.475	-3.2229	329.853	48.609	9.073	235.528	148.847	40.188	2.257	339.111	163.621	273.627	296.479	113.771	2.693	48.948	213.966	308.477	0.00021939	0.00077645	2.4574e-05	845.75	7.645e-06	7.8461e-06	1041.2	239.45	1.1814e-06	3.5614e-06	381.6	132.99	69.197	23.883	8.8267e-06	57.591	0.001946	0.0022924	0.00063371	834.99	2.4659e-05	2.5367e-05	1022.7	240.98	2.4906e-05	2.5292e-05	380.39	134.25	81.247	24.823	2.4419e-05	57.904	128.583	78.663	74.849	-4.769	33.735	93.057	-4.675	0.093	-0.755	323.653	0.059	4.961	5.642	9.867	136.742	9.456	-8191	255	
640.930	1	1	0	0	0.058514	0.10429	0.29949	0.16533	0.087475	0.1988	0.23767	0.10153	0.16139	0.34829	0.20335	0.136	0.17827	0.15088	0.18557	0.16517	-3.0771	-3.2333	-3.1583	-3.5083	-3.425	-3.3875	-3.3812	-3.1104	-3.3271	-3.3167	-3.1458	-3.4417	-3.0604	-3.1688	-3.3917	-3.1604	157.419	147.736	170.227	2.751	75.787	-16.697	295.515	-9.417	232.367	75.367	318.882	256.235	219.698	128.328	39.057	278.580	0.00025731	0.00050435	0.00030577	840.19	4.9837e-06	7.4878e-07	1041.7	240.05	2.0029e-06	6.908e-06	385.72	134.02	69.179	24.348	8.3107e-07	58.551	0.0019658	0.002325	0.00064078	832.47	2.5277e-05	2.5896e-05	1024.5	242.65	2.6051e-05	2.625e-05	384.34	136.22	83.673	25.42	2.6961e-05	59.226	152.031	9.396	133.833	-4.709	113.216	292.537	-4.519	0.068	250.272	148.599	-0.073	5.027	5.909	9.917	58.013	9.342	-8191	255	
641.027	1	1	0	0	0.14615	0.11464	0.24119	0.14305	0.073603	0.05681	0.077805	0.30917	0.056622	0.28633	0.22823	0.27279	0.24549	0.14833	0.077789	0.15133	-2.9625	-3.1854	-3.2417	-3.5375	-3.2438	-3.3375	-3.4896	-3.025	-3.4396	-3.2667	-3.35	-3.4813	-3.225	-3.3667	-3.5396	-3.2167	228.330	134.502	112.555	198.399	300.830	324.957	-4.974	258.191	185.464	239.767	245.931	290.877	-12.971	146.595	101.095	208.614	0.00034749	0.00032349	0.00022919	834.94	5.9933e-06	3.677e-06	1038.2	241.59	2.7594e-06	6.4798e-06	390.51	136.6	70.864	25.15	5.3173e-06	60.607	0.0021829	0.0025728	0.00072768	832.74	2.8322e-05	2.8538e-05	1027.5	245.87	2.872e-05	2.8901e-05	391.28	139.2	86.235	26.325	2.9719e-05	61.328	139.219	-12.682	341.705	-4.847	172.854	120.547	-4.872	0.260	121.057	151.903	0.238	4.602	5.223	9.797	113.780	9.183	-8191	255	
641.098	1	1	0	0	0.25804	0.21292	0.084364	0.19445	0.094363	0.19681	0.1347	0.11778	0.19452	0.046565	0.22787	0.2278	0.14906	0.17575	0.098299	0.10855	-2.9958	-3.4062	-3.2167	-3.625	-3.2104	-3.3438	-3.7125	-3.125	-3.3833	-3.3937	-3.1167	-3.6229	-3.2792	-3.325	-3.4479	-3.3708	58.312	-15.870	316.405	246.618	188.494	248.971	297.893	53.575	309.310	50.450	97.926	-10.501	113.194	286.768	240.031	317.309	0.00026878	0.00099916	0.00028178	832.72	8.752e-06	3.424e-06	1038.3	243.06	6.367e-06	8.2073e-06	390.06	137.02	71.882	25.469	5.9253e-06	60.963	0.0023599	0.0027743	0.00079306	833.97	3.0878e-05	3.1727e-05	1031.4	248.62	3.2431e-05	3.3382e-05	394.06	141.12	89.764	27.018	3.5193e-05	62.203	164.762	118.822	114.625	-4.613	84.304	83.500	-4.701	-0.078	14.446	194.201	-0.046	5.115	5.413	9.332	164.304	9.011	-8191	255	
641.217	1	1	0	0	0.25068	0.025355	0.12738	0.022681	0.3078	0.14621	0.26917	0.21498	0.1172	0.067307	0.058754	0.085727	0.10083	0.11271	0.028621	0.2003	-2.9229	-3.3312	-3.0583	-3.6479	-3.3292	-3.1229	-3.6167	-3.3667	-3.3292	-3.4042	-3.1688	-3.4521	-3.4833	-3.2479	-3.4437	-3.4313	189.308	51.607	211.001	323.176	326.640	318.846	299.382	182.809	160.887	100.676	273.931	214.010	53.013	257.411	144.963	184.363	0.00026738	0.0011091	0.00013101	828.13	3.1625e-06	9.6675e-06	1032.5	241.58	3.153e-06	1.2116e-05	388.69	138.06	70.973	25.599	6.0323e-06	60.801	0.0027267	0.0032966	0.00094061	835.95	3.6219e-05	3.7671e-05	1033.3	250.47	3.7226e-05	3.8117e-05	396.58	142.1	91.604	27.268	3.7858e-05	62.519	160.905	12.295	204.700	-4.558	117.182	125.669	-4.601	0.077	174.662	107.337	-0.256	4.725	6.080	9.537	163.931	9.255	-8191	255	
641.313	1	1	0	0	0.28095	0.12414	0.095089	0.046229	0.14075	0.25161	0.30316	0.18382	0.11306	0.18971	0.21355	0.044352	0.3883	0.153	0.1987	0.2433	-2.8812	-3.4229	-3.325	-3.6042	-3.3812	-3.1292	-3.5938	-3.3688	-3.1958	-3.6333	-3.2292	-3.4646	-3.2354	-3.2625	-3.6729	-3.3333	268.523	283.357	-15.252	330.139	5.851	164.764	285.552	199.389	11.039	236.201	330.229	251.377	71.247	57.817	-14.250	278.351	0.00021379	0.00094976	0.00031755	827.71	4.4614e-06	5.0725e-06	1026.8	242	8.3186e-06	4.5354e-06	389.27	136.55	70.395	25.317	4.297e-06	60.041	0.0028599	0.0034778	0.00097935	834.7	3.6378e-05	3.8057e-05	1031.3	250.7	3.636e-05	3.7995e-05	395.58	141.05	90.914	27.007	3.8281e-05	61.692	170.528	89.451	96.796	-4.844	147.617	140.742	-4.738	0.218	161.072	144.978	-0.272	4.691	5.404	9.730	36.204	9.200	-8191	255	
641.409	1	1	0	0	0.11367	0.16039	0.35188	0.12923	0.11329	0.13109	0.22203	0.17361	0.22381	0.12076	0.11566	0.081034	0.091064	0.12778	0.12682	0.2409	-3.0854	-3.5375	-3.2625	-3.4604	-3.4583	-3.125	-3.6917	-3.2833	-3.2292	-3.5792	-3.2917	-3.3458	-3.5021	-3.0146	-3.4542	-3.2917	146.405	63.967	306.721	-8.708	308.436	-7.632	251.849	156.021	234.687	197.119	199.258	19.343	185.603	161.008	139.195	268.780	0.00031131	0.00079546	0.00010284	834.03	7.5589e-06	8.9604e-06	1034.9	242.15	2.5272e-06	1.0275e-05	386.9	135.64	70.698	25.16	1.0809e-05	59.891	0.0029074	0.0035725	0.00099692	841.96	3.782e-05	3.9569e-05	1040.4	250.19	3.796e-05	4.0037e-05	394.81	140.49	91.595	27.008	3.7929e-05	61.517	134.536	54.943	152.504	-4.693	153.867	169.361	-4.612	0.311	136.896	54.588	-0.112	4.978	5.415	9.845	145.621	9.261	-8191	255	
641.506	1	1	0	0	0.14197	0.23113	0.15146	0.16508	0.28579	0.021187	0.095431	0.17379	0.12887	0.16402	0.16501	0.078878	0.069641	0.18768	0.063358	0.048108	-2.6958	-3.6063	-3.2687	-3.3979	-3.5708	-3.0104	-3.5917	-3.3625	-3.2708	-3.6542	-3.2687	-3.4875	-3.5208	-3.2146	-3.4667	-3.4229	19.135	330.356	140.438	16.290	48.333	0.105	212.970	328.586	221.765	326.122	-4.958	307.732	119.554	184.436	5.799	-1.814	0.00024898	0.00040468	0.00039937	839.63	3.1736e-06	4.7062e-06	1042.4	241.7	5.0282e-06	6.198e-06	386.67	135.16	70.31	24.778	1.0038e-05	58.499	0.0028333	0.0034435	0.00094432	845.7	3.5687e-05	3.6564e-05	1038.7	248.6	3.5683e-05	3.7255e-05	392.83	139.05	90.707	26.578	3.8274e-05	60.463	142.929	41.969	91.855	-4.788	193.219	177.034	-4.660	0.267	187.415	63.284	0.308	4.894	5.650	9.550	93.905	9.153	-8191	255	
641.626	1	1	0	0	0.28581	0.11647	0.07786	0.093858	0.33694	0.14562	0.30535	0.10613	0.13462	0.22881	0.13312	0.35891	0.28173	0.14378	0.074551	0.019473	-2.725	-3.2604	-3.2542	-3.3646	-3.5938	-3.2542	-3.4688	-3.3854	-3.3	-3.4562	-3.4313	-3.4417	-3.6021	-3.0146	-3.3542	-3.4542	288.358	332.954	310.630	255.860	96.847	225.372	325.465	309.043	7.073	154.700	1.223	326.843	276.318	160.570	2.668	238.018	0.00027521	0.0013082	0.00021932	835.46	9.5391e-07	1.6797e-05	1036.5	238.59	3.9306e-06	1.3638e-05	378.33	132.41	68.66	24.575	5.8966e-06	58.312	0.0030257	0.0037817	0.0010496	848.85	4.308e-05	4.5584e-05	1045.5	251.3	4.7874e-05	5.109e-05	395.76	140.51	99.343	27.487	5.2917e-05	61.718	136.549	169.877	27.630	-4.558	141.275	135.102	-4.511	0.130	3.899	61.859	-0.026	4.911	5.138	9.653	194.058	9.432	-8191	255	
641.698	1	1	0	0	0.25707	0.13865	0.20193	0.31714	0.16167	0.16526	0.14299	0.24167	0.082873	0.20431	0.17113	0.29885	0.020459	0.15779	0.073675	0.070677	-2.7646	-3.3937	-3.1667	-3.3208	-3.7354	-3.0938	-3.6167	-3.5687	-3.0625	-3.4417	-3.4104	-3.2646	-3.55	-3.2687	-3.4104	-3.5354	339.100	21.010	255.898	-15.059	219.654	126.507	272.012	-17.006	99.828	90.534	90.268	256.228	228.424	2.745	109.648	248.183	0.0002248	0.00059946	0.00023635	835.71	1.1986e-06	3.1643e-06	1031.9	240.05	6.0616e-06	4.7872e-06	385.64	135.9	70.731	25.608	8.3524e-06	61.243	0.0041586	0.0051095	0.0013932	864.48	5.4262e-05	5.5393e-05	1054.6	256.5	5.1982e-05	5.33e-05	401.43	143.22	99.371	28.195	4.7219e-05	63.937	152.372	37.051	28.449	-4.721	171.778	229.906	-4.562	0.064	45.644	144.462	0.101	4.833	5.844	9.610	82.952	9.523	-8191	255	
641.794	1	1	0	0	0.27223	0.21277	0.0796	0.17458	0.044067	0.32927	0.13914	0.14068	0.13324	0.074018	0.15011	0.12906	0.068282	0.16955	0.053246	0.13729	-2.5563	-3.3292	-3.3479	-3.3583	-3.5396	-3.2104	-3.5062	-3.5896	-3.3396	-3.7292	-3.4375	-3.1437	-3.5583	-3.3333	-3.2979	-3.5979	299.500	24.921	311.783	87.344	46.564	129.693	274.488	269.299	317.605	179.407	305.405	-9.485	-15.482	237.140	139.057	-4.746	0.00025424	0.0006511	0.00030658	835.23	3.3195e-06	1.0081e-05	1034	243.59	9.039e-06	1.0902e-05	391.51	138.63	72.17	26.317	6.9956e-06	62.689	0.0035774	0.0042557	0.0011343	851.65	4.2775e-05	4.2755e-05	1044.2	253.56	3.9978e-05	3.9904e-05	400.63	143.21	92.562	28.006	3.5367e-05	64.199	109.883	-11.036	48.494	-4.752	187.179	150.455	-4.676	0.165	87.783	148.318	0.282	5.065	5.194	9.632	153.675	9.395	-8191	255	
641.915	1	1	0	0	0.14986	0.25772	0.094791	0.1795	0.21697	0.15046	0.024542	0.1135	0.084651	0.22953	0.20874	0.33729	0.21079	0.021932	0.21303	0.14112	-2.6312	-3.2396	-3.2188	-3.3583	-3.3792	-3.1083	-3.2792	-3.4979	-3.1917	-3.3708	-3.4083	-3.2313	-3.4729	-3.2917	-3.2396	-3.6312	271.255	63.252	262.669	-17.294	144.300	12.895	276.316	171.888	-15.265	89.744	232.615	283.254	330.331	269.070	331.283	131.676	0.00025739	0.00083974	0.00014368	843.82	4.9063e-06	9.1099e-06	1045.1	246.1	5.0458e-06	2.8977e-06	396.08	138.4	72.518	26.055	1.9528e-06	61.492	0.0026644	0.0031346	0.00086181	841.82	3.3301e-05	3.3481e-05	1039.8	252.2	3.3126e-05	3.366e-05	399.37	142.28	90.555	27.467	3.3096e-05	62.808	150.584	84.119	99.500	-4.792	126.422	105.271	-4.462	0.076	161.513	65.469	0.103	4.825	5.920	9.511	96.722	9.059	-8191	255	
642.011	1	1	0	0	0.051847	0.23065	0.16507	0.19511	0.073187	0.096129	0.15523	0.19616	0.25923	0.05674	0.29517	0.12452	0.063159	0.13952	0.23422	0.17469	-2.8229	-3.275	-3.3958	-3.1688	-3.3979	-3.3625	-3.3292	-3.5625	-3.1708	-3.4437	-3.5167	-3.3896	-3.4813	-3.2646	-3.0958	-3.6042	69.920	191.699	134.061	260.509	141.667	210.146	234.140	18.527	-16.565	181.001	-12.822	240.271	339.957	25.262	95.308	0.748	0.00022909	0.0013981	0.00024527	838.58	4.3949e-06	5.6584e-06	1040.3	244.01	6.9914e-06	3.598e-06	392.38	137.49	70.384	25.649	6.9799e-06	61.317	0.0024484	0.0027867	0.00076861	836.05	3.069e-05	3.101e-05	1034.6	249.39	3.137e-05	3.256e-05	395.84	140.64	89.065	27.179	3.5222e-05	62.846	128.884	-2.927	105.318	-4.908	165.940	160.545	-4.621	0.143	236.069	183.626	0.186	4.730	5.474	9.701	97.470	9.166	-8191	255	
642.107	1	1	0	0	0.21815	0.094997	0.23778	0.26917	0.04745	0.15654	0.19755	0.078129	0.25326	0.019262	0.1978	0.33684	0.11765	0.16137	0.19757	0.1535	-2.8667	-3.3688	-3.4	-3.0938	-3.3458	-3.4104	-3.3896	-3.3646	-3.1167	-3.2354	-3.5667	-3.1458	-3.3708	-3.4083	-3.1792	-3.7042	298.692	76.965	131.093	171.118	159.605	-0.203	257.952	220.734	197.100	-8.626	312.171	-12.474	227.741	1.942	341.100	301.521	0.00025232	0.0012981	0.00021301	831.18	2.6779e-06	8.1092e-06	1035.4	243.26	2.1826e-06	3.8776e-06	392.28	138.45	71.863	26.177	3.0516e-06	62.357	0.0027913	0.0034038	0.00098854	837.42	3.7776e-05	3.9085e-05	1037.2	252.32	3.8004e-05	3.9543e-05	401.9	143.04	93.116	28.136	4.0038e-05	64.354	153.627	118.031	142.256	-5.069	254.810	173.362	-4.436	0.152	334.238	275.066	-0.188	5.017	5.725	9.691	113.380	9.272	-8191	255	
642.203	1	1	0	0	0.10445	0.037517	0.15902	0.16172	0.2196	0.15592	0.033473	0.34373	0.076049	0.047651	0.17944	0.010683	0.044619	0.13708	0.16866	0.15441	-2.6896	-3.4	-3.5479	-3.2875	-3.2229	-3.7	-3.2062	-3.5667	-3.5104	-3.2104	-3.5438	-3.2438	-3.2812	-3.4271	-3.1583	-3.5396	299.865	265.774	91.549	329.008	331.235	218.658	111.769	267.637	50.923	43.848	311.780	223.683	281.441	304.779	308.057	299.724	0.00021798	0.00047551	9.2809e-05	828.39	1.1197e-05	6.834e-06	1031.7	244.15	3.3499e-06	4.4843e-06	395.2	138.91	72.007	26.626	1.7929e-06	63.184	0.0030444	0.0037289	0.0010549	839.2	4.002e-05	4.2117e-05	1042.8	254.07	4.1497e-05	4.3894e-05	405.57	144.82	95.787	28.739	4.3066e-05	65.236	153.226	264.227	279.935	-4.815	196.846	91.668	-4.800	-0.204	163.322	170.663	-0.082	4.598	5.681	9.510	329.383	9.371	-8191	255	
642.298	1	1	0	0	0.21811	0.13872	0.1085	0.12818	0.059684	0.051432	0.10502	0.1312	0.041318	0.19068	0.12365	0.33841	0.21592	0.12822	0.12351	0.27378	-2.9875	-3.2646	-3.4979	-3.2687	-3.3438	-3.4229	-3.3271	-3.4896	-3.4646	-3.1354	-3.5875	-3.0812	-3.2687	-3.5104	-3.05	-3.7062	286.936	182.213	17.489	109.891	84.508	284.630	321.920	47.536	224.129	296.270	288.848	289.023	253.118	278.927	204.733	308.082	0.00042289	0.0010085	0.00029682	828.81	4.2746e-06	3.3881e-06	1037	243.95	6.2977e-06	1.2974e-05	396.86	139.97	71.22	26.73	8.5263e-06	63.124	0.0032759	0.004009	0.0011299	844.2	4.2639e-05	4.4143e-05	1045.8	255.24	4.2827e-05	4.4805e-05	407.58	145.43	97.309	28.975	4.6903e-05	65.358	148.917	37.067	94.562	-5.027	175.787	232.825	-4.718	0.172	222.698	25.482	0.207	4.990	5.789	9.598	56.175	9.403	-8191	255	
642.394	1	1	0	0	0.10994	0.22434	0.13678	0.127	0.084234	0.082509	0.30353	0.11138	0.24467	0.13743	0.16108	0.057772	0.18309	0.17159	0.19391	0.03587	-2.9062	-3.0625	-3.4458	-3.2875	-3.4313	-3.5583	-3.2604	-3.5812	-3.2521	-3.0292	-3.4833	-3.2917	-3.1417	-3.4979	-3.2125	-3.2167	25.793	177.797	293.646	304.340	226.700	315.870	158.692	60.694	34.577	281.817	161.049	68.035	183.913	273.250	24.133	251.425	0.00029385	0.0004799	0.00015063	829.87	7.8188e-06	7.8641e-06	1030	241.57	2.5543e-06	1.2943e-05	390.71	138.07	71.095	26.367	5.329e-06	62.647	0.0036567	0.0044778	0.0012686	851.17	5.0176e-05	5.4102e-05	1053.3	258.97	5.5426e-05	5.739e-05	409.5	145.94	101.34	29.22	4.957e-05	65.531	157.172	175.367	169.022	-4.766	145.906	184.941	-4.671	-0.133	271.110	185.702	-0.066	4.603	5.396	9.279	141.382	8.893	-8191	255	
642.514	1	1	0	0	0.11199	0.13596	0.22563	0.13214	0.10988	0.13546	0.11773	0.20261	0.19159	0.11867	0.12634	0.22441	0.098386	0.049424	0.1721	0.17917	-2.8688	-3.0438	-3.2625	-3.2208	-3.1333	-3.3521	-3.4354	-3.2521	-3.4375	-3.0896	-3.5229	-3.3021	-3.1667	-3.4354	-3.1375	-3.3708	228.881	27.414	181.294	248.334	235.825	293.852	241.556	297.747	212.143	256.898	211.746	306.130	5.220	241.305	152.373	256.646	0.00033168	0.00080365	0.0002486	827.26	4.2515e-06	1.79e-06	1034.2	245.42	5.4716e-06	9.6801e-07	398.16	141.28	72.182	27.47	9.2053e-06	64.983	0.0037355	0.0044583	0.0012194	846.13	4.572e-05	4.61e-05	1044	255	4.134e-05	4.0224e-05	405.41	145.42	92.365	28.95	3.3607e-05	66.146	157.746	-10.391	289.033	-4.799	216.317	76.938	-4.454	0.009	319.307	90.321	-0.152	4.545	5.916	9.427	131.481	9.085	-8191	255	
642.610	1	1	0	0	0.023905	0.31049	0.20718	0.2706	0.25553	0.17241	0.21596	0.24306	0.18972	0.083095	0.26723	0.10861	0.15805	0.15452	0.27671	0.32919	-3.0792	-3.0604	-3.3563	-3.3	-3.1542	-3.4354	-3.4125	-3.2771	-3.4646	-3.2292	-3.6229	-3.4458	-3.1375	-3.4542	-3.2208	-3.4437	240.727	336.671	3.149	335.966	-12.058	98.015	256.537	336.855	226.155	35.648	286.668	326.305	-7.055	327.294	267.031	272.495	0.00030978	0.0013799	0.00016611	832.26	9.7612e-06	2.1426e-06	1047.9	247.44	5.6253e-06	8.0603e-06	404.68	141.85	73.687	26.825	3.2989e-06	63.924	0.0025257	0.0028867	0.00077805	827.69	2.8407e-05	2.8511e-05	1034.2	250.71	2.6606e-05	2.711e-05	402.91	143.92	86.826	27.725	2.5119e-05	64.191	146.234	117.038	120.617	-4.698	126.620	107.750	-4.629	0.095	148.697	35.547	-0.216	4.948	5.866	9.158	116.306	9.032	-8191	255	
642.707	1	1	0	0	0.28669	0.080931	0.20991	0.17306	0.12297	0.22454	0.24737	0.41717	0.13226	0.13848	0.1932	0.20909	0.044689	0.12803	0.12212	0.53206	-2.8729	-3.1771	-3.35	-3.4104	-3.0917	-3.4125	-3.5521	-3.1625	-3.4771	-3.2625	-3.3187	-3.5104	-3.1771	-3.4354	-3.1646	-3.1083	80.249	261.559	122.135	331.041	237.361	70.208	211.730	275.284	206.539	249.010	244.194	297.903	276.166	108.097	237.657	292.002	0.00029214	0.00067407	0.00020568	835.81	4.6028e-06	9.8916e-06	1047.7	248.48	2.881e-06	8.7038e-06	404.43	141.95	72.145	26.16	5.1487e-06	62.82	0.0019754	0.0022834	0.00063144	827.03	2.3961e-05	2.4088e-05	1031.8	249.84	2.2872e-05	2.2793e-05	400.61	142.68	83.886	26.857	2.203e-05	62.867	139.283	58.733	103.642	-4.772	235.280	112.985	-4.577	0.130	310.211	242.680	0.212	4.774	5.902	9.441	107.308	9.079	-8191	255	
642.803	1	1	0	0	0.12109	0.17341	0.091642	0.2025	0.044926	0.0058119	0.36292	0.12881	0.075852	0.19399	0.086665	0.12963	0.23285	0.11768	0.037994	0.26028	-3.0812	-3.0417	-3.35	-3.6271	-3.0146	-3.3229	-3.3292	-3.1354	-3.525	-3.2271	-3.4521	-3.3	-3.0792	-3.4104	-3.3125	-3.2521	139.508	122.866	222.991	243.180	157.972	114.845	288.943	-12.615	198.166	159.908	231.179	327.364	-1.993	193.831	212.240	251.778	0.00030246	0.00020862	0.00024745	843.73	8.1383e-06	4.4581e-06	1055.3	247.87	7.0208e-06	3.518e-06	400.02	139.72	71.504	26.007	6.0484e-06	62.114	0.001774	0.0020572	0.00057555	830.53	2.2275e-05	2.2668e-05	1035.5	248.37	2.2281e-05	2.1877e-05	396.26	140.47	82.431	26.639	2.1635e-05	62.133	141.727	332.087	38.284	-4.883	143.742	137.563	-4.720	0.198	117.434	191.283	-0.138	4.583	5.853	9.673	144.109	9.449	-8191	255	
642.923	1	1	0	0	0.11193	0.17629	0.047193	0.21837	0.075441	0.26247	0.23085	0.11248	0.06533	0.12175	0.1256	0.17598	0.14947	0.1537	0.13616	0.29573	-2.95	-3.1875	-3.2188	-3.6167	-3.0667	-3.4167	-3.3458	-3.2	-3.2542	-3.3521	-3.2833	-3.5646	-3.0062	-3.3146	-3.3583	-3.3042	-2.004	202.142	280.595	312.601	286.546	243.593	273.598	221.966	327.533	120.767	232.045	240.863	170.851	149.873	264.873	250.563	0.00028678	0.00071301	0.00019861	849.91	6.5555e-07	5.208e-06	1061.5	246.13	5.7668e-06	4.7287e-06	397.91	138.22	70.733	26.13	1.7412e-06	61.729	0.0016937	0.0019733	0.00055889	836.52	2.1426e-05	2.2251e-05	1041.5	247.19	2.2463e-05	2.2512e-05	395.46	139.59	82.699	26.708	2.339e-05	61.982	145.948	88.177	99.831	-4.676	214.317	81.929	-4.578	0.358	114.733	171.321	0.021	4.930	5.722	9.794	159.337	9.404	-8191	255	
642.995	1	1	0	0	0.28098	0.074458	0.081986	0.18512	0.089837	0.11848	0.12527	0.096044	0.043599	0.099457	0.086473	0.085495	0.23117	0.11703	0.19096	0.3079	-3.0729	-3.2583	-3.1521	-3.5187	-3.1583	-3.2083	-3.5479	-3.1604	-3.3729	-3.275	-3.3604	-3.4083	-3.1312	-3.3083	-3.3542	-3.3063	325.557	15.784	141.846	297.399	340.010	234.524	187.465	-11.918	172.949	164.238	-6.231	22.983	60.781	142.628	222.678	285.536	0.00024516	0.0011223	0.00014726	857.13	5.6732e-06	4.759e-06	1064.3	247.13	4.922e-06	5.267e-06	397.16	138.62	70.775	25.983	2.965e-06	61.753	0.0018621	0.0021984	0.00062928	845.27	2.3837e-05	2.4884e-05	1047.1	248.53	2.4113e-05	2.4708e-05	395.82	139.91	83.367	26.687	2.3858e-05	61.938	154.020	92.014	35.518	-4.942	106.542	136.239	-4.553	0.231	44.184	85.240	0.046	4.630	5.472	9.557	46.073	9.352	-8191	255	
643.091	1	1	0	0	0.071649	0.066751	0.10667	0.29018	0.1694	0.13543	0.25964	0.046103	0.18445	0.18183	0.33404	0.15151	0.065383	0.11765	0.17512	0.2046	-2.8125	-3.25	-3.2146	-3.4271	-3.3563	-3.2188	-3.7125	-3.1417	-3.4604	-3.3563	-3.3625	-3.3563	-3.1542	-3.1542	-3.5542	-3.2646	94.707	225.753	18.247	235.115	212.270	335.528	278.634	-8.139	198.250	280.343	318.384	214.321	310.211	287.218	335.173	258.562	0.0003094	0.00057785	0.00012244	853.49	1.0367e-05	1.1568e-05	1066.5	248.24	6.0334e-06	8.3705e-06	399.42	139.92	71.382	25.872	1.3455e-06	62.238	0.0017921	0.0021019	0.00058978	843.47	2.1875e-05	2.3106e-05	1047.3	248.72	2.2177e-05	2.2874e-05	396.39	140.42	82.496	26.652	2.2446e-05	62.065	150.293	96.889	134.928	-4.694	195.605	97.317	-4.528	0.148	230.050	123.931	-0.029	5.160	5.086	10.059	66.746	9.449	-8191	255	
643.187	1	1	0	0	0.17389	0.13427	0.065822	0.096088	0.14398	0.23811	0.074568	0.073408	0.23778	0.066959	0.16398	0.092784	0.092107	0.12435	0.19229	0.10289	-2.9875	-3.2125	-3.1312	-3.4354	-3.1937	-3.2146	-3.5229	-3.2167	-3.2875	-3.4	-3.3271	-3.4479	-3.2521	-3.0812	-3.4354	-3.4083	143.110	103.944	-8.833	213.926	140.630	-5.521	248.887	1.304	255.473	177.799	-2.877	116.909	127.703	151.106	-12.501	-15.811	0.00027353	0.00042038	0.00019826	856.7	2.5315e-06	4.8038e-06	1063.8	248.59	4.7878e-06	2.636e-06	401.17	140.06	72.091	25.859	1.0056e-05	61.841	0.0017061	0.0020283	0.00055743	842.42	2.0412e-05	2.1451e-05	1043	247.91	2.0432e-05	2.1332e-05	396.88	140.06	82.084	26.424	2.0504e-05	61.632	148.313	20.754	81.335	-4.707	158.270	157.298	-4.603	0.285	231.504	147.902	-0.146	4.684	4.895	9.787	102.148	9.189	-8191	255	
643.284	1	1	0	0	0.14732	0.022495	0.19325	0.18181	0.075548	0.15545	0.19691	0.091335	0.057809	0.27149	0.084111	0.084868	0.009103	0.21048	0.32704	0.061846	-2.9396	-3.4375	-2.9938	-3.4417	-3.2708	-3.1562	-3.5229	-3.225	-3.2938	-3.3792	-3.2687	-3.4854	-3.2729	-3.1271	-3.4688	-3.1708	30.603	225.035	338.337	306.837	152.678	243.205	277.672	310.648	29.614	236.165	277.910	334.827	296.770	189.008	305.587	146.135	0.00021771	0.00043477	0.00012665	853.53	2.8765e-06	8.8241e-06	1059.2	248.51	4.7755e-06	7.1069e-06	398.67	138.83	71.092	25.402	4.8019e-06	60.653	0.0016046	0.0018924	0.00052058	836.3	1.9736e-05	2.0558e-05	1038.2	247.24	1.9698e-05	2.0308e-05	394.35	139.21	80.863	25.914	1.9912e-05	60.471	135.331	116.584	172.671	-4.821	97.959	148.721	-4.665	-0.288	145.907	129.476	-0.277	4.784	6.131	9.409	111.929	9.328	-8191	255	
643.402	1	1	0	0	0.26622	0.05472	0.24446	0.38289	0.024701	0.22037	0.25993	0.070636	0.2075	0.14158	0.19052	0.11424	0.18834	0.15957	0.31427	0.013711	-2.9333	-3.375	-3.1125	-3.3812	-3.0646	-3.1333	-3.6083	-3.3563	-3.0292	-3.3187	-3.2854	-3.3208	-3.4729	-3.2729	-3.5229	-3.35	158.865	146.250	289.441	331.109	215.128	14.546	213.936	333.495	184.014	20.053	293.197	308.923	-15.769	254.157	48.425	181.190	0.00029247	0.0010384	7.6843e-05	854.23	4.405e-06	1.1885e-05	1062.6	248.08	1.799e-06	1.2454e-05	398.44	138.52	71.212	25.046	3.4047e-06	59.93	0.0015795	0.00188	0.00052166	837.73	2.0424e-05	2.1019e-05	1040	247.33	2.0413e-05	2.0943e-05	393.82	138.84	81.318	25.578	1.9824e-05	59.828	156.582	77.911	132.112	-4.755	137.429	140.456	-4.736	0.008	161.658	130.035	-0.073	5.023	5.971	9.669	80.798	9.291	-8191	255	
643.499	1	1	0	0	0.14145	0.1043	0.11676	0.1546	0.19087	0.11883	0.26973	0.13391	0.14047	0.11758	0.30495	0.025889	0.15822	0.34855	0.082349	0.21946	-3.0042	-3.2979	-3.3417	-3.6042	-3.4167	-3.2104	-3.6146	-3.4604	-3.3	-3.5271	-3.2042	-3.1708	-3.5271	-3.1958	-3.5771	-3.4167	247.330	8.202	74.948	312.937	45.200	217.947	306.686	137.908	166.680	138.131	297.700	48.689	135.768	292.600	235.553	4.381	0.00027762	0.00055741	0.00034507	858.62	4.6696e-06	6.819e-06	1058.6	249.02	2.1381e-06	3.976e-06	398.48	138.14	71.01	24.809	1.2832e-06	59.964	0.0015706	0.001838	0.00049977	841.45	1.9739e-05	1.9984e-05	1038.2	247.71	1.9693e-05	2.0143e-05	393.18	138.43	81.032	25.363	2.0198e-05	59.753	155.991	214.154	107.993	-4.866	117.038	105.957	-4.642	0.000	172.337	101.249	0.133	4.903	5.823	9.663	192.391	9.331	-8191	255	
643.595	1	1	0	0	0.16033	0.1828	0.24584	0.237	0.31012	0.2349	0.058299	0.33405	0.099727	0.078927	0.20003	0.13697	0.016627	0.20664	0.026147	0.038832	-2.7375	-3.4437	-3.2479	-3.4396	-3.2771	-3.0896	-3.5542	-3.4	-2.9688	-3.3125	-3.3	-3.1479	-3.5958	-3.3104	-3.4125	-3.4875	-5.422	199.228	26.835	305.479	-9.213	320.745	143.801	299.958	136.988	185.901	341.156	69.656	172.246	299.090	62.908	220.624	0.00022123	0.00070641	2.963e-05	865.28	8.1261e-06	2.9895e-06	1066.5	248.86	3.2256e-06	7.4708e-06	398.84	138.3	71.121	25.12	4.7471e-06	59.796	0.0016096	0.0018919	0.00052215	847.28	2.0657e-05	2.0841e-05	1045.6	248.66	2.0987e-05	2.1241e-05	394.31	138.74	81.768	25.543	2.0964e-05	59.607	141.579	92.740	34.571	-4.717	111.868	279.863	-4.680	-0.063	184.325	178.447	-0.079	5.103	5.535	9.629	278.876	9.316	-8191	255	
643.691	1	1	0	0	0.14521	0.093257	0.23005	0.29196	0.46642	0.10778	0.43338	0.10117	0.13711	0.031516	0.26275	0.25492	0.21101	0.25507	0.052354	0.035392	-2.8208	-3.4292	-3.2896	-3.3396	-3.4	-3.1437	-3.3958	-3.3292	-3.2354	-3.4958	-3.3146	-3.3458	-3.4854	-3.2729	-3.3667	-3.4083	278.104	206.214	120.308	261.746	134.666	73.837	273.148	55.253	246.875	121.389	9.957	319.116	145.638	61.925	26.252	144.743	0.0002173	0.00016556	0.00015988	864.68	6.6761e-06	3.4971e-06	1065.2	248.61	2.7249e-06	4.7087e-06	393.29	135.92	70.617	24.452	5.5263e-06	58.666	0.001655	0.0019597	0.000536	849.31	2.0714e-05	2.1058e-05	1046	247.78	2.1133e-05	2.1422e-05	389.85	136.17	81.113	25.033	2.1857e-05	58.618	172.262	66.619	107.660	-4.933	177.086	120.571	-4.420	0.146	174.584	156.498	0.029	5.098	5.913	9.429	219.576	9.536	-8191	255	
643.787	1	1	0	0	0.11695	0.074425	0.15832	0.085245	0.20683	0.2638	0.077686	0.075929	0.11541	0.31785	0.15371	0.28882	0.11878	0.11727	0.20847	0.27576	-2.6917	-3.2708	-3.2333	-3.1521	-3.3438	-3.2146	-3.3146	-3.3333	-3.1437	-3.3104	-3.4646	-3.1042	-3.4729	-3.1437	-3.1792	-3.4917	55.502	9.457	0.792	215.863	-13.552	71.931	23.393	197.677	337.815	-11.094	290.454	306.594	312.861	216.212	182.083	10.963	0.0002567	0.00072146	0.00011873	868.61	5.1125e-06	1.3029e-06	1070.6	247.97	1.8572e-06	5.4456e-06	395.26	134.91	69.941	24.447	5.7282e-06	58.367	0.001691	0.0019506	0.00055113	854.05	2.0922e-05	2.0878e-05	1048.7	247.89	2.076e-05	2.082e-05	389.82	135.9	80.305	24.94	2.0842e-05	58.243	133.843	110.447	120.852	-4.841	185.264	304.423	-4.465	0.099	80.273	126.414	0.073	4.991	5.313	9.921	158.439	9.317	-8191	255	
643.883	1	1	0	0	0.085428	0.39283	0.043718	0.17338	0.066423	0.10239	0.23432	0.083495	0.10555	0.1609	0.18896	0.32248	0.18245	0.16055	0.19717	0.1409	-2.6771	-3.2687	-3.1562	-3.2333	-3.5542	-3.2583	-3.3875	-3.4542	-3.1542	-3.3479	-3.4708	-3.1562	-3.5312	-3.1292	-3.3458	-3.5896	210.629	334.384	28.190	74.234	2.760	113.061	-6.759	317.679	263.582	197.525	163.878	328.639	5.973	206.136	13.197	315.423	0.00025314	0.00023717	0.00029116	873.88	2.8485e-06	5.9124e-06	1078.1	248.28	3.018e-06	1.0468e-05	390.71	135.46	70.016	24.583	2.9482e-06	58.736	0.0015881	0.0018935	0.00053801	858	2.0149e-05	2.0383e-05	1053.2	247.13	2.0163e-05	2.0867e-05	388.65	135.45	80.349	25.099	2.1891e-05	58.779	158.110	3.134	100.891	-4.812	249.035	163.006	-4.405	0.072	177.646	112.939	0.037	5.000	5.454	9.999	173.429	9.430	-8191	255	
644.004	1	1	0	0	0.10148	0.37958	0.20738	0.24613	0.2024	0.054744	0.19891	0.17812	0.18205	0.036503	0.44994	0.30683	0.25602	0.13535	0.23362	0.22544	-2.7792	-3.1125	-3.4042	-3.3	-3.3542	-3.325	-3.4562	-3.5396	-3.2292	-3.2812	-3.5687	-3.3042	-3.6042	-3.4021	-3.2354	-3.5521	45.893	149.713	142.048	256.090	241.031	61.344	264.622	259.773	98.970	168.404	298.594	0.526	29.341	189.523	29.110	287.138	0.00029903	0.00033611	0.00020613	870.76	5.3812e-06	8.3622e-06	1075.9	247.99	2.6424e-06	1.4267e-05	394.61	137	70.641	24.997	1.2222e-05	60.032	0.0016877	0.0020499	0.00058458	858.14	2.2255e-05	2.2872e-05	1056.5	248.74	2.215e-05	2.352e-05	392.95	137.6	82.476	25.838	2.419e-05	60.114	152.724	35.158	97.911	-4.644	200.957	153.829	-4.650	-0.026	-4.441	115.161	0.335	4.908	5.966	9.724	87.941	9.336	-8191	255	
644.098	1	1	0	0	0.14483	0.30729	0.13981	0.14284	0.23158	0.14382	0.13476	0.18593	0.066693	0.16501	0.2296	0.1748	0.22933	0.055865	0.12245	0.11175	-2.8896	-3.2771	-3.2979	-3.2979	-3.4813	-3.2	-3.4479	-3.5417	-3.3208	-3.2125	-3.5312	-3.2375	-3.3771	-3.4396	-3.2354	-3.5812	252.346	240.104	181.051	20.241	126.758	179.091	269.448	307.751	83.825	322.538	289.349	30.818	88.899	57.032	169.581	78.364	0.00026005	0.00062617	0.00028565	866.94	3.5217e-06	4.997e-06	1069.6	247.22	1.1693e-06	4.1979e-06	394.12	136.62	71.243	25.11	9.7151e-06	60.032	0.0018709	0.0023189	0.00064278	855.74	2.426e-05	2.5474e-05	1052	249.26	2.4789e-05	2.6269e-05	394.33	138.15	84.143	26.085	2.5882e-05	60.443	141.394	335.594	89.678	-4.892	60.933	157.306	-4.634	0.144	117.235	124.986	0.035	4.889	5.836	9.538	109.229	9.246	-8191	255	
644.196	1	1	0	0	0.16476	0.16361	0.13141	0.38792	0.19679	0.17958	0.12112	0.042044	0.17584	0.062339	0.26638	0.29617	0.073525	0.20218	0.2186	0.22171	-2.775	-3.1375	-3.4417	-3.3146	-3.4938	-3.2938	-3.2021	-3.4688	-3.1604	-3.3083	-3.55	-3.3583	-3.3417	-3.5687	-3.1604	-3.6854	215.076	152.653	24.139	273.866	252.811	98.108	211.364	15.929	323.965	302.913	314.719	118.346	279.186	330.261	185.800	261.124	0.00022557	0.0011856	0.00014593	861.66	6.7483e-06	4.6899e-06	1067.6	246.41	1.7193e-06	3.2699e-06	395.41	136.69	70.904	25.479	3.5379e-07	60.974	0.002009	0.0024588	0.00069128	853.63	2.7042e-05	2.8083e-05	1053.3	250.05	2.7473e-05	2.8656e-05	395.92	139.43	86.358	26.618	2.8567e-05	61.67	143.965	100.092	130.707	-4.919	117.915	171.894	-4.592	-0.175	154.625	80.895	0.134	4.901	5.171	9.928	336.063	9.282	-8191	255	
644.292	1	1	0	0	0.10005	0.29086	0.10752	0.20825	0.15191	0.14642	0.28995	0.22604	0.085833	0.22341	0.19351	0.24635	0.19819	0.25104	0.19966	0.16202	-2.9083	-3.0521	-3.6021	-3.2313	-3.3604	-3.4729	-3.2458	-3.4167	-3.3396	-3.1562	-3.5771	-3.2771	-3.3375	-3.5312	-3.1542	-3.5	307.277	22.451	286.307	14.097	192.628	235.745	238.011	321.008	2.662	124.800	298.188	30.714	43.332	40.510	46.374	333.745	0.00025372	0.0008638	0.00013633	857.95	3.4939e-06	7.0878e-06	1063.3	246.49	3.0503e-06	8.3597e-06	394.57	136.77	69.76	25.17	3.0072e-06	59.765	0.0022356	0.0027114	0.00076071	853.37	2.9166e-05	3.0246e-05	1053.7	251.07	2.9739e-05	3.0709e-05	397.33	139.71	87.178	26.445	3.0307e-05	60.79	139.115	75.520	132.819	-4.970	171.335	151.585	-4.543	0.087	71.226	116.550	0.050	5.127	5.955	9.603	60.615	9.193	-8191	255	
644.387	1	1	0	0	0.068908	0.11011	0.069802	0.17266	0.04695	0.13754	0.19307	0.16539	0.040325	0.078333	0.11002	0.17732	0.2482	0.11443	0.10555	0.11552	-2.8583	-3.1854	-3.4792	-3.2625	-3.3125	-3.3625	-3.2625	-3.3667	-3.4854	-3.1021	-3.5792	-3.3271	-3.3396	-3.4042	-3.1896	-3.5083	31.374	39.170	341.764	20.847	251.467	109.839	287.097	240.982	141.242	-15.316	310.716	-1.918	272.799	123.141	54.459	271.630	0.00033525	0.0014264	0.00012962	863.54	6.6245e-06	8.3429e-06	1063.2	245.58	1.7685e-06	7.457e-06	391.51	134.84	70.406	24.064	1.0233e-05	57.543	0.0023992	0.002897	0.0008096	859.87	3.159e-05	3.2326e-05	1055.8	251.57	3.1851e-05	3.2519e-05	393.83	137.75	87.129	25.572	3.1626e-05	58.596	137.582	107.231	311.405	-4.794	99.235	76.459	-4.660	0.011	76.955	62.985	-0.061	4.981	5.356	9.919	50.297	9.356	-8191	255	
644.483	1	1	0	0	0.10645	0.034408	0.36876	0.12207	0.1399	0.03663	0.26427	0.14492	0.20145	0.15196	0.17137	0.083303	0.010946	0.096525	0.28194	0.047888	-2.9229	-3.0521	-3.4208	-3.4688	-3.3208	-3.4938	-3.2792	-3.3979	-3.35	-3.225	-3.5521	-3.4125	-3.2521	-3.4292	-3.2604	-3.4625	222.874	153.101	102.606	340.925	30.465	95.564	314.161	334.033	41.907	62.807	2.640	160.986	277.477	336.286	305.933	24.639	0.0002721	0.0002721	0.00010172	868.74	7.9944e-06	3.8332e-06	1066	244.2	7.2052e-06	9.1965e-06	384.93	129.54	68.695	22.97	3.594e-06	54.163	0.0025238	0.0030127	0.0008337	869.74	3.3162e-05	3.3777e-05	1061	250.09	3.3751e-05	3.4015e-05	388.78	134.01	86.759	24.564	3.3245e-05	55.713	139.267	83.522	-4.456	-4.976	95.425	139.271	-4.581	0.079	83.036	309.132	0.139	4.932	5.748	9.732	198.895	9.333	-8191	255	
644.603	1	1	0	0	0.055407	0.11441	0.21294	0.089715	0.31598	0.23075	0.2795	0.1802	0.074573	0.12894	0.015798	0.1961	0.25451	0.1439	0.31077	0.10809	-3.0083	-3.3458	-3.5479	-3.375	-3.0812	-3.4458	-3.2917	-3.3563	-3.3917	-3.2333	-3.5583	-3.325	-3.1146	-3.4708	-3.1167	-3.4562	103.521	183.787	14.376	145.000	282.137	38.436	265.873	236.611	174.677	280.442	69.920	112.692	80.322	-1.542	170.815	246.281	0.00019249	0.00012137	0.00021058	875.68	8.5493e-06	1.2886e-05	1069.7	240.66	8.485e-06	8.0806e-06	377.47	126.46	66.981	22.126	4.9515e-06	52.34	0.0026287	0.0030614	0.00085798	876.85	3.2966e-05	3.354e-05	1061.7	247	3.3039e-05	3.3309e-05	382.58	130.71	85.824	23.794	3.3845e-05	54.104	157.297	72.794	157.975	-4.776	188.379	56.295	-4.554	0.272	185.666	14.714	0.190	5.302	5.560	10.242	204.448	9.663	-8191	255	
644.700	1	1	0	0	0.11717	0.15315	0.11764	0.074397	0.32358	0.1759	0.3438	0.23397	0.11298	0.10896	0.21016	0.33479	0.021021	0.17814	0.27536	0.23474	-2.9354	-3.1562	-3.3063	-3.4083	-3.2479	-3.4938	-3.2562	-3.3583	-3.3729	-3.1646	-3.6354	-3.3875	-3.2021	-3.1271	-3.3312	-3.425	59.398	272.096	108.461	80.188	330.591	79.835	258.639	340.078	117.267	33.689	-0.731	20.347	63.072	-17.421	73.672	268.924	0.0002192	0.00041746	0.00053509	879.61	4.4951e-06	1.1152e-05	1068.7	240.37	3.9117e-06	2.6079e-06	377.06	127.29	66.404	22.43	1.4895e-06	52.909	0.0026149	0.0031178	0.0008901	881.78	3.4159e-05	3.48e-05	1065.2	247.92	3.4672e-05	3.495e-05	383.08	131.33	86.551	24.084	3.6171e-05	54.759	159.802	106.117	74.453	-4.838	114.219	181.948	-4.563	0.297	99.661	52.890	0.213	5.015	5.942	10.005	332.967	9.753	-8191	255	
644.796	1	1	0	0	0.14927	0.043469	0.17297	0.22755	0.037348	0.058422	0.23379	0.31551	0.11252	0.1063	0.11526	0.14718	0.2343	0.071363	0.11542	0.10035	-3.1583	-3.075	-3.3958	-3.5521	-3.1562	-3.4542	-3.5396	-3.2833	-3.4188	-3.0938	-3.3542	-3.5187	-3.35	-3.4792	-3.2438	-3.2313	141.908	261.243	240.532	2.510	162.269	132.810	294.835	67.706	122.901	309.840	-13.214	-6.926	103.656	183.273	115.662	154.576	0.00029222	0.00060853	0.00010118	871.67	8.1627e-06	1.6029e-05	1066.3	240.84	1.6037e-06	2.8722e-06	377.8	128.78	66.852	22.698	6.5286e-06	54.186	0.0028109	0.0034166	0.00099021	879.8	3.7772e-05	3.9413e-05	1068.3	249.47	3.8414e-05	3.9312e-05	386.81	133.5	89.274	24.801	4.1503e-05	56.382	147.226	-5.237	244.122	-4.869	155.027	113.566	-4.332	0.014	85.863	256.128	0.128	5.225	5.315	9.790	68.022	9.676	-8191	255	
644.867	1	1	0	0	0.085094	0.090592	0.18706	0.2105	0.26452	0.12785	0.080967	0.30718	0.038741	0.20733	0.10956	0.27954	0.12727	0.29365	0.10633	0.23866	-2.9896	-3.2458	-3.2771	-3.4604	-3.0875	-3.4	-3.3729	-3.1771	-3.6312	-3.2917	-3.3521	-3.6375	-3.1	-3.6167	-3.1896	-3.2	161.904	-1.709	105.671	306.131	145.136	49.000	206.281	256.867	221.764	55.211	267.615	301.436	147.599	279.850	46.966	324.509	0.00025553	0.0012023	0.00026308	870.25	3.2469e-06	1.1075e-05	1060.4	240.5	8.0013e-07	3.6595e-06	378.18	128.03	66.963	22.835	1.062e-05	54.032	0.0031543	0.0038959	0.0011184	883.13	4.3024e-05	4.5837e-05	1074.2	252.75	4.6557e-05	4.8956e-05	391.93	135.64	96.047	25.689	5.2642e-05	57.396	140.489	79.130	-7.396	-4.816	20.205	202.211	-4.676	0.283	314.655	116.514	0.218	5.326	6.082	9.776	204.825	9.621	-8191	255	
644.988	1	1	0	0	0.2118	0.088066	0.24826	0.1616	0.12016	0.16456	0.14446	0.14309	0.055254	0.15766	0.36909	0.22652	0.22873	0.1532	0.2857	0.14683	-3.0354	-3.125	-3.1	-3.6792	-3.1604	-3.3438	-3.6	-3.3854	-3.4333	-3.3604	-3.2438	-3.525	-3.1708	-3.375	-3.3417	-3.1521	169.946	55.806	319.783	312.851	303.703	328.663	271.814	185.465	298.975	103.816	-16.087	7.113	202.257	30.016	189.782	206.571	0.00027298	6.6418e-05	0.00029011	861.4	7.5547e-06	5.9399e-06	1051.3	237.43	8.1833e-06	1.2806e-05	375.19	128.06	66.482	22.976	7.0484e-06	54.459	0.0040353	0.0050395	0.0014459	891.37	5.5364e-05	5.8685e-05	1081.5	255.98	5.6606e-05	5.9665e-05	396.06	137.27	100.91	26.398	5.8666e-05	58.528	146.711	98.843	43.572	-4.865	81.441	56.803	-4.767	0.166	25.163	150.988	0.173	5.129	6.056	10.032	104.580	9.237	-8191	255	
645.084	1	1	0	0	0.19848	0.16294	0.14161	0.077247	0.22676	0.10852	0.26469	0.083955	0.023443	0.18108	0.10283	0.10336	0.13241	0.13189	0.14587	0.049413	-3.2042	-3.3542	-3.2354	-3.5771	-3.1521	-3.3146	-3.4542	-3.1167	-3.4896	-3.3125	-3.1354	-3.6021	-3.2188	-3.4854	-3.4437	-3.1333	163.773	179.405	-17.104	259.143	-3.833	256.949	240.307	254.170	-9.272	189.823	242.614	71.699	72.823	106.080	1.525	7.978	0.00019605	0.0013235	0.00026804	855.92	8.5825e-06	4.4227e-06	1056.3	239.74	2.5795e-06	5.745e-06	378	129.75	68.295	23.288	5.7691e-06	55.19	0.004418	0.0054263	0.0014992	888.64	5.5647e-05	5.846e-05	1078.2	255.68	5.406e-05	5.5505e-05	396.37	137.95	98.121	26.35	5.2391e-05	58.652	153.590	172.601	105.408	-4.981	152.220	170.828	-4.434	0.066	170.747	158.744	0.270	4.960	5.507	10.040	148.225	9.304	-8191	255	
645.180	1	1	0	0	0.056145	0.13989	0.14515	0.23233	0.22502	0.10169	0.1737	0.092404	0.12238	0.073005	0.094568	0.11968	0.1125	0.14516	0.0091283	0.14474	-2.975	-3.3104	-3.25	-3.3792	-3.225	-3.2708	-3.6021	-3.0833	-3.5271	-3.3937	-3.2667	-3.5583	-3.1125	-3.3042	-3.4208	-3.2604	40.408	203.907	319.311	91.482	312.988	193.857	223.767	293.952	224.307	296.117	305.995	334.395	260.982	251.889	244.139	316.591	0.00035376	0.0002265	5.2107e-05	858.9	7.4037e-07	9.411e-06	1057.2	239.21	9.2002e-06	8.1295e-06	376.77	128.74	68.154	23.229	1.0956e-05	54.678	0.0040555	0.0049681	0.0013817	885.45	5.4109e-05	5.7036e-05	1081	256.27	5.7661e-05	5.9776e-05	398.3	138.43	102.8	26.718	5.9978e-05	58.91	122.628	170.330	47.466	-4.761	137.664	91.790	-4.416	-0.117	205.431	123.016	0.121	4.893	5.876	9.761	224.209	9.614	-8191	255	
645.276	1	1	0	0	0.0045079	0.22667	0.066544	0.21745	0.12581	0.1394	0.03345	0.23403	0.28732	0.15764	0.12217	0.13709	0.13879	0.2112	0.085735	0.078946	-2.975	-3.3271	-2.9583	-3.5146	-3.25	-3.2458	-3.6354	-3.1562	-3.2938	-3.35	-3.225	-3.5792	-2.9521	-3.3063	-3.5333	-3.1917	208.129	211.056	287.028	315.963	144.055	13.389	268.114	262.105	123.248	40.279	304.259	151.594	242.363	306.261	99.118	265.825	0.00031312	0.001222	0.00021321	863.88	1.108e-05	9.7609e-06	1058.1	239.34	4.4628e-06	9.1549e-06	375.94	127.89	67.663	22.624	9.1442e-06	53.217	0.0045902	0.0055704	0.0015091	897.21	5.8661e-05	6.0289e-05	1087.5	257.54	6.0225e-05	6.2012e-05	397.51	138.04	104.41	26.407	6.2552e-05	58.037	136.974	85.234	196.336	-4.906	184.329	69.731	-4.784	0.429	316.492	340.990	-0.119	5.186	6.086	10.327	150.855	9.203	-8191	255	
645.395	1	1	0	0	0.028117	0.17391	0.2636	0.15373	0.16013	0.098965	0.080816	0.22396	0.3644	0.10247	0.30226	0.02212	0.20459	0.18695	0.16731	0.08494	-2.975	-3.2979	-3.0792	-3.4833	-3.2146	-3.1292	-3.6271	-3.3167	-3.4583	-3.45	-3.2062	-3.5167	-3.3958	-3.2188	-3.5125	-3.2833	306.847	18.495	140.273	263.104	219.838	92.242	124.143	295.677	235.500	289.623	267.401	230.928	31.739	52.988	215.545	260.768	0.00016995	0.0011059	0.00017593	862.13	8.9433e-07	1.589e-06	1055.9	237.43	9.6412e-06	2.9003e-06	372.17	125.87	66.781	22.63	5.7878e-06	53.07	0.0049285	0.0059562	0.0016477	904.92	6.4524e-05	6.5881e-05	1089.9	258.78	6.5008e-05	6.5462e-05	397.03	137.72	105.19	26.497	6.3676e-05	58.185	135.508	13.173	62.079	-4.744	204.311	161.654	-4.429	0.265	133.500	25.638	0.194	4.972	6.323	10.076	115.698	9.234	-8191	255	
645.467	1	1	0	0	0.44027	0.01393	0.1875	0.19975	0.12798	0.10635	0.2146	0.13618	0.090701	0.16395	0.14157	0.13611	0.31571	0.054666	0.082091	0.11719	-2.8979	-3.4854	-3.2417	-3.3438	-3.4313	-3.1437	-3.7021	-3.2729	-3.2083	-3.4	-3.1375	-3.3104	-3.25	-2.9396	-3.4646	-3.1688	85.506	97.315	273.346	248.353	32.704	239.881	-7.860	-16.040	166.160	49.777	302.411	310.708	126.597	49.466	336.856	218.458	0.00027996	7.0741e-05	0.0001619	862.62	1.0058e-05	1.2259e-05	1054.4	237.37	3.3594e-06	2.6569e-06	374.51	127.54	66.013	22.93	4.109e-06	54.469	0.0049136	0.0059062	0.0016151	901.81	6.1898e-05	6.1916e-05	1085.9	257.55	6.0859e-05	6.1485e-05	395.79	137.48	101.77	26.231	5.737e-05	58.295	160.140	27.340	31.701	-4.927	151.595	151.318	-4.593	0.387	95.036	33.428	0.267	5.225	6.094	9.605	226.167	9.401	-8191	255	
645.563	1	1	0	0	0.2543	0.029443	0.092462	0.1645	0.1903	0.099653	0.11192	0.09687	0.035489	0.18009	0.042923	0.046864	0.15274	0.12413	0.19002	0.18747	-2.8396	-3.3937	-3.1958	-3.4896	-3.3792	-3.0687	-3.6312	-3.3625	-3.2042	-3.5354	-3.2167	-3.3958	-3.4021	-3.2083	-3.3208	-3.3542	243.896	129.535	305.066	302.314	284.102	224.977	274.139	326.501	155.781	310.632	315.391	106.154	250.577	332.345	132.074	308.934	0.00016637	0.0010483	0.00024923	861.22	3.5759e-06	4.805e-06	1056.6	239.29	6.7876e-06	7.7398e-06	378.57	129.26	67.134	23.052	8.8048e-06	54.622	0.0042073	0.0049681	0.0013697	886	5.0944e-05	5.0726e-05	1073.6	253.19	4.7658e-05	4.7731e-05	391.07	135.7	92.886	25.393	4.2505e-05	57.199	137.743	97.510	161.385	-4.816	228.607	193.080	-4.675	0.061	168.783	68.211	0.134	4.816	6.398	9.668	130.305	9.217	-8191	255	
645.684	1	1	0	0	0.034438	0.12683	0.1963	0.13363	0.067521	0.10147	0.2746	0.046728	0.25683	0.15679	0.2468	0.062147	0.055038	0.17885	0.3605	0.052984	-2.6625	-3.4083	-3.0979	-3.2313	-3.4042	-3.0458	-3.4354	-3.2833	-3.1646	-3.4125	-3.2833	-3.2938	-3.425	-3.0896	-3.3688	-3.3312	80.354	223.026	336.652	42.707	29.605	219.166	267.231	110.797	244.674	-5.252	236.367	117.425	72.440	194.932	37.593	181.266	0.00018422	0.0015299	5.8671e-05	864.12	7.1058e-06	5.3322e-06	1059.2	242.63	2.0998e-06	6.9367e-06	382.06	130.52	67.922	22.839	2.5197e-06	53.958	0.0029809	0.0034541	0.00094313	866.06	3.2235e-05	3.125e-05	1048.9	245.61	2.6481e-05	2.6092e-05	381.76	131.77	79.434	23.533	2.204e-05	54.269	129.296	324.575	38.534	-4.960	146.758	59.604	-4.520	0.045	186.613	74.297	0.261	5.206	6.142	9.838	149.179	9.422	-8191	255	
645.780	1	1	0	0	0.2409	0.016622	0.15974	0.15369	0.13919	0.16254	0.25195	0.22667	0.14147	0.18174	0.083351	0.044426	0.16461	0.078428	0.10758	0.14393	-2.8146	-3.2875	-3.2188	-3.3312	-3.3833	-3.1188	-3.525	-3.3542	-3.2	-3.4146	-3.4458	-3.1292	-3.4542	-3.3208	-3.2458	-3.3583	330.746	214.191	257.033	304.106	193.156	241.082	300.558	187.333	197.600	210.746	305.003	58.196	282.942	121.868	12.436	88.950	0.00025773	0.00090984	0.00015467	865.45	1.9822e-06	4.0594e-06	1063.6	241.57	8.7873e-07	3.2011e-06	377.86	126.74	66.349	21.83	4.9502e-06	51.967	0.0015908	0.0018545	0.00051608	850.35	1.8757e-05	1.8626e-05	1038.3	239.93	1.7501e-05	1.8372e-05	372.42	127	74.91	22.309	1.8365e-05	51.961	141.602	78.616	90.717	-4.631	21.739	19.982	-4.701	0.488	92.663	140.318	-0.086	4.955	6.049	10.199	231.975	9.362	-8191	255	
645.876	1	1	0	0	0.2515	0.15412	0.10236	0.23926	0.24402	0.074479	0.22418	0.15414	0.30647	0.23442	0.18029	0.20152	0.20584	0.21348	0.17598	0.1238	-2.8375	-3.4354	-3.2208	-3.3708	-3.3563	-3.1437	-3.4458	-3.4833	-3.1542	-3.6896	-3.3833	-3.3312	-3.4125	-3.2292	-3.2083	-3.4521	-8.376	-15.099	227.766	277.258	51.360	241.172	236.876	53.526	165.547	125.675	339.442	306.628	276.549	253.049	335.547	323.071	0.00023515	0.00071038	0.00028798	871.83	3.0173e-06	3.9424e-06	1061.8	240.8	1.6728e-07	6.066e-06	377.25	126.9	66.821	22.034	8.7905e-07	52.958	0.0013915	0.0016931	0.00047778	853	1.7954e-05	1.8937e-05	1037.4	239.83	1.8644e-05	2.0127e-05	373.1	127.7	77.066	22.725	2.1478e-05	53.025	142.536	104.982	73.589	-4.655	332.096	153.147	-4.455	0.369	275.118	137.305	-0.082	5.068	6.223	10.021	308.615	9.390	-8191	255	
645.997	1	1	0	0	0.10504	0.17024	0.13278	0.058207	0.22873	0.37176	0.11842	0.23603	0.13885	0.15641	0.3478	0.29809	0.045886	0.25737	0.1649	0.27115	-2.675	-3.5229	-3.1729	-3.1646	-3.525	-3.2958	-3.4938	-3.4625	-3.3	-3.5438	-3.3521	-3.2521	-3.4917	-3.2229	-3.2667	-3.5687	303.818	321.385	266.256	193.349	128.272	38.803	233.979	248.923	15.861	151.349	266.234	37.675	259.835	15.385	337.335	273.275	0.00022944	0.00028213	0.00021267	875.82	8.2843e-06	3.2469e-06	1067.5	241.82	5.6961e-07	3.7131e-06	378.34	128.42	67.006	22.665	4.9663e-06	53.866	0.0016962	0.0021439	0.00060701	861.13	2.4226e-05	2.6098e-05	1050.2	245.07	2.8092e-05	3.1301e-05	383.5	131.74	86.903	24.422	3.927e-05	55.833	150.403	-7.874	85.750	-4.704	180.693	78.973	-4.527	0.201	39.092	133.067	0.281	5.050	6.236	10.259	67.198	9.602	-8191	255	
646.093	1	1	0	0	0.16812	0.14053	0.22693	0.15638	0.13723	0.18221	0.16448	0.17424	0.1641	0.22932	0.11268	0.43137	0.028215	0.14951	0.31308	0.12223	-2.6042	-3.2271	-3.2729	-3.2271	-3.4229	-3.2792	-3.4021	-3.575	-2.9688	-3.2354	-3.5625	-3.0062	-3.375	-3.2083	-3.1667	-3.3854	164.085	307.780	125.496	293.015	6.105	42.668	255.932	291.049	210.303	193.406	251.434	320.936	4.113	325.316	175.245	202.083	0.00026338	0.0011515	6.3809e-05	869.61	7.8469e-06	9.7537e-06	1061	241.8	4.5237e-06	4.3343e-06	379.02	129.36	66.68	22.961	5.3814e-06	54.779	0.0032344	0.0041187	0.0011657	884.59	4.5423e-05	4.6904e-05	1074.8	253.53	4.456e-05	4.5699e-05	392.63	135.42	91.855	25.23	4.0311e-05	56.881	120.365	140.482	287.055	-5.011	21.665	74.131	-4.920	0.034	102.523	96.961	0.130	5.150	5.640	9.671	169.402	9.460	-8191	255	
646.165	1	1	0	0	0.17674	0.089462	0.13546	0.16032	0.14693	0.12196	0.065125	0.2866	0.17359	0.065897	0.27689	0.16247	0.15983	0.19985	0.15094	0.395	-2.7021	-3.3021	-3.5375	-3.1958	-3.3208	-3.1708	-3.2167	-3.4771	-3.0979	-3.1792	-3.5438	-3.0333	-3.3063	-3.4167	-3.3521	-3.6521	-0.113	64.231	72.412	66.703	129.577	114.623	274.740	231.421	246.066	250.622	13.216	86.408	123.534	-11.389	3.240	245.319	0.00024136	0.00027273	0.00029023	863.89	7.6132e-06	8.2573e-06	1062.9	244.78	1.5474e-06	8.1988e-06	381.28	130.26	69.224	22.811	3.3937e-06	54.107	0.0030272	0.003619	0.00097501	871.11	3.6872e-05	3.6786e-05	1057.5	249.52	3.3743e-05	3.391e-05	386.38	133.2	85.541	24.22	3.0439e-05	55.507	160.500	166.079	208.745	-4.707	203.395	162.226	-4.644	0.454	236.994	50.311	0.091	5.118	6.398	9.832	109.149	9.562	-8191	255	
646.261	1	1	0	0	0.090033	0.068128	0.10603	0.14569	0.076364	0.056612	0.10187	0.09921	0.12448	0.2314	0.16635	0.37189	0.27218	0.091945	0.40893	0.18387	-2.8708	-3.2021	-3.3833	-3.1833	-3.4437	-3.1937	-3.3021	-3.65	-3.3563	-3.1917	-3.575	-3.2917	-3.4104	-3.4	-3.1708	-3.4688	254.910	125.189	66.311	330.914	34.409	152.822	328.495	2.667	152.885	250.256	340.870	332.018	263.779	339.559	46.707	190.085	0.00031249	0.00052509	0.000296	864.49	6.2867e-06	6.7933e-06	1055.6	242.98	7.0695e-06	2.2279e-06	382.05	129.88	68.306	22.852	4.8044e-06	54.703	0.0023347	0.0027489	0.00073317	857.67	2.8317e-05	2.8233e-05	1043.7	246	2.6842e-05	2.6767e-05	382.37	132	82.08	23.848	2.5737e-05	55.33	144.218	92.225	129.709	-4.928	98.146	150.854	-4.771	0.132	145.265	212.427	-0.160	4.931	5.164	10.165	89.989	9.584	-8191	255	
646.380	1	1	0	0	0.18447	0.055744	0.15983	0.1039	0.15204	0.21723	0.30723	0.35071	0.078427	0.061441	0.053188	0.085242	0.12914	0.12097	0.1121	0.27952	-2.8812	-3.1354	-3.4813	-3.1833	-3.3375	-3.3729	-3.1917	-3.2896	-3.275	-3.3812	-3.5458	-3.3917	-3.2917	-3.4313	-3.0646	-3.5104	305.764	117.788	301.305	128.908	-12.521	5.199	312.406	312.428	57.274	36.297	257.941	184.150	114.992	316.182	72.313	307.055	0.00018593	0.0010439	3.4607e-05	864.7	3.2449e-06	5.9818e-06	1054.1	243.67	1.7097e-06	3.9329e-06	383.77	130.74	68.192	22.958	6.0519e-06	54.8	0.0020465	0.002421	0.00066356	854.92	2.601e-05	2.5666e-05	1042.9	245.5	2.4627e-05	2.464e-05	383.49	132	80.502	23.755	2.3335e-05	55.224	143.321	108.077	140.946	-5.055	96.497	167.918	-4.653	0.161	124.236	137.687	0.155	5.362	5.673	9.879	196.402	9.337	-8191	255	
646.476	1	1	0	0	0.12329	0.13202	0.11862	0.11746	0.13177	0.11937	0.27485	0.068543	0.22089	0.13326	0.1451	0.14297	0.17543	0.24297	0.04536	0.29655	-2.9417	-3.0521	-3.4354	-3.2646	-3.2979	-3.5625	-3.3438	-3.4229	-3.2896	-3.2375	-3.6021	-3.4042	-3.2896	-3.4562	-3.15	-3.3875	-1.076	331.050	100.387	336.055	89.067	46.537	243.363	259.254	56.185	8.661	227.610	268.729	225.391	222.641	121.148	270.063	0.00021834	0.00047106	0.00017572	865.62	4.5564e-06	1.5825e-06	1069.2	244.12	2.2289e-06	2.8371e-06	383.69	129.46	68.643	22.398	2.1847e-06	53.511	0.0018286	0.0021534	0.00060626	856.95	2.3182e-05	2.3358e-05	1048	245.48	2.3203e-05	2.3357e-05	382.1	130.73	79.562	23.297	2.3163e-05	54.02	129.592	116.569	59.691	-4.834	114.029	109.240	-4.504	0.106	127.947	340.252	0.131	5.086	6.555	9.960	90.044	9.643	-8191	255	
646.572	1	1	0	0	0.25199	0.13083	0.28036	0.21573	0.039319	0.12186	0.20149	0.053965	0.15317	0.23639	0.22214	0.20458	0.10516	0.14271	0.083226	0.3411	-2.9021	-3.1375	-3.3438	-3.3458	-3.3125	-3.475	-3.5208	-3.5021	-3.2938	-3.3667	-3.5396	-3.2271	-3.1917	-3.4896	-3.1771	-3.4146	309.744	228.335	119.125	338.800	175.055	318.540	276.829	6.549	184.091	249.069	275.727	323.531	305.567	78.987	33.261	305.827	0.0002126	0.00061887	0.0002706	882.2	4.1685e-06	5.2923e-06	1068.2	244.5	3.5104e-06	3.9537e-06	381.57	128.68	66.753	22.226	7.684e-06	52.97	0.0017724	0.0020736	0.00059484	866.5	2.2461e-05	2.2551e-05	1052.3	245.01	2.1349e-05	2.1418e-05	379.06	129.08	77.371	22.802	2.0019e-05	52.989	155.894	318.924	121.835	-4.811	192.577	203.110	-4.716	0.258	105.463	255.893	0.175	5.060	5.342	10.133	184.127	9.601	-8191	255	
646.692	1	1	0	0	0.07461	0.10211	0.15812	0.19633	0.17429	0.28991	0.20943	0.18768	0.10951	0.12645	0.18987	0.16224	0.19195	0.10152	0.17086	0.25914	-2.9542	-3	-3.2188	-3.3917	-3.2125	-3.5146	-3.0729	-3.4854	-3.5083	-2.8896	-3.5104	-3.3771	-3.1979	-3.5625	-3.2667	-3.3229	-1.118	-8.288	306.576	282.097	263.245	192.791	230.141	268.840	105.966	247.578	274.091	174.666	90.588	308.437	207.524	318.142	0.00021529	0.0010041	0.00010261	875.33	8.0405e-07	1.0466e-05	1063.8	242.81	3.8849e-06	5.1712e-06	382.8	126.75	66.274	21.892	7.1306e-06	52.882	0.0015168	0.0017628	0.00050158	857.39	1.8121e-05	1.855e-05	1040.8	241.28	1.6764e-05	1.6883e-05	375.14	126.9	73.54	22.212	1.4617e-05	52.102	151.591	68.195	125.950	-4.770	99.649	137.437	-4.593	0.148	200.196	173.190	0.174	5.159	5.369	9.734	69.690	9.654	-8191	255	
646.764	1	1	0	0	0.13955	0.11584	0.19197	0.33147	0.064277	0.20704	0.050272	0.23293	0.13828	0.076889	0.10531	0.15175	0.19248	0.056257	0.30541	0.39087	-3.0187	-3.0312	-3.4917	-3.4167	-3.1958	-3.5542	-3.4	-3.3063	-3.4521	-3.1375	-3.5833	-3.5271	-3.0479	-3.4688	-3.2521	-3.3312	177.828	271.169	254.087	259.162	240.872	27.343	194.767	277.329	305.432	18.778	283.030	314.428	239.160	281.539	331.406	-15.574	0.0002318	0.00068512	0.00015779	869.33	2.2121e-06	3.116e-06	1067.6	242.09	4.8814e-06	7.8828e-06	378.85	126.12	65.962	21.4	3.3776e-06	51.382	0.0010737	0.0012214	0.00034102	843.83	1.221e-05	1.2548e-05	1033.6	237.14	1.1933e-05	1.1961e-05	369.37	124.86	70.435	21.498	1.1502e-05	50.578	145.034	44.815	157.001	-4.709	143.945	134.437	-4.506	0.412	154.442	105.646	0.323	5.232	6.032	10.015	146.349	9.654	-8191	255	
646.860	1	1	0	0	0.084667	0.24991	0.11803	0.059641	0.1927	0.0655	0.062358	0.20011	0.0893	0.15747	0.25197	0.22784	0.17825	0.085762	0.16716	0.13286	-3.1167	-3.1562	-3.3063	-3.3375	-3.0438	-3.5604	-3.3167	-3.15	-3.4479	-3.225	-3.3479	-3.4104	-3.1958	-3.4208	-3.3	-3.3375	250.989	231.844	155.968	332.944	128.670	14.490	317.376	262.909	44.352	281.800	-7.128	0.502	291.344	258.264	184.615	278.174	0.00023349	0.00057855	8.4381e-05	879.93	4.2557e-06	1.2278e-06	1073.4	241.73	3.3292e-06	3.8387e-06	374.72	124.43	65.511	21.311	1.2671e-06	50.564	0.00091006	0.0010618	0.00029709	850.82	1.1081e-05	1.1557e-05	1037.3	236.53	1.1091e-05	1.142e-05	365.65	122.95	69.849	21.279	1.1739e-05	49.621	161.977	43.950	162.924	-4.784	122.594	217.247	-4.470	0.251	177.349	102.316	0.341	5.225	5.838	10.216	229.648	9.876	-8191	255	
646.956	1	1	0	0	0.019456	0.16075	0.088905	0.15216	0.040648	0.051091	0.1666	0.46291	0.2191	0.18936	0.1382	0.15772	0.066888	0.27679	0.027381	0.24535	-3.1583	-3.0708	-3.525	-3.5812	-3.3125	-3.3208	-3.5271	-3.4083	-3.5062	-3.2271	-3.4313	-3.3833	-3.0604	-3.3875	-3.2333	-3.1125	274.315	312.944	36.015	253.819	318.486	285.789	131.175	275.116	-8.744	71.188	190.977	132.885	331.668	304.099	188.256	275.286	0.00020142	0.00060062	0.00017303	890.68	5.5985e-06	3.2682e-06	1080.8	240.45	2.4672e-06	5.1078e-06	373.33	123.03	65.741	20.967	4.0578e-06	49.251	0.00096138	0.0011422	0.0003213	861.41	1.2319e-05	1.3016e-05	1045.8	237.04	1.2662e-05	1.2771e-05	364.56	121.78	70.498	21.064	1.2147e-05	48.665	156.295	49.420	73.200	-4.823	187.239	212.016	-4.590	0.304	150.860	171.982	0.309	5.312	5.865	10.066	142.536	9.877	-8191	255	
647.077	1	1	0	0	0.041645	0.12279	0.0067248	0.14358	0.11244	0.30303	0.17587	0.14585	0.173	0.40126	0.19396	0.20684	0.15281	0.076804	0.050369	0.15067	-3.0479	-3.0792	-3.2583	-3.6688	-3.2583	-3.5	-3.4354	-3.2167	-3.525	-3.2313	-3.4271	-3.4271	-3.2313	-3.4167	-3.4437	-3.1375	51.143	234.747	204.959	277.622	203.552	36.870	326.382	28.732	31.498	309.909	-15.030	286.598	218.510	-6.917	107.947	301.962	0.00022399	0.00023911	0.00023495	889.31	3.5105e-06	7.8808e-06	1073.2	239.2	1.9253e-06	1.2245e-06	369.32	121.59	65.933	20.699	7.099e-06	48.678	0.00098513	0.0011087	0.0003053	861.64	1.172e-05	1.1769e-05	1038.5	235	1.1482e-05	1.1638e-05	360.01	120	69.487	20.655	1.117e-05	47.747	139.813	34.774	63.844	-4.642	216.025	89.874	-4.705	0.296	86.327	194.471	0.042	5.472	6.347	10.283	165.796	9.700	-8191	255	
647.171	1	1	0	0	0.13709	0.10064	0.038012	0.044514	0.18384	0.16923	0.17472	0.087486	0.1234	0.1297	0.11789	0.10586	0.070069	0.090516	0.18921	0.045945	-3.075	-3.2083	-3.275	-3.5104	-3.2729	-3.3812	-3.4375	-3.0583	-3.3896	-3.2771	-3.1312	-3.425	-3.2396	-3.4521	-3.3604	-3.1437	321.252	336.967	27.584	31.165	327.540	277.511	254.509	-7.899	73.698	90.492	60.937	-14.348	203.760	146.591	55.949	232.719	0.00020205	0.00025695	0.00020932	891.76	3.6072e-06	4.7941e-06	1077.3	239.59	2.8496e-06	5.3803e-06	369.58	121.65	65.786	20.757	2.1335e-06	48.67	0.00093665	0.001066	0.00028993	860.97	1.1196e-05	1.136e-05	1037.4	234.86	1.0937e-05	1.0788e-05	359.61	120.2	68.91	20.65	1.0154e-05	47.921	149.140	93.827	48.153	-4.578	190.841	161.200	-4.397	0.646	147.887	104.598	0.447	5.303	6.054	10.070	111.141	9.338	-8191	255	
647.268	1	1	0	0	0.051781	0.15199	0.10247	0.3665	0.12781	0.28578	0.32199	0.235	0.17962	0.10451	0.22535	0.075182	0.033061	0.060467	0.13188	0.29968	-3.0542	-3.2792	-3.175	-3.5104	-3.1583	-3.3187	-3.4958	-3.2625	-3.2938	-3.2854	-3.3292	-3.5917	-3.3125	-3.3729	-3.55	-3.2042	282.085	331.954	326.699	315.004	271.050	121.965	317.116	241.128	69.213	238.060	-7.024	264.189	118.649	207.499	229.618	252.180	0.0001764	0.00031997	0.0001228	890.98	4.6904e-06	2.3242e-06	1070.8	240.4	2.9741e-06	1.7288e-06	372.06	122.03	65.635	20.713	4.7565e-06	49.264	0.0008361	0.00093482	0.00025401	859.99	9.9601e-06	1.0001e-05	1036.1	234.46	9.8175e-06	9.5999e-06	360.71	120.31	68.071	20.585	9.2969e-06	48.083	156.799	58.482	332.161	-4.599	204.536	77.301	-4.447	0.332	97.755	252.787	0.490	5.385	6.250	10.049	118.280	9.762	-8191	255	
647.366	1	1	0	0	0.21636	0.12739	0.10029	0.18397	0.13927	0.091522	0.1783	0.28284	0.17977	0.071152	0.2362	0.19319	0.23767	0.084233	0.32973	0.082094	-3.0021	-3.3271	-3.0312	-3.5708	-3.3792	-3.1958	-3.5583	-3.2479	-3.3063	-3.4042	-3.1875	-3.4938	-3.3208	-3.1521	-3.5167	-3.3021	280.220	325.272	318.760	26.957	175.547	218.905	273.629	304.629	185.905	28.383	235.305	323.389	50.144	293.479	319.970	94.046	0.00018662	0.00040282	7.6411e-05	889.83	3.5889e-06	5.6985e-06	1078.3	239.31	2.6294e-06	3.942e-06	370.43	121.93	64.117	20.703	2.8012e-06	48.394	0.00075033	0.00082821	0.00023101	858.02	8.9602e-06	8.8574e-06	1038.1	233.92	8.8535e-06	8.7951e-06	359.97	119.7	67.517	20.458	8.8268e-06	47.388	156.968	58.131	282.352	-4.762	157.922	162.667	-4.478	0.394	207.118	122.746	0.082	5.263	5.658	10.061	124.646	9.943	-8191	255	
647.460	1	1	0	0	0.14891	0.18206	0.19832	0.13874	0.17965	0.047347	0.21787	0.10005	0.22568	0.15176	0.16823	0.11943	0.057013	0.18499	0.23858	0.15998	-2.8688	-3.4146	-3.1521	-3.4938	-3.3063	-3.1708	-3.4938	-3.3083	-3.3063	-3.4979	-3.3063	-3.4792	-3.2729	-3.0708	-3.5563	-3.2417	197.690	311.678	172.992	270.507	1.858	87.608	327.961	290.389	251.166	324.373	278.538	49.306	-3.135	274.900	310.680	-2.219	0.00019323	0.00076811	8.7346e-05	894.21	3.4113e-06	2.9514e-06	1076.8	239.81	2.581e-06	5.8799e-06	364.76	119.49	64.739	20.326	4.5117e-06	46.981	0.0007216	0.00080057	0.00022874	861.78	8.7712e-06	8.7843e-06	1040.5	233.97	8.7646e-06	8.8615e-06	355.14	117.42	67.422	20.184	9.2472e-06	46.145	164.122	122.078	5.257	-4.788	134.199	83.568	-4.409	0.258	150.792	128.285	0.305	5.287	6.056	10.272	169.423	10.059	-8191	255	
647.556	1	1	0	0	0.13348	0.32774	0.093054	0.20794	0.33946	0.31404	0.033841	0.2497	0.017514	0.25724	0.049833	0.16337	0.25557	0.08433	0.14587	0.13276	-2.6979	-3.3771	-3.0062	-3.5417	-3.1896	-2.9708	-3.6312	-3.1979	-3.2104	-3.3146	-3.2271	-3.4021	-3.2562	-3.2208	-3.425	-3.1646	154.333	20.949	20.727	304.154	287.062	279.963	189.938	301.162	330.604	179.324	286.540	7.194	13.684	23.655	42.034	87.953	0.00015042	0.000516	0.00022193	902.97	1.5287e-06	4.7874e-06	1079.2	239.54	3.239e-06	2.6704e-06	365.33	117.43	64.325	20.512	6.2825e-06	47.012	0.00075469	0.00086865	0.00024379	868.71	9.5202e-06	9.6927e-06	1042.5	234.23	9.6738e-06	9.8944e-06	354.68	116.93	67.813	20.281	9.9338e-06	46.234	146.398	119.247	14.982	-4.695	331.162	146.981	-4.335	0.525	129.070	139.828	0.398	5.227	6.356	10.498	132.087	9.829	-8191	255	
647.677	1	1	0	0	0.20678	0.23687	0.075351	0.12866	0.11513	0.17792	0.19888	0.15356	0.26322	0.2224	0.053577	0.10059	0.31298	0.044904	0.044602	0.3307	-2.7	-3.5396	-3.0958	-3.4208	-3.3729	-3.1354	-3.5812	-3.3729	-3.1771	-3.525	-3.2792	-3.4167	-3.2896	-3.1104	-3.5521	-3.4396	248.013	165.294	164.262	293.043	208.300	176.558	261.178	195.319	283.858	60.504	222.576	-1.085	251.625	163.344	150.773	300.225	0.0002076	0.00057855	8.5027e-05	905.7	3.1438e-06	3.74e-06	1081.9	240.87	5.9909e-06	2.4126e-06	365.1	118.1	65.259	20.258	3.2003e-06	47.005	0.00077985	0.00090738	0.00025131	871.83	9.7296e-06	1.0082e-05	1044.8	234.66	9.8518e-06	1.0339e-05	355.45	117.02	68.475	20.26	1.0432e-05	46.221	132.941	18.413	206.007	-4.313	173.438	216.461	-4.439	0.452	140.889	66.526	0.123	5.314	6.315	10.420	97.012	9.891	-8191	255	
647.773	1	1	0	0	0.11463	0.12983	0.13092	0.042256	0.12265	0.13041	0.010481	0.15689	0.15366	0.1548	0.28811	0.26908	0.15468	0.16965	0.13018	0.050741	-2.8396	-3.3042	-3.2833	-3.3417	-3.4229	-3.0833	-3.5417	-3.35	-3.1854	-3.4208	-3.3083	-3.1688	-3.4729	-3.0958	-3.3667	-3.4792	12.639	209.050	75.611	279.638	117.519	6.001	231.053	317.688	27.916	117.692	332.917	337.228	197.150	116.976	4.188	250.112	0.000224	0.00037575	0.00017257	908.18	3.3107e-06	1.8485e-06	1085.6	242.22	5.2198e-06	2.1092e-06	365.38	119.1	64.743	20.328	1.8758e-06	46.894	0.00083823	0.001007	0.00027834	874.66	1.0372e-05	1.0973e-05	1049.6	236.15	1.0678e-05	1.1153e-05	356.38	117.5	68.964	20.365	1.0733e-05	46.074	153.611	103.656	66.065	-4.648	136.202	194.739	-4.526	0.234	129.519	169.312	0.113	5.057	6.617	10.599	-5.287	9.697	-8191	255	
647.869	1	1	0	0	0.08952	0.099743	0.23571	0.049981	0.20172	0.23595	0.19	0.10467	0.17238	0.2517	0.12221	0.10525	0.14195	0.10426	0.032211	0.17242	-2.7021	-3.4625	-3.3583	-3.3292	-3.4333	-3.1896	-3.6083	-3.2979	-3.1583	-3.4729	-3.3021	-3.2938	-3.4938	-3.0771	-3.2875	-3.4813	0.489	148.021	22.417	43.644	233.953	280.171	267.843	305.269	125.255	112.873	242.279	339.766	316.768	165.596	23.747	179.530	0.00022716	0.00056029	9.5873e-05	910.71	5.5205e-07	8.412e-06	1086.5	240.25	3.7314e-06	4.4332e-06	365.6	118.89	64.271	20.381	2.0122e-06	46.857	0.00086429	0.0010067	0.00028041	878.14	1.1286e-05	1.1581e-05	1051.1	235.94	1.1844e-05	1.2465e-05	356.56	117.62	69.936	20.412	1.2638e-05	46.382	149.056	309.454	75.570	-4.520	106.260	142.217	-4.364	0.412	210.941	162.353	0.293	5.366	6.475	10.266	120.100	9.594	-8191	255	
647.965	1	1	0	0	0.044983	0.18798	0.14782	0.13358	0.045393	0.25749	0.29548	0.06553	0.019741	0.061667	0.11683	0.19394	0.017346	0.21968	0.11216	0.3632	-2.8333	-3.3354	-3.45	-3.1104	-3.5271	-3.15	-3.5333	-3.475	-3.0479	-3.3937	-3.4354	-3.2896	-3.5229	-3.0979	-3.4313	-3.3958	14.509	187.563	301.744	281.231	7.980	118.303	268.832	330.951	234.435	111.058	191.838	292.463	135.067	250.517	138.473	306.654	0.00023138	0.00077631	0.0001727	907.22	5.8027e-06	4.7319e-06	1078.7	238.95	3.7242e-06	4.2876e-06	364.18	118.15	64.709	20.188	2.683e-06	47.069	0.0010149	0.0011998	0.00032143	875.95	1.2577e-05	1.2772e-05	1046.6	234.96	1.2289e-05	1.2674e-05	355.66	117.38	69.698	20.351	1.277e-05	46.632	142.222	63.612	88.109	-4.447	77.312	103.695	-4.563	0.538	198.682	151.378	0.091	5.130	5.926	10.370	107.013	9.929	-8191	255	
648.061	1	1	0	0	0.28122	0.16205	0.17223	0.11015	0.10846	0.31742	0.14203	0.16139	0.17799	0.1814	0.13657	0.12156	0.12353	0.32936	0.26022	0.14844	-2.7792	-3.3479	-3.2938	-3.1708	-3.5812	-3.1708	-3.2042	-3.5042	-3.1625	-3.3875	-3.4062	-3.3	-3.4437	-3.3229	-3.2229	-3.5521	185.827	45.031	113.430	41.103	200.805	89.711	189.483	25.508	334.524	246.766	283.679	252.680	297.594	305.849	192.758	234.088	0.00017814	0.00032307	0.00027416	900.1	3.0399e-06	5.9084e-06	1078.8	240.37	2.2467e-06	5.9358e-07	367.24	119.34	64.794	20.337	4.1683e-06	47.551	0.0010424	0.0012436	0.0003371	872.6	1.3461e-05	1.3376e-05	1048.3	236.62	1.3073e-05	1.3183e-05	358.11	118.54	70.324	20.496	1.2675e-05	47.071	147.866	50.425	77.367	-4.854	146.200	88.343	-4.516	0.512	126.331	88.250	0.127	5.174	5.756	10.556	45.482	9.602	-8191	255	
#DATA ENDS
