BOXY.EXE: ISS Imagent and Oximeter Data Acquisition Program Version 0.80
Ascii Record File

#ACQ INFORMATION
2  Detector Channels 
16  External MUX Channels 
1  Auxiliary Channels 
5000  Waveform (CCF) Frequency (Hz)
1  Waveforms Skipped 
30  Waveforms Averaged 
1  Cycles Averaged 
16  Acquisitions per Waveform 
10.0806  Updata Rate (Hz) 

#FILE INFORMATION
TRUE -- External MUX Channel results are PARSED.
FALSE -- AC DC and Phase are NOT grouped.
TRUE -- Companion Program Settings File CREATED.
FALSE -- AC data not excluded
FALSE -- DC data not excluded
FALSE -- Phase data not excluded
FALSE -- Auxillary Chn. data not excluded
Tab delimiters

#CALIBRATION STATE
TRUE -- Waveform Calibration Values APPLIED.


#AUX CALIBRATION VALUES
Val Type	aux-1	

Term	1.0000e+00	
Factor	0.0000e+00	


#WF CALIBRATION VALUES
A = Detector Channel
Val Type	A-AC1	A-AC2	A-AC3	A-AC4	A-AC5	A-AC6	A-AC7	A-AC8	A-AC9	A-AC10	A-AC11	A-AC12	A-AC13	A-AC14	A-AC15	A-AC16	A-DC1	A-DC2	A-DC3	A-DC4	A-DC5	A-DC6	A-DC7	A-DC8	A-DC9	A-DC10	A-DC11	A-DC12	A-DC13	A-DC14	A-DC15	A-DC16	A-Ph1	A-Ph2	A-Ph3	A-Ph4	A-Ph5	A-Ph6	A-Ph7	A-Ph8	A-Ph9	A-Ph10	A-Ph11	A-Ph12	A-Ph13	A-Ph14	A-Ph15	A-Ph16	

Term	0.00000e+00	0.00000e+00	0.00000e+00	0.00000e+00	0.00000e+00	0.00000e+00	0.00000e+00	0.00000e+00	0.00000e+00	0.00000e+00	0.00000e+00	0.00000e+00	0.00000e+00	0.00000e+00	0.00000e+00	0.00000e+00	0.00000e+00	0.00000e+00	0.00000e+00	0.00000e+00	0.00000e+00	0.00000e+00	0.00000e+00	0.00000e+00	0.00000e+00	0.00000e+00	0.00000e+00	0.00000e+00	0.00000e+00	0.00000e+00	0.00000e+00	0.00000e+00	0.00000e+00	0.00000e+00	0.00000e+00	0.00000e+00	0.00000e+00	0.00000e+00	0.00000e+00	0.00000e+00	0.00000e+00	0.00000e+00	0.00000e+00	0.00000e+00	0.00000e+00	0.00000e+00	0.00000e+00	0.00000e+00	
Factor	1.00000e+00	1.00000e+00	1.00000e+00	1.00000e+00	1.00000e+00	1.00000e+00	1.00000e+00	1.00000e+00	1.00000e+00	1.00000e+00	1.00000e+00	1.00000e+00	1.00000e+00	1.00000e+00	1.00000e+00	1.00000e+00	1.00000e+00	1.00000e+00	1.00000e+00	1.00000e+00	1.00000e+00	1.00000e+00	1.00000e+00	1.00000e+00	1.00000e+00	1.00000e+00	1.00000e+00	1.00000e+00	1.00000e+00	1.00000e+00	1.00000e+00	1.00000e+00	X	X	X	X	X	X	X	X	X	X	X	X	X	X	X	X	

B = Detector Channel
Val Type	B-AC1	B-AC2	B-AC3	B-AC4	B-AC5	B-AC6	B-AC7	B-AC8	B-AC9	B-AC10	B-AC11	B-AC12	B-AC13	B-AC14	B-AC15	B-AC16	B-DC1	B-DC2	B-DC3	B-DC4	B-DC5	B-DC6	B-DC7	B-DC8	B-DC9	B-DC10	B-DC11	B-DC12	B-DC13	B-DC14	B-DC15	B-DC16	B-Ph1	B-Ph2	B-Ph3	B-Ph4	B-Ph5	B-Ph6	B-Ph7	B-Ph8	B-Ph9	B-Ph10	B-Ph11	B-Ph12	B-Ph13	B-Ph14	B-Ph15	B-Ph16	

Term	0.00000e+00	0.00000e+00	0.00000e+00	0.00000e+00	0.00000e+00	0.00000e+00	0.00000e+00	0.00000e+00	0.00000e+00	0.00000e+00	0.00000e+00	0.00000e+00	0.00000e+00	0.00000e+00	0.00000e+00	0.00000e+00	0.00000e+00	0.00000e+00	0.00000e+00	0.00000e+00	0.00000e+00	0.00000e+00	0.00000e+00	0.00000e+00	0.00000e+00	0.00000e+00	0.00000e+00	0.00000e+00	0.00000e+00	0.00000e+00	0.00000e+00	0.00000e+00	-1.18791e+02	-1.25215e+02	-1.17839e+02	-1.82053e+02	-6.42788e+01	-6.59928e+01	-1.56652e+02	-1.62015e+02	-6.99740e+01	-7.11695e+01	-1.71895e+02	-1.71978e+02	-1.87684e+02	-1.76726e+02	-7.17241e+01	-1.49677e+02	
Factor	1.79471e-05	1.88059e-04	5.59287e-05	1.76571e-01	1.47773e-06	1.73745e-06	1.86571e-01	6.64046e-02	1.16227e-06	1.86482e-06	9.07154e-02	3.26452e-02	8.76552e-02	1.00672e-02	1.43800e-06	1.46748e-02	5.01725e-06	6.20844e-06	1.73368e-06	8.55426e-02	6.61984e-08	6.81833e-08	8.52622e-02	3.23439e-02	6.62346e-08	6.80223e-08	4.26692e-02	1.55219e-02	4.23821e-02	4.92464e-03	6.68454e-08	6.95878e-03	X	X	X	X	X	X	X	X	X	X	X	X	X	X	X	X	



#DISTANCE SETTINGS
A = Detector Channel
A-1	A-2	A-3	A-4	A-5	A-6	A-7	A-8	A-9	A-10	A-11	A-12	A-13	A-14	A-15	A-16	

2.5000e+00	3.0000e+00	2.5000e+00	3.0000e+00	2.0000e+00	3.0000e+00	1.5000e+00	3.0000e+00	3.0000e+00	3.0000e+00	3.0000e+00	3.0000e+00	3.0000e+00	3.0000e+00	1.5000e+00	3.0000e+00	

B = Detector Channel
B-1	B-2	B-3	B-4	B-5	B-6	B-7	B-8	B-9	B-10	B-11	B-12	B-13	B-14	B-15	B-16	

1.0000e+01	1.0000e+01	1.0000e+01	1.4400e+00	1.0000e+01	1.0000e+01	1.5100e+00	1.9400e+00	1.0000e+01	1.0000e+01	1.9900e+00	2.4900e+00	2.4100e+00	2.9000e+00	1.0000e+01	2.9800e+00	




#DATA BEGINS
time	group	step	mark	flag	A-AC1	A-AC2	A-AC3	A-AC4	A-AC5	A-AC6	A-AC7	A-AC8	A-AC9	A-AC10	A-AC11	A-AC12	A-AC13	A-AC14	A-AC15	A-AC16	A-DC1	A-DC2	A-DC3	A-DC4	A-DC5	A-DC6	A-DC7	A-DC8	A-DC9	A-DC10	A-DC11	A-DC12	A-DC13	A-DC14	A-DC15	A-DC16	A-Ph1	A-Ph2	A-Ph3	A-Ph4	A-Ph5	A-Ph6	A-Ph7	A-Ph8	A-Ph9	A-Ph10	A-Ph11	A-Ph12	A-Ph13	A-Ph14	A-Ph15	A-Ph16	B-AC1	B-AC2	B-AC3	B-AC4	B-AC5	B-AC6	B-AC7	B-AC8	B-AC9	B-AC10	B-AC11	B-AC12	B-AC13	B-AC14	B-AC15	B-AC16	B-DC1	B-DC2	B-DC3	B-DC4	B-DC5	B-DC6	B-DC7	B-DC8	B-DC9	B-DC10	B-DC11	B-DC12	B-DC13	B-DC14	B-DC15	B-DC16	B-Ph1	B-Ph2	B-Ph3	B-Ph4	B-Ph5	B-Ph6	B-Ph7	B-Ph8	B-Ph9	B-Ph10	B-Ph11	B-Ph12	B-Ph13	B-Ph14	B-Ph15	B-Ph16	aux-1	digaux	

432.452	1	1	0	256	0.21232	0.073546	0.065565	0.1349	0.099143	0.14614	0.16254	0.037889	0.059984	0.27378	0.030413	0.06422	0.14067	0.10497	0.14708	0.10211	-2.875	-3.3167	-3.5042	-3.2062	-3.6688	-3.4521	-3.2896	-3.7375	-3.0896	-3.5083	-3.6292	-3.0354	-3.6083	-3.4917	-3.2583	-3.6229	-38.024	265.541	-19.327	263.392	121.328	198.291	121.000	99.472	-2.196	190.238	65.502	137.633	263.040	251.232	227.609	267.584	7.3533e-05	0.00034053	0.00011118	1167.2	1.5202e-06	2.1352e-06	1232.3	241.14	1.2177e-06	4.2148e-06	303.89	87.152	68.6	20.734	2.1117e-06	29.279	8.9861e-05	6.5564e-05	1.8247e-05	1130.6	8.2789e-07	6.8325e-07	1200.1	237.13	8.5677e-07	7.3351e-07	297.01	86.828	67.817	20.513	7.6635e-07	29.045	174.694	6.411	47.820	-60.369	114.770	80.820	-60.472	-53.109	39.205	77.374	-53.639	-47.415	-46.124	-39.792	59.404	-39.951	-8191	255	
432.571	1	1	0	0	0.14974	0.058469	0.029882	0.071828	0.15037	0.20379	0.050912	0.18997	0.2333	0.022404	0.17392	0.12059	0.17617	0.11131	0.23499	0.13259	-3.0104	-3.4896	-3.4604	-3.2479	-3.6292	-3.4146	-3.5187	-3.6667	-3.2	-3.4667	-3.6229	-3.2625	-3.5	-3.5333	-3.1792	-3.4292	-6.255	40.442	121.408	271.801	91.369	224.343	184.831	166.965	261.312	275.022	242.130	74.059	154.056	248.374	12.335	155.299	7.6748e-05	0.00025769	8.5651e-05	1176	2.2887e-06	2.6755e-06	1238.4	243.42	1.4423e-06	3.0734e-06	304.76	87.539	68.73	20.694	3.2337e-06	29.335	9.5307e-05	6.5667e-05	1.8081e-05	1137.1	9.1299e-07	7.1095e-07	1206.9	238.84	8.7443e-07	7.3492e-07	298.42	87.102	67.967	20.572	8.1426e-07	29.168	165.110	29.949	21.207	-60.617	85.914	84.449	-60.428	-53.419	92.849	66.922	-53.701	-47.022	-46.518	-39.807	70.494	-40.268	-8191	255	
432.667	1	1	0	0	0.15747	0.087369	0.045003	0.13596	0.10405	0.20179	0.16121	0.15013	0.16185	0.095453	0.28565	0.047049	0.070871	0.14864	0.3744	0.070607	-2.9021	-3.3833	-3.6375	-3.3	-3.4792	-3.5583	-3.4958	-3.6188	-3.4167	-3.3229	-3.7375	-3.3917	-3.4708	-3.4792	-3.0375	-3.6417	58.364	185.550	96.962	54.510	220.407	214.624	82.601	152.484	9.630	69.682	224.375	236.273	147.022	144.928	-12.640	270.592	6.7939e-05	0.00033022	0.00010774	1176.4	1.7483e-06	3.1695e-06	1242.9	243.87	1.7497e-06	3.05e-06	307.29	88.037	68.842	20.703	1.5779e-06	29.381	9.4721e-05	6.9522e-05	1.846e-05	1141.1	8.9933e-07	7.3808e-07	1210.6	239.71	8.9706e-07	6.9156e-07	299.55	87.527	68.191	20.612	7.6733e-07	29.175	167.434	3.828	27.022	-60.674	101.561	71.907	-60.413	-53.474	62.507	110.593	-53.796	-47.140	-46.461	-40.217	86.370	-40.047	-8191	255	
432.739	1	1	0	0	0.11303	0.10929	0.28892	0.13072	0.072773	0.065104	0.24245	0.19895	0.11503	0.072628	0.29531	0.052784	0.066474	0.324	0.072498	0.22618	-3.0542	-3.2208	-3.4208	-3.4542	-3.3104	-3.4479	-3.3167	-3.5104	-3.4521	-3.0771	-3.5583	-3.3875	-3.1562	-3.5167	-3.1167	-3.4542	53.167	3.351	39.651	244.261	96.517	161.878	176.824	218.148	225.998	205.753	24.210	279.112	113.546	143.783	152.529	215.266	8.251e-05	0.00025842	8.2901e-05	1182.3	1.8744e-06	3.7636e-06	1240.8	244.64	1.0486e-06	2.7611e-06	307.76	87.535	68.777	20.807	1.7799e-06	29.418	9.2035e-05	7.1513e-05	1.9648e-05	1144.7	8.9492e-07	7.5683e-07	1210.9	240.32	8.2531e-07	7.3733e-07	300.4	87.562	67.979	20.621	7.9351e-07	29.247	164.955	14.433	15.231	-60.458	104.880	102.356	-60.406	-53.486	63.956	85.203	-53.867	-47.209	-46.397	-40.138	91.596	-40.312	-8191	255	
432.837	1	1	0	0	0.39649	0.067292	0.12022	0.20887	0.28831	0.19332	0.15157	0.1569	0.10211	0.16625	0.21252	0.057515	0.1666	0.075935	0.057881	0.25045	-2.9396	-3.2188	-3.5292	-3.4125	-3.3104	-3.6646	-3.4437	-3.5229	-3.5458	-3.1458	-3.6104	-3.4458	-3.4104	-3.4313	-3.2854	-3.4562	139.830	32.675	148.130	212.563	148.719	69.104	212.273	261.459	214.873	253.016	224.782	109.837	209.738	9.779	-54.990	268.518	8.392e-05	0.00032636	9.6486e-05	1180	1.4407e-06	3.1627e-06	1244.1	245.83	5.6012e-07	3.2653e-06	307.38	87.845	68.463	20.883	1.9506e-06	29.257	9.0551e-05	7.1733e-05	1.9638e-05	1144.4	8.7478e-07	7.8581e-07	1211.8	240.74	8.6823e-07	7.7843e-07	300.6	87.591	68.12	20.658	8.5548e-07	29.198	167.873	0.754	31.699	-60.612	112.190	93.257	-60.234	-53.468	40.610	78.791	-53.668	-47.085	-46.717	-39.912	54.868	-40.417	-8191	255	
432.956	1	1	0	0	0.13655	0.21962	0.081131	0.11061	0.22851	0.22004	0.1558	0.11371	0.14423	0.23564	0.18521	0.11658	0.16066	0.01198	0.092033	0.11754	-3.0979	-3.0958	-3.5042	-3.5687	-3.1708	-3.5958	-3.3063	-3.5792	-3.5187	-3.4271	-3.3833	-3.4375	-3.3292	-3.4813	-3.1646	-3.4813	276.614	27.919	167.030	70.316	-34.123	67.836	210.153	60.903	207.722	188.826	1.624	226.391	52.879	172.862	76.893	129.066	6.8266e-05	0.00035058	8.983e-05	1183.8	2.298e-06	1.8035e-06	1245.7	244.08	1.2239e-06	3.5e-06	307.06	87.657	68.489	20.766	1.4241e-06	29.398	9.2255e-05	7.3661e-05	2.0299e-05	1146.2	8.6596e-07	7.8496e-07	1215.3	240.57	7.8529e-07	7.8835e-07	300.14	87.551	68.16	20.599	8.4559e-07	29.138	171.554	34.541	20.851	-60.469	83.862	88.769	-60.293	-53.507	15.680	92.835	-53.920	-47.158	-46.436	-39.875	102.278	-40.586	-8191	255	
433.052	1	1	0	0	0.11678	0.095163	0.14022	0.24914	0.12194	0.10825	0.23014	0.10196	0.096572	0.21578	0.1492	0.17105	0.091781	0.10698	0.10921	0.059162	-3.2458	-3.2625	-3.5542	-3.6208	-3.375	-3.5792	-3.5208	-3.425	-3.4562	-3.3354	-3.7	-3.6021	-3.2354	-3.5417	-3.3271	-3.4146	169.767	185.495	237.803	-41.351	273.558	-69.004	218.331	176.543	90.120	1.080	241.248	281.896	20.591	126.748	79.109	188.357	8.0893e-05	0.00020235	5.0578e-05	1175.7	1.5968e-06	2.2321e-06	1243.7	243.95	1.6632e-07	2.7572e-06	305.3	87.7	68.523	20.78	2.9628e-06	29.301	8.961e-05	7.5782e-05	1.8731e-05	1142.3	9.2843e-07	7.6905e-07	1213.3	240.02	8.2076e-07	7.977e-07	299.68	87.343	68.066	20.567	8.0646e-07	29.135	168.094	55.642	35.339	-60.630	156.532	59.130	-60.590	-53.555	153.220	88.769	-53.682	-47.088	-46.341	-39.681	86.478	-40.361	-8191	255	
433.148	1	1	0	0	0.066544	0.12037	0.25733	0.38089	0.19199	0.043784	0.26882	0.048921	0.10591	0.052901	0.10394	0.1295	0.14822	0.031355	0.07425	0.0073514	-3.3583	-3.1188	-3.6042	-3.5146	-3.2271	-3.8021	-3.4208	-3.3125	-3.6729	-3.3042	-3.5333	-3.5729	-3.3812	-3.6979	-3.5333	-3.1437	-2.419	156.226	104.058	214.627	68.700	62.110	286.358	-38.306	88.836	44.847	244.206	-34.080	101.916	35.580	-26.262	-24.166	8.9078e-05	0.00026923	9.2304e-05	1178.1	1.9357e-06	2.5904e-06	1242.7	244.96	1.3473e-06	2.7398e-06	305.95	87.656	68.78	20.622	1.8618e-06	29.071	9.6864e-05	7.2341e-05	1.9887e-05	1142.8	9.4526e-07	7.9576e-07	1210.2	240.03	8.9817e-07	7.5207e-07	299.08	87.176	68.073	20.458	7.9825e-07	28.988	170.970	22.837	31.221	-60.249	99.968	93.089	-60.252	-53.349	68.672	51.850	-53.625	-46.865	-46.495	-40.065	94.679	-40.226	-8191	255	
433.269	1	1	0	0	0.084676	0.097133	0.10628	0.12622	0.014337	0.033515	0.15306	0.14303	0.050993	0.372	0.075198	0.32384	0.042793	0.36152	0.23199	0.10513	-3.1667	-3.2438	-3.2833	-3.7021	-3.2938	-3.6042	-3.375	-3.4354	-3.5479	-3.275	-3.3812	-3.4354	-3.025	-3.4	-3.3458	-3.3292	121.207	228.208	234.972	213.111	32.636	113.951	270.521	212.960	212.867	-17.341	147.166	206.953	214.273	1.589	217.216	-61.363	7.2268e-05	0.00034651	0.00013702	1177.2	3.041e-06	3.3478e-06	1241.9	242.7	2.8953e-07	2.1061e-06	305.11	86.912	67.761	20.623	2.1913e-06	29.117	9.492e-05	7.5096e-05	2.0591e-05	1140.9	9.9077e-07	7.9405e-07	1211.6	239.34	8.5843e-07	7.8637e-07	298.91	86.891	67.913	20.477	7.4686e-07	28.99	172.216	-7.523	22.281	-60.339	93.203	75.412	-60.433	-53.488	68.984	81.150	-53.754	-47.259	-46.615	-39.584	71.819	-40.610	-8191	255	
433.340	1	1	0	0	0.18513	0.30337	0.030114	0.25171	0.18684	0.25035	0.087254	0.14775	0.16719	0.17267	0.13831	0.060205	0.22522	0.136	0.037503	0.095992	-2.9646	-3.2979	-3.25	-3.6604	-3.2167	-3.3708	-3.4562	-3.4146	-3.4979	-3.4042	-3.4583	-3.5708	-3.0604	-3.5729	-3.3208	-3.1688	156.535	-10.292	191.204	238.669	-20.190	-49.015	-38.049	199.265	-35.639	-69.766	279.598	-23.552	186.650	160.333	166.634	71.524	7.0085e-05	0.00031486	7.096e-05	1176.4	8.8177e-07	2.7028e-06	1243.9	242.96	7.8346e-07	2.4046e-06	304.22	87.715	67.951	20.653	1.8293e-06	29.322	9.283e-05	6.9095e-05	1.9378e-05	1139.7	9.0788e-07	7.5002e-07	1208.7	238.98	8.3083e-07	7.7177e-07	297.92	87.049	67.797	20.463	7.9602e-07	29.029	164.663	18.935	24.396	-60.548	-24.105	83.502	-60.433	-53.224	76.214	70.399	-53.668	-46.920	-46.070	-39.996	78.890	-40.298	-8191	255	
433.437	1	1	0	0	0.10506	0.23393	0.075966	0.10906	0.11556	0.19992	0.31631	0.056288	0.17492	0.10154	0.070378	0.12561	0.11888	0.1338	0.11914	0.11848	-3.0354	-3.2125	-3.3854	-3.5771	-3.2667	-3.3271	-3.6	-3.3604	-3.55	-3.35	-3.2958	-3.625	-3.3771	-3.4083	-3.5	-3.2792	201.608	18.270	89.111	252.098	-7.091	20.940	149.091	252.308	258.070	-11.792	234.784	268.545	127.377	32.404	100.601	208.046	7.3237e-05	0.00021446	0.00011229	1173.5	1.9221e-06	2.8289e-06	1239.7	243.99	6.4614e-07	2.8987e-06	304.29	87.136	68.057	20.686	2.2045e-06	29.318	9.3561e-05	7.1824e-05	1.9558e-05	1140.5	9.3767e-07	7.6237e-07	1209.9	239.27	8.616e-07	7.6412e-07	298.18	86.909	67.773	20.498	8.3863e-07	29.012	161.640	36.730	14.827	-60.458	103.045	88.601	-60.473	-53.467	80.172	53.703	-53.529	-46.846	-46.269	-39.819	54.028	-40.399	-8191	255	
433.557	1	1	0	0	0.083639	0.055392	0.079557	0.28814	0.26078	0.17308	0.21381	0.17968	0.14674	0.056728	0.19611	0.21612	0.12264	0.075454	0.25613	0.25034	-3.0979	-3.3563	-3.3083	-3.5062	-3.2083	-3.4188	-3.6188	-3.3792	-3.35	-3.5167	-3.3	-3.7479	-3.3125	-3.3688	-3.4917	-3.325	6.910	211.969	175.430	194.850	129.582	164.956	157.348	-55.034	186.341	285.185	227.131	230.396	105.582	107.188	192.460	130.857	7.7549e-05	0.00039634	8.8608e-05	1174	1.9088e-06	3.7675e-06	1237.7	242.66	1.0922e-06	2.7122e-06	304.63	87.564	68.212	20.685	9.0325e-07	29.317	9.4408e-05	7.2458e-05	2.0111e-05	1141	9.7243e-07	7.7558e-07	1209.8	238.65	8.6008e-07	7.6808e-07	298.31	87.035	67.957	20.55	8.2248e-07	29.044	166.998	30.874	42.067	-60.453	74.735	83.950	-60.389	-53.341	87.927	86.379	-53.580	-47.259	-46.455	-39.595	69.340	-40.207	-8191	255	
433.652	1	1	0	0	0.15517	0.13992	0.12251	0.14962	0.069599	0.32751	0.27519	0.12137	0.1679	0.17365	0.14315	0.21429	0.19649	0.18899	0.056715	0.075488	-3.0542	-3.4771	-3.1312	-3.6979	-3.2646	-3.5021	-3.7271	-3.4208	-3.5708	-3.5208	-3.1708	-3.5833	-3.3583	-3.2292	-3.6437	-3.2479	199.616	257.647	56.629	239.084	215.549	198.245	234.485	245.915	185.384	160.253	30.524	182.915	213.352	24.050	-9.840	244.769	8.1383e-05	0.00038974	0.00010656	1178.7	6.4557e-07	1.5156e-06	1246	243.06	1.1302e-06	2.3753e-06	306.62	87.504	68.48	20.663	1.3425e-06	29.177	9.3457e-05	7.3505e-05	2.0884e-05	1143.5	9.2567e-07	8.0059e-07	1211.2	239.12	9.1404e-07	7.6312e-07	298.8	87.203	67.962	20.496	8.5646e-07	29.024	178.268	31.954	24.786	-60.581	89.498	91.393	-60.540	-53.497	93.460	59.270	-53.720	-47.258	-46.414	-39.751	70.044	-40.253	-8191	255	
433.748	1	1	0	0	0.22336	0.14422	0.25144	0.37522	0.02351	0.12539	0.33139	0.15673	0.1185	0.032327	0.11613	0.15218	0.08294	0.28683	0.10006	0.24753	-2.875	-3.4479	-3.2042	-3.5708	-3.4	-3.2604	-3.6146	-3.2896	-3.5146	-3.4792	-3.3854	-3.5708	-3.3792	-3.3146	-3.5833	-3.3187	183.512	54.865	43.205	265.806	286.150	227.499	208.397	114.001	21.475	157.463	16.276	67.653	20.144	160.068	195.538	218.777	6.919e-05	0.00031513	3.153e-05	1179.8	3.3646e-07	2.8291e-06	1248.5	244.15	1.4212e-06	3.517e-06	304.5	87.166	68.153	20.791	2.2519e-06	29.132	9.331e-05	7.2897e-05	2.1704e-05	1143.6	9.1119e-07	8.0059e-07	1213.7	239.81	9.1349e-07	8.2916e-07	298.5	87.181	68.112	20.589	8.4922e-07	29.09	163.954	21.239	44.532	-60.574	63.312	94.535	-60.336	-53.578	62.864	87.982	-53.681	-47.016	-46.621	-39.621	51.701	-40.418	-8191	255	
433.868	1	1	0	0	0.12942	0.23442	0.16185	0.27775	0.056688	0.15568	0.21675	0.17757	0.2438	0.25663	0.20797	0.13025	0.025219	0.3299	0.091025	0.046962	-2.8667	-3.2917	-3.1458	-3.625	-3.4229	-3.2083	-3.4854	-3.3063	-3.3583	-3.7062	-3.225	-3.6188	-3.3812	-3.2562	-3.3312	-3.4333	5.354	169.354	31.425	261.485	147.030	-56.174	168.068	16.588	71.374	255.928	264.054	266.068	186.692	250.088	154.113	179.967	7.6586e-05	0.00025032	7.1678e-05	1184.5	1.7743e-06	2.071e-06	1246.7	244.03	1.4432e-06	1.3918e-06	304.41	87.645	68.702	20.73	1.5085e-06	29.342	9.677e-05	7.401e-05	2.2094e-05	1147.1	9.4016e-07	8.3638e-07	1215.3	239.75	9.0093e-07	8.1641e-07	298.62	87.257	68.095	20.564	8.4016e-07	29.115	172.787	4.716	53.545	-60.471	133.076	105.720	-60.415	-53.272	80.203	65.268	-53.584	-47.355	-46.160	-39.993	125.243	-40.068	-8191	255	
433.940	1	1	0	0	0.39829	0.061398	0.22228	0.18317	0.13107	0.29498	0.12931	0.23044	0.033018	0.045139	0.19661	0.19811	0.084201	0.17489	0.076716	0.1959	-2.8771	-3.4938	-3.1354	-3.6229	-3.4708	-3.3208	-3.7729	-3.3792	-3.25	-3.5896	-3.2354	-3.5167	-3.3792	-3.3667	-3.4688	-3.3729	60.708	276.747	139.132	-65.092	130.164	184.481	268.492	266.985	-38.742	114.971	273.213	-21.976	-3.342	29.212	-35.088	176.258	7.9137e-05	0.00044429	0.00011238	1183.8	9.0248e-07	3.609e-06	1248.2	243.33	1.7022e-06	1.6091e-06	305.12	87.524	68.448	20.637	1.0474e-06	29.352	9.9425e-05	7.6441e-05	2.1924e-05	1146.7	9.2347e-07	8.5954e-07	1215.2	239.82	8.9927e-07	8.1556e-07	299.55	87.407	68.222	20.612	8.7484e-07	29.091	168.453	36.417	11.095	-60.511	133.661	77.431	-60.494	-53.166	28.386	57.454	-53.470	-46.898	-45.766	-39.956	68.282	-40.031	-8191	255	
434.036	1	1	0	0	0.20422	0.11451	0.098432	0.25852	0.3121	0.11141	0.10161	0.24691	0.15545	0.22296	0.12425	0.085184	0.20524	0.049828	0.23593	0.13134	-2.8021	-3.5396	-3.2646	-3.4042	-3.4125	-3.2958	-3.5854	-3.2687	-3.1688	-3.5625	-3.3167	-3.2958	-3.6042	-3.2833	-3.4042	-3.4292	4.614	157.553	224.021	207.600	103.191	238.902	206.247	183.114	-56.768	274.769	280.798	49.479	-43.079	-34.468	87.606	212.208	6.9457e-05	0.00026399	5.8069e-05	1185.1	2.3998e-06	3.2044e-06	1243.5	245.29	5.967e-07	2.2076e-06	306.01	87.622	68.537	20.663	2.7843e-06	29.204	9.8359e-05	8.0567e-05	2.149e-05	1148.4	9.585e-07	8.4505e-07	1216.1	240.31	9.1707e-07	8.2264e-07	299.41	87.473	68.167	20.591	8.5311e-07	29.167	157.966	31.800	45.595	-60.463	82.319	51.259	-60.305	-53.623	282.129	39.755	-53.854	-47.169	-46.633	-39.812	92.029	-40.133	-8191	255	
434.132	1	1	0	0	0.29691	0.13911	0.21978	0.17892	0.23954	0.21795	0.064269	0.24464	0.19066	0.11673	0.19455	0.21219	0.10045	0.21591	0.20327	0.27608	-2.6437	-3.4354	-3.1729	-3.5062	-3.4021	-3.4292	-3.6479	-3.4729	-3.2417	-3.5563	-3.4333	-3.3625	-3.4771	-3.0687	-3.4271	-3.525	11.184	266.723	156.887	287.813	70.129	50.472	140.978	176.040	269.068	-17.841	177.851	232.332	-39.405	252.538	267.865	180.658	8.0996e-05	0.00040694	8.6048e-05	1188.3	7.1703e-07	3.7317e-06	1251.1	245.86	1.6018e-06	4.0446e-06	307.49	87.943	67.711	20.818	2.1655e-06	29.484	0.00010252	8.0865e-05	2.1082e-05	1151.2	9.9036e-07	8.5513e-07	1219.8	240.94	9.7655e-07	8.7564e-07	300.27	87.425	68.07	20.636	8.5061e-07	29.217	171.678	23.054	13.644	-60.363	158.492	88.073	-60.282	-53.483	73.256	68.402	-53.748	-47.262	-46.609	-39.723	69.301	-40.245	-8191	255	
434.228	1	1	0	0	0.21462	0.092159	0.14309	0.15297	0.18038	0.12122	0.42588	0.11338	0.19788	0.189	0.31341	0.12812	0.094948	0.15418	0.082826	0.11845	-2.7792	-3.4292	-3.3563	-3.3292	-3.6729	-3.2021	-3.6208	-3.4708	-3.1958	-3.5271	-3.4125	-3.2208	-3.4729	-3.3187	-3.375	-3.4333	-10.564	5.487	91.929	233.652	161.518	286.671	253.476	137.922	-59.047	55.061	228.158	276.720	-43.349	220.817	-22.400	47.425	7.3421e-05	0.00033397	4.1541e-05	1186.3	1.5857e-06	2.9902e-06	1251.7	245.4	1.2571e-06	1.8363e-06	306.25	88.301	69.007	20.873	1.6969e-06	29.429	0.00010405	7.692e-05	2.1859e-05	1151.4	1.0305e-06	8.4803e-07	1220.2	240.95	1.0203e-06	8.8443e-07	300.69	87.848	68.761	20.688	8.8487e-07	29.265	163.931	34.681	48.034	-60.534	173.471	101.943	-60.468	-53.719	48.917	107.914	-53.861	-47.169	-46.657	-39.852	81.323	-40.405	-8191	255	
434.349	1	1	0	0	0.13746	0.25974	0.037924	0.3295	0.043192	0.10827	0.23109	0.26973	0.21111	0.070309	0.12068	0.032461	0.17249	0.12549	0.33946	0.18738	-2.85	-3.4458	-3.2333	-3.4292	-3.4667	-3.2625	-3.4188	-3.7	-3.1833	-3.3125	-3.7562	-3.3229	-3.5292	-3.3375	-3.2687	-3.4167	24.207	281.208	277.312	247.566	41.072	171.260	192.419	-35.672	37.683	148.140	204.831	169.126	-60.435	222.976	-25.634	64.026	9.0169e-05	0.00031195	0.00012076	1195.2	1.9449e-06	2.4447e-06	1257.2	245.01	8.0425e-07	1.982e-06	307.21	88.891	69.052	20.79	2.5321e-06	29.634	0.00010316	8.0761e-05	2.2393e-05	1155.6	9.978e-07	8.3695e-07	1223.7	241.75	9.7751e-07	8.4404e-07	300.97	88.044	68.836	20.722	8.9406e-07	29.372	176.622	29.246	23.043	-60.615	66.649	65.021	-60.372	-53.624	126.012	111.304	-53.597	-47.347	-46.704	-40.004	74.477	-40.404	-8191	255	
434.445	1	1	0	0	0.30559	0.37662	0.21183	0.17873	0.1572	0.26837	0.14672	0.26663	0.17967	0.079039	0.15161	0.22365	0.26686	0.14244	0.20729	0.14952	-2.7521	-3.5	-3.4708	-3.2896	-3.6896	-3.2208	-3.3542	-3.7438	-3.1979	-3.5312	-3.5167	-3.1729	-3.675	-3.3125	-3.2271	-3.4521	269.877	91.353	153.428	211.407	161.852	192.579	203.825	240.782	-67.947	10.372	248.336	10.108	14.362	-8.359	196.233	109.448	8.1444e-05	0.00032506	0.00011181	1194.1	1.4316e-06	2.8349e-06	1259	246.6	9.938e-07	2.9101e-06	307.69	88.112	69.485	20.977	1.7459e-06	29.536	0.0001032	7.6791e-05	2.2867e-05	1157.5	9.8774e-07	9.1394e-07	1225.7	241.89	9.8538e-07	8.755e-07	302.12	87.811	68.956	20.769	9.7107e-07	29.339	167.758	26.405	36.108	-60.508	79.688	69.452	-60.558	-53.440	36.975	86.644	-53.723	-47.017	-47.203	-40.134	88.803	-40.176	-8191	255	
434.541	1	1	0	0	0.1748	0.33337	0.02106	0.19996	0.096311	0.061665	0.21523	0.47049	0.18363	0.19967	0.18016	0.22674	0.13446	0.044071	0.32025	0.1667	-2.9646	-3.3979	-3.4083	-3.3854	-3.65	-3.2271	-3.4625	-3.7396	-3.3542	-3.4313	-3.7083	-3.0583	-3.5625	-3.3042	-3.175	-3.4562	26.149	4.382	283.837	-66.657	267.661	172.153	257.706	213.300	-33.315	210.016	272.415	209.055	83.169	139.454	274.763	226.470	7.9119e-05	0.00037301	3.5506e-05	1196.7	1.794e-06	3.3365e-06	1257.7	246.47	8.285e-07	2.7373e-06	308.63	88.383	69.258	20.996	1.0712e-06	29.606	9.9885e-05	7.9727e-05	2.1541e-05	1160.2	9.8939e-07	8.5456e-07	1226	242.1	9.5392e-07	8.5085e-07	302.07	88.109	68.701	20.763	8.9475e-07	29.353	169.766	8.749	36.048	-60.630	112.894	97.466	-60.416	-53.385	47.970	111.911	-53.639	-47.245	-46.996	-39.946	63.092	-40.317	-8191	255	
434.636	1	1	0	0	0.29483	0.18951	0.062975	0.17611	0.052592	0.030167	0.20336	0.092284	0.19912	0.22163	0.093315	0.094256	0.23903	0.13529	0.12635	0.18983	-2.9083	-3.4208	-3.4229	-3.425	-3.4333	-3.5396	-3.4396	-3.5229	-3.2875	-3.3667	-3.6292	-3.2833	-3.25	-3.4542	-2.9354	-3.625	218.517	77.122	218.371	223.693	82.354	283.433	215.437	-39.371	5.382	210.172	-35.640	176.506	-16.567	253.981	271.076	169.749	8.9227e-05	0.0003406	6.2867e-05	1197.1	1.3544e-06	2.9896e-06	1256.5	246.92	8.7696e-07	2.7712e-06	307.93	88.088	68.882	20.878	2.1494e-06	29.458	9.7659e-05	7.7618e-05	2.2137e-05	1158.5	9.8387e-07	8.7388e-07	1226	242.22	9.644e-07	8.9577e-07	301.4	87.822	68.538	20.776	9.4795e-07	29.282	172.905	42.899	56.964	-60.551	135.636	90.321	-60.433	-53.715	77.264	112.045	-53.788	-47.139	-46.449	-40.184	86.371	-40.422	-8191	255	
434.732	1	1	0	0	0.058448	0.035383	0.092625	0.2403	0.18238	0.08928	0.10987	0.082529	0.13962	0.18053	0.12376	0.19377	0.2252	0.085936	0.20214	0.23359	-2.8521	-3.2375	-3.5354	-3.4917	-3.6229	-3.4813	-3.3521	-3.5687	-3.275	-3.475	-3.6292	-3.2958	-3.3312	-3.5583	-3.1646	-3.6104	48.592	258.053	-66.947	220.358	81.021	-5.422	220.203	-42.219	153.911	199.028	107.285	236.153	74.407	-13.054	263.561	-43.757	7.4086e-05	0.00020939	5.4656e-05	1191.2	1.7513e-06	2.1187e-06	1255.3	245.55	8.6707e-07	2.1659e-06	307.9	87.768	68.673	20.846	1.56e-06	29.497	0.00010213	7.8938e-05	2.2198e-05	1156.8	9.836e-07	8.1138e-07	1224	241.97	9.0479e-07	8.49e-07	301.57	87.685	68.445	20.744	9.1383e-07	29.291	167.199	23.506	54.613	-60.481	113.817	112.802	-60.407	-53.489	53.464	61.589	-53.562	-47.371	-46.808	-39.831	82.723	-40.261	-8191	255	
434.830	1	1	0	0	0.070147	0.089377	0.2562	0.022366	0.22444	0.12764	0.22836	0.098122	0.21319	0.084593	0.24758	0.061915	0.15279	0.19464	0.085671	0.072879	-2.9688	-3.2438	-3.6083	-3.5625	-3.5187	-3.4938	-3.4	-3.7458	-3.4833	-3.3625	-3.6167	-3.3708	-3.2833	-3.5646	-3.3729	-3.5312	98.066	33.116	258.458	-13.959	96.858	279.142	146.977	-32.431	-31.824	201.894	168.749	-27.460	77.931	265.245	262.776	-66.787	8.6918e-05	0.00019445	0.00012351	1191.6	1.3366e-06	2.1752e-06	1247	244.38	1.2884e-06	1.651e-06	305.92	87.917	68.262	20.789	3.9901e-07	29.485	9.7439e-05	7.7023e-05	2.1776e-05	1152.9	9.4016e-07	8.1451e-07	1217.6	240.76	8.9582e-07	8.1003e-07	300.04	87.395	68.151	20.633	8.4225e-07	29.203	175.946	34.545	23.761	-60.481	40.354	62.767	-60.510	-53.117	66.695	58.620	-53.573	-47.613	-46.555	-39.958	91.289	-40.130	-8191	255	
434.949	1	1	0	0	0.063115	0.10864	0.095233	0.10715	0.15656	0.09006	0.18487	0.34391	0.066083	0.068577	0.035715	0.14668	0.080764	0.1428	0.10342	0.10944	-2.9833	-3.2875	-3.6021	-3.5812	-3.4792	-3.5312	-3.3479	-3.5333	-3.4375	-3.3937	-3.5375	-3.25	-3.2833	-3.6042	-3.2229	-3.6188	-68.130	-16.857	125.081	279.953	86.964	44.019	186.227	150.670	74.716	175.645	-49.001	261.023	238.431	-13.719	205.428	255.425	8.9764e-05	0.00026775	5.515e-05	1181.2	1.2494e-06	2.3423e-06	1242.4	244.04	4.8016e-07	3.4097e-06	304.85	87.141	68.525	20.806	2.8003e-06	29.312	9.0676e-05	7.6312e-05	2.1386e-05	1145	9.374e-07	7.8198e-07	1211.8	240.03	9.0051e-07	7.8863e-07	298.79	87.02	67.73	20.515	8.7568e-07	29.036	175.116	31.720	-1.395	-60.454	95.910	89.344	-60.359	-53.325	119.516	36.391	-53.600	-47.371	-46.762	-39.832	92.004	-39.965	-8191	255	
435.045	1	1	0	0	0.14965	0.276	0.21914	0.25933	0.1563	0.095734	0.24939	0.079323	0.17192	0.17565	0.11082	0.22859	0.12198	0.019981	0.25682	0.051625	-3.0729	-3.1437	-3.5167	-3.3	-3.325	-3.4021	-3.5146	-3.3854	-3.4167	-3.0938	-3.6333	-3.3438	-3.25	-3.4604	-3.1646	-3.4125	185.829	-45.303	-66.890	-66.096	76.693	-45.535	217.443	6.474	-61.746	-47.247	103.317	264.686	187.849	176.947	80.806	111.076	8.0307e-05	0.00018022	8.5069e-05	1179.6	1.1925e-06	1.9107e-06	1239.1	241.5	1.0564e-06	2.4188e-06	303.75	86.596	67.871	20.555	8.3892e-07	28.775	9.3917e-05	7.5795e-05	2.0306e-05	1139.3	9.2057e-07	7.5385e-07	1204.7	237.72	8.4711e-07	7.7616e-07	296.03	86.349	67.1	20.261	7.7248e-07	28.658	173.309	-2.960	32.178	-60.389	105.483	118.894	-60.523	-53.193	67.208	78.355	-53.575	-47.311	-46.517	-39.611	113.463	-40.074	-8191	255	
435.141	1	1	0	0	0.082274	0.17286	0.20998	0.12974	0.18186	0.15735	0.09469	0.27926	0.24464	0.16102	0.24498	0.11159	0.2566	0.068481	0.35717	0.23734	-3.2271	-3.0875	-3.3854	-3.3792	-3.2375	-3.4458	-3.2375	-3.3708	-3.6125	-3.1167	-3.5979	-3.3271	-3.0854	-3.4729	-3.2354	-3.3792	144.059	-58.511	108.905	265.807	179.635	101.993	159.770	256.780	1.867	250.557	231.824	153.206	103.446	4.363	212.222	204.959	8.06e-05	0.00029333	8.581e-05	1159.1	1.5597e-06	2.2192e-06	1223.8	239.97	9.7838e-07	2.6955e-06	299.83	85.718	66.652	20.169	2.4601e-06	28.498	8.9202e-05	6.6391e-05	1.8276e-05	1125	8.8099e-07	7.2104e-07	1190.6	235.34	8.042e-07	6.883e-07	292.86	85.212	66.234	19.955	6.9505e-07	28.252	164.209	33.253	23.517	-60.383	82.127	88.062	-60.253	-53.093	132.089	64.753	-53.587	-46.707	-46.512	-39.733	109.178	-39.957	-8191	255	
435.237	1	1	0	0	0.2421	0.058092	0.21867	0.13158	0.25346	0.1327	0.056521	0.17954	0.048529	0.23072	0.29725	0.14781	0.25943	0.064889	0.21011	0.14088	-3.1479	-3.1417	-3.3875	-3.5687	-3.1646	-3.5042	-3.4708	-3.3292	-3.5083	-3.3708	-3.5563	-3.5938	-3.2	-3.6417	-3.2771	-3.3979	276.522	-28.073	-3.711	231.631	174.014	19.480	65.119	277.540	64.253	178.872	234.043	113.474	-34.455	136.650	84.960	194.488	8.0068e-05	0.00035613	7.6262e-05	1141.1	1.1016e-06	1.9107e-06	1201.2	237.34	7.9162e-07	2.2293e-06	295.34	84.266	65.01	19.824	1.2323e-06	27.923	8.7007e-05	6.3947e-05	1.6611e-05	1108.4	8.09e-07	6.6919e-07	1173.2	232.05	7.1727e-07	6.4253e-07	288.81	83.856	65.189	19.606	6.6873e-07	27.796	167.494	51.565	24.639	-60.416	76.549	109.384	-60.095	-53.279	87.946	63.849	-53.467	-47.098	-46.738	-39.631	78.067	-40.193	-8191	255	
435.333	1	1	0	0	0.21062	0.19221	0.15616	0.22117	0.13241	0.051751	0.17018	0.062049	0.16251	0.056425	0.22032	0.070032	0.17552	0.054757	0.081952	0.063024	-3.0729	-3.1354	-3.4313	-3.5625	-3.1625	-3.4896	-3.45	-3.3604	-3.5687	-3.2542	-3.4229	-3.6229	-3.1521	-3.6104	-3.3625	-3.3917	122.984	187.684	256.719	280.916	118.523	270.262	199.357	225.122	201.617	184.988	194.732	239.762	286.795	152.464	157.428	90.186	7.2354e-05	0.00030867	6.3219e-05	1131.9	1.9536e-06	2.6706e-06	1194.7	234.6	1.2731e-06	2.567e-06	294.58	83.264	64.842	19.521	1.7413e-06	27.822	8.3046e-05	5.4324e-05	1.6716e-05	1097.7	8.341e-07	6.6805e-07	1166.2	229.98	7.7163e-07	6.4068e-07	287.97	83.206	64.738	19.494	6.6497e-07	27.656	156.551	21.823	20.827	-60.410	117.632	113.395	-60.108	-52.953	81.388	81.329	-53.410	-46.894	-46.131	-39.446	65.503	-40.107	-8191	255	
435.429	1	1	0	0	0.074862	0.054389	0.087266	0.18478	0.16946	0.096447	0.1395	0.25563	0.12496	0.2333	0.075407	0.06686	0.085896	0.13459	0.10859	0.35828	-3.2021	-3.0771	-3.3625	-3.6417	-3.1437	-3.5375	-3.6083	-3.3104	-3.5042	-3.2729	-3.2771	-3.5104	-3.2896	-3.3833	-3.4625	-3.2708	-34.652	-55.086	203.160	269.481	188.962	127.107	261.623	277.013	282.804	170.521	254.645	145.531	32.705	165.762	-17.394	234.644	8.6675e-05	0.00028229	6.3101e-05	1125.5	1.8756e-06	2.9091e-06	1192.8	232.87	1.0397e-06	2.4896e-06	293.98	82.724	64.958	19.551	1.8994e-06	27.737	8.4457e-05	6.2796e-05	1.7893e-05	1093.5	8.3948e-07	7.0797e-07	1162.8	229.23	7.8571e-07	7.0162e-07	287.51	82.744	64.663	19.426	8.1816e-07	27.576	153.188	1.063	22.218	-60.325	141.380	102.050	-60.308	-53.082	7.163	72.237	-53.757	-47.077	-45.825	-39.268	67.293	-40.177	-8191	255	
435.526	1	1	0	0	0.29588	0.24665	0.15448	0.11516	0.22603	0.22594	0.29997	0.046529	0.17649	0.29758	0.11238	0.126	0.22426	0.13798	0.086607	0.35228	-3.1375	-3.3896	-3.3312	-3.825	-3.4062	-3.3875	-3.6521	-3.1833	-3.7583	-3.2625	-3.5167	-3.6833	-3.2604	-3.3625	-3.4313	-3.3854	237.694	91.954	248.163	248.184	45.607	-57.838	259.461	-39.839	78.435	161.212	-0.300	172.988	138.785	10.670	80.076	236.817	7.5332e-05	0.00036158	0.00013872	1134.4	1.7218e-06	2.4345e-06	1198.3	234.78	9.9846e-07	4.3051e-06	294.75	83.625	65.052	19.607	1.6739e-06	27.789	8.8816e-05	6.9935e-05	2.1501e-05	1101.2	8.8058e-07	7.7999e-07	1169.4	230.56	8.8699e-07	8.534e-07	289.04	83.455	64.945	19.457	9.1523e-07	27.618	177.053	29.035	27.057	-60.228	97.221	129.984	-60.337	-53.307	93.633	100.431	-53.744	-46.907	-46.050	-39.668	79.424	-40.431	-8191	255	
435.644	1	1	0	0	0.20508	0.16795	0.047315	0.041978	0.17503	0.16254	0.011429	0.26621	0.16115	0.081956	0.047365	0.26316	0.22295	0.057722	0.12442	0.34693	-3.2771	-3.4604	-3.3	-3.7146	-3.125	-3.4396	-3.5958	-3.3354	-3.55	-3.4542	-3.3542	-3.55	-3.25	-3.3917	-3.5375	-3.1708	126.993	195.493	74.233	228.995	205.031	2.603	230.583	206.533	4.138	63.211	136.746	251.520	203.651	192.798	145.975	-47.324	6.6193e-05	0.00020406	0.00010095	1143.1	6.0242e-07	3.1771e-06	1204.3	235.5	7.0986e-07	4.2704e-06	296.11	83.574	65.227	19.692	1.6847e-06	27.869	9.2411e-05	7.4941e-05	2.0793e-05	1108.5	9.0002e-07	8.2857e-07	1173	231.01	9.1183e-07	7.9544e-07	289.85	83.502	64.86	19.486	8.3167e-07	27.679	161.556	42.795	21.797	-60.294	151.340	68.936	-60.380	-53.237	-45.711	82.189	-53.428	-46.812	-46.135	-39.414	59.548	-40.244	-8191	255	
435.741	1	1	0	0	0.11066	0.23343	0.017328	0.33394	0.12014	0.29838	0.11262	0.19694	0.060305	0.19952	0.11988	0.044431	0.057727	0.17584	0.065422	0.17362	-3.0521	-3.4854	-3.3563	-3.725	-3.2146	-3.3604	-3.8125	-3.2479	-3.4313	-3.4833	-3.2854	-3.6688	-3.3646	-3.3625	-3.7438	-3.225	105.273	-43.083	126.546	286.264	-33.194	23.908	143.590	37.062	146.999	-25.809	68.416	-51.226	115.767	139.260	196.352	131.163	7.8093e-05	0.00037469	7.6627e-05	1143.8	1.5959e-06	1.2154e-06	1202.7	236.45	4.9782e-07	1.8519e-06	297.25	84.185	65.469	19.56	2.0573e-06	27.877	9.3321e-05	7.3454e-05	2.1707e-05	1108.9	9.1919e-07	8.2147e-07	1174.8	231.71	8.3649e-07	8.0677e-07	290.37	83.639	64.989	19.442	7.9184e-07	27.685	159.984	0.989	61.339	-60.292	58.584	121.465	-60.083	-53.283	51.148	53.520	-53.511	-47.098	-46.013	-39.422	143.939	-39.686	-8191	255	
435.837	1	1	0	0	0.13044	0.21136	0.13473	0.19972	0.1512	0.090333	0.064498	0.043029	0.13593	0.10658	0.079286	0.10419	0.062796	0.14833	0.14969	0.19615	-3.0229	-3.4521	-3.1479	-3.7479	-3.4688	-3.3042	-3.6937	-3.2333	-3.3125	-3.5375	-3.2292	-3.5771	-3.2521	-3.2979	-3.5833	-3.4708	140.976	275.227	241.492	181.455	131.906	203.554	192.025	6.227	98.368	116.149	-70.747	228.205	146.181	217.585	181.734	118.553	8.6745e-05	0.00026961	8.214e-05	1144.6	1.3795e-06	2.6237e-06	1206	236.01	1.0189e-06	1.4995e-06	296.56	84.089	65.38	19.562	2.0155e-06	27.866	9.5119e-05	7.6416e-05	2.0053e-05	1108.2	9.2112e-07	7.851e-07	1174.9	231.55	8.3124e-07	7.9246e-07	290.42	83.782	65.169	19.463	7.6009e-07	27.658	173.395	27.346	39.417	-60.464	119.060	71.897	-60.284	-53.042	74.696	73.462	-53.569	-46.696	-46.399	-40.206	106.416	-40.271	-8191	255	
435.910	1	1	0	0	0.072668	0.083588	0.19559	0.037878	0.19916	0.18678	0.36073	0.060588	0.2366	0.088975	0.10743	0.085437	0.20159	0.33196	0.042769	0.30491	-3.1	-3.4021	-3.225	-3.5	-3.4854	-3.4771	-3.6542	-3.5917	-3.5062	-3.5062	-3.3417	-3.4604	-3.3521	-3.2604	-3.4771	-3.5167	198.788	148.831	40.953	249.405	154.619	151.699	254.177	201.504	14.269	-22.782	-48.575	147.590	187.822	281.838	135.216	270.817	7.7111e-05	0.00039964	9.7258e-05	1145.2	1.8434e-06	2.8018e-06	1204.4	235.91	6.441e-07	3.5308e-06	297.29	83.877	65.327	19.728	2.1015e-06	28.053	9.6916e-05	7.4281e-05	1.9276e-05	1108.7	9.1795e-07	7.9334e-07	1176.2	231.37	8.6685e-07	7.199e-07	290.48	83.701	65.25	19.547	7.1413e-07	27.708	161.438	32.338	56.754	-60.418	99.958	63.863	-60.293	-53.491	108.002	82.173	-53.614	-47.034	-46.014	-39.637	81.835	-39.866	-8191	255	
436.029	1	1	0	0	0.084739	0.15286	0.10891	0.27151	0.12794	0.15094	0.052056	0.0982	0.10518	0.01582	0.060574	0.36315	0.13186	0.084012	0.14975	0.027525	-2.9	-3.5625	-3.0917	-3.4979	-3.375	-3.3146	-3.6625	-3.4375	-3.4875	-3.7083	-3.3854	-3.5229	-3.4104	-3.3167	-3.3958	-3.2375	103.472	219.432	48.275	276.897	68.242	52.531	227.890	277.510	-29.007	180.257	27.288	-21.841	232.867	154.297	-2.117	-7.457	7.6043e-05	0.00019725	6.5913e-05	1146	1.4327e-06	2.4492e-06	1207.1	236.84	5.0252e-07	3.5379e-06	296.16	84.045	65.358	19.876	1.7894e-06	27.861	8.8293e-05	6.6948e-05	1.8832e-05	1109.9	8.2058e-07	7.4405e-07	1177.4	232.24	8.042e-07	6.5471e-07	290.53	83.897	65.202	19.623	7.055e-07	27.674	170.861	46.598	39.581	-60.357	90.755	77.145	-60.219	-53.174	104.355	99.945	-53.522	-47.340	-45.983	-39.764	56.221	-40.055	-8191	255	
436.125	1	1	0	0	0.4165	0.15896	0.083593	0.11611	0.19682	0.10565	0.18003	0.10602	0.25386	0.18677	0.12042	0.03476	0.16467	0.089725	0.090154	0.21029	-2.8833	-3.4104	-3.3479	-3.3208	-3.3771	-3.2979	-3.6896	-3.2771	-3.15	-3.4042	-3.4604	-3.3563	-3.4	-3.1729	-3.4333	-3.4062	273.118	280.880	215.642	252.175	185.190	-56.536	205.835	-34.058	137.900	151.664	198.050	231.358	217.735	16.704	230.814	262.314	7.8371e-05	0.00025462	4.9776e-05	1143.8	4.4837e-07	1.8746e-06	1204.1	235.32	1.3664e-06	2.3269e-06	296.18	84.213	65.681	19.761	2.1441e-06	28.264	8.4133e-05	6.2291e-05	1.6968e-05	1108.1	8.0238e-07	6.6436e-07	1175.5	231.72	8.0737e-07	6.6194e-07	290.54	83.688	65.085	19.589	7.1831e-07	27.803	180.289	35.035	17.525	-60.349	160.891	79.769	-60.083	-53.123	115.259	77.709	-53.457	-46.692	-46.207	-39.882	62.993	-40.035	-8191	255	
436.221	1	1	0	0	0.064667	0.335	0.059205	0.25929	0.094744	0.35267	0.41508	0.1158	0.2045	0.091566	0.30922	0.073755	0.14496	0.09053	0.21512	0.18247	-2.8958	-3.6354	-3.225	-3.4979	-3.5479	-3.4771	-3.6063	-3.5	-3.3	-3.6417	-3.4208	-3.3042	-3.6354	-3.3167	-3.5125	-3.4479	50.215	-14.845	78.032	223.862	-13.561	222.673	280.265	173.592	97.615	213.130	279.134	180.591	272.081	96.957	-66.990	123.348	7.7116e-05	0.00038648	7.6327e-05	1137.5	1.6006e-06	2.0705e-06	1203.5	234.76	1.1519e-06	3.2048e-06	295.64	84.132	65.206	19.586	1.548e-06	27.873	8.5753e-05	6.3171e-05	1.7203e-05	1106.5	8.0666e-07	6.6564e-07	1173	231.35	8.0682e-07	6.4522e-07	289.64	83.586	64.995	19.499	6.4826e-07	27.658	177.923	19.800	65.637	-60.354	107.867	72.339	-60.200	-53.340	85.205	76.044	-53.532	-46.785	-46.561	-39.390	75.072	-40.148	-8191	255	
436.318	1	1	0	0	0.13012	0.069479	0.30194	0.19109	0.20262	0.12434	0.21647	0.042898	0.1315	0.20823	0.11781	0.046205	0.19259	0.15614	0.11658	0.23995	-2.7854	-3.4375	-3.4354	-3.3792	-3.5979	-3.3042	-3.6813	-3.55	-3.1667	-3.625	-3.6375	-3.2938	-3.6104	-3.4854	-3.4188	-3.4771	38.863	225.362	265.635	236.317	256.530	217.933	-45.605	151.707	146.547	112.594	264.282	170.976	218.182	239.897	237.329	153.052	8.0842e-05	0.00034515	6.3599e-05	1136	1.0152e-06	2.8615e-06	1198.1	234.12	3.4626e-07	2.445e-06	296	83.868	65.388	19.714	1.624e-06	27.799	8.5983e-05	5.7234e-05	1.6932e-05	1102.2	7.5011e-07	6.1209e-07	1168.7	230.45	7.6763e-07	6.5783e-07	289.5	83.485	65.096	19.535	7.009e-07	27.683	162.130	28.592	45.231	-60.162	126.232	65.422	-59.934	-53.186	141.456	59.236	-53.547	-47.234	-46.196	-39.585	79.589	-40.178	-8191	255	
436.438	1	1	0	0	0.22679	0.12455	0.18464	0.31715	0.2584	0.20732	0.1803	0.16066	0.2647	0.11028	0.2059	0.049884	0.055764	0.11137	0.2273	0.26517	-2.8271	-3.6396	-3.5542	-3.3854	-3.5292	-3.3187	-3.5917	-3.5687	-3.1667	-3.7021	-3.5875	-3.2458	-3.6229	-3.3812	-3.4688	-3.6146	32.904	50.348	264.196	250.688	20.964	201.561	194.156	211.348	88.517	148.953	154.400	254.245	55.386	62.726	195.541	120.017	7.215e-05	0.00028643	8.2838e-05	1137.5	1.3974e-06	3.0744e-06	1205.7	236.42	7.5514e-08	2.2657e-06	296.48	83.931	65.179	19.866	1.9089e-06	27.852	8.4875e-05	6.0248e-05	1.721e-05	1105.7	7.4377e-07	6.243e-07	1173	231.59	7.3355e-07	6.3006e-07	289.72	83.568	65.07	19.678	7.0912e-07	27.704	166.129	36.376	39.143	-60.271	69.937	90.134	-60.203	-53.298	3.690	100.773	-53.450	-46.900	-46.185	-39.746	87.146	-39.816	-8191	255	
436.510	1	1	0	0	0.21588	0.14575	0.15712	0.31003	0.13251	0.089805	0.10488	0.13107	0.11678	0.032782	0.16484	0.38822	0.18663	0.13518	0.17315	0.066464	-2.8604	-3.4313	-3.3937	-3.4104	-3.675	-3.2958	-3.6625	-3.625	-3.1917	-3.4458	-3.4813	-3.2	-3.5958	-3.4521	-3.1771	-3.6021	207.789	53.446	37.683	224.991	-50.951	35.502	203.602	29.634	53.243	98.991	245.719	-0.287	167.352	201.839	80.820	1.742	9.5335e-05	0.0001918	7.1566e-05	1142.7	1.8803e-06	3.0184e-06	1204.6	235.24	1.2345e-06	2.7774e-06	296.62	84.257	65.744	19.816	2.7854e-06	28.019	8.5126e-05	6.0571e-05	1.7153e-05	1106	7.9328e-07	6.7672e-07	1173.3	231.17	7.5038e-07	6.3048e-07	289.75	83.882	65.612	19.643	7.2792e-07	27.834	167.231	1.482	35.932	-60.090	95.481	110.454	-60.190	-53.506	72.364	86.786	-53.591	-46.938	-46.193	-39.891	72.780	-40.052	-8191	255	
436.630	1	1	0	0	0.13893	0.19759	0.28427	0.4967	0.26805	0.28222	0.2566	0.21292	0.27048	0.20607	0.12856	0.12474	0.17555	0.066884	0.061677	0.054906	-2.9146	-3.3438	-3.4375	-3.3292	-3.6	-3.3771	-3.325	-3.6646	-3.2583	-3.4188	-3.5354	-3.3729	-3.5083	-3.3479	-3.3146	-3.6167	239.336	71.398	68.970	264.917	150.996	63.170	235.736	177.762	38.824	65.863	227.811	248.035	67.628	5.871	125.196	76.300	7.0025e-05	0.00027077	7.7092e-05	1143.6	1.9988e-06	2.9327e-06	1209.7	236.83	6.6912e-07	2.3311e-06	297.02	85.119	66.788	20.047	2.0755e-06	28.578	8.3934e-05	6.2873e-05	1.7366e-05	1109.9	7.6638e-07	6.7629e-07	1178.5	232.37	7.2651e-07	7.0219e-07	291.16	84.684	65.938	19.902	6.9993e-07	28.293	163.338	42.379	56.041	-60.299	74.751	81.867	-60.353	-53.325	65.536	77.507	-53.575	-46.902	-46.632	-39.732	95.055	-40.219	-8191	255	
436.725	1	1	0	0	0.16801	0.17578	0.086334	0.20929	0.17362	0.11199	0.093197	0.082275	0.20944	0.15215	0.29832	0.052752	0.0708	0.34964	0.11299	0.18111	-2.7083	-3.2562	-3.4896	-3.3479	-3.5375	-3.3333	-3.4062	-3.6667	-3.3896	-3.2417	-3.5354	-3.2021	-3.4688	-3.4062	-3.2229	-3.6312	-12.544	274.572	224.414	203.333	-42.301	284.228	-69.412	272.614	232.655	168.502	113.021	-53.025	131.225	253.965	246.375	132.878	7.8929e-05	0.00031623	8.068e-05	1150.8	1.1018e-06	2.294e-06	1213.4	237.85	9.6499e-07	2.8735e-06	298.32	85.346	65.857	20.132	2.6208e-06	28.458	8.3171e-05	6.321e-05	1.5802e-05	1114.7	7.4846e-07	6.2317e-07	1181.9	233.83	7.41e-07	6.6449e-07	291.77	84.955	66.073	19.972	6.7124e-07	28.315	168.392	39.449	15.546	-60.150	112.600	119.237	-60.155	-53.201	108.425	66.682	-53.594	-46.850	-46.565	-39.548	106.509	-39.903	-8191	255	
436.821	1	1	0	0	0.25226	0.007534	0.082246	0.27294	0.41144	0.20855	0.1617	0.13971	0.18066	0.25617	0.27521	0.31343	0.14454	0.21853	0.07151	0.17099	-2.8917	-3.2812	-3.5729	-3.4521	-3.4104	-3.3583	-3.2354	-3.5333	-3.325	-3.3063	-3.6458	-3.3646	-3.525	-3.4875	-3.1625	-3.4979	249.123	-3.608	49.383	-48.367	262.292	26.118	254.032	216.787	-13.031	59.919	217.381	-37.184	-11.677	15.648	258.432	255.636	8.924e-05	0.00046898	0.00011031	1146	1.5935e-06	2.2826e-06	1205.4	236.31	7.6261e-07	2.7765e-06	296.38	85.15	66.881	19.926	1.3969e-06	28.543	8.2722e-05	6.1153e-05	1.6264e-05	1109.9	7.8555e-07	6.3098e-07	1174.3	232.73	7.2927e-07	6.5004e-07	290.31	84.672	65.873	19.834	6.3016e-07	28.271	172.453	37.836	20.295	-60.354	99.767	83.360	-60.137	-53.345	97.910	56.439	-53.733	-46.727	-46.265	-39.979	65.068	-40.253	-8191	255	
436.917	1	1	0	0	0.29993	0.15852	0.094584	0.11504	0.035561	0.078569	0.14542	0.066015	0.18272	0.047597	0.20935	0.056431	0.2428	0.12211	0.14383	0.15998	-2.95	-3.3333	-3.425	-3.4437	-3.3708	-3.3875	-3.4417	-3.5854	-3.5479	-3.3396	-3.6312	-3.4792	-3.4562	-3.6083	-3.2979	-3.5812	133.438	253.506	32.306	-37.048	24.513	94.974	-7.292	105.165	148.706	77.174	-64.049	-40.884	-45.038	189.826	-7.192	32.068	6.6434e-05	0.00037444	7.7169e-05	1136.4	9.8121e-07	3.5543e-06	1200.5	235.99	6.1512e-07	2.5329e-06	295.97	84.738	65.892	20.138	1.8448e-06	28.228	7.8426e-05	5.4246e-05	1.396e-05	1102.7	7.0653e-07	5.7842e-07	1170.4	232.02	6.5407e-07	5.3865e-07	289.22	84.29	65.581	19.879	5.9451e-07	28.134	167.833	36.744	40.782	-60.398	137.383	80.716	-60.240	-53.307	56.031	76.404	-53.784	-47.015	-46.165	-39.727	71.466	-39.875	-8191	255	
437.038	1	1	0	0	0.12957	0.074626	0.15152	0.19105	0.090051	0.014917	0.22904	0.055224	0.067814	0.41099	0.17998	0.25338	0.15022	0.24887	0.064581	0.15267	-2.95	-3.2125	-3.5958	-3.4188	-3.4292	-3.7604	-3.375	-3.5521	-3.5229	-3.1271	-3.6958	-3.2604	-3.3875	-3.6479	-3.3021	-3.6458	122.943	202.850	245.805	-53.603	2.496	-66.661	222.496	202.040	163.172	-59.160	22.451	195.102	-3.864	243.008	96.747	53.307	8.3693e-05	0.00024083	9.3334e-05	1130.2	1.2961e-06	3.4006e-06	1193	236.63	7.6705e-07	3.0174e-06	295.77	84.208	65.514	19.941	2.097e-06	28.354	7.5572e-05	5.0146e-05	1.2501e-05	1095.7	6.897e-07	5.2586e-07	1162.1	231.48	6.1074e-07	5.4871e-07	288.6	84.021	65.504	19.72	5.5899e-07	28.098	163.281	42.449	20.852	-60.261	101.988	79.661	-60.159	-53.261	35.733	71.967	-53.582	-47.365	-45.828	-39.487	89.423	-40.131	-8191	255	
437.109	1	1	0	0	0.06479	0.17121	0.12229	0.21054	0.074841	0.20843	0.16504	0.31741	0.071862	0.111	0.12811	0.14093	0.20116	0.20292	0.18756	0.27673	-3.0979	-3.1792	-3.4667	-3.4917	-3.25	-3.5563	-3.3875	-3.6188	-3.4292	-3.2042	-3.6958	-3.5083	-3.4417	-3.6021	-3.4292	-3.4333	89.964	204.433	241.703	211.471	-34.819	57.637	140.122	250.426	240.082	214.494	152.743	111.683	-27.184	232.500	39.932	192.473	6.9305e-05	0.00035116	9.9647e-05	1126.7	1.1938e-06	2.6519e-06	1184.8	235.05	1.0432e-06	2.6505e-06	294.39	84.445	66.073	19.817	1.9955e-06	28.244	7.4579e-05	5.0314e-05	1.2768e-05	1089.1	6.4406e-07	4.726e-07	1155.9	230.41	6.0039e-07	5.2009e-07	288.05	84.022	65.164	19.657	5.8183e-07	28.002	154.911	32.499	43.657	-60.188	107.089	105.164	-60.192	-53.021	35.912	90.626	-53.773	-46.815	-46.896	-40.221	93.305	-39.893	-8191	255	
437.206	1	1	0	0	0.10864	0.09555	0.02428	0.29107	0.3153	0.23103	0.1314	0.079027	0.1647	0.22458	0.12063	0.034257	0.13914	0.18555	0.18888	0.14593	-3.2458	-3.2667	-3.5917	-3.4896	-3.2812	-3.6771	-3.3583	-3.4	-3.5792	-3.3438	-3.6104	-3.5062	-3.3292	-3.5958	-3.3896	-3.375	18.503	191.361	192.963	-63.569	-31.696	33.739	179.185	270.753	-57.401	217.576	277.424	102.020	68.378	283.456	40.716	213.564	7.0769e-05	0.00028048	5.1355e-05	1123	1.8245e-06	2.8732e-06	1187.4	233.93	1.0035e-06	2.0778e-06	294.48	84.118	65.999	19.818	1.2283e-06	28.216	7.2635e-05	4.7559e-05	1.4408e-05	1088.9	6.6667e-07	4.8453e-07	1156.7	230.01	6.2964e-07	5.395e-07	287.29	83.728	65.076	19.622	5.5941e-07	27.957	162.875	6.956	35.650	-60.307	90.757	90.061	-60.235	-53.331	94.178	87.792	-53.549	-46.821	-46.462	-39.472	89.040	-40.445	-8191	255	
437.326	1	1	0	0	0.17315	0.11961	0.01123	0.3578	0.042677	0.14307	0.3686	0.18561	0.073819	0.35679	0.20558	0.10856	0.14076	0.19537	0.089918	0.10814	-3.0896	-3.3	-3.4562	-3.6562	-3.0604	-3.6375	-3.5458	-3.3396	-3.6188	-3.2438	-3.6729	-3.4729	-3.225	-3.6229	-3.5417	-3.475	24.682	28.409	193.592	204.738	93.257	-13.184	256.076	148.415	228.227	286.874	232.747	219.205	-68.009	128.416	92.446	220.266	7.5316e-05	0.0002561	8.7624e-05	1123.3	1.6294e-06	2.9064e-06	1184.7	234.47	1.3731e-06	2.6254e-06	293.86	83.746	65.622	19.862	1.5937e-06	28.083	7.459e-05	5.0211e-05	1.5007e-05	1087.1	6.9081e-07	5.3197e-07	1154.3	229.82	6.3999e-07	5.3199e-07	287.13	83.464	64.988	19.604	6.0384e-07	27.818	163.753	34.170	52.804	-60.217	130.685	92.814	-60.293	-53.105	72.473	81.922	-53.383	-46.905	-46.107	-39.649	60.139	-39.777	-8191	255	
437.422	1	1	0	0	0.21929	0.1019	0.14166	0.18692	0.055497	0.17726	0.32679	0.17547	0.18057	0.12624	0.23043	0.28232	0.11125	0.11781	0.16685	0.17167	-3.2417	-3.1813	-3.5208	-3.5896	-3.3667	-3.4313	-3.4542	-3.2938	-3.6188	-3.3667	-3.4271	-3.5604	-3.1833	-3.5625	-3.5292	-3.2167	184.446	7.532	3.212	224.352	246.049	109.593	234.009	226.040	199.902	66.172	-50.158	287.320	228.051	247.077	18.371	273.642	8.3189e-05	0.00030957	9.2009e-05	1119.4	1.0577e-06	3.2997e-06	1185.1	236	8.1294e-07	2.5849e-06	292.01	83.56	65.355	19.774	2.3081e-06	27.996	7.2447e-05	5.2448e-05	1.4386e-05	1086.5	6.7964e-07	5.5257e-07	1155.6	230.38	6.3144e-07	5.942e-07	286.44	83.368	65.019	19.627	5.998e-07	27.852	167.400	20.785	43.495	-60.164	133.306	69.222	-60.134	-53.079	117.380	83.321	-53.616	-47.000	-45.617	-39.714	101.340	-39.908	-8191	255	
437.519	1	1	0	0	0.20169	0.16504	0.16748	0.25307	0.10769	0.18893	0.048974	0.2858	0.13424	0.042347	0.14783	0.10638	0.087564	0.3112	0.064231	0.13238	-3.2125	-3.1333	-3.3542	-3.65	-3.1688	-3.4521	-3.5667	-3.3479	-3.4583	-3.2208	-3.4854	-3.5271	-3.2146	-3.6396	-3.2938	-3.4146	175.031	213.570	-41.568	-47.419	179.891	95.541	85.400	-33.774	167.221	-30.337	-41.182	-27.213	234.718	-53.032	173.084	166.674	6.4502e-05	0.00033576	0.00014952	1121.7	1.5337e-06	2.3994e-06	1186.9	233.62	8.9931e-07	2.2522e-06	292.56	83.265	64.709	19.774	1.9237e-06	28.058	7.7882e-05	5.4492e-05	1.5e-05	1087.8	6.8308e-07	5.8055e-07	1155.1	230.12	6.204e-07	5.5311e-07	286.36	83.469	64.628	19.621	6.2264e-07	27.823	161.596	36.337	36.971	-60.479	97.516	86.802	-60.231	-53.446	37.359	62.453	-53.451	-46.774	-46.268	-39.855	70.581	-40.022	-8191	255	
437.615	1	1	0	0	0.28498	0.10927	0.12019	0.28821	0.19241	0.058967	0.10712	0.21822	0.14141	0.058308	0.076167	0.062735	0.079366	0.088051	0.16468	0.20576	-3.1521	-3.1542	-3.1937	-3.6479	-3.1937	-3.2625	-3.6292	-3.1104	-3.3292	-3.35	-3.2896	-3.5729	-3.1792	-3.4792	-3.475	-3.3271	10.748	82.834	119.456	272.783	36.467	-14.419	189.248	231.093	183.878	-46.415	8.582	-46.888	54.733	14.865	86.611	178.217	8.0806e-05	0.00023323	7.3666e-05	1120.5	1.6045e-06	2.2668e-06	1186.3	233.36	5.9055e-07	3.1233e-06	295.82	84.092	65.174	19.731	2.5073e-06	28.089	7.3095e-05	5.2267e-05	1.5076e-05	1086.9	7.148e-07	5.7586e-07	1156.6	229.83	6.68e-07	5.755e-07	287.61	83.564	65.078	19.613	5.5384e-07	27.929	164.657	10.676	28.619	-60.291	114.873	78.026	-60.110	-53.049	70.690	65.739	-53.596	-46.699	-46.190	-39.566	76.753	-39.898	-8191	255	
437.734	1	1	0	0	0.14784	0.050855	0.12676	0.37467	0.18824	0.24716	0.19849	0.079801	0.13928	0.21735	0.10278	0.20124	0.0987	0.057665	0.24169	0.13832	-3.2479	-3.2917	-3.2479	-3.6625	-3.3583	-3.2479	-3.6167	-3.2479	-3.6458	-3.4083	-3.3958	-3.6083	-3.2333	-3.3146	-3.6167	-3.1083	52.705	124.113	105.459	283.939	220.748	87.244	171.715	121.283	112.961	-55.059	269.428	245.430	256.771	188.635	96.033	257.574	7.0068e-05	0.00034744	6.4731e-05	1124.7	1.3104e-06	2.8071e-06	1184.6	232.97	6.0846e-07	1.7953e-06	294.04	83.567	65.263	19.825	1.7189e-06	28.185	7.229e-05	5.2875e-05	1.3999e-05	1087.7	7.2929e-07	5.4646e-07	1155.8	229.56	6.6787e-07	5.6274e-07	287.72	83.737	64.924	19.651	5.8671e-07	27.919	162.343	21.566	13.551	-60.228	81.156	88.509	-60.419	-53.160	19.491	73.757	-53.481	-47.075	-45.994	-39.486	89.151	-40.307	-8191	255	
437.805	1	1	0	0	0.10342	0.14286	0.034157	0.10517	0.058372	0.018502	0.10879	0.046133	0.21714	0.11037	0.033173	0.11756	0.13731	0.12367	0.18154	0.10236	-3.2729	-3.4271	-3.1437	-3.6625	-3.2521	-3.1896	-3.5417	-3.1688	-3.4354	-3.4604	-3.3104	-3.5729	-3.375	-3.1771	-3.5458	-3.2667	221.539	3.303	31.694	-68.541	175.173	82.594	61.848	102.116	3.457	208.061	12.864	40.609	166.545	257.343	-11.785	127.909	7.219e-05	0.00022622	8.2271e-05	1121.8	1.2111e-06	2.217e-06	1184	233.65	8.699e-07	2.686e-06	293.45	84.122	64.755	19.857	2.0796e-06	28.128	7.6356e-05	5.2953e-05	1.414e-05	1086.2	7.2046e-07	5.6336e-07	1154.7	229.77	6.5186e-07	5.1385e-07	286.81	83.828	65.148	19.646	5.6094e-07	27.973	174.498	33.574	42.259	-60.106	131.320	96.415	-60.038	-53.334	43.566	84.236	-53.501	-47.079	-46.221	-39.690	68.756	-39.876	-8191	255	
437.901	1	1	0	0	0.013913	0.11853	0.19841	0.13876	0.17566	0.23406	0.1708	0.16453	0.061778	0.18667	0.18624	0.13673	0.18241	0.10204	0.24766	0.055484	-3.0708	-3.4167	-3.0583	-3.8063	-3.25	-3.3625	-3.6208	-3.4104	-3.4208	-3.4604	-3.2104	-3.5375	-3.3354	-3.3312	-3.5458	-3.3854	-25.520	-42.907	76.534	239.058	106.282	86.047	232.960	-65.516	193.763	254.843	152.678	102.156	28.108	4.317	48.879	-34.015	6.5283e-05	0.00031214	8.9999e-05	1115.5	6.0859e-07	2.6064e-06	1185.4	234.15	1.1905e-06	2.5368e-06	293.81	83.779	65.743	19.821	1.7384e-06	28.214	7.7433e-05	4.8219e-05	1.4335e-05	1085.9	6.4985e-07	5.1805e-07	1153.9	229.83	6.4358e-07	4.9047e-07	287.47	83.756	65.048	19.691	5.0204e-07	27.964	163.105	48.559	33.824	-60.215	64.373	88.272	-60.040	-53.338	82.948	78.810	-53.560	-47.078	-46.097	-39.501	112.942	-40.458	-8191	255	
437.998	1	1	0	0	0.14313	0.14196	0.11962	0.045465	0.22464	0.084171	0.21916	0.12993	0.23298	0.044122	0.15652	0.13405	0.17144	0.041564	0.066923	0.10218	-3.0771	-3.5583	-3.0396	-3.55	-3.3979	-3.3646	-3.7	-3.4208	-3.3604	-3.4938	-3.2708	-3.6021	-3.3563	-3.1708	-3.4813	-3.4292	237.745	-60.386	46.745	106.214	-28.893	62.731	269.236	194.670	275.085	93.573	81.720	202.020	104.766	25.830	24.668	80.056	7.5714e-05	0.00037989	0.00011732	1121.4	2.1892e-06	2.0436e-06	1182.4	233.79	6.0097e-07	2.7442e-06	291.94	84.12	65.866	19.764	2.1149e-06	28.196	6.974e-05	4.4727e-05	1.2371e-05	1084.2	6.4323e-07	4.5313e-07	1150.9	229.38	5.7997e-07	4.3492e-07	286.46	83.795	65.055	19.648	5.3267e-07	27.965	172.450	18.048	51.882	-60.280	109.791	88.796	-59.991	-53.065	-3.552	83.903	-53.349	-46.848	-45.937	-39.500	87.719	-40.276	-8191	255	
438.118	1	1	0	0	0.11002	0.1223	0.04164	0.19628	0.055458	0.22534	0.10034	0.12872	0.12229	0.19308	0.15733	0.10434	0.076521	0.1336	0.091412	0.23909	-3.0187	-3.4813	-3.0375	-3.5875	-3.3708	-3.2333	-3.5417	-3.3125	-3.2292	-3.4437	-3.175	-3.4813	-3.3312	-3.2354	-3.5187	-3.3542	184.152	245.949	161.922	252.108	45.574	37.458	223.929	-67.951	-3.166	185.188	-12.909	-1.721	133.337	0.943	-18.702	186.968	7.7743e-05	0.00024742	9.5623e-05	1113.8	1.0664e-06	2.7153e-06	1175.7	234.56	8.1127e-07	2.8333e-06	293.61	83.887	65.701	19.947	2.3197e-06	28.195	6.9489e-05	4.3032e-05	1.1825e-05	1080.2	5.8861e-07	4.7274e-07	1148.1	229.49	5.6631e-07	4.4512e-07	286.86	83.748	64.99	19.672	4.895e-07	28.003	171.709	24.535	54.015	-60.007	99.781	65.613	-60.067	-52.997	91.951	89.327	-53.375	-46.783	-46.774	-39.588	61.895	-40.011	-8191	255	
438.214	1	1	0	0	0.048748	0.19434	0.079874	0.29424	0.083321	0.11109	0.13613	0.11479	0.11461	0.12753	0.12566	0.085292	0.099773	0.077831	0.17223	0.033846	-2.7396	-3.4292	-3.1958	-3.6312	-3.4854	-3.4146	-3.5708	-3.5438	-3.2667	-3.6354	-3.4	-3.4979	-3.4396	-3.4229	-3.6167	-3.4396	-54.424	106.636	269.149	227.083	270.156	194.958	-56.121	274.898	-39.284	28.610	251.301	279.073	22.237	254.777	276.883	170.760	7.7564e-05	0.00029745	5.0977e-05	1117.6	1.4114e-06	2.1815e-06	1182.8	233.95	1.2744e-06	2.9606e-06	292.17	84.28	65.793	19.82	2.0488e-06	28.185	6.8151e-05	4.0458e-05	1.2215e-05	1078.9	5.5924e-07	4.3822e-07	1149.1	229.21	5.5858e-07	4.4895e-07	285.74	83.632	65.03	19.633	5.161e-07	27.943	164.703	27.546	43.062	-60.209	82.724	95.217	-60.031	-52.979	82.956	72.210	-53.146	-46.802	-46.271	-39.571	79.034	-40.340	-8191	255	
438.310	1	1	0	0	0.18464	0.074701	0.15372	0.049866	0.14087	0.25294	0.06269	0.097053	0.26299	0.10237	0.13707	0.26902	0.17599	0.20417	0.19813	0.071811	-2.8708	-3.7104	-3.1167	-3.5083	-3.6229	-3.1917	-3.7104	-3.5563	-3.2979	-3.7125	-3.3208	-3.325	-3.5167	-3.2125	-3.4333	-3.6104	116.515	234.316	-5.244	193.495	53.791	43.899	-44.325	178.868	107.763	-51.223	196.144	-57.706	-16.398	-0.679	44.783	228.640	6.6724e-05	0.0004555	8.6673e-05	1112	1.4113e-06	2.621e-06	1171.9	234.6	5.8306e-07	1.9477e-06	292.03	84.092	65.187	19.863	1.6751e-06	28.138	7.1224e-05	4.2541e-05	1.34e-05	1076.5	5.8475e-07	4.6421e-07	1144.3	229.1	6.1088e-07	4.8848e-07	286.06	83.77	64.977	19.661	5.5147e-07	27.987	164.034	31.941	11.447	-60.168	140.908	94.133	-60.308	-53.199	119.386	68.916	-53.514	-46.750	-46.094	-39.470	73.386	-40.059	-8191	255	
438.407	1	1	0	0	0.038774	0.20166	0.28227	0.22709	0.22625	0.30982	0.42839	0.2107	0.22437	0.226	0.088573	0.22349	0.090025	0.37341	0.084	0.12658	-2.9375	-3.5604	-3.3208	-3.3875	-3.5479	-3.2479	-3.5917	-3.6125	-3.2604	-3.4	-3.4417	-3.3542	-3.5271	-3.3021	-3.5354	-3.4583	165.250	-57.080	65.736	260.937	17.435	26.566	204.183	224.981	4.007	106.408	232.695	-18.405	204.636	288.725	-20.614	38.074	7.7027e-05	0.00039255	7.5451e-05	1112.5	6.6943e-07	2.3727e-06	1183.3	234.17	7.3991e-07	3.9543e-06	294.83	84.325	66.028	19.929	2.0392e-06	28.357	7.1935e-05	4.9461e-05	1.3277e-05	1079.4	6.4847e-07	5.5811e-07	1151.2	230.1	6.4979e-07	5.4489e-07	287.6	84.071	65.338	19.754	5.7626e-07	28.109	162.179	27.297	32.575	-60.140	102.610	73.604	-60.084	-52.979	97.031	75.140	-53.622	-47.233	-45.701	-39.810	74.025	-40.001	-8191	255	
438.503	1	1	0	0	0.14789	0.21297	0.18724	0.060097	0.1132	0.24697	0.28325	0.24611	0.18779	0.203	0.19108	0.21232	0.10516	0.1238	0.1605	0.043837	-2.7521	-3.3979	-3.3583	-3.4625	-3.4083	-3.3125	-3.5375	-3.5417	-3.1417	-3.6813	-3.5479	-3.3312	-3.6292	-3.2687	-3.2104	-3.7646	59.405	4.982	-23.605	211.015	181.222	114.980	206.881	25.824	55.163	113.421	238.568	-65.956	230.800	167.455	152.339	66.576	9.4088e-05	0.00026645	9.8305e-05	1116.3	1.7565e-06	2.4052e-06	1178.1	234.71	3.4809e-07	2.4166e-06	292.79	84.376	65.835	19.974	2.0586e-06	28.273	7.6022e-05	5.5397e-05	1.4614e-05	1080.5	6.897e-07	5.6493e-07	1149.3	230.17	6.3323e-07	5.7125e-07	287.52	84.076	65.171	19.725	6.0119e-07	28.01	182.514	34.823	64.621	-60.259	89.075	86.017	-60.023	-53.119	48.376	91.831	-53.327	-46.587	-45.794	-39.787	95.038	-39.791	-8191	255	
438.599	1	1	0	0	0.23134	0.10625	0.054754	0.2325	0.058319	0.059543	0.21097	0.11679	0.15074	0.12591	0.089336	0.088569	0.10598	0.23216	0.063341	0.11899	-2.7729	-3.5396	-3.4896	-3.2354	-3.4604	-3.2875	-3.4583	-3.7792	-3.3021	-3.5917	-3.3292	-3.3	-3.4667	-3.2604	-3.3646	-3.6979	155.103	208.490	130.548	227.614	137.141	258.874	195.756	125.315	20.782	-39.314	186.345	-43.428	57.657	90.314	80.146	258.232	6.5474e-05	0.00028459	0.00010295	1115	2.4363e-06	2.0768e-06	1175.2	233.93	9.0261e-07	3.2656e-06	293.48	84.26	65.647	20.014	2.0219e-06	28.278	7.7611e-05	5.369e-05	1.3848e-05	1079.1	6.9922e-07	5.5612e-07	1147.9	230.09	6.3558e-07	5.4319e-07	287.79	83.955	65.281	19.805	5.4256e-07	28.164	174.778	19.418	49.305	-60.108	78.637	78.767	-59.968	-53.146	142.432	86.347	-53.620	-46.910	-45.994	-40.118	53.621	-40.028	-8191	255	
438.720	1	1	0	0	0.19165	0.17165	0.14172	0.14123	0.061068	0.27435	0.26018	0.087953	0.24646	0.1686	0.12777	0.14712	0.042846	0.21992	0.042261	0.044046	-2.8125	-3.4167	-3.3021	-3.3187	-3.4146	-3.275	-3.45	-3.6188	-3.4292	-3.4729	-3.5167	-3.15	-3.4958	-3.4125	-3.175	-3.5812	162.983	17.447	153.367	279.055	19.790	40.209	194.097	-29.777	101.007	219.746	194.971	196.203	147.488	116.928	265.742	-45.111	6.6764e-05	0.00029896	0.00010199	1106.9	1.5654e-06	1.9335e-06	1174.1	234.19	4.9599e-07	3.086e-06	293.06	84.066	66.484	19.833	1.4827e-06	28.363	7.3774e-05	4.5904e-05	1.249e-05	1075.9	6.1565e-07	5.0015e-07	1144.7	230.18	6.2716e-07	4.8792e-07	287.45	84.083	65.565	19.795	5.1401e-07	28.121	162.855	43.279	39.024	-60.055	114.031	80.147	-60.278	-53.021	65.889	65.332	-53.714	-46.879	-45.981	-39.609	52.857	-39.658	-8191	255	
438.814	1	1	0	0	0.10453	0.13276	0.2826	0.061329	0.09718	0.14024	0.015863	0.070976	0.2759	0.056985	0.06472	0.3099	0.080451	0.051859	0.21619	0.17218	-2.7896	-3.325	-3.4708	-3.3875	-3.3958	-3.3396	-3.2854	-3.5167	-3.225	-3.3479	-3.6271	-3.2417	-3.4958	-3.3583	-3.1542	-3.5458	-35.248	164.466	21.553	-6.537	194.356	75.342	-44.887	182.244	244.003	21.035	134.525	257.024	46.584	24.316	187.554	29.981	6.3015e-05	0.00031182	8.676e-05	1111.5	1.4228e-06	3.1046e-06	1174.6	234.61	7.9137e-07	3.6703e-06	293.9	84.366	66.07	19.96	1.7147e-06	28.221	7.3555e-05	4.4339e-05	1.2977e-05	1074.5	6.0971e-07	4.591e-07	1143.9	230.53	5.8921e-07	4.7715e-07	287.72	84.119	65.394	19.789	5.4646e-07	28.085	158.341	13.923	31.808	-60.278	119.941	79.317	-59.866	-53.185	59.054	57.800	-53.705	-46.855	-46.486	-39.649	43.523	-40.055	-8191	255	
438.910	1	1	0	0	0.11704	0.15188	0.058634	0.22745	0.11449	0.23318	0.22189	0.12813	0.10907	0.28045	0.084054	0.097558	0.20279	0.20034	0.13865	0.13971	-2.8729	-3.2833	-3.575	-3.2458	-3.4583	-3.3937	-3.1667	-3.5354	-3.2917	-3.5938	-3.5604	-3.0812	-3.4625	-3.475	-3.3833	-3.6083	157.498	180.707	41.775	285.153	190.209	-63.477	-67.951	204.615	213.655	4.740	-31.429	114.631	147.252	-53.022	212.265	260.433	7.4455e-05	0.00041287	4.692e-05	1108.1	1.129e-06	1.4917e-06	1175.2	235.07	3.8967e-07	2.2344e-06	292.67	85.181	65.093	20.051	2.3255e-06	28.418	7.3544e-05	4.6706e-05	1.2179e-05	1074.3	6.2668e-07	4.9333e-07	1145.4	230.74	5.8121e-07	4.7814e-07	287.81	84.236	65.123	19.795	5.6707e-07	28.14	167.770	28.030	46.114	-60.078	107.201	100.314	-60.113	-53.124	159.540	88.310	-53.086	-46.551	-46.790	-39.551	86.140	-40.213	-8191	255	
439.031	1	1	0	0	0.18982	0.11606	0.19644	0.12739	0.14105	0.13433	0.34364	0.2953	0.15979	0.19528	0.1017	0.013996	0.23898	0.25175	0.095115	0.11511	-2.8083	-3.2979	-3.5354	-3.4125	-3.4229	-3.4167	-3.375	-3.4854	-3.1854	-3.2333	-3.4708	-3.4042	-3.3688	-3.475	-3.3833	-3.5667	40.538	44.521	130.225	196.753	228.812	203.397	167.915	224.030	207.977	186.149	-18.944	-7.924	-63.926	-25.543	268.122	111.359	6.9983e-05	0.00038728	6.3338e-05	1110.2	5.5107e-07	1.4376e-06	1174.5	234.67	9.4633e-07	3.0086e-06	295.49	84.255	66.328	20.174	1.7499e-06	28.562	7.2855e-05	4.6201e-05	1.3219e-05	1075.3	6.7095e-07	5.0953e-07	1144.7	230.92	6.3806e-07	5.1499e-07	288.59	84.387	65.497	19.84	6.3768e-07	28.204	162.776	19.321	5.171	-60.235	82.802	69.841	-60.156	-53.301	69.331	58.617	-53.307	-46.719	-46.194	-39.564	72.511	-39.946	-8191	255	
439.102	1	1	0	0	0.069656	0.19098	0.10618	0.4376	0.09464	0.028364	0.35187	0.026585	0.32729	0.27269	0.14862	0.18468	0.044983	0.058692	0.049882	0.068344	-2.9646	-3.1708	-3.4625	-3.35	-3.3625	-3.5521	-3.5021	-3.5792	-3.4625	-3.2417	-3.7	-3.3	-3.5375	-3.5312	-3.2396	-3.5979	184.224	-48.016	-53.660	229.491	274.955	-45.145	238.306	-25.292	232.707	90.897	95.601	92.336	-21.792	42.225	164.836	193.781	8.7262e-05	0.00032575	9.6111e-05	1108.5	1.7265e-06	2.4495e-06	1174.3	235.07	1.0209e-06	2.1749e-06	294.42	84.612	65.95	19.911	1.8773e-06	28.398	7.9523e-05	4.9616e-05	1.3833e-05	1077	6.6226e-07	5.0356e-07	1144.9	230.91	6.2178e-07	5.225e-07	287.96	84.287	65.399	19.805	6.2333e-07	28.106	166.034	20.105	24.470	-60.159	111.485	90.851	-60.174	-53.187	125.144	109.322	-53.685	-47.129	-46.059	-39.779	72.868	-39.767	-8191	255	
439.197	1	1	0	0	0.14707	0.065462	0.074902	0.25841	0.35706	0.089668	0.26248	0.12767	0.16555	0.11685	0.23626	0.19266	0.094123	0.16446	0.21616	0.072048	-3.0104	-3.3333	-3.5563	-3.5042	-3.2521	-3.4375	-3.4	-3.425	-3.4083	-3.2125	-3.7042	-3.5479	-3.3688	-3.7333	-3.2583	-3.3563	84.744	170.995	94.583	180.368	265.239	242.350	218.479	258.667	199.978	-46.844	-35.429	-8.717	209.769	272.728	114.901	187.319	7.5948e-05	0.00041118	9.2238e-05	1108.7	1.0551e-06	1.6808e-06	1173.9	235.09	1.089e-06	3.3141e-06	294.65	84.308	66.524	19.93	2.4394e-06	28.27	7.4161e-05	5.3315e-05	1.4595e-05	1075.4	6.664e-07	5.7657e-07	1144.5	231.05	5.9749e-07	5.6841e-07	288.8	84.394	65.667	19.842	6.4199e-07	28.159	167.859	31.173	29.846	-60.316	76.355	101.759	-59.948	-53.248	48.579	81.367	-53.333	-46.943	-46.269	-40.020	104.824	-40.032	-8191	255	
439.293	1	1	0	0	0.19692	0.070063	0.10343	0.36917	0.08009	0.010065	0.017829	0.051731	0.10284	0.093391	0.11459	0.23109	0.24143	0.2128	0.22573	0.23774	-2.9542	-3.1375	-3.4417	-3.4313	-3.1417	-3.6479	-3.4583	-3.4167	-3.4708	-3.1917	-3.4542	-3.425	-3.1188	-3.6104	-3.1312	-3.4208	284.917	-19.849	178.353	277.888	225.900	147.725	286.844	216.609	145.576	28.628	155.054	236.728	-15.045	51.103	113.443	210.345	7.4028e-05	0.00027627	9.4883e-05	1110.8	8.0097e-07	2.2401e-06	1177.2	236.09	9.1471e-07	2.6039e-06	294.81	84.767	66.122	20.09	1.2395e-06	28.684	7.5301e-05	5.2539e-05	1.3729e-05	1078.7	6.4612e-07	5.6436e-07	1147.5	232.05	6.5103e-07	5.4234e-07	289.36	84.365	65.688	19.948	5.7445e-07	28.298	164.270	-9.197	8.377	-60.262	86.211	86.920	-60.026	-53.159	60.350	79.640	-53.221	-46.710	-46.534	-39.537	68.445	-40.229	-8191	255	
439.389	1	1	0	0	0.15677	0.19011	0.15137	0.27186	0.047605	0.10882	0.054325	0.22083	0.28688	0.037736	0.13316	0.15923	0.1577	0.12075	0.29788	0.1226	-3.1604	-3.0042	-3.6125	-3.4437	-3.3542	-3.6104	-3.5021	-3.2021	-3.6833	-3.2875	-3.6312	-3.4042	-3.15	-3.6042	-3.4667	-3.5104	87.583	150.053	-45.382	225.069	149.130	53.015	204.469	-41.974	16.351	120.849	0.131	176.812	132.374	182.483	-57.829	228.526	8.2597e-05	0.00030114	0.00011348	1112.9	1.2696e-06	2.0988e-06	1176.3	236.95	8.5301e-07	2.5988e-06	296.33	84.839	66.246	20.192	1.2543e-06	28.602	7.3273e-05	5.2216e-05	1.4097e-05	1079.3	6.6488e-07	5.4845e-07	1147.6	232.32	6.3033e-07	5.6005e-07	289.84	84.785	65.802	19.967	5.7125e-07	28.348	169.970	21.658	20.738	-60.030	115.853	79.394	-60.021	-53.434	63.733	80.248	-53.473	-47.074	-46.920	-39.788	55.103	-39.886	-8191	255	
439.510	1	1	0	0	0.34067	0.14774	0.25675	0.26905	0.12686	0.052882	0.25103	0.087674	0.23758	0.089539	0.19312	0.080702	0.28505	0.077328	0.13978	0.12078	-3.0917	-3.1667	-3.5396	-3.5521	-3.3125	-3.6437	-3.4396	-3.3292	-3.6312	-3.3063	-3.6104	-3.4333	-3.3792	-3.5979	-3.2375	-3.2687	37.751	-46.896	76.757	248.731	-36.204	256.796	228.946	84.274	237.935	75.733	270.376	186.251	213.896	186.282	107.561	28.095	7.4418e-05	0.00036792	0.00011353	1112.1	1.7976e-06	1.8984e-06	1180.7	236.87	1.1582e-06	2.7349e-06	297.09	85.513	66.7	20.202	2.8331e-06	28.649	7.551e-05	5.3289e-05	1.3501e-05	1077.3	6.595e-07	5.0811e-07	1147.6	232.57	5.9791e-07	5.463e-07	290.28	84.902	65.882	20.016	5.5705e-07	28.429	164.583	40.629	25.998	-60.018	98.455	69.525	-60.046	-53.053	105.300	61.659	-53.597	-46.823	-45.994	-39.732	90.137	-39.909	-8191	255	
439.606	1	1	0	0	0.043645	0.10545	0.19078	0.27854	0.096311	0.073788	0.18471	0.30212	0.069305	0.11529	0.096484	0.2816	0.19352	0.16415	0.13194	0.17444	-3.3187	-3.2271	-3.2479	-3.5417	-3.1792	-3.5958	-3.425	-3.2396	-3.4354	-3.325	-3.3229	-3.4354	-3.2708	-3.5604	-3.35	-3.1562	-8.641	97.192	215.980	232.852	287.207	5.444	243.015	249.454	-43.618	-46.179	12.161	87.142	-13.762	-30.588	286.965	264.204	7.3141e-05	0.00029393	9.2417e-05	1114.6	2.2054e-06	2.6914e-06	1179.2	237.09	1.2284e-07	3.5297e-06	298.55	85.092	66.331	20.237	2.3135e-06	28.639	7.7579e-05	5.0314e-05	1.4397e-05	1079.6	6.9522e-07	5.7828e-07	1148.2	232.78	6.9284e-07	5.8797e-07	290.93	84.964	66.16	20.028	6.0843e-07	28.416	177.971	33.910	23.386	-60.142	84.088	84.667	-60.020	-52.960	-21.522	67.266	-53.283	-46.698	-46.000	-39.780	75.321	-40.077	-8191	255	
439.702	1	1	0	0	0.15794	0.15825	0.16408	0.095616	0.1241	0.11105	0.26468	0.14644	0.22134	0.084424	0.26847	0.31103	0.20829	0.27557	0.038897	0.15347	-3.2417	-3.2521	-3.3083	-3.6958	-3.2229	-3.4792	-3.5167	-3.425	-3.6396	-3.3104	-3.4479	-3.5583	-3.2938	-3.4792	-3.6021	-3.2875	225.431	-0.106	228.490	175.528	99.441	233.599	207.675	140.552	-47.430	0.482	228.808	-45.508	-65.914	-31.152	113.958	47.081	6.5877e-05	0.00028243	7.7628e-05	1115.6	9.4194e-07	2.8817e-06	1182.4	236.61	7.4712e-07	2.3956e-06	298.7	85.749	67.328	20.272	1.6104e-06	28.526	8.2189e-05	5.3211e-05	1.4769e-05	1082	7.2542e-07	5.9291e-07	1151.7	233.07	6.7408e-07	5.9194e-07	291.75	85.347	66.539	20.07	6.3406e-07	28.459	163.128	37.539	35.162	-60.410	84.544	81.236	-60.025	-53.056	84.427	67.775	-53.335	-46.957	-46.324	-39.992	81.812	-40.134	-8191	255	
439.798	1	1	0	0	0.26919	0.085802	0.043532	0.26305	0.22481	0.12672	0.4132	0.23356	0.10626	0.1756	0.39794	0.1438	0.094267	0.15381	0.15206	0.30335	-3.0812	-3.2833	-3.1792	-3.6771	-3.2708	-3.5479	-3.5896	-3.1292	-3.5604	-3.3354	-3.3271	-3.5417	-3.2479	-3.2125	-3.4771	-3.3667	179.741	175.573	82.421	236.310	88.064	220.647	226.729	222.698	278.369	171.852	252.306	186.198	101.785	-12.253	-43.513	-1.766	8.5817e-05	0.00024535	8.1136e-05	1123.8	1.6134e-06	2.7899e-06	1183.6	238.43	6.265e-07	2.6225e-06	298.44	85.61	66.52	20.256	1.656e-06	28.812	8.1802e-05	5.4078e-05	1.552e-05	1085.8	7.3577e-07	6.0342e-07	1154.9	233.93	7.2016e-07	6.0214e-07	291.82	85.242	66.307	20.109	6.3559e-07	28.473	165.622	27.683	29.746	-60.183	103.865	74.007	-60.306	-53.373	60.165	59.737	-53.249	-46.814	-46.007	-39.913	59.158	-40.057	-8191	255	
439.894	1	1	0	0	0.12531	0.20239	0.10776	0.25892	0.27838	0.21577	0.14706	0.13905	0.15823	0.1106	0.20983	0.021774	0.20689	0.14427	0.26125	0.27023	-3.0021	-3.3	-3.3646	-3.6104	-3.325	-3.4229	-3.6583	-3.3292	-3.4521	-3.5167	-3.4021	-3.5417	-3.3604	-3.3625	-3.4333	-3.3021	159.536	183.338	73.335	277.916	106.837	-62.322	249.853	263.875	53.600	93.326	144.058	-65.053	130.275	198.131	104.329	-28.591	7.9802e-05	0.00040664	7.4453e-05	1121.3	1.6925e-06	2.9277e-06	1186	238.77	9.2154e-07	2.7805e-06	298.96	85.544	66.624	20.196	1.6308e-06	28.847	8.1729e-05	5.4725e-05	1.6033e-05	1086.7	7.4404e-07	5.8709e-07	1155.6	233.98	6.7435e-07	5.9902e-07	292.13	85.342	66.33	20.045	6.6302e-07	28.541	161.819	44.357	28.792	-60.060	123.910	65.695	-60.415	-53.442	69.011	57.546	-53.540	-46.929	-46.500	-39.816	76.670	-39.856	-8191	255	
439.990	1	1	0	0	0.35171	0.12952	0.15604	0.12454	0.16527	0.032168	0.12856	0.21491	0.095227	0.034504	0.16716	0.17815	0.28688	0.12751	0.2737	0.12411	-2.9458	-3.5062	-2.9625	-3.6896	-3.3063	-3.1833	-3.65	-3.2583	-3.4437	-3.5167	-3.2062	-3.5417	-3.3563	-3.225	-3.5312	-3.1771	-19.532	174.472	-52.285	199.789	91.956	74.962	-67.977	-56.464	146.839	52.511	-46.929	237.687	243.000	-8.515	62.324	240.815	7.4625e-05	0.00023022	0.00011017	1125.3	1.804e-06	2.7499e-06	1188.3	239.21	5.1912e-07	1.4636e-06	299.08	85.48	66.938	20.366	2.4693e-06	28.69	8.1488e-05	5.2513e-05	1.6513e-05	1087.5	7.1177e-07	6.0314e-07	1157	233.97	6.7725e-07	5.6954e-07	292.54	85.215	66.45	20.161	6.7528e-07	28.554	154.550	-2.846	28.793	-60.151	85.532	77.216	-60.230	-53.357	63.749	92.104	-53.699	-47.028	-46.129	-39.671	76.482	-39.937	-8191	255	
440.109	1	1	0	0	0.13527	0.18102	0.083738	0.20237	0.17628	0.064409	0.072946	0.26452	0.21837	0.20863	0.16593	0.21181	0.2537	0.23199	0.13629	0.062326	-2.9792	-3.5083	-3.0729	-3.5729	-3.35	-3.1479	-3.7625	-3.4917	-3.3625	-3.5625	-3.4	-3.4792	-3.575	-3.3167	-3.5104	-3.2333	266.916	-69.411	-19.563	248.798	225.979	57.384	119.082	254.242	79.843	65.736	172.482	186.921	259.434	-21.152	14.279	223.495	7.168e-05	0.00031779	6.9028e-05	1122.3	1.6378e-06	2.3308e-06	1186.2	238.49	1.1085e-06	1.3968e-06	300.28	85.367	66.732	20.348	1.4518e-06	28.861	7.9764e-05	5.5553e-05	1.66e-05	1088.3	7.0653e-07	6.3283e-07	1156.8	234.35	6.7256e-07	5.6685e-07	292.7	85.328	66.31	20.118	6.1971e-07	28.555	161.247	28.267	51.500	-60.037	105.007	110.501	-60.255	-53.151	57.733	42.088	-53.548	-46.844	-47.089	-39.710	90.637	-40.343	-8191	255	
440.205	1	1	0	0	0.049425	0.2181	0.16438	0.27404	0.11054	0.14696	0.16515	0.24607	0.12186	0.30143	0.18769	0.25889	0.11165	0.29718	0.10336	0.32108	-2.8375	-3.4917	-3.2646	-3.6271	-3.2917	-3.3229	-3.6604	-3.2792	-3.3937	-3.4896	-3.2812	-3.4854	-3.3042	-3.2333	-3.6146	-3.3333	98.396	-3.914	130.732	245.258	-48.840	111.472	119.049	172.530	232.154	250.134	233.930	226.482	25.024	-22.005	99.781	180.859	7.198e-05	0.00020816	6.6916e-05	1122	1.5322e-06	2.7924e-06	1187.1	238.69	8.4995e-07	2.2493e-06	299.51	85.729	66.726	20.319	2.0017e-06	28.682	8.3589e-05	5.3509e-05	1.548e-05	1089.6	7.2501e-07	6.3737e-07	1159.4	234.03	7.105e-07	5.7507e-07	292.56	85.485	66.302	20.105	6.3475e-07	28.504	179.341	11.030	52.351	-60.198	84.931	70.968	-60.058	-53.238	94.675	95.566	-53.298	-46.888	-46.459	-39.896	74.149	-39.976	-8191	255	
440.302	1	1	0	0	0.18442	0.15373	0.19923	0.14393	0.25168	0.10074	0.18826	0.087338	0.11976	0.032442	0.20882	0.15208	0.13684	0.10221	0.2125	0.14015	-2.6688	-3.4917	-2.9521	-3.4562	-3.2833	-3.1958	-3.6104	-3.2583	-3.1813	-3.4271	-3.2646	-3.3646	-3.4083	-3.2188	-3.4354	-3.3833	116.679	164.827	274.860	212.049	226.290	-9.535	262.987	-26.504	225.988	51.204	251.119	154.163	6.820	231.599	145.825	-44.665	8.0723e-05	0.0002737	9.8601e-05	1124.7	8.3271e-07	3.4064e-06	1189.3	238.43	1.006e-06	3.0554e-06	299.98	86.014	66.417	20.322	1.5137e-06	28.786	7.9816e-05	5.6367e-05	1.5708e-05	1089.2	7.3053e-07	6.6848e-07	1158.4	234.11	7.2223e-07	5.8117e-07	292.94	85.383	66.245	20.09	6.5119e-07	28.58	176.885	26.195	39.987	-60.087	123.558	87.869	-60.042	-53.319	67.518	61.863	-53.596	-46.758	-46.404	-39.573	81.066	-39.905	-8191	255	
440.398	1	1	0	0	0.15028	0.097854	0.092841	0.24665	0.097854	0.3047	0.15185	0.042404	0.22518	0.22953	0.28927	0.20358	0.21465	0.21449	0.15104	0.16657	-2.7417	-3.4417	-3.0187	-3.4604	-3.5396	-3.0604	-3.6667	-3.4667	-3.2646	-3.4958	-3.3479	-3.3292	-3.5521	-3.2188	-3.5479	-3.5292	156.788	87.116	-44.056	240.654	88.078	1.961	236.863	90.586	64.333	128.678	187.989	-21.991	-36.184	-37.411	262.193	110.322	6.0205e-05	0.00027235	8.5819e-05	1121.9	1.4584e-06	1.3781e-06	1190	238.05	6.8923e-07	1.4314e-06	299.43	85.539	66.738	20.336	1.0747e-06	29.061	8.3265e-05	5.0922e-05	1.5318e-05	1089.8	7.2515e-07	6.1294e-07	1158.2	233.7	7.4611e-07	6.2127e-07	292.32	85.373	66.515	20.126	6.3016e-07	28.54	163.028	34.051	24.838	-60.009	169.073	93.255	-60.097	-53.266	111.700	96.236	-53.429	-46.718	-46.332	-39.855	69.107	-40.339	-8191	255	
440.494	1	1	0	0	0.18142	0.050082	0.15408	0.27061	0.21047	0.13269	0.10867	0.26387	0.11122	0.18001	0.20462	0.26204	0.12415	0.14356	0.23645	0.14852	-2.8833	-3.4667	-3.2417	-3.4458	-3.4979	-3.075	-3.6479	-3.4	-3.1708	-3.4917	-3.2938	-3.1562	-3.4271	-3.2792	-3.4292	-3.4542	228.959	46.762	280.542	274.115	-1.669	69.318	160.550	220.081	117.528	47.664	215.021	213.507	169.182	-28.415	78.725	142.883	7.9149e-05	0.00028666	0.00010636	1121.6	2.5075e-07	2.7905e-06	1188.7	238.59	4.3236e-07	2.6445e-06	299.04	85.521	66.905	20.256	2.1246e-06	28.839	8.1196e-05	5.8877e-05	1.5477e-05	1088.8	7.3646e-07	6.0484e-07	1156	234.27	7.1133e-07	5.6005e-07	292.67	85.185	66.527	20.135	6.1386e-07	28.567	170.128	29.394	44.057	-60.195	152.970	80.737	-60.030	-53.482	70.891	111.280	-53.588	-47.177	-46.250	-39.536	86.446	-40.210	-8191	255	
440.590	1	1	0	0	0.30538	0.1121	0.20439	0.093746	0.24539	0.12452	0.15333	0.1227	0.14071	0.27274	0.15912	0.19029	0.2202	0.22372	0.18562	0.13447	-2.7208	-3.4188	-3.2458	-3.3688	-3.5625	-3.0729	-3.3229	-3.4875	-3.1333	-3.6	-3.3208	-3.275	-3.6542	-3.3563	-3.3979	-3.6896	-50.679	49.434	139.941	207.897	136.405	68.847	216.367	137.044	235.369	-8.567	170.000	204.131	148.100	258.160	136.027	124.054	7.4878e-05	0.00036524	6.4983e-05	1122.2	1.9894e-06	2.9249e-06	1186.4	239.13	5.6456e-07	2.2745e-06	299.52	86.117	67.554	20.383	1.9729e-06	28.758	8.0433e-05	5.6484e-05	1.3786e-05	1087.9	7.2101e-07	5.9121e-07	1157	234.11	7.2127e-07	5.6983e-07	292.29	85.458	66.486	20.173	6.0746e-07	28.575	162.264	32.601	55.074	-60.169	78.269	69.357	-60.166	-53.222	84.567	93.162	-53.391	-46.844	-46.081	-39.641	79.140	-40.011	-8191	255	
440.711	1	1	0	0	0.031084	0.097836	0.1749	0.17676	0.1783	0.15986	0.39697	0.1998	0.29788	0.2177	0.088571	0.25304	0.19559	0.11719	0.21514	0.2562	-2.8063	-3.6458	-3.3667	-3.3583	-3.6125	-3.2979	-3.4875	-3.7042	-3.1771	-3.2854	-3.5604	-3.1771	-3.3937	-3.3625	-3.2146	-3.6	8.595	130.949	111.534	205.293	23.630	43.138	255.053	101.143	268.623	240.774	103.584	237.795	88.546	158.203	244.528	230.697	7.265e-05	0.00021863	0.00010844	1120.8	1.1778e-06	2.2909e-06	1188.1	238.33	7.8251e-07	3.4631e-06	299.44	85.975	66.755	20.232	1.8468e-06	28.745	8.0213e-05	5.272e-05	1.4451e-05	1087.1	7.2349e-07	5.7132e-07	1157.1	233.89	6.8732e-07	5.6175e-07	292.26	85.54	66.454	20.079	6.0509e-07	28.494	172.450	3.244	43.614	-60.232	103.984	91.676	-60.130	-53.179	73.856	84.646	-53.533	-47.039	-46.912	-39.941	44.726	-40.105	-8191	255	
440.807	1	1	0	0	0.3233	0.065703	0.046975	0.16937	0.26115	0.21194	0.17986	0.23892	0.17573	0.099177	0.18423	0.20898	0.18925	0.18548	0.22335	0.19056	-2.7542	-3.5625	-3.3896	-3.4667	-3.4792	-3.3542	-3.5458	-3.5521	-3.1813	-3.4104	-3.5667	-3.2771	-3.475	-3.3396	-3.0938	-3.5687	268.762	240.615	165.065	240.770	-48.939	141.626	221.273	189.771	9.599	128.325	122.287	268.563	1.312	160.679	107.626	82.662	6.4633e-05	0.00028815	6.6795e-05	1121.2	6.9286e-07	3.0446e-06	1185.5	238.57	8.1164e-07	2.454e-06	299.43	85.902	67.466	20.322	1.4593e-06	28.703	8.1875e-05	5.1931e-05	1.3913e-05	1087.2	6.795e-07	5.5669e-07	1157.4	234.06	6.9533e-07	5.7252e-07	292.62	85.551	66.362	20.163	6.0969e-07	28.513	160.296	39.729	40.051	-60.189	105.888	69.397	-60.156	-53.271	95.794	80.562	-53.431	-46.849	-45.861	-39.752	76.772	-39.886	-8191	255	
440.903	1	1	0	0	0.20204	0.05765	0.088834	0.21133	0.23541	0.2197	0.20197	0.3244	0.10636	0.27789	0.21158	0.14967	0.17195	0.22501	0.12143	0.13208	-2.8583	-3.3042	-3.6104	-3.2375	-3.4833	-3.3688	-3.3083	-3.75	-3.1708	-3.3333	-3.5771	-3.3396	-3.3458	-3.4104	-3.25	-3.4958	271.429	162.287	274.291	213.011	282.522	171.354	-11.959	267.992	-37.597	171.773	189.808	189.331	37.475	11.358	123.992	242.034	7.4276e-05	0.00026377	8.4335e-05	1118.8	1.2913e-06	2.6682e-06	1187.6	237.67	4.4937e-07	1.7662e-06	299.2	85.884	66.959	20.312	1.7787e-06	28.605	7.8311e-05	5.2474e-05	1.444e-05	1086	6.6571e-07	5.2814e-07	1156.4	233.85	6.0743e-07	5.208e-07	291.96	85.425	66.087	20.153	6.1331e-07	28.536	161.165	18.231	40.259	-60.191	110.098	58.467	-59.948	-53.107	14.730	90.864	-53.525	-47.071	-46.570	-39.824	70.383	-39.862	-8191	255	
440.975	1	1	0	0	0.17922	0.22451	0.10302	0.29058	0.18717	0.16418	0.42313	0.21398	0.27545	0.20803	0.07941	0.05329	0.070864	0.12967	0.077621	0.15876	-2.8104	-3.3604	-3.5167	-3.3917	-3.2833	-3.4479	-3.6188	-3.5396	-3.4646	-3.1437	-3.6521	-3.2292	-3.3271	-3.5271	-3.2208	-3.5958	-18.011	33.767	240.637	200.751	62.509	-5.019	224.997	263.184	66.482	-17.679	272.480	-44.946	-37.123	255.540	-28.349	195.089	6.6996e-05	0.00025085	7.9859e-05	1125.1	1.5356e-06	2.588e-06	1184.3	238.35	7.1927e-07	3.043e-06	298.74	85.59	66.935	20.239	1.3423e-06	28.782	7.9826e-05	5.3457e-05	1.4722e-05	1087.7	6.9605e-07	5.2771e-07	1154.4	233.72	6.56e-07	5.6742e-07	292.91	85.468	66.497	20.107	6.4144e-07	28.513	152.707	9.934	27.830	-60.205	101.596	100.974	-60.074	-53.192	67.878	94.819	-53.385	-46.891	-46.366	-39.609	100.652	-40.217	-8191	255	
441.071	1	1	0	0	0.13949	0.10706	0.37998	0.21925	0.11929	0.14542	0.17996	0.18941	0.23893	0.21025	0.033886	0.054991	0.18481	0.20556	0.10644	0.23734	-2.9979	-3.4646	-3.6333	-3.3833	-3.4917	-3.3042	-3.2792	-3.5979	-3.3312	-3.3104	-3.5042	-3.2854	-3.3542	-3.5771	-3.1021	-3.3125	117.308	249.732	156.788	228.593	268.518	235.389	221.078	247.336	156.809	256.546	257.285	243.656	29.331	-27.403	253.740	177.873	7.9227e-05	0.00040977	8.3023e-05	1119.4	1.0153e-06	2.6678e-06	1184.2	239.78	8.943e-07	1.9947e-06	298.85	86.54	66.935	20.42	1.6671e-06	28.696	7.3524e-05	5.0663e-05	1.4057e-05	1086.4	6.8805e-07	5.5186e-07	1155	234.14	6.3958e-07	5.8669e-07	292.43	85.833	66.613	20.147	6.1888e-07	28.591	162.200	37.221	44.114	-60.342	96.576	89.388	-59.992	-53.180	97.847	78.459	-53.509	-46.930	-46.554	-39.727	69.832	-39.830	-8191	255	
441.190	1	1	0	0	0.13067	0.058159	0.22994	0.42949	0.12637	0.072121	0.30799	0.037713	0.19193	0.2449	0.0048962	0.18411	0.16051	0.11081	0.21022	0.1251	-3.0687	-3.1125	-3.5417	-3.2854	-3.5	-3.4375	-3.2708	-3.6729	-3.3771	-3.275	-3.5229	-3.3375	-3.2417	-3.6312	-3.3229	-3.5333	6.588	-46.498	283.688	234.119	211.382	186.724	208.472	164.425	269.684	77.625	77.825	-69.049	120.301	199.489	205.931	203.714	7.2496e-05	0.0004084	7.6299e-05	1119.7	1.6438e-06	2.9311e-06	1188.2	238.64	1.0006e-06	3.272e-06	299.9	85.931	67.71	20.335	7.1405e-07	28.935	7.4726e-05	5.5165e-05	1.4285e-05	1087.5	7.0984e-07	5.6095e-07	1158	234.47	6.2909e-07	6.3317e-07	293.11	85.538	66.509	20.191	6.1205e-07	28.663	175.725	14.640	26.487	-60.224	51.299	89.111	-60.004	-53.092	60.006	66.244	-53.462	-46.713	-46.363	-39.553	84.309	-40.279	-8191	255	
441.286	1	1	0	0	0.3972	0.19746	0.18698	0.027231	0.10859	0.20205	0.30761	0.24629	0.044544	0.026276	0.065402	0.08248	0.11356	0.37512	0.051007	0.093759	-3.0875	-3.1521	-3.3792	-3.4458	-3.2292	-3.5625	-3.3979	-3.4437	-3.5125	-3.2625	-3.5417	-3.3479	-3.4708	-3.8396	-3.2292	-3.5042	154.762	207.530	222.264	-56.610	-47.168	22.695	-38.248	212.413	278.315	168.025	199.113	-69.560	283.453	235.774	97.801	144.445	7.5963e-05	0.00031596	8.9564e-05	1126.2	1.4179e-06	1.7863e-06	1190.5	238.37	6.3657e-07	3.625e-06	298.29	85.764	68.024	20.386	1.8608e-06	28.752	7.5635e-05	5.7829e-05	1.4798e-05	1089.9	7.2832e-07	5.5967e-07	1158.9	234.2	6.68e-07	5.857e-07	292.61	85.505	66.844	20.197	6.2264e-07	28.619	178.598	26.551	35.921	-60.053	89.369	104.443	-60.051	-53.250	87.114	104.940	-53.421	-47.047	-46.651	-39.670	85.697	-40.053	-8191	255	
441.382	1	1	0	0	0.13082	0.36239	0.3119	0.035126	0.22967	0.066778	0.15152	0.28412	0.030519	0.089335	0.088808	0.12826	0.10044	0.14278	0.18741	0.18694	-3.0854	-3.0563	-3.5167	-3.4604	-3.3333	-3.5167	-3.3417	-3.4271	-3.6083	-3.2167	-3.5854	-3.3396	-3.2208	-3.7146	-3.1854	-3.4521	95.735	-70.770	87.422	52.775	260.488	228.646	166.633	-37.575	9.238	124.276	241.821	-6.684	64.392	181.742	69.242	242.367	8.2856e-05	0.00040123	0.00010811	1124	2.1186e-06	1.9039e-06	1185.3	238.45	7.4036e-07	2.3948e-06	299.77	85.949	67.059	20.335	5.3915e-07	28.721	7.9252e-05	5.5113e-05	1.4162e-05	1089.1	7.4501e-07	5.1208e-07	1157.5	234.56	6.8498e-07	5.8202e-07	293.11	85.571	66.522	20.137	6.1052e-07	28.521	162.050	19.780	39.210	-60.126	119.228	89.346	-60.085	-53.280	96.998	75.748	-53.484	-47.295	-45.955	-39.393	36.875	-39.966	-8191	255	
441.503	1	1	0	0	0.080087	0.085312	0.092628	0.040171	0.14704	0.21044	0.38357	0.10422	0.065912	0.099909	0.22215	0.027625	0.14121	0.16672	0.031019	0.17964	-3.1937	-3.3208	-3.6271	-3.6292	-3.2271	-3.6125	-3.5208	-3.3646	-3.4958	-3.2354	-3.55	-3.3542	-3.2271	-3.4104	-3.2917	-3.4979	-24.064	6.106	23.338	144.192	288.745	154.066	217.738	-48.635	158.076	203.556	212.325	26.571	132.434	-47.864	202.185	273.476	6.0565e-05	0.00030568	9.7808e-05	1122.4	1.4502e-06	1.9307e-06	1186.1	239.29	4.9093e-07	3.1056e-06	298.77	86.006	67.304	20.314	1.6851e-06	28.827	7.7339e-05	5.4492e-05	1.5209e-05	1088.6	7.428e-07	5.0044e-07	1157.8	234.52	6.4234e-07	5.6954e-07	293.01	85.48	66.53	20.161	6.0843e-07	28.64	169.424	0.563	28.074	-60.151	91.529	68.995	-60.229	-53.046	39.502	77.438	-53.625	-46.941	-46.392	-39.559	89.452	-40.110	-8191	255	
441.574	1	1	0	0	0.09938	0.099027	0.20704	0.37787	0.099155	0.084107	0.25037	0.14194	0.23948	0.087194	0.14611	0.080088	0.1159	0.11931	0.085268	0.45689	-3.0521	-3.1312	-3.4313	-3.5396	-3.1521	-3.6937	-3.4437	-3.2938	-3.6875	-3.2562	-3.3417	-3.375	-3.3208	-3.675	-3.3125	-3.3854	75.451	52.713	229.371	273.659	88.811	11.967	221.260	263.745	110.804	176.886	279.695	204.288	52.077	263.899	232.306	39.174	6.2644e-05	0.00026844	6.7439e-05	1120.8	1.1124e-06	2.0262e-06	1192.9	239.05	9.4889e-07	2.728e-06	300.56	86.102	65.976	20.364	1.0678e-06	28.852	7.9252e-05	5.2927e-05	1.3989e-05	1089.4	7.2211e-07	5.1905e-07	1160.3	234.78	6.6814e-07	5.2717e-07	293.62	85.627	66.555	20.135	6.0217e-07	28.647	166.115	-3.233	29.280	-60.207	40.321	87.157	-60.072	-53.232	101.184	53.667	-53.803	-46.996	-46.613	-40.045	61.727	-40.310	-8191	255	
441.670	1	1	0	0	0.13381	0.17125	0.13251	0.20474	0.046538	0.074637	0.23463	0.1461	0.28755	0.093922	0.082023	0.30879	0.23171	0.12066	0.091431	0.089733	-3.0417	-3.2208	-3.3375	-3.5771	-3.2167	-3.5125	-3.4792	-3.4125	-3.5208	-3.0875	-3.2875	-3.5979	-3.2104	-3.5896	-3.3396	-3.3333	56.410	-52.707	55.318	233.043	150.586	79.172	198.653	236.438	-28.667	193.534	280.840	176.917	10.718	47.738	178.132	269.799	7.6927e-05	0.0002362	0.00011689	1125.8	1.7142e-06	3.0653e-06	1192	239.24	1.1623e-06	3.4131e-06	299.52	85.586	66.992	20.336	1.0295e-06	28.928	7.6513e-05	5.012e-05	1.561e-05	1091.1	6.8833e-07	5.4959e-07	1161.3	235.03	6.4827e-07	5.6714e-07	293.52	85.549	66.534	20.178	6.0119e-07	28.619	172.344	31.231	28.114	-60.266	110.782	82.508	-60.243	-53.339	38.443	78.529	-53.181	-46.868	-46.671	-39.869	78.764	-40.045	-8191	255	
441.791	1	1	0	0	0.11846	0.047804	0.33482	0.32234	0.20776	0.26727	0.27947	0.18315	0.056354	0.17027	0.17107	0.080841	0.15051	0.14572	0.065183	0.033842	-3.1688	-3.2625	-3.3667	-3.5521	-3.2708	-3.5083	-3.7604	-3.1979	-3.5	-3.3792	-3.4688	-3.5375	-3.2729	-3.5875	-3.4813	-3.425	217.181	240.941	196.378	244.495	-43.186	221.042	200.395	158.786	8.026	277.766	148.199	107.069	6.959	244.269	152.281	73.882	7.0219e-05	0.00032972	0.00011162	1122.9	1.2933e-06	2.35e-06	1191.8	239.78	9.0829e-07	3.5876e-06	300.42	86.062	66.697	20.367	1.5097e-06	28.919	7.7914e-05	5.3768e-05	1.5079e-05	1089.7	7.337e-07	5.0725e-07	1159.8	234.86	6.4289e-07	5.6402e-07	293.74	85.724	66.674	20.165	6.4088e-07	28.615	179.437	31.236	51.448	-60.157	92.307	103.167	-60.145	-52.969	68.628	86.077	-53.363	-47.300	-46.820	-39.649	113.634	-39.967	-8191	255	
441.887	1	1	0	0	0.073289	0.22495	0.12709	0.17694	0.24897	0.19428	0.30595	0.088209	0.16761	0.15928	0.17481	0.075183	0.14303	0.18378	0.19481	0.040425	-3.0625	-3.3688	-3.2083	-3.7792	-3.1333	-3.5792	-3.6021	-3.175	-3.6271	-3.3167	-3.2938	-3.7062	-3.3583	-3.3583	-3.5687	-3.1583	249.699	1.731	-38.692	-62.143	249.243	239.727	173.765	198.934	-11.000	86.910	184.975	-56.411	255.539	232.183	180.928	-32.177	8.8402e-05	0.0004038	6.7044e-05	1127.2	9.1132e-07	2.0378e-06	1187.7	239.36	9.1819e-07	1.7905e-06	299.97	85.48	67.099	20.372	1.9381e-06	28.854	7.6116e-05	5.2953e-05	1.5365e-05	1091.2	6.8998e-07	5.628e-07	1159	234.93	6.5489e-07	5.1796e-07	293.78	85.58	66.516	20.182	6.4255e-07	28.636	165.504	24.219	26.552	-60.103	107.106	73.931	-59.981	-53.417	79.637	87.949	-53.542	-46.982	-46.601	-39.202	70.211	-40.348	-8191	255	
441.983	1	1	0	0	0.05151	0.042432	0.18099	0.17305	0.070429	0.33296	0.076256	0.19948	0.21157	0.075937	0.31868	0.012735	0.15255	0.17419	0.19626	0.22652	-3.1	-3.2687	-3.075	-3.6937	-3.2354	-3.4667	-3.775	-3.2125	-3.6021	-3.4458	-3.4292	-3.7146	-3.3438	-3.3187	-3.6854	-3.225	149.026	52.761	233.007	255.336	265.181	278.350	51.921	-18.747	131.060	182.483	204.117	-22.035	161.393	202.154	-30.991	228.910	7.7714e-05	0.00037611	6.3694e-05	1123.5	2.0076e-06	1.9287e-06	1189.5	239.2	1.0371e-06	9.2995e-07	299.75	86.332	66.386	20.256	1.9894e-06	28.807	7.5342e-05	5.4324e-05	1.5581e-05	1090.2	7.0901e-07	5.7629e-07	1159.4	234.88	6.6028e-07	5.7479e-07	293.13	85.768	66.542	20.129	6.0217e-07	28.631	164.674	30.984	41.821	-60.199	115.128	96.997	-59.848	-53.169	156.000	148.146	-53.367	-46.827	-45.841	-39.802	86.613	-40.032	-8191	255	
442.102	1	1	0	0	0.14502	0.10706	0.040543	0.20259	0.1834	0.27421	0.2744	0.11107	0.06602	0.008364	0.22384	0.15156	0.12792	0.024031	0.13381	0.34523	-2.9896	-3.4021	-3.1708	-3.6333	-3.3896	-3.2479	-3.7021	-3.2479	-3.5146	-3.5729	-3.3292	-3.4083	-3.3312	-3.4562	-3.65	-3.3271	12.896	135.240	90.850	213.038	-23.851	221.846	227.892	104.074	63.778	-19.601	252.635	-18.859	168.477	-5.473	75.869	167.136	7.0241e-05	0.00022993	5.1183e-05	1124.5	1.0958e-06	3.5701e-06	1190.9	239	1.2086e-06	3.5619e-06	299.3	85.776	67.138	20.207	2.1338e-06	28.915	8.013e-05	5.4867e-05	1.6116e-05	1090.9	6.9881e-07	6.0143e-07	1160.5	234.88	6.4965e-07	5.5141e-07	293.44	85.61	66.425	20.134	6.0551e-07	28.62	167.806	40.269	55.466	-60.220	55.014	90.184	-60.044	-53.127	87.580	52.928	-53.383	-46.988	-46.305	-39.727	106.018	-39.963	-8191	255	
442.198	1	1	0	0	0.25989	0.26551	0.18242	0.18258	0.032373	0.053049	0.24349	0.21566	0.088893	0.17086	0.018671	0.039981	0.12263	0.089171	0.12121	0.045361	-3.0208	-3.4813	-3.1479	-3.5354	-3.425	-3.2083	-3.6833	-3.4896	-3.4667	-3.5438	-3.2229	-3.7292	-3.4292	-3.1521	-3.5083	-3.4813	259.384	285.709	-9.792	218.632	115.750	253.831	236.328	263.793	112.689	282.937	240.487	-50.193	266.964	129.686	123.523	47.522	7.7983e-05	0.000304	8.5657e-05	1124.7	8.7971e-07	2.3581e-06	1187.1	239.53	8.9011e-07	3.503e-06	299.39	86.281	66.162	20.328	1.6244e-06	28.918	8.0171e-05	5.0275e-05	1.4762e-05	1090.8	7.2708e-07	5.5427e-07	1159.1	234.61	6.8525e-07	5.6926e-07	293.98	85.522	66.414	20.124	5.9827e-07	28.579	167.546	55.592	35.839	-60.191	135.772	81.067	-60.271	-53.227	43.920	74.928	-53.409	-46.683	-45.950	-39.750	73.700	-39.912	-8191	255	
442.270	1	1	0	0	0.22059	0.12541	0.16622	0.30819	0.31678	0.24609	0.23195	0.20093	0.065542	0.25094	0.14095	0.26323	0.13094	0.13136	0.10276	0.15073	-3.025	-3.5708	-3.1979	-3.55	-3.5187	-3.3104	-3.6729	-3.3875	-3.6417	-3.4667	-3.2708	-3.5479	-3.2708	-3.1479	-3.5187	-3.3937	251.491	142.186	27.257	258.442	9.697	103.431	243.061	203.542	-16.915	225.865	147.287	233.397	248.798	219.504	-60.920	267.819	7.0571e-05	0.00035116	9.4225e-05	1123.6	1.3861e-06	2.8339e-06	1191.1	238.95	1.7365e-06	1.8398e-06	299.19	85.557	66.844	20.394	2.5322e-06	28.977	8.0213e-05	5.4078e-05	1.5018e-05	1091.9	7.2446e-07	5.9334e-07	1160.4	234.54	6.9353e-07	5.7082e-07	292.96	85.548	66.726	20.161	5.8197e-07	28.601	167.053	23.303	17.083	-60.111	85.167	90.911	-60.107	-52.958	89.496	101.568	-53.286	-47.007	-46.859	-39.763	57.397	-40.017	-8191	255	
#DATA ENDS
