BOXY.EXE: ISS Imagent and Oximeter Data Acquisition Program Version 0.80
Ascii Record File

#ACQ INFORMATION
2  Detector Channels 
16  External MUX Channels 
1  Auxiliary Channels 
5000  Waveform (CCF) Frequency (Hz)
1  Waveforms Skipped 
30  Waveforms Averaged 
1  Cycles Averaged 
16  Acquisitions per Waveform 
10.0806  Updata Rate (Hz) 

#FILE INFORMATION
TRUE -- External MUX Channel results are PARSED.
FALSE -- AC DC and Phase are NOT grouped.
TRUE -- Companion Program Settings File CREATED.
FALSE -- AC data not excluded
FALSE -- DC data not excluded
FALSE -- Phase data not excluded
FALSE -- Auxillary Chn. data not excluded
Tab delimiters

#CALIBRATION STATE
TRUE -- Waveform Calibration Values APPLIED.


#AUX CALIBRATION VALUES
Val Type	aux-1	

Term	1.0000e+00	
Factor	0.0000e+00	


#WF CALIBRATION VALUES
A = Detector Channel
Val Type	A-AC1	A-AC2	A-AC3	A-AC4	A-AC5	A-AC6	A-AC7	A-AC8	A-AC9	A-AC10	A-AC11	A-AC12	A-AC13	A-AC14	A-AC15	A-AC16	A-DC1	A-DC2	A-DC3	A-DC4	A-DC5	A-DC6	A-DC7	A-DC8	A-DC9	A-DC10	A-DC11	A-DC12	A-DC13	A-DC14	A-DC15	A-DC16	A-Ph1	A-Ph2	A-Ph3	A-Ph4	A-Ph5	A-Ph6	A-Ph7	A-Ph8	A-Ph9	A-Ph10	A-Ph11	A-Ph12	A-Ph13	A-Ph14	A-Ph15	A-Ph16	

Term	0.00000e+00	0.00000e+00	0.00000e+00	0.00000e+00	0.00000e+00	0.00000e+00	0.00000e+00	0.00000e+00	0.00000e+00	0.00000e+00	0.00000e+00	0.00000e+00	0.00000e+00	0.00000e+00	0.00000e+00	0.00000e+00	0.00000e+00	0.00000e+00	0.00000e+00	0.00000e+00	0.00000e+00	0.00000e+00	0.00000e+00	0.00000e+00	0.00000e+00	0.00000e+00	0.00000e+00	0.00000e+00	0.00000e+00	0.00000e+00	0.00000e+00	0.00000e+00	0.00000e+00	0.00000e+00	0.00000e+00	0.00000e+00	0.00000e+00	0.00000e+00	0.00000e+00	0.00000e+00	0.00000e+00	0.00000e+00	0.00000e+00	0.00000e+00	0.00000e+00	0.00000e+00	0.00000e+00	0.00000e+00	
Factor	1.00000e+00	1.00000e+00	1.00000e+00	1.00000e+00	1.00000e+00	1.00000e+00	1.00000e+00	1.00000e+00	1.00000e+00	1.00000e+00	1.00000e+00	1.00000e+00	1.00000e+00	1.00000e+00	1.00000e+00	1.00000e+00	1.00000e+00	1.00000e+00	1.00000e+00	1.00000e+00	1.00000e+00	1.00000e+00	1.00000e+00	1.00000e+00	1.00000e+00	1.00000e+00	1.00000e+00	1.00000e+00	1.00000e+00	1.00000e+00	1.00000e+00	1.00000e+00	X	X	X	X	X	X	X	X	X	X	X	X	X	X	X	X	

B = Detector Channel
Val Type	B-AC1	B-AC2	B-AC3	B-AC4	B-AC5	B-AC6	B-AC7	B-AC8	B-AC9	B-AC10	B-AC11	B-AC12	B-AC13	B-AC14	B-AC15	B-AC16	B-DC1	B-DC2	B-DC3	B-DC4	B-DC5	B-DC6	B-DC7	B-DC8	B-DC9	B-DC10	B-DC11	B-DC12	B-DC13	B-DC14	B-DC15	B-DC16	B-Ph1	B-Ph2	B-Ph3	B-Ph4	B-Ph5	B-Ph6	B-Ph7	B-Ph8	B-Ph9	B-Ph10	B-Ph11	B-Ph12	B-Ph13	B-Ph14	B-Ph15	B-Ph16	

Term	0.00000e+00	0.00000e+00	0.00000e+00	0.00000e+00	0.00000e+00	0.00000e+00	0.00000e+00	0.00000e+00	0.00000e+00	0.00000e+00	0.00000e+00	0.00000e+00	0.00000e+00	0.00000e+00	0.00000e+00	0.00000e+00	0.00000e+00	0.00000e+00	0.00000e+00	0.00000e+00	0.00000e+00	0.00000e+00	0.00000e+00	0.00000e+00	0.00000e+00	0.00000e+00	0.00000e+00	0.00000e+00	0.00000e+00	0.00000e+00	0.00000e+00	0.00000e+00	-1.18791e+02	-1.25215e+02	-1.17839e+02	-1.82053e+02	-6.42788e+01	-6.59928e+01	-1.56652e+02	-1.62015e+02	-6.99740e+01	-7.11695e+01	-1.71895e+02	-1.71978e+02	-1.87684e+02	-1.76726e+02	-7.17241e+01	-1.49677e+02	
Factor	1.79471e-05	1.88059e-04	5.59287e-05	1.76571e-01	1.47773e-06	1.73745e-06	1.86571e-01	6.64046e-02	1.16227e-06	1.86482e-06	9.07154e-02	3.26452e-02	8.76552e-02	1.00672e-02	1.43800e-06	1.46748e-02	5.01725e-06	6.20844e-06	1.73368e-06	8.55426e-02	6.61984e-08	6.81833e-08	8.52622e-02	3.23439e-02	6.62346e-08	6.80223e-08	4.26692e-02	1.55219e-02	4.23821e-02	4.92464e-03	6.68454e-08	6.95878e-03	X	X	X	X	X	X	X	X	X	X	X	X	X	X	X	X	



#DISTANCE SETTINGS
A = Detector Channel
A-1	A-2	A-3	A-4	A-5	A-6	A-7	A-8	A-9	A-10	A-11	A-12	A-13	A-14	A-15	A-16	

2.5000e+00	3.0000e+00	2.5000e+00	3.0000e+00	2.0000e+00	3.0000e+00	1.5000e+00	3.0000e+00	3.0000e+00	3.0000e+00	3.0000e+00	3.0000e+00	3.0000e+00	3.0000e+00	1.5000e+00	3.0000e+00	

B = Detector Channel
B-1	B-2	B-3	B-4	B-5	B-6	B-7	B-8	B-9	B-10	B-11	B-12	B-13	B-14	B-15	B-16	

1.0000e+01	1.0000e+01	1.0000e+01	1.4400e+00	1.0000e+01	1.0000e+01	1.5100e+00	1.9400e+00	1.0000e+01	1.0000e+01	1.9900e+00	2.4900e+00	2.4100e+00	2.9000e+00	1.0000e+01	2.9800e+00	




#DATA BEGINS
time	group	step	mark	flag	A-AC1	A-AC2	A-AC3	A-AC4	A-AC5	A-AC6	A-AC7	A-AC8	A-AC9	A-AC10	A-AC11	A-AC12	A-AC13	A-AC14	A-AC15	A-AC16	A-DC1	A-DC2	A-DC3	A-DC4	A-DC5	A-DC6	A-DC7	A-DC8	A-DC9	A-DC10	A-DC11	A-DC12	A-DC13	A-DC14	A-DC15	A-DC16	A-Ph1	A-Ph2	A-Ph3	A-Ph4	A-Ph5	A-Ph6	A-Ph7	A-Ph8	A-Ph9	A-Ph10	A-Ph11	A-Ph12	A-Ph13	A-Ph14	A-Ph15	A-Ph16	B-AC1	B-AC2	B-AC3	B-AC4	B-AC5	B-AC6	B-AC7	B-AC8	B-AC9	B-AC10	B-AC11	B-AC12	B-AC13	B-AC14	B-AC15	B-AC16	B-DC1	B-DC2	B-DC3	B-DC4	B-DC5	B-DC6	B-DC7	B-DC8	B-DC9	B-DC10	B-DC11	B-DC12	B-DC13	B-DC14	B-DC15	B-DC16	B-Ph1	B-Ph2	B-Ph3	B-Ph4	B-Ph5	B-Ph6	B-Ph7	B-Ph8	B-Ph9	B-Ph10	B-Ph11	B-Ph12	B-Ph13	B-Ph14	B-Ph15	B-Ph16	aux-1	digaux	

377.087	1	1	0	256	0.12586	0.20384	0.17143	0.30451	0.2419	0.10896	0.16202	0.05495	0.25712	0.13037	0.44464	0.11494	0.24465	0.35087	0.25552	0.089763	-2.9583	-3.3979	-3.4792	-3.2146	-3.6	-3.3604	-3.5229	-3.8875	-3.4396	-3.5729	-3.4646	-3.35	-3.4625	-3.6792	-3.3896	-3.8333	126.098	191.401	-45.358	244.305	82.626	222.308	203.165	-59.913	190.850	-5.105	248.540	163.444	223.494	253.865	130.440	128.908	0.00015387	0.00044372	0.0001577	1416.5	2.8764e-06	4.8515e-06	1408.6	380.2	1.0259e-06	4.3785e-06	436.19	144.14	124.5	44.299	3.3839e-06	54.955	0.00013529	8.9466e-05	2.2917e-05	1413.9	1.0869e-06	9.4178e-07	1409.9	382.45	1.0912e-06	9.876e-07	436.78	146.67	125.95	44.727	1.1131e-06	55.395	179.702	23.875	34.229	-63.671	84.967	66.180	-63.704	-59.175	98.322	64.656	-59.658	-55.400	-54.716	-50.209	51.530	-50.818	-8191	255	
377.183	1	1	0	0	0.097109	0.21956	0.14044	0.15733	0.19605	0.3263	0.078252	0.16398	0.099985	0.090476	0.057694	0.29159	0.2659	0.18242	0.17678	0.14439	-2.9313	-3.2354	-3.4562	-3.5958	-3.6354	-3.5896	-3.3958	-3.6479	-3.3979	-3.3688	-3.725	-3.4938	-3.4771	-3.5375	-3.1958	-3.7729	166.025	213.950	-61.637	239.592	-67.448	-10.112	-23.611	274.005	225.156	164.323	237.840	268.595	-39.680	236.445	2.783	-76.513	0.0001504	0.00057807	0.00013028	1416.5	1.8957e-06	3.0622e-06	1405	379.93	1.1032e-06	4.4702e-06	435.05	144.53	123.82	44.323	2.7535e-06	54.942	0.00013951	9.2493e-05	2.4142e-05	1414.2	1.0892e-06	9.3553e-07	1409.1	382.32	1.1152e-06	9.6875e-07	436.32	146.85	126.06	44.718	1.0815e-06	55.474	181.037	13.387	20.706	-63.632	101.573	81.627	-63.768	-59.059	41.213	79.272	-59.558	-55.286	-54.422	-50.074	56.431	-50.879	-8191	255	
377.280	1	1	0	0	0.18958	0.11373	0.075734	0.060862	0.19384	0.22142	0.070287	0.19104	0.1151	0.26359	0.20025	0.18271	0.20032	0.08972	0.078316	0.033105	-3.05	-3.3771	-3.6125	-3.4	-3.5667	-3.4542	-3.2562	-3.5542	-3.3979	-3.4875	-3.7521	-3.4437	-3.4062	-3.5438	-3.2208	-3.5563	100.513	241.178	243.742	45.230	183.159	177.488	-1.754	217.705	75.640	53.468	200.943	261.725	264.958	110.628	-43.287	205.547	0.00015262	0.00059386	0.00013498	1417.5	2.8206e-06	3.1899e-06	1411.2	379.2	2.1061e-06	4.026e-06	436.3	144.19	123.97	44.286	1.8243e-06	55.119	0.00014337	9.5287e-05	2.3358e-05	1414.9	1.137e-06	1.0156e-06	1412	382.34	1.1592e-06	1.0226e-06	436.77	146.65	126.14	44.745	1.0482e-06	55.576	176.002	6.554	14.599	-63.591	70.018	63.894	-63.667	-59.097	57.429	63.193	-59.406	-55.178	-54.509	-50.350	72.533	-50.655	-8191	255	
377.400	1	1	0	0	0.20841	0.25324	0.16332	0.16891	0.05323	0.041525	0.039951	0.1056	0.16465	0.12605	0.07652	0.34205	0.22282	0.074159	0.13315	0.12056	-3.0667	-3.3229	-3.5833	-3.6083	-3.4208	-3.5146	-3.4479	-3.7167	-3.5583	-3.2396	-3.6146	-3.4354	-3.3979	-3.65	-3.2188	-3.6417	121.702	-68.451	174.327	222.725	48.980	135.532	-67.631	255.227	184.786	10.092	258.836	241.641	184.819	103.349	18.365	-71.852	0.00016393	0.00044559	0.00014712	1420.7	2.1285e-06	3.9976e-06	1405.1	381.14	1.8623e-06	4.8317e-06	436.17	144.56	124.27	44.29	3.3948e-06	55.151	0.00014282	8.9156e-05	2.3618e-05	1416.3	1.1621e-06	9.4036e-07	1409.4	382.73	1.1267e-06	9.9894e-07	437.13	146.76	126.08	44.721	1.0609e-06	55.494	187.197	5.788	23.565	-63.559	84.313	83.262	-63.672	-59.040	22.752	65.443	-59.431	-55.233	-54.485	-50.076	61.930	-50.942	-8191	255	
377.472	1	1	0	0	0.22536	0.24028	0.23439	0.28532	0.10785	0.10117	0.2029	0.2568	0.20785	0.12721	0.20615	0.10307	0.21537	0.12149	0.27093	0.055051	-2.9521	-3.1896	-3.6396	-3.6188	-3.4562	-3.5604	-3.5125	-3.5042	-3.6646	-3.25	-3.6125	-3.4833	-3.525	-3.5271	-3.2354	-3.3771	191.087	175.827	277.302	244.559	-12.426	152.278	175.958	211.798	178.657	282.400	254.802	134.676	-61.332	200.979	89.830	-74.890	0.00015852	0.00048373	0.0001366	1419.1	1.4143e-06	3.9015e-06	1404.4	378.87	1.7621e-06	3.7753e-06	435.38	144.45	124.49	44.345	2.7489e-06	55.024	0.00014237	9.2273e-05	2.4358e-05	1415.4	1.1432e-06	9.6806e-07	1410	382.52	1.1169e-06	9.5557e-07	436.53	146.73	126.06	44.749	1.0323e-06	55.447	178.942	22.453	27.869	-63.542	85.809	72.833	-63.580	-59.136	40.922	70.841	-59.523	-55.287	-54.585	-50.409	85.415	-50.714	-8191	255	
377.568	1	1	0	0	0.1025	0.16644	0.21062	0.066351	0.33706	0.11366	0.17278	0.25138	0.10009	0.21406	0.23396	0.17763	0.10924	0.22614	0.047455	0.056603	-3.1125	-3.2021	-3.6	-3.5646	-3.4792	-3.65	-3.5979	-3.6042	-3.4917	-3.3812	-3.6354	-3.4958	-3.3479	-3.6771	-3.3187	-3.5583	98.812	80.807	178.431	270.827	232.781	30.787	207.078	257.799	-2.438	31.755	246.754	71.982	-36.386	-37.301	12.037	148.998	0.00016028	0.00059937	0.00012782	1418.3	1.6172e-06	4.1882e-06	1408.5	379.69	8.578e-07	3.9176e-06	435.26	143.74	124.1	44.382	3.0093e-06	54.932	0.00014281	9.4355e-05	2.3614e-05	1415.4	1.1448e-06	9.2431e-07	1411	382.28	1.1196e-06	9.4126e-07	436.36	146.56	126.11	44.76	1.0159e-06	55.478	179.423	3.866	26.484	-63.646	83.971	80.715	-63.638	-59.059	81.075	82.710	-59.640	-55.125	-54.621	-50.120	89.307	-50.758	-8191	255	
377.664	1	1	0	0	0.2592	0.2022	0.2168	0.29618	0.33193	0.13383	0.23307	0.17037	0.22628	0.20651	0.17616	0.15153	0.097691	0.053866	0.076175	0.27192	-3.2896	-3.1833	-3.4083	-3.5563	-3.2604	-3.5771	-3.4313	-3.5	-3.5271	-3.5354	-3.6771	-3.6646	-3.5708	-3.8146	-3.4104	-3.4	229.911	231.383	237.442	-76.338	252.995	64.539	199.334	269.581	236.388	272.552	201.141	70.355	-37.615	214.693	180.723	190.106	0.00015526	0.00047559	9.8183e-05	1417.4	2.1516e-06	3.8462e-06	1408.6	380.04	1.4014e-06	3.618e-06	434.33	144.2	123.41	44.376	2.5904e-06	55.146	0.00013767	8.6918e-05	2.4983e-05	1415	1.1623e-06	9.2118e-07	1411	382.38	1.1016e-06	9.3148e-07	436.63	146.96	125.83	44.7	1.0988e-06	55.479	179.080	13.499	26.856	-63.586	82.531	81.740	-63.594	-59.109	70.490	65.727	-59.568	-55.357	-54.540	-50.040	63.196	-50.807	-8191	255	
377.785	1	1	0	0	0.051682	0.1145	0.071796	0.44883	0.28087	0.039491	0.053113	0.25675	0.16307	0.2517	0.28088	0.11911	0.21447	0.16314	0.098145	0.10821	-3.2271	-3.4396	-3.6125	-3.7208	-3.2875	-3.6229	-3.6104	-3.4875	-3.5062	-3.2104	-3.6583	-3.5292	-3.2812	-3.825	-3.4854	-3.4229	-42.583	231.247	-57.280	264.538	230.757	212.540	88.301	186.183	70.273	25.910	238.676	5.445	257.537	247.067	54.353	95.889	0.00015247	0.00063739	0.00015136	1418.2	2.4064e-06	4.9571e-06	1403.2	380.11	1.435e-06	5.0141e-06	436.04	144.8	123.35	44.207	2.3329e-06	54.98	0.0001405	8.8871e-05	2.6392e-05	1416.2	1.1632e-06	9.5528e-07	1410.1	382.46	1.1423e-06	9.6393e-07	436.71	146.8	125.97	44.69	1.112e-06	55.461	180.884	23.238	38.430	-63.610	59.841	88.845	-63.746	-59.007	91.230	60.797	-59.406	-55.353	-54.591	-50.441	86.531	-50.848	-8191	255	
377.881	1	1	0	0	0.33368	0.13474	0.16903	0.34728	0.11935	0.011086	0.14085	0.098827	0.020222	0.1804	0.12923	0.093637	0.17935	0.43489	0.28875	0.15334	-3.3312	-3.2521	-3.3896	-3.7292	-3.2646	-3.7125	-3.5146	-3.5438	-3.6833	-3.3229	-3.6917	-3.6458	-3.2542	-3.6208	-3.4417	-3.2771	73.583	154.930	82.225	216.155	-67.875	269.570	217.582	187.935	204.166	6.457	-32.913	186.279	69.412	257.610	149.895	190.531	0.00014725	0.00058114	0.00016109	1420.2	2.2418e-06	4.0765e-06	1405.1	380.17	1.327e-06	5.9806e-06	434.58	144.43	124.27	44.21	2.3188e-06	54.905	0.00013798	9.3579e-05	2.6735e-05	1416.7	1.1218e-06	9.6195e-07	1410.1	382.88	1.0788e-06	9.8632e-07	436.57	146.64	126.12	44.617	1.0563e-06	55.274	188.217	8.015	12.116	-63.698	86.791	71.479	-63.585	-59.246	29.026	65.111	-59.649	-55.310	-54.557	-49.937	73.428	-50.554	-8191	255	
377.977	1	1	0	0	0.072968	0.21564	0.21984	0.13841	0.20793	0.058262	0.20105	0.39677	0.15248	0.18439	0.069589	0.088765	0.18628	0.19407	0.1093	0.026971	-3.1708	-3.3021	-3.2354	-3.7667	-3.2146	-3.475	-3.5375	-3.3167	-3.6604	-3.2458	-3.3979	-3.6354	-3.2438	-3.4146	-3.2271	-3.3167	241.435	86.544	118.701	233.684	240.375	91.750	187.626	261.423	-55.080	265.355	164.947	260.046	3.558	4.452	236.428	-38.748	0.00015731	0.00043113	0.00015599	1417.6	1.8742e-06	4.7372e-06	1406.1	379.68	8.7437e-07	4.9218e-06	435.01	144.49	124.31	44.479	2.3833e-06	54.715	0.00013652	9.0359e-05	2.7154e-05	1416.3	1.1011e-06	9.692e-07	1410.1	382.41	1.0769e-06	9.516e-07	436.25	146.73	125.95	44.722	1.0736e-06	55.293	180.173	3.049	44.574	-63.652	101.390	72.000	-63.634	-59.011	59.695	78.862	-59.617	-55.174	-54.521	-50.051	80.617	-50.613	-8191	255	
378.073	1	1	0	0	0.13245	0.21585	0.17059	0.023682	0.13219	0.16105	0.18591	0.041125	0.16617	0.19505	0.077274	0.45349	0.095471	0.27616	0.13094	0.15844	-3.2438	-3.4042	-3.2208	-3.7125	-3.1021	-3.5729	-3.6229	-3.2062	-3.6479	-3.2958	-3.4813	-3.5542	-3.0292	-3.4688	-3.3458	-3.3792	215.614	271.351	1.746	-43.607	147.156	133.935	-62.200	180.320	173.851	36.578	180.569	274.307	172.603	240.058	120.064	179.102	0.00016421	0.00047991	0.00016209	1415.4	2.1267e-06	3.8461e-06	1407.1	380.72	1.6401e-06	4.4561e-06	435.22	144.29	124.2	44.168	2.1614e-06	54.895	0.00013884	9.4821e-05	2.6352e-05	1415.7	1.1348e-06	9.3766e-07	1409.3	382.79	1.1246e-06	9.8916e-07	436.45	146.66	125.98	44.652	1.0474e-06	55.359	179.358	0.897	22.838	-63.711	107.343	64.251	-63.692	-59.112	97.382	75.721	-59.519	-55.312	-54.376	-50.020	71.250	-50.817	-8191	255	
378.168	1	1	0	0	0.32656	0.12842	0.16288	0.12457	0.11021	0.10584	0.16554	0.17946	0.20961	0.020444	0.034842	0.17835	0.15072	0.21014	0.39648	0.11344	-3.2562	-3.3	-3.3792	-3.6021	-3.3542	-3.5563	-3.5646	-3.3	-3.4979	-3.4625	-3.2417	-3.7854	-3.2458	-3.6229	-3.5375	-3.2104	192.853	127.768	132.836	7.998	99.541	128.893	229.844	209.453	127.253	258.250	194.188	208.160	-74.201	250.358	281.257	267.625	0.00014989	0.00047872	0.00015374	1420.2	2.4976e-06	5.1965e-06	1405	379.88	1.7648e-06	5.2052e-06	435.36	143.63	123.82	44.237	3.0386e-06	54.872	0.00014359	8.7992e-05	2.4889e-05	1416.4	1.1732e-06	9.8468e-07	1409.5	382.02	1.15e-06	9.6847e-07	435.96	146.22	125.73	44.68	1.046e-06	55.372	177.434	23.874	14.524	-63.727	87.231	78.798	-63.661	-59.179	60.469	79.602	-59.663	-55.204	-54.250	-50.154	89.502	-50.771	-8191	255	
378.266	1	1	0	0	0.049377	0.11605	0.077635	0.16185	0.11533	0.23849	0.21805	0.27342	0.15366	0.11501	0.23478	0.10039	0.20459	0.25472	0.22166	0.26956	-3.0521	-3.4042	-3.2021	-3.65	-3.325	-3.4583	-3.8021	-3.4979	-3.4771	-3.5167	-3.3417	-3.6562	-3.4729	-3.3021	-3.6188	-3.3604	94.448	53.980	-19.755	238.707	27.716	194.694	256.585	26.241	118.292	101.541	-61.118	-55.933	24.262	-57.909	104.187	191.708	0.00015186	0.00055681	0.00017474	1419.8	2.7583e-06	3.2488e-06	1404.7	379.24	1.2551e-06	3.7796e-06	434.66	143.78	123.68	44.333	3.206e-06	54.879	0.00014269	8.7461e-05	2.4394e-05	1416.6	1.1218e-06	9.7474e-07	1411.4	382.09	1.1511e-06	9.7088e-07	436.15	146.48	125.88	44.667	1.0301e-06	55.321	179.067	2.913	29.004	-63.645	76.136	93.039	-63.532	-59.167	59.535	67.193	-59.461	-55.017	-54.476	-50.041	78.975	-50.579	-8191	255	
378.384	1	1	0	0	0.23712	0.14517	0.11659	0.27303	0.064893	0.3299	0.073372	0.14746	0.16845	0.092526	0.083429	0.2728	0.10904	0.14208	0.087115	0.17322	-3.1021	-3.4604	-3.1625	-3.8354	-3.4229	-3.2521	-3.8042	-3.3812	-3.6667	-3.4667	-3.3271	-3.6083	-3.4562	-3.1562	-3.5396	-3.3042	200.177	24.498	43.949	196.591	107.131	279.092	273.283	265.361	-22.779	254.492	233.790	177.070	221.449	-3.871	17.551	106.714	0.00016628	0.00041988	0.00014904	1416.2	2.9023e-06	4.2228e-06	1403.3	380.18	2.0097e-06	4.3159e-06	435.55	144.21	123.55	44.384	2.124e-06	55.078	0.00014441	9.6011e-05	2.4698e-05	1415.4	1.1692e-06	9.6806e-07	1410.7	382.46	1.1706e-06	9.5656e-07	436.24	146.35	125.74	44.728	1.0603e-06	55.4	180.504	19.417	20.174	-63.621	67.566	83.636	-63.691	-59.091	41.344	58.599	-59.375	-55.327	-54.438	-50.123	47.769	-50.431	-8191	255	
378.481	1	1	0	0	0.11526	0.25321	0.17766	0.27682	0.19894	0.18146	0.21413	0.25068	0.12388	0.18984	0.034591	0.10492	0.029365	0.15447	0.17638	0.33928	-2.9167	-3.4792	-3.2625	-3.6125	-3.2479	-3.35	-3.9208	-3.1604	-3.4	-3.6312	-3.475	-3.8292	-3.4062	-3.2542	-3.5833	-3.4125	-61.276	83.617	62.670	197.192	211.958	226.069	214.971	226.579	234.739	206.428	139.154	-59.581	120.024	228.002	-70.545	249.135	0.00015058	0.00050403	0.00012566	1418.4	2.4972e-06	3.4668e-06	1408.5	379.14	1.49e-06	5.3481e-06	434.2	144.04	124.42	44.356	2.6511e-06	54.926	0.00014189	8.7992e-05	2.3593e-05	1415.9	1.152e-06	9.1096e-07	1410.6	381.6	1.1343e-06	8.8627e-07	435.59	146.51	125.76	44.567	9.8346e-07	55.311	182.892	25.829	35.457	-63.568	66.446	72.823	-63.659	-59.034	75.534	73.737	-59.228	-55.251	-54.453	-50.189	74.307	-50.804	-8191	255	
378.577	1	1	0	0	0.31114	0.28229	0.21584	0.19079	0.070635	0.19255	0.26875	0.16981	0.2015	0.22684	0.22016	0.16876	0.045844	0.27155	0.11444	0.30703	-3.0021	-3.5812	-3.2062	-3.5687	-3.4708	-3.2729	-3.8563	-3.4208	-3.1271	-3.7562	-3.2771	-3.5187	-3.4437	-3.3625	-3.7812	-3.4062	170.995	127.057	189.980	275.197	145.743	-72.834	168.077	252.279	279.675	113.761	281.161	-57.447	52.002	239.211	106.824	197.207	0.0001524	0.0006064	0.00015362	1420.6	1.8996e-06	4.1742e-06	1407.2	378.91	1.3935e-06	3.7231e-06	434.23	143.66	123.65	44.307	2.5325e-06	54.737	0.00014105	8.428e-05	2.3556e-05	1416.3	1.0857e-06	8.8922e-07	1410.1	381.23	1.0985e-06	8.4589e-07	435.54	146.32	125.46	44.613	9.8165e-07	55.239	180.530	24.517	28.278	-63.524	67.381	73.846	-63.507	-59.068	87.871	64.016	-59.657	-55.421	-54.467	-50.037	68.153	-50.798	-8191	255	
378.697	1	1	0	0	0.14003	0.098838	0.145	0.14135	0.063438	0.038726	0.21697	0.27062	0.19453	0.15491	0.23134	0.32223	0.14656	0.054126	0.15928	0.18872	-3.0438	-3.4646	-3.3625	-3.6312	-3.575	-3.3271	-3.7521	-3.5333	-3.2729	-3.5771	-3.4229	-3.5062	-3.6542	-3.275	-3.5187	-3.6208	84.081	74.244	45.445	244.632	275.291	118.991	221.890	269.420	47.060	113.287	244.635	233.163	68.279	257.462	263.113	234.018	0.00016518	0.00046262	0.0001613	1421	2.191e-06	4.3105e-06	1404.9	379	1.8174e-06	4.1592e-06	435.19	143.89	124	44.199	2.1719e-06	54.962	0.00013797	8.0852e-05	2.4514e-05	1416.8	1.0465e-06	8.9164e-07	1409.2	381.82	1.0211e-06	8.5255e-07	435.57	146.3	125.27	44.547	1.0023e-06	55.304	181.780	28.227	16.299	-63.537	78.515	76.310	-63.641	-59.162	61.285	58.438	-59.534	-55.230	-54.841	-50.105	68.818	-50.725	-8191	255	
378.769	1	1	0	0	0.16917	0.29647	0.19367	0.10601	0.13802	0.097498	0.2137	0.15843	0.18991	0.13983	0.13207	0.11542	0.046087	0.13954	0.12502	0.17337	-2.85	-3.5042	-3.2896	-3.4521	-3.4875	-3.3	-3.55	-3.5042	-3.1	-3.5333	-3.4458	-3.375	-3.7313	-3.3312	-3.5979	-3.4729	254.528	167.440	275.948	223.565	-74.366	125.395	134.399	203.765	-13.815	74.908	25.399	-39.797	186.151	-30.535	113.455	167.765	0.00015204	0.00047099	0.00016219	1419.3	2.0604e-06	5.3338e-06	1403.6	378.34	1.3462e-06	3.8664e-06	433.49	143.9	123.69	44.158	3.329e-06	54.668	0.00013521	7.9882e-05	2.4712e-05	1415.1	1.0192e-06	9.0286e-07	1407.9	381.51	1.0359e-06	9.0597e-07	435.33	146.2	125.61	44.55	1.0333e-06	55.206	175.025	14.105	13.247	-63.470	82.805	91.889	-63.582	-58.951	47.472	81.533	-59.489	-55.029	-54.613	-49.983	92.652	-50.751	-8191	255	
378.865	1	1	0	0	0.13324	0.080318	0.24953	0.30333	0.18885	0.12738	0.15642	0.004788	0.19169	0.12811	0.21822	0.1688	0.25801	0.27001	0.14138	0.41957	-2.7604	-3.4125	-3.3187	-3.3771	-3.6854	-3.1771	-3.6354	-3.6833	-3.2313	-3.5833	-3.4333	-3.2667	-3.5646	-3.2958	-3.4583	-3.5563	89.074	89.028	93.001	232.318	128.251	215.931	80.733	-1.790	215.995	111.689	-13.921	52.392	276.365	33.900	0.118	200.802	0.00016884	0.00045305	0.00013935	1414.6	2.1578e-06	3.722e-06	1405.7	378.26	1.927e-06	5.7998e-06	433.46	143.89	123.61	44.131	3.4291e-06	54.727	0.00013628	8.5301e-05	2.369e-05	1413.9	1.0331e-06	9.0101e-07	1408.3	381.06	1.0655e-06	9.4097e-07	435.06	146.23	125.65	44.552	1.0751e-06	55.203	179.144	11.692	31.747	-63.640	66.757	84.870	-63.657	-59.135	22.887	67.914	-59.662	-55.221	-54.799	-50.126	76.794	-50.699	-8191	255	
378.961	1	1	0	0	0.36046	0.19497	0.10208	0.4901	0.10717	0.098724	0.15059	0.092089	0.21758	0.26445	0.091055	0.30391	0.12519	0.06499	0.063373	0.234	-2.8146	-3.4479	-3.3729	-3.5438	-3.7812	-3.1792	-3.55	-3.5604	-3.2375	-3.5292	-3.4938	-3.2896	-3.5896	-3.2479	-3.2354	-3.7333	-71.387	269.791	211.394	242.900	184.029	270.148	255.222	266.165	278.932	134.442	133.867	260.602	-64.603	154.749	-42.627	159.414	0.00017405	0.00054184	0.0001429	1415	1.9624e-06	4.1764e-06	1405.9	378.61	8.132e-07	4.8897e-06	433.7	143.33	123.88	44.191	2.1328e-06	54.575	0.00013429	8.697e-05	2.3816e-05	1414.6	1.0524e-06	8.8411e-07	1407.9	381.16	1.0425e-06	8.7154e-07	434.16	145.93	125.52	44.484	9.5603e-07	55.162	184.865	14.596	27.382	-63.550	79.029	65.614	-63.542	-59.171	46.620	61.254	-59.530	-55.227	-54.962	-50.251	36.504	-50.521	-8191	255	
379.080	1	1	0	0	0.26707	0.2394	0.14102	0.31697	0.24733	0.13493	0.25099	0.16065	0.076819	0.12746	0.30122	0.23948	0.18362	0.018097	0.099458	0.16481	-2.7792	-3.5229	-3.3438	-3.375	-3.4667	-3.3292	-3.6042	-3.6146	-3.1396	-3.3896	-3.6104	-3.3229	-3.5292	-3.3021	-3.3271	-3.7021	220.156	-33.727	-35.210	237.277	264.301	22.540	235.897	107.641	37.061	-31.723	208.916	279.425	-62.147	260.197	222.127	191.863	0.00014175	0.000408	0.00013461	1416	1.9053e-06	3.998e-06	1400.5	378.8	1.8029e-06	5.2108e-06	433.84	144.04	123.49	44.03	2.353e-06	54.729	0.00013237	8.2404e-05	2.2852e-05	1412.6	1.0577e-06	9.0243e-07	1407.1	380.93	1.0701e-06	8.5056e-07	434.07	146.1	125.52	44.439	9.6313e-07	55.076	181.902	-0.966	25.535	-63.668	80.490	80.987	-63.632	-59.095	37.168	45.003	-59.675	-55.130	-54.802	-50.027	78.422	-50.606	-8191	255	
379.176	1	1	0	0	0.027891	0.18416	0.38964	0.28017	0.063314	0.16586	0.10476	0.28369	0.10675	0.05983	0.15199	0.22691	0.29151	0.04167	0.12667	0.12093	-3.0312	-3.3354	-3.3542	-3.3333	-3.5542	-3.4708	-3.3708	-3.575	-3.3667	-3.6688	-3.5167	-3.2104	-3.3604	-3.4458	-3.2333	-3.7062	128.791	116.399	12.944	204.507	203.243	86.955	179.644	186.633	169.281	69.374	266.107	213.772	232.095	186.093	-45.274	159.263	0.00015339	0.00051216	0.0001473	1416.4	2.6439e-06	4.4133e-06	1403.5	377.66	1.3149e-06	5.1847e-06	432.25	143.32	122.89	44.074	2.7761e-06	54.756	0.00013552	8.3271e-05	2.0714e-05	1413.2	1.0517e-06	8.834e-07	1407.1	380.2	1.0684e-06	8.9534e-07	433.76	145.9	124.92	44.334	9.7511e-07	55.056	178.678	24.917	17.537	-63.568	100.689	63.323	-63.582	-59.126	50.932	57.689	-59.586	-55.495	-54.336	-50.286	62.275	-50.931	-8191	255	
379.272	1	1	0	0	0.18845	0.18944	0.2259	0.27675	0.10374	0.16225	0.22838	0.27067	0.1957	0.21483	0.16909	0.16934	0.14388	0.075772	0.1521	0.21866	-2.8	-3.3979	-3.4125	-3.4521	-3.4667	-3.4333	-3.6167	-3.6	-3.3542	-3.2458	-3.5396	-3.1937	-3.2833	-3.5417	-3.1479	-3.7438	152.828	-70.734	-10.633	273.318	256.122	204.056	186.068	201.768	133.759	61.362	103.784	233.474	122.140	171.445	69.532	144.925	0.00017059	0.00053698	0.00015599	1411.6	2.3681e-06	4.2369e-06	1403.1	378.9	1.5645e-06	4.4854e-06	432.93	143.38	123.3	44.045	2.4835e-06	54.806	0.00013272	8.6828e-05	2.1462e-05	1411.4	1.084e-06	8.6863e-07	1406.6	380.84	1.0345e-06	8.8571e-07	433.86	145.8	125.17	44.38	9.2497e-07	55.04	184.536	31.874	22.848	-63.724	76.997	77.032	-63.565	-59.082	35.070	63.438	-59.559	-55.354	-54.677	-50.142	86.185	-50.711	-8191	255	
379.346	1	1	0	0	0.13071	0.076374	0.050123	0.20925	0.041952	0.28202	0.15161	0.058594	0.12213	0.063785	0.030837	0.17922	0.12651	0.18395	0.022691	0.16979	-2.8646	-3.3104	-3.4625	-3.4521	-3.4479	-3.5083	-3.3896	-3.6125	-3.3187	-3.3208	-3.7167	-3.3646	-3.4542	-3.7542	-3.2021	-3.6292	214.424	81.208	-73.248	261.634	116.540	-5.538	189.091	196.275	126.204	109.401	-42.559	-73.016	-22.970	-1.344	218.758	176.396	0.00015869	0.00057906	0.00015192	1410.7	2.2188e-06	4.3108e-06	1402	377.53	1.0246e-06	5.0566e-06	433.47	143.37	123.26	44.092	2.5978e-06	54.41	0.00013376	8.1563e-05	2.2133e-05	1412.6	1.0404e-06	8.1238e-07	1405.8	380.09	1.0389e-06	8.1768e-07	434.19	145.8	125.22	44.332	9.7009e-07	54.985	181.623	22.150	21.551	-63.440	75.250	68.339	-63.537	-59.187	48.508	63.825	-59.482	-55.222	-54.709	-50.059	56.879	-50.817	-8191	255	
379.465	1	1	0	0	0.20167	0.17261	0.22067	0.40079	0.10026	0.21067	0.051088	0.14882	0.12345	0.11795	0.26737	0.1312	0.039247	0.15537	0.16852	0.30021	-3.0417	-3.3354	-3.6188	-3.5271	-3.4146	-3.5583	-3.4396	-3.5458	-3.5708	-3.2396	-3.725	-3.4729	-3.2583	-3.6167	-3.1896	-3.6146	148.225	214.410	-16.203	237.079	56.293	-47.395	-74.858	279.807	-59.943	184.721	222.140	252.649	106.243	-46.329	190.953	251.114	0.00015882	0.00057812	0.00015213	1415.7	2.4393e-06	4.0342e-06	1401.9	376.45	6.3047e-07	4.5949e-06	432.14	143.7	123.67	43.937	2.6877e-06	54.48	0.00013371	7.9727e-05	2.2422e-05	1412.7	1.0523e-06	8.209e-07	1405	379.84	1.0075e-06	8.5878e-07	432.95	145.76	125.08	44.364	9.6619e-07	55.02	180.324	15.987	25.294	-63.655	71.877	76.558	-63.455	-59.161	4.189	53.674	-59.405	-55.179	-54.543	-50.011	90.329	-50.746	-8191	255	
379.561	1	1	0	0	0.19268	0.13154	0.29572	0.25162	0.25525	0.1471	0.15124	0.22101	0.050769	0.095604	0.25593	0.10315	0.16822	0.15215	0.1739	0.086519	-3.1667	-3.2042	-3.4104	-3.3729	-3.4896	-3.5667	-3.4208	-3.575	-3.4208	-3.3375	-3.6729	-3.3042	-3.2708	-3.6542	-3.3271	-3.5958	138.965	264.664	135.234	242.350	10.675	11.806	172.671	232.128	206.745	231.482	233.340	234.885	120.289	269.736	0.350	131.804	0.0001495	0.00048325	0.00016145	1413.4	2.3789e-06	3.6705e-06	1399.6	377.01	1.433e-06	3.9721e-06	432.18	142.87	122.81	43.923	2.2585e-06	54.37	0.00013239	7.8614e-05	2.2664e-05	1411.5	1.0123e-06	7.9746e-07	1404.6	379.77	1.017e-06	8.286e-07	432.69	145.67	124.99	44.349	1.006e-06	54.957	175.158	24.284	21.681	-63.614	91.164	72.006	-63.739	-59.143	46.115	65.439	-59.488	-55.274	-54.379	-50.133	54.210	-50.746	-8191	255	
379.657	1	1	0	0	0.11769	0.41967	0.054516	0.28561	0.08456	0.1582	0.14611	0.057066	0.086347	0.19372	0.19736	0.16932	0.21658	0.15647	0.016447	0.14035	-3.0604	-3.1375	-3.5729	-3.4292	-3.2271	-3.5208	-3.4729	-3.4979	-3.4271	-3.3	-3.6667	-3.3729	-3.1958	-3.7	-3.3563	-3.4875	133.025	234.668	128.995	279.617	-66.521	-45.527	253.774	234.336	207.619	179.300	185.977	173.723	169.862	-44.480	255.973	238.205	0.00017369	0.00043482	0.00012299	1412.5	2.4637e-06	4.7575e-06	1397.8	375.98	1.3031e-06	4.7156e-06	433.48	143.12	122.88	43.815	3.0626e-06	54.554	0.00013322	8.252e-05	2.3936e-05	1408.4	1.0632e-06	8.8567e-07	1402.5	379.46	1.0167e-06	9.2581e-07	433.1	145.47	125.13	44.34	9.7469e-07	54.953	180.159	25.831	21.897	-63.709	77.430	84.403	-63.611	-58.993	31.176	77.406	-59.711	-55.319	-54.738	-50.039	73.627	-50.509	-8191	255	
379.778	1	1	0	0	0.13128	0.34854	0.33928	0.01119	0.23097	0.17723	0.19767	0.25623	0.15922	0.11162	0.069676	0.13054	0.057896	0.2709	0.11438	0.095237	-3.0687	-3.0917	-3.4125	-3.4938	-3.3021	-3.5396	-3.4375	-3.5583	-3.5729	-3.1604	-3.7729	-3.5187	-3.3542	-3.6875	-3.2521	-3.4479	260.626	205.432	228.716	58.489	261.752	17.994	102.679	179.176	67.899	78.489	279.476	258.019	106.008	200.617	229.548	-48.995	0.0001648	0.00047567	0.00014429	1411.6	2.8327e-06	3.834e-06	1398.8	378.02	1.0282e-06	3.4508e-06	432.33	143.02	122.72	44.019	3.5692e-06	54.556	0.00013379	8.8871e-05	2.3629e-05	1407.9	1.0895e-06	8.9419e-07	1402.5	380.01	1.0232e-06	9.047e-07	433.16	145.46	125.03	44.397	1.0269e-06	54.993	174.478	10.645	16.674	-63.468	82.273	75.018	-63.615	-59.097	56.381	78.174	-59.474	-55.285	-54.702	-49.992	65.097	-50.534	-8191	255	
379.874	1	1	0	0	0.22298	0.17982	0.21445	0.21529	0.12806	0.074568	0.17294	0.084229	0.050034	0.11435	0.13488	0.037833	0.078907	0.045148	0.21843	0.38217	-3.2083	-3.2271	-3.5917	-3.6146	-3.3771	-3.5583	-3.4813	-3.425	-3.6188	-3.3521	-3.6104	-3.4979	-3.2458	-3.5938	-3.3063	-3.5563	58.214	245.007	118.421	273.237	12.608	273.443	176.818	175.258	107.943	6.455	237.141	-76.304	54.120	-21.023	-65.662	254.271	0.00015157	0.00043528	0.00014073	1408.2	1.2641e-06	3.7177e-06	1401.4	375.74	1.2424e-06	5.2241e-06	431.21	143.11	122.95	43.748	2.4132e-06	54.622	0.00013346	8.6905e-05	2.4889e-05	1406.8	1.1012e-06	9.0613e-07	1404.7	378.98	1.0363e-06	9.2298e-07	432.43	145.41	124.88	44.192	1.0383e-06	54.951	179.493	9.307	50.537	-63.647	74.547	68.686	-63.697	-59.171	40.924	71.535	-59.329	-55.114	-54.499	-50.273	76.155	-50.473	-8191	255	
379.946	1	1	0	0	0.39433	0.078838	0.074693	0.17736	0.057175	0.094173	0.37438	0.19547	0.11176	0.21871	0.16601	0.38452	0.16686	0.18027	0.13824	0.31999	-3.2438	-3.3208	-3.3688	-3.6917	-3.2771	-3.5167	-3.6854	-3.3021	-3.575	-3.2417	-3.5083	-3.6	-3.2146	-3.5708	-3.3896	-3.2167	254.235	5.477	174.005	-71.197	-10.582	-21.390	173.759	240.094	-52.950	154.063	54.316	272.103	249.077	-74.224	0.259	237.332	0.00015364	0.00050045	0.00014882	1407.8	2.2458e-06	4.3409e-06	1392.9	377.1	5.9295e-07	4.9962e-06	430.84	142.68	122.18	43.915	2.1019e-06	54.373	0.00013798	8.7953e-05	2.3647e-05	1405.9	1.0883e-06	9.0712e-07	1398.4	379.12	1.0384e-06	9.1589e-07	432.13	144.98	124.74	44.262	9.6578e-07	54.805	181.541	8.856	12.468	-63.620	99.238	87.152	-63.436	-59.088	62.894	66.270	-59.430	-55.114	-54.804	-50.128	67.231	-50.714	-8191	255	
380.066	1	1	0	0	0.26431	0.08048	0.052295	0.20604	0.092744	0.16948	0.15609	0.14828	0.15721	0.042996	0.1002	0.16706	0.15947	0.036307	0.12057	0.069838	-3.1562	-3.3521	-3.2208	-3.6	-3.2979	-3.5354	-3.6979	-3.4313	-3.5333	-3.5146	-3.5104	-3.6458	-3.35	-3.5687	-3.3542	-3.475	179.489	103.198	267.117	-69.343	82.271	232.616	188.769	245.257	23.179	-4.521	-16.834	243.661	99.695	117.283	203.857	130.353	0.00015519	0.00045953	0.00014288	1411.9	3.142e-06	3.0492e-06	1393.4	376.92	1.6237e-06	4.7351e-06	430.93	142.69	123.32	43.812	2.0674e-06	54.212	0.00013747	8.7151e-05	2.3867e-05	1405.2	1.1324e-06	9.0655e-07	1398.2	378.69	1.1115e-06	8.6643e-07	432.23	145.11	124.96	44.18	9.3263e-07	54.781	180.569	20.131	11.528	-63.671	97.661	88.894	-63.710	-58.867	67.632	76.747	-59.635	-55.172	-54.500	-49.786	64.295	-50.686	-8191	255	
380.161	1	1	0	0	0.21702	0.20284	0.10527	0.26719	0.27382	0.12721	0.16774	0.15003	0.2623	0.12767	0.17855	0.27034	0.26567	0.11076	0.20001	0.18323	-3.1813	-3.175	-3.3458	-3.7896	-3.3604	-3.6646	-3.6688	-3.4854	-3.425	-3.4104	-3.5229	-3.7313	-3.2958	-3.4958	-3.5208	-3.4375	191.125	84.893	259.275	279.135	-15.842	64.287	168.406	234.713	206.485	205.124	135.607	202.096	264.658	268.475	91.919	238.762	0.00014835	0.00042182	0.00016096	1407.9	2.0521e-06	3.6697e-06	1393	375.89	1.2726e-06	4.241e-06	429.77	142.94	123.36	43.799	2.0845e-06	54.526	0.00013671	8.3361e-05	2.3228e-05	1404.4	1.0706e-06	8.7871e-07	1396.9	378.95	1.0887e-06	9.0087e-07	431.7	145.24	124.82	44.22	9.8792e-07	54.917	182.337	0.508	33.776	-63.538	78.628	67.019	-63.738	-59.065	28.587	63.262	-59.748	-55.424	-54.518	-49.852	69.307	-50.616	-8191	255	
380.257	1	1	0	0	0.1321	0.23806	0.1314	0.2514	0.23608	0.17689	0.18918	0.16933	0.17538	0.061817	0.26721	0.36407	0.073726	0.17556	0.14312	0.10152	-3.2208	-3.475	-3.3417	-3.7708	-3.3229	-3.4292	-3.675	-3.3563	-3.6271	-3.5312	-3.4458	-3.7562	-3.3458	-3.5479	-3.5625	-3.2021	106.884	99.570	-11.952	242.342	48.517	-8.294	218.570	210.364	158.012	-40.544	204.471	200.980	239.618	228.796	-2.119	-13.160	0.00015029	0.00044608	0.00010254	1409	2.4222e-06	3.8256e-06	1394.9	375.92	1.1995e-06	5.6697e-06	430.67	142.83	123.11	43.796	3.0339e-06	54.487	0.00013656	8.3685e-05	2.3025e-05	1405.4	1.0938e-06	8.7914e-07	1399.4	378.67	1.1143e-06	8.6771e-07	431.98	145.16	124.79	44.204	9.9084e-07	54.928	182.468	14.386	23.058	-63.676	91.299	70.149	-63.619	-59.124	17.209	69.227	-59.319	-55.172	-54.842	-49.946	71.328	-50.868	-8191	255	
380.377	1	1	0	0	0.13935	0.06432	0.29954	0.20428	0.28222	0.099181	0.25157	0.072283	0.15391	0.12198	0.35583	0.17001	0.19319	0.25042	0.12764	0.19248	-3.0792	-3.4437	-3.1917	-3.6667	-3.2771	-3.5042	-3.5833	-3.3021	-3.3146	-3.5333	-3.3104	-3.7667	-3.4792	-3.3729	-3.5083	-3.2333	-36.879	5.462	-48.405	277.800	53.408	4.883	242.457	-0.330	193.754	90.250	-42.168	199.626	195.873	157.766	218.974	180.562	0.00016189	0.00040502	0.00011472	1405.7	1.5058e-06	4.0428e-06	1395.4	376.37	7.7795e-07	3.412e-06	430.27	142.76	122.26	43.852	1.836e-06	54.406	0.00013803	8.3154e-05	2.3369e-05	1403.1	1.0935e-06	8.601e-07	1397.6	378.84	1.0399e-06	8.867e-07	431.66	145.14	124.3	44.257	9.8555e-07	54.833	185.640	10.855	17.237	-63.664	102.238	76.077	-63.633	-59.085	24.777	65.328	-59.527	-55.202	-54.484	-49.954	66.949	-50.601	-8191	255	
380.473	1	1	0	0	0.10453	0.14594	0.07577	0.023153	0.1002	0.17303	0.44417	0.16121	0.12906	0.11787	0.14797	0.36415	0.28384	0.17444	0.25077	0.16295	-3.0542	-3.3333	-3.1292	-3.7313	-3.4396	-3.1917	-3.5646	-3.4125	-3.5021	-3.5438	-3.3958	-3.6333	-3.45	-3.3875	-3.5875	-3.3458	43.137	13.767	245.560	-47.166	188.476	186.392	210.828	241.016	120.904	121.054	165.452	262.485	-67.098	262.185	243.237	3.906	0.00015651	0.00055865	0.00015319	1403.4	2.4252e-06	3.5213e-06	1393.6	376.67	1.2748e-06	2.4011e-06	430.26	142.52	123.08	43.744	2.7971e-06	54.612	0.00013332	8.3892e-05	2.3853e-05	1403.7	1.0564e-06	8.5172e-07	1397.1	378.76	1.0335e-06	8.4971e-07	431.48	145.05	124.7	44.197	1.0371e-06	54.864	174.756	29.471	28.168	-63.481	88.050	79.235	-63.421	-59.032	41.970	69.734	-59.448	-55.380	-54.374	-50.039	75.627	-50.620	-8191	255	
380.570	1	1	0	0	0.15351	0.27141	0.046691	0.2946	0.10339	0.01451	0.26582	0.15237	0.14644	0.18269	0.14219	0.011791	0.071098	0.094296	0.18191	0.14402	-3.0729	-3.5479	-3.2125	-3.7646	-3.5271	-3.4875	-3.6604	-3.3625	-3.4875	-3.6042	-3.3042	-3.5771	-3.4667	-3.425	-3.5708	-3.3	178.466	282.297	229.965	140.482	9.208	262.300	145.632	212.838	151.702	-71.551	69.440	232.938	114.377	137.905	-27.798	60.617	0.00016253	0.00040211	0.0001261	1405.6	3.2012e-06	3.0786e-06	1393.5	374.12	1.6969e-06	4.0497e-06	428.88	142.64	122.6	43.59	2.0617e-06	54.221	0.00013411	7.9934e-05	2.4152e-05	1401.1	1.011e-06	8.8596e-07	1394.4	377.2	1.0288e-06	8.8316e-07	430.62	144.77	124.19	44.056	9.9349e-07	54.573	178.388	17.377	25.765	-63.628	72.612	67.799	-63.568	-58.958	73.417	73.639	-59.556	-55.112	-54.522	-50.085	69.890	-51.034	-8191	255	
380.641	1	1	0	0	0.18845	0.049175	0.032846	0.19731	0.030921	0.12092	0.11513	0.37678	0.031309	0.22131	0.14116	0.31653	0.26411	0.20911	0.24294	0.10043	-2.9708	-3.5604	-3.2417	-3.5812	-3.3292	-3.3729	-3.8604	-3.4271	-3.3542	-3.5167	-3.4646	-3.5625	-3.3667	-3.3187	-3.6708	-3.3812	49.413	150.588	-47.898	-69.876	239.742	-15.229	262.155	-44.142	40.305	17.554	-56.026	234.777	165.210	-36.503	192.167	137.596	0.00015802	0.00048037	0.00014898	1403.7	2.1655e-06	3.395e-06	1386.8	374.83	1.3356e-06	4.1583e-06	428.46	142.45	122.61	43.768	2.2663e-06	54.285	0.0001338	8.0619e-05	2.2986e-05	1398.5	9.8787e-07	8.8922e-07	1391.2	376.99	1.0035e-06	8.5935e-07	429.8	144.79	124.06	44.058	9.4851e-07	54.639	183.476	19.537	36.462	-63.543	95.385	79.818	-63.542	-59.000	43.053	76.634	-59.548	-55.251	-54.203	-50.127	85.916	-50.949	-8191	255	
380.762	1	1	0	0	0.15449	0.19141	0.18286	0.31739	0.20605	0.23021	0.14968	0.35004	0.2085	0.13407	0.05133	0.20363	0.18388	0.089636	0.34232	0.35586	-2.8875	-3.5229	-3.1875	-3.5708	-3.4396	-3.05	-3.6917	-3.4208	-3.5062	-3.6646	-3.2917	-3.6188	-3.4333	-3.1542	-3.5771	-3.5375	171.493	22.560	227.031	-57.058	-65.221	194.394	190.559	241.961	70.115	192.074	-15.908	36.152	232.596	247.760	-37.032	175.197	0.00015337	0.00049244	0.0001438	1397.8	1.8979e-06	4.959e-06	1387.8	374.24	1.4929e-06	2.6306e-06	428.2	141.93	121.26	43.535	2.8574e-06	54.237	0.00012995	8.481e-05	2.2628e-05	1397.1	1.0077e-06	8.6976e-07	1390.3	376.87	1.0471e-06	8.6828e-07	429.16	144.34	123.86	43.941	9.5603e-07	54.633	174.642	16.426	32.252	-63.536	73.175	77.584	-63.662	-59.054	62.058	68.436	-59.628	-55.132	-54.593	-50.081	72.663	-50.876	-8191	255	
380.858	1	1	0	0	0.064322	0.0356	0.211	0.36533	0.21295	0.087918	0.019479	0.29927	0.20405	0.22373	0.1144	0.11881	0.15884	0.15502	0.13495	0.081027	-2.9375	-3.4458	-3.3229	-3.5438	-3.6771	-3.2604	-3.6646	-3.5229	-3.2375	-3.6083	-3.3187	-3.5583	-3.5667	-3.4042	-3.4479	-3.4813	109.297	134.922	-30.978	250.066	103.098	-48.456	62.478	178.477	126.664	162.508	-71.967	-76.680	124.408	218.663	154.737	132.246	0.00016372	0.00047919	0.00012337	1399	2.0283e-06	3.8855e-06	1384.4	373.28	1.5624e-06	4.3616e-06	428.6	142.89	121.75	43.652	2.9565e-06	53.959	0.00013172	7.8524e-05	2.2202e-05	1396.7	1.0141e-06	8.8169e-07	1390	376.48	1.016e-06	8.5878e-07	429.24	144.64	123.92	44.029	9.1996e-07	54.494	179.941	9.882	32.462	-63.506	94.584	86.934	-63.543	-58.957	47.296	63.913	-59.577	-55.059	-54.587	-49.773	75.181	-50.647	-8191	255	
380.954	1	1	0	0	0.088404	0.10675	0.055124	0.2305	0.13573	0.11679	0.2004	0.1546	0.14912	0.14762	0.19363	0.07953	0.067208	0.21849	0.1296	0.094305	-2.7604	-3.4458	-3.3042	-3.6771	-3.6979	-3.2354	-3.6792	-3.5458	-3.3333	-3.625	-3.4437	-3.325	-3.4896	-3.3187	-3.4917	-3.5646	109.769	14.876	-48.817	252.958	216.324	76.685	171.367	206.484	152.313	-41.647	228.407	213.333	274.806	235.036	180.584	-58.134	0.00015033	0.00046162	0.0001641	1396	3.0715e-06	4.3397e-06	1384.3	372.59	1.8819e-06	4.6624e-06	430.16	142.2	122.55	43.568	3.2805e-06	54.347	0.000133	8.1822e-05	2.2516e-05	1394.8	1.0313e-06	8.8141e-07	1388.9	375.98	1.0432e-06	8.5821e-07	429.51	144.43	124.06	44.007	9.6884e-07	54.52	181.278	16.881	17.256	-63.563	67.837	58.243	-63.496	-58.912	63.474	74.659	-59.499	-55.197	-54.410	-50.035	77.834	-50.741	-8191	255	
381.050	1	1	0	0	0.14941	0.075862	0.17218	0.27047	0.11717	0.18494	0.16036	0.18536	0.24112	0.26725	0.18408	0.016228	0.16783	0.071649	0.19143	0.21085	-2.925	-3.4	-3.3021	-3.5875	-3.6875	-3.1833	-3.4875	-3.6125	-3.2583	-3.4833	-3.5125	-3.2646	-3.4667	-3.2542	-3.4583	-3.3979	-56.908	256.594	152.832	267.154	-30.520	37.624	211.890	201.747	-43.687	8.909	277.494	-9.108	173.071	149.495	119.647	205.418	0.00015167	0.00039848	0.0001576	1398.8	2.5515e-06	4.7237e-06	1388.3	374.11	1.5411e-06	5.2262e-06	428.28	142.24	122.17	43.513	2.3729e-06	54.272	0.00013491	8.2857e-05	2.2838e-05	1395.3	1.068e-06	8.5939e-07	1389.9	376.36	1.0624e-06	8.6927e-07	429.54	144.47	124.04	44.019	9.2832e-07	54.684	176.986	-2.479	21.153	-63.558	81.461	56.293	-63.486	-58.942	64.874	89.524	-59.483	-55.005	-54.731	-49.857	66.892	-50.607	-8191	255	
381.147	1	1	0	0	0.064923	0.15213	0.07147	0.23819	0.088421	0.214	0.11948	0.1414	0.021153	0.06356	0.062494	0.25058	0.02369	0.3154	0.04236	0.2137	-2.9208	-3.3146	-3.4167	-3.3729	-3.5312	-3.4313	-3.5458	-3.6479	-3.2375	-3.6667	-3.5792	-3.3521	-3.5667	-3.3292	-3.2979	-3.7021	-3.534	239.882	-20.247	276.820	141.157	-57.888	174.261	165.762	16.553	-27.769	105.498	-66.018	-68.157	269.846	-31.496	81.042	0.0001616	0.00055655	0.00014679	1398.8	2.1893e-06	4.0329e-06	1384.2	373.06	2.0549e-06	5.422e-06	427.37	142.13	121.83	43.592	3.2701e-06	54.028	0.00013409	8.4849e-05	2.2895e-05	1396.5	1.075e-06	8.5186e-07	1388.8	376.29	1.0836e-06	8.6771e-07	429.45	144.47	123.64	43.975	9.953e-07	54.505	179.267	18.462	18.736	-63.519	76.246	55.766	-63.367	-59.151	49.671	64.788	-59.454	-55.207	-54.488	-50.172	62.492	-50.846	-8191	255	
381.241	1	1	0	0	0.10662	0.2166	0.16014	0.1916	0.12995	0.15731	0.11942	0.1344	0.082087	0.085358	0.050044	0.21456	0.26887	0.32377	0.093454	0.14343	-2.9354	-3.5396	-3.4562	-3.3542	-3.5125	-3.3479	-3.4854	-3.725	-3.1979	-3.4979	-3.5833	-3.2313	-3.5687	-3.4833	-3.3396	-3.7812	124.685	169.555	-5.112	241.718	-11.085	138.582	177.156	268.749	38.522	161.963	-59.577	-69.139	242.960	-62.133	93.582	107.961	0.00014981	0.00043004	0.00013166	1392.1	3.7747e-06	3.6384e-06	1387.4	374.13	7.518e-07	3.8236e-06	428.22	142.27	122.1	43.609	2.6756e-06	54.17	0.00013267	8.2598e-05	2.2281e-05	1394.1	1.0371e-06	8.3311e-07	1390.3	376.48	1.0139e-06	8.8301e-07	429.13	144.45	123.94	43.956	1.0037e-06	54.557	182.688	8.821	34.989	-63.523	76.096	72.945	-63.608	-59.080	87.878	73.383	-59.552	-55.048	-54.602	-50.002	66.264	-50.533	-8191	255	
381.339	1	1	0	0	0.14732	0.22064	0.12722	0.10493	0.16468	0.35735	0.13031	0.3264	0.027651	0.10584	0.14609	0.082467	0.087321	0.23657	0.20889	0.063238	-2.9833	-3.4271	-3.3292	-3.3167	-3.5354	-3.2479	-3.4833	-3.6979	-3.3146	-3.4833	-3.7188	-3.3667	-3.4667	-3.4542	-3.0667	-3.7604	-26.698	52.019	142.154	-61.417	56.125	49.467	169.306	219.974	131.511	195.039	278.275	238.034	197.083	234.523	99.922	118.710	0.00015721	0.0005083	0.00012943	1395.6	2.0538e-06	3.0175e-06	1383.5	373.7	1.6013e-06	3.3823e-06	427.47	141.69	122.17	43.721	3.5674e-06	54.092	0.00013428	7.8757e-05	2.352e-05	1392.7	1.0705e-06	8.601e-07	1386.2	375.97	1.0142e-06	8.0054e-07	428.55	144.18	123.71	43.951	1.0151e-06	54.495	180.656	28.037	19.670	-63.479	99.916	58.752	-63.603	-59.106	59.425	90.487	-59.586	-55.131	-54.869	-49.887	66.722	-50.885	-8191	255	
381.458	1	1	0	0	0.058046	0.19613	0.16981	0.23402	0.20571	0.13749	0.23913	0.056164	0.039914	0.061658	0.019402	0.23945	0.15383	0.23177	0.1028	0.20416	-3.0333	-3.3563	-3.6208	-3.4521	-3.3625	-3.5104	-3.5125	-3.7646	-3.225	-3.3208	-3.6437	-3.2917	-3.3667	-3.4292	-3.2125	-3.5771	234.553	62.059	-2.238	238.266	35.001	-39.878	261.676	90.827	72.441	108.703	243.812	211.643	196.866	-16.236	276.631	184.183	0.00015278	0.00057183	0.0001603	1392.4	2.7019e-06	3.5655e-06	1375.5	371.24	1.4906e-06	4.961e-06	426.71	141.35	121.88	43.479	2.643e-06	54	0.00013003	8.0813e-05	2.2751e-05	1389.1	9.9339e-07	8.3681e-07	1382.3	374.58	1.0054e-06	8.5935e-07	427.49	143.8	123.39	43.851	9.6926e-07	54.338	175.495	16.581	26.370	-63.503	91.891	55.932	-63.512	-58.920	60.346	74.626	-59.458	-55.152	-54.008	-50.095	72.365	-50.871	-8191	255	
381.554	1	1	0	0	0.12053	0.28864	0.082748	0.19706	0.13492	0.061145	0.20256	0.271	0.085438	0.24681	0.23479	0.11403	0.13118	0.20002	0.21394	0.19989	-2.8167	-3.4167	-3.5354	-3.4667	-3.4521	-3.1792	-3.4896	-3.5938	-3.4792	-3.3583	-3.6063	-3.3646	-3.2979	-3.5396	-3.2792	-3.5479	29.741	206.966	-7.398	249.351	67.005	172.940	250.825	281.254	44.404	80.553	-69.415	249.296	278.787	-34.323	96.990	206.159	0.00015944	0.00048832	0.0001632	1385.6	2.2221e-06	4.2833e-06	1378	371.36	1.6333e-06	4.6467e-06	424.68	140.95	121.5	43.225	3.2413e-06	54.109	0.00012566	8.2986e-05	2.2484e-05	1384.8	9.8015e-07	8.1763e-07	1380.4	374.02	1.0081e-06	8.5722e-07	426.55	143.5	123.15	43.715	9.9795e-07	54.279	177.297	3.216	34.855	-63.394	92.059	76.054	-63.412	-59.003	38.141	65.529	-59.424	-55.249	-54.572	-50.013	62.180	-50.612	-8191	255	
381.650	1	1	0	0	0.18653	0.18553	0.11158	0.38412	0.2989	0.14104	0.32755	0.17196	0.17508	0.088543	0.24116	0.12221	0.059997	0.22152	0.20657	0.14461	-3.0208	-3.2167	-3.4333	-3.4604	-3.3312	-3.5521	-3.55	-3.7708	-3.4229	-3.3271	-3.7771	-3.375	-3.2958	-3.5104	-3.2292	-3.5958	-14.487	282.558	-46.335	245.426	31.792	31.583	237.479	241.307	100.333	250.348	203.249	120.852	184.104	-66.666	-76.242	183.324	0.00014984	0.0003009	0.00011251	1384.2	2.2558e-06	2.5062e-06	1372	371.12	1.4078e-06	4.0031e-06	423.64	140.9	120.46	43.335	2.1473e-06	53.948	0.00012862	7.6881e-05	2.1552e-05	1382	1.0072e-06	8.1791e-07	1377.3	373.39	9.6275e-07	8.3625e-07	425.34	143.3	123.11	43.714	9.4572e-07	54.245	181.240	10.485	28.392	-63.558	86.087	67.281	-63.466	-58.973	65.678	69.782	-59.239	-55.091	-54.538	-50.029	80.368	-50.515	-8191	255	
381.746	1	1	0	0	0.18602	0.15899	0.071384	0.29208	0.11059	0.22763	0.24282	0.082568	0.1485	0.13396	0.2317	0.17638	0.16295	0.10474	0.26436	0.2154	-2.9625	-3.1917	-3.5604	-3.5208	-3.2125	-3.6229	-3.3854	-3.6354	-3.5229	-3.1604	-3.7083	-3.4562	-3.5229	-3.6625	-3.2646	-3.5667	216.514	4.368	93.503	-62.710	-36.287	-6.976	209.049	65.732	16.923	243.088	27.039	222.339	-24.562	253.206	-54.371	266.089	0.00015616	0.00047222	0.00012992	1380.6	2.6421e-06	3.123e-06	1371.9	370.2	1.2497e-06	4.1248e-06	422.27	141.32	121.12	43.306	3.4518e-06	53.863	0.00012774	7.7269e-05	2.1209e-05	1379.4	9.9863e-07	8.182e-07	1374.5	373.1	9.8717e-07	8.2179e-07	424.9	143.29	122.99	43.71	9.2706e-07	54.262	181.005	12.577	11.010	-63.663	86.334	76.387	-63.449	-58.963	54.033	66.119	-59.288	-55.088	-54.553	-49.946	80.267	-50.554	-8191	255	
381.867	1	1	0	0	0.10819	0.066435	0.088698	0.18429	0.10702	0.22407	0.27288	0.23358	0.14131	0.10749	0.14636	0.18254	0.23612	0.09997	0.23128	0.12997	-3.0312	-3.0979	-3.4875	-3.4688	-3.3229	-3.4938	-3.4417	-3.4188	-3.4208	-3.2104	-3.6167	-3.5	-3.1167	-3.6583	-3.1646	-3.4896	173.287	127.575	146.477	174.062	283.038	-66.073	202.948	-69.520	179.987	228.755	-60.744	276.372	-73.738	233.234	248.989	163.723	0.00016864	0.00041915	0.00012469	1381.9	6.5675e-07	4.2454e-06	1369.5	370.89	1.1253e-06	4.8632e-06	426.16	140.85	120.05	43.078	3.429e-06	53.88	0.00013209	7.7774e-05	2.0215e-05	1378.6	1.0142e-06	7.9078e-07	1372.7	372.83	9.7489e-07	8.3653e-07	425.23	143.26	122.57	43.635	9.116e-07	54.147	181.748	32.979	30.106	-63.434	95.717	56.503	-63.533	-58.920	39.409	79.218	-59.442	-55.112	-54.363	-49.957	67.234	-50.578	-8191	255	
381.938	1	1	0	0	0.241	0.17005	0.078485	0.22325	0.083984	0.07492	0.11184	0.26527	0.2257	0.15935	0.020176	0.039501	0.073076	0.10048	0.10245	0.30106	-3.0729	-3.3917	-3.2958	-3.5062	-3.2188	-3.5812	-3.5417	-3.525	-3.5792	-3.2313	-3.6937	-3.4958	-3.2125	-3.525	-3.2313	-3.3917	-5.612	205.703	1.538	186.458	41.689	275.112	248.230	195.164	257.244	190.852	-66.457	207.035	10.312	276.938	-62.659	181.778	0.00015632	0.00050296	0.00017498	1381.7	2.4883e-06	4.1608e-06	1367.8	369.91	8.9045e-07	3.4513e-06	425.16	140.89	121.11	43.295	2.0993e-06	53.56	0.00012874	7.8821e-05	2.0721e-05	1378.9	1.0119e-06	7.8766e-07	1372	372.31	9.9904e-07	8.1613e-07	424.75	143.13	122.73	43.589	8.7693e-07	54.087	178.236	24.773	20.432	-63.511	73.670	75.441	-63.565	-59.006	64.268	65.053	-59.531	-55.043	-54.255	-49.942	67.018	-50.353	-8191	255	
382.059	1	1	0	0	0.32506	0.18591	0.26072	0.14014	0.23114	0.15434	0.39032	0.42688	0.18919	0.091065	0.44472	0.20097	0.13944	0.14624	0.16679	0.1666	-3.2854	-3.3438	-3.5604	-3.7896	-3.325	-3.5042	-3.4188	-3.3083	-3.4333	-3.1562	-3.5646	-3.5438	-3.2354	-3.7125	-3.2104	-3.3875	262.479	25.483	247.566	208.115	11.918	258.373	255.757	247.913	-62.142	100.185	243.557	234.727	226.804	7.003	243.539	234.662	0.00015596	0.00049109	0.00016415	1379.8	2.5521e-06	4.4093e-06	1364.6	369.94	3.4662e-07	5.311e-06	424.21	140.79	119.83	43.147	3.1204e-06	53.667	0.00012944	7.692e-05	2.17e-05	1376.6	1.0054e-06	7.8908e-07	1369.7	372.26	1.0024e-06	7.9076e-07	424.28	143.06	122.48	43.536	9.0158e-07	54.102	178.178	11.822	25.735	-63.384	65.885	82.300	-63.618	-58.677	50.473	66.241	-59.528	-55.004	-54.213	-49.978	87.912	-50.532	-8191	255	
382.155	1	1	0	0	0.14834	0.091421	0.064505	0.060806	0.047305	0.073877	0.21492	0.24473	0.13146	0.10951	0.21368	0.16742	0.20863	0.061844	0.28219	0.20095	-3.3604	-3.1604	-3.3833	-3.7146	-3.3875	-3.5896	-3.5396	-3.3646	-3.4875	-3.1688	-3.4396	-3.8021	-3.3042	-3.6979	-3.3896	-3.2771	49.453	155.883	5.468	-63.385	257.498	198.549	136.378	248.859	-68.337	236.342	262.416	8.346	204.884	165.109	122.841	276.268	0.00014411	0.00039435	0.00015756	1376.7	3.4612e-06	3.9587e-06	1368.2	368.68	1.2388e-06	4.6428e-06	423.52	140.38	120.05	43.072	2.5348e-06	53.713	0.00012674	7.7929e-05	2.0266e-05	1374.3	1.0094e-06	7.6763e-07	1371	372.1	1.0015e-06	7.977e-07	425.06	142.76	122.49	43.528	9.2957e-07	54.108	178.384	12.230	18.529	-63.472	94.308	67.685	-63.454	-58.982	73.969	74.799	-59.375	-54.950	-54.517	-49.930	84.560	-50.630	-8191	255	
382.250	1	1	0	0	0.17061	0.14182	0.12063	0.12928	0.12876	0.095139	0.2924	0.052768	0.13457	0.25145	0.43374	0.11166	0.26847	0.28242	0.11891	0.24664	-3.1333	-3.2833	-3.5167	-3.7333	-3.2396	-3.4146	-3.6021	-3.2958	-3.7021	-3.4396	-3.4188	-3.6917	-3.4333	-3.5	-3.3792	-3.3167	82.834	-8.013	255.645	134.166	172.098	6.592	227.452	-16.354	11.406	-27.151	219.554	201.808	32.750	221.349	252.770	-21.204	0.00013738	0.00045553	0.00013582	1377.5	2.5154e-06	4.1695e-06	1365	369.33	1.1647e-06	4.6185e-06	422.3	140.12	120.01	42.983	2.5321e-06	53.686	0.0001274	7.5885e-05	2.1122e-05	1373.4	9.8429e-07	8.1067e-07	1370.5	372.1	9.7365e-07	8.1301e-07	423.9	142.62	122.49	43.52	9.2107e-07	54.108	177.579	20.078	22.832	-63.558	85.802	66.827	-63.533	-58.916	56.061	49.760	-59.532	-55.227	-54.342	-50.029	72.928	-50.357	-8191	255	
382.346	1	1	0	0	0.085644	0.10215	0.2133	0.14325	0.1778	0.27179	0.063549	0.21231	0.18875	0.13524	0.11172	0.20585	0.15638	0.29659	0.11094	0.18537	-3.175	-3.4479	-3.3083	-3.6479	-3.2125	-3.4562	-3.5438	-3.3854	-3.3187	-3.5687	-3.3937	-3.4729	-3.2313	-3.3208	-3.6813	-3.3083	274.523	132.562	149.694	233.484	181.305	-23.770	-47.698	144.496	95.417	59.471	162.146	245.064	252.749	-66.323	-43.432	184.331	0.00014702	0.00031412	0.00014866	1378.2	1.9002e-06	4.0669e-06	1363	370.7	5.3726e-07	4.7226e-06	423.57	141.24	120.72	43.212	3.853e-06	53.73	0.00012836	7.7308e-05	2.2744e-05	1374.4	9.8649e-07	8.28e-07	1368.6	372.67	9.2328e-07	8.0975e-07	424.39	143.03	122.53	43.58	9.3737e-07	54.05	178.309	5.806	30.333	-63.446	72.040	72.877	-63.374	-58.904	57.349	78.403	-59.320	-55.160	-54.459	-49.766	68.205	-50.814	-8191	255	
382.442	1	1	0	0	0.28029	0.1005	0.09121	0.18081	0.092239	0.16169	0.26495	0.11459	0.15865	0.28152	0.35982	0.15479	0.050693	0.16018	0.12589	0.36188	-2.9813	-3.4188	-3.2333	-3.6813	-3.1917	-3.4146	-3.65	-3.4229	-3.675	-3.6063	-3.3979	-3.6229	-3.2542	-3.4188	-3.5604	-3.1833	-15.374	57.798	191.961	223.535	236.608	1.455	221.047	201.627	-27.540	236.422	-65.960	228.418	281.073	216.245	-1.007	171.450	0.00015521	0.0004222	0.00012878	1375.9	2.3224e-06	3.9324e-06	1368.4	369.96	1.4044e-06	4.2385e-06	423.35	140.63	120.33	43.061	2.7833e-06	53.912	0.00012726	7.8369e-05	2.1371e-05	1372.5	9.8829e-07	8.2175e-07	1368.5	371.97	9.7834e-07	8.5524e-07	424.32	142.61	122.15	43.509	9.6578e-07	54.102	181.450	12.046	21.974	-63.451	77.688	65.745	-63.512	-58.863	54.223	70.576	-59.318	-55.052	-54.331	-49.967	69.071	-50.480	-8191	255	
382.538	1	1	0	0	0.070643	0.20672	0.31771	0.26514	0.19032	0.061413	0.16641	0.26086	0.17408	0.18162	0.1602	0.20443	0.21182	0.083729	0.0089402	0.14417	-3.05	-3.6	-3.2438	-3.7042	-3.3396	-3.2625	-3.6896	-3.4208	-3.5333	-3.35	-3.3	-3.6771	-3.4604	-3.4979	-3.6562	-3.1875	118.829	181.304	-20.260	237.351	-6.850	225.356	224.547	207.696	3.810	-68.842	144.128	193.229	-64.118	-70.599	198.990	248.452	0.00015412	0.0003389	0.00014216	1375.9	3.8529e-06	4.3113e-06	1362	369.17	9.7144e-07	5.0777e-06	421.87	140.7	120.39	43.134	1.839e-06	53.706	0.00012742	7.5019e-05	2.2195e-05	1372.8	9.898e-07	8.3155e-07	1366	371.82	9.8786e-07	8.4333e-07	423.1	142.89	122.33	43.505	9.3946e-07	54.057	178.967	26.760	25.508	-63.338	75.159	79.949	-63.551	-58.895	86.630	76.428	-59.264	-55.025	-54.460	-49.861	77.693	-50.726	-8191	255	
382.634	1	1	0	0	0.2466	0.1964	0.083396	0.36597	0.1645	0.16488	0.18036	0.086071	0.34866	0.28442	0.24746	0.049573	0.23303	0.16001	0.23868	0.052467	-2.9042	-3.4396	-3.2438	-3.6208	-3.475	-3.2875	-3.7687	-3.4083	-3.3875	-3.3521	-3.3729	-3.65	-3.3833	-3.2125	-3.5646	-3.2625	-41.066	243.182	245.034	240.167	247.053	155.401	205.948	94.945	207.386	-10.325	275.186	79.500	68.806	242.052	-6.031	0.914	0.00016945	0.00040673	0.00011443	1371	2.3268e-06	4.5768e-06	1359.4	369.1	8.9241e-07	3.5989e-06	422.66	140.35	120.75	43.046	2.0056e-06	53.758	0.0001269	7.9791e-05	2.1689e-05	1369.6	1.0177e-06	8.2076e-07	1364.9	371.68	9.5281e-07	8.2378e-07	423.39	142.81	122.53	43.457	8.7721e-07	54.017	182.446	18.902	28.103	-63.468	64.336	78.962	-63.676	-58.865	-3.361	80.621	-59.369	-55.138	-54.447	-49.975	81.149	-50.617	-8191	255	
382.730	1	1	0	0	0.060593	0.1159	0.12324	0.15336	0.15614	0.23256	0.28108	0.11649	0.067857	0.13731	0.064981	0.45105	0.1757	0.25915	0.095536	0.22972	-2.9646	-3.5042	-3.1937	-3.6146	-3.3917	-3.2917	-3.7917	-3.5812	-3.2562	-3.4771	-3.2208	-3.4938	-3.2792	-3.3438	-3.3708	-3.5771	275.534	142.276	86.705	237.260	-13.918	76.685	239.815	76.221	255.910	-52.334	-70.597	226.716	212.296	-23.481	43.125	224.745	0.0001451	0.00046683	0.00015336	1371.5	1.7902e-06	3.4214e-06	1359.4	369.07	1.208e-06	3.8253e-06	423.43	139.56	120.34	43.07	3.3218e-06	53.485	0.00013146	7.5329e-05	2.0786e-05	1369	9.8512e-07	8.2871e-07	1363.9	371.29	9.9697e-07	8.4007e-07	423.92	142.24	122.17	43.452	8.928e-07	53.968	179.923	15.138	26.584	-63.486	85.977	65.634	-63.415	-58.888	71.150	51.309	-59.311	-55.096	-54.392	-49.861	69.097	-50.764	-8191	255	
382.827	1	1	0	0	0.095724	0.057697	0.13196	0.2534	0.27813	0.13801	0.26356	0.16047	0.10124	0.27517	0.15791	0.13849	0.1288	0.084443	0.083762	0.21848	-2.7875	-3.5521	-3.0729	-3.6063	-3.5208	-3.3396	-3.6688	-3.5563	-3.2854	-3.5375	-3.4875	-3.5167	-3.4229	-3.2812	-3.5938	-3.55	-73.785	-73.612	193.188	239.925	233.614	104.587	252.675	-74.832	164.788	16.244	14.619	226.203	13.378	-7.757	182.262	-35.693	0.00015843	0.0004937	0.00012221	1370.8	2.7805e-06	3.9083e-06	1362.6	369.59	1.2018e-06	3.5768e-06	423.42	140.16	119.99	43.079	2.2209e-06	53.405	0.00012984	7.8718e-05	2.1335e-05	1368.6	1.0221e-06	8.4689e-07	1365.3	371.18	1.017e-06	8.0337e-07	423.84	142.46	122.03	43.418	8.8974e-07	53.935	184.549	11.426	17.234	-63.551	82.995	75.004	-63.531	-58.798	41.910	72.489	-59.486	-54.874	-54.398	-49.941	81.578	-50.609	-8191	255	
382.947	1	1	0	0	0.23495	0.061724	0.07693	0.054736	0.3226	0.13644	0.084568	0.15388	0.2889	0.19037	0.34568	0.05056	0.2273	0.012194	0.17595	0.19682	-2.8833	-3.6229	-3.1854	-3.4562	-3.4229	-3.3208	-3.6688	-3.4875	-3.2417	-3.7146	-3.35	-3.4375	-3.6188	-3.2771	-3.5667	-3.5	89.053	254.807	-9.116	252.766	187.828	42.565	174.635	249.746	188.197	99.651	172.203	1.078	68.907	226.994	263.176	132.132	0.00016885	0.00041498	0.00012932	1371.4	2.4291e-06	3.1723e-06	1364.4	370.07	1.1589e-06	4.2091e-06	422.78	140.1	120.4	42.956	2.0203e-06	53.659	0.00012896	7.5963e-05	2.0508e-05	1368.8	1.0053e-06	8.0328e-07	1364.4	371.57	1.0113e-06	8.1173e-07	423.42	142.41	122.13	43.369	9.389e-07	53.999	182.880	17.553	32.148	-63.284	74.196	84.028	-63.447	-59.093	53.890	65.694	-59.440	-55.191	-54.515	-49.941	61.790	-50.519	-8191	255	
383.042	1	1	0	0	0.084295	0.16186	0.051321	0.12472	0.11705	0.1708	0.3414	0.21788	0.31332	0.1251	0.11057	0.15438	0.074758	0.089219	0.24351	0.083762	-2.7396	-3.5792	-3.4417	-3.6208	-3.4833	-3.2687	-3.725	-3.5417	-3.3396	-3.7562	-3.4333	-3.4313	-3.5583	-3.325	-3.3208	-3.6208	-54.988	155.431	91.256	234.247	255.936	-30.084	153.256	256.879	265.130	220.987	-21.820	208.486	223.494	24.071	1.411	257.757	0.00015892	0.00043545	0.00014924	1372.9	2.6711e-06	3.6985e-06	1360.5	368.46	1.1053e-06	4.7374e-06	423	140.28	121.03	43.116	1.9565e-06	53.63	0.00013075	7.4825e-05	2.1433e-05	1370.5	1.0236e-06	8.155e-07	1363.9	371.41	9.9807e-07	7.8438e-07	423.14	142.49	122.3	43.444	9.5227e-07	53.952	178.248	14.554	16.220	-63.487	89.925	65.038	-63.292	-59.031	65.868	82.983	-59.438	-54.870	-54.106	-50.017	106.012	-50.609	-8191	255	
383.139	1	1	0	0	0.32114	0.082735	0.12575	0.063134	0.18422	0.22824	0.12917	0.20313	0.079348	0.15916	0.28961	0.16674	0.13265	0.23303	0.15822	0.21441	-2.8646	-3.5917	-3.3417	-3.4292	-3.7438	-3.325	-3.5083	-3.6688	-3.2333	-3.4667	-3.3729	-3.3229	-3.7292	-3.45	-3.2417	-3.4771	182.138	-1.129	0.264	141.745	-2.240	101.283	228.300	214.821	94.013	178.244	190.185	127.049	223.446	-65.830	-23.727	271.466	0.00015754	0.00053497	0.00013253	1372.4	2.7442e-06	4.0865e-06	1361.6	368.52	1.1873e-06	5.4796e-06	422.24	140.5	120.33	43.088	1.9593e-06	53.775	0.00012863	7.6015e-05	2.1956e-05	1369	1.0028e-06	8.2828e-07	1364.2	371.21	1.0029e-06	8.0847e-07	423.46	142.75	122.12	43.376	9.3751e-07	53.994	179.206	22.551	35.583	-63.364	79.146	72.548	-63.451	-58.762	73.559	84.796	-59.323	-55.039	-54.516	-50.093	44.184	-50.662	-8191	255	
383.236	1	1	0	0	0.16024	0.057866	0.13743	0.14272	0.1033	0.19141	0.1218	0.10005	0.19837	0.15724	0.1127	0.064044	0.054787	0.14144	0.11609	0.10373	-2.7708	-3.5521	-3.3625	-3.5333	-3.6063	-3.3667	-3.4979	-3.55	-3.1583	-3.5292	-3.6333	-3.5208	-3.5229	-3.4229	-3.4917	-3.6208	101.977	228.769	229.803	275.703	176.726	-30.413	232.307	183.729	92.142	248.463	249.840	249.012	273.286	144.819	-59.533	277.276	0.00016365	0.00044812	0.00013462	1370	2.967e-06	4.9456e-06	1362.4	368.55	1.5273e-06	3.1137e-06	422.48	140.27	120.8	42.877	3.2301e-06	53.696	0.00012616	7.7541e-05	2.2318e-05	1368.9	9.9242e-07	8.0385e-07	1364.6	371.32	9.8124e-07	8.4858e-07	423.61	142.62	122.22	43.346	9.4767e-07	53.982	176.423	26.883	10.250	-63.395	87.792	76.344	-63.472	-58.884	56.092	87.740	-59.358	-55.076	-54.461	-50.027	94.927	-50.627	-8191	255	
383.330	1	1	0	0	0.12458	0.19628	0.20827	0.30054	0.11872	0.16144	0.21575	0.071957	0.03876	0.14605	0.20835	0.045095	0.17759	0.20383	0.20581	0.27371	-2.7229	-3.2938	-3.2604	-3.3896	-3.5167	-3.4833	-3.5104	-3.5	-3.3125	-3.4875	-3.6958	-3.3292	-3.4292	-3.3187	-3.2417	-3.7917	169.231	38.073	-10.760	270.692	211.239	221.037	194.501	176.560	99.722	26.376	244.762	2.831	188.937	249.030	257.403	-16.804	0.00014966	0.00042435	0.00015574	1372.9	1.9387e-06	3.2826e-06	1360.7	368.71	8.2874e-07	3.5526e-06	422.29	140.13	120.5	43.076	2.2621e-06	53.541	0.00012781	7.9934e-05	2.2267e-05	1369.8	1.0019e-06	8.3027e-07	1363.1	371.36	9.6744e-07	8.1428e-07	423.13	142.5	122.29	43.424	9.396e-07	53.947	179.927	17.060	31.879	-63.584	97.629	74.408	-63.371	-59.053	61.956	80.081	-59.214	-55.120	-54.395	-50.031	63.247	-50.733	-8191	255	
383.426	1	1	0	0	0.21961	0.11469	0.19435	0.16774	0.088142	0.26972	0.24952	0.10717	0.29316	0.17988	0.20687	0.12316	0.28137	0.21432	0.040747	0.11158	-2.8979	-3.6312	-3.4583	-3.4375	-3.5458	-3.3354	-3.6104	-3.7083	-3.3083	-3.4	-3.6083	-3.1979	-3.5583	-3.4437	-3.3812	-3.6063	107.619	202.088	108.824	274.540	72.121	60.840	-73.725	104.724	278.307	198.082	25.198	-41.202	-41.777	211.037	-73.132	34.302	0.00015266	0.00038288	0.00013467	1369.8	3.5662e-06	4.1977e-06	1361.7	368.2	7.4222e-07	4.9056e-06	421.21	140.2	120.62	43.243	2.1412e-06	53.506	0.00012766	7.9106e-05	2.1964e-05	1367.7	9.8939e-07	8.2118e-07	1364.1	371.02	9.9697e-07	8.5155e-07	422.79	142.34	122.03	43.432	8.9573e-07	53.838	178.807	19.108	39.478	-63.548	89.883	73.201	-63.458	-58.842	80.054	69.106	-59.495	-54.963	-54.271	-50.046	86.785	-50.696	-8191	255	
383.547	1	1	0	0	0.18745	0.15465	0.14434	0.26594	0.10829	0.2082	0.14276	0.10334	0.09394	0.1038	0.25247	0.22791	0.15628	0.17097	0.21847	0.17934	-2.9542	-3.3958	-3.5687	-3.3667	-3.5854	-3.4667	-3.3	-3.5083	-3.4771	-3.25	-3.7	-3.2396	-3.5979	-3.5167	-3.1312	-3.5833	101.193	4.328	69.459	236.601	98.645	69.156	190.756	253.324	98.887	50.362	186.621	212.359	17.443	-23.225	40.791	154.537	0.0001442	0.00050136	0.00016492	1369.7	1.751e-06	3.728e-06	1357.3	370.01	7.0047e-07	4.8023e-06	423.36	140.19	120.73	42.898	2.488e-06	53.413	0.00012928	8.1046e-05	2.1285e-05	1368.4	9.9546e-07	8.3965e-07	1363.5	371.72	1.0124e-06	8.5283e-07	423.19	142.55	122.29	43.334	9.1133e-07	53.858	183.094	9.992	11.610	-63.497	88.309	82.164	-63.356	-59.012	99.093	69.218	-59.583	-54.957	-54.378	-49.768	59.148	-50.662	-8191	255	
383.643	1	1	0	0	0.15386	0.069451	0.16555	0.29354	0.077709	0.16868	0.29481	0.21417	0.35835	0.056428	0.31023	0.32509	0.116	0.08663	0.15766	0.052113	-2.8438	-3.0646	-3.6208	-3.3875	-3.6	-3.5417	-3.1646	-3.6333	-3.2854	-3.2896	-3.7667	-3.3521	-3.3083	-3.45	-3.2521	-3.5812	19.662	147.155	-70.635	-69.392	192.818	149.806	240.465	193.729	71.687	206.568	278.851	261.006	-5.986	119.708	158.790	180.500	0.00014942	0.00041346	0.00014128	1368.2	2.8088e-06	3.1841e-06	1357.2	367.18	1.2186e-06	5.4635e-06	422.06	140.46	119.96	43.291	1.1933e-06	53.713	0.00012818	7.5846e-05	2.062e-05	1366	1.0157e-06	7.9845e-07	1363	370.67	1.0258e-06	8.0592e-07	422.92	142.57	121.83	43.45	8.8793e-07	53.909	177.589	22.674	28.871	-63.429	60.055	76.292	-63.446	-58.911	83.970	70.350	-59.445	-55.172	-54.373	-49.876	45.913	-50.428	-8191	255	
383.739	1	1	0	0	0.19809	0.17973	0.19313	0.15519	0.1232	0.22425	0.28302	0.20851	0.19544	0.27534	0.10919	0.20221	0.16907	0.17351	0.19948	0.23361	-2.8042	-3.2729	-3.4979	-3.4729	-3.3271	-3.5458	-3.4062	-3.5417	-3.4333	-3.0833	-3.5521	-3.2729	-3.4146	-3.6312	-3.2146	-3.4125	18.711	186.105	224.520	-45.684	134.540	69.499	238.733	-50.845	-41.068	171.631	27.230	257.775	60.975	221.072	49.957	-59.333	0.00015002	0.00055033	0.00013749	1367	2.0761e-06	4.6361e-06	1358	368.39	2.1347e-06	3.3416e-06	421.16	139.81	120.46	42.943	2.0688e-06	53.565	0.00012757	8.1046e-05	2.0302e-05	1366	1.0259e-06	8.0698e-07	1362.1	370.6	9.869e-07	8.5439e-07	422.5	142.17	122.02	43.361	8.8278e-07	53.937	181.125	13.936	38.583	-63.398	72.826	66.840	-63.312	-58.858	40.806	73.297	-59.141	-55.075	-54.498	-49.904	67.361	-50.490	-8191	255	
383.835	1	1	0	0	0.19822	0.10667	0.1827	0.30782	0.15681	0.056903	0.26728	0.28175	0.22685	0.10326	0.26068	0.17438	0.14768	0.20086	0.033467	0.29577	-3.1708	-3.125	-3.5208	-3.3354	-3.2562	-3.6375	-3.3896	-3.5896	-3.5542	-3.2396	-3.6021	-3.3688	-3.5125	-3.7229	-3.4833	-3.6083	196.579	189.213	117.234	235.647	-20.478	198.973	195.869	264.054	45.654	-64.712	216.915	267.958	160.871	189.111	-37.624	235.115	0.00015635	0.00041334	0.00016464	1370.9	1.2998e-06	4.2205e-06	1355.3	367.65	4.1201e-07	3.2998e-06	421.96	139.8	120.37	42.996	1.9071e-06	53.55	0.00012812	7.3673e-05	2.0508e-05	1367.2	1.0235e-06	8.0684e-07	1359.9	370.34	1.0006e-06	8.0011e-07	422.32	142.25	122.13	43.394	8.6885e-07	53.864	180.425	17.392	18.728	-63.360	84.260	79.033	-63.332	-58.770	89.076	82.839	-59.261	-55.279	-54.235	-49.905	74.174	-50.534	-8191	255	
383.931	1	1	0	0	0.22236	0.15666	0.099788	0.23718	0.13211	0.14673	0.093396	0.16145	0.12727	0.37537	0.12069	0.2257	0.2044	0.033421	0.037089	0.22701	-3.0208	-3.3021	-3.7062	-3.55	-3.2042	-3.5375	-3.6146	-3.4083	-3.5292	-3.1979	-3.6229	-3.7146	-3.2854	-3.6875	-3.3271	-3.575	186.972	-67.047	114.696	257.541	39.294	36.281	208.451	274.918	112.304	188.344	-58.520	230.838	122.078	245.219	129.543	219.816	0.00015487	0.00061693	0.00014485	1368	3.4226e-06	3.9001e-06	1357.9	368.48	1.9741e-06	4.2705e-06	421.43	139.8	120.46	42.997	3.0918e-06	53.297	0.00012709	7.9365e-05	2.0479e-05	1366.8	1.0088e-06	7.6877e-07	1360.3	370.98	9.375e-07	8.0054e-07	422.85	142.36	122.21	43.389	9.3305e-07	53.801	182.734	33.479	30.181	-63.481	85.717	84.895	-63.326	-58.935	64.847	65.353	-59.302	-55.014	-54.512	-49.807	64.089	-50.398	-8191	255	
384.028	1	1	0	0	0.18723	0.21301	0.33406	0.12652	0.14265	0.20227	0.14737	0.10021	0.17713	0.11136	0.24144	0.22813	0.1013	0.24652	0.054013	0.079064	-3.0792	-3.1354	-3.4188	-3.5083	-3.2562	-3.5979	-3.5125	-3.3292	-3.6625	-3.125	-3.7812	-3.6208	-3.2417	-3.525	-3.4604	-3.5375	-50.524	237.562	88.907	245.156	197.587	135.772	260.499	259.481	155.864	163.262	246.033	249.084	126.201	-74.651	7.754	-58.650	0.00014138	0.00042694	0.00016006	1364.3	2.2707e-06	4.5753e-06	1358	367.96	1.5536e-06	3.2664e-06	419.36	140.11	120.67	42.901	1.7265e-06	53.161	0.00012664	7.4967e-05	2.1465e-05	1364.1	9.6636e-07	7.3453e-07	1359.8	370.4	9.5474e-07	7.6256e-07	422.01	142.23	122.3	43.356	8.8069e-07	53.833	181.422	21.444	18.084	-63.452	92.673	79.785	-63.448	-58.811	77.986	68.985	-59.384	-55.040	-54.740	-49.754	80.024	-50.578	-8191	255	
384.122	1	1	0	0	0.14678	0.10961	0.038476	0.11697	0.21909	0.12001	0.18655	0.11329	0.071623	0.19393	0.14189	0.069518	0.11522	0.03374	0.2507	0.076539	-3.0896	-3.1063	-3.4479	-3.5396	-3.2667	-3.4688	-3.5333	-3.4729	-3.5208	-3.4417	-3.5438	-3.5729	-3.2583	-3.6813	-3.3208	-3.5271	102.510	158.226	246.237	271.679	261.823	214.569	214.477	170.944	184.865	-52.196	247.650	196.246	260.070	144.789	23.429	243.655	0.00015276	0.00049934	0.00014359	1363.1	1.9159e-06	4.059e-06	1356.8	366.86	1.2316e-06	4.2635e-06	419.94	139.49	119.59	42.886	2.2924e-06	53.477	0.00012534	7.3893e-05	2.1577e-05	1362.9	9.5381e-07	7.7757e-07	1359.6	370.16	9.1763e-07	7.9784e-07	421.53	142.06	121.65	43.342	9.0952e-07	53.802	177.466	12.764	30.113	-63.419	64.865	65.207	-63.441	-58.861	57.342	65.975	-59.273	-55.088	-54.420	-49.907	82.284	-50.584	-8191	255	
384.243	1	1	0	0	0.063527	0.071909	0.32659	0.15169	0.15742	0.13532	0.24514	0.21524	0.18564	0.18826	0.14721	0.22487	0.071773	0.19579	0.22262	0.23974	-3.2583	-3.3	-3.5396	-3.5583	-3.2917	-3.4458	-3.7062	-3.4667	-3.6167	-3.1646	-3.3958	-3.6688	-3.0187	-3.5875	-3.4083	-3.2271	-61.472	190.293	264.796	252.864	80.677	-3.195	217.756	200.465	88.997	134.940	226.061	96.383	-40.335	-75.769	225.583	225.878	0.00013376	0.00051707	0.00016327	1364.8	3.25e-06	3.7994e-06	1355.1	368.87	1.3312e-06	5.1525e-06	421.61	140.21	119.87	43.022	2.0049e-06	53.468	0.00012831	7.6571e-05	2.088e-05	1362	9.6663e-07	8.0968e-07	1357.9	370.49	9.4771e-07	7.9629e-07	422.3	142.18	121.74	43.33	9.0032e-07	53.759	177.477	8.611	15.623	-63.514	80.588	84.575	-63.447	-58.792	51.268	71.517	-59.403	-54.935	-54.391	-49.968	74.547	-50.494	-8191	255	
384.339	1	1	0	0	0.016136	0.088431	0.1997	0.064482	0.20954	0.23028	0.13033	0.33256	0.17355	0.069338	0.26257	0.21404	0.21618	0.26416	0.02335	0.034566	-3.1875	-3.2292	-3.4104	-3.6771	-3.2979	-3.4708	-3.5583	-3.3292	-3.5375	-3.4062	-3.4167	-3.6417	-3.0667	-3.4688	-3.4417	-3.1437	263.889	-34.100	235.289	-3.270	108.147	182.572	223.220	199.536	140.875	133.441	-9.991	226.837	180.318	247.350	163.757	251.113	0.00014578	0.0004656	0.00011337	1364.1	2.7061e-06	3.8016e-06	1351.4	367.19	2.2054e-06	3.9247e-06	420.79	140	119.73	43.03	3.0498e-06	53.415	0.00012491	7.7877e-05	2.1238e-05	1360.8	9.745e-07	8.1791e-07	1356.8	370.02	9.5999e-07	7.9458e-07	421.68	142.33	121.83	43.31	8.935e-07	53.824	177.984	18.177	21.049	-63.543	79.344	88.878	-63.647	-58.867	60.078	65.682	-59.244	-55.101	-54.262	-49.924	62.994	-50.712	-8191	255	
384.410	1	1	0	0	0.1532	0.10566	0.092715	0.29345	0.10141	0.10322	0.052566	0.2336	0.16895	0.18015	0.33841	0.33195	0.10536	0.061507	0.15025	0.028064	-3.2812	-3.4417	-3.1646	-3.5979	-3.2562	-3.4667	-3.7792	-3.3583	-3.5687	-3.2208	-3.4542	-3.7583	-3.2687	-3.4813	-3.5438	-3.5062	256.809	23.422	96.235	232.938	259.655	251.420	97.666	-25.736	-35.228	193.598	-69.825	-13.704	-2.645	96.493	21.671	-74.110	0.00014857	0.00037776	0.00014748	1358	3.0889e-06	2.8032e-06	1356.1	367.09	1.8339e-06	2.9153e-06	420.41	139.7	119.93	42.917	2.9483e-06	53.401	0.0001275	7.6713e-05	2.0956e-05	1360.6	9.7463e-07	8.1522e-07	1357.3	370.21	9.8483e-07	7.7942e-07	422.17	142.06	121.7	43.307	8.8723e-07	53.858	178.864	12.724	26.775	-63.571	80.428	94.797	-63.335	-58.683	64.868	81.097	-59.277	-55.069	-54.574	-49.965	74.688	-50.664	-8191	255	
384.507	1	1	0	0	0.18173	0.21761	0.038751	0.23036	0.24199	0.26562	0.18373	0.17067	0.11118	0.19904	0.40832	0.16305	0.20443	0.14038	0.10655	0.16501	-3.0771	-3.2729	-3.2354	-3.6542	-3.275	-3.4229	-3.8167	-3.3083	-3.4417	-3.3021	-3.2167	-3.5396	-3.2229	-3.3604	-3.4417	-3.0604	277.848	241.019	97.049	212.312	5.330	62.937	203.026	237.585	71.439	188.317	228.982	229.893	250.436	195.808	233.128	244.989	0.00015094	0.00048687	0.00014594	1361.8	3.1812e-06	4.2161e-06	1356.1	368.17	1.5053e-06	4.6282e-06	421.02	139.32	119.1	42.706	3.1743e-06	53.479	0.00012916	7.714e-05	2.0385e-05	1360.3	1.0022e-06	7.9902e-07	1357.6	370.07	9.5585e-07	8.2973e-07	421.76	141.8	121.69	43.24	8.4671e-07	53.825	181.363	8.109	32.011	-63.387	75.672	69.813	-63.401	-58.706	80.634	77.584	-59.284	-54.948	-54.814	-49.838	51.339	-50.286	-8191	255	
384.627	1	1	0	0	0.061867	0.15594	0.20313	0.30668	0.12096	0.29798	0.18446	0.085322	0.040689	0.15872	0.07796	0.33573	0.054429	0.20745	0.17441	0.22848	-3.1604	-3.3042	-3.3104	-3.8187	-3.3167	-3.3208	-3.6646	-3.3937	-3.4875	-3.5375	-3.3125	-3.5979	-3.525	-3.3625	-3.6813	-3.3083	91.870	177.661	186.548	237.762	-7.272	33.014	169.131	-19.717	-69.549	274.233	-69.027	264.171	-25.337	-61.569	152.109	179.901	0.00015932	0.00051068	0.00011263	1364.7	1.8118e-06	2.4081e-06	1350.6	367.37	1.1506e-06	4.0256e-06	420.3	139.4	119.97	43.009	3.3175e-06	53.285	0.00012881	7.5032e-05	2.0038e-05	1361.4	9.4995e-07	7.9604e-07	1355.5	369.72	1.0079e-06	7.9841e-07	421.93	141.8	121.88	43.288	8.7261e-07	53.723	186.307	8.200	5.471	-63.500	60.420	83.858	-63.357	-59.001	61.698	77.549	-59.351	-55.109	-54.328	-49.711	63.573	-50.889	-8191	255	
384.723	1	1	0	0	0.16673	0.1787	0.15716	0.15654	0.10557	0.11084	0.13339	0.18951	0.1474	0.16191	0.15969	0.050087	0.29452	0.20982	0.2665	0.12296	-3.0083	-3.3167	-2.9896	-3.7521	-3.5417	-3.3167	-3.5812	-3.4875	-3.6396	-3.4729	-3.1896	-3.6417	-3.3708	-3.3563	-3.4125	-3.4167	-41.353	140.899	245.390	233.639	240.583	-65.865	250.138	232.066	229.045	275.945	248.363	49.726	-62.211	242.161	-22.119	176.339	0.00014983	0.00050203	0.00015889	1362.4	1.4079e-06	4.6537e-06	1348.3	367.75	7.1019e-07	2.7093e-06	420.4	139.17	120.2	42.842	2.2605e-06	53.284	0.00012637	7.4152e-05	1.9695e-05	1360.1	9.7822e-07	7.6706e-07	1353.2	369.97	9.5364e-07	7.6738e-07	421.12	141.82	121.74	43.227	8.6662e-07	53.752	182.284	9.980	19.677	-63.453	74.354	64.543	-63.464	-59.027	49.656	74.959	-59.442	-55.028	-54.111	-49.846	49.599	-50.254	-8191	255	
384.819	1	1	0	0	0.1465	0.1367	0.049007	0.30715	0.20296	0.11043	0.41708	0.1321	0.15321	0.1686	0.15693	0.31736	0.27829	0.14538	0.17612	0.12981	-3.0021	-3.4875	-3.2208	-3.6854	-3.5396	-3.3875	-3.5854	-3.3042	-3.3438	-3.4562	-3.25	-3.6854	-3.2521	-3.2292	-3.5542	-3.2562	237.849	204.887	167.451	220.956	92.006	273.044	208.730	224.407	275.150	242.756	259.492	243.346	138.455	269.361	244.308	-15.652	0.00015227	0.00040865	0.00014404	1359.4	3.4463e-06	3.8911e-06	1349.8	367.24	9.3541e-07	4.6894e-06	421.44	139.24	119.82	42.886	2.8524e-06	53.614	0.00012759	7.066e-05	2.0548e-05	1358.4	1.0001e-06	7.9036e-07	1355.7	369.85	9.8331e-07	7.3492e-07	421.62	141.79	121.58	43.248	8.9837e-07	53.943	177.906	10.770	24.697	-63.440	83.663	75.690	-63.388	-58.850	55.044	74.790	-59.216	-54.870	-54.231	-49.743	76.187	-50.483	-8191	255	
384.940	1	1	0	0	0.076912	0.14631	0.21399	0.11001	0.19208	0.084832	0.20636	0.16357	0.075175	0.28127	0.28232	0.21241	0.087094	0.23943	0.064499	0.030963	-2.8167	-3.5438	-3.3625	-3.5667	-3.5687	-3.0229	-3.7479	-3.6229	-3.2271	-3.5896	-3.2313	-3.5167	-3.3521	-3.1354	-3.5687	-3.4083	-13.298	-49.782	156.695	256.447	212.717	-40.629	105.160	-63.996	139.696	20.491	263.017	-69.246	120.795	249.441	-8.861	-57.764	0.00014878	0.00045995	0.00014211	1363.5	2.53e-06	4.208e-06	1353.2	367.61	1.9073e-06	4.8057e-06	420.58	140.19	119.36	42.882	3.1042e-06	53.109	0.00012595	6.8319e-05	2.0963e-05	1361	9.6429e-07	7.6436e-07	1355.8	369.96	9.7724e-07	7.4711e-07	421.36	142.02	121.37	43.268	8.9364e-07	53.762	179.622	17.168	8.729	-63.369	72.981	57.093	-63.418	-58.835	64.750	70.927	-59.177	-55.199	-54.328	-49.925	68.744	-50.546	-8191	255	
385.034	1	1	0	0	0.058459	0.060493	0.24079	0.15925	0.037196	0.12992	0.25252	0.23002	0.020966	0.1976	0.1144	0.17697	0.27227	0.16124	0.11894	0.12846	-2.8604	-3.5479	-3.2062	-3.4875	-3.3542	-3.15	-3.6667	-3.3729	-3.0646	-3.4729	-3.4375	-3.3604	-3.5667	-3.3208	-3.3333	-3.4688	72.244	150.539	147.792	-62.779	96.087	245.951	205.530	5.957	32.533	-33.954	-51.550	186.313	-71.518	-43.710	72.742	233.119	0.00014239	0.0004069	0.00012623	1360.5	2.4727e-06	3.2474e-06	1352	367.3	1.1294e-06	4.1892e-06	420.09	139.43	119.26	42.817	2.6672e-06	53.354	0.00012523	7.0608e-05	2.0855e-05	1360.3	9.1974e-07	7.8808e-07	1357.3	369.94	9.4481e-07	7.5873e-07	421.32	141.93	121.57	43.229	9.3305e-07	53.752	182.971	6.430	29.624	-63.310	91.816	62.426	-63.412	-58.957	59.164	66.140	-59.346	-54.893	-53.610	-49.971	75.546	-50.606	-8191	255	
385.108	1	1	0	0	0.040366	0.13588	0.2796	0.062534	0.070267	0.33558	0.10862	0.014645	0.20141	0.07004	0.081367	0.12583	0.22117	0.1117	0.13773	0.049587	-2.9562	-3.5	-3.2438	-3.3688	-3.5833	-3.25	-3.6604	-3.5187	-3.2438	-3.5438	-3.6792	-3.2708	-3.5625	-3.175	-3.5646	-3.5542	49.926	145.507	-75.035	-41.764	203.999	7.065	183.409	133.087	200.880	186.087	246.870	281.232	43.651	-12.147	-0.295	168.498	0.00015229	0.00053107	0.00015435	1359.9	2.3247e-06	4.2799e-06	1350.5	367.22	1.0942e-06	4.2397e-06	420.53	139.6	119.9	43.021	3.1174e-06	53.277	0.00012417	7.0194e-05	2.2285e-05	1358.5	9.2485e-07	7.5953e-07	1354.2	369.64	9.5944e-07	7.7319e-07	421.17	141.92	121.47	43.232	8.9378e-07	53.694	179.566	18.000	35.454	-63.284	87.118	84.280	-63.427	-58.908	64.371	64.945	-59.343	-54.695	-54.521	-49.870	58.111	-50.515	-8191	255	
385.227	1	1	0	0	0.086656	0.13596	0.15328	0.13948	0.11287	0.070934	0.098348	0.1052	0.1172	0.26281	0.15225	0.19761	0.12647	0.27228	0.042878	0.17645	-2.8854	-3.6146	-3.2812	-3.4833	-3.4917	-3.1646	-3.6146	-3.5667	-3.1937	-3.65	-3.4146	-3.5938	-3.4625	-3.3187	-3.3729	-3.5854	243.784	155.810	3.996	234.780	16.520	215.024	-54.587	-44.438	-67.804	-15.536	168.733	148.779	119.318	-48.654	77.256	176.439	0.0001518	0.00044217	0.00014177	1360.3	4.3026e-06	4.1241e-06	1350.3	366.98	1.6789e-06	5.1413e-06	420.43	139.05	119.43	42.901	2.2762e-06	53.397	0.00012477	7.5213e-05	2.0923e-05	1358.1	9.5064e-07	7.8908e-07	1353.5	369.3	9.3004e-07	8.0706e-07	420.8	141.66	121.11	43.254	9.0701e-07	53.729	180.180	11.997	24.229	-63.373	97.500	56.516	-63.415	-58.856	58.286	67.002	-59.216	-55.151	-54.367	-49.747	79.530	-50.517	-8191	255	
385.323	1	1	0	0	0.20055	0.31594	0.047009	0.20944	0.24994	0.2502	0.10086	0.11553	0.038274	0.020691	0.16168	0.13403	0.13967	0.17092	0.35798	0.062748	-2.8937	-3.5792	-3.3896	-3.3458	-3.5833	-3.4792	-3.6271	-3.7208	-3.1354	-3.6354	-3.5646	-3.2417	-3.6125	-3.375	-3.3917	-3.7917	47.404	274.192	229.975	183.934	121.230	153.548	270.972	221.258	64.686	164.852	228.095	150.834	178.892	184.988	68.360	23.111	0.00013843	0.00035966	0.00014517	1357.9	2.6041e-06	3.396e-06	1351.1	366.42	1.4013e-06	4.569e-06	420.56	139.37	119.73	42.69	1.7847e-06	53.177	0.00012623	7.1695e-05	2.0169e-05	1355.5	9.4815e-07	7.7374e-07	1353.5	369.02	9.3584e-07	8.1811e-07	421.03	141.68	121.57	43.178	8.63e-07	53.674	172.798	9.264	12.605	-63.367	68.070	78.955	-63.454	-58.811	38.890	67.053	-59.248	-54.911	-54.216	-49.623	77.511	-50.552	-8191	255	
385.419	1	1	0	0	0.14248	0.2096	0.15079	0.1494	0.053453	0.011873	0.12284	0.12814	0.25723	0.076122	0.20299	0.096789	0.081177	0.11751	0.11235	0.22066	-2.8604	-3.5875	-3.3021	-3.3604	-3.5375	-3.3521	-3.3604	-3.65	-3.2375	-3.5354	-3.5812	-3.1729	-3.4771	-3.2667	-3.3667	-3.6542	13.768	141.977	197.172	182.703	-40.009	201.104	-58.260	241.522	87.555	-66.145	-68.364	206.511	269.252	39.110	243.886	228.335	0.00016031	0.00042568	0.00015362	1358	2.5806e-06	3.1518e-06	1346	366.15	9.9156e-07	4.2772e-06	419.99	139.48	119.41	42.702	2.4045e-06	53.226	0.00012647	7.5911e-05	2.001e-05	1356.1	9.4429e-07	8.0115e-07	1352.5	368.95	9.5792e-07	7.9133e-07	420.94	141.79	121.49	43.182	8.6579e-07	53.621	178.132	24.883	24.810	-63.199	67.479	67.936	-63.453	-58.918	51.024	65.574	-59.144	-54.863	-54.435	-49.818	92.656	-50.323	-8191	255	
385.540	1	1	0	0	0.12424	0.21666	0.016613	0.15335	0.084981	0.030397	0.17685	0.17092	0.061442	0.22608	0.17894	0.17779	0.077788	0.36769	0.077793	0.17793	-3.0438	-3.4625	-3.4813	-3.3708	-3.5646	-3.4375	-3.4646	-3.7208	-3.175	-3.3208	-3.5646	-3.4417	-3.6729	-3.4625	-3.2812	-3.7729	267.128	-55.613	230.362	-31.590	234.094	-32.612	280.055	227.273	-27.765	226.849	217.979	26.340	199.382	-27.010	211.445	-39.685	0.00014853	0.00047644	0.00015536	1357.7	2.3552e-06	4.4152e-06	1348.9	367.27	9.1208e-07	3.6904e-06	421.31	139.06	118.75	42.867	2.4352e-06	53.109	0.00012711	7.4023e-05	1.9154e-05	1357	9.5615e-07	7.7331e-07	1352	369.19	9.7268e-07	7.8707e-07	421.12	141.57	121.02	43.205	8.2192e-07	53.603	184.294	12.133	40.909	-63.286	92.902	82.955	-63.403	-58.862	25.210	70.597	-59.240	-55.014	-54.405	-49.916	90.771	-50.610	-8191	255	
385.636	1	1	0	0	0.19935	0.05258	0.016219	0.1761	0.20383	0.25958	0.32765	0.2066	0.16106	0.19449	0.38723	0.21037	0.21559	0.36236	0.21412	0.11453	-2.9938	-3.5563	-3.4354	-3.2812	-3.4479	-3.3521	-3.4542	-3.6021	-3.2583	-3.3271	-3.4604	-3.2979	-3.5229	-3.3583	-3.2667	-3.6375	230.296	-38.932	189.769	224.656	200.075	104.393	231.095	-57.047	77.236	168.052	281.140	230.718	-58.927	260.980	143.525	178.413	0.00014143	0.00044598	0.00013658	1357.8	1.7627e-06	5.4652e-06	1346	366.63	8.277e-07	4.1296e-06	419.31	139.5	119.47	42.773	2.4817e-06	53.452	0.00012674	7.3725e-05	1.9273e-05	1355.2	9.7257e-07	7.2857e-07	1350.3	369	9.6758e-07	7.7475e-07	420.41	141.62	121.4	43.18	8.449e-07	53.7	181.584	13.682	28.538	-63.359	74.324	79.497	-63.408	-58.917	74.648	85.465	-59.365	-55.062	-54.797	-49.908	71.407	-50.659	-8191	255	
385.708	1	1	0	0	0.07354	0.0502	0.07025	0.14076	0.2285	0.10659	0.13679	0.16991	0.080591	0.095866	0.22115	0.14154	0.13342	0.21884	0.081979	0.24571	-2.9792	-3.2458	-3.5833	-3.3521	-3.375	-3.3979	-3.3312	-3.6229	-3.3104	-3.3583	-3.5729	-3.2583	-3.2792	-3.6083	-3.25	-3.6354	-54.357	72.192	146.489	245.770	282.338	-58.640	163.520	-50.929	152.737	96.615	276.393	277.975	189.506	268.762	104.553	228.376	0.00016996	0.00049425	0.00015477	1357.2	2.3098e-06	4.275e-06	1344.9	366.18	2.0494e-06	4.9495e-06	419	139.44	119.77	42.838	1.702e-06	53.12	0.00012405	6.9871e-05	1.9276e-05	1354.4	9.3616e-07	7.2075e-07	1349.9	368.48	9.2135e-07	7.6596e-07	419.74	141.4	121.29	43.172	8.7345e-07	53.623	178.640	22.851	22.176	-63.225	59.165	73.530	-63.251	-58.805	72.201	67.732	-59.252	-54.932	-54.198	-49.849	43.987	-50.355	-8191	255	
385.804	1	1	0	0	0.25728	0.17869	0.087664	0.19014	0.27575	0.14388	0.26136	0.1225	0.15044	0.25901	0.15014	0.11313	0.20157	0.083162	0.22847	0.31194	-3.0458	-3.3063	-3.4042	-3.3458	-3.4167	-3.6604	-3.4167	-3.6188	-3.2979	-3.2021	-3.6667	-3.3729	-3.6125	-3.5021	-3.1333	-3.5938	-43.027	262.437	57.746	265.283	274.090	92.825	199.499	263.124	165.249	231.713	-65.304	46.702	36.830	247.621	266.019	202.901	0.00014988	0.00053116	0.00011725	1357.2	2.5256e-06	4.5014e-06	1346.7	366.28	1.6641e-06	3.4439e-06	419.03	138.9	119.33	42.886	2.7236e-06	53.371	0.00012557	7.0647e-05	1.9453e-05	1355.6	9.4995e-07	7.3169e-07	1348.9	368.61	9.2149e-07	7.0899e-07	420.18	141.43	121.24	43.142	8.9754e-07	53.663	178.596	6.977	30.085	-63.309	65.753	67.159	-63.303	-58.818	67.367	65.687	-59.394	-55.062	-54.144	-49.845	74.460	-50.592	-8191	255	
385.924	1	1	0	0	0.10764	0.23253	0.12145	0.23723	0.21518	0.039533	0.24273	0.25142	0.10053	0.21655	0.08934	0.18887	0.23459	0.1934	0.12294	0.11671	-3.0021	-3.1958	-3.4646	-3.5042	-3.3146	-3.775	-3.4604	-3.7375	-3.4396	-3.2625	-3.6333	-3.45	-3.325	-3.5625	-3.2604	-3.5271	-44.715	145.700	229.858	-65.418	270.669	141.518	178.402	237.832	-46.711	107.112	181.586	89.578	-3.627	72.012	-51.725	276.444	0.00013884	0.0003954	0.00011207	1355.1	2.4401e-06	4.3905e-06	1341.2	366.18	1.2274e-06	5.6016e-06	418.48	139.08	119.8	42.765	2.0716e-06	53.199	0.00012543	6.9418e-05	1.9927e-05	1351.6	9.4084e-07	7.4405e-07	1347.8	368.7	8.8934e-07	7.8126e-07	419.2	141.27	121.25	43.151	8.8974e-07	53.587	174.347	20.408	44.293	-63.365	81.892	84.030	-63.222	-58.761	70.398	69.050	-59.373	-55.155	-54.473	-49.779	67.111	-50.526	-8191	255	
386.019	1	1	0	0	0.27605	0.21303	0.12896	0.46683	0.12973	0.085002	0.27497	0.091752	0.082079	0.14134	0.044301	0.22409	0.20118	0.18614	0.17057	0.14048	-3.0687	-3.0708	-3.5104	-3.4542	-3.3104	-3.6021	-3.55	-3.5604	-3.3604	-3.0167	-3.6917	-3.525	-3.2313	-3.6792	-3.2729	-3.4375	-64.407	-13.457	6.079	281.756	135.489	80.271	249.729	-65.381	44.090	52.786	-63.762	267.135	255.904	39.599	91.750	274.405	0.00014747	0.00046522	0.00014435	1354.7	3.9384e-06	4.3598e-06	1347.3	364.95	1.3061e-06	5.5645e-06	418.37	138.84	118.9	42.74	2.8312e-06	53.076	0.00012193	7.2212e-05	2.0649e-05	1352.2	9.3878e-07	7.2786e-07	1348.7	368.23	8.8713e-07	7.2713e-07	420.12	141.4	121.04	43.146	9.1286e-07	53.644	178.679	9.029	22.275	-63.478	84.904	87.667	-63.381	-58.882	68.978	65.156	-59.216	-54.899	-54.028	-49.895	78.394	-50.397	-8191	255	
386.115	1	1	0	0	0.20949	0.055026	0.057107	0.15226	0.17254	0.14091	0.24813	0.3356	0.41391	0.035798	0.26857	0.30069	0.088218	0.20425	0.090141	0.20091	-3.1937	-3.2167	-3.4875	-3.5354	-3.275	-3.6833	-3.4875	-3.4813	-3.3833	-3.2896	-3.5042	-3.4042	-3.1854	-3.7771	-3.4896	-3.6167	37.380	50.524	239.181	-72.338	-13.129	79.842	-51.668	193.851	238.303	110.836	263.066	197.997	260.031	191.637	-45.791	225.989	0.00015024	0.00045761	0.00016127	1356.8	1.9638e-06	4.6876e-06	1349.3	367.34	1.5842e-06	4.2308e-06	417.11	139.07	118.66	42.692	3.0845e-06	53.39	0.00012188	7.5756e-05	2.0645e-05	1353.7	9.3947e-07	8.0186e-07	1348.1	369	9.099e-07	7.7035e-07	419.78	141.39	121.02	43.09	8.5701e-07	53.64	176.580	7.934	12.902	-63.333	104.874	86.621	-63.368	-58.660	92.418	66.213	-59.480	-54.889	-54.432	-49.722	91.085	-50.316	-8191	255	
386.211	1	1	0	0	0.11949	0.2176	0.31332	0.17333	0.18287	0.067066	0.15054	0.10049	0.24389	0.31783	0.097311	0.041672	0.20881	0.18686	0.12106	0.24002	-3.2292	-3.3042	-3.4729	-3.6229	-3.1688	-3.525	-3.5146	-3.5521	-3.5208	-3.3417	-3.6917	-3.5667	-3.2104	-3.7396	-3.3917	-3.3104	-27.556	-63.783	-35.385	198.124	28.038	220.250	211.425	249.021	205.331	23.347	198.086	-40.295	254.204	203.858	86.124	259.862	0.00015849	0.00039088	0.00015283	1354.8	2.0345e-06	3.5796e-06	1348.2	365.91	2.4409e-06	4.4318e-06	419.06	138.82	119.21	42.782	2.8598e-06	53.314	0.0001199	7.4475e-05	1.9356e-05	1351.8	9.3933e-07	7.7047e-07	1349.9	368.37	8.9403e-07	7.5476e-07	420.23	141.5	120.84	43.105	8.7568e-07	53.584	178.169	8.634	35.848	-63.459	91.429	88.969	-63.263	-58.908	86.457	71.741	-59.269	-55.050	-54.401	-49.760	58.062	-50.606	-8191	255	
386.307	1	1	0	0	0.12953	0.07742	0.054778	0.20047	0.08984	0.22476	0.075115	0.21938	0.096028	0.17766	0.10459	0.27445	0.05795	0.081933	0.18175	0.18516	-3.2104	-3.2333	-3.475	-3.6542	-3.1833	-3.6063	-3.6	-3.4646	-3.525	-3.4521	-3.45	-3.7208	-3.3292	-3.6333	-3.3563	-3.3854	198.114	-0.421	-31.033	-8.842	200.203	163.192	106.383	255.821	25.192	270.534	-50.005	198.401	111.282	225.436	-30.689	279.907	0.0001517	0.00057269	9.8013e-05	1353.6	2.3197e-06	4.8525e-06	1345.6	363.66	1.2722e-06	4.3126e-06	417.78	138.65	119.38	42.676	2.9737e-06	53.183	0.00012332	7.6299e-05	1.9363e-05	1351	9.4926e-07	7.7374e-07	1346.7	367.94	9.3322e-07	8.1102e-07	419.93	141.24	121.28	43.069	8.3459e-07	53.603	179.449	16.788	16.593	-63.331	69.833	64.858	-63.336	-58.850	94.273	53.473	-59.277	-55.010	-54.196	-49.822	58.723	-50.556	-8191	255	
386.403	1	1	0	0	0.31689	0.29683	0.18377	0.1191	0.075083	0.057879	0.15953	0.14663	0.069035	0.10659	0.21551	0.2149	0.068189	0.2393	0.19289	0.05249	-3.175	-3.2771	-3.4104	-3.7	-3.3458	-3.5875	-3.6188	-3.2854	-3.4562	-3.3979	-3.4688	-3.8063	-3.4	-3.6146	-3.5646	-3.3083	139.200	-72.514	54.464	245.089	112.278	86.337	280.305	-73.816	157.549	213.418	159.364	271.286	224.063	259.991	222.762	255.196	0.0001536	0.0003693	0.00013896	1353.9	2.5903e-06	3.8151e-06	1344.6	366.35	1.4384e-06	4.0376e-06	419.74	138.85	119.48	42.848	2.6005e-06	53.141	0.00012395	7.1423e-05	1.9323e-05	1352.3	9.5271e-07	7.8297e-07	1346.1	368.35	9.2673e-07	7.7588e-07	419.92	141.11	121.39	43.15	8.6314e-07	53.541	176.771	0.283	17.484	-63.309	79.629	61.866	-63.422	-58.527	83.354	64.835	-59.301	-55.013	-54.411	-49.793	68.018	-50.456	-8191	255	
386.499	1	1	0	0	0.14901	0.17662	0.019251	0.070724	0.31448	0.15831	0.26021	0.11351	0.25956	0.13107	0.11762	0.2246	0.19622	0.22722	0.17106	0.34892	-3.375	-3.4667	-3.4083	-3.7146	-3.2792	-3.6396	-3.6042	-3.3563	-3.8292	-3.3021	-3.3792	-3.6688	-3.1688	-3.5875	-3.3292	-3.2958	-37.686	168.094	-7.932	-37.357	220.575	124.916	259.147	143.590	85.295	-49.226	59.917	238.352	63.564	-61.384	105.641	280.507	0.00015412	0.00042917	0.00014781	1354.8	2.4956e-06	4.8868e-06	1343.7	365.63	8.8657e-07	3.7644e-06	417.94	139.47	120.06	42.835	3.7081e-06	53.342	0.00012314	6.9961e-05	1.8872e-05	1352.5	9.5505e-07	7.5598e-07	1347.3	368.13	9.0879e-07	7.3918e-07	419.5	141.51	121.48	43.143	8.9712e-07	53.636	177.689	21.269	25.801	-63.368	78.245	78.426	-63.370	-58.724	81.336	60.298	-59.172	-54.983	-54.386	-49.851	70.313	-50.570	-8191	255	
386.620	1	1	0	0	0.048437	0.068085	0.06219	0.1186	0.11315	0.24652	0.23653	0.12234	0.12463	0.029923	0.13704	0.13565	0.27443	0.20407	0.044517	0.1461	-3.1833	-3.3458	-3.0521	-3.6813	-3.2354	-3.3937	-3.4521	-3.4146	-3.5479	-3.45	-3.2833	-3.625	-3.4354	-3.4958	-3.5896	-3.2146	-45.706	57.396	-48.007	113.872	58.862	178.515	-58.684	240.430	210.169	19.070	241.659	-11.417	53.067	230.373	204.733	230.127	0.00015272	0.00044488	0.00013605	1353.6	2.213e-06	3.9184e-06	1344.9	366.17	6.6416e-07	3.1438e-06	420.14	139.29	119.74	42.635	2.6169e-06	53.289	0.00012291	6.9276e-05	1.8652e-05	1351.2	9.4678e-07	7.6948e-07	1347.9	368.28	9.1542e-07	7.0644e-07	420.05	141.27	121.14	43.107	8.4699e-07	53.612	176.535	18.933	25.384	-63.352	101.405	82.152	-63.252	-58.636	38.736	83.506	-59.342	-54.896	-54.363	-49.707	92.755	-50.506	-8191	255	
386.714	1	1	0	0	0.16432	0.05424	0.10223	0.077794	0.053641	0.1546	0.21357	0.097032	0.11142	0.084268	0.088293	0.071966	0.16689	0.14292	0.23943	0.16168	-3.1792	-3.2979	-3.1437	-3.6437	-3.2917	-3.4188	-3.7271	-3.4479	-3.4792	-3.5479	-3.4771	-3.5625	-3.4396	-3.3146	-3.5042	-3.3604	127.146	273.593	204.314	-54.998	13.341	128.826	257.846	277.204	227.694	244.216	13.231	-52.452	228.220	68.784	143.781	161.679	0.00015385	0.00048388	0.0001318	1353.9	1.6415e-06	3.5771e-06	1345.7	365.81	1.3367e-06	3.6323e-06	418.23	138.66	119.08	42.899	2.8801e-06	53.426	0.00012336	6.9392e-05	2.015e-05	1351.7	9.2126e-07	7.3112e-07	1348.9	368.43	9.1224e-07	7.3691e-07	419.64	141.39	121.16	43.131	8.4657e-07	53.645	175.028	15.545	18.858	-63.483	92.245	90.013	-63.230	-59.016	88.028	82.690	-59.141	-55.106	-54.352	-49.764	59.787	-50.333	-8191	255	
386.811	1	1	0	0	0.08203	0.15128	0.15317	0.44588	0.20403	0.17003	0.15819	0.13521	0.14517	0.18993	0.19972	0.24498	0.13613	0.23829	0.064607	0.056226	-3.1417	-3.5625	-3.0312	-3.6125	-3.3646	-3.1937	-3.7687	-3.2938	-3.5208	-3.5896	-3.2271	-3.6521	-3.3083	-3.5312	-3.6792	-3.4188	127.132	9.297	-74.835	234.981	0.897	229.985	202.008	79.794	104.071	-67.755	248.324	-21.041	-43.976	251.845	113.399	148.034	0.00015906	0.00042796	0.00015058	1354.5	2.1917e-06	3.699e-06	1342	364.23	1.7269e-06	4.082e-06	419.55	139.05	118.76	42.793	1.547e-06	53.04	0.00012456	6.8332e-05	2.0743e-05	1352.6	9.0057e-07	7.361e-07	1349.7	367.8	8.8037e-07	7.0318e-07	420.25	141.39	121.14	43.075	8.5771e-07	53.535	177.109	21.360	16.638	-63.321	76.941	78.683	-63.528	-58.766	29.456	75.791	-59.395	-55.174	-54.492	-49.707	64.010	-50.383	-8191	255	
386.907	1	1	0	0	0.0080861	0.11325	0.14309	0.17805	0.34358	0.036278	0.065407	0.099709	0.11317	0.032564	0.040954	0.25885	0.056531	0.11995	0.12513	0.13351	-3.1562	-3.4667	-3.2875	-3.6396	-3.3312	-3.3354	-3.7583	-3.2708	-3.3979	-3.4146	-3.2979	-3.5396	-3.4729	-3.1896	-3.525	-3.3792	-12.816	58.441	-18.768	246.596	244.134	145.231	241.138	179.551	132.969	187.962	151.422	212.180	32.221	123.195	130.949	189.358	0.00015318	0.00051502	0.00012262	1349.8	1.7958e-06	4.4626e-06	1343.9	367.1	1.7335e-06	4.9418e-06	420.47	139.76	118.98	42.739	2.8834e-06	53.322	0.0001231	6.8008e-05	2.0533e-05	1352	9.0871e-07	7.7828e-07	1347.9	368.73	9.4688e-07	7.7815e-07	420.12	141.52	120.94	43.139	8.7568e-07	53.675	180.701	10.818	32.964	-63.408	91.993	75.577	-63.565	-58.922	47.612	76.885	-59.388	-54.986	-54.517	-49.777	64.037	-50.335	-8191	255	
#DATA ENDS
