BOXY.EXE: ISS Imagent and Oximeter Data Acquisition Program Version 0.80
Ascii Record File

#ACQ INFORMATION
2  Detector Channels 
16  External MUX Channels 
1  Auxiliary Channels 
5000  Waveform (CCF) Frequency (Hz)
1  Waveforms Skipped 
30  Waveforms Averaged 
1  Cycles Averaged 
16  Acquisitions per Waveform 
10.0806  Updata Rate (Hz) 

#FILE INFORMATION
TRUE -- External MUX Channel results are PARSED.
FALSE -- AC DC and Phase are NOT grouped.
TRUE -- Companion Program Settings File CREATED.
FALSE -- AC data not excluded
FALSE -- DC data not excluded
FALSE -- Phase data not excluded
FALSE -- Auxillary Chn. data not excluded
Tab delimiters

#CALIBRATION STATE
TRUE -- Waveform Calibration Values APPLIED.


#AUX CALIBRATION VALUES
Val Type	aux-1	

Term	1.0000e+00	
Factor	0.0000e+00	


#WF CALIBRATION VALUES
A = Detector Channel
Val Type	A-AC1	A-AC2	A-AC3	A-AC4	A-AC5	A-AC6	A-AC7	A-AC8	A-AC9	A-AC10	A-AC11	A-AC12	A-AC13	A-AC14	A-AC15	A-AC16	A-DC1	A-DC2	A-DC3	A-DC4	A-DC5	A-DC6	A-DC7	A-DC8	A-DC9	A-DC10	A-DC11	A-DC12	A-DC13	A-DC14	A-DC15	A-DC16	A-Ph1	A-Ph2	A-Ph3	A-Ph4	A-Ph5	A-Ph6	A-Ph7	A-Ph8	A-Ph9	A-Ph10	A-Ph11	A-Ph12	A-Ph13	A-Ph14	A-Ph15	A-Ph16	

Term	0.00000e+00	0.00000e+00	0.00000e+00	0.00000e+00	0.00000e+00	0.00000e+00	0.00000e+00	0.00000e+00	0.00000e+00	0.00000e+00	0.00000e+00	0.00000e+00	0.00000e+00	0.00000e+00	0.00000e+00	0.00000e+00	0.00000e+00	0.00000e+00	0.00000e+00	0.00000e+00	0.00000e+00	0.00000e+00	0.00000e+00	0.00000e+00	0.00000e+00	0.00000e+00	0.00000e+00	0.00000e+00	0.00000e+00	0.00000e+00	0.00000e+00	0.00000e+00	0.00000e+00	0.00000e+00	0.00000e+00	0.00000e+00	0.00000e+00	0.00000e+00	0.00000e+00	0.00000e+00	0.00000e+00	0.00000e+00	0.00000e+00	0.00000e+00	0.00000e+00	0.00000e+00	0.00000e+00	0.00000e+00	
Factor	1.00000e+00	1.00000e+00	1.00000e+00	1.00000e+00	1.00000e+00	1.00000e+00	1.00000e+00	1.00000e+00	1.00000e+00	1.00000e+00	1.00000e+00	1.00000e+00	1.00000e+00	1.00000e+00	1.00000e+00	1.00000e+00	1.00000e+00	1.00000e+00	1.00000e+00	1.00000e+00	1.00000e+00	1.00000e+00	1.00000e+00	1.00000e+00	1.00000e+00	1.00000e+00	1.00000e+00	1.00000e+00	1.00000e+00	1.00000e+00	1.00000e+00	1.00000e+00	X	X	X	X	X	X	X	X	X	X	X	X	X	X	X	X	

B = Detector Channel
Val Type	B-AC1	B-AC2	B-AC3	B-AC4	B-AC5	B-AC6	B-AC7	B-AC8	B-AC9	B-AC10	B-AC11	B-AC12	B-AC13	B-AC14	B-AC15	B-AC16	B-DC1	B-DC2	B-DC3	B-DC4	B-DC5	B-DC6	B-DC7	B-DC8	B-DC9	B-DC10	B-DC11	B-DC12	B-DC13	B-DC14	B-DC15	B-DC16	B-Ph1	B-Ph2	B-Ph3	B-Ph4	B-Ph5	B-Ph6	B-Ph7	B-Ph8	B-Ph9	B-Ph10	B-Ph11	B-Ph12	B-Ph13	B-Ph14	B-Ph15	B-Ph16	

Term	0.00000e+00	0.00000e+00	0.00000e+00	0.00000e+00	0.00000e+00	0.00000e+00	0.00000e+00	0.00000e+00	0.00000e+00	0.00000e+00	0.00000e+00	0.00000e+00	0.00000e+00	0.00000e+00	0.00000e+00	0.00000e+00	0.00000e+00	0.00000e+00	0.00000e+00	0.00000e+00	0.00000e+00	0.00000e+00	0.00000e+00	0.00000e+00	0.00000e+00	0.00000e+00	0.00000e+00	0.00000e+00	0.00000e+00	0.00000e+00	0.00000e+00	0.00000e+00	-1.18791e+02	-1.25215e+02	-1.17839e+02	-1.82053e+02	-6.42788e+01	-6.59928e+01	-1.56652e+02	-1.62015e+02	-6.99740e+01	-7.11695e+01	-1.71895e+02	-1.71978e+02	-1.87684e+02	-1.76726e+02	-7.17241e+01	-1.49677e+02	
Factor	1.79471e-05	1.88059e-04	5.59287e-05	1.76571e-01	1.47773e-06	1.73745e-06	1.86571e-01	6.64046e-02	1.16227e-06	1.86482e-06	9.07154e-02	3.26452e-02	8.76552e-02	1.00672e-02	1.43800e-06	1.46748e-02	5.01725e-06	6.20844e-06	1.73368e-06	8.55426e-02	6.61984e-08	6.81833e-08	8.52622e-02	3.23439e-02	6.62346e-08	6.80223e-08	4.26692e-02	1.55219e-02	4.23821e-02	4.92464e-03	6.68454e-08	6.95878e-03	X	X	X	X	X	X	X	X	X	X	X	X	X	X	X	X	



#DISTANCE SETTINGS
A = Detector Channel
A-1	A-2	A-3	A-4	A-5	A-6	A-7	A-8	A-9	A-10	A-11	A-12	A-13	A-14	A-15	A-16	

2.5000e+00	3.0000e+00	2.5000e+00	3.0000e+00	2.0000e+00	3.0000e+00	1.5000e+00	3.0000e+00	3.0000e+00	3.0000e+00	3.0000e+00	3.0000e+00	3.0000e+00	3.0000e+00	1.5000e+00	3.0000e+00	

B = Detector Channel
B-1	B-2	B-3	B-4	B-5	B-6	B-7	B-8	B-9	B-10	B-11	B-12	B-13	B-14	B-15	B-16	

1.0000e+01	1.0000e+01	1.0000e+01	1.4400e+00	1.0000e+01	1.0000e+01	1.5100e+00	1.9400e+00	1.0000e+01	1.0000e+01	1.9900e+00	2.4900e+00	2.4100e+00	2.9000e+00	1.0000e+01	2.9800e+00	




#DATA BEGINS
time	group	step	mark	flag	A-AC1	A-AC2	A-AC3	A-AC4	A-AC5	A-AC6	A-AC7	A-AC8	A-AC9	A-AC10	A-AC11	A-AC12	A-AC13	A-AC14	A-AC15	A-AC16	A-DC1	A-DC2	A-DC3	A-DC4	A-DC5	A-DC6	A-DC7	A-DC8	A-DC9	A-DC10	A-DC11	A-DC12	A-DC13	A-DC14	A-DC15	A-DC16	A-Ph1	A-Ph2	A-Ph3	A-Ph4	A-Ph5	A-Ph6	A-Ph7	A-Ph8	A-Ph9	A-Ph10	A-Ph11	A-Ph12	A-Ph13	A-Ph14	A-Ph15	A-Ph16	B-AC1	B-AC2	B-AC3	B-AC4	B-AC5	B-AC6	B-AC7	B-AC8	B-AC9	B-AC10	B-AC11	B-AC12	B-AC13	B-AC14	B-AC15	B-AC16	B-DC1	B-DC2	B-DC3	B-DC4	B-DC5	B-DC6	B-DC7	B-DC8	B-DC9	B-DC10	B-DC11	B-DC12	B-DC13	B-DC14	B-DC15	B-DC16	B-Ph1	B-Ph2	B-Ph3	B-Ph4	B-Ph5	B-Ph6	B-Ph7	B-Ph8	B-Ph9	B-Ph10	B-Ph11	B-Ph12	B-Ph13	B-Ph14	B-Ph15	B-Ph16	aux-1	digaux	

334.617	1	1	0	768	0.28437	0.29973	0.24383	0.26707	0.032898	0.16957	0.26802	0.18021	0.16925	0.1793	0.24644	0.25355	0.18391	0.037451	0.19041	0.10651	-3.1646	-3.4333	-3.5167	-3.7646	-3.3396	-3.4938	-3.7958	-3.5146	-3.7833	-3.6021	-3.7396	-3.6542	-3.3667	-3.6833	-3.5417	-3.6271	-22.453	255.891	37.217	242.273	53.493	7.914	248.501	250.140	131.448	239.091	214.789	56.940	50.114	232.979	140.410	256.554	0.00013848	0.00040772	8.892e-05	1378.1	1.494e-06	3.3142e-06	1370.5	369.49	1.8816e-06	6.2974e-06	424.18	139.6	119.1	42.353	3.983e-06	52.372	0.00049469	0.00055822	0.00016126	1383.6	5.8201e-06	6.0977e-06	1381.7	374.9	5.7867e-06	6.2687e-06	428.46	143.33	124.12	43.073	6.2948e-06	53.295	183.123	11.767	57.581	-64.409	105.911	76.786	-64.335	-59.655	193.115	74.695	-60.211	-56.089	-55.050	-50.653	59.667	-51.639	-8191	255	
334.713	1	1	0	0	0.26282	0.17516	0.13356	0.3315	0.20474	0.13983	0.067201	0.12166	0.27387	0.12286	0.17595	0.1194	0.21021	0.18924	0.13339	0.31089	-3.4854	-3.575	-3.5917	-3.8479	-3.4938	-3.5812	-3.6437	-3.4125	-3.7771	-3.3896	-3.4979	-3.7583	-3.2146	-3.7271	-3.6	-3.4083	87.568	105.854	247.874	235.642	75.301	186.094	129.215	257.718	156.870	88.097	192.986	279.777	-62.818	235.384	194.900	237.595	0.00015423	0.00057618	0.00016168	1380.7	4.2684e-06	5.0815e-06	1375.6	369.25	1.5046e-06	4.018e-06	424.89	139.64	119.11	42.345	2.0453e-06	52.449	0.00050182	0.0005683	0.00016089	1384.1	5.91e-06	6.3558e-06	1381.9	374.76	5.9243e-06	6.3523e-06	428.28	143.03	124.23	43.068	6.1111e-06	53.252	177.692	15.654	19.447	-64.491	99.578	89.203	-64.337	-59.837	110.810	49.394	-60.399	-56.114	-55.327	-50.876	46.078	-51.398	-8191	255	
334.809	1	1	0	0	0.14217	0.27525	0.095041	0.078005	0.15816	0.21114	0.1201	0.47725	0.11156	0.071035	0.21736	0.26227	0.17902	0.18207	0.053107	0.085956	-3.2604	-3.5292	-3.4125	-3.8729	-3.5229	-3.5646	-3.75	-3.4271	-3.7792	-3.3396	-3.5146	-3.8958	-3.2333	-3.6146	-3.6937	-3.4292	111.099	-45.585	270.339	-77.373	-23.890	223.031	244.305	259.593	-36.039	26.295	218.723	255.687	-7.769	204.639	206.762	189.423	0.00011387	0.0006739	0.00022155	1382	2.5148e-06	2.7908e-06	1373	369.92	2.8386e-06	3.3781e-06	425.24	139.41	118.46	42.212	3.6641e-06	52.269	0.0005073	0.00057444	0.00015555	1384.9	6.0613e-06	6.2703e-06	1382.9	374.37	6.1532e-06	6.2999e-06	428.79	143.17	124.17	42.993	5.944e-06	53.332	176.506	31.059	15.409	-64.415	58.725	38.303	-64.453	-59.948	54.076	47.820	-60.367	-55.980	-55.320	-50.814	62.388	-51.479	-8191	255	
334.905	1	1	0	0	0.093925	0.14681	0.17877	0.16131	0.082154	0.10048	0.083645	0.18993	0.047538	0.051427	0.11775	0.19966	0.090578	0.08054	0.17109	0.24561	-3.2083	-3.5312	-3.5125	-3.8083	-3.2917	-3.6	-3.7521	-3.3646	-3.7062	-3.6167	-3.6979	-3.8979	-3.3	-3.6396	-3.6042	-3.3563	50.491	-46.202	241.969	-75.584	-0.487	-3.961	258.168	184.449	-68.632	79.609	251.412	238.262	-12.694	-29.495	-65.488	213.462	0.00016711	0.00050855	0.00016398	1381.4	6.2323e-07	6.0089e-06	1371.9	368.99	2.5036e-06	3.0456e-06	423.87	139.51	119.77	42.228	3.4172e-06	52.498	0.00053525	0.00058376	0.00015285	1383.8	6.2746e-06	6.2802e-06	1381.9	374.71	6.3813e-06	6.1742e-06	427.39	143.27	124.59	43.027	5.7132e-06	53.31	183.182	45.504	35.821	-64.331	87.697	116.135	-64.625	-59.854	71.360	70.588	-60.367	-56.024	-55.354	-50.932	53.981	-51.444	-8191	255	
335.000	1	1	0	0	0.087048	0.184	0.075403	0.18867	0.23823	0.081544	0.089164	0.15106	0.12827	0.19901	0.025457	0.27979	0.21745	0.091336	0.32755	0.33887	-3.2979	-3.5125	-3.1813	-3.9479	-3.3792	-3.3812	-3.8104	-3.5979	-3.6375	-3.725	-3.4646	-3.8958	-3.5167	-3.6583	-3.9146	-3.4313	22.875	223.310	265.338	239.151	120.396	-36.970	190.538	203.298	-23.091	167.057	273.954	-60.390	-16.570	-31.541	79.458	217.835	0.00017285	0.00057258	0.00014145	1375.9	3.9713e-06	3.8134e-06	1374.6	369.4	3.0292e-06	5.8162e-06	423.41	139.54	118.54	42.319	1.5801e-06	52.244	0.00053294	0.00056665	0.00014519	1382.9	6.3014e-06	6.0224e-06	1382.7	374.46	6.2589e-06	6.0392e-06	427.76	143.19	124.24	43.024	5.824e-06	53.208	180.940	21.325	28.948	-64.413	94.463	62.714	-64.319	-59.836	37.580	50.149	-60.128	-55.916	-55.471	-50.965	75.815	-51.479	-8191	255	
335.098	1	1	0	0	0.25241	0.13048	0.035054	0.098721	0.17269	0.13017	0.20585	0.33193	0.26585	0.17601	0.092016	0.1606	0.21758	0.031296	0.16042	0.075025	-3.0792	-3.6333	-3.3771	-4.0125	-3.4813	-3.4688	-3.9771	-3.4958	-3.6042	-3.7083	-3.4292	-3.7417	-3.6104	-3.6521	-3.5729	-3.5104	-75.511	214.539	-9.107	228.248	126.689	-25.039	202.209	251.695	9.640	12.836	238.888	32.264	-51.896	4.216	235.536	210.736	0.00015694	0.00041999	0.00012055	1380.6	3.9137e-06	4.8015e-06	1370.8	369.68	3.5742e-07	6.076e-06	424.07	139.28	119.31	42.315	3.5369e-06	52.251	0.00053615	0.00054572	0.00014821	1383.8	6.3379e-06	5.9423e-06	1381.8	374.86	6.2411e-06	5.9236e-06	428	143.45	124.3	42.995	5.9399e-06	53.291	175.498	-2.325	3.272	-64.297	42.672	109.863	-64.173	-59.913	-48.368	75.578	-60.213	-55.835	-55.435	-50.752	26.185	-51.454	-8191	255	
335.216	1	1	0	0	0.26768	0.10272	0.33119	0.069945	0.012872	0.17881	0.048159	0.10763	0.22553	0.21473	0.21506	0.17051	0.13389	0.040503	0.14644	0.32998	-3.1562	-3.4708	-3.3125	-3.7562	-3.5729	-3.3979	-3.8146	-3.5375	-3.3604	-3.7938	-3.4188	-3.5792	-3.525	-3.4271	-3.8042	-3.4125	226.090	24.457	131.831	16.107	28.672	233.138	166.514	276.255	215.823	277.804	188.952	154.759	213.421	52.108	-0.757	158.562	0.00013533	0.00056957	0.00014598	1375.5	4.576e-06	5.8408e-06	1371	370.25	2.3917e-06	6.3356e-06	422.3	139.68	119.11	42.2	9.4459e-07	52.362	0.00052723	0.00052914	0.00015139	1384.3	6.156e-06	5.6646e-06	1382	374.65	6.0559e-06	5.7931e-06	427.85	143.44	124.39	42.991	6.217e-06	53.313	183.216	2.879	45.176	-64.276	80.028	38.097	-64.259	-59.869	30.533	70.325	-60.128	-55.935	-55.383	-50.949	113.335	-51.400	-8191	255	
335.313	1	1	0	0	0.27418	0.12556	0.19102	0.36257	0.059679	0.1514	0.24718	0.058658	0.26643	0.13219	0.17013	0.13123	0.21624	0.057347	0.10319	0.33562	-3.1	-3.5354	-3.4042	-3.6729	-3.6625	-3.1917	-3.9542	-3.6771	-3.5375	-3.7229	-3.5563	-3.6104	-3.625	-3.3354	-3.7125	-3.6625	63.376	66.510	109.577	-59.513	-10.834	272.092	-63.877	-9.052	41.747	-44.568	198.196	203.823	192.624	206.964	117.623	-58.777	0.00015388	0.00038935	0.00016959	1380.1	1.9754e-06	3.0293e-06	1369.4	368.75	1.6024e-06	3.1799e-06	423.89	139.51	120.62	42.434	1.5394e-06	52.328	0.00050649	0.0005227	0.00015788	1384.2	6.0188e-06	5.7538e-06	1381.5	374.71	5.9e-06	5.769e-06	428.3	143.19	124.78	43.043	6.342e-06	53.276	181.774	17.632	55.564	-64.309	55.452	76.476	-64.429	-59.975	1.468	75.607	-60.163	-55.816	-55.344	-50.924	12.715	-51.308	-8191	255	
335.409	1	1	0	0	0.069722	0.15021	0.14826	0.059982	0.20629	0.23662	0.10116	0.13052	0.29857	0.13647	0.17397	0.11894	0.20105	0.24588	0.068155	0.11196	-2.8688	-3.7583	-3.3063	-3.5667	-3.6333	-3.3438	-3.7771	-3.7208	-3.6104	-3.7729	-3.5146	-3.4917	-3.6854	-3.2646	-3.4646	-3.5667	191.418	-42.490	217.422	-55.842	-21.937	-44.556	133.089	273.299	267.650	49.749	238.764	206.162	77.886	190.199	44.892	123.533	0.00013081	0.00035866	0.00017166	1380.1	3.0564e-06	4.1077e-06	1373	369.64	1.3917e-07	4.4019e-06	422.49	139.6	119.29	42.226	3.0381e-06	52.536	0.00050316	0.00053819	0.00016022	1383.5	5.7411e-06	5.9139e-06	1383.1	374.97	5.7614e-06	5.8937e-06	428.12	143.38	124.46	42.984	6.3635e-06	53.304	186.200	-17.698	33.885	-64.344	87.576	105.099	-64.362	-59.815	48.183	54.579	-60.234	-55.882	-55.164	-50.688	106.736	-51.293	-8191	255	
335.505	1	1	0	0	0.39153	0.44706	0.2929	0.29494	0.092711	0.22424	0.22075	0.037632	0.1166	0.14733	0.067938	0.13989	0.067944	0.11613	0.084333	0.05989	-3.0708	-3.5521	-3.4583	-3.8104	-3.5792	-3.4458	-3.6937	-3.7042	-3.3354	-3.8125	-3.5104	-3.525	-3.6229	-3.5792	-3.625	-3.7229	169.993	175.526	129.206	-76.806	-57.089	234.476	274.021	16.325	-4.141	126.399	-6.271	172.618	280.620	239.587	120.741	253.383	0.0001572	0.00029685	0.00012041	1380.5	2.2214e-06	3.9752e-06	1374.4	370.54	3.6057e-06	1.929e-06	423.8	139.75	118.81	42.34	3.9018e-06	52.403	0.00049268	0.00054654	0.00016083	1385	5.7006e-06	6.0452e-06	1383.1	375.2	5.7172e-06	6.0969e-06	428.54	143.24	124.23	43.06	6.2059e-06	53.261	179.461	0.391	-0.527	-64.348	114.303	23.659	-64.179	-59.900	13.731	108.488	-60.067	-56.168	-55.310	-50.858	139.259	-51.314	-8191	255	
335.601	1	1	0	0	0.23639	0.099551	0.17091	0.42075	0.10989	0.088784	0.15003	0.20454	0.076391	0.25036	0.12159	0.043253	0.078647	0.166	0.062194	0.094597	-3.0104	-3.6625	-3.5292	-3.6437	-3.6104	-3.2021	-3.7604	-3.8125	-3.4854	-3.6479	-3.6208	-3.5312	-3.7812	-3.4375	-3.4583	-3.6854	-2.837	255.599	-55.979	246.397	-44.693	-10.358	279.120	265.280	-12.570	246.270	64.757	62.447	-61.288	35.923	5.722	32.126	0.0001566	0.00080597	0.00016223	1382.7	1.5919e-06	2.9544e-06	1369.2	370.4	1.3242e-06	2.7055e-06	423.17	139.74	119.4	42.203	2.5994e-06	52.229	0.00049274	0.00056649	0.00015863	1385.6	5.8313e-06	6.2908e-06	1382.5	374.83	5.9254e-06	6.2283e-06	427.91	143.14	124.2	43.06	6.1242e-06	53.176	180.733	3.548	13.748	-64.264	135.080	29.832	-64.349	-59.845	122.762	50.966	-60.249	-55.937	-55.881	-50.795	74.776	-51.507	-8191	255	
335.697	1	1	0	0	0.069266	0.14385	0.19123	0.2975	0.20259	0.24925	0.34201	0.13759	0.20574	0.11345	0.18403	0.077153	0.16154	0.13963	0.31	0.21174	-2.9562	-3.6583	-3.4125	-3.5917	-3.6937	-3.5125	-3.5979	-3.6521	-3.3604	-3.7062	-3.7167	-3.3563	-3.45	-3.4375	-3.4562	-3.7188	178.042	258.550	-30.294	268.261	188.771	141.353	230.991	-12.310	-75.221	184.332	64.113	178.606	-20.795	244.230	40.126	270.317	0.00015593	0.00049058	0.00017937	1384.9	2.0414e-06	5.1774e-06	1371.8	368.96	2.292e-06	3.7257e-06	424.14	139.96	119.41	42.363	9.5292e-07	52.205	0.0005113	0.00057622	0.00015492	1386.8	6.057e-06	6.2993e-06	1382.7	374.87	6.0598e-06	6.4396e-06	428.34	143.42	124.5	43.095	6.0293e-06	53.259	176.417	34.529	7.333	-64.400	17.698	57.699	-64.538	-59.790	42.345	70.052	-60.283	-56.172	-55.114	-50.731	128.687	-51.519	-8191	255	
335.793	1	1	0	0	0.14769	0.14152	0.1714	0.085281	0.21496	0.12427	0.047154	0.46362	0.16956	0.079922	0.17074	0.27334	0.17162	0.065364	0.16789	0.19472	-3.0417	-3.4792	-3.4667	-3.5042	-3.5354	-3.3083	-3.3937	-3.6083	-3.4375	-3.6271	-3.9708	-3.5563	-3.6271	-3.5563	-3.4604	-3.7167	210.011	183.788	54.082	-43.052	-64.657	88.097	-46.767	252.920	233.837	261.419	124.999	-22.256	-72.341	178.831	3.044	202.019	0.00017201	0.00043455	0.00014767	1379.4	2.5221e-06	5.0521e-06	1373.9	369.22	1.4877e-06	4.2129e-06	422.12	140.05	119.52	42.255	2.4669e-06	52.437	0.0005275	0.00058614	0.00015308	1385.9	6.3749e-06	6.3548e-06	1384	374.86	6.3977e-06	6.3283e-06	427.65	143.47	124.69	43.019	5.9577e-06	53.299	187.495	19.599	11.903	-64.546	94.033	54.688	-64.231	-59.937	170.472	79.244	-60.217	-55.949	-55.284	-50.838	69.080	-51.320	-8191	255	
335.912	1	1	0	0	0.035662	0.13395	0.14343	0.37049	0.22145	0.20355	0.17274	0.21183	0.24324	0.10088	0.21721	0.12052	0.13409	0.14914	0.11566	0.15943	-2.9792	-3.4167	-3.65	-3.3521	-3.625	-3.5687	-3.5438	-3.6063	-3.4292	-3.3937	-3.7333	-3.4646	-3.575	-3.4646	-3.3	-3.8042	0.114	194.181	-45.642	247.768	202.500	65.128	247.417	215.838	-44.292	4.957	259.592	-57.479	159.976	-27.944	102.131	170.187	0.00018833	0.00095396	0.00014728	1381	3.0454e-06	4.915e-06	1377.2	371.23	1.5117e-06	4.6014e-06	424.38	139.86	119.35	42.271	1.8435e-06	52.367	0.0005374	0.00058059	0.00015028	1386.7	6.4386e-06	6.1513e-06	1385.4	375.56	6.4536e-06	6.1817e-06	428.23	143.5	124.47	43.058	5.9914e-06	53.282	184.922	20.864	20.747	-64.403	121.370	64.176	-64.387	-59.749	-19.902	68.020	-60.252	-55.819	-55.659	-50.862	2.918	-51.685	-8191	255	
336.008	1	1	0	0	0.10727	0.021734	0.053371	0.18511	0.13878	0.10422	0.24402	0.20739	0.098296	0.23656	0.092468	0.2895	0.24409	0.083975	0.2493	0.18644	-2.975	-3.3312	-3.6729	-3.5667	-3.4833	-3.6854	-3.5187	-3.7458	-3.4125	-3.4792	-3.9125	-3.3521	-3.6396	-3.7521	-3.275	-3.9521	-15.538	37.198	264.679	235.569	64.595	-2.373	-62.664	131.988	102.562	52.496	93.411	249.743	274.520	36.796	148.105	210.224	0.00015475	0.00060383	0.00015213	1384.7	3.8219e-06	3.3558e-06	1373.1	370.16	1.3727e-06	7.5144e-06	424.51	140	120	42.357	1.1625e-06	52.357	0.00052985	0.00054691	0.00015	1387.2	6.3418e-06	5.9378e-06	1384.9	375.02	6.2728e-06	5.9743e-06	428.3	143.59	124.78	43.002	5.9048e-06	53.324	169.763	-2.720	40.159	-64.292	85.114	77.886	-64.432	-59.801	15.965	64.625	-60.053	-55.895	-55.572	-50.793	74.215	-51.455	-8191	255	
336.105	1	1	0	0	0.14482	0.16583	0.051729	0.12959	0.14625	0.3307	0.22439	0.19027	0.18354	0.052795	0.18022	0.24876	0.11446	0.12551	0.028507	0.037612	-3.1188	-3.2687	-3.8187	-3.6167	-3.5729	-3.6354	-3.3937	-3.725	-3.6083	-3.5229	-3.8688	-3.6063	-3.5167	-3.8063	-3.4896	-3.675	-32.503	243.836	260.237	-14.743	193.844	10.964	186.505	242.859	121.815	166.455	216.796	229.769	26.620	138.727	-38.914	166.439	0.00014197	0.00029918	0.00012389	1382.1	3.1335e-06	5.7515e-06	1373.5	370.22	2.2924e-06	3.6445e-06	424.81	139.59	119.55	42.306	2.7623e-06	52.343	0.0005199	0.00053036	0.00015133	1386.4	6.2323e-06	5.7505e-06	1384.3	375.65	6.1369e-06	5.7414e-06	428.45	143.55	124.73	43.003	6.0661e-06	53.321	185.399	31.244	47.177	-64.382	74.924	94.097	-64.210	-59.746	66.935	79.540	-60.381	-56.088	-55.412	-50.722	125.846	-51.444	-8191	255	
336.178	1	1	0	0	0.19816	0.24319	0.052958	0.2598	0.1069	0.30359	0.14769	0.094886	0.059606	0.17207	0.16604	0.21759	0.058403	0.092397	0.12838	0.26184	-3.2021	-3.1979	-3.8167	-3.6521	-3.3896	-3.6375	-3.5896	-3.6729	-3.5979	-3.4208	-3.9	-3.5104	-3.5542	-3.7146	-3.3458	-3.7313	166.102	205.293	220.512	264.485	128.371	248.509	139.568	-16.253	107.270	256.076	260.397	275.952	37.411	-64.218	65.752	250.613	0.00015	0.00062008	0.00018023	1381.5	1.4228e-06	5.7501e-06	1374.8	369.87	3.7404e-06	2.6525e-06	424.79	139.46	120.23	42.274	5.6712e-06	52.472	0.00051139	0.00053374	0.00015622	1386.5	6.0744e-06	5.8974e-06	1384.1	375.19	6.0467e-06	6.0174e-06	428.92	143.53	124.81	43.087	6.3808e-06	53.401	171.637	26.035	5.285	-64.372	32.123	65.588	-64.432	-59.962	53.900	79.402	-60.429	-56.127	-55.283	-50.880	71.935	-51.420	-8191	255	
336.297	1	1	0	0	0.2054	0.068693	0.13662	0.41811	0.08761	0.041749	0.16552	0.097778	0.20458	0.084726	0.15496	0.042561	0.063482	0.16034	0.19843	0.1505	-2.9854	-3.2604	-3.6771	-3.6333	-3.2458	-3.7146	-3.5604	-3.5312	-3.5792	-3.2792	-3.75	-3.6542	-3.45	-3.7875	-3.4979	-3.6417	47.282	6.577	27.552	197.999	59.860	-71.095	261.928	213.509	221.430	-7.174	-61.593	-12.011	86.184	226.684	137.161	178.296	0.0001346	0.00059161	0.00015635	1383.4	3.3398e-06	3.9956e-06	1377	372.05	2.3814e-06	3.2802e-06	424.91	139.57	119.76	42.327	3.368e-06	52.462	0.00051497	0.00054676	0.00016471	1389.3	6.0507e-06	6.0454e-06	1385.8	376.21	5.9316e-06	6.0203e-06	429.46	143.44	124.45	43.099	6.5408e-06	53.414	186.003	13.444	17.758	-64.364	122.928	112.489	-64.352	-59.920	69.313	71.815	-60.259	-55.916	-55.753	-50.849	72.115	-51.460	-8191	255	
336.393	1	1	0	0	0.17839	0.1234	0.19145	0.25526	0.053839	0.082841	0.20899	0.080966	0.30325	0.089451	0.20399	0.19519	0.13012	0.1154	0.17679	0.087021	-3.0625	-3.4167	-3.7583	-3.8479	-3.3042	-3.65	-3.6021	-3.6875	-3.6292	-3.4271	-3.6875	-3.5062	-3.4021	-3.8083	-3.4917	-3.6104	-26.043	125.473	250.056	266.712	244.881	128.282	231.831	179.217	49.633	203.908	277.264	167.235	-76.466	-36.457	189.264	37.953	0.00015032	0.00059551	0.00024513	1383.8	2.7756e-06	5.5377e-06	1375.6	370.68	1.4364e-06	5.0554e-06	421.84	139.78	118.34	42.161	9.3072e-07	52.292	0.0004923	0.00056749	0.00016466	1388.3	5.9312e-06	6.2345e-06	1386.5	375.43	5.8179e-06	6.1638e-06	428.11	143.33	124.18	43.035	6.3684e-06	53.308	187.465	16.271	63.868	-64.374	54.365	59.475	-64.296	-59.830	71.422	96.097	-60.253	-55.996	-55.290	-50.827	-17.184	-51.354	-8191	255	
336.489	1	1	0	0	0.1687	0.23311	0.0567	0.20621	0.33643	0.043745	0.053882	0.48339	0.49865	0.039965	0.25018	0.22902	0.2464	0.25323	0.080429	0.095519	-3.3583	-3.1854	-3.4375	-3.7625	-3.2562	-3.7208	-3.7333	-3.55	-3.6583	-3.3771	-3.5854	-3.5563	-3.3042	-3.7854	-3.4625	-3.3792	-9.477	17.250	204.664	270.008	172.175	-36.517	8.800	-59.335	247.048	237.610	253.749	222.459	149.755	257.425	-39.341	-66.577	0.00014348	0.00075897	0.00020281	1384.8	1.9876e-06	5.2516e-06	1377.3	371.47	3.1167e-07	6.1613e-06	426.3	139.75	118.98	42.303	3.2186e-06	52.466	0.0005002	0.00057374	0.00016397	1389.6	5.9399e-06	6.3355e-06	1387.3	375.92	5.9487e-06	6.3367e-06	429.95	143.46	124.47	43.097	6.2436e-06	53.364	173.283	20.058	12.198	-64.359	193.094	52.830	-64.504	-59.767	-27.072	72.966	-60.289	-55.976	-55.078	-51.135	90.454	-51.595	-8191	255	
336.610	1	1	0	0	0.19771	0.15883	0.12011	0.36109	0.03677	0.16747	0.34711	0.35915	0.076746	0.16425	0.13149	0.076738	0.1097	0.25185	0.11989	0.075837	-3.3937	-3.25	-3.5229	-3.6146	-3.4354	-3.6479	-3.6479	-3.4271	-3.5792	-3.55	-3.4688	-3.5271	-3.2875	-3.5417	-3.4104	-3.3333	115.013	16.706	-67.130	185.993	196.171	66.685	213.073	193.775	-32.087	116.872	-41.181	-41.142	46.654	193.801	-25.701	-16.095	0.00016265	0.00074746	0.00017063	1388.4	4.823e-06	4.6809e-06	1374.6	370.97	2.3648e-06	6.618e-06	424.87	140.07	119.06	42.344	2.9525e-06	52.248	0.00051245	0.00057883	0.00015774	1390.8	6.0097e-06	6.3193e-06	1389.4	375.97	6.1119e-06	6.3076e-06	429.04	143.45	124.41	43.129	5.9157e-06	53.249	176.749	8.934	9.422	-64.361	96.470	56.119	-64.460	-59.949	102.030	55.522	-60.235	-55.937	-55.457	-50.915	40.400	-51.443	-8191	255	
336.706	1	1	0	0	0.34256	0.18645	0.22317	0.029415	0.18947	0.11291	0.25123	0.32306	0.26453	0.074705	0.21199	0.064171	0.13628	0.096333	0.098701	0.24924	-3.3167	-3.4417	-3.5271	-3.65	-3.3479	-3.6688	-3.6271	-3.4333	-3.6333	-3.2875	-3.5833	-3.7083	-3.5375	-3.5604	-3.5354	-3.4604	61.044	178.644	129.839	-41.804	246.268	133.125	226.702	204.175	213.798	-65.720	8.818	100.240	-7.785	-69.459	89.792	149.028	0.00013614	0.00058137	0.00010665	1388.3	2.8901e-06	2.9677e-06	1382.8	370.97	1.3104e-06	7.5715e-06	424.88	140.15	120.11	42.337	3.3909e-06	52.277	0.00051904	0.00056528	0.00015022	1391.7	6.1137e-06	6.1915e-06	1389.5	375.82	6.0147e-06	5.9733e-06	428.54	143.53	124.94	43.072	5.5866e-06	53.294	186.710	6.292	53.732	-64.290	80.100	94.132	-64.316	-59.635	174.870	46.511	-60.282	-55.843	-55.282	-50.938	64.042	-51.177	-8191	255	
336.778	1	1	0	0	0.145	0.052267	0.26937	0.23663	0.12008	0.37963	0.11929	0.25502	0.27926	0.24812	0.19445	0.27394	0.099267	0.27592	0.11845	0.2903	-3.3354	-3.2021	-3.4708	-3.7875	-3.3688	-3.6	-3.8021	-3.5333	-3.6312	-3.525	-3.4167	-3.6688	-3.3063	-3.5729	-3.5979	-3.3812	-41.978	133.739	-18.250	217.575	81.028	226.768	92.709	214.493	73.833	91.278	265.059	-53.627	87.024	265.215	45.043	246.308	0.00014328	0.00061145	0.00017404	1386.4	3.7263e-06	4.3286e-06	1379.2	370.66	2.1068e-06	5.7075e-06	425.54	140.39	119.46	42.267	4.5801e-06	52.519	0.00051526	0.00054073	0.0001419	1391.6	6.0271e-06	5.9128e-06	1388.8	375.89	6.0431e-06	5.767e-06	428.52	143.68	124.75	43.059	5.5217e-06	53.341	180.811	17.807	19.044	-64.448	48.380	77.277	-64.350	-59.643	93.672	39.132	-60.309	-56.025	-55.251	-51.023	73.196	-51.308	-8191	255	
336.898	1	1	0	0	0.085832	0.24126	0.1655	0.24804	0.088316	0.21503	0.031097	0.11089	0.097089	0.077365	0.25505	0.24939	0.17951	0.13227	0.083774	0.18668	-3.2188	-3.4625	-3.1854	-3.8729	-3.2812	-3.5375	-3.8167	-3.275	-3.7583	-3.5062	-3.4688	-3.7938	-3.4167	-3.7438	-3.5062	-3.5333	199.644	37.053	-71.330	203.797	118.070	238.786	194.313	89.038	81.241	138.630	256.980	197.281	264.694	-31.190	265.125	237.900	0.00017657	0.00033238	0.00014528	1390.5	3.8039e-06	4.807e-06	1379.2	370.03	1.3653e-06	6.0118e-06	424.49	139.2	119.15	42.235	2.0822e-06	52.565	0.00050777	0.00051789	0.00014154	1392.3	5.9834e-06	5.5314e-06	1388	375.54	5.8311e-06	5.4174e-06	428.2	143.1	124.52	42.955	5.4086e-06	53.298	174.779	24.249	53.005	-64.331	83.222	79.359	-64.305	-59.757	97.059	33.397	-60.047	-56.036	-55.458	-50.768	76.952	-51.238	-8191	255	
336.993	1	1	0	0	0.075839	0.10319	0.08075	0.34851	0.047483	0.12662	0.39754	0.021794	0.19499	0.048892	0.16905	0.099155	0.076697	0.12424	0.11509	0.11988	-3.1813	-3.4625	-3.175	-3.8896	-3.4521	-3.5187	-3.7521	-3.5312	-3.6292	-3.5396	-3.4708	-3.8521	-3.3208	-3.5125	-3.7667	-3.5292	105.859	9.006	166.109	227.516	74.866	-51.605	237.554	137.103	-69.274	39.870	212.289	11.575	211.842	166.719	131.551	242.133	0.0001376	0.00035589	0.0001656	1382.9	4.9908e-06	6.2882e-06	1376.4	369.75	8.7794e-07	5.4764e-06	425.5	140.1	119.47	42.499	2.3462e-06	52.092	0.00048194	0.00048406	0.0001385	1387.8	5.6511e-06	5.1795e-06	1385.3	374.56	5.5465e-06	5.2038e-06	427.84	143.32	124.11	42.954	5.4635e-06	53.09	171.340	8.053	34.146	-64.416	40.388	75.647	-64.427	-59.760	20.593	47.435	-60.129	-56.126	-55.584	-50.707	131.593	-51.184	-8191	255	
337.089	1	1	0	0	0.069664	0.16737	0.20481	0.12361	0.08786	0.064087	0.24128	0.076336	0.21094	0.20917	0.069921	0.30746	0.12826	0.13347	0.25062	0.11432	-3.2104	-3.4896	-3.3333	-3.6667	-3.4188	-3.3042	-3.7979	-3.4042	-3.4667	-3.6542	-3.1833	-3.6354	-3.3521	-3.375	-3.7167	-3.4854	22.921	232.896	62.384	202.433	109.241	196.962	214.398	275.767	280.383	251.738	166.858	-24.656	112.599	155.692	236.853	190.977	0.00017211	0.00053768	0.00020211	1381.8	2.118e-06	2.8265e-06	1377.3	370.26	2.324e-06	3.4941e-06	422.8	139.85	119.71	42.159	4.0479e-06	52.252	0.00047412	0.00047743	0.00014066	1387.2	5.4287e-06	5.2113e-06	1384.1	374.52	5.3751e-06	5.2746e-06	427.64	143.15	123.99	42.871	5.6493e-06	53.188	175.224	22.964	51.533	-64.224	114.463	94.140	-64.401	-59.786	57.420	86.856	-60.171	-55.862	-54.863	-51.058	69.914	-51.210	-8191	255	
337.209	1	1	0	0	0.19318	0.071331	0.26545	0.12309	0.23241	0.13623	0.25809	0.31755	0.15532	0.049626	0.15186	0.063534	0.24765	0.12155	0.15944	0.069228	-3.0062	-3.4208	-3.2521	-3.9521	-3.4792	-3.3583	-3.8583	-3.4729	-3.5125	-3.5917	-3.4771	-3.5021	-3.5	-3.4667	-3.6354	-3.5021	-47.727	272.807	206.616	-31.148	117.429	223.066	204.659	197.822	69.046	205.503	263.507	13.171	196.253	-67.711	31.281	-13.533	0.00014374	0.00046004	0.00023709	1382.2	1.6474e-06	4.773e-06	1377.8	370.46	7.3024e-07	3.9573e-06	423.63	140.07	119.18	42.128	2.0787e-06	52.191	0.00045327	0.00047941	0.00014201	1386.2	5.1889e-06	5.2426e-06	1386.2	374.76	5.1818e-06	5.2906e-06	428.43	143.13	123.98	42.949	5.5973e-06	53.162	172.872	-1.274	13.164	-64.393	51.625	65.553	-64.212	-59.834	-11.237	58.062	-60.162	-55.849	-55.416	-51.187	108.746	-51.469	-8191	255	
337.306	1	1	0	0	0.11107	0.057806	0.29242	0.087863	0.12998	0.10919	0.43826	0.12848	0.15781	0.12485	0.28512	0.11197	0.1516	0.30423	0.10998	0.14772	-3.0708	-3.7292	-3.2562	-3.7354	-3.7188	-3.4188	-3.7625	-3.4896	-3.3604	-3.5833	-3.4813	-3.4875	-3.6208	-3.4417	-3.7021	-3.5833	27.356	48.134	133.578	-24.716	244.050	-73.110	169.778	180.976	-67.647	63.363	221.348	5.047	243.658	60.193	171.153	253.087	0.00013386	0.00037682	0.00011704	1382.6	1.9867e-06	4.8924e-06	1372.3	369.54	2.1536e-06	7.0613e-06	423.93	139.87	119.26	42.014	2.2448e-06	52.253	0.00044606	0.00049142	0.000143	1387.1	5.2028e-06	5.4718e-06	1384.4	374.26	5.1321e-06	5.4707e-06	428.3	143.19	123.76	42.873	5.6157e-06	53.237	174.410	18.820	10.028	-64.323	55.286	61.123	-64.391	-59.836	61.880	65.619	-60.207	-55.776	-55.413	-50.710	117.298	-51.432	-8191	255	
337.402	1	1	0	0	0.21728	0.099893	0.16088	0.25247	0.098284	0.20642	0.061377	0.18484	0.20101	0.029538	0.19799	0.19158	0.19856	0.25825	0.18171	0.17902	-3.1479	-3.4	-3.3854	-3.6354	-3.5875	-3.2708	-3.7333	-3.55	-3.4458	-3.5729	-3.525	-3.6354	-3.6146	-3.2917	-3.5417	-3.6833	23.414	-53.102	191.135	-40.166	-74.492	23.932	-63.760	218.107	153.569	95.404	-61.115	235.138	241.387	124.795	99.594	-0.452	0.00016192	0.00046911	0.00012911	1383.2	4.5065e-06	4.7613e-06	1375.4	370.65	8.4243e-07	5.3084e-06	424.82	140.13	119.5	42.122	2.2981e-06	52.001	0.00045031	0.00051066	0.00014448	1387.6	5.3801e-06	5.5396e-06	1386.5	375.05	5.2835e-06	5.5651e-06	429.12	143.13	124.26	42.952	5.6317e-06	53.097	197.607	8.673	76.041	-64.354	51.953	70.144	-64.243	-59.535	-38.967	67.574	-60.276	-55.981	-55.602	-50.649	144.167	-51.440	-8191	255	
337.473	1	1	0	0	0.12501	0.14281	0.082131	0.38095	0.038567	0.15204	0.24676	0.26377	0.14923	0.13578	0.048505	0.23146	0.099686	0.11524	0.16334	0.076639	-2.8625	-3.6896	-3.2833	-3.5187	-3.6854	-3.1979	-3.7812	-3.6396	-3.2771	-3.7229	-3.4646	-3.5146	-3.5583	-3.4146	-3.5062	-3.5333	260.238	19.158	86.583	274.678	245.314	247.204	222.110	-69.870	-65.331	56.833	93.313	184.948	31.805	165.965	115.060	144.011	0.00016478	0.00011265	0.00020931	1383.3	4.5888e-06	5.1323e-06	1377.3	370.83	1.5417e-06	3.9387e-06	425.74	139.62	119.32	42.3	3.6399e-06	52.34	0.00045312	0.00051984	0.00014135	1387.4	5.5124e-06	5.6588e-06	1386.9	374.95	5.5758e-06	5.6046e-06	429.34	143.27	124.37	42.971	5.4752e-06	53.238	179.572	61.184	-3.184	-64.255	76.411	90.347	-64.288	-59.936	-30.692	67.279	-60.343	-55.880	-55.728	-50.751	61.930	-51.408	-8191	255	
337.594	1	1	0	0	0.21951	0.091197	0.08412	0.1139	0.12702	0.22515	0.10351	0.16872	0.15324	0.18537	0.33456	0.34507	0.30925	0.1197	0.19742	0.077107	-2.8979	-3.5333	-3.4771	-3.7188	-3.7583	-3.3708	-3.6167	-3.7333	-3.2604	-3.6896	-3.4938	-3.4042	-3.7042	-3.4583	-3.5354	-3.7854	124.357	31.827	263.573	253.875	155.630	245.815	230.698	-36.197	199.560	157.221	259.117	236.711	263.659	163.285	14.223	236.901	0.00014946	0.00053541	0.00014742	1386.4	3.3285e-06	3.2805e-06	1379.9	370.54	3.1173e-06	2.2453e-06	424.03	139.97	120.08	42.271	2.7177e-06	52.422	0.00047551	0.00051048	0.00013914	1388.5	5.5994e-06	5.6474e-06	1387.4	375.43	5.6018e-06	5.624e-06	428.21	143.26	124.54	42.958	5.1968e-06	53.181	198.905	36.747	20.774	-64.197	112.837	112.994	-64.278	-59.871	68.855	44.786	-60.318	-55.986	-55.294	-50.825	64.643	-51.575	-8191	255	
337.690	1	1	0	0	0.13504	0.21097	0.1717	0.52494	0.13686	0.092054	0.25138	0.32468	0.2429	0.23744	0.15729	0.057634	0.1959	0.12072	0.023369	0.17694	-2.8271	-3.5708	-3.5604	-3.5312	-3.6688	-3.3563	-3.6417	-3.6729	-3.25	-3.475	-3.5542	-3.5438	-3.6771	-3.5687	-3.3667	-3.8271	84.223	203.449	-43.164	250.803	91.183	-51.742	122.072	171.657	-72.864	24.915	240.988	172.228	-39.813	211.656	159.473	250.851	0.00013938	0.00059015	0.00015355	1381.5	1.6556e-06	2.8119e-06	1377.1	370.5	2.4051e-06	3.6965e-06	425.51	139.62	119.83	42.508	2.4952e-06	52.473	0.00047505	0.00050993	0.00012961	1388.6	5.5603e-06	5.4584e-06	1386.3	375.48	5.5985e-06	5.4669e-06	429.06	143.25	124.51	42.994	5.1442e-06	53.238	187.171	22.636	41.231	-64.366	75.620	75.375	-64.414	-59.677	95.093	90.654	-60.287	-56.046	-55.188	-50.795	59.892	-51.458	-8191	255	
337.786	1	1	0	0	0.15901	0.1395	0.18842	0.28096	0.17144	0.14572	0.22952	0.10361	0.028767	0.1803	0.3605	0.21692	0.22892	0.12982	0.05898	0.15737	-2.7271	-3.6458	-3.575	-3.4667	-3.6521	-3.3521	-3.5479	-3.7292	-3.3438	-3.5021	-3.5875	-3.425	-3.6875	-3.6312	-3.35	-3.7875	259.391	272.760	6.931	246.011	236.524	124.644	182.232	-38.334	7.881	-63.455	269.520	226.799	-26.365	258.726	186.166	246.535	0.00015914	0.00082175	0.00012284	1381.6	3.0239e-06	4.8664e-06	1375.4	369.32	1.2891e-06	1.432e-06	423.93	140.13	118.83	42.279	3.5612e-06	52.311	0.00047537	0.00048512	0.00012947	1387.9	5.4972e-06	5.061e-06	1384	374.57	5.4314e-06	5.1086e-06	428.25	143.33	123.99	42.923	5.1773e-06	53.168	174.458	17.261	32.006	-64.310	102.515	57.126	-64.339	-59.796	14.318	84.111	-60.170	-56.029	-55.425	-50.720	80.330	-51.469	-8191	255	
337.882	1	1	0	0	0.36756	0.12732	0.21353	0.24466	0.23493	0.13304	0.16947	0.20519	0.0993	0.18556	0.0138	0.22733	0.07892	0.2769	0.04285	0.055647	-2.9562	-3.4479	-3.6479	-3.5417	-3.6458	-3.4813	-3.6	-3.8479	-3.3688	-3.4958	-3.6375	-3.3292	-3.6833	-3.5771	-3.3354	-3.7479	73.658	250.140	166.171	245.505	162.812	61.262	185.904	-72.786	29.005	130.102	91.275	-70.476	-10.108	280.296	263.670	224.017	0.00011637	0.00078706	9.9853e-05	1386.4	1.5986e-06	3.1008e-06	1377.5	370.88	1.8552e-06	6.0057e-06	425.1	139.38	119.53	42.339	2.6984e-06	52.249	0.00046228	0.00046363	0.000131	1386.9	5.3959e-06	5.1355e-06	1383.7	375.25	5.3465e-06	5.1022e-06	428.49	143.28	124.21	42.91	5.3192e-06	53.217	184.288	52.601	51.707	-64.361	30.925	64.366	-64.192	-59.807	93.893	53.058	-60.253	-55.891	-55.198	-50.805	55.691	-51.367	-8191	255	
338.001	1	1	0	0	0.17163	0.11417	0.17149	0.28421	0.11874	0.10912	0.29296	0.49459	0.20279	0.097647	0.16032	0.16039	0.19242	0.23808	0.17928	0.28075	-3.1104	-3.5062	-3.5854	-3.5146	-3.6458	-3.575	-3.7938	-3.7313	-3.5792	-3.5979	-3.8521	-3.5167	-3.5958	-3.65	-3.3104	-3.8	258.705	-13.442	226.765	268.480	183.712	251.106	218.127	224.665	113.279	46.744	255.227	263.993	194.519	-76.063	40.264	246.569	0.00013351	0.0004096	0.00017343	1381.8	2.3371e-06	4.9781e-06	1371.3	369.63	2.3133e-06	4.6408e-06	423.86	139.8	119.59	42.057	3.4106e-06	52.122	0.00045676	0.00045212	0.00013404	1385.2	5.1986e-06	4.8819e-06	1384	374.38	5.028e-06	4.7942e-06	427.32	142.97	123.85	42.742	5.0752e-06	53.003	173.372	9.404	13.763	-64.197	127.791	64.807	-64.463	-59.716	69.105	56.490	-60.141	-55.855	-55.101	-50.862	86.481	-51.198	-8191	255	
338.073	1	1	0	0	0.19839	0.19705	0.077099	0.14261	0.14016	0.1372	0.19876	0.093116	0.065003	0.10351	0.16727	0.28144	0.17033	0.20697	0.064977	0.099216	-2.9792	-3.4646	-3.8417	-3.4708	-3.6896	-3.5104	-3.5417	-3.7313	-3.5	-3.2812	-3.6937	-3.4667	-3.5021	-3.6063	-3.3167	-3.6542	-2.340	-21.786	226.007	232.030	141.196	-32.157	211.969	250.903	186.671	261.600	273.433	237.038	109.111	225.357	62.617	-21.175	0.00014311	0.00052118	5.1003e-05	1377.7	2.5085e-06	6.0689e-06	1369.6	368.81	8.0827e-07	5.2763e-06	424.92	139.41	119.06	42.178	4.2835e-06	52.196	0.00042059	0.00044461	0.00013146	1381.6	4.9118e-06	4.8421e-06	1379.9	373.66	4.8456e-06	4.9439e-06	427.78	142.84	123.45	42.784	5.356e-06	53.068	181.903	0.332	37.718	-64.268	103.043	62.150	-64.208	-59.672	70.802	68.043	-60.253	-55.808	-55.305	-50.850	83.137	-51.288	-8191	255	
338.171	1	1	0	0	0.075482	0.30673	0.029979	0.147	0.13885	0.14185	0.28227	0.3323	0.25109	0.12551	0.18791	0.18125	0.015094	0.053508	0.23605	0.2238	-3.0354	-3.4583	-3.8458	-3.4792	-3.475	-3.6604	-3.5292	-3.7292	-3.4396	-3.3875	-3.7333	-3.5271	-3.5021	-3.6896	-3.2729	-3.6896	126.531	-54.724	269.928	249.816	-38.344	-5.760	211.594	210.451	206.223	84.010	196.881	-21.530	-55.883	278.060	104.545	107.882	0.00017012	0.00057953	0.00015264	1382.4	4.0878e-06	2.4868e-06	1372.9	369.17	1.2032e-06	5.6042e-06	424.24	139.29	119.57	42.202	4.093e-06	52.002	0.00042431	0.00046431	0.00013754	1382.3	4.9737e-06	5.1515e-06	1380.1	374.09	4.9239e-06	5.1919e-06	427.61	142.61	123.52	42.815	5.2845e-06	52.941	168.663	27.240	31.089	-64.353	84.871	50.612	-64.214	-59.710	99.069	97.617	-60.032	-55.831	-55.032	-50.730	82.618	-51.405	-8191	255	
338.290	1	1	0	0	0.25236	0.084622	0.09807	0.076168	0.16555	0.29371	0.18673	0.098601	0.064507	0.062687	0.33613	0.15954	0.1311	0.31048	0.14395	0.32614	-3.2396	-3.2854	-3.5229	-3.5417	-3.4042	-3.7042	-3.45	-3.8104	-3.6354	-3.3875	-3.7083	-3.4062	-3.4125	-3.5812	-3.4042	-3.5458	-37.253	281.564	-11.331	149.095	53.398	194.953	214.879	220.296	17.702	265.232	265.736	-57.598	178.520	243.934	159.515	205.120	0.00016004	0.00025874	0.00010156	1379.5	2.5126e-06	3.9651e-06	1372.7	368.8	1.4229e-06	2.2051e-06	423.24	139.93	119.34	42.096	2.2641e-06	52.233	0.00041683	0.00047295	0.00013244	1380.4	4.8863e-06	5.2234e-06	1380.8	373.59	4.9248e-06	5.2064e-06	427.05	142.74	123.81	42.769	5.1007e-06	53.038	182.031	17.652	47.787	-64.381	119.539	90.083	-64.190	-59.729	-32.707	-15.994	-60.116	-55.961	-55.401	-50.743	70.994	-51.496	-8191	255	
338.386	1	1	0	0	0.067682	0.046422	0.25531	0.35681	0.22316	0.12755	0.2264	0.26796	0.24888	0.081122	0.33932	0.17864	0.2608	0.12242	0.04307	0.12807	-3.225	-3.3312	-3.7375	-3.5812	-3.6083	-3.6104	-3.3271	-3.55	-3.3958	-3.4417	-3.6937	-3.5938	-3.3021	-3.7042	-3.3333	-3.5375	-67.924	84.967	-63.601	258.400	191.010	60.255	161.768	245.908	25.022	-13.587	277.345	222.314	256.199	-66.785	63.242	113.002	0.00014402	0.00046811	0.00017291	1380.2	9.3049e-07	3.8484e-06	1370.6	369.18	1.6578e-06	3.6856e-06	423.2	139.55	119.79	42.073	8.4665e-07	52.043	0.0004313	0.000485	0.00013188	1382.6	5.1153e-06	5.2241e-06	1379.3	373.58	5.0533e-06	5.1864e-06	427.43	142.86	123.79	42.803	4.9683e-06	52.961	176.177	8.341	19.816	-64.324	147.422	93.552	-64.254	-59.707	145.871	77.164	-60.238	-56.035	-55.212	-50.680	90.528	-51.421	-8191	255	
338.482	1	1	0	0	0.013071	0.086108	0.05575	0.34427	0.036273	0.095483	0.28183	0.095863	0.22637	0.14983	0.058244	0.13256	0.049255	0.36657	0.10037	0.13151	-3.2479	-3.2354	-3.4313	-3.5271	-3.3792	-3.6875	-3.5917	-3.5604	-3.6917	-3.4958	-3.6083	-3.6458	-3.2854	-3.7792	-3.3021	-3.5438	278.107	101.975	109.216	216.637	53.915	218.364	222.561	-39.998	39.013	136.373	-52.297	-73.470	-35.573	272.748	-39.829	102.220	0.0001379	0.00046904	0.00025767	1377.3	2.7227e-06	4.1589e-06	1370.4	368.96	2.0724e-06	5.8925e-06	422.67	139.11	119.07	42.048	1.2175e-06	52.181	0.00044913	0.00047777	0.00012808	1380	5.2937e-06	5.2295e-06	1378.5	373.43	5.2225e-06	5.2303e-06	426.86	142.72	123.71	42.789	4.9104e-06	53.013	178.585	25.666	39.123	-64.473	57.297	77.928	-64.305	-59.673	51.070	66.987	-60.014	-55.784	-55.575	-50.633	63.643	-51.256	-8191	255	
338.578	1	1	0	0	0.061578	0.24717	0.11566	0.10515	0.062691	0.17779	0.50428	0.036106	0.18658	0.2617	0.13404	0.083175	0.196	0.21365	0.13814	0.041298	-3.1521	-3.3729	-3.6104	-3.6396	-3.1771	-3.6125	-3.6104	-3.5667	-3.6125	-3.3708	-3.6958	-3.5938	-3.3979	-3.5354	-3.6437	-3.5229	-54.745	237.842	-14.888	-43.212	233.670	108.449	208.384	45.338	135.473	83.015	-72.117	-18.429	29.021	231.311	-46.897	89.423	0.00013997	0.00012896	0.00011574	1382.8	2.7033e-06	3.2098e-06	1372.1	370.07	9.0914e-07	5.0094e-06	423.11	139.31	120.33	42.203	3.1819e-06	52.113	0.00045283	0.00047057	0.00012549	1382.3	5.2538e-06	5.2397e-06	1380.5	373.77	5.3134e-06	5.0804e-06	426.67	142.92	124.23	42.792	4.7632e-06	53.044	176.665	102.825	12.450	-64.046	51.265	109.495	-64.345	-59.873	48.842	60.305	-60.236	-55.878	-55.078	-50.746	62.078	-51.348	-8191	255	
338.674	1	1	0	0	0.020541	0.22185	0.23504	0.22892	0.2684	0.20649	0.12054	0.14259	0.13382	0.16509	0.10264	0.11205	0.25684	0.1303	0.22945	0.17027	-3.1437	-3.2333	-3.375	-3.6146	-3.3083	-3.6813	-3.8729	-3.3771	-3.7354	-3.3646	-3.5771	-3.5812	-3.4104	-3.7646	-3.4375	-3.5333	-59.077	68.757	60.534	266.579	26.321	60.840	-58.810	180.537	-22.887	60.125	155.495	-8.845	168.791	97.813	-77.594	233.509	0.00011735	0.00048172	0.00014502	1380.4	2.2503e-06	2.8232e-06	1371.7	369.77	5.0169e-07	4.596e-06	423.66	139.57	119.09	42.027	3.2318e-06	52.05	0.00045353	0.00046196	0.00012326	1382.5	5.3219e-06	4.921e-06	1380.8	374.02	5.2196e-06	4.8836e-06	427.02	142.7	123.83	42.787	4.825e-06	52.951	182.274	-1.720	46.890	-64.427	62.640	4.830	-64.522	-59.872	130.070	77.769	-59.976	-56.094	-55.261	-50.764	90.608	-51.572	-8191	255	
338.770	1	1	0	0	0.067622	0.2133	0.1176	0.36177	0.013946	0.16144	0.14743	0.14171	0.11211	0.25927	0.10685	0.24393	0.28717	0.24601	0.074148	0.17991	-3.2083	-3.3312	-3.5021	-3.7687	-3.2938	-3.5812	-3.7417	-3.4625	-3.6229	-3.5458	-3.6458	-3.8688	-3.4792	-3.4854	-3.4771	-3.475	248.866	248.959	188.654	260.963	13.281	35.577	273.122	-41.893	55.552	256.524	225.141	250.364	276.917	230.797	-46.630	271.872	0.00014679	0.00055243	0.00014993	1377.3	1.7686e-06	2.3705e-06	1369	368.31	2.0193e-06	3.3101e-06	423.81	139.67	118.62	42.12	1.9104e-06	52.23	0.00044034	0.00042898	0.00012276	1380.6	5.1402e-06	4.6721e-06	1378.2	373.21	5.025e-06	4.6146e-06	426.54	142.61	123.42	42.741	4.9432e-06	53.023	179.584	11.115	18.207	-64.171	108.639	81.755	-64.452	-59.754	81.372	40.932	-60.228	-55.823	-54.984	-50.674	83.497	-51.271	-8191	255	
338.891	1	1	0	0	0.096826	0.16617	0.21477	0.068579	0.058761	0.21593	0.18823	0.064405	0.038978	0.13505	0.23382	0.31278	0.14216	0.19755	0.1474	0.19773	-3.2833	-3.55	-3.5479	-3.7687	-3.4542	-3.5833	-3.7854	-3.4083	-3.5417	-3.4708	-3.3729	-3.7729	-3.3063	-3.6917	-3.4604	-3.5042	278.566	-41.527	107.984	202.334	88.310	-10.517	235.238	246.345	253.275	112.546	207.271	145.394	254.176	206.280	-25.991	76.328	0.00014521	0.00049284	8.5384e-05	1380.2	2.6165e-06	3.2189e-06	1370.1	369.47	1.9992e-06	3.7691e-06	423.88	139.17	118.86	42.3	2.4446e-06	52.287	0.00042589	0.00043196	0.00012899	1380.4	4.9545e-06	4.6569e-06	1378.5	373.77	4.8699e-06	4.6415e-06	426.32	142.65	123.61	42.779	5.0433e-06	53.015	175.167	-9.741	6.289	-64.162	98.928	60.791	-64.271	-59.679	52.294	71.829	-60.258	-55.900	-55.246	-50.897	118.337	-51.312	-8191	255	
338.987	1	1	0	0	0.11133	0.16543	0.21581	0.21853	0.21276	0.097592	0.14411	0.31428	0.1616	0.075357	0.063804	0.12595	0.19881	0.079726	0.19337	0.13656	-3.2208	-3.4667	-3.3833	-3.7792	-3.4292	-3.4542	-3.9125	-3.4646	-3.6437	-3.5229	-3.5854	-3.8104	-3.4208	-3.6208	-3.6667	-3.3354	-36.572	66.805	-3.194	210.083	35.767	114.514	191.772	195.371	228.396	119.131	-1.340	12.708	-56.343	-25.865	96.032	233.856	0.00012698	0.00037518	0.00018534	1376	7.4359e-07	2.6406e-06	1370.3	368.41	1.5911e-06	4.9779e-06	421.19	139.98	118.91	42.121	4.3487e-06	51.958	0.0004185	0.00043548	0.00013029	1379.7	4.9085e-06	4.8437e-06	1379.4	373.01	4.7769e-06	4.7759e-06	426.51	142.78	123.37	42.757	5.0857e-06	52.952	176.852	10.068	38.509	-64.371	-31.927	71.496	-64.215	-59.609	57.722	65.969	-60.110	-55.807	-55.401	-50.783	95.390	-51.122	-8191	255	
339.082	1	1	0	0	0.069074	0.11177	0.053211	0.40641	0.28217	0.1086	0.26644	0.2654	0.19051	0.14672	0.063521	0.094015	0.21016	0.13599	0.076959	0.15832	-3.2833	-3.4208	-3.1437	-3.8479	-3.6021	-3.4583	-3.7542	-3.4146	-3.7167	-3.4938	-3.3854	-3.8417	-3.4813	-3.6458	-3.6562	-3.4375	69.433	43.074	98.592	267.947	-3.110	45.642	208.143	180.054	-75.485	23.153	169.493	-58.237	166.194	-11.667	70.021	-33.377	0.00014876	0.00043998	0.0001813	1375.5	1.5126e-06	6.1345e-06	1372.3	369.22	1.833e-06	4.4583e-06	422.93	139.12	119.97	42.046	3.6828e-06	51.979	0.00041716	0.00043993	0.00013145	1379	4.7194e-06	4.9112e-06	1377.2	373.55	4.7813e-06	4.9592e-06	427.11	142.59	123.8	42.743	5.1131e-06	52.918	166.453	18.096	39.598	-64.221	122.655	59.976	-64.202	-59.605	38.791	66.489	-60.161	-55.849	-55.454	-50.792	127.133	-51.390	-8191	255	
339.178	1	1	0	0	0.061472	0.22353	0.1581	0.27707	0.13933	0.078399	0.20143	0.24395	0.16724	0.061698	0.24794	0.067317	0.18447	0.063962	0.17348	0.10688	-3.2146	-3.5083	-3.3125	-3.775	-3.5271	-3.4	-3.7188	-3.3937	-3.4813	-3.4958	-3.3271	-3.7208	-3.4979	-3.4437	-3.6417	-3.4437	128.062	23.779	208.981	213.977	194.531	180.015	98.103	-56.408	54.876	-6.796	278.944	236.268	-10.654	75.277	-11.005	118.422	0.00017822	0.00026865	0.00017139	1375.7	3.3676e-06	4.2197e-06	1368.9	368.6	2.2797e-06	4.6107e-06	424.06	140.03	119.14	42.074	4.5766e-06	51.917	0.00042245	0.00046691	0.00012895	1379.1	4.8846e-06	5.0788e-06	1378.4	373.4	4.8205e-06	5.064e-06	427.73	142.79	123.78	42.772	5.0635e-06	52.876	169.282	33.417	40.743	-64.354	70.339	105.141	-64.210	-59.851	98.057	49.039	-60.080	-56.026	-55.443	-50.818	25.038	-51.352	-8191	255	
339.298	1	1	0	0	0.15986	0.11655	0.1445	0.22628	0.15842	0.13264	0.13911	0.052894	0.090873	0.10523	0.28372	0.213	0.1906	0.18188	0.17731	0.27654	-3.1	-3.6125	-3.1625	-3.6104	-3.5583	-3.3229	-3.7125	-3.425	-3.4313	-3.5375	-3.5833	-3.6104	-3.5208	-3.4188	-3.6813	-3.4917	72.864	12.135	60.916	253.366	147.869	-26.673	234.302	18.948	18.573	211.677	241.604	227.580	231.247	-46.957	197.161	259.191	0.00014534	0.00039544	0.00016142	1378.3	3.3924e-06	2.1341e-06	1370.7	368.4	1.7831e-06	3.1443e-06	425.1	139.21	118.57	42.032	2.2569e-06	52.267	0.00041976	0.00046887	0.00012663	1379.5	4.9458e-06	5.1626e-06	1377.3	373.18	4.928e-06	5.0776e-06	427.61	142.48	123.52	42.786	4.9322e-06	52.988	184.143	13.899	10.565	-64.186	142.599	100.786	-64.440	-59.572	58.131	57.218	-60.150	-55.919	-55.084	-50.563	72.699	-51.556	-8191	255	
339.370	1	1	0	0	0.13739	0.15566	0.1811	0.23434	0.095899	0.075427	0.19268	0.36185	0.029064	0.064737	0.27989	0.05021	0.081744	0.16878	0.19415	0.22409	-2.9604	-3.4646	-3.1437	-3.6625	-3.4333	-3.1979	-3.9125	-3.6104	-3.5375	-3.4083	-3.625	-3.6208	-3.5521	-3.2333	-3.7417	-3.6104	22.785	41.124	-13.123	159.396	148.451	54.797	179.257	264.058	89.553	-50.250	48.263	173.148	242.921	223.844	-50.986	148.296	0.00016284	0.00022111	9.2882e-05	1378.1	3.9452e-07	4.8255e-06	1365.7	368.79	1.1567e-06	4.1817e-06	424.48	138.75	119.7	42.058	3.1723e-06	52.11	0.00043372	0.0004655	0.00012303	1377.6	5.0651e-06	5.0093e-06	1377.3	372.86	5.0827e-06	5.057e-06	427.04	142.35	123.85	42.737	4.736e-06	52.926	176.704	71.781	2.367	-64.152	-57.773	66.715	-64.404	-59.710	-44.095	38.839	-60.227	-55.803	-55.194	-50.789	76.427	-51.340	-8191	255	
339.466	1	1	0	0	0.010547	0.26412	0.31194	0.44482	0.11293	0.089162	0.17365	0.041093	0.09454	0.078429	0.17113	0.13549	0.40764	0.23813	0.1867	0.22063	-3.0146	-3.6604	-3.1542	-3.5333	-3.5083	-3.3438	-3.7792	-3.575	-3.3292	-3.7458	-3.4708	-3.4271	-3.7917	-3.5187	-3.5646	-3.5479	197.326	-33.338	183.306	255.505	275.742	277.252	157.534	1.101	200.017	10.583	217.084	269.417	-39.729	251.013	234.989	60.510	0.00015109	0.00034206	0.00012892	1378.8	2.6004e-06	2.0373e-06	1368.6	368.37	6.9353e-07	2.9947e-06	422.82	139.29	119.61	42.13	1.373e-06	52.216	0.00043863	0.00045575	0.00011896	1379.5	5.0992e-06	5.0126e-06	1376.4	373.23	5.1339e-06	4.8603e-06	426.37	142.58	123.74	42.827	4.6203e-06	52.954	174.843	-9.770	34.738	-64.249	84.647	36.144	-64.307	-59.507	52.182	67.943	-60.135	-55.916	-55.145	-50.772	98.323	-51.428	-8191	255	
339.562	1	1	0	0	0.25225	0.10553	0.15988	0.32745	0.20889	0.14547	0.087455	0.20438	0.19609	0.04836	0.17854	0.16135	0.087521	0.29124	0.28274	0.17675	-2.8729	-3.5604	-3.2625	-3.5792	-3.6354	-3.3167	-3.7729	-3.5167	-3.3021	-3.6958	-3.5833	-3.5375	-3.65	-3.3646	-3.5146	-3.6937	88.828	-4.731	-75.082	206.673	-74.863	179.492	238.227	202.483	-77.501	250.325	-60.516	235.289	265.207	229.241	-60.643	-49.473	0.00013731	0.00061602	0.00010789	1374	2.2498e-06	6.8377e-06	1366.9	367.8	2.3983e-06	5.0159e-06	423.29	139.34	118.66	42.002	3.4873e-06	52.083	0.00043927	0.0004464	0.00011771	1377.8	5.0962e-06	4.8071e-06	1375.7	372.96	5.0594e-06	4.8055e-06	426.67	142.6	123.72	42.749	4.7062e-06	53.009	173.818	9.260	4.136	-64.231	102.963	95.832	-64.310	-59.762	94.362	50.143	-60.105	-55.633	-55.190	-50.695	69.030	-51.260	-8191	255	
339.659	1	1	0	0	0.42403	0.1462	0.15617	0.18099	0.11033	0.10075	0.23834	0.34335	0.019762	0.25961	0.1149	0.1863	0.30839	0.28397	0.20776	0.2103	-2.9562	-3.525	-3.5104	-3.5917	-3.675	-3.4396	-3.7292	-3.525	-3.2917	-3.6021	-3.6292	-3.5542	-3.6063	-3.4292	-3.6146	-3.6604	92.200	-11.885	115.304	214.595	79.334	101.689	237.961	158.265	-60.826	168.999	-64.757	219.941	236.765	278.750	-23.381	246.016	0.00015044	0.00050343	9.1556e-05	1380.4	6.1392e-07	4.8351e-06	1366.2	368.75	1.3677e-06	4.659e-06	423.14	139.58	119.23	42.145	4.1872e-06	52.361	0.00043285	0.00042569	0.0001204	1379.7	5.0417e-06	4.6501e-06	1374.9	373.24	4.9945e-06	4.5535e-06	426.65	142.68	123.5	42.821	4.8191e-06	53.067	178.961	9.957	7.707	-64.139	21.836	77.620	-64.334	-59.710	24.360	60.269	-60.336	-55.844	-55.145	-50.716	81.279	-51.396	-8191	255	
339.779	1	1	0	0	0.11227	0.20354	0.11867	0.3594	0.15262	0.19429	0.24211	0.23213	0.11067	0.11526	0.30388	0.17025	0.10844	0.23978	0.25642	0.14544	-2.8187	-3.7062	-3.4313	-3.4708	-3.65	-3.5417	-3.4813	-3.7729	-3.2354	-3.7562	-3.5667	-3.4375	-3.6063	-3.6375	-3.5312	-3.7167	-1.210	105.391	-41.659	-64.599	7.845	33.014	238.790	121.050	-60.681	-31.402	-37.546	-70.070	14.575	259.821	155.258	29.199	0.00016694	0.00046168	0.00011163	1374.9	2.6926e-06	3.4481e-06	1367	368.63	9.1364e-07	5.3448e-06	423.02	139.46	119.37	42.089	3.1237e-06	52.52	0.00042371	0.00042744	0.00012318	1378.5	4.9719e-06	4.6099e-06	1377.8	372.99	4.9054e-06	4.6771e-06	426.65	142.62	123.66	42.719	4.991e-06	53.105	169.591	46.132	22.798	-64.262	94.442	106.703	-64.047	-59.763	87.154	62.704	-60.263	-55.902	-55.115	-50.817	83.042	-51.385	-8191	255	
339.875	1	1	0	0	0.35704	0.080712	0.26236	0.2722	0.16851	0.33143	0.12455	0.078417	0.16214	0.063361	0.20347	0.10245	0.20151	0.29401	0.1168	0.14672	-2.9667	-3.4396	-3.4396	-3.5917	-3.4562	-3.3396	-3.5896	-3.8854	-3.3896	-3.6021	-3.5979	-3.4771	-3.7354	-3.4771	-3.3812	-3.6292	-45.629	20.670	257.681	272.954	270.403	120.309	153.267	141.794	-41.585	-29.278	-38.504	171.435	110.283	177.763	167.865	251.613	0.00016346	0.0004357	0.00017354	1375.4	1.9716e-06	5.2543e-06	1366.4	368.02	1.7081e-06	5.4551e-06	422.65	139.2	119.51	42.02	2.9573e-06	52.146	0.00040964	0.0004212	0.00012502	1378.6	4.596e-06	4.5659e-06	1375.5	372.88	4.4853e-06	4.4861e-06	426.2	142.51	123.2	42.704	4.8208e-06	52.935	172.822	23.348	16.996	-64.317	93.985	89.173	-64.352	-59.689	64.854	79.573	-60.058	-55.809	-55.180	-50.704	81.480	-51.427	-8191	255	
339.971	1	1	0	0	0.040569	0.12481	0.16272	0.15582	0.068908	0.088193	0.31676	0.084639	0.18356	0.036443	0.12867	0.18234	0.31236	0.070511	0.16628	0.099536	-2.8479	-3.6188	-3.5187	-3.3604	-3.4479	-3.4479	-3.5521	-3.5729	-3.4583	-3.4958	-3.5521	-3.4125	-3.5979	-3.7521	-3.3396	-3.5958	-0.904	74.797	-41.016	198.210	165.810	95.346	237.151	-14.438	60.457	202.765	-3.978	277.100	173.398	-22.283	-51.158	51.000	0.00014962	0.00045851	0.00014398	1371.5	2.1359e-06	5.1914e-06	1369	368.92	6.3296e-07	3.9622e-06	422.53	139.01	119.13	42.124	1.9802e-06	52.093	0.00038913	0.00041859	0.0001245	1375.9	4.5193e-06	4.6569e-06	1376	372.74	4.5425e-06	4.8313e-06	426.35	142.46	123.52	42.811	5.0014e-06	53.055	183.967	11.667	19.753	-64.264	108.428	76.510	-64.200	-59.645	60.865	39.386	-60.126	-55.805	-55.225	-50.727	73.299	-51.159	-8191	255	
340.066	1	1	0	0	0.065592	0.06779	0.31059	0.14343	0.028456	0.10827	0.38195	0.3538	0.21948	0.17499	0.14043	0.23846	0.13203	0.21728	0.090328	0.2188	-3.0271	-3.4917	-3.4917	-3.475	-3.6583	-3.525	-3.5625	-3.8292	-3.15	-3.4646	-3.7458	-3.6146	-3.5604	-3.7479	-3.4062	-3.7958	-47.759	125.613	51.111	-74.107	281.940	229.230	200.350	242.854	201.649	160.006	59.880	4.371	-28.188	6.355	38.818	-48.266	0.00013584	0.00076841	0.00017775	1376.7	3.7549e-06	3.8606e-06	1364.7	369.69	2.2886e-07	5.9539e-06	422.47	138.88	118.98	42.235	4.3181e-06	52.192	0.00040731	0.000448	0.00012541	1376.9	4.6411e-06	4.9228e-06	1375.9	373.16	4.6491e-06	4.9636e-06	426.66	142.38	123.21	42.823	4.97e-06	52.925	174.509	25.507	26.848	-64.262	70.987	71.495	-64.202	-59.725	193.433	75.899	-60.312	-55.929	-55.416	-50.588	48.816	-51.237	-8191	255	
340.162	1	1	0	0	0.1056	0.2304	0.25988	0.23084	0.18784	0.11492	0.2298	0.16858	0.16203	0.13491	0.13442	0.29295	0.10751	0.20991	0.22972	0.072928	-2.9146	-3.3396	-3.6583	-3.5604	-3.4688	-3.6375	-3.6229	-3.575	-3.4354	-3.3271	-3.7938	-3.6854	-3.4562	-3.8	-3.4833	-3.7396	226.369	-43.281	75.078	229.938	227.887	193.054	189.334	244.625	-48.994	52.261	129.961	191.851	39.132	224.746	239.156	245.508	0.00016778	0.00038912	0.00016174	1369.9	1.3626e-06	4.5339e-06	1365.8	367.77	9.393e-07	4.9222e-06	423.49	139.92	119.06	42.234	2.9529e-06	52.013	0.00041341	0.00045714	0.00012356	1375.2	4.7957e-06	4.9296e-06	1375.6	372.78	4.7654e-06	4.9828e-06	426.72	142.88	123.42	42.857	4.7719e-06	52.934	190.048	2.282	24.960	-64.190	70.548	78.136	-64.105	-59.699	101.781	63.290	-60.320	-55.824	-55.473	-50.728	48.749	-51.198	-8191	255	
340.258	1	1	0	0	0.15097	0.35319	0.10995	0.28029	0.25863	0.086238	0.06254	0.11132	0.053424	0.14202	0.16415	0.12257	0.045157	0.13722	0.10957	0.098685	-3.1063	-3.2167	-3.5396	-3.4708	-3.4667	-3.5667	-3.5146	-3.7792	-3.6688	-3.425	-3.9	-3.3896	-3.1625	-3.6354	-3.3021	-3.6979	175.436	254.170	211.982	256.127	121.699	119.161	224.458	-62.981	248.043	39.507	278.885	-66.676	-33.374	279.555	-59.056	210.487	0.0001419	0.00038277	0.00015391	1377.7	3.3175e-06	3.3795e-06	1370.4	367.86	2.8188e-06	7.0557e-06	423	139.15	118.51	42.256	2.6899e-06	52.323	0.00041985	0.00045098	0.0001188	1381.1	4.8111e-06	4.8335e-06	1376.1	372.51	4.9167e-06	4.9194e-06	426.37	142.41	123.44	42.84	4.5937e-06	53.018	169.233	7.701	14.460	-64.294	103.881	79.452	-64.300	-59.655	44.303	68.870	-60.027	-55.643	-55.112	-50.706	81.767	-51.108	-8191	255	
340.379	1	1	0	0	0.14963	0.097661	0.21865	0.20598	0.079462	0.23604	0.27436	0.012207	0.11594	0.20961	0.21798	0.21966	0.13943	0.10104	0.16649	0.21951	-3.1625	-3.3458	-3.6229	-3.5271	-3.2542	-3.5563	-3.5187	-3.625	-3.4604	-3.3396	-3.8125	-3.4854	-3.45	-3.7812	-3.4688	-3.5083	-51.496	88.161	100.702	246.300	-42.056	190.026	230.777	25.916	61.526	-30.116	247.320	-21.584	144.192	-14.314	12.628	272.714	0.00014708	0.00069	8.6889e-05	1374.6	3.6364e-06	6.1155e-06	1367	367.81	1.9653e-06	4.6965e-06	422.83	139.27	119.14	42.314	2.8738e-06	52.036	0.00042304	0.00044525	0.00011671	1379.3	5.0097e-06	4.8365e-06	1376.4	372.66	4.9821e-06	4.7997e-06	425.82	142.72	123.69	42.881	4.6254e-06	52.982	168.941	6.673	28.349	-64.307	105.587	72.764	-64.203	-59.741	23.343	72.956	-60.117	-55.887	-55.044	-50.782	98.646	-51.168	-8191	255	
340.475	1	1	0	0	0.11769	0.067481	0.18549	0.28917	0.10843	0.18226	0.1642	0.30964	0.14079	0.15008	0.11804	0.16662	0.25095	0.22885	0.083462	0.24531	-3.1771	-3.2292	-3.6479	-3.7958	-3.4646	-3.6292	-3.5479	-3.6854	-3.7354	-3.4542	-3.6188	-3.5354	-3.2896	-3.6167	-3.5146	-3.4833	273.596	251.019	121.616	246.228	12.986	162.673	246.641	252.573	112.403	27.993	10.490	-27.024	259.964	-59.388	165.790	247.674	0.00015319	0.00045873	0.00012942	1373	2.0156e-06	5.5719e-06	1367.7	368.85	1.5176e-06	2.8024e-06	422.8	139.38	118.91	42.318	4.0428e-06	52.269	0.00043661	0.00043206	0.00011481	1377.8	4.9994e-06	4.6823e-06	1375.6	373.01	4.9441e-06	4.624e-06	426.52	142.57	123.74	42.895	4.6732e-06	53.111	177.421	-4.567	30.870	-64.260	90.399	80.281	-64.342	-59.587	16.533	49.278	-59.976	-55.797	-55.588	-50.404	107.396	-51.131	-8191	255	
340.571	1	1	0	0	0.041476	0.37428	0.024016	0.11643	0.19588	0.034373	0.13478	0.2422	0.22974	0.1359	0.10725	0.11042	0.17336	0.16782	0.12711	0.2732	-3.1292	-3.3417	-3.5896	-3.6104	-3.3563	-3.75	-3.4813	-3.5208	-3.65	-3.3354	-3.4792	-3.8292	-3.3958	-3.5771	-3.4292	-3.4437	234.983	254.749	54.592	272.566	261.977	-23.304	276.651	-53.531	149.087	212.657	142.141	227.235	225.061	-55.321	26.487	-58.564	0.0001781	0.00072152	0.0001071	1376.1	3.569e-06	3.8892e-06	1368.1	368.19	5.456e-07	6.0095e-06	422.38	139.68	118.85	42.227	1.2633e-06	52.2	0.00042776	0.00042299	0.00011872	1377.9	4.9147e-06	4.5154e-06	1375.9	372.7	4.8424e-06	4.4488e-06	426.51	142.63	123.4	42.848	4.7198e-06	52.99	179.829	27.929	45.102	-64.302	80.923	90.137	-64.194	-59.790	20.397	76.057	-60.075	-55.988	-55.035	-50.620	175.583	-51.392	-8191	255	
340.667	1	1	0	0	0.14532	0.22259	0.043383	0.066377	0.27388	0.18773	0.24309	0.1194	0.083165	0.058256	0.049074	0.33114	0.15433	0.26807	0.093701	0.17266	-3.4188	-3.4146	-3.5208	-3.7354	-3.2604	-3.625	-3.6521	-3.5646	-3.6875	-3.325	-3.7646	-3.525	-3.3896	-3.7271	-3.5687	-3.2625	-56.862	153.437	140.370	273.843	228.334	267.387	-4.522	-68.158	217.863	36.182	43.815	259.134	-16.651	274.943	51.558	216.444	0.00016524	0.00029422	0.00021014	1371.1	2.7112e-06	2.8548e-06	1365.6	368.93	1.3376e-06	2.2013e-06	423.42	139.53	119.73	42.177	2.5436e-06	52.413	0.00041738	0.00040868	0.00011878	1377	4.7715e-06	4.4017e-06	1373	372.6	4.6207e-06	4.3465e-06	426.17	142.6	123.17	42.825	4.7356e-06	53.072	181.789	3.417	27.826	-64.222	91.132	93.161	-64.260	-59.644	-11.530	93.208	-60.199	-55.944	-55.132	-50.804	115.087	-51.404	-8191	255	
340.763	1	1	0	0	0.11846	0.13557	0.073528	0.036097	0.13921	0.065335	0.2796	0.41711	0.16219	0.11188	0.18857	0.079773	0.22266	0.33525	0.1259	0.24608	-3.2917	-3.3063	-3.5375	-3.7875	-3.3875	-3.45	-3.6542	-3.4208	-3.6208	-3.2521	-3.6708	-3.8438	-3.1979	-3.6521	-3.5687	-3.4479	61.507	-55.948	160.280	66.442	-51.422	67.287	184.709	236.304	190.872	31.417	174.056	277.110	238.986	263.667	-22.380	269.383	0.00014609	0.00031871	0.00013383	1372	2.6774e-06	2.8899e-06	1364.1	369.09	1.178e-06	2.7928e-06	423.88	139.19	119.23	42.227	3.0165e-06	52.175	0.00040036	0.00040946	0.00012212	1375.3	4.5578e-06	4.4754e-06	1375.6	372.92	4.547e-06	4.5979e-06	426.31	142.53	123.17	42.862	4.8967e-06	53.076	181.957	-35.602	-0.333	-64.402	83.493	108.044	-64.166	-59.612	57.707	109.605	-59.989	-55.824	-55.190	-50.877	78.100	-51.213	-8191	255	
340.860	1	1	0	0	0.14913	0.17925	0.053965	0.28431	0.13353	0.11682	0.33721	0.12839	0.20656	0.19606	0.15184	0.077393	0.063619	0.054581	0.10807	0.13078	-3.1896	-3.3021	-3.5312	-3.6771	-3.3792	-3.5146	-3.6063	-3.4333	-3.5438	-3.3771	-3.5167	-3.7458	-3.2729	-3.5771	-3.7562	-3.4729	-17.188	198.776	36.042	260.541	186.381	91.882	199.193	235.279	226.531	198.490	263.439	270.696	29.522	38.655	-66.254	201.630	0.00016855	0.00051359	9.9233e-05	1379.7	5.187e-06	3.115e-06	1364.2	368.74	1.6881e-06	5.306e-06	423.02	139.58	119.25	42.251	2.5978e-06	52.284	0.00039776	0.00042563	0.00012535	1378.9	4.4197e-06	4.689e-06	1374.7	372.82	4.5237e-06	4.7708e-06	426.19	142.64	123.46	42.874	4.9954e-06	53.109	177.032	3.963	45.065	-64.299	113.687	78.253	-64.247	-59.707	41.517	53.700	-60.180	-55.847	-55.425	-50.755	78.773	-51.359	-8191	255	
340.980	1	1	0	0	0.17476	0.053798	0.027158	0.15188	0.11174	0.15438	0.24612	0.081107	0.090557	0.34436	0.16677	0.099717	0.19736	0.17053	0.11364	0.036627	-3.4437	-3.5062	-3.4062	-3.8229	-3.2979	-3.4	-3.7333	-3.425	-3.65	-3.5646	-3.4792	-3.7604	-3.2167	-3.4396	-3.7146	-3.4688	194.186	253.960	193.669	-64.673	87.318	248.845	176.727	-16.267	72.750	263.769	247.861	32.818	167.352	265.936	180.427	-9.638	0.00015936	0.00036996	0.00012627	1374.4	1.9349e-06	3.9899e-06	1369.8	369.46	5.3169e-07	5.1354e-06	423.21	139.17	119.02	42.217	2.9633e-06	52.332	0.00040174	0.00044738	0.00012598	1377.8	4.7182e-06	4.9214e-06	1375.3	372.78	4.653e-06	4.9916e-06	426.87	142.56	123.59	42.913	4.9732e-06	53.106	183.420	-5.618	-0.599	-64.317	56.487	50.166	-64.228	-59.655	66.966	65.386	-60.121	-56.014	-55.290	-50.702	34.028	-51.248	-8191	255	
341.075	1	1	0	0	0.22817	0.23136	0.065755	0.21092	0.26524	0.051761	0.12469	0.32784	0.1733	0.099696	0.20316	0.13622	0.10514	0.11107	0.21007	0.17537	-3.1188	-3.5208	-3.1688	-3.8042	-3.4896	-3.35	-3.8958	-3.3625	-3.4833	-3.6083	-3.3854	-3.7	-3.4562	-3.6271	-3.5333	-3.4292	-42.108	-68.110	236.107	248.016	1.752	243.557	188.050	258.090	-12.112	128.663	227.893	-27.235	155.972	17.498	162.768	218.694	0.00017333	0.0003716	0.00012485	1373.6	2.7607e-06	4.4668e-06	1369.3	369.5	1.4849e-06	4.2654e-06	421.85	139.3	119.69	42.15	3.6753e-06	52.313	0.00041517	0.00045871	0.00012482	1376.8	4.7704e-06	5.0368e-06	1377.3	373.14	4.7205e-06	4.8708e-06	425.78	142.55	123.73	42.863	4.7871e-06	53.057	173.471	27.515	10.995	-64.345	76.527	106.564	-64.193	-59.684	75.821	66.607	-60.288	-55.822	-55.246	-50.867	39.930	-51.298	-8191	255	
341.171	1	1	0	0	0.080937	0.078637	0.055663	0.27603	0.38452	0.072526	0.16669	0.082236	0.050419	0.073227	0.13376	0.17776	0.1111	0.10659	0.32226	0.39596	-3.0667	-3.4396	-3.1667	-3.7938	-3.5125	-3.4271	-3.8708	-3.4292	-3.5646	-3.4833	-3.5354	-3.7167	-3.4313	-3.5771	-3.6854	-3.4417	135.937	110.681	133.435	239.468	-22.331	-29.690	180.262	229.874	208.419	-72.143	226.038	233.876	238.083	44.967	-37.456	273.563	0.00017308	0.0005691	0.00013861	1373.6	2.7655e-06	4.8841e-06	1368.8	368.74	2.3138e-06	6.182e-06	422.24	139.82	119.38	42.097	2.6361e-06	52.108	0.00041852	0.00044892	0.00011928	1376.4	4.9151e-06	4.9613e-06	1375.7	372.92	4.9988e-06	4.8975e-06	425.72	142.75	123.58	42.853	4.6366e-06	53.051	186.155	-17.422	12.905	-64.206	95.309	55.567	-64.215	-59.536	31.849	70.541	-60.017	-56.014	-55.417	-50.812	45.484	-51.580	-8191	255	
341.242	1	1	0	0	0.11453	0.14497	0.15522	0.47651	0.083355	0.082839	0.40803	0.38045	0.14051	0.17511	0.14397	0.093357	0.22957	0.27795	0.1346	0.088473	-3.1167	-3.6896	-3.2271	-3.8	-3.6292	-3.3521	-3.8833	-3.6	-3.3625	-3.6813	-3.325	-3.6604	-3.425	-3.3563	-3.6458	-3.6104	-20.257	30.254	118.590	-59.990	-1.935	-22.255	212.172	212.027	40.033	-40.085	238.725	249.200	176.480	259.263	135.520	276.135	0.00015271	0.00037374	0.00015538	1376.2	3.4617e-06	4.3543e-06	1365.4	367.65	2.3915e-06	4.7454e-06	423.23	139.91	119.55	42.216	2.8706e-06	52.327	0.00043055	0.00044961	0.00011727	1378.3	4.927e-06	4.9078e-06	1376	372.54	4.955e-06	4.7878e-06	426.22	142.88	123.87	42.893	4.5408e-06	53.146	174.308	-28.356	23.775	-64.301	116.732	37.243	-64.203	-59.706	111.498	85.065	-60.089	-55.897	-55.222	-50.733	36.913	-51.103	-8191	255	
341.363	1	1	0	0	0.38276	0.20232	0.047095	0.13906	0.11568	0.11314	0.42108	0.24151	0.25132	0.088954	0.18245	0.072151	0.2164	0.25935	0.11876	0.090696	-3.0438	-3.5979	-3.2083	-3.5979	-3.5396	-3.3021	-3.7313	-3.3479	-3.5271	-3.7521	-3.4146	-3.6042	-3.4583	-3.1958	-3.7125	-3.5521	-56.594	260.849	-53.012	251.185	220.727	160.238	243.932	277.503	135.064	28.983	261.693	86.129	281.097	201.579	-6.039	223.576	0.00012986	0.00051893	0.00023551	1378	2.4927e-06	3.6135e-06	1368.7	368.41	1.9796e-06	7.187e-06	422.31	139.73	119.14	42.284	1.9617e-06	52.259	0.00043975	0.00043563	0.00011407	1379.7	5.038e-06	4.7893e-06	1376.2	372.81	4.8892e-06	4.6652e-06	426.05	142.75	123.61	42.951	4.641e-06	53.125	190.964	19.138	10.558	-64.280	205.316	79.454	-64.185	-59.646	76.297	65.616	-60.309	-56.056	-55.326	-50.797	80.281	-51.355	-8191	255	
341.459	1	1	0	0	0.084908	0.13493	0.27193	0.02178	0.013577	0.27041	0.0056417	0.10245	0.077771	0.18119	0.19518	0.3477	0.1608	0.18171	0.29877	0.27751	-2.9354	-3.5938	-3.35	-3.65	-3.6771	-3.3187	-3.5875	-3.5729	-3.1542	-3.675	-3.4729	-3.5771	-3.5146	-3.4229	-3.7021	-3.5375	-9.537	140.489	-6.643	255.123	200.762	27.683	190.602	247.633	5.315	148.454	117.525	207.821	67.117	280.088	1.786	238.516	0.00018389	0.00075307	0.00014198	1376.2	3.0101e-06	3.312e-06	1370.6	368.39	2.1084e-06	4.7296e-06	422.58	139.68	119.69	42.428	1.1255e-06	52.378	0.00042794	0.00042634	0.00011802	1379.1	4.9572e-06	4.4774e-06	1377.1	373.12	4.8144e-06	4.4472e-06	426.25	143	123.66	42.947	4.6466e-06	53.125	181.202	-12.507	2.208	-64.290	105.649	76.871	-64.322	-59.657	41.665	68.535	-60.264	-55.795	-55.207	-50.885	135.252	-51.333	-8191	255	
341.555	1	1	0	0	0.14681	0.063603	0.064099	0.067631	0.15764	0.10856	0.062629	0.18282	0.18278	0.11884	0.080776	0.20224	0.083148	0.35205	0.16812	0.25176	-2.8104	-3.4396	-3.1104	-3.5167	-3.5958	-3.3688	-3.6979	-3.6562	-3.2104	-3.6375	-3.525	-3.5229	-3.6479	-3.5083	-3.5	-3.725	198.326	102.774	-44.320	225.170	208.847	86.373	167.044	186.857	225.538	60.714	156.519	-61.950	184.042	-30.037	47.311	-54.871	0.0001249	0.00054836	3.5291e-05	1373.1	2.2187e-06	5.7698e-06	1372.1	368.25	1.6341e-06	4.7205e-06	423.66	138.92	119.14	42.357	2.7896e-06	52.353	0.00041527	0.00040864	0.00011901	1378.1	4.8055e-06	4.4981e-06	1379.1	373.2	4.7722e-06	4.5416e-06	426.9	142.62	123.47	42.973	4.8641e-06	53.216	177.194	19.997	48.382	-64.008	80.199	82.663	-64.163	-59.778	14.527	89.502	-60.137	-56.023	-55.364	-50.675	50.944	-51.329	-8191	255	
341.652	1	1	0	0	0.048613	0.044673	0.1961	0.15403	0.18265	0.21032	0.062215	0.060729	0.097096	0.28293	0.047465	0.29114	0.16604	0.0056628	0.10763	0.17484	-2.9521	-3.5687	-3.35	-3.5667	-3.6896	-3.3521	-3.625	-3.6021	-3.4313	-3.5375	-3.7208	-3.525	-3.6167	-3.4854	-3.3875	-3.6354	269.997	56.329	-11.092	-53.017	189.802	147.072	214.001	68.297	114.922	-75.348	169.896	203.510	-21.679	-26.993	139.449	189.285	0.00014976	0.00033185	6.3766e-05	1373.8	3.0958e-06	3.806e-06	1368.7	368.33	1.0945e-06	4.3359e-06	422.16	139.11	120.09	42.3	1.9703e-06	52.34	0.00040676	0.00041346	0.00012223	1379.1	4.6201e-06	4.4677e-06	1377.6	373.17	4.5001e-06	4.5585e-06	426.31	142.63	123.77	42.909	4.7789e-06	53.054	178.921	20.909	36.098	-64.283	105.508	98.017	-64.264	-59.793	92.345	68.214	-60.109	-55.832	-55.047	-50.749	85.805	-51.015	-8191	255	
341.772	1	1	0	0	0.13166	0.21237	0.053338	0.063905	0.14654	0.023566	0.33886	0.18874	0.11428	0.12476	0.24125	0.12259	0.16438	0.043771	0.11474	0.21046	-2.875	-3.5729	-3.4625	-3.4271	-3.5312	-3.2896	-3.6604	-3.6917	-3.3625	-3.5563	-3.5729	-3.3833	-3.5958	-3.2687	-3.4729	-3.6292	7.131	64.414	263.189	72.694	82.433	214.394	220.915	258.990	-38.657	98.993	-61.601	14.577	70.262	184.405	-57.525	171.057	0.00017523	0.00061831	0.00018062	1373.7	1.4054e-06	5.832e-06	1369.3	368.59	1.4572e-06	3.4586e-06	423.13	139.63	119.42	42.378	3.5537e-06	52.524	0.00038503	0.00041315	0.00012298	1377.2	4.4585e-06	4.4907e-06	1376	373.2	4.3665e-06	4.5419e-06	425.81	142.73	123.64	43.023	4.8164e-06	53.165	182.863	22.082	10.256	-64.149	102.833	54.741	-64.225	-59.651	35.089	30.931	-60.194	-55.789	-55.184	-50.764	44.673	-51.317	-8191	255	
341.844	1	1	0	0	0.049267	0.035923	0.24331	0.44507	0.16693	0.044395	0.38478	0.20508	0.16877	0.078888	0.19707	0.21888	0.10234	0.067114	0.078808	0.027869	-3.0083	-3.5042	-3.5354	-3.5604	-3.6208	-3.475	-3.4458	-3.7583	-3.4208	-3.4604	-3.6437	-3.3958	-3.6625	-3.5104	-3.3979	-3.7854	44.672	234.135	72.772	245.775	207.522	240.141	226.341	71.502	102.831	-47.943	-53.263	-52.510	281.636	181.892	-60.130	232.717	0.00016174	0.0004244	0.00019285	1374.6	1.6196e-06	3.4971e-06	1363.5	367.26	1.2306e-06	4.9433e-06	422.33	138.89	119.6	42.268	1.6934e-06	52.242	0.00038987	0.00042974	0.0001216	1376.7	4.4443e-06	4.6501e-06	1374.8	372.21	4.4198e-06	4.642e-06	425.63	142.47	123.36	42.881	4.6639e-06	53.078	176.450	18.920	26.068	-64.283	50.909	54.586	-64.227	-59.577	40.221	62.167	-59.970	-56.013	-55.166	-50.605	-1.902	-51.270	-8191	255	
341.940	1	1	0	0	0.1206	0.29923	0.23332	0.21356	0.12421	0.20894	0.29329	0.28101	0.24278	0.096561	0.16935	0.34259	0.22368	0.11213	0.1096	0.082464	-2.8479	-3.4604	-3.5458	-3.4896	-3.65	-3.3458	-3.575	-3.725	-3.2958	-3.5062	-3.6771	-3.3146	-3.4604	-3.6729	-3.375	-3.7146	24.368	-2.330	218.157	229.804	96.983	250.311	243.118	126.811	88.126	27.074	-70.586	204.409	104.679	175.985	236.768	219.164	0.00015864	0.00032058	8.5915e-05	1372.9	2.8169e-06	4.1288e-06	1366.6	368.36	2.2396e-06	3.2026e-06	423.79	139.61	118.58	42.354	4.332e-06	52.347	0.0003822	0.00042321	0.00011696	1373.7	4.4721e-06	4.574e-06	1371.7	371.78	4.4417e-06	4.622e-06	425.1	142.42	123.08	42.924	4.541e-06	53.077	176.176	-28.654	23.688	-64.248	53.352	74.691	-64.252	-59.697	74.257	47.755	-60.216	-55.823	-55.144	-50.711	43.086	-51.407	-8191	255	
342.061	1	1	0	0	0.093189	0.1811	0.24495	0.13785	0.11738	0.039279	0.22862	0.092923	0.16904	0.2028	0.31659	0.2097	0.16771	0.31058	0.18784	0.17135	-3.0375	-3.4396	-3.5146	-3.2333	-3.6604	-3.6562	-3.5917	-3.7917	-3.3667	-3.2229	-3.8167	-3.4667	-3.5083	-3.6021	-3.2604	-3.8021	6.957	221.791	199.520	281.248	59.089	193.948	189.219	244.869	215.274	179.397	239.650	-45.626	225.288	231.428	-52.872	169.662	0.00016206	0.00012611	0.0002263	1368.3	2.8927e-06	5.2012e-06	1363.4	367.74	3.0897e-07	7.641e-06	421.1	139.23	119.73	42.479	8.3518e-07	52.198	0.00039921	0.0004249	0.00011254	1372.9	4.6053e-06	4.5565e-06	1371.6	372.06	4.6328e-06	4.6316e-06	424.82	142.31	123.38	42.907	4.3007e-06	53.066	177.624	63.808	15.674	-64.255	66.961	71.608	-64.091	-59.443	89.002	80.374	-60.263	-55.642	-55.275	-50.691	57.081	-51.035	-8191	255	
342.155	1	1	0	0	0.13138	0.13813	0.16014	0.23828	0.10181	0.13905	0.03422	0.089436	0.25128	0.23631	0.077991	0.21059	0.067595	0.15358	0.19465	0.37687	-2.9646	-3.1958	-3.6896	-3.5167	-3.6562	-3.6437	-3.2167	-3.6646	-3.2854	-3.3521	-3.6917	-3.4021	-3.5208	-3.5812	-3.1521	-3.7583	62.535	155.504	-6.819	261.901	-49.554	-8.182	240.619	184.240	-0.925	196.335	12.916	136.936	-31.500	136.388	169.503	226.803	0.00015934	0.0004846	0.00016406	1370.5	2.8134e-06	4.6323e-06	1367.1	368.15	6.9505e-07	5.3103e-06	421.31	139.01	119.53	42.401	5.6133e-06	52.304	0.00040944	0.00043543	0.0001116	1374	4.7438e-06	4.689e-06	1373.5	372.66	4.8609e-06	4.6835e-06	425.43	142.52	123.71	42.98	4.4266e-06	53.141	178.082	52.131	51.992	-64.269	112.626	68.400	-64.192	-59.484	121.417	42.439	-60.005	-55.855	-55.162	-50.534	64.694	-51.303	-8191	255	
342.251	1	1	0	0	0.20732	0.17828	0.069361	0.1955	0.16271	0.12924	0.062108	0.22562	0.12079	0.04027	0.18622	0.10319	0.24255	0.018384	0.17029	0.18017	-2.9062	-3.2854	-3.5208	-3.5312	-3.4354	-3.5563	-3.4437	-3.7062	-3.3375	-3.2938	-3.6937	-3.5146	-3.3917	-3.6917	-3.3229	-3.6688	128.070	265.120	110.415	-71.158	41.085	-73.412	0.288	199.350	69.555	276.370	219.438	-74.126	255.581	240.815	82.923	-74.102	0.00017069	0.00047366	0.00013095	1375.1	2.8987e-06	3.7832e-06	1368.2	366.82	1.387e-06	4.5168e-06	423.35	139.62	119.68	42.335	3.641e-06	52.196	0.00041802	0.00042545	0.00011195	1375.9	4.8472e-06	4.5139e-06	1375.2	372.62	4.7272e-06	4.4519e-06	425.97	142.75	123.68	42.927	4.3367e-06	53.194	175.187	3.794	39.641	-64.252	81.001	96.219	-64.154	-59.551	67.550	29.744	-60.160	-55.794	-55.211	-50.652	50.092	-51.410	-8191	255	
342.372	1	1	0	0	0.1009	0.16302	0.081003	0.18883	0.27368	0.1868	0.19738	0.14612	0.15106	0.23572	0.11623	0.18739	0.148	0.12623	0.13483	0.15773	-3.2583	-3.3792	-3.5333	-3.5958	-3.4271	-3.7979	-3.3792	-3.6417	-3.3937	-3.2208	-3.8417	-3.4	-3.4333	-3.8563	-3.2125	-3.6542	41.485	62.336	-33.578	248.297	252.575	192.707	202.447	251.170	209.742	6.995	-44.404	253.412	-30.713	-29.493	41.535	160.669	0.00013814	0.0008255	0.00011584	1374.9	1.6473e-06	5.0349e-06	1363.8	367.63	1.2824e-06	4.519e-06	421.26	139.62	119.35	42.104	3.5054e-06	52.226	0.00041161	0.00040643	0.00011054	1377.5	4.6815e-06	4.3278e-06	1372.4	372.46	4.5743e-06	4.1363e-06	424.61	142.5	123.11	42.736	4.3146e-06	53.022	172.305	13.646	30.120	-64.227	108.331	55.531	-64.202	-59.469	73.021	72.871	-60.182	-55.807	-55.190	-50.583	104.032	-51.068	-8191	255	
342.468	1	1	0	0	0.13143	0.14506	0.12609	0.26186	0.10347	0.20414	0.17046	0.17833	0.16039	0.19666	0.10629	0.083086	0.089775	0.014522	0.07471	0.1603	-3.1604	-3.1708	-3.4604	-3.5812	-3.2146	-3.5917	-3.4021	-3.4708	-3.4292	-3.1958	-3.6188	-3.5417	-3.3146	-3.7125	-3.4125	-3.4896	96.183	158.253	64.535	231.420	-59.899	95.543	214.173	89.163	267.432	-37.616	273.764	82.774	203.672	107.021	131.448	187.624	0.00015727	0.00038342	0.00013622	1368.1	2.2722e-06	3.7452e-06	1357.9	367.33	2.2152e-06	4.6412e-06	420.24	139.08	119.83	42.294	2.1532e-06	52.351	0.00038203	0.00037292	0.00010762	1369.6	4.373e-06	3.9754e-06	1367	371.41	4.2783e-06	4.0051e-06	424.04	142.17	123.24	42.816	4.3672e-06	53.022	183.361	12.241	33.299	-64.223	77.731	75.245	-64.265	-59.572	48.026	54.590	-60.187	-55.789	-55.093	-50.808	65.346	-51.435	-8191	255	
342.540	1	1	0	0	0.089358	0.17684	0.15973	0.11562	0.15475	0.18831	0.20388	0.25273	0.34727	0.11518	0.14375	0.11296	0.15423	0.080846	0.32881	0.20719	-3.2208	-3.3083	-3.65	-3.6167	-3.1667	-3.7104	-3.6292	-3.5979	-3.6542	-3.2417	-3.6667	-3.4146	-3.3312	-3.6188	-3.3187	-3.3917	176.974	51.395	105.424	250.300	-70.318	172.679	-9.960	233.529	105.544	119.187	-24.596	235.041	-5.079	-32.969	10.629	243.587	0.00015079	0.00039388	0.00018472	1369.2	3.1255e-06	4.2412e-06	1360	367.67	2.7326e-06	5.0173e-06	421.38	139.35	118.74	42.284	3.1871e-06	52.456	0.00037454	0.00037849	0.00011411	1369.8	4.2876e-06	4.2026e-06	1368.6	371.63	4.1888e-06	4.2099e-06	424.51	142.38	122.97	42.835	4.6377e-06	53.128	174.092	41.113	15.837	-64.166	85.896	82.237	-64.228	-59.739	22.870	56.046	-60.036	-55.856	-55.131	-50.573	79.643	-51.216	-8191	255	
342.660	1	1	0	0	0.11253	0.26149	0.16671	0.19842	0.23213	0.10348	0.23315	0.31181	0.2058	0.18715	0.053729	0.19059	0.062491	0.15637	0.048788	0.17416	-3.25	-3.3563	-3.3417	-3.5271	-3.3146	-3.5167	-3.5	-3.4188	-3.6146	-3.3729	-3.5958	-3.8104	-3.2042	-3.7833	-3.5062	-3.4375	267.441	83.321	-34.229	245.268	271.582	253.860	175.964	168.880	-45.670	37.945	257.432	-22.399	255.563	223.650	131.957	-66.352	0.0001486	0.00022727	0.00017114	1368.5	2.7452e-06	3.6737e-06	1365.3	367.1	1.6809e-06	3.9367e-06	421.98	138.97	118.88	42.337	3.0119e-06	52.357	0.0003742	0.00038845	0.00011614	1370.8	4.1646e-06	4.3249e-06	1370.2	371.94	4.2459e-06	4.3342e-06	424.78	142.22	122.96	42.918	4.5048e-06	53.14	171.850	26.990	16.350	-64.215	67.170	48.846	-64.083	-59.611	75.978	63.914	-60.147	-55.919	-55.229	-50.643	106.502	-51.226	-8191	255	
342.756	1	1	0	0	0.22718	0.24166	0.12699	0.12781	0.13204	0.3265	0.2525	0.29006	0.25092	0.12745	0.33301	0.31277	0.2654	0.16181	0.29168	0.1415	-3.2875	-3.2438	-3.3	-3.7833	-3.3708	-3.5708	-3.6917	-3.2354	-3.7042	-3.4354	-3.4104	-3.7458	-3.3208	-3.5625	-3.4417	-3.3979	130.360	-7.108	65.622	270.314	-30.608	225.112	181.463	186.637	221.912	177.429	278.721	190.369	233.434	-26.966	143.551	146.779	0.00015225	0.00039312	0.00018668	1370	3.9922e-06	3.4866e-06	1360.3	366.87	1.153e-06	4.8422e-06	420.12	138.63	119.49	42.017	7.6604e-07	52.398	0.00036988	0.00040048	0.00011529	1369.7	4.1548e-06	4.4436e-06	1369	371.06	4.1358e-06	4.3677e-06	424.24	141.93	123.09	42.791	4.5555e-06	53.089	188.795	33.857	1.293	-64.139	59.969	105.221	-64.202	-59.611	82.378	52.171	-60.211	-55.890	-54.816	-50.585	113.564	-51.275	-8191	255	
342.853	1	1	0	0	0.15218	0.075959	0.14562	0.22487	0.18012	0.21823	0.23451	0.19459	0.20752	0.10915	0.15847	0.069729	0.10043	0.37868	0.056526	0.1136	-3.1125	-3.3354	-3.3792	-3.6542	-3.2146	-3.6729	-3.7438	-3.4417	-3.5604	-3.2188	-3.45	-3.6854	-3.3563	-3.4583	-3.5083	-3.4521	191.862	231.133	-33.495	253.262	71.247	-21.514	235.612	236.492	225.004	-58.281	-76.732	67.673	268.276	276.186	-25.330	108.979	0.00015839	0.00057235	8.9053e-05	1368.5	5.4227e-07	2.9158e-06	1362.4	367.39	5.7532e-07	5.4771e-06	421.91	139.73	118.69	42.22	1.897e-06	52.6	0.0003782	0.0004169	0.00011449	1372	4.2588e-06	4.5252e-06	1368.9	371.64	4.3683e-06	4.5816e-06	424.77	142.48	122.92	42.836	4.3874e-06	53.221	185.984	16.247	34.798	-64.231	2.273	68.362	-64.326	-59.559	21.016	54.500	-60.075	-55.719	-55.078	-50.807	55.199	-51.126	-8191	255	
342.949	1	1	0	0	0.2168	0.17068	0.07122	0.29531	0.11961	0.17307	0.174	0.31623	0.1978	0.02841	0.1866	0.22426	0.26413	0.086325	0.096784	0.22181	-3.125	-3.4354	-3.2646	-3.7438	-3.3958	-3.55	-3.7875	-3.325	-3.6688	-3.3937	-3.5229	-3.6292	-3.1875	-3.6229	-3.5167	-3.2479	106.976	225.789	232.845	205.726	-69.769	-35.521	218.822	278.359	1.956	146.693	219.514	247.107	33.357	21.561	175.948	-77.106	0.00015487	0.00047015	0.00011929	1365.5	3.2497e-06	3.0819e-06	1362.7	367.53	2.3635e-06	5.5993e-06	420.5	138.9	118.29	42.091	4.2618e-06	52.253	0.00038352	0.00040937	0.000111	1369.5	4.3964e-06	4.4178e-06	1368.9	371.13	4.4613e-06	4.367e-06	424.05	142.21	123.11	42.826	4.1369e-06	53.157	170.985	16.932	11.408	-64.159	102.986	58.445	-64.116	-59.743	103.500	65.883	-60.279	-55.722	-55.514	-50.589	80.465	-51.273	-8191	255	
343.043	1	1	0	0	0.28798	0.29704	0.033561	0.28602	0.19647	0.12485	0.28555	0.11998	0.12015	0.18883	0.016716	0.22977	0.30676	0.07591	0.19775	0.24256	-3.1771	-3.575	-3.1854	-3.7812	-3.3354	-3.3583	-3.6458	-3.4271	-3.5833	-3.5375	-3.4062	-3.9437	-3.2958	-3.3583	-3.5417	-3.4375	59.166	56.896	226.485	279.383	249.564	78.561	194.423	158.994	128.029	34.925	59.223	184.683	71.854	151.793	47.873	150.834	0.00016022	0.00063339	0.0001208	1365.7	1.9071e-06	2.8261e-06	1360.8	366.63	2.1144e-06	5.6245e-06	421.41	139.13	119.15	42.231	2.2986e-06	52.23	0.00038318	0.00041014	0.00010536	1369.9	4.554e-06	4.4332e-06	1368.4	371.3	4.5325e-06	4.3703e-06	424.44	142.36	123.25	42.822	4.1379e-06	53.17	179.876	5.591	23.405	-64.065	69.187	107.197	-64.222	-59.639	64.484	59.006	-60.100	-55.737	-55.123	-50.586	51.573	-51.042	-8191	255	
343.139	1	1	0	0	0.28522	0.077081	0.089599	0.26788	0.16357	0.063536	0.19446	0.29887	0.17689	0.14153	0.15781	0.081896	0.12112	0.14189	0.089468	0.23551	-3.1063	-3.4771	-3.1542	-3.8563	-3.4208	-3.2708	-3.7562	-3.4083	-3.6771	-3.6771	-3.3708	-3.6708	-3.4625	-3.5833	-3.6833	-3.5125	-13.158	27.006	281.899	266.757	251.501	-43.977	259.227	192.746	216.831	154.444	176.800	-15.544	268.935	244.909	94.355	3.120	0.00011191	0.000641	0.00014917	1371.1	2.7129e-06	7.9551e-06	1368	368.38	7.3803e-07	6.3087e-06	421.2	139.37	118.91	42.494	2.3696e-06	52.438	0.00040179	0.0004022	0.00010639	1372.7	4.5964e-06	4.4573e-06	1372	371.85	4.6128e-06	4.3042e-06	424.02	142.3	123.61	42.953	4.1443e-06	53.213	180.877	26.072	29.313	-64.232	47.653	68.560	-64.229	-59.775	50.642	48.027	-59.959	-55.810	-55.451	-50.666	92.445	-51.117	-8191	255	
343.235	1	1	0	0	0.1333	0.16573	0.091065	0.099264	0.10953	0.20604	0.23992	0.1179	0.24372	0.16209	0.20811	0.10541	0.15798	0.072855	0.22389	0.097761	-3.2938	-3.6021	-3.3896	-3.6792	-3.3688	-3.4396	-3.8208	-3.3708	-3.3708	-3.6083	-3.3833	-3.6167	-3.5229	-3.3479	-3.6896	-3.5438	23.588	209.955	107.908	233.324	-76.571	254.694	237.199	180.247	-18.442	60.538	-71.286	233.522	209.595	269.499	138.926	38.673	0.00014919	0.00051227	0.00017896	1371.1	3.9445e-06	4.1589e-06	1361.9	367.36	1.4312e-06	4.6327e-06	421.42	139.04	119.4	42.313	1.8264e-06	52.364	0.00040062	0.00038902	0.00010781	1370.8	4.64e-06	4.2708e-06	1370.4	371.97	4.5818e-06	4.209e-06	424.6	142.45	123.39	42.872	4.2773e-06	53.276	173.883	40.784	9.011	-64.239	73.408	88.972	-64.185	-59.545	102.438	72.065	-60.025	-55.944	-54.993	-50.486	72.006	-51.236	-8191	255	
343.332	1	1	0	0	0.14654	0.084625	0.18314	0.10911	0.12151	0.17053	0.31157	0.073728	0.15701	0.11216	0.16494	0.171	0.10539	0.15532	0.016821	0.24597	-2.9229	-3.6333	-3.2812	-3.6396	-3.4833	-3.3229	-3.6833	-3.6104	-3.3833	-3.5729	-3.4667	-3.4792	-3.5729	-3.2771	-3.6042	-3.5354	62.756	181.712	125.285	240.863	183.849	84.966	250.542	124.312	213.329	69.629	213.031	252.995	160.532	121.946	39.152	-38.636	0.00015753	0.00028866	0.00014324	1368.5	2.853e-06	4.3838e-06	1365.6	367.23	1.8326e-06	5.7658e-06	422.93	138.73	118.91	42.378	3.4861e-06	52.349	0.00039278	0.00037494	0.0001098	1371.6	4.4244e-06	4.0714e-06	1371.9	371.44	4.3611e-06	4.0538e-06	425.12	142.33	123.2	42.849	4.4202e-06	53.189	176.721	6.081	28.964	-64.137	50.732	79.744	-63.935	-59.584	-15.054	86.352	-59.932	-55.741	-55.495	-50.661	65.169	-51.317	-8191	255	
343.452	1	1	0	0	0.14819	0.16271	0.18127	0.43509	0.058798	0.27075	0.015262	0.16851	0.09116	0.086881	0.12643	0.23771	0.07841	0.19592	0.049137	0.20069	-2.7958	-3.4667	-3.1667	-3.5646	-3.5667	-3.3125	-3.7146	-3.4562	-3.375	-3.7	-3.3937	-3.5729	-3.4771	-3.3458	-3.5667	-3.5625	120.675	155.448	129.790	239.313	244.114	117.723	81.683	175.107	152.106	198.901	203.195	129.467	277.868	187.043	47.956	100.181	0.00016841	0.00062692	7.644e-05	1368.2	3.6433e-06	2.3868e-06	1364.7	367.73	5.7049e-07	5.9951e-06	419.98	139.56	119.54	42.525	2.5041e-06	52.607	0.00037875	0.00038152	0.00011182	1371	4.2837e-06	4.1151e-06	1370.9	372.14	4.3015e-06	4.1698e-06	424.83	142.33	123.74	42.913	4.571e-06	53.302	179.159	17.144	42.750	-64.174	99.373	63.205	-64.310	-59.850	75.384	68.508	-60.039	-55.848	-55.016	-50.713	50.545	-51.402	-8191	255	
343.548	1	1	0	0	0.12266	0.17859	0.18547	0.28529	0.25144	0.10675	0.13715	0.14545	0.060878	0.2293	0.24491	0.1179	0.19555	0.095057	0.19565	0.10937	-3.0583	-3.5146	-3.2229	-3.3333	-3.7188	-3.2458	-3.8625	-3.5083	-3.2333	-3.6312	-3.5563	-3.5563	-3.5208	-3.4625	-3.6458	-3.5542	-14.202	190.100	126.280	241.601	-75.838	-3.803	191.889	-63.775	171.902	-57.277	236.899	225.993	37.056	6.232	-22.171	205.415	0.00015528	0.00050858	0.00012088	1370.4	9.4579e-07	5.1925e-06	1359.8	369.24	5.0206e-07	3.9849e-06	422.01	139.38	119.57	42.066	2.408e-06	52.451	0.00037502	0.00038821	0.00011604	1372.7	4.2217e-06	4.3136e-06	1370.5	372.41	4.2438e-06	4.3113e-06	424.96	142.34	123.35	42.847	4.6537e-06	53.243	173.387	28.890	37.158	-64.241	89.876	102.961	-64.179	-59.455	94.483	71.751	-60.292	-55.922	-55.242	-50.526	63.342	-51.126	-8191	255	
343.644	1	1	0	0	0.087313	0.19861	0.082853	0.1986	0.15636	0.26407	0.16805	0.35797	0.18899	0.29648	0.030453	0.19896	0.22137	0.19975	0.14474	0.25096	-2.9229	-3.6583	-3.4375	-3.4521	-3.6708	-3.3	-3.6979	-3.8812	-3.3583	-3.5354	-3.4	-3.5125	-3.7083	-3.3708	-3.5646	-3.6208	235.733	-12.599	153.155	-43.812	209.420	117.239	226.688	159.106	211.611	129.228	228.102	-71.537	-14.835	259.375	78.386	198.583	0.00017673	0.00028159	7.5783e-05	1371.4	3.4764e-06	2.9283e-06	1360.4	368.67	3.5889e-07	6.3356e-06	419.56	138.8	119.54	42.236	5.3383e-06	52.59	0.00037628	0.00040025	0.00011655	1372.5	4.2986e-06	4.3734e-06	1371.3	372.01	4.2466e-06	4.4477e-06	424.58	142.36	123.19	42.835	4.541e-06	53.281	178.177	27.330	19.286	-64.180	133.539	88.674	-64.163	-59.677	22.393	105.556	-59.949	-55.700	-55.212	-50.715	82.899	-51.227	-8191	255	
343.741	1	1	0	0	0.26961	0.14079	0.25412	0.14143	0.2936	0.25292	0.29292	0.16013	0.35726	0.084662	0.27077	0.22588	0.087855	0.27325	0.063947	0.16932	-2.7479	-3.5687	-3.4688	-3.7208	-3.75	-3.6042	-3.6479	-3.7958	-3.1667	-3.6813	-3.5271	-3.4083	-3.6063	-3.3292	-3.4146	-3.6813	239.495	-65.601	134.948	254.963	20.245	102.394	221.647	194.994	-75.154	-2.923	267.376	255.477	103.678	246.565	172.752	61.652	0.00014693	0.00065316	0.00012548	1370.9	1.2869e-06	4.7963e-06	1364	367.46	1.1616e-06	3.835e-06	420.06	139.56	119.42	42.198	2.7593e-06	52.581	0.0003777	0.00041181	0.00011418	1372.8	4.2961e-06	4.5099e-06	1371.3	371.52	4.3479e-06	4.509e-06	424.09	142.32	123.31	42.831	4.4129e-06	53.296	169.097	10.210	29.977	-64.264	125.618	82.604	-64.058	-59.642	104.189	83.435	-59.998	-55.730	-54.936	-50.883	53.172	-51.378	-8191	255	
343.837	1	1	0	0	0.31046	0.11452	0.0788	0.22652	0.18295	0.051324	0.26339	0.13681	0.10744	0.20009	0.14143	0.091892	0.14286	0.35979	0.22272	0.13739	-2.9958	-3.5938	-3.4792	-3.5917	-3.5917	-3.4125	-3.625	-3.7333	-3.2521	-3.8	-3.7313	-3.4333	-3.6063	-3.4979	-3.3229	-3.8271	276.789	218.450	224.988	222.775	55.190	24.363	240.149	239.717	189.447	17.848	-25.371	279.269	172.843	228.381	126.458	-63.120	0.00016327	0.00063976	0.00017904	1365.5	1.7687e-06	4.3028e-06	1362.9	368.72	1.4582e-06	2.4496e-06	422.6	138.88	118.85	42.234	4.5119e-06	52.245	0.00038331	0.00040717	0.00010998	1369.1	4.3754e-06	4.4194e-06	1369.6	371.53	4.382e-06	4.4872e-06	423.91	142.09	122.95	42.819	4.2455e-06	53.217	174.782	-4.653	-3.011	-64.298	65.705	78.719	-64.120	-59.548	78.596	67.219	-60.013	-55.752	-55.123	-50.796	73.317	-51.574	-8191	255	
343.933	1	1	0	0	0.30321	0.070631	0.152	0.29123	0.20632	0.36238	0.35117	0.2215	0.12226	0.033636	0.20437	0.24976	0.04023	0.082136	0.2257	0.095057	-2.925	-3.5167	-3.7625	-3.5083	-3.6083	-3.2104	-3.5083	-3.825	-3.275	-3.4083	-3.7438	-3.2438	-3.6479	-3.4188	-3.6104	-3.6958	262.813	-49.113	175.714	265.043	218.223	0.527	219.538	191.709	27.300	272.965	-68.687	186.802	47.224	257.416	-66.268	41.969	0.00014866	0.00050405	0.00019403	1369.6	2.2444e-06	5.3216e-06	1360.1	367.2	1.1097e-06	2.9287e-06	420.45	139.02	118.92	42.239	2.6611e-06	52.747	0.00039627	0.00040817	0.00010476	1371	4.5618e-06	4.4602e-06	1368.8	371.88	4.5369e-06	4.4552e-06	423.62	142.27	123.36	42.81	4.1915e-06	53.332	175.414	14.316	22.335	-64.071	80.298	87.751	-64.262	-59.658	116.784	78.341	-60.152	-55.904	-55.090	-50.706	59.873	-51.042	-8191	255	
344.052	1	1	0	0	0.17161	0.17002	0.35531	0.085926	0.14559	0.20396	0.29408	0.22108	0.29831	0.19148	0.22822	0.11342	0.081585	0.20605	0.34396	0.13979	-3.1104	-3.3375	-3.5938	-3.4958	-3.4125	-3.5458	-3.4	-3.7062	-3.4146	-3.2708	-3.7854	-3.3438	-3.7375	-3.6375	-3.35	-3.7687	55.747	18.019	-55.999	197.476	103.586	3.295	203.760	219.531	101.530	9.578	-42.704	122.676	71.798	234.520	231.749	211.639	0.00014272	0.00049	0.00020785	1366.8	2.0703e-06	4.1377e-06	1359.4	367.11	8.8743e-07	4.7978e-06	421.19	139.15	119.19	42.006	2.3044e-06	52.472	0.00039346	0.0004032	0.00010369	1370.1	4.499e-06	4.2419e-06	1367.1	371.17	4.4656e-06	4.1941e-06	423.75	142.14	122.97	42.749	4.0407e-06	53.252	183.158	35.392	34.320	-64.145	67.451	47.738	-64.168	-59.580	87.582	67.117	-60.132	-55.746	-55.325	-50.547	80.931	-51.070	-8191	255	
344.148	1	1	0	0	0.27128	0.15356	0.093264	0.10142	0.067411	0.076553	0.40322	0.020878	0.11613	0.14067	0.14286	0.091831	0.10253	0.19741	0.13626	0.074303	-2.9313	-3.3958	-3.6771	-3.3396	-3.5979	-3.4958	-3.7062	-3.6813	-3.5479	-3.3708	-3.7229	-3.3979	-3.6229	-3.6604	-3.3104	-3.6229	276.316	244.934	14.889	145.082	25.967	3.035	220.522	177.505	58.888	21.891	238.368	231.314	211.424	-72.444	38.316	223.977	0.00016079	0.00057536	9.219e-05	1365.5	2.1562e-06	4.2226e-06	1358.1	367.3	2.8621e-06	4.1158e-06	419.67	139.64	118.23	42.076	2.8008e-06	52.609	0.00038621	0.0003748	0.00010112	1368	4.3938e-06	4.0417e-06	1365.6	370.85	4.3691e-06	4.0108e-06	422.91	142.21	122.97	42.744	4.1376e-06	53.212	185.194	25.863	5.331	-64.138	81.448	54.386	-64.036	-59.733	12.351	56.080	-60.119	-55.746	-54.929	-50.744	64.416	-51.395	-8191	255	
344.244	1	1	0	0	0.13007	0.16979	0.1834	0.20444	0.11342	0.16893	0.23985	0.11114	0.073002	0.11109	0.17136	0.22959	0.069669	0.18281	0.3128	0.072858	-2.9813	-3.4146	-3.5854	-3.3521	-3.4896	-3.5187	-3.5208	-3.6833	-3.5083	-3.4562	-3.6521	-3.35	-3.5479	-3.6854	-3.3417	-3.7625	220.839	256.996	-34.309	-46.735	160.804	97.148	233.866	168.246	52.560	-77.267	-33.024	255.410	248.250	-22.203	248.158	200.444	0.00017299	0.00059537	8.0701e-05	1365.7	2.006e-06	3.9022e-06	1358.9	366.36	9.3324e-08	5.2517e-06	420.51	139.13	119.03	42.128	3.1831e-06	52.45	0.00038291	0.00036982	0.00010413	1367	4.3101e-06	4.0475e-06	1365.8	370.85	4.2679e-06	3.9726e-06	424	142.29	122.84	42.716	4.2955e-06	53.13	179.260	3.068	19.757	-64.136	114.296	54.789	-64.120	-59.559	89.856	68.751	-60.285	-55.776	-55.335	-50.651	49.467	-51.250	-8191	255	
344.340	1	1	0	0	0.071818	0.11125	0.11494	0.23999	0.22448	0.11562	0.13725	0.29051	0.14997	0.1221	0.20621	0.33668	0.05751	0.18515	0.1237	0.082097	-3.0604	-3.3271	-3.6396	-3.4792	-3.4958	-3.6937	-3.4437	-3.6417	-3.5563	-3.3375	-3.7042	-3.5229	-3.3979	-3.8229	-3.3875	-3.6604	214.901	142.852	-39.245	250.368	-39.939	-61.637	234.350	154.130	258.544	-59.473	-67.698	230.172	104.373	221.949	162.579	260.227	0.0001565	0.00052214	0.00012733	1363.8	2.9597e-06	4.1834e-06	1361.6	367.39	2.6504e-06	4.5315e-06	420.21	138.87	119.09	42.11	2.92e-06	52.465	0.00036833	0.00036411	0.00010951	1367.9	4.2872e-06	3.9835e-06	1368.4	371.41	4.1348e-06	4.0392e-06	423.25	142.07	122.78	42.719	4.3422e-06	53.186	178.459	45.161	27.781	-64.308	57.980	33.014	-64.014	-59.635	42.495	41.329	-60.169	-55.709	-55.249	-50.628	91.266	-51.289	-8191	255	
344.436	1	1	0	0	0.28968	0.25907	0.14924	0.26637	0.0094553	0.17721	0.13325	0.12852	0.21932	0.10056	0.090329	0.39484	0.14284	0.14225	0.031414	0.32639	-3.1688	-3.3187	-3.65	-3.4271	-3.2188	-3.6167	-3.4562	-3.6625	-3.5938	-3.3312	-3.7583	-3.3312	-3.2313	-3.8021	-3.4437	-3.5375	79.311	-5.811	159.313	205.177	222.810	151.708	194.821	252.883	25.873	-13.079	206.106	186.749	165.843	65.129	148.689	211.859	0.00012595	0.000682	0.00018347	1364.2	2.5642e-06	4.1556e-06	1360.3	367.19	2.5272e-06	5.6383e-06	420.29	139.35	119	41.961	1.473e-06	52.482	0.00036302	0.00037486	0.00011281	1367.5	4.1447e-06	4.086e-06	1366.4	371.11	4.0952e-06	4.195e-06	423.58	142.34	122.78	42.712	4.443e-06	53.205	178.987	28.192	39.195	-64.157	99.837	54.273	-64.181	-59.538	78.849	130.377	-60.137	-55.838	-55.258	-50.656	-12.899	-51.264	-8191	255	
#DATA ENDS
