BOXY.EXE: ISS Imagent and Oximeter Data Acquisition Program Version 0.80
Ascii Record File

#ACQ INFORMATION
2  Detector Channels 
16  External MUX Channels 
1  Auxiliary Channels 
5000  Waveform (CCF) Frequency (Hz)
1  Waveforms Skipped 
30  Waveforms Averaged 
1  Cycles Averaged 
16  Acquisitions per Waveform 
10.0806  Updata Rate (Hz) 

#FILE INFORMATION
TRUE -- External MUX Channel results are PARSED.
FALSE -- AC DC and Phase are NOT grouped.
TRUE -- Companion Program Settings File CREATED.
FALSE -- AC data not excluded
FALSE -- DC data not excluded
FALSE -- Phase data not excluded
FALSE -- Auxillary Chn. data not excluded
Tab delimiters

#CALIBRATION STATE
TRUE -- Waveform Calibration Values APPLIED.


#AUX CALIBRATION VALUES
Val Type	aux-1	

Term	1.0000e+00	
Factor	0.0000e+00	


#WF CALIBRATION VALUES
A = Detector Channel
Val Type	A-AC1	A-AC2	A-AC3	A-AC4	A-AC5	A-AC6	A-AC7	A-AC8	A-AC9	A-AC10	A-AC11	A-AC12	A-AC13	A-AC14	A-AC15	A-AC16	A-DC1	A-DC2	A-DC3	A-DC4	A-DC5	A-DC6	A-DC7	A-DC8	A-DC9	A-DC10	A-DC11	A-DC12	A-DC13	A-DC14	A-DC15	A-DC16	A-Ph1	A-Ph2	A-Ph3	A-Ph4	A-Ph5	A-Ph6	A-Ph7	A-Ph8	A-Ph9	A-Ph10	A-Ph11	A-Ph12	A-Ph13	A-Ph14	A-Ph15	A-Ph16	

Term	0.00000e+00	0.00000e+00	0.00000e+00	0.00000e+00	0.00000e+00	0.00000e+00	0.00000e+00	0.00000e+00	0.00000e+00	0.00000e+00	0.00000e+00	0.00000e+00	0.00000e+00	0.00000e+00	0.00000e+00	0.00000e+00	0.00000e+00	0.00000e+00	0.00000e+00	0.00000e+00	0.00000e+00	0.00000e+00	0.00000e+00	0.00000e+00	0.00000e+00	0.00000e+00	0.00000e+00	0.00000e+00	0.00000e+00	0.00000e+00	0.00000e+00	0.00000e+00	0.00000e+00	0.00000e+00	0.00000e+00	0.00000e+00	0.00000e+00	0.00000e+00	0.00000e+00	0.00000e+00	0.00000e+00	0.00000e+00	0.00000e+00	0.00000e+00	0.00000e+00	0.00000e+00	0.00000e+00	0.00000e+00	
Factor	1.00000e+00	1.00000e+00	1.00000e+00	1.00000e+00	1.00000e+00	1.00000e+00	1.00000e+00	1.00000e+00	1.00000e+00	1.00000e+00	1.00000e+00	1.00000e+00	1.00000e+00	1.00000e+00	1.00000e+00	1.00000e+00	1.00000e+00	1.00000e+00	1.00000e+00	1.00000e+00	1.00000e+00	1.00000e+00	1.00000e+00	1.00000e+00	1.00000e+00	1.00000e+00	1.00000e+00	1.00000e+00	1.00000e+00	1.00000e+00	1.00000e+00	1.00000e+00	X	X	X	X	X	X	X	X	X	X	X	X	X	X	X	X	

B = Detector Channel
Val Type	B-AC1	B-AC2	B-AC3	B-AC4	B-AC5	B-AC6	B-AC7	B-AC8	B-AC9	B-AC10	B-AC11	B-AC12	B-AC13	B-AC14	B-AC15	B-AC16	B-DC1	B-DC2	B-DC3	B-DC4	B-DC5	B-DC6	B-DC7	B-DC8	B-DC9	B-DC10	B-DC11	B-DC12	B-DC13	B-DC14	B-DC15	B-DC16	B-Ph1	B-Ph2	B-Ph3	B-Ph4	B-Ph5	B-Ph6	B-Ph7	B-Ph8	B-Ph9	B-Ph10	B-Ph11	B-Ph12	B-Ph13	B-Ph14	B-Ph15	B-Ph16	

Term	0.00000e+00	0.00000e+00	0.00000e+00	0.00000e+00	0.00000e+00	0.00000e+00	0.00000e+00	0.00000e+00	0.00000e+00	0.00000e+00	0.00000e+00	0.00000e+00	0.00000e+00	0.00000e+00	0.00000e+00	0.00000e+00	0.00000e+00	0.00000e+00	0.00000e+00	0.00000e+00	0.00000e+00	0.00000e+00	0.00000e+00	0.00000e+00	0.00000e+00	0.00000e+00	0.00000e+00	0.00000e+00	0.00000e+00	0.00000e+00	0.00000e+00	0.00000e+00	5.94720e+01	-1.33281e+02	-1.24008e+02	-1.83669e+02	-7.49398e+01	-7.46865e+01	-1.55903e+02	-1.62015e+02	-6.56920e+01	-5.76036e+01	-1.71186e+02	-1.71014e+02	-1.82886e+02	-1.77178e+02	-6.18822e+01	-1.49311e+02	
Factor	6.16829e-05	1.64324e-04	4.66421e-05	1.74362e-01	2.06590e-06	1.82496e-06	1.63678e-01	5.30398e-02	3.37277e-06	1.77242e-06	9.18026e-02	2.93873e-02	3.59135e-02	9.27610e-03	2.08424e-06	1.33759e-02	6.85272e-06	8.02413e-06	2.24270e-06	9.05141e-02	8.55606e-08	8.89427e-08	7.96729e-02	2.75538e-02	8.49966e-08	8.88765e-08	4.61873e-02	1.47366e-02	1.84319e-02	4.86892e-03	8.63507e-08	6.78635e-03	X	X	X	X	X	X	X	X	X	X	X	X	X	X	X	X	



#DISTANCE SETTINGS
A = Detector Channel
A-1	A-2	A-3	A-4	A-5	A-6	A-7	A-8	A-9	A-10	A-11	A-12	A-13	A-14	A-15	A-16	

2.5000e+00	3.0000e+00	2.5000e+00	3.0000e+00	2.0000e+00	3.0000e+00	1.5000e+00	3.0000e+00	3.0000e+00	3.0000e+00	3.0000e+00	3.0000e+00	3.0000e+00	3.0000e+00	1.5000e+00	3.0000e+00	

B = Detector Channel
B-1	B-2	B-3	B-4	B-5	B-6	B-7	B-8	B-9	B-10	B-11	B-12	B-13	B-14	B-15	B-16	

1.0000e+01	1.0000e+01	1.0000e+01	1.4400e+00	1.0000e+01	1.0000e+01	1.5100e+00	1.9400e+00	1.0000e+01	1.0000e+01	1.9900e+00	2.4900e+00	2.4100e+00	2.9000e+00	1.0000e+01	2.9800e+00	




#DATA BEGINS
time	group	step	mark	flag	A-AC1	A-AC2	A-AC3	A-AC4	A-AC5	A-AC6	A-AC7	A-AC8	A-AC9	A-AC10	A-AC11	A-AC12	A-AC13	A-AC14	A-AC15	A-AC16	A-DC1	A-DC2	A-DC3	A-DC4	A-DC5	A-DC6	A-DC7	A-DC8	A-DC9	A-DC10	A-DC11	A-DC12	A-DC13	A-DC14	A-DC15	A-DC16	A-Ph1	A-Ph2	A-Ph3	A-Ph4	A-Ph5	A-Ph6	A-Ph7	A-Ph8	A-Ph9	A-Ph10	A-Ph11	A-Ph12	A-Ph13	A-Ph14	A-Ph15	A-Ph16	B-AC1	B-AC2	B-AC3	B-AC4	B-AC5	B-AC6	B-AC7	B-AC8	B-AC9	B-AC10	B-AC11	B-AC12	B-AC13	B-AC14	B-AC15	B-AC16	B-DC1	B-DC2	B-DC3	B-DC4	B-DC5	B-DC6	B-DC7	B-DC8	B-DC9	B-DC10	B-DC11	B-DC12	B-DC13	B-DC14	B-DC15	B-DC16	B-Ph1	B-Ph2	B-Ph3	B-Ph4	B-Ph5	B-Ph6	B-Ph7	B-Ph8	B-Ph9	B-Ph10	B-Ph11	B-Ph12	B-Ph13	B-Ph14	B-Ph15	B-Ph16	aux-1	digaux	

1365.772	1	1	0	256	0.062029	0.10783	0.094615	0.10461	0.070422	0.12645	0.10374	0.22282	0.060106	0.17539	0.16181	0.21677	0.18774	0.19079	0.13335	0.0066716	-1.1854	-0.99583	-1.3667	-1.6313	-1.0667	-1.6771	-1.2479	-1.2729	-1.4917	-1.025	-1.6271	-1.5042	-1.0417	-1.8188	-1.0375	-1.1187	4.523	116.073	98.104	-163.963	139.768	169.957	124.460	-17.638	-51.106	147.064	156.822	148.936	87.600	144.604	-79.494	-88.276	0.00086946	0.0002234	0.00013657	907.77	3.5166e-06	1.9867e-06	615.34	256.34	6.3717e-06	4.0426e-06	185.29	61.513	86.988	42.472	5.1062e-06	30.573	0.00018764	0.00013925	4.213e-05	850.99	1.7212e-06	1.4815e-06	576.5	241.34	1.6863e-06	1.624e-06	173.93	57.74	81.864	40.157	1.7923e-06	29.113	30.736	-131.081	-88.891	-158.661	-7.791	8.125	-160.062	-152.850	-67.855	-11.587	-155.683	-151.968	-148.146	-143.070	-42.316	-148.029	-8191	255	
1365.891	1	1	0	0	0.055089	0.16657	0.33589	0.1848	0.25673	0.28922	0.19679	0.20857	0.22837	0.11688	0.26229	0.10239	0.019375	0.1747	0.10897	0.18308	-1.4167	-0.97708	-1.3979	-1.6854	-0.98542	-1.7146	-1.1646	-1.2167	-1.8125	-0.99583	-1.5479	-1.5938	-0.87708	-1.6667	-1.25	-1.1729	-59.709	-168.481	0.139	-71.743	123.352	-11.234	141.994	178.597	94.789	128.946	-144.664	-87.189	169.840	64.769	50.815	130.140	0.00083013	0.00048329	0.00012314	911.32	5.4942e-06	3.6868e-06	621.81	257.5	7.8525e-06	3.7153e-06	186.6	61.724	87.195	42.151	6.5438e-06	30.506	0.00019733	0.00015055	4.1551e-05	851.63	1.7285e-06	1.5602e-06	581.19	241.89	1.6764e-06	1.5916e-06	174.81	57.907	81.451	39.973	1.688e-06	28.921	30.492	-59.339	-78.810	-158.693	-34.468	-50.932	-160.163	-152.970	-40.279	-25.737	-155.703	-150.936	-148.228	-143.035	-24.506	-148.240	-8191	255	
1365.987	1	1	0	0	0.075861	0.098863	0.1236	0.3315	0.079209	0.051456	0.40521	0.19805	0.17373	0.15037	0.10756	0.3822	0.068889	0.27681	0.17406	0.20071	-1.3062	-1	-1.3042	-1.5479	-0.95208	-1.7083	-1.5438	-1.2083	-1.7917	-1.3229	-1.3521	-1.6958	-1.0708	-1.6542	-1.3958	-1.2229	161.152	94.031	66.303	-156.107	-114.251	138.463	154.097	-130.517	67.834	-71.066	-136.758	-127.600	60.714	-135.443	-47.673	19.320	0.0010019	0.00016489	0.00010549	906.75	1.672e-06	2.5786e-06	621.12	256.47	7.2266e-06	2.1307e-06	186.9	61.287	87.451	41.757	2.8837e-06	30.554	0.0001977	0.00014637	3.9794e-05	850.61	1.7278e-06	1.5341e-06	579.76	240.7	1.645e-06	1.57e-06	174.89	57.327	81.762	39.813	1.6009e-06	28.846	33.217	-84.948	-96.314	-157.997	-21.644	-40.648	-159.828	-152.778	-28.994	-8.503	-155.185	-150.924	-147.567	-142.805	-43.350	-147.910	-8191	255	
1366.059	1	1	0	0	0.21131	0.12414	0.27925	0.065715	0.23743	0.11041	0.17234	0.22756	0.16346	0.084968	0.17282	0.28355	0.06462	0.058392	0.2507	0.2267	-1.2792	-1.1521	-1.0792	-1.8125	-0.95625	-1.5063	-1.5583	-1.0042	-1.7458	-1.4229	-1.2083	-1.8354	-1.0604	-1.7771	-1.5292	-0.91667	37.899	160.532	-25.943	-54.457	89.797	97.687	49.369	-140.753	-73.176	-124.331	57.223	115.571	-154.570	-146.332	3.223	151.798	0.00087289	0.00018475	0.00013671	911.46	8.2593e-06	3.3249e-06	621.96	256.89	7.5388e-06	4.3094e-06	186.59	61.42	87.054	42.268	5.4309e-06	30.943	0.00019799	0.00014838	4.377e-05	850.98	1.698e-06	1.5784e-06	580.57	241.88	1.6619e-06	1.5929e-06	175.27	57.633	81.82	40.157	1.6295e-06	29.158	34.481	-93.664	-98.161	-158.008	-41.746	-11.092	-159.655	-152.690	-59.867	-28.259	-155.274	-151.060	-147.729	-142.979	-39.298	-147.765	-8191	255	
1366.179	1	1	0	0	0.11227	0.17539	0.2433	0.33409	0.095571	0.18951	0.14631	0.40287	0.019925	0.18355	0.13249	0.057118	0.052527	0.036786	0.21335	0.10328	-1.3646	-1.2354	-0.93125	-1.8813	-0.92917	-1.5125	-1.8563	-1.1208	-1.5417	-1.3104	-1.0208	-1.7396	-1.1917	-1.4417	-1.6437	-0.99375	185.144	177.745	-82.151	160.802	85.415	128.637	-170.387	142.742	173.694	43.999	167.825	89.322	136.066	-28.532	187.073	-130.990	0.00095776	0.00035257	5.9357e-05	910.35	5.7116e-06	4.4548e-06	624.99	256.79	7.7929e-06	2.6071e-06	187.69	62.854	88.054	42.549	3.3662e-06	31.248	0.00019677	0.00014751	4.2415e-05	851.46	1.6016e-06	1.5535e-06	585.94	242.15	1.6835e-06	1.6568e-06	176.24	58.584	81.944	40.417	1.6194e-06	29.487	38.113	-93.219	-59.639	-158.227	-28.999	-36.803	-159.911	-152.851	-40.141	10.419	-155.328	-151.310	-147.414	-142.901	-12.461	-147.488	-8191	255	
1366.276	1	1	0	0	0.073168	0.17299	0.28138	0.099124	0.26303	0.044887	0.1605	0.08599	0.20521	0.069273	0.33772	0.19835	0.12395	0.16946	0.11112	0.097664	-1.2104	-1.3979	-1.1354	-1.9354	-1.1729	-1.3229	-1.7521	-1.2042	-1.6333	-1.3813	-1.0583	-1.9438	-1.075	-1.2479	-1.6833	-1.0333	22.662	55.446	56.361	82.243	131.458	80.904	91.102	-169.800	71.380	-49.619	112.270	-166.137	135.831	85.312	187.786	34.812	0.00090134	0.00042945	7.6195e-05	909.03	3.4223e-06	3.2457e-06	626.61	258.34	1.3151e-05	3.1179e-06	187.49	62.003	86.841	42.449	2.8603e-06	30.775	0.00019656	0.00015533	4.2097e-05	852.35	1.7105e-06	1.5804e-06	589.27	242.68	1.7341e-06	1.5903e-06	176.59	58.171	81.598	40.259	1.5669e-06	29.115	31.058	-73.758	-88.399	-157.955	-2.635	0.071	-159.904	-152.638	-36.276	-7.786	-155.960	-151.301	-148.352	-143.581	1.459	-148.252	-8191	255	
1366.372	1	1	0	0	0.10986	0.12772	0.094835	0.083155	0.04758	0.09864	0.29214	0.078374	0.31966	0.32174	0.24199	0.15757	0.058121	0.24526	0.232	0.27081	-0.99375	-1.3479	-0.84375	-1.9062	-0.98542	-1.2042	-1.7167	-1.2042	-1.4271	-1.5271	-0.91458	-1.6	-1.3271	-0.82292	-1.6396	-0.70625	-157.108	10.915	-105.249	150.522	-78.771	-38.812	-168.959	-57.493	-144.695	170.224	-141.189	-109.594	-22.126	-64.674	-113.179	59.452	0.00099216	0.00027609	0.00010234	908.09	5.6203e-06	2.4587e-06	626.5	257.17	9.8908e-06	6.0808e-06	186.4	61.47	86.617	42.047	4.0891e-06	30.478	0.00020054	0.00014049	4.2135e-05	853.05	1.6836e-06	1.6436e-06	586.61	241.7	1.675e-06	1.5465e-06	174.68	57.644	80.995	39.923	1.672e-06	28.873	31.777	-112.662	-86.835	-158.765	-19.553	-11.603	-160.022	-153.544	-45.486	-5.089	-156.277	-151.863	-148.225	-143.621	-25.597	-148.631	-8191	255	
1366.468	1	1	0	0	0.17605	0.098297	0.095456	0.095819	0.23005	0.18729	0.19432	0.25893	0.31872	0.11829	0.094445	0.18231	0.30651	0.19611	0.15911	0.032796	-0.96875	-1.4562	-0.81875	-1.8396	-1.3271	-0.96875	-1.8062	-1.2	-1.425	-1.8438	-0.86042	-1.6792	-1.5146	-1.1187	-1.6792	-1.1688	64.345	-31.141	134.944	149.148	91.128	126.640	174.968	185.324	122.146	149.439	-15.023	173.188	-136.940	112.250	-19.303	71.472	0.00082785	0.00036002	5.8185e-05	912.03	5.0258e-06	3.0061e-06	629.22	258.19	8.999e-06	3.7707e-06	187.28	60.955	85.914	42.032	5.4513e-06	30.501	0.00019737	0.00014724	4.2406e-05	852.05	1.6994e-06	1.5889e-06	585.5	241.79	1.7368e-06	1.4542e-06	175.38	57.394	80.944	39.878	1.5674e-06	28.822	28.095	-84.215	-81.164	-158.206	-29.962	-21.885	-159.925	-153.073	-57.421	18.746	-155.428	-151.467	-148.218	-143.509	-56.656	-148.366	-8191	255	
1366.564	1	1	0	0	0.2386	0.28992	0.18389	0.1868	0.29284	0.20613	0.19933	0.24435	0.20605	0.0076304	0.33642	0.3027	0.078754	0.3156	0.25484	0.46356	-0.78333	-1.6063	-0.81042	-1.7563	-1.6354	-1.1104	-1.8333	-1.2792	-1.2542	-1.7667	-0.92292	-1.4021	-1.7938	-1.0208	-1.7354	-1.15	-165.843	119.871	-41.492	154.949	-26.107	-166.350	-155.798	27.509	111.300	-101.059	159.621	172.546	-14.982	121.246	-14.449	2.079	0.0008546	0.00035261	9.6073e-05	905.17	6.6341e-07	2.8675e-06	626.1	255.24	8.9358e-06	2.6155e-06	187.46	61.772	85.745	41.887	4.9677e-06	30.703	0.00019663	0.00014393	4.0495e-05	849.41	1.6713e-06	1.5272e-06	586.03	239.93	1.7635e-06	1.564e-06	175.55	57.723	81.071	39.894	1.6585e-06	29.107	33.541	-83.330	-75.846	-159.013	-121.576	-56.996	-160.004	-153.542	-22.620	-21.143	-156.214	-151.595	-147.687	-143.242	-54.627	-148.390	-8191	255	
1366.660	1	1	0	0	0.2369	0.19642	0.043394	0.12526	0.057495	0.23665	0.24051	0.052111	0.041932	0.17644	0.28131	0.25834	0.039362	0.15918	0.21161	0.34833	-0.84167	-1.8292	-0.92292	-1.65	-1.5708	-1.0125	-1.6729	-1.625	-1.0042	-1.8104	-1.0354	-1.4542	-1.7604	-1.1521	-1.5979	-1.275	134.424	-110.298	65.494	-156.728	-106.658	183.301	117.170	107.401	-119.523	-102.455	131.334	-118.565	52.516	-129.273	49.928	-156.296	0.00085796	0.00024239	8.6646e-05	908.61	4.8711e-06	5.7033e-06	625.73	256.36	7.6805e-06	1.94e-06	186.6	61.88	86.294	41.972	2.4372e-06	30.882	0.0002036	0.00013833	4.2845e-05	850.01	1.5412e-06	1.6299e-06	585.53	240.78	1.7116e-06	1.5107e-06	175.34	57.667	81.162	39.792	1.6667e-06	28.988	30.095	-85.740	-62.698	-158.851	-61.901	-40.385	-160.042	-153.315	-44.456	12.323	-156.051	-150.711	-148.096	-143.253	-15.789	-147.946	-8191	255	
1366.755	1	1	0	0	0.22853	0.27866	0.1632	0.11404	0.1479	0.10279	0.040903	0.19147	0.15406	0.18814	0.022297	0.31927	0.28675	0.20291	0.12247	0.13237	-0.55417	-1.8896	-1.0729	-1.4354	-1.5542	-1.2333	-1.6854	-1.4104	-1.0375	-1.9271	-1.0729	-1.2104	-1.6562	-1.1708	-1.5708	-1.5208	-77.524	53.479	-82.269	180.389	38.139	-23.716	173.824	-124.031	-44.306	82.543	179.690	170.364	-161.450	181.617	122.045	-115.107	0.00085132	0.00034664	9.6795e-05	906.47	2.669e-06	4.4281e-06	622.97	255.19	8.639e-06	2.5598e-06	186.35	61.675	87.214	41.979	3.6565e-06	30.623	0.0001968	0.00013947	4.1513e-05	850.2	1.6383e-06	1.5773e-06	582.06	240.66	1.6847e-06	1.5161e-06	174.39	57.475	81.3	39.921	1.6441e-06	28.929	33.622	-76.267	-76.837	-158.341	-54.792	-5.286	-159.637	-152.924	-44.832	-62.526	-155.755	-151.075	-147.792	-142.971	-49.527	-148.143	-8191	255	
1366.853	1	1	0	0	0.20268	0.24184	0.3934	0.33445	0.20508	0.1887	0.13062	0.22399	0.088228	0.018343	0.099848	0.067245	0.096467	0.15911	0.091147	0.089852	-0.59167	-1.7917	-0.99167	-1.2292	-1.675	-0.90417	-1.5667	-1.7375	-0.87708	-1.7896	-1.15	-1.0396	-1.8021	-1.0667	-1.6042	-1.5271	-143.248	33.587	-125.729	144.617	62.094	-130.073	-86.457	85.031	183.958	89.176	-100.533	121.739	3.789	169.011	13.005	-77.474	0.0009049	0.00010369	9.7368e-05	905.9	3.8794e-06	2.158e-06	620.32	256.83	4.5087e-06	5.1137e-07	185.26	61.813	87.098	42.673	4.5173e-06	30.829	0.00019944	0.00014611	3.9962e-05	848.19	1.606e-06	1.5787e-06	582.22	241.34	1.7178e-06	1.6233e-06	174.85	57.99	81.87	40.315	1.7164e-06	29.344	31.661	-133.074	-82.860	-157.809	-40.987	-18.430	-159.685	-152.753	-34.243	10.526	-155.469	-150.439	-147.506	-142.493	-31.929	-147.337	-8191	255	
1366.971	1	1	0	0	0.13605	0.21208	0.12284	0.26097	0.037272	0.16591	0.082865	0.14877	0.18944	0.23358	0.10946	0.13741	0.19425	0.39482	0.041811	0.23237	-0.45625	-1.8729	-1.3958	-1.1562	-1.9229	-1.0417	-1.3833	-1.7604	-0.94792	-1.6021	-1.35	-1.1938	-1.7542	-1.2687	-1.25	-1.7417	-17.063	14.444	-119.599	141.449	72.230	-54.899	155.058	101.483	76.097	-108.740	74.986	-166.149	152.981	99.132	-15.629	-63.727	0.00096505	0.00036518	8.0759e-05	900.77	4.0789e-06	2.7343e-06	626.29	256.94	6.8464e-06	2.5945e-06	188.72	62.947	87.985	42.81	5.2173e-06	31.589	0.00020447	0.0001431	4.2845e-05	846.99	1.613e-06	1.5569e-06	585.67	241.7	1.7727e-06	1.5542e-06	176.81	58.944	82.659	40.727	1.7344e-06	29.837	30.927	-81.639	-71.208	-157.818	-41.785	-48.656	-159.641	-152.719	-46.286	-19.681	-155.186	-150.856	-147.475	-143.339	-40.073	-147.997	-8191	255	
1367.068	1	1	0	0	0.15772	0.27186	0.18665	0.36887	0.19513	0.29591	0.096032	0.19889	0.27551	0.19854	0.055389	0.0083891	0.081204	0.14512	0.14662	0.1928	-0.43542	-1.7188	-1.3875	-1.1104	-1.8062	-0.98333	-1.2313	-1.8042	-0.98333	-1.6479	-1.5292	-1.0125	-1.8	-1.2563	-1.1396	-1.9604	-147.688	-151.729	4.541	178.854	-138.970	-9.247	62.625	169.592	-136.892	-119.227	95.086	-99.892	-72.503	132.809	-32.828	-91.054	0.00095321	0.00039776	7.8852e-05	904.8	4.8156e-06	4.1983e-06	626.69	259.01	1.1066e-05	2.8215e-06	189.13	62.724	87.42	42.851	5.0958e-06	30.888	0.0002067	0.00014388	4.0079e-05	847.97	1.6854e-06	1.5559e-06	588.64	242.81	1.7897e-06	1.4855e-06	176.69	58.826	82.13	40.61	1.7243e-06	29.479	29.801	-107.988	-100.167	-158.022	-46.765	-36.732	-159.575	-152.835	-14.881	-15.583	-155.325	-151.096	-147.525	-142.953	-36.187	-148.012	-8191	255	
1367.164	1	1	0	0	0.05397	0.15069	0.15824	0.19711	0.15556	0.097863	0.21065	0.05709	0.34875	0.222	0.14243	0.12344	0.27026	0.048432	0.15859	0.12358	-0.72292	-1.5125	-1.4438	-1.0729	-1.6812	-1.0812	-1.3146	-1.7208	-0.94375	-1.4646	-1.7042	-0.8875	-1.8292	-1.3125	-1.0667	-1.7292	158.706	-155.469	-115.766	162.897	-96.058	-153.350	-81.570	-107.762	-87.406	-37.864	-96.056	30.275	81.682	-165.140	157.507	1.975	0.00078458	8.5532e-05	6.1617e-05	899.27	4.0704e-06	2.714e-06	621.22	256.91	8.0921e-06	1.9147e-06	185.6	61.697	86.814	42.465	6.6775e-06	30.715	0.00019664	0.00014801	3.949e-05	845.56	1.6818e-06	1.5763e-06	583.91	241.08	1.7235e-06	1.6055e-06	174.61	57.767	81.534	40.211	1.7063e-06	29.082	26.615	-88.659	-83.352	-157.675	-44.207	-39.779	-159.449	-152.722	-21.528	11.736	-154.856	-150.940	-147.649	-142.763	-41.590	-148.075	-8191	255	
1367.260	1	1	0	0	0.1341	0.011682	0.28601	0.042593	0.13376	0.16161	0.34573	0.069034	0.24269	0.22022	0.12773	0.15881	0.12806	0.096709	0.2153	0.23732	-0.4875	-1.2875	-1.5771	-1.0312	-1.6708	-1.5542	-1.1021	-1.8042	-1.2583	-1.4708	-1.5917	-1.1063	-1.5708	-1.5042	-0.88333	-1.7729	-150.518	30.781	-61.649	156.472	131.249	-169.438	136.936	96.866	-94.942	-149.717	-122.913	-142.608	26.996	90.891	-129.892	-129.392	0.00096753	0.0004455	6.4183e-05	902.21	4.8934e-06	5.3937e-06	625.7	255.53	1.2466e-05	4.2257e-06	186.31	60.913	87.247	41.996	6.0097e-06	30.968	0.00020204	0.00014617	3.9906e-05	844.97	1.6729e-06	1.6299e-06	584.38	240.39	1.7132e-06	1.6022e-06	174.7	57.724	81.253	40.013	1.6826e-06	29.251	28.731	-108.335	-102.984	-157.969	-69.481	-32.962	-159.717	-152.485	-49.929	4.417	-155.242	-150.583	-147.282	-142.622	-46.283	-147.718	-8191	255	
1367.356	1	1	0	0	0.23148	0.10453	0.059838	0.10613	0.16225	0.17115	0.19638	0.13485	0.17691	0.11751	0.28282	0.12745	0.28802	0.26586	0.17577	0.19822	-0.5625	-1.2125	-1.6729	-1.0646	-1.6375	-1.6688	-1.0917	-1.9625	-1.3771	-1.1437	-1.7021	-0.89375	-1.7437	-1.6271	-0.93333	-1.8125	-143.050	-80.666	-148.849	-162.623	-108.218	22.926	139.651	123.916	124.143	-131.716	126.823	19.948	7.589	-4.089	-163.739	-7.459	0.00090159	0.00034413	7.5524e-05	899.53	5.379e-06	2.8588e-06	625.52	256.83	6.0689e-06	2.0489e-06	185.64	62.45	87.165	42.377	1.635e-06	31.337	0.00018846	0.00014985	4.0869e-05	844.03	1.6075e-06	1.5765e-06	585.63	240.55	1.6728e-06	1.5992e-06	175.4	58.32	81.694	40.301	1.6444e-06	29.518	33.223	-79.316	-51.288	-158.012	-30.436	-25.983	-159.843	-152.468	-57.687	-7.888	-155.044	-150.493	-147.849	-142.942	-53.979	-147.664	-8191	255	
1367.452	1	1	0	0	0.15348	0.14073	0.20179	0.33514	0.16804	0.17807	0.089537	0.090468	0.056204	0.24556	0.12711	0.3025	0.21891	0.1436	0.11657	0.094578	-0.81458	-1.3167	-1.5646	-1.3375	-1.2563	-1.7958	-1.2812	-1.7625	-1.1938	-1.1729	-1.6958	-1.1229	-1.2479	-1.9062	-0.98958	-1.775	168.105	5.550	77.456	110.165	-55.788	157.820	-30.982	185.128	84.172	34.818	152.459	160.999	100.426	107.815	4.587	0.023	0.00092442	0.0003502	8.4404e-05	899.59	5.4998e-06	1.6818e-06	624.18	256.87	8.2664e-06	3.3185e-06	187.05	61.921	86.639	42.356	4.9309e-06	31.022	0.00019789	0.00014786	3.8411e-05	845.19	1.6321e-06	1.5337e-06	586.38	240.5	1.6824e-06	1.6809e-06	175.6	58.206	81.356	40.118	1.6389e-06	29.339	31.431	-79.673	-58.964	-157.836	-56.810	1.521	-159.260	-152.786	-75.979	-23.244	-156.227	-151.869	-148.406	-143.396	-64.082	-148.673	-8191	255	
1367.573	1	1	0	0	0.11732	0.08828	0.10927	0.027279	0.031427	0.1948	0.18884	0.24418	0.080542	0.16244	0.092206	0.16353	0.24005	0.25796	0.27624	0.071129	-1.1729	-0.90833	-1.7417	-1.1396	-1.3417	-1.6458	-1.075	-1.6729	-1.5	-0.98125	-1.8563	-1.2604	-1.2229	-1.7313	-1.0187	-1.5604	-110.300	-98.333	129.618	180.221	-73.152	-63.451	-168.174	99.028	-169.999	175.098	-79.156	186.933	88.596	157.226	105.574	5.184	0.00097402	0.00035907	0.00010798	905.87	4.3828e-06	2.4116e-06	628.94	255.26	9.0243e-06	5.3417e-06	186.8	61.576	86.977	42.477	6.3215e-06	31.136	0.00020377	0.00014565	4.1654e-05	848.24	1.7262e-06	1.4587e-06	586.67	239.55	1.616e-06	1.6335e-06	175.31	57.874	81.629	40.25	1.6632e-06	29.321	32.950	-99.333	-76.375	-158.637	-21.363	-54.183	-159.999	-153.072	-41.348	-19.360	-155.920	-151.249	-148.094	-143.637	-53.369	-148.287	-8191	255	
1367.667	1	1	0	0	0.26862	0.10679	0.16619	0.092926	0.20109	0.18167	0.27577	0.18999	0.054161	0.18934	0.25457	0.23043	0.24135	0.12374	0.42392	0.10636	-1.3792	-0.95	-1.6208	-1.45	-1.3333	-1.8292	-1.0063	-1.6521	-1.5542	-0.80208	-1.6437	-1.1271	-1.0979	-1.9125	-1.2062	-1.4792	-148.140	145.372	-100.426	145.459	122.561	188.521	120.032	118.504	120.974	-64.185	-64.386	157.510	144.425	-27.378	184.342	104.813	0.00090293	0.00039484	6.9218e-05	904.23	2.7361e-06	4.0909e-06	632.79	255.86	7.334e-06	3.3645e-06	188.11	62.514	87.684	42.75	4.162e-06	31.364	0.00019836	0.00014586	3.9444e-05	846.71	1.7925e-06	1.575e-06	588.39	240.18	1.681e-06	1.6266e-06	176.37	58.707	82.203	40.648	1.6725e-06	29.702	31.844	-68.633	-99.445	-158.426	-45.477	-62.166	-159.986	-152.845	-54.594	-29.709	-156.336	-151.611	-147.853	-143.510	-55.701	-148.331	-8191	255	
1367.763	1	1	0	0	0.1252	0.20047	0.17109	0.1844	0.2283	0.39476	0.15874	0.38257	0.084055	0.21312	0.16311	0.25102	0.029742	0.18598	0.028262	0.21798	-1.225	-0.93125	-1.7188	-1.3958	-1.0854	-1.725	-1.1	-1.4625	-1.6042	-1.0208	-1.5688	-1.6146	-1.0208	-1.7729	-1.1354	-1.3937	175.961	-14.192	114.215	112.188	-37.313	133.828	127.041	-162.502	150.990	19.276	-125.728	170.375	-103.573	-61.152	108.464	173.679	0.00093531	0.00026832	6.6134e-05	909.45	3.0125e-06	2.9216e-06	634.08	255.64	9.04e-06	2.3646e-06	188.3	62.813	88.031	43.251	4.3086e-06	32	0.00020034	0.00014784	4.0238e-05	848.02	1.7071e-06	1.6249e-06	592.64	241.03	1.6833e-06	1.6614e-06	177.78	59.335	82.636	41.008	1.6594e-06	30.237	35.653	-98.273	-79.497	-158.552	-64.475	-23.781	-160.233	-153.193	-40.904	32.666	-155.313	-151.138	-148.039	-143.433	-61.474	-148.161	-8191	255	
1367.884	1	1	0	0	0.15203	0.11282	0.32839	0.37806	0.21541	0.25045	0.14411	0.17499	0.062043	0.1871	0.058709	0.13552	0.027477	0.16563	0.24148	0.17679	-1.2104	-0.95208	-1.4479	-1.5688	-1.0583	-1.8021	-1.3438	-1.3333	-1.7854	-1.1021	-1.5229	-1.6146	-1.0688	-1.6229	-1.175	-1.4208	-20.001	-67.939	-98.586	149.820	3.985	62.117	146.807	69.051	88.976	106.357	107.352	82.138	-162.139	167.970	126.127	-22.224	0.00098652	0.00029984	7.1156e-05	908.71	4.7842e-06	4.823e-06	636.49	255.84	8.5158e-06	3.2112e-06	190.31	62.798	87.57	42.71	3.0987e-06	31.69	0.00020313	0.0001456	4.2597e-05	849.8	1.697e-06	1.6403e-06	595.51	241.14	1.6734e-06	1.6311e-06	177.92	59.114	82.38	40.706	1.6653e-06	29.796	27.610	-74.498	-75.697	-158.787	-39.728	-27.315	-160.251	-152.991	-33.418	-14.272	-155.785	-151.466	-147.809	-143.069	5.234	-147.931	-8191	255	
1367.956	1	1	0	0	0.028869	0.2391	0.14546	0.27335	0.24465	0.26677	0.32192	0.1676	0.15848	0.38702	0.37138	0.0082532	0.15286	0.26269	0.048481	0.026812	-1.4375	-1.0604	-1.6	-1.6583	-0.87083	-1.5854	-1.3521	-1.2271	-1.7792	-1.0396	-1.5688	-1.8958	-1.1042	-1.7375	-1.4583	-1.0125	-148.211	72.173	23.968	115.989	-65.423	74.449	177.098	151.002	81.468	70.436	155.794	-160.136	107.807	-146.674	102.355	-62.510	0.0010482	0.0002465	7.1084e-05	903.95	3.3473e-07	2.8378e-06	629.13	256.21	5.1179e-06	4.6971e-06	187.68	62.379	87.294	42.35	4.1671e-06	31.003	0.0001993	0.00014749	3.9602e-05	848.44	1.7565e-06	1.545e-06	591.82	240.32	1.7306e-06	1.6266e-06	177.22	58.356	81.728	40.264	1.6892e-06	29.403	34.462	-115.493	-90.783	-158.818	-25.631	-29.814	-160.418	-153.383	-2.725	-23.092	-155.787	-151.633	-148.289	-143.446	-55.005	-148.431	-8191	255	
1368.052	1	1	0	0	0.27268	0.15648	0.045486	0.32415	0.21927	0.15133	0.025045	0.21007	0.22117	0.092109	0.05501	0.13205	0.12128	0.28914	0.20288	0.14527	-1.2875	-0.93958	-1.0875	-1.7771	-1.0792	-1.5792	-1.3708	-0.99792	-1.7	-1.4312	-1.3687	-1.7687	-1.0063	-1.6896	-1.5979	-0.90417	15.352	-73.388	152.637	165.886	177.726	131.274	-166.846	74.225	6.017	-103.929	-60.383	162.716	-52.031	86.009	-100.298	146.977	0.00085752	0.00017015	0.00010377	905.7	4.4589e-06	2.9733e-06	624.83	254.66	9.5387e-06	4.354e-06	189.15	62.502	87.45	42.519	4.3763e-06	31.154	0.00019436	0.00014462	4.0387e-05	847.23	1.7577e-06	1.6091e-06	588.88	239.97	1.7446e-06	1.6631e-06	176.74	58.732	81.823	40.489	1.7297e-06	29.561	27.853	-67.200	-100.133	-158.863	-54.366	33.191	-160.000	-153.029	-36.543	1.747	-155.895	-151.153	-148.190	-143.534	-52.015	-148.152	-8191	255	
1368.148	1	1	0	0	0.303	0.096746	0.19854	0.05079	0.27038	0.12692	0.22029	0.39087	0.081313	0.13006	0.32361	0.11766	0.27101	0.15713	0.10693	0.056801	-1.4271	-1.1854	-1.1333	-1.9042	-0.92917	-1.5562	-1.4771	-1.0042	-1.6354	-1.3646	-1.0083	-1.6	-1.1313	-1.4229	-1.4562	-0.85417	-41.292	73.083	188.467	56.320	-105.546	153.499	117.795	128.821	172.513	-163.423	-135.043	-129.718	106.244	-140.201	145.081	169.606	0.00088628	0.00035843	8.2618e-05	901.53	4.3041e-06	2.8835e-06	630.79	255.58	6.5209e-06	5.7053e-06	188.66	63.277	87.38	42.574	4.8317e-06	31.366	0.0001985	0.0001431	4.0528e-05	845.6	1.6362e-06	1.593e-06	593.66	240.43	1.6642e-06	1.5398e-06	177.8	58.91	81.804	40.586	1.6802e-06	29.796	29.420	-115.693	-48.743	-158.728	-60.511	-31.690	-160.291	-153.352	-54.175	-10.515	-156.139	-151.441	-147.962	-143.567	-19.963	-148.445	-8191	255	
1368.244	1	1	0	0	0.14331	0.22229	0.30943	0.39271	0.057128	0.23172	0.20132	0.21978	0.16603	0.12432	0.09446	0.088663	0.24056	0.18364	0.10646	0.29536	-1.3229	-1.0146	-0.99792	-1.7771	-1.0688	-1.4042	-1.7687	-1.0292	-1.6708	-1.6	-1.0938	-1.9208	-1.2729	-1.4271	-1.6375	-1.0083	-64.583	79.542	95.250	172.706	111.218	-29.067	93.776	131.331	-55.791	113.887	59.630	-105.773	171.735	181.254	-30.411	118.522	0.00092526	0.00028118	0.00013914	905.27	2.8759e-06	3.4875e-06	633.63	256.73	7.4519e-06	5.6382e-06	189.99	62.844	87.307	42.414	4.533e-06	31.306	0.0001953	0.00014534	4.0336e-05	848.94	1.6617e-06	1.5648e-06	595.56	241.09	1.6089e-06	1.5807e-06	177.95	58.855	81.77	40.436	1.6407e-06	29.63	28.406	-66.938	-109.121	-158.607	-56.769	-29.838	-160.167	-152.917	-49.278	-15.082	-156.273	-151.403	-148.112	-143.672	-60.424	-148.538	-8191	255	
1368.363	1	1	0	0	0.14355	0.27716	0.055223	0.11005	0.071819	0.19703	0.11586	0.28938	0.088749	0.27664	0.22061	0.13916	0.11397	0.059466	0.016284	0.24048	-1.225	-1.4708	-0.89583	-1.9354	-1.2563	-1.5167	-1.7042	-0.88542	-1.5104	-1.4646	-1.0187	-1.7729	-1.0708	-1.1708	-1.6896	-1.1396	-35.034	180.107	178.632	134.427	53.283	-155.318	74.167	149.629	118.425	-28.580	-105.688	132.111	-115.996	164.025	-154.798	-43.176	0.00083868	0.00029579	0.00013398	905.52	2.8504e-06	4.5032e-06	636.32	255.72	6.3992e-06	3.2692e-06	187.49	62.762	87.446	42.749	5.8622e-06	31.321	0.00019118	0.00013822	4.0546e-05	846.55	1.6608e-06	1.5344e-06	593.5	240.36	1.6259e-06	1.4955e-06	176.64	58.804	82.008	40.578	1.7285e-06	29.514	26.677	-113.417	-94.710	-158.542	-46.465	-43.001	-160.519	-153.127	-48.594	12.675	-155.879	-151.335	-148.585	-143.343	-31.772	-148.602	-8191	255	
1368.459	1	1	0	0	0.42877	0.11874	0.10473	0.27035	0.21982	0.12849	0.14074	0.11069	0.079449	0.29015	0.19249	0.2488	0.28814	0.1736	0.11633	0.12918	-1.0479	-1.4062	-0.7375	-1.6542	-1.1667	-1.1771	-1.9438	-1.1437	-1.4813	-1.5833	-1.0354	-1.6229	-1.1521	-1.1417	-1.7125	-1.0854	77.416	81.258	171.829	140.125	26.168	-11.785	78.817	148.029	-107.901	-123.255	44.562	85.467	166.872	-10.731	120.858	-58.497	0.00093591	0.00034765	9.3009e-05	904.81	3.3331e-06	3.3563e-06	632.05	256.92	8.1837e-06	3.3076e-06	188.27	63.377	87.763	43.073	6.0884e-06	31.423	0.00019646	0.00013872	4.1682e-05	847.37	1.5447e-06	1.6e-06	592.99	240.94	1.6293e-06	1.4998e-06	177.33	59.221	82.424	40.845	1.607e-06	29.841	30.232	-66.938	-96.227	-158.159	-0.076	-3.061	-160.100	-152.904	-35.444	-24.313	-155.774	-151.569	-148.464	-143.350	-14.165	-148.537	-8191	255	
1368.531	1	1	0	0	0.20007	0.097597	0.045126	0.19748	0.17876	0.18627	0.22568	0.247	0.11987	0.11603	0.12484	0.28186	0.047083	0.14215	0.17889	0.17601	-0.85417	-1.6896	-0.9125	-1.5562	-1.4125	-0.8875	-1.925	-1.2	-1.2687	-1.7875	-1.0021	-1.7604	-1.425	-1.0125	-1.8167	-1.2604	-131.697	137.238	103.487	126.304	184.980	-73.464	106.779	117.510	54.126	110.769	-61.348	-85.675	90.743	-18.047	15.900	168.974	0.00085601	0.00059899	7.5647e-05	905.92	3.8127e-06	5.5319e-06	641.79	256.55	1.2521e-05	3.7151e-06	189.89	63.157	88.575	42.834	7.5573e-06	31.825	0.0002003	0.00014333	3.8233e-05	848.99	1.6162e-06	1.6693e-06	598.06	240.78	1.7883e-06	1.5316e-06	178.27	59.503	82.744	40.721	1.7382e-06	30.069	33.868	-102.103	-118.467	-158.653	-58.904	-11.271	-160.159	-153.004	-35.131	-4.001	-156.514	-151.747	-148.184	-143.508	-17.671	-148.695	-8191	255	
1368.651	1	1	0	0	0.16615	0.086614	0.14287	0.142	0.27791	0.29084	0.059501	0.39744	0.075635	0.16809	0.209	0.04113	0.05448	0.072414	0.29762	0.31785	-0.82917	-1.6271	-1.0896	-1.6271	-1.3979	-0.91875	-1.7708	-1.3083	-1.1229	-1.9417	-1.0333	-1.5729	-1.6958	-1.1854	-1.6292	-1.1271	-117.521	-71.180	-0.912	-156.958	-77.646	14.000	144.844	-33.472	178.732	-140.533	32.624	-70.319	165.216	-55.284	105.876	129.411	0.00090158	0.00029825	7.7329e-05	909.15	2.5594e-06	3.8903e-06	639.54	256.02	1.1005e-05	4.0992e-06	189.96	62.428	87.41	42.682	5.71e-06	31.396	0.00019366	0.00014066	4.2555e-05	849.75	1.626e-06	1.5917e-06	598.89	240.94	1.7348e-06	1.4861e-06	178.36	58.976	81.754	40.509	1.5725e-06	29.686	32.273	-76.535	-81.847	-158.692	-33.784	-28.052	-159.829	-153.136	-42.803	-14.744	-155.852	-151.023	-148.058	-143.603	-36.676	-148.336	-8191	255	
1368.748	1	1	0	0	0.22468	0.3403	0.047335	0.069294	0.27028	0.22215	0.18893	0.047327	0.30172	0.11508	0.079493	0.070179	0.10977	0.1633	0.11787	0.12946	-0.8625	-1.9271	-0.95	-1.5771	-1.6521	-1.0896	-1.6875	-1.4271	-1.0354	-1.8438	-1.1667	-1.2667	-1.7188	-1.0312	-1.5625	-1.4146	-86.129	117.568	-68.884	107.407	-48.295	53.218	145.887	-119.532	92.923	52.127	-91.613	-136.570	-116.239	117.124	-145.675	-144.922	0.00095524	0.00034641	8.2431e-05	904.25	4.9897e-06	4.1856e-06	638.38	254.14	5.9704e-06	3.8362e-06	186.29	61.854	87.054	42.613	4.2504e-06	30.856	0.00019492	0.00013415	3.7182e-05	846.64	1.4904e-06	1.4924e-06	595.42	239.24	1.6718e-06	1.5933e-06	175.8	58.273	81.467	40.22	1.7054e-06	29.206	29.672	-107.069	-111.579	-158.545	-20.073	-57.492	-159.994	-153.027	-58.653	-1.633	-156.143	-151.388	-147.890	-143.418	-33.767	-148.018	-8191	255	
1368.844	1	1	0	0	0.089738	0.080508	0.14917	0.26803	0.027989	0.09842	0.1877	0.38834	0.12795	0.15296	0.081523	0.17325	0.17179	0.11535	0.070055	0.20333	-0.67083	-1.7583	-1.0646	-1.3833	-1.7104	-1.075	-1.7938	-1.6021	-0.9875	-1.7563	-1.1958	-1.0646	-1.5688	-0.975	-1.3771	-1.4354	-22.370	44.511	21.454	159.526	-119.219	33.301	-165.283	163.752	-21.650	157.335	-36.327	159.942	-71.876	89.694	-148.199	16.736	0.00099548	0.00040705	0.00010377	906.89	3.446e-06	3.5668e-06	636.91	257.69	9.2583e-06	2.2792e-06	187.82	61.738	86.432	42.41	3.7094e-06	31.01	0.00020178	0.00014037	3.8098e-05	847.11	1.5939e-06	1.5137e-06	594.3	239.68	1.6966e-06	1.5296e-06	176.02	58.3	81.384	40.232	1.5737e-06	29.444	30.849	-76.838	-53.985	-158.258	-30.027	2.941	-160.126	-153.290	-59.677	-29.162	-155.826	-151.383	-147.800	-143.137	-41.065	-148.109	-8191	255	
1368.964	1	1	0	0	0.22438	0.089335	0.10412	0.20132	0.13611	0.13962	0.22601	0.25021	0.15392	0.29128	0.26149	0.18495	0.10596	0.30097	0.06596	0.26214	-0.66458	-1.6313	-1.0729	-1.2979	-1.7333	-1.0396	-1.6708	-1.7958	-0.925	-1.7188	-1.2521	-1.1396	-1.6667	-1.3062	-1.5375	-1.825	36.469	12.552	112.449	-88.427	-107.233	-75.312	93.918	53.102	-81.575	-94.779	-25.263	72.916	1.179	139.287	79.403	-101.986	0.00092977	0.00032864	0.00011692	904.58	4.0532e-06	3.8968e-06	639.27	255.17	8.1006e-06	2.3503e-06	190.53	63.255	88.619	43.483	4.0828e-06	32.22	0.00019255	0.00014194	3.9649e-05	845.48	1.5585e-06	1.5674e-06	595.2	240.08	1.6863e-06	1.5131e-06	177.96	59.49	82.919	41.353	1.6871e-06	30.454	29.597	-57.970	-91.898	-158.553	-24.211	-43.769	-160.034	-152.989	-41.915	-49.218	-155.784	-151.623	-148.195	-143.606	-10.515	-148.713	-8191	255	
1369.060	1	1	0	0	0.1561	0.073877	0.25976	0.1892	0.2488	0.18943	0.20757	0.22098	0.052647	0.1379	0.17502	0.060309	0.11226	0.23406	0.27722	0.16174	-0.52708	-1.575	-1.3792	-1.1625	-1.7104	-1.1625	-1.5167	-1.6333	-0.8375	-1.7104	-1.4792	-1.1042	-1.9188	-1.1417	-1.0562	-1.8146	-72.612	-160.393	-146.472	182.448	-133.251	61.647	-5.350	144.068	65.010	-50.954	148.210	-67.401	164.758	122.416	161.191	-16.789	0.00087767	0.00034121	6.1428e-05	907.68	1.7805e-06	3.8101e-06	647.73	259.54	1.0313e-05	3.1048e-06	193.01	64.333	88.099	42.878	3.7091e-06	31.531	0.00019495	0.00014681	3.9467e-05	848.79	1.6066e-06	1.6473e-06	603.81	243.33	1.7233e-06	1.557e-06	180.33	60.27	82.824	40.806	1.643e-06	29.928	28.783	-90.598	-106.655	-158.108	-16.058	-11.396	-159.942	-153.396	-55.624	-29.262	-155.921	-151.187	-148.282	-143.559	-28.201	-147.970	-8191	255	
1369.155	1	1	0	0	0.24105	0.22813	0.10136	0.35371	0.28692	0.15959	0.26616	0.23452	0.34837	0.19593	0.21052	0.029155	0.1325	0.11732	0.28502	0.21944	-0.44167	-1.6562	-1.4854	-1.0042	-1.7375	-1.0833	-1.3021	-1.8583	-1.1229	-1.5479	-1.5729	-1.0729	-1.8062	-1.3188	-1.1125	-2.1688	-151.176	-116.668	122.417	161.684	120.651	152.862	112.844	148.595	-85.585	18.662	182.728	-82.362	182.546	-3.405	-55.634	-135.571	0.00095331	0.00028655	6.5697e-05	910.8	2.429e-06	6.3816e-06	633.05	256.18	8.0167e-06	4.7073e-06	187.89	62.971	87.575	42.054	7.2596e-06	30.699	0.00019596	0.00014116	3.8668e-05	848.99	1.6882e-06	1.5519e-06	593.48	241.26	1.7107e-06	1.4892e-06	176.77	58.973	81.874	39.987	1.6829e-06	29.021	27.913	-90.861	-36.345	-158.345	-113.307	-53.177	-159.797	-153.109	-70.345	-31.654	-155.931	-151.436	-148.063	-143.488	-16.399	-147.780	-8191	255	
1369.251	1	1	0	0	0.29099	0.33198	0.053858	0.21177	0.13956	0.073344	0.18214	0.22188	0.23642	0.10319	0.093992	0.19418	0.20266	0.046911	0.08495	0.29307	-0.5875	-1.2396	-1.5875	-1.0896	-1.6979	-1.2771	-1.0938	-1.8583	-1.1125	-1.3167	-1.625	-0.92708	-1.5938	-1.4208	-1.0104	-1.9312	65.392	-153.807	155.496	66.063	73.828	104.894	-145.267	-120.936	36.889	160.704	162.546	114.255	172.665	22.491	-135.940	82.095	0.00089336	0.00025906	5.3882e-05	900.89	6.7409e-06	1.9768e-06	634.02	253.81	7.1686e-06	2.7014e-06	187.93	62.862	87.524	42.919	4.9096e-06	31.431	0.00018507	0.00013833	3.8056e-05	844.93	1.6224e-06	1.4863e-06	590.52	238.42	1.6964e-06	1.4824e-06	176.18	58.978	82.39	40.716	1.6112e-06	29.865	31.784	-99.441	-56.462	-158.751	-31.139	11.802	-159.938	-153.004	-55.959	-53.819	-155.679	-151.053	-148.008	-143.576	-40.894	-148.313	-8191	255	
1369.347	1	1	0	0	0.19089	0.08887	0.2186	0.048142	0.13615	0.19808	0.027006	0.064129	0.14153	0.093158	0.29462	0.15613	0.34368	0.22999	0.16873	0.26648	-0.62917	-1.1708	-1.5792	-1.0104	-1.6646	-1.2521	-1.2563	-1.9083	-1.0479	-1.4937	-1.575	-1.0292	-1.7062	-1.4875	-0.88125	-1.7563	2.819	-71.911	83.436	-109.215	63.091	116.557	-51.050	168.435	126.512	-81.313	-170.149	39.112	161.745	169.326	-21.602	188.713	0.00083193	0.00035927	0.00011468	899.7	4.1112e-06	5.119e-06	629.39	255.76	1.0896e-05	5.3115e-06	189.61	63.14	88.237	43.029	6.6487e-06	31.851	0.00019071	0.00013539	3.8603e-05	844.09	1.6153e-06	1.5498e-06	589.03	239.84	1.6909e-06	1.5122e-06	177.48	59.297	82.543	40.871	1.7916e-06	30.178	30.705	-82.152	-61.545	-158.539	-17.110	-20.476	-159.939	-152.849	-47.564	-24.073	-155.775	-151.580	-147.772	-143.218	-47.974	-148.400	-8191	255	
1369.443	1	1	0	0	0.24532	0.19252	0.18298	0.20456	0.16014	0.16775	0.25671	0.19429	0.13141	0.20117	0.19232	0.15037	0.17286	0.12464	0.16903	0.33261	-0.80417	-1.2646	-1.6938	-1.1375	-1.6104	-1.5375	-1.0792	-1.8021	-1.2354	-1.1146	-1.8479	-0.97292	-1.425	-1.4146	-0.97292	-1.65	78.258	113.982	52.773	86.605	127.999	-96.550	103.454	143.474	-119.080	30.975	-111.759	87.704	126.876	92.117	68.611	54.740	0.0009051	0.00010257	0.00011064	906.46	4.3632e-06	2.5142e-06	634.35	256.09	8.9476e-06	2.6462e-06	190.68	63.815	87.858	43.075	4.7851e-06	31.801	0.00019455	0.00014204	3.9644e-05	846.96	1.5871e-06	1.5919e-06	594.22	241.52	1.6996e-06	1.6268e-06	178.8	59.89	82.819	40.951	1.7162e-06	30.144	33.746	-93.791	-73.145	-158.412	-26.933	-17.540	-159.393	-153.024	-38.752	-6.196	-155.880	-151.482	-147.632	-143.097	-25.249	-148.143	-8191	255	
1369.564	1	1	0	0	0.10904	0.31702	0.20318	0.19401	0.15054	0.042803	0.18424	0.28357	0.023033	0.13365	0.25447	0.33048	0.14529	0.22331	0.12909	0.31541	-0.90833	-1.2646	-1.6708	-1.2083	-1.4438	-1.7083	-1.0187	-1.6833	-1.2979	-1.0958	-1.8875	-1.1458	-1.3	-1.7167	-1.2375	-1.775	-135.832	69.607	-4.061	172.639	68.384	19.828	80.424	184.939	-135.028	-33.924	176.688	41.601	-118.578	156.214	112.300	13.993	0.00093482	0.00023753	0.00011639	903.92	4.8527e-06	4.6316e-06	627.79	254.8	7.0299e-06	3.5768e-06	187.43	62.94	86.915	42.36	2.6053e-06	31.004	0.0001952	0.00014699	3.6916e-05	845.56	1.6923e-06	1.5018e-06	588.28	239.88	1.5671e-06	1.6037e-06	176.28	58.774	81.677	40.301	1.7317e-06	29.397	25.371	-83.164	-72.117	-158.567	-32.297	-39.192	-160.043	-153.073	-44.983	-21.779	-155.837	-151.163	-147.865	-143.302	-5.060	-148.214	-8191	255	
1369.660	1	1	0	0	0.06475	0.09607	0.15178	0.41189	0.42245	0.17964	0.28748	0.10587	0.24974	0.078206	0.093901	0.12289	0.096518	0.5192	0.22788	0.15619	-1.075	-0.99792	-1.5042	-1.0187	-1.3937	-1.675	-0.93958	-1.7062	-1.5833	-0.97708	-1.9229	-1.1125	-1.2125	-1.6396	-0.91042	-1.6958	55.936	180.367	98.159	140.997	58.360	-67.808	131.646	97.212	-101.768	78.749	-153.831	86.587	182.211	131.170	-51.078	87.678	0.00088416	0.00050235	6.51e-05	895.74	5.3303e-06	4.337e-06	629.37	253.9	9.0445e-06	3.1333e-06	185.94	61.389	86.342	41.831	6.6528e-06	30.934	0.00019289	0.00014323	3.9715e-05	840.84	1.6961e-06	1.505e-06	588.02	238.36	1.6385e-06	1.602e-06	175.29	58.139	80.956	39.828	1.6738e-06	29.197	32.768	-113.895	-95.284	-158.777	-80.881	-45.420	-160.101	-152.870	-66.043	-24.491	-155.693	-151.263	-148.076	-142.954	-18.627	-148.026	-8191	255	
1369.756	1	1	0	0	0.11345	0.13169	0.17428	0.28107	0.086766	0.083663	0.12737	0.075853	0.20084	0.21338	0.24037	0.15879	0.094501	0.09085	0.28242	0.011818	-1.1542	-0.95208	-1.6208	-1.3833	-1.2667	-1.8167	-1.1333	-1.6792	-1.5208	-1.0125	-1.7062	-1.3042	-1.1104	-1.9062	-0.99375	-1.4146	166.588	-151.834	113.047	-118.344	-21.526	-168.855	-57.805	163.693	-57.178	128.582	-130.681	127.902	-106.907	168.139	-14.245	-65.075	0.00087436	0.00027134	0.00011993	894.87	2.5276e-06	3.4843e-06	625.62	254.05	9.0295e-06	3.2652e-06	185.61	61.763	86.86	41.736	6.7501e-06	30.737	0.00019696	0.0001484	3.75e-05	838.64	1.675e-06	1.578e-06	586.87	238.46	1.661e-06	1.5479e-06	175.37	58.172	81.234	39.788	1.668e-06	29.201	29.996	-119.368	-96.723	-158.223	-10.643	-51.360	-159.676	-153.067	-71.161	-10.495	-155.686	-151.491	-147.938	-143.129	-35.928	-148.186	-8191	255	
1369.828	1	1	0	0	0.17781	0.15006	0.15457	0.16789	0.24994	0.2467	0.19125	0.27592	0.17066	0.15757	0.16783	0.23313	0.30119	0.43516	0.22661	0.17526	-1.1646	-1.0187	-1.8813	-1.4833	-1.0229	-1.7583	-1.0896	-1.4125	-1.6292	-0.98542	-1.7542	-1.3833	-1.0562	-1.8937	-1.1583	-1.3604	-88.850	180.484	166.591	105.343	1.263	177.293	116.382	-156.773	114.746	21.795	-124.775	153.129	81.693	161.479	77.364	116.980	0.00090521	0.00031752	7.2231e-05	897.01	4.6696e-06	1.2345e-06	627.33	253.82	8.6117e-06	1.5529e-06	187.12	61.713	86.648	41.635	3.1868e-06	30.841	0.00018509	0.00014343	3.8574e-05	840.08	1.7016e-06	1.4183e-06	586.53	238.37	1.6419e-06	1.609e-06	176.46	58.272	81.032	39.698	1.5899e-06	29.184	31.106	-99.491	-75.997	-158.236	-59.551	-33.560	-160.127	-152.690	-55.538	43.763	-155.185	-150.725	-147.956	-142.898	-22.627	-147.552	-8191	255	
1369.924	1	1	0	0	0.2079	0.15958	0.13705	0.090366	0.45071	0.11849	0.19305	0.28784	0.15662	0.16924	0.17998	0.17722	0.177	0.14707	0.031923	0.067309	-1.3813	-0.96875	-1.5646	-1.7167	-0.97708	-1.6646	-1.3875	-1.1437	-1.8542	-1.0917	-1.4208	-1.4875	-0.92708	-1.8792	-1.3167	-1.0396	185.674	-85.833	-6.312	-169.332	-152.213	-12.314	122.503	80.627	-96.062	-105.935	-49.107	-63.462	-77.346	90.433	-93.108	80.753	0.00091731	0.00025904	0.00013787	888.11	5.365e-06	3.1521e-06	625.57	250.93	1.1053e-05	3.2966e-06	185.78	60.935	85.208	41.105	5.4706e-06	30.342	0.00018332	0.00014412	3.7299e-05	835.58	1.6693e-06	1.4965e-06	583.44	236.49	1.6355e-06	1.5655e-06	173.76	57.147	80.077	39.108	1.6399e-06	28.525	27.939	-65.786	-81.769	-158.365	-66.653	-42.221	-160.086	-152.654	-45.447	-2.974	-155.829	-151.300	-147.526	-143.163	-44.039	-147.599	-8191	255	
1370.043	1	1	0	0	0.10215	0.17251	0.028508	0.28275	0.15062	0.25232	0.15887	0.15001	0.07665	0.30079	0.39533	0.24042	0.13375	0.076067	0.42744	0.25873	-1.475	-0.99375	-1.4542	-1.8271	-0.8625	-1.6437	-1.2167	-1.2208	-1.8875	-1.0708	-1.4792	-1.7229	-0.98333	-1.7896	-1.5083	-1.1083	176.929	-63.002	3.041	16.277	-140.090	43.045	125.789	68.059	-80.491	-79.727	141.965	115.689	178.810	114.739	38.124	101.270	0.00084322	0.00033213	5.2832e-05	892.1	2.3692e-06	4.3083e-06	619.81	251.3	7.0991e-06	1.2895e-06	183.13	60.751	84.993	41.506	3.9557e-06	30.086	0.00018417	0.00014512	3.9794e-05	833.68	1.6408e-06	1.477e-06	578.33	236.16	1.6369e-06	1.5942e-06	172.55	56.981	79.63	39.279	1.6484e-06	28.495	25.600	-54.141	-79.937	-158.512	-34.901	-57.044	-159.676	-152.936	-62.526	-6.647	-156.552	-151.513	-148.217	-143.411	-45.262	-147.944	-8191	255	
1370.139	1	1	0	0	0.19776	0.27119	0.15595	0.2022	0.21687	0.32254	0.1846	0.30506	0.1719	0.074412	0.17886	0.21712	0.075136	0.11509	0.031841	0.13989	-1.3479	-0.975	-1.1875	-1.7292	-0.82708	-1.5938	-1.4958	-1.0292	-1.6875	-1.2104	-1.2375	-1.6812	-0.89583	-1.7417	-1.3563	-1.0979	41.630	-143.482	14.344	180.302	-38.388	46.228	85.593	-170.124	183.143	71.375	23.750	130.210	54.792	-100.139	39.052	45.375	0.00080745	0.00032805	9.4084e-05	885.93	4.6361e-06	3.5074e-06	621.18	251.6	7.6039e-06	1.2157e-06	183.28	60.321	85.785	41.477	4.141e-06	30.055	0.00018354	0.00014092	3.8374e-05	832.05	1.6287e-06	1.4462e-06	578.64	236.31	1.6679e-06	1.5215e-06	172.66	57.099	80.115	39.259	1.643e-06	28.622	31.751	-74.536	-77.755	-158.434	-42.718	-33.775	-160.524	-152.964	-13.611	-31.682	-156.056	-151.293	-147.924	-143.219	-35.185	-148.411	-8191	255	
1370.235	1	1	0	0	0.18769	0.095637	0.089589	0.12301	0.08476	0.065421	0.099764	0.19448	0.35655	0.18094	0.041478	0.18618	0.049361	0.2388	0.10158	0.15671	-1.3479	-1.1542	-1.3208	-1.9167	-0.99375	-1.5208	-1.6292	-1.2271	-1.8875	-1.2458	-1.2979	-1.8771	-1.1812	-1.4417	-1.5667	-0.87083	-168.688	-20.152	61.587	100.640	128.559	-66.253	-85.988	-38.365	170.846	-152.195	-36.112	65.119	101.701	154.367	94.837	187.568	0.0009155	0.00018272	0.00014578	888.81	5.0624e-06	2.4829e-06	621.09	252.56	8.9513e-06	5.4571e-06	185.63	61.354	85.58	41.606	2.7251e-06	30.818	0.00018825	0.00013567	3.9953e-05	833.29	1.6415e-06	1.4511e-06	581.55	236.83	1.6378e-06	1.5961e-06	174.39	57.884	80.474	39.598	1.5885e-06	29.202	27.367	-63.115	-70.048	-158.508	-52.911	-64.837	-159.989	-153.413	-58.311	-20.628	-155.592	-151.946	-147.921	-143.600	-16.551	-148.274	-8191	255	
1370.331	1	1	0	0	0.082894	0.066673	0.40855	0.011748	0.056089	0.066408	0.2131	0.135	0.27437	0.036179	0.28376	0.14911	0.41113	0.39467	0.32096	0.13231	-1.1354	-1.2292	-1.0292	-1.7146	-1.0021	-1.3167	-1.6437	-0.90208	-1.55	-1.5417	-1.0333	-1.6917	-1.1229	-1.3292	-1.675	-1.0792	139.754	35.304	39.385	26.665	188.214	25.503	85.743	-148.349	-131.625	-89.053	22.489	178.068	133.921	143.789	84.909	50.653	0.00090207	0.0004186	8.7948e-05	892.65	2.929e-06	1.9976e-06	615.96	251.76	9.0451e-06	3.3299e-06	187.06	61.409	85.457	41.696	2.5054e-06	30.373	0.00018414	0.00014231	3.7388e-05	833.68	1.6002e-06	1.5333e-06	578.28	236.74	1.6091e-06	1.5035e-06	174.02	57.586	80.343	39.696	1.6117e-06	28.94	26.955	-94.271	-53.770	-158.455	-50.934	-32.648	-160.038	-153.135	-75.249	16.486	-155.963	-151.761	-148.265	-143.167	-76.472	-148.377	-8191	255	
1370.428	1	1	0	0	0.081748	0.28343	0.11045	0.40317	0.061086	0.22434	0.27976	0.25132	0.21509	0.20002	0.059437	0.1421	0.23689	0.30508	0.27094	0.1843	-1.325	-1.4562	-1.1542	-1.7625	-1.1042	-1.3625	-1.9104	-1.0583	-1.5375	-1.6521	-1.0146	-1.7396	-1.3042	-1.2437	-1.8438	-1.1042	-103.079	12.514	116.022	-159.022	175.227	81.595	94.784	140.725	10.484	-118.584	111.018	117.529	-111.632	87.004	-11.164	-33.536	0.00085379	0.00032857	9.4388e-05	885.89	5.269e-06	4.1228e-06	611.7	251.52	6.2602e-06	5.4566e-06	183.22	61.371	86.661	42.035	5.4037e-06	30.66	0.00018679	0.00014052	4.0228e-05	831.21	1.6208e-06	1.5856e-06	576.8	236.48	1.6599e-06	1.5772e-06	172.65	57.729	81.124	40.015	1.6414e-06	29.136	29.203	-52.875	-52.900	-158.450	-46.291	-21.547	-159.915	-153.462	-51.085	-2.863	-156.315	-151.121	-148.368	-143.358	-44.839	-148.475	-8191	255	
1370.524	1	1	0	0	0.12429	0.29409	0.0074694	0.23309	0.10067	0.24832	0.20852	0.27026	0.35997	0.13503	0.19632	0.26971	0.083777	0.16913	0.38129	0.023527	-0.96875	-1.6292	-0.86667	-1.8292	-1.4083	-1.0708	-1.9958	-1.0208	-1.4	-1.7563	-1.0958	-1.7896	-1.2687	-1.0146	-1.8563	-1.2042	148.571	48.689	-110.949	186.163	120.240	-2.848	-130.616	160.659	7.382	-46.244	-154.499	123.255	-109.684	-167.669	-111.139	129.676	0.0010049	0.00024668	1.8008e-05	883.61	2.2176e-06	2.7485e-06	616.22	251.85	8.129e-06	4.3713e-06	185.5	62.701	87.126	42.45	1.2629e-06	31.234	0.00019654	0.00013576	4.0705e-05	829.76	1.6426e-06	1.5602e-06	578.47	236.8	1.6424e-06	1.5452e-06	174.43	58.413	81.265	40.248	1.6338e-06	29.436	27.670	-129.138	-101.539	-158.365	-9.951	-35.231	-159.751	-153.030	-49.196	8.672	-155.579	-150.779	-147.757	-143.321	-11.761	-147.950	-8191	255	
1370.644	1	1	0	0	0.16761	0.10949	0.12926	0.24659	0.34964	0.044212	0.056448	0.15766	0.18283	0.29378	0.032253	0.20083	0.19954	0.22002	0.038088	0.17008	-1.0708	-1.5729	-0.80417	-1.9104	-1.5021	-0.99792	-1.9125	-1.2563	-1.1333	-1.6375	-0.99792	-1.5229	-1.4646	-1.0167	-1.6958	-1.2146	47.093	104.421	-121.932	181.963	171.737	-63.735	54.520	-83.267	116.464	-24.919	-53.576	74.788	174.527	185.763	74.005	125.962	0.00091341	0.00014229	0.00011158	884.89	4.3437e-06	4.2831e-06	622.84	253.31	6.6679e-06	2.0846e-06	187.36	61.849	86.441	42.114	4.0632e-06	30.974	0.00019742	0.00014183	3.8766e-05	829.55	1.6e-06	1.5005e-06	581.01	237.01	1.7617e-06	1.5574e-06	175.49	58.357	81.113	40.011	1.6077e-06	29.446	28.104	-85.141	-78.395	-158.328	-31.637	-27.248	-159.807	-153.090	-63.774	4.422	-155.701	-150.951	-147.597	-143.302	-84.864	-147.561	-8191	255	
1370.740	1	1	0	0	0.31495	0.25626	0.14461	0.19335	0.078638	0.49233	0.11827	0.28223	0.23397	0.30757	0.21705	0.34295	0.33196	0.1994	0.16279	0.2747	-0.8	-1.6854	-1.0146	-1.6792	-1.5479	-1.0417	-1.7062	-1.4479	-1.0396	-1.8667	-1.05	-1.3167	-1.6417	-1.1875	-1.7167	-1.4021	6.920	76.684	-79.719	184.994	172.137	46.227	-153.260	157.364	151.358	-67.836	-65.317	-81.920	130.872	-111.975	46.711	42.525	0.00097575	0.00022011	6.8493e-05	889.91	4.6843e-06	1.9192e-06	620.36	250.3	9.8426e-06	3.63e-06	184.4	61.814	85.822	41.753	3.5161e-06	30.283	0.00020263	0.00014112	4.0602e-05	832.5	1.5773e-06	1.5331e-06	579.49	235.97	1.6266e-06	1.5263e-06	172.68	57.692	80.173	39.717	1.6176e-06	28.79	31.047	-146.917	-53.757	-158.358	-40.456	-29.829	-159.694	-152.729	-59.743	-15.938	-155.544	-151.134	-147.841	-143.165	-2.358	-147.949	-8191	255	
1370.837	1	1	0	0	0.28727	0.28391	0.045738	0.20778	0.15866	0.30059	0.22315	0.21338	0.10467	0.045443	0.11092	0.12367	0.20749	0.22732	0.11209	0.16495	-0.57292	-1.6854	-0.84583	-1.625	-1.7	-0.96875	-1.5521	-1.4979	-0.95208	-1.8292	-1.2417	-1.3	-1.6167	-0.91042	-1.4583	-1.5688	67.269	55.295	-153.216	183.896	-124.011	118.106	61.333	114.807	103.145	96.190	-13.199	35.411	-49.908	-96.216	39.951	-5.679	0.00095182	0.00036993	9.7281e-05	887.37	4.849e-06	4.5743e-06	613.64	250	4.8069e-06	3.2184e-06	182.9	60.903	85.569	41.631	6.2054e-06	30.389	0.00019298	0.00013257	3.8084e-05	828.99	1.5387e-06	1.4941e-06	575.28	235.1	1.5839e-06	1.4231e-06	172.1	57.346	80.25	39.576	1.5644e-06	28.772	29.104	-61.404	-54.253	-158.485	-65.038	-14.656	-159.882	-152.957	-51.805	5.248	-155.700	-151.589	-147.607	-142.953	-35.241	-148.138	-8191	255	
1370.933	1	1	0	0	0.075479	0.14292	0.14193	0.17201	0.081312	0.13904	0.30157	0.13113	0.21117	0.19972	0.17523	0.12492	0.11281	0.084466	0.21603	0.11345	-0.46667	-1.7771	-1.2354	-1.3896	-1.7333	-1.025	-1.6542	-1.6125	-1.0708	-1.9333	-1.2083	-1.2167	-1.7458	-1.0688	-1.6521	-1.5458	21.159	-107.987	-97.048	90.033	87.565	123.449	170.094	163.679	35.975	-151.250	131.246	-99.272	110.046	-137.238	85.579	-32.295	0.00084945	0.00022646	0.00010825	879.36	3.5666e-06	1.7504e-06	616.07	249.78	9.2938e-06	1.5388e-06	184.71	61.228	85.303	41.629	6.1626e-06	30.316	0.00019295	0.00012959	3.7434e-05	824.67	1.5467e-06	1.6251e-06	577.24	235.02	1.6121e-06	1.4572e-06	172.68	57.459	80.133	39.509	1.6256e-06	28.947	31.267	-53.570	-94.299	-158.259	-12.493	-75.971	-159.373	-152.728	-26.917	-12.642	-156.036	-151.193	-147.956	-143.498	-49.188	-148.293	-8191	255	
1371.053	1	1	0	0	0.18226	0.34542	0.13365	0.070118	0.17547	0.26131	0.12282	0.30739	0.22181	0.46146	0.053827	0.1411	0.018861	0.31763	0.14872	0.11232	-0.65	-1.6938	-1.15	-1.1729	-1.675	-1.0125	-1.6167	-1.5417	-1.0271	-1.8083	-1.3542	-1.2229	-1.8271	-1.1521	-1.3396	-1.7729	96.745	78.959	147.083	-36.288	-88.564	-62.943	-153.311	134.404	142.265	-119.024	39.134	67.106	91.809	139.546	-12.666	-92.515	0.00086655	0.00026995	0.00014184	881.55	5.8547e-06	2.1676e-06	614.33	251.2	8.427e-06	2.9269e-06	184.96	61.524	86.176	41.726	5.0054e-06	30.705	0.00018475	0.00013825	3.9046e-05	827.36	1.5904e-06	1.5181e-06	579.34	235.39	1.6374e-06	1.4376e-06	173.05	57.836	80.441	39.605	1.5277e-06	29.041	28.815	-84.094	-80.915	-158.318	-55.564	-7.084	-159.666	-152.891	-61.642	-5.599	-155.834	-150.987	-147.845	-143.195	-28.549	-148.449	-8191	255	
1371.123	1	1	0	0	0.21313	0.014552	0.15108	0.18004	0.064786	0.12458	0.17491	0.2841	0.17776	0.35154	0.13962	0.072469	0.21441	0.10733	0.23978	0.12252	-0.39375	-1.6896	-1.2542	-1.0167	-1.8208	-1.1854	-1.3083	-1.7229	-1.0833	-1.6729	-1.4208	-0.98542	-1.7958	-1.1542	-1.2125	-1.5896	129.612	4.872	-3.588	-76.515	-62.414	70.899	47.920	141.383	161.972	83.394	35.615	102.693	-110.655	51.617	56.465	79.365	0.00093444	0.00032419	4.3868e-05	882.61	6.9141e-06	4.7014e-06	614.88	251.59	8.9784e-06	4.2588e-06	182.8	60.463	85.851	41.396	2.9352e-06	30.403	0.00019386	0.00013618	3.8906e-05	828.04	1.6032e-06	1.5068e-06	578.25	235.72	1.5916e-06	1.3978e-06	172.06	57.132	80.102	39.377	1.6218e-06	28.635	27.468	-100.950	-64.490	-158.514	-38.648	-36.122	-159.776	-152.980	-25.160	-47.245	-156.300	-151.589	-148.177	-143.757	-16.643	-148.447	-8191	255	
1371.219	1	1	0	0	0.0507	0.21535	0.095932	0.069297	0.093239	0.074763	0.24822	0.14338	0.20342	0.20107	0.44991	0.04736	0.24204	0.10146	0.18643	0.073977	-0.79583	-1.4646	-1.4438	-0.92917	-1.6812	-1.2604	-1.15	-1.8208	-1.0021	-1.425	-1.6875	-0.76667	-1.65	-1.4167	-1.0729	-1.7896	-36.414	187.370	135.941	-5.103	-77.562	111.867	116.454	168.847	106.634	-164.251	143.415	162.886	95.252	0.326	92.415	45.151	0.00082975	0.00041296	0.00011901	880.96	6.0105e-06	5.0142e-06	611.85	249.71	5.0258e-06	1.0506e-06	182.74	60.726	84.897	41.226	3.1896e-06	30.111	0.00019552	0.00013934	3.4809e-05	825.56	1.5137e-06	1.4896e-06	572.03	234.52	1.6404e-06	1.4105e-06	170.93	56.839	79.847	39.178	1.6166e-06	28.487	28.343	-124.691	-70.564	-158.719	-58.340	-35.559	-159.848	-152.932	-68.184	11.850	-156.302	-151.217	-147.820	-143.443	-62.072	-148.393	-8191	255	
1371.340	1	1	0	0	0.18704	0.16089	0.25966	0.27492	0.055191	0.15549	0.21448	0.2129	0.08459	0.027576	0.35781	0.08753	0.070997	0.1397	0.30242	0.19624	-0.65833	-1.3312	-1.35	-0.77292	-1.6833	-1.3062	-1.1292	-1.5979	-0.94583	-1.4062	-1.7625	-0.97708	-1.6833	-1.4104	-0.97292	-1.9854	111.360	-163.884	-124.877	107.398	-129.901	112.424	160.002	161.068	105.923	-79.109	-101.959	-156.298	28.721	-156.122	25.381	-159.966	0.00089876	0.00036752	4.4027e-05	879.71	2.8593e-06	3.0631e-06	609.92	249.07	9.9605e-06	1.1794e-06	182.94	60.211	85.173	41.468	5.8604e-06	30.306	0.00018821	0.00013235	3.7107e-05	823.99	1.4743e-06	1.4952e-06	571.94	234.71	1.5567e-06	1.4509e-06	171.5	56.667	79.901	39.292	1.643e-06	28.672	31.420	-85.947	-78.701	-158.661	-77.255	-50.484	-160.271	-153.510	-44.984	-18.475	-156.043	-151.404	-148.110	-143.637	-41.306	-148.156	-8191	255	
1371.436	1	1	0	0	0.21521	0.18245	0.093874	0.075013	0.22527	0.16769	0.30477	0.23792	0.30962	0.27933	0.061036	0.27897	0.058496	0.24354	0.051005	0.022838	-0.71458	-1.1417	-1.65	-0.925	-1.5792	-1.4188	-1.1083	-1.8	-1.05	-1.2167	-1.5604	-1.0688	-1.5854	-1.5521	-0.82292	-1.6958	145.699	149.494	56.126	91.254	1.992	76.877	76.398	128.976	-73.920	22.908	-11.106	188.783	-116.115	-2.297	-60.953	25.983	0.00085617	0.00038126	5.612e-05	878.44	5.5176e-06	4.6654e-06	616.32	249.42	7.4585e-06	1.6551e-06	184.97	60.851	84.078	41.237	2.3458e-06	30.301	0.00018816	0.00013945	3.722e-05	821.92	1.503e-06	1.3747e-06	573.57	234.68	1.545e-06	1.46e-06	172.4	57.02	79.284	39.156	1.6065e-06	28.704	31.177	-82.394	-89.784	-158.313	-40.970	-15.063	-159.781	-152.923	-33.881	5.337	-155.965	-151.648	-147.911	-143.184	-18.149	-148.095	-8191	255	
1371.532	1	1	0	0	0.18471	0.20366	0.12571	0.12801	0.16588	0.3547	0.20957	0.19839	0.28998	0.18803	0.042799	0.30018	0.38986	0.056208	0.11943	0.42872	-0.86042	-1.1187	-1.6979	-1.2521	-1.2646	-1.725	-0.94792	-1.9417	-1.175	-1.1667	-1.7521	-1.1646	-1.6854	-1.7542	-0.79375	-1.5333	-15.101	-47.637	-158.131	151.392	6.358	133.116	118.083	114.999	-138.689	64.068	-79.382	-63.613	133.559	-167.746	60.508	25.757	0.00091111	0.00021716	8.7208e-05	884.62	3.9672e-06	2.9538e-06	611.82	248.39	7.8149e-06	2.9516e-06	181.89	60.297	84.645	40.683	3.4581e-06	29.766	0.0001807	0.00013552	3.7215e-05	825.55	1.6221e-06	1.3945e-06	573.58	233.37	1.604e-06	1.544e-06	170.71	56.419	79.052	38.698	1.5282e-06	28.2	30.007	-106.120	-82.855	-158.434	-20.842	-27.399	-159.703	-153.081	-35.314	17.488	-155.680	-151.197	-148.121	-143.180	-45.900	-147.791	-8191	255	
1371.629	1	1	0	0	0.094564	0.12378	0.25445	0.15828	0.17906	0.10981	0.25328	0.048884	0.20785	0.11531	0.11437	0.13169	0.11348	0.16133	0.26856	0.18669	-0.90417	-1.1437	-1.6917	-1.1229	-1.5458	-1.7875	-0.94167	-1.8417	-1.3333	-1.0875	-1.8937	-1.1479	-1.3792	-1.7271	-1.0208	-1.5729	51.462	159.380	138.139	-120.123	-0.999	104.631	126.929	-83.508	175.445	-147.592	-126.182	162.772	5.951	73.606	-124.690	-163.179	0.00085668	0.00033572	0.00014565	878.4	1.9189e-06	4.1427e-06	607.55	246.87	1.1094e-05	4.0913e-06	181.99	59.72	84.221	40.785	3.654e-06	30.028	0.00018615	0.00013205	3.3767e-05	821.99	1.5126e-06	1.4846e-06	569.55	232.76	1.6599e-06	1.5203e-06	170.45	56.017	78.918	38.758	1.4969e-06	28.262	23.710	-97.813	-72.550	-158.353	-43.902	-46.693	-159.465	-153.241	-33.094	-25.006	-155.665	-151.126	-147.948	-143.140	-64.184	-148.044	-8191	255	
1371.725	1	1	0	0	0.22862	0.2362	0.022181	0.12083	0.17751	0.18326	0.26001	0.18293	0.017421	0.14464	0.12562	0.085277	0.12059	0.25438	0.26365	0.22857	-1.2979	-0.98958	-1.8375	-1.0354	-1.1646	-1.9625	-1.2062	-1.6063	-1.6458	-0.9875	-1.7479	-1.2167	-1.2437	-1.7896	-1.2104	-1.4312	-130.940	176.149	-24.722	100.173	153.750	179.771	143.417	-89.561	-166.341	119.449	38.363	43.374	63.630	-149.980	1.295	70.777	0.00087252	0.00030464	0.00011136	875.09	5.3957e-06	4.0725e-06	607.7	248.91	5.6959e-06	4.5388e-06	183.5	60.433	84.858	41.093	4.9958e-06	30.06	0.00018338	0.00013109	3.6537e-05	819.14	1.57e-06	1.4129e-06	569.26	233.35	1.5016e-06	1.4887e-06	171.29	56.591	79.295	39.043	1.5987e-06	28.48	35.699	-76.912	-98.058	-158.461	-30.453	-39.171	-159.913	-152.800	-49.930	-1.771	-155.724	-151.470	-148.388	-143.249	-42.615	-148.129	-8191	255	
1371.821	1	1	0	0	0.25691	0.26647	0.12729	0.24435	0.046524	0.06172	0.097131	0.16084	0.17575	0.238	0.090733	0.12837	0.0098219	0.13813	0.051711	0.34687	-1.1604	-0.89375	-1.7625	-1.4125	-1.0938	-1.9729	-1.1458	-1.4896	-1.6437	-1.1333	-1.9521	-1.3937	-1.1833	-1.8292	-0.96875	-1.3042	119.702	-30.281	66.363	88.326	-21.324	-159.779	-61.780	32.140	-135.650	11.379	80.303	169.449	34.533	58.603	1.692	-117.908	0.00080916	0.00028475	0.00010336	875.75	2.5287e-06	3.3772e-06	611.89	249.1	1.3795e-05	3.5313e-06	182.92	60.894	85.347	41.68	4.6004e-06	30.61	0.0001832	0.0001319	3.5164e-05	819.09	1.562e-06	1.3945e-06	571.27	233.42	1.6495e-06	1.47e-06	172.24	57.013	79.878	39.551	1.5383e-06	29.035	31.447	-57.927	-102.467	-158.665	-60.834	-45.033	-159.749	-152.846	-64.953	8.705	-155.470	-151.081	-148.031	-143.089	-62.028	-147.726	-8191	255	
1371.917	1	1	0	0	0.11591	0.23922	0.27677	0.60501	0.068476	0.23914	0.12401	0.14095	0.22706	0.14691	0.18011	0.15688	0.16013	0.17412	0.064787	0.25318	-1.3813	-0.96458	-1.6187	-1.4646	-1.0958	-1.8104	-1.1917	-1.3354	-1.8062	-1.0333	-1.5083	-1.4333	-1.0562	-1.8125	-1.1833	-1.2479	130.967	100.417	-57.829	133.144	136.558	142.498	112.790	-111.667	4.303	-168.380	83.641	-164.397	63.921	-44.871	70.848	65.442	0.0009125	0.00030712	9.1289e-05	879.52	5.4483e-06	3.863e-06	616.12	250.35	9.4258e-06	3.9586e-06	185.08	61.374	85.865	42.042	5.6373e-06	30.848	0.000178	0.00013945	3.8425e-05	823.5	1.6321e-06	1.4898e-06	574.52	235.47	1.5128e-06	1.5583e-06	173.01	57.452	80.368	39.845	1.6444e-06	29.116	32.500	-65.193	-74.988	-158.284	-36.861	-49.742	-159.368	-152.685	-57.592	-1.591	-155.636	-151.388	-147.481	-143.066	-4.487	-147.869	-8191	255	
1372.013	1	1	0	0	0.19904	0.064381	0.21	0.064297	0.32459	0.030229	0.2593	0.15776	0.14951	0.19785	0.14716	0.072431	0.13034	0.14958	0.06689	0.32013	-1.4229	-0.91458	-1.475	-1.65	-0.92292	-1.6875	-1.2062	-1.3417	-1.6542	-0.88542	-1.5167	-1.6625	-0.85625	-1.8208	-1.4521	-1.1521	-160.626	-1.404	25.372	104.284	-28.768	113.971	128.056	91.580	44.087	88.483	-111.949	-17.210	-134.580	-150.639	-97.458	102.023	0.0008939	0.00015003	6.775e-05	879.84	4.3608e-06	4.4936e-06	606.7	250.86	6.2083e-06	3.5749e-06	183	60.978	86.194	41.956	4.3672e-06	30.6	0.00018559	0.00013932	3.8364e-05	824.08	1.5941e-06	1.4444e-06	570.04	235.59	1.621e-06	1.4965e-06	171.78	57.344	80.561	39.794	1.6065e-06	28.952	32.186	-117.750	-16.880	-158.115	-58.365	-61.169	-159.870	-152.426	-35.032	-2.716	-155.396	-150.600	-147.697	-143.090	-16.088	-148.113	-8191	255	
1372.132	1	1	0	0	0.096467	0.26802	0.018184	0.10163	0.15875	0.055734	0.21456	0.19177	0.078408	0.032431	0.13634	0.089131	0.27183	0.37864	0.25273	0.14733	-1.3625	-1.1083	-1.3979	-1.5771	-0.98958	-1.8729	-1.4521	-1.0604	-1.9083	-1.1667	-1.3396	-1.9229	-0.775	-1.7208	-1.4792	-1.1021	-145.962	93.500	-73.921	-138.335	34.090	184.948	156.160	-162.429	169.168	167.388	129.116	93.111	104.337	137.080	86.116	70.290	0.00092601	0.0002574	4.5984e-05	878.98	5.1442e-06	2.4674e-06	612.53	251.27	6.1693e-06	1.7705e-06	184.59	61.724	86.106	42.334	3.3377e-06	30.999	0.00018431	0.00014034	3.7364e-05	821.7	1.605e-06	1.4768e-06	572.57	235.32	1.5824e-06	1.4537e-06	173.13	57.924	80.846	40.197	1.6608e-06	29.4	29.178	-68.501	-46.228	-158.122	-45.011	-119.984	-159.380	-152.762	-46.253	7.808	-155.508	-150.727	-147.507	-142.791	-64.489	-148.101	-8191	255	
1372.228	1	1	0	0	0.12096	0.1778	0.17226	0.26753	0.13635	0.057761	0.15351	0.16753	0.12237	0.16485	0.044911	0.27973	0.1427	0.16377	0.38671	0.1997	-1.3979	-1.0333	-1.2583	-1.7979	-1.0292	-1.5042	-1.5083	-1.0146	-1.7	-1.125	-1.3417	-1.7396	-1.1	-1.5375	-1.4979	-0.97708	184.503	96.178	-57.349	-166.855	146.742	14.073	-127.344	81.697	7.472	57.836	-49.922	100.822	-26.113	85.708	140.822	-155.298	0.00090661	0.00035539	8.7376e-05	877.22	4.0065e-06	5.6815e-06	617.63	251.97	1.0552e-05	3.9495e-06	184.98	62.147	86.462	42.458	5.53e-06	31.264	0.00019216	0.00014662	3.8056e-05	822.75	1.626e-06	1.5324e-06	576.08	236.46	1.6913e-06	1.5235e-06	174.29	58.323	81.182	40.209	1.6158e-06	29.608	34.402	-118.820	-88.210	-158.176	-39.444	-37.223	-159.514	-152.129	-28.261	-1.760	-155.013	-151.149	-147.789	-142.890	2.215	-147.371	-8191	255	
1372.324	1	1	0	0	0.13363	0.15807	0.16767	0.14323	0.11251	0.20218	0.13892	0.24403	0.1327	0.04878	0.20563	0.16849	0.18896	0.083249	0.12289	0.21163	-1.3583	-1.2833	-1.0271	-1.9937	-1.1271	-1.3417	-1.75	-0.94375	-1.7542	-1.4042	-1.225	-1.8021	-1.175	-1.5083	-1.6583	-1.0667	-84.721	-79.446	-102.677	164.999	-131.561	-160.530	179.354	146.431	-7.616	-99.864	-8.565	108.347	174.661	-165.013	-54.916	98.977	0.00087363	0.00037164	8.8029e-05	881.81	2.6087e-06	2.876e-06	618.83	252.48	1.0227e-05	5.196e-06	185.35	61.185	85.46	42.359	5.0837e-06	30.695	0.00018966	0.00014659	4.0149e-05	825.74	1.6784e-06	1.598e-06	579.22	236.64	1.5698e-06	1.5529e-06	173.37	57.754	80.286	39.988	1.6414e-06	29.18	31.836	-71.869	-84.962	-157.976	-102.642	-37.876	-159.392	-152.394	-58.858	-10.928	-155.203	-150.765	-147.783	-142.863	-21.766	-147.955	-8191	255	
1372.420	1	1	0	0	0.38999	0.081877	0.19663	0.11269	0.15637	0.25825	0.14514	0.20109	0.11501	0.11192	0.11492	0.36164	0.2129	0.058214	0.27436	0.41298	-1.1708	-1.5729	-1.1208	-1.9854	-1.2021	-1.4688	-1.8312	-1.0583	-1.7292	-1.4396	-1.2188	-1.6625	-1.2896	-1.5729	-1.7375	-1.0875	-29.013	-77.043	17.082	151.783	48.884	-139.852	88.426	-90.623	-58.639	-117.299	-157.364	-67.732	111.196	119.157	21.159	-146.895	0.00092585	0.00012838	8.7218e-05	877.71	1.785e-06	4.1846e-06	613.39	250.89	1.0134e-05	5.1383e-06	182.84	60.57	84.056	41.747	4.6153e-06	30.756	0.00018941	0.00013599	3.8332e-05	822.68	1.5686e-06	1.5193e-06	573.11	235.2	1.5492e-06	1.4335e-06	171.71	57.019	79.476	39.57	1.5689e-06	28.969	30.433	-86.195	-63.119	-158.433	-22.035	-12.645	-159.770	-153.108	-87.144	-16.130	-155.602	-150.970	-147.916	-143.076	-46.463	-147.665	-8191	255	
1372.517	1	1	0	0	0.19118	0.39499	0.11975	0.25634	0.32579	0.24558	0.18421	0.25177	0.22363	0.060262	0.18499	0.30582	0.067054	0.17829	0.12089	0.10702	-1.1896	-1.4188	-1.0854	-1.7667	-1.0646	-1.2979	-1.7646	-1.0917	-1.3146	-1.6604	-0.82083	-1.6917	-1.3937	-1.1958	-1.725	-1.0625	105.468	161.425	60.313	133.977	-54.126	-167.966	2.827	-157.048	20.712	-47.674	-113.428	157.882	133.527	152.232	-46.725	134.053	0.00093564	0.00038435	6.3969e-05	873.41	4.0824e-06	5.4623e-06	609.11	250.15	1.0818e-05	3.4225e-06	184.45	60.742	84.61	41.876	3.3619e-06	30.703	0.00018979	0.00013843	3.9845e-05	820.72	1.5412e-06	1.55e-06	571.98	234.58	1.5565e-06	1.4609e-06	172.19	57.056	79.605	39.671	1.4561e-06	29.003	29.919	-85.115	-99.214	-158.434	-57.285	-21.364	-159.821	-153.137	-42.173	-44.711	-155.424	-150.576	-147.969	-143.527	-28.445	-148.194	-8191	255	
1372.613	1	1	0	0	0.16924	0.1931	0.16153	0.045363	0.065359	0.11952	0.10863	0.22565	0.11787	0.24044	0.10865	0.1013	0.17503	0.27181	0.22833	0.46109	-0.8125	-1.6833	-0.9125	-1.7979	-1.2062	-1.0083	-1.8167	-1.2354	-1.4229	-1.8813	-1.1792	-1.6208	-1.3396	-1.1979	-1.6896	-1.1187	-1.887	-30.498	-111.199	-149.391	-124.486	80.193	135.152	-136.103	-128.532	6.720	51.724	28.269	119.656	-152.478	-33.719	-1.196	0.00088108	0.0003158	8.9362e-05	876.14	3.2784e-06	5.9925e-06	613.82	250.41	1.082e-05	1.6801e-06	182.79	61.285	84.541	41.735	2.4139e-06	30.547	0.00018193	0.00013208	3.8537e-05	819.77	1.6501e-06	1.5357e-06	573	234.39	1.5822e-06	1.4526e-06	172.44	57.258	79.495	39.618	1.5835e-06	29.043	29.242	-80.015	-102.815	-158.380	-16.854	-28.592	-159.563	-152.752	-41.796	-19.521	-155.652	-150.839	-148.034	-142.915	-61.981	-148.362	-8191	255	
1372.733	1	1	0	0	0.13702	0.31471	0.18492	0.24656	0.16454	0.11406	0.10159	0.073652	0.11037	0.1992	0.32339	0.10135	0.11317	0.058948	0.013532	0.23075	-0.92917	-1.6313	-0.81458	-1.7104	-1.5562	-0.91458	-1.8854	-1.2667	-1.3479	-1.8958	-0.8375	-1.5625	-1.3021	-1.0396	-1.5958	-1.0271	172.050	100.473	-152.919	68.457	44.305	63.396	131.099	72.174	86.932	63.401	73.521	-2.625	145.357	-18.563	81.105	95.000	0.00093565	0.00041095	8.0012e-05	880.16	2.2225e-06	4.3642e-06	614.58	250.45	1.1023e-05	3.5928e-06	185.16	61.379	85.361	41.73	4.6909e-06	30.689	0.00020417	0.00013868	3.9434e-05	820	1.6025e-06	1.5402e-06	574.66	235.05	1.6743e-06	1.5561e-06	172.79	57.239	79.797	39.629	1.6005e-06	28.956	27.144	-82.746	-59.590	-158.278	-81.647	-27.646	-159.643	-152.649	-28.569	-16.227	-155.331	-150.851	-147.689	-142.917	-32.682	-147.727	-8191	255	
1372.830	1	1	0	0	0.10599	0.40448	0.1263	0.12335	0.089017	0.061849	0.1542	0.16386	0.18787	0.19082	0.25323	0.19247	0.24872	0.303	0.085074	0.11899	-0.7375	-1.8062	-0.93958	-1.5333	-1.5688	-0.85208	-1.6938	-1.4167	-1.075	-1.7229	-0.96875	-1.4708	-1.7521	-1.0458	-1.5292	-1.3979	187.812	76.429	-70.322	-113.437	87.509	151.908	15.381	-117.709	3.367	161.218	-132.795	-144.703	139.448	156.785	39.128	178.254	0.00085199	0.0002287	7.1078e-05	879.23	3.9222e-06	5.4451e-06	607.94	249.12	7.2732e-06	2.6763e-06	180.96	59.869	85.25	41.309	2.9542e-06	30.388	0.00019683	0.00013247	4.0939e-05	819.16	1.5517e-06	1.6056e-06	569.53	233.54	1.706e-06	1.4405e-06	170.44	56.409	79.406	39.275	1.5655e-06	28.691	32.193	-28.536	-62.957	-158.207	-38.070	-45.396	-159.787	-153.063	-44.401	-12.272	-155.227	-151.195	-147.935	-143.200	9.366	-147.463	-8191	255	
1372.926	1	1	0	0	0.095685	0.20927	0.093019	0.22221	0.092091	0.17951	0.054871	0.1218	0.20937	0.34298	0.1835	0.14362	0.17096	0.10682	0.18257	0.081277	-0.52292	-1.6812	-0.94792	-1.3896	-1.6042	-0.88542	-1.5979	-1.6063	-1.1	-1.7479	-0.97292	-1.1521	-1.6437	-1.0875	-1.7917	-1.4708	45.761	63.408	5.124	-4.122	120.141	-70.946	155.644	109.788	85.456	138.039	-142.223	109.558	171.576	81.875	71.109	159.058	0.0008824	0.00027112	0.00010764	870.62	3.6393e-06	3.4267e-06	608.34	249.29	3.5862e-06	3.5707e-06	182.27	60.939	85.344	41.559	7.9819e-06	30.808	0.00019397	0.00013116	3.9444e-05	818.7	1.5315e-06	1.4946e-06	569.04	234.18	1.6061e-06	1.5129e-06	171.18	57.185	79.928	39.632	1.6329e-06	29.136	29.029	-112.429	-60.506	-157.937	-81.410	-20.114	-159.332	-152.940	-20.196	26.524	-154.935	-150.301	-147.291	-143.093	-19.553	-147.626	-8191	255	
1373.022	1	1	0	0	0.088572	0.26666	0.2745	0.21257	0.2842	0.096063	0.13106	0.030351	0.14216	0.24649	0.14646	0.39267	0.11814	0.082175	0.21975	0.26399	-0.50208	-1.7958	-1.1021	-1.4479	-1.8208	-0.76667	-1.7146	-1.5604	-0.85208	-1.6604	-1.1792	-1.2792	-1.8479	-0.96667	-1.5833	-1.5562	-167.604	-111.249	66.397	121.891	0.592	-108.731	85.608	-170.332	1.443	49.090	0.337	-91.816	95.315	96.152	90.932	-139.628	0.00086946	0.00017855	9.8459e-05	872.55	4.7296e-06	1.4592e-06	612.78	249.95	7.9532e-06	1.6663e-06	183.99	61.445	85.605	42.032	3.2693e-06	31.141	0.00020103	0.00014204	3.9425e-05	818.23	1.5392e-06	1.5163e-06	574.08	234.57	1.6909e-06	1.5013e-06	172.59	57.801	80.344	40.074	1.6826e-06	29.492	27.533	-60.804	-100.786	-158.112	-46.517	-56.392	-159.432	-152.713	-58.787	-21.915	-155.768	-150.935	-147.591	-142.762	-68.417	-147.696	-8191	255	
1373.116	1	1	0	0	0.088801	0.037075	0.41939	0.19589	0.11744	0.31308	0.17292	0.080896	0.20243	0.23586	0.18696	0.21656	0.23724	0.36158	0.13318	0.1028	-0.56042	-1.6042	-1.2042	-1.1875	-1.5479	-0.92917	-1.3167	-1.6375	-0.83958	-1.5708	-1.2687	-1.0542	-1.7167	-1.0917	-1.4021	-1.6104	-68.913	144.638	63.058	161.088	-56.889	-129.495	-91.270	109.950	-80.740	-122.596	33.761	51.221	147.038	-167.275	-69.766	-139.694	0.00095103	0.00023777	0.00012401	872.81	4.0565e-06	3.968e-06	613.67	250.92	8.2383e-06	8.4048e-07	186.03	62.209	85.994	42.255	2.9994e-06	31.246	0.00019033	0.0001342	4.1373e-05	818.95	1.5986e-06	1.5989e-06	575.36	235.88	1.7534e-06	1.5937e-06	174.71	58.379	80.633	40.158	1.5996e-06	29.585	30.809	-55.820	-113.948	-158.480	-57.346	-33.199	-160.057	-153.153	-54.225	-4.958	-156.160	-151.174	-147.317	-143.256	-39.314	-147.855	-8191	255	
1373.212	1	1	0	0	0.13645	0.06577	0.02251	0.15429	0.037486	0.068924	0.011512	0.16675	0.3	0.31548	0.17452	0.16808	0.28472	0.25526	0.24221	0.17931	-0.4875	-1.4917	-1.1979	-0.98125	-1.6604	-1.1292	-1.3979	-1.7896	-0.93333	-1.6458	-1.4667	-1.0208	-1.8104	-1.1854	-1.2271	-1.6583	148.028	54.853	-3.536	111.749	57.583	84.444	146.615	130.698	-132.921	-96.446	121.970	-8.698	73.678	0.642	161.958	-168.446	0.00082444	0.00042634	5.1559e-05	878.35	3.4595e-06	5.9032e-06	613.6	249.47	7.6804e-06	3.4326e-06	184.56	60.819	84.894	41.704	4.6937e-06	30.63	0.00019306	0.00014087	4.0135e-05	821.92	1.5267e-06	1.6262e-06	575.08	235	1.6573e-06	1.5457e-06	172.71	57.251	79.799	39.644	1.6356e-06	28.947	26.020	-99.909	-87.374	-158.003	-43.099	-29.920	-159.683	-152.991	-31.687	-8.345	-155.761	-151.133	-147.960	-143.225	-50.259	-147.428	-8191	255	
1373.309	1	1	0	0	0.32762	0.10311	0.047721	0.22646	0.24202	0.13409	0.10233	0.4509	0.18261	0.15024	0.17883	0.045756	0.28566	0.14116	0.16403	0.1531	-0.48958	-1.6396	-1.5688	-0.88333	-1.775	-1.2729	-1.2542	-1.8458	-0.89583	-1.4792	-1.7292	-0.94792	-1.6104	-1.3188	-1.1	-1.7979	-146.350	-115.454	-7.797	-159.338	107.330	160.121	-61.114	105.495	74.717	18.060	60.949	111.513	163.565	-166.694	-132.261	125.600	0.00088127	0.00026695	8.6232e-05	878.85	3.6566e-06	4.77e-06	613.2	248.84	9.8826e-06	3.5707e-06	183.23	60.456	84.893	41.653	5.4358e-06	30.356	0.00020084	0.00013855	3.9626e-05	819.35	1.6176e-06	1.5393e-06	571.13	233.77	1.7564e-06	1.5294e-06	171.83	56.703	79.496	39.49	1.67e-06	28.87	30.877	-105.765	-90.299	-157.865	-78.210	-25.446	-159.781	-152.714	-33.941	-0.822	-155.965	-151.185	-147.564	-143.157	-27.218	-148.345	-8191	255	
1373.429	1	1	0	0	0.1441	0.050799	0.055072	0.28013	0.27213	0.24598	0.21845	0.062217	0.11639	0.07459	0.1123	0.2122	0.23018	0.21587	0.26484	0.064987	-0.44375	-1.3438	-1.5292	-0.925	-1.6542	-1.4062	-1.0979	-1.8354	-1.0458	-1.5417	-1.6187	-1.0521	-1.5792	-1.5063	-1.0458	-1.7604	-90.036	-73.162	107.157	133.855	-114.671	5.431	158.141	-4.933	-75.131	90.088	46.168	183.231	171.829	8.836	-123.780	54.182	0.00082327	0.0003199	0.00010412	873.7	4.4162e-06	4.3359e-06	610.15	246.87	8.7446e-06	1.8653e-06	183.12	60.425	85.114	41.447	3.7581e-06	30.939	0.00019226	0.00014255	3.8546e-05	816.89	1.6176e-06	1.5989e-06	570.92	233.28	1.7286e-06	1.505e-06	172.17	56.953	79.618	39.476	1.6293e-06	29.126	29.762	-81.894	-65.243	-157.985	-22.913	-28.136	-159.198	-152.840	-42.922	-18.063	-155.105	-151.080	-147.619	-143.081	-27.679	-147.483	-8191	255	
1373.525	1	1	0	0	0.25861	0.1702	0.1178	0.18909	0.06354	0.16368	0.23196	0.29009	0.19884	0.15107	0.21043	0.11752	0.42772	0.16138	0.19035	0.15754	-0.68125	-1.2188	-1.7125	-1.025	-1.4292	-1.3813	-0.92917	-1.8	-1.1542	-1.0812	-1.8438	-0.93542	-1.5187	-1.6958	-0.78542	-1.675	112.116	91.724	-92.123	92.374	186.254	151.222	71.017	56.693	62.874	100.794	102.650	34.053	151.347	-71.407	90.560	109.121	0.00086521	0.00027097	4.7411e-05	876.51	5.487e-06	1.4709e-06	615.3	248.68	9.2022e-06	2.569e-06	185.83	61.842	84.726	41.509	3.7874e-06	30.794	0.00019462	0.00014032	3.8126e-05	817.22	1.5848e-06	1.5048e-06	574.03	233.77	1.5666e-06	1.5024e-06	173.42	57.374	79.617	39.425	1.5946e-06	29.079	31.714	-108.725	-74.906	-158.350	-38.473	-11.544	-159.270	-152.841	-30.506	-32.893	-155.019	-151.289	-147.976	-143.063	-4.870	-148.050	-8191	255	
1373.597	1	1	0	0	0.36648	0.089317	0.14116	0.15739	0.3426	0.19148	0.14305	0.011346	0.087266	0.17036	0.096661	0.11397	0.18871	0.25219	0.43064	0.33126	-0.87292	-1.1354	-1.8125	-1.0021	-1.4021	-1.5833	-0.94375	-1.7646	-1.3687	-1.2458	-1.7687	-1.1333	-1.525	-1.85	-1	-1.6479	54.971	160.678	155.173	131.099	135.015	90.746	103.837	60.119	-59.112	-10.129	-122.620	-35.601	78.562	161.703	157.802	126.080	0.00079399	0.00033493	0.00011207	876.51	5.4914e-06	5.3115e-06	610.2	248.6	1.0089e-05	3.8973e-06	181.84	60.408	84.036	40.98	5.1349e-06	30.134	0.00019188	0.0001379	3.992e-05	817.8	1.592e-06	1.5278e-06	571.86	233.67	1.6286e-06	1.5896e-06	170.34	56.526	78.875	39.051	1.6511e-06	28.469	37.066	-98.105	-81.597	-158.099	-52.048	-54.299	-159.411	-152.574	-42.800	-14.660	-155.809	-150.940	-147.742	-143.384	-81.818	-147.770	-8191	255	
1373.693	1	1	0	0	0.16782	0.099026	0.24786	0.24139	0.23226	0.11075	0.22257	0.30362	0.24035	0.37137	0.15651	0.13374	0.13147	0.18719	0.19291	0.12622	-1.0354	-0.97292	-1.9042	-1.0896	-1.5187	-1.6604	-1.0833	-1.7375	-1.4271	-0.97917	-1.825	-1.1271	-1.2563	-1.7854	-1.0396	-1.7062	148.339	9.356	63.061	112.124	110.442	-61.821	177.003	98.101	62.646	85.888	54.219	-132.372	-87.959	-106.836	-57.850	99.398	0.00090384	0.00018413	6.1529e-05	874.11	4.2827e-06	3.518e-06	607.39	247.54	8.4943e-06	1.8282e-06	183.88	59.555	83.136	41.184	2.4265e-06	30.173	0.00019753	0.00013954	3.5608e-05	816.85	1.6413e-06	1.4464e-06	570.21	232.39	1.5397e-06	1.5466e-06	171.37	56.234	78.613	39.201	1.6396e-06	28.702	28.102	-100.715	-92.638	-158.326	-24.016	6.153	-159.503	-152.827	-39.242	42.639	-155.721	-151.067	-147.765	-143.203	-6.054	-147.564	-8191	255	
1373.814	1	1	0	0	0.082653	0.37873	0.18533	0.12395	0.1081	0.11324	0.11384	0.064508	0.13701	0.054244	0.2793	0.15331	0.11456	0.17598	0.15829	0.23294	-1.1146	-1.175	-1.6479	-1.4813	-1.2	-1.6167	-1.1479	-1.5312	-1.4229	-0.85833	-1.6792	-1.4125	-1.2667	-1.8396	-1.075	-1.5063	125.369	-7.797	-163.801	63.292	-31.750	-133.159	148.335	-155.428	134.879	130.562	3.599	74.251	-103.454	-151.193	96.753	91.249	0.00067315	0.00048955	8.604e-05	871.26	4.083e-06	3.9439e-06	613.4	249.51	8.2235e-06	1.5621e-06	183.66	61.256	85.304	41.862	3.2011e-06	30.854	0.00018465	0.00014278	3.9635e-05	816.26	1.5975e-06	1.4931e-06	572.14	233.87	1.5418e-06	1.552e-06	172.31	57.396	80.026	39.739	1.6417e-06	29.275	29.816	-96.404	-78.918	-158.390	-13.627	-71.795	-159.908	-153.379	-51.053	35.097	-155.839	-151.701	-148.012	-143.518	16.800	-148.266	-8191	255	
1373.910	1	1	0	0	0.18331	0.26786	0.30295	0.19203	0.16625	0.17836	0.31874	0.029747	0.15843	0.051913	0.15539	0.1112	0.13847	0.13895	0.10517	0.18128	-1.2021	-0.97292	-1.6146	-1.3958	-1.0917	-1.8167	-1.1354	-1.5479	-1.4208	-1.0146	-1.7729	-1.1875	-1.1417	-1.7854	-0.9875	-1.1812	91.593	-114.098	23.445	149.259	-120.206	-141.717	61.811	137.158	49.687	-22.090	-138.304	162.635	143.030	-96.378	128.670	-161.513	0.00090491	0.00043475	0.00011724	877.07	3.4649e-07	3.8195e-06	612.68	250.03	9.04e-06	1.7814e-06	185.27	62.309	85.904	42.271	2.158e-06	31.441	0.00018824	0.00014009	3.8135e-05	819.65	1.6276e-06	1.4122e-06	574.1	235.54	1.5661e-06	1.5229e-06	173.91	58.033	80.743	40.156	1.67e-06	29.763	28.274	-91.279	-88.100	-158.366	-31.308	-42.395	-160.057	-153.047	-25.882	4.588	-156.018	-151.404	-147.766	-143.485	-99.366	-148.103	-8191	255	
1374.006	1	1	0	0	0.050132	0.17619	0.17046	0.10872	0.10666	0.45206	0.22683	0.15495	0.14438	0.13829	0.089661	0.084839	0.19224	0.15226	0.063472	0.26295	-1.2188	-0.92083	-1.5917	-1.4229	-1.0792	-1.6313	-1.1562	-1.4375	-1.7979	-0.87292	-1.525	-1.4917	-1.0187	-2.0042	-1.0979	-1.1854	54.620	-76.938	6.739	109.365	14.293	-79.467	97.452	113.496	-129.262	188.715	145.769	-1.077	174.988	-141.565	50.345	98.738	0.00093532	0.00022095	0.000148	873.54	5.227e-06	5.0558e-06	620.19	251.77	1.1731e-05	2.6325e-06	184.68	61.221	85.626	42.061	3.8248e-06	31.057	0.000197	0.00014749	3.8439e-05	817.37	1.6727e-06	1.57e-06	576.29	235.68	1.5836e-06	1.5618e-06	173.9	57.655	80.349	40.034	1.6531e-06	29.318	29.175	-106.887	-68.031	-158.672	-46.325	-44.818	-160.010	-153.078	-18.933	7.019	-155.954	-150.769	-147.810	-143.246	7.675	-147.606	-8191	255	
1374.125	1	1	0	0	0.087239	0.1978	0.21638	0.17466	0.16791	0.089426	0.022621	0.1368	0.14825	0.089297	0.10189	0.10214	0.27194	0.29784	0.28372	0.078324	-1.2417	-0.86458	-1.4333	-1.6	-0.91042	-1.7854	-1.4438	-1.4083	-1.7687	-1.1125	-1.6812	-1.6646	-1.1167	-1.7563	-1.3854	-1.1187	-70.808	145.947	11.466	123.274	-46.991	-16.682	-24.901	57.638	43.731	88.731	-64.980	-35.143	-139.706	-166.614	133.266	-145.074	0.00094376	0.00018689	9.2223e-05	873.48	7.1519e-06	2.223e-06	609.95	250.84	1.0601e-05	4.2103e-06	183.66	61.081	85.549	41.388	1.9356e-06	30.917	0.00019851	0.00014636	3.9247e-05	818.71	1.7068e-06	1.429e-06	573.73	234.38	1.6782e-06	1.5963e-06	172.81	57.32	79.712	39.554	1.6563e-06	29.148	31.121	-91.443	-108.832	-158.380	-35.791	-62.850	-159.796	-152.724	-26.412	-26.808	-155.132	-151.156	-147.462	-142.787	-36.307	-147.568	-8191	255	
1374.221	1	1	0	0	0.080225	0.28967	0.080957	0.14971	0.096889	0.20118	0.14296	0.13894	0.039843	0.14839	0.34719	0.15607	0.037635	0.087002	0.12507	0.16435	-1.3979	-1.2083	-1.3708	-1.8333	-0.8625	-1.5812	-1.4042	-1.1562	-1.7896	-1.0917	-1.4167	-1.8625	-0.81875	-1.6229	-1.4792	-1.1812	142.113	-99.063	-120.518	-152.814	149.025	-11.412	156.035	44.924	-29.273	-82.818	-23.878	-153.958	138.575	-168.486	28.841	-126.243	0.00092645	0.00027197	6.0187e-05	872.8	2.5004e-06	1.1013e-06	614.81	248.22	1.0985e-05	2.4201e-06	184.07	61.243	84.945	41.568	5.1426e-06	30.953	0.00019096	0.00013934	3.9009e-05	817.81	1.7451e-06	1.5911e-06	578.15	233.87	1.6208e-06	1.5585e-06	173.2	57.345	79.702	39.53	1.6306e-06	29.221	29.707	-59.943	-66.657	-158.242	-62.881	-33.725	-159.902	-152.614	-26.790	2.040	-154.743	-151.017	-147.560	-142.871	-41.525	-147.789	-8191	255	
1374.293	1	1	0	0	0.31367	0.20447	0.17958	0.10312	0.12381	0.28628	0.028607	0.30395	0.14453	0.15491	0.072708	0.18056	0.36093	0.17269	0.12438	0.24437	-1.475	-1.0729	-1.1063	-1.8667	-1.2042	-1.5896	-1.6396	-1.3271	-1.7542	-1.2708	-1.4354	-1.7354	-1.0542	-1.5833	-1.5438	-1.0812	-156.942	-42.899	-81.703	-168.255	110.078	67.293	-62.507	74.408	-146.828	-25.274	133.426	-141.072	-164.356	-135.737	114.897	-51.415	0.00089716	0.0003671	0.00013039	874.43	6.2097e-06	3.8535e-06	617.63	248.77	6.9541e-06	3.6035e-06	187.08	61.675	84.948	41.751	5.2292e-06	31.01	0.00018488	0.00014285	3.9794e-05	818.63	1.6583e-06	1.5515e-06	579.12	234.34	1.6433e-06	1.5087e-06	174.86	57.733	79.662	39.672	1.6725e-06	29.43	29.196	-93.403	-75.692	-157.997	-33.014	-45.580	-159.596	-152.551	-42.668	3.804	-155.407	-151.267	-148.386	-143.283	-48.930	-148.210	-8191	255	
1374.413	1	1	0	0	0.068016	0.18187	0.18862	0.18565	0.074964	0.19851	0.24048	0.10185	0.39808	0.22206	0.39697	0.14823	0.032113	0.1893	0.072675	0.14714	-1.3354	-1.2188	-1.05	-1.9208	-1.1208	-1.3333	-1.6771	-0.94167	-1.8583	-1.2437	-0.87292	-1.6896	-1.1271	-1.4354	-1.6417	-0.95833	163.473	-75.539	33.567	80.007	141.088	177.633	-6.036	17.862	-47.970	-135.655	85.771	-90.783	179.841	142.315	60.938	20.156	0.00094865	0.00011139	0.00013743	878.07	4.2583e-06	4.4465e-06	616.62	248.94	9.4998e-06	4.8898e-06	183.98	60.724	84.007	41.585	4.7695e-06	30.804	0.00019195	0.00013974	4.0528e-05	821.72	1.6659e-06	1.5089e-06	578.22	234.14	1.5855e-06	1.4141e-06	172.87	57.095	79.217	39.417	1.5491e-06	29.07	31.708	-97.674	-87.180	-158.582	-66.481	-26.135	-159.578	-152.910	-26.629	-22.913	-155.632	-150.995	-147.996	-143.086	-35.864	-148.115	-8191	255	
1374.510	1	1	0	0	0.28558	0.16503	0.35616	0.14348	0.13464	0.43971	0.18495	0.11628	0.03307	0.044604	0.30667	0.17865	0.1083	0.19698	0.23713	0.23117	-1.3729	-1.4604	-0.95625	-1.8042	-1.0854	-1.2062	-1.7708	-0.7875	-1.5208	-1.4771	-1.0771	-1.5688	-1.0792	-1.1	-1.6187	-0.94583	-113.993	154.600	46.628	113.189	109.866	-168.307	46.710	98.029	78.483	-114.945	85.722	20.766	-142.043	-167.507	128.826	-68.290	0.00099224	0.00014608	4.181e-05	876.5	3.4229e-06	5.3868e-06	611.07	248.96	6.4196e-06	3.4966e-06	184.29	60.489	84.509	41.292	5.1409e-06	30.406	0.00019018	0.00013603	3.8551e-05	817.65	1.5766e-06	1.5917e-06	573.85	233.5	1.6776e-06	1.4444e-06	172.55	56.662	79.266	39.264	1.55e-06	28.849	28.956	-110.774	-67.393	-158.521	-68.447	-53.129	-159.462	-152.901	-71.128	-28.671	-155.855	-150.717	-148.178	-143.382	-66.608	-148.190	-8191	255	
1374.606	1	1	0	0	0.23859	0.26315	0.183	0.35859	0.24582	0.14428	0.15294	0.29324	0.22236	0.21405	0.11958	0.044553	0.11407	0.47331	0.13806	0.38143	-0.975	-1.5417	-0.81042	-1.75	-1.1688	-1.1271	-1.8271	-0.97083	-1.475	-1.4771	-1.0688	-1.775	-1.1604	-1.1938	-1.7521	-1.0792	75.058	81.490	168.127	116.526	35.205	184.850	37.068	144.675	126.422	-95.709	179.027	-4.583	169.881	-156.270	145.430	128.376	0.00088847	0.00032337	9.7738e-05	871.43	5.3299e-06	2.4814e-06	617.03	248.74	7.155e-06	2.7066e-06	183.37	61.068	84.66	41.452	1.7661e-06	30.808	0.00019052	0.00013621	3.8906e-05	816.39	1.6237e-06	1.5155e-06	575.45	233.79	1.5298e-06	1.4381e-06	172.58	57.089	79.343	39.47	1.6155e-06	29.09	30.182	-67.284	-60.512	-158.092	-26.182	-41.453	-159.625	-152.703	-27.909	-27.354	-155.356	-150.887	-147.930	-143.072	-10.846	-148.085	-8191	255	
1374.726	1	1	0	0	0.33234	0.16671	0.16062	0.064088	0.2608	0.14494	0.15697	0.24977	0.23993	0.080219	0.29226	0.08407	0.17904	0.048	0.16293	0.15885	-1.2125	-1.6125	-1.0396	-1.8396	-1.2458	-1.1125	-1.825	-1.0396	-1.4625	-1.9021	-0.91458	-1.7708	-1.5833	-1.1396	-1.8896	-1.1958	-71.881	14.312	1.216	133.555	-12.902	179.416	135.206	139.119	-28.423	-8.242	121.693	-98.672	155.672	42.271	14.055	143.857	0.00087938	0.000493	4.4691e-05	874.76	2.5375e-06	4.0144e-06	621.84	249.45	6.2243e-06	3.7649e-06	186.55	61.599	85.369	42.309	3.4239e-06	31.513	0.00019149	0.00013579	4.0714e-05	818.94	1.5674e-06	1.5055e-06	577.73	234.49	1.7111e-06	1.4455e-06	174.16	57.874	79.826	40.051	1.6077e-06	29.65	33.068	-48.426	-76.518	-158.217	-24.733	-54.345	-159.683	-153.058	-12.207	-27.900	-156.061	-151.027	-148.049	-143.309	-54.759	-148.131	-8191	255	
1374.822	1	1	0	0	0.21515	0.21824	0.15783	0.36533	0.22889	0.07843	0.14097	0.21986	0.22453	0.22362	0.082565	0.31107	0.23757	0.070424	0.10524	0.28443	-0.81458	-1.7521	-1.1542	-1.7167	-1.6146	-1.0562	-1.8083	-1.0208	-1.1958	-1.8146	-0.95625	-1.6063	-1.4917	-1.0958	-1.8042	-1.3	114.462	99.306	-29.441	142.397	160.264	-92.451	131.911	108.753	-51.149	134.587	150.482	-82.016	162.623	-12.322	-64.720	136.949	0.00094275	0.00020404	9.9608e-05	879.26	6.3274e-06	2.5088e-06	621.83	250.52	1.127e-05	1.698e-06	186.08	61.957	85.508	41.979	4.0587e-06	31.066	0.00019526	0.00014492	4.1607e-05	820.21	1.5658e-06	1.5834e-06	581.6	235.18	1.7433e-06	1.6087e-06	174.8	58.013	80.224	39.847	1.6299e-06	29.437	28.325	-75.251	-98.741	-158.413	-33.358	-58.201	-159.919	-152.713	-61.883	-9.044	-155.252	-150.952	-147.230	-143.261	-15.145	-148.571	-8191	255	
1374.894	1	1	0	0	0.1908	0.24126	0.1142	0.13492	0.2299	0.29139	0.21875	0.26468	0.079398	0.14454	0.11588	0.081841	0.15815	0.43677	0.086229	0.2797	-0.66042	-1.7646	-0.93125	-1.6313	-1.4521	-0.8	-1.8125	-1.4021	-1.0646	-1.7646	-1.0229	-1.3896	-1.6021	-0.875	-1.6938	-1.3937	-47.442	-71.509	-29.837	148.069	-137.770	-2.423	163.456	-157.892	5.010	73.605	153.087	67.372	-165.538	116.927	-80.907	126.631	0.00091429	0.00034875	8.3158e-05	875.37	5.6528e-06	5.372e-06	610.84	250.43	8.9784e-06	2.5771e-06	184.64	61.249	85.326	41.732	3.7879e-06	30.74	0.0001986	0.00013898	3.8584e-05	818.03	1.6052e-06	1.621e-06	574.06	234.61	1.7998e-06	1.4911e-06	173.44	57.448	80.097	39.731	1.5437e-06	29.256	27.692	-92.122	-93.461	-158.059	-84.240	0.903	-159.654	-152.992	-69.142	-0.723	-155.818	-150.721	-148.741	-143.452	-40.138	-147.977	-8191	255	
1374.990	1	1	0	0	0.25144	0.12007	0.4563	0.073017	0.22865	0.091483	0.34171	0.29472	0.12363	0.19952	0.13146	0.18143	0.20692	0.48789	0.062982	0.35878	-0.4625	-1.8667	-1.125	-1.1458	-1.5979	-0.95625	-1.7354	-1.3708	-0.99375	-1.7938	-1.0417	-1.3375	-1.7854	-1.0167	-1.5417	-1.4896	81.942	94.623	-57.720	118.633	56.690	-104.184	127.508	27.936	132.984	143.074	58.883	174.623	-12.282	131.801	-69.679	51.867	0.00090209	0.00027522	9.9679e-05	873.8	5.6867e-06	2.4033e-06	614.94	249.57	1.1836e-05	1.8753e-06	184.37	61.206	84.819	41.827	4.875e-06	30.724	0.00020547	0.00014527	4.106e-05	816.32	1.6745e-06	1.634e-06	574.89	233.99	1.7045e-06	1.4876e-06	173.12	57.345	79.601	39.62	1.7374e-06	29.213	30.479	-87.895	-81.301	-157.902	-49.274	-38.038	-159.639	-152.897	-53.022	-12.046	-155.387	-151.263	-148.034	-143.106	-40.519	-148.004	-8191	255	
1375.109	1	1	0	0	0.027438	0.27809	0.36485	0.13444	0.10911	0.1319	0.00186	0.25168	0.088008	0.071131	0.23504	0.10673	0.35552	0.19819	0.14228	0.29107	-0.74583	-1.825	-1.0667	-1.2437	-1.8542	-0.98125	-1.8854	-1.5979	-0.84375	-1.8167	-1.3	-1.1521	-1.6875	-1.1208	-1.4458	-1.5938	-166.085	24.776	31.654	-87.479	116.441	-90.457	180.000	22.311	-70.556	144.732	86.844	-144.151	-145.464	44.214	15.483	-44.058	0.0010637	0.00028085	0.00012371	874.06	3.5445e-06	2.1505e-06	616.55	249.23	6.6711e-06	3.8658e-06	185.71	61.14	84.752	41.552	3.7269e-06	30.799	0.00020271	0.00014378	3.9486e-05	816.52	1.6019e-06	1.5502e-06	577.29	234.14	1.7054e-06	1.4924e-06	173.72	57.611	79.65	39.584	1.6522e-06	29.323	32.383	-94.259	-67.187	-158.438	-26.226	-31.844	-160.223	-153.287	-56.644	16.365	-156.292	-151.078	-148.043	-143.176	-42.047	-148.365	-8191	255	
1375.205	1	1	0	0	0.045265	0.096981	0.2279	0.11391	0.17874	0.095828	0.40085	0.13392	0.037858	0.43019	0.21323	0.34493	0.067548	0.21389	0.10916	0.18409	-0.52292	-1.9229	-1.1104	-0.99375	-1.6396	-1.2875	-1.3438	-1.6938	-0.98542	-1.8396	-1.4729	-1.2313	-1.7792	-1.1938	-1.2708	-1.7042	12.991	180.747	45.876	-83.424	-14.594	-157.785	98.032	129.479	-154.194	63.119	187.609	-130.134	133.002	-96.056	185.975	-79.916	0.00082434	0.00015291	6.687e-05	871.12	4.0863e-06	2.5397e-06	619.09	248.35	4.5561e-06	4.5281e-06	184.75	61.429	84.622	41.277	3.6482e-06	30.74	0.00019622	0.00014209	3.914e-05	817.52	1.5978e-06	1.5667e-06	581.01	234.15	1.695e-06	1.4841e-06	173.29	57.48	79.493	39.323	1.6327e-06	29.089	26.221	-95.732	-82.994	-157.868	-12.899	-36.695	-159.710	-153.176	-79.108	-11.571	-155.838	-151.065	-148.082	-143.201	-56.257	-148.143	-8191	255	
1375.301	1	1	0	0	0.018785	0.13363	0.20796	0.42587	0.17238	0.038932	0.059549	0.10486	0.2586	0.11953	0.27519	0.18316	0.12954	0.23365	0.084927	0.126	-0.4125	-1.6625	-1.5104	-0.81875	-1.6688	-1.225	-1.2042	-1.7417	-0.93333	-1.7333	-1.4438	-1.0104	-1.6979	-1.3542	-1.1875	-1.7896	-152.050	-121.181	7.268	-127.752	67.489	-65.483	-121.896	143.958	92.787	18.073	-62.123	133.090	-132.783	162.891	17.742	174.347	0.00090676	0.00041167	6.8217e-05	872.34	6.0939e-06	2.4e-06	616.91	249.01	8.1803e-06	4.2278e-06	184.16	60.452	84.764	41.269	2.5946e-06	30.218	0.00020512	0.00014076	3.8425e-05	814.55	1.4966e-06	1.5991e-06	575.15	233.6	1.6688e-06	1.5676e-06	172.23	56.808	79.227	39.098	1.7249e-06	28.714	33.777	-94.896	-54.861	-158.411	-50.200	-20.616	-159.559	-152.777	-24.809	-10.735	-155.714	-150.977	-147.146	-143.197	-31.934	-147.890	-8191	255	
1375.398	1	1	0	0	0.14627	0.071468	0.11174	0.19785	0.23356	0.10248	0.16854	0.14215	0.1814	0.080966	0.27934	0.089296	0.2612	0.16623	0.26641	0.18067	-0.59375	-1.5833	-1.5271	-1.0979	-1.9896	-1.2875	-1.1146	-1.7354	-0.87708	-1.4146	-1.4833	-1.0063	-1.6812	-1.325	-1.0396	-1.7125	-92.404	-160.753	128.692	-151.305	-39.667	132.709	-166.941	149.538	64.270	164.251	-85.748	-66.054	-152.939	-144.174	-131.228	62.197	0.00085486	0.00034655	6.4364e-05	869.74	2.5262e-06	2.7533e-06	612.66	247.94	1.0934e-05	1.8496e-06	184.37	61.088	84.124	41.414	5.7349e-06	30.622	0.00019694	0.0001373	4.0313e-05	813.27	1.6089e-06	1.5432e-06	574.93	233.2	1.712e-06	1.5298e-06	172.37	57.189	79.044	39.256	1.5982e-06	29.122	32.903	-96.906	-87.032	-158.107	-40.144	-22.101	-159.339	-152.559	-43.998	-75.731	-155.659	-150.863	-147.551	-143.232	-49.198	-147.511	-8191	255	
1375.494	1	1	0	0	0.089043	0.20215	0.25589	0.36604	0.2123	0.10831	0.28486	0.16638	0.25407	0.13424	0.024502	0.066331	0.060009	0.0134	0.40423	0.11793	-0.60208	-1.4854	-1.4854	-0.98542	-1.7563	-1.3333	-1.1417	-1.9167	-1.0458	-1.3729	-1.7729	-1.025	-1.5771	-1.6042	-1.225	-1.85	170.562	40.812	-7.189	184.314	-102.176	143.338	166.904	-148.232	-156.611	137.752	152.405	66.673	-143.413	-7.884	126.418	-29.615	0.00082659	0.00023479	8.3191e-05	873	4.4179e-06	5.7117e-06	618.05	249.02	6.5477e-06	5.1571e-06	186.35	61.281	84.805	41.836	4.6074e-06	31.27	0.00019437	0.00014084	3.8612e-05	814.74	1.6895e-06	1.528e-06	576.46	234.09	1.6403e-06	1.5729e-06	174.02	57.706	80.037	39.786	1.6432e-06	29.646	33.728	-75.993	-102.427	-158.163	-18.410	-60.547	-159.436	-152.682	-22.549	-24.850	-155.170	-150.909	-147.930	-143.032	-40.140	-147.579	-8191	255	
1375.590	1	1	0	0	0.1466	0.091917	0.04504	0.44866	0.067101	0.28412	0.16527	0.33722	0.3801	0.15031	0.13164	0.19983	0.1947	0.34425	0.076615	0.10047	-0.75625	-1.3563	-1.7542	-1.1167	-1.6562	-1.4354	-1.0688	-1.8104	-1.3167	-1.3479	-1.9062	-0.94583	-1.625	-1.5375	-0.96667	-1.6688	138.961	-99.348	-56.850	-143.245	73.325	81.286	80.611	137.186	-88.892	-24.517	79.444	112.099	150.722	148.732	-51.627	82.027	0.00089482	0.00030494	0.00011919	870.4	2.9347e-06	3.1807e-06	618.36	249.48	5.9489e-06	3.7794e-06	186.09	61.393	85.668	41.973	2.2529e-06	31.063	0.00019762	0.00014099	3.8645e-05	815.24	1.6228e-06	1.5511e-06	580.8	234.91	1.7022e-06	1.6177e-06	175.21	58.137	80.235	39.893	1.6578e-06	29.641	27.072	-40.747	-66.794	-157.904	-74.059	-63.139	-160.051	-153.338	-61.286	-36.990	-155.960	-151.251	-147.982	-143.114	-63.374	-148.229	-8191	255	
#DATA ENDS
