BOXY.EXE: ISS Imagent and Oximeter Data Acquisition Program Version 0.80
Ascii Record File

#ACQ INFORMATION
2  Detector Channels 
16  External MUX Channels 
1  Auxiliary Channels 
5000  Waveform (CCF) Frequency (Hz)
1  Waveforms Skipped 
30  Waveforms Averaged 
1  Cycles Averaged 
16  Acquisitions per Waveform 
10.0806  Updata Rate (Hz) 

#FILE INFORMATION
TRUE -- External MUX Channel results are PARSED.
FALSE -- AC DC and Phase are NOT grouped.
TRUE -- Companion Program Settings File CREATED.
FALSE -- AC data not excluded
FALSE -- DC data not excluded
FALSE -- Phase data not excluded
FALSE -- Auxillary Chn. data not excluded
Tab delimiters

#CALIBRATION STATE
TRUE -- Waveform Calibration Values APPLIED.


#AUX CALIBRATION VALUES
Val Type	aux-1	

Term	1.0000e+00	
Factor	0.0000e+00	


#WF CALIBRATION VALUES
A = Detector Channel
Val Type	A-AC1	A-AC2	A-AC3	A-AC4	A-AC5	A-AC6	A-AC7	A-AC8	A-AC9	A-AC10	A-AC11	A-AC12	A-AC13	A-AC14	A-AC15	A-AC16	A-DC1	A-DC2	A-DC3	A-DC4	A-DC5	A-DC6	A-DC7	A-DC8	A-DC9	A-DC10	A-DC11	A-DC12	A-DC13	A-DC14	A-DC15	A-DC16	A-Ph1	A-Ph2	A-Ph3	A-Ph4	A-Ph5	A-Ph6	A-Ph7	A-Ph8	A-Ph9	A-Ph10	A-Ph11	A-Ph12	A-Ph13	A-Ph14	A-Ph15	A-Ph16	

Term	0.00000e+00	0.00000e+00	0.00000e+00	0.00000e+00	0.00000e+00	0.00000e+00	0.00000e+00	0.00000e+00	0.00000e+00	0.00000e+00	0.00000e+00	0.00000e+00	0.00000e+00	0.00000e+00	0.00000e+00	0.00000e+00	0.00000e+00	0.00000e+00	0.00000e+00	0.00000e+00	0.00000e+00	0.00000e+00	0.00000e+00	0.00000e+00	0.00000e+00	0.00000e+00	0.00000e+00	0.00000e+00	0.00000e+00	0.00000e+00	0.00000e+00	0.00000e+00	0.00000e+00	0.00000e+00	0.00000e+00	0.00000e+00	0.00000e+00	0.00000e+00	0.00000e+00	0.00000e+00	0.00000e+00	0.00000e+00	0.00000e+00	0.00000e+00	0.00000e+00	0.00000e+00	0.00000e+00	0.00000e+00	
Factor	1.00000e+00	1.00000e+00	1.00000e+00	1.00000e+00	1.00000e+00	1.00000e+00	1.00000e+00	1.00000e+00	1.00000e+00	1.00000e+00	1.00000e+00	1.00000e+00	1.00000e+00	1.00000e+00	1.00000e+00	1.00000e+00	1.00000e+00	1.00000e+00	1.00000e+00	1.00000e+00	1.00000e+00	1.00000e+00	1.00000e+00	1.00000e+00	1.00000e+00	1.00000e+00	1.00000e+00	1.00000e+00	1.00000e+00	1.00000e+00	1.00000e+00	1.00000e+00	X	X	X	X	X	X	X	X	X	X	X	X	X	X	X	X	

B = Detector Channel
Val Type	B-AC1	B-AC2	B-AC3	B-AC4	B-AC5	B-AC6	B-AC7	B-AC8	B-AC9	B-AC10	B-AC11	B-AC12	B-AC13	B-AC14	B-AC15	B-AC16	B-DC1	B-DC2	B-DC3	B-DC4	B-DC5	B-DC6	B-DC7	B-DC8	B-DC9	B-DC10	B-DC11	B-DC12	B-DC13	B-DC14	B-DC15	B-DC16	B-Ph1	B-Ph2	B-Ph3	B-Ph4	B-Ph5	B-Ph6	B-Ph7	B-Ph8	B-Ph9	B-Ph10	B-Ph11	B-Ph12	B-Ph13	B-Ph14	B-Ph15	B-Ph16	

Term	0.00000e+00	0.00000e+00	0.00000e+00	0.00000e+00	0.00000e+00	0.00000e+00	0.00000e+00	0.00000e+00	0.00000e+00	0.00000e+00	0.00000e+00	0.00000e+00	0.00000e+00	0.00000e+00	0.00000e+00	0.00000e+00	0.00000e+00	0.00000e+00	0.00000e+00	0.00000e+00	0.00000e+00	0.00000e+00	0.00000e+00	0.00000e+00	0.00000e+00	0.00000e+00	0.00000e+00	0.00000e+00	0.00000e+00	0.00000e+00	0.00000e+00	0.00000e+00	5.94720e+01	-1.33281e+02	-1.24008e+02	-1.83669e+02	-7.49398e+01	-7.46865e+01	-1.55903e+02	-1.62015e+02	-6.56920e+01	-5.76036e+01	-1.71186e+02	-1.71014e+02	-1.82886e+02	-1.77178e+02	-6.18822e+01	-1.49311e+02	
Factor	6.16829e-05	1.64324e-04	4.66421e-05	1.74362e-01	2.06590e-06	1.82496e-06	1.63678e-01	5.30398e-02	3.37277e-06	1.77242e-06	9.18026e-02	2.93873e-02	3.59135e-02	9.27610e-03	2.08424e-06	1.33759e-02	6.85272e-06	8.02413e-06	2.24270e-06	9.05141e-02	8.55606e-08	8.89427e-08	7.96729e-02	2.75538e-02	8.49966e-08	8.88765e-08	4.61873e-02	1.47366e-02	1.84319e-02	4.86892e-03	8.63507e-08	6.78635e-03	X	X	X	X	X	X	X	X	X	X	X	X	X	X	X	X	



#DISTANCE SETTINGS
A = Detector Channel
A-1	A-2	A-3	A-4	A-5	A-6	A-7	A-8	A-9	A-10	A-11	A-12	A-13	A-14	A-15	A-16	

2.5000e+00	3.0000e+00	2.5000e+00	3.0000e+00	2.0000e+00	3.0000e+00	1.5000e+00	3.0000e+00	3.0000e+00	3.0000e+00	3.0000e+00	3.0000e+00	3.0000e+00	3.0000e+00	1.5000e+00	3.0000e+00	

B = Detector Channel
B-1	B-2	B-3	B-4	B-5	B-6	B-7	B-8	B-9	B-10	B-11	B-12	B-13	B-14	B-15	B-16	

1.0000e+01	1.0000e+01	1.0000e+01	1.4400e+00	1.0000e+01	1.0000e+01	1.5100e+00	1.9400e+00	1.0000e+01	1.0000e+01	1.9900e+00	2.4900e+00	2.4100e+00	2.9000e+00	1.0000e+01	2.9800e+00	




#DATA BEGINS
time	group	step	mark	flag	A-AC1	A-AC2	A-AC3	A-AC4	A-AC5	A-AC6	A-AC7	A-AC8	A-AC9	A-AC10	A-AC11	A-AC12	A-AC13	A-AC14	A-AC15	A-AC16	A-DC1	A-DC2	A-DC3	A-DC4	A-DC5	A-DC6	A-DC7	A-DC8	A-DC9	A-DC10	A-DC11	A-DC12	A-DC13	A-DC14	A-DC15	A-DC16	A-Ph1	A-Ph2	A-Ph3	A-Ph4	A-Ph5	A-Ph6	A-Ph7	A-Ph8	A-Ph9	A-Ph10	A-Ph11	A-Ph12	A-Ph13	A-Ph14	A-Ph15	A-Ph16	B-AC1	B-AC2	B-AC3	B-AC4	B-AC5	B-AC6	B-AC7	B-AC8	B-AC9	B-AC10	B-AC11	B-AC12	B-AC13	B-AC14	B-AC15	B-AC16	B-DC1	B-DC2	B-DC3	B-DC4	B-DC5	B-DC6	B-DC7	B-DC8	B-DC9	B-DC10	B-DC11	B-DC12	B-DC13	B-DC14	B-DC15	B-DC16	B-Ph1	B-Ph2	B-Ph3	B-Ph4	B-Ph5	B-Ph6	B-Ph7	B-Ph8	B-Ph9	B-Ph10	B-Ph11	B-Ph12	B-Ph13	B-Ph14	B-Ph15	B-Ph16	aux-1	digaux	

1327.885	1	1	0	256	0.19849	0.18279	0.23157	0.084347	0.10747	0.17286	0.06177	0.1048	0.16655	0.092806	0.25938	0.44811	0.21997	0.26408	0.19811	0.2771	-0.73333	-1.5938	-0.91875	-1.7396	-1.4917	-1.075	-1.9062	-1.3979	-1.175	-1.9958	-1.3438	-1.4458	-1.4479	-1.125	-1.6729	-1.1854	5.590	84.669	51.311	178.902	115.558	23.028	93.770	66.010	-132.064	48.712	-168.808	149.788	167.503	96.542	-21.844	122.008	0.0014401	0.00023268	0.00012161	1042.3	1.1282e-05	2.1978e-06	812.78	331.54	5.1735e-06	7.0208e-06	264.53	87.644	111.42	52.635	1.5326e-05	43.255	0.0022126	0.0025075	0.00070546	1002	2.688e-05	2.7758e-05	783.47	318.13	2.6839e-05	2.7651e-05	262.2	86.386	109.65	51.564	2.6849e-05	42.852	31.875	-168.150	136.956	-159.184	-73.782	-19.569	-160.527	-154.273	-111.718	-118.200	-157.138	-153.212	-150.217	-145.256	-16.398	-149.953	-8191	255	
1327.957	1	1	0	0	0.13897	0.24285	0.10985	0.24512	0.053318	0.14586	0.063568	0.17911	0.049532	0.10152	0.19803	0.18577	0.10641	0.10449	0.094356	0.10512	-0.87708	-1.6521	-1.1	-1.5875	-1.7646	-0.93125	-1.9542	-1.4854	-1.0562	-1.8	-1.4125	-1.3563	-1.7979	-1.1146	-1.6375	-1.4479	24.573	-114.275	80.265	-156.698	4.300	7.742	-60.124	109.637	8.694	89.231	-95.784	-166.319	-78.980	179.617	-64.374	47.576	0.0012947	0.00060632	0.00025306	1048.4	6.7735e-06	9.5227e-06	807.72	330.39	1.7295e-05	7.4995e-06	261.23	85.493	110.85	52.095	1.1063e-05	42.62	0.0022273	0.0024903	0.0006814	1008.6	2.6354e-05	2.6773e-05	778.29	318.32	2.599e-05	2.6424e-05	257.82	84.551	108.78	50.889	2.5495e-05	42.016	38.371	-52.760	-108.965	-158.793	-3.682	-108.439	-160.507	-154.172	-101.271	-11.611	-157.300	-153.097	-150.159	-145.248	-39.980	-149.809	-8191	255	
1328.053	1	1	0	0	0.062858	0.20575	0.052401	0.10379	0.1397	0.30826	0.018973	0.4183	0.19018	0.3008	0.23926	0.22482	0.020601	0.17081	0.070532	0.2466	-0.63333	-1.8208	-1.1875	-1.5292	-1.5958	-1.0146	-1.9208	-1.6354	-0.94375	-1.7604	-1.3458	-1.1958	-1.7479	-0.95625	-1.5875	-1.7146	31.498	-155.386	58.906	-141.822	147.600	-145.074	36.774	143.420	16.026	19.097	167.816	149.526	44.557	99.438	-84.531	-168.696	0.001075	0.00058266	0.00040892	1046.5	1.3581e-05	1.205e-05	806.55	331.01	7.4381e-06	1.0212e-05	260.94	86.483	111.14	52.796	1.0495e-05	42.993	0.0021753	0.0024082	0.00067062	1004.7	2.5296e-05	2.6376e-05	777.67	317.58	2.5043e-05	2.606e-05	256.49	84.873	108.64	51.379	2.5923e-05	42.57	26.537	-137.176	-51.899	-159.062	-104.830	-103.665	-160.507	-154.410	-21.249	-15.314	-157.370	-152.981	-150.160	-145.012	-58.971	-149.753	-8191	255	
1328.174	1	1	0	0	0.2757	0.11598	0.18998	0.20964	0.10174	0.14036	0.39867	0.2831	0.12405	0.020887	0.36509	0.13669	0.01768	0.090493	0.19035	0.19552	-0.69167	-1.6208	-1.1958	-1.2563	-1.7958	-1.2542	-1.6021	-1.65	-0.85	-1.7125	-1.5562	-1.1083	-1.8229	-1.3292	-1.2062	-1.7062	-104.506	-109.189	-88.079	181.418	152.632	-113.619	97.461	88.220	-2.831	30.746	85.927	64.977	-14.297	-9.406	-72.869	91.430	0.0016553	0.00020646	9.9451e-05	1046.2	1.2534e-05	9.6928e-06	812.34	331.73	1.2479e-05	1.1098e-06	263.78	87.552	111.68	53.227	5.8392e-06	43.791	0.0021644	0.0023938	0.00067236	1005.4	2.6149e-05	2.6774e-05	782.81	318.86	2.5727e-05	2.6465e-05	259.72	85.683	109.61	51.908	2.6487e-05	43.322	24.366	56.334	174.426	-158.901	-105.707	-35.123	-160.534	-154.306	-7.402	-25.034	-157.537	-152.898	-150.254	-144.943	-3.214	-149.881	-8191	255	
1328.270	1	1	0	0	0.025381	0.2241	0.096895	0.39529	0.10291	0.053204	0.17869	0.11807	0.099207	0.23773	0.23097	0.25188	0.1468	0.16225	0.036028	0.34382	-0.65	-1.6625	-1.4542	-1.2854	-1.7812	-1.1063	-1.475	-1.8604	-1.0688	-1.5854	-1.5958	-1.1896	-2.0375	-1.0417	-1.1979	-1.8729	-131.631	-92.200	100.872	-137.630	-6.214	-74.046	-118.263	-112.391	140.929	-140.415	38.938	-161.303	-165.295	138.492	-11.839	-121.324	0.0013999	0.00096804	0.00019672	1051	7.3354e-06	9.0824e-06	817.61	330.93	2.6342e-05	5.5963e-06	266.92	87.887	112.97	53.473	4.1965e-06	44.104	0.0021729	0.0024639	0.00067831	1007.7	2.6426e-05	2.7503e-05	787.63	319.53	2.6481e-05	2.7235e-05	263.39	87.035	110.77	52.331	2.6954e-05	43.695	38.329	-103.089	-75.561	-158.982	-57.914	-35.926	-160.585	-154.563	15.653	105.405	-156.837	-153.143	-149.997	-145.227	-62.245	-149.604	-8191	255	
1328.366	1	1	0	0	0.0651	0.19215	0.25648	0.064943	0.12034	0.1679	0.18819	0.034012	0.037891	0.16559	0.07212	0.12905	0.091853	0.20804	0.058911	0.18381	-0.70417	-1.4958	-1.5771	-1.0146	-1.7854	-1.2917	-1.4208	-2.0062	-1.0646	-1.5688	-1.7437	-1.0479	-2.0417	-1.4479	-1.2958	-1.7542	174.834	-17.014	-64.013	132.850	98.519	-110.817	38.921	45.994	-25.856	102.120	119.232	179.966	-16.562	-124.705	-93.049	186.790	0.0013374	0.00053075	0.00027032	1048.5	5.0228e-06	1.2886e-05	815	334.86	1.7198e-05	1.3386e-05	267.7	88.566	113.42	53.638	7.7879e-06	43.609	0.0022526	0.0024994	0.00069068	1008.2	2.6561e-05	2.7762e-05	786.18	321.24	2.7142e-05	2.7686e-05	263.67	87.192	111.48	52.35	2.7254e-05	43.379	31.327	-155.694	-60.005	-158.697	20.318	-38.475	-160.441	-154.093	-43.278	14.965	-157.015	-153.198	-149.850	-145.202	-47.335	-149.833	-8191	255	
1328.462	1	1	0	0	0.1435	0.10021	0.076075	0.098733	0.323	0.16902	0.049756	0.25421	0.12785	0.13406	0.29181	0.37173	0.22145	0.10165	0.14821	0.051157	-0.71458	-1.4208	-1.5667	-1.1396	-1.6562	-1.3583	-1.3729	-1.8167	-1.0979	-1.325	-1.6417	-0.96458	-1.5625	-1.5729	-1.0875	-2	-46.074	104.715	44.753	42.364	-165.717	75.213	-107.901	113.271	-3.445	148.944	129.313	135.138	80.541	75.542	12.314	95.233	0.0014578	0.00068642	0.00010028	1047.8	1.5744e-05	1.0568e-05	813.46	332.5	1.6429e-05	5.6272e-06	265.2	88.639	113.77	53.282	1.0891e-05	43.671	0.0022698	0.0025361	0.00070509	1007.5	2.7316e-05	2.8274e-05	784.24	320.91	2.7289e-05	2.8323e-05	263.07	87.288	111.82	51.992	2.7096e-05	43.249	27.756	17.037	-64.395	-158.697	-108.854	-49.041	-160.676	-154.017	-63.727	-152.116	-157.012	-153.420	-150.129	-145.376	-53.862	-149.832	-8191	255	
1328.558	1	1	0	0	0.10924	0.2291	0.3554	0.16645	0.17902	0.3602	0.19485	0.1061	0.13305	0.36684	0.17658	0.18208	0.30025	0.15288	0.089883	0.020098	-0.76042	-1.5521	-1.6896	-1.1875	-1.6375	-1.3979	-1.1521	-1.6646	-1.2687	-1.2521	-1.6896	-1.3062	-1.6063	-1.5417	-1.1354	-1.8396	-37.388	-82.754	131.301	-129.194	131.223	28.721	176.301	-106.168	133.770	-75.632	64.404	119.607	-95.149	167.853	-76.350	-104.891	0.0016519	5.3762e-05	7.7255e-05	1051.1	4.1107e-06	7.5909e-06	815.62	333.45	1.8298e-05	1.938e-05	266.11	89.383	113.82	53.617	3.3266e-06	43.87	0.0022791	0.0025613	0.00070947	1006.1	2.7187e-05	2.819e-05	784.9	320.64	2.7113e-05	2.8165e-05	262.65	87.83	112.11	52.304	2.7352e-05	43.624	25.773	-121.219	-58.885	-158.682	-2.985	-13.474	-160.759	-153.924	-24.030	-0.374	-157.078	-152.878	-150.066	-145.424	-151.081	-149.924	-8191	255	
1328.653	1	1	0	0	0.24699	0.10955	0.089224	0.26976	0.16239	0.30909	0.36453	0.077835	0.12221	0.16899	0.1016	0.19631	0.14687	0.17595	0.13042	0.039556	-0.8375	-1.1542	-1.8354	-1.0125	-1.5583	-1.85	-1.0521	-1.8542	-1.1604	-1.2208	-1.9021	-0.90625	-1.5333	-1.6333	-1.1479	-1.8729	-116.788	-65.054	-120.419	83.417	90.553	-138.365	89.325	105.433	-6.448	138.454	-150.794	41.450	-170.957	160.484	-131.404	185.645	0.0014545	0.00066426	8.6602e-05	1044.3	7.751e-06	8.8869e-06	813.85	333.43	2.5534e-05	6.6304e-06	266.63	89.859	114.79	53.947	3.7648e-06	44.428	0.0022573	0.0025287	0.0006965	1004.2	2.7097e-05	2.7937e-05	783.56	321.44	2.683e-05	2.8147e-05	263.62	88.48	112.52	52.691	2.7011e-05	44.088	23.170	-109.956	-114.023	-159.068	-4.404	21.858	-160.464	-154.280	-67.798	-23.410	-157.468	-153.178	-149.852	-145.273	89.161	-149.507	-8191	255	
1328.749	1	1	0	0	0.15173	0.14358	0.20825	0.090589	0.14613	0.28294	0.21525	0.10493	0.0674	0.12066	0.23484	0.3313	0.20296	0.13149	0.10403	0.1932	-0.9375	-1.0792	-1.6979	-1.2771	-1.4417	-1.4521	-1.1187	-1.8104	-1.425	-1.1292	-2	-1.2229	-1.3229	-1.7604	-1.0312	-1.6833	-64.939	-38.488	-58.307	21.427	-75.208	141.470	-134.497	112.903	-91.628	81.573	55.800	43.617	19.318	170.929	-11.754	-168.848	0.0012876	0.00085399	0.00033158	1042.7	8.1202e-06	6.2325e-06	811.65	333.18	2.9821e-05	8.8388e-06	265.99	89.269	114.45	53.671	9.2853e-06	44.433	0.0022387	0.0024784	0.00070145	1003.2	2.6644e-05	2.7182e-05	783.65	320.41	2.6435e-05	2.7236e-05	263.27	88.169	112.48	52.528	2.6887e-05	43.92	19.346	-62.200	-101.143	-158.887	-92.845	11.463	-160.681	-154.074	-32.808	46.402	-157.064	-153.504	-149.929	-144.854	55.118	-149.566	-8191	255	
1328.847	1	1	0	0	0.16981	0.21056	0.072806	0.15326	0.29524	0.10742	0.2411	0.24881	0.19748	0.19909	0.087984	0.12872	0.19225	0.087166	0.039477	0.26593	-0.97708	-0.95625	-1.875	-1.4229	-1.2062	-1.8771	-1.1646	-1.7563	-1.7146	-1	-1.8354	-1.1646	-1.3708	-1.6104	-0.8625	-1.6063	-18.453	-34.318	-115.910	169.447	-37.908	-28.398	56.946	-115.562	132.126	73.074	-124.877	54.232	109.237	-77.145	111.767	107.338	0.0010678	0.0010479	0.00031879	1040.4	8.9959e-06	1.1726e-05	809.4	335.23	1.4917e-05	9.9238e-06	268.01	90.653	114.98	54.562	1.2377e-05	44.738	0.0022147	0.002474	0.00069656	1002.3	2.6957e-05	2.7395e-05	781.71	322	2.6666e-05	2.7878e-05	265.87	89.1	113.26	53.123	2.7165e-05	44.345	33.794	-152.726	-67.951	-158.996	46.291	-41.458	-160.435	-154.001	-69.656	-3.833	-156.989	-153.246	-150.253	-145.305	-56.699	-149.790	-8191	255	
1328.966	1	1	0	0	0.15037	0.12683	0.045729	0.23554	0.12508	0.10385	0.04084	0.2951	0.013774	0.086061	0.28467	0.13102	0.077966	0.18349	0.13122	0.1727	-1.1	-0.94792	-1.6958	-1.3	-1.1042	-1.85	-1.1625	-1.7146	-1.6938	-0.8	-1.95	-1.3167	-1.3167	-1.8854	-1.1542	-1.6063	47.454	-17.599	168.515	-129.582	171.761	113.973	24.132	-166.004	-18.073	-118.923	111.662	53.115	175.370	-143.394	67.769	176.423	0.0012867	0.00083904	0.00011796	1045.3	1.1771e-05	5.1288e-06	816.7	334.85	3.2725e-06	5.8801e-06	271.08	92.018	115.27	54.823	1.2394e-05	45.457	0.0022764	0.0026134	0.00073238	1006.1	2.8545e-05	2.9372e-05	786.38	323.11	2.8553e-05	3.0472e-05	267.74	90.399	114.12	53.523	3.0472e-05	45.221	23.246	-116.637	-101.854	-159.035	-125.648	170.207	-160.465	-154.217	-12.161	-63.192	-156.990	-153.310	-150.090	-145.299	-9.684	-149.665	-8191	255	
1329.062	1	1	0	0	0.11977	0.16037	0.35439	0.11734	0.073129	0.084274	0.29041	0.074488	0.15728	0.13523	0.149	0.21309	0.23263	0.17446	0.20575	0.20558	-1.3062	-1.0938	-1.55	-1.6396	-1.1042	-1.8396	-1.2062	-1.45	-1.7667	-0.96875	-1.9083	-1.5896	-1.2854	-1.9188	-1.3083	-1.2625	-74.201	-141.199	81.985	65.543	129.622	-48.673	91.445	0.013	-23.851	111.835	39.587	137.889	5.055	168.403	-33.553	145.207	0.0014698	0.00034795	6.8278e-05	1042.6	6.5629e-06	6.8644e-06	815.11	337.56	1.5619e-06	9.7497e-07	274.2	93.47	117.97	55.432	6.0817e-06	45.349	0.0024929	0.0028289	0.00078533	1004.4	3.0022e-05	3.1035e-05	790.39	325.05	2.8624e-05	3.0445e-05	271.51	91.874	115.74	53.913	2.8854e-05	45.212	25.189	-81.601	104.303	-158.999	27.639	-55.060	-160.465	-153.676	-49.310	119.237	-156.933	-152.935	-150.166	-145.024	-79.857	-149.631	-8191	255	
1329.134	1	1	0	0	0.084724	0.11936	0.13095	0.27928	0.28814	0.2234	0.12497	0.26365	0.24695	0.09015	0.1657	0.18362	0.14683	0.33549	0.35012	0.17628	-1.475	-1.1208	-1.5812	-1.8646	-1.2792	-1.9146	-1.3354	-1.375	-1.7938	-0.87292	-1.5771	-1.7271	-1.0792	-1.7896	-1.4042	-1.3792	0.235	-170.660	-83.969	152.933	-33.544	45.181	11.905	153.080	128.364	-1.524	182.993	67.695	33.650	162.091	-112.443	44.541	0.0013151	0.00032974	0.00043503	1044.3	5.3065e-06	2.9129e-06	813.8	337.15	8.4566e-06	9.2345e-06	275.13	94.009	117.82	55.523	1.153e-05	45.918	0.002377	0.0027124	0.00075596	1005.9	2.8977e-05	2.9848e-05	789.14	325.37	2.8537e-05	3.0083e-05	272.96	92.582	116.63	54.282	2.9087e-05	45.544	25.587	-49.956	-43.994	-159.040	27.911	-107.749	-160.630	-154.082	-72.427	24.924	-157.147	-153.705	-150.147	-144.830	162.244	-149.830	-8191	255	
1329.254	1	1	0	0	0.23474	0.2602	0.067035	0.17704	0.3094	0.29208	0.15306	0.13539	0.15871	0.080614	0.14354	0.18887	0.18437	0.28451	0.31588	0.10701	-1.3771	-1.0333	-1.5104	-1.7646	-0.92083	-1.8729	-1.525	-1.2167	-1.7604	-1.2542	-1.3104	-1.8292	-1.1833	-1.9396	-1.4958	-1.2563	12.246	174.686	105.202	160.515	71.076	80.969	145.270	149.940	120.404	-35.495	-132.734	-162.116	160.252	114.433	103.616	-130.325	0.0013485	0.00072946	0.00017711	1043.3	1.6011e-05	6.0938e-06	815.27	337.15	9.5377e-06	2.482e-06	276.18	94.133	119.16	55.601	5.8611e-06	46.016	0.0024372	0.0026901	0.00075976	1005.4	2.9483e-05	3.0289e-05	788.68	325.92	2.9636e-05	3.0412e-05	273.54	92.978	116.97	54.419	2.9276e-05	45.726	29.508	-68.507	-19.909	-158.821	46.696	-79.070	-160.695	-153.855	-69.191	70.280	-156.986	-153.461	-150.217	-145.089	69.097	-149.819	-8191	255	
1329.350	1	1	0	0	0.12589	0.14188	0.24692	0.10872	0.1368	0.10458	0.14273	0.43037	0.25149	0.099904	0.21838	0.091933	0.2108	0.15024	0.14972	0.22117	-1.4208	-1.075	-1.3188	-1.8271	-1.0271	-1.4	-1.5896	-1.0396	-1.7792	-1.1271	-1.3021	-1.8625	-1.0208	-1.4604	-1.5708	-1.0708	156.249	36.967	72.234	-86.727	42.674	56.474	-146.493	147.325	48.436	-50.023	-152.898	-58.622	161.314	-97.496	-78.563	170.294	0.00119	0.0011471	0.00029099	1044.9	6.1238e-06	7.8058e-06	813.25	338.19	9.1964e-06	1.1339e-06	278.37	94.323	118.6	55.552	5.2525e-06	45.976	0.0024185	0.0027337	0.00075051	1007.3	2.8979e-05	3.0028e-05	790.09	325.9	2.884e-05	3.0213e-05	274.39	93.034	116.81	54.269	2.9341e-05	45.836	44.011	-38.745	-137.529	-159.074	34.292	-3.064	-160.974	-154.127	-101.536	-15.727	-157.140	-153.478	-150.445	-145.138	-86.532	-149.597	-8191	255	
1329.447	1	1	0	0	0.12714	0.17351	0.16462	0.24562	0.19113	0.067676	0.08141	0.3074	0.11954	0.096738	0.45432	0.037084	0.25449	0.21609	0.27925	0.11304	-1.1208	-1.2146	-1.2417	-1.6688	-1.0688	-1.3604	-1.5521	-0.83542	-1.8667	-1.6437	-1.1812	-1.9396	-1.0854	-1.5521	-1.675	-0.99583	-157.968	54.940	-3.287	-129.691	32.276	61.281	130.478	139.938	26.688	52.320	81.500	-164.036	-140.917	114.665	-153.369	36.789	0.001365	0.00075405	0.00023544	1044.5	1.4962e-05	7.0336e-06	819.98	337.92	6.0288e-06	8.5728e-06	278.12	95.354	118.26	55.467	1.2133e-05	46.124	0.0024202	0.0027308	0.00075864	1009.2	2.9606e-05	3.0189e-05	793.74	325.61	2.8798e-05	3.0154e-05	274.67	93.644	116.79	54.299	2.9774e-05	45.905	15.428	107.278	-57.832	-159.121	-62.379	-83.021	-160.816	-154.162	-129.078	-73.528	-156.913	-153.274	-150.171	-145.046	-62.921	-149.294	-8191	255	
1329.567	1	1	0	0	0.16546	0.25433	0.22988	0.41557	0.06081	0.15012	0.081459	0.31925	0.18215	0.35695	0.02439	0.17015	0.14467	0.12368	0.20351	0.18049	-1.025	-1.3188	-0.99375	-1.8104	-1.0812	-1.4917	-1.8854	-1.1417	-1.7771	-1.3708	-1.1	-1.7563	-1.175	-1.4312	-1.8125	-1.0896	73.755	116.904	101.635	108.116	31.468	-69.662	55.613	110.610	-160.567	33.128	161.627	137.848	-112.843	-150.603	178.407	61.157	0.001244	0.00070734	0.00035283	1035.9	8.617e-06	8.1071e-06	817.04	336.92	2.8779e-05	1.274e-05	274.8	93.339	118.34	55.08	1.2845e-05	45.024	0.0024597	0.0027388	0.00076277	1004.7	2.9125e-05	3.0458e-05	789	324.74	2.9192e-05	2.9725e-05	271.87	91.941	115.9	53.769	2.9241e-05	45.01	26.109	-113.877	-82.054	-158.723	-53.997	-102.600	-160.872	-154.052	-40.635	-8.848	-157.028	-153.253	-149.843	-145.326	101.845	-149.619	-8191	255	
1329.662	1	1	0	0	0.23216	0.19249	0.10908	0.25225	0.091087	0.12657	0.25884	0.087157	0.33235	0.15759	0.16749	0.25312	0.2332	0.016022	0.16028	0.38762	-1.1771	-1.3125	-1.0812	-2.0146	-1.1667	-1.2313	-1.9813	-1.0042	-1.5187	-1.4458	-1.2521	-1.7333	-1.3146	-1.3375	-1.8583	-1.1979	-47.642	33.995	86.296	146.028	128.156	-120.211	141.899	38.291	-144.331	-91.270	182.887	23.433	174.397	56.897	-78.160	50.220	0.0014244	0.0007109	0.00013358	1039.7	1.412e-05	6.2259e-06	812.89	336.36	1.2129e-05	1.1223e-05	270.8	92.141	115.68	54.674	9.8768e-06	45.046	0.002438	0.0026878	0.00076352	1002.6	2.8545e-05	2.9622e-05	782.53	323.94	2.8731e-05	2.9553e-05	268.63	91.19	114.6	53.471	2.9238e-05	44.912	24.610	-95.621	-126.199	-158.622	28.657	6.968	-160.331	-153.966	-33.145	-103.746	-156.887	-153.470	-150.305	-145.238	-39.656	-149.795	-8191	255	
1329.758	1	1	0	0	0.148	0.046009	0.22653	0.21363	0.12534	0.14124	0.13373	0.39519	0.41519	0.043318	0.24348	0.067251	0.052775	0.2848	0.10506	0.26413	-1.0292	-1.6271	-1.1354	-1.8188	-1.2604	-1.3188	-1.8792	-1.1917	-1.4479	-1.6938	-1.1437	-1.5562	-1.5375	-1.0521	-1.9188	-0.97083	90.394	30.889	43.445	-64.035	-113.312	138.492	-143.454	176.554	-68.094	-92.457	143.698	119.093	-77.119	184.847	92.808	136.001	0.0012042	0.00028805	0.00023464	1047.2	1.0062e-05	5.9442e-06	811.81	333.65	1.5632e-05	5.7964e-06	271.2	92.307	115.75	54.681	1.3399e-05	45.588	0.0023854	0.0026739	0.00075528	1005.1	2.8631e-05	2.9681e-05	782.62	322.34	2.8496e-05	2.9732e-05	268.32	90.841	114.39	53.42	2.9063e-05	45.171	24.103	-72.810	-60.477	-158.895	-67.481	-122.287	-160.595	-153.911	9.683	-76.709	-157.165	-153.008	-150.625	-145.074	-96.422	-149.639	-8191	255	
1329.854	1	1	0	0	0.2497	0.23288	0.17952	0.33231	0.16829	0.19088	0.16476	0.35407	0.2822	0.21277	0.070494	0.073218	0.20837	0.032812	0.077854	0.15141	-0.9	-1.5688	-0.95	-1.75	-1.4396	-0.93958	-1.8521	-1.1979	-1.4604	-1.7146	-0.9625	-1.6562	-1.5292	-1.1938	-1.5708	-1.1917	-40.526	11.998	101.029	120.487	-132.471	45.435	85.331	165.037	-171.201	78.701	76.443	-8.816	168.205	11.343	-105.494	134.741	0.00097385	0.00051917	0.00015448	1041.2	1.2997e-05	4.408e-06	807.06	333.7	6.5793e-06	9.0901e-06	270.86	91.071	115.4	54.486	1.0803e-05	45.042	0.0024374	0.0027005	0.00075003	1002.9	2.8874e-05	2.9978e-05	783.76	322.05	2.8793e-05	3.0227e-05	267.7	90.315	113.5	53.249	2.9228e-05	44.796	20.111	113.964	-98.942	-158.916	-73.968	-115.565	-160.618	-154.359	-69.341	-114.652	-157.244	-153.282	-150.145	-145.357	-15.450	-149.707	-8191	255	
1329.950	1	1	0	0	0.10507	0.1365	0.36881	0.22391	0.15743	0.21718	0.14917	0.50698	0.0591	0.22512	0.31092	0.12805	0.15295	0.28539	0.20346	0.13478	-0.71458	-1.7167	-1.0708	-1.4271	-1.6208	-1.025	-1.8604	-1.3917	-1.3271	-1.7125	-1.225	-1.3833	-1.6125	-0.92708	-1.7771	-1.4417	-20.410	10.175	97.632	98.891	48.001	9.054	33.056	185.615	17.833	-30.909	134.117	-58.261	149.738	100.239	135.853	59.457	0.0014907	0.00060449	0.00020078	1041.8	3.1129e-06	1.0279e-05	807.95	332.01	6.4074e-06	2.2982e-06	266.79	89.611	115.1	54.207	8.453e-06	44.695	0.0023804	0.0026607	0.00075476	1002.8	2.8686e-05	2.9415e-05	780.61	320.44	2.8239e-05	2.9547e-05	263.88	88.953	112.66	53.056	2.8762e-05	44.432	32.409	-68.099	-20.771	-158.737	-110.609	-76.007	-160.351	-153.915	36.882	90.255	-157.283	-152.859	-149.953	-145.150	-19.018	-150.063	-8191	255	
1330.046	1	1	0	0	0.036099	0.13015	0.38376	0.15385	0.24729	0.31606	0.20224	0.12608	0.11096	0.15662	0.18422	0.15656	0.33236	0.14905	0.12003	0.2599	-0.58125	-1.7417	-1.2104	-1.5063	-1.5792	-1.0438	-1.6583	-1.5375	-0.96667	-1.6437	-1.0958	-1.1479	-1.6021	-1.0896	-1.6417	-1.2625	170.734	170.172	49.344	185.994	-63.636	145.336	94.286	72.116	24.071	69.198	-54.377	117.978	163.659	49.458	78.736	136.281	0.0013235	0.00072184	0.00019772	1037	1.4549e-05	6.9785e-06	799.94	329.64	2.3509e-05	1.2168e-05	263.75	89.88	114.09	54.379	7.8418e-06	44.925	0.0023772	0.0026608	0.00076104	998.87	2.8747e-05	2.9894e-05	774.22	319.26	2.8337e-05	2.9481e-05	262.66	88.707	112.34	53.062	2.8638e-05	44.537	22.900	-80.455	-79.664	-158.830	-53.178	0.540	-160.350	-154.051	-78.592	-5.206	-156.883	-153.303	-149.859	-145.310	-151.564	-150.027	-8191	255	
1330.142	1	1	0	0	0.35536	0.25788	0.22797	0.18148	0.43738	0.14517	0.096545	0.041054	0.054638	0.10727	0.2003	0.22979	0.10689	0.24271	0.091026	0.18401	-0.60833	-1.6833	-1.1187	-1.3771	-1.7563	-1.1208	-1.6271	-1.6271	-0.95625	-1.8229	-1.5146	-1.5104	-1.9312	-1.1542	-1.3333	-1.5667	98.256	182.524	31.728	-57.297	64.207	133.002	81.335	32.776	112.451	-170.450	163.147	40.684	-25.235	181.705	186.420	75.730	0.0013839	0.00023888	0.00040811	1033.1	1.3321e-05	4.7169e-06	805.2	331.6	2.0581e-05	1.209e-05	265.8	90.076	114.75	54.315	6.6374e-06	45.44	0.0023793	0.0026566	0.00074247	997.37	2.8648e-05	2.9619e-05	778.79	319.39	2.8402e-05	2.9847e-05	263.57	89.122	112.99	53.223	2.8807e-05	45.074	29.560	-84.541	-56.650	-158.875	-118.673	15.215	-160.209	-154.392	16.033	46.462	-157.485	-153.552	-150.205	-145.126	-28.773	-149.826	-8191	255	
1330.263	1	1	0	0	0.18357	0.13389	0.11677	0.139	0.1809	0.23495	0.13661	0.17732	0.096584	0.10361	0.25606	0.056218	0.081228	0.11823	0.25419	0.17266	-0.65208	-1.6854	-1.3563	-1.2167	-2.0375	-1.1	-1.6271	-1.75	-0.91875	-1.8479	-1.4125	-1.1458	-2.025	-1.4312	-1.4688	-1.7917	127.037	86.298	-71.296	126.168	-15.647	-167.004	161.114	-123.276	185.921	-30.926	153.631	74.437	164.447	121.809	103.511	56.813	0.0014552	0.00089356	0.00028735	1040.5	6.1269e-06	3.4411e-06	811.1	332.65	6.7938e-06	1.388e-05	268	91.45	115.17	54.758	1.2221e-05	45.837	0.0024248	0.0026818	0.00074495	998.52	2.8665e-05	2.994e-05	784.48	321.28	2.8332e-05	2.9899e-05	266.51	90.179	113.48	53.593	2.9184e-05	45.421	18.578	-97.492	-93.870	-158.790	-18.725	42.265	-160.654	-154.441	-157.115	19.759	-157.278	-152.896	-150.127	-145.283	-99.746	-149.877	-8191	255	
1330.359	1	1	0	0	0.12043	0.088984	0.16881	0.042318	0.042907	0.1455	0.15239	0.20808	0.02907	0.30729	0.29914	0.2626	0.19482	0.25685	0.13321	0.071305	-0.70833	-1.6208	-1.4396	-0.97292	-1.9229	-1.2167	-1.4062	-1.6604	-1.0521	-1.5354	-1.7083	-1.0979	-1.9396	-1.3833	-1.2958	-2.0979	165.914	-83.447	-3.397	-147.437	112.466	-131.511	63.250	152.560	20.703	173.417	49.414	127.484	-147.676	162.031	69.024	-151.407	0.0013668	0.0013172	0.00010629	1037.6	4.6391e-06	6.9434e-06	810.95	332.67	7.1724e-06	4.2222e-06	268.57	90.648	115.7	54.949	1.0858e-05	45.577	0.0024413	0.0027351	0.00075961	999.08	2.9502e-05	2.9935e-05	783.99	321.68	2.8971e-05	2.9983e-05	267.09	90.255	113.73	53.773	2.8927e-05	45.239	43.793	-94.713	-131.244	-158.855	90.846	4.966	-160.602	-154.179	-2.055	-121.750	-156.573	-153.110	-149.948	-145.042	-119.194	-149.583	-8191	255	
1330.431	1	1	0	0	0.24095	0.093146	0.14165	0.27274	0.12427	0.23792	0.14985	0.40022	0.12955	0.32029	0.30459	0.18853	0.17065	0.15154	0.10063	0.23703	-0.5375	-1.5229	-1.6833	-1.1917	-1.9417	-1.2229	-1.3521	-1.9417	-1.2083	-1.4875	-1.8354	-0.88542	-1.8125	-1.4333	-1.0438	-1.7979	159.338	157.198	138.618	-139.940	-118.140	-83.519	89.781	159.949	-68.238	33.570	39.242	-157.907	138.258	-95.608	-84.027	56.156	0.0012936	0.0014368	0.00017697	1032.6	7.7959e-06	2.35e-06	808.03	333.5	2.0782e-05	6.5544e-06	270.88	91.719	115.71	54.932	1.5618e-05	45.783	0.002442	0.002709	0.00075658	999.15	2.8939e-05	2.9726e-05	782.2	322.28	2.9034e-05	2.9563e-05	267.71	90.361	114.05	53.768	2.9458e-05	45.365	30.460	-112.551	161.412	-158.633	-38.331	78.550	-160.175	-153.734	-79.223	70.666	-156.841	-153.060	-149.989	-145.033	-46.703	-149.941	-8191	255	
1330.527	1	1	0	0	0.13616	0.17571	0.23686	0.43356	0.34178	0.10136	0.2758	0.34728	0.10418	0.18282	0.18532	0.20806	0.32515	0.19128	0.28153	0.067004	-0.74583	-1.2583	-1.5208	-1.1313	-1.6688	-1.4937	-1.2938	-1.9688	-1.0042	-1.375	-1.7938	-1.1708	-1.7375	-1.5562	-1.0625	-1.8729	-52.849	-13.118	149.896	179.173	-167.698	0.314	-162.022	74.813	29.710	187.045	187.180	70.608	-78.488	149.680	124.153	-69.456	0.001277	0.00092091	0.0003072	1040	7.769e-06	4.4863e-06	813.42	334.23	1.2185e-05	3.4601e-06	270.72	91.734	115.34	54.729	7.498e-06	45.641	0.0024244	0.0027192	0.00075617	1000.4	2.8814e-05	2.9828e-05	784.46	322.46	2.939e-05	3.0114e-05	268.49	90.806	114.04	53.777	2.9762e-05	45.626	21.174	-159.127	-114.709	-158.621	72.008	-8.898	-160.427	-154.042	-70.242	-92.827	-156.345	-153.457	-150.389	-144.919	-15.868	-149.257	-8191	255	
1330.646	1	1	0	0	0.33073	0.40711	0.27593	0.16714	0.069253	0.013287	0.12709	0.083303	0.065668	0.19541	0.039863	0.13089	0.028387	0.33826	0.26117	0.27605	-0.58958	-1.3875	-1.5438	-1.2875	-1.6063	-1.5979	-1.1667	-1.7417	-1.2062	-1.175	-1.9625	-1.1063	-1.7062	-1.5542	-0.91875	-1.6938	132.561	167.112	166.495	-153.528	-123.228	113.713	-150.599	-37.878	1.891	-105.660	41.749	72.558	168.698	83.250	115.409	27.618	0.0014039	0.0008824	0.00012976	1037.7	1.1665e-05	3.5717e-06	810.65	333.2	1.5279e-05	9.6395e-06	272.15	92.099	116.06	54.803	1.5549e-06	46.313	0.0024673	0.0027611	0.00077697	1001.6	2.9545e-05	3.0725e-05	787.69	323.08	2.9101e-05	3.0247e-05	269.19	91.103	114.28	53.841	2.9375e-05	45.855	28.428	-121.782	-20.009	-158.818	-19.789	12.834	-160.265	-153.875	-34.779	-30.547	-157.184	-152.902	-149.765	-145.217	-24.825	-150.314	-8191	255	
1330.742	1	1	0	0	0.089945	0.13533	0.31838	0.37017	0.19424	0.32531	0.064001	0.091537	0.20949	0.18179	0.11843	0.23279	0.30567	0.11168	0.12321	0.20612	-0.96042	-1.2125	-2.0021	-1.0688	-1.4813	-1.6354	-0.98125	-1.6979	-1.5542	-1.2167	-1.8792	-1.0854	-1.3396	-1.9146	-0.97917	-1.8104	110.859	40.345	139.623	182.966	-113.927	13.575	-144.533	88.696	2.658	133.890	152.207	-125.931	142.853	168.771	106.242	143.363	0.0012135	0.00045361	0.00023204	1042.1	3.7768e-06	7.6876e-06	811.59	334.43	2.0811e-05	5.5396e-06	269.81	91.406	115.52	55.255	6.6438e-06	45.47	0.0024237	0.0027458	0.0007613	1004	2.9393e-05	3.068e-05	785.06	322.85	2.9556e-05	3.0672e-05	268.26	90.481	114.54	53.836	3.0317e-05	45.427	39.044	132.366	-84.827	-158.830	-110.179	-35.079	-160.456	-153.865	30.958	-54.912	-156.929	-152.462	-149.808	-145.026	-51.926	-149.661	-8191	255	
1330.838	1	1	0	0	0.11351	0.18213	0.31453	0.15707	0.44688	0.074856	0.39169	0.022805	0.19381	0.2658	0.19839	0.11761	0.16781	0.19086	0.14289	0.14138	-1.0667	-1.0792	-1.7396	-1.4062	-1.3708	-1.7188	-1.1375	-1.5625	-1.3917	-1.0125	-1.8375	-1.3125	-1.3021	-1.9104	-0.925	-1.6458	-79.359	100.682	-29.251	105.606	-95.708	29.486	142.383	-170.935	-11.325	104.936	-72.957	-168.151	-167.446	-75.254	-168.927	-142.729	0.0017959	0.0013007	8.8459e-05	1031.4	1.3941e-05	8.6386e-06	806.48	331.7	3.3099e-05	1.3538e-06	270.49	91.892	115.46	55.191	7.7029e-06	45.819	0.0024891	0.0028019	0.00077745	996.47	2.9859e-05	3.0955e-05	781.05	321.26	2.9785e-05	3.1564e-05	268.66	90.766	114.4	53.964	3.0337e-05	45.659	35.051	-157.847	99.788	-158.412	31.980	-83.584	-160.162	-153.875	-50.201	147.218	-157.134	-152.945	-149.778	-145.142	-142.574	-149.520	-8191	255	
1330.934	1	1	0	0	0.16353	0.0048294	0.10603	0.3085	0.2507	0.38112	0.02883	0.23946	0.12389	0.33314	0.16745	0.067164	0.31619	0.12088	0.10382	0.15302	-1.0812	-0.98958	-1.6437	-1.3771	-1.3583	-1.7521	-0.97083	-1.5354	-1.725	-0.925	-1.8792	-1.3375	-1.1833	-1.9875	-0.91042	-1.5208	-154.838	64.743	170.060	45.031	-126.446	-139.022	113.498	85.219	25.161	-56.476	123.068	-45.733	100.880	154.268	20.881	61.633	0.0012859	0.00049779	0.00020553	1034.4	1.0689e-05	1.6016e-05	807.32	332.54	1.9946e-05	2.6059e-06	271.13	92.132	116.07	55.741	1.4754e-05	46.549	0.0025121	0.0027925	0.00079077	996.43	2.992e-05	3.1182e-05	782.59	322.35	3.0106e-05	3.0976e-05	270.21	91.138	114.58	54.366	3.0547e-05	46.299	34.102	-80.804	-20.858	-158.789	-90.018	-37.533	-160.336	-153.654	-47.133	-65.832	-156.575	-153.309	-149.340	-145.125	34.885	-149.638	-8191	255	
1331.055	1	1	0	0	0.15557	0.1162	0.23823	0.11313	0.16687	0.1307	0.32815	0.13767	0.27787	0.20139	0.081099	0.033102	0.19601	0.15151	0.29912	0.25264	-1.0875	-1.0542	-1.8167	-1.2333	-1.0479	-1.8937	-1.2083	-1.6396	-1.6125	-0.92083	-1.7062	-1.3354	-0.97292	-1.9021	-1.0833	-1.3708	25.156	19.184	97.681	-166.497	-63.734	173.201	74.425	96.078	133.584	-113.167	138.029	127.562	24.229	157.375	102.849	160.414	0.0012603	0.00022443	0.00024912	1034.9	1.2526e-05	1.1623e-05	812.4	333.45	4.2727e-06	4.9359e-06	274.21	92.289	115.66	55.701	4.6319e-06	46.664	0.0025282	0.0029031	0.00080255	1001.6	3.1136e-05	3.208e-05	787.85	323.34	3.0985e-05	3.2288e-05	271.16	91.594	114.74	54.518	3.1153e-05	46.478	28.783	169.295	-101.225	-158.709	0.532	-68.665	-160.404	-153.748	-39.162	36.461	-156.885	-152.789	-149.830	-144.865	-12.393	-149.138	-8191	255	
1331.127	1	1	0	0	0.17844	0.35384	0.24236	0.24116	0.21102	0.17669	0.12241	0.39739	0.18252	0.17358	0.10281	0.2091	0.29325	0.24742	0.35403	0.18335	-1.2875	-1.0396	-1.5896	-1.7	-1.0812	-1.6542	-1.3542	-1.1583	-1.8354	-1.1792	-1.6271	-1.7979	-0.79167	-1.9062	-1.1104	-1.2396	18.002	-101.730	27.105	-163.218	56.631	92.137	-153.357	106.538	-121.509	-4.266	-132.456	102.620	-145.864	166.854	-57.066	159.169	0.0016651	0.00043602	0.00017643	1033.8	9.3979e-06	2.9695e-06	812.16	335.35	1.215e-05	1.0359e-05	273.12	91.454	116.05	55.578	8.3591e-06	46.444	0.0025919	0.0028837	0.00081327	1000.6	3.1068e-05	3.204e-05	786.19	323.07	3.0533e-05	3.2032e-05	270.97	90.975	114.8	54.499	3.0687e-05	46.185	25.963	46.174	-40.983	-158.821	-67.994	-10.037	-160.275	-153.937	-35.230	-54.190	-156.571	-152.984	-149.705	-145.252	-14.984	-149.536	-8191	255	
1331.247	1	1	0	0	0.16139	0.12642	0.15392	0.29144	0.12154	0.2518	0.2189	0.14891	0.10467	0.22284	0.093757	0.052305	0.087566	0.17431	0.21007	0.16783	-1.4271	-1.1604	-1.3042	-1.7313	-1	-1.6292	-1.3333	-1.4333	-1.6396	-1.175	-1.4375	-1.4229	-1.1146	-1.5958	-1.3167	-1.1688	84.128	134.892	127.707	-154.835	83.390	21.605	161.910	76.663	84.003	54.217	149.353	105.176	20.528	-60.704	106.894	85.591	0.0011304	0.00021921	0.00020262	1029.6	4.54e-06	1.3909e-05	810.5	335.42	2.015e-05	8.893e-06	273.17	92.412	115.59	55.774	1.3177e-05	46.436	0.0025651	0.0028359	0.00079646	996.68	3.0741e-05	3.1515e-05	783.77	323.5	3.0529e-05	3.1978e-05	271.21	91.132	114.55	54.728	3.1105e-05	46.311	29.722	-13.980	153.570	-158.654	3.627	-35.749	-160.899	-154.159	-64.646	-38.022	-157.236	-153.188	-149.980	-145.383	-32.478	-149.862	-8191	255	
1331.343	1	1	0	0	0.23488	0.13343	0.2075	0.39913	0.047949	0.12729	0.29984	0.18219	0.16156	0.25227	0.19018	0.144	0.18785	0.23461	0.11382	0.073531	-1.1688	-1.1333	-1.3646	-1.825	-1.0292	-1.7833	-1.4458	-1.2583	-1.7917	-1.2646	-1.4479	-1.8896	-1.0521	-1.7979	-1.7292	-1.0292	-56.706	23.631	-86.164	-140.717	-154.488	163.361	64.182	171.056	28.297	164.255	84.888	-171.779	-40.234	168.203	158.803	94.407	0.0014814	0.00084191	0.00045608	1033.6	1.1176e-05	3.479e-06	814.42	333.99	3.1672e-05	5.4196e-06	273.72	92.188	115.85	55.623	1.2831e-05	46.944	0.0025676	0.0028593	0.00080961	1000	3.0809e-05	3.2139e-05	786.39	324.04	3.0906e-05	3.2036e-05	271.86	91.467	114.74	54.703	3.1216e-05	46.694	28.073	-79.400	-35.082	-158.711	-47.314	-9.592	-160.572	-153.902	-68.401	-144.914	-157.025	-152.908	-150.377	-144.882	-72.536	-149.499	-8191	255	
1331.440	1	1	0	0	0.072766	0.20873	0.10182	0.40531	0.086447	0.20833	0.26671	0.14048	0.16202	0.075032	0.30098	0.28194	0.15374	0.41873	0.07881	0.14719	-1.3438	-1.1771	-1.1854	-1.8896	-1.0792	-1.6354	-1.6417	-1.1458	-1.9062	-1.275	-1.0542	-1.8062	-1.2646	-1.7625	-1.5958	-1.0229	-108.628	61.956	77.106	138.047	-15.445	95.948	155.485	-151.441	173.546	81.611	109.193	137.005	-125.008	-139.183	19.742	-154.952	0.0011989	0.00089728	0.00034053	1034.9	1.2344e-05	7.3086e-06	810.68	334.77	1.3286e-05	5.3907e-06	273.24	92.116	115.63	55.951	6.3792e-06	46.962	0.0026072	0.0029296	0.00081968	1001.1	3.1561e-05	3.2214e-05	788.38	324	3.0899e-05	3.264e-05	272.17	91.348	114.59	54.892	3.1047e-05	46.695	20.429	-91.636	-92.510	-158.759	-123.779	-74.609	-160.158	-154.062	-62.066	10.865	-156.464	-153.516	-150.147	-144.822	-159.972	-149.452	-8191	255	
1331.536	1	1	0	0	0.1125	0.12863	0.11878	0.038267	0.13921	0.13813	0.31936	0.38718	0.079768	0.15049	0.34223	0.19646	0.042965	0.19377	0.22123	0.039159	-1.3542	-1.0667	-1.1063	-2.0146	-1.1625	-1.4854	-1.7708	-1.2229	-1.7958	-1.7437	-1.0375	-1.8958	-1.2021	-1.5333	-1.8	-0.94792	49.631	38.034	137.794	-27.913	156.552	177.496	-125.209	153.416	-93.247	-90.300	-164.928	-126.676	-5.874	-55.942	-9.189	139.319	0.001325	0.00043196	0.00020987	1036.3	7.4749e-06	5.908e-06	811.4	334.26	1.0721e-05	3.9678e-06	273.59	92.475	115	56.112	1.4393e-05	46.568	0.0025654	0.0029229	0.00080661	999.24	3.0948e-05	3.2e-05	786.41	323.66	3.0703e-05	3.1811e-05	271.34	91.347	114.2	54.801	3.1301e-05	46.503	42.735	-44.609	-86.116	-158.785	64.091	174.326	-160.617	-153.822	-107.726	-28.006	-156.883	-152.970	-149.540	-144.714	-56.604	-149.377	-8191	255	
1331.655	1	1	0	0	0.57445	0.075054	0.057229	0.17223	0.046702	0.156	0.039393	0.24936	0.12765	0.19087	0.27891	0.23854	0.16844	0.25217	0.16145	0.16058	-1.375	-1.4458	-1.0896	-1.8729	-1.2188	-1.3458	-2.0042	-1.1104	-1.8042	-1.6562	-1.1354	-1.7833	-1.3438	-1.2979	-1.8479	-1.0458	-60.448	172.123	-122.165	179.688	-150.560	134.131	132.241	174.293	141.494	-38.798	80.614	142.880	80.392	142.058	-59.926	175.448	0.0012974	0.0013757	7.3788e-05	1040.1	7.6945e-06	9.7851e-06	806.46	334.78	2.1636e-06	1.1903e-05	271.48	92.447	115.52	56.142	5.183e-06	46.783	0.0025515	0.0028798	0.0008086	998.34	3.0722e-05	3.1529e-05	783.07	323.38	3.0691e-05	3.1884e-05	270.95	91.328	114.51	54.862	3.104e-05	46.612	34.537	-47.770	56.226	-158.852	-85.070	-55.169	-160.421	-154.074	-50.575	-51.061	-156.795	-152.918	-149.997	-144.740	-13.009	-149.867	-8191	255	
1331.726	1	1	0	0	0.23925	0.26396	0.12939	0.14516	0.25984	0.06016	0.27215	0.089916	0.22853	0.26401	0.1478	0.18976	0.082739	0.27956	0.27431	0.10914	-1.2604	-1.575	-0.85	-1.9167	-1.4688	-1.2625	-1.9	-1.2188	-1.6875	-1.7313	-1.0729	-1.875	-1.35	-1.3729	-1.8563	-1.2542	-34.646	145.495	-68.542	169.767	62.330	-103.012	165.886	71.970	-55.825	66.767	187.293	-162.103	-97.550	-143.513	-40.662	-129.663	0.0016003	0.00041992	0.00024887	1037.7	1.5098e-05	5.9884e-06	816.35	335.67	2.2971e-05	9.8819e-06	271.93	92.878	114.99	56.307	1.8641e-05	47.18	0.0025546	0.0029166	0.000812	999.83	3.0391e-05	3.1805e-05	788.2	323.72	3.0633e-05	3.1687e-05	271.61	91.681	114.32	55.149	3.1196e-05	47.062	31.298	187.147	-72.749	-158.682	-55.349	-19.744	-161.002	-154.507	-30.261	55.445	-157.182	-153.353	-149.883	-145.310	6.941	-150.008	-8191	255	
1331.822	1	1	0	0	0.16132	0.13692	0.25623	0.23537	0.35703	0.13536	0.22955	0.25141	0.056353	0.20476	0.2608	0.16642	0.26529	0.35859	0.076991	0.19397	-1.0542	-1.7563	-1.0167	-1.6625	-1.3917	-1.3438	-1.9688	-1.2667	-1.2417	-1.7792	-1.0104	-1.5042	-1.4208	-1.1375	-1.7979	-1.3021	-149.302	-149.571	-84.596	47.976	11.154	71.964	143.301	115.046	-59.278	100.264	75.550	43.672	-172.150	-165.331	145.780	84.344	0.0016766	0.00080526	0.0002353	1039.3	7.5159e-06	1.7718e-05	824.98	337.04	3.2272e-05	9.0967e-06	276.61	93.743	116.72	56.165	1.2816e-05	47.962	0.0025749	0.0028709	0.00081438	1001.6	3.086e-05	3.2212e-05	795.86	325	3.1302e-05	3.2822e-05	274.97	92.58	115.45	55.268	3.315e-05	47.63	28.876	-139.531	-63.798	-159.007	-28.145	-57.527	-160.281	-154.187	2.142	-27.492	-157.035	-153.150	-150.171	-145.194	-58.640	-149.672	-8191	255	
1331.943	1	1	0	0	0.0714	0.1646	0.0311	0.16314	0.14858	0.19137	0.098736	0.29266	0.13331	0.1618	0.20381	0.065362	0.34886	0.19047	0.17105	0.53936	-0.84792	-1.7042	-0.92083	-1.5562	-1.4021	-0.9625	-1.7042	-1.2604	-1.1333	-1.9979	-1.1729	-1.6896	-1.7417	-0.925	-1.7833	-1.4312	29.449	122.144	-124.992	148.834	-54.634	81.121	-25.107	127.650	-42.846	176.328	1.738	148.893	-170.705	161.868	-109.168	157.677	0.0015286	0.00097137	0.00042199	1032.4	4.7995e-06	3.5022e-06	811.47	334.29	2.3549e-05	1.0354e-05	276.1	94.776	117.96	57.132	1.1779e-05	47.77	0.0027713	0.0030976	0.00088711	1001.5	3.3867e-05	3.5606e-05	794.05	324.89	3.5022e-05	3.6004e-05	277.1	94.252	117.22	56.009	3.4229e-05	47.812	42.609	-17.165	-68.584	-158.677	-3.829	-73.396	-160.509	-153.958	-58.852	-21.015	-157.343	-152.749	-150.580	-145.190	-73.040	-150.107	-8191	255	
1332.039	1	1	0	0	0.071101	0.080664	0.14626	0.32739	0.10778	0.089332	0.11472	0.19545	0.21549	0.088408	0.3762	0.1181	0.31544	0.25763	0.07094	0.1526	-0.675	-1.7667	-1.0021	-1.5042	-1.7188	-1.025	-1.6896	-1.5542	-1.3396	-1.7333	-1.1979	-1.4042	-1.5875	-1.1354	-1.7375	-1.4854	-34.449	141.053	-64.201	121.335	85.966	32.975	-157.151	142.915	-120.574	152.355	76.703	-160.834	-130.160	-110.982	-116.443	47.951	0.0012865	0.0009137	0.00015686	1026.5	7.7759e-06	7.7252e-06	815.41	337.42	1.2572e-05	7.7347e-06	276.01	95.484	117.99	57.438	9.7038e-06	47.99	0.002788	0.0031133	0.00087449	999.76	3.2973e-05	3.4739e-05	792.4	326.27	3.364e-05	3.4337e-05	277.61	94.456	117.33	56.359	3.364e-05	48.105	26.660	-96.994	-31.860	-158.817	1.656	0.258	-160.711	-153.958	-67.163	73.865	-157.229	-152.971	-150.224	-145.290	-48.813	-149.835	-8191	255	
1332.135	1	1	0	0	0.13162	0.41084	0.058084	0.07146	0.23686	0.2872	0.2246	0.076308	0.19603	0.32443	0.20949	0.38212	0.069854	0.28766	0.098341	0.054347	-0.67917	-1.7917	-1.0771	-1.5104	-1.7854	-1.0521	-1.7458	-1.5604	-1.0938	-1.9292	-1.2458	-1.3687	-1.7917	-1.0979	-1.7042	-1.6396	105.884	-72.165	92.268	135.880	67.502	-24.024	171.235	141.890	184.860	90.872	12.097	-149.103	17.244	183.121	-70.485	-157.932	0.001478	0.0002753	0.00010799	1038.5	4.8334e-06	1.1993e-05	818.84	337.67	1.0489e-05	5.8066e-06	277.49	94.678	117.6	57.28	1.1945e-05	48.555	0.0027984	0.0031207	0.00086858	1002.7	3.303e-05	3.4484e-05	795.42	327.26	3.3163e-05	3.473e-05	277.5	93.991	117.16	56.214	3.353e-05	48.369	32.459	-142.572	-103.716	-158.881	172.586	19.437	-160.180	-154.085	-12.090	-36.385	-156.936	-153.139	-150.404	-145.280	-10.798	-149.869	-8191	255	
1332.231	1	1	0	0	0.18361	0.1198	0.27509	0.30392	0.055461	0.13475	0.061723	0.16983	0.11669	0.10983	0.17135	0.39564	0.21139	0.091317	0.1463	0.30252	-0.35833	-1.65	-1.2167	-1.2333	-1.5417	-0.90625	-1.6875	-1.6458	-1.175	-1.7042	-1.2938	-1.2021	-1.7229	-1.1729	-1.6437	-1.8896	-89.564	-10.460	-10.340	132.012	62.772	-71.803	127.807	-136.738	-111.750	-131.834	-138.831	143.715	-57.485	102.279	23.879	141.299	0.0015683	0.0010732	0.00020519	1033.8	1.1546e-05	1.1529e-05	817.68	337.41	1.6708e-05	5.359e-06	280.51	95.694	117.46	57.248	1.0758e-05	48.592	0.0028042	0.0031245	0.00086387	1002.1	3.3067e-05	3.3966e-05	797.36	326.63	3.3054e-05	3.4279e-05	279.43	94.613	117.11	56.249	3.3184e-05	48.547	37.247	56.218	-78.737	-158.770	8.897	1.707	-160.193	-154.011	-68.828	-26.658	-157.068	-153.125	-150.189	-145.182	-29.555	-149.584	-8191	255	
1332.328	1	1	0	0	0.21072	0.11763	0.43448	0.33254	0.2663	0.17711	0.46925	0.30574	0.29216	0.15574	0.37444	0.2049	0.1873	0.41691	0.09685	0.2547	-0.59167	-1.9333	-1.4479	-1.1063	-1.8479	-1.1688	-1.4042	-1.8083	-0.95208	-1.7396	-1.3167	-1.1125	-1.9125	-1.3021	-1.3312	-1.7833	-85.572	-140.641	21.165	152.700	32.262	-141.743	152.527	178.755	44.252	172.836	151.071	134.490	182.112	85.056	93.406	163.925	0.0015539	0.00098375	0.00021915	1038.3	1.0323e-05	6.2242e-06	818.31	337.37	2.2609e-05	7.9687e-06	277.3	93.88	116.47	56.804	1.0074e-05	47.945	0.0027929	0.0031052	0.00086769	1003.2	3.3083e-05	3.4254e-05	797.08	326.93	3.3174e-05	3.434e-05	276.75	93.592	116.27	55.788	3.3458e-05	47.775	25.896	-121.270	150.460	-158.662	56.606	17.664	-160.378	-154.333	-86.488	-13.878	-157.428	-153.244	-149.968	-145.214	-71.202	-149.550	-8191	255	
1332.424	1	1	0	0	0.13008	0.15349	0.18697	0.33548	0.22662	0.084419	0.35294	0.10109	0.12783	0.17107	0.080121	0.14814	0.2551	0.40589	0.018409	0.061595	-0.43333	-1.3937	-1.3333	-0.99375	-1.775	-1.1125	-1.3958	-1.9813	-1.0104	-1.5646	-1.4813	-1.0187	-1.8687	-1.2125	-1.1187	-1.7938	72.074	109.266	9.789	112.429	-9.685	-110.806	108.661	120.479	146.196	-129.500	-12.477	14.444	-159.232	139.200	127.671	-15.303	0.0012932	0.00062808	0.00010616	1029.8	9.8982e-06	1.3567e-05	816.88	334.76	2.7364e-05	7.1573e-06	277.36	93.355	116.41	56.672	5.6142e-06	47.621	0.0027403	0.0030898	0.00087505	998.58	3.3319e-05	3.4248e-05	793.28	325.61	3.3098e-05	3.4342e-05	276.84	93.134	116.26	55.644	3.3533e-05	47.557	20.342	-92.763	183.764	-158.746	-19.852	-25.767	-160.339	-154.270	-16.352	-7.338	-156.622	-153.348	-149.628	-145.120	-49.787	-149.474	-8191	255	
1332.520	1	1	0	0	0.34431	0.12388	0.13594	0.2326	0.24652	0.31298	0.18071	0.066227	0.24952	0.10485	0.4479	0.19749	0.19293	0.16987	0.17018	0.35116	-0.81458	-1.3833	-1.5625	-1.1729	-1.6729	-1.2729	-1.1708	-1.8833	-0.97292	-1.4688	-1.6833	-1.0021	-1.6313	-1.6437	-0.99167	-1.8292	-110.038	14.565	75.705	187.868	63.923	41.938	-168.529	91.837	177.412	4.336	-121.956	154.763	103.609	-156.398	-105.181	-169.309	0.0014807	0.00024592	0.00029803	1024	1.121e-05	2.1586e-06	816.9	337.08	1.9782e-05	1.1244e-05	276.92	93.792	115.86	56.581	5.2068e-06	47.947	0.0027892	0.0031771	0.00087011	995.71	3.3482e-05	3.4179e-05	790.92	325.48	3.312e-05	3.3916e-05	276.15	93.256	115.72	55.523	3.3553e-05	47.698	23.577	-11.349	-124.030	-158.743	43.068	-55.074	-159.898	-153.423	-33.546	19.348	-156.923	-153.264	-149.727	-145.072	-52.587	-149.427	-8191	255	
1332.616	1	1	0	0	0.036513	0.20028	0.16467	0.26294	0.12269	0.10887	0.094431	0.16179	0.1856	0.083997	0.068958	0.097132	0.12787	0.50828	0.17174	0.30279	-0.7125	-1.3583	-1.6313	-1.0562	-1.6833	-1.3146	-1.175	-1.9875	-1.1667	-1.3	-1.7167	-1.2479	-1.7354	-1.4896	-0.97708	-1.7167	-64.983	126.164	91.003	-136.465	88.610	-2.811	85.602	-133.313	92.489	-44.475	-135.016	-29.547	-64.296	158.411	-94.584	147.516	0.0014613	0.00058838	0.0002947	1026.3	8.7433e-06	9.0323e-06	814.76	335.17	9.3859e-06	1.2643e-05	275.63	93.615	115.7	56.568	1.1752e-05	47.632	0.0027379	0.0030663	0.00085394	996.82	3.2954e-05	3.3928e-05	791.6	324.75	3.29e-05	3.3941e-05	274.93	92.909	115.39	55.323	3.2958e-05	47.608	38.486	-119.820	-117.384	-158.756	-31.733	26.526	-160.556	-153.926	-22.327	-15.829	-157.068	-152.850	-149.824	-145.581	-94.218	-149.781	-8191	255	
1332.735	1	1	0	0	0.068363	0.12046	0.43513	0.064355	0.19091	0.14918	0.02001	0.34551	0.32901	0.20848	0.16375	0.16761	0.16256	0.34831	0.068797	0.25165	-0.74792	-1.3542	-1.7854	-1.0958	-1.6354	-1.4271	-0.96875	-1.8917	-1.3937	-1.1771	-1.8438	-1.0125	-1.4771	-1.525	-0.925	-1.65	-47.307	-57.937	27.877	27.351	77.160	-123.276	-109.330	141.362	17.491	-37.965	33.253	163.794	148.066	173.884	21.836	-99.483	0.0014964	0.00041616	8.5996e-05	1024.2	9.1954e-06	8.3571e-06	813.74	332.98	1.6669e-05	1.332e-05	275.58	92.443	116.68	55.863	1.8342e-06	47	0.0027348	0.0030474	0.00085471	993.62	3.2373e-05	3.3618e-05	789.09	323.48	3.228e-05	3.3889e-05	273.7	92.18	115.07	54.828	3.3024e-05	46.77	29.880	-80.780	-110.775	-158.959	-53.600	66.315	-160.258	-154.176	25.632	-4.303	-157.117	-153.388	-150.513	-145.567	-44.990	-150.103	-8191	255	
1332.831	1	1	0	0	0.14383	0.15896	0.11884	0.26287	0.27759	0.098616	0.16336	0.028067	0.12389	0.076518	0.3141	0.24999	0.1465	0.24134	0.058052	0.13932	-0.71875	-1.0646	-1.775	-1.0271	-1.5146	-1.6812	-1.1083	-1.7979	-1.5396	-1.0187	-1.8	-1.0229	-1.3917	-1.7125	-0.94583	-1.6542	48.007	-54.553	185.814	142.418	134.072	147.997	-6.418	50.895	78.758	-17.850	173.677	173.254	118.512	91.343	186.028	68.309	0.0013113	0.00075527	8.5711e-05	1024	7.0816e-06	4.7927e-07	806.72	331.19	2.481e-05	3.9548e-06	273.06	91.484	115.11	55.53	9.7163e-06	46.532	0.002696	0.0030769	0.00086365	990.84	3.2503e-05	3.4055e-05	782.29	321.12	3.2567e-05	3.3373e-05	271.28	91.073	114.06	54.6	3.2171e-05	46.556	17.545	-72.696	-126.580	-159.090	-134.536	-40.429	-160.860	-154.137	-143.469	-88.995	-156.937	-153.263	-150.592	-145.372	-148.606	-149.834	-8191	255	
1332.927	1	1	0	0	0.08032	0.29719	0.22351	0.030483	0.22147	0.083994	0.18703	0.093575	0.23351	0.090015	0.17413	0.19672	0.11281	0.2161	0.12668	0.13214	-1.0604	-0.96042	-1.5208	-1.4021	-1.1562	-1.4708	-1.0104	-1.6708	-1.5708	-1.075	-1.8354	-1.1479	-1.1917	-1.6896	-0.88542	-1.5979	121.018	8.071	-5.344	71.773	156.706	-104.402	124.635	-155.951	9.053	117.684	-111.904	152.140	114.208	128.518	-36.439	173.048	0.0014232	0.00048725	0.00021959	1020.5	1.3699e-05	1.2325e-05	805.7	330.08	1.3137e-05	1.2552e-05	270.59	91.974	114.06	55.271	7.9831e-07	46.946	0.0026853	0.0030174	0.00084258	988.74	3.2261e-05	3.2944e-05	780.39	320.15	3.1662e-05	3.3426e-05	270.16	91.039	113.51	54.237	3.2226e-05	46.585	16.232	-68.605	-65.986	-159.026	-44.021	-3.087	-160.832	-154.284	-103.122	-3.832	-157.038	-153.225	-149.984	-145.349	17.277	-149.434	-8191	255	
1333.022	1	1	0	0	0.099991	0.21446	0.14451	0.18756	0.14946	0.086427	0.13139	0.02535	0.11267	0.071972	0.32803	0.12025	0.20711	0.14847	0.1077	0.12853	-1.0063	-0.9	-1.6187	-1.3583	-1.0125	-2.0271	-1.0354	-1.6792	-1.6896	-1.1479	-1.8104	-1.3979	-1.2875	-1.7313	-1.2938	-1.3833	42.580	-47.249	-51.072	-135.516	163.906	-55.807	167.114	-125.546	92.656	-83.591	68.514	52.339	-168.640	70.639	-63.002	123.465	0.0015581	0.0008931	0.0003147	1021.8	8.1039e-06	4.8945e-06	807.13	329.98	1.1554e-05	3.9751e-06	271.16	91.246	113.25	55.195	2.1008e-05	46.699	0.0026171	0.0029489	0.00082173	989.25	3.1577e-05	3.2648e-05	782.79	319.55	3.1489e-05	3.2474e-05	269.29	90.548	112.68	54.221	3.1547e-05	46.503	18.633	-73.940	-59.841	-159.303	-73.848	-33.020	-160.768	-154.179	-58.686	-49.056	-157.216	-153.182	-150.214	-145.328	29.520	-149.570	-8191	255	
1333.118	1	1	0	0	0.2143	0.34119	0.32503	0.077759	0.085569	0.20217	0.32899	0.17823	0.13152	0.18833	0.13149	0.13293	0.14234	0.19621	0.061682	0.1597	-1.1708	-0.90625	-1.6167	-1.4729	-0.9625	-1.8646	-1.3729	-1.3625	-1.7146	-0.9875	-1.6229	-1.6396	-1.0708	-1.8479	-1.1458	-1.5083	104.185	122.373	163.158	-30.800	-78.189	138.521	101.384	135.269	134.538	10.865	-109.725	-23.078	146.541	-138.926	53.461	148.309	0.0017438	0.00017009	0.0001048	1022.8	8.7876e-06	1.8662e-05	807.01	327.9	2.0463e-05	3.7547e-06	268.31	90.512	112.98	54.531	4.5951e-06	45.783	0.0026313	0.0029448	0.00083138	989.03	3.1624e-05	3.2221e-05	780.79	318.66	3.1273e-05	3.2788e-05	267.35	89.807	112.36	53.71	3.1958e-05	45.81	32.147	-27.711	94.302	-159.175	21.705	-14.380	-160.887	-154.103	-48.322	-138.766	-156.795	-152.714	-149.993	-145.145	36.643	-149.805	-8191	255	
1333.238	1	1	0	0	0.20882	0.11557	0.095165	0.19548	0.16669	0.20766	0.25457	0.054411	0.088776	0.20351	0.09624	0.23075	0.20482	0.33755	0.165	0.24111	-1.4354	-1.0271	-1.575	-1.6292	-1.0354	-1.7792	-1.1542	-1.2292	-1.7229	-1.0875	-1.7687	-1.6854	-1.0688	-1.7333	-1.1021	-1.1479	31.745	39.264	-10.460	97.017	-141.131	46.851	123.350	119.339	-63.685	89.594	101.759	-3.816	-122.394	130.180	12.966	85.998	0.0011368	0.0011893	0.00029981	1019	7.6151e-06	1.4978e-05	800.15	326.51	3.62e-05	5.3207e-06	267.44	89.788	112.87	54.576	3.8432e-06	45.87	0.002592	0.0029271	0.00082089	983.22	3.1153e-05	3.213e-05	775.98	316.92	3.0914e-05	3.192e-05	265.12	89.196	111.66	53.605	3.1406e-05	45.741	25.449	-38.138	-85.126	-158.858	7.195	-88.082	-160.562	-154.152	-23.397	-36.390	-156.446	-153.034	-149.725	-145.167	85.525	-149.568	-8191	255	
1333.335	1	1	0	0	0.080387	0.1936	0.21204	0.14054	0.14814	0.12735	0.14831	0.3371	0.30895	0.076245	0.13895	0.18791	0.18264	0.094284	0.30606	0.20541	-1.5042	-0.98958	-1.35	-1.7958	-1.1729	-1.6083	-1.3813	-1.3604	-1.7979	-1.0562	-1.4	-1.8792	-1.0187	-1.7354	-1.4458	-1.2083	-57.231	95.788	88.835	-94.287	170.923	-56.544	56.981	133.778	81.740	69.714	-137.446	-11.028	-170.043	123.260	76.243	149.852	0.0015579	0.00057064	0.00022018	1025.2	1.1669e-05	5.0607e-06	797.52	326.61	2.0387e-05	9.4946e-06	265.42	89.817	111.74	54.631	9.5892e-06	46.076	0.0026178	0.0029125	0.00081395	984.78	3.0887e-05	3.2019e-05	774.77	315.63	3.131e-05	3.222e-05	264.69	89.08	111.33	53.436	3.1289e-05	45.765	25.433	-163.619	-65.548	-158.782	-38.656	-54.693	-160.482	-154.065	-55.407	20.503	-157.374	-153.383	-150.040	-145.088	15.945	-149.625	-8191	255	
1333.431	1	1	0	0	0.0798	0.28209	0.17477	0.23436	0.30679	0.11885	0.17132	0.33388	0.19311	0.19826	0.23261	0.14599	0.14286	0.12748	0.22467	0.21916	-1.3708	-1.1063	-1.2417	-1.6208	-0.89167	-1.5958	-1.4021	-1.2167	-1.7458	-1.1938	-1.3792	-1.8417	-0.8625	-1.6271	-1.475	-0.91667	163.787	44.155	53.280	157.717	21.295	-53.591	144.267	172.207	149.346	105.835	-138.542	146.361	22.206	147.772	-110.229	-50.942	0.0013068	0.0013877	0.00035936	1018.4	4.2897e-06	1.7626e-05	801.86	326.04	3.5061e-05	1.1082e-05	265.8	89.755	112.67	54.459	1.5656e-05	45.932	0.0025929	0.0028681	0.00081109	983.28	3.0825e-05	3.183e-05	777.45	315.29	3.0508e-05	3.1716e-05	264.84	89.1	111.36	53.364	3.1003e-05	45.681	39.088	-78.587	-65.756	-158.898	112.997	-60.140	-160.297	-153.980	-39.541	26.464	-156.823	-153.166	-149.618	-145.264	8.420	-149.577	-8191	255	
1333.527	1	1	0	0	0.20221	0.34899	0.24656	0.30573	0.1588	0.2105	0.28056	0.35541	0.073523	0.031582	0.067989	0.29763	0.18954	0.21752	0.30716	0.25298	-1.2437	-1.275	-1.0771	-1.8875	-1.0917	-1.3604	-1.8729	-1.1229	-1.8042	-1.2354	-1.2604	-1.8792	-1.1542	-1.5833	-1.7146	-0.98542	-101.025	-114.685	-102.520	-169.740	44.563	39.574	108.811	97.819	-39.376	37.089	81.735	106.799	184.906	-142.897	-133.004	168.411	0.00093449	0.000771	0.00021454	1017.5	8.3667e-06	9.0753e-06	799.91	325.45	2.0594e-05	4.4019e-06	261.58	89.316	111.11	54.35	1.5783e-05	45.5	0.0025547	0.0028817	0.00080745	983.05	3.0518e-05	3.1865e-05	774.87	314.59	3.047e-05	3.1633e-05	261.93	88.412	110.63	53.173	3.0944e-05	45.216	33.916	-163.237	-60.081	-158.583	-44.567	44.286	-160.562	-154.203	-11.052	61.311	-157.016	-153.831	-150.003	-144.888	-37.842	-149.898	-8191	255	
1333.623	1	1	0	0	0.10502	0.15645	0.13706	0.085217	0.28357	0.1585	0.27123	0.17467	0.052902	0.26849	0.17034	0.26051	0.15137	0.17107	0.14048	0.071431	-1.2208	-1.2833	-1	-1.8229	-1.2375	-1.3875	-1.8667	-1.3208	-1.4354	-1.6542	-0.95833	-2.0708	-1.3375	-1.3292	-1.6208	-1.1729	165.740	-124.231	44.770	-137.533	-7.424	90.629	-165.295	104.466	-38.081	37.368	-96.432	170.078	160.770	-158.030	137.824	-150.684	0.0014975	0.00057835	9.196e-05	1011.3	6.2926e-06	6.0957e-06	794.34	322.77	3.8022e-06	7.1587e-06	262.13	88.391	110.26	53.829	1.1346e-05	45.312	0.0025487	0.0028232	0.00079975	976.23	3.0477e-05	3.1437e-05	769.37	312.12	3.0452e-05	3.1712e-05	260.29	87.546	109.88	52.846	3.0244e-05	45.008	34.652	-1.745	21.786	-158.980	-91.716	15.271	-160.367	-153.793	135.202	-27.500	-156.242	-152.886	-149.919	-145.207	-10.078	-150.107	-8191	255	
1333.719	1	1	0	0	0.31358	0.23268	0.10086	0.23846	0.41513	0.12156	0.32145	0.33418	0.13684	0.10295	0.15508	0.074004	0.17458	0.0064215	0.10259	0.20474	-1.1417	-1.4417	-1.0021	-1.9937	-1.2958	-1.1458	-1.975	-0.94375	-1.4229	-1.5917	-1.0312	-1.7292	-1.1792	-1.2437	-1.8458	-1.1771	179.817	-50.343	-170.875	-131.085	115.660	75.601	183.689	174.139	-149.911	-63.516	-97.533	-77.265	183.106	59.412	1.637	-122.127	0.0013189	8.0266e-05	0.00024522	1014.8	1.9032e-05	1.567e-06	794.51	323.14	1.2514e-05	5.8745e-06	261.83	88.091	111.27	53.781	1.1077e-05	44.841	0.0025374	0.0028061	0.00078413	979.34	3.0147e-05	3.1378e-05	770.39	312.11	2.989e-05	3.1061e-05	259.87	87.343	109.73	52.724	2.9915e-05	44.803	21.668	-117.671	-70.788	-158.931	-30.951	-162.229	-160.564	-153.959	-54.039	-6.888	-156.915	-153.411	-149.856	-144.973	-14.467	-149.779	-8191	255	
1333.815	1	1	0	0	0.016436	0.058882	0.11425	0.079077	0.018246	0.18783	0.26015	0.2164	0.12636	0.063912	0.20229	0.11204	0.09776	0.28356	0.13315	0.16067	-1.1354	-1.6271	-1.0854	-1.9062	-1.4333	-1.1625	-1.9479	-1.075	-1.3417	-1.675	-0.89792	-1.6063	-1.3708	-1.0521	-1.6875	-1.0667	-69.477	-44.929	100.896	4.516	-42.594	21.182	179.068	73.982	165.962	23.864	-122.485	-125.430	164.708	172.905	-142.665	102.250	0.0010095	0.0010255	0.00023036	1011.3	3.5629e-06	8.9281e-06	799.29	321.49	1.4471e-05	1.166e-05	260.06	88.707	109.83	53.413	8.6848e-06	45.32	0.0024843	0.0027829	0.00077853	976.37	2.9728e-05	3.0966e-05	769.31	311.08	2.9697e-05	3.0558e-05	259.18	87.672	109.25	52.44	2.9697e-05	44.983	37.615	-80.926	167.800	-158.818	-134.154	-36.110	-160.725	-154.425	-57.858	-54.469	-157.071	-153.059	-150.273	-145.327	-49.434	-149.450	-8191	255	
1333.911	1	1	0	0	0.26804	0.12729	0.20439	0.1946	0.31078	0.25225	0.20308	0.12468	0.11668	0.18787	0.057527	0.069199	0.26084	0.58952	0.23462	0.13571	-0.83125	-1.6021	-0.88333	-1.5875	-1.4104	-1.0479	-1.8813	-1.2354	-1.4375	-1.7188	-0.87708	-1.8854	-1.5771	-1.1187	-1.7229	-1.1812	156.967	172.335	-47.557	-160.989	43.282	12.797	165.214	-0.530	59.999	-41.033	46.256	18.533	-110.176	96.240	-41.444	-108.545	0.0012464	0.00059739	0.00026033	1010.9	8.1828e-06	5.9491e-06	797.3	318.96	2.1902e-05	6.7644e-06	258.9	87.526	109.75	53.138	8.1364e-06	44.369	0.0024533	0.0027587	0.00077947	976.56	2.9288e-05	3.0451e-05	769.55	309.93	2.9502e-05	3.0196e-05	257.92	86.786	108.67	52.204	2.9369e-05	44.355	23.201	-58.631	-117.002	-158.678	-78.823	-102.042	-160.613	-154.098	-37.012	43.179	-157.148	-152.967	-149.971	-145.304	-140.998	-149.980	-8191	255	
1334.008	1	1	0	0	0.22688	0.090501	0.23049	0.070288	0.26161	0.096395	0.21794	0.094136	0.10235	0.16059	0.39323	0.2278	0.3463	0.19437	0.20927	0.14484	-0.78958	-1.7229	-0.84792	-1.6833	-1.4875	-1.0312	-1.8292	-1.2792	-0.85	-1.9	-1.0854	-1.6708	-1.7229	-0.95208	-1.7667	-1.2292	-130.698	12.765	-169.848	93.241	167.053	130.484	131.201	104.857	176.137	56.376	-86.140	-84.217	169.465	144.368	-78.944	61.095	0.0012647	0.00089022	0.00036924	1002.4	1.0961e-05	8.1945e-06	786.53	319.36	2.5651e-05	4.5988e-06	259.13	86.923	109.64	53.29	8.1024e-06	44.36	0.0024216	0.0027318	0.00076566	971.65	2.9251e-05	3.0377e-05	764.58	308.02	2.8873e-05	3.0062e-05	256.55	86.067	108.67	52.152	2.9448e-05	44.276	28.650	-103.806	-96.807	-158.541	8.252	-21.166	-160.468	-153.838	-106.744	78.346	-157.330	-152.930	-149.969	-144.959	-41.817	-149.892	-8191	255	
1334.126	1	1	0	0	0.0082798	0.1987	0.23244	0.031291	0.19777	0.13099	0.051555	0.15617	0.16741	0.51172	0.1058	0.22022	0.055607	0.15286	0.17152	0.033027	-0.62708	-1.6646	-0.94375	-1.3292	-1.7771	-0.86042	-1.6688	-1.4292	-1.0354	-1.6	-0.98333	-1.5354	-1.8062	-1.3396	-1.8771	-1.5396	-47.941	17.638	149.601	-53.623	44.031	-30.250	179.257	148.474	187.680	-26.681	-129.214	102.584	-1.948	-165.962	-7.132	175.557	0.001327	0.00018994	0.00027504	1006.7	7.9894e-06	2.8575e-06	791.64	318.55	1.1333e-05	6.5975e-06	255.86	87.583	109.97	53.147	9.2308e-06	44.727	0.0024398	0.0027083	0.00076015	972.87	2.9284e-05	3.0336e-05	766.68	308.48	2.9049e-05	3.0298e-05	255.83	86.523	108.66	52.159	2.9216e-05	44.568	22.510	13.179	160.930	-158.577	-104.616	-13.411	-160.598	-153.897	-44.216	85.109	-156.909	-153.212	-150.217	-144.859	-69.545	-149.585	-8191	255	
1334.223	1	1	0	0	0.13427	0.13437	0.10605	0.41796	0.18094	0.24359	0.28698	0.38628	0.22975	0.11226	0.28733	0.25722	0.19772	0.2517	0.3422	0.22263	-0.45833	-1.9479	-1.05	-1.2729	-1.8146	-1.0104	-1.5708	-1.5792	-0.96667	-1.7833	-1.1417	-1.2563	-1.8146	-1.1542	-1.7458	-1.6	-77.219	120.348	8.308	-156.719	-152.018	-56.434	-164.577	82.005	40.328	-86.415	82.623	95.477	76.179	76.276	-54.133	118.787	0.0013742	0.0005946	0.00022344	1005.2	9.872e-06	1.1739e-05	794.33	319.84	1.7307e-05	4.4756e-06	257.64	87.894	109.85	53.35	1.9994e-06	45.374	0.002445	0.0026915	0.00076802	972.44	2.863e-05	3.0023e-05	767.28	308.56	2.8794e-05	3.0102e-05	256.58	87.025	108.66	52.244	2.9633e-05	44.814	22.208	-153.927	-87.919	-158.554	-41.024	-121.241	-160.308	-154.331	-60.057	32.146	-157.164	-153.160	-149.792	-144.877	96.367	-149.384	-8191	255	
1334.319	1	1	0	0	0.023654	0.1015	0.21663	0.2518	0.15477	0.37793	0.40402	0.18098	0.14808	0.022878	0.29292	0.085944	0.35837	0.20814	0.067018	0.27483	-0.52083	-1.6958	-1.0458	-1.2812	-1.7313	-1.0729	-1.4333	-2.0083	-1.0688	-1.6208	-1.3	-1.0771	-1.7938	-1.1792	-1.4271	-1.8208	-154.127	-84.112	-94.109	170.488	27.796	90.383	163.157	152.541	75.877	110.940	-42.156	121.312	155.713	-141.600	-88.361	163.502	0.0012471	0.00027937	8.1567e-05	1002.2	1.0348e-05	1.185e-05	797.6	318.9	1.6935e-05	4.8952e-06	257.62	87.857	109.53	53.633	8.9473e-06	44.93	0.0024411	0.0027512	0.00077626	971.02	2.937e-05	3.05e-05	771.28	308.24	2.9185e-05	3.0145e-05	257.52	86.955	108.72	52.315	2.9643e-05	44.505	34.169	19.678	-78.847	-158.574	20.998	82.048	-160.262	-154.120	-26.316	-163.798	-156.996	-152.823	-150.175	-144.962	-11.368	-150.027	-8191	255	
1334.415	1	1	0	0	0.25768	0.11443	0.27411	0.26684	0.13507	0.08257	0.098249	0.1009	0.13799	0.070934	0.16607	0.048966	0.097727	0.32398	0.2413	0.25896	-0.49792	-1.6292	-1.5562	-1.0458	-1.8188	-1.0146	-1.475	-1.6792	-0.86667	-1.5833	-1.5646	-1.125	-1.7146	-1.0167	-1.2396	-1.7229	-116.926	112.074	-152.229	143.491	79.255	-35.926	-112.079	37.675	186.798	175.963	164.558	-13.874	-115.638	-164.018	68.621	66.639	0.0014715	0.00069015	0.0001997	1009.4	1.5543e-05	7.0034e-06	787.7	320.31	2.899e-05	5.4247e-06	260.9	88.268	110.57	53.539	1.0142e-05	45.121	0.0024623	0.0027147	0.00076633	970.9	2.9185e-05	3.023e-05	767.67	309.45	2.8338e-05	3.0095e-05	259.54	87.292	109.08	52.469	2.8897e-05	45.016	29.145	100.759	-21.400	-158.464	-54.840	-131.115	-160.623	-154.404	-69.482	40.841	-156.763	-152.935	-150.144	-145.403	-123.277	-149.866	-8191	255	
1334.511	1	1	0	0	0.32166	0.25248	0.13915	0.48102	0.098723	0.14752	0.11055	0.030544	0.30683	0.13879	0.21188	0.034147	0.31098	0.15974	0.35412	0.30366	-0.52917	-1.5812	-1.7229	-1.2333	-1.7062	-1.2479	-1.1958	-1.7292	-0.85208	-1.7771	-1.5917	-0.94583	-1.9229	-1.3937	-1.2188	-1.8708	-72.419	-51.486	-124.996	-158.409	-19.904	-24.695	-81.521	7.005	184.478	-10.972	-69.717	187.043	-92.280	140.923	-40.365	-131.957	0.0014036	0.000382	0.0002644	1003.3	1.455e-05	6.4031e-06	795.2	323.23	2.1811e-05	1.2625e-05	263.73	89.111	110.29	53.968	1.277e-05	45.868	0.0023937	0.0026675	0.00075759	972.63	2.8838e-05	3.0167e-05	773.2	311.63	2.8799e-05	2.9858e-05	261.8	87.847	109.3	52.817	2.9105e-05	45.388	33.855	45.470	-121.382	-158.400	-7.347	-27.256	-160.102	-154.039	-65.334	-36.001	-156.495	-152.826	-150.163	-144.971	-81.046	-149.634	-8191	255	
1334.607	1	1	0	0	0.20773	0.12406	0.17442	0.14583	0.16338	0.10696	0.12211	0.084202	0.18513	0.11884	0.03454	0.25908	0.22193	0.3224	0.17945	0.3159	-0.6	-1.2208	-1.4813	-0.98333	-1.6396	-1.1938	-1.0792	-1.9104	-0.9375	-1.3604	-1.8875	-1.0729	-1.7687	-1.4583	-1.0063	-1.7125	6.455	43.409	136.346	-129.975	63.170	-105.827	187.312	146.620	122.781	-4.985	83.748	107.655	-98.923	79.958	-133.917	158.365	0.0011118	0.00061239	0.00017553	1010.7	1.078e-05	8.3884e-06	806.05	324.73	1.8748e-05	1.1515e-05	267.32	90.056	111.84	54.114	1.4102e-05	46.344	0.0024339	0.0027407	0.00075356	974.81	2.9549e-05	2.9938e-05	777.24	313.55	2.9166e-05	3.0159e-05	265.21	89.034	110.58	53.178	2.9546e-05	45.936	40.541	-18.242	-132.518	-158.746	-31.301	6.775	-160.439	-153.958	-56.509	91.367	-157.378	-152.882	-150.172	-145.570	4.324	-149.735	-8191	255	
1334.728	1	1	0	0	0.21853	0.08053	0.17781	0.16568	0.28894	0.19218	0.20947	0.24465	0.42231	0.10324	0.31025	0.30684	0.31728	0.27605	0.14859	0.30064	-0.4875	-1.25	-1.7021	-0.99583	-1.5396	-1.2542	-1.1938	-1.9625	-1.1812	-1.1437	-1.8333	-0.7	-1.4167	-1.55	-0.92083	-1.7625	93.287	-115.504	63.430	-88.584	102.771	78.369	-164.749	110.394	69.735	167.571	92.614	113.766	-141.109	179.690	26.458	94.903	0.0014774	0.00075473	0.00021818	1014.8	1.2718e-06	1.2476e-05	809.72	327.34	1.7364e-05	2.8861e-06	269.92	90.38	111.92	54.693	1.3545e-05	45.977	0.002485	0.0027055	0.00075104	978.12	2.906e-05	3.0126e-05	783.31	315.06	2.9141e-05	3.0371e-05	266.52	89.098	110.55	53.277	2.9609e-05	45.612	37.672	-24.588	-79.357	-158.668	-146.933	-80.355	-160.549	-153.913	-68.365	-102.506	-157.149	-153.012	-149.993	-145.489	-11.495	-149.666	-8191	255	
1334.824	1	1	0	0	0.20946	0.15743	0.12439	0.38084	0.052076	0.18832	0.44744	0.12607	0.21225	0.081444	0.076264	0.15529	0.16217	0.061281	0.35425	0.14211	-0.82292	-0.81458	-1.6375	-1.0667	-1.4229	-1.6854	-1.0125	-1.6917	-1.1729	-1.0938	-1.8542	-1.0312	-1.3583	-1.5146	-0.89167	-1.7021	68.220	-34.610	145.561	-135.214	-62.849	-67.399	170.080	-151.258	-92.145	15.190	8.687	172.686	155.903	-79.005	-150.396	184.121	0.0011622	0.0016404	0.00022853	1018.3	5.1005e-06	1.015e-05	800.96	324.15	2.8936e-05	8.9355e-06	268.38	90.178	112.13	54.533	6.018e-06	46.016	0.002447	0.0027054	0.00075684	981.39	2.9711e-05	3.0164e-05	776.39	314.42	2.8898e-05	3.0278e-05	266.21	89.16	111.01	53.269	2.9585e-05	45.699	29.373	-44.318	3.073	-158.986	-54.095	-0.223	-160.612	-154.184	-57.654	-11.551	-157.303	-153.145	-150.116	-145.412	-33.818	-149.871	-8191	255	
1334.920	1	1	0	0	0.16701	0.082648	0.092206	0.16744	0.11618	0.18108	0.33715	0.047	0.015141	0.10431	0.12199	0.30682	0.21476	0.1302	0.16239	0.14706	-1.0167	-0.96875	-1.6187	-1.0958	-1.2167	-1.7146	-1.1896	-1.8771	-1.4708	-0.84167	-1.9146	-1.0896	-1.3771	-1.7729	-1.0458	-1.6646	-150.859	-116.648	63.118	-93.102	77.446	-142.787	-139.822	25.595	-92.168	-142.439	-24.925	-108.623	153.244	118.515	-38.361	4.504	0.0013005	0.00072161	0.00024809	1011.8	1.9769e-06	9.7e-06	811.37	325.44	1.2269e-05	6.9724e-06	268.62	91.014	111.72	54.538	4.3251e-06	46.232	0.0024313	0.0027525	0.0007645	975.82	2.9848e-05	3.0481e-05	778.8	315.35	2.9542e-05	3.0798e-05	266.89	89.609	110.99	53.267	2.9563e-05	45.9	36.799	-42.488	-73.327	-158.764	-59.464	-20.055	-160.522	-154.312	-20.366	8.411	-157.013	-153.221	-149.935	-145.528	-80.471	-149.731	-8191	255	
1335.016	1	1	0	0	0.314	0.19608	0.28715	0.27843	0.31105	0.19431	0.11704	0.30199	0.29138	0.1176	0.18772	0.13838	0.19258	0.26394	0.29534	0.083102	-0.99167	-0.87917	-1.6313	-1.1875	-1.1729	-1.7625	-0.975	-1.55	-1.5396	-1.1604	-1.6938	-1.2167	-1.2583	-1.7188	-0.92292	-1.4896	-75.526	125.319	167.298	120.155	151.599	140.994	168.689	182.817	-53.068	-46.701	-39.589	144.246	-109.627	124.042	69.617	11.839	0.0014487	0.00055095	1.964e-05	1018.4	1.5111e-05	3.6743e-06	810.1	326.26	5.8557e-06	7.7454e-06	268.51	91.343	111.86	54.671	5.9083e-06	46.625	0.0024413	0.0027268	0.00076448	980.13	2.9077e-05	3.0135e-05	782.78	315.53	2.9104e-05	3.0629e-05	268	90.252	111.26	53.324	2.9565e-05	46.21	21.606	-117.211	92.516	-159.101	7.515	-70.335	-161.113	-154.235	121.065	-93.839	-157.077	-153.284	-149.756	-145.284	178.642	-149.701	-8191	255	
1335.111	1	1	0	0	0.038833	0.41339	0.051499	0.19036	0.22545	0.14971	0.31739	0.072435	0.19387	0.063179	0.19244	0.25095	0.34525	0.13919	0.26112	0.24589	-1.1146	-0.55417	-1.5333	-1.4438	-1.1625	-1.6479	-0.95417	-1.3458	-1.5625	-0.83333	-1.7188	-1.3167	-0.95417	-1.6938	-0.86875	-1.4312	113.052	-124.999	90.444	94.288	108.122	-35.612	147.346	105.016	133.069	141.235	67.112	-152.177	177.989	165.951	11.324	181.767	0.001567	0.00057674	0.00025167	1012.7	8.8098e-06	5.1606e-06	811.11	325.87	2.0562e-05	4.6039e-06	272.1	91.041	112.72	54.525	1.4956e-05	46.426	0.0024601	0.0027586	0.00076773	979.62	2.95e-05	3.0573e-05	783.18	315.6	2.9257e-05	3.0753e-05	269.14	90.016	111.27	53.371	2.9958e-05	45.892	26.718	-0.389	-84.683	-158.986	-31.315	1.979	-160.587	-154.115	-35.756	-94.904	-156.840	-153.537	-150.249	-145.500	-35.993	-149.588	-8191	255	
1335.207	1	1	0	0	0.14498	0.35864	0.18246	0.21114	0.31215	0.202	0.1884	0.13577	0.091228	0.23399	0.067403	0.16716	0.15422	0.19444	0.17814	0.36735	-1.2021	-0.8125	-1.7062	-1.4562	-0.89167	-1.7771	-1.2437	-1.4021	-1.4708	-1.1437	-1.675	-1.3792	-0.87708	-1.7229	-1.1292	-1.3917	-119.800	163.129	139.693	183.929	129.592	-153.321	156.200	-25.786	40.764	-78.491	-135.122	80.958	79.834	152.887	33.324	171.582	0.0012693	0.00084352	0.00022407	1008.6	1.3872e-05	4.906e-06	809.2	326.19	4.5922e-06	1.6848e-05	272.77	90.772	112.1	54.82	3.1871e-06	46.1	0.0024613	0.0027565	0.00077302	975.13	2.947e-05	3.0436e-05	782.43	315.9	2.896e-05	2.9894e-05	269.12	89.757	111.07	53.653	2.9501e-05	46.233	23.985	-89.311	49.582	-159.159	-26.973	-7.701	-160.927	-154.378	-158.766	2.359	-157.207	-153.319	-150.208	-145.418	14.026	-150.123	-8191	255	
1335.305	1	1	0	0	0.19313	0.23946	0.18064	0.2552	0.24751	0.065956	0.28829	0.18004	0.20047	0.16254	0.11284	0.15882	0.050778	0.1841	0.38437	0.2205	-1.1854	-0.82083	-1.4896	-1.4333	-1.0979	-1.5875	-1.4625	-1.2	-1.7771	-1.1167	-1.2375	-1.5479	-0.75833	-1.7604	-1.3375	-1.1167	76.241	52.087	-119.247	180.347	-1.284	-62.574	151.059	138.731	3.361	-5.199	123.570	-56.169	-123.844	148.007	64.256	86.457	0.001655	0.00053189	0.00017054	1011.4	3.5125e-06	1.5161e-05	812.22	328.76	1.1047e-05	9.045e-06	270.98	92.301	113.34	55.318	6.9415e-06	47.409	0.0024653	0.0027531	0.00078661	979.85	3.0098e-05	3.0874e-05	785.18	317.38	3.0513e-05	3.2528e-05	270.48	91.433	112.67	54.421	3.2654e-05	47.213	23.483	-37.062	10.374	-159.366	169.946	-62.470	-160.773	-154.384	13.819	-61.222	-156.754	-153.475	-150.564	-145.552	7.878	-149.868	-8191	255	
1335.424	1	1	0	0	0.078604	0.060187	0.13939	0.14663	0.40575	0.13009	0.076944	0.29581	0.16063	0.14465	0.14685	0.41937	0.20102	0.23224	0.33104	0.091037	-1.1354	-0.8	-1.2125	-1.7708	-0.78125	-1.6625	-1.4813	-0.91667	-1.75	-0.96667	-1.4292	-1.8188	-0.90417	-1.8292	-1.425	-1.0896	123.584	62.711	-38.755	163.232	40.688	66.963	-80.509	155.264	-146.781	-151.681	70.881	176.046	-43.085	79.756	-57.449	-60.061	0.0015857	0.00098437	8.0211e-05	1013.2	1.7714e-05	1.788e-05	810.3	327.68	1.5423e-05	7.8353e-06	274.18	93.142	115	55.81	8.271e-06	48.053	0.0026794	0.003064	0.00084863	981.51	3.2203e-05	3.3086e-05	789.05	318.68	3.1803e-05	3.3259e-05	274.75	92.753	113.97	54.728	3.1862e-05	47.843	29.849	-107.194	140.369	-159.239	-6.109	-19.865	-161.022	-154.594	-52.972	75.935	-156.950	-153.552	-150.479	-145.264	-28.640	-149.858	-8191	255	
1335.495	1	1	0	0	0.38438	0.17088	0.24124	0.32403	0.21118	0.18221	0.16631	0.35741	0.18176	0.14385	0.033916	0.26219	0.21852	0.30895	0.08488	0.14627	-1.375	-1.0125	-1.1479	-1.8021	-1.05	-1.5125	-1.5562	-1.1417	-1.7062	-1.225	-1.1417	-1.8542	-1.0042	-1.5042	-1.5521	-1.1417	-135.828	-11.731	186.182	175.664	32.459	-149.838	59.795	157.825	36.230	-65.881	125.381	136.000	138.198	187.662	4.016	-19.942	0.0013169	0.00092495	0.00030331	1019.8	1.1976e-05	3.5763e-06	811.21	332.16	1.1023e-05	7.3283e-06	278.77	94.337	115.18	55.967	9.1262e-06	47.687	0.0026753	0.0030214	0.00085311	986.35	3.1855e-05	3.3079e-05	791.62	321.51	3.1679e-05	3.2851e-05	276.41	93.375	114.33	54.964	3.1897e-05	47.589	29.918	-112.928	-31.370	-159.170	-32.464	-11.687	-160.663	-154.105	130.001	19.990	-157.347	-153.517	-150.479	-145.140	-57.118	-149.971	-8191	255	
1335.591	1	1	0	0	0.39859	0.076948	0.13899	0.17338	0.19836	0.19977	0.14094	0.096304	0.083807	0.19457	0.15151	0.13407	0.17167	0.2048	0.35852	0.11549	-1.3	-1.2896	-1.1854	-1.8208	-0.92917	-1.5396	-1.7292	-0.9375	-1.6208	-1.2333	-1.2875	-1.8292	-1.0187	-1.4021	-1.8021	-0.99583	74.595	-1.634	-29.369	-70.219	-21.059	185.404	151.494	168.926	-32.734	150.516	140.706	130.875	102.467	-100.569	-163.543	-93.516	0.0013537	0.00071597	3.3041e-05	1018.5	1.0134e-05	4.9277e-06	810.78	329.44	2.0602e-05	3.9294e-06	274.95	93.368	115.2	56.268	7.2322e-06	47.927	0.0026711	0.0029893	0.00083715	987.04	3.2407e-05	3.3624e-05	787.33	320.39	3.2195e-05	3.3548e-05	273.98	92.714	113.92	54.996	3.202e-05	47.604	31.030	-107.097	27.098	-159.069	-37.814	127.214	-160.612	-154.238	-6.864	2.803	-157.439	-153.334	-150.368	-145.437	22.134	-149.305	-8191	255	
1335.688	1	1	0	0	0.13645	0.052923	0.17944	0.063408	0.099803	0.30512	0.043142	0.18373	0.26471	0.13678	0.28772	0.13568	0.063086	0.12744	0.34612	0.19382	-1.0312	-1.3333	-1.1292	-1.8208	-0.97708	-1.3354	-1.6583	-1.1437	-1.5375	-1.2833	-0.75833	-1.6313	-1.3167	-1.2854	-1.7229	-1.1042	42.860	-11.554	95.233	24.409	119.491	-15.932	-122.454	122.343	1.049	3.917	139.733	-13.790	-117.030	164.161	25.829	93.100	0.001142	0.0005706	0.00020156	1018.6	9.4381e-06	8.4435e-06	812.01	331.67	1.6226e-05	8.2942e-06	276.09	94.167	114.85	55.93	1.0937e-05	47.558	0.0026457	0.0030022	0.00082785	982.1	3.1593e-05	3.2521e-05	789.77	319.93	3.1401e-05	3.2592e-05	275.02	93.361	113.9	54.865	3.1708e-05	47.54	29.286	-79.059	130.920	-158.876	-76.219	19.933	-160.740	-153.929	-43.311	98.839	-156.739	-153.264	-150.290	-145.117	45.703	-149.732	-8191	255	
1335.808	1	1	0	0	0.06166	0.2787	0.078557	0.11832	0.093399	0.12923	0.34512	0.42622	0.30537	0.22377	0.12355	0.27229	0.21595	0.067294	0.014325	0.34329	-1.0396	-1.2479	-0.77708	-1.8792	-1.2125	-1.0708	-1.7521	-0.92917	-1.2646	-1.4583	-0.75625	-1.7938	-1.1292	-0.96042	-1.7208	-1.1979	-161.548	101.390	-14.569	147.166	159.162	116.102	153.556	93.523	134.456	-169.827	77.019	165.658	127.901	-46.588	86.769	158.828	0.0016895	0.00070522	0.00038986	1014.2	9.0892e-06	6.8966e-06	816.81	331.02	5.0314e-06	8.3169e-06	277.34	92.885	114.43	55.652	9.5419e-06	47.7	0.0026348	0.0029341	0.00081492	984.13	3.1771e-05	3.2822e-05	791.89	320.06	3.1302e-05	3.1904e-05	275.43	92.439	113.57	54.551	3.1873e-05	47.603	42.570	-32.515	-73.734	-158.989	-12.696	-125.238	-160.660	-154.373	-66.097	-105.833	-157.236	-153.372	-150.180	-144.964	-63.740	-149.887	-8191	255	
1335.904	1	1	0	0	0.16726	0.31469	0.16025	0.28153	0.21232	0.10039	0.11085	0.41275	0.1687	0.11235	0.13477	0.33478	0.04536	0.22304	0.23837	0.20521	-1.0562	-1.6583	-0.8625	-1.6542	-1.3458	-0.97917	-1.9771	-1.1458	-1.2563	-1.7354	-0.93333	-1.65	-1.6146	-1.2	-1.8021	-0.97708	56.911	-56.751	124.423	-160.026	140.378	-35.554	-7.268	94.314	8.549	-124.511	-157.820	159.903	-151.241	111.240	-49.936	158.698	0.0011826	0.00060259	0.00034983	1018.9	2.6321e-06	1.0575e-06	812.15	328.94	1.1156e-05	6.4742e-06	274.35	92.992	114.16	55.397	4.8985e-06	47.239	0.0026321	0.0029489	0.00082797	985.91	3.1678e-05	3.2645e-05	791.17	319.51	3.1161e-05	3.2693e-05	274.78	92.423	112.99	54.345	3.153e-05	47.03	19.318	-114.249	-117.760	-159.041	137.216	-17.404	-160.896	-154.047	-115.186	8.567	-157.199	-153.073	-150.087	-145.206	43.546	-149.841	-8191	255	
1336.001	1	1	0	0	0.33515	0.21768	0.049676	0.071653	0.065114	0.1229	0.24291	0.29551	0.057293	0.14489	0.065779	0.1232	0.33004	0.17361	0.17872	0.15297	-0.84792	-1.8083	-0.76667	-1.6375	-1.4188	-0.66458	-1.7229	-1.4604	-1.0917	-1.7354	-1.2375	-1.6271	-1.4438	-1.175	-1.7229	-1.1688	119.979	170.923	31.161	142.314	-19.889	-121.048	-115.852	87.668	-153.132	87.467	-41.861	115.048	95.183	152.325	173.080	131.124	0.0015431	0.00018538	0.00034447	1016.4	3.1586e-06	2.9585e-06	811.08	327.49	8.1399e-06	2.2816e-05	274.69	92.02	113.45	55.016	6.9067e-06	46.524	0.0025889	0.0029083	0.00081121	979.96	3.0656e-05	3.213e-05	784.01	317.77	3.0468e-05	3.1362e-05	271.83	91.363	112.45	53.979	3.1187e-05	46.454	33.044	-22.989	-134.093	-158.722	28.806	173.205	-160.544	-154.370	-54.827	1.848	-156.941	-152.867	-150.285	-145.215	-3.261	-149.879	-8191	255	
1336.119	1	1	0	0	0.064011	0.077618	0.39419	0.15057	0.20777	0.068276	0.27692	0.28976	0.17454	0.034757	0.11466	0.26893	0.23236	0.1203	0.23304	0.47124	-0.70833	-1.725	-0.96667	-1.525	-1.4625	-0.87917	-1.7938	-1.3354	-0.95417	-1.7792	-0.9875	-1.3917	-1.6042	-1.0833	-1.5979	-1.2437	143.213	-49.915	85.903	75.717	-28.638	132.320	87.695	134.898	-61.049	39.888	16.440	-151.196	-106.068	-170.166	-156.296	145.576	0.0011688	0.00085204	0.00018377	1016.6	2.9511e-06	4.3642e-06	812.07	327.2	2.7962e-05	4.8666e-06	271.71	92.413	114.11	54.682	8.6267e-06	46.488	0.0025907	0.0029029	0.00080294	979.93	3.0866e-05	3.1872e-05	782.55	316.84	3.049e-05	3.1846e-05	271.15	91.491	112.52	53.687	3.0395e-05	46.483	37.389	-157.075	-140.230	-158.582	-2.219	114.866	-160.491	-154.351	-3.203	92.366	-156.831	-153.142	-150.570	-145.630	-25.783	-150.170	-8191	255	
1336.191	1	1	0	0	0.0051962	0.051254	0.11957	0.23125	0.1634	0.3076	0.25544	0.17597	0.24264	0.071209	0.17359	0.29821	0.035038	0.15808	0.12863	0.45393	-0.64375	-1.5875	-1.2042	-1.35	-1.6688	-1.1146	-1.6729	-1.3708	-1.1271	-1.7604	-1.2271	-1.2979	-1.7396	-0.84583	-1.6167	-1.5021	-98.079	-22.965	131.988	172.403	-1.652	75.906	94.111	175.827	77.922	44.303	139.558	-19.550	176.465	149.333	83.955	-156.616	0.0016817	0.00061265	0.00027022	1015.9	7.2378e-06	7.4582e-07	806	325.38	1.8541e-05	1.1378e-05	272.78	92.177	112.74	54.542	6.7899e-06	46.673	0.0025602	0.0028649	0.00080469	978.88	3.0647e-05	3.1713e-05	780.8	315.31	3.0447e-05	3.1695e-05	271.96	91.387	112.01	53.477	3.0499e-05	46.557	29.698	-57.996	-61.710	-158.837	1.042	9.142	-160.697	-154.434	-68.114	97.642	-156.977	-153.189	-150.176	-145.570	-93.042	-149.770	-8191	255	
1336.289	1	1	0	0	0.33484	0.12344	0.081236	0.30832	0.12795	0.20094	0.27729	0.096703	0.22322	0.17836	0.081901	0.22658	0.099322	0.17489	0.17203	0.38631	-0.56667	-1.6208	-1.0875	-1.2875	-1.5604	-0.8375	-1.5667	-1.7333	-0.98958	-1.6625	-1.3062	-0.93125	-1.7333	-1.1979	-1.4458	-1.4708	114.122	-125.086	43.576	133.204	176.084	99.450	62.192	-106.312	-171.262	-83.343	-60.572	124.862	-165.097	-98.833	65.731	64.437	0.0011455	0.00044869	0.00018076	1006.7	1.2977e-05	4.9238e-06	810.38	327.98	2.073e-05	1.2979e-05	275.41	92.772	113.12	54.947	1.1518e-05	47.192	0.0025036	0.0028174	0.00078126	973.46	2.9818e-05	3.0959e-05	784.12	316.07	2.979e-05	3.0954e-05	273.23	91.808	111.84	53.783	3.0234e-05	46.672	35.895	-47.460	-34.764	-158.576	-112.766	-92.009	-160.358	-154.392	-33.316	14.516	-157.346	-153.244	-150.449	-145.180	-58.521	-150.144	-8191	255	
1336.408	1	1	0	0	0.2103	0.14254	0.29168	0.25131	0.17856	0.11899	0.23469	0.12269	0.20266	0.083168	0.12422	0.11773	0.073218	0.15077	0.077262	0.17448	-0.39167	-1.7917	-1.1708	-1.1604	-1.6812	-0.9	-1.4292	-1.8083	-0.92917	-1.6667	-1.4229	-0.99167	-1.7521	-1.1208	-1.2229	-1.7479	101.287	53.243	-126.824	140.291	-119.909	177.131	163.177	100.594	-26.592	-54.032	109.766	-106.478	74.177	148.179	-130.736	94.781	0.0013528	0.00024513	8.3719e-05	1008.6	8.2967e-06	3.7976e-06	807.03	326.28	1.3677e-05	2.2895e-06	269.68	91.228	112.09	54.476	1.3167e-05	46.207	0.0025258	0.0028126	0.00079578	977.96	3.0233e-05	3.1709e-05	781.31	315.19	2.9994e-05	3.1103e-05	269.14	90.285	110.91	53.4	3.03e-05	46.005	27.900	148.943	-46.627	-158.787	-76.248	-22.451	-160.063	-153.943	-64.119	-4.527	-156.831	-152.669	-149.707	-144.848	-88.387	-149.928	-8191	255	
1336.504	1	1	0	0	0.20497	0.21114	0.32919	0.32844	0.21953	0.10888	0.3274	0.35868	0.15194	0.088692	0.24379	0.23029	0.35749	0.14149	0.064948	0.25632	-0.33333	-1.6208	-1.4646	-1.1792	-1.6208	-1.1271	-1.4604	-1.8292	-0.87917	-1.4813	-1.4271	-1.0146	-1.7375	-1.3062	-1.2271	-1.6042	-97.358	-147.824	-27.999	139.583	-124.699	-7.294	126.090	62.705	6.213	34.861	-151.383	159.102	155.716	106.462	-166.782	-134.071	0.0011303	0.00049953	0.00017165	1008.7	1.4644e-05	6.6976e-06	801.08	323.8	1.0809e-05	1.34e-05	272.19	90.319	111.08	54.031	9.4174e-06	45.895	0.0025038	0.0027913	0.0007858	973.8	2.9694e-05	3.0721e-05	777.62	313.56	3.0092e-05	3.0781e-05	268.77	90.173	110.45	52.822	2.9722e-05	45.807	25.238	-48.526	-62.569	-158.448	-57.157	23.961	-159.899	-153.898	51.611	-73.452	-156.644	-152.581	-149.355	-144.927	-152.738	-149.232	-8191	255	
1336.600	1	1	0	0	0.20694	0.14061	0.17954	0.35295	0.11606	0.057358	0.069559	0.21651	0.16521	0.086866	0.21965	0.22715	0.12213	0.2752	0.20244	0.32829	-0.55208	-1.4667	-1.4688	-0.98542	-1.6875	-1.3188	-1.3729	-1.7146	-1.0271	-1.325	-1.7437	-0.92083	-1.6729	-1.3458	-0.80833	-1.7833	-55.798	60.625	130.966	177.624	156.585	73.249	-150.152	-126.035	0.249	52.662	-170.028	-154.509	-143.075	91.256	168.609	161.305	0.001246	0.00065918	0.0002066	1000.9	9.4555e-06	8.0719e-06	807.57	325.37	2.6158e-05	1.5595e-05	270.78	91.073	111.05	53.51	1.0337e-05	45.97	0.0024641	0.0027239	0.00076522	969.09	2.9522e-05	3.0677e-05	777.55	313.14	2.9197e-05	3.0599e-05	268.98	90.151	110.21	52.491	2.9566e-05	45.73	25.566	-136.839	19.840	-158.603	43.967	-24.368	-160.475	-154.128	34.258	-81.388	-156.955	-152.719	-149.849	-144.891	-44.944	-149.581	-8191	255	
1336.721	1	1	0	0	0.20426	0.062765	0.13944	0.3196	0.20281	0.29063	0.29822	0.26916	0.2001	0.091465	0.18306	0.049466	0.18694	0.029089	0.068669	0.072431	-0.34167	-1.1979	-1.4875	-1.0833	-1.5896	-1.2104	-1.1479	-1.7812	-1.1875	-1.3	-1.6458	-0.92708	-1.5979	-1.4792	-1.0438	-1.9	-121.941	176.039	19.364	139.717	11.577	91.534	70.884	-163.585	-91.827	-11.486	112.935	29.320	-61.510	6.948	-152.801	155.961	0.0017881	0.0010812	0.00024871	1004.7	1.7972e-05	3.4123e-06	806.53	320.8	2.1348e-05	6.6787e-06	271.05	91.824	111.02	53.606	1.0151e-05	45.832	0.0024582	0.0027306	0.0007735	968.08	2.9028e-05	3.0428e-05	778.32	311.52	2.8809e-05	3.0056e-05	269.38	90.286	109.85	52.315	2.9496e-05	45.429	28.053	187.572	-43.215	-158.332	-73.663	17.800	-160.114	-153.763	-47.310	34.574	-156.322	-152.973	-149.402	-144.732	-41.670	-149.300	-8191	255	
1336.792	1	1	0	0	0.16333	0.065011	0.22652	0.29792	0.08429	0.20765	0.30228	0.11573	0.062799	0.35273	0.13018	0.30154	0.46933	0.37209	0.22266	0.077133	-0.63333	-1.2479	-1.6729	-0.88125	-1.4937	-1.3542	-1.2271	-1.6292	-0.95417	-1.1688	-1.6625	-1.0354	-1.4979	-1.5729	-0.87917	-1.6167	-50.655	151.510	-115.036	130.956	174.821	145.186	99.392	153.270	141.341	-90.408	-119.281	107.055	-88.139	163.724	-164.394	-80.586	0.0014069	0.00093327	0.00011161	1001.1	3.9043e-06	1.4194e-05	799.19	322.12	1.3139e-05	3.2155e-06	266.37	89.826	110.39	52.998	5.401e-06	44.955	0.0024087	0.00267	0.00075229	966.31	2.8833e-05	2.9376e-05	774.58	310.31	2.84e-05	2.9401e-05	264.31	88.782	109.01	51.773	2.8686e-05	44.594	27.883	-147.289	34.788	-158.257	-55.955	-12.720	-159.906	-153.706	-123.721	173.723	-156.858	-152.480	-149.695	-144.864	-60.366	-149.235	-8191	255	
1336.889	1	1	0	0	0.21163	0.28797	0.22728	0.14425	0.29757	0.23433	0.20026	0.10327	0.077674	0.027305	0.17846	0.15486	0.019921	0.23393	0.15862	0.059878	-0.6625	-0.84792	-1.4396	-0.81875	-1.3833	-1.475	-0.81042	-1.8188	-1.2542	-0.99583	-1.6542	-1.1146	-1.3917	-1.7854	-0.81458	-1.5562	20.920	20.476	-135.430	184.554	-55.676	-108.602	177.797	59.509	-136.586	-134.741	183.981	-141.986	-86.803	-159.885	131.693	124.654	0.0014153	0.00019044	0.00023823	999.76	8.3024e-06	8.0283e-06	795.07	319.59	2.3196e-05	1.7547e-06	262.88	89.55	110.2	53.073	1.5424e-05	44.977	0.0024124	0.0026601	0.00074994	965.41	2.8774e-05	2.9793e-05	771.72	309.64	2.8862e-05	2.9815e-05	262.41	88.527	109	51.903	3.0143e-05	44.83	20.818	121.477	-41.688	-158.674	-26.412	77.478	-160.059	-153.897	-48.804	116.314	-157.342	-153.437	-149.984	-145.404	-61.478	-149.520	-8191	255	
1336.985	1	1	0	0	0.13085	0.068177	0.42374	0.4016	0.17406	0.17747	0.12848	0.27113	0.19715	0.17065	0.21959	0.071504	0.35121	0.16399	0.23179	0.28302	-0.89792	-0.9125	-1.6313	-1.0396	-1.2979	-1.6854	-0.87083	-1.7354	-1.3813	-0.86667	-1.6313	-0.99583	-1.225	-1.7917	-1.1	-1.7396	-2.982	109.092	176.773	158.813	-27.360	-18.724	-166.473	137.002	101.867	41.763	180.742	66.697	-136.043	178.158	30.928	113.246	0.0012662	0.00084713	0.00029231	998.13	5.6232e-06	9.7021e-06	794.12	315.89	1.9809e-05	6.4958e-06	261.34	88.032	108.41	52.456	9.663e-06	44.711	0.0024651	0.0027726	0.00076983	964.11	2.9525e-05	3.0804e-05	768.27	307.68	2.9835e-05	3.0411e-05	260.84	87.248	107.45	51.443	2.9627e-05	44.463	33.175	-56.012	-100.008	-158.815	14.354	23.232	-160.368	-153.911	-20.780	43.224	-156.622	-152.710	-149.995	-145.348	-35.092	-149.609	-8191	255	
1337.104	1	1	0	0	0.27213	0.35526	0.081678	0.16841	0.38115	0.12461	0.29372	0.1803	0.19322	0.22793	0.34514	0.18995	0.064938	0.097254	0.19512	0.2472	-0.91667	-0.80208	-1.625	-1.1167	-1.0063	-1.9333	-1.1437	-1.5708	-1.4104	-1.0167	-1.7188	-1.1354	-1.0042	-1.8667	-1.0792	-1.3937	23.572	119.033	13.469	177.449	-96.612	21.072	142.457	155.562	-47.056	79.058	96.795	-77.460	6.988	142.375	46.920	96.495	0.0013576	0.00017317	0.00035615	1002.5	4.8469e-06	8.0854e-06	793.1	317.46	1.7281e-05	9.4901e-06	261.95	87.132	108.4	52.042	1.0242e-05	44.381	0.0023997	0.0026966	0.00076681	964.54	2.8966e-05	3.0351e-05	768.28	307.51	2.8844e-05	3.0503e-05	259.77	86.332	107.03	51.102	2.8778e-05	44.162	25.451	-46.743	-124.496	-158.693	-73.159	75.689	-160.639	-154.016	-26.269	14.013	-156.781	-153.202	-149.873	-144.799	24.155	-149.518	-8191	255	
1337.200	1	1	0	0	0.088714	0.13037	0.34313	0.1079	0.26212	0.25162	0.05699	0.13687	0.28585	0.046748	0.24866	0.056511	0.17217	0.26436	0.20744	0.14933	-1.0708	-0.81042	-1.5354	-1.2125	-0.97917	-1.5354	-1.0312	-1.3583	-1.5479	-1.1479	-1.6021	-1.2958	-1.0417	-1.7917	-1.1646	-1.3229	-93.012	-114.926	122.133	85.570	-16.039	121.631	143.732	179.972	20.994	-134.351	-16.368	28.372	175.334	168.083	-68.064	109.827	0.0016986	0.0013624	0.0003162	998.91	7.0451e-07	5.1252e-06	793.58	316.24	7.311e-06	1.2905e-05	257.34	85.909	107.16	51.641	1.3244e-05	43.827	0.0023773	0.0026779	0.00073852	964.52	2.8406e-05	2.9546e-05	765.56	305.91	2.8438e-05	2.9975e-05	255.42	85.358	105.92	50.753	2.9096e-05	43.462	33.900	-138.100	-59.499	-159.201	87.495	139.205	-160.508	-154.182	26.630	7.683	-156.967	-153.028	-149.962	-145.244	19.353	-150.051	-8191	255	
1337.296	1	1	0	0	0.057034	0.42523	0.28472	0.21689	0.11287	0.052249	0.23522	0.12583	0.28331	0.24572	0.19665	0.11955	0.27444	0.16667	0.33413	0.18261	-1.2812	-0.9875	-1.2917	-1.4125	-0.88125	-1.7875	-1.2313	-1.3854	-1.6375	-1.0021	-1.6313	-1.5042	-0.98125	-1.7938	-1.0562	-1.0917	-49.516	-141.803	-36.567	-114.325	-71.980	-21.815	138.871	117.196	19.422	-84.527	44.798	154.829	155.584	121.208	115.457	184.626	0.0011368	0.00089585	0.00022931	996.15	3.1862e-06	5.6171e-06	785.66	314.99	2.3176e-05	1.0637e-05	256.84	86.005	106.22	51.733	1.0663e-05	43.838	0.0023644	0.0026568	0.00074184	959.8	2.8286e-05	2.9442e-05	759.14	303.54	2.7981e-05	2.9513e-05	253.14	84.674	105.33	50.76	2.8616e-05	43.658	31.667	167.212	-77.036	-158.928	-105.466	-119.952	-160.927	-154.045	-13.954	-105.261	-157.027	-153.599	-150.189	-145.575	-45.588	-149.941	-8191	255	
1337.392	1	1	0	0	0.3002	0.18134	0.075025	0.25699	0.26774	0.23305	0.3408	0.27731	0.35218	0.2818	0.30052	0.18453	0.17514	0.37582	0.095872	0.12526	-1.1542	-1.0312	-1.4333	-1.525	-1.1146	-1.6167	-1.275	-1.4208	-1.7042	-1.0167	-1.3896	-1.6333	-1.1354	-1.9854	-1.3229	-1.0146	153.878	-131.054	-40.487	183.291	-58.493	95.926	137.294	159.734	-154.783	167.343	145.798	107.191	173.875	125.035	-33.805	178.205	0.0011715	7.8546e-05	0.00016486	992.3	4.6808e-06	1.2825e-05	784.97	312.44	2.4953e-05	9.5092e-06	255.58	86.243	106.14	51.606	1.3149e-05	43.767	0.0023557	0.002634	0.00073727	956.79	2.8277e-05	2.9158e-05	760.15	302.13	2.823e-05	2.9502e-05	254.29	84.965	105.13	50.447	2.8105e-05	43.506	45.326	-38.481	8.317	-159.105	41.958	40.358	-160.921	-154.098	0.246	12.908	-157.331	-153.589	-150.075	-145.588	-60.639	-150.103	-8191	255	
1337.488	1	1	0	0	0.12378	0.15568	0.087738	0.21576	0.153	0.031474	0.20212	0.37603	0.16933	0.084193	0.1418	0.3381	0.092239	0.30018	0.29075	0.25934	-1.3708	-1.0063	-1.3729	-1.9208	-0.88542	-1.4729	-1.5875	-1.0688	-1.7167	-1	-1.3833	-1.6833	-0.91875	-1.7333	-1.475	-1.125	75.977	-40.401	169.234	137.341	119.901	-150.684	101.073	88.154	0.524	-70.567	90.975	183.343	53.367	162.285	3.494	-152.882	0.0012074	0.0005861	0.00016908	987.49	3.4944e-06	1.1326e-05	789.58	310.98	6.9242e-06	6.9887e-06	255.9	85.419	106.21	51.151	1.5779e-06	43.727	0.0023355	0.002614	0.00073398	952.93	2.7854e-05	2.8915e-05	764.49	300.18	2.7646e-05	2.8516e-05	253.03	84.827	104.69	50.114	2.7713e-05	43.315	20.007	-57.581	-23.328	-159.115	-39.075	-46.853	-160.433	-154.232	-12.659	-112.543	-157.119	-153.298	-150.291	-144.954	30.046	-150.065	-8191	255	
1337.584	1	1	0	0	0.33398	0.054571	0.095137	0.31515	0.22418	0.090395	0.045876	0.090553	0.27226	0.094085	0.29143	0.13858	0.35881	0.085073	0.14108	0.17586	-1.2417	-1.1333	-0.95833	-1.8167	-1.0187	-1.3312	-1.4542	-0.96667	-1.4979	-1.1167	-1.2104	-1.8146	-1.0479	-1.7479	-1.5375	-0.98333	-12.154	105.573	167.237	-144.822	-143.569	52.158	111.017	5.969	-37.589	151.488	138.343	-0.191	-118.314	130.589	141.732	-83.885	0.0013329	0.00076376	0.00036188	988.46	8.3476e-06	8.2342e-06	780.53	310.37	1.4365e-05	3.8561e-06	249.4	84.731	104.37	50.63	9.235e-06	42.94	0.0023079	0.0025776	0.00072378	953.16	2.7394e-05	2.8586e-05	755.44	299.42	2.766e-05	2.8448e-05	248.3	83.569	103.41	49.627	2.7529e-05	42.551	31.979	106.569	-47.363	-159.231	-8.604	2.041	-160.676	-154.376	-93.109	-77.791	-157.288	-153.277	-150.304	-145.269	-17.454	-149.795	-8191	255	
1337.681	1	1	0	0	0.056611	0.062878	0.056801	0.30879	0.21718	0.20161	0.21795	0.1151	0.17471	0.12237	0.031665	0.15477	0.17823	0.1945	0.19253	0.1855	-1.2417	-1.2083	-1.2583	-1.7021	-0.92917	-1.2333	-1.7625	-0.88958	-1.5896	-1.3813	-1.0688	-1.6771	-0.96458	-1.2062	-1.55	-1.1229	-38.315	-54.855	158.923	155.219	36.664	-49.311	-61.576	-122.759	-42.380	100.003	84.831	169.229	-49.634	-33.797	36.332	153.950	0.0013061	0.00080033	0.00012242	983.42	5.6792e-06	5.6832e-06	772.73	308.34	3.2212e-05	8.8136e-06	248.95	84.222	104.45	50.587	6.6652e-06	42.681	0.0023098	0.0025833	0.00071389	946.95	2.7517e-05	2.8824e-05	748.99	297.07	2.7235e-05	2.8204e-05	247.25	83.233	103.28	49.413	2.8097e-05	42.614	17.321	-61.560	-108.452	-158.901	-11.799	-120.569	-160.574	-154.007	-24.003	96.326	-157.199	-153.280	-149.924	-145.465	17.274	-149.863	-8191	255	
#DATA ENDS
