BOXY.EXE: ISS Imagent and Oximeter Data Acquisition Program Version 0.80
Ascii Record File

#ACQ INFORMATION
2  Detector Channels 
16  External MUX Channels 
1  Auxiliary Channels 
5000  Waveform (CCF) Frequency (Hz)
1  Waveforms Skipped 
30  Waveforms Averaged 
1  Cycles Averaged 
16  Acquisitions per Waveform 
10.0806  Updata Rate (Hz) 

#FILE INFORMATION
TRUE -- External MUX Channel results are PARSED.
FALSE -- AC DC and Phase are NOT grouped.
TRUE -- Companion Program Settings File CREATED.
FALSE -- AC data not excluded
FALSE -- DC data not excluded
FALSE -- Phase data not excluded
FALSE -- Auxillary Chn. data not excluded
Tab delimiters

#CALIBRATION STATE
TRUE -- Waveform Calibration Values APPLIED.


#AUX CALIBRATION VALUES
Val Type	aux-1	

Term	1.0000e+00	
Factor	0.0000e+00	


#WF CALIBRATION VALUES
A = Detector Channel
Val Type	A-AC1	A-AC2	A-AC3	A-AC4	A-AC5	A-AC6	A-AC7	A-AC8	A-AC9	A-AC10	A-AC11	A-AC12	A-AC13	A-AC14	A-AC15	A-AC16	A-DC1	A-DC2	A-DC3	A-DC4	A-DC5	A-DC6	A-DC7	A-DC8	A-DC9	A-DC10	A-DC11	A-DC12	A-DC13	A-DC14	A-DC15	A-DC16	A-Ph1	A-Ph2	A-Ph3	A-Ph4	A-Ph5	A-Ph6	A-Ph7	A-Ph8	A-Ph9	A-Ph10	A-Ph11	A-Ph12	A-Ph13	A-Ph14	A-Ph15	A-Ph16	

Term	0.00000e+00	0.00000e+00	0.00000e+00	0.00000e+00	0.00000e+00	0.00000e+00	0.00000e+00	0.00000e+00	0.00000e+00	0.00000e+00	0.00000e+00	0.00000e+00	0.00000e+00	0.00000e+00	0.00000e+00	0.00000e+00	0.00000e+00	0.00000e+00	0.00000e+00	0.00000e+00	0.00000e+00	0.00000e+00	0.00000e+00	0.00000e+00	0.00000e+00	0.00000e+00	0.00000e+00	0.00000e+00	0.00000e+00	0.00000e+00	0.00000e+00	0.00000e+00	0.00000e+00	0.00000e+00	0.00000e+00	0.00000e+00	0.00000e+00	0.00000e+00	0.00000e+00	0.00000e+00	0.00000e+00	0.00000e+00	0.00000e+00	0.00000e+00	0.00000e+00	0.00000e+00	0.00000e+00	0.00000e+00	
Factor	1.00000e+00	1.00000e+00	1.00000e+00	1.00000e+00	1.00000e+00	1.00000e+00	1.00000e+00	1.00000e+00	1.00000e+00	1.00000e+00	1.00000e+00	1.00000e+00	1.00000e+00	1.00000e+00	1.00000e+00	1.00000e+00	1.00000e+00	1.00000e+00	1.00000e+00	1.00000e+00	1.00000e+00	1.00000e+00	1.00000e+00	1.00000e+00	1.00000e+00	1.00000e+00	1.00000e+00	1.00000e+00	1.00000e+00	1.00000e+00	1.00000e+00	1.00000e+00	X	X	X	X	X	X	X	X	X	X	X	X	X	X	X	X	

B = Detector Channel
Val Type	B-AC1	B-AC2	B-AC3	B-AC4	B-AC5	B-AC6	B-AC7	B-AC8	B-AC9	B-AC10	B-AC11	B-AC12	B-AC13	B-AC14	B-AC15	B-AC16	B-DC1	B-DC2	B-DC3	B-DC4	B-DC5	B-DC6	B-DC7	B-DC8	B-DC9	B-DC10	B-DC11	B-DC12	B-DC13	B-DC14	B-DC15	B-DC16	B-Ph1	B-Ph2	B-Ph3	B-Ph4	B-Ph5	B-Ph6	B-Ph7	B-Ph8	B-Ph9	B-Ph10	B-Ph11	B-Ph12	B-Ph13	B-Ph14	B-Ph15	B-Ph16	

Term	0.00000e+00	0.00000e+00	0.00000e+00	0.00000e+00	0.00000e+00	0.00000e+00	0.00000e+00	0.00000e+00	0.00000e+00	0.00000e+00	0.00000e+00	0.00000e+00	0.00000e+00	0.00000e+00	0.00000e+00	0.00000e+00	0.00000e+00	0.00000e+00	0.00000e+00	0.00000e+00	0.00000e+00	0.00000e+00	0.00000e+00	0.00000e+00	0.00000e+00	0.00000e+00	0.00000e+00	0.00000e+00	0.00000e+00	0.00000e+00	0.00000e+00	0.00000e+00	5.94720e+01	-1.33281e+02	-1.24008e+02	-1.83669e+02	-7.49398e+01	-7.46865e+01	-1.55903e+02	-1.62015e+02	-6.56920e+01	-5.76036e+01	-1.71186e+02	-1.71014e+02	-1.82886e+02	-1.77178e+02	-6.18822e+01	-1.49311e+02	
Factor	6.16829e-05	1.64324e-04	4.66421e-05	1.74362e-01	2.06590e-06	1.82496e-06	1.63678e-01	5.30398e-02	3.37277e-06	1.77242e-06	9.18026e-02	2.93873e-02	3.59135e-02	9.27610e-03	2.08424e-06	1.33759e-02	6.85272e-06	8.02413e-06	2.24270e-06	9.05141e-02	8.55606e-08	8.89427e-08	7.96729e-02	2.75538e-02	8.49966e-08	8.88765e-08	4.61873e-02	1.47366e-02	1.84319e-02	4.86892e-03	8.63507e-08	6.78635e-03	X	X	X	X	X	X	X	X	X	X	X	X	X	X	X	X	



#DISTANCE SETTINGS
A = Detector Channel
A-1	A-2	A-3	A-4	A-5	A-6	A-7	A-8	A-9	A-10	A-11	A-12	A-13	A-14	A-15	A-16	

2.5000e+00	3.0000e+00	2.5000e+00	3.0000e+00	2.0000e+00	3.0000e+00	1.5000e+00	3.0000e+00	3.0000e+00	3.0000e+00	3.0000e+00	3.0000e+00	3.0000e+00	3.0000e+00	1.5000e+00	3.0000e+00	

B = Detector Channel
B-1	B-2	B-3	B-4	B-5	B-6	B-7	B-8	B-9	B-10	B-11	B-12	B-13	B-14	B-15	B-16	

1.0000e+01	1.0000e+01	1.0000e+01	1.4400e+00	1.0000e+01	1.0000e+01	1.5100e+00	1.9400e+00	1.0000e+01	1.0000e+01	1.9900e+00	2.4900e+00	2.4100e+00	2.9000e+00	1.0000e+01	2.9800e+00	




#DATA BEGINS
time	group	step	mark	flag	A-AC1	A-AC2	A-AC3	A-AC4	A-AC5	A-AC6	A-AC7	A-AC8	A-AC9	A-AC10	A-AC11	A-AC12	A-AC13	A-AC14	A-AC15	A-AC16	A-DC1	A-DC2	A-DC3	A-DC4	A-DC5	A-DC6	A-DC7	A-DC8	A-DC9	A-DC10	A-DC11	A-DC12	A-DC13	A-DC14	A-DC15	A-DC16	A-Ph1	A-Ph2	A-Ph3	A-Ph4	A-Ph5	A-Ph6	A-Ph7	A-Ph8	A-Ph9	A-Ph10	A-Ph11	A-Ph12	A-Ph13	A-Ph14	A-Ph15	A-Ph16	B-AC1	B-AC2	B-AC3	B-AC4	B-AC5	B-AC6	B-AC7	B-AC8	B-AC9	B-AC10	B-AC11	B-AC12	B-AC13	B-AC14	B-AC15	B-AC16	B-DC1	B-DC2	B-DC3	B-DC4	B-DC5	B-DC6	B-DC7	B-DC8	B-DC9	B-DC10	B-DC11	B-DC12	B-DC13	B-DC14	B-DC15	B-DC16	B-Ph1	B-Ph2	B-Ph3	B-Ph4	B-Ph5	B-Ph6	B-Ph7	B-Ph8	B-Ph9	B-Ph10	B-Ph11	B-Ph12	B-Ph13	B-Ph14	B-Ph15	B-Ph16	aux-1	digaux	

1347.692	1	1	0	256	0.25039	0.14811	0.13883	0.33439	0.24235	0.15451	0.10342	0.24284	0.17371	0.20572	0.38951	0.04742	0.23004	0.14416	0.16945	0.12588	-1.4542	-1.0167	-1.3604	-1.8292	-0.85417	-1.5708	-1.5125	-1.2292	-1.6708	-1.1854	-1.3146	-1.6896	-0.92292	-1.5917	-1.5708	-1.1063	176.201	173.936	-118.677	134.507	75.203	103.054	-13.519	159.210	-88.756	110.054	-16.446	116.511	-41.095	-60.102	-160.964	170.734	0.00085734	0.00029229	0.00016296	1026	6.5294e-06	3.72e-06	736.81	287.42	5.1133e-06	3.6603e-06	215.67	68.879	92.932	41.001	6.1355e-06	30.676	0.00020594	0.0001661	4.941e-05	958.4	1.9686e-06	1.8417e-06	688.35	269.02	1.9726e-06	1.837e-06	202.88	64.404	87.604	39.08	1.8767e-06	29.209	29.586	-95.208	-88.804	-158.724	-37.450	-6.555	-160.345	-153.311	-66.044	-32.535	-155.964	-151.802	-148.828	-143.355	-35.039	-148.150	-8191	255	
1347.813	1	1	0	0	0.31738	0.11504	0.14891	0.21927	0.2327	0.28609	0.2287	0.23635	0.10737	0.11711	0.27441	0.17296	0.147	0.17637	0.24673	0.015925	-1.2771	-1.1708	-1.1354	-1.7437	-0.97708	-1.5583	-1.75	-0.97708	-1.7479	-1.4	-1.175	-1.7083	-1.0604	-1.5417	-1.6333	-0.99167	124.253	-96.525	175.914	-167.141	-168.591	-108.650	89.215	-167.028	-142.264	166.990	162.376	4.079	121.636	86.250	-52.145	85.900	0.00093337	0.0002038	0.00010712	1016.5	4.7182e-06	3.9455e-06	731.94	286.14	1.1501e-05	3.4027e-06	215.3	68.264	93.259	41.026	4.4543e-06	30.463	0.00021529	0.00017412	4.4719e-05	950.09	1.9934e-06	1.8902e-06	683.37	268.15	1.9163e-06	1.8444e-06	202.27	64.034	87.314	38.986	1.8389e-06	28.908	34.458	-109.866	-80.091	-158.787	-20.958	-39.214	-160.366	-153.362	-47.853	-17.761	-155.752	-152.166	-148.368	-143.243	-30.366	-147.951	-8191	255	
1347.909	1	1	0	0	0.15426	0.24948	0.45322	0.074428	0.21155	0.058157	0.3274	0.18482	0.03446	0.078985	0.30319	0.19072	0.031727	0.18878	0.25901	0.17207	-1.1979	-1.3417	-1.0688	-1.7854	-1.0021	-1.4271	-1.7604	-0.96667	-1.5333	-1.3813	-0.93333	-1.9021	-1.1688	-1.2979	-1.6833	-1.0521	88.270	75.591	-142.159	-159.787	38.338	47.207	101.976	121.357	-13.920	-149.587	-74.706	7.480	140.921	-88.860	131.862	-53.760	0.00091029	0.00034798	7.7075e-05	1012.4	4.1446e-06	2.4714e-06	724.48	285.15	6.7622e-06	4.154e-06	216.5	67.955	93.205	41.163	2.1007e-06	30.429	0.00020978	0.00015866	4.8223e-05	945.28	1.9367e-06	1.8506e-06	678.89	267.46	1.8991e-06	1.7529e-06	201.47	63.754	87.236	39.124	1.8537e-06	28.799	36.775	-35.301	-88.679	-159.098	-22.732	-11.486	-160.577	-153.245	-47.036	-10.736	-156.676	-151.599	-148.326	-143.331	-52.230	-148.213	-8191	255	
1348.005	1	1	0	0	0.11145	0.061725	0.20271	0.21951	0.27517	0.007966	0.079703	0.28208	0.16154	0.24075	0.0909	0.1069	0.12053	0.2591	0.085336	0.1663	-1.2563	-1.1938	-1.0375	-1.8854	-1.4625	-1.3604	-1.8062	-1.1313	-1.5812	-1.5854	-1.1917	-1.8188	-1.3875	-1.3396	-1.7563	-1.1146	-43.257	-67.299	-141.616	135.057	64.957	-109.529	113.413	155.982	-64.560	60.162	-127.974	24.034	-28.146	-154.419	-24.016	125.329	0.0009173	0.0004324	6.9253e-05	1013.7	3.7692e-06	5.1931e-06	725.94	284.47	9.2577e-06	3.2858e-06	215.4	67.512	92.613	40.968	3.4841e-06	30.468	0.00021652	0.00015819	4.6616e-05	945.82	1.8768e-06	1.9082e-06	677.78	266.99	1.9473e-06	1.774e-06	200.56	63.633	87.066	39.041	1.8216e-06	28.819	33.846	-61.857	-94.854	-158.786	-24.702	-34.812	-160.324	-153.348	-37.263	-3.688	-155.613	-151.071	-148.083	-142.828	-42.343	-147.622	-8191	255	
1348.124	1	1	0	0	0.22158	0.14922	0.15485	0.31586	0.2544	0.035116	0.31516	0.19276	0.20722	0.25702	0.19199	0.25006	0.1327	0.15783	0.23584	0.10454	-0.9875	-1.6542	-0.86458	-1.8292	-1.2542	-1.1333	-1.9312	-1.1313	-1.3292	-1.4979	-1.1875	-1.5458	-1.4354	-1.1521	-1.7437	-1.2687	-30.805	52.080	109.020	180.246	72.404	8.146	128.174	109.105	83.313	-61.889	7.234	-132.078	121.256	131.043	-134.772	135.073	0.000951	0.00032501	0.00017489	1013.2	5.2643e-06	2.1773e-06	730.31	286.77	1.2289e-05	2.994e-06	216.04	68.052	92.922	40.815	3.8573e-06	30.664	0.00020447	0.00016645	4.6634e-05	947.47	1.883e-06	1.7386e-06	684.61	268.16	1.8983e-06	1.684e-06	202.06	63.692	86.992	38.943	1.8846e-06	28.952	29.288	-42.885	-67.239	-158.431	-48.139	6.197	-159.963	-152.919	-35.182	-14.659	-155.111	-150.958	-148.403	-142.369	-35.907	-147.657	-8191	255	
1348.196	1	1	0	0	0.018965	0.077882	0.078127	0.24786	0.19474	0.24057	0.15686	0.21355	0.14266	0.30667	0.135	0.037012	0.16608	0.14382	0.23099	0.13447	-1.0333	-1.6417	-0.95417	-1.7042	-1.5542	-0.93333	-1.9625	-1.0792	-1.3292	-1.8042	-1.0708	-1.6437	-1.4833	-1.1437	-1.7729	-1.2938	21.493	-132.399	96.477	-147.526	99.670	127.261	70.413	160.506	-91.063	-145.704	-36.027	-123.600	-124.226	80.733	157.212	81.241	0.00085497	0.00014578	0.00010999	1018.4	3.6653e-06	3.1463e-06	736.3	288.46	1.39e-05	3.9404e-06	216.9	68.181	92.347	40.728	2.8033e-06	30.276	0.00021179	0.00015731	4.5821e-05	952.09	1.8736e-06	1.7705e-06	688.76	269.13	1.9436e-06	1.7664e-06	202.74	63.553	86.513	38.605	1.758e-06	28.47	29.058	-84.985	-78.722	-158.317	-37.224	-63.128	-159.646	-153.357	-34.712	-6.586	-155.693	-151.421	-148.203	-142.998	-39.916	-147.432	-8191	255	
1348.294	1	1	0	0	0.20474	0.10715	0.15911	0.33028	0.082772	0.14932	0.24426	0.14829	0.16627	0.025093	0.13129	0.27756	0.23447	0.33802	0.35184	0.026657	-0.8	-1.7375	-1.0667	-1.4062	-1.65	-0.95833	-1.7479	-1.2542	-1.1104	-1.6792	-1.0896	-1.5396	-1.6854	-1.0625	-1.7021	-1.3979	-31.467	-160.578	144.074	95.290	-130.040	-34.546	101.453	87.862	-38.790	-92.722	67.131	158.641	156.605	160.548	-157.024	-151.909	0.00086261	0.00027368	0.00011179	1013.6	2.8326e-06	4.1942e-06	726.1	285.05	1.3163e-05	4.4208e-06	211.38	66.291	91.369	40.32	5.1075e-06	29.413	0.00021442	0.00015472	4.5242e-05	946.88	1.8126e-06	1.8409e-06	679.28	266.97	1.9145e-06	1.7259e-06	199.18	62.092	85.824	38.266	1.7885e-06	27.951	31.817	-83.592	-68.856	-158.369	-25.613	12.916	-159.507	-153.045	-55.470	-65.426	-155.763	-150.490	-148.128	-142.374	-24.104	-147.602	-8191	255	
1348.413	1	1	0	0	0.069529	0.11922	0.21698	0.23858	0.099837	0.1497	0.12922	0.20356	0.21248	0.2015	0.087226	0.11408	0.14032	0.29594	0.13053	0.22065	-0.75	-1.8521	-1.25	-1.5792	-1.7062	-0.98333	-1.6833	-1.5958	-1.0979	-1.8813	-1.1958	-1.5146	-1.9083	-0.95208	-1.6417	-1.4396	102.334	-69.493	-125.630	65.315	-62.412	-154.995	73.493	138.448	-65.980	10.079	-150.282	-160.905	161.805	44.564	36.151	115.635	0.00077319	0.00052689	0.0001294	1013.9	3.208e-06	2.9324e-06	728.32	285.1	8.4784e-06	3.3459e-06	211.06	65.941	91.086	40.139	5.1851e-06	29.524	0.00020981	0.00015467	4.6578e-05	951.01	1.8251e-06	1.7676e-06	682.26	267.48	1.8333e-06	1.7051e-06	198.47	61.848	85.477	38.213	1.7768e-06	28.123	33.711	-98.891	-84.543	-158.116	-23.664	-96.276	-159.607	-152.889	-63.061	-19.435	-155.154	-150.241	-147.334	-142.105	-24.624	-147.521	-8191	255	
1348.509	1	1	0	0	0.039743	0.18532	0.1336	0.073313	0.25958	0.24901	0.15353	0.31364	0.13218	0.32141	0.24448	0.045653	0.20661	0.31978	0.14786	0.18881	-0.80208	-1.6979	-1.1104	-1.5167	-1.9729	-1.1542	-1.6187	-1.5229	-1.1917	-1.7687	-1.4	-1.3917	-1.8042	-1.1646	-1.5187	-1.5417	-52.096	-71.677	-65.633	89.927	-155.384	24.480	133.761	130.042	-0.803	-135.931	134.747	151.915	-160.271	114.436	83.684	118.866	0.00081618	0.00033325	0.00011889	1008.2	4.4439e-06	4.8793e-06	731.64	284.91	8.958e-06	5.4063e-06	214.21	66.063	91.424	40.372	5.8637e-06	29.977	0.00020948	0.00016592	4.4882e-05	948.72	1.8319e-06	1.7483e-06	683.81	267.58	1.8547e-06	1.659e-06	200.56	62.254	85.585	38.275	1.7903e-06	28.333	33.562	-104.004	-96.956	-157.975	-48.982	-42.921	-160.381	-153.508	-46.427	7.239	-156.226	-151.075	-148.315	-142.421	-25.194	-147.494	-8191	255	
1348.605	1	1	0	0	0.075823	0.098949	0.15332	0.18974	0.12895	0.025116	0.090507	0.24133	0.19986	0.11451	0.17344	0.17006	0.19404	0.17297	0.15859	0.082391	-0.53542	-1.8958	-1.2687	-1.525	-1.8875	-1.0354	-1.5625	-1.7375	-1.0875	-1.6229	-1.2729	-1	-2.0292	-1.3271	-1.4917	-1.8354	-40.013	-84.462	-28.076	155.988	77.821	-148.590	130.929	-152.280	140.171	-121.526	175.137	148.923	-128.067	11.767	-101.673	167.425	0.00091485	0.00047234	6.8052e-05	1012.1	3.8427e-06	2.2834e-06	731.6	284.66	9.8412e-06	2.6993e-06	214	66.432	91.227	39.865	4.0278e-06	29.858	0.00020638	0.00015833	4.6433e-05	948.84	1.8463e-06	1.7472e-06	685.58	267.37	1.9884e-06	1.7312e-06	200.77	62.363	85.537	38.076	1.8186e-06	28.319	29.302	-101.939	-36.569	-157.955	-63.810	17.673	-159.521	-152.789	-40.285	-4.198	-155.991	-150.997	-147.528	-142.532	-34.807	-147.283	-8191	255	
1348.726	1	1	0	0	0.18675	0.27118	0.33119	0.27196	0.1534	0.076472	0.17948	0.33665	0.39023	0.20658	0.10539	0.13518	0.19356	0.44726	0.13742	0.42586	-0.70625	-1.775	-1.3375	-1.3687	-1.75	-1.3542	-1.5938	-1.7125	-1.0167	-1.7667	-1.4917	-1.075	-2.0438	-1.2458	-1.2875	-1.8104	174.706	-148.156	185.583	122.008	87.960	149.450	-134.938	82.254	100.736	-145.213	85.023	6.460	54.379	147.510	-27.499	156.213	0.0009269	0.00038129	7.4301e-05	1005.4	5.1337e-06	3.3589e-06	727.56	284.15	5.3597e-06	3.7855e-06	210.62	65.86	90.371	39.972	5.5949e-06	29.706	0.00021475	0.00015049	4.3789e-05	944.4	1.8765e-06	1.7281e-06	679.38	265.61	1.9771e-06	1.7499e-06	198.27	61.843	84.953	38.066	1.9427e-06	28.097	36.211	-86.230	-79.413	-158.267	-24.400	19.609	-159.857	-153.089	-23.593	-14.507	-155.703	-150.566	-147.394	-142.238	-30.524	-147.422	-8191	255	
1348.822	1	1	0	0	0.090812	0.1619	0.31561	0.2183	0.046458	0.28306	0.12164	0.15271	0.10773	0.06963	0.13818	0.086167	0.19354	0.053602	0.10879	0.21038	-0.63125	-1.6396	-1.4479	-1.1458	-1.7375	-1.3271	-1.3229	-1.8917	-1.0375	-1.7208	-1.8312	-1.275	-1.9229	-1.4292	-1.3583	-1.8958	-3.440	172.332	112.511	-123.311	-47.772	124.091	-17.413	33.583	-151.476	1.595	124.261	-149.272	-150.647	11.952	43.279	114.370	0.00084566	0.00042747	0.00013227	1006.1	4.4123e-06	3.6087e-06	719.59	283.1	1.1971e-05	1.7293e-06	211.77	65.868	91.352	40.307	2.1686e-06	29.919	0.00020471	0.00016033	4.4191e-05	941.65	1.7488e-06	1.8415e-06	676.61	265.68	1.8968e-06	1.742e-06	198.6	62.039	85.412	38.353	1.8341e-06	28.298	35.007	-72.840	-79.642	-157.992	-65.615	-57.964	-159.580	-152.878	-40.838	-23.017	-155.826	-150.422	-146.832	-142.277	-68.708	-147.212	-8191	255	
1348.893	1	1	0	0	0.24009	0.22826	0.026921	0.36902	0.040608	0.16776	0.36402	0.23042	0.20181	0.12313	0.26127	0.049978	0.054596	0.2077	0.19605	0.2543	-0.74167	-1.6021	-1.625	-1.1104	-1.6375	-1.6583	-1.375	-1.9583	-1.0458	-1.3292	-1.7708	-1.0812	-1.6917	-1.6583	-1.1333	-1.7396	187.805	6.448	180.655	120.254	-141.875	-121.342	123.807	115.535	-71.938	37.799	-18.414	83.231	26.438	120.241	129.127	9.205	0.00084783	0.0002638	4.6582e-05	1009.4	4.319e-06	4.1754e-06	727.69	282.8	8.6983e-06	4.7198e-06	213.02	66.847	90.825	40.526	4.181e-06	30.245	0.00021199	0.00016647	4.4125e-05	941.23	1.8542e-06	1.6947e-06	679.92	265.57	2.0033e-06	1.7551e-06	199.43	62.252	85.192	38.407	1.802e-06	28.564	34.894	-44.140	-108.362	-158.232	-9.948	-15.852	-159.946	-152.758	-40.712	-4.190	-155.551	-150.688	-147.460	-142.542	-69.870	-147.208	-8191	255	
1349.014	1	1	0	0	0.028866	0.23604	0.070912	0.1353	0.13691	0.23003	0.19509	0.067007	0.2185	0.34329	0.13675	0.044319	0.085682	0.15674	0.20118	0.11414	-0.8	-1.4042	-1.825	-1.1625	-1.6354	-1.6854	-1.2292	-1.9479	-1.1854	-1.2875	-1.6792	-1.2292	-1.725	-1.5042	-1.0646	-1.7146	99.484	44.866	-167.007	55.446	146.097	60.972	134.926	-51.285	-156.771	88.839	36.074	-38.656	152.071	-155.762	-105.776	103.958	0.00084804	0.000217	8.7991e-05	1001.1	6.1216e-06	3.3173e-06	731.87	282.58	7.413e-06	2.2135e-06	211.39	66.281	90.515	40.386	5.2002e-06	29.593	0.00020651	0.00016829	4.6401e-05	938.85	1.8306e-06	1.7974e-06	681.99	266.09	1.9027e-06	1.7903e-06	199.57	62.339	85.082	38.202	1.8668e-06	28.239	30.424	-90.130	-68.030	-158.157	-45.254	-12.325	-159.545	-152.971	-44.550	-9.297	-155.345	-150.245	-147.792	-142.473	-42.164	-147.343	-8191	255	
1349.108	1	1	0	0	0.073435	0.29852	0.15807	0.22016	0.31172	0.047088	0.17713	0.44737	0.16333	0.23451	0.070353	0.026001	0.19203	0.14035	0.045119	0.25757	-0.96458	-1.2167	-1.6625	-1.3104	-1.4167	-1.6646	-1.3146	-1.8708	-1.3083	-1.2875	-1.9083	-1.0479	-1.7792	-1.6333	-1.0708	-1.8062	-102.681	7.222	-8.244	173.603	28.168	131.891	19.956	166.061	145.813	-81.434	73.528	-88.017	117.472	143.515	37.948	-155.438	0.00083508	0.00032628	0.000155	1008.5	4.8115e-06	1.0008e-06	717.51	281.98	9.3285e-06	2.4217e-06	210.83	65.194	90.134	39.365	3.2796e-06	29.25	0.00021488	0.00016796	4.6639e-05	942.48	1.8492e-06	1.7029e-06	675.37	264.49	1.868e-06	1.7735e-06	197.37	61.104	84.401	37.611	1.8497e-06	27.74	30.395	-83.631	-76.609	-158.225	-56.446	-60.734	-159.403	-152.813	-31.616	-3.515	-155.626	-151.057	-147.489	-142.613	-23.300	-147.039	-8191	255	
1349.205	1	1	0	0	0.13986	0.35988	0.26615	0.056111	0.17018	0.15629	0.33172	0.33542	0.17136	0.14718	0.077695	0.13462	0.21031	0.19193	0.092681	0.16898	-0.96042	-1.0625	-1.775	-1.1646	-1.4542	-1.7875	-1.0625	-1.7604	-1.3937	-1.1958	-1.7604	-1.1854	-1.4729	-1.7521	-1.0146	-1.7625	144.628	121.062	-94.158	183.136	123.057	-1.536	113.011	87.368	90.703	173.006	143.645	14.000	133.882	165.153	53.458	159.757	0.00089793	0.00035241	7.5765e-05	1000.8	4.6947e-06	3.7179e-06	723	283.24	4.0285e-06	3.5338e-06	209.34	64.852	89.625	39.584	5.6806e-06	29.217	0.00021198	0.00016032	4.5611e-05	937.83	1.8374e-06	1.661e-06	673.26	263.96	1.8795e-06	1.7412e-06	196.15	60.783	83.797	37.57	1.9549e-06	27.779	36.726	-79.511	-79.134	-158.069	-67.096	-37.833	-160.145	-153.135	-49.785	-29.530	-156.163	-150.772	-147.499	-142.443	-47.552	-147.613	-8191	255	
1349.301	1	1	0	0	0.079214	0.074686	0.032742	0.094185	0.16296	0.13163	0.071236	0.10988	0.3545	0.12651	0.076627	0.043436	0.44876	0.12269	0.11344	0.35505	-1.0167	-0.96458	-1.7146	-1.1479	-1.3792	-1.7896	-1.0729	-1.5917	-1.5625	-0.92917	-2.0104	-1.5583	-1.2667	-1.9146	-1.0729	-1.7292	-135.635	124.641	54.321	123.067	-109.243	-156.877	4.876	20.488	140.152	107.594	175.629	-61.539	-128.042	140.035	29.546	163.016	0.00074088	0.00028457	0.0001221	1006	4.978e-06	4.6216e-06	713.38	280.85	6.8608e-06	2.4707e-06	208	64.524	90.34	39.631	5.5429e-06	29.702	0.00019744	0.00016241	4.2135e-05	937.89	2.016e-06	1.8176e-06	669.92	263.57	1.9461e-06	1.732e-06	196.13	60.882	84.24	37.683	1.8634e-06	27.915	32.350	-92.099	-48.997	-158.719	-27.008	26.259	-159.581	-152.849	-60.010	-33.631	-155.586	-150.690	-147.161	-142.503	-8.797	-147.736	-8191	255	
1349.397	1	1	0	0	0.22993	0.23821	0.35017	0.17102	0.072204	0.22726	0.072734	0.12407	0.31667	0.15159	0.10483	0.15721	0.19768	0.19578	0.15849	0.041932	-1.1375	-0.80625	-1.875	-1.4771	-1.2458	-1.9542	-1.0167	-1.5583	-1.6125	-1.0854	-1.8479	-1.2563	-1.0562	-1.9312	-1.1562	-1.4646	-152.242	90.547	156.251	113.873	81.107	151.104	90.718	100.758	170.513	135.675	-4.439	-55.206	156.799	41.497	-24.111	167.200	0.00091728	0.00036981	7.5017e-05	995.51	5.6412e-06	4.6015e-06	715.83	280.86	9.631e-06	4.4587e-06	207.42	65.147	89.478	39.852	4.0197e-06	29.326	0.00020618	0.00016378	4.4303e-05	934.39	1.8233e-06	1.7726e-06	671.14	263.15	1.8857e-06	1.8196e-06	196.24	60.894	83.938	37.77	1.9317e-06	27.843	27.986	-85.103	-93.328	-158.140	-46.780	-68.552	-159.733	-153.414	-52.226	13.638	-155.556	-150.746	-147.325	-142.489	-24.268	-147.345	-8191	255	
1349.493	1	1	0	0	0.19261	0.078895	0.042752	0.10322	0.12852	0.099003	0.18694	0.31551	0.26442	0.012458	0.12492	0.073928	0.21799	0.0428	0.10831	0.10857	-1.1958	-1.0292	-1.5354	-1.5917	-1.0875	-1.9208	-1.2667	-1.3167	-1.8104	-0.91667	-1.5708	-1.5792	-1.2854	-1.9062	-1.1938	-1.4104	79.469	-2.830	-11.663	-144.212	148.674	38.067	52.529	180.104	-157.990	125.880	-151.333	183.631	-92.896	148.644	-37.317	98.136	0.0009248	0.00048118	8.2999e-05	1000.7	3.8472e-06	3.1303e-06	707.67	279.48	6.6735e-06	3.6402e-06	207.56	65.664	90.183	40.184	3.2142e-06	29.5	0.00020811	0.00015911	4.4205e-05	934	1.9403e-06	1.716e-06	663.6	262.59	1.8272e-06	1.7779e-06	194.5	61.355	84.389	38.165	1.7858e-06	28.081	31.135	-122.023	-76.740	-158.200	-64.336	-13.562	-160.009	-152.805	-62.746	-1.190	-155.302	-150.617	-148.084	-143.054	-47.674	-147.288	-8191	255	
1349.589	1	1	0	0	0.18236	0.15508	0.085181	0.16372	0.16676	0.14651	0.17767	0.3031	0.030779	0.039559	0.18697	0.22732	0.11333	0.19145	0.037287	0.2301	-1.3417	-1.05	-1.6437	-1.7917	-0.975	-1.7812	-1.2917	-1.3333	-1.8687	-1.0521	-1.5875	-1.7167	-0.94375	-1.6479	-1.5438	-1.2833	64.143	62.238	58.871	144.626	-17.942	-29.990	86.847	127.570	67.754	-90.749	148.465	-18.423	-80.500	95.858	-71.723	-113.177	0.00082584	0.00016642	0.00012044	988.93	4.1448e-06	5.9686e-06	707.53	280.48	8.1012e-06	3.6098e-06	208.49	64.283	88.374	39.449	5.0458e-06	29.209	0.00021158	0.00016444	4.6994e-05	924.92	1.916e-06	1.7991e-06	662.87	262.45	1.9043e-06	1.7818e-06	195.46	60.39	82.999	37.428	1.8675e-06	27.762	31.006	-78.314	-75.271	-157.994	-38.674	0.731	-159.834	-152.901	-63.864	-13.558	-155.863	-150.440	-147.556	-142.717	-41.577	-147.769	-8191	255	
1349.685	1	1	0	0	0.16857	0.076162	0.17248	0.28156	0.035048	0.2059	0.26597	0.24648	0.1738	0.13689	0.1997	0.19362	0.19265	0.19102	0.13241	0.41003	-1.5229	-0.9875	-1.4708	-1.9312	-1.2021	-1.6396	-1.4292	-1.1	-1.7208	-1.1146	-1.3542	-1.95	-1.1708	-1.75	-1.3312	-1.1708	130.136	142.226	85.116	-168.018	-18.773	107.009	85.196	165.162	-61.343	20.197	-132.570	111.619	-55.027	-163.890	-45.690	67.722	0.00080898	0.00021606	0.00011291	989.02	3.205e-06	2.0795e-06	704.9	279.49	8.7871e-06	1.8637e-06	209.14	64.812	89.97	39.345	2.5083e-06	29.327	0.00021239	0.00016463	4.484e-05	924.9	1.934e-06	1.6801e-06	660.64	262.61	1.8448e-06	1.8155e-06	196.09	60.9	83.812	37.52	1.8601e-06	27.788	32.404	-79.012	-73.442	-158.239	-53.335	-53.565	-160.001	-152.679	-20.859	-49.531	-156.135	-150.345	-147.379	-142.798	-62.309	-147.419	-8191	255	
1349.806	1	1	0	0	0.25857	0.023855	0.016743	0.16861	0.28488	0.21804	0.1677	0.20132	0.16666	0.21102	0.2292	0.35108	0.16338	0.13235	0.3096	0.20714	-1.4625	-1.1771	-1.15	-1.9271	-1.0125	-1.6229	-1.6458	-1.3479	-1.8292	-1.3062	-1.1583	-1.85	-0.9	-1.5896	-1.775	-1.0875	-110.341	-36.775	-35.771	151.221	-35.141	144.840	131.979	103.051	-85.293	22.699	-165.609	120.396	-123.208	-96.595	21.890	121.383	0.00085468	0.00023059	3.7076e-05	996.68	1.4289e-06	2.5708e-06	710.15	280.07	8.5693e-06	4.0068e-06	208.45	66.155	90.277	40.776	3.7252e-06	30.048	0.00019753	0.00016575	4.4373e-05	931.49	1.8226e-06	1.7742e-06	662.44	262.67	1.8565e-06	1.789e-06	195.45	62.064	85.258	38.729	1.7986e-06	28.41	30.210	-51.293	-111.567	-158.476	-54.261	-26.786	-160.117	-152.524	-50.791	-43.993	-155.792	-150.633	-147.545	-142.501	-65.307	-147.671	-8191	255	
1349.902	1	1	0	0	0.061413	0.31548	0.177	0.29196	0.20223	0.11874	0.18185	0.24016	0.068872	0.10509	0.18881	0.16143	0.15148	0.19717	0.023756	0.23376	-1.3	-1.1583	-1.1187	-1.775	-1.0542	-1.5458	-1.7271	-0.96875	-1.7896	-1.4604	-1.2729	-1.8062	-0.98125	-1.4354	-1.7271	-1.0708	70.143	-149.571	16.816	137.693	108.573	21.423	167.121	102.969	-16.176	-165.616	-1.859	-147.874	-146.741	75.125	-113.259	-53.989	0.0008204	3.8086e-05	9.5763e-05	992.12	4.5294e-06	5.3946e-06	702.61	279.21	8.9412e-06	7.2507e-06	206.72	65.068	90.833	40.722	4.8439e-06	29.759	0.00020016	0.00015854	4.6134e-05	924.62	1.8822e-06	1.8168e-06	656.24	261.43	1.9344e-06	1.8318e-06	193.62	61.293	84.846	38.555	1.892e-06	28.201	32.780	-139.673	-55.592	-158.377	-47.417	-45.948	-160.079	-153.007	-46.774	-29.738	-155.484	-151.087	-147.628	-142.687	-48.118	-147.861	-8191	255	
1349.998	1	1	0	0	0.21357	0.089418	0.15617	0.14188	0.24222	0.24676	0.072329	0.071654	0.067295	0.058271	0.14502	0.11839	0.083823	0.13144	0.045005	0.12988	-1.1958	-1.2896	-1.0521	-1.775	-1.1167	-1.3104	-1.7875	-1.0958	-1.5667	-1.3563	-0.96458	-1.8292	-1.2938	-1.2625	-1.5938	-1.0167	26.419	-135.470	-84.255	-115.050	-43.697	14.195	84.079	119.374	-158.844	16.946	-29.814	-80.091	-53.801	128.645	140.567	-60.472	0.00084089	0.00031045	7.7561e-05	984.22	3.1756e-06	3.1211e-06	694.56	276.16	1.0547e-05	3.4449e-06	205.7	65.21	90.613	40.325	5.3256e-06	30.098	0.00021048	0.00016451	4.5588e-05	919.78	1.8964e-06	1.7375e-06	652.13	260.41	1.9266e-06	1.7723e-06	193.23	61.153	84.799	38.448	1.8713e-06	28.274	30.488	-72.987	-77.272	-158.374	-61.820	-19.544	-159.993	-152.902	-61.390	23.723	-155.755	-150.415	-147.711	-142.774	-10.148	-147.189	-8191	255	
1350.094	1	1	0	0	0.20929	0.18978	0.2511	0.31284	0.075607	0.14551	0.11577	0.19099	0.050224	0.080018	0.065118	0.23465	0.18483	0.10398	0.10346	0.22297	-1.1646	-1.5958	-0.97708	-1.8854	-0.975	-1.2854	-2.0812	-1.1896	-1.5208	-1.5792	-1.0833	-1.7292	-1.1896	-1.2167	-1.8646	-1.0958	-18.658	127.648	7.914	73.247	-139.813	42.907	139.040	186.931	-63.426	-109.684	-140.015	135.143	-145.027	-164.008	155.870	6.406	0.00090064	0.00029614	0.00010538	980.73	3.593e-06	4.0617e-06	697.48	276.76	1.2952e-05	5.0655e-06	206.1	65.591	90.276	40.334	2.4132e-06	29.767	0.00021034	0.00015819	4.463e-05	920.07	1.8916e-06	1.8426e-06	652.4	260.61	1.7998e-06	1.7594e-06	193.01	61.284	84.538	38.389	1.749e-06	28.226	31.537	-91.530	-29.108	-158.900	-31.043	-62.717	-159.882	-153.071	-24.354	19.105	-155.559	-150.208	-147.386	-142.597	-28.342	-147.308	-8191	255	
1350.189	1	1	0	0	0.086263	0.30547	0.19212	0.063601	0.22337	0.10373	0.18614	0.11756	0.23835	0.11814	0.14169	0.1943	0.18743	0.34249	0.17955	0.17005	-0.97083	-1.6313	-1.0063	-1.8729	-1.3687	-1.25	-1.7396	-1.2938	-1.3813	-1.7229	-0.96875	-1.8396	-1.4	-1.0646	-1.7833	-1.2021	-117.299	89.994	-104.063	-70.866	-47.699	0.459	-154.314	66.501	-53.253	-36.413	-43.247	-140.514	146.114	161.501	103.326	122.608	0.00093897	0.00021169	0.00011273	981.01	5.4004e-06	3.5161e-06	699.75	278.52	1.0812e-05	3.2948e-06	206.92	64.858	89.901	40.198	3.3861e-06	29.406	0.00021336	0.00016177	4.7209e-05	918.8	1.8756e-06	1.8854e-06	654.48	261.26	1.9477e-06	1.7175e-06	193.66	60.952	84.286	38.13	1.7666e-06	27.902	30.557	-35.812	-95.204	-157.853	-51.646	-22.237	-160.087	-153.321	-73.236	-46.415	-155.308	-150.982	-147.594	-143.012	-48.008	-147.825	-8191	255	
1350.285	1	1	0	0	0.1749	0.32293	0.2241	0.45554	0.1188	0.31272	0.071081	0.04272	0.10111	0.071726	0.19364	0.11143	0.39988	0.11229	0.088654	0.13311	-0.96458	-1.8146	-1.0229	-1.7729	-1.5083	-1.0771	-1.7958	-1.2625	-1.2938	-1.6854	-1.0562	-1.5833	-1.4688	-0.95833	-1.8146	-1.2062	178.992	-101.137	-94.132	-119.436	29.853	17.838	80.098	8.193	-163.534	-83.313	157.049	-89.009	145.227	-144.002	26.912	-146.910	0.00078426	0.00037257	6.5912e-05	979.03	4.9126e-06	5.1822e-06	694.58	276.28	1.0791e-05	5.3763e-06	205.14	64.367	89.607	39.858	4.5995e-06	28.924	0.00020263	0.00015888	4.6999e-05	918.22	1.7674e-06	1.7655e-06	650.19	259.51	1.9397e-06	1.6974e-06	191.21	60.019	83.372	37.829	1.8267e-06	27.377	23.759	-96.474	-48.597	-158.702	-54.386	-44.127	-159.807	-153.336	-47.370	-3.606	-155.634	-150.971	-148.323	-142.304	0.210	-147.813	-8191	255	
1350.406	1	1	0	0	0.044027	0.11386	0.11114	0.25567	0.094086	0.23523	0.35164	0.17288	0.3518	0.017628	0.17313	0.18338	0.21007	0.083421	0.11409	0.18308	-0.8625	-1.7687	-0.93333	-1.425	-1.7333	-0.98958	-1.6917	-1.2583	-1.1812	-1.8229	-0.99375	-1.4917	-1.6458	-0.97292	-1.7583	-1.6354	27.266	105.487	22.443	121.378	-59.761	95.045	118.101	112.642	183.689	-4.676	28.233	45.355	166.447	182.696	8.155	72.897	0.00081699	0.00026375	6.3205e-05	986.39	3.6529e-06	4.793e-06	692.81	276.61	9.2245e-06	3.3281e-06	203.5	63.919	88.937	39.465	3.5859e-06	28.738	0.00020061	0.00015548	4.3976e-05	919.67	1.7403e-06	1.7542e-06	650.6	259.24	1.8993e-06	1.6631e-06	190.88	59.648	83.376	37.459	1.7428e-06	27.317	31.540	-81.603	-104.773	-158.004	-62.112	-18.785	-159.983	-152.881	-48.718	-15.162	-155.739	-151.254	-147.600	-142.678	-58.015	-147.984	-8191	255	
1350.500	1	1	0	0	0.14221	0.085306	0.06237	0.15931	0.30844	0.21638	0.1615	0.26447	0.21545	0.12385	0.25509	0.34623	0.12993	0.15627	0.32742	0.028203	-0.70208	-1.7646	-1.2292	-1.5625	-1.8646	-0.91875	-1.7687	-1.6708	-1.1375	-1.8646	-1.1667	-1.3125	-1.7396	-1.175	-1.5542	-1.6792	6.492	-113.887	133.080	-89.654	53.601	-34.680	115.017	111.715	70.199	-56.753	121.942	-145.262	128.251	167.003	48.407	-37.269	0.00090679	0.00040021	0.00010766	989.93	4.8193e-06	3.7493e-06	702.59	278.73	9.123e-06	2.4498e-06	203.31	63.422	88.515	39.4	6.0178e-06	28.941	0.00020899	0.00015065	4.313e-05	921.93	1.667e-06	1.6875e-06	654.54	260.04	1.8175e-06	1.6166e-06	190.79	59.605	83.064	37.456	1.7952e-06	27.358	31.989	-92.197	-74.295	-158.088	-19.241	-45.290	-159.766	-152.811	-49.933	-6.221	-155.418	-151.073	-147.325	-142.448	-52.458	-148.363	-8191	255	
1350.596	1	1	0	0	0.21307	0.10597	0.095498	0.26666	0.43469	0.17472	0.16917	0.16798	0.16853	0.065342	0.07577	0.1687	0.128	0.32484	0.15499	0.19229	-0.52083	-1.6229	-1.3354	-1.3625	-1.8292	-1.1958	-1.6083	-1.8208	-0.80625	-1.8438	-1.425	-1.2833	-1.8583	-1.1896	-1.3021	-1.625	-10.854	-94.423	-25.992	149.448	-144.394	-114.959	72.204	124.632	29.930	151.322	-158.148	111.794	-32.545	122.186	133.992	138.844	0.00080369	0.00035832	0.00015433	991.09	5.9589e-06	3.689e-06	702.82	277.56	6.6546e-06	3.8502e-06	205	63.219	88.465	39.221	3.8596e-06	28.461	0.00021136	0.00015553	4.4677e-05	925.96	1.808e-06	1.7109e-06	657.69	260.28	1.8446e-06	1.7179e-06	191.72	59.445	83.077	37.302	1.8591e-06	26.997	34.087	-117.745	-99.188	-158.361	-68.286	-18.123	-160.473	-153.477	-72.700	-31.641	-155.998	-150.921	-148.191	-143.140	-22.904	-147.948	-8191	255	
1350.692	1	1	0	0	0.23073	0.26225	0.090455	0.11318	0.23029	0.21609	0.1874	0.08332	0.21521	0.22651	0.23752	0.43888	0.076647	0.5056	0.15957	0.25768	-0.65208	-1.6396	-1.3771	-1.3062	-1.7104	-1.1792	-1.5458	-1.8458	-0.93333	-1.7479	-1.4021	-1.3125	-1.8354	-1.0063	-1.4	-1.6125	137.261	-7.535	153.770	162.778	-9.666	171.927	176.951	167.562	131.803	85.094	133.644	137.486	-151.330	127.555	118.732	-155.144	0.00086733	0.00035747	0.00013353	990.74	2.3963e-06	5.4512e-06	697.81	275.72	1.2453e-05	3.6238e-06	202.37	62.494	88.079	38.978	5.404e-06	28.356	0.00020385	0.00015435	4.341e-05	924.16	1.6686e-06	1.6669e-06	653.72	259.83	1.8209e-06	1.6511e-06	190.05	58.77	82.555	37.057	1.7909e-06	26.831	38.864	-97.593	-99.942	-158.080	-46.463	-32.101	-159.881	-153.249	-48.209	4.464	-155.708	-151.068	-147.714	-142.430	-30.199	-148.195	-8191	255	
1350.788	1	1	0	0	0.13305	0.028794	0.12532	0.057406	0.23292	0.055847	0.063051	0.19987	0.21803	0.095374	0.02829	0.1283	0.048115	0.15577	0.15636	0.12405	-0.62292	-1.8104	-1.5083	-1.0812	-1.7583	-1.125	-1.3312	-1.8958	-1	-1.6979	-1.4854	-1.075	-1.7854	-1.0667	-1.2917	-1.7542	121.588	171.264	83.167	-52.275	-70.993	19.407	-63.011	71.826	91.461	62.479	-24.754	2.845	34.850	114.900	-56.037	-69.783	0.00087158	0.00017864	0.00011527	987.06	3.2131e-06	3.3885e-06	701.82	276.97	9.994e-06	3.6023e-06	205.09	63.267	88.376	39.548	4.1307e-06	28.748	0.00019854	0.00014622	4.2887e-05	925.57	1.6447e-06	1.6788e-06	655.83	259.9	1.86e-06	1.6757e-06	191.87	59.335	82.867	37.406	1.7162e-06	27.26	32.445	-103.338	-69.091	-158.343	-18.189	-21.807	-159.817	-152.858	-33.501	3.324	-155.754	-150.640	-147.884	-142.848	-58.682	-147.194	-8191	255	
1350.885	1	1	0	0	0.092235	0.20278	0.14644	0.10451	0.12602	0.32827	0.10364	0.1196	0.12989	0.19692	0.15776	0.22639	0.18524	0.29199	0.49999	0.40167	-0.39792	-1.5396	-1.5542	-1.0958	-1.7729	-1.1812	-1.1604	-1.8854	-1.2646	-1.6646	-1.6063	-1.0125	-1.825	-1.5021	-1.0458	-1.9021	-51.107	-105.057	-70.628	150.481	-168.903	-137.236	170.065	166.018	-95.875	-151.107	-32.286	165.170	-71.490	167.549	105.551	175.359	0.00079775	0.00028718	0.00011063	994.18	3.8133e-06	4.5119e-06	706.93	279.61	1.1335e-05	3.0718e-06	206.25	64.075	89.494	39.915	3.9029e-06	29.435	0.00019439	0.00015881	4.0513e-05	926.91	1.782e-06	1.762e-06	660.98	262.01	1.7936e-06	1.6113e-06	193.32	60.151	83.736	37.877	1.8305e-06	27.809	27.284	-105.144	-56.094	-158.424	-66.481	-4.629	-159.451	-152.650	-50.945	-36.204	-156.024	-150.845	-146.978	-142.548	-33.042	-147.999	-8191	255	
1350.981	1	1	0	0	0.069313	0.25541	0.064738	0.29391	0.047545	0.30561	0.19148	0.14068	0.063771	0.19404	0.23872	0.14463	0.12208	0.15667	0.065866	0.19532	-0.70417	-1.325	-1.4562	-1.0562	-1.5187	-1.3917	-1.3958	-1.8292	-1.1979	-1.1	-1.7313	-0.93333	-1.525	-1.3188	-0.9625	-1.7958	12.525	-55.076	102.115	85.784	-120.486	-4.014	-104.869	90.304	-65.247	-133.644	133.636	108.139	25.996	163.873	33.766	73.730	0.00085618	0.00035408	8.7158e-05	1002.8	3.0336e-06	2.6177e-06	716.82	281.43	9.21e-06	3.7386e-06	207.21	64.271	89.337	40.18	5.7667e-06	29.549	0.00020642	0.00015316	4.1298e-05	933.54	1.8362e-06	1.6579e-06	669.29	264.26	1.798e-06	1.7692e-06	195.41	60.508	84.319	38.241	1.8053e-06	27.957	30.713	-78.937	-23.408	-158.457	-63.571	-59.685	-160.072	-153.283	-73.078	4.375	-156.818	-151.416	-148.108	-143.144	-44.341	-148.106	-8191	255	
1351.077	1	1	0	0	0.14993	0.046701	0.17772	0.1534	0.2332	0.094579	0.23928	0.093248	0.21536	0.32323	0.040053	0.30602	0.044478	0.13611	0.24841	0.26925	-0.83125	-1.4417	-1.7542	-1.1896	-1.7792	-1.5229	-0.96667	-1.8979	-1.2083	-1.1271	-1.9271	-1.0417	-1.7062	-1.5958	-0.85208	-1.8167	30.384	126.976	-55.651	-112.615	-13.496	46.927	-160.667	-108.881	40.318	-105.920	96.063	124.381	-132.828	-108.153	-55.386	132.696	0.00089265	0.00030357	3.2739e-05	991.12	5.0334e-06	2.8756e-06	710.58	279.73	7.8851e-06	2.7531e-06	208.39	64.283	90.294	40.175	2.3017e-07	29.118	0.00020151	0.00016167	4.4125e-05	932.42	1.8157e-06	1.7427e-06	665.81	263.97	1.8381e-06	1.6651e-06	194.49	60.128	84.44	38.136	1.8565e-06	27.709	26.001	-116.393	-136.097	-158.704	-66.649	-10.330	-160.247	-153.171	-55.067	15.218	-156.411	-151.252	-148.257	-142.787	-124.297	-147.949	-8191	255	
1351.197	1	1	0	0	0.086209	0.17268	0.19965	0.033811	0.40786	0.072632	0.28827	0.29695	0.1989	0.17736	0.23121	0.138	0.19055	0.35976	0.077181	0.20374	-0.86042	-1.1688	-1.8542	-1.1729	-1.4479	-1.5688	-1.0354	-1.7437	-1.3458	-1.2604	-1.8354	-1.0063	-1.2667	-1.7458	-0.83125	-1.7146	107.914	24.391	-74.216	-129.782	-168.206	182.778	73.032	77.480	-32.919	-33.743	133.067	68.336	144.953	-126.405	149.543	-77.940	0.00086858	0.000522	0.00012699	996.57	6.0021e-06	4.522e-06	710.05	280.85	9.0785e-06	3.9542e-06	208.25	64.26	91.108	40.134	4.9951e-06	29.602	0.00020618	0.00015983	4.1186e-05	931.2	1.8367e-06	1.6895e-06	665.73	264	1.7773e-06	1.7048e-06	194.83	60.056	84.3	38.085	1.772e-06	27.822	31.268	-81.228	-56.401	-158.610	-60.616	-25.585	-160.553	-153.402	-51.515	-12.500	-156.108	-151.038	-147.940	-143.034	-49.733	-147.659	-8191	255	
1351.294	1	1	0	0	0.13455	0.25284	0.24592	0.22491	0.092644	0.089881	0.15536	0.11828	0.17571	0.16495	0.17996	0.15732	0.22049	0.25325	0.19477	0.2009	-0.86875	-1.0292	-1.6979	-1.3188	-1.3687	-1.7604	-1.1354	-1.7396	-1.5021	-1.1271	-1.7104	-1.3104	-1.1938	-1.8729	-0.98542	-1.4729	-89.680	73.830	-59.482	-105.755	159.747	131.129	105.977	40.230	117.751	-130.495	136.518	101.049	-45.240	175.817	105.288	5.771	0.00093411	0.00036848	0.0002066	1000.3	1.3236e-06	3.1303e-06	712.01	281.41	7.572e-06	3.4944e-06	208.73	64.559	90.01	40.1	4.368e-06	29.384	0.00020287	0.0001652	4.2728e-05	934.84	1.7747e-06	1.6549e-06	668.36	263.67	1.862e-06	1.6496e-06	195.05	60.28	84.103	38.09	1.8655e-06	27.869	31.478	-76.184	-74.680	-158.943	-67.749	27.531	-160.368	-153.212	-58.866	-25.734	-155.793	-150.543	-147.032	-143.090	-32.573	-148.017	-8191	255	
1351.365	1	1	0	0	0.08039	0.044554	0.29417	0.2872	0.16794	0.15173	0.18831	0.12204	0.20011	0.23496	0.14004	0.06866	0.21341	0.11564	0.20939	0.1787	-1.1479	-0.98542	-1.7479	-1.3708	-0.97708	-1.7896	-0.92083	-1.6458	-1.5083	-1.1042	-2.0104	-1.3333	-1.1833	-2.1208	-1.0646	-1.3271	9.863	-143.317	-98.712	165.127	-28.328	20.144	114.963	112.360	133.297	-93.556	-43.439	167.803	180.475	121.104	139.067	133.291	0.0008573	0.00035998	0.00010902	996.29	4.406e-06	1.2023e-06	719.64	280.75	1.0819e-05	3.4904e-06	208.7	64.605	89.676	39.959	4.1494e-06	29.215	0.00020218	0.00016363	4.3901e-05	934.49	1.9415e-06	1.6128e-06	672.11	263.7	1.8235e-06	1.8012e-06	195.12	60.308	84.094	37.941	1.8306e-06	27.51	29.942	-104.901	-68.742	-158.511	-46.217	-41.926	-160.080	-153.038	-54.389	-22.045	-156.076	-150.815	-147.583	-142.474	-23.563	-147.104	-8191	255	
1351.486	1	1	0	0	0.18352	0.16875	0.12623	0.098885	0.029133	0.06701	0.1858	0.32543	0.1675	0.24362	0.13146	0.13896	0.028737	0.14945	0.18613	0.1262	-1.3958	-1.0146	-1.6417	-1.6146	-1.1333	-2.0521	-1.1521	-1.4854	-1.4937	-1.0917	-1.65	-1.5875	-1.0708	-1.9875	-1.1042	-1.5021	-154.794	66.094	-21.594	121.159	76.706	85.145	181.520	-130.887	112.862	42.509	-126.065	147.306	116.244	-34.751	37.943	152.866	0.00080876	0.00028191	0.00011354	1004.3	5.4643e-06	5.2302e-06	709.59	281.41	9.0647e-06	2.2472e-06	206.82	62.839	88.845	39.622	4.5301e-06	28.626	0.00019959	0.00016038	4.341e-05	935.88	1.9647e-06	1.7472e-06	665.1	263.66	1.8133e-06	1.8553e-06	193.35	59.188	83.532	37.6	1.8425e-06	27.145	36.414	-104.175	-56.521	-158.317	-43.531	-38.747	-159.940	-152.983	-41.096	-1.077	-155.982	-150.999	-147.177	-142.504	-21.915	-147.579	-8191	255	
1351.580	1	1	0	0	0.066597	0.19415	0.12576	0.24819	0.13417	0.10849	0.045426	0.1397	0.19706	0.21441	0.17263	0.28128	0.2895	0.14456	0.17637	0.10223	-1.3458	-1.0562	-1.5833	-1.5292	-1.1583	-1.95	-1.3875	-1.3104	-1.6625	-1.1146	-1.7354	-1.6396	-0.85417	-1.8167	-1.1063	-1.2125	-75.991	61.985	187.548	182.563	-119.232	-145.236	53.288	45.520	46.162	-63.942	-19.898	87.492	98.760	181.910	-71.043	94.493	0.00093875	0.00042736	0.00013322	1000.1	3.8574e-06	3.2584e-06	712.06	279.25	1.1533e-05	2.5716e-06	205.74	63.761	88.834	39.561	2.6534e-06	28.791	0.00020675	0.00016428	4.449e-05	932.64	1.813e-06	1.7088e-06	661.71	262.82	1.811e-06	1.6999e-06	192.8	59.578	83.412	37.588	1.7914e-06	27.237	26.252	-57.595	-65.048	-158.809	-62.251	-39.579	-159.823	-152.898	-44.136	5.717	-155.999	-151.715	-148.156	-143.173	-16.865	-147.864	-8191	255	
1351.677	1	1	0	0	0.01618	0.27573	0.24724	0.006691	0.36181	0.064283	0.28886	0.31998	0.20294	0.29231	0.1377	0.09979	0.13824	0.1982	0.34804	0.22787	-1.4	-1.0771	-1.4875	-1.6479	-0.86042	-1.7938	-1.3917	-1.2	-1.7437	-1.0562	-1.4396	-1.775	-1.0417	-1.7	-1.3625	-1.225	32.027	166.648	-84.333	43.065	-73.164	-128.212	131.120	34.051	-124.675	-33.902	52.830	-63.712	85.273	-7.029	17.014	168.678	0.00083712	0.00042905	0.00014718	995.33	4.9695e-06	2.1628e-06	704.33	279.91	5.7383e-06	3.2801e-06	205.55	63.466	88.904	39.556	4.7176e-06	28.581	0.00019963	0.00016541	4.2097e-05	930.47	1.8775e-06	1.6504e-06	660.4	262.12	1.7927e-06	1.6888e-06	192.78	59.462	83.11	37.572	1.7858e-06	27.168	29.029	-86.441	-60.469	-158.316	-36.209	7.297	-160.145	-152.423	-21.710	-18.791	-155.923	-151.052	-147.777	-142.901	-31.124	-147.322	-8191	255	
1351.774	1	1	0	0	0.20127	0.17913	0.20405	0.15166	0.19744	0.23717	0.18949	0.055777	0.24104	0.098765	0.2153	0.32606	0.18271	0.40895	0.11733	0.086772	-1.3792	-1.0167	-1.3896	-1.825	-0.87083	-1.8312	-1.7313	-1.1187	-1.8042	-1.3792	-1.2542	-1.7979	-0.875	-1.8917	-1.45	-0.97083	90.552	-120.234	16.364	-83.536	164.699	112.998	139.996	167.003	-4.886	151.119	93.509	118.321	-95.408	-94.280	40.952	162.581	0.00091349	0.00034435	9.8403e-05	989.91	5.0994e-06	3.2744e-06	708.54	279.67	9.4007e-06	4.7543e-06	206.4	64.149	89.011	39.753	2.5829e-06	28.564	0.0002006	0.00016508	4.463e-05	925.93	1.8315e-06	1.6751e-06	660.41	261.8	1.8379e-06	1.6274e-06	193.03	59.822	83.52	37.569	1.8094e-06	27.096	34.887	-91.947	-112.073	-158.240	-64.042	-45.362	-159.978	-152.279	-79.021	42.569	-155.431	-150.828	-147.638	-142.111	-47.186	-147.261	-8191	255	
1351.893	1	1	0	0	0.1996	0.22324	0.15568	0.27381	0.1727	0.32612	0.21052	0.29944	0.11441	0.44792	0.2572	0.22888	0.03224	0.081864	0.15313	0.17067	-1.3125	-1.3896	-1.3417	-1.8167	-1.0479	-1.6271	-1.9438	-1.1771	-1.9396	-1.2188	-1.2542	-1.8458	-1.0646	-1.4021	-1.7	-1.0729	-99.497	-87.642	-102.101	147.510	13.567	-125.508	134.344	-148.364	-170.646	138.682	35.328	97.974	-13.586	-2.185	88.472	105.759	0.00087879	0.00039373	9.1486e-05	986.19	4.4645e-06	3.4996e-06	696.1	278.45	6.1493e-06	3.4048e-06	204	62.634	88.923	39.123	1.4386e-06	28.607	0.00019673	0.00015662	4.4392e-05	921.72	1.8383e-06	1.681e-06	650.74	261.05	1.8444e-06	1.6783e-06	190.67	58.817	83.21	37.217	1.7783e-06	26.788	26.178	-81.358	-76.177	-158.816	-49.236	-79.739	-160.674	-153.119	-44.365	-36.813	-156.218	-151.925	-148.186	-142.981	-15.726	-147.796	-8191	255	
1351.989	1	1	0	0	0.13445	0.080732	0.16624	0.23795	0.19242	0.099881	0.071733	0.16206	0.045232	0.18782	0.16182	0.13382	0.1114	0.28357	0.31939	0.27444	-1.4125	-1.3833	-1.0271	-1.9125	-1.1229	-1.2437	-1.9062	-1.1146	-1.5208	-1.4771	-1.1938	-1.7021	-1.0708	-1.5292	-1.7333	-1.0417	-137.572	-81.676	172.538	-139.499	27.487	-27.450	-10.250	64.513	-77.180	127.081	58.026	-139.520	33.384	163.117	-89.666	84.141	0.00079408	0.00042074	0.00014315	980.35	3.718e-06	3.6258e-06	682.5	275.74	9.2552e-06	2.3451e-06	202.65	62.943	88.391	39.065	4.2995e-06	28.395	0.0001926	0.0001622	4.5718e-05	918.54	1.8415e-06	1.6968e-06	644.39	259.55	1.7805e-06	1.6816e-06	189.72	58.79	82.457	37.248	1.7738e-06	26.736	27.266	-96.764	-65.288	-158.623	-41.162	-8.486	-160.059	-152.954	-40.757	-97.186	-155.758	-150.688	-147.962	-142.380	-50.850	-147.886	-8191	255	
1352.086	1	1	0	0	0.27595	0.12893	0.40647	0.031285	0.062896	0.13004	0.062972	0.066773	0.24701	0.34811	0.20708	0.051498	0.32926	0.033027	0.14919	0.20674	-1.3583	-1.35	-1.1042	-2.0896	-1.2458	-1.2833	-1.8917	-1.1042	-1.6229	-1.5875	-1.1125	-1.7271	-1.3542	-1.5958	-1.7604	-1.1354	5.996	43.279	-53.620	143.795	-114.155	15.288	-45.047	175.322	46.191	44.236	-117.525	12.735	167.465	-122.285	182.628	-128.289	0.00074611	0.00034587	0.0001226	983.48	4.9583e-06	3.1862e-06	694.37	277.31	8.5529e-06	3.8198e-06	202.07	62.869	88.37	39.617	1.2008e-06	28.254	0.00020001	0.00015697	4.4307e-05	919.51	1.7568e-06	1.6432e-06	648.05	260.76	1.8393e-06	1.6811e-06	190.04	58.797	82.943	37.577	1.7661e-06	26.9	29.960	-85.549	-97.363	-158.138	-49.457	-9.400	-159.946	-152.624	-45.968	14.747	-155.259	-150.158	-147.857	-143.110	-18.064	-148.232	-8191	255	
1352.182	1	1	0	0	0.11195	0.18629	0.02594	0.24776	0.45261	0.084795	0.30046	0.084245	0.24123	0.16546	0.23275	0.17102	0.27958	0.16319	0.1083	0.32841	-1.1625	-1.7313	-1.0354	-1.7687	-1.4917	-1.1875	-1.8458	-1.2083	-1.3563	-1.7417	-1.2604	-1.8021	-1.6042	-1.0458	-1.7833	-1.1812	-152.057	174.480	141.454	84.419	175.676	-85.038	163.622	58.833	88.665	-56.273	110.613	-113.639	-67.330	150.774	126.801	91.135	0.00088791	0.00026725	5.9236e-05	979.91	6.8392e-06	1.2627e-06	692.58	276.99	5.9521e-06	2.095e-06	201.15	62.626	88.283	39.25	5.9687e-06	27.893	0.00020203	0.00015192	4.3775e-05	919.03	1.7909e-06	1.6406e-06	648.7	260.15	1.792e-06	1.659e-06	188.92	58.94	82.699	37.222	1.6989e-06	26.616	28.964	-101.492	-81.279	-158.443	-70.980	-23.362	-160.430	-153.305	-48.385	-4.305	-155.394	-150.516	-147.729	-142.498	-19.644	-147.588	-8191	255	
1352.278	1	1	0	0	0.071229	0.16587	0.030897	0.15364	0.068654	0.14777	0.091416	0.28748	0.25386	0.31967	0.15833	0.11783	0.097642	0.59693	0.076831	0.11701	-0.91042	-1.7188	-1.0396	-1.8979	-1.6187	-1.0562	-1.8729	-1.1812	-1.3375	-1.7958	-0.86458	-1.7479	-1.5583	-1.025	-1.725	-1.2875	-119.904	-39.046	-12.309	-162.264	130.020	-29.612	4.934	70.929	-128.009	19.814	-160.341	-27.645	-115.996	151.165	117.295	-46.946	0.00081172	0.00034634	4.5838e-05	978.92	2.8644e-06	3.5675e-06	686.72	275.14	8.7396e-06	3.406e-06	198.96	61.956	87.488	39.163	5.3851e-06	27.836	0.00019556	0.00015796	4.2686e-05	916.54	1.739e-06	1.6291e-06	643.29	258.56	1.8131e-06	1.7231e-06	186.93	57.952	81.905	37.004	1.7846e-06	26.306	25.355	-102.020	-57.694	-158.541	1.412	-26.473	-159.965	-152.946	-55.261	-58.536	-155.725	-150.813	-147.794	-142.274	-25.697	-147.406	-8191	255	
1352.374	1	1	0	0	0.098393	0.12539	0.20632	0.39165	0.11523	0.31044	0.12175	0.31236	0.28366	0.11776	0.2944	0.053942	0.13524	0.32791	0.1187	0.29528	-0.78542	-1.7	-1.0333	-1.5375	-1.6625	-1.2042	-1.5938	-1.2313	-1.2917	-1.8917	-1.1125	-1.4208	-1.5312	-1.2646	-1.7313	-1.2708	0.241	-95.958	86.188	183.187	-149.166	2.826	-117.898	165.573	-66.378	-24.937	61.578	-36.838	156.294	-130.814	-93.651	-118.709	0.00082693	0.00024163	0.00010591	976.49	3.7614e-06	6.0018e-06	685.84	272.67	6.254e-07	2.1156e-06	198.2	61.287	88.359	38.807	7.4019e-06	28.068	0.00019081	0.00014423	4.1686e-05	913.5	1.777e-06	1.6649e-06	641.19	257.83	1.7012e-06	1.6114e-06	187.33	57.697	82.459	37.048	1.7578e-06	26.45	32.617	-68.087	-75.961	-158.378	-47.156	-28.268	-160.169	-153.174	-67.680	-33.872	-156.027	-150.962	-147.396	-142.960	-28.119	-148.007	-8191	255	
1352.495	1	1	0	0	0.18399	0.28832	0.17635	0.15234	0.16008	0.30755	0.098314	0.1895	0.1422	0.33541	0.16355	0.24271	0.2735	0.043124	0.16665	0.3129	-0.8875	-1.8396	-1.1396	-1.85	-1.5229	-1.0729	-1.6875	-1.5333	-1.0521	-1.8813	-1.1812	-1.3458	-1.8167	-1.0187	-1.6333	-1.3271	-166.773	49.244	-139.541	-161.687	-47.857	-38.894	-18.803	122.513	-154.544	126.553	-16.915	154.821	-73.379	131.089	-33.365	120.649	0.00081128	0.00028444	0.00010404	974.21	5.5659e-06	2.5331e-06	688.19	275.31	9.962e-06	5.001e-06	199.49	62.26	88.026	38.982	5.7553e-06	28.08	0.00019122	0.00014539	4.2635e-05	913.56	1.7e-06	1.7885e-06	641.99	258.49	1.8023e-06	1.6368e-06	187.22	58.053	82.417	36.994	1.8179e-06	26.609	34.793	-97.859	-72.840	-158.141	-60.627	-6.052	-159.726	-153.592	-60.732	-13.803	-155.790	-150.626	-147.552	-142.317	-49.816	-147.816	-8191	255	
1352.589	1	1	0	0	0.064008	0.093369	0.17471	0.072784	0.32118	0.11768	0.39825	0.17016	0.52314	0.12974	0.076946	0.16271	0.022902	0.17395	0.092632	0.32076	-0.57917	-1.775	-1.0604	-1.3188	-1.8208	-1.1042	-1.5292	-1.6104	-0.94375	-1.7229	-1.2354	-1.3042	-1.7563	-1.2667	-1.6021	-1.8	-101.500	77.264	-88.581	-89.180	118.575	-12.832	136.846	81.565	-139.978	-157.726	28.315	-146.156	-88.724	-12.823	-8.767	122.409	0.00082093	0.00036235	5.0471e-05	977.73	4.6456e-06	3.8286e-06	687.14	275.11	1.1104e-05	4.5854e-06	199.87	62.183	87.67	39.272	4.8306e-06	28.613	0.00020251	0.00014838	4.1803e-05	914.65	1.7246e-06	1.739e-06	643.65	257.98	1.84e-06	1.6155e-06	187.41	58.254	82.52	37.447	1.8198e-06	27.157	31.852	-102.500	-103.705	-158.355	-21.953	-27.190	-160.011	-153.107	-41.818	-8.045	-156.433	-150.964	-148.340	-143.044	-38.039	-147.731	-8191	255	
1352.662	1	1	0	0	0.27563	0.23705	0.14112	0.080036	0.19034	0.23721	0.10034	0.36229	0.20339	0.095698	0.422	0.04597	0.043584	0.085595	0.11988	0.068758	-0.66042	-1.6292	-1.0396	-1.3979	-1.7271	-1.0146	-1.5417	-1.6	-0.86042	-1.8833	-1.3667	-1.0729	-1.7563	-1.075	-1.6562	-1.4979	-146.974	-62.452	-53.973	169.040	-120.284	50.933	63.460	155.116	16.332	83.452	-4.467	183.777	99.712	-131.248	152.956	-163.971	0.00094933	0.00027097	9.1003e-05	966.03	2.6285e-06	1.8129e-06	677.38	274.2	6.7834e-06	3.3798e-06	201.68	64.279	90.911	40.74	4.6503e-06	29.504	0.00020194	0.00014818	4.3111e-05	905.88	1.6822e-06	1.643e-06	636.2	258.03	1.9039e-06	1.6131e-06	188.4	60.217	84.726	38.713	1.7822e-06	27.796	30.724	-99.361	-49.732	-158.987	-54.959	-23.116	-160.147	-153.516	-36.782	-16.555	-157.035	-151.470	-148.189	-143.243	-22.622	-148.315	-8191	255	
1352.757	1	1	0	0	0.2329	0.31443	0.18725	0.098096	0.049968	0.24711	0.20546	0.17484	0.15366	0.2875	0.11232	0.080157	0.20599	0.098114	0.36663	0.32832	-0.57292	-1.6313	-1.4125	-1.2062	-1.7729	-1.1313	-1.4083	-1.9208	-1.0083	-1.8312	-1.5417	-1.0792	-1.7958	-1.2083	-1.2333	-1.4604	12.094	133.319	-6.405	-162.716	79.063	-128.041	98.036	109.110	-15.591	86.942	45.261	-73.878	-121.324	-128.379	-32.656	166.134	0.0008921	0.00063411	7.8986e-05	961.83	3.2055e-06	3.3744e-06	685.1	274.42	7.441e-06	3.2746e-06	201.14	64.064	89.555	40.378	3.3685e-06	29.292	0.00020532	0.00015659	4.2588e-05	902.8	1.8185e-06	1.7079e-06	637.85	258.68	1.8028e-06	1.6613e-06	188.95	60.063	84.127	38.418	1.8074e-06	27.66	31.986	-55.938	-54.438	-158.730	-54.494	-12.361	-160.772	-153.313	-33.542	-22.979	-155.786	-151.154	-147.647	-143.110	-44.969	-147.411	-8191	255	
1352.855	1	1	0	0	0.17256	0.29199	0.11128	0.11979	0.071155	0.15477	0.31832	0.23626	0.013459	0.099736	0.13709	0.16638	0.17363	0.18728	0.2777	0.16095	-0.65	-1.6542	-1.4875	-1.1604	-1.8021	-1.2313	-1.325	-1.7375	-1.0583	-1.4875	-1.5417	-0.94375	-1.7125	-1.3062	-1.0625	-1.6708	156.549	-68.058	-9.901	160.651	-64.167	98.324	122.188	161.050	-64.675	-89.375	64.168	170.019	163.133	188.444	62.481	112.378	0.00091563	0.0003695	6.8115e-05	979.19	6.1313e-06	4.3108e-06	688.81	276.36	8.8064e-06	2.0604e-06	203.23	64.175	90.358	40.535	4.6929e-06	29.683	0.00020694	0.00015167	4.2915e-05	911.69	1.7729e-06	1.6271e-06	644.65	259.47	1.8189e-06	1.5916e-06	190.37	59.968	84.328	38.43	1.8017e-06	28.024	29.872	-114.147	-71.595	-158.351	-68.678	-42.222	-160.017	-153.066	-52.692	-26.924	-155.884	-150.683	-147.815	-142.732	-26.897	-147.689	-8191	255	
1352.974	1	1	0	0	0.31409	0.41534	0.015395	0.28194	0.17423	0.2005	0.12734	0.22299	0.50494	0.096044	0.064531	0.061708	0.23207	0.11792	0.078538	0.14817	-0.825	-1.3792	-1.65	-1.0646	-1.7542	-1.3646	-1.1	-1.7229	-1.1146	-1.4854	-1.7958	-0.90625	-1.8854	-1.6146	-1.1771	-1.8542	-28.072	-85.566	-107.946	-162.342	-124.053	-43.768	-17.055	-169.072	117.020	-60.412	-90.262	122.773	147.520	-137.506	171.521	171.255	0.00082334	0.00037084	0.00011414	972.7	3.6832e-06	3.0969e-06	690.56	277.43	8.7459e-06	4.4033e-06	203.64	64.627	90.463	40.543	5.0254e-06	29.691	0.00020751	0.00015595	4.5106e-05	910.36	1.7659e-06	1.6251e-06	646.74	260.62	1.877e-06	1.7011e-06	191.08	60.497	84.624	38.589	1.7941e-06	28.018	33.529	-103.432	-79.475	-157.937	-74.101	-17.159	-160.226	-152.877	-32.779	-3.195	-155.137	-150.792	-147.639	-142.853	-25.699	-147.677	-8191	255	
1353.070	1	1	0	0	0.10625	0.11658	0.16839	0.19905	0.17383	0.12043	0.20369	0.19117	0.2481	0.39619	0.28704	0.12781	0.27704	0.31484	0.067505	0.20404	-0.775	-1.2563	-1.8604	-1.1083	-1.5771	-1.5771	-1.175	-1.7167	-1.1917	-1.3417	-1.8208	-0.87917	-1.4896	-1.6646	-0.82292	-1.7917	18.937	-12.251	-158.057	56.075	85.625	172.744	183.000	158.783	-125.418	-55.154	134.975	91.395	-148.628	-126.148	-109.035	-9.136	0.00082215	0.00034941	5.1954e-05	974.17	5.2336e-06	4.1528e-06	689.62	277.19	1.1337e-05	3.4184e-06	205.23	65.122	90.961	40.849	2.9191e-06	29.718	0.00019783	0.00015426	4.4733e-05	912.09	1.7793e-06	1.6484e-06	644.71	260.61	1.755e-06	1.7644e-06	192.21	60.816	85.275	38.927	1.8166e-06	28.3	30.291	-78.652	-77.310	-157.983	-40.269	-32.611	-159.768	-153.059	-63.006	-65.904	-156.122	-150.691	-147.420	-142.902	-1.466	-147.923	-8191	255	
1353.166	1	1	0	0	0.23518	0.046293	0.21337	0.13791	0.087917	0.086607	0.13858	0.36616	0.10379	0.22367	0.24395	0.29351	0.15195	0.146	0.17625	0.15903	-0.80833	-1.0542	-1.6938	-1.1562	-1.5833	-1.6063	-1.0854	-1.7896	-1.4208	-1.0542	-1.9875	-0.99792	-1.4208	-1.7938	-1.0187	-1.7604	131.073	-97.277	17.043	99.477	143.595	-92.612	41.047	186.596	-88.522	-53.356	94.416	177.042	156.028	83.674	1.989	-2.778	0.00085991	0.00036816	7.7268e-05	978.68	3.6134e-06	3.335e-06	694.14	278.29	9.7303e-06	5.3332e-06	205.73	64.854	90.588	41.061	3.9083e-06	30.073	0.000205	0.00016832	4.1864e-05	914.47	1.7911e-06	1.7472e-06	647.93	261.83	1.8805e-06	1.7507e-06	193.21	61.091	85.298	39.098	1.8875e-06	28.469	30.636	-89.041	-47.925	-158.335	-53.965	-21.471	-160.180	-153.087	-39.203	-8.292	-155.429	-151.268	-147.765	-143.347	-28.278	-147.846	-8191	255	
1353.287	1	1	0	0	0.41595	0.38862	0.24197	0.2951	0.1108	0.20724	0.17556	0.062779	0.17831	0.18459	0.10411	0.058183	0.12635	0.23746	0.33707	0.2361	-0.95833	-0.79167	-1.8354	-1.0688	-1.3792	-1.7042	-1.0854	-1.7479	-1.1646	-1.0354	-1.8604	-1.3292	-1.2938	-1.8479	-1.0063	-1.5292	27.294	-132.924	120.932	101.216	10.446	83.654	138.843	-138.941	40.396	102.257	-35.636	105.295	-122.513	163.813	-20.986	-81.260	0.00091607	0.00050346	7.6653e-05	982.36	3.1318e-06	4.0063e-06	697.77	279.11	6.0531e-06	5.2077e-06	206.31	65.001	90.871	41.007	5.1149e-06	30.087	0.00021285	0.00015772	4.2023e-05	917.54	1.7513e-06	1.6434e-06	652.59	262.19	1.8991e-06	1.8742e-06	193.89	61.125	85.135	38.93	1.8045e-06	28.456	28.739	-79.775	-83.438	-158.284	-33.516	-50.793	-160.125	-153.244	-25.969	-11.833	-156.097	-151.564	-147.984	-143.282	-29.226	-148.073	-8191	255	
1353.358	1	1	0	0	0.084538	0.16763	0.10373	0.10685	0.25527	0.22536	0.099989	0.2156	0.15676	0.075608	0.23303	0.15079	0.12158	0.21336	0.20568	0.33381	-1.1688	-0.8125	-1.6854	-1.2833	-1.2167	-1.7771	-1.0396	-1.4	-1.475	-1.0458	-1.7667	-1.375	-1.1583	-1.7771	-0.89583	-1.6	48.202	5.856	84.382	-149.238	-28.986	176.848	-9.736	84.710	-23.264	-80.608	149.211	102.498	139.922	184.135	76.132	78.368	0.0008154	0.00017049	0.00011477	983.9	2.5865e-06	2.8999e-06	703.2	279.2	6.6305e-06	3.0596e-06	206.31	64.304	89.806	40.533	5.764e-06	29.532	0.00019769	0.00016022	4.2709e-05	918.88	1.9486e-06	1.724e-06	656.2	262.34	1.9372e-06	1.8094e-06	193.44	60.445	84.123	38.48	1.8026e-06	27.86	30.081	0.660	-58.149	-159.066	-80.120	-21.134	-160.560	-153.423	-76.861	-34.332	-156.201	-151.576	-148.183	-143.206	-22.898	-147.889	-8191	255	
1353.454	1	1	0	0	0.2995	0.24031	0.11219	0.27508	0.2198	0.10126	0.36506	0.05789	0.1379	0.0656	0.10074	0.15544	0.21034	0.18886	0.14503	0.037214	-1.0125	-0.975	-1.7708	-1.5021	-1.1958	-1.8708	-1.0812	-1.5938	-1.825	-1.0312	-1.7667	-1.4625	-1.1083	-1.7229	-1.1812	-1.4562	146.948	24.209	181.992	180.762	28.657	-32.056	51.142	174.388	-16.043	-121.384	148.039	139.522	58.273	-157.611	146.065	-100.682	0.0008695	0.00015038	0.00010228	978.11	2.7551e-06	4.6005e-06	689.84	277.33	8.5897e-06	3.6184e-06	203.08	63.451	88.948	39.599	3.5069e-06	28.777	0.00020353	0.00015931	4.3962e-05	915.63	1.8412e-06	1.739e-06	647.68	260.78	1.766e-06	1.7803e-06	190.71	59.297	83.211	37.805	1.7283e-06	27.269	32.675	-96.775	-67.995	-159.194	-74.821	-19.881	-160.644	-153.574	-49.204	7.516	-156.607	-152.026	-148.471	-143.459	-21.317	-147.938	-8191	255	
1353.575	1	1	0	0	0.25046	0.33849	0.15503	0.10072	0.087237	0.12335	0.074014	0.19351	0.099994	0.091928	0.089177	0.041766	0.13828	0.032933	0.095681	0.10362	-1.2938	-0.97292	-1.5896	-1.4333	-1.0979	-1.8854	-1.3354	-1.2583	-1.7229	-1.1333	-1.6938	-1.6313	-0.9125	-1.8729	-1.1958	-1.1667	145.721	-159.661	65.859	53.243	-107.521	-167.898	62.949	127.244	-14.898	32.099	150.635	-129.893	-85.066	-14.412	22.454	-159.365	0.00087606	0.00035234	6.2202e-05	977.37	3.8739e-06	1.7262e-06	690.74	277.64	7.94e-06	3.3342e-06	202.64	62.676	88.787	40.109	6.0983e-06	28.785	0.00019876	0.0001596	4.1401e-05	915.31	1.8344e-06	1.5906e-06	646.92	260.65	1.7523e-06	1.7905e-06	189.94	59.004	83.256	38	1.7205e-06	27.344	33.935	-91.660	-120.244	-159.018	-17.585	-41.994	-160.534	-153.474	-51.409	-37.466	-156.699	-151.518	-148.593	-143.072	-21.194	-147.711	-8191	255	
1353.669	1	1	0	0	0.29639	0.19262	0.27046	0.17611	0.18924	0.12009	0.51287	0.1647	0.048661	0.23224	0.14491	0.1785	0.11184	0.22268	0.18399	0.33536	-1.3417	-1.0208	-1.5208	-1.6125	-0.91875	-1.8833	-1.3875	-1.2833	-1.9375	-1.0708	-1.2646	-1.5833	-0.90833	-1.9188	-1.1979	-1.2938	107.112	-117.985	75.922	-115.307	63.245	127.888	117.510	-161.021	-54.023	69.482	-111.060	125.239	-87.567	181.658	15.152	108.894	0.00093232	0.00023828	8.9598e-05	983.62	3.2378e-06	3.0573e-06	694.74	277.35	8.7417e-06	3.3535e-06	203.07	63.289	88.948	39.714	5.9005e-06	28.907	0.0002008	0.00015527	4.52e-05	919.6	1.9007e-06	1.7323e-06	647.52	260.5	1.7426e-06	1.8244e-06	191.37	59.375	83.077	37.819	1.8125e-06	27.473	29.370	-97.246	-82.552	-159.166	-22.527	-24.031	-160.790	-153.641	-37.998	-28.009	-156.455	-151.546	-148.341	-143.446	-57.184	-148.258	-8191	255	
1353.766	1	1	0	0	0.099653	0.13525	0.21854	0.19003	0.17545	0.040678	0.11989	0.032871	0.22267	0.19409	0.18561	0.21613	0.13822	0.45777	0.21336	0.021476	-1.1792	-1.0312	-1.4896	-1.6812	-0.8	-1.8563	-1.4438	-1.2125	-1.5979	-1.1208	-1.5063	-1.7021	-1.0083	-1.75	-1.5812	-0.98333	-158.503	14.313	28.077	160.836	-26.276	123.257	-70.157	46.136	-2.655	-41.944	99.933	49.934	-74.379	157.916	128.178	-165.057	0.00081421	0.00042747	7.9541e-05	977.91	5.0387e-06	2.5147e-06	696.09	278.41	1.0434e-05	2.3043e-06	203.42	63.054	88.704	39.798	3.977e-06	28.838	0.00019766	0.00015749	4.3527e-05	915.88	1.8351e-06	1.6582e-06	652.23	260.8	1.7826e-06	1.7355e-06	191.39	59.368	82.961	37.633	1.7229e-06	27.243	33.088	-95.996	-105.515	-159.189	-35.619	-25.737	-160.697	-153.703	-49.635	17.789	-156.966	-151.283	-148.198	-143.222	-48.361	-147.992	-8191	255	
1353.886	1	1	0	0	0.15684	0.39927	0.11133	0.21025	0.12329	0.047689	0.093164	0.41191	0.11569	0.085722	0.10682	0.36692	0.12592	0.16475	0.087468	0.1302	-1.2542	-1.0375	-1.3104	-1.8146	-0.88542	-1.6333	-1.625	-0.98333	-1.75	-1.2958	-1.0583	-1.8708	-1.0667	-1.6625	-1.6375	-0.89583	58.575	-100.125	108.821	117.717	95.059	41.019	86.216	164.576	-53.334	-35.209	-5.149	128.515	90.796	-116.363	93.220	-134.466	0.00086044	0.00036543	6.6046e-05	988.79	4.3994e-06	4.0192e-06	689.23	277.63	1.013e-05	4.8893e-06	201.54	62.124	87.857	39.197	4.3471e-06	28.374	0.00019517	0.00015762	4.2943e-05	921.33	1.7841e-06	1.6097e-06	648.4	260.11	1.786e-06	1.6627e-06	189.17	58.248	82.498	37.196	1.7252e-06	26.773	29.541	-62.598	-81.928	-159.120	-47.931	-16.816	-160.859	-154.257	-52.027	-6.489	-156.230	-152.215	-148.413	-142.878	-42.405	-147.956	-8191	255	
1353.958	1	1	0	0	0.13028	0.031153	0.12439	0.16821	0.11976	0.16069	0.20766	0.095677	0.069925	0.19942	0.055995	0.06629	0.17412	0.25647	0.11858	0.26711	-1.2458	-1.1083	-1.0875	-1.8312	-0.89375	-1.65	-1.8146	-0.925	-1.7521	-1.3563	-1.3875	-1.8208	-1.0792	-1.5104	-1.5979	-1.2208	23.084	-1.517	114.958	68.111	-57.062	153.357	-46.618	136.103	121.259	-136.264	122.221	21.426	6.421	128.017	128.029	88.785	0.00080709	0.00025417	4.7252e-05	976.89	4.678e-06	5.7323e-06	692.58	275.88	6.3859e-06	1.8813e-06	200.6	62.113	87.419	39.149	5.043e-06	28.226	0.00019753	0.00016082	4.1738e-05	915.47	1.8367e-06	1.6015e-06	646.08	258.7	1.7419e-06	1.6255e-06	188.7	58.298	82.126	37.139	1.8031e-06	26.767	28.214	-83.758	-67.544	-159.070	-79.584	-22.166	-160.997	-153.821	-23.567	8.796	-156.746	-151.630	-148.178	-143.266	-51.413	-147.899	-8191	255	
1354.054	1	1	0	0	0.30004	0.12946	0.19677	0.10797	0.1687	0.046534	0.24819	0.12764	0.14804	0.13631	0.11075	0.30626	0.032299	0.15587	0.28126	0.12979	-1.1625	-1.4792	-0.98542	-1.8521	-0.95208	-1.4333	-1.6917	-1.1812	-1.5917	-1.425	-0.94583	-1.7458	-1.0875	-1.2583	-1.7563	-1.1688	51.884	-100.216	52.521	-19.783	23.202	-115.820	132.554	114.669	5.179	135.118	101.883	-95.036	-36.441	173.146	-43.716	-64.600	0.00074301	3.4251e-05	9.9941e-05	985.47	5.1906e-06	3.7985e-06	693.09	276.5	7.988e-06	2.583e-06	200.75	62.155	87.973	39.181	3.9504e-06	28.62	0.00018901	0.00014942	4.106e-05	919.47	1.8073e-06	1.7716e-06	648.7	259.57	1.7017e-06	1.6468e-06	189.09	58.539	82.539	37.145	1.6981e-06	26.924	37.014	-44.238	-30.415	-158.989	-63.658	-61.978	-160.786	-153.731	-39.427	-84.156	-156.168	-151.901	-148.378	-142.925	-31.689	-147.991	-8191	255	
1354.150	1	1	0	0	0.30785	0.10997	0.18968	0.14887	0.11685	0.16258	0.22163	0.36457	0.11876	0.11699	0.21265	0.079218	0.075773	0.12433	0.18977	0.2969	-1.25	-1.4229	-0.99167	-1.9062	-1.1833	-1.1958	-1.7417	-1.2313	-1.4979	-1.6063	-1.1396	-1.6958	-1.2708	-0.95	-1.6333	-1.1458	124.781	-135.173	-110.453	175.039	6.780	-115.932	176.179	132.943	55.144	24.096	-79.152	149.752	-141.149	-150.141	142.293	137.650	0.00084112	0.00053496	1.6802e-05	980.98	5.6272e-06	2.3028e-06	692.87	276.92	7.3988e-06	2.9934e-06	202.05	62.57	87.174	38.847	3.3562e-06	28.214	0.00019642	0.00015209	4.2261e-05	918.84	1.7485e-06	1.668e-06	651.87	259.61	1.7601e-06	1.584e-06	189.43	58.658	82.057	36.927	1.7714e-06	26.674	32.097	-87.123	-54.688	-158.763	-48.374	-54.494	-160.302	-153.826	-42.906	-39.275	-155.982	-151.053	-148.192	-143.162	-21.103	-148.425	-8191	255	
1354.271	1	1	0	0	0.20555	0.15093	0.166	0.19922	0.27467	0.031976	0.13559	0.15358	0.22269	0.18777	0.10248	0.23243	0.12251	0.25805	0.25419	0.22814	-0.94167	-1.5125	-0.82292	-1.75	-1.2604	-0.98542	-1.9188	-1.2208	-1.3396	-1.6604	-0.86875	-1.7521	-1.3229	-1.0208	-1.8625	-1.275	134.425	145.738	42.622	183.915	67.182	-151.649	-63.265	150.891	79.691	46.670	-119.582	-140.029	-124.372	159.500	111.468	86.436	0.00082434	0.00032384	0.00013255	984.51	5.8474e-06	2.7084e-06	692.83	276.79	7.8537e-06	2.6218e-06	202.02	61.67	86.592	38.554	4.6816e-06	27.842	0.0001966	0.00015221	4.3672e-05	918.68	1.6945e-06	1.6808e-06	648.03	259.02	1.7532e-06	1.5637e-06	188.08	57.642	81.353	36.699	1.6574e-06	26.298	36.113	-114.974	-60.721	-159.002	-46.402	-36.512	-160.251	-153.497	-37.217	-22.939	-156.321	-151.252	-148.386	-143.285	-44.279	-147.757	-8191	255	
1354.367	1	1	0	0	0.2541	0.30277	0.1929	0.15547	0.17788	0.052951	0.25332	0.25099	0.19077	0.3201	0.069603	0.07387	0.096514	0.048827	0.18056	0.38314	-0.96458	-1.5542	-0.91875	-1.6812	-1.4292	-0.875	-1.8312	-1.25	-1.1396	-1.8708	-1.1167	-1.4104	-1.5271	-1.0458	-1.5479	-1.2	-73.695	-93.628	-127.914	-63.973	110.605	-54.123	-75.703	-156.156	-135.959	-161.363	-128.179	122.005	-167.522	139.484	146.668	88.523	0.00076165	0.00040101	5.9091e-05	981.9	4.0147e-06	2.7e-06	689.63	275.02	7.9238e-06	1.5239e-06	199.44	61.181	86.933	38.718	2.8946e-06	27.55	0.00019318	0.00015119	4.3723e-05	915.99	1.7873e-06	1.6054e-06	645.37	257.83	1.7739e-06	1.5681e-06	187.62	57.391	81.392	36.599	1.6883e-06	26.198	28.310	-116.184	-123.674	-158.702	-40.870	-15.065	-160.848	-153.870	-71.254	-13.701	-156.120	-150.593	-148.273	-142.987	-14.084	-148.003	-8191	255	
1354.463	1	1	0	0	0.1847	0.22108	0.15383	0.025429	0.08466	0.21479	0.30361	0.39954	0.28408	0.12371	0.14928	0.25619	0.13627	0.16823	0.06192	0.1575	-0.85417	-1.6063	-0.97708	-1.4625	-1.475	-1.025	-1.9208	-1.4771	-0.86458	-1.7938	-1.1896	-1.4354	-1.4562	-1.025	-1.6583	-1.2167	0.202	64.943	-134.050	77.342	140.371	48.351	122.696	109.445	36.465	-93.279	138.925	125.819	145.556	-140.772	-40.114	110.745	0.00078449	0.00042226	7.7539e-05	974.74	4.9559e-06	4.2156e-06	687.7	271.89	8.8541e-06	5.4946e-06	198.55	61.085	85.696	38.407	3.7105e-06	27.904	0.00019439	0.00015234	4.1911e-05	912.15	1.8044e-06	1.7262e-06	642.98	255.81	1.7775e-06	1.5824e-06	186.58	57.31	80.892	36.399	1.7052e-06	26.339	32.551	-115.789	-85.391	-158.658	-16.915	-27.440	-160.905	-153.633	-49.532	-2.471	-156.746	-151.854	-148.392	-143.299	-27.054	-148.268	-8191	255	
1354.559	1	1	0	0	0.16287	0.15198	0.20544	0.13127	0.34118	0.097204	0.17359	0.16687	0.038415	0.15496	0.17513	0.17404	0.1683	0.36875	0.24606	0.086957	-0.5625	-1.5562	-1.0417	-1.3854	-1.8062	-1.0667	-1.6542	-1.3917	-0.9125	-1.7583	-1.1292	-1.1896	-1.4583	-1.1271	-1.5521	-1.6042	-158.832	-61.420	96.002	-94.242	107.640	47.908	-152.974	124.167	89.426	-143.403	-114.268	152.525	147.895	164.225	76.662	-13.771	0.00084936	0.00043882	9.0734e-05	971.48	3.2022e-06	2.3738e-06	687.8	273.2	7.7266e-06	3.0897e-06	200.96	61.469	86.902	38.484	3.5595e-06	27.763	0.00020644	0.00015184	4.3565e-05	911.16	1.6659e-06	1.6519e-06	644.63	257.05	1.835e-06	1.5807e-06	188.08	57.851	81.338	36.582	1.6858e-06	26.341	30.819	-87.653	-74.539	-158.924	-67.625	-37.546	-160.350	-153.816	-34.957	-30.885	-156.584	-151.335	-147.881	-142.828	-13.243	-148.043	-8191	255	
1354.654	1	1	0	0	0.079076	0.032947	0.1532	0.17642	0.079934	0.18724	0.19343	0.24427	0.18438	0.11902	0.11682	0.092788	0.085491	0.28151	0.26495	0.27537	-0.76667	-1.7979	-1.0833	-1.3354	-1.8417	-1.1417	-1.7917	-1.5812	-0.90208	-1.7333	-1.3979	-1.2062	-1.9438	-1.0938	-1.4146	-1.6042	-33.011	-131.237	109.741	135.542	41.263	118.274	73.663	135.785	114.260	-100.913	23.052	-94.059	147.846	157.778	-78.172	173.236	0.00079098	0.00030911	3.2783e-05	972.25	4.712e-06	4.7299e-06	689.52	272.7	9.5489e-06	3.4217e-06	199.51	61.299	86.147	38.467	3.919e-06	27.397	0.00019642	0.00014403	4.2284e-05	911.63	1.6731e-06	1.7468e-06	641.72	256.13	1.8154e-06	1.54e-06	186.49	57.317	80.976	36.324	1.5692e-06	26.027	36.887	-123.374	161.804	-158.877	-52.327	-15.321	-160.746	-153.882	-47.677	-2.123	-156.883	-151.460	-148.192	-143.054	-29.028	-148.374	-8191	255	
1354.750	1	1	0	0	0.27898	0.3485	0.22733	0.31799	0.37449	0.20058	0.33095	0.2051	0.21917	0.34406	0.2746	0.27738	0.33139	0.088155	0.081429	0.23054	-0.6	-1.6042	-1.3	-1.0604	-1.8625	-0.95	-1.3458	-1.4604	-0.91667	-1.6771	-1.3104	-0.89792	-2.0583	-1.1271	-1.4125	-1.575	106.808	-106.623	-75.559	142.708	152.714	130.028	-113.751	121.617	94.825	-157.154	80.699	-165.910	134.680	108.674	64.530	-97.676	0.00086192	0.00038204	0.00011221	974.05	3.3269e-06	4.8883e-06	680.08	273.45	6.3423e-06	4.3079e-06	198.06	61.062	86.176	38.304	5.1281e-06	27.703	0.00019058	0.00014121	3.9243e-05	909.64	1.662e-06	1.6653e-06	638.73	256.01	1.7952e-06	1.5544e-06	185.62	57.271	80.865	36.46	1.7662e-06	26.262	33.250	-94.264	-94.065	-158.743	-24.419	-39.623	-160.431	-153.512	-71.720	-11.388	-156.544	-151.697	-148.273	-142.896	-14.493	-148.272	-8191	255	
1354.848	1	1	0	0	0.17078	0.048081	0.06794	0.21422	0.34907	0.32046	0.31857	0.23468	0.089964	0.24527	0.16353	0.14312	0.41801	0.10008	0.10896	0.1643	-0.4625	-1.4771	-1.2646	-1.1437	-1.8667	-1.0708	-1.475	-1.8813	-1.075	-1.6625	-1.3896	-1.0667	-1.8375	-1.3521	-1.2354	-1.8458	-141.504	-120.963	-124.615	17.515	-149.019	159.554	-73.128	184.749	33.193	133.481	104.086	144.554	153.206	181.478	146.127	27.747	0.00080329	0.00028662	0.0001091	973.29	5.2725e-06	4.0749e-06	686.66	274.88	6.9066e-06	3.4337e-06	198.62	62.136	87.156	38.778	5.6767e-06	28.082	0.0001975	0.00014452	4.2116e-05	908.37	1.6843e-06	1.5919e-06	642.42	256.96	1.7279e-06	1.6281e-06	186.47	57.883	81.241	36.716	1.7229e-06	26.624	29.198	-32.792	-94.683	-158.969	-37.493	-38.251	-160.801	-153.494	-48.987	-8.962	-156.315	-151.252	-147.896	-142.883	-23.527	-147.826	-8191	255	
1354.967	1	1	0	0	0.24446	0.11586	0.22278	0.19125	0.31144	0.091222	0.19485	0.34956	0.033798	0.052288	0.23706	0.33023	0.26386	0.19787	0.26317	0.19034	-0.55417	-1.4167	-1.5104	-1.0125	-1.8208	-1.4688	-1.1083	-1.8062	-1.0604	-1.275	-1.6146	-0.83125	-1.7292	-1.5063	-1.1729	-1.8667	24.242	99.913	118.110	152.086	146.232	145.349	133.573	129.646	-99.973	-25.008	-62.173	131.605	133.641	-167.141	89.769	-44.940	0.00076005	0.0003366	8.4732e-05	973.31	5.0988e-06	2.6769e-06	694.32	274.28	8.1436e-06	1.3685e-06	202.54	62.165	87.043	39.073	3.5929e-06	28.819	0.00019148	0.00015192	3.9757e-05	910.4	1.7093e-06	1.535e-06	647.52	257.51	1.766e-06	1.5548e-06	189.51	58.572	81.999	37.103	1.7583e-06	27.164	36.706	-88.921	-69.214	-158.743	-76.830	-2.037	-160.510	-153.345	-45.418	-3.330	-156.206	-150.882	-148.204	-142.994	-46.931	-147.677	-8191	255	
1355.063	1	1	0	0	0.10899	0.18139	0.24604	0.43636	0.082275	0.11678	0.48435	0.10336	0.21677	0.12249	0.13057	0.24407	0.15179	0.38792	0.092646	0.055016	-0.57083	-1.2667	-1.6042	-1.2146	-1.7583	-1.5271	-0.97708	-2.1667	-1.1437	-1.4396	-1.7563	-0.86875	-1.6333	-1.5604	-1.0583	-1.9708	-170.924	160.907	82.722	-145.953	90.406	-104.987	-18.669	-154.222	6.216	60.912	-84.671	-148.444	-143.617	131.333	-140.318	82.368	0.00083278	0.00030352	8.4893e-05	971.82	2.8974e-06	2.0608e-06	690.21	274.35	9.7016e-06	2.6885e-06	200.79	62.037	87.579	39.506	3.7548e-06	28.516	0.00019142	0.00015	3.978e-05	910.21	1.6754e-06	1.6362e-06	646.42	257.86	1.7876e-06	1.6885e-06	188.85	58.608	82.006	37.41	1.7333e-06	27.019	29.130	-56.990	-82.474	-158.871	-22.768	6.503	-160.550	-153.300	-50.000	-37.348	-156.389	-151.179	-147.946	-142.813	-54.147	-147.667	-8191	255	
1355.159	1	1	0	0	0.33343	0.11579	0.1564	0.2357	0.035787	0.12651	0.37257	0.27959	0.25866	0.30185	0.26866	0.1435	0.21165	0.075381	0.12597	0.16922	-0.74792	-1.3813	-1.6333	-0.97917	-1.4542	-1.6208	-1.1125	-1.8188	-1.2583	-1.1	-1.8438	-0.99792	-1.4875	-1.5021	-0.98542	-1.7542	-82.626	-96.811	-74.350	-151.116	14.695	-68.766	117.992	129.298	-1.624	-17.034	-19.037	-160.066	131.734	-45.595	67.610	-70.168	0.00083384	0.00037527	7.2475e-05	965.22	5.2787e-06	2.9536e-06	690.97	273.75	7.0405e-06	4.2669e-06	201.27	63.081	88.238	39.72	5.9283e-06	29.11	0.00020381	0.000148	4.1392e-05	906.71	1.79e-06	1.6584e-06	645.62	257.88	1.8133e-06	1.7448e-06	189.56	59.125	82.796	37.724	1.7952e-06	27.518	32.025	-74.180	-110.190	-158.530	-49.689	-46.288	-160.143	-153.500	-41.294	-7.769	-156.255	-151.218	-147.518	-142.708	-52.334	-147.599	-8191	255	
1355.255	1	1	0	0	0.25392	0.13225	0.011361	0.056973	0.092298	0.29543	0.15754	0.3589	0.096331	0.078335	0.16191	0.10922	0.25855	0.10782	0.186	0.014429	-0.775	-1.1542	-1.75	-1.0917	-1.4625	-1.4792	-1.05	-1.7417	-1.3458	-1.1979	-1.7667	-1.1396	-1.3417	-1.7104	-1.0896	-1.6625	88.923	8.609	-27.230	-147.846	-51.278	-11.083	-131.112	101.509	152.565	-122.153	94.551	-98.763	89.618	5.137	35.189	-90.362	0.00081267	0.00022381	6.6899e-05	967.59	2.4569e-06	2.8029e-06	693.87	276.08	5.5978e-06	1.7112e-06	203.91	63.829	89.642	40.608	6.4738e-06	29.891	0.00019355	0.00015146	4.2097e-05	907.42	1.7419e-06	1.6751e-06	648.87	259.52	1.7022e-06	1.6066e-06	190.84	60.094	83.831	38.475	1.7916e-06	28.286	26.947	-116.466	-35.884	-159.041	-49.315	-11.865	-160.615	-153.628	-30.981	-49.045	-156.191	-151.307	-147.790	-143.270	-61.224	-148.055	-8191	255	
1355.351	1	1	0	0	0.13469	0.24262	0.20022	0.14005	0.29465	0.15813	0.35449	0.11953	0.31713	0.2312	0.21855	0.29339	0.10725	0.26865	0.070775	0.20174	-0.99583	-0.86042	-1.6938	-1.35	-1.2083	-1.675	-0.97917	-1.7062	-1.5646	-1.0312	-1.725	-1.1792	-1.5729	-1.7833	-1.0167	-1.7062	-126.536	152.931	160.197	101.599	30.536	-140.834	96.880	180.469	140.993	-103.555	-111.999	61.727	-149.428	66.423	42.997	164.461	0.00083268	0.00020647	0.00010299	975.48	5.8561e-06	4.1248e-06	700.7	278.11	1.1626e-05	3.9049e-06	206.55	64.585	89.676	40.281	4.5478e-06	29.851	0.00019453	0.00015441	4.1074e-05	910.69	1.7531e-06	1.644e-06	654.56	260.92	1.7688e-06	1.7314e-06	193.73	60.589	83.814	38.465	1.7374e-06	28.293	27.517	-120.952	-17.438	-158.927	-71.057	-33.807	-160.264	-153.449	-41.636	20.935	-156.987	-152.208	-148.413	-143.081	-52.210	-148.109	-8191	255	
1355.447	1	1	0	0	0.065616	0.14456	0.14001	0.11615	0.13886	0.063826	0.24895	0.17137	0.11022	0.17762	0.1898	0.16119	0.12874	0.17009	0.13567	0.34118	-1.1417	-0.96667	-1.7958	-1.1354	-1.3687	-1.8292	-1.0104	-1.6625	-1.5	-1.0458	-1.7979	-1.3458	-1.1708	-1.8146	-1.1625	-1.5042	-12.040	7.685	-140.933	-166.990	-81.292	-39.354	154.508	96.137	119.421	-49.762	147.972	32.585	-12.748	76.180	-52.290	75.828	0.00080501	0.00021504	8.0865e-05	973.53	2.107e-06	1.4566e-06	697.24	278.3	6.6714e-06	4.8869e-06	204.69	63.752	88.496	39.94	2.4556e-06	29.346	0.00020108	0.00015219	4.0929e-05	913.44	1.7296e-06	1.5691e-06	653.79	260.25	1.7635e-06	1.7655e-06	191.84	59.722	82.757	37.978	1.7986e-06	27.7	34.452	-90.502	-90.783	-159.016	-84.896	41.761	-160.413	-153.731	-35.139	-14.650	-156.543	-151.280	-148.260	-143.070	-44.284	-147.974	-8191	255	
1355.568	1	1	0	0	0.041646	0.18063	0.11238	0.37206	0.071542	0.088003	0.049643	0.037631	0.046928	0.2399	0.17932	0.10447	0.23592	0.17481	0.19676	0.27986	-1.3979	-0.86875	-1.6167	-1.4208	-1.1792	-1.6104	-1.0938	-1.4583	-1.7437	-1.1375	-1.8687	-1.3646	-1.0562	-1.8396	-1.125	-1.3354	108.385	106.284	147.223	-154.294	52.202	127.253	169.215	-132.674	-70.466	-113.266	-65.997	177.236	-139.994	163.959	25.216	172.636	0.00083129	0.00024325	5.8243e-05	968.17	3.1828e-06	4.6148e-06	696.49	275.6	9.9993e-06	3.3024e-06	203.5	63.328	88.09	39.802	5.6177e-06	29.232	0.0002007	0.00015017	4.1252e-05	910.55	1.8326e-06	1.6063e-06	652.25	259.26	1.6936e-06	1.694e-06	191.03	59.535	82.635	37.71	1.7966e-06	27.606	32.668	-106.973	-80.985	-158.888	-23.670	-31.043	-160.467	-153.602	-70.268	-12.686	-156.473	-151.525	-148.420	-142.996	-17.606	-148.052	-8191	255	
1355.662	1	1	0	0	0.13135	0.15062	0.046651	0.44375	0.18373	0.068453	0.19506	0.088588	0.14136	0.19113	0.070552	0.093499	0.20343	0.21085	0.11956	0.067876	-1.2604	-0.86042	-1.4062	-1.5979	-1.0771	-1.6229	-1.4937	-1.35	-1.6479	-1.0646	-1.5583	-1.6021	-0.82708	-1.7792	-1.2208	-1.3062	-161.699	18.199	32.434	145.649	168.827	-14.642	74.373	86.904	111.978	70.137	134.971	-102.206	175.979	162.343	-156.672	-121.092	0.00083018	0.00042578	0.00010577	973.67	5.2671e-06	2.808e-06	695.53	276.19	7.9032e-06	5.0502e-06	206.06	63.482	88.624	39.49	2.6913e-06	29.175	0.00020291	0.00016017	4.3709e-05	910.04	1.8096e-06	1.5776e-06	652.92	259.12	1.7495e-06	1.6296e-06	192.18	59.437	82.459	37.509	1.691e-06	27.598	29.708	-78.296	-96.587	-158.738	-70.493	-13.097	-160.542	-153.621	-24.413	-7.488	-156.644	-151.705	-148.160	-143.092	-20.597	-148.267	-8191	255	
1355.759	1	1	0	0	0.071852	0.23282	0.15596	0.098392	0.21266	0.25143	0.095673	0.030152	0.15391	0.13876	0.14325	0.2664	0.16291	0.11953	0.1642	0.098993	-1.6	-1.075	-1.5063	-1.5917	-0.86875	-1.8271	-1.4688	-1.1083	-1.8708	-1.0375	-1.3958	-1.5792	-0.94792	-1.5438	-1.275	-1.0729	-24.441	60.184	-30.082	66.326	-5.697	37.126	140.991	-117.863	-20.050	-170.509	142.154	127.858	93.664	169.672	32.545	9.422	0.00092129	0.00027704	8.8719e-05	980.86	4.0614e-06	5.1243e-06	701.32	274.35	1.3008e-05	4.0608e-06	205.82	63.678	87.954	39.462	2.5306e-06	29.307	0.0002041	0.00015278	4.363e-05	914.1	1.8139e-06	1.636e-06	656.69	258.17	1.8347e-06	1.672e-06	192.68	59.838	82.521	37.493	1.7965e-06	27.747	30.656	-113.041	-136.824	-158.954	-48.506	-22.530	-160.456	-153.492	-51.779	6.307	-156.616	-151.882	-148.300	-142.879	-60.501	-147.771	-8191	255	
1355.855	1	1	0	0	0.2777	0.16272	0.20118	0.20435	0.088151	0.14343	0.28005	0.20324	0.17478	0.027365	0.098963	0.23307	0.19465	0.29939	0.10874	0.076167	-1.1542	-1.05	-1.3604	-1.8792	-0.99167	-1.5625	-1.3958	-1.1271	-1.7375	-1.2208	-1.3104	-1.9271	-1.1063	-1.6708	-1.5396	-0.99167	-33.528	-37.376	-38.678	64.782	114.216	-86.100	86.188	-162.608	94.867	-93.136	-171.026	148.859	64.318	186.583	160.284	-1.327	0.00090686	0.00029211	0.0001188	972.32	3.9601e-06	4.2481e-06	703.79	275.9	1.0874e-05	3.3362e-06	205.24	63.558	87.956	39.983	4.3522e-06	29.399	0.00020367	0.0001568	4.3943e-05	911.8	1.7478e-06	1.6745e-06	655.46	258.38	1.7701e-06	1.7005e-06	191.68	59.628	82.49	37.922	1.7616e-06	27.982	29.129	-75.768	-59.003	-158.938	-42.714	-25.844	-160.580	-154.012	-55.511	-38.870	-156.341	-151.656	-148.360	-142.918	-27.331	-147.543	-8191	255	
1355.951	1	1	0	0	0.23126	0.22688	0.22469	0.18283	0.023894	0.083205	0.3582	0.2353	0.099792	0.076722	0.053726	0.01605	0.17894	0.27087	0.08782	0.078544	-1.3208	-1.25	-1.1729	-2.0542	-1.1938	-1.4771	-1.7687	-1.0187	-1.6063	-1.2917	-1.1292	-1.7667	-1.1375	-1.625	-1.6562	-1.1146	7.190	96.219	120.782	-142.551	115.995	-145.230	58.727	119.350	-117.244	-20.737	-12.053	-71.162	-36.369	182.328	-146.570	72.388	0.00086076	0.00022674	7.4549e-05	969.54	4.4606e-06	5.3787e-06	695.99	274.22	1.0301e-05	4.3278e-06	204.8	65.464	89.269	40.554	3.5397e-06	29.84	0.00019348	0.00015264	4.2663e-05	908.13	1.8146e-06	1.606e-06	651.21	258.23	1.7017e-06	1.7149e-06	192.34	61.08	83.814	38.516	1.7599e-06	28.328	30.954	-96.359	-87.833	-158.919	-39.702	-20.799	-160.474	-153.337	-73.624	2.838	-156.374	-151.172	-147.981	-143.723	-24.131	-147.728	-8191	255	
1356.047	1	1	0	0	0.21078	0.26384	0.14045	0.1761	0.35207	0.16271	0.25663	0.34205	0.14683	0.25996	0.21735	0.32514	0.020891	0.10442	0.36731	0.14437	-1.2812	-1.1521	-0.96875	-1.7333	-1.125	-1.45	-1.8438	-0.96875	-1.7104	-1.2375	-1.0604	-1.6688	-1.2	-1.4333	-1.4896	-1.1958	71.537	112.844	-48.788	-162.122	-68.928	-134.576	122.624	78.180	96.977	88.956	50.121	131.270	-122.134	-148.359	-103.962	-117.063	0.00082956	0.00041789	8.7792e-05	962.84	4.8303e-06	7.461e-07	693.89	275.26	7.6227e-06	3.093e-06	204.06	64.658	89.734	40.199	5.116e-06	29.71	0.00019596	0.00015398	4.5728e-05	903.81	1.757e-06	1.6397e-06	650.36	258.37	1.9255e-06	1.8136e-06	192.41	60.987	83.975	38.19	1.7758e-06	28.056	34.909	-86.571	-55.635	-158.954	-30.855	-15.143	-160.618	-153.372	-50.078	-0.929	-156.195	-151.228	-148.047	-143.116	-23.915	-148.433	-8191	255	
1356.143	1	1	0	0	0.12505	0.16431	0.1305	0.24577	0.077472	0.26955	0.1103	0.17617	0.24643	0.17897	0.084272	0.2838	0.19983	0.27738	0.30359	0.10363	-1.1958	-1.4312	-0.92708	-1.9854	-1.1979	-1.3	-1.9208	-1.15	-1.3854	-1.5521	-0.88542	-1.8271	-1.3208	-1.3312	-1.7188	-1.1146	126.089	-163.935	154.103	163.383	-164.518	-11.307	-165.310	149.367	152.505	-45.981	-168.769	12.551	169.548	156.423	35.244	38.608	0.00082447	0.0004505	0.00010076	969.83	2.8599e-06	3.8009e-06	702.11	275.52	7.9312e-06	2.187e-06	205.24	65.123	88.819	40.29	6.6086e-06	29.886	0.00019809	0.00016047	4.4966e-05	910.73	1.7927e-06	1.6579e-06	656.98	258.46	1.7598e-06	1.6853e-06	193.01	60.796	83.375	38.277	1.8542e-06	28.496	29.805	-109.779	-108.672	-159.004	-39.189	-34.960	-160.631	-153.794	-18.567	-22.368	-156.565	-151.568	-148.351	-143.245	-40.164	-148.442	-8191	255	
1356.239	1	1	0	0	0.28189	0.25501	0.18648	0.11521	0.10754	0.21564	0.28636	0.060904	0.21392	0.13398	0.14102	0.19705	0.051918	0.087785	0.33993	0.36089	-1.1917	-1.6313	-0.7875	-1.7208	-1.2208	-1.3312	-1.8833	-1.4083	-1.4396	-1.725	-0.96042	-1.6958	-1.2729	-1.1792	-1.7625	-1.2875	-85.925	131.932	20.112	-129.303	112.435	165.469	46.932	93.162	-2.079	-12.121	-127.999	105.600	69.247	-108.447	41.258	109.983	0.00089702	0.00033625	0.00015979	974.5	3.6296e-06	4.8743e-06	699.64	274.8	6.9959e-06	3.4891e-06	205.19	64.617	88.824	40.197	4.1195e-06	29.998	0.000199	0.00014851	4.6494e-05	911.08	1.8007e-06	1.7918e-06	657.92	258.89	1.8802e-06	1.7209e-06	193.59	60.84	83.554	38.23	1.7858e-06	28.325	36.313	-91.247	-81.980	-158.972	-81.349	-35.864	-160.815	-153.675	-63.989	-18.773	-156.439	-151.950	-148.255	-143.130	-44.211	-148.103	-8191	255	
1356.360	1	1	0	0	0.20738	0.10853	0.14659	0.39118	0.19472	0.041485	0.018959	0.31504	0.15096	0.23061	0.19256	0.082522	0.11238	0.036454	0.1022	0.028828	-0.95833	-1.6896	-0.97708	-1.6771	-1.3333	-1.2729	-2.0417	-1.3021	-1.1854	-1.7521	-0.96667	-1.2958	-1.4	-0.98125	-1.5646	-1.1625	176.734	6.541	-73.370	138.040	-14.374	51.903	74.805	-170.113	107.484	23.264	-85.631	144.249	127.566	77.569	110.493	30.519	0.00093166	0.00034113	0.00010454	970.08	4.297e-06	1.7695e-06	699.39	276.28	7.8929e-06	2.931e-06	205.94	65.534	88.947	40.317	6.6792e-06	30.102	0.00021081	0.00016023	4.4191e-05	907.84	1.9301e-06	1.7438e-06	656.27	260.07	1.9101e-06	1.6807e-06	193.93	61.106	83.646	38.243	1.8107e-06	28.342	32.730	-125.861	-58.402	-158.870	-35.048	-40.041	-160.616	-153.985	-31.380	-40.499	-156.174	-151.777	-148.380	-143.334	-52.581	-148.221	-8191	255	
1356.454	1	1	0	0	0.20798	0.13994	0.10183	0.028152	0.22032	0.18028	0.17764	0.099842	0.10973	0.11647	0.086425	0.10823	0.10815	0.10786	0.2909	0.10787	-0.81042	-1.7917	-1.0271	-1.6083	-1.4854	-1.0521	-1.8396	-1.2771	-1.1979	-1.55	-0.90625	-1.4542	-1.6917	-1.0729	-1.5958	-1.2687	135.916	41.732	-27.184	164.308	90.446	-22.793	137.323	159.591	120.702	61.224	163.704	-143.627	-107.644	-168.786	-51.680	-106.474	0.0008419	0.00013468	0.00011236	971.33	6.0133e-06	3.0669e-06	701.64	276.74	9.7249e-06	3.3519e-06	206.09	64.389	88.93	39.99	5.6452e-06	29.654	0.00020407	0.00015687	4.6999e-05	910.56	1.8217e-06	1.7409e-06	658.16	259.36	1.8559e-06	1.6455e-06	194.17	60.603	83.072	38.007	1.8565e-06	28.107	31.049	-84.277	-80.828	-159.047	-52.224	-51.456	-160.605	-154.032	-53.073	1.468	-156.532	-151.187	-148.131	-143.175	-47.442	-148.187	-8191	255	
1356.528	1	1	0	0	0.17422	0.10043	0.16747	0.12594	0.16672	0.17339	0.079667	0.080863	0.18767	0.32425	0.29736	0.11673	0.16078	0.19653	0.033581	0.19611	-0.76458	-1.7396	-0.82292	-1.5417	-1.6729	-1.0187	-1.6562	-1.4312	-0.95625	-1.8271	-0.99375	-1.5292	-1.5417	-1.1812	-1.6875	-1.3396	-161.365	-53.097	-128.409	67.060	24.824	137.833	16.479	146.077	-121.337	57.363	-155.133	-118.899	-118.938	112.376	41.132	70.917	0.00087852	0.00037553	0.00018134	972.86	2.4404e-06	2.5014e-06	710.03	275.62	1.0095e-05	2.7149e-06	207.21	64.65	88.352	39.845	6.0812e-06	29.99	0.00021663	0.00015117	4.4863e-05	910.72	1.8096e-06	1.6838e-06	661.49	259.26	1.8876e-06	1.7046e-06	194.79	60.999	82.789	37.882	1.829e-06	28.288	35.357	-85.871	-85.355	-158.981	19.080	-62.248	-160.636	-153.531	-54.554	-6.203	-156.787	-151.319	-148.301	-143.514	-14.973	-148.331	-8191	255	
1356.648	1	1	0	0	0.35129	0.071244	0.17361	0.39485	0.13191	0.19547	0.037185	0.19519	0.10676	0.11503	0.24066	0.13009	0.13828	0.1607	0.09337	0.20192	-0.57292	-1.7792	-0.98333	-1.3167	-1.7208	-1.0125	-1.675	-1.6833	-0.90625	-1.8438	-1.0896	-1.2687	-1.9438	-1.0438	-1.5521	-1.5375	-50.479	107.583	-114.578	134.716	-156.780	-52.627	111.696	40.824	-0.982	23.177	110.914	-57.870	46.513	135.609	108.726	47.174	0.00090865	0.00040918	0.00017869	979.41	4.5415e-06	2.155e-06	707.51	276.17	9.3506e-06	6.0955e-07	205.38	63.729	87.444	39.509	4.7737e-06	29.029	0.00020711	0.00015946	4.4064e-05	915.52	1.762e-06	1.6712e-06	661.32	259.68	1.7391e-06	1.6107e-06	192.82	60.174	82.207	37.461	1.7052e-06	27.518	34.806	-75.257	-78.642	-158.760	-29.856	-25.808	-160.822	-153.357	-35.075	-101.916	-156.651	-151.690	-147.915	-143.359	-61.492	-147.719	-8191	255	
1356.743	1	1	0	0	0.20408	0.20465	0.1029	0.33843	0.22345	0.053594	0.072916	0.38336	0.15559	0.073789	0.31683	0.19718	0.11143	0.30837	0.071415	0.23771	-0.62708	-1.6333	-1.2479	-1.2687	-1.8625	-1.1562	-1.4688	-1.8292	-1.0208	-1.7792	-1.3333	-1.1479	-1.7229	-1.1917	-1.325	-1.7604	170.864	-69.720	-163.859	171.587	15.004	-37.243	162.651	166.800	-141.769	20.767	111.541	161.624	-112.814	103.453	-132.608	95.708	0.00086106	0.00025678	3.9553e-05	979.18	2.6896e-06	3.9691e-06	703.85	275.42	8.8009e-06	3.1745e-06	204.53	63.591	87.439	38.787	4.3294e-06	28.857	0.00020263	0.00014938	4.3429e-05	913.37	1.6795e-06	1.7112e-06	658.22	257.76	1.9046e-06	1.5851e-06	191.77	59.483	81.845	36.923	1.759e-06	27.326	31.288	-95.956	-122.973	-158.619	8.444	-9.137	-160.485	-153.712	-46.869	-17.698	-156.560	-151.337	-148.056	-143.215	-38.193	-148.005	-8191	255	
1356.839	1	1	0	0	0.090677	0.20784	0.078906	0.30433	0.11122	0.11655	0.074283	0.1813	0.12509	0.28578	0.2428	0.21928	0.11482	0.055469	0.24036	0.41221	-0.66458	-1.5812	-1.2479	-0.9625	-1.8625	-1.0312	-1.425	-1.8521	-0.97083	-1.7333	-1.5042	-0.96667	-1.8354	-1.3729	-1.2146	-1.9062	-117.140	93.175	-134.286	-164.506	5.257	175.846	103.718	160.555	110.113	188.048	184.463	179.675	-158.867	153.538	-47.942	178.726	0.00080572	0.00033211	7.9531e-05	971.38	5.9418e-06	4.6282e-06	699.41	275.52	9.0056e-06	4.435e-06	207.27	63.325	87.907	39.035	5.7174e-06	28.887	0.00019821	0.00014955	4.1121e-05	912.04	1.6761e-06	1.6567e-06	657.77	258.54	1.801e-06	1.6409e-06	193.26	59.534	82.302	37.14	1.7927e-06	27.521	31.324	-92.145	-88.489	-159.054	-35.041	-22.606	-160.600	-153.388	-39.146	-25.694	-156.301	-151.368	-148.139	-143.342	-32.986	-148.098	-8191	255	
1356.935	1	1	0	0	0.10346	0.19191	0.22631	0.2676	0.13806	0.13556	0.23619	0.29492	0.16138	0.19116	0.31171	0.078346	0.053054	0.26032	0.057921	0.17847	-0.46667	-1.4583	-1.6771	-1.1583	-1.7271	-1.3813	-1.3708	-1.925	-0.89583	-1.4375	-1.4917	-1.0229	-1.7625	-1.3229	-1.0292	-1.7375	-104.883	-107.488	-66.882	126.030	83.418	161.458	58.915	90.346	-75.910	-138.767	104.875	135.086	-37.130	116.195	-123.200	-40.724	0.0010013	0.00037075	7.251e-05	973.5	2.7471e-06	1.3674e-06	703.61	275.5	8.3773e-06	3.4529e-06	206.58	63.648	87.208	39.14	5.1366e-06	29.255	0.00020632	0.00015448	4.2102e-05	912.52	1.7584e-06	1.775e-06	660.98	258.42	1.868e-06	1.669e-06	193.15	59.922	82.08	37.097	1.7853e-06	27.575	26.586	-100.459	-48.298	-159.130	-35.820	-53.304	-160.573	-153.765	-31.039	-9.065	-156.253	-151.742	-148.167	-143.133	-77.529	-147.924	-8191	255	
1357.056	1	1	0	0	0.092699	0.17674	0.13846	0.2957	0.24142	0.17808	0.33365	0.12528	0.219	0.30078	0.10748	0.25811	0.054979	0.22639	0.14635	0.061398	-0.67917	-1.4125	-1.6437	-1.0562	-1.6875	-1.2146	-1.1083	-1.9708	-1.1521	-1.5396	-1.725	-1.1083	-1.5562	-1.6812	-1.0708	-1.8292	78.524	-78.177	68.998	155.962	-150.346	155.208	65.518	42.999	93.376	-77.474	-157.911	150.691	-132.430	136.179	179.166	82.368	0.00083042	0.00030394	0.00012467	978.7	5.4266e-06	3.1032e-06	702.6	275.91	1.4394e-05	3.5023e-06	206.91	63.507	87.084	38.805	4.9451e-06	28.587	0.00019904	0.00015831	4.1911e-05	913.23	1.7823e-06	1.6128e-06	660.74	258.15	1.8313e-06	1.7146e-06	192.76	59.658	81.609	36.728	1.7777e-06	26.996	29.918	-78.659	-41.849	-158.858	-40.573	-61.193	-160.500	-153.651	-44.536	25.424	-156.544	-152.019	-148.607	-143.376	-37.031	-148.226	-8191	255	
1357.127	1	1	0	0	0.21125	0.058508	0.316	0.14573	0.28002	0.22648	0.23114	0.13128	0.13922	0.16545	0.10963	0.15852	0.18722	0.11309	0.25792	0.21142	-0.7875	-1.4167	-1.5875	-1.0646	-1.5667	-1.4854	-0.98125	-1.8208	-1.1812	-1.3167	-1.875	-1.1125	-1.7396	-1.6604	-0.9	-1.7313	-45.720	-115.576	7.355	-144.184	-43.059	-59.204	95.086	152.497	136.198	-88.810	-19.099	-111.794	142.409	101.544	126.352	50.810	0.00081618	0.00035291	5.8652e-05	971.84	3.6575e-06	2.7811e-06	699.06	273.58	8.0195e-06	3.9348e-06	205.21	62.881	86.798	38.501	3.0845e-06	28.248	0.00019485	0.00015136	4.0943e-05	912.32	1.7713e-06	1.6664e-06	656	257.67	1.7913e-06	1.644e-06	191.1	58.975	81.388	36.575	1.7822e-06	26.864	27.178	-144.543	-63.214	-159.101	-39.583	-109.674	-160.752	-153.688	-76.524	-28.816	-156.242	-151.721	-148.400	-143.361	-4.045	-147.836	-8191	255	
1357.248	1	1	0	0	0.16461	0.040832	0.062637	0.10615	0.16538	0.52397	0.22763	0.20906	0.15544	0.26937	0.11216	0.19521	0.2029	0.15697	0.15458	0.13035	-0.94792	-1.2271	-1.6958	-1.2188	-1.5938	-1.6812	-0.89583	-1.8021	-1.1688	-1.0625	-1.8833	-1.0521	-1.1083	-1.7792	-0.9625	-1.7771	99.557	150.957	122.907	-27.577	65.033	132.392	87.893	-118.489	-170.047	-44.982	40.512	126.885	164.626	-23.982	12.029	90.802	0.00082911	0.00021007	0.00010427	974.02	1.8185e-06	2.6705e-06	699.75	272.98	6.8324e-06	6.703e-06	205.39	62.928	86.899	38.616	3.7981e-06	28.603	0.00019105	0.00015266	4.2971e-05	910.7	1.6929e-06	1.6113e-06	655.43	257.42	1.8023e-06	1.7346e-06	192.25	59.226	81.834	36.743	1.6214e-06	27.068	29.646	-84.846	-94.295	-159.097	-55.477	-7.316	-160.520	-153.842	-30.134	-10.813	-156.539	-151.592	-148.237	-143.486	-47.178	-147.896	-8191	255	
1357.344	1	1	0	0	0.16319	0.070989	0.081404	0.31372	0.41311	0.053768	0.26188	0.19875	0.19865	0.29762	0.073603	0.046053	0.069463	0.12357	0.14559	0.37818	-0.95417	-1.1625	-1.6104	-1.0771	-1.3146	-1.7604	-1.0625	-1.7313	-1.3563	-1.0208	-2.0021	-1.0812	-1.2333	-1.7208	-0.93125	-1.5833	21.524	162.663	-149.611	155.288	-127.405	-132.416	86.182	-156.911	22.969	1.968	70.126	128.201	106.532	163.542	-140.271	136.374	0.00086425	0.00019966	7.2111e-05	974.89	3.5821e-06	3.5556e-06	702.56	273.33	9.9243e-06	3.619e-06	206.06	63.41	86.919	38.607	4.3311e-06	28.536	0.00019914	0.00016244	4.2196e-05	911.33	1.7806e-06	1.6071e-06	658.19	258.09	1.707e-06	1.6977e-06	193.18	59.695	81.877	36.777	1.7732e-06	27.188	29.204	-87.999	-128.818	-158.916	-74.424	6.762	-160.746	-153.556	-40.887	12.720	-156.654	-151.779	-148.321	-143.248	-16.788	-147.950	-8191	255	
1357.440	1	1	0	0	0.048096	0.065254	0.26222	0.2824	0.24782	0.26867	0.35509	0.25302	0.29271	0.26736	0.23512	0.292	0.16838	0.075103	0.036083	0.17563	-1.0979	-0.83125	-1.4542	-1.1083	-1.05	-1.7167	-1.0917	-1.5312	-1.4792	-0.98958	-1.6125	-1.3312	-1.0521	-1.8062	-1.025	-1.2729	-88.869	136.651	133.070	171.104	31.751	-121.758	93.451	183.265	-92.952	150.274	136.721	-119.485	-146.221	-37.387	142.939	-111.919	0.0008776	0.00017255	5.6502e-05	975.97	7.2187e-06	4.5894e-06	703.92	276.15	8.3027e-06	4.8207e-06	205.11	62.395	86.57	38.617	5.0324e-06	28.488	0.00019817	0.0001505	4.1485e-05	911.56	1.8153e-06	1.6516e-06	658.34	259.21	1.7045e-06	1.7049e-06	192.59	58.986	81.293	36.529	1.7365e-06	26.906	26.515	-89.961	-47.925	-159.060	-38.645	-24.030	-160.775	-153.714	-38.862	-5.162	-156.789	-151.735	-148.639	-143.347	-42.191	-147.968	-8191	255	
1357.536	1	1	0	0	0.13542	0.40522	0.26235	0.045051	0.078974	0.07847	0.14839	0.21439	0.20013	0.035728	0.088344	0.16684	0.18376	0.080803	0.17708	0.22861	-1.2563	-0.80625	-1.7729	-1.4458	-1.0771	-1.8708	-1.0979	-1.2125	-1.5917	-0.8375	-1.6458	-1.3542	-1.0083	-1.7667	-0.84792	-1.4438	-149.967	48.928	59.803	124.548	163.064	121.666	171.732	140.189	-75.557	16.289	127.372	117.358	-56.444	-127.538	175.545	106.491	0.00078332	0.00032823	7.0559e-05	972.33	4.2103e-06	5.8383e-06	699.38	275.06	1.2885e-05	3.2032e-06	203.85	62.335	87.12	38.207	5.046e-06	27.869	0.00019475	0.00015346	4.0042e-05	910.74	1.7192e-06	1.6732e-06	653.51	258.06	1.704e-06	1.6472e-06	191.18	58.557	81.193	36.308	1.7637e-06	26.556	30.569	-52.291	-95.045	-158.937	-48.313	-41.613	-160.921	-153.838	-59.464	-0.783	-156.589	-151.390	-148.289	-143.236	-45.210	-148.402	-8191	255	
#DATA ENDS
