BOXY.EXE: ISS Imagent and Oximeter Data Acquisition Program Version 0.80
Ascii Record File

#ACQ INFORMATION
2  Detector Channels 
16  External MUX Channels 
1  Auxiliary Channels 
5000  Waveform (CCF) Frequency (Hz)
1  Waveforms Skipped 
30  Waveforms Averaged 
1  Cycles Averaged 
16  Acquisitions per Waveform 
10.0806  Updata Rate (Hz) 

#FILE INFORMATION
TRUE -- External MUX Channel results are PARSED.
FALSE -- AC DC and Phase are NOT grouped.
TRUE -- Companion Program Settings File CREATED.
FALSE -- AC data not excluded
FALSE -- DC data not excluded
FALSE -- Phase data not excluded
FALSE -- Auxillary Chn. data not excluded
Tab delimiters

#CALIBRATION STATE
TRUE -- Waveform Calibration Values APPLIED.


#AUX CALIBRATION VALUES
Val Type	aux-1	

Term	1.0000e+00	
Factor	0.0000e+00	


#WF CALIBRATION VALUES
A = Detector Channel
Val Type	A-AC1	A-AC2	A-AC3	A-AC4	A-AC5	A-AC6	A-AC7	A-AC8	A-AC9	A-AC10	A-AC11	A-AC12	A-AC13	A-AC14	A-AC15	A-AC16	A-DC1	A-DC2	A-DC3	A-DC4	A-DC5	A-DC6	A-DC7	A-DC8	A-DC9	A-DC10	A-DC11	A-DC12	A-DC13	A-DC14	A-DC15	A-DC16	A-Ph1	A-Ph2	A-Ph3	A-Ph4	A-Ph5	A-Ph6	A-Ph7	A-Ph8	A-Ph9	A-Ph10	A-Ph11	A-Ph12	A-Ph13	A-Ph14	A-Ph15	A-Ph16	

Term	0.00000e+00	0.00000e+00	0.00000e+00	0.00000e+00	0.00000e+00	0.00000e+00	0.00000e+00	0.00000e+00	0.00000e+00	0.00000e+00	0.00000e+00	0.00000e+00	0.00000e+00	0.00000e+00	0.00000e+00	0.00000e+00	0.00000e+00	0.00000e+00	0.00000e+00	0.00000e+00	0.00000e+00	0.00000e+00	0.00000e+00	0.00000e+00	0.00000e+00	0.00000e+00	0.00000e+00	0.00000e+00	0.00000e+00	0.00000e+00	0.00000e+00	0.00000e+00	0.00000e+00	0.00000e+00	0.00000e+00	0.00000e+00	0.00000e+00	0.00000e+00	0.00000e+00	0.00000e+00	0.00000e+00	0.00000e+00	0.00000e+00	0.00000e+00	0.00000e+00	0.00000e+00	0.00000e+00	0.00000e+00	
Factor	1.00000e+00	1.00000e+00	1.00000e+00	1.00000e+00	1.00000e+00	1.00000e+00	1.00000e+00	1.00000e+00	1.00000e+00	1.00000e+00	1.00000e+00	1.00000e+00	1.00000e+00	1.00000e+00	1.00000e+00	1.00000e+00	1.00000e+00	1.00000e+00	1.00000e+00	1.00000e+00	1.00000e+00	1.00000e+00	1.00000e+00	1.00000e+00	1.00000e+00	1.00000e+00	1.00000e+00	1.00000e+00	1.00000e+00	1.00000e+00	1.00000e+00	1.00000e+00	X	X	X	X	X	X	X	X	X	X	X	X	X	X	X	X	

B = Detector Channel
Val Type	B-AC1	B-AC2	B-AC3	B-AC4	B-AC5	B-AC6	B-AC7	B-AC8	B-AC9	B-AC10	B-AC11	B-AC12	B-AC13	B-AC14	B-AC15	B-AC16	B-DC1	B-DC2	B-DC3	B-DC4	B-DC5	B-DC6	B-DC7	B-DC8	B-DC9	B-DC10	B-DC11	B-DC12	B-DC13	B-DC14	B-DC15	B-DC16	B-Ph1	B-Ph2	B-Ph3	B-Ph4	B-Ph5	B-Ph6	B-Ph7	B-Ph8	B-Ph9	B-Ph10	B-Ph11	B-Ph12	B-Ph13	B-Ph14	B-Ph15	B-Ph16	

Term	0.00000e+00	0.00000e+00	0.00000e+00	0.00000e+00	0.00000e+00	0.00000e+00	0.00000e+00	0.00000e+00	0.00000e+00	0.00000e+00	0.00000e+00	0.00000e+00	0.00000e+00	0.00000e+00	0.00000e+00	0.00000e+00	0.00000e+00	0.00000e+00	0.00000e+00	0.00000e+00	0.00000e+00	0.00000e+00	0.00000e+00	0.00000e+00	0.00000e+00	0.00000e+00	0.00000e+00	0.00000e+00	0.00000e+00	0.00000e+00	0.00000e+00	0.00000e+00	-1.31583e+02	-1.21578e+02	-1.40012e+02	-1.81298e+02	-8.87385e+01	-6.29981e+01	-1.57795e+02	-1.62015e+02	-6.94921e+01	-9.60310e+01	-1.75953e+02	-1.70521e+02	-1.80371e+02	-1.76072e+02	-6.81803e+01	-1.48893e+02	
Factor	1.93261e-05	1.42640e-04	3.75110e-05	1.68919e-01	1.12948e-06	1.23653e-06	1.80120e-01	7.03469e-02	1.11070e-06	1.40164e-06	1.16901e-01	3.27342e-02	2.64059e-02	1.04235e-02	1.14977e-06	1.44954e-02	1.13826e-06	1.18118e-06	3.28429e-07	8.21832e-02	1.29226e-08	1.29492e-08	8.20368e-02	3.39068e-02	1.29380e-08	1.29875e-08	5.34765e-02	1.52769e-02	1.27878e-02	5.00872e-03	1.30016e-08	6.72239e-03	X	X	X	X	X	X	X	X	X	X	X	X	X	X	X	X	



#DISTANCE SETTINGS
A = Detector Channel
A-1	A-2	A-3	A-4	A-5	A-6	A-7	A-8	A-9	A-10	A-11	A-12	A-13	A-14	A-15	A-16	

2.5000e+00	3.0000e+00	2.5000e+00	3.0000e+00	2.0000e+00	3.0000e+00	1.5000e+00	3.0000e+00	3.0000e+00	3.0000e+00	3.0000e+00	3.0000e+00	3.0000e+00	3.0000e+00	1.5000e+00	3.0000e+00	

B = Detector Channel
B-1	B-2	B-3	B-4	B-5	B-6	B-7	B-8	B-9	B-10	B-11	B-12	B-13	B-14	B-15	B-16	

1.0000e+01	1.0000e+01	1.0000e+01	1.4400e+00	1.0000e+01	1.0000e+01	1.5100e+00	1.9400e+00	1.0000e+01	1.0000e+01	1.9900e+00	2.4900e+00	2.4100e+00	2.9000e+00	1.0000e+01	2.9800e+00	




#DATA BEGINS
time	group	step	mark	flag	A-AC1	A-AC2	A-AC3	A-AC4	A-AC5	A-AC6	A-AC7	A-AC8	A-AC9	A-AC10	A-AC11	A-AC12	A-AC13	A-AC14	A-AC15	A-AC16	A-DC1	A-DC2	A-DC3	A-DC4	A-DC5	A-DC6	A-DC7	A-DC8	A-DC9	A-DC10	A-DC11	A-DC12	A-DC13	A-DC14	A-DC15	A-DC16	A-Ph1	A-Ph2	A-Ph3	A-Ph4	A-Ph5	A-Ph6	A-Ph7	A-Ph8	A-Ph9	A-Ph10	A-Ph11	A-Ph12	A-Ph13	A-Ph14	A-Ph15	A-Ph16	B-AC1	B-AC2	B-AC3	B-AC4	B-AC5	B-AC6	B-AC7	B-AC8	B-AC9	B-AC10	B-AC11	B-AC12	B-AC13	B-AC14	B-AC15	B-AC16	B-DC1	B-DC2	B-DC3	B-DC4	B-DC5	B-DC6	B-DC7	B-DC8	B-DC9	B-DC10	B-DC11	B-DC12	B-DC13	B-DC14	B-DC15	B-DC16	B-Ph1	B-Ph2	B-Ph3	B-Ph4	B-Ph5	B-Ph6	B-Ph7	B-Ph8	B-Ph9	B-Ph10	B-Ph11	B-Ph12	B-Ph13	B-Ph14	B-Ph15	B-Ph16	aux-1	digaux	

1897.740	1	1	0	256	0.19099	0.15017	0.13368	0.23153	0.1041	0.22397	0.34735	0.23212	0.10677	0.17705	0.040421	0.2212	0.082351	0.07598	0.38349	0.43517	-0.8	-0.14167	-0.79792	-0.925	-0.17083	-1.0146	-0.64167	-0.30625	-1.1292	-0.16667	-0.75	-0.975	-0.27708	-1.0562	-0.425	-0.33958	336.143	348.831	88.221	228.836	11.626	119.782	331.590	331.319	350.879	60.709	89.715	218.927	80.872	210.436	348.681	313.345	0.00017605	0.00028905	5.7605e-05	552.2	1.5077e-06	4.6587e-06	1014.7	126.11	5.2967e-07	2.1639e-06	231.09	100.48	31.464	13.497	5.2234e-06	34.894	0.00017773	0.00017955	4.882e-05	456.34	1.9703e-06	1.9471e-06	834.58	105.68	1.9178e-06	1.9274e-06	190.88	82.629	27.025	11.526	1.9194e-06	28.735	137.698	298.707	267.607	16.802	115.670	164.247	15.406	21.403	134.362	193.752	19.485	23.437	25.192	30.566	119.499	27.830	-8191	255	
1897.861	1	1	0	0	0.0304	0.15432	0.20552	0.34741	0.26885	0.091786	0.25917	0.074094	0.27104	0.056856	0.2532	0.34871	0.1459	0.11681	0.07187	0.058268	-0.8125	-0.275	-0.57917	-1.15	-0.26667	-1.0021	-0.75208	-0.36667	-1.225	-0.39792	-0.58333	-0.89583	-0.29583	-0.8375	-0.65208	-0.39583	45.904	69.492	66.405	18.438	314.074	205.483	318.544	303.979	116.004	215.048	263.822	333.795	187.810	26.563	178.875	189.297	0.00012094	1.5532e-05	0.00010251	551.31	4.1473e-06	1.129e-06	1014.2	125.45	4.4461e-06	4.6514e-06	235.24	100.29	30.937	13.387	4.4674e-06	34.847	0.00017842	0.00017871	4.9834e-05	455.53	1.9368e-06	1.923e-06	835.67	105.2	1.93e-06	1.9131e-06	191.5	82.476	26.764	11.512	1.9485e-06	28.698	149.224	28.978	221.946	17.381	154.922	240.332	15.719	20.970	127.362	148.287	18.865	23.688	25.125	30.577	135.807	27.898	-8191	255	
1897.957	1	1	0	0	0.20333	0.18514	0.29476	0.11776	0.41366	0.16307	0.18109	0.23614	0.13083	0.2414	0.15458	0.16794	0.13188	0.16206	0.07004	0.26166	-0.79583	-0.38542	-0.34167	-0.91875	-0.2375	-1.0229	-1.0583	-0.10625	-1.2167	-0.43333	-0.54167	-1.3542	-0.4375	-0.98958	-0.74167	-0.1875	222.413	188.944	82.066	287.016	262.963	71.435	314.829	20.071	278.883	178.813	39.630	32.855	262.485	8.121	335.706	295.038	0.00011696	0.00018685	0.00023621	554.28	3.846e-06	7.0461e-06	1020.9	125.03	2.4148e-06	2.777e-06	232.84	99.635	30.853	13.323	7.2987e-06	33.913	0.00017408	0.00017631	4.8806e-05	456.41	1.9409e-06	1.9102e-06	839.68	105.1	1.9016e-06	1.9357e-06	190.12	81.922	26.446	11.422	1.9446e-06	28.04	67.855	82.670	45.152	16.992	148.100	122.363	15.622	21.115	171.178	40.561	18.317	22.549	25.279	29.432	213.964	27.927	-8191	255	
1898.053	1	1	0	0	0.23966	0.17417	0.06396	0.30118	0.13142	0.17308	0.11652	0.086002	0.093973	0.012458	0.16213	0.24772	0.14044	0.15364	0.17813	0.24277	-0.56042	-0.55208	-0.19583	-1.3312	-0.33542	-0.80208	-1.1625	-0.19167	-0.95	-0.76667	-0.27083	-1.2167	-0.24375	-0.6	-0.92708	-0.24583	315.390	336.116	150.621	294.064	45.292	94.816	283.658	250.714	128.055	34.910	9.225	245.607	150.518	229.862	163.129	264.832	0.00013207	0.00069246	0.00015234	549.24	2.9148e-06	3.384e-06	1016.3	124.28	6.4526e-06	2.5576e-06	231.94	100.48	30.216	13.429	6.6577e-06	33.762	0.00017849	0.00017219	4.9365e-05	454.25	1.9136e-06	1.9217e-06	837.5	104.23	1.9044e-06	1.906e-06	191.33	82.517	26.276	11.447	1.9101e-06	28.003	153.417	96.630	190.402	16.850	239.385	114.665	15.541	20.815	126.521	222.754	18.391	22.808	23.992	30.248	219.900	27.866	-8191	255	
1898.149	1	1	0	0	0.056451	0.31721	0.10942	0.11798	0.2973	0.10175	0.090511	0.33853	0.17513	0.1807	0.25479	0.15925	0.2523	0.28535	0.12303	0.071781	-0.52083	-0.54792	-0.21875	-1.1167	-0.50208	-0.65625	-1.3646	-0.33125	-0.93958	-0.72708	-0.36875	-1.2979	-0.39375	-0.4875	-1.2583	-0.20208	52.695	330.161	57.330	24.834	15.367	355.586	216.259	330.544	181.527	303.134	334.914	195.793	323.360	362.156	278.078	307.388	0.00013815	0.00086917	0.00013128	547.85	1.0796e-06	1.8797e-06	1021.5	125.37	2.4739e-06	3.3087e-06	233.04	101.17	30.773	13.596	2.0842e-06	34.257	0.00017891	0.00017442	4.792e-05	453.14	1.8972e-06	1.8998e-06	839.29	105.03	1.911e-06	1.9287e-06	191.55	82.975	26.319	11.535	1.9105e-06	28.345	174.881	114.610	151.601	16.728	110.591	309.178	15.587	20.360	219.619	75.266	19.306	22.818	24.778	30.188	279.559	27.788	-8191	255	
1898.243	1	1	0	0	0.28518	0.14259	0.22236	0.12727	0.38017	0.041025	0.41323	0.046145	0.25115	0.28088	0.16344	0.10157	0.19524	0.09522	0.2663	0.19575	-0.44375	-0.79583	-0.22292	-1.2021	-0.35625	-0.4	-1.1667	-0.23125	-0.9	-1.0187	-0.24167	-1.2188	-0.43958	-0.3	-1.1042	-0.35417	219.533	27.521	174.961	268.921	359.551	304.066	308.475	53.910	239.618	28.830	238.278	254.199	55.265	292.783	235.498	273.084	0.00014962	0.00053496	0.00015438	551.57	2.5981e-07	6.4621e-06	1027.4	125.11	1.3743e-06	1.0475e-05	235.49	100.66	31.184	13.328	7.9995e-06	35.056	0.00017878	0.00017591	4.9367e-05	455.51	1.9309e-06	1.93e-06	842.29	105.46	1.9623e-06	1.9405e-06	192.87	83.304	26.706	11.435	1.9383e-06	28.768	153.559	268.418	97.870	17.113	94.610	193.336	15.724	20.292	166.787	128.189	18.401	23.201	24.897	29.860	229.569	28.535	-8191	255	
1898.341	1	1	0	0	0.17817	0.014302	0.13916	0.085941	0.30537	0.29137	0.101	0.081488	0.14477	0.20067	0.13553	0.21819	0.081719	0.29146	0.27183	0.31524	-0.6125	-1.1917	-0.13958	-1.1271	-0.73542	-0.26875	-1.225	-0.38125	-0.57917	-0.96667	-0.37917	-1.1146	-0.75	-0.42917	-1	-0.45417	122.720	227.960	21.212	294.476	338.346	167.004	40.182	277.989	38.172	252.105	326.916	44.605	279.321	352.923	23.755	172.294	0.00014379	0.00014433	0.00013486	562.06	7.0529e-07	4.1418e-06	1016.4	125.09	5.6533e-06	2.405e-06	235.69	98.773	30.573	13.301	2.0712e-06	34.177	0.00018064	0.00017472	4.8484e-05	461.46	1.9549e-06	1.9463e-06	843.15	105.44	1.9531e-06	1.929e-06	192.28	82.124	26.444	11.42	1.9682e-06	28.306	123.456	95.037	134.474	16.595	353.716	344.137	15.908	19.864	169.263	65.924	18.409	22.910	24.991	30.212	318.559	27.910	-8191	255	
1898.460	1	1	0	0	0.083669	0.18728	0.31002	0.19902	0.30552	0.31412	0.25627	0.20378	0.31366	0.32968	0.21741	0.34977	0.08704	0.19202	0.12449	0.17194	-0.11042	-1.0292	-0.34792	-1.0417	-0.73333	-0.38542	-1.2	-0.38958	-0.48125	-1.0979	-0.3375	-0.79167	-0.87708	-0.23542	-1.1979	-0.42917	220.978	189.801	174.679	286.626	349.601	122.178	326.008	346.140	223.395	267.084	310.479	346.252	212.147	76.906	333.086	313.922	0.00017016	0.00094755	9.5728e-05	557.01	4.5958e-06	1.7817e-06	1015	124.79	6.015e-06	8.3316e-06	234.42	99.381	30.641	13.478	4.8627e-06	34.414	0.00017791	0.00017252	4.8942e-05	461.12	1.9222e-06	1.8991e-06	840.17	105.73	1.9397e-06	1.905e-06	191.53	82.046	26.424	11.403	1.9349e-06	28.25	128.758	8.125	31.721	16.869	167.782	22.540	16.098	20.665	188.914	139.732	18.990	22.605	24.463	29.620	116.561	27.786	-8191	255	
1898.556	1	1	0	0	0.11673	0.07702	0.083055	0.33663	0.30938	0.34835	0.35406	0.0088032	0.15854	0.24085	0.021291	0.23819	0.13539	0.03854	0.12041	0.14257	-0.13542	-1.2021	-0.30208	-0.99375	-0.775	-0.04375	-1.0417	-0.36458	-0.30417	-0.95208	-0.38333	-0.85833	-1	-0.039583	-1.0063	-0.73125	235.797	328.930	279.573	3.540	309.212	243.593	18.163	351.170	270.374	236.745	103.741	89.029	8.188	231.529	219.515	361.320	0.00012453	0.00046197	5.0226e-05	556.46	4.1321e-06	5.8082e-06	1025.5	124.64	9.4217e-06	3.5405e-06	234.78	98.676	30.756	13.418	2.5526e-06	34.299	0.00017862	0.00017958	4.8895e-05	459.38	1.8952e-06	1.9346e-06	842.49	104.95	1.9324e-06	1.9831e-06	191.37	82.245	26.62	11.467	1.9862e-06	28.261	94.344	8.248	298.116	16.865	108.839	90.995	15.272	20.506	200.767	109.139	18.974	23.299	25.052	29.456	304.948	27.474	-8191	255	
1898.652	1	1	0	0	0.17744	0.061691	0.18189	0.35855	0.087566	0.12758	0.12281	0.27971	0.34091	0.25209	0.22113	0.33776	0.047284	0.26241	0.15707	0.11246	0.075	-1.2021	-0.28125	-0.68958	-1.1229	-0.15417	-1.0917	-0.97708	-0.21458	-1.0646	-0.45	-0.34375	-1.2333	-0.033333	-0.7875	-0.92708	274.868	4.036	318.265	90.357	350.627	340.844	300.485	325.975	207.167	69.502	332.146	28.132	229.152	20.543	238.418	293.141	0.00016385	0.00030098	0.00014614	552.02	4.3052e-06	1.1923e-06	1016.9	125.37	3.4306e-06	2.09e-06	228.46	101.82	31.282	13.325	2.9633e-06	33.299	0.00018	0.00017505	4.9393e-05	457.47	1.92e-06	1.8953e-06	838.95	105.14	1.9738e-06	1.9597e-06	187.84	83.276	26.946	11.354	2.0278e-06	27.631	139.311	156.896	340.893	17.179	208.203	164.805	15.548	20.728	70.990	202.376	19.071	22.686	25.086	30.503	141.969	28.087	-8191	255	
1898.749	1	1	0	0	0.39362	0.21142	0.23422	0.1916	0.14699	0.25389	0.13895	0.19809	0.12996	0.030199	0.19302	0.29297	0.23588	0.22999	0.28491	0.14731	0.097917	-1.025	-0.4875	-0.56667	-1.3271	-0.4125	-0.88958	-0.82292	-0.15	-1.1854	-0.48125	-0.62292	-1.0542	-0.20208	-0.66875	-0.91042	357.252	87.639	234.126	227.244	213.260	320.478	333.080	86.641	291.710	251.054	69.392	237.652	303.827	45.934	56.892	250.042	0.00014293	0.00022696	0.00015748	564.28	1.3374e-06	5.6358e-06	1031.9	123.5	5.0922e-06	9.2696e-07	221.13	99.888	31.161	12.738	3.8443e-06	32.541	0.00018914	0.00018928	5.3552e-05	468.57	2.1201e-06	2.1452e-06	847.27	105.17	2.1922e-06	2.1838e-06	183.14	82.349	27.086	10.961	2.2474e-06	26.914	121.728	239.119	199.996	17.753	100.370	105.637	15.918	20.518	167.242	302.570	18.496	22.540	25.205	30.691	210.761	27.686	-8191	255	
1898.845	1	1	0	0	0.035247	0.17432	0.025562	0.18288	0.22561	0.27743	0.095734	0.13956	0.17217	0.048707	0.14712	0.20986	0.16398	0.1663	0.12348	0.051844	0.22708	-0.94375	-0.62083	-0.091667	-0.92292	-0.44792	-0.79167	-1.0938	-0.34167	-1.0708	-0.68125	-0.37292	-1.0646	-0.28958	-0.48333	-1.1042	200.167	331.365	207.839	228.442	196.953	11.148	7.795	138.597	344.579	100.472	346.248	277.330	66.445	83.889	146.153	14.179	0.00012921	8.1903e-05	4.4099e-05	565.29	5.1587e-06	5.8694e-06	1025.1	124.27	7.7738e-06	6.2093e-06	220.2	100.34	30.938	12.713	4.1215e-06	32.404	0.00020103	0.00020138	5.6039e-05	469.83	2.1706e-06	2.2197e-06	846.27	104.23	2.2071e-06	2.2186e-06	181.84	82.339	26.713	10.987	2.2313e-06	26.991	124.908	245.929	137.135	17.250	72.877	96.364	15.543	20.674	15.901	41.699	19.229	22.969	24.808	29.672	160.402	27.641	-8191	255	
1898.941	1	1	0	0	0.093583	0.17032	0.11125	0.27043	0.1905	0.23569	0.48832	0.18125	0.2771	0.064453	0.14901	0.28161	0.18837	0.14217	0.28499	0.10858	0.15417	-0.78125	-0.8375	-0.41042	-1.2375	-0.31875	-0.7625	-1.0812	-0.058333	-1.0938	-0.88333	-0.32917	-1.0958	-0.26458	-0.23125	-1.1812	225.379	298.596	211.090	331.976	292.578	216.429	299.384	68.529	128.908	270.783	17.155	225.049	327.653	324.690	134.254	330.561	0.00022211	0.00050755	0.00019925	565.21	1.1922e-05	5.9188e-06	1022	122.95	6.2257e-06	8.5585e-06	217.82	98.481	29.982	12.923	3.5661e-06	31.676	0.00020928	0.00020891	5.9651e-05	471	2.3438e-06	2.3443e-06	841.42	104.24	2.4326e-06	2.47e-06	180.98	82.062	26.105	11.197	2.5439e-06	26.614	109.034	350.739	9.074	17.378	142.068	187.552	15.294	20.208	100.009	79.647	18.764	22.840	24.441	30.440	278.316	27.919	-8191	255	
1899.037	1	1	0	0	0.1672	0.21677	0.069376	0.24497	0.26046	0.09191	0.35568	0.09037	0.26294	0.11756	0.19252	0.17302	0.019255	0.11064	0.18302	0.24532	-0.014583	-0.7	-0.82292	-0.12917	-0.99583	-0.54792	-0.56458	-1.3083	-0.24375	-0.86042	-0.93958	-0.24375	-1.0063	-0.70208	-0.43958	-1.3083	13.971	320.252	114.085	212.183	338.764	205.927	309.073	15.596	204.190	315.985	223.115	320.159	208.276	162.092	357.687	291.051	0.00021223	0.00068552	0.0003377	563.49	8.4273e-06	4.5738e-06	1017.4	121.9	5.6473e-06	5.419e-06	215.9	98.043	29.032	13.214	5.8667e-06	31.902	0.00023072	0.00022818	6.4505e-05	470.03	2.5907e-06	2.5557e-06	839.82	103.95	2.6404e-06	2.6495e-06	180.35	81.687	25.842	11.568	2.7144e-06	26.747	89.031	190.626	94.766	17.508	103.558	144.974	15.872	21.023	139.981	51.762	19.256	23.049	25.657	30.411	163.172	27.763	-8191	255	
1899.156	1	1	0	0	0.20824	0.1121	0.11514	0.064747	0.1044	0.067404	0.12734	0.15757	0.15068	0.11228	0.15313	0.27482	0.21841	0.031529	0.10383	0.17244	0.020833	-0.725	-1.0104	-0.19167	-0.9	-0.62292	-0.39167	-1.0896	-0.40625	-0.50208	-1.0688	-0.16042	-0.92292	-0.46042	-0.20833	-1.2521	61.596	165.086	120.969	225.452	318.201	10.917	307.751	61.531	28.807	147.054	305.566	321.718	213.322	144.461	133.517	153.609	0.00013467	0.0006378	0.0001294	565.11	6.6592e-07	5.9313e-06	1013.4	121.32	5.7701e-06	6.6564e-06	215.6	95.211	27.56	13.909	5.1845e-06	30.737	0.00025079	0.0002584	7.2093e-05	475.4	2.8189e-06	2.9915e-06	842.54	105.07	3.1146e-06	3.1909e-06	182.66	80.463	25.462	12.485	3.8179e-06	26.417	140.361	52.743	109.643	18.216	218.835	190.554	15.226	20.290	174.083	69.547	19.225	22.900	24.900	30.614	39.259	27.896	-8191	255	
1899.252	1	1	0	0	0.20563	0.061924	0.11058	0.097297	0.26103	0.39293	0.10842	0.24638	0.15663	0.29753	0.13276	0.19395	0.16743	0.39326	0.16474	0.184	-0.0041667	-0.32917	-1.0104	-0.23125	-0.87083	-0.77083	-0.51667	-1.1688	-0.57708	-0.42083	-1.275	-0.40417	-0.8125	-1.0812	-0.13542	-1.0938	330.513	143.543	114.129	53.686	20.281	85.688	266.731	310.915	127.185	110.866	278.224	361.400	279.696	15.870	355.438	272.658	8.9788e-05	0.00078771	0.00020308	581.52	2.8856e-06	1.8107e-06	1004.5	121.16	2.0148e-06	1.1389e-05	212.81	90.509	24.841	15.248	4.1643e-06	30.299	0.0003658	0.00038973	0.00010895	496.26	4.5954e-06	4.521e-06	845.83	108.43	4.5528e-06	4.5206e-06	185.88	77.825	24.086	13.832	4.4522e-06	26.327	125.132	52.581	35.782	18.067	290.865	298.981	16.018	20.805	312.494	326.571	19.232	23.236	25.629	29.677	115.724	27.468	-8191	255	
1899.348	1	1	0	0	0.067492	0.19848	0.31451	0.0833	0.23731	0.18453	0.20066	0.28261	0.27941	0.076086	0.20653	0.090627	0.097442	0.062274	0.017212	0.21568	-0.070833	-0.31458	-0.95625	-0.2875	-0.76875	-0.97708	-0.28125	-1.0083	-0.71667	-0.36875	-1.2687	-0.45	-0.76667	-1.0083	-0.0041667	-0.94792	163.973	106.504	258.139	301.579	310.711	337.691	53.235	214.731	297.650	149.433	280.399	284.372	273.174	287.660	327.760	6.000	0.00018934	0.00076704	0.00035713	577.97	5.7656e-06	5.3451e-06	1004.3	122.34	4.3775e-06	4.1944e-06	215.97	90.934	24.584	15.503	3.7998e-06	31.134	0.00038425	0.00039367	0.00010625	490.88	4.2433e-06	4.2095e-06	841.02	108.04	4.3654e-06	4.3155e-06	187.26	78.055	23.794	14.065	4.4057e-06	26.964	95.730	148.109	71.339	17.999	143.793	247.755	15.500	20.870	100.583	116.824	19.133	23.248	25.804	29.950	146.794	27.431	-8191	255	
1899.444	1	1	0	0	0.18757	0.12874	0.009098	0.084464	0.29729	0.038622	0.26295	0.055914	0.29927	0.17138	0.13761	0.15294	0.087026	0.1663	0.25688	0.27192	-0.32708	-0.325	-1.1583	-0.38125	-0.5	-1.1646	-0.26458	-1.1208	-0.80417	-0.25	-1.1875	-0.48125	-0.58333	-1.1938	-0.30625	-1.1354	98.814	286.566	175.329	58.402	275.801	246.030	318.242	179.422	106.300	206.864	37.376	314.382	291.877	37.173	270.290	224.984	0.00020022	0.0010722	0.00022615	575.55	5.4222e-06	9.5044e-06	1002.3	119.89	2.4034e-06	4.7367e-06	214.03	90.369	24.043	15.568	4.9086e-06	30.98	0.00039112	0.00040702	0.00011216	491.27	4.3692e-06	4.3822e-06	842.4	107.57	4.3566e-06	4.3566e-06	187.9	77.311	23.509	14.124	4.3512e-06	26.928	157.537	160.953	243.703	17.325	68.101	268.617	16.264	20.304	172.429	199.461	18.702	21.914	24.852	30.461	190.698	28.137	-8191	255	
1899.541	1	1	0	0	0.05073	0.27557	0.15596	0.087382	0.3318	0.053867	0.12605	0.21893	0.17056	0.14339	0.16999	0.15929	0.255	0.048918	0.10141	0.16714	-0.40833	-0.15625	-1.0063	-0.49583	-0.35625	-1.1146	-0.49792	-0.99167	-0.97083	-0.18333	-1.1146	-0.65833	-0.38333	-1.0312	-0.33333	-0.81042	229.443	254.259	250.226	18.146	124.828	83.908	44.527	95.263	207.886	26.075	176.749	311.825	50.589	208.274	150.962	63.143	0.00014012	0.00078359	0.00031194	572.11	4.1574e-06	4.6829e-06	999.45	118.04	4.6593e-06	5.2317e-06	216.44	89.459	23.843	15.564	3.2465e-06	30.788	0.00038509	0.00039862	0.00011063	489.99	4.2509e-06	4.2956e-06	837.01	106.7	4.296e-06	4.4543e-06	187.64	76.978	23.325	14.155	4.3858e-06	26.679	160.239	65.086	143.843	18.126	352.400	66.236	15.680	20.361	133.278	177.773	18.846	22.761	25.690	29.075	175.753	28.227	-8191	255	
1899.637	1	1	0	0	0.2096	0.18501	0.2233	0.080884	0.22231	0.17168	0.21298	0.18156	0.23929	0.27581	0.086253	0.19948	0.17204	0.32909	0.096547	0.25269	-0.46875	-0.16458	-0.94583	-0.69792	-0.089583	-1.1833	-0.3	-0.76667	-1.0917	-0.1625	-1.0292	-0.56667	-0.31042	-1.0729	-0.40833	-0.54792	29.764	282.123	69.828	190.102	219.799	89.442	340.661	77.410	281.422	153.824	168.027	156.647	320.353	275.531	35.498	67.602	0.00017626	0.0004458	0.00041351	576.03	6.5571e-06	2.3031e-06	997.83	118.98	3.3138e-06	5.2904e-06	213.32	88.146	23.534	15.559	5.7716e-06	30.184	0.0003922	0.00039718	0.00010964	492.86	4.3593e-06	4.3887e-06	836.93	106.74	4.3337e-06	4.4225e-06	186.88	76.186	23.019	14.111	4.3686e-06	26.402	111.719	167.179	171.273	18.145	107.428	113.064	15.292	21.170	40.722	351.278	18.701	22.800	25.359	30.052	244.481	27.965	-8191	255	
1899.733	1	1	0	0	0.098361	0.42591	0.21716	0.25958	0.15942	0.13535	0.19352	0.03686	0.19459	0.059482	0.11736	0.12581	0.24399	0.18696	0.10687	0.049728	-0.875	0.052083	-0.69167	-0.69167	-0.15	-1.1646	-0.4625	-0.40833	-1.1375	-0.26667	-0.86667	-0.97292	-0.1375	-1.1	-0.39167	-0.30625	208.831	146.203	15.040	93.023	189.256	132.527	259.972	245.793	46.557	119.204	110.903	66.294	284.013	47.188	123.672	306.553	0.00021621	0.00035955	3.4604e-05	572.51	1.0482e-05	9.3252e-06	990.72	117.73	4.8205e-06	4.1223e-06	213.47	88.854	23.795	15.862	8.6304e-06	30.521	0.000387	0.0003888	0.00011064	488.53	4.3144e-06	4.3606e-06	832.33	105.39	4.2674e-06	4.2478e-06	185.25	76.301	23.572	14.294	4.4991e-06	26.581	151.110	329.954	355.377	18.055	115.143	35.735	15.640	20.512	13.180	192.768	18.801	22.643	23.922	29.082	146.503	27.962	-8191	255	
1899.829	1	1	0	0	0.12241	0.062618	0.4667	0.24841	0.022288	0.25168	0.12488	0.12046	0.30837	0.26301	0.40784	0.15729	0.25342	0.1034	0.22462	0.16076	-0.8875	-0.21458	-0.63958	-0.98958	-0.25417	-1.1313	-0.59375	-0.39167	-1.0688	-0.10833	-0.53333	-1.1458	-0.22292	-0.84167	-0.51042	-0.25417	144.252	30.012	31.928	321.487	30.178	27.406	285.447	51.897	330.569	128.116	219.886	62.085	344.843	36.159	243.196	307.009	4.1831e-05	0.00025833	4.5301e-05	573.32	5.0553e-06	2.9336e-06	994.8	118.11	2.4228e-06	6.0764e-06	208.16	89.471	23.98	15.69	3.9296e-06	30.673	0.00037889	0.00038227	0.00010613	487.15	4.1547e-06	4.0395e-06	831.94	104.51	4.0748e-06	4.0692e-06	182.37	76.775	23.273	14.138	3.9707e-06	26.541	179.047	223.021	133.212	18.100	107.867	74.102	15.522	20.464	131.044	64.647	18.832	23.099	25.235	30.099	141.726	27.929	-8191	255	
1899.950	1	1	0	0	0.07463	0.085944	0.30384	0.31105	0.10088	0.097965	0.33387	0.14378	0.091231	0.16845	0.26118	0.10701	0.10939	0.22598	0.30563	0.2336	-0.65417	-0.30625	-0.45833	-1.2479	-0.26667	-1.0104	-0.775	-0.25833	-0.94167	-0.36875	-0.49375	-1.1125	-0.085417	-0.62917	-0.75625	-0.22708	277.969	61.044	288.169	275.219	230.029	272.507	277.766	42.342	27.689	29.873	296.903	22.451	91.512	107.563	96.725	327.777	0.00013981	0.0002275	0.0003226	571.03	3.0092e-06	4.7718e-06	1004	117.36	1.2426e-06	1.3733e-06	210.11	89.782	24.281	16.018	2.3166e-06	30.288	0.00035049	0.00035482	9.6556e-05	484.68	3.7604e-06	3.7764e-06	833.67	103.66	3.6143e-06	3.5972e-06	179.01	76.439	22.653	13.974	3.3007e-06	25.601	85.379	40.203	72.963	18.099	232.809	166.775	15.947	21.775	136.213	17.751	19.757	23.204	25.755	29.787	11.150	28.380	-8191	255	
1900.044	1	1	0	0	0.16606	0.29626	0.064564	0.12135	0.39961	0.28958	0.2224	0.13169	0.11073	0.13086	0.43289	0.030471	0.11561	0.21812	0.099283	0.21816	-0.74375	-0.48542	-0.67292	-1.2479	-0.30625	-0.825	-1.0333	-0.33958	-1.0688	-0.59167	-0.26042	-1.3542	-0.51667	-0.82083	-0.89167	-0.25417	43.442	217.686	28.684	187.884	180.152	237.221	310.804	25.105	50.377	92.156	180.595	300.288	192.718	238.556	251.284	304.071	7.1301e-05	0.0011626	5.7717e-05	574.48	3.847e-06	2.1118e-06	1005.1	116.95	4.8108e-06	8.0904e-06	207.29	90.694	23.472	15.707	6.4538e-06	29.586	0.00029133	0.00028752	7.9411e-05	483.86	3.0256e-06	2.9998e-06	832.4	101.48	2.9257e-06	2.9186e-06	174.83	75.754	21.594	13.502	2.7883e-06	24.945	75.531	33.437	182.643	18.373	189.362	162.226	16.201	22.423	25.695	204.923	20.337	23.625	26.007	30.629	230.906	28.814	-8191	255	
1900.142	1	1	0	0	0.10753	0.12817	0.22683	0.13631	0.18233	0.16572	0.080517	0.10255	0.087337	0.31255	0.11539	0.27924	0.064296	0.10347	0.05872	0.17182	-0.68333	-0.69375	-0.19167	-1.0771	-0.50417	-0.61458	-0.96042	-0.29792	-0.9125	-0.76875	-0.425	-1.2333	-0.52083	-0.56667	-1.1229	-0.35833	57.279	326.898	301.319	341.507	227.794	278.054	68.638	152.886	149.651	61.420	12.571	237.638	336.861	14.002	81.122	161.285	0.00013594	0.00035292	0.00012289	573.68	6.6696e-06	3.8411e-06	1006.5	117.42	2.6785e-06	3.5571e-06	210.03	91.767	23.092	15.547	6.9812e-06	29.65	0.00025013	0.00025427	7.0265e-05	481.55	2.8208e-06	2.7151e-06	830.7	100.87	2.7348e-06	2.6963e-06	175.56	75.887	21.26	13.463	2.7154e-06	24.89	134.214	265.565	244.853	18.658	106.268	314.421	16.526	21.784	245.475	155.937	19.864	23.320	26.995	30.841	19.611	29.205	-8191	255	
1900.236	1	1	0	0	0.019258	0.25187	0.13758	0.20022	0.22989	0.14395	0.24221	0.23051	0.071837	0.22974	0.096322	0.24328	0.22222	0.092154	0.26018	0.22478	-0.4875	-0.61042	-0.17917	-1.1333	-0.43125	-0.65625	-1.0667	-0.10417	-0.88958	-0.73542	-0.175	-1.1917	-0.39792	-0.44167	-1.1229	-0.25833	222.571	132.781	216.267	339.946	245.012	282.720	47.979	326.854	351.206	121.004	15.050	278.173	115.824	60.179	266.727	187.712	0.000134	0.00028373	3.9084e-05	570.23	3.5551e-06	3.3078e-06	1008	116.26	4.5116e-06	4.5374e-06	206.73	90.688	23.268	15.572	3.5929e-06	29.647	0.00024353	0.00024259	6.6872e-05	478.37	2.6573e-06	2.6283e-06	829.12	100.06	2.5977e-06	2.5838e-06	173.28	75.713	20.933	13.422	2.4384e-06	24.948	112.146	175.736	43.015	18.503	102.199	238.399	16.073	21.198	207.415	299.814	19.615	23.938	25.758	30.806	351.203	28.689	-8191	255	
1900.332	1	1	0	0	0.17803	0.23746	0.29178	0.079003	0.12183	0.1208	0.1997	0.19515	0.1679	0.33062	0.03593	0.18635	0.098176	0.071404	0.19261	0.24591	-0.475	-0.87917	-0.21875	-1.1375	-0.44583	-0.22083	-1.4896	-0.29792	-0.45208	-1.1104	-0.18125	-0.97708	-0.73333	-0.25	-1.0333	-0.35625	90.808	54.719	156.715	12.502	65.989	20.269	298.662	202.032	257.073	289.819	361.304	362.550	68.669	179.246	360.547	147.319	0.00018755	0.00042366	2.8661e-05	567.36	3.3998e-06	3.348e-06	1011.8	116.76	8.4354e-07	5.5368e-06	208.71	91.093	23.059	15.459	2.0466e-06	29.637	0.00021661	0.00021738	5.9764e-05	471.6	2.352e-06	2.3559e-06	836.15	99.376	2.421e-06	2.3409e-06	173.52	75.709	20.912	13.235	2.3181e-06	24.844	171.820	324.483	92.017	18.158	149.090	154.815	15.517	20.951	251.759	100.469	19.320	23.462	25.134	30.889	75.003	28.422	-8191	255	
1900.430	1	1	0	0	0.15341	0.10201	0.13268	0.087918	0.16463	0.11239	0.27444	0.060122	0.19967	0.11192	0.23368	0.16178	0.10816	0.16114	0.23356	0.030842	-0.20208	-1.0083	-0.26875	-1.0208	-0.71875	-0.56458	-1.2437	-0.45833	-0.46458	-1.0625	-0.23542	-1.0167	-0.69583	-0.20417	-1.1083	-0.57708	291.072	43.252	44.939	317.525	329.234	22.460	346.157	102.122	348.575	224.351	3.524	299.353	21.794	41.109	86.026	149.963	0.00014415	0.00076033	0.00016236	570.05	5.1192e-06	6.3209e-06	1015.5	116.47	2.801e-06	4.0147e-06	205.36	89.766	23.355	15.3	3.6125e-06	29.077	0.00021182	0.00020723	5.7417e-05	471.74	2.2948e-06	2.254e-06	836.61	99.489	2.2294e-06	2.241e-06	171.64	75.2	20.696	13.149	2.1724e-06	24.397	125.314	110.822	27.853	18.292	143.264	213.569	16.178	20.902	13.816	163.289	19.912	23.111	25.922	30.826	53.043	28.588	-8191	255	
1900.549	1	1	0	0	0.076873	0.18243	0.17211	0.13691	0.25068	0.065369	0.20201	0.19426	0.1352	0.18305	0.10933	0.13155	0.0958	0.16676	0.27577	0.16808	-0.13333	-0.87292	-0.11875	-0.86667	-0.93542	-0.29792	-1.4	-0.67917	-0.55833	-1.2229	-0.34792	-0.75833	-0.88542	-0.30417	-0.98542	-0.71042	130.630	186.082	76.741	158.908	92.272	216.526	200.571	158.843	222.551	285.228	248.900	33.494	15.882	300.213	182.726	321.106	0.0001425	0.00044263	9.3326e-05	569.49	3.039e-06	5.9447e-06	1012.7	116.59	8.7114e-07	3.6406e-06	208.19	91.362	23.051	15.534	1.1948e-06	29.512	0.00019597	0.00019496	5.2172e-05	471.86	2.0868e-06	2.063e-06	835.42	98.692	2.1273e-06	2.0999e-06	171.83	75.71	20.503	13.142	2.0709e-06	24.444	143.702	129.167	108.982	18.470	278.137	187.987	15.989	21.174	196.903	94.091	19.953	23.559	26.742	31.008	85.176	28.648	-8191	255	
1900.645	1	1	0	0	0.30775	0.091367	0.037131	0.12488	0.097588	0.24738	0.3467	0.18251	0.22807	0.32522	0.15138	0.12836	0.1298	0.20677	0.37656	0.18655	-0.054167	-1.1083	-0.35417	-0.79583	-1.0708	-0.08125	-1.35	-0.625	-0.3	-1.0229	-0.35417	-0.81042	-1.0458	-0.17917	-1.0417	-0.80208	256.010	254.810	169.915	75.982	105.244	135.878	311.999	105.455	54.192	330.862	108.627	354.190	23.256	238.243	323.584	250.348	0.00017589	0.00030412	7.0433e-06	564.46	2.1215e-06	4.7417e-06	1023.4	117.3	1.4438e-06	5.7845e-06	206.17	91.278	23.133	15.384	2.0586e-06	29.279	0.00019026	0.00018579	5.2455e-05	469.8	2.0835e-06	2.0742e-06	838.71	98.702	2.0495e-06	2.0345e-06	171.2	75.689	20.449	13.03	1.9838e-06	24.421	120.165	194.690	204.449	18.569	350.191	235.969	15.909	21.186	170.973	305.856	19.041	23.201	26.777	30.694	348.149	28.947	-8191	255	
1900.742	1	1	0	0	0.20993	0.11949	0.23637	0.079913	0.19796	0.16321	0.31373	0.15118	0.048896	0.17345	0.12594	0.24441	0.12332	0.13511	0.23279	0.094878	-0.027083	-1.2729	-0.24792	-0.59792	-1.1333	-0.18125	-1.1354	-0.7	-0.16458	-1.1146	-0.42708	-0.50833	-1.0938	-0.25208	-0.91042	-0.98125	318.727	191.276	153.900	320.196	63.692	245.343	243.485	62.458	193.680	149.628	265.270	259.193	31.738	260.200	129.949	349.076	2.4071e-05	0.0003227	0.00010064	563.47	3.8066e-06	1.0363e-05	1017.9	115.57	1.9538e-06	7.9382e-06	204.18	91.644	22.993	15.314	2.6965e-06	29.811	0.00018746	0.00018009	5.1048e-05	468.81	1.9804e-06	2.046e-06	838.89	98.025	2.0028e-06	1.974e-06	169.85	75.98	20.413	12.942	2.0261e-06	24.678	41.454	124.170	9.745	18.487	313.883	121.519	15.948	21.529	68.487	143.604	19.829	23.641	26.172	29.931	185.745	28.546	-8191	255	
1900.838	1	1	0	0	0.13305	0.21227	0.28422	0.23953	0.16445	0.24244	0.12638	0.13677	0.071774	0.28486	0.14866	0.1575	0.18164	0.10362	0.22809	0.35847	0.085417	-1.3188	-0.72083	-0.48542	-1.225	-0.36875	-0.80625	-1.0708	-0.37292	-1.2167	-0.67083	-0.49792	-1.3417	-0.19375	-0.82083	-1.0354	323.509	74.345	11.659	310.257	20.620	164.108	358.685	348.922	128.074	106.466	89.012	275.901	21.528	28.953	15.240	51.685	0.00016854	0.00022946	0.00017667	569.32	2.3478e-06	5.1959e-06	1019.9	116.48	6.3212e-06	7.0804e-06	204.79	91.824	22.868	15.007	1.6899e-06	29.273	0.00018034	0.00018552	4.9264e-05	471.2	1.9583e-06	1.982e-06	839.64	97.94	1.9688e-06	1.9565e-06	169.78	75.741	20.291	12.757	1.961e-06	24.394	131.962	220.092	132.506	18.310	211.873	283.779	16.149	21.170	146.434	94.371	19.427	23.991	26.994	30.347	186.969	28.783	-8191	255	
1900.934	1	1	0	0	0.18858	0.24312	0.1328	0.16571	0.29251	0.36408	0.22079	0.17388	0.20112	0.24796	0.29966	0.077863	0.021464	0.17755	0.1933	0.029764	-0.0020833	-1.2125	-0.68333	-0.24792	-1.1313	-0.40208	-0.6125	-1.0312	-0.11042	-0.88542	-0.8125	-0.26042	-1.0792	-0.54583	-0.54583	-1.2229	286.719	26.818	71.011	202.378	121.128	229.647	332.457	269.047	216.017	260.679	307.574	55.148	266.613	144.098	349.773	324.594	0.00010024	0.00019491	0.00010684	566.84	5.1961e-06	7.4334e-06	1024.3	113.97	1.4618e-06	4.1885e-06	207.08	92.547	23.764	15.071	2.3471e-06	29.667	0.00017663	0.00017672	4.8657e-05	468.79	1.962e-06	1.9274e-06	839.4	97.296	1.9525e-06	1.9262e-06	169.32	76.365	20.841	12.748	1.977e-06	24.489	107.450	110.434	81.382	18.164	126.127	159.323	15.954	20.920	98.161	299.765	19.763	23.443	26.120	31.116	112.122	29.116	-8191	255	
1901.030	1	1	0	0	0.06697	0.35899	0.12464	0.26125	0.14323	0.34378	0.075404	0.2471	0.34629	0.20179	0.13728	0.074697	0.049539	0.041129	0.34921	0.18701	0.125	-0.96667	-0.71458	-0.28125	-1.1042	-0.51875	-0.56667	-1.0958	-0.32083	-0.89375	-0.86458	-0.24167	-0.95	-0.61875	-0.2125	-1.0167	293.674	256.504	60.255	282.398	125.471	100.315	116.516	284.318	200.294	150.787	193.849	268.052	346.305	240.638	55.051	160.880	0.00019505	0.00014011	0.00014518	565.04	3.1718e-06	5.9998e-06	1022.3	117.21	1.5377e-06	3.2597e-06	204.89	92.158	23.662	15.205	6.8175e-06	30.117	0.00017972	0.00017881	4.8983e-05	467.98	1.9547e-06	2.006e-06	838.31	97.982	1.9492e-06	1.9968e-06	169.31	76.37	20.788	12.802	1.9699e-06	24.812	128.288	171.228	118.514	19.027	117.607	148.560	15.826	21.545	148.275	188.243	19.176	23.073	27.031	30.442	352.781	29.256	-8191	255	
1901.126	1	1	0	0	0.11175	0.18258	0.22426	0.13186	0.13594	0.13717	0.24477	0.1302	0.24821	0.36163	0.1382	0.15908	0.21504	0.075583	0.19612	0.025386	0.045833	-0.53125	-0.86875	-0.22708	-1.2146	-0.67292	-0.47708	-1.4271	-0.38542	-0.81667	-1.0146	-0.37292	-0.91667	-0.68958	-0.32292	-1.2938	83.800	168.209	23.891	168.783	356.519	230.028	334.640	195.915	158.127	358.287	306.139	261.994	80.588	353.176	71.339	276.431	0.00012339	0.00032066	0.00012878	561.83	3.3868e-06	4.6551e-06	1019.6	115.01	6.2033e-06	6.8329e-06	206.09	92.942	23.811	15.407	6.9677e-06	29.968	0.00017873	0.00017875	5.0508e-05	464.15	1.9629e-06	1.9921e-06	839.3	97.452	1.9645e-06	1.9923e-06	169.72	76.665	20.967	12.907	1.9742e-06	24.857	140.308	67.360	263.343	18.199	172.692	197.358	15.752	21.270	157.122	55.667	20.234	23.480	24.747	29.909	131.807	28.157	-8191	255	
1901.222	1	1	0	0	0.2161	0.17808	0.099287	0.17142	0.1881	0.26023	0.28971	0.25388	0.26164	0.151	0.32932	0.081281	0.23228	0.29182	0.28445	0.23748	0.066667	-0.44583	-1.0521	-0.27917	-0.98542	-0.72083	-0.41042	-1.1	-0.42917	-0.49167	-1.1938	-0.30208	-0.99583	-1.0042	-0.28958	-1.1479	215.952	301.073	305.971	304.574	314.719	251.256	333.207	240.292	4.946	74.056	209.038	107.559	213.943	90.906	240.632	308.751	0.00015617	0.00033718	9.6532e-05	564.17	2.1709e-06	3.4717e-06	1019.9	116.15	5.9294e-06	3.5128e-06	204.14	91.973	23.864	15.217	4.1058e-06	29.36	0.00017711	0.00017795	4.9314e-05	466.1	1.949e-06	1.9681e-06	839.58	97.968	1.9767e-06	1.9834e-06	167.71	76.49	21.208	12.763	1.9209e-06	24.524	95.780	85.958	76.884	18.121	149.975	165.854	15.914	20.612	192.552	39.949	19.473	23.580	27.034	30.244	95.861	28.498	-8191	255	
1901.341	1	1	0	0	0.066158	0.29877	0.18008	0.18217	0.094133	0.35336	0.22534	0.26098	0.14776	0.16272	0.013498	0.1202	0.15616	0.27448	0.18888	0.12906	-0.29167	-0.26875	-1.25	-0.22292	-0.92292	-0.97917	-0.46667	-1.0604	-0.42917	-0.39792	-0.95833	-0.44792	-0.56458	-0.97708	-0.15833	-1.0042	159.981	342.828	294.860	247.242	229.435	96.308	315.784	69.105	157.887	217.998	134.011	63.767	56.742	65.156	333.042	253.123	0.00019307	0.00042478	0.00013306	563.37	2.3698e-06	3.0416e-06	1021.4	115.05	4.9498e-06	5.2666e-06	205.3	92.261	24.151	15.119	6.6193e-06	30.13	0.00018056	0.00018176	4.8846e-05	467.27	1.9216e-06	1.9209e-06	838.56	97.188	1.917e-06	1.9137e-06	168.3	76.521	21.181	12.806	1.9383e-06	24.869	118.029	272.091	143.967	18.216	165.605	92.134	15.615	20.971	229.344	298.030	19.105	23.052	26.707	30.759	164.342	28.258	-8191	255	
1901.413	1	1	0	0	0.19391	0.28261	0.12206	0.1847	0.11945	0.25826	0.17328	0.046361	0.19414	0.19759	0.17023	0.19986	0.17587	0.2659	0.34836	0.35391	-0.11667	-0.38958	-1.1812	-0.60417	-0.76667	-0.98333	-0.29167	-1.025	-0.67917	-0.35417	-1.2125	-0.425	-0.62917	-1.1479	-0.29167	-0.90208	213.228	230.408	271.088	261.946	305.572	9.416	308.536	147.565	317.397	93.722	33.794	89.918	22.812	355.781	344.350	181.557	0.00016209	0.00011071	6.2784e-05	562.82	1.5229e-06	4.419e-06	1020.8	116.15	5.3e-06	7.8005e-06	202.68	93.984	23.988	15.184	5.8324e-06	30.416	0.00017575	0.00017569	4.9348e-05	466.48	1.9273e-06	1.9044e-06	841.89	97.734	1.9145e-06	1.9286e-06	168.05	77.041	21.132	12.789	1.9456e-06	25.063	122.839	66.664	163.171	17.910	265.013	234.710	15.571	21.002	205.489	125.557	19.609	22.957	25.624	30.533	163.067	29.155	-8191	255	
1901.511	1	1	0	0	0.16502	0.075612	0.24867	0.030686	0.23568	0.043815	0.098716	0.08336	0.38875	0.12485	0.18704	0.077662	0.029963	0.35327	0.1606	0.30358	-0.46667	-0.091667	-1.1083	-0.6	-0.50833	-1.1958	-0.42083	-1.05	-0.875	-0.16875	-1.1562	-0.69792	-0.35417	-1.1688	-0.24167	-0.92083	140.518	337.588	72.433	325.696	126.413	5.031	259.971	59.079	280.603	230.704	180.083	334.155	258.223	309.768	279.952	210.824	0.00013427	0.00035886	7.0232e-05	567.78	3.5065e-06	5.2667e-06	1024.8	115.16	1.0358e-05	2.3351e-06	204.84	93.773	24.324	15.252	2.989e-06	30.527	0.00017812	0.00017649	4.8373e-05	466.85	1.9973e-06	1.9672e-06	841.97	97.094	1.9347e-06	1.9517e-06	169.22	77.29	21.362	12.841	1.9379e-06	25.275	140.757	208.499	144.322	18.932	45.542	173.947	15.986	21.116	113.411	124.612	19.841	23.502	26.190	30.740	155.307	28.739	-8191	255	
1901.630	1	1	0	0	0.20775	0.092318	0.056582	0.41605	0.27572	0.43441	0.1913	0.16545	0.06081	0.18729	0.30284	0.33139	0.34455	0.094536	0.16379	0.13976	-0.59583	-0.28958	-1.0104	-0.66875	-0.23125	-1.1125	-0.40833	-0.75625	-1.225	-0.2375	-1.0229	-0.57292	-0.34167	-1.1292	-0.33333	-0.73542	16.061	127.929	31.804	343.224	79.656	211.060	343.878	334.272	59.323	52.291	70.254	311.773	235.752	150.511	294.033	199.329	0.00018943	0.00055541	7.7983e-05	567.22	7.6624e-07	4.3042e-06	1023	114.48	2.8047e-06	3.3924e-06	203.97	94.499	24.228	15.249	1.9155e-06	30.6	0.00017757	0.00017725	4.8937e-05	468.17	1.9532e-06	1.887e-06	842.05	97.243	1.9404e-06	1.8896e-06	169.43	77.671	21.385	12.828	1.9156e-06	25.147	129.651	74.758	350.551	18.029	206.111	309.877	15.808	21.507	35.136	185.857	19.487	23.122	26.782	30.689	221.870	28.966	-8191	255	
1901.726	1	1	0	0	0.23398	0.053827	0.26681	0.33897	0.29067	0.16184	0.12257	0.34045	0.22013	0.25411	0.17013	0.12729	0.25253	0.15714	0.15203	0.39927	-0.65833	-0.16042	-1.0458	-0.76667	-0.15417	-1.3125	-0.44375	-0.57292	-1.075	-0.39167	-1.1396	-1.0521	-0.28333	-1.0208	-0.39375	-0.45	217.832	182.392	112.008	355.000	44.686	66.810	171.555	48.715	289.424	353.969	254.804	87.224	61.086	279.041	127.301	289.014	0.00022971	0.00092688	0.00032601	567.66	4.3208e-06	2.4856e-06	1023.9	116.56	3.3752e-06	4.6881e-06	205.38	95.038	24.469	15.318	3.6436e-06	30.473	0.00017727	0.00017322	4.8719e-05	465.93	1.9428e-06	1.8854e-06	843.5	97.517	1.8937e-06	1.9446e-06	169.77	77.921	21.4	12.834	1.9507e-06	25.154	147.427	46.842	113.765	18.292	96.692	184.753	16.058	21.724	127.122	19.661	20.074	23.051	25.969	30.259	350.620	29.150	-8191	255	
1901.822	1	1	0	0	0.18457	0.23841	0.26719	0.14365	0.33534	0.19431	0.058626	0.090793	0.074121	0.26826	0.2499	0.21384	0.067844	0.15184	0.33918	0.21142	-0.64167	-0.20833	-0.75417	-0.87708	-0.24167	-1.175	-0.71875	-0.36667	-1.2667	-0.26458	-0.78125	-0.74792	-0.20625	-1.0083	-0.62083	-0.50208	123.999	33.938	113.190	213.220	241.241	76.630	22.817	86.892	225.289	83.054	188.409	299.607	252.249	40.246	199.507	22.173	0.0001016	0.00045151	0.00018949	563.62	1.5442e-06	7.3412e-06	1035.7	116.28	2.5175e-06	2.0267e-06	206.2	95.191	24.64	15.336	3.416e-06	30.8	0.00017526	0.00017485	4.7718e-05	467.98	1.9262e-06	1.9387e-06	846.41	97.836	1.9132e-06	1.9477e-06	170.12	78.078	21.626	12.953	1.9335e-06	25.441	144.377	56.086	87.037	18.502	127.947	98.105	15.748	21.061	156.661	5.140	19.938	23.341	26.607	30.727	100.896	29.587	-8191	255	
1901.943	1	1	0	0	0.13194	0.049233	0.10598	0.20256	0.066648	0.096023	0.2333	0.29366	0.37207	0.24527	0.20857	0.28587	0.25258	0.093935	0.045018	0.26395	-0.575	-0.15417	-0.80625	-1.1104	-0.1625	-0.90417	-0.94583	-0.48542	-1.2479	-0.51042	-0.65417	-1.1562	-0.1625	-0.89792	-0.63125	-0.31875	167.949	325.796	349.475	46.340	137.860	255.439	60.199	319.208	55.387	64.590	92.225	299.071	78.762	342.775	91.406	160.924	0.00019174	0.00046029	0.00010249	567.11	4.8653e-06	4.5118e-06	1030.9	114.54	4.5377e-06	5.496e-06	208.59	95.273	24.515	15.469	1.3663e-06	30.72	0.00017822	0.00017803	4.9567e-05	468.71	1.9356e-06	1.9637e-06	844.97	97.214	1.9736e-06	2.0002e-06	171.22	78.558	21.499	13.031	1.9476e-06	25.36	110.153	13.693	208.100	18.500	118.436	27.190	15.789	21.415	48.618	342.074	19.509	23.296	26.419	31.060	90.556	28.991	-8191	255	
1902.014	1	1	0	0	0.14206	0.084342	0.070703	0.19786	0.30381	0.17148	0.11432	0.15587	0.16269	0.043384	0.098293	0.057661	0.080336	0.11453	0.32859	0.11995	-0.76667	-0.36042	-0.65833	-1.0958	-0.14583	-0.91875	-0.80208	-0.3	-1.1208	-0.56042	-0.45	-1.1292	-0.30417	-0.89375	-0.90625	-0.21875	333.211	189.050	253.541	362.743	324.032	288.513	212.227	134.030	114.904	241.525	352.024	6.482	49.101	174.318	64.552	351.007	0.0001327	0.00084829	6.7253e-05	567.73	5.2245e-06	2.5204e-06	1029.3	116.07	2.585e-06	2.7407e-06	206.02	95.489	24.579	15.295	5.0083e-06	30.57	0.00017722	0.00017801	4.9346e-05	468.11	1.9874e-06	1.9572e-06	846.66	97.975	1.9696e-06	2.0303e-06	170.51	78.879	21.479	12.983	1.954e-06	25.186	90.931	127.645	133.262	18.082	91.096	238.060	15.815	21.178	114.393	147.799	19.571	23.419	26.930	31.055	255.884	29.160	-8191	255	
1902.110	1	1	0	0	0.11805	0.045087	0.20215	0.054214	0.030861	0.17363	0.14946	0.044687	0.098666	0.29044	0.058807	0.2394	0.087934	0.35693	0.14734	0.14316	-0.7125	-0.59583	-0.34375	-1.2375	-0.16458	-0.84583	-1.0708	-0.15	-1.125	-0.67292	-0.44792	-1.2917	-0.5125	-0.83333	-0.93333	-0.14792	161.468	224.766	215.137	292.578	77.262	125.377	328.227	23.192	209.713	350.389	100.835	22.862	355.045	98.028	341.073	126.932	0.00017979	0.00054073	0.00012995	571.88	4.7434e-06	1.3724e-06	1033.2	115.64	4.3097e-06	5.5362e-06	204.47	94.665	23.91	15.418	3.0495e-06	29.962	0.00018036	0.00018375	4.8822e-05	471.25	1.958e-06	1.9209e-06	846.19	98.057	1.939e-06	1.9542e-06	169.24	77.811	21.379	12.886	1.9852e-06	24.918	99.227	223.866	50.145	19.012	86.675	323.945	16.227	21.339	153.759	331.852	20.547	23.553	26.334	30.780	173.619	29.020	-8191	255	
1902.231	1	1	0	0	0.19961	0.081989	0.22584	0.15573	0.24839	0.069445	0.11121	0.034503	0.1484	0.061474	0.17104	0.16058	0.15191	0.38767	0.18522	0.077036	-0.73333	-0.7875	-0.29792	-1.2062	-0.34792	-0.675	-1.3188	-0.2375	-0.83542	-0.99583	-0.5	-1.2938	-0.35417	-0.7	-1.2667	-0.30833	317.209	306.552	60.055	37.255	326.648	355.442	183.987	271.779	82.253	49.806	271.581	270.976	183.871	312.193	196.535	283.940	0.0001737	0.00022032	0.00013269	561.78	5.2852e-06	5.3796e-06	1026.5	116.43	5.1999e-06	2.9115e-06	205	95.152	24.195	15.156	5.6773e-06	30.278	0.00017456	0.00018388	4.9938e-05	467.74	2.0097e-06	1.9848e-06	844.78	97.398	1.9603e-06	2.022e-06	169.07	78.028	21.351	12.869	2.0005e-06	25.117	133.863	213.434	23.703	18.696	182.529	160.317	16.310	21.802	91.497	7.102	19.861	23.501	26.540	30.585	198.061	28.709	-8191	255	
1902.325	1	1	0	0	0.24629	0.092221	0.23072	0.11199	0.2061	0.23812	0.14514	0.23494	0.1906	0.066216	0.086319	0.2312	0.43281	0.1384	0.29885	0.099401	-0.64583	-0.77292	-0.1375	-1.1875	-0.40417	-0.53542	-1.4167	-0.2375	-0.83333	-0.88125	-0.21458	-1.0667	-0.60208	-0.325	-1.275	-0.15	219.379	230.774	26.394	80.836	103.222	177.329	48.673	296.729	358.399	62.665	146.179	279.066	227.002	265.455	359.598	96.446	0.00018144	0.00033679	9.8513e-05	565.04	3.9294e-06	3.8714e-06	1026.9	114.99	6.0239e-06	5.3263e-06	204.6	93.97	24.194	15.279	3.2462e-06	30.444	0.00018032	0.00018257	4.8655e-05	469.15	1.9518e-06	1.97e-06	844.28	97.485	2.0101e-06	1.9758e-06	168.95	78.057	21.307	12.896	1.9493e-06	25.216	144.067	29.280	66.946	18.903	214.490	86.852	16.247	21.235	145.710	26.055	19.621	23.483	26.160	30.257	189.225	28.675	-8191	255	
1902.422	1	1	0	0	0.043916	0.11927	0.20337	0.17209	0.18682	0.378	0.07318	0.35794	0.097166	0.13096	0.0927	0.17844	0.12312	0.20841	0.23056	0.14425	-0.4625	-0.9875	-0.38333	-1.3	-0.67292	-0.34167	-1.3167	-0.0625	-0.59792	-0.925	-0.22083	-0.94167	-0.72917	-0.39167	-1.1792	-0.36042	230.641	103.076	29.089	340.923	351.622	311.103	302.766	231.270	68.327	188.629	187.378	11.929	332.358	98.909	63.858	198.219	0.0001182	0.00080143	0.00024886	567.46	1.171e-06	2.5989e-06	1028.5	115.43	1.5208e-06	2.963e-06	209.43	94.313	24.146	15.271	3.071e-06	30.53	0.00018143	0.00017808	4.9202e-05	469.52	2.004e-06	1.9593e-06	845.29	97.79	2.0193e-06	1.9685e-06	170.7	78.117	21.269	12.918	1.9127e-06	25.256	101.660	285.197	80.298	18.193	32.485	282.710	15.843	21.014	315.139	180.209	19.497	23.120	25.014	30.955	307.428	29.176	-8191	255	
1902.542	1	1	0	0	0.22096	0.16372	0.17696	0.070593	0.16655	0.21845	0.1042	0.29527	0.071585	0.27036	0.29404	0.2001	0.40013	0.41369	0.28308	0.29428	-0.23542	-1.0521	-0.095833	-1.1167	-0.96042	-0.26042	-1.1875	-0.49583	-0.62083	-1.1729	-0.19792	-1.0562	-0.82708	-0.4125	-0.96667	-0.45417	329.852	112.213	334.550	194.386	117.086	75.320	342.369	42.503	245.412	93.359	339.963	274.247	98.700	176.534	198.065	118.025	0.00012159	0.00029486	9.7717e-05	565.07	4.4532e-06	5.8759e-06	1038.3	116.2	3.8977e-06	1.0453e-05	205.05	93.622	24.293	14.976	3.5239e-06	29.785	0.00018028	0.00018014	4.9889e-05	469.66	1.918e-06	1.9702e-06	848.64	97.651	1.9994e-06	2.0159e-06	169.07	77.541	21.235	12.764	1.9843e-06	24.888	110.085	123.894	110.554	19.157	197.977	142.144	16.229	21.577	331.079	142.954	20.414	23.897	27.084	31.729	150.877	29.636	-8191	255	
1902.638	1	1	0	0	0.099488	0.27134	0.28459	0.22181	0.16214	0.1525	0.26821	0.36574	0.024412	0.21577	0.10983	0.27326	0.24019	0.30858	0.20714	0.10851	-0.20417	-1.1479	-0.072917	-0.75	-0.93333	-0.075	-1.0979	-0.47083	-0.26042	-1.0333	-0.39583	-0.69792	-1.1354	-0.18958	-0.96458	-0.82917	246.782	192.531	121.162	333.480	164.105	117.629	341.153	263.279	203.075	309.272	287.792	211.066	321.351	342.278	206.604	152.462	8.6174e-05	0.00064559	9.5254e-05	570.9	1.308e-06	2.5743e-06	1034.1	115.57	2.3499e-06	7.1999e-06	203.84	93.489	23.972	15.076	4.8003e-06	30.224	0.00017999	0.00017423	4.8703e-05	469.61	1.9392e-06	1.9354e-06	847.76	97.565	1.9486e-06	1.9198e-06	169.52	77.72	21.104	12.809	1.9447e-06	25.087	117.906	121.541	42.909	19.293	156.539	285.692	15.976	21.019	217.621	54.210	19.493	23.632	26.149	30.707	99.490	29.133	-8191	255	
1902.710	1	1	0	0	0.28551	0.24506	0.058956	0.14653	0.090096	0.071389	0.093785	0.1574	0.10526	0.062644	0.31417	0.22085	0.12302	0.31327	0.065869	0.08741	0.095833	-1.1458	-0.2625	-0.65833	-0.82083	-0.18125	-1.0167	-0.76042	-0.21667	-1.1938	-0.54792	-0.675	-1.0542	-0.19583	-0.89792	-0.78542	70.990	180.063	279.138	19.873	183.723	70.352	356.841	24.598	79.781	188.568	91.399	284.973	241.012	4.154	252.923	338.223	0.00014868	0.00069963	3.9766e-05	569.3	3.9595e-06	4.6607e-06	1033.6	114.96	3.5506e-06	4.8553e-06	207.39	94.886	24.061	15.268	2.8487e-06	30.755	0.00017948	0.00017309	4.9638e-05	471.8	1.9758e-06	1.9762e-06	851.7	97.972	1.9359e-06	1.9824e-06	170.76	78.563	21.265	12.902	1.9342e-06	25.516	136.671	278.162	33.910	18.830	132.162	152.419	16.360	20.671	67.362	100.057	19.438	23.428	25.740	30.500	126.603	28.623	-8191	255	
1902.806	1	1	0	0	0.13517	0.10951	0.19862	0.24593	0.21178	0.19287	0.12962	0.041106	0.15412	0.15796	0.27369	0.36686	0.33837	0.20443	0.20757	0.20483	0.12083	-1.0688	-0.36875	-0.46667	-1.2792	-0.29167	-1.0125	-0.74792	-0.24583	-1.0167	-0.45	-0.4125	-0.95417	-0.25417	-0.88125	-1.1417	46.653	329.429	127.320	302.311	35.897	106.486	297.593	117.731	242.132	332.749	47.532	213.650	339.325	344.399	302.392	102.967	0.00017174	0.0007166	1.5867e-05	568.49	4.015e-06	4.858e-06	1039.2	116.06	3.0271e-06	5.4197e-06	208.93	96.811	24.778	15.283	5.548e-07	30.856	0.00017915	0.00017862	5.0206e-05	470.23	1.9657e-06	1.9377e-06	854.11	98.479	1.9391e-06	1.9139e-06	171.75	79.235	21.474	12.946	1.9717e-06	25.527	139.713	81.398	35.068	18.396	149.901	239.402	15.966	21.203	32.712	88.219	19.335	23.423	26.649	30.732	143.007	29.004	-8191	255	
1902.902	1	1	0	0	0.040058	0.098791	0.40889	0.24043	0.14061	0.16699	0.15437	0.21643	0.22869	0.03293	0.13736	0.01862	0.20253	0.13432	0.18922	0.25044	0.29167	-1.0083	-0.51875	-0.4	-1.1708	-0.27708	-0.85208	-1.0688	-0.16667	-0.925	-0.67292	-0.4625	-1.1542	-0.35	-0.50833	-1.1521	78.331	125.460	167.047	300.139	214.687	299.648	209.068	192.258	11.314	267.408	128.897	358.152	243.935	74.707	297.664	22.415	0.00019632	0.00065415	8.4166e-05	569.33	3.3998e-06	2.1042e-06	1036.1	117.68	6.2283e-06	1.6723e-06	204.46	95.145	24.838	15.033	2.5338e-06	30.209	0.00017685	0.00017861	4.9498e-05	470.68	1.9378e-06	1.9711e-06	855.25	98.669	1.902e-06	1.9386e-06	170.51	78.448	21.539	12.853	1.922e-06	25.175	143.488	37.424	232.044	18.239	343.356	332.349	16.010	21.625	48.403	79.942	19.430	23.283	26.321	30.760	320.867	29.018	-8191	255	
1903.023	1	1	0	0	0.21015	0.2581	0.24068	0.32287	0.15216	0.10709	0.31897	0.33222	0.065473	0.14619	0.18521	0.018824	0.096123	0.57506	0.22479	0.24063	0.066667	-0.88125	-0.71458	-0.325	-0.99583	-0.47083	-0.52292	-0.975	-0.28125	-1.0708	-0.82083	-0.28125	-1.1771	-0.38542	-0.44583	-1.1708	263.211	356.135	252.541	273.420	275.296	68.783	302.184	269.521	22.640	303.767	283.783	275.256	121.842	334.105	62.908	314.566	0.00018638	0.00029533	0.00015026	566.6	2.7128e-06	4.5519e-06	1038.4	116.02	2.2374e-06	4.5165e-06	206.41	94.875	24.41	15.107	9.3654e-06	30.785	0.00017725	0.00017674	4.9301e-05	468.02	1.8716e-06	1.9329e-06	853.56	98.853	1.8878e-06	1.9563e-06	170.9	78.657	21.547	12.914	1.9556e-06	25.42	127.202	44.830	114.198	18.272	22.629	212.096	15.800	21.301	339.683	323.486	19.392	23.541	26.819	30.439	98.894	28.595	-8191	255	
1903.119	1	1	0	0	0.26271	0.061761	0.11499	0.26064	0.17087	0.13544	0.178	0.11486	0.15277	0.19478	0.4348	0.25375	0.12126	0.024514	0.014365	0.30866	0.17917	-0.89167	-0.90625	-0.27917	-1.0854	-0.53125	-0.5625	-1.1688	-0.41875	-0.81458	-0.86667	-0.34792	-1.15	-0.51667	-0.35833	-1.2833	246.523	318.551	226.953	283.880	286.055	79.929	64.452	239.926	23.903	294.400	315.388	282.661	256.407	282.056	285.995	233.813	0.00015848	0.00092547	6.7883e-05	570.22	1.3175e-06	3.5164e-06	1032	116.68	7.6191e-06	3.5369e-06	207.2	95.805	24.426	15.396	3.2733e-06	30.766	0.00017679	0.00017776	4.8048e-05	470.63	1.9408e-06	1.9581e-06	852.91	98.98	1.935e-06	1.9125e-06	171.58	79.095	21.514	13.023	1.9068e-06	25.536	136.124	105.109	57.919	18.362	25.767	250.427	15.843	20.927	167.727	279.865	19.619	23.462	26.469	29.405	37.539	28.537	-8191	255	
1903.213	1	1	0	0	0.092128	0.14241	0.05101	0.16939	0.094312	0.2843	0.35186	0.46561	0.32574	0.19521	0.092898	0.13661	0.13191	0.043896	0.13988	0.15114	0.070833	-0.57292	-0.96458	-0.125	-0.85625	-0.64375	-0.4	-1.1917	-0.10208	-0.70208	-1.2521	-0.4	-0.85	-0.68542	-0.18958	-1.075	345.506	280.180	19.336	269.218	324.927	128.834	261.865	335.244	5.644	24.562	260.027	288.155	16.531	199.507	237.853	148.894	0.00020223	0.00040983	0.00012011	566.71	3.896e-06	4.9954e-06	1044	117.37	1.616e-06	5.2339e-06	211.63	95.261	24.581	15.384	2.9087e-06	31.228	0.00017423	0.00017727	4.939e-05	469.78	1.9334e-06	1.9653e-06	855.75	99.024	1.9675e-06	1.9645e-06	173.39	79.185	21.729	12.983	1.9928e-06	25.718	121.660	66.584	304.428	18.318	226.023	188.289	15.741	20.657	170.555	119.084	19.571	23.531	26.076	29.886	185.735	28.848	-8191	255	
1903.311	1	1	0	0	0.062193	0.13965	0.20099	0.17013	0.13162	0.325	0.14078	0.036821	0.17999	0.15791	0.01823	0.15966	0.22794	0.18791	0.11254	0.14268	-0.052083	-0.51458	-1.2583	-0.27917	-1.0271	-1.0146	-0.31875	-1.0833	-0.17708	-0.43333	-1.1479	-0.36458	-0.72292	-1.0625	-0.16667	-0.98333	174.506	296.642	348.864	322.432	103.138	207.428	253.277	274.414	180.373	244.939	177.202	329.746	54.094	288.801	89.216	291.681	0.00010337	0.00071817	3.7962e-05	569.07	1.5463e-06	1.4199e-06	1043.7	116.18	8.3771e-06	6.5156e-06	206.45	95.041	24.489	15.089	7.0277e-07	30.749	0.00018316	0.00017861	4.9134e-05	470.88	1.9428e-06	1.9501e-06	854.1	98.202	1.9729e-06	2.005e-06	170.85	78.454	21.436	12.87	1.9719e-06	25.485	141.752	123.761	102.944	17.982	238.929	221.384	16.007	21.166	171.962	195.035	20.069	23.397	26.138	30.099	212.412	28.826	-8191	255	
1903.406	1	1	0	0	0.092187	0.2518	0.26413	0.23437	0.10359	0.16125	0.21404	0.075376	0.12148	0.19646	0.21462	0.11174	0.11387	0.17282	0.20865	0.1803	-0.36042	-0.22708	-1.0083	-0.29167	-0.75833	-0.97708	-0.37083	-1.1271	-0.74792	-0.40625	-1.1646	-0.55417	-0.52917	-1.0562	-0.20625	-0.92292	39.530	18.989	223.145	49.092	139.086	158.426	302.273	4.549	316.968	64.397	294.924	279.927	293.170	275.943	170.925	265.788	0.00022769	0.00065172	0.00016798	575.13	2.9566e-06	5.034e-06	1035.9	116.67	4.571e-06	8.3349e-06	205.56	95.048	24.342	15.127	2.3304e-06	30.706	0.00018108	0.00017933	5.0304e-05	472.16	1.992e-06	1.9414e-06	850.94	98.584	1.9517e-06	2.0091e-06	170.49	78.24	21.404	12.917	1.946e-06	25.411	131.658	264.059	99.787	17.754	84.354	139.358	15.841	21.183	124.034	169.709	19.180	22.958	25.678	30.251	329.697	28.194	-8191	255	
1903.502	1	1	0	0	0.24948	0.070815	0.071213	0.34181	0.08838	0.2294	0.14316	0.22626	0.34891	0.18281	0.12778	0.15377	0.22085	0.041255	0.17592	0.15357	-0.33958	-0.15417	-1.0458	-0.45625	-0.51042	-1.1187	-0.26667	-0.74167	-0.5875	-0.083333	-1.1833	-0.49167	-0.48542	-1.0875	-0.29792	-0.95625	80.124	63.392	134.720	260.231	180.270	273.871	192.046	352.463	80.226	70.646	319.789	295.740	31.683	225.765	65.523	332.977	0.00014627	0.00066286	5.9383e-05	566.11	6.8941e-06	6.3415e-06	1039.8	115.24	2.5274e-06	6.1953e-06	208.18	94.782	24.573	15.29	7.7134e-06	30.7	0.00018057	0.0001781	4.925e-05	468.37	1.97e-06	1.9213e-06	849.94	98.485	1.9564e-06	1.9798e-06	171.04	78.416	21.423	12.919	1.9485e-06	25.428	134.866	43.568	126.827	18.227	113.039	227.367	15.910	20.582	48.960	114.500	18.972	23.209	25.430	29.929	111.594	28.551	-8191	255	
1903.623	1	1	0	0	0.17677	0.2064	0.2858	0.16659	0.17621	0.16644	0.1742	0.22489	0.14901	0.18009	0.3263	0.053156	0.3215	0.37746	0.13683	0.21572	-0.54583	-0.066667	-1.0479	-0.47917	-0.47083	-1.2292	-0.35208	-0.79583	-0.93542	-0.041667	-1.1063	-0.51667	-0.39792	-1.175	-0.39792	-0.77083	273.502	27.958	110.299	331.867	287.046	296.540	299.167	88.029	252.812	236.124	11.099	176.395	27.173	24.229	41.200	26.674	0.00015001	0.00022932	0.00020409	566.26	3.9741e-06	1.5801e-06	1027.9	117.11	1.3875e-06	8.4207e-06	208	94.201	24.096	15.361	2.9489e-06	30.695	0.00017887	0.00017983	4.9868e-05	469.88	1.9787e-06	1.957e-06	848.77	98.407	2.0066e-06	1.9877e-06	172.24	78.372	21.428	12.963	1.9486e-06	25.641	165.656	143.981	33.719	18.090	100.613	201.603	15.174	21.279	235.553	175.386	19.358	22.908	25.219	30.278	151.609	28.417	-8191	255	
1903.719	1	1	0	0	0.10005	0.32203	0.14847	0.16618	0.11953	0.088397	0.15965	0.23136	0.04931	0.21767	0.28855	0.31438	0.22745	0.15323	0.28655	0.17114	-0.5	-0.3	-1.0771	-0.8	-0.33333	-1.2521	-0.55417	-0.78333	-1.0958	-0.079167	-0.91667	-0.72292	-0.41458	-1.0979	-0.39792	-0.48125	57.393	175.815	66.825	261.062	79.936	59.032	259.138	356.243	318.231	60.441	344.293	327.798	112.339	20.359	90.006	340.966	0.00027261	0.00034959	1.6287e-05	565.62	2.2404e-06	1.0175e-06	1035.8	116.26	7.9944e-07	2.9901e-06	208.01	95.706	23.999	15.011	3.5273e-06	30.374	0.00018297	0.00017623	5.0486e-05	469.03	1.9746e-06	1.9556e-06	851.71	98.06	1.9673e-06	1.9379e-06	171.14	78.465	21.16	12.773	2.0004e-06	25.314	116.560	131.010	67.303	17.924	229.598	165.581	15.630	21.324	65.040	163.457	19.649	22.930	26.443	29.993	234.080	29.048	-8191	255	
1903.815	1	1	0	0	0.094113	0.17897	0.15213	0.23771	0.067616	0.080985	0.2762	0.090461	0.063138	0.10119	0.39642	0.40954	0.056457	0.088956	0.15718	0.15518	-0.63958	-0.17708	-0.91042	-0.82708	-0.0875	-1.2104	-0.63333	-0.4375	-1.1396	-0.31667	-0.75625	-0.89167	-0.425	-1.0625	-0.31042	-0.60417	123.343	311.750	233.370	123.371	50.181	130.534	309.117	112.010	272.721	42.496	344.002	329.375	248.931	79.060	139.205	311.152	0.00016196	0.00053621	0.00020737	565.88	7.8654e-06	1.667e-06	1028.7	115.15	2.2677e-06	9.1111e-06	205.03	94.371	24.118	15.231	8.8876e-06	30.657	0.00017857	0.0001793	4.8904e-05	469.15	1.9721e-06	1.9398e-06	848.97	97.487	1.953e-06	1.9589e-06	170.92	77.706	21.166	12.841	2.0215e-06	25.339	167.485	123.822	109.702	18.093	149.532	315.253	15.564	21.535	68.776	129.148	18.651	23.007	25.375	30.584	217.116	29.291	-8191	255	
1903.911	1	1	0	0	0.21967	0.16808	0.24491	0.054487	0.10658	0.26144	0.21905	0.13389	0.050294	0.24869	0.13173	0.16325	0.10632	0.13534	0.13042	0.084325	-0.86042	-0.29792	-0.76042	-0.8	-0.0875	-1.0479	-0.86042	-0.30208	-0.99792	-0.3125	-0.79792	-0.89583	-0.1375	-1.1625	-0.75	-0.60208	112.077	297.962	149.664	233.517	340.919	3.032	255.365	3.231	33.965	346.506	333.219	230.481	29.030	258.490	147.632	255.295	0.00023472	0.00024028	0.0001715	564	4.8512e-06	2.3973e-06	1031.3	116.28	5.6613e-06	5.477e-06	209.54	93.431	23.737	15.099	2.1012e-06	30.344	0.00017945	0.00017803	4.9919e-05	466.6	1.967e-06	1.9163e-06	848.37	97.794	1.9441e-06	2.0222e-06	171.84	77.801	21.21	12.827	2.0023e-06	25.216	136.290	167.404	147.501	17.807	99.835	287.932	15.959	20.730	127.347	41.098	20.039	22.968	27.063	30.283	141.775	29.218	-8191	255	
1904.007	1	1	0	0	0.22101	0.15164	0.14816	0.36668	0.087273	0.11153	0.098662	0.29616	0.42194	0.057527	0.097413	0.11789	0.057981	0.28296	0.30444	0.27178	-0.825	-0.22917	-0.69375	-1.0375	-0.28125	-1.0292	-1.0833	-0.29583	-1.275	-0.53333	-0.4875	-1.1063	-0.41875	-0.93333	-0.71667	-0.41458	279.186	47.779	170.469	342.827	178.945	171.872	183.141	162.794	11.207	350.593	200.771	216.559	298.422	252.988	235.292	303.230	0.00014451	0.00026626	8.1148e-05	567.15	8.7456e-06	3.5843e-06	1027.8	115.97	1.4086e-06	3.8853e-06	207.69	94.146	24.351	15.252	2.6003e-06	30.944	0.00017968	0.00018309	5.0005e-05	467.34	1.9616e-06	1.9576e-06	846.68	97.558	1.9223e-06	2.0143e-06	170.81	78.075	21.312	12.935	1.9752e-06	25.593	108.134	57.542	353.141	17.918	85.479	98.023	15.585	21.353	141.536	108.368	18.793	23.266	26.314	30.288	198.059	28.691	-8191	255	
1904.103	1	1	0	0	0.052917	0.06673	0.24472	0.32106	0.17026	0.041398	0.18703	0.24904	0.1504	0.11712	0.008702	0.37532	0.24089	0.24733	0.25439	0.11279	-0.79375	-0.40417	-0.55833	-1.1042	-0.19792	-0.99792	-0.92083	-0.3375	-1.0875	-0.63542	-0.45417	-1.1437	-0.1625	-0.81458	-0.77292	-0.022917	204.047	33.978	152.983	82.681	312.274	195.159	285.155	316.918	185.328	60.398	159.172	307.930	179.938	213.220	73.630	12.383	6.5225e-05	0.0002468	0.00010255	564.47	4.6786e-06	4.2984e-06	1035.9	116.09	1.5303e-06	4.1221e-06	208.67	95.081	24.334	15.079	7.0463e-06	30.371	0.00017824	0.0001802	4.9773e-05	468.37	1.9741e-06	1.9727e-06	851.57	97.796	2.0005e-06	1.9773e-06	171.77	78.307	21.293	12.848	2.0322e-06	25.238	188.091	224.760	136.957	18.099	211.205	141.039	15.715	21.445	55.166	150.354	19.436	23.092	26.131	31.048	236.989	28.013	-8191	255	
1904.199	1	1	0	0	0.15946	0.37946	0.1506	0.095606	0.34033	0.027307	0.13162	0.22407	0.03283	0.34224	0.12989	0.22086	0.19685	0.15096	0.13093	0.11502	-0.89375	-0.71875	-0.45833	-1.275	-0.27083	-0.73125	-1.3438	-0.14167	-0.90625	-0.70417	-0.5	-1.1667	-0.37292	-0.65	-0.93333	-0.19167	208.144	264.797	73.902	326.304	44.371	52.467	3.227	359.773	260.482	206.943	360.900	248.037	361.153	342.410	349.711	35.091	8.6503e-05	0.00049675	0.00029247	571.27	2.9206e-06	6.8007e-06	1032	118.48	4.1461e-06	2.5124e-06	206.9	94.418	24.199	15.029	7.214e-06	30.296	0.00017859	0.00017806	4.9992e-05	470.64	1.9288e-06	1.9649e-06	850.43	99.007	1.9657e-06	1.9838e-06	170.31	78.007	21.418	12.801	2.0033e-06	25.111	157.073	74.195	320.994	18.134	303.940	56.984	15.798	20.835	302.965	142.757	18.934	23.406	25.643	30.362	286.408	28.483	-8191	255	
1904.318	1	1	0	0	0.34991	0.18717	0.053473	0.16792	0.15445	0.11895	0.012137	0.13081	0.39055	0.077541	0.19202	0.098337	0.17262	0.073817	0.18829	0.077172	-0.47917	-0.74167	-0.21458	-1.4354	-0.67708	-0.60417	-1.2104	-0.19167	-0.99583	-0.83125	-0.26042	-1.0292	-0.4875	-0.45208	-0.89583	-0.48333	221.300	63.826	152.968	22.746	96.864	231.330	98.112	75.651	147.870	209.998	63.424	361.819	33.376	284.828	47.785	339.761	0.00016657	0.00066399	0.00010851	567.63	1.7423e-06	4.0311e-06	1031.5	116.43	3.3342e-06	1.0338e-05	207.42	94.76	24.127	15.203	2.9858e-06	30.323	0.00018383	0.00017266	4.9719e-05	470.07	1.985e-06	1.9971e-06	849.95	98.316	1.9555e-06	1.9577e-06	172.14	78.229	21.267	12.839	1.9676e-06	25.234	159.241	81.838	3.659	18.455	361.296	22.257	15.358	20.623	31.895	56.790	19.944	23.742	25.587	31.215	172.474	28.772	-8191	255	
1904.414	1	1	0	0	0.11692	0.085752	0.052885	0.22336	0.23295	0.43185	0.14635	0.11509	0.11823	0.086094	0.26902	0.20602	0.18804	0.2627	0.28728	0.17677	-0.5375	-0.76667	-0.20417	-1.1021	-0.47917	-0.38125	-1.2542	-0.49792	-0.825	-1.075	-0.34167	-0.91042	-0.54792	-0.31458	-1.0542	-0.25833	354.045	82.006	79.877	357.707	19.685	90.890	71.070	152.727	246.397	70.426	362.705	102.780	70.056	123.618	209.314	94.935	0.00013169	0.0006186	0.00011387	560.33	3.9524e-06	3.0374e-06	1036.1	117.94	5.6752e-06	8.0312e-06	207.03	95.4	24.279	15.171	2.2403e-06	30.739	0.00018207	0.00017445	4.8783e-05	467.54	1.9345e-06	1.9977e-06	852.73	99.364	1.9307e-06	1.9677e-06	171.15	78.872	21.4	12.88	1.9709e-06	25.514	112.711	67.934	272.928	18.222	140.108	212.805	15.432	21.051	89.789	68.541	20.055	23.397	25.539	30.170	146.306	29.078	-8191	255	
1904.511	1	1	0	0	0.11089	0.12162	0.15096	0.17021	0.17719	0.14671	0.13374	0.12934	0.23793	0.4411	0.25446	0.26857	0.058286	0.12854	0.30807	0.14352	-0.40625	-0.86875	-0.28125	-1.1042	-0.64792	-0.28125	-1.2583	-0.32708	-0.50417	-1.0271	-0.28333	-0.97708	-0.83125	-0.21875	-1.0625	-0.51458	89.704	39.307	278.579	32.850	68.003	30.031	148.036	114.187	208.969	181.499	8.818	56.256	255.958	331.899	298.384	269.901	0.00012558	0.0010473	0.00019184	566.85	1.1828e-06	4.4615e-06	1039.9	115.62	1.4802e-06	2.3136e-06	210.21	94.873	24.488	15.06	2.6529e-06	30.282	0.00018095	0.00018377	5.1373e-05	468.56	1.9961e-06	1.9897e-06	855.95	98.482	2.0273e-06	1.9819e-06	171.7	78.618	21.428	12.824	1.988e-06	25.241	116.318	90.255	100.687	18.111	355.937	139.725	15.841	21.011	9.885	216.403	19.464	23.845	26.146	30.066	180.860	28.711	-8191	255	
1904.584	1	1	0	0	0.17583	0.14952	0.12571	0.16546	0.22507	0.18385	0.20155	0.20574	0.030334	0.095463	0.29933	0.15872	0.29099	0.045146	0.2182	0.20857	-0.22292	-0.94792	-0.26458	-0.9875	-0.96667	-0.28333	-1.1021	-0.62083	-0.59375	-1.2146	-0.23125	-0.84792	-0.98958	-0.1375	-1.1271	-0.58125	130.312	113.209	237.680	341.048	332.852	76.898	337.157	90.062	111.172	133.741	160.709	329.742	7.492	343.137	279.392	323.867	0.00013153	0.00031184	0.00016618	567.39	3.9463e-06	2.4451e-06	1037.2	115.44	3.5891e-06	7.0531e-06	206.18	94.004	24.035	15.041	2.8651e-06	30.614	0.00018504	0.00018249	5.0415e-05	470.43	1.9608e-06	1.9778e-06	852.46	97.995	1.9798e-06	1.9758e-06	170.08	77.839	21.205	12.754	2.0119e-06	25.222	121.876	134.436	107.860	18.222	116.433	173.523	15.568	21.211	224.451	81.774	19.469	22.892	25.596	30.063	211.975	29.468	-8191	255	
1904.703	1	1	0	0	0.15135	0.13297	0.18225	0.15961	0.21518	0.012781	0.17662	0.16467	0.17433	0.26093	0.12056	0.17951	0.11701	0.074821	0.11595	0.1132	0.0875	-0.90208	-0.1625	-0.73125	-1.1354	-0.064583	-1.0521	-0.52708	-0.25625	-1.2729	-0.29375	-0.65625	-1.0083	-0.26667	-1.0438	-0.85208	347.867	338.264	147.850	335.974	177.896	38.715	278.398	128.722	28.926	107.399	109.977	19.038	300.573	146.540	220.443	288.089	0.00011606	0.00049443	0.0002005	567.67	3.3573e-06	6.2392e-06	1035.9	116.93	3.2176e-06	2.6567e-06	206.84	94.349	24.193	15.107	5.3868e-06	30.39	0.00018366	0.00018043	5.1227e-05	469.65	1.9339e-06	1.9843e-06	850.75	98.184	1.9652e-06	2.0263e-06	171.01	77.989	21.186	12.78	2.016e-06	25.235	113.477	184.211	76.590	18.306	13.990	145.779	15.792	20.936	137.983	267.247	19.616	22.896	26.145	30.356	186.179	28.687	-8191	255	
1904.799	1	1	0	0	0.15346	0.20163	0.19336	0.13652	0.1614	0.26241	0.14496	0.16914	0.27756	0.22269	0.29729	0.11667	0.064898	0.27759	0.22566	0.21484	0.045833	-1.0167	-0.41667	-0.6	-1.0854	-0.31458	-1.0333	-0.68125	-0.27708	-1.0812	-0.5125	-0.75417	-1.1396	-0.46458	-1.0396	-0.91458	255.427	158.394	352.274	238.911	32.912	105.650	322.096	355.826	78.344	250.784	50.241	326.478	110.778	70.540	76.954	319.971	9.4764e-05	0.00077037	7.516e-05	564.15	2.7528e-06	2.5728e-06	1034.7	115.21	2.9126e-06	7.343e-06	203.69	95.163	24.477	15.04	7.4984e-06	30.692	0.00018408	0.00018281	5.2028e-05	468.22	1.9915e-06	2.0293e-06	850.22	97.855	1.9825e-06	1.9912e-06	169.61	78.349	21.43	12.808	2.0093e-06	25.36	142.533	233.878	54.274	18.231	313.064	24.571	15.982	21.459	167.245	208.728	19.386	23.307	25.924	31.102	82.804	28.910	-8191	255	
1904.895	1	1	0	0	0.1769	0.1551	0.21647	0.27359	0.34381	0.37175	0.14674	0.12213	0.1397	0.45079	0.30477	0.13225	0.16972	0.19747	0.075555	0.17613	0.21875	-1.0354	-0.37292	-0.37708	-1.0458	-0.28958	-0.84583	-0.79167	-0.15208	-0.98958	-0.66458	-0.40417	-1.1417	-0.22917	-0.72083	-0.90417	98.563	147.445	260.628	304.862	51.605	288.035	156.693	295.394	84.465	165.465	276.169	240.540	190.926	88.101	122.742	89.344	0.0001571	0.00016477	0.00019635	563.78	7.0863e-06	4.8275e-06	1025.9	116.56	2.4985e-06	2.9477e-06	206.45	94.974	24.376	14.942	3.4784e-06	30.855	0.00018381	0.0001806	5.0239e-05	467.84	1.9843e-06	1.9811e-06	849.42	97.517	1.9905e-06	2.0013e-06	170.41	78.653	21.399	12.743	2.0532e-06	25.332	131.642	324.015	20.374	18.043	343.271	180.538	15.825	20.547	219.308	82.805	19.250	23.581	26.311	29.205	65.465	28.491	-8191	255	
1904.991	1	1	0	0	0.10607	0.10841	0.10958	0.021116	0.13076	0.040637	0.2538	0.065948	0.20381	0.14105	0.14242	0.039168	0.058567	0.10543	0.088998	0.064015	0.12917	-1.0083	-0.59167	-0.42292	-1.0167	-0.40625	-0.67708	-1.075	-0.11667	-0.87708	-0.82917	-0.28542	-1.1688	-0.41667	-0.6625	-1.05	108.251	58.353	318.895	37.752	48.005	266.594	244.187	310.154	80.616	348.673	70.522	310.138	156.820	8.397	21.355	92.771	0.00012625	0.00036563	7.4984e-05	562.54	3.2286e-06	1.3599e-06	1035.1	115.62	1.784e-06	7.0122e-06	206.76	94.387	24.351	14.8	2.2255e-06	30.035	0.00017978	0.00018519	5.1088e-05	468.43	1.9494e-06	1.9624e-06	850.28	97.467	1.96e-06	1.9824e-06	169.62	77.489	21.311	12.646	2.0033e-06	24.94	120.996	111.947	278.549	18.061	100.855	9.934	15.743	20.436	125.399	236.810	19.532	22.488	25.498	30.685	144.754	28.179	-8191	255	
1905.112	1	1	0	0	0.12737	0.25868	0.16059	0.084105	0.12296	0.12222	0.32995	0.036954	0.11711	0.092928	0.23405	0.13106	0.089632	0.22696	0.097514	0.28119	0.24792	-0.82292	-0.6625	-0.31458	-0.91875	-0.37292	-0.60625	-1.1313	-0.15625	-0.95625	-1.075	-0.25833	-1.0438	-0.53125	-0.36667	-0.97917	235.869	80.714	168.007	279.540	281.868	242.219	233.964	90.565	74.267	350.300	347.017	51.052	195.462	16.563	257.682	269.378	0.00011633	0.00087011	0.0002798	561.79	6.3023e-06	5.6826e-06	1023.9	115.41	2.7575e-06	5.7472e-06	205.63	94.294	23.998	15.048	8.7774e-06	30.184	0.00018158	0.00017938	5.1171e-05	467.39	1.951e-06	1.9651e-06	846.5	97.806	2.0102e-06	1.9862e-06	168.84	77.466	21.249	12.68	1.9825e-06	25.052	142.827	173.027	102.553	17.909	92.681	111.737	16.017	20.738	101.882	217.030	18.819	22.992	26.115	30.581	123.722	28.629	-8191	255	
1905.184	1	1	0	0	0.099517	0.13065	0.15961	0.27466	0.2154	0.22902	0.1874	0.14446	0.18086	0.21634	0.17263	0.18498	0.15814	0.14716	0.29221	0.4053	0.054167	-0.54583	-1.0083	-0.26667	-1.1771	-0.68958	-0.4375	-1.0167	-0.28958	-0.825	-1.0354	-0.32292	-0.78333	-0.70833	-0.46458	-1.0063	292.327	48.570	12.205	233.929	226.218	84.033	328.949	272.302	212.910	293.342	252.118	19.530	33.316	265.050	287.903	308.689	0.00016651	0.0005326	3.9498e-05	562.52	3.5424e-06	2.3471e-06	1026.3	115.35	4.8513e-06	3.993e-06	204.96	94.138	24.209	15.012	3.0968e-06	30.517	0.00018349	0.00018106	4.9222e-05	466.59	1.9874e-06	1.9619e-06	845.41	97.258	1.959e-06	1.9996e-06	169.84	77.982	21.4	12.752	1.9721e-06	25.211	128.033	70.938	269.503	18.270	31.224	101.007	15.809	20.612	215.184	224.033	19.466	23.110	25.129	30.640	143.367	28.594	-8191	255	
1905.304	1	1	0	0	0.34057	0.29984	0.052783	0.095092	0.053143	0.023599	0.19127	0.1114	0.18297	0.12637	0.16873	0.16369	0.037798	0.31279	0.18717	0.13324	0.32917	-0.50417	-1	-0.16875	-0.95	-0.69792	-0.34167	-0.97292	-0.49583	-0.52292	-1.1479	-0.33333	-0.80208	-0.92292	-0.36667	-1.2479	281.050	295.003	254.044	337.695	216.010	88.691	280.948	266.783	219.603	220.770	102.546	48.398	249.908	204.314	78.041	275.228	0.00019997	0.00032856	4.9151e-05	564.79	3.437e-06	5.1971e-07	1032.4	116.93	2.8746e-07	7.4242e-06	204.26	94.349	24.038	15.1	5.6605e-06	30.481	0.00018397	0.00017978	5.0352e-05	467.28	2.0065e-06	1.9799e-06	849.49	97.882	2.02e-06	1.961e-06	168.49	77.93	21.423	12.73	2.0309e-06	25.211	122.829	169.790	290.101	17.953	172.699	312.448	15.790	20.935	147.872	104.767	19.065	22.963	25.691	30.287	46.168	28.140	-8191	255	
1905.399	1	1	0	0	0.29224	0.26752	0.19458	0.17374	0.0050656	0.46804	0.16722	0.05633	0.10425	0.1984	0.086502	0.20422	0.14124	0.28454	0.15562	0.17274	-0.1875	-0.42083	-1.0542	-0.17917	-0.84583	-0.825	-0.31667	-1.175	-0.625	-0.40208	-0.92292	-0.21667	-0.675	-0.99375	-0.25625	-1.1104	337.190	266.154	62.385	60.043	73.777	162.362	312.081	224.775	96.565	175.924	122.093	292.103	200.007	281.472	155.316	141.441	9.7407e-05	0.00033555	6.9899e-05	569.85	2.7443e-06	1.0709e-06	1028.7	115.41	1.2071e-06	3.968e-06	204.3	93.478	24.27	14.835	6.682e-06	29.974	0.00018434	0.00018225	5.0215e-05	468.56	1.953e-06	1.916e-06	845.98	97.259	1.9717e-06	1.9448e-06	168.23	77.338	21.181	12.625	1.96e-06	24.762	141.892	186.716	140.766	18.091	214.083	115.025	15.285	21.203	206.659	91.185	19.010	23.521	25.903	30.322	287.581	28.072	-8191	255	
1905.495	1	1	0	0	0.20655	0.13371	0.053456	0.030568	0.20461	0.38451	0.22473	0.41176	0.38556	0.088181	0.12881	0.32088	0.067243	0.14561	0.22867	0.21229	-0.38958	-0.38958	-1.1604	-0.41875	-0.66458	-1.0854	-0.3125	-1.1083	-0.47292	-0.35625	-1.0021	-0.25833	-0.5375	-0.9375	0.027083	-0.9375	124.768	241.278	360.772	296.690	140.222	98.922	300.917	272.923	95.134	201.424	82.691	349.512	100.195	241.616	99.789	299.340	0.00017149	0.0001175	0.00012635	564.17	3.117e-06	4.1358e-06	1032.1	116.4	5.434e-06	2.915e-06	204.35	93.328	24.181	15.071	6.8229e-06	30.201	0.0001812	0.00017661	4.9476e-05	467.17	2.0014e-06	1.9722e-06	848.05	97.723	2.0054e-06	2.019e-06	168.07	77.299	21.366	12.681	1.9952e-06	24.997	108.915	134.359	99.738	18.265	44.827	109.346	15.338	20.961	224.587	349.490	19.270	23.010	25.819	30.380	197.524	28.484	-8191	255	
1905.591	1	1	0	0	0.40714	0.2194	0.089983	0.090501	0.03992	0.22702	0.06965	0.32006	0.0965	0.075069	0.35701	0.12157	0.32128	0.024315	0.0087476	0.36287	-0.42917	-0.16875	-1.0438	-0.53958	-0.62292	-0.99375	-0.35	-0.96875	-0.86458	-0.25	-1.0438	-0.53333	-0.61458	-1.1688	-0.28958	-0.74792	233.636	102.084	318.430	223.268	110.903	63.665	310.000	316.182	286.962	358.453	286.584	170.430	5.267	103.298	222.251	24.252	0.00012993	0.00066145	0.00016725	565.73	7.123e-06	3.0752e-06	1029.3	115.89	1.8318e-06	5.1991e-06	202.62	93.912	24.317	15.125	2.3818e-06	30.637	0.00017782	0.00018046	4.9167e-05	467.6	1.9753e-06	1.9299e-06	845.68	97.457	1.9976e-06	1.97e-06	167.86	77.722	21.424	12.745	1.9793e-06	25.095	132.254	87.570	21.244	18.292	271.391	242.036	15.724	20.609	188.760	94.555	20.016	23.301	25.867	30.255	201.510	28.739	-8191	255	
1905.712	1	1	0	0	0.047211	0.24329	0.06564	0.11516	0.12655	0.015469	0.10378	0.25289	0.28313	0.10058	0.27481	0.12629	0.24025	0.11352	0.11755	0.24942	-0.5875	-0.225	-1.1521	-0.79375	-0.3125	-1.2563	-0.58333	-0.69375	-0.86667	0.014583	-0.99583	-0.66458	-0.29792	-1.0292	-0.37292	-0.60833	74.205	346.026	156.041	242.199	185.236	149.972	183.430	294.875	77.161	266.220	203.544	70.019	238.410	260.195	144.804	342.927	0.00017202	0.00047004	0.00017714	567.92	1.8045e-06	5.3903e-06	1031.8	115.98	2.0821e-06	1.159e-05	206.99	94.834	24.488	15.012	2.5527e-06	30.383	0.00017465	0.00017667	4.9468e-05	467.91	1.9356e-06	1.9613e-06	850.46	97.685	1.9609e-06	1.9464e-06	169.57	78.409	21.506	12.755	1.9879e-06	25.164	139.988	34.454	47.098	18.482	200.409	214.450	15.742	21.334	97.225	166.424	20.107	23.809	26.821	30.598	148.445	28.712	-8191	255	
1905.808	1	1	0	0	0.37907	0.29576	0.18858	0.16199	0.27121	0.096935	0.19592	0.29102	0.20481	0.046127	0.10777	0.10203	0.21297	0.11731	0.19624	0.2283	-0.75625	-0.16875	-0.86667	-0.92292	-0.28542	-1.1417	-0.45208	-0.6125	-1.2542	-0.2	-0.93542	-0.75	-0.24167	-0.98333	-0.38333	-0.56042	303.132	361.014	328.785	186.574	172.328	117.257	21.515	339.376	120.380	146.138	19.281	279.336	244.095	34.313	289.971	140.905	0.00012576	0.00056632	2.586e-05	560.6	4.7357e-06	6.3153e-06	1036.9	116.71	5.1353e-06	6.2079e-06	202.04	93.707	24.444	15.078	6.6941e-06	30.076	0.00017973	0.00017856	4.9829e-05	467.44	1.9715e-06	1.917e-06	850.64	98.267	1.9379e-06	1.9583e-06	168.35	78.013	21.426	12.721	2.0138e-06	24.912	86.167	92.164	189.399	18.735	148.969	207.075	15.889	21.425	269.674	118.307	19.664	23.287	25.381	30.828	154.796	28.174	-8191	255	
1905.879	1	1	0	0	0.044031	0.063515	0.03565	0.14133	0.24177	0.16737	0.12657	0.30792	0.24153	0.14652	0.051382	0.074265	0.080586	0.16592	0.065733	0.16836	-0.82708	-0.095833	-0.825	-0.94792	-0.37917	-1.1208	-0.70417	-0.5875	-1.1729	-0.22708	-0.89583	-0.76458	-0.066667	-0.9125	-0.6125	-0.45833	127.005	227.152	183.865	38.766	157.994	155.434	73.204	354.581	195.153	230.117	133.538	326.990	225.371	238.250	80.862	55.245	0.00012058	0.00061631	0.00010418	564.88	5.7457e-06	4.2406e-06	1034	115.78	3.2635e-06	3.7818e-06	206	94.359	24.687	15.182	4.9713e-06	30.415	0.00017659	0.00018113	4.9416e-05	467.13	1.9343e-06	1.9583e-06	848.91	97.586	1.9257e-06	1.9632e-06	168.79	77.848	21.654	12.795	1.9539e-06	25.018	163.225	199.579	59.955	18.221	153.892	189.012	15.611	20.940	195.589	244.109	20.224	23.098	26.859	30.878	117.906	29.239	-8191	255	
1906.000	1	1	0	0	0.35302	0.25728	0.12476	0.033978	0.10687	0.20003	0.1235	0.25677	0.16295	0.10081	0.099561	0.078436	0.047611	0.24536	0.37951	0.32168	-0.66458	-0.23542	-0.76458	-1.0271	-0.31667	-1.0771	-0.78125	-0.31458	-1.1542	-0.33542	-0.59792	-1.0354	-0.2875	-1.0229	-0.58542	-0.275	55.757	276.805	95.041	329.249	263.600	39.526	292.751	215.972	94.051	115.306	305.100	76.738	100.521	42.765	279.459	242.116	5.2242e-05	0.00070094	0.00016682	557.95	5.4748e-06	6.7826e-06	1037.7	117.51	5.808e-06	4.0656e-06	206.14	95.542	24.521	15.124	3.4473e-06	30.635	0.00017841	0.00018164	4.9755e-05	465.46	1.9248e-06	1.9398e-06	851.73	98.357	1.9032e-06	1.9515e-06	169.52	78.161	21.572	12.795	1.9575e-06	25.298	122.247	160.334	57.753	18.288	296.917	107.964	15.483	21.205	82.924	340.965	19.083	23.204	26.613	30.458	265.117	29.159	-8191	255	
1906.096	1	1	0	0	0.26809	0.2266	0.078941	0.19516	0.16011	0.18464	0.15753	0.17191	0.13158	0.2136	0.11982	0.12657	0.12456	0.26871	0.27219	0.29888	-0.7375	-0.51875	-0.43542	-1.1458	-0.21042	-1.0812	-0.80625	0.035417	-1.1646	-0.65417	-0.40208	-1.0458	-0.2	-0.75	-0.84375	-0.0375	237.147	150.553	280.797	17.275	31.006	121.611	252.042	313.952	25.993	236.819	187.892	57.989	343.402	194.642	199.504	33.584	0.00014536	0.00018637	0.00012086	560.08	2.2444e-06	8.8217e-06	1035.5	117.26	6.4687e-06	4.4753e-06	209.13	96.072	24.729	15.294	5.0211e-06	31.12	0.00018043	0.00017673	5.0191e-05	465.93	1.976e-06	1.9328e-06	855.49	98.807	1.982e-06	2.0011e-06	171.32	78.986	21.754	12.836	1.9281e-06	25.59	158.337	74.795	78.724	18.450	30.881	164.973	15.894	22.027	255.237	139.951	20.092	23.603	25.536	30.067	117.462	29.193	-8191	255	
1906.191	1	1	0	0	0.15738	0.026057	0.16067	0.098857	0.29487	0.018166	0.1043	0.090642	0.29245	0.063894	0.17491	0.29601	0.019785	0.15441	0.24641	0.21198	-0.56458	-0.56458	-0.3625	-1.0292	-0.3125	-0.84583	-1.0479	-0.23542	-0.95	-0.69375	-0.41875	-1.3333	-0.30833	-0.54167	-1.1625	-0.34792	43.177	360.428	150.489	269.704	101.404	90.914	5.175	326.185	168.931	249.187	228.106	33.228	167.166	221.710	159.684	6.806	0.00015285	0.00045666	0.00012289	570.55	6.4291e-07	3.5908e-06	1044.7	117.62	1.9403e-06	4.7404e-06	205.03	95.194	24.503	15.035	1.2534e-06	30.234	0.00018107	0.00018345	4.9633e-05	470.89	2.0066e-06	1.9696e-06	856.26	98.533	2.0569e-06	2.022e-06	169.25	78.867	21.688	12.703	1.9672e-06	25.013	152.372	82.658	194.767	18.216	101.471	192.653	16.171	21.082	92.546	250.970	20.101	23.287	26.770	31.168	218.337	28.231	-8191	255	
1906.287	1	1	0	0	0.13893	0.12593	0.2448	0.20338	0.053454	0.18544	0.26273	0.037933	0.19293	0.43444	0.38906	0.13391	0.042495	0.2153	0.015884	0.24224	-0.68542	-0.61458	-0.375	-1.2271	-0.35625	-0.72708	-1.1146	-0.060417	-0.96875	-0.75208	-0.19583	-0.97708	-0.36875	-0.63958	-0.98125	-0.29167	235.690	19.742	279.181	115.519	159.967	185.819	325.923	338.756	152.531	116.118	254.640	338.140	179.238	310.509	222.326	294.548	0.00027282	0.00030814	7.7231e-05	569.07	1.3222e-06	3.5519e-06	1039.2	115.05	3.377e-06	5.7247e-07	205.24	93.636	24.055	14.909	7.7822e-06	30.137	0.00018747	0.00018309	4.9612e-05	471.61	1.9766e-06	1.9514e-06	852.32	97.602	1.9763e-06	1.9999e-06	168.49	77.5	21.411	12.731	1.9654e-06	24.862	127.543	28.456	274.193	18.341	325.009	94.442	15.630	21.057	196.887	22.790	19.050	23.202	25.971	30.409	146.623	29.159	-8191	255	
1906.407	1	1	0	0	0.082156	0.22366	0.2483	0.19518	0.11945	0.27594	0.12914	0.18983	0.079724	0.17453	0.12007	0.10391	0.17034	0.1657	0.16511	0.18675	-0.475	-0.74167	0.045833	-1.0312	-0.60625	-0.28125	-1.2792	-0.06875	-0.78333	-0.95208	-0.13125	-1.0812	-0.51458	-0.35208	-0.95	-0.38125	103.033	333.165	306.081	201.037	250.041	349.588	265.836	7.179	43.328	259.095	251.537	243.914	198.018	92.612	68.871	187.215	0.00016814	0.00055349	0.00012285	565.35	2.5858e-06	2.5684e-06	1024.5	114.6	1.1983e-06	3.9387e-06	202.77	93.666	23.926	14.838	1.2262e-06	30.262	0.00018173	0.00018032	4.9095e-05	470	1.9666e-06	2.0131e-06	846.25	97.045	2.0095e-06	1.9655e-06	167.82	77.249	21.326	12.648	2.0252e-06	24.991	152.397	164.091	113.795	17.819	285.965	76.991	16.001	20.840	97.878	333.379	19.456	23.015	25.708	30.369	68.397	28.705	-8191	255	
1906.479	1	1	0	0	0.080236	0.18647	0.20029	0.070219	0.11713	0.11794	0.19247	0.10779	0.10629	0.33791	0.067015	0.078429	0.37123	0.31649	0.17414	0.36159	-0.42708	-0.75	-0.091667	-0.95208	-0.50417	-0.2375	-1.1938	-0.35208	-0.54792	-0.96042	-0.01875	-1.0083	-0.56042	-0.21667	-1.1187	-0.39792	213.260	22.518	113.779	20.892	32.674	53.408	150.431	285.314	267.391	162.448	316.048	44.899	15.240	250.451	92.658	307.146	0.00020216	3.5384e-05	0.00016607	567.47	4.6469e-06	4.6879e-06	1036.8	114.64	5.4021e-07	5.1512e-06	204.94	94.023	24.43	15.214	2.6557e-06	30.087	0.0001791	0.00017889	4.9434e-05	469.2	1.966e-06	1.9778e-06	852.62	97.044	2.0235e-06	1.9751e-06	168.83	78.324	21.539	12.796	2.0251e-06	25.076	155.749	132.192	340.815	18.244	152.302	38.608	15.783	20.945	193.075	283.369	19.074	23.944	26.180	30.333	282.202	28.286	-8191	255	
1906.575	1	1	0	0	0.097768	0.10253	0.079963	0.40075	0.25534	0.29581	0.29089	0.39074	0.22073	0.42848	0.33416	0.26928	0.14071	0.14277	0.1454	0.22674	-0.28958	-0.9375	-0.10833	-0.85833	-0.79167	-0.16875	-1.0958	-0.41042	-0.52083	-1.1562	-0.18333	-0.76458	-0.87708	-0.29583	-0.95833	-0.51667	137.156	261.526	111.231	347.713	175.218	181.234	4.675	39.379	15.531	350.965	314.986	251.596	345.319	47.790	204.932	126.594	0.00027821	0.0004678	4.3159e-05	559.62	5.0984e-06	2.3189e-06	1038.5	115.44	6.802e-06	7.9513e-06	203.12	93.848	24.203	14.997	5.1742e-06	30.056	0.0001835	0.00018362	5.0754e-05	467.5	1.9735e-06	1.9527e-06	853.85	97.791	2.0065e-06	1.9567e-06	168.5	77.953	21.342	12.607	1.9824e-06	24.956	120.509	181.837	279.191	18.063	128.530	152.611	15.573	20.230	102.898	4.641	19.522	22.948	26.447	30.235	157.746	28.524	-8191	255	
1906.671	1	1	0	0	0.055526	0.14332	0.21766	0.2872	0.18455	0.2287	0.23078	0.2876	0.094984	0.12218	0.19783	0.13327	0.17313	0.34919	0.20845	0.13899	0.010417	-1.025	-0.16458	-0.85625	-0.96042	-0.12292	-1.275	-0.63125	-0.375	-1.1333	-0.37917	-0.81875	-0.79167	-0.3125	-1.0729	-0.5375	69.362	123.317	140.171	280.378	340.534	22.244	295.730	249.038	273.694	122.980	300.473	179.361	46.387	291.110	77.271	307.907	0.00022214	0.00011795	9.8414e-05	564.97	3.738e-06	5.9542e-06	1035	114.32	3.9476e-06	5.0979e-06	202.67	93.911	24.499	14.828	7.3524e-06	29.678	0.00017883	0.00017708	4.9784e-05	466.18	1.9509e-06	1.9679e-06	850.74	96.898	1.9909e-06	1.9415e-06	166.16	77.416	21.521	12.551	1.9815e-06	24.675	144.374	200.856	211.238	17.731	152.803	271.573	15.866	20.888	42.618	68.661	19.706	23.499	25.503	30.340	195.896	28.396	-8191	255	
1906.792	1	1	0	0	0.025019	0.32986	0.10721	0.30312	0.20311	0.22107	0.33899	0.15621	0.13325	0.14593	0.16425	0.40746	0.40566	0.054408	0.12258	0.20593	0.085417	-1.2958	-0.34792	-0.69792	-0.84375	-0.30208	-0.9	-0.8375	-0.34792	-1.0208	-0.28958	-0.64792	-1.0917	-0.30208	-0.7375	-0.68333	4.344	117.404	161.368	18.639	21.645	338.396	315.236	46.855	48.311	34.780	158.436	298.061	348.166	66.650	6.779	216.017	0.0001149	9.6096e-05	8.1602e-05	564.26	3.5255e-06	9.1325e-06	1027	114.38	5.2143e-06	4.1291e-06	199.47	94.315	24.302	14.822	9.1051e-07	29.729	0.00017666	0.00017969	5.0056e-05	468.52	1.9519e-06	1.969e-06	847.07	96.716	1.9542e-06	1.9503e-06	165.52	77.512	21.496	12.546	2.0121e-06	24.82	151.584	322.490	188.634	18.545	26.832	117.616	15.740	20.602	266.386	133.093	20.085	23.594	26.368	30.691	36.792	28.265	-8191	255	
1906.888	1	1	0	0	0.17714	0.20781	0.15196	0.17448	0.22121	0.084864	0.53963	0.096909	0.11535	0.0702	0.14237	0.13441	0.18029	0.11771	0.4008	0.13437	0.14792	-0.94792	-0.24792	-0.39375	-0.97708	0.033333	-0.97708	-0.8375	-0.06875	-1.1229	-0.4125	-0.31042	-1.025	-0.175	-0.78333	-0.9	158.556	94.399	335.659	72.855	253.968	132.500	285.923	56.081	36.555	174.479	85.324	326.641	303.102	47.476	266.362	38.574	0.0001565	0.00048277	0.00011693	560.78	8.6168e-07	6.4206e-06	1032.8	114.31	2.4707e-06	8.8831e-06	201.88	93.591	24.692	14.932	1.2697e-06	29.726	0.00018527	0.00018497	5.032e-05	466.28	1.9694e-06	1.9709e-06	845.85	96.765	1.9704e-06	1.9841e-06	166.34	77.322	21.449	12.65	2.0447e-06	24.843	151.111	111.644	41.510	18.694	326.248	122.072	16.047	20.943	231.157	56.953	19.728	23.106	26.784	29.948	79.411	28.270	-8191	255	
1906.984	1	1	0	0	0.25111	0.17988	0.15075	0.21786	0.19328	0.16026	0.23096	0.17474	0.10097	0.10053	0.051607	0.092261	0.22009	0.27226	0.21499	0.18729	-0.1125	-0.96667	-0.525	-0.19583	-1.1667	-0.41042	-0.73333	-0.92292	-0.2875	-0.87083	-0.61458	-0.2875	-1.1854	-0.2375	-0.82917	-0.96458	129.095	193.188	237.549	330.926	196.800	321.798	15.021	162.676	162.921	257.531	173.739	349.951	52.888	71.421	247.415	113.193	0.00019605	0.00040565	0.00014602	558.92	2.1212e-06	3.2713e-06	1025.6	114.45	1.5625e-06	6.7857e-06	201.55	94.29	24.55	14.721	5.3172e-06	30.145	0.00018066	0.00018044	4.9971e-05	465.98	1.9809e-06	2.0121e-06	846.01	96.882	2.0215e-06	2.0192e-06	166.99	77.695	21.573	12.611	2.0045e-06	24.907	114.497	39.412	133.960	18.513	276.453	74.236	15.499	20.574	315.915	155.223	19.348	23.424	25.772	30.444	202.683	28.997	-8191	255	
1907.105	1	1	0	0	0.23352	0.16736	0.15802	0.35582	0.20598	0.29822	0.10844	0.33899	0.040794	0.14835	0.036397	0.18933	0.25923	0.028	0.13278	0.097762	0.36042	-1.0021	-0.66458	-0.25417	-1.1417	-0.30208	-0.68125	-1.05	-0.325	-1.2542	-0.80833	-0.16042	-1.0854	-0.52708	-0.4625	-1.0854	182.357	247.555	9.516	265.781	307.504	115.863	307.820	346.498	34.885	204.525	315.643	98.292	81.728	210.818	337.751	351.763	0.00011738	0.00066335	8.6252e-05	564.57	9.2544e-07	5.1754e-06	1029.4	116.07	4.2865e-06	8.2604e-06	201.04	93.193	24.479	14.588	6.9889e-06	29.738	0.00017965	0.00017789	5.0762e-05	468.49	2.041e-06	2.0153e-06	845.87	96.914	1.9488e-06	1.9465e-06	165.06	76.954	21.617	12.44	1.9603e-06	24.488	148.810	84.555	23.576	18.039	211.110	109.319	15.459	20.334	186.319	195.532	19.256	23.296	25.537	30.438	69.250	28.477	-8191	255	
1907.177	1	1	0	0	0.07724	0.22446	0.11244	0.14768	0.4005	0.098531	0.16523	0.14108	0.1055	0.16742	0.26527	0.12648	0.18287	0.2013	0.09878	0.29711	0.022917	-0.85208	-0.77917	-0.35625	-1.0438	-0.42292	-0.40625	-1.0396	-0.10208	-0.61875	-1.0438	-0.18542	-1.1729	-0.61458	-0.33958	-1.1812	171.111	260.857	49.335	38.497	119.422	38.859	320.215	265.250	150.557	209.097	96.487	198.966	34.648	335.599	53.512	120.708	8.5074e-05	0.00075648	9.394e-05	567.39	4.8046e-06	1.8628e-06	1032.3	113.31	1.8237e-06	6.6582e-06	199.46	92.447	24.555	14.565	4.4306e-06	29.625	0.0001842	0.00018333	5.0317e-05	467.37	1.9753e-06	2.0087e-06	844.59	96.443	1.9984e-06	2.0109e-06	165.21	76.826	21.653	12.406	2.025e-06	24.629	130.340	88.395	335.302	18.114	46.076	220.131	15.699	20.607	216.143	53.953	19.346	22.893	26.431	29.309	320.741	28.248	-8191	255	
1907.271	1	1	0	0	0.19587	0.29597	0.20689	0.17575	0.27799	0.26268	0.21651	0.10661	0.086114	0.17235	0.25682	0.22057	0.13643	0.19463	0.20436	0.28038	0.29792	-0.475	-0.85	-0.079167	-1.0812	-0.60833	-0.5125	-1.0979	-0.38125	-0.65417	-0.98958	-0.1625	-0.76667	-0.72292	-0.15833	-1.4125	38.333	307.556	84.205	298.315	270.539	33.332	305.512	97.836	225.119	192.103	152.578	138.728	338.762	153.253	328.825	64.688	8.8848e-05	0.0004595	7.2022e-05	562.4	2.691e-06	1.2338e-06	1027.5	114.98	2.0187e-06	2.0847e-06	200.47	93.519	24.781	14.844	2.4703e-06	29.661	0.00018567	0.00017801	4.9794e-05	468.19	2.004e-06	2.0031e-06	847.48	97.202	1.9847e-06	1.9747e-06	165.83	77.644	21.64	12.545	1.9957e-06	24.7	79.874	315.215	229.965	18.057	286.789	16.819	15.643	20.175	88.396	196.295	18.939	23.066	25.562	30.865	47.743	28.300	-8191	255	
1907.392	1	1	0	0	0.030506	0.15341	0.15131	0.071744	0.15911	0.20477	0.32867	0.13176	0.1153	0.23796	0.19313	0.20782	0.080284	0.089621	0.096465	0.34587	0.010417	-0.47083	-1.1313	-0.2125	-0.75	-0.84792	-0.46875	-0.92083	-0.54375	-0.53542	-1.2125	-0.21458	-0.9	-0.97292	-0.2875	-1.1917	97.558	351.415	350.645	209.131	272.160	160.280	361.403	338.177	38.428	42.021	333.940	107.170	32.350	328.750	77.989	263.179	0.00015981	0.00022491	0.00010142	563.46	4.0839e-06	5.2586e-06	1030.7	115.28	2.9705e-06	6.8187e-06	203.54	94.13	25.056	14.891	5.8983e-07	29.921	0.00018074	0.00018492	5.0304e-05	466.68	2.0023e-06	1.9438e-06	848.12	97.473	1.9945e-06	1.9445e-06	166.93	77.752	21.941	12.608	2.0249e-06	24.964	120.750	175.464	216.080	18.121	23.394	324.830	16.091	20.748	248.218	244.056	19.763	23.155	26.605	29.862	106.055	28.689	-8191	255	
1907.488	1	1	0	0	0.071667	0.049873	0.068706	0.09148	0.048712	0.040948	0.28436	0.28402	0.18138	0.033871	0.066864	0.31546	0.29601	0.27096	0.083813	0.072385	-0.11667	-0.29167	-1.2104	-0.34167	-0.76667	-1.0146	-0.39583	-1.125	-0.65	-0.42292	-1.0521	-0.1875	-0.65208	-1.0646	-0.091667	-1.0521	325.963	173.877	158.077	232.529	84.968	320.472	282.749	355.104	86.429	255.437	94.204	331.660	74.047	70.351	326.464	54.699	7.8674e-05	0.00057272	0.00011015	564.81	4.1824e-06	4.2272e-06	1033.2	115.69	3.0667e-06	8.933e-06	202.22	94.393	24.584	14.512	4.3517e-06	29.509	0.00017504	0.00018022	5.0913e-05	467.98	2.0038e-06	1.9857e-06	846.5	97.139	1.9555e-06	1.9628e-06	166.19	77.435	21.751	12.399	1.9475e-06	24.56	111.243	82.460	139.346	18.623	109.911	165.140	15.578	20.770	318.039	91.218	19.319	22.870	25.660	29.559	142.516	28.709	-8191	255	
1907.584	1	1	0	0	0.14574	0.068791	0.09124	0.23606	0.16263	0.17159	0.40408	0.13468	0.08041	0.10908	0.11188	0.15193	0.29034	0.17341	0.2393	0.088264	-0.28958	-0.34583	-1.1042	-0.22708	-0.58542	-1.0792	-0.15833	-0.81042	-0.7375	-0.29375	-1.0938	-0.42083	-0.34792	-1.1437	-0.24375	-0.83958	221.361	210.161	234.003	297.496	152.534	171.693	308.370	342.817	173.617	187.358	329.102	173.233	157.223	304.458	315.234	57.195	0.00011463	4.9923e-05	0.00010951	560.53	4.3091e-06	6.0802e-06	1021.3	114.92	2.4898e-06	7.4508e-06	202.51	92.76	24.891	14.803	4.7995e-06	29.979	0.00018153	0.00017973	5.0008e-05	467.06	1.9794e-06	1.9554e-06	841.42	96.7	1.9146e-06	1.9541e-06	166.87	77.182	21.67	12.571	1.9741e-06	24.684	124.528	261.829	209.718	17.461	213.978	168.883	15.694	20.623	75.878	223.816	19.280	23.051	25.403	29.860	93.748	28.158	-8191	255	
#DATA ENDS
