BOXY.EXE: ISS Imagent and Oximeter Data Acquisition Program Version 0.80
Ascii Record File

#ACQ INFORMATION
2  Detector Channels 
16  External MUX Channels 
1  Auxiliary Channels 
5000  Waveform (CCF) Frequency (Hz)
1  Waveforms Skipped 
30  Waveforms Averaged 
1  Cycles Averaged 
16  Acquisitions per Waveform 
10.0806  Updata Rate (Hz) 

#FILE INFORMATION
TRUE -- External MUX Channel results are PARSED.
FALSE -- AC DC and Phase are NOT grouped.
TRUE -- Companion Program Settings File CREATED.
FALSE -- AC data not excluded
FALSE -- DC data not excluded
FALSE -- Phase data not excluded
FALSE -- Auxillary Chn. data not excluded
Tab delimiters

#CALIBRATION STATE
TRUE -- Waveform Calibration Values APPLIED.


#AUX CALIBRATION VALUES
Val Type	aux-1	

Term	1.0000e+00	
Factor	0.0000e+00	


#WF CALIBRATION VALUES
A = Detector Channel
Val Type	A-AC1	A-AC2	A-AC3	A-AC4	A-AC5	A-AC6	A-AC7	A-AC8	A-AC9	A-AC10	A-AC11	A-AC12	A-AC13	A-AC14	A-AC15	A-AC16	A-DC1	A-DC2	A-DC3	A-DC4	A-DC5	A-DC6	A-DC7	A-DC8	A-DC9	A-DC10	A-DC11	A-DC12	A-DC13	A-DC14	A-DC15	A-DC16	A-Ph1	A-Ph2	A-Ph3	A-Ph4	A-Ph5	A-Ph6	A-Ph7	A-Ph8	A-Ph9	A-Ph10	A-Ph11	A-Ph12	A-Ph13	A-Ph14	A-Ph15	A-Ph16	

Term	0.00000e+00	0.00000e+00	0.00000e+00	0.00000e+00	0.00000e+00	0.00000e+00	0.00000e+00	0.00000e+00	0.00000e+00	0.00000e+00	0.00000e+00	0.00000e+00	0.00000e+00	0.00000e+00	0.00000e+00	0.00000e+00	0.00000e+00	0.00000e+00	0.00000e+00	0.00000e+00	0.00000e+00	0.00000e+00	0.00000e+00	0.00000e+00	0.00000e+00	0.00000e+00	0.00000e+00	0.00000e+00	0.00000e+00	0.00000e+00	0.00000e+00	0.00000e+00	0.00000e+00	0.00000e+00	0.00000e+00	0.00000e+00	0.00000e+00	0.00000e+00	0.00000e+00	0.00000e+00	0.00000e+00	0.00000e+00	0.00000e+00	0.00000e+00	0.00000e+00	0.00000e+00	0.00000e+00	0.00000e+00	
Factor	1.00000e+00	1.00000e+00	1.00000e+00	1.00000e+00	1.00000e+00	1.00000e+00	1.00000e+00	1.00000e+00	1.00000e+00	1.00000e+00	1.00000e+00	1.00000e+00	1.00000e+00	1.00000e+00	1.00000e+00	1.00000e+00	1.00000e+00	1.00000e+00	1.00000e+00	1.00000e+00	1.00000e+00	1.00000e+00	1.00000e+00	1.00000e+00	1.00000e+00	1.00000e+00	1.00000e+00	1.00000e+00	1.00000e+00	1.00000e+00	1.00000e+00	1.00000e+00	X	X	X	X	X	X	X	X	X	X	X	X	X	X	X	X	

B = Detector Channel
Val Type	B-AC1	B-AC2	B-AC3	B-AC4	B-AC5	B-AC6	B-AC7	B-AC8	B-AC9	B-AC10	B-AC11	B-AC12	B-AC13	B-AC14	B-AC15	B-AC16	B-DC1	B-DC2	B-DC3	B-DC4	B-DC5	B-DC6	B-DC7	B-DC8	B-DC9	B-DC10	B-DC11	B-DC12	B-DC13	B-DC14	B-DC15	B-DC16	B-Ph1	B-Ph2	B-Ph3	B-Ph4	B-Ph5	B-Ph6	B-Ph7	B-Ph8	B-Ph9	B-Ph10	B-Ph11	B-Ph12	B-Ph13	B-Ph14	B-Ph15	B-Ph16	

Term	0.00000e+00	0.00000e+00	0.00000e+00	0.00000e+00	0.00000e+00	0.00000e+00	0.00000e+00	0.00000e+00	0.00000e+00	0.00000e+00	0.00000e+00	0.00000e+00	0.00000e+00	0.00000e+00	0.00000e+00	0.00000e+00	0.00000e+00	0.00000e+00	0.00000e+00	0.00000e+00	0.00000e+00	0.00000e+00	0.00000e+00	0.00000e+00	0.00000e+00	0.00000e+00	0.00000e+00	0.00000e+00	0.00000e+00	0.00000e+00	0.00000e+00	0.00000e+00	-1.93096e+02	-1.31651e+02	-1.26893e+02	-1.81391e+02	-8.12550e+01	-6.54229e+01	-1.56795e+02	-1.62015e+02	-8.71340e+01	-6.29356e+01	-1.74004e+02	-1.71240e+02	-1.79095e+02	-1.76490e+02	-7.82813e+01	-1.49299e+02	
Factor	3.61994e-05	1.37445e-04	4.05246e-05	1.50909e-01	1.47821e-06	1.56133e-06	1.51247e-01	4.83322e-02	1.61963e-06	1.49477e-06	8.33551e-02	2.69328e-02	2.70377e-02	8.24457e-03	1.53392e-06	1.18361e-02	1.83736e-05	3.60318e-05	1.01782e-05	8.04857e-02	3.42701e-07	4.15052e-07	7.58372e-02	2.58983e-02	3.41234e-07	4.10228e-07	4.32733e-02	1.39519e-02	1.46541e-02	4.46483e-03	3.66053e-07	6.20000e-03	X	X	X	X	X	X	X	X	X	X	X	X	X	X	X	X	



#DISTANCE SETTINGS
A = Detector Channel
A-1	A-2	A-3	A-4	A-5	A-6	A-7	A-8	A-9	A-10	A-11	A-12	A-13	A-14	A-15	A-16	

2.5000e+00	3.0000e+00	2.5000e+00	3.0000e+00	2.0000e+00	3.0000e+00	1.5000e+00	3.0000e+00	3.0000e+00	3.0000e+00	3.0000e+00	3.0000e+00	3.0000e+00	3.0000e+00	1.5000e+00	3.0000e+00	

B = Detector Channel
B-1	B-2	B-3	B-4	B-5	B-6	B-7	B-8	B-9	B-10	B-11	B-12	B-13	B-14	B-15	B-16	

1.0000e+01	1.0000e+01	1.0000e+01	1.4400e+00	1.0000e+01	1.0000e+01	1.5100e+00	1.9400e+00	1.0000e+01	1.0000e+01	1.9900e+00	2.4900e+00	2.4100e+00	2.9000e+00	1.0000e+01	2.9800e+00	




#DATA BEGINS
time	group	step	mark	flag	A-AC1	A-AC2	A-AC3	A-AC4	A-AC5	A-AC6	A-AC7	A-AC8	A-AC9	A-AC10	A-AC11	A-AC12	A-AC13	A-AC14	A-AC15	A-AC16	A-DC1	A-DC2	A-DC3	A-DC4	A-DC5	A-DC6	A-DC7	A-DC8	A-DC9	A-DC10	A-DC11	A-DC12	A-DC13	A-DC14	A-DC15	A-DC16	A-Ph1	A-Ph2	A-Ph3	A-Ph4	A-Ph5	A-Ph6	A-Ph7	A-Ph8	A-Ph9	A-Ph10	A-Ph11	A-Ph12	A-Ph13	A-Ph14	A-Ph15	A-Ph16	B-AC1	B-AC2	B-AC3	B-AC4	B-AC5	B-AC6	B-AC7	B-AC8	B-AC9	B-AC10	B-AC11	B-AC12	B-AC13	B-AC14	B-AC15	B-AC16	B-DC1	B-DC2	B-DC3	B-DC4	B-DC5	B-DC6	B-DC7	B-DC8	B-DC9	B-DC10	B-DC11	B-DC12	B-DC13	B-DC14	B-DC15	B-DC16	B-Ph1	B-Ph2	B-Ph3	B-Ph4	B-Ph5	B-Ph6	B-Ph7	B-Ph8	B-Ph9	B-Ph10	B-Ph11	B-Ph12	B-Ph13	B-Ph14	B-Ph15	B-Ph16	aux-1	digaux	

2594.537	1	1	0	256	0.26307	0.071399	0.14782	0.31901	0.12826	0.21252	0.32387	0.13102	0.23299	0.098663	0.21064	0.29007	0.23033	0.19815	0.16622	0.14268	-1.8375	-3.0667	-2.7083	-2.5125	-3.1021	-2.525	-2.8875	-3.0083	-2.3	-2.8792	-2.7938	-2.3812	-3.0354	-2.3792	-2.3729	-2.9333	415.338	154.573	357.838	359.418	109.870	440.851	364.793	414.733	276.300	114.105	320.943	394.946	408.972	91.516	92.741	237.334	0.00061266	0.00037482	0.00011641	1058.4	2.9901e-06	2.9579e-06	1150.7	226.91	3.0055e-06	2.6563e-06	288.05	80.245	63.214	18.087	4.7735e-06	25.466	0.0010915	0.0016286	0.0004711	1051.3	1.644e-05	1.9496e-05	1144.8	227.35	1.6405e-05	1.906e-05	289.8	81.04	63.419	18.747	1.7128e-05	26.251	101.839	157.744	163.584	101.284	238.091	257.421	101.219	108.785	233.214	217.402	108.088	115.019	115.973	122.813	235.560	121.879	-8191	255	
2594.633	1	1	0	0	0.12779	0.14078	0.079174	0.36564	0.27678	0.22161	0.23264	0.081022	0.016511	0.093452	0.22257	0.23106	0.082739	0.23123	0.13859	0.052024	-1.8271	-2.7938	-2.7292	-2.3583	-3.0229	-2.5917	-2.7	-3.3042	-2.2771	-2.9104	-3.0875	-1.9479	-3.0354	-2.525	-2.4437	-3.1458	218.052	285.727	168.723	429.718	364.520	196.691	408.561	375.983	110.192	286.544	430.377	422.823	333.149	414.605	355.379	444.660	0.00065837	0.00041934	0.00015413	1052.7	4.5326e-06	4.7522e-06	1149.5	227.94	6.0152e-06	1.8864e-06	287.43	79.689	63.155	18.073	2.7278e-06	25.492	0.0010724	0.0016414	0.00047235	1050.2	1.6666e-05	1.9176e-05	1146.3	227.69	1.662e-05	1.8637e-05	290.14	80.782	63.431	18.661	1.7039e-05	26.338	114.129	212.529	197.565	101.387	255.408	246.056	101.408	108.989	230.288	219.572	108.054	115.100	115.613	122.686	223.955	122.314	-8191	255	
2594.729	1	1	0	0	0.37517	0.053892	0.089928	0.047761	0.091464	0.090866	0.25126	0.082663	0.069681	0.15363	0.42338	0.15618	0.3275	0.20136	0.16106	0.25685	-1.7083	-2.5729	-2.8312	-2.3438	-2.9333	-2.7771	-2.6063	-3.3021	-2.4833	-2.7229	-3.1312	-2.3333	-3	-2.7687	-2.3271	-3.1479	143.406	235.097	432.141	421.131	182.028	356.556	369.513	379.061	354.581	330.586	121.414	306.025	398.473	260.720	165.165	315.001	0.00059101	0.00022465	4.3124e-05	1059.7	5.8969e-06	2.555e-06	1153.2	227.05	3.4259e-06	4.114e-06	286.72	79.32	62.674	18.232	1.5049e-06	25.492	0.0010718	0.0016259	0.00046451	1054.2	1.6198e-05	1.8625e-05	1146.9	227.72	1.6067e-05	1.8733e-05	290.08	80.614	63.398	18.749	1.7494e-05	26.363	115.361	207.708	164.224	101.488	219.104	185.036	101.123	108.927	252.420	250.416	108.158	115.177	115.572	122.779	236.371	122.004	-8191	255	
2594.848	1	1	0	0	0.26865	0.10879	0.11896	0.37763	0.11866	0.20091	0.10161	0.13057	0.11815	0.40702	0.21728	0.2543	0.056442	0.24308	0.15782	0.16496	-2.0854	-2.4896	-3.1188	-2.2938	-2.9813	-2.7104	-2.4458	-3.0958	-2.3833	-2.4458	-3.1021	-2.2188	-2.8625	-2.7313	-2.2875	-2.9875	349.534	283.572	347.114	118.564	293.923	413.918	398.846	289.026	141.468	334.730	118.504	179.313	138.608	132.997	290.011	280.753	0.00057961	0.00040415	0.00015742	1054.7	6.497e-06	2.6843e-06	1149.1	227.23	4.8658e-06	5.0004e-06	286.13	79.741	63.111	17.969	4.9734e-06	25.501	0.0010367	0.0016633	0.0004803	1050.3	1.6514e-05	1.8664e-05	1145.9	228.09	1.5656e-05	1.9517e-05	290.29	80.674	63.568	18.617	1.7515e-05	26.255	107.555	162.187	218.066	101.295	225.893	211.239	101.359	109.000	220.785	227.622	108.426	115.163	115.858	122.847	240.565	121.802	-8191	255	
2594.944	1	1	0	0	0.15487	0.082034	0.23092	0.11707	0.17764	0.15161	0.36452	0.14219	0.23488	0.2639	0.10824	0.050256	0.10987	0.19832	0.36243	0.1208	-1.95	-2.5917	-3.025	-2.3229	-2.8729	-3.0187	-2.5875	-3.0771	-2.6937	-2.4313	-3.1875	-2.2917	-2.775	-2.8583	-2.2146	-3.1333	295.119	305.652	172.608	407.077	258.040	255.434	450.074	263.263	123.835	287.246	94.115	146.957	317.805	178.091	371.857	365.427	0.00059712	0.00027465	8.1374e-05	1059.1	3.8693e-06	2.9222e-06	1154.3	227.65	4.5237e-06	1.2475e-06	286.66	79.849	62.826	18.056	3.1318e-06	25.363	0.001061	0.0017119	0.00046183	1051.5	1.6111e-05	1.9207e-05	1146.7	228.28	1.6898e-05	1.9295e-05	289.69	80.732	63.458	18.667	1.7602e-05	26.281	106.135	180.005	218.173	101.147	252.117	227.102	101.181	108.955	246.495	156.640	108.347	114.937	115.682	123.363	212.041	121.908	-8191	255	
2595.041	1	1	0	0	0.05665	0.14195	0.11599	0.13116	0.12971	0.24968	0.22196	0.16449	0.15448	0.028482	0.073539	0.11219	0.045258	0.064763	0.19365	0.18121	-2.3396	-2.2021	-3.2333	-2.6354	-2.6479	-2.8479	-2.5729	-2.9854	-2.6917	-2.2479	-3.0792	-2.5625	-2.5271	-3.0333	-2.3229	-2.975	358.560	210.879	265.937	254.910	194.523	414.183	335.446	370.580	275.287	269.900	107.098	318.199	128.687	162.282	312.503	363.589	0.00055281	0.00013483	0.00010727	1051.9	6.8794e-07	3.9304e-06	1157.3	227.34	3.6222e-06	3.6875e-06	287.91	79.182	63.27	18.1	4.5303e-06	25.526	0.0010613	0.0017715	0.00049114	1050.5	1.7294e-05	1.9562e-05	1149.8	227.89	1.7183e-05	2.025e-05	290.65	80.645	63.486	18.709	1.9115e-05	26.279	100.087	414.010	201.887	101.302	338.519	232.438	101.256	108.871	221.382	246.101	108.331	115.332	115.558	122.795	197.208	122.206	-8191	255	
2595.137	1	1	0	0	0.28942	0.19552	0.15679	0.22366	0.24701	0.17686	0.27479	0.32062	0.024392	0.35177	0.21077	0.042448	0.077323	0.2183	0.19293	0.22566	-2.5062	-2.2479	-3.0729	-2.475	-2.3292	-3.1021	-2.3604	-2.7646	-2.9979	-2.0792	-3.1375	-2.6708	-2.1792	-3.1083	-2.0208	-2.8146	100.240	115.236	430.690	418.633	271.839	118.285	331.155	111.491	414.021	369.379	167.076	99.630	349.637	252.645	159.614	377.979	0.00056718	0.00022547	8.1504e-05	1061.7	5.3034e-06	2.4259e-06	1163.9	227.81	1.6644e-06	4.3421e-06	288.9	80.752	63.046	18.325	2.6729e-06	25.499	0.0011474	0.0019095	0.00052273	1055.9	1.8734e-05	2.1252e-05	1155.2	229.17	1.8455e-05	2.144e-05	291.72	81.083	63.845	18.843	1.8832e-05	26.464	105.785	165.752	180.832	101.276	224.750	183.848	101.041	109.227	230.971	241.168	108.331	115.114	115.123	122.708	248.165	121.897	-8191	255	
2595.233	1	1	0	0	0.10991	0.17242	0.25571	0.15819	0.166	0.068662	0.28075	0.17336	0.19701	0.098518	0.18162	0.10483	0.15923	0.14871	0.17373	0.33318	-2.5312	-2.1083	-2.8896	-2.8	-2.1625	-2.9646	-2.3979	-2.5812	-2.9458	-2.1562	-3.1708	-2.6521	-2.3917	-3.0938	-2.2	-2.7687	247.463	423.305	304.477	94.652	310.777	315.828	375.397	321.438	382.803	176.358	113.794	307.107	331.688	273.037	145.610	102.453	0.00057968	0.00012976	6.8324e-05	1063.8	5.75e-06	4.3997e-06	1161.3	228.45	6.1339e-06	4.9987e-06	289.54	80.443	63.605	18.246	2.4601e-06	25.585	0.0011327	0.0018501	0.00051315	1062.6	1.8816e-05	2.0879e-05	1158.7	229.17	1.824e-05	2.1333e-05	292.74	81.266	64.137	18.831	1.901e-05	26.462	106.435	203.393	163.790	101.350	240.176	203.356	101.383	108.716	216.897	250.807	108.272	114.979	115.738	123.220	214.511	122.310	-8191	255	
2595.329	1	1	0	0	0.019193	0.048854	0.24848	0.32505	0.22104	0.061704	0.1284	0.17328	0.16515	0.079539	0.24675	0.21154	0.19841	0.15379	0.050172	0.16114	-2.6063	-2.2875	-2.8771	-2.9	-2.2479	-3.1229	-2.7	-2.4458	-3.0854	-2.2021	-2.8875	-2.8958	-2.2438	-2.9771	-2.5542	-2.5208	299.312	192.499	99.276	435.834	152.580	298.289	262.812	220.043	345.091	199.670	149.928	102.067	439.388	244.897	110.843	329.185	0.0005406	0.00028387	7.303e-05	1071.1	4.0609e-06	1.5059e-06	1166.4	229.02	4.8688e-06	4.5573e-06	289.98	80.385	63.153	18.322	2.0083e-06	25.675	0.0011784	0.0019117	0.00051673	1065.3	1.9252e-05	2.2244e-05	1161.3	229.45	1.9651e-05	2.2276e-05	293.58	81.434	64.15	18.898	2.0829e-05	26.579	109.352	139.110	160.562	101.367	209.728	274.402	101.166	109.156	216.696	290.467	108.390	115.024	115.359	122.699	208.021	122.262	-8191	255	
2595.450	1	1	0	0	0.24184	0.29385	0.19535	0.25799	0.13824	0.27696	0.46544	0.21285	0.13735	0.070082	0.086406	0.37013	0.12198	0.22025	0.18505	0.15076	-2.6917	-2.2167	-2.8292	-2.9708	-2.175	-3.0667	-2.8771	-2.4583	-3.3292	-2.3729	-2.8792	-2.95	-2.2438	-3.0542	-2.6604	-2.3292	204.428	139.677	381.828	91.112	334.699	375.690	419.778	394.309	302.509	412.652	425.144	280.975	394.406	261.365	112.713	147.567	0.00054911	0.00025866	0.00010275	1080.6	2.7807e-06	3.7743e-06	1173.2	231.39	7.4752e-06	3.5113e-06	290.86	80.286	63.608	18.514	5.9005e-06	25.855	0.0012927	0.0021019	0.0005844	1074.6	2.1697e-05	2.4573e-05	1171.6	231.89	2.1314e-05	2.5328e-05	294.77	81.881	64.586	19.108	2.2961e-05	26.786	105.602	161.494	181.820	101.348	198.282	232.204	101.342	108.939	232.888	239.926	108.304	114.973	115.380	122.464	227.683	122.347	-8191	255	
2595.544	1	1	0	0	0.19492	0.10715	0.16755	0.18688	0.18643	0.13872	0.35721	0.22917	0.067138	0.26484	0.15582	0.095626	0.20132	0.068504	0.1103	0.32547	-2.5812	-2.1458	-2.7313	-3.0083	-2.2542	-2.9917	-2.7646	-2.2708	-3.0833	-2.225	-2.4688	-3.0979	-2.3146	-2.8187	-2.7167	-2.1458	128.760	206.867	366.567	159.410	354.517	129.483	361.986	382.469	375.530	132.112	315.149	92.372	304.509	104.122	307.642	352.752	0.00055433	0.00031255	0.00014389	1090.8	3.6069e-06	6.5767e-06	1184	231.95	6.3219e-06	1.8264e-06	292.95	80.942	64.258	18.478	4.938e-06	25.819	0.0013582	0.0022786	0.00062857	1083.9	2.2835e-05	2.6408e-05	1180.8	232.89	2.2239e-05	2.5944e-05	296.89	82.471	65.062	19.132	2.3762e-05	26.888	108.404	179.844	148.293	100.991	225.322	253.210	101.145	108.963	236.466	270.261	108.385	115.177	115.318	122.795	267.898	121.964	-8191	255	
2595.618	1	1	0	0	0.10693	0.23617	0.15518	0.22668	0.087282	0.24666	0.22222	0.26303	0.21867	0.07466	0.18218	0.14661	0.25947	0.19696	0.20045	0.18811	-2.7562	-2.4	-2.7458	-3.075	-2.0167	-2.8479	-2.9938	-2.2979	-3.0958	-2.6667	-2.3979	-3.1229	-2.0229	-2.7146	-2.875	-2.1375	393.415	264.087	385.189	109.912	292.670	282.699	378.918	394.756	114.046	118.904	141.273	243.568	128.440	413.972	433.495	196.188	0.0006439	0.00037598	7.3295e-05	1087.9	5.5275e-06	1.7396e-06	1192.9	231.93	2.3507e-06	2.5138e-06	294.47	81.871	63.895	18.505	1.2756e-06	25.837	0.0014226	0.0023406	0.00066871	1086.5	2.3377e-05	2.6904e-05	1187.3	233.6	2.2954e-05	2.7e-05	298.2	82.978	65.288	19.205	2.3781e-05	26.926	106.752	217.633	188.828	101.156	241.113	195.620	101.068	108.897	137.857	239.506	108.137	114.983	115.603	122.523	269.916	122.447	-8191	255	
2595.714	1	1	0	0	0.10858	0.11768	0.11722	0.25414	0.063227	0.16074	0.19372	0.20497	0.1955	0.16596	0.14781	0.11606	0.40241	0.32771	0.22392	0.069915	-2.5625	-2.6479	-2.2854	-3.1958	-2.4854	-2.7625	-3.1583	-2.3125	-2.9188	-2.7083	-2.5062	-2.9542	-2.4437	-2.6667	-3.0062	-2.3229	412.665	127.315	174.331	434.018	389.112	401.328	385.790	372.554	183.950	157.755	294.141	390.246	126.728	161.351	162.581	367.637	0.00058252	0.00041921	0.00017593	1100.7	1.7666e-06	3.0417e-06	1192.4	232.33	4.8234e-06	2.0754e-06	297.12	81.759	64.061	18.696	1.4219e-06	26.108	0.0014429	0.002365	0.0006647	1096.1	2.3656e-05	2.759e-05	1191.7	234.55	2.3491e-05	2.7486e-05	299.24	83.037	65.182	19.282	2.3924e-05	27.027	107.522	182.434	179.671	101.289	237.048	251.430	101.197	108.830	261.151	326.239	108.370	115.106	115.490	122.613	210.303	121.795	-8191	255	
2595.810	1	1	0	0	0.24949	0.22109	0.24248	0.15026	0.064685	0.027162	0.31923	0.29484	0.20544	0.077096	0.034387	0.15446	0.098231	0.13885	0.15249	0.097685	-2.5187	-2.6583	-2.1646	-3.0792	-2.3771	-2.6208	-3.1813	-2.35	-2.8208	-2.6937	-2.3896	-3.0833	-2.5896	-2.4479	-3.0875	-2.35	121.995	430.514	180.349	421.203	268.703	419.423	391.672	401.616	300.145	148.299	144.450	108.045	396.836	277.338	128.992	331.711	0.00063478	7.897e-05	4.4968e-05	1094.2	3.0018e-06	2.626e-06	1194.8	234.08	6.761e-06	3.82e-06	296.13	82.02	64.343	18.7	3.947e-07	26.017	0.0014121	0.0023395	0.00069455	1098.1	2.309e-05	2.7756e-05	1194.3	235.15	2.3626e-05	2.7062e-05	299.64	83.17	65.538	19.311	2.5573e-05	27.057	109.873	258.962	132.174	101.255	278.376	270.022	101.101	108.735	238.183	230.964	108.488	115.189	115.476	122.831	255.050	121.770	-8191	255	
2595.929	1	1	0	0	0.24752	0.074803	0.094141	0.30539	0.23807	0.12868	0.089388	0.25902	0.14413	0.11367	0.40644	0.099634	0.12917	0.099267	0.18245	0.012211	-2.6208	-2.7229	-2.2938	-3.0896	-2.3896	-2.4917	-3.3063	-2.4146	-2.7396	-2.8625	-2.3354	-3.1375	-2.5625	-2.4417	-3.2229	-2.2479	411.228	449.584	446.522	399.464	396.171	132.794	449.126	396.758	338.601	179.557	391.185	107.069	264.449	366.177	183.191	243.207	0.00064753	0.00029696	4.4165e-05	1106.3	3.4823e-06	3.104e-06	1204.2	234.57	1.8247e-06	5.436e-06	297.52	82.252	64.506	18.722	5.4825e-06	26.124	0.0014749	0.0024241	0.00070626	1100.6	2.4382e-05	2.883e-05	1198.2	235.77	2.3839e-05	2.8026e-05	299.96	83.451	65.641	19.378	2.597e-05	27.085	108.887	163.382	231.883	101.502	278.181	238.030	101.316	109.020	153.541	273.518	108.567	115.226	115.707	122.679	229.617	122.168	-8191	255	
2596.025	1	1	0	0	0.11116	0.082833	0.13225	0.24457	0.24711	0.12744	0.26683	0.17819	0.10147	0.18232	0.10272	0.16277	0.23809	0.30062	0.19537	0.14291	-2.3812	-2.9354	-1.9271	-2.9708	-2.6521	-2.3271	-3.1167	-2.5625	-2.4333	-3.0896	-2.2917	-3.0042	-2.8333	-2.2271	-3.0479	-2.4604	201.926	288.538	165.641	91.348	348.496	436.318	92.628	370.038	382.187	211.219	102.049	93.902	183.744	433.041	180.176	362.604	0.00073394	0.00040167	7.3472e-05	1101.5	2.2225e-06	3.6487e-06	1205.5	234.72	4.2666e-06	4.0592e-06	295.8	81.759	64.884	18.729	4.1484e-06	26.079	0.0015243	0.0025043	0.00072146	1101.8	2.5169e-05	2.9248e-05	1199.2	235.92	2.5335e-05	2.9842e-05	300.57	83.395	65.925	19.367	2.7056e-05	27.159	105.268	200.514	198.610	101.425	237.604	229.939	101.140	108.968	198.695	245.115	108.609	115.051	115.367	123.068	227.111	121.932	-8191	255	
2596.121	1	1	0	0	0.13688	0.093695	0.14103	0.23253	0.08282	0.18814	0.22631	0.033029	0.25734	0.18122	0.13135	0.29842	0.012467	0.20037	0.17469	0.16529	-2.2479	-3.1083	-2.1583	-2.8604	-2.8688	-2.1917	-3.3292	-2.6604	-2.5146	-3.2021	-2.2479	-2.8229	-2.75	-2.2167	-3.0042	-2.6813	415.138	362.436	293.436	342.776	281.956	113.999	391.795	170.353	223.095	158.027	349.210	435.167	299.876	423.737	289.579	135.670	0.00067708	0.00011029	2.423e-05	1109.9	3.625e-06	5.8994e-06	1209.2	235.78	3.6456e-06	3.1905e-06	298.48	82.604	65.06	18.885	1.8657e-06	26.218	0.0016413	0.0027309	0.00080798	1108.2	2.8125e-05	3.355e-05	1204.9	237.48	2.8139e-05	3.327e-05	302.77	83.985	66.233	19.602	3.0717e-05	27.262	109.376	171.114	133.488	101.195	247.190	268.662	101.365	109.084	205.113	279.533	108.370	115.075	115.751	122.349	266.591	122.084	-8191	255	
2596.242	1	1	0	0	0.17999	0.072634	0.032878	0.1338	0.041812	0.257	0.25045	0.39181	0.057602	0.28174	0.28027	0.14583	0.090614	0.16887	0.055099	0.17371	-1.85	-2.9188	-2.2667	-3.0062	-2.7583	-2.1937	-3.2479	-2.575	-2.4104	-3.1646	-2.3271	-2.7396	-2.9229	-2.2	-3.0896	-2.7479	310.810	309.523	392.302	417.554	421.154	281.643	312.174	390.461	253.977	94.470	105.966	438.261	205.379	372.768	120.779	349.888	0.00068546	0.00019337	7.1424e-05	1117.3	3.5816e-06	1.807e-06	1218.9	238.35	4.2193e-06	2.2949e-06	300.04	82.872	65.829	18.887	5.0457e-06	26.173	0.0017719	0.0030214	0.00086353	1115.9	2.9294e-05	3.4353e-05	1213.5	239.58	2.9031e-05	3.3338e-05	303.73	84.206	66.802	19.587	2.9001e-05	27.296	117.706	437.133	146.457	101.397	201.699	173.294	101.040	108.707	197.875	276.972	108.158	114.891	115.082	122.193	217.677	122.139	-8191	255	
2596.313	1	1	0	0	0.23361	0.12606	0.1567	0.28142	0.11613	0.1055	0.25447	0.11528	0.27899	0.084615	0.19727	0.22955	0.22913	0.29915	0.19504	0.20611	-1.9604	-3.2	-2.3583	-2.6125	-3.0792	-2.1312	-3.2125	-2.8229	-2.4021	-3.0229	-2.4688	-2.525	-3.0875	-2.25	-2.8396	-3.0333	228.426	412.236	266.904	379.384	98.936	132.377	408.978	169.200	425.816	248.414	131.297	367.034	386.986	109.085	133.179	260.787	0.00064042	0.000168	9.7879e-05	1122.6	3.8979e-06	4.9274e-06	1215.4	238.1	4.6778e-06	5.7088e-06	299.87	83.345	65.007	18.866	5.9004e-06	26.244	0.0017223	0.0028624	0.000819	1119.8	2.7894e-05	3.3327e-05	1213.5	239.43	2.7808e-05	3.2058e-05	303.6	84.352	66.44	19.531	2.8005e-05	27.304	107.881	152.736	187.681	101.277	289.023	235.051	101.225	108.695	244.184	243.458	107.990	115.102	115.690	122.808	236.898	121.794	-8191	255	
2596.409	1	1	0	0	0.11934	0.18719	0.21518	0.15176	0.079437	0.16356	0.18769	0.27541	0.21261	0.098906	0.16723	0.15426	0.27149	0.14802	0.1239	0.19525	-1.7667	-2.9667	-2.5083	-2.5187	-3.05	-2.1625	-3.0854	-3.0375	-2.1208	-2.9896	-2.7687	-2.4292	-2.9083	-2.3417	-2.6042	-3.0833	176.498	445.858	395.247	355.559	261.335	99.773	429.902	398.587	254.047	343.361	426.159	141.836	408.532	110.636	245.599	397.566	0.00065162	0.00024833	0.00015945	1122.2	2.3848e-06	5.3345e-06	1216.4	238.1	6.3414e-06	9.7861e-07	300.4	82.873	65.31	18.836	3.0106e-06	26.036	0.0016855	0.0028125	0.00078101	1117.9	2.726e-05	3.2409e-05	1216.2	239.37	2.773e-05	3.1599e-05	304.85	84.091	66.47	19.583	2.8855e-05	27.207	107.194	197.867	183.113	101.100	227.962	256.061	101.296	108.790	195.305	228.314	108.503	114.799	115.645	122.699	211.079	121.647	-8191	255	
2596.530	1	1	0	0	0.1575	0.29912	0.10636	0.22338	0.27672	0.10411	0.2933	0.2079	0.082453	0.10994	0.10148	0.16193	0.21593	0.080385	0.36375	0.20745	-1.8979	-2.925	-2.4354	-2.4313	-3.1813	-2.2854	-2.8875	-3.0792	-2.2333	-2.9688	-2.8833	-2.4208	-3.1458	-2.5604	-2.4104	-3.0542	184.637	341.657	419.105	409.605	116.212	292.282	384.619	92.167	317.151	161.850	149.690	103.222	275.265	380.779	160.485	155.164	0.00054793	0.00069415	0.00011525	1123.1	6.1111e-06	1.8897e-06	1218.2	237.97	6.3659e-06	5.7513e-06	299.91	82.682	65.484	18.901	2.3239e-06	26.261	0.0016522	0.002749	0.00076616	1119.6	2.6092e-05	3.1179e-05	1211.8	238.86	2.593e-05	2.9591e-05	303.4	83.744	66.532	19.546	2.789e-05	27.284	107.134	141.666	147.752	101.393	212.126	241.454	101.421	108.949	215.650	222.127	108.067	115.109	115.352	122.793	164.078	121.683	-8191	255	
2596.624	1	1	0	0	0.17532	0.12791	0.13509	0.12119	0.24613	0.096709	0.22217	0.32704	0.10385	0.30542	0.26198	0.059448	0.058623	0.18701	0.11487	0.066486	-1.8062	-2.7313	-2.6458	-2.3854	-3.0563	-2.2542	-2.6688	-3.1104	-2.1042	-2.7542	-2.9208	-2.1104	-2.9729	-2.4646	-2.2542	-3.0729	298.957	140.356	214.324	379.180	413.681	388.272	381.598	385.487	432.728	282.864	346.620	277.012	317.618	373.379	220.253	219.750	0.00061873	0.00025182	9.0507e-05	1123.1	2.7372e-06	4.4396e-06	1216.9	237.85	6.0497e-06	2.3841e-06	298.46	83.085	65.143	18.711	6.6589e-06	26.338	0.0016634	0.0028644	0.00081324	1118.7	2.8706e-05	3.3071e-05	1213.6	239.67	2.9622e-05	3.3955e-05	303.44	84.127	66.434	19.486	3.2591e-05	27.281	108.009	181.079	175.365	101.269	194.222	264.293	101.188	108.748	250.203	252.839	108.293	114.947	115.066	122.725	241.491	122.042	-8191	255	
2596.721	1	1	0	0	0.074144	0.19067	0.19485	0.30541	0.089612	0.10156	0.051935	0.17563	0.082161	0.037176	0.18216	0.20354	0.16927	0.15006	0.15554	0.2346	-1.8979	-2.525	-2.9042	-2.4042	-3.0271	-2.5146	-2.4458	-3.0563	-2.3271	-2.8896	-3.0187	-2.3292	-2.9646	-2.6771	-2.3729	-3.1458	246.819	128.034	315.173	404.655	424.385	405.216	373.557	401.180	125.678	391.273	445.324	206.265	396.465	275.860	139.558	346.047	0.0005336	0.00054937	2.6748e-05	1122	7.5907e-06	5.357e-06	1223.4	238.77	1.8137e-06	7.8121e-06	302.18	83.747	66.005	19.125	4.4109e-06	26.428	0.0019201	0.003339	0.00096381	1122.1	3.4609e-05	4.1202e-05	1225.4	241.9	3.5732e-05	4.0777e-05	307.44	85.233	67.467	19.829	3.6609e-05	27.592	117.064	169.490	157.107	101.406	244.347	224.279	101.037	108.772	190.417	228.758	108.066	114.914	115.114	122.431	242.708	122.152	-8191	255	
2596.841	1	1	0	0	0.20706	0.075815	0.1111	0.34154	0.26603	0.3429	0.06921	0.21883	0.030233	0.18544	0.17781	0.13836	0.042093	0.17137	0.059372	0.069005	-1.9917	-2.4792	-2.9583	-2.4417	-2.9	-2.7625	-2.2687	-3.1333	-2.5521	-2.6063	-3.1146	-2.0167	-2.9479	-2.9479	-2.2708	-2.9625	345.774	105.093	284.672	125.238	155.088	431.936	329.911	441.725	362.072	438.173	317.903	415.476	102.635	351.207	446.104	420.303	0.00058063	2.7223e-05	9.7431e-05	1134.3	2.7458e-06	4.7538e-06	1235	240.53	7.5568e-06	1.8086e-06	303.48	83.999	66.668	19.126	5.8699e-06	26.399	0.0020166	0.0034407	0.0009643	1131.9	3.342e-05	3.9494e-05	1229	242.85	3.4003e-05	3.912e-05	308.21	85.194	67.853	19.863	3.5347e-05	27.61	109.154	167.610	179.644	101.141	260.536	234.061	101.197	108.679	212.052	341.453	108.191	114.696	115.492	122.737	239.639	122.130	-8191	255	
2596.913	1	1	0	0	0.14022	0.36404	0.089795	0.31057	0.22435	0.27177	0.16201	0.043801	0.43672	0.064302	0.16467	0.23315	0.031071	0.080228	0.01387	0.17382	-1.9188	-2.4333	-3.075	-2.3375	-2.9729	-2.8604	-2.2604	-3.1667	-2.4854	-2.2958	-3.1479	-2.3792	-2.7229	-3.0604	-2.2729	-2.9021	280.413	442.250	348.879	396.676	138.564	381.283	386.835	327.764	126.159	335.388	343.634	272.334	158.575	174.738	373.335	313.401	0.00059588	0.00018645	5.4382e-05	1139.9	4.5331e-06	2.6109e-06	1237.7	241.78	4.6062e-06	3.4667e-06	303.07	83.554	66.598	19.023	3.6467e-06	26.433	0.0019277	0.0032456	0.0009186	1136.8	3.1504e-05	3.7368e-05	1232.5	243.13	3.1036e-05	3.6949e-05	308.17	85.177	67.443	19.773	3.3003e-05	27.475	104.701	192.944	276.930	101.299	219.413	227.054	101.155	108.727	239.438	199.189	108.354	115.278	115.664	122.215	219.620	121.571	-8191	255	
2597.009	1	1	0	0	0.17028	0.048639	0.19718	0.17373	0.10955	0.1972	0.38601	0.19255	0.23719	0.1642	0.1845	0.034305	0.088915	0.395	0.11748	0.090948	-2.1042	-2.15	-2.9833	-2.425	-2.4062	-2.9583	-2.4792	-2.9042	-2.8271	-2.325	-3.2021	-2.1979	-2.4813	-2.9146	-2.1375	-2.9896	225.579	334.926	98.122	203.769	206.164	318.155	429.214	180.574	133.888	280.450	380.331	421.434	287.278	123.189	329.166	380.686	0.00052942	0.00024182	3.9687e-05	1135.8	3.1939e-06	3.6113e-06	1229.3	241.24	5.0857e-06	3.8075e-06	303.81	83.429	65.784	18.936	4.015e-06	26.293	0.0018151	0.0032551	0.00088665	1133.5	3.022e-05	3.5752e-05	1226.4	242.67	2.8502e-05	3.4263e-05	307.36	84.79	67.023	19.632	2.9115e-05	27.38	103.772	449.727	207.716	101.282	220.259	276.387	101.347	109.026	260.044	234.727	108.388	115.109	115.398	122.400	223.419	122.233	-8191	255	
2597.105	1	1	0	0	0.097306	0.16864	0.22084	0.398	0.10969	0.27531	0.21209	0.2854	0.12829	0.057852	0.01713	0.075708	0.1374	0.22197	0.20459	0.029613	-2.4313	-2.2479	-3.0917	-2.3854	-2.3458	-3.0917	-2.525	-2.9083	-2.7604	-2.1375	-3.0938	-2.475	-2.5062	-2.9833	-2.2104	-2.8125	427.444	219.165	293.917	410.971	194.124	167.823	381.887	394.065	328.698	331.496	321.803	236.260	205.691	129.507	171.655	402.698	0.00068197	0.00012674	0.00017396	1121.8	4.3291e-06	4.4968e-06	1205.3	235.12	5.9639e-06	4.3045e-06	294.93	81.102	64.254	18.412	4.483e-06	26.034	0.0016124	0.0027286	0.00076616	1121.3	2.4941e-05	2.8357e-05	1200.5	236.25	2.1383e-05	2.5279e-05	297.75	82.255	65.131	19.072	2.4916e-05	26.843	116.793	187.460	189.214	101.293	237.436	239.777	101.413	109.286	235.651	215.031	108.344	115.045	115.594	123.139	199.245	122.017	-8191	255	
2597.226	1	1	0	0	0.15132	0.16637	0.085541	0.31046	0.085589	0.21998	0.10065	0.13919	0.121	0.33043	0.040168	0.13815	0.037525	0.11991	0.30704	0.29174	-2.4354	-2.1771	-3.0646	-2.7375	-2.5271	-3.1729	-2.5875	-2.7792	-3.0042	-1.9875	-3.0771	-2.6896	-2.3021	-3.1833	-2.3833	-2.6562	443.998	441.988	215.390	387.233	103.336	420.165	320.073	435.650	320.517	368.096	274.970	312.260	446.018	364.487	426.469	277.922	0.00054943	0.00041248	5.523e-05	1107.1	5.0363e-06	5.6583e-06	1212.3	235.89	4.6596e-06	1.6943e-06	297.41	81.957	64.593	18.599	3.3123e-06	26.085	0.0015017	0.0025794	0.00074369	1104.6	2.6374e-05	3.1326e-05	1203.5	237.18	2.6827e-05	3.2118e-05	300.22	83.331	65.825	19.256	2.8016e-05	27.07	117.284	182.708	240.127	101.531	203.152	188.055	101.461	109.145	244.734	164.856	108.445	115.360	115.622	122.768	263.563	122.752	-8191	255	
2597.322	1	1	0	0	0.052252	0.04796	0.17782	0.39604	0.10285	0.084732	0.23495	0.028862	0.083837	0.27282	0.078898	0.31145	0.20717	0.13466	0.17725	0.033555	-2.5979	-2.1437	-2.9292	-2.7375	-2.2313	-3.1104	-2.7771	-2.5938	-3.0792	-2.2375	-2.9437	-2.7979	-2.1833	-3.2125	-2.4167	-2.5938	187.455	359.431	230.979	423.204	401.357	208.822	349.905	288.891	148.116	206.270	351.836	443.836	339.531	212.556	238.290	382.849	0.00059563	0.00035245	0.00016452	1107.8	4.3752e-06	2.245e-06	1206.4	237.15	5.893e-06	2.7471e-06	297.47	81.765	64.44	18.6	3.056e-06	25.8	0.0015875	0.0027459	0.00075017	1108.8	2.5482e-05	2.9912e-05	1203.2	237.56	2.4019e-05	2.7709e-05	299.86	82.858	65.25	19.158	2.2573e-05	26.756	105.052	172.662	232.317	101.366	247.283	172.104	101.354	108.887	205.829	218.420	108.617	115.221	115.745	123.154	333.274	122.633	-8191	255	
2597.418	1	1	0	0	0.23648	0.16409	0.10708	0.28366	0.13614	0.26663	0.2054	0.1853	0.089626	0.14023	0.14862	0.36657	0.12895	0.05247	0.15708	0.17993	-2.7083	-2.1167	-2.8708	-2.8604	-2.1458	-2.9833	-2.5708	-2.4875	-3.0375	-2.2354	-2.8125	-3.0083	-2.1833	-3.0396	-2.5479	-2.4667	140.750	143.849	222.782	332.839	110.449	419.995	384.381	410.903	147.470	353.242	179.518	366.439	375.288	420.480	417.221	417.817	0.00056142	0.00011851	0.00011547	1098	4.6315e-06	2.2369e-06	1193.6	234.01	5.4724e-06	1.6926e-06	294.73	81.39	64.601	18.508	5.9243e-06	25.848	0.0013204	0.0021994	0.00061294	1096.7	2.1776e-05	2.4995e-05	1188.8	234.99	2.1368e-05	2.4407e-05	297.28	82.255	65.095	19.029	2.2139e-05	26.7	112.816	230.420	184.147	101.467	185.191	220.149	101.229	109.057	215.472	210.793	108.483	115.345	115.761	123.237	264.025	122.339	-8191	255	
2597.514	1	1	0	0	0.25999	0.14285	0.13371	0.19074	0.14301	0.31355	0.32967	0.16658	0.13037	0.1828	0.14022	0.21045	0.027692	0.15006	0.082566	0.13066	-2.6896	-2.1042	-2.7188	-3.0521	-2.2812	-3.1292	-2.8021	-2.4333	-2.9313	-2.5125	-2.6708	-3.025	-2.0708	-3.1	-2.7104	-2.1813	94.015	237.002	419.483	125.076	228.830	433.424	389.240	335.690	301.921	275.702	99.912	193.471	263.479	421.897	413.999	136.640	0.00056879	0.00038463	0.00010318	1096.3	2.5365e-06	4.2341e-06	1192.8	232.92	4.0328e-06	3.8111e-06	293.65	81.079	64.3	18.408	4.2498e-06	25.621	0.0013233	0.0022274	0.00061883	1096	2.1997e-05	2.4909e-05	1190	234.18	2.1913e-05	2.5062e-05	296.73	82.164	65.202	19.014	2.2125e-05	26.658	112.783	221.258	167.279	101.606	257.563	170.796	101.455	109.218	241.334	261.302	108.422	115.726	115.822	122.971	251.821	122.489	-8191	255	
2597.610	1	1	0	0	0.26553	0.037505	0.19204	0.12662	0.18499	0.098145	0.15004	0.22694	0.11023	0.16259	0.29917	0.1154	0.27265	0.1267	0.14442	0.22292	-2.7167	-2.3396	-2.5021	-3.1188	-2.1437	-2.8229	-2.9	-2.2812	-3.0312	-2.4417	-2.5812	-3.1437	-2.1708	-2.9313	-2.9021	-2.3667	359.540	287.716	284.335	414.159	178.856	174.504	407.146	420.167	366.683	137.240	125.672	109.392	109.975	141.016	205.223	221.723	0.00056912	0.000306	0.00014058	1096.6	5.2124e-06	1.6769e-06	1192.9	233.72	5.7279e-06	4.4776e-06	294.61	80.635	64.254	18.497	4.1567e-06	25.729	0.0013513	0.0022582	0.00060596	1094.2	2.2175e-05	2.5939e-05	1185.8	234.84	2.0832e-05	2.4303e-05	296.92	81.989	64.844	19	2.1949e-05	26.636	107.343	148.539	173.994	101.556	232.744	262.552	101.413	109.250	240.907	272.909	108.651	115.533	115.677	123.098	181.526	122.158	-8191	255	
2597.705	1	1	0	0	0.11103	0.04127	0.06487	0.071761	0.11537	0.079899	0.073913	0.17289	0.090607	0.13163	0.1811	0.19247	0.21654	0.14596	0.094132	0.22167	-2.5062	-2.5312	-2.4417	-3.1729	-2.2917	-2.6188	-3.1042	-2.2271	-2.9354	-2.5979	-2.4771	-3.0292	-2.375	-2.7667	-2.8417	-1.9562	428.214	114.653	336.442	422.752	165.307	263.833	271.943	119.022	179.453	346.561	98.413	433.041	339.571	176.034	105.980	426.375	0.00060125	0.00041462	8.6783e-05	1095.8	5.4215e-06	9.6057e-07	1191.3	232.92	4.8509e-06	4.4367e-06	295	81.154	63.506	18.334	4.5198e-06	25.712	0.0012798	0.0021281	0.0006	1092.6	2.2048e-05	2.5245e-05	1186.8	234.57	2.1163e-05	2.4953e-05	297.14	82.267	64.721	19.007	2.1792e-05	26.664	110.867	152.283	148.468	101.702	219.843	206.564	101.708	109.247	244.519	271.146	108.742	115.442	115.688	123.456	241.103	122.805	-8191	255	
2597.803	1	1	0	0	0.27701	0.055675	0.17361	0.243	0.10763	0.36278	0.44138	0.13473	0.40515	0.13649	0.17455	0.13027	0.17141	0.10687	0.038181	0.14318	-2.5125	-2.6521	-2.2562	-3.175	-2.45	-2.6979	-3.1021	-2.2354	-2.9396	-2.6292	-2.3896	-3.0979	-2.3125	-2.4417	-2.9729	-2.3167	105.460	388.612	394.458	396.214	375.872	400.987	106.888	374.212	345.080	345.491	282.053	430.438	316.021	379.900	390.331	392.358	0.00066501	0.00022747	0.00012294	1097.9	4.613e-06	7.8125e-06	1186.2	234.5	5.2813e-06	1.5362e-06	292.88	80.919	63.618	18.435	3.3932e-06	25.809	0.0013493	0.0022082	0.00060815	1094.5	2.1703e-05	2.4637e-05	1185.5	234.53	2.1778e-05	2.3983e-05	296.59	82.085	64.777	18.999	2.2514e-05	26.634	114.812	182.561	178.350	101.669	225.839	276.201	101.651	109.345	237.383	241.030	108.816	115.604	116.146	123.379	225.316	122.251	-8191	255	
2597.922	1	1	0	0	0.10518	0.055537	0.11483	0.30039	0.24245	0.10027	0.35787	0.17044	0.096327	0.12628	0.21434	0.33406	0.10814	0.1928	0.29351	0.13506	-2.2687	-2.6771	-2.1354	-3.0896	-2.5938	-2.4188	-3.1333	-2.2208	-2.7875	-2.6896	-2.375	-3.1146	-2.6271	-2.4292	-3.1188	-2.3937	284.184	223.678	312.281	418.135	434.973	334.911	397.986	266.543	246.544	128.125	131.614	393.418	441.307	399.032	101.889	450.682	0.00059258	9.0034e-05	9.4388e-05	1090.6	8.0552e-06	3.5973e-06	1193.1	232.68	3.5419e-06	5.3904e-06	294.6	81.154	63.648	18.591	5.3937e-06	25.71	0.0013019	0.0021744	0.00061788	1091.7	2.1326e-05	2.5621e-05	1186.5	233.88	2.1204e-05	2.5014e-05	297.1	81.936	64.671	19.073	2.2879e-05	26.634	113.532	154.564	170.812	101.532	221.362	243.658	101.400	108.968	180.220	259.195	108.712	115.639	116.170	123.220	237.396	122.698	-8191	255	
2598.018	1	1	0	0	0.15872	0.24246	0.24801	0.30602	0.23241	0.042417	0.264	0.24581	0.16199	0.11892	0.20162	0.074172	0.1396	0.25447	0.085558	0.16027	-2.3104	-2.6708	-1.9875	-3.0833	-2.6583	-2.2917	-3.2125	-2.3417	-2.6167	-2.8333	-2.1917	-2.8375	-2.5125	-2.2229	-2.8292	-2.2646	266.642	349.000	116.503	387.272	199.391	366.670	384.037	144.257	407.522	449.825	131.360	260.133	302.088	361.515	347.148	339.306	0.0006003	0.00040641	9.9123e-05	1096.5	3.6998e-06	2.0226e-06	1187.8	232.24	6.1208e-06	2.2896e-06	291.86	81.787	63.812	18.52	6.5504e-06	25.534	0.0013325	0.002188	0.00064237	1093.5	2.1372e-05	2.5952e-05	1185.6	234.04	2.1497e-05	2.4257e-05	295.94	82.086	64.729	19.006	2.2803e-05	26.545	111.493	163.588	191.423	101.977	228.827	309.683	101.531	109.056	237.405	222.656	107.937	114.379	115.182	122.452	235.008	121.736	-8191	255	
2598.114	1	1	0	0	0.16962	0.12338	0.079803	0.10812	0.34876	0.17446	0.14276	0.25835	0.1699	0.25863	0.084604	0.041763	0.116	0.2004	0.14321	0.20257	-2.0229	-2.8125	-2.0687	-2.8646	-2.7979	-2.2646	-3.2333	-2.5104	-2.5792	-2.9271	-2.2	-2.9625	-2.6479	-2.1646	-2.9313	-2.5438	425.218	160.802	178.273	399.987	160.498	355.417	362.921	424.973	388.527	417.826	282.420	154.450	97.895	179.988	105.259	350.422	0.00058565	0.00030482	6.1334e-05	1095.1	4.2997e-06	3.0929e-07	1190	232.25	5.4233e-06	3.0625e-06	292.48	81.08	63.54	18.396	3.7417e-06	25.619	0.0013369	0.0022222	0.00063045	1092	2.171e-05	2.5658e-05	1185.9	233.51	2.0876e-05	2.493e-05	296.41	82.244	64.723	19.017	2.2304e-05	26.585	110.295	163.609	129.215	100.760	193.774	228.291	100.531	108.432	229.440	230.924	107.559	114.744	114.783	122.072	187.214	121.552	-8191	255	
2598.210	1	1	0	0	0.076363	0.067389	0.21076	0.1789	0.025286	0.036103	0.19566	0.25129	0.27567	0.15883	0.010064	0.17325	0.11515	0.17116	0.29311	0.0232	-2.0208	-3.0062	-2.1396	-2.8917	-2.7896	-2.3104	-2.9979	-2.6979	-2.2687	-3.0229	-2.5271	-2.6688	-3.0687	-2.2854	-2.9688	-2.8229	290.880	358.157	408.811	404.696	173.011	191.253	426.850	119.861	141.202	431.677	362.377	449.279	192.985	357.079	385.007	224.286	0.00059431	0.00018605	9.1495e-05	1100.3	5.7024e-06	3.8917e-06	1193.1	232.9	2.3409e-06	2.1077e-06	292.2	80.692	63.863	18.503	1.7764e-06	25.629	0.0013438	0.0022323	0.00062795	1094	2.1647e-05	2.5921e-05	1188	233.96	2.1203e-05	2.4446e-05	295.97	82.052	64.756	19.046	2.2537e-05	26.548	104.068	198.295	210.519	100.995	234.652	213.339	100.810	108.389	297.901	206.835	107.719	114.273	115.017	122.398	230.702	121.583	-8191	255	
2598.306	1	1	0	0	0.2074	0.19523	0.37138	0.16012	0.03101	0.3098	0.34447	0.15912	0.098548	0.2245	0.20175	0.12936	0.286	0.00089433	0.035726	0.17535	-1.8875	-3.0667	-2.3521	-2.6833	-3.0417	-2.1625	-3.1437	-2.6417	-2.2833	-3.1813	-2.4562	-2.6188	-3.1729	-2.4167	-2.8521	-2.6813	173.964	256.086	216.996	403.201	144.894	336.651	352.673	422.109	326.024	447.925	172.559	153.618	402.511	180.000	320.584	211.099	0.00063099	0.00018059	7.7058e-05	1096.8	4.3828e-06	3.8717e-06	1196.1	233.75	6.2142e-06	1.9808e-06	293.97	80.845	64.187	18.313	2.5831e-06	25.527	0.0013462	0.0021844	0.00062161	1092.5	2.1055e-05	2.5389e-05	1188.5	233.91	2.1418e-05	2.3959e-05	296.21	82.176	64.765	19.007	2.1512e-05	26.519	114.546	134.155	233.634	100.868	212.432	235.165	100.840	108.270	221.091	276.317	107.805	114.690	115.143	122.563	206.556	121.667	-8191	255	
2598.402	1	1	0	0	0.33669	0.19936	0.11569	0.097032	0.11568	0.11774	0.26483	0.082093	0.15305	0.14636	0.21096	0.232	0.040034	0.11776	0.25691	0.12635	-1.8479	-3.1792	-2.4979	-2.5438	-3.2021	-2.2229	-3.0625	-2.9542	-2.1479	-2.9583	-2.3458	-2.6	-2.9354	-2.2417	-2.6979	-2.8542	137.474	277.263	222.009	341.725	94.146	185.407	417.839	357.745	426.562	355.570	288.956	141.961	185.414	435.626	116.408	120.745	0.00061799	0.00027509	0.00010195	1095.3	4.7084e-06	3.4676e-06	1195.4	232.57	4.1899e-06	2.0923e-07	293.18	80.789	63.518	18.454	4.1724e-06	25.818	0.0013105	0.0021809	0.00059706	1092.8	2.1588e-05	2.4617e-05	1189.9	234.14	2.1781e-05	2.4297e-05	295.86	81.995	64.771	19.023	2.1606e-05	26.642	108.564	154.525	166.684	100.770	213.546	259.905	100.792	108.251	166.893	389.116	107.617	114.587	115.033	122.332	230.440	120.683	-8191	255	
2598.523	1	1	0	0	0.23785	0.14336	0.18482	0.11467	0.16475	0.22078	0.19729	0.29073	0.28272	0.16374	0.099885	0.13895	0.11844	0.032485	0.25065	0.27948	-1.8396	-3.05	-2.6333	-2.475	-3.05	-2.3479	-2.8271	-3.0604	-2.1813	-3.0104	-2.5792	-2.4125	-3.2354	-2.1896	-2.5729	-3.0187	129.653	198.426	361.954	351.595	299.480	176.194	351.779	388.874	374.822	445.210	378.939	90.829	199.567	191.618	264.738	354.401	0.00061878	0.00016923	0.00015238	1093.3	9.4353e-07	4.1188e-06	1195.5	233.88	3.0292e-06	3.2655e-06	291.4	81.175	63.858	18.401	2.0787e-06	25.544	0.0013553	0.0021248	0.00060603	1091.4	2.1961e-05	2.4453e-05	1187.9	234.33	2.1339e-05	2.3948e-05	295.73	82.081	64.797	18.971	2.2124e-05	26.533	109.738	116.729	189.728	100.987	324.375	277.120	100.761	108.434	302.239	232.592	107.653	114.692	115.120	122.077	217.546	121.044	-8191	255	
2598.619	1	1	0	0	0.1785	0.074817	0.029386	0.23635	0.18755	0.09648	0.028225	0.17145	0.29194	0.24152	0.14807	0.20882	0.11889	0.24614	0.26935	0.085244	-1.7708	-2.875	-2.6896	-2.4229	-2.9958	-2.4292	-2.8229	-3.075	-2.3104	-3.1188	-2.9729	-2.4104	-2.9292	-2.3688	-2.5458	-3.1375	239.776	255.971	290.231	312.148	156.631	405.435	237.214	244.251	371.056	210.185	390.272	439.129	237.739	108.281	311.992	394.358	0.00050706	8.5563e-05	0.00014898	1098.3	4.7113e-06	1.9882e-06	1189.2	232.87	3.569e-06	4.771e-06	292.14	80.925	63.959	18.482	1.405e-06	25.837	0.0013191	0.0021277	0.00059544	1092.7	2.1826e-05	2.4743e-05	1186.6	234.05	2.1501e-05	2.4602e-05	295.45	82.092	64.856	19.065	2.2077e-05	26.687	109.814	194.815	177.878	100.709	218.182	281.702	100.843	108.283	169.716	230.857	107.500	114.841	115.187	122.521	217.351	121.224	-8191	255	
2598.714	1	1	0	0	0.023084	0.27768	0.21476	0.098708	0.37889	0.098785	0.25918	0.30724	0.1539	0.19893	0.40094	0.21317	0.10815	0.206	0.12635	0.20262	-1.6479	-2.6667	-2.7292	-2.2	-2.8688	-2.7083	-2.5896	-3.1854	-2.3167	-3.0312	-3.0521	-2.2417	-2.8958	-2.6417	-2.3479	-3.2417	417.176	427.402	445.941	286.449	123.237	230.271	383.257	423.260	130.299	162.439	402.385	182.637	349.900	393.054	393.860	191.906	0.00062808	0.00013569	7.924e-05	1093.9	4.7166e-06	1.5551e-06	1195.3	232.69	3.0824e-06	2.2843e-06	294.1	81.131	63.821	18.464	6.0816e-06	25.702	0.0013576	0.0022476	0.00063474	1094.1	2.2338e-05	2.5392e-05	1190.7	234.05	2.2662e-05	2.5056e-05	296.28	82.166	64.769	19.11	2.37e-05	26.649	107.896	207.730	241.235	100.831	205.901	335.535	100.801	108.684	214.138	236.709	107.848	114.585	115.136	122.801	240.751	121.904	-8191	255	
2598.787	1	1	0	0	0.12002	0.14244	0.028059	0.29449	0.22669	0.29792	0.40954	0.18669	0.19232	0.15315	0.18133	0.22968	0.23045	0.35016	0.14884	0.16107	-1.9125	-2.4917	-2.8604	-2.375	-2.9062	-2.8896	-2.5042	-3.1167	-2.3292	-2.6146	-3.0229	-2.1312	-3.0521	-2.9083	-2.2146	-3.1125	159.327	245.089	115.934	344.146	214.736	174.554	380.990	408.564	370.838	393.037	136.553	413.724	428.620	390.030	147.231	373.170	0.00056427	0.00057445	0.00013959	1101.2	3.9949e-06	3.7034e-06	1193.7	233.26	3.096e-06	5.0162e-06	291.98	81.571	63.837	18.301	2.3227e-06	25.579	0.0013698	0.0023025	0.00065123	1096.6	2.2822e-05	2.6184e-05	1190.9	234.43	2.329e-05	2.5777e-05	296.17	82.491	64.892	18.997	2.4039e-05	26.584	109.653	194.238	198.143	101.383	221.200	263.285	101.109	109.088	268.623	235.670	108.357	115.090	115.140	122.364	257.854	122.057	-8191	255	
2598.906	1	1	0	0	0.21883	0.050874	0.11387	0.31572	0.15557	0.10334	0.31648	0.012083	0.27988	0.19013	0.26418	0.033334	0.29809	0.22996	0.17117	0.039043	-2.0917	-2.5021	-2.9729	-2.4771	-2.8875	-2.7188	-2.4292	-3.1437	-2.575	-2.4292	-3.1833	-2.3146	-2.8396	-2.9708	-2.2771	-3.0292	234.071	276.761	274.108	415.985	316.636	435.489	405.249	319.351	220.588	279.513	422.178	298.173	412.293	386.257	232.437	435.509	0.00060695	0.00022905	0.0001523	1099.8	5.0293e-06	2.0605e-06	1195.9	233.83	7.1274e-06	4.7407e-06	292.76	80.877	63.666	18.372	2.704e-06	25.504	0.0014417	0.002331	0.00067197	1098	2.3247e-05	2.7399e-05	1193.8	234.45	2.2696e-05	2.6444e-05	297.05	82.123	64.811	19.03	2.4607e-05	26.612	106.065	151.849	178.393	100.941	240.523	170.307	100.784	108.384	226.283	234.248	107.997	114.813	115.172	122.677	228.788	121.938	-8191	255	
2599.002	1	1	0	0	0.21865	0.033122	0.072913	0.13625	0.31042	0.10692	0.19976	0.017307	0.082882	0.20665	0.21329	0.28953	0.072622	0.15499	0.033334	0.032246	-2.3479	-2.3438	-3.1354	-2.4271	-2.6917	-2.8771	-2.3729	-3.1354	-2.5271	-2.2375	-3.3312	-2.4083	-2.7083	-2.8688	-2.2521	-2.8708	155.637	227.403	180.865	394.408	324.010	113.247	369.785	118.195	394.775	181.388	323.089	245.667	345.344	421.681	168.001	276.575	0.00062169	0.00028349	6.4217e-05	1096.3	3.4762e-06	1.4178e-06	1198.9	233.69	2.818e-06	4.3773e-06	293.35	81.41	64.188	18.474	5.4383e-06	25.807	0.0014298	0.002423	0.00068245	1096.8	2.3369e-05	2.644e-05	1193.1	234.87	2.2753e-05	2.7049e-05	296.78	82.244	65.061	19.047	2.4474e-05	26.64	103.994	193.378	231.271	101.213	205.730	268.996	101.237	109.077	252.980	244.621	107.910	115.200	115.645	122.713	273.399	122.111	-8191	255	
2599.098	1	1	0	0	0.057368	0.1312	0.18612	0.3284	0.046418	0.043262	0.043993	0.11981	0.024141	0.13144	0.23906	0.19031	0.12098	0.12978	0.3412	0.065292	-2.1688	-2.2687	-3.1167	-2.55	-2.5375	-2.9229	-2.4417	-3.0167	-2.7833	-2.275	-3.2042	-2.2604	-2.5583	-3.0792	-2.2854	-2.8979	115.789	168.127	358.283	396.859	192.243	301.650	342.368	270.980	287.945	212.689	105.467	421.937	120.568	189.938	449.612	233.904	0.00056332	9.7261e-05	0.00014148	1104.7	1.8013e-06	5.7564e-06	1194.9	233.28	3.5088e-06	3.2422e-06	292.63	81.697	64.203	18.56	4.2658e-06	25.825	0.001412	0.0024516	0.0006703	1099.9	2.3584e-05	2.7194e-05	1189.9	234.79	2.333e-05	2.7506e-05	297.05	82.401	65.126	19.079	2.5097e-05	26.691	109.368	162.948	255.904	100.904	208.797	220.742	101.349	109.239	210.473	262.972	107.897	114.795	115.484	123.344	253.387	122.413	-8191	255	
2599.194	1	1	0	0	0.017199	0.30932	0.21238	0.43678	0.12955	0.23298	0.22222	0.45972	0.19003	0.28173	0.22598	0.05997	0.15502	0.31859	0.090329	0.12431	-2.4833	-2.0875	-2.9479	-2.6646	-2.4188	-3.2458	-2.2562	-2.8854	-2.9771	-2.1312	-3.1917	-2.7396	-2.2562	-3.1583	-2.3604	-2.7	403.107	184.162	158.881	384.883	417.282	272.009	404.791	154.905	299.882	330.781	136.899	442.643	444.667	178.694	426.941	372.411	0.00060773	0.00026829	0.00011826	1102.8	2.4634e-06	5.1283e-06	1192.6	233.54	5.5208e-06	1.4347e-06	293.48	81.46	63.898	18.472	5.8268e-06	25.891	0.0014284	0.0024134	0.00067131	1099	2.4116e-05	2.7146e-05	1192.3	234.76	2.2885e-05	2.7525e-05	297.27	82.215	64.967	19.067	2.4124e-05	26.775	106.380	154.859	121.571	100.952	228.857	237.390	101.582	109.197	214.851	335.571	108.708	115.150	115.556	123.095	222.800	122.706	-8191	255	
2599.315	1	1	0	0	0.12392	0.20685	0.04425	0.34553	0.08457	0.21395	0.083999	0.28088	0.34879	0.13677	0.24524	0.25373	0.20539	0.13659	0.082339	0.11593	-2.6792	-1.9375	-3.075	-2.6833	-2.5083	-3.2167	-2.6354	-2.6354	-3.1646	-2.3438	-3.1833	-2.8187	-2.3854	-3.1146	-2.575	-2.6083	421.543	144.378	120.455	407.226	188.644	349.875	431.458	349.663	319.806	339.340	117.940	257.629	170.725	382.366	281.451	139.769	0.00058156	0.0002813	0.00011423	1099	5.1019e-06	4.3743e-06	1194.4	233.93	5.7816e-06	4.0161e-06	292.5	81.49	63.848	18.209	4.0407e-06	25.983	0.001418	0.0024002	0.00067685	1095.9	2.3531e-05	2.8053e-05	1191.9	234.61	2.3087e-05	2.7888e-05	297.1	82.252	64.988	18.989	2.4337e-05	26.753	107.555	224.164	154.499	101.187	210.163	193.248	101.008	108.884	226.629	234.090	108.931	115.645	115.714	123.135	244.289	122.273	-8191	255	
2599.411	1	1	0	0	0.28534	0.25749	0.077271	0.30233	0.1739	0.20821	0.10035	0.17526	0.043744	0.18553	0.18447	0.22142	0.097036	0.13021	0.12043	0.085965	-2.6854	-2.1854	-2.8917	-2.925	-2.2292	-3.2313	-2.7167	-2.65	-2.8937	-2.4562	-3.0521	-2.8417	-2.1667	-3.1354	-2.4479	-2.6458	402.845	91.300	97.317	421.370	330.954	169.130	100.459	111.757	332.776	184.694	417.752	91.699	385.904	130.019	140.408	445.840	0.00060389	0.00037953	2.1913e-05	1097.5	2.3885e-06	3.8392e-06	1193.4	233	4.0255e-06	4.1566e-06	295.16	80.91	64.297	18.587	4.0056e-06	25.679	0.0014156	0.0024278	0.00068408	1098.3	2.3868e-05	2.7741e-05	1191	235	2.3461e-05	2.7952e-05	297.25	82.212	65.137	19.129	2.5071e-05	26.674	109.272	169.783	441.994	101.446	207.591	264.535	101.502	109.052	237.090	282.564	108.068	114.204	115.270	122.608	256.775	121.498	-8191	255	
2599.483	1	1	0	0	0.21118	0.10017	0.075043	0.10663	0.21525	0.10094	0.15163	0.27682	0.13753	0.20037	0.11838	0.28163	0.16271	0.20805	0.39224	0.082203	-2.8021	-2.1208	-2.6479	-2.8979	-2.2542	-3.1167	-2.7313	-2.4375	-3.0771	-2.2042	-2.7729	-2.9042	-2.0438	-2.8354	-2.7021	-2.1875	97.717	332.997	367.282	368.338	229.837	104.750	384.341	426.871	202.567	189.007	361.250	208.045	415.626	145.198	303.393	426.291	0.0005535	0.00029658	6.9421e-05	1098.8	4.0944e-06	3.2769e-06	1193	233.61	3.5584e-06	1.8923e-06	294.16	80.838	63.634	18.498	4.0088e-06	25.672	0.0014135	0.0024743	0.00068219	1098.1	2.4264e-05	2.8213e-05	1191.1	234.9	2.3018e-05	2.7533e-05	297.4	82.09	64.866	19.081	2.4562e-05	26.716	108.273	176.815	143.990	100.811	244.792	285.896	100.760	108.298	236.873	200.697	108.177	114.742	114.653	122.083	232.229	121.797	-8191	255	
2599.603	1	1	0	0	0.26034	0.16444	0.10846	0.289	0.33082	0.12008	0.30307	0.28427	0.10022	0.085177	0.18951	0.090742	0.039253	0.14668	0.30463	0.088418	-2.9188	-2.2396	-2.5667	-3.0417	-2.2125	-2.8937	-2.825	-2.4062	-3.0312	-2.4021	-2.4333	-2.975	-2.1896	-2.8833	-2.6604	-2.3021	221.016	230.067	317.149	93.255	375.996	201.541	423.317	331.230	260.734	391.587	432.252	316.194	195.172	350.738	409.617	414.870	0.00056632	0.00029407	0.0001521	1103.4	5.669e-06	2.8728e-06	1195.4	232.99	2.3618e-06	3.0876e-06	292.43	80.874	63.715	18.481	1.708e-06	25.748	0.0014244	0.0024222	0.00067587	1099	2.4133e-05	2.7335e-05	1192.2	234.95	2.37e-05	2.668e-05	296.92	82.185	64.953	19.09	2.417e-05	26.665	108.505	144.476	162.318	100.373	216.556	271.341	100.707	108.157	207.397	272.939	107.447	114.436	114.850	121.986	192.448	120.853	-8191	255	
2599.698	1	1	0	0	0.16344	0.096072	0.029401	0.25337	0.20085	0.075607	0.053025	0.020423	0.030373	0.23432	0.22511	0.066967	0.14321	0.23039	0.21426	0.13173	-2.7292	-2.4104	-2.3812	-3.0979	-2.2396	-2.8812	-3.1604	-2.2542	-3.0438	-2.4562	-2.3167	-3.0208	-2.2062	-2.6458	-3.0167	-2.225	315.901	124.173	313.495	438.281	381.797	216.847	159.369	361.946	395.912	240.916	433.458	343.486	233.538	139.847	289.742	361.520	0.00051497	0.00016458	0.00012132	1104	5.4064e-06	6.0473e-06	1189.9	232.22	7.9073e-06	2.5342e-06	293.43	80.858	63.76	18.3	2.2816e-06	25.676	0.0014546	0.0024211	0.00066856	1099.5	2.4334e-05	2.7606e-05	1190.5	233.89	2.348e-05	2.7536e-05	297.1	82.256	64.999	19.083	2.427e-05	26.664	112.156	225.336	227.021	100.606	148.339	239.251	100.373	108.134	229.896	166.151	107.434	114.244	114.712	122.007	234.186	121.322	-8191	255	
2599.794	1	1	0	0	0.087695	0.2751	0.12007	0.14837	0.11919	0.068277	0.098767	0.3402	0.25555	0.058346	0.23834	0.19181	0.21452	0.157	0.16654	0.1349	-2.5479	-2.3979	-2.2125	-3.1479	-2.2646	-2.7104	-3.1562	-2.4062	-2.8917	-2.7146	-2.4562	-3.1125	-2.3729	-2.6208	-2.8229	-2.4062	153.396	179.901	249.769	392.027	115.472	281.941	406.521	402.574	98.687	318.067	418.318	288.129	410.837	170.137	165.279	135.619	0.00057942	0.00031912	5.572e-05	1100.3	6.054e-06	2.0981e-06	1193.3	232.52	3.6769e-06	2.7526e-06	292.29	81.103	64.047	18.601	6.4402e-06	25.705	0.001428	0.0024144	0.00069307	1098.4	2.3221e-05	2.7173e-05	1191.3	234.45	2.3438e-05	2.6795e-05	296.95	82.187	65.022	19.119	2.476e-05	26.601	112.702	156.477	225.383	100.285	240.906	265.764	100.415	108.261	184.314	219.173	107.570	114.293	114.514	121.907	246.158	121.190	-8191	255	
2599.890	1	1	0	0	0.169	0.077618	0.11958	0.089768	0.096805	0.12761	0.15571	0.13081	0.086442	0.09632	0.11492	0.094212	0.086206	0.13904	0.067133	0.22949	-2.3833	-3.0062	-2.2417	-3.0938	-2.275	-2.4313	-3.0333	-2.2396	-2.6708	-2.7188	-2.3417	-2.9646	-2.3187	-2.4521	-3.2292	-2.2938	310.676	440.523	109.459	413.807	446.820	272.062	398.325	318.787	435.651	355.308	398.329	101.114	166.505	111.523	302.891	245.649	0.00061544	0.00052121	5.2673e-05	1098.7	4.7498e-06	3.5895e-06	1194.7	234.73	5.4681e-06	3.2699e-06	294.22	81.187	63.824	18.526	3.1185e-06	25.456	0.0014427	0.002413	0.00068115	1099.2	2.3439e-05	2.6868e-05	1191.8	234.86	2.3112e-05	2.6685e-05	297.39	82.296	64.937	19.111	2.4544e-05	26.592	109.475	199.756	204.318	100.223	216.455	197.323	100.455	107.881	223.999	229.944	107.343	114.135	114.764	122.028	246.692	121.362	-8191	255	
2600.011	1	1	0	0	0.19312	0.065028	0.066248	0.37756	0.088988	0.15412	0.10389	0.38186	0.041476	0.16861	0.2091	0.068401	0.18744	0.16971	0.32485	0.14451	-2.1583	-2.8604	-2.1562	-3.0625	-2.5479	-2.5	-3.1333	-2.3458	-2.6042	-3.0333	-2.2667	-2.9708	-2.6562	-2.3771	-3.1208	-2.1771	422.220	108.341	308.126	394.250	237.273	279.234	425.947	423.028	422.761	423.662	386.508	109.331	148.537	105.455	215.837	256.811	0.00051902	0.00047658	0.00011436	1100.6	1.1485e-06	2.1199e-06	1194.4	233.8	3.0743e-06	4.0334e-06	292.81	81.113	63.837	18.519	1.0412e-06	25.328	0.0014426	0.0023858	0.00068179	1097.5	2.285e-05	2.7087e-05	1191.9	234.58	2.2657e-05	2.6332e-05	297.07	82.362	64.772	19.084	2.4774e-05	26.517	105.611	141.305	196.772	100.587	241.311	277.949	100.125	107.813	263.553	270.545	107.443	114.262	114.343	122.185	411.851	120.942	-8191	255	
2600.082	1	1	0	0	0.18682	0.11476	0.1929	0.24509	0.14144	0.2832	0.2452	0.26024	0.052898	0.14921	0.1734	0.14886	0.17591	0.34675	0.26964	0.14686	-2.3354	-2.9125	-2.1917	-3.1417	-2.5458	-2.2125	-3.3312	-2.5521	-2.7021	-2.8625	-2.0625	-2.9542	-2.7083	-2.1667	-2.9979	-2.4167	387.903	257.140	307.531	436.175	128.848	409.460	420.449	371.170	242.475	437.795	121.948	237.639	420.799	436.912	336.798	424.908	0.00056169	0.00014542	0.0001589	1105.7	1.9318e-06	2.0949e-06	1195.6	233.1	6.6555e-06	5.34e-06	292.62	81.198	64.038	18.382	3.8685e-06	25.619	0.0014183	0.0023671	0.00067666	1100.4	2.336e-05	2.7367e-05	1192.4	234.48	2.262e-05	2.6119e-05	296.46	82.096	64.851	19.054	2.4353e-05	26.628	115.350	184.368	185.374	100.498	203.847	294.986	100.294	108.043	263.208	238.200	107.251	114.637	114.151	121.821	201.718	121.089	-8191	255	
2600.203	1	1	0	0	0.19223	0.19395	0.15165	0.097755	0.14288	0.068693	0.30313	0.27276	0.054283	0.071751	0.030198	0.13689	0.0061725	0.13791	0.20475	0.21	-1.9833	-2.9375	-2.0792	-2.9	-2.8708	-2.2208	-3.3271	-2.5	-2.2604	-3.0146	-2.3646	-2.7208	-2.9542	-2.0438	-2.9271	-2.6479	155.886	300.866	358.316	226.227	350.819	277.871	374.542	267.434	246.044	263.190	391.106	312.382	246.200	411.559	143.919	107.072	0.00059496	5.6004e-05	5.1678e-05	1101.8	5.8238e-06	2.688e-06	1198.5	233.96	8.7114e-07	3.0084e-06	294.93	81.129	64.06	18.362	7.3044e-06	25.81	0.0014544	0.0023617	0.00068476	1100.7	2.3159e-05	2.6978e-05	1192.3	234.43	2.2276e-05	2.7131e-05	297.17	82.277	64.826	19.062	2.4101e-05	26.635	112.569	416.249	156.584	100.502	201.079	218.111	100.398	108.027	221.563	179.026	107.489	114.149	114.355	121.862	218.019	120.866	-8191	255	
2600.299	1	1	0	0	0.13684	0.13415	0.095075	0.32723	0.1745	0.10027	0.26786	0.24754	0.10417	0.068251	0.29477	0.15971	0.18792	0.34785	0.13657	0.080568	-1.9458	-3.1292	-2.0792	-2.7062	-2.9562	-2.2833	-3.05	-2.8146	-2.3875	-3.225	-2.4958	-2.5333	-3.075	-2.2896	-2.9208	-2.7583	208.752	349.998	92.535	337.084	421.701	411.620	361.813	384.571	111.867	209.076	329.784	363.183	182.478	436.879	390.896	427.324	0.00055821	0.00038339	8.4173e-05	1101.6	1.8469e-06	2.813e-06	1197.6	232.63	3.4814e-06	3.7065e-06	293.48	80.297	64.173	18.321	2.978e-06	25.511	0.0014172	0.0023716	0.00068302	1098.6	2.3311e-05	2.7855e-05	1192.2	234	2.4276e-05	2.8219e-05	297.1	82.152	64.88	19.031	2.5239e-05	26.626	114.380	159.870	193.960	100.492	268.043	227.834	100.354	107.821	178.544	273.182	107.384	114.482	114.281	121.784	249.698	120.803	-8191	255	
2600.395	1	1	0	0	0.27331	0.094253	0.17939	0.26622	0.16485	0.13912	0.26674	0.39488	0.17523	0.16602	0.082775	0.027839	0.18232	0.11541	0.036833	0.1811	-2.0479	-3.0396	-2.3812	-2.6792	-3.0292	-2.0958	-2.9813	-2.8854	-2.2062	-3.1667	-2.3958	-2.4896	-3.0208	-2.1917	-2.9188	-2.8542	149.203	311.449	267.524	416.912	276.559	369.985	388.162	120.125	272.858	377.636	170.394	153.797	161.047	125.149	201.982	120.378	0.00058337	0.00029124	4.2205e-05	1096.2	5.2735e-06	3.5555e-06	1194.7	232.55	4.2275e-06	1.9463e-06	292.54	81.308	64.205	18.356	3.8679e-06	25.909	0.0014751	0.0025037	0.00070123	1099.1	2.4607e-05	2.9013e-05	1191.7	234.48	2.3935e-05	2.7812e-05	296.93	82.216	65.095	19.038	2.5065e-05	26.689	108.530	165.253	190.574	100.326	229.490	251.149	100.446	107.859	233.445	363.541	107.130	114.419	114.316	121.720	231.822	120.635	-8191	255	
2600.491	1	1	0	0	0.26381	0.22291	0.16348	0.12883	0.1596	0.13964	0.31245	0.2381	0.11175	0.21058	0.27662	0.28073	0.39587	0.029315	0.14172	0.23829	-1.6458	-2.9458	-2.5563	-2.5896	-3.0938	-2.1458	-2.8646	-2.9813	-2.2125	-3.0687	-2.7417	-2.5083	-3.2875	-2.1542	-2.9313	-3.0146	220.472	275.895	312.760	328.779	112.054	183.139	384.516	338.124	137.105	399.537	401.482	301.347	404.452	152.586	367.368	353.942	0.00052669	0.00033024	8.2472e-05	1103.1	4.6756e-06	3.9587e-06	1193.2	232.53	4.1756e-06	2.5826e-06	293.31	81.044	64.15	18.445	5.2929e-06	25.761	0.0014551	0.0023822	0.00068522	1098.8	2.3412e-05	2.8349e-05	1194.1	234.71	2.3501e-05	2.7055e-05	296.89	82.174	65.068	19.048	2.4654e-05	26.637	105.897	204.104	212.789	100.320	219.407	311.984	100.239	107.817	218.574	144.778	107.126	114.180	114.187	121.780	231.328	121.024	-8191	255	
2600.612	1	1	0	0	0.15298	0.45633	0.34989	0.10157	0.11246	0.11236	0.19343	0.105	0.28885	0.1338	0.09102	0.16897	0.24217	0.068693	0.029504	0.14306	-1.8583	-3.0104	-2.7854	-2.3667	-3.0625	-2.4688	-2.7104	-2.9979	-1.9667	-3.0083	-2.8229	-2.5042	-3.1562	-2.4	-2.4292	-3.0979	298.373	403.689	426.165	376.864	124.230	387.923	386.265	427.190	419.558	226.407	100.915	400.592	372.618	429.104	377.366	136.448	0.00059821	0.00038924	0.00012992	1107.2	5.0828e-06	2.2458e-06	1194.3	232.75	3.8629e-06	2.2554e-06	292.35	80.943	63.846	18.352	3.4391e-06	25.647	0.0014586	0.0024585	0.00068168	1100.4	2.3909e-05	2.8396e-05	1192.4	234.5	2.3967e-05	2.7378e-05	296.5	82.153	64.926	19.062	2.5075e-05	26.676	115.230	232.750	184.799	100.360	256.642	251.604	100.261	107.827	216.172	263.273	107.052	114.072	114.340	122.212	271.494	120.683	-8191	255	
2600.707	1	1	0	0	0.20536	0.044367	0.29597	0.29527	0.084804	0.13954	0.38562	0.33521	0.18385	0.27125	0.034858	0.18644	0.07404	0.23086	0.15815	0.29464	-1.7771	-2.9729	-2.6937	-2.3375	-3.0812	-2.6354	-2.5458	-3.1708	-2.4062	-2.8292	-2.7708	-2.1479	-3.0625	-2.7333	-2.3812	-3.1229	414.932	122.170	245.519	384.890	213.764	296.665	418.238	380.315	134.299	91.809	430.270	219.906	388.527	133.195	405.638	190.717	0.00065055	0.00044543	0.00014072	1100.7	1.8312e-06	2.3584e-06	1196.8	233.2	4.8875e-06	3.6099e-06	292.71	80.47	63.715	18.492	2.729e-06	25.682	0.0014905	0.0024599	0.00068357	1097.2	2.4263e-05	2.7872e-05	1193	234.91	2.4562e-05	2.7531e-05	296.76	81.985	64.881	19.013	2.5197e-05	26.706	106.728	207.772	193.785	100.220	290.148	254.477	100.285	107.742	193.496	207.845	107.030	113.981	114.173	121.425	221.332	120.937	-8191	255	
2600.780	1	1	0	0	0.12898	0.20887	0.05441	0.18764	0.089133	0.09792	0.13573	0.25337	0.16075	0.13828	0.21655	0.21503	0.096817	0.10644	0.16043	0.1703	-1.8687	-2.6208	-2.8583	-2.3854	-3.0458	-2.6792	-2.4958	-3.1792	-2.3646	-2.5583	-3.0083	-2.1688	-2.975	-2.625	-2.25	-3.0625	438.054	210.473	155.333	309.718	97.662	306.439	89.840	444.998	378.486	313.851	386.107	376.762	185.752	113.317	434.689	448.662	0.00060006	0.00060662	0.00011719	1102.4	3.4074e-06	4.1386e-06	1194.3	233.22	5.5035e-06	2.9704e-06	293.34	81.287	64.196	18.511	3.1288e-06	25.787	0.0014863	0.0023741	0.00069142	1098	2.4213e-05	2.8313e-05	1192.3	234.84	2.3814e-05	2.7246e-05	296.94	82.371	65.044	19.059	2.5495e-05	26.71	111.896	226.370	164.107	100.253	221.905	213.196	100.147	107.622	232.915	305.615	106.833	113.660	114.743	121.962	228.265	120.648	-8191	255	
2600.874	1	1	0	0	0.24367	0.1187	0.2078	0.35347	0.0062907	0.36928	0.40672	0.34025	0.2694	0.027758	0.15433	0.047901	0.089986	0.12442	0.20274	0.14208	-2.0083	-2.5354	-2.7792	-2.2167	-2.9417	-2.8583	-2.3688	-3.2396	-2.4333	-2.4771	-3.2562	-2.2604	-2.8	-2.6979	-2.0979	-3.2	147.471	249.579	258.266	94.932	149.837	164.214	109.093	356.739	346.239	401.626	101.529	101.010	355.708	270.010	105.777	132.373	0.00066323	0.0003512	0.00012052	1101.3	7.0948e-06	4.9818e-06	1196.1	233.89	7.3519e-06	2.6033e-06	294.16	81.022	63.603	18.37	2.1393e-06	25.589	0.0015012	0.0024759	0.00069513	1099.1	2.4904e-05	2.8241e-05	1192.3	234.85	2.4341e-05	2.8838e-05	296.56	82.264	64.771	19.067	2.5897e-05	26.669	111.382	170.060	194.886	100.293	238.414	219.093	100.312	108.023	249.109	273.164	107.217	114.058	114.922	121.640	186.222	120.821	-8191	255	
2600.995	1	1	0	0	0.21035	0.10853	0.21716	0.18931	0.087959	0.21789	0.049737	0.2753	0.25304	0.2015	0.28751	0.35113	0.092263	0.24219	0.21052	0.12612	-1.9833	-2.5083	-3.2	-2.4292	-2.9062	-3.0062	-2.2979	-3.1104	-2.3146	-2.2854	-3.1229	-2.3688	-2.6083	-2.9833	-2.3104	-3.0583	398.796	211.586	287.926	422.281	271.368	302.573	420.522	401.750	321.546	368.205	116.014	395.686	315.372	346.061	201.457	379.888	0.00058586	0.00032791	6.0695e-05	1095.4	5.6828e-07	1.5512e-06	1191.5	232.99	3.6503e-06	3.2663e-06	294.24	81.062	64.024	18.434	5.684e-06	25.626	0.0014974	0.0025515	0.00071033	1097.4	2.4626e-05	2.804e-05	1192.4	234.96	2.4305e-05	2.8604e-05	297.36	82.106	65.001	19.054	2.539e-05	26.641	108.647	203.334	204.772	100.407	230.042	170.608	100.302	107.703	190.119	254.097	107.194	113.855	114.339	121.724	211.490	120.872	-8191	255	
2601.091	1	1	0	0	0.2033	0.24218	0.10997	0.18174	0.19522	0.1452	0.090721	0.33231	0.13874	0.19178	0.082297	0.058199	0.029	0.17827	0.1146	0.29406	-2.0271	-2.2708	-3.0417	-2.4562	-2.6333	-3.125	-2.2521	-3.0583	-2.5438	-2.2062	-3.1271	-2.3563	-2.5083	-3.0187	-2.125	-2.975	160.427	137.812	227.266	108.423	388.924	126.121	435.872	427.852	119.810	371.394	113.322	92.608	268.894	155.970	159.554	345.765	0.00055101	0.00042598	0.00014571	1101.1	4.3295e-06	2.5906e-06	1194.9	233.05	2.7341e-06	4.4429e-06	292.9	80.809	63.54	18.393	6.1053e-06	25.802	0.0014666	0.0025177	0.00071521	1097.7	2.4839e-05	2.859e-05	1192	234.55	2.4174e-05	2.7666e-05	296.65	82.088	65.001	19.057	2.5843e-05	26.764	113.932	218.323	167.078	100.108	246.120	167.947	100.189	108.068	226.318	251.891	107.524	114.078	114.597	121.841	248.189	121.355	-8191	255	
2601.187	1	1	0	0	0.010996	0.10791	0.15425	0.24491	0.065432	0.22491	0.27512	0.22331	0.21215	0.28724	0.29093	0.29523	0.32144	0.12307	0.076079	0.084129	-2.3812	-2.0979	-3.1354	-2.4896	-2.5375	-3.1583	-2.2479	-2.9229	-2.7479	-2.0708	-3.0792	-2.5062	-2.4833	-3.2042	-2.2375	-2.9354	226.437	218.891	110.659	123.919	91.947	285.301	395.338	404.071	385.994	127.355	90.605	216.860	371.912	396.312	136.588	355.777	0.00051425	0.00044899	7.9207e-05	1096.2	4.5321e-06	1.5947e-06	1195.7	233.4	3.5122e-06	2.7301e-06	293.21	80.718	63.902	18.367	1.4943e-06	25.874	0.0014853	0.0025502	0.00070083	1097.8	2.4279e-05	2.8594e-05	1192.3	234.37	2.427e-05	2.8873e-05	297.35	82.019	64.891	19.075	2.5974e-05	26.73	113.745	198.168	156.605	100.126	235.322	244.533	100.206	107.640	205.790	237.390	107.353	113.899	114.467	121.683	332.456	121.233	-8191	255	
2601.283	1	1	0	0	0.31219	0.16557	0.23282	0.2587	0.20523	0.096177	0.19367	0.092059	0.12816	0.27598	0.094961	0.1074	0.18653	0.081574	0.053505	0.28391	-2.5479	-2.1479	-2.925	-2.5792	-2.2104	-3.2687	-2.4625	-2.8479	-3.1542	-2.2	-3.1271	-2.7854	-2.2833	-3.2292	-2.5708	-2.725	393.858	366.575	203.404	138.689	325.730	356.358	390.428	432.186	118.495	143.648	373.065	444.401	309.368	349.387	387.057	423.803	0.00052034	0.00020445	6.2356e-05	1099.9	4.646e-06	4.0593e-06	1197.2	234.05	3.7739e-06	2.9006e-06	290.9	81.237	64.055	18.441	6.0076e-06	25.748	0.0014791	0.0024933	0.00071179	1097.4	2.4007e-05	2.8946e-05	1191.4	235.24	2.3879e-05	2.8824e-05	296.11	82.194	64.904	19.111	2.5465e-05	26.666	113.220	163.291	175.278	100.184	225.917	226.743	100.075	107.648	243.302	255.753	107.543	114.066	114.787	121.624	240.261	121.443	-8191	255	
2601.380	1	1	0	0	0.16308	0.11606	0.11063	0.24692	0.079351	0.076769	0.20541	0.18759	0.1046	0.16109	0.12452	0.13501	0.19197	0.37042	0.17039	0.25082	-2.7854	-2.1063	-2.8583	-2.7542	-2.2771	-2.9729	-2.4708	-2.4146	-3.0875	-2.4437	-2.9583	-2.6875	-2.2458	-3.1021	-2.4917	-2.5708	427.853	236.244	211.789	408.285	430.116	430.801	445.796	227.056	358.861	417.247	307.581	433.669	391.734	364.069	357.116	448.465	0.0006181	0.00034348	0.00017966	1102.1	3.9988e-06	3.165e-06	1193.2	233.91	6.4399e-06	1.7127e-06	291.8	80.917	63.815	18.403	3.8494e-06	25.603	0.0015008	0.0024845	0.00071849	1099	2.3851e-05	2.837e-05	1192.6	234.86	2.3882e-05	2.938e-05	296.22	82.081	65.085	19.067	2.5298e-05	26.678	99.180	167.249	177.293	100.030	249.295	226.867	100.085	107.814	242.259	247.368	107.479	114.245	114.445	121.594	119.730	120.737	-8191	255	
2601.476	1	1	0	0	0.15856	0.2309	0.21195	0.15639	0.26191	0.23487	0.090985	0.32679	0.41774	0.28111	0.14468	0.17086	0.14	0.19354	0.3618	0.029629	-2.7042	-2.1396	-2.6979	-2.8937	-2.1437	-2.9188	-2.5687	-2.3292	-3.0167	-2.3104	-2.7104	-3.025	-2.0604	-3.0646	-2.6417	-2.3021	250.664	131.880	400.884	92.648	322.142	141.187	285.200	358.267	417.655	425.409	433.695	317.212	427.530	315.743	173.795	225.591	0.00055363	0.00018612	8.636e-05	1099.2	5.6068e-06	2.6564e-06	1196.7	233.62	6.9393e-06	5.0014e-06	292.41	80.571	63.561	18.375	8.5543e-07	25.773	0.0015132	0.0025256	0.0007077	1097.8	2.5114e-05	2.942e-05	1193	234.56	2.4805e-05	2.948e-05	296.57	81.911	64.937	19.115	2.5375e-05	26.729	106.716	230.020	167.995	100.212	186.133	264.292	100.200	108.253	233.591	244.121	107.060	113.995	114.406	121.614	368.510	120.879	-8191	255	
2601.572	1	1	0	0	0.090369	0.13809	0.13574	0.19785	0.027478	0.12346	0.11932	0.26235	0.23892	0.19821	0.087622	0.12333	0.3836	0.14557	0.20152	0.19872	-2.7938	-2.3083	-2.6083	-3.0292	-2.0792	-2.9042	-2.7375	-2.3542	-3.1083	-2.3583	-2.6229	-3.0167	-2.3375	-2.9437	-2.6854	-2.2667	254.517	214.255	312.788	413.365	254.502	171.860	121.943	359.420	247.067	327.887	385.044	402.413	394.960	183.722	142.055	424.130	0.00060457	0.00015291	0.00010599	1100.6	3.9103e-06	2.2978e-06	1193	233.53	1.4499e-06	4.5553e-06	292.63	81.047	63.761	18.519	3.4291e-06	25.65	0.001503	0.0025577	0.0006974	1099.3	2.4982e-05	2.8935e-05	1190.6	235.04	2.4321e-05	2.8697e-05	296.54	82.109	64.791	19.141	2.5361e-05	26.641	106.251	171.331	191.687	100.216	242.289	205.522	100.352	107.854	209.795	209.350	107.127	113.834	114.572	121.800	234.858	121.164	-8191	255	
2601.692	1	1	0	0	0.12353	0.24477	0.33836	0.24318	0.063338	0.082837	0.25245	0.22117	0.11934	0.32151	0.1307	0.20935	0.077037	0.18315	0.059499	0.040201	-2.7854	-2.5771	-2.4083	-3.3187	-2.2875	-2.9104	-2.9875	-2.4271	-3.1937	-2.4458	-2.4292	-3.1042	-2.3833	-2.8271	-2.9375	-2.2771	239.493	127.591	351.176	364.791	179.104	262.440	424.311	351.685	437.919	99.455	162.680	391.092	269.841	363.896	133.664	199.755	0.00054372	0.00043746	7.7863e-05	1103.6	4.956e-06	3.06e-06	1194	232.6	3.0831e-06	5.1609e-06	295.45	80.999	64.061	18.221	2.1068e-06	25.78	0.0014803	0.0025025	0.00068626	1099.1	2.4518e-05	2.8112e-05	1191.9	234.75	2.4004e-05	2.7379e-05	297.72	82.122	65.028	18.998	2.5297e-05	26.707	112.219	171.515	150.968	100.257	227.912	253.025	100.151	107.808	185.333	232.822	107.248	113.905	114.636	122.237	214.815	120.587	-8191	255	
2601.787	1	1	0	0	0.075657	0.13537	0.27303	0.27572	0.20181	0.33974	0.27991	0.11926	0.049807	0.1571	0.14615	0.29691	0.091407	0.19634	0.19922	0.041215	-2.8187	-2.5479	-2.4833	-3.1604	-2.2896	-2.7979	-2.9938	-2.1792	-2.9771	-2.6333	-2.5521	-3.3208	-2.3917	-2.7188	-2.9458	-2.2938	139.805	354.748	110.481	422.174	268.698	184.099	296.834	435.936	380.355	409.420	104.849	441.095	385.447	346.670	196.724	276.256	0.00053159	0.00042061	0.00010262	1099.8	4.2436e-06	5.8228e-06	1198.5	232.94	5.483e-06	1.8471e-06	292.99	80.833	63.517	18.403	4.2839e-06	25.543	0.0014742	0.0024733	0.00071025	1098.4	2.4471e-05	2.7787e-05	1191.6	234.99	2.3992e-05	2.8173e-05	296.89	82.267	64.945	19.056	2.5178e-05	26.613	105.845	166.678	142.088	100.481	252.606	229.904	100.096	107.809	210.515	279.703	107.388	114.423	114.740	121.718	225.022	120.802	-8191	255	
2601.883	1	1	0	0	0.30635	0.20847	0.0343	0.33291	0.25628	0.11195	0.18722	0.10083	0.17491	0.14748	0.30094	0.15062	0.38255	0.23512	0.012818	0.13921	-2.6562	-2.7625	-2.2917	-3.2896	-2.4604	-2.4458	-3.0604	-2.5104	-2.9771	-2.7562	-2.2188	-2.9354	-2.4708	-2.6125	-3.1042	-2.3125	184.297	392.152	275.585	438.297	264.279	216.016	407.056	407.379	286.996	446.995	397.373	356.909	179.166	176.692	170.327	278.822	0.00060342	0.00026817	5.2607e-05	1101.2	4.5794e-06	5.3206e-06	1191.9	233.23	1.7056e-06	6.3483e-06	293.8	80.618	63.996	18.456	4.3946e-06	25.717	0.0014576	0.0024785	0.00068531	1101.2	2.5106e-05	2.8543e-05	1190.7	234.74	2.4297e-05	2.8453e-05	297.11	82.027	64.878	19.11	2.5981e-05	26.704	112.401	134.656	208.140	100.299	202.621	253.056	100.010	107.927	238.877	236.099	107.406	114.085	114.147	121.657	200.732	120.751	-8191	255	
2601.979	1	1	0	0	0.20582	0.31429	0.12188	0.060319	0.23269	0.026319	0.22522	0.089639	0.081868	0.14018	0.21445	0.099753	0.20436	0.27084	0.058451	0.10532	-2.3	-2.7542	-2.1771	-3.2062	-2.5312	-2.2833	-3.2396	-2.2062	-2.8354	-3.0354	-2.4042	-3.0146	-2.7062	-2.3875	-3.0958	-2.3979	243.231	297.651	185.062	363.124	143.572	95.413	403.006	425.083	439.826	411.888	98.738	165.864	439.004	410.922	448.479	388.575	0.00058368	0.00027447	0.00012457	1103.4	4.5893e-06	6.8073e-06	1195.1	234.84	5.4031e-06	2.9452e-06	293.28	80.92	63.305	18.578	4.108e-06	25.762	0.0014914	0.0025198	0.00070668	1099.9	2.4185e-05	2.8776e-05	1191.4	234.87	2.4159e-05	2.7758e-05	296.4	82.238	64.706	19.101	2.5548e-05	26.606	110.939	257.079	199.732	100.268	231.068	256.050	99.809	107.737	255.729	231.956	107.093	114.313	114.607	121.941	256.129	120.999	-8191	255	
2602.075	1	1	0	0	0.2911	0.22813	0.35401	0.18872	0.15377	0.27778	0.28132	0.039562	0.14602	0.067957	0.086637	0.18198	0.07284	0.13634	0.30606	0.10039	-2.3229	-2.8688	-2.0604	-3.0042	-2.5146	-2.4271	-3.3021	-2.5458	-2.6437	-3.0062	-2.0875	-2.9125	-2.5958	-2.4062	-2.9896	-2.2333	111.502	335.690	172.648	425.978	186.711	326.488	375.703	134.430	423.322	238.706	404.098	220.479	174.690	113.653	267.757	406.888	0.00060678	0.0002452	0.00012141	1098.9	3.9223e-06	3.8974e-06	1197.1	232.92	3.4864e-06	4.3283e-06	294.03	80.704	63.765	18.31	1.5354e-06	25.542	0.0014686	0.002449	0.00071606	1099.6	2.3501e-05	2.8671e-05	1192.7	234.34	2.4132e-05	2.8169e-05	297.77	81.931	64.825	19.085	2.5049e-05	26.564	111.602	207.408	204.251	100.144	225.575	203.987	99.960	107.731	192.666	269.541	107.116	114.345	114.305	121.736	242.468	121.008	-8191	255	
2602.171	1	1	0	0	0.22248	0.1039	0.15314	0.31841	0.20923	0.24825	0.43492	0.13547	0.033805	0.053149	0.18018	0.16862	0.27557	0.17139	0.22238	0.11495	-2.1562	-2.9542	-2.175	-2.9188	-2.8583	-2.2625	-3.1063	-2.6375	-2.5458	-3.0083	-2.2062	-2.6917	-2.85	-2.2229	-3.0917	-2.2938	397.715	184.975	162.348	372.638	167.828	155.318	374.427	446.103	406.014	147.021	399.099	98.330	94.555	144.843	222.840	122.422	0.00065856	0.00035244	9.2738e-05	1102.9	2.0357e-06	3.8986e-06	1194.1	233.56	5.6132e-06	2.5241e-06	293.67	80.724	63.841	18.254	3.0124e-06	25.836	0.0015091	0.002458	0.00070547	1100	2.3632e-05	2.8417e-05	1190.9	234.79	2.3704e-05	2.8398e-05	297	82.003	64.894	19.025	2.5124e-05	26.677	108.265	211.721	185.191	100.349	263.649	219.405	100.269	107.813	217.553	214.696	107.288	113.815	114.061	122.015	279.609	120.953	-8191	255	
2602.292	1	1	0	0	0.0994	0.17576	0.095601	0.32693	0.079217	0.088323	0.14915	0.19234	0.20885	0.20143	0.02782	0.19605	0.23406	0.066333	0.059321	0.1864	-2.0292	-3.0208	-2.2854	-2.9771	-3.0146	-2.2	-3.2167	-2.6604	-2.2229	-3.0458	-2.4542	-2.7708	-2.9083	-2.4188	-2.85	-2.7396	120.844	219.764	353.006	409.299	111.151	420.915	399.780	304.327	137.588	174.357	409.379	296.606	430.762	231.327	374.533	404.334	0.00057339	0.00010737	6.4767e-05	1099.2	3.0494e-06	4.1814e-06	1192.1	232.45	4.1956e-06	3.4244e-06	291.47	80.327	63.739	18.355	3.5206e-07	25.769	0.0014514	0.002435	0.00069171	1098.9	2.4577e-05	2.8417e-05	1191.6	234.54	2.3828e-05	2.8306e-05	295.95	81.9	64.904	19.098	2.5647e-05	26.608	98.973	284.876	98.263	100.479	229.513	258.817	100.377	107.768	226.559	243.743	107.288	114.417	114.517	121.516	275.878	120.752	-8191	255	
2602.388	1	1	0	0	0.21608	0.15065	0.036111	0.13487	0.057352	0.27976	0.43158	0.029572	0.23281	0.22538	0.096098	0.35267	0.16497	0.19391	0.085284	0.20768	-1.9208	-2.9167	-2.3042	-2.4979	-2.8187	-2.1042	-3.1	-2.7396	-2.0875	-3.0771	-2.4938	-2.3958	-2.8583	-2.0833	-2.9188	-2.7771	445.554	330.925	415.463	373.122	409.220	149.966	385.725	266.823	344.810	308.469	342.914	381.677	440.549	215.471	400.713	166.209	0.00053453	0.00029895	0.0001036	1103.2	2.491e-06	3.9086e-06	1192.5	233.88	2.9817e-06	3.0308e-06	293.17	81.156	63.789	18.372	2.518e-06	25.712	0.0014684	0.0025139	0.00071646	1099.4	2.4452e-05	2.8597e-05	1192.8	234.78	2.4108e-05	2.9036e-05	296.03	82.08	64.884	19.043	2.5212e-05	26.632	110.534	193.779	208.825	100.333	225.823	280.271	100.181	107.467	240.851	271.508	107.417	113.983	114.394	121.442	205.559	120.826	-8191	255	
2602.484	1	1	0	0	0.064641	0.15835	0.25958	0.21536	0.075024	0.14833	0.083106	0.20787	0.27138	0.0081356	0.29242	0.18321	0.14914	0.19055	0.10614	0.13338	-1.7542	-3.0896	-2.1917	-2.5604	-3.0542	-2.2812	-2.9062	-2.9479	-2.1521	-3.0292	-2.4021	-2.4792	-3.0021	-2.2896	-2.5583	-2.8542	213.046	438.745	205.557	391.823	350.701	367.784	374.559	438.809	200.838	241.835	96.530	406.919	196.773	333.917	281.319	279.047	0.00064397	0.00039219	8.2261e-05	1102.1	4.6842e-06	4.3122e-06	1196.1	232.75	5.842e-06	3.9468e-06	291.28	80.913	63.361	18.347	1.9329e-06	25.549	0.0015142	0.0025327	0.00072148	1099	2.423e-05	2.8567e-05	1191.7	234.36	2.4542e-05	2.8535e-05	296.8	82.073	64.698	19.031	2.5268e-05	26.655	108.516	192.065	187.484	100.324	232.204	285.314	100.301	107.978	277.415	287.472	107.102	114.329	114.353	122.168	209.658	120.525	-8191	255	
2602.581	1	1	0	0	0.10699	0.12881	0.050524	0.16656	0.032808	0.29026	0.3074	0.28806	0.22993	0.16803	0.16642	0.1732	0.060676	0.085618	0.15263	0.13535	-1.8896	-2.8208	-2.4708	-2.3208	-3.0417	-2.3979	-2.675	-2.8854	-2.2167	-3.0479	-2.8646	-2.3083	-3.2188	-2.3875	-2.5375	-2.9354	410.754	309.473	335.573	422.767	391.027	251.860	425.857	119.962	366.766	350.839	394.869	112.728	330.165	123.784	327.842	94.111	0.0005419	0.00034366	3.0906e-05	1101.8	2.9696e-06	3.805e-06	1191.3	232.66	4.5033e-06	4.9602e-06	293.54	80.942	63.761	18.423	6.3714e-06	25.719	0.0015035	0.002478	0.00069659	1098.8	2.4185e-05	2.8721e-05	1191.4	234.37	2.434e-05	2.7907e-05	297.17	82.007	64.933	19.048	2.4892e-05	26.646	103.217	138.382	169.722	100.510	232.398	217.611	100.245	108.100	286.866	289.900	107.262	113.965	114.484	121.774	238.637	120.778	-8191	255	
2602.652	1	1	0	0	0.15192	0.2169	0.059667	0.087949	0.25369	0.10866	0.0077165	0.47808	0.12673	0.24009	0.24118	0.31014	0.080363	0.31857	0.086208	0.097111	-1.7375	-2.925	-2.5292	-2.425	-3.0729	-2.5125	-2.7208	-3.15	-2.2	-2.8125	-3.0083	-2.25	-3.1208	-2.5396	-2.5167	-3.1625	234.736	333.966	144.039	254.497	213.595	394.035	220.986	93.015	276.862	234.232	402.138	267.844	256.623	96.472	183.580	415.266	0.00058321	0.00062453	0.00013102	1103.2	3.8287e-06	3.46e-06	1190.2	232.83	5.3487e-06	3.9321e-06	290.42	81.242	64.238	18.361	5.1396e-06	25.723	0.0014826	0.0025302	0.00070312	1100	2.4647e-05	2.8797e-05	1192.1	234.24	2.414e-05	2.8413e-05	295.5	82.343	65.013	19.028	2.4746e-05	26.673	103.924	197.334	216.470	100.377	237.129	219.174	100.287	107.743	206.374	250.717	107.557	114.364	114.393	121.719	249.887	120.815	-8191	255	
2602.771	1	1	0	0	0.11801	0.15279	0.21396	0.34917	0.073958	0.16502	0.23056	0.090792	0.1168	0.19947	0.13626	0.18564	0.09744	0.14234	0.25417	0.054957	-1.8292	-2.6979	-2.6646	-2.1562	-2.975	-2.6021	-2.4479	-3.0938	-2.3042	-2.6167	-3.1021	-2.0958	-3.0563	-2.3646	-2.2125	-3.1688	431.363	265.274	306.443	397.393	374.082	406.062	353.735	310.789	208.468	151.229	435.306	213.583	166.065	422.747	379.960	317.587	0.00057102	0.00037145	0.00010551	1101.8	4.5206e-06	2.5172e-06	1194.3	234.33	6.6557e-06	7.2153e-06	292.15	80.671	64.23	18.446	4.6228e-06	25.627	0.0014795	0.0024863	0.00068658	1098.1	2.4634e-05	2.8869e-05	1191.7	234.93	2.4163e-05	2.8476e-05	296.7	82.036	65.062	19.058	2.5404e-05	26.713	108.043	188.863	136.792	100.276	217.561	222.870	100.098	108.159	221.017	229.322	106.942	114.019	114.784	121.776	221.750	121.233	-8191	255	
2602.867	1	1	0	0	0.063526	0.17694	0.1478	0.17801	0.071833	0.035819	0.25194	0.27012	0.18086	0.14993	0.063753	0.15582	0.21395	0.39546	0.14824	0.015323	-2.0479	-2.7125	-3.0375	-2.35	-2.9583	-2.6083	-2.4771	-3.1521	-2.4896	-2.5646	-3.1562	-2.3187	-3.0125	-2.7375	-2.1063	-2.9167	246.559	400.078	94.257	91.925	219.939	386.904	431.362	91.422	209.766	346.196	274.956	431.706	428.482	449.599	276.020	170.705	0.00065202	0.00043668	0.00010766	1102.7	3.5649e-06	3.0419e-06	1194.7	233.51	5.5564e-06	3.7217e-06	293.2	80.954	63.751	18.423	3.3701e-06	25.624	0.0014906	0.0024622	0.00069602	1098.7	2.3948e-05	2.7928e-05	1192.2	234.42	2.4202e-05	2.7749e-05	296.86	82.335	64.811	19.03	2.6057e-05	26.625	111.066	188.213	203.770	100.160	236.228	293.795	100.156	107.925	237.844	276.944	107.173	114.150	114.474	121.145	251.706	121.172	-8191	255	
2602.963	1	1	0	0	0.16755	0.24913	0.2538	0.24766	0.20741	0.15009	0.31035	0.19346	0.1427	0.049497	0.34333	0.07529	0.1855	0.10034	0.32062	0.044313	-2.0312	-2.3958	-3.05	-2.4562	-2.8167	-2.875	-2.3104	-2.9437	-2.3583	-2.3	-3.1437	-2.3958	-2.6875	-3	-2.2104	-2.9688	379.251	250.637	408.929	405.028	231.243	358.199	365.723	324.874	421.896	228.279	380.045	125.913	384.370	272.085	248.860	341.341	0.00054209	5.4171e-05	8.5038e-05	1102.3	2.9732e-06	2.918e-06	1190.1	232.64	5.7046e-06	3.7426e-06	291.42	81.256	63.796	18.452	4.0063e-06	25.808	0.0014957	0.0025272	0.00071279	1101.1	2.5608e-05	2.9451e-05	1191.7	234.22	2.4784e-05	2.9454e-05	296.62	82.321	64.948	19.081	2.6562e-05	26.623	101.818	292.285	202.140	100.369	246.924	228.728	100.182	107.933	219.984	241.992	107.312	114.537	114.415	122.041	200.616	121.079	-8191	255	
2603.084	1	1	0	0	0.2011	0.27371	0.1723	0.14304	0.18401	0.18788	0.076781	0.29408	0.060898	0.17602	0.2437	0.077885	0.062768	0.014651	0.26599	0.16	-2.0896	-2.475	-3.2292	-2.5687	-2.6375	-2.9354	-2.5292	-2.9208	-2.5875	-2.4292	-3.2042	-2.3312	-2.4625	-2.9208	-2.1937	-2.9479	399.539	252.523	394.161	108.511	144.992	320.821	414.767	233.684	352.542	136.933	445.626	161.121	105.922	324.494	350.350	94.811	0.00060246	0.00050044	0.00010609	1102.8	4.9024e-06	5.1404e-06	1194.9	232.25	6.6726e-06	4.365e-06	294.22	80.355	63.821	18.512	5.6999e-06	25.638	0.0015173	0.0025219	0.00071553	1098.9	2.4247e-05	2.8652e-05	1192.7	234.26	2.464e-05	2.8893e-05	296.77	81.995	64.836	19.066	2.5786e-05	26.643	104.762	177.432	227.624	100.344	222.536	253.316	100.163	108.062	243.145	233.140	107.412	114.096	113.740	121.321	193.911	121.212	-8191	255	
2603.180	1	1	0	0	0.067692	0.095027	0.20466	0.30039	0.047458	0.22845	0.23041	0.25907	0.1135	0.19202	0.024556	0.24048	0.04076	0.16231	0.15021	0.11592	-2.4542	-2.225	-2.9437	-2.3833	-2.5708	-3.1208	-2.5187	-2.9333	-2.8021	-2.0979	-3.0812	-2.5854	-2.4729	-3.025	-2.1896	-2.6458	263.558	203.191	419.894	416.273	366.696	386.815	344.464	388.573	275.281	285.338	222.895	391.139	375.643	449.852	146.683	227.328	0.00053006	0.00040028	6.6477e-05	1101.3	2.8081e-06	3.9953e-06	1195	232.81	8.289e-06	5.5749e-06	292.36	80.669	63.592	18.499	4.4403e-06	25.54	0.0014701	0.0025615	0.00071141	1099.9	2.462e-05	2.9149e-05	1192.8	234.32	2.4875e-05	2.9377e-05	297.31	82.154	64.795	19.113	2.5884e-05	26.651	110.111	158.465	233.631	100.257	240.765	223.136	100.069	107.915	249.955	287.528	107.420	113.999	114.582	121.903	200.439	120.647	-8191	255	
2603.252	1	1	0	0	0.11119	0.08546	0.23823	0.32356	0.10446	0.052762	0.10639	0.2651	0.22439	0.14254	0.25127	0.18448	0.10306	0.089837	0.010718	0.13199	-2.3729	-2.2083	-3.0167	-2.9062	-2.5833	-3.1104	-2.2438	-2.8812	-2.9667	-2.2521	-2.9521	-2.9375	-2.325	-3.0083	-2.1083	-2.6896	435.720	444.066	353.118	353.638	402.946	204.814	201.630	321.299	438.675	261.178	167.501	368.873	299.815	438.924	245.849	279.182	0.00065368	0.00013484	2.2306e-05	1102.6	3.0293e-06	3.0925e-06	1195.2	233.75	4.9187e-06	5.209e-06	292.94	80.435	63.587	18.445	6.2251e-06	25.584	0.001493	0.0024921	0.00071167	1100.3	2.4444e-05	2.9082e-05	1191.8	234.75	2.3934e-05	2.8573e-05	296.92	81.969	64.764	19.072	2.6114e-05	26.631	111.782	447.188	141.129	100.288	201.316	187.086	100.242	108.247	242.879	266.750	107.628	114.134	114.601	121.718	224.411	120.970	-8191	255	
2603.372	1	1	0	0	0.14676	0.23807	0.066562	0.29305	0.14285	0.1354	0.31156	0.14942	0.20843	0.21683	0.089695	0.15485	0.18186	0.051475	0.17489	0.096463	-2.7958	-2.1979	-2.9146	-2.75	-2.4396	-3.0708	-2.4938	-2.7062	-3.0042	-2.1896	-2.8667	-2.8333	-2.4333	-3.0563	-2.4417	-2.5812	210.164	286.320	435.569	403.425	304.825	280.343	422.239	419.199	360.525	101.115	261.649	448.798	199.846	126.487	105.200	275.585	0.00060244	0.00033134	9.2721e-05	1100	3.7964e-07	4.5166e-06	1194.6	232.8	2.7965e-06	2.6189e-06	294.49	81.051	64.29	18.412	4.8973e-06	25.263	0.0014882	0.0025291	0.00070868	1098.9	2.4564e-05	2.9191e-05	1191.5	234.84	2.3887e-05	2.8166e-05	297.09	81.977	65.105	19.093	2.5406e-05	26.447	106.469	232.181	135.766	100.394	255.200	234.631	100.175	108.196	210.447	239.247	107.029	114.071	114.688	121.783	229.782	121.294	-8191	255	
2603.469	1	1	0	0	0.21189	0.12566	0.24548	0.07191	0.3703	0.39184	0.20673	0.056217	0.22518	0.2086	0.24519	0.075898	0.22131	0.14058	0.32306	0.24058	-2.5396	-2.1083	-2.8021	-3	-2.1417	-2.9813	-2.6437	-2.5604	-3.2229	-2.2687	-2.7812	-2.7958	-2.3167	-3.0625	-2.5854	-2.4229	233.807	336.657	155.189	98.869	391.944	352.538	277.395	144.143	334.095	107.422	299.473	318.862	116.023	404.822	106.993	297.244	0.00060658	0.00037438	3.6603e-05	1097.9	5.3639e-06	2.6789e-06	1191.2	232.63	5.8425e-06	3.9166e-06	293.01	80.835	63.022	18.355	5.2507e-06	25.654	0.001453	0.0025128	0.00066883	1097.6	2.4475e-05	2.8257e-05	1190.2	234.15	2.3698e-05	2.8447e-05	296.22	82.11	64.616	19.059	2.5386e-05	26.602	105.154	180.304	144.289	100.337	194.572	255.903	100.014	108.190	214.544	270.532	107.444	114.014	114.440	121.634	242.238	121.018	-8191	255	
2603.565	1	1	0	0	0.27093	0.17297	0.25829	0.2606	0.19908	0.22366	0.10508	0.068777	0.12302	0.077865	0.1843	0.32918	0.08378	0.21587	0.15739	0.14225	-2.7104	-2.3292	-2.4854	-2.9729	-2.2125	-3.2229	-2.8979	-2.4562	-3.0979	-2.4208	-2.6771	-3.0875	-1.9875	-2.8458	-2.8146	-2.3667	377.218	414.537	253.713	385.357	268.759	380.253	442.363	368.893	314.476	375.969	407.958	397.371	431.940	394.812	424.734	112.563	0.00060995	0.00025397	0.00011658	1105.5	4.4471e-06	1.5043e-06	1191.2	233.5	4.8599e-06	3.3751e-06	293.39	80.963	63.865	18.319	1.6505e-06	25.768	0.0014798	0.0025203	0.00069017	1099.8	2.4524e-05	2.7978e-05	1190.9	234.57	2.3978e-05	2.7957e-05	296.34	81.91	64.801	19.002	2.5384e-05	26.672	111.424	167.483	178.597	100.245	225.119	232.612	100.357	107.968	243.598	227.698	106.994	113.843	114.454	121.713	247.811	120.980	-8191	255	
2603.684	1	1	0	0	0.24625	0.11101	0.15359	0.081276	0.14555	0.12682	0.18085	0.082821	0.16507	0.22615	0.41772	0.17045	0.26003	0.25531	0.23657	0.1263	-2.6188	-2.3146	-2.2313	-3.1792	-2.1667	-2.8875	-2.9604	-2.1375	-3.1854	-2.2958	-2.5417	-3.0083	-2.1771	-2.7917	-2.725	-2.175	376.112	426.745	377.264	353.304	307.065	263.925	422.913	358.776	93.156	132.828	303.126	365.432	336.400	332.444	137.631	376.879	0.00058555	0.0004456	0.00011323	1098.6	5.3668e-06	2.6198e-06	1197.5	233.03	4.7486e-06	2.2527e-06	293.4	80.917	63.319	18.361	3.9126e-06	25.532	0.0014465	0.0024415	0.0006981	1098.8	2.3981e-05	2.8122e-05	1192.4	235.13	2.4072e-05	2.7893e-05	296.88	82.154	64.621	19.034	2.5052e-05	26.581	110.615	158.894	214.827	100.260	230.848	239.872	100.186	108.051	253.196	243.567	107.132	113.964	114.410	121.796	281.104	120.948	-8191	255	
2603.780	1	1	0	0	0.11571	0.094666	0.063033	0.43061	0.14551	0.076647	0.053276	0.19474	0.053799	0.11713	0.043434	0.11465	0.086412	0.23522	0.16402	0.34473	-2.6292	-2.575	-2.4271	-3.2792	-2.3187	-2.6729	-3.1604	-2.1292	-2.85	-2.4375	-2.2979	-3.1562	-2.4208	-2.6729	-3.0458	-2.3729	134.974	92.554	362.365	339.712	362.167	95.613	123.338	348.292	245.081	135.849	365.007	105.874	364.469	325.448	319.026	213.426	0.00059993	0.00032305	8.6613e-05	1102	6.2978e-06	5.1719e-06	1190.8	232.82	4.8889e-06	4.3609e-06	292.01	81.441	64.175	18.41	2.3412e-06	25.465	0.0014895	0.0025122	0.00069631	1100.4	2.4293e-05	2.807e-05	1191	234.1	2.4203e-05	2.7772e-05	296.42	82.215	64.968	19.036	2.4925e-05	26.609	112.744	173.535	213.062	100.454	212.329	258.618	100.147	107.997	209.452	246.324	107.472	114.157	114.573	121.997	250.237	120.824	-8191	255	
2603.876	1	1	0	0	0.18668	0.089145	0.078813	0.43333	0.073078	0.15831	0.17392	0.23346	0.1048	0.12219	0.18854	0.20727	0.082316	0.17785	0.096773	0.039449	-2.5563	-2.6021	-2.1188	-3.1375	-2.2438	-2.6083	-3.1875	-2.0875	-2.8958	-2.6354	-2.3875	-2.9667	-2.3542	-2.4417	-3.1271	-2.0979	139.013	117.310	157.288	387.580	284.073	221.802	365.839	406.019	171.037	287.141	386.523	201.534	325.855	358.513	273.050	411.811	0.00063024	0.00051231	0.00010861	1095.8	4.5602e-06	2.073e-06	1190.5	232.87	3.4063e-06	1.5771e-06	293.7	80.786	64.222	18.329	4.8225e-06	25.548	0.0014787	0.002509	0.00070251	1098	2.4161e-05	2.8742e-05	1190.8	234.21	2.4467e-05	2.8072e-05	296.3	81.786	65.047	19.008	2.5325e-05	26.61	109.849	173.619	174.339	100.499	222.678	202.416	100.422	107.909	258.064	261.782	107.322	114.107	114.353	121.935	228.662	121.108	-8191	255	
2603.948	1	1	0	0	0.029363	0.10799	0.22987	0.16566	0.20791	0.25516	0.31417	0.28481	0.17717	0.19447	0.24009	0.34334	0.28224	0.25712	0.089163	0.25187	-2.5708	-2.7771	-2.0875	-3.0958	-2.3125	-2.3917	-3.1521	-2.2354	-2.7208	-3.0187	-2.125	-3.0021	-2.4875	-2.3771	-3.0354	-2.025	277.429	151.371	159.785	385.878	143.795	163.398	372.552	326.724	273.284	415.310	368.152	92.497	345.239	94.214	204.737	334.164	0.00057317	0.00028661	8.5036e-05	1099.7	2.2667e-06	2.3294e-06	1188.6	232.39	2.6054e-06	6.2496e-06	291.05	80.866	63.902	18.498	3.0603e-06	25.662	0.0014872	0.0025113	0.00069513	1099.6	2.4765e-05	2.8391e-05	1190	233.92	2.4534e-05	2.8322e-05	295.8	82.222	64.826	19.087	2.5274e-05	26.638	110.023	116.289	185.330	100.426	247.750	244.458	100.482	107.901	238.499	281.074	107.312	114.244	114.607	121.611	265.757	121.006	-8191	255	
2604.068	1	1	0	0	0.11579	0.060833	0.28945	0.16398	0.27357	0.12771	0.13774	0.24621	0.091796	0.10831	0.08452	0.15515	0.15808	0.12989	0.25028	0.23248	-2.3875	-2.8917	-2.0438	-3.1229	-2.4688	-2.2396	-3.2938	-2.3729	-2.7479	-3	-2.3542	-3.0563	-2.7229	-2.1542	-2.9979	-2.3042	428.608	320.925	411.351	394.064	400.574	219.359	92.452	389.796	401.089	357.178	325.737	133.553	355.083	348.038	247.361	98.726	0.00058008	0.00035732	5.5011e-05	1098.5	3.8617e-06	3.4169e-06	1193.7	232.66	5.1249e-06	3.4288e-06	291.11	81.036	63.63	18.512	3.8747e-06	25.609	0.0014893	0.0024785	0.0007027	1098.3	2.4505e-05	2.8622e-05	1191.3	234.17	2.4329e-05	2.796e-05	295.98	82.087	64.889	19.1	2.5712e-05	26.588	112.103	140.709	208.168	100.097	263.483	218.494	100.312	107.725	220.982	252.364	107.293	113.801	114.389	121.651	227.208	121.262	-8191	255	
2604.164	1	1	0	0	0.18023	0.14315	0.26318	0.23684	0.11565	0.2236	0.2836	0.2185	0.27563	0.24174	0.18175	0.22436	0.33228	0.033302	0.11744	0.055849	-2.1125	-2.8771	-2.0667	-2.8729	-2.6833	-2.0604	-3.2708	-2.4792	-2.3458	-3.0062	-2.2104	-2.9875	-2.9646	-2.1604	-2.9813	-2.4917	324.828	360.823	343.748	387.817	348.512	146.052	384.898	286.154	369.986	273.293	375.265	343.314	372.654	236.077	97.643	177.218	0.00052404	0.00013013	5.7096e-05	1104.2	6.1083e-06	7.2104e-07	1191.7	233.87	1.4553e-06	1.5154e-06	290.58	80.922	64.069	18.432	6.7584e-06	25.702	0.0014601	0.0024828	0.00072657	1099.3	2.4285e-05	2.9578e-05	1190	234.98	2.4105e-05	2.7652e-05	296.05	81.809	64.861	19.021	2.6265e-05	26.638	104.566	172.922	221.381	100.323	230.952	276.104	100.199	107.824	251.348	258.009	107.331	113.926	114.638	121.834	211.625	121.364	-8191	255	
2604.261	1	1	0	0	0.3035	0.3355	0.097096	0.34617	0.068703	0.26469	0.19019	0.12291	0.076253	0.22788	0.3081	0.22789	0.17709	0.089875	0.034451	0.068802	-2.0479	-3.0625	-2.0375	-2.9833	-2.7417	-2.175	-3.1312	-2.5667	-2.425	-2.8229	-2.2917	-2.7958	-2.8833	-2.2979	-2.8583	-2.6292	256.691	428.988	334.634	358.737	397.033	435.215	289.645	377.163	321.001	173.002	416.031	427.379	285.207	150.890	125.977	387.132	0.00057094	0.00036892	3.5263e-05	1099.8	6.7435e-06	1.9117e-06	1196.9	233.62	6.8374e-06	2.9975e-06	293.66	81.085	63.876	18.38	3.2845e-06	25.563	0.0014788	0.0025262	0.00071167	1099.4	2.4612e-05	2.9309e-05	1192.2	235.1	2.443e-05	2.8495e-05	296.43	82.028	64.782	19.048	2.5565e-05	26.562	109.130	206.473	194.101	100.394	227.890	213.547	100.267	107.716	235.243	218.941	107.167	114.305	114.308	121.949	250.087	120.703	-8191	255	
2604.357	1	1	0	0	0.26916	0.098257	0.020468	0.17132	0.17136	0.36708	0.05328	0.26921	0.19957	0.18605	0.047947	0.06036	0.29097	0.1409	0.26269	0.13995	-1.8896	-3.0271	-2.4437	-2.7167	-3.0208	-2.0354	-3.0208	-2.675	-2.3833	-3.0104	-2.4625	-2.5521	-2.9688	-2.3312	-2.9229	-2.7167	272.845	409.682	405.307	425.384	163.019	295.537	405.383	449.118	186.264	264.195	445.430	375.948	189.824	115.026	329.298	356.258	0.00054855	8.3545e-05	0.00013387	1100.9	3.449e-06	3.4224e-06	1196.8	232.9	3.8415e-06	2.7186e-06	290.37	80.457	62.971	18.289	2.5074e-06	25.662	0.0014898	0.0024486	0.00070268	1098.1	2.4215e-05	2.9358e-05	1191.9	234.22	2.4355e-05	2.8613e-05	295.41	81.961	64.558	19.022	2.5297e-05	26.694	117.942	204.700	173.250	100.321	243.848	297.367	100.568	107.896	199.252	217.405	107.443	113.923	114.133	121.639	283.665	121.172	-8191	255	
#DATA ENDS
