BOXY.EXE: ISS Imagent and Oximeter Data Acquisition Program Version 0.80
Ascii Record File

#ACQ INFORMATION
2  Detector Channels 
16  External MUX Channels 
1  Auxiliary Channels 
5000  Waveform (CCF) Frequency (Hz)
1  Waveforms Skipped 
30  Waveforms Averaged 
1  Cycles Averaged 
16  Acquisitions per Waveform 
10.0806  Updata Rate (Hz) 

#FILE INFORMATION
TRUE -- External MUX Channel results are PARSED.
FALSE -- AC DC and Phase are NOT grouped.
TRUE -- Companion Program Settings File CREATED.
FALSE -- AC data not excluded
FALSE -- DC data not excluded
FALSE -- Phase data not excluded
FALSE -- Auxillary Chn. data not excluded
Tab delimiters

#CALIBRATION STATE
TRUE -- Waveform Calibration Values APPLIED.


#AUX CALIBRATION VALUES
Val Type	aux-1	

Term	1.0000e+00	
Factor	0.0000e+00	


#WF CALIBRATION VALUES
A = Detector Channel
Val Type	A-AC1	A-AC2	A-AC3	A-AC4	A-AC5	A-AC6	A-AC7	A-AC8	A-AC9	A-AC10	A-AC11	A-AC12	A-AC13	A-AC14	A-AC15	A-AC16	A-DC1	A-DC2	A-DC3	A-DC4	A-DC5	A-DC6	A-DC7	A-DC8	A-DC9	A-DC10	A-DC11	A-DC12	A-DC13	A-DC14	A-DC15	A-DC16	A-Ph1	A-Ph2	A-Ph3	A-Ph4	A-Ph5	A-Ph6	A-Ph7	A-Ph8	A-Ph9	A-Ph10	A-Ph11	A-Ph12	A-Ph13	A-Ph14	A-Ph15	A-Ph16	

Term	0.00000e+00	0.00000e+00	0.00000e+00	0.00000e+00	0.00000e+00	0.00000e+00	0.00000e+00	0.00000e+00	0.00000e+00	0.00000e+00	0.00000e+00	0.00000e+00	0.00000e+00	0.00000e+00	0.00000e+00	0.00000e+00	0.00000e+00	0.00000e+00	0.00000e+00	0.00000e+00	0.00000e+00	0.00000e+00	0.00000e+00	0.00000e+00	0.00000e+00	0.00000e+00	0.00000e+00	0.00000e+00	0.00000e+00	0.00000e+00	0.00000e+00	0.00000e+00	0.00000e+00	0.00000e+00	0.00000e+00	0.00000e+00	0.00000e+00	0.00000e+00	0.00000e+00	0.00000e+00	0.00000e+00	0.00000e+00	0.00000e+00	0.00000e+00	0.00000e+00	0.00000e+00	0.00000e+00	0.00000e+00	
Factor	1.00000e+00	1.00000e+00	1.00000e+00	1.00000e+00	1.00000e+00	1.00000e+00	1.00000e+00	1.00000e+00	1.00000e+00	1.00000e+00	1.00000e+00	1.00000e+00	1.00000e+00	1.00000e+00	1.00000e+00	1.00000e+00	1.00000e+00	1.00000e+00	1.00000e+00	1.00000e+00	1.00000e+00	1.00000e+00	1.00000e+00	1.00000e+00	1.00000e+00	1.00000e+00	1.00000e+00	1.00000e+00	1.00000e+00	1.00000e+00	1.00000e+00	1.00000e+00	X	X	X	X	X	X	X	X	X	X	X	X	X	X	X	X	

B = Detector Channel
Val Type	B-AC1	B-AC2	B-AC3	B-AC4	B-AC5	B-AC6	B-AC7	B-AC8	B-AC9	B-AC10	B-AC11	B-AC12	B-AC13	B-AC14	B-AC15	B-AC16	B-DC1	B-DC2	B-DC3	B-DC4	B-DC5	B-DC6	B-DC7	B-DC8	B-DC9	B-DC10	B-DC11	B-DC12	B-DC13	B-DC14	B-DC15	B-DC16	B-Ph1	B-Ph2	B-Ph3	B-Ph4	B-Ph5	B-Ph6	B-Ph7	B-Ph8	B-Ph9	B-Ph10	B-Ph11	B-Ph12	B-Ph13	B-Ph14	B-Ph15	B-Ph16	

Term	0.00000e+00	0.00000e+00	0.00000e+00	0.00000e+00	0.00000e+00	0.00000e+00	0.00000e+00	0.00000e+00	0.00000e+00	0.00000e+00	0.00000e+00	0.00000e+00	0.00000e+00	0.00000e+00	0.00000e+00	0.00000e+00	0.00000e+00	0.00000e+00	0.00000e+00	0.00000e+00	0.00000e+00	0.00000e+00	0.00000e+00	0.00000e+00	0.00000e+00	0.00000e+00	0.00000e+00	0.00000e+00	0.00000e+00	0.00000e+00	0.00000e+00	0.00000e+00	-1.93096e+02	-1.31651e+02	-1.26893e+02	-1.81391e+02	-8.12550e+01	-6.54229e+01	-1.56795e+02	-1.62015e+02	-8.71340e+01	-6.29356e+01	-1.74004e+02	-1.71240e+02	-1.79095e+02	-1.76490e+02	-7.82813e+01	-1.49299e+02	
Factor	3.61994e-05	1.37445e-04	4.05246e-05	1.50909e-01	1.47821e-06	1.56133e-06	1.51247e-01	4.83322e-02	1.61963e-06	1.49477e-06	8.33551e-02	2.69328e-02	2.70377e-02	8.24457e-03	1.53392e-06	1.18361e-02	1.83736e-05	3.60318e-05	1.01782e-05	8.04857e-02	3.42701e-07	4.15052e-07	7.58372e-02	2.58983e-02	3.41234e-07	4.10228e-07	4.32733e-02	1.39519e-02	1.46541e-02	4.46483e-03	3.66053e-07	6.20000e-03	X	X	X	X	X	X	X	X	X	X	X	X	X	X	X	X	



#DISTANCE SETTINGS
A = Detector Channel
A-1	A-2	A-3	A-4	A-5	A-6	A-7	A-8	A-9	A-10	A-11	A-12	A-13	A-14	A-15	A-16	

2.5000e+00	3.0000e+00	2.5000e+00	3.0000e+00	2.0000e+00	3.0000e+00	1.5000e+00	3.0000e+00	3.0000e+00	3.0000e+00	3.0000e+00	3.0000e+00	3.0000e+00	3.0000e+00	1.5000e+00	3.0000e+00	

B = Detector Channel
B-1	B-2	B-3	B-4	B-5	B-6	B-7	B-8	B-9	B-10	B-11	B-12	B-13	B-14	B-15	B-16	

1.0000e+01	1.0000e+01	1.0000e+01	1.4400e+00	1.0000e+01	1.0000e+01	1.5100e+00	1.9400e+00	1.0000e+01	1.0000e+01	1.9900e+00	2.4900e+00	2.4100e+00	2.9000e+00	1.0000e+01	2.9800e+00	




#DATA BEGINS
time	group	step	mark	flag	A-AC1	A-AC2	A-AC3	A-AC4	A-AC5	A-AC6	A-AC7	A-AC8	A-AC9	A-AC10	A-AC11	A-AC12	A-AC13	A-AC14	A-AC15	A-AC16	A-DC1	A-DC2	A-DC3	A-DC4	A-DC5	A-DC6	A-DC7	A-DC8	A-DC9	A-DC10	A-DC11	A-DC12	A-DC13	A-DC14	A-DC15	A-DC16	A-Ph1	A-Ph2	A-Ph3	A-Ph4	A-Ph5	A-Ph6	A-Ph7	A-Ph8	A-Ph9	A-Ph10	A-Ph11	A-Ph12	A-Ph13	A-Ph14	A-Ph15	A-Ph16	B-AC1	B-AC2	B-AC3	B-AC4	B-AC5	B-AC6	B-AC7	B-AC8	B-AC9	B-AC10	B-AC11	B-AC12	B-AC13	B-AC14	B-AC15	B-AC16	B-DC1	B-DC2	B-DC3	B-DC4	B-DC5	B-DC6	B-DC7	B-DC8	B-DC9	B-DC10	B-DC11	B-DC12	B-DC13	B-DC14	B-DC15	B-DC16	B-Ph1	B-Ph2	B-Ph3	B-Ph4	B-Ph5	B-Ph6	B-Ph7	B-Ph8	B-Ph9	B-Ph10	B-Ph11	B-Ph12	B-Ph13	B-Ph14	B-Ph15	B-Ph16	aux-1	digaux	

2540.758	1	1	0	768	0.32399	0.16784	0.054558	0.15701	0.12375	0.13585	0.18332	0.3243	0.15478	0.1324	0.23264	0.11218	0.28529	0.1844	0.11125	0.23421	-1.7979	-3.1813	-2.3771	-2.7583	-3.0896	-2.3083	-3.1625	-2.8812	-2.4146	-3.1521	-2.7062	-2.6833	-3.0583	-2.3375	-3.0104	-2.9271	261.790	306.705	103.519	333.715	391.301	375.929	410.724	367.762	375.607	92.627	407.611	354.098	417.054	394.547	383.711	373.625	0.0011669	0.00054842	0.00016415	1343.6	6.7574e-06	5.3321e-06	1352.3	365.58	8.488e-06	3.9871e-06	416.09	139.72	122.05	41.218	5.4249e-06	51.384	0.00071182	0.00052779	0.00015331	1370.1	6.008e-06	6.1194e-06	1371.4	374.09	6.2446e-06	5.774e-06	427.42	142.84	124.01	42.668	5.8454e-06	52.904	106.855	167.354	177.629	99.464	220.426	231.584	98.884	103.620	221.902	231.642	102.966	107.498	107.805	112.570	237.154	111.458	-8191	255	
2540.854	1	1	0	0	0.1523	0.16076	0.17515	0.39163	0.2018	0.1162	0.28011	0.27125	0.27247	0.19608	0.33466	0.20587	0.11322	0.11894	0.19144	0.26528	-1.9375	-3.1937	-2.5417	-2.6562	-3.0146	-2.2812	-3.0479	-3.1208	-2.4042	-3.1667	-2.8021	-2.7458	-3.2354	-2.5979	-2.8333	-3.2354	131.094	88.172	252.449	371.542	237.036	236.007	369.254	99.957	442.369	170.045	139.620	148.221	398.848	117.681	139.657	280.544	0.0011469	0.00045707	0.00015711	1347.9	7.4706e-06	5.9013e-06	1345.1	365.77	9.6706e-06	4.9246e-06	417.56	139.36	121.35	41.223	6.4045e-06	51.275	0.00070799	0.00053672	0.00014317	1371.5	5.9601e-06	5.8159e-06	1370.5	374.39	6.155e-06	5.6458e-06	428	142.66	124.09	42.618	6.1428e-06	52.862	107.351	180.917	175.153	99.255	228.246	248.574	99.185	103.897	213.870	237.138	103.596	107.764	107.827	112.988	227.131	111.813	-8191	255	
2540.950	1	1	0	0	0.082179	0.27113	0.13346	0.24779	0.13099	0.056819	0.25352	0.20673	0.12791	0.26897	0.088191	0.21217	0.21326	0.1092	0.14685	0.11682	-1.9042	-3.1021	-2.6562	-2.7438	-3.1771	-2.4875	-3.1188	-3.0542	-2.3333	-3.0187	-2.8854	-2.5167	-3.1146	-2.6104	-2.7458	-3.05	301.890	344.258	118.947	360.356	103.044	333.856	363.094	409.338	240.597	102.855	428.615	409.384	416.028	354.396	160.897	395.424	0.0010986	0.00051488	0.000131	1343.6	5.3988e-06	5.1801e-06	1346.8	366.06	8.8227e-06	4.9794e-06	417.59	139.39	121.15	41.198	5.8974e-06	50.894	0.00069154	0.00053717	0.00014987	1372.6	5.9259e-06	6.0874e-06	1371.2	373.82	5.9922e-06	5.862e-06	427.61	142.43	124.11	42.607	6.1398e-06	52.729	107.303	174.932	172.419	99.213	217.333	223.957	99.150	104.193	219.844	237.352	103.379	108.100	108.332	113.050	223.326	111.970	-8191	255	
2541.046	1	1	0	0	0.16382	0.20118	0.087874	0.25612	0.30116	0.11318	0.21046	0.21325	0.080531	0.16187	0.19951	0.14633	0.24165	0.32157	0.2802	0.070054	-1.9333	-3.0625	-2.9479	-2.5771	-3.3479	-2.5687	-2.9604	-3.2917	-2.2792	-3.1708	-2.9458	-2.3187	-3.3521	-2.6063	-2.4813	-3.2812	283.713	167.274	402.750	395.674	367.314	400.767	382.294	384.955	185.280	206.148	443.156	90.690	407.088	393.846	295.220	393.813	0.0011308	0.00048978	0.00013256	1350	6.6166e-06	4.286e-06	1346.4	365.81	7.1427e-06	4.7098e-06	417.17	139.63	121.54	41.12	5.9725e-06	51.112	0.00068847	0.00051128	0.00014731	1372.4	5.9416e-06	5.969e-06	1371.4	374.23	6.0086e-06	6.0363e-06	426.15	142.39	123.78	42.565	5.9956e-06	52.833	104.778	174.784	183.820	99.610	221.547	245.774	99.451	104.233	214.737	232.492	103.541	107.633	108.102	112.710	229.360	111.981	-8191	255	
2541.141	1	1	0	0	0.020245	0.52573	0.1957	0.2284	0.23003	0.17477	0.17386	0.21847	0.22985	0.35152	0.29115	0.21708	0.093746	0.40108	0.20662	0.13396	-1.9333	-2.9938	-2.9083	-2.5771	-3.1375	-2.6125	-2.5854	-3.3292	-2.3688	-2.8333	-3.1937	-2.3229	-3.1375	-2.8375	-2.2583	-3.2042	264.760	261.156	320.520	416.472	241.095	150.796	346.992	412.202	348.474	172.063	411.214	404.527	296.925	435.357	333.768	398.496	0.0010995	0.00052135	0.00012043	1345.3	5.8494e-06	3.4076e-06	1343.7	365.72	7.994e-06	4.3059e-06	418.76	139.11	121.44	41.139	6.7009e-06	51.091	0.00068568	0.00054596	0.00014784	1370.4	5.8366e-06	6.0554e-06	1369.5	373.67	6.0185e-06	5.8859e-06	428.05	142.22	123.85	42.608	5.8241e-06	52.764	105.543	174.476	167.092	99.322	221.963	262.358	99.034	103.920	215.874	234.342	103.409	107.995	108.501	112.935	214.521	111.725	-8191	255	
2541.238	1	1	0	0	0.24232	0.22124	0.17668	0.043704	0.078457	0.29236	0.27534	0.2894	0.21185	0.11055	0.1885	0.07227	0.025395	0.25033	0.15145	0.22963	-2.0708	-2.7292	-3.1458	-2.5062	-2.9292	-2.8583	-2.45	-3.1646	-2.4813	-2.7667	-3.0438	-2.3042	-3.1958	-3.1	-2.4792	-3.2438	375.987	366.984	131.254	319.710	300.100	392.146	416.105	398.834	423.288	272.921	270.928	167.611	417.725	390.954	308.908	406.630	0.0011243	0.00051975	0.00014613	1344.3	7.0997e-06	6.2738e-06	1344.9	366.22	8.3599e-06	4.0135e-06	418.21	138.52	121.32	41.034	5.6182e-06	50.999	0.0007003	0.00058462	0.00014046	1369.5	5.9109e-06	6.0952e-06	1369.7	373.39	5.978e-06	6.1748e-06	427.15	142.05	123.89	42.524	6.2229e-06	52.729	106.251	178.632	178.169	98.674	233.557	234.441	98.415	103.238	217.997	249.470	102.575	106.994	107.590	112.196	215.705	111.403	-8191	255	
2541.357	1	1	0	0	0.30586	0.049688	0.29992	0.33906	0.077015	0.10363	0.18649	0.026486	0.053771	0.12155	0.045152	0.37499	0.17255	0.056163	0.21664	0.19659	-2.1083	-2.4188	-3.25	-2.3417	-2.9	-3.0812	-2.6042	-3.4	-2.5458	-2.4771	-3.3	-2.4667	-2.8688	-2.9729	-2.3312	-3.2833	155.517	150.255	92.523	403.129	139.400	281.291	362.629	91.739	192.671	364.449	93.917	442.528	311.803	242.820	418.530	245.400	0.0011348	0.00058728	0.00011943	1339	6.1288e-06	5.7648e-06	1342.9	365.32	7.7012e-06	4.4638e-06	417.18	138.64	121.39	41.232	5.8685e-06	50.941	0.00071469	0.00059047	0.00014474	1367.8	5.9037e-06	5.8358e-06	1368.3	373.4	6.2311e-06	6.0748e-06	426.45	142.1	123.95	42.657	6.1802e-06	52.701	104.036	165.266	186.478	98.560	226.805	251.911	98.376	103.350	214.061	241.476	102.575	107.044	107.446	112.056	223.539	111.324	-8191	255	
2541.453	1	1	0	0	0.033072	0.19806	0.17463	0.22935	0.15212	0.077189	0.4685	0.31074	0.039267	0.18263	0.2174	0.27056	0.02135	0.15107	0.13324	0.081321	-2.4521	-2.5292	-3.1437	-2.7021	-2.9021	-2.975	-2.6333	-3.0521	-2.7354	-2.5104	-3.3583	-2.3708	-2.6958	-3.2667	-2.3021	-3.1708	88.060	134.126	320.877	90.014	254.927	358.907	381.302	440.478	318.840	368.482	374.369	363.708	145.246	316.038	399.323	182.404	0.0011483	0.00048849	0.00012429	1344.8	6.6397e-06	4.8719e-06	1344.5	365.77	7.5799e-06	5.3089e-06	416	139.06	121.22	41.022	5.4964e-06	50.811	0.00070019	0.00053297	0.00014423	1369.4	6.1965e-06	5.7303e-06	1367.7	373.26	5.9517e-06	6.103e-06	427.2	141.93	123.88	42.526	5.9476e-06	52.673	105.623	144.953	173.341	98.613	224.342	216.294	98.514	103.344	209.098	234.467	102.764	106.947	107.837	111.728	231.020	111.025	-8191	255	
2541.550	1	1	0	0	0.083205	0.11223	0.25054	0.26094	0.087479	0.1706	0.32354	0.2783	0.19096	0.085584	0.1421	0.073963	0.053789	0.21446	0.12472	0.13597	-2.3583	-2.3667	-3.2667	-2.6021	-2.7208	-3.0292	-2.4125	-3.2667	-2.8458	-2.2708	-3.3042	-2.7104	-2.7979	-3.4125	-2.2646	-3.1146	129.782	202.936	138.673	104.644	143.287	425.796	409.167	87.110	426.914	180.035	434.298	411.508	429.018	367.734	211.930	103.900	0.0010838	0.00055364	0.00018056	1341.2	6.1404e-06	4.697e-06	1335.8	364.38	8.2743e-06	5.0114e-06	415.9	138.35	121.64	40.98	5.9883e-06	50.908	0.00067894	0.00056855	0.00014165	1368.4	6.2536e-06	5.9871e-06	1365.8	373.3	6.0733e-06	5.9663e-06	426.56	141.98	123.83	42.509	6.0178e-06	52.756	104.123	167.735	185.950	98.271	226.938	236.141	98.228	103.226	214.713	245.369	102.407	106.804	107.408	111.972	234.250	111.365	-8191	255	
2541.646	1	1	0	0	0.023843	0.12365	0.19551	0.34793	0.15137	0.055351	0.18858	0.29832	0.078356	0.13064	0.11983	0.18413	0.091729	0.087301	0.075883	0.098965	-2.4354	-2.4604	-3.1	-2.8542	-2.5354	-3.1937	-2.7146	-3.1063	-2.8312	-2.2125	-3.3542	-2.5542	-2.4583	-3.1917	-2.3021	-2.8396	111.823	252.060	233.955	391.884	274.162	418.223	421.969	405.518	167.426	382.363	430.021	344.238	413.721	415.722	256.520	130.817	0.0011382	0.00037713	0.00012906	1340.3	5.5165e-06	5.2254e-06	1337.8	364.84	7.3192e-06	6.0478e-06	417.28	139.17	121.29	41.252	5.0007e-06	50.917	0.00069544	0.00056382	0.00014434	1367.3	5.8752e-06	5.4674e-06	1365.8	373	5.7811e-06	6.2833e-06	427.14	142.22	123.74	42.599	5.7447e-06	52.71	105.759	180.598	170.769	98.581	205.268	243.176	98.248	103.031	217.015	235.740	102.783	106.881	107.747	112.198	213.058	111.112	-8191	255	
2541.742	1	1	0	0	0.25226	0.38471	0.15264	0.29911	0.043294	0.14694	0.47587	0.073537	0.14508	0.051598	0.24597	0.358	0.17029	0.14361	0.092884	0.39885	-2.5417	-2.3479	-3.1	-2.9688	-2.4021	-3.1521	-2.6875	-2.9646	-3.0958	-2.2729	-3.125	-2.8771	-2.5938	-3.2458	-2.4646	-2.6333	223.364	175.702	193.793	421.031	336.599	323.535	424.060	278.918	355.765	159.509	410.516	376.167	235.351	184.043	175.001	403.655	0.0010926	0.00048426	0.00013864	1339.8	6.6988e-06	4.0026e-06	1341.9	365.05	7.2793e-06	3.819e-06	417.24	139.06	120.96	41.091	6.0716e-06	50.974	0.00067565	0.00055864	0.00015609	1367.5	6.2008e-06	5.7165e-06	1366	373.13	5.9041e-06	6.0056e-06	426.86	142.23	123.67	42.5	6.1474e-06	52.669	105.325	167.177	181.916	98.667	222.896	238.243	98.337	103.387	228.825	231.066	102.866	107.038	107.624	112.224	235.175	111.374	-8191	255	
2541.838	1	1	0	0	0.24393	0.06409	0.34941	0.33514	0.26517	0.23631	0.1217	0.046342	0.14552	0.15627	0.36042	0.056999	0.22384	0.28686	0.12118	0.21516	-2.7583	-2.125	-3	-2.825	-2.2604	-3.0604	-2.6354	-2.7562	-3.2562	-2.3604	-2.9542	-3.0021	-2.4583	-3.125	-2.6146	-2.6167	422.779	374.212	434.728	392.290	245.790	131.732	108.932	379.706	254.949	328.236	372.217	263.215	436.942	112.790	330.510	354.857	0.0011192	0.00052289	0.00015002	1339	6.4297e-06	3.3857e-06	1340.7	364.13	8.1254e-06	4.5586e-06	416.13	138.92	120.78	41.048	7.2953e-06	50.898	0.00068331	0.00053252	0.00014756	1365	6.2879e-06	5.6352e-06	1364.8	372.61	6.0171e-06	5.9432e-06	426.28	141.74	123.4	42.46	6.0017e-06	52.709	102.958	172.360	176.175	98.716	234.439	239.241	98.296	103.447	221.654	239.684	102.624	107.200	107.827	112.414	216.425	111.388	-8191	255	
2541.959	1	1	0	0	0.10682	0.060239	0.06587	0.38906	0.17978	0.10777	0.13693	0.32413	0.25209	0.029299	0.12568	0.084139	0.099727	0.22242	0.10413	0.053946	-2.8625	-2.2875	-2.7958	-3.2083	-2.1312	-3.0792	-2.9604	-2.5875	-2.9792	-2.4437	-2.7667	-3.1292	-2.4188	-3.0563	-2.7042	-2.5812	299.147	261.860	332.327	399.105	223.841	131.402	210.619	418.786	191.520	227.998	387.584	179.572	264.934	316.484	276.121	265.897	0.0011494	0.00042476	0.00014325	1342.6	6.9489e-06	4.494e-06	1340.4	364.23	6.4287e-06	5.8564e-06	415.48	138.7	121.19	41.265	6.0079e-06	51.103	0.00067971	0.00055279	0.00015064	1367.6	6.1879e-06	5.5548e-06	1365.6	372.13	5.7853e-06	6.0577e-06	426.34	142.2	123.69	42.601	5.6456e-06	52.847	103.685	173.944	174.604	98.654	213.336	237.804	98.551	103.218	206.139	231.206	102.987	107.234	107.474	112.274	241.474	111.347	-8191	255	
2542.053	1	1	0	0	0.20977	0.03416	0.23606	0.35563	0.057927	0.11402	0.059372	0.064222	0.35521	0.081945	0.15672	0.05995	0.037213	0.34036	0.13941	0.26083	-2.8167	-2.2979	-2.6979	-3.35	-2.2333	-2.9792	-2.8833	-2.5729	-3.1542	-2.5104	-2.8521	-3.1063	-2.5458	-2.9813	-2.8542	-2.5042	135.584	210.374	275.143	427.208	392.197	188.149	419.272	395.708	387.295	130.136	390.833	429.545	149.154	93.341	162.144	349.266	0.0011643	0.00046988	0.00011255	1337.8	7.2922e-06	5.2815e-06	1342	365.49	7.8162e-06	4.3877e-06	417.44	140.2	121.88	41.565	5.6051e-06	51.547	0.00069391	0.00051803	0.00014606	1364.2	6.0023e-06	5.4208e-06	1364.1	373.26	5.5934e-06	5.4372e-06	427.28	142.97	124.42	42.888	5.503e-06	53.187	104.624	169.927	177.413	98.751	219.912	245.737	98.333	103.270	221.903	231.882	102.846	107.195	107.323	112.317	230.751	111.261	-8191	255	
2542.149	1	1	0	0	0.21273	0.17988	0.14002	0.38451	0.18365	0.48107	0.064847	0.18888	0.15554	0.16818	0.12193	0.11523	0.19132	0.38351	0.23794	0.2948	-2.8729	-2.3979	-2.6292	-3.275	-2.3792	-3.0771	-3.2479	-2.3083	-3.2604	-2.7188	-2.6896	-3.2438	-2.4792	-3.0396	-2.8667	-2.3146	272.867	139.075	107.831	409.802	94.815	352.955	340.673	335.546	86.815	308.296	321.602	221.171	99.906	412.755	389.130	358.541	0.0011502	0.0004561	0.00015394	1341.1	6.7254e-06	5.6042e-06	1344.1	367.86	8.5605e-06	4.7458e-06	418.71	139.73	121.37	41.673	7.1405e-06	51.318	0.00066822	0.0005139	0.0001415	1367.9	5.8902e-06	5.2772e-06	1366.4	375.66	5.3673e-06	5.4167e-06	429.22	143.23	124.32	43.052	5.6364e-06	53.053	106.916	169.878	175.268	98.330	220.257	241.962	98.333	102.903	221.781	239.192	102.582	106.907	107.289	112.143	220.682	110.865	-8191	255	
2542.245	1	1	0	0	0.11396	0.093726	0.14143	0.12464	0.40003	0.10395	0.32616	0.23816	0.18212	0.13189	0.14508	0.062008	0.29372	0.22623	0.1169	0.072324	-2.8292	-2.8271	-2.4062	-3.3292	-2.5187	-2.8417	-3.175	-2.6979	-3.0146	-2.8854	-2.6021	-3.35	-2.6979	-2.8667	-3.1042	-2.3229	90.168	318.515	222.299	420.735	157.350	381.784	389.142	411.820	201.815	249.359	186.034	103.589	94.014	391.249	422.818	386.383	0.001178	0.00061561	0.00012475	1340.4	7.4804e-06	6.2133e-06	1343.1	367.05	8.0613e-06	5.0923e-06	418.54	139.45	121.39	41.515	5.1293e-06	51.143	0.00068667	0.00053169	0.00014224	1367.5	5.9387e-06	5.7381e-06	1368	375.32	5.8643e-06	5.6663e-06	427.68	142.85	123.96	42.795	5.4176e-06	52.897	105.258	183.541	181.468	98.303	225.107	241.025	98.455	103.406	219.722	248.166	102.501	107.122	107.532	112.163	225.897	111.193	-8191	255	
2542.319	1	1	0	0	0.12004	0.060981	0.37387	0.074996	0.29876	0.081354	0.20752	0.16117	0.14397	0.092048	0.27253	0.10831	0.1312	0.31906	0.086043	0.18762	-2.6771	-2.95	-2.2375	-3.4042	-2.5958	-2.6146	-3.4375	-2.4	-2.6354	-2.8583	-2.5125	-3.3333	-2.7	-2.6375	-3.0563	-2.4667	427.271	214.104	298.129	351.068	432.243	129.790	381.787	94.400	324.658	336.503	286.599	180.209	143.434	372.709	161.170	349.820	0.0011503	0.00046944	0.0001086	1346.4	6.3058e-06	6.3111e-06	1340.5	366.51	8.0103e-06	3.951e-06	415.92	140.07	122.01	41.33	6.9177e-06	51.008	0.00068438	0.0005121	0.00014165	1369.8	5.8745e-06	6.0546e-06	1367	374.24	5.6837e-06	5.5971e-06	427.61	142.69	124.19	42.685	5.3695e-06	52.778	105.949	179.799	159.763	98.970	221.613	230.167	98.514	103.278	227.545	227.904	103.000	107.234	107.559	112.439	220.641	111.452	-8191	255	
2542.438	1	1	0	0	0.017292	0.16878	0.23457	0.2132	0.1032	0.15877	0.30214	0.16167	0.21809	0.20164	0.26189	0.17594	0.21117	0.0728	0.34058	0.21257	-2.4542	-3.0771	-2.2625	-3.3271	-2.4875	-2.4688	-3.2812	-2.725	-2.7833	-2.9792	-2.5396	-3.2438	-2.825	-2.4667	-3.0875	-2.5729	96.296	243.395	330.439	413.092	141.550	166.073	359.348	389.130	198.006	150.395	413.368	171.879	378.499	137.203	438.252	394.000	0.0011675	0.00053894	0.00017433	1342.7	6.6026e-06	5.3232e-06	1339.8	365.45	8.4424e-06	4.7067e-06	417.99	139.33	120.9	41.233	5.6052e-06	51.035	0.00069946	0.00051045	0.00015023	1369.1	5.9459e-06	6.1445e-06	1368.7	373.88	6.0654e-06	5.65e-06	427.8	142.59	123.96	42.589	5.6296e-06	52.727	106.603	185.658	176.530	98.588	221.944	235.992	98.390	103.320	212.112	230.673	103.039	107.135	107.594	112.454	233.625	111.297	-8191	255	
2542.534	1	1	0	0	0.19176	0.17404	0.24032	0.22014	0.18824	0.13149	0.27392	0.19908	0.19868	0.27446	0.27107	0.29224	0.14385	0.19294	0.070875	0.14044	-2.2646	-3.025	-2.2104	-3.3187	-2.7292	-2.3125	-3.3271	-2.7083	-2.5146	-3.2062	-2.325	-3.1333	-2.9292	-2.3937	-3.125	-2.6167	101.147	223.358	230.494	427.393	151.868	87.315	384.216	108.538	410.610	163.777	391.680	103.552	273.059	89.240	255.435	442.278	0.0011337	0.00068122	0.00013601	1346.9	7.1672e-06	4.3454e-06	1342.9	364.8	8.5883e-06	4.7464e-06	419.56	139.1	120.89	41.336	6.5733e-06	51.16	0.0006915	0.00053245	0.00015153	1371.1	5.9466e-06	5.7865e-06	1369.6	373.58	6.0491e-06	5.5159e-06	427.78	142.44	123.85	42.654	5.6151e-06	52.861	105.344	177.499	179.180	98.803	226.380	227.429	98.541	103.228	214.155	252.004	103.017	107.185	107.800	112.487	228.103	111.317	-8191	255	
2542.630	1	1	0	0	0.19954	0.27294	0.10485	0.28534	0.12118	0.21262	0.13108	0.11672	0.12468	0.088911	0.195	0.17353	0.12406	0.36258	0.12766	0.084448	-2.225	-3.2083	-2.3667	-3.275	-2.95	-2.2104	-3.3063	-2.5729	-2.2417	-3.1937	-2.4854	-2.9792	-3.1125	-2.2792	-3.0563	-2.6771	146.374	388.835	298.795	401.862	230.468	434.810	390.889	322.750	275.898	360.470	379.672	432.135	433.390	424.609	357.728	127.680	0.001111	0.00056685	0.00016742	1344.2	7.112e-06	5.063e-06	1346.7	365.07	8.2866e-06	5.4504e-06	418.38	139.26	121.88	41.147	6.6742e-06	51.06	0.00068185	0.00054003	0.0001496	1370.5	6.0858e-06	5.9914e-06	1371.8	373.68	6.0747e-06	5.6919e-06	427.46	142.53	124.09	42.669	5.8279e-06	52.857	106.589	176.069	177.465	98.768	223.504	237.205	98.148	102.980	221.813	242.702	102.689	107.186	107.419	112.053	240.419	111.053	-8191	255	
2542.726	1	1	0	0	0.14996	0.1454	0.25678	0.34928	0.19389	0.17934	0.2777	0.17737	0.14727	0.04259	0.16821	0.21563	0.17063	0.16478	0.20675	0.31415	-2.2313	-2.9354	-2.4208	-2.9938	-3	-2.3646	-3.2	-2.9375	-2.4167	-3.1833	-2.4458	-2.7396	-3.0021	-2.3458	-3.1167	-2.9271	319.133	334.608	401.144	96.436	423.869	157.429	372.291	326.454	201.727	181.185	357.145	395.645	184.378	388.778	186.154	398.631	0.0011279	0.00057262	0.00013756	1342.8	6.9073e-06	6.2534e-06	1346	365.14	7.4641e-06	4.6259e-06	419.09	139.15	120.9	41.182	5.9189e-06	50.897	0.00068158	0.00051871	0.00015276	1370.3	5.8573e-06	5.9093e-06	1370.9	373.46	6.0946e-06	5.603e-06	427.98	142.35	123.62	42.649	5.8561e-06	52.687	105.931	183.704	181.622	98.621	230.200	249.974	98.427	103.245	209.275	236.877	102.739	107.233	107.373	112.305	213.264	111.281	-8191	255	
2542.847	1	1	0	0	0.1682	0.06475	0.087448	0.3981	0.13982	0.077514	0.14468	0.093146	0.37049	0.29503	0.066017	0.39693	0.13742	0.18104	0.1677	0.12812	-1.9354	-3.1646	-2.4625	-2.7083	-3.0125	-2.1792	-3.0479	-2.9792	-2.1979	-3.0438	-2.6417	-2.6292	-3.0104	-2.2958	-2.8542	-2.8792	404.027	231.372	214.105	386.912	247.422	282.608	395.725	366.575	356.557	409.040	158.606	400.674	391.396	138.083	441.288	431.585	0.0011287	0.00053726	0.00013486	1345.3	5.6326e-06	5.2063e-06	1344.7	365.91	9.1728e-06	5.8902e-06	417.21	139.28	121.09	41.238	6.7056e-06	50.964	0.000707	0.00050114	0.00015047	1371.3	5.8581e-06	6.1601e-06	1370.9	373.84	6.0818e-06	5.6834e-06	427.24	142.35	123.75	42.588	5.747e-06	52.703	104.400	164.740	168.445	98.758	228.125	228.111	98.471	103.410	218.488	245.482	102.544	107.062	107.735	112.420	219.126	111.519	-8191	255	
2542.918	1	1	0	0	0.20414	0.097225	0.10642	0.47323	0.19771	0.2276	0.073136	0.33089	0.050081	0.18855	0.32037	0.21011	0.095909	0.011911	0.2204	0.10088	-1.9688	-3.1833	-2.6396	-2.6625	-3.2625	-2.2479	-2.9271	-3.1771	-2.2	-3.0375	-2.5104	-2.3937	-3.1542	-2.525	-2.6292	-2.9979	439.503	215.657	390.514	389.017	248.347	227.895	200.039	395.385	240.649	241.883	438.965	364.898	306.202	175.561	303.585	394.580	0.001091	0.00052382	0.00015401	1344.7	6.8581e-06	5.2315e-06	1343.8	367.04	7.1891e-06	4.3487e-06	416.49	138.96	120.49	41.214	6.2704e-06	51.053	0.00068028	0.00052359	0.00015454	1371.9	5.731e-06	6.1281e-06	1370.2	374.04	6.3491e-06	5.915e-06	427.73	142.55	123.76	42.579	6.017e-06	52.718	107.933	174.167	165.936	98.798	223.253	246.754	98.623	103.198	227.018	234.660	102.657	107.174	107.416	112.233	225.221	111.304	-8191	255	
2543.039	1	1	0	0	0.27131	0.23688	0.10548	0.32434	0.15426	0.099441	0.14528	0.16768	0.13485	0.1196	0.23332	0.26011	0.23464	0.34623	0.096511	0.095122	-1.8333	-2.9708	-2.5979	-2.6833	-3.1	-2.5396	-2.9188	-3.2646	-2.3042	-3.0104	-2.8792	-2.2687	-3.0625	-2.45	-2.6688	-3.3146	200.229	273.022	393.314	373.110	412.984	400.759	396.140	421.821	387.901	121.457	411.623	155.096	390.214	427.037	388.495	94.118	0.0011307	0.0005796	0.00014546	1339.2	7.1248e-06	4.8123e-06	1344.3	364.92	6.3541e-06	4.4075e-06	416.72	139.2	121.17	41.103	6.58e-06	51.178	0.00068909	0.00050204	0.00015161	1370.3	5.5096e-06	6.1341e-06	1371.2	373.99	6.0754e-06	5.5432e-06	427.24	142.58	123.87	42.626	6.1062e-06	52.87	105.215	182.471	174.377	99.162	227.191	234.515	98.383	102.922	217.951	237.796	102.473	106.787	107.595	111.988	223.241	110.972	-8191	255	
2543.133	1	1	0	0	0.28785	0.096311	0.20984	0.25835	0.02759	0.20398	0.35098	0.10465	0.17072	0.22316	0.26619	0.44239	0.063045	0.085336	0.42034	0.19632	-1.8229	-2.8292	-2.7854	-2.4667	-3.0833	-2.3167	-2.675	-3.3229	-2.2708	-2.9625	-3.2188	-2.4875	-2.9583	-2.6354	-2.3958	-2.9313	151.588	168.059	354.762	383.867	431.670	366.446	376.488	218.112	289.802	136.515	407.943	389.219	118.256	170.920	326.140	297.456	0.001133	0.0005164	0.00010905	1345.7	5.827e-06	4.5499e-06	1342.9	366.8	5.77e-06	3.7957e-06	418.2	139.1	121.18	41.146	7.7028e-06	51.274	0.00067592	0.00052787	0.00014432	1371.7	5.7638e-06	5.764e-06	1370.2	374.3	6.0811e-06	5.5253e-06	427.29	142.47	123.9	42.6	6.0673e-06	52.949	108.092	172.718	183.763	98.567	222.186	242.402	98.284	103.098	215.613	224.485	102.463	106.967	107.579	112.190	217.764	110.979	-8191	255	
2543.230	1	1	0	0	0.17183	0.047601	0.027218	0.48175	0.082486	0.11587	0.06838	0.14325	0.15101	0.17114	0.28378	0.32314	0.10821	0.21949	0.093796	0.13753	-1.8271	-2.6063	-2.8896	-2.3146	-3.0708	-2.6937	-2.5208	-3.2521	-2.5917	-2.8396	-3.1	-2.2542	-3.0875	-2.7271	-2.2313	-3.3771	276.004	216.301	314.365	414.419	263.809	229.345	94.416	424.355	385.673	442.559	354.219	432.546	340.077	400.131	420.693	429.296	0.0010891	0.00046579	0.00017196	1347.7	6.8461e-06	5.4554e-06	1341.2	366.61	8.0586e-06	4.7009e-06	417.14	139.32	121.65	41.177	5.1525e-06	51.21	0.00069065	0.00053657	0.00014415	1372.3	5.7738e-06	5.956e-06	1369.5	374.51	6.1657e-06	5.9269e-06	427.41	142.65	124.2	42.651	6.1085e-06	52.819	106.919	170.144	183.924	98.396	212.248	240.196	98.229	103.190	217.864	231.307	102.754	106.671	107.639	111.912	225.385	111.126	-8191	255	
2543.326	1	1	0	0	0.052026	0.29551	0.090335	0.1369	0.17636	0.15666	0.14286	0.19257	0.098181	0.11742	0.032726	0.3136	0.2362	0.26436	0.16899	0.094551	-1.8167	-2.6458	-3.1125	-2.4188	-2.9708	-2.7229	-2.3521	-3.1771	-2.5125	-2.5812	-2.95	-2.4375	-2.9083	-2.9188	-2.2521	-3.2062	277.680	107.027	255.618	127.456	268.216	302.350	108.020	324.412	400.080	440.110	433.870	406.100	147.049	404.309	372.125	287.336	0.0010854	0.00049984	0.0001271	1347.2	7.4759e-06	4.6309e-06	1345.7	367.07	7.1562e-06	5.2375e-06	417.82	139.53	121.94	41.2	6.1784e-06	50.914	0.00067492	0.00053612	0.00014582	1373.8	5.9709e-06	5.5703e-06	1370.7	373.81	5.9055e-06	5.9987e-06	427.9	142.77	124.38	42.63	6.1177e-06	52.814	104.103	176.684	177.468	98.473	215.807	243.571	98.437	103.172	219.554	224.681	102.524	107.164	107.566	111.858	214.994	111.302	-8191	255	
2543.446	1	1	0	0	0.1225	0.14661	0.34089	0.1196	0.1719	0.18962	0.36468	0.3065	0.16936	0.10303	0.1471	0.0674	0.23438	0.11433	0.28689	0.2826	-2.4146	-2.3021	-3.1792	-2.3875	-2.9125	-3.0208	-2.4646	-3.2708	-2.5604	-2.6042	-3.2396	-2.2104	-2.8292	-3.0667	-2.1604	-3.0417	261.885	282.701	232.755	100.203	155.780	288.108	386.512	386.589	370.774	161.581	425.101	159.737	343.612	177.839	337.392	303.329	0.0010854	0.00050111	0.00011303	1346.9	6.9434e-06	4.7217e-06	1345.2	365.52	6.4008e-06	4.5325e-06	418.05	139.81	121.91	41.255	5.6582e-06	51.132	0.00068415	0.00055174	0.00013936	1372.1	6.2365e-06	5.5531e-06	1370.3	374.4	5.9666e-06	5.9996e-06	428.13	142.69	124.31	42.712	5.8843e-06	52.922	105.626	172.480	168.883	98.526	226.127	242.961	98.307	103.241	221.791	247.559	102.533	107.051	107.588	112.151	223.200	111.517	-8191	255	
2543.543	1	1	0	0	0.13184	0.30359	0.13504	0.23156	0.12546	0.13568	0.24044	0.087239	0.091606	0.20649	0.21883	0.12227	0.23619	0.21688	0.14694	0.14688	-2.2292	-2.2708	-3.0854	-2.4167	-2.7375	-2.9625	-2.2958	-3.1604	-2.7667	-2.6271	-3.1875	-2.7146	-2.6542	-3.1667	-1.9479	-2.9667	425.387	185.995	408.371	404.377	284.279	328.062	355.410	387.684	185.175	191.320	370.659	111.274	185.242	410.895	426.699	411.621	0.0011248	0.00069134	0.00015063	1348.4	8.4324e-06	4.6839e-06	1339.2	365.63	8.0622e-06	4.0354e-06	418.47	139.51	121.53	41.299	5.5105e-06	51.375	0.00070551	0.00057831	0.00013734	1373.1	5.9494e-06	5.6456e-06	1370.2	374.29	5.9304e-06	5.6876e-06	427.97	142.58	124.39	42.68	6.1611e-06	52.956	105.553	172.815	176.786	98.567	219.012	241.270	98.614	103.154	221.630	248.669	102.579	107.084	107.627	112.333	221.065	111.550	-8191	255	
2543.639	1	1	0	0	0.07316	0.081681	0.219	0.15053	0.3377	0.20473	0.21671	0.020219	0.45583	0.1006	0.14258	0.053514	0.19098	0.015568	0.13015	0.21368	-2.3833	-2.1146	-3.1479	-2.6167	-2.5833	-3.1562	-2.4292	-3.1854	-2.8375	-2.5	-3.5396	-2.5208	-2.5125	-3.3063	-2.25	-3.1083	99.049	308.734	118.399	135.563	326.077	175.617	369.317	181.965	277.507	198.537	139.140	413.719	406.419	118.078	415.194	432.446	0.0011757	0.00040935	0.00014283	1342.2	6.1528e-06	4.2325e-06	1346	365.93	6.7992e-06	4.7331e-06	417.94	139.75	121.77	41.284	6.0587e-06	51.439	0.00070543	0.00055204	0.0001476	1370.7	6.048e-06	5.5159e-06	1370.6	374.3	5.5479e-06	6.1662e-06	428.29	142.72	124.25	42.687	5.8782e-06	53.035	105.285	155.294	175.743	98.508	230.528	240.250	98.456	103.179	219.395	229.075	102.579	107.173	107.321	111.953	218.715	111.194	-8191	255	
2543.735	1	1	0	0	0.23476	0.054602	0.16837	0.24196	0.098627	0.1142	0.51739	0.32316	0.31901	0.066238	0.080306	0.17239	0.3458	0.036081	0.19839	0.25307	-2.5021	-2.3333	-3.0792	-2.7479	-2.5687	-2.8979	-2.3875	-2.9021	-2.8333	-2.2396	-3.1896	-2.6083	-2.35	-3.3167	-2.2521	-2.7042	329.769	415.298	169.362	367.884	163.582	196.667	414.150	370.114	403.778	233.614	322.897	410.509	421.745	142.332	356.486	251.443	0.0011173	0.00051777	0.00013812	1345.4	6.847e-06	5.1942e-06	1348.2	367.31	7.7949e-06	4.6893e-06	418.01	140.04	121.55	41.512	5.9265e-06	51.179	0.00067113	0.00055572	0.00013804	1372.5	6.1708e-06	5.5764e-06	1371.9	374.82	5.7007e-06	5.9868e-06	428.28	142.83	124.32	42.816	5.9217e-06	52.986	108.631	167.715	176.498	98.519	220.608	221.029	98.413	103.287	215.851	257.011	102.935	107.071	107.651	112.419	229.572	111.150	-8191	255	
2543.831	1	1	0	0	0.22553	0.18174	0.19939	0.18571	0.082373	0.085998	0.19207	0.067264	0.16768	0.1758	0.33137	0.046417	0.18797	0.20172	0.01321	0.088203	-2.6833	-2.1521	-2.9146	-2.8375	-2.2521	-3.0271	-2.5167	-2.5708	-2.9313	-2.3042	-3.0104	-2.8375	-2.3271	-3.1917	-2.3563	-2.5917	185.620	272.098	380.689	122.328	390.060	257.556	438.907	141.091	252.579	223.877	424.165	174.161	378.005	411.614	208.960	327.487	0.0010958	0.00051897	0.00012068	1345.4	5.9257e-06	5.0138e-06	1349.4	365.37	6.7672e-06	5.7423e-06	417.28	140.05	121.4	41.433	5.3142e-06	51.181	0.00066593	0.00055609	0.00014512	1372.9	5.8866e-06	5.438e-06	1371.6	374.47	5.9361e-06	6.0902e-06	428.21	142.99	124.13	42.827	5.7935e-06	52.98	105.279	174.753	173.236	98.610	214.950	251.910	98.425	103.268	218.145	246.385	102.696	106.934	107.392	112.152	223.728	111.158	-8191	255	
2543.927	1	1	0	0	0.14648	0.20762	0.19766	0.23693	0.20147	0.12127	0.50196	0.51792	0.15371	0.13347	0.21308	0.17849	0.14085	0.022911	0.17724	0.10219	-2.6979	-2.05	-2.8625	-2.8333	-2.3	-3.2687	-2.5625	-2.8146	-3.125	-2.2125	-2.7917	-2.8438	-2.2438	-3.2083	-2.55	-2.3396	88.104	338.692	317.099	118.645	341.206	406.492	395.213	440.970	323.408	112.067	313.030	373.518	259.865	140.730	340.412	301.674	0.0010919	0.00048414	0.00013467	1348.8	6.5436e-06	5.2192e-06	1348.8	367.35	8.301e-06	4.3354e-06	416.96	140.12	121.65	41.353	6.8828e-06	51.252	0.0006683	0.00055497	0.00014733	1374.6	6.0958e-06	5.6214e-06	1372.3	374.84	5.7797e-06	5.7577e-06	427.84	142.84	124.51	42.76	5.9659e-06	52.974	104.689	165.614	176.611	98.384	221.271	218.793	98.146	103.045	224.278	228.465	102.537	106.969	107.654	112.133	227.152	111.439	-8191	255	
2544.023	1	1	0	0	0.14702	0.23669	0.12912	0.20874	0.27668	0.11443	0.042523	0.057352	0.040843	0.2343	0.13629	0.12144	0.090057	0.15422	0.16062	0.073032	-2.75	-2.1437	-2.7646	-3.0833	-2.1437	-2.7604	-2.8312	-2.4979	-2.9167	-2.2729	-2.8625	-2.9958	-2.1521	-3.0375	-2.7396	-2.4458	354.054	133.156	152.228	88.057	391.491	215.998	87.142	415.573	94.825	174.395	349.575	380.509	298.313	443.497	409.781	130.309	0.0011253	0.00044417	0.00016494	1348.9	5.2622e-06	4.7009e-06	1346.4	368.21	8.3212e-06	4.6057e-06	417.62	140.23	121.88	41.457	5.2241e-06	51.403	0.00066945	0.00055399	0.00014722	1374.1	6.1072e-06	6.0087e-06	1373.2	374.67	5.9176e-06	5.7723e-06	428.17	142.77	124.41	42.807	5.7836e-06	53.171	105.741	174.509	171.765	98.342	217.596	236.916	98.192	103.339	224.671	225.671	102.720	106.946	107.567	111.965	226.966	110.919	-8191	255	
2544.142	1	1	0	0	0.16114	0.074025	0.17278	0.14972	0.089307	0.078443	0.13682	0.23262	0.051073	0.22944	0.18864	0.29006	0.13061	0.33257	0.1333	0.074508	-2.6708	-2.4292	-2.6104	-3.1104	-2.0104	-2.95	-2.9	-2.3771	-3.0542	-2.45	-2.7708	-3.0312	-2.2521	-2.8167	-2.6875	-2.3083	120.558	233.716	416.591	404.409	152.903	214.025	368.785	391.946	166.743	330.247	372.187	433.199	166.027	122.737	182.417	261.707	0.0010922	0.00038956	0.00014184	1343.4	7.8656e-06	5.0711e-06	1344.4	367.64	6.6994e-06	4.591e-06	416.99	140.23	121.85	41.502	4.756e-06	51.07	0.0006727	0.00052839	0.00015244	1372.2	6.0965e-06	5.6672e-06	1372.4	375.13	5.8209e-06	5.8466e-06	428.05	143.03	124.59	42.851	5.3932e-06	52.977	105.365	161.505	176.377	98.546	229.398	235.902	98.249	103.212	218.076	245.314	102.729	107.023	107.219	112.191	226.019	111.331	-8191	255	
2544.214	1	1	0	0	0.091327	0.044838	0.13653	0.28199	0.32224	0.095603	0.15322	0.15612	0.34044	0.14617	0.25524	0.19592	0.39631	0.1561	0.24879	0.18483	-2.6083	-2.4021	-2.3854	-3.4396	-2.1333	-2.7854	-3.1562	-2.2396	-3.0229	-2.3646	-2.3271	-3.2521	-2.1979	-2.6896	-2.9375	-2.4125	362.749	110.991	163.651	408.701	181.990	135.377	85.987	433.396	333.214	364.770	96.679	310.324	415.223	121.670	198.304	443.742	0.0011252	0.00050538	0.00016305	1347.7	7.1625e-06	6.8626e-06	1342.8	366.31	8.4779e-06	5.1525e-06	420.28	139.72	121.75	41.229	6.4205e-06	51.17	0.0006763	0.00052569	0.00015541	1374	5.9016e-06	6.0139e-06	1370.9	374.4	5.8849e-06	5.8047e-06	428.2	142.74	124.19	42.64	5.7554e-06	52.837	105.343	168.317	183.799	98.606	217.878	240.179	98.222	103.176	206.904	231.544	102.564	106.724	107.557	112.140	226.080	111.253	-8191	255	
2544.310	1	1	0	0	0.2677	0.21416	0.18346	0.44781	0.084168	0.03104	0.43529	0.19739	0.23041	0.080814	0.15453	0.32456	0.10192	0.32518	0.075819	0.4533	-2.6208	-2.6771	-2.325	-3.2979	-2.3833	-2.7021	-3	-2.3667	-3.1021	-2.6396	-2.5062	-3.0458	-2.2708	-2.775	-2.8021	-2.3708	154.540	97.209	272.923	405.690	177.384	404.589	385.145	328.671	237.875	368.007	127.498	420.487	228.541	341.331	299.154	380.123	0.0010943	0.00041806	0.00017948	1347.6	5.7299e-06	4.9639e-06	1350.3	366.94	7.3596e-06	4.491e-06	417.06	139.82	121.69	41.292	5.4316e-06	51.236	0.00068047	0.00051578	0.00015674	1373.5	5.9452e-06	5.9058e-06	1372.5	374.38	5.9218e-06	5.3851e-06	427.67	142.9	124.25	42.714	5.7486e-06	52.977	103.778	173.517	177.054	98.313	221.052	216.007	98.182	103.151	217.423	230.906	102.628	107.140	107.614	112.277	214.055	111.144	-8191	255	
2544.408	1	1	0	0	0.10084	0.19869	0.19607	0.21281	0.098097	0.21091	0.29942	0.13683	0.086809	0.12098	0.14191	0.26689	0.2032	0.18211	0.088119	0.18153	-2.5396	-2.6521	-1.9688	-3.3187	-2.3854	-2.5458	-3.3	-2.2896	-2.7458	-2.8729	-2.3438	-3.1542	-2.5021	-2.6125	-3.1	-2.5854	439.766	354.987	423.094	96.615	308.089	333.628	396.277	317.762	112.150	138.169	386.035	394.470	225.440	114.058	181.933	119.023	0.0010916	0.00054421	0.00014241	1342.6	6.7645e-06	5.7063e-06	1343.9	364.97	8.0062e-06	5.4726e-06	416.99	140.02	120.97	41.459	6.1828e-06	51.26	0.00066474	0.0005043	0.00014883	1371.2	5.8423e-06	5.8116e-06	1371.1	374.13	5.8493e-06	5.6475e-06	427.65	143.12	123.93	42.801	5.8683e-06	53.002	104.330	160.230	168.006	98.818	222.693	232.706	98.211	103.317	217.606	235.150	102.465	106.831	107.103	112.430	221.496	111.173	-8191	255	
2544.527	1	1	0	0	0.080686	0.19811	0.13404	0.26266	0.14193	0.3898	0.28899	0.085385	0.092118	0.046499	0.27098	0.094209	0.25355	0.11605	0.25049	0.19175	-2.4792	-2.9375	-1.9354	-3.1458	-2.4083	-2.3021	-3.3583	-2.2271	-2.5958	-3.0375	-2.1646	-3.0021	-2.7708	-2.3833	-3.0938	-2.5396	396.771	226.921	357.354	367.836	125.606	381.315	336.552	438.003	379.604	317.908	435.207	333.128	91.973	384.114	337.806	423.924	0.0011446	0.00056882	0.00013529	1351.3	6.3744e-06	3.9965e-06	1344.9	366.44	7.5601e-06	4.8616e-06	419.82	139.54	121.68	41.555	5.7693e-06	51.462	0.00068499	0.00049829	0.00014799	1375.4	5.6931e-06	5.7537e-06	1371.4	374.5	5.6723e-06	5.2561e-06	429.09	143.2	124.25	42.794	5.2368e-06	52.962	104.773	174.170	181.330	98.569	224.962	210.496	98.355	103.275	218.734	259.835	102.753	107.027	107.365	112.271	225.826	110.938	-8191	255	
2544.623	1	1	0	0	0.25895	0.16634	0.086302	0.36707	0.14923	0.098201	0.083677	0.17209	0.24664	0.12091	0.21083	0.4166	0.36861	0.25911	0.018032	0.045261	-2.1708	-2.9417	-1.95	-3.3375	-2.8333	-2.2333	-3.3	-2.7333	-2.625	-3.1708	-2.3521	-3.1229	-2.8292	-2.575	-3.2083	-2.4417	321.476	359.684	338.909	430.938	322.855	296.016	246.695	411.233	88.033	152.095	320.139	444.868	378.137	435.046	390.008	351.419	0.0011237	0.00050447	0.00017202	1341.4	5.3291e-06	3.9617e-06	1344.1	366.87	7.8755e-06	5.9563e-06	417.05	140.23	121.63	41.571	7.1425e-06	51.511	0.00069123	0.00048876	0.00014956	1371.5	5.6374e-06	5.6845e-06	1372.9	374.58	6.0377e-06	5.6552e-06	428.71	143.26	124.5	42.913	5.2895e-06	53.062	103.762	199.293	173.698	98.780	231.900	248.816	98.319	102.942	213.778	239.290	102.620	106.954	107.452	112.212	232.228	111.089	-8191	255	
2544.719	1	1	0	0	0.062139	0.071554	0.099713	0.18982	0.12959	0.11726	0.17491	0.20725	0.033294	0.1841	0.042693	0.26323	0.14071	0.10968	0.062506	0.53602	-2.275	-3.1021	-2.2604	-2.9604	-2.7875	-2.2458	-3.3771	-2.7333	-2.3104	-3.1021	-2.4125	-2.9375	-3.0042	-2.3375	-3.1	-2.7208	274.522	437.688	211.495	420.776	351.241	419.312	424.052	375.749	280.930	164.519	423.940	406.816	94.874	365.137	407.953	433.891	0.0011474	0.00044752	0.00012748	1343.4	6.6617e-06	6.5181e-06	1351.7	366.58	8.0176e-06	5.2896e-06	419.34	140.14	121.88	41.466	6.0162e-06	51.204	0.00068752	0.00049814	0.00014563	1373	5.8024e-06	6.0278e-06	1372.4	374.95	5.8735e-06	5.4073e-06	428.46	143.16	124.37	42.807	5.5663e-06	52.944	105.034	183.413	181.516	98.727	214.492	227.852	98.547	103.144	228.541	241.577	102.435	107.162	107.591	112.334	229.562	111.177	-8191	255	
2544.815	1	1	0	0	0.17667	0.1486	0.19259	0.34656	0.053353	0.15569	0.19897	0.056426	0.09399	0.086595	0.13707	0.19297	0.13984	0.32808	0.17024	0.30896	-2.075	-3.1208	-2.0875	-2.9875	-2.9417	-2.2229	-3.1667	-2.8146	-2.1333	-3.0438	-2.4333	-2.5979	-3.1271	-2.5854	-2.9458	-2.9188	344.841	443.436	109.344	427.260	192.315	218.768	408.449	98.501	180.651	216.963	371.411	199.654	314.744	400.185	91.320	92.179	0.0010868	0.00055966	0.00013435	1345.7	6.5475e-06	4.1051e-06	1348.9	366.85	9.2664e-06	5.0254e-06	415.78	139.91	121.65	41.169	6.1038e-06	51.273	0.00067691	0.00050662	0.00014084	1370.9	5.7545e-06	5.6084e-06	1372.2	374.5	6.106e-06	5.2996e-06	427.15	143.15	124.31	42.74	5.217e-06	53.019	107.487	170.460	176.719	98.634	216.109	236.861	98.537	103.100	220.028	253.274	102.699	107.108	107.715	112.326	220.942	111.306	-8191	255	
2544.911	1	1	0	0	0.13765	0.09793	0.052292	0.023326	0.11944	0.11776	0.44316	0.32347	0.22902	0.17126	0.18484	0.20382	0.17522	0.17516	0.24516	0.20549	-1.7958	-3.2271	-2.3292	-2.7188	-3.1125	-2.5	-3.3042	-2.8667	-2.2458	-3.2146	-2.5208	-2.6792	-3.2687	-2.1063	-2.8937	-3.0229	167.032	383.544	420.219	360.922	185.640	357.856	400.748	398.476	294.354	196.169	149.860	137.562	439.515	405.210	400.667	383.795	0.0011158	0.00054962	0.00012067	1342.9	6.2469e-06	5.5404e-06	1348	366.36	8.2778e-06	5.7297e-06	418.21	140.65	121.99	41.304	6.8191e-06	51.478	0.00068675	0.00049904	0.00014618	1372	5.4996e-06	5.7493e-06	1370.6	374.47	6.0882e-06	5.5552e-06	428	143.49	124.69	42.724	5.4305e-06	53.134	106.133	174.296	177.413	98.684	224.610	230.796	98.525	103.353	218.786	234.801	102.714	107.045	107.497	112.133	227.410	111.280	-8191	255	
2545.008	1	1	0	0	0.20097	0.17751	0.11157	0.27722	0.082668	0.068006	0.28371	0.20744	0.11863	0.13187	0.19695	0.20668	0.24634	0.23944	0.26783	0.018303	-1.65	-3.1146	-2.3646	-2.6	-3.1583	-2.4708	-2.9875	-2.9417	-2.3	-2.8708	-2.5917	-2.5083	-3.375	-2.3271	-2.8292	-3.225	294.962	290.134	212.896	425.227	355.558	109.257	387.591	424.184	117.823	118.861	428.222	421.124	392.883	423.830	408.557	424.456	0.0011236	0.00054959	0.00012566	1346.5	5.9825e-06	4.4822e-06	1349.5	367.2	7.3236e-06	4.2381e-06	419.41	140.18	122.25	41.387	5.8873e-06	51.393	0.000683	0.00052224	0.00015257	1372.5	5.6032e-06	5.7372e-06	1372.7	375.26	5.973e-06	5.3808e-06	428.07	143.25	124.65	42.858	5.5533e-06	53.157	104.175	182.283	180.468	98.711	215.462	234.044	98.569	103.265	220.242	236.976	102.899	107.214	107.680	112.300	228.113	111.236	-8191	255	
2545.128	1	1	0	0	0.17078	0.22003	0.044913	0.13338	0.19471	0.15911	0.18997	0.40509	0.1911	0.18237	0.026091	0.17969	0.41357	0.21501	0.29602	0.27621	-1.9333	-3.2292	-2.6833	-2.525	-3.1562	-2.3875	-2.7938	-3.0583	-2.5312	-2.9313	-2.7396	-2.4437	-3.1208	-2.3896	-2.5125	-3.0917	148.368	373.943	286.430	343.806	357.947	403.841	337.609	362.137	339.867	277.459	98.991	199.978	422.904	371.669	345.529	327.727	0.0011073	0.0004476	0.00013067	1346.3	6.2632e-06	5.2148e-06	1348.3	366.64	8.1675e-06	5.8489e-06	417.19	139.89	121.83	41.269	6.8174e-06	51.37	0.00068189	0.00048831	0.0001451	1373	5.234e-06	5.7588e-06	1373.7	375.04	5.8394e-06	5.3757e-06	427.93	143	124.47	42.822	5.8454e-06	53.011	106.486	170.536	172.558	99.048	220.673	241.566	98.678	103.410	227.387	234.438	102.652	107.064	107.585	112.205	226.605	111.233	-8191	255	
2545.223	1	1	0	0	0.21464	0.26857	0.13128	0.48609	0.2732	0.2541	0.33822	0.36324	0.090922	0.080728	0.19031	0.056416	0.34846	0.11656	0.03013	0.10946	-1.7125	-2.8917	-2.7229	-2.3104	-3.0354	-2.6146	-2.5438	-3.2062	-2.2104	-2.8708	-3.0917	-2.2875	-3.2333	-2.5667	-2.3042	-3.2542	340.553	329.831	370.251	356.127	357.707	390.645	441.608	92.208	160.667	323.282	414.378	319.000	399.797	297.584	443.742	136.294	0.0011992	0.00038527	0.00012392	1343.9	7.2989e-06	4.8396e-06	1346.3	365.3	7.441e-06	4.2206e-06	418.22	139.75	121.53	41.301	6.4043e-06	51.413	0.00069621	0.00050662	0.00014949	1371.5	5.721e-06	5.8721e-06	1371.8	374.24	5.8977e-06	5.9637e-06	427.78	142.74	124.28	42.761	6.3403e-06	53.056	106.649	167.810	170.808	98.619	222.148	238.972	98.330	103.040	225.582	243.372	102.804	107.157	107.526	112.272	221.492	111.076	-8191	255	
2545.319	1	1	0	0	0.068891	0.2238	0.15833	0.13389	0.13048	0.16691	0.18903	0.36022	0.18983	0.044405	0.3604	0.13187	0.2214	0.16904	0.24281	0.21592	-1.9625	-2.6833	-2.7958	-2.3812	-2.9625	-2.6271	-2.6167	-3.1354	-2.3896	-2.6146	-3.1188	-2.3708	-2.8104	-2.825	-2.0583	-3.3	254.420	321.839	441.483	355.809	334.017	88.820	269.167	332.851	289.162	310.545	364.726	206.922	429.577	373.708	348.054	403.934	0.0011242	0.00048619	0.00011247	1347.6	6.4527e-06	4.94e-06	1350.8	367.7	6.9805e-06	4.7672e-06	418.7	139.73	122.09	41.374	5.4947e-06	51.526	0.00068449	0.00055797	0.00014879	1374.8	6.0337e-06	6.3174e-06	1373.4	375.5	6.0207e-06	6.1474e-06	427.91	142.9	124.5	42.836	6.1497e-06	53.06	105.418	181.137	191.433	98.573	215.061	252.646	98.508	103.277	224.629	237.752	102.689	106.887	107.549	112.168	225.263	111.341	-8191	255	
2545.439	1	1	0	0	0.12093	0.25302	0.20624	0.17043	0.17936	0.32371	0.52891	0.11297	0.19907	0.15002	0.14513	0.11614	0.12815	0.090741	0.075738	0.21311	-2.0646	-2.4146	-3.1542	-2.4208	-2.9708	-2.7208	-2.4062	-3.2396	-2.2792	-2.3833	-3.1792	-2.2708	-2.9854	-2.9562	-2.3625	-3.2313	248.924	362.567	239.225	387.773	441.650	129.218	373.170	87.116	101.515	306.101	113.718	400.855	400.357	383.766	333.080	385.269	0.0011371	0.00047808	0.00015348	1347.8	6.1844e-06	3.7172e-06	1349.9	367.05	7.7653e-06	5.4744e-06	417.4	139.45	121.9	41.339	6.0982e-06	51.238	0.00069831	0.00055774	0.00014686	1373.6	5.5839e-06	5.6438e-06	1372.9	374.96	6.0726e-06	5.8295e-06	427.85	142.77	124.35	42.828	6.0483e-06	53.045	106.666	177.603	171.124	98.642	222.256	242.771	98.418	103.090	214.855	241.631	102.562	106.801	107.750	111.903	234.025	111.091	-8191	255	
2545.511	1	1	0	0	0.12619	0.10823	0.11588	0.34407	0.23531	0.27025	0.16507	0.40274	0.12185	0.19271	0.15886	0.09668	0.047265	0.092001	0.20779	0.11153	-2.0292	-2.4792	-3.05	-2.3125	-2.6458	-2.8771	-2.3896	-3.1917	-2.4021	-2.3042	-3.2146	-2.2708	-2.7833	-3.0208	-2.1021	-3.2104	240.503	420.308	356.426	356.892	251.402	149.865	175.191	372.739	405.765	174.494	195.780	432.463	290.551	121.719	306.977	284.194	0.0011154	0.00057332	0.00015588	1346.7	5.8313e-06	4.8798e-06	1348.8	366.79	7.1946e-06	4.8768e-06	419.06	140.64	121.95	41.455	6.6657e-06	51.222	0.0007013	0.00054393	0.00014667	1372.9	6.0815e-06	5.4925e-06	1372.4	375.23	5.8721e-06	5.9338e-06	428.74	143.26	124.64	42.853	5.9308e-06	53.042	104.691	171.047	190.909	98.655	214.347	254.986	98.588	103.221	221.965	239.252	102.610	106.864	107.335	112.042	222.205	111.425	-8191	255	
2545.607	1	1	0	0	0.13334	0.21769	0.014595	0.17478	0.20092	0.26696	0.11956	0.30661	0.048215	0.23157	0.21168	0.10566	0.16771	0.024945	0.16546	0.098715	-2.0208	-2.225	-3.1917	-2.5854	-2.6688	-3.1	-2.4188	-3.125	-2.6604	-2.2771	-3.1458	-2.1542	-2.8333	-2.9104	-2.1396	-2.8625	239.866	87.168	125.521	412.726	313.095	415.905	392.255	364.262	252.837	217.572	387.865	403.676	117.397	424.926	428.523	265.274	0.0011123	0.00054659	0.000141	1342.3	6.634e-06	4.1016e-06	1346.5	367.52	8.2078e-06	3.8029e-06	421.07	139.77	121.74	41.333	5.5944e-06	51.352	0.0006804	0.00055482	0.00014169	1372.5	6.0415e-06	5.3948e-06	1372.3	375.07	6.1017e-06	5.9013e-06	429.38	142.7	124.27	42.753	5.8179e-06	53.092	105.275	170.703	203.218	98.570	237.682	236.024	98.376	103.123	218.143	257.349	102.279	106.687	107.693	111.975	220.515	111.275	-8191	255	
2545.703	1	1	0	0	0.11092	0.30608	0.11721	0.35901	0.033239	0.024199	0.18526	0.20391	0.11217	0.13322	0.19253	0.18429	0.14324	0.087413	0.043851	0.26055	-2.3479	-2.1625	-3.1521	-2.5521	-2.2875	-2.8792	-2.3083	-3.0542	-2.7729	-2.0417	-3.1208	-2.7479	-2.3688	-3.1396	-2.2896	-2.9417	439.381	335.581	165.023	419.033	355.640	358.303	407.386	430.493	281.542	259.987	359.693	402.148	434.113	359.989	229.862	114.776	0.0010985	0.00045845	0.00016234	1341.7	6.3666e-06	5.4623e-06	1343.7	368.19	8.2937e-06	5.3867e-06	417.75	139.8	121.53	41.456	6.404e-06	51.569	0.00066286	0.00054063	0.00013512	1371.2	6.0323e-06	5.4268e-06	1371.3	375.13	5.9958e-06	6.0808e-06	427.96	143.14	124.34	42.804	6.0246e-06	53.064	106.013	169.380	179.052	98.424	223.496	244.434	98.359	103.083	218.529	235.383	102.530	106.717	107.269	112.072	220.415	111.142	-8191	255	
2545.824	1	1	0	0	0.16483	0.10049	0.1285	0.19286	0.018671	0.037242	0.21161	0.27581	0.15873	0.1818	0.12546	0.28219	0.041036	0.26174	0.43608	0.1712	-2.5062	-2.2333	-3.1521	-2.6625	-2.4396	-3.0729	-2.5042	-2.9458	-2.875	-2.2042	-3.1437	-2.625	-2.4813	-3.0375	-2.2188	-2.7479	197.218	106.038	263.646	384.542	200.214	438.551	433.598	390.059	417.546	442.029	402.868	434.948	124.564	397.034	99.894	416.918	0.0011404	0.00053195	0.00014172	1343.9	7.307e-06	3.4348e-06	1344.8	367.03	7.1777e-06	5.131e-06	416.69	139.7	121.48	41.252	5.9277e-06	51.404	0.00067458	0.00052073	0.00014792	1370.7	5.993e-06	5.2495e-06	1370	374.84	5.8557e-06	6.0859e-06	427.74	142.76	124.28	42.696	6.0589e-06	53.005	105.403	172.552	168.947	98.541	223.840	244.832	98.204	103.206	204.154	242.726	102.704	106.851	107.326	112.119	230.122	111.138	-8191	255	
2545.920	1	1	0	0	0.32661	0.12969	0.13011	0.40839	0.12729	0.095231	0.25995	0.31248	0.13292	0.18951	0.3009	0.10671	0.1655	0.21222	0.074189	0.24404	-2.4833	-2.1688	-2.8375	-2.7771	-2.3125	-3.0729	-2.6125	-2.6104	-3.05	-2.0812	-2.9208	-2.7625	-2.2583	-2.9854	-2.4479	-2.5604	255.285	257.603	110.456	367.594	271.016	268.753	425.785	396.401	228.053	197.083	112.459	380.241	127.020	153.813	203.764	89.539	0.0011366	0.00055718	0.0001678	1341.7	7.4569e-06	6.7645e-06	1344.5	367.98	6.8471e-06	4.0217e-06	418.34	140.34	122.04	41.449	4.79e-06	51.33	0.00068602	0.00054671	0.00014767	1372	6.25e-06	5.7485e-06	1372.8	375.1	5.5422e-06	6.0611e-06	428	143.32	124.47	42.787	5.8995e-06	53.141	107.345	168.806	167.359	98.461	214.288	234.697	98.124	103.132	218.309	237.070	102.643	106.841	107.724	112.219	223.530	111.132	-8191	255	
2546.016	1	1	0	0	0.08113	0.14695	0.10517	0.17158	0.19591	0.058336	0.40478	0.4365	0.12064	0.11039	0.25069	0.21563	0.21926	0.14596	0.21039	0.54182	-2.6854	-2.1583	-2.7292	-3.0729	-2.175	-2.7188	-2.6562	-2.4437	-3.1646	-2.1625	-2.9333	-2.9062	-2.2792	-3.1146	-2.5979	-2.4604	382.656	164.867	121.862	367.749	416.956	292.710	350.085	404.388	313.086	423.439	133.131	432.814	388.389	352.927	396.892	400.908	0.0011015	0.00039977	0.00015443	1343.8	6.5999e-06	4.6251e-06	1343.2	366.5	5.9174e-06	3.7665e-06	418.89	139.97	122.03	41.315	6.2003e-06	51.499	0.00067718	0.00056863	0.00014822	1372.4	6.1679e-06	5.7286e-06	1371.5	375.08	5.3268e-06	5.5073e-06	428.58	143.24	124.47	42.771	5.8256e-06	53.089	106.666	169.305	198.376	98.441	215.754	243.135	98.333	103.475	221.687	239.794	102.755	106.840	107.612	112.154	224.003	111.123	-8191	255	
2546.088	1	1	0	0	0.14046	0.21788	0.2039	0.023605	0.021086	0.24859	0.065864	0.12288	0.30696	0.17971	0.24004	0.023104	0.39712	0.22696	0.32654	0.074926	-2.7062	-2.1417	-2.6354	-3.2583	-2.1792	-3.125	-2.7792	-2.3812	-2.8812	-2.2458	-2.7167	-3.1479	-1.9542	-3.075	-2.6042	-2.3104	127.616	306.898	316.266	335.422	354.320	331.405	387.985	368.469	103.230	423.707	90.448	428.645	92.466	148.566	345.013	339.300	0.001158	0.00058519	0.00015053	1347.4	6.234e-06	6.584e-06	1345.6	367.99	6.3581e-06	5.4567e-06	417.49	139.69	121.76	41.564	5.3036e-06	51.196	0.00067787	0.00055031	0.0001542	1373.9	6.0651e-06	6.0061e-06	1371.7	374.53	5.6666e-06	5.9799e-06	428.47	142.93	124.34	42.857	6.017e-06	53.052	105.615	168.275	161.698	98.585	228.119	239.093	98.095	103.400	216.426	223.606	102.489	107.014	107.512	112.103	233.599	111.297	-8191	255	
2546.207	1	1	0	0	0.13886	0.16076	0.024854	0.20159	0.068704	0.11816	0.20085	0.21562	0.16832	0.13735	0.31156	0.27316	0.2786	0.12387	0.15002	0.3394	-2.7333	-2.4167	-2.4125	-3.2958	-2.2833	-2.9104	-3.2083	-2.4542	-3.1354	-2.4792	-2.5417	-3.3167	-2.4688	-2.8854	-2.7979	-2.3021	218.611	385.227	377.216	92.619	155.648	212.650	412.222	341.965	225.953	257.792	388.625	417.443	146.589	293.171	307.322	279.803	0.0011375	0.00051835	0.00014106	1347.7	6.9283e-06	5.8822e-06	1345.3	366.92	6.8149e-06	4.4663e-06	418.44	140.18	122.5	41.347	5.236e-06	51.303	0.00067634	0.00051638	0.00014788	1374.4	6.0008e-06	5.8505e-06	1371.3	375.01	5.5209e-06	5.7876e-06	428.92	143.07	124.4	42.814	5.5167e-06	53.034	107.089	171.554	171.417	98.523	220.811	243.525	98.433	103.068	228.130	245.211	102.851	106.783	107.314	112.278	203.431	111.321	-8191	255	
2546.303	1	1	0	0	0.097541	0.095605	0.13395	0.18579	0.26608	0.40806	0.406	0.064536	0.10232	0.27439	0.20574	0.072855	0.2147	0.19668	0.13993	0.10886	-2.6854	-2.4792	-2.4229	-3.1188	-2.3208	-2.8875	-3.075	-2.2667	-3.0333	-2.6792	-2.3167	-3.1417	-2.3063	-2.6646	-2.7917	-2.2188	124.646	329.005	396.829	442.791	125.925	275.637	383.767	351.165	432.772	132.812	344.938	427.821	335.069	392.706	382.941	273.600	0.0011046	0.0003662	0.00019265	1347.4	5.9111e-06	5.5935e-06	1346.2	365.41	8.4591e-06	4.5676e-06	419.38	139.51	121.43	41.462	5.9641e-06	51.36	0.00065092	0.00052667	0.00015227	1372.8	6.0201e-06	5.4035e-06	1370	374.25	5.8863e-06	5.8517e-06	428.21	142.86	124.21	42.84	5.9285e-06	53.076	104.706	163.402	177.327	98.525	229.952	226.833	98.255	103.306	213.852	234.455	102.606	107.069	107.360	112.499	230.889	111.247	-8191	255	
2546.399	1	1	0	0	0.15766	0.18868	0.29966	0.19587	0.22763	0.20251	0.20397	0.33534	0.086072	0.15144	0.10803	0.29783	0.13309	0.24431	0.072185	0.24379	-2.65	-2.6042	-2.1083	-3.2125	-2.4896	-2.5	-3.0979	-2.3521	-3.1146	-2.5917	-2.1542	-3.2792	-2.2562	-2.7687	-2.7792	-2.1	318.045	89.584	433.319	381.480	288.620	294.435	381.842	385.313	410.946	405.237	144.939	337.027	443.675	435.988	216.214	340.834	0.0011245	0.00057196	0.00016554	1344.8	6.4641e-06	3.7199e-06	1345.8	365.61	8.6103e-06	5.2606e-06	418.25	139.57	121.6	41.325	5.5712e-06	51.152	0.00066535	0.00050752	0.00014911	1372.4	5.9366e-06	5.6274e-06	1369.2	374.46	5.6353e-06	5.6133e-06	428.21	143.1	124.41	42.757	5.5152e-06	52.923	106.026	166.871	175.744	98.668	223.602	237.426	98.338	103.252	223.084	231.062	102.466	107.189	107.570	112.199	226.304	111.133	-8191	255	
2546.520	1	1	0	0	0.048678	0.24682	0.12709	0.15276	0.059567	0.12529	0.38087	0.031816	0.099674	0.12302	0.34584	0.098263	0.23087	0.17755	0.23656	0.068054	-2.3854	-2.7292	-2.1229	-3.2458	-2.5667	-2.3104	-3.1937	-2.3104	-2.7021	-2.7771	-2.2521	-3.1375	-2.4625	-2.5062	-3.1146	-2.0542	261.404	256.884	291.440	120.526	90.366	411.951	413.311	119.516	432.286	286.793	128.129	405.855	102.073	428.553	165.497	387.060	0.0011123	0.00047526	0.00013035	1348.7	6.366e-06	4.3988e-06	1349.6	366.64	8.0881e-06	5.1404e-06	419.79	139.85	122.18	41.417	6.9583e-06	51.335	0.0006825	0.0005109	0.00014775	1373.8	5.7752e-06	5.7312e-06	1373.6	375.15	5.9261e-06	5.5791e-06	429.05	143.24	124.59	42.845	5.4039e-06	53.107	104.169	172.670	175.336	98.730	210.835	222.273	98.154	103.355	207.982	252.060	102.978	107.086	107.291	112.086	232.604	111.266	-8191	255	
2546.616	1	1	0	0	0.35928	0.056569	0.16265	0.055992	0.027969	0.071519	0.41406	0.4386	0.18486	0.34738	0.1524	0.17554	0.14371	0.30856	0.096784	0.13022	-2.1979	-2.8208	-2.1333	-3.2042	-2.5479	-2.2979	-3.2938	-2.3187	-2.4792	-2.95	-2.1437	-2.8458	-2.6021	-2.2771	-3.0812	-2.4896	250.535	227.779	249.082	135.038	162.284	250.708	350.829	403.881	201.976	326.834	101.340	127.874	429.948	444.505	144.777	412.108	0.0011404	0.00045798	0.00015297	1351.7	6.6758e-06	4.9656e-06	1349.1	366.96	7.8617e-06	3.6055e-06	418.28	140.43	121.81	41.582	5.9516e-06	51.159	0.00067129	0.00050782	0.00014676	1374	5.8616e-06	5.79e-06	1372.5	375.41	6.0292e-06	5.5808e-06	428.45	143.17	124.47	42.887	5.3825e-06	53.047	108.001	165.795	176.409	98.673	231.139	230.738	98.625	103.167	219.955	240.794	102.674	106.982	107.578	112.217	247.639	111.237	-8191	255	
2546.712	1	1	0	0	0.13677	0.082978	0.16518	0.14898	0.17636	0.14957	0.31397	0.17602	0.2066	0.020211	0.057517	0.39432	0.43457	0.20304	0.30968	0.35138	-2.1354	-3.0667	-2.05	-3.0563	-2.7333	-2.0146	-3.1208	-2.6083	-2.4437	-3.0104	-2.3396	-3.0354	-2.7167	-2.2792	-2.9813	-2.4875	318.053	319.982	332.323	421.474	130.887	374.126	421.429	404.028	252.884	118.223	256.566	152.128	435.550	116.423	353.225	395.786	0.0011724	0.00046904	0.00014828	1347.2	6.2267e-06	4.8115e-06	1343.6	365.59	6.8149e-06	3.8867e-06	416.51	141.08	122.08	41.525	5.3877e-06	51.294	0.00070956	0.00051293	0.00015093	1373.7	5.9202e-06	5.9033e-06	1370.9	374.44	5.9247e-06	5.568e-06	428.4	143.33	124.42	42.858	5.5175e-06	53.028	104.634	168.104	160.254	98.898	204.454	246.002	98.320	103.336	213.652	250.459	102.555	106.968	107.620	112.205	236.222	111.374	-8191	255	
2546.808	1	1	0	0	0.19347	0.089147	0.22788	0.32685	0.051985	0.082003	0.22805	0.18416	0.26153	0.28623	0.10251	0.1544	0.16692	0.32076	0.079707	0.19201	-2.0542	-3.0333	-2.0833	-2.9021	-2.6813	-2.0458	-3.1896	-2.5104	-2.3625	-3.1396	-2.2521	-2.8292	-3.1208	-2.1604	-3.1042	-2.7479	296.582	251.396	425.176	402.198	289.115	161.392	88.966	85.954	263.751	382.668	384.889	266.596	394.437	431.247	266.734	110.862	0.0011119	0.00046024	0.00017437	1342	6.3457e-06	6.0355e-06	1350.4	367.32	7.2991e-06	4.6235e-06	419.02	140.24	122.04	41.398	6.2638e-06	51.364	0.00068935	0.00050482	0.00015004	1372.6	5.9002e-06	5.6162e-06	1375	375.02	5.9908e-06	5.5441e-06	428.71	143.16	124.43	42.826	5.6997e-06	53.054	104.976	170.539	177.402	98.922	214.170	227.018	98.708	103.207	229.046	249.272	103.091	107.433	107.425	112.123	236.115	111.367	-8191	255	
2546.904	1	1	0	0	0.23726	0.16347	0.17527	0.16341	0.054142	0.15567	0.13236	0.14443	0.14599	0.20438	0.28237	0.053842	0.16553	0.25459	0.30388	0.23114	-2.0187	-3.1521	-2.1625	-2.7313	-2.8354	-1.9875	-3.0604	-2.5687	-2.2271	-2.9479	-2.5354	-2.6458	-3.075	-2.3333	-2.7875	-2.7729	136.074	412.453	144.488	380.400	269.954	413.436	330.028	416.748	105.791	268.435	355.093	402.036	115.047	105.058	361.644	441.454	0.0011018	0.00051975	0.00013973	1347.1	7.7123e-06	5.6675e-06	1344.6	366.94	6.6743e-06	5.3867e-06	416.54	140.02	121.53	41.461	6.2786e-06	51.228	0.00069414	0.00051556	0.00015157	1373.9	5.7745e-06	5.6508e-06	1371.7	375.18	6.1202e-06	5.5056e-06	427.55	143.22	124.23	42.763	5.9476e-06	52.981	105.781	167.991	177.106	98.686	214.854	239.839	98.621	103.277	212.403	236.242	102.462	107.169	107.511	112.137	231.718	111.189	-8191	255	
2547.000	1	1	0	0	0.30032	0.32835	0.22492	0.13367	0.15426	0.028581	0.33602	0.16008	0.16125	0.25491	0.16297	0.16498	0.14711	0.055481	0.043886	0.25211	-1.7604	-2.9375	-2.2979	-2.8312	-3.0312	-1.9792	-3.1063	-2.9917	-1.95	-3.0771	-2.4479	-2.6146	-3.1271	-2.2021	-2.85	-2.8917	288.549	430.482	319.807	208.120	342.822	275.521	410.041	385.805	91.890	175.994	311.026	194.606	278.880	343.832	136.408	345.482	0.0010769	0.00042482	0.00017704	1344.9	6.0364e-06	4.7415e-06	1351.7	366.31	8.552e-06	5.6127e-06	417.2	140.75	121.79	41.419	6.1215e-06	51.226	0.00067171	0.000507	0.00015057	1372.4	5.8609e-06	5.8713e-06	1373.8	375.01	6.2602e-06	5.3902e-06	428.32	143.49	124.33	42.808	5.9682e-06	53.015	106.484	167.264	169.444	98.741	226.371	243.289	98.437	103.166	217.546	243.199	102.558	106.981	107.173	112.190	230.188	111.114	-8191	255	
2547.119	1	1	0	0	0.034959	0.39471	0.41503	0.51754	0.26673	0.11915	0.34064	0.062784	0.017185	0.17715	0.15823	0.16986	0.10348	0.087051	0.098991	0.12744	-1.7833	-3.05	-2.45	-2.3396	-3.0042	-2.2667	-2.8521	-3.0729	-2.0667	-3.0104	-2.7292	-2.4813	-3.2667	-2.3896	-2.5687	-3.1521	334.626	326.039	149.912	383.645	362.062	351.363	360.912	152.622	279.316	152.923	344.246	309.557	109.802	433.457	166.596	368.703	0.00111	0.00044175	0.00014454	1346.5	6.1906e-06	6.329e-06	1345.4	367.63	7.5759e-06	5.5149e-06	417.94	140.09	121.87	41.394	6.5131e-06	51.388	0.00069471	0.00049409	0.00014697	1372.6	5.4825e-06	5.6931e-06	1372.9	375.2	6.0249e-06	5.4056e-06	428.76	143.25	124.59	42.849	6.1283e-06	53.055	105.054	176.788	171.719	98.709	222.996	241.649	98.354	103.375	208.845	247.284	102.538	107.094	107.519	111.928	229.087	111.336	-8191	255	
2547.216	1	1	0	0	0.1007	0.28597	0.1023	0.2534	0.20172	0.10133	0.13866	0.25339	0.050356	0.16525	0.45983	0.13453	0.05696	0.19181	0.20104	0.36862	-1.6104	-3.0646	-2.7146	-2.4188	-2.9688	-2.2458	-2.6542	-3.1479	-2.0708	-2.975	-2.7729	-2.3688	-3.1229	-2.4146	-2.5792	-3.1146	358.238	182.534	183.123	366.585	257.166	177.974	351.847	423.409	183.486	105.931	412.513	426.494	296.825	385.934	259.244	364.773	0.0011687	0.00048889	0.00012524	1343.5	7.423e-06	4.1833e-06	1353.3	365.96	8.0831e-06	5.0152e-06	418.65	139.8	121.78	41.405	7.6508e-06	51.176	0.00071048	0.00050715	0.00014922	1372.7	5.8252e-06	5.7718e-06	1375.2	374.81	5.9083e-06	5.7509e-06	428.55	143.19	124.57	42.859	5.9285e-06	52.991	104.772	171.670	184.282	98.709	218.633	224.713	98.582	103.162	217.298	240.237	102.614	107.196	107.475	112.321	221.783	111.410	-8191	255	
2547.312	1	1	0	0	0.21293	0.048483	0.18812	0.12949	0.16169	0.14419	0.25022	0.074381	0.024637	0.098615	0.27597	0.34216	0.088268	0.16861	0.11396	0.34339	-1.8042	-2.8875	-2.7625	-2.4417	-3.0229	-2.3792	-2.6937	-3.1583	-2.0687	-2.875	-2.975	-2.1479	-3.1583	-2.3917	-2.5708	-2.9813	184.780	385.887	104.916	386.505	204.510	356.816	387.911	119.058	251.861	354.989	315.289	392.839	100.378	89.192	294.511	357.055	0.0010876	0.0003523	0.00016129	1347.5	6.2619e-06	4.6301e-06	1349.4	366.88	6.0357e-06	4.3248e-06	420.18	140.56	121.46	41.387	6.6041e-06	51.464	0.00068667	0.00050437	0.00014932	1373.4	5.8016e-06	5.8168e-06	1374.2	375.27	5.9929e-06	5.8193e-06	428.74	143.15	124.34	42.764	5.9148e-06	53.043	105.665	165.309	162.476	98.700	223.585	246.908	98.543	103.221	216.877	234.523	102.710	107.211	107.514	112.024	228.672	111.109	-8191	255	
2547.383	1	1	0	0	0.19267	0.11176	0.10112	0.16867	0.11299	0.19492	0.26625	0.098097	0.17625	0.24025	0.36112	0.12972	0.33359	0.17953	0.1799	0.1235	-1.8229	-2.6958	-2.8063	-2.3771	-3.0938	-2.5021	-2.5896	-3.0604	-2.3417	-2.6479	-3.1479	-2.4208	-2.9813	-2.7354	-2.2562	-3.2812	242.313	144.394	248.910	413.841	89.960	304.807	408.832	326.570	371.230	340.657	376.972	388.319	367.993	384.370	177.451	378.881	0.0011178	0.00046336	0.0001416	1348.3	5.5102e-06	5.3532e-06	1351.1	366.84	8.626e-06	5.0172e-06	418.35	140.23	121.69	41.343	5.2366e-06	51.361	0.00069349	0.00052464	0.00014642	1373.9	5.7852e-06	5.7563e-06	1373.5	375.16	6.1173e-06	5.7056e-06	428.7	143.09	124.56	42.831	5.8957e-06	53.061	107.653	171.778	176.800	98.920	223.006	257.118	98.537	103.228	210.940	229.058	102.578	107.247	107.494	112.026	216.855	111.423	-8191	255	
2547.479	1	1	0	0	0.038665	0.37434	0.18745	0.064203	0.29413	0.10257	0.39157	0.32627	0.16561	0.15917	0.17839	0.13911	0.17881	0.074735	0.32309	0.091545	-2.1167	-2.2771	-2.9062	-2.3708	-2.8083	-2.8604	-2.4167	-3.0167	-2.1125	-2.5604	-3.1646	-2.2292	-2.7604	-2.7938	-2.1333	-3.1271	421.898	385.465	262.803	86.864	136.987	178.046	407.515	411.553	290.550	410.548	426.348	292.025	150.136	423.169	340.265	419.130	0.0011508	0.00043132	0.00011483	1342.1	6.8776e-06	4.763e-06	1349.8	367.73	9.0215e-06	4.0469e-06	420.25	139.79	121.76	41.42	5.2546e-06	51.284	0.0006977	0.00053395	0.00014322	1371.1	6.1515e-06	5.7588e-06	1373	375.62	5.9844e-06	5.85e-06	429.55	142.99	124.56	42.835	5.8774e-06	53.046	104.646	178.449	178.653	98.596	221.525	247.710	98.343	103.194	228.329	234.404	102.634	107.266	107.433	112.362	223.833	111.106	-8191	255	
2547.600	1	1	0	0	0.22828	0.12037	0.19543	0.092711	0.059489	0.33669	0.25374	0.095358	0.24736	0.075186	0.039863	0.12989	0.15331	0.061059	0.137	0.16114	-2.0021	-2.2687	-2.9729	-2.3312	-2.95	-2.8875	-2.225	-3.1417	-2.5687	-2.3021	-3.1875	-2.3417	-2.8125	-3.0229	-2.3542	-3.0354	201.587	213.005	426.183	430.357	409.289	255.864	400.370	101.154	421.477	419.963	206.333	418.670	92.345	440.367	419.162	433.459	0.0011169	0.0005902	0.00014869	1345.5	6.22e-06	4.2099e-06	1348.1	366.47	7.0142e-06	6.1198e-06	417.36	139.74	122.61	41.443	7.0194e-06	51.449	0.00069165	0.00054213	0.00014237	1370.5	5.8166e-06	5.5868e-06	1373.3	375.14	6.1102e-06	5.9184e-06	428.57	143.12	124.56	42.892	6.0193e-06	53.128	106.607	164.603	172.923	98.656	235.425	259.650	98.375	103.272	218.528	241.927	102.548	107.046	107.382	112.211	226.910	110.917	-8191	255	
2547.696	1	1	0	0	0.13064	0.073037	0.15097	0.2419	0.27777	0.11023	0.37441	0.25869	0.22902	0.2257	0.064273	0.15144	0.14675	0.28314	0.17832	0.29291	-2.1917	-2.1208	-3.0438	-2.3646	-2.5	-3.1042	-2.4083	-3.0458	-2.5812	-2.2542	-3.3021	-2.3729	-2.6396	-3.0875	-2.0896	-2.975	432.696	248.958	267.410	344.555	318.978	118.469	368.129	419.424	319.205	290.207	349.901	278.016	443.982	103.112	270.062	333.026	0.0011262	0.00055415	0.00013283	1347.4	5.1825e-06	4.9035e-06	1347.3	367.22	8.772e-06	3.961e-06	417.74	140.07	121.56	41.391	6.5448e-06	51.14	0.00069192	0.0005341	0.00013989	1372.5	5.8759e-06	5.4502e-06	1372.4	375.23	6.1266e-06	5.9099e-06	428.49	143.05	124.53	42.788	6.107e-06	52.968	104.435	172.841	169.520	98.667	218.871	213.816	98.327	103.276	222.111	234.401	102.649	106.838	107.477	112.241	221.591	110.934	-8191	255	
2547.792	1	1	0	0	0.057039	0.21233	0.020357	0.38713	0.17555	0.088573	0.25283	0.28279	0.19892	0.29465	0.080476	0.52686	0.20358	0.037814	0.11853	0.25492	-2.3771	-2.175	-2.8312	-2.8458	-2.6646	-2.9813	-2.5896	-3.1667	-2.7896	-2.2646	-3.1813	-2.5187	-2.5792	-3.1688	-2.0938	-2.9437	344.087	184.582	339.598	388.083	267.453	325.092	339.581	375.447	196.832	280.749	369.552	387.704	402.039	199.319	141.316	137.709	0.0010561	0.00047134	0.00015939	1346.1	7.0875e-06	4.2167e-06	1345.5	366.6	6.404e-06	5.5027e-06	419.94	139.79	121.9	41.311	5.3062e-06	51.255	0.00066708	0.00054295	0.00014589	1373.8	6.0244e-06	5.3576e-06	1372.5	375.45	5.9425e-06	6.1064e-06	429.52	143.04	124.27	42.731	5.9133e-06	52.98	106.430	172.292	167.514	98.438	223.215	248.281	98.176	103.334	206.708	244.295	102.604	106.957	107.486	112.152	212.565	111.371	-8191	255	
2547.889	1	1	0	0	0.11982	0.2117	0.077704	0.5314	0.1202	0.064202	0.26398	0.15138	0.032652	0.083695	0.42751	0.17708	0.084558	0.098708	0.03897	0.11879	-2.6333	-1.9667	-2.9583	-2.5458	-2.1312	-3.0479	-2.4625	-2.8375	-2.7917	-2.2521	-3.0875	-2.6646	-2.3771	-3.2667	-2.3396	-2.7521	123.748	281.408	337.804	421.304	245.209	366.788	363.989	191.882	118.860	443.699	442.824	373.342	351.181	266.222	232.248	353.882	0.0011671	0.00052829	0.00013365	1347.4	6.4433e-06	3.4262e-06	1348.6	367.85	8.1411e-06	3.9903e-06	418.36	139.27	122.27	41.336	6.4675e-06	51.255	0.00069812	0.00056367	0.0001373	1373.4	6.2507e-06	5.1769e-06	1373.3	375.44	5.796e-06	5.6449e-06	428.84	142.9	124.59	42.812	5.9895e-06	53.052	107.051	181.117	180.031	98.657	219.275	239.901	98.345	103.295	207.899	229.993	102.813	107.183	107.512	111.959	234.182	111.335	-8191	255	
2547.985	1	1	0	0	0.13112	0.23343	0.052637	0.17356	0.22297	0.056017	0.32597	0.25828	0.34768	0.22517	0.27969	0.060026	0.0623	0.20761	0.1402	0.21511	-2.5229	-2.0375	-2.9104	-2.8312	-2.3187	-3.025	-2.5417	-2.7375	-3.0062	-2.0896	-3.0187	-2.7021	-2.3646	-3.1083	-2.2583	-2.525	262.822	120.465	238.568	424.892	95.867	182.914	373.040	299.326	147.355	103.646	383.294	113.105	408.873	85.757	96.013	424.329	0.0010872	0.00044939	0.00014676	1342.2	4.975e-06	5.8208e-06	1352.1	366.66	7.4713e-06	5.0478e-06	418.41	139.32	121.32	41.31	5.7296e-06	51.313	0.00068154	0.00052576	0.00014126	1371.1	5.9701e-06	5.6663e-06	1373.9	375.38	5.855e-06	5.7133e-06	428.83	143.02	124.19	42.719	5.9636e-06	53.033	106.506	168.705	178.471	98.645	223.257	220.617	98.464	103.160	211.474	244.362	102.693	106.900	107.607	112.350	219.533	111.269	-8191	255	
2548.081	1	1	0	0	0.12419	0.30049	0.056151	0.22254	0.19282	0.054666	0.12548	0.27442	0.31295	0.19562	0.25241	0.27669	0.18617	0.073476	0.24296	0.1699	-2.6083	-2.2979	-2.8438	-2.9437	-2.1646	-3.0792	-2.725	-2.4646	-3.15	-2.1562	-2.7979	-3.1437	-2.0312	-3.0458	-2.5875	-2.4104	154.684	133.642	317.397	108.923	383.132	152.999	90.957	278.511	345.477	386.313	397.780	404.643	434.790	357.144	443.689	152.024	0.0011111	0.00045939	0.00012043	1345.2	7.1679e-06	4.4301e-06	1345.4	366.62	8.4115e-06	5.4114e-06	418.41	139.59	121.35	41.355	6.9571e-06	51.524	0.00068285	0.00053958	0.00015	1373.4	6.0744e-06	5.464e-06	1371.6	375.59	5.5358e-06	5.7492e-06	429.2	143.05	124.47	42.853	5.9903e-06	53.085	106.670	171.721	180.152	98.651	226.955	240.104	98.451	103.275	214.508	241.613	102.612	107.079	107.393	112.245	231.145	111.237	-8191	255	
2548.200	1	1	0	0	0.11403	0.27855	0.31317	0.17002	0.143	0.15187	0.12418	0.074687	0.068038	0.11912	0.09299	0.15885	0.30769	0.024462	0.11507	0.2031	-2.5812	-2.1833	-2.7417	-3.1292	-2.0521	-3.0542	-2.7125	-2.5875	-3	-2.2125	-2.7125	-3.0417	-2.2292	-2.9875	-2.5938	-2.4292	318.707	357.253	116.510	392.676	419.537	245.028	395.395	229.188	410.351	303.499	379.731	292.698	109.914	135.325	395.106	406.361	0.0010449	0.00048379	0.00015198	1344.6	6.7926e-06	4.1666e-06	1351.4	366.57	6.6685e-06	5.9572e-06	417.96	140.19	121.23	41.582	7.2347e-06	51.565	0.00066432	0.00055316	0.00015125	1371.5	5.8773e-06	5.4683e-06	1373.8	375.5	5.9119e-06	5.4347e-06	428.71	143.32	124.35	42.897	5.8546e-06	53.176	104.016	167.469	170.303	98.612	221.211	225.993	98.285	103.312	213.531	232.728	102.906	106.929	107.540	112.196	231.901	111.262	-8191	255	
2548.296	1	1	0	0	0.16818	0.1784	0.30215	0.17057	0.037931	0.0981	0.29723	0.10252	0.14289	0.11565	0.246	0.31444	0.14679	0.091998	0.069366	0.18124	-2.6688	-2.4958	-2.5542	-2.9896	-2.2562	-2.9583	-3.0083	-2.2646	-3.1542	-2.4271	-2.4854	-3.0667	-2.2938	-2.8333	-2.6625	-2.1896	313.717	149.027	377.443	350.823	329.837	404.046	380.448	419.058	107.162	175.232	427.942	393.863	443.615	417.349	279.796	202.821	0.001142	0.0004667	0.00015466	1345.4	6.2767e-06	5.7301e-06	1351.7	367.7	8.2893e-06	4.4392e-06	419.41	140.14	121.82	41.411	7.063e-06	51.555	0.0006822	0.00052434	0.00014631	1372.2	5.933e-06	5.4061e-06	1372.1	375.37	5.4683e-06	5.8073e-06	428.91	143.22	124.6	42.865	5.7562e-06	53.133	104.478	170.187	182.670	98.544	222.679	245.217	98.612	103.293	210.756	231.712	102.735	106.864	107.462	112.059	221.468	111.619	-8191	255	
2548.392	1	1	0	0	0.040692	0.23076	0.17441	0.24616	0.18373	0.085781	0.11831	0.25939	0.15308	0.059353	0.13978	0.14192	0.023274	0.065402	0.21566	0.03384	-2.7667	-2.3771	-2.3396	-3.175	-2.0687	-2.6521	-3.075	-2.2833	-2.9083	-2.5042	-2.4458	-3.3604	-2.3146	-2.575	-2.8563	-2.3479	369.597	140.618	437.036	396.275	390.345	311.303	412.680	409.698	277.445	355.164	152.889	106.205	343.426	403.624	191.135	315.125	0.0010516	0.00038989	0.00016918	1343.3	5.0652e-06	5.578e-06	1349.2	366.72	8.6002e-06	4.5767e-06	418.92	140.24	121.96	41.271	7.0091e-06	51.356	0.00064974	0.00052276	0.00015244	1371.9	5.9209e-06	5.5773e-06	1373.7	375.27	5.8507e-06	5.4475e-06	430.04	143.61	124.8	42.891	5.6364e-06	53.181	104.945	181.442	176.373	98.749	216.350	255.082	98.362	103.362	206.839	228.961	102.647	106.977	107.432	112.202	221.549	111.441	-8191	255	
2548.488	1	1	0	0	0.20457	0.045828	0.21398	0.28338	0.055217	0.1764	0.36245	0.37348	0.14765	0.21145	0.1425	0.06814	0.2975	0.22057	0.10764	0.14572	-2.4646	-2.6208	-2.3354	-3.0667	-2.2542	-2.6708	-3.1937	-2.1042	-2.9271	-2.5	-2.1521	-3.2396	-2.3729	-2.6333	-2.8646	-2.3438	427.923	164.748	422.151	96.564	193.951	102.592	403.098	383.354	252.312	259.979	330.812	387.503	427.169	98.403	177.499	337.178	0.0011424	0.00047071	0.00015446	1348.3	5.6703e-06	3.6457e-06	1346.5	368.48	8.2828e-06	6.0755e-06	420.16	140.93	122.26	41.615	5.6883e-06	51.477	0.00068246	0.00054033	0.00014631	1374.9	5.8024e-06	5.7882e-06	1374.7	376.51	5.742e-06	5.7859e-06	430.23	143.74	125.04	42.999	5.2368e-06	53.171	105.684	180.315	181.048	98.711	229.617	239.142	98.610	103.195	214.399	245.045	102.610	107.158	107.446	112.409	224.180	111.153	-8191	255	
2548.609	1	1	0	0	0.11526	0.11769	0.16925	0.28441	0.026316	0.096694	0.33917	0.18011	0.081571	0.14115	0.39507	0.19725	0.18371	0.26667	0.13568	0.12473	-2.4938	-2.6479	-1.9875	-3.3354	-2.5479	-2.4125	-3.2271	-2.3604	-2.6437	-2.8208	-2.2562	-3.0958	-2.6208	-2.5438	-3.05	-2.2958	438.324	336.404	94.173	420.193	397.141	164.765	365.759	384.788	420.871	427.009	391.737	306.218	355.049	89.345	316.023	441.778	0.0011274	0.000423	0.00013307	1349.1	6.013e-06	4.4315e-06	1350.6	368.39	7.4255e-06	6.1039e-06	420.86	140.53	121.36	41.349	6.1057e-06	51.359	0.00067542	0.00049018	0.00014515	1376.1	5.8481e-06	5.9966e-06	1375.2	376.22	5.924e-06	5.4612e-06	429.74	143.72	124.55	42.94	5.2895e-06	53.123	107.273	173.558	174.763	98.597	220.875	242.889	98.433	103.139	219.947	229.773	102.609	107.246	107.513	112.385	227.719	111.138	-8191	255	
2548.680	1	1	0	0	0.091901	0.010191	0.21427	0.38156	0.2503	0.11796	0.066629	0.13358	0.12359	0.089584	0.038748	0.1745	0.13229	0.13234	0.1695	0.22778	-2.3937	-2.6479	-2.0938	-3.2646	-2.5438	-2.3563	-3.1937	-2.3792	-2.5833	-2.8542	-2.2896	-2.975	-2.5875	-2.3896	-2.9083	-2.4417	190.566	425.041	202.406	397.689	360.815	268.319	298.773	426.288	300.944	115.024	363.428	387.085	434.674	387.578	229.921	240.409	0.0011116	0.00040851	0.00018105	1349.2	7.1904e-06	5.5736e-06	1349.4	369.13	6.864e-06	2.2537e-06	417.06	140.73	122.39	41.532	6.9461e-06	51.391	0.00066057	0.00049176	0.0001493	1375.8	5.9187e-06	5.79e-06	1374	376.34	5.8898e-06	5.3663e-06	428.94	143.74	125.06	43.023	5.6898e-06	53.286	106.242	183.304	174.920	98.867	216.489	249.988	98.380	103.307	210.226	238.303	102.686	107.005	107.461	112.115	227.851	111.244	-8191	255	
2548.801	1	1	0	0	0.084759	0.3948	0.084178	0.17129	0.14217	0.094429	0.091758	0.057156	0.19013	0.11873	0.25966	0.35007	0.26416	0.086531	0.13062	0.07711	-2.0687	-2.9437	-2.1979	-3.0521	-2.6312	-2.2917	-3.2687	-2.5271	-2.5354	-3.2479	-2.3146	-2.9833	-2.9062	-2.5958	-3.0458	-2.4229	243.991	97.047	151.516	339.806	136.091	331.525	341.669	386.947	132.933	220.444	118.858	403.222	443.877	401.556	415.422	398.643	0.0010851	0.00038953	0.00014272	1346	7.3148e-06	5.2622e-06	1352.9	368.41	8.0427e-06	4.9649e-06	420.56	140.27	121.86	41.484	5.1523e-06	51.239	0.0006639	0.00050752	0.00014875	1375.5	5.8745e-06	6.1082e-06	1376.8	376.37	6.0726e-06	5.4783e-06	429.98	143.59	124.59	42.896	5.4618e-06	53.062	104.362	159.677	185.493	98.728	219.012	224.677	98.442	103.296	214.417	230.652	102.855	107.158	107.477	112.217	231.550	111.041	-8191	255	
2548.897	1	1	0	0	0.26682	0.12152	0.12121	0.30037	0.089889	0.036373	0.33042	0.23598	0.33448	0.18728	0.43035	0.13795	0.103	0.055172	0.1982	0.28971	-2.0312	-2.9896	-2.1292	-2.9875	-2.9792	-2.1104	-3.1708	-2.7562	-2.5229	-3	-2.3187	-2.8625	-3.1417	-2.25	-3.1521	-2.7771	279.244	139.837	428.015	393.752	90.200	322.024	99.482	416.137	143.893	280.090	431.987	255.806	403.671	240.328	348.725	355.283	0.0011151	0.00047944	0.00014903	1347.9	5.8542e-06	4.8275e-06	1347.2	367.63	8.6184e-06	5.9676e-06	419.32	140.51	122.13	41.457	7.1675e-06	51.456	0.00067684	0.00051203	0.00015312	1375.8	5.8573e-06	5.6067e-06	1374.4	375.84	5.8657e-06	5.5124e-06	429.28	143.58	124.7	42.91	5.6296e-06	53.151	107.316	173.717	171.213	98.700	212.703	231.784	98.225	103.308	212.896	241.243	102.746	107.209	107.620	112.318	224.283	111.068	-8191	255	
2548.993	1	1	0	0	0.18695	0.23648	0.15043	0.069911	0.054207	0.276	0.18964	0.10595	0.11915	0.1102	0.16374	0.27951	0.13309	0.25518	0.2207	0.16116	-1.8625	-3.0625	-2.2687	-2.7583	-2.9542	-2.3167	-3.3146	-2.8521	-2.325	-2.9854	-2.5125	-2.6958	-3.0021	-2.3229	-2.9646	-2.7438	399.928	441.158	183.928	256.669	128.990	354.456	359.743	323.932	172.518	256.989	343.707	385.906	382.380	411.887	347.040	304.555	0.0010766	0.00060401	0.00014762	1348.5	4.8031e-06	5.8403e-06	1353.1	366.16	7.7545e-06	4.0259e-06	417.95	140.56	122.1	41.622	6.6898e-06	51.671	0.0006776	0.0005133	0.0001475	1375.7	5.8623e-06	5.7995e-06	1376.2	375.98	6.0633e-06	5.3056e-06	428.74	143.74	124.74	43.023	5.6639e-06	53.312	103.408	172.687	172.853	98.641	219.587	238.457	98.465	103.298	219.445	246.996	102.802	106.932	107.583	112.125	236.231	111.329	-8191	255	
2549.088	1	1	0	0	0.1056	0.18199	0.2431	0.069448	0.21225	0.16143	0.15984	0.16753	0.062259	0.11317	0.2733	0.11859	0.16757	0.11925	0.1724	0.33288	-1.8167	-3.1396	-2.3625	-2.7458	-3.0771	-2.3167	-3.125	-2.9479	-2.1771	-3.0542	-2.7	-2.4875	-3.1208	-2.425	-2.6396	-2.9813	255.933	227.684	211.579	396.041	431.150	405.864	336.490	365.341	175.951	194.814	417.431	94.251	429.121	244.799	224.763	247.221	0.0011676	0.00042123	0.00016364	1346.6	5.6699e-06	4.0542e-06	1350.2	367.8	7.5756e-06	4.9208e-06	420.09	141.07	122.2	41.466	6.3035e-06	51.398	0.00070945	0.00049213	0.00014816	1374.1	5.6203e-06	5.7796e-06	1376.3	376.12	5.9417e-06	5.3142e-06	429.44	143.72	124.73	42.988	5.5762e-06	53.213	105.062	159.826	168.824	98.798	216.456	229.102	98.636	103.033	213.697	240.947	102.777	106.986	107.488	112.164	229.071	111.280	-8191	255	
2549.184	1	1	0	0	0.16839	0.064994	0.34905	0.14888	0.087537	0.33551	0.25431	0.10322	0.2538	0.38078	0.26208	0.20258	0.079658	0.31121	0.087177	0.26481	-1.8021	-2.8792	-2.5083	-2.4333	-3.1229	-2.2583	-3.0458	-3.1437	-1.9646	-3.0375	-2.6	-2.3458	-3.2313	-2.3167	-2.6917	-2.9792	439.657	319.903	291.538	398.988	377.662	351.253	378.176	139.252	306.563	335.639	423.034	400.864	408.782	343.638	126.546	417.272	0.0010948	0.00059218	0.00016245	1344.4	8.2899e-06	4.9684e-06	1350	367.77	6.6188e-06	5.3751e-06	422.18	141.02	122.39	41.47	6.8852e-06	51.506	0.00067982	0.00049033	0.000145	1374.9	5.6617e-06	5.6222e-06	1376.5	376.05	5.7171e-06	5.2655e-06	430.03	143.78	124.84	42.888	5.5419e-06	53.158	104.553	176.707	171.424	98.576	215.968	224.877	98.301	103.352	220.191	240.006	102.658	107.270	107.577	112.293	215.642	111.230	-8191	255	
2549.280	1	1	0	0	0.27389	0.077169	0.22243	0.27054	0.14295	0.28237	0.29017	0.20266	0.13739	0.018103	0.11238	0.28612	0.14441	0.46365	0.25869	0.18779	-1.8521	-2.8688	-2.5417	-2.2354	-3.0375	-2.3521	-2.6604	-3.2438	-2.3187	-2.9521	-2.6813	-2.4062	-3.1937	-2.4458	-2.6833	-3.2083	143.125	93.930	424.996	381.935	326.979	441.696	406.374	365.112	422.145	120.425	261.144	408.140	429.059	426.794	230.182	317.758	0.0011402	0.00054016	0.0001482	1349	6.5903e-06	4.739e-06	1355.2	366.69	7.8598e-06	4.3175e-06	417.32	140.45	122.66	41.555	6.6475e-06	51.272	0.00068931	0.00050617	0.00014408	1375.3	5.6446e-06	5.6084e-06	1377.3	376.21	6.0107e-06	5.3834e-06	428.71	143.52	124.84	42.926	5.7142e-06	53.101	105.769	171.223	184.190	98.799	226.306	233.799	98.501	103.569	220.251	239.248	102.735	107.239	107.528	112.067	227.825	111.158	-8191	255	
2549.376	1	1	0	0	0.2591	0.33577	0.081963	0.24331	0.06522	0.23764	0.23133	0.12617	0.13383	0.082898	0.22236	0.18462	0.095055	0.21326	0.1831	0.34417	-1.7208	-2.8458	-2.7708	-2.4625	-2.9917	-2.5458	-2.6625	-3.3229	-2.3354	-2.8604	-3.0667	-2.1854	-3.325	-2.5563	-2.2375	-3.2104	97.072	367.245	415.121	375.270	443.984	157.441	325.118	399.132	416.016	375.607	142.185	421.486	252.141	162.968	279.167	401.774	0.0011413	0.00055395	0.00014037	1352.5	7.0212e-06	5.2548e-06	1350.8	367.77	5.6478e-06	4.382e-06	419.38	140.91	121.98	41.697	5.9595e-06	51.328	0.00069471	0.00052194	0.00014256	1374.7	5.6003e-06	5.8211e-06	1375.2	376.06	5.8067e-06	5.5236e-06	429.11	143.84	124.96	42.949	5.6189e-06	53.162	106.042	177.892	185.861	98.910	223.310	256.079	98.516	103.460	222.390	248.749	102.851	106.843	107.776	112.063	221.497	111.520	-8191	255	
2549.472	1	1	0	0	0.27834	0.11295	0.11425	0.13129	0.16224	0.27275	0.18902	0.069118	0.089172	0.19024	0.29152	0.45367	0.1423	0.13591	0.14772	0.16385	-1.5896	-2.7042	-2.7812	-2.3708	-3.0458	-2.5896	-2.5875	-3.3187	-2.2417	-2.6854	-3.0833	-2.2646	-2.8333	-2.8229	-2.1104	-3.275	165.408	435.304	321.260	129.204	247.559	423.622	361.197	169.825	106.576	324.956	435.623	321.740	445.122	425.770	255.605	86.186	0.00116	0.00050685	0.00015723	1345.1	6.3878e-06	5.5427e-06	1347.9	367.01	7.2994e-06	5.3301e-06	418.01	140.61	122.55	41.567	6.2572e-06	51.215	0.00069326	0.00049536	0.00013503	1372.6	5.6846e-06	5.8073e-06	1372.6	376.4	5.7548e-06	5.7423e-06	429.02	143.39	124.84	42.977	6.0178e-06	53.132	105.978	177.134	173.416	98.715	228.095	240.603	98.478	103.320	209.595	238.441	102.573	107.057	107.404	112.231	213.451	111.302	-8191	255	
2549.569	1	1	0	0	0.17293	0.16831	0.15951	0.17246	0.094985	0.27745	0.22088	0.37138	0.0083	0.24705	0.39855	0.052589	0.084698	0.14299	0.099226	0.30793	-1.9958	-2.4708	-2.9583	-2.575	-2.9	-2.7125	-2.5375	-3.2396	-2.4875	-2.4833	-2.9688	-2.3354	-3.0604	-3.0021	-2.2375	-3.0021	171.986	268.273	369.285	137.323	322.469	308.947	372.140	400.204	344.805	298.485	102.210	350.914	122.779	252.785	373.831	391.030	0.0011624	0.00051417	0.00014551	1342.5	7.3819e-06	4.8683e-06	1347.3	368.15	6.9626e-06	5.2388e-06	419.27	139.75	122.16	41.222	6.6273e-06	51.391	0.00068461	0.00052516	0.00014468	1372.2	5.756e-06	5.6369e-06	1372.7	376.28	5.7576e-06	5.9466e-06	429.22	143.16	124.63	42.847	5.8873e-06	53.134	107.468	179.664	184.546	98.799	220.813	226.747	98.455	103.367	206.923	242.425	102.562	107.173	107.657	112.047	227.691	111.300	-8191	255	
2549.689	1	1	0	0	0.086079	0.2212	0.16626	0.37389	0.087621	0.27675	0.25961	0.22934	0.31281	0.058844	0.065912	0.1686	0.14385	0.054837	0.19238	0.31197	-2.2	-2.3833	-2.975	-2.4833	-2.6813	-2.9396	-2.3479	-3.3312	-2.5875	-2.45	-3.25	-2.5458	-2.6917	-2.9458	-2.0771	-3.0604	234.626	107.056	91.148	390.805	360.629	296.436	403.048	316.936	376.616	242.257	264.988	427.467	250.319	389.926	444.703	95.734	0.00114	0.00048649	0.00015034	1342.6	6.4808e-06	6.0015e-06	1346	368.36	6.2467e-06	5.6518e-06	417.7	140.48	121.76	41.359	5.6077e-06	51.502	0.00067251	0.00052066	0.00013741	1370.8	5.5753e-06	5.5505e-06	1372.2	376.16	6.0576e-06	5.8646e-06	428.97	143.24	124.68	42.812	5.6731e-06	53.146	105.362	166.763	179.981	98.689	225.786	239.432	98.485	103.429	217.176	245.122	102.699	107.130	107.689	112.201	226.890	111.568	-8191	255	
2549.785	1	1	0	0	0.19437	0.16465	0.14146	0.31469	0.068904	0.15994	0.034114	0.10987	0.2523	0.1653	0.3258	0.074469	0.14012	0.28995	0.17527	0.17968	-2.3104	-2.3583	-3.0229	-2.4896	-2.7208	-3.1188	-2.4833	-3.0729	-2.5583	-2.2	-3.1354	-2.2854	-2.6688	-3.0438	-2.1708	-2.8937	115.544	367.609	380.781	414.979	396.607	243.357	189.392	364.538	253.760	182.370	366.962	86.087	120.549	391.053	364.154	370.455	0.0010908	0.00039709	0.00015624	1346.7	6.1813e-06	4.6414e-06	1344.9	367.01	6.9989e-06	4.2872e-06	417.62	140.01	121.84	41.319	5.9304e-06	51.546	0.00066926	0.00052299	0.00014922	1371.3	5.7317e-06	5.4977e-06	1371.2	375.41	6.0178e-06	5.527e-06	428.77	143.22	124.62	42.88	5.8103e-06	53.181	105.931	171.177	173.295	98.558	217.724	243.873	98.614	103.457	217.940	251.733	102.748	107.283	107.719	112.252	227.335	111.296	-8191	255	
2549.881	1	1	0	0	0.11923	0.093132	0.1843	0.10628	0.29538	0.071188	0.47229	0.31876	0.21682	0.083215	0.13025	0.1964	0.12985	0.33875	0.23476	0.12297	-2.3792	-2.15	-3.0271	-2.5396	-2.3875	-2.9667	-2.4729	-3.0438	-2.7542	-2.0875	-3.1063	-2.6521	-2.5687	-3.0667	-2.3458	-2.8854	314.776	147.373	326.511	172.526	374.256	362.698	409.974	367.823	261.024	278.411	329.463	102.797	382.038	375.300	296.893	356.464	0.0011274	0.0004695	0.00013166	1345.5	6.6726e-06	5.3384e-06	1350.3	367.92	6.7066e-06	5.1362e-06	419.14	140.51	122.03	41.454	6.2647e-06	51.554	0.00068353	0.00056172	0.00014387	1371	6.0644e-06	5.3594e-06	1372.6	376.36	5.7278e-06	5.862e-06	429.64	143.26	124.66	42.873	5.9056e-06	53.198	106.437	185.316	179.235	98.634	220.757	233.161	98.370	103.272	216.876	250.435	102.665	107.215	107.783	112.205	229.379	111.634	-8191	255	
2549.978	1	1	0	0	0.011179	0.050193	0.15683	0.30188	0.26701	0.30717	0.48788	0.31213	0.14274	0.23096	0.12648	0.33497	0.38501	0.12356	0.088694	0.19037	-2.4792	-1.9521	-2.9854	-2.7292	-2.3312	-2.9854	-2.3958	-2.8667	-2.9146	-2.1208	-3.0875	-2.5062	-2.4	-3.1583	-2.4042	-2.8042	102.475	337.241	354.661	409.517	200.922	324.022	375.125	436.364	348.434	154.523	94.716	423.683	432.027	271.980	424.313	298.737	0.0011297	0.00056385	0.00014426	1343.7	5.9361e-06	5.1086e-06	1351.4	367.15	7.5944e-06	4.0126e-06	417.1	140.08	121.74	41.493	4.4779e-06	51.397	0.00068732	0.00054686	0.00014521	1371.9	6.1165e-06	5.5288e-06	1373	376.04	5.6965e-06	5.5654e-06	427.67	143.31	124.48	42.88	6.0208e-06	53.112	105.000	165.859	185.203	98.853	233.497	246.448	98.458	103.363	220.245	239.464	102.530	107.152	107.706	112.113	234.512	111.395	-8191	255	
2550.074	1	1	0	0	0.11107	0.17247	0.21155	0.31367	0.18307	0.21228	0.2493	0.3592	0.060518	0.15258	0.21439	0.33169	0.22849	0.09047	0.10689	0.18831	-2.6604	-2.1333	-2.7104	-2.9271	-2.0875	-3.1708	-2.6125	-2.65	-2.9688	-2.1375	-3.0042	-2.8375	-2.3146	-3	-2.525	-2.6021	410.558	293.784	132.430	413.480	278.165	263.389	412.107	443.688	158.728	374.887	372.001	366.932	423.325	443.997	362.894	359.719	0.0011146	0.0004632	0.00016561	1341.8	6.1443e-06	4.9386e-06	1340.3	368.01	7.6745e-06	6.3232e-06	419.31	140.28	121.65	41.493	6.4684e-06	51.644	0.00066306	0.00051413	0.0001461	1371.2	5.9973e-06	5.5288e-06	1370.9	376.04	5.9297e-06	5.9321e-06	429.26	143.19	124.61	42.944	5.8629e-06	53.242	105.536	153.942	174.982	98.915	230.888	241.689	98.468	103.494	221.045	249.427	102.852	107.264	107.664	112.329	228.042	111.699	-8191	255	
2550.170	1	1	0	0	0.096223	0.11413	0.24157	0.32374	0.1048	0.11182	0.24246	0.19522	0.039311	0.13342	0.25263	0.20468	0.12854	0.084928	0.06357	0.28695	-2.6208	-2.1458	-2.7125	-3.1604	-2.1188	-3.0187	-2.8083	-2.5708	-3.0625	-2.3688	-2.8229	-3.1375	-2.1688	-3.0062	-2.7188	-2.4354	153.279	219.736	305.427	389.630	232.465	289.426	419.639	350.296	224.337	352.627	434.230	100.545	408.687	389.867	276.301	425.858	0.001112	0.00041771	0.00017069	1348.1	7.4979e-06	6.9499e-06	1349.7	369.36	6.8272e-06	5.5426e-06	420.02	140.41	122.25	41.441	6.1985e-06	51.251	0.00067094	0.00052321	0.00014165	1374.1	5.9994e-06	5.5401e-06	1373	376.25	5.565e-06	5.8466e-06	429.32	143.31	124.71	42.877	5.9262e-06	53.052	102.935	154.798	176.753	98.784	224.425	236.286	98.517	103.548	206.389	251.239	103.241	107.146	107.722	112.338	234.446	111.430	-8191	255	
2550.289	1	1	0	0	0.1454	0.16336	0.062178	0.40298	0.24361	0.11847	0.40587	0.3238	0.18948	0.090659	0.16797	0.084079	0.32542	0.084061	0.072108	0.054183	-2.7625	-2.3771	-2.4813	-3.2625	-2.2646	-3.0438	-2.6896	-2.4146	-3.0167	-2.5312	-2.5708	-3.1833	-2.1188	-2.9896	-2.7521	-2.1875	368.503	173.892	426.883	400.185	242.768	272.127	403.526	430.999	150.524	163.310	279.046	248.729	406.902	132.190	341.115	169.687	0.0011304	0.00043279	0.00017687	1346.9	7.9283e-06	5.4541e-06	1346.4	366.97	7.6025e-06	5.456e-06	421.2	139.77	122.43	41.59	5.8239e-06	51.611	0.00067519	0.0005383	0.00014432	1374.4	5.9494e-06	5.8142e-06	1373.1	375.88	5.6524e-06	5.8329e-06	429.3	143.13	124.79	42.973	5.6456e-06	53.162	105.437	171.172	178.055	98.786	221.160	250.516	98.489	103.251	222.052	230.899	102.987	107.181	107.649	112.468	235.390	111.519	-8191	255	
2550.385	1	1	0	0	0.19282	0.27286	0.099042	0.21037	0.23214	0.1631	0.28695	0.1394	0.27661	0.2159	0.1552	0.20149	0.27804	0.096859	0.12434	0.083102	-2.8458	-2.2917	-2.3146	-3.1604	-2.3042	-2.9167	-2.9917	-2.1271	-2.8771	-2.425	-2.4896	-3.2604	-2.3333	-2.9083	-2.8604	-2.2604	242.289	122.610	434.604	412.622	406.934	252.032	365.653	93.864	408.817	248.661	343.451	216.829	433.885	99.146	188.292	347.342	0.0011287	0.00051693	0.0001461	1347.4	5.9254e-06	3.1328e-06	1346.3	367.64	7.2819e-06	5.3155e-06	419.69	140.13	122.09	41.515	6.2106e-06	51.432	0.00067228	0.00051781	0.00014784	1375	5.756e-06	5.4994e-06	1372.1	376.24	5.5799e-06	5.5783e-06	428.72	143.25	124.67	42.862	5.5594e-06	53.136	104.202	167.789	168.655	98.770	220.093	228.882	98.507	103.393	219.315	247.246	102.739	107.172	107.598	112.495	229.879	111.494	-8191	255	
2550.481	1	1	0	0	0.20159	0.23786	0.0022034	0.1934	0.20574	0.19226	0.48305	0.29868	0.32134	0.056619	0.36847	0.316	0.11664	0.19117	0.12715	0.17399	-2.6979	-2.5625	-2.4562	-3.1875	-2.3146	-2.6625	-2.975	-2.3	-2.9625	-2.6479	-2.4542	-3.1854	-2.4083	-2.4542	-3.05	-2.3917	307.049	160.064	262.934	412.034	389.438	320.609	376.329	394.263	383.974	388.781	371.740	358.859	157.152	384.800	206.792	92.758	0.0011399	0.00049263	0.00016247	1344.7	6.2779e-06	5.5097e-06	1346.3	368.51	9.5434e-06	6.1048e-06	417.25	140.44	122.13	41.319	6.0164e-06	51.671	0.0006683	0.00053395	0.00015017	1371.2	5.878e-06	5.5115e-06	1372.2	376.22	5.9659e-06	5.68e-06	429.2	143.51	124.75	42.856	5.6349e-06	53.136	104.869	171.632	178.942	98.696	213.833	244.941	98.524	103.497	220.709	249.496	102.864	107.103	107.807	112.286	222.981	111.410	-8191	255	
2550.577	1	1	0	0	0.086327	0.16227	0.38731	0.22322	0.19153	0.40189	0.18633	0.35433	0.11762	0.13205	0.1044	0.050759	0.065617	0.16645	0.074616	0.20165	-2.675	-2.6833	-2.1021	-3.2313	-2.2687	-2.6146	-3.0396	-2.3292	-2.9646	-2.7625	-2.1771	-3.1396	-2.3937	-2.5458	-3.0625	-1.9208	131.198	407.275	327.783	435.336	410.390	426.900	421.697	416.450	195.783	348.853	424.083	155.575	309.904	385.783	182.594	334.257	0.0011241	0.00060876	0.00014962	1346.4	6.1714e-06	6.3707e-06	1345.3	367.38	7.8542e-06	5.7036e-06	418.63	140.41	122.49	41.423	6.7151e-06	51.529	0.00066796	0.00050707	0.00014705	1373.5	5.8559e-06	5.7986e-06	1372.4	375.88	5.9382e-06	6.0423e-06	429.02	143.24	124.83	42.867	5.5068e-06	53.077	106.055	169.760	178.878	98.782	222.860	228.465	98.662	103.389	216.621	232.307	102.730	107.025	107.664	112.438	220.343	111.488	-8191	255	
#DATA ENDS
