BOXY.EXE: ISS Imagent and Oximeter Data Acquisition Program Version 0.80
Ascii Record File

#ACQ INFORMATION
2  Detector Channels 
16  External MUX Channels 
1  Auxiliary Channels 
5000  Waveform (CCF) Frequency (Hz)
1  Waveforms Skipped 
30  Waveforms Averaged 
1  Cycles Averaged 
16  Acquisitions per Waveform 
10.0806  Updata Rate (Hz) 

#FILE INFORMATION
TRUE -- External MUX Channel results are PARSED.
FALSE -- AC DC and Phase are NOT grouped.
TRUE -- Companion Program Settings File CREATED.
FALSE -- AC data not excluded
FALSE -- DC data not excluded
FALSE -- Phase data not excluded
FALSE -- Auxillary Chn. data not excluded
Tab delimiters

#CALIBRATION STATE
TRUE -- Waveform Calibration Values APPLIED.


#AUX CALIBRATION VALUES
Val Type	aux-1	

Term	1.0000e+00	
Factor	0.0000e+00	


#WF CALIBRATION VALUES
A = Detector Channel
Val Type	A-AC1	A-AC2	A-AC3	A-AC4	A-AC5	A-AC6	A-AC7	A-AC8	A-AC9	A-AC10	A-AC11	A-AC12	A-AC13	A-AC14	A-AC15	A-AC16	A-DC1	A-DC2	A-DC3	A-DC4	A-DC5	A-DC6	A-DC7	A-DC8	A-DC9	A-DC10	A-DC11	A-DC12	A-DC13	A-DC14	A-DC15	A-DC16	A-Ph1	A-Ph2	A-Ph3	A-Ph4	A-Ph5	A-Ph6	A-Ph7	A-Ph8	A-Ph9	A-Ph10	A-Ph11	A-Ph12	A-Ph13	A-Ph14	A-Ph15	A-Ph16	

Term	0.00000e+00	0.00000e+00	0.00000e+00	0.00000e+00	0.00000e+00	0.00000e+00	0.00000e+00	0.00000e+00	0.00000e+00	0.00000e+00	0.00000e+00	0.00000e+00	0.00000e+00	0.00000e+00	0.00000e+00	0.00000e+00	0.00000e+00	0.00000e+00	0.00000e+00	0.00000e+00	0.00000e+00	0.00000e+00	0.00000e+00	0.00000e+00	0.00000e+00	0.00000e+00	0.00000e+00	0.00000e+00	0.00000e+00	0.00000e+00	0.00000e+00	0.00000e+00	0.00000e+00	0.00000e+00	0.00000e+00	0.00000e+00	0.00000e+00	0.00000e+00	0.00000e+00	0.00000e+00	0.00000e+00	0.00000e+00	0.00000e+00	0.00000e+00	0.00000e+00	0.00000e+00	0.00000e+00	0.00000e+00	
Factor	1.00000e+00	1.00000e+00	1.00000e+00	1.00000e+00	1.00000e+00	1.00000e+00	1.00000e+00	1.00000e+00	1.00000e+00	1.00000e+00	1.00000e+00	1.00000e+00	1.00000e+00	1.00000e+00	1.00000e+00	1.00000e+00	1.00000e+00	1.00000e+00	1.00000e+00	1.00000e+00	1.00000e+00	1.00000e+00	1.00000e+00	1.00000e+00	1.00000e+00	1.00000e+00	1.00000e+00	1.00000e+00	1.00000e+00	1.00000e+00	1.00000e+00	1.00000e+00	X	X	X	X	X	X	X	X	X	X	X	X	X	X	X	X	

B = Detector Channel
Val Type	B-AC1	B-AC2	B-AC3	B-AC4	B-AC5	B-AC6	B-AC7	B-AC8	B-AC9	B-AC10	B-AC11	B-AC12	B-AC13	B-AC14	B-AC15	B-AC16	B-DC1	B-DC2	B-DC3	B-DC4	B-DC5	B-DC6	B-DC7	B-DC8	B-DC9	B-DC10	B-DC11	B-DC12	B-DC13	B-DC14	B-DC15	B-DC16	B-Ph1	B-Ph2	B-Ph3	B-Ph4	B-Ph5	B-Ph6	B-Ph7	B-Ph8	B-Ph9	B-Ph10	B-Ph11	B-Ph12	B-Ph13	B-Ph14	B-Ph15	B-Ph16	

Term	0.00000e+00	0.00000e+00	0.00000e+00	0.00000e+00	0.00000e+00	0.00000e+00	0.00000e+00	0.00000e+00	0.00000e+00	0.00000e+00	0.00000e+00	0.00000e+00	0.00000e+00	0.00000e+00	0.00000e+00	0.00000e+00	0.00000e+00	0.00000e+00	0.00000e+00	0.00000e+00	0.00000e+00	0.00000e+00	0.00000e+00	0.00000e+00	0.00000e+00	0.00000e+00	0.00000e+00	0.00000e+00	0.00000e+00	0.00000e+00	0.00000e+00	0.00000e+00	-1.93096e+02	-1.31651e+02	-1.26893e+02	-1.81391e+02	-8.12550e+01	-6.54229e+01	-1.56795e+02	-1.62015e+02	-8.71340e+01	-6.29356e+01	-1.74004e+02	-1.71240e+02	-1.79095e+02	-1.76490e+02	-7.82813e+01	-1.49299e+02	
Factor	3.61994e-05	1.37445e-04	4.05246e-05	1.50909e-01	1.47821e-06	1.56133e-06	1.51247e-01	4.83322e-02	1.61963e-06	1.49477e-06	8.33551e-02	2.69328e-02	2.70377e-02	8.24457e-03	1.53392e-06	1.18361e-02	1.83736e-05	3.60318e-05	1.01782e-05	8.04857e-02	3.42701e-07	4.15052e-07	7.58372e-02	2.58983e-02	3.41234e-07	4.10228e-07	4.32733e-02	1.39519e-02	1.46541e-02	4.46483e-03	3.66053e-07	6.20000e-03	X	X	X	X	X	X	X	X	X	X	X	X	X	X	X	X	



#DISTANCE SETTINGS
A = Detector Channel
A-1	A-2	A-3	A-4	A-5	A-6	A-7	A-8	A-9	A-10	A-11	A-12	A-13	A-14	A-15	A-16	

2.5000e+00	3.0000e+00	2.5000e+00	3.0000e+00	2.0000e+00	3.0000e+00	1.5000e+00	3.0000e+00	3.0000e+00	3.0000e+00	3.0000e+00	3.0000e+00	3.0000e+00	3.0000e+00	1.5000e+00	3.0000e+00	

B = Detector Channel
B-1	B-2	B-3	B-4	B-5	B-6	B-7	B-8	B-9	B-10	B-11	B-12	B-13	B-14	B-15	B-16	

1.0000e+01	1.0000e+01	1.0000e+01	1.4400e+00	1.0000e+01	1.0000e+01	1.5100e+00	1.9400e+00	1.0000e+01	1.0000e+01	1.9900e+00	2.4900e+00	2.4100e+00	2.9000e+00	1.0000e+01	2.9800e+00	




#DATA BEGINS
time	group	step	mark	flag	A-AC1	A-AC2	A-AC3	A-AC4	A-AC5	A-AC6	A-AC7	A-AC8	A-AC9	A-AC10	A-AC11	A-AC12	A-AC13	A-AC14	A-AC15	A-AC16	A-DC1	A-DC2	A-DC3	A-DC4	A-DC5	A-DC6	A-DC7	A-DC8	A-DC9	A-DC10	A-DC11	A-DC12	A-DC13	A-DC14	A-DC15	A-DC16	A-Ph1	A-Ph2	A-Ph3	A-Ph4	A-Ph5	A-Ph6	A-Ph7	A-Ph8	A-Ph9	A-Ph10	A-Ph11	A-Ph12	A-Ph13	A-Ph14	A-Ph15	A-Ph16	B-AC1	B-AC2	B-AC3	B-AC4	B-AC5	B-AC6	B-AC7	B-AC8	B-AC9	B-AC10	B-AC11	B-AC12	B-AC13	B-AC14	B-AC15	B-AC16	B-DC1	B-DC2	B-DC3	B-DC4	B-DC5	B-DC6	B-DC7	B-DC8	B-DC9	B-DC10	B-DC11	B-DC12	B-DC13	B-DC14	B-DC15	B-DC16	B-Ph1	B-Ph2	B-Ph3	B-Ph4	B-Ph5	B-Ph6	B-Ph7	B-Ph8	B-Ph9	B-Ph10	B-Ph11	B-Ph12	B-Ph13	B-Ph14	B-Ph15	B-Ph16	aux-1	digaux	

2625.005	1	1	0	256	0.080355	0.029506	0.24555	0.2963	0.082688	0.075385	0.043106	0.12339	0.075395	0.18041	0.052372	0.09187	0.18307	0.070129	0.10165	0.2184	-1.9729	-2.8646	-2.9813	-2.475	-2.9646	-2.675	-2.625	-3.2562	-2.4229	-2.8771	-3.1979	-2.1958	-2.9792	-2.8458	-2.2	-3.1688	322.506	427.143	250.072	423.102	336.146	383.442	351.402	161.486	133.769	223.071	169.136	406.298	132.270	404.696	441.135	399.738	0.00060604	0.00032235	7.1024e-05	1121.5	6.1746e-06	2.8569e-06	1221	238.29	3.1718e-06	6.1116e-06	296.89	82.425	64.811	18.62	5.3674e-06	25.754	0.0020485	0.0036656	0.0010468	1123.2	3.5043e-05	4.146e-05	1220.8	240.5	3.4866e-05	4.0699e-05	301.8	83.804	66.16	19.346	3.7562e-05	26.928	117.846	225.027	194.164	101.423	211.150	263.263	101.138	109.232	224.773	275.143	108.895	115.408	115.751	123.069	222.601	121.883	-8191	255	
2625.101	1	1	0	0	0.039804	0.097816	0.13519	0.14094	0.065653	0.22862	0.10456	0.28943	0.27692	0.20668	0.10036	0.11174	0.17218	0.11202	0.26038	0.08428	-1.9562	-2.5917	-3.0229	-2.3167	-3.0062	-2.7729	-2.5875	-2.975	-2.4938	-2.5292	-2.9417	-2.4042	-3.0208	-2.7521	-2.2458	-3.1271	195.133	248.480	398.156	404.766	376.640	123.876	289.859	352.478	301.999	368.859	323.897	255.103	321.401	194.824	126.262	226.607	0.00060116	0.00034551	0.00016474	1118.5	7.2407e-06	4.8891e-06	1219.1	238.82	7.7066e-06	2.9335e-06	296.99	82.05	64.811	18.561	4.9297e-06	25.788	0.0020299	0.0036003	0.0010206	1120.6	3.4306e-05	4.1221e-05	1218.4	240.24	3.4072e-05	4.1742e-05	302.13	83.755	66.268	19.319	3.7408e-05	26.957	107.951	175.061	212.082	101.456	216.507	249.993	101.334	108.959	230.438	281.312	108.478	115.173	115.585	122.880	272.989	122.365	-8191	255	
2625.197	1	1	0	0	0.13453	0.22453	0.077546	0.38119	0.12058	0.13612	0.37773	0.23064	0.051434	0.12452	0.09754	0.16492	0.14628	0.038113	0.10834	0.054741	-2.1208	-2.4479	-2.9562	-2.525	-2.6708	-2.9104	-2.5812	-3.3083	-2.3729	-2.4688	-3.275	-2.4896	-2.8333	-2.9813	-2.1417	-3.1146	196.115	404.746	110.805	432.189	412.101	373.482	389.728	436.674	261.856	429.495	352.774	436.961	380.943	392.009	247.328	173.710	0.0005171	0.00029068	0.00016624	1124.2	3.2867e-06	2.2712e-06	1215	237.56	7.3898e-06	3.6812e-06	296.11	81.944	64.895	18.575	4.4675e-06	25.717	0.0019942	0.0036504	0.00099833	1122.6	3.4674e-05	3.9925e-05	1218	240.32	3.3435e-05	4.0463e-05	301.57	83.666	66.19	19.356	3.5859e-05	26.886	122.147	224.532	173.824	101.521	209.350	343.128	101.402	108.885	241.931	269.138	108.411	115.287	115.708	123.260	242.763	122.249	-8191	255	
2625.293	1	1	0	0	0.13929	0.13679	0.1271	0.21144	0.22927	0.26246	0.38719	0.17217	0.1468	0.14063	0.27045	0.10725	0.04312	0.18158	0.19687	0.30868	-2.0958	-2.2938	-3.0958	-2.6271	-2.8396	-3	-2.3833	-3.0292	-2.6312	-2.3729	-3.1958	-2.3563	-2.5708	-2.9771	-2.2229	-2.8583	127.990	448.553	423.031	103.425	193.398	402.405	422.574	432.736	159.110	275.034	416.565	156.405	360.691	385.354	244.982	188.462	0.00055495	0.00030302	0.00011345	1120.2	3.0148e-06	6.4588e-06	1217.4	237.2	4.4121e-06	1.9801e-07	295.99	82.045	64.657	18.687	3.7915e-06	25.72	0.0019947	0.0035407	0.00099653	1120.9	3.3902e-05	4.1135e-05	1214.6	239.85	3.3703e-05	4.0179e-05	301.25	83.486	66.103	19.368	3.5905e-05	26.868	109.525	191.540	233.799	101.432	249.287	214.820	101.456	109.252	225.585	266.046	108.640	115.456	115.825	123.180	241.366	122.261	-8191	255	
2625.412	1	1	0	0	0.12924	0.10906	0.11014	0.21508	0.20134	0.26101	0.23392	0.15476	0.091558	0.13392	0.19013	0.22516	0.23448	0.017938	0.14859	0.15423	-2.4583	-2.1125	-3.0542	-2.4771	-2.65	-3.0396	-2.4688	-3.0396	-2.7104	-2.1625	-3.0687	-2.5458	-2.1646	-3.1292	-2.0958	-2.8708	127.432	397.541	107.996	446.357	364.371	352.284	388.808	402.338	275.665	352.687	162.582	430.020	434.184	221.331	450.649	104.075	0.00060308	0.0002563	0.00014055	1118.8	6.9241e-06	3.7784e-06	1215.9	236.96	2.2366e-06	1.6589e-06	296.41	82.01	64.431	18.567	3.3385e-06	25.682	0.0020283	0.0036359	0.0010099	1118.1	3.4167e-05	4.0813e-05	1215.9	239.66	3.2867e-05	4.0594e-05	301.27	83.412	65.827	19.316	3.5795e-05	26.845	112.257	179.326	164.184	101.579	211.599	239.087	101.497	109.366	147.865	269.451	108.542	115.362	116.073	122.820	209.311	122.766	-8191	255	
2625.484	1	1	0	0	0.18213	0.058228	0.12058	0.36744	0.22365	0.1427	0.064173	0.17254	0.27761	0.039962	0.27502	0.31051	0.20557	0.096734	0.080952	0.20317	-2.5708	-2.4521	-2.9562	-2.7354	-2.4625	-3.0375	-2.3604	-2.9313	-2.7646	-2.4167	-3.1229	-2.6	-2.5167	-3.0646	-2.3375	-2.8125	431.279	127.055	149.919	445.383	232.343	340.135	360.027	137.775	124.256	253.773	362.705	436.267	296.839	332.309	306.295	387.523	0.00049931	0.00038531	0.00018031	1119.2	4.2438e-06	6.8959e-08	1215.1	237.58	3.14e-06	3.101e-06	296.9	81.95	64.655	18.573	4.2834e-06	25.884	0.0020033	0.0035262	0.00097286	1118.1	3.4357e-05	4.0321e-05	1213.3	239.8	3.4078e-05	4.0196e-05	301.6	83.534	66.028	19.277	3.6251e-05	26.951	99.728	232.301	206.809	101.668	198.292	406.514	101.488	109.258	179.126	171.833	108.593	115.306	115.937	122.765	218.403	122.437	-8191	255	
2625.581	1	1	0	0	0.11627	0.093744	0.25616	0.30333	0.164	0.17325	0.19407	0.12983	0.13178	0.18438	0.36335	0.069383	0.087028	0.23273	0.134	0.10109	-2.6208	-2.3063	-2.9333	-2.8646	-2.3792	-3.2896	-2.4062	-2.5958	-2.9771	-2.1125	-3.1854	-2.8896	-2.3312	-3.3333	-2.525	-2.6875	243.704	408.046	297.488	419.503	438.315	223.517	357.152	159.548	294.995	308.957	440.289	345.450	109.990	307.555	235.506	321.348	0.00060616	0.00064227	0.0001088	1119.9	1.8086e-06	2.9778e-06	1215.5	238.43	6.1272e-06	4.0183e-06	295.24	82.098	64.615	18.603	4.0893e-06	25.682	0.002047	0.0035582	0.00095113	1118.4	3.3937e-05	3.9778e-05	1214.3	240.2	3.42e-05	3.9937e-05	301.26	83.655	66.001	19.329	3.4895e-05	26.935	107.038	178.114	238.320	101.645	210.113	202.066	101.394	109.296	184.340	266.300	108.739	115.471	115.689	122.880	211.409	122.237	-8191	255	
2625.700	1	1	0	0	0.091869	0.051047	0.14143	0.2674	0.24064	0.067417	0.24161	0.12935	0.050786	0.2039	0.149	0.078947	0.24533	0.23534	0.17754	0.18731	-2.6854	-2.3375	-2.7604	-2.9708	-1.9604	-3.1583	-2.5396	-2.8229	-2.975	-2.2687	-3.0458	-2.8917	-2.2188	-3.0833	-2.4146	-2.5625	184.549	405.840	134.153	376.691	286.746	195.438	344.396	117.083	176.076	110.519	95.661	374.023	95.406	357.132	243.910	141.070	0.000538	0.00016736	0.00015207	1123.4	6.4195e-06	2.4266e-06	1214	237.91	9.4469e-06	3.5981e-06	297.2	81.819	64.52	18.568	4.5985e-06	25.748	0.0020043	0.0034555	0.00097573	1119	3.3683e-05	3.9631e-05	1212.1	239.66	3.3174e-05	3.9104e-05	300.75	83.365	65.702	19.242	3.4873e-05	26.881	100.879	235.073	187.631	101.483	197.593	241.718	101.608	108.898	258.440	259.808	108.645	115.441	115.628	123.008	215.040	122.454	-8191	255	
2625.796	1	1	0	0	0.095895	0.23054	0.20057	0.22309	0.11782	0.09441	0.1931	0.14809	0.2006	0.23178	0.097577	0.21762	0.21855	0.038961	0.067164	0.3175	-2.6854	-2.2271	-2.6458	-3.0438	-2.3563	-3.1625	-2.7333	-2.3937	-3.2208	-2.4146	-2.7146	-3.0479	-2.3104	-2.9188	-2.6083	-2.4417	378.465	214.270	167.458	413.110	251.216	100.357	402.018	297.849	247.953	96.294	171.132	133.642	445.963	403.892	118.469	200.320	0.00060775	0.00019185	0.00012818	1120.4	5.4634e-06	3.9395e-06	1218.8	236.83	8.1878e-06	3.2626e-06	297.46	82.319	64.44	18.368	6.3216e-06	25.762	0.0019797	0.0034564	0.00097706	1118.5	3.4287e-05	3.8915e-05	1214.2	239.35	3.3528e-05	3.8617e-05	301.48	83.655	65.937	19.225	3.4892e-05	26.857	111.655	286.884	147.103	101.567	226.982	238.817	101.584	109.147	217.843	143.706	108.711	115.405	115.893	122.952	233.533	121.935	-8191	255	
2625.893	1	1	0	0	0.17104	0.22384	0.36591	0.42086	0.13014	0.11746	0.071971	0.13524	0.12162	0.23663	0.21636	0.21312	0.38007	0.28325	0.064072	0.12056	-2.5729	-2.3708	-2.5542	-3.2313	-2.25	-2.9958	-2.9437	-2.2146	-3.1688	-2.4125	-2.6896	-3.0958	-2.0271	-3.075	-2.9083	-2.3958	179.394	198.493	432.405	95.381	352.372	357.564	319.635	162.859	126.737	93.806	321.225	442.088	438.847	123.916	240.240	375.340	0.00059551	0.00018572	7.889e-05	1121.3	4.4765e-06	4.0864e-06	1213.2	238.06	6.1749e-06	2.4553e-06	296.41	81.855	64.623	18.593	4.2871e-06	25.878	0.0019393	0.0034759	0.00096703	1119.5	3.3101e-05	3.874e-05	1210.6	239.54	3.3102e-05	3.8484e-05	300.87	83.47	65.816	19.291	3.5744e-05	26.879	108.647	242.176	147.131	101.570	258.011	212.340	101.289	109.286	224.099	295.869	108.558	115.408	115.856	123.107	222.282	122.593	-8191	255	
2626.013	1	1	0	0	0.2886	0.13715	0.092543	0.25606	0.073318	0.1126	0.17397	0.36442	0.15033	0.041323	0.24584	0.10086	0.095371	0.083628	0.078823	0.10833	-2.7854	-2.5146	-2.4313	-3.1333	-2.2042	-2.8563	-2.9833	-2.3229	-2.9188	-2.5104	-2.5229	-2.9583	-2.2417	-2.7292	-3.0187	-2.1396	319.111	397.973	239.711	395.078	173.340	400.536	338.216	405.360	141.615	325.498	349.534	272.391	287.854	136.568	316.374	252.541	0.00052569	0.00050489	0.00010376	1118.3	5.3564e-06	3.5659e-06	1213	237.46	2.0504e-06	2.478e-06	295.97	81.929	64.925	18.544	7.2092e-06	25.646	0.0020073	0.0034687	0.00099303	1117.8	3.4364e-05	3.9448e-05	1212.4	239.67	3.3225e-05	3.9343e-05	301.22	83.414	65.965	19.254	3.5008e-05	26.809	111.760	189.116	165.229	101.517	217.380	275.938	101.707	109.066	210.387	229.800	108.785	115.613	115.603	122.737	212.784	122.199	-8191	255	
2626.108	1	1	0	0	0.10844	0.15504	0.31184	0.28596	0.17353	0.25387	0.42267	0.28332	0.12668	0.27107	0.19297	0.31793	0.16354	0.078576	0.1518	0.15731	-2.6	-2.5167	-2.2687	-3.2896	-2.2646	-2.7354	-3.1896	-2.1458	-2.9771	-2.6396	-2.4042	-3.1708	-2.2042	-2.6771	-2.9479	-2.1937	136.435	269.052	178.416	137.725	125.257	244.859	419.113	379.764	110.422	415.281	442.195	337.616	113.632	350.578	403.046	374.474	0.00054266	0.00035311	2.4132e-05	1121.4	7.2243e-06	1.5022e-06	1212.3	236.82	7.6749e-07	4.5044e-06	296.74	81.721	64.605	18.497	3.6999e-06	25.509	0.0019665	0.0034996	0.00098675	1118.4	3.2811e-05	3.9289e-05	1212.8	239.45	3.2535e-05	3.8755e-05	300.64	83.283	65.788	19.28	3.4513e-05	26.851	109.794	148.064	175.423	101.337	213.259	132.752	101.602	109.124	438.093	278.496	108.916	115.530	115.781	123.060	266.453	122.574	-8191	255	
2626.181	1	1	0	0	0.17935	0.20969	0.40006	0.086702	0.14203	0.080124	0.25382	0.38028	0.41639	0.089997	0.11297	0.031021	0.021491	0.040078	0.28089	0.37611	-2.7167	-2.5958	-2.2375	-3.2271	-2.5979	-2.5042	-3.2271	-2.2708	-2.8688	-2.8187	-2.3792	-2.9833	-2.4396	-2.4625	-3.2625	-2.2417	333.037	393.518	97.632	384.748	187.403	281.300	411.228	386.130	115.061	410.417	122.601	292.583	107.690	141.115	334.768	318.127	0.00067936	0.0004605	0.00013811	1116.4	5.5588e-06	4.3038e-06	1214.4	237.07	4.8833e-06	1.7398e-06	294.19	81.726	64.18	18.558	4.1535e-06	25.677	0.0018704	0.0032544	0.00094744	1114.2	3.1408e-05	3.9181e-05	1208.9	238.77	3.1945e-05	3.7881e-05	299.41	83.325	65.538	19.264	3.442e-05	26.813	111.296	215.692	179.850	101.619	246.002	234.971	101.698	108.998	195.244	391.886	108.604	115.593	115.903	123.060	261.763	122.599	-8191	255	
2626.302	1	1	0	0	0.16964	0.0242	0.12988	0.24967	0.1361	0.26419	0.082576	0.1885	0.17178	0.10262	0.25839	0.12837	0.027122	0.14599	0.28509	0.20734	-2.3417	-3.025	-2.1854	-3.2458	-2.7271	-2.3542	-3.1333	-2.4292	-2.8812	-2.9417	-2.1771	-3.0854	-2.7354	-2.2167	-3.0021	-2.3104	391.478	219.417	411.018	412.161	408.259	279.507	372.436	398.925	122.988	147.384	415.159	219.671	385.172	400.352	118.830	249.907	0.00069021	0.00057511	1.3922e-07	1116.3	3.958e-06	1.5767e-06	1209.8	237.47	5.512e-06	4.1377e-06	294.02	81.966	64.804	18.479	2.8897e-06	25.739	0.0019282	0.0033798	0.00095327	1114.5	3.3227e-05	3.9165e-05	1210	238.89	3.2583e-05	3.8361e-05	299.76	83.365	65.817	19.233	3.4409e-05	26.763	107.567	212.831	375.864	101.553	187.408	272.978	101.758	109.188	261.297	259.058	108.518	115.439	115.915	123.084	188.411	122.460	-8191	255	
2626.396	1	1	0	0	0.15966	0.09255	0.16546	0.11393	0.15182	0.37891	0.30574	0.28083	0.14887	0.087107	0.11349	0.28146	0.089872	0.12426	0.022971	0.082204	-2.1437	-2.9167	-2.2042	-3.2104	-2.6667	-2.3604	-3.2438	-2.6229	-2.6937	-3.0396	-2.5187	-3.0167	-2.9521	-2.2208	-3.2896	-2.4521	361.292	195.642	265.082	150.808	289.453	114.227	346.711	359.478	338.193	269.282	277.073	441.503	164.051	122.762	390.500	337.507	0.00064102	0.00019432	0.00016865	1114.7	6.034e-06	3.6419e-06	1210.7	236.89	3.7301e-06	5.8754e-06	297.12	81.454	64.193	18.414	6.7231e-06	25.674	0.0019543	0.0034459	0.00095497	1114.4	3.3695e-05	3.9205e-05	1207.5	238.52	3.2422e-05	3.8682e-05	300.41	83.227	65.72	19.217	3.3645e-05	26.811	107.466	154.822	173.629	101.690	230.782	261.143	101.732	108.898	238.008	227.179	108.915	115.392	115.949	123.446	235.094	122.256	-8191	255	
2626.492	1	1	0	0	0.21451	0.12725	0.28498	0.21984	0.093867	0.17647	0.10132	0.043519	0.43648	0.037438	0.24843	0.087509	0.18294	0.13726	0.28802	0.33137	-2.1229	-2.9375	-2.1854	-3.1083	-2.8271	-2.1437	-3.1417	-2.6021	-2.4521	-3.2646	-2.2479	-2.8167	-3.0438	-2.1854	-3.0875	-2.675	296.871	131.000	175.344	448.999	338.299	211.340	414.937	350.336	116.104	381.432	107.536	441.778	312.155	335.420	370.915	381.523	0.00060998	0.00035452	7.942e-05	1115.3	6.2916e-06	4.8587e-06	1215.7	235.92	9.4565e-06	3.3187e-06	294.52	81.646	64.262	18.684	1.6069e-06	25.708	0.0019732	0.0033778	0.00095917	1115	3.3918e-05	3.9772e-05	1212.4	238.56	3.2575e-05	3.8144e-05	299.67	83.305	65.554	19.303	3.3504e-05	26.794	104.305	189.842	163.027	101.625	251.655	236.195	101.586	109.292	233.941	254.916	108.984	115.583	115.637	123.007	244.081	122.081	-8191	255	
2626.588	1	1	0	0	0.40099	0.16733	0.20266	0.16436	0.10346	0.030669	0.14295	0.28292	0.13287	0.11143	0.14411	0.084051	0.094877	0.21519	0.20072	0.25782	-2.0604	-3.1021	-2.3021	-3.0625	-3.0271	-2.2104	-3.2333	-2.7917	-2.3958	-3.2083	-2.5583	-2.6312	-3.075	-2.3479	-2.9875	-2.7938	188.437	441.206	383.586	375.904	389.224	374.384	426.469	136.881	260.257	188.512	433.296	387.696	406.500	166.201	360.374	351.200	0.00068278	0.00011847	5.228e-05	1113.8	5.5521e-06	3.3802e-06	1206.8	237.18	4.5904e-06	3.2384e-06	294.56	82.381	63.963	18.467	5.6079e-06	25.607	0.0018882	0.003316	0.00093067	1114.4	3.2854e-05	3.8589e-05	1209.7	238.84	3.2484e-05	3.8702e-05	299.81	83.464	65.461	19.226	3.3371e-05	26.789	109.151	396.062	135.517	101.792	226.033	211.688	101.681	109.300	210.327	204.398	108.787	115.591	116.164	123.088	232.286	122.380	-8191	255	
2626.709	1	1	0	0	0.13699	0.26109	0.11933	0.12578	0.39555	0.063163	0.26285	0.10744	0.14596	0.12865	0.10624	0.090476	0.19154	0.054421	0.21084	0.12787	-1.9354	-3.2125	-2.3312	-2.6188	-3.025	-2.3187	-3.0333	-2.9125	-2.0771	-3.0438	-2.6937	-2.4583	-3.1021	-2.3417	-3.0292	-2.7333	438.896	264.638	103.526	369.251	421.919	110.580	378.655	116.316	313.750	349.797	195.173	400.712	272.495	150.891	298.931	112.915	0.00059953	0.00069077	1.1732e-05	1110.6	5.5997e-06	4.5764e-06	1212.1	236.8	6.2742e-06	2.983e-06	295.54	81.772	64.536	18.396	6.6768e-06	25.855	0.0019836	0.0033338	0.0009326	1112.8	3.3296e-05	3.9224e-05	1210.1	238.71	3.3496e-05	3.835e-05	299.98	83.484	65.754	19.24	3.4324e-05	26.842	113.173	146.206	107.302	101.724	202.565	285.626	101.851	109.146	226.219	227.594	108.518	115.434	115.677	123.167	236.771	122.589	-8191	255	
2626.781	1	1	0	0	0.31066	0.070278	0.10037	0.14538	0.084436	0.023719	0.20769	0.31624	0.15871	0.20087	0.13301	0.11099	0.13921	0.067018	0.22162	0.098824	-1.8271	-3.1375	-2.5375	-2.5292	-3.2458	-2.3458	-3.0646	-3.0083	-2.3208	-3.2	-2.7188	-2.475	-3.2021	-2.4813	-2.6333	-2.9562	208.855	357.596	113.365	323.108	381.920	307.146	401.161	397.246	239.137	100.233	429.759	444.002	178.584	369.789	163.465	172.570	0.00064167	0.00030071	9.9276e-05	1115.3	9.0697e-06	1.4441e-06	1208.7	235.78	3.8044e-06	5.1092e-06	294.32	81.308	64.286	18.294	3.251e-06	25.672	0.0019997	0.0034277	0.00095747	1114.4	3.3061e-05	3.8281e-05	1207.9	238.53	3.329e-05	3.7765e-05	299.36	83.181	65.784	19.165	3.4933e-05	26.897	109.478	164.691	145.215	101.777	231.714	281.710	101.583	109.270	223.087	327.203	108.719	115.361	115.957	123.030	238.137	122.364	-8191	255	
2626.877	1	1	0	0	0.38837	0.14865	0.082886	0.39899	0.13844	0.2451	0.20639	0.21929	0.17959	0.15764	0.16241	0.20812	0.12641	0.17349	0.08759	0.1245	-1.8125	-3.0146	-2.6604	-2.3854	-2.9229	-2.3792	-2.7854	-3.15	-2.1292	-2.9333	-2.8458	-2.3979	-3.1792	-2.4708	-2.6125	-3.1	398.478	158.517	361.584	429.128	321.051	265.799	295.492	437.934	310.088	358.729	422.570	331.651	314.000	237.077	438.769	350.489	0.00054073	0.00023176	0.00013944	1110.2	3.8368e-06	3.1631e-06	1206.7	236.1	8.1018e-06	5.1878e-06	294.87	81.485	64.153	18.551	5.2415e-06	25.674	0.0019403	0.0032892	0.00096224	1112.4	3.2732e-05	3.8051e-05	1209.2	238.5	3.2313e-05	3.6955e-05	300.18	83.218	65.486	19.24	3.4893e-05	26.867	113.926	431.691	215.426	101.693	239.942	267.621	101.882	109.206	243.588	280.055	108.601	115.619	115.758	122.957	228.017	122.536	-8191	255	
2626.973	1	1	0	0	0.085987	0.20545	0.15812	0.13008	0.14898	0.11881	0.24836	0.14518	0.12568	0.084887	0.13787	0.33208	0.15512	0.16233	0.24378	0.10911	-1.9979	-2.7792	-2.7729	-2.4417	-3.1	-2.5229	-2.7333	-3.2375	-2.4979	-2.8917	-2.7542	-2.4146	-3.1833	-2.6292	-2.4333	-3.1875	393.168	179.788	218.155	312.512	387.195	259.752	418.336	320.480	399.450	228.798	419.365	418.412	130.922	403.366	122.554	230.730	0.0005378	0.00048608	0.00018549	1114.3	7.9977e-06	3.357e-06	1215	237.56	5.2771e-06	4.1708e-06	294.29	81.741	64.522	18.447	7.1528e-06	25.694	0.0019348	0.0032808	0.00093586	1114	3.1416e-05	3.8217e-05	1209.8	239.22	3.2447e-05	3.8242e-05	298.8	83.102	65.574	19.226	3.4288e-05	26.845	114.766	213.672	173.254	101.769	217.732	223.249	101.594	108.912	167.704	256.553	108.948	115.332	116.350	122.995	236.837	122.434	-8191	255	
2627.094	1	1	0	0	0.27049	0.10708	0.29772	0.22095	0.15159	0.26801	0.20025	0.36769	0.14758	0.10017	0.16242	0.16964	0.18651	0.055978	0.12024	0.01526	-1.9521	-2.6	-2.9604	-2.4	-3.025	-2.7333	-2.5479	-3.3417	-2.2604	-2.6937	-3.0646	-2.1583	-2.9667	-2.5938	-2.3729	-3.1167	449.358	359.127	287.631	373.885	170.032	315.319	319.380	441.766	291.980	404.164	157.494	382.336	332.076	206.878	340.773	168.567	0.000603	0.00021388	0.00017001	1113.7	6.6135e-06	1.243e-06	1213.8	235.79	7.0232e-06	5.4841e-06	295.31	81.958	64.813	18.444	5.4386e-06	25.558	0.001886	0.0032899	0.0009354	1113.5	3.2095e-05	3.9033e-05	1208.8	238.71	3.1842e-05	3.7543e-05	299.82	83.32	65.866	19.194	3.3848e-05	26.711	115.948	180.357	198.501	101.522	264.395	370.302	101.899	109.719	232.173	277.186	108.486	115.451	116.222	123.161	209.747	122.732	-8191	255	
2627.188	1	1	0	0	0.134	0.18497	0.11952	0.32458	0.052311	0.28388	0.34844	0.13342	0.14757	0.27597	0.12442	0.19699	0.28857	0.23707	0.21011	0.042819	-2.0771	-2.5646	-2.9938	-2.5896	-3.0771	-2.8083	-2.5646	-3.2625	-2.475	-2.5187	-3.1917	-2.2958	-2.9188	-2.8542	-2.1604	-3.2438	147.475	407.328	130.518	94.725	183.214	423.433	419.745	429.090	182.838	405.568	161.227	405.516	285.396	383.270	359.149	316.588	0.00060066	0.0002892	6.1715e-05	1113.1	5.2796e-06	2.7756e-06	1210.2	236.93	7.8837e-06	2.3336e-06	296.89	81.767	64	18.521	2.7799e-06	25.761	0.0019099	0.0033564	0.00095401	1114.1	3.1237e-05	3.6838e-05	1207.6	238.52	3.1664e-05	3.7142e-05	299.91	83.218	65.389	19.182	3.2561e-05	26.823	121.341	176.042	124.405	101.483	193.648	244.846	101.798	109.112	189.781	424.502	109.013	115.395	116.364	123.294	231.451	122.566	-8191	255	
2627.284	1	1	0	0	0.15223	0.10854	0.15445	0.3115	0.28445	0.17471	0.16009	0.18242	0.093177	0.12259	0.15691	0.21347	0.28898	0.27914	0.10064	0.090748	-2.2771	-2.3521	-3.1937	-2.4167	-2.7958	-2.9396	-2.55	-3.1479	-2.4896	-2.3333	-3.0458	-2.4062	-2.7438	-2.975	-2.2896	-3.0812	192.122	441.858	163.538	416.943	370.634	343.199	106.132	399.406	128.352	227.691	388.151	435.775	444.493	101.338	206.736	317.416	0.00067462	0.00037925	0.00017076	1112.7	1.9966e-06	1.4425e-06	1212.5	236.19	3.7378e-06	6.2177e-06	294	81.626	64.576	18.58	5.5441e-06	25.594	0.0018919	0.0032387	0.00093431	1111.6	3.2025e-05	3.7678e-05	1205.6	238.38	3.1207e-05	3.7324e-05	299.4	83.077	65.751	19.247	3.3235e-05	26.716	107.523	188.188	176.145	101.643	180.423	317.712	101.822	109.319	139.873	232.919	108.788	115.690	116.171	123.394	221.258	122.512	-8191	255	
2627.382	1	1	0	0	0.12983	0.16805	0.24988	0.3721	0.26704	0.16908	0.14488	0.29772	0.2155	0.037612	0.10931	0.29627	0.040023	0.20381	0.28589	0.12984	-2.2646	-2.2812	-3.1292	-2.4875	-2.7479	-2.9083	-2.2979	-3.0708	-2.9188	-2.3688	-3.1146	-2.4	-2.4042	-3.2062	-2.3125	-3.0417	438.460	282.384	267.461	99.031	171.828	421.306	381.764	405.711	308.832	222.286	258.306	119.928	191.596	332.518	230.413	402.073	0.00062176	0.00014719	0.00011451	1116.3	5.2336e-06	8.487e-06	1208.7	235.74	5.6916e-06	3.9229e-06	294.56	81.747	63.991	18.398	1.1078e-06	25.789	0.001887	0.00332	0.00091555	1113.1	3.234e-05	3.8088e-05	1206.6	238.1	3.1236e-05	3.706e-05	298.99	83.183	65.436	19.191	3.2727e-05	26.82	106.933	234.890	195.919	101.698	233.936	272.942	101.734	109.501	214.449	252.528	108.814	115.544	116.006	123.150	341.667	122.360	-8191	255	
2627.476	1	1	0	0	0.099316	0.2621	0.039383	0.23408	0.060435	0.15668	0.68708	0.12263	0.14572	0.22979	0.13421	0.12601	0.17948	0.21862	0.28458	0.1877	-2.3187	-2.2125	-3.1396	-2.55	-2.5583	-3.0812	-2.4979	-3.0417	-2.7708	-2.2687	-3.0958	-2.4729	-2.4188	-3.1167	-2.2958	-2.8125	257.339	309.504	381.845	136.722	137.756	95.721	373.638	319.025	94.732	316.835	190.136	98.984	312.164	416.115	287.794	375.973	0.00064339	0.00058071	0.00011607	1111	1.7576e-06	5.2444e-06	1204.4	236.5	6.0386e-06	8.9447e-07	293.28	81.775	64.316	18.478	1.0627e-06	25.938	0.001878	0.0032697	0.00090244	1108.4	3.1737e-05	3.6392e-05	1203	238.02	3.0895e-05	3.7442e-05	298.47	82.985	65.579	19.219	3.2556e-05	26.897	106.434	157.652	171.298	101.499	187.904	223.390	101.619	109.342	190.457	204.019	108.578	115.447	116.448	123.527	166.344	122.000	-8191	255	
2627.573	1	1	0	0	0.11401	0.16471	0.11458	0.2873	0.13223	0.14951	0.34786	0.28049	0.18338	0.31112	0.057701	0.30795	0.20755	0.19	0.22699	0.1526	-2.5375	-2.2479	-3.1104	-2.7417	-2.2938	-3.1167	-2.6146	-2.8479	-3.0687	-2.2104	-3.0354	-2.6896	-2.3979	-3.05	-2.4437	-2.4938	349.903	171.235	106.056	415.047	241.033	270.752	390.036	423.266	335.585	437.946	311.269	344.148	432.040	127.254	396.704	308.521	0.00061296	0.00027663	2.6306e-05	1110.3	3.4563e-06	4.0215e-06	1206.6	236.55	3.221e-06	2.3123e-06	295.28	81.482	64.431	18.531	6.3092e-06	25.667	0.0018463	0.0032571	0.00087655	1109.7	3.1613e-05	3.6451e-05	1203.4	237.98	3.088e-05	3.6034e-05	298.42	82.818	65.551	19.186	3.2651e-05	26.826	114.906	129.337	433.908	101.636	230.476	275.177	101.616	109.280	222.516	225.424	108.833	115.267	116.151	123.426	207.162	122.257	-8191	255	
2627.693	1	1	0	0	0.070186	0.20455	0.14559	0.40837	0.072368	0.27793	0.36606	0.041825	0.25501	0.38165	0.14137	0.13656	0.12283	0.089596	0.084466	0.093333	-2.7042	-2.3208	-2.9292	-2.7875	-2.3167	-3.3354	-2.6188	-2.6417	-3.0521	-2.1167	-3.0375	-2.9667	-2.1937	-3.3021	-2.5333	-2.6042	225.001	219.372	357.308	433.173	260.796	138.549	384.422	228.415	363.239	326.748	128.231	149.577	374.579	206.695	109.217	111.589	0.00066034	0.00033633	0.00011033	1114	2.3402e-06	3.1264e-06	1202.9	237.51	4.7998e-06	9.112e-06	293.55	81.425	64.393	18.533	4.6377e-06	25.956	0.0018395	0.0032297	0.00089195	1110.8	3.092e-05	3.6087e-05	1202	238.18	3.0445e-05	3.6842e-05	298.7	82.968	65.584	19.205	3.23e-05	26.847	108.075	175.915	210.496	101.791	215.554	223.443	101.589	109.342	236.843	250.880	108.847	115.567	115.512	123.168	210.907	122.881	-8191	255	
2627.788	1	1	0	0	0.20596	0.27399	0.11994	0.20039	0.093677	0.12188	0.12121	0.15496	0.16673	0.16406	0.14932	0.22388	0.099941	0.14222	0.2201	0.19517	-2.7917	-2.15	-2.675	-3.1271	-2.3604	-3.0708	-2.725	-2.5271	-3.1583	-2.4854	-2.8771	-2.7979	-2.3979	-3.2479	-2.6562	-2.4146	150.821	141.221	236.338	376.047	260.935	377.747	397.239	265.816	346.884	341.221	321.482	311.430	318.894	362.277	327.985	208.509	0.00057934	0.00011291	8.9769e-05	1115.4	6.7126e-06	1.1171e-06	1208.7	235.99	3.884e-06	3.3828e-06	295.27	81.781	64.406	18.596	2.7037e-06	25.803	0.0018406	0.0031883	0.00089704	1109.9	3.1303e-05	3.5324e-05	1204.5	237.93	3.0393e-05	3.5483e-05	298.39	82.95	65.623	19.276	3.214e-05	26.81	110.124	250.027	174.478	101.856	204.521	275.101	101.588	109.592	224.145	276.952	108.993	115.579	115.849	123.436	245.320	122.965	-8191	255	
2627.884	1	1	0	0	0.11035	0.1176	0.11795	0.20167	0.071109	0.087899	0.24544	0.070618	0.24141	0.12774	0.17028	0.17545	0.18112	0.036453	0.17523	0.25851	-2.8021	-2.5167	-2.7146	-2.9437	-2.1854	-3.0542	-2.7958	-2.45	-3.1708	-2.5479	-2.5833	-3.0458	-2.3771	-2.9979	-3.0187	-2.3937	277.414	132.622	253.022	385.866	377.149	435.941	415.988	308.987	291.748	320.254	402.753	100.031	422.278	315.497	192.112	222.158	0.00059898	0.00049907	0.00010625	1111.6	6.136e-06	4.604e-06	1205	236.2	6.5389e-06	2.0477e-06	295.71	81.608	63.805	18.421	1.7614e-06	25.905	0.0018156	0.0031185	0.0008671	1108.7	3.1279e-05	3.5936e-05	1203.3	238.14	3.0366e-05	3.568e-05	299.03	82.957	65.308	19.22	3.1792e-05	26.924	113.981	155.639	228.153	101.742	203.176	205.418	101.667	109.522	218.778	321.312	109.021	115.850	115.976	123.543	289.578	122.641	-8191	255	
2628.004	1	1	0	0	0.16327	0.15026	0.012305	0.3201	0.17012	0.12666	0.18338	0.020396	0.241	0.10615	0.11638	0.15417	0.10033	0.097079	0.033982	0.028804	-2.6188	-2.6104	-2.5708	-3.175	-2.3792	-3.0396	-3.2542	-2.3417	-3.2625	-2.4854	-2.5354	-3.0583	-2.5729	-3.0229	-2.9	-2.5229	112.736	120.408	97.221	421.732	124.514	199.359	388.272	318.614	338.041	338.199	164.426	388.765	437.726	149.971	428.012	107.893	0.00052635	0.00040745	8.0491e-05	1110.7	3.9701e-06	2.0557e-06	1201.6	236.84	6.1453e-06	2.1965e-06	293.5	81.355	64.622	18.529	3.4934e-06	25.679	0.0017593	0.0030439	0.00089125	1107.5	3.0716e-05	3.62e-05	1201.6	237.68	3.0061e-05	3.5435e-05	298.03	82.876	65.396	19.222	3.2424e-05	26.86	118.774	174.405	429.303	101.842	197.408	260.933	101.628	109.353	202.960	210.214	108.860	115.773	115.823	123.296	215.939	123.050	-8191	255	
2628.076	1	1	0	0	0.13124	0.11017	0.23298	0.32931	0.19599	0.20291	0.18284	0.12385	0.1486	0.1089	0.11587	0.12949	0.16819	0.11786	0.30077	0.17352	-2.7979	-2.7229	-2.3812	-3.4667	-2.3917	-2.8563	-3.0542	-2.2562	-3.0771	-2.8083	-2.5146	-3.4104	-2.5354	-2.8021	-2.9958	-2.3917	295.730	222.588	258.651	382.858	112.975	138.533	350.673	444.154	398.809	204.864	412.030	95.584	103.453	124.988	433.521	408.426	0.00063512	0.00013504	6.9231e-05	1108.8	5.2434e-06	3.5237e-06	1206.3	235.94	4.4798e-06	1.5174e-06	296.1	81.383	63.917	18.562	5.6237e-06	25.788	0.0017781	0.0030728	0.00089708	1107.6	3.0846e-05	3.5655e-05	1202.7	237.48	3.0779e-05	3.6089e-05	298.98	82.981	65.285	19.284	3.2539e-05	26.851	111.873	178.812	196.245	101.731	218.344	165.748	101.907	109.428	304.182	189.458	109.134	115.479	115.925	123.265	219.504	122.615	-8191	255	
2628.172	1	1	0	0	0.2398	0.13403	0.11913	0.37146	0.365	0.19338	0.30519	0.18577	0.090728	0.056599	0.28999	0.29546	0.10254	0.058996	0.16948	0.23282	-2.5958	-2.5146	-2.25	-3.3646	-2.5917	-2.6188	-3.3021	-2.3667	-2.8896	-2.8292	-2.4583	-3.1688	-2.6	-2.5875	-3.0458	-2.3979	115.036	180.757	134.006	99.448	102.771	407.813	401.983	187.708	436.181	118.991	120.388	105.624	228.049	138.239	245.885	106.624	0.00057122	0.00042124	0.00014304	1109.1	4.1017e-06	7.2121e-06	1205.3	237.19	5.4743e-06	2.501e-06	294.44	81.435	63.941	18.535	4.0452e-06	25.84	0.0018094	0.0032	0.00093779	1107.4	3.063e-05	3.7123e-05	1202.9	237.46	3.1045e-05	3.6548e-05	298.77	82.96	65.202	19.288	3.3069e-05	26.9	113.310	168.084	161.016	101.760	264.116	250.604	101.663	109.426	231.354	313.750	108.719	115.662	115.976	123.454	250.829	122.178	-8191	255	
2628.268	1	1	0	0	0.086886	0.22002	0.12541	0.18211	0.28752	0.050114	0.24022	0.090841	0.095947	0.28899	0.15123	0.23189	0.12159	0.16264	0.1876	0.10473	-2.6604	-2.8729	-2.1479	-3.2667	-2.5229	-2.3146	-3.5396	-2.3604	-2.8021	-3.0312	-2.4125	-3.0563	-2.65	-2.3396	-3.1896	-2.4208	274.823	399.454	420.279	417.154	130.108	152.225	261.435	425.178	414.975	360.837	103.908	291.365	364.859	149.823	309.230	261.005	0.0006106	0.00032768	3.8618e-05	1111.6	8.5279e-06	3.3223e-06	1200.4	236.45	7.0545e-06	2.9173e-06	295.11	81.911	63.638	18.5	1.6123e-06	25.728	0.0018404	0.0031614	0.00093009	1108	3.1207e-05	3.6937e-05	1201.7	237.11	2.997e-05	3.5802e-05	298.05	83.035	65.244	19.204	3.1804e-05	26.861	109.246	190.028	143.601	101.793	213.233	282.947	101.630	109.197	227.095	231.412	108.812	115.757	115.847	123.230	274.704	122.454	-8191	255	
2628.365	1	1	0	0	0.18195	0.069168	0.19884	0.32058	0.19562	0.046624	0.24067	0.10382	0.091414	0.24513	0.040056	0.26018	0.16414	0.19877	0.19939	0.19689	-2.4229	-2.9542	-2.2604	-3.1479	-2.6437	-2.4771	-3.2667	-2.4021	-2.7396	-3.0646	-2.2458	-3.1188	-2.8354	-2.2938	-3.2042	-2.4708	219.120	370.789	144.812	440.172	390.059	218.106	389.959	400.211	181.067	339.093	375.070	441.333	433.831	256.960	441.643	424.851	0.00051181	0.00032291	0.00020092	1110.6	5.64e-06	2.5517e-06	1199.8	235.21	1.6865e-06	2.6078e-06	292.5	81.098	64.552	18.436	4.2047e-06	25.809	0.0017602	0.0031866	0.00087079	1107.8	3.0211e-05	3.5867e-05	1200.1	237.25	3.0106e-05	3.5118e-05	297.06	82.79	65.556	19.242	3.15e-05	26.858	113.563	353.262	145.472	101.927	226.279	251.411	101.754	109.595	251.546	218.036	108.998	115.605	115.805	123.357	252.627	122.816	-8191	255	
2628.485	1	1	0	0	0.025259	0.17583	0.056565	0.15913	0.058542	0.020822	0.14356	0.024757	0.33219	0.076467	0.22148	0.10244	0.27517	0.17441	0.25272	0.09301	-2.3958	-3.0583	-2.3583	-3.0604	-2.8333	-2.5021	-3.1979	-2.7125	-2.4938	-3.1271	-2.2583	-2.8417	-3.0292	-2.2729	-3.2313	-2.6354	125.921	171.151	367.122	437.043	248.131	124.578	421.903	351.929	304.581	399.373	412.921	285.708	359.345	192.664	322.296	336.425	0.00060323	0.00022454	0.00012958	1108.9	3.3241e-06	4.8566e-06	1206.4	234.73	7.4948e-06	3.1162e-06	293.14	81.355	63.902	18.479	1.6156e-06	25.784	0.0018502	0.0031316	0.00089651	1105.2	3.0905e-05	3.7007e-05	1201	236.89	3.1229e-05	3.4995e-05	297.57	82.938	65.193	19.181	3.0954e-05	26.853	118.358	149.222	179.096	101.791	238.579	253.505	101.864	109.322	253.733	223.899	108.858	115.793	115.915	123.642	120.992	122.966	-8191	255	
2628.580	1	1	0	0	0.18288	0.079134	0.12449	0.24157	0.14772	0.02818	0.24598	0.15472	0.11976	0.19887	0.084987	0.15799	0.23337	0.17971	0.12794	0.062047	-2.0333	-3.0458	-2.1958	-3.1417	-3.0646	-2.3146	-3.3167	-2.6917	-2.525	-3.1167	-2.4813	-2.8833	-3.1104	-2.3063	-2.9833	-2.6458	430.200	166.088	307.883	445.482	139.800	420.084	394.461	380.638	338.106	283.146	440.833	310.421	431.111	379.570	278.912	274.072	0.00064613	0.00023339	8.6391e-05	1111	1.8926e-06	3.2603e-06	1199.6	235.51	3.7676e-06	2.5503e-06	294.17	81.251	63.751	18.552	3.0132e-06	25.83	0.0018276	0.0032115	0.00086557	1106.3	3.09e-05	3.6236e-05	1198.3	236.9	3.069e-05	3.5954e-05	297.47	82.812	65.268	19.214	3.1927e-05	26.844	110.044	295.006	227.278	101.772	221.584	282.216	101.939	109.167	211.522	425.723	108.808	116.112	116.171	123.406	209.267	122.764	-8191	255	
2628.653	1	1	0	0	0.29385	0.22728	0.041876	0.321	0.22741	0.15956	0.31478	0.021533	0.13524	0.037308	0.07021	0.15872	0.15156	0.17	0.20656	0.07343	-2.0896	-2.9958	-2.5333	-2.8979	-3.0521	-2.1083	-3	-2.8917	-2.4021	-3.0521	-2.5292	-2.5812	-3.0354	-2.2521	-2.7917	-2.9083	197.685	383.000	259.992	407.033	215.018	413.571	408.327	346.761	160.240	397.491	183.279	308.734	124.791	124.173	309.707	243.327	0.00052189	0.00041359	0.0001497	1105.3	4.1704e-06	4.2584e-06	1202.1	234.59	6.33e-06	2.526e-06	292.53	81.641	63.701	18.569	5.6685e-06	25.847	0.0018762	0.0032313	0.00090499	1104.4	3.0749e-05	3.7318e-05	1198.4	236.87	3.1945e-05	3.6433e-05	297.03	82.904	65.444	19.211	3.1998e-05	26.883	103.717	203.608	136.186	101.972	226.544	312.766	101.840	109.709	280.028	239.358	108.980	115.925	116.317	123.568	225.335	122.232	-8191	255	
2628.772	1	1	0	0	0.15486	0.062053	0.14316	0.16509	0.20039	0.055996	0.26143	0.16104	0.21164	0.050413	0.20242	0.076192	0.12315	0.066829	0.043766	0.12495	-1.8104	-3.1583	-2.5792	-2.6604	-3.1083	-2.2438	-3.1521	-2.9708	-2.0917	-3.0729	-2.4479	-2.4688	-3.0812	-2.3688	-2.625	-2.9667	294.018	334.387	332.923	418.118	296.160	430.115	409.745	176.995	368.741	184.521	264.985	308.884	339.621	437.309	372.538	344.898	0.00052335	0.0001424	3.9815e-05	1104.9	3.1771e-06	4.5189e-06	1203.1	235.25	5.8121e-06	8.6123e-07	293.41	81.77	64.24	18.569	7.3271e-06	25.829	0.001818	0.0031598	0.00090624	1105.1	3.0722e-05	3.7385e-05	1198.4	236.93	3.1052e-05	3.6139e-05	297.53	82.868	65.281	19.212	3.1574e-05	26.904	106.028	196.030	234.933	101.925	231.216	248.304	101.677	109.472	212.916	123.413	108.638	115.987	116.078	123.578	239.498	122.477	-8191	255	
2628.868	1	1	0	0	0.12048	0.10986	0.15816	0.21826	0.048109	0.28988	0.18074	0.080299	0.32965	0.2436	0.18203	0.13957	0.14189	0.18853	0.10944	0.015232	-1.6354	-2.9125	-2.5062	-2.5354	-3.1021	-2.5187	-2.8792	-3.0938	-2.3146	-2.9792	-2.675	-2.2521	-3.1771	-2.5771	-2.4625	-3.0979	147.374	276.707	152.397	432.682	276.429	180.889	306.078	354.289	178.860	314.352	413.335	111.192	383.062	242.895	206.849	258.049	0.00057787	0.00040432	0.00013656	1101.6	4.5099e-06	5.7099e-06	1200.6	236.06	3.3105e-06	4.3651e-06	292.44	81.608	64.302	18.412	4.0842e-06	25.798	0.0018522	0.0031062	0.00088166	1101.5	3.0887e-05	3.673e-05	1197	237.22	3.0821e-05	3.4609e-05	297.16	82.955	65.298	19.142	3.266e-05	26.914	110.152	188.639	183.620	102.023	174.392	260.130	101.942	109.563	207.454	242.494	108.962	115.540	115.996	123.584	195.713	122.625	-8191	255	
2628.964	1	1	0	0	0.22065	0.0051858	0.11401	0.11193	0.17832	0.11509	0.18274	0.10296	0.35166	0.21974	0.1442	0.11442	0.13226	0.20629	0.065765	0.089479	-2.0333	-2.8875	-2.9521	-2.5271	-3.0375	-2.4708	-2.6792	-3.2354	-2.4667	-2.9833	-3.0396	-2.1688	-3.15	-2.5896	-2.4417	-3.2042	225.222	392.739	367.472	393.470	113.701	386.289	403.787	238.325	96.928	332.310	228.092	286.360	277.612	294.079	313.129	221.454	0.00061008	0.00038741	7.3173e-05	1103.5	3.365e-06	4.4464e-06	1203.6	235.6	5.088e-06	4.7457e-06	292.86	81.541	63.931	18.411	2.4076e-06	25.925	0.001856	0.0031123	0.00091129	1105.3	3.0952e-05	3.5912e-05	1198.1	237.2	3.131e-05	3.6052e-05	297.67	82.848	65.108	19.181	3.2446e-05	26.952	109.876	177.641	305.367	101.905	186.168	275.725	101.855	109.511	221.321	260.401	108.863	115.733	116.016	123.605	291.153	123.029	-8191	255	
2629.085	1	1	0	0	0.29087	0.17769	0.17041	0.22282	0.18265	0.096202	0.21549	0.2072	0.0056487	0.0087353	0.18883	0.28585	0.1075	0.26016	0.22808	0.16157	-2.1292	-2.8375	-2.9521	-2.3875	-2.9396	-2.5104	-2.675	-3.1312	-2.3292	-2.7167	-2.9771	-2.2354	-2.9562	-2.6229	-2.4458	-3.1583	367.789	339.830	418.568	399.071	158.084	322.154	378.629	307.339	234.056	186.925	441.277	414.636	365.317	359.854	261.320	288.775	0.00066375	0.00033933	0.00016883	1108.3	4.3685e-06	3.6974e-06	1204.3	233.69	6.5286e-06	2.9623e-06	293.18	81.236	63.846	18.429	3.1204e-06	25.807	0.0018496	0.0031365	0.00090204	1105.2	3.1162e-05	3.6838e-05	1199.2	236.78	3.0745e-05	3.6439e-05	297.11	82.83	65.306	19.179	3.3392e-05	26.904	107.669	197.464	184.221	101.993	201.621	288.498	101.920	109.682	227.996	296.849	108.609	115.742	115.912	123.104	195.175	122.539	-8191	255	
2629.181	1	1	0	0	0.37141	0.11504	0.24708	0.094537	0.13413	0.13525	0.34872	0.29803	0.1902	0.19059	0.22606	0.043765	0.072712	0.26824	0.059387	0.055357	-1.8271	-2.7771	-3.2271	-2.4104	-3.0667	-2.7583	-2.4688	-3.0521	-2.3854	-2.7396	-3.0917	-2.3271	-3.05	-2.8688	-2.275	-3.1146	437.012	394.179	294.880	113.075	279.326	315.497	390.531	420.988	110.180	422.155	323.636	434.247	226.005	401.783	204.754	216.693	0.0006346	0.00048422	0.00015452	1105.3	3.2676e-06	9.9816e-07	1198.9	235.18	4.4813e-06	4.7819e-06	290.17	80.969	64.149	18.432	2.8825e-06	25.99	0.0018482	0.0032337	0.00092857	1104	3.0691e-05	3.697e-05	1198.9	236.56	3.0413e-05	3.6685e-05	297.27	82.641	65.293	19.243	3.372e-05	26.93	112.882	181.977	185.545	101.789	197.391	148.828	101.826	109.517	234.935	350.270	109.157	115.769	116.119	123.360	224.828	122.661	-8191	255	
2629.277	1	1	0	0	0.10825	0.26405	0.18478	0.069395	0.25438	0.11755	0.20897	0.32049	0.26738	0.31705	0.13203	0.092447	0.034791	0.31745	0.065812	0.24159	-2.1437	-2.3792	-2.9333	-2.4458	-2.9708	-2.8333	-2.4771	-2.9396	-2.4521	-2.3771	-3.2313	-2.2354	-2.7438	-2.8729	-1.9813	-3.0812	260.781	146.337	342.265	101.476	290.737	268.700	406.578	431.739	375.483	237.066	189.732	395.084	326.345	105.665	348.233	116.558	0.00063174	0.00041941	6.6981e-05	1103.9	3.3228e-06	4.1873e-06	1203.1	234.73	5.2713e-06	4.7001e-06	293.54	81.214	63.732	18.543	3.697e-06	26.021	0.0018469	0.003212	0.00092182	1104.5	3.037e-05	3.6893e-05	1202	236.9	3.0708e-05	3.6643e-05	298.21	82.654	65.249	19.221	3.2965e-05	26.989	109.898	243.132	241.423	101.882	230.696	261.482	101.976	109.531	232.132	258.092	108.872	115.961	116.305	123.655	213.372	122.904	-8191	255	
2629.373	1	1	0	0	0.27937	0.20711	0.071242	0.11026	0.15534	0.27037	0.26847	0.022094	0.081909	0.21626	0.15199	0.20073	0.16196	0.13071	0.067154	0.25009	-2.1292	-2.2896	-3.2042	-2.4875	-2.7667	-2.9229	-2.4125	-3.0042	-2.5271	-2.3708	-3.0521	-2.3	-2.7021	-3.1646	-2.1813	-2.8354	442.880	164.739	415.083	424.903	330.552	94.797	339.397	430.583	138.152	256.649	409.225	155.264	253.028	108.350	219.066	124.813	0.00061048	0.00054692	5.5483e-05	1105.2	3.715e-06	7.9153e-06	1201	236.57	7.9164e-06	5.7574e-06	293.84	81.332	63.91	18.535	2.3923e-06	25.753	0.0018711	0.0032855	0.00090923	1103.6	3.0797e-05	3.7016e-05	1198.2	237.59	3.1543e-05	3.7565e-05	298.2	82.768	65.253	19.219	3.3317e-05	26.93	113.540	222.457	107.935	101.957	268.111	242.095	101.797	109.415	210.578	250.894	109.375	116.089	116.555	123.791	217.327	122.858	-8191	255	
2629.469	1	1	0	0	0.095244	0.26127	0.24255	0.16148	0.15672	0.20534	0.30491	0.38148	0.27712	0.1292	0.11231	0.28475	0.16687	0.19845	0.1532	0.034109	-2.1979	-2.2062	-2.9542	-2.7313	-2.4854	-2.8896	-2.4417	-3.1229	-2.8104	-2.2812	-3.0854	-2.5729	-2.3625	-3.1958	-2.3583	-2.8229	397.735	309.320	107.969	431.840	169.810	396.095	448.804	359.031	148.038	295.489	120.783	443.637	378.609	385.439	392.624	259.308	0.00059054	0.00056957	5.6361e-05	1107	9.7862e-07	6.0017e-06	1205.1	235.74	7.756e-06	1.9584e-06	292.96	81.016	64.19	18.537	6.5263e-06	25.644	0.0018445	0.0033341	0.00094216	1105.3	3.2099e-05	3.7243e-05	1200	237.16	3.0897e-05	3.7197e-05	297.93	82.745	65.208	19.307	3.2727e-05	26.882	103.521	167.581	220.640	101.590	257.355	222.675	101.798	109.654	229.939	351.814	109.025	115.977	116.356	123.698	238.499	122.840	-8191	255	
2629.566	1	1	0	0	0.12718	0.29168	0.12822	0.37802	0.18057	0.12597	0.096846	0.10852	0.14684	0.17955	0.11753	0.29453	0.18774	0.32841	0.25225	0.12356	-2.3354	-2.3292	-3.2375	-2.5687	-2.4417	-3.2979	-2.475	-2.8625	-2.7958	-2.0542	-3.2917	-2.6417	-2.4146	-3.1417	-2.1875	-2.6875	356.372	169.120	296.170	382.974	275.866	143.682	381.589	413.426	334.088	338.397	367.922	418.136	124.726	349.365	368.708	392.137	0.00062991	0.00024529	0.00013342	1106.4	3.405e-06	2.6903e-06	1202	235.68	2.0694e-06	4.8066e-06	291.64	81.285	64.223	18.578	4.9157e-06	25.741	0.0018602	0.0032763	0.00088658	1104.8	3.0823e-05	3.6682e-05	1198.4	237.2	3.1278e-05	3.7717e-05	297.98	82.876	65.495	19.315	3.3649e-05	26.839	109.300	94.324	221.752	101.872	233.029	307.715	101.906	109.683	321.867	240.158	109.210	115.624	116.710	123.176	222.986	122.622	-8191	255	
2629.662	1	1	0	0	0.34822	0.40972	0.16573	0.31368	0.1444	0.14211	0.18626	0.19377	0.11606	0.23077	0.045196	0.30349	0.24119	0.14841	0.026147	0.20893	-2.7146	-2.2292	-3.0687	-2.8292	-2.4062	-3.2	-2.5021	-2.8021	-2.9792	-2.2833	-3.0208	-2.6813	-2.4854	-3.0083	-2.4625	-2.4833	127.497	446.917	268.369	438.655	175.526	319.590	366.349	378.971	395.787	242.545	442.611	122.767	164.612	371.289	338.821	409.694	0.00061023	0.00082543	5.1595e-05	1103.4	3.6485e-06	1.8169e-06	1195.5	234.98	5.6658e-06	6.2691e-06	294.95	81.411	64.137	18.578	3.1042e-06	25.926	0.0019427	0.0033439	0.00090626	1102.3	3.2662e-05	3.7663e-05	1198.3	237.04	3.2113e-05	3.7346e-05	298.06	82.942	65.252	19.311	3.335e-05	26.968	112.746	163.453	246.544	102.049	210.541	304.671	101.781	109.599	268.767	206.273	109.108	116.157	115.721	123.272	189.662	122.535	-8191	255	
2629.781	1	1	0	0	0.053137	0.19109	0.22309	0.17935	0.073937	0.16895	0.047438	0.25313	0.060366	0.19667	0.24876	0.33706	0.094082	0.1198	0.10711	0.1116	-2.7208	-2.2042	-2.8187	-3.0271	-2.1292	-3.0292	-2.4896	-2.5062	-3.2417	-2.1625	-2.6937	-3.0604	-2.1854	-3.0979	-2.5625	-2.4854	226.243	393.167	120.772	381.324	188.190	369.392	309.778	178.622	92.271	92.592	355.639	427.138	348.583	120.793	115.779	191.523	0.00051665	0.00025253	0.00023048	1103	6.4992e-06	4.9323e-06	1200.3	234.71	5.9312e-06	6.1877e-07	292.59	81.171	63.829	18.494	2.859e-06	25.803	0.0018579	0.0032592	0.00092341	1103.6	3.2034e-05	3.7397e-05	1198.9	237.58	3.1756e-05	3.7056e-05	297.72	82.782	65.171	19.296	3.331e-05	26.934	103.549	135.638	194.672	101.414	243.625	255.561	101.230	109.311	212.856	148.507	108.739	115.329	115.533	123.173	189.139	122.184	-8191	255	
2629.877	1	1	0	0	0.25905	0.41385	0.089091	0.13353	0.1209	0.16238	0.41583	0.19762	0.094423	0.15049	0.25386	0.12168	0.30569	0.095313	0.09542	0.14181	-2.5292	-2.3229	-2.7687	-3.0792	-1.9854	-2.8167	-2.7396	-2.4042	-3.1896	-2.3646	-2.6521	-3.1583	-2.3229	-3.15	-2.3833	-2.175	168.749	415.383	442.588	393.411	305.887	176.647	109.927	449.307	451.003	145.994	97.177	120.481	137.134	142.041	104.252	375.830	0.00064332	0.00037661	6.8624e-05	1108.5	2.2818e-06	1.4988e-06	1200.4	234.72	3.7175e-06	3.3208e-06	293.44	81.427	64.211	18.593	2.7656e-06	25.999	0.0018987	0.0032068	0.00090836	1107.2	3.3431e-05	3.7122e-05	1198.3	236.97	3.2028e-05	3.7519e-05	297.79	82.915	65.309	19.27	3.3919e-05	26.991	109.770	199.628	295.607	101.423	235.191	182.207	101.266	109.126	192.396	276.428	108.490	115.192	115.278	122.999	249.206	122.322	-8191	255	
2629.948	1	1	0	0	0.36006	0.14053	0.26209	0.095925	0.1537	0.17141	0.57011	0.16555	0.098342	0.13162	0.20997	0.201	0.39339	0.17646	0.017651	0.11254	-2.7438	-2.3208	-2.4521	-3.1396	-2.3187	-2.8229	-2.9854	-2.3104	-2.9958	-2.4562	-2.6896	-3.1458	-2.1667	-2.8417	-2.8479	-2.4833	444.176	164.036	265.092	103.250	357.417	139.122	364.278	351.518	193.812	320.143	440.053	96.947	395.488	394.435	289.755	409.906	0.00055236	0.00062374	8.6688e-05	1106.9	8.3637e-06	3.9005e-06	1197.8	234.59	3.208e-06	3.4061e-06	292.79	81.45	64.08	18.457	1.7237e-06	25.948	0.0018763	0.0032373	0.00091638	1107	3.1862e-05	3.7102e-05	1197.4	236.92	3.1104e-05	3.6242e-05	297.97	82.817	65.285	19.235	3.317e-05	26.971	102.157	183.518	212.541	101.439	213.314	140.957	101.489	109.050	220.394	236.396	108.919	115.586	115.860	122.944	197.446	121.667	-8191	255	
2630.046	1	1	0	0	0.08987	0.14391	0.091879	0.062347	0.050283	0.087699	0.23056	0.31173	0.1351	0.17025	0.37689	0.15988	0.26035	0.11656	0.15056	0.099519	-2.7771	-2.4	-2.5667	-3.2146	-2.4188	-2.9417	-3.1479	-2.3792	-3.1229	-2.5187	-2.4625	-3.2562	-2.4667	-2.8	-3.0312	-2.3125	146.309	361.989	293.784	388.441	111.851	177.555	377.550	451.112	161.655	211.031	402.344	339.360	355.707	315.025	198.015	329.438	0.00054174	0.00040733	7.0366e-05	1106.1	4.1288e-06	2.6548e-06	1199.4	235.24	4.5211e-06	2.4096e-06	292.45	81.085	64.042	18.53	3.3979e-06	25.788	0.0018713	0.003208	0.00091648	1105.3	3.1776e-05	3.6207e-05	1198.9	237.17	3.071e-05	3.6259e-05	297.21	82.637	65.301	19.29	3.4089e-05	26.983	105.500	197.375	203.257	101.548	242.498	314.652	101.479	109.301	253.501	267.344	108.517	115.356	116.116	123.463	240.463	122.011	-8191	255	
2630.165	1	1	0	0	0.1923	0.072718	0.19905	0.33621	0.10358	0.084003	0.16092	0.26674	0.35133	0.20629	0.14508	0.41447	0.19572	0.11418	0.23898	0.36707	-2.7062	-2.6312	-2.3479	-3.2292	-2.3021	-2.8563	-3.3229	-2.4229	-3.0229	-2.8271	-2.4938	-3.3063	-2.5292	-2.5354	-3.1271	-2.2438	150.125	364.734	446.583	429.213	311.281	339.220	381.926	391.084	391.208	146.822	301.597	447.894	404.921	423.604	447.267	419.362	0.00053761	6.8009e-05	0.00017281	1105.8	4.6365e-06	3.1806e-06	1201.3	235	5.8993e-06	4.7044e-06	294.13	81.843	63.95	18.666	5.4873e-06	25.796	0.0018621	0.003267	0.00092356	1103.4	3.1084e-05	3.6994e-05	1199.3	237.13	3.1066e-05	3.6667e-05	298.28	83.058	65.188	19.308	3.3181e-05	26.999	108.486	266.238	206.814	101.555	222.609	250.331	101.538	109.118	207.645	265.679	108.362	115.372	115.547	122.913	247.354	122.153	-8191	255	
2630.261	1	1	0	0	0.049848	0.15986	0.10596	0.10007	0.15854	0.15284	0.32807	0.19294	0.074726	0.2656	0.33695	0.083284	0.43894	0.20777	0.11861	0.18653	-2.525	-2.7938	-2.1729	-3.4292	-2.3542	-2.5938	-3.2729	-2.3625	-3.0062	-3.0125	-2.2958	-3.2042	-2.5021	-2.5	-3.0354	-2.2625	211.786	317.810	304.890	448.215	266.715	134.455	450.163	428.610	303.497	401.001	400.695	95.317	437.097	361.000	158.021	263.467	0.00056552	0.00032232	0.00014924	1108.3	1.0061e-06	3.6872e-06	1198	235.75	8.7576e-06	4.0466e-06	292.07	81.484	64.131	18.446	4.8099e-06	25.858	0.0018817	0.0032646	0.00094445	1107.4	3.0777e-05	3.7124e-05	1198.8	237.21	3.1192e-05	3.7113e-05	297.45	82.787	65.494	19.277	3.3427e-05	26.976	115.138	186.379	146.527	101.606	276.463	230.791	101.632	108.928	218.954	220.292	108.748	115.603	115.747	123.001	226.312	122.489	-8191	255	
2630.357	1	1	0	0	0.13474	0.010973	0.22276	0.17438	0.10877	0.087187	0.36339	0.13101	0.073188	0.17495	0.25287	0.28319	0.13172	0.15125	0.080854	0.12656	-2.5333	-2.8229	-2.3021	-3.2521	-2.7083	-2.5792	-3.3146	-2.5812	-2.8979	-3.0229	-2.2854	-3.0833	-3.075	-2.3729	-3.1458	-2.6104	400.480	245.110	432.843	133.734	368.196	246.967	368.748	419.383	380.617	233.542	403.367	202.903	390.146	219.877	305.568	337.502	0.00060643	0.00020941	5.1207e-05	1101.7	6.3391e-06	3.243e-06	1202.5	235.24	6.9788e-06	2.2802e-06	293.51	80.998	63.699	18.607	2.2801e-06	25.796	0.0018552	0.0033641	0.00093018	1105.1	3.1134e-05	3.8663e-05	1199.2	236.82	3.2232e-05	3.7662e-05	297.78	82.723	65.212	19.295	3.3336e-05	26.983	104.314	187.028	265.866	101.553	200.218	190.701	101.464	109.054	194.718	249.348	108.138	115.519	115.468	123.268	238.029	122.255	-8191	255	
2630.454	1	1	0	0	0.078642	0.14613	0.22958	0.18369	0.28162	0.056462	0.24587	0.50978	0.10407	0.1694	0.2317	0.32753	0.29118	0.058391	0.11972	0.19778	-2.2604	-2.9813	-2.3604	-3.2667	-2.7979	-2.3125	-3.3479	-2.4771	-2.6437	-3.1083	-2.2854	-2.9938	-2.8792	-2.2938	-3.2062	-2.5792	109.834	418.309	125.139	352.725	328.598	258.560	386.599	381.574	170.139	173.368	401.933	134.662	107.030	136.898	270.698	179.359	0.00066224	0.00012035	3.4226e-05	1109.4	5.9696e-06	2.6578e-06	1197.8	234.62	8.9364e-06	2.2654e-06	292.54	80.971	64.088	18.565	4.2946e-06	25.975	0.0018573	0.0032775	0.00096886	1106.4	3.1598e-05	3.8049e-05	1198.7	236.47	3.2353e-05	3.6809e-05	296.96	82.947	65.129	19.279	3.3839e-05	27.033	108.488	179.608	367.464	101.748	228.783	235.852	101.757	108.930	237.375	281.692	108.592	115.642	115.558	122.951	205.417	122.260	-8191	255	
2630.550	1	1	0	0	0.15637	0.058285	0.049758	0.15804	0.10975	0.14843	0.088557	0.27252	0.1802	0.16795	0.020127	0.28612	0.1155	0.20661	0.18479	0.10615	-2.1333	-2.9729	-2.3125	-3.025	-2.9292	-2.2417	-3.2188	-2.6583	-2.5958	-3.1625	-2.5604	-3.0187	-3.1063	-2.3521	-3.2083	-2.7938	380.121	338.513	402.534	346.937	129.517	257.643	437.917	389.821	422.964	295.243	140.639	423.874	246.198	119.829	166.435	274.971	0.0005246	0.00043285	5.642e-05	1106	1.1385e-06	8.8451e-07	1199.9	234.68	3.5978e-06	5.093e-06	294.21	81.92	63.878	18.546	5.4651e-06	25.836	0.0019239	0.0033468	0.0009454	1106.1	3.2248e-05	3.7533e-05	1198.7	236.94	3.2059e-05	3.7916e-05	297.71	83.189	65.258	19.295	3.3664e-05	26.936	107.941	233.805	208.986	101.704	280.508	284.256	101.598	109.231	208.094	225.405	108.911	115.413	115.767	123.590	263.182	122.183	-8191	255	
2630.646	1	1	0	0	0.19245	0.22914	0.15682	0.14278	0.10525	0.12263	0.22286	0.2934	0.044994	0.11067	0.17279	0.26175	0.12574	0.15006	0.02865	0.10501	-1.9708	-3.0458	-2.1146	-2.9417	-2.9188	-2.1833	-3.2062	-2.6917	-2.3021	-3.0958	-2.4542	-2.875	-3.0396	-2.2854	-3.1542	-2.6729	415.358	380.145	433.233	418.048	224.752	344.040	115.237	340.069	366.881	182.649	243.578	349.295	400.544	274.410	381.117	307.416	0.00060499	0.00028325	0.00010619	1107.3	4.8863e-06	6.3202e-06	1200.6	235.04	4.3482e-06	2.9324e-06	293.51	81.203	64.18	18.616	4.5982e-06	25.896	0.0018582	0.0032854	0.00090859	1106.1	3.2372e-05	3.8193e-05	1197.1	236.81	3.1731e-05	3.7416e-05	296.68	82.773	65.347	19.315	3.3373e-05	27.014	119.422	207.402	188.059	101.797	251.485	259.762	101.577	109.119	221.151	224.386	108.464	115.605	115.292	122.959	213.227	122.217	-8191	255	
2630.767	1	1	0	0	0.11503	0.13239	0.056567	0.13156	0.13803	0.066737	0.39133	0.12567	0.135	0.062145	0.21437	0.11796	0.19136	0.24066	0.044896	0.21986	-1.8375	-3.25	-2.2938	-3.0208	-3.3604	-2.2979	-3.1375	-2.9188	-2.3271	-3.1083	-2.7229	-2.6458	-3.3292	-2.2417	-2.8375	-2.9125	114.646	306.384	316.012	151.144	285.034	351.318	394.048	377.461	329.313	370.143	261.816	223.181	149.243	117.778	174.868	268.105	0.00058237	0.00031517	0.00011298	1105.5	2.5294e-06	3.1755e-06	1204	235.33	3.1039e-06	2.1897e-06	293.74	81.668	63.852	18.698	8.5259e-06	26.09	0.0019128	0.0032986	0.00091601	1106.8	3.1364e-05	3.8137e-05	1199.2	236.79	3.1883e-05	3.7644e-05	297.53	82.978	65.28	19.334	3.4006e-05	27.07	112.151	146.465	181.273	101.559	232.552	136.594	101.670	109.142	247.082	241.526	108.668	115.580	115.576	123.208	211.681	122.154	-8191	255	
2630.861	1	1	0	0	0.11191	0.12296	0.067356	0.16348	0.14056	0.079977	0.35259	0.17293	0.20284	0.11337	0.40788	0.19705	0.042335	0.21022	0.18721	0.096076	-2.0167	-3.1333	-2.5104	-2.5271	-3.1396	-2.3812	-2.9292	-3.0125	-2.2687	-3.0729	-2.7229	-2.5021	-3.1896	-2.4896	-2.7417	-3.0792	173.002	384.005	152.692	408.006	260.507	444.336	340.136	111.472	405.299	284.890	426.683	342.134	429.037	126.389	292.466	172.491	0.00060031	0.00050012	0.00013359	1108.1	6.5184e-06	5.5605e-06	1203.5	235.59	4.4228e-06	1.2952e-06	292.32	81.009	64.098	18.574	2.6076e-06	25.886	0.0019082	0.0033441	0.00091307	1107.1	3.2559e-05	3.8434e-05	1199.8	237.42	3.2754e-05	3.7705e-05	297.19	82.843	65.333	19.304	3.3688e-05	26.993	104.728	176.800	222.598	101.614	211.874	236.644	101.718	109.087	257.672	249.331	108.751	115.274	115.502	123.270	158.340	121.872	-8191	255	
2630.957	1	1	0	0	0.071936	0.10169	0.062904	0.13082	0.15745	0.17543	0.12227	0.33276	0.18951	0.11728	0.17756	0.19058	0.050902	0.13313	0.047403	0.032833	-1.8354	-3.0375	-2.5833	-2.3979	-2.9958	-2.475	-2.8875	-3.2167	-2.2542	-3.0417	-2.8083	-2.4729	-3.25	-2.4375	-2.5167	-3.1979	318.748	331.597	189.093	431.158	131.062	130.232	433.316	414.310	134.704	212.306	424.739	428.956	301.509	227.191	111.507	233.287	0.00057959	0.00032969	0.00011678	1108.7	7.3174e-06	2.7666e-06	1204.4	234.91	3.8252e-06	7.0829e-06	293.4	81.026	63.899	18.608	5.7577e-06	25.789	0.0019224	0.0032788	0.00093487	1105.2	3.1828e-05	3.703e-05	1198.1	236.7	3.2771e-05	3.7802e-05	297.19	82.897	65.429	19.318	3.3997e-05	26.974	113.414	176.395	208.881	101.635	217.460	299.110	101.941	109.213	248.617	258.032	108.737	115.365	115.648	122.895	225.054	122.133	-8191	255	
2631.053	1	1	0	0	0.24694	0.05146	0.13599	0.10317	0.22496	0.22699	0.12409	0.34798	0.17024	0.1775	0.096162	0.23859	0.16698	0.33107	0.1368	0.15889	-1.9688	-2.7458	-2.9292	-2.4625	-3.1354	-2.5125	-2.3917	-3.1083	-1.9979	-2.8333	-2.9479	-2.2229	-3.0917	-2.5625	-2.3979	-3.2438	106.790	368.128	156.712	370.506	407.604	134.611	411.323	422.404	167.426	149.246	427.081	373.636	214.681	445.796	110.699	283.749	0.00066609	0.00035311	0.00017674	1104.6	3.4429e-06	4.7372e-06	1200.5	234.9	4.7276e-06	2.0884e-06	292.34	81.194	63.617	18.63	4.4728e-06	25.733	0.0018951	0.0033768	0.00093669	1103.7	3.2787e-05	3.7615e-05	1196.8	236.95	3.219e-05	3.8035e-05	297.23	82.822	65.119	19.319	3.4112e-05	26.983	115.081	198.887	171.085	101.555	221.791	240.350	101.429	109.058	247.420	262.877	108.971	115.191	115.947	122.805	260.065	122.305	-8191	255	
2631.174	1	1	0	0	0.12789	0.058992	0.1446	0.14294	0.15673	0.11648	0.1329	0.16754	0.095871	0.10031	0.051855	0.17498	0.052717	0.10017	0.14834	0.17592	-1.9458	-2.6458	-2.7729	-2.3167	-3.1625	-2.4354	-2.6562	-3.2292	-2.4437	-2.7687	-3.1375	-2.3542	-3.1667	-2.4958	-2.4479	-3.1521	411.969	260.865	389.483	300.993	133.548	317.149	105.473	417.924	295.623	444.287	90.848	359.524	279.312	245.425	350.709	347.759	0.00062294	0.00049116	4.2024e-05	1105.7	6.9821e-06	4.8405e-06	1197.8	235.62	2.374e-06	3.9533e-06	292.61	81.648	64.049	18.404	4.6418e-06	25.913	0.0018846	0.0033682	0.00092939	1103.9	3.1397e-05	3.7812e-05	1195.4	237.04	3.199e-05	3.7716e-05	296.51	82.913	65.201	19.245	3.4483e-05	26.981	105.935	159.907	216.047	101.593	205.383	304.119	101.684	108.788	268.401	233.507	108.779	115.470	115.630	123.316	267.369	122.437	-8191	255	
2631.246	1	1	0	0	0.27091	0.18848	0.15288	0.17513	0.13054	0.14956	0.28576	0.051636	0.10404	0.033574	0.14217	0.1912	0.11947	0.044387	0.20221	0.011977	-2.0333	-2.6354	-3.0125	-2.3979	-2.8542	-2.7938	-2.4708	-3.1917	-2.4542	-2.5021	-3.0396	-2.3208	-2.8625	-2.8708	-2.0271	-3.1604	152.463	395.033	92.416	397.785	202.007	357.503	95.896	411.639	323.763	95.023	386.858	110.960	296.115	218.286	119.617	307.949	0.00062756	0.00053517	0.00011438	1103.3	4.4848e-06	1.6254e-06	1201.8	234.74	2.4858e-06	3.6411e-06	292.97	81.21	64.259	18.538	6.2665e-06	25.943	0.0019342	0.003359	0.000945	1102.8	3.2007e-05	3.842e-05	1197.1	236.5	3.2126e-05	3.8273e-05	297.26	82.706	65.23	19.282	3.5031e-05	26.971	113.685	165.762	213.711	101.734	257.023	185.062	101.632	109.304	203.069	299.962	108.649	115.492	115.778	123.119	253.036	122.319	-8191	255	
2631.342	1	1	0	0	0.19478	0.15277	0.042144	0.31049	0.31799	0.27731	0.29314	0.21439	0.1514	0.21726	0.19824	0.18331	0.11828	0.16589	0.12524	0.12694	-2.3417	-2.6063	-3.0875	-2.3958	-2.8417	-2.7104	-2.3729	-3.1771	-2.4542	-2.3875	-3.3583	-2.3688	-2.6917	-2.8937	-2.2667	-3.0104	226.403	151.824	430.999	404.285	95.917	450.253	409.922	416.128	372.944	152.513	332.771	254.452	125.984	386.808	333.262	280.492	0.00058645	0.0003637	3.0856e-05	1103.7	8.3892e-06	9.8708e-07	1200.3	235.96	4.794e-06	6.5697e-06	292.88	80.96	64.332	18.439	6.478e-06	25.887	0.0018639	0.0033181	0.00094699	1103.6	3.1973e-05	3.8626e-05	1197.2	237.57	3.2229e-05	3.8083e-05	296.91	82.67	65.298	19.272	3.4057e-05	27.013	104.589	224.671	194.150	101.577	203.385	240.046	101.707	109.265	174.797	262.801	108.504	115.291	116.043	122.555	204.920	122.402	-8191	255	
2631.462	1	1	0	0	0.13269	0.27262	0.24507	0.30874	0.10187	0.14422	0.29119	0.40163	0.10331	0.071201	0.36658	0.3121	0.21881	0.38147	0.063707	0.14996	-2.4021	-2.3917	-3.075	-2.4458	-2.7854	-3.0208	-2.4417	-2.9771	-2.75	-2.3146	-3.2812	-2.5187	-2.6146	-3.1104	-2.1125	-2.8563	243.150	243.940	253.989	330.507	99.840	102.344	393.388	442.924	256.677	187.286	316.010	320.695	291.465	431.827	351.323	387.150	0.00064711	0.00071258	8.5432e-05	1100.1	6.3068e-06	3.2943e-06	1192.7	234.9	4.3987e-06	2.9327e-06	291.95	80.962	64.304	18.529	5.119e-06	25.729	0.0019172	0.00338	0.00095412	1101.1	3.2284e-05	3.9025e-05	1195.3	236.44	3.1563e-05	3.8196e-05	297.61	82.449	65.308	19.256	3.4218e-05	26.966	103.531	173.758	168.222	101.578	221.922	270.533	101.893	109.279	242.732	245.496	108.658	115.377	115.753	122.848	224.613	122.417	-8191	255	
2631.559	1	1	0	0	0.21101	0.048986	0.20807	0.39204	0.10707	0.011822	0.25291	0.17936	0.085898	0.11465	0.20214	0.027075	0.24359	0.13248	0.20164	0.091166	-2.3792	-2.1917	-3.225	-2.4083	-2.35	-3.1437	-2.4542	-2.9	-2.8937	-2.2875	-3.1292	-2.5479	-2.3854	-3.0479	-2.2833	-2.8979	422.289	314.736	211.293	448.650	161.993	276.975	110.004	405.288	231.827	271.175	336.309	403.022	129.951	120.949	348.286	98.564	0.00062915	0.00048995	0.00011283	1101.4	7.1282e-06	8.684e-06	1197.2	235.85	5.2885e-06	2.2854e-06	293.44	81.483	63.589	18.518	2.8207e-06	26.016	0.00195	0.0034307	0.00092206	1101.9	3.3241e-05	3.8747e-05	1196.4	237.32	3.1541e-05	3.8877e-05	298.35	82.656	65.247	19.252	3.3373e-05	27.012	115.056	164.568	181.690	101.554	251.173	282.136	101.261	109.148	252.856	262.613	108.707	115.543	115.677	123.167	187.361	122.421	-8191	255	
2631.655	1	1	0	0	0.2673	0.067654	0.1487	0.42579	0.13179	0.16017	0.4364	0.087647	0.22432	0.19898	0.18523	0.14802	0.047022	0.052048	0.033978	0.087043	-2.5958	-2.1437	-2.9062	-2.7625	-2.3	-3.1333	-2.5271	-2.6271	-2.9833	-2.2729	-3.1021	-2.6583	-2.3542	-2.9562	-2.4917	-2.6	92.049	402.133	330.978	393.944	166.781	368.385	403.861	445.110	231.546	373.120	424.862	431.655	121.582	238.280	391.924	394.514	0.00054513	0.00015598	9.1992e-05	1101.3	6.234e-06	3.2718e-06	1200.2	233.82	2.5911e-06	4.9474e-06	291.22	82.022	63.861	18.566	4.7101e-06	25.85	0.0018788	0.00337	0.0009041	1101.7	3.2114e-05	3.7765e-05	1197.6	236.35	3.1807e-05	3.8028e-05	297.06	82.798	65.307	19.312	3.2987e-05	26.967	112.336	138.376	160.441	101.440	203.367	225.702	101.329	109.286	306.939	227.312	108.884	115.768	116.158	123.533	260.443	122.498	-8191	255	
2631.749	1	1	0	0	0.082477	0.082625	0.1658	0.2049	0.22832	0.058576	0.36041	0.10319	0.18906	0.25424	0.23706	0.012578	0.1259	0.26532	0.062397	0.21817	-2.5062	-2.3333	-2.9271	-2.9604	-2.3667	-3.0458	-2.6688	-2.5958	-2.9938	-2.3125	-2.8937	-2.7083	-2.3563	-3.1396	-2.4062	-2.4979	94.743	287.773	161.750	101.685	211.630	440.173	397.275	198.105	143.908	299.336	369.349	247.184	364.530	422.737	186.476	105.685	0.00055927	0.00046114	0.00010505	1108.4	4.002e-06	2.4503e-06	1200.4	235.2	8.9981e-06	1.1332e-06	293.11	81.079	64.186	18.584	6.7867e-06	25.985	0.0018878	0.0033682	0.00093238	1105.7	3.257e-05	3.7509e-05	1197.2	236.97	3.2471e-05	3.7461e-05	297.54	82.621	65.295	19.318	3.3006e-05	26.952	112.538	162.274	215.467	101.626	159.943	280.243	101.633	109.114	213.452	250.626	108.789	115.186	115.799	123.206	243.190	122.754	-8191	255	
2631.845	1	1	0	0	0.066668	0.31371	0.24572	0.13099	0.14191	0.07438	0.12033	0.41403	0.24965	0.069569	0.16335	0.096947	0.11102	0.047757	0.1716	0.058524	-2.7562	-2.2833	-2.7583	-3.0208	-2.2812	-2.8917	-2.8563	-2.6396	-3.1583	-2.1854	-3.0187	-2.9625	-2.2729	-2.8021	-2.6375	-2.4042	240.146	338.012	325.737	170.464	142.934	276.527	393.280	403.984	446.640	281.122	94.374	130.702	356.985	152.931	438.420	324.859	0.00052856	6.1963e-05	0.00015437	1107.4	4.0815e-06	3.334e-06	1194.5	236.27	1.1201e-06	2.6022e-06	293.88	81.219	63.763	18.483	7.4911e-06	25.924	0.0018992	0.003255	0.00090897	1104.1	3.1839e-05	3.722e-05	1197.2	237.44	3.1829e-05	3.6739e-05	297.26	82.674	65.051	19.248	3.3833e-05	27.011	114.283	168.380	164.776	101.692	228.490	251.609	101.530	109.442	278.597	145.082	108.880	115.575	115.837	123.519	212.024	122.672	-8191	255	
2631.941	1	1	0	0	0.22511	0.15373	0.095397	0.21497	0.19764	0.17955	0.43876	0.18093	0.28803	0.086926	0.11627	0.054844	0.20808	0.13967	0.482	0.25289	-2.8063	-2.3229	-2.6521	-3.1896	-2.0792	-2.9896	-2.7229	-2.2646	-3.1854	-2.3354	-2.6229	-3.0146	-2.1792	-2.9042	-2.6229	-2.3542	413.032	102.152	214.613	103.949	436.585	411.222	396.226	354.914	113.593	152.360	424.711	420.571	192.432	367.254	390.019	369.031	0.00062302	0.00051635	0.00021264	1103.7	4.2669e-06	2.0746e-06	1193.7	235.45	2.7127e-06	2.7738e-06	293.18	81.288	63.255	18.609	3.3678e-06	25.897	0.0018516	0.0032372	0.00090221	1103.4	3.2363e-05	3.6485e-05	1192.7	237.13	3.0866e-05	3.6341e-05	297.25	82.701	64.945	19.246	3.3485e-05	26.949	110.705	182.207	219.373	101.693	260.995	254.979	101.714	109.265	220.462	261.101	109.097	115.629	115.886	123.307	227.444	122.518	-8191	255	
2632.038	1	1	0	0	0.19453	0.26539	0.19919	0.29562	0.19579	0.2162	0.15527	0.18832	0.18844	0.14991	0.24054	0.17382	0.029909	0.1015	0.30889	0.34144	-2.7333	-2.275	-2.5542	-3.1271	-2.2667	-2.9021	-2.9313	-2.2875	-3.0875	-2.6167	-2.6104	-3.1229	-2.2833	-2.9708	-2.7625	-2.2042	338.567	144.321	423.560	396.800	415.982	418.169	357.161	129.793	276.959	379.308	381.513	450.664	153.320	189.464	107.599	340.470	0.00056958	0.00023954	0.00011209	1102.2	2.3063e-06	3.2533e-06	1196.2	234.97	5.2487e-06	2.8943e-06	292.54	81.546	63.739	18.543	3.2015e-06	25.904	0.0018436	0.0033335	0.00093669	1102.9	3.2198e-05	3.7075e-05	1195.3	236.61	3.1529e-05	3.603e-05	297.84	82.83	65.211	19.264	3.3254e-05	26.977	106.730	93.725	203.315	101.626	228.176	192.162	101.529	109.462	234.725	263.035	108.483	115.454	115.704	123.255	302.323	122.591	-8191	255	
2632.134	1	1	0	0	0.086143	0.059447	0.052852	0.25458	0.11217	0.13647	0.36458	0.12915	0.2913	0.15437	0.28056	0.29673	0.077285	0.088863	0.15978	0.13383	-2.8208	-2.6229	-2.4083	-3.2271	-2.2792	-2.6875	-3.175	-2.2729	-2.9354	-2.6312	-2.4625	-3.1396	-2.2854	-2.7188	-2.875	-2.1729	375.539	163.466	448.753	423.730	237.252	376.764	415.744	410.967	156.118	331.772	337.552	435.053	258.512	225.854	218.248	154.689	0.00062768	0.00069967	0.00012476	1104.8	2.9708e-06	4.4464e-06	1200.4	233.98	5.321e-06	3.6003e-06	292.36	81.26	63.831	18.584	3.3282e-06	25.882	0.0018284	0.0031024	0.00094911	1103.8	3.1646e-05	3.8239e-05	1196.3	236.48	3.1168e-05	3.7636e-05	297.03	82.667	65.251	19.287	3.3816e-05	26.911	103.919	148.255	183.463	101.690	226.441	264.356	101.726	109.458	279.812	219.550	108.726	115.666	116.322	123.112	210.600	122.764	-8191	255	
2632.254	1	1	0	0	0.15857	0.17636	0.11615	0.44742	0.19637	0.032192	0.38049	0.035223	0.28255	0.14549	0.10318	0.050231	0.49556	0.012955	0.16426	0.037612	-2.6229	-2.7979	-2.3021	-3.1625	-2.175	-2.6604	-3.2646	-2.3083	-2.9104	-2.6417	-2.4042	-3.0917	-2.4708	-2.4354	-3.0458	-2.4271	215.299	304.904	148.485	95.510	261.898	161.887	425.594	179.286	146.919	176.521	443.219	371.522	418.226	194.160	251.731	238.859	0.00064768	0.00024312	0.00014068	1104.5	2.2008e-06	5.7495e-06	1198.9	234.12	4.2184e-06	4.7783e-06	293.06	81.537	63.454	18.545	8.1379e-07	25.82	0.001911	0.003307	0.00093308	1102.3	3.1651e-05	3.726e-05	1197.3	236.73	3.1346e-05	3.81e-05	297.5	82.912	64.982	19.237	3.2885e-05	26.983	117.278	253.731	226.546	101.711	239.174	235.683	101.467	109.169	217.949	221.196	108.826	115.851	116.207	123.457	187.519	122.535	-8191	255	
2632.350	1	1	0	0	0.083374	0.22428	0.066302	0.16183	0.28594	0.0742	0.16576	0.19643	0.080476	0.11876	0.068985	0.16758	0.13381	0.046527	0.14337	0.19615	-2.4771	-2.7208	-2.175	-3.0896	-2.4583	-2.6063	-3.2	-2.3229	-2.8688	-2.9875	-2.125	-3.1521	-2.4958	-2.3875	-3.0563	-2.2708	318.470	226.040	360.250	382.147	216.280	325.263	111.222	384.926	194.747	360.171	379.576	133.633	308.114	257.011	450.347	303.175	0.00056352	0.00046996	0.00011059	1105.9	4.427e-06	3.9106e-06	1199.3	235.6	7.3269e-06	2.75e-06	292.25	81.405	63.777	18.601	3.0483e-06	25.823	0.0018803	0.0032461	0.00094341	1103.1	3.0892e-05	3.6736e-05	1195.6	236.74	3.1171e-05	3.6032e-05	297.07	82.714	65.128	19.273	3.2945e-05	26.87	99.658	171.967	211.115	101.687	228.478	282.130	101.798	109.165	241.131	227.563	108.568	115.346	115.898	123.530	127.640	122.470	-8191	255	
2632.447	1	1	0	0	0.089111	0.22197	0.052839	0.24064	0.11119	0.20653	0.25702	0.19755	0.027903	0.26382	0.14252	0.12301	0.06039	0.20729	0.10356	0.27477	-2.5521	-2.8542	-2.2812	-3.25	-2.6667	-2.2021	-3.2896	-2.3083	-2.6312	-2.7021	-2.3167	-3.1104	-2.6667	-2.2646	-3.0854	-2.525	163.011	365.316	448.366	414.531	180.075	189.064	355.866	382.304	288.147	448.320	127.403	130.925	272.338	379.404	112.199	370.061	0.00051277	0.00029464	5.6707e-05	1104.7	3.1501e-06	2.1192e-06	1193.4	235.67	6.5513e-06	3.3129e-06	293.98	81.16	64.095	18.492	2.058e-06	25.955	0.0018563	0.003226	0.00089839	1103.5	3.0992e-05	3.7664e-05	1195.3	236.8	3.1836e-05	3.6445e-05	297.68	82.754	65.127	19.259	3.2646e-05	26.932	112.592	215.667	240.139	101.794	179.262	279.234	101.767	109.278	285.857	244.428	108.634	115.591	115.738	123.419	211.406	122.491	-8191	255	
2632.543	1	1	0	0	0.12096	0.21675	0.35524	0.10711	0.17661	0.17926	0.12943	0.35925	0.072693	0.053223	0.32853	0.040243	0.19467	0.15501	0.065967	0.14637	-2.1521	-3.2896	-2.3396	-3.1708	-3.0208	-2.4583	-3.4917	-2.6208	-2.5792	-3.3104	-2.3667	-2.9562	-2.7542	-2.3146	-3.2521	-2.4708	348.686	410.993	169.551	423.168	159.319	95.137	451.061	392.376	428.811	228.391	428.263	158.048	375.454	398.668	293.483	319.063	0.00056605	0.00049482	9.266e-05	1102.4	3.9495e-06	8.1308e-07	1199.5	235.26	3.4985e-06	1.7543e-06	292.87	81.669	63.611	18.513	1.9257e-06	25.827	0.0018348	0.0032946	0.00092212	1102.5	3.0893e-05	3.7272e-05	1196.6	236.31	3.1539e-05	3.6003e-05	296.51	82.851	65.112	19.227	3.2367e-05	26.895	106.234	174.721	130.311	101.747	282.381	344.189	101.835	109.182	184.059	141.515	108.508	115.494	115.578	123.337	273.441	122.542	-8191	255	
2632.639	1	1	0	0	0.27746	0.15643	0.1463	0.19476	0.011947	0.20554	0.3632	0.20369	0.050148	0.15759	0.18722	0.094119	0.088634	0.14415	0.11516	0.15299	-2.0292	-3.1708	-2.1604	-2.9417	-3.0563	-2.2562	-3.2708	-2.7958	-2.7667	-3.1229	-2.4	-2.7958	-3.2271	-2.3208	-3.1188	-2.725	231.765	197.443	120.752	390.069	287.203	428.926	429.593	110.262	345.733	100.163	398.424	298.468	160.581	225.785	336.623	366.346	0.0006007	0.00031936	0.00017774	1103.5	5.4549e-06	4.1738e-06	1197.9	234.38	1.9884e-06	7.1265e-06	291.39	81.643	64.127	18.533	2.804e-06	25.956	0.0018911	0.0031956	0.00089718	1103.3	3.1237e-05	3.6615e-05	1194.9	236.55	3.0656e-05	3.6772e-05	296.7	82.689	65.007	19.274	3.1746e-05	26.941	109.202	132.934	178.345	102.018	156.515	208.774	101.907	109.182	206.475	257.664	108.888	115.446	115.948	122.933	220.642	122.590	-8191	255	
2632.735	1	1	0	0	0.18641	0.14443	0.13812	0.083473	0.13095	0.28588	0.24566	0.22955	0.27126	0.057182	0.35295	0.2712	0.15141	0.21694	0.33932	0.2027	-2.0583	-3.2292	-2.3542	-2.85	-3.0479	-2.3896	-3.1146	-2.8354	-2.3542	-3.225	-2.55	-2.5292	-3.0771	-2.2687	-2.9437	-2.7333	382.115	306.837	116.203	121.219	248.346	140.531	372.095	397.300	266.883	406.029	141.440	109.071	128.522	436.861	172.452	137.216	0.0006984	0.00013031	8.2633e-05	1105.2	5.0554e-06	4.3643e-06	1196.8	234.13	4.3576e-06	1.8393e-06	292.99	81.008	63.399	18.464	1.553e-06	25.724	0.0018556	0.0032464	0.00091065	1102.3	3.1559e-05	3.7899e-05	1196.3	236.18	3.1392e-05	3.5886e-05	296.82	82.564	64.926	19.226	3.256e-05	26.907	108.795	365.654	170.914	101.734	205.688	259.502	101.600	109.296	251.093	275.477	108.804	115.619	115.734	123.447	286.747	121.912	-8191	255	
2632.854	1	1	0	0	0.16033	0.081971	0.015917	0.18094	0.1395	0.092044	0.32164	0.20148	0.13192	0.028808	0.17543	0.13877	0.14505	0.15908	0.14057	0.12591	-1.9542	-3.1542	-2.4271	-2.5438	-3.1208	-2.2562	-3.25	-3.0271	-2.3438	-3.1396	-2.5375	-2.4458	-3.2167	-2.3208	-2.8979	-2.9208	399.486	336.067	377.145	422.962	382.081	395.056	405.221	283.432	196.884	398.025	420.504	392.438	356.735	318.247	433.390	432.644	0.00062445	0.0002605	0.00018909	1104.8	6.3264e-06	3.3717e-06	1200	234.67	5.0067e-06	4.0237e-06	293.12	81.155	64.073	18.546	5.4409e-06	25.887	0.0019181	0.0032113	0.00089706	1102.6	3.118e-05	3.6493e-05	1196.5	236.5	3.1518e-05	3.5803e-05	296.7	82.617	65.027	19.231	3.2489e-05	27.004	107.057	187.347	200.998	101.735	249.113	264.284	101.919	109.346	239.911	244.252	108.654	115.936	115.923	123.041	266.396	122.682	-8191	255	
2632.950	1	1	0	0	0.08407	0.34926	0.18684	0.10136	0.11539	0.29978	0.1054	0.17869	0.04929	0.10137	0.18987	0.21938	0.31032	0.27696	0.13612	0.14863	-1.9583	-2.9625	-2.6104	-2.4083	-3.0875	-2.3792	-2.8583	-3.2125	-2.15	-3.0146	-2.7354	-2.3771	-3.1792	-2.3167	-2.6562	-2.8583	274.971	400.597	163.671	379.188	97.001	261.644	290.289	163.071	297.978	336.450	146.340	101.311	92.556	142.616	387.353	101.908	0.00056807	0.00016842	9.3005e-05	1104.9	1.5299e-06	5.1068e-06	1203.4	234.7	2.0268e-06	6.5582e-06	293.34	81.079	63.484	18.518	7.704e-06	25.683	0.001897	0.0031677	0.00089805	1100.9	3.1319e-05	3.6489e-05	1197.3	236.12	3.153e-05	3.5704e-05	296.89	82.605	64.966	19.22	3.2578e-05	26.92	103.883	178.105	150.707	101.646	291.145	283.017	101.770	109.182	319.990	257.708	108.788	115.477	115.750	123.250	212.197	122.583	-8191	255	
2633.046	1	1	0	0	0.083328	0.087341	0.29947	0.33147	0.15902	0.13534	0.14135	0.1877	0.22243	0.089921	0.21187	0.40701	0.12114	0.10605	0.059118	0.23828	-1.6167	-2.9375	-2.6083	-2.3979	-3.075	-2.3937	-2.7812	-3.0708	-2.2896	-2.8479	-2.875	-2.2583	-3.2229	-2.5687	-2.4375	-3.1688	173.778	275.262	448.610	394.291	160.861	445.792	112.686	415.897	311.607	112.344	448.985	409.141	166.954	386.256	223.080	275.849	0.0006457	0.00038891	0.00013793	1109.5	2.2805e-07	3.5346e-06	1199.8	234.97	7.2464e-06	3.1638e-06	292.86	81.348	64.282	18.543	5.1663e-06	25.892	0.0018689	0.0031851	0.0009136	1102.5	3.0935e-05	3.6434e-05	1196.2	236.45	3.1205e-05	3.6769e-05	297.08	82.639	65.344	19.233	3.2729e-05	26.891	105.323	139.946	138.559	101.781	368.524	200.184	101.830	109.626	203.536	247.194	108.787	115.714	116.035	123.323	220.621	122.231	-8191	255	
2633.142	1	1	0	0	0.060913	0.10142	0.20117	0.085209	0.16651	0.28676	0.25283	0.1509	0.1336	0.040134	0.17599	0.1938	0.12005	0.22084	0.21736	0.20813	-1.725	-2.5312	-2.8917	-2.3	-3.1708	-2.5083	-2.4625	-3.1771	-2.5021	-2.6958	-2.8146	-2.1188	-3.0583	-2.6542	-2.2667	-3.1979	278.308	296.253	382.142	356.724	358.415	289.005	91.571	360.917	260.450	168.062	418.341	416.254	357.607	123.308	206.301	401.609	0.00061897	0.0003383	0.00017063	1103.8	5.0182e-06	4.9939e-06	1196.6	234.35	6.0194e-06	3.3945e-06	293.25	80.711	63.141	18.532	2.7121e-06	25.904	0.0018475	0.003135	0.00089358	1101.8	3.0586e-05	3.6606e-05	1194.4	236.07	3.058e-05	3.5586e-05	296.82	82.331	64.828	19.223	3.2918e-05	26.904	117.133	180.135	162.669	102.151	238.261	226.399	101.908	109.248	226.624	268.082	109.178	116.091	116.505	123.177	199.526	122.354	-8191	255	
2633.239	1	1	0	0	0.2152	0.22251	0.35063	0.2617	0.14588	0.23227	0.27359	0.22705	0.065323	0.23455	0.099802	0.26262	0.12752	0.24438	0.1153	0.35211	-2.05	-2.5042	-2.6667	-2.2646	-2.9958	-2.7292	-2.5708	-3.1771	-2.3146	-2.6208	-3.0354	-2.1375	-3.1521	-2.775	-2.3146	-3.2167	215.228	198.302	116.744	345.129	405.589	137.570	338.677	396.290	261.187	204.237	222.546	298.844	179.852	176.054	143.949	106.375	0.00065451	0.00033225	5.2985e-05	1104.3	4.5829e-06	2.8374e-06	1198.2	234.04	7.2732e-06	3.6033e-06	291.47	80.941	63.859	18.596	4.7358e-06	25.781	0.0018342	0.0032385	0.00090087	1102.3	3.0717e-05	3.6342e-05	1194.9	236.32	3.0159e-05	3.5276e-05	296.63	82.493	65.041	19.239	3.2364e-05	26.89	110.278	174.417	295.736	101.562	267.982	302.305	101.947	109.350	254.447	264.421	108.861	115.735	116.134	123.312	228.966	122.231	-8191	255	
2633.335	1	1	0	0	0.11682	0.17528	0.099653	0.47363	0.25711	0.13099	0.20143	0.31378	0.15214	0.10686	0.15748	0.26067	0.1836	0.16701	0.29423	0.24059	-2.0792	-2.5187	-3.1375	-2.425	-2.9854	-2.9042	-2.3063	-3.1792	-2.3583	-2.6583	-3.1021	-2.4083	-2.8812	-2.9167	-2.1063	-3.0604	305.965	221.006	411.728	396.447	235.254	337.614	369.393	384.699	448.028	437.962	216.530	439.827	278.226	182.807	335.916	387.155	0.00056318	0.00027147	5.5211e-05	1107.1	5.4907e-06	5.1106e-06	1196	235.56	6.2851e-06	4.5263e-06	292.59	81.438	64.033	18.437	9.2065e-06	25.968	0.0018225	0.0032267	0.00089909	1101.5	3.0565e-05	3.7105e-05	1196.6	236.51	3.0275e-05	3.6143e-05	296.58	82.513	65.207	19.174	3.3019e-05	26.984	119.646	182.897	161.023	101.864	208.270	210.926	101.881	109.308	208.731	269.484	108.694	115.751	116.331	123.407	237.098	122.722	-8191	255	
2633.431	1	1	0	0	0.25825	0.22266	0.086114	0.25844	0.21906	0.051381	0.12526	0.28724	0.13643	0.17987	0.17401	0.346	0.11228	0.16031	0.08106	0.049244	-2.3729	-2.2417	-3.1396	-2.2792	-2.7708	-3.0312	-2.5958	-3.3729	-2.725	-2.2896	-3.2979	-2.3812	-2.6437	-2.9896	-2.2854	-2.9229	187.413	103.429	418.721	436.557	427.769	161.319	333.233	385.444	391.655	194.512	103.050	404.227	330.310	119.124	119.485	187.199	0.00060402	0.0005087	0.00013087	1100.4	4.6151e-06	4.2125e-06	1194.5	236.27	5.4194e-06	3.8105e-06	290.84	81.105	64.125	18.442	3.4736e-06	25.702	0.0017903	0.0032418	0.00088947	1100.9	3.0196e-05	3.6416e-05	1193.2	237.01	2.979e-05	3.6259e-05	295.84	82.45	65.272	19.187	3.2335e-05	26.911	107.202	152.041	200.892	101.556	276.757	170.270	101.853	109.425	247.072	187.773	108.859	115.943	116.221	122.910	204.689	122.779	-8191	255	
2633.550	1	1	0	0	0.27038	0.1677	0.10711	0.10816	0.24267	0.072851	0.10776	0.15849	0.26596	0.26353	0.22136	0.014135	0.091984	0.2292	0.082246	0.14148	-2.3208	-2.375	-3.1021	-2.4396	-2.6917	-3.05	-2.5708	-3.1104	-2.8833	-2.4146	-3.0896	-2.5792	-2.6292	-3.0896	-2.1208	-2.9188	369.228	355.458	428.921	386.139	333.414	114.560	377.148	406.483	425.398	124.155	415.590	257.524	207.096	113.627	216.588	377.851	0.0005951	0.00044766	8.779e-05	1099.9	4.0522e-06	3.588e-06	1196	235.02	3.4708e-06	2.7749e-06	291.33	81.149	63.61	18.432	6.5618e-06	25.722	0.0018065	0.0032628	0.00089759	1098.1	3.0529e-05	3.5519e-05	1195.1	236.37	3.0436e-05	3.563e-05	296.25	82.408	65.102	19.171	3.2672e-05	26.927	113.030	212.086	177.595	101.710	236.171	276.188	101.855	109.423	239.102	406.278	109.130	115.822	116.226	123.402	253.483	122.561	-8191	255	
2633.646	1	1	0	0	0.11036	0.02273	0.21418	0.26012	0.021936	0.14437	0.41602	0.33681	0.21859	0.19546	0.1353	0.28815	0.16597	0.11277	0.13215	0.075281	-2.4437	-2.2708	-3.0354	-2.5854	-2.4	-3.0458	-2.3479	-2.9333	-3.0208	-2.125	-3.2042	-2.5667	-2.4375	-3.2438	-2.3542	-2.7458	188.157	330.069	375.699	91.788	256.065	189.054	408.667	415.153	356.525	203.132	428.426	419.560	211.237	92.520	100.800	348.737	0.00054598	0.00019315	0.00015597	1105.6	1.4734e-06	3.0123e-06	1193.1	234.75	4.6285e-06	2.9231e-06	291.57	81.48	63.548	18.5	3.1051e-06	25.823	0.0018062	0.0032383	0.00089479	1100.5	3.092e-05	3.602e-05	1192.3	236.55	3.0312e-05	3.6118e-05	296.37	82.632	65.009	19.22	3.1815e-05	26.879	109.369	141.889	143.473	101.714	338.205	259.613	101.826	109.451	241.961	257.637	108.916	115.864	116.034	122.914	340.462	122.625	-8191	255	
2633.719	1	1	0	0	0.25724	0.33254	0.21578	0.17528	0.32471	0.22979	0.18812	0.085	0.24954	0.10406	0.063508	0.12232	0.2134	0.23767	0.12878	0.30307	-2.5187	-2.2625	-2.8187	-2.7229	-2.3917	-3.2542	-2.625	-2.5479	-2.9875	-2.2021	-3.0271	-2.7313	-2.1917	-3.0125	-2.4417	-2.6021	99.510	243.650	419.745	415.917	376.667	208.264	448.522	104.102	331.917	244.309	407.533	113.053	386.933	388.121	285.683	325.964	0.00061951	0.00042203	5.9289e-05	1099.8	4.7609e-06	5.985e-06	1197.3	234.11	5.7674e-06	3.3618e-06	292.26	80.94	63.823	18.499	5.125e-06	26.111	0.0018165	0.0031053	0.0008619	1099.1	3.0826e-05	3.5631e-05	1194	236.03	3.0384e-05	3.6083e-05	296.39	82.514	65.105	19.215	3.2374e-05	26.922	109.707	164.574	166.751	101.896	236.514	269.196	101.697	109.700	223.900	264.146	108.738	115.660	116.120	123.457	216.135	122.758	-8191	255	
2633.815	1	1	0	0	0.092383	0.22498	0.28222	0.12873	0.18703	0.27588	0.14391	0.062451	0.23751	0.15814	0.11457	0.18437	0.22532	0.17842	0.1818	0.27737	-2.5938	-2.0333	-2.7542	-2.6583	-2.2271	-3.1562	-2.5979	-2.5271	-3.0146	-2.3646	-2.8708	-2.8896	-2.1625	-3.0521	-2.5583	-2.4146	325.846	136.224	324.816	229.900	392.573	349.944	408.803	335.760	189.046	411.354	201.189	415.551	223.691	265.064	443.803	119.165	0.00063382	0.0008262	7.4809e-05	1100.6	5.8826e-06	3.8773e-06	1198.3	234.48	3.7373e-06	2.9061e-06	293.76	81.538	63.368	18.462	2.8492e-06	25.706	0.0018522	0.003181	0.00088887	1098.5	3.1209e-05	3.5603e-05	1192.9	235.74	3.023e-05	3.6008e-05	297.17	82.674	64.852	19.229	3.1481e-05	26.865	106.874	204.106	196.109	101.703	228.637	259.789	101.517	109.259	242.584	255.180	108.901	115.698	115.849	123.205	288.468	122.601	-8191	255	
2633.934	1	1	0	0	0.031061	0.19029	0.24864	0.093598	0.23414	0.10893	0.17584	0.13392	0.18352	0.06118	0.25046	0.29818	0.087903	0.28548	0.11852	0.1488	-2.6042	-2.3958	-2.7458	-3.0208	-2.0833	-2.8812	-2.8854	-2.3771	-3.1854	-2.2812	-2.5938	-2.9938	-2.2333	-3.0375	-2.5812	-2.1521	296.447	368.653	317.547	395.191	380.830	398.754	415.828	404.020	449.020	329.410	417.369	418.116	400.301	407.906	412.649	129.254	0.00057489	0.00025829	0.00018626	1098.4	7.4428e-06	3.3179e-06	1193.3	234.15	7.0819e-06	1.4705e-06	292.73	80.902	63.47	18.524	1.6802e-06	25.872	0.0018356	0.0031453	0.0008774	1098.5	3.1521e-05	3.5824e-05	1193.9	235.88	3.0934e-05	3.5238e-05	296.78	82.471	64.943	19.185	3.1817e-05	26.901	105.427	233.254	206.467	101.840	226.457	224.109	101.647	109.539	206.578	271.098	108.953	115.945	115.766	123.303	201.540	122.791	-8191	255	
2634.030	1	1	0	0	0.32921	0.18253	0.23578	0.19454	0.32648	0.14187	0.14107	0.10501	0.21287	0.23993	0.21836	0.27399	0.20857	0.06479	0.067232	0.13834	-2.6479	-2.3917	-2.4667	-3.2521	-2.1312	-2.9333	-2.7625	-2.3271	-3.1813	-2.2979	-2.6917	-3.0208	-2.2812	-2.9229	-2.775	-2.4875	188.458	423.900	100.060	424.972	276.174	421.627	412.128	112.069	204.660	238.238	120.144	421.948	316.656	241.774	318.025	148.521	0.00070262	0.00034869	8.3808e-05	1100.3	2.4442e-06	3.4905e-06	1196.7	234.04	6.5589e-06	6.2697e-06	292.51	81.558	63.514	18.562	5.855e-06	25.856	0.0018336	0.0032438	0.00087889	1099.7	3.0994e-05	3.5723e-05	1193.8	236.22	3.1026e-05	3.5423e-05	296.8	82.741	64.929	19.238	3.2063e-05	26.913	106.086	190.845	174.341	101.880	183.584	247.389	101.781	109.479	234.015	292.057	108.825	115.624	115.560	123.334	257.220	122.680	-8191	255	
2634.127	1	1	0	0	0.11083	0.082247	0.27423	0.10551	0.1933	0.10515	0.28149	0.085859	0.080204	0.18886	0.17298	0.26005	0.092679	0.20668	0.28325	0.13302	-2.75	-2.4313	-2.5896	-3.1958	-2.4479	-2.8646	-3.0542	-2.2854	-3.0521	-2.5167	-2.5062	-3.1604	-2.2917	-2.5917	-3.1021	-2.4167	309.910	202.734	239.889	356.922	196.120	321.216	401.337	383.983	378.317	420.943	248.492	404.781	249.573	383.269	374.722	448.881	0.00065555	0.00014301	8.5394e-05	1103.1	6.4607e-06	5.3161e-06	1195.1	235.2	5.499e-06	2.1711e-06	292.86	81.068	63.625	18.412	7.2036e-06	25.741	0.0018274	0.0031099	0.00088084	1100.2	3.1157e-05	3.5528e-05	1192.8	236.11	3.0486e-05	3.5812e-05	296.17	82.507	65.048	19.176	3.3181e-05	26.867	106.657	178.775	439.625	101.746	218.913	221.655	101.658	109.617	197.915	269.162	109.093	115.831	116.281	122.913	218.131	122.728	-8191	255	
2634.247	1	1	0	0	0.24011	0.2166	0.17016	0.14961	0.012682	0.10282	0.10123	0.29611	0.26487	0.10274	0.12791	0.23554	0.10642	0.11804	0.23468	0.085366	-2.6354	-2.6688	-2.3396	-3.2104	-2.4167	-2.5958	-3.1708	-2.0521	-3.0062	-2.7521	-2.3771	-3.2958	-2.4604	-2.6396	-3.1	-2.2646	382.922	109.866	119.670	120.217	92.809	128.785	414.791	436.392	287.015	249.356	348.610	447.737	123.042	362.235	291.616	117.353	0.00055729	0.00052731	0.00011115	1104.1	6.0125e-06	5.0519e-06	1193.9	233.94	5.7007e-06	1.5718e-06	291.78	81.269	63.392	18.529	6.1358e-06	25.852	0.0019016	0.0031953	0.00093809	1099.5	3.2169e-05	3.7222e-05	1192.8	236.13	3.0883e-05	3.6266e-05	296.43	82.64	64.887	19.21	3.3977e-05	26.941	111.518	181.463	237.048	101.962	242.636	231.064	101.763	109.372	170.863	271.390	109.116	115.827	116.118	123.145	250.585	122.601	-8191	255	
2634.343	1	1	0	0	0.10191	0.13841	0.13664	0.34593	0.25258	0.18943	0.14628	0.17114	0.10861	0.18291	0.16311	0.046791	0.21889	0.22258	0.11023	0.14431	-2.4979	-2.6729	-2.3187	-3.1437	-2.425	-2.5521	-3.0875	-2.1521	-2.9333	-2.9396	-2.1896	-3.3417	-2.5833	-2.4771	-3.1354	-2.3937	250.583	312.809	381.305	442.492	108.683	347.552	390.976	91.684	419.835	309.931	337.749	381.238	180.062	115.938	178.553	375.789	0.0005547	0.00069812	0.00011022	1104.1	6.4198e-06	4.439e-06	1193.7	233.41	4.4162e-06	3.6236e-06	291.53	81.764	63.438	18.345	4.6288e-06	25.877	0.001856	0.0032546	0.0009345	1101.1	3.068e-05	3.672e-05	1192.6	236.03	3.0277e-05	3.6709e-05	296.21	82.674	64.706	19.173	3.2888e-05	26.972	110.229	199.445	174.956	101.933	228.542	199.881	101.860	109.351	224.939	252.883	108.875	115.799	116.341	123.768	242.516	122.341	-8191	255	
2634.415	1	1	0	0	0.17744	0.13785	0.12296	0.055549	0.10097	0.015515	0.29559	0.30089	0.077816	0.15269	0.19001	0.14505	0.1044	0.17953	0.075563	0.18123	-2.5542	-2.9813	-2.1562	-3.3187	-2.5812	-2.4313	-3.2521	-2.2896	-2.8354	-3.0875	-2.1521	-3.1583	-2.7687	-2.4542	-3.0958	-2.425	356.950	369.867	309.029	375.137	177.019	451.257	414.540	366.708	250.503	359.978	94.012	363.263	389.952	91.716	108.355	370.641	0.0005953	0.00024081	0.00010203	1104	5.4449e-06	7.436e-06	1194.4	235.02	5.9568e-06	3.4578e-06	290.81	81.156	63.341	18.513	1.9575e-06	25.877	0.0018463	0.0031413	0.00091718	1101.1	3.1321e-05	3.8035e-05	1193.9	236.25	3.1209e-05	3.6459e-05	296.41	82.405	64.901	19.193	3.2044e-05	26.866	110.489	111.712	149.245	101.922	202.414	227.258	101.798	109.518	187.114	232.609	109.234	115.658	115.631	123.276	122.900	122.761	-8191	255	
2634.536	1	1	0	0	0.17155	0.081203	0.13801	0.2156	0.35163	0.29715	0.048944	0.08367	0.10592	0.16496	0.30685	0.16523	0.1782	0.03896	0.11238	0.11105	-2.4208	-2.9729	-2.2875	-2.9667	-2.6604	-2.3292	-3.3187	-2.5583	-2.6937	-3.1458	-2.3208	-2.8667	-2.7146	-2.2812	-3.075	-2.5375	441.906	157.837	420.782	322.178	401.231	151.297	312.608	137.598	392.623	443.467	400.492	213.418	322.966	255.049	392.391	180.810	0.00062473	0.0003654	0.00011623	1102.5	3.8378e-06	4.1296e-06	1191.9	234	3.4514e-06	4.7876e-06	293.94	81.349	63.748	18.497	4.1063e-06	25.726	0.0018096	0.0031427	0.00090654	1100	3.1389e-05	3.6652e-05	1191.6	235.6	3.044e-05	3.667e-05	296.56	82.592	64.962	19.24	3.2355e-05	26.913	112.830	212.011	185.208	102.034	220.512	236.676	102.025	109.587	197.179	198.524	108.927	115.630	116.153	123.803	253.564	122.528	-8191	255	
2634.632	1	1	0	0	0.080347	0.093406	0.065912	0.29788	0.11449	0.099872	0.28849	0.077601	0.15698	0.018001	0.17947	0.19949	0.28675	0.13027	0.088343	0.2071	-2.1583	-2.9625	-2.1333	-3.0417	-2.9208	-2.0708	-3.1458	-2.5604	-2.4625	-3.3333	-2.3792	-2.9792	-3.0563	-2.2812	-3.0938	-2.5958	256.392	314.918	435.405	450.774	364.619	231.902	403.777	235.618	207.604	143.839	360.868	430.869	388.732	373.552	235.396	394.153	0.00058714	0.00027953	3.9816e-05	1101.2	6.2318e-07	2.181e-06	1196.4	234.05	2.5334e-06	1.9105e-06	291.97	81.076	63.776	18.44	6.7426e-06	25.802	0.0018401	0.003167	0.0009041	1102.5	3.1095e-05	3.7254e-05	1194.1	235.73	3.0584e-05	3.6615e-05	296	82.431	64.915	19.207	3.2323e-05	26.841	102.368	438.211	128.086	102.361	227.944	278.604	101.827	109.547	244.066	96.348	108.895	115.512	115.938	123.749	251.385	122.309	-8191	255	
2634.726	1	1	0	0	0.13164	0.11729	0.039209	0.23383	0.27572	0.27256	0.1927	0.24352	0.01086	0.36576	0.097924	0.14188	0.11235	0.30626	0.15561	0.17215	-2.0875	-3.0125	-2.3833	-2.9313	-2.9729	-2.2583	-3.0708	-2.9104	-2.3396	-2.9729	-2.625	-2.6667	-3.2292	-2.25	-2.7812	-2.8792	362.772	304.378	120.800	441.439	118.906	349.906	366.200	389.850	111.059	327.584	149.648	366.197	435.762	125.264	210.599	398.642	0.00055348	0.0005939	0.00013732	1104.5	3.1867e-06	3.136e-06	1198.2	233.46	6.2108e-06	3.3498e-06	292.96	81.349	63.707	18.526	5.0957e-06	25.604	0.0018264	0.0032041	0.00088228	1101.6	3.0812e-05	3.6231e-05	1192.6	235.59	3.0962e-05	3.4998e-05	296	82.649	64.967	19.2	3.1416e-05	26.853	122.582	153.948	128.025	101.749	293.497	264.350	101.796	109.395	253.700	260.291	109.117	115.420	116.340	123.784	258.828	122.365	-8191	255	
2634.847	1	1	0	0	0.097089	0.15328	0.11689	0.18973	0.33431	0.26545	0.17314	0.25546	0.24517	0.23973	0.039404	0.10463	0.20322	0.018437	0.088971	0.14443	-2.0583	-3.15	-2.4292	-2.6	-3.0896	-2.1292	-3.0208	-2.8063	-2.35	-3.2292	-2.6125	-2.5125	-3.0854	-2.1312	-2.8979	-2.8375	225.883	98.071	405.684	98.093	236.345	411.694	433.148	368.031	360.212	196.397	396.109	385.667	119.908	440.449	152.695	98.876	0.00065944	0.00024753	0.00013513	1102.6	4.4008e-06	2.7666e-07	1195	232.98	6.6243e-06	1.7947e-06	291.97	82.02	63.941	18.43	3.6963e-06	25.736	0.0018323	0.0030436	0.00087392	1099.3	3.0297e-05	3.6346e-05	1192.8	235.22	3.0425e-05	3.4825e-05	295.41	82.831	64.959	19.17	3.124e-05	26.904	110.495	181.723	158.402	102.014	202.338	314.918	101.794	109.373	215.949	187.201	109.134	115.769	116.045	123.469	245.995	122.501	-8191	255	
#DATA ENDS
