BOXY.EXE: ISS Imagent and Oximeter Data Acquisition Program Version 0.80
Ascii Record File

#ACQ INFORMATION
2  Detector Channels 
16  External MUX Channels 
1  Auxiliary Channels 
5000  Waveform (CCF) Frequency (Hz)
1  Waveforms Skipped 
30  Waveforms Averaged 
1  Cycles Averaged 
16  Acquisitions per Waveform 
10.0806  Updata Rate (Hz) 

#FILE INFORMATION
TRUE -- External MUX Channel results are PARSED.
FALSE -- AC DC and Phase are NOT grouped.
TRUE -- Companion Program Settings File CREATED.
FALSE -- AC data not excluded
FALSE -- DC data not excluded
FALSE -- Phase data not excluded
FALSE -- Auxillary Chn. data not excluded
Tab delimiters

#CALIBRATION STATE
TRUE -- Waveform Calibration Values APPLIED.


#AUX CALIBRATION VALUES
Val Type	aux-1	

Term	1.0000e+00	
Factor	0.0000e+00	


#WF CALIBRATION VALUES
A = Detector Channel
Val Type	A-AC1	A-AC2	A-AC3	A-AC4	A-AC5	A-AC6	A-AC7	A-AC8	A-AC9	A-AC10	A-AC11	A-AC12	A-AC13	A-AC14	A-AC15	A-AC16	A-DC1	A-DC2	A-DC3	A-DC4	A-DC5	A-DC6	A-DC7	A-DC8	A-DC9	A-DC10	A-DC11	A-DC12	A-DC13	A-DC14	A-DC15	A-DC16	A-Ph1	A-Ph2	A-Ph3	A-Ph4	A-Ph5	A-Ph6	A-Ph7	A-Ph8	A-Ph9	A-Ph10	A-Ph11	A-Ph12	A-Ph13	A-Ph14	A-Ph15	A-Ph16	

Term	0.00000e+00	0.00000e+00	0.00000e+00	0.00000e+00	0.00000e+00	0.00000e+00	0.00000e+00	0.00000e+00	0.00000e+00	0.00000e+00	0.00000e+00	0.00000e+00	0.00000e+00	0.00000e+00	0.00000e+00	0.00000e+00	0.00000e+00	0.00000e+00	0.00000e+00	0.00000e+00	0.00000e+00	0.00000e+00	0.00000e+00	0.00000e+00	0.00000e+00	0.00000e+00	0.00000e+00	0.00000e+00	0.00000e+00	0.00000e+00	0.00000e+00	0.00000e+00	0.00000e+00	0.00000e+00	0.00000e+00	0.00000e+00	0.00000e+00	0.00000e+00	0.00000e+00	0.00000e+00	0.00000e+00	0.00000e+00	0.00000e+00	0.00000e+00	0.00000e+00	0.00000e+00	0.00000e+00	0.00000e+00	
Factor	1.00000e+00	1.00000e+00	1.00000e+00	1.00000e+00	1.00000e+00	1.00000e+00	1.00000e+00	1.00000e+00	1.00000e+00	1.00000e+00	1.00000e+00	1.00000e+00	1.00000e+00	1.00000e+00	1.00000e+00	1.00000e+00	1.00000e+00	1.00000e+00	1.00000e+00	1.00000e+00	1.00000e+00	1.00000e+00	1.00000e+00	1.00000e+00	1.00000e+00	1.00000e+00	1.00000e+00	1.00000e+00	1.00000e+00	1.00000e+00	1.00000e+00	1.00000e+00	X	X	X	X	X	X	X	X	X	X	X	X	X	X	X	X	

B = Detector Channel
Val Type	B-AC1	B-AC2	B-AC3	B-AC4	B-AC5	B-AC6	B-AC7	B-AC8	B-AC9	B-AC10	B-AC11	B-AC12	B-AC13	B-AC14	B-AC15	B-AC16	B-DC1	B-DC2	B-DC3	B-DC4	B-DC5	B-DC6	B-DC7	B-DC8	B-DC9	B-DC10	B-DC11	B-DC12	B-DC13	B-DC14	B-DC15	B-DC16	B-Ph1	B-Ph2	B-Ph3	B-Ph4	B-Ph5	B-Ph6	B-Ph7	B-Ph8	B-Ph9	B-Ph10	B-Ph11	B-Ph12	B-Ph13	B-Ph14	B-Ph15	B-Ph16	

Term	0.00000e+00	0.00000e+00	0.00000e+00	0.00000e+00	0.00000e+00	0.00000e+00	0.00000e+00	0.00000e+00	0.00000e+00	0.00000e+00	0.00000e+00	0.00000e+00	0.00000e+00	0.00000e+00	0.00000e+00	0.00000e+00	0.00000e+00	0.00000e+00	0.00000e+00	0.00000e+00	0.00000e+00	0.00000e+00	0.00000e+00	0.00000e+00	0.00000e+00	0.00000e+00	0.00000e+00	0.00000e+00	0.00000e+00	0.00000e+00	0.00000e+00	0.00000e+00	-1.93096e+02	-1.31651e+02	-1.26893e+02	-1.81391e+02	-8.12550e+01	-6.54229e+01	-1.56795e+02	-1.62015e+02	-8.71340e+01	-6.29356e+01	-1.74004e+02	-1.71240e+02	-1.79095e+02	-1.76490e+02	-7.82813e+01	-1.49299e+02	
Factor	3.61994e-05	1.37445e-04	4.05246e-05	1.50909e-01	1.47821e-06	1.56133e-06	1.51247e-01	4.83322e-02	1.61963e-06	1.49477e-06	8.33551e-02	2.69328e-02	2.70377e-02	8.24457e-03	1.53392e-06	1.18361e-02	1.83736e-05	3.60318e-05	1.01782e-05	8.04857e-02	3.42701e-07	4.15052e-07	7.58372e-02	2.58983e-02	3.41234e-07	4.10228e-07	4.32733e-02	1.39519e-02	1.46541e-02	4.46483e-03	3.66053e-07	6.20000e-03	X	X	X	X	X	X	X	X	X	X	X	X	X	X	X	X	



#DISTANCE SETTINGS
A = Detector Channel
A-1	A-2	A-3	A-4	A-5	A-6	A-7	A-8	A-9	A-10	A-11	A-12	A-13	A-14	A-15	A-16	

2.5000e+00	3.0000e+00	2.5000e+00	3.0000e+00	2.0000e+00	3.0000e+00	1.5000e+00	3.0000e+00	3.0000e+00	3.0000e+00	3.0000e+00	3.0000e+00	3.0000e+00	3.0000e+00	1.5000e+00	3.0000e+00	

B = Detector Channel
B-1	B-2	B-3	B-4	B-5	B-6	B-7	B-8	B-9	B-10	B-11	B-12	B-13	B-14	B-15	B-16	

1.0000e+01	1.0000e+01	1.0000e+01	1.4400e+00	1.0000e+01	1.0000e+01	1.5100e+00	1.9400e+00	1.0000e+01	1.0000e+01	1.9900e+00	2.4900e+00	2.4100e+00	2.9000e+00	1.0000e+01	2.9800e+00	




#DATA BEGINS
time	group	step	mark	flag	A-AC1	A-AC2	A-AC3	A-AC4	A-AC5	A-AC6	A-AC7	A-AC8	A-AC9	A-AC10	A-AC11	A-AC12	A-AC13	A-AC14	A-AC15	A-AC16	A-DC1	A-DC2	A-DC3	A-DC4	A-DC5	A-DC6	A-DC7	A-DC8	A-DC9	A-DC10	A-DC11	A-DC12	A-DC13	A-DC14	A-DC15	A-DC16	A-Ph1	A-Ph2	A-Ph3	A-Ph4	A-Ph5	A-Ph6	A-Ph7	A-Ph8	A-Ph9	A-Ph10	A-Ph11	A-Ph12	A-Ph13	A-Ph14	A-Ph15	A-Ph16	B-AC1	B-AC2	B-AC3	B-AC4	B-AC5	B-AC6	B-AC7	B-AC8	B-AC9	B-AC10	B-AC11	B-AC12	B-AC13	B-AC14	B-AC15	B-AC16	B-DC1	B-DC2	B-DC3	B-DC4	B-DC5	B-DC6	B-DC7	B-DC8	B-DC9	B-DC10	B-DC11	B-DC12	B-DC13	B-DC14	B-DC15	B-DC16	B-Ph1	B-Ph2	B-Ph3	B-Ph4	B-Ph5	B-Ph6	B-Ph7	B-Ph8	B-Ph9	B-Ph10	B-Ph11	B-Ph12	B-Ph13	B-Ph14	B-Ph15	B-Ph16	aux-1	digaux	

3057.202	1	1	0	512	0.2515	0.2747	0.043529	0.24324	0.10575	0.32472	0.24707	0.086889	0.18627	0.25138	0.12191	0.20609	0.1584	0.26997	0.24891	0.13114	-2.4104	-2.3646	-2.2125	-3.0125	-2.0479	-2.4833	-2.6646	-2.1375	-2.7812	-2.6396	-2.2208	-2.8979	-2.2438	-2.6188	-2.9167	-2.1208	40.197	-90.955	85.517	-7.379	238.846	256.198	142.317	208.880	-13.405	163.246	153.650	102.484	245.595	-62.210	-8.029	242.308	0.00041037	0.00036246	0.00017765	535.95	3.1925e-06	2.6028e-06	443.28	219.67	3.56e-06	5.162e-06	204.2	86.764	92.06	49.277	4.5426e-06	46.027	0.0023645	0.0041271	0.0011911	581.17	3.9315e-05	4.6842e-05	482.56	238.76	3.892e-05	4.6434e-05	224.03	95.053	101.37	54.076	4.1799e-05	50.265	128.381	-41.153	-32.423	-87.925	55.539	77.003	-89.421	-82.488	18.242	59.587	-85.071	-80.796	-77.852	-73.059	-2.112	-76.841	-8191	255	
3057.298	1	1	0	0	0.11576	0.10134	0.20673	0.20429	0.21339	0.072785	0.14141	0.2339	0.21666	0.11914	0.20064	0.15053	0.076573	0.30866	0.11532	0.44293	-2.3833	-2.5021	-1.9542	-3.0875	-2.0812	-2.4583	-2.8542	-2.1979	-2.8271	-2.8354	-2.1188	-3	-2.1625	-2.3979	-2.8479	-2.0979	-43.886	81.978	243.655	-64.687	-17.695	-39.950	175.075	252.717	203.175	152.342	147.103	146.815	228.965	252.715	24.272	204.917	0.00042164	0.00038075	4.7919e-05	536.04	4.8784e-06	4.5997e-06	444.26	218.13	2.4448e-06	4.8728e-06	205.6	87.283	91.788	48.963	2.9843e-06	46.068	0.0022469	0.0039158	0.0011257	580.01	3.6904e-05	4.4722e-05	482.35	237.72	3.7954e-05	4.5323e-05	225.15	95.748	101.07	53.793	4.2569e-05	50.4	127.127	-46.600	-31.852	-87.808	37.285	54.053	-89.298	-82.328	73.356	59.041	-85.171	-80.905	-78.012	-73.235	84.436	-77.349	-8191	255	
3057.418	1	1	0	0	0.045713	0.14082	0.36837	0.047428	0.15186	0.10114	0.086728	0.27996	0.14156	0.10136	0.067543	0.20677	0.034005	0.21441	0.12035	0.15629	-2.3417	-2.4854	-1.9271	-3.0521	-2.2771	-2.2896	-2.9583	-2.3292	-2.5146	-2.8292	-2.2021	-2.9646	-2.5062	-2.2562	-3.0125	-2.2687	101.545	187.133	-69.143	111.619	148.810	-5.920	241.481	-97.245	-5.860	-76.654	-20.124	213.225	156.158	117.409	247.591	155.219	0.00041168	0.00026985	8.6146e-05	529.14	2.3151e-06	2.5167e-06	439.93	215.91	1.7472e-06	6.8915e-06	204.74	87.525	90.95	47.894	4.1572e-06	44.998	0.002298	0.0040401	0.0011109	574.17	3.6773e-05	4.4341e-05	477.96	234.54	3.6165e-05	4.2029e-05	223.81	95.681	99.518	52.466	3.5596e-05	49.297	129.823	13.896	45.013	-87.794	23.078	70.615	-89.576	-82.482	37.734	80.052	-85.350	-81.206	-78.404	-73.494	48.404	-77.509	-8191	255	
3057.490	1	1	0	0	0.12541	0.049424	0.28536	0.1296	0.33612	0.15585	0.30448	0.19397	0.087669	0.097965	0.15626	0.18803	0.1062	0.033343	0.17395	0.14688	-2.1417	-2.8958	-2.1229	-2.95	-2.5896	-2.2833	-2.9646	-2.4083	-2.4667	-2.7792	-2.0687	-2.9542	-2.6667	-2.1937	-2.9542	-2.3146	-78.463	147.672	51.354	-87.073	168.990	2.587	150.319	182.357	202.022	145.975	-95.739	-48.855	171.623	31.666	228.365	-10.886	0.00040348	0.00017614	9.1421e-05	517.71	2.2256e-06	5.2293e-06	429.42	209.95	2.8842e-06	5.7557e-06	199.53	85.389	88.428	46.683	7.7293e-07	44.014	0.0020194	0.0034434	0.00096559	558.38	3.2627e-05	3.8758e-05	466.44	227.95	3.3821e-05	3.9384e-05	218.05	93.53	97.124	51.205	3.733e-05	48.303	134.493	-2.875	-18.664	-88.039	-58.085	34.740	-89.644	-82.804	-12.378	19.136	-85.500	-81.079	-78.490	-73.702	-76.411	-77.711	-8191	255	
3057.586	1	1	0	0	0.14392	0.27711	0.16171	0.15863	0.1868	0.10756	0.22119	0.10059	0.20093	0.057893	0.20785	0.27883	0.12397	0.17305	0.21485	0.16993	-1.875	-2.9229	-2.1854	-2.8375	-2.7417	-1.9438	-2.8646	-2.3937	-2.1708	-2.9521	-2.0854	-2.8208	-2.7229	-2.1333	-2.925	-2.3229	-91.001	104.845	85.871	-28.907	184.845	-70.017	-53.974	-18.925	-46.302	243.428	97.205	-27.870	-99.861	217.499	-17.572	-81.567	0.00037491	0.00030217	7.0878e-05	509.11	2.2148e-06	4.4161e-06	428.72	206.22	4.3447e-06	3.9924e-06	196.72	84.7	86.658	46.377	2.854e-06	44.145	0.0021377	0.003678	0.0010509	549.97	3.5539e-05	4.2476e-05	464	224.18	3.6656e-05	4.1735e-05	214.49	92.721	95.372	50.921	3.7009e-05	48.412	129.278	-10.733	24.981	-88.293	85.176	87.780	-89.780	-82.872	24.713	65.124	-85.710	-81.159	-78.316	-73.692	-25.435	-77.583	-8191	255	
3057.705	1	1	0	0	0.2136	0.072239	0.21409	0.13085	0.085303	0.10571	0.29752	0.28949	0.029716	0.21203	0.059085	0.15198	0.23834	0.32195	0.16346	0.033583	-1.8396	-2.6521	-2.1771	-2.7271	-2.8312	-2.0375	-3.175	-2.5625	-2.4688	-2.9958	-2.0938	-2.65	-2.7167	-2.2062	-2.7958	-2.4917	197.812	-71.008	201.380	245.325	158.285	121.741	72.517	196.001	133.602	104.857	-42.451	221.310	-76.704	-98.544	76.448	142.359	0.00039682	0.00040692	0.00011918	508.78	4.0825e-06	4.3423e-06	429.92	204.83	3.6993e-06	2.3715e-06	195.9	84.657	86.523	46.33	2.3829e-06	44.255	0.0020637	0.0034883	0.00096818	547.97	3.2332e-05	3.8357e-05	466.07	222.5	3.2788e-05	3.716e-05	214.58	92.541	94.816	50.709	3.392e-05	48.475	126.761	-15.038	32.039	-87.892	5.665	37.376	-89.505	-82.597	11.353	79.683	-85.325	-81.298	-78.265	-73.415	15.513	-77.619	-8191	255	
3057.801	1	1	0	0	0.11112	0.29591	0.14288	0.15082	0.27089	0.17431	0.27658	0.16386	0.17306	0.095695	0.10252	0.25582	0.27044	0.17161	0.19523	0.056259	-1.7667	-2.8875	-2.2583	-2.5396	-2.8396	-2.2542	-2.8542	-2.625	-1.8333	-2.9542	-2.4792	-2.4479	-3.0438	-2.15	-2.75	-2.6625	-58.994	223.501	-9.355	163.195	-21.650	217.824	-91.296	188.280	217.103	34.113	-67.900	240.713	196.148	155.170	102.916	149.662	0.00040757	0.00046407	0.0001427	503.86	3.5449e-06	1.5105e-06	429.46	203.67	5.2136e-06	3.673e-06	195.62	83.705	85.791	45.799	2.5215e-06	43.709	0.0019539	0.0033139	0.00095253	545.52	3.2275e-05	3.7929e-05	464.22	221.04	3.2389e-05	3.7445e-05	212.57	91.534	94.036	50.248	3.3135e-05	48.008	124.869	-16.550	-15.599	-88.129	14.669	-6.477	-89.509	-82.564	42.596	47.218	-85.312	-81.036	-78.213	-73.431	71.829	-77.268	-8191	255	
3057.897	1	1	0	0	0.082094	0.29454	0.20633	0.24877	0.099047	0.19952	0.34609	0.1777	0.32335	0.27979	0.1399	0.1778	0.22847	0.10813	0.13311	0.12112	-1.6187	-2.95	-2.3208	-2.1104	-2.8333	-2.325	-2.6604	-2.8583	-2.05	-2.95	-2.2354	-2.25	-2.8063	-2.1854	-2.6	-2.7479	137.159	210.623	38.938	189.796	-82.820	232.963	184.410	7.244	117.376	71.772	244.419	210.298	254.692	136.928	124.049	252.705	0.00033983	0.00068859	0.00012507	505.78	4.923e-06	4.4606e-06	428.8	204.8	3.1161e-06	4.8249e-06	195.79	83.92	86.207	46.34	3.4674e-06	44.041	0.001881	0.0031375	0.00090671	546.86	3.1075e-05	3.7309e-05	464.4	222.4	3.2119e-05	3.7218e-05	213.44	91.671	94.526	50.578	3.2059e-05	48.102	132.780	-10.209	-16.517	-87.804	66.307	82.388	-89.942	-82.841	46.098	59.725	-85.474	-81.109	-78.296	-73.586	27.568	-77.512	-8191	255	
3058.018	1	1	0	0	0.1106	0.10693	0.17228	0.31537	0.23137	0.1111	0.30695	0.45484	0.27711	0.16694	0.12157	0.09726	0.27119	0.10162	0.20731	0.19206	-1.7563	-2.8563	-2.4688	-2.2687	-2.8208	-2.2562	-2.5458	-2.7979	-2.2771	-2.7792	-2.5979	-2.3271	-3.0833	-2.2771	-2.4979	-3.0104	98.026	114.103	-56.955	-86.109	31.130	145.272	235.931	185.419	24.296	-74.089	95.355	-59.217	226.719	-72.924	167.755	192.160	0.00044346	0.00040475	5.3095e-05	509.91	2.6367e-06	2.8763e-06	430.77	206.7	3.8297e-06	2.0672e-06	197.36	85.115	86.624	46.462	9.9031e-07	44.674	0.0017641	0.0029197	0.00082223	549.03	2.7934e-05	3.2808e-05	466.68	224	2.8526e-05	3.2778e-05	215.1	92.736	95.159	50.932	3.0622e-05	48.722	129.467	9.016	-47.439	-88.130	4.447	23.822	-89.738	-82.756	-15.500	15.484	-85.413	-81.021	-78.247	-73.830	16.395	-77.793	-8191	255	
3058.090	1	1	0	0	0.18917	0.12023	0.060993	0.20051	0.25795	0.27749	0.12961	0.086006	0.081426	0.11407	0.22234	0.34423	0.060371	0.2354	0.20806	0.1081	-1.5729	-2.5917	-2.5625	-2.25	-2.8604	-2.3458	-2.5083	-2.975	-1.9	-2.5854	-2.6354	-2.1479	-2.8646	-2.4938	-2.2375	-2.9583	90.776	-57.533	3.703	-79.128	63.021	76.016	143.039	-95.159	-64.073	-25.374	112.168	209.455	50.236	211.733	-42.320	-23.105	0.00040299	0.00026521	0.00015079	517.53	4.9823e-06	4.402e-06	437.41	209.04	2.9226e-06	6.0532e-06	199.52	85.22	88.057	46.793	4.3149e-06	44.662	0.001734	0.0028615	0.00080925	555.9	2.7483e-05	3.2386e-05	471.78	226.6	2.7262e-05	3.1835e-05	217.55	93.048	96.193	51.317	3.0539e-05	48.854	117.441	-2.125	-9.884	-88.320	16.808	98.706	-89.818	-82.981	-31.773	48.065	-86.119	-81.422	-78.863	-73.893	23.605	-77.725	-8191	255	
3058.186	1	1	0	0	0.28025	0.11624	0.12563	0.30501	0.18231	0.2272	0.076161	0.062579	0.062457	0.067929	0.082659	0.13271	0.40687	0.10005	0.18418	0.064808	-1.6979	-2.6292	-2.6583	-2.0271	-2.9104	-2.5229	-2.3583	-2.9167	-2.1896	-2.6646	-2.825	-2.2625	-2.9771	-2.4333	-2.1792	-3.0812	156.335	-36.145	44.752	229.319	-89.960	132.057	106.952	31.549	150.903	-78.516	194.565	4.543	181.668	207.019	-70.956	240.764	0.0003934	0.00055813	0.00014252	518.65	5.0071e-06	4.255e-06	435.1	210.38	1.8276e-06	2.5126e-06	198.13	84.632	87.627	46.714	1.5667e-06	44.413	0.0017577	0.0028855	0.00082422	559.18	2.7424e-05	3.2732e-05	470.14	227.6	2.8011e-05	3.2343e-05	215.85	92.467	95.881	51.251	3.0288e-05	48.596	136.769	3.983	-19.917	-88.345	22.046	19.484	-90.015	-83.116	-3.758	40.241	-85.753	-81.328	-78.622	-73.772	49.546	-77.758	-8191	255	
3058.282	1	1	0	0	0.16759	0.068794	0.16804	0.0011294	0.11669	0.19622	0.062122	0.043861	0.12866	0.093727	0.12341	0.084817	0.27592	0.32162	0.3716	0.24723	-1.8521	-2.4125	-2.8583	-1.9271	-2.7542	-2.7104	-2.3104	-2.9	-2.2542	-2.6146	-2.7938	-1.9479	-2.7375	-2.7479	-2.0625	-3.0292	-74.601	208.452	211.843	180.000	-25.262	137.159	26.349	-68.384	36.323	-39.667	15.638	112.177	-73.697	249.522	-21.481	248.437	0.00043026	0.00038459	6.2013e-05	519.54	3.5774e-06	2.4124e-06	434.98	211.56	2.7447e-06	3.4136e-06	199.52	84.65	88.6	47.182	3.7116e-06	44.562	0.0017925	0.0030746	0.00086116	559.9	3.0206e-05	3.6001e-05	472.39	229.31	3.1964e-05	3.8298e-05	217.46	92.724	97.16	51.81	3.7799e-05	48.963	131.466	17.440	41.198	-88.286	77.935	42.737	-90.012	-82.991	23.981	51.172	-85.817	-81.627	-78.446	-73.987	-3.515	-77.680	-8191	255	
3058.403	1	1	0	0	0.064134	0.13287	0.1664	0.066681	0.11537	0.1447	0.11463	0.29633	0.16048	0.1202	0.01045	0.19028	0.36816	0.11343	0.11058	0.20474	-1.8979	-2.1792	-3.0229	-2.125	-2.7333	-2.7062	-2.1104	-3.0021	-2.4375	-2.4208	-2.9417	-2.3229	-2.5979	-2.8146	-2.2438	-3.0438	-94.402	145.421	146.144	220.941	40.621	-42.603	254.651	165.596	74.276	145.220	178.178	194.521	215.769	131.420	-41.414	115.468	0.00041579	0.0007952	6.5439e-05	520.32	2.8567e-06	4.9295e-06	433.59	212.84	2.5502e-06	1.8497e-06	200.91	85.548	89.131	47.764	2.8418e-06	45.124	0.0021073	0.0037355	0.001068	563.58	3.6367e-05	4.4905e-05	472.29	231.57	3.7702e-05	4.5436e-05	219.58	93.805	98.254	52.446	4.0892e-05	49.491	138.024	-13.330	20.829	-88.296	-14.571	89.477	-89.762	-82.977	35.766	72.713	-85.843	-81.206	-78.618	-73.800	-15.371	-77.860	-8191	255	
3058.499	1	1	0	0	0.076522	0.17521	0.024224	0.1802	0.16744	0.096764	0.18251	0.19962	0.030391	0.28237	0.33581	0.35566	0.097723	0.070089	0.14798	0.17685	-1.9396	-2.2521	-2.8125	-2.3854	-2.5125	-2.7625	-2.075	-2.8729	-2.4458	-2.1625	-3.0875	-2.2562	-2.5687	-2.8438	-1.9729	-2.8125	185.227	143.326	-78.084	-49.059	97.800	110.288	156.595	71.175	244.660	199.447	176.904	221.760	189.522	250.477	-61.317	-9.830	0.00040747	0.00036817	0.00013928	523.66	3.4081e-06	5.2414e-06	437.25	214.41	4.9799e-06	2.6844e-06	200.37	85.621	89.648	48.13	1.6698e-06	45.175	0.0022287	0.0039073	0.0010848	565.46	3.7244e-05	4.3682e-05	473.88	233.12	3.6877e-05	4.2776e-05	219.97	94.083	98.605	52.783	4.0241e-05	49.602	124.728	-20.903	-18.710	-88.443	22.499	55.157	-90.157	-82.733	-14.066	49.518	-86.009	-81.424	-78.555	-73.735	81.282	-77.644	-8191	255	
3058.593	1	1	0	0	0.083439	0.11945	0.21492	0.16772	0.086319	0.33743	0.22789	0.11643	0.22367	0.15663	0.12127	0.2341	0.17237	0.088093	0.21205	0.26986	-2.3271	-1.9146	-2.7708	-2.2375	-2.4458	-2.8812	-2.0667	-3.0271	-2.5542	-1.8271	-3.0229	-2.4271	-2.3312	-2.9854	-1.8521	-2.85	160.380	-93.885	207.315	-66.163	-75.666	114.102	220.750	208.714	208.422	171.547	-45.657	193.962	-66.396	-99.008	179.592	235.092	0.00039289	0.00053187	0.00011048	522.17	3.6658e-06	4.891e-06	434.09	214.64	9.7307e-07	4.4826e-06	201.62	86.339	89.909	48.128	1.6561e-06	45.254	0.0022358	0.0039801	0.0011209	565.65	3.9145e-05	4.6848e-05	472.55	233.71	3.9368e-05	4.7168e-05	219.93	93.941	99.171	52.982	4.0651e-05	49.591	132.879	-33.721	52.437	-88.404	48.207	42.637	-90.125	-82.667	-26.686	55.088	-85.450	-81.221	-78.378	-73.571	78.348	-77.710	-8191	255	
3058.689	1	1	0	0	0.22026	0.07373	0.2186	0.051267	0.15393	0.038883	0.090577	0.32776	0.061847	0.24284	0.18492	0.067367	0.13701	0.16273	0.12081	0.069952	-2.3187	-1.9	-2.8417	-2.2062	-2.2542	-2.9396	-2.0396	-2.5396	-2.6729	-2.1958	-2.8812	-2.4688	-2.0208	-2.9333	-2.1458	-2.7313	121.776	109.000	-28.758	193.733	-72.067	196.974	113.379	-90.752	-89.266	-13.761	231.153	-58.285	179.596	214.856	122.021	101.014	0.00040128	0.0002966	0.00014675	522.84	4.5678e-06	4.0623e-06	433.73	215.02	3.76e-06	2.959e-06	201.25	86.046	90.371	48.405	3.0483e-06	45.502	0.0022585	0.0038964	0.0010987	564.93	3.7497e-05	4.475e-05	472.91	234.04	3.753e-05	4.3972e-05	221.21	94.233	99.371	53.247	3.8612e-05	49.914	127.596	-11.427	-17.665	-88.415	22.691	27.611	-89.946	-82.794	-11.730	88.105	-85.668	-81.130	-78.224	-73.797	42.898	-77.728	-8191	255	
3058.785	1	1	0	0	0.24293	0.2155	0.11836	0.10412	0.12278	0.080235	0.11856	0.14823	0.20345	0.19086	0.071146	0.13899	0.21309	0.25362	0.15632	0.39801	-2.2896	-2.1271	-2.7812	-2.4771	-2.2021	-2.8271	-2.2188	-2.5333	-2.8854	-1.8167	-2.9333	-2.525	-2.1167	-3.0208	-2.1333	-2.4292	89.337	171.360	113.260	112.515	67.616	75.454	-45.831	191.434	-3.837	158.027	154.325	77.200	224.642	226.556	23.452	162.705	0.00049065	0.0004083	0.00013962	526.33	3.5414e-06	2.634e-06	438.97	216.5	4.5987e-06	5.8269e-06	202.42	86.358	90.294	48.679	4.3188e-06	45.893	0.0021397	0.0037875	0.0010688	567.74	3.6378e-05	4.3315e-05	476.92	235.02	3.7236e-05	4.4662e-05	222.3	94.74	99.5	53.486	4.095e-05	50.41	136.400	-49.894	-23.347	-88.365	20.730	69.540	-89.793	-82.816	27.867	57.884	-85.634	-81.168	-78.351	-73.694	-20.262	-77.658	-8191	255	
3058.882	1	1	0	0	0.24407	0.17957	0.047678	0.4007	0.04942	0.13727	0.083454	0.15116	0.13256	0.11148	0.36353	0.24867	0.15233	0.053068	0.13015	0.33021	-2.3354	-1.9896	-2.6437	-2.5062	-1.9562	-2.8979	-2.1833	-2.4021	-2.875	-1.9583	-2.5729	-2.4333	-2.1729	-3.1688	-2.1875	-2.1063	155.918	176.861	-45.883	206.972	255.631	152.818	159.262	256.599	-58.282	240.913	12.934	135.911	230.389	121.588	-81.763	208.053	0.00042547	0.00032657	0.00012202	524.43	4.0872e-06	4.2403e-06	436.9	213.63	1.3478e-06	3.7183e-06	199.74	85.175	88.751	48.02	5.4692e-06	44.983	0.0023182	0.004077	0.0011618	568.05	3.9095e-05	4.6405e-05	475.21	232.65	3.9819e-05	4.6505e-05	219.21	93.629	98.087	52.735	4.5188e-05	49.561	129.723	21.936	3.619	-88.348	-1.412	59.423	-89.939	-82.859	-58.451	45.114	-85.490	-81.489	-78.345	-73.610	51.758	-77.738	-8191	255	
3058.978	1	1	0	0	0.14635	0.35482	0.091517	0.47552	0.23265	0.019355	0.040808	0.27368	0.45458	0.013622	0.10951	0.21644	0.12149	0.089328	0.13462	0.39056	-2.5104	-2.1646	-2.6188	-2.6083	-1.8875	-2.8708	-2.3958	-2.3083	-2.8063	-2.1	-2.55	-2.6021	-2.0125	-2.9771	-2.4	-2.1937	76.033	-36.835	-23.308	-60.830	65.722	31.806	19.156	170.950	55.504	50.341	161.237	141.738	-58.665	1.824	149.482	171.073	0.00042892	0.00061901	0.00013476	518.94	2.3168e-06	2.3219e-06	432.37	211.56	2.9895e-06	5.6773e-06	198.71	84.2	88.349	47.424	4.1421e-06	44.487	0.0024692	0.0043259	0.0012268	562.56	4.1086e-05	4.9402e-05	470.17	230.86	4.0292e-05	4.7431e-05	217.16	92.433	97.111	52.068	4.3575e-05	48.855	125.413	-1.217	-38.174	-88.484	74.503	24.528	-89.983	-82.936	32.870	48.094	-85.823	-81.539	-78.475	-73.657	50.294	-77.696	-8191	255	
3059.098	1	1	0	0	0.085196	0.30268	0.19546	0.054233	0.24196	0.18489	0.30367	0.38561	0.28094	0.10224	0.29222	0.17001	0.20727	0.26498	0.15404	0.025956	-2.6562	-2.0958	-2.3375	-2.7479	-1.9771	-2.7479	-2.4354	-2.2125	-2.6771	-2.0646	-2.5062	-2.9437	-2.0854	-2.8271	-2.5062	-2.0938	203.193	75.284	205.508	88.726	38.351	13.862	35.293	234.814	87.708	70.345	194.511	15.550	-98.003	-76.415	155.741	-15.820	0.00039828	0.00029361	7.9171e-05	514.58	3.5181e-06	4.0405e-06	424.77	207.66	3.8698e-06	5.5582e-06	193.17	82.637	86.04	46.302	4.7429e-06	43.577	0.0023808	0.0041433	0.0011751	557.17	4.0322e-05	4.8629e-05	463.28	226.09	4.0041e-05	4.8355e-05	212.46	90.718	94.471	50.693	4.3467e-05	47.938	135.843	-31.065	-12.130	-88.264	79.476	18.470	-90.134	-82.998	-14.682	56.980	-85.838	-81.365	-78.521	-73.945	4.818	-77.817	-8191	255	
3059.195	1	1	0	0	0.3552	0.20409	0.25692	0.31138	0.27674	0.2285	0.19499	0.13559	0.094837	0.16939	0.10787	0.23674	0.28755	0.13036	0.11576	0.46864	-2.5042	-2.1521	-2.2292	-2.9938	-2.0375	-2.8167	-2.6312	-2.1146	-2.8042	-2.2292	-2.4938	-3.0854	-2.0708	-2.9167	-2.5	-2.1979	175.242	80.687	-73.907	247.443	201.006	212.573	-72.368	6.846	50.362	-32.972	-52.943	242.245	-22.699	225.698	-74.481	244.020	0.00035656	0.00038867	0.00013266	505.73	2.307e-06	4.9417e-06	420.35	203.25	9.7974e-07	3.4606e-06	190.63	81.132	83.7	44.97	3.7446e-06	42.621	0.0023575	0.004202	0.0012015	548.9	4.0683e-05	4.7886e-05	458.12	221.37	3.9438e-05	4.6264e-05	208.87	89.073	92.231	49.478	4.2388e-05	46.911	121.993	-16.607	-20.606	-88.637	-25.812	47.360	-90.174	-82.763	204.654	17.890	-86.017	-81.379	-78.468	-73.638	27.701	-77.876	-8191	255	
3059.291	1	1	0	0	0.21134	0.098489	0.33716	0.18031	0.25802	0.23436	0.28213	0.097611	0.22196	0.096689	0.31285	0.2668	0.048156	0.13829	0.12978	0.11771	-2.4458	-2.3312	-2.0021	-2.9229	-1.9167	-2.4604	-2.8521	-2	-2.7021	-2.2979	-1.9688	-2.8417	-2.0333	-2.6146	-2.9188	-2.0271	-80.356	30.974	33.586	103.053	36.379	93.701	133.400	128.247	97.865	-48.859	138.972	204.438	184.175	72.977	69.731	137.752	0.00043471	0.00044092	0.0001497	501.03	2.192e-06	5.253e-06	414.76	197.96	2.2776e-06	1.295e-06	185.16	79.076	82.027	43.784	3.7023e-06	41.8	0.0023169	0.0041061	0.0011841	542.78	3.9551e-05	4.8164e-05	451.56	215.76	4.0308e-05	4.8887e-05	204.1	87.018	90.303	48.349	4.5618e-05	45.946	137.960	-31.468	9.613	-88.102	-28.448	32.108	-89.891	-83.023	17.946	41.751	-85.831	-81.394	-78.582	-73.726	-12.749	-77.688	-8191	255	
3059.387	1	1	0	0	0.15058	0.072892	0.25448	0.22136	0.044299	0.096925	0.084095	0.18542	0.17125	0.25003	0.2144	0.30508	0.19418	0.059822	0.23821	0.40157	-2.4208	-2.3875	-1.8854	-2.875	-2.0167	-2.4604	-2.8563	-1.9771	-2.7021	-2.5958	-2.0229	-2.9146	-2.3208	-2.4437	-2.7583	-2.1813	195.205	137.619	62.740	-65.800	-73.077	224.168	150.535	139.373	119.180	28.669	237.913	-82.283	133.656	120.683	239.962	194.480	0.00034817	0.00029241	0.00014225	493.05	5.3589e-06	3.3811e-06	407.59	196.3	3.199e-06	3.7312e-06	183.43	78.097	80.911	43.613	3.2975e-06	41.375	0.0025343	0.0045511	0.0013136	536.5	4.505e-05	5.5044e-05	445.29	213.93	4.6908e-05	5.4363e-05	201.57	86.076	89.7	47.996	5.0421e-05	45.658	125.943	16.923	-44.396	-88.478	22.180	80.245	-90.029	-83.013	20.965	40.349	-85.642	-81.473	-78.640	-73.714	-17.233	-77.563	-8191	255	
3059.483	1	1	0	0	0.050597	0.075908	0.068028	0.29022	0.271	0.13459	0.18058	0.22384	0.082236	0.13431	0.11607	0.089814	0.086561	0.025428	0.25147	0.25116	-2.4146	-2.4021	-1.9208	-2.7583	-2.2292	-2.2521	-3.0458	-2.2375	-2.6375	-2.6208	-2.0104	-2.7604	-2.3542	-2.1667	-2.975	-2.3812	227.669	112.128	-37.636	187.853	202.878	7.898	202.331	74.929	-57.960	-0.492	157.146	-61.314	144.492	66.787	154.193	230.816	0.00041785	0.00024973	0.0001025	493.15	3.0025e-06	2.5235e-06	404.91	194.74	2.6581e-06	1.9279e-06	180.74	77.719	80.364	43.186	2.7484e-06	41.041	0.0027908	0.0050421	0.001437	535.58	4.9702e-05	6.0125e-05	443	212.6	5.1108e-05	6.2057e-05	200.49	85.711	89.166	47.692	6.1037e-05	45.503	120.575	-2.701	58.783	-88.233	74.214	202.490	-89.988	-82.928	21.601	66.955	-85.873	-81.112	-78.501	-73.660	31.955	-77.716	-8191	255	
3059.579	1	1	0	0	0.27217	0.094334	0.19329	0.16667	0.29736	0.095929	0.11204	0.36986	0.30411	0.1803	0.068668	0.11014	0.27619	0.10083	0.043071	0.23944	-1.9458	-2.7042	-2.0083	-2.9167	-2.5104	-2.0563	-3.0021	-2.2687	-2.2396	-2.7667	-1.7583	-2.7229	-2.5333	-2.1542	-2.7917	-2.3479	169.188	230.904	50.481	214.997	258.668	-31.220	-35.710	253.386	-26.892	-19.986	-65.191	-64.842	214.018	97.759	152.991	142.396	0.00044968	0.00056716	7.9709e-05	489.26	3.8866e-06	3.7716e-06	405.41	192.13	3.0606e-06	5.8609e-06	179.62	77.059	79.402	42.78	2.154e-06	40.572	0.0033987	0.0063203	0.0017974	535.7	6.2472e-05	7.6867e-05	445.71	211.53	6.6138e-05	7.9079e-05	200.87	85.559	88.73	47.399	7.3053e-05	45.219	135.713	-23.410	8.701	-88.200	6.504	18.993	-89.702	-82.758	58.375	68.681	-85.554	-81.200	-78.481	-73.797	21.826	-77.788	-8191	255	
3059.698	1	1	0	0	0.10456	0.27002	0.010561	0.14521	0.10945	0.39084	0.16049	0.075481	0.092748	0.19387	0.17738	0.19641	0.21963	0.13875	0.1443	0.048649	-1.9813	-2.7167	-1.9708	-2.7917	-2.5167	-1.9813	-2.9375	-2.1917	-2.275	-2.9083	-1.9354	-2.5208	-2.7562	-2.0771	-3.0292	-2.3833	-16.935	232.175	209.984	222.351	247.345	95.863	-37.905	175.956	219.330	257.606	229.186	95.723	127.216	250.461	-10.493	-78.842	0.00031771	0.00038346	9.3245e-05	487.71	3.6887e-06	4.23e-06	400.99	189.56	4.747e-06	1.6752e-06	176.37	75.457	78.182	42.21	4.7485e-06	40.192	0.0039079	0.0072294	0.0020287	535.95	6.9603e-05	8.4426e-05	442.63	209.33	7.1034e-05	8.5923e-05	197.96	84.15	87.752	46.888	7.8097e-05	44.749	141.547	-20.358	-14.380	-88.188	52.219	152.902	-89.901	-83.033	5.477	76.628	-85.734	-81.096	-78.214	-73.556	-10.131	-77.659	-8191	255	
3059.794	1	1	0	0	0.16184	0.22362	0.24213	0.18999	0.23171	0.081193	0.022221	0.0567	0.15997	0.11735	0.28153	0.46109	0.26464	0.11183	0.25712	0.39961	-1.7437	-2.7917	-1.8188	-2.5979	-2.8583	-1.9104	-2.8146	-2.2917	-1.9521	-2.8187	-2.0729	-2.7188	-2.75	-2.0167	-2.7083	-2.3042	162.216	-78.935	169.899	-38.068	124.592	-52.982	72.785	162.154	204.619	-86.802	254.842	-86.504	106.438	248.679	252.543	139.554	0.00044773	0.00048866	7.7787e-05	487.55	1.1528e-06	5.3714e-06	398.14	189.67	2.9789e-06	3.8959e-06	176.53	75.089	78.041	42.405	1.8227e-06	40.213	0.0042672	0.0079997	0.0022774	537.4	7.8981e-05	9.4044e-05	441.58	210.21	7.9919e-05	9.516e-05	199.16	84.196	88.385	47.1	8.607e-05	44.937	127.536	-40.177	-1.181	-88.213	45.383	92.377	-89.922	-82.945	3.538	17.030	-85.764	-81.468	-78.534	-73.609	11.923	-77.818	-8191	255	
3059.890	1	1	0	0	0.26281	0.16425	0.22071	0.3253	0.25942	0.15747	0.029048	0.067353	0.17232	0.072056	0.031687	0.07407	0.10942	0.079648	0.14623	0.019999	-1.6	-2.7979	-2.2062	-2.3896	-2.575	-1.9062	-2.775	-2.5396	-1.9229	-2.9417	-2.3021	-2.4104	-2.7	-2.2229	-2.6625	-2.6708	-52.391	158.349	100.367	228.656	-92.330	-36.478	212.365	117.865	-78.201	143.061	190.430	-60.411	209.046	147.566	-67.600	239.506	0.00035368	0.0003314	0.00010524	489.21	3.9973e-06	5.2471e-06	398.25	189.83	3.519e-06	3.4822e-06	176.22	75.109	78.727	42.356	1.5169e-06	40.104	0.0046057	0.0084108	0.0024118	539.33	8.2676e-05	0.00010049	443.76	210.7	8.2844e-05	9.7929e-05	199.49	84.553	88.601	47.228	8.7002e-05	44.941	132.015	14.250	54.711	-88.341	89.840	41.259	-90.057	-82.816	28.543	4.672	-85.974	-81.174	-78.257	-73.531	-14.392	-77.780	-8191	255	
3059.962	1	1	0	0	0.23609	0.077753	0.037593	0.23411	0.13485	0.13619	0.30197	0.36206	0.18851	0.16433	0.37012	0.23255	0.20308	0.053937	0.081757	0.13769	-1.5625	-2.7208	-2.0854	-2.1875	-2.8875	-2.1562	-2.6562	-2.5938	-1.9375	-2.8625	-2.4	-2.3854	-2.9688	-2.0687	-2.6063	-2.5062	163.906	-29.872	6.836	179.005	215.758	75.997	41.632	222.940	65.374	81.583	192.110	229.101	-82.054	50.005	160.703	-19.153	0.00035735	0.00057584	9.3361e-05	487.02	6.242e-06	7.7676e-06	397.97	189.78	4.1653e-06	3.6377e-06	176.18	74.979	78.651	42.201	2.605e-06	40.084	0.0046618	0.0086434	0.0024573	538.04	8.3443e-05	0.00010121	442.88	210.35	8.4591e-05	0.00010018	198.96	84.369	88.557	47.101	9.0511e-05	44.872	129.734	-79.315	-17.885	-88.271	36.066	48.555	-90.055	-82.728	7.060	55.075	-85.598	-81.022	-78.253	-73.507	85.926	-77.499	-8191	255	
3060.083	1	1	0	0	0.023171	0.16259	0.19206	0.2583	0.18681	0.013696	0.22967	0.2653	0.032178	0.058038	0.14342	0.098329	0.056954	0.26845	0.085831	0.097103	-1.3937	-2.8604	-2.2833	-2.2271	-2.8729	-1.9854	-2.4313	-2.8646	-2.1188	-2.9062	-2.5458	-2.1188	-2.8917	-2.1229	-2.5417	-2.7792	68.300	50.089	-91.868	217.159	-34.182	-46.922	-77.659	219.963	84.424	245.321	55.281	-85.283	4.715	248.204	-70.607	93.274	0.00051255	0.0003908	5.8236e-05	483.65	1.2357e-06	7.8998e-06	390.61	188.64	2.1577e-06	1.9734e-06	175.3	74.567	78.652	42.405	1.7953e-06	40.119	0.0047562	0.0087533	0.002469	536.27	8.2417e-05	9.9451e-05	438.15	209.96	8.2875e-05	9.8685e-05	198.15	83.925	88.703	47.254	9.3056e-05	44.892	144.031	-40.664	62.511	-88.194	154.409	4.754	-90.101	-82.850	39.410	141.794	-85.514	-80.794	-78.041	-73.681	-50.805	-77.745	-8191	255	
3060.179	1	1	0	0	0.26585	0.1357	0.14421	0.32619	0.10757	0.24568	0.28759	0.056357	0.15347	0.073901	0.24587	0.13962	0.061841	0.28256	0.1029	0.33107	-1.5917	-2.7542	-2.6813	-2.2479	-3.0354	-2.3146	-2.3271	-3.0042	-2.0833	-2.8146	-2.5646	-2.1104	-3.0583	-2.4062	-2.3417	-2.95	234.228	179.407	27.342	187.018	35.695	-94.080	-65.782	47.238	1.463	66.167	-45.473	-99.319	171.982	224.216	94.614	47.228	0.00045461	0.00033466	0.00012378	484.05	4.2865e-06	3.7085e-06	392.88	189.62	8.3583e-06	2.6775e-06	175.58	75.387	78.983	42.614	4.828e-06	40.117	0.0048753	0.009208	0.0026364	536.71	8.8895e-05	0.00010779	440.31	210.48	8.9743e-05	0.0001079	198.79	84.461	89.024	47.423	9.5386e-05	44.965	135.032	60.893	3.066	-88.383	41.409	44.554	-89.961	-82.768	-40.067	49.403	-85.496	-81.208	-78.152	-73.629	33.695	-77.535	-8191	255	
3060.275	1	1	0	0	0.17614	0.10515	0.3572	0.064474	0.10663	0.012728	0.14333	0.020743	0.074555	0.2044	0.16179	0.035843	0.091422	0.011737	0.14813	0.15095	-1.4292	-2.6063	-2.6521	-1.9354	-2.6833	-2.2188	-2.25	-2.9458	-2.2292	-2.6083	-2.7271	-2.075	-2.9208	-2.4167	-2.1688	-2.9167	27.521	50.360	96.790	192.228	83.294	71.503	220.771	145.421	-47.955	12.405	41.210	-96.233	249.397	-86.914	95.050	240.282	0.00049652	0.00058451	0.00010819	482.43	6.377e-06	1.8355e-06	393.66	188.85	5.3809e-06	7.5176e-06	175.32	75.025	78.099	42.518	2.9424e-06	40.2	0.0049773	0.0093292	0.0026426	535.52	8.7376e-05	0.00010624	439.72	209.43	8.57e-05	0.00010053	198	84.134	88.313	47.144	8.7538e-05	44.902	126.719	-58.758	-27.529	-88.362	3.847	147.785	-89.660	-82.582	14.360	221.415	-85.636	-81.144	-78.293	-73.653	-87.847	-77.743	-8191	255	
3060.371	1	1	0	0	0.29918	0.10811	0.31557	0.16033	0.27349	0.066641	0.35658	0.27892	0.081539	0.0094006	0.10771	0.30363	0.12966	0.16943	0.052918	0.14547	-1.7188	-2.35	-2.7875	-2.1562	-2.7646	-2.4521	-2.0542	-2.9125	-2.0438	-2.4854	-2.975	-1.9375	-2.6896	-2.55	-2.1125	-2.9313	48.535	-55.395	87.066	177.385	122.012	81.517	213.047	180.281	10.167	14.135	4.584	-61.348	-59.359	-78.038	19.366	237.394	0.00046918	0.00050636	4.3027e-05	481.27	4.1775e-07	2.0829e-06	393.79	187.8	4.0715e-06	5.6977e-06	173.19	74.074	77.557	41.746	4.1342e-06	39.53	0.0044496	0.0081595	0.0023039	530.48	7.56e-05	9.1396e-05	436.57	207.2	7.3045e-05	8.704e-05	195	82.721	86.722	46.226	7.3943e-05	44.044	132.203	-6.498	-41.897	-88.387	155.434	55.799	-90.042	-82.803	8.500	25.243	-85.250	-81.304	-78.381	-73.742	11.868	-77.782	-8191	255	
3060.467	1	1	0	0	0.10049	0.016955	0.098988	0.14672	0.070679	0.11592	0.16317	0.22167	0.25426	0.056835	0.32485	0.34509	0.2611	0.11352	0.10299	0.097746	-1.8833	-2.2687	-2.8521	-1.8667	-2.6979	-2.7958	-2.1917	-3.0729	-2.1729	-2.2854	-2.925	-2.0708	-2.5729	-2.7229	-2	-2.8625	108.148	204.811	30.297	64.745	46.450	29.122	100.863	73.775	-86.838	232.144	212.705	161.648	-19.668	-93.213	113.235	-45.428	0.00032241	0.00019544	9.7763e-05	476.95	3.812e-06	2.6148e-06	386.28	182.99	3.5607e-06	2.655e-06	169.32	72.824	76.133	40.729	3.3861e-06	38.867	0.0038161	0.0070589	0.0019563	521.74	6.5936e-05	7.9039e-05	427.66	201.66	6.4188e-05	7.5913e-05	190.09	80.921	84.589	45.148	6.6549e-05	43.153	118.592	-40.280	-3.808	-88.416	-7.353	120.304	-89.706	-82.856	-5.180	75.480	-85.745	-81.404	-78.260	-73.735	-70.137	-77.772	-8191	255	
3060.586	1	1	0	0	0.14813	0.22539	0.097684	0.095918	0.16953	0.17685	0.050574	0.11359	0.1724	0.092	0.038175	0.20619	0.25256	0.2837	0.10464	0.047771	-1.75	-2.0563	-2.8187	-2.0417	-2.6208	-2.85	-2.2229	-2.9979	-2.3583	-2.0625	-3.0542	-2.1396	-2.4625	-2.8438	-1.9667	-2.7604	148.603	37.345	80.797	235.232	248.518	-31.443	133.664	228.453	89.229	205.881	89.253	-68.029	2.476	126.542	102.553	229.144	0.00035135	0.00031087	0.00010121	467.86	3.8608e-06	2.7543e-06	385.5	179.7	6.132e-06	1.5846e-06	169.03	72.073	73.976	39.953	1.0093e-06	38.68	0.0034738	0.0063692	0.0017653	512.68	5.8908e-05	7.0606e-05	422.91	197.34	5.6747e-05	6.6565e-05	187.38	79.771	82.493	44.054	5.6695e-05	42.679	139.036	-19.455	-5.808	-88.576	42.698	37.572	-90.092	-82.812	0.277	15.829	-85.595	-81.464	-78.295	-73.945	28.624	-77.721	-8191	255	
3060.660	1	1	0	0	0.067019	0.1701	0.28201	0.097718	0.21938	0.22562	0.30079	0.05587	0.17314	0.27682	0.045565	0.19415	0.27203	0.020292	0.27514	0.10898	-2.0667	-2.0312	-2.7854	-2.1667	-2.125	-2.9354	-2.0208	-2.7479	-2.6125	-2.025	-2.8688	-2.0938	-2.3625	-2.9854	-2.0333	-2.8604	-17.155	205.255	151.484	104.183	211.782	88.182	222.945	183.140	-55.082	-12.511	-7.204	23.934	193.898	-50.327	-61.047	81.808	0.0003279	0.0002435	2.7848e-05	465.72	2.6519e-06	5.083e-06	385.85	177.08	2.8512e-06	4.2514e-06	168.18	72.078	73.589	39.561	3.9472e-06	38.719	0.0029207	0.0053383	0.0014592	507.98	4.9068e-05	5.8076e-05	421.54	194.23	4.704e-05	5.5794e-05	186.16	79.741	81.324	43.628	4.8208e-05	42.655	131.108	-53.182	-22.578	-88.544	41.959	4.744	-89.837	-82.956	84.136	48.399	-85.715	-81.032	-78.333	-73.786	50.788	-77.680	-8191	255	
3060.778	1	1	0	0	0.28456	0.12898	0.13133	0.084033	0.09163	0.19073	0.32707	0.15093	0.069388	0.025633	0.15691	0.17834	0.16736	0.026912	0.12737	0.060103	-2.0542	-2.0271	-2.7833	-2.2896	-1.925	-2.7646	-1.9146	-2.6896	-2.4792	-2.0563	-2.9458	-2.2792	-2.2396	-2.9375	-2.0708	-2.2229	173.056	205.787	82.527	130.067	112.866	-96.123	77.446	214.216	228.213	102.811	185.025	45.753	-84.702	28.612	-5.983	241.673	0.0004575	0.00015753	0.0001514	469.06	2.3874e-06	7.7251e-07	389.89	181.56	1.4047e-06	2.8554e-06	173.26	73.974	76.103	41.187	2.9467e-06	40.063	0.0025885	0.0046889	0.0012931	509.44	4.4565e-05	5.2432e-05	426.4	198.21	4.3597e-05	5.1174e-05	190.37	81.608	84.355	45.394	4.1564e-05	44.04	128.033	-1.396	-40.076	-88.566	87.030	202.074	-89.981	-83.002	37.930	72.815	-85.371	-81.347	-78.308	-73.694	17.288	-77.548	-8191	255	
3060.875	1	1	0	0	0.21846	0.08985	0.16269	0.16071	0.070084	0.16237	0.16024	0.18032	0.16101	0.069792	0.24893	0.033931	0.38192	0.21215	0.18299	0.21045	-2.3125	-2.0375	-2.6708	-2.5396	-2.25	-2.7792	-2.0375	-2.3521	-2.6458	-1.8042	-2.8625	-2.6896	-2.1562	-2.8208	-1.9125	-2.4229	2.492	-52.427	-12.899	15.174	10.726	-41.592	204.946	243.478	220.488	226.991	205.798	118.227	242.072	181.045	185.892	195.208	0.00043844	0.00039538	9.7697e-05	485.1	6.1515e-06	5.2185e-06	403.25	191.97	1.7299e-06	3.0965e-06	182.5	78.474	81.676	44.297	4.8618e-06	42.478	0.0022472	0.003936	0.0011107	524.95	3.7522e-05	4.4653e-05	439.09	209.29	3.8679e-05	4.6146e-05	199.99	85.832	89.861	48.641	4.142e-05	46.593	132.876	-45.199	29.248	-88.347	37.286	62.318	-90.014	-82.637	-60.719	35.674	-85.651	-81.294	-78.288	-73.814	12.691	-77.321	-8191	255	
3060.971	1	1	0	0	0.29137	0.17934	0.20058	0.049413	0.18478	0.11917	0.11206	0.21493	0.082044	0.27202	0.079359	0.10997	0.2587	0.32025	0.19213	0.20978	-2.3333	-1.9333	-2.6063	-2.5479	-2.0125	-2.625	-2.2833	-2.1667	-2.8333	-2.1625	-2.7	-2.5896	-2.0729	-2.8688	-2.2458	-2.2604	124.608	47.083	-80.268	1.080	3.596	121.204	-56.037	239.923	184.232	-64.223	198.733	-86.342	199.755	-85.999	200.715	199.963	0.00038735	0.0003402	0.00016782	501.69	1.9654e-06	4.0558e-06	416.89	199.17	4.3512e-06	5.2249e-06	187.78	80.611	82.902	45.042	2.1122e-06	43.167	0.0022921	0.0040582	0.001094	544.36	3.6777e-05	4.4374e-05	453.06	216.57	3.5645e-05	4.1197e-05	205.16	88.035	91.394	49.495	3.673e-05	47.456	135.218	-36.146	-23.024	-88.218	53.443	54.448	-89.902	-82.815	-16.364	48.227	-85.495	-81.047	-78.368	-73.539	13.193	-77.598	-8191	255	
3061.067	1	1	0	0	0.1172	0.424	0.10116	0.2247	0.21388	0.086839	0.14459	0.14662	0.099255	0.19412	0.2009	0.2667	0.16352	0.10812	0.14246	0.11281	-2.6521	-2.0354	-2.4229	-2.7521	-2.2021	-2.675	-2.2854	-2.2042	-2.9521	-2.1312	-2.6646	-2.8271	-2.0708	-3.0312	-2.4333	-2.2104	182.825	199.641	161.176	231.427	96.881	147.365	233.498	-89.963	181.311	66.522	76.513	-17.036	-56.446	-63.499	80.232	124.276	0.00043214	0.00034233	0.00011413	507.38	3.1905e-06	1.4554e-06	427.07	199.93	4.0754e-06	2.7601e-06	189.9	81.298	83.198	45.23	3.6576e-06	43.533	0.0020021	0.0034783	0.00098701	548.3	3.3405e-05	3.8142e-05	461.26	217.17	3.2256e-05	3.7621e-05	206.85	88.879	91.405	49.501	3.4211e-05	47.784	128.853	1.559	8.315	-88.342	27.334	-46.060	-89.902	-82.710	-13.546	64.078	-85.675	-81.345	-78.405	-73.966	0.427	-77.645	-8191	255	
3061.187	1	1	0	0	0.08233	0.20111	0.13048	0.099373	0.20413	0.10388	0.2014	0.14183	0.063063	0.29373	0.14142	0.12352	0.34563	0.36259	0.12021	0.23147	-2.5187	-2.0125	-2.3708	-2.7583	-1.8146	-2.8083	-2.4938	-2.2354	-2.8604	-2.1979	-2.3792	-2.8396	-1.9854	-2.8063	-2.75	-2.0833	180.701	-0.968	183.275	185.171	103.980	124.797	240.132	244.597	245.005	104.319	220.609	44.487	-81.976	-76.241	-39.822	217.287	0.00044318	0.00038233	9.7886e-05	506.19	4.7841e-06	4.9019e-06	424.06	196.22	3.9656e-06	5.0524e-06	184.9	80.055	81.214	44.134	3.4126e-06	42.668	0.0018907	0.0032727	0.00092537	546.66	3.1182e-05	3.7206e-05	459.07	213.26	3.094e-05	3.6956e-05	203.1	87.248	89.267	48.382	3.3189e-05	46.896	133.551	-38.464	-2.292	-88.195	68.927	40.288	-89.832	-82.909	26.004	29.107	-85.738	-81.500	-78.325	-73.636	33.169	-77.657	-8191	255	
3061.259	1	1	0	0	0.12559	0.37011	0.15211	0.070316	0.18146	0.32907	0.16066	0.3621	0.1271	0.10555	0.20949	0.21428	0.025768	0.011454	0.34326	0.2193	-2.5812	-2.1417	-2.2521	-2.9292	-2.2	-2.825	-2.7	-2.1396	-3.0146	-2.3854	-2.2458	-2.9521	-2.0167	-2.8083	-2.6396	-1.8958	210.604	-3.064	-28.835	182.452	30.467	-72.189	-69.377	231.974	102.967	158.260	184.294	-41.564	227.093	201.196	-16.933	130.034	0.00036923	0.00062313	7.9904e-05	499.75	3.057e-06	3.4613e-06	423.48	194.03	3.6906e-06	3.2059e-06	186.32	80.143	81.913	44.489	2.8139e-06	43.218	0.0018768	0.0032698	0.00092038	540.68	3.0965e-05	3.7526e-05	456.96	211.08	3.0411e-05	3.6458e-05	203.39	87.347	89.592	48.669	3.2557e-05	47.249	135.888	-31.373	-64.633	-88.382	54.437	46.513	-90.074	-82.802	1.825	50.251	-85.641	-81.333	-78.636	-73.678	-3.638	-77.714	-8191	255	
3061.380	1	1	0	0	0.18265	0.25191	0.084301	0.069388	0.22191	0.27813	0.010278	0.072287	0.11304	0.28123	0.13617	0.27779	0.14451	0.1176	0.19939	0.1118	-2.3604	-2.3458	-2.0229	-2.975	-2.1	-2.3792	-2.7583	-2.0062	-2.95	-2.4479	-2.2479	-3.0167	-2.0229	-2.6979	-2.6896	-2.1708	51.253	-47.665	-22.410	142.765	-39.860	202.916	34.131	118.154	184.401	154.647	-65.172	226.237	231.915	243.876	85.467	244.459	0.00038443	0.00041113	0.00014777	503.79	1.0893e-06	6.068e-06	422.63	198.43	3.646e-06	2.4235e-06	188.82	80.844	82.848	45.141	8.7729e-07	43.707	0.0018075	0.0030367	0.00086491	544.02	2.8805e-05	3.497e-05	459.13	214.84	2.939e-05	3.5513e-05	206.08	88.511	91.1	49.548	3.2697e-05	47.879	124.321	-23.878	-16.785	-88.381	-13.894	45.419	-89.846	-82.745	-6.596	54.081	-85.685	-81.241	-78.332	-73.586	62.316	-77.953	-8191	255	
3061.476	1	1	0	0	0.29314	0.065277	0.31486	0.13102	0.074139	0.10272	0.30426	0.26204	0.18863	0.20081	0.19191	0.20428	0.17077	0.28437	0.1764	0.091107	-2.4333	-2.5354	-2.0938	-3.1479	-2.2562	-2.4792	-3.0354	-2.0875	-2.8354	-2.6063	-2.0542	-2.9354	-2.175	-2.3667	-2.9021	-2.0896	163.104	75.730	147.685	182.601	166.078	224.220	152.611	227.938	180.111	92.337	-29.218	247.154	180.408	198.125	69.741	-31.301	0.00048155	0.00021438	0.00013929	510.17	4.0393e-06	2.3655e-06	426.52	200.2	1.464e-06	4.2221e-06	189.59	81.26	82.757	44.98	4.1106e-06	43.628	0.0018363	0.0031993	0.00091654	549.71	3.1469e-05	3.771e-05	462.39	217.22	3.2467e-05	3.8955e-05	206.97	88.863	91.099	49.352	3.6102e-05	47.632	129.497	8.499	19.968	-88.280	23.214	106.412	-89.891	-82.780	-18.975	69.984	-85.453	-80.796	-78.357	-73.639	19.499	-77.901	-8191	255	
3061.570	1	1	0	0	0.26656	0.11377	0.071565	0.072092	0.1625	0.1129	0.17751	0.15207	0.26031	0.02724	0.19849	0.19681	0.084992	0.15799	0.25926	0.19986	-2.4813	-2.4938	-1.95	-2.9062	-2.3854	-2.4458	-2.8271	-1.9979	-2.6708	-2.5521	-1.9958	-2.8396	-2.3604	-2.3375	-2.9688	-1.8646	225.305	208.293	52.522	148.915	209.611	185.374	171.681	-97.308	256.692	241.049	-8.825	220.355	158.688	233.382	75.385	106.733	0.00041266	0.0003024	7.8958e-05	504.18	2.0657e-06	5.756e-06	421.74	197.07	2.7211e-06	2.6105e-06	186.46	79.643	81.155	44.114	3.4395e-06	42.76	0.0020346	0.003516	0.00099405	545.67	3.359e-05	4.1704e-05	458.04	214.2	3.4704e-05	4.0556e-05	203.67	87.269	89.488	48.426	3.7117e-05	46.752	118.854	4.466	-12.198	-88.418	40.656	39.555	-90.073	-82.752	-18.294	59.158	-85.495	-81.334	-78.539	-73.654	52.001	-77.594	-8191	255	
3061.666	1	1	0	0	0.12215	0.16712	0.24366	0.073999	0.13914	0.13975	0.22244	0.15401	0.02355	0.1665	0.21415	0.085062	0.039528	0.21444	0.15169	0.17821	-2.1583	-2.5812	-1.8729	-2.7833	-2.4146	-2.0854	-2.9125	-2.1333	-2.4625	-2.8979	-2.0167	-2.7542	-2.5104	-2.0125	-2.8104	-2.3292	28.573	-79.210	-90.565	175.411	201.300	-63.261	-13.987	198.604	157.983	110.075	240.641	-19.891	178.634	-44.204	83.037	213.941	0.00038808	0.00045179	5.7055e-05	495.28	1.6077e-06	5.6465e-06	416.25	191.49	2.4274e-06	3.072e-06	182.09	78.022	79.22	42.677	2.3788e-06	41.879	0.0021186	0.0037011	0.0010441	535.93	3.445e-05	4.1984e-05	451.28	208.33	3.4106e-05	3.9266e-05	198.99	85.264	86.777	46.796	3.5296e-05	45.792	130.744	-26.252	8.603	-88.603	-4.869	75.670	-90.093	-82.807	-47.571	22.189	-85.816	-81.332	-78.538	-74.126	16.010	-77.899	-8191	255	
3061.787	1	1	0	0	0.28568	0.038045	0.20922	0.18289	0.093777	0.12027	0.16389	0.12091	0.27918	0.14616	0.18603	0.14208	0.32145	0.11491	0.12599	0.17249	-1.9562	-2.6792	-1.925	-2.9042	-2.4146	-1.95	-3.0854	-2.2646	-2.3396	-2.9042	-2.1562	-2.8542	-2.6542	-2.2792	-2.7687	-2.2958	-50.918	136.275	9.001	129.635	-100.127	-32.658	70.420	256.041	-28.878	128.967	19.259	63.399	-5.859	-30.675	-60.043	-86.362	0.00040736	0.00041596	0.00010734	489.63	2.1919e-06	3.7248e-06	413.43	187.53	2.8648e-06	3.87e-06	180.12	77.099	77.635	42.099	3.0009e-06	41.48	0.002017	0.0034539	0.00098215	528.12	3.3776e-05	4.0199e-05	447.04	203.72	3.3694e-05	3.8192e-05	197.17	84.43	85.397	46.153	3.3323e-05	45.466	137.462	-17.414	-21.532	-88.496	33.411	18.866	-90.124	-83.077	17.998	41.161	-85.772	-81.479	-78.803	-73.795	25.258	-77.971	-8191	255	
3061.883	1	1	0	0	0.12372	0.13739	0.037996	0.26152	0.11432	0.26063	0.17726	0.11851	0.041943	0.23592	0.14683	0.096665	0.1292	0.32368	0.086783	0.070066	-1.8854	-2.9104	-2.0375	-2.6125	-2.6688	-2.1646	-2.7542	-2.2125	-2.0563	-2.8521	-2.1208	-2.6063	-2.7438	-2.2438	-2.8958	-2.4125	64.431	242.891	-7.416	3.836	-32.737	-74.414	149.011	241.032	114.853	257.071	-96.507	142.859	-19.128	-82.557	73.619	166.773	0.00035806	0.00031978	6.3446e-05	491.35	2.8509e-06	3.8532e-06	411.88	189.67	4.2577e-06	3.1227e-06	182.36	77.859	79.117	42.952	3.8319e-06	41.997	0.0018756	0.0030879	0.00088067	528.79	2.9515e-05	3.5829e-05	447.61	205.81	2.9911e-05	3.4193e-05	199.07	85.353	86.71	47.012	3.1397e-05	46.061	127.577	-4.187	-45.803	-88.272	49.389	23.572	-90.082	-82.873	8.064	56.450	-85.761	-81.360	-78.540	-74.043	10.334	-77.876	-8191	255	
3061.955	1	1	0	0	0.10822	0.18136	0.20336	0.28695	0.24949	0.16064	0.22522	0.42672	0.17155	0.35695	0.10817	0.20511	0.1271	0.1845	0.11975	0.18337	-1.7604	-2.7479	-2.1854	-2.4125	-2.8021	-2.2188	-2.7958	-2.6937	-2.2729	-2.8937	-2.2979	-2.55	-2.95	-2.2687	-2.775	-2.4708	170.811	-3.293	57.552	-66.752	88.969	-33.466	145.568	145.852	-61.755	82.129	201.209	73.078	196.535	-14.741	243.799	-42.648	0.00038157	0.00037916	8.0546e-05	494.9	3.8709e-06	3.0681e-06	416.73	194.04	2.4836e-06	2.3947e-06	185.91	79.457	80.92	43.817	3.7268e-06	42.923	0.0018002	0.0029877	0.00084091	534.19	2.8681e-05	3.4793e-05	451.34	210.41	2.8751e-05	3.3445e-05	202.15	86.722	88.93	48.097	3.0034e-05	46.859	124.568	-22.942	-14.790	-88.383	57.082	25.739	-89.857	-82.881	55.906	24.394	-85.575	-81.125	-78.623	-73.907	29.364	-78.066	-8191	255	
3062.051	1	1	0	0	0.088264	0.27696	0.22138	0.11471	0.14921	0.14424	0.13638	0.029561	0.11269	0.11255	0.22108	0.26967	0.20443	0.045222	0.096596	0.20539	-1.8417	-2.8438	-2.2583	-2.4021	-2.7625	-2.1271	-2.6375	-2.6229	-2.1229	-2.9146	-2.3771	-2.2479	-2.9188	-2.1979	-2.6813	-2.6792	-47.133	204.177	38.673	219.240	82.765	187.951	184.856	-95.388	-98.768	-98.995	210.236	39.971	210.446	198.322	177.180	222.946	0.00041833	0.00032031	0.00010918	497.6	1.1134e-06	2.6407e-06	422.08	194.62	2.036e-06	3.1929e-06	186.72	79.844	80.696	43.65	1.6063e-06	42.642	0.0017475	0.0028939	0.00082488	536.86	2.731e-05	3.2608e-05	454.99	211.32	2.7103e-05	3.0682e-05	203.17	86.95	88.369	47.823	2.7944e-05	46.653	132.619	-43.799	-15.127	-88.311	256.493	36.493	-90.129	-83.073	4.762	43.725	-85.865	-81.037	-78.303	-73.664	1.391	-77.770	-8191	255	
3062.147	1	1	0	0	0.21291	0.31806	0.2591	0.26913	0.22269	0.17781	0.37034	0.23489	0.20703	0.089187	0.26569	0.087666	0.24522	0.16483	0.36616	0.29514	-1.7563	-2.6833	-2.2542	-2.3021	-3.1229	-2.15	-2.5979	-2.7812	-1.9833	-2.7042	-2.2854	-2.1188	-2.8979	-2.0438	-2.4917	-2.7833	-29.782	212.949	62.746	-82.479	33.017	16.793	233.407	162.823	257.453	153.089	93.469	98.928	-38.979	217.659	-11.626	248.887	0.00035873	0.00036666	0.00011584	496.47	2.4108e-06	3.9529e-06	420.85	192.96	2.7314e-06	1.8416e-06	185.68	78.992	80.093	43.02	3.9088e-06	42.385	0.0016119	0.0026773	0.00076167	534.98	2.5172e-05	3.0393e-05	453.77	209.06	2.5118e-05	2.8927e-05	202.22	86.283	87.498	47.117	2.7939e-05	46.266	138.559	-26.420	-22.669	-88.263	6.843	44.977	-89.751	-82.917	-7.848	14.775	-85.993	-81.382	-78.763	-74.111	37.204	-77.716	-8191	255	
3062.268	1	1	0	0	0.11397	0.062073	0.26495	0.28957	0.16366	0.19146	0.10602	0.10443	0.29974	0.15077	0.088308	0.25048	0.3664	0.12062	0.18971	0.051038	-1.4167	-2.6875	-2.5208	-2.0312	-2.95	-2.1562	-2.2646	-2.7958	-1.8312	-2.6875	-2.8063	-1.9771	-2.9854	-2.3896	-2.1792	-2.7896	52.902	-27.755	-21.604	157.286	149.017	107.512	-19.297	-97.580	187.483	-19.468	73.468	189.552	-96.480	-100.671	-92.473	225.731	0.00040977	0.00031333	7.9321e-05	491.81	2.9222e-06	2.3766e-06	414.56	191.12	2.2337e-06	3.9004e-06	183.75	78.709	79.573	42.979	2.0717e-06	42.111	0.0015948	0.0026576	0.00073813	531.52	2.4906e-05	2.9777e-05	450.76	207.04	2.4588e-05	2.8662e-05	200.07	85.674	86.802	46.862	2.5656e-05	45.902	126.533	-36.245	30.883	-88.297	32.070	15.297	-90.037	-82.872	-2.612	59.872	-85.911	-81.228	-78.656	-73.929	3.511	-77.880	-8191	255	
3062.364	1	1	0	0	0.29297	0.12051	0.035877	0.11985	0.071995	0.32786	0.039896	0.15723	0.087103	0.13908	0.2098	0.13895	0.26466	0.13317	0.17407	0.23755	-1.5458	-2.65	-2.6813	-2.0833	-2.9042	-2.4542	-2.2917	-2.8563	-2.1063	-2.6479	-2.8	-2.025	-2.8729	-2.4396	-2.2396	-2.8333	-48.377	210.961	94.132	-48.514	73.249	230.608	150.265	223.288	176.350	204.609	233.528	-11.792	-64.481	-82.610	223.716	190.000	0.00041579	0.00052554	7.8596e-05	495.97	6.1644e-07	1.3835e-06	416.19	192.68	4.0534e-06	2.2258e-06	185.83	79.167	80.347	43.533	4.7938e-06	42.599	0.0014724	0.0023308	0.00065683	532.14	2.1884e-05	2.6275e-05	448.61	208.88	2.1737e-05	2.5567e-05	200.93	86.253	87.837	47.578	2.3147e-05	46.629	131.561	6.570	41.559	-88.582	-53.207	7.207	-90.100	-83.112	8.460	38.628	-85.868	-81.385	-78.469	-73.992	9.823	-77.754	-8191	255	
3062.460	1	1	0	0	0.037608	0.045763	0.15249	0.27727	0.22847	0.30691	0.19935	0.28179	0.078927	0.046448	0.31936	0.37018	0.24817	0.21107	0.12695	0.3173	-1.6667	-2.5417	-2.525	-2.0229	-2.8875	-2.4688	-2.2167	-2.8812	-2.1417	-2.4646	-2.7667	-1.9604	-2.7208	-2.5479	-1.9792	-3.0729	-45.245	10.783	92.992	239.283	117.199	59.952	143.283	-93.098	230.287	117.131	211.551	249.567	-90.620	10.983	-86.382	222.584	0.00042857	0.00042457	3.2151e-05	500.64	2.9277e-06	4.1666e-06	421.96	198.58	2.1331e-06	4.4919e-06	190.7	81.993	83.581	45.19	3.8503e-06	43.94	0.0013737	0.0022175	0.00062248	537.66	2.1214e-05	2.5965e-05	455.49	215.21	2.2044e-05	2.5952e-05	206.89	88.95	91.163	49.417	2.4685e-05	47.93	136.122	-15.339	44.406	-88.263	21.182	74.737	-89.857	-82.995	-12.078	59.602	-85.797	-81.455	-78.641	-73.843	9.868	-77.843	-8191	255	
3062.556	1	1	0	0	0.10045	0.058891	0.23717	0.26473	0.21767	0.086318	0.073257	0.16173	0.14941	0.19341	0.12241	0.21687	0.2123	0.031898	0.15962	0.038696	-1.9167	-2.1958	-2.7812	-2.0354	-2.7042	-2.6167	-2.0438	-3.0396	-2.2708	-2.35	-3.0583	-2.15	-2.8104	-2.8271	-1.9396	-2.9646	154.620	-66.693	241.997	172.187	192.665	215.769	-81.056	135.226	150.429	94.704	186.971	179.006	69.626	148.397	-66.017	-19.144	0.0004024	0.00027274	0.00010075	503.34	4.399e-06	3.8079e-06	426.97	201.22	1.6756e-06	3.1538e-06	193.36	82.049	83.672	45.341	4.4783e-06	44.297	0.0014262	0.0023797	0.00065738	542.84	2.2326e-05	2.6544e-05	460.81	217.22	2.2315e-05	2.6867e-05	208.95	89.459	91.489	49.55	2.5063e-05	48.344	124.683	12.000	-5.199	-88.558	16.043	68.253	-89.955	-82.952	9.780	28.058	-85.481	-81.335	-78.524	-73.966	24.694	-77.910	-8191	255	
3062.652	1	1	0	0	0.10115	0.27	0.078678	0.10049	0.031307	0.076137	0.24313	0.18691	0.20621	0.15235	0.069202	0.26053	0.28258	0.10476	0.28659	0.080065	-1.8188	-2.2604	-2.7271	-2.1188	-2.6125	-2.6896	-2.0458	-2.9271	-2.55	-2.2896	-3.1417	-2.0771	-2.6167	-2.8458	-2.0729	-2.9562	79.238	204.069	115.638	188.963	-95.683	235.288	202.885	-86.906	92.811	197.091	76.141	-17.497	224.044	213.401	179.501	94.609	0.00042753	0.00039743	0.00012848	505.77	2.467e-06	3.8774e-06	426.94	200.38	2.9656e-06	2.7802e-06	190.02	80.979	82.656	44.534	3.6679e-06	43.398	0.0014797	0.0024546	0.00067721	543.3	2.3439e-05	2.8318e-05	459.58	216.56	2.3269e-05	2.7956e-05	206.87	88.643	90.407	48.814	2.5387e-05	47.432	129.984	-16.797	-31.022	-88.388	-3.903	71.865	-90.026	-83.035	11.465	49.757	-85.641	-81.328	-78.628	-74.207	26.144	-77.953	-8191	255	
3062.749	1	1	0	0	0.21937	0.18693	0.18396	0.15552	0.1783	0.24316	0.152	0.135	0.27832	0.21581	0.034619	0.081102	0.10634	0.16093	0.18207	0.085911	-2.1667	-2.1604	-2.8688	-2.0854	-2.6167	-2.8438	-1.9521	-2.8896	-2.5292	-2.0854	-2.9229	-2.3438	-2.4729	-2.8875	-2.1792	-2.875	76.162	234.060	-76.568	2.520	79.656	-7.371	-36.084	202.983	-86.863	226.752	217.629	-92.859	-55.905	194.619	240.925	143.982	0.00037416	0.00024681	0.00012107	494.99	3.1005e-06	1.9581e-06	417.79	194.06	1.3543e-06	3.3826e-06	186.29	79.92	80.89	43.802	2.6406e-06	43.018	0.0014943	0.0025249	0.0006879	533.92	2.412e-05	2.8524e-05	451.02	210.57	2.4077e-05	2.8067e-05	202.47	86.914	88.485	47.869	2.5808e-05	46.846	133.538	-39.368	-53.816	-88.505	29.168	36.528	-89.940	-82.993	41.780	38.799	-85.877	-81.238	-78.451	-74.053	48.908	-77.788	-8191	255	
3062.867	1	1	0	0	0.29407	0.11692	0.3068	0.26536	0.25694	0.25736	0.12687	0.37699	0.31676	0.16889	0.10633	0.22806	0.097274	0.20493	0.13774	0.21208	-2.25	-2.0062	-3.0021	-2.3792	-2.3312	-2.8937	-2.1771	-2.8563	-2.65	-2.1688	-2.8979	-2.1854	-2.2438	-3.0167	-2.0354	-2.7375	220.262	225.241	97.354	201.582	257.525	105.329	-96.768	252.255	81.570	18.772	-68.961	180.121	-71.457	106.302	124.878	-92.191	0.00041631	0.00039853	0.00010906	495.79	1.1636e-06	2.3013e-06	419.18	195.71	3.0326e-06	3.19e-06	187.52	80.043	81.691	44.242	2.6996e-06	43.32	0.0014929	0.0024956	0.00069744	532.64	2.3888e-05	2.8716e-05	451.14	211.58	2.4629e-05	2.8911e-05	203.95	87.605	89.607	48.459	2.5326e-05	47.4	132.766	-26.742	1.470	-88.515	48.414	51.664	-89.870	-82.994	-44.452	38.184	-85.775	-81.251	-78.615	-73.965	-19.728	-77.763	-8191	255	
3062.964	1	1	0	0	0.29723	0.20756	0.23618	0.27097	0.27905	0.23076	0.11536	0.27761	0.1491	0.12455	0.1813	0.1386	0.085251	0.14376	0.32267	0.083275	-2.4375	-2.0833	-2.9542	-2.4688	-2.1208	-3.025	-2.3083	-2.4229	-2.9104	-1.9396	-2.8646	-2.4542	-2.1042	-3.0292	-1.9958	-2.6396	117.332	214.645	116.361	157.577	112.960	-91.892	2.718	224.331	79.589	-24.087	189.258	-29.016	212.103	258.592	201.263	184.731	0.00040348	0.0002736	9.3508e-05	497.66	2.7406e-06	7.1688e-07	421.27	199.04	9.4216e-07	1.7384e-06	190.72	81.905	83.522	45.252	4.9325e-06	44.175	0.0014955	0.0025179	0.00068586	536.33	2.407e-05	2.8039e-05	454.7	215.14	2.4165e-05	2.858e-05	206.99	89.365	91.51	49.626	2.6685e-05	48.213	127.318	-14.873	-1.549	-88.728	27.812	65.450	-90.043	-82.908	58.651	59.927	-85.658	-81.064	-78.530	-74.006	16.616	-77.980	-8191	255	
3063.060	1	1	0	0	0.15434	0.043467	0.25092	0.26547	0.10473	0.045655	0.24309	0.12757	0.32703	0.18717	0.16235	0.22676	0.068426	0.13898	0.22744	0.14465	-2.3896	-1.8833	-2.7	-2.6	-2.0833	-3.0563	-2.1146	-2.4729	-2.8958	-2.0708	-2.7271	-2.5792	-2.0542	-3.0271	-2.2292	-2.4958	250.489	156.344	18.632	215.774	216.710	14.323	-73.264	-43.826	-84.525	57.955	-99.368	222.291	68.155	160.013	-9.904	120.262	0.00038227	0.00028635	7.1728e-05	502.61	3.7315e-06	5.1991e-06	422	201.34	4.0797e-06	4.0785e-06	190.64	82.636	84.101	45.685	1.9648e-06	44.323	0.0015646	0.0025674	0.00072416	541.06	2.452e-05	2.9407e-05	455.46	218.53	2.4627e-05	2.8778e-05	207.63	89.656	92.159	50.095	2.6293e-05	48.39	135.142	-47.318	-41.119	-88.529	8.232	73.347	-90.052	-82.891	-29.766	75.432	-85.643	-81.494	-78.668	-73.881	55.373	-78.067	-8191	255	
3063.156	1	1	0	0	0.15024	0.28672	0.19569	0.14678	0.018786	0.19658	0.037278	0.096751	0.11748	0.14108	0.084958	0.19767	0.2502	0.11948	0.17262	0.072416	-2.5667	-1.8771	-2.6729	-2.675	-2.0563	-2.8312	-2.3396	-2.3688	-2.8937	-2.1854	-2.8271	-2.6458	-2.2771	-2.9083	-2.3625	-2.425	48.441	164.783	-23.472	217.664	157.946	86.777	77.694	-61.982	-66.045	54.113	205.911	233.454	235.779	29.959	152.343	-50.828	0.00044081	0.00039947	8.6817e-05	502.84	3.8118e-06	3.5544e-06	423.04	202.67	4.7985e-06	4.1308e-06	192.75	82.687	84.6	46.27	4.4084e-06	44.55	0.0015268	0.002524	0.00071275	542.41	2.4109e-05	2.815e-05	456.85	219.85	2.4532e-05	2.9151e-05	209.35	90.249	92.757	50.454	2.7073e-05	48.655	131.434	-4.260	-22.632	-88.100	48.080	49.993	-90.136	-82.792	41.964	96.348	-85.667	-81.514	-78.962	-74.031	22.560	-77.865	-8191	255	
3063.252	1	1	0	0	0.20263	0.035765	0.08046	0.32775	0.22819	0.17973	0.069582	0.31632	0.22751	0.11496	0.11044	0.076843	0.13225	0.25099	0.17807	0.10454	-2.5062	-2.0896	-2.4708	-2.9	-1.9312	-2.8646	-2.6	-2.2271	-3.0229	-2.2583	-2.3271	-2.8063	-1.9708	-2.8854	-2.4813	-2.275	156.908	237.625	-91.172	187.019	51.393	111.946	195.840	186.277	-85.222	63.949	132.294	223.435	200.248	245.852	165.178	38.954	0.0003798	0.00037937	0.00012482	497.08	3.0442e-06	2.8497e-06	418.44	198.6	3.9407e-06	5.2755e-06	188.81	82.051	82.34	44.803	4.8453e-06	43.575	0.0015805	0.0025764	0.0007397	537.42	2.5141e-05	2.9681e-05	451.75	215.15	2.4834e-05	2.9367e-05	205.79	89.225	90.165	49.033	2.7169e-05	47.719	131.769	1.289	-36.720	-88.541	8.492	52.705	-89.825	-82.973	11.998	30.570	-85.911	-81.351	-78.609	-73.975	38.712	-77.790	-8191	255	
3063.348	1	1	0	0	0.21661	0.14775	0.11068	0.10503	0.1331	0.21577	0.083495	0.32249	0.26613	0.054974	0.1344	0.12732	0.064297	0.14137	0.25167	0.17239	-2.6021	-2.225	-2.55	-2.9396	-1.95	-2.7104	-2.5646	-2.1188	-2.9458	-2.3417	-2.4062	-2.9604	-2.0708	-2.8375	-2.6229	-2.0479	101.234	30.298	-82.364	-1.716	-59.960	-11.040	161.858	187.953	205.834	-82.808	-31.487	121.382	78.133	-65.491	155.643	227.307	0.00042799	0.00030647	8.1361e-05	485.64	1.4564e-06	2.8695e-06	409.46	191.55	1.7289e-06	5.2791e-06	183.99	80.31	80.046	43.378	7.8672e-07	43.281	0.0015698	0.0026109	0.00074952	523.67	2.4402e-05	2.9021e-05	443.75	207.41	2.4136e-05	2.8831e-05	200.28	87.494	87.584	47.553	2.5806e-05	47.039	132.558	-52.475	-23.253	-88.369	54.306	113.151	-89.853	-83.119	-0.017	57.007	-85.579	-81.585	-78.964	-74.058	-33.903	-78.018	-8191	255	
3063.444	1	1	0	0	0.28971	0.19472	0.24225	0.26842	0.17345	0.27139	0.11025	0.14927	0.18716	0.10926	0.14916	0.17268	0.23238	0.14872	0.058483	0.27377	-2.6667	-2.3917	-2.0854	-2.9917	-2.2	-2.6688	-2.7708	-2.1854	-2.9125	-2.3688	-2.2667	-3.025	-2.1708	-2.6813	-2.7854	-2.1188	131.965	91.850	79.458	-91.917	246.376	192.421	174.169	126.260	48.645	157.689	-60.895	188.588	243.439	236.730	74.718	172.679	0.00049429	0.00024625	6.2305e-05	479.85	3.1356e-06	2.2361e-06	405.05	190.25	3.943e-06	5.4918e-06	184.28	80.449	80.927	44.232	2.9142e-06	43.56	0.0014913	0.0024945	0.00071092	517.02	2.4175e-05	2.8575e-05	439	205.8	2.3687e-05	2.8523e-05	200.48	87.505	88.611	48.402	2.6022e-05	47.644	119.302	12.911	13.883	-88.613	41.963	58.589	-90.044	-82.986	-19.469	60.208	-85.675	-81.546	-78.882	-74.091	6.041	-78.005	-8191	255	
3063.563	1	1	0	0	0.12951	0.2309	0.1643	0.1281	0.17805	0.050293	0.13139	0.25269	0.16702	0.24533	0.33185	0.07019	0.14208	0.21487	0.30799	0.27722	-2.3833	-2.3104	-2.0625	-2.8771	-2.1063	-2.5021	-2.9	-1.9708	-2.9021	-2.5208	-2.0708	-2.9104	-2.0625	-2.2146	-2.6271	-1.9458	-43.320	-30.142	-91.199	-1.710	32.298	19.793	-34.033	248.370	-72.647	6.986	211.440	-21.694	249.575	212.415	150.773	200.686	0.0004322	0.00043837	0.00013513	487.15	2.2834e-06	6.1125e-06	415.65	196.59	2.4984e-06	8.1294e-07	188.75	82.386	83.734	45.84	3.1294e-06	44.819	0.0015509	0.0025428	0.00072006	526.31	2.452e-05	2.9502e-05	446.87	213.18	2.5208e-05	2.9335e-05	205.63	89.774	91.652	50.166	2.7624e-05	48.802	127.267	-21.675	-21.095	-88.508	1.440	52.830	-90.001	-83.152	-24.607	3.023	-86.060	-81.434	-78.801	-74.040	54.814	-77.951	-8191	255	
3063.659	1	1	0	0	0.13589	0.074842	0.17156	0.21678	0.12185	0.097915	0.064787	0.17919	0.16201	0.17483	0.099865	0.044282	0.18724	0.15776	0.30597	0.10885	-2.45	-2.5938	-2.0083	-2.9771	-2.2896	-2.4188	-2.9583	-2.025	-2.7333	-2.6583	-2.0938	-2.9708	-2.4167	-2.3458	-2.9	-2.2729	-3.538	249.143	-23.232	98.906	16.104	171.382	-60.647	183.279	93.916	242.766	-72.964	197.734	128.625	196.394	-95.918	94.774	0.00039671	0.00024092	0.00013563	494.19	4.3717e-06	2.0406e-06	419.55	202	3.0559e-06	5.2488e-06	192.59	83.991	85.192	46.667	3.7534e-06	45.276	0.0016013	0.0026766	0.00075874	533.22	2.5807e-05	3.0854e-05	452.35	217.91	2.5784e-05	3.0089e-05	209.34	91.383	93.265	51.002	2.7743e-05	49.556	123.206	1.468	-31.277	-88.126	54.782	52.182	-89.859	-83.321	13.061	35.484	-85.919	-81.588	-78.673	-73.856	26.161	-77.999	-8191	255	
3063.756	1	1	0	0	0.32137	0.13133	0.058816	0.17514	0.17938	0.34866	0.2707	0.24198	0.055017	0.087257	0.34595	0.27808	0.22792	0.072049	0.2121	0.31181	-2.2854	-2.7083	-1.8229	-2.6771	-2.4521	-2.1604	-2.95	-2.0979	-2.5354	-2.8312	-2.0521	-2.9042	-2.5187	-2.1437	-3.0104	-2.2917	88.929	97.728	-21.203	33.659	253.836	-61.607	165.562	249.423	235.968	198.394	-94.449	205.731	-24.581	-24.351	152.883	-76.244	0.000441	0.0004173	0.00010902	500.49	1.1033e-06	3.2324e-06	422.26	203.97	2.4475e-06	3.0028e-06	195.01	84.727	86.315	47.346	6.2827e-06	45.752	0.001622	0.0027096	0.00078262	538.7	2.6504e-05	3.182e-05	456.99	220.92	2.6744e-05	3.1093e-05	211.8	92.245	94.567	51.747	2.8743e-05	50.032	132.029	-11.866	-4.772	-88.238	66.200	47.233	-89.802	-83.042	36.842	58.955	-85.620	-81.258	-78.634	-74.003	47.508	-77.965	-8191	255	
3063.852	1	1	0	0	0.40045	0.048429	0.17848	0.40919	0.16876	0.13498	0.18178	0.17719	0.075899	0.40219	0.059556	0.064357	0.085734	0.4133	0.12193	0.052494	-2.0938	-2.8167	-1.9688	-3.0396	-2.5625	-2.1896	-2.9771	-2.1229	-2.2542	-2.8292	-2.1542	-2.8979	-2.5	-2.1875	-2.9437	-2.5854	-33.095	124.190	162.510	229.005	55.736	188.418	-81.302	176.905	117.427	253.069	129.881	-80.437	142.502	-29.486	95.820	170.916	0.00049035	0.00054916	6.1171e-05	502.36	2.791e-06	3.8763e-06	423.05	205.18	2.4203e-06	3.4506e-06	195.36	84.287	86.138	47.342	9.9173e-07	45.838	0.0017198	0.0027699	0.00079559	540.97	2.6754e-05	3.175e-05	456.79	221.84	2.6707e-05	3.0606e-05	211.69	92.225	94.388	51.778	2.7667e-05	50.015	130.033	-25.102	-42.573	-88.312	29.344	53.008	-89.802	-82.743	20.274	30.865	-85.775	-81.476	-78.583	-73.899	49.557	-78.008	-8191	255	
3063.948	1	1	0	0	0.18071	0.11592	0.11734	0.21681	0.11034	0.16874	0.11451	0.1839	0.17741	0.23115	0.18879	0.12251	0.33437	0.14238	0.22344	0.19925	-1.9667	-2.8063	-2.1063	-2.6063	-2.7917	-2.05	-2.8458	-2.5854	-2.4062	-2.7854	-2.2062	-2.5167	-2.9708	-1.9188	-2.9292	-2.625	71.994	209.404	60.322	214.693	201.744	169.139	54.952	-9.690	-70.839	142.770	112.509	157.622	156.058	199.989	164.231	149.035	0.00036056	0.00032816	8.3569e-05	497.75	3.2212e-06	4.35e-06	419.87	200.47	2.8259e-06	3.155e-06	191.56	83.432	84.524	46.334	2.9099e-06	45.273	0.001666	0.0027091	0.0007736	535.85	2.5979e-05	3.0986e-05	452.86	216.79	2.6511e-05	3.039e-05	208.4	91.03	92.521	50.605	2.7969e-05	49.398	128.590	-30.347	3.254	-88.278	24.285	56.928	-89.783	-82.997	4.450	76.554	-85.535	-81.642	-78.763	-74.027	50.555	-77.998	-8191	255	
3064.042	1	1	0	0	0.29647	0.12552	0.056823	0.29894	0.36905	0.0622	0.16365	0.13716	0.12651	0.058363	0.2469	0.48191	0.32388	0.16684	0.19693	0.27428	-1.7	-2.8417	-2.1312	-2.5917	-2.775	-2.0187	-2.9167	-2.6333	-2.2	-3.0604	-2.2625	-2.325	-2.6625	-2.0854	-2.5667	-2.6083	196.388	188.542	-44.597	-56.300	-98.254	54.910	-33.715	104.210	-89.774	256.943	179.526	193.717	181.558	224.738	225.104	125.323	0.00044088	0.00048538	0.00010178	492.06	3.8026e-06	4.0504e-06	417.68	197.54	1.9814e-06	3.1741e-06	191.28	83.409	83.578	45.516	4.6993e-06	45.132	0.0016339	0.0026706	0.00074952	530.15	2.6043e-05	3.0903e-05	452.56	213.88	2.5758e-05	2.9471e-05	207.48	90.782	91.172	49.829	2.6304e-05	49.21	132.003	-8.707	-23.380	-88.423	12.210	34.905	-89.992	-83.099	2.281	26.157	-85.862	-81.336	-78.772	-74.202	16.936	-78.138	-8191	255	
3064.140	1	1	0	0	0.16825	0.24422	0.11475	0.21934	0.18915	0.22629	0.17652	0.23334	0.17899	0.1526	0.1446	0.068551	0.25229	0.23478	0.15675	0.076025	-1.6938	-2.725	-2.2417	-2.4313	-2.9479	-2.15	-2.7958	-2.6729	-2.0604	-2.8208	-2.2438	-2.3333	-3.0375	-2.1104	-2.5667	-2.7562	-7.579	51.934	126.178	201.308	77.477	-98.702	-100.855	71.022	206.413	23.070	51.706	208.659	17.869	255.805	-34.691	199.692	0.00039739	0.00034523	0.00010924	491.76	2.9642e-06	4.9899e-06	420.2	194.64	4.6467e-06	2.9935e-06	190.27	82.366	82.213	44.943	4.1157e-06	44.593	0.0015487	0.0024765	0.00070494	528.05	2.4365e-05	2.8666e-05	451.22	210.93	2.4587e-05	2.8822e-05	205.57	89.72	89.717	49.162	2.6079e-05	48.617	124.676	-26.031	-12.689	-88.317	32.211	56.196	-89.807	-83.042	7.861	66.894	-85.873	-81.475	-78.904	-74.296	47.022	-78.227	-8191	255	
3064.259	1	1	0	0	0.054724	0.12835	0.14398	0.20568	0.20799	0.029684	0.18961	0.12437	0.19654	0.13088	0.20854	0.15181	0.20173	0.3494	0.18655	0.16789	-1.6708	-2.875	-2.3187	-2.1875	-2.95	-2.1521	-2.7333	-2.9938	-2.0667	-2.9604	-2.4938	-2.3875	-3.0521	-2.0667	-2.5708	-2.8583	247.428	225.774	173.226	189.407	200.850	171.679	237.884	38.236	6.180	109.123	-96.177	231.846	-78.925	199.951	70.159	188.910	0.00045899	0.00033523	0.00010689	489.76	4.3878e-06	1.8591e-06	416.55	195.44	2.4431e-06	1.9603e-06	191.12	83.382	84.051	46.064	3.1417e-06	45.34	0.0015323	0.0025027	0.00071408	526.22	2.4235e-05	2.8768e-05	450.97	212.09	2.4388e-05	2.7787e-05	207.36	90.685	91.647	50.348	2.5942e-05	49.561	130.848	-10.878	-16.349	-88.419	29.104	51.345	-90.108	-83.180	-8.407	60.907	-85.978	-81.528	-78.892	-74.353	80.467	-78.334	-8191	255	
3064.355	1	1	0	0	0.14508	0.12566	0.057734	0.25213	0.29616	0.21084	0.092669	0.24212	0.036164	0.18024	0.098886	0.2435	0.098683	0.1533	0.26113	0.040793	-1.5333	-2.9875	-2.5708	-2.0979	-2.9521	-2.3104	-2.5687	-2.75	-2.2104	-2.8333	-2.6667	-2.0917	-3.2021	-2.5104	-2.4354	-3.05	57.069	-82.330	251.513	91.136	-66.980	44.614	145.904	99.052	73.488	205.674	-32.330	210.328	-33.731	4.093	-99.299	-65.656	0.00047368	0.00014419	0.00013644	500.79	2.6732e-06	3.2669e-06	426.33	203.14	3.6231e-06	1.7417e-06	197.37	85.621	87.072	47.858	3.2715e-06	46.623	0.0014993	0.0024207	0.00069256	538.32	2.3106e-05	2.7553e-05	460.46	220.38	2.3625e-05	2.8031e-05	214.1	93.356	95.269	52.284	2.6838e-05	50.863	130.697	16.051	-14.333	-88.299	25.619	45.198	-89.739	-82.913	-34.950	49.719	-85.830	-81.419	-78.824	-74.040	74.985	-77.932	-8191	255	
3064.451	1	1	0	0	0.08185	0.29905	0.0038732	0.11414	0.046514	0.29222	0.064043	0.17452	0.16937	0.070634	0.25362	0.11174	0.28481	0.081462	0.2013	0.14311	-1.7917	-2.5958	-2.5354	-2.1688	-2.8979	-2.2562	-2.4	-3.0021	-2.1833	-2.7771	-2.5604	-2.1875	-2.9437	-2.7083	-2.4542	-3.0354	216.856	-31.451	-50.869	186.432	-64.264	71.173	209.857	243.167	157.543	38.435	-78.254	225.328	146.270	171.526	210.260	126.579	0.00039335	0.00019733	8.4347e-05	513.3	2.6709e-06	4.0484e-06	433.64	209.84	1.5296e-06	2.0111e-06	200.91	87.216	88.258	48.388	1.5094e-06	47.111	0.0015618	0.002514	0.00070295	549.89	2.447e-05	2.9365e-05	468.77	226.66	2.4897e-05	2.8719e-05	218.03	94.735	96.785	52.937	2.7969e-05	51.343	130.891	-10.877	-26.587	-88.263	40.929	53.586	-90.017	-83.005	-30.891	59.314	-85.713	-81.620	-78.469	-74.118	33.412	-77.873	-8191	255	
3064.547	1	1	0	0	0.23412	0.40628	0.18665	0.091762	0.042158	0.099226	0.19665	0.26253	0.26832	0.10679	0.15383	0.17789	0.16451	0.25841	0.12872	0.18695	-1.5896	-2.5938	-2.8646	-1.8937	-2.8042	-2.2833	-2.1312	-3.1042	-2.1813	-2.4437	-2.8646	-2.0542	-2.7854	-2.6458	-2.1813	-2.9542	43.151	-22.865	16.570	218.366	196.221	50.246	124.096	200.039	-12.508	236.489	-86.796	250.582	240.168	202.869	238.645	162.582	0.00041118	0.00050907	0.00011137	512.59	2.9033e-06	3.3227e-06	433.62	208.88	2.7262e-06	4.7848e-06	199.76	85.73	88.585	48.338	4.6128e-06	46.613	0.0016506	0.0027376	0.00078397	551.64	2.6116e-05	3.1732e-05	467.26	226.53	2.6677e-05	3.0838e-05	217.23	93.939	96.803	52.883	2.8159e-05	51.075	128.058	-9.736	-8.425	-88.323	-25.512	33.280	-89.888	-83.056	22.673	70.017	-85.752	-81.478	-78.803	-74.033	-20.583	-78.057	-8191	255	
3064.644	1	1	0	0	0.22303	0.090702	0.20338	0.18472	0.24486	0.085089	0.14953	0.14341	0.17562	0.13648	0.17317	0.18536	0.28527	0.18651	0.17045	0.18726	-1.7271	-2.3167	-2.6021	-2.0646	-2.8063	-2.6688	-2.1667	-2.9792	-2.2333	-2.3271	-2.8854	-2.2646	-2.7792	-2.7708	-2.1312	-2.9458	64.396	-3.693	-35.260	218.457	141.870	239.003	252.429	151.557	54.170	-18.492	22.441	147.564	216.253	184.015	249.204	-59.440	0.0004538	0.00041297	0.00014512	508.83	1.9788e-06	2.523e-06	427.75	207.91	3.4771e-06	2.5342e-06	197.3	85.554	87.052	47.581	9.7441e-07	46.112	0.0016548	0.0027943	0.00077935	549.23	2.6396e-05	3.2506e-05	464.46	225.36	2.7107e-05	3.2445e-05	214.7	93.259	95.328	52.132	2.8991e-05	50.448	132.793	14.470	-19.571	-88.386	87.349	66.689	-89.820	-82.776	18.895	78.995	-85.793	-81.464	-78.711	-73.970	-25.760	-77.995	-8191	255	
3064.740	1	1	0	0	0.18586	0.09503	0.19087	0.22023	0.21963	0.04419	0.19259	0.29808	0.25619	0.047584	0.1219	0.21067	0.16835	0.261	0.06541	0.18587	-1.7896	-2.0604	-2.8792	-2.0479	-2.6271	-2.7125	-2.3979	-2.9625	-2.4646	-2.2313	-3.025	-2.3042	-2.5542	-2.9333	-2.1208	-2.9562	184.590	-25.518	222.004	185.806	192.529	-26.585	-98.608	192.626	173.305	61.572	-27.063	-71.355	-68.008	110.277	132.154	63.892	0.00045373	0.00027628	5.3339e-05	501.05	1.6405e-06	4.7386e-06	426.51	202.4	3.404e-06	3.894e-06	193.34	84.442	84.684	46.442	4.0449e-06	45.673	0.0016759	0.0028356	0.00077649	541.46	2.5948e-05	3.1449e-05	459.72	219.09	2.6183e-05	3.0144e-05	210.95	91.782	92.852	50.836	2.7478e-05	49.777	131.035	20.793	-56.863	-88.576	27.801	66.002	-89.998	-82.892	12.348	29.438	-85.736	-81.326	-78.433	-74.195	11.050	-77.952	-8191	255	
3064.860	1	1	0	0	0.28942	0.33415	0.051319	0.36665	0.14097	0.10572	0.22198	0.12918	0.26658	0.1846	0.13939	0.24054	0.0038167	0.15112	0.29687	0.058664	-2.1646	-2.325	-2.8854	-2.1542	-2.5417	-2.7354	-2.1854	-2.7479	-2.5958	-2.25	-2.9333	-2.1562	-2.4833	-2.9229	-2.0187	-2.7667	177.424	24.922	226.583	-32.538	142.165	144.921	144.229	176.339	223.021	100.283	176.404	-37.237	-17.754	-2.129	-31.036	-74.916	0.00045186	0.00049876	0.00014731	499.81	2.7279e-06	1.7141e-06	424.65	199.53	1.0882e-06	4.4923e-06	193.41	83.465	83.844	45.984	2.0293e-06	45.241	0.0015723	0.0026459	0.00073955	535.97	2.4757e-05	3.0326e-05	457.42	216.62	2.4923e-05	2.963e-05	209.73	91.083	91.905	50.359	2.7208e-05	49.467	130.823	16.657	-5.159	-88.576	34.161	63.955	-90.130	-82.807	6.704	50.053	-86.146	-81.640	-78.663	-74.142	29.650	-78.020	-8191	255	
3064.955	1	1	0	0	0.23897	0.20057	0.21074	0.23795	0.24745	0.11585	0.12345	0.20918	0.082746	0.18713	0.10581	0.0729	0.11946	0.29306	0.33369	0.15277	-2.325	-2.0979	-2.8958	-2.3542	-2.3604	-2.9562	-2.2417	-2.6583	-2.6479	-2.0687	-2.9938	-2.5396	-2.1958	-3.1979	-2.0312	-2.7938	11.301	49.471	141.302	-96.999	225.099	-51.270	153.028	162.354	64.151	-21.794	180.157	189.764	186.458	-91.541	253.974	125.468	0.00044698	0.00031951	9.4234e-05	496.59	1.5246e-06	3.4522e-06	421.92	200.07	5.7088e-06	4.2851e-06	193.76	84.307	85.532	46.664	1.0207e-06	45.776	0.0015372	0.0025999	0.00071845	534.94	2.4674e-05	2.8998e-05	455.9	217.22	2.4248e-05	2.8595e-05	210.28	91.742	93.328	51.052	2.5129e-05	49.96	129.978	12.060	-13.627	-88.421	3.456	11.220	-90.014	-82.931	9.998	77.994	-85.956	-81.596	-78.818	-74.203	-28.461	-78.008	-8191	255	
3065.051	1	1	0	0	0.50159	0.25152	0.22872	0.36151	0.30612	0.13933	0.04544	0.16682	0.18114	0.12557	0.032748	0.18376	0.084718	0.15252	0.12748	0.26448	-2.3854	-2.0125	-2.7958	-2.4229	-2.125	-2.925	-2.2708	-2.6583	-2.7583	-1.9958	-2.9792	-2.3042	-2.1917	-2.9042	-2.1979	-2.6646	-9.011	245.056	-44.216	225.929	97.958	202.304	4.717	237.018	67.106	119.947	26.959	185.522	-59.822	-43.105	179.073	120.017	0.00036485	0.00053111	0.00014314	501.15	2.8056e-06	3.7372e-06	428.03	205.97	4.4069e-06	2.9038e-06	197.19	86.328	87.802	48.095	3.0946e-06	47.089	0.001462	0.0023497	0.00064602	540.26	2.2782e-05	2.6455e-05	461.87	222.38	2.2943e-05	2.6032e-05	214.41	93.445	95.515	52.559	2.4581e-05	51.272	132.352	-16.257	-8.068	-88.742	60.788	41.704	-90.137	-83.147	15.435	37.679	-85.784	-81.699	-78.940	-74.074	8.152	-78.093	-8191	255	
3065.124	1	1	0	0	0.079874	0.13264	0.14528	0.26218	0.10745	0.17281	0.10724	0.30191	0.061777	0.065722	0.21109	0.17815	0.13091	0.11837	0.10011	0.34892	-2.3896	-2.1625	-2.6375	-2.7687	-1.9396	-2.9979	-2.1396	-2.3104	-2.6625	-1.9208	-2.625	-2.6125	-1.9875	-2.9917	-2.1479	-2.3542	246.282	-10.652	-95.186	241.809	-37.260	-91.049	233.365	199.057	-71.061	74.879	147.877	-39.816	133.655	186.653	49.619	-88.054	0.00039359	0.00049542	0.00017082	511.47	2.2034e-06	3.3619e-06	436.87	211.38	1.7562e-06	2.5602e-06	204.29	88.511	90.372	49.677	2.17e-06	48.491	0.0014437	0.0023299	0.00066271	551.14	2.2685e-05	2.6731e-05	470.88	228.86	2.2469e-05	2.6109e-05	221.4	96.146	98.636	54.389	2.456e-05	52.758	129.379	-29.164	-6.165	-88.438	34.115	79.723	-89.890	-83.029	42.042	68.230	-86.096	-81.801	-78.670	-74.174	45.935	-78.073	-8191	255	
3065.243	1	1	0	0	0.20702	0.13954	0.1066	0.15006	0.046243	0.17228	0.19191	0.24244	0.24356	0.042761	0.15077	0.042237	0.16125	0.35319	0.066887	0.10401	-2.3937	-1.9896	-2.6875	-2.7167	-1.9562	-2.8167	-2.4562	-2.1771	-2.9771	-2.1167	-2.8396	-2.7708	-2.1125	-3.0792	-2.3771	-2.3417	248.056	51.428	166.495	201.599	105.218	-93.057	131.330	96.144	-55.301	237.004	183.207	-70.367	-43.946	209.526	42.518	41.310	0.00044036	0.00036758	0.00015963	515.7	3.0566e-06	5.6772e-06	444.34	214.32	4.3558e-06	4.9769e-06	205.51	89.318	91.111	50.187	2.2631e-06	48.826	0.0014221	0.002371	0.0006629	557.2	2.2642e-05	2.7282e-05	476.86	231.69	2.3135e-05	2.7047e-05	222.88	97.176	99.513	54.834	2.4875e-05	53.202	131.019	-19.972	-25.151	-88.381	13.439	73.874	-90.220	-82.981	-25.158	43.262	-85.821	-81.528	-78.815	-74.236	28.092	-77.935	-8191	255	
3065.339	1	1	0	0	0.15774	0.13535	0.1647	0.17124	0.26339	0.24027	0.060831	0.35425	0.16477	0.1879	0.36335	0.10808	0.095327	0.14449	0.15266	0.010946	-2.4958	-2.0875	-2.6333	-2.9688	-1.8875	-3.0187	-2.7417	-2.3333	-2.9021	-2.1333	-2.6375	-2.8312	-1.9333	-2.9229	-2.6792	-2.1562	47.907	3.770	-36.544	-93.472	55.501	159.401	214.448	-94.347	9.775	170.197	251.296	168.873	-15.484	92.173	187.803	44.413	0.00049366	0.0004943	0.00011084	517.94	2.5717e-06	4.3449e-06	443.45	214.77	4.1068e-06	4.2206e-06	205.18	88.915	90.941	49.9	4.7158e-06	48.439	0.0014872	0.0024686	0.00068773	559.29	2.3494e-05	2.7355e-05	477.7	232.5	2.3297e-05	2.7876e-05	223.43	97.066	99.477	54.667	2.6184e-05	52.918	135.554	-9.105	-24.595	-88.510	28.656	67.661	-90.145	-83.048	17.454	45.249	-85.614	-81.722	-78.753	-74.163	48.142	-78.037	-8191	255	
3065.436	1	1	0	0	0.062672	0.12424	0.27627	0.21811	0.13794	0.081922	0.13839	0.045602	0.24339	0.3468	0.13421	0.051456	0.18279	0.10575	0.23976	0.38017	-2.4583	-2.4083	-2.4083	-2.8292	-2.0875	-2.7917	-2.55	-1.9875	-3.0687	-2.3729	-2.3187	-2.8063	-2.1292	-2.8375	-2.6667	-2.2125	-82.006	59.140	180.316	201.676	0.746	114.093	108.312	258.691	-47.007	55.928	-53.543	-20.661	-98.133	110.704	2.067	186.851	0.00048765	0.00030219	0.00014024	516.22	2.7257e-06	2.3526e-06	438.39	210.97	4.7615e-06	2.0346e-06	202.3	87.352	88.474	48.602	2.8111e-06	47.532	0.0015434	0.0025035	0.00070179	555.83	2.4022e-05	2.8014e-05	474.16	228.54	2.375e-05	2.8294e-05	219.55	95.397	96.687	53.194	2.5898e-05	51.864	129.549	-10.012	-22.088	-88.218	20.982	75.344	-90.075	-82.982	1.528	67.341	-85.934	-81.505	-78.845	-74.014	3.192	-78.117	-8191	255	
3065.532	1	1	0	0	0.26863	0.084171	0.20568	0.15845	0.11437	0.079937	0.10596	0.21864	0.22542	0.19127	0.14219	0.39558	0.56138	0.24788	0.19261	0.16432	-2.4083	-2.4917	-2.2354	-2.9104	-2.0542	-2.6396	-2.7958	-2.1146	-2.9625	-2.5062	-2.3229	-3.1	-2.0312	-2.7729	-2.8187	-2.0625	-93.581	17.754	178.537	4.135	133.065	-67.327	193.598	-51.130	-47.462	-34.505	-67.085	195.864	246.160	203.727	-9.417	194.392	0.0004586	0.00045672	1.8901e-05	509.08	3.4373e-06	5.4308e-06	435.31	205.36	3.584e-06	4.4913e-06	198.59	85.898	86.108	47.129	1.8203e-06	46.411	0.0014991	0.0025066	0.00070808	547.75	2.3626e-05	2.8267e-05	468.74	222.42	2.3368e-05	2.7349e-05	215.49	93.508	94.022	51.475	2.5494e-05	50.671	127.437	0.580	40.886	-88.446	19.623	56.295	-90.187	-83.085	-3.896	40.744	-85.814	-81.352	-78.908	-74.454	30.061	-78.241	-8191	255	
3065.652	1	1	0	0	0.16991	0.23072	0.13401	0.18583	0.071715	0.30287	0.33459	0.11241	0.14909	0.15661	0.26331	0.018961	0.19593	0.15553	0.18002	0.23369	-2.6479	-2.4833	-2.0375	-2.9417	-2.2542	-2.5625	-3.0604	-2.0646	-2.9292	-2.5917	-2.3354	-2.9979	-2.3458	-2.6813	-3.0292	-2.0375	167.112	90.947	192.048	107.756	137.572	-55.531	209.553	229.878	208.954	61.954	-82.024	-25.517	145.071	14.481	-39.372	130.215	0.00040007	0.00033612	8.0554e-05	501.86	3.0919e-06	3.1247e-06	426.63	200.75	5.3151e-06	4.3535e-06	195.53	84.708	85.195	46.572	3.3506e-06	45.83	0.0014996	0.0024722	0.00071203	539.75	2.3408e-05	2.794e-05	461.2	217.92	2.2701e-05	2.6919e-05	212.13	92.15	92.911	50.919	2.4381e-05	50.16	130.929	-38.476	-55.201	-88.445	18.215	51.081	-89.804	-83.147	-5.144	57.027	-85.832	-81.516	-78.623	-74.155	44.590	-77.871	-8191	255	
3065.724	1	1	0	0	0.16266	0.15228	0.32265	0.22528	0.24362	0.14159	0.23804	0.25194	0.1912	0.042016	0.075414	0.13728	0.096384	0.18057	0.38726	0.35861	-2.4375	-2.5938	-2.0667	-3.0896	-2.1625	-2.2792	-3.1063	-2.1312	-2.7875	-2.7708	-1.9729	-2.9896	-2.5042	-2.2313	-2.9188	-2.1312	133.563	190.788	252.229	208.272	146.827	234.659	218.628	240.640	-41.046	149.635	159.322	49.241	-86.735	57.867	156.992	255.586	0.00040787	0.00040544	0.00013215	504.65	3.8399e-06	4.5671e-06	428.01	203.67	3.3288e-06	4.6976e-06	197.67	85.626	86.618	47.558	3.7647e-06	46.502	0.0014267	0.0023401	0.0006791	541.16	2.2853e-05	2.6497e-05	460.77	220.38	2.2403e-05	2.598e-05	213.33	92.959	94.577	51.926	2.4028e-05	50.712	131.480	-27.009	-11.428	-88.336	33.289	48.626	-89.822	-82.888	12.077	49.458	-85.624	-81.558	-78.597	-73.985	45.725	-77.752	-8191	255	
3065.820	1	1	0	0	0.14269	0.010946	0.17673	0.13106	0.24254	0.15506	0.020806	0.16159	0.1913	0.21608	0.15878	0.15489	0.10047	0.18819	0.050557	0.36763	-2.1604	-2.6958	-1.9979	-2.9979	-2.3042	-2.1521	-3.0646	-2.1292	-2.6813	-2.8354	-2.1875	-2.8125	-2.8208	-2.2604	-3.0396	-2.1458	-13.628	85.839	127.435	174.848	75.340	-90.646	1.642	214.382	212.921	235.105	34.390	-72.268	71.450	-68.006	30.807	218.500	0.00043611	0.00030607	8.3768e-05	506.72	1.9442e-06	2.552e-06	431.87	206.91	1.7486e-06	2.4338e-06	201.29	86.74	88.059	48.417	2.145e-06	47.108	0.0014263	0.0022635	0.0006573	545.91	2.1919e-05	2.6437e-05	464.4	224.1	2.286e-05	2.6398e-05	217.34	94.156	96.443	52.918	2.442e-05	51.481	135.641	-2.680	39.198	-88.027	85.313	48.061	-89.573	-82.715	27.479	37.371	-85.890	-81.283	-78.782	-74.091	-24.436	-78.100	-8191	255	
3065.941	1	1	0	0	0.18445	0.13748	0.043153	0.24266	0.27213	0.065097	0.13848	0.15505	0.23502	0.19416	0.17363	0.36771	0.12155	0.34958	0.075045	0.036502	-2.0229	-2.8396	-2.0479	-2.8979	-2.5104	-2.0146	-3.1937	-2.4625	-2.55	-2.7208	-2.1771	-2.7875	-2.7229	-2.2687	-2.9729	-2.3375	22.386	-69.015	169.587	240.618	151.509	126.422	-91.771	-19.489	146.132	15.192	258.250	221.750	210.850	-82.063	-71.917	186.035	0.00047254	0.00036859	0.00015734	510.43	2.0021e-06	4.421e-06	435.21	209.81	2.5672e-06	3.3582e-06	201.16	87.591	88.929	48.985	2.5076e-06	47.74	0.0014881	0.0023695	0.00065371	549.45	2.2783e-05	2.7155e-05	468.88	227.16	2.3404e-05	2.6173e-05	218.63	95.469	97.416	53.578	2.3666e-05	52.074	137.283	-22.307	-40.624	-88.134	38.745	29.084	-89.653	-82.939	-6.099	51.292	-85.904	-81.211	-78.639	-74.013	-9.954	-77.996	-8191	255	
3066.035	1	1	0	0	0.024585	0.18966	0.1954	0.043255	0.2322	0.16303	0.2548	0.15995	0.16385	0.17117	0.016867	0.16695	0.27576	0.21309	0.074277	0.2487	-2.0625	-2.9375	-1.9896	-2.7667	-2.6688	-1.8354	-3.075	-2.4667	-2.3167	-2.9188	-2.225	-2.7687	-2.8604	-2.0521	-2.875	-2.4292	190.659	-44.338	-38.964	101.560	85.540	153.061	247.237	236.627	178.734	0.063	19.144	162.356	205.161	230.282	135.301	94.864	0.00041011	0.00042802	0.00017042	511.43	1.9698e-06	2.7378e-06	436.14	211.27	2.8726e-06	2.1704e-06	203.08	88.103	90.176	49.276	1.5125e-06	47.989	0.0014913	0.002322	0.00064623	551.54	2.2328e-05	2.582e-05	470.71	228.18	2.192e-05	2.5528e-05	220.07	95.785	98.08	53.935	2.3584e-05	52.259	126.834	-14.046	-9.610	-88.283	45.388	61.721	-89.829	-82.874	24.693	56.279	-85.654	-81.300	-78.431	-73.900	8.287	-77.843	-8191	255	
3066.133	1	1	0	0	0.2041	0.24059	0.12609	0.081729	0.03798	0.031985	0.16911	0.21849	0.26048	0.098284	0.2053	0.13892	0.29424	0.27755	0.20739	0.16183	-2.0312	-2.9854	-2.15	-2.6833	-2.8875	-2.1146	-2.8521	-2.4833	-2.1375	-3.0333	-2.2	-2.5896	-2.9833	-2.0917	-2.6854	-2.7646	209.655	-12.699	0.279	221.904	138.347	251.231	-8.095	176.036	-12.322	-13.168	94.209	189.389	256.229	219.945	28.067	77.191	0.00048402	0.00051838	0.0001208	512.04	2.7781e-06	3.5518e-06	436.78	209.33	3.859e-06	3.9791e-06	201.99	87.776	88.953	48.793	2.2874e-06	47.596	0.0014152	0.0022488	0.00064966	551.98	2.1869e-05	2.6057e-05	470.27	227.12	2.1938e-05	2.5867e-05	218.79	95.282	96.875	53.309	2.3942e-05	51.832	129.208	-35.323	-17.091	-88.315	65.367	50.576	-89.662	-82.858	58.057	88.529	-85.279	-81.450	-78.379	-73.951	35.279	-78.031	-8191	255	
3066.252	1	1	0	0	0.28341	0.093366	0.11016	0.20996	0.16198	0.22391	0.16108	0.086837	0.16503	0.14725	0.20617	0.19856	0.18498	0.2205	0.18876	0.18193	-1.7563	-2.9271	-2.0833	-2.3875	-3.025	-2.0167	-2.9688	-2.6479	-2.1104	-2.9875	-2.3396	-2.5	-3.0833	-2.1146	-2.8292	-2.9	8.402	226.484	218.170	-71.572	-22.890	46.907	118.167	116.124	-59.059	5.362	78.021	-61.096	-68.107	-64.314	176.905	158.251	0.00049579	0.00025518	9.5217e-05	507.93	2.3921e-06	3.4793e-06	434.44	206.23	1.3028e-06	3.448e-06	199	86.561	87.049	47.632	3.0838e-06	46.946	0.0014373	0.0022983	0.00064481	546.57	2.2116e-05	2.6909e-05	468.75	222.89	2.2488e-05	2.5872e-05	215.6	94.124	94.971	52.139	2.4328e-05	51.239	131.275	-7.837	-12.592	-88.267	24.352	31.956	-89.970	-83.143	-51.685	75.471	-85.959	-81.299	-78.843	-74.020	10.977	-78.092	-8191	255	
3066.324	1	1	0	0	0.30469	0.12938	0.06195	0.1365	0.14886	0.045724	0.21218	0.1283	0.059555	0.10567	0.048283	0.17132	0.21206	0.24004	0.065063	0.12357	-1.8	-2.8583	-2.3937	-2.3229	-2.8812	-2.2062	-2.75	-2.7792	-2.1792	-2.7062	-2.5333	-2.2021	-2.9479	-2.3354	-2.6104	-2.9062	199.451	150.624	-71.803	230.540	64.186	174.823	148.270	-51.764	78.604	247.758	177.888	-67.369	74.996	-71.241	149.822	131.470	0.00043358	0.00021768	5.1839e-05	503.37	3.7574e-06	4.9722e-06	433.13	202.25	3.7188e-06	3.8763e-06	198.26	86.594	86.535	47.598	1.5873e-06	47.084	0.0014754	0.0022574	0.00065094	540.71	2.1567e-05	2.5693e-05	466.64	219.35	2.1614e-05	2.4699e-05	214.96	94.001	94.337	51.947	2.2373e-05	51.27	125.213	-17.710	-1.671	-88.182	14.219	54.840	-89.807	-83.082	21.301	78.241	-85.985	-81.297	-78.838	-74.040	1.554	-78.009	-8191	255	
3066.420	1	1	0	0	0.25961	0.21888	0.097613	0.066597	0.17193	0.33101	0.04933	0.21953	0.14126	0.032447	0.066461	0.14763	0.20907	0.080718	0.11804	0.14803	-1.5938	-2.7625	-2.6125	-2.3292	-2.9896	-2.2625	-2.2979	-2.9729	-1.9146	-2.8688	-2.6063	-2.1667	-3.0646	-2.4271	-2.3771	-3.0396	-83.172	84.912	9.496	214.588	73.141	131.309	-64.419	236.892	-20.927	43.116	128.397	228.250	204.430	50.358	-38.623	161.986	0.00047335	0.00033049	0.00010129	504.44	4.3624e-06	5.2426e-06	434.86	204.07	1.6964e-06	4.5637e-06	199.13	87.165	87.694	48.136	1.5651e-06	47.534	0.0013352	0.0020681	0.0005862	541.9	1.9782e-05	2.3588e-05	467.41	220.96	2.0291e-05	2.3373e-05	215.88	94.403	95.503	52.551	2.1544e-05	51.729	128.358	-12.167	-27.887	-88.168	7.718	56.863	-89.857	-82.891	24.585	43.654	-85.805	-81.222	-78.556	-74.059	-12.754	-78.064	-8191	255	
3066.540	1	1	0	0	0.0878	0.23616	0.16339	0.10427	0.21988	0.11905	0.085005	0.17402	0.25945	0.049752	0.024605	0.1998	0.24963	0.32671	0.10491	0.26312	-1.7	-2.6521	-2.3896	-2.05	-2.8521	-2.2208	-2.3271	-2.9896	-2.2292	-2.7521	-2.8271	-2.125	-3.0042	-2.6229	-2.3812	-3.2292	207.804	230.953	138.030	256.750	-10.730	96.711	137.374	-92.708	-65.315	1.584	95.618	184.173	235.263	226.808	85.758	205.298	0.00048402	0.00045823	0.0001358	508.98	1.6655e-06	5.0913e-06	436.65	207.9	2.5182e-06	4.5037e-06	201.5	87.488	88.706	48.8	3.0715e-06	48.04	0.0013116	0.0020428	0.00058325	546.96	1.9423e-05	2.3572e-05	471.14	224.19	2.0721e-05	2.4249e-05	218.39	95.254	96.836	53.295	2.2432e-05	52.234	131.623	-36.928	-9.072	-88.180	43.466	63.325	-89.661	-82.837	18.255	46.526	-85.422	-81.174	-78.491	-74.074	22.068	-77.597	-8191	255	
3066.637	1	1	0	0	0.12527	0.069635	0.027616	0.21327	0.13408	0.208	0.17324	0.14593	0.22461	0.063036	0.13531	0.23135	0.17894	0.28421	0.37047	0.28855	-1.8062	-2.5479	-2.7021	-2.2188	-2.7729	-2.4375	-2.3146	-2.9396	-2.2208	-2.5042	-2.9354	-1.7583	-2.9479	-2.7812	-2.2896	-3.0854	91.870	248.788	-99.829	-39.354	255.487	144.238	258.149	-20.630	29.120	-8.928	107.085	216.152	242.984	232.778	57.730	211.543	0.00046891	0.0003975	8.6806e-05	512.98	3.6157e-06	2.3706e-06	439.65	210.19	3.8872e-06	3.4377e-06	203.92	88.478	89.399	49.099	3.9436e-06	48.546	0.0013352	0.0021065	0.0005844	551.7	2.0051e-05	2.3864e-05	473.66	226.66	2.0266e-05	2.3312e-05	220.54	96.214	97.212	53.583	2.2364e-05	52.719	129.792	-21.107	-13.352	-88.257	50.534	57.522	-89.691	-82.946	9.404	46.023	-85.988	-81.355	-78.483	-74.000	48.401	-77.934	-8191	255	
3066.733	1	1	0	0	0.12	0.20012	0.04889	0.17989	0.13869	0.10904	0.22018	0.15747	0.15681	0.20785	0.17707	0.084369	0.39239	0.10714	0.28612	0.14541	-1.9875	-2.4542	-2.8708	-2.0187	-2.8708	-2.6042	-2.2729	-3.2021	-2.3604	-2.3979	-3.0438	-2.0563	-2.7458	-2.7729	-2.1729	-3.1167	244.067	181.259	140.397	-74.993	-95.614	121.323	195.312	158.684	-73.427	-21.732	142.867	189.792	-81.384	242.753	204.698	189.193	0.0004742	0.00040099	0.0001457	514.43	5.6819e-06	3.7678e-06	443.12	210.43	3.1767e-06	4.5061e-06	203.83	88.483	89.667	49.292	3.9612e-06	48.606	0.0013331	0.0020785	0.00058616	553.05	1.982e-05	2.4307e-05	477.11	227.87	2.0433e-05	2.3935e-05	221.12	96.44	97.692	53.884	2.2604e-05	52.867	125.646	-16.051	-8.686	-88.150	36.369	75.980	-89.538	-82.702	65.263	16.708	-85.629	-81.349	-78.578	-74.133	8.782	-77.867	-8191	255	
3066.829	1	1	0	0	0.14975	0.18243	0.13069	0.36921	0.24997	0.12733	0.21126	0.20986	0.11386	0.071002	0.13085	0.11447	0.2532	0.25811	0.15046	0.08981	-1.8625	-2.2354	-3.0083	-2.0021	-2.5729	-2.7146	-2.0021	-2.9729	-2.475	-2.3146	-2.9292	-2.3854	-2.65	-2.7604	-2.0917	-2.7646	173.388	239.198	-73.111	158.469	6.718	221.053	-39.859	241.644	72.976	159.239	49.945	187.606	151.437	253.799	-75.065	-86.707	0.00050744	0.00028291	8.5747e-05	513.4	5.2018e-06	4.5661e-06	440.8	211.35	5.8019e-06	5.2731e-06	203.83	88.552	89.929	49.342	2.8947e-06	48.755	0.0013786	0.0022235	0.00061109	553.47	2.0964e-05	2.5081e-05	474.66	228.24	2.1396e-05	2.5402e-05	220.58	96.315	97.979	54.002	2.3002e-05	52.958	130.697	-33.754	-29.613	-88.229	31.563	32.125	-89.875	-82.792	14.798	38.594	-85.705	-81.480	-78.417	-74.333	35.229	-78.016	-8191	255	
3066.949	1	1	0	0	0.1757	0.11513	0.14698	0.012283	0.038751	0.10478	0.2941	0.044423	0.044325	0.25091	0.39748	0.054633	0.23302	0.10083	0.069801	0.068097	-2.0167	-2.1667	-2.8958	-2.2021	-2.4146	-2.75	-2.1083	-2.9688	-2.5521	-2.1813	-2.8812	-2.3	-2.5667	-2.9292	-2.0292	-2.9604	66.067	-59.921	34.615	159.354	104.313	244.384	245.086	-35.594	13.846	124.708	171.557	104.038	211.525	155.996	27.377	-46.237	0.00049824	0.00043516	7.6529e-05	513.93	2.4627e-06	3.106e-06	438.24	208.74	1.4691e-06	3.8911e-06	201.2	88.072	87.693	48.579	5.5463e-06	48.165	0.0013992	0.0022425	0.00062013	550.72	2.1412e-05	2.4952e-05	473.29	225.45	2.143e-05	2.4777e-05	218.77	95.674	96.094	53.135	2.2421e-05	52.308	127.067	-8.324	-18.670	-88.312	-2.555	22.784	-89.914	-83.134	-16.280	17.609	-85.734	-81.535	-78.725	-74.299	53.688	-78.097	-8191	255	
3067.021	1	1	0	0	0.26753	0.1849	0.18027	0.30626	0.17559	0.2156	0.2538	0.1689	0.048694	0.10511	0.09182	0.15486	0.25694	0.090505	0.11843	0.16775	-2.2292	-2.0187	-2.8729	-2.225	-2.2687	-2.8896	-2.1562	-2.8063	-2.7125	-2.2562	-3.0292	-2.4188	-2.4979	-3.1417	-2.0958	-2.8271	85.666	217.381	165.433	187.452	126.539	-71.318	-100.664	-67.841	-78.221	150.763	131.266	-53.193	57.280	-65.319	171.119	219.455	0.00048115	0.00044111	0.00011718	503.13	6.2343e-06	2.9048e-06	436.16	203.67	4.0847e-06	3.2094e-06	199.26	86.74	86.689	47.505	4.1469e-06	47.462	0.0013545	0.0021888	0.000615	541.86	2.1413e-05	2.5083e-05	469.17	219.84	2.1407e-05	2.4902e-05	215.72	94.605	94.197	51.881	2.2643e-05	51.726	128.830	-23.250	-18.191	-88.587	13.508	101.611	-90.003	-82.994	25.073	37.156	-85.941	-81.628	-78.609	-74.422	6.588	-78.189	-8191	255	
#DATA ENDS
