BOXY.EXE: ISS Imagent and Oximeter Data Acquisition Program Version 0.80
Ascii Record File

#ACQ INFORMATION
2  Detector Channels 
16  External MUX Channels 
1  Auxiliary Channels 
5000  Waveform (CCF) Frequency (Hz)
1  Waveforms Skipped 
30  Waveforms Averaged 
1  Cycles Averaged 
16  Acquisitions per Waveform 
10.0806  Updata Rate (Hz) 

#FILE INFORMATION
TRUE -- External MUX Channel results are PARSED.
FALSE -- AC DC and Phase are NOT grouped.
TRUE -- Companion Program Settings File CREATED.
FALSE -- AC data not excluded
FALSE -- DC data not excluded
FALSE -- Phase data not excluded
FALSE -- Auxillary Chn. data not excluded
Tab delimiters

#CALIBRATION STATE
TRUE -- Waveform Calibration Values APPLIED.


#AUX CALIBRATION VALUES
Val Type	aux-1	

Term	1.0000e+00	
Factor	0.0000e+00	


#WF CALIBRATION VALUES
A = Detector Channel
Val Type	A-AC1	A-AC2	A-AC3	A-AC4	A-AC5	A-AC6	A-AC7	A-AC8	A-AC9	A-AC10	A-AC11	A-AC12	A-AC13	A-AC14	A-AC15	A-AC16	A-DC1	A-DC2	A-DC3	A-DC4	A-DC5	A-DC6	A-DC7	A-DC8	A-DC9	A-DC10	A-DC11	A-DC12	A-DC13	A-DC14	A-DC15	A-DC16	A-Ph1	A-Ph2	A-Ph3	A-Ph4	A-Ph5	A-Ph6	A-Ph7	A-Ph8	A-Ph9	A-Ph10	A-Ph11	A-Ph12	A-Ph13	A-Ph14	A-Ph15	A-Ph16	

Term	0.00000e+00	0.00000e+00	0.00000e+00	0.00000e+00	0.00000e+00	0.00000e+00	0.00000e+00	0.00000e+00	0.00000e+00	0.00000e+00	0.00000e+00	0.00000e+00	0.00000e+00	0.00000e+00	0.00000e+00	0.00000e+00	0.00000e+00	0.00000e+00	0.00000e+00	0.00000e+00	0.00000e+00	0.00000e+00	0.00000e+00	0.00000e+00	0.00000e+00	0.00000e+00	0.00000e+00	0.00000e+00	0.00000e+00	0.00000e+00	0.00000e+00	0.00000e+00	0.00000e+00	0.00000e+00	0.00000e+00	0.00000e+00	0.00000e+00	0.00000e+00	0.00000e+00	0.00000e+00	0.00000e+00	0.00000e+00	0.00000e+00	0.00000e+00	0.00000e+00	0.00000e+00	0.00000e+00	0.00000e+00	
Factor	1.00000e+00	1.00000e+00	1.00000e+00	1.00000e+00	1.00000e+00	1.00000e+00	1.00000e+00	1.00000e+00	1.00000e+00	1.00000e+00	1.00000e+00	1.00000e+00	1.00000e+00	1.00000e+00	1.00000e+00	1.00000e+00	1.00000e+00	1.00000e+00	1.00000e+00	1.00000e+00	1.00000e+00	1.00000e+00	1.00000e+00	1.00000e+00	1.00000e+00	1.00000e+00	1.00000e+00	1.00000e+00	1.00000e+00	1.00000e+00	1.00000e+00	1.00000e+00	X	X	X	X	X	X	X	X	X	X	X	X	X	X	X	X	

B = Detector Channel
Val Type	B-AC1	B-AC2	B-AC3	B-AC4	B-AC5	B-AC6	B-AC7	B-AC8	B-AC9	B-AC10	B-AC11	B-AC12	B-AC13	B-AC14	B-AC15	B-AC16	B-DC1	B-DC2	B-DC3	B-DC4	B-DC5	B-DC6	B-DC7	B-DC8	B-DC9	B-DC10	B-DC11	B-DC12	B-DC13	B-DC14	B-DC15	B-DC16	B-Ph1	B-Ph2	B-Ph3	B-Ph4	B-Ph5	B-Ph6	B-Ph7	B-Ph8	B-Ph9	B-Ph10	B-Ph11	B-Ph12	B-Ph13	B-Ph14	B-Ph15	B-Ph16	

Term	0.00000e+00	0.00000e+00	0.00000e+00	0.00000e+00	0.00000e+00	0.00000e+00	0.00000e+00	0.00000e+00	0.00000e+00	0.00000e+00	0.00000e+00	0.00000e+00	0.00000e+00	0.00000e+00	0.00000e+00	0.00000e+00	0.00000e+00	0.00000e+00	0.00000e+00	0.00000e+00	0.00000e+00	0.00000e+00	0.00000e+00	0.00000e+00	0.00000e+00	0.00000e+00	0.00000e+00	0.00000e+00	0.00000e+00	0.00000e+00	0.00000e+00	0.00000e+00	-1.93096e+02	-1.31651e+02	-1.26893e+02	-1.81391e+02	-8.12550e+01	-6.54229e+01	-1.56795e+02	-1.62015e+02	-8.71340e+01	-6.29356e+01	-1.74004e+02	-1.71240e+02	-1.79095e+02	-1.76490e+02	-7.82813e+01	-1.49299e+02	
Factor	3.61994e-05	1.37445e-04	4.05246e-05	1.50909e-01	1.47821e-06	1.56133e-06	1.51247e-01	4.83322e-02	1.61963e-06	1.49477e-06	8.33551e-02	2.69328e-02	2.70377e-02	8.24457e-03	1.53392e-06	1.18361e-02	1.83736e-05	3.60318e-05	1.01782e-05	8.04857e-02	3.42701e-07	4.15052e-07	7.58372e-02	2.58983e-02	3.41234e-07	4.10228e-07	4.32733e-02	1.39519e-02	1.46541e-02	4.46483e-03	3.66053e-07	6.20000e-03	X	X	X	X	X	X	X	X	X	X	X	X	X	X	X	X	



#DISTANCE SETTINGS
A = Detector Channel
A-1	A-2	A-3	A-4	A-5	A-6	A-7	A-8	A-9	A-10	A-11	A-12	A-13	A-14	A-15	A-16	

2.5000e+00	3.0000e+00	2.5000e+00	3.0000e+00	2.0000e+00	3.0000e+00	1.5000e+00	3.0000e+00	3.0000e+00	3.0000e+00	3.0000e+00	3.0000e+00	3.0000e+00	3.0000e+00	1.5000e+00	3.0000e+00	

B = Detector Channel
B-1	B-2	B-3	B-4	B-5	B-6	B-7	B-8	B-9	B-10	B-11	B-12	B-13	B-14	B-15	B-16	

1.0000e+01	1.0000e+01	1.0000e+01	1.4400e+00	1.0000e+01	1.0000e+01	1.5100e+00	1.9400e+00	1.0000e+01	1.0000e+01	1.9900e+00	2.4900e+00	2.4100e+00	2.9000e+00	1.0000e+01	2.9800e+00	




#DATA BEGINS
time	group	step	mark	flag	A-AC1	A-AC2	A-AC3	A-AC4	A-AC5	A-AC6	A-AC7	A-AC8	A-AC9	A-AC10	A-AC11	A-AC12	A-AC13	A-AC14	A-AC15	A-AC16	A-DC1	A-DC2	A-DC3	A-DC4	A-DC5	A-DC6	A-DC7	A-DC8	A-DC9	A-DC10	A-DC11	A-DC12	A-DC13	A-DC14	A-DC15	A-DC16	A-Ph1	A-Ph2	A-Ph3	A-Ph4	A-Ph5	A-Ph6	A-Ph7	A-Ph8	A-Ph9	A-Ph10	A-Ph11	A-Ph12	A-Ph13	A-Ph14	A-Ph15	A-Ph16	B-AC1	B-AC2	B-AC3	B-AC4	B-AC5	B-AC6	B-AC7	B-AC8	B-AC9	B-AC10	B-AC11	B-AC12	B-AC13	B-AC14	B-AC15	B-AC16	B-DC1	B-DC2	B-DC3	B-DC4	B-DC5	B-DC6	B-DC7	B-DC8	B-DC9	B-DC10	B-DC11	B-DC12	B-DC13	B-DC14	B-DC15	B-DC16	B-Ph1	B-Ph2	B-Ph3	B-Ph4	B-Ph5	B-Ph6	B-Ph7	B-Ph8	B-Ph9	B-Ph10	B-Ph11	B-Ph12	B-Ph13	B-Ph14	B-Ph15	B-Ph16	aux-1	digaux	

3214.337	1	1	0	256	0.21304	0.038654	0.055554	0.1484	0.12157	0.056635	0.20778	0.18443	0.11032	0.052033	0.031533	0.20384	0.080418	0.36404	0.18007	0.18224	-2.5375	-2.0417	-2.8063	-2.4146	-2.1042	-2.8646	-2.0542	-2.6208	-2.6458	-2.1479	-2.725	-2.4313	-2.0792	-3.0062	-2.3625	-2.4542	-12.942	158.740	162.147	259.485	167.141	1.465	107.350	265.466	68.532	111.160	223.719	-44.063	-40.801	283.871	23.056	226.139	0.00037938	0.00032057	9.5518e-05	477.48	2.5411e-06	3.7617e-06	400.68	195.04	3.5733e-06	2.235e-06	193.95	81.642	81.33	45.348	2.646e-06	45.049	0.001675	0.0028058	0.00078224	516.07	2.735e-05	3.1175e-05	432.55	211.55	2.7417e-05	3.1994e-05	210.13	88.853	88.931	49.548	2.8877e-05	49.098	86.103	50.192	40.876	-38.365	78.188	93.358	-39.564	-32.765	90.845	58.982	-35.490	-31.080	-28.315	-23.999	83.464	-27.874	-8191	255	
3214.433	1	1	0	0	0.11659	0.10518	0.076772	0.27564	0.088135	0.05749	0.20575	0.16634	0.13788	0.25298	0.11703	0.24214	0.20476	0.46241	0.11902	0.20914	-2.5229	-1.9875	-2.8812	-2.5708	-2.05	-2.875	-2.2271	-2.4354	-2.8396	-2.1375	-2.7188	-2.6521	-2.15	-3.1833	-2.4667	-2.3521	128.688	-35.366	267.364	307.277	39.061	114.103	18.573	286.103	47.653	-12.651	199.168	281.682	246.389	-30.445	46.464	271.407	0.00030979	0.0002045	0.00014656	477.81	6.7049e-06	4.3319e-06	396.65	193.81	2.8999e-06	4.2449e-06	189.8	79.737	79.953	44.344	3.1214e-06	44.148	0.0016765	0.0028037	0.00079165	513.41	2.705e-05	3.2312e-05	427.13	209.31	2.6871e-05	3.2047e-05	205.95	87.021	87.465	48.621	2.9415e-05	47.957	83.222	63.757	14.600	-38.612	99.069	70.515	-39.820	-32.731	82.064	152.859	-35.865	-31.216	-28.589	-23.792	111.605	-27.921	-8191	255	
3214.530	1	1	0	0	0.099784	0.095052	0.13746	0.089761	0.1435	0.22002	0.22201	0.036665	0.11839	0.081192	0.19672	0.056634	0.072445	0.059996	0.13255	0.090652	-2.7062	-1.7854	-2.5062	-2.675	-1.7625	-2.8563	-2.4354	-2.2083	-2.7625	-2.0583	-2.5438	-2.8625	-2.0042	-2.9542	-2.3833	-2.2875	265.742	304.039	-2.905	-31.334	154.479	83.871	270.974	133.651	96.396	194.933	120.675	257.260	17.214	-21.273	301.167	45.939	0.00030661	0.00059508	8.4714e-05	471.18	3.6522e-06	1.4676e-06	388.7	190.24	4.51e-06	3.3242e-06	187.17	78.683	78.375	43.406	3.9421e-06	43.564	0.0016554	0.0028557	0.00081118	508.47	2.7996e-05	3.2697e-05	422.66	205.92	2.7612e-05	3.2835e-05	203.17	85.809	85.944	47.696	2.983e-05	47.429	89.378	45.182	61.011	-38.637	88.942	87.919	-39.334	-32.959	127.391	81.541	-35.928	-31.108	-28.666	-23.893	63.018	-28.184	-8191	255	
3214.626	1	1	0	0	0.21913	0.17261	0.11892	0.12486	0.10941	0.049161	0.075028	0.22109	0.2039	0.19662	0.20417	0.17314	0.33267	0.19945	0.12905	0.24755	-2.4792	-2.1146	-2.2917	-2.7729	-1.9333	-2.8979	-2.4479	-1.9854	-2.8917	-2.1729	-2.5333	-2.8646	-2.0042	-2.7896	-2.6833	-2.1729	56.754	160.466	251.366	181.034	276.015	43.543	227.271	170.340	289.419	301.232	211.218	255.212	297.584	-4.624	105.820	222.332	0.0002603	0.00023373	0.00012312	467.72	4.8079e-06	5.327e-06	392.22	189.42	2.2567e-06	5.3847e-06	186.25	78.778	78.359	43.583	1.4659e-06	43.657	0.0016662	0.002875	0.00082424	503.88	2.7981e-05	3.2822e-05	421.48	204.55	2.7127e-05	3.2629e-05	202.69	85.784	85.714	47.694	2.9074e-05	47.632	85.726	40.449	31.750	-38.710	69.543	83.488	-39.841	-33.186	109.197	70.507	-35.921	-31.205	-28.486	-23.882	78.525	-28.322	-8191	255	
3214.722	1	1	0	0	0.14516	0.17952	0.12043	0.18895	0.052374	0.105	0.31523	0.088007	0.093099	0.34215	0.2129	0.26386	0.27039	0.15332	0.2209	0.21421	-2.55	-2.2854	-2.2167	-2.975	-2.0958	-2.675	-2.4958	-1.8104	-2.7417	-2.2896	-2.1771	-3.0062	-2.1021	-2.8083	-2.75	-2.0458	243.063	-9.421	299.817	-47.643	228.949	39.282	217.529	24.209	-19.045	233.365	-40.644	275.903	-20.037	243.734	235.071	136.243	0.0003099	0.00031528	6.3418e-05	472.58	3.8299e-06	3.9954e-06	397.06	190.96	4.1122e-06	5.2342e-06	190.3	80.216	79.616	44.417	4.8418e-06	44.269	0.0016372	0.0027672	0.00077988	508.3	2.6491e-05	3.1985e-05	427.84	207.52	2.6674e-05	3.2129e-05	206.77	87.42	87.309	48.637	2.8824e-05	48.26	86.402	26.422	33.079	-38.567	69.919	118.295	-39.515	-32.923	81.054	96.058	-35.859	-31.263	-28.245	-23.948	98.541	-28.068	-8191	255	
3214.818	1	1	0	0	0.067464	0.21043	0.051884	0.13244	0.023688	0.21574	0.16301	0.22211	0.18125	0.21002	0.26191	0.03364	0.13989	0.043249	0.22322	0.27875	-2.4708	-2.2729	-2.0979	-2.9813	-2.0625	-2.6708	-2.8438	-2.15	-2.8729	-2.3812	-2.3083	-2.8667	-2.1437	-2.5979	-2.7396	-2.0625	238.535	194.198	121.085	201.781	280.765	271.716	148.395	174.345	247.743	0.874	-36.886	-38.146	145.499	15.460	268.673	288.404	0.00026021	0.00034774	9.6483e-05	472.06	3.1656e-06	4.9541e-06	394.2	192.91	3.2618e-06	2.8264e-06	188.6	79.726	80.047	44.58	2.0258e-06	44.173	0.0016394	0.0027937	0.00078472	510.3	2.6704e-05	3.163e-05	425.65	208.71	2.6573e-05	3.1068e-05	205.88	86.989	87.696	48.774	2.8799e-05	48.24	92.468	17.827	62.916	-38.603	72.799	98.897	-39.764	-32.927	82.269	99.261	-35.772	-31.107	-28.635	-23.836	81.970	-28.092	-8191	255	
3214.914	1	1	0	0	0.17211	0.118	0.16353	0.23299	0.12513	0.26372	0.19985	0.12702	0.18244	0.18953	0.27948	0.38445	0.19452	0.3151	0.1356	0.21928	-2.4646	-2.4167	-2.0479	-2.8875	-2.4042	-2.2292	-2.8729	-2.0812	-2.6375	-2.6021	-2.1937	-3.0271	-2.3146	-2.3229	-2.9437	-2.3083	18.287	287.060	169.187	269.941	137.015	107.480	23.053	237.239	130.942	226.885	245.665	23.973	218.758	275.442	224.334	276.145	0.00034219	0.00037366	0.00013571	473.02	3.5558e-06	5.3683e-06	393.14	192.79	3.9459e-07	7.7639e-07	189.88	80.482	79.682	44.371	2.4445e-06	44.342	0.0016116	0.0027726	0.00078853	510.38	2.6392e-05	3.137e-05	426.06	208.62	2.6407e-05	3.0814e-05	206.35	87.438	87.324	48.521	2.7643e-05	48.216	72.554	24.873	45.996	-38.443	48.962	115.598	-39.658	-32.962	39.093	116.534	-35.782	-31.400	-28.622	-24.059	95.186	-28.195	-8191	255	
3215.033	1	1	0	0	0.23491	0.2039	0.0505	0.16421	0.26574	0.17242	0.1259	0.30088	0.07263	0.16685	0.23116	0.063282	0.060895	0.36103	0.18519	0.061739	-2.4479	-2.7062	-1.8667	-2.825	-2.3271	-2.1917	-3.0083	-2.3104	-2.6729	-2.6896	-1.7271	-2.9958	-2.3792	-2.2771	-2.8563	-2.1729	271.043	170.103	279.018	215.485	196.833	222.388	268.189	213.391	2.390	276.841	223.807	3.379	269.171	-50.224	220.486	240.180	0.00032562	0.0003132	7.7108e-05	474.01	2.6878e-06	4.1727e-06	394.76	190.62	1.5416e-06	3.1908e-06	188.87	79.739	78.836	43.874	2.089e-06	44.293	0.0015716	0.0026345	0.00076686	509.52	2.5503e-05	3.0592e-05	426.59	206.55	2.5204e-05	2.967e-05	205.76	87.021	86.386	47.95	2.7821e-05	48.097	85.869	34.069	6.792	-38.270	72.266	85.758	-39.586	-33.282	92.613	95.358	-35.877	-31.110	-28.523	-24.175	112.615	-28.130	-8191	255	
3215.129	1	1	0	0	0.0059572	0.13549	0.1676	0.18719	0.26	0.1544	0.14304	0.21815	0.15909	0.17638	0.13498	0.13322	0.32727	0.14344	0.14929	0.091924	-2.4021	-2.7729	-1.8229	-2.8167	-2.3667	-2.2896	-3.0938	-2.3333	-2.4375	-2.7167	-2.1562	-2.8438	-2.6375	-2.2208	-2.8187	-2.3854	28.315	25.603	136.711	117.747	196.634	16.719	206.347	246.657	212.294	-21.128	297.937	80.907	49.788	224.759	79.508	-33.747	0.0002802	0.0002625	7.2573e-05	468.31	3.6463e-06	2.1417e-06	391.78	187.09	3.0094e-06	1.8506e-06	185.18	77.838	76.542	42.168	3.4435e-06	42.748	0.0015691	0.0026446	0.00076095	504.09	2.5823e-05	3.08e-05	422.84	202.44	2.5389e-05	2.9696e-05	201.44	84.825	83.68	46.231	2.732e-05	46.551	79.117	25.635	32.630	-38.445	108.190	103.493	-39.797	-33.113	65.359	126.162	-35.727	-31.297	-28.612	-24.134	77.453	-28.042	-8191	255	
3215.201	1	1	0	0	0.22793	0.069846	0.24845	0.098006	0.25905	0.18143	0.1835	0.2168	0.22491	0.19724	0.16832	0.12353	0.15992	0.24831	0.060031	0.055943	-1.8417	-2.7146	-2.0333	-2.7646	-2.45	-1.9646	-2.9958	-2.2562	-2.3042	-2.9604	-2.1813	-2.6917	-2.7333	-2.0438	-2.9208	-2.2667	113.241	143.423	203.811	68.527	174.982	8.068	298.409	178.076	4.968	26.908	160.029	86.912	7.156	304.583	269.117	81.840	0.0002684	0.00039938	0.00012681	461.92	3.0338e-06	2.7884e-06	383.94	181.98	1.0803e-06	3.7308e-06	181.56	76.077	74.405	41.155	2.4199e-06	41.833	0.0015256	0.0026099	0.000738	496.05	2.4936e-05	2.9842e-05	415.06	197.17	2.4962e-05	2.9981e-05	196.15	82.819	81.472	44.965	2.6225e-05	45.54	81.896	38.890	20.764	-38.633	107.099	132.870	-39.647	-33.098	2.430	89.140	-36.054	-31.014	-28.449	-23.857	124.033	-28.040	-8191	255	
3215.297	1	1	0	0	0.1019	0.21145	0.16336	0.2427	0.1315	0.091691	0.16418	0.26749	0.068527	0.30686	0.2883	0.29708	0.22823	0.21196	0.17287	0.21435	-2.0521	-2.9062	-2.2021	-2.8667	-2.5917	-2.0854	-2.7979	-2.4292	-2.2771	-2.7938	-2.125	-2.5271	-2.8563	-1.9583	-2.8354	-2.4313	89.672	188.968	173.355	201.093	218.213	74.785	256.763	-45.016	64.093	184.382	282.190	234.495	-17.124	266.698	233.133	34.415	0.00026007	0.00037998	9.6373e-05	458.36	1.9724e-06	4.6927e-06	386.51	182.88	2.5209e-06	1.4483e-06	183.82	77.712	76.379	42.315	4.6727e-06	43.418	0.0015305	0.0025196	0.0007271	493.63	2.4434e-05	2.8809e-05	416.75	197.73	2.4219e-05	2.8342e-05	199.37	84.526	83.328	46.264	2.5043e-05	47.076	87.810	28.217	39.131	-38.486	117.379	93.737	-39.464	-33.258	133.513	115.396	-36.112	-31.344	-28.708	-23.846	77.580	-28.177	-8191	255	
3215.418	1	1	0	0	0.20102	0.14847	0.060403	0.15671	0.12021	0.039973	0.22393	0.14007	0.16789	0.31544	0.076192	0.10761	0.098316	0.34218	0.23113	0.22009	-1.7042	-2.9729	-2.375	-2.625	-2.8146	-2.0417	-3.0771	-2.5583	-2.1896	-3.0125	-2.2917	-2.3271	-2.95	-2.225	-2.7125	-2.6875	87.456	190.879	97.994	147.625	118.077	74.676	247.897	93.253	146.934	268.714	96.654	110.101	278.215	219.180	282.925	117.523	0.00029596	0.00034189	0.00012391	468.88	2.6741e-06	1.9213e-06	396.48	189.69	4.7391e-06	3.4101e-06	189.71	80.872	79.506	44.147	1.8638e-06	45.182	0.0014689	0.0024398	0.00069451	503.97	2.3189e-05	2.7917e-05	426.97	204.77	2.3553e-05	2.7328e-05	206.61	87.776	86.742	48.213	2.4783e-05	49.009	81.243	28.866	60.747	-38.463	120.555	51.292	-39.311	-33.224	65.200	117.083	-36.017	-31.208	-28.566	-23.999	113.801	-28.174	-8191	255	
3215.514	1	1	0	0	0.18331	0.19835	0.21951	0.44269	0.12176	0.037222	0.081029	0.33326	0.26566	0.09306	0.077071	0.074066	0.24248	0.26934	0.072008	0.16533	-1.7667	-2.8	-2.05	-2.3958	-3.025	-2.1708	-2.8438	-2.5354	-1.9417	-2.8667	-2.6042	-2.3167	-2.9562	-2.1396	-2.675	-2.875	69.965	242.059	16.978	28.501	286.358	143.591	290.998	233.184	284.305	287.376	-9.412	-2.406	245.455	234.424	24.286	246.589	0.00030547	0.00043907	0.00012256	478.28	6.5613e-07	3.986e-06	401.25	192.83	1.9327e-06	3.2682e-06	191.86	81.124	79.548	44.183	1.2526e-06	44.765	0.0014787	0.0024129	0.00069006	514.16	2.3325e-05	2.8094e-05	432.43	208.5	2.4111e-05	2.7253e-05	208	87.956	87.031	48.315	2.5038e-05	48.63	78.618	42.066	58.209	-38.524	74.907	121.704	-39.691	-33.104	123.685	114.001	-35.783	-31.039	-28.314	-24.022	120.215	-28.104	-8191	255	
3215.610	1	1	0	0	0.098051	0.17017	0.28183	0.40084	0.1197	0.19781	0.10281	0.074435	0.22379	0.39462	0.23566	0.059594	0.19757	0.11572	0.041691	0.052916	-1.5417	-2.8083	-2.5312	-2.1167	-2.95	-1.9271	-2.6604	-2.6896	-1.9792	-2.8104	-2.5771	-2.025	-3.0271	-2.3042	-2.5896	-2.9688	-7.608	37.410	-18.858	219.763	196.481	286.034	33.182	-22.865	17.931	289.844	-0.806	262.625	264.565	256.805	197.998	106.598	0.00034033	0.00027377	0.00013436	475.68	5.63e-06	3.8863e-06	398.92	191.81	2.2141e-06	5.4426e-06	191.11	80.732	79.793	44.07	4.2089e-07	44.43	0.0014712	0.0023955	0.00068243	512.05	2.3542e-05	2.773e-05	429.58	207.82	2.3983e-05	2.776e-05	207.37	87.765	86.876	48.212	2.6071e-05	48.408	79.609	58.107	18.928	-38.374	92.032	108.395	-39.631	-33.046	69.719	81.469	-35.539	-31.182	-28.184	-23.874	151.299	-28.122	-8191	255	
3215.731	1	1	0	0	0.16284	0.044981	0.09195	0.21208	0.10843	0.16868	0.084325	0.11508	0.11012	0.1096	0.092461	0.083123	0.18229	0.24823	0.12956	0.21833	-1.725	-2.9583	-2.4813	-2.1583	-2.9896	-2.1521	-2.4979	-2.8688	-2.075	-2.8187	-2.6479	-2.1375	-2.9813	-2.2854	-2.2812	-3.1813	72.401	279.750	272.308	105.485	277.995	26.800	100.978	236.799	178.233	83.115	287.106	116.068	-0.025	246.843	-4.854	-38.801	0.00034437	0.00045787	8.9672e-05	471.02	4.3975e-06	3.8919e-06	397.73	188.14	9.9569e-07	3.0915e-06	187.88	78.939	77.002	42.343	2.5536e-06	43.436	0.0014861	0.0024516	0.00070164	507.58	2.4095e-05	2.847e-05	427.83	203.82	2.3776e-05	2.8348e-05	203.39	85.902	84.006	46.394	2.5814e-05	47.145	82.855	45.945	43.388	-38.293	82.271	105.054	-39.398	-33.139	266.897	104.980	-35.918	-31.482	-28.468	-23.899	111.273	-28.090	-8191	255	
3215.827	1	1	0	0	0.093463	0.13912	0.15936	0.19492	0.17996	0.11017	0.046574	0.19039	0.19648	0.11837	0.092929	0.094251	0.16687	0.28781	0.21463	0.087146	-1.8542	-2.6375	-2.6917	-2.0833	-2.925	-2.3854	-2.1937	-3.1292	-2.0438	-2.6854	-2.6875	-1.9167	-2.8521	-2.5896	-2.2208	-3.2292	235.802	232.270	15.563	-30.729	-4.029	29.910	298.597	277.692	272.086	260.624	102.321	41.209	226.448	236.957	135.308	270.482	0.00031245	0.0003862	8.1103e-05	464.8	1.6463e-06	3.5145e-06	389.82	182.35	2.9937e-06	4.3981e-06	183.85	76.752	74.438	40.858	4.9406e-06	42.324	0.0014557	0.0024231	0.00070104	500.12	2.3187e-05	2.8193e-05	421.97	197.41	2.4217e-05	2.8461e-05	199.05	83.73	81.384	44.753	2.6851e-05	46.198	93.640	36.789	57.229	-38.608	31.502	104.573	-39.680	-33.125	106.744	87.449	-36.255	-31.397	-28.572	-24.243	81.468	-28.346	-8191	255	
3215.898	1	1	0	0	0.15137	0.18325	0.16558	0.15651	0.094684	0.25723	0.074755	0.028957	0.039324	0.13396	0.31649	0.19998	0.22725	0.071502	0.1541	0.36702	-1.8229	-2.55	-2.5375	-1.9458	-2.8479	-2.5396	-2.2083	-3.025	-2.3271	-2.6354	-2.8937	-2.0062	-2.6188	-2.6396	-2.1833	-2.9833	298.505	20.568	281.960	204.724	-19.506	237.452	206.423	128.304	99.264	295.553	139.863	131.258	200.738	205.369	185.169	296.633	0.00036479	0.00028604	8.3874e-05	456.96	2.6031e-06	3.7738e-06	383.18	178.3	4.2827e-06	2.7542e-06	179.04	75.046	73.026	40.111	5.1798e-07	41.389	0.001533	0.002516	0.00071644	492.23	2.4219e-05	2.9517e-05	414.51	192.94	2.4956e-05	3.0001e-05	194.08	81.656	79.827	43.863	2.7158e-05	44.944	90.402	22.520	40.859	-38.629	89.295	100.798	-39.701	-33.220	69.954	125.626	-36.012	-31.140	-28.548	-24.187	91.723	-28.269	-8191	255	
3216.017	1	1	0	0	0.13974	0.22485	0.10058	0.10674	0.22605	0.19125	0.26418	0.064666	0.06358	0.24085	0.15583	0.1118	0.10174	0.15176	0.19244	0.014459	-1.9375	-2.3896	-2.9104	-2.0479	-2.8979	-2.4104	-2.1042	-3.2271	-2.3063	-2.4021	-2.8771	-2.0896	-2.6625	-2.8667	-2.0812	-3.0125	214.325	33.005	46.852	287.779	51.263	-20.917	240.586	96.500	92.303	-40.885	214.674	129.380	215.443	217.441	3.327	197.086	0.00030783	0.0002858	0.00011188	455.17	3.646e-06	3.4904e-06	382.66	179.15	5.9196e-06	4.1331e-06	180.56	76.075	74.298	41.394	2.2707e-06	42.628	0.0015365	0.0026026	0.00073177	489.83	2.4596e-05	2.8952e-05	413.66	194.06	2.4667e-05	2.9037e-05	196.11	82.751	81.48	45.174	2.5683e-05	46.275	90.603	34.826	62.330	-38.790	58.152	134.452	-39.841	-33.166	94.941	80.409	-35.890	-31.442	-28.309	-24.068	138.950	-28.230	-8191	255	
3216.113	1	1	0	0	0.16659	0.2226	0.13763	0.078019	0.14773	0.12326	0.2607	0.20257	0.2149	0.056695	0.27928	0.21766	0.31606	0.12496	0.11296	0.12636	-2.0062	-2.0187	-2.9271	-2.1854	-2.6625	-2.6625	-2.2667	-2.8792	-2.4958	-2.1458	-3.0979	-2.25	-2.5917	-2.7438	-2.0104	-2.8812	286.126	82.243	231.324	57.506	229.479	199.714	248.750	307.579	245.583	196.754	83.589	265.601	235.317	-22.793	-26.963	176.320	0.00027544	0.0003349	0.00011117	465.15	2.4341e-06	2.4512e-06	394.74	188.51	3.1662e-06	3.5267e-06	190.01	80.213	78.81	43.607	1.8535e-06	44.501	0.0014851	0.0025518	0.00070569	501.43	2.3998e-05	2.8566e-05	425.33	204.18	2.4039e-05	2.8842e-05	205.75	87.049	86.051	47.79	2.6726e-05	48.448	92.687	50.903	60.169	-38.609	69.909	77.418	-39.630	-33.205	177.277	133.679	-35.888	-30.970	-28.461	-24.128	104.147	-27.793	-8191	255	
3216.210	1	1	0	0	0.070418	0.13181	0.017104	0.16035	0.054591	0.21881	0.26534	0.22773	0.24711	0.18931	0.097632	0.072646	0.053813	0.21019	0.12485	0.033945	-2.0521	-2.0687	-2.8812	-2.1562	-2.6104	-2.7854	-2.1208	-2.8146	-2.4771	-2.2188	-2.9792	-2.1	-2.4625	-2.7542	-1.9583	-3.0125	-22.934	168.436	-5.941	5.296	152.530	138.067	265.038	213.775	281.963	174.232	-11.117	59.449	2.879	269.771	38.256	210.430	0.00033218	0.00044268	0.00010391	474.82	2.7248e-06	4.5661e-06	403.5	193.08	2.6632e-06	4.9293e-06	193.01	81.573	80.179	44.651	2.8409e-06	45.141	0.0015187	0.0025777	0.00071945	512.11	2.424e-05	2.8812e-05	434.13	208.64	2.4394e-05	2.9348e-05	209.48	88.923	87.623	48.795	2.664e-05	49.237	83.492	30.846	49.528	-38.539	74.909	128.725	-39.522	-33.133	128.975	105.872	-35.821	-31.249	-28.404	-23.930	131.374	-27.663	-8191	255	
3216.330	1	1	0	0	0.083408	0.043194	0.04014	0.158	0.23456	0.19698	0.17909	0.21435	0.24862	0.15667	0.26195	0.10915	0.12844	0.10359	0.21765	0.15687	-2.1917	-1.9333	-2.8229	-2.3875	-2.3104	-2.9625	-2.2812	-2.8292	-2.6688	-2.0417	-3.0021	-2.3375	-2.3312	-3.0292	-2.0333	-2.6417	274.331	-1.999	28.243	259.421	271.738	-32.316	261.854	248.828	126.799	303.678	34.767	-15.860	300.711	-4.859	105.647	184.946	0.00030226	0.00021286	7.9679e-05	477.66	3.0293e-06	2.6081e-06	402.52	193.44	2.1139e-06	2.8732e-06	192.31	80.844	79.916	44.434	3.2867e-06	44.92	0.0015307	0.0025267	0.00070846	514.15	2.4751e-05	2.9452e-05	432.76	209	2.503e-05	2.9254e-05	208.65	88.211	87.582	48.649	2.6886e-05	48.845	86.348	30.697	50.972	-38.483	86.719	92.632	-39.733	-33.164	87.413	109.322	-35.412	-31.242	-28.325	-23.770	97.972	-27.932	-8191	255	
3216.426	1	1	0	0	0.26493	0.25463	0.24656	0.063306	0.046395	0.11473	0.34281	0.24122	0.22035	0.077537	0.18124	0.063219	0.13097	0.091272	0.23498	0.21232	-2.375	-2.1021	-2.8354	-2.475	-2.0479	-3.0187	-2.2083	-2.6208	-2.8542	-2.0667	-2.7979	-2.4833	-2.1937	-2.8833	-2.2271	-2.4979	247.000	185.506	-4.908	191.413	40.449	252.820	300.018	140.649	160.693	167.688	35.740	197.499	114.338	229.373	238.075	291.205	0.00036881	0.00041821	7.914e-05	472.99	3.5685e-06	4.4803e-06	397.08	191.65	6.1541e-06	3.2553e-06	190.66	80.205	78.554	43.36	2.5608e-06	44.005	0.0015567	0.0026844	0.00073858	510.91	2.5342e-05	2.9611e-05	429.46	207.39	2.5193e-05	2.9724e-05	206.44	87.163	85.948	47.585	2.7198e-05	47.914	86.060	60.166	38.368	-38.920	58.174	102.712	-39.370	-32.904	92.623	110.876	-35.900	-31.552	-28.458	-24.219	91.854	-28.166	-8191	255	
3216.498	1	1	0	0	0.33747	0.11063	0.21268	0.30534	0.23947	0.088564	0.15701	0.10864	0.21312	0.0779	0.10343	0.22541	0.15951	0.16117	0.016021	0.14266	-2.5146	-1.8854	-2.65	-2.6271	-2.1875	-2.825	-2.0583	-2.5521	-2.7792	-2.0687	-2.75	-2.6229	-2.1792	-3.0354	-2.2208	-2.5042	203.048	104.652	285.594	268.318	-44.137	241.631	213.992	164.924	197.394	61.395	5.885	28.746	306.850	256.818	190.080	295.265	0.00030108	0.00026033	0.00011683	467.11	3.0424e-06	2.3934e-06	392.14	186.08	3.6316e-06	2.8402e-06	184.35	77.787	75.644	41.773	2.596e-06	42.641	0.0015558	0.0026289	0.00074432	502.39	2.5541e-05	2.9546e-05	423.35	200.62	2.5932e-05	3.0334e-05	200.47	84.686	82.797	45.696	2.7716e-05	46.508	88.906	6.558	19.757	-38.693	99.794	113.871	-39.795	-33.319	86.801	87.874	-35.894	-31.298	-28.642	-24.082	115.486	-28.167	-8191	255	
3216.594	1	1	0	0	0.14431	0.23716	0.37154	0.096339	0.21069	0.0843	0.24773	0.26695	0.1304	0.031637	0.075255	0.23743	0.15872	0.010618	0.11343	0.151	-2.3667	-1.9042	-2.6333	-2.75	-1.9104	-2.8937	-2.4104	-2.3042	-2.8292	-2.0417	-2.8229	-2.6479	-1.9833	-3.0542	-2.4667	-2.3792	293.417	-18.695	180.458	204.274	255.443	146.998	235.096	267.549	-19.273	285.206	275.182	43.803	-42.909	300.749	116.184	176.303	0.00025977	0.00023722	4.2716e-05	457.82	3.9608e-06	4.2548e-06	386.22	179.7	1.6782e-06	2.7959e-06	180.25	75.46	72.85	40.312	3.3671e-06	41.478	0.0015981	0.0026766	0.00075232	493.47	2.5874e-05	3.0195e-05	417.3	194.35	2.5302e-05	3.0557e-05	196.32	82.371	79.908	43.982	2.8011e-05	45.082	82.410	44.297	39.593	-38.539	116.879	80.436	-39.759	-33.264	87.658	115.162	-35.917	-31.384	-28.721	-24.015	69.856	-28.193	-8191	255	
3216.715	1	1	0	0	0.15058	0.22839	0.057846	0.17184	0.24543	0.25551	0.10715	0.087016	0.21383	0.14354	0.13167	0.23063	0.14309	0.13001	0.16421	0.066258	-2.7125	-2.1208	-2.5083	-2.7646	-2.0833	-2.8688	-2.5646	-2.5125	-3.0417	-2.1917	-2.6083	-3.0646	-2.0187	-2.7812	-2.625	-2.05	96.130	164.044	237.227	-0.757	35.137	197.310	48.051	210.504	114.111	-33.892	146.016	198.246	-32.863	38.854	288.678	238.749	0.0003273	9.6124e-05	0.0001254	449.73	2.4614e-06	1.2217e-06	378.82	174.44	2.1352e-06	2.7556e-06	176.29	73.874	72.012	39.711	2.4691e-06	41.15	0.0015703	0.0027257	0.00076644	484.77	2.5753e-05	3.0294e-05	408.6	189.37	2.5279e-05	2.9742e-05	191.11	80.571	78.537	43.426	2.7229e-05	44.71	89.823	82.396	49.107	-38.707	135.200	92.047	-39.808	-33.464	22.178	113.091	-35.834	-31.541	-28.638	-24.174	84.493	-28.201	-8191	255	
3216.811	1	1	0	0	0.068257	0.17294	0.13429	0.095902	0.12135	0.21827	0.097347	0.21918	0.13759	0.25841	0.19705	0.16185	0.25759	0.46418	0.28564	0.13774	-2.4396	-2.1708	-2.2833	-2.8396	-1.9708	-2.6896	-2.5021	-2.1458	-2.9	-2.2	-2.4167	-3.0896	-2.2042	-2.6979	-2.6208	-2.1979	166.900	34.413	-2.862	-5.272	130.444	294.985	140.380	14.159	198.856	24.297	283.152	-44.047	293.814	214.916	72.580	197.986	0.00028099	0.00034255	0.00012687	453.9	3.3801e-06	5.7723e-06	382.21	179.61	4.7702e-06	3.8159e-06	182.26	77.056	75.495	41.926	2.5579e-06	43.002	0.0015198	0.002605	0.00073158	488.09	2.4947e-05	2.9307e-05	413.26	194.72	2.4233e-05	2.9036e-05	198.25	83.629	82.505	45.885	2.6455e-05	46.899	88.024	38.756	41.929	-38.802	74.572	109.921	-39.794	-33.286	78.219	113.982	-35.743	-31.394	-28.485	-23.847	104.445	-27.966	-8191	255	
3216.907	1	1	0	0	0.15862	0.072936	0.13593	0.049049	0.18717	0.15989	0.10287	0.21146	0.027919	0.040374	0.14139	0.12531	0.14914	0.046364	0.2609	0.1757	-2.4604	-2.3167	-2.2333	-2.8563	-1.9937	-2.6521	-2.6979	-2.0646	-2.875	-2.1771	-2.3187	-2.8458	-2.0208	-2.7396	-2.6437	-2.0125	-40.560	-29.090	-11.234	-12.359	38.423	276.188	126.696	244.404	-3.301	20.337	116.141	287.029	240.473	190.565	143.635	303.110	0.0002492	0.00035424	0.0001441	467.82	2.1662e-06	4.8762e-06	396.42	189.36	5.63e-06	2.7559e-06	191.37	80.717	79.293	44.215	3.4462e-06	45.234	0.0015043	0.0025712	0.00072424	503.47	2.4165e-05	2.9035e-05	427.71	205.04	2.4759e-05	2.8853e-05	207.79	87.884	86.823	48.395	2.6691e-05	49.15	74.281	16.264	28.314	-38.685	112.886	65.483	-39.648	-32.919	103.503	71.881	-35.985	-31.272	-28.528	-23.913	135.661	-27.944	-8191	255	
3217.002	1	1	0	0	0.030953	0.078315	0.12485	0.076588	0.099937	0.16745	0.10529	0.24135	0.15142	0.22567	0.13991	0.14373	0.11853	0.052583	0.17148	0.13692	-2.5479	-2.4521	-2.1875	-3.0042	-2.2333	-2.6417	-3.0542	-1.9292	-2.9875	-2.5604	-2.1604	-2.9917	-2.2229	-2.4083	-2.875	-2.1271	154.586	124.958	171.975	171.354	87.395	111.877	245.879	262.994	161.007	-37.878	73.604	306.229	65.726	-47.637	116.193	297.674	0.00037744	0.00020462	7.1625e-05	476.59	3.7513e-06	2.476e-06	401.93	192.15	2.7256e-06	1.8829e-06	192.48	81.057	79.182	44.097	3.884e-06	44.633	0.0015366	0.0025648	0.00074269	512.93	2.4814e-05	2.9727e-05	432.93	208.12	2.4697e-05	2.9091e-05	208.95	88.221	86.648	48.238	2.6939e-05	48.515	85.714	42.489	29.913	-38.602	69.636	71.300	-39.633	-33.185	104.691	87.161	-35.672	-31.025	-28.398	-23.968	117.247	-28.128	-8191	255	
3217.099	1	1	0	0	0.32759	0.1815	0.10339	0.12682	0.077991	0.15887	0.09854	0.2078	0.063165	0.1777	0.10087	0.081685	0.15767	0.25402	0.099664	0.17991	-2.3563	-2.4188	-2.0604	-2.8542	-2.125	-2.3417	-2.8042	-2.1708	-2.7875	-2.5104	-2.2667	-2.8812	-2.4896	-2.3042	-2.85	-2.3312	70.356	220.301	-46.996	79.018	158.593	68.793	61.110	159.655	-47.471	222.364	294.077	202.537	94.041	-47.204	145.292	192.482	0.00032334	0.00018529	0.00013506	469.83	2.5196e-06	4.3657e-06	390.59	185.74	3.5799e-06	3.1546e-06	185.1	77.582	75.19	41.796	3.164e-06	42.598	0.0015575	0.0025857	0.00074214	504.87	2.5039e-05	2.9833e-05	422.94	201.01	2.4905e-05	2.9614e-05	200.07	84.348	82.554	45.771	2.6708e-05	46.385	77.036	11.930	53.900	-38.724	117.475	136.625	-39.517	-33.025	45.195	129.337	-35.960	-31.398	-28.592	-23.913	138.798	-28.051	-8191	255	
3217.194	1	1	0	0	0.21873	0.12057	0.24919	0.15618	0.053448	0.28057	0.13111	0.3018	0.14439	0.077891	0.11943	0.14377	0.36162	0.16444	0.16125	0.22703	-2.2104	-2.6937	-1.9854	-2.875	-2.4396	-2.3042	-2.8	-2.2896	-2.5646	-2.7917	-2.1417	-2.8812	-2.4062	-2.4479	-2.8125	-2.1854	235.822	124.370	80.409	201.928	268.788	288.777	175.462	232.658	251.190	262.295	153.098	87.574	52.074	12.719	269.176	99.549	0.00034721	0.00034606	9.6547e-05	459.42	3.4404e-06	1.8769e-06	387.18	181.16	2.1815e-06	4.2122e-06	181.66	75.851	73.445	40.606	2.2103e-06	41.607	0.0015558	0.0026405	0.0007528	495.08	2.5413e-05	3.0183e-05	417.45	195.83	2.5486e-05	3.0132e-05	196.87	82.673	80.546	44.422	2.7209e-05	45.375	83.291	46.767	17.578	-38.640	79.760	84.071	-39.725	-33.301	79.122	100.364	-35.809	-31.333	-28.660	-24.020	53.631	-28.069	-8191	255	
3217.290	1	1	0	0	0.11129	0.18748	0.27405	0.14559	0.1562	0.20144	0.050367	0.21058	0.095748	0.13954	0.25973	0.07998	0.11697	0.21966	0.20361	0.050631	-2.0958	-2.8063	-2.0521	-2.7188	-2.6354	-2.1354	-3.0271	-2.2667	-2.3917	-2.6979	-1.9917	-2.9229	-2.5229	-2.2938	-2.8667	-2.475	298.642	2.576	113.491	-5.680	294.920	299.641	90.176	175.153	116.316	18.946	50.969	235.793	263.501	244.818	213.656	-40.797	0.00024798	0.0003958	0.00011646	454.72	2.3112e-06	4.1418e-06	387.02	179.19	2.2348e-06	3.8247e-06	182.3	76.681	74.523	41.124	2.001e-06	42.832	0.0015575	0.0026692	0.00075626	490.65	2.4951e-05	3.0139e-05	416.76	194.46	2.5075e-05	2.9248e-05	197.35	83.258	81.378	45.051	2.605e-05	46.474	91.627	53.944	33.741	-38.720	56.272	100.745	-39.724	-33.293	96.465	96.439	-36.005	-31.387	-28.608	-24.056	24.432	-28.037	-8191	255	
3217.411	1	1	0	0	0.11365	0.13312	0.22322	0.033475	0.32079	0.18429	0.092458	0.1947	0.14644	0.064478	0.10596	0.1664	0.16629	0.21863	0.058884	0.35869	-1.8854	-2.9437	-1.9438	-2.7271	-2.4604	-2.0125	-3.1	-2.4542	-2.2229	-2.9479	-2.2812	-2.7854	-2.8104	-2.2375	-3.0521	-2.4208	303.491	77.795	243.933	17.517	35.231	85.886	-29.589	127.908	245.353	-2.641	-13.932	243.862	-12.241	-11.775	47.822	-40.290	0.00029529	0.00032672	0.00011125	463.9	4.9232e-06	3.1577e-06	391.51	184.69	3.1079e-06	3.2624e-06	185.75	78.398	76.902	42.701	1.3608e-06	43.765	0.0015369	0.0025101	0.00071911	498.87	2.3988e-05	2.8813e-05	422.41	199.79	2.4061e-05	2.8281e-05	201.87	85.402	83.975	46.777	2.5368e-05	47.612	83.406	11.016	31.423	-38.600	104.266	127.097	-39.753	-33.492	81.238	85.679	-35.434	-31.150	-28.789	-23.946	142.253	-28.250	-8191	255	
3217.507	1	1	0	0	0.33245	0.35319	0.3347	0.10021	0.079718	0.17131	0.13926	0.17392	0.3066	0.33752	0.23238	0.071908	0.10147	0.30474	0.12958	0.26761	-1.8417	-3.0208	-2.1625	-2.7458	-2.9979	-1.975	-2.7875	-2.4979	-2.1521	-2.8438	-2.2146	-2.5854	-2.6188	-2.2958	-2.825	-2.4917	-4.260	78.701	118.408	146.535	146.246	286.742	177.582	-47.376	107.759	-3.141	241.000	264.812	-20.019	224.508	74.630	218.074	0.00029624	0.00017487	0.00010929	470.3	2.3604e-06	4.6435e-06	395.6	190.68	3.9004e-06	3.783e-06	190.14	80.291	79.367	43.807	3.9914e-06	44.733	0.0014972	0.0024988	0.0007028	506.64	2.4157e-05	2.9388e-05	427.14	205.81	2.4582e-05	2.849e-05	205.9	87.16	86.575	48.135	2.6586e-05	48.599	95.257	23.203	62.312	-38.437	123.872	93.368	-39.530	-33.008	103.604	133.027	-35.862	-31.311	-28.825	-24.046	78.825	-28.352	-8191	255	
3217.603	1	1	0	0	0.13181	0.20064	0.11111	0.29814	0.076252	0.093968	0.094823	0.20967	0.09225	0.21781	0.25475	0.20547	0.087689	0.081596	0.042457	0.36548	-1.7292	-2.9542	-2.2958	-2.3083	-2.7958	-2.1271	-3.0292	-2.75	-2.2458	-2.9104	-2.3021	-2.4208	-2.9417	-2.3187	-2.7667	-2.7083	2.236	223.477	224.556	-36.555	144.047	271.011	-16.252	-22.510	295.798	303.193	307.401	223.933	256.349	29.855	284.937	263.098	0.00027289	0.00038897	0.00016522	478.33	2.7837e-06	5.7473e-06	402.92	192.76	4.5212e-06	5.4313e-06	191.82	81.034	79.403	44.072	3.3517e-06	44.63	0.0015382	0.0024999	0.00071103	514.4	2.3989e-05	2.967e-05	433.27	208.91	2.4781e-05	2.8349e-05	208.46	87.898	86.748	48.171	2.5956e-05	48.551	83.289	25.328	2.929	-38.532	98.651	106.288	-39.253	-33.073	84.980	115.945	-35.456	-31.282	-28.664	-23.982	84.294	-28.096	-8191	255	
3217.699	1	1	0	0	0.23369	0.1435	0.10618	0.26055	0.25188	0.30157	0.05396	0.15002	0.12762	0.1624	0.13549	0.11323	0.0065048	0.20152	0.071393	0.27378	-1.525	-2.7479	-2.2125	-2.5354	-2.9833	-2.1625	-2.85	-2.8958	-2.0979	-2.8812	-2.45	-2.2167	-3.0438	-2.2062	-2.6229	-2.9562	197.576	192.618	14.063	0.523	-1.391	299.954	27.228	-13.178	88.871	132.618	97.556	-45.877	128.887	257.932	1.643	250.090	0.00034144	0.0004245	0.00013071	469.35	2.6747e-06	2.6337e-06	397.04	188.06	2.164e-06	3.509e-06	187.08	79.042	75.977	42.067	3.7705e-06	43.188	0.0015252	0.0025321	0.00072104	507.14	2.4259e-05	2.9111e-05	429.28	203.6	2.4321e-05	2.8225e-05	203.51	85.891	83.592	46.152	2.6424e-05	46.983	83.914	43.978	7.733	-38.352	86.753	121.326	-39.466	-33.065	102.469	78.274	-36.028	-31.319	-28.588	-24.199	90.720	-28.462	-8191	255	
3217.795	1	1	0	0	0.20488	0.19526	0.094147	0.37109	0.13648	0.12971	0.13785	0.44203	0.17178	0.2318	0.30232	0.3451	0.021402	0.19516	0.23809	0.071955	-1.6271	-2.9729	-2.4688	-2.3	-3.0062	-2.1479	-2.5687	-2.9104	-2.1312	-2.875	-2.5479	-2.2	-3.0708	-2.3021	-2.4583	-2.9833	44.418	258.870	270.204	284.913	169.693	122.344	-34.654	261.718	-33.334	-31.191	159.794	236.600	52.923	-22.521	110.694	178.748	0.00031299	0.00034093	0.00011586	458.86	1.4773e-06	3.7344e-06	387.56	180.14	2.5991e-06	3.4623e-06	180.42	75.957	73.719	40.52	2.0327e-06	41.531	0.0015191	0.0025785	0.00072659	494.7	2.4823e-05	2.9806e-05	417.92	195.01	2.514e-05	2.9466e-05	195.96	82.452	80.422	44.396	2.7405e-05	45.391	79.314	42.755	52.669	-38.481	51.268	80.135	-39.697	-33.416	24.712	104.779	-36.256	-31.457	-28.585	-24.270	90.999	-28.282	-8191	255	
3217.891	1	1	0	0	0.053096	0.18319	0.21148	0.16272	0.27068	0.27498	0.26517	0.35393	0.097377	0.15329	0.12426	0.14768	0.12685	0.089177	0.13161	0.049732	-1.6417	-2.7667	-2.7438	-2.2042	-3.1104	-2.2812	-2.5	-2.7708	-2.1625	-3.0167	-2.6542	-2.0812	-3.25	-2.1708	-2.2417	-2.9896	188.471	-49.815	210.617	-21.597	305.484	49.737	283.842	235.609	223.702	291.253	2.178	291.413	59.356	9.023	167.695	50.199	0.00031892	0.00040047	0.00010627	455.82	2.3701e-06	2.5425e-06	386.14	180.73	1.7616e-06	2.1835e-06	182.23	76.116	74.94	41.399	3.98e-06	42.471	0.0015324	0.0025501	0.00071707	491.32	2.4832e-05	2.9289e-05	415.31	195.39	2.4489e-05	2.8894e-05	197.36	83.107	81.771	45.336	2.5737e-05	46.283	89.682	25.843	36.293	-38.960	73.185	85.094	-39.680	-33.118	98.859	93.083	-35.808	-31.550	-28.901	-24.032	57.118	-28.312	-8191	255	
3217.988	1	1	0	0	0.13889	0.076084	0.068315	0.11347	0.081033	0.061628	0.15474	0.050288	0.17552	0.18218	0.16833	0.2003	0.14507	0.17726	0.1062	0.40253	-1.625	-2.5833	-2.7083	-2.1292	-3.0354	-2.3042	-2.4292	-2.9	-2.2313	-2.6083	-2.8229	-2.1958	-3	-2.5417	-2.2083	-3.1167	270.791	-38.685	23.472	211.968	52.235	108.331	-43.698	211.407	285.908	16.323	18.723	281.827	226.814	-2.026	116.681	223.156	0.00028314	0.00024194	6.188e-05	463.18	4.6425e-06	3.6567e-06	392.22	186.01	7.6743e-07	3.9063e-06	187.35	78.892	77.245	42.639	4.6628e-06	43.707	0.0014638	0.0024432	0.00068325	499.62	2.3312e-05	2.8279e-05	423.31	201.7	2.3245e-05	2.7747e-05	202.93	85.499	84.392	46.698	2.4963e-05	47.61	93.312	35.497	58.758	-38.722	74.136	97.321	-40.430	-33.853	83.292	98.991	-36.562	-32.084	-29.271	-24.709	72.863	-28.619	-8191	255	
3218.106	1	1	0	0	0.19584	0.11603	0.16347	0.09452	0.16915	0.2697	0.09369	0.18033	0.13202	0.25806	0.13417	0.11549	0.034364	0.55319	0.09476	0.16558	-1.9583	-2.3688	-2.9354	-2.0667	-2.8438	-2.4979	-2.1729	-3.0812	-2.4437	-2.5687	-2.8896	-1.9771	-2.5625	-2.6	-2.2292	-3.1104	174.020	3.028	69.629	269.339	275.209	198.292	285.020	11.394	178.294	139.564	259.962	122.722	143.660	255.758	167.211	226.926	0.00033448	0.00027227	8.0498e-05	469.65	3.2884e-06	3.8051e-06	398.13	188.31	1.6318e-06	3.6773e-06	189.87	79.977	78.11	43.378	3.4797e-06	44.333	0.0014468	0.0024339	0.00068039	506.41	2.3183e-05	2.7602e-05	428.5	203.99	2.3562e-05	2.7697e-05	205.94	87.036	85.333	47.389	2.5037e-05	48.167	79.908	14.259	29.801	-39.250	63.243	96.972	-40.583	-33.966	126.022	150.932	-36.825	-31.869	-29.160	-24.665	128.410	-28.756	-8191	255	
3218.203	1	1	0	0	0.18012	0.14878	0.14469	0.10051	0.10191	0.05973	0.20072	0.075733	0.13367	0.33799	0.11851	0.15397	0.042292	0.1234	0.18464	0.14253	-1.9271	-2.4667	-2.9333	-2.1667	-2.6896	-2.6521	-2.0292	-2.8771	-2.3542	-2.2417	-3.0042	-2.0604	-2.8125	-2.8292	-1.9125	-2.7438	126.755	204.560	44.855	222.380	235.910	37.586	252.977	30.005	110.996	150.311	298.867	127.142	-36.964	295.940	278.992	-51.006	0.0003156	0.00015937	0.00013114	472.64	1.6807e-06	1.7664e-06	398.19	188.08	2.6107e-06	3.2175e-06	187.62	78.687	77.201	42.547	3.6168e-06	43.171	0.001455	0.0024571	0.00067439	507.73	2.3299e-05	2.7224e-05	427.74	203.5	2.3153e-05	2.7585e-05	203.29	85.649	84.152	46.544	2.5369e-05	46.95	86.195	85.186	50.959	-39.259	70.336	80.235	-40.495	-33.783	65.341	105.560	-36.734	-32.027	-29.161	-24.584	47.947	-28.867	-8191	255	
3218.299	1	1	0	0	0.2462	0.078519	0.31997	0.090864	0.10795	0.256	0.22966	0.22902	0.18219	0.23199	0.093662	0.31389	0.027075	0.19161	0.026545	0.046741	-1.8521	-2.1833	-2.875	-2.0479	-2.6958	-2.6854	-2.1229	-2.8	-2.4417	-2.2229	-3.0438	-2.1542	-2.3937	-2.8021	-2.0521	-2.9583	44.134	177.071	19.860	279.972	109.013	0.854	44.654	207.831	275.822	75.254	262.375	232.517	226.866	296.298	32.633	254.833	0.00031655	0.00042341	9.6658e-05	464.19	3.7634e-06	4.4873e-07	390.32	182.37	4.0797e-06	2.4519e-06	182.31	76.18	73.776	40.691	3.9307e-06	41.712	0.0014291	0.0024548	0.00067566	499.1	2.3791e-05	2.8104e-05	420.39	197.52	2.3427e-05	2.785e-05	197.19	82.875	80.83	44.568	2.56e-05	45.405	97.019	33.119	41.579	-39.017	92.458	130.845	-40.173	-33.825	116.042	112.742	-36.395	-32.021	-29.179	-24.446	95.596	-28.798	-8191	255	
3218.370	1	1	0	0	0.12585	0.13008	0.11896	0.21568	0.14407	0.06597	0.091016	0.16075	0.13771	0.090058	0.2315	0.11815	0.39472	0.055471	0.074902	0.11867	-1.9854	-2.0854	-2.9688	-2.2979	-2.4146	-2.9271	-2.0396	-2.8729	-2.4771	-2.1271	-3.0604	-2.0875	-2.3625	-2.9	-1.875	-2.7313	121.545	190.579	76.191	181.952	205.873	259.152	144.183	288.002	205.633	52.613	241.280	102.169	-45.252	222.015	246.343	257.594	0.00027068	0.00028821	0.00016763	456.63	4.0617e-06	2.8964e-06	385.38	178.8	2.4138e-06	4.2165e-06	180.09	75.254	72.705	40.039	2.6504e-06	41.623	0.0014762	0.0025029	0.00069059	492.29	2.3891e-05	2.8262e-05	416.26	193.12	2.3884e-05	2.8446e-05	194.79	81.76	79.584	43.892	2.5872e-05	45.349	88.761	20.313	37.114	-39.244	69.308	98.658	-40.461	-33.857	76.383	60.941	-36.620	-32.377	-29.108	-24.669	123.331	-28.747	-8191	255	
3218.491	1	1	0	0	0.13344	0.15961	0.36381	0.194	0.051527	0.034729	0.073146	0.077531	0.23626	0.095862	0.41807	0.22539	0.040256	0.043112	0.21649	0.10889	-2.2667	-2.1292	-2.7687	-2.1979	-2.3187	-2.7188	-2.0646	-2.8333	-2.8187	-1.75	-2.9958	-2.3729	-2.0146	-3.0292	-2.0479	-2.7229	213.817	115.359	301.152	21.052	17.588	146.343	133.483	288.971	88.204	290.746	265.054	260.133	275.159	-14.318	189.365	-35.524	0.00027598	0.00038516	0.00014466	457.61	1.6144e-06	2.1233e-06	387.66	181.34	4.45e-06	2.5608e-06	182.53	76.972	73.966	40.954	3.1472e-06	42.355	0.0014953	0.0025222	0.00070041	492.94	2.4325e-05	2.8679e-05	418.71	196.08	2.3571e-05	2.8236e-05	198.41	83.501	81.261	44.981	2.4914e-05	46.127	83.416	14.713	22.907	-39.480	73.065	111.981	-40.423	-33.758	76.601	45.323	-36.518	-32.370	-29.229	-24.551	119.714	-28.809	-8191	255	
3218.587	1	1	0	0	0.13853	0.26469	0.24325	0.15701	0.076639	0.18391	0.19875	0.19806	0.18526	0.010886	0.14239	0.13218	0.18145	0.044096	0.1358	0.040555	-2.3792	-2.0917	-2.8125	-2.5917	-2.0896	-2.9667	-2.0208	-2.5833	-2.8792	-2.1396	-2.8021	-2.6333	-2.2062	-3.0167	-2.075	-2.5458	153.238	287.912	-16.992	-25.753	285.994	274.813	-20.783	-42.182	84.253	231.412	184.214	61.480	-2.283	300.777	-21.857	60.797	0.00027231	0.00020408	6.5796e-05	461.79	2.4264e-06	6.151e-06	390.6	185.33	2.6278e-06	3.1626e-06	183.06	77.64	75.939	42.042	1.9845e-06	42.826	0.0014485	0.0024432	0.0006757	498.48	2.3652e-05	2.7738e-05	421.51	200.1	2.2837e-05	2.7342e-05	199.42	84.091	83.219	46.103	2.5252e-05	46.746	100.087	10.564	6.381	-39.443	87.067	91.779	-40.398	-33.628	53.767	137.672	-36.408	-31.786	-28.991	-24.813	125.479	-28.838	-8191	255	
3218.683	1	1	0	0	0.19475	0.28267	0.34246	0.12388	0.22352	0.075663	0.22323	0.13671	0.51022	0.050063	0.20667	0.23546	0.27448	0.10085	0.29019	0.15634	-2.4833	-1.9312	-2.7083	-2.4792	-2.1042	-2.7979	-2.2583	-2.3375	-2.725	-2.0083	-2.6813	-2.8563	-2.2708	-2.9437	-2.3229	-2.3646	159.506	208.864	297.505	221.198	47.115	139.634	-31.901	141.657	134.987	152.981	286.660	286.408	-2.459	-48.437	-16.292	16.594	0.00033968	0.00050564	0.00015779	468.2	4.3846e-06	3.5901e-06	393.73	188.38	1.4342e-06	3.4949e-06	188	79.028	77.356	43.056	4.6564e-06	43.78	0.001463	0.0024553	0.00068838	504.17	2.3988e-05	2.7716e-05	424.82	203.52	2.3446e-05	2.8013e-05	203.61	85.878	84.745	47.086	2.5822e-05	47.502	87.261	22.632	25.845	-39.427	65.495	88.072	-40.146	-33.612	118.062	72.603	-36.217	-31.943	-29.076	-24.621	110.341	-28.633	-8191	255	
3218.779	1	1	0	0	0.22184	0.11844	0.24945	0.21219	0.2259	0.13973	0.18671	0.017953	0.2715	0.095792	0.1014	0.093676	0.35537	0.35895	0.062924	0.12437	-2.3792	-2.0729	-2.5687	-2.65	-1.9375	-2.8896	-2.4021	-2.2542	-3.0333	-2.125	-2.7458	-2.7854	-2.1146	-2.925	-2.5312	-2.0354	87.066	191.066	244.453	278.149	-47.656	-22.661	238.801	81.487	5.137	86.514	107.711	10.941	263.853	299.391	165.262	234.399	0.00034114	0.00022939	0.00010819	471.16	2.4649e-06	3.5654e-06	397.07	187.61	3.7431e-06	3.174e-06	186.94	78.645	76.718	42.624	5.0032e-06	43.242	0.001455	0.0024908	0.00069042	507.68	2.3781e-05	2.841e-05	427.8	203.56	2.3537e-05	2.8149e-05	203.12	85.611	83.883	46.526	2.6068e-05	47.143	85.233	74.566	29.074	-39.205	74.560	101.596	-40.216	-33.652	93.092	83.634	-36.506	-31.910	-29.191	-24.602	83.084	-28.847	-8191	255	
3218.898	1	1	0	0	0.25407	0.032515	0.13848	0.17805	0.29919	0.21674	0.077592	0.27084	0.084919	0.12086	0.21201	0.33103	0.067717	0.14952	0.056907	0.05678	-2.5312	-2.1875	-2.2958	-2.8229	-2.0417	-2.7687	-2.5208	-2.1	-2.8688	-2.3312	-2.3229	-2.8812	-1.9958	-2.825	-2.6521	-2.2375	50.077	278.945	261.966	-23.438	231.922	139.099	176.586	209.770	160.867	158.419	287.410	254.129	164.601	2.459	294.835	184.300	0.00029256	0.00033803	8.9624e-05	467.29	2.5104e-06	1.3212e-06	394.6	184.43	2.3408e-06	1.3449e-06	183.51	76.607	74.806	41.259	3.7347e-06	41.983	0.0014657	0.0024592	0.0007101	502.33	2.4107e-05	2.8669e-05	424.01	199.58	2.4287e-05	2.8758e-05	199.62	83.648	81.784	45.22	2.6997e-05	45.785	93.658	46.115	30.454	-39.187	107.133	83.167	-40.632	-33.632	69.078	97.692	-36.441	-31.942	-29.000	-24.531	100.645	-28.861	-8191	255	
3218.994	1	1	0	0	0.075831	0.19702	0.19141	0.32279	0.39193	0.092078	0.034249	0.033969	0.13545	0.084121	0.087819	0.060468	0.13467	0.27994	0.088489	0.3938	-2.3833	-2.1479	-2.1646	-3.0333	-2.0792	-2.6833	-2.4229	-2.0187	-2.9	-2.3458	-2.2521	-2.7687	-2.0458	-2.7917	-2.6021	-2.0958	88.326	236.641	-15.785	-7.638	100.670	67.637	299.401	187.562	148.753	180.037	39.536	279.951	98.442	-30.689	153.949	-32.315	0.00030852	0.00022651	9.82e-05	459.58	1.9623e-06	3.9909e-06	384.46	179.52	3.4153e-06	1.0493e-06	180.16	75.435	73.492	40.778	3.3149e-06	41.61	0.0015305	0.0025914	0.00073391	494.05	2.5298e-05	2.9372e-05	414.51	194.51	2.5229e-05	2.9371e-05	194.85	81.803	80.562	44.639	2.697e-05	45.328	90.697	26.697	24.395	-39.292	108.120	102.471	-40.382	-33.592	89.611	174.172	-36.260	-31.844	-29.316	-24.895	94.036	-28.909	-8191	255	
3219.092	1	1	0	0	0.17427	0.065801	0.11031	0.21384	0.16085	0.12195	0.27422	0.20686	0.095719	0.20575	0.10254	0.031246	0.23257	0.067282	0.20295	0.35533	-2.4771	-2.3667	-2.1083	-3.025	-2.0479	-2.5979	-2.8187	-2.2938	-2.7083	-2.6083	-2.2625	-2.9646	-2.2438	-2.55	-2.7042	-2.1146	274.961	140.961	198.895	83.647	107.964	160.995	199.094	8.251	201.777	47.550	-8.625	235.969	-25.650	174.246	-38.853	261.121	0.000284	0.00024704	0.00010333	460.71	3.0697e-06	2.7122e-06	387.46	183.39	2.9144e-06	3.7037e-06	183.34	77.264	75.464	42.194	2.3502e-06	42.835	0.0015107	0.0025556	0.00072148	496.39	2.3914e-05	2.8565e-05	418.64	198.79	2.3733e-05	2.7546e-05	199.18	84.046	82.736	46.104	2.5432e-05	46.639	91.679	15.519	21.154	-39.112	94.134	68.800	-40.192	-33.811	102.839	93.527	-36.361	-31.829	-29.215	-24.680	57.880	-28.662	-8191	255	
3219.187	1	1	0	0	0.17835	0.15073	0.022236	0.088568	0.12285	0.31312	0.10467	0.20156	0.24778	0.079357	0.13614	0.1302	0.11541	0.070537	0.12986	0.26519	-2.5708	-2.3854	-2.0542	-2.9417	-2.2979	-2.1979	-3.025	-1.8792	-2.9292	-2.4646	-2.0396	-2.8583	-2.0833	-2.3875	-2.8896	-2.1542	174.452	202.303	-43.134	0.850	40.801	266.567	23.281	-42.394	193.966	157.385	23.932	224.044	-32.305	285.363	69.118	212.632	0.00030022	0.00049889	0.00010963	470.86	3.6414e-06	4.1429e-06	397.39	187.82	3.3484e-06	2.8244e-06	187.27	78.715	77.534	42.952	2.4712e-06	43.734	0.0014685	0.0024718	0.00069752	506.24	2.4123e-05	2.9035e-05	426.15	203.41	2.4127e-05	2.8298e-05	203.67	85.845	84.821	47.075	2.5606e-05	47.633	91.250	34.020	21.589	-39.180	112.239	86.339	-40.187	-33.738	94.041	94.122	-36.328	-31.653	-29.104	-24.522	116.136	-28.788	-8191	255	
3219.283	1	1	0	0	0.16034	0.079814	0.25867	0.045509	0.04144	0.23613	0.25761	0.17528	0.040043	0.07112	0.26742	0.19248	0.14969	0.33141	0.11317	0.28179	-2.3375	-2.7417	-2.0771	-2.8292	-2.1917	-2.3438	-2.9813	-2.1583	-2.6792	-2.8021	-2.1042	-2.8312	-2.4125	-2.3875	-3.0604	-2.2458	75.424	113.606	110.673	191.633	21.322	228.195	299.034	-33.965	276.784	-12.581	109.912	-39.231	-45.879	238.732	36.313	293.715	0.00030921	0.00025409	6.7254e-05	475.49	4.877e-06	4.7647e-06	399.68	190.69	3.0407e-06	3.1614e-06	190.38	79.621	78.632	43.615	3.3968e-06	43.987	0.0014962	0.0024969	0.00070834	511.07	2.3846e-05	2.901e-05	430.34	206.43	2.4046e-05	2.7716e-05	205.63	86.68	85.898	47.776	2.5647e-05	47.903	81.574	13.928	23.313	-39.010	90.762	120.500	-40.244	-33.785	88.054	111.334	-36.180	-31.403	-28.996	-24.357	89.837	-28.596	-8191	255	
3219.379	1	1	0	0	0.059779	0.28019	0.16139	0.091932	0.12454	0.24229	0.1709	0.27678	0.12929	0.20663	0.14404	0.15217	0.052138	0.11445	0.3028	0.1317	-2.2812	-2.6104	-1.8792	-2.8479	-2.6125	-2.2729	-2.8875	-2.3	-2.4813	-2.9313	-2.2854	-3.0167	-2.5917	-2.1979	-3.0229	-2.3187	166.763	0.075	230.494	-20.269	247.304	278.727	-14.741	-45.451	248.403	122.088	-35.319	304.488	232.195	-41.674	144.206	184.600	0.00029141	0.00030064	0.00014296	472.01	3.3062e-06	5.5101e-06	395.7	190.1	2.4428e-06	1.5617e-06	187.08	78.802	78.058	43.373	4.5229e-06	43.652	0.0014927	0.0024764	0.00070461	509.22	2.3576e-05	2.9195e-05	427.23	205.78	2.4599e-05	2.8244e-05	203.42	85.825	85.478	47.502	2.6153e-05	47.469	75.718	25.028	18.918	-38.781	108.274	104.183	-39.903	-33.659	110.507	159.341	-36.411	-31.754	-28.729	-24.462	105.466	-28.665	-8191	255	
3219.500	1	1	0	0	0.09738	0.032022	0.11447	0.12122	0.23722	0.088414	0.16248	0.44187	0.074303	0.22329	0.24013	0.36935	0.3673	0.23441	0.13539	0.033722	-2.0125	-2.9521	-1.9146	-2.8458	-2.6479	-2.0625	-2.9146	-2.3438	-2.4667	-2.7896	-2.1771	-2.7896	-2.8146	-2.1688	-3.0104	-2.4813	118.036	-20.961	159.033	220.114	148.232	224.988	124.718	304.497	-16.491	-30.614	110.528	273.357	268.404	232.340	237.421	284.318	0.00035489	0.00033507	8.1895e-05	471.92	3.7676e-06	5.2982e-06	395.14	187.78	2.2637e-06	3.7382e-06	185.91	78.377	77.004	42.605	2.0346e-06	43.097	0.0015163	0.0024884	0.00071237	507.15	2.4133e-05	2.9127e-05	426.07	203.73	2.4477e-05	2.8986e-05	202.48	85.159	84.336	46.689	2.575e-05	46.796	88.249	48.994	41.640	-39.168	86.704	104.594	-40.178	-33.572	97.152	80.897	-36.386	-31.708	-29.117	-24.449	114.084	-28.640	-8191	255	
3219.596	1	1	0	0	0.174	0.11669	0.099416	0.08078	0.16727	0.31362	0.069244	0.12096	0.21224	0.14682	0.15057	0.10899	0.058458	0.19597	0.38311	0.11824	-1.8854	-3.0458	-2.05	-2.7417	-2.8563	-2.1937	-3.0146	-2.45	-2.3167	-3.0854	-2.0229	-2.6521	-2.7417	-2.2771	-2.725	-2.6458	104.803	-18.773	178.399	234.059	270.502	10.904	167.831	102.154	209.744	-51.650	85.278	207.860	226.977	192.406	-4.660	167.629	0.00034261	0.00023179	0.00011259	464.52	1.6655e-06	5.0943e-06	392.51	183.1	8.3738e-07	2.4674e-06	181.55	76.125	74.765	41.136	1.1422e-06	41.757	0.0015247	0.002471	0.00072059	501.07	2.4095e-05	2.9723e-05	422.58	198.54	2.5096e-05	2.8991e-05	197.74	83.008	81.482	45.063	2.6132e-05	45.631	91.632	46.361	59.238	-39.184	42.453	68.795	-40.172	-33.887	77.071	149.920	-36.648	-32.085	-29.018	-24.499	132.051	-28.693	-8191	255	
3219.668	1	1	0	0	0.32167	0.069488	0.20469	0.25702	0.16577	0.20899	0.11779	0.10607	0.12315	0.060052	0.40357	0.42639	0.087855	0.15793	0.17901	0.068346	-1.8271	-2.8771	-2.0312	-2.8187	-2.8208	-2.0062	-3.0979	-2.6625	-2.0292	-2.8958	-2.3688	-2.4708	-2.7979	-2.0438	-2.7083	-2.7375	40.025	181.314	227.349	-8.955	-18.771	173.148	56.898	6.641	296.141	56.356	262.895	256.283	201.689	174.414	11.344	198.786	0.00025299	0.00019669	0.00012159	460.55	3.9777e-06	2.5905e-06	386.28	179.97	8.074e-07	1.1589e-06	177.97	74.645	72.538	40.04	3.5757e-06	40.786	0.0015002	0.0025201	0.00072982	494.48	2.4582e-05	2.9764e-05	416.49	194.19	2.4606e-05	2.8501e-05	193.48	81.149	79.522	43.856	2.6078e-05	44.524	99.635	42.615	57.321	-39.264	61.869	93.298	-40.132	-33.841	81.865	145.240	-36.387	-31.686	-29.257	-24.531	114.916	-28.802	-8191	255	
3219.788	1	1	0	0	0.2142	0.17366	0.15282	0.031928	0.090426	0.18915	0.027949	0.3064	0.05299	0.092017	0.12113	0.1158	0.17132	0.11387	0.265	0.21895	-1.7792	-2.8042	-2.2375	-2.4333	-3.0104	-2.0812	-2.8208	-2.7667	-1.8188	-2.8688	-2.3917	-2.4083	-2.8563	-2.1229	-2.5958	-2.7396	181.325	46.712	215.797	155.862	118.437	302.096	215.897	264.621	227.891	125.258	140.055	-12.828	201.218	295.971	-28.827	170.164	0.0002938	0.00038661	3.4889e-05	454.83	2.5695e-06	3.6917e-06	381.81	176.97	1.0987e-06	7.9763e-07	175.71	73.817	72.445	39.897	2.9201e-06	40.984	0.0015208	0.0024759	0.00070036	488.57	2.4114e-05	2.9313e-05	410.85	190.97	2.4198e-05	2.8311e-05	191.26	80.318	79.09	43.703	2.5402e-05	44.676	85.307	44.955	42.088	-39.117	128.371	90.533	-40.189	-33.852	79.467	154.548	-36.618	-31.885	-29.230	-24.666	123.008	-28.929	-8191	255	
3219.884	1	1	0	0	0.13521	0.15198	0.26674	0.15379	0.36499	0.16833	0.097627	0.050377	0.17405	0.061749	0.33007	0.069363	0.11714	0.16989	0.025218	0.063319	-1.6437	-2.9708	-2.1792	-2.3083	-2.9646	-2.1333	-2.7271	-2.8	-2.1396	-2.9375	-2.4688	-2.2146	-2.85	-2.2188	-2.5229	-2.6958	46.889	25.534	11.963	227.211	197.307	175.543	266.952	-40.558	85.649	52.150	245.385	103.254	69.281	166.067	306.021	-31.696	0.00029376	0.00035093	0.00010292	460.02	2.9227e-06	3.9213e-06	388.82	181.63	3.2285e-06	3.3925e-06	181.24	76.029	74.728	41.597	2.4991e-06	42.45	0.0014885	0.0024538	0.0006933	493.66	2.2915e-05	2.767e-05	418.2	196.39	2.2563e-05	2.5985e-05	196.54	82.631	81.713	45.468	2.4355e-05	46.147	77.644	41.366	29.866	-39.289	73.083	111.356	-40.323	-33.634	141.905	99.813	-36.403	-31.662	-28.946	-24.635	105.210	-28.697	-8191	255	
3219.979	1	1	0	0	0.23688	0.065692	0.083218	0.12697	0.10884	0.093761	0.12614	0.19075	0.026833	0.089033	0.26064	0.14097	0.1304	0.19283	0.29449	0.18798	-1.5646	-2.7521	-2.4688	-2.3792	-3.0375	-2.1813	-2.425	-2.8812	-2.0771	-2.6667	-2.5979	-2.1333	-3.0062	-2.3271	-2.4208	-2.8375	57.111	204.671	295.624	-51.130	46.658	27.524	245.281	286.222	130.091	-50.322	178.501	225.743	1.909	18.743	-2.462	189.899	0.00030554	0.00034421	0.00010383	469.11	4.408e-06	2.7856e-06	397.35	187.72	3.6467e-06	3.2466e-06	187.43	78.978	78.375	43.214	5.5656e-06	43.977	0.0014008	0.0023133	0.00065348	504.1	2.2271e-05	2.7118e-05	427.29	203.26	2.3073e-05	2.7007e-05	204.28	85.961	85.256	47.424	2.4706e-05	47.857	80.998	88.293	46.531	-39.004	111.443	112.449	-40.139	-33.619	73.342	144.833	-36.598	-31.915	-28.961	-24.599	110.298	-28.597	-8191	255	
3220.075	1	1	0	0	0.093092	0.27331	0.1436	0.088973	0.18936	0.32157	0.09887	0.083223	0.21817	0.070457	0.16529	0.18836	0.053271	0.25667	0.2516	0.12681	-1.7417	-2.725	-2.6375	-1.9979	-3.0187	-2.2687	-2.3875	-3.0583	-1.9688	-2.6042	-2.7583	-2.0938	-2.8125	-2.3646	-1.9917	-2.8646	187.180	213.412	180.655	202.507	-34.143	-25.883	305.967	202.377	181.302	149.467	161.109	247.528	-45.357	290.061	268.754	146.293	0.00028045	0.0004208	0.00010442	476.02	1.4315e-06	3.2032e-06	399.12	190.75	4.814e-06	4.0471e-06	188.22	78.993	78.282	43.454	4.1391e-06	43.766	0.0014361	0.0023912	0.00067729	511.72	2.2775e-05	2.7654e-05	429.96	205.94	2.3227e-05	2.6894e-05	204.08	85.88	85.608	47.58	2.4759e-05	47.495	88.050	29.853	36.363	-38.826	144.157	125.166	-39.817	-33.578	89.779	55.362	-36.625	-31.797	-28.631	-24.328	58.133	-28.802	-8191	255	
3220.195	1	1	0	0	0.26047	0.14535	0.2951	0.12746	0.10865	0.10329	0.24426	0.10436	0.31944	0.052429	0.34376	0.20591	0.1996	0.22545	0.13698	0.028729	-1.5396	-2.4688	-2.7354	-2.05	-2.8292	-2.4313	-2.2812	-2.9042	-2.0604	-2.55	-2.7479	-2.0167	-2.8604	-2.6833	-1.9646	-2.9188	38.008	-49.815	-2.980	111.304	-20.643	205.937	6.104	195.344	176.009	104.545	258.776	235.621	237.891	278.008	42.968	-46.722	0.00027573	0.00038249	0.00013783	472.93	3.8797e-06	3.4117e-06	396.48	190.54	3.3134e-06	2.0327e-06	187.4	78.501	78.089	43.237	2.742e-06	43.501	0.0014209	0.0023999	0.00066593	509.21	2.2962e-05	2.7778e-05	427.97	205.62	2.2893e-05	2.6753e-05	203.69	85.572	85.381	47.418	2.4959e-05	47.4	86.203	50.436	38.684	-39.052	106.283	101.678	-40.387	-33.512	63.251	83.207	-36.556	-31.616	-28.737	-24.488	72.830	-28.692	-8191	255	
3220.292	1	1	0	0	0.16429	0.078753	0.32472	0.1207	0.19719	0.093888	0.15793	0.20426	0.11509	0.066537	0.13624	0.21185	0.14568	0.097093	0.14522	0.25795	-1.8667	-2.5062	-2.8958	-2.1312	-2.7229	-2.5771	-2.2646	-2.8979	-2.3937	-2.4771	-2.9729	-2.1917	-2.6396	-2.6437	-2.275	-3.0458	250.121	-27.055	70.351	253.078	30.033	66.617	264.366	157.506	44.541	298.167	266.757	272.002	296.108	78.388	248.118	145.114	0.00033415	0.00050297	8.8082e-05	472.79	2.5715e-06	3.2119e-06	397.12	188.41	2.4473e-06	1.7982e-06	186.88	78.202	76.938	42.62	2.6273e-06	43.114	0.0014295	0.0023959	0.0006711	508.69	2.2653e-05	2.7217e-05	427.97	203.77	2.307e-05	2.7455e-05	202	84.9	84.048	46.674	2.4332e-05	46.896	95.003	21.974	30.361	-38.930	93.730	96.320	-39.931	-33.503	99.445	147.081	-36.132	-32.159	-28.979	-24.432	99.401	-28.594	-8191	255	
3220.363	1	1	0	0	0.061368	0.13333	0.077051	0.092946	0.24868	0.23239	0.17276	0.26566	0.082215	0.25977	0.12992	0.17316	0.27467	0.12389	0.040119	0.14002	-1.9167	-2.2062	-2.8688	-2.1396	-2.7229	-2.7313	-2.1083	-2.8479	-2.3042	-2.2354	-2.8333	-2.2	-2.4604	-2.7708	-2.1896	-2.8625	247.690	239.929	45.344	180.266	61.758	207.191	302.279	262.732	153.505	292.853	293.930	248.150	185.366	227.790	131.852	291.940	0.0002593	0.00022818	0.00010429	468.85	2.5909e-06	4.915e-06	395.89	185.71	3.541e-06	4.3031e-06	184.59	76.853	74.681	41.307	2.5679e-06	42.157	0.0014203	0.0023536	0.00067129	503.88	2.275e-05	2.7308e-05	425.67	200.23	2.2662e-05	2.6502e-05	199.42	83.439	81.77	45.306	2.4725e-05	45.881	85.883	31.802	41.251	-39.192	118.036	135.549	-40.311	-33.525	100.142	106.797	-36.223	-31.852	-28.990	-24.700	59.345	-28.671	-8191	255	
3220.459	1	1	0	0	0.20957	0.029265	0.045739	0.1305	0.15788	0.13349	0.15703	0.15623	0.04982	0.1847	0.091047	0.049716	0.1436	0.10933	0.23312	0.16365	-2.0729	-2.0354	-2.7604	-2.2521	-2.5479	-2.9042	-2.1646	-2.7	-2.3688	-1.9813	-2.9479	-2.3104	-2.4583	-2.9313	-2.0062	-2.7104	181.922	205.733	16.475	57.026	205.531	267.687	244.856	-49.717	37.406	146.864	36.766	217.297	170.646	13.273	186.677	274.201	0.00032583	0.00043503	5.9555e-05	461.28	3.2101e-06	2.9635e-06	386.5	180.15	3.3189e-06	4.908e-06	178.42	74.101	72.892	40.528	4.4825e-06	41.201	0.0014137	0.0024066	0.00066754	496.02	2.2966e-05	2.7016e-05	417.87	194.97	2.3119e-05	2.7166e-05	193.76	80.905	79.79	44.263	2.4471e-05	44.783	89.897	29.586	55.838	-39.002	84.390	105.842	-40.200	-33.773	111.042	78.729	-36.758	-32.097	-29.132	-24.537	65.637	-28.480	-8191	255	
3220.580	1	1	0	0	0.13892	0.31013	0.24022	0.2064	0.10115	0.27803	0.18193	0.1221	0.28808	0.1831	0.097393	0.27788	0.13307	0.24686	0.1931	0.31811	-2.1167	-1.9854	-2.8979	-2.1167	-2.3104	-2.875	-2.0083	-2.8083	-2.5104	-2.0771	-2.75	-2.275	-2.325	-2.7896	-2.0354	-2.9437	-9.094	-32.373	98.670	4.334	221.179	130.353	24.978	283.458	34.453	194.382	173.873	261.035	92.167	172.480	274.009	-26.458	0.00023574	0.00041959	7.3849e-05	459.86	3.1429e-06	4.6937e-06	386.19	180.96	3.705e-06	2.4498e-06	181.11	75.675	75.039	41.699	2.3145e-06	42.203	0.0014074	0.0023727	0.0006651	493.35	2.2616e-05	2.6432e-05	417.22	195.91	2.2356e-05	2.6208e-05	196.51	82.432	81.894	45.542	2.3456e-05	45.947	89.830	27.833	45.149	-39.194	79.974	56.437	-40.502	-33.684	73.956	46.377	-36.084	-32.108	-28.977	-24.289	100.473	-28.458	-8191	255	
3220.676	1	1	0	0	0.29762	0.32278	0.24911	0.19228	0.1909	0.061412	0.10294	0.17418	0.24341	0.11289	0.093562	0.17033	0.23542	0.060009	0.15668	0.052931	-2.2167	-1.9792	-2.8563	-2.4292	-2.2021	-2.7896	-2.1708	-2.7396	-2.6146	-2.0333	-2.9729	-2.55	-2.2729	-2.9583	-2.0667	-2.6083	127.961	82.105	186.245	-49.164	162.012	-37.518	40.870	242.828	234.928	15.058	248.131	54.574	306.509	46.834	192.199	98.514	0.00034301	0.00034088	0.00010534	467.05	5.2442e-06	4.1769e-06	394.5	186.31	2.9345e-06	3.3561e-06	186.5	77.592	76.832	43.01	3.1555e-06	43.55	0.0013428	0.0022946	0.00063821	501.85	2.222e-05	2.587e-05	425.61	201.61	2.1786e-05	2.6007e-05	201.85	84.699	84.055	46.945	2.3986e-05	47.379	87.714	38.927	14.839	-39.016	100.215	80.913	-40.069	-33.448	48.611	108.139	-36.539	-32.098	-29.179	-24.439	116.474	-28.375	-8191	255	
3220.772	1	1	0	0	0.1462	0.32803	0.090702	0.13902	0.32229	0.15898	0.2314	0.30246	0.28012	0.28655	0.12154	0.042578	0.15265	0.20392	0.1436	0.19941	-2.4521	-1.8625	-2.6292	-2.4604	-2.2167	-2.8979	-2.3312	-2.6417	-2.7021	-2.0271	-2.9146	-2.6146	-2.2	-3	-2.2875	-2.4646	49.943	110.535	304.650	292.813	104.767	125.550	256.590	208.626	281.280	93.147	266.545	235.991	59.397	-36.885	80.817	138.938	0.00030651	0.00038431	9.3638e-05	473.11	3.0755e-06	2.5329e-06	401.02	190.94	2.6836e-06	3.3288e-06	189.1	79.248	78.339	43.514	3.1313e-06	43.72	0.0013861	0.002347	0.00063296	510.39	2.2394e-05	2.6268e-05	433.12	206.3	2.2321e-05	2.6087e-05	205.25	86.058	85.504	47.559	2.3923e-05	47.59	80.245	36.786	36.773	-38.791	100.767	105.014	-39.914	-33.277	73.052	106.515	-36.123	-31.554	-29.035	-24.580	116.378	-28.510	-8191	255	
3220.893	1	1	0	0	0.29048	0.16756	0.098059	0.0064422	0.081581	0.18124	0.16919	0.10061	0.075915	0.048125	0.15291	0.13248	0.031205	0.25798	0.17409	0.13532	-2.4792	-1.9375	-2.5729	-2.5104	-2.1083	-3.0375	-2.4	-2.5021	-2.8854	-2.2375	-2.7354	-2.5438	-2.2188	-3.075	-2.2833	-2.3375	112.281	-45.219	125.864	15.492	235.380	83.731	278.054	216.785	244.012	52.643	-37.109	20.968	300.057	240.888	106.139	-4.605	0.00030309	0.00036425	9.7855e-05	473.39	3.3238e-06	2.0681e-06	397.06	189.86	1.339e-06	2.9272e-06	186.47	77.914	77.465	43.081	1.6468e-06	43.242	0.0013864	0.0022952	0.00064358	509.25	2.2395e-05	2.5963e-05	428.21	205.16	2.2403e-05	2.6079e-05	202.61	84.785	84.749	47.155	2.4077e-05	47.026	79.234	37.523	34.204	-39.039	80.436	159.605	-40.292	-33.448	81.789	98.324	-36.505	-31.853	-28.842	-24.263	104.216	-28.637	-8191	255	
3220.965	1	1	0	0	0.1323	0.11942	0.055787	0.14523	0.046468	0.1307	0.012645	0.21004	0.22612	0.2566	0.17931	0.15789	0.31094	0.14537	0.24213	0.13016	-2.5479	-2.0958	-2.525	-2.7771	-2.15	-2.6917	-2.4437	-2.35	-3.1667	-2.0438	-2.5312	-3.0583	-1.9625	-2.8563	-2.4437	-2.2833	62.116	191.849	-31.724	6.710	189.236	22.042	308.454	215.867	283.901	306.015	10.881	-23.709	23.609	300.158	164.421	-50.937	0.00032154	0.00023876	5.3519e-05	473.22	2.4512e-06	3.2749e-06	395.73	188.65	1.3582e-06	1.5005e-06	185.78	77.679	76.85	42.692	3.2312e-06	42.866	0.0014115	0.0022703	0.00064322	508.58	2.2051e-05	2.6583e-05	427.81	204.1	2.2575e-05	2.6492e-05	201.43	84.535	83.999	46.656	2.4014e-05	46.667	81.724	24.694	15.889	-38.916	39.793	118.821	-40.100	-33.425	92.099	65.616	-36.585	-31.658	-28.763	-24.227	99.259	-28.567	-8191	255	
3221.061	1	1	0	0	0.20696	0.075014	0.12644	0.10266	0.018437	0.13808	0.10583	0.22897	0.17091	0.26653	0.18941	0.13252	0.10621	0.2381	0.19987	0.22006	-2.5292	-2.0125	-2.3208	-2.9562	-1.8208	-3.075	-2.6333	-2.1688	-2.8812	-2.3729	-2.2292	-2.9375	-1.8896	-3.1	-2.6146	-2.1958	72.715	60.981	211.708	-47.181	137.657	226.568	220.822	-44.058	74.594	22.771	302.201	295.788	82.841	12.411	173.233	189.760	0.00025116	0.00026558	9.3588e-05	467.4	1.9186e-06	2.8337e-06	393.51	185.81	2.8535e-06	3.8618e-06	184.32	76.664	75.416	41.708	2.417e-06	42.098	0.0014008	0.0023067	0.00066631	504.32	2.1932e-05	2.6067e-05	425.13	200.7	2.1953e-05	2.6069e-05	199.15	83.501	82.535	45.705	2.4298e-05	45.941	86.156	16.620	42.799	-39.108	91.819	124.921	-40.133	-33.614	111.940	99.342	-36.084	-31.870	-29.048	-24.250	101.624	-28.599	-8191	255	
3221.180	1	1	0	0	0.090925	0.20284	0.13406	0.24844	0.18573	0.21866	0.20908	0.12169	0.3096	0.19461	0.23138	0.17661	0.12894	0.11571	0.17139	0.22703	-2.575	-2.3333	-2.3354	-2.9125	-1.9896	-2.8187	-2.8458	-2.1167	-2.9	-2.3042	-2.2833	-2.9479	-1.9729	-2.4521	-2.6	-2.0625	1.407	-11.062	-30.449	250.730	80.249	277.931	255.208	67.618	11.116	51.623	214.603	81.504	154.209	268.605	17.830	253.092	0.00026037	0.00012551	7.093e-05	462.45	2.1124e-06	3.1312e-06	392.47	180.58	2.7427e-06	3.6673e-06	178.1	74.82	72.585	40.206	2.7696e-06	40.805	0.0013735	0.0023417	0.00066061	498.17	2.2291e-05	2.6734e-05	421.54	195.78	2.2426e-05	2.6458e-05	193.84	81.219	79.417	43.882	2.4137e-05	44.32	85.133	20.779	34.466	-39.277	76.158	80.017	-40.209	-33.503	83.605	116.799	-36.127	-32.130	-28.935	-24.243	87.259	-28.401	-8191	255	
3221.276	1	1	0	0	0.11439	0.10434	0.23146	0.1895	0.32012	0.10561	0.2407	0.18685	0.23132	0.022123	0.1875	0.25736	0.12264	0.11469	0.21796	0.2942	-2.4604	-2.4354	-2.225	-2.8833	-2.0542	-2.4458	-2.6667	-2.1875	-2.7292	-2.5396	-2.0208	-2.9354	-2.075	-2.5646	-2.6854	-2.0958	155.306	193.388	130.743	6.007	-32.663	195.456	260.829	5.972	272.753	269.441	196.885	8.399	262.837	2.140	-21.185	298.445	0.0002866	0.00038608	7.183e-05	452.84	1.9185e-06	4.6319e-06	380.75	172.12	3.5906e-06	3.3098e-06	171.25	70.774	69.15	38.042	2.2287e-06	39.322	0.0014192	0.0023944	0.00066902	486.77	2.2914e-05	2.6927e-05	409.43	186.42	2.2526e-05	2.6971e-05	185.78	77.053	75.514	41.612	2.4206e-05	42.771	85.370	63.105	32.889	-39.322	95.441	82.602	-39.889	-33.751	96.469	106.529	-36.679	-31.890	-29.410	-24.343	138.947	-28.665	-8191	255	
3221.372	1	1	0	0	0.39991	0.07637	0.21819	0.19734	0.21212	0.11902	0.18535	0.15722	0.12588	0.19592	0.10649	0.14176	0.17556	0.14839	0.33399	0.35202	-2.4104	-2.5312	-2.0542	-2.8729	-2.1437	-2.4958	-2.9167	-2.1625	-2.6417	-2.5875	-2.1604	-2.8812	-2.1292	-2.4417	-2.9938	-2.0563	-41.990	20.153	124.728	-10.364	154.952	-13.619	200.838	226.868	262.158	-38.438	200.463	5.246	74.737	126.328	16.628	201.418	0.00031949	0.00043924	8.4945e-05	450.22	3.0832e-06	1.8451e-06	382.83	173.35	1.6993e-06	3.9211e-06	174.74	72.122	70.526	38.98	2.0554e-06	40.196	0.0013921	0.0023421	0.00067685	484.11	2.2235e-05	2.6918e-05	410.96	187.14	2.2344e-05	2.5592e-05	188.89	78.411	76.918	42.668	2.3117e-05	43.671	92.921	34.975	-5.928	-39.272	103.397	86.562	-39.991	-33.687	77.191	111.504	-36.706	-31.950	-29.250	-24.567	111.560	-28.534	-8191	255	
3221.493	1	1	0	0	0.18619	0.11341	0.21623	0.13521	0.19144	0.10086	0.11286	0.18828	0.20702	0.27643	0.064627	0.18144	0.25464	0.21401	0.15753	0.059795	-2.3667	-2.4771	-1.8917	-2.9771	-2.2812	-2.3292	-2.8729	-2.1833	-2.6792	-2.6188	-2.0896	-2.7562	-2.4708	-2.2333	-2.7875	-2.1813	-1.792	47.328	1.236	207.726	13.720	279.983	41.742	168.182	-36.605	126.707	55.626	253.624	229.806	287.052	252.679	295.531	0.00027786	0.00051893	7.8622e-05	457.79	4.6814e-06	2.0888e-06	389.49	179.17	6.1036e-06	4.1502e-06	180.66	74.99	73.551	40.906	1.5706e-06	42.001	0.0013229	0.0022349	0.00062941	492.75	2.1507e-05	2.5558e-05	419.38	193.99	2.1504e-05	2.5071e-05	195.74	81.676	80.7	44.897	2.3379e-05	45.685	91.197	24.937	46.396	-38.996	85.282	54.353	-40.386	-33.474	79.232	105.605	-36.519	-31.894	-29.099	-24.340	106.563	-28.777	-8191	255	
3221.564	1	1	0	0	0.16449	0.11838	0.35988	0.35562	0.15183	0.12714	0.15819	0.15309	0.10146	0.043258	0.094315	0.13681	0.23786	0.27806	0.06472	0.19536	-2.1146	-2.8583	-2.0458	-2.8312	-2.3917	-2.2188	-3.0563	-2.4521	-2.4062	-2.8125	-1.9979	-2.8146	-2.5542	-2.3771	-2.8125	-2.1542	284.602	3.157	47.247	255.751	127.498	276.485	236.975	273.781	228.133	9.080	175.902	201.078	241.723	281.211	12.329	226.999	0.00029482	0.00021868	8.1587e-05	467.88	3.67e-06	4.9699e-06	395.55	184.55	2.7844e-06	4.5831e-06	184.79	76.133	75.858	42.087	4.7951e-06	42.357	0.0013526	0.002199	0.00062774	503.27	2.1262e-05	2.5491e-05	425.35	199.8	2.091e-05	2.4669e-05	199.19	82.98	82.703	46.004	2.2648e-05	46.122	85.338	18.948	39.530	-38.921	64.937	117.749	-39.912	-33.628	76.661	115.921	-35.960	-31.550	-28.863	-24.249	86.924	-28.405	-8191	255	
3221.660	1	1	0	0	0.05916	0.061692	0.1526	0.2234	0.17973	0.10123	0.19989	0.22801	0.20803	0.56214	0.15011	0.049526	0.091524	0.22467	0.1922	0.15575	-2.2396	-2.9813	-2.1146	-2.7771	-2.7521	-2.1104	-2.9792	-2.5062	-2.45	-2.9125	-2.1458	-2.9458	-2.6188	-2.3167	-3.0146	-2.3208	47.083	209.211	104.016	287.710	201.052	26.092	276.726	231.183	114.380	266.408	131.984	-29.982	27.205	261.876	91.485	69.559	0.00026995	0.00035566	6.7531e-05	470.45	1.7893e-06	3.3455e-06	392.64	186.71	3.8743e-06	3.4267e-06	183.65	76.471	75.828	42.084	2.8437e-06	42.151	0.0013625	0.0021817	0.00061349	504.86	2.123e-05	2.5489e-05	424.77	201.29	2.1139e-05	2.5011e-05	199.08	83.255	82.768	45.949	2.2383e-05	45.97	87.173	89.178	20.213	-38.975	73.634	68.862	-39.896	-33.548	90.584	101.537	-36.261	-31.965	-29.166	-24.277	102.104	-28.492	-8191	255	
3221.757	1	1	0	0	0.18451	0.23931	0.23489	0.19632	0.15446	0.066973	0.23	0.11341	0.14799	0.16884	0.21715	0.18761	0.028217	0.31598	0.15261	0.098045	-1.8667	-2.8125	-2.0375	-2.7604	-2.6896	-2.0792	-2.8625	-2.5	-2.3167	-2.9771	-2.0771	-2.4083	-2.9396	-2.1562	-2.7104	-2.5729	188.231	17.084	180.069	234.820	42.707	214.250	250.080	280.086	50.502	117.180	282.833	148.822	-3.747	266.777	-22.100	115.515	0.00035621	0.00034706	4.8494e-05	468.16	3.8257e-06	3.844e-06	394.05	184.37	2.8002e-06	2.13e-06	182.24	75.353	74.35	41.151	3.5289e-06	41.846	0.0013605	0.0021891	0.00061463	503.8	2.1004e-05	2.5723e-05	424.5	199.09	2.169e-05	2.5099e-05	197.59	82.25	81.328	45.091	2.2582e-05	45.484	93.711	46.672	-0.539	-38.846	98.348	118.486	-40.218	-33.593	48.018	102.682	-36.404	-31.504	-28.922	-24.282	75.979	-28.579	-8191	255	
3221.875	1	1	0	0	0.12441	0.020187	0.14647	0.20571	0.18636	0.3765	0.076119	0.20716	0.30268	0.17523	0.13528	0.090824	0.18513	0.10275	0.24112	0.19906	-1.7396	-2.9313	-2.0458	-2.4437	-2.7062	-2.0646	-2.7938	-2.6458	-2.1396	-2.8417	-2.2583	-2.4375	-2.8708	-2.1312	-2.7458	-2.7479	-6.891	191.708	252.267	212.692	216.790	150.063	163.635	205.849	205.302	50.396	283.753	211.091	264.480	267.528	-13.946	238.290	0.00026447	0.00042056	0.00011658	465.92	5.2188e-06	1.9965e-06	391.06	179.88	1.9451e-06	2.2253e-06	179.77	74.468	72.473	40.007	3.5217e-06	40.82	0.001349	0.002179	0.00061135	500.11	2.1251e-05	2.5398e-05	421.53	194.78	2.1545e-05	2.5212e-05	194.23	80.809	79.069	43.724	2.3186e-05	44.414	81.653	11.771	48.832	-39.150	109.472	73.011	-40.087	-33.689	35.062	149.786	-36.127	-31.882	-28.860	-24.378	97.271	-28.544	-8191	255	
3221.972	1	1	0	0	0.23496	0.13148	0.14956	0.085863	0.13609	0.05172	0.16585	0.27157	0.061001	0.20599	0.11707	0.28151	0.066563	0.31368	0.23135	0.06128	-1.6688	-2.9083	-2.3979	-2.3479	-3.0563	-2.0229	-2.7687	-2.6375	-1.9917	-2.9104	-2.4417	-2.3875	-3.0771	-2.2771	-2.6625	-2.7208	81.257	142.715	53.074	206.249	-16.294	199.098	-47.977	307.301	12.060	74.995	126.810	175.387	37.155	23.212	96.713	212.579	0.00027094	0.00030675	6.5223e-05	453.77	1.6522e-06	2.8002e-06	386.4	177.15	1.6071e-06	2.4767e-06	176.05	72.516	71.138	39.028	3.1369e-06	39.807	0.0013576	0.0022157	0.00063389	491.45	2.1627e-05	2.5954e-05	416.47	191.07	2.1759e-05	2.569e-05	190.48	79.063	77.598	42.75	2.3993e-05	43.4	86.789	42.453	75.302	-39.125	46.347	140.077	-40.215	-33.726	84.312	76.510	-36.371	-31.838	-28.970	-24.464	77.020	-28.627	-8191	255	
3222.068	1	1	0	0	0.11273	0.34578	0.18872	0.21889	0.3204	0.13325	0.23244	0.31825	0.052305	0.11968	0.13273	0.19865	0.25204	0.067614	0.38217	0.17164	-1.6792	-2.7708	-2.3458	-2.1917	-2.9917	-2.0438	-2.625	-2.7562	-2.0812	-2.8354	-2.5667	-2.2458	-2.9646	-2.1354	-2.5583	-2.9396	5.606	35.569	82.071	274.165	195.120	-36.296	244.638	-9.826	88.180	82.604	247.661	27.179	17.040	149.456	244.323	257.917	0.00028581	6.6153e-05	9.0988e-05	455.23	2.1317e-06	3.7344e-07	384.65	174.23	3.6889e-06	3.7049e-06	174.05	72.406	70.697	39.401	2.7132e-06	40.498	0.0013552	0.0022358	0.00064994	488.46	2.1641e-05	2.6351e-05	413.64	188.47	2.1971e-05	2.515e-05	189.12	78.81	77.583	43.061	2.3146e-05	43.926	85.823	43.866	10.424	-39.062	110.720	124.246	-39.932	-33.680	80.586	92.896	-36.186	-31.829	-28.940	-24.330	107.174	-28.658	-8191	255	
3222.164	1	1	0	0	0.25925	0.11613	0.25857	0.12698	0.20194	0.19728	0.18623	0.1266	0.038758	0.11509	0.065234	0.26341	0.16947	0.14677	0.19745	0.24398	-1.7042	-2.6875	-2.6125	-2.0687	-2.9917	-2.1729	-2.5771	-2.85	-2.0271	-2.6729	-2.6813	-2.2125	-2.8583	-2.4313	-2.3708	-2.95	117.571	79.677	155.779	55.395	155.242	-26.293	156.476	278.520	162.866	200.321	252.869	15.794	117.669	277.091	43.517	-41.518	0.00024087	0.00014972	5.1734e-05	460.54	3.1156e-06	3.6864e-06	390.91	179.42	2.3456e-06	3.6249e-06	179.82	75.126	73.707	40.869	2.0551e-06	41.969	0.0013235	0.0021685	0.00061266	494.42	2.0651e-05	2.4289e-05	420.15	194.43	2.0692e-05	2.4008e-05	195.27	81.52	80.613	44.751	2.1958e-05	45.609	92.431	64.355	106.264	-38.890	61.142	92.282	-39.944	-33.574	74.350	103.733	-36.414	-31.605	-29.080	-24.200	87.510	-28.418	-8191	255	
3222.260	1	1	0	0	0.22127	0.16724	0.13691	0.14467	0.061946	0.13338	0.11181	0.091874	0.1747	0.053089	0.32075	0.22028	0.23726	0.25022	0.28352	0.22543	-1.75	-2.6979	-2.7271	-2.0938	-2.9708	-2.35	-2.2979	-3.0729	-1.9979	-2.7375	-2.8	-2.0667	-2.9667	-2.3688	-2.2479	-3.0229	133.474	-2.645	-43.061	280.936	181.513	-36.539	201.111	81.045	235.436	27.290	254.431	93.307	275.800	281.426	4.798	299.259	0.0003021	0.00027831	0.00010005	470.51	3.6783e-06	3.1995e-06	399.86	187.19	2.5947e-06	3.3901e-06	187.2	77.866	76.516	42.536	5.1501e-06	42.935	0.0013097	0.0021872	0.00059975	506.34	2.0693e-05	2.4482e-05	430.05	202.24	2.0656e-05	2.46e-05	202.44	84.384	83.516	46.483	2.2768e-05	46.773	77.460	-22.067	46.223	-38.895	71.432	62.164	-40.140	-33.428	47.051	138.984	-36.047	-31.332	-29.017	-24.391	66.049	-28.439	-8191	255	
3222.356	1	1	0	0	0.078059	0.21433	0.084451	0.17709	0.068912	0.19121	0.18377	0.054346	0.20863	0.20581	0.21859	0.12396	0.064762	0.30259	0.14112	0.23598	-1.7708	-2.6813	-2.8958	-2.1625	-2.8667	-2.5396	-2.2458	-2.8854	-2.2167	-2.5646	-2.8688	-2.1396	-2.7396	-2.5792	-2.0292	-3.0208	180.718	-13.620	-12.704	278.821	-2.146	172.433	205.231	288.205	91.209	-0.475	234.280	81.507	249.470	-35.202	283.428	192.483	0.00030984	0.00020321	0.00013145	473.48	2.0662e-06	3.1715e-06	400.35	188.34	4.0976e-06	3.7382e-06	186.34	77.446	77.157	42.792	2.973e-06	43.128	0.0013242	0.0021597	0.00061336	510.09	2.0502e-05	2.4562e-05	430.45	203.87	2.0757e-05	2.5107e-05	202.25	84.487	84.126	46.842	2.2762e-05	46.902	85.088	62.593	44.082	-38.614	89.447	105.122	-39.955	-33.380	91.003	78.615	-36.536	-31.573	-28.659	-24.330	74.073	-28.512	-8191	255	
3222.452	1	1	0	0	0.134	0.018875	0.085879	0.17727	0.098265	0.099132	0.10465	0.21528	0.21046	0.083269	0.11407	0.20214	0.11124	0.04032	0.18924	0.11545	-1.8188	-2.3229	-2.8896	-2.0896	-2.7979	-2.7646	-2.0167	-2.8396	-2.2875	-2.3333	-2.9333	-1.9229	-2.6083	-2.5563	-2.0875	-2.9188	230.231	58.730	251.576	245.272	61.174	-2.507	88.723	-12.323	278.806	240.838	308.045	171.518	215.907	-7.222	224.796	-28.077	0.00033501	0.00040913	9.0476e-05	476.42	3.5525e-06	3.6138e-06	403.12	192.44	2.4408e-06	3.0651e-06	190.19	79.614	79.397	43.994	1.8382e-06	44.077	0.0013415	0.002197	0.00062734	513.24	2.1029e-05	2.5301e-05	433.99	207.64	2.1573e-05	2.5448e-05	205.97	86.427	86.387	48.176	2.3461e-05	47.95	87.206	37.625	37.521	-38.633	87.067	99.078	-40.001	-33.320	58.431	125.578	-36.176	-31.626	-28.832	-24.347	103.630	-28.396	-8191	255	
3222.573	1	1	0	0	0.36243	0.20828	0.081149	0.28786	0.13223	0.31155	0.23209	0.15413	0.33218	0.13235	0.12266	0.12687	0.10925	0.12183	0.046762	0.12801	-2.0812	-2.1646	-2.9271	-2.2417	-2.6292	-2.8063	-2.1167	-2.9854	-2.4375	-2.0854	-2.9042	-2.2271	-2.5167	-2.8875	-2.0187	-3.0333	153.493	132.769	136.261	213.868	286.909	135.012	179.387	23.384	84.182	75.926	233.370	243.070	21.635	283.681	159.738	230.307	0.00033408	0.00032384	8.6439e-05	478.96	1.4512e-06	2.9794e-06	404.38	192.69	2.675e-06	1.6631e-06	191.67	79.53	78.926	43.681	3.0941e-06	43.944	0.0013598	0.0022546	0.0006196	516.37	2.1537e-05	2.5194e-05	436.22	208.12	2.1491e-05	2.546e-05	206.33	86.458	86.009	47.847	2.3057e-05	47.801	80.176	50.767	77.655	-38.949	61.720	60.089	-39.653	-33.307	93.375	65.099	-35.770	-31.514	-28.622	-24.282	109.518	-28.366	-8191	255	
3222.669	1	1	0	0	0.35402	0.3129	0.28764	0.19677	0.24429	0.12713	0.19907	0.15681	0.15537	0.029922	0.016273	0.12892	0.091633	0.14558	0.19267	0.26679	-2.2	-2.2417	-2.9771	-2.1833	-2.4146	-2.9104	-2.0271	-2.8354	-2.6479	-2.1771	-2.9646	-2.3167	-2.4188	-3.0729	-2.0438	-2.8917	8.496	56.786	255.938	174.040	178.235	283.538	194.625	5.683	3.944	279.759	66.018	33.345	32.086	237.887	-46.396	230.396	0.00033714	0.00038635	9.3241e-05	478.34	3.7253e-06	3.324e-06	403.42	190.69	3.7122e-06	4.7568e-06	188.37	78.522	77.432	43.097	5.1747e-06	43.115	0.0013729	0.0022615	0.00062651	513.04	2.1888e-05	2.551e-05	436.08	206.21	2.1847e-05	2.6323e-05	204.17	85.403	84.552	47.033	2.4036e-05	46.918	91.326	19.460	15.424	-38.766	59.038	107.651	-40.072	-33.362	68.660	102.918	-35.989	-31.761	-28.723	-24.065	102.026	-28.431	-8191	255	
3222.765	1	1	0	0	0.2166	0.27342	0.20119	0.094548	0.063643	0.089478	0.068815	0.17135	0.15119	0.17909	0.18069	0.052925	0.08018	0.3077	0.29121	0.11917	-2.3063	-2.0604	-3.0438	-2.3063	-2.2979	-2.7917	-2.2	-2.725	-2.7562	-1.8937	-3.05	-2.3729	-2.4104	-3.0438	-2.15	-2.7208	37.899	-25.696	201.938	78.653	-17.988	102.779	-12.240	261.817	171.140	47.769	204.102	-37.386	163.758	-50.412	71.904	267.149	0.0003248	0.00010784	7.805e-05	469.06	4.2458e-06	4.8458e-06	395.75	185.39	4.8811e-06	5.9081e-06	183.34	75.59	75.022	41.845	7.517e-07	42.006	0.0014044	0.0023698	0.0006432	505.48	2.2797e-05	2.6524e-05	424.73	200.71	2.2124e-05	2.6741e-05	198.33	82.473	82.39	45.779	2.4453e-05	45.731	90.205	56.895	10.732	-38.799	123.132	70.872	-39.910	-33.235	107.377	113.483	-36.283	-31.863	-28.825	-24.196	179.059	-28.338	-8191	255	
3222.861	1	1	0	0	0.11033	0.20793	0.27043	0.064918	0.23844	0.15696	0.019774	0.35925	0.12131	0.25797	0.31036	0.13142	0.26212	0.14239	0.19653	0.052313	-2.4188	-1.9062	-2.8875	-2.3125	-2.0875	-3.0292	-2.2542	-2.4708	-2.8125	-1.8896	-3.1104	-2.4375	-2.1021	-3.0062	-2.1271	-2.5646	271.347	39.277	166.401	48.600	90.851	42.760	256.992	232.326	194.903	54.764	169.596	283.776	221.251	294.052	238.102	295.444	0.00023383	0.00038993	9.4657e-05	467.51	4.0486e-06	3.3064e-06	392.24	183.35	3.3353e-06	3.357e-06	180.63	75.084	74.09	41.165	2.8986e-06	41.575	0.001395	0.0023785	0.00065819	501.8	2.2539e-05	2.7044e-05	422.28	198.16	2.2487e-05	2.6256e-05	195.81	81.555	80.983	45.037	2.4807e-05	45.245	87.894	44.263	64.243	-39.066	110.144	100.038	-40.157	-33.376	109.993	81.490	-36.109	-31.661	-28.607	-24.215	115.995	-28.426	-8191	255	
3222.958	1	1	0	0	0.10375	0.10867	0.18398	0.13566	0.037629	0.16788	0.11366	0.10254	0.10796	0.25553	0.15911	0.11983	0.12722	0.12541	0.22491	0.18064	-2.5563	-2.0229	-2.6521	-2.4125	-2.1021	-2.9688	-2.3458	-2.45	-2.8792	-1.9042	-2.7583	-2.6521	-2.2146	-2.9854	-2.3187	-2.4042	0.855	75.345	13.807	7.266	156.322	275.674	99.135	26.503	235.550	242.558	292.845	-23.853	268.002	259.815	263.604	-40.636	0.00030222	0.00042883	5.6356e-05	464.62	1.2357e-06	6.2976e-06	391.08	180.64	2.6881e-06	1.4586e-06	179.66	74.506	73.286	40.649	3.1341e-06	41.453	0.0014512	0.0023722	0.00067112	498.94	2.2858e-05	2.6339e-05	420.77	195.03	2.2708e-05	2.6536e-05	194.2	80.742	79.888	44.499	2.441e-05	45.084	81.182	27.229	26.731	-38.944	39.114	99.366	-40.006	-33.356	112.350	122.300	-36.407	-31.902	-28.840	-24.357	115.660	-28.211	-8191	255	
3223.052	1	1	0	0	0.055407	0.10849	0.19685	0.10278	0.14002	0.14772	0.16482	0.19448	0.078736	0.2596	0.17093	0.30849	0.18057	0.33402	0.14863	0.12195	-2.5667	-1.9375	-2.875	-2.6937	-1.8458	-2.7833	-2.4604	-2.2875	-2.8688	-2.0083	-2.6417	-2.7979	-2.05	-3.0104	-2.4708	-2.2021	232.007	181.904	84.466	267.253	15.992	-32.983	190.061	306.419	65.057	220.478	191.535	287.354	37.850	-47.185	142.735	113.461	0.00035046	0.00035506	0.0001386	464.38	5.3182e-06	4.1752e-06	391.17	181.78	1.5768e-06	3.358e-06	180.09	74.713	74.112	40.988	2.4244e-06	41.296	0.0014118	0.0023057	0.00066521	498.95	2.233e-05	2.6629e-05	422.94	196.85	2.2845e-05	2.6747e-05	195.29	81.171	80.527	44.785	2.4577e-05	45.037	76.508	66.844	49.381	-38.952	63.883	73.451	-40.306	-33.279	115.409	115.053	-35.924	-31.633	-28.844	-24.208	121.981	-28.116	-8191	255	
3223.173	1	1	0	0	0.31326	0.2255	0.19336	0.18079	0.24431	0.16365	0.12548	0.1892	0.17899	0.055159	0.16282	0.15031	0.26673	0.23018	0.15106	0.075502	-2.5938	-2.1458	-2.4354	-2.8063	-2.0042	-2.8167	-2.4021	-2.3146	-3.0458	-2.2646	-2.5875	-2.8479	-2.1833	-2.8625	-2.7458	-2.3042	225.792	171.109	258.813	233.909	116.445	246.980	-4.604	107.950	227.325	194.483	47.245	308.071	14.008	264.894	138.470	-48.801	0.00027895	0.00045004	0.00014307	463.66	1.777e-06	3.3174e-06	390	183.37	4.1552e-06	2.4494e-06	182.54	75.97	75.884	42.68	3.2855e-06	42.572	0.0013767	0.0023292	0.00065766	499.61	2.2246e-05	2.5789e-05	421.56	198.72	2.2017e-05	2.5629e-05	197.7	82.585	83.077	46.598	2.3421e-05	46.384	80.407	8.175	36.289	-38.961	109.745	112.000	-40.084	-33.365	62.221	118.166	-36.173	-31.279	-28.765	-24.230	91.628	-28.221	-8191	255	
3223.269	1	1	0	0	0.081621	0.14817	0.069521	0.017567	0.056866	0.18674	0.058732	0.33794	0.23714	0.46376	0.078483	0.34044	0.083119	0.28219	0.12399	0.17647	-2.6333	-2.1146	-2.3521	-2.8979	-2.0479	-2.8646	-2.6437	-2.1667	-2.8042	-2.3333	-2.3271	-2.8312	-2.2	-2.7438	-2.5833	-2.125	115.750	294.820	252.579	-50.792	192.024	278.587	274.156	278.539	-15.924	212.464	253.777	118.625	278.365	306.499	268.144	261.657	0.00030641	0.000149	6.0879e-05	478.93	3.6759e-06	2.9041e-06	401.49	193.23	5.3638e-06	2.4753e-06	188.32	78.81	79.499	44.684	9.4745e-07	44.237	0.0013299	0.0022196	0.00063181	514.7	2.1841e-05	2.5591e-05	433.41	209.13	2.1574e-05	2.5657e-05	204.99	85.729	86.931	48.776	2.3899e-05	48.045	85.383	10.948	54.790	-38.773	99.908	99.087	-40.169	-33.324	78.806	86.327	-35.899	-31.562	-28.547	-24.000	93.521	-28.426	-8191	255	
3223.365	1	1	0	0	0.081125	0.28752	0.19529	0.15887	0.33955	0.36831	0.18418	0.13015	0.037956	0.21332	0.11404	0.20221	0.11089	0.2469	0.17141	0.12824	-2.5021	-2.2917	-2.2562	-3.1208	-2.3875	-2.8083	-2.7646	-2.225	-2.8896	-2.4146	-2.2354	-2.8542	-2.1188	-2.6479	-2.9917	-2.1958	199.614	140.708	139.021	197.917	104.659	293.498	186.378	-43.924	260.146	173.667	265.107	54.525	195.409	-20.808	81.891	64.025	0.00030937	0.00043652	7.4055e-05	483.3	2.8392e-06	3.6374e-06	406.22	195.95	3.5582e-07	3.6919e-06	191.94	79.558	80.004	45.045	9.656e-07	44.652	0.0013969	0.0022849	0.00065242	520.83	2.2574e-05	2.688e-05	436.47	211.66	2.2417e-05	2.6244e-05	207.78	86.706	87.796	49.276	2.4105e-05	48.618	82.793	35.866	48.817	-38.762	92.527	83.240	-39.808	-32.916	126.030	89.483	-35.867	-31.412	-28.506	-24.099	43.280	-28.289	-8191	255	
3223.461	1	1	0	0	0.066284	0.1617	0.10994	0.089188	0.30797	0.14051	0.1097	0.16709	0.12061	0.13432	0.15648	0.057858	0.16314	0.074992	0.1689	0.10885	-2.5167	-2.4062	-2.1958	-2.95	-2.1354	-2.5583	-2.9583	-2.2917	-2.8229	-2.5125	-2.2062	-3.0458	-2.0625	-2.6958	-2.8812	-2.2146	30.151	3.058	158.578	268.591	299.469	126.757	203.422	243.539	200.222	226.295	284.548	290.258	210.182	306.053	88.429	263.709	0.00030074	0.00063562	0.00012956	485.88	1.598e-06	3.5962e-06	408.95	196.75	3.6606e-06	2.9764e-06	192.12	80.385	80.435	45.262	5.5369e-06	44.618	0.0013706	0.0022984	0.00064799	522.39	2.2069e-05	2.5613e-05	438.82	212.77	2.1857e-05	2.6315e-05	208.29	87.216	88.195	49.533	2.3561e-05	48.513	86.525	37.062	11.336	-38.699	91.275	114.587	-40.009	-33.236	118.029	96.374	-36.025	-31.330	-28.710	-23.900	120.268	-28.154	-8191	255	
3223.533	1	1	0	0	0.1814	0.20755	0.10615	0.13361	0.14517	0.16248	0.22792	0.25309	0.21907	0.21383	0.090527	0.071608	0.12587	0.35285	0.11522	0.2557	-2.6396	-2.3937	-1.9667	-3.0062	-2.2313	-2.425	-2.9083	-2.1167	-2.7542	-2.5771	-2.0062	-3.1	-2.2333	-2.4042	-2.8083	-2.1896	50.417	267.358	-27.552	291.175	67.736	304.758	269.741	251.682	127.549	155.281	61.505	246.414	288.495	206.839	15.222	164.858	0.00030685	0.00031369	0.00013875	482.66	5.0652e-06	4.7254e-06	404.93	194.6	7.5145e-07	4.9808e-06	189.24	79.642	80.338	44.985	2.3704e-06	44.484	0.0013761	0.0022597	0.00065162	519.47	2.1669e-05	2.5764e-05	435.38	210.74	2.1729e-05	2.5732e-05	206.66	86.513	87.69	49.181	2.3544e-05	48.363	85.931	69.616	9.210	-38.447	101.833	122.174	-39.966	-33.378	160.184	87.147	-35.830	-31.599	-28.559	-23.976	120.014	-28.271	-8191	255	
3223.653	1	1	0	0	0.026838	0.21998	0.2916	0.12656	0.12406	0.14988	0.12809	0.34101	0.13227	0.074677	0.067312	0.41972	0.142	0.21239	0.26333	0.15017	-2.1	-2.7833	-1.9479	-2.9646	-2.3896	-2.1792	-2.9938	-2.0896	-2.4646	-2.8021	-2.2479	-2.925	-2.6125	-2.3854	-2.8021	-2.3792	198.433	146.378	133.887	-46.988	211.700	2.903	-26.483	247.297	-50.520	228.161	234.750	-45.409	302.354	295.077	42.852	40.336	0.00035039	0.00040225	0.00015634	484.76	3.3639e-06	4.5679e-06	406.68	193.82	2.6473e-06	3.1564e-06	191.11	79.364	79.75	44.263	2.3337e-06	44.3	0.0013828	0.0022768	0.00064371	519.14	2.1271e-05	2.587e-05	435.89	209.7	2.1511e-05	2.4956e-05	206.39	86.266	86.714	48.528	2.3e-05	48.069	79.866	69.379	47.079	-38.774	117.159	91.885	-39.928	-33.242	52.323	117.915	-36.079	-31.526	-28.621	-23.992	81.031	-28.475	-8191	255	
3223.750	1	1	0	0	0.34439	0.042598	0.17635	0.20923	0.23521	0.21062	0.20548	0.35932	0.25666	0.23181	0.28365	0.092214	0.16312	0.38403	0.19479	0.20907	-2.3208	-2.7833	-1.9167	-2.8208	-2.3979	-2.1875	-3.1146	-2.2458	-2.4333	-3.0458	-2.1104	-2.7667	-2.7292	-1.9979	-2.7833	-2.3187	214.345	119.696	86.741	204.558	89.561	-14.278	-8.079	192.214	105.287	226.411	219.380	231.125	5.213	277.880	257.085	246.197	0.00029415	0.00034259	0.00016323	481.51	3.9186e-06	4.9685e-06	405.42	193.19	2.9302e-06	4.0025e-07	188.38	78.685	78.101	43.461	1.7981e-06	43.507	0.0013915	0.0022651	0.0006478	517.77	2.2096e-05	2.629e-05	436.43	208.3	2.2026e-05	2.5724e-05	204.27	85.478	85.279	47.482	2.3641e-05	47.26	80.776	48.484	34.130	-38.539	75.241	99.138	-39.728	-33.253	74.325	31.518	-35.848	-31.344	-28.639	-23.972	86.008	-28.390	-8191	255	
3223.846	1	1	0	0	0.13672	0.17098	0.0668	0.22285	0.29987	0.024785	0.087912	0.23445	0.30137	0.14329	0.099402	0.27184	0.070173	0.21187	0.18637	0.13442	-2.2	-2.7375	-2.0167	-2.7687	-2.5646	-2.0333	-2.8937	-2.3271	-2.2021	-3.1042	-2.0187	-2.7875	-2.6875	-2.025	-2.8958	-2.5062	297.691	277.953	121.463	244.991	-45.175	123.538	202.930	192.979	163.672	21.296	134.842	294.170	9.838	-33.348	269.274	129.388	0.00026153	0.00048601	0.00014567	468.78	4.173e-06	4.3131e-06	394.26	185.71	9.4355e-07	3.6599e-06	182.22	75.857	74.9	41.759	2.871e-06	42.12	0.0013933	0.0022867	0.00064797	506.65	2.2096e-05	2.6343e-05	425.96	200.96	2.2173e-05	2.5613e-05	197.55	82.31	81.927	45.677	2.34e-05	45.758	86.496	32.659	19.029	-38.613	100.369	92.877	-39.659	-33.277	123.745	119.030	-36.026	-31.341	-28.798	-24.252	91.348	-28.346	-8191	255	
3223.942	1	1	0	0	0.13458	0.22302	0.19955	0.032498	0.091816	0.3642	0.081096	0.092291	0.28275	0.21875	0.11489	0.17331	0.083945	0.157	0.21078	0.25965	-2.0604	-3.0125	-2.0938	-2.6458	-2.7396	-2.1813	-2.8583	-2.5604	-2.2854	-2.9875	-2.2833	-2.5396	-2.9521	-2.1625	-2.8229	-2.7917	143.032	-38.442	209.339	148.767	75.935	35.435	305.537	-50.504	216.609	85.931	178.500	-19.376	301.209	19.546	-42.890	281.968	0.00030796	0.00034289	8.2186e-05	465.03	2.9587e-06	3.5792e-06	392.33	183.9	2.4728e-06	3.7908e-06	181.43	75.479	75.213	41.669	2.2287e-06	41.973	0.0013847	0.0022497	0.00063976	499.22	2.1492e-05	2.5788e-05	421.68	198.16	2.1495e-05	2.4706e-05	196.61	82.163	81.773	45.638	2.2545e-05	45.69	94.294	23.270	66.216	-38.697	99.580	113.306	-39.866	-33.389	92.551	78.768	-35.950	-31.643	-28.690	-24.167	96.756	-28.290	-8191	255	
3224.061	1	1	0	0	0.027087	0.075815	0.13639	0.30668	0.27354	0.26159	0.0781	0.10489	0.17502	0.13897	0.14743	0.24463	0.13399	0.24611	0.13192	0.066311	-1.5792	-3.0687	-2.2354	-2.5333	-2.7292	-1.9125	-2.8917	-2.625	-1.9083	-2.9104	-2.4083	-2.4167	-3.0208	-2.1167	-2.8292	-2.7271	109.134	18.125	41.041	290.691	198.163	187.396	7.300	52.268	37.735	-0.196	168.193	79.024	283.840	6.784	292.629	175.377	0.00030216	0.00016415	9.0003e-05	466.68	1.7742e-06	3.1075e-06	395.04	182.49	9.5412e-07	3.1051e-06	181.39	75.378	74.172	41.317	3.4677e-06	41.94	0.0013351	0.0021523	0.00061962	500.43	2.1361e-05	2.5022e-05	423.31	197.46	2.1462e-05	2.4345e-05	196.15	81.802	81.037	45.162	2.3076e-05	45.63	98.512	24.959	25.177	-38.632	74.972	120.194	-39.861	-33.381	55.247	95.346	-36.145	-31.619	-28.556	-24.180	123.043	-28.462	-8191	255	
3224.134	1	1	0	0	0.086048	0.057469	0.14762	0.032185	0.19572	0.20308	0.20369	0.28516	0.18288	0.094331	0.15561	0.1033	0.072724	0.14378	0.26384	0.11312	-1.7958	-2.7104	-2.2979	-2.3458	-2.8896	-2.0938	-2.7604	-2.8042	-1.9354	-3.025	-2.3479	-2.1562	-3.05	-2.2667	-2.675	-2.8146	36.070	184.526	187.147	246.622	180.140	168.668	308.343	258.034	3.063	129.557	80.116	50.885	73.884	-6.470	292.636	259.215	0.00023208	0.00028869	0.00011674	465.91	1.8024e-06	2.7428e-06	396.44	185.76	4.0731e-06	3.9448e-06	184.42	77.17	75.806	42.133	4.3097e-06	42.612	0.0013704	0.0021603	0.00063223	502.05	2.1547e-05	2.5612e-05	427	200.64	2.2185e-05	2.4841e-05	199.66	83.621	82.713	46.131	2.3106e-05	46.384	90.062	68.156	22.432	-38.680	35.742	109.543	-40.007	-33.521	81.045	77.447	-36.182	-31.505	-28.668	-24.008	115.059	-28.408	-8191	255	
#DATA ENDS
