BOXY.EXE: ISS Imagent and Oximeter Data Acquisition Program Version 0.80
Ascii Record File

#ACQ INFORMATION
2  Detector Channels 
16  External MUX Channels 
1  Auxiliary Channels 
5000  Waveform (CCF) Frequency (Hz)
1  Waveforms Skipped 
30  Waveforms Averaged 
1  Cycles Averaged 
16  Acquisitions per Waveform 
10.0806  Updata Rate (Hz) 

#FILE INFORMATION
TRUE -- External MUX Channel results are PARSED.
FALSE -- AC DC and Phase are NOT grouped.
TRUE -- Companion Program Settings File CREATED.
FALSE -- AC data not excluded
FALSE -- DC data not excluded
FALSE -- Phase data not excluded
FALSE -- Auxillary Chn. data not excluded
Tab delimiters

#CALIBRATION STATE
TRUE -- Waveform Calibration Values APPLIED.


#AUX CALIBRATION VALUES
Val Type	aux-1	

Term	1.0000e+00	
Factor	0.0000e+00	


#WF CALIBRATION VALUES
A = Detector Channel
Val Type	A-AC1	A-AC2	A-AC3	A-AC4	A-AC5	A-AC6	A-AC7	A-AC8	A-AC9	A-AC10	A-AC11	A-AC12	A-AC13	A-AC14	A-AC15	A-AC16	A-DC1	A-DC2	A-DC3	A-DC4	A-DC5	A-DC6	A-DC7	A-DC8	A-DC9	A-DC10	A-DC11	A-DC12	A-DC13	A-DC14	A-DC15	A-DC16	A-Ph1	A-Ph2	A-Ph3	A-Ph4	A-Ph5	A-Ph6	A-Ph7	A-Ph8	A-Ph9	A-Ph10	A-Ph11	A-Ph12	A-Ph13	A-Ph14	A-Ph15	A-Ph16	

Term	0.00000e+00	0.00000e+00	0.00000e+00	0.00000e+00	0.00000e+00	0.00000e+00	0.00000e+00	0.00000e+00	0.00000e+00	0.00000e+00	0.00000e+00	0.00000e+00	0.00000e+00	0.00000e+00	0.00000e+00	0.00000e+00	0.00000e+00	0.00000e+00	0.00000e+00	0.00000e+00	0.00000e+00	0.00000e+00	0.00000e+00	0.00000e+00	0.00000e+00	0.00000e+00	0.00000e+00	0.00000e+00	0.00000e+00	0.00000e+00	0.00000e+00	0.00000e+00	0.00000e+00	0.00000e+00	0.00000e+00	0.00000e+00	0.00000e+00	0.00000e+00	0.00000e+00	0.00000e+00	0.00000e+00	0.00000e+00	0.00000e+00	0.00000e+00	0.00000e+00	0.00000e+00	0.00000e+00	0.00000e+00	
Factor	1.00000e+00	1.00000e+00	1.00000e+00	1.00000e+00	1.00000e+00	1.00000e+00	1.00000e+00	1.00000e+00	1.00000e+00	1.00000e+00	1.00000e+00	1.00000e+00	1.00000e+00	1.00000e+00	1.00000e+00	1.00000e+00	1.00000e+00	1.00000e+00	1.00000e+00	1.00000e+00	1.00000e+00	1.00000e+00	1.00000e+00	1.00000e+00	1.00000e+00	1.00000e+00	1.00000e+00	1.00000e+00	1.00000e+00	1.00000e+00	1.00000e+00	1.00000e+00	X	X	X	X	X	X	X	X	X	X	X	X	X	X	X	X	

B = Detector Channel
Val Type	B-AC1	B-AC2	B-AC3	B-AC4	B-AC5	B-AC6	B-AC7	B-AC8	B-AC9	B-AC10	B-AC11	B-AC12	B-AC13	B-AC14	B-AC15	B-AC16	B-DC1	B-DC2	B-DC3	B-DC4	B-DC5	B-DC6	B-DC7	B-DC8	B-DC9	B-DC10	B-DC11	B-DC12	B-DC13	B-DC14	B-DC15	B-DC16	B-Ph1	B-Ph2	B-Ph3	B-Ph4	B-Ph5	B-Ph6	B-Ph7	B-Ph8	B-Ph9	B-Ph10	B-Ph11	B-Ph12	B-Ph13	B-Ph14	B-Ph15	B-Ph16	

Term	0.00000e+00	0.00000e+00	0.00000e+00	0.00000e+00	0.00000e+00	0.00000e+00	0.00000e+00	0.00000e+00	0.00000e+00	0.00000e+00	0.00000e+00	0.00000e+00	0.00000e+00	0.00000e+00	0.00000e+00	0.00000e+00	0.00000e+00	0.00000e+00	0.00000e+00	0.00000e+00	0.00000e+00	0.00000e+00	0.00000e+00	0.00000e+00	0.00000e+00	0.00000e+00	0.00000e+00	0.00000e+00	0.00000e+00	0.00000e+00	0.00000e+00	0.00000e+00	-1.93096e+02	-1.31651e+02	-1.26893e+02	-1.81391e+02	-8.12550e+01	-6.54229e+01	-1.56795e+02	-1.62015e+02	-8.71340e+01	-6.29356e+01	-1.74004e+02	-1.71240e+02	-1.79095e+02	-1.76490e+02	-7.82813e+01	-1.49299e+02	
Factor	3.61994e-05	1.37445e-04	4.05246e-05	1.50909e-01	1.47821e-06	1.56133e-06	1.51247e-01	4.83322e-02	1.61963e-06	1.49477e-06	8.33551e-02	2.69328e-02	2.70377e-02	8.24457e-03	1.53392e-06	1.18361e-02	1.83736e-05	3.60318e-05	1.01782e-05	8.04857e-02	3.42701e-07	4.15052e-07	7.58372e-02	2.58983e-02	3.41234e-07	4.10228e-07	4.32733e-02	1.39519e-02	1.46541e-02	4.46483e-03	3.66053e-07	6.20000e-03	X	X	X	X	X	X	X	X	X	X	X	X	X	X	X	X	



#DISTANCE SETTINGS
A = Detector Channel
A-1	A-2	A-3	A-4	A-5	A-6	A-7	A-8	A-9	A-10	A-11	A-12	A-13	A-14	A-15	A-16	

2.5000e+00	3.0000e+00	2.5000e+00	3.0000e+00	2.0000e+00	3.0000e+00	1.5000e+00	3.0000e+00	3.0000e+00	3.0000e+00	3.0000e+00	3.0000e+00	3.0000e+00	3.0000e+00	1.5000e+00	3.0000e+00	

B = Detector Channel
B-1	B-2	B-3	B-4	B-5	B-6	B-7	B-8	B-9	B-10	B-11	B-12	B-13	B-14	B-15	B-16	

1.0000e+01	1.0000e+01	1.0000e+01	1.4400e+00	1.0000e+01	1.0000e+01	1.5100e+00	1.9400e+00	1.0000e+01	1.0000e+01	1.9900e+00	2.4900e+00	2.4100e+00	2.9000e+00	1.0000e+01	2.9800e+00	




#DATA BEGINS
time	group	step	mark	flag	A-AC1	A-AC2	A-AC3	A-AC4	A-AC5	A-AC6	A-AC7	A-AC8	A-AC9	A-AC10	A-AC11	A-AC12	A-AC13	A-AC14	A-AC15	A-AC16	A-DC1	A-DC2	A-DC3	A-DC4	A-DC5	A-DC6	A-DC7	A-DC8	A-DC9	A-DC10	A-DC11	A-DC12	A-DC13	A-DC14	A-DC15	A-DC16	A-Ph1	A-Ph2	A-Ph3	A-Ph4	A-Ph5	A-Ph6	A-Ph7	A-Ph8	A-Ph9	A-Ph10	A-Ph11	A-Ph12	A-Ph13	A-Ph14	A-Ph15	A-Ph16	B-AC1	B-AC2	B-AC3	B-AC4	B-AC5	B-AC6	B-AC7	B-AC8	B-AC9	B-AC10	B-AC11	B-AC12	B-AC13	B-AC14	B-AC15	B-AC16	B-DC1	B-DC2	B-DC3	B-DC4	B-DC5	B-DC6	B-DC7	B-DC8	B-DC9	B-DC10	B-DC11	B-DC12	B-DC13	B-DC14	B-DC15	B-DC16	B-Ph1	B-Ph2	B-Ph3	B-Ph4	B-Ph5	B-Ph6	B-Ph7	B-Ph8	B-Ph9	B-Ph10	B-Ph11	B-Ph12	B-Ph13	B-Ph14	B-Ph15	B-Ph16	aux-1	digaux	

3489.858	1	1	0	512	0.34638	0.18248	0.18007	0.05914	0.1682	0.29313	0.071483	0.21887	0.27422	0.23243	0.25287	0.18969	0.16087	0.29248	0.28045	0.061173	-1.9396	-3.1729	-2.575	-2.6792	-3.1854	-2.5062	-2.8875	-3.0396	-2.4208	-3.0708	-2.8979	-2.5208	-3.3812	-2.5667	-2.8292	-3.0771	179.786	-12.631	-103.307	16.495	-79.681	5.678	210.589	168.573	49.300	-23.314	122.286	115.559	146.486	223.162	161.263	84.775	0.00026296	0.00023622	1.5864e-05	259.3	3.2326e-06	3.0528e-06	231.97	112.48	3.537e-06	1.6823e-06	100.68	41.811	49.964	25.02	1.3134e-06	20.99	0.00092576	0.0014885	0.0004274	265.67	1.4547e-05	1.7603e-05	237.63	116.35	1.5309e-05	1.7711e-05	104.29	43.11	51.618	26.081	1.5728e-05	21.73	125.798	-14.165	-60.632	-93.781	65.393	42.657	-95.573	-89.047	-30.951	84.891	-91.935	-89.345	-85.438	-80.658	23.276	-84.750	-8191	255	
3489.930	1	1	0	0	0.18088	0.14267	0.17938	0.26689	0.11405	0.032524	0.052351	0.15602	0.2405	0.16727	0.13964	0.14417	0.15835	0.13621	0.13193	0.040849	-2.0833	-3.0604	-2.9854	-2.5333	-3.4021	-2.5625	-2.6354	-3.1417	-2.1437	-2.9833	-2.9146	-2.25	-3.0292	-2.5563	-2.5771	-3.325	216.632	-92.884	-18.973	185.849	247.161	-51.552	110.864	186.716	188.731	82.953	144.338	35.493	206.420	193.006	177.709	5.067	0.00021848	0.00048359	2.5484e-05	260.85	1.5556e-06	2.561e-06	232.64	113.28	2.8187e-06	3.2269e-06	100.54	41.454	49.957	25.085	1.7448e-06	20.753	0.00091558	0.0015698	0.00043533	266.5	1.464e-05	1.7897e-05	239.14	116.42	1.4934e-05	1.7348e-05	104.22	42.964	51.736	26.209	1.6084e-05	21.645	146.182	-7.134	219.570	-93.878	70.825	70.339	-95.558	-89.460	-8.592	41.725	-92.454	-89.067	-85.276	-80.473	-12.930	-85.118	-8191	255	
3490.026	1	1	0	0	0.17736	0.25735	0.14972	0.15079	0.15589	0.11497	0.065517	0.13234	0.04508	0.10125	0.313	0.19164	0.06449	0.094307	0.1756	0.19549	-1.8958	-2.9104	-2.6896	-2.2562	-3.0312	-2.6188	-2.7667	-3.0667	-2.4021	-2.8354	-3.0833	-2.3125	-3.2	-2.7375	-2.6063	-3.2083	119.781	-45.914	246.505	24.077	5.174	165.371	200.492	-53.316	-6.019	10.646	227.267	-34.090	161.343	43.235	-15.981	-66.131	0.00012516	0.0002381	5.5474e-05	256.73	3.8332e-06	1.9371e-06	229.93	111.83	4.0902e-06	1.3e-06	98.801	40.541	49.118	24.699	2.1133e-06	20.106	0.00091083	0.0015203	0.00042653	263.98	1.4941e-05	1.7966e-05	236.77	115.24	1.4759e-05	1.7373e-05	102.47	42.071	50.924	25.703	1.6099e-05	21.09	130.718	1.825	12.709	-93.970	20.167	23.615	-95.568	-88.902	1.596	73.195	-91.883	-88.569	-85.286	-80.588	43.117	-84.986	-8191	255	
3490.124	1	1	0	0	0.076496	0.15237	0.13453	0.15473	0.12947	0.22482	0.10813	0.32231	0.19064	0.21407	0.16802	0.11811	0.0769	0.12454	0.065828	0.11053	-1.9667	-2.9667	-2.9688	-2.2417	-3.0854	-2.7562	-2.4708	-3.2062	-2.3375	-2.5979	-2.925	-2.2667	-3.1146	-2.9188	-2.4271	-3.2896	249.062	250.291	-26.247	61.959	103.287	-72.832	-107.037	185.622	-48.580	144.769	-25.079	-39.051	179.782	229.450	214.344	-20.702	0.00021738	8.9806e-05	2.9854e-05	256.32	2.4808e-06	6.7614e-07	228.2	111.6	2.1626e-06	2.3158e-06	100.19	40.713	49.09	24.821	1.3466e-06	20.585	0.00091179	0.001526	0.00042757	263.12	1.437e-05	1.7507e-05	234.06	115.35	1.4607e-05	1.7568e-05	103.04	42.322	50.974	25.766	1.6476e-05	21.501	137.108	8.769	-7.295	-94.102	25.830	8.934	-95.712	-89.466	-7.850	60.228	-92.374	-89.263	-85.143	-80.375	84.357	-85.034	-8191	255	
3490.243	1	1	0	0	0.26786	0.22817	0.15559	0.32173	0.23472	0.11055	0.22869	0.19356	0.090036	0.06113	0.022098	0.080312	0.10916	0.11027	0.14376	0.10017	-1.9771	-2.4792	-3.1354	-2.1396	-2.9417	-2.9062	-2.4062	-3.1958	-2.5438	-2.3479	-3.1042	-2.1646	-2.8937	-2.9708	-2.275	-3.2354	-86.650	-66.647	29.453	219.354	71.514	184.316	52.857	185.223	-61.644	9.128	5.853	16.916	-16.003	-88.139	-16.449	74.673	0.00018815	5.7541e-05	1.7024e-06	259.16	1.4807e-06	1.6014e-06	229.24	111.87	1.3139e-06	2.1228e-06	99.03	41.297	49.201	24.658	1.9829e-06	20.894	0.00089433	0.001528	0.00042801	264.06	1.487e-05	1.7175e-05	235.32	115.65	1.4281e-05	1.753e-05	103.16	42.637	51.058	25.839	1.6358e-05	21.736	125.968	-14.227	98.188	-93.912	-44.970	70.529	-96.350	-89.283	39.392	57.202	-92.114	-88.814	-85.403	-80.381	88.520	-85.007	-8191	255	
3490.339	1	1	0	0	0.084118	0.21365	0.25473	0.11237	0.23237	0.1304	0.15759	0.14105	0.31981	0.1955	0.31172	0.15387	0.12184	0.048325	0.096934	0.042097	-2.2792	-2.4562	-3.1063	-2.3063	-2.9333	-2.9354	-2.2208	-3.3375	-2.4958	-2.4667	-3.1771	-2.2417	-2.7583	-2.9583	-2.1479	-3.0938	-94.526	50.289	53.343	155.014	20.700	252.747	-93.364	170.765	25.544	-94.908	-105.933	215.508	-81.950	-14.841	196.662	180.018	0.00023722	0.00024623	6.6772e-05	258.69	4.1706e-06	1.6825e-06	228.94	112.21	1.3078e-06	1.6965e-06	99.363	40.478	48.807	24.715	1.1364e-06	20.826	0.0008817	0.0015677	0.00043946	263.82	1.499e-05	1.7862e-05	234.17	115.7	1.521e-05	1.7317e-05	102.78	42.019	50.648	25.826	1.6633e-05	21.445	124.298	-78.694	-4.916	-93.874	-10.420	48.917	-95.395	-89.206	-68.123	57.729	-92.515	-89.160	-85.129	-80.747	15.006	-84.841	-8191	255	
3490.435	1	1	0	0	0.16122	0.10562	0.18125	0.14222	0.11067	0.37385	0.22826	0.27809	0.14283	0.163	0.17642	0.12517	0.20726	0.12789	0.073291	0.158	-2.2896	-2.4688	-3.1063	-2.4583	-2.6854	-3.0646	-2.3167	-3.1813	-2.7354	-2.4271	-3.1333	-2.6042	-2.5833	-2.9938	-2.2208	-3.0333	70.220	-97.349	118.464	185.554	97.904	54.316	-68.043	145.405	220.719	-60.364	-52.893	239.745	175.026	234.139	217.724	176.978	0.00019745	0.00028671	4.2967e-05	255.62	1.5722e-06	3.6603e-06	227.25	112.15	2.9577e-06	1.164e-06	99.137	40.555	48.665	24.885	1.5121e-06	20.667	0.00092178	0.0015996	0.00043925	261.98	1.4819e-05	1.7767e-05	233.04	115.44	1.5424e-05	1.8476e-05	102.42	41.959	50.592	25.935	1.6631e-05	21.56	124.410	11.354	246.664	-94.380	26.441	52.751	-96.042	-89.249	26.345	-78.738	-92.894	-89.091	-85.311	-80.553	30.674	-85.161	-8191	255	
3490.556	1	1	0	0	0.278	0.15312	0.19326	0.17484	0.15906	0.17791	0.12676	0.25413	0.11826	0.14038	0.34606	0.1589	0.074325	0.077046	0.09505	0.11153	-2.4813	-2.2792	-3.0875	-2.5583	-2.5583	-3.3146	-2.2313	-3.05	-2.8688	-2.2479	-3.2854	-2.7	-2.6104	-3.1583	-2.4125	-2.9625	200.639	-5.385	71.522	126.106	227.943	10.453	125.398	-32.086	-45.502	-48.293	-71.278	136.177	90.950	106.974	110.649	249.152	0.00021008	0.0001231	9.8975e-05	256.07	1.1555e-06	1.1515e-06	228.17	113.15	1.9262e-06	2.0157e-06	100.53	41.172	48.938	25.028	3.4143e-07	21.248	0.00092331	0.0016181	0.00044996	261.48	1.5239e-05	1.7804e-05	234.67	116.61	1.4949e-05	1.8312e-05	103.61	42.691	50.981	26.203	1.6626e-05	22.091	135.536	7.284	-49.768	-94.349	248.400	45.962	-95.564	-89.228	15.270	85.402	-92.700	-88.961	-84.944	-80.772	-106.113	-84.675	-8191	255	
3490.628	1	1	0	0	0.16645	0.090955	0.23	0.18532	0.24913	0.15419	0.11811	0.27777	0.20994	0.32771	0.098827	0.14473	0.27717	0.1568	0.14629	0.23244	-2.5833	-2.0667	-3.0563	-2.5729	-2.4437	-3.2271	-2.5958	-2.65	-3.0521	-2.1792	-2.9604	-2.7562	-2.4146	-3.1604	-2.5479	-2.5042	114.006	172.906	32.111	80.286	31.979	-40.415	170.701	146.931	134.827	-15.549	0.046	31.057	21.027	236.134	142.265	120.389	0.00025056	0.00014124	9.303e-05	255.6	1.5522e-06	2.5573e-06	232.21	113.38	2.5618e-06	2.8475e-06	100.83	41.306	49.727	25.301	2.4385e-06	21.214	0.00091921	0.0016425	0.0004355	262.58	1.5414e-05	1.8114e-05	237.4	116.59	1.5417e-05	1.8486e-05	104.17	43.07	51.7	26.415	1.6716e-05	22.109	146.043	6.535	-39.434	-94.012	49.366	54.601	-95.434	-89.194	25.338	70.835	-91.911	-89.531	-85.909	-80.639	9.303	-84.642	-8191	255	
3490.724	1	1	0	0	0.10928	0.21103	0.23304	0.099849	0.16865	0.17642	0.19431	0.033274	0.079966	0.013974	0.27239	0.046549	0.19026	0.10305	0.21247	0.21069	-2.7271	-2.1854	-2.9062	-2.8688	-2.1625	-3.0229	-2.4146	-2.5125	-3.1167	-2.3563	-3.0583	-3.0208	-2.3042	-3.1479	-2.7188	-2.5333	203.654	168.763	-57.637	159.064	31.909	-32.208	-67.702	223.921	132.212	-21.071	230.582	231.866	148.232	105.017	-16.514	216.666	0.00018307	5.2187e-05	3.9475e-05	258.36	2.9455e-06	2.4304e-06	230.49	113.48	1.9212e-06	1.8662e-06	101.05	41.372	49.285	25.281	3.0812e-06	20.972	0.00092997	0.0016253	0.00044697	263.84	1.5359e-05	1.7341e-05	236.34	116.79	1.5454e-05	1.7806e-05	103.89	42.741	51.404	26.433	1.6356e-05	21.922	152.304	-9.603	-20.772	-94.242	14.055	71.247	-96.032	-89.203	-4.194	27.160	-92.416	-88.822	-85.156	-80.283	26.753	-84.789	-8191	255	
3490.844	1	1	0	0	0.17249	0.19149	0.13266	0.068868	0.262	0.028587	0.1216	0.13715	0.13584	0.23391	0.39665	0.25758	0.11961	0.11186	0.14548	0.090584	-2.8688	-2.2354	-2.8979	-2.8375	-2.2021	-3.0271	-2.3375	-2.4875	-3.275	-2.3083	-2.8604	-3.1375	-2.2542	-3.0938	-2.5833	-2.525	99.654	219.375	159.855	7.210	-100.990	38.451	192.340	158.895	80.751	191.964	3.076	-97.390	120.655	204.630	245.314	236.563	0.00018622	0.00043001	4.4045e-05	256.35	1.9106e-06	1.0565e-06	228.79	112.56	1.1968e-06	2.1356e-06	100.66	41.392	49.495	25.494	3.295e-06	21.362	0.00090674	0.0016148	0.0004303	262.61	1.5252e-05	1.7373e-05	235.22	116.02	1.4625e-05	1.7907e-05	104.04	42.826	51.481	26.556	1.6257e-05	22.148	132.153	-48.629	7.126	-94.061	4.585	81.034	-95.378	-89.230	149.218	17.636	-92.341	-89.274	-85.348	-80.767	45.101	-85.161	-8191	255	
3490.939	1	1	0	0	0.18328	0.080208	0.25232	0.09009	0.061047	0.21135	0.15939	0.33396	0.16279	0.13537	0.16314	0.20932	0.34204	0.14686	0.25889	0.30226	-2.8729	-2.3167	-2.8458	-3.0083	-2.1958	-3.05	-2.7292	-2.4062	-3.2125	-2.4792	-2.6813	-3.1479	-2.1583	-3.0333	-2.9458	-2.4562	118.486	61.486	-35.264	148.201	2.063	78.672	57.890	99.246	67.912	158.796	235.321	168.030	220.988	110.427	58.573	229.781	0.0002527	0.00023303	3.1193e-05	257.57	2.9464e-06	3.3009e-06	230.7	113.54	2.8521e-06	3.2754e-06	100.92	41.628	49.66	25.488	3.078e-06	21.251	0.00090578	0.001562	0.000433	263.7	1.4955e-05	1.809e-05	236.46	116.84	1.5525e-05	1.8118e-05	104.37	43.208	51.574	26.537	1.6516e-05	22.218	143.426	-59.700	-15.220	-94.488	73.813	62.234	-95.313	-89.176	6.802	53.771	-92.466	-89.178	-85.383	-80.434	0.528	-85.173	-8191	255	
3491.035	1	1	0	0	0.094876	0.017332	0.14182	0.013511	0.20773	0.27195	0.1667	0.23558	0.35141	0.26531	0.1198	0.12586	0.20011	0.2362	0.3423	0.19698	-2.7542	-2.5167	-2.3792	-3.15	-2.3937	-2.8958	-2.8542	-2.3271	-3.0833	-2.6708	-2.3979	-3.1688	-2.3333	-2.9458	-2.9125	-2.1979	113.556	-23.642	117.787	-45.196	195.971	-65.264	246.749	-103.161	235.222	188.932	162.234	-40.496	-80.342	136.319	167.663	-48.222	0.000219	0.00016217	1.6609e-05	257.39	1.4396e-06	2.5659e-06	230.39	114.27	1.2279e-06	1.3042e-06	101.92	42	50.077	25.767	2.8748e-06	21.648	0.00092209	0.0015728	0.0004404	263.52	1.5418e-05	1.7954e-05	237.14	117.56	1.5029e-05	1.8042e-05	105.01	43.578	51.929	26.8	1.652e-05	22.41	132.455	-60.996	-100.179	-93.978	2.644	-1.715	-95.885	-89.246	190.494	-14.049	-92.439	-89.022	-85.672	-80.439	56.157	-85.082	-8191	255	
3491.156	1	1	0	0	0.082018	0.14082	0.21973	0.096063	0.081249	0.066669	0.025989	0.11236	0.21506	0.20643	0.14399	0.11488	0.27788	0.11454	0.19532	0.12905	-2.8771	-2.5208	-2.5167	-3.2167	-2.5312	-2.7062	-2.9521	-2.4	-3.1542	-2.6833	-2.3896	-3.0563	-2.5542	-2.8438	-2.8958	-2.4125	161.929	-75.724	195.317	220.578	-42.785	173.598	226.976	246.386	121.717	147.061	75.477	191.946	240.869	181.042	238.143	129.858	0.00017257	0.00019749	5.1814e-05	255.57	4.1423e-06	2.8885e-06	231.37	113.2	1.9759e-06	1.1259e-06	100.36	41.439	49.243	25.68	3.283e-07	21.238	0.00092293	0.0015614	0.00045168	262.77	1.5439e-05	1.8279e-05	235.86	116.81	1.5231e-05	1.8316e-05	103.5	42.924	51.446	26.756	1.6884e-05	22.202	134.686	-7.987	45.083	-94.103	29.418	42.806	-96.199	-89.256	56.952	-11.933	-92.450	-89.263	-85.378	-80.437	160.616	-84.639	-8191	255	
3491.227	1	1	0	0	0.15043	0.14908	0.15959	0.33199	0.11618	0.24169	0.13181	0.13515	0.090999	0.2169	0.38049	0.1358	0.10793	0.12589	0.12653	0.15388	-2.6917	-2.6667	-2.5563	-3.2271	-2.4354	-2.7417	-3.175	-2.0958	-3.0563	-2.8083	-2.5167	-3.0854	-2.35	-2.5417	-3.15	-2.1479	-68.650	24.089	220.620	183.500	-70.785	30.861	132.369	13.147	140.417	-68.913	25.871	-105.905	240.302	177.450	169.824	237.712	0.00017938	0.00047633	6.923e-05	256.9	3.3716e-07	1.7796e-06	232.11	113.17	2.3238e-06	2.8721e-06	99.855	42.048	49.65	26.064	1.7101e-06	21.534	0.0009294	0.001599	0.00046839	261.92	1.5484e-05	1.8977e-05	235.46	116.93	1.588e-05	1.8636e-05	104.04	43.481	51.581	27.098	1.72e-05	22.64	152.407	5.090	-33.613	-94.178	-30.174	157.806	-95.650	-89.460	-12.480	51.565	-92.126	-89.191	-85.019	-80.557	38.569	-84.511	-8191	255	
3491.323	1	1	0	0	0.12068	0.20562	0.22896	0.065278	0.065273	0.053899	0.065805	0.19027	0.052011	0.32223	0.033129	0.23328	0.15748	0.24751	0.10777	0.20325	-2.8854	-2.6437	-2.2062	-3.2542	-2.5667	-2.5229	-3.2792	-2.2917	-2.8792	-2.8958	-2.2354	-3.1583	-2.6854	-2.5583	-3.0979	-2.3833	186.500	110.755	232.108	-76.515	72.495	-52.019	48.019	146.198	-49.067	155.489	169.077	141.011	167.126	189.087	-27.110	149.436	0.00015427	0.00019595	5.4479e-05	256.18	3.5971e-06	1.5325e-06	228.93	114.16	2.3912e-06	2.16e-06	100.64	42.126	49.858	25.83	2.455e-06	21.63	0.00094601	0.0016695	0.00048287	262.17	1.5766e-05	1.9597e-05	235.68	117.62	1.608e-05	1.9376e-05	104.85	43.685	51.862	26.956	1.7598e-05	22.566	139.919	-19.721	45.162	-94.080	66.202	-44.965	-95.395	-89.349	-20.982	45.412	-92.331	-89.291	-85.504	-80.476	33.858	-85.009	-8191	255	
3491.420	1	1	0	0	0.13998	0.062013	0.32451	0.20191	0.095413	0.14726	0.074945	0.079126	0.35944	0.34016	0.095247	0.047945	0.15242	0.15542	0.13599	0.13699	-2.4229	-3.0062	-2.2042	-3.0667	-2.7396	-2.4771	-3.1375	-2.4458	-2.5917	-3.0125	-2.4396	-3.0208	-2.8	-2.4271	-3.1854	-2.6708	-56.856	184.536	72.324	164.210	-64.505	148.825	34.190	179.342	-88.047	-97.445	127.853	-24.048	217.502	133.101	10.129	5.456	0.00017623	0.00013685	9.7735e-05	255.3	9.5027e-07	1.5649e-06	230.69	113.72	2.0513e-06	9.5229e-07	100.78	41.976	49.637	25.555	2.5306e-06	21.369	0.00099451	0.0017086	0.00048408	261.72	1.6241e-05	1.966e-05	237.57	117.32	1.6224e-05	1.8513e-05	104.29	43.321	51.357	26.717	1.7124e-05	22.344	136.367	-53.331	-29.893	-93.969	16.705	65.948	-95.520	-89.442	86.957	93.139	-92.455	-89.140	-85.215	-80.388	64.670	-84.584	-8191	255	
3491.540	1	1	0	0	0.10575	0.075218	0.11519	0.17873	0.22207	0.04169	0.41953	0.1461	0.32236	0.31661	0.066235	0.15591	0.22322	0.23828	0.28497	0.25476	-2.2687	-3.0125	-2.2479	-3.1458	-2.825	-2.2458	-3.175	-2.5917	-2.6688	-3.2	-2.2583	-2.9958	-3.0021	-2.2979	-3.2938	-2.5625	-16.721	28.289	132.941	169.910	-54.763	16.264	148.947	34.920	0.321	-73.814	169.293	31.021	-53.160	-73.960	-96.734	250.422	0.00021307	0.00032162	0.0001001	255.13	2.3547e-06	2.2642e-06	229.51	114.37	1.2744e-06	1.7025e-06	99.765	41.117	49.175	25.472	1.4083e-06	21.181	0.00096997	0.0016385	0.00045995	262.26	1.5963e-05	1.9323e-05	234.51	117.25	1.6167e-05	1.8806e-05	103.37	42.822	51.079	26.645	1.7344e-05	22.197	146.242	-48.358	-76.561	-94.288	43.985	120.779	-95.484	-89.621	114.505	46.044	-92.741	-88.765	-85.307	-80.335	-100.718	-85.178	-8191	255	
3491.636	1	1	0	0	0.098639	0.079457	0.045353	0.083086	0.037974	0.081619	0.1505	0.013489	0.1772	0.18833	0.31253	0.081236	0.16864	0.39473	0.12098	0.09328	-2.2896	-3.1375	-2.4271	-3.0146	-2.7438	-2.2708	-3.1896	-2.7604	-2.5521	-3.2438	-2.4896	-2.9375	-3.0667	-2.3708	-3.1729	-2.4917	228.811	-33.252	-41.387	245.050	91.712	102.719	-5.446	-14.481	26.537	144.943	155.563	171.611	100.521	174.843	48.046	178.236	0.00019505	0.00024009	2.8183e-05	255.94	1.7472e-06	3.7599e-07	226.89	113.36	1.9029e-06	1.2711e-07	100.81	41.688	49.114	25.37	1.7753e-06	21.474	0.00099271	0.0016371	0.00046873	261.59	1.6001e-05	1.9582e-05	234.18	116.97	1.5983e-05	1.9034e-05	103.79	43.039	51.014	26.642	1.7072e-05	22.34	132.795	-59.304	-67.020	-93.946	-9.416	-17.591	-95.470	-89.138	39.231	205.502	-92.368	-89.173	-85.328	-80.416	-18.029	-84.646	-8191	255	
3491.732	1	1	0	0	0.061627	0.31094	0.18639	0.31613	0.19221	0.13099	0.17071	0.092204	0.10464	0.10482	0.20152	0.12921	0.16927	0.14501	0.080519	0.094906	-1.9667	-3.0521	-2.3937	-2.7208	-3.0146	-2.2417	-3.1167	-2.6729	-2.2271	-3.3292	-2.3333	-2.6125	-3.0458	-2.2583	-3.0312	-3.0479	167.364	-100.307	-99.819	224.590	172.923	248.219	246.469	243.701	149.120	68.655	-80.654	-57.476	129.502	71.993	-18.700	42.668	0.00024149	0.0004584	9.0879e-05	254.77	2.6552e-06	4.107e-06	228.63	114.07	1.6353e-06	1.4291e-06	100.43	42.258	48.833	25.687	7.4478e-07	21.731	0.00098402	0.0016742	0.0004722	262.83	1.5823e-05	1.943e-05	235.63	117.55	1.6299e-05	1.8931e-05	104.11	43.497	51.153	26.85	1.7204e-05	22.67	140.302	-19.297	-10.656	-94.229	16.284	89.575	-95.896	-89.133	125.773	1.197	-92.625	-88.730	-85.241	-80.459	77.581	-84.594	-8191	255	
3491.827	1	1	0	0	0.12644	0.0062158	0.19217	0.14092	0.19476	0.11639	0.20512	0.18682	0.18519	0.02774	0.20186	0.22271	0.049635	0.2889	0.02409	0.17697	-1.8958	-3.1625	-2.5104	-2.6667	-3.0938	-2.4792	-2.9354	-2.9021	-2.3521	-3.2646	-2.6437	-2.4958	-3.0208	-2.3958	-2.9437	-2.9771	65.694	239.227	200.165	236.670	124.238	-12.998	193.028	181.006	151.296	-16.500	5.090	-91.178	39.459	247.665	34.539	66.786	0.00017173	0.00022575	0.00013058	257.91	1.2342e-06	3.1184e-06	229.62	113.73	3.0955e-06	2.9776e-06	100.15	41.476	48.622	25.444	3.094e-06	21.139	0.00098789	0.0017221	0.0004947	263.31	1.6402e-05	1.9557e-05	235.89	117.16	1.6326e-05	1.9217e-05	103.39	42.939	50.783	26.597	1.7667e-05	22.157	121.763	29.261	-21.693	-94.216	1.163	17.135	-96.159	-89.490	-6.209	20.581	-92.239	-88.828	-85.336	-80.382	36.686	-84.775	-8191	255	
3491.923	1	1	0	0	0.23372	0.24161	0.28428	0.37051	0.28295	0.13597	0.22813	0.15294	0.22236	0.20343	0.17989	0.038823	0.14787	0.2094	0.25958	0.055473	-1.925	-3.0917	-2.6833	-2.4396	-3.1146	-2.3438	-2.8792	-2.8438	-2.3292	-3.1396	-2.8083	-2.65	-3.1625	-2.5979	-2.8396	-2.9625	161.896	-71.174	-52.971	171.092	-107.097	-37.280	122.947	217.396	-40.070	115.503	249.120	-72.094	-54.885	234.721	187.151	77.211	0.00017651	6.5791e-05	6.1889e-05	254.49	1.5199e-06	1.2262e-06	226.36	112.02	2.6055e-06	2.0879e-06	98.536	40.961	48.47	25.633	2.351e-06	21.608	0.00098831	0.0017017	0.00048323	260.8	1.6472e-05	1.9379e-05	232.78	115.88	1.6691e-05	1.9238e-05	102.61	42.67	50.676	26.718	1.8516e-05	22.429	138.476	-18.491	-39.711	-94.254	7.877	5.612	-95.311	-89.213	13.993	114.934	-92.031	-88.689	-85.108	-80.286	167.800	-84.925	-8191	255	
3492.019	1	1	0	0	0.23605	0.1428	0.27898	0.18005	0.081931	0.23571	0.12039	0.36709	0.1965	0.16363	0.0315	0.28078	0.10945	0.13051	0.14724	0.20962	-2.0604	-3.1167	-2.6	-2.5167	-3.0292	-2.275	-2.8167	-3.0083	-2.3479	-2.8833	-2.8042	-2.2417	-3.2917	-2.4833	-2.7438	-3.3208	-90.691	229.680	152.804	133.435	-39.330	35.989	119.896	173.821	-72.748	-19.329	-63.937	-53.288	219.925	94.182	210.369	-50.702	0.00016859	0.00012376	1.7774e-05	254.47	3.2667e-06	3.6245e-07	226.5	112.63	1.4634e-07	2.4776e-06	98.148	40.96	48.647	25.195	2.0865e-06	21.165	0.00099022	0.0016474	0.00048143	261.56	1.5901e-05	1.9046e-05	234.02	115.83	1.6413e-05	1.9433e-05	102.2	42.447	50.531	26.303	1.7492e-05	22.111	141.195	105.931	-33.331	-93.929	38.829	157.168	-96.054	-89.246	65.016	35.319	-92.675	-88.487	-85.743	-80.143	5.792	-85.088	-8191	255	
3492.115	1	1	0	0	0.20717	0.10269	0.034843	0.17279	0.12343	0.25351	0.067109	0.20976	0.18288	0.068033	0.16671	0.13142	0.12052	0.1134	0.17187	0.15912	-1.9562	-2.9542	-2.9208	-2.3833	-3.3042	-2.5521	-2.5396	-3.35	-2.2667	-2.9604	-3.0125	-2.2812	-3.3229	-2.6792	-2.5896	-3.3271	24.894	234.043	117.329	31.386	183.202	200.323	-7.253	219.860	173.058	-61.418	16.626	104.722	199.024	31.741	105.402	175.537	0.00021564	0.00017916	8.3038e-05	253.8	1.7432e-06	2.7811e-06	229.54	113.74	7.0157e-07	3.3889e-06	99.589	41.213	48.757	25.352	2.0446e-06	21.488	0.00099447	0.0017266	0.00047524	261.18	1.5978e-05	1.9018e-05	235.17	116.31	1.6157e-05	1.8974e-05	103.46	42.831	50.66	26.445	1.7673e-05	22.47	134.883	-4.236	-58.004	-93.914	13.365	4.869	-95.404	-89.375	-60.089	-7.107	-92.460	-88.825	-85.157	-80.114	29.125	-84.493	-8191	255	
3492.236	1	1	0	0	0.19342	0.16661	0.036044	0.10973	0.16204	0.163	0.17826	0.16044	0.18094	0.14565	0.13744	0.08354	0.18733	0.18937	0.19128	0.30828	-2.0417	-2.8771	-2.7667	-2.3375	-3.1271	-2.6896	-2.3854	-3.1604	-2.5667	-2.7812	-3.25	-2.3792	-2.9521	-2.8125	-2.2062	-3.2833	-15.642	-105.552	11.066	139.739	62.791	-103.595	252.390	251.246	72.563	203.725	-16.858	238.346	-28.710	-56.736	-66.544	149.680	0.00016929	0.00018405	6.3894e-05	256.07	1.107e-06	3.1016e-06	229.38	114.47	4.9889e-06	9.6457e-07	99.157	41.427	48.266	25.322	1.1602e-06	21.496	0.00096209	0.0016815	0.0004637	263.06	1.5566e-05	1.9258e-05	235.64	117.5	1.6601e-05	1.9223e-05	103.18	42.702	50.168	26.41	1.7764e-05	22.287	134.242	-61.963	-39.647	-94.228	79.269	51.257	-95.389	-88.851	-24.313	76.843	-92.078	-88.954	-85.234	-80.088	11.332	-84.855	-8191	255	
3492.332	1	1	0	0	0.16305	0.25253	0.060528	0.047753	0.077776	0.23968	0.17837	0.33594	0.16781	0.13627	0.28169	0.089342	0.10213	0.10719	0.21384	0.07424	-2.2021	-2.8375	-2.9771	-2.4958	-3.2687	-2.7979	-2.2208	-3.2292	-2.5646	-2.5896	-3.3583	-2.4313	-2.9146	-3.1063	-2.3771	-3.2375	185.723	-101.257	108.180	5.997	-104.782	92.335	0.363	-52.339	-17.210	190.306	29.219	-52.949	-89.710	-59.151	30.851	9.349	0.00021271	0.00015412	9.5797e-05	255.86	1.6316e-06	2.031e-06	227.65	112.8	7.0061e-07	2.5714e-06	98.984	40.786	48.096	25.003	2.058e-06	21.168	0.00095588	0.0016668	0.00047924	262.06	1.5616e-05	1.9137e-05	233.35	115.95	1.6404e-05	1.9127e-05	101.93	42.098	49.997	26.088	1.7687e-05	22.022	136.897	-23.163	-4.749	-94.142	43.191	68.131	-95.166	-89.241	82.577	18.680	-92.864	-89.224	-85.278	-80.378	-74.623	-84.671	-8191	255	
3492.428	1	1	0	0	0.12713	0.16381	0.13036	0.28422	0.10598	0.063882	0.078587	0.084769	0.1081	0.14489	0.23311	0.043002	0.020025	0.17126	0.20371	0.17391	-2.1771	-2.4125	-3.1146	-2.3292	-2.8167	-3.0292	-2.1521	-3.0938	-2.6375	-2.5938	-3.275	-2.3396	-2.8875	-2.8771	-2.1937	-3.2125	-8.581	203.554	142.266	-93.910	211.587	173.527	-87.192	101.436	216.088	27.480	132.639	-41.071	88.281	-106.377	-12.860	-98.529	0.0001862	0.00031803	2.5361e-05	254.1	2.2127e-06	1.1408e-06	226.35	114.85	1.3341e-06	1.2336e-06	100.31	40.923	48.916	25.052	1.6517e-06	21.33	0.00097261	0.0016773	0.00047246	260.8	1.5948e-05	1.8676e-05	233.51	117.38	1.5746e-05	1.8569e-05	103.34	42.527	50.685	26.238	1.7314e-05	22.209	139.184	-3.139	205.022	-93.944	-15.324	98.007	-95.700	-89.455	49.891	79.458	-92.554	-88.404	-85.302	-80.240	50.377	-84.801	-8191	255	
3492.524	1	1	0	0	0.11986	0.15474	0.12075	0.28232	0.006283	0.15011	0.19287	0.056845	0.15801	0.17587	0.12592	0.27834	0.12806	0.063032	0.077336	0.29294	-2.1083	-2.2313	-3.2229	-2.4729	-2.7229	-3.0333	-2.4333	-2.9729	-2.7396	-2.3979	-3.1562	-2.5563	-2.7812	-3.3271	-2.3729	-2.9646	81.481	81.902	109.274	-71.685	233.918	43.559	102.781	98.708	244.999	-13.733	54.378	87.145	-48.798	118.850	28.809	98.403	0.00018812	0.00019133	4.7333e-05	255.48	2.5611e-06	4.2184e-06	229.59	114.16	3.8377e-06	5.2248e-07	100.59	41.606	49.346	25.46	1.721e-06	21.32	0.00095477	0.0016527	0.0004647	261.9	1.6098e-05	1.857e-05	236.48	117.2	1.583e-05	1.8537e-05	104.42	43.149	51.351	26.535	1.7456e-05	22.353	132.869	-91.278	41.096	-93.862	222.955	74.222	-95.252	-89.092	-10.693	-32.954	-92.248	-88.738	-85.122	-80.591	13.283	-84.188	-8191	255	
3492.621	1	1	0	0	0.14171	0.26758	0.2088	0.20096	0.19098	0.14884	0.10517	0.20559	0.18334	0.26607	0.11114	0.13892	0.13931	0.18206	0.0739	0.24382	-2.2458	-2.3625	-3.3	-2.5812	-2.6271	-3.2229	-2.3396	-3.0271	-2.9917	-2.3479	-3.2479	-2.6333	-2.5271	-3.1729	-2.2375	-2.9125	137.906	8.177	76.615	186.171	-21.646	5.993	217.779	225.412	-30.144	-77.894	-96.484	231.663	114.774	-80.105	157.886	-97.769	0.00019325	0.00016145	7.8089e-05	255.43	2.2549e-06	9.7182e-07	228.48	113.57	3.0584e-06	1.2863e-06	100.41	40.754	49.261	25.09	1.4082e-06	21.169	0.00095715	0.0016608	0.00046048	262.44	1.6031e-05	1.9037e-05	236.31	117.23	1.5944e-05	1.9456e-05	103.75	42.365	51.121	26.196	1.7195e-05	21.973	134.200	-2.564	-22.863	-94.217	91.407	197.315	-95.289	-89.314	35.100	29.812	-92.610	-89.252	-85.506	-80.634	-7.295	-84.931	-8191	255	
3492.717	1	1	0	0	0.1956	0.024096	0.17727	0.14734	0.056978	0.030072	0.12754	0.25498	0.058637	0.18877	0.25607	0.14098	0.26162	0.024268	0.038976	0.204	-2.6833	-2.3521	-3.1042	-2.4042	-2.4896	-3.3625	-2.4583	-3.0208	-3.1854	-2.3896	-3.2208	-2.7125	-2.5083	-3.1688	-2.4854	-2.8354	100.207	135.710	211.362	103.336	-7.691	120.695	243.219	225.149	-51.996	6.833	-88.940	-89.249	34.858	74.637	129.372	131.727	0.00017891	0.00021379	4.487e-05	256.56	3.8421e-06	1.4553e-06	231.87	113.73	1.3997e-06	4.3784e-06	100.18	41.587	49.144	25.242	6.524e-07	21.143	0.00094957	0.0016746	0.00045342	262.23	1.5649e-05	1.8844e-05	236.26	116.92	1.5858e-05	1.8506e-05	104.14	42.854	51.429	26.363	1.6725e-05	22.008	145.573	-27.500	11.960	-94.213	2.021	57.771	-95.601	-89.301	81.758	118.004	-91.590	-88.637	-85.338	-80.594	-19.677	-84.990	-8191	255	
3492.836	1	1	0	0	0.095164	0.10029	0.025479	0.12515	0.021809	0.10125	0.19562	0.39849	0.060967	0.26124	0.13086	0.27954	0.12299	0.073377	0.21573	0.16575	-2.9104	-2.2083	-2.9729	-2.9792	-2.3354	-3.2271	-2.6146	-2.6083	-3.1937	-2.4667	-3.1708	-2.8917	-2.2396	-3.1979	-2.3354	-2.5458	50.963	-6.284	117.042	121.603	20.673	172.842	78.648	-84.908	-60.850	164.229	241.019	141.613	85.774	-91.593	232.771	-94.139	0.00018687	0.00027061	0.00011969	257.05	2.8207e-06	2.0157e-06	230.8	113.82	2.7117e-06	3.1628e-06	101.21	41.434	49.166	24.933	9.7659e-07	20.85	0.00094574	0.0016515	0.00043915	262.84	1.5789e-05	1.8573e-05	236.97	116.9	1.5469e-05	1.8988e-05	104.5	42.84	51.192	26.007	1.7034e-05	21.755	146.519	-38.045	-8.910	-94.008	9.971	-27.144	-96.193	-89.089	-28.833	26.031	-92.446	-88.937	-85.656	-80.605	3.146	-84.424	-8191	255	
3492.932	1	1	0	0	0.16728	0.25612	0.076303	0.15426	0.041364	0.088735	0.25897	0.18455	0.11069	0.25931	0.18683	0.18582	0.12391	0.11824	0.10114	0.16397	-2.7646	-2.4542	-2.9271	-2.9792	-2.6167	-3.1125	-2.6958	-2.4958	-3.2333	-2.6	-3.1	-3.0354	-2.3646	-3.2208	-2.6583	-2.4437	16.641	-90.372	213.441	49.142	88.773	-18.936	130.630	-66.454	-63.396	29.302	19.556	227.031	6.988	215.119	-105.013	249.444	0.00018371	0.00014746	6.2183e-05	257.37	1.3158e-06	4.4066e-06	232.77	113.72	1.2965e-06	2.9685e-06	102.14	41.932	49.53	25.245	9.5861e-07	21.141	0.00091569	0.0016386	0.00046485	263.55	1.5721e-05	1.8621e-05	238.47	117	1.5214e-05	1.7941e-05	105.54	43.327	51.449	26.282	1.7149e-05	22.075	124.497	-13.712	-20.223	-94.227	13.092	46.306	-95.330	-88.858	-3.125	44.920	-91.873	-89.248	-85.436	-80.050	103.312	-84.760	-8191	255	
3493.028	1	1	0	0	0.23091	0.075755	0.15596	0.064661	0.12672	0.16557	0.34531	0.21071	0.11283	0.23701	0.072072	0.43257	0.30093	0.02614	0.31366	0.18928	-2.8042	-2.3458	-2.6875	-3.1292	-2.3542	-3.1562	-2.7125	-2.5563	-3.125	-2.5667	-2.6708	-3.1667	-2.2604	-3.0854	-2.8667	-2.5417	0.599	-84.147	-66.957	49.163	38.684	138.401	95.640	107.948	-43.818	53.310	137.828	-61.357	-92.748	84.749	192.982	-66.951	0.00020036	0.00010652	4.8628e-05	255.8	3.6219e-06	1.1749e-06	231.77	113.72	1.2273e-06	9.913e-07	100.38	41.149	48.911	25.101	7.878e-07	21.073	0.0009364	0.001637	0.00045011	263.44	1.5826e-05	1.8288e-05	237.33	117.18	1.5582e-05	1.8488e-05	103.91	42.708	50.864	26.188	1.7e-05	21.933	124.384	-35.142	31.852	-93.941	31.699	-2.088	-95.559	-89.216	1.115	-35.406	-92.216	-88.677	-85.293	-80.548	157.612	-84.618	-8191	255	
3493.100	1	1	0	0	0.045972	0.097503	0.087489	0.053412	0.16423	0.2105	0.057481	0.050646	0.17534	0.18897	0.31942	0.17894	0.09264	0.074069	0.063076	0.078468	-2.6896	-2.4646	-2.6229	-3.2833	-2.3417	-3.0062	-2.9625	-2.3292	-3.1083	-2.5083	-2.6604	-3.1542	-2.3187	-3.1396	-2.8937	-2.0854	68.833	243.794	-65.843	-68.676	169.754	248.882	144.176	4.389	53.639	247.381	52.998	238.676	-40.990	223.185	-22.999	0.445	0.0001834	0.00011288	5.4199e-05	258.43	1.8331e-06	3.8329e-06	230.07	114.21	6.7243e-07	2.7866e-06	100.93	41.599	49.506	25.28	7.2745e-07	21.072	0.00093939	0.0016264	0.00046309	263.68	1.5432e-05	1.8472e-05	237.35	117.58	1.5636e-05	1.8441e-05	104.77	43.028	51.445	26.34	1.6995e-05	21.958	129.816	-24.568	2.723	-93.850	-42.185	71.521	-95.554	-89.290	89.322	106.478	-92.392	-89.009	-85.481	-80.342	85.847	-85.127	-8191	255	
3493.220	1	1	0	0	0.068888	0.1383	0.16336	0.12613	0.048764	0.11236	0.17775	0.032764	0.23923	0.035901	0.099315	0.12776	0.24204	0.12735	0.10393	0.18048	-2.7417	-2.4292	-2.6437	-3.1604	-2.3063	-2.85	-3.0083	-2.2396	-3.0354	-2.6521	-2.4917	-3.1979	-2.4979	-2.8958	-3.0729	-2.3729	162.815	-48.697	65.259	-21.505	-34.906	-58.216	-4.834	67.622	78.956	196.035	-82.052	152.198	242.807	-93.073	136.244	165.029	0.00018068	0.0002497	7.3583e-05	257.51	2.2564e-06	1.4204e-06	233.39	114.09	2.4008e-06	1.3594e-06	101.72	42.043	49.965	25.462	1.7471e-06	21.42	0.00095588	0.0016583	0.00047466	263.98	1.5614e-05	1.9008e-05	237.81	117.27	1.5785e-05	1.844e-05	105.42	43.439	51.843	26.567	1.6842e-05	22.149	130.871	-65.916	-33.444	-93.973	-15.293	5.864	-95.617	-89.116	-0.888	102.437	-92.150	-88.654	-85.612	-80.400	-41.293	-84.639	-8191	255	
3493.316	1	1	0	0	0.18068	0.08542	0.23756	0.25034	0.046089	0.086378	0.08556	0.22069	0.17592	0.16464	0.26436	0.31357	0.055995	0.12609	0.13895	0.10068	-2.6396	-2.5583	-2.4708	-3.2667	-2.4896	-2.8271	-3.2167	-2.3563	-2.9729	-2.7771	-2.4188	-3.2562	-2.6188	-2.6917	-2.9104	-2.4208	111.614	118.064	152.469	117.610	100.896	154.386	4.691	234.393	231.311	151.646	235.460	-49.847	155.684	-18.505	68.973	123.074	0.00017456	0.00017503	4.4401e-05	257.32	1.414e-06	3.1249e-06	233.82	114.11	1.3023e-06	3.0593e-06	102.81	42.328	50.086	25.412	1.7206e-06	21.117	0.00096067	0.0016488	0.0004739	264.39	1.6131e-05	1.9066e-05	240.6	117.43	1.5829e-05	1.8694e-05	106.1	43.688	52.18	26.566	1.7017e-05	22.102	145.147	36.762	-20.385	-94.286	-57.406	47.119	-96.375	-89.531	37.114	47.731	-92.800	-89.569	-85.629	-80.906	62.868	-85.494	-8191	255	
3493.412	1	1	0	0	0.059116	0.043768	0.18155	0.043723	0.17033	0.17814	0.10934	0.30331	0.26155	0.23011	0.17705	0.088544	0.15127	0.12611	0.11525	0.20316	-2.7	-2.7667	-2.1937	-3.125	-2.2938	-2.6479	-3.1479	-2.3	-2.925	-2.8438	-2.5458	-3.2146	-2.6854	-2.625	-3.0854	-2.2729	110.899	250.821	238.673	-63.208	26.658	8.487	-82.500	129.868	-60.300	126.012	150.010	-11.364	75.912	155.721	108.744	-88.358	0.00022539	0.00019722	4.2722e-05	257.91	2.3258e-06	1.97e-06	230.86	112.72	8.3099e-07	2.1543e-06	101.45	40.726	49.329	24.868	6.3612e-07	20.597	0.00095405	0.0016364	0.000475	265.07	1.5649e-05	1.8906e-05	237.76	116.22	1.554e-05	1.8306e-05	104	42.398	51.009	25.92	1.6335e-05	21.49	136.419	41.619	-100.380	-94.319	-13.283	91.462	-96.009	-89.740	90.885	-46.831	-93.026	-89.077	-85.813	-80.647	101.849	-85.159	-8191	255	
3493.509	1	1	0	0	0.14138	0.14941	0.16541	0.11435	0.15437	0.11768	0.12903	0.25765	0.2476	0.16542	0.13362	0.19288	0.059411	0.30215	0.13583	0.07997	-2.4708	-2.9021	-2.1354	-3.2125	-2.6063	-2.4583	-3.3167	-2.2667	-2.8042	-2.8958	-2.3458	-3.2646	-2.6083	-2.4333	-3.1479	-2.475	141.609	23.243	-56.589	190.700	197.217	117.860	85.508	221.048	174.649	-22.693	26.855	-87.707	242.194	153.368	-79.918	251.899	0.00014776	0.00019963	1.36e-05	256.65	1.6264e-06	1.6409e-06	231.64	113	1.3396e-06	3.4189e-06	101.27	41.259	49.099	24.713	1.0632e-06	20.733	0.00094838	0.0016357	0.00047021	263.3	1.5453e-05	1.8983e-05	237.72	116.3	1.5961e-05	1.8929e-05	104.42	42.727	50.847	25.904	1.6864e-05	21.694	148.811	-34.998	103.822	-93.900	5.050	39.292	-95.620	-89.693	182.748	56.753	-92.495	-89.363	-85.897	-80.951	14.553	-84.913	-8191	255	
3493.628	1	1	0	0	0.1253	0.21399	0.16918	0.1739	0.17391	0.094834	0.33938	0.16845	0.0892	0.1847	0.17784	0.21863	0.18461	0.23822	0.015431	0.27707	-2.3771	-2.8458	-2.3167	-3.0354	-2.7271	-2.3229	-3.225	-2.4271	-2.5854	-3.1646	-2.0604	-3.0458	-2.8542	-2.2896	-3.1312	-2.6083	135.886	-47.950	-31.485	224.518	-61.640	233.049	148.910	151.087	-61.681	-38.189	78.205	-81.388	164.832	217.757	229.729	164.228	0.00023223	0.00022281	4.9306e-05	256.36	1.7501e-06	3.9378e-06	230.61	112.88	4.3739e-07	1.872e-06	101.72	41.152	48.758	24.703	3.6753e-06	20.89	0.00094926	0.0016663	0.00045976	264.44	1.6016e-05	1.9136e-05	237.83	116.56	1.5754e-05	1.8475e-05	104.5	42.763	50.628	25.817	1.7283e-05	21.76	129.647	-59.840	-73.475	-94.326	159.603	76.919	-95.760	-89.618	-30.023	35.514	-92.134	-88.860	-85.473	-80.415	28.118	-85.136	-8191	255	
3493.724	1	1	0	0	0.093714	0.15175	0.3658	0.074017	0.2523	0.12859	0.012471	0.22076	0.29597	0.078743	0.11261	0.20174	0.18546	0.16687	0.21906	0.1352	-1.9917	-3.1125	-2.2875	-2.8292	-2.9625	-2.2687	-3.0625	-2.6521	-2.3167	-3.1396	-2.4167	-2.8833	-2.7396	-2.4042	-3.1958	-2.7979	145.949	140.414	37.225	64.856	91.537	237.296	164.693	160.135	-73.534	175.417	137.019	168.215	126.905	213.084	149.373	22.145	0.00020295	0.00027921	4.7559e-05	257.91	1.4066e-06	2.0714e-06	232.55	113.96	3.6793e-07	2.1051e-06	101.79	40.888	48.871	24.769	4.7001e-06	20.74	0.00096343	0.0016163	0.00046408	265.14	1.5579e-05	1.9612e-05	239.11	117.17	1.6208e-05	1.8563e-05	104.79	42.619	50.723	25.851	1.7271e-05	21.712	133.390	33.665	-25.770	-94.218	-1.999	51.320	-95.391	-89.500	184.594	55.424	-92.052	-89.195	-85.758	-80.389	47.949	-85.104	-8191	255	
3493.797	1	1	0	0	0.133	0.076948	0.32514	0.16471	0.19884	0.018164	0.23798	0.063963	0.29849	0.1224	0.067616	0.2053	0.18813	0.025505	0.033065	0.055049	-2.0167	-3.1271	-2.3979	-2.8792	-2.8792	-2.2083	-3.2083	-2.7333	-2.3917	-3.1583	-2.4667	-2.75	-3.0417	-2.3604	-3.025	-2.875	188.609	-96.037	34.726	208.905	190.958	-84.853	-103.456	189.268	239.828	146.193	-57.486	34.790	251.364	229.458	84.899	240.218	0.00018877	0.00025561	7.0242e-05	257.67	2.0637e-06	9.2318e-07	229.53	112.79	1.8392e-06	1.764e-06	99.406	40.802	48.843	24.673	1.9146e-06	20.847	0.00097215	0.001633	0.00047017	264.12	1.5794e-05	1.9265e-05	235.96	116	1.6329e-05	1.8884e-05	103.13	42.268	50.638	25.8	1.7252e-05	21.619	129.254	-17.673	-6.585	-94.179	44.964	27.638	-95.740	-89.240	-32.536	11.046	-92.640	-89.237	-85.612	-80.832	43.994	-84.938	-8191	255	
3493.918	1	1	0	0	0.1004	0.24076	0.24853	0.042389	0.21299	0.1441	0.13872	0.13049	0.19125	0.22406	0.056369	0.38706	0.27532	0.055745	0.29806	0.33562	-2.1146	-3.0917	-2.35	-2.6937	-3.0375	-2.2271	-2.9729	-2.9229	-2.3708	-3.0938	-2.5125	-2.5563	-3.0083	-2.2229	-2.8792	-3.0333	242.272	-53.104	176.648	249.242	62.869	-23.361	87.330	238.206	-31.730	228.389	174.583	234.373	72.380	236.780	-61.184	148.619	0.00016883	0.00033391	6.1382e-05	257.52	8.7127e-07	1.1852e-06	232.99	112.56	4.2469e-06	2.4591e-06	101.73	41.136	48.956	24.716	1.7504e-06	20.858	0.00096469	0.0016608	0.00048482	263.38	1.6146e-05	1.9866e-05	237.61	115.88	1.6714e-05	1.9133e-05	104.15	42.659	51.097	25.814	1.7686e-05	21.708	141.600	-33.151	-65.529	-93.904	142.989	-63.468	-95.779	-88.946	-34.503	22.409	-91.595	-88.825	-85.395	-80.527	23.504	-84.898	-8191	255	
3494.012	1	1	0	0	0.20828	0.19265	0.17579	0.2412	0.23853	0.11057	0.027388	0.16193	0.29039	0.17269	0.083995	0.14029	0.12285	0.036317	0.16859	0.069612	-1.8708	-3.0438	-2.6167	-2.5604	-3.0479	-2.4313	-2.8937	-2.9083	-2.2562	-3.0521	-2.5646	-2.2583	-3.1458	-2.4604	-2.7667	-3.0104	120.693	-0.604	189.950	190.462	71.247	-78.849	245.299	23.584	4.149	4.983	-79.690	222.343	196.602	-77.586	-31.856	186.542	0.00014862	0.00012136	4.2163e-05	256.3	2.9346e-06	1.1098e-06	231.34	112.96	2.6801e-06	1.8142e-06	102.2	41.607	49.871	24.967	9.6838e-07	21.078	0.00099336	0.0016667	0.00048293	263.85	1.626e-05	1.9693e-05	238.23	116.37	1.6863e-05	1.9285e-05	105.61	43.418	51.583	26.104	1.7399e-05	22.032	123.848	27.881	-15.947	-94.129	18.857	-31.473	-95.534	-89.474	41.720	7.865	-92.271	-88.796	-85.512	-80.597	55.711	-84.608	-8191	255	
3494.108	1	1	0	0	0.10564	0.19966	0.20332	0.28214	0.27182	0.30816	0.2576	0.078808	0.21263	0.04487	0.092558	0.13944	0.24253	0.18632	0.16329	0.03146	-2.0646	-3.0354	-2.7625	-2.5146	-3.0583	-2.4437	-2.8729	-3.0458	-2.4833	-3.0104	-2.9146	-2.3104	-3.1708	-2.5396	-2.6708	-3.1646	-6.875	58.059	93.245	15.908	-43.925	151.967	-70.180	209.841	242.165	-71.598	191.365	66.420	-59.555	237.173	4.398	216.781	0.00019639	0.00016331	2.633e-05	258.57	3.8003e-06	1.8349e-06	233.19	113.36	2.7095e-06	1.3889e-06	100.2	41.145	48.876	24.611	8.4343e-07	20.735	0.00099795	0.0017119	0.00049091	264.61	1.6655e-05	1.9865e-05	239.72	116.58	1.6728e-05	1.9612e-05	104.4	42.708	50.996	25.754	1.7697e-05	21.521	140.631	-70.349	14.494	-94.141	16.088	26.775	-95.070	-88.935	10.875	36.471	-91.992	-88.791	-85.681	-80.513	-3.071	-84.996	-8191	255	
3494.204	1	1	0	0	0.11116	0.16682	0.19335	0.032532	0.099097	0.047318	0.021246	0.11128	0.19153	0.10533	0.13197	0.1587	0.14413	0.31779	0.20864	0.11177	-1.85	-2.9917	-2.8396	-2.2792	-3.2604	-2.5771	-2.6312	-3.1417	-2.1625	-3.0625	-3.0333	-2.2208	-3.1271	-2.5479	-2.4167	-2.9479	-33.242	160.331	145.020	178.978	220.397	76.816	-32.998	15.691	168.844	4.498	-80.006	-98.857	178.115	-88.551	0.298	196.787	0.0002085	0.00030424	6.3684e-05	257.95	2.1759e-06	7.4772e-07	228.81	112.25	3.1238e-06	1.864e-06	99.834	41.023	49.145	24.72	3.7758e-06	20.729	0.00099478	0.001675	0.00047282	264.03	1.5858e-05	1.9619e-05	236.57	115.54	1.6475e-05	1.9618e-05	103.7	42.595	51.029	25.815	1.8226e-05	21.472	126.178	-17.440	-9.886	-94.211	-16.993	118.968	-95.819	-89.637	58.824	43.319	-91.998	-89.656	-86.069	-81.043	51.100	-84.919	-8191	255	
3494.325	1	1	0	0	0.11127	0.19202	0.037016	0.1386	0.10027	0.26278	0.1286	0.22357	0.051737	0.10938	0.1702	0.1997	0.12983	0.088417	0.071717	0.10452	-1.9813	-2.8271	-2.8042	-2.3958	-3.3354	-2.7167	-2.3896	-3.2646	-2.2708	-2.8	-3.0625	-2.2479	-3.1667	-2.7479	-2.4521	-3.1875	-59.058	97.674	-79.073	49.683	-106.753	238.962	72.473	189.187	-23.918	235.708	71.681	-64.795	226.106	210.420	-86.122	47.952	0.00018492	0.00017042	5.155e-05	256.91	1.696e-06	2.8152e-06	232.02	111.63	6.9417e-07	9.6186e-07	100	41.008	49.172	24.598	2.6521e-06	20.498	0.0010245	0.0017732	0.00050878	263.61	1.6528e-05	2.0535e-05	237.64	114.82	1.7136e-05	2.0599e-05	103.39	42.413	50.929	25.553	1.8359e-05	21.356	141.696	-9.094	-46.331	-94.539	48.356	67.959	-96.114	-89.943	-92.910	73.023	-92.394	-89.173	-85.760	-80.895	68.042	-85.401	-8191	255	
3494.397	1	1	0	0	0.077176	0.078191	0.12143	0.19663	0.11079	0.12301	0.092011	0.28135	0.10474	0.061566	0.40105	0.22556	0.25711	0.26693	0.16956	0.15254	-1.9854	-2.7812	-3.1271	-2.2542	-3.05	-2.7917	-2.2667	-3.1958	-2.4625	-2.5563	-3.1146	-2.3667	-2.9375	-2.8688	-2.175	-3.1562	153.479	178.928	68.353	153.064	46.353	103.056	183.694	-19.822	-2.790	143.541	226.912	217.853	-101.254	-101.255	-31.140	23.552	0.00020226	0.00026913	0.00010552	258.86	1.6476e-06	4.6043e-06	233.06	110.98	2.1476e-06	2.5645e-07	100.48	41.174	48.425	24.526	9.6325e-07	20.501	0.0010158	0.0018363	0.00049665	264.95	1.7217e-05	2.0349e-05	238.3	114.9	1.7536e-05	2.0109e-05	103.91	42.714	50.668	25.633	1.8033e-05	21.458	126.683	-12.522	-7.774	-94.084	62.261	67.358	-95.764	-89.652	-42.372	-103.285	-93.125	-89.199	-85.152	-80.927	-50.397	-85.099	-8191	255	
3494.517	1	1	0	0	0.095234	0.23917	0.45173	0.075478	0.1644	0.060736	0.21082	0.20543	0.17454	0.057749	0.078732	0.0292	0.055292	0.3031	0.16742	0.31623	-2	-2.3854	-3.0687	-2.275	-2.9042	-2.9021	-2.3292	-3.1958	-2.6896	-2.5125	-3.2188	-2.2625	-2.8208	-2.9146	-2.4021	-3.1542	-80.994	84.315	110.729	-93.690	71.767	112.275	162.169	175.102	-70.897	121.912	59.669	-14.416	-19.796	-77.812	-16.031	148.511	0.00024019	0.00037019	3.8527e-05	257.6	1.0556e-06	2.3024e-06	230.56	110.35	1.0792e-06	2.6816e-06	98.277	39.735	47.43	23.714	2.1237e-06	19.881	0.0010172	0.0017699	0.00048616	263.16	1.6546e-05	1.9853e-05	235.86	113.64	1.6673e-05	2.0252e-05	101.88	41.326	49.449	25.005	1.8027e-05	20.823	138.599	20.839	118.541	-94.325	6.024	61.354	-95.570	-89.408	56.422	54.103	-92.323	-88.999	-85.144	-80.492	71.519	-85.055	-8191	255	
3494.613	1	1	0	0	0.084173	0.10034	0.22193	0.25453	0.16579	0.33527	0.051566	0.15994	0.16615	0.19535	0.16494	0.12074	0.20794	0.20247	0.080981	0.11713	-2.2625	-2.4792	-3.2083	-2.2104	-2.8812	-3.1063	-2.2938	-3.0312	-2.8667	-2.5042	-3.3792	-2.4771	-2.5979	-3.05	-2.1729	-3.1333	-5.328	65.464	237.545	214.264	38.975	98.079	27.388	137.103	231.285	200.023	192.553	46.920	247.006	-94.968	89.376	43.855	0.0001487	0.00015959	6.5873e-05	255.36	2.2366e-06	3.876e-06	226.85	110.32	2.2388e-06	2.7616e-06	98.563	40.129	47.867	24.101	1.0463e-06	20.268	0.00096366	0.0017487	0.00048334	262.15	1.6614e-05	1.9615e-05	234.48	113.81	1.6101e-05	1.9682e-05	101.86	41.389	49.79	25.153	1.809e-05	21.064	139.629	63.775	-64.964	-94.398	-26.343	50.220	-95.918	-89.115	28.705	75.647	-92.555	-88.840	-85.354	-80.548	-74.023	-84.910	-8191	255	
3494.710	1	1	0	0	0.060493	0.06266	0.28893	0.13503	0.32026	0.11344	0.014494	0.087021	0.14475	0.18175	0.30417	0.043142	0.097204	0.13995	0.076541	0.090045	-2.4333	-2.4042	-3.2229	-2.4667	-2.6896	-3.2375	-2.2958	-2.7896	-2.8438	-2.3187	-3.0938	-2.5604	-2.6833	-3.1833	-2.3479	-3.0646	171.671	194.647	189.994	61.401	-35.297	49.416	28.380	-53.191	176.111	34.994	195.624	-42.030	251.437	34.133	181.731	-24.695	0.00025989	0.00022113	8.1848e-05	254.82	2.7021e-06	2.7842e-06	228.92	110.15	1.2072e-06	7.0501e-07	99.566	40.247	48.007	23.983	1.2189e-06	20.037	0.0010078	0.0017281	0.00048264	262.65	1.677e-05	1.9846e-05	235.51	113.48	1.7012e-05	1.9862e-05	102.41	41.627	50.018	25.07	1.7744e-05	20.985	138.541	3.996	51.371	-93.971	27.090	9.554	-95.754	-89.480	28.621	25.423	-92.014	-89.421	-85.768	-80.756	17.231	-84.873	-8191	255	
3494.806	1	1	0	0	0.22871	0.054203	0.25252	0.23503	0.053478	0.081544	0.11852	0.057102	0.20813	0.16278	0.21366	0.12984	0.10086	0.24114	0.11448	0.42927	-2.5333	-2.2021	-3.1	-2.6417	-2.3771	-3.1583	-2.2375	-2.7812	-2.8896	-2.4125	-3.2062	-2.8583	-2.625	-3.1771	-2.3604	-2.5792	117.282	184.118	239.049	234.606	225.534	74.426	28.761	1.971	-47.285	-54.162	182.906	10.574	-16.786	228.280	116.479	203.253	0.00015989	0.00020894	5.2633e-05	257.33	3.7535e-06	1.7833e-06	229.87	109.71	1.352e-06	1.2102e-06	100.27	40.431	48.45	24.066	1.9483e-06	20.002	0.00099742	0.0017076	0.00048272	263.98	1.678e-05	2.0194e-05	236.8	113.54	1.6599e-05	1.9815e-05	103.29	41.981	50.274	25.144	1.8237e-05	20.954	151.928	-22.266	-27.019	-94.633	29.988	43.267	-95.946	-89.127	-29.749	107.624	-92.227	-89.053	-85.557	-80.934	-16.310	-85.028	-8191	255	
3494.925	1	1	0	0	0.26063	0.29491	0.13554	0.14111	0.085004	0.1874	0.17679	0.2013	0.18693	0.26177	0.10074	0.18675	0.27564	0.17986	0.16126	0.095785	-2.5333	-2.0708	-3.1104	-2.8458	-2.5062	-3.1917	-2.475	-2.7729	-3.0708	-2.4625	-2.9437	-2.6875	-2.3271	-3.0958	-2.5083	-2.5021	161.299	-83.053	-57.534	239.108	225.072	-96.958	114.985	-87.062	120.871	8.755	177.204	220.000	153.760	-29.229	-81.459	46.964	0.00025109	0.00027358	8.0554e-05	255.46	1.0223e-06	3.0674e-06	227.88	110.16	2.9717e-06	1.8681e-07	98.217	39.624	48.138	23.916	2.5662e-06	19.802	0.00098938	0.0017496	0.00047767	263.56	1.6378e-05	1.9773e-05	235.05	113.2	1.6561e-05	1.9801e-05	101.68	41.341	50.114	24.968	1.7962e-05	20.633	140.323	-12.880	-32.161	-94.288	64.720	36.271	-95.824	-89.000	-1.701	194.589	-92.161	-89.396	-85.717	-80.432	-19.178	-85.265	-8191	255	
3495.021	1	1	0	0	0.17069	0.092924	0.1871	0.084921	0.19987	0.11595	0.12769	0.37452	0.13051	0.2385	0.31267	0.20991	0.17838	0.03562	0.13224	0.28296	-2.7417	-2.0875	-2.9417	-3.0625	-2.2646	-3.1542	-2.5312	-2.55	-3.1208	-2.3625	-2.9479	-3.0187	-2.15	-3.1312	-2.55	-2.6271	-46.828	154.289	-77.587	124.884	54.203	68.363	-4.400	252.764	-29.124	235.537	-76.885	65.417	50.672	-64.555	251.513	205.663	0.00022344	0.00020315	3.1647e-05	254.65	4.6016e-07	1.4042e-06	228.44	109.5	2.9505e-06	1.686e-06	98.689	40.587	48.665	24.074	2.0273e-06	19.909	0.00099501	0.0017404	0.00048196	261.55	1.667e-05	1.9577e-05	235.13	112.73	1.6303e-05	1.9334e-05	102.33	42.049	50.667	25.151	1.7754e-05	20.732	149.188	69.764	8.972	-93.892	23.511	-28.165	-95.586	-89.226	-23.831	49.865	-92.630	-89.301	-85.772	-80.647	14.568	-85.208	-8191	255	
3495.092	1	1	0	0	0.17947	0.17083	0.038573	0.056374	0.20153	0.1324	0.13842	0.01601	0.36937	0.2848	0.31911	0.012718	0.035165	0.091583	0.095578	0.1071	-2.8521	-2.275	-2.8771	-3.0042	-2.3187	-3.0833	-2.6458	-2.4313	-3.3979	-2.4167	-2.8812	-3.2146	-2.2417	-3.0771	-2.7896	-2.3583	248.058	-93.690	-5.043	214.704	166.455	-105.306	190.471	-104.941	125.502	215.481	235.948	164.327	40.154	37.483	107.845	50.418	0.00023344	0.00024761	4.9443e-05	254.08	1.8195e-06	2.5898e-06	227.96	109.19	1.7678e-06	1.4118e-06	100.05	41.248	49.627	24.308	4.2285e-06	20.219	0.00096427	0.0017214	0.00048438	261.47	1.6534e-05	1.9344e-05	234.61	112.79	1.641e-05	1.8936e-05	103.46	42.575	51.451	25.489	1.7553e-05	21.066	123.776	-47.095	-16.365	-94.265	-7.584	8.104	-95.756	-89.405	42.055	52.973	-92.199	-89.323	-86.207	-80.735	42.813	-85.503	-8191	255	
3495.189	1	1	0	0	0.21147	0.073367	0.072693	0.21364	0.18678	0.22351	0.17797	0.096272	0.17449	0.27223	0.17352	0.13069	0.19413	0.24724	0.041955	0.409	-2.7458	-2.5396	-2.5438	-3.0875	-2.1479	-3.1937	-2.8688	-2.4708	-3.2854	-2.5563	-2.6417	-2.9833	-2.3021	-3	-3.0042	-2.15	-3.498	132.860	34.040	-20.881	130.386	3.871	92.466	164.716	-29.574	123.901	94.870	108.826	-41.334	-61.012	161.594	149.021	0.00021087	0.00011789	2.399e-05	254.51	3.723e-06	5.3225e-07	228.69	109.51	3.5041e-06	1.3171e-06	100.17	40.893	48.887	24.436	1.1158e-06	19.998	0.00094754	0.0017051	0.00047106	260.86	1.6531e-05	1.9117e-05	235.84	113	1.5948e-05	1.8838e-05	103.48	42.499	51.126	25.416	1.7093e-05	20.758	136.574	-15.572	218.270	-94.419	93.312	122.142	-96.193	-89.393	19.537	5.364	-92.082	-89.185	-85.721	-81.171	25.142	-85.213	-8191	255	
3495.309	1	1	0	0	0.10886	0.18503	0.29972	0.14585	0.055667	0.051275	0.09892	0.36505	0.08134	0.10493	0.24488	0.11738	0.14713	0.1539	0.055059	0.036028	-2.8125	-2.6854	-2.3729	-3.2271	-2.3063	-2.8146	-2.7938	-2.2521	-3.1333	-2.5687	-2.5687	-3.0583	-2.3792	-2.8438	-2.975	-2.425	-64.538	123.557	-42.158	234.879	-85.048	39.089	47.891	-70.300	47.165	-15.388	97.723	172.937	103.118	197.366	26.419	97.769	0.00023781	0.00020427	7.485e-05	253.93	1.0037e-06	5.8861e-07	225.17	109.19	1.3702e-06	4.0804e-06	97.795	40.403	48.737	24.029	1.7547e-06	19.559	0.00095095	0.0016829	0.0004732	260	1.6133e-05	1.8846e-05	232.73	112.25	1.5924e-05	1.9587e-05	101.18	41.598	50.408	24.953	1.7024e-05	20.353	132.639	-22.365	31.179	-94.160	79.753	-28.054	-95.412	-89.561	74.385	95.145	-93.074	-89.043	-85.432	-80.720	-41.733	-85.414	-8191	255	
3495.405	1	1	0	0	0.16937	0.21358	0.1157	0.17924	0.17474	0.047378	0.063905	0.11972	0.16294	0.23945	0.16085	0.096355	0.11939	0.090722	0.18348	0.028224	-2.5354	-2.6	-2.4562	-3.2042	-2.3896	-2.9042	-3.0146	-2.3479	-3.0021	-2.8583	-2.4479	-3.1958	-2.3438	-2.7333	-3.0438	-2.1188	107.879	-0.728	-105.832	-9.448	91.323	1.374	-24.375	132.976	218.257	-88.459	156.829	148.343	-76.968	-52.189	67.846	-28.415	0.00022864	0.00028909	3.589e-05	255.97	1.6074e-06	5.187e-07	225.62	108.19	3.3625e-06	2.2741e-06	98.03	40.381	48.997	24.052	2.8561e-06	19.803	0.00093621	0.00169	0.00047044	260.44	1.5488e-05	1.9097e-05	233.38	111.66	1.6111e-05	1.8463e-05	101.91	41.91	50.728	25.063	1.7002e-05	20.552	130.182	18.526	2.087	-94.110	-80.508	19.055	-96.063	-89.127	-32.177	7.795	-93.169	-89.757	-85.642	-80.484	10.724	-85.299	-8191	255	
3495.502	1	1	0	0	0.17647	0.19486	0.16354	0.28433	0.36374	0.27208	0.14591	0.2005	0.043815	0.0085741	0.22702	0.22476	0.040553	0.25435	0.22362	0.15377	-2.5875	-2.7188	-2.3354	-3.2979	-2.4375	-2.4771	-3.1854	-2.1792	-3.0062	-2.8125	-2.4688	-3.0396	-2.3896	-2.5708	-3.1813	-2.2583	-106.038	-0.614	24.069	122.123	-71.556	216.490	70.635	-63.913	-24.964	-32.190	153.140	-93.455	238.438	-35.841	7.008	-96.798	0.00020775	0.00035841	8.8267e-05	252.92	1.5808e-06	2.3156e-06	228.92	109.34	2.5742e-06	3.1874e-06	99.978	41.1	49.223	24.493	2.9528e-06	20.241	0.000956	0.0016487	0.00047458	259.76	1.628e-05	1.9145e-05	233.79	112.58	1.5951e-05	1.8813e-05	103.01	42.645	51.144	25.536	1.6838e-05	21.077	148.276	-25.769	-45.009	-94.197	13.056	58.850	-95.468	-89.486	36.773	82.817	-92.313	-89.278	-85.405	-81.128	22.704	-84.755	-8191	255	
3495.598	1	1	0	0	0.21859	0.2248	0.14432	0.23528	0.033752	0.20595	0.067237	0.21209	0.11162	0.16974	0.1454	0.16863	0.082495	0.24799	0.20914	0.045484	-2.4125	-2.7708	-2.25	-3.1729	-2.525	-2.3958	-3.2375	-2.3354	-2.7812	-2.9562	-2.2812	-3.1229	-2.6562	-2.4396	-3.0979	-2.4479	231.224	251.622	-62.907	-82.387	-42.318	80.221	43.574	-103.757	-68.422	-75.226	64.376	99.700	31.037	223.907	80.562	26.501	0.0001744	0.0001397	5.5688e-05	252.53	1.8077e-06	4.8943e-07	228.65	110.07	3.2091e-06	2.8272e-06	98.682	40.92	48.997	24.242	9.9402e-07	19.825	0.00096668	0.0016502	0.00048028	259.6	1.618e-05	1.9045e-05	234.56	113.02	1.5887e-05	1.9259e-05	102.56	42.205	50.914	25.296	1.6951e-05	20.686	118.760	17.159	33.842	-94.314	-74.923	26.098	-95.281	-89.387	-46.762	76.555	-92.829	-88.820	-86.078	-80.747	31.263	-85.311	-8191	255	
3495.694	1	1	0	0	0.040588	0.070582	0.099981	0.16031	0.16541	0.20465	0.12296	0.10678	0.13391	0.073133	0.14038	0.46562	0.10824	0.21094	0.2666	0.14717	-2.4208	-2.9146	-2.2354	-3.0208	-2.725	-2.625	-3.0833	-2.7083	-2.7083	-3.025	-2.1646	-2.8417	-2.9771	-2.3146	-3.0208	-2.4896	96.160	167.242	13.596	-78.359	198.181	27.632	-68.686	215.850	8.376	112.031	198.192	-79.473	36.409	121.879	37.683	5.815	0.0001467	0.00016883	4.575e-05	253.22	2.7192e-06	1.495e-06	227.48	110.41	1.3265e-06	2.4088e-06	97.841	40.741	48.884	24.4	1.3073e-06	20.048	0.00095171	0.0016668	0.00045978	259.09	1.5968e-05	1.914e-05	233.31	112.7	1.5838e-05	1.8722e-05	101.85	42.024	50.865	25.386	1.7021e-05	20.792	117.032	-22.544	-27.069	-93.744	101.670	189.495	-95.516	-89.508	-51.560	55.392	-92.676	-89.447	-85.695	-81.061	11.313	-85.138	-8191	255	
3495.790	1	1	0	0	0.069555	0.12642	0.27922	0.066677	0.060344	0.27628	0.087039	0.11145	0.16909	0.14666	0.16441	0.11418	0.12911	0.03074	0.15821	0.17683	-2.2188	-3.1333	-2.4604	-2.8271	-2.85	-2.2958	-3.1417	-2.575	-2.4417	-3.2375	-2.2854	-2.8458	-2.9042	-2.3354	-3.0062	-2.7542	218.338	81.326	45.282	-74.827	143.014	-61.683	-18.087	-71.606	-21.729	109.124	43.822	18.541	149.762	204.822	-96.942	-4.182	0.00017515	0.00030976	7.0963e-05	252.93	5.1454e-07	2.6046e-06	229.7	109.67	2.7396e-06	1.4923e-06	98.986	40.593	48.901	24.21	1.7486e-06	19.988	0.00097996	0.0016232	0.00047831	260.3	1.5816e-05	1.9041e-05	233.83	112.77	1.6243e-05	1.8677e-05	102.48	42.105	50.697	25.231	1.6494e-05	20.835	128.134	-40.438	3.353	-94.209	59.959	106.612	-96.089	-89.244	5.416	77.546	-92.172	-89.068	-85.774	-81.083	116.343	-84.989	-8191	255	
3495.886	1	1	0	0	0.22706	0.05669	0.17096	0.12023	0.15934	0.047816	0.037056	0.31422	0.21492	0.20648	0.2161	0.048848	0.087263	0.13491	0.27218	0.13583	-2.1521	-3.1	-2.3688	-2.7604	-3.0167	-2.325	-3.1688	-2.7042	-2.5417	-3.2375	-2.1729	-2.7875	-3.125	-2.3333	-3.1042	-2.8479	120.698	103.540	153.033	-105.182	195.692	175.427	20.439	227.244	136.263	-30.537	-17.673	160.719	47.512	194.964	2.047	218.264	0.00016942	0.00030314	7.1137e-05	253.47	3.1303e-06	1.5826e-06	229.4	110.08	3.4367e-06	1.6447e-06	100.12	41.29	48.711	24.329	3.235e-06	20.352	0.00095343	0.001628	0.00046113	259.86	1.5878e-05	1.9177e-05	234.95	113.29	1.6088e-05	1.8145e-05	103.34	42.598	50.655	25.466	1.6925e-05	21.207	134.688	-17.835	-6.789	-94.289	14.995	100.230	-95.873	-89.338	51.958	15.743	-92.461	-89.151	-85.379	-80.963	56.600	-84.743	-8191	255	
3496.005	1	1	0	0	0.18584	0.20573	0.091773	0.231	0.18651	0.19072	0.14252	0.09762	0.092991	0.13926	0.30419	0.16542	0.17135	0.10202	0.15561	0.15346	-2.1917	-3.1604	-2.3229	-2.4875	-3.2062	-2.3729	-3.0438	-2.7271	-2.3563	-3.0146	-2.7146	-2.4792	-3.1479	-2.2812	-3.0729	-2.9542	37.101	-8.814	2.009	105.965	18.418	-92.107	49.389	45.960	15.878	154.690	162.382	216.410	123.992	205.297	179.484	84.362	0.00016403	0.00035154	4.6121e-05	253.97	2.047e-06	2.7756e-06	228.42	110.61	2.0324e-06	2.9539e-06	99.048	40.677	48.538	24.49	1.4924e-06	20.396	0.00095236	0.0016331	0.00046737	260.28	1.5861e-05	1.8788e-05	234.54	113.64	1.638e-05	1.8076e-05	102.84	42.165	50.356	25.477	1.6607e-05	21.174	143.875	-43.755	50.863	-94.060	-40.786	55.619	-95.879	-89.031	16.794	59.349	-92.314	-89.130	-85.311	-80.618	27.267	-85.133	-8191	255	
3496.101	1	1	0	0	0.22192	0.088184	0.10298	0.14744	0.38679	0.16035	0.028805	0.0502	0.083411	0.11513	0.16762	0.061995	0.39322	0.12386	0.11453	0.23025	-1.9188	-3.2625	-2.5375	-2.6958	-3.2938	-2.45	-2.9208	-2.925	-2.2833	-3.0021	-2.7729	-2.5542	-3.3771	-2.25	-2.7771	-3.0333	155.605	78.876	181.000	-37.602	-48.953	186.134	17.123	113.981	-4.815	-16.455	-86.387	104.709	250.306	141.680	-89.665	143.350	0.00016303	0.00015216	8.1274e-05	254.17	3.4466e-06	2.9051e-06	226.91	110.16	2.8646e-06	1.1192e-06	98.8	40.423	48.61	24.791	3.6933e-06	20.455	0.00095512	0.0015636	0.00045549	259.79	1.5512e-05	1.9067e-05	233.86	113.74	1.5877e-05	1.8216e-05	102.21	42.218	50.399	25.743	1.7374e-05	21.287	132.187	-26.254	-43.601	-94.075	12.801	-26.859	-95.163	-89.329	39.775	63.235	-92.743	-88.999	-85.583	-80.499	-0.615	-85.118	-8191	255	
3496.197	1	1	0	0	0.3602	0.094084	0.1565	0.1295	0.22188	0.20054	0.10301	0.037424	0.236	0.16319	0.25155	0.1282	0.051286	0.095525	0.077067	0.12189	-1.8563	-3.0542	-2.6167	-2.4604	-3.075	-2.425	-2.7208	-2.9667	-2.3479	-3.2125	-2.9479	-2.5	-3.1188	-2.3708	-2.7125	-2.9833	236.085	51.149	6.577	112.712	6.882	-58.193	128.487	172.962	200.809	152.774	-2.840	-66.891	-27.226	-39.342	153.293	229.382	0.00017072	4.363e-05	6.1893e-05	252.87	1.1085e-06	3.3692e-06	227.86	110.27	4.1596e-07	1.6911e-06	100.25	40.869	49.092	24.808	2.0726e-06	20.7	0.0009601	0.0016327	0.00046625	259.5	1.5511e-05	1.8667e-05	234.83	114.06	1.5625e-05	1.8142e-05	103.29	42.65	50.984	25.82	1.658e-05	21.517	140.460	-60.358	-21.694	-93.974	42.196	50.277	-95.660	-89.221	78.573	21.425	-92.598	-89.162	-85.654	-80.854	2.325	-84.857	-8191	255	
3496.294	1	1	0	0	0.14547	0.20955	0.069392	0.18707	0.053509	0.21394	0.19372	0.24679	0.051783	0.14159	0.05833	0.19045	0.19745	0.095107	0.074881	0.17141	-1.8375	-2.9938	-2.8708	-2.275	-3.2542	-2.6354	-2.7313	-3.1208	-2.2854	-2.9833	-2.85	-2.3625	-3.1229	-2.7188	-2.4104	-3.225	-58.598	-46.690	213.262	92.170	-57.092	27.930	-6.467	20.892	27.517	-66.363	-52.143	-98.619	82.774	22.433	-76.294	1.042	0.00022498	0.00025505	6.2542e-05	253.68	2.9468e-06	2.9967e-06	229	110.67	2.2824e-06	1.9957e-06	100.17	41.502	49.334	24.885	2.6877e-06	20.544	0.00097322	0.0016559	0.00046949	260.23	1.5919e-05	1.8611e-05	235.28	113.9	1.6058e-05	1.8518e-05	103.69	42.95	51.193	25.94	1.7782e-05	21.495	141.327	-19.848	-47.608	-94.100	17.071	25.480	-95.241	-89.417	19.357	68.757	-92.841	-89.169	-85.483	-81.247	30.379	-85.177	-8191	255	
3496.390	1	1	0	0	0.17761	0.068445	0.036719	0.18734	0.15368	0.20428	0.042413	0.19988	0.13864	0.12581	0.26234	0.025649	0.19918	0.21543	0.092781	0.1229	-2.1542	-2.9208	-3.0104	-2.3958	-3.0896	-2.7313	-2.6729	-3.3083	-2.3458	-2.8792	-3.0292	-2.2521	-3.1167	-2.6792	-2.3417	-3.0833	33.031	39.706	-11.823	-5.752	-27.121	222.983	-92.830	145.259	136.004	84.587	-6.923	140.903	200.121	222.809	220.008	230.871	0.00016918	0.00012853	0.00010709	251.61	2.9317e-06	1.7473e-06	227.64	109.87	2.3689e-06	8.8292e-07	99.54	40.434	48.366	24.479	1.6064e-06	20.112	0.00095887	0.0016518	0.00047409	259.37	1.6039e-05	1.9129e-05	233.22	113.65	1.6156e-05	1.8579e-05	102.19	41.832	50.278	25.562	1.7088e-05	21.068	149.996	187.788	-54.832	-94.324	-7.541	26.491	-95.585	-89.461	54.060	31.182	-92.172	-89.099	-85.911	-80.753	-12.471	-85.054	-8191	255	
3496.486	1	1	0	0	0.12865	0.12193	0.084853	0.3183	0.30861	0.10074	0.26179	0.12403	0.18511	0.16204	0.2076	0.19988	0.16891	0.35718	0.16089	0.19001	-2.1146	-2.5333	-3.1021	-2.3187	-2.9708	-2.7979	-2.2583	-3.0708	-2.4479	-2.6562	-3.0604	-2.1437	-3.0417	-2.9604	-2.3375	-3.0354	215.583	190.472	19.238	56.478	110.259	-90.101	74.997	1.804	-52.794	134.245	-35.728	162.391	12.523	194.960	161.112	173.956	0.00022255	0.00043475	3.014e-05	253.44	2.4475e-06	2.2531e-06	225.82	109.82	2.1077e-06	2.6334e-06	98.467	40.048	47.982	24.316	2.585e-07	20.249	0.00096499	0.0016786	0.00047405	258.66	1.5684e-05	1.94e-05	231.7	113.24	1.6192e-05	1.8713e-05	101.75	41.692	50.048	25.377	1.804e-05	21.078	117.500	-42.810	-60.533	-94.100	50.877	-21.656	-95.860	-89.446	69.587	90.671	-92.074	-89.143	-85.254	-80.855	-13.334	-84.938	-8191	255	
3496.582	1	1	0	0	0.16118	0.04179	0.16398	0.39913	0.24507	0.24378	0.30657	0.048719	0.30624	0.34617	0.15869	0.073954	0.11646	0.26037	0.10984	0.022354	-2.1542	-2.4979	-3.0292	-2.1437	-2.9437	-2.9437	-2.1729	-3.175	-2.5438	-2.3937	-3.0958	-2.3042	-2.9479	-2.9688	-2.2438	-3.0729	189.933	239.481	-73.791	193.504	91.817	30.919	-76.292	-98.195	89.383	235.995	-102.028	10.988	-32.795	-84.114	74.775	-66.905	0.00016787	0.00018799	9.8497e-05	250.52	2.1222e-06	1.2939e-06	226.94	109.38	2.0751e-06	6.995e-07	98.869	40.466	48.579	24.62	1.01e-06	20.488	0.0010041	0.0017377	0.00047169	256.67	1.6215e-05	1.9154e-05	232.46	113.37	1.6234e-05	1.9449e-05	102.26	42.14	50.688	25.701	1.7625e-05	21.431	127.154	-81.663	-31.347	-93.991	-24.374	-36.235	-95.410	-89.276	-43.978	-39.058	-91.914	-89.191	-85.805	-80.946	-27.563	-85.078	-8191	255	
3496.701	1	1	0	0	0.11397	0.060033	0.16199	0.26421	0.13259	0.14073	0.12841	0.10856	0.2788	0.17245	0.15496	0.18881	0.29098	0.31231	0.14435	0.2294	-2.3125	-2.6521	-3.0458	-2.3875	-2.8521	-3.1021	-2.4271	-3.1688	-2.8375	-2.5312	-3.2396	-2.4938	-2.8563	-3.1854	-2.125	-3.125	60.497	110.083	8.547	207.647	-82.003	139.891	-14.639	184.757	85.720	72.096	-11.437	169.499	245.031	40.245	-27.667	193.256	0.00026261	0.00021151	2.7926e-05	252.06	1.5936e-06	2.2104e-06	227.27	111.22	2.6625e-06	1.6818e-06	99.975	41.393	49.285	24.935	3.8324e-06	21.066	0.00096568	0.0017135	0.00046758	258.04	1.5991e-05	1.9417e-05	233.28	114.42	1.6488e-05	1.9565e-05	103.44	42.907	51.101	26.185	1.8157e-05	21.861	125.379	-46.159	3.862	-94.107	6.356	34.008	-95.406	-89.203	28.494	38.485	-92.376	-88.929	-85.515	-81.143	8.529	-84.670	-8191	255	
3496.797	1	1	0	0	0.1314	0.073231	0.11919	0.21273	0.070775	0.10919	0.18785	0.093176	0.095891	0.19155	0.089018	0.23417	0.2125	0.13231	0.19851	0.089991	-2.4625	-2.325	-3.1146	-2.5208	-2.7542	-3.1312	-2.3146	-3.1354	-2.9896	-2.1708	-3.0625	-2.575	-2.5292	-3.3042	-2.2438	-2.9708	143.113	223.477	60.153	242.449	-13.455	211.605	209.931	206.177	117.258	68.335	65.766	249.305	26.729	122.819	185.395	-39.929	0.00023137	0.00019106	8.1958e-05	254.73	1.2228e-06	2.8937e-06	227.35	109.8	4.9071e-06	3.6917e-06	99.305	40.861	49.046	25.26	3.4873e-06	21.076	0.00099137	0.001709	0.00049074	260.22	1.6463e-05	1.9664e-05	233.5	113.62	1.6192e-05	1.9183e-05	102.15	42.412	51.057	26.393	1.7564e-05	21.781	132.586	-27.915	10.877	-94.105	223.793	64.197	-95.618	-89.182	0.064	62.823	-92.257	-89.001	-85.965	-80.769	54.007	-85.046	-8191	255	
3496.893	1	1	0	0	0.070697	0.12476	0.10625	0.07606	0.10271	0.2774	0.14132	0.14281	0.044123	0.12323	0.10613	0.10851	0.075461	0.15662	0.19948	0.11953	-2.6458	-2.2792	-3.1937	-2.75	-2.4813	-3.1792	-2.3021	-2.925	-2.9167	-2.4146	-3.2521	-2.6646	-2.775	-3.0896	-2.3854	-2.8333	-75.902	-32.478	-58.066	104.754	-19.661	44.691	52.776	-53.987	37.738	-28.878	-4.015	-4.353	-20.520	174.250	55.082	-39.544	0.00024173	0.00017132	0.00013906	254.09	2.2195e-06	2.5447e-06	228.12	111.18	2.8713e-06	2.6361e-06	99.431	41.526	49.495	25.405	2.6488e-06	20.942	0.00097445	0.0017354	0.00046722	260.54	1.6889e-05	1.9617e-05	233.74	114.64	1.6441e-05	1.9241e-05	102.83	42.827	51.273	26.445	1.8081e-05	21.862	116.036	-16.917	-21.145	-94.315	131.866	25.312	-95.809	-88.852	6.100	4.416	-92.070	-89.130	-85.548	-80.638	-25.073	-85.414	-8191	255	
3496.967	1	1	0	0	0.082779	0.13494	0.1116	0.23877	0.21564	0.11505	0.10831	0.17822	0.17913	0.19273	0.077222	0.21326	0.14354	0.071737	0.20653	0.15791	-2.6396	-2.1896	-3.0687	-2.7375	-2.4938	-3.55	-2.6292	-2.7917	-3.2833	-2.3521	-3.05	-2.8646	-2.3438	-3.0292	-2.4583	-2.7104	157.366	-59.896	52.209	191.033	156.152	173.579	193.835	243.422	-24.359	39.840	-90.460	82.927	213.932	50.638	239.886	-8.144	0.0002336	0.00030245	7.8774e-05	254.71	2.4942e-06	1.897e-06	227.69	111.17	3.756e-06	2.8811e-06	99.641	41.251	49.675	25.207	1.1757e-06	20.899	0.0010034	0.001759	0.00048259	260.29	1.6602e-05	1.9297e-05	234.53	114.39	1.6233e-05	1.9165e-05	103.32	42.719	51.481	26.325	1.7417e-05	21.893	150.680	-30.232	0.623	-93.852	121.615	43.704	-95.752	-89.038	23.374	50.641	-92.572	-89.121	-85.532	-80.635	178.445	-84.590	-8191	255	
3497.085	1	1	0	0	0.15713	0.20575	0.18692	0.24003	0.088645	0.046619	0.23519	0.20048	0.019502	0.12575	0.11618	0.34216	0.12142	0.37594	0.076201	0.15858	-2.8688	-2.2396	-2.9792	-2.7396	-2.2938	-3.2333	-2.6458	-2.5146	-3.1083	-2.2188	-3.1708	-2.8375	-2.1646	-3.0917	-2.7875	-2.6292	-61.207	-85.398	204.899	87.767	166.499	-7.532	138.377	213.394	-87.891	-5.495	59.660	134.332	205.188	-84.344	118.821	-17.077	0.00021415	0.00020653	0.00012501	253.77	2.5345e-06	2.1285e-06	228.56	111.13	5.2728e-07	3.321e-06	99.392	41.388	49.347	25.108	9.0914e-07	20.815	0.00096668	0.0017217	0.00047398	260.59	1.6453e-05	1.9458e-05	235.68	114.52	1.6405e-05	1.8853e-05	103.5	43.008	51.363	26.243	1.7426e-05	21.628	130.572	-41.424	-17.392	-93.996	-19.498	39.095	-95.748	-89.206	124.492	71.659	-91.347	-89.059	-85.682	-80.427	36.352	-84.687	-8191	255	
3497.182	1	1	0	0	0.13504	0.010042	0.20527	0.20367	0.14363	0.069023	0.14746	0.079591	0.30212	0.22983	0.21403	0.17458	0.045205	0.089049	0.022074	0.14742	-2.8229	-2.3979	-2.9542	-3.05	-2.1771	-3.1208	-2.7667	-2.4354	-3.15	-2.3438	-2.7708	-3.0292	-2.25	-3.0854	-2.6771	-2.4708	-4.314	-22.350	-42.218	116.338	44.685	34.381	91.522	215.697	-100.051	229.681	-70.427	-57.430	-79.522	-68.837	158.747	196.631	0.00022471	0.0002108	4.1565e-05	253.25	2.5858e-06	1.8477e-06	227.95	109.78	2.0483e-06	1.6828e-06	99.667	41.159	49.528	25.07	2.2177e-06	20.782	0.0009712	0.0017193	0.00047316	260.56	1.6195e-05	1.8327e-05	234.74	113.76	1.5782e-05	1.8894e-05	102.66	42.662	51.431	26.185	1.6819e-05	21.558	137.007	10.098	-51.002	-94.211	-30.565	-3.387	-95.818	-89.246	23.710	70.102	-92.693	-88.831	-85.322	-80.861	-24.014	-84.858	-8191	255	
3497.278	1	1	0	0	0.089285	0.32446	0.37966	0.096946	0.10807	0.25495	0.083262	0.40103	0.20209	0.18642	0.22718	0.2602	0.18754	0.23351	0.075002	0.29661	-2.7292	-2.4938	-2.7396	-3.1396	-2.5125	-3.1813	-3.0396	-2.4	-3.2771	-2.6167	-2.5979	-3.1229	-2.3208	-3.1646	-2.8812	-2.6208	-5.475	170.222	196.378	76.661	-80.118	-34.568	181.390	107.062	-73.997	176.294	208.732	-74.986	-96.362	-48.558	145.181	31.700	0.00019291	0.00019585	8.2811e-05	252.94	2.3984e-06	2.9892e-06	228.95	110.27	1.2392e-06	1.0706e-06	100.25	41.719	49.851	25.59	1.2638e-06	21.024	0.00093162	0.0016062	0.00044937	260.28	1.5663e-05	1.7963e-05	235.25	113.73	1.5142e-05	1.812e-05	103.97	43.393	52.124	26.603	1.6296e-05	21.957	123.774	-47.390	-21.334	-93.934	22.125	43.180	-95.327	-88.916	76.747	85.117	-91.762	-89.004	-85.388	-80.985	116.678	-84.980	-8191	255	
3497.398	1	1	0	0	0.27899	0.19635	0.15771	0.15313	0.2219	0.12984	0.28946	0.064007	0.099443	0.41447	0.15282	0.10992	0.1527	0.25558	0.29702	0.060524	-2.7458	-2.6813	-2.5396	-3.3063	-2.2667	-2.9417	-2.9313	-2.4333	-3.2521	-2.5062	-2.5917	-3.1979	-2.4313	-2.6854	-3.1271	-2.2542	227.801	-59.814	87.332	77.452	186.196	31.692	-31.844	127.811	-14.437	-79.095	-95.504	51.855	98.966	-87.883	-46.749	-39.454	0.00021381	0.00018362	0.00010583	254.68	1.8204e-06	4.1444e-06	231.92	110.46	1.3911e-06	1.8931e-06	100.68	42.679	50.906	25.99	8.8551e-07	21.303	0.00093016	0.0016049	0.00045757	260.71	1.5279e-05	1.8531e-05	237.08	114.05	1.5287e-05	1.8303e-05	104.83	44.177	52.931	27	1.6285e-05	22.286	139.266	-53.563	-22.135	-93.761	-31.662	43.836	-95.594	-89.545	144.883	47.555	-92.385	-89.415	-85.829	-80.897	10.355	-84.954	-8191	255	
3497.495	1	1	0	0	0.16633	0.1791	0.12568	0.1484	0.07969	0.19914	0.28949	0.24013	0.19653	0.17785	0.13795	0.19873	0.076719	0.27212	0.33829	0.3503	-2.8812	-2.6688	-2.5375	-3.2375	-2.3729	-2.8542	-3.0042	-2.3063	-3.1333	-3.0021	-2.4104	-3.3417	-2.4729	-2.8167	-3.0187	-2.4021	233.795	-40.585	-64.943	111.630	239.181	-76.190	-42.079	238.525	201.214	-55.585	-91.893	-11.778	-48.647	-90.721	-54.576	-59.682	0.00016112	0.00023786	7.5604e-05	253.57	3.3304e-06	1.0175e-06	231.07	110.52	2.1835e-06	2.2272e-06	101.05	42.698	51.103	26.068	2.0788e-06	21.18	0.0009183	0.0016119	0.00045651	259.9	1.5419e-05	1.7492e-05	236.8	113.93	1.5516e-05	1.7522e-05	104.85	44.201	52.995	27.037	1.6252e-05	21.925	139.245	-15.918	-5.484	-93.749	126.576	40.268	-95.406	-89.301	-49.090	67.654	-92.116	-89.473	-85.872	-80.750	45.740	-85.409	-8191	255	
3497.566	1	1	0	0	0.16749	0.23988	0.1054	0.024563	0.083559	0.21141	0.12525	0.10835	0.069622	0.10984	0.093555	0.21855	0.073531	0.21007	0.099273	0.20703	-2.6771	-2.9062	-2.3958	-3.3812	-2.5667	-2.6125	-3.2292	-2.4896	-2.9646	-3.0438	-2.4167	-3.1875	-2.75	-2.6188	-3.2313	-2.2854	202.293	-63.857	17.127	118.363	143.411	77.130	221.243	228.975	36.454	234.619	185.750	-39.087	193.504	197.973	212.603	141.262	0.0002094	0.00020809	8.5418e-05	253.2	1.7222e-06	3.5669e-06	227.48	110.12	3.7439e-06	5.6127e-07	100.74	42.414	51.032	26.034	3.3549e-06	21.46	0.00093736	0.0015789	0.00045079	258.57	1.5053e-05	1.8165e-05	234.65	113.43	1.515e-05	1.7648e-05	103.88	43.937	53.071	27.159	1.6513e-05	22.196	117.996	-41.503	29.952	-94.053	-28.597	110.552	-95.741	-89.352	9.403	-40.664	-92.396	-89.285	-85.719	-80.961	56.555	-84.839	-8191	255	
3497.687	1	1	0	0	0.11216	0.22759	0.37495	0.12963	0.32533	0.19409	0.26096	0.15216	0.073208	0.27653	0.13288	0.097819	0.14984	0.13397	0.08832	0.28059	-2.7229	-3.1229	-2.4354	-3.1479	-2.5229	-2.4729	-3.2354	-2.6979	-3.0146	-2.9562	-2.3354	-3.1688	-2.6396	-2.5917	-3.1625	-2.4021	235.928	171.823	57.606	136.696	-94.397	98.241	175.787	-15.156	245.535	176.565	-2.341	185.336	214.635	109.873	116.711	-84.620	0.00019603	0.00010339	5.9986e-05	252.95	1.3964e-06	2.3624e-06	231.64	110.54	2.1556e-06	2.5009e-06	100.97	42.693	50.828	26.026	1.3434e-06	21.625	0.00092075	0.0015411	0.00045378	259.14	1.4992e-05	1.8159e-05	235.8	113.75	1.5643e-05	1.8039e-05	104.12	44.242	52.645	27.185	1.7047e-05	22.42	143.064	192.502	-42.593	-93.939	251.358	-45.173	-96.003	-88.897	-37.967	56.135	-92.228	-88.866	-85.838	-80.706	-31.011	-84.608	-8191	255	
3497.781	1	1	0	0	0.13034	0.27597	0.30103	0.063793	0.084145	0.27008	0.076502	0.23956	0.11559	0.18632	0.11606	0.079432	0.12375	0.14484	0.096788	0.141	-2.425	-2.8937	-2.2833	-3.0563	-2.8521	-2.5312	-3.1917	-2.5833	-2.7396	-3.1521	-2.4542	-3.0917	-3.1271	-2.5563	-3.1104	-2.6771	-22.848	191.238	66.990	-106.176	-99.038	58.886	140.312	170.788	70.979	66.447	78.616	118.102	227.087	61.786	228.465	132.587	0.00019436	0.00025529	0.00011095	252.92	2.0587e-06	3.6033e-06	230.59	111.74	2.7485e-06	2.2255e-06	101.5	43.378	51.174	26.552	1.8404e-06	21.752	0.00093514	0.0015784	0.00045719	259.69	1.5312e-05	1.8632e-05	236.77	114.95	1.564e-05	1.8353e-05	104.79	44.656	52.86	27.582	1.6327e-05	22.75	142.971	-7.409	-4.455	-93.912	-13.168	37.133	-95.221	-89.403	-18.680	-28.087	-92.227	-89.454	-85.382	-80.608	70.040	-84.998	-8191	255	
3497.879	1	1	0	0	0.10798	0.0050114	0.17818	0.125	0.10062	0.10666	0.18084	0.18913	0.37076	0.03543	0.096549	0.183	0.027367	0.11628	0.04154	0.21207	-2.2375	-3.3	-2.3771	-3.1604	-2.9	-2.2812	-3.2687	-2.425	-2.5896	-3.3083	-2.3292	-2.8771	-3.0521	-2.3063	-3.0792	-2.6562	146.101	-9.466	120.796	83.785	199.402	-45.110	145.597	121.199	161.625	200.266	-51.069	23.715	212.779	-79.470	-103.654	145.666	0.00018718	0.00031626	8.8925e-06	254.49	1.6667e-06	5.3851e-06	230.7	112.74	1.2319e-06	1.0966e-06	100.55	42.06	50.349	26.135	8.6591e-07	21.435	0.00094057	0.001604	0.00044909	260.87	1.5366e-05	1.8298e-05	236.67	115.7	1.5681e-05	1.8228e-05	103.44	43.733	51.95	27.244	1.6784e-05	22.403	134.011	-13.344	-70.257	-93.690	1.951	61.682	-95.083	-88.821	-15.482	111.542	-92.091	-88.712	-85.581	-80.382	89.408	-84.806	-8191	255	
3497.998	1	1	0	0	0.17597	0.29475	0.16591	0.1328	0.17222	0.18457	0.16752	0.15791	0.28893	0.30045	0.16676	0.19255	0.32035	0.22256	0.07041	0.19342	-2.1792	-3.1458	-2.2313	-2.95	-2.9188	-2.2125	-3.1083	-2.6958	-2.4354	-3.1813	-2.2542	-2.825	-2.9333	-2.1813	-3.0271	-2.7562	200.885	42.985	249.965	180.563	78.973	-98.764	75.131	125.377	-23.758	5.069	145.018	132.238	237.723	218.114	195.231	242.562	0.00021392	0.00023778	2.5873e-05	254.36	2.5601e-06	1.3477e-06	228.36	111.68	7.8107e-07	1.6172e-06	100.4	41.915	49.224	25.954	7.2858e-07	21.632	0.00094911	0.0015602	0.00044778	261.02	1.5481e-05	1.8908e-05	235.18	114.81	1.5591e-05	1.8062e-05	103.14	43.423	51.24	27.048	1.6098e-05	22.501	146.442	-32.743	67.506	-93.820	-38.558	39.195	-95.070	-88.984	-40.508	33.698	-92.224	-88.800	-85.377	-80.285	71.322	-84.493	-8191	255	
3498.094	1	1	0	0	0.16662	0.10704	0.057101	0.24393	0.16329	0.17526	0.24781	0.074361	0.30886	0.26967	0.020621	0.29448	0.15433	0.24746	0.069864	0.19272	-1.9333	-3.0312	-2.2729	-2.7896	-2.9938	-2.1854	-2.9146	-2.9042	-2.3563	-3.2229	-2.5521	-2.6958	-3.2375	-2.2979	-2.9562	-2.7854	224.342	-61.529	107.810	128.072	205.941	-28.637	-17.912	172.426	176.374	-93.542	157.145	213.197	188.550	160.660	183.976	-27.499	0.00015783	0.00015855	6.675e-05	255.99	3.1393e-06	2.7487e-06	230.49	111.99	1.9044e-06	1.4879e-06	101.12	42.248	49.727	25.8	2.4579e-06	21.517	0.00092155	0.00155	0.00043749	261.58	1.4727e-05	1.7985e-05	237.14	115.2	1.4992e-05	1.6998e-05	104.09	43.815	51.867	26.988	1.5596e-05	22.376	129.453	6.342	-60.564	-94.123	26.045	85.381	-95.276	-89.114	-17.352	-46.628	-92.057	-88.734	-85.269	-80.840	139.735	-84.697	-8191	255	
3498.190	1	1	0	0	0.41397	0.23304	0.18278	0.13345	0.3274	0.28521	0.22367	0.052862	0.15653	0.20084	0.1551	0.043647	0.11216	0.37777	0.14444	0.322	-1.8042	-3.0771	-2.3104	-2.525	-3.0458	-2.3208	-2.9625	-3.0583	-2.2625	-3.2875	-2.6625	-2.6083	-3.2021	-2.5083	-2.9958	-2.925	9.399	-96.451	32.675	12.096	-91.653	230.025	92.669	8.029	234.165	8.171	7.273	-39.090	-78.288	-99.467	52.410	197.620	0.00021666	0.00016663	7.9897e-05	255.24	8.9078e-07	1.9167e-06	234.83	111.84	1.1519e-06	3.0176e-06	102.57	43.572	51.93	25.959	5.762e-07	21.374	0.00090788	0.0015015	0.00042263	262.29	1.3942e-05	1.6906e-05	239.71	115.22	1.447e-05	1.6204e-05	106.4	44.996	53.524	27.038	1.4916e-05	22.307	134.054	-17.886	-71.998	-93.452	74.910	38.407	-95.552	-89.579	76.328	19.637	-92.044	-88.976	-85.914	-80.991	-16.912	-85.319	-8191	255	
3498.262	1	1	0	0	0.038753	0.1138	0.2253	0.12029	0.098072	0.1306	0.05263	0.10042	0.2088	0.24575	0.011511	0.28638	0.10396	0.21275	0.35921	0.072115	-1.8875	-3.0563	-2.5292	-2.4771	-2.9875	-2.4875	-2.6979	-2.9688	-2.2521	-3.0271	-3.0104	-2.3292	-3.2417	-2.4167	-2.5667	-3.1479	72.302	-7.785	160.369	208.388	203.431	83.578	213.443	105.216	223.419	138.859	133.325	190.218	177.282	-35.561	162.396	-23.634	0.00023572	0.00029342	3.79e-05	253.67	4.6985e-06	9.401e-07	236.43	111.18	2.8748e-06	3.8893e-06	105.42	44.312	53.106	26.404	1.7844e-06	21.502	0.0008626	0.001422	0.00039733	258.88	1.3459e-05	1.6485e-05	242.43	114.35	1.3737e-05	1.5543e-05	107.97	45.787	54.707	27.324	1.4431e-05	22.185	132.566	16.062	19.421	-94.004	-0.503	74.266	-95.708	-89.270	-53.563	30.034	-92.386	-89.268	-85.639	-81.537	7.770	-85.881	-8191	255	
3498.383	1	1	0	0	0.16894	0.15256	0.31106	0.24621	0.16791	0.092258	0.1099	0.12613	0.21296	0.26293	0.24253	0.078489	0.19058	0.031662	0.29025	0.069001	-1.6729	-2.9708	-2.7771	-2.3854	-3.3125	-2.4375	-2.7167	-3.1188	-2.1354	-3.0604	-2.8271	-2.2896	-3.1688	-2.4146	-2.5667	-3.1208	204.063	140.216	-68.644	-86.941	3.051	-54.385	-51.062	38.822	-83.036	20.074	227.399	-9.367	221.815	25.139	-78.459	183.686	0.00022506	0.0002371	7.5857e-05	252.47	2.2532e-06	2.0391e-06	238.82	112.21	2.9452e-06	2.9648e-06	110.14	47.516	55.42	27.281	3.5595e-06	21.71	0.0008138	0.0013486	0.00038713	258.08	1.2699e-05	1.5443e-05	245.74	115.25	1.3231e-05	1.5525e-05	113.24	48.953	57.457	28.353	1.4191e-05	22.627	137.326	-18.971	-37.969	-94.077	-30.595	-7.533	-95.817	-89.641	-16.143	55.756	-92.632	-88.988	-85.956	-81.633	-47.020	-85.886	-8191	255	
3498.479	1	1	0	0	0.14223	0.17538	0.13542	0.1411	0.18977	0.063037	0.043501	0.26223	0.18357	0.2985	0.1357	0.24144	0.14386	0.14743	0.24283	0.23219	-1.9438	-3.0333	-2.8333	-2.3917	-3.2812	-2.7354	-2.4375	-3.3208	-2.3979	-2.9625	-3.1188	-2.3542	-3.1458	-2.6833	-2.4083	-3.3063	69.086	84.568	-74.395	-84.618	-41.493	212.887	150.531	178.911	-58.621	250.213	88.883	196.411	221.652	193.871	-55.552	105.234	0.00024074	0.00023129	4.4157e-05	257.28	1.5496e-06	3.454e-06	251.44	114.39	2.0623e-06	1.4283e-06	118.4	52.806	58.72	29.248	1.1475e-06	22.897	0.00080752	0.0013053	0.00037865	263.09	1.2464e-05	1.5041e-05	256.99	117.38	1.2874e-05	1.437e-05	121.37	54.282	60.778	30.312	1.362e-05	23.582	145.357	13.336	-38.144	-93.809	29.858	89.243	-95.853	-89.418	-7.902	48.521	-92.886	-89.280	-86.474	-82.672	-42.491	-86.614	-8191	255	
3498.575	1	1	0	0	0.22065	0.15	0.13861	0.092174	0.082618	0.017738	0.064809	0.18886	0.35066	0.13774	0.31328	0.20784	0.0892	0.066989	0.35412	0.15129	-1.9979	-2.7083	-3.0458	-2.3104	-3.1479	-2.775	-2.4188	-3.1604	-2.4958	-2.8042	-3.0583	-2.4167	-2.8438	-2.8979	-2.1479	-3.1958	65.809	212.689	50.437	-83.473	-60.978	-22.445	176.008	245.469	-70.224	161.235	-15.620	130.548	129.560	54.747	-99.837	-3.164	0.00019877	0.000191	6.0193e-05	273.52	3.1304e-06	7.2625e-07	269.45	119.11	3.3051e-06	5.0343e-06	124.2	54.566	59.199	29.999	2.428e-06	23.024	0.00080465	0.0013002	0.00036644	279	1.2477e-05	1.4657e-05	274.06	122	1.287e-05	1.4804e-05	126.92	56.438	61.056	31.075	1.4329e-05	23.792	135.069	-42.139	-10.641	-94.231	58.788	-17.761	-95.805	-88.849	-16.684	36.309	-92.841	-89.270	-86.680	-82.868	-23.976	-86.599	-8191	255	
3498.671	1	1	0	0	0.050689	0.057517	0.065835	0.20001	0.12986	0.053974	0.21577	0.25211	0.1346	0.23719	0.10933	0.14719	0.235	0.05829	0.19027	0.058113	-2.1	-2.5312	-2.9813	-2.3354	-3.0271	-2.9437	-2.3208	-3.1396	-2.6417	-2.5479	-3.2646	-2.4646	-2.9646	-2.9437	-2.175	-3.2	43.286	155.184	20.168	49.047	-10.224	100.704	249.881	196.382	11.425	-22.019	-51.383	23.327	219.295	0.477	-18.304	220.401	0.00022983	1.2571e-05	6.7346e-05	291.49	1.4212e-06	4.0109e-06	273.81	120.43	2.4521e-06	1.85e-06	124.93	55.306	59.351	30.611	1.8339e-06	23.161	0.00080832	0.0013507	0.0003753	297.33	1.2849e-05	1.5181e-05	281.12	123.44	1.3109e-05	1.5594e-05	128.48	56.688	61.167	31.662	1.4339e-05	23.976	135.570	-86.725	25.839	-94.707	55.030	54.111	-96.464	-89.630	-8.905	82.545	-92.373	-89.751	-87.048	-83.073	43.126	-86.869	-8191	255	
3498.790	1	1	0	0	0.36462	0.16686	0.16678	0.28978	0.14532	0.1577	0.28365	0.13675	0.028165	0.12666	0.13435	0.087794	0.25082	0.071823	0.20263	0.07935	-1.9312	-2.3646	-3.1	-2.3333	-2.8	-3.0042	-2.3646	-3.1083	-2.5812	-2.7104	-3.1583	-2.2521	-2.6521	-2.9375	-2.3229	-3.1875	-27.433	146.274	134.700	-101.245	27.902	144.276	118.933	-104.746	186.800	87.450	-60.983	161.090	209.112	243.067	-89.371	-3.770	0.00018213	0.0001681	9.4305e-05	293.55	9.2634e-07	2.1283e-06	279.17	122.83	3.5356e-06	3.2673e-06	127.23	56.947	60.256	31.399	2.688e-06	23.974	0.00082562	0.0013622	0.00038437	299.44	1.3013e-05	1.5308e-05	286.61	125.68	1.2958e-05	1.5417e-05	131.23	58.476	62.428	32.527	1.4442e-05	24.77	125.011	2.522	-21.121	-94.370	-101.326	50.650	-96.232	-89.687	22.753	61.695	-93.176	-89.653	-86.817	-82.882	72.080	-86.984	-8191	255	
3498.863	1	1	0	0	0.23672	0.19002	0.09651	0.20449	0.21487	0.052507	0.23318	0.19813	0.13139	0.18716	0.13352	0.2414	0.11156	0.12764	0.18675	0.099452	-2.3917	-2.2229	-3.0812	-2.1833	-2.7188	-3.1917	-2.1333	-2.9813	-2.7083	-2.2375	-3.1854	-2.7	-2.4396	-3.2958	-2.2438	-2.8729	95.520	233.407	144.561	191.582	-14.346	186.348	221.970	110.687	94.721	42.004	-56.641	-12.355	58.800	153.506	-21.854	220.596	0.00019813	0.00017329	0.0001195	297.09	2.4682e-06	2.8209e-06	282.66	123.85	4.7377e-06	1.6627e-06	129.36	58.752	61.571	31.913	9.2288e-07	24.424	0.00082612	0.0014003	0.00038298	302.9	1.3372e-05	1.5744e-05	290.8	127.24	1.3425e-05	1.4914e-05	133.33	60.169	63.64	33.02	1.4756e-05	25.288	140.305	-4.989	-44.421	-93.915	4.674	9.165	-95.784	-89.498	-3.727	77.632	-93.079	-89.879	-87.069	-82.938	-30.387	-86.719	-8191	255	
3498.959	1	1	0	0	0.3052	0.064843	0.38332	0.067974	0.19213	0.18253	0.20209	0.14249	0.080197	0.24511	0.18806	0.077518	0.1617	0.065344	0.33561	0.35371	-2.4625	-2.3063	-3.1021	-2.4979	-2.5	-3.1562	-2.3833	-2.8542	-2.9396	-2.3146	-2.975	-2.6229	-2.5062	-3.1417	-2.325	-3.0187	86.802	73.138	103.691	242.544	141.947	86.706	-17.939	-65.120	-25.239	134.317	229.074	70.941	-82.928	5.447	87.654	-70.952	0.00023414	0.0002807	8.2748e-05	295.15	1.727e-06	2.6082e-06	283.68	122.53	2.2955e-06	1.8053e-06	128.1	57.96	62.263	31.49	3.602e-06	23.817	0.00085008	0.0013685	0.0003951	300.73	1.3175e-05	1.5981e-05	290.39	126.22	1.36e-05	1.5972e-05	131.96	59.232	64.123	32.545	1.473e-05	24.542	142.307	-68.667	7.980	-94.264	12.961	48.125	-96.047	-89.585	-22.700	33.618	-93.059	-89.450	-86.487	-82.590	37.548	-86.841	-8191	255	
3499.078	1	1	0	0	0.081073	0.095009	0.1454	0.17984	0.35064	0.077772	0.040272	0.082664	0.17419	0.057315	0.043254	0.13834	0.2263	0.084054	0.10894	0.088116	-2.7333	-2.1625	-2.9958	-2.6396	-2.4354	-3.0667	-2.3688	-2.5604	-3.1292	-2.4562	-3.1646	-2.7208	-2.6354	-3.3688	-2.5125	-2.9125	54.295	3.778	-94.172	218.978	-62.680	-0.043	-20.874	190.087	118.288	180.134	-78.192	136.222	-20.186	136.781	89.028	35.708	0.00022829	0.00011673	2.6988e-05	288.01	3.4158e-06	9.4274e-07	271.3	120.85	2.8188e-06	2.3933e-06	123.09	55.839	61.853	30.683	2.6815e-06	23.237	0.00085464	0.0014092	0.00039264	293.37	1.3537e-05	1.6059e-05	278.96	123.77	1.3763e-05	1.6552e-05	127.07	57.666	64.025	31.84	1.5573e-05	24.108	136.267	18.020	33.430	-94.449	31.594	35.167	-95.792	-89.255	2.432	34.036	-92.932	-89.961	-86.796	-82.907	6.450	-86.490	-8191	255	
3499.175	1	1	0	0	0.24033	0.16881	0.15794	0.058396	0.038499	0.05637	0.14503	0.2432	0.19584	0.29606	0.14409	0.14065	0.033581	0.14502	0.32597	0.27762	-2.7333	-2.2333	-3.1	-2.775	-2.2104	-3.2438	-2.3979	-2.5583	-3.1208	-2.2583	-2.8792	-2.7938	-2.1	-3.3479	-2.6583	-2.4771	166.531	29.804	124.883	-96.594	3.986	-58.618	-58.759	93.212	-81.575	198.439	66.924	0.607	-24.469	216.603	-88.226	183.128	0.00024377	0.00028894	8.1876e-05	275.31	9.7263e-07	1.3314e-07	263.85	119.21	3.0184e-06	1.4525e-06	122.67	55.692	62.794	30.674	3.0211e-06	23.466	0.00086317	0.0014778	0.00041444	281.65	1.4186e-05	1.692e-05	270.74	122.91	1.4651e-05	1.7432e-05	126.32	57.453	64.64	31.824	1.6071e-05	24.469	133.273	-13.264	9.341	-93.951	-10.982	-11.356	-95.492	-89.487	-44.715	32.694	-93.295	-89.514	-86.660	-82.433	-18.201	-86.479	-8191	255	
3499.271	1	1	0	0	0.10592	0.26289	0.061578	0.302	0.22936	0.12389	0.25622	0.15602	0.10742	0.37069	0.17278	0.093883	0.16698	0.21877	0.01785	0.081967	-3.0312	-2.0875	-2.8312	-2.9562	-2.4354	-3.1958	-2.6354	-2.45	-3.0771	-2.4604	-2.7708	-3.0021	-2.175	-3.2583	-2.7687	-2.3771	-32.518	-90.891	-43.825	190.131	-92.058	56.311	138.900	122.038	142.188	-4.045	180.119	82.121	214.759	101.629	81.971	-54.884	0.0002026	0.00016306	0.00011208	269.41	1.4802e-06	2.3961e-06	256.34	121.56	2.3134e-06	5.3283e-06	122.5	54.488	62.475	30.066	1.1291e-06	24.072	0.00090019	0.0015071	0.00043652	275.79	1.4853e-05	1.7653e-05	260.88	124.94	1.5166e-05	1.7825e-05	126.17	55.98	63.92	31.218	1.7053e-05	24.856	133.157	12.730	-16.148	-93.738	5.012	74.617	-95.229	-89.419	-25.113	77.911	-92.264	-90.000	-86.343	-82.295	92.264	-86.162	-8191	255	
3499.367	1	1	0	0	0.1172	0.31905	0.11936	0.18627	0.034144	0.017229	0.10365	0.12393	0.15686	0.14823	0.2124	0.19195	0.31624	0.3269	0.16977	0.27503	-2.8521	-2.1833	-2.7667	-3.1104	-2.3667	-3.0687	-2.7625	-2.2104	-3.0417	-2.4604	-2.75	-3.0792	-2.3042	-3.0021	-2.9271	-2.2417	177.478	246.865	62.032	251.198	19.730	-94.279	-45.874	115.396	44.497	46.549	195.702	210.672	243.141	227.218	59.624	120.239	0.00030352	0.00035908	4.8466e-05	260.62	1.517e-06	2.4022e-06	248.35	121.57	1.7615e-06	3.1099e-07	117.92	51.24	58.978	29.048	8.3019e-07	23.732	0.00096997	0.0016875	0.00047083	267.37	1.646e-05	1.9313e-05	254.58	125.16	1.6809e-05	1.9447e-05	121.81	52.81	61.115	30.203	1.7888e-05	24.567	136.385	-39.832	-0.841	-93.495	20.106	7.186	-95.589	-89.339	-60.545	19.353	-92.228	-89.253	-85.671	-81.633	-6.261	-85.234	-8191	255	
3499.463	1	1	0	0	0.10453	0.31825	0.20261	0.13285	0.304	0.15776	0.18819	0.076008	0.093071	0.17538	0.37687	0.075712	0.27451	0.1258	0.24558	0.28962	-2.8042	-2.2438	-2.5458	-3.2333	-2.2479	-2.8667	-2.8688	-2.3042	-3.1063	-2.6583	-2.4625	-3.25	-2.2771	-2.6875	-2.9042	-2.1958	231.947	-83.239	-66.623	184.528	-44.100	77.375	193.700	169.336	171.192	-97.334	163.043	90.335	194.313	163.933	-36.141	91.600	0.00020846	0.00028397	5.3304e-05	261.11	1.0725e-06	2.5701e-06	245.95	122.56	2.8106e-06	3.0738e-06	113.98	49.122	57.039	28.326	2.3257e-06	23.341	0.0010272	0.0017707	0.00049971	267.16	1.7032e-05	2.0367e-05	252.09	125.47	1.6757e-05	1.9915e-05	117.24	50.601	58.941	29.47	1.9103e-05	24.356	140.469	-18.333	-62.003	-93.585	66.412	-1.149	-95.711	-89.258	-5.041	63.125	-92.266	-88.957	-85.549	-81.208	7.257	-84.713	-8191	255	
3499.559	1	1	0	0	0.20319	0.16285	0.13955	0.081346	0.12768	0.13484	0.36981	0.23365	0.070996	0.19607	0.097282	0.14975	0.22891	0.11328	0.10935	0.16438	-2.7583	-2.5979	-2.2958	-3.1562	-2.1937	-2.7167	-3.0083	-2.3083	-2.9333	-2.6437	-2.4188	-3.1917	-2.2875	-2.85	-3.0167	-2.2271	171.057	-105.562	192.791	-88.588	185.025	-102.725	223.853	248.387	5.407	213.092	74.259	153.231	175.276	-70.278	-1.825	208.560	0.00027137	0.0002211	4.7812e-05	260.87	8.5205e-07	4.6245e-06	246.77	122.15	1.6362e-06	4.1109e-06	111	48.072	55.226	28.047	3.0796e-06	23.634	0.0010636	0.001874	0.00051926	267.17	1.6989e-05	2.1315e-05	252.34	125.15	1.75e-05	2.06e-05	115.24	49.583	57.248	29.229	1.812e-05	24.615	127.490	-36.840	-6.752	-93.391	-64.325	17.177	-95.478	-88.734	20.133	41.025	-92.104	-88.965	-85.358	-80.618	49.226	-84.718	-8191	255	
3499.680	1	1	0	0	0.10685	0.052175	0.089499	0.17014	0.24518	0.15223	0.33405	0.1759	0.1164	0.1963	0.025708	0.15529	0.26839	0.14967	0.037629	0.18821	-2.5042	-2.5812	-2.1937	-3.1583	-2.2458	-2.7188	-3.0375	-2.2562	-2.9146	-2.7812	-2.2792	-3.2021	-2.5438	-2.5083	-3.0896	-2.425	-41.844	28.241	188.131	-89.531	116.295	-55.781	225.486	174.389	24.745	133.614	181.449	-98.618	196.967	96.393	175.901	170.267	0.0001987	0.00035858	7.9614e-05	261.51	1.4882e-06	2.9083e-06	248.86	120.57	1.5681e-06	2.1455e-06	110.16	48.24	54.643	28.063	2.2135e-06	23.8	0.0010338	0.0018168	0.00052006	268.75	1.6929e-05	2.0363e-05	254.41	125.35	1.6632e-05	1.9939e-05	114.56	49.567	56.799	29.257	1.7927e-05	24.772	145.569	20.055	-53.331	-93.032	-0.386	41.310	-94.741	-88.810	23.742	66.063	-92.194	-88.279	-85.343	-80.149	3.549	-84.320	-8191	255	
#DATA ENDS
