BOXY.EXE: ISS Imagent and Oximeter Data Acquisition Program Version 0.80
Ascii Record File

#ACQ INFORMATION
2  Detector Channels 
16  External MUX Channels 
1  Auxiliary Channels 
5000  Waveform (CCF) Frequency (Hz)
1  Waveforms Skipped 
30  Waveforms Averaged 
1  Cycles Averaged 
16  Acquisitions per Waveform 
10.0806  Updata Rate (Hz) 

#FILE INFORMATION
TRUE -- External MUX Channel results are PARSED.
FALSE -- AC DC and Phase are NOT grouped.
TRUE -- Companion Program Settings File CREATED.
FALSE -- AC data not excluded
FALSE -- DC data not excluded
FALSE -- Phase data not excluded
FALSE -- Auxillary Chn. data not excluded
Tab delimiters

#CALIBRATION STATE
TRUE -- Waveform Calibration Values APPLIED.


#AUX CALIBRATION VALUES
Val Type	aux-1	

Term	1.0000e+00	
Factor	0.0000e+00	


#WF CALIBRATION VALUES
A = Detector Channel
Val Type	A-AC1	A-AC2	A-AC3	A-AC4	A-AC5	A-AC6	A-AC7	A-AC8	A-AC9	A-AC10	A-AC11	A-AC12	A-AC13	A-AC14	A-AC15	A-AC16	A-DC1	A-DC2	A-DC3	A-DC4	A-DC5	A-DC6	A-DC7	A-DC8	A-DC9	A-DC10	A-DC11	A-DC12	A-DC13	A-DC14	A-DC15	A-DC16	A-Ph1	A-Ph2	A-Ph3	A-Ph4	A-Ph5	A-Ph6	A-Ph7	A-Ph8	A-Ph9	A-Ph10	A-Ph11	A-Ph12	A-Ph13	A-Ph14	A-Ph15	A-Ph16	

Term	0.00000e+00	0.00000e+00	0.00000e+00	0.00000e+00	0.00000e+00	0.00000e+00	0.00000e+00	0.00000e+00	0.00000e+00	0.00000e+00	0.00000e+00	0.00000e+00	0.00000e+00	0.00000e+00	0.00000e+00	0.00000e+00	0.00000e+00	0.00000e+00	0.00000e+00	0.00000e+00	0.00000e+00	0.00000e+00	0.00000e+00	0.00000e+00	0.00000e+00	0.00000e+00	0.00000e+00	0.00000e+00	0.00000e+00	0.00000e+00	0.00000e+00	0.00000e+00	0.00000e+00	0.00000e+00	0.00000e+00	0.00000e+00	0.00000e+00	0.00000e+00	0.00000e+00	0.00000e+00	0.00000e+00	0.00000e+00	0.00000e+00	0.00000e+00	0.00000e+00	0.00000e+00	0.00000e+00	0.00000e+00	
Factor	1.00000e+00	1.00000e+00	1.00000e+00	1.00000e+00	1.00000e+00	1.00000e+00	1.00000e+00	1.00000e+00	1.00000e+00	1.00000e+00	1.00000e+00	1.00000e+00	1.00000e+00	1.00000e+00	1.00000e+00	1.00000e+00	1.00000e+00	1.00000e+00	1.00000e+00	1.00000e+00	1.00000e+00	1.00000e+00	1.00000e+00	1.00000e+00	1.00000e+00	1.00000e+00	1.00000e+00	1.00000e+00	1.00000e+00	1.00000e+00	1.00000e+00	1.00000e+00	X	X	X	X	X	X	X	X	X	X	X	X	X	X	X	X	

B = Detector Channel
Val Type	B-AC1	B-AC2	B-AC3	B-AC4	B-AC5	B-AC6	B-AC7	B-AC8	B-AC9	B-AC10	B-AC11	B-AC12	B-AC13	B-AC14	B-AC15	B-AC16	B-DC1	B-DC2	B-DC3	B-DC4	B-DC5	B-DC6	B-DC7	B-DC8	B-DC9	B-DC10	B-DC11	B-DC12	B-DC13	B-DC14	B-DC15	B-DC16	B-Ph1	B-Ph2	B-Ph3	B-Ph4	B-Ph5	B-Ph6	B-Ph7	B-Ph8	B-Ph9	B-Ph10	B-Ph11	B-Ph12	B-Ph13	B-Ph14	B-Ph15	B-Ph16	

Term	0.00000e+00	0.00000e+00	0.00000e+00	0.00000e+00	0.00000e+00	0.00000e+00	0.00000e+00	0.00000e+00	0.00000e+00	0.00000e+00	0.00000e+00	0.00000e+00	0.00000e+00	0.00000e+00	0.00000e+00	0.00000e+00	0.00000e+00	0.00000e+00	0.00000e+00	0.00000e+00	0.00000e+00	0.00000e+00	0.00000e+00	0.00000e+00	0.00000e+00	0.00000e+00	0.00000e+00	0.00000e+00	0.00000e+00	0.00000e+00	0.00000e+00	0.00000e+00	-1.93096e+02	-1.31651e+02	-1.26893e+02	-1.81391e+02	-8.12550e+01	-6.54229e+01	-1.56795e+02	-1.62015e+02	-8.71340e+01	-6.29356e+01	-1.74004e+02	-1.71240e+02	-1.79095e+02	-1.76490e+02	-7.82813e+01	-1.49299e+02	
Factor	3.61994e-05	1.37445e-04	4.05246e-05	1.50909e-01	1.47821e-06	1.56133e-06	1.51247e-01	4.83322e-02	1.61963e-06	1.49477e-06	8.33551e-02	2.69328e-02	2.70377e-02	8.24457e-03	1.53392e-06	1.18361e-02	1.83736e-05	3.60318e-05	1.01782e-05	8.04857e-02	3.42701e-07	4.15052e-07	7.58372e-02	2.58983e-02	3.41234e-07	4.10228e-07	4.32733e-02	1.39519e-02	1.46541e-02	4.46483e-03	3.66053e-07	6.20000e-03	X	X	X	X	X	X	X	X	X	X	X	X	X	X	X	X	



#DISTANCE SETTINGS
A = Detector Channel
A-1	A-2	A-3	A-4	A-5	A-6	A-7	A-8	A-9	A-10	A-11	A-12	A-13	A-14	A-15	A-16	

2.5000e+00	3.0000e+00	2.5000e+00	3.0000e+00	2.0000e+00	3.0000e+00	1.5000e+00	3.0000e+00	3.0000e+00	3.0000e+00	3.0000e+00	3.0000e+00	3.0000e+00	3.0000e+00	1.5000e+00	3.0000e+00	

B = Detector Channel
B-1	B-2	B-3	B-4	B-5	B-6	B-7	B-8	B-9	B-10	B-11	B-12	B-13	B-14	B-15	B-16	

1.0000e+01	1.0000e+01	1.0000e+01	1.4400e+00	1.0000e+01	1.0000e+01	1.5100e+00	1.9400e+00	1.0000e+01	1.0000e+01	1.9900e+00	2.4900e+00	2.4100e+00	2.9000e+00	1.0000e+01	2.9800e+00	




#DATA BEGINS
time	group	step	mark	flag	A-AC1	A-AC2	A-AC3	A-AC4	A-AC5	A-AC6	A-AC7	A-AC8	A-AC9	A-AC10	A-AC11	A-AC12	A-AC13	A-AC14	A-AC15	A-AC16	A-DC1	A-DC2	A-DC3	A-DC4	A-DC5	A-DC6	A-DC7	A-DC8	A-DC9	A-DC10	A-DC11	A-DC12	A-DC13	A-DC14	A-DC15	A-DC16	A-Ph1	A-Ph2	A-Ph3	A-Ph4	A-Ph5	A-Ph6	A-Ph7	A-Ph8	A-Ph9	A-Ph10	A-Ph11	A-Ph12	A-Ph13	A-Ph14	A-Ph15	A-Ph16	B-AC1	B-AC2	B-AC3	B-AC4	B-AC5	B-AC6	B-AC7	B-AC8	B-AC9	B-AC10	B-AC11	B-AC12	B-AC13	B-AC14	B-AC15	B-AC16	B-DC1	B-DC2	B-DC3	B-DC4	B-DC5	B-DC6	B-DC7	B-DC8	B-DC9	B-DC10	B-DC11	B-DC12	B-DC13	B-DC14	B-DC15	B-DC16	B-Ph1	B-Ph2	B-Ph3	B-Ph4	B-Ph5	B-Ph6	B-Ph7	B-Ph8	B-Ph9	B-Ph10	B-Ph11	B-Ph12	B-Ph13	B-Ph14	B-Ph15	B-Ph16	aux-1	digaux	

3182.358	1	1	0	256	0.070541	0.091292	0.066027	0.23037	0.13233	0.12414	0.40433	0.35665	0.16296	0.090996	0.39498	0.19201	0.11163	0.043641	0.19032	0.071622	-2.1521	-2.1542	-3.05	-2.15	-2.675	-2.85	-2.2042	-2.8333	-2.5271	-2.2625	-2.9833	-2.3271	-2.4604	-3.1333	-2.1979	-2.925	300.515	170.428	6.098	298.969	24.311	151.641	292.002	268.347	183.147	52.567	261.135	-20.629	30.266	164.082	297.717	169.544	0.00016195	0.00062926	8.3125e-05	511.3	5.4827e-06	3.4102e-06	387.15	198.25	8.3357e-06	6.0554e-06	169.88	69.013	80.736	43.818	3.2322e-06	36.215	0.0049077	0.0093007	0.0026015	566.14	8.9881e-05	0.0001076	432.7	219.87	8.9915e-05	0.00010837	193.25	77.649	91.204	49.113	0.00010053	40.665	80.752	10.332	53.728	-38.126	109.661	-2.673	-39.711	-32.504	123.257	85.182	-35.484	-30.837	-27.167	-23.041	116.661	-27.724	-8191	255	
3182.454	1	1	0	0	0.13603	0.054469	0.19565	0.049729	0.37325	0.13088	0.051908	0.060086	0.13815	0.26636	0.21741	0.32626	0.013779	0.14421	0.15999	0.03716	-2.4896	-2.1708	-2.9771	-2.3729	-2.4188	-2.9958	-2.3563	-2.7396	-2.7562	-2.075	-3.15	-2.4875	-2.4813	-3.0542	-2.1958	-2.725	292.666	290.016	-41.961	-12.698	25.466	309.679	223.390	49.208	110.002	-0.770	299.584	220.134	7.727	281.692	-45.288	-37.820	0.00018865	0.00034173	0.00018515	516.37	7.1717e-06	3.884e-06	390.69	200.39	5.6449e-06	3.7357e-06	171.78	69.732	81.693	44.521	3.5875e-06	36.4	0.0053522	0.010305	0.0029392	574.24	0.00010282	0.00012509	439.15	224.08	0.00010442	0.00012393	197.25	79.221	93.138	49.952	0.00010899	41.202	89.676	48.318	-17.437	-38.099	80.526	58.550	-39.668	-32.188	112.720	98.023	-35.278	-30.919	-27.266	-22.977	141.712	-27.387	-8191	255	
3182.575	1	1	0	0	0.012377	0.07572	0.13576	0.10018	0.31337	0.32457	0.18987	0.023399	0.091052	0.19969	0.099761	0.081768	0.34724	0.053459	0.21294	0.082256	-2.2271	-1.9875	-2.9479	-2.5542	-2.3563	-3.1604	-2.3833	-2.8271	-2.8563	-2.4271	-2.9375	-2.575	-2.3604	-3.175	-2.3583	-2.5729	107.050	170.112	56.587	291.179	36.784	-19.427	266.660	262.560	150.867	-16.335	-4.494	149.551	58.530	84.820	234.326	271.448	0.00031428	0.00056104	8.925e-05	517.79	8.6508e-06	2.6217e-06	391.57	201.87	5.9896e-06	6.0407e-06	173.04	69.557	82.12	44.554	5.2241e-06	36.218	0.0056657	0.01066	0.0029548	575.7	9.9887e-05	0.00012064	440.1	224.34	0.00010004	0.00011999	197.89	79.403	92.971	49.84	0.00010749	40.892	92.069	41.488	-23.372	-38.067	123.474	159.297	-39.865	-32.245	91.434	72.209	-35.539	-30.965	-27.259	-23.112	59.736	-27.789	-8191	255	
3182.671	1	1	0	0	0.20215	0.16996	0.25403	0.13807	0.32021	0.1222	0.093869	0.12676	0.10882	0.20141	0.20784	0.12696	0.088135	0.13794	0.089154	0.34388	-2.6542	-1.9792	-2.9313	-2.6146	-2.1958	-3	-2.3833	-2.5563	-2.7625	-2.1937	-2.9479	-2.7354	-2.2875	-3.3458	-2.5312	-2.4417	57.034	108.108	104.808	209.778	0.329	105.283	170.471	-7.057	230.144	63.565	-34.112	-44.247	13.956	233.681	228.620	210.883	0.00016373	0.00017242	0.00022815	510.39	5.1185e-06	3.8652e-06	388.88	197.63	3.3522e-06	6.0607e-06	169.21	67.967	79.571	43.151	7.0548e-06	34.954	0.005629	0.010545	0.0030393	569.26	0.00010456	0.00012544	434.85	220.33	0.00010534	0.00012738	194.3	77.621	90.839	48.352	0.00011824	39.869	85.359	-28.986	54.819	-38.191	120.260	109.852	-39.651	-32.120	86.645	129.682	-35.629	-30.876	-27.425	-23.240	109.964	-27.638	-8191	255	
3182.767	1	1	0	0	0.1084	0.21755	0.17116	0.093901	0.078641	0.16289	0.16967	0.12981	0.1866	0.27392	0.20594	0.051631	0.040747	0.28202	0.067822	0.060318	-2.7667	-2.1104	-2.7646	-2.8083	-2.2375	-3.1083	-2.4229	-2.3875	-3.0292	-2.2	-2.8521	-2.9646	-2.1792	-3.2021	-2.4771	-2.4292	-36.816	104.983	174.241	73.086	163.158	1.228	118.189	242.597	76.040	91.065	-9.319	-42.838	189.173	-48.364	149.409	45.328	0.00019782	0.00024703	4.8566e-05	499.34	1.1684e-06	6.2039e-06	378.66	191.19	4.3639e-06	5.8632e-06	165.76	66.117	76.406	41.515	1.9399e-06	34.155	0.006147	0.011565	0.0032869	559.52	0.00011053	0.00013157	427.79	213.94	0.00010963	0.00013038	190.39	75.702	87.463	46.612	0.00011828	38.919	83.831	142.360	26.887	-38.434	-39.174	94.662	-39.709	-32.482	145.981	120.320	-35.341	-31.065	-27.525	-23.049	121.744	-27.834	-8191	255	
3182.863	1	1	0	0	0.15395	0.11745	0.17012	0.19894	0.18912	0.14769	0.16157	0.11731	0.15476	0.23627	0.08622	0.090096	0.15922	0.1299	0.11077	0.1514	-2.6583	-2.0375	-2.475	-2.9708	-1.9771	-2.8771	-2.6792	-2.4583	-3.0667	-2.2958	-2.6333	-2.9083	-2.2479	-2.9958	-2.7042	-2.3333	-40.945	8.254	185.802	-42.080	205.361	-13.773	-20.125	229.074	251.111	1.232	248.730	89.315	192.559	294.640	229.824	-19.216	0.00026873	0.0004764	0.0001274	494.41	5.3657e-06	4.7036e-06	376.86	190.27	6.4678e-06	4.4855e-06	165.9	66.401	77.621	42.372	7.344e-06	35.066	0.0060096	0.011506	0.0032985	553.76	0.00011016	0.00013323	426.81	212.62	0.00010798	0.0001281	191.31	76.163	88.875	47.571	0.00011548	39.746	88.822	-34.339	89.176	-38.242	113.668	117.605	-39.841	-32.422	120.143	-1.860	-35.685	-30.875	-27.444	-23.090	9.447	-27.625	-8191	255	
3182.957	1	1	0	0	0.093935	0.14253	0.24977	0.19545	0.034833	0.15571	0.27738	0.072082	0.13465	0.22027	0.26881	0.14116	0.22694	0.066215	0.093237	0.26156	-2.7667	-2.2792	-2.4792	-2.9688	-2.4479	-2.8563	-2.8708	-2.4458	-3.25	-2.5229	-2.4792	-2.8688	-2.1312	-2.8354	-2.8229	-2.2271	144.327	134.179	49.969	249.212	253.874	128.827	274.994	-15.380	23.530	30.856	234.100	262.543	226.002	169.105	64.418	282.715	0.00034908	0.00019335	9.7521e-05	502.22	6.8573e-06	5.4326e-06	384.98	198.11	2.4586e-06	4.2195e-06	170.79	69.29	81.601	44.301	7.1568e-06	36.236	0.0059134	0.011424	0.0032227	562.76	0.00010836	0.00013062	435.02	220.51	0.00010658	0.00012882	196.22	78.85	92.791	49.824	0.00011608	41.052	66.251	111.824	-27.929	-38.045	105.998	99.311	-39.847	-32.181	125.449	47.267	-35.255	-30.696	-27.374	-22.813	87.373	-27.486	-8191	255	
3183.055	1	1	0	0	0.10455	0.17686	0.12522	0.12554	0.18326	0.11153	0.1339	0.057481	0.2193	0.18765	0.17255	0.11021	0.1237	0.23593	0.12969	0.20179	-2.6292	-2.3167	-2.4333	-3.0229	-2.3187	-2.8042	-2.7854	-2.1729	-3.0604	-2.575	-2.1521	-2.9708	-2.3583	-2.7188	-2.9417	-2.1583	31.549	19.585	4.658	129.548	68.260	26.845	82.420	-39.328	92.962	281.014	301.982	277.924	19.249	-6.287	39.648	223.880	0.00025357	0.00032553	0.00013917	511.88	6.4423e-06	3.6442e-06	388.93	200.65	1.1893e-06	2.6167e-06	172.42	70.303	82.717	44.843	5.2343e-06	36.074	0.005855	0.011113	0.0031409	571.19	0.00010261	0.00012375	435.99	223.7	0.00010159	0.00012477	197.59	79.513	93.861	50.296	0.00011876	41.099	86.035	292.911	7.453	-38.092	101.268	164.909	-39.506	-31.957	123.030	168.712	-35.079	-30.795	-27.500	-22.951	115.299	-27.551	-8191	255	
3183.174	1	1	0	0	0.095863	0.11711	0.12653	0.24799	0.24566	0.047175	0.080284	0.34344	0.18473	0.20412	0.029769	0.28653	0.074658	0.35073	0.029544	0.39544	-2.5417	-2.5854	-2.2458	-3.1708	-2.3167	-2.4271	-2.9938	-2.2042	-2.9333	-2.8042	-2.1542	-2.925	-2.4354	-2.6083	-3.0104	-2.1063	-47.627	1.522	113.720	296.667	2.865	216.917	295.818	257.991	75.975	66.752	194.357	304.731	0.505	-2.241	300.075	90.806	0.00023635	0.00020909	3.2658e-05	512.45	6.5254e-06	4.4906e-06	387.39	200.17	2.7062e-06	3.6321e-06	171.97	69.562	81.45	44.565	8.6526e-07	36.106	0.0061284	0.011771	0.0033365	572.32	0.00011281	0.00013464	436.76	224.12	0.00011036	0.00013312	197.52	79.387	93.21	49.892	0.00011717	40.885	88.741	158.767	51.646	-37.895	72.778	197.334	-39.500	-31.994	145.407	72.908	-35.598	-30.728	-27.102	-22.953	86.618	-27.932	-8191	255	
3183.270	1	1	0	0	0.4008	0.20384	0.1416	0.34985	0.17385	0.13183	0.19958	0.24164	0.087327	0.24707	0.13562	0.18334	0.13191	0.15252	0.096257	0.10066	-2.4104	-2.7229	-2.3354	-3.0021	-2.4313	-2.3896	-2.9604	-2.25	-2.8729	-2.9125	-2.0854	-3.2229	-2.5229	-2.4854	-3.0792	-2.3896	221.924	110.801	92.003	224.826	155.634	193.765	188.929	-26.720	299.760	189.342	167.020	-45.880	6.149	229.128	-30.673	200.559	0.00022973	0.00023646	9.5359e-05	505.58	4.4424e-06	7.6938e-06	382.3	196.67	3.4984e-06	1.8486e-06	169.02	68.63	79.553	43.063	1.6205e-06	35.272	0.005991	0.011591	0.0032271	565.11	0.00010766	0.0001298	432.63	219.54	0.00010355	0.00012396	194.43	77.813	90.257	48.268	0.00010813	40.009	75.123	113.686	67.838	-37.803	131.643	99.667	-39.362	-32.160	53.111	76.971	-35.431	-30.629	-27.320	-22.898	88.779	-27.779	-8191	255	
3183.366	1	1	0	0	0.1118	0.21752	0.28138	0.28167	0.19531	0.07912	0.3811	0.12411	0.13698	0.22504	0.072196	0.32511	0.2301	0.23444	0.17698	0.28763	-2.1854	-2.7146	-2.1146	-2.9104	-2.5458	-2.2292	-3.1	-2.4833	-2.6312	-3.1479	-2.0917	-2.9646	-2.5042	-2.2812	-2.7979	-2.2687	269.023	0.236	-33.061	223.007	170.678	296.233	303.286	111.117	152.391	189.338	246.599	-14.307	195.811	263.317	-31.311	282.593	0.0002503	0.00059025	7.0003e-05	492.81	6.4137e-06	2.466e-06	379.1	189.86	4.7547e-06	7.0349e-06	163.3	65.632	76.392	41.08	1.0168e-06	34.084	0.0056357	0.010715	0.0030244	551.13	0.00010357	0.00012693	425.64	211.76	0.00010686	0.00012731	188.7	75.318	86.925	46.273	0.00011441	38.635	76.678	7.548	84.086	-38.107	116.005	241.366	-39.777	-32.412	148.799	127.281	-35.519	-30.798	-27.604	-23.221	31.277	-27.638	-8191	255	
3183.463	1	1	0	0	0.253	0.22744	0.15848	0.37224	0.22827	0.18279	0.16022	0.064695	0.07469	0.14769	0.21218	0.27106	0.27802	0.063342	0.050466	0.090379	-2.3354	-2.7833	-2.2	-3.0187	-2.6979	-2.275	-3.0292	-2.4938	-2.4354	-3.0021	-2.3104	-2.6292	-2.7708	-2.3917	-3.0167	-2.5458	31.925	257.451	57.814	285.578	189.781	34.564	97.036	148.461	1.365	106.447	-18.090	44.592	239.541	231.679	144.271	181.373	0.00026747	0.00011378	0.00024469	484.53	3.1466e-06	3.6168e-06	370.58	183.98	4.3868e-06	9.0296e-06	161.63	64.533	75.091	40.912	5.7624e-06	34.018	0.0059652	0.011308	0.0032263	539.88	0.00010911	0.00013167	417.1	205.83	0.00010759	0.00012786	185.22	73.847	85.644	45.91	0.00010755	38.544	68.733	63.423	19.524	-38.411	164.949	63.623	-39.842	-32.489	136.838	82.269	-35.173	-30.690	-27.438	-23.253	39.062	-27.686	-8191	255	
3183.559	1	1	0	0	0.091406	0.075702	0.23422	0.41559	0.1975	0.22041	0.12224	0.24609	0.017537	0.17006	0.15547	0.18973	0.16464	0.16746	0.088403	0.094133	-2.0146	-2.8812	-2.1917	-2.8292	-2.8646	-2.0729	-3.1604	-2.425	-2.3104	-3.1583	-2.3708	-2.95	-3.0542	-2.1688	-2.8833	-2.6	-38.058	48.842	143.824	300.530	96.826	56.384	154.302	-43.311	278.082	92.476	73.327	298.642	270.409	38.871	32.599	306.436	0.00034262	0.00019311	5.887e-05	491.54	1.8653e-06	4.3407e-06	375.93	190.83	2.1419e-06	1.7431e-06	167.38	67.504	79.134	43.403	6.2724e-06	35.78	0.0055112	0.010435	0.0028957	545.13	9.7285e-05	0.00011592	421.52	211.86	9.4415e-05	0.00011079	190.07	76.509	89.572	48.388	9.8766e-05	40.346	84.392	72.182	61.315	-38.036	102.205	186.773	-39.769	-32.279	262.009	55.641	-35.053	-30.962	-27.306	-23.091	108.840	-27.513	-8191	255	
3183.655	1	1	0	0	0.16307	0.14822	0.41107	0.21517	0.084874	0.21163	0.060638	0.30005	0.069531	0.11753	0.17381	0.30884	0.28855	0.20965	0.1766	0.075059	-2.0521	-3.0938	-2.1625	-2.7521	-2.8979	-2.2146	-3.1604	-2.6063	-2.5167	-3.0729	-2.3021	-2.6542	-2.8896	-2.2417	-2.9354	-2.9188	51.414	214.711	306.151	21.267	265.820	269.878	285.232	275.981	186.383	263.384	-17.161	277.009	32.001	13.377	29.511	114.188	0.00023934	0.00041162	3.2574e-06	507.15	5.0883e-06	5.7754e-06	387.58	200.63	2.1239e-06	2.7835e-06	173.26	70.739	83.109	45.685	1.4133e-06	37.072	0.0051813	0.0097496	0.00274	562.88	9.2858e-05	0.00011331	434	222.65	9.3281e-05	0.00011137	197.54	80.14	94.229	51.006	9.9704e-05	41.833	63.020	35.121	87.884	-38.092	134.645	127.421	-39.391	-31.902	56.024	75.077	-35.489	-30.554	-27.222	-22.956	165.196	-27.525	-8191	255	
3183.776	1	1	0	0	0.027102	0.11803	0.21321	0.32418	0.053099	0.29688	0.19192	0.22018	0.19575	0.31889	0.019494	0.030326	0.13799	0.13174	0.26989	0.17234	-1.7125	-3.0958	-2.3937	-2.5917	-2.9375	-2.2438	-3.0042	-2.8021	-2.1083	-3.0792	-2.2646	-2.3667	-2.9479	-2.3208	-2.7896	-3.0021	140.332	260.817	158.369	293.982	297.770	273.734	192.108	284.770	182.321	19.985	92.271	-24.458	205.132	199.982	304.486	241.998	0.00033346	0.0002438	2.6028e-05	513.52	3.5737e-06	3.7421e-06	392.2	203.21	5.1446e-06	5.2182e-06	175.26	70.879	83.859	45.996	4.0403e-06	37.135	0.0050832	0.0095055	0.0026637	569.33	8.8698e-05	0.00010684	436.14	225.5	8.8743e-05	0.00010543	198.37	80.213	94.734	51.257	0.00010142	41.694	66.564	-49.075	-0.539	-37.760	109.891	91.907	-39.170	-31.875	15.404	143.553	-35.392	-30.431	-27.125	-22.851	75.628	-27.449	-8191	255	
3183.870	1	1	0	0	0.17834	0.18277	0.040139	0.016397	0.096323	0.018102	0.31976	0.12076	0.13288	0.18533	0.15581	0.082537	0.2266	0.33727	0.055449	0.18008	-1.8896	-2.8937	-2.4542	-2.4188	-3.1646	-2.2646	-2.6229	-3.0229	-2.125	-2.9458	-2.4667	-2.4375	-3.1958	-2.4042	-2.7438	-3.0563	172.550	290.898	71.671	297.626	-14.798	216.763	244.608	143.512	202.089	175.356	185.117	145.979	27.437	258.520	114.567	309.959	0.00024435	0.00021395	8.923e-05	510.84	4.3954e-06	1.4133e-06	388.34	204.12	8.6699e-06	7.3714e-06	174.69	70.968	84.547	45.997	3.4867e-06	37.095	0.0053783	0.010018	0.00285	570.12	9.5851e-05	0.00011589	435.28	227.01	9.4734e-05	0.00011176	198.7	80.38	95.425	51.476	9.819e-05	41.795	81.022	164.784	96.300	-37.899	-15.052	108.211	-39.575	-31.929	67.580	113.496	-35.154	-30.674	-27.260	-22.892	140.586	-27.843	-8191	255	
3183.966	1	1	0	0	0.29841	0.15728	0.096532	0.29203	0.11175	0.064786	0.22691	0.075098	0.12096	0.049446	0.11635	0.17163	0.22489	0.31204	0.22127	0.11553	-1.7	-2.8208	-2.7292	-2.3667	-3.1083	-2.3146	-2.5104	-3.1188	-2.2521	-2.8375	-2.7354	-2.3187	-3.0104	-2.6729	-2.4729	-3.0333	139.711	202.423	114.857	237.513	134.992	55.055	219.050	95.130	-17.147	-20.747	120.755	-39.311	191.623	236.188	-19.188	283.189	0.00025088	0.00057925	6.6957e-05	515.01	5.4729e-06	1.064e-05	392.04	204.88	1.6515e-06	1.576e-06	176.74	71.337	84.102	45.961	4.3993e-06	37.24	0.0050907	0.0095448	0.0026906	571.88	9.003e-05	0.00010959	436.59	226.96	8.748e-05	0.00010396	198.6	80.39	94.766	51.263	9.3123e-05	41.7	73.431	17.860	170.292	-37.572	131.448	142.242	-39.480	-31.900	53.727	108.649	-34.916	-30.886	-27.155	-22.914	59.665	-27.804	-8191	255	
3184.062	1	1	0	0	0.26346	0.1796	0.027868	0.18462	0.089925	0.10239	0.36891	0.2505	0.20945	0.10556	0.13036	0.11373	0.26017	0.10371	0.044406	0.16793	-1.8542	-2.7396	-2.8979	-2.1792	-2.9792	-2.4229	-2.3583	-3.0458	-1.9813	-2.8604	-2.8563	-2.2771	-2.9688	-2.4833	-2.375	-3.1813	72.531	293.650	178.766	-38.693	131.008	-14.555	273.073	307.320	41.634	83.738	255.787	209.514	271.871	241.761	-13.965	42.336	0.00024549	0.00036833	0.00015773	510.02	3.699e-06	3.635e-06	390.1	203	3.9675e-06	3.2903e-06	173.68	70.2	82.701	44.988	4.096e-06	36.546	0.0048249	0.0091877	0.0026131	566.23	8.7626e-05	0.00010691	435.17	224.09	8.7644e-05	0.0001049	196.88	79.306	93.06	50.087	9.3617e-05	40.986	75.159	-3.296	54.765	-37.753	87.159	147.983	-39.610	-32.125	66.875	51.780	-35.282	-30.743	-27.250	-22.896	190.543	-27.671	-8191	255	
3184.136	1	1	0	0	0.029735	0.076001	0.19856	0.33022	0.062601	0.1537	0.072805	0.10879	0.080222	0.11245	0.017018	0.16707	0.18135	0.3307	0.24532	0.11185	-1.9333	-2.6125	-2.7083	-2.0021	-2.9479	-2.6583	-2.4562	-3.2354	-2.1813	-2.6937	-3.0521	-2.2188	-3.0083	-2.6417	-2.3542	-3.1792	212.675	-25.316	202.366	273.000	67.979	72.173	241.514	188.564	168.335	-39.668	103.026	224.500	193.291	15.859	-31.269	123.889	0.00033567	0.00045275	5.4475e-05	501.14	6.2945e-06	6.1163e-06	380	194.76	2.764e-06	2.5085e-06	167.04	67.748	78.859	42.915	3.0817e-06	35.077	0.0048063	0.0092147	0.0025793	554.19	8.7062e-05	0.00010627	425.07	215.9	8.8279e-05	0.0001069	189.81	76.437	88.992	47.943	9.6436e-05	39.505	86.348	66.964	-2.282	-37.753	101.554	44.825	-39.426	-32.128	49.554	-37.433	-35.312	-30.771	-27.317	-23.070	124.568	-27.614	-8191	255	
3184.255	1	1	0	0	0.16825	0.22163	0.047846	0.35676	0.15468	0.1789	0.20921	0.34677	0.057762	0.13216	0.13131	0.079398	0.094816	0.15237	0.092288	0.087554	-2.1354	-2.3812	-2.8854	-2.0896	-2.825	-2.7792	-2.2958	-3.0271	-2.325	-2.5354	-3.0875	-2.1792	-2.6479	-2.9021	-2.2146	-3.1771	-46.528	72.999	90.307	-17.346	26.931	238.597	223.772	252.454	178.636	-3.596	188.938	-22.361	235.178	26.420	2.556	10.028	0.00026797	0.0006073	7.075e-05	491.59	5.2871e-06	5.0002e-06	372.65	187.78	5.4007e-06	2.7835e-06	163.89	65.789	75.961	41.683	4.0262e-06	34.443	0.0049875	0.0093566	0.002657	542.19	8.8788e-05	0.00010787	416.88	208.67	8.597e-05	0.00010341	184.94	74.15	85.969	46.461	9.0683e-05	38.614	97.636	68.295	52.349	-38.039	144.107	27.958	-39.073	-32.229	97.924	159.060	-35.491	-30.552	-27.521	-23.118	31.703	-27.658	-8191	255	
3184.351	1	1	0	0	0.11416	0.1678	0.11803	0.17619	0.10138	0.22443	0.1826	0.20803	0.21475	0.12019	0.24645	0.26198	0.23623	0.20492	0.062545	0.21241	-2.1167	-2.3167	-3.1396	-2.3271	-2.6417	-2.7229	-2.2667	-3.0229	-2.5438	-2.3917	-3.2229	-2.3333	-2.6896	-3.0042	-2.1667	-3.1937	42.170	121.826	203.327	277.039	107.183	-27.699	152.561	77.262	-2.238	275.538	263.202	304.682	8.458	37.884	219.632	199.091	0.00017312	0.0002497	0.000158	482.16	2.4792e-06	4.4303e-06	370.94	184.6	6.0432e-06	5.3928e-06	161.93	65.478	75.094	41.356	5.9321e-06	34.546	0.0046733	0.0088921	0.0024814	532.79	8.4789e-05	0.00010148	413.5	204.66	8.3815e-05	0.00010185	183.97	73.74	85.152	46.178	9.1228e-05	38.736	82.696	144.923	18.812	-37.965	100.371	54.937	-39.683	-32.267	79.477	187.309	-35.595	-30.803	-27.501	-23.166	112.558	-27.699	-8191	255	
3184.447	1	1	0	0	0.16774	0.071697	0.36745	0.11774	0.28509	0.031246	0.3194	0.11224	0.15226	0.075746	0.2832	0.052916	0.023267	0.27654	0.095247	0.13749	-2.1979	-2.3625	-3.15	-2.3458	-2.5146	-3.0229	-2.2396	-2.8583	-2.7083	-2.1542	-3.1042	-2.4208	-2.5333	-2.95	-2.1458	-3.0708	-20.574	300.216	64.204	59.589	30.675	245.080	275.833	112.681	300.714	67.468	301.689	223.768	193.743	309.595	289.472	233.876	0.00034319	0.00039571	6.4171e-05	486.7	2.2511e-06	6.9655e-06	378.14	190.59	5.4633e-06	3.6395e-06	166.16	67.43	78.765	43.194	3.249e-06	35.696	0.0046872	0.0088317	0.0025035	539.19	8.2892e-05	9.7974e-05	419.73	210.79	7.9707e-05	9.5224e-05	187.79	75.874	88.704	48.232	8.5568e-05	40.07	116.941	19.116	64.500	-38.071	91.583	85.510	-39.689	-31.941	17.776	101.403	-35.655	-30.592	-27.382	-22.960	23.321	-27.648	-8191	255	
3184.567	1	1	0	0	0.047619	0.19516	0.16541	0.13888	0.11274	0.090704	0.31005	0.20404	0.068834	0.12014	0.1512	0.26776	0.31807	0.21829	0.14716	0.10194	-2.1208	-2.2396	-2.9479	-2.4188	-2.6646	-3.0312	-2.1937	-3.0875	-2.8333	-2.2604	-2.9354	-2.45	-2.4146	-3.0125	-2.0771	-2.8333	269.202	71.825	20.246	233.588	222.733	159.225	-46.384	253.864	148.488	222.446	239.299	121.494	293.608	-36.944	30.811	20.716	0.00021457	0.00045565	8.2377e-05	500.58	2.2104e-06	4.954e-06	384.06	198.63	3.6683e-06	3.6156e-06	171.35	69.264	82.105	45.244	4.0521e-06	36.389	0.0045522	0.0085483	0.0023916	553.7	8.1109e-05	9.7391e-05	425.2	219.36	7.971e-05	9.5892e-05	192.05	77.811	92.343	50.201	8.2173e-05	40.756	101.186	19.451	37.183	-37.952	187.262	166.136	-39.511	-32.009	102.660	128.538	-35.085	-30.803	-27.204	-22.850	84.320	-27.269	-8191	255	
3184.664	1	1	0	0	0.16128	0.22187	0.15168	0.24366	0.1239	0.31817	0.25347	0.16058	0.30689	0.12202	0.13899	0.24956	0.15534	0.36141	0.23115	0.058811	-2.4688	-2.1375	-2.9333	-2.5438	-2.5208	-3.0167	-2.2729	-2.7521	-2.9188	-2.2708	-3.0438	-2.4646	-2.4146	-3.1688	-2.3125	-2.6937	186.481	36.485	-0.422	263.698	-15.575	233.026	98.781	213.329	-23.032	37.721	50.565	-25.843	282.943	273.438	-6.898	291.969	0.0003074	0.00031148	0.0001277	509.06	1.8538e-06	3.6885e-06	384.9	199.85	5.6527e-07	4.4886e-06	170.8	70.105	82.68	45.381	6.0164e-06	36.653	0.0042566	0.00798	0.0022202	559.25	7.6584e-05	9.0327e-05	426.68	220.9	7.6014e-05	8.9967e-05	192.8	78.247	92.691	50.289	8.0849e-05	40.865	103.924	15.492	19.429	-37.845	130.538	145.544	-39.407	-31.864	149.710	105.689	-34.981	-30.813	-27.310	-22.888	49.922	-27.990	-8191	255	
3184.735	1	1	0	0	0.23155	0.078561	0.16348	0.18803	0.06834	0.14871	0.17008	0.26299	0.14066	0.21174	0.16257	0.077763	0.23033	0.13833	0.21538	0.2	-2.6562	-2.0292	-2.9062	-2.7708	-2.1813	-2.9813	-2.2958	-2.5083	-2.9792	-2.1833	-2.9375	-2.6667	-2.2583	-3.0333	-2.5667	-2.6562	147.322	286.665	47.096	-11.490	208.813	194.717	112.574	195.747	59.863	301.862	307.698	32.714	213.036	295.847	101.081	153.527	0.00026431	0.00027515	0.00014804	507.08	4.3012e-06	2.1637e-06	381.25	197.82	2.3216e-06	3.1385e-06	169.2	69.004	81.515	44.455	1.6657e-06	36.111	0.0042284	0.0078926	0.0022501	557.86	7.6847e-05	9.2465e-05	425.81	219.13	7.7762e-05	9.2285e-05	191.69	77.629	91.276	49.421	8.5016e-05	40.323	73.451	28.656	59.457	-37.970	81.337	78.377	-39.694	-31.739	128.513	85.398	-35.294	-30.698	-27.281	-23.049	87.120	-27.818	-8191	255	
3184.856	1	1	0	0	0.13131	0.16028	0.25014	0.15393	0.22199	0.10471	0.093096	0.080552	0.21263	0.05998	0.12287	0.055304	0.11522	0.19989	0.21261	0.1395	-2.7687	-2.2917	-2.8875	-2.8542	-2.3229	-2.9104	-2.4979	-2.4625	-3.0208	-2.2542	-2.9021	-2.8583	-2.2583	-3.25	-2.5583	-2.4604	296.670	129.517	120.574	222.011	191.807	40.531	243.207	-7.694	30.175	223.098	163.021	245.123	20.078	258.917	196.749	86.715	0.00036103	0.0003375	0.00012022	496.36	2.8231e-07	3.7918e-06	378.47	192.53	2.18e-06	5.1901e-06	164.65	67.022	77.643	42.467	6.0655e-06	34.699	0.0043485	0.0082239	0.0023096	548.55	7.8142e-05	9.4138e-05	419.88	212.69	7.7078e-05	9.153e-05	186.05	75.148	87.303	47.309	8.1951e-05	38.906	90.701	-1.767	53.627	-38.228	-23.885	142.580	-39.871	-32.125	16.412	86.359	-35.343	-30.988	-27.748	-23.059	52.590	-27.754	-8191	255	
3184.950	1	1	0	0	0.34147	0.13061	0.2749	0.11796	0.14678	0.14827	0.13298	0.17312	0.12124	0.1516	0.12197	0.11292	0.11807	0.35734	0.20221	0.24617	-2.6333	-2.2979	-2.6208	-2.8521	-2.2125	-3.0208	-2.6312	-2.3667	-3.0187	-2.4208	-2.7583	-2.9896	-2.3063	-2.9542	-2.6312	-2.2771	97.219	66.807	215.902	53.175	-21.471	218.623	-8.771	-32.103	29.839	233.406	266.074	176.125	305.815	160.438	107.891	187.861	0.00028533	0.00031226	8.6594e-05	483.17	3.7402e-06	5.7303e-06	370.35	183.51	4.801e-06	4.49e-06	160.4	64.805	75.388	41.159	4.5045e-06	34.076	0.0041793	0.0077413	0.0022212	531.65	7.357e-05	8.8979e-05	409.42	203.83	7.4908e-05	8.9831e-05	180.91	72.694	84.346	45.838	8.1287e-05	38.069	66.764	-9.200	77.155	-38.274	97.393	48.367	-39.844	-32.228	32.101	173.864	-35.637	-31.135	-27.690	-23.264	75.905	-27.675	-8191	255	
3185.048	1	1	0	0	0.15458	0.25094	0.40007	0.16622	0.094417	0.27121	0.015276	0.15906	0.043142	0.31498	0.04542	0.2189	0.046691	0.21243	0.14581	0.16335	-2.6792	-2.4437	-2.4625	-3.1312	-2.1729	-2.85	-2.9021	-2.2625	-3.1854	-2.4437	-2.6229	-2.9646	-2.1063	-2.7771	-2.8521	-2.225	275.064	170.802	248.061	88.155	92.462	87.718	53.642	43.897	126.457	3.507	227.355	7.871	216.153	3.495	145.433	-10.427	0.00023196	0.00019137	6.1925e-05	476.31	4.4677e-06	3.9622e-06	365.81	181.87	3.6864e-06	5.9922e-06	158.61	64.414	74.925	41.094	2.3881e-06	34.342	0.004128	0.007843	0.0022349	524.78	7.4866e-05	9.05e-05	406.05	201.17	7.3303e-05	8.7792e-05	179.38	72.202	83.706	45.805	7.8521e-05	38.433	57.964	47.037	-2.159	-38.409	247.133	70.741	-39.798	-32.663	46.617	150.617	-35.219	-31.093	-27.647	-23.264	115.667	-27.666	-8191	255	
3185.167	1	1	0	0	0.055471	0.19265	0.13303	0.20407	0.30691	0.20342	0.21093	0.21923	0.082012	0.17897	0.10323	0.31101	0.024247	0.21402	0.30574	0.091991	-2.9375	-2.6354	-2.3604	-3.1104	-2.2562	-2.7188	-2.875	-2.225	-3.1792	-2.5333	-2.4188	-3.1562	-2.2313	-2.7042	-3.0167	-2.2208	238.066	34.928	220.135	237.749	118.174	98.469	300.301	128.981	175.020	225.227	254.348	240.545	120.448	218.810	146.189	302.822	0.00040221	0.00021575	9.8303e-05	485.62	4.8545e-06	1.9665e-06	376.51	190.7	4.6772e-06	4.7386e-06	166.32	67.87	79.593	44.278	2.0317e-06	36.328	0.0039904	0.0076705	0.0021545	534.95	7.0606e-05	8.5642e-05	415.89	209.72	6.7653e-05	7.9002e-05	186.56	75.66	88.656	48.905	6.9083e-05	40.412	86.316	76.079	39.702	-38.112	112.055	38.795	-39.576	-32.288	57.494	119.295	-35.399	-30.939	-27.446	-23.083	44.513	-27.740	-8191	255	
3185.263	1	1	0	0	0.26382	0.14763	0.10085	0.2486	0.13476	0.14111	0.13912	0.29093	0.11921	0.037324	0.014361	0.11723	0.078773	0.26389	0.22784	0.16623	-2.5625	-2.4771	-2.1646	-3.025	-2.2687	-2.8042	-2.975	-2.0771	-2.925	-2.9188	-2.2729	-3.1646	-2.45	-2.5417	-2.9146	-2.3312	97.410	182.385	73.840	26.722	277.177	293.113	-41.290	71.569	156.734	67.678	170.038	282.593	226.281	277.099	56.230	304.854	0.00031478	0.00025472	4.1638e-05	505.82	5.7586e-06	5.2252e-06	385.13	199.76	3.1893e-06	1.9211e-06	172.25	69.733	82.517	45.806	5.4468e-06	36.869	0.0036155	0.006806	0.001972	554.47	6.7458e-05	8.2183e-05	425.95	219.65	6.9177e-05	8.2761e-05	192.65	78.1	92.449	50.788	7.4463e-05	41.225	81.457	30.958	66.347	-38.014	84.162	73.466	-39.709	-32.198	98.945	134.478	-35.549	-30.817	-27.248	-22.835	82.580	-27.829	-8191	255	
3185.359	1	1	0	0	0.13212	0.16898	0.21236	0.087834	0.074155	0.054138	0.056312	0.14927	0.14756	0.21865	0.19285	0.33397	0.26328	0.20043	0.09895	0.066075	-2.4708	-2.6958	-2.4208	-3.1646	-2.3417	-2.4875	-3.1917	-2.2375	-2.8771	-2.6958	-2.4271	-3.1167	-2.5792	-2.4729	-3.1271	-2.2812	39.718	99.427	-16.197	-46.879	-38.524	308.949	125.818	298.091	70.822	111.238	231.990	264.429	288.914	263.767	55.990	25.615	0.00026809	0.00083358	9.8968e-05	513.45	4.0567e-06	5.9645e-06	390.05	203.79	1.6606e-06	3.1208e-06	175.01	71.943	85.695	47.278	5.2102e-06	38.158	0.0038321	0.007101	0.0019979	563.22	6.703e-05	8.1468e-05	429.9	224.54	6.5826e-05	7.778e-05	195.53	79.945	95.439	52.486	7.0047e-05	42.479	88.124	77.115	26.329	-37.796	121.021	103.656	-39.473	-31.953	73.841	118.814	-35.190	-31.096	-27.337	-22.975	81.221	-27.642	-8191	255	
3185.431	1	1	0	0	0.17308	0.2991	0.061015	0.13862	0.11246	0.12304	0.28172	0.088249	0.21223	0.10952	0.13662	0.32088	0.1707	0.10497	0.032154	0.19986	-2.3542	-2.8187	-2.05	-3.1396	-2.5167	-2.4188	-3.1146	-2.1708	-2.5958	-2.8563	-2.2313	-2.8333	-2.6646	-2.4188	-3.1125	-2.6458	6.890	213.764	50.825	275.795	218.455	7.420	276.283	220.845	276.992	55.498	267.850	16.377	307.310	251.755	191.775	132.983	0.00035295	0.0005464	0.00016303	525.23	3.398e-06	2.1749e-06	398.01	210.41	3.4322e-06	9.4636e-07	179.11	73.482	87.632	48.447	2.2515e-06	38.637	0.0036979	0.006871	0.001945	574.51	6.676e-05	8.0193e-05	438.69	231.19	6.7749e-05	8.1785e-05	200.55	81.802	97.725	53.71	7.5701e-05	43.039	96.275	25.448	46.220	-37.616	111.084	136.704	-39.597	-31.928	156.574	210.237	-35.005	-30.737	-27.289	-22.810	224.472	-27.780	-8191	255	
3185.552	1	1	0	0	0.14237	0.074509	0.15848	0.11699	0.28022	0.039699	0.046479	0.22526	0.098433	0.16539	0.17288	0.18249	0.064103	0.1977	0.43372	0.28668	-2.45	-2.9958	-2.2	-2.9042	-2.6625	-2.4688	-3.0521	-2.5312	-2.6354	-2.9938	-2.1875	-3.1	-2.9083	-2.4188	-2.9938	-2.6146	113.972	177.271	243.229	72.534	88.288	18.047	238.585	191.785	33.953	92.759	42.720	-31.408	-24.387	299.761	146.053	36.646	0.00037007	0.00047863	4.52e-05	524.22	5.4194e-06	6.8803e-06	396.95	210.51	5.6752e-06	2.8452e-06	180.24	73.736	87.319	48.148	5.8707e-07	38.966	0.004016	0.0074903	0.0020853	576.22	7.0349e-05	8.5358e-05	439.78	231.83	6.9408e-05	8.2109e-05	200.91	82.147	97.356	53.462	7.1877e-05	43.181	79.356	61.122	24.263	-37.660	75.932	125.318	-39.736	-31.862	100.503	112.203	-35.616	-30.967	-27.033	-22.875	15.701	-27.771	-8191	255	
3185.648	1	1	0	0	0.1697	0.050627	0.095408	0.27609	0.19037	0.040038	0.079049	0.13555	0.31377	0.078858	0.080957	0.22077	0.20297	0.14438	0.1593	0.3149	-2.1625	-2.8479	-2.0563	-2.925	-2.8312	-2.1604	-3.0687	-2.5854	-2.2417	-3.0167	-2.3354	-2.7271	-3.0271	-2.3479	-3.0396	-2.7125	-38.664	70.342	99.095	-31.970	-18.861	160.678	113.321	-24.881	302.838	130.896	292.613	279.644	-15.049	58.319	239.064	191.010	0.0002613	0.00063188	0.00014036	517.39	4.1102e-06	3.1597e-06	393.12	207.02	1.7484e-06	6.1131e-06	175.83	71.929	85.099	46.997	5.7931e-06	37.949	0.003761	0.0070154	0.0019853	570.3	6.6739e-05	8.1166e-05	434.68	227.58	6.7586e-05	7.9995e-05	196.81	80.37	95.065	52.18	7.2429e-05	42.207	73.034	36.138	47.625	-37.630	135.093	85.504	-39.155	-31.999	139.150	130.091	-35.226	-30.691	-27.302	-23.101	108.850	-27.463	-8191	255	
3185.744	1	1	0	0	0.11325	0.17651	0.2085	0.24523	0.16767	0.16736	0.2347	0.16955	0.18794	0.1065	0.091054	0.24398	0.17867	0.10688	0.05372	0.10904	-1.9021	-2.9062	-2.2146	-2.6833	-3.0146	-2.2646	-3.0708	-2.7792	-2.2583	-3.0958	-2.3937	-2.5687	-2.9	-2.1792	-3.15	-2.6333	273.107	109.217	6.620	196.496	-46.221	80.225	281.956	-24.699	265.978	283.774	283.122	187.878	299.058	-5.643	236.462	153.483	0.00024508	0.00031673	0.00017071	511.43	2.7612e-06	1.2168e-06	387.67	202.4	4.4341e-06	2.1972e-06	171.77	70.429	82.53	45.723	6.1226e-06	37.055	0.003902	0.0071841	0.0020155	562.58	6.9539e-05	8.3082e-05	428.07	222.08	7.0793e-05	8.3696e-05	192.93	78.737	92.423	50.738	7.5192e-05	41.276	74.872	40.576	67.905	-37.643	66.636	8.605	-39.572	-32.267	112.710	138.625	-35.498	-30.999	-27.306	-23.292	101.309	-27.994	-8191	255	
3185.840	1	1	0	0	0.17963	0.28375	0.16589	0.17966	0.087039	0.2456	0.23836	0.10901	0.12553	0.082401	0.2906	0.15304	0.19285	0.25208	0.17764	0.13484	-1.8146	-3.1854	-2.3021	-2.4979	-2.9104	-2.3937	-3.0854	-2.6854	-2.2333	-2.9313	-2.4333	-2.5792	-2.9521	-2.0896	-2.8312	-2.8563	24.889	4.863	104.652	-49.071	300.248	242.072	111.033	16.573	84.886	88.554	245.268	228.569	10.004	298.816	220.602	50.093	0.00027043	0.00025114	0.00022138	501.41	3.42e-06	3.9606e-06	382.47	194.76	2.9212e-06	2.6022e-06	168.05	68.714	80.124	44.28	5.018e-06	36.625	0.0039514	0.0072492	0.002054	550.21	6.8448e-05	8.2123e-05	421.91	214.85	6.6645e-05	7.8364e-05	188.32	76.829	89.294	49.07	6.8022e-05	40.567	70.879	44.801	50.167	-38.281	96.652	127.274	-39.780	-32.261	44.668	156.242	-35.709	-30.994	-27.449	-23.106	77.702	-27.870	-8191	255	
3185.959	1	1	0	0	0.26474	0.32097	0.060613	0.082105	0.15913	0.059659	0.15962	0.17342	0.19068	0.085791	0.19003	0.076617	0.21659	0.22079	0.19502	0.13107	-1.8563	-3.0396	-2.4958	-2.3854	-3.25	-2.2812	-2.7562	-2.8396	-2.1271	-3.1271	-2.5167	-2.2875	-3.2562	-2.2125	-2.6667	-3.1083	178.612	26.523	25.493	290.225	258.827	-48.074	67.680	117.288	113.487	110.214	15.531	280.938	-8.132	282.745	12.140	267.916	0.0003571	0.0005818	0.00013104	490.34	3.7381e-06	4.7001e-06	377.89	190.41	2.042e-06	2.079e-06	165.38	67.962	77.998	42.923	1.8666e-06	35.498	0.0036103	0.0066575	0.0018815	539.24	6.3176e-05	7.6805e-05	416.62	209.66	6.5826e-05	7.8755e-05	185.48	75.487	86.997	47.613	7.3916e-05	39.603	68.986	10.169	41.431	-37.966	71.058	92.680	-39.784	-32.392	90.724	33.463	-35.638	-31.060	-27.689	-23.355	74.740	-27.867	-8191	255	
3186.031	1	1	0	0	0.11814	0.13127	0.14145	0.43534	0.12697	0.051925	0.094837	0.016996	0.25102	0.031426	0.15922	0.38242	0.10801	0.31578	0.22638	0.099535	-1.8479	-2.8146	-2.5	-2.1417	-3.1979	-2.175	-2.8021	-3.1729	-2.15	-3.075	-2.6583	-2.3604	-3.2333	-2.3979	-2.5792	-3.0583	-22.534	77.139	-33.839	275.579	197.557	234.273	-33.714	169.715	23.483	212.090	82.923	-44.598	49.423	287.387	217.248	211.424	0.00024774	0.00045971	0.0001325	484.88	5.5471e-06	4.0987e-06	370.38	187.13	5.0688e-06	4.287e-06	163.44	67.053	78.195	43.357	2.365e-06	35.895	0.0039039	0.007291	0.0020598	532	6.9162e-05	8.3735e-05	410.75	206.32	6.8358e-05	8.0727e-05	183.17	74.748	87.152	48.069	7.0054e-05	39.875	87.468	31.948	82.947	-38.028	122.160	105.986	-39.580	-32.415	84.129	58.445	-35.827	-31.097	-27.888	-23.135	155.017	-27.851	-8191	255	
3186.129	1	1	0	0	0.22549	0.1527	0.10603	0.446	0.196	0.10883	0.27256	0.28918	0.12874	0.071409	0.090419	0.16764	0.10031	0.1028	0.06189	0.10672	-1.8167	-2.7333	-2.5729	-2.2042	-3.0375	-2.3875	-2.3896	-3.1833	-2.1229	-2.6937	-2.8208	-2.2896	-3.075	-2.6312	-2.3583	-3.0229	156.454	67.196	186.533	243.222	-49.365	91.465	187.685	8.532	-45.950	222.820	97.423	287.563	248.063	198.333	66.799	178.820	0.00024023	0.00015174	0.00018791	496.44	1.3447e-06	2.0532e-06	382.78	195.58	5.2556e-06	3.2971e-06	169.23	69.793	81.894	45.694	2.1018e-06	37.509	0.003592	0.0066596	0.0018519	542.73	6.2207e-05	7.5481e-05	419.03	214.84	6.2163e-05	7.4712e-05	189.46	77.537	91.474	50.655	6.5257e-05	41.573	108.095	89.631	28.567	-38.007	128.420	180.098	-39.855	-32.074	28.639	97.854	-35.441	-30.779	-27.192	-22.966	116.798	-27.704	-8191	255	
3186.247	1	1	0	0	0.39177	0.12539	0.13015	0.2195	0.11677	0.11277	0.048638	0.10997	0.093014	0.20833	0.36303	0.11705	0.07135	0.2804	0.12212	0.30549	-1.9771	-2.6562	-2.8479	-2.1104	-3.1229	-2.5979	-2.1646	-3.0542	-2.2208	-2.7896	-2.9708	-2.1021	-2.8354	-2.5563	-2.2792	-3.1271	126.214	-32.750	-21.548	227.448	-7.202	282.024	82.499	42.840	90.364	57.053	256.753	-21.885	229.919	295.510	-47.634	293.533	0.00031669	0.00014624	0.00011778	509.92	2.2112e-06	4.1548e-06	390.79	203.95	2.5006e-06	1.9942e-06	175.96	72.217	85.105	47.109	1.7435e-06	38.323	0.0034319	0.006302	0.0017759	558.65	5.9304e-05	7.1964e-05	429.83	223.5	5.8752e-05	7.1336e-05	195.44	79.784	94.422	52.113	6.4274e-05	42.428	67.473	31.964	20.314	-37.875	120.102	135.107	-39.510	-31.871	49.391	129.147	-35.464	-30.648	-27.070	-22.881	158.841	-27.687	-8191	255	
3186.344	1	1	0	0	0.070456	0.11913	0.20606	0.17257	0.1582	0.10797	0.14079	0.24451	0.13252	0.37866	0.15454	0.2273	0.17972	0.27097	0.11513	0.21299	-1.7771	-2.3792	-2.8417	-2.1979	-2.9667	-2.7354	-2.4167	-3.0667	-2.2271	-2.4458	-2.9542	-2.4521	-3.0021	-2.6813	-2.2146	-3.0542	106.262	254.472	99.686	169.574	-35.916	298.936	-37.904	254.818	256.759	-32.977	61.534	-8.184	229.082	295.021	0.093	34.353	0.00022197	0.00033687	0.00017306	516.15	4.0616e-06	3.9629e-06	392.26	204.21	1.0713e-06	2.0826e-06	174.4	71.719	84.626	46.867	3.1769e-06	37.851	0.0033882	0.0063347	0.0017946	563.71	6.0723e-05	7.3699e-05	431.75	224.09	6.1524e-05	7.4886e-05	194.76	79.709	94.213	51.911	6.6651e-05	42.027	103.626	52.045	35.673	-37.515	29.235	97.428	-39.273	-31.766	-22.877	8.178	-35.299	-30.580	-27.117	-22.999	122.173	-27.298	-8191	255	
3186.440	1	1	0	0	0.049953	0.18335	0.267	0.30095	0.055796	0.26541	0.2242	0.22377	0.068397	0.075036	0.13387	0.15787	0.26815	0.044524	0.17685	0.16627	-1.9625	-2.2438	-2.9938	-2.2979	-2.775	-2.8083	-2.3063	-3.0021	-2.3479	-2.2667	-3.1021	-2.2646	-2.8104	-2.9833	-2.2521	-2.9875	280.785	-33.870	84.847	8.712	163.081	193.453	287.898	236.610	124.647	130.835	83.037	223.822	271.949	183.235	15.945	232.048	0.0002813	0.00029039	0.00014385	510.39	4.3884e-06	4.5665e-06	388.12	201.86	9.8587e-07	5.1755e-06	172.13	70.789	83.351	45.917	3.9364e-06	37.219	0.0034226	0.0063384	0.0017966	557.99	6.0296e-05	7.2209e-05	425.92	221.06	5.9393e-05	7.0587e-05	191.87	78.464	92.446	50.941	6.4861e-05	41.385	78.094	9.701	37.296	-37.616	72.041	133.243	-39.472	-31.889	121.841	98.443	-35.510	-30.595	-27.205	-23.083	116.075	-27.627	-8191	255	
3186.536	1	1	0	0	0.24093	0.10564	0.18978	0.048207	0.20222	0.0461	0.023768	0.33424	0.17322	0.24244	0.10483	0.14502	0.12649	0.30358	0.14589	0.21176	-2.0729	-2.2604	-2.8833	-2.3396	-2.4229	-3.0354	-2.3854	-2.7458	-2.725	-2.2271	-2.9437	-2.4062	-2.5312	-3.1229	-2.2708	-2.9896	234.032	-13.380	95.040	291.892	25.219	58.493	-29.767	304.214	-24.395	130.724	228.157	161.522	111.630	225.589	252.990	276.065	0.00025412	0.0003754	8.5306e-05	502.15	2.4475e-06	4.1221e-06	383.32	196.03	2.2709e-06	3.546e-06	168.53	68.784	79.954	44.361	1.9506e-06	36.632	0.0034281	0.0063395	0.0017958	548.62	6.2033e-05	7.288e-05	421.26	215.1	6.1733e-05	7.3867e-05	188.27	76.772	89.296	49.193	6.5448e-05	40.549	82.116	68.434	-5.967	-37.835	90.038	98.900	-39.608	-31.968	106.815	22.527	-35.477	-30.921	-27.255	-23.230	150.718	-27.802	-8191	255	
3186.632	1	1	0	0	0.24257	0.11324	0.11454	0.035169	0.11564	0.14489	0.12166	0.44597	0.18814	0.31119	0.054871	0.17633	0.41192	0.13953	0.096234	0.099379	-2.3708	-2.1688	-3.0938	-2.2958	-2.4792	-2.8917	-2.0729	-2.8292	-2.7375	-2.2125	-3.0479	-2.4625	-2.4417	-3.1979	-2.0771	-2.7125	-48.678	103.319	282.560	61.804	21.698	153.130	227.895	281.286	129.532	146.348	76.555	29.823	-49.924	16.663	274.378	267.840	0.00037662	0.00012358	0.00010399	486.72	7.9292e-07	3.1942e-06	375.89	189.41	4.8401e-06	3.7693e-06	165.02	67.336	76.801	42.806	3.366e-06	35.763	0.0034631	0.0065299	0.0018274	535	6.2965e-05	7.607e-05	414.57	208.35	6.5083e-05	7.7503e-05	184.53	75.002	86.165	47.586	7.2846e-05	39.772	91.546	148.533	66.370	-37.818	289.783	66.963	-39.661	-32.262	109.826	87.313	-35.522	-30.951	-27.478	-22.981	9.202	-27.907	-8191	255	
3186.728	1	1	0	0	0.075233	0.062619	0.17241	0.10707	0.10823	0.17986	0.081878	0.060012	0.21963	0.37341	0.2362	0.063476	0.066705	0.28142	0.13683	0.37576	-2.2562	-1.9688	-2.9708	-2.5333	-2.1688	-2.9313	-2.1396	-2.8021	-2.7458	-2.2958	-2.8646	-2.4562	-2.3396	-3.0729	-2.3354	-2.7375	34.868	262.607	240.527	174.378	275.701	212.008	20.199	275.039	174.626	239.901	208.452	205.015	9.966	296.520	94.108	258.529	0.00025872	0.0004801	0.00014616	475.88	6.7613e-06	2.8957e-06	370.25	183.76	4.6864e-06	6.4499e-06	159.65	65.374	74.744	41.747	4.1359e-06	34.786	0.0038882	0.0073152	0.0020576	526.4	6.9903e-05	8.3321e-05	410.85	203.24	6.9766e-05	8.2162e-05	180.51	73.274	84.018	46.293	7.3888e-05	38.806	78.024	9.521	59.828	-38.177	49.873	69.829	-39.547	-32.224	108.624	112.643	-35.700	-31.182	-27.675	-23.367	72.562	-27.747	-8191	255	
3186.849	1	1	0	0	0.18859	0.15187	0.20569	0.11865	0.09672	0.16424	0.13942	0.18315	0.13481	0.09212	0.15834	0.17531	0.36505	0.12258	0.1989	0.16287	-2.4333	-2.1083	-2.9583	-2.7354	-2.4104	-3.1125	-2.3229	-2.6521	-3.2042	-2.1875	-3.225	-2.7917	-2.2958	-3.2083	-2.3833	-2.625	164.312	182.589	271.555	229.033	21.281	79.853	-24.676	237.321	224.445	271.046	269.037	139.187	244.898	4.239	-36.523	264.704	0.00019301	0.00052891	0.00010285	470.89	3.7902e-06	4.5221e-06	367.93	182.85	1.5272e-06	4.2446e-06	162.05	66.228	76.916	43.048	7.265e-07	35.939	0.0037696	0.0069929	0.001943	519.07	6.5645e-05	7.6764e-05	405.89	201.48	6.3448e-05	7.4285e-05	181.07	73.931	85.623	47.569	6.4079e-05	39.885	83.677	47.564	11.368	-38.403	111.052	104.791	-39.718	-32.458	191.614	106.469	-35.746	-30.759	-27.687	-23.311	274.857	-27.563	-8191	255	
3186.945	1	1	0	0	0.26691	0.31723	0.039873	0.13306	0.059046	0.25843	0.14606	0.34574	0.11488	0.087703	0.081953	0.073742	0.27033	0.31129	0.2684	0.26882	-2.6792	-1.9562	-2.7208	-2.7792	-2.2792	-2.9833	-2.3042	-2.4729	-3.0146	-2.3396	-2.9125	-2.7917	-2.1833	-3.0625	-2.3875	-2.5187	205.648	239.409	269.687	171.492	166.458	265.793	-40.029	249.484	226.906	271.739	223.813	-38.569	-2.819	288.917	-25.397	291.044	0.00019635	0.00051306	2.0571e-05	488.01	4.2475e-06	7.3871e-06	381.64	193.36	2.9776e-06	3.9034e-06	169.53	69.322	80.898	45.696	5.1478e-06	37.785	0.0033608	0.0061465	0.0017781	535.05	5.9822e-05	7.1452e-05	417.5	212	5.7757e-05	6.8776e-05	188.36	77.214	90.313	50.424	6.1893e-05	41.692	106.318	60.579	11.870	-38.153	97.195	87.105	-39.504	-32.354	102.407	83.089	-35.400	-30.857	-27.314	-23.140	150.923	-27.524	-8191	255	
3187.039	1	1	0	0	0.2033	0.21143	0.24805	0.15699	0.39396	0.078663	0.07389	0.022413	0.030616	0.2766	0.27051	0.16257	0.47125	0.22627	0.075711	0.25935	-2.5542	-2.0687	-2.5271	-2.8875	-2.0687	-2.8625	-2.55	-2.3104	-3.0146	-2.3	-2.6729	-2.9979	-2.0625	-2.8458	-2.7313	-2.3479	301.287	171.090	290.978	8.390	278.467	13.201	217.331	219.387	3.350	140.584	287.535	222.700	267.353	0.101	297.128	213.427	0.000291	0.00032468	0.00011729	508.41	3.6275e-06	3.2925e-06	390.47	203.3	4.6042e-06	5.4991e-06	175.81	72.363	84.443	47.219	4.872e-06	38.623	0.0032533	0.0059919	0.0016936	555.63	5.6164e-05	6.6542e-05	429.68	222.38	5.3881e-05	6.4232e-05	194.85	80.018	93.685	52.172	5.7207e-05	42.704	92.015	36.326	49.424	-38.045	90.895	120.812	-39.571	-31.965	80.874	69.217	-35.207	-31.031	-27.126	-22.788	37.589	-27.604	-8191	255	
3187.136	1	1	0	0	0.11126	0.14087	0.080858	0.1626	0.1676	0.052242	0.21411	0.2072	0.036134	0.10927	0.26949	0.037136	0.27202	0.16733	0.33662	0.40607	-2.5938	-2.3792	-2.6063	-3.0854	-2.2958	-2.9521	-2.8958	-2.2687	-3.0875	-2.2167	-2.425	-3.0396	-2.2646	-3.1146	-2.7875	-2.1688	154.335	84.651	227.432	250.705	301.998	50.846	306.565	266.349	-47.449	109.343	264.706	278.074	-30.465	242.770	195.252	-32.641	0.00036963	0.00028535	0.00012526	512.89	4.785e-06	2.3603e-06	395.91	203.45	7.172e-06	3.5706e-06	176.52	72.373	84.549	47.288	1.6518e-06	38.759	0.0030314	0.0055794	0.0015788	560.02	5.2977e-05	6.3116e-05	432.79	223.17	5.2588e-05	6.2675e-05	195.26	79.908	93.598	52.2	5.6856e-05	42.652	77.410	29.184	54.702	-37.757	148.517	131.380	-39.655	-31.696	99.654	144.576	-35.230	-30.800	-27.289	-22.771	97.819	-27.176	-8191	255	
3187.256	1	1	0	0	0.20524	0.11672	0.10708	0.2593	0.15838	0.061755	0.057557	0.19408	0.22921	0.067742	0.15851	0.093501	0.14622	0.11883	0.087305	0.08052	-2.5354	-2.3479	-2.4062	-3.0062	-2.1562	-2.7792	-3.0979	-2.2146	-2.9958	-2.3354	-2.4104	-3.0417	-2.3271	-3.0104	-2.7938	-2.2562	284.634	257.743	-20.474	-37.771	213.309	-30.483	269.736	218.128	235.465	276.343	58.542	204.517	275.628	74.093	48.782	218.280	0.00030599	0.00022412	8.6487e-05	511.39	4.9555e-06	4.2944e-06	393.36	203.32	2.448e-06	5.4179e-06	175.5	72.148	83.76	46.754	5.5307e-06	38.286	0.0029955	0.0055771	0.0015659	559.29	5.2657e-05	6.3422e-05	430.5	222.31	5.305e-05	6.3629e-05	194.43	79.755	92.894	51.692	5.9085e-05	42.35	83.098	96.458	21.248	-37.929	85.286	82.803	-39.209	-31.662	66.644	102.045	-35.225	-30.813	-27.297	-22.775	116.625	-27.497	-8191	255	
3187.328	1	1	0	0	0.13139	0.093446	0.058649	0.23265	0.14324	0.43219	0.18883	0.16734	0.057116	0.08399	0.13473	0.10739	0.26433	0.16619	0.16644	0.3705	-2.5917	-2.6167	-2.3812	-3.1437	-2.3854	-2.7812	-2.9146	-2.2167	-3.0833	-2.6917	-2.2938	-3.2	-2.2208	-2.6437	-2.8979	-2.4396	50.116	248.819	221.858	213.792	-21.147	77.294	213.421	12.649	213.347	117.781	36.148	289.713	-39.525	50.715	120.939	277.151	0.0003203	0.00043124	8.2264e-05	510.06	4.3705e-06	2.6815e-06	393.12	200.31	1.9744e-06	4.449e-06	174.72	71.483	82.715	46.405	4.7644e-06	38.254	0.0030934	0.0056426	0.0016051	555.46	5.3673e-05	6.4893e-05	429.2	219.68	5.3465e-05	6.3966e-05	193.46	79.192	91.869	51.314	5.8806e-05	42.294	84.188	52.138	62.816	-37.731	117.442	110.094	-39.694	-32.109	52.617	156.816	-35.442	-30.948	-27.538	-22.730	82.829	-27.612	-8191	255	
3187.424	1	1	0	0	0.18677	0.36043	0.12995	0.2526	0.085369	0.1929	0.10754	0.10219	0.16321	0.071994	0.10247	0.33937	0.10923	0.21391	0.11526	0.099713	-2.5771	-2.7562	-2.3146	-3.2	-2.3417	-2.3458	-3.1979	-2.4292	-2.8083	-2.8229	-2.2333	-3.1271	-2.4333	-2.5625	-3.0396	-2.1688	8.055	-6.110	-42.553	176.694	-34.210	-26.736	293.445	262.937	99.958	-45.721	99.352	-42.018	112.518	273.961	254.922	54.301	0.0002527	0.0007621	7.4362e-05	502.88	3.2574e-06	2.2689e-06	386.77	196.55	4.7568e-06	5.6187e-06	171.65	70.471	80.742	45.11	5.7435e-07	37.335	0.0031798	0.005845	0.0016834	549.17	5.7489e-05	7.0504e-05	426.01	215.53	5.8529e-05	6.8994e-05	190.64	77.868	89.642	49.855	6.2519e-05	41.4	73.362	58.398	50.357	-37.855	70.743	101.985	-39.522	-32.008	86.796	99.141	-35.102	-30.808	-27.732	-23.041	90.067	-27.780	-8191	255	
3187.520	1	1	0	0	0.17019	0.20444	0.16646	0.15424	0.16306	0.057659	0.076926	0.10363	0.068978	0.25878	0.14754	0.26491	0.13913	0.10711	0.07913	0.055409	-2.4958	-2.9521	-2.1458	-3.1125	-2.4583	-2.425	-3.1937	-2.2917	-2.5312	-3.0229	-2.2125	-3.0021	-2.6229	-2.3833	-3.1292	-2.3688	105.243	193.057	208.033	29.689	15.423	215.997	269.942	201.295	184.394	210.064	267.695	223.517	45.737	-47.542	80.439	187.393	0.00034347	0.00014934	0.00019783	493.87	3.1934e-06	5.2733e-06	383.47	194.04	3.7016e-06	3.308e-06	169.55	70.239	81.001	45.415	6.5065e-06	37.658	0.0032568	0.0060703	0.0017051	540.46	5.738e-05	6.9124e-05	420.15	212.98	5.7178e-05	6.8768e-05	189.21	77.739	89.964	50.323	6.0209e-05	41.645	88.078	21.875	43.616	-38.195	77.042	90.968	-39.570	-32.095	8.688	74.110	-35.493	-30.926	-27.416	-23.072	91.131	-27.933	-8191	255	
3187.641	1	1	0	0	0.053784	0.13614	0.072603	0.2599	0.18997	0.22302	0.32264	0.17395	0.11813	0.18724	0.13712	0.234	0.22482	0.23569	0.10428	0.45309	-2.1292	-3.1458	-2.3292	-2.8146	-2.6708	-2.425	-3.1542	-2.3563	-2.5271	-3.0292	-2.0375	-2.9771	-2.8604	-2.2313	-3.1562	-2.4625	235.592	152.109	10.023	217.606	190.277	179.990	176.902	229.296	292.888	42.430	186.236	219.803	-4.982	282.784	307.190	272.440	0.00022543	0.00016979	0.00012921	504.35	2.0344e-06	3.9075e-06	387.21	199.6	4.657e-06	4.7493e-06	174.53	71.957	83.519	46.842	4.2701e-06	38.529	0.0031649	0.0058338	0.0016502	548.32	5.4105e-05	6.4922e-05	424.65	218.47	5.308e-05	6.2933e-05	192.94	79.44	92.482	51.815	5.4444e-05	42.677	86.889	-8.770	32.893	-37.810	140.012	89.525	-39.536	-31.917	79.681	135.669	-35.407	-30.610	-26.990	-22.964	129.152	-27.357	-8191	255	
3187.737	1	1	0	0	0.12513	0.31901	0.25652	0.11448	0.15949	0.048069	0.056643	0.036712	0.16267	0.116	0.11294	0.09486	0.27116	0.047133	0.13751	0.10304	-2.0938	-2.9521	-2.1042	-2.7771	-2.6562	-2.1792	-2.8854	-2.4396	-2.3021	-2.9875	-2.0938	-2.825	-2.8083	-2.3021	-2.9208	-2.5833	31.621	129.461	274.836	302.683	226.171	305.169	242.330	172.015	-10.729	295.479	175.604	249.839	114.871	20.008	85.969	265.006	0.00030151	0.00038205	0.00010039	512.17	3.207e-06	5.3058e-06	395.27	204.38	2.7145e-06	2.9631e-06	176.9	73.43	85.339	47.805	2.8472e-06	39.164	0.0029353	0.0053528	0.0015112	557.96	5.0906e-05	6.09e-05	432.75	223.34	5.1064e-05	5.9546e-05	196.6	81.202	94.611	52.891	5.3521e-05	43.367	88.507	39.336	39.566	-37.720	153.568	52.524	-39.101	-31.756	103.086	87.812	-35.460	-30.649	-27.361	-22.963	143.525	-27.768	-8191	255	
3187.833	1	1	0	0	0.15912	0.20815	0.070779	0.18005	0.16493	0.37205	0.18513	0.17151	0.13404	0.26435	0.15662	0.068984	0.10914	0.22316	0.14541	0.15167	-1.9688	-2.9313	-2.2729	-2.6937	-2.7667	-2.375	-3.0521	-2.7646	-2.175	-3.1729	-2.4104	-2.8104	-2.7771	-2.2021	-2.9333	-2.775	171.572	-46.127	256.939	61.964	113.855	50.314	246.255	223.987	120.647	221.363	-6.726	294.815	-15.226	257.175	195.080	278.902	0.00037779	0.00055834	0.00017109	514.36	3.8845e-06	1.602e-06	396.62	204.58	2.7242e-06	9.1356e-07	178.03	73.357	84.871	47.856	2.4505e-06	39.329	0.0029291	0.0053537	0.0015256	561.27	5.1746e-05	6.2701e-05	434.12	224.09	5.1777e-05	6.001e-05	196.93	81.108	94.295	52.828	5.5179e-05	43.331	92.151	61.033	-3.707	-37.880	133.588	109.620	-39.345	-31.996	24.733	226.770	-35.347	-30.477	-27.554	-23.083	116.024	-27.619	-8191	255	
3187.929	1	1	0	0	0.30156	0.13827	0.18641	0.13208	0.077539	0.17777	0.023997	0.15267	0.17848	0.25384	0.085442	0.16934	0.17544	0.097308	0.02721	0.17068	-1.7854	-2.9708	-2.2167	-2.6229	-2.9667	-2.2104	-3.0292	-2.6521	-2.1979	-3.0125	-2.3521	-2.35	-3.2062	-2.2417	-2.9354	-2.8229	206.703	-17.528	133.223	284.892	308.263	-39.444	174.610	86.154	-19.844	76.569	241.483	280.629	228.308	-7.477	264.092	100.676	0.00024015	0.00041827	0.00011563	512.15	2.2993e-06	3.7829e-06	395.32	203.46	5.9161e-06	4.9607e-06	177.53	72.71	84.164	47.375	4.6497e-06	38.813	0.0029777	0.0053042	0.0015342	559.08	5.119e-05	6.22e-05	430.81	222.61	5.1575e-05	6.068e-05	195.27	80.442	93.494	52.291	5.5124e-05	42.909	69.959	50.548	31.209	-37.942	120.032	130.390	-39.631	-32.274	74.011	145.980	-35.406	-30.538	-27.382	-22.947	121.423	-27.830	-8191	255	
3188.024	1	1	0	0	0.10561	0.08967	0.12487	0.052877	0.12751	0.037742	0.065821	0.086765	0.28613	0.26264	0.12336	0.26998	0.034804	0.21192	0.040359	0.3113	-1.9188	-3.1396	-2.5312	-2.5104	-3.0833	-2.2729	-2.8917	-2.9021	-2.2083	-3.0854	-2.7354	-2.4417	-2.9958	-2.2188	-2.7938	-3.0187	133.934	244.772	14.867	19.413	305.531	7.073	-13.833	75.974	127.867	22.822	300.479	-7.502	240.332	296.346	289.466	234.898	0.00031323	0.00021344	9.1767e-05	507.03	1.7989e-06	4.0217e-06	393.12	202.03	3.7686e-06	4.3268e-06	175.93	72.233	83.57	46.907	1.7694e-06	38.91	0.002958	0.0052803	0.0014935	554.29	4.9931e-05	6.0132e-05	429.89	220.53	4.7798e-05	5.6884e-05	194.39	79.923	92.374	51.678	5.1507e-05	42.76	83.762	68.260	-18.541	-38.043	129.084	125.065	-39.703	-32.425	-20.014	81.752	-35.644	-30.805	-27.140	-23.210	123.821	-27.624	-8191	255	
3188.120	1	1	0	0	0.25921	0.34017	0.1764	0.12659	0.2308	0.33375	0.094765	0.20797	0.14983	0.27935	0.30093	0.18957	0.088174	0.30257	0.13686	0.065764	-1.825	-3.0125	-2.4021	-2.3167	-3.1542	-2.2833	-2.775	-3.0604	-2.2958	-3.0563	-2.5333	-2.2542	-3.0667	-2.3458	-2.5708	-3.1292	-27.255	256.592	106.901	269.605	240.246	139.599	153.948	297.355	303.438	-35.280	124.804	-31.037	254.264	-33.003	58.274	22.080	0.00029773	0.00049748	6.4247e-05	505.01	1.0464e-06	4.3479e-06	393.28	200.39	1.7797e-06	6.1531e-06	173.95	71.795	82.582	46.074	1.5786e-06	38.469	0.0028277	0.005158	0.001507	550.55	5.1787e-05	6.3304e-05	430.01	219.1	5.4342e-05	6.5239e-05	194.03	79.543	91.473	50.983	6.055e-05	42.479	90.407	68.134	66.853	-38.084	85.247	111.915	-39.480	-32.241	160.935	111.030	-35.731	-30.554	-27.288	-23.220	90.973	-27.444	-8191	255	
3188.218	1	1	0	0	0.22848	0.099004	0.14266	0.070222	0.18202	0.16398	0.33953	0.13554	0.036686	0.17408	0.21457	0.25439	0.13379	0.2703	0.23611	0.1256	-1.7583	-2.8583	-2.7062	-2.0917	-3.1479	-2.3396	-2.5354	-3.1479	-2.2917	-2.7292	-2.9833	-2.1208	-3.0396	-2.5146	-2.3646	-3.1771	-25.939	162.421	213.025	115.692	269.606	295.528	237.621	-0.263	52.348	284.222	184.914	269.868	195.611	225.929	289.577	262.516	0.00032126	0.00023508	4.9318e-05	501.06	5.4021e-06	1.3451e-06	389.26	199.37	4.6272e-06	1.5296e-06	176.07	72.151	83.153	46.653	3.2128e-06	38.771	0.0031627	0.0057954	0.0016395	546.98	5.418e-05	6.6108e-05	428.12	218.46	5.3734e-05	6.4427e-05	194.28	79.797	92.278	51.635	5.6666e-05	42.746	77.863	37.041	79.480	-37.919	50.796	109.483	-39.514	-32.190	101.207	114.535	-35.364	-30.819	-27.155	-23.249	113.578	-27.661	-8191	255	
3188.337	1	1	0	0	0.11793	0.071085	0.09529	0.28153	0.068851	0.034707	0.083142	0.031199	0.1835	0.14053	0.13056	0.11855	0.018675	0.34687	0.16837	0.13813	-1.8438	-2.7021	-2.8729	-2.2271	-2.8417	-2.5604	-2.3354	-3.3042	-2.1354	-2.6729	-2.7667	-2.0979	-2.9208	-2.8583	-2.1146	-3.2875	283.566	242.082	-41.614	138.840	-29.507	133.921	273.127	-1.660	225.288	277.613	87.810	262.179	250.222	285.420	303.756	231.806	0.00029881	0.0001768	8.097e-05	507.49	2.0928e-06	6.2203e-06	392.07	202.63	2.0057e-06	5.0122e-06	177.2	73.441	84.77	47.931	4.5203e-06	39.454	0.0029746	0.0054192	0.0015378	551.32	5.0696e-05	6.1501e-05	428.81	221.46	5.1044e-05	6.1133e-05	195.8	80.787	93.978	52.783	5.5113e-05	43.507	90.837	53.900	33.483	-37.878	149.004	88.337	-39.507	-31.870	67.869	160.798	-35.513	-30.983	-27.191	-22.990	107.646	-27.615	-8191	255	
3188.433	1	1	0	0	0.076537	0.1611	0.13443	0.19967	0.11439	0.13132	0.14989	0.22927	0.087832	0.14617	0.20555	0.1214	0.15118	0.20835	0.087477	0.21169	-2.0771	-2.5167	-2.7958	-2.0938	-2.9396	-2.65	-2.2729	-3.1562	-2.3125	-2.5458	-3.1146	-2.2812	-2.9146	-2.8292	-2.1625	-3.1312	34.247	290.280	262.465	-20.749	251.428	229.059	275.630	226.627	260.971	-27.856	183.176	247.119	189.661	254.200	35.117	296.127	0.00027867	0.00037386	9.178e-05	513.68	5.8166e-06	4.9616e-06	398.77	206.34	3.265e-06	2.4642e-06	180.78	74.347	86.403	48.761	4.4751e-06	40.006	0.0028718	0.005318	0.0015015	560.24	4.9946e-05	5.98e-05	435.24	225.89	4.9397e-05	5.8905e-05	199.5	82.169	95.549	53.653	5.2937e-05	44.153	80.294	8.392	36.966	-37.745	122.566	125.719	-39.375	-31.937	94.787	132.400	-35.218	-30.842	-27.088	-22.980	76.434	-27.453	-8191	255	
3188.529	1	1	0	0	0.12059	0.28401	0.075372	0.1296	0.24422	0.13156	0.061957	0.21426	0.066077	0.21306	0.095811	0.17243	0.048126	0.13003	0.087074	0.1335	-1.9229	-2.3375	-3.0917	-2.3292	-2.8625	-2.875	-2.2146	-3.0062	-2.4854	-2.3146	-2.9771	-2.0271	-2.7188	-2.9938	-2.1437	-2.9333	273.259	133.936	280.251	68.771	61.677	217.420	302.673	-45.331	238.757	255.955	134.792	117.227	301.958	238.993	306.241	230.557	0.00027919	0.00048951	6.3165e-05	517.14	2.5429e-06	2.3406e-06	398.56	207.42	5.7613e-06	1.3677e-06	180.66	74.826	86.677	48.585	1.212e-06	40.07	0.0028383	0.0052098	0.0014511	562.86	4.9179e-05	5.9339e-05	437.87	226.7	4.8987e-05	5.8337e-05	199.97	82.742	95.651	53.538	5.2838e-05	44.193	71.974	37.550	54.538	-37.723	93.744	90.337	-39.318	-31.794	57.978	141.612	-35.298	-30.742	-26.915	-22.831	25.108	-27.285	-8191	255	
3188.625	1	1	0	0	0.18381	0.23623	0.10697	0.11832	0.18585	0.22888	0.20695	0.050019	0.086481	0.02754	0.19352	0.10938	0.10841	0.22208	0.13555	0.31398	-2.1104	-2.3792	-2.975	-2.3771	-2.6958	-2.9833	-2.1083	-2.9062	-2.65	-2.3688	-3.0146	-2.3563	-2.8396	-3.0187	-2.1604	-3.1208	212.052	-43.460	92.059	154.220	167.257	171.643	95.918	146.102	188.290	154.839	-7.891	266.000	207.709	294.630	123.491	155.758	0.00029288	0.00039219	4.6999e-05	513.2	7.4297e-06	5.4833e-06	400.79	206.05	1.3312e-06	1.7401e-07	178.85	74.28	85.505	48.071	5.2515e-06	39.626	0.0027995	0.0051429	0.0014483	559.24	4.9505e-05	5.961e-05	435.84	225.35	4.8088e-05	5.7853e-05	197.7	81.9	94.619	53.04	5.1899e-05	43.683	82.071	41.244	68.673	-37.758	112.039	102.091	-39.441	-31.858	172.115	84.888	-35.379	-30.776	-27.192	-22.898	110.949	-27.548	-8191	255	
3188.721	1	1	0	0	0.19656	0.25382	0.12871	0.017289	0.11582	0.088035	0.10444	0.17178	0.36812	0.15492	0.12493	0.18734	0.23048	0.1151	0.15316	0.26411	-2.4708	-2.2812	-2.9479	-2.4938	-2.4417	-2.9792	-2.2333	-2.8646	-2.8396	-2.1333	-3.0396	-2.4958	-2.5187	-3.1292	-2.1292	-2.8438	173.717	210.825	190.244	108.345	168.100	-35.300	271.283	-18.454	268.481	270.786	-44.535	51.648	280.613	31.768	165.253	251.293	0.00025726	0.00051568	0.0001246	509.3	5.5001e-06	5.3248e-06	394.37	203.75	2.0019e-06	1.8065e-06	177.6	73.473	84.683	47.588	3.4055e-06	39.517	0.0027996	0.0050848	0.001426	555.21	4.8137e-05	5.6957e-05	431.36	222.22	4.6219e-05	5.6054e-05	196.19	80.974	93.477	52.476	4.9509e-05	43.531	84.146	72.081	30.322	-37.665	83.201	127.253	-39.254	-31.710	72.960	58.271	-35.183	-30.606	-27.150	-23.218	99.525	-27.920	-8191	255	
3188.817	1	1	0	0	0.11898	0.24451	0.046118	0.13992	0.15281	0.33721	0.10509	0.088307	0.11173	0.11911	0.15133	0.10981	0.14829	0.033213	0.33488	0.085566	-2.3229	-2.0812	-3.1646	-2.5833	-2.4938	-2.9458	-2.1708	-2.8979	-2.9	-2.2208	-2.8917	-2.6354	-2.5	-3.1437	-2.3625	-2.8	79.870	15.213	13.488	47.895	277.591	213.908	2.897	218.718	94.128	33.279	34.494	284.154	218.772	286.777	-30.763	186.539	0.00029049	0.00032139	0.00016236	507.76	1.7748e-06	2.313e-06	393.3	201.6	4.6187e-06	3.4511e-06	177.1	73.417	84.026	47.038	1.5985e-06	39.364	0.0026241	0.0047693	0.0013281	552.58	4.6545e-05	5.6231e-05	430.24	219.98	4.8509e-05	5.8853e-05	195.92	81.039	92.868	52.021	5.4036e-05	43.473	87.682	49.822	61.942	-37.970	67.963	59.626	-39.424	-31.969	43.345	71.574	-35.497	-30.996	-27.312	-23.019	124.211	-27.540	-8191	255	
3188.938	1	1	0	0	0.05369	0.10957	0.19643	0.14758	0.33261	0.079041	0.063916	0.041237	0.041891	0.070859	0.11733	0.17145	0.28658	0.21868	0.10627	0.035515	-2.5875	-2.0125	-2.7562	-2.8271	-2.3312	-2.8	-2.2979	-2.5938	-3.0708	-2.1417	-2.9313	-2.4938	-2.2271	-3.2938	-2.2229	-2.5979	296.212	228.394	76.463	301.715	141.460	149.650	238.474	166.486	282.334	252.279	195.268	73.104	282.831	90.592	77.677	115.827	0.00022335	0.00039552	2.9345e-05	503.38	2.8919e-06	4.5517e-06	393.21	198.64	1.1139e-06	2.2495e-06	175.47	72.295	81.583	45.898	3.2187e-06	38.584	0.0028713	0.005291	0.001493	547.99	4.9892e-05	5.9844e-05	429.7	217.08	5.0863e-05	6.1111e-05	194.25	79.838	90.369	50.683	5.5173e-05	42.627	59.433	87.881	277.017	-37.926	24.058	81.958	-39.642	-32.013	166.975	89.835	-35.655	-30.742	-27.597	-23.070	169.756	-27.747	-8191	255	
3189.032	1	1	0	0	0.29934	0.20255	0.11351	0.15864	0.16143	0.1855	0.45397	0.30467	0.21879	0.18466	0.12813	0.10921	0.052809	0.066985	0.025022	0.22062	-2.5521	-2.15	-3.075	-2.7875	-2.1688	-3.1896	-2.4833	-2.3729	-3.1708	-2.3812	-2.7708	-2.8271	-2.1583	-3.0604	-2.6167	-2.4562	298.534	119.169	238.757	245.214	-46.541	177.425	-27.927	271.589	-24.689	-10.538	100.708	-32.436	43.067	288.088	-32.471	286.733	0.00024825	0.00032877	0.00010519	489.7	3.9932e-06	3.1124e-06	386.86	194.88	4.2822e-06	2.7636e-06	172.94	71.192	81.315	45.893	5.8348e-06	38.592	0.0029293	0.0054392	0.0015126	536.64	5.1499e-05	6.2569e-05	423.62	213.56	5.1912e-05	6.2127e-05	191.51	78.962	90.128	50.712	5.6425e-05	42.54	84.115	56.925	43.722	-38.091	74.737	72.749	-39.597	-32.018	74.349	157.904	-35.324	-31.146	-27.114	-23.282	78.638	-27.818	-8191	255	
3189.128	1	1	0	0	0.26862	0.15951	0.10702	0.26112	0.12076	0.16438	0.096943	0.12142	0.38673	0.1633	0.096705	0.10165	0.19241	0.21327	0.32983	0.20066	-2.6729	-2.2021	-2.8063	-2.8083	-2.1542	-2.8333	-2.5	-2.45	-2.9417	-2.2229	-2.6896	-3.0208	-2.2771	-2.9688	-2.6521	-2.2875	73.615	304.460	236.576	285.093	23.786	181.432	-47.676	-22.791	248.926	-17.465	283.295	292.973	240.853	267.719	304.900	236.034	0.00027556	0.00052448	0.00012633	495.83	1.9135e-06	5.0924e-06	389.42	197.95	1.3592e-06	9.0868e-07	175.86	72.864	83.911	47.399	5.0271e-06	39.701	0.002952	0.0054988	0.00153	542.05	5.0568e-05	6.1367e-05	426.02	217.36	4.9949e-05	5.8951e-05	194.68	80.549	92.724	52.245	5.2767e-05	43.667	81.909	24.540	46.311	-38.033	108.308	65.976	-39.719	-32.413	168.535	39.927	-35.381	-30.891	-27.374	-23.004	62.834	-27.681	-8191	255	
3189.200	1	1	0	0	0.22486	0.26232	0.33864	0.092155	0.15278	0.20829	0.11007	0.098565	0.21144	0.27539	0.064236	0.11348	0.27709	0.30688	0.038138	0.10949	-2.5625	-2.2708	-2.4625	-3.0271	-1.9146	-2.8271	-2.8583	-2.2833	-3.0479	-2.3917	-2.5729	-2.9813	-2.2313	-2.9708	-2.6771	-2.1708	-35.981	271.142	-5.111	249.497	245.985	60.139	306.746	290.985	56.037	-23.473	297.070	139.156	278.007	281.201	36.896	206.232	0.0002256	0.00034094	0.00011638	506.67	3.7361e-06	4.7917e-06	398.09	204.45	1.0125e-06	2.6425e-06	180.7	74.909	85.885	48.422	1.983e-06	40.514	0.0028027	0.0051243	0.0014472	554.08	4.7699e-05	5.7381e-05	435.54	223.76	4.7361e-05	5.5894e-05	199.14	82.581	95.032	53.494	5.0712e-05	44.568	83.106	128.997	30.941	-37.770	93.215	92.054	-39.675	-32.366	229.281	38.612	-35.091	-30.927	-27.565	-23.153	114.803	-27.709	-8191	255	
3189.298	1	1	0	0	0.20072	0.1425	0.27035	0.22901	0.14298	0.080241	0.24348	0.23162	0.065571	0.057477	0.24785	0.11794	0.21765	0.24556	0.17731	0.10523	-2.5583	-2.4208	-2.1604	-2.9521	-2.2917	-2.7667	-2.7479	-2.1542	-3.0187	-2.5563	-2.4458	-3.1437	-2.2188	-2.7	-2.775	-2.2667	133.691	173.856	-42.566	-17.207	143.727	299.180	260.911	178.086	223.316	-22.653	210.482	148.608	277.849	246.247	25.282	18.588	0.00026806	0.00033175	0.00013586	513.31	5.2192e-06	3.4219e-06	400.88	205.68	1.0841e-06	6.38e-06	181.25	75.182	85.753	48.216	4.5196e-06	40.219	0.0026866	0.004974	0.0014128	559.08	4.7384e-05	5.8329e-05	437.9	225.14	4.8531e-05	5.7993e-05	199.51	82.78	94.864	53.317	5.1766e-05	44.292	91.711	51.415	29.174	-37.971	113.899	134.032	-39.447	-31.921	41.561	111.788	-35.408	-31.094	-27.517	-22.930	132.930	-27.846	-8191	255	
3189.417	1	1	0	0	0.32449	0.040004	0.13428	0.042593	0.11508	0.10012	0.13756	0.39221	0.15906	0.094374	0.23701	0.035863	0.1275	0.070187	0.14464	0.18547	-2.475	-2.3333	-2.2146	-3.2062	-2.1896	-2.5312	-2.8958	-2.35	-2.8646	-2.6604	-2.3229	-2.9292	-2.3521	-2.5708	-2.9354	-2.2292	112.102	-46.192	108.376	-15.501	161.081	276.593	294.500	283.499	-47.970	295.189	38.005	104.677	-45.862	278.305	141.840	243.865	0.00026881	0.00044943	6.6722e-05	509.18	1.347e-06	4.0196e-06	396.52	204.2	3.8739e-06	2.6681e-06	178.64	74.569	84.862	48.116	3.3557e-06	40.015	0.002786	0.0050713	0.0014447	554.89	4.8985e-05	5.9228e-05	433.72	222.78	4.7512e-05	5.7676e-05	197.75	81.921	94.13	53.009	5.0488e-05	44.085	81.363	20.703	8.805	-37.870	115.030	116.819	-39.551	-31.934	162.612	91.570	-35.637	-30.695	-27.433	-23.153	131.351	-27.602	-8191	255	
3189.513	1	1	0	0	0.053628	0.23038	0.22163	0.080543	0.14369	0.34594	0.1647	0.31646	0.27852	0.14754	0.22523	0.17969	0.18847	0.24526	0.045981	0.42046	-2.525	-2.475	-2.2	-3.0396	-2.3104	-2.6729	-2.9188	-2.3771	-2.8812	-2.7188	-2.1917	-3.1771	-2.2479	-2.6708	-2.9229	-2.4313	104.312	211.916	284.672	94.418	229.120	253.684	139.036	270.291	79.203	84.428	-40.409	226.416	247.515	264.945	186.547	182.248	0.0002604	0.000212	6.8728e-05	506.24	3.47e-06	3.3613e-06	395.8	202.74	5.8816e-06	3.8605e-06	178.89	74.269	84.218	47.656	3.1631e-06	39.891	0.0026727	0.0048041	0.0013466	552.01	4.5723e-05	5.494e-05	432.24	221.07	4.5776e-05	5.5102e-05	197.01	81.818	93.191	52.48	5.0057e-05	43.961	95.411	1.884	36.344	-37.829	79.481	38.077	-39.450	-32.259	115.476	70.235	-35.259	-31.140	-27.412	-23.043	23.395	-28.014	-8191	255	
3189.609	1	1	0	0	0.10259	0.14486	0.057321	0.23697	0.23308	0.118	0.27138	0.30337	0.09039	0.028391	0.24018	0.082568	0.34966	0.34831	0.10454	0.28998	-2.4396	-2.7792	-2.2896	-3.0917	-2.6271	-2.4042	-2.9396	-2.1625	-2.8125	-2.9667	-2.1458	-2.8708	-2.5208	-2.4792	-3.0271	-2.3417	225.997	180.222	227.472	251.924	196.266	297.415	-35.102	-28.559	8.589	282.560	245.205	288.143	-13.941	-24.874	42.477	234.605	0.0002691	0.00048416	7.8209e-05	504.81	3.2537e-06	4.1615e-06	396.76	200.79	3.3417e-06	4.7998e-06	178.95	74.661	84.544	47.902	4.8388e-06	40.24	0.0026702	0.0048705	0.0013925	550.74	4.6824e-05	5.7291e-05	432.59	219.97	4.7579e-05	5.6435e-05	197.76	82.204	93.506	52.85	5.0516e-05	44.373	87.979	29.112	21.244	-37.866	89.955	87.304	-39.790	-32.266	107.069	89.282	-35.516	-30.762	-27.505	-23.129	83.031	-27.802	-8191	255	
3189.730	1	1	0	0	0.20836	0.12263	0.12796	0.20952	0.20645	0.17754	0.12611	0.36463	0.25361	0.11744	0.25385	0.10572	0.041342	0.27312	0.15147	0.14942	-2.1083	-2.9771	-1.9229	-3.0542	-2.625	-2.1937	-3.0833	-2.3667	-2.45	-2.8354	-1.9729	-2.7542	-2.7604	-2.1688	-2.7979	-2.4667	166.792	210.995	38.974	255.667	137.366	51.158	76.699	212.269	286.764	5.040	276.485	-43.645	191.914	298.550	-38.123	255.471	0.00031431	0.00040884	0.00017187	503.98	5.9089e-06	5.0838e-07	393.96	199.66	5.5954e-06	5.6554e-06	177.87	73.514	82.792	46.731	6.5307e-06	39.344	0.0027333	0.0050195	0.0014129	550.18	4.8344e-05	5.7712e-05	431.36	218.29	4.8875e-05	5.775e-05	195.74	80.969	91.74	51.507	5.2161e-05	43.357	85.699	47.492	45.397	-37.626	105.436	217.617	-39.399	-32.500	78.494	71.084	-35.568	-30.913	-27.130	-23.146	135.160	-27.754	-8191	255	
3189.802	1	1	0	0	0.25285	0.23554	0.10483	0.16332	0.10835	0.34357	0.28738	0.058954	0.14011	0.072761	0.20563	0.20756	0.2689	0.070123	0.31745	0.12029	-2.0875	-2.8667	-2.1292	-2.8083	-2.625	-2.2771	-3.1063	-2.4021	-2.2979	-3.0646	-2.0854	-2.9396	-2.9729	-2.1042	-2.9208	-2.5687	62.238	304.064	233.100	259.222	132.849	219.279	262.574	-22.831	219.358	-18.501	114.953	117.475	7.818	155.422	220.390	-5.907	0.00036496	0.00027979	0.00014843	496.39	5.0794e-06	4.8796e-06	389.89	197.64	5.196e-06	2.8121e-06	174.8	72.218	81.802	46.212	6.6902e-06	39.227	0.0027896	0.00505	0.0014435	540.64	4.8742e-05	5.7961e-05	425.96	215.22	4.8682e-05	5.7024e-05	193.28	80.015	90.769	50.991	5.384e-05	43.125	92.882	68.024	28.198	-38.039	114.241	107.599	-39.378	-32.240	126.297	104.018	-35.349	-30.872	-27.486	-23.163	113.300	-27.812	-8191	255	
3189.898	1	1	0	0	0.28533	0.13989	0.12423	0.32917	0.2842	0.41283	0.047212	0.17725	0.10077	0.06079	0.12945	0.28214	0.075845	0.070582	0.10139	0.176	-1.7854	-3.0167	-2.1562	-2.7479	-2.775	-2.1792	-2.8771	-2.6312	-2.3937	-3.0729	-2.2396	-2.6979	-2.8	-2.1854	-3.0083	-2.7812	120.652	253.515	26.098	267.758	5.447	8.522	269.221	297.956	122.375	122.348	7.210	116.877	219.564	194.920	42.082	130.030	0.00025272	0.00030097	0.00013176	492.95	2.5941e-07	4.1039e-06	390.67	195.02	3.4255e-06	3.4981e-06	173.19	72.4	81.054	45.799	2.4436e-06	38.947	0.002894	0.005278	0.001492	537.98	5.1203e-05	6.1392e-05	426.15	213.78	5.1234e-05	6.0445e-05	192.67	79.848	89.795	50.475	5.57e-05	42.867	102.506	-22.592	37.484	-38.001	32.057	111.037	-39.254	-32.371	113.742	135.842	-35.766	-30.871	-27.372	-23.216	115.004	-27.750	-8191	255	
3190.018	1	1	0	0	0.27537	0.12729	0.092923	0.16117	0.14028	0.11757	0.23958	0.27965	0.27321	0.093373	0.066344	0.11975	0.21947	0.18583	0.11975	0.19807	-1.7542	-3.1333	-2.0938	-2.6042	-2.8542	-2.125	-2.6104	-2.7542	-2.2354	-2.8812	-2.3979	-2.4688	-3.1354	-2.2729	-2.925	-2.9313	304.268	217.233	24.309	279.120	182.330	231.841	-1.082	96.740	-47.278	291.214	228.358	-14.139	232.485	-44.447	154.597	301.914	0.00028658	0.00023973	0.00011492	491.03	1.5157e-06	2.7053e-06	390.45	194.37	4.1011e-07	4.7e-06	174.84	72.237	80.99	45.678	1.8996e-06	38.906	0.0029512	0.0054617	0.001548	535.69	5.2418e-05	6.2675e-05	426.52	213.1	5.2849e-05	6.1292e-05	193.56	79.951	89.716	50.507	5.6268e-05	42.97	90.502	19.306	7.611	-37.831	87.599	45.133	-39.798	-32.247	67.993	125.816	-35.873	-30.957	-27.505	-23.017	131.641	-28.028	-8191	255	
3190.113	1	1	0	0	0.10465	0.14053	0.15525	0.25156	0.31759	0.13789	0.18231	0.27012	0.1272	0.088665	0.28708	0.14495	0.23456	0.1542	0.36234	0.086167	-1.5417	-3.0604	-2.5979	-2.5729	-2.9458	-1.975	-2.8667	-2.8125	-1.9896	-2.9354	-2.6896	-2.3812	-3.0708	-2.4313	-2.5292	-2.8958	245.091	273.753	243.868	1.489	36.673	190.335	245.957	201.978	35.060	-18.691	120.473	-40.446	-27.305	301.568	290.516	32.352	0.00033617	0.0005338	6.6723e-05	488.93	4.857e-06	4.7038e-06	386.43	192.96	2.5869e-06	8.0099e-07	172.03	71.487	79.489	45.197	1.9625e-06	38.63	0.002974	0.0054277	0.0015503	532.54	5.1544e-05	6.2029e-05	422.86	210.75	5.2097e-05	6.0003e-05	190.84	79.04	88.717	49.947	5.4896e-05	42.552	83.131	44.467	103.292	-38.052	70.349	80.311	-39.554	-32.159	266.845	22.886	-35.387	-30.835	-27.357	-23.416	67.956	-27.912	-8191	255	
3190.209	1	1	0	0	0.10297	0.10321	0.063089	0.042311	0.35826	0.060821	0.16041	0.18163	0.04165	0.27417	0.17256	0.25838	0.27118	0.251	0.12358	0.097924	-1.6583	-2.9562	-2.4271	-2.1042	-3.0396	-2.2875	-2.6604	-3.1833	-2.1125	-2.8125	-2.5521	-2.1875	-2.9375	-2.4542	-2.3917	-3.0083	68.728	132.926	51.136	52.686	71.366	29.221	202.741	308.668	123.475	225.811	-38.111	254.137	238.314	250.628	3.688	227.190	0.00032062	0.00051194	6.0221e-05	488.16	7.6021e-06	4.9306e-06	387.01	192.16	3.5879e-06	4.9374e-06	171.41	71.201	79.802	44.915	2.5566e-06	38.231	0.0028905	0.0052787	0.0014984	532.45	5.0775e-05	6.2286e-05	421.87	210.62	5.2755e-05	6.2333e-05	190.22	78.753	88.558	49.577	5.7939e-05	42.368	95.187	21.844	61.729	-38.093	82.063	74.669	-39.445	-32.132	125.037	124.851	-35.656	-30.633	-27.325	-23.166	64.891	-27.924	-8191	255	
3190.329	1	1	0	0	0.01517	0.27778	0.08673	0.17124	0.41246	0.25051	0.077577	0.15857	0.066495	0.20522	0.14567	0.03363	0.065972	0.11124	0.1339	0.18323	-1.8104	-2.6854	-2.7167	-2.2167	-2.8917	-2.2042	-2.3583	-3.0271	-2.1	-2.8125	-2.8229	-2.2625	-2.9688	-2.6271	-2.4729	-3.1083	119.074	24.589	-13.872	275.667	76.055	46.500	131.385	244.178	68.449	8.233	232.831	9.863	120.026	280.708	279.973	227.410	0.00034262	0.0005527	0.00013722	483.19	3.982e-06	5.1388e-06	384.83	190.99	2.1662e-06	2.1559e-06	172.09	71.058	79.538	44.807	2.2483e-06	38.488	0.003007	0.0056227	0.0015848	530.59	5.3758e-05	6.4055e-05	421.93	209.42	5.2754e-05	6.2884e-05	190.33	78.58	88.235	49.531	5.5545e-05	42.357	93.544	40.580	73.041	-37.952	96.733	100.939	-39.405	-32.360	53.603	82.190	-35.288	-30.796	-27.531	-23.222	116.507	-27.765	-8191	255	
3190.426	1	1	0	0	0.062842	0.055751	0.03646	0.12553	0.1076	0.040023	0.24706	0.24179	0.11751	0.15453	0.11459	0.10199	0.13799	0.13264	0.14229	0.083615	-1.85	-2.6	-2.7938	-2.275	-2.8438	-2.325	-2.4125	-3	-2.0938	-2.7604	-2.9479	-2.2313	-2.8583	-2.7188	-2.1375	-3.1042	293.033	88.787	200.083	249.411	301.928	118.127	-46.369	257.745	293.911	223.730	200.704	297.624	135.847	233.934	103.783	240.070	0.00025875	0.00025303	0.00013421	484.97	3.3218e-06	4.7727e-06	387.19	192.11	5.2808e-06	2.1095e-06	172.37	71.453	79.939	45.021	4.5565e-06	38.468	0.0028904	0.0053816	0.0014946	529.34	4.9479e-05	5.9355e-05	422.54	209.74	4.963e-05	5.8959e-05	191.21	78.914	88.443	49.616	5.351e-05	42.423	93.879	13.761	50.730	-37.976	46.399	70.940	-39.509	-32.418	94.170	189.429	-35.273	-30.713	-27.435	-23.208	87.329	-27.767	-8191	255	
3190.497	1	1	0	0	0.23579	0.084909	0.10798	0.30333	0.10761	0.0497	0.068814	0.23234	0.22797	0.149	0.119	0.16152	0.21971	0.11664	0.25812	0.11019	-1.8833	-2.6625	-2.8937	-1.9729	-2.8167	-2.6708	-2.175	-2.9625	-2.3937	-2.5125	-3.0729	-2.2167	-2.9479	-2.6896	-2.3521	-3.1646	76.827	-33.646	-5.468	198.127	137.562	79.589	-46.986	191.594	221.870	120.248	289.068	200.807	0.474	272.023	-22.559	11.629	0.00024142	0.00037	8.0902e-05	481.69	2.2716e-06	3.2993e-06	382.33	191.18	2.5671e-06	1.9149e-06	169.92	70.876	79.264	44.496	3.8706e-06	38.011	0.0028506	0.0052116	0.0014678	527.78	4.9156e-05	5.9298e-05	419.49	208.8	4.9933e-05	5.9818e-05	189.05	78.179	87.879	49.312	5.5237e-05	41.998	81.110	39.565	13.460	-37.808	96.981	22.540	-39.429	-32.199	69.482	53.195	-35.514	-30.796	-27.380	-23.344	115.649	-27.477	-8191	255	
3190.618	1	1	0	0	0.20835	0.16197	0.30621	0.23519	0.079296	0.30029	0.19507	0.29559	0.22215	0.1184	0.066107	0.23763	0.1497	0.46381	0.036179	0.04806	-2.0792	-2.3688	-2.8896	-2.1437	-2.5604	-2.8563	-2.1083	-2.9708	-2.3479	-2.4146	-3.1979	-2.1583	-2.8042	-2.95	-2.0375	-2.7271	15.683	248.240	5.198	30.408	-34.484	2.412	117.467	263.391	39.543	55.749	105.405	-25.716	176.539	-38.941	124.659	-23.539	0.00034088	0.00040063	0.0001459	483.6	4.1637e-06	2.3694e-06	384.22	190.18	4.1781e-06	4.2147e-06	171.86	70.373	79.607	44.692	1.5576e-06	38.059	0.0029366	0.0054236	0.001509	528.59	5.13e-05	6.1899e-05	419.06	208.82	5.0941e-05	6.0924e-05	189.82	78.305	88.139	49.346	5.5842e-05	42.073	72.529	59.109	4.885	-37.973	131.068	111.248	-39.266	-32.143	94.835	121.788	-35.226	-30.962	-27.376	-23.195	143.974	-27.411	-8191	255	
3190.714	1	1	0	0	0.17651	0.379	0.24085	0.12993	0.117	0.37554	0.28134	0.19468	0.20616	0.031689	0.2332	0.15181	0.25343	0.24294	0.29344	0.070852	-2.2229	-2.2938	-2.8396	-2.0958	-2.6125	-2.7833	-2.2896	-3.1562	-2.5187	-2.1896	-2.9708	-2.2917	-2.6521	-3.1792	-2.075	-2.9667	25.420	62.965	33.922	205.517	254.307	26.558	8.801	292.846	109.746	22.753	-20.567	171.391	249.960	256.068	120.708	198.066	0.00022701	0.00032272	0.00012618	485.15	2.6525e-06	4.3568e-06	387.09	192.18	3.7308e-06	2.1652e-06	172.39	71.47	80.581	45.382	5.147e-06	38.799	0.0029897	0.0054494	0.0015169	530.44	5.1569e-05	6.2479e-05	421.86	210.83	5.1451e-05	6.1404e-05	191.41	79.172	89.219	50.007	5.4045e-05	42.737	83.225	42.802	5.956	-37.972	39.986	62.606	-39.798	-32.109	39.772	121.364	-35.894	-30.771	-27.345	-23.220	83.154	-27.482	-8191	255	
3190.810	1	1	0	0	0.12546	0.26291	0.2557	0.21669	0.20212	0.034102	0.060724	0.29179	0.15368	0.18926	0.098159	0.15728	0.097673	0.20929	0.30726	0.083683	-2.3688	-2.2042	-2.9896	-2.6688	-2.5396	-2.8729	-2.2687	-2.9896	-2.6417	-2.1937	-3.0563	-2.45	-2.3688	-3.025	-2.1479	-2.9729	178.923	-41.045	136.986	24.447	218.443	95.100	279.140	-21.349	212.116	88.218	209.410	-20.880	182.056	10.532	62.899	180.577	0.0002391	0.00040842	0.00016726	491.1	4.9873e-06	4.2322e-06	389.69	194.07	4.3459e-06	4.0681e-06	173.71	72.504	80.997	45.845	4.7782e-06	39.078	0.0028715	0.0052704	0.0014682	535.24	4.9866e-05	5.9722e-05	425.97	212.49	5.0371e-05	5.998e-05	193.01	80.001	90.045	50.556	5.4176e-05	43.125	84.336	30.134	67.408	-37.865	106.503	114.467	-39.510	-32.143	91.708	69.314	-35.287	-30.685	-27.196	-23.182	123.076	-27.538	-8191	255	
3190.906	1	1	0	0	0.1948	0.098477	0.15531	0.015895	0.12215	0.24085	0.18122	0.042846	0.17179	0.19908	0.11477	0.12292	0.18974	0.39593	0.151	0.16402	-2.375	-2.2583	-2.9021	-2.4813	-2.5729	-2.975	-2.2438	-2.85	-2.7958	-2.1333	-3.0854	-2.5604	-2.4813	-3.0521	-2.2354	-2.7292	129.589	2.841	7.056	258.942	28.666	102.260	263.995	143.383	309.623	116.917	-48.302	238.298	199.507	294.842	52.829	228.618	0.00023352	0.00031529	6.8517e-05	492.34	6.8182e-06	3.868e-06	390.78	198	4.4966e-06	4.8658e-06	176.22	73.087	82.667	46.779	3.4198e-06	39.936	0.0028713	0.0052528	0.0014682	539.16	4.9263e-05	5.8636e-05	427.23	215.77	4.9692e-05	5.8899e-05	194.9	80.864	91.762	51.674	5.5041e-05	43.864	96.379	300.471	9.812	-38.082	87.933	132.427	-39.521	-31.946	109.789	102.160	-35.134	-30.908	-27.287	-23.017	84.806	-27.326	-8191	255	
3191.001	1	1	0	0	0.22072	0.1529	0.33577	0.072001	0.17001	0.055485	0.11811	0.14723	0.19497	0.1206	0.053354	0.20496	0.19643	0.15349	0.096894	0.2596	-2.5187	-2.0708	-2.8771	-2.5479	-2.3667	-3.1646	-2.4062	-2.6104	-3.0062	-2.3354	-2.8979	-2.8083	-2.3896	-3.1562	-2.5229	-2.7375	-31.001	-9.564	125.064	204.860	30.875	240.463	51.499	158.083	-19.882	143.588	283.665	30.968	32.793	43.124	88.659	309.775	0.00022527	0.00061494	7.0222e-05	499.01	2.293e-06	8.7912e-07	395.42	201.12	1.6301e-06	4.1288e-06	179.62	74.529	84.923	47.785	5.9301e-06	40.567	0.002955	0.0053857	0.0015178	544.91	5.2091e-05	6.1084e-05	431.51	219.7	5.0514e-05	6.0958e-05	198	82.496	93.736	52.731	5.3558e-05	44.573	78.382	41.170	33.223	-37.727	37.655	105.853	-39.314	-31.939	86.944	76.118	-35.287	-30.760	-27.076	-23.029	97.033	-27.475	-8191	255	
3191.097	1	1	0	0	0.039406	0.23388	0.20083	0.15607	0.1208	0.010557	0.15203	0.20385	0.25645	0.3542	0.15413	0.22508	0.27882	0.26181	0.40381	0.3333	-2.7917	-2.2438	-2.8688	-2.6958	-2.1104	-3.0167	-2.425	-2.5875	-3.1125	-2.0687	-2.85	-2.9542	-2.3333	-3.325	-2.4125	-2.4562	220.173	54.602	-20.330	159.068	166.095	184.769	125.516	145.977	105.161	123.765	12.008	-3.766	-15.849	212.349	75.268	280.986	0.00030087	0.00030516	0.00011054	506.57	3.7483e-06	1.9706e-06	399.93	204.26	6.5291e-06	1.6432e-06	183.06	76.09	86.289	48.784	3.1476e-06	41.317	0.0028612	0.0052252	0.0014702	551.6	4.9376e-05	5.9908e-05	437.63	223.37	4.9608e-05	5.8147e-05	202.2	84.087	95.319	53.808	5.089e-05	45.586	91.622	23.407	66.392	-37.813	49.447	-1.903	-39.280	-31.711	98.089	101.346	-34.943	-30.568	-26.897	-22.890	62.835	-27.152	-8191	255	
3191.193	1	1	0	0	0.13067	0.042433	0.087302	0.20805	0.15402	0.18615	0.17632	0.12885	0.1973	0.27666	0.21737	0.23059	0.13199	0.16688	0.21326	0.20594	-2.6208	-2.0833	-2.8396	-2.9188	-2.1771	-3.0458	-2.4729	-2.5208	-3.0958	-2.2896	-2.7354	-3.0896	-2.1437	-2.9167	-2.4104	-2.2333	216.039	246.767	73.665	231.141	257.532	235.963	203.963	167.710	89.794	197.749	286.206	254.146	162.985	213.647	-16.594	272.518	0.00021905	0.00048844	9.1224e-05	513.64	3.6303e-06	3.4648e-06	406.11	206.07	2.1501e-06	4.5665e-06	184.18	77.389	86.956	49.281	4.4492e-06	41.809	0.0027023	0.004946	0.0014004	557.4	4.8547e-05	5.7561e-05	442.29	225.69	4.9013e-05	6.0089e-05	204.01	85.106	96.352	54.329	5.5465e-05	45.985	91.316	40.750	26.754	-37.723	97.590	84.368	-39.143	-31.743	92.391	125.757	-34.689	-30.568	-27.008	-22.814	112.808	-27.496	-8191	255	
3191.289	1	1	0	0	0.11884	0.14677	0.18278	0.1424	0.046226	0.24292	0.18849	0.23355	0.17792	0.10805	0.10983	0.047565	0.049408	0.11927	0.16057	0.18669	-2.7729	-2.0583	-2.4458	-2.95	-2.0854	-2.7667	-2.8583	-2.2479	-3.1021	-2.4375	-2.5854	-3.2354	-2.2208	-2.9542	-2.6979	-2.3083	73.538	-16.110	280.385	209.262	-30.465	6.469	53.219	277.474	-43.802	-23.175	293.121	-48.200	40.523	257.581	239.128	224.799	0.00026853	0.00037082	9.2419e-05	510.58	5.1315e-06	5.2758e-06	403.97	208.59	6.2919e-06	3.0888e-06	187.51	78.547	89.524	50.697	1.2379e-06	43.041	0.002915	0.0052903	0.0015259	557.96	5.0845e-05	6.0604e-05	441.88	228.28	4.9249e-05	5.8362e-05	206.73	86.518	98.74	55.846	5.2987e-05	47.246	80.401	30.040	52.602	-37.464	83.159	124.897	-38.962	-31.836	98.910	66.817	-34.979	-30.423	-27.051	-22.872	101.468	-27.605	-8191	255	
3191.410	1	1	0	0	0.23273	0.52277	0.012587	0.06818	0.04828	0.25667	0.094669	0.16966	0.097173	0.1673	0.14683	0.13236	0.10115	0.19535	0.25175	0.076045	-2.7229	-2.3542	-2.5833	-3.0938	-2.2042	-2.8979	-2.7875	-2.2042	-2.9042	-2.4042	-2.4625	-2.9646	-2.4437	-2.8354	-2.7271	-2.2396	288.913	1.695	281.050	186.442	26.227	-38.491	72.602	267.763	222.843	101.364	288.132	281.616	116.245	-36.043	-5.810	25.352	0.00027765	0.00048996	9.8453e-05	520.61	3.9592e-06	1.9196e-06	414.49	213.21	2.7828e-06	2.5151e-06	192.04	80.454	91.08	51.708	2.7606e-06	44.052	0.0027777	0.0049977	0.0014076	568.91	4.6621e-05	5.4472e-05	451.17	233.09	4.4492e-05	5.2371e-05	210.95	88.491	100.62	56.927	4.7554e-05	48.301	82.564	65.485	26.038	-37.467	92.732	49.267	-39.519	-31.660	97.293	110.420	-34.951	-30.658	-27.301	-22.718	78.679	-27.302	-8191	255	
3191.506	1	1	0	0	0.099235	0.055134	0.23328	0.11423	0.11079	0.18733	0.065117	0.11716	0.17492	0.13027	0.092145	0.062408	0.3584	0.097921	0.093149	0.18041	-2.6667	-2.6021	-2.1854	-3.0542	-2.3417	-2.7646	-2.8854	-2.1	-2.9833	-2.7062	-2.3958	-3.1896	-2.2875	-2.6688	-2.8771	-2.3917	252.445	186.726	161.737	53.852	66.094	228.729	-40.765	75.529	307.379	247.045	235.487	64.806	268.818	-40.483	44.104	178.194	0.00028449	0.00031166	0.00012487	531.61	2.4273e-06	4.6181e-06	421.38	216.82	9.0414e-07	4.8041e-06	194.58	81.818	92.332	52.243	3.6391e-06	44.593	0.0024997	0.0045577	0.001273	577.86	4.3281e-05	5.1585e-05	459.01	237.05	4.2838e-05	5.0436e-05	213.81	89.785	101.7	57.424	4.6014e-05	48.949	88.429	76.302	33.515	-37.386	48.386	143.829	-39.205	-31.755	154.361	109.194	-35.095	-30.358	-27.151	-22.838	95.985	-27.517	-8191	255	
3191.602	1	1	0	0	0.27219	0.1609	0.095209	0.3824	0.28213	0.27405	0.20386	0.17059	0.14951	0.13221	0.11659	0.26884	0.24129	0.35183	0.29418	0.28054	-2.2687	-2.6292	-2.2917	-3.1542	-2.2833	-2.3875	-3.0563	-2.1667	-2.725	-2.6896	-2.2042	-3.1021	-2.5062	-2.6083	-3.0396	-2.1417	118.411	197.000	19.061	-27.617	93.343	1.892	100.511	203.448	107.905	111.405	164.593	183.237	252.485	-47.234	143.735	268.745	0.00034843	0.00044342	0.00019265	534.99	3.2903e-06	3.1594e-06	425.1	219.51	3.656e-06	6.0703e-06	195.75	81.987	93.228	52.307	3.6128e-06	44.739	0.0025197	0.0044186	0.0012494	580.57	4.1807e-05	5.0346e-05	460.35	238.58	4.1284e-05	4.8418e-05	214.2	89.734	102.36	57.764	4.4665e-05	49.051	89.384	38.887	24.354	-37.885	53.821	122.297	-39.472	-32.275	68.155	131.873	-35.279	-30.861	-27.386	-23.077	89.601	-27.903	-8191	255	
3191.698	1	1	0	0	0.12036	0.25682	0.18351	0.27708	0.31056	0.086479	0.062467	0.20243	0.22853	0.13766	0.33123	0.2353	0.15845	0.16108	0.13241	0.045346	-2.4583	-2.8417	-2.1208	-3.1854	-2.6792	-2.3458	-3.2271	-2.2812	-2.8708	-2.8187	-2.2104	-3.0938	-2.6667	-2.5271	-3.1542	-2.3438	-43.705	304.157	1.470	215.956	90.378	152.746	275.292	284.370	68.971	150.149	51.663	277.553	99.429	263.944	191.755	109.616	0.00028956	0.00025846	0.00014091	531.1	4.4948e-06	4.2754e-06	422.69	219.88	3.6986e-06	6.6507e-06	195.71	82.385	93.007	52.724	2.8306e-06	45.095	0.0024758	0.0044434	0.0012493	578.67	4.274e-05	5.1325e-05	459.5	239.08	4.3287e-05	5.085e-05	214.62	90.343	102.76	58.204	4.64e-05	49.382	70.242	43.719	48.854	-37.662	68.437	99.471	-39.681	-32.028	100.803	107.855	-35.310	-30.792	-27.267	-23.148	115.160	-28.054	-8191	255	
3191.793	1	1	0	0	0.12033	0.091449	0.1929	0.21125	0.11232	0.031575	0.27884	0.31659	0.10574	0.14735	0.17334	0.13676	0.23895	0.099777	0.11797	0.29819	-2.3229	-2.7479	-2.2458	-2.9875	-2.5854	-2.2229	-3.0687	-2.175	-2.6521	-3.0729	-2.0875	-2.8042	-2.8646	-2.4313	-3.1583	-2.5542	-35.422	151.303	115.300	187.310	112.869	100.061	228.712	104.506	-49.701	19.252	-13.753	203.224	-6.617	-36.566	142.913	300.501	0.00031361	0.00051058	9.9175e-05	535.28	3.4083e-06	4.066e-06	425.25	220.56	4.6514e-06	5.315e-06	197.63	83.754	94.227	53.589	1.9299e-06	46.017	0.0025237	0.0045703	0.0012649	581.87	4.2814e-05	5.1042e-05	462.37	240.36	4.2585e-05	4.9556e-05	216.97	91.454	103.89	58.983	4.4061e-05	50.39	91.941	33.094	21.376	-37.650	104.403	63.103	-39.828	-32.018	106.520	78.967	-35.503	-30.913	-27.376	-23.150	31.561	-27.781	-8191	255	
3191.889	1	1	0	0	0.18711	0.2172	0.21515	0.20773	0.20661	0.0668	0.066424	0.38615	0.050921	0.095202	0.13426	0.12844	0.16581	0.13922	0.19511	0.1287	-2.1708	-3.2062	-2.2417	-2.9604	-2.7417	-2.2313	-2.9292	-2.6042	-2.5021	-2.9125	-2.3146	-2.7875	-2.6646	-2.3688	-3.0479	-2.5542	-11.168	61.165	267.193	-43.943	62.818	298.424	295.333	278.630	62.750	250.153	223.322	256.820	190.141	18.265	175.445	29.469	0.00037728	0.00051879	0.00015159	539.59	4.2663e-06	3.7329e-06	431.72	223.05	3.9186e-06	5.7154e-06	201.16	84.662	95.654	54.288	2.4859e-07	46.642	0.0024093	0.0042064	0.0012098	585.41	4.0342e-05	4.8213e-05	468.57	242.93	3.9771e-05	4.6871e-05	220.51	92.9	105.06	59.785	4.2513e-05	50.994	93.470	54.937	39.910	-37.711	85.962	123.256	-39.532	-31.958	49.439	114.092	-35.159	-30.832	-27.453	-23.230	262.904	-27.911	-8191	255	
3192.009	1	1	0	0	0.020477	0.02353	0.06889	0.09712	0.26632	0.31009	0.31946	0.22734	0.044147	0.19999	0.060633	0.13267	0.18846	0.20393	0.18345	0.19953	-2.0854	-2.9938	-2.3042	-2.7875	-2.6396	-2.0833	-3.0229	-2.5208	-2.2917	-3.1937	-2.3917	-2.7042	-3.0583	-2.2333	-3.0375	-2.675	93.809	215.755	-48.009	246.387	15.286	13.518	-40.010	286.409	156.136	76.373	283.733	200.353	178.489	284.426	154.339	118.211	0.00038599	0.00044742	0.00010954	538.97	4.2774e-06	2.2243e-06	431.09	223.28	2.6249e-06	5.2225e-06	200.05	84.208	94.915	54.228	2.2726e-06	46.296	0.0023712	0.0041736	0.0011732	586.09	4.0396e-05	4.8079e-05	467.75	242.81	4.1255e-05	4.8431e-05	219.36	92.266	104.75	59.55	4.4404e-05	50.735	77.690	48.379	15.423	-37.860	118.406	39.500	-39.435	-32.106	32.452	82.868	-35.018	-31.052	-27.587	-23.393	129.111	-27.826	-8191	255	
3192.106	1	1	0	0	0.15083	0.21657	0.34372	0.25835	0.25725	0.30937	0.19489	0.41075	0.15729	0.096714	0.097995	0.04514	0.14832	0.13468	0.070857	0.15157	-1.9625	-3.1063	-2.3208	-2.7	-2.925	-2.0625	-3.0438	-2.6396	-2.3771	-3.1771	-2.4062	-2.3896	-3.0312	-2.3417	-2.6729	-2.8583	158.925	102.782	67.109	209.026	49.234	17.427	276.518	-40.172	263.854	179.977	261.517	145.155	222.381	-17.052	155.979	172.984	0.00030266	0.0005404	0.00018939	539.13	1.8104e-06	2.2747e-06	430.42	222.65	2.5668e-06	3.6719e-06	200.99	84.437	95.403	54.407	1.2553e-06	46.709	0.002481	0.0043696	0.0012307	585.55	4.1904e-05	5.0093e-05	467.95	243.25	4.2257e-05	4.9243e-05	220.06	92.739	105.14	59.673	4.3945e-05	51.045	77.167	46.792	37.039	-37.596	156.994	24.251	-39.325	-31.996	107.241	142.787	-35.258	-30.364	-27.314	-23.089	37.629	-27.785	-8191	255	
3192.202	1	1	0	0	0.24614	0.079637	0.093246	0.36609	0.16327	0.062515	0.12396	0.23054	0.19142	0.058186	0.24469	0.204	0.082379	0.26988	0.18202	0.049264	-1.6354	-2.9854	-2.3542	-2.4729	-3.0062	-2.2854	-2.725	-2.9292	-2.2729	-2.8208	-2.5521	-2.4375	-2.9604	-2.35	-2.8667	-2.9792	83.362	273.949	-1.894	277.658	135.941	137.013	-47.081	-20.040	-36.938	115.780	238.611	1.695	23.126	301.915	172.383	278.987	0.00039751	0.00015569	0.00013483	543.82	1.4719e-06	4.4034e-06	432.89	224.5	4.0253e-06	2.6039e-06	202.48	85.092	94.977	54.141	4.1525e-06	46.834	0.002412	0.0042017	0.0012051	587.86	3.9703e-05	4.7595e-05	471.42	244.43	4.0291e-05	4.6993e-05	221.28	93.346	104.94	59.688	4.3526e-05	51.275	83.202	22.414	61.220	-37.887	95.648	180.712	-39.410	-32.151	41.566	67.340	-35.501	-30.739	-27.341	-23.270	74.750	-28.113	-8191	255	
#DATA ENDS
