BOXY.EXE: ISS Imagent and Oximeter Data Acquisition Program Version 0.80
Ascii Record File

#ACQ INFORMATION
2  Detector Channels 
16  External MUX Channels 
1  Auxiliary Channels 
5000  Waveform (CCF) Frequency (Hz)
1  Waveforms Skipped 
30  Waveforms Averaged 
1  Cycles Averaged 
16  Acquisitions per Waveform 
10.0806  Updata Rate (Hz) 

#FILE INFORMATION
TRUE -- External MUX Channel results are PARSED.
FALSE -- AC DC and Phase are NOT grouped.
TRUE -- Companion Program Settings File CREATED.
FALSE -- AC data not excluded
FALSE -- DC data not excluded
FALSE -- Phase data not excluded
FALSE -- Auxillary Chn. data not excluded
Tab delimiters

#CALIBRATION STATE
TRUE -- Waveform Calibration Values APPLIED.


#AUX CALIBRATION VALUES
Val Type	aux-1	

Term	1.0000e+00	
Factor	0.0000e+00	


#WF CALIBRATION VALUES
A = Detector Channel
Val Type	A-AC1	A-AC2	A-AC3	A-AC4	A-AC5	A-AC6	A-AC7	A-AC8	A-AC9	A-AC10	A-AC11	A-AC12	A-AC13	A-AC14	A-AC15	A-AC16	A-DC1	A-DC2	A-DC3	A-DC4	A-DC5	A-DC6	A-DC7	A-DC8	A-DC9	A-DC10	A-DC11	A-DC12	A-DC13	A-DC14	A-DC15	A-DC16	A-Ph1	A-Ph2	A-Ph3	A-Ph4	A-Ph5	A-Ph6	A-Ph7	A-Ph8	A-Ph9	A-Ph10	A-Ph11	A-Ph12	A-Ph13	A-Ph14	A-Ph15	A-Ph16	

Term	0.00000e+00	0.00000e+00	0.00000e+00	0.00000e+00	0.00000e+00	0.00000e+00	0.00000e+00	0.00000e+00	0.00000e+00	0.00000e+00	0.00000e+00	0.00000e+00	0.00000e+00	0.00000e+00	0.00000e+00	0.00000e+00	0.00000e+00	0.00000e+00	0.00000e+00	0.00000e+00	0.00000e+00	0.00000e+00	0.00000e+00	0.00000e+00	0.00000e+00	0.00000e+00	0.00000e+00	0.00000e+00	0.00000e+00	0.00000e+00	0.00000e+00	0.00000e+00	0.00000e+00	0.00000e+00	0.00000e+00	0.00000e+00	0.00000e+00	0.00000e+00	0.00000e+00	0.00000e+00	0.00000e+00	0.00000e+00	0.00000e+00	0.00000e+00	0.00000e+00	0.00000e+00	0.00000e+00	0.00000e+00	
Factor	1.00000e+00	1.00000e+00	1.00000e+00	1.00000e+00	1.00000e+00	1.00000e+00	1.00000e+00	1.00000e+00	1.00000e+00	1.00000e+00	1.00000e+00	1.00000e+00	1.00000e+00	1.00000e+00	1.00000e+00	1.00000e+00	1.00000e+00	1.00000e+00	1.00000e+00	1.00000e+00	1.00000e+00	1.00000e+00	1.00000e+00	1.00000e+00	1.00000e+00	1.00000e+00	1.00000e+00	1.00000e+00	1.00000e+00	1.00000e+00	1.00000e+00	1.00000e+00	X	X	X	X	X	X	X	X	X	X	X	X	X	X	X	X	

B = Detector Channel
Val Type	B-AC1	B-AC2	B-AC3	B-AC4	B-AC5	B-AC6	B-AC7	B-AC8	B-AC9	B-AC10	B-AC11	B-AC12	B-AC13	B-AC14	B-AC15	B-AC16	B-DC1	B-DC2	B-DC3	B-DC4	B-DC5	B-DC6	B-DC7	B-DC8	B-DC9	B-DC10	B-DC11	B-DC12	B-DC13	B-DC14	B-DC15	B-DC16	B-Ph1	B-Ph2	B-Ph3	B-Ph4	B-Ph5	B-Ph6	B-Ph7	B-Ph8	B-Ph9	B-Ph10	B-Ph11	B-Ph12	B-Ph13	B-Ph14	B-Ph15	B-Ph16	

Term	0.00000e+00	0.00000e+00	0.00000e+00	0.00000e+00	0.00000e+00	0.00000e+00	0.00000e+00	0.00000e+00	0.00000e+00	0.00000e+00	0.00000e+00	0.00000e+00	0.00000e+00	0.00000e+00	0.00000e+00	0.00000e+00	0.00000e+00	0.00000e+00	0.00000e+00	0.00000e+00	0.00000e+00	0.00000e+00	0.00000e+00	0.00000e+00	0.00000e+00	0.00000e+00	0.00000e+00	0.00000e+00	0.00000e+00	0.00000e+00	0.00000e+00	0.00000e+00	-1.93096e+02	-1.31651e+02	-1.26893e+02	-1.81391e+02	-8.12550e+01	-6.54229e+01	-1.56795e+02	-1.62015e+02	-8.71340e+01	-6.29356e+01	-1.74004e+02	-1.71240e+02	-1.79095e+02	-1.76490e+02	-7.82813e+01	-1.49299e+02	
Factor	3.61994e-05	1.37445e-04	4.05246e-05	1.50909e-01	1.47821e-06	1.56133e-06	1.51247e-01	4.83322e-02	1.61963e-06	1.49477e-06	8.33551e-02	2.69328e-02	2.70377e-02	8.24457e-03	1.53392e-06	1.18361e-02	1.83736e-05	3.60318e-05	1.01782e-05	8.04857e-02	3.42701e-07	4.15052e-07	7.58372e-02	2.58983e-02	3.41234e-07	4.10228e-07	4.32733e-02	1.39519e-02	1.46541e-02	4.46483e-03	3.66053e-07	6.20000e-03	X	X	X	X	X	X	X	X	X	X	X	X	X	X	X	X	



#DISTANCE SETTINGS
A = Detector Channel
A-1	A-2	A-3	A-4	A-5	A-6	A-7	A-8	A-9	A-10	A-11	A-12	A-13	A-14	A-15	A-16	

2.5000e+00	3.0000e+00	2.5000e+00	3.0000e+00	2.0000e+00	3.0000e+00	1.5000e+00	3.0000e+00	3.0000e+00	3.0000e+00	3.0000e+00	3.0000e+00	3.0000e+00	3.0000e+00	1.5000e+00	3.0000e+00	

B = Detector Channel
B-1	B-2	B-3	B-4	B-5	B-6	B-7	B-8	B-9	B-10	B-11	B-12	B-13	B-14	B-15	B-16	

1.0000e+01	1.0000e+01	1.0000e+01	1.4400e+00	1.0000e+01	1.0000e+01	1.5100e+00	1.9400e+00	1.0000e+01	1.0000e+01	1.9900e+00	2.4900e+00	2.4100e+00	2.9000e+00	1.0000e+01	2.9800e+00	




#DATA BEGINS
time	group	step	mark	flag	A-AC1	A-AC2	A-AC3	A-AC4	A-AC5	A-AC6	A-AC7	A-AC8	A-AC9	A-AC10	A-AC11	A-AC12	A-AC13	A-AC14	A-AC15	A-AC16	A-DC1	A-DC2	A-DC3	A-DC4	A-DC5	A-DC6	A-DC7	A-DC8	A-DC9	A-DC10	A-DC11	A-DC12	A-DC13	A-DC14	A-DC15	A-DC16	A-Ph1	A-Ph2	A-Ph3	A-Ph4	A-Ph5	A-Ph6	A-Ph7	A-Ph8	A-Ph9	A-Ph10	A-Ph11	A-Ph12	A-Ph13	A-Ph14	A-Ph15	A-Ph16	B-AC1	B-AC2	B-AC3	B-AC4	B-AC5	B-AC6	B-AC7	B-AC8	B-AC9	B-AC10	B-AC11	B-AC12	B-AC13	B-AC14	B-AC15	B-AC16	B-DC1	B-DC2	B-DC3	B-DC4	B-DC5	B-DC6	B-DC7	B-DC8	B-DC9	B-DC10	B-DC11	B-DC12	B-DC13	B-DC14	B-DC15	B-DC16	B-Ph1	B-Ph2	B-Ph3	B-Ph4	B-Ph5	B-Ph6	B-Ph7	B-Ph8	B-Ph9	B-Ph10	B-Ph11	B-Ph12	B-Ph13	B-Ph14	B-Ph15	B-Ph16	aux-1	digaux	

2561.788	1	1	0	256	0.27645	0.11552	0.3463	0.097885	0.23623	0.043604	0.122	0.28453	0.2122	0.32539	0.26281	0.11535	0.057337	0.14375	0.22659	0.17467	-1.9479	-2.6813	-2.6708	-2.5208	-3.0125	-2.4313	-2.5792	-3.1771	-2.125	-2.6979	-2.95	-2.2208	-3.1042	-2.4833	-2.6188	-3.1417	159.234	187.099	407.291	385.538	285.163	119.945	440.717	299.209	190.704	414.132	417.299	258.270	316.891	212.493	364.954	414.139	0.00055771	0.00018896	5.2702e-05	1075.5	4.6474e-06	4.3765e-06	1163	231.42	5.1394e-06	3.0469e-06	290.91	80.903	64.162	18.703	4.5111e-06	25.575	0.00065387	0.00088706	0.00025136	1068.7	9.0866e-06	1.0227e-05	1157	231.13	9.0626e-06	1.0261e-05	291.89	81.536	64.54	19.065	9.1551e-06	26.379	108.346	183.557	178.017	100.694	227.683	215.941	100.723	108.204	229.073	260.608	107.618	114.582	114.682	122.432	202.563	121.489	-8191	255	
2561.885	1	1	0	0	0.10046	0.12726	0.14126	0.25088	0.24198	0.21029	0.35173	0.2315	0.088103	0.1248	0.1495	0.1356	0.022056	0.35157	0.13495	0.093003	-1.8146	-2.6354	-2.8438	-2.5125	-2.9167	-2.5333	-2.3187	-3.0563	-2.2104	-2.7021	-3.05	-2.3021	-2.7375	-2.675	-2.1333	-3.0958	382.831	112.570	292.739	406.142	262.329	182.841	396.957	99.672	323.174	358.141	384.728	165.853	337.337	109.836	114.766	422.491	0.00062156	0.00025087	6.4372e-05	1075.7	2.7903e-06	1.2564e-06	1162.7	229.79	4.8664e-06	3.2068e-06	290.58	80.858	64.594	18.569	5.2057e-06	25.686	0.00070256	0.00090613	0.00025325	1069.1	9.0852e-06	1.0445e-05	1156.1	230.56	9.3249e-06	1.0106e-05	291.36	81.465	64.85	19.058	9.5555e-06	26.397	105.787	158.673	169.911	100.849	214.509	197.553	100.508	108.429	240.448	256.889	107.774	114.426	114.803	122.452	222.274	121.418	-8191	255	
2561.981	1	1	0	0	0.17111	0.22431	0.14947	0.14922	0.16285	0.049675	0.10158	0.24872	0.13306	0.11451	0.039909	0.15176	0.12698	0.13252	0.091819	0.16701	-1.75	-2.4604	-3.0417	-2.2854	-2.975	-2.7687	-2.3563	-3.075	-2.2938	-2.3229	-3.2438	-2.3021	-2.8333	-2.7687	-2.3271	-3.0917	218.251	350.725	339.778	133.230	132.561	385.257	411.735	417.329	224.577	447.160	445.206	315.991	110.840	384.526	206.075	133.191	0.00056679	0.00034057	7.7865e-05	1070.1	4.591e-06	3.0224e-06	1169.2	231.98	3.2189e-06	2.905e-06	291.03	81.151	64.615	18.641	2.356e-06	25.777	0.00069605	0.00092977	0.00025199	1067	9.0487e-06	1.0243e-05	1159.3	231.15	9.4095e-06	1.0936e-05	292.01	81.529	64.746	19.03	9.618e-06	26.488	110.292	180.727	173.637	100.923	223.539	242.453	100.766	108.511	227.760	217.867	107.671	114.540	114.837	122.216	262.381	121.590	-8191	255	
2562.077	1	1	0	0	0.093756	0.21415	0.13391	0.21421	0.10591	0.24965	0.30707	0.035782	0.084003	0.086355	0.20268	0.25812	0.19883	0.22351	0.15205	0.21339	-2.1146	-2.2354	-2.9104	-2.4396	-2.7771	-2.7917	-2.2708	-2.9333	-2.525	-2.5521	-3.1188	-2.2896	-2.7792	-3.0396	-2.1854	-3.0521	116.126	151.750	337.677	439.819	444.633	165.564	373.184	141.284	354.311	367.855	410.159	445.476	429.422	445.948	409.771	384.394	0.00062516	0.0002242	8.0799e-05	1077.2	4.0091e-06	4.2945e-06	1163.1	231.81	5.1963e-06	4.0382e-06	288.33	80.235	64.261	18.625	4.1325e-06	25.869	0.00068836	0.00093713	0.00024894	1069.5	9.3886e-06	1.1031e-05	1157.9	231.12	9.2766e-06	1.0392e-05	291.19	81.505	64.608	19.048	9.525e-06	26.494	112.104	192.675	180.020	100.800	228.584	243.069	100.704	108.747	231.130	199.791	107.504	114.255	114.949	122.244	225.619	121.310	-8191	255	
2562.197	1	1	0	0	0.28962	0.14981	0.028988	0.21703	0.079025	0.20858	0.24514	0.17252	0.14474	0.33382	0.36147	0.25858	0.36727	0.15105	0.028713	0.20518	-2.0687	-2.1937	-3.1437	-2.4458	-2.7042	-2.8063	-2.1813	-2.8667	-2.7167	-2.3396	-3.1292	-2.3854	-2.5479	-2.95	-2.0792	-2.9604	214.986	343.013	426.176	391.605	344.001	449.512	395.491	266.883	96.672	135.324	132.806	406.913	401.151	116.637	211.127	426.185	0.00054938	0.00042199	9.6145e-05	1076.2	4.5956e-06	3.3302e-06	1163.4	231.4	4.8961e-06	2.0374e-06	288.79	80.886	64.428	18.611	3.0697e-06	25.776	0.00066822	0.0009071	0.00024436	1068.3	9.4407e-06	9.9785e-06	1155.6	230.49	9.1124e-06	1.0169e-05	291.61	81.543	64.748	19.007	9.0735e-06	26.463	108.244	169.248	165.152	100.629	220.202	254.413	100.796	108.240	219.429	232.253	107.747	114.887	114.955	122.014	241.218	121.184	-8191	255	
2562.294	1	1	0	0	0.040707	0.033467	0.02203	0.17125	0.19781	0.18284	0.20423	0.22111	0.078142	0.23261	0.2703	0.085026	0.05933	0.19002	0.083359	0.1528	-2.2958	-2.1896	-2.8875	-2.5104	-2.3021	-3.1125	-2.5021	-2.7583	-2.7979	-2.3438	-3.0042	-2.4979	-2.4	-3.0146	-2.3729	-2.7479	421.165	105.688	173.316	422.090	354.123	245.862	376.357	341.866	424.670	440.267	106.640	426.043	419.054	268.162	240.761	330.652	0.0005734	0.00051723	0.00012046	1071.4	4.0528e-06	4.4785e-06	1169.5	231.28	5.313e-06	3.1822e-06	290.35	81.227	64.617	18.497	3.453e-06	25.596	0.00066612	0.00089517	0.00023847	1067	9.2158e-06	1.0039e-05	1156.6	231.35	9.0669e-06	1.0119e-05	292.21	81.587	64.909	18.996	9.0819e-06	26.432	111.778	149.009	175.901	100.988	240.069	257.549	100.740	108.390	228.526	250.679	107.675	114.451	115.095	122.268	215.636	121.438	-8191	255	
2562.390	1	1	0	0	0.13279	0.092507	0.20703	0.096306	0.078628	0.07985	0.40073	0.31617	0.17388	0.1907	0.30726	0.24178	0.18427	0.29106	0.067572	0.11758	-2.4208	-2.2667	-2.9458	-2.7479	-2.3937	-3.0521	-2.4188	-2.675	-3	-2.125	-3.0292	-2.6896	-2.2646	-3.1063	-2.2771	-2.6104	128.761	180.287	145.542	420.045	268.038	316.535	421.687	373.870	125.870	234.895	401.687	392.760	415.864	347.290	141.238	95.308	0.00060121	0.00031047	0.0001335	1074.9	4.1113e-06	3.1278e-06	1163	230.39	4.627e-06	4.8653e-06	290.28	81.045	64.751	18.708	1.6676e-06	25.76	0.00067171	0.00093623	0.00024536	1068.4	9.1437e-06	9.8506e-06	1156.1	230.99	8.9844e-06	1.0094e-05	292.22	81.719	64.86	19.074	9.1132e-06	26.517	109.637	196.128	173.345	101.072	236.981	264.419	100.920	108.528	212.647	255.253	107.969	114.535	114.821	122.083	300.896	121.906	-8191	255	
2562.486	1	1	0	0	0.20486	0.32921	0.043528	0.26426	0.21243	0.13673	0.29317	0.24377	0.24034	0.04868	0.17027	0.21669	0.23614	0.27714	0.094226	0.057918	-2.4854	-2.0917	-2.7354	-2.7188	-2.1312	-2.9604	-2.4208	-2.6021	-3.0104	-2.4104	-2.9479	-2.8187	-2.2188	-3.1708	-2.2375	-2.4292	395.728	240.686	405.345	405.646	153.481	322.837	325.403	409.246	284.774	228.663	416.292	405.438	329.863	133.119	198.636	274.643	0.00056485	0.00035026	6.209e-05	1077.3	4.6501e-06	2.9341e-06	1162.9	231.88	4.4178e-06	1.8006e-06	291.08	81.305	64.144	18.569	3.3843e-06	25.735	0.00063917	0.00087114	0.00025125	1070	9.2201e-06	9.3655e-06	1156.7	231.38	8.6467e-06	9.8668e-06	291.74	81.846	64.754	19.023	9.1528e-06	26.466	117.999	180.101	182.443	100.932	236.882	255.417	100.813	108.429	245.999	222.323	107.935	114.253	115.364	122.744	220.021	121.763	-8191	255	
2562.605	1	1	0	0	0.029606	0.17115	0.067864	0.1978	0.1157	0.018148	0.098877	0.27413	0.20366	0.24929	0.1688	0.10245	0.063663	0.2051	0.094923	0.089399	-2.7333	-2.0375	-2.8187	-2.7604	-2.25	-3.0458	-2.6167	-2.5104	-2.9854	-2.2354	-2.7458	-2.8667	-2.1875	-3.125	-2.6083	-2.3771	224.175	220.029	371.274	409.157	108.837	339.159	94.624	357.594	406.982	290.039	427.608	205.630	405.913	139.021	155.912	409.901	0.00057479	0.00038054	8.3172e-05	1070.1	5.6913e-06	2.7062e-06	1159.9	230.33	3.8597e-06	2.579e-06	292.53	81.558	64.043	18.668	3.1908e-06	25.711	0.00064028	0.00089111	0.00024457	1064.9	8.9859e-06	9.8852e-06	1156.4	230.62	8.7775e-06	9.8916e-06	292.05	81.847	64.707	19.098	8.9058e-06	26.447	107.788	221.022	168.480	100.798	226.499	256.234	100.607	108.374	222.397	234.800	107.880	114.605	114.936	122.604	197.026	121.979	-8191	255	
2562.676	1	1	0	0	0.15089	0.068877	0.057996	0.23614	0.23139	0.092399	0.17132	0.17985	0.30363	0.12649	0.085834	0.21659	0.22197	0.059445	0.053306	0.10926	-2.6063	-2.075	-2.6063	-2.9625	-2.1354	-2.9896	-2.7229	-2.2021	-2.8104	-2.3146	-2.6125	-3.0333	-2.1958	-2.8896	-2.5583	-2.1604	419.453	308.907	204.090	432.608	294.610	221.465	408.890	180.074	281.989	299.982	338.324	383.537	428.601	147.476	105.405	408.937	0.00056184	0.00030807	6.6813e-05	1071.3	4.576e-06	1.9238e-06	1161.2	230.02	2.8079e-06	3.3504e-06	290.25	80.736	64.421	18.526	2.3324e-06	25.609	0.00065793	0.00091731	0.00025282	1066.6	9.3793e-06	1.0085e-05	1155.4	230.61	8.4825e-06	9.9378e-06	292.27	81.49	64.865	19.05	9.0682e-06	26.359	106.965	154.502	183.262	101.109	211.589	279.316	100.885	108.564	226.151	255.681	108.203	114.621	115.276	122.920	216.327	121.839	-8191	255	
2562.773	1	1	0	0	0.04463	0.15948	0.30648	0.22459	0.014003	0.039802	0.51426	0.12977	0.21239	0.28538	0.16698	0.23622	0.3654	0.28582	0.072452	0.016057	-2.625	-2.2687	-2.3646	-3.2396	-2.1167	-2.8042	-2.9	-2.2729	-2.825	-2.4437	-2.5187	-3.1063	-2.1688	-2.7208	-2.7188	-2.1583	273.369	247.853	273.060	398.559	123.755	434.963	372.413	392.261	386.573	337.327	447.379	345.594	374.857	362.223	98.734	332.308	0.00064836	0.00023798	9.0992e-05	1070.7	5.5329e-06	3.8922e-06	1161.7	230.49	4.8684e-06	3.8013e-06	291.23	80.779	64.365	18.605	4.3206e-06	25.575	0.00065004	0.00089261	0.00026414	1065.9	9.2565e-06	1.0194e-05	1155.8	230.79	8.9638e-06	9.8241e-06	292.3	81.58	64.656	19.06	8.9332e-06	26.409	105.752	107.330	189.417	100.948	222.169	240.872	100.686	108.561	212.226	271.256	108.354	114.618	115.260	122.447	185.359	121.567	-8191	255	
2562.869	1	1	0	0	0.15405	0.12434	0.27818	0.11012	0.2729	0.13764	0.15424	0.15828	0.1061	0.13154	0.065936	0.14593	0.063669	0.1651	0.1943	0.38162	-2.7104	-2.4229	-2.1271	-2.9333	-2.2021	-2.5292	-3.0396	-2.0938	-2.8979	-2.4875	-2.425	-3.1312	-2.1667	-2.5229	-3	-2.1375	117.695	371.263	256.505	148.527	108.674	397.088	397.456	356.661	372.332	197.267	296.357	437.149	414.358	141.280	316.141	428.599	0.0006157	0.00033971	7.6853e-05	1072.3	2.6571e-06	2.5865e-06	1160.9	229.64	4.9053e-06	3.2644e-06	287.73	80.823	63.935	18.668	2.6974e-06	25.709	0.00065525	0.00089029	0.00024884	1064.3	8.8724e-06	9.8402e-06	1152.2	229.71	8.3055e-06	9.5361e-06	290.38	81.327	64.447	18.935	8.7479e-06	26.333	113.868	170.198	163.691	100.788	229.952	241.769	101.047	108.752	213.408	247.182	108.099	114.769	115.235	122.929	214.783	122.012	-8191	255	
2562.989	1	1	0	0	0.10368	0.21858	0.11871	0.12007	0.4997	0.065641	0.30657	0.27258	0.25535	0.052676	0.10907	0.20666	0.25399	0.19111	0.29069	0.14511	-2.325	-2.675	-2.2396	-3.1188	-2.2146	-2.4833	-3.0229	-2.3167	-2.9188	-2.7646	-2.4125	-3.0792	-2.2729	-2.4833	-2.9479	-2.3167	290.894	253.954	443.537	215.832	206.705	245.779	433.644	449.505	251.221	425.133	306.179	423.400	142.842	130.911	264.494	219.189	0.00060705	0.00025825	6.8887e-05	1062.1	4.9207e-06	3.4559e-06	1153.1	228.81	4.1249e-06	2.9866e-06	289.5	81.024	63.79	18.393	4.2167e-06	25.505	0.00064931	0.00086754	0.00024203	1056.4	8.7653e-06	9.541e-06	1145.5	229.18	8.1683e-06	9.4421e-06	289.43	81.069	64.187	18.876	8.2438e-06	26.257	108.106	173.741	212.696	101.052	244.122	262.551	100.954	108.729	215.541	225.485	108.379	114.551	115.209	123.008	221.754	121.996	-8191	255	
2563.086	1	1	0	0	0.4505	0.16456	0.23445	0.087127	0.18067	0.16341	0.22447	0.26402	0.30766	0.18663	0.14822	0.074432	0.11064	0.2629	0.099895	0.15402	-2.4021	-2.7979	-2.1312	-3.1	-2.4417	-2.4146	-3.2458	-2.0646	-2.7188	-2.8958	-2.1562	-3.0792	-2.4042	-2.2708	-3.0167	-2.3604	425.554	187.860	108.373	426.830	351.681	391.850	430.360	412.558	226.256	129.708	232.751	216.868	137.813	232.887	143.127	445.449	0.00053124	0.00037225	5.6816e-05	1060.7	2.5869e-06	3.0074e-06	1148.5	229.21	6.625e-06	3.3236e-06	287.44	80.317	63.829	18.356	6.3082e-06	25.401	0.00062658	0.00080509	0.00022689	1056.4	9.0844e-06	9.4528e-06	1142.7	228.7	8.4065e-06	8.9592e-06	288.85	80.74	64.042	18.821	8.2331e-06	26.128	108.268	185.268	153.065	101.349	275.123	241.229	101.092	108.906	225.048	220.789	108.356	115.164	115.330	122.703	229.955	122.301	-8191	255	
2563.182	1	1	0	0	0.06534	0.25166	0.12869	0.15505	0.14509	0.12981	0.38106	0.36052	0.048723	0.21412	0.18524	0.25485	0.20298	0.32822	0.060762	0.10224	-2.4646	-2.7667	-1.9854	-3.1354	-2.3729	-2.3125	-3.2625	-2.3479	-2.5083	-3.0896	-2.2542	-2.9875	-2.6083	-2.0667	-2.95	-2.3479	332.672	430.369	278.483	435.904	214.068	242.098	356.060	237.473	282.403	189.000	362.503	195.027	447.052	158.222	148.214	431.004	0.00060096	0.00033568	8.3699e-05	1061.4	3.7659e-06	3.4453e-06	1148	228.94	4.1269e-06	2.9449e-06	286.69	80.033	64.301	18.357	3.6067e-06	25.532	0.00062616	0.0007686	0.0002292	1054.4	8.4997e-06	9.471e-06	1140.7	228.51	8.6211e-06	8.9045e-06	288.44	80.762	64.205	18.845	8.1691e-06	26.198	115.388	185.870	189.376	101.445	228.491	238.846	101.289	108.820	237.870	250.868	107.936	114.900	115.123	122.622	222.861	121.719	-8191	255	
2563.278	1	1	0	0	0.15595	0.069155	0.16042	0.23864	0.13065	0.095336	0.25795	0.23739	0.11181	0.33647	0.21114	0.10616	0.0446	0.063279	0.072889	0.24186	-1.9979	-2.8187	-2.4896	-2.9229	-2.75	-2.0875	-3.1562	-2.4313	-2.3083	-3.0333	-2.0292	-2.8396	-2.5979	-2.2917	-3.0542	-2.4479	104.688	316.215	269.347	433.745	406.769	404.444	409.137	420.363	241.895	200.589	107.162	362.128	254.000	121.743	261.870	422.539	0.00062035	0.00043139	9.4729e-05	1064	5.4627e-06	2.7168e-06	1143.9	227.68	3.5513e-06	3.2132e-06	285.77	80.437	63.536	18.409	3.017e-06	25.228	0.00063542	0.0007873	0.00023611	1054.2	8.3655e-06	9.1588e-06	1139.9	227.76	8.5756e-06	8.702e-06	288.28	80.864	63.87	18.818	8.436e-06	26.068	108.398	194.906	179.170	101.169	223.834	232.693	100.757	108.300	229.292	248.276	107.573	114.653	114.958	121.869	225.690	121.303	-8191	255	
2563.374	1	1	0	0	0.2256	0.041586	0.14752	0.09761	0.24773	0.074982	0.064096	0.19193	0.26875	0.29665	0.20686	0.20044	0.21183	0.15767	0.057178	0.1472	-2.0312	-2.9208	-2.0729	-2.9021	-2.5479	-2.1354	-3.0812	-2.4625	-2.1708	-3.0687	-2.2646	-2.7708	-2.8396	-2.1917	-2.7021	-2.4396	112.853	330.432	216.661	449.906	342.464	420.095	276.135	417.680	274.904	233.042	415.374	437.146	399.948	324.874	315.538	102.471	0.00057182	0.00015708	6.7712e-05	1062.4	4.2192e-06	4.5202e-06	1147.7	227.87	2.7867e-06	2.5726e-06	286.34	79.828	63.404	18.169	3.3924e-06	25.512	0.00066738	0.00080449	0.00023516	1052	8.2584e-06	9.6413e-06	1141	227.78	8.3325e-06	8.9643e-06	287.55	80.498	63.895	18.689	8.1675e-06	26.107	111.540	184.810	158.913	100.989	228.986	278.723	100.926	108.541	214.157	279.968	108.227	115.535	114.738	122.526	237.755	121.867	-8191	255	
2563.470	1	1	0	0	0.15026	0.17929	0.085914	0.1421	0.14288	0.18188	0.11711	0.15543	0.3382	0.23009	0.20202	0.16201	0.299	0.27632	0.028637	0.12187	-1.725	-2.9792	-2.1667	-2.6667	-2.8042	-2.1813	-3.1042	-2.6792	-2.0979	-2.8688	-2.2438	-2.5	-3.0125	-2.15	-2.7188	-2.7313	349.368	166.610	416.277	405.792	408.627	238.586	106.108	409.131	93.164	259.057	383.098	389.056	436.557	411.597	316.778	365.866	0.00058036	0.00036807	0.00012763	1056.3	4.4738e-06	2.9171e-06	1148.9	227.35	4.0651e-06	3.3479e-06	284.11	79.995	63.478	18.19	1.5119e-06	25.314	0.00064974	0.00083984	0.00023535	1051.1	8.2113e-06	9.4104e-06	1139.3	227.42	8.6738e-06	8.9387e-06	287.18	80.506	63.82	18.731	8.2522e-06	26.062	116.105	198.075	167.618	101.147	227.517	249.066	100.992	108.701	214.198	254.117	108.192	114.772	115.297	122.861	230.963	122.265	-8191	255	
2563.566	1	1	0	0	0.13402	0.18365	0.20914	0.083655	0.17819	0.20219	0.13203	0.21836	0.094149	0.1573	0.22024	0.17336	0.12947	0.15458	0.068463	0.15704	-1.6021	-3.0333	-2.4979	-2.475	-2.9625	-2.3688	-2.9208	-2.7042	-2.2	-2.8396	-2.3375	-2.3229	-3.025	-2.1521	-2.7479	-2.7604	195.760	319.959	350.183	357.001	201.844	212.911	449.889	297.849	153.173	422.161	447.586	392.953	215.954	413.495	235.190	436.639	0.00055	0.00019032	7.1618e-05	1054.5	4.566e-06	3.4897e-06	1145.2	228.68	5.8348e-06	2.8484e-06	287.25	79.653	63.574	18.34	2.0299e-06	25.419	0.00062053	0.00083421	0.00023005	1047.5	8.4669e-06	9.2591e-06	1137.8	227.77	8.4249e-06	8.9165e-06	287.43	80.365	63.902	18.706	8.2103e-06	26.111	111.644	210.217	218.491	101.139	214.751	241.712	101.227	108.811	213.890	275.059	107.958	114.889	115.394	122.840	248.827	122.418	-8191	255	
2563.687	1	1	0	0	0.1113	0.12489	0.11797	0.40068	0.12925	0.10561	0.2848	0.15446	0.23502	0.070175	0.0863	0.13853	0.18322	0.17848	0.081334	0.15053	-1.6917	-2.8646	-2.5	-2.3063	-2.9542	-2.275	-2.6979	-2.9917	-2.1104	-2.8667	-2.6063	-2.1771	-3.0292	-2.2562	-2.4688	-2.8792	336.230	380.250	331.310	388.640	178.854	140.445	426.446	435.655	274.781	415.728	375.418	208.455	272.241	262.736	335.219	143.947	0.00061041	0.00026345	4.2512e-05	1057.1	4.4889e-06	3.8156e-06	1144.5	227.14	4.2717e-06	3.3128e-06	285.9	79.855	63.349	18.261	3.1403e-06	25.26	0.00063703	0.0008213	0.000233	1049.1	8.1327e-06	9.3049e-06	1137	227.23	8.5771e-06	9.3421e-06	287.33	80.248	63.559	18.734	8.6999e-06	25.982	111.535	188.799	101.649	101.447	219.742	234.406	100.937	108.722	230.455	281.877	107.904	114.551	115.271	122.188	246.596	121.864	-8191	255	
2563.781	1	1	0	0	0.31011	0.27057	0.17163	0.13336	0.19826	0.25667	0.30878	0.12859	0.16097	0.15053	0.039396	0.18076	0.10623	0.019188	0.22681	0.048223	-1.7271	-2.9333	-2.6375	-2.375	-3.0687	-2.4104	-2.6958	-2.9229	-2.1167	-2.9417	-2.8146	-2.2021	-3.1583	-2.4208	-2.475	-3.0187	314.929	309.228	207.737	411.357	188.406	239.709	370.353	393.876	93.034	426.881	401.337	156.296	183.251	354.131	380.893	175.671	0.00057061	0.00027037	8.5132e-05	1048.7	4.4454e-06	2.7088e-06	1138.7	227.07	2.0833e-06	2.2069e-06	285.92	80.266	63.297	18.341	3.3149e-06	25.317	0.00062034	0.00080764	0.00022095	1045.6	8.0471e-06	9.151e-06	1135.1	226.82	8.3865e-06	9.3848e-06	286.88	80.357	63.672	18.708	8.6297e-06	26.089	109.350	165.002	196.202	100.950	220.588	218.610	100.866	108.608	214.753	235.296	107.873	114.585	114.980	122.286	220.407	121.193	-8191	255	
2563.877	1	1	0	0	0.15036	0.24237	0.27556	0.11481	0.21864	0.046652	0.37918	0.044659	0.14168	0.088481	0.17069	0.33241	0.2998	0.18734	0.22605	0.22767	-1.5312	-2.8146	-2.6646	-2.0833	-2.9021	-2.3625	-2.5208	-3.0771	-2.325	-2.725	-2.8021	-2.1458	-2.9437	-2.4	-2.0292	-2.9604	98.509	208.907	426.151	125.819	156.073	434.341	401.438	236.894	220.579	429.968	403.575	389.697	373.234	127.162	367.190	373.525	0.00053507	0.00027483	0.000109	1054	4.6516e-06	2.2738e-06	1139	226.12	4.4816e-06	1.8725e-06	283.79	79.16	63.149	18.14	3.2619e-06	25.299	0.00061758	0.00082468	0.00021959	1043.8	8.0999e-06	9.4355e-06	1132.2	226.92	8.4214e-06	9.0669e-06	285.96	79.922	63.621	18.654	8.9119e-06	26.012	112.504	184.240	187.143	100.888	223.233	239.453	100.592	108.380	230.862	275.006	108.161	114.598	115.068	122.507	245.318	121.182	-8191	255	
2563.974	1	1	0	0	0.10492	0.12232	0.22728	0.045492	0.095828	0.13193	0.02316	0.067902	0.14391	0.21299	0.11495	0.26498	0.22991	0.13906	0.029253	0.081449	-1.9208	-2.4729	-2.8917	-2.2354	-2.9771	-2.6458	-2.4667	-3.0979	-2.3229	-2.5646	-2.95	-2.2125	-2.9583	-2.6458	-1.9271	-3.0812	417.547	186.758	403.740	420.376	411.054	391.208	175.600	400.132	304.981	418.053	376.400	427.093	441.312	306.984	170.393	396.260	0.00064459	0.00033224	0.00017321	1044.5	3.7889e-06	1.8478e-06	1139.6	226.38	2.451e-06	1.555e-06	285.21	79.595	63.237	18.124	2.3286e-06	25.359	0.00063339	0.00079428	0.00021771	1041.6	8.2063e-06	8.7758e-06	1131.3	226.72	8.3261e-06	8.9028e-06	286.1	80.13	63.46	18.64	8.4322e-06	25.998	112.722	171.928	166.965	101.178	230.848	243.307	101.070	108.647	252.957	263.298	107.856	114.837	115.270	122.414	226.450	121.733	-8191	255	
2564.070	1	1	0	0	0.16573	0.13229	0.09449	0.30659	0.12581	0.26171	0.088866	0.23628	0.065498	0.10274	0.21081	0.15362	0.081719	0.065058	0.057189	0.09613	-1.9375	-2.6	-2.9292	-2.4208	-2.7167	-2.6729	-2.2792	-3.2438	-2.3604	-2.3396	-3.0958	-2.2396	-2.6917	-2.6917	-2.1063	-2.9667	112.876	112.764	187.944	415.408	409.018	423.726	399.095	387.672	297.465	355.428	368.417	167.411	151.179	239.726	318.418	237.573	0.00060611	0.00037144	6.0351e-05	1051.7	5.4514e-06	1.9041e-06	1132.2	227.12	3.3882e-06	3.2015e-06	283.93	79.086	63.466	18.248	2.3715e-06	25.46	0.00063324	0.00082205	0.00021764	1043.1	8.2227e-06	9.2245e-06	1127.6	226.66	8.2046e-06	8.6857e-06	285.58	79.895	63.706	18.671	7.9548e-06	25.992	110.930	185.007	173.401	101.199	205.632	266.687	101.300	108.735	226.462	302.266	108.193	115.137	115.322	122.915	235.752	122.083	-8191	255	
2564.166	1	1	0	0	0.1778	0.20589	0.069306	0.19771	0.28062	0.094106	0.15182	0.12604	0.094624	0.28599	0.12464	0.23286	0.14333	0.14685	0.030359	0.23553	-2.1188	-2.4313	-2.9208	-2.3375	-2.5	-2.8708	-2.1417	-3.1229	-2.4521	-2.1104	-3.1833	-2.2167	-2.6667	-2.7687	-2.1833	-2.9938	335.417	397.384	436.870	325.757	202.935	152.784	436.101	255.691	304.945	321.908	212.523	408.115	385.165	127.253	438.445	360.828	0.00059992	0.00018812	6.491e-05	1045.6	3.2055e-06	3.0221e-06	1129.9	226.81	5.3229e-06	3.4199e-06	283.18	78.853	62.806	18.198	2.7365e-06	25.306	0.00060805	0.00081252	0.00021139	1037.5	7.9999e-06	8.9245e-06	1124.9	226.59	7.8491e-06	9.1472e-06	285.61	79.794	63.272	18.635	8.1004e-06	25.954	109.118	166.414	206.986	100.909	222.185	264.179	100.828	108.890	241.290	241.488	108.097	114.566	115.195	122.774	200.883	122.046	-8191	255	
2564.287	1	1	0	0	0.13989	0.16484	0.11208	0.36972	0.19137	0.19665	0.2373	0.18776	0.23904	0.073841	0.10697	0.23721	0.34013	0.21735	0.15872	0.083127	-2.1562	-2.2083	-2.9854	-2.5771	-2.5875	-2.9729	-2.1354	-2.8812	-2.8438	-2.2917	-3.0167	-2.6333	-2.3979	-3.0354	-2.1188	-2.8458	111.147	98.698	164.647	429.471	392.810	328.734	418.518	403.468	296.232	378.629	97.121	412.566	399.640	277.146	371.541	445.774	0.00055184	0.00027445	8.2146e-05	1046.4	5.4595e-06	1.2913e-06	1134.7	226.72	2.8553e-06	2.6501e-06	284.67	79.255	63.038	18.203	4.1962e-06	25.254	0.00060732	0.00079473	0.00022023	1038.4	7.7243e-06	8.9902e-06	1126.5	225.88	8.0418e-06	9.1225e-06	285.17	79.74	63.553	18.596	7.7878e-06	25.906	112.233	221.904	179.462	101.091	233.146	228.489	100.983	109.027	214.749	251.011	108.169	114.937	115.687	122.716	216.766	121.754	-8191	255	
2564.383	1	1	0	0	0.17141	0.096434	0.045448	0.10606	0.24133	0.23397	0.26775	0.23254	0.21767	0.058834	0.11529	0.11254	0.15632	0.19928	0.12698	0.14967	-2.3729	-2.1167	-2.9521	-2.5146	-2.4062	-3.175	-2.3438	-2.7833	-2.6479	-1.9854	-3.1125	-2.575	-2.3625	-3.0687	-2.2833	-2.675	134.870	314.026	434.963	329.424	312.400	101.265	365.403	422.985	188.206	395.248	330.567	157.294	347.902	404.536	299.680	323.951	0.00055614	0.00020739	7.2692e-05	1043.3	5.0216e-06	2.6508e-06	1132.3	225.2	5.1598e-06	3.2035e-06	283.06	79.167	63.284	18.194	4.5523e-06	25.297	0.00061169	0.00078745	0.00021612	1038.1	8.247e-06	8.2241e-06	1126.6	225.92	7.9636e-06	8.7507e-06	284.95	79.824	63.387	18.657	8.0562e-06	25.966	111.974	181.321	177.286	101.183	224.317	259.592	100.918	108.747	228.798	215.131	108.187	114.780	115.341	122.366	245.988	121.845	-8191	255	
2564.477	1	1	0	0	0.18511	0.0090025	0.22047	0.15726	0.061729	0.15941	0.25797	0.080913	0.31889	0.10144	0.16161	0.21147	0.25635	0.062943	0.1908	0.21416	-2.6125	-2.1333	-3.0021	-2.7354	-2.2625	-3.1604	-2.3063	-2.6292	-2.975	-2.2771	-3.0438	-2.6625	-2.3146	-3.0687	-2.3333	-2.5604	222.337	178.986	296.386	102.882	331.804	340.000	434.596	101.378	201.607	357.887	373.151	283.302	385.484	215.887	178.304	166.217	0.00057617	0.00033215	0.00011688	1043.4	4.208e-06	4.561e-06	1131.3	226.92	3.4589e-06	2.8766e-06	284.96	79.336	62.842	18.099	4.0391e-06	25.325	0.00059373	0.00079067	0.00021565	1037.6	8.0121e-06	8.5457e-06	1126.5	226.61	7.7076e-06	8.6216e-06	285.93	79.967	63.326	18.633	7.909e-06	25.965	113.611	161.542	163.113	101.270	231.549	230.221	101.077	108.974	209.749	275.290	108.324	115.038	115.303	123.046	233.296	122.026	-8191	255	
2564.551	1	1	0	0	0.13672	0.18886	0.070011	0.12816	0.17403	0.047343	0.28675	0.15344	0.21537	0.15218	0.16947	0.2704	0.17607	0.19628	0.092094	0.098284	-2.6688	-2.1708	-2.8083	-2.8083	-2.3271	-3.0854	-2.5542	-2.5583	-2.9792	-2.1104	-2.8146	-2.6937	-2.0646	-3.1208	-2.3292	-2.3542	421.180	373.261	297.543	350.792	322.425	104.651	397.100	346.928	162.457	397.367	423.124	105.652	234.625	382.598	159.489	264.730	0.00061139	0.00033918	6.7226e-05	1044.3	3.9647e-06	3.2556e-06	1132.6	225.7	4.5042e-06	1.9311e-06	284.01	79.377	62.7	18.251	3.6517e-06	25.256	0.00060388	0.00078227	0.00020503	1037.1	7.8864e-06	8.2448e-06	1125.1	225.92	7.9714e-06	8.8481e-06	285.35	79.858	63.228	18.6	8.163e-06	25.966	110.519	185.932	170.222	101.123	205.337	218.098	101.262	108.751	209.719	267.924	108.704	114.825	115.515	122.769	227.787	122.368	-8191	255	
2564.669	1	1	0	0	0.19688	0.15186	0.13176	0.067798	0.3063	0.085474	0.2038	0.19252	0.2283	0.2296	0.10281	0.049067	0.26667	0.10831	0.14253	0.18968	-2.6021	-2.1875	-2.6958	-2.9729	-2.1667	-3.15	-2.5938	-2.3833	-2.975	-2.1667	-2.5521	-2.8292	-2.3229	-3.1583	-2.7271	-2.2938	220.791	423.164	290.854	111.890	253.100	204.855	394.336	360.150	297.321	411.367	215.997	301.560	438.567	353.063	140.938	112.264	0.00055262	0.00046517	5.6935e-05	1043.3	5.0266e-06	2.0418e-06	1135.2	225.2	5.7721e-06	3.9904e-06	283.79	79.554	63.269	18.221	3.0027e-06	25.328	0.00059657	0.00074383	0.00021347	1037.5	8.0499e-06	8.7576e-06	1124.8	225.75	7.3572e-06	8.4926e-06	285.1	79.89	63.301	18.655	8.0295e-06	26.009	113.974	194.459	213.782	101.282	222.372	256.893	101.140	109.196	213.000	267.186	108.622	114.814	115.576	122.801	246.291	121.699	-8191	255	
2564.766	1	1	0	0	0.09362	0.086136	0.20056	0.40393	0.14608	0.20948	0.22411	0.15148	0.058339	0.16261	0.10186	0.13343	0.16302	0.098806	0.16619	0.34727	-2.6792	-2.3271	-2.2917	-3.125	-2.1958	-2.7583	-2.9083	-2.3187	-2.9979	-2.3417	-2.6937	-3.1604	-2.2375	-2.8833	-2.8042	-2.2	286.977	128.994	311.533	426.771	108.847	255.111	336.425	326.105	338.513	95.837	378.190	439.132	434.177	272.167	118.533	345.285	0.00058474	0.00032243	9.6486e-05	1040.6	3.1465e-06	2.491e-06	1131.3	226.5	4.3783e-06	3.1526e-06	283.46	78.94	63.106	18.303	3.787e-06	25.244	0.00058619	0.00077191	0.00022199	1037.8	8.0449e-06	8.5336e-06	1125.5	226.01	7.6053e-06	8.8541e-06	285.27	79.818	63.229	18.665	8.1065e-06	25.931	110.780	176.389	151.691	100.931	216.285	245.781	100.836	108.704	211.989	235.835	108.528	114.859	115.472	122.253	239.823	121.575	-8191	255	
2564.862	1	1	0	0	0.096323	0.18173	0.33154	0.21434	0.12226	0.20261	0.21468	0.021522	0.25827	0.16428	0.28535	0.063599	0.17217	0.14652	0.10188	0.23315	-2.5667	-2.2729	-2.5167	-3.1729	-2.1979	-2.8333	-2.9479	-2.3125	-3.1354	-2.5062	-2.5854	-3.15	-2.3896	-2.7792	-2.7667	-2.2354	171.080	224.097	273.834	444.730	244.439	365.984	91.732	101.811	348.737	302.063	310.609	311.385	360.938	102.873	395.386	241.474	0.000579	0.00031462	0.00010249	1044.1	3.5423e-06	3.6578e-06	1131.8	225.61	6.53e-06	2.6975e-06	284.22	79.311	63.188	18.207	3.7074e-06	25.3	0.00058949	0.00077333	0.0002165	1037.6	8.1856e-06	8.9954e-06	1124.2	225.85	7.333e-06	8.8814e-06	285.2	79.91	63.418	18.596	7.9022e-06	25.961	106.523	190.943	189.151	100.855	195.476	220.710	100.889	108.539	222.003	241.328	108.096	114.486	115.401	122.318	233.554	121.679	-8191	255	
2564.958	1	1	0	0	0.18136	0.11354	0.19123	0.21021	0.15878	0.21971	0.16956	0.13415	0.11888	0.068099	0.20341	0.1342	0.30398	0.22763	0.30829	0.33498	-2.5667	-2.4771	-2.2458	-3.1292	-2.2833	-2.6958	-3.0708	-2.3375	-2.8854	-2.6104	-2.5729	-3.1458	-2.2021	-2.775	-2.8854	-2.1875	434.995	145.608	178.754	142.100	246.257	178.933	397.726	395.494	140.955	136.702	309.062	353.888	402.416	354.226	375.950	279.528	0.00058524	0.00020898	6.683e-05	1046.3	3.0383e-06	2.6179e-06	1131.3	225.54	5.8138e-06	1.2536e-06	285.04	79.305	63.019	18.205	2.4746e-06	25.381	0.00058761	0.00079428	0.00022053	1037.1	7.86e-06	8.1359e-06	1124.8	225.45	7.8797e-06	8.4772e-06	285.26	79.788	63.327	18.665	7.3943e-06	25.922	107.884	153.124	175.786	100.930	223.939	251.019	100.788	108.718	219.588	234.543	108.121	114.902	114.783	122.342	238.213	121.805	-8191	255	
2565.078	1	1	0	0	0.25073	0.12566	0.11942	0.14609	0.091395	0.070342	0.24461	0.24817	0.11302	0.23987	0.32009	0.22544	0.21463	0.32132	0.12791	0.05456	-2.4354	-2.4396	-2.2917	-3.1417	-2.2646	-2.6042	-3.0542	-2.2542	-2.7292	-2.7271	-2.3688	-3.0062	-2.3104	-2.3833	-3.0167	-2.1667	442.697	348.802	344.569	316.656	149.099	282.890	436.926	394.622	325.939	121.484	158.623	351.020	368.893	109.577	288.148	435.761	0.00064402	0.00025166	7.4861e-05	1042	3.6784e-06	2.0598e-06	1126.2	224.75	4.7298e-06	2.5295e-06	284.01	78.98	63.039	18.227	4.6541e-06	25.167	0.00061942	0.00075802	0.00022112	1034.2	7.95e-06	9.0231e-06	1120.7	225.59	7.7453e-06	8.6533e-06	285.12	79.563	63.11	18.588	7.8831e-06	25.886	109.313	186.180	153.156	101.310	239.738	230.368	100.853	108.361	227.336	265.337	108.242	114.755	114.829	122.937	249.888	121.728	-8191	255	
2565.150	1	1	0	0	0.18366	0.018723	0.19078	0.34242	0.25083	0.20914	0.14256	0.25005	0.254	0.2119	0.32487	0.043183	0.18214	0.29595	0.13962	0.065199	-2.6458	-2.875	-2.0417	-3.125	-2.5417	-2.5542	-3.4625	-2.3667	-2.8333	-2.8979	-2.0979	-3.2333	-2.6042	-2.3604	-2.8563	-2.0667	414.010	400.231	410.438	431.479	408.277	226.832	96.357	410.822	421.256	271.476	432.129	175.285	435.119	148.251	321.605	144.188	0.00063465	0.0004442	9.6522e-05	1044	5.4738e-06	3.0806e-06	1124.2	226.28	4.5931e-06	4.691e-06	283.23	78.951	62.965	18.161	2.2968e-06	24.945	0.00059668	0.00074796	0.00022761	1034.3	8.1042e-06	8.8752e-06	1121.5	225.79	8.083e-06	9.2532e-06	284.36	79.648	63.124	18.58	8.1714e-06	25.802	113.617	171.315	164.411	101.097	238.298	260.820	101.156	109.002	211.359	241.220	108.111	114.591	115.572	122.699	262.815	121.935	-8191	255	
2565.246	1	1	0	0	0.097534	0.14978	0.18992	0.32035	0.21781	0.17306	0.11711	0.096175	0.12912	0.19465	0.34719	0.17338	0.20026	0.18573	0.14376	0.043913	-2.2021	-2.9896	-2.0604	-2.9833	-2.5854	-2.0458	-3.3333	-2.2833	-2.6271	-2.9938	-2.2729	-2.9708	-2.7375	-2.0854	-3.0812	-2.475	438.509	145.296	109.244	436.144	144.179	385.521	373.514	140.873	411.461	415.996	183.753	168.766	411.441	431.994	125.787	188.548	0.00058916	0.0001818	9.4661e-05	1038	5.6897e-06	1.6708e-06	1129.8	224.94	4.7442e-06	2.9643e-06	282.31	78.714	62.686	18.192	1.53e-06	25.341	0.00061	0.00079495	0.00023179	1032.7	8.3591e-06	9.1899e-06	1122.9	225.2	7.938e-06	8.3276e-06	284.09	79.674	63.078	18.586	7.9883e-06	25.916	106.974	174.737	210.701	101.284	219.289	275.827	100.953	108.636	214.894	252.389	108.178	114.976	115.175	122.770	239.997	121.467	-8191	255	
2565.367	1	1	0	0	0.12414	0.16831	0.17862	0.18404	0.15744	0.2907	0.21235	0.17486	0.25655	0.10286	0.16121	0.2094	0.18799	0.20355	0.31784	0.1706	-2.1167	-2.9146	-2.0104	-2.9021	-2.5938	-2.0625	-3.3896	-2.3312	-2.5083	-3.0479	-2.2729	-2.9167	-2.8187	-2.1354	-3.1146	-2.6625	140.548	170.174	400.934	97.535	128.643	444.293	418.271	417.960	246.047	332.199	243.707	360.072	374.562	382.638	273.111	319.191	0.00058988	0.00037418	8.4134e-05	1041.3	4.1394e-06	4.9242e-06	1128.5	225.81	4.377e-06	2.6208e-06	282.17	78.819	62.2	17.931	2.773e-06	25.195	0.00061544	0.0007671	0.00021005	1035.9	7.9485e-06	9.2695e-06	1121.2	225.68	8.0517e-06	8.4601e-06	284.17	79.649	63.032	18.467	8.2042e-06	25.815	113.544	178.409	167.842	101.257	207.265	232.007	100.988	108.357	239.003	251.476	107.683	114.787	114.859	122.796	238.262	121.426	-8191	255	
2565.463	1	1	0	0	0.027151	0.082346	0.16734	0.34955	0.15262	0.23469	0.18307	0.091623	0.10055	0.023905	0.26947	0.19174	0.094343	0.18356	0.30908	0.30108	-1.9083	-3.2604	-2.1958	-2.8333	-2.925	-2.1417	-2.9729	-2.7958	-2.4938	-3.2	-2.3688	-2.5917	-3	-2.1896	-3.0146	-2.4938	385.933	389.253	187.692	103.964	436.737	416.701	109.076	354.021	136.791	167.347	115.347	435.281	320.590	270.019	219.144	442.996	0.00057107	0.00032	4.1683e-05	1040.6	5.6492e-06	2.6083e-06	1126	225.06	3.5397e-06	1.7112e-06	282.68	79.43	63.216	18.03	3.1707e-06	25.041	0.00061061	0.00084187	0.00022699	1033.7	8.2248e-06	9.4779e-06	1120.2	225.27	8.233e-06	8.749e-06	284.12	79.637	63.209	18.552	7.8045e-06	25.79	113.143	208.527	209.787	101.293	236.273	244.119	100.996	108.491	196.337	233.376	108.214	114.785	115.201	122.877	235.264	121.885	-8191	255	
2565.559	1	1	0	0	0.2199	0.12085	0.22542	0.31981	0.27494	0.14601	0.21508	0.30586	0.21463	0.16731	0.25782	0.14883	0.1093	0.30356	0.045801	0.11062	-2.0375	-3.1854	-2.2979	-2.6396	-3.0021	-2.0229	-3.2396	-2.6188	-2.4208	-3.1937	-2.3958	-2.5667	-3.1063	-2.2562	-2.7771	-2.7646	341.013	271.757	382.471	431.153	328.698	110.301	427.922	392.359	330.842	275.480	334.312	388.130	380.372	369.460	153.155	448.729	0.00060463	0.00045627	0.0001195	1039.6	3.281e-06	3.0606e-06	1124.1	225.88	4.3231e-06	3.3313e-06	282.19	79.243	62.257	18.173	1.5809e-06	25.105	0.00063699	0.0007918	0.00023064	1033.3	8.3569e-06	8.9055e-06	1119.7	225.71	8.4456e-06	8.8686e-06	283.68	79.67	62.872	18.584	8.4634e-06	25.753	108.717	179.664	175.089	101.224	239.778	188.964	101.018	108.757	213.141	233.270	108.029	115.107	115.511	122.715	232.278	122.006	-8191	255	
2565.678	1	1	0	0	0.12983	0.10804	0.16953	0.050736	0.12565	0.097558	0.035827	0.2975	0.14904	0.16675	0.13799	0.16841	0.16492	0.24845	0.25016	0.183	-1.8542	-3.0625	-2.6	-2.5729	-2.9688	-2.3333	-3.0625	-2.8438	-2.225	-2.9875	-2.6146	-2.55	-3.0896	-2.1896	-2.4875	-2.8958	198.976	290.835	142.443	91.925	411.497	344.248	188.669	389.645	437.925	433.706	114.505	154.642	145.858	407.738	448.646	207.101	0.00062325	0.00017822	0.00010618	1035.6	3.6709e-06	1.6229e-06	1121.2	225.53	3.4018e-06	2.0297e-06	281.76	79.263	63.007	18.14	2.1885e-06	25.044	0.00064093	0.00081012	0.00023083	1030.9	8.0878e-06	9.2427e-06	1117.9	225.43	8.378e-06	8.6122e-06	283.53	79.745	63.139	18.543	8.2827e-06	25.767	107.350	197.451	178.532	100.932	220.811	227.128	100.984	108.598	249.975	212.392	108.211	115.445	114.876	122.401	249.664	121.974	-8191	255	
2565.774	1	1	0	0	0.11067	0.066189	0.19479	0.065383	0.10654	0.28282	0.33511	0.17381	0.032262	0.14221	0.095497	0.24542	0.13866	0.34787	0.10891	0.036036	-1.8583	-2.8312	-2.3417	-2.4271	-3.0354	-2.3167	-2.6188	-3.2021	-2.3271	-3.0375	-2.7396	-2.4146	-3.1562	-2.3583	-2.6562	-2.9896	292.764	224.908	105.269	444.740	327.470	110.682	320.978	166.077	195.389	413.554	129.325	100.753	449.910	278.883	328.063	230.026	0.00057896	0.00019668	0.00012948	1041	5.9191e-06	2.0955e-06	1123.8	224.93	4.5217e-06	4.1113e-06	282.57	79.196	62.251	17.906	3.8333e-06	24.986	0.00059393	0.00075337	0.0002183	1033	7.8093e-06	9.1242e-06	1119.8	225.07	8.0247e-06	8.7609e-06	283.26	79.501	62.616	18.438	8.3429e-06	25.796	108.983	166.244	199.437	100.933	210.195	255.464	100.955	108.476	214.267	220.355	107.881	114.924	114.796	122.638	236.500	121.543	-8191	255	
2565.846	1	1	0	0	0.087673	0.20216	0.24564	0.15571	0.30441	0.1865	0.21259	0.017441	0.17318	0.057146	0.10275	0.14147	0.29901	0.063627	0.18347	0.18401	-1.9625	-2.9146	-2.6437	-2.2729	-3.0583	-2.1958	-2.5062	-3.0542	-2.0854	-2.8167	-2.7354	-2.2938	-3.1083	-2.6771	-2.4479	-2.9333	154.168	429.160	152.139	429.335	178.940	341.870	392.644	435.601	147.522	227.836	367.170	252.849	433.702	364.903	340.576	257.917	0.00061459	0.00038909	7.0177e-05	1033.5	4.4516e-06	2.3709e-06	1125.6	225.09	6.4128e-06	1.2579e-06	281.17	79.191	62.6	18.056	2.2823e-06	25.441	0.00063948	0.00079916	0.00023208	1029.6	7.9064e-06	9.3006e-06	1119.9	225	8.1249e-06	8.9182e-06	282.88	79.549	63.022	18.511	8.5115e-06	25.898	108.711	170.833	168.646	101.056	221.458	262.933	100.876	108.653	224.426	255.587	107.885	114.878	115.043	122.498	229.731	122.023	-8191	255	
2565.967	1	1	0	0	0.10191	0.35859	0.085888	0.23091	0.051007	0.2137	0.32842	0.38787	0.26858	0.084916	0.087596	0.33967	0.22734	0.25327	0.23523	0.10511	-1.7354	-2.9646	-2.8833	-2.1646	-3.1146	-2.5125	-2.4458	-3.0729	-2.1479	-2.6896	-3.0187	-2.1083	-3.1625	-2.4458	-2.225	-2.9813	154.961	300.077	131.200	105.167	209.662	339.982	357.694	363.403	155.322	251.311	130.969	359.166	421.565	134.468	90.822	323.008	0.00055616	0.00028807	6.4213e-05	1034	3.724e-06	2.3431e-06	1119.4	224.41	3.2039e-06	3.2877e-06	280.97	78.994	62.691	18.048	3.2049e-06	24.993	0.00062041	0.00080479	0.00022445	1029.9	8.4504e-06	8.8095e-06	1115.4	224.57	8.2373e-06	8.9361e-06	283.17	79.394	62.889	18.462	8.6327e-06	25.788	113.663	179.073	190.960	100.907	246.168	248.625	101.036	108.453	213.522	227.318	108.316	114.477	115.138	122.420	240.211	121.753	-8191	255	
2566.063	1	1	0	0	0.09429	0.27733	0.11889	0.19881	0.099437	0.041475	0.2193	0.22329	0.15886	0.30115	0.21005	0.086495	0.20456	0.38379	0.20147	0.084362	-1.6688	-2.5958	-2.7146	-2.2687	-2.8083	-2.6437	-2.4188	-3.0167	-2.3667	-2.4521	-2.9625	-2.2229	-2.9875	-2.6479	-2.2062	-3.2083	313.273	369.613	363.228	393.610	131.982	304.285	354.579	373.997	391.063	411.535	376.675	350.476	145.626	433.920	174.584	430.945	0.00061486	0.00044801	8.747e-05	1035.7	4.3628e-06	4.8499e-06	1124.1	224.65	4.4224e-06	2.1917e-06	279.71	78.728	62.519	18.074	1.8466e-06	25.207	0.00063752	0.00078324	0.00022369	1027.8	8.5325e-06	9.273e-06	1117.2	224.77	8.8444e-06	9.1515e-06	282.18	79.373	62.971	18.517	8.8508e-06	25.799	109.014	188.455	181.840	101.021	221.989	243.312	100.675	108.702	233.522	206.162	108.270	114.751	115.333	122.598	236.910	121.834	-8191	255	
2566.159	1	1	0	0	0.070808	0.25262	0.2932	0.33576	0.13336	0.18208	0.18299	0.17415	0.17383	0.060245	0.13432	0.06663	0.043116	0.093907	0.16435	0.11542	-1.9104	-2.3021	-2.7708	-2.4521	-2.7167	-2.5271	-2.1583	-3.05	-2.3125	-2.4021	-3.0771	-2.1875	-2.4646	-2.8458	-2.0729	-2.9167	371.456	382.155	392.549	393.106	445.511	261.937	436.239	337.053	381.137	396.064	416.049	398.096	243.148	435.667	290.478	113.730	0.00056917	0.0003977	7.8041e-05	1035.5	3.2083e-06	2.7089e-06	1121	224.55	3.1921e-06	2.1845e-06	282.02	79.38	62.345	18.086	2.2532e-06	25.098	0.00063159	0.00080088	0.00023151	1030.2	8.6746e-06	9.3188e-06	1117.7	225.17	8.3645e-06	9.2695e-06	283.22	79.415	62.766	18.447	8.6411e-06	25.763	107.066	189.516	205.495	100.957	233.515	238.390	100.888	108.854	227.391	201.456	108.085	114.648	115.265	122.064	255.807	121.873	-8191	255	
2566.255	1	1	0	0	0.1909	0.23719	0.20722	0.26656	0.084036	0.059907	0.23309	0.10343	0.16959	0.34979	0.13126	0.092036	0.034052	0.10204	0.36673	0.28625	-2.0208	-2.2146	-2.8271	-2.1167	-2.6146	-2.8708	-2.2354	-2.8354	-2.5667	-2.2792	-3.0479	-2.2917	-2.55	-3.0292	-2.3187	-2.7979	273.295	445.951	395.294	98.814	378.358	407.814	387.871	343.841	260.254	182.093	398.676	450.296	429.373	347.175	173.425	336.964	0.00055365	0.00013929	5.685e-05	1036	3.8401e-06	3.2402e-06	1126.1	224.3	3.7879e-06	1.1778e-06	281.58	78.997	62.727	18.101	3.8177e-06	25.052	0.00062903	0.0008454	0.00022784	1028.7	8.6575e-06	9.3862e-06	1117.3	224.83	8.3944e-06	9.5276e-06	283.57	79.61	62.823	18.508	8.606e-06	25.86	108.949	209.700	202.707	100.980	238.778	271.619	100.923	108.683	221.746	251.514	108.207	114.469	115.485	122.867	228.246	121.957	-8191	255	
2566.376	1	1	0	0	0.16827	0.095198	0.30687	0.15628	0.076113	0.068698	0.10607	0.096205	0.30994	0.18203	0.30144	0.26308	0.27785	0.31103	0.16637	0.21398	-2.3604	-2.3063	-2.9542	-2.4437	-2.3937	-2.9542	-2.3021	-2.8563	-2.7125	-2.2417	-2.9604	-2.5167	-2.3292	-3.0667	-2.0979	-2.6688	252.476	266.666	362.617	347.340	272.873	245.265	366.417	352.664	169.358	143.239	428.078	117.162	433.844	180.092	148.425	403.499	0.0006016	0.00036403	4.6647e-05	1039	3.9113e-06	3.1005e-06	1118.6	224.76	5.6376e-06	3.5253e-06	280.31	78.759	62.659	18.049	4.1316e-06	25.193	0.00062861	0.0008237	0.00022019	1030	8.9809e-06	9.0732e-06	1117.6	224.49	8.2593e-06	9.2276e-06	282.76	79.317	62.9	18.514	8.4467e-06	25.84	110.387	175.658	236.935	101.062	222.744	268.814	100.980	108.847	234.587	252.664	108.336	114.816	115.354	122.635	227.612	121.767	-8191	255	
2566.447	1	1	0	0	0.2644	0.11417	0.12687	0.094916	0.22844	0.29146	0.1354	0.24324	0.062904	0.028332	0.23904	0.12047	0.102	0.19861	0.11743	0.28443	-2.3125	-2.3167	-2.975	-2.6458	-2.4417	-3.0687	-2.2687	-2.6375	-2.8063	-2.1562	-2.8333	-2.5104	-2.1167	-2.9688	-2.0854	-2.725	107.100	368.964	142.663	372.883	114.265	422.574	238.239	231.388	227.210	152.157	432.678	345.661	440.279	99.392	322.544	320.484	0.00051418	0.0002347	0.00011595	1033.7	5.4854e-06	3.8215e-06	1121.6	224.46	3.7917e-06	3.9599e-06	280.87	78.53	62.846	18.143	1.7266e-06	25.115	0.00059829	0.00079668	0.00021781	1027.2	8.2684e-06	8.6806e-06	1116.7	224.79	7.9252e-06	8.9686e-06	282.98	79.152	63.039	18.488	8.1248e-06	25.872	113.968	187.294	179.829	100.985	237.311	250.175	100.870	108.977	230.089	257.228	107.916	114.849	115.528	122.846	223.180	121.682	-8191	255	
2566.543	1	1	0	0	0.08094	0.1353	0.16939	0.15354	0.21135	0.10039	0.086763	0.19633	0.19488	0.17309	0.067158	0.3234	0.089679	0.43563	0.30914	0.14319	-2.5438	-1.8958	-2.9062	-2.6479	-2.15	-2.9917	-2.4813	-2.6396	-2.7771	-2.0542	-2.8083	-2.7917	-2.1292	-2.9521	-2.2687	-2.4333	332.002	127.450	227.864	438.139	374.546	176.562	367.656	180.542	431.235	273.108	171.447	337.502	115.450	119.590	178.016	297.311	0.00056537	0.00026091	8.278e-05	1032.9	4.5937e-06	2.7442e-06	1123.3	225.35	3.7773e-06	3.2081e-06	281.13	78.861	62.297	17.998	3.6444e-06	25.258	0.00060855	0.00078722	0.00021137	1028.7	8.4155e-06	8.5648e-06	1116.9	225.12	8.0937e-06	8.7618e-06	282.93	79.356	62.78	18.486	8.1317e-06	25.862	106.812	220.223	183.064	101.172	213.901	245.241	100.982	108.825	213.301	241.114	108.033	114.534	115.269	122.993	269.556	121.420	-8191	255	
2566.640	1	1	0	0	0.14444	0.27826	0.19817	0.097539	0.18533	0.17515	0.15955	0.095488	0.18987	0.14631	0.10661	0.13551	0.27376	0.10842	0.29082	0.27014	-2.7479	-2.0979	-2.7354	-2.8479	-2.3979	-3.0479	-2.5625	-2.4479	-3.1396	-2.0396	-2.9125	-2.7667	-2.1646	-3.0792	-2.3688	-2.3	194.178	435.245	153.168	304.978	189.646	387.139	434.191	307.374	283.844	91.643	206.040	357.461	104.523	92.529	113.787	105.274	0.00053815	0.0002296	8.9651e-05	1039.3	4.5871e-06	2.3222e-06	1121.6	225.57	5.1551e-06	4.5082e-06	281.71	78.814	63.023	18.13	5.3093e-06	25.106	0.00060418	0.00077101	0.00022538	1031.2	8.0028e-06	8.3944e-06	1115	224.98	7.6806e-06	8.1952e-06	283.77	79.462	63.146	18.561	7.9067e-06	25.908	110.898	191.308	179.475	100.922	225.204	258.281	100.810	108.853	220.983	255.156	107.971	114.644	115.215	122.720	258.732	121.889	-8191	255	
2566.758	1	1	0	0	0.080638	0.22313	0.27854	0.026271	0.16423	0.42506	0.1486	0.30111	0.11916	0.31491	0.18671	0.14425	0.16842	0.32376	0.21609	0.17721	-2.5229	-2.1229	-2.8729	-2.5958	-2.1958	-2.9437	-2.6604	-2.2729	-2.9125	-2.2917	-2.8792	-3.0062	-2.1229	-3.0312	-2.725	-2.1396	174.235	289.863	207.115	348.954	249.205	122.179	430.293	355.046	398.333	308.232	415.258	369.364	117.885	387.385	238.821	408.703	0.00053812	0.00031102	9.1546e-05	1034.4	3.2173e-06	2.0347e-06	1119.7	224.84	4.8869e-06	3.7049e-06	280.92	78.978	62.696	18.167	5.6233e-06	25.183	0.00059408	0.00076027	0.00020702	1028.7	7.7529e-06	8.0875e-06	1117.1	225.2	7.6074e-06	8.543e-06	283.33	79.531	62.844	18.505	7.8473e-06	25.921	109.119	143.626	173.196	100.941	215.741	215.036	100.993	108.953	242.508	260.960	108.164	114.747	115.322	122.542	222.356	121.964	-8191	255	
2566.855	1	1	0	0	0.24504	0.20931	0.2572	0.4432	0.073132	0.09634	0.24937	0.24051	0.12172	0.12317	0.19264	0.14968	0.082305	0.13227	0.11143	0.18414	-2.7396	-2.2438	-2.4771	-3.0271	-2.1042	-2.9625	-2.7292	-2.4333	-3.1292	-2.1292	-2.5583	-3.0083	-2.3229	-2.8438	-2.6792	-2.3312	382.524	178.747	333.255	449.436	216.787	149.552	395.354	310.811	393.013	195.262	414.679	99.927	353.743	256.025	130.341	117.504	0.00054304	0.00027528	8.1533e-05	1041.7	4.8868e-06	4.2305e-06	1121.7	224.67	5.1091e-06	2.4182e-06	281.87	78.745	62.76	18.028	4.3774e-06	25.244	0.00058371	0.00075637	0.00020927	1032.8	7.7993e-06	8.6288e-06	1116.5	225.29	7.665e-06	8.5199e-06	283.42	79.374	62.966	18.494	8.041e-06	25.847	108.020	199.901	218.468	101.141	238.105	238.170	100.738	108.681	215.045	238.042	107.774	114.901	114.973	122.984	245.633	121.497	-8191	255	
2566.951	1	1	0	0	0.03492	0.14542	0.084097	0.19909	0.206	0.013311	0.11249	0.22468	0.31198	0.082848	0.071655	0.053003	0.2524	0.12549	0.18684	0.018759	-2.6021	-2.4146	-2.4125	-3.1417	-2.1063	-2.6271	-2.7792	-2.2521	-2.9813	-2.5083	-2.375	-3.125	-2.1813	-2.6396	-2.8708	-2.1625	338.026	448.699	366.543	424.703	260.365	178.203	433.006	231.822	341.483	363.926	214.160	405.421	392.425	218.258	217.198	163.131	0.00056966	0.00017618	0.00012955	1037.9	3.7979e-06	2.57e-06	1129.8	223.27	5.5958e-06	2.5818e-06	282.68	79.291	62.694	18.103	2.5805e-06	25.261	0.00058371	0.00077551	0.00022057	1030.3	8.1463e-06	8.3356e-06	1121.6	224.59	7.6614e-06	8.6131e-06	283.31	79.642	62.857	18.5	8.2888e-06	25.841	108.125	183.059	171.878	101.089	220.429	222.460	100.835	108.397	228.156	233.455	108.309	114.796	114.996	122.855	217.566	121.530	-8191	255	
2567.047	1	1	0	0	0.12117	0.11566	0.020387	0.24062	0.079443	0.31827	0.080887	0.23525	0.11045	0.070031	0.019797	0.098813	0.077007	0.056436	0.2449	0.12508	-2.6771	-2.2083	-2.1917	-3.0708	-2.0167	-2.6917	-3.0333	-2.1354	-2.9437	-2.6083	-2.1979	-3.0292	-2.2646	-2.4292	-3.0062	-2.0938	341.668	271.588	384.979	443.020	370.264	107.935	434.419	193.616	223.436	294.739	94.247	125.795	314.647	346.574	321.017	315.736	0.00056543	0.00035853	9.9298e-05	1036.2	4.615e-06	3.9974e-06	1124	224.07	5.1617e-06	2.6017e-06	283.21	79.502	62.783	18.183	4.2917e-06	25.342	0.00059729	0.00077596	0.00022485	1030	8.2134e-06	9.1156e-06	1117.8	225.1	7.5882e-06	8.9874e-06	283.81	79.71	62.859	18.589	7.983e-06	25.9	109.375	164.936	190.007	101.050	208.857	242.421	100.753	108.517	241.863	243.198	107.989	115.105	115.029	122.896	230.420	121.461	-8191	255	
2567.143	1	1	0	0	0.10095	0.20393	0.15311	0.40191	0.040611	0.08416	0.2099	0.18088	0.050794	0.011357	0.17052	0.16959	0.14458	0.18278	0.027907	0.04663	-2.5	-2.6833	-2.1854	-3.1354	-2.2708	-2.4042	-3.1833	-2.2604	-2.9292	-2.7917	-2.4042	-2.9938	-2.2667	-2.4562	-2.9104	-2.1854	296.613	129.287	245.508	372.124	132.483	423.415	409.003	151.100	213.827	157.526	391.366	94.538	417.540	393.781	147.777	305.442	0.00069141	0.00028198	0.00010045	1035.5	5.0648e-06	2.7121e-06	1123	224.89	4.5816e-06	4.3957e-06	283.19	79.519	62.68	18.232	3.2049e-06	25.009	0.0006162	0.00075126	0.00022364	1032	8.0492e-06	8.5994e-06	1118.3	225.33	7.9351e-06	8.6362e-06	284.05	79.638	62.959	18.605	7.951e-06	25.806	110.643	208.679	170.332	101.316	223.930	248.813	100.921	108.897	240.525	243.160	108.318	114.943	114.986	123.233	230.703	121.628	-8191	255	
2567.239	1	1	0	0	0.175	0.18698	0.20696	0.14649	0.19249	0.0093727	0.05794	0.26898	0.20538	0.24408	0.17956	0.041498	0.11047	0.20929	0.12696	0.16373	-2.4875	-2.8521	-1.9542	-3.1667	-2.35	-2.4	-3.0604	-2.2458	-2.6604	-2.975	-2.2354	-2.8875	-2.4354	-2.1896	-2.9313	-2.1667	206.780	434.696	284.603	117.216	369.574	356.260	421.640	402.733	307.524	356.944	340.491	234.961	440.350	157.917	273.156	115.962	0.00057417	0.00031661	7.9341e-05	1039.9	3.2945e-06	2.1354e-06	1124.9	224.86	5.1139e-06	3.703e-06	282.27	79.205	62.728	18.177	3.9583e-06	25.078	0.00059507	0.0007963	0.00023403	1033.5	8.1684e-06	8.8959e-06	1119.3	224.62	7.9529e-06	8.3524e-06	283.28	79.699	63.073	18.535	8.2057e-06	25.884	112.339	176.552	183.896	101.179	221.901	215.059	101.015	108.535	246.416	243.292	108.239	115.008	115.015	122.670	238.794	122.014	-8191	255	
2567.360	1	1	0	0	0.081963	0.13411	0.22981	0.052896	0.085816	0.15591	0.18592	0.11072	0.22045	0.064189	0.12091	0.22642	0.12154	0.15737	0.035046	0.11271	-2.1312	-2.8771	-2.0271	-2.9688	-2.5375	-2.4021	-3.2562	-2.3771	-2.5042	-2.9688	-2.125	-2.8854	-2.8021	-2.1021	-2.8854	-2.2958	201.180	445.643	434.774	300.735	156.261	208.088	112.746	175.999	398.379	354.503	275.694	262.244	246.018	191.500	102.941	333.686	0.00061052	0.00030369	5.7495e-05	1036.4	5.2726e-06	2.5215e-06	1125.6	225.06	4.2708e-06	1.8387e-06	281.75	79.73	62.453	18.144	2.3434e-06	25.182	0.00060977	0.00075502	0.0002186	1032.9	7.8857e-06	9.1242e-06	1121.7	224.87	8.1178e-06	8.1277e-06	283.76	79.655	63.014	18.588	7.7885e-06	25.91	109.944	191.061	147.334	101.163	209.160	272.087	101.017	108.951	247.473	244.130	108.170	114.710	115.115	122.640	246.497	121.637	-8191	255	
2567.456	1	1	0	0	0.38989	0.15818	0.2617	0.044516	0.15149	0.12601	0.35431	0.12033	0.089698	0.13092	0.17875	0.14602	0.20637	0.13939	0.17227	0.24267	-1.9958	-2.8854	-2.1083	-2.7625	-2.7396	-2.2917	-3.2917	-2.5417	-2.5438	-3.2104	-2.3271	-2.7875	-2.925	-2.0896	-3	-2.6708	264.264	255.697	392.411	136.059	241.439	386.617	366.086	394.580	130.580	204.744	414.993	423.192	364.462	334.250	208.877	116.790	0.00063473	0.0002695	8.7707e-05	1044.6	3.7399e-06	4.5806e-06	1129.7	224.33	3.7476e-06	3.0384e-06	281.4	78.761	62.369	18.066	3.8603e-06	25.257	0.00061521	0.00078084	0.00022407	1035.8	7.9907e-06	9.3387e-06	1123.9	225.12	8.0247e-06	8.7011e-06	283.19	79.412	62.821	18.519	7.8808e-06	25.853	109.902	174.875	208.867	101.440	219.358	250.922	101.235	108.723	209.400	238.179	107.992	114.662	115.143	122.742	231.905	121.532	-8191	255	
2567.552	1	1	0	0	0.26603	0.075854	0.11023	0.15054	0.11314	0.14589	0.27509	0.053221	0.019927	0.045755	0.072072	0.23187	0.33723	0.080416	0.16745	0.17038	-1.9021	-3.075	-2.2729	-2.6979	-2.7792	-2.2271	-3.0896	-2.6437	-2.1813	-3.1021	-2.3292	-2.6813	-2.8146	-2.2375	-2.9062	-2.7479	224.503	224.673	105.146	438.677	377.527	319.168	381.254	435.095	320.257	241.220	233.848	285.391	387.987	130.591	98.509	98.820	0.00055302	0.0003159	7.301e-05	1039	3.8068e-06	3.5914e-06	1127.1	224.89	4.6443e-06	4.2629e-06	282.32	78.811	62.489	18.193	3.7982e-06	25.267	0.00060996	0.0007888	0.0002268	1035.3	8.2434e-06	8.8285e-06	1123.2	225.11	8.0716e-06	8.6883e-06	283.77	79.549	62.999	18.591	7.8854e-06	25.881	111.902	186.188	205.674	101.361	239.815	244.871	101.200	108.659	230.368	279.426	107.689	115.059	115.246	122.404	242.764	121.863	-8191	255	
2567.648	1	1	0	0	0.35561	0.0238	0.20904	0.16432	0.10788	0.064822	0.40874	0.029248	0.15816	0.1212	0.14233	0.34704	0.19738	0.11928	0.070058	0.040152	-1.9417	-2.9625	-2.1771	-2.675	-2.9437	-2.0375	-2.9146	-2.7229	-2.1125	-2.9375	-2.4021	-2.5604	-3.0167	-2.1	-2.7417	-2.6979	326.515	233.301	102.349	347.095	388.622	168.883	368.049	230.898	358.796	298.328	392.732	400.495	392.987	422.564	447.190	199.863	0.0005649	0.00038019	5.0899e-05	1044.6	3.6606e-06	3.2345e-06	1134.3	225.15	4.2432e-06	1.6444e-06	281.69	78.734	62.438	18.076	4.4791e-06	25.136	0.00061831	0.00075622	0.00022301	1036.1	8.2555e-06	9.2081e-06	1126.3	225.39	8.2316e-06	8.8242e-06	284.04	79.404	63.127	18.527	7.8915e-06	25.855	108.517	176.397	164.900	101.290	223.273	253.155	101.435	108.604	197.083	233.169	108.399	114.855	115.564	123.075	228.834	121.832	-8191	255	
2567.743	1	1	0	0	0.13514	0.29731	0.24481	0.12011	0.23515	0.11293	0.22048	0.2491	0.096112	0.12084	0.022576	0.15972	0.052814	0.12056	0.13503	0.22343	-1.8125	-3.0583	-2.2958	-2.1917	-2.9813	-2.2667	-2.8812	-2.8708	-1.9583	-3.1042	-2.5229	-2.1937	-3.0604	-2.2646	-2.6708	-3.0042	303.277	92.289	434.460	119.952	229.284	436.019	383.824	408.787	164.680	221.544	404.632	167.450	336.347	253.919	116.072	399.704	0.00060101	0.000232	0.0001285	1044	4.8285e-06	4.6216e-06	1131.5	225	4.3614e-06	3.37e-06	279.98	79.043	62.813	18.135	2.6732e-06	25.195	0.00064683	0.00078527	0.00021959	1037.8	8.1791e-06	9.3906e-06	1126.3	225.92	8.6802e-06	9.4617e-06	283.63	79.576	63.047	18.567	9.0171e-06	25.859	105.676	126.586	168.408	101.548	217.769	248.874	101.330	108.943	211.919	269.094	108.025	115.252	115.689	122.999	218.283	122.006	-8191	255	
2567.839	1	1	0	0	0.10377	0.20005	0.066092	0.3308	0.19735	0.27051	0.25864	0.14783	0.056736	0.1638	0.26515	0.23035	0.13088	0.28663	0.017988	0.1201	-1.6583	-2.8854	-2.5521	-2.3021	-3.0604	-2.2562	-2.6208	-2.9979	-2.2667	-2.8542	-2.6188	-2.2021	-2.9958	-2.2125	-2.6083	-3	221.170	98.339	267.237	405.017	129.459	186.148	357.384	97.222	391.739	382.786	442.340	238.744	103.646	168.758	151.651	327.663	0.00052387	0.00033849	0.00013563	1044	4.4632e-06	1.2818e-06	1131.3	225.16	5.0227e-06	4.0797e-06	280.66	79.592	63.117	18.221	2.0759e-06	25.373	0.00065601	0.00083947	0.00023904	1038.3	8.7596e-06	9.4424e-06	1127.4	225.27	8.9048e-06	9.7147e-06	283.71	79.758	63.317	18.586	8.9477e-06	25.969	114.424	194.109	190.227	101.436	236.393	273.690	101.345	108.979	227.437	244.399	108.464	115.411	115.722	122.472	203.919	122.106	-8191	255	
2567.935	1	1	0	0	0.34467	0.028807	0.13339	0.29383	0.11408	0.15889	0.22427	0.094145	0.32055	0.074839	0.17372	0.035903	0.05952	0.084312	0.27402	0.22357	-1.6708	-2.875	-2.7208	-2.25	-2.875	-2.5958	-2.6667	-2.9813	-1.9771	-2.8229	-2.825	-1.9937	-2.9104	-2.5438	-2.3229	-3.2271	108.504	353.077	157.232	418.502	408.012	284.492	400.223	111.404	411.130	383.387	425.232	319.422	121.815	183.070	300.329	361.878	0.00060832	0.00019307	0.0001225	1042.8	3.5529e-06	3.5808e-06	1131.9	224.81	4.6618e-06	4.9793e-06	282.84	79.091	62.555	18.15	3.3614e-06	25.159	0.00064453	0.00083729	0.00024192	1036.2	8.5083e-06	9.6292e-06	1127	225.67	8.5707e-06	9.9788e-06	284.25	79.667	63.253	18.592	8.7471e-06	25.866	109.234	177.007	195.006	101.009	220.382	216.631	101.121	109.045	210.626	282.062	108.147	114.901	115.581	122.582	248.612	121.782	-8191	255	
2568.056	1	1	0	0	0.21983	0.067595	0.16653	0.21448	0.27097	0.016255	0.088179	0.068029	0.045063	0.078184	0.20176	0.29785	0.099612	0.11194	0.061571	0.17192	-1.7042	-2.7125	-2.9792	-2.2125	-3.1083	-2.5354	-2.475	-2.9979	-2.1958	-2.575	-2.9688	-1.9375	-2.9917	-2.5479	-2.125	-2.8708	295.535	202.331	322.697	404.553	225.913	381.504	348.327	281.873	139.692	175.952	386.201	403.658	443.278	130.315	183.195	360.302	0.00056228	0.0003901	9.0671e-05	1035.9	4.1436e-06	4.0645e-06	1130.5	225.98	5.4946e-06	2.1912e-06	282.6	79.471	63.075	18.266	4.3619e-06	25.378	0.00062677	0.00079375	0.0002408	1034.2	8.4133e-06	9.3966e-06	1126.1	226.25	8.1363e-06	9.2524e-06	284.35	79.781	63.371	18.669	8.9302e-06	25.999	116.002	166.436	180.263	101.401	230.601	232.988	101.135	108.787	214.863	267.383	108.575	115.418	115.375	122.763	228.395	121.899	-8191	255	
2568.152	1	1	0	0	0.19058	0.019086	0.23793	0.1707	0.11446	0.13023	0.25101	0.17196	0.36166	0.2185	0.22557	0.23477	0.046815	0.30803	0.2477	0.26811	-1.8917	-2.5854	-2.7625	-2.3354	-2.8312	-2.7	-2.5146	-3.0687	-2.3187	-2.3667	-3.1229	-2.075	-2.6708	-2.5479	-2.0271	-2.9958	394.191	326.717	376.719	118.001	243.103	431.810	435.634	338.621	361.031	182.136	346.460	426.406	416.387	119.740	369.099	266.560	0.00059214	0.00020569	5.7835e-05	1041.9	6.1454e-06	1.6103e-06	1139.6	226.81	2.8968e-06	9.2958e-07	282.77	79.413	62.827	18.176	6.9571e-07	25.205	0.00064993	0.00080651	0.00022547	1037.7	8.172e-06	8.8899e-06	1128.4	226.48	8.2707e-06	9.5532e-06	284.33	79.727	63.144	18.627	8.5801e-06	25.921	108.359	162.795	148.092	101.187	223.997	241.314	100.957	108.711	235.836	125.668	108.031	114.808	115.135	122.393	237.227	121.601	-8191	255	
2568.248	1	1	0	0	0.15251	0.15468	0.26595	0.072118	0.03335	0.13644	0.23325	0.26141	0.1969	0.039073	0.13546	0.093019	0.25748	0.21059	0.17277	0.16537	-2.0062	-2.2958	-2.8792	-2.3	-2.5021	-2.8125	-2.5438	-3.0083	-2.2062	-2.4188	-3.0667	-2.2062	-2.7396	-2.7625	-2.2125	-2.9938	430.265	290.302	367.514	374.832	134.199	93.924	439.437	233.272	396.526	94.623	236.468	340.100	273.088	403.542	327.922	358.815	0.00058396	0.00022211	0.00011872	1046.6	4.3368e-06	1.4338e-06	1137	225.65	6.2105e-06	4.1382e-06	283.56	79.282	62.462	18.297	3.8056e-06	25.322	0.00064782	0.00084314	0.00023777	1037.7	8.8367e-06	9.228e-06	1126.4	225.98	8.4541e-06	9.2028e-06	283.87	79.88	63.135	18.653	8.1653e-06	25.972	110.789	176.927	196.628	100.953	225.442	177.338	100.752	108.895	190.078	266.042	108.058	115.047	115.423	122.565	242.134	121.704	-8191	255	
2568.320	1	1	0	0	0.22776	0.15599	0.23943	0.46368	0.16614	0.23932	0.189	0.11396	0.096766	0.17204	0.039847	0.17676	0.16682	0.078841	0.24041	0.17515	-2.1208	-2.0646	-2.9	-2.2875	-2.5667	-2.9792	-2.1063	-2.9646	-2.5146	-2.2	-3.0062	-2.2917	-2.6354	-3.075	-2.0917	-2.9729	358.778	202.374	155.284	425.908	426.097	229.895	378.740	152.115	203.550	274.056	245.701	179.997	91.522	276.516	428.953	321.875	0.00059825	0.00033774	0.00013312	1043.3	2.6007e-06	3.2506e-06	1126.3	224.91	4.0319e-06	4.1027e-06	282.29	79.495	62.816	18.2	4.0777e-06	25.318	0.00062091	0.00077566	0.00020937	1036.1	8.0977e-06	8.5674e-06	1125.4	225.95	7.6892e-06	9.1131e-06	284.09	79.91	63.29	18.644	8.6518e-06	26.034	107.798	170.825	192.709	101.074	236.885	244.613	100.760	108.744	219.180	246.748	108.090	114.411	115.347	122.736	242.568	122.024	-8191	255	
2568.440	1	1	0	0	0.31248	0.071344	0.11654	0.19309	0.35724	0.15892	0.23299	0.12358	0.281	0.158	0.22997	0.049112	0.11409	0.086757	0.18511	0.23327	-2.4208	-2.2104	-3.0396	-2.3979	-2.2604	-2.8521	-2.1229	-2.7604	-2.8	-2.2583	-2.8979	-2.4479	-2.4313	-3.0312	-2.0979	-2.7438	144.626	126.320	414.063	426.445	372.212	137.841	423.996	426.940	265.012	223.646	110.553	164.158	349.591	414.402	313.805	190.143	0.00059886	0.00024791	5.0466e-05	1046	4.9906e-06	3.6138e-06	1131.6	226.23	3.1059e-06	2.5906e-06	282.83	79.282	62.986	18.202	4.7747e-06	25.334	0.00062068	0.00084194	0.00021836	1037.9	8.5297e-06	9.3274e-06	1127.3	225.9	8.4036e-06	9.2857e-06	284.3	79.9	63.372	18.656	8.4894e-06	25.976	112.961	171.746	170.568	100.967	234.614	232.425	101.146	109.066	233.665	222.514	107.848	114.768	114.769	122.642	236.820	122.203	-8191	255	
2568.536	1	1	0	0	0.10876	0.29228	0.060074	0.12442	0.32217	0.37089	0.37803	0.22136	0.13402	0.12747	0.17564	0.2015	0.13733	0.1965	0.38496	0.10449	-2.4354	-2.1188	-3.0042	-2.7	-2.1021	-2.9958	-2.4313	-2.75	-2.7375	-2.2062	-3.0333	-2.6562	-2.2208	-3.0563	-2.2375	-2.6583	128.349	228.050	117.946	429.446	125.475	188.673	115.671	381.425	132.890	261.899	410.366	266.146	347.352	422.049	415.973	278.056	0.00056374	0.00011503	8.6908e-05	1044.3	3.5404e-06	3.3819e-06	1137.7	226.13	4.4849e-06	2.1368e-06	283.26	80.116	62.662	18.128	3.7431e-06	25.567	0.00061249	0.00084067	0.0002211	1038.3	8.4526e-06	8.8683e-06	1129.2	226.39	8.206e-06	8.7362e-06	285.33	79.987	63.343	18.64	8.24e-06	26.09	113.348	163.729	196.835	101.175	241.793	237.417	100.799	108.996	205.733	239.822	108.280	114.850	115.194	122.644	241.076	121.399	-8191	255	
2568.633	1	1	0	0	0.083563	0.14839	0.15855	0.13964	0.23976	0.051606	0.1686	0.15354	0.12614	0.29882	0.26811	0.20743	0.055178	0.36551	0.19507	0.22083	-2.4896	-2.0042	-2.8021	-2.7625	-2.0938	-3.0667	-2.4	-2.4646	-3.1229	-2.1188	-2.8979	-2.9396	-2.125	-3.1562	-2.4521	-2.6375	201.953	260.717	317.212	401.182	170.621	177.198	392.488	326.720	417.008	94.502	423.860	379.403	179.671	450.711	293.563	261.646	0.00062229	0.00029631	6.5871e-05	1047.5	4.1e-06	3.8351e-06	1133.2	226.22	4.8988e-06	2.6981e-06	282.64	79.913	63.091	18.203	3.6472e-06	25.323	0.00062884	0.0008258	0.00022789	1039.9	8.886e-06	9.6232e-06	1128.3	226.6	7.9351e-06	9.5968e-06	285.01	79.932	63.304	18.673	9.0148e-06	26.054	110.779	185.176	213.139	100.961	208.853	270.932	101.120	108.810	249.722	244.124	108.157	114.983	114.789	122.591	206.170	121.798	-8191	255	
2568.729	1	1	0	0	0.0090169	0.18929	0.31024	0.15022	0.10065	0.17172	0.15893	0.11797	0.066216	0.16425	0.31599	0.15998	0.065396	0.32667	0.13581	0.15647	-2.6625	-2.2438	-2.8125	-2.8542	-2.15	-2.7875	-2.6292	-2.3625	-2.8125	-2.1937	-2.7854	-2.8208	-2.0604	-3.15	-2.3833	-2.4271	192.769	429.463	368.961	340.871	125.428	240.455	426.435	259.419	96.689	294.346	369.367	446.332	374.423	147.757	121.986	348.558	0.00062133	0.0002101	9.2983e-05	1046.6	5.9685e-06	5.8005e-06	1141.5	226.37	2.7828e-06	3.252e-06	282.49	79.892	63.212	18.198	3.1367e-06	25.617	0.00062359	0.00086161	0.00021995	1042.3	9.3072e-06	8.8769e-06	1132.5	226.67	8.3311e-06	9.1301e-06	285.78	80.11	63.473	18.642	8.2369e-06	26.085	109.684	188.214	188.766	100.980	235.891	252.592	100.917	108.741	176.414	293.773	107.906	114.877	115.389	122.743	234.159	121.683	-8191	255	
2568.848	1	1	0	0	0.28584	0.027794	0.31692	0.3767	0.1363	0.12124	0.23954	0.25607	0.20644	0.12541	0.19803	0.072012	0.21379	0.16876	0.11602	0.16997	-2.7854	-2.2729	-2.625	-2.9854	-1.9813	-3	-2.775	-2.3792	-2.8708	-2.3333	-2.7021	-3.0333	-2.2292	-2.9562	-2.7208	-2.2583	361.275	397.429	366.686	419.625	436.036	248.825	409.028	430.652	357.111	438.637	432.116	159.833	350.329	426.477	116.912	353.488	0.00063032	0.00027361	0.00010114	1047.8	4.32e-06	3.2215e-06	1139.9	227.68	3.7006e-06	3.3956e-06	283.69	79.697	63.008	18.282	4.4583e-06	25.352	0.00063948	0.00081147	0.00022309	1043.8	8.7503e-06	8.9634e-06	1133.8	226.9	7.9038e-06	8.8849e-06	285.22	80.055	63.424	18.707	8.4558e-06	26.087	109.536	201.977	179.538	100.787	218.258	243.236	100.633	108.509	202.108	268.193	107.803	114.452	115.312	122.298	244.538	121.787	-8191	255	
2568.944	1	1	0	0	0.10203	0.050548	0.27672	0.053546	0.089552	0.10429	0.081492	0.31606	0.073374	0.134	0.1879	0.080999	0.136	0.1572	0.18923	0.22658	-2.8292	-2.1958	-2.5271	-3.0021	-1.975	-2.7917	-2.6333	-2.4417	-2.95	-2.4479	-2.7229	-3.1208	-2.1333	-2.7833	-2.6521	-2.2146	400.043	333.145	268.018	193.553	186.698	284.357	374.922	443.093	379.419	297.307	325.500	103.326	372.925	208.259	335.005	299.713	0.00060134	0.00025767	0.00012191	1051.1	4.4077e-06	2.8946e-06	1140.7	226.47	4.1945e-06	2.6529e-06	282.44	80.001	63.142	18.324	3.0294e-06	25.483	0.00062355	0.00081409	0.00023314	1043.6	8.8196e-06	8.9928e-06	1133.4	226.66	8.1121e-06	8.9285e-06	285.42	80.199	63.525	18.684	8.2858e-06	26.121	107.655	164.715	182.784	101.119	235.511	225.801	100.907	108.814	213.426	229.664	108.061	115.022	115.120	122.704	262.279	121.687	-8191	255	
2569.040	1	1	0	0	0.33888	0.061301	0.27458	0.21319	0.21834	0.21511	0.18079	0.23386	0.24366	0.23517	0.042359	0.15754	0.20239	0.28113	0.1128	0.077971	-2.5917	-2.6312	-2.4208	-3.0979	-2.1708	-2.9146	-2.9583	-2.1104	-3.0708	-2.3771	-2.3833	-3.1188	-2.2521	-2.6437	-2.8312	-2.0583	351.612	124.238	253.395	396.796	259.929	310.059	418.945	432.111	156.759	302.891	277.054	401.851	448.167	263.472	149.112	442.324	0.00063145	0.00024149	6.7525e-05	1050.8	6.0634e-06	3.6796e-06	1140.7	226.87	5.7868e-06	4.7843e-06	285.26	79.452	63.306	18.308	4.1283e-06	25.602	0.00061819	0.00077769	0.00023592	1044.1	8.2134e-06	8.8207e-06	1131.8	226.6	8.3396e-06	9.0002e-06	286.16	80.132	63.623	18.698	8.3338e-06	26.056	109.076	177.817	160.694	101.108	229.635	257.526	100.983	108.556	218.407	244.783	108.170	115.002	115.041	122.308	224.447	121.707	-8191	255	
2569.136	1	1	0	0	0.31156	0.23079	0.14971	0.25255	0.17553	0.40876	0.23704	0.2513	0.11476	0.066464	0.082895	0.30428	0.065351	0.16993	0.20886	0.277	-2.4042	-2.4354	-2.225	-3.175	-2.2875	-2.5458	-3.0062	-2.0896	-3.0375	-2.7729	-2.3438	-2.9938	-2.2729	-2.2188	-2.9083	-2.3	262.629	228.769	137.526	439.591	97.022	444.511	407.450	376.613	144.715	358.691	214.025	386.404	224.322	382.667	392.712	381.334	0.00059602	0.00023106	0.00011386	1048.6	3.7968e-06	3.1417e-06	1133.1	224.73	4.7898e-06	9.9819e-07	282.5	79.147	63.345	18.316	2.7456e-06	25.216	0.00060594	0.00080396	0.00023516	1043.3	8.2113e-06	9.4122e-06	1128.5	225.93	8.4377e-06	9.1045e-06	285.33	79.986	63.439	18.699	8.2347e-06	26.035	106.757	208.577	191.008	101.130	217.839	266.130	100.908	108.647	230.652	299.231	108.429	115.003	115.298	122.670	215.438	121.908	-8191	255	
2569.232	1	1	0	0	0.069858	0.1903	0.15505	0.22372	0.055432	0.17154	0.11203	0.15507	0.081982	0.18428	0.21265	0.20357	0.29894	0.066592	0.11948	0.074043	-2.4833	-2.6625	-2.0875	-3.1042	-2.3438	-2.4917	-3.0812	-2.2521	-2.6958	-2.8271	-2.1688	-3.0604	-2.4646	-2.3521	-3.1437	-2.4146	277.206	421.567	190.189	424.644	133.031	262.438	283.153	358.117	217.695	227.866	427.720	297.531	121.497	110.133	276.235	103.091	0.00055697	0.00044363	9.8143e-05	1049.8	4.3966e-06	3.9252e-06	1137.6	226.34	3.61e-06	1.3182e-06	283.91	79.728	63.313	18.384	2.2879e-06	25.506	0.00062662	0.00083962	0.00024222	1044.9	8.2741e-06	9.0706e-06	1133.1	226.51	8.0048e-06	8.9148e-06	285.93	80.177	63.462	18.731	8.2705e-06	26.104	115.183	192.343	206.036	101.292	222.125	249.935	101.131	109.084	222.283	256.464	108.192	115.378	115.133	123.058	187.276	122.432	-8191	255	
2569.328	1	1	0	0	0.24718	0.32392	0.25253	0.13237	0.14328	0.10329	0.25535	0.092203	0.25214	0.17488	0.083881	0.14892	0.12007	0.22865	0.021066	0.14765	-2.6	-3.0062	-1.9583	-3.0604	-2.5479	-2.3979	-3.1312	-2.45	-2.5187	-2.8917	-2.2521	-3.1104	-2.6917	-2.2146	-2.8771	-2.5312	407.590	343.869	399.302	445.492	141.465	158.632	432.706	263.487	150.685	330.767	423.655	365.657	167.666	116.720	173.822	426.422	0.00059897	0.00026216	8.0684e-05	1048.8	2.9842e-06	4.7628e-06	1136.4	226.78	4.5635e-06	3.6999e-06	282.66	79.184	63.053	18.149	3.5458e-06	25.3	0.00064411	0.00080479	0.00023329	1044.7	8.2184e-06	8.9997e-06	1131.5	226.39	8.1754e-06	9.2524e-06	285.51	79.948	63.474	18.694	8.4268e-06	26.048	113.035	170.840	177.912	100.982	244.405	237.875	101.086	108.855	206.147	246.648	108.322	114.642	115.228	122.992	232.685	121.729	-8191	255	
2569.449	1	1	0	0	0.082867	0.20056	0.29121	0.13287	0.026096	0.33168	0.31527	0.13108	0.1609	0.18992	0.32131	0.093479	0.075212	0.3541	0.13854	0.30069	-2.1188	-2.85	-2.2167	-2.9667	-2.5958	-2.2271	-3.2396	-2.5125	-2.4021	-2.8896	-2.4125	-3.0083	-2.8229	-2.3438	-3.0062	-2.6813	105.475	396.639	171.710	448.214	360.065	395.694	420.760	399.405	119.919	322.986	408.108	369.427	140.753	407.001	333.649	412.030	0.00061905	0.00040479	6.5254e-05	1045.1	3.7524e-06	1.1114e-06	1138	227.27	4.97e-06	2.0578e-06	286.25	79.64	62.587	18.142	4.7793e-06	25.193	0.00061728	0.00079886	0.00022663	1042.4	8.716e-06	9.2747e-06	1131.9	226.9	8.3745e-06	9.1301e-06	285.58	80.15	63.384	18.667	8.1485e-06	26.055	109.400	203.185	201.418	101.526	262.425	214.246	101.084	108.999	235.448	258.646	108.520	115.215	115.288	123.042	230.291	121.915	-8191	255	
2569.543	1	1	0	0	0.22126	0.22744	0.25974	0.14644	0.063632	0.070017	0.099515	0.16684	0.22621	0.25561	0.19741	0.36739	0.063915	0.054955	0.13675	0.22033	-1.9854	-2.9125	-2.2458	-2.925	-2.7687	-2.3875	-3.2	-2.6083	-2.3917	-3.0187	-2.1271	-2.7208	-2.8229	-2.0771	-2.9854	-2.6688	140.441	254.006	128.613	388.515	235.978	444.036	156.579	399.130	129.138	135.047	395.547	200.134	151.991	411.349	387.139	437.772	0.00060578	0.00019872	7.6081e-05	1050.1	3.5503e-06	3.3075e-06	1134.7	225.93	5.2215e-06	5.4298e-06	284.64	79.962	63.038	18.329	3.3881e-06	25.44	0.00064128	0.00078084	0.00021885	1042.6	8.4626e-06	8.5475e-06	1132	226.51	8.6339e-06	8.9515e-06	286.16	80.264	63.512	18.732	8.2377e-06	26.038	110.802	193.148	203.530	101.577	239.464	283.535	101.153	109.059	231.329	255.202	107.945	114.901	115.515	122.596	230.950	121.895	-8191	255	
2569.617	1	1	0	0	0.15539	0.20385	0.23636	0.17281	0.22603	0.41883	0.22262	0.10239	0.087045	0.15266	0.29988	0.14787	0.2309	0.21218	0.18789	0.19085	-1.7354	-2.9	-2.1208	-2.7854	-2.9125	-2.1063	-3.0604	-2.8042	-2.0521	-3.0938	-2.3458	-2.7167	-2.9062	-2.1437	-2.9271	-2.6708	151.015	224.850	320.486	120.291	298.919	253.689	403.844	179.375	95.501	445.799	357.918	266.304	101.612	329.735	312.848	144.983	0.00057542	0.00029928	0.00013918	1053.1	3.5712e-06	4.8219e-06	1139.7	225.48	5.5107e-06	1.9423e-06	285.03	79.849	62.935	18.309	2.7202e-06	25.236	0.00064855	0.00082851	0.00024158	1045.5	8.5283e-06	9.7157e-06	1134.1	226.41	8.4157e-06	8.9096e-06	285.42	80.202	63.575	18.697	8.526e-06	26.004	112.763	189.550	186.136	101.430	201.886	258.606	100.916	108.931	203.476	260.282	107.961	115.128	114.908	122.523	236.059	121.861	-8191	255	
2569.713	1	1	0	0	0.10531	0.18618	0.044362	0.16517	0.16846	0.14243	0.25706	0.14879	0.16604	0.15559	0.074108	0.34639	0.24316	0.043224	0.19925	0.15381	-1.6667	-2.8771	-2.3937	-2.5625	-3.0542	-2.0354	-2.8667	-2.9208	-2.2854	-3.0396	-2.3438	-2.3917	-2.9354	-2.1271	-2.8312	-2.8292	104.288	102.726	314.104	385.400	393.226	143.457	434.346	158.768	336.030	333.885	424.891	381.955	374.140	250.597	344.707	240.952	0.00054726	0.0003777	9.3967e-05	1045.9	4.6076e-06	3.1015e-06	1139.9	226.16	2.1633e-06	3.2388e-06	284.03	79.384	63.37	18.19	4.3887e-06	25.266	0.00062439	0.00079735	0.00023232	1042.6	8.5297e-06	8.7982e-06	1133.8	226.29	8.4221e-06	8.6456e-06	285.81	80.176	63.738	18.653	8.0943e-06	26.028	108.323	173.357	205.713	101.285	210.913	261.693	101.290	108.941	205.727	223.572	107.738	114.886	115.409	123.098	236.279	122.005	-8191	255	
2569.832	1	1	0	0	0.24904	0.15837	0.024892	0.20739	0.052416	0.13363	0.34892	0.10976	0.11816	0.071678	0.19138	0.28886	0.26017	0.22615	0.051953	0.032918	-1.7625	-2.9062	-2.5354	-2.3854	-2.9979	-2.3333	-2.8354	-2.9062	-2.1667	-2.6979	-2.7708	-2.3104	-3.1167	-2.3542	-2.6104	-3.0958	276.342	296.587	248.925	357.886	306.818	137.118	332.342	398.627	279.344	417.152	376.404	109.901	97.760	288.069	282.542	300.194	0.00061589	0.00024912	0.00012704	1053.4	3.1613e-06	2.4938e-06	1139.6	226.89	5.6771e-06	3.0658e-06	283.81	79.687	63.086	18.245	2.2432e-06	25.513	0.00063006	0.00078016	0.00023056	1045	8.0642e-06	9.3767e-06	1133.7	226.62	8.8863e-06	8.6456e-06	285.45	79.97	63.515	18.654	8.33e-06	26.025	112.079	180.437	158.205	101.326	221.360	252.800	101.470	108.939	189.243	215.922	108.241	115.215	115.469	122.746	208.691	122.127	-8191	255	
2569.928	1	1	0	0	0.15504	0.2611	0.20037	0.25859	0.15304	0.20362	0.14507	0.29355	0.21714	0.13767	0.11921	0.24773	0.042697	0.26586	0.25372	0.2366	-1.5833	-2.8958	-2.6937	-2.3417	-3.0646	-2.2271	-2.6146	-2.9938	-1.8667	-2.9125	-2.6458	-2.2896	-2.9771	-2.2771	-2.6417	-2.8354	400.259	274.954	251.361	439.708	173.785	198.476	295.352	431.219	271.674	239.125	383.664	227.613	114.375	407.423	300.386	357.309	0.00058688	0.0003809	0.00010341	1050.7	2.5871e-06	3.859e-06	1139.5	226.8	6.3981e-06	4.5553e-06	285.69	79.949	63.21	18.25	3.8715e-06	25.455	0.00063331	0.00081725	0.00023976	1044.8	8.3669e-06	9.4666e-06	1134.1	226.75	8.8138e-06	9.0686e-06	285.96	80.249	63.452	18.654	8.8325e-06	26.109	109.567	169.963	178.620	101.484	247.157	230.636	101.509	109.078	226.189	257.373	108.395	115.346	115.589	122.868	239.067	122.093	-8191	255	
2570.024	1	1	0	0	0.13858	0.28409	0.3592	0.40742	0.17767	0.23318	0.37651	0.18598	0.25956	0.27259	0.1338	0.10463	0.23006	0.27317	0.27088	0.089224	-1.7521	-2.7625	-2.6646	-2.3979	-3.0292	-2.4354	-2.5479	-3.0604	-2.3167	-2.7458	-3.0062	-2.2646	-2.9583	-2.375	-2.2646	-3.1562	182.775	422.085	130.242	423.605	285.090	247.662	386.559	393.078	205.265	401.523	363.204	226.780	215.005	208.981	388.191	435.820	0.00061777	0.00023666	6.3818e-05	1051.5	2.6422e-06	3.5448e-06	1140.2	227.53	4.635e-06	2.062e-06	285.22	78.886	63.259	18.217	1.6122e-06	25.289	0.00064323	0.00077769	0.0002239	1044.5	8.3055e-06	9.5739e-06	1131.5	226.82	8.2813e-06	9.1301e-06	285.89	79.951	63.503	18.671	8.4184e-06	26.012	108.355	218.223	190.612	101.392	206.961	259.504	101.340	108.869	222.273	261.153	108.259	114.775	115.237	122.796	265.078	122.066	-8191	255	
2570.120	1	1	0	0	0.071885	0.33446	0.036989	0.089085	0.11075	0.33218	0.13334	0.15229	0.11598	0.053055	0.062093	0.12854	0.34773	0.084468	0.26999	0.20517	-1.5542	-2.5708	-2.8583	-2.2708	-2.8125	-2.3979	-2.4292	-3.0687	-2.1813	-2.6312	-2.9271	-2.1729	-3.0625	-2.6771	-2.2354	-3.1229	265.861	194.694	367.075	118.261	145.572	303.920	423.813	356.003	227.377	167.617	387.525	446.813	150.787	262.414	329.514	386.777	0.00055813	0.00031888	3.1846e-05	1049.3	2.0347e-06	3.228e-06	1138.9	227.17	4.7831e-06	2.6105e-06	285.06	79.587	63.078	18.133	2.8329e-06	25.426	0.00061039	0.00083271	0.000224	1042.9	7.9457e-06	9.5082e-06	1131.7	226.72	7.987e-06	9.4729e-06	285.48	80.066	63.488	18.654	8.4711e-06	26.051	111.603	162.197	209.854	101.445	236.719	251.478	101.325	108.989	208.069	253.635	108.328	115.167	115.452	122.628	265.927	121.858	-8191	255	
2570.216	1	1	0	0	0.054729	0.26919	0.034672	0.18689	0.1555	0.052037	0.29942	0.17252	0.08861	0.049625	0.2437	0.025547	0.14168	0.10239	0.365	0.24148	-1.9562	-2.4688	-2.9125	-2.1833	-2.8875	-2.5896	-2.2146	-3.0812	-2.2542	-2.4521	-3.1354	-2.2229	-2.7396	-2.8312	-2.0667	-2.9479	176.956	298.564	137.498	429.063	215.790	175.384	410.015	399.554	114.986	370.720	331.338	295.009	156.417	435.383	301.145	247.055	0.00055688	0.00040442	6.7502e-05	1048.1	4.3817e-06	3.6129e-06	1139.6	226.62	4.3689e-06	3.0393e-06	283.55	79.425	62.976	18.401	2.8899e-06	25.413	0.00063132	0.0007969	0.00022909	1042.8	8.2612e-06	9.3923e-06	1132.3	226.7	8.4697e-06	9.2695e-06	285.31	80.011	63.438	18.713	8.2209e-06	26.024	105.885	199.263	173.765	101.177	236.607	276.410	101.088	108.708	237.539	238.311	108.162	115.206	115.363	122.733	248.258	121.581	-8191	255	
2570.313	1	1	0	0	0.32298	0.21005	0.19031	0.18654	0.24032	0.080437	0.23012	0.0263	0.29918	0.13031	0.10222	0.091643	0.098801	0.13342	0.22943	0.11482	-1.9729	-2.2438	-2.9417	-2.2708	-2.7687	-2.6354	-2.1625	-2.95	-2.35	-2.2625	-2.8625	-2.3771	-2.7333	-2.8438	-2.1021	-3.0354	269.950	359.785	405.857	408.070	449.333	391.193	383.840	301.795	116.144	260.609	339.857	220.846	374.974	433.379	220.870	393.616	0.00062204	0.00021126	0.00011344	1050.1	3.8219e-06	3.5226e-06	1140.9	226.23	5.4255e-06	2.5993e-06	285.25	79.712	63.121	18.237	1.9583e-06	25.339	0.00064365	0.00083624	0.00021639	1043.9	8.3248e-06	8.9746e-06	1133.5	226.74	8.3283e-06	8.8293e-06	286.5	79.991	63.569	18.699	8.6099e-06	26.053	109.869	137.161	187.594	101.113	236.105	224.712	101.115	109.091	223.192	241.236	108.297	115.141	115.835	122.687	274.192	122.123	-8191	255	
2570.409	1	1	0	0	0.03554	0.11066	0.24803	0.25789	0.19972	0.079549	0.18517	0.038538	0.14228	0.21771	0.17982	0.38792	0.11113	0.12018	0.066152	0.1089	-2.0729	-1.9729	-3.0229	-2.3729	-2.45	-2.8625	-2.3875	-3.0604	-2.75	-2.325	-3.0771	-2.3729	-2.6396	-2.8979	-2.075	-2.9125	281.640	377.020	428.531	394.237	250.000	160.729	206.438	285.996	205.451	332.201	406.681	278.519	432.047	407.534	190.690	352.710	0.00056505	0.00031702	4.9423e-05	1053.8	4.381e-06	3.2737e-06	1142.9	227.86	3.0274e-06	3.8617e-06	283.53	79.682	63.386	18.251	3.6697e-06	25.304	0.00063109	0.00081424	0.0002152	1043.6	8.479e-06	9.247e-06	1133.5	227.11	8.2856e-06	9.2532e-06	285.71	80.016	63.486	18.677	8.1279e-06	26.022	103.063	184.433	176.580	101.178	257.858	242.207	101.298	108.888	211.634	246.330	108.116	115.022	115.173	122.599	229.059	121.967	-8191	255	
2570.529	1	1	0	0	0.13154	0.2397	0.25081	0.089918	0.040003	0.19959	0.32244	0.21733	0.11495	0.16488	0.2945	0.31384	0.17209	0.15134	0.14862	0.18968	-2.2021	-2.25	-2.9667	-2.4458	-2.5667	-2.8458	-2.2625	-2.6583	-2.6917	-2.3021	-2.9188	-2.5479	-2.4083	-3.0958	-2.1646	-2.8396	230.012	127.558	296.267	389.694	233.134	329.934	307.871	106.516	229.644	439.682	371.321	388.654	351.227	376.669	92.152	250.606	0.00064292	0.00041398	6.8754e-05	1048.9	5.0293e-06	3.039e-06	1141.2	226.1	3.4678e-06	2.8967e-06	284.33	79.982	63.128	18.223	3.7454e-06	25.416	0.00062811	0.00081995	0.00022534	1042.8	8.7703e-06	9.2453e-06	1133	226.63	8.3816e-06	9.1037e-06	285.73	80.181	63.408	18.668	8.3323e-06	26.002	106.916	197.550	144.160	100.875	210.040	261.777	101.016	108.850	212.204	267.767	107.871	114.859	115.423	122.748	239.311	121.722	-8191	255	
2570.624	1	1	0	0	0.14589	0.032189	0.029244	0.098228	0.27304	0.075377	0.11958	0.05797	0.070371	0.048197	0.1446	0.030715	0.13099	0.22812	0.48597	0.18866	-2.125	-2.0646	-2.9583	-2.5625	-2.2354	-3.0646	-2.2583	-2.6083	-2.8937	-2.2479	-3.0021	-2.5875	-2.3438	-3.0271	-2.2229	-2.6125	231.489	103.521	274.075	382.416	237.701	422.881	101.848	121.594	414.893	381.640	365.817	302.119	241.007	383.049	429.358	380.109	0.00057605	0.00018803	0.00010904	1052.4	3.9397e-06	2.1336e-06	1136.3	227.3	4.2878e-06	3.551e-06	283.76	79.638	63.559	18.18	4.0864e-06	25.503	0.00063527	0.00082513	0.00022017	1042.9	8.5547e-06	9.2038e-06	1131.8	227.02	8.3112e-06	9.1327e-06	285.19	80.088	63.491	18.662	8.4291e-06	26.05	109.045	149.475	189.290	101.263	241.548	248.618	101.036	109.173	224.422	220.354	108.552	114.991	115.374	123.019	216.240	122.108	-8191	255	
2570.722	1	1	0	0	0.052468	0.19376	0.22055	0.15516	0.42879	0.011453	0.21877	0.071726	0.24981	0.17959	0.1387	0.093845	0.12411	0.15614	0.32331	0.26638	-2.5104	-2.0333	-2.7521	-2.8458	-2.2562	-3.0917	-2.2854	-2.5271	-2.9458	-2.1542	-2.9208	-2.75	-2.25	-3.2604	-2.5708	-2.5042	406.575	284.683	190.645	385.276	336.854	264.904	329.964	145.049	426.419	364.289	389.676	433.791	157.862	117.650	168.574	378.952	0.00060445	0.00026877	4.0845e-05	1047	4.4481e-06	3.7503e-06	1139.1	227.52	5.873e-06	3.5005e-06	284.42	79.861	63.23	18.239	3.6451e-06	25.569	0.00062325	0.00081484	0.00022434	1042.8	8.5368e-06	8.9444e-06	1133.1	227.06	8.2259e-06	9.278e-06	286.47	80.178	63.519	18.706	8.4741e-06	26.145	110.660	161.479	158.609	101.271	232.645	284.275	101.066	108.861	218.299	246.841	108.238	114.628	115.293	122.690	245.901	121.470	-8191	255	
2570.841	1	1	0	0	0.21892	0.18539	0.24259	0.11739	0.11514	0.18419	0.21762	0.19424	0.090411	0.21555	0.18913	0.11133	0.30322	0.16759	0.21794	0.11224	-2.5229	-2.1688	-2.8208	-2.8292	-1.9937	-2.9146	-2.5333	-2.6979	-3.0375	-2.3021	-2.7542	-2.8083	-2.1042	-2.8771	-2.5083	-2.3688	146.934	390.474	131.031	96.261	282.090	215.798	414.274	318.688	302.747	448.550	325.457	124.760	164.782	135.848	221.686	420.231	0.00060623	0.00039437	0.00011215	1047.2	3.1601e-06	3.3384e-06	1140.4	227.43	4.3206e-06	3.5532e-06	282.91	79.989	62.743	18.118	3.5091e-06	25.526	0.00060652	0.00080651	0.0002271	1043.2	8.559e-06	8.608e-06	1131.5	227.29	7.6323e-06	8.8473e-06	285.71	80.156	63.488	18.665	8.0966e-06	26.103	109.485	174.868	154.027	101.154	224.886	265.944	101.074	108.642	194.354	254.020	108.073	114.518	115.225	122.585	223.624	121.667	-8191	255	
2570.912	1	1	0	0	0.15271	0.14189	0.22563	0.036372	0.28638	0.14274	0.39374	0.12295	0.13685	0.2589	0.29396	0.34816	0.16768	0.14506	0.19911	0.17448	-2.8021	-2.2396	-2.4562	-2.8458	-2.1729	-2.9813	-2.7083	-2.4479	-3.0812	-2.2625	-2.6792	-2.9271	-2.4604	-2.8125	-2.7042	-2.3187	229.212	284.874	343.600	357.342	415.860	352.700	408.961	192.919	130.292	331.349	230.493	105.102	449.447	320.912	144.297	372.182	0.00058938	0.00015079	8.5917e-05	1050.3	3.4058e-06	2.58e-06	1133.2	225.92	3.8235e-06	2.1537e-06	285	79.946	63.305	18.251	4.0058e-06	25.306	0.00061318	0.00079563	0.00023562	1044	8.6746e-06	9.0594e-06	1131.2	226.87	8.1313e-06	8.9575e-06	286.3	79.988	63.47	18.68	8.7532e-06	26.004	105.317	210.332	160.708	101.095	213.764	195.901	101.165	109.036	210.231	253.686	108.294	115.081	115.742	122.616	258.582	122.084	-8191	255	
2571.008	1	1	0	0	0.29291	0.10752	0.22654	0.13786	0.12574	0.09249	0.29751	0.045487	0.1073	0.24296	0.15224	0.16262	0.23074	0.25358	0.1058	0.11412	-2.5667	-2.1792	-2.4833	-3.0875	-2.1625	-2.6437	-2.8312	-2.3417	-2.8979	-2.2521	-2.3937	-3.0958	-2.075	-2.6896	-2.7333	-2.1604	293.027	103.534	432.269	320.460	423.564	351.862	431.623	150.357	145.277	187.607	377.970	372.794	442.619	420.992	409.091	370.003	0.0005488	0.00026654	8.9201e-05	1048.1	4.6114e-06	3.6661e-06	1137.4	225.79	4.516e-06	2.6206e-06	284.14	79.784	62.651	18.21	3.2798e-06	25.247	0.00059607	0.00081935	0.00023505	1042.1	8.2648e-06	8.7732e-06	1130.3	226.88	8.1519e-06	8.943e-06	286.12	80.167	63.29	18.624	8.1584e-06	25.978	112.812	169.197	195.109	101.213	254.996	260.989	101.015	108.627	219.083	236.073	107.959	114.994	115.601	123.038	266.012	121.483	-8191	255	
2571.129	1	1	0	0	0.14357	0.13293	0.22345	0.30763	0.16454	0.22847	0.28222	0.16402	0.18287	0.070234	0.33349	0.12906	0.17087	0.087978	0.10554	0.24775	-2.7146	-2.3729	-2.2292	-3.1604	-2.1542	-2.7896	-2.9125	-2.2146	-2.8292	-2.5604	-2.4458	-2.9771	-2.1542	-2.5083	-2.7458	-2.0521	295.715	279.422	327.152	427.392	444.955	157.285	97.422	446.983	212.787	139.321	393.966	108.461	152.807	238.760	100.471	372.426	0.00060219	0.00029352	3.241e-05	1046.7	3.3896e-06	2.2561e-06	1141.8	226.56	5.0387e-06	1.6001e-06	284.07	79.691	62.899	18.167	2.7951e-06	25.262	0.00061356	0.00081657	0.00022765	1041.9	8.6611e-06	8.9634e-06	1133.1	226.72	8.046e-06	8.8968e-06	286.11	80.097	63.362	18.64	8.4711e-06	26.008	112.578	197.699	110.514	101.381	245.260	254.454	100.838	108.849	232.577	233.413	108.446	115.144	115.692	123.182	246.469	121.703	-8191	255	
2571.225	1	1	0	0	0.10803	0.032998	0.092974	0.20385	0.12639	0.17154	0.18839	0.14783	0.10123	0.10502	0.24167	0.21964	0.27513	0.10903	0.10687	0.26405	-2.3708	-2.55	-2.0729	-3.0167	-2.3292	-2.3896	-3.1021	-2.0312	-2.775	-2.7396	-2.1604	-3.0312	-2.4208	-2.5062	-2.9271	-2.4375	200.954	189.121	248.040	387.418	386.931	371.909	100.520	271.172	308.107	320.245	403.738	428.324	212.043	281.446	132.474	432.345	0.00061003	0.00035175	0.00012957	1046.1	3.7177e-06	3.2188e-06	1136.5	226.47	3.5349e-06	3.4662e-06	284.46	79.4	63.018	18.226	3.2742e-06	25.321	0.00062217	0.00081102	0.00022931	1041.1	8.5875e-06	9.2176e-06	1132	226.5	7.9785e-06	9.672e-06	285.52	80.044	63.344	18.671	8.5633e-06	25.969	114.264	187.486	190.503	101.307	218.376	236.659	101.055	109.048	213.278	236.260	108.091	115.251	115.614	122.792	228.038	121.838	-8191	255	
2571.321	1	1	0	0	0.14242	0.087078	0.16878	0.31077	0.21254	0.17714	0.23793	0.29463	0.26954	0.28194	0.16349	0.30682	0.15592	0.12917	0.23447	0.34098	-2.4208	-2.7542	-2.1354	-3.1521	-2.3896	-2.2646	-3.2	-2.3146	-2.8708	-2.8729	-2.2292	-3.0854	-2.525	-2.4042	-3.0812	-2.3604	325.841	284.907	361.593	338.865	147.396	168.137	365.006	156.695	345.834	385.087	401.890	158.043	323.126	139.573	236.721	376.711	0.00060048	0.00025596	9.9788e-05	1055.5	5.2465e-06	1.0658e-06	1140.3	227.07	3.7361e-06	3.4016e-06	285.13	78.961	62.726	18.307	3.4134e-06	25.342	0.00064759	0.00080141	0.00023808	1045.4	8.4883e-06	9.7788e-06	1132.3	226.82	8.1804e-06	9.1515e-06	285.41	79.962	63.345	18.712	8.1294e-06	26.071	108.025	213.794	182.941	101.412	222.591	249.096	101.264	108.970	225.910	261.855	108.296	114.684	115.487	122.676	203.426	122.335	-8191	255	
2571.417	1	1	0	0	0.070016	0.0968	0.25775	0.34123	0.23153	0.11269	0.28253	0.28862	0.27359	0.1344	0.20554	0.10154	0.23667	0.36473	0.25364	0.1476	-2.3292	-2.6021	-2.1813	-3.0792	-2.5917	-2.1542	-3.2062	-2.2854	-2.7021	-2.9104	-2.2188	-3.0354	-2.5896	-2.4583	-2.9646	-2.3354	336.790	339.571	365.666	396.640	434.643	200.185	390.055	407.317	223.812	318.629	369.565	143.682	410.548	378.729	304.779	93.037	0.00064499	0.0003195	0.00011204	1054.5	4.1721e-06	2.6153e-06	1139.3	226.66	4.3826e-06	9.8397e-07	284.33	79.498	63.179	18.245	1.7006e-06	25.22	0.00063729	0.00082783	0.00023575	1044.3	8.4326e-06	1.003e-05	1132.9	226.36	8.0261e-06	9.1054e-06	285.57	79.894	63.382	18.662	8.2957e-06	25.973	110.040	201.022	197.017	101.471	227.880	231.691	101.334	108.788	245.644	267.960	108.214	115.099	116.100	122.702	198.692	122.294	-8191	255	
2571.514	1	1	0	0	0.1533	0.21917	0.15896	0.26434	0.12951	0.055631	0.13855	0.4651	0.29881	0.20648	0.10638	0.046043	0.098114	0.18316	0.09939	0.065481	-2.1271	-3.0021	-2.1229	-2.8521	-2.7021	-1.9333	-2.9313	-2.4292	-2.4	-3.0521	-2.1875	-2.6417	-2.7479	-2.1354	-3.1229	-2.4042	143.249	189.614	396.022	418.207	337.729	98.022	104.175	400.739	346.605	334.441	351.126	232.766	406.310	289.801	178.983	395.158	0.00061148	0.00039967	8.8619e-05	1051.5	4.672e-06	4.1685e-06	1143.6	226.35	3.6842e-06	5.3967e-06	284.99	80	63.246	18.346	3.7693e-06	25.359	0.00062826	0.00081612	0.00023217	1044.8	8.6711e-06	9.6275e-06	1134.2	226.48	8.1221e-06	8.6661e-06	285.67	80.264	63.4	18.722	7.7992e-06	26.025	106.057	164.234	191.855	101.660	236.600	242.012	101.315	109.225	230.688	283.223	108.548	115.427	115.374	123.118	238.878	122.216	-8191	255	
2571.610	1	1	0	0	0.085013	0.13104	0.18634	0.17836	0.19189	0.23428	0.28	0.14643	0.24782	0.25554	0.037935	0.22289	0.1306	0.086973	0.10471	0.054721	-1.9188	-3.0625	-2.1146	-2.5542	-2.8458	-2.1896	-3.0625	-2.4521	-2.25	-3.0125	-2.4062	-2.7917	-2.9854	-2.0292	-2.8917	-2.6	269.157	164.270	430.061	419.928	127.794	382.769	368.745	346.358	414.524	402.530	313.128	437.227	326.652	280.349	366.401	97.661	0.00067077	0.00027283	4.1739e-05	1049.3	3.5103e-06	2.471e-06	1145.2	226.62	4.1959e-06	2.0268e-06	284.81	79.775	63.036	18.33	1.8904e-06	25.333	0.00064288	0.0008183	0.00022676	1043.5	8.7524e-06	9.4174e-06	1131.7	226.73	8.3624e-06	8.4986e-06	285.96	80.066	63.238	18.648	8.1759e-06	25.99	110.918	197.579	172.227	101.707	221.455	304.754	101.488	108.804	219.973	224.892	108.464	114.910	115.269	122.998	258.621	121.612	-8191	255	
#DATA ENDS
