BOXY.EXE: ISS Imagent and Oximeter Data Acquisition Program Version 0.80
Ascii Record File

#ACQ INFORMATION
2  Detector Channels 
16  External MUX Channels 
1  Auxiliary Channels 
5000  Waveform (CCF) Frequency (Hz)
1  Waveforms Skipped 
30  Waveforms Averaged 
1  Cycles Averaged 
16  Acquisitions per Waveform 
10.0806  Updata Rate (Hz) 

#FILE INFORMATION
TRUE -- External MUX Channel results are PARSED.
FALSE -- AC DC and Phase are NOT grouped.
TRUE -- Companion Program Settings File CREATED.
FALSE -- AC data not excluded
FALSE -- DC data not excluded
FALSE -- Phase data not excluded
FALSE -- Auxillary Chn. data not excluded
Tab delimiters

#CALIBRATION STATE
TRUE -- Waveform Calibration Values APPLIED.


#AUX CALIBRATION VALUES
Val Type	aux-1	

Term	1.0000e+00	
Factor	0.0000e+00	


#WF CALIBRATION VALUES
A = Detector Channel
Val Type	A-AC1	A-AC2	A-AC3	A-AC4	A-AC5	A-AC6	A-AC7	A-AC8	A-AC9	A-AC10	A-AC11	A-AC12	A-AC13	A-AC14	A-AC15	A-AC16	A-DC1	A-DC2	A-DC3	A-DC4	A-DC5	A-DC6	A-DC7	A-DC8	A-DC9	A-DC10	A-DC11	A-DC12	A-DC13	A-DC14	A-DC15	A-DC16	A-Ph1	A-Ph2	A-Ph3	A-Ph4	A-Ph5	A-Ph6	A-Ph7	A-Ph8	A-Ph9	A-Ph10	A-Ph11	A-Ph12	A-Ph13	A-Ph14	A-Ph15	A-Ph16	

Term	0.00000e+00	0.00000e+00	0.00000e+00	0.00000e+00	0.00000e+00	0.00000e+00	0.00000e+00	0.00000e+00	0.00000e+00	0.00000e+00	0.00000e+00	0.00000e+00	0.00000e+00	0.00000e+00	0.00000e+00	0.00000e+00	0.00000e+00	0.00000e+00	0.00000e+00	0.00000e+00	0.00000e+00	0.00000e+00	0.00000e+00	0.00000e+00	0.00000e+00	0.00000e+00	0.00000e+00	0.00000e+00	0.00000e+00	0.00000e+00	0.00000e+00	0.00000e+00	0.00000e+00	0.00000e+00	0.00000e+00	0.00000e+00	0.00000e+00	0.00000e+00	0.00000e+00	0.00000e+00	0.00000e+00	0.00000e+00	0.00000e+00	0.00000e+00	0.00000e+00	0.00000e+00	0.00000e+00	0.00000e+00	
Factor	1.00000e+00	1.00000e+00	1.00000e+00	1.00000e+00	1.00000e+00	1.00000e+00	1.00000e+00	1.00000e+00	1.00000e+00	1.00000e+00	1.00000e+00	1.00000e+00	1.00000e+00	1.00000e+00	1.00000e+00	1.00000e+00	1.00000e+00	1.00000e+00	1.00000e+00	1.00000e+00	1.00000e+00	1.00000e+00	1.00000e+00	1.00000e+00	1.00000e+00	1.00000e+00	1.00000e+00	1.00000e+00	1.00000e+00	1.00000e+00	1.00000e+00	1.00000e+00	X	X	X	X	X	X	X	X	X	X	X	X	X	X	X	X	

B = Detector Channel
Val Type	B-AC1	B-AC2	B-AC3	B-AC4	B-AC5	B-AC6	B-AC7	B-AC8	B-AC9	B-AC10	B-AC11	B-AC12	B-AC13	B-AC14	B-AC15	B-AC16	B-DC1	B-DC2	B-DC3	B-DC4	B-DC5	B-DC6	B-DC7	B-DC8	B-DC9	B-DC10	B-DC11	B-DC12	B-DC13	B-DC14	B-DC15	B-DC16	B-Ph1	B-Ph2	B-Ph3	B-Ph4	B-Ph5	B-Ph6	B-Ph7	B-Ph8	B-Ph9	B-Ph10	B-Ph11	B-Ph12	B-Ph13	B-Ph14	B-Ph15	B-Ph16	

Term	0.00000e+00	0.00000e+00	0.00000e+00	0.00000e+00	0.00000e+00	0.00000e+00	0.00000e+00	0.00000e+00	0.00000e+00	0.00000e+00	0.00000e+00	0.00000e+00	0.00000e+00	0.00000e+00	0.00000e+00	0.00000e+00	0.00000e+00	0.00000e+00	0.00000e+00	0.00000e+00	0.00000e+00	0.00000e+00	0.00000e+00	0.00000e+00	0.00000e+00	0.00000e+00	0.00000e+00	0.00000e+00	0.00000e+00	0.00000e+00	0.00000e+00	0.00000e+00	-1.93096e+02	-1.31651e+02	-1.26893e+02	-1.81391e+02	-8.12550e+01	-6.54229e+01	-1.56795e+02	-1.62015e+02	-8.71340e+01	-6.29356e+01	-1.74004e+02	-1.71240e+02	-1.79095e+02	-1.76490e+02	-7.82813e+01	-1.49299e+02	
Factor	3.61994e-05	1.37445e-04	4.05246e-05	1.50909e-01	1.47821e-06	1.56133e-06	1.51247e-01	4.83322e-02	1.61963e-06	1.49477e-06	8.33551e-02	2.69328e-02	2.70377e-02	8.24457e-03	1.53392e-06	1.18361e-02	1.83736e-05	3.60318e-05	1.01782e-05	8.04857e-02	3.42701e-07	4.15052e-07	7.58372e-02	2.58983e-02	3.41234e-07	4.10228e-07	4.32733e-02	1.39519e-02	1.46541e-02	4.46483e-03	3.66053e-07	6.20000e-03	X	X	X	X	X	X	X	X	X	X	X	X	X	X	X	X	



#DISTANCE SETTINGS
A = Detector Channel
A-1	A-2	A-3	A-4	A-5	A-6	A-7	A-8	A-9	A-10	A-11	A-12	A-13	A-14	A-15	A-16	

2.5000e+00	3.0000e+00	2.5000e+00	3.0000e+00	2.0000e+00	3.0000e+00	1.5000e+00	3.0000e+00	3.0000e+00	3.0000e+00	3.0000e+00	3.0000e+00	3.0000e+00	3.0000e+00	1.5000e+00	3.0000e+00	

B = Detector Channel
B-1	B-2	B-3	B-4	B-5	B-6	B-7	B-8	B-9	B-10	B-11	B-12	B-13	B-14	B-15	B-16	

1.0000e+01	1.0000e+01	1.0000e+01	1.4400e+00	1.0000e+01	1.0000e+01	1.5100e+00	1.9400e+00	1.0000e+01	1.0000e+01	1.9900e+00	2.4900e+00	2.4100e+00	2.9000e+00	1.0000e+01	2.9800e+00	




#DATA BEGINS
time	group	step	mark	flag	A-AC1	A-AC2	A-AC3	A-AC4	A-AC5	A-AC6	A-AC7	A-AC8	A-AC9	A-AC10	A-AC11	A-AC12	A-AC13	A-AC14	A-AC15	A-AC16	A-DC1	A-DC2	A-DC3	A-DC4	A-DC5	A-DC6	A-DC7	A-DC8	A-DC9	A-DC10	A-DC11	A-DC12	A-DC13	A-DC14	A-DC15	A-DC16	A-Ph1	A-Ph2	A-Ph3	A-Ph4	A-Ph5	A-Ph6	A-Ph7	A-Ph8	A-Ph9	A-Ph10	A-Ph11	A-Ph12	A-Ph13	A-Ph14	A-Ph15	A-Ph16	B-AC1	B-AC2	B-AC3	B-AC4	B-AC5	B-AC6	B-AC7	B-AC8	B-AC9	B-AC10	B-AC11	B-AC12	B-AC13	B-AC14	B-AC15	B-AC16	B-DC1	B-DC2	B-DC3	B-DC4	B-DC5	B-DC6	B-DC7	B-DC8	B-DC9	B-DC10	B-DC11	B-DC12	B-DC13	B-DC14	B-DC15	B-DC16	B-Ph1	B-Ph2	B-Ph3	B-Ph4	B-Ph5	B-Ph6	B-Ph7	B-Ph8	B-Ph9	B-Ph10	B-Ph11	B-Ph12	B-Ph13	B-Ph14	B-Ph15	B-Ph16	aux-1	digaux	

3164.904	1	1	0	512	0.093726	0.12471	0.22466	0.28105	0.17882	0.16909	0.17663	0.13891	0.018225	0.29342	0.20492	0.1773	0.15848	0.22039	0.1834	0.053592	-1.7833	-3.0479	-2.3563	-2.5938	-3.0687	-2.0979	-2.7417	-2.7125	-2.2104	-3.1375	-2.4646	-2.5375	-3.0917	-2.1688	-2.7042	-2.9458	166.994	-9.173	-5.607	253.086	270.548	90.427	103.385	-28.677	296.698	141.307	222.214	-40.532	269.473	300.115	87.961	34.733	0.00027381	0.00031147	0.00019997	415.54	3.0844e-06	2.2228e-06	353.83	151.73	3.8776e-06	1.2279e-06	142.78	56.91	61.274	32.997	8.9328e-07	29.94	0.0092152	0.017474	0.0049184	481.75	0.00016639	0.00019761	411.86	174.78	0.00016113	0.00019132	173	68	72.8	38.005	0.00017437	35.266	79.812	159.400	43.420	-38.641	89.952	274.810	-40.174	-32.693	74.729	162.655	-35.353	-30.793	-27.925	-23.677	19.144	-27.837	-8191	255	
3165.024	1	1	0	0	0.28287	0.17416	0.25975	0.072876	0.18305	0.31773	0.25948	0.076794	0.071587	0.20782	0.19382	0.35285	0.12796	0.21276	0.084039	0.18281	-1.9229	-2.8083	-2.3958	-2.4958	-2.8625	-2.0542	-2.6854	-2.8187	-2.0521	-3.0042	-2.5521	-2.4396	-3.0854	-2.3146	-2.5958	-2.8	78.802	49.719	259.126	54.611	22.741	63.575	306.349	-2.111	59.668	97.840	-41.362	221.578	170.528	19.814	139.030	262.005	0.00019087	0.00033173	7.9491e-05	415.91	7.2303e-06	1.0373e-05	352.67	151.58	4.8342e-06	9.2687e-06	143.41	57.229	61.367	33.382	1.1131e-06	30.179	0.0089192	0.017242	0.0048746	480.87	0.00016363	0.00019634	412.61	175.23	0.00016265	0.00019392	173.88	68.31	72.988	38.302	0.00016572	35.485	57.388	142.781	284.181	-38.611	76.916	152.619	-40.025	-33.775	3.006	129.534	-36.398	-31.816	-28.508	-24.435	103.716	-28.664	-8191	255	
3165.096	1	1	0	0	0.2085	0.22907	0.17768	0.19527	0.067897	0.014995	0.13848	0.36677	0.3151	0.18146	0.21282	0.29054	0.035823	0.14113	0.27508	0.21102	-1.9062	-2.8521	-2.3979	-2.3354	-3.1021	-2.3729	-2.8271	-2.9167	-2.1896	-2.9979	-2.6292	-2.375	-3.0729	-2.4688	-2.4333	-3.0833	236.891	283.423	127.931	267.167	108.372	236.921	27.174	258.264	68.450	45.552	85.747	130.920	39.399	-34.490	158.803	228.332	0.00033791	0.00020178	4.9513e-05	415.91	6.3343e-06	5.4951e-06	351.8	151.38	5.2904e-06	7.039e-06	142.8	57.316	61.382	33.173	5.1885e-06	29.862	0.0082756	0.015769	0.0045037	478.46	0.00015087	0.00018344	410.55	174.97	0.00015776	0.00019168	173.48	68.5	73.347	38.274	0.00018167	35.39	58.695	16.277	-30.225	-39.334	41.898	125.519	-40.685	-34.010	83.608	93.255	-36.922	-31.683	-28.568	-24.493	43.817	-28.794	-8191	255	
3165.192	1	1	0	0	0.024617	0.14498	0.27762	0.26086	0.1025	0.23434	0.11149	0.15751	0.16996	0.097532	0.10362	0.11657	0.098815	0.18895	0.14136	0.25217	-1.8646	-2.9083	-2.6854	-2.3021	-3.0062	-2.3875	-2.2979	-2.9229	-2.3771	-2.7083	-2.8937	-2.2979	-3.0354	-2.6458	-2.6	-2.9375	29.197	198.365	195.568	184.713	127.307	125.837	107.981	211.153	67.645	3.604	11.864	267.964	85.686	149.639	142.384	268.197	0.00024345	0.00071294	0.00013962	411.57	3.4309e-06	2.2991e-06	347.99	150.15	2.2821e-06	5.9195e-07	141.95	56.576	60.534	32.964	4.9504e-06	29.961	0.0092209	0.017614	0.0049663	477.78	0.00016226	0.0001956	408.41	173.59	0.00015789	0.00018909	172.11	67.612	72.176	37.869	0.00017524	35.279	101.660	-6.712	51.014	-39.450	81.123	105.101	-40.538	-33.622	47.144	302.279	-36.462	-31.516	-29.013	-24.297	51.232	-28.666	-8191	255	
3165.288	1	1	0	0	0.19158	0.25291	0.066433	0.091447	0.089499	0.072282	0.13941	0.16109	0.131	0.22425	0.039461	0.10449	0.062433	0.2049	0.17296	0.25822	-1.9062	-2.7979	-2.7229	-2.1417	-2.9521	-2.6021	-2.3917	-3.1458	-2.2125	-2.6396	-2.7458	-2.2104	-3.1458	-2.675	-2.3729	-2.9833	277.213	71.834	133.604	248.001	169.906	264.501	13.235	124.129	287.992	47.836	185.373	245.887	24.615	41.352	258.787	149.734	0.00041803	0.00039625	1.4041e-05	411.99	4.2238e-06	3.6311e-06	350.42	150.45	5.0472e-06	7.159e-06	142.7	57.318	60.872	32.894	5.0644e-06	29.876	0.0088724	0.017272	0.0048621	476.59	0.00016269	0.00019706	409.35	174.2	0.00016099	0.00019568	173.23	68.335	72.817	38.052	0.00017967	35.412	106.092	222.175	-50.565	-39.221	188.952	82.282	-40.642	-33.395	123.013	159.236	-36.275	-31.762	-28.475	-24.698	66.217	-28.660	-8191	255	
3165.407	1	1	0	0	0.13488	0.069028	0.049539	0.07319	0.31159	0.078345	0.28949	0.074671	0.23696	0.079317	0.15198	0.30882	0.20648	0.12997	0.06269	0.12117	-1.9021	-2.7521	-3.0104	-2.125	-2.7062	-2.6	-2.3458	-3.0104	-2.3542	-2.6625	-3.0854	-2.1375	-2.7479	-2.7687	-2.3521	-3.0125	18.663	101.144	51.502	252.683	103.303	166.030	111.851	286.121	60.191	196.421	26.402	294.878	215.842	223.594	147.014	43.501	0.00022094	0.00070622	0.00015431	410.23	4.2998e-06	6.0295e-06	351.38	150.15	3.473e-06	1.1977e-06	142.91	57.383	61.052	33.25	2.1811e-06	30.156	0.0091331	0.017872	0.0051153	478.05	0.00017229	0.00020943	412.4	174.88	0.00017114	0.00020805	174.94	68.839	73.296	38.445	0.0001877	35.851	81.214	72.266	59.146	-39.783	127.022	121.797	-40.732	-33.615	-31.642	214.673	-36.434	-31.716	-28.754	-24.557	9.457	-28.601	-8191	255	
3165.503	1	1	0	0	0.17632	0.14149	0.1321	0.26724	0.18179	0.18261	0.20808	0.04641	0.22907	0.16624	0.068667	0.10292	0.21951	0.39308	0.12156	0.12741	-1.8479	-2.4792	-2.9854	-2.275	-2.7667	-2.9083	-2.1458	-3.175	-2.6063	-2.5812	-2.9875	-2.0604	-2.9	-2.9146	-2.15	-3.0604	180.867	-6.392	179.471	190.657	-3.261	180.631	24.606	189.782	-20.085	-41.665	124.943	37.149	219.163	296.405	266.356	254.065	0.00018765	0.00050966	6.1702e-05	408.66	6.6913e-06	5.0619e-06	345.95	149.1	4.3802e-06	6.3176e-06	140.91	56.611	60.455	32.971	5.6736e-06	29.992	0.0095298	0.018737	0.0052516	476.39	0.00017753	0.00021695	409.55	174.06	0.00017686	0.0002123	173.17	68.356	72.749	38.121	0.00018204	35.452	117.415	45.779	264.695	-39.786	135.331	143.393	-40.847	-33.439	67.261	118.784	-36.799	-31.736	-28.384	-24.554	130.338	-28.380	-8191	255	
3165.600	1	1	0	0	0.24578	0.14966	0.23284	0.21986	0.12632	0.15234	0.19216	0.2413	0.25642	0.16024	0.12888	0.12509	0.16126	0.077044	0.19081	0.31906	-2.0438	-2.3479	-3.0729	-2.1604	-2.6896	-2.95	-2.3271	-3.0125	-2.4229	-2.275	-3.0312	-2.3625	-2.6625	-2.8917	-2.1333	-2.9625	164.159	-23.450	167.676	248.448	117.586	94.914	211.934	-50.946	188.091	7.759	226.567	296.262	-10.466	55.332	148.412	233.680	0.00028962	0.0004397	0.00018218	405.09	3.2971e-06	5.6305e-06	344.35	148.83	9.6255e-06	2.4325e-06	140.58	56.648	59.867	32.841	4.537e-06	30.121	0.0092431	0.017756	0.0050052	470.85	0.00016688	0.00019984	404.25	171.23	0.00016144	0.00019297	170.43	67.335	71.696	37.841	0.00016686	35.35	61.867	-10.658	32.682	-39.404	62.183	185.931	-40.877	-33.536	-9.392	195.387	-36.441	-31.667	-28.733	-24.506	90.597	-28.737	-8191	255	
3165.696	1	1	0	0	0.31882	0.15961	0.32687	0.18572	0.25072	0.12401	0.2813	0.2117	0.092225	0.15149	0.03495	0.25421	0.1568	0.19153	0.059673	0.19244	-2.1979	-2.1604	-2.9771	-2.2479	-2.3438	-2.8396	-2.1583	-2.7833	-2.7042	-2.0563	-3.1479	-2.2562	-2.3646	-3.0729	-2.0979	-2.9521	74.273	188.633	-4.964	-33.932	12.150	108.313	39.020	43.187	50.252	124.179	208.501	22.563	46.594	304.509	195.232	230.377	0.00023859	0.00022753	7.0065e-05	406.11	8.5474e-06	8.804e-06	347.1	148.14	1.6387e-06	4.9868e-06	141.14	56.413	60.152	32.857	5.2887e-06	30.156	0.0085653	0.016551	0.0046546	470.06	0.00015929	0.00019361	404.31	171.1	0.00016024	0.00019278	170.72	67.541	71.897	37.887	0.00017063	35.526	77.175	25.832	48.923	-39.525	44.164	38.931	-40.827	-33.658	13.503	81.206	-36.687	-31.623	-28.369	-24.421	189.699	-28.360	-8191	255	
3165.792	1	1	0	0	0.24919	0.15825	0.20114	0.16918	0.21988	0.1576	0.18554	0.16688	0.1538	0.052064	0.11428	0.20369	0.21247	0.1227	0.22354	0.16834	-2.2854	-2.0458	-2.8521	-2.4271	-2.5271	-2.8937	-2.2333	-2.5917	-2.7521	-1.9958	-2.9958	-2.4667	-2.3937	-3.0312	-2.35	-2.625	252.095	204.106	53.835	-10.521	93.578	85.278	165.296	268.790	187.904	48.456	-49.423	-38.499	1.823	254.954	174.885	96.482	0.0003511	0.00046058	7.7361e-05	404.16	5.5504e-06	3.1636e-06	348.67	147.21	3.2492e-06	5.4634e-06	140.54	56.556	59.853	32.806	2.9481e-06	30.326	0.0087435	0.016837	0.0047788	470.45	0.00016438	0.00020008	406.22	171.39	0.00016489	0.00019486	171.33	67.635	71.801	37.832	0.00017081	35.445	77.086	16.869	100.270	-39.573	43.875	64.756	-41.035	-33.719	49.421	176.132	-36.480	-31.598	-28.560	-24.367	223.225	-28.629	-8191	255	
3165.888	1	1	0	0	0.062667	0.088334	0.10017	0.23287	0.19415	0.10391	0.19062	0.24138	0.28963	0.14372	0.031375	0.26171	0.087226	0.087933	0.23154	0.048987	-2.5271	-2.0646	-2.9958	-2.4958	-2.3375	-3.1063	-2.3958	-2.575	-2.8625	-2.1688	-2.8792	-2.7542	-2.2354	-2.9958	-2.3354	-2.6271	183.855	28.376	147.668	27.459	215.375	167.699	156.278	-33.168	169.255	178.564	-16.445	153.264	3.064	239.126	296.603	152.988	0.00035967	0.00051077	0.0002282	405.23	4.0363e-06	2.4014e-06	345.79	148.9	3.8662e-06	5.3475e-06	140.28	56.528	60.35	33.095	6.4785e-06	30.109	0.0087473	0.016917	0.004784	470.21	0.0001659	0.0001988	405.03	172.37	0.00017008	0.00020411	172.3	68.183	72.629	38.239	0.00018459	35.728	96.845	30.056	70.932	-39.729	63.890	113.846	-40.724	-33.540	98.078	-9.738	-36.064	-31.579	-28.526	-24.690	112.728	-28.390	-8191	255	
3166.009	1	1	0	0	0.03031	0.028657	0.1462	0.1744	0.10105	0.10096	0.22237	0.17878	0.085221	0.083642	0.19008	0.2465	0.13339	0.11688	0.24468	0.26427	-2.5729	-2.0542	-2.8021	-2.8208	-1.9729	-3.1167	-2.4542	-2.5	-2.9667	-2.3312	-2.8833	-3.0021	-2.15	-2.9604	-2.5208	-2.3187	33.168	182.172	19.732	-30.196	242.012	80.593	218.661	177.091	119.704	195.605	278.816	138.939	-21.185	276.767	151.622	249.014	0.00026889	0.0004726	4.6636e-05	405.14	4.9614e-06	4.0203e-06	343.22	149.05	2.0949e-06	3.8649e-06	140.32	56.901	60.496	33.113	4.1639e-07	30.417	0.0094124	0.017741	0.0050033	471.55	0.00016475	0.00019654	404.04	171.93	0.000162	0.00019206	170.91	67.792	72.122	38.149	0.00017186	35.672	90.462	65.798	97.714	-39.661	-17.193	219.329	-41.013	-33.633	91.380	45.061	-36.524	-31.689	-28.418	-24.637	267.413	-28.386	-8191	255	
3166.105	1	1	0	0	0.23807	0.30423	0.057316	0.14775	0.18966	0.11257	0.086805	0.16017	0.13358	0.054121	0.027943	0.17361	0.084806	0.26833	0.28963	0.20338	-2.4979	-2.0229	-2.65	-3.05	-2.1813	-2.95	-2.5979	-2.3	-2.8646	-2.2333	-2.5854	-2.8583	-2.0583	-2.9437	-2.5521	-2.1583	278.181	41.485	293.468	261.702	55.555	256.995	175.209	-28.598	270.146	76.396	-6.021	63.613	100.222	269.505	129.578	122.526	8.4777e-05	0.00031893	3.6785e-05	406.81	9.1491e-06	2.8123e-06	345.31	149.51	3.3491e-06	1.037e-05	141.51	57.374	60.537	33.274	7.4995e-06	30.545	0.0087096	0.016631	0.0047337	470.09	0.00015832	0.00018951	403.97	172.17	0.00015736	0.00018901	172.19	68.183	72.413	38.289	0.00017104	35.962	76.162	116.507	-18.502	-39.594	118.706	304.525	-40.700	-33.317	34.561	87.153	-36.414	-31.499	-28.523	-24.540	141.164	-28.686	-8191	255	
3166.201	1	1	0	0	0.17632	0.023439	0.21619	0.15918	0.055266	0.15573	0.1072	0.25557	0.041123	0.066443	0.29531	0.26047	0.096767	0.17819	0.30094	0.19324	-2.7104	-2.2729	-2.6042	-2.9437	-2.15	-2.8625	-2.5271	-2.3	-3.0521	-2.2583	-2.5542	-3.0354	-2.1688	-2.8771	-2.7229	-2.0625	273.995	211.162	101.633	62.255	57.530	142.609	199.728	107.681	64.610	212.765	299.863	303.939	294.927	23.942	110.042	105.229	0.0001439	0.00050207	6.2318e-05	404.9	3.0063e-06	3.6948e-06	345.29	148.91	1.003e-05	2.9766e-07	141.47	57.081	60.718	33.101	3.5538e-06	30.395	0.0087199	0.016913	0.0048606	470.71	0.00016312	0.0001993	406.27	172.42	0.00016688	0.0002004	173.24	68.456	72.716	38.288	0.0001822	35.82	103.664	78.235	29.200	-39.587	-12.795	60.036	-40.633	-33.534	-29.763	1.502	-36.063	-31.913	-28.256	-24.468	308.243	-28.459	-8191	255	
3166.297	1	1	0	0	0.18973	0.063853	0.18244	0.055976	0.3942	0.024379	0.1811	0.13499	0.33937	0.23778	0.15621	0.11459	0.11479	0.24693	0.22686	0.19933	-2.5167	-2.5187	-2.3771	-3.1146	-2.2396	-2.8417	-2.8521	-2.0542	-3.0958	-2.5812	-2.375	-2.9333	-2.175	-2.9688	-2.9354	-2.2792	134.711	104.200	244.196	138.605	195.722	123.141	10.371	60.013	-28.240	259.495	-46.181	269.575	233.074	300.090	138.475	120.101	0.0002607	0.00038704	0.00018513	403.3	3.4827e-06	8.196e-06	342.29	147.98	4.4235e-06	8.8404e-06	140.77	56.479	59.936	33.051	5.4368e-06	30.28	0.0090637	0.017385	0.0049588	468.24	0.00016417	0.00019817	402.2	170.7	0.00016005	0.00019226	170.51	67.369	71.492	37.91	0.00016531	35.495	114.064	169.926	94.056	-39.448	50.510	93.758	-40.589	-33.466	-9.090	70.926	-36.156	-31.644	-28.432	-24.342	147.898	-28.471	-8191	255	
3166.392	1	1	0	0	0.098888	0.064078	0.16942	0.099704	0.20622	0.20424	0.1938	0.23386	0.3572	0.07933	0.15283	0.22994	0.077445	0.21267	0.2732	0.048002	-2.6208	-2.5271	-2.5042	-3.1521	-2.1854	-2.6271	-2.9208	-1.9542	-2.8396	-2.6875	-2.2021	-3.0104	-2.2375	-2.7229	-2.9688	-2.2958	-19.056	57.267	29.767	21.381	262.396	219.700	254.588	177.774	19.963	246.181	114.784	-7.939	97.791	284.506	36.694	228.585	0.00032272	0.00068068	8.4871e-05	402.15	2.4318e-07	5.4344e-06	341.17	147.39	4.015e-06	3.1667e-06	141.24	57.035	59.99	33.228	7.7763e-06	30.389	0.0081947	0.015916	0.004438	463.63	0.00014598	0.00017554	397.71	169.38	0.00014051	0.00016812	168.47	66.932	70.983	37.93	0.00014724	35.401	85.016	72.384	42.736	-39.197	183.437	10.128	-40.784	-33.526	143.950	35.019	-36.175	-31.404	-28.673	-24.431	117.345	-28.417	-8191	255	
3166.488	1	1	0	0	0.066559	0.23768	0.10012	0.21644	0.077161	0.12748	0.070299	0.18347	0.20418	0.36949	0.26717	0.20696	0.093949	0.21749	0.24107	0.052162	-2.5625	-2.7875	-2.1875	-3.0479	-2.4354	-2.3979	-3.1167	-2.3354	-2.7792	-2.7729	-2.2458	-3.0458	-2.2833	-2.4688	-2.8063	-2.2417	66.196	-8.399	229.800	267.634	224.704	77.642	81.392	127.988	281.475	159.516	106.935	269.615	236.028	177.659	185.709	39.612	0.00022972	0.00030002	0.00018371	404.38	2.9133e-06	7.9934e-06	345.53	147.63	4.3068e-06	1.7462e-06	141.95	57.562	60.42	33.334	2.242e-06	30.841	0.0073637	0.014234	0.0039755	461.04	0.00013228	0.00016091	398.28	168.85	0.0001315	0.00015815	168.5	67.206	71.049	37.976	0.00014256	35.701	62.229	132.579	-40.887	-39.488	163.831	92.487	-40.894	-33.546	96.938	164.987	-36.687	-31.373	-28.598	-24.662	80.156	-28.653	-8191	255	
3166.584	1	1	0	0	0.12107	0.18679	0.32231	0.14523	0.050862	0.26718	0.18798	0.20234	0.071955	0.22861	0.028423	0.21949	0.048953	0.38933	0.062243	0.12608	-2.2271	-2.7313	-2.3292	-2.9854	-2.3312	-2.3312	-3.0333	-2.2333	-2.8479	-2.7854	-2.2	-3.0396	-2.6937	-2.2708	-2.8625	-2.4188	40.749	110.484	303.632	176.497	217.032	157.524	219.825	200.875	59.273	165.084	10.985	167.452	186.012	55.842	100.581	91.590	0.00015029	0.00032791	0.00010817	404.09	1.69e-06	3.2519e-06	346.44	148.45	3.167e-06	4.671e-06	143.02	57.532	60.484	33.423	8.1151e-06	30.607	0.0072233	0.013943	0.0038776	461.9	0.00012906	0.00015646	398.67	169.24	0.00012791	0.00015537	168.71	67.283	71.018	37.975	0.00014091	35.537	107.362	-17.914	-20.108	-39.716	67.076	58.700	-40.677	-33.661	101.663	212.810	-36.091	-31.448	-28.664	-24.476	95.602	-28.540	-8191	255	
3166.704	1	1	0	0	0.18332	0.11633	0.13232	0.2144	0.18215	0.077039	0.21174	0.11796	0.11672	0.2484	0.27074	0.35293	0.39921	0.22741	0.14098	0.036874	-2.2521	-2.9271	-2.1583	-2.7667	-2.5479	-2.2917	-3.1646	-2.3979	-2.3937	-2.7667	-1.9792	-2.8792	-2.6583	-2.3187	-2.8063	-2.4938	-46.810	124.072	58.448	-24.527	176.707	-43.088	67.026	-35.032	24.160	184.165	273.191	-37.931	235.500	-37.687	91.351	238.324	0.00024465	0.00010964	0.00010315	401.9	8.292e-06	6.2135e-06	343.51	147.58	2.0355e-06	3.0006e-06	141.27	56.908	60.193	33.1	1.7152e-06	30.648	0.0073201	0.014133	0.0040211	459.86	0.00013742	0.00016709	396.09	169.02	0.00013895	0.00016487	168.2	67.046	70.996	37.812	0.00014204	35.492	91.782	267.396	88.506	-39.431	95.488	155.665	-40.414	-33.516	162.501	144.137	-36.451	-31.661	-28.486	-24.507	159.627	-28.521	-8191	255	
3166.801	1	1	0	0	0.18821	0.12704	0.14327	0.15573	0.2588	0.16118	0.21326	0.10953	0.47488	0.15553	0.068885	0.085294	0.12722	0.19377	0.099931	0.092808	-2.1458	-2.7979	-1.8771	-2.8521	-2.6417	-2.2958	-2.9375	-2.3833	-2.3375	-3.075	-2.2521	-2.7792	-2.6417	-2.2604	-2.9542	-2.45	266.241	45.771	278.953	168.665	198.409	-1.762	278.972	219.888	118.559	-42.279	254.049	4.928	-9.468	260.076	148.199	170.701	0.0002203	0.00036486	1.4629e-05	401.52	4.8915e-06	6.2904e-06	344.83	148.1	2.007e-06	5.0487e-06	141.07	57.645	60.591	33.445	8.1388e-06	30.923	0.0072988	0.013885	0.0039348	459.36	0.00013449	0.00016346	396.75	169.21	0.00013597	0.0001625	168.79	67.48	71.238	38.086	0.0001418	35.728	85.029	44.912	150.370	-39.328	15.982	106.708	-40.569	-33.477	256.370	288.704	-36.437	-31.523	-28.914	-24.462	44.450	-28.423	-8191	255	
3166.897	1	1	0	0	0.22679	0.0617	0.06316	0.26479	0.32198	0.11313	0.1513	0.2678	0.077092	0.06725	0.35037	0.092115	0.050142	0.13151	0.29201	0.080232	-1.8583	-2.8979	-2.1396	-2.8646	-2.8521	-2.15	-2.8729	-2.5208	-2.2146	-3.0875	-2.3854	-2.3312	-2.9042	-2.1896	-2.9792	-2.7313	140.129	-36.004	202.436	298.421	286.044	117.352	248.194	188.618	59.618	235.432	282.507	53.948	150.841	299.593	304.044	-43.474	0.00016171	0.00034624	0.00016338	401.63	8.2521e-06	5.3479e-06	346.64	148.92	7.0239e-06	2.823e-06	142.15	57.986	60.719	33.442	8.8596e-06	31.183	0.0072339	0.013742	0.0038565	459.2	0.00013131	0.00015741	397.32	169.31	0.0001286	0.0001535	168.42	67.573	71.232	38.123	0.00013667	35.979	109.643	21.550	48.767	-39.338	83.449	108.800	-40.719	-33.805	175.995	-33.281	-36.193	-31.846	-28.499	-24.468	92.277	-28.570	-8191	255	
3166.968	1	1	0	0	0.1168	0.16992	0.1637	0.07826	0.071914	0.077235	0.20942	0.29112	0.16085	0.24831	0.069992	0.22272	0.04976	0.11351	0.15759	0.13712	-1.8625	-3.0042	-2.3771	-2.6854	-2.975	-2.3271	-2.9979	-2.4875	-1.9896	-2.9896	-2.2375	-2.4604	-2.8542	-2.3125	-2.6646	-2.7042	257.456	238.010	111.438	268.655	151.988	281.537	292.295	207.000	-42.859	32.512	229.897	-19.836	51.167	257.582	216.335	246.786	0.00014526	0.00047546	8.9339e-05	402.29	2.7393e-06	3.5358e-06	345.02	147.62	5.2303e-06	4.4837e-06	141.68	57.631	60.129	33.233	1.0863e-06	30.85	0.0072072	0.013651	0.0038849	460.03	0.00013163	0.00015857	397.1	168.83	0.00013126	0.00015605	168.14	67.113	70.682	37.763	0.00013514	35.571	104.180	57.483	80.397	-39.192	71.628	155.214	-40.459	-33.710	38.016	234.257	-36.460	-31.397	-28.943	-24.519	184.733	-28.284	-8191	255	
3167.089	1	1	0	0	0.099806	0.24826	0.35632	0.22406	0.25909	0.36417	0.12328	0.24887	0.13559	0.16428	0.132	0.15018	0.22104	0.21841	0.098804	0.10305	-1.7833	-3.0312	-2.5354	-2.3479	-3.1104	-2.2979	-2.9167	-2.825	-2.1208	-3.0042	-2.4729	-2.0167	-3.1229	-2.1979	-2.6437	-2.825	-48.769	128.336	132.006	307.139	-23.636	-46.820	170.059	-44.358	-35.120	67.991	-37.211	109.840	66.686	296.814	-3.652	205.711	0.00029538	0.00047286	4.6998e-05	400.87	2.0576e-06	2.8055e-06	343.29	146.53	2.9837e-06	2.9668e-06	139.94	56.951	60.314	33.204	9.1934e-06	30.743	0.0069005	0.013047	0.003678	454.3	0.0001232	0.00014918	392.29	166.69	0.00012241	0.00014484	165.64	66.386	70.217	37.641	0.00012967	35.44	88.792	303.213	256.711	-39.382	72.364	87.420	-40.508	-33.422	99.516	-21.902	-36.427	-31.683	-28.646	-24.494	186.782	-28.605	-8191	255	
3167.185	1	1	0	0	0.11758	0.12379	0.12405	0.10169	0.2778	0.1458	0.056378	0.11876	0.15634	0.060412	0.15386	0.12674	0.15078	0.15015	0.030223	0.18291	-1.725	-2.9875	-2.5604	-2.3063	-2.9313	-1.9979	-2.5896	-2.8812	-2.1271	-3.0271	-2.6979	-2.2292	-3.0417	-2.2792	-2.6458	-3.025	193.295	79.122	133.294	288.943	22.167	191.743	155.575	-12.070	75.569	139.804	118.485	85.941	79.519	291.367	54.324	305.567	0.00015753	0.00035754	8.3618e-05	399.04	2.0003e-06	1.0885e-06	344.3	147.6	5.1849e-07	4.8196e-07	140.66	57.414	60.123	33.039	5.5078e-06	30.747	0.0065953	0.012646	0.0035539	453.55	0.00011815	0.00014271	393.15	166.71	0.00011758	0.00014273	165.98	66.592	70.02	37.53	0.0001304	35.503	103.589	-16.775	51.409	-39.533	50.794	265.416	-40.239	-33.811	248.553	211.575	-36.372	-31.677	-28.422	-24.558	136.481	-28.542	-8191	255	
3167.281	1	1	0	0	0.28702	0.11942	0.21098	0.17496	0.072672	0.21808	0.18278	0.22621	0.080895	0.16516	0.071662	0.049993	0.21935	0.09305	0.21592	0.16584	-1.7292	-2.7729	-2.5271	-2.2521	-3.1667	-2.4875	-2.5563	-3.1396	-2.2042	-2.8375	-2.8604	-2.2271	-2.9604	-2.3583	-2.4333	-3.0667	197.404	99.494	179.046	-22.424	-25.710	76.462	250.339	214.262	267.451	-27.886	83.165	296.042	182.706	29.887	231.001	222.535	0.00018712	0.00042144	4.5845e-05	401.1	5.0487e-06	2.8604e-06	344.27	147.03	1.3459e-06	2.3704e-06	141.02	57.439	60.019	33.228	5.3926e-06	30.886	0.0066822	0.012986	0.0036978	454.29	0.00012524	0.00015172	394.8	167.49	0.00012489	0.00015035	167.48	67.202	70.348	37.688	0.00013099	35.589	90.097	30.329	226.287	-39.458	64.665	96.268	-40.362	-33.406	87.309	236.218	-36.321	-31.337	-28.565	-24.537	108.983	-28.724	-8191	255	
3167.378	1	1	0	0	0.093445	0.2111	0.1162	0.27436	0.27344	0.11625	0.051954	0.12051	0.23557	0.13445	0.11214	0.049532	0.025679	0.13511	0.11432	0.11588	-1.6479	-2.7521	-2.7771	-1.9792	-2.8708	-2.5479	-2.1312	-2.9771	-2.2188	-2.5646	-2.8208	-2.1354	-3.1104	-2.5375	-2.1229	-3.0292	77.750	-11.706	64.643	214.127	277.938	89.038	14.978	306.999	-31.323	99.037	150.242	254.824	-20.305	-32.490	306.884	54.022	0.00024146	0.00059484	8.6878e-05	398.55	5.7986e-06	5.4781e-06	341.67	146.09	3.0647e-06	4.7739e-06	142.21	57.772	60.443	33.272	2.0826e-06	31.038	0.0065654	0.012683	0.0035854	453.25	0.00012156	0.00014674	393.51	166.81	0.00012268	0.00014818	167.22	67.084	70.53	37.832	0.00013275	35.696	71.505	-15.470	131.163	-39.478	79.116	21.344	-40.443	-33.775	21.972	99.755	-36.550	-31.483	-28.772	-24.664	122.860	-28.712	-8191	255	
3167.496	1	1	0	0	0.053639	0.15598	0.06786	0.15796	0.20895	0.20635	0.18758	0.27306	0.10399	0.31315	0.45241	0.2004	0.063569	0.29567	0.042245	0.090385	-1.9083	-2.6729	-2.9979	-2.1188	-2.95	-2.7646	-2.1083	-3.0479	-2.2458	-2.6396	-3.1042	-2.4104	-2.8354	-2.8583	-2.2062	-3.0771	50.875	-35.872	3.149	58.068	268.660	27.865	-7.744	201.598	241.295	75.005	257.097	-7.372	126.213	1.459	22.790	271.929	0.0002613	0.00036705	0.00018229	398.46	2.7891e-06	6.2682e-06	343.83	147.35	2.6991e-06	1.613e-06	141.26	57.337	60.519	33.404	5.9428e-07	31.115	0.0066322	0.012742	0.0036011	452.42	0.00011967	0.00014468	391.91	166.92	0.0001172	0.00013949	166.09	66.637	70.373	37.832	0.00012646	35.642	77.469	-0.638	59.886	-39.431	201.320	75.325	-40.465	-33.445	82.555	48.338	-36.403	-31.801	-28.583	-24.636	200.909	-28.410	-8191	255	
3167.570	1	1	0	0	0.25848	0.091149	0.15609	0.18063	0.095893	0.16846	0.15484	0.11195	0.089214	0.107	0.15805	0.19365	0.12525	0.18774	0.11218	0.18887	-1.9208	-2.3958	-2.9813	-2.1625	-2.8563	-2.7562	-2.2208	-3.2042	-2.2854	-2.4792	-2.9917	-2.2333	-2.8104	-2.9146	-2.0458	-3.1375	157.393	207.752	247.934	260.904	-0.187	46.325	281.298	268.799	233.624	69.927	125.972	282.681	235.341	-34.644	-29.517	305.515	0.00017881	0.00019927	0.00012425	396.78	1.4312e-06	1.9839e-06	343.61	148	1.7035e-06	2.6435e-06	142.13	57.65	60.333	33.528	4.0863e-06	31.349	0.006541	0.012671	0.0035511	451.92	0.00012044	0.00014563	393.23	167.49	0.0001193	0.00014302	167.18	67.065	70.659	38	0.00013097	36.006	101.716	47.991	305.465	-39.338	109.258	203.802	-40.822	-33.539	250.474	96.386	-36.135	-31.565	-28.549	-24.439	200.119	-28.514	-8191	255	
3167.689	1	1	0	0	0.24977	0.2083	0.18498	0.1486	0.099343	0.2289	0.17014	0.068417	0.20588	0.21596	0.094772	0.096116	0.24964	0.11713	0.31121	0.075969	-2.2125	-2.1625	-2.9062	-2.1583	-2.6875	-2.9375	-2.0917	-2.8792	-2.6833	-2.3854	-3.0938	-2.2958	-2.5979	-3.0563	-2.25	-2.9083	134.663	235.405	38.404	269.606	305.021	-14.374	81.011	-33.603	81.808	200.702	296.935	117.786	254.398	225.139	155.596	-10.496	0.00032254	0.00063929	0.00010096	398.91	7.3791e-07	8.5049e-06	344.1	147.36	5.214e-06	6.8556e-06	142.33	58.202	60.656	33.538	7.9127e-06	31.323	0.0068086	0.013171	0.0037473	454.66	0.00012977	0.00015773	396.73	168.19	0.00013345	0.00016156	169.7	68.018	71.29	38.199	0.00014258	36.205	87.107	285.505	31.807	-39.458	64.549	89.374	-40.375	-33.637	110.871	145.503	-36.502	-31.375	-28.825	-24.629	78.302	-28.458	-8191	255	
3167.785	1	1	0	0	0.14381	0.21672	0.22554	0.066779	0.048896	0.026928	0.08735	0.069542	0.10147	0.1241	0.094003	0.10328	0.25559	0.10176	0.16002	0.094432	-2.15	-2.2396	-2.9479	-2.5375	-2.5208	-2.8958	-2.0438	-2.8875	-2.6542	-2.2521	-3.2708	-2.4333	-2.5938	-3.15	-1.9937	-2.75	210.856	166.336	-16.751	-24.565	69.974	262.561	235.144	215.956	-20.135	214.513	240.720	247.837	234.280	249.195	199.667	201.232	0.00026348	8.0398e-05	0.0001499	395.9	3.6262e-06	3.401e-06	340.97	145.55	3.9604e-06	2.2976e-06	140.76	57.371	59.643	33.076	1.9279e-06	30.734	0.0072519	0.013891	0.0038981	453.34	0.00013096	0.00015809	393.27	167.14	0.00013166	0.00015979	167.65	67.216	70.574	37.772	0.00014312	35.731	95.555	77.063	0.090	-39.673	130.390	87.658	-40.616	-33.416	37.880	307.003	-36.374	-31.534	-28.654	-24.754	27.674	-28.840	-8191	255	
3167.881	1	1	0	0	0.15043	0.33257	0.16552	0.050497	0.083975	0.040517	0.12409	0.16804	0.18435	0.39566	0.19159	0.20674	0.091137	0.25461	0.10205	0.18357	-2.3042	-2	-2.9729	-2.5563	-2.2146	-3.0146	-2.1792	-2.5667	-2.625	-2.1813	-2.925	-2.3229	-2.2229	-3.1312	-2.1646	-2.7542	66.707	277.490	73.674	92.215	235.611	214.153	-30.477	301.958	-6.443	81.115	39.456	203.653	229.986	-18.313	290.276	194.117	0.00021173	0.00020727	0.00024613	395.67	2.6487e-06	1.8874e-06	341.23	146.32	4.6223e-06	3.6442e-06	141.07	57.287	60.025	33.071	2.3737e-06	30.978	0.0074048	0.014102	0.0039672	453	0.00013394	0.00016069	393.41	166.87	0.00013338	0.00015863	167.64	67.326	70.674	37.772	0.0001437	35.905	105.888	225.829	40.262	-39.514	48.865	259.132	-40.580	-33.250	66.720	189.712	-36.231	-31.627	-28.606	-24.432	76.337	-28.605	-8191	255	
3167.977	1	1	0	0	0.17265	0.158	0.3614	0.16644	0.28184	0.048152	0.10754	0.029983	0.11726	0.13128	0.20935	0.088227	0.37027	0.15137	0.11172	0.072764	-2.4688	-2.2396	-2.9208	-2.6542	-2.3104	-3.0542	-2.2396	-2.4313	-2.9167	-1.9833	-2.9958	-2.7542	-2.25	-3.0979	-2.3208	-2.575	-9.725	207.797	15.496	16.342	22.191	90.925	-26.828	82.847	-12.030	128.481	187.814	201.588	237.816	40.565	211.383	65.560	0.00023594	0.00030406	9.6144e-05	396.38	4.7746e-06	2.0276e-06	340.68	145.85	4.2473e-06	3.0135e-06	140.38	57.579	59.98	33.189	4.5108e-06	31.204	0.0074526	0.014369	0.0040416	454.03	0.00013914	0.00016541	393.38	167.23	0.00013715	0.00016177	168.21	67.508	70.595	37.842	0.00014469	35.993	93.160	2.381	28.703	-39.417	155.538	111.287	-40.884	-33.598	101.047	154.861	-36.242	-31.821	-28.613	-24.580	150.099	-28.511	-8191	255	
3168.098	1	1	0	0	0.18826	0.055855	0.099804	0.2443	0.11822	0.26801	0.21864	0.13156	0.11064	0.17308	0.20158	0.18697	0.16513	0.27026	0.050035	0.45492	-2.6	-2.2521	-2.7708	-2.6792	-2.1708	-3.025	-2.4479	-2.3167	-2.9708	-2.3646	-2.8917	-2.875	-1.9333	-3.1125	-2.4146	-2.475	259.255	-28.266	31.549	10.602	234.159	1.908	261.492	175.270	144.743	-3.659	46.477	24.961	30.786	-46.356	7.316	251.096	0.00019966	9.4252e-05	0.00010181	395.37	4.2581e-06	5.207e-06	342.99	146.81	1.7194e-06	4.9084e-06	141.63	57.877	60.397	33.295	4.5659e-06	31.144	0.0074409	0.014202	0.0039909	454.28	0.00013349	0.00015917	394.56	167.65	0.00012996	0.00015598	167.99	67.664	70.703	37.924	0.00014135	36.135	112.633	205.335	57.139	-39.561	161.231	36.669	-40.644	-33.353	3.261	82.856	-36.400	-31.710	-28.601	-24.504	160.540	-28.625	-8191	255	
3168.194	1	1	0	0	0.11714	0.16541	0.069128	0.059537	0.18704	0.028226	0.046234	0.072488	0.19861	0.097348	0.25722	0.21608	0.076176	0.17674	0.20284	0.30477	-2.5125	-2.1354	-2.6979	-2.8083	-2.0458	-2.925	-2.4313	-2.2583	-2.9833	-2.0854	-2.6875	-2.7833	-2.2208	-2.9396	-2.6146	-2.275	-15.058	141.494	-32.807	278.912	56.203	82.131	101.415	-7.101	258.705	202.476	-44.632	-48.246	308.399	277.555	193.174	265.415	0.00035576	0.00017677	9.5378e-05	395.26	4.5627e-06	8.1675e-06	342.13	146.66	8.3041e-06	5.4355e-06	140.77	57.684	59.984	33.193	5.002e-06	31.147	0.0072998	0.014049	0.0040034	454.25	0.00013707	0.00016383	394.26	167.88	0.00013807	0.0001648	168.05	67.583	70.716	37.902	0.00014405	35.916	90.066	296.847	128.007	-39.232	300.732	150.873	-40.552	-33.568	40.824	86.645	-36.059	-31.316	-28.713	-24.422	42.767	-28.453	-8191	255	
3168.266	1	1	0	0	0.11004	0.13519	0.056016	0.083676	0.13075	0.13138	0.4786	0.28931	0.16056	0.27361	0.14045	0.37771	0.063901	0.10368	0.26962	0.21174	-2.5667	-2.2062	-2.5312	-2.9979	-2.2792	-2.7542	-2.5354	-2.2354	-2.975	-2.2729	-2.5854	-2.8771	-2.0583	-2.9875	-2.7354	-1.9979	-0.849	218.986	138.383	198.057	77.084	-1.311	159.896	241.119	-20.088	286.090	201.721	228.511	8.384	307.292	225.289	0.560	0.00020544	0.00036168	5.4283e-05	395.31	4.8372e-06	9.1213e-06	340.04	146.26	9.0006e-07	5.621e-06	141.32	57.876	60.209	33.372	4.9783e-06	31.254	0.007221	0.013733	0.0039125	451.63	0.00013085	0.00015806	392.72	167.1	0.00013198	0.00015745	168.33	67.603	70.688	38.027	0.00014071	36.091	92.310	-49.829	-24.910	-39.453	7.534	87.952	-40.421	-33.486	159.015	106.546	-36.099	-31.465	-28.775	-24.435	102.071	-28.687	-8191	255	
3168.384	1	1	0	0	0.27413	0.17336	0.12825	0.071198	0.19268	0.29875	0.26236	0.035199	0.17244	0.087717	0.13902	0.10975	0.15055	0.13935	0.16077	0.18165	-2.6188	-2.1708	-2.2958	-3.0312	-2.3354	-2.8667	-2.6833	-2.0708	-2.8812	-2.5542	-2.4562	-3.1771	-2.1833	-2.7854	-2.8229	-2.3187	45.027	183.592	228.990	126.070	225.954	186.289	-17.475	-22.999	-3.567	199.723	161.344	144.165	298.646	252.759	150.639	-18.039	0.00026754	0.00064296	0.00018082	395.5	3.1454e-06	1.1863e-06	341.38	146.29	2.0339e-06	4.6179e-06	142.13	57.984	60.384	33.331	4.7966e-06	31.547	0.0071006	0.013646	0.0039054	452	0.0001305	0.00015951	394.78	167.47	0.00013292	0.00016181	169.24	68.028	71.182	38.157	0.00014663	36.418	62.784	-0.688	-17.075	-39.419	138.508	268.148	-40.909	-33.526	65.433	4.895	-36.002	-31.714	-28.761	-24.457	104.990	-28.544	-8191	255	
3168.481	1	1	0	0	0.12074	0.14796	0.28743	0.020138	0.13234	0.1318	0.054015	0.1277	0.22214	0.113	0.10544	0.29403	0.14658	0.14084	0.14775	0.23349	-2.6479	-2.6458	-2.35	-3.0771	-2.3688	-2.6937	-2.9792	-2.2792	-3.0438	-2.7208	-2.375	-3.0292	-2.2938	-2.7583	-2.8875	-2.275	-32.480	39.371	195.292	145.620	199.934	-39.852	137.150	241.780	262.881	209.080	81.024	241.089	215.474	302.146	124.075	128.004	0.00017813	0.00016094	0.00021936	398.63	2.7819e-06	4.1396e-06	344.81	147.17	6.0521e-06	2.8764e-06	142.1	58.427	60.282	33.279	7.0375e-06	31.26	0.0075649	0.014608	0.0041557	456.02	0.00014017	0.00017186	398.01	168.62	0.00014045	0.00016883	170.43	68.573	71.379	38.139	0.00015527	36.43	115.218	37.171	-7.671	-39.324	42.910	37.873	-40.484	-33.338	236.866	-27.877	-36.309	-31.436	-28.967	-24.668	119.659	-28.473	-8191	255	
3168.577	1	1	0	0	0.13229	0.26134	0.12312	0.18723	0.15623	0.087319	0.17002	0.04248	0.038119	0.12485	0.14736	0.10872	0.14407	0.13345	0.080722	0.069385	-2.65	-2.6729	-2.1667	-2.9771	-2.4167	-2.5208	-3.15	-2.075	-2.775	-2.7708	-2.2125	-2.9479	-2.3333	-2.4021	-2.9313	-2.3167	279.598	-0.459	287.896	-38.184	205.722	123.168	224.611	-20.180	-21.966	22.206	35.401	102.565	-17.713	-34.547	85.955	61.433	0.00027908	0.00022115	8.8058e-05	396.49	2.7336e-06	4.4914e-06	342.18	146.2	6.9616e-06	3.5227e-06	141.79	57.398	59.606	32.817	9.8429e-06	30.867	0.0078916	0.01529	0.0043131	454.17	0.00014269	0.00017256	394.96	167.25	0.00013801	0.00016592	168.32	67.273	70.333	37.566	0.00014215	35.736	102.134	272.405	31.129	-39.444	266.061	125.074	-40.807	-33.372	36.308	89.678	-36.054	-31.274	-28.572	-24.415	108.005	-28.589	-8191	255	
3168.673	1	1	0	0	0.097882	0.25941	0.25171	0.34275	0.10812	0.23161	0.25147	0.28334	0.12841	0.13519	0.05218	0.1948	0.036028	0.044748	0.1611	0.23424	-2.2604	-2.875	-2.1063	-3.0438	-2.5646	-2.5021	-3.1021	-2.2875	-2.7708	-2.9229	-2.3479	-3.075	-2.6083	-2.3354	-3.0021	-2.2854	269.047	75.515	-38.730	272.907	141.449	216.464	242.831	200.316	169.601	31.223	170.453	170.386	-26.582	79.050	299.096	36.977	0.00028775	0.00027065	0.0001541	393.72	3.2717e-06	7.614e-06	340.57	145.17	2.2955e-06	3.0307e-07	140.81	57.48	59.919	33.056	3.1167e-06	31.084	0.0071	0.013604	0.0038047	448.97	0.00012701	0.00015539	391.18	165.84	0.00012768	0.00015278	167.04	67.005	70.084	37.536	0.00013701	35.816	81.805	28.462	-1.280	-39.185	210.377	112.491	-40.828	-33.761	135.710	158.755	-36.436	-31.444	-28.670	-24.404	219.836	-28.619	-8191	255	
3168.769	1	1	0	0	0.17409	0.16496	0.21849	0.24168	0.26119	0.23553	0.047603	0.0067495	0.1694	0.094378	0.063629	0.2369	0.062278	0.10506	0.13746	0.23835	-2.3833	-2.9583	-2.1688	-3.0146	-2.6125	-2.3542	-3.3167	-2.3833	-2.4313	-2.9771	-2.3333	-2.8479	-2.6	-2.1437	-2.8937	-2.3542	-24.809	158.214	4.014	297.177	304.706	18.643	73.908	241.698	143.452	-23.989	286.196	-35.928	72.658	278.140	50.791	278.643	0.00024519	0.00028357	0.000119	393.76	6.8478e-06	2.3653e-06	343.6	145.48	4.3114e-06	4.5518e-06	141.88	57.404	59.722	32.911	3.9155e-06	30.901	0.0072617	0.013945	0.0039215	450.73	0.0001374	0.00016587	394.1	166.76	0.00013923	0.00016805	168.84	67.676	70.704	37.626	0.00015501	36.053	66.325	203.084	17.399	-39.615	74.988	119.650	-40.644	-33.314	51.345	3.710	-36.141	-31.732	-28.628	-24.432	98.636	-28.611	-8191	255	
3168.865	1	1	0	0	0.19814	0.099799	0.2984	0.17548	0.16244	0.14746	0.078792	0.029939	0.12999	0.16706	0.12482	0.19173	0.15685	0.12431	0.14951	0.072693	-2.2271	-3.1688	-2.1271	-2.9313	-2.7125	-2.3187	-3.0687	-2.2646	-2.2938	-3.2583	-2.0229	-2.7062	-2.8625	-2.1583	-3.0417	-2.4813	260.553	253.285	172.475	273.744	202.627	197.049	142.669	-14.223	20.439	250.095	269.324	2.988	240.860	44.919	46.357	27.452	0.00025338	0.0002007	0.00016328	394.43	2.248e-06	3.8508e-06	341.35	145.98	5.9694e-06	2.7237e-06	140.62	57.388	59.569	32.712	4.5839e-06	30.918	0.0080625	0.015365	0.0042944	453.62	0.00014305	0.0001712	394.25	166.76	0.00013902	0.00016592	168.05	67.537	70.337	37.43	0.00015327	35.945	116.356	144.994	31.139	-39.323	-48.874	194.526	-40.551	-33.801	2.599	156.367	-36.024	-31.274	-28.852	-24.423	248.772	-28.409	-8191	255	
3168.961	1	1	0	0	0.084306	0.081223	0.3142	0.32101	0.13756	0.17353	0.1076	0.053485	0.2436	0.075063	0.13355	0.10957	0.085576	0.22742	0.2221	0.109	-1.9688	-3.2208	-2.1667	-2.7	-2.6188	-2.0958	-3.0292	-2.525	-2.0979	-3.0271	-2.3521	-2.6083	-2.9417	-2.1854	-2.8771	-2.5417	100.987	-49.860	9.391	110.879	-6.439	232.346	-13.804	245.883	97.786	93.400	-30.874	307.252	249.618	-21.535	243.896	276.602	0.00020257	9.2738e-05	5.4495e-05	392.1	4.1702e-06	5.6124e-06	339.99	145.75	9.0349e-06	5.7515e-06	140.91	57.004	59.754	32.959	1.7276e-06	30.739	0.0080385	0.015478	0.0044021	453.54	0.00014975	0.00018053	394.85	167.48	0.00015012	0.00017808	169.47	67.787	71.137	37.796	0.00015841	36.01	67.004	99.360	33.470	-39.250	232.785	115.324	-40.582	-33.742	54.605	109.423	-36.116	-31.393	-28.490	-24.370	7.958	-28.786	-8191	255	
3169.058	1	1	0	0	0.11041	0.14833	0.13109	0.13515	0.16958	0.028641	0.16886	0.1177	0.095416	0.16743	0.28356	0.12364	0.21716	0.2117	0.1071	0.13177	-1.9292	-2.9083	-2.2292	-2.5542	-2.8917	-2.0625	-3	-2.7292	-1.9854	-3.1125	-2.4938	-2.4104	-3.1354	-2.3479	-2.9104	-2.8063	284.058	212.604	-36.085	117.623	303.814	-19.452	100.258	297.329	297.316	279.264	121.464	-15.598	228.822	-51.309	23.241	-18.899	0.00030656	0.0003031	7.5909e-05	391.88	4.2859e-06	9.1488e-06	340.13	145.3	2.8963e-06	1.634e-06	141.51	57.294	59.593	32.975	2.0105e-06	31.132	0.0080288	0.015121	0.0042479	451.63	0.00014109	0.00016983	392.83	166.6	0.00014033	0.00016571	168.56	67.53	70.488	37.667	0.00014723	36.032	81.189	46.599	306.847	-39.257	79.099	136.609	-40.421	-33.418	307.301	81.214	-36.130	-31.374	-28.766	-24.268	137.199	-28.588	-8191	255	
3169.178	1	1	0	0	0.17924	0.063562	0.13147	0.12843	0.13835	0.14388	0.17937	0.1553	0.093962	0.098022	0.15306	0.1573	0.027898	0.22857	0.21585	0.24865	-1.6896	-2.9813	-2.5	-2.3229	-2.9896	-2.3604	-2.7458	-2.7687	-2.1562	-2.8312	-2.5187	-2.4875	-3.35	-2.3479	-2.6521	-2.9479	215.453	-43.349	93.328	298.206	198.503	178.809	267.975	245.026	150.664	54.961	246.601	74.582	244.544	-35.699	-23.874	202.892	0.00026382	0.00029973	0.00012805	392.81	3.9122e-06	4.979e-06	339.72	145.31	2.6672e-06	3.3882e-06	141.57	57.864	59.697	33	4.5079e-06	31.086	0.0075624	0.014464	0.0041245	452.33	0.00014074	0.000172	394.8	167.24	0.00014501	0.00017419	169.86	68.223	71.142	37.869	0.00016245	36.388	102.187	31.097	28.705	-39.527	-41.251	108.019	-40.648	-33.601	287.428	116.352	-36.194	-31.621	-28.858	-24.429	11.000	-28.690	-8191	255	
3169.274	1	1	0	0	0.055454	0.045464	0.15007	0.22152	0.13534	0.26303	0.31527	0.072592	0.28177	0.012796	0.065818	0.10365	0.12659	0.030793	0.043099	0.065499	-1.7396	-2.9437	-2.6229	-2.2917	-2.9458	-2.3292	-2.725	-2.7812	-2.1604	-2.775	-2.6646	-2.1458	-3.1042	-2.6	-2.4667	-3.0938	64.025	35.278	-8.934	-2.066	106.987	119.038	212.274	207.220	302.305	102.921	55.428	271.362	175.812	57.968	27.649	120.146	0.00020284	0.00054915	0.00018813	390.77	4.925e-06	7.1661e-06	341.49	146.15	8.7556e-06	4.7974e-06	141.16	57.903	60.029	33.065	9.429e-06	30.988	0.0083808	0.016298	0.0046624	455.29	0.00015596	0.00019161	399.07	168.48	0.00015764	0.00018741	171.33	68.599	71.514	37.823	0.00016646	36.198	74.778	10.790	34.440	-39.629	-29.882	61.075	-40.647	-33.566	141.493	77.707	-36.435	-31.674	-28.566	-24.433	90.774	-28.405	-8191	255	
3169.370	1	1	0	0	0.095227	0.23789	0.11383	0.079781	0.072136	0.14158	0.2256	0.12425	0.19446	0.13939	0.039148	0.062974	0.17835	0.19847	0.15459	0.14087	-1.7854	-2.8083	-2.6979	-2.2438	-2.9646	-2.4042	-2.3854	-3.0833	-2.1188	-2.7583	-2.775	-2.1229	-2.975	-2.425	-2.3312	-2.925	-40.594	222.471	179.254	226.199	217.109	141.800	-3.752	-31.175	6.211	51.900	118.858	286.718	199.638	242.946	152.435	24.435	0.00034342	0.00023475	7.1497e-05	388.73	5.1819e-06	2.885e-06	338.59	143.67	5.2923e-06	3.8475e-06	138.96	56.796	58.878	32.441	1.0711e-06	30.66	0.0083192	0.016067	0.0045177	450.68	0.00014982	0.00018223	393.37	166.21	0.0001474	0.00017835	168.01	67.268	70.145	37.246	0.00016055	35.743	114.566	56.408	-2.122	-39.590	275.704	80.040	-40.330	-33.792	152.230	145.034	-36.477	-31.471	-28.219	-24.499	-41.615	-28.374	-8191	255	
3169.489	1	1	0	0	0.14721	0.07145	0.054491	0.2778	0.10139	0.30401	0.18644	0.29794	0.19581	0.13943	0.18675	0.11639	0.090851	0.34772	0.22965	0.065088	-1.8	-2.7	-2.7917	-2.0833	-3.0812	-2.3583	-2.2458	-3.0792	-2.0854	-2.5646	-2.8979	-2.0563	-2.9104	-2.6521	-2.15	-3.1437	178.370	64.357	33.016	188.627	95.909	101.090	238.104	217.141	68.582	16.959	237.214	244.156	24.235	212.231	25.368	115.873	0.00017428	0.00033021	0.00026667	388.74	3.5134e-06	3.1317e-06	337.19	142.99	5.2074e-06	2.3409e-06	139	56.525	58.428	32.506	2.1028e-06	30.61	0.0080906	0.015642	0.0044317	448.39	0.00014694	0.00018018	391.22	165.05	0.00014712	0.00017734	167.43	66.991	69.69	37.137	0.00015934	35.631	91.430	108.190	-9.674	-39.123	170.075	267.111	-40.594	-33.606	27.130	12.065	-36.324	-31.439	-28.684	-24.449	199.366	-28.442	-8191	255	
3169.561	1	1	0	0	0.093973	0.13614	0.21506	0.20595	0.085938	0.035767	0.21084	0.3938	0.14968	0.11998	0.13809	0.035738	0.21219	0.067528	0.18876	0.12292	-1.9229	-2.3625	-2.9542	-2.2208	-2.9104	-2.6	-2.2042	-2.9125	-2.2938	-2.55	-2.9792	-2.0917	-2.8	-2.6896	-2.3208	-3.1667	279.471	86.342	304.005	96.551	284.741	140.754	267.203	304.671	170.571	79.203	-51.137	-45.965	264.030	261.153	308.119	298.441	0.00034101	0.00061808	2.655e-05	387.46	1.6922e-06	3.596e-06	337.45	143.01	2.5324e-06	3.9846e-06	139.37	56.842	58.465	32.114	2.1245e-06	30.56	0.0080752	0.015659	0.0044031	448.14	0.00014637	0.00017803	392.51	164.43	0.00014401	0.00017238	167.33	66.896	69.325	36.833	0.00014824	35.462	79.783	-16.401	-5.814	-39.291	273.746	88.978	-40.642	-33.454	112.607	127.986	-36.396	-31.556	-28.651	-24.630	39.317	-28.645	-8191	255	
3169.659	1	1	0	0	0.24567	0.18338	0.10101	0.092714	0.25353	0.2751	0.080381	0.080942	0.32197	0.26126	0.14766	0.13929	0.20812	0.16449	0.20821	0.061276	-2.0375	-2.325	-3.0979	-2.1562	-2.9229	-2.8083	-2.2583	-3.0729	-2.375	-2.4375	-3.0771	-2.2271	-2.7313	-2.7146	-1.9396	-2.8917	-12.588	254.746	137.374	267.684	60.805	173.454	93.160	224.268	82.798	-32.072	259.948	-33.578	65.890	0.677	120.101	217.074	0.00026421	0.00068297	0.00017461	389.18	7.4531e-06	7.904e-06	337.96	143.1	2.0817e-06	9.8933e-06	138.02	56.637	58.384	32.286	4.3779e-06	30.584	0.0074198	0.014246	0.0039746	445.24	0.00013205	0.00016148	389	163.54	0.00013297	0.00016401	165.98	66.562	69.261	36.968	0.00014941	35.503	82.054	-5.599	37.922	-39.186	98.144	142.758	-40.664	-33.633	124.536	112.279	-36.143	-31.463	-28.915	-24.652	90.807	-28.422	-8191	255	
3169.778	1	1	0	0	0.086253	0.35641	0.069472	0.16758	0.12938	0.028575	0.090947	0.052378	0.19921	0.18381	0.049824	0.15826	0.23023	0.10563	0.19419	0.17528	-2.175	-2.3708	-3.0417	-2.1667	-2.9125	-2.7438	-2.0729	-2.8271	-2.4583	-2.3583	-3.0625	-2.3979	-2.6375	-2.95	-2.0396	-3.0187	57.518	-48.490	41.522	7.770	-4.575	233.983	-24.555	61.327	3.159	120.914	262.459	86.582	26.517	-0.165	53.659	186.453	0.00019532	0.00027205	5.5045e-05	388.04	6.7865e-07	9.0331e-06	337.15	143.09	5.6803e-06	3.6314e-06	138.92	56.614	58.654	32.257	5.407e-06	30.527	0.0076993	0.014887	0.0041328	446.21	0.00014066	0.00016886	388.96	164.22	0.0001372	0.00016383	165.24	66.162	68.944	36.811	0.00013752	35.298	93.598	83.544	-13.575	-39.503	192.182	102.165	-40.547	-33.344	103.469	88.865	-36.367	-31.321	-28.672	-24.426	116.535	-28.455	-8191	255	
3169.874	1	1	0	0	0.18364	0.21488	0.12439	0.36824	0.068587	0.086285	0.43973	0.21092	0.18953	0.23969	0.10503	0.26076	0.046692	0.22619	0.1816	0.1348	-2.3271	-2.0958	-3.0333	-2.4667	-2.4271	-2.9667	-1.9312	-2.7708	-2.7604	-2.1688	-3.0958	-2.2313	-2.325	-3.0417	-2.2104	-2.9813	62.281	240.229	56.588	253.641	55.799	38.236	3.346	248.996	252.703	235.273	205.257	129.431	252.904	157.881	157.189	183.807	0.00019258	0.00015498	4.0574e-05	387.1	3.1817e-06	2.4406e-06	337.07	143.15	2.7336e-06	3.4342e-07	140.2	56.914	58.897	32.604	3.5938e-06	30.857	0.0068874	0.013079	0.003635	442.53	0.00012164	0.00014571	385.6	162.89	0.00011986	0.0001434	164.77	66.239	68.809	36.979	0.00012911	35.51	66.915	22.807	-11.298	-39.272	48.845	182.856	-40.636	-33.526	134.000	119.739	-36.041	-31.627	-28.481	-24.468	48.602	-28.354	-8191	255	
3169.970	1	1	0	0	0.094632	0.27956	0.20934	0.10069	0.074998	0.10741	0.1785	0.26229	0.17492	0.06216	0.18312	0.1175	0.10312	0.16032	0.059932	0.12701	-2.4417	-2.2188	-2.8063	-2.4833	-2.3979	-3.0354	-2.2188	-2.6188	-2.8458	-2.2229	-3.0438	-2.6271	-2.2458	-3.0438	-2.3271	-2.6833	78.764	126.871	61.407	55.331	-31.909	5.293	171.663	260.549	18.203	278.444	205.540	-1.129	85.499	245.708	123.612	264.830	0.00015553	0.00019443	0.00011546	389.35	1.023e-06	5.9064e-06	339.29	143.93	3.6761e-06	2.2089e-06	140.51	57.197	59.165	32.664	6.3972e-06	30.968	0.0067567	0.013026	0.0036928	445.12	0.00013031	0.00015816	391.21	164.63	0.00013176	0.00015849	166.84	67.018	69.487	37.173	0.00013956	35.868	100.345	-2.386	72.784	-39.610	-6.841	83.418	-40.657	-33.158	85.653	90.235	-36.159	-31.512	-28.562	-24.526	86.578	-28.302	-8191	255	
3170.091	1	1	0	0	0.27826	0.33441	0.17599	0.19885	0.12576	0.096245	0.12176	0.097756	0.044704	0.14251	0.15734	0.08168	0.25344	0.21601	0.25524	0.17805	-2.6021	-2.0708	-2.9792	-2.7042	-2.2938	-3.0417	-2.3521	-2.4896	-3.0229	-2.2792	-3.0396	-2.8271	-2.1417	-3.1104	-2.4979	-2.5479	104.222	107.255	17.113	249.825	306.731	236.755	193.415	71.085	-17.122	2.026	50.838	-49.911	267.639	304.427	98.200	91.000	0.00019895	0.00024817	7.4372e-05	389.94	4.9878e-06	5.3605e-06	337.25	143.3	4.5989e-06	5.0232e-06	139.26	56.957	58.707	32.269	7.1281e-07	30.615	0.0071735	0.013779	0.003899	446.04	0.00013356	0.00016001	389.29	163.49	0.0001308	0.00015531	165.58	66.491	68.863	36.815	0.00013257	35.359	115.205	82.981	-0.587	-39.240	22.142	36.080	-40.953	-33.465	141.784	120.840	-36.049	-31.304	-28.416	-24.648	-17.995	-28.320	-8191	255	
3170.162	1	1	0	0	0.28139	0.39247	0.15126	0.16538	0.14746	0.15614	0.23528	0.12241	0.12645	0.17041	0.10487	0.11939	0.18021	0.10951	0.14481	0.13665	-2.5958	-2.0312	-2.6667	-2.8208	-2.1646	-2.9188	-2.3854	-2.5625	-2.9083	-2.2542	-2.9188	-2.8479	-2.0979	-3.0563	-2.3854	-2.4292	160.154	249.403	30.270	179.118	271.026	300.394	254.210	124.247	6.126	184.167	214.575	187.684	297.631	36.444	21.048	233.310	0.0002337	0.00031478	7.8356e-05	385.59	4.6863e-06	1.4757e-06	334.91	142.31	3.2683e-06	6.8125e-06	137.17	56.174	57.634	32.069	4.9336e-07	30.622	0.0067189	0.012827	0.0036205	439.33	0.00012224	0.00014569	383.52	161.38	0.00011772	0.00014034	162.55	65.384	67.655	36.4	0.00012406	35.028	104.374	62.502	115.094	-39.395	120.799	27.904	-40.590	-33.648	46.024	154.886	-36.163	-31.460	-28.752	-24.263	8.918	-28.198	-8191	255	
3170.259	1	1	0	0	0.14465	0.17995	0.25871	0.21969	0.30637	0.053501	0.042857	0.3009	0.3145	0.23771	0.094014	0.19959	0.14346	0.2604	0.16329	0.29524	-2.7104	-2.1896	-2.6688	-2.9708	-2.2479	-3.0083	-2.6083	-2.5167	-3.0187	-2.0792	-2.6833	-2.8438	-2.25	-3.0354	-2.7542	-2.2375	231.741	112.760	-10.456	-29.562	14.233	31.675	-0.585	-13.402	225.638	-26.314	112.606	305.002	54.906	-48.317	96.070	234.617	0.000242	0.00019905	0.00010113	386.29	2.1991e-06	4.8494e-06	335.39	141.06	5.4893e-06	3.6484e-06	139.49	56.224	57.615	32.006	6.6229e-06	30.632	0.0062444	0.011827	0.0033407	438.01	0.00011256	0.00013571	383.31	160.31	0.00011385	0.00013744	163.16	65.381	67.532	36.268	0.00012722	35.12	56.784	230.262	40.343	-39.724	100.518	56.547	-40.506	-33.569	120.897	117.105	-36.224	-31.593	-28.808	-24.433	-40.276	-28.472	-8191	255	
3170.355	1	1	0	0	0.066257	0.16972	0.19408	0.16925	0.32325	0.13269	0.1591	0.21896	0.18194	0.35654	0.24369	0.19006	0.045868	0.19347	0.25102	0.077868	-2.7521	-2.1875	-2.6208	-3.1229	-2.1188	-2.8854	-2.7479	-2.2271	-3.0938	-2.35	-2.3521	-3.0604	-1.95	-2.8854	-2.8563	-2.2042	0.825	33.653	-14.766	197.197	208.349	-23.491	133.287	248.433	202.995	-22.666	253.282	-51.279	47.199	246.371	161.932	120.762	0.00031166	0.00012149	6.6913e-05	388.5	7.3496e-06	5.0084e-06	337.68	142.37	5.0232e-06	3.3314e-06	139.95	57.183	58.139	32.232	4.7256e-06	30.77	0.0065684	0.012484	0.0035541	440.58	0.00011851	0.00014163	385.92	161.66	0.00011535	0.00013616	163.78	65.788	67.627	36.455	0.000117	35.118	87.811	41.671	26.114	-39.571	168.207	68.199	-40.682	-33.333	167.185	165.008	-35.996	-31.686	-28.795	-24.278	53.818	-28.448	-8191	255	
3170.451	1	1	0	0	0.11509	0.067344	0.17131	0.067585	0.057159	0.25176	0.13483	0.060256	0.12089	0.076844	0.16027	0.19036	0.11504	0.12369	0.26127	0.20482	-2.8167	-2.4396	-2.4208	-2.9917	-2.1188	-2.7417	-2.6667	-2.2854	-3.0958	-2.4146	-2.3271	-3.075	-2.1167	-2.825	-2.9229	-2.2875	151.215	48.188	289.206	96.366	-44.862	150.547	122.218	202.755	24.151	264.372	43.533	305.435	17.407	271.421	65.485	196.385	0.00026883	0.00025759	5.1235e-05	385.72	3.1273e-06	2.1674e-06	335.35	141.58	4.1238e-06	5.8928e-06	138.79	56.579	58.47	32.284	3.9547e-06	30.54	0.0059613	0.011448	0.0032723	437.13	0.00011031	0.00013561	383.65	160.94	0.00011344	0.00013772	163.47	65.742	67.961	36.577	0.0001276	35.193	104.787	-3.476	-39.566	-39.687	27.609	134.122	-40.720	-33.222	97.073	149.178	-36.049	-31.603	-28.668	-24.558	208.288	-28.407	-8191	255	
3170.570	1	1	0	0	0.2733	0.12849	0.17536	0.17915	0.14414	0.20747	0.15492	0.12972	0.12063	0.1853	0.16395	0.06942	0.1865	0.11242	0.15089	0.28975	-2.4833	-2.4625	-2.1771	-3.0292	-2.1542	-2.7333	-2.9792	-2.1625	-3.0208	-2.6708	-2.2396	-3.1437	-2.5042	-2.5	-2.9333	-2.2208	37.373	250.251	176.603	-24.071	206.903	265.077	271.264	297.478	73.228	8.347	-40.113	298.846	105.312	188.905	85.967	303.034	0.00021781	0.0005386	0.00014758	389.14	3.3563e-06	4.4618e-06	337.1	142.32	4.3006e-06	4.0982e-06	139.49	56.759	58.553	32.391	3.1366e-06	30.771	0.0064	0.012237	0.0034179	439.15	0.00011128	0.0001337	383.34	161.56	0.0001087	0.00013007	162.66	65.497	67.73	36.562	0.00011739	35.128	70.259	31.026	34.073	-39.327	0.924	69.205	-40.465	-33.278	45.686	102.844	-35.823	-31.420	-28.615	-24.495	81.138	-28.493	-8191	255	
3170.666	1	1	0	0	0.16212	0.12972	0.12794	0.13394	0.18392	0.12619	0.10204	0.17398	0.22969	0.23096	0.22035	0.11598	0.051067	0.23959	0.24927	0.071097	-2.575	-2.5354	-2.3125	-3.2042	-2.5292	-2.4021	-3.025	-2.2583	-2.8187	-2.5708	-2.1542	-3.1104	-2.4375	-2.4458	-2.9917	-2.1896	-13.115	-37.290	45.523	214.750	298.716	247.604	-20.075	52.374	-6.275	102.305	107.061	281.715	10.074	-43.477	196.434	150.399	0.00029973	0.00015154	0.000141	388.76	3.3076e-06	2.5324e-06	336.93	142.95	5.0736e-06	3.3884e-06	140.18	57.574	58.537	32.651	2.8504e-06	31.138	0.0059992	0.011597	0.0032802	438.6	0.00010949	0.00013264	384.52	161.92	0.00010743	0.00012931	163.91	66.088	68.182	36.894	0.0001182	35.538	70.872	18.127	25.254	-39.342	216.902	44.496	-40.550	-33.603	105.172	32.706	-36.344	-31.468	-28.456	-24.303	153.354	-28.529	-8191	255	
3170.739	1	1	0	0	0.29149	0.04908	0.28228	0.10368	0.28914	0.08593	0.058501	0.034989	0.093982	0.27719	0.16629	0.062229	0.2261	0.21281	0.067022	0.463	-2.4167	-2.7812	-2.2646	-3.0208	-2.4771	-2.2667	-3.1896	-2.3458	-2.6771	-2.9375	-2.1625	-3.0729	-2.6417	-2.3646	-3.2229	-2.5396	172.822	242.268	268.783	255.388	156.373	-26.057	-37.800	116.559	127.604	113.730	105.536	207.357	-11.576	79.333	164.188	284.527	0.00021952	0.00038017	0.00018639	390.92	1.0786e-06	3.9648e-06	341.4	144.09	3.0453e-06	2.8076e-06	141.38	57.433	58.949	32.645	5.6608e-06	31.043	0.0061014	0.011756	0.0033094	441.39	0.0001133	0.00013891	387.65	163	0.00011693	0.00014011	165.76	66.603	68.619	36.933	0.00012236	35.6	62.079	117.356	39.720	-39.531	177.703	62.165	-40.362	-33.567	24.387	65.458	-35.917	-31.402	-28.593	-24.222	116.148	-28.474	-8191	255	
3170.858	1	1	0	0	0.085783	0.19425	0.13588	0.049869	0.0063577	0.19463	0.075596	0.087983	0.20613	0.08357	0.084033	0.067119	0.15793	0.062361	0.12496	0.11652	-2.2146	-2.9771	-2.1667	-3.05	-2.6521	-2.3667	-3.2229	-2.2958	-2.6021	-3.0708	-2.2146	-2.9396	-2.9458	-2.2104	-3.1625	-2.4979	158.785	25.829	152.104	173.078	281.420	272.063	216.040	146.107	25.454	280.872	261.228	174.897	162.808	249.682	65.666	278.220	0.00020842	0.00023948	1.5448e-05	387.66	1.322e-06	4.7386e-06	335.1	142.4	3.4501e-06	5.0885e-06	137.86	57.046	58.237	32.262	2.3268e-06	30.556	0.0062885	0.012101	0.003335	440.06	0.00011293	0.00013716	383.62	161.39	0.00011383	0.00013707	162.68	65.749	67.746	36.451	0.00012204	35.096	118.083	65.790	55.590	-39.379	236.355	117.305	-40.524	-33.559	159.072	111.985	-36.252	-31.505	-28.486	-24.337	200.398	-28.335	-8191	255	
3170.954	1	1	0	0	0.1343	0.23405	0.030933	0.31913	0.21063	0.065087	0.14639	0.086061	0.20388	0.18989	0.26771	0.15502	0.2032	0.18397	0.17436	0.13042	-2.0667	-2.7521	-2.3	-3.0563	-2.6312	-2.1646	-3.0771	-2.4729	-2.3688	-3.1208	-2.1625	-2.8208	-2.7271	-2.0229	-3.1354	-2.5833	22.138	-39.969	-28.759	256.879	228.277	98.970	28.172	15.914	142.663	-43.693	225.008	233.138	269.019	10.770	87.124	134.435	0.00026624	0.00051734	0.00020011	384.41	6.3025e-06	6.5776e-06	334.96	142.09	3.4979e-06	2.7884e-06	139.53	56.476	57.968	32.019	4.5094e-06	30.852	0.0063152	0.011921	0.0033472	437.1	0.00011393	0.00013754	382.34	160.85	0.00011339	0.0001347	162.62	65.445	67.662	36.406	0.00012077	35.177	99.115	-4.235	47.129	-39.406	24.474	87.293	-40.357	-33.387	186.733	86.693	-36.202	-31.424	-28.505	-24.644	249.690	-28.415	-8191	255	
3171.050	1	1	0	0	0.25807	0.1299	0.050521	0.31061	0.18857	0.090523	0.1306	0.14337	0.17991	0.17698	0.17702	0.092773	0.058113	0.17814	0.30575	0.13619	-1.8875	-3.0292	-2.0875	-2.7438	-2.8458	-2.1792	-3.0083	-2.4958	-2.3	-2.9896	-2.2917	-2.6979	-3.0396	-2.2812	-2.7021	-2.7125	161.066	135.096	283.161	-40.957	54.217	141.645	231.747	134.540	191.541	74.911	8.663	62.238	160.909	137.882	86.328	223.820	0.00030456	0.00034778	0.00011388	384.19	5.4269e-06	5.1581e-06	337.45	141.58	4.3092e-06	3.3268e-06	138.54	56.951	58.37	32.135	6.8117e-06	30.784	0.006258	0.011947	0.0033158	436.19	0.0001118	0.00013385	382.58	160.64	0.00010752	0.00012737	162.19	65.617	67.534	36.386	0.00011549	35.223	80.911	22.652	29.466	-39.451	74.609	50.316	-40.764	-33.569	101.797	74.907	-36.293	-31.343	-28.561	-24.550	63.298	-28.245	-8191	255	
3171.171	1	1	0	0	0.051602	0.38947	0.33666	0.11462	0.10562	0.23554	0.24318	0.31827	0.26128	0.13681	0.196	0.26505	0.27497	0.15357	0.16473	0.13397	-1.8792	-3.2021	-2.4708	-2.4854	-2.9313	-2.325	-2.875	-2.6146	-2.1562	-3.1542	-2.3458	-2.5375	-3.025	-2.25	-2.8771	-2.8417	45.307	140.645	132.792	-11.174	45.258	74.480	43.524	286.883	58.616	265.733	100.743	170.673	244.182	293.434	257.601	267.214	0.00026175	8.2256e-05	0.00021131	384.85	4.9333e-06	2.4365e-06	338.86	142.29	3.9034e-06	2.6708e-06	139.18	56.935	58.332	32.172	3.176e-06	30.94	0.0059509	0.011265	0.0031928	437.12	0.00010763	0.00012958	384.54	161.04	0.00010806	0.0001284	163.27	65.871	67.643	36.478	0.00012144	35.476	106.886	102.974	132.470	-39.163	7.135	128.328	-40.495	-33.260	92.377	144.946	-36.316	-31.253	-28.614	-24.447	3.050	-28.510	-8191	255	
3171.267	1	1	0	0	0.26835	0.15287	0.15825	0.16387	0.17537	0.18953	0.20802	0.10397	0.23096	0.25668	0.27674	0.13954	0.16289	0.11103	0.13127	0.16423	-1.7938	-2.9875	-2.2958	-2.3583	-3.0708	-2.1917	-2.8542	-2.8833	-2.1646	-2.9583	-2.5333	-2.5187	-2.9229	-2.2542	-2.7	-2.8458	58.862	192.257	64.093	145.524	-17.591	99.851	228.112	-15.408	71.824	67.059	-47.765	33.947	-44.234	20.188	61.586	174.981	0.00021978	0.00071263	8.6275e-05	385.66	3.1174e-06	5.768e-06	336.54	142.69	6.5479e-06	4.1604e-06	138.78	56.708	58.51	32.163	2.6306e-06	30.729	0.0063404	0.012281	0.0035099	439.7	0.00011935	0.00014356	385.07	162.13	0.00012039	0.00014387	163.96	66.135	68.195	36.619	0.00012716	35.373	78.581	113.910	18.096	-39.162	172.941	99.284	-40.438	-33.519	87.861	153.818	-36.412	-31.310	-28.648	-24.507	136.864	-28.496	-8191	255	
3171.362	1	1	0	0	0.23985	0.14531	0.070962	0.26093	0.20163	0.21699	0.070904	0.25541	0.12293	0.072304	0.12461	0.094974	0.22512	0.20116	0.30574	0.18583	-1.775	-2.75	-2.6292	-2.2458	-3.0854	-2.1125	-2.55	-3.1646	-2.0854	-2.8917	-2.6188	-2.1146	-3.0708	-2.4396	-2.5062	-3.1188	-11.775	132.408	144.393	242.147	220.673	257.939	135.060	-33.372	186.938	173.782	253.268	87.373	100.711	-41.074	-25.884	-16.675	0.00016889	0.0001128	0.0001499	386.93	5.1938e-06	5.4286e-06	335.71	142.48	3.7937e-06	2.5554e-06	138.23	57.177	58.422	32.334	3.8548e-06	31.114	0.006482	0.012246	0.0034711	438.15	0.00011535	0.00013879	383.26	161.48	0.00011623	0.00013997	163.23	66.12	68.211	36.798	0.0001268	35.643	67.638	126.241	42.616	-39.402	92.860	138.018	-40.464	-33.334	144.053	27.539	-36.383	-31.526	-28.611	-24.534	80.981	-28.385	-8191	255	
3171.460	1	1	0	0	0.055082	0.2354	0.22508	0.07928	0.07878	0.040884	0.086592	0.10651	0.22124	0.12706	0.17004	0.31442	0.12112	0.28358	0.23372	0.013548	-1.7604	-2.8583	-2.725	-2.3396	-3.175	-2.4437	-2.4792	-2.9396	-2.2792	-2.8083	-2.7417	-2.1937	-3.1229	-2.525	-2.5938	-3.0229	13.782	103.500	133.836	53.797	66.621	246.695	-32.924	62.295	294.141	129.836	249.044	51.706	227.158	39.775	282.980	96.543	0.00020532	9.0878e-05	8.8822e-05	386.68	5.3519e-06	3.5328e-06	337.49	143.41	4.5527e-06	3.1406e-06	140.96	57.342	59.047	32.681	2.6347e-06	31.198	0.0063437	0.012325	0.0034683	440.13	0.00011578	0.00014063	386.19	162.84	0.00011837	0.00014296	165.79	66.764	69.006	37.13	0.00013119	35.899	76.619	19.971	160.152	-39.671	53.750	112.066	-40.238	-33.588	-14.412	57.309	-36.457	-31.589	-28.620	-24.678	129.146	-28.383	-8191	255	
3171.554	1	1	0	0	0.11287	0.12338	0.18971	0.3126	0.25767	0.3254	0.036262	0.15681	0.14503	0.069087	0.077993	0.26629	0.17186	0.16297	0.044228	0.28772	-2.05	-2.7687	-2.7854	-2.1979	-3.0542	-2.525	-2.2562	-3.1667	-2.3125	-2.6229	-2.7458	-2.0875	-3.1167	-2.6437	-2.3438	-3.0312	108.957	218.136	-28.349	148.323	17.897	177.068	136.423	250.372	192.297	-37.285	-26.501	-17.360	23.502	295.568	106.579	273.718	0.00022944	0.00038867	0.00019801	387.74	2.4428e-06	3.0624e-06	338.59	143.79	3.5568e-06	2.2576e-06	140.71	57.331	59.096	32.691	3.4258e-06	31.059	0.0067011	0.012913	0.003686	442.31	0.00012214	0.00014869	388.27	163.87	0.00012266	0.00014739	166.75	67.023	69.165	37.16	0.00013481	35.841	94.569	37.115	-6.026	-39.103	129.754	-16.902	-40.392	-33.176	14.231	27.935	-36.151	-31.033	-28.729	-24.503	185.721	-28.521	-8191	255	
3171.650	1	1	0	0	0.18242	0.14177	0.18838	0.10502	0.042425	0.28566	0.21844	0.06084	0.29098	0.023741	0.15121	0.31546	0.26236	0.26034	0.18544	0.30857	-1.7938	-2.7042	-2.7562	-1.9979	-2.9896	-2.6354	-2.3396	-3.1604	-2.4583	-2.4375	-2.8646	-2.35	-3.0375	-2.9062	-2.1771	-2.9542	74.994	12.692	88.396	148.941	-15.318	150.112	173.635	234.028	227.924	268.599	289.587	22.602	-18.930	302.966	159.435	-49.238	0.00030627	0.00056817	0.00013311	386.41	6.6998e-06	1.7657e-06	337.4	143.04	7.6887e-06	4.4524e-06	139.66	56.845	58.587	32.395	3.504e-06	30.916	0.0067999	0.012958	0.0036469	440.06	0.0001214	0.00014645	384.68	162.45	0.00011755	0.00014108	164.2	66.079	68.297	36.736	0.00012453	35.359	70.035	-4.245	72.785	-39.243	104.143	87.440	-40.519	-33.785	28.803	90.936	-36.268	-31.437	-28.370	-24.406	189.784	-28.404	-8191	255	
3171.746	1	1	0	0	0.13959	0.11686	0.21272	0.15409	0.10968	0.079768	0.15985	0.22933	0.16379	0.26634	0.14826	0.10116	0.15443	0.19182	0.11575	0.14565	-1.9583	-2.3542	-3.1229	-2.0729	-2.7042	-2.8771	-2.0771	-3.0146	-2.3583	-2.4542	-2.9479	-2.3021	-2.6688	-2.8417	-2.1188	-2.9688	-34.651	172.525	44.425	39.704	69.612	247.379	13.310	281.890	262.347	-27.949	132.269	250.747	-17.865	208.874	67.593	266.482	3.3856e-05	0.00023691	0.00012972	384.18	3.5509e-06	4.0372e-06	335.49	142.58	6.252e-06	2.6214e-06	140.04	56.614	58.262	32.127	3.2515e-06	30.707	0.0063027	0.012145	0.0033876	435.85	0.0001132	0.00013499	382.09	161.14	0.00011042	0.00013174	162.73	65.547	67.579	36.44	0.00011711	35.186	95.761	276.607	79.432	-39.309	80.912	51.458	-40.564	-33.453	107.625	172.664	-36.142	-31.450	-28.667	-24.368	93.203	-28.502	-8191	255	
3171.867	1	1	0	0	0.16717	0.17396	0.1995	0.26919	0.1968	0.28557	0.098485	0.070308	0.17501	0.1953	0.093726	0.047735	0.17671	0.27638	0.10935	0.073338	-2.2396	-2.0563	-2.975	-2.3271	-2.7	-2.9354	-2.1604	-2.8146	-2.5438	-2.2542	-3.0542	-2.3958	-2.4917	-3.0229	-2.3292	-2.8333	216.822	181.878	-22.081	-26.203	163.056	1.067	218.288	-32.413	213.865	304.157	-0.468	150.056	30.989	268.698	113.868	-29.643	0.00010365	5.0616e-05	0.0001482	385.41	2.6986e-06	3.2206e-06	337.6	141.76	1.9079e-06	6.9392e-06	138.95	56.799	57.91	32.209	3.8877e-06	31.031	0.0060246	0.011601	0.0032619	435.25	0.00011078	0.00013342	382.56	160.57	0.00011025	0.00013217	162.56	65.478	67.308	36.427	0.00011467	35.356	72.847	86.299	121.976	-39.594	48.809	111.948	-40.597	-33.334	81.562	108.472	-36.389	-31.371	-28.632	-24.397	125.971	-28.688	-8191	255	
3171.963	1	1	0	0	0.21092	0.19828	0.20138	0.034515	0.072754	0.14803	0.24663	0.068526	0.089885	0.26803	0.39667	0.27269	0.15712	0.44948	0.19185	0.18148	-2.2938	-2.3667	-3.0354	-2.3063	-2.5208	-3.0333	-2.2604	-2.8875	-2.7458	-2.3	-3.0417	-2.4375	-2.4208	-3.075	-2.175	-2.8771	119.302	-48.120	114.165	96.573	227.547	-33.945	-44.862	38.065	111.337	80.825	67.110	250.735	221.341	282.197	117.566	-49.105	0.00021013	0.00030582	3.5254e-05	384.44	2.7665e-06	3.0172e-06	336.77	141.6	2.2767e-06	7.7087e-06	139.37	56.84	57.849	32.294	4.3369e-06	31.039	0.005986	0.011381	0.0032354	436.97	0.0001128	0.00013625	383.73	161.07	0.00011478	0.00013918	163.74	66.137	68.169	36.668	0.00012852	35.598	87.876	37.521	43.314	-39.503	94.956	96.477	-40.460	-33.225	45.282	24.562	-35.816	-31.425	-28.202	-24.329	140.785	-28.318	-8191	255	
3172.035	1	1	0	0	0.12798	0.13932	0.13764	0.16808	0.12373	0.13222	0.017194	0.13599	0.25534	0.30252	0.11578	0.26724	0.10372	0.11036	0.077819	0.24379	-2.475	-2.2708	-3.0042	-2.625	-2.5104	-2.9917	-2.3167	-2.6875	-2.975	-2.1937	-3.0271	-2.65	-2.3875	-3.1375	-2.35	-2.8896	100.074	119.122	68.610	74.348	8.890	-0.183	233.154	298.746	115.065	224.032	-8.578	161.108	186.868	306.769	301.256	287.041	0.00023044	0.00068076	0.00012651	384.01	5.0865e-06	3.5624e-06	334.35	142.69	1.0917e-05	3.2766e-06	139.1	56.871	58.818	32.605	4.2734e-06	30.786	0.0067924	0.012868	0.0036704	439.99	0.00012541	0.00015117	384.68	162.87	0.00012683	0.00015286	165.27	66.489	69.03	37.028	0.0001354	35.614	75.759	38.594	223.833	-39.429	72.361	141.155	-40.470	-33.622	86.315	184.081	-35.929	-31.791	-28.634	-24.465	22.382	-28.371	-8191	255	
3172.131	1	1	0	0	0.051175	0.23692	0.080991	0.14563	0.11607	0.073444	0.16039	0.14754	0.315	0.19716	0.11396	0.057831	0.040859	0.13977	0.16963	0.10241	-2.3688	-2.2896	-3.0563	-2.6354	-2.2229	-3.0438	-2.3812	-2.7021	-3.0375	-2.1813	-2.7646	-2.5646	-2.2292	-2.9708	-2.3187	-2.7229	-24.256	116.275	216.240	-12.959	216.621	100.779	281.670	44.980	30.014	251.451	57.026	-22.618	-11.870	157.189	196.721	289.646	0.00021319	0.0002157	8.3241e-05	385.45	3.4408e-06	2.7065e-06	337.35	141.95	5.4189e-06	3.7959e-06	138.98	56.96	58.664	32.448	1.7691e-06	31.101	0.0069572	0.012996	0.0036601	439.43	0.00012266	0.00014625	384.45	162.06	0.00011977	0.00014333	164.88	66.359	68.704	36.938	0.00013008	35.767	81.479	6.318	4.928	-39.336	-2.781	122.241	-40.485	-33.413	84.836	264.810	-36.417	-31.524	-28.320	-24.534	157.658	-28.479	-8191	255	
3172.251	1	1	0	0	0.12808	0.087112	0.11344	0.23407	0.12932	0.20212	0.1765	0.15327	0.14469	0.16861	0.17342	0.098917	0.066436	0.20095	0.073154	0.12422	-2.6875	-2.2938	-2.9854	-2.6312	-2.1937	-3.0396	-2.5625	-2.3438	-3.0896	-1.9688	-2.9083	-2.6542	-2.1083	-3.1375	-2.3229	-2.5083	165.236	280.876	210.396	-3.004	166.220	232.233	-38.319	177.825	43.547	292.112	114.343	142.400	134.972	20.235	92.151	61.943	0.00023457	0.0004548	7.9577e-05	385.27	4.5289e-06	7.0448e-07	336.3	143.05	2.6221e-06	3.6358e-06	141.12	57.294	58.694	32.497	1.6059e-06	30.962	0.0066472	0.012692	0.0035917	439.4	0.00012066	0.00014321	384.53	162.45	0.000117	0.00013868	165.09	66.467	68.531	36.82	0.00012613	35.714	70.854	42.537	1.347	-39.150	124.345	174.626	-40.593	-33.378	-0.609	128.508	-35.962	-31.260	-28.421	-24.375	112.090	-28.573	-8191	255	
3172.348	1	1	0	0	0.1734	0.10303	0.082738	0.16125	0.30255	0.077092	0.066878	0.092391	0.096768	0.088344	0.1879	0.1243	0.082875	0.31083	0.044775	0.041117	-2.75	-2.1625	-2.8083	-2.825	-2.0542	-2.9313	-2.4604	-2.2354	-3.0812	-2.2812	-2.575	-2.9292	-2.2333	-3.0417	-2.5604	-2.4083	113.618	20.320	174.320	-29.448	269.829	202.143	-31.656	-47.579	186.144	53.797	-51.223	172.868	137.917	243.614	-32.028	10.628	0.00021602	0.00069846	6.6415e-05	385.82	2.9955e-06	6.2752e-07	336.66	142.57	4.058e-06	3.7688e-06	140.36	57.179	58.766	32.488	8.9762e-06	31.096	0.0065192	0.012253	0.0034983	437.88	0.00011488	0.00013666	383.51	161.77	0.00011204	0.00013423	164.27	66.134	68.218	36.812	0.00012122	35.589	84.954	42.486	105.942	-39.333	163.996	225.652	-40.392	-33.294	111.357	45.789	-36.167	-31.248	-28.383	-24.150	25.214	-28.077	-8191	255	
3172.442	1	1	0	0	0.18245	0.12776	0.15555	0.087905	0.22496	0.29413	0.19822	0.11904	0.14763	0.12134	0.23851	0.063093	0.12866	0.26692	0.10985	0.23826	-2.6021	-2.2167	-2.3833	-3.0146	-2.0146	-2.8292	-2.6667	-2.1458	-2.9708	-2.1813	-2.5396	-3.1083	-2.1813	-2.9833	-2.7125	-2.5104	161.128	288.476	123.517	266.286	25.097	241.889	50.801	308.528	238.485	283.746	174.585	287.709	85.383	290.203	27.298	248.989	0.00019174	0.00079675	0.00011617	385.26	4.9627e-06	2.6213e-06	334.2	144.26	4.6662e-06	3.0409e-06	138.95	57.192	59.066	32.71	2.0766e-06	31.177	0.0061842	0.011834	0.0033775	437.41	0.00011527	0.0001396	383.37	163.2	0.00011691	0.00014219	164.89	66.546	68.91	37.132	0.00012888	35.905	81.032	64.926	23.516	-39.385	137.291	22.559	-40.246	-33.412	63.790	198.394	-35.841	-31.366	-28.231	-24.008	54.609	-28.528	-8191	255	
3172.540	1	1	0	0	0.29869	0.19707	0.07527	0.085632	0.25867	0.15454	0.14296	0.17699	0.20074	0.25072	0.17992	0.15542	0.16122	0.15105	0.096409	0.31469	-2.6188	-2.5167	-2.5521	-3.0292	-2.2812	-2.8312	-2.8854	-2.3937	-2.9354	-2.4125	-2.5021	-3.1542	-2.2938	-2.8312	-2.6625	-2.45	229.023	119.417	255.859	-14.396	65.163	-7.575	30.305	-45.364	-38.840	101.066	-41.098	70.209	22.778	201.548	70.385	33.537	0.0003704	0.00048583	0.00015829	387.61	5.3662e-06	4.4609e-06	338.13	143.92	4.2143e-06	4.6254e-06	140.64	57.655	59.133	32.843	1.0245e-06	31.387	0.0065473	0.012659	0.0035957	440.48	0.00011905	0.00014522	385.47	163.63	0.00012	0.00014483	166.08	67.055	69.185	37.286	0.00013016	36.038	77.839	227.998	46.303	-38.873	82.433	201.802	-40.429	-33.408	-28.682	165.025	-35.812	-31.179	-28.528	-24.230	249.025	-28.301	-8191	255	
3172.659	1	1	0	0	0.12119	0.18033	0.36631	0.12966	0.26581	0.20542	0.080893	0.18839	0.16718	0.14615	0.2356	0.26033	0.22424	0.13008	0.19478	0.028768	-2.6667	-2.5187	-2.2604	-2.9417	-2.1729	-2.6125	-2.8354	-2.2375	-3.0083	-2.6542	-2.4	-3.0792	-2.1458	-2.5104	-3.1333	-2.1667	253.265	51.798	183.940	304.544	45.237	-13.910	124.834	96.006	67.410	-49.034	289.764	90.234	294.934	292.228	9.296	-12.538	0.00027559	0.00029774	4.4382e-05	387.98	4.8061e-06	9.9973e-06	341.33	144.96	5.2622e-06	4.698e-06	142.08	58.138	59.74	33.117	2.9143e-06	31.625	0.0065673	0.012606	0.0035385	441.42	0.00011523	0.0001377	386.77	163.67	0.0001079	0.0001272	165.45	66.825	68.84	37.249	0.00011378	36.024	61.061	127.413	-27.996	-39.145	88.532	99.654	-40.329	-33.190	42.267	260.558	-35.882	-31.514	-28.297	-24.275	195.857	-28.487	-8191	255	
3172.732	1	1	0	0	0.1695	0.23676	0.098403	0.29386	0.12845	0.051431	0.035056	0.092525	0.10442	0.18452	0.14292	0.13418	0.22043	0.21735	0.26103	0.44234	-2.5542	-2.6562	-2.2938	-3.0542	-2.2896	-2.375	-3.0271	-2.2042	-2.8167	-2.6521	-2.2	-3.1542	-2.3854	-2.6229	-3.0896	-2.3521	-35.786	109.322	264.411	36.068	261.702	61.826	-17.923	270.934	244.627	300.556	252.008	302.677	227.815	136.086	116.780	255.273	0.0002213	0.0005107	0.00027294	387.9	2.9833e-06	3.2866e-06	338.63	143.54	5.3542e-06	1.7893e-06	141	57.467	59.083	32.702	6.7466e-06	31.283	0.0058751	0.011354	0.0032658	439.57	0.00011159	0.00013681	385.73	162.88	0.00011312	0.00013565	164.94	66.445	68.573	36.982	0.00011951	35.607	76.147	83.691	36.285	-39.204	178.596	45.585	-40.273	-33.506	116.381	68.306	-35.972	-31.041	-28.507	-24.146	145.521	-28.397	-8191	255	
3172.851	1	1	0	0	0.06077	0.21822	0.17808	0.146	0.13705	0.078221	0.098138	0.2445	0.1175	0.16737	0.30724	0.106	0.16402	0.0739	0.24189	0.1522	-2.4479	-2.7292	-2.2167	-3.0792	-2.3771	-2.2896	-3.05	-2.2771	-2.7521	-3.0917	-2.25	-3.0667	-2.4688	-2.3771	-3.0521	-2.375	3.647	279.285	226.728	280.909	106.414	-12.235	28.323	133.191	-41.683	19.005	269.470	6.442	-36.379	266.940	96.971	148.225	0.00026469	0.00049713	2.2668e-05	386.01	3.2212e-06	4.292e-06	336.96	142.33	2.7939e-06	2.4087e-06	140.1	57.067	58.852	32.651	4.4062e-06	31.194	0.0061512	0.011827	0.0033254	436.38	0.00011076	0.00013381	381.06	161.29	0.00010797	0.00012929	163.21	65.79	68.044	36.838	0.00011095	35.497	81.372	45.936	-47.341	-39.155	49.502	169.239	-40.337	-33.328	205.224	60.772	-35.649	-31.212	-28.703	-24.092	120.822	-28.395	-8191	255	
3172.947	1	1	0	0	0.18869	0.19603	0.14951	0.12197	0.1465	0.032982	0.31246	0.16397	0.11553	0.065843	0.090591	0.092368	0.13512	0.094398	0.29879	0.098294	-2.35	-2.7708	-2.3187	-3.0667	-2.6104	-2.4479	-3	-2.2229	-2.5958	-2.9958	-2.2292	-3.0396	-2.9125	-2.2083	-3.1479	-2.4125	236.257	-16.533	9.030	183.056	301.645	-50.884	293.188	82.233	308.056	133.784	201.765	-12.594	125.879	252.103	238.259	197.244	0.00023755	0.00018377	0.00012624	384.88	1.7754e-06	4.6734e-06	336.12	142.95	7.2678e-06	4.8829e-06	140.08	57.147	58.663	32.69	8.4693e-07	31.224	0.0056173	0.010586	0.0029534	433.93	9.957e-05	0.00012145	380.57	161.09	0.00010374	0.00012445	162.99	65.929	68.081	36.844	0.00011623	35.707	99.770	7.890	13.568	-39.040	276.739	99.575	-40.689	-33.209	125.366	54.195	-35.933	-31.408	-28.745	-24.141	79.444	-28.601	-8191	255	
3173.043	1	1	0	0	0.19186	0.157	0.11773	0.13664	0.22752	0.3272	0.18224	0.21658	0.072909	0.21148	0.26985	0.14149	0.039644	0.31686	0.15859	0.072089	-2.1458	-3.0729	-2.2792	-3.0521	-2.7458	-2.3875	-3.1	-2.5208	-2.3438	-2.9458	-2.25	-2.7667	-2.7938	-2.3187	-3.0312	-2.3417	263.645	172.743	58.524	23.656	146.984	-18.862	220.405	255.099	292.746	3.769	243.043	258.690	246.048	265.507	189.932	73.038	0.00020502	0.0001263	8.9939e-05	385.37	2.8984e-06	2.1674e-06	337.22	143.69	3.2409e-06	3.4717e-06	141.56	57.986	58.869	32.734	2.4595e-06	31.409	0.0061491	0.011789	0.0033646	438.58	0.00011407	0.00013811	383.6	162.78	0.0001135	0.0001357	164.93	66.854	68.707	37.074	0.00012365	35.974	66.682	44.435	299.456	-39.064	41.447	127.794	-40.299	-33.166	-1.847	267.431	-35.866	-31.047	-28.428	-24.299	-27.291	-28.287	-8191	255	
3173.140	1	1	0	0	0.14791	0.038138	0.045567	0.24179	0.018545	0.072674	0.15522	0.23378	0.32049	0.16264	0.02868	0.16816	0.13371	0.17516	0.20975	0.18887	-1.875	-3.1229	-2.3792	-2.5771	-2.9	-2.0583	-3.075	-2.5646	-2.2354	-3.2562	-2.1708	-2.7083	-2.9875	-2.2625	-3.0792	-2.6771	120.402	99.640	16.699	201.560	-30.714	196.191	113.217	298.154	-10.374	123.152	223.796	9.318	221.057	-48.170	121.332	206.880	0.00019119	0.00081157	7.9209e-05	388	4.8025e-06	2.8002e-06	333.48	144.06	2.0789e-06	3.1513e-06	140.46	57.395	58.833	32.653	1.7673e-06	31.16	0.0064175	0.012137	0.0034019	439.16	0.0001162	0.00013924	383.98	163.35	0.00011732	0.00013917	164.63	66.491	68.681	36.964	0.00012444	35.657	126.527	3.845	118.482	-39.302	115.389	75.741	-40.394	-33.319	154.676	198.017	-35.923	-31.375	-28.095	-24.284	244.009	-28.326	-8191	255	
3173.260	1	1	0	0	0.11807	0.15861	0.090481	0.2086	0.24985	0.11636	0.23104	0.098819	0.14096	0.078382	0.18416	0.13888	0.30081	0.20882	0.23843	0.19973	-1.8771	-2.9833	-2.2833	-2.5229	-2.9979	-2.3083	-3.0167	-2.7667	-2.2771	-3.0604	-2.4188	-2.3958	-3	-2.3187	-2.7375	-2.8708	183.987	183.492	60.950	241.747	62.752	70.516	224.915	-36.240	88.785	-22.963	282.175	221.650	-28.947	252.442	296.215	-18.171	0.00026489	0.00026419	0.00018095	384.48	2.1904e-06	3.73e-06	335.88	142.64	6.2688e-06	4.5791e-06	140.06	57.278	58.847	32.597	4.21e-07	31.094	0.0064013	0.012164	0.003454	437.56	0.00011808	0.00014254	383.03	162.58	0.0001198	0.00014351	164.84	66.529	68.754	36.905	0.00012769	35.647	77.989	33.634	-37.051	-39.126	73.552	54.890	-40.018	-33.128	115.596	194.595	-35.983	-31.275	-28.852	-24.357	213.823	-28.394	-8191	255	
3173.332	1	1	0	0	0.054402	0.20478	0.19475	0.070582	0.11106	0.12356	0.031	0.24208	0.055997	0.24215	0.19044	0.24101	0.1546	0.099974	0.27297	0.09495	-1.8188	-2.9625	-2.4583	-2.3083	-3.1479	-2.2292	-2.6854	-2.8354	-2.1042	-3.0125	-2.6042	-2.4792	-2.9625	-2.2875	-2.8146	-2.8354	52.537	75.507	307.937	104.815	32.172	-34.599	219.334	301.096	61.951	51.734	224.257	295.196	76.176	233.008	243.322	239.630	0.00013863	0.00028207	0.00010514	385.29	1.4877e-06	5.1739e-06	335.13	143.04	5.1445e-06	3.4969e-06	140.14	57.441	58.725	32.382	3.341e-06	31.236	0.0066476	0.012585	0.0035547	438.33	0.0001202	0.0001448	383.88	162.61	0.00011917	0.00014252	164.74	66.369	68.356	36.734	0.0001217	35.586	93.085	53.410	32.178	-38.997	167.859	157.915	-40.464	-33.431	113.663	92.113	-36.129	-31.578	-28.604	-24.423	85.110	-28.524	-8191	255	
3173.428	1	1	0	0	0.37083	0.10643	0.24504	0.043846	0.052215	0.071875	0.43271	0.22604	0.026315	0.14477	0.16424	0.10521	0.042697	0.24483	0.41374	0.10589	-1.65	-3.1167	-2.6063	-2.3375	-3.0625	-2.325	-2.5021	-3.0229	-2.2438	-2.9896	-2.75	-2.3	-3.1125	-2.3271	-2.5604	-2.9813	111.026	113.099	128.826	267.162	155.815	110.871	242.714	272.995	294.645	257.661	281.612	253.783	24.967	240.405	17.052	-48.778	0.00025054	0.00037827	0.00013588	385.39	5.1036e-06	4.7412e-06	336.97	142.82	5.9821e-06	3.7441e-06	141.37	57.356	59.044	32.389	5.5862e-06	31.157	0.0060703	0.011466	0.0032362	436.38	0.00010837	0.00013106	382.92	161.98	0.00011064	0.00013318	165.01	66.483	68.547	36.818	0.00012576	35.725	90.077	-4.783	303.557	-39.225	36.317	52.336	-40.370	-33.306	63.517	50.009	-35.764	-31.046	-28.419	-24.437	108.409	-28.398	-8191	255	
3173.547	1	1	0	0	0.27729	0.069957	0.07454	0.22249	0.090173	0.18324	0.23759	0.081537	0.081271	0.2936	0.10587	0.021284	0.050569	0.22923	0.22721	0.10816	-1.7875	-2.7417	-2.7	-2.2583	-2.9625	-2.4479	-2.4521	-3.0687	-2.1208	-2.9354	-2.9083	-2.3292	-3.0521	-2.6458	-2.4979	-3.0687	114.380	-11.572	268.085	168.519	-16.225	132.152	209.628	244.662	43.069	294.659	-32.918	305.181	90.187	-31.428	11.557	3.867	0.00018119	0.00016479	0.00016111	386.38	5.4292e-06	5.6668e-06	338.44	144.29	5.61e-06	3.0706e-06	141.58	57.569	59.34	32.75	5.0154e-06	31.08	0.0064836	0.012501	0.0035631	440.01	0.00011979	0.00014573	385.98	164.06	0.00011582	0.00013859	165.41	66.727	68.924	37.1	0.00011981	35.586	113.062	65.855	35.568	-39.058	20.818	141.599	-40.364	-33.350	-21.697	97.872	-35.991	-31.203	-28.406	-24.181	116.443	-28.512	-8191	255	
3173.643	1	1	0	0	0.22106	0.1051	0.073997	0.2441	0.18145	0.24312	0.21084	0.20081	0.19942	0.29621	0.047696	0.20541	0.12555	0.035466	0.23578	0.1159	-1.7292	-2.7042	-2.8958	-2.275	-3.0396	-2.6292	-2.5125	-3.0271	-2.2604	-2.7062	-2.8563	-2.3271	-3.0125	-2.5563	-2.2833	-2.9771	258.284	276.730	230.665	244.034	143.377	232.646	236.879	214.033	127.696	152.912	79.362	291.502	291.510	48.289	-43.966	102.292	0.000276	0.00056453	0.00013631	387.15	8.6047e-06	5.8879e-06	334.74	144	7.7801e-06	3.2151e-06	141.73	57.733	59.532	33.046	1.5341e-06	31.347	0.0061338	0.01178	0.0033382	438.37	0.00011015	0.00013344	382.24	163.37	0.00010785	0.00012977	164.86	66.558	68.942	37.227	0.00011588	35.817	108.386	-23.581	39.767	-38.990	100.002	67.053	-40.136	-33.333	124.547	112.573	-36.105	-31.061	-28.380	-24.519	210.437	-28.257	-8191	255	
3173.739	1	1	0	0	0.32807	0.26984	0.095668	0.092505	0.19767	0.14906	0.19764	0.11703	0.25438	0.24706	0.29772	0.073058	0.064649	0.086586	0.065271	0.16148	-2.2021	-2.5167	-2.7979	-1.9937	-2.8312	-2.6458	-2.1771	-3.1479	-2.4375	-2.5146	-2.8854	-2.1688	-2.9375	-2.6583	-2.2646	-2.9396	191.471	14.199	245.841	123.774	91.194	48.933	237.814	91.536	146.321	59.094	193.371	-18.109	-19.590	101.641	-12.814	83.427	0.00025956	0.00038461	9.7597e-05	386.73	5.5061e-06	8.8462e-06	338.4	144.82	1.05e-06	5.1666e-06	142.22	58.009	59.839	33.115	1.0697e-06	31.64	0.005976	0.011491	0.0032297	438.12	0.00011073	0.00013399	384.78	164.21	0.00011108	0.00013495	166.42	67.134	69.462	37.383	0.00012127	36.049	52.322	303.223	98.189	-39.095	127.563	132.042	-40.512	-33.283	272.712	92.441	-35.907	-31.311	-28.308	-24.270	87.323	-28.334	-8191	255	
3173.835	1	1	0	0	0.093815	0.17119	0.21898	0.263	0.08365	0.19467	0.10471	0.21064	0.17352	0.24129	0.17487	0.25573	0.38869	0.11408	0.093353	0.2562	-1.7812	-2.3208	-2.8937	-2.2687	-2.5479	-2.8542	-2.1708	-3.075	-2.7104	-2.325	-2.9729	-2.1188	-2.6813	-2.8	-1.9646	-2.8563	271.841	185.522	206.052	205.069	283.911	216.644	285.211	280.985	157.504	27.600	131.262	301.789	-26.670	288.888	37.979	172.480	0.00022705	0.00057061	0.00010006	387.41	2.7828e-06	4.3028e-06	341.56	146.13	5.7439e-06	5.0936e-06	142.91	58.398	59.744	32.932	3.0214e-06	31.404	0.0062495	0.012165	0.0034157	439.76	0.00011579	0.00014008	387.43	164.85	0.0001148	0.00013799	167.08	67.324	69.301	37.265	0.00011812	35.883	99.124	67.767	-25.905	-39.004	106.537	51.483	-40.213	-33.199	138.218	211.248	-35.845	-30.972	-28.543	-24.151	118.062	-28.330	-8191	255	
3173.931	1	1	0	0	0.24579	0.071082	0.22553	0.17911	0.22411	0.1742	0.18064	0.065469	0.13382	0.27685	0.11248	0.10183	0.11421	0.13495	0.21801	0.15747	-2.0417	-2.2792	-2.9458	-2.2354	-2.6125	-2.9813	-2.1771	-3.0646	-2.425	-2.225	-3.2333	-2.3208	-2.4938	-2.9083	-2.1042	-2.7625	302.667	302.059	143.901	-22.977	297.790	265.819	277.260	239.511	139.890	55.683	160.183	271.612	236.491	240.577	298.483	55.773	0.00020415	0.00069539	0.00013099	387.42	3.7948e-06	3.3592e-06	336.86	143.72	3.9104e-06	4.0873e-06	140.1	57.059	58.936	32.425	1.9829e-06	31.1	0.0060996	0.011683	0.0032767	437.78	0.0001112	0.0001351	382.18	162.74	0.00011048	0.00013249	163.94	66.065	68.265	36.737	0.0001148	35.404	117.253	53.743	3.164	-39.313	100.724	89.875	-40.063	-33.142	120.383	139.305	-35.915	-31.181	-28.355	-24.098	175.693	-28.181	-8191	255	
3174.028	1	1	0	0	0.17371	0.12158	0.10926	0.3288	0.047969	0.15323	0.16285	0.21393	0.31048	0.20191	0.063248	0.08605	0.39488	0.24926	0.13125	0.15629	-2.1875	-2.1562	-2.8875	-2.2313	-2.4437	-2.9188	-2.1875	-2.8604	-2.5521	-2.3104	-3.1312	-2.2042	-2.5771	-2.9708	-2.1875	-2.9958	145.611	179.393	132.173	240.957	96.235	-49.489	-12.998	203.120	193.751	197.293	248.784	36.568	306.842	292.865	26.959	157.567	0.00020477	0.0002896	3.4561e-05	385.85	3.5745e-06	4.8346e-06	336.32	144.42	1.8457e-06	2.6104e-06	140.39	57.313	58.754	32.57	7.5165e-06	31.225	0.0059259	0.011344	0.003173	435.51	0.00011148	0.00013419	381.56	163.03	0.00011258	0.00013438	164.28	66.161	68.471	36.839	0.00011891	35.536	91.618	191.148	103.612	-38.969	92.975	165.175	-40.395	-33.322	152.331	142.009	-35.649	-31.447	-28.238	-24.369	124.185	-28.448	-8191	255	
3174.124	1	1	0	0	0.17454	0.059027	0.1833	0.18621	0.16444	0.1863	0.073643	0.21993	0.12881	0.12897	0.16559	0.082554	0.095279	0.12396	0.18587	0.11021	-2.3354	-2.1604	-2.9062	-2.5333	-2.3312	-3.1021	-2.3667	-2.8292	-2.8875	-2.0646	-2.9771	-2.4271	-2.3125	-3.0646	-2.2062	-2.8	239.678	302.294	84.435	-45.138	55.953	164.989	0.613	242.516	152.153	216.619	203.869	168.258	123.518	294.362	151.903	251.856	0.00029456	0.00036613	1.8684e-05	386.16	4.8626e-06	3.7891e-06	336.61	144.5	8.3374e-06	3.4718e-06	141.8	57.844	59.275	32.771	3.0733e-06	31.41	0.006102	0.011664	0.0032507	436.71	0.00010842	0.00012886	381.62	163.11	0.00010217	0.0001223	164.42	66.391	68.682	37.022	0.0001069	35.772	73.082	288.040	158.240	-39.335	106.032	25.596	-40.621	-33.015	27.852	156.154	-36.112	-31.354	-28.460	-24.113	38.225	-28.351	-8191	255	
3174.220	1	1	0	0	0.11574	0.093617	0.28396	0.30679	0.17385	0.18755	0.17168	0.13834	0.098914	0.13825	0.15441	0.12408	0.18105	0.064731	0.13672	0.19581	-2.4729	-2.0521	-2.8292	-2.6188	-2.0458	-2.9188	-2.3438	-2.7271	-2.8667	-2.3	-3.05	-2.5646	-2.1979	-2.9	-2.2562	-2.6917	125.615	72.463	-15.970	-45.188	299.025	22.559	58.152	280.879	-33.104	5.845	252.890	86.677	152.368	-3.023	160.716	247.254	0.00034521	0.00023949	9.4813e-05	389.14	6.3301e-07	6.6202e-06	338.67	145.49	4.6415e-06	3.2558e-06	142.54	58.042	59.425	32.849	5.1094e-06	31.437	0.0056069	0.010662	0.0030057	437.88	0.00010452	0.00012667	384.28	164.54	0.00010679	0.00012724	166.14	66.861	69.006	37.176	0.00011335	35.79	69.624	251.586	-38.987	-38.974	108.290	98.263	-40.380	-33.273	48.022	42.530	-35.929	-31.388	-28.319	-24.228	55.447	-28.397	-8191	255	
3174.339	1	1	0	0	0.16427	0.06864	0.28168	0.34964	0.25252	0.23856	0.22949	0.17922	0.15471	0.18907	0.10822	0.19715	0.19983	0.11293	0.083247	0.063942	-2.7208	-2.1958	-2.875	-2.8208	-2.2479	-3.0187	-2.4562	-2.6396	-3.0062	-1.9813	-2.7583	-2.8875	-2.1583	-3.0958	-2.4083	-2.3583	64.956	-6.172	100.185	234.222	-8.504	271.588	248.847	-46.480	148.698	266.875	-40.537	131.104	56.204	305.551	-34.038	54.242	0.00013491	0.00045136	5.1891e-05	387.64	8.3545e-06	2.805e-06	336.12	146.13	2.7314e-06	7.7123e-06	143.31	58.301	60.115	33.327	3.6298e-06	31.459	0.0057707	0.010949	0.0030911	437.77	0.00010384	0.00012458	382.7	165.07	0.00010303	0.00012297	165.74	66.965	69.374	37.551	0.00011583	35.916	73.408	290.843	236.244	-39.536	57.455	138.134	-40.431	-33.330	305.556	97.456	-36.219	-31.495	-28.491	-24.292	111.642	-28.407	-8191	255	
3174.435	1	1	0	0	0.17267	0.0983	0.10038	0.28233	0.21505	0.30002	0.37061	0.086506	0.1471	0.17064	0.086163	0.063873	0.10257	0.087919	0.19049	0.066265	-2.6771	-2.1125	-2.7729	-2.8958	-2.0146	-2.9771	-2.7333	-2.5	-3.0563	-2.3187	-2.7021	-2.9125	-2.1667	-2.9771	-2.6167	-2.3583	291.748	-25.024	210.826	247.365	126.565	240.151	-32.613	248.321	130.735	42.644	215.113	149.626	-46.978	-41.446	25.529	243.521	0.00016292	0.00027989	7.8728e-05	388.54	2.2892e-06	1.4242e-06	338.26	146.37	5.706e-06	5.1162e-06	144.47	58.21	60.594	33.514	4.1361e-06	31.802	0.0059269	0.011257	0.0031523	439.41	0.00010468	0.00012418	383.5	165.29	0.00010206	0.00012405	166.76	67.074	69.916	37.694	0.00011372	36.129	82.203	9.097	97.065	-39.058	24.312	191.632	-40.227	-33.266	91.706	26.884	-36.186	-31.484	-28.647	-24.190	120.426	-28.189	-8191	255	
3174.531	1	1	0	0	0.074752	0.18112	0.04314	0.12841	0.26692	0.063466	0.13149	0.21698	0.13433	0.10022	0.12386	0.31345	0.078162	0.1788	0.1843	0.20763	-2.6417	-2.1729	-2.6458	-2.9917	-2.1813	-3.1458	-2.7062	-2.2583	-2.9479	-2.3083	-2.8104	-2.9625	-2.2021	-2.8146	-2.6458	-2.3021	84.128	39.818	199.400	170.346	222.820	160.687	205.494	102.383	5.887	216.299	98.085	-5.786	-41.396	-34.502	166.938	168.382	0.00013902	0.00055567	8.3334e-05	391.64	2.6811e-06	3.1685e-06	339.07	147.7	4.6159e-06	4.4702e-06	144.26	58.969	60.79	33.707	4.3521e-06	32.062	0.0058243	0.011166	0.0031612	442.12	0.0001067	0.00013032	385.68	166.64	0.00010764	0.00012944	168.32	67.942	70.431	38.03	0.00011382	36.452	106.809	9.657	7.216	-39.021	41.279	88.380	-40.159	-33.306	143.213	139.390	-35.848	-31.352	-28.444	-24.208	76.667	-28.360	-8191	255	
3174.627	1	1	0	0	0.16905	0.11461	0.20219	0.094615	0.15639	0.027834	0.085718	0.093595	0.080639	0.3037	0.23265	0.33227	0.19189	0.16274	0.16596	0.29929	-2.6312	-2.3292	-2.5708	-2.9875	-2.3667	-2.7854	-2.7438	-2.2958	-2.9792	-2.4938	-2.4104	-3.0104	-2.2875	-2.625	-2.9354	-2.0958	58.936	111.779	262.214	-20.404	88.898	192.666	283.295	171.998	144.864	256.307	247.596	-8.657	204.054	291.720	294.341	217.099	0.00018474	8.9987e-05	0.00010292	392.67	1.135e-06	3.6669e-06	343.36	148.35	2.8474e-06	8.8398e-06	144.59	59.31	61.042	33.773	1.476e-06	32.088	0.0057744	0.011083	0.0031432	442.99	0.00010545	0.00012979	388.29	167.62	0.00010627	0.00012874	168.6	68.151	70.467	38.109	0.00011476	36.502	76.674	91.600	110.868	-39.072	189.645	37.338	-40.307	-33.207	86.883	124.587	-36.012	-31.155	-28.362	-24.462	276.815	-28.240	-8191	255	
3174.723	1	1	0	0	0.22502	0.12174	0.12953	0.30541	0.088402	0.19208	0.27896	0.15554	0.35069	0.15906	0.24961	0.060459	0.15338	0.12111	0.15124	0.070697	-2.6021	-2.4938	-2.4688	-3.1875	-2.2833	-2.5062	-3.0292	-2.1813	-2.7833	-2.5479	-2.3458	-3.0333	-2.2646	-2.7771	-2.8167	-2.2208	295.948	262.779	-1.928	263.226	66.190	125.115	32.936	193.810	-15.500	269.651	252.797	250.184	-3.813	221.587	82.760	33.746	0.00027458	0.00023711	6.5749e-05	391	3.8927e-06	2.6426e-06	338.64	148.65	2.814e-06	2.9709e-06	145.09	59.055	61.26	33.832	4.5722e-07	31.806	0.0058203	0.011169	0.0031781	441.48	0.00010597	0.00012918	385.56	167.78	0.00010541	0.00012739	168.47	67.912	70.756	38.108	0.00011547	36.294	112.447	70.930	35.454	-39.141	77.152	144.521	-40.450	-33.070	116.990	81.717	-35.996	-31.697	-28.379	-24.244	224.977	-28.268	-8191	255	
#DATA ENDS
