BOXY.EXE: ISS Imagent and Oximeter Data Acquisition Program Version 0.80
Ascii Record File

#ACQ INFORMATION
2  Detector Channels 
16  External MUX Channels 
1  Auxiliary Channels 
5000  Waveform (CCF) Frequency (Hz)
1  Waveforms Skipped 
30  Waveforms Averaged 
1  Cycles Averaged 
16  Acquisitions per Waveform 
10.0806  Updata Rate (Hz) 

#FILE INFORMATION
TRUE -- External MUX Channel results are PARSED.
FALSE -- AC DC and Phase are NOT grouped.
TRUE -- Companion Program Settings File CREATED.
FALSE -- AC data not excluded
FALSE -- DC data not excluded
FALSE -- Phase data not excluded
FALSE -- Auxillary Chn. data not excluded
Tab delimiters

#CALIBRATION STATE
TRUE -- Waveform Calibration Values APPLIED.


#AUX CALIBRATION VALUES
Val Type	aux-1	

Term	1.0000e+00	
Factor	0.0000e+00	


#WF CALIBRATION VALUES
A = Detector Channel
Val Type	A-AC1	A-AC2	A-AC3	A-AC4	A-AC5	A-AC6	A-AC7	A-AC8	A-AC9	A-AC10	A-AC11	A-AC12	A-AC13	A-AC14	A-AC15	A-AC16	A-DC1	A-DC2	A-DC3	A-DC4	A-DC5	A-DC6	A-DC7	A-DC8	A-DC9	A-DC10	A-DC11	A-DC12	A-DC13	A-DC14	A-DC15	A-DC16	A-Ph1	A-Ph2	A-Ph3	A-Ph4	A-Ph5	A-Ph6	A-Ph7	A-Ph8	A-Ph9	A-Ph10	A-Ph11	A-Ph12	A-Ph13	A-Ph14	A-Ph15	A-Ph16	

Term	0.00000e+00	0.00000e+00	0.00000e+00	0.00000e+00	0.00000e+00	0.00000e+00	0.00000e+00	0.00000e+00	0.00000e+00	0.00000e+00	0.00000e+00	0.00000e+00	0.00000e+00	0.00000e+00	0.00000e+00	0.00000e+00	0.00000e+00	0.00000e+00	0.00000e+00	0.00000e+00	0.00000e+00	0.00000e+00	0.00000e+00	0.00000e+00	0.00000e+00	0.00000e+00	0.00000e+00	0.00000e+00	0.00000e+00	0.00000e+00	0.00000e+00	0.00000e+00	0.00000e+00	0.00000e+00	0.00000e+00	0.00000e+00	0.00000e+00	0.00000e+00	0.00000e+00	0.00000e+00	0.00000e+00	0.00000e+00	0.00000e+00	0.00000e+00	0.00000e+00	0.00000e+00	0.00000e+00	0.00000e+00	
Factor	1.00000e+00	1.00000e+00	1.00000e+00	1.00000e+00	1.00000e+00	1.00000e+00	1.00000e+00	1.00000e+00	1.00000e+00	1.00000e+00	1.00000e+00	1.00000e+00	1.00000e+00	1.00000e+00	1.00000e+00	1.00000e+00	1.00000e+00	1.00000e+00	1.00000e+00	1.00000e+00	1.00000e+00	1.00000e+00	1.00000e+00	1.00000e+00	1.00000e+00	1.00000e+00	1.00000e+00	1.00000e+00	1.00000e+00	1.00000e+00	1.00000e+00	1.00000e+00	X	X	X	X	X	X	X	X	X	X	X	X	X	X	X	X	

B = Detector Channel
Val Type	B-AC1	B-AC2	B-AC3	B-AC4	B-AC5	B-AC6	B-AC7	B-AC8	B-AC9	B-AC10	B-AC11	B-AC12	B-AC13	B-AC14	B-AC15	B-AC16	B-DC1	B-DC2	B-DC3	B-DC4	B-DC5	B-DC6	B-DC7	B-DC8	B-DC9	B-DC10	B-DC11	B-DC12	B-DC13	B-DC14	B-DC15	B-DC16	B-Ph1	B-Ph2	B-Ph3	B-Ph4	B-Ph5	B-Ph6	B-Ph7	B-Ph8	B-Ph9	B-Ph10	B-Ph11	B-Ph12	B-Ph13	B-Ph14	B-Ph15	B-Ph16	

Term	0.00000e+00	0.00000e+00	0.00000e+00	0.00000e+00	0.00000e+00	0.00000e+00	0.00000e+00	0.00000e+00	0.00000e+00	0.00000e+00	0.00000e+00	0.00000e+00	0.00000e+00	0.00000e+00	0.00000e+00	0.00000e+00	0.00000e+00	0.00000e+00	0.00000e+00	0.00000e+00	0.00000e+00	0.00000e+00	0.00000e+00	0.00000e+00	0.00000e+00	0.00000e+00	0.00000e+00	0.00000e+00	0.00000e+00	0.00000e+00	0.00000e+00	0.00000e+00	-1.93096e+02	-1.31651e+02	-1.26893e+02	-1.81391e+02	-8.12550e+01	-6.54229e+01	-1.56795e+02	-1.62015e+02	-8.71340e+01	-6.29356e+01	-1.74004e+02	-1.71240e+02	-1.79095e+02	-1.76490e+02	-7.82813e+01	-1.49299e+02	
Factor	3.61994e-05	1.37445e-04	4.05246e-05	1.50909e-01	1.47821e-06	1.56133e-06	1.51247e-01	4.83322e-02	1.61963e-06	1.49477e-06	8.33551e-02	2.69328e-02	2.70377e-02	8.24457e-03	1.53392e-06	1.18361e-02	1.83736e-05	3.60318e-05	1.01782e-05	8.04857e-02	3.42701e-07	4.15052e-07	7.58372e-02	2.58983e-02	3.41234e-07	4.10228e-07	4.32733e-02	1.39519e-02	1.46541e-02	4.46483e-03	3.66053e-07	6.20000e-03	X	X	X	X	X	X	X	X	X	X	X	X	X	X	X	X	



#DISTANCE SETTINGS
A = Detector Channel
A-1	A-2	A-3	A-4	A-5	A-6	A-7	A-8	A-9	A-10	A-11	A-12	A-13	A-14	A-15	A-16	

2.5000e+00	3.0000e+00	2.5000e+00	3.0000e+00	2.0000e+00	3.0000e+00	1.5000e+00	3.0000e+00	3.0000e+00	3.0000e+00	3.0000e+00	3.0000e+00	3.0000e+00	3.0000e+00	1.5000e+00	3.0000e+00	

B = Detector Channel
B-1	B-2	B-3	B-4	B-5	B-6	B-7	B-8	B-9	B-10	B-11	B-12	B-13	B-14	B-15	B-16	

1.0000e+01	1.0000e+01	1.0000e+01	1.4400e+00	1.0000e+01	1.0000e+01	1.5100e+00	1.9400e+00	1.0000e+01	1.0000e+01	1.9900e+00	2.4900e+00	2.4100e+00	2.9000e+00	1.0000e+01	2.9800e+00	




#DATA BEGINS
time	group	step	mark	flag	A-AC1	A-AC2	A-AC3	A-AC4	A-AC5	A-AC6	A-AC7	A-AC8	A-AC9	A-AC10	A-AC11	A-AC12	A-AC13	A-AC14	A-AC15	A-AC16	A-DC1	A-DC2	A-DC3	A-DC4	A-DC5	A-DC6	A-DC7	A-DC8	A-DC9	A-DC10	A-DC11	A-DC12	A-DC13	A-DC14	A-DC15	A-DC16	A-Ph1	A-Ph2	A-Ph3	A-Ph4	A-Ph5	A-Ph6	A-Ph7	A-Ph8	A-Ph9	A-Ph10	A-Ph11	A-Ph12	A-Ph13	A-Ph14	A-Ph15	A-Ph16	B-AC1	B-AC2	B-AC3	B-AC4	B-AC5	B-AC6	B-AC7	B-AC8	B-AC9	B-AC10	B-AC11	B-AC12	B-AC13	B-AC14	B-AC15	B-AC16	B-DC1	B-DC2	B-DC3	B-DC4	B-DC5	B-DC6	B-DC7	B-DC8	B-DC9	B-DC10	B-DC11	B-DC12	B-DC13	B-DC14	B-DC15	B-DC16	B-Ph1	B-Ph2	B-Ph3	B-Ph4	B-Ph5	B-Ph6	B-Ph7	B-Ph8	B-Ph9	B-Ph10	B-Ph11	B-Ph12	B-Ph13	B-Ph14	B-Ph15	B-Ph16	aux-1	digaux	

4086.679	1	1	0	512	0.065138	0.29161	0.24364	0.040048	0.11677	0.10092	0.07823	0.1791	0.1372	0.062633	0.13746	0.050593	0.065614	0.15005	0.3093	0.36019	-2.575	-3.2833	-2.6125	-3.1021	-2.7417	-2.6667	-3.3438	-2.7208	-2.9729	-3.2104	-2.5646	-3.2625	-3.0375	-2.4896	-3.4562	-2.7667	167.224	236.430	452.497	209.005	312.886	159.793	432.222	153.389	354.240	331.907	174.093	405.386	421.119	410.691	432.874	482.562	0.00090262	0.00050585	0.00017702	389.51	3.51e-06	2.6039e-06	397.01	171.34	4.4464e-06	2.9083e-06	181.46	70.465	68.865	37.072	5.433e-06	38.15	0.0032457	0.0057309	0.0016457	442.03	5.5759e-05	6.7776e-05	447.85	193.01	5.6007e-05	6.7196e-05	206.02	79.976	78.43	42.369	6.0901e-05	43.497	483.519	233.999	218.069	158.011	248.549	266.385	156.189	163.289	220.620	293.623	160.030	164.543	167.766	172.321	254.874	167.943	-8191	255	
4086.799	1	1	0	0	0.17859	0.19196	0.25889	0.29821	0.14527	0.19118	0.1065	0.18487	0.27349	0.15658	0.15314	0.0524	0.22971	0.15182	0.13259	0.15927	-2.4854	-3.3292	-2.6125	-3.1708	-3.0708	-2.3708	-3.4083	-2.7417	-2.8292	-3.5312	-2.5125	-3.075	-3.1042	-2.7729	-3.2229	-2.7646	412.213	412.821	503.333	450.644	307.254	313.464	499.576	245.442	493.426	277.108	353.428	254.185	444.576	381.226	203.798	478.138	0.0010199	0.0002408	5.046e-05	399.33	5.3829e-06	6.4012e-06	403.88	177.96	6.2714e-06	4.1151e-06	186.29	73.217	71.951	38.652	2.9428e-06	39.501	0.0034325	0.0060859	0.0017349	451.14	5.9075e-05	7.1596e-05	455.29	201.19	5.945e-05	7.1145e-05	213.11	83.014	81.83	44.211	6.5095e-05	45.134	485.227	224.652	276.912	158.127	268.719	315.888	156.235	163.067	225.144	341.943	160.367	164.593	167.474	171.913	229.923	167.626	-8191	255	
4086.871	1	1	0	0	0.40802	0.13001	0.15027	0.22577	0.11896	0.06861	0.34206	0.2792	0.072748	0.10642	0.12919	0.28652	0.10319	0.17439	0.066721	0.18386	-2.3104	-3.3125	-2.6937	-3.15	-3.1583	-2.5	-3.5271	-2.9875	-2.7375	-3.5042	-2.5771	-3.0687	-3.4396	-2.6146	-3.1646	-3.1396	452.572	272.823	195.477	187.340	467.502	347.309	474.524	148.395	246.162	244.095	450.851	359.356	240.508	159.685	285.990	162.152	0.00093527	0.0003302	8.0311e-05	403.85	5.07e-06	1.8005e-06	404.84	181.72	6.5864e-06	2.3903e-06	189.96	74.477	73.193	40.466	2.6534e-06	41.055	0.0036664	0.0064459	0.0018096	456.42	6.1568e-05	7.4232e-05	457.43	206.13	6.1921e-05	7.3884e-05	216.98	84.677	83.795	46.353	6.6129e-05	46.941	482.060	263.091	285.144	158.439	262.319	392.825	156.200	163.214	227.716	356.614	160.525	164.542	167.820	171.897	274.705	167.475	-8191	255	
4086.965	1	1	0	0	0.1144	0.18629	0.16675	0.072862	0.19028	0.29473	0.10861	0.14229	0.11392	0.28602	0.106	0.1025	0.030659	0.3366	0.12847	0.23524	-2.1708	-3.4437	-2.7	-2.975	-3.4375	-2.3958	-3.2812	-3.1604	-2.7896	-3.4458	-2.5271	-2.8812	-3.3625	-2.6833	-3.1813	-3.2104	401.308	167.339	180.931	432.902	151.177	167.763	171.234	291.805	212.128	261.790	229.991	379.257	432.134	382.636	330.230	226.145	0.0008907	0.00027183	9.465e-05	399.34	1.1007e-06	2.8333e-06	399.52	183.46	2.261e-06	5.7191e-06	190.56	75.341	74.174	41.914	4.1536e-06	42.706	0.0036659	0.0064127	0.0018059	452.76	5.9603e-05	7.1038e-05	450.38	206.83	5.6527e-05	6.6431e-05	217	85.125	84.339	47.714	5.6168e-05	48.479	485.957	226.836	275.440	158.426	399.864	296.509	156.585	163.331	290.000	308.811	160.345	164.858	167.579	172.414	269.906	167.911	-8191	255	
4087.062	1	1	0	0	0.1462	0.11772	0.26704	0.19409	0.11078	0.18494	0.157	0.10946	0.19952	0.094146	0.17414	0.24508	0.19087	0.22875	0.11926	0.10842	-2.2542	-3.3104	-2.7021	-2.7896	-3.3083	-2.6417	-3.1917	-3.1896	-2.4271	-3.4542	-2.9646	-2.7667	-3.4583	-2.7479	-3.0979	-3.3083	444.372	418.654	271.940	255.423	163.089	367.730	209.843	357.843	231.250	300.499	328.105	455.971	469.847	441.732	344.009	410.654	0.0010077	0.00028692	0.00013398	397.74	1.871e-06	6.5748e-06	396.23	187.82	8.7159e-06	3.9049e-06	194.1	76.021	75.582	42.147	5.3087e-06	43.186	0.0031534	0.0053696	0.0014968	448.51	5.0097e-05	5.9318e-05	444.45	211.37	4.8631e-05	5.6507e-05	219.75	85.897	85.491	47.922	4.9291e-05	48.934	485.357	285.866	241.964	158.476	324.718	314.322	156.585	163.658	249.313	319.296	160.444	164.679	168.090	172.373	278.366	168.199	-8191	255	
4087.159	1	1	0	0	0.25467	0.17075	0.08972	0.2139	0.16671	0.09769	0.078195	0.1546	0.17897	0.20064	0.10779	0.35548	0.16281	0.082262	0.1512	0.27035	-2.0687	-3.1917	-2.7729	-2.6542	-3.3042	-2.6688	-3.1271	-3.4167	-2.4583	-3.2396	-3.0833	-2.6479	-3.3292	-2.7854	-2.8667	-3.4333	197.381	444.338	451.026	197.437	284.560	182.444	326.483	298.567	371.401	168.279	376.209	384.044	330.231	438.312	256.798	468.310	0.0011018	0.0004887	0.00013898	395.26	3.036e-06	8.9143e-07	394.05	191.52	5.9444e-06	2.7414e-06	196.68	76.506	75.857	41.685	7.431e-06	43.011	0.0027764	0.004656	0.0013378	444.6	4.5404e-05	5.3912e-05	440.4	215.47	4.5369e-05	5.2797e-05	222.17	86.096	85.783	47.396	4.7261e-05	48.829	486.683	212.391	279.922	158.724	251.430	269.313	156.754	163.667	292.276	330.427	160.843	164.711	168.065	172.699	284.504	168.207	-8191	255	
4087.278	1	1	0	0	0.38025	0.050129	0.37029	0.11734	0.13244	0.1837	0.18417	0.19034	0.187	0.18975	0.15857	0.12758	0.16068	0.096391	0.10221	0.23132	-2.0021	-3.2104	-3.1396	-2.4396	-3.3792	-2.5479	-2.7729	-3.3937	-2.5938	-3.0542	-3.0458	-2.4688	-3.4146	-2.6813	-2.5792	-3.4292	256.980	415.712	472.308	347.245	324.516	351.385	234.504	366.444	469.038	308.126	167.314	164.823	467.283	462.895	307.741	184.624	0.0010547	0.00020378	0.00010796	394.59	3.7411e-06	3.1515e-06	392.23	195.11	8.9153e-06	3.392e-06	200.31	77.141	76.162	41.308	7.1006e-06	42.848	0.0027177	0.0046428	0.001303	443.57	4.3937e-05	5.2742e-05	439.87	219.98	4.4807e-05	5.2845e-05	226.47	87.031	86.513	47.024	4.8468e-05	48.691	484.684	283.616	233.228	158.994	253.429	307.525	156.850	163.680	264.871	271.663	160.897	164.993	168.217	172.688	275.218	168.491	-8191	255	
4087.374	1	1	0	0	0.088044	0.18177	0.080752	0.17368	0.14354	0.18871	0.21233	0.18981	0.3543	0.18163	0.44614	0.0054736	0.47984	0.21318	0.16618	0.16375	-2.0646	-2.8958	-3.0542	-2.5	-3.4437	-2.6833	-2.7625	-3.4542	-2.5875	-2.8937	-3.1979	-2.6688	-3.2958	-3.1188	-2.4479	-3.3667	501.048	279.296	500.072	485.299	317.628	257.734	167.735	500.536	160.337	342.549	424.740	412.009	477.908	462.488	227.974	449.940	0.0011058	0.00029659	7.4876e-05	392.06	4.1626e-06	3.1097e-06	390.67	198.87	4.5428e-06	6.3468e-06	201.52	77.924	76.973	40.929	1.8408e-06	42.597	0.0027697	0.004681	0.0013118	442.5	4.463e-05	5.3518e-05	437.63	222.68	4.5185e-05	5.3572e-05	227.99	87.221	87	46.624	4.8964e-05	48.491	485.924	187.426	215.570	158.862	274.264	267.880	156.973	163.733	235.603	316.037	160.479	164.964	168.108	173.007	250.884	168.473	-8191	255	
4087.446	1	1	0	0	0.073663	0.081255	0.12957	0.28671	0.071104	0.056806	0.24147	0.12023	0.10331	0.38205	0.24463	0.18225	0.23583	0.022192	0.11699	0.12924	-2.1292	-2.7833	-3.1917	-2.5854	-3.0833	-3.0271	-2.4917	-3.2042	-2.5833	-2.7875	-3.3458	-2.575	-3.1854	-3.1375	-2.5458	-3.3854	296.925	227.601	446.649	433.090	165.246	296.164	161.501	449.694	377.097	306.516	440.254	435.503	477.320	475.553	295.191	163.543	0.0010298	0.00018948	0.00014559	392.27	3.3352e-06	3.0589e-06	390.7	198.73	4.5301e-06	1.952e-06	203.38	78.148	77.588	41.673	3.799e-06	43.6	0.0027625	0.0046783	0.0013313	441.76	4.4635e-05	5.3575e-05	436.89	223.68	4.456e-05	5.2711e-05	229.52	88.158	87.906	47.464	4.8051e-05	49.44	484.214	211.022	241.914	158.823	305.412	266.487	157.109	163.893	269.188	271.823	160.761	164.731	168.054	172.794	286.619	168.515	-8191	255	
4087.567	1	1	0	0	0.086666	0.21562	0.28128	0.1656	0.13463	0.041301	0.087863	0.18394	0.15581	0.092705	0.22317	0.054258	0.050011	0.10781	0.18916	0.27798	-2.4354	-2.7667	-3.2521	-2.5917	-3.2188	-3.1813	-2.4104	-3.3167	-2.8208	-2.7167	-3.5062	-2.5333	-3.1375	-3.2771	-2.475	-3.0917	481.204	295.218	385.698	355.835	196.463	260.678	163.307	487.996	368.198	320.496	492.544	264.042	420.160	184.739	459.928	447.768	0.0010792	0.00041372	0.00011872	391.16	1.4924e-06	4.6815e-06	390.65	198.77	7.0875e-06	6.5255e-06	202.85	78.384	77.64	42.367	1.8387e-06	43.991	0.0027652	0.0046576	0.0013014	440.5	4.4109e-05	5.3485e-05	436.54	223.34	4.3669e-05	5.2577e-05	228.93	88.203	87.701	47.991	4.793e-05	49.955	486.737	225.144	243.919	158.852	326.535	335.490	156.678	163.847	266.453	318.251	160.801	164.949	167.953	172.611	306.913	168.326	-8191	255	
4087.663	1	1	0	0	0.17976	0.15631	0.26071	0.12236	0.12029	0.26735	0.12002	0.051079	0.18198	0.10006	0.33892	0.21447	0.040542	0.095574	0.093073	0.10343	-2.6562	-2.6708	-3.4125	-2.7646	-2.9542	-3.3354	-2.5812	-3.3417	-2.9146	-2.7083	-3.3271	-2.8354	-2.9229	-3.4083	-2.5896	-3.1937	169.759	310.319	423.942	476.546	339.639	349.173	423.240	407.912	457.026	235.828	451.853	505.409	227.697	156.651	193.230	491.742	0.0010507	0.00038379	3.9692e-05	393.53	4.9233e-06	3.3513e-06	390.41	200.01	8.0045e-06	4.2693e-06	203.93	79.45	78.895	42.994	4.0453e-06	45.021	0.0027299	0.0046519	0.00131	442.78	4.3353e-05	5.3238e-05	438.65	224.39	4.3823e-05	5.2218e-05	231.22	89.477	88.708	48.885	4.7109e-05	50.915	480.952	223.709	238.169	158.912	231.028	334.270	156.820	163.945	262.472	298.283	160.497	164.927	167.977	172.833	268.450	168.356	-8191	255	
4087.759	1	1	0	0	0.096531	0.36856	0.2422	0.11187	0.15258	0.18188	0.18113	0.19166	0.069946	0.083008	0.049946	0.11727	0.19574	0.095809	0.014688	0.18961	-2.4667	-2.5521	-3.4479	-2.6896	-2.8187	-3.2625	-2.7167	-3.2313	-3.0208	-2.5062	-3.3604	-2.8625	-2.7896	-3.5542	-2.3854	-3.2792	352.574	256.681	154.315	481.362	282.772	310.255	318.665	430.128	421.495	307.659	452.964	263.108	207.332	458.490	368.356	471.621	0.0010464	0.00011508	6.2111e-05	392.04	1.7664e-06	2.5423e-06	388.11	199.86	1.6019e-06	3.7458e-06	203.26	79.068	77.848	43.011	4.145e-06	44.697	0.0027442	0.0046109	0.0013042	440.43	4.3747e-05	5.3038e-05	437.56	223.62	4.3873e-05	5.275e-05	229.69	89.008	88.174	48.802	4.7363e-05	50.525	484.785	224.183	234.033	158.705	315.404	339.153	156.786	163.887	266.837	317.986	160.663	164.733	168.002	172.641	278.196	168.283	-8191	255	
4087.880	1	1	0	0	0.098797	0.13276	0.18562	0.20884	0.15946	0.06886	0.22115	0.26086	0.079143	0.19401	0.049867	0.13281	0.07704	0.30721	0.23585	0.20846	-2.8479	-2.4833	-3.2625	-2.9417	-2.6917	-3.4625	-2.5979	-3.0958	-3.3208	-2.5271	-3.2812	-2.9417	-2.5292	-3.4729	-2.7021	-3.1333	232.461	350.940	451.882	151.108	282.922	360.451	329.596	408.552	264.619	405.855	415.176	376.477	438.864	405.971	404.973	490.435	0.0010675	0.00054684	0.00010347	388.33	1.4167e-06	4.8612e-06	388.86	198.68	6.5685e-06	1.8803e-06	203.49	79.243	78.501	43.254	3.4252e-06	44.887	0.0027326	0.00472	0.0012953	438.01	4.3829e-05	5.2987e-05	436.39	222.31	4.4171e-05	5.239e-05	229.91	89.147	88.578	49.105	4.7704e-05	50.895	486.186	238.203	256.484	158.882	272.046	295.593	157.000	163.937	270.989	283.207	160.616	164.920	168.080	172.569	260.094	168.352	-8191	255	
4087.974	1	1	0	0	0.11589	0.36938	0.056287	0.17797	0.042992	0.069978	0.048876	0.25607	0.155	0.24185	0.25168	0.14785	0.18963	0.25436	0.31741	0.0013972	-2.9375	-2.5167	-3.3042	-3.125	-2.775	-3.3896	-2.85	-2.8208	-3.3417	-2.4979	-3.3438	-3.1896	-2.6667	-3.4896	-2.8354	-2.8604	155.582	251.464	303.977	179.201	426.731	412.628	405.976	293.293	240.025	189.954	399.144	444.577	187.774	490.092	364.945	180.000	0.0011157	0.00030204	0.00015979	392.32	2.2623e-06	3.1394e-06	394.9	199.48	4.856e-06	3.1247e-06	205.6	80.391	79.102	44.274	3.3845e-06	46.061	0.0027911	0.0046958	0.0013177	441.25	4.4715e-05	5.3281e-05	441.36	223.35	4.516e-05	5.319e-05	232.03	90.727	89.552	50.251	4.8921e-05	52.049	482.923	212.838	223.146	158.881	205.084	295.932	156.775	163.624	231.621	304.078	160.908	164.896	168.046	172.579	255.118	168.123	-8191	255	
4088.070	1	1	0	0	0.12404	0.15107	0.044969	0.24621	0.25587	0.18079	0.13172	0.2778	0.37639	0.20157	0.15356	0.044646	0.26422	0.16849	0.19809	0.23381	-2.8833	-2.5042	-3.3833	-3.0187	-2.55	-3.4021	-2.9042	-3.0021	-3.5292	-2.5729	-3.0312	-3.3187	-2.525	-3.3812	-2.8583	-2.8125	164.053	249.504	492.234	468.052	289.041	260.455	499.422	155.495	401.874	363.107	492.031	476.871	229.174	480.087	484.076	194.296	0.0011455	0.0002289	0.00013269	397	5.0255e-06	2.9513e-06	402.2	199.25	7.2303e-06	4.6678e-06	206.5	82.458	79.536	44.686	3.9663e-06	45.715	0.0028926	0.004831	0.0013748	446.3	4.7005e-05	5.711e-05	450.28	223.96	4.7336e-05	5.6373e-05	233.53	92.486	90.268	50.86	5.1216e-05	51.957	484.032	188.350	257.502	158.750	271.081	301.366	156.658	163.905	275.077	310.447	160.461	164.835	167.858	172.443	293.420	168.056	-8191	255	
4088.166	1	1	0	0	0.1129	0.038778	0.12845	0.12917	0.24372	0.066603	0.14064	0.078621	0.10273	0.19558	0.08917	0.036658	0.16109	0.060492	0.15085	0.26813	-2.8854	-2.5167	-2.9708	-3.3333	-2.3708	-3.3563	-3.0208	-2.7167	-3.5271	-2.5458	-3.0083	-3.5167	-2.4771	-3.4562	-3.0667	-2.8542	392.314	154.455	386.125	226.936	472.598	408.282	458.318	164.785	208.725	489.516	176.395	421.379	330.065	213.487	254.645	441.232	0.0012029	0.00031486	8.3383e-05	394.17	5.9238e-06	3.5881e-06	399.74	194.08	6.3023e-06	2.8031e-06	201.03	80.764	78.083	43.276	3.6051e-06	43.427	0.0030323	0.0051735	0.0014662	445.19	5.0329e-05	6.0624e-05	448.74	218.43	5.187e-05	6.2792e-05	228.45	90.851	88.663	49.235	6.009e-05	49.433	486.381	253.782	197.880	158.782	279.445	246.947	156.562	163.666	250.757	270.253	160.551	164.510	167.695	171.979	256.955	167.892	-8191	255	
4088.263	1	1	0	0	0.103	0.077412	0.25308	0.32533	0.18346	0.076722	0.2863	0.087756	0.15439	0.22358	0.047539	0.064437	0.062105	0.10751	0.062323	0.054576	-3.0417	-2.7771	-2.8542	-3.3542	-2.4542	-3.3042	-3.0875	-2.5521	-3.3667	-2.8688	-2.7604	-3.4229	-2.5625	-3.4646	-3.175	-2.6958	472.617	295.745	488.708	210.650	199.224	466.359	168.789	374.082	454.502	354.884	441.919	442.926	218.207	413.689	250.332	386.588	0.0010919	0.00047056	5.0349e-05	395.34	2.569e-06	6.7819e-06	403.46	190.91	4.8088e-06	1.2103e-06	202.06	80.01	78.09	40.649	7.3232e-06	40.314	0.0035111	0.0061898	0.0017799	446.69	6.1195e-05	7.3713e-05	457.99	215.83	6.2912e-05	7.5827e-05	230.68	90.662	89.093	46.416	7.6529e-05	46.198	485.834	231.625	232.555	158.478	270.258	299.245	156.706	163.511	266.152	268.979	160.305	164.494	167.478	171.882	275.866	167.611	-8191	255	
4088.359	1	1	0	0	0.1302	0.11857	0.34392	0.15913	0.062361	0.11941	0.029198	0.097998	0.045732	0.17619	0.18788	0.16295	0.12362	0.21231	0.15711	0.12833	-3.0042	-2.8187	-2.6729	-3.4188	-2.6104	-3.2333	-3.3917	-2.7875	-3.2812	-3.1021	-2.6146	-3.3958	-2.6771	-3.0417	-3.3958	-2.3937	260.599	492.582	261.671	191.774	479.033	351.595	176.455	272.667	343.019	197.017	460.786	292.000	503.718	210.056	278.304	198.764	0.00099077	0.00045552	0.0001989	401.03	4.2527e-06	4.386e-06	417.04	193.08	2.3825e-06	3.7644e-06	207.35	79.663	78.628	35.678	6.4589e-06	35.901	0.0044015	0.0082574	0.0024012	458.76	8.6398e-05	0.00010711	477.92	220.55	9.4485e-05	0.0001141	239.67	91.636	91.288	41.391	0.00010726	41.943	480.133	217.379	221.849	158.669	259.848	260.621	156.346	163.169	272.625	255.535	160.230	163.599	166.893	171.891	294.796	167.647	-8191	255	
4088.455	1	1	0	0	0.065119	0.022878	0.028287	0.064037	0.053184	0.14364	0.06255	0.025632	0.25617	0.11471	0.25325	0.095656	0.25216	0.32268	0.13416	0.029772	-2.7375	-2.9292	-2.5104	-3.3375	-2.6167	-2.8042	-3.1708	-2.5104	-3.2646	-3.0104	-2.6417	-3.4833	-2.6042	-2.9667	-3.35	-2.6792	415.699	204.840	472.401	295.169	151.112	347.529	467.516	368.612	412.515	259.342	401.408	230.681	444.912	461.826	225.787	469.592	0.00088399	0.00044028	0.00018432	397.88	2.6635e-06	5.7458e-06	415.27	192.67	7.0789e-06	2.2437e-06	205.82	76.808	76.449	32.406	6.5327e-06	32.843	0.0058655	0.011095	0.0032384	461.44	0.0001156	0.00014058	480.74	221.88	0.00012239	0.00014787	242.66	89.559	90.002	38.068	0.00014326	38.982	477.918	221.633	278.111	158.304	292.110	255.949	156.447	162.928	248.737	233.976	159.779	163.575	166.550	171.899	251.305	168.231	-8191	255	
4088.575	1	1	0	0	0.043812	0.055941	0.37337	0.053373	0.12376	0.17515	0.11058	0.12256	0.3684	0.12247	0.18307	0.22272	0.3152	0.068738	0.11644	0.22371	-2.8312	-3.0917	-2.5583	-3.4688	-2.8354	-2.9938	-3.5083	-2.6833	-3.0938	-3.1104	-2.7167	-3.4188	-2.9062	-2.6	-3.2313	-2.5604	495.305	310.347	271.189	413.427	170.498	191.114	489.479	484.868	433.810	316.001	453.862	438.718	459.835	409.482	183.303	374.359	0.0007568	0.00040739	3.5674e-05	380.79	6.0267e-06	2.9691e-06	397.13	188.85	1.4995e-06	4.1795e-06	200.35	71.71	72.263	28.662	4.9703e-06	29.011	0.0074761	0.01425	0.0040727	449.84	0.00013828	0.00016722	466.49	218.89	0.00014073	0.00017135	239.72	84.589	85.885	34.065	0.00015931	35.204	480.148	282.734	393.705	158.063	280.627	264.897	156.132	162.448	196.108	445.582	159.848	163.448	166.661	172.397	312.727	168.278	-8191	255	
4088.672	1	1	0	0	0.12448	0.23832	0.13525	0.18334	0.13741	0.089563	0.27547	0.31193	0.084486	0.05328	0.27858	0.094508	0.17336	0.074331	0.099325	0.12758	-2.6271	-3.1312	-2.4062	-3.2812	-2.85	-2.6229	-3.3292	-2.6083	-3.0104	-3.2708	-2.5354	-3.3896	-2.875	-2.5875	-3.1937	-2.8167	328.804	253.617	320.097	242.697	257.376	167.485	224.530	465.831	279.429	187.352	457.569	327.274	492.764	218.039	356.588	285.633	0.00076972	0.00052368	0.00015494	367.94	5.0238e-06	5.9994e-06	386.32	184.06	7.5823e-06	4.1227e-06	193.29	67.417	68.057	26.871	6.6931e-06	27.641	0.0083254	0.015907	0.0045252	440.03	0.00015164	0.00018514	455.82	214.27	0.00015277	0.00018377	232.11	80.21	81.853	32.154	0.00017115	33.782	475.640	212.291	224.156	158.164	203.610	392.811	156.190	162.439	285.945	266.858	159.598	163.488	166.563	172.273	220.253	168.475	-8191	255	
4088.743	1	1	0	0	0.14013	0.086249	0.17287	0.11582	0.2307	0.19454	0.24068	0.24017	0.066517	0.056338	0.17595	0.093562	0.037566	0.076321	0.1608	0.20673	-2.5333	-3.2708	-2.5062	-3.25	-2.9479	-2.5979	-3.4125	-2.8604	-2.8167	-3.375	-2.5687	-3.1937	-3.0687	-2.6521	-3.2792	-2.9042	348.711	429.469	424.815	321.524	469.070	471.435	437.343	430.574	361.360	501.841	373.406	395.614	176.449	431.303	490.517	187.284	0.00062487	0.00034936	0.00019596	361.91	3.1338e-06	6.003e-06	375.59	176.25	6.3846e-06	3.0008e-06	185.93	64.687	66.3	26.641	7.0659e-06	27.523	0.0090678	0.017581	0.0050124	437.31	0.00017373	0.00021433	452.02	208.9	0.00018646	0.00023129	228.53	79.086	81.233	32.375	0.00020932	34.253	480.345	312.374	281.164	158.383	268.143	342.085	156.228	162.822	447.702	500.210	159.346	163.676	166.727	172.518	229.492	168.213	-8191	255	
4088.839	1	1	0	0	0.025809	0.013783	0.14646	0.1724	0.10212	0.071091	0.032078	0.20679	0.0056431	0.13002	0.18705	0.12518	0.15395	0.048268	0.23385	0.22811	-2.4667	-3.4479	-2.4167	-3.2604	-3.2708	-2.3479	-3.2979	-2.7562	-2.4354	-3.3583	-2.4625	-2.9938	-3.1958	-2.3688	-3.3229	-2.9875	169.038	420.951	370.247	377.974	155.266	310.715	180.110	503.558	287.974	204.021	441.828	381.667	198.074	259.013	463.110	475.790	0.00080094	0.00044159	6.5737e-05	357.12	1.9758e-06	8.6954e-06	370.59	175.09	4.2914e-06	8.0984e-06	184.24	64.509	65.291	26.366	1.6458e-06	27.048	0.010696	0.020502	0.0057365	436.56	0.00019398	0.00023674	448.45	208.13	0.00019421	0.00023492	227.45	78.529	80.855	32.239	0.00021062	33.78	476.796	414.835	167.264	157.993	296.606	325.058	156.331	162.789	331.074	263.244	159.891	163.891	166.828	172.605	314.640	168.576	-8191	255	
4088.958	1	1	0	0	0.21525	0.1601	0.12555	0.11852	0.14198	0.32559	0.33024	0.18465	0.3352	0.041991	0.11364	0.088395	0.19199	0.25509	0.068249	0.085101	-2.2396	-3.5021	-2.3208	-3.0042	-3.15	-2.5438	-3.275	-3.0208	-2.5542	-3.3146	-2.6292	-2.9667	-3.175	-2.6354	-3.2188	-3.0833	437.554	160.009	355.671	492.210	321.799	349.323	147.570	504.122	436.677	405.461	470.915	356.290	323.037	192.629	358.592	478.064	0.00074451	0.00033268	3.6944e-05	350.97	1.9224e-06	6.4669e-06	365.8	173.99	2.358e-06	2.8879e-06	181.84	62.617	64.502	25.491	8.7004e-06	26.045	0.010714	0.020383	0.0057091	430.96	0.00019347	0.00023323	442.48	206.45	0.0001913	0.00022782	224.79	76.409	79.044	31.099	0.00020471	32.617	488.277	503.676	404.012	158.327	368.601	278.671	156.423	162.779	260.529	300.543	159.505	163.571	166.836	172.692	323.008	168.528	-8191	255	
4089.054	1	1	0	0	0.06047	0.31768	0.16132	0.12661	0.11605	0.28933	0.24739	0.034483	0.16288	0.040623	0.086046	0.16977	0.11952	0.16255	0.27637	0.19819	-2.2458	-3.3646	-2.5521	-2.8479	-3.4104	-2.6188	-3.2292	-3.125	-2.475	-3.4417	-2.8792	-2.85	-3.3604	-2.7	-3.1667	-3.2271	252.827	272.706	495.297	499.053	229.106	363.661	236.116	429.860	279.430	266.843	248.826	157.839	420.666	174.066	149.205	420.237	0.00065	0.00041755	5.9321e-05	350.38	1.8837e-06	6.6731e-06	365.39	174.66	4.9583e-06	1.35e-06	182.17	60.96	62.727	24.551	7.2643e-06	25.506	0.010678	0.020538	0.0058074	430.01	0.0001974	0.00023775	442.83	207.2	0.0001948	0.00023182	225.24	74.872	77.652	30.192	0.00021381	32.114	497.461	221.522	256.264	158.479	304.421	341.921	156.279	162.817	145.179	322.455	159.726	163.844	166.618	172.759	324.072	168.772	-8191	255	
4089.151	1	1	0	0	0.18962	0.15737	0.26114	0.1836	0.19737	0.11365	0.30495	0.11419	0.11369	0.18672	0.13719	0.31733	0.080443	0.064667	0.27384	0.16191	-2.1813	-3.2562	-2.8958	-2.7729	-3.4958	-2.5729	-3.2354	-3.1771	-2.6625	-3.4042	-3.0687	-2.7479	-3.3979	-2.7396	-2.9938	-3.3083	247.248	442.804	184.066	238.363	330.236	197.609	339.567	161.236	357.712	177.299	353.228	483.370	393.833	494.357	256.331	465.589	0.00046943	0.00059407	0.00022416	351.79	5.1882e-06	2.9141e-06	369.04	176.39	7.0504e-06	7.3128e-06	183.51	60.899	63.206	25.713	7.8637e-06	26.604	0.011111	0.021426	0.0061127	434.58	0.00020907	0.00025504	451.67	210.83	0.00021854	0.00026328	230.49	76.124	79.27	31.824	0.00024695	34.01	479.288	205.379	199.630	158.218	381.098	415.109	156.078	162.695	181.656	284.744	159.616	163.527	166.449	172.883	246.225	168.533	-8191	255	
4089.247	1	1	0	0	0.14209	0.060216	0.10891	0.15312	0.1623	0.1605	0.085373	0.12278	0.15949	0.04907	0.19923	0.029132	0.12704	0.13302	0.16833	0.29683	-1.9458	-3.3229	-3.1437	-2.6854	-3.3563	-2.8625	-2.975	-3.4938	-2.4958	-3.2292	-3.0958	-2.4604	-3.4854	-2.8438	-2.8229	-3.45	471.185	278.102	273.245	220.597	410.024	169.808	441.790	339.249	298.029	251.740	215.609	293.687	436.776	493.651	478.991	468.840	0.00072583	0.00074257	0.00017757	357.89	1.1293e-06	5.0427e-06	369.56	176.57	7.8379e-07	6.0668e-06	182.66	60.423	62.36	26.663	3.8017e-06	27.372	0.012807	0.024795	0.0071065	449.07	0.00024528	0.00029952	461.52	213.75	0.00025327	0.00030538	233.37	76.944	80.264	33.288	0.00028215	35.347	470.999	177.140	214.373	158.067	441.921	318.410	156.313	162.313	166.861	375.274	159.546	163.610	166.544	172.634	373.451	168.695	-8191	255	
4089.343	1	1	0	0	0.11774	0.049203	0.046896	0.15936	0.1804	0.27979	0.20677	0.15794	0.061804	0.097109	0.17758	0.1428	0.15124	0.10558	0.15105	0.22031	-2.2438	-2.8979	-3.025	-2.5792	-3.4229	-3.0375	-2.7646	-3.4292	-2.5271	-3.1292	-3.2458	-2.5208	-3.5062	-2.8917	-2.65	-3.4708	447.381	181.481	390.439	340.862	473.218	304.418	421.393	503.828	145.079	344.267	304.369	465.107	424.880	368.656	476.304	419.299	0.00077193	0.00049466	0.00024996	359.75	4.729e-06	3.0745e-06	366.8	168.66	1.9725e-06	6.1689e-06	173.15	60.386	62.563	27.63	2.6087e-06	27.686	0.014549	0.028177	0.0079948	458.76	0.00027532	0.00033669	464.74	208.62	0.00029581	0.00036565	229.8	79.62	83.019	35.308	0.00035251	37.023	472.883	153.982	215.926	158.020	204.599	383.497	156.223	162.786	363.946	284.886	159.959	164.211	167.273	172.446	264.541	168.317	-8191	255	
4089.439	1	1	0	0	0.13907	0.065061	0.18199	0.45336	0.16702	0.23044	0.32329	0.14479	0.055523	0.20406	0.056927	0.2022	0.038633	0.14884	0.24073	0.31501	-2.1437	-2.9583	-3.2021	-2.5771	-3.3479	-3.0854	-2.8125	-3.4083	-2.7646	-2.8812	-3.3979	-2.5958	-3.1146	-3.2375	-2.3812	-3.2729	228.348	492.484	364.533	439.646	218.913	294.981	452.188	197.705	323.004	193.361	254.779	347.550	488.518	463.109	486.600	221.564	0.00063974	0.00040779	3.4937e-05	360.15	6.3715e-06	5.9349e-06	361.99	161.73	5.3494e-06	6.9261e-06	165.85	61.824	63.393	29.941	4.6009e-06	29.36	0.017986	0.035046	0.0099239	474.82	0.00032851	0.00039655	469.02	203.1	0.00031654	0.00037727	222.53	80.623	82.786	37.415	0.00031402	38.018	480.737	327.182	302.075	158.363	216.201	354.710	156.779	163.290	284.950	215.834	160.759	164.466	167.863	172.937	249.117	168.534	-8191	255	
4089.560	1	1	0	0	0.28689	0.12192	0.024717	0.075769	0.28869	0.11725	0.18624	0.12017	0.1493	0.12068	0.2137	0.25463	0.23094	0.10016	0.15915	0.11456	-2.3542	-2.7771	-3.175	-2.5646	-3.2292	-3.1188	-2.6208	-3.2583	-2.8187	-2.8187	-3.3688	-2.5708	-3.1188	-3.2021	-2.5521	-3.3563	284.558	349.326	243.159	203.882	371.288	189.869	192.731	146.482	412.377	375.521	148.204	501.774	400.338	156.663	448.260	391.288	0.00074097	0.00038522	0.00017154	361.46	8.0623e-06	6.2587e-06	359.9	161.55	3.3003e-06	8.0878e-06	165.4	62.441	63.202	31.134	8.3862e-06	30.278	0.01535	0.029217	0.0081028	458.45	0.00025698	0.0003063	448.48	196.64	0.00023478	0.00027882	210.38	77.679	79.54	37.782	0.00023403	37.694	486.776	374.575	467.801	158.216	308.615	242.140	157.018	163.838	280.985	348.024	160.536	164.708	168.247	172.841	279.845	168.488	-8191	255	
4089.656	1	1	0	0	0.1489	0.077565	0.16092	0.19978	0.21656	0.056738	0.32256	0.093866	0.12824	0.173	0.26766	0.052701	0.095044	0.12135	0.25417	0.073168	-2.5083	-2.6167	-3.425	-2.7854	-3.0667	-3.2979	-2.4896	-3.3479	-2.8958	-2.5833	-3.4521	-2.6354	-2.9354	-3.2771	-2.5417	-3.2854	372.831	245.906	182.653	248.709	326.546	155.762	493.071	490.924	351.540	469.294	416.786	226.875	181.930	387.937	403.997	350.385	0.00080796	7.5892e-05	0.00020016	357.76	3.5545e-06	4.3695e-06	353.43	158.32	8.6987e-06	1.4591e-06	162	62.328	63.363	31.183	6.3571e-06	30.088	0.011657	0.022309	0.0062393	440.38	0.00020483	0.00024633	432.56	189.98	0.00020197	0.00024318	204.08	76.661	78.514	37.62	0.00021729	37.323	489.170	327.306	244.179	158.744	292.461	222.020	157.124	163.745	285.741	158.865	160.656	165.331	168.415	172.738	350.558	168.586	-8191	255	
4089.752	1	1	0	0	0.2149	0.013722	0.11479	0.23209	0.065851	0.42077	0.14182	0.11795	0.090854	0.18066	0.18865	0.23929	0.19655	0.28877	0.1585	0.093472	-2.65	-2.5792	-3.5812	-2.5438	-2.8917	-3.2979	-2.4854	-3.3458	-3.0125	-2.6688	-3.3667	-2.6604	-2.9854	-3.3667	-2.4479	-3.1208	397.183	488.531	467.828	442.404	254.080	273.000	505.413	174.206	223.553	147.627	424.864	443.860	187.524	397.952	500.450	309.451	0.00068091	0.00042753	0.00011323	352.55	1.894e-06	3.7452e-06	341.39	152.69	3.4073e-06	2.2851e-06	157.07	61.435	62.72	31.075	4.122e-06	30.101	0.011158	0.021517	0.0060848	431.21	0.00020122	0.00024263	420.57	183.36	0.00019343	0.00023267	198.23	75.708	77.47	37.236	0.00020037	36.837	493.550	365.028	364.678	158.673	297.743	357.825	157.211	163.941	317.638	273.220	160.980	164.853	168.473	172.972	324.055	168.733	-8191	255	
4089.848	1	1	0	0	0.10895	0.27008	0.052461	0.10282	0.032159	0.22266	0.18951	0.24569	0.23487	0.081773	0.075771	0.16977	0.29635	0.3256	0.17731	0.1904	-2.7854	-2.4833	-3.3417	-2.875	-2.7062	-3.2708	-2.5646	-3.2021	-3.1521	-2.5625	-3.3521	-2.8542	-2.7792	-3.375	-2.7313	-3.1208	350.225	249.889	309.543	231.164	477.730	234.181	439.611	489.525	156.291	482.408	437.047	211.440	319.029	460.690	370.582	339.756	0.00071985	0.00017196	0.00017917	345.05	4.7949e-06	2.2792e-06	342.16	152.05	3.8897e-06	2.4862e-06	157.07	62.175	62.581	31.191	6.0459e-06	30.76	0.010115	0.019011	0.0052749	420.28	0.00017209	0.00020578	412.95	179.71	0.00016325	0.00019456	193.37	74.751	75.913	37.054	0.00016476	36.899	476.171	429.860	256.458	158.609	335.421	322.206	157.205	163.923	279.855	199.809	161.118	165.037	168.336	173.057	253.093	168.900	-8191	255	
4089.967	1	1	0	0	0.18641	0.15692	0.21388	0.17474	0.17812	0.17426	0.091866	0.060157	0.10625	0.19871	0.094568	0.12066	0.1408	0.28456	0.14074	0.049399	-2.7687	-2.475	-3.2021	-2.8604	-2.6771	-3.2979	-2.7771	-2.8688	-3.2625	-2.4458	-3.2	-2.8812	-2.4729	-3.4167	-2.7875	-2.9938	458.312	438.850	200.842	347.034	372.734	440.031	167.126	396.852	489.494	298.046	331.854	187.677	264.636	461.612	469.396	355.930	0.00076314	0.00047831	8.9736e-05	348.24	7.1869e-06	2.9434e-06	346.11	150.85	2.4149e-06	9.2756e-06	156.89	62.254	62.437	30.971	1.0484e-05	30.581	0.0083541	0.015755	0.0043528	416.1	0.00014332	0.00017166	411.24	176.99	0.00013745	0.00016247	190.34	73.883	74.739	36.584	0.00014101	36.382	486.774	196.303	234.163	158.794	276.427	303.618	156.975	164.316	232.893	317.919	160.982	165.345	168.489	173.237	315.851	168.940	-8191	255	
4090.039	1	1	0	0	0.16717	0.11057	0.21258	0.061877	0.0015333	0.10678	0.13918	0.12025	0.22521	0.088401	0.10723	0.050472	0.14216	0.15106	0.20389	0.1258	-2.9396	-2.4625	-3.15	-3.0833	-2.5604	-3.4833	-2.85	-2.7042	-3.4604	-2.6167	-3.2104	-3.3063	-2.5646	-3.4375	-2.6646	-2.7958	239.782	458.400	218.057	500.855	180.000	248.791	506.134	382.104	437.908	401.258	206.009	341.407	428.805	478.856	276.400	483.344	0.00076388	0.00070059	2.6871e-05	351.8	3.5016e-06	5.0175e-06	348.49	149.07	6.6966e-06	1.9778e-06	155.39	60.794	61.221	29.577	5.4877e-06	29.261	0.0072675	0.013605	0.0037458	416.33	0.00012407	0.00014752	408.32	173.79	0.00011974	0.00014266	185.57	71.638	72.645	34.672	0.00012473	34.928	483.267	271.341	336.234	158.907	238.561	279.844	157.094	164.194	230.402	271.375	160.852	165.343	168.291	173.247	211.103	168.992	-8191	255	
4090.135	1	1	0	0	0.21984	0.044689	0.017446	0.048688	0.27591	0.15086	0.11123	0.079258	0.12153	0.095844	0.16691	0.17435	0.16141	0.3875	0.071772	0.34471	-3.1167	-2.5271	-3.2604	-3.4042	-2.275	-3.3958	-2.9417	-2.8083	-3.5958	-2.7271	-3.0854	-3.3	-2.6417	-3.2333	-2.8792	-2.7188	432.137	245.744	459.263	484.372	410.985	361.150	312.953	445.368	475.731	479.016	331.076	293.757	202.885	179.228	501.250	430.480	0.00078443	0.0001797	4.8576e-05	354.86	4.1566e-06	6.2945e-06	350.98	149.08	2.0301e-06	5.0646e-06	155.83	60.18	60.567	28.988	8.9247e-07	29.208	0.006435	0.011916	0.0033407	416.29	0.00011228	0.00013398	409.49	172.98	0.00011189	0.00013516	185.08	71.038	71.788	33.981	0.00012179	34.661	486.022	355.504	314.488	158.491	290.788	291.694	156.563	164.159	291.602	339.932	160.741	165.106	168.432	173.337	151.758	169.280	-8191	255	
4090.255	1	1	0	0	0.11935	0.12986	0.20438	0.41061	0.14852	0.019793	0.13496	0.10405	0.18758	0.17071	0.20795	0.16844	0.19202	0.22026	0.096847	0.031308	-3.0583	-2.7	-3.0604	-3.3729	-2.6312	-3.3146	-3.0583	-2.6688	-3.3667	-2.9042	-3.0438	-3.3167	-2.7604	-3.2875	-3.175	-2.7458	482.113	484.402	159.226	443.484	353.870	388.327	440.311	161.924	340.729	382.177	457.973	160.280	160.401	154.953	456.637	345.919	0.00075156	0.00026737	7.8009e-05	357.03	1.7647e-06	3.3013e-06	354.87	150.74	4.6577e-06	4.7001e-06	157.76	61.371	62.408	29.972	1.7722e-06	30.064	0.0064041	0.01196	0.0033996	418.14	0.00011573	0.00013939	413.03	175.39	0.00011686	0.00013961	188.76	72.613	73.841	35.218	0.00012919	35.761	488.332	252.107	251.924	158.859	207.286	226.823	156.735	164.115	270.430	309.769	161.192	165.451	168.232	173.144	329.758	169.414	-8191	255	
4090.352	1	1	0	0	0.028174	0.23441	0.12779	0.39323	0.16599	0.21557	0.18713	0.23107	0.16258	0.055156	0.023227	0.099756	0.18788	0.15698	0.19925	0.2028	-3.2292	-2.5542	-2.875	-3.5271	-2.6083	-3.2208	-3.2917	-2.6292	-3.5354	-3.0458	-2.8958	-3.425	-2.4396	-3.1167	-3.0958	-2.3792	298.416	391.112	237.620	364.161	499.595	405.437	180.080	454.006	149.012	498.956	153.266	305.021	346.821	179.482	284.601	431.782	0.00071028	0.00039413	0.00012044	355.32	5.9965e-06	4.3774e-06	352.74	150.21	4.4054e-06	3.3851e-06	155.49	61.352	61.622	29.829	1.0784e-06	29.727	0.0067233	0.012528	0.0035577	418.36	0.00011881	0.00014309	412.42	175.33	0.00011772	0.00014016	187.24	72.68	73.486	35.08	0.0001276	35.445	489.559	285.496	209.166	158.792	342.941	322.178	157.083	163.958	322.642	304.147	161.130	165.322	168.241	173.285	340.010	169.067	-8191	255	
4090.448	1	1	0	0	0.041058	0.12532	0.10205	0.18995	0.093742	0.27471	0.31609	0.31991	0.16901	0.1546	0.040066	0.034712	0.097847	0.20541	0.078839	0.147	-2.8479	-2.8396	-2.7917	-3.4604	-2.6667	-3.1063	-3.3792	-2.4292	-3.2625	-3.1125	-2.7167	-3.4229	-2.6792	-3.1479	-3.2479	-2.4729	300.148	186.323	377.982	148.628	498.930	395.734	444.406	503.588	303.306	407.075	419.911	168.971	506.083	498.171	179.579	178.588	0.00068955	0.00072448	8.718e-05	353.42	3.4614e-06	3.6263e-06	349.7	146.98	3.2823e-06	5.1343e-06	152.16	60.253	59.965	28.742	3.8808e-06	28.952	0.0066311	0.012417	0.0035143	415.14	0.00011743	0.00013977	407.58	171.01	0.00011361	0.00013419	181.85	70.638	70.901	33.712	0.00011829	34.209	482.831	216.006	180.736	158.545	285.397	280.028	156.918	164.350	243.987	286.015	161.178	165.157	168.539	173.678	229.944	169.372	-8191	255	
4090.544	1	1	0	0	0.21069	0.10926	0.11537	0.12192	0.056692	0.30542	0.16039	0.093507	0.091352	0.11292	0.11102	0.091132	0.21085	0.098619	0.24378	0.078765	-2.9854	-2.9125	-2.5938	-3.5771	-2.6333	-2.8125	-3.2812	-2.4833	-3.1792	-3.1667	-2.6	-3.4521	-2.7583	-2.8604	-3.3042	-2.5187	253.975	302.311	410.130	467.144	306.647	399.188	449.422	385.679	435.643	198.371	457.103	346.207	376.264	455.984	472.493	422.875	0.00077228	0.0004087	3.4732e-05	352.38	5.4783e-06	2.4279e-06	347.89	145.1	2.0212e-06	4.4825e-06	151.9	60.319	59.802	28.426	1.5753e-06	28.732	0.0061054	0.01138	0.0032281	412.54	0.00010626	0.00012856	405.43	168.76	0.00010465	0.00012334	180.13	70.42	70.328	33.143	0.00010753	33.945	483.177	176.089	254.609	158.933	283.121	336.271	157.098	164.028	391.817	265.455	161.176	165.430	168.585	173.685	397.609	169.345	-8191	255	
4090.640	1	1	0	0	0.067253	0.14472	0.096001	0.11939	0.26537	0.1792	0.047587	0.1676	0.056903	0.19316	0.27209	0.1655	0.15833	0.29083	0.1263	0.23435	-2.6708	-3.1146	-2.5458	-3.3354	-2.7021	-2.575	-3.4021	-2.5542	-3.0542	-3.1583	-2.6583	-3.425	-2.9771	-2.7479	-3.3771	-2.6542	451.572	491.879	246.690	355.702	337.456	282.026	152.272	201.628	428.287	244.276	425.022	243.249	284.329	363.226	325.467	333.953	0.00066043	0.00056125	9.4195e-05	355.79	5.0402e-06	3.1016e-06	350.85	146.82	6.9417e-07	1.8717e-06	153.61	60.7	60.26	28.742	7.6361e-06	28.983	0.0055726	0.010332	0.0029464	413.86	9.9166e-05	0.00011953	407.54	169.78	9.9112e-05	0.00011853	181.38	70.999	70.901	33.546	0.00010592	34.292	481.704	222.375	274.282	158.677	493.343	237.764	157.035	163.799	300.029	391.241	161.190	165.545	168.482	173.454	211.560	169.294	-8191	255	
4090.736	1	1	0	0	0.22421	0.025481	0.16086	0.065024	0.12602	0.13553	0.13189	0.27276	0.07347	0.18218	0.14693	0.050059	0.13291	0.19307	0.14561	0.073588	-2.7438	-3.2687	-2.5292	-3.1729	-3.0792	-2.6875	-3.4792	-2.7062	-2.9333	-3.3417	-2.5375	-3.1063	-2.9688	-2.75	-3.3396	-2.8479	177.980	503.781	284.598	501.918	484.162	409.119	458.925	496.469	168.743	208.758	420.801	339.207	452.324	411.881	455.406	459.346	0.00077003	0.00013831	2.98e-05	355.49	1.5126e-06	1.2409e-06	352.36	146.03	4.2831e-06	5.7391e-06	152.38	60.459	60.099	28.752	3.7947e-06	28.771	0.0055227	0.010361	0.0029101	413.1	9.7072e-05	0.00011774	406.59	169.19	9.7499e-05	0.00011709	180.68	70.563	70.683	33.517	0.00010586	34.022	485.734	450.078	306.475	158.876	277.825	291.054	157.109	164.017	214.127	267.228	161.200	165.508	168.609	173.521	240.132	169.084	-8191	255	
4090.832	1	1	0	0	0.21391	0.078014	0.33606	0.13796	0.26481	0.10936	0.028094	0.07693	0.092463	0.093548	0.34407	0.24477	0.12369	0.21254	0.16009	0.2383	-2.3708	-3.2375	-2.5187	-3.2208	-3.0271	-2.6	-3.425	-2.8896	-2.7646	-3.3854	-2.55	-3.0583	-3.2729	-2.5667	-3.5042	-2.8604	469.936	164.698	492.144	453.244	202.411	291.073	178.078	259.472	458.853	379.862	392.616	411.316	310.899	292.039	409.652	204.135	0.00070002	0.00062534	0.00011005	352.84	3.1589e-06	3.3901e-06	348.42	144.95	3.8714e-06	4.4114e-06	150.63	59.318	58.967	28.092	7.4073e-06	28.583	0.0055834	0.010543	0.0029854	411.48	0.00010158	0.0001246	403.19	167.85	0.00010187	0.0001224	178.78	69.652	69.821	32.937	0.00010877	33.717	481.539	229.992	189.488	158.913	162.906	275.615	157.026	164.006	233.263	340.908	161.267	165.472	168.716	173.626	267.641	169.332	-8191	255	
4090.929	1	1	0	0	0.18572	0.1442	0.31807	0.3044	0.068195	0.21845	0.28079	0.24807	0.25391	0.31272	0.090564	0.30989	0.27062	0.055009	0.17654	0.31361	-2.3563	-3.4021	-2.45	-3.075	-3.2729	-2.3896	-3.3896	-2.8208	-2.7104	-3.4229	-2.5458	-2.9604	-3.2938	-2.525	-3.1542	-3.0146	380.164	353.932	180.311	155.490	457.903	231.340	451.514	222.509	341.875	486.498	348.920	474.736	449.998	494.368	189.564	374.308	0.00065664	0.00041041	0.00011502	351.12	9.1583e-06	2.7084e-06	345.42	144.01	7.5002e-06	8.106e-07	149.81	59.656	59.524	28.576	2.2483e-06	29	0.0058146	0.01084	0.0030496	409.93	0.00010175	0.0001232	402.13	167.63	0.00010198	0.0001219	178.56	69.948	70.13	33.489	0.00010863	34.341	487.265	195.406	248.808	158.942	309.856	327.377	157.048	164.241	292.880	218.800	161.237	165.537	168.546	173.820	425.286	169.302	-8191	255	
4091.047	1	1	0	0	0.20484	0.18636	0.18862	0.26977	0.11929	0.01035	0.304	0.2748	0.1022	0.049176	0.072698	0.076063	0.2823	0.15277	0.074269	0.23162	-2.1896	-3.3333	-2.5812	-2.7979	-3.1521	-2.475	-3.3833	-3.1396	-2.5875	-3.3396	-2.7938	-2.9896	-3.4771	-2.7208	-3.1688	-3.2771	217.418	416.439	463.251	182.884	161.615	176.216	398.513	390.085	486.758	186.100	398.584	208.508	470.342	409.564	393.606	424.461	0.00081532	0.00021192	9.3187e-05	353.51	5.0371e-06	3.9638e-06	348.04	144.85	9.2238e-06	2.0706e-06	150.39	60.123	59.632	28.753	2.8296e-06	29.343	0.0056785	0.010506	0.0029765	411.2	9.9991e-05	0.00012009	404.15	167.84	9.9945e-05	0.00011925	178.71	70.377	70.34	33.73	0.00010512	34.43	484.598	260.675	150.776	158.947	234.904	311.775	156.814	163.992	314.771	283.438	161.190	165.687	168.861	173.566	255.882	169.334	-8191	255	
4091.144	1	1	0	0	0.13698	0.22043	0.10209	0.40018	0.098212	0.1725	0.15051	0.10222	0.23576	0.0027906	0.034852	0.2527	0.17348	0.11938	0.17421	0.23152	-2.2042	-3.1875	-2.7938	-2.75	-3.3854	-2.6	-3.1854	-3.35	-2.4729	-3.4208	-2.9	-2.6396	-3.3688	-2.6167	-3.0604	-3.2125	196.101	488.823	492.611	388.429	258.111	235.190	495.442	481.033	428.887	276.674	213.670	413.609	322.601	266.225	317.813	397.193	0.0007364	0.00027047	5.2799e-05	353.3	5.5211e-06	1.0436e-06	349.49	145.49	2.7456e-06	3.8035e-06	150.45	60.104	59.546	28.251	7.4767e-06	28.647	0.005511	0.010144	0.0028567	411.05	9.6612e-05	0.00011505	403.52	167.99	9.5659e-05	0.00011438	178.29	70.293	70.14	33.126	0.0001011	33.765	483.788	287.489	419.268	158.836	249.416	298.148	157.241	164.115	199.395	268.427	161.242	165.632	168.716	173.578	273.123	169.268	-8191	255	
4091.240	1	1	0	0	0.069694	0.10684	0.040566	0.10751	0.088774	0.38802	0.11377	0.12919	0.16809	0.20849	0.22525	0.17853	0.10014	0.094666	0.081612	0.12565	-2.0021	-3.3	-2.825	-2.5479	-3.3021	-2.7854	-2.9229	-3.3396	-2.5	-3.3771	-2.8312	-2.7687	-3.2604	-2.6604	-2.9979	-3.3417	318.250	338.845	263.725	167.291	310.115	503.820	498.801	400.891	482.873	386.989	385.465	387.202	191.062	262.214	163.604	474.179	0.00071488	0.0010167	0.00014111	354.54	5.0863e-06	3.3475e-06	349.61	146.02	4.6097e-06	3.5428e-06	151.6	59.981	59.746	28.376	4.6006e-06	28.597	0.0053142	0.0099511	0.0028319	413.13	9.4639e-05	0.00011449	405.18	168.69	9.5082e-05	0.00011306	179.87	70.293	70.596	33.231	0.0001026	33.911	494.872	221.959	205.812	159.157	282.963	265.672	157.263	164.079	317.179	164.514	161.182	165.585	168.560	173.624	297.937	168.981	-8191	255	
4091.336	1	1	0	0	0.22149	0.15456	0.13704	0.22989	0.29987	0.10701	0.069247	0.092849	0.40843	0.18199	0.038916	0.15325	0.051942	0.24212	0.10917	0.24995	-2.2104	-3.0667	-3.0687	-2.55	-3.1729	-2.7104	-3.0333	-3.2667	-2.5542	-3.025	-3.2542	-2.5563	-3.425	-2.8604	-2.5729	-3.3854	201.241	277.540	326.834	365.169	390.654	231.933	464.047	175.157	289.262	307.587	478.890	251.603	183.325	456.394	235.589	223.057	0.00065987	0.00083612	0.00010442	357.1	4.7758e-06	6.5258e-06	351.73	145.61	4.2202e-06	2.6581e-06	151.99	59.978	59.98	28.62	4.7203e-06	28.873	0.005459	0.01029	0.0029223	415.42	9.8332e-05	0.00011983	406.65	168.76	9.8676e-05	0.00011714	180.12	70.163	70.485	33.436	0.00010316	34.335	480.320	195.835	226.392	158.960	313.933	387.813	157.602	163.974	257.803	224.907	161.388	165.413	168.419	173.395	282.188	169.748	-8191	255	
4091.432	1	1	0	0	0.12402	0.107	0.10787	0.20155	0.1065	0.3617	0.23863	0.21997	0.047112	0.11503	0.10009	0.17963	0.088964	0.36852	0.14768	0.13705	-2.0167	-3.0229	-3.1458	-2.5333	-3.4208	-2.6479	-2.6896	-3.3625	-2.5708	-3.0542	-3.2646	-2.6146	-3.3583	-3.0208	-2.6771	-3.4458	182.688	366.756	343.826	481.571	333.395	415.201	189.804	498.195	432.692	432.331	165.234	313.132	437.444	421.234	284.752	417.317	0.00072108	0.00012204	0.00016756	353.61	4.6064e-06	3.9008e-06	349.3	145.44	2.2379e-06	7.5574e-07	151.29	60.336	59.896	28.795	6.5574e-06	29.248	0.0054767	0.010265	0.0028834	412.68	9.7878e-05	0.00011848	404.34	167.9	9.6694e-05	0.00011637	179.11	70.372	70.524	33.728	0.00010215	34.455	473.150	462.429	231.004	158.967	268.319	268.500	157.346	164.135	319.679	428.848	161.077	165.434	168.602	173.670	254.933	169.356	-8191	255	
4091.528	1	1	0	0	0.092511	0.12241	0.20237	0.14411	0.12293	0.19532	0.31419	0.2204	0.097753	0.2323	0.17573	0.26769	0.074564	0.2696	0.099524	0.10063	-2.1875	-2.9146	-3.1521	-2.6729	-3.2604	-2.9792	-2.5771	-3.3479	-2.6729	-2.6354	-3.2812	-2.6333	-3.0625	-2.9396	-2.6708	-3.4208	365.442	310.178	201.051	495.913	160.013	240.880	390.843	492.318	320.357	212.670	266.395	501.164	278.412	438.633	300.276	182.596	0.00073962	0.00051848	0.00013795	351.9	5.3344e-06	1.4524e-06	345.9	144.24	3.3744e-06	1.7005e-06	150.2	60.028	59.919	28.594	5.5093e-06	28.818	0.0053232	0.0098592	0.0028	410.37	9.2784e-05	0.00011172	401.48	166.95	9.2106e-05	0.00010952	177.94	70.225	70.29	33.405	9.8636e-05	34.049	475.724	271.395	196.298	158.830	292.126	278.247	156.981	164.339	262.052	235.658	161.155	165.869	168.764	173.775	325.254	169.484	-8191	255	
4091.649	1	1	0	0	0.042254	0.11692	0.041096	0.10625	0.051927	0.14852	0.09	0.078739	0.092428	0.27711	0.09999	0.21218	0.093449	0.037651	0.097944	0.11461	-2.4167	-2.6354	-3.35	-2.5	-3.2229	-3.1958	-2.5687	-3.4208	-2.7625	-2.6771	-3.5771	-2.7167	-3.1792	-3.1562	-2.5521	-3.2708	384.253	465.385	493.178	310.264	210.679	230.020	275.733	181.885	306.246	287.896	399.883	200.913	389.698	195.603	175.277	415.908	0.00071237	0.00027224	8.618e-05	351.76	4.9528e-06	3.4926e-06	346.14	143.17	5.2255e-06	1.6524e-06	149.47	59.712	59.29	28.273	1.9154e-06	28.767	0.005219	0.0097352	0.0027624	409.52	9.2875e-05	0.00011264	401.15	166.08	9.2392e-05	0.00011027	177.36	69.644	69.699	33.015	9.8454e-05	33.917	486.023	241.599	309.771	158.965	304.908	387.535	157.278	164.463	291.967	279.333	161.177	165.377	168.833	173.427	488.948	169.539	-8191	255	
4091.745	1	1	0	0	0.11583	0.23883	0.21739	0.095038	0.1825	0.3238	0.10814	0.18294	0.10501	0.21298	0.041738	0.32992	0.17104	0.086432	0.10514	0.10338	-2.4646	-2.5854	-3.4083	-2.7271	-2.7979	-3.2	-2.5208	-3.3042	-2.9396	-2.4583	-3.3479	-2.5958	-2.8104	-3.3167	-2.4729	-3.2188	384.657	270.754	402.054	462.821	204.725	373.047	481.980	185.484	194.951	210.752	233.151	454.732	457.494	363.933	191.083	292.706	0.00067057	0.00027344	9.6562e-05	349.6	4.3237e-06	5.5259e-06	344.27	142.94	3.4408e-06	3.5458e-06	149.24	59.849	59.044	28.618	5.7373e-06	29.003	0.0051876	0.0095071	0.0026724	407.27	9.0689e-05	0.00010824	398.72	165.39	8.9322e-05	0.00010904	176.56	69.783	69.667	33.489	9.9944e-05	34.288	479.877	189.926	188.063	159.210	268.338	287.828	157.154	164.580	198.353	360.227	161.509	165.802	168.846	173.851	248.225	169.481	-8191	255	
4091.841	1	1	0	0	0.084263	0.042902	0.23855	0.11219	0.04344	0.079139	0.15319	0.27836	0.18209	0.018873	0.040542	0.2054	0.04769	0.1425	0.16877	0.38996	-2.6625	-2.4333	-3.4979	-2.7479	-2.8958	-3.4646	-2.6583	-3.1396	-3.0417	-2.65	-3.5125	-2.7917	-2.7667	-3.2875	-2.6229	-3.0958	441.277	223.716	336.929	482.747	266.761	454.795	320.392	248.619	420.082	470.732	286.544	498.825	235.913	498.557	395.722	444.511	0.00078646	0.00019582	9.7804e-05	349.37	3.2122e-06	3.696e-06	343.6	142.99	5.3175e-06	4.6427e-06	149.46	59.777	59.298	28.554	2.9211e-06	28.95	0.0052213	0.0096905	0.0027172	407.35	9.2204e-05	0.00010989	397.45	165.66	9.1562e-05	0.00011117	176.75	69.765	69.964	33.445	9.9552e-05	34.118	483.450	425.583	280.651	159.096	246.547	233.732	157.282	164.337	298.174	279.239	161.398	165.548	168.789	173.852	276.062	169.738	-8191	255	
4091.913	1	1	0	0	0.065765	0.17406	0.27245	0.26324	0.056257	0.16226	0.11774	0.11829	0.25565	0.42379	0.32054	0.2077	0.36454	0.045336	0.24857	0.052974	-2.8229	-2.6729	-3.4396	-2.9062	-2.9021	-3.3167	-2.5292	-3.0479	-3.1583	-2.5083	-3.4833	-2.9437	-2.8083	-3.4917	-2.6875	-3.1917	363.700	211.530	259.430	462.367	294.758	427.392	221.091	282.349	411.978	449.691	350.701	264.194	482.787	498.001	402.430	419.944	0.00082803	0.00013804	5.8841e-05	349.35	3.0599e-06	3.0959e-06	343.57	143.77	1.9016e-06	1.9102e-06	150.78	59.871	59.621	28.726	4.6412e-06	28.921	0.0053156	0.0099131	0.0027947	407.68	9.6538e-05	0.00011677	398.73	167.04	9.6818e-05	0.00011758	179.12	70.187	70.642	33.712	0.00010886	34.326	484.720	190.792	327.526	158.873	294.127	323.380	157.195	164.447	225.552	331.307	161.562	165.360	168.891	173.732	295.712	169.442	-8191	255	
4092.032	1	1	0	0	0.1594	0.20224	0.036252	0.34166	0.1855	0.26307	0.24633	0.19333	0.23427	0.11104	0.14335	0.054729	0.086223	0.13641	0.2996	0.36183	-2.8104	-2.5896	-3.3625	-3.0854	-2.6396	-3.5604	-2.8187	-2.9146	-3.4625	-2.4292	-3.2625	-3.1	-2.7375	-3.4167	-2.8917	-2.875	413.127	501.210	429.243	406.986	361.074	282.751	441.327	436.348	153.846	465.527	152.089	498.852	395.623	161.690	467.458	392.968	0.00079087	0.0008015	0.00015631	348.6	1.9673e-06	2.8362e-06	344.9	145.91	5.1914e-07	4.8438e-06	153.45	60.803	60.537	29.243	2.9257e-06	29.557	0.0057259	0.010798	0.0030308	409.6	0.00010377	0.00012552	401.45	168.94	0.00010292	0.00012411	182.28	71.267	71.861	34.428	0.00011346	35.218	486.637	275.928	217.322	159.121	440.785	249.430	157.401	164.094	258.135	242.298	161.377	165.433	168.621	173.848	328.084	169.243	-8191	255	
4092.128	1	1	0	0	0.2229	0.10565	0.047348	0.045422	0.1552	0.14808	0.16569	0.12087	0.056232	0.018205	0.15509	0.077441	0.25542	0.25353	0.20343	0.18378	-3.075	-2.4354	-3.1604	-3.1292	-2.6604	-3.4271	-2.8063	-3.0208	-3.4208	-2.5292	-3.275	-3.1604	-2.4917	-3.5062	-2.9354	-2.8104	418.390	340.434	232.618	192.836	201.811	375.447	361.369	425.663	313.359	305.583	390.153	483.862	147.374	155.481	506.446	217.783	0.00075757	3.938e-06	0.00013511	354.64	1.9993e-06	4.0505e-06	347.17	148.97	4.0279e-06	7.1805e-06	156.07	61.95	62.265	30.108	6.9669e-06	30.048	0.00601	0.011301	0.0031819	414.49	0.00010806	0.00012977	407.04	173.69	0.00010638	0.00012897	186.05	72.931	73.678	35.339	0.00011544	35.823	482.657	152.732	344.423	159.016	330.379	268.163	157.316	164.519	305.826	280.412	161.210	165.394	168.855	173.661	244.826	169.352	-8191	255	
4092.224	1	1	0	0	0.24911	0.29055	0.080261	0.25004	0.080222	0.12638	0.23651	0.22416	0.02697	0.1688	0.1118	0.086304	0.12196	0.19466	0.13651	0.079309	-2.9896	-2.625	-2.9667	-3.3187	-2.4979	-3.2896	-2.9875	-2.7667	-3.3771	-2.6958	-3.1125	-3.4667	-2.6	-3.375	-2.9938	-2.6708	476.085	283.202	248.036	281.814	321.591	256.960	157.894	202.728	171.449	389.651	278.042	376.985	329.348	504.624	482.750	407.523	0.00075776	0.00015276	0.00018493	351.91	3.2563e-06	8.0387e-06	346.21	148.45	6.39e-06	3.1565e-06	154.23	61.375	61.318	29.555	3.7047e-06	29.457	0.0061355	0.01148	0.0032378	412.99	0.00011074	0.00013355	405.69	173.5	0.00011136	0.00013353	185.64	72.412	73.253	34.819	0.00012003	35.208	484.305	168.344	227.226	158.810	234.203	236.969	157.303	164.593	336.244	310.996	161.371	165.274	168.893	173.519	342.400	169.248	-8191	255	
4092.320	1	1	0	0	0.25947	0.15247	0.20633	0.18522	0.24989	0.15015	0.023949	0.12226	0.0098705	0.17362	0.11732	0.05384	0.15802	0.18323	0.16408	0.13904	-3.0687	-2.6833	-2.9354	-3.2687	-2.6292	-3.3271	-3.1937	-2.5812	-3.325	-2.7812	-2.9292	-3.4417	-2.6667	-3.2354	-3.1292	-2.6604	184.319	189.184	410.538	476.248	263.590	278.688	175.859	285.876	478.614	389.475	156.570	171.588	213.378	423.306	490.869	438.679	0.00068686	0.00037285	8.8233e-05	347.99	2.6559e-06	3.0332e-06	341.72	146.89	2.1902e-06	1.3001e-06	152.96	60.484	60.569	28.761	4.2457e-06	29.15	0.0062866	0.011751	0.0033009	410.43	0.00011057	0.0001323	401.41	171.42	0.00010894	0.00012912	183.23	71.334	71.986	33.802	0.0001132	34.436	482.707	202.045	243.933	159.215	234.899	340.924	157.231	164.564	262.074	345.135	161.425	165.237	168.553	173.538	211.492	169.244	-8191	255	
4092.441	1	1	0	0	0.22896	0.24007	0.072655	0.11623	0.12441	0.15167	0.10568	0.084283	0.089379	0.071591	0.27425	0.2875	0.32074	0.23881	0.26255	0.21569	-3.0708	-2.8896	-2.6521	-3.4667	-2.4562	-3.1458	-3.4604	-2.6	-3.2687	-2.8792	-2.7042	-3.3667	-2.5896	-3.0979	-3.2583	-2.4437	170.574	150.956	180.012	224.897	431.607	242.930	188.216	454.675	327.375	349.185	493.923	463.208	438.764	458.822	147.230	320.712	0.00080824	0.00037164	0.00012685	347.03	3.8404e-06	3.3733e-06	342.19	145.83	6.263e-06	3.1421e-06	152.4	59.894	60.081	28.251	4.2678e-06	28.782	0.0058615	0.010973	0.0031013	408.42	0.00010484	0.00012639	400.53	170.24	0.00010335	0.00012195	182.37	70.696	71.257	33.247	0.00010976	34.083	494.873	209.610	203.755	159.323	265.459	385.314	157.204	164.462	271.629	271.029	161.481	165.403	168.620	173.772	170.636	169.261	-8191	255	
4092.512	1	1	0	0	0.094158	0.072293	0.080127	0.12996	0.15723	0.12254	0.23029	0.094741	0.1522	0.058766	0.24585	0.20348	0.19311	0.095333	0.06847	0.029548	-2.8167	-2.8021	-2.4375	-3.4167	-2.7604	-3.1604	-3.3542	-2.7104	-3.2667	-3.1333	-2.5833	-3.3625	-2.9437	-2.7854	-3.3	-2.6875	230.843	362.894	163.283	449.173	355.405	166.807	410.535	351.516	234.861	202.160	408.994	295.390	422.886	267.865	155.130	223.755	0.00074891	0.00035027	0.00023608	346.69	4.1e-06	5.455e-06	341.29	146.31	3.3828e-06	9.4701e-08	152.21	59.691	59.694	28.157	1.8094e-06	28.369	0.005778	0.010796	0.0030536	408.25	0.00010311	0.00012429	400.16	170.55	0.00010214	0.00012239	182.32	70.384	70.93	33.141	0.00010937	33.849	482.194	172.571	295.403	159.183	289.961	242.895	157.312	164.621	220.132	353.081	161.661	165.691	168.555	173.552	342.158	169.227	-8191	255	
4092.609	1	1	0	0	0.22559	0.12283	0.15514	0.14206	0.13138	0.15674	0.011816	0.067571	0.15804	0.081437	0.12212	0.12872	0.23876	0.11519	0.24303	0.089158	-2.8354	-3.1042	-2.5	-3.4521	-2.8312	-2.8271	-3.3937	-2.725	-3.2667	-3.2479	-2.5521	-3.3312	-2.8458	-2.6688	-3.2062	-2.7208	193.137	229.394	374.140	329.380	485.105	182.509	494.429	240.317	427.129	270.788	398.880	493.711	419.841	461.899	244.354	271.846	0.00081168	0.00022624	1.465e-05	347.86	5.1136e-06	1.669e-06	342.42	146.3	3.0964e-06	5.6889e-06	151.5	59.676	60.016	27.813	2.6638e-06	27.94	0.0056941	0.01073	0.0030502	407.68	0.00010225	0.00012446	400.08	170.66	0.00010257	0.00012323	182.27	70.018	71.025	32.74	0.00011184	33.378	484.240	166.914	358.755	158.947	287.161	462.255	157.459	164.188	281.279	251.148	161.334	165.247	168.508	173.481	391.401	169.660	-8191	255	
4092.729	1	1	0	0	0.16356	0.24245	0.11225	0.10737	0.12071	0.19398	0.091116	0.14949	0.20853	0.15562	0.27033	0.20018	0.25177	0.037999	0.18711	0.1893	-2.6458	-3.2958	-2.2979	-3.4958	-2.6229	-2.7375	-3.4688	-2.6229	-2.9479	-3.3063	-2.6813	-3.2792	-3.0521	-2.6458	-3.5042	-2.7646	486.275	195.758	391.463	446.363	267.431	492.922	320.238	410.557	490.993	448.236	452.611	420.217	298.299	466.016	491.201	286.317	0.00063012	0.0005043	0.00013463	346.29	5.5129e-06	2.1389e-06	340.93	147.26	5.4286e-06	5.4758e-06	153.56	59.45	60.255	27.921	4.3981e-06	28.071	0.0058544	0.011023	0.0031273	408.57	0.00010588	0.00013006	400.92	171.64	0.00010777	0.0001313	184.41	70.678	71.772	33.017	0.00012057	33.728	484.631	211.091	227.476	158.997	290.834	252.358	157.303	164.254	238.011	259.462	161.252	165.256	168.179	173.399	224.346	169.376	-8191	255	
4092.825	1	1	0	0	0.13584	0.10854	0.15186	0.19301	0.16248	0.088671	0.4684	0.073782	0.072752	0.16153	0.1084	0.11153	0.14537	0.15147	0.048622	0.29978	-2.3208	-3.2125	-2.3875	-3.4208	-3.0042	-2.6	-3.2625	-2.9062	-2.8521	-3.4271	-2.7042	-3.2125	-3.1562	-2.6396	-3.4167	-2.9271	183.048	376.241	389.288	480.187	466.682	160.725	397.608	156.657	484.392	236.893	433.706	435.988	474.259	457.275	190.485	463.142	0.00073933	0.00036374	7.054e-05	348.67	6.0248e-06	3.4182e-06	342.95	148.48	9.7848e-06	5.614e-06	156.36	60.442	61.606	28.844	4.0782e-06	28.91	0.006401	0.012155	0.0034678	412.53	0.00011775	0.00014409	404.74	174.94	0.00012014	0.00014502	188.62	72.306	73.941	34.234	0.00013253	34.77	487.545	214.299	441.592	159.239	275.850	314.855	157.424	164.370	277.211	292.390	161.253	165.377	168.293	173.595	312.241	169.287	-8191	255	
4092.921	1	1	0	0	0.23916	0.26562	0.031599	0.32324	0.28347	0.1691	0.18514	0.25543	0.14555	0.15773	0.18228	0.12205	0.15397	0.12253	0.14411	0.093237	-2.4271	-3.2958	-2.6604	-3.3063	-3.0208	-2.6792	-3.4625	-2.8708	-2.7812	-3.3292	-2.7229	-3.0521	-3.1688	-2.4771	-3.1688	-2.875	477.229	159.948	177.400	409.219	440.149	158.336	204.779	405.276	186.062	220.103	403.319	487.264	475.926	449.329	405.696	361.105	0.00088864	4.723e-05	0.00016754	346.38	1.7897e-06	4.9583e-06	344.27	150.26	2.4187e-07	4.6544e-06	156.98	61.28	62.441	28.928	9.386e-06	28.738	0.0070457	0.01341	0.0037758	414.73	0.0001294	0.00015688	408.25	177.98	0.00013012	0.00015681	191.29	73.467	75.095	34.513	0.00014263	34.798	488.992	311.473	248.002	159.048	238.776	311.214	157.376	164.137	364.306	313.050	161.306	165.257	168.508	173.431	278.937	169.228	-8191	255	
4093.040	1	1	0	0	0.0080543	0.078891	0.13864	0.17361	0.31489	0.12865	0.29208	0.13759	0.16186	0.02148	0.01082	0.14566	0.16486	0.22535	0.10684	0.20231	-2.1375	-3.2167	-2.5771	-2.9979	-3.2583	-2.5312	-3.2583	-2.9	-2.6458	-3.4125	-2.5021	-2.9	-3.1896	-2.5521	-3.275	-3.1875	256.151	367.458	245.588	347.684	406.649	432.645	347.769	147.846	361.676	167.181	458.107	226.021	147.840	160.314	179.504	400.964	0.00088247	0.00039991	0.00010046	344.07	1.9902e-06	1.7409e-06	338.2	149.61	7.2444e-06	4.5296e-06	155.17	60.455	61.303	28.313	3.3879e-06	28.277	0.0074133	0.014031	0.0039622	412.6	0.0001335	0.00016206	404.66	176.8	0.00013392	0.00015933	189.01	72.32	74.095	33.787	0.00014167	34.148	483.016	290.037	294.188	159.349	244.522	307.320	157.511	164.223	244.130	255.372	161.297	165.122	168.392	173.633	207.795	169.645	-8191	255	
4093.136	1	1	0	0	0.30555	0.10854	0.061318	0.089281	0.094043	0.14188	0.064095	0.27857	0.19497	0.19749	0.17696	0.28579	0.12676	0.10557	0.22224	0.14194	-2.1354	-3.4625	-2.8063	-2.8167	-3.4625	-2.4333	-3.2583	-3.1583	-2.4667	-3.4	-3	-2.6458	-3.4354	-2.7396	-2.9396	-3.1667	500.066	162.100	244.189	421.317	163.180	164.520	404.604	490.847	389.317	418.206	265.793	188.333	312.031	459.533	420.237	162.939	0.0007635	0.00069541	0.00013768	340.94	3.4503e-06	2.9747e-06	336.21	146.5	6.2041e-06	6.3824e-06	154.15	59.748	60.565	28.579	5.7948e-06	28.52	0.0073017	0.013644	0.0038466	408.27	0.00012909	0.00015566	400.31	173.74	0.0001248	0.00014915	186.07	71.152	72.843	33.912	0.00013127	34.424	486.613	243.356	191.424	159.130	153.145	215.729	157.380	164.410	326.532	216.668	161.571	165.631	168.613	173.499	297.411	169.337	-8191	255	
4093.208	1	1	0	0	0.081218	0.0625	0.13018	0.1068	0.13719	0.086048	0.083701	0.062354	0.15364	0.078024	0.1762	0.15548	0.1597	0.1203	0.18205	0.22849	-2.05	-3.2	-3.0146	-2.6583	-3.3604	-2.6708	-3.1229	-3.2	-2.5917	-3.3604	-3.0229	-2.8187	-3.4688	-2.6562	-2.8729	-3.1125	328.356	341.206	290.589	490.220	361.476	369.529	309.204	190.438	282.197	499.352	468.550	157.019	447.907	480.759	354.920	303.355	0.0007084	0.00017642	4.249e-05	342.19	2.4622e-06	5.835e-06	336.44	147.42	5.9836e-06	8.3324e-06	153.7	60.158	61.018	28.869	3.4962e-06	28.939	0.006792	0.012693	0.0035488	407.54	0.00012036	0.00014586	399.39	172.95	0.00011922	0.00014421	185.58	71.475	73.093	34.322	0.00012882	34.787	483.132	288.349	216.276	159.240	344.588	347.515	157.579	164.239	248.958	272.965	161.289	165.403	168.820	173.759	209.300	169.668	-8191	255	
4093.329	1	1	0	0	0.038587	0.19762	0.088256	0.29714	0.12691	0.1132	0.1164	0.17334	0.043205	0.15138	0.30552	0.14801	0.087506	0.41125	0.18836	0.095043	-2.1813	-3.2938	-2.8958	-2.6021	-3.3729	-2.6958	-2.9208	-3.5646	-2.675	-3.2292	-3.175	-2.6167	-3.3312	-2.7667	-2.6375	-3.4458	488.130	238.830	160.395	339.674	433.033	385.432	410.521	485.862	255.582	419.945	396.467	192.256	412.351	353.201	257.396	172.532	0.00073079	0.0004613	0.00016387	342.79	3.2111e-06	7.2612e-06	335.77	146.68	9.3566e-06	2.4484e-06	152.24	59.42	59.978	28.319	8.04e-07	28.365	0.0068053	0.012857	0.0036363	408.16	0.00012309	0.00014986	398.31	172.85	0.00012265	0.00014657	184.75	70.998	72.522	33.856	0.00013278	34.238	483.248	232.311	228.544	159.562	322.226	240.566	157.427	164.496	271.295	372.463	161.057	165.497	168.677	173.847	191.422	169.041	-8191	255	
4093.425	1	1	0	0	0.072368	0.10048	0.05138	0.095423	0.093177	0.10031	0.11488	0.37724	0.22246	0.15638	0.23307	0.045444	0.062839	0.228	0.21375	0.12433	-2.0979	-3	-3.0667	-2.5333	-3.3563	-2.8125	-2.7958	-3.3833	-2.4167	-2.9875	-3.2	-2.6208	-3.3104	-2.9875	-2.6979	-3.4313	384.299	301.230	147.066	426.551	382.728	355.808	314.204	215.700	316.134	265.811	390.824	485.397	259.094	434.337	466.758	478.349	0.00080987	0.00010155	6.4505e-05	340.98	3.5308e-06	6.2216e-06	334.56	146.08	4.8159e-06	7.0688e-06	151.88	59.204	60.167	28.186	7.4524e-06	28.041	0.006941	0.013184	0.0037109	407.37	0.0001242	0.00015119	397.89	172.56	0.00012307	0.00014679	184.34	70.592	72.027	33.47	0.00013057	33.894	488.102	201.067	229.594	159.119	297.479	274.513	157.734	164.389	249.093	281.601	161.673	165.523	168.501	173.605	271.881	169.582	-8191	255	
4093.521	1	1	0	0	0.15324	0.15721	0.22806	0.2786	0.18912	0.16671	0.12	0.21501	0.040304	0.11131	0.17602	0.12845	0.08917	0.084475	0.1931	0.40419	-2.2583	-2.9229	-3.3146	-2.3854	-3.5521	-3.0208	-2.6875	-3.4667	-2.7083	-3.0667	-3.2979	-2.7625	-3.3792	-3.1625	-2.7604	-3.3208	196.344	409.802	359.890	313.722	256.504	430.489	169.467	206.587	489.945	358.951	155.648	482.420	497.794	162.415	451.097	470.151	0.0007102	0.00079062	0.00012075	341.71	2.3964e-06	4.1689e-06	335.95	146.52	4.1012e-06	3.7158e-06	153.15	59.596	61.014	28.596	7.9823e-07	28.756	0.0067024	0.012681	0.003594	406.7	0.00012114	0.00014574	398.74	172.76	0.0001214	0.00014524	185.49	71.281	72.964	34.032	0.00012769	34.63	490.442	249.282	234.639	159.343	312.211	336.598	157.671	164.539	285.780	234.461	161.609	165.385	168.834	173.721	291.679	169.391	-8191	255	
4093.642	1	1	0	0	0.30219	0.1204	0.16577	0.18573	0.25265	0.24053	0.043675	0.10733	0.15497	0.062464	0.27536	0.084069	0.22512	0.26098	0.03249	0.078301	-2.4729	-2.8958	-3.2479	-2.6208	-3.3792	-3.0708	-2.6	-3.3688	-2.725	-2.7979	-3.3063	-2.5438	-3.2562	-3.2938	-2.4313	-3.35	386.024	393.217	293.235	188.428	349.721	235.101	474.316	488.242	410.109	440.119	304.831	444.011	498.644	186.096	238.801	443.564	0.00069352	0.00018151	5.0496e-05	341.75	3.7562e-06	3.0968e-06	335.97	148.22	4.0367e-06	1.4476e-06	153.49	59.887	61.202	29.107	4.3994e-06	29.111	0.0066982	0.012559	0.0035589	408.47	0.00012058	0.00014556	400.24	174.39	0.000121	0.0001448	186.53	71.762	73.59	34.558	0.0001304	34.963	488.392	295.863	361.829	159.238	397.829	329.515	157.634	164.567	251.088	497.325	161.615	165.487	168.862	173.806	250.428	169.240	-8191	255	
4093.738	1	1	0	0	0.053233	0.063043	0.23152	0.060694	0.16395	0.26903	0.1114	0.16854	0.083487	0.099672	0.12794	0.089406	0.022114	0.17731	0.12257	0.16323	-2.3937	-2.6188	-3.3708	-2.7083	-3.1208	-3.3104	-2.6542	-3.3521	-3.0687	-2.7792	-3.3458	-2.5854	-3.0187	-3.3271	-2.6688	-3.2646	369.995	321.482	178.729	385.345	359.908	344.572	343.574	352.006	169.850	249.929	449.416	328.066	305.718	455.667	380.895	168.051	0.00078818	0.00050995	0.00010114	342.21	4.4014e-06	3.0538e-06	336.55	149.11	9.266e-06	3.763e-06	156.91	61.13	62.36	29.408	3.0453e-06	29.127	0.0067924	0.012695	0.0036085	409.07	0.0001213	0.00014697	400.54	175.65	0.0001221	0.00014547	187.81	71.949	73.945	34.528	0.00012965	34.774	483.072	224.777	213.322	159.278	233.554	344.173	157.599	164.602	216.927	263.913	160.785	164.326	168.176	172.734	300.674	168.549	-8191	255	
4093.810	1	1	0	0	0.1019	0.072936	0.1975	0.11603	0.17006	0.10737	0.227	0.13117	0.1362	0.13698	0.034132	0.094623	0.19458	0.11861	0.10366	0.16912	-2.5958	-2.5167	-3.4188	-2.5625	-3.0146	-3.2812	-2.6917	-3.2083	-2.9771	-2.6458	-3.5708	-2.7375	-2.8333	-3.2125	-2.5563	-3.2062	441.630	284.889	436.635	181.602	174.495	172.657	447.516	265.544	390.918	256.428	381.087	298.059	218.834	353.852	183.628	470.716	0.00086239	3.9906e-06	0.00011955	346.98	3.5737e-06	1.5154e-06	343.47	150.22	6.0092e-06	6.5393e-06	155.29	60.425	61.851	29.371	5.8388e-06	29.254	0.0067175	0.012682	0.0036184	408.15	0.00012101	0.00014669	400.43	174.83	0.00012107	0.00014546	186	71.317	73.277	34.452	0.00012799	34.833	489.402	240.176	267.951	158.552	230.431	349.231	156.697	163.872	255.181	337.693	160.819	164.541	167.984	172.924	241.081	168.505	-8191	255	
4093.906	1	1	0	0	0.16838	0.36314	0.10898	0.19192	0.26715	0.24492	0.19767	0.073568	0.08101	0.18679	0.27788	0.062953	0.13972	0.10664	0.15541	0.16011	-2.7917	-2.3937	-3.3542	-2.7729	-2.7917	-3.4688	-2.7208	-3.1417	-3.0271	-2.6896	-3.5042	-2.7792	-2.6521	-3.5146	-2.6083	-3.0458	251.263	332.952	311.260	436.534	399.723	390.378	476.616	150.779	175.562	253.445	328.862	417.798	176.119	339.019	439.190	466.728	0.00057682	0.00049426	0.00020273	346.19	5.1441e-06	2.5381e-06	342.03	149.09	4.1351e-06	5.885e-06	155.62	60.387	61.385	29.711	7.3729e-06	29.895	0.0066162	0.012401	0.0034856	407.41	0.00011825	0.0001432	398.64	173.67	0.00011503	0.0001384	185.01	70.977	72.728	34.859	0.00012225	35.277	473.005	300.642	309.406	158.690	297.902	347.000	156.886	163.922	267.971	235.283	161.063	164.867	168.264	172.922	266.099	169.009	-8191	255	
4094.002	1	1	0	0	0.037015	0.19293	0.19864	0.049221	0.10536	0.087186	0.19077	0.26855	0.30994	0.18324	0.044008	0.1344	0.20411	0.31016	0.091057	0.26472	-2.7021	-2.4646	-3.3167	-2.8583	-2.7646	-3.4062	-2.4708	-3.0542	-3.2271	-2.5021	-3.3896	-2.8937	-2.4854	-3.5583	-2.7458	-2.975	236.836	489.442	438.469	149.325	412.078	343.601	473.996	339.997	475.891	260.898	224.336	318.116	485.228	494.225	307.521	193.424	0.00080149	0.00025628	0.0001091	346.84	7.9975e-06	2.9231e-06	339.9	147.87	4.4334e-06	2.1917e-06	153.75	60.093	61.03	29.663	4.3015e-06	29.604	0.006336	0.011997	0.0033457	406.27	0.00011232	0.00013538	394.89	171.61	0.00010917	0.00013101	182.51	70.529	72.164	34.648	0.00011386	34.79	480.026	192.784	273.216	158.512	259.274	198.855	156.808	164.197	240.491	262.803	160.857	164.993	168.116	173.107	291.545	168.876	-8191	255	
4094.121	1	1	0	0	0.11603	0.070058	0.18368	0.14738	0.15122	0.12816	0.038896	0.33714	0.097602	0.19704	0.24503	0.10352	0.33131	0.19137	0.29038	0.066703	-2.9	-2.6437	-3.2375	-3.1312	-2.7646	-3.5812	-2.8229	-2.8396	-3.4896	-2.65	-3.2521	-3.1104	-2.5667	-3.4542	-2.8812	-3.0187	237.756	312.573	328.983	410.917	259.499	382.612	226.247	300.200	196.565	393.408	306.236	481.306	446.705	176.801	425.268	369.092	0.00058	0.0007098	3.9651e-05	348.48	4.2711e-06	2.0728e-06	338.37	148.25	3.6574e-06	6.4911e-06	152.32	59.821	60.59	29.187	2.2105e-06	29.084	0.0058852	0.011181	0.0031327	405.17	0.00010487	0.00012648	393.79	170.95	0.00010275	0.00012362	181.32	69.812	71.228	33.983	0.0001078	34.336	485.248	184.182	290.042	158.372	254.977	291.463	156.863	163.995	292.866	352.101	160.875	165.162	168.009	173.190	313.726	168.852	-8191	255	
4094.217	1	1	0	0	0.086684	0.12795	0.062331	0.28772	0.098515	0.20819	0.072591	0.15655	0.05637	0.29753	0.25041	0.10307	0.1343	0.035996	0.15923	0.15273	-3.0083	-2.4792	-3.1979	-3.2208	-2.5938	-3.2896	-2.8292	-2.6292	-3.2146	-2.5479	-3.0438	-3.2875	-2.55	-3.3583	-2.9854	-2.5792	160.327	169.040	421.392	430.276	352.417	261.298	306.321	292.931	187.331	181.019	310.546	444.006	257.417	462.734	214.234	310.844	0.00070735	0.0003278	9.3416e-05	348.66	4.4879e-06	4.9376e-06	338.95	146.82	5.791e-06	4.3788e-06	153.31	59.466	60.297	29.206	1.3261e-06	29.009	0.0056894	0.010624	0.0029932	405.45	0.00010067	0.00011985	393.75	170.11	9.9377e-05	0.00011977	181.31	69.591	70.956	33.956	0.00010605	34.309	493.217	221.333	277.992	158.662	252.208	317.181	156.884	164.065	294.770	327.875	160.994	165.014	167.929	173.020	243.063	169.128	-8191	255	
4094.313	1	1	0	0	0.28064	0.10495	0.32225	0.22035	0.16541	0.1219	0.11096	0.18277	0.14326	0.011727	0.13072	0.0061137	0.15411	0.16474	0.41287	0.12556	-3.0375	-2.7	-2.7562	-3.4688	-2.6042	-3.2188	-3.175	-2.6854	-3.3917	-2.85	-3	-3.4	-2.5896	-3.3229	-3.1375	-2.5854	486.882	341.208	269.883	322.167	430.066	332.951	304.294	335.306	417.344	403.776	194.065	258.289	412.536	393.901	396.120	394.855	0.00066003	0.00060425	1.039e-05	345.5	6.4069e-06	4.8868e-06	338.42	146.39	3.4994e-06	3.1634e-06	152.36	59.635	60.021	29.377	2.1737e-06	29.406	0.0056209	0.010481	0.0029881	404.12	0.00010084	0.00012068	392.7	169.12	9.9692e-05	0.0001184	180.29	69.543	70.725	34.19	0.00010794	34.565	486.116	196.408	227.897	158.416	335.461	184.525	156.790	164.006	263.799	206.633	160.984	165.228	168.202	173.481	192.362	168.785	-8191	255	
4094.409	1	1	0	0	0.13818	0.17949	0.098163	0.21252	0.17092	0.11153	0.16122	0.11219	0.089276	0.22504	0.2959	0.06669	0.18667	0.20535	0.2019	0.20611	-3.0396	-2.8021	-2.9917	-3.4458	-2.5708	-3.3625	-3.2458	-2.5833	-3.3771	-2.8583	-2.8375	-3.5146	-2.7458	-3.1604	-3.3646	-2.4854	188.711	489.720	155.890	488.551	498.504	441.942	430.785	191.121	256.353	247.250	491.425	315.924	172.367	329.104	294.459	486.781	0.00071856	0.00041802	3.8432e-05	345.59	1.8758e-06	1.0253e-06	335.83	145.29	4.9066e-06	2.1775e-06	151.6	59.288	60.089	29.291	7.5931e-06	29.229	0.0057024	0.010588	0.0029776	403.15	0.00010106	0.00012173	390.59	167.84	0.00010072	0.00012155	179.57	69.47	70.858	34.126	0.00010868	34.459	482.117	201.883	500.759	158.867	290.048	233.038	156.811	164.186	280.127	174.597	161.158	165.104	168.212	173.086	248.137	168.966	-8191	255	
4094.505	1	1	0	0	0.20361	0.032132	0.18515	0.279	0.075261	0.20115	0.18214	0.10425	0.28587	0.12455	0.18724	0.16181	0.17871	0.23646	0.090161	0.041826	-2.975	-3.1333	-2.6979	-3.4229	-2.7958	-3.1729	-3.2917	-2.5833	-3.325	-2.9896	-2.6125	-3.5458	-2.5854	-3.0354	-3.3042	-2.4313	297.670	460.943	485.572	440.766	358.168	170.198	321.233	398.069	457.657	475.115	223.292	268.004	148.049	427.923	259.993	329.860	0.00069317	0.00055025	0.00021857	346.65	4.6863e-06	1.858e-06	337.02	146.21	4.7585e-06	4.3196e-06	152.48	58.619	59.982	28.885	1.4111e-06	28.841	0.0057323	0.010728	0.0030576	404.41	0.00010246	0.0001237	391.33	169	0.00010273	0.00012378	180.02	68.803	70.621	33.751	0.00011307	34.085	484.005	243.153	181.592	159.166	267.195	262.052	156.828	163.843	240.154	351.206	160.890	165.059	168.108	173.155	490.935	168.609	-8191	255	
4094.601	1	1	0	0	0.061522	0.33925	0.32433	0.048804	0.10004	0.19074	0.26922	0.055177	0.21363	0.27474	0.14541	0.14874	0.12651	0.18432	0.2216	0.256	-2.8333	-3.0292	-2.7083	-3.3375	-2.7333	-2.9688	-3.3708	-2.5458	-3.1729	-3	-2.4979	-3.4458	-2.8375	-2.9813	-3.4417	-2.6562	362.622	427.594	433.615	447.072	407.968	303.496	475.292	403.441	331.016	471.300	241.550	354.318	229.442	226.329	203.040	409.089	0.00067451	0.00059433	0.00012746	346.67	1.2566e-06	4.0197e-06	337.03	146.66	4.0191e-06	2.2837e-06	153.25	59.535	60.866	29.585	6.7005e-06	29.565	0.0059154	0.011286	0.0032056	405.55	0.00010954	0.00013467	393.41	170.45	0.00011242	0.00013627	182.59	70.227	72.124	34.653	0.00012545	35.043	479.644	230.409	202.425	158.589	278.067	235.266	156.822	164.183	271.850	326.442	161.108	164.963	168.069	173.236	216.661	168.995	-8191	255	
4094.722	1	1	0	0	0.33593	0.21239	0.075507	0.13442	0.34557	0.30091	0.19991	0.13146	0.10828	0.36124	0.1757	0.2946	0.29523	0.14561	0.070532	0.18583	-2.8521	-3.0708	-2.3583	-3.2792	-2.925	-2.6667	-3.3563	-2.7062	-3.1417	-3.1229	-2.5542	-3.3438	-2.9667	-2.6104	-3.1583	-2.675	374.618	418.374	281.420	387.530	193.235	328.901	478.508	441.222	406.198	411.424	488.871	431.407	441.290	467.809	370.619	457.970	0.00066164	0.00038382	4.3895e-05	347.77	3.1992e-06	4.8673e-06	339.14	149.49	2.0956e-06	2.1072e-06	154.44	60.612	62.208	30.225	7.8687e-07	30.012	0.0065238	0.012289	0.0035459	409.82	0.00012052	0.00014817	397.78	174.05	0.00012141	0.00014582	185.16	71.763	73.683	35.485	0.00013057	35.582	488.021	181.211	222.481	158.809	310.785	246.193	156.812	164.114	269.444	496.972	160.967	164.865	168.328	173.131	214.792	168.763	-8191	255	
4094.818	1	1	0	0	0.14157	0.077037	0.3323	0.052806	0.18383	0.092364	0.114	0.18442	0.26922	0.17169	0.21312	0.12899	0.20503	0.34346	0.046392	0.12129	-2.7375	-3.3688	-2.4479	-3.3833	-2.9062	-2.6312	-3.3688	-2.7771	-2.8229	-3.4708	-2.5479	-3.1271	-2.9646	-2.5521	-3.5479	-2.7708	239.288	295.272	421.610	503.446	340.104	339.211	214.666	465.234	474.276	292.326	194.527	460.217	211.362	156.291	471.345	434.189	0.00072075	0.00049307	0.00017897	346.07	3.6272e-06	4.5829e-06	335.29	147	2.6452e-06	2.8926e-06	150.52	59.043	60.235	29.235	9.9162e-07	28.849	0.0068364	0.012941	0.0036548	408.3	0.00012237	0.0001483	394.45	171.37	0.00011937	0.00014292	180.91	69.676	71.438	34.283	0.00012477	34.349	484.317	195.166	223.737	158.991	282.032	218.300	157.171	163.908	242.893	327.565	160.944	165.100	168.110	173.084	332.459	168.964	-8191	255	
4094.914	1	1	0	0	0.31236	0.090001	0.16924	0.19017	0.084641	0.16396	0.089203	0.16913	0.35094	0.10294	0.23854	0.32633	0.11835	0.029751	0.010242	0.23921	-2.3708	-3.1917	-2.5104	-2.9958	-3.0167	-2.5625	-3.1458	-2.8896	-2.6104	-3.2687	-2.4083	-3.1146	-3.15	-2.4917	-3.3354	-2.8083	153.813	368.287	403.565	498.367	349.264	239.966	425.020	436.389	446.781	154.312	266.781	481.826	453.874	404.747	451.378	423.142	0.00067685	0.000402	9.3182e-05	342.91	3.9684e-06	3.2767e-06	333.45	143.75	2.8416e-06	2.2651e-06	148.54	57.663	58.639	28.605	5.235e-06	28.48	0.0064448	0.011932	0.0033708	402.11	0.00010995	0.00013316	387.93	167.04	0.00010672	0.00012715	176.99	68.087	69.513	33.35	0.00011123	33.671	482.153	287.102	205.156	158.774	268.831	309.054	156.947	163.828	483.630	432.124	160.857	165.170	168.178	173.268	259.256	169.009	-8191	255	
4095.011	1	1	0	0	0.11151	0.10013	0.044482	0.26599	0.16973	0.060079	0.091486	0.10845	0.090147	0.25328	0.3643	0.19428	0.10956	0.33272	0.21269	0.29106	-2.4396	-3.2729	-2.5896	-3.2125	-3.2729	-2.5854	-3.4458	-2.8646	-2.4729	-3.3979	-2.6312	-3.0458	-3.2354	-2.6146	-3.3125	-2.8833	266.302	222.002	374.770	483.213	210.649	292.759	378.230	323.272	389.291	299.036	466.954	446.090	193.933	481.993	486.894	352.182	0.00076772	0.0002301	7.4287e-05	340.83	3.6912e-06	4.9098e-06	330.87	142.86	6.7395e-06	5.13e-06	148.8	58.138	58.785	28.403	6.8921e-06	28.687	0.0057458	0.010731	0.0030259	398.14	0.00010008	0.00012006	385.31	165.27	9.9195e-05	0.000118	176.22	68.01	69.083	33.191	0.00010334	33.837	476.969	470.390	230.335	159.011	359.624	249.544	156.885	164.148	297.385	335.116	160.894	165.149	168.315	173.398	270.109	169.033	-8191	255	
4095.105	1	1	0	0	0.081046	0.1755	0.088242	0.042625	0.14334	0.29996	0.22995	0.18368	0.23361	0.12713	0.19963	0.41507	0.25258	0.12565	0.18245	0.24302	-2.2938	-3.3229	-2.7562	-2.9604	-3.2146	-2.6063	-3.2833	-3.1104	-2.8063	-3.5708	-2.6333	-2.8625	-3.3937	-2.7229	-3.15	-3.0708	179.261	400.591	152.281	164.205	167.026	432.343	385.814	334.857	455.683	456.354	440.661	451.370	483.935	376.362	222.111	502.737	0.00075442	0.00061818	0.00010869	341.68	4.0266e-06	6.3136e-06	333.51	142.43	3.8381e-06	3.2069e-06	148.17	58.445	58.745	28.427	1.2481e-06	28.559	0.0053759	0.010183	0.002857	399.27	9.6513e-05	0.00011595	385.32	164.3	9.5713e-05	0.00011377	175.39	68.161	69.138	33.135	0.00010033	33.658	478.894	254.379	148.594	158.684	308.899	286.247	156.872	164.138	200.314	272.671	161.065	165.313	168.474	173.471	337.082	169.383	-8191	255	
4095.201	1	1	0	0	0.12518	0.10238	0.10924	0.15523	0.057228	0.16244	0.11475	0.045893	0.33871	0.25434	0.38697	0.15278	0.17621	0.15104	0.070425	0.12275	-2.0708	-3.3958	-2.8583	-2.9729	-3.2812	-2.6562	-3.2792	-3.3646	-2.3625	-3.4542	-2.9375	-2.8271	-3.45	-2.8604	-3.0708	-3.4188	437.908	491.982	182.556	341.986	455.206	394.919	394.212	315.078	280.577	317.206	343.273	170.760	226.417	457.690	453.426	274.921	0.00073172	0.00041746	6.515e-05	341.43	2.4217e-06	1.0433e-06	329.98	141.12	8.3667e-06	2.992e-06	147.23	58.266	58.477	27.634	3.3749e-06	28.285	0.0053557	0.0099594	0.0028112	397.6	9.4723e-05	0.00011582	382.24	163.26	9.5531e-05	0.00011442	174.61	67.672	68.581	32.402	0.00010351	33.189	484.256	241.751	181.441	158.789	192.735	398.424	157.217	164.149	281.850	262.998	161.222	164.978	168.161	173.206	204.766	169.213	-8191	255	
4095.297	1	1	0	0	0.050745	0.20832	0.12549	0.17323	0.097966	0.26913	0.062925	0.22814	0.043609	0.055371	0.050328	0.19949	0.20547	0.15715	0.099671	0.25548	-2.0938	-3.2021	-2.8125	-2.6958	-3.3958	-2.7833	-2.9479	-3.2521	-2.5354	-3.2167	-3.025	-2.6417	-3.4729	-2.8021	-2.775	-3.3729	310.762	340.514	502.760	458.380	368.616	501.319	393.710	489.188	315.190	408.359	300.628	238.049	229.738	475.086	227.273	177.383	0.000846	0.00037058	3.4274e-05	339.56	9.2159e-07	2.4186e-06	329.56	141.53	4.6029e-06	1.5777e-06	147.77	57.601	58.243	27.659	1.0884e-06	28.058	0.0054715	0.010332	0.0028881	397.52	9.9071e-05	0.0001214	383.87	164.24	9.9439e-05	0.00011966	176.05	67.431	68.882	32.299	0.000109	33.18	474.896	249.356	489.827	158.558	299.551	266.508	157.054	163.970	196.082	292.902	161.069	165.058	168.213	173.096	330.457	168.980	-8191	255	
4095.418	1	1	0	0	0.091259	0.13884	0.031441	0.19563	0.26345	0.16447	0.049385	0.19397	0.20197	0.053875	0.21737	0.15075	0.19346	0.20299	0.20309	0.055593	-2.1521	-3.1833	-3.0167	-2.5729	-3.3521	-2.7354	-2.8375	-3.3875	-2.475	-3.2083	-3.0958	-2.5896	-3.4792	-2.675	-2.6958	-3.4354	308.567	450.712	436.685	472.429	404.057	213.577	425.684	340.790	201.741	368.238	282.513	504.203	168.746	422.121	237.758	214.741	0.00063508	0.00049212	0.00016145	345.04	6.0904e-06	2.5085e-06	333.04	143.92	8.8917e-06	5.0344e-06	150.57	58.712	59.541	28.711	4.0654e-06	29.074	0.0057737	0.01091	0.0030746	401.88	0.00010428	0.00012664	389.69	167.37	0.00010605	0.0001271	179.51	68.923	70.534	33.621	0.00011517	34.308	482.839	195.022	225.507	158.642	316.834	370.446	157.075	164.271	267.842	232.340	160.874	165.177	168.526	173.318	244.303	169.286	-8191	255	
4095.514	1	1	0	0	0.13988	0.09887	0.28812	0.030691	0.18613	0.088921	0.19944	0.13055	0.11436	0.11972	0.17407	0.056537	0.10389	0.12879	0.44008	0.14996	-2.2417	-2.9813	-3.0146	-2.5208	-3.4917	-2.9208	-2.8417	-3.5125	-2.3229	-3.1063	-3.0958	-2.5708	-3.3812	-2.8292	-2.7104	-3.4146	424.402	226.880	218.766	379.929	220.346	215.460	424.056	299.560	279.069	484.149	214.460	441.072	180.694	476.583	215.198	462.455	0.00069452	0.00035346	0.00011796	344.58	4.2282e-06	8.5817e-06	336.88	146.98	3.8804e-06	5.3263e-06	151.81	59.365	59.957	28.661	1.8008e-06	28.791	0.0060576	0.011344	0.0032324	404.91	0.00010838	0.00012997	392.89	169.74	0.00010671	0.0001272	180.57	69.512	71.053	33.658	0.00011549	34.108	481.869	339.798	196.921	158.671	240.647	260.877	157.012	164.091	283.730	290.947	160.749	164.978	168.151	173.218	291.988	168.975	-8191	255	
4095.610	1	1	0	0	0.27554	0.26156	0.11286	0.20212	0.061489	0.16488	0.07779	0.07582	0.46198	0.22752	0.074482	0.15712	0.15971	0.10949	0.18883	0.20494	-2.2625	-2.8417	-3.1813	-2.6375	-3.3417	-2.9604	-2.7667	-3.5125	-2.5854	-2.7792	-3.3021	-2.6542	-3.2562	-3.2438	-2.5208	-3.375	311.966	492.235	182.074	190.606	197.746	178.899	416.487	242.466	497.703	325.124	434.375	465.420	464.326	441.229	406.712	280.983	0.00079485	0.00015717	0.00013901	344.22	2.0511e-06	6.6788e-06	333.35	144.7	9.8831e-06	2.0938e-06	150.53	58.306	59.021	28.175	4.685e-06	28.423	0.0061239	0.011454	0.0032403	404.43	0.00010995	0.0001323	391.07	168.34	0.00010826	0.00012958	179.35	68.547	70.145	33.097	0.00011367	33.679	484.882	425.857	200.131	159.111	286.475	293.604	156.985	164.070	273.501	384.116	160.824	164.966	168.299	173.205	237.682	169.120	-8191	255	
4095.682	1	1	0	0	0.030088	0.21371	0.15728	0.27287	0.23345	0.078111	0.23274	0.087841	0.19059	0.16941	0.18691	0.031001	0.20398	0.20362	0.15897	0.1479	-2.3521	-2.7729	-3.2958	-2.5896	-3.1979	-3.3667	-2.5458	-3.5021	-2.8021	-2.5312	-3.2417	-2.4792	-3.1354	-3.3292	-2.5167	-3.3563	197.467	262.743	500.832	354.482	473.922	428.680	156.770	471.156	275.569	313.178	180.160	349.387	482.401	472.440	482.038	461.075	0.00078546	0.00021848	0.00019018	342.07	7.1612e-06	2.1286e-06	333.16	142.8	3.5652e-06	5.1379e-06	149.57	57.986	58.505	28.058	1.2897e-06	28.426	0.0058943	0.01097	0.0030947	400.3	0.00010398	0.00012502	387.5	166.12	0.00010267	0.00012379	177.38	67.922	69.35	32.903	0.00010873	33.718	481.152	236.226	216.622	158.532	258.724	297.647	157.081	164.138	280.732	294.002	160.925	165.313	168.406	173.403	262.285	169.227	-8191	255	
4095.802	1	1	0	0	0.2201	0.06418	0.12894	0.077266	0.15816	0.037939	0.15962	0.2697	0.34872	0.11234	0.18496	0.13571	0.061213	0.1514	0.12356	0.09101	-2.5687	-2.65	-3.3417	-2.5521	-2.9458	-3.2458	-2.3979	-3.3708	-2.9125	-2.6542	-3.5292	-2.5958	-3.1813	-3.2938	-2.4021	-3.3875	424.759	479.849	346.934	484.636	323.997	213.979	181.720	451.744	504.001	373.757	503.442	360.385	308.607	361.003	373.093	160.075	0.00064047	0.00056208	0.00010908	340.34	6.4925e-06	3.3127e-06	330.4	142.01	3.1188e-06	1.1098e-06	147.96	57.797	58.176	27.817	3.3942e-06	28.337	0.0056494	0.010596	0.0029779	398.18	0.00010006	0.00012122	385.23	164.64	9.906e-05	0.00012045	176.12	67.819	68.796	32.675	0.00010832	33.515	482.822	214.657	204.514	158.954	297.667	317.056	157.104	164.292	307.615	372.175	160.992	165.046	168.414	173.577	293.734	169.151	-8191	255	
4095.899	1	1	0	0	0.12699	0.25628	0.2306	0.097103	0.15458	0.24393	0.26463	0.20597	0.23827	0.20306	0.14753	0.11832	0.091625	0.11594	0.092434	0.23155	-2.5375	-2.3688	-3.4125	-2.6604	-2.8458	-3.3625	-2.5979	-3.1771	-3.1542	-2.4917	-3.4021	-2.8	-2.8896	-3.4021	-2.5062	-3.2229	405.620	226.142	274.078	389.595	360.685	347.157	506.142	452.093	298.937	456.069	427.527	448.482	280.437	475.005	436.588	475.061	0.00064788	0.0006402	0.00015243	338.28	5.6017e-06	4.4742e-06	326.65	139.79	4.2813e-06	9.4384e-07	145.39	56.932	57.123	27.029	2.5661e-06	27.239	0.0056751	0.010797	0.0030374	396.18	0.00010236	0.00012427	381.66	162.66	0.00010238	0.00012351	173.75	66.655	67.732	31.604	0.00010787	32.345	486.708	305.713	223.118	158.786	240.590	370.127	156.937	164.331	282.601	247.666	161.066	165.176	168.243	173.618	294.978	168.844	-8191	255	
4095.995	1	1	0	0	0.1114	0.18952	0.14929	0.18571	0.1008	0.14697	0.20858	0.16837	0.21205	0.14989	0.16277	0.13877	0.11197	0.1113	0.2527	0.15065	-2.8792	-2.4458	-3.325	-2.8167	-2.6708	-3.1979	-2.5667	-3.35	-3.0938	-2.7062	-3.4667	-3.125	-2.5958	-3.3396	-2.6583	-3.075	239.783	191.400	328.222	156.265	415.997	294.346	461.309	444.866	243.967	316.340	453.659	490.594	296.007	184.585	419.742	330.051	0.00061328	0.00021824	7.8099e-06	339.02	3.9624e-06	3.9602e-06	326.47	138.89	5.5936e-06	1.8903e-06	145.34	56.102	56.933	26.42	3.5336e-06	27.027	0.0055811	0.010408	0.0029335	394.35	9.7189e-05	0.00011902	380.43	161.56	9.774e-05	0.00011808	173.13	65.875	66.945	30.866	0.00010453	31.901	487.203	246.865	380.372	158.858	199.689	254.538	157.093	164.357	262.122	314.828	161.327	165.198	168.651	173.519	333.644	169.393	-8191	255	
4096.091	1	1	0	0	0.31963	0.20681	0.16657	0.10868	0.052494	0.089999	0.35319	0.069127	0.29727	0.19138	0.063854	0.087812	0.085393	0.028568	0.1353	0.17421	-2.8042	-2.3833	-3.3083	-3.0208	-2.4646	-3.35	-2.5812	-2.8625	-3.3792	-2.4938	-3.1875	-3.0458	-2.7396	-3.5187	-2.6271	-2.8854	461.059	389.417	492.717	354.397	484.028	427.786	432.815	251.471	165.747	406.882	179.929	193.888	217.203	399.213	339.375	404.763	0.00066759	0.00046433	7.3435e-05	339.07	1.6398e-06	5.5705e-06	328.7	139.51	5.6377e-06	4.5926e-07	146.25	56.347	57.034	26.643	2.6237e-06	27.404	0.0054303	0.010187	0.0028938	394.99	9.7895e-05	0.00011823	382.13	162.12	9.7314e-05	0.00011748	173.99	66.15	67.282	31.193	0.00010358	32.345	485.804	203.652	216.712	158.922	424.352	228.860	156.828	164.188	265.519	227.371	161.352	164.920	168.170	173.427	260.166	169.449	-8191	255	
4096.210	1	1	0	0	0.072598	0.13015	0.034253	0.073981	0.039345	0.070347	0.20887	0.11166	0.2953	0.06529	0.22811	0.24864	0.34349	0.26214	0.08915	0.06445	-2.9354	-2.4479	-3.2854	-3.0479	-2.575	-3.3167	-2.6896	-2.7271	-3.4854	-2.5542	-3.175	-3.3125	-2.6042	-3.4396	-3.0563	-2.8729	496.047	468.742	495.463	289.033	154.728	412.369	379.737	476.441	156.231	438.947	320.557	227.830	176.808	449.632	299.235	447.475	0.00064529	0.00017902	0.00011125	339.01	3.3303e-06	2.2261e-06	329.89	140.57	2.9614e-06	2.7258e-06	146.71	56.908	57.923	27.471	3.7073e-06	28.132	0.0053635	0.010139	0.0028358	396.07	9.6996e-05	0.00011726	384.09	163.43	9.8402e-05	0.00011806	174.97	66.912	68.277	32.206	0.00010626	33.209	486.133	458.755	277.546	158.676	257.812	211.828	157.043	164.205	235.320	321.739	161.294	165.103	168.510	173.440	290.563	169.328	-8191	255	
4096.306	1	1	0	0	0.1925	0.055119	0.062763	0.21293	0.2028	0.2619	0.25347	0.18645	0.16993	0.12437	0.2296	0.22664	0.17871	0.12505	0.21046	0.16374	-3.0292	-2.6562	-3.0062	-3.1562	-2.5438	-3.3667	-3.0312	-2.7729	-3.4417	-2.5083	-3.0646	-3.3187	-2.7375	-3.3417	-2.9917	-2.5229	149.846	485.283	285.569	373.702	310.952	280.655	290.766	263.792	242.056	280.000	307.944	190.799	158.945	259.970	434.967	403.762	0.00070993	0.00042265	3.4059e-05	342.09	1.6064e-06	2.2561e-06	330.64	143.35	9.947e-06	5.1773e-06	149.63	58.387	59.167	28.151	3.6152e-06	28.57	0.0056437	0.010529	0.0029715	400.44	0.00010159	0.00012143	386.33	166.34	0.00010101	0.0001208	178.29	68.377	69.819	33.104	0.00011033	33.762	479.415	347.514	299.022	158.662	243.742	436.468	156.570	164.232	225.999	298.282	161.235	164.936	168.103	173.522	262.091	169.581	-8191	255	
4096.402	1	1	0	0	0.17704	0.23754	0.058005	0.16247	0.28897	0.26036	0.14569	0.10138	0.097063	0.26318	0.20029	0.17476	0.15504	0.25217	0.1975	0.16078	-2.975	-2.6167	-3.0646	-3.3479	-2.7875	-3.3458	-3.1875	-2.5354	-3.5062	-2.8792	-2.8688	-3.3729	-2.6375	-3.125	-3.0521	-2.5646	388.141	411.655	435.027	329.227	389.033	502.479	492.110	260.436	264.423	185.125	199.155	455.839	431.480	363.925	428.230	407.655	0.00075947	0.00032799	0.00013769	344.36	3.03e-06	5.6981e-06	333.51	144.89	3.3527e-06	3.913e-06	151.58	58.408	59.538	28.336	2.7964e-06	28.643	0.0058639	0.0111	0.0031871	404.07	0.00010857	0.00013118	390.73	168.84	0.00010993	0.00013153	180.4	69.116	70.755	33.311	0.00011739	33.991	489.122	148.296	208.792	158.907	429.367	333.548	156.742	164.292	357.617	323.043	160.937	165.219	168.265	173.407	191.218	168.958	-8191	255	
4096.498	1	1	0	0	0.14319	0.18887	0.19867	0.11214	0.072182	0.049112	0.16081	0.03898	0.065066	0.28065	0.19725	0.052619	0.069217	0.1412	0.25124	0.06532	-3.0167	-2.9125	-2.7729	-3.4521	-2.5354	-3.1292	-3.4146	-2.6312	-3.3875	-2.7812	-2.7	-3.5229	-2.8104	-3.1937	-3.2687	-2.6917	189.795	232.519	147.579	428.330	415.079	314.575	451.061	345.586	437.256	236.809	468.438	147.600	438.242	228.427	396.104	192.884	0.00068093	0.00024567	5.268e-05	344.95	5.3643e-06	1.6886e-06	336.88	146.51	3.5924e-06	3.0064e-06	152.24	59.45	60.591	29.215	3.2069e-06	29.42	0.006165	0.011651	0.0032804	405.74	0.00011026	0.00013212	394.3	170.25	0.00010725	0.00012846	181.94	70.079	71.655	34.28	0.00011129	34.867	479.888	235.079	161.981	158.831	291.107	361.219	157.110	164.285	234.487	302.932	161.138	165.290	168.519	173.396	258.453	169.235	-8191	255	
#DATA ENDS
