BOXY.EXE: ISS Imagent and Oximeter Data Acquisition Program Version 0.80
Ascii Record File

#ACQ INFORMATION
2  Detector Channels 
16  External MUX Channels 
1  Auxiliary Channels 
5000  Waveform (CCF) Frequency (Hz)
1  Waveforms Skipped 
30  Waveforms Averaged 
1  Cycles Averaged 
16  Acquisitions per Waveform 
10.0806  Updata Rate (Hz) 

#FILE INFORMATION
TRUE -- External MUX Channel results are PARSED.
FALSE -- AC DC and Phase are NOT grouped.
TRUE -- Companion Program Settings File CREATED.
FALSE -- AC data not excluded
FALSE -- DC data not excluded
FALSE -- Phase data not excluded
FALSE -- Auxillary Chn. data not excluded
Tab delimiters

#CALIBRATION STATE
TRUE -- Waveform Calibration Values APPLIED.


#AUX CALIBRATION VALUES
Val Type	aux-1	

Term	1.0000e+00	
Factor	0.0000e+00	


#WF CALIBRATION VALUES
A = Detector Channel
Val Type	A-AC1	A-AC2	A-AC3	A-AC4	A-AC5	A-AC6	A-AC7	A-AC8	A-AC9	A-AC10	A-AC11	A-AC12	A-AC13	A-AC14	A-AC15	A-AC16	A-DC1	A-DC2	A-DC3	A-DC4	A-DC5	A-DC6	A-DC7	A-DC8	A-DC9	A-DC10	A-DC11	A-DC12	A-DC13	A-DC14	A-DC15	A-DC16	A-Ph1	A-Ph2	A-Ph3	A-Ph4	A-Ph5	A-Ph6	A-Ph7	A-Ph8	A-Ph9	A-Ph10	A-Ph11	A-Ph12	A-Ph13	A-Ph14	A-Ph15	A-Ph16	

Term	0.00000e+00	0.00000e+00	0.00000e+00	0.00000e+00	0.00000e+00	0.00000e+00	0.00000e+00	0.00000e+00	0.00000e+00	0.00000e+00	0.00000e+00	0.00000e+00	0.00000e+00	0.00000e+00	0.00000e+00	0.00000e+00	0.00000e+00	0.00000e+00	0.00000e+00	0.00000e+00	0.00000e+00	0.00000e+00	0.00000e+00	0.00000e+00	0.00000e+00	0.00000e+00	0.00000e+00	0.00000e+00	0.00000e+00	0.00000e+00	0.00000e+00	0.00000e+00	0.00000e+00	0.00000e+00	0.00000e+00	0.00000e+00	0.00000e+00	0.00000e+00	0.00000e+00	0.00000e+00	0.00000e+00	0.00000e+00	0.00000e+00	0.00000e+00	0.00000e+00	0.00000e+00	0.00000e+00	0.00000e+00	
Factor	1.00000e+00	1.00000e+00	1.00000e+00	1.00000e+00	1.00000e+00	1.00000e+00	1.00000e+00	1.00000e+00	1.00000e+00	1.00000e+00	1.00000e+00	1.00000e+00	1.00000e+00	1.00000e+00	1.00000e+00	1.00000e+00	1.00000e+00	1.00000e+00	1.00000e+00	1.00000e+00	1.00000e+00	1.00000e+00	1.00000e+00	1.00000e+00	1.00000e+00	1.00000e+00	1.00000e+00	1.00000e+00	1.00000e+00	1.00000e+00	1.00000e+00	1.00000e+00	X	X	X	X	X	X	X	X	X	X	X	X	X	X	X	X	

B = Detector Channel
Val Type	B-AC1	B-AC2	B-AC3	B-AC4	B-AC5	B-AC6	B-AC7	B-AC8	B-AC9	B-AC10	B-AC11	B-AC12	B-AC13	B-AC14	B-AC15	B-AC16	B-DC1	B-DC2	B-DC3	B-DC4	B-DC5	B-DC6	B-DC7	B-DC8	B-DC9	B-DC10	B-DC11	B-DC12	B-DC13	B-DC14	B-DC15	B-DC16	B-Ph1	B-Ph2	B-Ph3	B-Ph4	B-Ph5	B-Ph6	B-Ph7	B-Ph8	B-Ph9	B-Ph10	B-Ph11	B-Ph12	B-Ph13	B-Ph14	B-Ph15	B-Ph16	

Term	0.00000e+00	0.00000e+00	0.00000e+00	0.00000e+00	0.00000e+00	0.00000e+00	0.00000e+00	0.00000e+00	0.00000e+00	0.00000e+00	0.00000e+00	0.00000e+00	0.00000e+00	0.00000e+00	0.00000e+00	0.00000e+00	0.00000e+00	0.00000e+00	0.00000e+00	0.00000e+00	0.00000e+00	0.00000e+00	0.00000e+00	0.00000e+00	0.00000e+00	0.00000e+00	0.00000e+00	0.00000e+00	0.00000e+00	0.00000e+00	0.00000e+00	0.00000e+00	-1.93096e+02	-1.31651e+02	-1.26893e+02	-1.81391e+02	-8.12550e+01	-6.54229e+01	-1.56795e+02	-1.62015e+02	-8.71340e+01	-6.29356e+01	-1.74004e+02	-1.71240e+02	-1.79095e+02	-1.76490e+02	-7.82813e+01	-1.49299e+02	
Factor	3.61994e-05	1.37445e-04	4.05246e-05	1.50909e-01	1.47821e-06	1.56133e-06	1.51247e-01	4.83322e-02	1.61963e-06	1.49477e-06	8.33551e-02	2.69328e-02	2.70377e-02	8.24457e-03	1.53392e-06	1.18361e-02	1.83736e-05	3.60318e-05	1.01782e-05	8.04857e-02	3.42701e-07	4.15052e-07	7.58372e-02	2.58983e-02	3.41234e-07	4.10228e-07	4.32733e-02	1.39519e-02	1.46541e-02	4.46483e-03	3.66053e-07	6.20000e-03	X	X	X	X	X	X	X	X	X	X	X	X	X	X	X	X	



#DISTANCE SETTINGS
A = Detector Channel
A-1	A-2	A-3	A-4	A-5	A-6	A-7	A-8	A-9	A-10	A-11	A-12	A-13	A-14	A-15	A-16	

2.5000e+00	3.0000e+00	2.5000e+00	3.0000e+00	2.0000e+00	3.0000e+00	1.5000e+00	3.0000e+00	3.0000e+00	3.0000e+00	3.0000e+00	3.0000e+00	3.0000e+00	3.0000e+00	1.5000e+00	3.0000e+00	

B = Detector Channel
B-1	B-2	B-3	B-4	B-5	B-6	B-7	B-8	B-9	B-10	B-11	B-12	B-13	B-14	B-15	B-16	

1.0000e+01	1.0000e+01	1.0000e+01	1.4400e+00	1.0000e+01	1.0000e+01	1.5100e+00	1.9400e+00	1.0000e+01	1.0000e+01	1.9900e+00	2.4900e+00	2.4100e+00	2.9000e+00	1.0000e+01	2.9800e+00	




#DATA BEGINS
time	group	step	mark	flag	A-AC1	A-AC2	A-AC3	A-AC4	A-AC5	A-AC6	A-AC7	A-AC8	A-AC9	A-AC10	A-AC11	A-AC12	A-AC13	A-AC14	A-AC15	A-AC16	A-DC1	A-DC2	A-DC3	A-DC4	A-DC5	A-DC6	A-DC7	A-DC8	A-DC9	A-DC10	A-DC11	A-DC12	A-DC13	A-DC14	A-DC15	A-DC16	A-Ph1	A-Ph2	A-Ph3	A-Ph4	A-Ph5	A-Ph6	A-Ph7	A-Ph8	A-Ph9	A-Ph10	A-Ph11	A-Ph12	A-Ph13	A-Ph14	A-Ph15	A-Ph16	B-AC1	B-AC2	B-AC3	B-AC4	B-AC5	B-AC6	B-AC7	B-AC8	B-AC9	B-AC10	B-AC11	B-AC12	B-AC13	B-AC14	B-AC15	B-AC16	B-DC1	B-DC2	B-DC3	B-DC4	B-DC5	B-DC6	B-DC7	B-DC8	B-DC9	B-DC10	B-DC11	B-DC12	B-DC13	B-DC14	B-DC15	B-DC16	B-Ph1	B-Ph2	B-Ph3	B-Ph4	B-Ph5	B-Ph6	B-Ph7	B-Ph8	B-Ph9	B-Ph10	B-Ph11	B-Ph12	B-Ph13	B-Ph14	B-Ph15	B-Ph16	aux-1	digaux	

3228.947	1	1	0	768	0.10786	0.2721	0.14654	0.19006	0.14941	0.15524	0.15895	0.099309	0.2869	0.18335	0.024506	0.23795	0.22333	0.091333	0.12001	0.32278	-2.7188	-2.1146	-2.6708	-2.7792	-2.0521	-3.0292	-2.4708	-2.4021	-2.8458	-2.0417	-2.7625	-2.8937	-2.2562	-3.1917	-2.5354	-2.5167	-49.745	19.699	72.842	46.951	131.076	291.407	28.235	281.857	161.744	205.373	301.312	282.547	292.836	89.616	48.527	73.352	0.00029794	0.00030625	0.00015455	470.24	4.8404e-06	2.8768e-06	393.42	185.72	2.1925e-06	3.6571e-06	180.52	74.718	74.637	40.932	3.9068e-06	41.476	0.0014978	0.0024972	0.00069502	508.83	2.3631e-05	2.8064e-05	425.09	200.92	2.3363e-05	2.787e-05	195.51	81.242	81.47	44.936	2.52e-05	45.083	84.607	24.872	16.830	-45.867	113.307	51.545	-46.801	-40.188	23.915	112.974	-43.091	-38.609	-35.688	-31.087	123.439	-35.195	-8191	255	
3229.043	1	1	0	0	0.1742	0.17448	0.12247	0.22056	0.24294	0.25844	0.10611	0.20206	0.25554	0.069382	0.050477	0.20122	0.33065	0.070542	0.25842	0.15432	-2.5729	-2.2188	-2.8146	-2.8625	-2.1667	-2.8563	-2.6833	-2.2188	-2.9583	-2.2125	-2.5938	-3.0083	-2.3333	-3.0833	-2.6208	-2.4375	122.521	184.965	179.821	250.316	176.330	6.869	191.471	216.464	128.041	178.673	116.005	279.497	-39.990	188.748	219.950	189.909	0.00025124	0.00020881	0.00010663	467.09	3.7551e-06	8.1428e-07	393.89	182.76	4.5556e-06	3.214e-06	178.52	74.018	73.231	40.424	3.826e-06	40.898	0.0014263	0.0023858	0.00067543	502.49	2.287e-05	2.6638e-05	423.2	197.3	2.2157e-05	2.6226e-05	193.73	80.289	80.077	44.275	2.4089e-05	44.405	93.389	10.778	31.576	-45.649	98.595	125.452	-47.021	-40.075	86.138	126.843	-42.988	-38.267	-35.953	-31.225	74.577	-35.275	-8191	255	
3229.137	1	1	0	0	0.058908	0.16311	0.3249	0.0014558	0.022416	0.086217	0.05153	0.19595	0.22793	0.10527	0.13525	0.161	0.2034	0.10135	0.16982	0.18836	-2.6125	-2.3083	-2.3104	-3.0687	-2.075	-3.0354	-2.7083	-2.3125	-2.9875	-2.2104	-2.325	-2.9417	-2.0187	-2.9437	-2.6667	-2.0771	16.200	21.268	18.569	180.000	134.732	63.829	75.909	-8.376	178.145	140.764	52.488	288.531	-38.646	216.161	38.797	166.216	0.00024924	0.00040929	7.5006e-05	466.61	2.0206e-06	1.9617e-06	388.84	181.89	2.0878e-06	3.6446e-06	176.2	73.207	72.862	40.081	5.1744e-06	40.052	0.0013465	0.0023014	0.00065683	501.07	2.2745e-05	2.6606e-05	419.16	196.65	2.1835e-05	2.6517e-05	190.94	79.143	79.454	43.867	2.3845e-05	43.594	95.825	18.851	-2.112	-45.577	61.848	87.028	-46.779	-40.302	73.358	68.673	-42.959	-38.455	-35.596	-31.076	104.044	-35.124	-8191	255	
3229.235	1	1	0	0	0.22486	0.10945	0.07584	0.14497	0.13978	0.1421	0.089896	0.1074	0.15964	0.35359	0.2596	0.23898	0.13271	0.32049	0.32231	0.18598	-2.6937	-2.375	-2.2313	-2.9979	-2.0062	-2.7083	-3.025	-1.9354	-2.9458	-2.5271	-2.3583	-3.0229	-2.2229	-2.6771	-2.8542	-2.2354	255.002	7.163	146.743	224.066	99.079	159.661	244.045	201.389	178.017	-54.721	56.036	231.608	5.211	237.413	68.833	214.975	0.00029798	0.00042692	9.9507e-05	462.01	3.3767e-06	2.7434e-06	385.75	176.3	2.6493e-06	3.3832e-06	171.21	70.022	68.767	37.767	3.0132e-06	38.1	0.0013535	0.00232	0.0006559	497.44	2.2094e-05	2.5903e-05	414.73	191.04	2.1489e-05	2.5807e-05	184.8	76.026	75.451	41.259	2.2818e-05	41.438	93.200	54.936	28.837	-45.501	69.950	73.908	-47.074	-40.371	69.547	107.197	-42.931	-38.449	-36.127	-31.315	111.410	-35.124	-8191	255	
3229.330	1	1	0	0	0.22213	0.050291	0.13277	0.31054	0.067403	0.13542	0.29839	0.16698	0.099088	0.25959	0.35012	0.1768	0.10618	0.094202	0.22664	0.22173	-2.6396	-2.3917	-2.2812	-3.0563	-1.9958	-2.5333	-2.9875	-2.1354	-2.8792	-2.45	-2.225	-3.1354	-2.4104	-2.4146	-2.9625	-2.1396	127.489	-22.434	-48.838	85.111	-20.742	-58.603	104.416	289.332	187.497	265.320	-7.651	131.852	-40.137	298.910	0.048	-52.720	0.00021573	0.00036738	0.00010879	449.71	1.0919e-06	3.3445e-06	377.48	166.72	2.1358e-06	2.9666e-06	162.72	66.068	64.06	34.908	3.394e-06	36.131	0.0013237	0.0022306	0.00062263	482.93	2.1556e-05	2.5099e-05	405.25	180.03	2.098e-05	2.5014e-05	176.26	71.931	70.261	38.205	2.3274e-05	39.28	78.665	75.682	62.983	-45.989	125.418	118.217	-47.056	-40.781	49.025	106.306	-43.185	-38.558	-35.907	-31.007	68.085	-35.581	-8191	255	
3229.426	1	1	0	0	0.17395	0.12863	0.10248	0.33081	0.062035	0.25428	0.26688	0.15862	0.17925	0.28703	0.013451	0.097167	0.2835	0.14396	0.22757	0.20523	-2.3	-2.6896	-1.9333	-3.0417	-2.2229	-2.3396	-3.0979	-2.1771	-2.7146	-2.7354	-2.1104	-3.0729	-2.5	-2.2604	-3.125	-2.0167	208.271	114.584	-34.811	-5.716	117.857	-39.778	-50.466	249.164	251.960	-4.070	177.590	188.556	122.603	300.364	0.743	48.445	0.00022075	0.00033564	9.3791e-05	443	2.5205e-06	3.322e-06	372.78	160.07	1.231e-06	2.3991e-06	156.88	62.747	60.462	32.831	5.7132e-07	34.028	0.0013064	0.0022524	0.00064014	473.88	2.1622e-05	2.6107e-05	401.05	172.92	2.1646e-05	2.5657e-05	169.8	68.245	66.518	35.888	2.3234e-05	37.133	91.626	7.584	40.590	-46.249	95.237	126.499	-46.855	-40.879	39.503	87.280	-43.294	-38.685	-36.233	-31.266	57.504	-35.288	-8191	255	
3229.547	1	1	0	0	0.31957	0.19534	0.11341	0.30309	0.16628	0.10791	0.14949	0.16554	0.063699	0.096537	0.20985	0.30995	0.093854	0.24227	0.065435	0.22966	-2.5229	-2.7188	-2.3396	-2.9771	-2.5	-2.3958	-3.0521	-2.1625	-2.8021	-2.8229	-2.1083	-2.8563	-2.5333	-2.1813	-2.9417	-2.3833	222.499	261.356	260.956	-16.326	117.876	18.792	-29.173	89.405	39.293	132.552	248.103	254.092	235.067	-29.703	200.835	-29.997	0.00026768	0.00046859	8.3602e-05	435.08	9.5286e-07	2.9746e-06	365.5	155.72	2.5505e-06	6.1428e-06	153.45	62.383	60.851	33.034	2.2971e-06	34.429	0.0013537	0.0022966	0.00064659	466.69	2.1819e-05	2.6473e-05	393.78	168.44	2.1814e-05	2.5456e-05	167.07	67.668	66.587	36.148	2.3066e-05	37.598	94.566	19.185	36.445	-46.375	72.541	60.208	-47.048	-40.622	102.333	99.212	-43.094	-38.506	-36.012	-31.262	103.099	-35.507	-8191	255	
3229.643	1	1	0	0	0.2033	0.10252	0.23483	0.22194	0.13816	0.064172	0.091245	0.12963	0.076007	0.083033	0.036683	0.091705	0.21836	0.24298	0.21846	0.23986	-2.1979	-2.7542	-2.0438	-2.8812	-2.5125	-2.2396	-2.9437	-2.2229	-2.575	-2.8979	-1.9646	-2.825	-2.5187	-2.2208	-3.0417	-2.3354	269.871	58.851	174.729	2.321	222.460	-40.054	84.411	231.343	292.981	3.276	284.358	236.860	297.772	287.689	174.049	196.603	0.00022353	0.00025321	4.2276e-05	441.24	2.7251e-06	2.8929e-06	370.98	160.61	2.9509e-06	2.5127e-06	157.7	63.956	62.976	34.157	2.4219e-06	35.261	0.0012992	0.0021546	0.00061652	472.77	2.0598e-05	2.4281e-05	398.2	173.65	2.0416e-05	2.4163e-05	171.19	69.437	68.836	37.358	2.1345e-05	38.397	87.291	29.214	-2.175	-45.790	126.236	129.230	-47.074	-40.752	43.101	91.942	-43.443	-38.592	-35.940	-30.994	89.947	-35.378	-8191	255	
3229.739	1	1	0	0	0.11789	0.10547	0.22567	0.095095	0.065235	0.20668	0.093207	0.072057	0.18539	0.13075	0.050538	0.17735	0.16603	0.53334	0.083546	0.072476	-2.0604	-2.9479	-2.0479	-2.8708	-2.5667	-2.2375	-2.9771	-2.4	-2.2188	-2.8833	-2.1688	-2.7042	-2.6	-2.3063	-2.9583	-2.6146	172.835	293.207	196.605	225.925	105.402	261.452	82.438	267.702	252.858	193.687	152.815	-33.380	67.532	280.893	94.155	204.327	0.00025369	0.00010623	0.00012193	442.36	3.4275e-06	4.3305e-06	369.88	162.59	2.0474e-06	2.3736e-06	160.59	64.396	63.762	34.57	3.1592e-06	35.807	0.0012728	0.0020539	0.00059657	475.55	1.9867e-05	2.3775e-05	399.97	175.33	1.9784e-05	2.2944e-05	173.02	70.099	69.524	37.752	2.0627e-05	38.874	94.186	10.809	23.715	-46.101	78.558	100.466	-46.950	-40.548	60.748	142.376	-43.513	-38.949	-36.172	-31.164	97.569	-35.333	-8191	255	
3229.835	1	1	0	0	0.1799	0.17728	0.063706	0.089379	0.095065	0.14243	0.20413	0.22124	0.20481	0.19291	0.15217	0.089531	0.15586	0.22196	0.13929	0.20067	-1.8125	-2.9625	-2.2083	-2.6813	-2.6958	-2.15	-2.8896	-2.5667	-2.2708	-3.0479	-2.2438	-2.5646	-2.8458	-2.1229	-2.925	-2.7687	234.754	272.144	-51.169	169.448	290.149	234.706	261.271	33.144	28.080	114.274	147.417	116.483	98.430	187.917	11.809	143.419	0.00027329	0.00034026	9.4722e-05	442.5	3.0872e-06	4.2655e-06	374.34	164.14	2.7466e-06	3.6069e-06	160.02	64.638	63.538	34.365	3.513e-06	35.391	0.0012177	0.0020018	0.00058109	476.07	1.9443e-05	2.3594e-05	401.87	176.83	1.9532e-05	2.2116e-05	173.05	70.487	69.256	37.511	2.0796e-05	38.483	96.236	47.970	40.845	-46.025	73.775	105.204	-46.888	-40.917	93.219	107.392	-43.136	-38.825	-35.957	-31.303	100.247	-35.561	-8191	255	
3229.931	1	1	0	0	0.18917	0.24057	0.19102	0.15633	0.24076	0.23292	0.13916	0.16078	0.052316	0.14603	0.22814	0.078857	0.064593	0.25221	0.24725	0.1571	-1.8438	-3.0417	-2.1854	-2.5833	-2.9604	-2.1063	-2.7188	-2.675	-2.1188	-3.0187	-2.4062	-2.4979	-2.9146	-2.2375	-2.8438	-2.8333	27.883	-45.682	208.194	242.402	34.750	51.422	291.341	14.656	137.035	92.127	104.219	273.112	71.953	256.847	-48.865	232.933	0.00025267	0.00024282	4.6948e-05	439.09	2.4197e-06	1.505e-06	370.43	160.37	5.7856e-06	3.2516e-06	157	63.178	62.087	33.464	2.3221e-06	34.519	0.0012189	0.0020049	0.00056739	472.21	1.9427e-05	2.3201e-05	398.25	173.35	1.9419e-05	2.291e-05	169.65	68.845	67.671	36.466	2.1432e-05	37.531	100.606	42.127	0.585	-46.080	98.540	112.430	-47.261	-40.783	96.285	103.392	-43.055	-38.451	-35.719	-31.275	93.595	-35.401	-8191	255	
3230.027	1	1	0	0	0.12801	0.17285	0.060378	0.23347	0.14693	0.24688	0.14134	0.09992	0.2062	0.15207	0.16674	0.12804	0.27764	0.21399	0.222	0.16139	-1.6396	-2.8792	-2.3	-2.3917	-3.0104	-2.175	-2.6604	-2.95	-2.4625	-3.2083	-2.5792	-2.1958	-3.025	-2.3604	-2.4479	-2.9542	-42.123	153.188	255.369	277.302	245.880	134.604	252.840	160.482	148.602	128.383	149.308	101.899	145.292	46.882	76.241	204.104	0.00023072	0.00028256	8.2126e-05	437.51	3.0699e-06	8.196e-07	368.49	157.58	2.0689e-06	1.969e-06	154.2	61.668	59.805	32.14	1.5696e-06	33.651	0.0012345	0.0020089	0.00058077	469.74	1.9407e-05	2.3448e-05	396.45	169.84	1.9902e-05	2.2985e-05	166.85	67.195	65.576	35.209	2.1489e-05	36.561	91.529	55.165	24.229	-45.952	66.602	75.572	-46.910	-40.853	110.260	110.921	-43.208	-38.625	-36.138	-31.597	53.943	-35.260	-8191	255	
3230.146	1	1	0	0	0.33048	0.050215	0.19039	0.18862	0.18317	0.068416	0.27544	0.16727	0.18407	0.033952	0.1604	0.18377	0.055155	0.093016	0.21312	0.22536	-1.8188	-2.8396	-2.4021	-2.2792	-3.0646	-2.3917	-2.6562	-2.8458	-2.1208	-2.9417	-2.6854	-2.1417	-2.975	-2.3833	-2.3854	-2.8771	-26.260	182.529	208.255	102.997	27.906	142.650	123.648	199.194	136.855	59.368	174.327	253.416	13.183	17.877	8.540	240.749	0.00019112	0.00036217	7.9976e-05	434.36	2.587e-06	1.3538e-06	368.22	152.39	5.0091e-07	1.6783e-06	150.98	60.207	57.847	31.018	2.5401e-06	32.857	0.0012369	0.0021291	0.00059799	465.67	1.993e-05	2.4097e-05	394.98	165.07	2.0764e-05	2.3951e-05	164.09	65.601	63.347	33.967	2.2239e-05	35.765	93.081	30.331	28.304	-46.118	97.104	94.637	-47.063	-40.793	159.289	85.329	-43.333	-38.527	-36.041	-31.175	72.418	-34.987	-8191	255	
3230.242	1	1	0	0	0.071134	0.083464	0.39394	0.030291	0.21589	0.1621	0.12394	0.26974	0.032847	0.1046	0.18445	0.078495	0.11156	0.3559	0.12429	0.032517	-1.7042	-2.7771	-2.5125	-2.1604	-3.0521	-2.3875	-2.3354	-3.0583	-2.0396	-2.7354	-2.6688	-2.0604	-3.0417	-2.4396	-2.4292	-3.1583	7.697	10.852	73.308	264.838	187.611	142.948	179.814	8.099	94.745	257.743	106.824	263.614	226.945	220.894	159.622	-5.172	0.00019721	0.00032131	0.00010799	432.12	1.6973e-06	3.287e-06	365.51	150.07	1.9544e-06	1.9559e-06	147.8	58.57	56.592	30.131	8.4369e-07	32.005	0.0012733	0.0021648	0.00061472	464.73	2.0655e-05	2.5278e-05	393.84	162.02	2.1123e-05	2.4709e-05	160.61	63.645	61.898	33.041	2.2763e-05	34.971	83.720	28.402	17.941	-46.320	88.516	119.804	-47.332	-41.099	79.578	127.155	-43.840	-38.587	-36.086	-31.444	65.754	-35.106	-8191	255	
3230.338	1	1	0	0	0.13954	0.01958	0.081242	0.10489	0.26684	0.24609	0.062058	0.11851	0.27545	0.087636	0.20107	0.11454	0.19223	0.065612	0.29266	0.14493	-1.8188	-2.55	-2.6083	-2.0708	-2.9833	-2.2417	-2.2021	-3.0792	-2.1646	-2.725	-2.9688	-2.1479	-2.8146	-2.6125	-2.3708	-2.9458	28.380	128.198	51.703	292.404	143.770	163.180	252.406	166.335	173.705	119.977	250.468	-31.072	279.559	277.447	143.058	283.621	0.00027387	6.7682e-05	9.8035e-05	433.1	1.9257e-06	4.4995e-06	367.02	151.83	3.2428e-06	1.6221e-06	150.53	59.474	58.334	31.338	2.7555e-06	33.211	0.0012584	0.0021233	0.00060632	464.58	1.9998e-05	2.4064e-05	393.1	163.58	1.9509e-05	2.2892e-05	163.13	65.076	63.675	34.197	2.0514e-05	36.072	87.311	114.676	45.719	-46.390	89.260	74.853	-47.070	-40.724	78.708	101.479	-43.732	-38.506	-36.362	-31.136	110.801	-35.301	-8191	255	
3230.435	1	1	0	0	0.2075	0.033974	0.23583	0.23107	0.049152	0.27495	0.12364	0.15356	0.15225	0.14938	0.14247	0.23	0.13608	0.11007	0.070932	0.090983	-1.9375	-2.4437	-2.7146	-2.1833	-3.1021	-2.4813	-2.1896	-3.1	-2.1708	-2.4896	-2.8208	-2.0729	-2.8792	-2.7313	-2.2708	-3.1104	75.214	-12.519	-12.911	274.008	-2.266	44.971	95.028	284.038	68.445	295.869	203.429	230.466	275.951	251.977	233.611	299.175	0.00021879	0.000246	9.8695e-05	438.17	3.2655e-06	3.8497e-06	370.86	158.64	3.5298e-06	3.5914e-06	156.43	62.511	60.999	32.526	3.255e-06	34.2	0.0011785	0.0019676	0.00056429	471.3	1.8755e-05	2.2253e-05	398.55	170.62	1.8665e-05	2.2035e-05	168.65	67.794	66.573	35.694	1.993e-05	37.108	83.581	-0.559	28.965	-46.018	77.615	98.676	-46.877	-40.628	44.488	75.359	-43.407	-38.636	-36.224	-31.233	97.068	-35.280	-8191	255	
3230.508	1	1	0	0	0.16021	0.1263	0.13796	0.28761	0.16576	0.14824	0.32197	0.16465	0.36703	0.057926	0.17509	0.052789	0.028712	0.078101	0.1221	0.31466	-1.7687	-2.3521	-2.9625	-2.1583	-2.7438	-2.7938	-2.2229	-2.9417	-2.5021	-2.4	-2.9229	-2.1521	-2.7229	-2.8521	-2.1937	-3.1333	-58.438	233.739	19.438	194.103	154.080	100.791	294.348	206.339	28.665	70.249	-29.401	190.786	-5.835	53.431	157.089	271.624	0.00026086	0.00034189	7.0294e-05	441.25	2.7787e-06	4.6943e-06	374.09	159.79	3.5497e-06	2.268e-06	155.65	63.228	61.582	33.078	4.5505e-06	34.029	0.00112	0.0018889	0.00052163	472.81	1.7935e-05	2.1644e-05	400.71	171.99	1.8386e-05	2.1224e-05	169.64	68.533	67.13	36.053	2.0175e-05	37.102	101.419	19.202	-11.395	-46.215	80.797	121.817	-47.069	-40.670	93.353	89.296	-43.179	-38.734	-35.754	-31.234	89.448	-34.988	-8191	255	
3230.627	1	1	0	0	0.15267	0.055678	0.12481	0.31161	0.13279	0.22409	0.096323	0.24679	0.32047	0.18053	0.15596	0.2444	0.1656	0.18614	0.24709	0.16706	-2.0583	-2.25	-2.9229	-2.2687	-2.5625	-2.9333	-2.0687	-3.0583	-2.4313	-2.3292	-3.1208	-2.2	-2.4646	-2.7958	-2.1583	-2.9188	271.799	164.094	216.685	291.915	54.012	-6.205	287.679	268.138	-22.187	-41.165	173.871	-38.742	282.687	81.787	209.319	254.568	0.00023946	0.00017631	4.0629e-05	440.95	3.4435e-06	3.9787e-06	369.08	158.17	2.0329e-06	1.3539e-06	154.54	62.113	61.221	32.611	3.6207e-06	33.956	0.0011366	0.001941	0.00053459	471.37	1.8874e-05	2.2275e-05	396.39	170.42	1.9181e-05	2.2198e-05	167.37	67.532	66.576	35.66	2.0629e-05	36.812	90.464	-10.615	124.046	-46.360	137.881	122.842	-46.954	-40.656	134.644	74.606	-43.099	-38.587	-35.889	-31.407	111.774	-35.228	-8191	255	
3230.723	1	1	0	0	0.17164	0.13038	0.028297	0.27866	0.27617	0.15155	0.25372	0.10249	0.034117	0.31119	0.20334	0.045872	0.12718	0.17208	0.068204	0.18463	-2.1625	-2.1354	-2.95	-2.325	-2.3563	-2.8771	-2.1042	-2.7146	-2.7646	-2.1104	-3.05	-2.4813	-2.2104	-3.1083	-1.9688	-2.8083	297.446	105.510	71.613	255.387	158.792	-42.395	285.254	288.978	52.301	102.591	-39.389	230.703	57.930	286.802	-19.986	-40.446	0.00021302	0.00040306	8.1471e-05	437.87	3.7103e-06	1.898e-06	367.13	156.88	2.9986e-06	3.2995e-06	153.32	61.177	59.905	31.932	1.4041e-06	33.37	0.0011524	0.0019724	0.00055244	469.22	1.9196e-05	2.2623e-05	394.76	169.12	1.9364e-05	2.2491e-05	165.59	66.605	65.395	34.917	2.0601e-05	36.166	108.050	23.972	0.082	-46.156	59.695	112.707	-46.891	-40.680	66.520	104.621	-43.493	-38.639	-35.743	-31.080	140.432	-35.108	-8191	255	
3230.819	1	1	0	0	0.056273	0.03978	0.029951	0.019854	0.2173	0.02002	0.2194	0.066615	0.34351	0.24161	0.14212	0.14456	0.34112	0.27385	0.16579	0.24847	-2.3729	-2.0521	-2.9542	-2.4813	-2.1792	-2.8937	-2.125	-2.5563	-2.9542	-2.0333	-2.8771	-2.4062	-2.2812	-3.1646	-2.1042	-2.5271	10.604	112.349	-37.762	-27.291	141.697	155.977	253.283	224.369	205.285	19.611	272.999	197.022	-32.612	208.117	112.114	176.130	0.00020674	0.00027524	4.9324e-05	433.68	2.7928e-06	3.0309e-06	366.97	153.98	2.2417e-06	2.1489e-06	151.58	60.63	59.253	31.729	6.3431e-07	33.368	0.0011815	0.0020477	0.0005587	465.77	1.9376e-05	2.2706e-05	393.29	166.14	1.9166e-05	2.3039e-05	164.2	65.95	64.733	34.633	2.0759e-05	36.241	85.704	-8.471	11.289	-46.220	72.069	58.830	-46.937	-40.912	64.876	131.716	-43.253	-38.968	-36.124	-31.404	98.064	-35.081	-8191	255	
3230.915	1	1	0	0	0.14603	0.13634	0.24014	0.08276	0.21618	0.30123	0.13776	0.11824	0.10814	0.11769	0.18965	0.092894	0.35492	0.11235	0.16901	0.02971	-2.2604	-2.0187	-2.8583	-2.6146	-2.15	-2.9875	-2.1771	-2.6813	-2.775	-2.2521	-2.975	-2.5396	-2.3542	-3.025	-2.1937	-2.5854	83.438	94.306	124.730	268.712	87.269	57.301	-3.435	47.645	254.965	175.201	-22.264	-47.105	-41.960	40.165	-52.856	112.345	0.00016545	0.00030536	0.00013292	434.33	2.7647e-06	2.4329e-06	367.08	156.67	1.9022e-06	2.0319e-06	154.67	62.047	60.837	32.815	2.5617e-06	34.04	0.001182	0.0020287	0.00055418	467	1.9201e-05	2.2371e-05	394.42	169.05	1.8732e-05	2.227e-05	167.25	67.579	66.511	35.836	2.0075e-05	37.039	98.643	44.364	28.702	-46.145	80.919	48.681	-47.057	-40.685	75.593	88.882	-43.343	-38.495	-36.088	-30.965	60.719	-35.040	-8191	255	
3231.034	1	1	0	0	0.0935	0.2562	0.25449	0.15118	0.12546	0.20153	0.19868	0.16808	0.22815	0.1451	0.066658	0.15895	0.2203	0.060037	0.12134	0.28134	-2.4333	-2.1146	-2.7333	-2.6708	-2.1167	-2.9271	-2.5021	-2.4479	-2.8625	-2.0458	-2.8208	-2.6813	-2.0854	-3.0354	-2.2646	-2.4396	246.821	208.958	295.035	243.592	-5.421	165.714	-43.705	240.964	-32.551	-33.305	236.957	-18.572	173.144	155.081	151.029	122.753	0.00024814	0.00023268	6.7345e-05	438.37	2.7252e-06	3.5482e-06	367.33	159.52	1.0028e-06	2.8189e-06	155.98	62.744	61.667	33.365	3.3868e-06	34.412	0.0011572	0.0019441	0.0005412	470.53	1.9226e-05	2.2445e-05	394.36	171.49	1.8893e-05	2.2119e-05	168.3	68.216	67.413	36.443	2.0855e-05	37.419	93.606	42.027	4.797	-46.007	120.685	86.246	-46.972	-40.404	180.724	72.244	-43.101	-38.934	-35.803	-30.941	101.172	-34.930	-8191	255	
3231.108	1	1	0	0	0.17034	0.11748	0.24733	0.19284	0.10009	0.13738	0.13082	0.18002	0.27076	0.077967	0.064103	0.24412	0.094971	0.16807	0.13699	0.27961	-2.6646	-2.2083	-2.8187	-2.8187	-2.0375	-3.0271	-2.4104	-2.3125	-3.0042	-2.1188	-2.5917	-2.9042	-1.9	-2.9646	-2.5104	-2.2125	206.375	-17.274	73.007	250.169	283.392	34.350	91.040	193.542	97.495	130.509	255.500	246.327	290.656	298.888	245.937	242.441	0.0002175	0.00024862	9.6894e-05	441.46	3.1819e-06	3.9388e-06	369.1	161.07	1.9309e-06	3.1625e-06	157.31	63.74	62.79	33.817	2.4342e-06	34.788	0.0011768	0.0019649	0.00055475	473.1	1.9557e-05	2.2634e-05	396.68	173.89	1.9403e-05	2.301e-05	170.64	69.142	68.447	36.942	2.0885e-05	37.807	90.881	21.415	40.172	-46.183	85.834	69.637	-47.008	-40.439	132.748	35.595	-43.179	-38.497	-35.782	-31.032	92.627	-35.115	-8191	255	
3231.228	1	1	0	0	0.29547	0.36026	0.085617	0.20199	0.14296	0.052026	0.059554	0.12387	0.15865	0.28722	0.090827	0.13916	0.12211	0.2984	0.04619	0.30795	-2.7146	-2.1854	-2.6417	-2.7167	-2.0479	-2.7792	-2.5708	-2.2583	-3.0604	-2.2562	-2.5812	-2.9333	-2.1146	-2.9938	-2.6542	-2.1958	19.272	72.885	73.498	-46.548	147.869	234.620	246.170	-29.271	239.940	161.237	177.106	121.801	262.412	-42.219	291.654	292.029	0.00025858	0.00027003	6.9814e-05	440.06	3.4117e-06	3.6859e-06	368.78	160.55	2.0804e-06	2.3294e-06	156.33	63.553	62.089	33.49	1.6739e-06	34.499	0.0011937	0.0019958	0.0005676	472.63	1.9792e-05	2.2966e-05	397.36	173.2	1.9568e-05	2.3125e-05	169.78	68.934	67.827	36.573	2.1227e-05	37.594	101.274	25.844	52.627	-46.053	94.123	110.537	-47.017	-40.541	91.739	72.772	-43.098	-38.523	-35.933	-30.976	-54.525	-35.120	-8191	255	
3231.323	1	1	0	0	0.055772	0.19744	0.1034	0.01887	0.17976	0.10454	0.20678	0.19171	0.20161	0.18796	0.20226	0.15409	0.10036	0.29941	0.15944	0.058074	-2.6312	-2.2562	-2.4479	-3.0187	-2.1375	-2.8333	-2.875	-2.0229	-2.8229	-2.4125	-2.3438	-3.0146	-2.3104	-2.5563	-2.6729	-2.1354	252.444	293.405	183.354	31.808	73.907	259.977	15.570	285.803	-38.089	36.929	-39.418	202.726	273.729	239.129	73.421	-31.378	0.00020048	0.00013626	0.00010241	437.48	2.4104e-06	1.0922e-06	366.33	157.29	2.7179e-06	1.9479e-06	153.34	62.456	61.126	33.084	2.2257e-06	33.921	0.0012168	0.0020483	0.00059248	469.8	1.9919e-05	2.3743e-05	394.38	170.2	1.9777e-05	2.3392e-05	166.79	67.602	66.748	36.087	2.1589e-05	37.044	111.651	51.951	38.341	-46.045	13.685	154.589	-46.919	-40.463	151.317	84.405	-42.898	-38.719	-36.288	-30.969	50.305	-35.222	-8191	255	
3231.419	1	1	0	0	0.21008	0.061352	0.041725	0.19377	0.071772	0.28144	0.41578	0.092293	0.048643	0.14723	0.21532	0.18028	0.34522	0.23416	0.24278	0.16582	-2.4979	-2.5042	-2.1875	-2.8896	-2.0396	-2.425	-2.8292	-2.1937	-2.9292	-2.4229	-2.2396	-3.2167	-2.2062	-2.6083	-2.9938	-2.1417	284.964	270.139	106.424	244.405	40.961	-11.461	149.360	145.916	264.648	215.778	139.995	-5.633	146.136	-37.078	269.806	112.628	0.00029807	0.00028047	7.3068e-05	437.52	2.906e-06	1.4306e-06	367.85	160.57	2.7299e-06	3.1912e-06	157.73	64.182	63.799	34.578	4.6229e-06	35.575	0.0012434	0.0021133	0.00059731	470.48	2.0167e-05	2.4272e-05	394.22	173.51	2.0089e-05	2.3582e-05	171.07	69.623	69.669	37.897	2.1493e-05	38.701	98.105	21.294	20.888	-46.016	87.666	76.756	-47.017	-40.399	71.104	90.005	-43.057	-38.728	-35.904	-30.926	108.710	-35.256	-8191	255	
3231.515	1	1	0	0	0.22021	0.20145	0.2145	0.15347	0.058155	0.022492	0.1338	0.10847	0.21506	0.059006	0.15049	0.14691	0.062541	0.18899	0.094982	0.035399	-2.3375	-2.6312	-2.1188	-3.0646	-2.2729	-2.5479	-2.9437	-2.2396	-2.8479	-2.6208	-2.0208	-2.9583	-2.2125	-2.4917	-3.0104	-2.15	208.015	-21.808	-41.631	245.492	155.783	21.301	-43.452	247.869	120.642	265.176	4.557	133.980	110.989	-49.122	266.061	240.117	0.0002626	0.00049692	8.9736e-05	444.56	1.6305e-06	3.329e-06	372.73	166.46	1.7848e-06	3.2689e-06	161.91	65.981	65.23	35.586	2.309e-06	36.426	0.0012513	0.0021005	0.00059036	477.79	2.0366e-05	2.3996e-05	400.5	179.63	1.993e-05	2.3724e-05	175.21	71.561	71.314	38.92	2.0931e-05	39.625	104.785	16.809	18.135	-46.101	115.573	84.429	-47.047	-40.121	115.112	94.992	-43.047	-38.505	-35.756	-31.152	41.940	-35.229	-8191	255	
3231.636	1	1	0	0	0.16309	0.18242	0.041903	0.049428	0.10261	0.28262	0.034483	0.18108	0.13488	0.18453	0.17884	0.11664	0.17876	0.21222	0.07687	0.24295	-2.4938	-2.5563	-2.1646	-2.9437	-2.3104	-2.3042	-3.1083	-2.275	-2.6896	-2.6021	-2.2479	-2.8167	-2.5125	-2.3854	-2.9542	-2.1208	218.278	204.362	98.082	111.905	-5.466	120.701	112.494	260.273	228.361	-27.469	261.507	296.510	-41.066	248.450	160.375	-53.174	0.00024461	0.00029708	7.0446e-05	446.13	2.449e-06	2.6259e-06	373.23	165.72	3.2779e-07	3.2831e-06	163.25	66.462	65.021	35.671	2.9953e-06	36.533	0.0012057	0.0020302	0.00056904	478.16	1.958e-05	2.3118e-05	401.58	179.07	1.9693e-05	2.3104e-05	175.94	71.988	71.214	38.916	2.038e-05	39.741	106.618	26.386	12.396	-45.860	53.912	109.055	-46.564	-40.509	127.168	82.343	-43.051	-38.399	-35.658	-31.099	59.339	-35.166	-8191	255	
3231.732	1	1	0	0	0.33734	0.1791	0.13476	0.07577	0.19319	0.2243	0.072627	0.090988	0.098589	0.20149	0.16679	0.039706	0.10131	0.14482	0.13251	0.1161	-2.225	-2.7625	-2.0417	-3.1375	-2.4833	-2.3604	-3.175	-2.0833	-2.7313	-2.7042	-2.0604	-2.7646	-2.5	-2.1312	-3.1521	-2.3458	279.725	-22.776	77.785	-14.910	206.404	-35.329	73.710	147.573	28.517	89.355	275.651	276.210	-53.119	-45.079	194.577	299.467	0.00027363	0.00019479	8.8176e-05	443.48	1.5881e-06	3.5643e-06	370.96	162.89	1.4998e-06	3.8708e-06	160.66	65.388	64.194	35.105	2.0882e-06	35.79	0.0012182	0.0020408	0.00056752	475.63	1.9784e-05	2.3289e-05	400.24	176.79	1.9769e-05	2.3204e-05	174.04	71.042	70.181	38.338	2.1377e-05	39.039	93.217	56.235	29.292	-45.588	4.321	120.445	-47.151	-40.482	88.666	81.591	-43.050	-38.388	-35.971	-31.053	109.179	-35.318	-8191	255	
3231.803	1	1	0	0	0.080154	0.091338	0.16642	0.087648	0.15074	0.19502	0.066645	0.10575	0.095698	0.19087	0.053757	0.21777	0.17077	0.10136	0.037044	0.097748	-2.1854	-3.0583	-1.9875	-2.8583	-2.6417	-1.9875	-2.9208	-2.3937	-2.4542	-2.9792	-2.1042	-2.7917	-2.5333	-2.0292	-2.9521	-2.4042	29.525	131.515	190.929	175.291	41.276	106.729	96.694	200.578	295.705	291.391	123.231	300.249	-1.110	-39.709	97.613	-14.793	0.00030297	0.0003133	9.4258e-05	438.53	3.0044e-06	3.6751e-06	368.61	160.64	2.7084e-06	1.8412e-06	158.2	64.405	62.833	34.488	2.1652e-06	35.57	0.0012676	0.0020859	0.00059602	470.99	1.9883e-05	2.4143e-05	397.31	173.66	2.0027e-05	2.3249e-05	171.42	69.985	68.889	37.57	2.1123e-05	38.717	98.877	17.512	14.289	-46.114	84.127	108.718	-47.048	-40.552	67.354	113.038	-43.237	-38.706	-36.053	-31.112	106.663	-35.419	-8191	255	
3231.924	1	1	0	0	0.06491	0.24956	0.08828	0.42923	0.15114	0.28926	0.31742	0.23963	0.12521	0.019648	0.14735	0.27629	0.1392	0.29291	0.092221	0.38233	-1.9979	-3.0021	-2.1125	-2.7938	-2.7417	-2.1521	-2.95	-2.4146	-2.2313	-2.9875	-2.0792	-2.5396	-2.8708	-2.0812	-2.8229	-2.5292	76.385	235.021	234.383	227.350	173.860	296.062	282.754	-36.681	7.684	299.599	211.201	-55.911	-7.003	-6.506	-50.401	3.558	0.00021949	0.00028747	9.0223e-05	438.84	2.5154e-06	3.0581e-06	371.2	163.19	3.3491e-06	2.1219e-06	162.27	66.229	65.333	35.519	2.2786e-06	36.805	0.0012253	0.0020317	0.00058024	471.56	1.9682e-05	2.3208e-05	399.74	175.64	2.001e-05	2.2863e-05	174.9	71.77	70.925	38.815	2.0733e-05	39.979	95.804	18.595	44.724	-46.070	119.114	152.228	-46.918	-40.494	66.686	70.170	-43.015	-38.376	-35.776	-31.082	140.685	-35.318	-8191	255	
3232.020	1	1	0	0	0.1334	0.040427	0.16059	0.10382	0.10353	0.20923	0.16753	0.41803	0.17654	0.062976	0.29358	0.21076	0.13743	0.2513	0.29096	0.12029	-1.5854	-2.8854	-1.9958	-2.5083	-2.8792	-2.0479	-3.0896	-2.5917	-2.3208	-3	-2.4208	-2.4313	-2.7667	-2.0062	-2.8042	-2.6312	54.270	290.623	134.430	-52.487	95.619	-54.848	35.681	-26.745	207.715	82.517	227.580	-26.951	249.496	-33.879	-24.073	214.061	0.00020626	0.00028423	7.9884e-05	448.17	2.4095e-06	2.1284e-06	378.26	168.22	2.5937e-06	5.2278e-06	164.21	67.725	66.628	36.424	2.273e-06	37.176	0.001191	0.0020311	0.00057572	479.18	1.9511e-05	2.3355e-05	405.07	181.12	1.9903e-05	2.2728e-05	178.21	73.386	72.727	39.794	2.1051e-05	40.565	98.232	38.118	38.383	-45.620	79.359	116.951	-46.990	-40.633	111.931	96.084	-42.945	-38.369	-36.072	-30.962	109.375	-35.374	-8191	255	
3232.116	1	1	0	0	0.040657	0.19348	0.084506	0.15596	0.28791	0.26614	0.17356	0.10305	0.3028	0.071507	0.14306	0.077729	0.13308	0.27408	0.1369	0.086101	-1.6083	-3.0812	-2.3896	-2.2917	-3.0187	-2.0771	-2.8417	-2.8438	-2.2146	-2.9188	-2.4646	-2.2188	-3.0583	-2.2104	-2.6042	-2.85	152.465	267.300	-5.803	107.969	169.545	-40.356	220.643	-24.068	66.318	275.699	255.566	173.212	48.492	-36.292	300.931	277.718	0.00035694	0.00014121	9.3043e-05	448.61	2.1821e-06	2.578e-06	377.37	170.09	3.2323e-06	5.6102e-07	166.64	68.211	67.629	37.075	4.6113e-06	37.8	0.0012617	0.0020319	0.00058541	482.78	2.0247e-05	2.3184e-05	404.98	183.74	2.032e-05	2.3537e-05	180.24	74.164	73.978	40.561	2.1817e-05	41.053	97.075	-1.299	39.123	-45.640	50.993	112.200	-46.603	-40.173	120.337	128.358	-42.699	-38.375	-35.414	-30.980	85.688	-35.251	-8191	255	
3232.211	1	1	0	0	0.2016	0.11838	0.037411	0.13977	0.16446	0.27695	0.051646	0.20278	0.078098	0.12443	0.31388	0.24197	0.12436	0.10706	0.077198	0.40734	-1.7854	-2.9417	-2.2729	-2.3979	-2.975	-2.1312	-2.8563	-2.8708	-2.1417	-2.9604	-2.5958	-2.4875	-2.8917	-2.0917	-2.6333	-2.9583	138.248	270.284	121.511	214.536	106.930	48.319	231.741	298.292	190.989	69.137	288.217	211.458	290.471	-57.824	24.701	268.398	0.00025798	0.000313	9.1632e-05	450.2	1.7319e-06	2.7695e-06	377.29	171.24	2.2011e-06	2.8355e-06	167.11	68.683	68.201	37.383	2.0558e-06	37.836	0.0012842	0.002057	0.0005803	483.99	2.0177e-05	2.4013e-05	406.06	185.24	2.0328e-05	2.3651e-05	181.04	74.732	74.434	40.877	2.1742e-05	41.291	96.799	52.959	19.480	-45.787	29.962	106.539	-46.350	-40.421	79.245	76.949	-43.031	-38.287	-35.732	-30.924	71.339	-35.202	-8191	255	
3232.331	1	1	0	0	0.19596	0.23762	0.30985	0.42874	0.084171	0.072867	0.20365	0.059313	0.14814	0.049498	0.19765	0.18736	0.14329	0.11567	0.17788	0.27802	-1.5729	-2.65	-2.3958	-2.1354	-2.8833	-2.2646	-2.4562	-2.975	-1.8937	-2.8583	-2.5917	-2.15	-2.9958	-2.325	-2.3563	-3.0771	210.737	-56.364	103.410	285.527	206.838	109.772	231.799	210.739	292.175	301.141	87.177	285.136	147.123	-38.856	278.918	235.169	0.0002875	0.00034404	0.00010218	451	3.1048e-06	2.0886e-06	380.62	170.94	3.8683e-06	3.0422e-06	167.94	68.982	68.57	37.371	1.6e-06	38.099	0.0012783	0.0020889	0.00059979	483.9	2.0312e-05	2.4612e-05	407.44	184.53	2.0692e-05	2.3715e-05	181.19	74.879	74.442	40.828	2.2063e-05	41.41	90.759	24.738	19.707	-45.798	89.094	115.331	-46.713	-40.317	78.528	110.008	-43.236	-38.475	-35.501	-31.170	121.141	-34.912	-8191	255	
3232.403	1	1	0	0	0.3077	0.087592	0.21064	0.092632	0.25483	0.092511	0.14449	0.040043	0.25483	0.12373	0.10492	0.21134	0.16523	0.31963	0.2591	0.22064	-1.7062	-2.7146	-2.6	-2.2104	-2.9333	-2.3771	-2.2583	-3.0708	-1.9583	-2.5687	-2.8229	-1.925	-3.0271	-2.4375	-2.1875	-3.0146	146.031	279.754	6.838	290.496	113.626	221.839	233.206	-23.353	8.090	285.142	158.057	-5.519	241.599	258.919	28.776	-34.568	0.00021057	0.00016373	0.00010492	450.9	3.0731e-06	1.9804e-06	380.15	172.13	3.4301e-06	4.9175e-06	168.71	69.239	68.635	37.676	2.5148e-06	38.258	0.0012851	0.0021138	0.00059572	483.39	1.9905e-05	2.4181e-05	408.22	185.8	2.0657e-05	2.4057e-05	182.51	75.368	75.261	41.237	2.2743e-05	41.578	89.806	49.744	13.423	-45.318	70.555	96.238	-46.469	-40.348	35.088	79.951	-42.816	-38.308	-35.257	-30.872	144.790	-35.145	-8191	255	
3232.499	1	1	0	0	0.14452	0.024453	0.18688	0.17574	0.068611	0.32509	0.16306	0.26529	0.10961	0.11089	0.26304	0.13626	0.082406	0.12859	0.20213	0.10114	-1.6625	-2.3604	-2.7729	-2.1562	-2.8458	-2.4083	-2.0083	-2.8729	-2.0979	-2.4854	-2.9104	-1.7583	-2.8438	-2.5646	-2.2938	-2.9437	-23.603	-8.062	180.558	85.569	273.409	68.545	268.819	235.249	11.192	140.595	-22.676	-17.929	29.184	183.186	0.054	147.071	0.00024473	0.00014389	7.4852e-05	450.17	3.3737e-06	4.9383e-06	377.99	171.99	1.7105e-06	2.2338e-06	166.41	68.443	68.101	37.228	1.2596e-06	37.903	0.001316	0.0022073	0.00061508	483.9	2.1294e-05	2.5392e-05	405.49	185.53	2.0885e-05	2.5073e-05	180.55	74.554	74.546	40.784	2.2921e-05	41.109	99.892	64.047	57.953	-45.649	86.236	71.617	-46.685	-40.141	69.639	93.455	-43.083	-38.392	-35.367	-31.015	-0.127	-35.041	-8191	255	
3232.595	1	1	0	0	0.07605	0.20835	0.095057	0.14683	0.11824	0.16759	0.20107	0.10814	0.1335	0.12347	0.18757	0.21744	0.38821	0.28274	0.13423	0.050519	-1.8292	-2.3187	-2.7438	-2.0875	-2.7313	-2.4562	-2.1333	-3.0958	-2.1437	-2.1292	-3.0479	-2.1	-2.8	-2.7646	-2.1146	-2.8375	36.128	91.293	55.893	180.335	282.819	205.838	266.666	-4.752	291.534	281.432	262.268	-51.062	-49.443	-18.489	272.882	286.736	0.0002749	0.00028607	7.0194e-05	449.78	3.1717e-06	2.0517e-06	377.92	171.12	2.512e-06	3.1407e-06	167.63	68.714	68.379	37.444	2.7421e-06	37.81	0.0013222	0.0022064	0.00061046	481.79	2.0934e-05	2.5079e-05	405.38	184.93	2.1235e-05	2.4577e-05	180.92	74.71	74.773	40.92	2.2535e-05	41.206	93.920	-11.184	21.122	-45.559	88.837	103.236	-46.602	-40.077	82.471	101.089	-42.913	-38.361	-35.530	-30.867	71.679	-35.298	-8191	255	
3232.716	1	1	0	0	0.22475	0.079524	0.15948	0.12008	0.11749	0.14205	0.51814	0.18388	0.12717	0.22327	0.21086	0.26884	0.098779	0.20046	0.10719	0.15367	-2.0583	-2.275	-2.7562	-1.9625	-2.5292	-2.9437	-2.1417	-2.8563	-2.3375	-2.2104	-3.1708	-2.2562	-2.3521	-3.0354	-2.0729	-2.9375	-44.175	130.588	196.032	35.450	217.430	152.874	173.621	-55.477	157.563	-4.626	200.459	275.670	-38.112	-27.997	114.898	-12.230	0.00028404	0.00024201	8.0671e-05	449.52	1.2322e-06	4.7324e-06	378.23	171.34	1.462e-06	2.6579e-06	168.26	69.331	68.293	37.358	3.0404e-06	38.362	0.001313	0.0022196	0.00060005	483.3	2.0784e-05	2.499e-05	406.48	185.14	2.0602e-05	2.4345e-05	182.06	75.314	74.825	40.953	2.2386e-05	41.656	94.109	38.603	57.594	-45.836	65.427	76.823	-46.698	-40.117	77.439	39.648	-42.697	-38.453	-35.772	-30.928	118.148	-34.840	-8191	255	
3232.812	1	1	0	0	0.11137	0.016053	0.050553	0.23637	0.062148	0.25658	0.27162	0.17514	0.12755	0.38918	0.19008	0.26212	0.14404	0.11541	0.21989	0.25751	-2.0104	-2.1125	-2.7167	-2.0917	-2.6354	-2.8688	-2.3479	-3.1229	-2.5417	-2.1396	-3.1167	-2.0833	-2.4938	-3.0458	-2.1292	-2.8146	285.152	67.021	250.361	286.340	203.794	185.466	228.840	280.239	26.089	252.424	70.268	287.735	-44.492	75.383	281.386	101.978	0.00032585	0.00026117	9.2933e-05	450.65	2.5459e-06	3.2228e-06	376.32	171.6	1.9733e-06	2.4733e-06	167.84	69.088	68.589	37.586	3.4585e-06	37.885	0.0012795	0.0021905	0.00060346	482.96	2.1018e-05	2.4713e-05	405.65	185.28	2.1024e-05	2.4506e-05	181.95	74.972	74.874	41.108	2.2504e-05	41.368	95.105	49.164	13.033	-45.423	40.776	72.307	-46.839	-40.036	106.231	110.260	-42.923	-38.541	-35.618	-30.684	90.272	-35.166	-8191	255	
3232.908	1	1	0	0	0.012711	0.23353	0.25921	0.27494	0.22444	0.071509	0.14461	0.1705	0.079748	0.083697	0.050563	0.026602	0.038908	0.10638	0.18101	0.54566	-2.1479	-2.0604	-3.0354	-2.4792	-2.2687	-3.0042	-2.1229	-2.7042	-2.6813	-2.0563	-3.0479	-2.4604	-2.4	-3.0417	-2.0354	-2.6917	293.400	68.429	56.140	161.527	109.193	67.796	185.886	220.583	-51.005	34.196	226.332	27.166	12.854	290.002	290.491	236.215	0.00023868	0.0003741	0.000129	450.41	4.3265e-06	2.1046e-06	377.78	172.69	1.8901e-06	1.4718e-06	169.02	69.795	69.005	38.087	1.8756e-06	38.647	0.0012702	0.0021682	0.00059816	483.71	2.0981e-05	2.4558e-05	406.08	186.29	2.0665e-05	2.4469e-05	182.44	75.448	75.485	41.572	2.3101e-05	41.767	104.585	21.178	-1.620	-45.602	89.993	60.213	-46.602	-40.079	36.849	70.890	-42.930	-38.342	-35.276	-30.992	58.626	-34.759	-8191	255	
3233.004	1	1	0	0	0.27996	0.10541	0.42801	0.19989	0.24076	0.21163	0.13062	0.19538	0.13004	0.22601	0.16516	0.017735	0.31901	0.10688	0.19553	0.028717	-2.2771	-1.9208	-2.9667	-2.4375	-2.2958	-3.0854	-2.1188	-2.6083	-2.8	-2.0563	-2.9854	-2.5458	-2.2896	-3.2271	-2.2625	-2.5146	173.234	112.705	51.293	227.879	254.291	165.161	236.481	241.965	127.812	268.945	164.617	242.919	-38.613	289.851	121.024	-18.517	0.00026877	0.00040049	9.342e-05	452.19	4.1007e-06	2.889e-06	378.87	175.47	2.1796e-06	3.075e-06	171.37	70.686	70.714	38.759	4.3053e-06	39.226	0.0013139	0.0021881	0.00061565	485.61	2.1327e-05	2.4756e-05	407.8	188.96	2.1083e-05	2.4956e-05	185.37	76.92	77.122	42.461	2.2754e-05	42.615	94.020	26.539	48.620	-45.680	83.289	90.378	-46.733	-39.936	81.629	90.196	-42.672	-38.378	-35.437	-31.086	100.960	-34.852	-8191	255	
3233.101	1	1	0	0	0.29215	0.1995	0.14962	0.25132	0.071957	0.12948	0.051681	0.16678	0.15944	0.44267	0.081262	0.25442	0.10861	0.1315	0.23706	0.18048	-2.425	-1.9292	-2.7562	-2.6333	-2.2	-3.0667	-2.3729	-2.5938	-2.8125	-2.025	-2.7708	-2.7146	-2.3792	-2.8208	-2.2438	-2.3854	230.072	241.903	111.690	48.163	55.294	-52.125	137.625	264.599	-28.104	57.877	22.267	236.592	273.673	298.195	104.779	-48.969	0.0002396	0.00045785	9.8526e-05	457.54	2.4684e-06	5.8186e-06	384.13	177.22	1.6783e-06	2.7593e-06	173.76	72.015	71.345	39.5	1.8413e-06	40.015	0.0012825	0.0021776	0.00061949	491.06	2.0931e-05	2.4631e-05	414.32	191.87	2.0815e-05	2.4888e-05	188.68	78.302	78.188	43.195	2.237e-05	43.44	82.945	49.839	56.703	-45.440	39.211	90.696	-46.726	-39.965	85.113	83.794	-42.722	-38.364	-35.655	-30.925	69.668	-34.893	-8191	255	
3233.197	1	1	0	0	0.34429	0.13763	0.12072	0.10679	0.21238	0.3841	0.23366	0.13045	0.17679	0.29816	0.18816	0.071226	0.1954	0.15203	0.36161	0.11134	-2.3104	-2.0812	-2.5979	-2.8083	-2.1042	-2.9562	-2.4833	-2.2854	-2.9042	-2.2208	-2.7729	-2.7438	-1.9312	-2.9479	-2.4833	-2.2792	62.837	82.296	64.918	248.048	274.040	115.747	269.939	284.454	118.596	155.426	175.945	277.057	-26.837	-36.410	41.826	110.744	0.00027682	0.00035714	0.00011953	457.9	2.268e-06	2.8756e-06	383.11	178.5	2.7413e-06	3.3496e-06	173.81	71.746	71.244	39.486	3.805e-06	39.804	0.0013018	0.0021657	0.00061217	493.26	2.1118e-05	2.4945e-05	413.92	192.28	2.1126e-05	2.4968e-05	187.78	77.866	78.084	43.132	2.2512e-05	43.219	99.447	5.709	49.271	-45.355	108.362	101.958	-46.547	-39.895	72.836	68.468	-42.552	-38.458	-35.432	-30.969	50.204	-34.666	-8191	255	
3233.316	1	1	0	0	0.37323	0.18284	0.18455	0.12399	0.25009	0.11545	0.13653	0.14984	0.19697	0.26436	0.1092	0.2225	0.29004	0.16259	0.06193	0.055783	-2.3979	-1.9333	-2.5896	-2.65	-2.0292	-2.7792	-2.5021	-2.1458	-2.9042	-2.2042	-2.5271	-3.0896	-2.1396	-3.1333	-2.5563	-2.3438	6.042	146.787	284.014	-5.173	216.927	97.104	13.935	243.320	204.071	84.457	141.164	169.554	294.132	281.854	-40.341	241.195	0.00026469	0.00033718	0.00011029	460.15	3.6648e-06	4.4132e-06	384.58	179.06	1.9119e-06	2.591e-06	174.16	72.415	72.301	39.901	4.2789e-06	40.247	0.0012861	0.0021911	0.0006222	493.52	2.1317e-05	2.4543e-05	414.5	193.21	2.0622e-05	2.4502e-05	189.42	78.677	78.874	43.602	2.2604e-05	43.792	99.943	26.123	37.773	-45.330	55.956	87.787	-46.883	-39.942	88.631	90.289	-42.957	-38.172	-35.337	-30.784	65.717	-35.018	-8191	255	
3233.412	1	1	0	0	0.14757	0.066475	0.1825	0.1626	0.15617	0.33858	0.19941	0.26272	0.22034	0.13651	0.052779	0.13457	0.12847	0.075845	0.12305	0.077165	-2.6437	-2.0563	-2.4625	-2.7958	-2.0042	-2.6354	-2.8521	-2.1625	-3	-2.2583	-2.5312	-2.9021	-2.1688	-2.8021	-2.8042	-2.1437	258.479	200.096	297.880	157.260	35.117	145.621	202.930	200.528	218.957	99.220	-36.891	292.980	134.369	198.565	240.713	202.709	0.00028326	0.00037939	9.6835e-05	462.11	4.3396e-06	4.1569e-06	388.42	179.56	3.7991e-06	1.9206e-06	176.94	73.126	72.526	40.057	2.2283e-06	40.623	0.0012896	0.0021684	0.00061107	495.58	2.0271e-05	2.4233e-05	417.52	194.04	2.0134e-05	2.43e-05	191.31	79.364	79.166	43.863	2.2209e-05	44.232	90.342	28.558	39.188	-45.570	85.354	81.930	-46.709	-39.725	81.969	77.777	-42.624	-38.447	-35.378	-30.716	84.406	-34.970	-8191	255	
3233.508	1	1	0	0	0.30535	0.079074	0.33572	0.18129	0.16579	0.046882	0.032318	0.10023	0.16244	0.17405	0.22268	0.10378	0.21956	0.17499	0.29315	0.13261	-2.4938	-2.4042	-2.3458	-2.9813	-1.9667	-2.7062	-2.7958	-2.0833	-2.7646	-2.4292	-2.4125	-2.8563	-2.0417	-2.5833	-2.8021	-2.0312	11.873	148.882	172.408	276.098	216.254	50.194	-13.126	133.376	228.800	8.827	-44.749	114.392	-57.457	285.368	-54.759	-54.125	0.00029605	0.0004829	0.00017563	461.9	4.2009e-06	3.5164e-06	392.08	180.04	2.9026e-06	4.0576e-06	178.01	73.61	72.743	40.348	2.3173e-06	40.723	0.0012901	0.0021121	0.00059769	495.89	2.073e-05	2.4365e-05	420.55	194.53	2.0312e-05	2.4063e-05	192.45	79.919	79.483	44.066	2.1491e-05	44.256	97.142	-2.280	25.755	-45.646	87.119	56.138	-46.718	-39.999	75.330	97.132	-42.703	-37.896	-35.459	-30.980	159.395	-35.224	-8191	255	
3233.629	1	1	0	0	0.37358	0.13621	0.083615	0.44274	0.124	0.22942	0.18134	0.1488	0.17493	0.082915	0.40867	0.083638	0.24312	0.32384	0.012797	0.20391	-2.5292	-2.5104	-2.0979	-2.9833	-2.0687	-2.4771	-3.0208	-1.8708	-2.825	-2.5854	-2.1458	-3.1042	-2.1312	-2.6271	-2.8208	-2.2708	253.265	178.836	49.440	242.783	138.208	216.138	-31.507	283.158	7.855	44.573	276.761	120.253	-54.490	297.022	32.232	-43.524	0.00027843	0.00024518	0.00015949	461.97	3.9383e-06	3.0995e-06	389.43	178.78	7.2514e-07	3.381e-06	175.15	72.375	72.095	39.673	1.9902e-06	40.162	0.0012673	0.0020738	0.00060049	495.59	2.0092e-05	2.4194e-05	417.44	192.85	1.993e-05	2.36e-05	189.47	78.523	78.525	43.308	2.1444e-05	43.52	88.103	-10.559	25.483	-45.654	83.719	77.228	-46.582	-39.925	11.832	114.057	-42.863	-38.186	-35.564	-30.698	67.966	-34.677	-8191	255	
3233.700	1	1	0	0	0.04062	0.20703	0.34768	0.21941	0.20182	0.21079	0.25114	0.038062	0.2763	0.13091	0.06273	0.19213	0.16699	0.15578	0.32611	0.072917	-2.3583	-2.7188	-2.0667	-2.8792	-2.4188	-2.4604	-2.9292	-2.3187	-2.6271	-2.6437	-2.1063	-2.8042	-2.4542	-2.3063	-2.975	-2.15	96.828	134.188	240.779	266.363	229.153	275.469	-1.756	-31.555	93.815	-34.352	176.095	-46.664	12.382	-53.715	-44.332	236.564	0.00026796	0.00038456	8.7398e-05	461.81	3.162e-06	2.251e-06	388.51	177.61	1.6023e-06	2.3396e-06	173.79	71.731	70.921	38.872	1.9299e-06	39.352	0.0012504	0.0020435	0.00059275	493.75	1.9353e-05	2.3162e-05	417.17	191.85	1.9599e-05	2.2531e-05	188.23	77.83	77.275	42.489	2.0513e-05	42.861	90.017	-0.920	32.494	-45.641	57.125	107.935	-46.155	-40.263	60.040	43.155	-42.697	-38.149	-35.458	-30.681	125.510	-34.705	-8191	255	
3233.796	1	1	0	0	0.099994	0.17879	0.23884	0.081652	0.19708	0.23922	0.10839	0.13855	0.24871	0.1492	0.36683	0.14314	0.064625	0.44517	0.10432	0.079721	-2.3479	-2.6458	-1.9875	-3.1625	-2.3875	-2.3312	-2.7938	-2.0833	-2.5687	-2.8937	-2.3146	-2.9562	-2.4437	-2.3063	-3.1104	-2.2792	280.204	285.753	266.179	251.359	261.672	243.805	299.682	-23.920	159.751	274.200	62.506	-51.702	19.345	-47.531	46.596	65.023	0.00030276	0.00030273	6.1872e-05	459.55	2.8751e-06	4.458e-06	386.26	176.15	3.2238e-06	1.995e-06	173.67	71.509	70.124	38.487	2.6926e-06	39.075	0.0011846	0.0019229	0.00055108	492.59	1.8696e-05	2.1808e-05	415.6	189.73	1.839e-05	2.1053e-05	186.83	77.352	76.369	41.844	1.8923e-05	42.437	97.347	46.326	2.356	-45.440	126.124	102.783	-46.467	-40.111	75.248	114.287	-42.714	-38.465	-35.605	-30.555	147.493	-34.921	-8191	255	
3233.893	1	1	0	0	0.062947	0.16933	0.10608	0.080023	0.1501	0.32675	0.20289	0.34989	0.039809	0.15408	0.1064	0.077991	0.093685	0.14776	0.17592	0.11096	-2.1333	-2.6354	-2.05	-2.9146	-2.6	-2.1083	-2.8729	-2.0792	-2.4562	-2.8396	-2.2375	-2.7604	-2.6021	-2.1729	-2.85	-2.25	115.762	271.344	283.392	29.782	90.280	193.111	184.832	235.468	275.514	218.596	239.086	41.133	78.770	268.079	22.689	183.165	0.00025772	0.0002712	0.00013042	456.92	5.1997e-06	2.8591e-06	389.14	173.76	2.0307e-06	4.3631e-06	169.27	69.675	68.292	36.992	5.0021e-06	37.738	0.001129	0.0018036	0.00052072	490.53	1.7364e-05	2.0837e-05	415.43	186.91	1.7306e-05	1.9595e-05	183.11	75.359	74.263	40.459	1.7854e-05	41.072	99.203	5.949	33.232	-45.516	90.442	53.806	-46.519	-39.955	65.696	79.241	-42.593	-38.301	-35.571	-30.871	109.920	-35.094	-8191	255	
3234.011	1	1	0	0	0.18525	0.069351	0.25555	0.22405	0.11224	0.25923	0.26037	0.13612	0.15556	0.075299	0.088186	0.11323	0.17574	0.34962	0.031228	0.13212	-2.1437	-2.8896	-1.9896	-2.7542	-2.6396	-2.0979	-2.775	-2.375	-2.2396	-2.9437	-2.2	-2.7708	-2.6792	-2.1937	-2.9917	-2.625	207.355	24.575	119.018	246.880	-52.923	-7.389	268.433	203.879	24.259	109.061	136.284	65.588	164.949	273.783	49.536	257.890	0.00020819	0.00022584	0.00011997	453.59	3.784e-06	3.515e-06	382.49	169.9	1.7547e-06	3.7798e-06	167.14	67.924	67.508	36.38	1.5449e-06	37.255	0.0010846	0.0017069	0.00048315	487.46	1.6324e-05	1.9363e-05	410.82	183.17	1.661e-05	1.8754e-05	180.14	73.983	73.163	39.693	1.7156e-05	40.451	86.178	31.778	52.004	-45.520	63.560	72.424	-46.573	-40.130	71.623	100.658	-42.644	-37.897	-35.269	-30.797	111.470	-34.849	-8191	255	
3234.108	1	1	0	0	0.31841	0.20237	0.12376	0.15064	0.12317	0.23533	0.047076	0.16441	0.035515	0.11566	0.21443	0.15778	0.099117	0.27015	0.27844	0.20406	-1.875	-2.9479	-2.0167	-2.7292	-2.75	-2.1083	-2.9021	-2.5542	-2.3333	-2.9417	-2.2604	-2.5646	-2.7604	-2.2292	-2.85	-2.5417	191.002	91.516	265.766	-16.419	95.978	21.763	59.346	298.702	62.173	-53.139	-21.357	292.321	97.415	286.383	280.861	199.806	0.00027597	0.00026956	8.6462e-05	453.27	2.0991e-06	2.2228e-06	384.28	169.45	2.5479e-06	2.7433e-06	166.08	68.578	66.96	36.242	3.1882e-06	37.346	0.0010272	0.001668	0.00047451	485.04	1.589e-05	1.911e-05	411.37	182.61	1.5873e-05	1.8537e-05	179.87	74.1	72.83	39.535	1.697e-05	40.488	85.859	11.543	42.074	-45.596	91.276	118.198	-46.826	-40.217	73.293	72.057	-42.771	-38.106	-35.569	-30.880	110.464	-35.096	-8191	255	
3234.204	1	1	0	0	0.1134	0.23258	0.19689	0.23967	0.38156	0.20162	0.19574	0.29332	0.31918	0.17571	0.12187	0.052047	0.19086	0.21005	0.13317	0.18575	-1.8021	-3.0479	-2.0583	-2.5729	-2.7958	-1.9083	-2.9271	-2.8167	-2.0771	-3.0208	-2.2313	-2.4813	-3.1479	-2.0104	-2.7083	-2.7021	156.539	265.275	72.236	295.389	293.485	38.815	-44.962	-17.799	283.902	97.886	154.169	-33.002	278.718	281.182	209.505	108.413	0.00025772	0.00022256	0.00014381	451.81	2.5415e-06	4.4445e-06	380.65	168.88	2.1751e-06	1.3065e-06	167.47	68.519	66.791	36.169	3.7551e-06	37.603	0.0010244	0.0015903	0.00046641	484.35	1.5088e-05	1.85e-05	410.85	182.18	1.5882e-05	1.7949e-05	180.89	74.303	72.684	39.609	1.6766e-05	40.764	89.272	59.394	40.315	-45.411	152.793	94.687	-46.461	-40.147	132.010	62.797	-42.937	-38.157	-35.492	-30.872	118.545	-35.059	-8191	255	
3234.277	1	1	0	0	0.10246	0.18191	0.10901	0.13136	0.093344	0.028659	0.33853	0.16151	0.1382	0.19291	0.22989	0.13367	0.23772	0.14346	0.2298	0.19	-1.5875	-2.7729	-2.4271	-2.3563	-2.9688	-2.0583	-2.575	-2.7958	-1.9625	-3.0333	-2.5792	-2.1896	-2.9396	-2.2646	-2.7313	-2.8438	56.913	202.462	-1.174	276.051	183.633	219.678	194.964	282.205	219.283	-51.166	21.086	236.035	250.395	17.042	-39.440	277.579	0.00026043	0.00030358	9.1685e-05	448.84	2.4338e-06	3.5625e-06	381.71	167.99	2.4177e-06	2.2657e-06	164.96	67.745	66.335	35.714	9.2468e-07	36.717	0.0010116	0.0016044	0.00046101	481.49	1.5268e-05	1.8493e-05	408.45	180.81	1.5739e-05	1.771e-05	178.59	73.421	71.879	39.04	1.6498e-05	39.875	96.053	30.986	34.745	-45.669	90.694	110.982	-46.801	-40.317	104.127	105.541	-42.988	-38.217	-35.732	-31.088	29.072	-35.008	-8191	255	
3234.396	1	1	0	0	0.16945	0.19422	0.12422	0.26734	0.095079	0.15546	0.35803	0.31842	0.17917	0.15093	0.14467	0.018979	0.091588	0.18259	0.22644	0.17776	-1.4271	-2.9437	-2.4292	-2.1646	-3.0625	-2.2625	-2.5271	-2.9604	-2.0917	-2.875	-2.7333	-2.1229	-3.1688	-2.5167	-2.5771	-2.9437	-50.514	74.320	138.156	220.443	301.055	216.297	250.048	263.801	52.583	110.900	128.966	183.181	291.595	197.390	33.874	-56.890	0.00028909	0.00029181	0.00012884	445.65	3.3976e-06	1.7446e-06	380.09	166.43	4.119e-06	2.343e-06	165	67.063	65.97	35.559	3.8394e-06	36.779	0.00099895	0.00155	0.00044301	478.92	1.4814e-05	1.7942e-05	406.42	179.65	1.536e-05	1.7745e-05	177.9	72.94	71.814	38.882	1.6536e-05	39.864	95.425	61.179	61.407	-45.728	79.561	103.818	-46.825	-40.321	81.090	62.037	-43.241	-38.371	-35.458	-31.006	44.154	-34.945	-8191	255	
3234.492	1	1	0	0	0.11877	0.1959	0.087362	0.26075	0.17288	0.11217	0.18521	0.19609	0.31762	0.20847	0.14996	0.031567	0.089685	0.21359	0.3373	0.049257	-1.5104	-2.825	-2.5438	-2.2	-2.8458	-2.2562	-2.4688	-3.0875	-2.0354	-2.7792	-2.8458	-2.1875	-3.1667	-2.4188	-2.5083	-2.9896	9.284	73.890	-48.168	-44.411	116.632	197.430	81.449	254.209	33.870	298.972	289.123	-30.301	196.257	31.249	237.447	244.362	0.00027878	0.00014489	0.0001095	446.83	1.7161e-06	2.9512e-06	379.36	167.62	1.2737e-06	2.3966e-06	165.27	67.658	66.271	36.053	3.6421e-06	36.893	0.00094635	0.0015276	0.00044131	478.82	1.4878e-05	1.762e-05	407.22	180.2	1.525e-05	1.6998e-05	178.31	73.274	72.018	39.107	1.6277e-05	40.162	98.295	25.129	28.409	-45.812	68.570	82.502	-46.675	-40.247	51.118	105.891	-43.028	-38.341	-35.718	-30.810	86.026	-34.811	-8191	255	
3234.588	1	1	0	0	0.11498	0.24136	0.27179	0.046869	0.11408	0.1637	0.07221	0.15764	0.083028	0.022964	0.22026	0.14664	0.047205	0.19653	0.060608	0.23704	-1.4354	-2.7396	-2.6813	-2.2375	-2.7687	-2.2792	-2.3271	-3.0854	-2.1021	-2.5521	-2.9062	-2.0875	-2.8875	-2.6854	-2.0792	-2.9125	177.186	245.974	3.052	293.068	-29.169	168.594	-54.502	78.407	-19.140	16.454	-29.070	-1.953	151.837	-31.520	-50.326	212.640	0.00027718	0.00021345	7.1824e-05	447.63	2.6993e-06	2.8262e-06	380.27	166.77	2.3057e-06	4.9538e-06	165.75	67.848	66.315	35.829	3.7228e-06	36.792	0.0009857	0.0015462	0.00043885	479.95	1.4812e-05	1.7858e-05	407.59	179.88	1.509e-05	1.7533e-05	178.8	73.439	71.888	39.057	1.6797e-05	40.02	93.815	38.846	1.221	-45.550	37.293	67.555	-46.661	-40.397	61.020	74.674	-43.029	-38.262	-35.793	-30.867	85.001	-34.881	-8191	255	
3234.709	1	1	0	0	0.12772	0.30693	0.1731	0.06849	0.1221	0.27315	0.067969	0.2119	0.14872	0.034796	0.036331	0.059382	0.059345	0.18172	0.34412	0.31409	-1.8229	-2.5083	-2.8875	-2.1292	-2.8187	-2.4521	-2.3458	-2.8	-2.2021	-2.525	-2.7562	-2.0563	-2.9125	-2.8479	-2.0938	-3.0687	264.441	177.095	16.540	243.419	122.898	277.931	-2.299	298.980	176.587	268.577	10.784	278.525	207.366	221.191	271.293	234.244	0.00019808	0.00025594	0.00010698	446.47	1.975e-06	5.0156e-06	377.34	166.74	2.1273e-06	3.7509e-06	165.26	67.192	65.942	35.843	2.0677e-06	36.826	0.00099389	0.0015743	0.00043925	477.64	1.5174e-05	1.8273e-05	405.08	179.2	1.5655e-05	1.7609e-05	177.53	72.824	71.647	39.045	1.6862e-05	39.978	91.070	32.345	29.778	-45.849	71.958	69.256	-46.704	-40.230	135.320	112.320	-42.710	-38.243	-35.343	-30.810	65.152	-34.645	-8191	255	
3234.805	1	1	0	0	0.26831	0.21664	0.14572	0.18507	0.096586	0.11722	0.24099	0.43394	0.11714	0.2503	0.20094	0.27865	0.090402	0.13784	0.14288	0.30038	-1.8021	-2.3187	-2.9146	-2.1542	-2.7771	-2.7125	-2.2562	-2.9562	-2.225	-2.2833	-2.9458	-2.2167	-2.6229	-2.8875	-2.0271	-2.9167	-27.409	-39.986	250.629	-56.491	175.692	134.254	276.710	256.433	149.502	43.804	145.506	235.496	14.479	205.395	175.628	232.345	0.00024192	0.0003007	0.00013821	443.97	3.5715e-06	4.2584e-06	374.22	166.53	2.6832e-06	1.3664e-06	164.72	67.577	66.243	35.957	2.6248e-06	37.25	0.0010072	0.00162	0.00046097	476.91	1.5946e-05	1.8787e-05	403.22	179.5	1.5991e-05	1.8657e-05	177.98	73.365	72.045	39.291	1.7354e-05	40.421	83.148	27.253	42.247	-45.582	90.518	76.715	-46.744	-40.106	57.473	121.903	-43.004	-38.271	-35.651	-30.937	19.054	-34.986	-8191	255	
3234.901	1	1	0	0	0.3453	0.12909	0.12176	0.10747	0.10092	0.21384	0.15956	0.033148	0.089265	0.24368	0.18748	0.23713	0.19817	0.12626	0.26366	0.13519	-2.1229	-2.2583	-2.9271	-2.1458	-2.5812	-2.775	-2.0646	-2.9854	-2.5208	-2.3688	-3.0354	-2.1854	-2.5396	-2.8854	-2.1208	-2.8375	-11.603	87.138	162.126	87.001	84.970	-40.551	-8.406	160.092	-42.344	190.858	266.675	73.948	140.696	198.535	-6.528	45.965	0.00025592	0.0002018	0.00012749	444.61	4.9404e-06	2.0113e-06	378.95	167.68	1.0662e-06	3.2883e-06	165.84	68.124	66.15	36.308	1.7859e-06	37.406	0.00104	0.0016431	0.00047216	476.6	1.5887e-05	1.8395e-05	405.01	180.45	1.6079e-05	1.8682e-05	179.22	73.893	72.293	39.509	1.7293e-05	40.723	99.251	37.145	11.645	-45.752	99.729	86.050	-46.829	-40.084	67.688	71.874	-42.847	-38.302	-35.686	-30.919	102.741	-35.080	-8191	255	
3234.997	1	1	0	0	0.16822	0.26116	0.18619	0.085031	0.13748	0.23054	0.047419	0.34208	0.068504	0.14592	0.13175	0.11996	0.25844	0.10245	0.12148	0.071964	-2.1146	-2.1521	-2.8667	-2.1979	-2.5104	-3.0687	-2.1125	-2.7354	-2.5667	-2.1312	-2.9729	-2.1271	-2.4125	-2.85	-2.1521	-2.9437	192.097	163.785	130.701	-46.408	271.385	158.165	188.334	298.713	-19.142	284.965	53.181	195.756	33.103	-27.796	131.251	88.628	0.0002875	0.00029891	0.00012051	445.56	1.3155e-06	3.0614e-06	378.38	167.08	2.254e-06	5.6885e-06	166.56	68.19	66.422	36.241	3.5584e-06	37.791	0.0010418	0.001657	0.00045908	477.51	1.6156e-05	1.897e-05	406.76	180.43	1.6006e-05	1.9062e-05	179.98	73.965	72.394	39.572	1.7763e-05	40.871	91.952	34.333	41.257	-45.839	87.786	94.217	-46.717	-40.200	15.743	119.644	-42.859	-38.454	-35.453	-30.748	101.409	-35.048	-8191	255	
3235.094	1	1	0	0	0.093146	0.2047	0.31655	0.088849	0.22745	0.12176	0.072354	0.15245	0.15131	0.078788	0.075122	0.17383	0.21868	0.24632	0.19412	0.30088	-2.3208	-2.0292	-2.9167	-2.5687	-2.2938	-3.0667	-2.1417	-2.75	-2.6396	-2.2583	-2.8812	-2.6479	-2.1688	-3.0479	-2.0208	-2.6833	162.953	172.725	53.680	224.203	281.049	103.471	244.001	-46.396	136.335	29.716	218.309	223.582	276.368	279.507	134.680	238.508	0.00025125	0.0001359	0.00011708	444.08	2.1023e-06	2.4822e-06	376	167.48	9.131e-07	3.5558e-06	166.35	68.839	66.794	36.727	3.0243e-06	38.07	0.0010482	0.0017018	0.00048213	475.83	1.6917e-05	1.9534e-05	404.14	181.21	1.6767e-05	1.9647e-05	179.83	74.409	72.862	40.098	1.8149e-05	41.24	83.303	36.397	32.493	-45.426	94.541	90.659	-46.762	-40.008	95.608	81.364	-42.972	-38.047	-35.343	-31.125	80.216	-34.825	-8191	255	
3235.188	1	1	0	0	0.1913	0.096495	0.16962	0.2376	0.11679	0.2255	0.05951	0.44303	0.19999	0.071049	0.1636	0.20125	0.23729	0.21556	0.21786	0.20594	-2.4729	-2.0604	-2.7438	-2.3979	-2.2167	-2.9729	-2.3604	-2.4708	-2.75	-2.0229	-2.9417	-2.6042	-2.2396	-3.1917	-2.1958	-2.5312	250.515	232.565	97.601	242.650	-17.408	66.643	55.047	253.448	-45.671	169.335	84.155	-53.216	254.612	-2.029	133.931	220.551	0.00025246	0.00036152	6.7174e-05	444.86	2.5871e-06	2.8235e-06	377.46	168.99	2.7729e-06	2.1756e-06	168.92	69.44	68.526	37.545	2.0006e-06	38.716	0.0010772	0.0017596	0.00049691	476.98	1.6812e-05	1.969e-05	405.11	182.15	1.7202e-05	2.0247e-05	182.27	75.464	74.374	40.969	1.876e-05	42.005	85.680	20.583	56.474	-45.679	85.229	87.783	-46.483	-40.191	65.475	87.862	-42.737	-38.470	-35.544	-30.728	53.939	-34.734	-8191	255	
3235.309	1	1	0	0	0.12243	0.17612	0.056502	0.18315	0.15821	0.1895	0.35185	0.08432	0.30671	0.24612	0.26806	0.063987	0.093676	0.11279	0.18016	0.32368	-2.4062	-2.0938	-2.8292	-2.7042	-2.0062	-2.9083	-2.2646	-2.4333	-3.0583	-2.1813	-2.6312	-2.7083	-2.3333	-2.9875	-2.4583	-2.1521	62.121	22.849	149.987	71.252	114.017	7.991	115.613	198.599	-50.809	-24.263	154.987	255.514	272.862	289.426	241.821	241.754	0.0002416	0.00042103	7.3797e-05	447.57	1.063e-06	2.7634e-06	382.53	171.67	3.436e-06	5.4651e-07	172.68	71.341	69.742	38.54	2.8901e-06	39.769	0.0010898	0.0018204	0.00051251	479.28	1.7673e-05	2.0633e-05	409.7	185.42	1.7903e-05	2.056e-05	186.05	77.371	76.073	42.129	1.9437e-05	43.176	89.821	18.028	28.514	-45.663	76.380	133.579	-46.671	-39.807	115.923	94.849	-42.827	-38.509	-35.727	-30.872	121.287	-34.673	-8191	255	
3235.405	1	1	0	0	0.38486	0.10981	0.17947	0.33674	0.09236	0.094241	0.074162	0.084621	0.23038	0.4032	0.17239	0.23508	0.17174	0.17232	0.2008	0.095177	-2.6333	-2.1625	-2.6729	-2.8042	-2.2396	-2.8146	-2.5021	-2.0583	-2.9042	-2.1688	-2.6562	-2.7708	-2.0792	-2.7833	-2.3625	-2.1604	159.868	-8.530	154.606	286.786	174.425	201.865	-55.122	91.192	130.128	278.162	85.671	257.684	284.945	-52.038	-18.103	-7.715	0.00026202	0.00033226	0.00011463	452.67	1.8777e-06	3.3237e-06	384.59	174.99	2.6916e-06	9.5024e-07	174.22	72.386	70.616	39.363	7.3551e-07	40.13	0.0011295	0.0018805	0.0005278	484.32	1.8136e-05	2.0992e-05	412.23	188.37	1.8186e-05	2.1225e-05	187.83	78.421	77.002	42.782	2.0059e-05	43.634	86.640	14.181	50.992	-45.631	142.340	79.205	-46.708	-40.089	102.421	85.235	-42.811	-38.208	-35.434	-30.935	54.920	-35.057	-8191	255	
3235.501	1	1	0	0	0.22626	0.29904	0.15413	0.26668	0.18596	0.15951	0.18474	0.09964	0.12705	0.15217	0.074981	0.11349	0.13766	0.21326	0.40998	0.15751	-2.6146	-2.0917	-2.475	-2.6708	-2.0479	-2.7417	-2.5583	-2.1083	-2.9688	-2.3229	-2.6042	-2.9292	-2.0479	-2.7083	-2.6167	-2.325	270.215	218.443	-48.524	77.754	109.954	232.837	191.242	301.187	116.690	196.078	175.977	157.080	288.475	-9.519	87.058	190.017	0.00029664	0.00031125	9.0063e-05	451.32	4.3031e-06	4.3718e-06	386.04	176.5	4.2008e-06	3.5285e-06	175.38	73.128	72.035	39.981	1.7687e-06	40.994	0.0011733	0.0019183	0.00053806	484.17	1.8581e-05	2.1923e-05	412.63	190.41	1.8482e-05	2.2253e-05	190.12	79.189	78.253	43.686	2.0456e-05	44.414	88.589	7.505	43.706	-45.521	107.439	105.569	-46.666	-39.916	98.655	109.350	-42.549	-38.173	-35.348	-30.793	118.478	-35.069	-8191	255	
3235.573	1	1	0	0	0.083405	0.22035	0.31032	0.032327	0.095009	0.19997	0.15664	0.19361	0.11333	0.20819	0.26427	0.17006	0.1053	0.014504	0.17365	0.18922	-2.3542	-2.2375	-2.3583	-2.8812	-1.9979	-2.8146	-2.8229	-2.0125	-3.0417	-2.3937	-2.2729	-3.0833	-2.2833	-2.7146	-2.7667	-2.2521	278.218	118.016	122.016	173.777	146.148	40.885	117.028	270.391	20.094	255.886	232.097	290.806	72.986	66.381	39.012	69.852	0.00023174	9.0561e-05	6.9869e-05	451.84	3.3719e-06	3.4246e-06	388.33	178.58	2.4302e-06	3.2668e-06	178.25	74.103	72.67	40.655	1.8234e-06	41.515	0.0011934	0.0019666	0.00055993	487.47	1.8857e-05	2.2176e-05	416.63	192.55	1.8811e-05	2.199e-05	192.47	80.406	79.398	44.267	2.074e-05	45.095	93.471	31.464	59.914	-45.470	86.032	89.457	-46.675	-40.033	58.335	121.975	-42.457	-38.060	-35.321	-30.967	170.015	-34.657	-8191	255	
3235.693	1	1	0	0	0.36282	0.1138	0.1618	0.12725	0.11307	0.19994	0.19602	0.24652	0.071846	0.077393	0.27051	0.07613	0.19203	0.36637	0.074264	0.066362	-2.6813	-2.4354	-2.3167	-3.1688	-2.0167	-2.5396	-2.9854	-2.0708	-2.8625	-2.5146	-2.2625	-2.8312	-2.1521	-2.6583	-2.7521	-2.0646	9.530	66.925	-8.149	213.159	260.967	37.632	241.086	-26.041	211.374	-32.647	45.796	289.815	301.752	221.595	277.848	43.762	0.00029206	0.00021732	6.8669e-05	459.94	1.9822e-07	2.9435e-06	391.77	181.46	1.5072e-06	2.5196e-06	181.87	76.211	73.714	41.15	1.1166e-06	42.642	0.0012239	0.001986	0.00056705	492.15	1.8942e-05	2.2605e-05	421.1	195.36	1.9145e-05	2.2597e-05	196.03	82.208	80.512	45.09	2.0893e-05	46.216	84.299	33.534	15.631	-45.380	203.177	111.448	-46.314	-40.137	53.625	105.207	-42.634	-38.126	-35.388	-30.692	95.423	-35.182	-8191	255	
3235.789	1	1	0	0	0.14523	0.066741	0.093919	0.086807	0.051924	0.12581	0.2116	0.27925	0.26045	0.27207	0.24558	0.12002	0.22934	0.16587	0.23615	0.23259	-2.4667	-2.6167	-2.3896	-3.1229	-2.1688	-2.4437	-2.9708	-2.0625	-2.9021	-2.5021	-2.0458	-3.1375	-2.4333	-2.4917	-3.0042	-2.1021	86.425	154.231	6.631	31.659	150.698	-40.934	90.510	293.616	81.161	81.778	-53.922	259.261	-32.943	289.278	25.275	55.691	0.00031038	0.00034947	7.9973e-05	461.96	3.5982e-06	3.6684e-06	393.44	182.46	3.0286e-06	4.2266e-06	182.18	76.186	74.643	41.704	1.5541e-06	42.735	0.0012422	0.0020512	0.0005858	496.62	1.9954e-05	2.3742e-05	424.13	197.36	1.986e-05	2.3279e-05	197.14	82.605	81.432	45.623	2.1813e-05	46.42	95.767	25.082	16.919	-45.436	50.650	91.224	-46.690	-39.993	59.110	80.819	-42.966	-38.100	-35.327	-30.737	127.329	-34.997	-8191	255	
3235.885	1	1	0	0	0.25133	0.14668	0.22977	0.062432	0.11636	0.068335	0.11405	0.23653	0.071848	0.29231	0.051219	0.020911	0.091575	0.17626	0.044079	0.17311	-2.3083	-2.5958	-2.0854	-3.0833	-2.1417	-2.1646	-3.0771	-1.9771	-2.7833	-2.6	-2.0417	-2.8646	-2.475	-2.3563	-3.0042	-2.3625	81.864	139.390	42.527	230.568	138.103	196.735	163.691	271.079	292.117	121.722	-30.943	124.417	12.679	259.073	247.033	80.787	0.00030054	0.00043557	8.1426e-05	463.19	2.3705e-06	2.3876e-06	397.29	186.35	2.5654e-06	2.5705e-06	184.6	77.564	75.86	42.835	4.2461e-06	43.806	0.0012635	0.0020771	0.00059163	498.7	2.0169e-05	2.4191e-05	426.39	200.24	2.0016e-05	2.3995e-05	199.82	83.968	82.976	46.751	2.1952e-05	47.576	95.061	15.314	46.297	-45.621	85.218	38.033	-46.731	-40.016	77.649	100.391	-42.642	-38.259	-35.230	-30.661	129.287	-34.634	-8191	255	
3235.982	1	1	0	0	0.16256	0.030922	0.25456	0.14585	0.13449	0.14548	0.083147	0.14497	0.18202	0.2451	0.17049	0.048879	0.1247	0.1528	0.097298	0.13554	-2.0396	-2.6937	-1.8104	-3.0521	-2.4417	-2.1729	-2.9562	-2.2917	-2.7667	-3.0021	-2.1271	-2.7146	-2.7792	-2.3583	-3.0229	-2.3583	153.521	30.796	265.152	220.134	142.277	268.361	269.699	164.842	171.368	223.660	-0.821	42.027	150.949	-54.516	127.094	1.559	0.00033818	0.00039294	7.8499e-05	470.67	1.8084e-06	5.4012e-06	401.2	188.11	2.1007e-06	2.0607e-06	187.72	78.44	76.662	43.343	3.9081e-06	44.26	0.0012871	0.0021346	0.00060537	503.98	2.0232e-05	2.4428e-05	431.49	202.7	2.0888e-05	2.4112e-05	202.7	85.288	83.971	47.416	2.246e-05	48.273	89.111	24.337	37.356	-45.182	25.777	104.936	-46.439	-40.012	108.683	78.762	-42.542	-38.163	-35.562	-30.819	89.602	-34.847	-8191	255	
3236.100	1	1	0	0	0.06254	0.1673	0.091118	0.04542	0.18385	0.20813	0.12422	0.31609	0.085898	0.31839	0.15397	0.20845	0.38223	0.15918	0.054654	0.22247	-2.0521	-2.8312	-2.0875	-2.6688	-2.6167	-2.0458	-3.075	-2.3708	-2.5167	-2.9062	-2.3292	-2.8604	-2.7521	-2.1771	-3.0187	-2.5	98.537	179.330	287.810	267.667	151.473	80.598	-36.590	118.738	128.714	275.849	252.645	261.122	253.759	-19.296	207.335	208.065	0.0003032	0.00013096	0.00015029	471.92	1.8335e-06	4.5786e-06	407.89	189.69	3.296e-06	2.9988e-06	190.51	79.652	77.83	43.875	4.8145e-06	45.078	0.0013395	0.0021413	0.00061478	508.76	2.1225e-05	2.5126e-05	436.78	205.27	2.1016e-05	2.4227e-05	205.91	86.648	84.882	47.974	2.2425e-05	48.98	98.557	2.777	37.632	-45.073	66.661	77.015	-46.204	-40.000	71.296	120.595	-42.744	-38.092	-35.653	-30.796	58.313	-35.036	-8191	255	
3236.174	1	1	0	0	0.058478	0.090764	0.16806	0.17669	0.14391	0.23535	0.17306	0.11229	0.14986	0.052091	0.10738	0.38994	0.14214	0.10024	0.11627	0.24419	-1.9833	-2.9417	-1.9146	-2.7104	-2.7667	-2.0979	-3.0625	-2.6479	-2.2083	-3.0104	-2.2313	-2.6979	-2.8208	-2.1437	-2.7625	-2.4958	109.921	288.780	100.001	-7.681	77.540	295.963	219.535	277.243	196.944	191.979	189.000	-21.053	57.093	-18.634	22.820	259.809	0.00032532	0.00055899	8.314e-05	471.86	3.6715e-06	4.1291e-06	405.55	190.25	2.1653e-06	3.2299e-06	190.8	79.371	77.693	43.965	1.9229e-06	45.006	0.0013437	0.0021573	0.00061508	509.22	2.0746e-05	2.44e-05	436.27	205.35	2.1143e-05	2.4302e-05	205.83	86.284	85.055	48.055	2.2687e-05	48.813	95.238	22.115	21.097	-44.989	88.596	87.936	-46.297	-39.955	83.835	101.096	-42.791	-38.162	-35.220	-30.880	152.150	-34.965	-8191	255	
3236.270	1	1	0	0	0.22295	0.17488	0.091698	0.13322	0.071733	0.19024	0.068438	0.20191	0.31299	0.057359	0.27707	0.31779	0.13541	0.2389	0.10478	0.11637	-1.7146	-2.8292	-2.1292	-2.6396	-2.7479	-2.15	-2.8563	-2.4208	-2.3042	-2.9813	-2.2542	-2.4021	-2.8167	-2.1979	-2.8354	-2.8021	278.754	139.442	7.070	-14.476	207.482	191.502	232.962	250.889	242.149	205.652	-33.710	276.544	191.337	296.727	75.892	248.161	0.0003441	0.00042629	6.4475e-05	474.69	2.7057e-06	3.5632e-06	404.64	190.03	1.1916e-06	2.5656e-06	190.74	79.79	77.916	43.993	4.0635e-06	45.073	0.0013568	0.0020824	0.00062023	510.17	2.0988e-05	2.4625e-05	435.64	205.56	2.108e-05	2.3672e-05	206.38	86.658	85.142	48.083	2.238e-05	48.994	101.840	49.463	5.660	-45.144	110.485	70.827	-46.490	-39.842	6.312	97.831	-42.501	-38.094	-35.250	-30.851	70.957	-34.919	-8191	255	
3236.389	1	1	0	0	0.24077	0.15428	0.042822	0.1474	0.078593	0.27491	0.064676	0.17661	0.22689	0.087611	0.27166	0.2688	0.31199	0.13965	0.11269	0.46466	-1.6562	-3.0125	-2.1021	-2.5104	-2.7979	-2.1688	-2.7458	-2.5979	-2.0917	-3.0292	-2.3917	-2.3542	-2.9813	-1.9875	-2.5458	-2.8042	119.005	115.986	67.382	-14.657	144.288	152.572	74.029	222.969	198.881	22.490	-5.804	288.080	158.859	-18.199	-16.397	-57.610	0.00030704	0.00025793	0.0001244	475.34	5.3404e-06	1.5131e-06	408.37	191.47	2.2772e-06	4.076e-06	190.8	80.32	78.54	43.982	3.2207e-06	45.247	0.0013458	0.0021256	0.00061334	511.35	2.1154e-05	2.5076e-05	439.04	206.64	2.104e-05	2.4415e-05	206.73	87.024	85.562	48.116	2.2501e-05	49.131	97.105	15.096	-23.495	-45.146	76.718	104.142	-46.487	-39.910	87.784	99.799	-42.543	-37.939	-35.557	-30.839	124.664	-34.868	-8191	255	
3236.485	1	1	0	0	0.14694	0.081803	0.22317	0.063268	0.072837	0.11082	0.14201	0.26457	0.028671	0.074914	0.12315	0.27601	0.13346	0.14979	0.088365	0.117	-1.9	-2.8187	-2.3875	-2.275	-3.0604	-2.1937	-2.6646	-2.9021	-2.0583	-2.6708	-2.6771	-2.1146	-2.8875	-2.1333	-2.5125	-3.1063	-45.612	136.754	193.905	62.321	264.698	-38.553	291.402	269.982	161.535	20.963	-40.410	254.325	-52.356	-38.172	121.347	211.674	0.00033828	0.00040569	0.00010253	480.18	1.375e-06	2.9469e-06	409.99	191.75	2.6139e-06	3.1713e-06	191.52	80.455	78.214	43.922	3.0079e-06	45.118	0.0013392	0.0021835	0.00062693	514.35	2.1034e-05	2.5588e-05	440.38	207.05	2.1281e-05	2.472e-05	207.44	87.245	85.377	48.074	2.3207e-05	49.032	106.404	13.982	42.467	-45.257	135.216	92.300	-46.462	-39.816	87.199	88.008	-42.646	-38.262	-35.578	-30.970	115.579	-35.118	-8191	255	
3236.581	1	1	0	0	0.17199	0.15229	0.13646	0.24244	0.13709	0.24259	0.15889	0.17826	0.14135	0.11728	0.24577	0.22759	0.1752	0.050246	0.25103	0.2146	-1.7104	-2.7542	-2.3833	-2.1229	-2.9104	-2.2604	-2.35	-2.85	-2.0354	-2.7208	-2.4979	-2.0396	-3.0292	-2.2521	-2.2979	-2.8458	70.029	278.245	254.622	225.734	12.061	244.052	232.657	5.037	213.653	-33.731	-4.394	263.162	100.373	6.326	25.633	185.823	0.00032348	0.00017027	0.00011631	476.16	3.4968e-06	2.5063e-06	404.34	191.78	2.0013e-06	4.7913e-06	190.52	79.407	79.019	44.247	1.5199e-06	44.983	0.0013733	0.0022169	0.00064118	512.51	2.1482e-05	2.5659e-05	437.2	206.89	2.1795e-05	2.5525e-05	206.08	86.531	85.724	48.244	2.3791e-05	48.882	100.570	16.594	53.846	-45.353	55.697	53.569	-46.573	-40.113	174.714	79.037	-42.942	-38.326	-35.443	-30.957	92.880	-35.086	-8191	255	
3236.677	1	1	0	0	0.25285	0.24831	0.26947	0.17973	0.18413	0.24588	0.26941	0.059252	0.27434	0.18816	0.012328	0.1107	0.017484	0.052251	0.10693	0.30504	-1.6729	-2.575	-2.6625	-2.0375	-2.825	-2.5542	-2.4708	-2.9833	-2.2229	-2.6646	-2.6208	-1.9979	-3.1396	-2.65	-2.2917	-3.2062	77.077	263.206	69.595	200.468	-52.687	299.470	35.961	-2.088	38.275	9.030	218.556	0.605	-52.520	289.624	118.326	291.859	0.00033115	0.0001454	0.00016397	479.02	3.2601e-06	3.1273e-06	408.27	192.26	3.1473e-06	4.5991e-06	191.39	80.137	78.683	44.188	2.4625e-06	45.266	0.0013657	0.0022562	0.000613	514.63	2.1441e-05	2.5968e-05	438.86	208.05	2.1659e-05	2.5472e-05	207.14	87.012	85.897	48.324	2.3501e-05	49.005	100.923	52.873	41.427	-45.409	81.182	81.740	-46.518	-40.124	99.689	94.194	-42.379	-38.089	-35.379	-30.924	111.158	-34.856	-8191	255	
3236.798	1	1	0	0	0.11552	0.32244	0.13927	0.097836	0.2792	0.051634	0.56519	0.10947	0.12604	0.03879	0.13316	0.1389	0.15565	0.18292	0.16561	0.17033	-1.7208	-2.6771	-2.7979	-2.1208	-2.8688	-2.4604	-2.1854	-2.8875	-2.2083	-2.5542	-2.9208	-2.1458	-2.7833	-2.5771	-2.1896	-3.0729	56.927	64.650	38.071	-40.829	126.706	228.483	259.592	246.679	40.807	232.179	110.024	236.121	289.844	288.823	117.711	265.173	0.00032629	0.00033758	0.00011673	478.25	3.4425e-06	3.7973e-06	410.11	191.77	1.1369e-06	1.252e-06	191.54	80.467	78.816	44.219	1.6243e-06	45.557	0.001367	0.0022275	0.00063105	513.56	2.1272e-05	2.589e-05	439.96	207.61	2.133e-05	2.4997e-05	207.6	87.408	85.917	48.387	2.3469e-05	49.432	94.701	24.091	38.735	-45.407	80.808	113.627	-46.553	-39.726	154.342	100.599	-43.038	-37.882	-35.404	-30.894	80.292	-35.059	-8191	255	
3236.870	1	1	0	0	0.22787	0.15221	0.081209	0.16004	0.081075	0.16774	0.39175	0.086015	0.11351	0.27967	0.12356	0.17261	0.075578	0.071997	0.18995	0.08035	-1.8375	-2.2833	-2.7625	-2.1708	-2.775	-2.6042	-2.1458	-3.0792	-2.3229	-2.5167	-2.9042	-2.1188	-2.8625	-2.9396	-1.9021	-3.1437	64.373	257.979	183.893	35.683	244.699	102.778	238.613	9.592	146.829	103.719	261.885	-45.066	185.576	148.780	276.194	-44.365	0.00032689	0.00033343	0.00013817	478.7	2.4782e-06	4.5582e-06	409.87	191.94	4.4838e-06	2.9125e-06	191.75	80.338	78.62	44.316	2.7465e-06	45.527	0.0013598	0.0021961	0.00061941	514.71	2.0856e-05	2.495e-05	440.93	207.62	2.1119e-05	2.5467e-05	208.05	87.315	85.899	48.44	2.3668e-05	49.345	95.002	24.885	23.424	-45.452	35.302	80.103	-46.177	-39.821	94.590	101.864	-42.551	-38.174	-35.198	-30.885	94.401	-34.776	-8191	255	
3236.990	1	1	0	0	0.18629	0.14598	0.13007	0.029334	0.12921	0.14785	0.12314	0.30785	0.11361	0.076696	0.18716	0.089336	0.11833	0.061531	0.079146	0.17088	-1.8333	-2.3875	-2.9542	-2.1375	-2.6813	-2.8417	-2.1854	-2.7833	-2.3187	-2.2417	-2.9667	-2.3063	-2.7062	-2.6958	-2.0479	-3.0396	-33.090	51.559	92.301	266.518	-3.360	101.268	-46.694	263.106	83.524	186.245	-43.986	54.797	296.157	144.467	-9.717	299.391	0.00033353	0.00029452	0.00010359	478.22	3.417e-06	2.8084e-06	407.96	192.49	3.8625e-06	4.2978e-06	191.33	80.443	79.03	44.419	4.2584e-06	45.441	0.0013415	0.0022506	0.00062365	514.89	2.149e-05	2.5111e-05	438.72	208.28	2.1277e-05	2.5047e-05	207.2	87.211	86.155	48.54	2.276e-05	49.36	91.365	34.675	22.433	-45.164	58.846	120.244	-46.232	-40.022	91.675	116.619	-42.680	-38.180	-35.351	-30.938	82.866	-34.970	-8191	255	
3237.085	1	1	0	0	0.23517	0.20444	0.28478	0.012588	0.21576	0.20091	0.11325	0.062161	0.10538	0.37088	0.11757	0.17686	0.32578	0.12408	0.056923	0.060341	-1.9396	-2.0896	-2.9083	-2.2521	-2.45	-2.9	-2.1604	-2.9833	-2.6708	-2.1792	-2.9938	-2.3958	-2.525	-3.0354	-2.0812	-2.7313	63.666	97.106	184.312	51.249	260.182	32.658	13.932	176.374	70.907	-56.729	264.431	248.223	275.914	264.254	7.066	-53.484	0.00035134	0.00043395	6.6738e-05	478.45	3.7222e-06	5.263e-06	410.08	193.32	1.5443e-06	2.6441e-06	192.89	80.424	79.427	44.857	3.229e-06	45.941	0.0013535	0.0021865	0.00060526	514.6	2.0877e-05	2.5016e-05	440.67	208.77	2.1024e-05	2.4638e-05	208.8	87.809	86.497	48.865	2.3035e-05	49.943	86.692	32.047	15.673	-45.139	106.818	98.132	-46.253	-39.719	108.362	89.851	-42.580	-38.074	-35.106	-30.950	47.440	-34.859	-8191	255	
3237.181	1	1	0	0	0.1755	0.10207	0.24437	0.089419	0.36531	0.25457	0.16892	0.08568	0.14811	0.17194	0.067687	0.14158	0.47343	0.25154	0.010456	0.12039	-2.3312	-2.1583	-2.9583	-2.2812	-2.3021	-3.1063	-2.0687	-2.8354	-2.6979	-2.0771	-3.0208	-2.4313	-2.2521	-2.9896	-2.0646	-2.7625	-39.377	131.308	188.280	222.929	139.731	-38.830	205.898	272.404	194.602	151.504	-10.730	169.856	293.160	276.691	-1.257	219.593	0.00028878	0.00029889	7.1656e-05	480.12	3.2492e-06	2.9351e-06	411.77	193.55	3.0161e-06	3.307e-06	193.55	81.607	79.554	44.68	2.5089e-06	46.385	0.0013616	0.0021896	0.00060872	516.47	2.1319e-05	2.5008e-05	443.43	209.47	2.0945e-05	2.5079e-05	210.04	88.547	86.674	48.898	2.2717e-05	50.282	91.464	70.561	21.850	-45.537	78.031	120.013	-46.986	-40.328	45.477	94.957	-43.035	-38.405	-35.586	-31.326	109.857	-35.577	-8191	255	
3237.277	1	1	0	0	0.087143	0.16439	0.11968	0.070654	0.13537	0.19546	0.33954	0.34533	0.16429	0.25826	0.13804	0.064648	0.35574	0.23131	0.073807	0.14176	-2.2896	-1.9688	-2.7938	-2.45	-2.2604	-3.025	-2.1292	-2.6562	-2.9125	-2	-2.9375	-2.4792	-2.3229	-3.1833	-2.2146	-2.675	66.385	84.576	214.835	-1.818	-50.933	-7.245	217.267	248.896	199.737	260.475	90.069	130.189	-13.712	244.214	-7.138	259.376	0.00030413	0.00039336	7.617e-05	477.96	3.4289e-06	2.0547e-06	411.84	192.54	2.7746e-06	3.7472e-06	193.68	80.884	78.388	44.5	3.677e-06	45.884	0.0013448	0.0022039	0.00061868	514.86	2.089e-05	2.452e-05	442.71	208.29	2.0977e-05	2.4844e-05	208.98	87.92	85.751	48.605	2.1959e-05	49.821	102.355	12.692	25.194	-45.788	81.751	106.025	-46.904	-40.351	57.754	98.093	-43.140	-38.547	-35.813	-31.302	83.304	-35.399	-8191	255	
3237.398	1	1	0	0	0.18747	0.06022	0.15545	0.028915	0.22624	0.047172	0.21763	0.26569	0.24211	0.033055	0.27281	0.22831	0.050311	0.10968	0.16147	0.25138	-2.4208	-2.0083	-2.8083	-2.4562	-2.2687	-2.9542	-2.2396	-2.5146	-2.8	-2.2042	-2.7979	-2.5021	-2.0667	-2.9208	-2.2729	-2.2083	219.832	108.970	244.455	91.796	234.881	126.121	216.829	223.578	186.043	-20.799	194.636	194.211	230.522	-31.502	125.044	-3.959	0.00029826	0.00037388	9.5262e-05	477.2	5.3928e-06	9.2459e-07	408.95	191.76	2.6128e-06	2.0766e-06	191.85	80.307	78.386	44.123	3.6238e-06	45.541	0.0013243	0.0021719	0.00060049	513.54	2.0738e-05	2.3995e-05	439.64	207.33	2.0702e-05	2.3919e-05	208.02	87.201	85.509	48.294	2.1996e-05	49.477	88.416	32.467	40.533	-45.738	98.539	38.281	-46.769	-40.202	72.644	119.550	-42.862	-38.564	-35.567	-31.099	117.175	-35.396	-8191	255	
3237.469	1	1	0	0	0.099807	0.084624	0.2036	0.17077	0.05772	0.10555	0.29091	0.18822	0.11492	0.082614	0.36295	0.31013	0.12748	0.087559	0.11908	0.23861	-2.6208	-1.9604	-2.5396	-2.6271	-2.1417	-3	-2.4229	-2.2667	-2.9062	-2.2	-2.6646	-2.7521	-2.1833	-2.9396	-2.3521	-2.3917	191.975	102.338	60.273	-34.813	299.228	126.128	233.183	233.506	204.072	290.158	265.368	278.782	286.894	266.142	-31.680	257.199	0.00031848	0.00031959	8.1269e-05	478.93	3.7326e-06	3.6325e-06	409.27	190.54	3.7394e-06	4.5408e-06	192.23	80.016	78.444	44.038	2.4245e-06	45.7	0.0013039	0.00215	0.00060388	513.21	2.0946e-05	2.4069e-05	439.77	207.17	2.0419e-05	2.4168e-05	207.78	87.228	85.457	48.192	2.2193e-05	49.639	93.311	48.303	21.855	-45.921	61.741	78.736	-46.916	-40.078	65.516	112.764	-42.889	-38.601	-35.341	-31.192	117.685	-35.345	-8191	255	
3237.565	1	1	0	0	0.14007	0.21624	0.14704	0.28742	0.18861	0.13835	0.17998	0.29087	0.13493	0.077425	0.32285	0.042446	0.22214	0.12201	0.050714	0.090792	-2.6354	-1.9646	-2.475	-2.8042	-1.9854	-2.85	-2.55	-2.2708	-2.8688	-2.1979	-2.6792	-2.9417	-2.0646	-2.8333	-2.5958	-2.2375	217.228	162.164	137.500	-42.611	60.460	84.750	-9.394	236.221	150.380	100.253	-45.127	-54.804	274.014	-23.017	248.721	77.704	0.0003276	0.000465	7.0872e-05	479.79	2.839e-06	3.6574e-06	410.21	191.06	3.3411e-06	2.1723e-06	193.17	80.903	78.385	44.518	2.3951e-06	46.212	0.001293	0.0021332	0.0005958	513.9	2.1243e-05	2.373e-05	441.73	207.14	2.0232e-05	2.3774e-05	209.14	88.021	85.561	48.552	2.1939e-05	50.122	88.837	17.619	69.681	-45.629	86.775	90.945	-46.810	-40.206	67.386	90.573	-42.858	-38.644	-35.829	-31.177	56.114	-35.190	-8191	255	
3237.662	1	1	0	0	0.31497	0.17566	0.064407	0.16166	0.22622	0.037345	0.19976	0.31024	0.18446	0.070769	0.048725	0.27328	0.10583	0.28252	0.18822	0.15147	-2.5521	-2.1646	-2.3354	-3.05	-1.9375	-2.9125	-2.7042	-2.3	-3	-2.425	-2.4542	-3.0417	-2.0625	-2.9271	-2.5333	-2.1667	55.547	65.060	265.558	256.237	200.151	207.142	106.295	-48.683	154.192	133.229	65.437	-52.309	287.907	268.624	-7.573	252.243	0.00030227	0.00032968	0.0001324	479.3	4.3133e-06	1.6394e-06	411.63	191.1	3.8382e-06	3.1136e-06	193.14	81.05	78.659	44.228	2.1583e-06	45.796	0.001302	0.0021383	0.00060838	513.72	2.0269e-05	2.4236e-05	441.53	207.14	2.0442e-05	2.3898e-05	209.08	87.884	85.677	48.359	2.1943e-05	49.658	103.073	25.904	-4.595	-45.723	88.081	143.617	-46.792	-39.946	90.224	63.036	-42.615	-38.461	-35.887	-31.166	87.833	-35.238	-8191	255	
3237.758	1	1	0	0	0.19545	0.212	0.27165	0.18829	0.09839	0.24385	0.16118	0.019162	0.10254	0.15754	0.27663	0.0094477	0.20608	0.36735	0.094523	0.091408	-2.6729	-2.2104	-2.3229	-3.05	-2.0896	-2.8229	-2.8917	-2.1917	-2.7708	-2.5396	-2.3146	-3.025	-2.2208	-2.6813	-2.9604	-2.1312	276.728	189.585	205.352	-28.499	31.955	-2.579	264.731	69.770	180.334	50.065	182.235	30.806	238.268	245.439	85.138	236.613	0.00030798	0.00045263	0.00013273	478.87	2.6452e-06	4.6385e-06	407.54	191.04	3.2893e-06	3.1208e-06	192.66	80.551	78.097	44.21	4.1556e-06	45.686	0.0013007	0.0021067	0.0006127	513.05	2.0243e-05	2.4696e-05	438.34	206.63	2.0126e-05	2.3841e-05	207.94	87.38	85.152	48.215	2.1711e-05	49.573	104.518	28.642	9.725	-45.602	114.645	91.020	-46.898	-40.355	68.502	84.540	-43.092	-38.130	-35.639	-31.271	49.517	-35.401	-8191	255	
3237.878	1	1	0	0	0.089125	0.13312	0.22029	0.14671	0.22999	0.14817	0.072773	0.32108	0.31056	0.081148	0.11698	0.14619	0.12846	0.089375	0.29326	0.4333	-2.2854	-2.6917	-2.3667	-3.0104	-2.2521	-2.4396	-2.8333	-2.1188	-2.9896	-2.6667	-2.175	-3.1	-2.3333	-2.3792	-3.05	-2.1271	138.022	57.036	266.619	-42.945	106.049	-46.377	-25.893	153.160	300.931	33.489	280.699	189.794	210.591	250.014	274.986	241.715	0.00027411	0.00024327	0.00011091	476.38	4.4229e-06	3.6097e-06	412.49	192.31	2.3983e-06	3.3899e-06	192.42	81.03	78.298	44.204	2.7445e-06	45.9	0.0012813	0.0020775	0.00059421	512.56	2.0305e-05	2.3667e-05	441.92	207.54	1.9773e-05	2.3569e-05	209.3	88.064	85.361	48.318	2.1453e-05	49.963	86.097	-1.975	22.916	-45.546	52.850	87.693	-46.915	-40.198	125.933	105.794	-42.851	-38.244	-35.486	-31.218	80.377	-35.320	-8191	255	
3237.975	1	1	0	0	0.16774	0.2851	0.17009	0.29133	0.051477	0.15449	0.22147	0.14763	0.09435	0.051934	0.032634	0.036045	0.1649	0.22571	0.22981	0.3376	-2.2188	-2.6625	-2.0563	-3.0563	-2.2229	-2.3396	-2.9625	-2.125	-2.5021	-2.6688	-1.9521	-2.8812	-2.4437	-2.2188	-3.0438	-2.2083	100.664	194.968	287.238	168.538	19.711	291.463	76.343	256.352	109.582	-21.776	-50.387	95.589	216.721	-16.677	225.261	239.216	0.0003208	0.00029632	0.00010512	477.97	3.1808e-06	3.024e-06	414.48	191.29	4.7155e-06	1.5194e-06	194.47	81.654	77.548	44.228	1.7261e-06	45.954	0.0012647	0.0020688	0.00059699	512.71	1.9772e-05	2.3706e-05	444.89	206.6	1.9854e-05	2.3164e-05	210.4	88.549	85.004	48.25	2.1673e-05	50.125	97.507	21.186	18.152	-45.789	95.668	98.141	-46.833	-40.274	43.519	104.629	-42.871	-38.524	-35.525	-31.194	52.680	-35.286	-8191	255	
3238.071	1	1	0	0	0.064679	0.11356	0.21797	0.205	0.23807	0.12711	0.12869	0.21808	0.12443	0.063505	0.16991	0.075243	0.33266	0.20919	0.15975	0.062389	-2.3187	-2.7521	-2.1562	-3.0833	-2.2958	-2.425	-3.1292	-2.2313	-2.4042	-2.7542	-2.0583	-2.8146	-2.4875	-2.2687	-3.1167	-2.4229	163.497	118.026	55.151	283.729	232.845	238.185	-11.437	244.424	28.338	93.709	37.117	196.683	208.979	88.564	254.612	115.988	0.00032401	0.00042717	8.0545e-05	477.13	3.8878e-06	3.3968e-06	410.13	189.9	4.108e-06	2.6496e-06	190.82	79.723	76.73	43.477	2.4011e-06	45.043	0.0012815	0.002034	0.00057619	511.1	1.9605e-05	2.37e-05	441.23	205.4	1.9712e-05	2.2846e-05	206.21	86.693	83.84	47.412	2.0832e-05	48.935	91.127	-1.267	42.798	-45.735	105.233	68.123	-46.350	-40.361	50.242	90.640	-42.967	-38.254	-35.741	-31.227	64.511	-35.222	-8191	255	
3238.167	1	1	0	0	0.085345	0.11453	0.19007	0.12001	0.051483	0.12868	0.27327	0.19712	0.13389	0.11917	0.097889	0.33216	0.24479	0.19324	0.0912	0.20293	-2.3542	-2.6375	-2.0208	-2.8417	-2.5708	-2.2833	-2.6958	-2.3271	-2.4562	-2.9708	-2.1667	-2.6792	-2.6708	-2.2313	-2.7667	-2.3417	-31.434	220.561	124.128	112.592	-7.014	111.592	200.234	-10.314	106.562	257.030	73.526	260.389	225.413	186.074	48.011	52.969	0.0003534	0.00040097	4.3061e-05	472.9	4.3821e-07	3.8259e-06	407.67	188.25	1.6719e-06	3.6093e-06	189.72	79.706	76.685	43.077	2.0913e-06	45.11	0.0012657	0.0020066	0.00057013	507.58	1.8974e-05	2.2935e-05	437.06	203.46	1.9483e-05	2.2535e-05	204.93	86.365	83.689	47.108	2.0863e-05	48.915	101.830	44.967	-10.468	-45.645	94.839	82.666	-46.591	-40.359	63.498	92.999	-42.853	-38.613	-35.770	-31.182	115.876	-35.570	-8191	255	
3238.261	1	1	0	0	0.48222	0.14237	0.21309	0.088801	0.094897	0.13129	0.27687	0.22373	0.20161	0.25544	0.059017	0.11961	0.17261	0.13991	0.039002	0.13392	-1.8875	-2.7229	-2.1396	-2.7542	-2.65	-2.075	-3.0729	-2.4146	-2.2396	-2.8271	-2.0104	-2.5292	-2.6229	-2.0833	-2.8958	-2.3	19.136	193.856	57.906	80.488	170.424	207.405	261.025	267.853	164.822	123.555	-41.954	261.155	204.271	239.734	-14.489	228.756	0.00030651	0.00037844	0.00016709	474.05	5.2485e-06	3.8186e-06	407.64	187.83	4.3467e-06	4.7445e-06	189.97	79.612	76.547	43.033	3.6018e-06	45.046	0.0012359	0.0019835	0.00056883	507.68	1.9011e-05	2.3006e-05	437.4	203.03	1.9658e-05	2.2323e-05	204.83	86.381	83.341	47.007	2.0552e-05	48.95	93.734	24.478	34.768	-45.625	77.140	70.298	-46.735	-40.390	57.313	81.615	-43.238	-38.554	-35.934	-31.246	86.285	-35.276	-8191	255	
3238.359	1	1	0	0	0.18705	0.18637	0.15415	0.35156	0.15531	0.21623	0.24461	0.13405	0.10089	0.07836	0.25706	0.14577	0.090685	0.2261	0.029461	0.060794	-1.875	-2.8875	-1.9271	-2.5396	-2.8	-2.0917	-2.7604	-2.4688	-2.1708	-2.9938	-2.1917	-2.6021	-2.8063	-2.15	-2.8354	-2.6833	268.962	227.171	215.064	273.616	103.909	69.747	152.118	231.563	-1.872	-54.643	235.475	289.226	216.630	239.322	79.796	-25.908	0.00032962	0.00032882	9.842e-05	474.78	2.7122e-06	2.6796e-06	410.75	188.02	2.1251e-06	2.9228e-06	191.14	79.218	76.789	42.998	4.133e-06	44.852	0.0012312	0.0019738	0.00056559	509.09	1.8946e-05	2.3318e-05	440.37	203.26	1.929e-05	2.2322e-05	206.21	86.493	83.26	46.862	2.0963e-05	48.863	94.623	45.209	-10.144	-45.932	94.712	104.364	-46.374	-40.337	75.653	93.958	-42.950	-38.413	-35.735	-31.246	120.836	-35.384	-8191	255	
3238.478	1	1	0	0	0.11761	0.1562	0.11047	0.033323	0.18603	0.39726	0.16436	0.1545	0.059141	0.14847	0.11459	0.012492	0.24802	0.10509	0.20803	0.13165	-1.6812	-2.8167	-2.2292	-2.4813	-3.0438	-1.9729	-2.85	-2.6771	-2.1021	-2.9458	-2.2625	-2.5563	-3.0187	-2.1583	-2.6125	-2.8917	83.921	31.721	294.648	190.246	65.271	85.652	265.075	274.511	197.365	268.866	93.505	141.876	216.959	-39.585	7.392	-49.145	0.0003215	0.00016146	0.00013231	471.89	4.6847e-06	4.1789e-06	403.43	186.3	3.3351e-06	2.9608e-06	186.1	78.543	75.521	42.161	1.8256e-06	44.208	0.0012839	0.0019848	0.00057248	506.11	1.8996e-05	2.3238e-05	434.51	200.83	1.9399e-05	2.2642e-05	201.38	84.923	82.093	46.104	2.078e-05	48.156	89.345	70.102	13.807	-45.828	78.004	114.056	-47.026	-40.435	88.978	88.109	-43.066	-38.493	-35.808	-31.284	83.882	-35.374	-8191	255	
3238.574	1	1	0	0	0.24673	0.34307	0.15369	0.25964	0.094167	0.15008	0.19818	0.10998	0.12832	0.29864	0.08803	0.083249	0.094142	0.15501	0.077509	0.072054	-1.6146	-2.7562	-2.4042	-2.3125	-2.9354	-2.0729	-2.6937	-2.7333	-1.8958	-2.8187	-2.4792	-2.2208	-3.0938	-2.3458	-2.6146	-2.8646	140.846	239.011	67.430	189.394	89.585	-25.090	293.205	221.832	165.604	209.230	222.172	119.429	145.686	139.741	206.404	111.601	0.00031018	0.00028875	0.00011522	470.65	2.5894e-06	3.4429e-06	403.85	184.75	2.1314e-06	2.9787e-06	187.2	78.337	75.151	42.298	3.1236e-06	44.405	0.0012447	0.0019428	0.00057119	503.54	1.8993e-05	2.244e-05	434.14	199.9	1.9108e-05	2.1934e-05	202.25	85.025	81.887	46.077	2.0346e-05	48.245	89.500	13.964	37.857	-45.575	79.923	124.483	-46.669	-40.392	65.925	98.879	-43.223	-38.549	-35.917	-31.321	112.980	-35.288	-8191	255	
3238.670	1	1	0	0	0.048335	0.036857	0.024874	0.17942	0.070987	0.22777	0.19232	0.20073	0.077045	0.30842	0.049229	0.19535	0.043663	0.092629	0.17136	0.16524	-1.5042	-2.9188	-2.6125	-2.1396	-2.9542	-2.2875	-2.5771	-2.9646	-2.0396	-2.9062	-2.7271	-2.2375	-3.0979	-2.1583	-2.3521	-3.025	208.039	-0.049	8.898	270.568	-34.029	120.653	248.573	160.054	224.943	11.382	72.799	245.428	54.527	-22.295	271.046	1.930	0.0003536	0.00037197	9.8995e-05	469.04	3.8395e-06	5.2264e-06	406.02	184	2.9218e-06	3.7931e-06	187.13	78.443	75.005	42.046	4.5023e-06	44.558	0.0012216	0.0019542	0.00055393	503.33	1.8659e-05	2.1772e-05	435.75	199.05	1.9023e-05	2.1519e-05	202.71	85.233	81.593	45.786	2.0457e-05	48.257	93.317	36.463	51.933	-45.814	76.482	118.944	-46.747	-40.606	84.004	76.658	-43.173	-38.717	-35.719	-31.442	91.899	-35.370	-8191	255	
3238.766	1	1	0	0	0.12984	0.085087	0.1057	0.20427	0.11305	0.1443	0.1008	0.092763	0.18714	0.26305	0.14443	0.16244	0.10426	0.17786	0.28135	0.19098	-1.8958	-2.6063	-2.7083	-2.2062	-3.0375	-2.3667	-2.3625	-3.0417	-2.1854	-2.6542	-2.7333	-2.2604	-2.8833	-2.5271	-2.2833	-2.9188	-18.943	6.385	280.990	279.684	147.626	89.887	294.438	176.708	-57.597	65.911	235.049	248.368	43.071	20.046	284.268	298.452	0.00028633	8.9741e-05	0.00011454	468.41	2.1043e-06	3.2702e-06	404.45	183.3	2.5167e-06	3.5326e-06	185.08	77.465	73.503	41.197	3.9828e-06	43.477	0.0011983	0.0019161	0.00053883	501.54	1.744e-05	2.1603e-05	435.54	197.55	1.8027e-05	2.135e-05	200.63	84.042	80.182	44.964	1.9446e-05	47.299	93.574	-23.134	52.174	-45.542	84.415	93.963	-46.724	-40.360	56.749	103.946	-42.979	-38.406	-35.866	-31.495	102.876	-35.402	-8191	255	
#DATA ENDS
