BOXY.EXE: ISS Imagent and Oximeter Data Acquisition Program Version 0.80
Ascii Record File

#ACQ INFORMATION
2  Detector Channels 
16  External MUX Channels 
1  Auxiliary Channels 
5000  Waveform (CCF) Frequency (Hz)
1  Waveforms Skipped 
30  Waveforms Averaged 
1  Cycles Averaged 
16  Acquisitions per Waveform 
10.0806  Updata Rate (Hz) 

#FILE INFORMATION
TRUE -- External MUX Channel results are PARSED.
FALSE -- AC DC and Phase are NOT grouped.
TRUE -- Companion Program Settings File CREATED.
FALSE -- AC data not excluded
FALSE -- DC data not excluded
FALSE -- Phase data not excluded
FALSE -- Auxillary Chn. data not excluded
Tab delimiters

#CALIBRATION STATE
TRUE -- Waveform Calibration Values APPLIED.


#AUX CALIBRATION VALUES
Val Type	aux-1	

Term	1.0000e+00	
Factor	0.0000e+00	


#WF CALIBRATION VALUES
A = Detector Channel
Val Type	A-AC1	A-AC2	A-AC3	A-AC4	A-AC5	A-AC6	A-AC7	A-AC8	A-AC9	A-AC10	A-AC11	A-AC12	A-AC13	A-AC14	A-AC15	A-AC16	A-DC1	A-DC2	A-DC3	A-DC4	A-DC5	A-DC6	A-DC7	A-DC8	A-DC9	A-DC10	A-DC11	A-DC12	A-DC13	A-DC14	A-DC15	A-DC16	A-Ph1	A-Ph2	A-Ph3	A-Ph4	A-Ph5	A-Ph6	A-Ph7	A-Ph8	A-Ph9	A-Ph10	A-Ph11	A-Ph12	A-Ph13	A-Ph14	A-Ph15	A-Ph16	

Term	0.00000e+00	0.00000e+00	0.00000e+00	0.00000e+00	0.00000e+00	0.00000e+00	0.00000e+00	0.00000e+00	0.00000e+00	0.00000e+00	0.00000e+00	0.00000e+00	0.00000e+00	0.00000e+00	0.00000e+00	0.00000e+00	0.00000e+00	0.00000e+00	0.00000e+00	0.00000e+00	0.00000e+00	0.00000e+00	0.00000e+00	0.00000e+00	0.00000e+00	0.00000e+00	0.00000e+00	0.00000e+00	0.00000e+00	0.00000e+00	0.00000e+00	0.00000e+00	0.00000e+00	0.00000e+00	0.00000e+00	0.00000e+00	0.00000e+00	0.00000e+00	0.00000e+00	0.00000e+00	0.00000e+00	0.00000e+00	0.00000e+00	0.00000e+00	0.00000e+00	0.00000e+00	0.00000e+00	0.00000e+00	
Factor	1.00000e+00	1.00000e+00	1.00000e+00	1.00000e+00	1.00000e+00	1.00000e+00	1.00000e+00	1.00000e+00	1.00000e+00	1.00000e+00	1.00000e+00	1.00000e+00	1.00000e+00	1.00000e+00	1.00000e+00	1.00000e+00	1.00000e+00	1.00000e+00	1.00000e+00	1.00000e+00	1.00000e+00	1.00000e+00	1.00000e+00	1.00000e+00	1.00000e+00	1.00000e+00	1.00000e+00	1.00000e+00	1.00000e+00	1.00000e+00	1.00000e+00	1.00000e+00	X	X	X	X	X	X	X	X	X	X	X	X	X	X	X	X	

B = Detector Channel
Val Type	B-AC1	B-AC2	B-AC3	B-AC4	B-AC5	B-AC6	B-AC7	B-AC8	B-AC9	B-AC10	B-AC11	B-AC12	B-AC13	B-AC14	B-AC15	B-AC16	B-DC1	B-DC2	B-DC3	B-DC4	B-DC5	B-DC6	B-DC7	B-DC8	B-DC9	B-DC10	B-DC11	B-DC12	B-DC13	B-DC14	B-DC15	B-DC16	B-Ph1	B-Ph2	B-Ph3	B-Ph4	B-Ph5	B-Ph6	B-Ph7	B-Ph8	B-Ph9	B-Ph10	B-Ph11	B-Ph12	B-Ph13	B-Ph14	B-Ph15	B-Ph16	

Term	0.00000e+00	0.00000e+00	0.00000e+00	0.00000e+00	0.00000e+00	0.00000e+00	0.00000e+00	0.00000e+00	0.00000e+00	0.00000e+00	0.00000e+00	0.00000e+00	0.00000e+00	0.00000e+00	0.00000e+00	0.00000e+00	0.00000e+00	0.00000e+00	0.00000e+00	0.00000e+00	0.00000e+00	0.00000e+00	0.00000e+00	0.00000e+00	0.00000e+00	0.00000e+00	0.00000e+00	0.00000e+00	0.00000e+00	0.00000e+00	0.00000e+00	0.00000e+00	-2.28148e+02	-1.42147e+02	-1.35008e+02	-1.83031e+02	-6.86966e+01	-6.80416e+01	-1.55518e+02	-1.62015e+02	-8.53819e+01	-8.16279e+01	-1.70822e+02	-1.70458e+02	-1.79378e+02	-1.76160e+02	-7.40276e+01	-1.48548e+02	
Factor	4.73594e-05	1.10536e-04	3.45654e-05	2.04474e-01	1.19801e-06	1.24725e-06	1.53534e-01	5.75799e-02	1.56768e-06	1.30687e-06	8.50500e-02	2.75025e-02	2.19015e-02	8.55062e-03	1.34247e-06	1.22836e-02	1.58122e-06	1.63886e-06	4.57366e-07	1.03071e-01	1.78685e-08	1.79592e-08	7.32046e-02	2.91299e-02	1.78681e-08	1.79340e-08	4.14714e-02	1.34256e-02	1.11764e-02	4.34171e-03	1.79021e-08	6.01539e-03	X	X	X	X	X	X	X	X	X	X	X	X	X	X	X	X	



#DISTANCE SETTINGS
A = Detector Channel
A-1	A-2	A-3	A-4	A-5	A-6	A-7	A-8	A-9	A-10	A-11	A-12	A-13	A-14	A-15	A-16	

2.5000e+00	3.0000e+00	2.5000e+00	3.0000e+00	2.0000e+00	3.0000e+00	1.5000e+00	3.0000e+00	3.0000e+00	3.0000e+00	3.0000e+00	3.0000e+00	3.0000e+00	3.0000e+00	1.5000e+00	3.0000e+00	

B = Detector Channel
B-1	B-2	B-3	B-4	B-5	B-6	B-7	B-8	B-9	B-10	B-11	B-12	B-13	B-14	B-15	B-16	

1.0000e+01	1.0000e+01	1.0000e+01	1.4400e+00	1.0000e+01	1.0000e+01	1.5100e+00	1.9400e+00	1.0000e+01	1.0000e+01	1.9900e+00	2.4900e+00	2.4100e+00	2.9000e+00	1.0000e+01	2.9800e+00	




#DATA BEGINS
time	group	step	mark	flag	A-AC1	A-AC2	A-AC3	A-AC4	A-AC5	A-AC6	A-AC7	A-AC8	A-AC9	A-AC10	A-AC11	A-AC12	A-AC13	A-AC14	A-AC15	A-AC16	A-DC1	A-DC2	A-DC3	A-DC4	A-DC5	A-DC6	A-DC7	A-DC8	A-DC9	A-DC10	A-DC11	A-DC12	A-DC13	A-DC14	A-DC15	A-DC16	A-Ph1	A-Ph2	A-Ph3	A-Ph4	A-Ph5	A-Ph6	A-Ph7	A-Ph8	A-Ph9	A-Ph10	A-Ph11	A-Ph12	A-Ph13	A-Ph14	A-Ph15	A-Ph16	B-AC1	B-AC2	B-AC3	B-AC4	B-AC5	B-AC6	B-AC7	B-AC8	B-AC9	B-AC10	B-AC11	B-AC12	B-AC13	B-AC14	B-AC15	B-AC16	B-DC1	B-DC2	B-DC3	B-DC4	B-DC5	B-DC6	B-DC7	B-DC8	B-DC9	B-DC10	B-DC11	B-DC12	B-DC13	B-DC14	B-DC15	B-DC16	B-Ph1	B-Ph2	B-Ph3	B-Ph4	B-Ph5	B-Ph6	B-Ph7	B-Ph8	B-Ph9	B-Ph10	B-Ph11	B-Ph12	B-Ph13	B-Ph14	B-Ph15	B-Ph16	aux-1	digaux	

3143.718	1	1	0	256	0.093633	0.14622	0.232	0.21807	0.15654	0.15805	0.33159	0.2055	0.063325	0.1382	0.16136	0.12543	0.013226	0.24217	0.0070077	0.03741	-3.8667	-4.5167	-4.9146	-4.3042	-4.9083	-4.5833	-4.3063	-5.1146	-4.4062	-4.3812	-5.0542	-4.2104	-4.6708	-4.8708	-4.1042	-5.0229	170.340	269.643	339.094	52.407	289.152	26.415	292.052	353.249	380.037	221.831	199.019	51.083	287.743	273.475	364.886	287.135	0.00052313	0.00023197	0.00012594	1109.3	5.3737e-06	1.9731e-06	1216.3	234.33	9.2483e-06	6.4342e-06	297.36	83.245	64.678	19.366	7.238e-06	27.085	0.00033834	0.00033954	9.4529e-05	1078.6	3.7753e-06	3.7234e-06	1176.6	230.85	3.7095e-06	3.6559e-06	292.9	82.46	64.247	19.587	3.6273e-06	27.289	36.580	59.736	88.436	32.422	156.500	145.627	32.869	40.141	242.616	143.531	40.057	46.585	47.024	53.975	232.024	52.958	-8191	255	
3143.838	1	1	0	0	0.040217	0.061407	0.20222	0.16792	0.26135	0.084968	0.16402	0.10315	0.17949	0.072542	0.040433	0.11629	0.064094	0.25798	0.15508	0.15584	-4.0542	-4.3	-4.8958	-4.1979	-4.6146	-4.8667	-4.2312	-5.1146	-4.4646	-4.1813	-5.05	-4.2854	-4.85	-4.7792	-4.2292	-5.1792	104.760	82.083	185.137	360.807	378.867	155.931	298.596	244.070	319.849	152.601	218.415	296.333	348.645	354.049	316.493	66.942	0.000555	0.00040627	0.00015954	1105.9	5.8306e-06	5.908e-07	1210.3	233.43	1.2212e-06	4.7358e-06	298.87	82.064	64.159	19.12	6.1707e-06	26.746	0.00033071	0.00032672	8.9802e-05	1077.1	3.6418e-06	3.5332e-06	1176.6	230.2	3.5105e-06	3.5524e-06	293.16	81.908	64.174	19.505	3.5255e-06	27.231	36.515	167.787	105.175	32.905	158.706	335.725	32.531	40.185	31.155	158.208	39.450	46.668	47.388	54.467	214.913	54.054	-8191	255	
3143.933	1	1	0	0	0.077279	0.028528	0.16719	0.16264	0.092716	0.042807	0.092509	0.1246	0.163	0.24612	0.34173	0.13267	0.23661	0.24695	0.36457	0.17022	-4.2979	-4.1188	-4.8875	-4.2333	-4.5563	-4.9146	-4.3	-4.9833	-4.7021	-4.1813	-5.2708	-4.3562	-4.6	-4.975	-4.2312	-4.9042	138.290	206.985	183.005	368.970	192.387	107.906	312.604	33.869	211.282	95.060	342.644	356.387	265.708	379.367	220.757	227.820	0.00051529	0.00016372	3.9696e-05	1100.9	3.502e-06	4.1434e-06	1199.9	232.83	2.2278e-06	5.3434e-06	295.34	82.112	63.668	19.038	7.3022e-06	26.63	0.00032463	0.00032074	8.9273e-05	1077.3	3.5062e-06	3.4843e-06	1173.1	229.51	3.4689e-06	3.5394e-06	292.1	82.236	63.978	19.499	3.5068e-06	27.126	56.289	43.097	196.773	33.007	206.615	271.371	32.852	40.355	110.315	201.060	40.541	47.026	47.483	55.164	213.696	53.670	-8191	255	
3144.029	1	1	0	0	0.037207	0.070462	0.022784	0.1289	0.13847	0.11373	0.31219	0.045202	0.042048	0.37024	0.021159	0.089006	0.16545	0.082606	0.19767	0.071097	-4.4417	-4.1312	-5.1438	-4.4938	-4.3625	-5.0354	-4.1604	-4.7958	-4.8562	-4.0563	-5.1062	-4.4458	-4.4333	-4.9917	-4.2354	-4.7375	215.243	46.592	144.599	63.149	229.335	358.612	315.327	238.898	270.930	218.833	289.890	228.518	34.121	345.729	67.721	367.356	0.00047102	0.00029465	0.00013088	1096.6	2.1333e-06	7.6077e-06	1193.9	230.76	7.5807e-06	4.0956e-06	298.1	81.795	63.712	19.009	3.4469e-06	26.836	0.00032219	0.00031861	8.9231e-05	1075.8	3.5731e-06	3.5181e-06	1172.6	229.5	3.5358e-06	3.5159e-06	292.75	82.001	63.912	19.413	3.5109e-06	27.247	40.484	59.587	48.595	33.300	211.205	126.939	33.186	40.436	118.348	160.180	39.930	46.984	47.278	54.800	194.827	54.090	-8191	255	
3144.125	1	1	0	0	0.074019	0.10784	0.12182	0.30521	0.27931	0.045262	0.046348	0.093638	0.25928	0.22807	0.15508	0.076731	0.10712	0.20356	0.10373	0.10981	-4.4792	-4.1188	-4.9812	-4.55	-4.2354	-5.1396	-4.3938	-4.6729	-4.8792	-4.1562	-4.9917	-4.4771	-4.3542	-4.9271	-4.275	-4.7229	26.075	289.395	312.111	372.782	247.562	219.603	147.771	339.585	115.547	312.147	257.331	97.508	271.971	359.885	180.779	236.739	0.00069731	0.00068566	0.00011775	1104.4	5.8455e-06	2.8522e-06	1205.4	232.33	3.6369e-06	1.5299e-06	294.62	82.061	63.931	19.216	2.2958e-06	26.707	0.00032183	0.00032102	8.8593e-05	1078.3	3.5001e-06	3.5217e-06	1176	229.95	3.5033e-06	3.5888e-06	291.85	82.041	64.122	19.543	3.568e-06	27.277	60.626	95.519	45.031	32.892	198.763	234.325	32.736	40.578	171.727	128.676	40.037	47.020	47.898	54.516	221.188	53.884	-8191	255	
3144.221	1	1	0	0	0.1514	0.18048	0.21785	0.19974	0.12979	0.11756	0.41426	0.18185	0.14435	0.11535	0.059219	0.093217	0.27902	0.096685	0.02802	0.12852	-4.6687	-4.05	-4.9417	-4.6937	-4.1667	-5.0958	-4.5333	-4.7333	-4.8917	-4.0563	-5.05	-4.8375	-4.2771	-4.8917	-4.2146	-4.275	266.210	79.659	249.187	328.389	183.495	97.925	303.666	338.088	286.958	201.069	377.678	358.307	49.078	89.174	134.504	268.651	0.00062503	0.00016799	0.00014533	1089.8	2.3707e-06	3.032e-06	1194.7	231.28	7.1958e-06	2.4395e-06	292.74	82.151	64.48	19.118	1.4241e-06	26.833	0.00032674	0.00032735	9.2166e-05	1075.3	3.59e-06	3.587e-06	1172.7	229.79	3.6036e-06	3.6363e-06	291.1	82.191	64.157	19.51	3.5676e-06	27.232	44.957	51.964	142.965	33.304	230.420	340.962	33.256	40.402	212.303	360.943	40.274	47.009	47.083	54.165	133.331	53.381	-8191	255	
3144.317	1	1	0	0	0.13906	0.22359	0.1517	0.12717	0.15943	0.18473	0.26363	0.1757	0.097372	0.024822	0.098123	0.098897	0.17057	0.047178	0.12863	0.18719	-4.7146	-3.9167	-4.8625	-4.7604	-4.1479	-5.0542	-4.7521	-4.3667	-5.0979	-4.0604	-4.7458	-4.9917	-4.1708	-5.0333	-4.4812	-4.375	119.429	368.864	333.157	375.153	367.758	184.172	347.559	354.833	208.946	367.828	68.404	45.369	32.432	355.704	112.287	302.775	0.00069724	0.00062055	7.539e-05	1107.2	3.5284e-06	3.0111e-06	1202.7	231.43	4.3903e-06	2.304e-06	294.37	82.014	64.073	18.904	2.8158e-06	26.364	0.00032697	0.00032082	9.0915e-05	1077.7	3.5846e-06	3.5703e-06	1174.7	229.67	3.5307e-06	3.5537e-06	291.38	82.345	63.912	19.462	3.5535e-06	27.095	64.801	205.199	97.147	32.642	181.562	210.418	33.118	40.570	274.439	302.029	40.073	47.694	47.655	55.041	152.009	54.346	-8191	255	
3144.438	1	1	0	0	0.011294	0.049638	0.10391	0.26681	0.34307	0.058576	0.11588	0.080464	0.078424	0.024835	0.021676	0.27942	0.20204	0.24346	0.24611	0.11809	-4.7292	-4.1188	-4.625	-4.8375	-4.0625	-4.9938	-4.9667	-4.2104	-4.9958	-4.1104	-4.6167	-5.0208	-4.25	-5.025	-4.6687	-4.2146	166.235	319.704	25.739	330.714	340.798	316.120	26.491	313.722	118.943	165.181	243.464	366.589	329.499	72.465	164.480	372.628	0.00054533	8.5574e-05	0.00016114	1095	4.4967e-06	3.221e-06	1183.3	228.86	5.1597e-06	7.0932e-06	292.56	81.501	63.812	19.077	1.3123e-06	26.763	0.00033231	0.00032424	9.0766e-05	1075.6	3.6236e-06	3.5376e-06	1169.9	228.93	3.5245e-06	3.5377e-06	292.02	82.018	63.974	19.479	3.5643e-06	27.204	37.561	152.761	83.817	33.323	162.442	111.579	33.696	40.876	121.957	157.321	40.294	47.395	47.594	54.523	110.126	53.959	-8191	255	
3144.534	1	1	0	0	0.34132	0.025783	0.17478	0.13673	0.17311	0.14592	0.19789	0.09233	0.195	0.076151	0.13702	0.092602	0.15922	0.10779	0.022412	0.36919	-4.6792	-4.3604	-4.4917	-4.9688	-4.0563	-4.8917	-4.7312	-4.2417	-5	-4.4875	-4.2937	-5.0229	-4.1104	-4.8083	-4.6875	-4.2479	381.019	234.705	95.493	363.811	57.129	83.413	270.453	310.693	39.795	56.928	358.977	318.778	208.752	351.515	380.365	291.889	0.00055643	0.00015446	0.00011856	1087.8	1.9247e-06	8.1056e-06	1196.2	229.8	2.8721e-06	3.5532e-06	293.32	81.203	63.331	19.027	7.014e-06	26.84	0.00032597	0.00033073	9.0796e-05	1072.1	3.5735e-06	3.5622e-06	1174	228.93	3.4944e-06	3.5093e-06	291.43	81.864	63.766	19.452	3.4957e-06	27.272	56.714	330.043	93.633	33.076	40.959	185.829	33.147	41.079	162.941	287.256	40.431	47.272	47.809	54.715	116.721	54.046	-8191	255	
3144.630	1	1	0	0	0.165	0.23498	0.086018	0.2825	0.11564	0.11092	0.30037	0.16999	0.13539	0.22927	0.16089	0.076906	0.087019	0.17438	0.072078	0.11419	-4.6875	-4.3625	-4.4125	-4.9479	-4.1021	-4.6229	-5.0062	-4.1229	-4.9125	-4.4854	-4.3917	-5.1083	-4.2063	-4.5833	-4.8958	-4.2146	88.536	69.814	23.791	46.477	210.232	225.664	32.816	123.342	357.609	106.097	35.638	335.010	54.466	44.545	139.720	379.902	0.00046213	0.00057923	7.6212e-05	1094.9	2.7597e-06	5.1134e-06	1196.6	229.97	4.6797e-06	2.116e-06	294.54	81.217	63.878	19.054	1.0383e-05	26.824	0.00032249	0.00031902	8.9303e-05	1075.6	3.4403e-06	3.4372e-06	1173.2	229.18	3.4968e-06	3.4789e-06	291.1	81.9	63.961	19.449	3.51e-06	27.188	60.422	87.561	45.772	33.151	215.023	258.910	33.250	40.519	199.799	126.735	40.189	47.080	47.867	54.994	171.206	53.674	-8191	255	
3144.726	1	1	0	0	0.23031	0.063833	0.065407	0.23288	0.015841	0.12146	0.12343	0.21336	0.3122	0.1122	0.09535	0.3288	0.21536	0.08729	0.10098	0.166	-4.5521	-4.4354	-4.2583	-5.1708	-4.2479	-4.5333	-5.05	-4.2438	-4.9104	-4.6167	-4.1208	-5.0979	-4.2542	-4.4354	-4.8646	-4.0687	260.119	328.164	162.131	60.159	73.897	246.595	64.286	375.592	271.371	220.351	49.283	326.125	83.762	26.595	113.097	373.560	0.00054838	7.5041e-05	0.00014433	1096.6	1.3131e-06	2.4877e-06	1200.5	230.32	2.8138e-06	3.903e-06	294.67	83.147	63.894	19.093	7.7271e-06	26.779	0.00031622	0.00031017	8.913e-05	1075.6	3.4472e-06	3.4599e-06	1173.4	228.97	3.4635e-06	3.447e-06	291.78	82.356	64.06	19.501	3.5531e-06	27.242	38.831	172.958	346.234	32.982	279.303	212.245	33.318	40.598	194.880	175.171	39.868	47.422	47.660	54.212	155.610	53.719	-8191	255	
3144.845	1	1	0	0	0.084428	0.15662	0.13071	0.088296	0.17672	0.089388	0.3913	0.29683	0.040681	0.13908	0.19849	0.33495	0.14894	0.13446	0.19271	0.1752	-4.3208	-4.6875	-4.0604	-5.1687	-4.2625	-4.2833	-5.1312	-4.2063	-4.7063	-4.8187	-4.175	-5	-4.4938	-4.3292	-4.9375	-4.2854	181.411	249.920	228.124	70.981	267.987	281.943	364.144	369.850	140.339	42.911	47.658	230.087	23.125	239.433	149.579	360.535	0.00045771	0.00011626	0.00016275	1107.2	4.475e-06	1.1777e-06	1206.2	233.15	7.3192e-06	4.2047e-06	293.08	82.313	64.026	19.167	4.2798e-06	26.864	0.00032855	0.00032551	9.1493e-05	1078.4	3.5862e-06	3.613e-06	1177.2	229.96	3.6143e-06	3.6559e-06	291.94	82.176	64.01	19.531	3.7012e-06	27.264	36.217	270.180	61.029	32.737	113.057	85.649	32.940	40.460	220.931	264.494	40.070	47.238	47.806	54.558	207.182	53.689	-8191	255	
3144.917	1	1	0	0	0.078214	0.21053	0.19471	0.071102	0.21816	0.14664	0.27251	0.20483	0.15046	0.064172	0.1592	0.24738	0.3399	0.27474	0.14818	0.098577	-4.3583	-4.6125	-4.1792	-5.0437	-4.2479	-4.2312	-5.1417	-4.35	-4.6396	-5.0146	-4.2396	-5.0312	-4.5521	-4.1896	-4.9625	-4.3542	359.027	174.985	108.688	297.056	165.032	234.828	314.158	368.214	93.647	320.749	374.261	296.414	332.712	364.124	114.030	31.270	0.00040543	0.00025808	5.5533e-05	1105.2	3.4349e-06	3.8205e-06	1202.6	231.7	1.1077e-05	2.5544e-06	295.2	82.261	64.153	19.177	3.0381e-06	26.658	0.00033728	0.00033433	9.4613e-05	1079.6	3.7323e-06	3.7622e-06	1177.1	230.23	3.8319e-06	3.7676e-06	292.29	82.317	64.16	19.618	3.8307e-06	27.284	31.940	141.142	125.423	33.080	244.471	185.966	33.233	40.919	168.010	154.084	39.920	46.977	47.311	54.638	149.690	54.047	-8191	255	
3145.013	1	1	0	0	0.088555	0.10773	0.089149	0.14867	0.08098	0.28861	0.30533	0.14902	0.039823	0.052522	0.32238	0.042826	0.078791	0.19523	0.17542	0.17338	-4.2542	-4.8146	-4.1438	-4.9333	-4.7292	-4.2958	-5.2167	-4.25	-4.4646	-4.9583	-4.2833	-4.9688	-4.7812	-4.1562	-5.0208	-4.4792	74.787	382.023	182.342	350.343	39.725	307.114	348.292	287.161	84.594	175.036	345.977	203.469	358.586	364.132	311.076	36.617	0.00044732	4.8494e-05	0.00014108	1103.5	3.0832e-06	2.7841e-06	1210.2	230.86	2.9464e-06	2.7364e-06	296.4	82.931	64.538	19.322	3.3377e-06	27.066	0.00035232	0.00035677	9.9486e-05	1080.9	3.8985e-06	3.9072e-06	1180.7	230.39	3.9154e-06	3.8781e-06	292.84	82.809	64.476	19.661	3.907e-06	27.49	37.719	121.494	34.673	32.775	266.338	123.291	32.898	40.354	257.838	164.433	40.036	47.055	47.531	54.337	251.347	53.951	-8191	255	
3145.109	1	1	0	0	0.1581	0.20986	0.13409	0.14007	0.17067	0.02356	0.19192	0.15735	0.16272	0.14339	0.11686	0.17329	0.11791	0.084483	0.07199	0.030909	-4.2417	-4.9125	-4.2479	-4.8938	-4.6542	-4.1667	-5.2292	-4.4542	-4.2333	-4.9729	-4.3063	-4.7458	-5.1083	-4.2312	-4.9625	-4.55	285.921	272.039	245.298	155.066	366.636	25.070	350.651	353.506	256.394	254.267	291.515	358.566	171.619	358.682	334.951	332.823	0.00044077	5.4234e-05	0.00019258	1108.7	4.7956e-06	5.1565e-06	1212.8	232.97	1.249e-06	4.67e-06	296.73	82.507	64.439	19.219	5.2381e-06	26.965	0.00036273	0.00036104	0.00010202	1082.7	4.008e-06	3.9963e-06	1182.9	230.79	4.0122e-06	3.9565e-06	293.25	82.532	64.467	19.667	3.9669e-06	27.383	49.443	195.169	65.193	33.008	216.017	183.939	32.888	40.348	117.742	206.873	39.771	46.417	47.299	54.477	205.465	53.585	-8191	255	
3145.230	1	1	0	0	0.0097609	0.14716	0.050697	0.092273	0.10699	0.095444	0.29968	0.073474	0.17959	0.34137	0.21379	0.23356	0.031094	0.14509	0.22511	0.14912	-3.8083	-5.0354	-4.2229	-4.5979	-4.8479	-4.0854	-5.1979	-4.4708	-4.0708	-4.8875	-4.3521	-4.5104	-4.9125	-4.0917	-4.7	-4.8104	270.766	195.794	358.789	288.089	301.282	310.597	359.334	171.255	346.783	154.960	352.309	292.796	342.599	344.854	209.451	249.765	0.00051509	0.00039245	0.00022245	1116.7	3.1633e-06	6.5635e-06	1217.7	234.02	6.035e-06	4.2384e-06	298.72	82.848	64.782	19.312	4.71e-06	27.123	0.00036223	0.00036562	0.00010163	1085.1	3.9555e-06	4.015e-06	1183.3	231.4	4.0129e-06	3.9797e-06	294.3	82.782	64.609	19.675	4.0471e-06	27.519	57.851	377.549	121.563	32.560	211.151	172.698	32.699	40.438	97.606	161.024	39.789	46.857	47.005	54.600	178.362	53.602	-8191	255	
3145.326	1	1	0	0	0.46953	0.38817	0.3124	0.040971	0.26559	0.12507	0.22366	0.17078	0.1248	0.11661	0.15776	0.14052	0.17224	0.077953	0.18706	0.1479	-3.9188	-5.0479	-4.2917	-4.4729	-5.0333	-3.9625	-5.0229	-4.6958	-4.1375	-5.0813	-4.5396	-4.4875	-5.1104	-4.2542	-4.6771	-4.8562	170.051	160.357	41.473	266.526	106.698	47.597	300.153	308.990	281.599	163.762	322.435	122.674	229.253	339.035	352.961	258.955	0.00045235	0.00015656	0.00020684	1125	1.9214e-06	1.7637e-06	1219.7	235.37	4.7642e-06	2.8587e-06	299.67	83.897	65.023	19.248	4.9946e-06	26.934	0.00037283	0.00036829	0.00010271	1087.7	4.0464e-06	4.0656e-06	1184.4	231.35	4.059e-06	4.0486e-06	294.78	83.197	64.723	19.674	3.9846e-06	27.401	40.580	284.890	137.581	32.592	181.260	285.439	32.570	40.427	134.052	115.927	39.537	47.038	47.319	54.276	136.934	53.348	-8191	255	
3145.422	1	1	0	0	0.13491	0.16473	0.31867	0.19717	0.22622	0.13379	0.3712	0.18101	0.19342	0.17523	0.20358	0.16114	0.11554	0.034599	0.20602	0.098391	-3.9208	-5.1229	-4.3458	-4.3271	-5.0521	-4.2125	-4.8521	-4.8438	-4.0437	-5.0563	-4.6125	-4.3771	-5.0333	-4.3167	-4.5167	-5.0667	240.131	106.954	112.613	254.991	87.631	251.964	309.939	220.795	268.550	367.988	318.279	256.322	347.225	197.654	307.886	307.749	0.0006946	0.00039546	7.9689e-05	1109.4	7.395e-07	5.8255e-06	1213.6	232.8	3.996e-06	1.3356e-06	295.96	82.763	64.492	19.364	3.0499e-06	26.769	0.00037247	0.00036783	0.0001032	1085	4.1004e-06	4.1004e-06	1182.8	230.45	4.1039e-06	4.0216e-06	293.17	82.746	64.508	19.739	4.0425e-06	27.412	57.778	57.742	119.789	32.741	72.779	118.878	32.799	40.431	273.847	285.250	39.958	46.891	47.032	54.502	122.394	53.305	-8191	255	
3145.518	1	1	0	0	0.14876	0.19983	0.13906	0.087238	0.16092	0.098816	0.20346	0.17428	0.094632	0.10357	0.15708	0.11253	0.056958	0.19709	0.0494	0.16417	-3.9042	-4.8958	-4.6292	-4.3896	-4.8917	-4.2521	-4.7458	-4.9396	-4.1937	-4.9083	-4.825	-4.2833	-5.0042	-4.3958	-4.3396	-5.0354	370.880	52.997	109.032	278.068	299.532	232.217	324.691	358.907	350.134	157.200	343.000	45.144	180.745	86.721	308.870	30.323	0.00048085	0.0002513	0.00013621	1108.7	3.2155e-06	7.525e-06	1208.9	231.38	6.9229e-06	7.0561e-06	294.57	81.568	63.578	19.125	4.5136e-06	26.728	0.00036859	0.00036761	0.00010194	1083.8	4.0142e-06	4.0437e-06	1181.4	230.97	3.9744e-06	3.9897e-06	293.23	82.568	64.408	19.604	3.9798e-06	27.405	65.705	354.260	208.096	32.818	38.177	185.228	33.079	40.697	259.755	229.975	40.494	47.313	47.616	54.831	380.314	53.876	-8191	255	
3145.614	1	1	0	0	0.13371	0.23193	0.021978	0.075462	0.083242	0.10183	0.11204	0.13155	0.073586	0.15513	0.1233	0.098069	0.2323	0.11701	0.29691	0.27857	-3.9375	-4.7958	-4.7583	-4.2833	-4.9208	-4.3583	-4.4646	-5.075	-4.2875	-4.8125	-4.9646	-4.2875	-4.9708	-4.5167	-4.2125	-5.0792	34.829	305.292	48.250	64.142	204.993	117.971	49.542	320.686	60.238	243.965	306.718	303.973	286.334	371.991	352.781	305.675	0.00044824	0.00052314	0.00019297	1107	1.9621e-06	2.2205e-06	1210.5	233.57	4.6291e-06	3.5825e-06	297.04	82.347	64.328	19.286	4.4657e-06	27.012	0.00036194	0.00036358	0.00010147	1083.4	3.9984e-06	3.9777e-06	1180.6	230.77	4.0015e-06	3.9463e-06	293.5	82.632	64.507	19.631	3.8827e-06	27.419	41.805	54.921	102.502	32.764	282.230	94.604	32.766	40.421	205.826	148.658	40.290	47.182	47.632	54.556	119.547	53.825	-8191	255	
3145.711	1	1	0	0	0.16329	0.13011	0.050942	0.17039	0.1401	0.1053	0.21628	0.05071	0.14254	0.18185	0.25127	0.30402	0.16645	0.094619	0.14277	0.21713	-3.7833	-4.6146	-4.8812	-4.2208	-4.9917	-4.6667	-4.45	-5.0896	-4.2604	-4.525	-4.9625	-4.1458	-4.9187	-4.55	-4.2667	-5.0687	290.970	317.223	150.361	346.340	350.244	63.295	329.070	300.056	328.590	110.479	75.093	287.545	372.632	368.948	57.169	193.695	0.00039486	5.9328e-05	9.1658e-05	1103.7	4.1198e-06	7.7653e-06	1206	233.61	5.6259e-06	4.989e-06	298.28	83.178	64.624	19.093	2.9309e-06	27.055	0.00035767	0.00035734	0.00010051	1083.1	3.9209e-06	3.9649e-06	1178.4	231.61	3.9203e-06	3.9351e-06	294.09	82.689	64.507	19.643	3.9572e-06	27.496	53.132	25.306	30.828	32.777	267.665	130.455	32.685	40.435	102.863	178.568	40.285	46.414	47.643	54.170	55.634	53.785	-8191	255	
3145.807	1	1	0	0	0.14365	0.055962	0.040539	0.055773	0.03473	0.18066	0.28507	0.19997	0.28249	0.13977	0.15941	0.18689	0.033044	0.064515	0.20548	0.065505	-4.0333	-4.5479	-4.8646	-4.1625	-4.8938	-4.7104	-4.4938	-5.1583	-4.2896	-4.4479	-5.0333	-4.175	-4.7812	-4.7562	-4.0125	-4.9729	377.897	121.337	71.339	216.930	289.219	180.829	338.447	261.837	142.946	197.465	382.254	368.731	367.856	326.845	116.106	50.987	0.00074417	0.00022968	0.0001029	1109.3	1.9787e-06	2.1976e-06	1205.3	232.3	1.9222e-06	3.9467e-06	297.14	82.205	64.049	19.282	8.5939e-06	26.74	0.00035777	0.00036162	0.00010047	1085	3.9545e-06	3.9546e-06	1179.2	230.95	3.9791e-06	3.922e-06	293.41	82.521	64.388	19.68	3.9575e-06	27.379	57.850	148.150	22.911	32.919	46.747	135.065	32.792	40.618	366.267	180.814	40.438	46.953	47.449	54.858	272.508	53.731	-8191	255	
3145.926	1	1	0	0	0.1108	0.17512	0.046585	0.28699	0.15697	0.24047	0.13597	0.066571	0.13614	0.19109	0.34846	0.18741	0.18079	0.231	0.056113	0.16574	-4.225	-4.3854	-5.0062	-4.2833	-4.7708	-4.8146	-4.3396	-5.1125	-4.3604	-4.3771	-5.0938	-4.4	-4.7312	-4.9938	-4.0563	-5.0479	175.817	378.710	37.477	289.076	302.822	31.513	340.078	124.331	194.129	150.328	291.126	309.039	216.042	311.803	313.620	366.689	0.00068659	0.00014316	5.4032e-05	1107.9	4.9434e-06	3.3322e-06	1206	232.53	8.2191e-08	1.5612e-06	297.42	82.035	64.446	19.153	5.7038e-06	27.047	0.00036352	0.00036412	9.9994e-05	1084.4	3.9188e-06	3.9449e-06	1181.3	231.33	4.0016e-06	3.9753e-06	293.91	82.608	64.521	19.619	4.0998e-06	27.491	68.009	89.176	376.843	33.132	107.238	262.642	32.934	40.347	259.782	66.354	39.987	47.007	47.306	54.481	246.476	53.517	-8191	255	
3146.022	1	1	0	0	0.12102	0.1987	0.14777	0.23644	0.094889	0.060318	0.25603	0.23297	0.057594	0.098886	0.13544	0.048308	0.13016	0.14869	0.17137	0.12425	-4.3	-4.3271	-5.2125	-4.2167	-4.4917	-5.0875	-4.275	-5.1083	-4.6292	-4.3104	-5.0958	-4.3979	-4.6604	-5.1312	-4.0437	-4.8688	278.841	146.415	350.701	353.488	329.972	284.864	319.990	310.245	264.927	185.820	334.008	92.722	295.900	29.115	217.248	267.313	0.0007182	0.0002789	0.0001205	1106.4	1.4655e-06	4.6698e-06	1209.3	232.99	6.8775e-06	8.3276e-07	296.1	81.844	64.232	19.3	4.4924e-06	27.11	0.00037047	0.00036599	0.00010345	1084.4	4.0353e-06	4.0857e-06	1181.6	231.39	4.0861e-06	4.1002e-06	293.6	82.512	64.393	19.742	4.1078e-06	27.559	39.429	138.207	143.343	33.171	148.965	114.949	32.791	40.416	266.079	196.767	40.171	47.008	47.835	54.876	171.116	53.589	-8191	255	
3146.118	1	1	0	0	0.14075	0.090436	0.14244	0.11075	0.073181	0.046745	0.34063	0.10265	0.063493	0.15708	0.077351	0.2272	0.068338	0.1714	0.096993	0.23322	-4.4625	-4.1562	-5.0771	-4.3979	-4.4021	-5.0104	-4.3187	-5.025	-4.7354	-4.2562	-5.2125	-4.4125	-4.5062	-5.2667	-4.1125	-4.8479	211.195	79.519	63.029	41.136	331.035	272.183	304.387	361.776	129.151	154.738	78.836	336.867	315.795	60.516	339.057	275.285	0.00054156	0.00065595	0.00010371	1102.8	3.2439e-06	4.7041e-06	1207	233.28	6.6797e-06	3.4476e-06	294.84	82.6	64.516	19.288	4.4806e-06	26.946	0.00037046	0.00037882	0.00010492	1083.4	4.1015e-06	4.1581e-06	1180.9	231.35	4.2336e-06	4.2439e-06	293.81	82.861	64.559	19.748	4.2072e-06	27.507	24.556	99.921	102.926	32.965	177.951	37.856	32.885	40.386	132.343	164.915	40.329	46.817	47.576	54.627	187.872	53.473	-8191	255	
3146.214	1	1	0	0	0.1938	0.10927	0.11954	0.30812	0.039938	0.11354	0.22479	0.192	0.22794	0.20437	0.17758	0.14255	0.12952	0.069519	0.075348	0.20062	-4.6479	-4.2312	-4.9396	-4.6687	-4.2396	-5.1146	-4.3167	-4.6625	-4.8458	-4.0604	-5.0188	-4.5958	-4.3896	-5.0417	-4.1438	-4.6354	364.796	52.607	223.334	24.854	137.417	278.957	330.774	347.686	349.301	279.802	303.712	351.608	321.086	144.209	32.621	153.800	0.00044003	0.00041107	1.1635e-05	1115.7	5.5403e-06	3.9831e-06	1214.9	232.97	4.6008e-06	1.1973e-06	298.52	82.787	64.901	19.335	4.9015e-06	26.886	0.0003885	0.00038665	0.00010665	1088.5	4.1591e-06	4.1568e-06	1182.2	231.17	4.1989e-06	4.2587e-06	294.3	82.621	64.68	19.712	4.1943e-06	27.435	27.277	84.025	98.255	33.189	181.384	178.432	32.897	40.309	163.651	132.445	39.888	46.728	47.596	54.753	206.550	53.357	-8191	255	
3146.310	1	1	0	0	0.15879	0.36462	0.18912	0.040717	0.1757	0.087438	0.27069	0.27957	0.0073358	0.13388	0.16796	0.1922	0.091972	0.2722	0.062039	0.14531	-4.6083	-4.0917	-4.9271	-4.6167	-4.1208	-4.9187	-4.5333	-4.5354	-5.0271	-4.0125	-4.9146	-4.6021	-4.2729	-5.0125	-4.4062	-4.4187	101.281	160.533	336.122	32.980	183.769	288.959	335.731	290.146	29.404	137.213	336.551	369.699	379.687	85.667	271.972	202.809	0.00040004	0.00046255	0.00011742	1113.8	8.8268e-06	5.8523e-06	1217.9	235.21	5.6543e-06	2.9062e-06	295.78	82.886	64.266	19.295	8.1029e-06	27.01	0.00038086	0.00038442	0.00010703	1086.4	4.2467e-06	4.2713e-06	1184.7	231.99	4.36e-06	4.3422e-06	293.39	83.008	64.823	19.798	4.3666e-06	27.519	61.390	47.745	113.384	32.691	217.965	213.877	32.803	40.160	208.014	111.044	39.705	46.954	47.173	54.163	162.260	53.293	-8191	255	
3146.406	1	1	0	0	0.056431	0.20634	0.15305	0.15554	0.13076	0.083143	0.14441	0.33675	0.19234	0.13218	0.07292	0.27524	0.12271	0.10613	0.040267	0.18861	-4.5875	-4.2375	-4.8104	-4.925	-4.0521	-5.0458	-4.7333	-4.5167	-5.1	-4.1479	-4.8833	-4.9833	-4.1229	-5.1146	-4.3896	-4.2688	263.875	336.382	208.057	135.293	54.996	153.504	316.069	317.368	69.332	94.745	313.575	363.743	353.357	338.684	340.744	278.967	0.00055202	0.00056965	0.00023567	1121.6	2.903e-06	6.6189e-06	1219.1	234.5	4.7959e-06	7.0961e-06	299.55	83.71	64.75	19.448	3.2658e-06	26.788	0.00040712	0.00041207	0.0001135	1088.9	4.5011e-06	4.5126e-06	1185.4	232.6	4.507e-06	4.5704e-06	295.72	83.289	64.936	19.864	4.5285e-06	27.618	50.672	381.832	67.984	32.500	159.480	105.431	32.530	40.285	140.929	153.845	39.637	46.568	46.859	54.379	354.842	53.506	-8191	255	
3146.527	1	1	0	0	0.068209	0.080198	0.18677	0.14789	0.12422	0.12571	0.30172	0.27948	0.0446	0.11446	0.13561	0.17248	0.06804	0.20429	0.11855	0.29264	-4.8812	-4.0958	-4.775	-5.0354	-4.0479	-4.8	-4.7688	-4.3438	-5.1271	-4.3104	-4.5958	-5.0042	-4.3458	-4.9458	-4.575	-4.1417	220.409	66.175	254.163	364.404	24.226	160.167	351.533	321.057	349.580	123.589	285.748	215.060	31.079	303.579	32.861	347.775	0.00048838	0.00028806	7.1244e-05	1124.4	4.6592e-06	3.5546e-06	1219.5	235.73	3.6862e-06	1.5529e-06	298.31	82.958	64.971	19.333	5.2966e-06	27.199	0.00041104	0.0004175	0.00011489	1093.5	4.4259e-06	4.452e-06	1188	232.58	4.3437e-06	4.3228e-06	294.7	82.893	64.809	19.774	4.2911e-06	27.533	41.926	125.262	202.882	32.832	188.766	177.515	32.818	40.478	150.728	132.762	39.645	47.256	46.796	54.178	160.408	53.683	-8191	255	
3146.623	1	1	0	0	0.027748	0.090237	0.20923	0.20721	0.12642	0.18469	0.15817	0.11643	0.049615	0.048599	0.061739	0.1532	0.17011	0.11114	0.15381	0.082148	-4.7667	-4.3625	-4.3875	-5.1896	-4.1562	-4.8708	-4.9833	-4.2729	-5.1354	-4.4062	-4.4563	-4.9208	-4.2375	-4.7562	-4.7729	-4.1167	239.638	126.150	231.002	339.893	119.622	73.759	239.544	353.135	351.580	306.503	132.668	364.799	288.778	175.912	206.521	298.181	0.00044848	0.00087577	0.0001187	1117	7.5645e-07	3.3063e-06	1209.6	232.95	4.9643e-06	5.1441e-06	300	83.328	64.662	19.421	2.4842e-06	26.921	0.00038473	0.00038506	0.00010704	1087.9	4.1721e-06	4.1688e-06	1183.2	231.19	4.0239e-06	3.999e-06	293.99	82.738	64.547	19.722	3.7804e-06	27.286	48.421	102.118	355.578	32.813	308.661	153.827	32.918	40.881	195.959	111.579	39.313	46.969	47.418	54.168	183.390	53.526	-8191	255	
3146.717	1	1	0	0	0.088681	0.16798	0.13557	0.24258	0.1781	0.12601	0.29268	0.083168	0.11283	0.19148	0.097901	0.23677	0.15729	0.038503	0.31339	0.1474	-4.8083	-4.4417	-4.4875	-5.0708	-4.2396	-4.9146	-5.1354	-4.3104	-5.0042	-4.5083	-4.3833	-4.9958	-4.2562	-4.7104	-4.8583	-4.1083	39.809	30.338	108.521	40.414	169.374	104.462	28.165	54.783	228.275	135.384	335.633	354.276	92.848	344.039	359.960	367.266	0.00033093	0.00040188	0.00014616	1111.2	1.6033e-06	1.8465e-06	1202.6	232.46	2.9102e-06	1.1256e-06	296.11	82.577	63.838	19.223	5.9304e-06	26.946	0.00034194	0.0003343	9.2034e-05	1083.8	3.572e-06	3.5132e-06	1176.3	229.82	3.3786e-06	3.3738e-06	291.23	82.017	63.829	19.459	3.2831e-06	27.111	63.080	89.138	143.955	32.927	101.688	81.864	32.892	40.401	254.916	27.026	40.172	47.193	47.650	54.428	210.413	53.846	-8191	255	
3146.791	1	1	0	0	0.074667	0.31438	0.20882	0.34422	0.22624	0.023225	0.33332	0.18773	0.12054	0.10734	0.095621	0.19075	0.31249	0.21978	0.088858	0.044064	-4.5521	-4.45	-4.0729	-5.1312	-4.1771	-4.6479	-5.225	-4.2083	-4.7833	-4.575	-4.35	-5.2146	-4.5604	-4.6604	-4.9958	-4.0229	377.232	161.943	260.817	29.275	302.318	51.363	344.002	299.426	312.985	83.196	251.348	340.104	308.369	315.689	50.110	153.185	0.00062134	0.00028432	8.0073e-05	1100.8	7.4801e-06	7.329e-06	1198.6	231.61	6.5157e-06	5.0836e-06	292.63	81.596	63.552	18.944	4.2961e-06	26.345	0.00029877	0.0002941	8.2656e-05	1073.4	3.1888e-06	3.1777e-06	1170.3	228.72	3.1827e-06	3.1689e-06	289.61	81.741	63.468	19.309	3.2632e-06	26.986	48.631	107.452	137.062	32.883	193.185	212.354	33.095	40.541	132.485	165.556	40.441	47.152	47.532	54.709	142.702	54.086	-8191	255	
3146.912	1	1	0	0	0.088566	0.064729	0.08923	0.14827	0.042684	0.11782	0.16203	0.058553	0.12553	0.13883	0.22097	0.091273	0.12769	0.14698	0.03936	0.045779	-4.6062	-4.6687	-4.1104	-5.3333	-4.2833	-4.2646	-5.0229	-4.2083	-4.7063	-4.8063	-4.3229	-4.9896	-4.3833	-4.4083	-5.0667	-4.3167	129.991	158.449	196.185	123.556	289.020	285.757	285.947	37.666	178.607	103.023	293.904	51.301	288.128	337.838	159.698	139.281	0.00058401	0.00022924	1.6248e-05	1099.7	4.1602e-06	1.1918e-06	1192.2	230.01	4.2231e-06	2.6159e-06	292.97	81.82	63.427	18.921	6.5173e-06	26.569	0.00030251	0.00030063	8.4929e-05	1073.5	3.3788e-06	3.4085e-06	1169.9	227.88	3.4223e-06	3.4013e-06	290.04	81.889	63.506	19.363	3.4853e-06	27.125	47.818	202.983	379.410	33.129	222.899	362.024	33.514	40.752	90.093	131.675	40.042	46.920	47.405	54.636	152.744	54.088	-8191	255	
3147.006	1	1	0	0	0.0649	0.10255	0.19357	0.19906	0.10505	0.070938	0.17059	0.14314	0.11174	0.12558	0.072938	0.10796	0.14502	0.086629	0.15942	0.18954	-4.2792	-4.9042	-4.2208	-5.1625	-4.4187	-4.1312	-5.0437	-4.2646	-4.5813	-4.9354	-4.2396	-5.0583	-4.4958	-4.2604	-5.2063	-4.2688	175.843	325.840	210.059	62.315	31.068	167.530	204.845	42.565	38.016	56.311	378.179	311.380	288.088	206.088	380.843	329.298	0.00071621	0.00015715	1.5835e-05	1098.2	1.4798e-06	2.9083e-06	1198.2	230.74	7.321e-06	4.5295e-06	294.33	81.23	63.113	19.075	4.5858e-06	26.402	0.00032632	0.00032857	9.0936e-05	1076	3.5928e-06	3.5562e-06	1172.3	228.66	3.5446e-06	3.4847e-06	291.01	81.589	63.583	19.416	3.4517e-06	27.088	55.021	69.528	131.281	33.030	117.867	113.753	33.121	40.736	169.801	44.529	40.002	47.503	47.958	54.990	152.383	54.194	-8191	255	
3147.102	1	1	0	0	0.25249	0.064185	0.10696	0.062682	0.084992	0.031102	0.30467	0.23001	0.32187	0.11556	0.42309	0.14977	0.14351	0.17966	0.22718	0.12332	-4.2104	-4.9354	-4.1792	-5.1167	-4.7542	-4.275	-5.1104	-4.3187	-4.4938	-4.9062	-4.2167	-4.9187	-4.9167	-4.2458	-4.9854	-4.5104	299.588	206.878	48.160	34.239	69.566	150.482	302.025	132.825	66.811	83.814	29.676	259.382	348.297	357.282	366.336	234.954	0.0005667	0.00034757	0.00012851	1101.8	3.6241e-06	1.3496e-06	1205.7	232.33	1.0417e-06	3.3816e-06	295.69	82.45	63.865	19.157	2.6041e-06	26.621	0.00031519	0.00030743	8.5349e-05	1075.1	3.3376e-06	3.3886e-06	1173.1	228.67	3.3051e-06	3.2932e-06	290.57	81.782	63.683	19.371	3.2443e-06	27.044	49.535	93.757	89.036	33.164	215.280	141.942	32.739	40.150	218.654	197.154	39.986	46.865	47.492	54.103	192.801	53.828	-8191	255	
3147.198	1	1	0	0	0.20881	0.082994	0.15023	0.096843	0.031733	0.19635	0.29806	0.052916	0.073541	0.061132	0.32524	0.03868	0.11319	0.27667	0.32591	0.32415	-4.1396	-5.0146	-4.1771	-4.8271	-4.6604	-4.1458	-5.1125	-4.5146	-4.2688	-5.0458	-4.3438	-4.7083	-4.8583	-4.2708	-5.0646	-4.5771	252.418	357.009	370.448	234.582	212.081	199.081	293.685	201.160	96.968	176.353	281.998	266.292	354.687	305.394	141.351	364.501	0.00045537	0.00059258	0.00010209	1094.6	6.8926e-06	5.1942e-06	1203.7	231.04	7.8476e-06	2.1751e-06	294.47	81.941	63.832	19.092	3.8185e-06	26.827	0.00030137	0.00029696	8.401e-05	1071.4	3.3015e-06	3.2852e-06	1172.2	228.24	3.3735e-06	3.313e-06	289.97	81.631	63.671	19.381	3.3763e-06	27.101	48.177	100.580	155.041	32.983	214.050	161.537	32.902	40.628	194.490	315.191	40.072	47.222	47.551	54.962	242.526	53.784	-8191	255	
3147.319	1	1	0	0	0.084897	0.11347	0.25896	0.036918	0.14596	0.19372	0.11384	0.13235	0.12381	0.21913	0.12312	0.22426	0.019939	0.059018	0.173	0.14695	-4.1021	-5.0271	-4.1354	-4.5938	-4.8021	-4.05	-5.0417	-4.575	-4.2396	-5.0125	-4.3583	-4.6937	-4.9792	-4.2354	-4.8708	-4.6917	259.724	320.858	142.622	26.355	303.451	90.818	361.866	372.773	303.380	205.834	336.682	327.613	209.695	320.051	281.348	224.382	0.00058713	0.00051339	9.0751e-05	1105.7	2.7441e-06	2.5465e-06	1204.3	231.55	5.8899e-06	4.6051e-06	297.51	82.888	64.469	19.112	5.3841e-06	26.882	0.00031959	0.00031698	8.838e-05	1078.1	3.5666e-06	3.5783e-06	1175	229.2	3.6653e-06	3.6254e-06	291.83	82.078	63.98	19.457	3.6354e-06	27.142	30.348	99.483	212.587	32.990	229.956	164.693	33.077	40.353	225.638	103.270	39.656	46.665	47.422	54.133	164.605	53.826	-8191	255	
3147.391	1	1	0	0	0.2498	0.1474	0.088167	0.20701	0.081779	0.026116	0.40119	0.062988	0.25064	0.08157	0.20265	0.095429	0.073845	0.073101	0.24557	0.091366	-3.7604	-5.1271	-4.3333	-4.575	-5.0125	-4.075	-4.9917	-4.8521	-4.0458	-4.975	-4.6854	-4.3917	-5.0896	-4.1875	-4.7521	-4.9042	333.649	100.524	62.927	87.434	141.649	270.327	327.108	230.393	304.695	343.572	227.552	349.353	377.512	380.220	178.361	29.845	0.00040675	0.0004459	0.00015497	1113.2	6.1364e-06	4.4429e-06	1215.4	232.69	8.7644e-06	3.0591e-06	295.6	82.297	64.488	19.031	3.9807e-06	26.985	0.00032481	0.00032453	8.8249e-05	1079.8	3.4479e-06	3.3911e-06	1176.5	229.01	3.4124e-06	3.3361e-06	290.65	81.9	63.818	19.318	3.2283e-06	27.067	42.548	153.189	155.049	32.752	251.213	214.851	32.708	40.335	183.463	158.322	40.111	47.205	47.505	54.565	134.667	53.583	-8191	255	
3147.487	1	1	0	0	0.11827	0.18872	0.1335	0.091569	0.023004	0.19996	0.19229	0.047242	0.10493	0.076117	0.13943	0.064669	0.15177	0.041316	0.2727	0.25665	-4.0042	-5.0396	-4.4271	-4.3021	-4.9729	-4.0938	-4.8958	-4.8833	-4.1083	-5.1417	-4.6542	-4.4417	-5.1458	-4.225	-4.5896	-5.0813	295.271	152.378	48.538	57.326	193.092	226.479	304.485	66.211	48.478	209.473	236.834	106.571	63.644	222.254	290.558	75.333	0.00055146	0.00014133	0.00017505	1104.8	3.4097e-06	4.538e-06	1208.1	232.7	6.8721e-06	4.6945e-06	295.01	82.307	63.658	19.207	5.6562e-06	26.903	0.00030115	0.00029365	8.2068e-05	1073.4	3.2237e-06	3.1498e-06	1172.9	228.56	3.1758e-06	3.0664e-06	289.82	81.627	63.572	19.353	3.1033e-06	27.041	38.380	135.439	93.271	32.798	208.513	119.984	32.752	40.443	169.525	123.760	40.012	46.770	47.274	54.690	128.372	53.929	-8191	255	
3147.607	1	1	0	0	0.071451	0.16642	0.13507	0.18337	0.05919	0.040199	0.23683	0.1434	0.095011	0.05208	0.20017	0.33966	0.078298	0.22524	0.22382	0.239	-3.8521	-4.9417	-4.5479	-4.2875	-5.1042	-4.1687	-4.7729	-5.0625	-4.0875	-5.0479	-4.7583	-4.2937	-5.0646	-4.4437	-4.5875	-5.0583	44.737	195.789	336.483	76.809	111.403	319.885	314.006	359.242	33.468	106.966	250.813	280.381	38.493	365.745	34.975	124.510	0.00050404	0.00015001	9.4791e-05	1103.6	3.2387e-06	1.9669e-06	1203.6	231.79	4.8643e-06	4.5674e-06	295.39	82.297	64.302	19.042	2.8213e-06	26.638	0.00028879	0.00028189	8.0031e-05	1073.2	3.1656e-06	3.1094e-06	1172.8	228.57	3.1767e-06	3.1972e-06	290.29	81.72	63.668	19.32	3.2884e-06	27.031	49.148	111.879	88.167	32.726	141.014	260.826	32.800	40.549	116.228	154.980	39.910	47.088	47.368	54.607	162.951	53.573	-8191	255	
3147.703	1	1	0	0	0.13946	0.11827	0.20932	0.2922	0.16885	0.035203	0.055838	0.058778	0.087855	0.10166	0.12177	0.17894	0.07878	0.086628	0.08092	0.11998	-3.9333	-4.775	-4.7271	-4.2937	-5.2	-4.3833	-4.7937	-5.075	-4.0833	-4.8208	-4.8396	-4.1625	-5.1083	-4.5667	-4.3875	-5.1062	280.361	47.666	208.904	53.583	249.657	309.511	310.598	168.213	69.899	330.993	339.991	381.549	344.766	295.850	299.561	200.844	0.00051303	0.00046339	0.00010354	1105.6	2.9591e-06	5.8541e-06	1204.7	232.94	1.8793e-06	4.7271e-06	294.76	82.37	63.967	18.994	6.2267e-06	26.475	0.00030386	0.00030583	8.5203e-05	1075.9	3.3791e-06	3.3545e-06	1172.6	228.65	3.3763e-06	3.3285e-06	289.82	81.755	63.809	19.404	3.3478e-06	26.937	56.520	138.463	98.874	32.688	182.625	212.337	32.814	40.640	367.451	209.166	40.129	47.011	47.534	54.746	171.246	53.794	-8191	255	
3147.800	1	1	0	0	0.0803	0.043503	0.19578	0.077989	0.16969	0.2676	0.27173	0.070735	0.21027	0.20526	0.20979	0.095637	0.25482	0.12232	0.068111	0.21324	-4.0042	-4.6208	-4.8667	-4.3042	-4.9521	-4.4563	-4.5625	-5.0229	-4.0646	-4.5625	-4.9521	-4.1417	-5.1354	-4.5563	-4.3542	-5.15	94.227	217.857	352.056	261.446	210.140	74.590	271.843	294.284	224.006	353.106	369.828	335.950	286.581	226.459	307.483	59.204	0.00038511	0.00067089	7.8647e-05	1094.3	4.0164e-06	3.269e-06	1204	231.88	2.054e-06	3.1756e-06	293.46	81.841	63.626	18.849	5.6852e-06	26.722	0.00031047	0.00030274	8.4049e-05	1072.9	3.2971e-06	3.2968e-06	1173.8	228.79	3.2952e-06	3.2781e-06	289.91	81.784	63.66	19.32	3.2341e-06	26.969	31.684	130.014	165.026	33.280	188.005	178.153	32.938	40.717	129.217	204.917	39.900	47.541	47.601	54.565	149.263	53.953	-8191	255	
3147.918	1	1	0	0	0.26229	0.13308	0.046309	0.020436	0.076834	0.068524	0.26895	0.19762	0.080164	0.11756	0.090594	0.15087	0.075487	0.18197	0.25865	0.20232	-3.9708	-4.5208	-4.925	-4.1687	-4.9729	-4.5646	-4.3938	-5.1375	-4.2021	-4.4521	-5.1292	-4.1708	-4.8667	-4.7792	-4.2271	-5.1708	250.658	282.963	136.475	270.301	109.635	68.618	294.149	350.125	375.430	256.328	299.283	314.773	178.316	329.290	134.447	162.028	0.00046041	0.00022279	4.7081e-05	1091.8	1.7987e-06	2.2898e-06	1197.3	229.25	3.8488e-06	2.8829e-06	293.26	80.993	63.432	19.159	3.9022e-06	26.607	0.00029777	0.00028999	7.9025e-05	1069	3.1006e-06	3.1176e-06	1169.8	227.9	3.1794e-06	3.1388e-06	289.09	81.414	63.434	19.363	3.1654e-06	26.961	60.409	107.319	120.867	32.889	42.361	248.848	33.007	41.202	118.746	90.063	40.111	47.235	47.728	54.803	133.299	53.425	-8191	255	
3148.015	1	1	0	0	0.095893	0.093931	0.16419	0.12207	0.12368	0.19074	0.30974	0.37745	0.1165	0.086135	0.026793	0.072754	0.12789	0.22316	0.088271	0.32886	-4.1417	-4.4729	-4.9771	-4.3625	-4.8833	-4.675	-4.3958	-5.0708	-4.3313	-4.3333	-5.075	-4.2792	-4.8417	-4.8771	-3.9875	-4.8562	216.811	135.343	276.170	109.440	42.923	372.837	279.503	327.354	362.930	363.478	380.484	367.935	111.766	29.011	225.965	319.192	0.00040846	0.0001139	0.00012491	1107.9	1.0823e-06	5.1267e-06	1194.6	230.49	6.2532e-06	1.9415e-06	292.82	81.798	63.711	19.058	6.3245e-06	26.59	0.00028891	0.0002903	8.0851e-05	1073.1	3.222e-06	3.2256e-06	1170.4	227.52	3.2523e-06	3.2738e-06	289.38	81.503	63.509	19.349	3.3536e-06	26.941	47.081	368.341	71.191	32.847	175.961	143.508	32.839	40.438	206.840	225.056	39.991	47.128	47.795	55.007	145.864	54.012	-8191	255	
3148.086	1	1	0	0	0.046675	0.11826	0.16577	0.17241	0.1002	0.10313	0.15439	0.14403	0.14623	0.051924	0.11398	0.19993	0.083336	0.11499	0.10542	0.22441	-4.2	-4.2271	-4.9479	-4.3771	-4.5458	-4.9313	-4.3229	-5.1	-4.5813	-4.2833	-5.1354	-4.4812	-4.475	-5.0188	-4.2021	-5.0229	30.042	248.179	269.876	297.993	205.766	98.266	286.400	56.459	91.995	97.934	91.628	305.640	254.069	154.873	219.175	267.760	0.00052003	0.00025475	4.21e-05	1097.6	4.2712e-06	3.6215e-06	1196.4	232.54	4.5749e-06	2.4506e-06	294.91	82.354	63.664	18.97	3.5259e-06	26.668	0.00030654	0.00030778	8.3668e-05	1072.6	3.3821e-06	3.3166e-06	1170.4	229.01	3.3958e-06	3.3795e-06	290.16	81.879	63.682	19.394	3.3524e-06	27.073	48.811	313.751	116.989	33.034	256.308	136.912	32.942	40.078	154.752	139.077	39.685	46.866	47.632	54.752	80.821	54.053	-8191	255	
3148.182	1	1	0	0	0.12908	0.167	0.19133	0.12757	0.097146	0.11678	0.25984	0.054266	0.12151	0.024299	0.1003	0.081583	0.32874	0.12228	0.14313	0.23826	-4.5312	-4.0917	-4.9146	-4.4083	-4.3979	-5.0125	-4.2958	-4.7625	-4.7792	-4.1208	-5.1792	-4.4875	-4.3708	-4.9896	-4.2208	-4.8854	228.018	381.982	262.593	353.638	286.289	333.700	335.357	276.695	285.469	365.038	334.550	101.433	315.901	123.210	103.342	54.658	0.00054285	0.00040194	0.0001347	1095.6	1.9811e-06	5.6125e-06	1200.6	230.98	4.4363e-06	3.0329e-06	293.08	82.392	63.59	19.032	6.2588e-06	26.762	0.00031108	0.00031234	8.5062e-05	1073.7	3.3781e-06	3.3082e-06	1172.8	228.14	3.3385e-06	3.2132e-06	289.63	81.778	63.533	19.335	3.2367e-06	26.983	46.589	90.806	110.602	33.266	269.760	238.719	32.915	40.971	95.406	178.261	40.245	46.797	47.501	54.435	171.652	53.820	-8191	255	
3148.303	1	1	0	0	0.21649	0.14244	0.15197	0.064077	0.19409	0.21877	0.3226	0.066882	0.061355	0.066491	0.21392	0.071295	0.17439	0.19823	0.088802	0.23373	-4.4437	-4.025	-4.9625	-4.6667	-4.4333	-4.9521	-4.4167	-4.7438	-4.8958	-3.9938	-4.9958	-4.5708	-4.3021	-4.8708	-4.2479	-4.8417	157.102	284.960	168.708	335.426	116.289	285.297	251.338	158.400	270.642	258.620	338.396	283.162	376.615	329.955	171.083	381.528	0.00050424	0.00010093	7.7057e-05	1113.7	3.5455e-06	2.9422e-06	1204.2	231.43	1.4351e-06	3.716e-06	296.6	83.109	63.879	19.015	2.8412e-06	26.681	0.00029628	0.00029086	8.147e-05	1078.3	3.2268e-06	3.2094e-06	1173.3	228.57	3.2832e-06	3.2723e-06	290.3	81.88	63.744	19.371	3.2208e-06	27.014	48.620	312.408	31.154	32.699	164.260	153.316	32.799	40.348	223.668	151.564	39.473	46.833	47.388	54.287	74.256	53.658	-8191	255	
3148.399	1	1	0	0	0.12276	0.21145	0.1171	0.11555	0.09105	0.13839	0.39929	0.23375	0.06961	0.099767	0.14023	0.22537	0.10178	0.074284	0.2032	0.23918	-4.6292	-4.2	-4.9583	-4.5188	-4.1813	-4.8729	-4.2917	-4.6792	-4.8542	-4.0333	-4.8333	-4.6375	-4.1646	-4.8604	-4.3125	-4.5312	177.787	333.520	68.221	308.340	97.837	249.669	301.690	270.528	310.845	44.120	297.578	289.949	188.789	188.016	248.266	313.332	0.00051476	0.00022611	0.0001135	1106.9	3.8461e-06	1.6175e-06	1208.8	231.49	6.7255e-06	1.8482e-06	297.12	82.019	63.486	19.11	4.6211e-06	26.442	0.0003014	0.00029807	8.2375e-05	1076.1	3.3334e-06	3.261e-06	1174.5	228.58	3.3579e-06	3.2979e-06	290.69	81.66	63.561	19.404	3.3685e-06	26.971	46.281	157.363	129.164	32.825	197.829	370.983	32.748	40.205	195.076	268.610	39.845	47.228	47.477	54.750	192.182	53.984	-8191	255	
3148.495	1	1	0	0	0.1331	0.19588	0.23624	0.26849	0.12959	0.16836	0.34873	0.13833	0.25912	0.1439	0.098348	0.21252	0.27889	0.12416	0.20091	0.24716	-4.6771	-4.0104	-4.8521	-4.8083	-4.1083	-4.8229	-4.5083	-4.2812	-4.9208	-4.1729	-4.7604	-4.8	-4.1708	-4.9146	-4.5083	-4.3333	320.401	307.502	202.787	48.358	130.007	217.582	262.894	303.942	329.057	209.951	55.526	55.871	67.775	106.000	254.825	258.148	0.00068276	0.00029258	7.454e-05	1100.5	3.9021e-06	5.1501e-06	1200.5	230.65	1.6211e-06	3.4525e-06	293.19	81.754	63.192	19.004	4.2933e-07	26.619	0.0003149	0.00031064	8.5912e-05	1076.5	3.4167e-06	3.39e-06	1173.1	228.21	3.3862e-06	3.3563e-06	289.86	81.682	63.76	19.389	3.3365e-06	26.987	44.082	143.862	211.980	32.925	132.153	129.911	32.944	40.453	192.969	213.468	40.355	47.117	47.812	54.706	215.997	53.909	-8191	255	
3148.592	1	1	0	0	0.047133	0.034796	0.10105	0.2062	0.15236	0.19368	0.20066	0.23679	0.093629	0.28369	0.13329	0.33277	0.27987	0.056919	0.16178	0.18264	-4.7896	-4.1354	-4.7063	-4.7875	-4.0667	-4.9229	-4.5625	-4.4104	-5.0667	-4.2312	-4.6083	-4.925	-4.2521	-4.8917	-4.5542	-4.2167	63.773	121.628	300.843	379.477	302.365	348.996	340.365	281.799	307.370	84.729	110.316	357.858	376.730	307.435	177.378	259.977	0.00058214	0.00057383	9.3806e-05	1101.6	8.8854e-07	6.1293e-06	1194.4	228.52	2.741e-06	1.9815e-06	292.45	81.195	63.292	19.155	6.0228e-06	26.572	0.00030673	0.00030527	8.3822e-05	1075.8	3.3441e-06	3.3331e-06	1172	228.14	3.3385e-06	3.2433e-06	290.1	81.397	63.491	19.402	3.2968e-06	26.952	45.487	91.191	133.010	33.212	196.843	170.126	33.359	41.012	162.624	185.924	39.961	47.400	47.755	54.663	210.089	53.559	-8191	255	
3148.688	1	1	0	0	0.23923	0.073234	0.18473	0.29042	0.11545	0.10222	0.18967	0.19514	0.1135	0.12427	0.22315	0.19488	0.18789	0.065739	0.11629	0.15222	-4.675	-4.2729	-4.4437	-4.9688	-4.1333	-4.8104	-4.6646	-4.2625	-5.0521	-4.2792	-4.5583	-5.1417	-4.0271	-4.8	-4.6833	-4.1771	110.876	297.133	115.530	273.303	190.694	254.776	307.673	368.041	99.063	200.679	45.377	294.724	68.828	295.326	277.806	64.406	0.00049148	0.00046259	4.5031e-05	1098.4	4.7095e-06	2.0878e-06	1198.9	231.87	1.0266e-05	7.5398e-06	293.99	81.647	64.09	19.323	2.9354e-06	26.772	0.00029929	0.00029642	8.2787e-05	1074.8	3.2419e-06	3.2161e-06	1171.7	228.31	3.1984e-06	3.155e-06	289.57	81.523	63.698	19.396	3.1688e-06	27.009	47.253	61.554	342.578	33.038	124.284	234.340	33.006	40.350	143.379	193.286	40.106	46.960	47.053	54.509	153.548	53.568	-8191	255	
3148.784	1	1	0	0	0.17867	0.05786	0.19589	0.23364	0.062732	0.1788	0.24071	0.075306	0.13572	0.20898	0.12755	0.12795	0.36715	0.2218	0.14867	0.18323	-4.7271	-4.3812	-4.1729	-4.9437	-3.95	-4.7417	-4.9354	-4.1417	-4.9417	-4.3792	-4.3938	-4.9917	-4.1125	-4.7667	-4.8812	-4.1521	366.382	102.234	37.964	380.902	376.401	77.199	350.896	251.323	351.879	182.319	39.142	237.065	365.472	324.466	329.746	259.425	0.00043208	9.4426e-05	6.0797e-05	1100.3	2.9192e-06	1.6465e-06	1197.8	230.5	4.1379e-06	2.8384e-06	292.98	81.842	63.924	18.938	2.6702e-06	26.579	0.0002983	0.00028791	8.0567e-05	1074.3	3.2081e-06	3.1693e-06	1171.7	227.91	3.1934e-06	3.2041e-06	289.39	81.471	63.604	19.375	3.1674e-06	26.892	38.421	148.837	184.967	33.006	99.611	87.868	33.057	40.526	231.399	146.759	39.979	46.996	47.663	54.618	175.717	53.943	-8191	255	
3148.880	1	1	0	0	0.096559	0.1174	0.016268	0.18219	0.27849	0.054504	0.125	0.10698	0.27136	0.19285	0.36518	0.080024	0.095884	0.173	0.13087	0.20548	-4.7271	-4.4125	-4.175	-5.0354	-4.2604	-4.5958	-5.1125	-4.1333	-4.875	-4.6062	-4.2271	-5.1396	-4.2229	-4.5896	-4.9625	-4.0208	51.582	163.025	312.432	86.878	372.914	223.596	281.912	234.972	262.943	147.380	293.830	289.604	164.958	361.035	37.786	356.413	0.00047636	0.00043397	4.8787e-05	1097.7	6.0741e-06	4.2033e-06	1199.2	230.33	9.2439e-07	1.6897e-06	293.75	82.057	64.513	19.28	2.2373e-06	26.512	0.0002955	0.0002922	8.1787e-05	1074.7	3.1919e-06	3.1939e-06	1172.6	227.91	3.1905e-06	3.1633e-06	289.27	81.527	63.859	19.406	3.0971e-06	26.936	47.488	33.588	62.763	33.207	257.353	219.807	33.103	40.473	107.692	152.498	40.088	47.288	47.563	54.340	53.736	53.649	-8191	255	
3148.999	1	1	0	0	0.24228	0.1066	0.084796	0.087406	0.074664	0.22602	0.16736	0.09535	0.13134	0.07457	0.12107	0.11259	0.08005	0.063206	0.15768	0.27632	-4.5396	-4.5896	-4.2	-5.0563	-4.3313	-4.4688	-5.0833	-4.1562	-4.6354	-4.7917	-4.1646	-5.0687	-4.4146	-4.3917	-4.9729	-4.1979	24.160	245.987	158.066	136.110	105.434	128.513	304.428	313.147	186.132	114.344	382.076	53.472	62.656	63.658	114.754	248.651	0.00055677	0.00053555	4.0522e-05	1099.7	3.9228e-06	1.0226e-06	1196.6	229.87	4.2723e-06	3.76e-06	293.66	81.82	63.483	19.244	2.2819e-06	26.926	0.00029123	0.00029086	8.0859e-05	1073.4	3.1731e-06	3.2091e-06	1169.9	227.52	3.2057e-06	3.1538e-06	289.36	81.615	63.465	19.384	3.1663e-06	27.007	65.320	88.883	266.186	33.197	223.453	39.332	33.241	40.764	129.201	190.890	40.029	47.224	47.736	54.272	279.754	53.719	-8191	255	
3149.095	1	1	0	0	0.24979	0.2006	0.041735	0.18636	0.19236	0.062399	0.12194	0.063295	0.028475	0.14672	0.10297	0.14198	0.20413	0.044819	0.17331	0.20203	-4.3688	-4.7354	-3.9771	-5.0208	-4.4667	-4.3479	-5.2479	-4.2729	-4.7542	-4.9646	-4.2583	-4.9333	-4.4792	-4.2937	-5.0583	-4.1708	188.087	302.241	57.588	54.548	192.370	365.212	259.146	273.415	137.469	136.182	39.851	307.138	195.011	268.312	59.193	370.871	0.00052879	0.00049853	2.1214e-05	1108.1	5.3706e-06	5.4763e-06	1212.9	232.91	5.0443e-06	4.4746e-06	296.23	82.305	64.172	19.175	5.5183e-06	26.646	0.00029472	0.00029364	8.0157e-05	1074.1	3.1254e-06	3.1456e-06	1173.2	228.37	3.1557e-06	3.079e-06	289.51	81.648	63.663	19.373	3.1507e-06	26.924	38.859	381.352	59.015	32.787	163.859	104.780	32.741	40.344	184.562	141.111	39.756	46.796	47.355	54.482	160.114	53.585	-8191	255	
3149.191	1	1	0	0	0.10449	0.14286	0.081053	0.02077	0.1683	0.23786	0.10458	0.17081	0.31408	0.19278	0.10779	0.20231	0.16986	0.012453	0.095655	0.37283	-4.5292	-5.1062	-4.0083	-5.1458	-4.85	-4.1083	-5.2979	-4.3208	-4.4958	-5.0104	-4.1021	-4.9083	-4.6937	-4.1521	-4.8896	-4.4042	39.623	317.898	37.639	285.336	255.484	58.127	135.470	346.845	360.121	323.019	54.853	148.312	242.650	34.469	304.785	299.699	0.00047817	0.00035584	2.1282e-05	1106.2	5.5085e-06	3.1394e-06	1200.6	232.05	5.8852e-06	2.8672e-06	294.34	82.464	63.997	19.004	6.237e-06	26.761	0.0002902	0.00028648	8.0602e-05	1075	3.1459e-06	3.1668e-06	1169.7	228.06	3.1328e-06	3.1274e-06	289.27	81.647	63.557	19.343	3.0965e-06	26.961	51.455	143.400	243.060	32.689	236.527	175.501	32.917	40.438	202.256	221.715	39.965	46.975	47.234	54.907	221.774	53.245	-8191	255	
3149.287	1	1	0	0	0.10785	0.15855	0.19624	0.20922	0.013255	0.065238	0.31556	0.071049	0.035985	0.07419	0.17139	0.20782	0.1783	0.071223	0.12823	0.018302	-4.075	-4.9292	-4.05	-4.9417	-4.6021	-4.2417	-5.1021	-4.3542	-4.4125	-5.2021	-4.2396	-4.7917	-4.7042	-4.1062	-4.8167	-4.5354	187.023	221.355	319.991	316.556	213.209	230.639	288.376	144.246	44.108	217.055	25.697	346.683	361.286	314.781	336.312	73.590	0.00042509	0.00045986	0.00010446	1104.4	2.2747e-06	3.2543e-06	1200.7	230.84	4.0129e-06	2.016e-06	291.32	82.065	63.768	19.071	6.2726e-07	26.847	0.00028862	0.00028308	7.7804e-05	1075	3.0964e-06	3.086e-06	1170.2	227.44	3.0976e-06	3.1057e-06	289.13	81.599	63.665	19.37	3.1135e-06	26.956	40.823	80.361	99.069	33.082	65.761	195.612	32.998	40.316	201.794	25.324	40.361	47.186	47.399	54.303	283.620	53.726	-8191	255	
3149.382	1	1	0	0	0.13992	0.032288	0.19455	0.29929	0.025222	0.2057	0.15097	0.37122	0.19859	0.090937	0.23419	0.041399	0.059617	0.39872	0.14912	0.09673	-3.925	-4.9354	-4.1292	-4.7354	-4.825	-4.0813	-5.1542	-4.7333	-4.15	-5.0896	-4.175	-4.5062	-4.8229	-4.1271	-4.975	-4.5667	176.490	137.327	318.395	374.311	370.745	374.488	372.375	333.963	63.379	311.703	381.254	284.737	242.888	345.915	260.636	29.148	0.00056647	0.00011033	0.00019622	1106.7	1.2271e-06	5.1559e-06	1203.1	231.37	2.0436e-07	5.7172e-06	294.7	82.232	63.887	19.027	7.2563e-06	26.69	0.00029219	0.00028096	7.8865e-05	1075.5	3.128e-06	3.0828e-06	1171.7	228.11	3.0894e-06	3.0591e-06	289.03	81.619	63.509	19.345	3.1454e-06	26.933	47.161	140.333	112.587	32.531	351.877	149.723	32.858	40.279	52.153	167.542	39.762	47.086	47.806	54.556	208.035	54.025	-8191	255	
3149.478	1	1	0	0	0.29971	0.32825	0.26009	0.025157	0.11191	0.21425	0.18932	0.2376	0.079791	0.23983	0.085452	0.086803	0.095077	0.14724	0.18033	0.28059	-3.8521	-5.0271	-4.225	-4.5979	-4.9604	-3.9042	-5.0729	-4.7375	-4.175	-4.9437	-4.3958	-4.4521	-5.1521	-4.0375	-4.8021	-4.9417	317.976	98.140	116.344	45.349	141.041	163.676	248.311	233.904	65.959	192.988	259.432	205.704	28.172	314.302	351.752	60.047	0.00057666	0.00059994	0.00012614	1103.6	2.5801e-06	4.814e-06	1201	233.23	3.0724e-06	5.3648e-06	294	81.984	63.341	19.052	8.0549e-06	26.926	0.00028791	0.00028215	7.9707e-05	1071.3	3.1603e-06	3.1215e-06	1171.9	228.79	3.1273e-06	3.1321e-06	289.37	81.426	63.382	19.253	3.084e-06	26.942	62.648	99.801	140.587	32.798	251.653	121.930	32.666	40.301	128.353	190.789	39.626	46.736	48.034	54.599	175.513	53.686	-8191	255	
3149.598	1	1	0	0	0.21001	0.10112	0.12782	0.045721	0.023188	0.079207	0.25025	0.13858	0.10537	0.12484	0.023464	0.20532	0.19423	0.1231	0.24202	0.095071	-4.0229	-5.0333	-4.3854	-4.4938	-4.9812	-4	-4.9125	-4.775	-4.1667	-5.0146	-4.6125	-4.4104	-5.1583	-4.0104	-4.6312	-4.9563	192.842	43.273	216.387	164.031	175.116	118.613	43.549	28.263	286.125	149.288	56.164	378.825	371.877	282.401	199.102	359.136	0.00057844	0.00014238	3.7328e-05	1102.8	2.1981e-06	2.1314e-06	1200.4	230.52	7.6259e-06	6.1457e-06	297.15	81.953	63.837	19.121	1.8806e-06	26.568	0.00028827	0.00028064	8.0253e-05	1072	3.0966e-06	3.0847e-06	1170.4	227.71	3.1013e-06	3.0896e-06	290.07	81.531	63.579	19.298	3.0673e-06	26.886	62.921	31.131	311.343	32.459	83.665	82.033	33.088	40.883	117.679	164.270	39.981	47.379	47.477	54.621	200.694	53.337	-8191	255	
3149.695	1	1	0	0	0.26503	0.19871	0.23684	0.23728	0.092267	0.30843	0.067042	0.18838	0.2893	0.072865	0.050478	0.047931	0.018127	0.10179	0.2158	0.063889	-3.8479	-4.9896	-4.5021	-4.4187	-4.9646	-4.1396	-4.8125	-4.9583	-3.9896	-4.8125	-4.7688	-4.0833	-5.0875	-4.2438	-4.4771	-5.0083	131.217	199.759	118.011	378.613	81.913	215.792	312.702	295.866	373.378	114.049	355.092	176.391	212.862	258.202	286.438	224.627	0.00049536	0.00068219	6.4177e-05	1101.8	1.2508e-06	4.8341e-06	1201.5	231.01	5.9002e-06	6.5665e-06	293.22	82.376	63.799	19.267	5.6489e-06	26.592	0.00028182	0.00027612	7.6941e-05	1071.5	2.9964e-06	3.0538e-06	1169.3	227.68	3.0442e-06	2.9763e-06	289.43	81.632	63.555	19.336	3.0495e-06	26.915	51.118	115.238	343.928	32.862	149.132	149.380	32.806	40.565	233.660	144.618	40.107	47.240	47.689	54.749	212.777	53.403	-8191	255	
3149.791	1	1	0	0	0.066356	0.24952	0.093167	0.24177	0.083576	0.064543	0.189	0.11515	0.12479	0.030162	0.12519	0.040044	0.14441	0.0083446	0.25002	0.26214	-4.0458	-4.8313	-4.6562	-4.3396	-5.0813	-4.4333	-4.6729	-5.0312	-4.1687	-4.6896	-4.75	-4.1896	-5.0833	-4.3417	-4.3604	-5.0625	315.517	255.354	282.436	332.025	276.557	144.713	271.764	371.935	247.095	244.051	198.436	345.833	35.682	280.536	273.024	367.460	0.00047546	0.00012289	0.00014069	1104.8	3.8942e-06	1.833e-06	1203.3	232.54	2.2206e-06	2.4292e-06	295.35	82.078	64.13	19.171	4.9068e-06	26.843	0.00027891	0.00027665	7.5319e-05	1072.6	2.9301e-06	2.9062e-06	1169.3	227.41	2.9188e-06	2.861e-06	288.98	81.177	63.556	19.308	2.9308e-06	26.886	60.020	84.747	123.420	32.678	203.283	281.225	32.564	40.637	149.420	135.608	39.711	46.707	47.229	54.817	233.095	54.001	-8191	255	
3149.887	1	1	0	0	0.10085	0.091752	0.047649	0.16666	0.13463	0.039614	0.102	0.074989	0.091977	0.11043	0.16645	0.25157	0.059838	0.20672	0.054896	0.12447	-3.8563	-4.75	-4.8208	-4.1917	-5.1104	-4.7125	-4.5229	-5.125	-4.2417	-4.6646	-4.8854	-4.2271	-5.0437	-4.5	-4.2208	-5.1333	174.043	146.246	339.605	309.558	276.572	298.644	274.805	73.416	357.624	281.718	297.931	247.973	87.388	22.682	36.218	43.754	0.00047657	0.00028471	0.00011182	1095.7	5.4606e-06	4.0154e-06	1195.9	232.63	3.3745e-06	1.9217e-06	293.31	81.913	63.749	19.144	5.4605e-06	26.727	0.00027295	0.00026754	7.3873e-05	1066	2.9771e-06	2.9339e-06	1167.5	227.92	2.9179e-06	2.9113e-06	288.63	81.393	63.241	19.277	2.9691e-06	26.859	54.872	88.569	109.519	32.953	140.591	154.850	32.824	40.427	61.673	222.314	40.214	47.113	47.801	54.929	77.553	54.036	-8191	255	
3149.983	1	1	0	0	0.096288	0.041176	0.10292	0.11665	0.09954	0.13816	0.075786	0.052537	0.15356	0.08523	0.26069	0.082726	0.13607	0.090554	0.1259	0.18023	-3.9729	-4.6271	-4.9833	-4.1937	-4.8792	-4.6458	-4.5437	-5.1021	-4.2937	-4.5917	-5.1271	-4.2083	-4.9354	-4.8167	-4.1917	-4.9792	186.801	55.184	313.786	348.432	25.388	140.577	332.329	181.162	293.053	328.019	356.598	137.198	320.000	369.934	376.831	138.477	0.00046993	0.000656	1.2651e-05	1097.7	4.7531e-06	1.3449e-06	1197.8	231.99	4.4971e-06	2.4982e-06	293.3	81.722	63.938	19.008	3.9523e-06	26.814	0.00027934	0.00026955	7.4393e-05	1068.4	2.9419e-06	2.9281e-06	1165.5	227.2	3.0161e-06	3.0414e-06	288.48	81.237	63.478	19.231	3.0044e-06	26.895	40.468	98.998	362.194	33.196	205.422	288.829	32.793	40.670	172.447	355.689	40.036	47.044	47.420	54.374	191.862	54.205	-8191	255	
3150.079	1	1	0	0	0.18343	0.2786	0.047605	0.045033	0.1558	0.16651	0.097476	0.14027	0.063081	0.071707	0.16862	0.23957	0.23527	0.18068	0.14019	0.062555	-3.925	-4.4146	-5.0604	-4.1604	-4.6542	-4.8083	-4.2438	-4.9771	-4.2958	-4.2375	-5.0458	-4.2125	-4.6937	-4.8354	-3.9688	-5.1479	103.474	183.592	40.649	28.752	199.184	115.914	364.540	285.260	218.718	301.969	299.119	239.801	349.107	136.822	334.116	49.791	0.00047861	0.00036489	6.4448e-05	1098.8	3.4605e-06	1.4663e-06	1203.2	230.86	2.5953e-06	1.9445e-06	294.12	82.594	63.658	19.006	8.6996e-06	26.851	0.00028113	0.00027893	7.535e-05	1068.2	3.0426e-06	3.0026e-06	1168.2	227.46	3.0469e-06	3.0583e-06	289.2	81.488	63.303	19.262	3.0419e-06	26.937	64.387	183.974	156.126	32.819	147.248	311.593	32.827	40.314	171.002	121.166	39.999	47.299	47.292	54.721	169.278	53.581	-8191	255	
3150.175	1	1	0	0	0.17615	0.3348	0.13489	0.12771	0.18525	0.10921	0.21785	0.09597	0.18716	0.089286	0.016403	0.193	0.10912	0.12282	0.049505	0.11405	-4.2229	-4.1729	-4.9917	-4.2167	-4.4542	-4.85	-4.2333	-5.0208	-4.6083	-4.2458	-5.2479	-4.3458	-4.6604	-5.0229	-4.1708	-4.9083	119.465	98.656	354.935	329.604	110.567	81.224	338.745	141.095	365.168	350.594	224.280	318.246	363.094	100.757	291.134	359.719	0.00053502	0.00021661	4.8449e-05	1096.4	8.4373e-07	4.3018e-06	1195.5	230.24	3.0756e-06	2.175e-06	294.77	81.832	63.571	18.922	2.832e-06	26.565	0.00028517	0.00028123	7.7281e-05	1067.6	3.0398e-06	2.9641e-06	1165.5	226.86	3.0403e-06	2.9391e-06	288.28	81.079	63.292	19.239	2.9592e-06	26.897	60.903	310.432	57.615	32.899	23.683	193.536	32.941	40.601	197.125	118.270	40.270	47.586	47.618	54.804	162.829	53.746	-8191	255	
3150.272	1	1	0	0	0.083172	0.2263	0.17678	0.22688	0.056451	0.028413	0.1309	0.20326	0.09982	0.17817	0.097557	0.22944	0.16677	0.096007	0.20771	0.18284	-4.2042	-4.2188	-5.15	-4.4542	-4.5083	-4.9313	-4.4125	-4.9625	-4.4771	-4.3125	-5.0583	-4.4938	-4.3917	-5.0083	-4.0625	-4.8354	243.440	40.542	246.158	365.184	89.381	286.878	325.223	293.629	223.155	243.411	315.119	297.832	294.531	376.480	199.696	104.840	0.00064832	0.00029048	8.068e-05	1101.7	6.2466e-06	3.148e-06	1195.6	230.72	3.4883e-06	2.3301e-06	295.33	82.278	64.054	19.085	3.489e-06	26.648	0.00027494	0.00027089	7.498e-05	1068.3	2.977e-06	2.9152e-06	1165.4	226.91	2.9839e-06	3.053e-06	289.1	81.426	63.206	19.23	3.0255e-06	26.826	43.863	357.602	154.944	32.614	133.454	282.831	32.770	40.934	91.685	278.546	40.183	47.440	47.703	54.874	142.849	53.767	-8191	255	
3150.390	1	1	0	0	0.039452	0.064771	0.13314	0.20899	0.14083	0.096468	0.07103	0.086856	0.21113	0.19355	0.19499	0.18365	0.26475	0.042092	0.1859	0.29598	-4.4146	-4.225	-4.9021	-4.3063	-4.2438	-4.9542	-4.3333	-4.7667	-4.7562	-4.0104	-5.1375	-4.7167	-4.2458	-5.1125	-4.2729	-4.7458	183.282	27.294	90.800	201.088	241.039	198.968	26.472	155.560	351.776	311.215	372.470	36.842	329.423	118.172	355.206	331.408	0.00057075	0.00020111	0.00018983	1087.8	2.9642e-06	6.0448e-08	1197.4	230.06	5.8483e-06	3.1608e-06	292.79	81.709	63.579	18.994	7.3783e-06	26.465	0.00028248	0.00027454	7.6972e-05	1066.2	3.0785e-06	3.0087e-06	1166.3	227.1	3.0128e-06	3.0684e-06	288.55	81.255	63.313	19.193	3.0056e-06	26.824	50.193	152.342	104.122	33.133	86.860	158.277	33.037	40.719	166.007	148.934	40.418	47.239	47.982	55.014	150.705	53.543	-8191	255	
3150.487	1	1	0	0	0.15492	0.13412	0.13614	0.27692	0.39611	0.13988	0.1299	0.0078105	0.14902	0.15929	0.19475	0.083053	0.19845	0.12757	0.058096	0.12898	-4.6125	-4.0646	-4.9812	-4.6208	-4.2958	-4.9187	-4.3979	-4.6937	-4.9625	-4.1083	-5.1646	-4.8396	-4.2937	-5.1937	-4.2688	-4.5312	330.908	149.790	242.279	289.056	319.056	93.762	356.586	331.972	221.652	29.914	363.569	236.227	39.664	323.317	197.969	348.644	0.00046858	0.00016316	0.00010161	1095.6	3.6312e-06	8.3021e-07	1194.2	231.02	5.9558e-06	5.9045e-06	294.26	82.355	63.796	19.24	8.1329e-07	26.65	0.0002791	0.00027573	7.5749e-05	1068.4	2.9687e-06	2.975e-06	1165.2	227.48	2.9572e-06	2.9797e-06	288.51	81.323	63.287	19.345	2.9871e-06	26.87	55.675	151.901	371.953	33.063	226.145	98.369	33.122	40.113	181.766	161.834	39.831	47.205	46.995	54.459	39.699	53.230	-8191	255	
3150.560	1	1	0	0	0.056591	0.1589	0.16478	0.15202	0.14596	0.12136	0.088976	0.20744	0.28292	0.13075	0.068859	0.1564	0.27591	0.15552	0.098371	0.2346	-4.7438	-4.2667	-4.8458	-4.9	-4.2312	-5.0229	-4.425	-4.5021	-4.9396	-4.1792	-4.8854	-4.7937	-4.2896	-5.0708	-4.3979	-4.3375	218.400	226.378	275.696	328.223	340.531	51.963	353.658	335.806	194.516	91.292	378.029	49.875	237.519	68.006	86.410	70.093	0.00047807	0.00023714	0.00015916	1099.2	1.3795e-07	5.3586e-06	1192.1	230.56	4.9137e-06	3.2142e-07	292.75	81.611	62.756	19.058	2.6872e-06	26.498	0.00027517	0.00027483	7.5539e-05	1069.1	2.993e-06	2.9464e-06	1165.9	226.83	2.9003e-06	2.9511e-06	288.21	81.309	63.024	19.231	2.9185e-06	26.815	39.296	133.885	133.501	33.124	144.883	145.319	32.751	40.354	223.102	356.589	40.146	47.150	47.327	54.509	221.616	53.520	-8191	255	
3150.679	1	1	0	0	0.054374	0.012687	0.069723	0.24617	0.038964	0.045548	0.39681	0.053808	0.078714	0.059389	0.15915	0.033855	0.2508	0.0282	0.099563	0.17177	-4.7979	-4.1333	-4.7958	-4.8854	-3.9896	-4.9958	-4.5146	-4.4396	-5.0208	-4.2292	-4.6875	-4.975	-3.9771	-4.9812	-4.4083	-4.1396	47.954	125.532	374.564	344.217	182.568	189.537	298.485	307.543	151.409	69.404	350.802	271.512	45.971	85.108	192.746	232.946	0.0004525	0.00030589	6.7758e-05	1101.5	2.8185e-06	7.3982e-06	1190.1	230.79	4.8362e-06	4.8953e-06	294.76	81.84	63.762	19.022	4.7906e-06	26.512	0.00027299	0.00026576	7.5252e-05	1068.5	3.0313e-06	2.9535e-06	1163.7	227.15	2.9428e-06	2.929e-06	288.92	81.179	63.266	19.222	2.9038e-06	26.798	31.310	95.865	37.203	32.806	107.882	154.922	33.014	40.358	172.623	195.723	39.890	47.253	47.215	54.939	185.807	53.666	-8191	255	
3150.775	1	1	0	0	0.063355	0.097687	0.22017	0.18992	0.20172	0.2284	0.2042	0.12209	0.048693	0.1155	0.14561	0.13132	0.074256	0.15787	0.11464	0.1148	-4.7	-4.3083	-4.5563	-4.9646	-3.9958	-4.8875	-4.7896	-4.3229	-4.9396	-4.3104	-4.6062	-5.0042	-4.2333	-4.9062	-4.5625	-4.3	62.875	242.680	183.577	377.416	174.054	232.739	378.263	361.511	127.374	307.702	367.084	301.644	355.744	340.113	292.077	369.191	0.00061785	0.00028426	6.4892e-05	1096.3	3.4104e-06	4.1074e-06	1194.2	230.67	2.3864e-06	5.6879e-06	292.71	82.175	63.762	19.047	6.4733e-06	26.687	0.00026905	0.00026666	7.3802e-05	1068.1	2.9681e-06	2.9179e-06	1164.8	227.07	2.9288e-06	2.9068e-06	287.68	81.239	63.241	19.26	2.9081e-06	26.794	38.504	144.783	40.939	33.058	70.681	164.195	32.960	40.556	146.802	161.732	39.930	46.813	47.909	54.565	213.992	53.634	-8191	255	
3150.871	1	1	0	0	0.077057	0.1051	0.34804	0.093588	0.17581	0.11497	0.2122	0.11947	0.10588	0.22447	0.27004	0.18066	0.228	0.33723	0.050731	0.15679	-4.5938	-4.3417	-4.5896	-5.1042	-3.9854	-4.8688	-4.9396	-4.1937	-5.0479	-4.3896	-4.4729	-5.1042	-4.3229	-4.7521	-4.65	-4.2167	143.167	205.979	115.709	290.698	84.655	160.425	60.301	326.528	172.612	153.353	336.340	260.641	303.028	255.276	174.186	211.046	0.00051972	0.00026947	0.00019298	1097.6	2.4256e-06	2.5331e-06	1196.4	231.27	1.8309e-06	1.3822e-06	295.39	81.544	64.009	19.079	5.9819e-06	26.74	0.0002703	0.00027318	7.6026e-05	1067.9	2.9583e-06	2.9164e-06	1165.6	226.99	2.8945e-06	2.9059e-06	288.13	81.027	63.382	19.254	2.9658e-06	26.884	55.118	86.315	119.694	32.937	170.170	283.385	32.845	40.555	163.349	113.455	39.826	47.041	47.152	54.871	220.353	53.396	-8191	255	
3150.967	1	1	0	0	0.20708	0.12455	0.13215	0.13306	0.027687	0.17031	0.31397	0.097361	0.17817	0.23608	0.32989	0.029858	0.11581	0.15048	0.087297	0.14208	-4.7104	-4.5167	-4.2667	-5.2688	-4.225	-4.8729	-5.1083	-4.1521	-5.0042	-4.5938	-4.3562	-5.1875	-4.4271	-4.5312	-4.9417	-4.1354	249.996	370.342	60.876	329.528	190.483	276.660	315.318	367.460	97.960	378.779	323.999	26.391	220.498	50.695	290.875	331.518	0.00032427	0.00024499	8.0084e-05	1097.9	1.754e-06	1.5165e-06	1196.2	230.1	6.4967e-06	4.4462e-06	294.11	81.843	63.518	19.105	3.737e-06	26.47	0.00027297	0.0002639	7.4783e-05	1066.3	2.897e-06	2.9274e-06	1166.7	226.57	2.928e-06	2.9032e-06	288.23	81.273	63.175	19.23	2.8847e-06	26.791	48.542	129.726	47.582	32.715	25.513	206.319	33.141	41.025	262.829	216.558	39.679	46.827	47.667	54.123	141.333	53.538	-8191	255	
3151.088	1	1	0	0	0.12931	0.16545	0.064502	0.057335	0.11746	0.1963	0.076042	0.1686	0.12741	0.12156	0.23016	0.22878	0.14659	0.072152	0.052374	0.32934	-4.6479	-4.5667	-4.0958	-5.2021	-4.2438	-4.4396	-5.0396	-4.1687	-4.7125	-4.7646	-4.2125	-5.1479	-4.3375	-4.3938	-4.9938	-4.0771	99.578	302.395	209.364	294.643	350.291	253.485	45.025	370.510	116.440	168.213	35.538	271.149	353.053	103.223	83.209	70.478	0.00060995	0.00038139	9.0636e-05	1094.1	1.8062e-06	3.1764e-06	1197.4	231.29	6.3619e-06	2.7543e-06	294.45	81.817	63.815	18.982	2.757e-06	26.549	0.00026723	0.00026856	7.3881e-05	1065.9	2.9431e-06	2.9494e-06	1164.8	227.15	2.9369e-06	2.9576e-06	288.74	81.169	63.314	19.239	2.903e-06	26.855	71.007	68.038	296.855	32.860	251.932	212.710	32.997	40.479	153.751	130.707	40.155	47.170	47.277	54.351	86.646	53.773	-8191	255	
3151.182	1	1	0	0	0.13361	0.14561	0.15899	0.16018	0.21557	0.093546	0.19863	0.12281	0.1448	0.1362	0.20926	0.060859	0.027886	0.08704	0.26105	0.24693	-4.4542	-4.6833	-4.0854	-5.1417	-4.3396	-4.3063	-5.1979	-4.1667	-4.6312	-4.9417	-4.3	-5.0958	-4.5563	-4.3938	-5.0396	-4.3292	179.928	373.660	279.634	51.728	164.203	179.606	294.899	275.113	174.787	362.195	375.472	315.455	170.176	302.316	261.001	182.185	0.00046721	0.00041226	8.5798e-05	1097.5	2.7381e-06	2.1082e-06	1210	232.31	3.493e-06	3.4759e-06	297.59	82.503	64.46	19.329	2.9561e-06	26.694	0.00027353	0.00026791	7.5328e-05	1068.8	2.9458e-06	2.8985e-06	1169.2	227.41	2.9493e-06	2.9204e-06	288.58	81.336	63.445	19.302	2.9334e-06	26.846	42.105	86.810	94.458	33.110	184.521	168.624	32.611	40.359	188.611	300.659	39.320	46.533	47.354	54.138	225.704	53.167	-8191	255	
3151.280	1	1	0	0	0.050883	0.053802	0.066374	0.10827	0.2314	0.02573	0.25023	0.19315	0.20683	0.11784	0.31834	0.30527	0.14501	0.13732	0.1972	0.18471	-4.3646	-4.6854	-4.1062	-5.1208	-4.6438	-4.2396	-5.2417	-4.3313	-4.5	-4.9271	-4.2	-5.0125	-4.625	-4.3812	-4.9729	-4.4062	322.288	204.667	94.541	320.716	369.050	54.725	371.170	357.938	307.591	175.245	24.993	335.556	49.777	24.786	352.322	143.925	0.00053957	0.00017399	6.9365e-05	1106.8	4.2137e-06	6.3322e-06	1210.7	233.75	6.0011e-06	3.5584e-06	296.29	82.596	64.079	19.183	1.3397e-06	26.834	0.00026671	0.00026271	7.3835e-05	1070.5	2.8997e-06	2.9021e-06	1168	227.5	2.9155e-06	2.9194e-06	288.59	81.324	63.362	19.274	2.9819e-06	26.85	53.726	280.112	93.649	32.868	200.060	203.008	32.728	40.149	256.247	91.835	39.702	46.710	47.572	54.504	47.218	53.525	-8191	255	
3151.375	1	1	0	0	0.10064	0.17395	0.105	0.061258	0.2767	0.26345	0.33478	0.14849	0.25194	0.20779	0.22038	0.17188	0.20694	0.046197	0.115	0.13277	-4.3438	-4.9583	-4.1271	-4.9396	-4.7542	-4.2604	-5.15	-4.5896	-4.5062	-5.0583	-4.2396	-4.8229	-4.8771	-4.1104	-4.8979	-4.4271	178.666	378.667	94.944	30.394	87.593	226.326	315.451	36.184	235.959	37.538	228.116	242.722	138.602	243.111	148.983	79.813	0.00036958	0.00036709	2.9061e-05	1109.2	2.6867e-06	3.229e-06	1212.9	232.42	6.018e-06	5.0007e-06	296.9	82.81	63.709	19.225	3.172e-06	26.923	0.000275	0.0002688	7.4835e-05	1072.2	2.9633e-06	2.969e-06	1170.7	227.53	2.9622e-06	2.9266e-06	288.9	81.576	63.232	19.278	2.959e-06	26.893	53.848	157.384	78.064	32.429	195.281	197.323	32.836	40.376	220.381	150.453	39.503	46.806	46.986	54.264	150.288	53.630	-8191	255	
3151.471	1	1	0	0	0.07509	0.038037	0.11173	0.21383	0.13576	0.075358	0.22867	0.025841	0.14727	0.14099	0.21379	0.31057	0.055883	0.1195	0.063175	0.052226	-3.9333	-4.8229	-4.1833	-4.9417	-4.8083	-4.1271	-5.2146	-4.5312	-4.3396	-5.1125	-4.4062	-4.6813	-4.8271	-4.1354	-4.8375	-4.3833	277.882	209.145	137.862	335.418	296.880	159.248	306.617	99.567	125.081	23.998	326.106	279.330	210.196	131.579	273.086	300.239	0.0005449	0.00032501	0.00010863	1110.2	4.7537e-06	5.0532e-06	1206	231.43	3.0794e-06	2.3291e-06	295.85	82.575	63.955	19.017	3.3013e-06	26.78	0.00027408	0.00027277	7.54e-05	1072.2	2.9554e-06	2.9693e-06	1167.9	226.85	2.9751e-06	2.9618e-06	288.99	81.326	63.423	19.207	2.9725e-06	26.855	46.975	104.387	150.744	32.614	202.527	192.817	32.616	40.685	212.953	262.655	39.887	46.806	47.313	54.440	225.705	53.463	-8191	255	
3151.567	1	1	0	0	0.2256	0.35666	0.12189	0.19242	0.15629	0.25413	0.069707	0.078837	0.20392	0.17267	0.078625	0.15194	0.25159	0.013721	0.2426	0.14051	-4.1375	-4.9979	-4.25	-4.6479	-4.9062	-4.1604	-4.95	-4.6979	-4.1146	-5.0958	-4.3708	-4.6229	-5.1625	-4.2542	-4.7146	-4.7333	30.716	108.930	292.267	324.469	60.360	131.752	212.084	219.717	358.879	190.382	233.277	230.656	26.556	292.893	197.775	26.687	0.00065507	4.9721e-05	6.0871e-05	1107.2	8.4867e-07	1.9802e-06	1202.2	232.5	1.0974e-05	8.2608e-07	296.19	82.779	64.327	19.167	1.055e-06	26.745	0.00027416	0.00027101	7.5708e-05	1070.2	2.977e-06	2.9395e-06	1167.7	228.03	3.0011e-06	2.9686e-06	289.4	81.626	63.458	19.341	2.9807e-06	26.848	34.308	342.587	109.185	32.710	378.564	97.069	32.839	40.179	134.082	120.661	39.856	47.067	47.371	54.129	248.153	53.415	-8191	255	
3151.688	1	1	0	0	0.022418	0.27761	0.14044	0.10862	0.132	0.29258	0.055299	0.12073	0.10779	0.10399	0.19788	0.065601	0.19231	0.30143	0.19115	0.15599	-3.8396	-5.0312	-4.3583	-4.4125	-4.9313	-4.3146	-4.9313	-4.6312	-4.225	-4.9875	-4.7375	-4.4625	-5.0833	-4.1292	-4.7625	-4.8917	315.466	253.492	101.833	376.328	380.542	96.333	164.657	336.795	286.406	336.413	324.714	278.347	310.791	29.340	265.149	70.547	0.00049778	9.4479e-05	6.0579e-05	1106.2	5.5195e-06	2.4715e-06	1206.1	233.12	2.8119e-06	3.795e-06	294.25	82.487	63.889	19.176	2.4471e-06	26.919	0.0002779	0.00027313	7.7525e-05	1070	2.9547e-06	3.0244e-06	1169	227.9	2.9752e-06	3.0017e-06	288.78	81.515	63.292	19.247	3.0454e-06	26.827	56.363	213.500	69.966	32.624	211.308	145.476	32.715	40.379	38.761	136.159	39.890	46.927	47.315	54.259	202.520	54.312	-8191	255	
3151.784	1	1	0	0	0.21346	0.091677	0.016576	0.083833	0.21795	0.23247	0.17959	0.063513	0.17843	0.086331	0.10094	0.1738	0.16937	0.075411	0.092214	0.064261	-3.8875	-4.9792	-4.5563	-4.4167	-4.9333	-4.2208	-4.8583	-5.1292	-4.0979	-4.8625	-4.8	-4.2646	-5.0062	-4.2625	-4.5521	-5.0646	245.161	139.945	36.385	147.296	222.475	54.915	320.202	242.891	39.837	378.368	139.682	291.231	326.634	335.830	177.463	361.049	0.00057239	0.0002121	0.00010834	1106.4	3.9797e-06	1.6826e-06	1206.1	232.64	2.2257e-06	2.4022e-06	293.81	82.83	63.975	19.088	5.1911e-06	26.95	0.00027999	0.00027297	7.6488e-05	1068.9	2.9708e-06	2.9925e-06	1168.1	227.34	2.977e-06	2.9613e-06	288.17	81.392	63.389	19.278	2.9083e-06	26.829	52.498	183.705	89.331	32.542	227.528	68.163	32.573	40.638	167.523	185.810	40.132	47.082	47.088	54.181	127.474	53.409	-8191	255	
3151.855	1	1	0	0	0.10648	0.19852	0.12968	0.062712	0.2081	0.16134	0.56705	0.20321	0.049103	0.26136	0.050917	0.25109	0.11592	0.13155	0.13992	0.14937	-3.7854	-4.9396	-4.5833	-4.3812	-5.0917	-4.5042	-4.6687	-5.1625	-4.1167	-4.6542	-4.7396	-4.1958	-4.9479	-4.4146	-4.4229	-5.1354	356.801	209.026	175.364	65.921	231.334	49.179	294.080	49.288	264.801	186.597	151.437	319.765	377.207	123.770	206.764	60.853	0.00053295	2.7848e-05	9.56e-05	1109	4.2107e-06	3.517e-06	1206.8	231.94	3.1808e-06	8.7499e-06	296.12	82.715	64.114	19.094	4.3869e-06	26.669	0.00027554	0.00026625	7.2749e-05	1071.4	2.8743e-06	2.8737e-06	1168.3	227.07	2.9109e-06	2.899e-06	288.7	81.34	63.353	19.243	2.8355e-06	26.807	51.058	52.648	157.618	32.717	162.002	246.280	32.618	40.249	156.731	121.980	39.752	46.383	47.424	54.764	124.136	53.234	-8191	255	
3151.952	1	1	0	0	0.15824	0.13574	0.14971	0.19129	0.13588	0.10846	0.19488	0.028154	0.10631	0.13442	0.019565	0.13857	0.039306	0.19199	0.089713	0.14641	-3.6896	-4.7417	-4.7125	-4.1479	-4.9187	-4.3646	-4.5583	-4.9479	-4.1021	-4.7167	-4.9062	-4.2646	-4.9688	-4.6687	-4.0958	-5.0292	372.769	76.985	174.070	381.640	25.958	155.939	275.966	131.375	63.426	208.206	145.219	47.129	39.549	330.234	52.701	31.679	0.0006312	0.00050945	8.3331e-05	1099	4.4366e-06	2.2586e-06	1200.5	230.51	2.3966e-06	1.6424e-06	293.82	82.148	64.065	19.247	3.0918e-06	26.773	0.00026838	0.00026193	7.1942e-05	1067.3	2.8527e-06	2.8406e-06	1165	226.88	2.8803e-06	2.8487e-06	288.13	81.238	63.394	19.234	2.837e-06	26.845	54.970	149.440	77.619	32.856	173.569	193.274	32.707	40.776	235.555	122.918	39.887	46.785	47.164	54.674	76.430	53.116	-8191	255	
3152.072	1	1	0	0	0.18177	0.21381	0.19559	0.0081101	0.25918	0.071108	0.20265	0.069748	0.16539	0.15476	0.13004	0.088159	0.32853	0.1377	0.042046	0.14219	-3.8792	-4.7083	-4.8521	-4.1625	-4.9042	-4.5417	-4.1937	-5.1667	-4.1813	-4.5896	-5.0104	-4.0896	-4.8688	-4.5292	-4.0917	-5.075	160.228	227.171	196.434	363.402	223.625	237.629	279.574	255.091	238.970	116.643	357.255	35.331	293.050	174.048	72.386	289.575	0.0006126	0.00031322	1.8594e-05	1107.8	3.8421e-06	2.7828e-06	1204.2	231.85	2.4408e-06	2.7812e-06	294.9	81.927	64.077	19.155	9.969e-07	26.838	0.00026417	0.00026438	7.2496e-05	1066.9	2.8329e-06	2.7826e-06	1165.3	227.22	2.7727e-06	2.7645e-06	288.25	80.891	63.137	19.242	2.7519e-06	26.838	65.597	79.076	72.736	32.587	181.729	315.043	32.752	40.583	348.873	276.614	40.039	46.921	47.234	54.613	244.073	53.619	-8191	255	
3152.168	1	1	0	0	0.12343	0.04311	0.16844	0.09882	0.13168	0.31755	0.12802	0.23574	0.14812	0.13711	0.31893	0.13229	0.097027	0.2187	0.33667	0.18344	-3.9479	-4.4729	-5.05	-4.1396	-4.9187	-4.5979	-4.2021	-5.0375	-4.3854	-4.4479	-5.1208	-4.1813	-4.6771	-4.6937	-4.1229	-5.0229	315.617	308.960	142.974	339.666	36.299	334.654	341.716	351.523	312.633	289.307	382.302	32.964	302.479	174.277	257.785	221.585	0.00051054	0.00040003	0.00013582	1102.6	5.1325e-06	3.4755e-06	1199	230.86	5.6734e-06	3.1438e-06	295.05	82.675	63.77	19.206	1.9751e-06	26.927	0.00025743	0.00025181	7.1072e-05	1067.2	2.7465e-06	2.7271e-06	1163	226.4	2.8308e-06	2.773e-06	288.37	81.148	63.154	19.222	2.8338e-06	26.832	63.870	112.233	78.369	32.754	211.061	101.534	32.512	40.356	199.431	203.840	40.132	46.908	47.319	54.475	232.905	53.710	-8191	255	
3152.264	1	1	0	0	0.11422	0.0296	0.23801	0.2854	0.18662	0.24176	0.34395	0.30308	0.021121	0.14198	0.097198	0.2291	0.1425	0.13851	0.23038	0.054208	-4.1333	-4.4083	-4.9375	-4.2708	-4.5792	-4.7688	-4.1937	-4.8938	-4.4313	-4.2646	-4.8917	-4.4104	-4.5687	-4.8729	-4.0396	-4.9333	269.932	69.696	126.588	39.005	274.475	30.154	305.680	349.333	243.746	200.768	98.111	368.893	267.485	369.093	276.227	52.623	0.000621	0.00029817	0.00017641	1103.8	1.4125e-06	1.6888e-06	1201.3	232.16	8.1603e-06	2.7881e-06	296.04	82.519	64.152	19.1	3.9987e-06	27.114	0.00025927	0.00025807	7.1624e-05	1066.4	2.8177e-06	2.8407e-06	1163.1	227.46	2.8258e-06	2.7986e-06	287.95	80.899	63.238	19.245	2.8621e-06	26.822	47.561	166.826	152.957	32.643	146.050	119.479	32.760	40.230	147.058	290.813	39.774	46.360	47.368	54.438	118.965	53.501	-8191	255	
3152.361	1	1	0	0	0.12622	0.23685	0.092813	0.14564	0.092615	0.15353	0.11694	0.1756	0.27218	0.039338	0.15294	0.16885	0.1886	0.16106	0.064917	0.036492	-4.1167	-4.1625	-4.8708	-4.2271	-4.3583	-4.9167	-4.275	-4.8583	-4.5792	-4.0667	-5.1354	-4.4	-4.4271	-4.9625	-4.0042	-4.9271	164.497	278.786	26.205	51.615	144.977	176.199	271.888	276.282	41.255	121.012	222.574	370.168	84.607	381.088	36.329	136.550	0.00036452	0.00016437	7.9321e-05	1110.6	4.5046e-06	4.2839e-06	1217.9	232.92	7.2638e-06	2.3735e-06	298.38	82.874	64.557	19.322	5.3975e-06	26.877	0.00025939	0.00025658	7.1493e-05	1067	2.8256e-06	2.8575e-06	1167.6	227.31	2.7805e-06	2.7659e-06	288.55	81.03	63.27	19.258	2.8232e-06	26.786	76.066	79.070	162.085	32.239	215.602	153.032	32.413	40.053	161.106	182.355	39.698	46.792	47.499	54.237	149.869	53.203	-8191	255	
3152.479	1	1	0	0	0.13076	0.10656	0.048076	0.27157	0.185	0.16561	0.23804	0.028224	0.1841	0.19052	0.10244	0.11432	0.15475	0.057337	0.12498	0.18981	-4.3688	-4.1312	-4.9604	-4.3896	-4.3292	-4.8625	-4.2083	-4.8792	-4.8	-4.1479	-5.0354	-4.4896	-4.3604	-5.1333	-4.0542	-4.6062	190.120	270.368	74.920	320.603	349.518	341.918	301.602	186.116	130.290	125.341	225.943	189.793	280.551	119.254	49.440	360.483	0.00057651	0.00028203	9.7797e-05	1110.7	5.371e-06	2.3389e-06	1209.9	235.12	5.6092e-06	2.1799e-06	297.7	82.742	64.145	19.342	2.1441e-06	26.702	0.00025841	0.00026196	7.085e-05	1068.3	2.7661e-06	2.8343e-06	1164.9	227.48	2.8217e-06	2.8065e-06	288.25	81.315	63.145	19.162	2.8313e-06	26.692	34.350	381.071	133.375	32.757	141.449	173.315	32.448	40.082	182.398	150.939	39.935	46.695	47.140	54.275	189.347	52.777	-8191	255	
3152.551	1	1	0	0	0.11676	0.27167	0.1582	0.050733	0.047462	0.33021	0.2621	0.094444	0.14718	0.17412	0.23913	0.15869	0.32828	0.081695	0.28771	0.16784	-4.5083	-4.125	-4.9208	-4.6271	-4.1312	-4.9708	-4.4229	-4.6562	-5.0208	-4.2854	-4.9771	-4.6375	-4.2417	-4.9938	-4.3458	-4.6937	278.926	184.808	191.764	66.776	250.798	210.865	342.349	339.045	239.203	298.107	366.758	46.219	40.188	359.778	74.222	273.982	0.00044198	0.00017172	2.9359e-05	1106.6	2.6007e-06	5.737e-06	1206.8	232.25	3.8222e-06	1.3698e-06	293.97	82.544	64.065	19.039	2.6758e-06	26.62	0.00025872	0.00025929	7.1813e-05	1065.6	2.7797e-06	2.7598e-06	1165.6	226.97	2.7465e-06	2.8116e-06	287.55	81.037	63.091	19.178	2.724e-06	26.773	53.480	53.374	80.733	32.760	147.891	114.192	32.659	40.151	128.680	158.493	40.040	46.583	47.123	54.366	202.878	53.294	-8191	255	
3152.649	1	1	0	0	0.078523	0.13924	0.16915	0.27481	0.15264	0.13401	0.13689	0.055857	0.12919	0.12518	0.26625	0.024883	0.22364	0.16764	0.15874	0.33316	-4.6333	-4.0917	-4.8083	-4.6542	-4.2229	-5.0062	-4.2958	-4.5917	-4.9479	-3.9417	-4.8917	-4.8146	-4.0854	-4.9771	-4.4104	-4.4729	188.813	365.428	170.253	371.258	142.926	333.320	40.128	185.995	161.984	368.256	364.750	63.288	359.186	31.888	83.308	52.881	0.00050564	1.5287e-05	8.7868e-05	1103.2	6.2037e-07	6.0147e-06	1196.8	229.39	7.9919e-06	2.0512e-06	293.78	81.329	63.909	19.128	2.4899e-06	26.592	0.00025328	0.00025569	6.9579e-05	1065	2.7534e-06	2.7414e-06	1162.8	225.85	2.7887e-06	2.7521e-06	287.66	80.87	63.004	19.213	2.7397e-06	26.695	33.741	241.965	26.147	32.669	257.567	236.607	32.983	40.281	164.307	228.252	39.940	46.966	47.676	54.994	84.401	53.530	-8191	255	
3152.768	1	1	0	0	0.084846	0.22759	0.044797	0.19173	0.22505	0.071895	0.1159	0.27204	0.20365	0.069034	0.24377	0.25898	0.216	0.18537	0.13275	0.21545	-4.8208	-4.0667	-4.7667	-4.8833	-4.1104	-5.1083	-4.5896	-4.3688	-5.0125	-4.0417	-4.7188	-4.8896	-4.1813	-4.9313	-4.3354	-4.3583	249.811	40.510	26.246	331.512	365.453	170.906	68.929	354.587	176.601	181.355	273.451	276.363	43.760	101.172	221.997	316.925	0.00071038	0.00040327	0.00015012	1097.9	3.0191e-06	3.8327e-06	1192.2	230.41	3.1556e-06	4.6285e-06	293.45	82.092	63.697	18.991	6.599e-06	26.641	0.00025488	0.00025077	6.8912e-05	1063.3	2.7989e-06	2.7771e-06	1161	226.21	2.7423e-06	2.7824e-06	287.2	80.889	63.014	19.173	2.7142e-06	26.654	45.718	122.468	165.116	32.969	239.477	136.980	32.944	40.316	121.846	141.952	40.055	46.930	47.469	54.745	192.961	53.720	-8191	255	
3152.864	1	1	0	0	0.15594	0.089124	0.21663	0.25258	0.13619	0.26411	0.35162	0.10519	0.17365	0.035339	0.19538	0.098834	0.13098	0.098395	0.10117	0.067201	-4.55	-4.1542	-4.6188	-4.9938	-4.2667	-4.95	-4.8167	-4.3146	-5.1271	-4.1667	-4.4333	-5.0708	-4.2271	-5.0521	-4.6854	-4.1354	290.830	61.907	327.728	308.805	354.800	154.761	271.655	221.584	381.550	252.930	262.863	350.358	109.834	285.289	197.513	299.780	0.00057578	0.00042584	0.00020817	1093.1	3.4511e-06	4.6236e-06	1197.7	229.08	9.675e-06	5.2781e-06	291.29	80.739	63.641	18.968	2.194e-06	26.446	0.00025198	0.00024727	6.8552e-05	1063.6	2.7101e-06	2.6816e-06	1161	225.58	2.68e-06	2.6484e-06	287.37	80.68	63.002	19.111	2.6756e-06	26.64	32.908	71.940	88.414	33.168	108.891	116.030	32.773	40.594	123.855	119.531	40.244	47.453	47.278	54.957	309.286	53.602	-8191	255	
3152.960	1	1	0	0	0.11813	0.093433	0.096625	0.16849	0.2063	0.036044	0.38875	0.25093	0.13361	0.18637	0.092931	0.13129	0.29273	0.22779	0.018279	0.14775	-4.7688	-4.2562	-4.4854	-4.9917	-4.0312	-4.8167	-4.9812	-4.2	-4.9437	-4.3854	-4.4812	-5.1125	-4.0146	-4.8458	-4.6625	-4.1729	243.958	342.658	51.697	337.477	86.684	72.565	44.653	359.613	233.652	207.520	345.356	271.357	43.392	81.665	237.385	47.126	0.00044818	0.00018224	8.2629e-05	1099.1	4.2291e-06	3.8465e-06	1191.6	230.52	5.5788e-06	3.0737e-06	291.57	81.5	63.648	18.993	4.5577e-06	26.436	0.00024825	0.00024636	6.8608e-05	1065.9	2.6935e-06	2.6868e-06	1159.5	226.22	2.6489e-06	2.643e-06	286.71	80.878	63.034	19.132	2.6462e-06	26.641	35.622	72.905	102.730	33.279	197.373	200.804	33.267	40.680	198.840	159.739	39.967	47.076	47.529	54.855	163.286	53.616	-8191	255	
3153.081	1	1	0	0	0.21252	0.15248	0.098761	0.19631	0.31427	0.1531	0.065322	0.27838	0.096479	0.37248	0.060413	0.11315	0.27431	0.17498	0.30422	0.1032	-4.6396	-4.5167	-4.3958	-5.1813	-4.0813	-4.6604	-5.1062	-3.9729	-5.0271	-4.4958	-4.3229	-4.9688	-4.1896	-4.6937	-4.9833	-4.0771	363.415	143.332	304.686	341.252	311.800	155.474	83.527	46.349	118.342	89.490	379.037	260.107	88.414	40.940	159.189	102.949	0.00049601	8.6224e-05	6.2283e-05	1095.3	1.8689e-06	4.1532e-06	1189.6	231.35	4.9968e-06	6.4457e-06	294.27	82.163	63.85	19.154	7.3533e-07	26.664	0.00024478	0.00023887	6.7996e-05	1061.6	2.6749e-06	2.6329e-06	1159.6	226.59	2.6291e-06	2.6514e-06	287.4	80.889	62.945	19.162	2.6564e-06	26.662	56.860	188.159	331.946	32.702	67.399	193.303	32.907	40.132	239.484	214.010	39.745	46.562	47.233	54.557	306.802	53.295	-8191	255	
3153.153	1	1	0	0	0.16172	0.19844	0.1302	0.24255	0.07106	0.14485	0.16263	0.022874	0.11501	0.011403	0.10483	0.094857	0.12043	0.27955	0.20483	0.15409	-4.6062	-4.6	-4.1542	-5.2	-4.1521	-4.5458	-5.2438	-4.2521	-4.8729	-4.6792	-4.3542	-4.9771	-4.5687	-4.2979	-5.0125	-4.2937	379.419	176.977	380.684	94.396	44.471	33.363	347.145	109.472	210.331	125.055	336.728	86.861	341.477	112.143	343.033	153.446	0.00047373	0.00028348	5.927e-05	1098	3.1078e-06	1.612e-06	1196.8	231.65	2.6468e-06	3.1776e-06	294.23	82.428	63.585	18.805	4.6863e-06	26.573	0.00024063	0.00023672	6.7299e-05	1061.7	2.6393e-06	2.6089e-06	1160.1	225.74	2.6036e-06	2.6135e-06	286.51	81.012	62.91	19.077	2.6464e-06	26.614	32.187	100.559	83.505	32.478	193.569	355.756	32.601	40.383	89.840	256.191	39.746	47.241	47.445	55.021	168.749	53.481	-8191	255	
3153.249	1	1	0	0	0.33296	0.16995	0.16655	0.18147	0.058025	0.19992	0.25999	0.12165	0.17261	0.090376	0.12519	0.25059	0.23824	0.24661	0.16163	0.13276	-4.5375	-4.7104	-4.2312	-5.2354	-4.2458	-4.4479	-5.125	-4.0938	-4.6271	-4.7417	-4.2729	-4.9271	-4.5333	-4.4104	-4.9437	-4.1792	213.038	150.159	176.480	295.819	310.956	74.468	318.644	322.755	278.585	135.103	322.441	274.050	59.509	365.640	234.669	306.960	0.00065926	0.00023486	0.00010665	1089.1	3.1234e-06	4.0441e-06	1192.9	228.92	4.3374e-06	2.9805e-07	292.07	81.388	63.166	18.947	4.4906e-06	26.835	0.0002444	0.0002361	6.5588e-05	1058.8	2.5849e-06	2.6025e-06	1157	226.06	2.5653e-06	2.4802e-06	286.41	80.566	62.729	19.024	2.5407e-06	26.709	50.023	88.690	189.232	33.043	225.901	140.394	33.208	40.734	159.218	381.998	40.095	47.156	47.457	54.586	167.089	53.126	-8191	255	
3153.368	1	1	0	0	0.13141	0.14645	0.16086	0.28551	0.1053	0.10111	0.26594	0.12311	0.24579	0.22208	0.10347	0.079739	0.27417	0.1214	0.12844	0.15036	-4.3271	-4.7417	-3.9708	-5.0896	-4.4292	-4.2021	-5.2583	-4.1729	-4.5938	-4.775	-4.1792	-4.9708	-4.7	-4.2792	-5.0333	-4.3083	128.308	376.025	336.252	60.097	52.286	128.712	309.877	28.688	172.375	269.069	26.293	296.409	98.158	248.003	164.216	242.991	0.00058585	0.00033464	0.00014126	1106.7	4.9621e-06	1.8697e-06	1193.8	230.99	4.1284e-06	3.2339e-06	292.14	82.192	63.654	19.017	4.3334e-06	26.753	0.00023521	0.00023073	6.4619e-05	1063.5	2.5689e-06	2.5087e-06	1158	225.77	2.4835e-06	2.5247e-06	286.25	80.835	62.844	19.07	2.5023e-06	26.644	70.154	132.330	106.516	32.692	194.774	95.657	32.865	40.219	142.458	157.492	39.604	46.792	47.176	54.588	200.534	53.581	-8191	255	
3153.464	1	1	0	0	0.1501	0.34316	0.19083	0.32281	0.20164	0.14816	0.045872	0.16857	0.11797	0.071821	0.12685	0.25503	0.24642	0.2585	0.16485	0.12644	-4.275	-4.8792	-3.8667	-5.0021	-4.6771	-4.2396	-5.2229	-4.3125	-4.4854	-5.0521	-4.1062	-4.775	-4.7	-4.1687	-4.9104	-4.3604	243.551	345.465	253.917	331.828	170.325	280.928	176.019	260.778	307.332	177.232	364.923	352.650	116.592	37.407	208.973	60.599	0.00047635	0.00038728	2.7078e-05	1099	6.6457e-07	2.3606e-06	1204.1	232.9	5.9423e-06	1.772e-06	295.21	82.271	63.717	19.163	2.5449e-06	26.883	0.00023474	0.0002269	6.3739e-05	1060.5	2.5365e-06	2.5121e-06	1159.9	226.38	2.5326e-06	2.4826e-06	286.53	80.78	62.833	19.077	2.4802e-06	26.71	44.170	87.061	184.096	32.645	185.697	80.725	32.495	40.405	178.014	93.624	39.934	46.847	47.736	54.316	115.277	53.381	-8191	255	
3153.560	1	1	0	0	0.10491	0.15231	0.049061	0.087269	0.13245	0.16954	0.26883	0.071798	0.079369	0.05729	0.089861	0.10727	0.068474	0.036161	0.12272	0.028995	-4.1125	-4.9437	-4.1146	-4.8063	-4.7604	-4.1583	-5.2125	-4.5667	-4.2417	-4.9875	-4.0896	-4.7063	-4.8604	-4.0792	-4.9542	-4.5458	104.613	164.403	178.367	344.287	132.530	95.058	278.226	72.771	27.053	255.145	285.795	217.347	172.999	275.722	141.672	353.870	0.00037849	0.00034661	7.291e-05	1094.7	3.065e-06	2.7526e-06	1192.8	231.05	5.2337e-06	2.8793e-06	295.1	82.382	63.859	18.966	1.6809e-06	26.656	0.00023528	0.00023279	6.4168e-05	1060.4	2.534e-06	2.5134e-06	1156.9	225.54	2.5315e-06	2.5076e-06	286.69	80.912	62.921	19.088	2.4875e-06	26.551	50.695	133.005	193.109	32.832	203.140	122.888	32.927	40.541	137.976	198.591	39.913	46.883	47.643	54.788	149.509	53.842	-8191	255	
#DATA ENDS
