BOXY.EXE: ISS Imagent and Oximeter Data Acquisition Program Version 0.80
Ascii Record File

#ACQ INFORMATION
2  Detector Channels 
16  External MUX Channels 
1  Auxiliary Channels 
5000  Waveform (CCF) Frequency (Hz)
1  Waveforms Skipped 
30  Waveforms Averaged 
1  Cycles Averaged 
16  Acquisitions per Waveform 
10.0806  Updata Rate (Hz) 

#FILE INFORMATION
TRUE -- External MUX Channel results are PARSED.
FALSE -- AC DC and Phase are NOT grouped.
TRUE -- Companion Program Settings File CREATED.
FALSE -- AC data not excluded
FALSE -- DC data not excluded
FALSE -- Phase data not excluded
FALSE -- Auxillary Chn. data not excluded
Tab delimiters

#CALIBRATION STATE
TRUE -- Waveform Calibration Values APPLIED.


#AUX CALIBRATION VALUES
Val Type	aux-1	

Term	1.0000e+00	
Factor	0.0000e+00	


#WF CALIBRATION VALUES
A = Detector Channel
Val Type	A-AC1	A-AC2	A-AC3	A-AC4	A-AC5	A-AC6	A-AC7	A-AC8	A-AC9	A-AC10	A-AC11	A-AC12	A-AC13	A-AC14	A-AC15	A-AC16	A-DC1	A-DC2	A-DC3	A-DC4	A-DC5	A-DC6	A-DC7	A-DC8	A-DC9	A-DC10	A-DC11	A-DC12	A-DC13	A-DC14	A-DC15	A-DC16	A-Ph1	A-Ph2	A-Ph3	A-Ph4	A-Ph5	A-Ph6	A-Ph7	A-Ph8	A-Ph9	A-Ph10	A-Ph11	A-Ph12	A-Ph13	A-Ph14	A-Ph15	A-Ph16	

Term	0.00000e+00	0.00000e+00	0.00000e+00	0.00000e+00	0.00000e+00	0.00000e+00	0.00000e+00	0.00000e+00	0.00000e+00	0.00000e+00	0.00000e+00	0.00000e+00	0.00000e+00	0.00000e+00	0.00000e+00	0.00000e+00	0.00000e+00	0.00000e+00	0.00000e+00	0.00000e+00	0.00000e+00	0.00000e+00	0.00000e+00	0.00000e+00	0.00000e+00	0.00000e+00	0.00000e+00	0.00000e+00	0.00000e+00	0.00000e+00	0.00000e+00	0.00000e+00	0.00000e+00	0.00000e+00	0.00000e+00	0.00000e+00	0.00000e+00	0.00000e+00	0.00000e+00	0.00000e+00	0.00000e+00	0.00000e+00	0.00000e+00	0.00000e+00	0.00000e+00	0.00000e+00	0.00000e+00	0.00000e+00	
Factor	1.00000e+00	1.00000e+00	1.00000e+00	1.00000e+00	1.00000e+00	1.00000e+00	1.00000e+00	1.00000e+00	1.00000e+00	1.00000e+00	1.00000e+00	1.00000e+00	1.00000e+00	1.00000e+00	1.00000e+00	1.00000e+00	1.00000e+00	1.00000e+00	1.00000e+00	1.00000e+00	1.00000e+00	1.00000e+00	1.00000e+00	1.00000e+00	1.00000e+00	1.00000e+00	1.00000e+00	1.00000e+00	1.00000e+00	1.00000e+00	1.00000e+00	1.00000e+00	X	X	X	X	X	X	X	X	X	X	X	X	X	X	X	X	

B = Detector Channel
Val Type	B-AC1	B-AC2	B-AC3	B-AC4	B-AC5	B-AC6	B-AC7	B-AC8	B-AC9	B-AC10	B-AC11	B-AC12	B-AC13	B-AC14	B-AC15	B-AC16	B-DC1	B-DC2	B-DC3	B-DC4	B-DC5	B-DC6	B-DC7	B-DC8	B-DC9	B-DC10	B-DC11	B-DC12	B-DC13	B-DC14	B-DC15	B-DC16	B-Ph1	B-Ph2	B-Ph3	B-Ph4	B-Ph5	B-Ph6	B-Ph7	B-Ph8	B-Ph9	B-Ph10	B-Ph11	B-Ph12	B-Ph13	B-Ph14	B-Ph15	B-Ph16	

Term	0.00000e+00	0.00000e+00	0.00000e+00	0.00000e+00	0.00000e+00	0.00000e+00	0.00000e+00	0.00000e+00	0.00000e+00	0.00000e+00	0.00000e+00	0.00000e+00	0.00000e+00	0.00000e+00	0.00000e+00	0.00000e+00	0.00000e+00	0.00000e+00	0.00000e+00	0.00000e+00	0.00000e+00	0.00000e+00	0.00000e+00	0.00000e+00	0.00000e+00	0.00000e+00	0.00000e+00	0.00000e+00	0.00000e+00	0.00000e+00	0.00000e+00	0.00000e+00	-2.04106e+02	-1.47295e+02	-1.31471e+02	-1.83006e+02	-1.05308e+02	-9.56335e+01	-1.57489e+02	-1.62015e+02	-1.04563e+02	-3.96514e+01	-1.72066e+02	-1.71987e+02	-1.87133e+02	-1.76833e+02	-7.95936e+01	-1.54913e+02	
Factor	7.03256e-05	1.41041e-04	4.05673e-05	1.70326e-01	1.62816e-06	1.33254e-06	1.95207e-01	5.96007e-02	1.84989e-06	1.49910e-06	1.05898e-01	4.16366e-02	9.64820e-02	1.05399e-02	1.79118e-06	2.58797e-02	1.57653e-06	1.61043e-06	4.48186e-07	8.61403e-02	1.75392e-08	1.76000e-08	9.27146e-02	3.00841e-02	1.75714e-08	1.76740e-08	5.11745e-02	1.99295e-02	4.41448e-02	5.29322e-03	1.75939e-08	1.20619e-02	X	X	X	X	X	X	X	X	X	X	X	X	X	X	X	X	



#DISTANCE SETTINGS
A = Detector Channel
A-1	A-2	A-3	A-4	A-5	A-6	A-7	A-8	A-9	A-10	A-11	A-12	A-13	A-14	A-15	A-16	

2.5000e+00	3.0000e+00	2.5000e+00	3.0000e+00	2.0000e+00	3.0000e+00	1.5000e+00	3.0000e+00	3.0000e+00	3.0000e+00	3.0000e+00	3.0000e+00	3.0000e+00	3.0000e+00	1.5000e+00	3.0000e+00	

B = Detector Channel
B-1	B-2	B-3	B-4	B-5	B-6	B-7	B-8	B-9	B-10	B-11	B-12	B-13	B-14	B-15	B-16	

1.0000e+01	1.0000e+01	1.0000e+01	1.4400e+00	1.0000e+01	1.0000e+01	1.5100e+00	1.9400e+00	1.0000e+01	1.0000e+01	1.9900e+00	2.4900e+00	2.4100e+00	2.9000e+00	1.0000e+01	2.9800e+00	




#DATA BEGINS
time	group	step	mark	flag	A-AC1	A-AC2	A-AC3	A-AC4	A-AC5	A-AC6	A-AC7	A-AC8	A-AC9	A-AC10	A-AC11	A-AC12	A-AC13	A-AC14	A-AC15	A-AC16	A-DC1	A-DC2	A-DC3	A-DC4	A-DC5	A-DC6	A-DC7	A-DC8	A-DC9	A-DC10	A-DC11	A-DC12	A-DC13	A-DC14	A-DC15	A-DC16	A-Ph1	A-Ph2	A-Ph3	A-Ph4	A-Ph5	A-Ph6	A-Ph7	A-Ph8	A-Ph9	A-Ph10	A-Ph11	A-Ph12	A-Ph13	A-Ph14	A-Ph15	A-Ph16	B-AC1	B-AC2	B-AC3	B-AC4	B-AC5	B-AC6	B-AC7	B-AC8	B-AC9	B-AC10	B-AC11	B-AC12	B-AC13	B-AC14	B-AC15	B-AC16	B-DC1	B-DC2	B-DC3	B-DC4	B-DC5	B-DC6	B-DC7	B-DC8	B-DC9	B-DC10	B-DC11	B-DC12	B-DC13	B-DC14	B-DC15	B-DC16	B-Ph1	B-Ph2	B-Ph3	B-Ph4	B-Ph5	B-Ph6	B-Ph7	B-Ph8	B-Ph9	B-Ph10	B-Ph11	B-Ph12	B-Ph13	B-Ph14	B-Ph15	B-Ph16	aux-1	digaux	

989.145	1	1	0	256	0.28231	0.25795	0.024757	0.17801	0.18545	0.30837	0.22326	0.35538	0.18974	0.12966	0.15062	0.32046	0.19609	0.20701	0.033493	0.10072	-1.5604	-2.2104	-2.1542	-2.1458	-2.25	-2.0375	-2.2896	-2.1771	-1.7271	-2.4271	-2.1583	-1.9833	-2.3875	-2	-2.1771	-2.5	22.275	99.454	132.417	184.363	-17.995	-112.218	-104.219	153.638	-16.250	201.924	-64.161	-128.158	-100.612	161.518	-86.707	-55.092	0.00045611	0.00018977	4.3836e-05	1180.3	6.4036e-06	3.4002e-06	1274.2	256.01	5.688e-06	2.0626e-06	321.45	86.522	68.851	20.067	5.5959e-06	27.825	0.00034014	0.0003394	9.5101e-05	1157.6	3.7258e-06	3.7427e-06	1254.9	253.96	3.8026e-06	3.8192e-06	318.18	87.343	70.321	20.686	3.8296e-06	28.672	162.849	190.599	18.543	-117.289	226.980	7.820	-117.808	-110.433	-8.364	-73.436	-110.247	-103.756	-104.194	-95.707	39.244	-96.426	-8191	255	
989.241	1	1	0	0	0.28473	0.1448	0.37356	0.13224	0.096811	0.0050434	0.10512	0.24671	0.1567	0.11034	0.18532	0.054531	0.1731	0.086099	0.1361	0.071684	-1.3958	-2.1688	-2.2938	-2.1167	-2.4625	-2.1562	-2.075	-2.325	-2.1083	-2.1208	-2.3292	-2.0396	-2.3229	-2.1083	-2.1542	-2.2812	89.989	-33.466	-102.833	55.327	-36.109	-14.695	-98.367	-82.059	143.787	196.317	98.040	24.589	99.146	163.175	114.452	-83.306	0.0001351	0.00048302	4.2918e-05	1189.4	7.8798e-06	2.0534e-06	1283.7	255.6	2.6379e-06	5.3484e-06	321.33	87.104	68.94	20.401	4.32e-06	27.932	0.00034146	0.0003445	9.5658e-05	1161.6	3.7781e-06	3.7299e-06	1257.4	253.9	3.7372e-06	3.7593e-06	318.41	87.502	70.565	20.795	3.752e-06	28.684	116.980	-117.581	-69.046	-116.941	23.051	46.067	-117.303	-109.815	213.642	11.679	-110.116	-103.767	-103.875	-95.415	-14.589	-95.660	-8191	255	
989.337	1	1	0	0	0.22041	0.16256	0.017797	0.2206	0.17968	0.16509	0.086125	0.106	0.30608	0.21902	0.32019	0.18795	0.27132	0.17107	0.11722	0.13802	-1.3396	-2.3521	-2.1917	-2	-2.1604	-2.1458	-2.1604	-2.3167	-2.1271	-2.1333	-2.2687	-1.9833	-2.3438	-2.1646	-2.0292	-2.5021	40.847	163.546	-33.533	178.935	31.096	-103.385	178.491	-4.893	-74.046	-113.297	158.634	-94.166	212.723	168.989	-52.528	198.049	0.00047513	0.00022242	8.6482e-05	1187.9	6.2937e-06	1.6414e-06	1285.3	257.53	3.2865e-06	2.7842e-06	324.07	87.062	69.3	20.377	5.5473e-06	28.121	0.00034676	0.00034822	9.5935e-05	1163.8	3.8035e-06	3.8125e-06	1260.7	255.29	3.8881e-06	3.847e-06	319.91	87.737	70.937	20.833	4.0089e-06	28.963	180.077	-127.287	61.633	-116.906	-23.962	-69.767	-117.332	-110.138	-42.831	176.092	-110.253	-103.697	-104.236	-95.642	-28.389	-95.590	-8191	255	
989.458	1	1	0	0	0.020365	0.26445	0.12414	0.15412	0.31801	0.19155	0.1765	0.10913	0.1379	0.37391	0.16009	0.21186	0.32626	0.21867	0.19495	0.26267	-1.4104	-1.9271	-2.2521	-2.1542	-2.3229	-2.2208	-2.025	-2.4354	-2.1063	-2.0521	-2.3646	-1.8979	-2.1312	-2.2021	-1.9667	-2.35	43.371	201.207	95.373	225.559	55.193	129.430	99.485	90.954	-101.682	118.699	47.286	-73.518	-116.518	-82.242	102.863	126.150	0.00037842	0.00046741	7.8037e-05	1186.4	4.5995e-06	1.206e-06	1289.8	260.45	3.0052e-06	3.6304e-06	322.6	87.765	70.084	20.341	5.0777e-06	27.834	0.00036443	0.00037138	0.00010351	1165.8	4.1858e-06	4.1899e-06	1266.7	258.87	4.2549e-06	4.2175e-06	323.06	88.927	72.232	21.012	4.3278e-06	29.209	107.550	223.548	28.014	-116.867	145.974	232.216	-116.765	-109.709	3.336	-38.737	-109.914	-103.273	-104.076	-95.427	59.762	-95.444	-8191	255	
989.554	1	1	0	0	0.18807	0.1144	0.2111	0.34721	0.31158	0.17965	0.27553	0.32526	0.36157	0.28335	0.15764	0.095921	0.12219	0.09403	0.21	0.26441	-1.6729	-2.0917	-2.3312	-2.0021	-2.3	-2.2417	-1.8917	-2.3708	-1.8979	-2.0563	-2.3521	-1.9	-2.2583	-2.2104	-2.0312	-2.4729	38.156	-119.818	231.350	128.483	68.982	-111.332	187.432	148.256	-100.382	34.067	-83.999	28.472	12.943	-5.726	-2.394	-112.838	0.00045159	0.00060507	0.00010722	1193.6	1.2093e-06	8.6873e-07	1296.1	263.18	2.6672e-06	2.3299e-06	327.78	87.813	69.832	20.373	8.9771e-06	28.144	0.00039167	0.00039496	0.00010997	1171	4.2678e-06	4.2325e-06	1270.3	260.52	4.2872e-06	4.3176e-06	325.59	88.908	72.709	21.089	4.4004e-06	29.278	147.002	-3.973	-37.782	-116.381	110.679	-101.490	-116.735	-109.503	116.543	124.547	-109.613	-103.497	-103.442	-95.308	5.174	-95.862	-8191	255	
989.648	1	1	0	0	0.12265	0.20015	0.1766	0.095052	0.12207	0.12967	0.19137	0.22171	0.20036	0.2778	0.19649	0.089675	0.086087	0.20341	0.12651	0.15032	-1.7979	-2.0208	-2.3833	-1.9979	-2.2083	-2.2	-1.9792	-2.4646	-2.0667	-1.9104	-2.4104	-1.8917	-2.0625	-2.3354	-1.8771	-2.2	-72.103	32.454	193.023	223.072	153.626	88.628	-112.449	64.032	95.009	135.943	172.963	-62.355	111.861	200.746	77.946	84.039	9.2811e-05	0.0011421	0.00017591	1192.1	2.2212e-06	2.2048e-06	1294	262.75	3.2352e-06	4.5246e-06	326.7	88.065	69.616	20.443	7.806e-06	28.215	0.00039755	0.00040078	0.00011099	1172	4.4119e-06	4.3982e-06	1271.3	261.3	4.4485e-06	4.4604e-06	325.25	89.392	73.074	21.182	4.4658e-06	29.463	62.729	-13.561	-22.159	-116.789	-45.995	25.581	-116.938	-109.919	-8.711	66.221	-110.253	-103.782	-103.916	-95.352	15.509	-95.476	-8191	255	
989.746	1	1	0	0	0.16845	0.13396	0.088269	0.20397	0.16953	0.3785	0.3053	0.18499	0.38841	0.46113	0.54749	0.074406	0.086088	0.045585	0.29023	0.11726	-1.8979	-1.9208	-2.3333	-2.1792	-2.0125	-2.2438	-2.0729	-2.3792	-2.0875	-1.9354	-2.6375	-2.1083	-1.9937	-2.2438	-1.9833	-2.3896	-104.491	-35.667	32.597	220.836	100.929	-77.130	-101.118	133.419	216.925	177.445	224.176	65.165	-12.230	218.903	-40.772	-102.379	0.00018807	0.00035313	0.00015837	1197.1	8.5381e-06	3.2305e-06	1294.1	262.66	6.659e-06	4.6802e-06	329.89	88.344	69.955	20.476	8.3183e-06	28.37	0.00040727	0.00041044	0.00011496	1175.5	4.5251e-06	4.4746e-06	1272.4	262.24	4.4821e-06	4.5123e-06	326.76	89.444	73.339	21.24	4.509e-06	29.57	203.943	-71.482	-35.210	-116.842	-71.103	58.270	-117.188	-109.765	0.692	-91.107	-109.711	-103.564	-103.382	-95.776	27.996	-96.005	-8191	255	
989.840	1	1	0	0	0.14598	0.070341	0.2542	0.17628	0.2109	0.0069292	0.15621	0.040092	0.31245	0.14399	0.077017	0.23866	0.064505	0.27269	0.12785	0.15924	-1.8833	-1.95	-2.3542	-2.1542	-2.0958	-2.2958	-2.2438	-2.3479	-2.4021	-1.7188	-2.4062	-2.1396	-2.0708	-2.3312	-2.1354	-2.3542	132.455	128.176	-16.392	144.855	114.080	74.834	183.090	128.070	-55.472	-114.464	232.848	-94.150	-104.879	-67.734	210.918	-47.319	0.000122	0.000153	4.3945e-05	1196.3	5.4847e-06	3.4607e-06	1295	265.76	4.8383e-06	2.2265e-06	329.37	88.084	71.413	20.461	2.1729e-06	28.2	0.00040844	0.00041524	0.00011505	1175.6	4.5067e-06	4.4673e-06	1276.9	263.99	4.5448e-06	4.5174e-06	327.26	89.57	73.69	21.269	4.5057e-06	29.503	105.546	95.188	-62.857	-116.698	125.611	23.439	-115.194	-108.045	-42.486	63.176	-107.755	-101.735	-101.353	-93.648	-9.063	-93.264	-8191	255	
989.937	1	1	0	0	0.029265	0.1733	0.14681	0.15285	0.12251	0.32468	0.12442	0.059487	0.28851	0.096044	0.10503	0.18455	0.12069	0.080317	0.19224	0.17448	-1.7875	-1.875	-2.4313	-2.3021	-2.0771	-2.3958	-2.1875	-2.3458	-2.2229	-2.0667	-2.4542	-2.3187	-2.2229	-2.425	-2.0792	-2.1667	-86.407	68.219	-118.711	227.535	-66.508	-5.868	195.263	88.037	8.984	185.472	182.484	-33.308	55.054	31.102	215.576	100.685	0.00032825	0.00053589	7.723e-05	1202.5	2.1212e-06	2.3753e-06	1296.1	265.72	5.1292e-06	2.0673e-06	331.14	88.206	70.58	20.638	7.2907e-06	28.337	0.000408	0.00041058	0.00011486	1179	4.5467e-06	4.5495e-06	1276.2	263.97	4.5115e-06	4.5359e-06	328.3	89.835	73.629	21.345	4.5226e-06	29.695	69.528	22.458	-79.596	-114.915	40.775	224.324	-115.143	-107.905	-58.718	13.720	-107.953	-101.735	-101.690	-93.227	-113.781	-93.700	-8191	255	
990.057	1	1	0	0	0.18663	0.075192	0.33688	0.074467	0.21092	0.37227	0.2352	0.10801	0.1359	0.19734	0.068796	0.098469	0.012528	0.25944	0.21606	0.12126	-2.0292	-1.8917	-2.325	-2.2292	-2.0312	-2.3646	-2.425	-2.1833	-2.2646	-2.025	-2.3667	-2.275	-1.7	-2.4229	-2.1875	-2.0917	203.365	67.037	-36.289	231.226	180.037	226.627	113.809	107.082	103.018	213.700	-26.044	173.867	-10.716	-73.346	-103.115	-102.523	0.00036078	0.00077913	5.99e-05	1203.8	4.6031e-06	6.5545e-06	1302.7	266.98	4.1513e-06	4.568e-06	328.5	88.451	70.663	20.479	6.5437e-07	28.324	0.00040776	0.00041586	0.00011481	1177.7	4.5906e-06	4.6045e-06	1277.6	264.35	4.5745e-06	4.5206e-06	327.49	89.702	73.18	21.277	4.499e-06	29.517	177.044	-18.419	232.315	-115.001	-31.527	51.494	-115.333	-108.097	-7.642	67.638	-107.907	-101.586	-101.056	-93.922	55.260	-93.563	-8191	255	
990.153	1	1	0	0	0.14742	0.17021	0.096057	0.28461	0.06548	0.15547	0.021661	0.26254	0.24342	0.20757	0.22687	0.27824	0.1828	0.28098	0.073935	0.11978	-2.0208	-1.9833	-2.2458	-2.1771	-1.9312	-2.5604	-2.3563	-2.1417	-2.3771	-2.1	-2.2083	-2.3208	-1.9292	-2.5958	-2.1208	-2.0104	34.042	28.705	-29.789	193.166	195.365	-75.665	47.278	202.664	191.289	199.960	84.531	233.050	87.030	-92.495	-32.403	136.415	0.00012791	0.0006074	0.00014887	1201.9	4.0574e-06	6.0785e-06	1294.3	265.99	3.9624e-06	5.7532e-07	329.26	87.957	70.605	20.607	5.7084e-06	28.154	0.00040898	0.00040774	0.00011408	1178.7	4.5045e-06	4.4673e-06	1274.9	264.45	4.4933e-06	4.5532e-06	328.38	89.666	73.5	21.342	4.5342e-06	29.525	117.123	-93.529	222.399	-114.918	-10.310	-8.820	-115.233	-108.505	163.138	-67.287	-109.597	-103.309	-103.028	-95.100	95.512	-95.198	-8191	255	
990.250	1	1	0	0	0.19991	0.36789	0.070149	0.051281	0.046252	0.20935	0.1056	0.12326	0.11069	0.047491	0.22746	0.030734	0.1495	0.090346	0.17757	0.14678	-1.8667	-2.0167	-2.0938	-2.5667	-1.9854	-2.3125	-2.3187	-2.0458	-2.4125	-1.9312	-2.3229	-2.3312	-2.0312	-2.3292	-2.0104	-1.825	59.757	48.755	-122.077	127.172	89.621	4.337	119.221	-80.008	-89.363	152.633	193.619	102.843	201.503	-12.892	-84.887	73.385	0.00022663	0.0007407	0.00011202	1201.3	7.6767e-06	2.8834e-06	1294.3	264.8	2.3973e-06	6.5213e-06	330.44	88.406	69.974	20.619	2.0454e-06	28.514	0.00041229	0.00041281	0.00011595	1179.4	4.5747e-06	4.5182e-06	1277.1	264.42	4.5663e-06	4.5841e-06	328.41	90.005	73.614	21.422	4.5629e-06	29.681	134.017	8.984	-56.541	-116.115	-15.489	6.736	-118.031	-111.354	26.101	-13.559	-110.768	-104.767	-103.733	-96.647	161.490	-96.860	-8191	255	
990.321	1	1	0	0	0.54005	0.16277	0.14636	0.28036	0.24626	0.20585	0.31267	0.28353	0.19161	0.19965	0.20652	0.16929	0.13164	0.17547	0.15308	0.1266	-2	-2.0208	-2.0563	-2.4437	-2.0146	-2.3229	-2.2646	-1.9833	-2.2208	-2.2292	-2.275	-2.5292	-1.8458	-2.225	-2.2583	-1.8667	68.325	38.416	-70.497	-123.460	-40.371	73.999	135.493	96.609	-26.202	79.495	2.978	-62.783	163.081	-52.539	104.797	-30.941	0.00029565	4.7317e-05	7.6149e-05	1199.4	3.4892e-06	3.6426e-06	1297.5	265.8	2.265e-06	1.4735e-06	330.46	88.742	70.284	20.615	2.3588e-06	28.525	0.00041391	0.0004194	0.00011619	1179.5	4.5724e-06	4.5239e-06	1278.4	264.85	4.6002e-06	4.5655e-06	329.09	90.143	74.045	21.39	4.5888e-06	29.808	130.075	193.080	-86.422	-117.424	85.102	52.973	-117.186	-110.204	2.914	-100.778	-109.908	-103.876	-105.282	-95.894	27.410	-96.496	-8191	255	
990.417	1	1	0	0	0.079189	0.2188	0.17124	0.24739	0.16071	0.22408	0.33986	0.025414	0.094995	0.23305	0.11284	0.17048	0.27305	0.056564	0.19146	0.19532	-1.925	-2.0563	-1.8958	-2.5	-1.8125	-2.1979	-2.7313	-1.8729	-2.2479	-2.1312	-2.1	-2.4396	-1.9979	-2.2458	-2.1958	-2.0479	1.965	-49.027	123.621	-9.945	-2.639	157.555	155.126	211.169	200.429	-87.241	-49.221	-27.130	-100.659	89.931	5.432	-65.221	0.00049963	0.00051796	0.00010865	1201.8	2.6621e-06	4.6637e-06	1299.7	266.89	6.6333e-06	3.1451e-06	331.45	89.209	70.035	20.838	6.7063e-06	28.548	0.0004223	0.00042018	0.00011775	1179.6	4.6562e-06	4.623e-06	1279.5	265.39	4.6483e-06	4.6698e-06	329.63	90.341	74.039	21.422	4.6554e-06	29.833	149.958	-24.470	6.455	-116.091	181.910	169.922	-116.744	-109.413	-88.522	-77.148	-109.488	-103.229	-102.946	-94.945	-38.756	-95.228	-8191	255	
990.538	1	1	0	0	0.069584	0.14087	0.059502	0.13845	0.29199	0.39856	0.22417	0.16341	0.17606	0.10769	0.18684	0.3233	0.22008	0.088327	0.45447	0.1776	-1.7896	-2.1271	-1.9646	-2.5625	-2.1667	-1.9438	-2.4646	-1.9146	-2.0625	-2.1	-1.9833	-2.325	-1.9479	-1.9625	-2.1896	-1.825	-39.048	-53.306	-75.966	-102.709	118.933	175.720	140.857	-124.641	63.314	102.302	191.511	-53.945	97.673	-71.862	60.380	164.935	0.00022513	0.00020893	5.0879e-05	1199.4	3.8385e-06	2.8594e-06	1295.3	265.62	5.7088e-06	2.5425e-06	330.1	88.649	70.917	20.789	5.8037e-06	28.168	0.00043188	0.00043079	0.00011981	1180.9	4.712e-06	4.7632e-06	1279.2	265.63	4.7389e-06	4.7621e-06	329.5	90.273	74.407	21.501	4.8072e-06	29.803	184.468	105.151	110.651	-117.089	-9.204	-22.024	-117.317	-110.204	-27.043	41.275	-110.098	-103.642	-103.646	-95.858	10.944	-95.466	-8191	255	
990.632	1	1	0	0	0.12604	0.091969	0.13944	0.070217	0.19682	0.052453	0.24643	0.21051	0.067843	0.16646	0.12117	0.20837	0.24082	0.26753	0.13767	0.096655	-1.75	-2.2083	-1.9292	-2.4771	-2.0771	-2.0604	-2.7042	-2.0875	-2.2771	-2.2292	-2.0917	-2.1875	-2.0708	-2.1333	-2.4604	-1.9042	-45.503	-104.363	59.994	-113.734	-34.089	121.648	224.679	228.728	-18.712	-62.554	-115.175	64.613	212.669	34.408	220.155	-97.071	0.00046286	0.00055993	0.00010498	1201.1	3.6189e-06	1.8961e-06	1301.3	265.37	3.8984e-06	7.5039e-06	331.15	88.571	70.357	20.697	6.0323e-06	28.249	0.00043612	0.00044122	0.00012351	1180.9	4.88e-06	4.8894e-06	1281.3	265.64	4.8544e-06	4.875e-06	329.89	90.351	74.527	21.558	4.8488e-06	29.939	143.907	-112.239	-47.707	-117.403	-11.004	-48.679	-117.208	-109.808	185.810	62.502	-108.931	-102.938	-102.939	-95.092	-20.979	-95.500	-8191	255	
990.729	1	1	0	0	0.11855	0.044037	0.23923	0.50688	0.23315	0.31101	0.27384	0.1353	0.087802	0.17831	0.15144	0.12093	0.089281	0.23973	0.12748	0.3356	-1.7375	-2.25	-1.8708	-2.5	-2.1875	-1.9625	-2.5187	-2.0646	-2.0042	-2.3333	-1.9604	-2.125	-2.025	-1.8333	-2.3563	-1.8708	121.019	-95.791	209.170	183.418	41.083	-1.160	174.434	154.999	-61.885	156.904	107.875	130.393	112.692	-37.601	147.388	136.124	0.0002486	0.00025241	9.7663e-05	1204.4	3.6579e-06	8.4357e-06	1299.4	265.74	4.1866e-06	4.5348e-06	331.25	88.429	71.928	20.77	1.7351e-06	28.417	0.00044559	0.00044957	0.00012465	1184.3	4.9006e-06	4.9131e-06	1280.4	265.97	4.9274e-06	4.9207e-06	329.86	90.57	75.05	21.52	4.8933e-06	29.947	80.827	-63.082	196.446	-116.669	-118.716	-44.475	-117.187	-110.017	185.860	7.823	-110.041	-103.782	-104.975	-96.469	202.680	-95.634	-8191	255	
990.826	1	1	0	0	0.036722	0.011	0.022034	0.043171	0.18941	0.16723	0.054982	0.081984	0.13706	0.28156	0.22189	0.052669	0.095676	0.09144	0.21491	0.1172	-1.5958	-2.1937	-1.9458	-2.5021	-2.3083	-1.8604	-2.5792	-2.3187	-2.0146	-2.375	-1.9958	-2.2042	-2.1979	-1.825	-2.3229	-2.2313	-99.210	35.902	231.613	162.168	104.439	-124.941	191.199	-84.858	-23.420	-91.925	213.272	-15.165	187.396	-92.557	-8.264	6.322	0.00037961	0.0005351	0.00012967	1201.5	7.4064e-06	6.5237e-06	1297.5	266.56	8.4714e-06	1.2075e-06	329.52	87.779	71.172	20.707	6.3371e-06	28.349	0.00044291	0.00044916	0.00012559	1182.4	4.9085e-06	4.9352e-06	1280.6	265.97	4.9446e-06	4.9413e-06	330.05	90.374	74.566	21.486	4.8786e-06	29.901	174.274	78.363	-8.542	-116.666	-86.276	-41.143	-116.967	-110.024	-69.981	-55.535	-109.877	-103.504	-104.220	-95.810	4.159	-96.147	-8191	255	
990.921	1	1	0	0	0.069033	0.054033	0.1626	0.23011	0.10555	0.10796	0.35745	0.16363	0.21026	0.28446	0.15106	0.22194	0.19525	0.21061	0.03938	0.17264	-1.5167	-2.5542	-1.8438	-2.4604	-2.4042	-1.8792	-2.3771	-2.2979	-2.0583	-2.4396	-2	-2.1896	-2.4	-1.9229	-2.2667	-2.3729	-35.860	50.610	-10.308	202.358	72.402	-50.377	193.352	173.291	62.704	19.245	-10.332	-6.762	102.575	33.509	30.861	223.915	0.00039527	0.00041588	6.8728e-05	1199.6	6.704e-06	7.1866e-06	1291.4	266.05	5.5557e-06	9.7971e-07	331.48	88.735	71.014	20.59	4.621e-06	28.435	0.00044331	0.0004481	0.0001249	1181.6	4.8431e-06	4.8521e-06	1280.2	266.06	4.8793e-06	4.8748e-06	330.94	90.503	74.797	21.571	4.8538e-06	29.991	119.614	-29.962	166.856	-116.800	-74.827	0.815	-117.993	-110.724	-75.139	56.699	-109.949	-103.294	-103.468	-95.464	202.642	-95.690	-8191	255	
991.017	1	1	0	0	0.22295	0.14632	0.092608	0.25848	0.11868	0.17192	0.24163	0.26778	0.24563	0.18622	0.1143	0.19651	0.068497	0.24096	0.12747	0.20962	-1.4438	-2.3125	-2.2687	-2.1521	-2.3833	-1.9042	-2.3812	-2.4521	-1.9792	-2.3708	-2.1396	-2.1375	-2.3396	-2.0271	-2.0917	-2.2521	156.036	128.274	182.219	-116.649	149.917	-51.116	89.219	187.803	-96.121	-31.758	-41.499	-61.458	85.358	151.245	221.018	15.505	0.00028018	0.00040939	0.00013193	1203.1	4.6184e-06	2.337e-06	1298.2	265.79	3.4553e-06	6.4068e-07	330.02	88.479	71.276	20.603	2.138e-06	28.259	0.00044667	0.00044733	0.00012442	1183.4	4.9441e-06	4.8993e-06	1281.7	265.77	5.0029e-06	5.0209e-06	330.25	90.53	75.585	21.533	5.1662e-06	29.975	52.636	-32.894	-4.102	-117.339	-72.365	68.950	-117.917	-110.701	11.523	123.431	-110.668	-104.251	-104.421	-96.232	30.528	-96.695	-8191	255	
991.138	1	1	0	0	0.17219	0.20936	0.15872	0.31006	0.20807	0.2508	0.28514	0.17653	0.22166	0.15157	0.13671	0.15025	0.057806	0.077175	0.25959	0.2317	-1.4646	-2.5021	-2.0854	-1.9729	-2.4208	-2.0354	-2.3917	-2.4229	-1.7896	-2.4271	-2.2021	-2.1042	-2.3271	-2.1417	-2.0333	-2.275	72.507	209.792	136.357	126.041	166.922	103.538	169.279	164.278	184.890	-52.196	175.477	-62.848	-123.400	230.415	-66.228	-5.309	0.00036306	0.00032439	0.00012199	1198.2	1.5906e-06	3.1052e-06	1296	265.64	9.8332e-06	8.4177e-06	331.52	88.253	70.452	20.61	3.7408e-06	28.431	0.00046984	0.00047245	0.0001312	1182.6	5.0938e-06	5.1151e-06	1282	266.59	5.1604e-06	5.1178e-06	331.43	90.746	75.325	21.569	5.1395e-06	30.104	126.082	-20.555	98.040	-117.438	208.735	16.624	-117.797	-110.372	-58.220	44.211	-110.631	-104.272	-104.536	-96.259	5.202	-96.709	-8191	255	
991.234	1	1	0	0	0.12487	0.28827	0.14423	0.08524	0.11433	0.16133	0.46549	0.27092	0.36856	0.24425	0.069437	0.25529	0.18894	0.34734	0.053776	0.13722	-1.5125	-2.25	-2.0333	-1.9625	-2.4729	-1.9188	-2.1583	-2.35	-1.8813	-2.5438	-2.1521	-2.1708	-2.3521	-2.2167	-2.1021	-2.1708	225.083	-126.462	204.379	150.790	-31.914	-92.918	178.243	190.995	188.903	5.113	184.057	187.832	201.260	21.092	115.994	-73.233	2.6246e-05	0.00047008	8.3154e-05	1204	5.0842e-06	5.4833e-06	1298	267.72	9.4564e-06	9.6593e-06	330.78	89.472	71.006	20.682	2.5886e-06	28.388	0.00046525	0.00046503	0.00012904	1184.7	5.1798e-06	5.0238e-06	1279.5	266.91	5.0393e-06	5.0971e-06	330.78	90.716	75.24	21.543	5.0158e-06	29.975	-10.755	-120.793	-95.475	-117.412	59.414	4.729	-117.505	-110.592	-89.464	59.210	-109.983	-104.276	-104.178	-95.332	-54.341	-95.857	-8191	255	
991.330	1	1	0	0	0.13405	0.081713	0.19945	0.26992	0.081514	0.13751	0.17834	0.20043	0.21238	0.14417	0.21204	0.11631	0.042191	0.18585	0.055876	0.18082	-1.45	-2.1792	-2.1479	-1.9813	-2.3792	-2.2375	-2.1604	-2.2958	-2.0021	-2.2479	-2.1437	-1.9667	-2.3604	-2.0333	-1.8729	-2.4021	173.609	184.462	-5.692	184.780	171.845	45.132	196.258	87.762	-96.212	101.471	168.407	-111.177	136.575	-29.196	58.390	-20.392	0.0003617	0.00056365	0.00011617	1204.4	6.5578e-06	4.4416e-06	1304.1	267.2	1.5272e-06	4.8821e-06	331.69	88.554	71.104	20.662	6.8809e-06	28.405	0.00045201	0.00045472	0.00012725	1184.3	5.1091e-06	5.0351e-06	1284.1	267.12	4.9935e-06	5.0319e-06	331.17	90.851	75.276	21.554	5.0555e-06	30.027	212.613	217.711	-53.708	-116.040	-90.145	211.435	-116.187	-108.714	-28.233	34.671	-108.877	-102.836	-102.739	-95.077	-24.494	-95.175	-8191	255	
991.426	1	1	0	0	0.19707	0.31713	0.0069388	0.066006	0.41338	0.12663	0.21277	0.41345	0.24884	0.14371	0.1772	0.10977	0.17706	0.31717	0.054928	0.088744	-1.5521	-1.9833	-2.3104	-1.8792	-2.3792	-2.1688	-2.1312	-2.5146	-1.9917	-2.1354	-2.4917	-1.8438	-2.1833	-2.0833	-1.9688	-2.4208	-17.409	-79.773	-55.607	108.301	119.973	55.879	175.896	138.667	152.690	116.122	-109.661	231.557	-109.455	216.139	100.937	105.159	0.00022372	0.00088562	0.00011577	1206.5	5.3071e-06	2.6049e-06	1304.7	268.14	3.2033e-06	3.7023e-06	332.35	89.063	70.692	20.617	2.6864e-06	28.298	0.00046007	0.00046393	0.00012753	1182.6	5.0347e-06	5.0159e-06	1283.1	266.87	5.0206e-06	4.9172e-06	331.42	90.466	74.966	21.501	4.9176e-06	29.947	116.791	-56.543	6.508	-115.644	225.639	30.766	-116.017	-108.674	80.140	-6.707	-108.860	-103.825	-104.057	-95.781	179.061	-96.253	-8191	255	
991.547	1	1	0	0	0.15295	0.12704	0.19542	0.28011	0.16086	0.13154	0.1874	0.087927	0.025898	0.31152	0.029449	0.015853	0.20253	0.16717	0.057779	0.20226	-1.675	-1.8937	-2.3312	-2.0104	-2.3271	-2.1896	-1.8896	-2.5125	-2.0646	-2.0438	-2.3583	-2.05	-2.1875	-2.3042	-1.9396	-2.3563	-54.248	21.537	-51.769	170.561	99.423	120.516	-113.702	167.026	-112.414	154.290	81.325	-112.343	-2.688	180.572	222.030	199.443	0.0002761	0.00075338	0.00010243	1200	6.5868e-07	2.065e-06	1298.3	266.89	1.146e-05	4.6217e-06	332.33	89.097	70.952	20.632	4.3076e-06	28.328	0.00044316	0.0004467	0.00012267	1181.2	4.8302e-06	4.8104e-06	1280.4	265.83	4.7932e-06	4.7714e-06	330.52	90.494	74.125	21.408	4.7181e-06	29.801	172.218	-48.202	-87.704	-116.958	72.935	194.721	-117.032	-109.819	-9.396	67.838	-108.794	-102.817	-102.247	-94.524	-23.514	-94.228	-8191	255	
991.618	1	1	0	0	0.31102	0.13501	0.2433	0.26933	0.064604	0.2689	0.29871	0.17857	0.20379	0.062395	0.22771	0.21119	0.16059	0.36065	0.049233	0.24679	-1.8062	-2.2625	-2.4562	-2.0479	-2.2438	-2.2917	-2.0958	-2.4521	-2.2313	-2.0312	-2.6833	-2.0729	-2.2354	-2.5146	-1.8292	-2.2583	-30.619	-74.961	-77.129	202.601	133.248	55.915	215.013	205.059	-2.485	81.015	196.411	29.552	-31.773	-124.589	30.356	-36.721	0.00034481	0.00021565	0.00025062	1202.8	6.0156e-06	4.0166e-06	1307.5	267.32	1.3575e-06	1.352e-07	330.61	88.814	70.842	20.69	1.9444e-06	28.504	0.00043252	0.000429	0.00012311	1182.7	4.8677e-06	4.8266e-06	1283.6	266.63	4.8671e-06	4.8832e-06	330.83	90.554	74.969	21.461	4.925e-06	29.93	204.747	207.957	-51.325	-115.620	160.977	-27.585	-115.822	-108.549	-21.596	129.420	-109.143	-102.517	-103.373	-95.044	138.850	-95.135	-8191	255	
991.714	1	1	0	0	0.18646	0.08181	0.22075	0.061339	0.20218	0.21803	0.27758	0.17348	0.36692	0.12913	0.27778	0.24635	0.077019	0.30867	0.078295	0.20513	-1.6083	-2.0729	-2.4437	-2.3021	-2.1417	-2.3229	-1.9583	-2.3458	-2.3875	-1.8271	-2.4479	-2.2438	-2.1583	-2.4146	-1.9667	-2.3667	62.994	125.795	198.336	226.572	194.332	54.262	171.209	183.015	-112.694	15.242	170.217	-71.576	214.317	-122.747	-104.732	-88.072	0.00040265	0.00039663	6.8561e-05	1204.9	2.2577e-06	1.5839e-06	1299.9	267.1	9.1229e-06	1.0502e-05	329.4	88.174	71.195	20.645	5.0201e-06	28.599	0.00044117	0.00044624	0.00012331	1183.5	4.8246e-06	4.7271e-06	1281	266.09	4.718e-06	4.7202e-06	329.32	90.081	74.114	21.35	4.623e-06	29.75	142.720	-50.924	-11.209	-116.308	-98.919	-50.263	-116.793	-109.570	200.112	104.014	-109.557	-103.373	-103.027	-95.392	39.206	-95.514	-8191	255	
991.833	1	1	0	0	0.12358	0.19112	0.040679	0.22124	0.04452	0.12589	0.2969	0.29301	0.16513	0.26144	0.21559	0.10717	0.22863	0.28967	0.026341	0.18019	-1.8417	-1.7458	-2.1396	-2.0875	-2.05	-2.3646	-2.0896	-2.3708	-2.1625	-1.8167	-2.3667	-2.0687	-2.0563	-2.3979	-1.8958	-2.0563	116.539	26.386	160.420	170.878	26.241	210.926	113.920	-128.402	1.554	-54.220	137.242	40.877	-99.367	212.219	64.845	-109.288	0.00028346	0.00053663	0.0001153	1203.2	4.7549e-06	2.5394e-06	1303.5	265.96	4.9495e-06	8.2629e-06	330.94	88.648	70.904	20.728	4.1785e-06	28.167	0.00041666	0.00041915	0.00011532	1180.8	4.5324e-06	4.4665e-06	1278.3	264.96	4.4676e-06	4.5109e-06	328.93	89.931	73.461	21.35	4.5029e-06	29.59	160.496	48.439	-93.099	-116.635	-90.971	15.857	-117.935	-110.783	230.253	-7.730	-110.839	-104.856	-103.972	-95.975	81.799	-97.398	-8191	255	
991.930	1	1	0	0	0.15401	0.06731	0.25798	0.3415	0.169	0.1373	0.08687	0.26332	0.065051	0.15876	0.16144	0.068212	0.12835	0.14004	0.19358	0.27785	-1.8458	-1.9792	-2.2458	-2.1354	-1.9229	-2.3187	-2.1521	-2.2687	-2.3563	-1.9292	-2.5333	-2.175	-1.9104	-2.4688	-2.0312	-2.3917	27.867	-117.398	-66.908	221.282	18.547	155.161	159.465	-102.628	-118.159	25.445	-123.532	111.909	59.014	-97.299	197.670	202.249	0.00034072	6.8162e-05	5.975e-05	1202.1	5.713e-06	3.3398e-06	1299.2	266.79	4.6002e-06	2.848e-06	331.9	88.437	71.009	20.708	3.3003e-06	28.072	0.00041576	0.00041913	0.00011482	1177.5	4.5893e-06	4.5673e-06	1279.6	265.59	4.6179e-06	4.653e-06	329.22	90.207	74.437	21.428	4.6427e-06	29.633	173.163	224.607	60.021	-116.867	54.907	-47.362	-117.473	-110.291	-79.551	85.560	-110.387	-104.123	-104.387	-95.685	-78.886	-95.767	-8191	255	
992.026	1	1	0	0	0.23493	0.082878	0.25908	0.33203	0.21477	0.14814	0.21248	0.37546	0.31548	0.081266	0.24147	0.020843	0.081978	0.012886	0.15149	0.27513	-1.7667	-1.9521	-2.1167	-2.25	-1.9604	-2.4396	-2.0938	-1.9583	-2.2708	-1.9958	-2.2625	-2.025	-2.025	-2.225	-1.9917	-2.1333	188.822	-69.837	204.910	207.475	86.143	-19.534	177.099	118.470	204.127	139.855	-45.753	-59.126	95.073	85.376	-33.071	188.785	0.00013293	0.00066476	8.2172e-05	1201.9	1.0879e-06	8.0049e-06	1297.7	266.31	3.1922e-06	4.5681e-06	332.78	88.12	70.985	20.509	5.588e-06	28.428	0.00042106	0.00041883	0.00011626	1180.3	4.5899e-06	4.5125e-06	1280.2	265.28	4.5331e-06	4.6029e-06	329.49	89.825	73.793	21.315	4.5123e-06	29.652	125.117	-51.531	-116.457	-116.693	150.804	-33.631	-117.342	-110.269	91.489	166.939	-110.415	-104.677	-105.037	-96.165	-47.537	-96.213	-8191	255	
992.122	1	1	0	0	0.29733	0.152	0.16228	0.18701	0.14386	0.027106	0.16336	0.35146	0.14422	0.073124	0.24318	0.1602	0.17828	0.30154	0.19213	0.13357	-1.8479	-2.1729	-2.1083	-2.2104	-1.9542	-2.2417	-2.2396	-2.1875	-2.2125	-2.0708	-2.2979	-2.3125	-1.825	-2.5583	-2.1521	-2.0521	209.730	83.734	-102.398	145.959	109.086	-100.020	163.777	196.386	208.283	-116.895	225.249	-97.198	118.771	156.756	145.163	102.549	0.00049705	0.00040883	0.00025951	1201.5	1.879e-06	5.9144e-06	1300	267.58	6.2601e-06	6.2105e-06	330.8	88.488	71.243	20.684	6.9315e-06	28.388	0.00040957	0.00040744	0.00011418	1182.7	4.4301e-06	4.4208e-06	1280.3	265.51	4.4382e-06	4.4638e-06	328.83	90.028	73.607	21.375	4.4703e-06	29.563	133.206	-91.112	-41.978	-117.234	-15.399	-6.902	-117.289	-109.967	-74.547	-56.367	-109.927	-103.931	-103.847	-95.810	-74.469	-95.809	-8191	255	
992.218	1	1	0	0	0.14507	0.15187	0.13444	0.26266	0.12385	0.22702	0.30283	0.13737	0.27406	0.18114	0.18991	0.16204	0.14017	0.1845	0.17842	0.091486	-2.0417	-2.0438	-2.0479	-2.4417	-1.975	-2.2729	-2.4583	-2.1271	-2.5396	-2.1042	-2.1417	-2.5062	-1.9708	-2.55	-2.3229	-2.0542	99.266	155.428	-13.969	135.358	-101.316	104.690	150.627	-112.729	203.018	148.685	-35.374	30.081	180.573	182.145	199.722	-28.364	0.00031592	0.00042229	0.00013406	1202.5	2.6404e-06	2.3354e-06	1304.3	267.37	5.1142e-06	2.1562e-06	332.44	88.561	70.405	20.728	6.2598e-06	28.057	0.00040437	0.00040979	0.00011384	1183.6	4.487e-06	4.533e-06	1281.7	265.7	4.5073e-06	4.5189e-06	329.52	90.051	73.835	21.427	4.6023e-06	29.66	106.871	-15.482	-32.648	-115.544	5.071	62.597	-115.001	-107.817	-48.719	30.913	-107.922	-101.460	-101.299	-93.880	70.717	-94.051	-8191	255	
992.314	1	1	0	0	0.36067	0.18018	0.07726	0.24169	0.037555	0.33591	0.20851	0.11766	0.065559	0.15878	0.0045199	0.13903	0.23477	0.36529	0.14009	0.13715	-2.1104	-2.1	-1.9458	-2.5458	-2.1458	-2.1813	-2.4083	-2.1333	-2.4271	-2.3708	-2.1917	-2.5667	-2.0646	-2.325	-2.3896	-1.8563	210.292	-71.178	-8.498	134.958	-106.627	-109.104	228.273	170.574	194.006	73.179	-80.928	-96.074	233.274	-48.414	82.631	83.089	0.00034362	0.0001331	0.00014297	1206.5	6.296e-06	3.3256e-06	1303.1	266.82	2.1867e-06	5.1534e-06	332.22	88.744	71.048	20.669	7.2963e-06	28.363	0.00041644	0.00042002	0.0001173	1182.8	4.6243e-06	4.6127e-06	1282.3	265.41	4.5875e-06	4.6042e-06	330.39	90.393	74.277	21.439	4.6669e-06	29.778	94.946	-3.270	-75.327	-114.952	-124.957	205.146	-115.475	-108.236	176.460	110.438	-107.998	-101.555	-102.403	-93.425	-43.346	-93.791	-8191	255	
992.410	1	1	0	0	0.14201	0.0067438	0.27321	0.19769	0.15589	0.12693	0.139	0.41779	0.086417	0.12699	0.10822	0.14125	0.11968	0.1968	0.17064	0.2626	-2.0583	-2.1521	-2.1	-2.8187	-2.0687	-2.3521	-2.6833	-2.1042	-2.4188	-2.2729	-2.0438	-2.3792	-2.1292	-2.1813	-2.3771	-2.1292	-56.770	193.768	-44.719	199.431	-35.313	180.683	-117.126	208.385	120.951	-115.748	-55.475	225.267	76.602	212.839	202.804	29.424	0.00041708	0.0002112	3.3483e-05	1206	3.8809e-06	7.3338e-06	1299.6	267.17	1.1393e-06	6.5098e-07	331.87	89.373	70.625	20.703	1.1541e-06	28.185	0.0004276	0.00043202	0.00012024	1182.6	4.8436e-06	4.8394e-06	1283.1	266.66	4.9749e-06	5.0325e-06	330.92	90.868	75.17	21.582	5.0622e-06	29.967	137.278	-93.778	-71.107	-114.995	229.709	-7.640	-115.255	-108.114	87.976	137.435	-108.048	-102.051	-101.847	-93.919	5.444	-93.691	-8191	255	
992.506	1	1	0	0	0.046054	0.063289	0.066227	0.12316	0.24791	0.20481	0.19635	0.26678	0.20427	0.15707	0.27783	0.32048	0.18863	0.2692	0.076648	0.18219	-1.7896	-2.175	-2.0104	-2.6083	-2.0646	-2.1271	-2.5896	-2.1042	-2.2271	-2.1625	-1.9479	-2.5792	-2.2354	-2.0417	-2.3	-2.1458	-28.418	128.545	182.117	227.213	-38.146	5.980	170.892	133.077	230.720	-76.890	113.989	211.586	230.521	48.393	-30.550	77.030	0.00019443	0.00050901	0.00027443	1203.2	1.6583e-06	4.1243e-06	1300.1	267.79	6.4642e-06	5.4513e-06	332.04	88.573	70.361	20.7	6.1991e-06	28.157	0.0004654	0.00046295	0.00013137	1185.5	5.1364e-06	5.0726e-06	1283.7	267.15	5.0674e-06	5.0788e-06	331.09	90.82	74.826	21.541	4.9326e-06	29.825	118.047	-63.112	-30.304	-114.963	14.780	202.670	-115.193	-107.992	-94.338	140.924	-107.977	-101.506	-101.648	-93.985	-40.090	-94.186	-8191	255	
992.625	1	1	0	0	0.16292	0.2016	0.27022	0.21006	0.21211	0.066001	0.28497	0.10984	0.12524	0.24243	0.22059	0.09536	0.06478	0.15172	0.070089	0.1753	-1.7854	-2.4646	-1.9271	-2.5729	-2.2562	-2.1021	-2.6	-2.0125	-2.2792	-2.2792	-1.9708	-2.3812	-2.2521	-2.0938	-2.3146	-2.2292	85.492	55.379	-27.162	201.818	-90.236	-86.080	183.448	-91.924	2.897	-73.533	208.930	56.125	-2.671	-0.983	164.604	-56.994	0.00030441	0.00041164	0.000113	1204.8	3.1389e-06	4.6108e-06	1300.9	267.27	6.6069e-06	4.0379e-06	332.71	88.787	71.437	20.719	1.0579e-05	28.206	0.00044771	0.00045333	0.00012489	1184.8	4.8778e-06	4.9806e-06	1283	266.34	4.9362e-06	4.9328e-06	330.59	90.685	74.962	21.495	4.8819e-06	29.814	128.994	82.573	66.191	-114.957	194.052	6.355	-115.200	-107.992	120.764	80.921	-110.553	-103.902	-104.517	-96.019	19.357	-96.321	-8191	255	
992.721	1	1	0	0	0.23262	0.25867	0.21134	0.39107	0.080179	0.38583	0.38647	0.10163	0.17744	0.1574	0.18631	0.22068	0.045243	0.057886	0.13982	0.219	-1.6417	-2.1875	-1.8625	-2.35	-2.0687	-2.0875	-2.6792	-2.0458	-2.2083	-2.35	-1.8438	-2.1667	-2.0625	-1.975	-2.375	-1.9083	-23.777	144.472	-124.348	229.010	-32.854	66.715	225.690	76.743	138.550	-41.079	120.904	191.350	-128.806	182.367	-119.819	142.699	0.00052009	0.00058025	0.00010539	1198	7.0591e-06	3.3117e-06	1300.7	266.03	7.8652e-06	2.2911e-06	330.8	88.789	71.278	20.598	4.195e-06	28.135	0.00044032	0.00044044	0.00012305	1181.7	4.8556e-06	4.8118e-06	1282.7	266.1	4.8065e-06	4.8306e-06	330.19	90.35	74.3	21.401	4.7087e-06	29.751	164.590	221.073	59.650	-118.415	-94.573	53.705	-118.667	-111.253	212.544	-2.859	-111.174	-104.932	-104.939	-96.709	40.767	-96.612	-8191	255	
992.818	1	1	0	0	0.085201	0.18022	0.15556	0.42955	0.33485	0.073319	0.12062	0.14898	0.1804	0.20715	0.096666	0.32415	0.12087	0.42844	0.13629	0.035399	-1.4167	-2.3167	-1.8479	-2.2188	-2.2042	-1.8062	-2.5458	-2.25	-2.2042	-2.4542	-1.9542	-2.4562	-2.2979	-2.0604	-2.2812	-2.0167	-83.219	161.395	194.248	221.773	-49.071	-111.919	195.109	100.422	-89.758	35.004	187.352	202.074	170.135	62.339	-87.355	150.458	0.00044515	0.00073007	7.7237e-05	1199.1	1.0355e-06	1.8136e-06	1303.8	266.58	8.0571e-06	1.9088e-06	330.52	89.035	70.338	20.467	1.1594e-06	28.159	0.00043018	0.00043075	0.00012009	1182.2	4.6936e-06	4.6758e-06	1282.1	265.42	4.6633e-06	4.5544e-06	329.71	89.996	73.774	21.221	4.4578e-06	29.412	124.383	-18.144	-43.729	-118.165	-64.952	27.134	-118.533	-111.792	-58.287	-28.377	-111.561	-105.146	-105.128	-96.983	36.921	-97.260	-8191	255	
992.914	1	1	0	0	0.18396	0.24074	0.33958	0.17959	0.28079	0.26985	0.21228	0.11873	0.14118	0.058741	0.28365	0.087994	0.067472	0.31678	0.10936	0.07361	-1.675	-2.3812	-2.0062	-2.3688	-2.4583	-2.0271	-2.4146	-2.3083	-2.1083	-2.4062	-2.0396	-2.1646	-2.3979	-1.8083	-2.3479	-2.4417	100.654	-101.128	222.846	-21.914	46.076	206.353	222.217	46.413	-61.654	20.841	-86.803	156.319	120.833	-54.205	-54.840	-113.847	0.00021186	0.0003366	0.00016718	1197.3	4.3403e-06	5.4197e-06	1299.9	265.24	1.0093e-05	3.671e-06	328.88	88.481	70.702	20.471	8.3264e-07	28.175	0.00039856	0.00039714	0.00011142	1179.2	4.3117e-06	4.2381e-06	1277.8	263.7	4.1868e-06	4.1809e-06	327.13	89.598	72.746	21.137	4.2134e-06	29.272	150.275	-81.622	-45.738	-118.142	-93.020	69.807	-118.299	-110.837	-26.620	3.302	-110.975	-105.085	-104.901	-96.805	-98.383	-96.690	-8191	255	
993.010	1	1	0	0	0.16929	0.32863	0.20103	0.15192	0.15147	0.19141	0.22623	0.19851	0.19379	0.23816	0.36722	0.15237	0.29781	0.038267	0.16384	0.1281	-1.5771	-2.2687	-1.7479	-2.2542	-2.3	-2.0958	-2.4708	-2.1083	-1.9667	-2.5187	-2.0979	-2.2438	-2.5062	-2.0896	-2.2979	-2.4042	-43.572	-9.048	-23.465	-93.551	-43.569	35.781	187.429	201.782	104.505	207.723	114.587	-119.065	-41.735	-9.338	212.814	-119.056	0.00037815	0.00013931	7.1358e-05	1207.6	8.2649e-06	1.7685e-06	1298.1	265.5	5.4279e-06	1.8534e-06	327.78	88.489	70.679	20.569	6.5372e-06	28.154	0.00038551	0.00038959	0.00010901	1181	4.373e-06	4.3127e-06	1277.7	263.69	4.443e-06	4.4325e-06	327.51	89.695	73.409	21.269	4.6212e-06	29.442	153.323	-61.215	164.024	-118.002	12.992	4.427	-117.876	-110.891	-47.518	-109.537	-110.890	-104.432	-104.282	-96.381	25.558	-96.024	-8191	255	
993.106	1	1	0	0	0.3789	0.31351	0.18454	0.34848	0.16539	0.15588	0.214	0.20034	0.036708	0.087789	0.039249	0.21558	0.14441	0.16518	0.072475	0.16784	-1.6521	-2.5667	-2.0729	-2.2708	-2.3458	-2.1792	-2.3021	-2.4625	-1.8687	-2.4667	-2.5438	-2.1188	-2.5792	-2.3271	-2.3375	-2.4479	24.814	84.138	-123.469	164.232	-31.204	-41.290	107.880	140.973	187.476	197.785	-37.517	188.363	-64.450	-96.927	101.843	-105.325	0.0004421	0.00074819	0.00020804	1197	3.4298e-06	3.2052e-06	1296.8	265.87	1.9638e-06	3.0968e-06	330.67	88.543	70.704	20.433	1.4325e-06	28.461	0.00042711	0.00042414	0.00011901	1178.7	4.6284e-06	4.6843e-06	1279	264.34	4.6603e-06	4.6245e-06	328.54	89.853	73.587	21.279	4.6488e-06	29.637	157.561	-42.147	25.941	-117.496	-123.001	42.815	-117.521	-110.285	-119.861	-26.039	-108.054	-101.892	-101.274	-93.934	197.787	-94.105	-8191	255	
993.227	1	1	0	0	0.27231	0.30329	0.24585	0.10551	0.13853	0.24007	0.14035	0.2695	0.097309	0.21853	0.16933	0.11333	0.089268	0.31434	0.17227	0.11548	-1.6208	-2.6021	-2.1646	-2.1083	-2.6375	-2.2208	-2.5187	-2.7	-1.9354	-2.5312	-2.4521	-2.1063	-2.5229	-1.8438	-2.4542	-2.5271	1.613	76.908	102.269	-107.789	105.338	55.973	137.582	134.198	2.655	-29.842	11.980	14.185	49.297	-10.468	139.393	118.560	0.00020531	0.00032973	2.5104e-05	1204	6.3216e-06	3.9249e-06	1298.1	266	6.0449e-06	4.8439e-06	330.56	88.586	70.06	20.681	4.5627e-06	28.152	0.00041933	0.00042016	0.00011624	1180.3	4.6012e-06	4.5779e-06	1279.4	264.46	4.5773e-06	4.5972e-06	327.41	89.938	73.457	21.291	4.5328e-06	29.501	38.417	89.899	-106.151	-114.813	130.347	60.904	-115.128	-108.021	-50.583	107.661	-107.958	-101.034	-101.990	-93.675	84.056	-94.063	-8191	255	
993.323	1	1	0	0	0.19626	0.10782	0.1368	0.24262	0.062105	0.049177	0.21687	0.065636	0.13813	0.049316	0.15625	0.10954	0.15618	0.096158	0.24374	0.12956	-1.575	-2.5625	-2.1333	-2.2167	-2.5563	-2.3812	-2.5354	-2.5812	-1.9604	-2.5271	-2.3083	-2.1437	-2.3937	-2.0958	-2.1646	-2.5187	178.588	-33.994	-21.128	109.343	-111.258	-38.074	156.758	204.302	225.063	48.439	233.022	233.768	178.985	142.246	18.116	223.786	0.00043571	0.00023797	0.00011707	1201.7	3.2328e-06	3.5113e-06	1303.7	266.15	2.121e-06	3.9647e-06	330.52	89.055	70.997	20.484	4.6349e-06	28.125	0.00041153	0.00040565	0.00011396	1180.2	4.4809e-06	4.4441e-06	1278.5	264.02	4.4194e-06	4.3964e-06	328.49	89.803	73.32	21.22	4.382e-06	29.312	101.539	177.799	-111.151	-114.965	40.232	-11.366	-115.285	-108.143	67.609	-4.285	-107.652	-101.344	-102.215	-96.962	177.104	-96.867	-8191	255	
993.419	1	1	0	0	0.14974	0.21787	0.10263	0.58992	0.093735	0.12716	0.16652	0.26138	0.1008	0.21332	0.15511	0.21007	0.18582	0.15584	0.10141	0.1897	-1.6521	-2.1729	-2.4125	-1.9979	-2.3229	-2.2687	-2.3271	-2.5167	-1.9896	-2.1896	-2.2229	-2.0917	-2.2625	-2.3021	-2.1104	-2.5604	47.613	-30.865	162.959	180.840	-30.259	85.786	197.302	219.888	-99.015	121.940	100.567	-114.371	-34.448	-122.216	5.014	91.510	0.0003051	0.00025562	0.00020035	1205.6	1.9261e-06	5.3627e-06	1296.6	263.44	5.8931e-06	9.2409e-07	329.54	88.666	70.753	20.67	2.5747e-06	27.876	0.0003915	0.00039053	0.00010725	1179.6	4.194e-06	4.2201e-06	1277.3	263.26	4.2688e-06	4.2346e-06	327.42	89.315	73.034	21.166	4.2628e-06	29.239	70.374	-62.039	-35.029	-118.196	21.788	18.776	-118.262	-111.227	-22.124	114.553	-111.095	-104.868	-104.146	-97.176	74.037	-97.466	-8191	255	
993.515	1	1	0	0	0.10891	0.11034	0.33533	0.071939	0.12562	0.3515	0.097823	0.10921	0.27464	0.27824	0.23625	0.28829	0.02518	0.032913	0.16954	0.15322	-1.775	-2.1417	-2.2667	-2.2271	-2.3688	-2.2417	-2.2417	-2.5667	-2.1354	-2.0208	-2.5438	-1.9729	-2.1479	-2.2938	-1.9167	-2.4667	-72.381	-0.093	-93.895	-99.819	228.353	-9.319	-105.306	127.155	11.285	22.186	124.208	226.350	176.081	172.444	-52.566	33.121	0.00051907	0.00021362	0.00012483	1204.2	2.9043e-06	4.4835e-06	1296.4	266.18	4.3588e-06	1.8009e-06	330.91	87.838	69.383	20.475	8.3584e-06	28.296	0.00038634	0.00039065	0.00010568	1179.2	4.2473e-06	4.2515e-06	1276.9	263.78	4.1588e-06	4.223e-06	326.79	89.371	72.306	21.066	4.1516e-06	29.229	130.220	-45.889	56.391	-117.871	32.468	56.388	-118.526	-111.106	86.408	104.573	-111.140	-104.824	-104.358	-96.842	-27.397	-97.238	-8191	255	
993.610	1	1	0	0	0.088508	0.40588	0.20077	0.11353	0.35521	0.11587	0.40377	0.23657	0.079929	0.12807	0.0033677	0.10969	0.17965	0.19528	0.20288	0.021389	-1.75	-2.0312	-2.3	-2.1021	-2.2042	-2.3896	-2.1333	-2.4396	-2.1542	-2.1958	-2.5125	-2.0208	-2.1875	-2.3667	-1.9104	-2.5146	-105.287	108.506	23.284	-82.549	-92.788	178.593	220.848	205.909	8.485	201.295	117.340	-127.248	183.430	196.259	-85.720	198.834	0.00030455	0.00040858	0.00013018	1202	7.1018e-06	4.0574e-06	1298.9	265.41	5.8185e-06	7.1957e-06	328.55	88.463	69.714	20.432	6.6914e-06	27.96	0.00037594	0.00037427	0.00010465	1178	4.1419e-06	4.1546e-06	1277.6	263.52	4.1826e-06	4.1824e-06	326.82	89.306	72.772	21.136	4.1951e-06	29.176	160.064	229.691	-12.432	-118.289	198.415	-98.041	-118.596	-111.460	84.536	33.741	-111.253	-104.967	-106.100	-96.791	-17.139	-97.340	-8191	255	
993.706	1	1	0	0	0.082709	0.20243	0.2751	0.13125	0.056522	0.25244	0.11456	0.19156	0.061332	0.099721	0.21169	0.067682	0.13547	0.070138	0.03608	0.14248	-1.6708	-1.9937	-2.4	-2.0812	-2.2542	-2.4646	-2.0312	-2.5187	-2.1271	-1.85	-2.4813	-2.1937	-2.25	-2.2833	-2.0396	-2.3792	180.426	-73.174	81.184	176.813	197.134	-98.841	180.572	167.808	223.397	84.611	117.510	184.231	-1.639	161.132	99.426	100.159	0.00029849	0.0002186	6.6308e-05	1201.6	3.2713e-06	4.6347e-06	1295.7	264.58	2.9815e-06	2.8168e-06	328.74	88.212	69.288	20.587	7.8773e-07	27.909	0.00037843	0.00038	0.00010564	1177.7	4.1352e-06	4.0937e-06	1275.5	263.15	4.1512e-06	4.1654e-06	326.86	89.278	72.059	21.153	4.159e-06	29.141	128.774	-65.653	-79.350	-118.394	95.280	182.133	-118.072	-110.934	-7.873	88.020	-110.835	-105.066	-105.516	-96.419	-67.359	-97.118	-8191	255	
993.802	1	1	0	0	0.066748	0.14159	0.3856	0.35467	0.16942	0.073801	0.19742	0.4116	0.21672	0.12423	0.33092	0.1847	0.16887	0.18683	0.12505	0.13357	-1.6771	-2.1208	-2.4104	-2.2062	-2.0396	-2.2583	-2.0938	-2.3229	-2.1167	-2.0646	-2.4979	-2.0167	-2.1125	-2.5438	-2.0146	-2.3354	77.699	56.767	-103.856	148.527	121.231	-57.202	205.567	174.986	-15.169	221.283	200.101	121.744	142.862	163.099	-121.820	36.660	0.00040667	0.0004376	2.9033e-05	1205.4	2.8967e-06	5.5482e-07	1297.3	264.66	4.2171e-06	2.2417e-06	327.93	88.581	70.811	20.389	5.0789e-06	28.329	0.0003775	0.00038013	0.00010606	1179.7	4.2379e-06	4.2108e-06	1277.5	263.57	4.2285e-06	4.2087e-06	327.21	89.491	72.999	21.158	4.2521e-06	29.34	155.950	15.971	145.089	-117.982	-31.929	87.682	-118.474	-110.818	-19.163	162.060	-110.704	-104.548	-104.998	-96.167	-12.838	-96.953	-8191	255	
993.922	1	1	0	0	0.21126	0.35818	0.20024	0.24352	0.20522	0.073486	0.12681	0.19717	0.12698	0.17168	0.12661	0.28399	0.082318	0.2785	0.094752	0.159	-1.8646	-2.0729	-2.4104	-2.2792	-1.9875	-2.6771	-2.1188	-2.4417	-2.3937	-1.9854	-2.4292	-2.4208	-2.1104	-2.6312	-2.2625	-2.3187	20.650	-118.846	-90.212	152.912	207.210	-31.070	144.415	182.299	135.617	96.250	-94.923	139.626	218.911	-102.166	-24.481	168.271	0.00026101	0.00058641	0.00018608	1196.3	1.7095e-06	1.4808e-06	1300.6	265.77	4.9613e-06	2.3009e-06	330.05	88.964	70.54	20.592	2.8672e-06	28.336	0.00039368	0.00039153	0.00010884	1178.4	4.2702e-06	4.283e-06	1277.1	263.54	4.3185e-06	4.2977e-06	327.31	89.594	72.675	21.165	4.2506e-06	29.39	175.653	-71.263	-91.409	-117.477	-83.986	25.423	-116.482	-107.794	-42.993	188.320	-107.866	-101.733	-101.719	-93.819	-112.492	-93.977	-8191	255	
994.019	1	1	0	0	0.032335	0.29847	0.066527	0.22031	0.2262	0.071135	0.18524	0.18873	0.23918	0.14142	0.1158	0.2534	0.16978	0.25937	0.22793	0.22236	-2.0333	-2.0271	-2.3937	-2.4125	-1.9354	-2.3667	-2.3333	-2.4521	-2.425	-2.0083	-2.6458	-2.2917	-1.9062	-2.5563	-2.1521	-2.2479	178.361	-54.249	107.884	212.457	18.567	124.203	195.753	198.338	42.701	114.879	131.358	-76.957	-95.968	90.485	-7.170	221.006	0.00019704	0.000414	0.00020572	1206.1	8.5952e-06	2.0516e-06	1302.8	266.1	5.0605e-06	4.9416e-06	331.26	88.754	70.315	20.586	3.1709e-06	28.22	0.00038465	0.00038788	0.00010761	1180.4	4.2361e-06	4.1866e-06	1278.2	263.23	4.2485e-06	4.2528e-06	327.74	89.492	72.841	21.17	4.2643e-06	29.293	82.522	-69.004	-49.107	-114.853	-44.825	99.260	-115.037	-107.853	-63.027	30.741	-107.873	-101.301	-101.566	-93.540	34.866	-94.309	-8191	255	
994.090	1	1	0	0	0.21613	0.074484	0.15669	0.38919	0.05815	0.21944	0.10001	0.10746	0.23696	0.28511	0.22912	0.19783	0.16799	0.19182	0.094798	0.17414	-2.0375	-1.8188	-2.3312	-2.4104	-1.975	-2.5125	-2.4542	-2.0979	-2.4083	-2.1188	-2.2979	-2.3063	-2.2271	-2.6167	-2.2708	-2.2062	-52.231	40.914	164.596	163.033	126.020	109.833	-110.103	93.465	-98.528	104.106	106.330	181.650	193.988	-27.186	-50.037	-101.504	0.00014465	0.00010527	7.4858e-05	1202.3	2.4017e-06	3.2005e-06	1295.1	264.79	6.5076e-06	3.5232e-06	331.31	88.638	70.713	20.631	8.2223e-06	28.492	0.00039131	0.00038996	0.00010697	1179.6	4.2917e-06	4.2381e-06	1274.5	263.18	4.3117e-06	4.3011e-06	327.83	89.41	72.765	21.2	4.2627e-06	29.401	160.649	-10.741	-22.050	-114.819	18.286	31.355	-115.203	-107.799	92.135	23.875	-108.168	-101.562	-101.725	-93.485	22.625	-93.844	-8191	255	
994.186	1	1	0	0	0.31853	0.21452	0.26672	0.21624	0.16612	0.2386	0.25372	0.089063	0.28402	0.2703	0.2549	0.053636	0.20463	0.060044	0.10626	0.10994	-2.1188	-1.9396	-2.325	-2.4167	-1.9708	-2.4604	-2.2979	-2.2021	-2.5292	-2.1437	-2.2938	-2.475	-2.0354	-2.4313	-2.3187	-1.9125	-8.029	-31.872	-60.731	200.258	75.094	-98.247	151.272	135.654	137.935	138.247	141.424	166.049	102.141	-90.107	196.174	52.623	0.00032077	0.00045468	7.7462e-05	1200.1	6.8783e-06	5.5453e-06	1302.4	265.77	5.4729e-06	2.2778e-06	330.63	88.094	70.611	20.529	8.5887e-06	28.277	0.00038742	0.00038905	0.00010865	1177.7	4.2254e-06	4.1797e-06	1277.2	263.18	4.2553e-06	4.2171e-06	326.93	89.25	72.284	21.121	4.1271e-06	29.217	142.366	17.840	78.448	-114.965	190.481	-21.764	-115.174	-108.114	-114.876	95.815	-108.252	-101.548	-101.379	-93.411	109.993	-93.754	-8191	255	
994.307	1	1	0	0	0.19617	0.11743	0.10709	0.22212	0.18936	0.14851	0.21461	0.12413	0.15581	0.12292	0.23823	0.27661	0.10582	0.10348	0.32104	0.18736	-2.3292	-2.0292	-2.2146	-2.3917	-2.0042	-2.3458	-2.6833	-2.0979	-2.4604	-1.9813	-2.2687	-2.5896	-2.0938	-2.4208	-2.425	-1.8771	135.847	155.414	-76.032	204.378	61.555	221.289	-79.162	171.600	-7.823	8.208	193.946	204.291	-21.931	48.861	77.188	190.149	0.00033446	0.00035706	7.8675e-05	1205.2	2.4562e-06	1.529e-06	1300.2	265.1	2.0336e-06	8.7916e-06	330.94	88.735	71.136	20.498	3.8259e-06	28.151	0.00037802	0.00037794	0.00010359	1178	4.065e-06	4.0777e-06	1274.8	262.74	4.0239e-06	4.025e-06	326.65	89.151	72.094	21.052	3.9514e-06	29.027	86.791	-79.223	-87.047	-114.978	12.436	202.240	-115.284	-107.780	-77.862	110.500	-107.832	-101.844	-101.529	-93.684	-24.611	-93.868	-8191	255	
994.403	1	1	0	0	0.14021	0.1084	0.1645	0.21715	0.22748	0.27413	0.28682	0.14326	0.15284	0.29584	0.35803	0.11686	0.22522	0.095992	0.18248	0.12234	-2.125	-2.0917	-2.0896	-2.4104	-2.1229	-2.2604	-2.4813	-2.1271	-2.3208	-2.1646	-2.0396	-2.3354	-2.2083	-2.1646	-2.3583	-1.9292	-109.650	29.468	100.891	183.395	-19.234	113.674	128.801	182.545	-74.005	-47.672	180.669	-53.498	-45.493	22.413	82.758	190.086	0.00032309	0.000495	4.7995e-05	1196.3	3.3609e-06	4.7021e-06	1293.8	264.23	8.4851e-06	1.8174e-06	327.99	88.222	70.576	20.407	9.5658e-06	28.494	0.00035924	0.00036142	0.0001002	1176.7	3.9223e-06	3.8587e-06	1274.1	262.09	3.9393e-06	3.8684e-06	325.91	88.938	71.861	20.999	3.8686e-06	29.02	114.541	-108.857	22.050	-118.211	-69.450	-21.605	-118.248	-110.880	-45.196	-11.093	-111.006	-104.543	-104.801	-96.606	-15.151	-96.943	-8191	255	
994.499	1	1	0	0	0.39909	0.37776	0.23822	0.28917	0.18074	0.35277	0.050971	0.21304	0.11237	0.074609	0.023899	0.10567	0.24656	0.1149	0.16506	0.1485	-1.9729	-2.2313	-2.1729	-2.5604	-1.95	-2.1042	-2.4333	-2.1167	-2.3438	-2.2792	-1.9521	-2.5125	-1.9562	-2.2083	-2.4604	-1.9479	-71.613	114.395	-3.178	204.332	53.956	-127.119	44.898	218.149	104.680	144.152	-34.103	11.608	108.332	83.146	-3.044	-95.400	0.00028914	0.00031166	0.00016951	1201	2.6686e-06	3.0948e-06	1295	264.29	6.5838e-06	5.4016e-06	328.91	87.597	69.527	20.278	1.2346e-06	28.002	0.00035998	0.00035778	9.9893e-05	1176	3.9287e-06	3.9697e-06	1274.3	262.37	4.0235e-06	4.0484e-06	325.05	88.845	72.238	21.023	4.0606e-06	29.065	171.736	-112.777	13.763	-117.213	102.352	-62.260	-118.430	-111.197	-93.805	17.932	-110.879	-104.899	-104.935	-96.384	64.239	-96.092	-8191	255	
994.620	1	1	0	0	0.15959	0.17245	0.34619	0.33703	0.077448	0.042818	0.22321	0.24051	0.11217	0.052941	0.24182	0.19092	0.043035	0.085124	0.1264	0.22181	-1.9792	-2.1458	-2.0104	-2.6188	-2.0875	-2.3417	-2.6167	-2.0312	-2.1583	-2.4792	-1.9583	-2.3146	-2.15	-2.2646	-2.6188	-1.8083	191.119	-23.361	15.141	210.230	105.593	120.138	145.950	110.776	-40.902	225.972	-106.335	131.484	223.349	217.115	-36.663	187.838	0.00029005	0.00022933	9.0205e-05	1195.7	2.0455e-06	7.9569e-07	1292.1	263.4	4.6426e-06	9.2295e-07	328.09	87.945	70.949	20.45	4.2642e-06	28.263	0.00037071	0.00037698	0.00010516	1176	4.0936e-06	4.1215e-06	1273.7	262.06	4.1022e-06	4.0813e-06	325.53	89.067	72.399	21.045	3.9912e-06	29.228	110.001	-84.772	-123.874	-117.377	-89.381	68.150	-117.203	-110.571	-57.281	75.408	-110.478	-103.974	-103.875	-95.630	23.313	-96.678	-8191	255	
994.716	1	1	0	0	0.1913	0.11517	0.22856	0.36037	0.36559	0.34691	0.23801	0.34056	0.27188	0.28468	0.070716	0.12002	0.2176	0.093976	0.05808	0.14127	-1.9771	-2.3854	-2.15	-2.5333	-2.1271	-2.1854	-2.7729	-2.2229	-2.2062	-2.4562	-1.85	-2.3479	-2.1854	-1.9958	-2.4583	-1.9229	9.967	182.257	129.496	226.792	112.517	-106.147	217.395	191.070	-79.080	197.282	-47.852	-110.090	156.143	110.629	83.994	198.478	0.00036118	0.00029898	6.6607e-05	1195.2	5.2597e-06	5.5435e-06	1296.7	264.56	2.945e-06	6.8738e-06	329.79	88.497	69.844	20.489	3.6845e-06	28.106	0.00036799	0.00036563	0.00010233	1175.1	4.0003e-06	3.9848e-06	1273.8	262.31	3.9909e-06	3.9897e-06	326.45	89.071	71.888	21.061	4.0666e-06	29.169	73.838	-9.409	-49.211	-116.337	-82.645	-22.903	-115.082	-107.846	165.150	18.150	-108.039	-101.362	-101.460	-93.165	122.561	-94.016	-8191	255	
994.788	1	1	0	0	0.18563	0.23408	0.39742	0.19851	0.16286	0.072322	0.39064	0.11991	0.19908	0.078002	0.21032	0.094556	0.19279	0.35968	0.13442	0.17836	-1.6896	-2.3604	-1.9562	-2.6688	-2.2167	-1.8917	-2.5979	-2.1875	-2.3833	-2.4292	-2.1458	-2.3333	-2.3042	-2.0729	-2.4625	-2.1375	207.684	-95.811	103.695	141.584	2.742	-62.790	195.004	-102.497	99.734	-87.738	-101.159	-50.172	-100.495	4.608	85.287	124.680	0.00063396	0.00040328	9.3103e-05	1198.5	1.8431e-06	3.7643e-06	1300.4	265.04	8.4876e-06	1.0414e-05	328.49	87.775	70.778	20.516	2.5444e-06	27.761	0.00036827	0.00037142	0.00010334	1175.5	4.0678e-06	4.081e-06	1272.8	262.63	4.07e-06	4.048e-06	326.05	89.012	72.207	21.022	4.042e-06	29.04	156.249	-41.087	-36.792	-115.002	76.637	67.424	-115.113	-108.059	-3.730	28.060	-107.967	-101.056	-102.388	-93.314	29.516	-93.949	-8191	255	
994.907	1	1	0	0	0.23458	0.26752	0.13205	0.31096	0.1555	0.095979	0.032912	0.39892	0.24771	0.25863	0.20271	0.081565	0.068675	0.32308	0.12296	0.17373	-1.6854	-2.4625	-1.9667	-2.3937	-2.2583	-2.1792	-2.6542	-2.2833	-2.0771	-2.5542	-2.0979	-2.1	-2.3625	-1.825	-2.3854	-2.3104	-76.976	160.362	-86.003	212.164	-17.648	27.224	-75.134	191.826	185.476	229.054	172.384	191.351	-95.843	-93.775	0.632	-70.422	0.00019104	0.0004094	7.4156e-05	1202.6	1.4444e-06	3.1125e-06	1300.1	263.1	6.5211e-06	3.6792e-06	327.72	88.449	71.183	20.426	2.6599e-06	27.927	0.00036563	0.00037182	0.00010308	1174.5	4.0634e-06	4.0689e-06	1273.4	261.62	4.0688e-06	4.0251e-06	325.23	88.966	72.238	21.08	4.0535e-06	28.981	77.041	106.638	214.111	-114.838	190.755	-10.088	-116.573	-108.994	-41.735	-15.309	-110.488	-104.128	-104.099	-96.194	-23.400	-97.091	-8191	255	
995.003	1	1	0	0	0.1182	0.037491	0.16128	0.34414	0.040241	0.079292	0.20784	0.026676	0.14726	0.23612	0.15311	0.13031	0.18117	0.25716	0.10953	0.27516	-1.5396	-2.4771	-1.9854	-2.2562	-2.4917	-1.8	-2.525	-2.25	-2.0792	-2.5167	-2.1667	-2.2021	-2.0292	-2.0458	-2.2542	-2.3063	-52.257	-70.785	219.072	153.056	-56.558	70.601	190.618	191.396	119.165	-50.570	95.125	-65.518	75.766	41.533	94.877	54.108	0.00023389	0.00043676	6.1126e-05	1199.5	4.3322e-07	3.2055e-06	1295.5	264.38	7.5554e-06	6.0159e-06	327.84	87.886	70.273	20.51	8.559e-07	28.08	0.00037189	0.00037547	0.00010481	1177	4.1258e-06	4.1247e-06	1274	262.24	4.1773e-06	4.1407e-06	326.1	88.983	72.501	21.078	4.1567e-06	29.133	201.638	-81.974	102.583	-117.383	174.956	98.322	-117.959	-111.063	-39.713	0.875	-111.163	-104.722	-105.050	-97.281	208.722	-96.909	-8191	255	
995.099	1	1	0	0	0.097258	0.14979	0.23676	0.34376	0.12931	0.20086	0.24737	0.40008	0.34963	0.060444	0.12579	0.044982	0.060856	0.30384	0.16534	0.14782	-1.2812	-2.5187	-1.9021	-2.1104	-2.4	-1.8687	-2.4542	-2.3125	-2	-2.45	-2.1562	-2.1958	-2.4938	-1.9312	-2.2021	-2.2708	203.088	135.538	164.053	219.035	43.188	221.532	191.637	214.001	217.730	96.529	190.748	68.890	42.148	86.367	164.319	-17.068	0.00050388	0.00032876	6.1833e-05	1193.1	2.1364e-06	1.6322e-06	1295.6	263.56	5.0654e-06	2.3335e-06	327.98	88.234	70.934	20.615	6.4221e-06	28.034	0.0003771	0.00037335	0.00010451	1173.2	4.1503e-06	4.108e-06	1271.7	262.03	4.089e-06	4.1324e-06	325.49	88.922	72.19	21.097	4.1346e-06	29.15	104.574	-51.425	-30.224	-118.096	100.070	-7.195	-118.375	-110.837	203.585	151.512	-111.176	-104.555	-105.596	-96.474	74.442	-96.239	-8191	255	
995.220	1	1	0	0	0.09482	0.2591	0.17117	0.14858	0.23363	0.12195	0.21505	0.17152	0.38245	0.198	0.16402	0.17633	0.18512	0.13747	0.1237	0.17875	-1.4292	-2.1562	-2.0854	-2.1063	-2.2771	-1.9625	-2.3833	-2.3979	-1.7583	-2.3083	-2.2958	-1.9146	-2.5687	-2.0563	-2.2042	-2.4583	4.426	-30.722	-82.050	224.587	-95.197	161.788	147.105	141.759	42.803	108.461	172.061	141.228	37.598	112.910	52.381	94.232	0.00033856	0.00049389	6.6803e-05	1198.9	4.0588e-06	2.3483e-06	1289.9	263.03	9.6371e-06	4.0932e-06	328.52	88.01	69.85	20.488	6.1043e-07	27.958	0.00037656	0.00038044	0.00010621	1176	4.2023e-06	4.1778e-06	1270.9	262	4.2219e-06	4.1316e-06	325.98	89.194	72.348	21.099	4.1946e-06	29.132	182.658	49.592	1.375	-117.757	28.870	148.618	-118.445	-111.423	-89.920	105.439	-110.944	-105.080	-104.504	-96.844	112.381	-96.716	-8191	255	
995.316	1	1	0	0	0.29797	0.25051	0.05509	0.35113	0.22514	0.31436	0.15293	0.12874	0.029445	0.25753	0.22143	0.12562	0.12328	0.23052	0.23368	0.48326	-1.5396	-2.3146	-2.1458	-2.1208	-2.3625	-1.9958	-2.2958	-2.4354	-1.975	-2.2125	-2.3042	-2.0438	-2.425	-2.0812	-2.0812	-2.3563	96.701	17.798	117.480	218.604	-122.962	90.046	-121.264	186.773	-112.157	77.532	-110.293	-95.585	-11.573	136.060	10.757	144.428	0.00021872	0.00035738	0.00014555	1197.2	3.2233e-06	5.2911e-06	1288	263.68	6.6114e-06	6.5107e-06	329.86	87.925	70.694	20.477	1.5786e-06	28.146	0.00038206	0.00038347	0.00010607	1175.4	4.1935e-06	4.2358e-06	1271.7	262.26	4.2504e-06	4.1996e-06	326.13	88.911	72.476	21.101	4.2816e-06	29.193	132.481	-87.003	-71.889	-118.063	-29.668	0.113	-118.466	-110.959	94.776	64.932	-111.251	-105.150	-105.939	-97.101	209.848	-96.693	-8191	255	
995.387	1	1	0	0	0.18833	0.13723	0.34481	0.15933	0.12197	0.15868	0.21316	0.37197	0.20114	0.20745	0.17337	0.041675	0.078193	0.10197	0.30305	0.056629	-1.6021	-2.2896	-2.2687	-2.2875	-2.5104	-2.2687	-2.4313	-2.4562	-2.1958	-2.4292	-2.5104	-1.975	-2.4854	-2.0958	-2.1583	-2.5021	-92.371	124.710	132.367	-125.139	48.496	97.804	195.926	167.750	192.332	-2.915	224.853	205.714	-83.730	204.949	-116.753	180.325	9.9634e-05	0.00044523	0.00016287	1198.4	3.7966e-06	1.7081e-06	1296.9	262.17	3.0268e-06	3.1107e-06	328.31	87.873	69.989	20.469	8.9323e-06	28.095	0.00038854	0.00038727	0.00010767	1174.7	4.2306e-06	4.1922e-06	1273.5	261.76	4.2261e-06	4.2021e-06	325.89	89.016	72.575	21.057	4.1723e-06	29.213	28.907	-13.713	-49.701	-117.774	214.058	18.595	-117.986	-110.788	-32.879	5.038	-111.174	-104.948	-104.703	-96.774	20.919	-97.123	-8191	255	
995.484	1	1	0	0	0.14931	0.14271	0.15116	0.15484	0.091591	0.34162	0.20246	0.28357	0.054002	0.26339	0.33857	0.29306	0.27682	0.34987	0.072592	0.25186	-1.65	-2.0542	-2.35	-2.2896	-2.3146	-2.1229	-2.0542	-2.6188	-2.0271	-2.0208	-2.3896	-2.0125	-2.4083	-2.1854	-1.8687	-2.4375	103.110	225.165	114.421	208.049	-12.210	82.972	165.176	202.641	-116.555	48.912	181.197	74.603	184.429	-123.800	-114.608	193.579	0.00037767	3.8627e-05	0.0001003	1194.3	4.5112e-06	1.5467e-06	1293.5	264.56	3.7426e-06	1.7229e-06	326.53	88.365	70.289	20.497	9.6172e-06	27.949	0.0003856	0.00039008	0.00010779	1175.4	4.2211e-06	4.148e-06	1271.3	262.17	4.1418e-06	4.1896e-06	325.46	89.14	72.812	21.031	4.1118e-06	29.043	168.829	5.128	-55.762	-118.085	-93.718	117.927	-118.037	-110.799	128.202	-76.737	-111.025	-104.882	-104.870	-96.265	2.733	-96.163	-8191	255	
995.604	1	1	0	0	0.30212	0.26547	0.2343	0.10971	0.12101	0.12536	0.10896	0.10381	0.17615	0.1985	0.073197	0.14143	0.14031	0.28383	0.15744	0.044162	-1.6958	-2.1188	-2.4292	-2.0479	-2.1479	-2.2396	-2.2896	-2.6021	-1.9521	-2.1063	-2.4917	-1.9125	-2.1937	-2.2438	-1.8354	-2.3333	-120.180	227.298	-62.191	165.746	-55.303	-1.613	-35.567	153.814	-11.211	187.994	-113.828	32.268	155.498	205.233	-31.625	181.749	0.00037683	0.00011541	0.00016042	1193.9	3.6276e-06	6.9546e-06	1297.2	264.48	1.024e-05	4.3463e-06	326.62	87.828	70.172	20.394	3.0323e-06	27.87	0.00037208	0.00037877	0.00010404	1173.9	4.1212e-06	4.0951e-06	1273.8	261.89	4.1071e-06	4.1054e-06	324.82	88.917	72.068	20.961	3.9894e-06	28.95	132.083	-84.290	-12.711	-117.522	-115.722	-17.542	-117.998	-111.244	-72.398	131.280	-110.562	-104.766	-104.753	-96.514	-89.295	-97.570	-8191	255	
995.699	1	1	0	0	0.13789	0.2057	0.048518	0.16333	0.085891	0.20168	0.33362	0.30803	0.094696	0.022901	0.04902	0.18185	0.16006	0.080083	0.077435	0.27705	-1.6375	-1.9542	-2.275	-2.1	-2.1729	-2.1729	-2.0333	-2.3271	-2.0771	-2.1229	-2.3479	-1.9729	-2.1146	-2.3021	-1.7354	-2.2833	-122.578	-106.156	-36.732	171.275	28.012	114.581	152.042	153.056	-66.440	204.402	139.873	-26.784	-124.162	-47.342	-8.438	42.560	0.00039367	0.0003728	9.1277e-05	1197	1.9655e-07	3.4221e-06	1296.9	262.24	6.9609e-06	4.6299e-06	324.99	87.902	70.297	20.481	1.2196e-06	28.054	0.00036851	0.00035766	0.0001012	1173.6	3.9964e-06	3.9654e-06	1271.7	260.95	3.9604e-06	3.9782e-06	324	88.686	71.694	20.97	3.9971e-06	29.003	130.834	-64.667	-32.964	-118.430	109.996	137.399	-118.585	-111.231	11.124	110.452	-111.025	-104.642	-105.241	-96.744	47.121	-96.656	-8191	255	
995.795	1	1	0	0	0.26656	0.24486	0.14175	0.074698	0.12962	0.11305	0.24752	0.17434	0.1224	0.20433	0.076673	0.18619	0.17748	0.078248	0.10122	0.1175	-1.8146	-1.8188	-2.375	-2.2021	-2	-2.3583	-1.9521	-2.25	-2.1104	-1.7521	-2.2875	-1.8854	-2.0312	-2.1354	-1.8771	-2.2458	215.463	45.628	126.196	136.300	63.505	153.392	99.085	-109.008	141.413	-32.556	-83.090	156.118	-22.270	101.457	-23.963	162.746	0.00031138	0.00031195	8.7791e-05	1193.8	3.0755e-06	3.9562e-07	1289.1	261.3	8.1334e-06	4.9914e-06	326.16	87.384	69.988	20.445	4.2909e-06	27.867	0.00035741	0.00036102	9.8131e-05	1172.2	3.9359e-06	3.8893e-06	1268.7	259.99	3.9229e-06	3.901e-06	322.97	88.477	71.598	20.94	3.8411e-06	28.775	163.486	204.088	-108.599	-117.821	193.345	175.302	-118.149	-110.670	-39.161	114.612	-111.043	-105.158	-105.118	-96.844	-41.308	-97.024	-8191	255	
995.891	1	1	0	0	0.053521	0.16869	0.17244	0.097691	0.16979	0.14585	0.25681	0.092971	0.21965	0.039903	0.35063	0.30925	0.21847	0.13201	0.16062	0.21897	-1.5417	-1.8646	-2.2833	-2.0625	-1.9021	-2.3792	-1.9167	-2.2396	-2.225	-2.0312	-2.3375	-2.0125	-1.9333	-2.4729	-1.9062	-2.2917	-24.983	140.663	110.023	227.140	-107.394	-105.555	190.446	-68.576	-99.385	24.148	199.435	159.173	-42.390	-62.918	53.589	-119.695	0.0001519	0.00058432	0.00011823	1196	6.8851e-06	2.9167e-06	1287	261.21	3.1699e-06	2.1808e-06	324.2	87.214	69.376	20.428	4.4757e-06	27.678	0.00034941	0.00034928	9.6675e-05	1170.2	3.8361e-06	3.8273e-06	1264.9	259.48	3.8309e-06	3.8388e-06	322.24	88.034	71.057	20.87	3.8305e-06	28.66	61.146	-14.543	-19.411	-117.847	165.489	-36.182	-118.214	-110.598	-80.226	-71.801	-111.092	-104.113	-103.992	-96.059	7.316	-96.855	-8191	255	
995.987	1	1	0	0	0.15202	0.1181	0.36793	0.19201	0.13426	0.13307	0.43305	0.23068	0.10648	0.096425	0.14434	0.036993	0.12475	0.33476	0.17604	0.14357	-1.8438	-1.9479	-2.2	-2.0479	-1.8458	-2.3042	-1.8875	-2.2562	-2.2792	-1.9667	-2.1688	-2.2125	-1.975	-2.325	-2.1479	-2.1688	-20.507	-25.917	-113.708	-101.341	18.333	221.135	152.146	128.032	223.613	161.220	180.849	-35.149	29.738	-77.122	-55.396	-124.872	0.00040725	0.00044879	0.00020329	1192.7	4.4586e-06	1.1907e-06	1283.8	261.18	1.8423e-06	7.5018e-06	326.82	87.593	69.73	20.508	4.4205e-06	27.907	0.0003493	0.00034853	9.6136e-05	1168.4	3.8564e-06	3.8392e-06	1264.4	259.22	3.8509e-06	3.8997e-06	323.1	88.035	71.164	20.897	3.8488e-06	28.729	94.757	155.765	-47.458	-117.360	-59.151	13.337	-118.309	-111.166	131.779	113.619	-110.786	-104.155	-103.740	-94.817	-98.950	-94.153	-8191	255	
996.083	1	1	0	0	0.20064	0.22965	0.10667	0.17977	0.081479	0.19678	0.22787	0.18997	0.075475	0.39144	0.25649	0.059998	0.14606	0.14079	0.19546	0.23081	-1.8	-1.8312	-2.4375	-2.3833	-1.8188	-2.4958	-2.4146	-2.1625	-2.4104	-1.9583	-2.1229	-2.2833	-1.9021	-2.3979	-2.0521	-2.0917	119.186	137.008	-108.420	122.218	156.049	-12.227	-121.338	-75.959	-87.351	-5.420	167.089	167.926	-107.430	175.870	114.273	29.401	0.00022244	0.0003039	0.00014508	1192	4.3286e-06	8.9557e-07	1291.5	262.21	2.6847e-06	1.705e-06	325.94	87.567	68.924	20.387	7.5694e-07	27.729	0.00034939	0.00035274	9.7198e-05	1167.3	3.8635e-06	3.8246e-06	1265	259.26	3.8112e-06	3.8473e-06	322.36	88.136	70.836	20.836	3.8137e-06	28.694	143.989	199.704	-110.308	-114.708	-80.842	-4.908	-114.978	-107.818	175.854	-59.253	-107.868	-101.446	-101.434	-93.952	-101.010	-93.720	-8191	255	
996.179	1	1	0	0	0.14755	0.20563	0.066888	0.085412	0.14215	0.19932	0.1944	0.16128	0.1501	0.072794	0.17457	0.20452	0.044722	0.256	0.054994	0.29386	-1.9813	-1.9271	-2.5042	-2.625	-1.9875	-2.2854	-2.2583	-2.1833	-2.3583	-1.9125	-2.1083	-2.4896	-1.9229	-2.4333	-2.1042	-2.0729	-26.849	117.560	84.851	147.330	-16.070	141.541	184.675	137.256	-105.112	-23.458	171.421	-92.224	-100.973	-58.925	137.180	1.613	0.00034143	0.00047523	0.00016388	1190.6	5.2757e-06	2.3742e-06	1286.1	260.95	2.3801e-06	6.3763e-06	324.37	87.085	69.628	20.331	3.9658e-06	28.128	0.00034356	0.00034567	9.6298e-05	1165.9	3.7909e-06	3.7239e-06	1263.6	258.35	3.7615e-06	3.75e-06	321.37	87.854	70.902	20.785	3.7236e-06	28.739	118.412	-104.202	-56.577	-114.813	-29.129	-73.327	-115.118	-107.870	-59.903	70.285	-107.787	-102.110	-101.764	-93.030	89.591	-93.377	-8191	255	
996.300	1	1	0	0	0.24277	0.32144	0.20614	0.046043	0.074541	0.13939	0.19868	0.29645	0.27576	0.14909	0.15474	0.29937	0.067487	0.16616	0.12394	0.22571	-2.0792	-2.0312	-2.2792	-2.3583	-1.8646	-2.4896	-2.4	-1.8563	-2.5125	-2.0521	-2.3083	-2.2521	-1.8729	-2.3438	-2.2313	-2.1	-17.589	27.960	-62.048	-80.882	-8.387	-41.446	229.418	226.572	132.205	-50.330	-31.315	213.168	-48.839	215.310	217.095	-41.392	0.00056205	0.00025839	3.0588e-05	1188.5	4.2827e-06	1.5536e-06	1293.2	262.47	3.5611e-06	7.1165e-06	325.88	87.72	69.659	20.423	2.9251e-06	27.982	0.00034236	0.00034206	9.5366e-05	1164.8	3.7779e-06	3.7178e-06	1262	259.19	3.785e-06	3.8328e-06	322.38	88.216	71.078	20.822	3.8189e-06	28.814	126.571	-64.342	179.571	-115.010	12.599	-56.956	-114.966	-107.805	216.330	57.118	-108.074	-101.415	-101.048	-93.508	3.385	-93.829	-8191	255	
996.396	1	1	0	0	0.10829	0.16233	0.10716	0.25675	0.19148	0.16682	0.18736	0.088684	0.16876	0.077284	0.26566	0.1516	0.16861	0.13975	0.25295	0.16669	-1.9146	-2.0083	-1.9917	-2.4229	-2.0146	-2.3708	-2.2771	-2.0333	-2.2083	-2.1125	-2.0687	-2.5187	-1.95	-2.3542	-2.4125	-1.9625	30.074	42.828	-114.117	-103.516	-22.559	-78.263	206.541	-53.453	151.125	5.290	125.250	94.818	165.594	-3.876	-21.164	147.092	0.00032001	0.00043011	7.3285e-05	1192.9	1.3177e-06	1.1236e-06	1288	261.73	6.6708e-06	1.7404e-06	326.47	87.905	69.817	20.463	6.9194e-06	28.035	0.00034813	0.00035071	9.8232e-05	1167.2	3.7946e-06	3.7804e-06	1264	259.24	3.8214e-06	3.7923e-06	322.13	88.143	70.794	20.821	3.753e-06	28.697	96.852	-19.267	-86.894	-115.009	-36.283	-82.487	-115.240	-107.928	-105.646	-48.119	-108.120	-102.050	-101.968	-93.429	-87.405	-93.798	-8191	255	
996.492	1	1	0	0	0.16365	0.050907	0.03434	0.2024	0.22578	0.18719	0.14379	0.17455	0.078286	0.27835	0.21892	0.099421	0.20755	0.25036	0.31205	0.25083	-1.9292	-2.0604	-1.9	-2.5646	-2.0812	-2.1813	-2.4917	-1.9167	-2.4271	-2.1854	-2.0604	-2.5604	-1.9042	-2	-2.2458	-1.9479	27.259	60.635	169.016	178.633	204.812	205.351	114.314	73.055	94.425	114.748	15.436	122.136	-55.653	-60.176	3.437	230.621	0.00042619	0.00023488	0.00011732	1193.9	9.2742e-07	2.5576e-06	1283.9	261.18	1.0484e-05	3.3801e-06	327.5	86.973	68.916	20.351	6.7554e-06	27.875	0.00034505	0.00034362	9.6004e-05	1166.6	3.7736e-06	3.7541e-06	1264.4	258.24	3.8067e-06	3.7536e-06	322.87	87.725	71.011	20.796	3.7433e-06	28.639	142.721	-73.533	-48.219	-114.876	-98.241	39.801	-117.944	-110.536	-86.863	86.305	-109.891	-103.623	-103.962	-95.760	-36.618	-95.684	-8191	255	
996.588	1	1	0	0	0.13053	0.17091	0.38483	0.109	0.17951	0.26946	0.10083	0.11823	0.24378	0.28761	0.17202	0.15763	0.12161	0.22696	0.18249	0.19034	-2.0667	-2.2125	-2.0792	-2.5708	-1.9125	-2.0812	-2.5021	-2.0479	-2.2438	-2.2896	-2.1146	-2.3979	-2.1354	-1.9667	-2.5854	-2.1479	197.853	68.404	-98.372	-91.148	83.831	221.510	-109.345	181.111	129.071	-26.282	162.821	175.726	97.312	224.286	99.688	-118.863	0.00014622	0.00033565	7.1101e-05	1191.9	8.0802e-06	4.2408e-06	1287.7	261.14	7.2278e-06	6.7662e-06	324.95	87.493	69.494	20.429	2.7762e-06	28.233	0.00033988	0.00034402	9.6098e-05	1165.3	3.7405e-06	3.7628e-06	1263.5	258.54	3.7755e-06	3.7737e-06	321.24	87.89	70.922	20.824	3.7493e-06	28.784	62.392	-41.501	220.348	-116.941	-39.266	-21.754	-117.381	-110.386	8.376	46.602	-109.531	-103.544	-103.895	-95.327	23.902	-94.828	-8191	255	
996.683	1	1	0	0	0.1754	0.16176	0.12645	0.32055	0.05459	0.15734	0.064018	0.23014	0.15029	0.25152	0.039111	0.14069	0.20857	0.11749	0.21452	0.11393	-1.9688	-2.1312	-1.8083	-2.3521	-1.9625	-2.2021	-2.4167	-2.0563	-2.2542	-2.2896	-1.8896	-2.4417	-2.2521	-2.1729	-2.475	-2.1042	-15.704	225.203	102.954	196.461	140.003	-23.497	130.731	199.242	188.092	162.659	187.738	168.980	180.445	-24.927	77.048	145.451	0.00036428	0.00023714	0.00012506	1194.8	2.4216e-06	2.4399e-06	1285.2	261.53	9.0964e-07	5.3421e-06	325.52	87.377	69.975	20.373	3.5677e-06	27.839	0.00034671	0.00033755	9.5327e-05	1166.9	3.7651e-06	3.7972e-06	1263.8	259.26	3.7717e-06	3.7719e-06	321.62	87.923	71.149	20.835	3.7794e-06	28.772	140.835	172.868	-64.230	-116.418	213.233	-14.236	-117.165	-109.911	-121.592	19.278	-110.161	-103.535	-103.617	-95.503	-101.633	-95.651	-8191	255	
996.779	1	1	0	0	0.1326	0.045637	0.10063	0.042733	0.17078	0.081174	0.12939	0.41573	0.065561	0.061249	0.31348	0.17099	0.11462	0.10012	0.065632	0.089123	-1.675	-2.1979	-2.0583	-2.2687	-2.0563	-1.8125	-2.5771	-2.0542	-2.2083	-2.2562	-1.8229	-2.2208	-2.125	-1.8771	-2.2375	-2.1479	-40.265	80.845	-32.338	231.455	83.218	-25.653	187.527	131.982	17.841	6.122	-75.821	-114.159	141.227	20.213	4.501	68.771	0.00010586	0.00039843	0.00011895	1191.4	2.1237e-06	1.143e-06	1284.5	260.99	3.0841e-06	5.4369e-06	324.13	87.713	69.692	20.342	6.1061e-06	27.625	0.0003474	0.00034615	9.6406e-05	1166.2	3.7975e-06	3.7435e-06	1263	259.03	3.7956e-06	3.8055e-06	322.04	88.041	71.218	20.802	3.8299e-06	28.802	60.182	-52.926	4.338	-117.003	-29.534	-26.309	-117.048	-109.995	-113.892	99.359	-109.948	-103.585	-104.024	-95.592	-20.187	-95.761	-8191	255	
996.877	1	1	0	0	0.22165	0.37065	0.21879	0.36101	0.031406	0.056337	0.084087	0.24823	0.18839	0.2303	0.17283	0.18608	0.1704	0.051728	0.21797	0.1843	-1.7125	-2.2271	-1.9021	-2.425	-2.2375	-1.9375	-2.4542	-2.0771	-2.075	-2.4042	-1.9875	-2.3229	-2.3417	-1.8771	-2.4021	-2.1125	-115.160	96.241	192.031	186.478	-83.504	-94.303	203.364	-111.332	-89.292	106.669	219.174	186.065	161.269	-11.509	148.258	159.646	0.00031336	0.00040325	0.000168	1193.3	4.7278e-06	2.3246e-06	1287.9	261.27	2.0512e-06	9.4648e-06	325.47	87.026	70.022	20.217	2.9961e-06	28.045	0.00035214	0.00035011	9.6887e-05	1166	3.8418e-06	3.7902e-06	1264.4	258.43	3.7684e-06	3.7849e-06	321.1	87.841	70.864	20.773	3.7586e-06	28.635	169.106	-1.193	-29.524	-116.667	-101.120	231.084	-117.106	-109.663	8.059	30.022	-109.434	-103.173	-103.263	-94.840	48.440	-95.645	-8191	255	
996.996	1	1	0	0	0.053368	0.4042	0.27986	0.092986	0.15986	0.10981	0.18785	0.03065	0.30299	0.040452	0.087653	0.10318	0.16065	0.37338	0.10491	0.17144	-1.5833	-2.3375	-1.9479	-2.3292	-2.2792	-1.9104	-2.4833	-2.2146	-2.0104	-2.4	-1.8042	-2.1396	-2.1813	-1.8646	-2.6583	-1.9604	-60.624	-109.021	160.471	-84.081	106.689	162.705	192.014	24.408	-86.923	-85.529	148.905	-2.116	-111.449	34.925	101.977	5.524	0.00034845	0.00030953	0.00018149	1193	1.6892e-06	3.7181e-06	1288.3	261.51	5.2565e-06	2.9717e-06	325.41	87.832	69.717	20.325	7.1164e-07	27.715	0.0003424	0.00033899	9.5675e-05	1166.8	3.7504e-06	3.7461e-06	1263.2	258.31	3.7252e-06	3.7106e-06	321.58	87.907	71.231	20.809	3.746e-06	28.613	104.017	-85.385	32.151	-116.849	-1.888	166.319	-116.996	-110.023	-2.339	0.326	-109.954	-103.601	-104.008	-95.305	214.986	-95.994	-8191	255	
997.092	1	1	0	0	0.13	0.098787	0.33975	0.13511	0.19943	0.17844	0.28033	0.18816	0.30613	0.2446	0.069166	0.036293	0.064771	0.099686	0.16965	0.20375	-1.5063	-2.2854	-1.8813	-2.2833	-2.1312	-1.8062	-2.3229	-2.2979	-1.7896	-2.5458	-2.0521	-2.0604	-2.2396	-2.0458	-2.1188	-2.175	-51.559	-115.594	74.239	221.756	207.246	-28.292	164.959	167.112	-99.423	-65.219	-81.324	149.393	152.449	83.023	231.101	141.565	0.00022905	0.00020795	0.00016572	1189.2	3.0913e-06	4.0633e-06	1284.3	260.49	6.5174e-06	6.2043e-06	325.62	86.962	69.774	20.303	2.8193e-06	27.888	0.00034549	0.00034456	9.6773e-05	1167	3.7675e-06	3.7577e-06	1263.1	257.98	3.7362e-06	3.733e-06	321.17	87.919	70.675	20.769	3.6528e-06	28.627	112.862	197.745	-59.967	-116.989	13.291	35.518	-117.198	-110.483	-70.555	-24.615	-110.379	-104.221	-103.937	-95.757	75.089	-96.366	-8191	255	
997.188	1	1	0	0	0.3586	0.10177	0.12296	0.15434	0.044729	0.089287	0.18145	0.37187	0.16212	0.058032	0.22387	0.075137	0.046167	0.38728	0.17361	0.25912	-1.4729	-2.2875	-2.0292	-2.2021	-2.3187	-1.8792	-2.3479	-2.3083	-1.8188	-2.3896	-2.1833	-1.8646	-2.4313	-1.9667	-2.2229	-2.2479	-96.124	-50.011	212.921	-97.280	-120.031	-66.112	187.772	206.046	-85.361	35.422	131.070	51.871	-44.821	-99.319	41.186	115.016	0.00032181	0.00022976	4.5156e-05	1190.2	2.0118e-06	1.8529e-06	1283.2	260.57	1.5857e-06	3.4908e-06	323.67	87.171	69.564	20.27	4.7801e-07	27.74	0.00033018	0.00033143	9.3539e-05	1165.5	3.6731e-06	3.6511e-06	1261	257.6	3.6731e-06	3.6401e-06	320.65	87.868	70.609	20.716	3.6845e-06	28.586	109.911	56.261	42.174	-117.201	-14.613	-106.074	-117.610	-110.237	171.454	-75.040	-110.643	-103.780	-104.403	-96.419	-28.899	-96.665	-8191	255	
997.260	1	1	0	0	0.079678	0.12524	0.21673	0.2507	0.20147	0.17904	0.13368	0.048567	0.16981	0.099088	0.26594	0.10934	0.237	0.073348	0.25996	0.099697	-1.5	-2.2479	-2.1792	-2.2271	-2.35	-1.9312	-2.2812	-2.6125	-1.7604	-2.4042	-2.175	-1.9167	-2.3375	-1.825	-2.0271	-2.5	28.997	196.762	-112.187	135.506	-86.012	33.351	95.733	175.875	-66.662	-67.531	116.159	-117.870	154.861	114.599	72.625	-9.970	0.00045972	0.0008013	7.1049e-05	1195.8	5.3559e-06	5.3838e-06	1282.9	259.47	5.0336e-06	5.6274e-06	323.25	87.79	71.051	20.39	3.858e-06	27.984	0.00033781	0.00033924	9.3475e-05	1166.3	3.7084e-06	3.7137e-06	1260.8	257.87	3.7753e-06	3.7509e-06	321.7	87.969	71.178	20.834	3.7718e-06	28.691	145.470	-9.210	-63.605	-117.080	-26.930	-40.217	-117.398	-110.275	-45.887	40.819	-110.475	-103.962	-103.732	-96.197	0.386	-96.265	-8191	255	
997.380	1	1	0	0	0.23813	0.043939	0.19281	0.08867	0.30239	0.09677	0.20994	0.088882	0.015938	0.05605	0.0051105	0.31935	0.12787	0.24217	0.071642	0.20122	-1.4083	-2.3729	-2.1833	-1.8354	-2.2188	-2.0625	-1.9479	-2.325	-1.8521	-2.0271	-2.3583	-1.65	-2.3854	-1.9813	-2.0354	-2.6813	-16.633	151.176	153.835	-64.632	85.827	129.146	146.499	223.793	197.055	90.818	-110.733	227.813	-123.686	152.550	-113.237	-43.031	0.00013389	0.00055886	0.00014871	1185.5	4.2103e-06	3.0707e-06	1285	259.6	5.5249e-06	2.8287e-06	324.77	87.7	69.035	20.193	7.1289e-06	27.669	0.00034531	0.00034275	9.6042e-05	1163.6	3.8071e-06	3.7872e-06	1261.5	257.89	3.773e-06	3.7541e-06	321.04	87.756	70.814	20.755	3.8208e-06	28.59	70.490	-52.768	-100.134	-117.033	-81.398	74.030	-117.252	-110.787	-14.475	62.460	-110.484	-103.827	-104.219	-95.432	-44.811	-94.322	-8191	255	
997.477	1	1	0	0	0.070264	0.12991	0.13692	0.18961	0.10147	0.19897	0.19158	0.065687	0.067093	0.25242	0.095414	0.36396	0.3232	0.24642	0.17613	0.22237	-1.4083	-2.3917	-2.2875	-2.125	-2.2354	-2.0312	-2.2708	-2.5604	-1.7938	-2.45	-2.2896	-1.8896	-2.175	-2.2479	-1.9792	-2.2896	-2.602	71.160	-29.094	151.581	-94.204	47.584	208.530	-48.653	-7.551	83.471	118.663	229.314	199.751	-119.872	-37.698	165.984	0.00019671	0.00051713	7.6538e-06	1189.8	7.1818e-06	5.9682e-06	1289	260.67	1.7159e-06	3.0005e-06	327.4	87.25	69.411	20.295	7.5738e-06	27.779	0.00034729	0.00034803	9.7475e-05	1165	3.8165e-06	3.7965e-06	1263.8	257.8	3.7877e-06	3.7543e-06	322.22	87.831	70.768	20.828	3.7832e-06	28.639	110.186	-63.206	19.375	-116.354	-46.226	-11.569	-116.272	-108.870	49.597	-120.359	-109.270	-103.078	-103.389	-94.627	7.572	-94.594	-8191	255	
997.573	1	1	0	0	0.085701	0.19917	0.18498	0.27201	0.28339	0.27011	0.12105	0.24815	0.35597	0.31301	0.077911	0.22327	0.051174	0.086791	0.29747	0.11069	-1.6458	-1.9125	-2.1729	-2.1708	-2.1458	-2.3354	-1.9396	-2.4021	-1.9708	-2.0771	-2.4729	-2.0417	-2.2438	-2.0875	-1.9042	-2.3688	211.670	85.210	158.222	-124.530	25.694	24.997	97.019	149.286	36.900	-23.694	82.063	104.198	40.151	-123.131	130.629	54.566	0.00039917	8.9486e-05	5.0115e-05	1191.7	4.1357e-06	4.062e-06	1288.7	260.19	3.8549e-06	3.1767e-06	327.23	87.131	69.956	20.349	5.0998e-06	28.103	0.00034689	0.00034426	9.7901e-05	1165.6	3.789e-06	3.8199e-06	1263.7	258.08	3.8398e-06	3.8575e-06	321.98	87.781	71.305	20.798	3.7973e-06	28.711	178.051	72.366	56.078	-116.247	-26.707	-24.324	-116.314	-109.367	-48.876	33.584	-109.117	-102.843	-102.361	-95.022	13.951	-95.544	-8191	255	
997.669	1	1	0	0	0.25799	0.16819	0.15223	0.12821	0.21304	0.24898	0.4664	0.066039	0.21854	0.33919	0.011888	0.10496	0.06073	0.072117	0.11385	0.041297	-1.775	-2.0458	-2.4729	-2.1042	-2.15	-2.3667	-1.925	-2.35	-2.0812	-2.0667	-2.5646	-1.8854	-2.3104	-2.2875	-2.0021	-2.3083	-54.812	-55.980	-16.918	-60.592	89.047	-104.276	189.332	-100.168	108.224	-45.098	-103.423	119.344	106.067	132.533	149.940	49.860	0.00055043	0.00036273	5.784e-06	1189.2	7.0181e-06	3.518e-06	1277.6	261.19	7.3267e-06	1.3987e-06	327.97	86.663	69.379	20.36	5.8807e-06	27.85	0.00034782	0.00034669	9.7591e-05	1165.6	3.7816e-06	3.8092e-06	1261	258.04	3.8424e-06	3.819e-06	321.86	87.884	70.966	20.826	3.8887e-06	28.728	170.807	-40.860	134.444	-117.320	211.949	-30.404	-116.910	-109.872	-66.631	-35.662	-109.740	-103.398	-102.571	-95.091	82.179	-94.890	-8191	255	
997.788	1	1	0	0	0.2363	0.25597	0.16476	0.19123	0.14793	0.17974	0.42815	0.19796	0.14574	0.12753	0.15128	0.23496	0.24034	0.18192	0.25571	0.29767	-1.7437	-2.0271	-2.4292	-2.1	-2.2792	-2.4146	-2.0479	-2.45	-2.4292	-2.0958	-2.5458	-1.925	-2.2	-2.2438	-1.9292	-2.2062	8.314	-42.884	-83.177	-117.742	39.141	-81.444	194.689	13.381	-4.249	198.950	100.633	-16.470	-86.722	-118.712	168.685	54.200	0.00030123	0.00012365	0.00016901	1189.3	1.7295e-06	2.3371e-06	1283.9	261.14	6.7961e-07	7.5522e-07	326.4	86.741	69.642	20.402	2.0347e-06	27.551	0.00035082	0.00035038	9.7159e-05	1164.4	3.8859e-06	3.8754e-06	1261.4	258.3	3.8759e-06	3.824e-06	322.04	87.641	71.009	20.849	3.891e-06	28.566	116.971	-21.384	-46.019	-116.216	-95.444	-31.997	-116.906	-109.698	223.685	-27.402	-109.398	-102.779	-103.068	-94.791	37.921	-95.099	-8191	255	
997.884	1	1	0	0	0.24067	0.14029	0.34323	0.31845	0.051183	0.30885	0.27928	0.1899	0.10823	0.16856	0.072317	0.18942	0.15244	0.15776	0.082979	0.23992	-1.8875	-1.8604	-2.3312	-2.2292	-2.3063	-2.3208	-2.2646	-2.2229	-2.1562	-2.025	-2.3229	-2.1917	-2.0083	-2.3729	-2.1583	-2.1333	219.661	135.060	133.852	198.879	160.206	-13.713	219.252	217.712	-120.223	-71.351	6.236	73.054	-109.109	-37.047	223.240	2.492	0.00034761	0.00046674	7.3438e-05	1189.4	8.3887e-06	4.5484e-06	1286	261.31	7.3387e-06	1.6061e-06	325.92	87.557	69.232	20.327	4.8764e-06	27.786	0.00035161	0.00035465	9.8266e-05	1165.9	3.8702e-06	3.8392e-06	1264.6	258.15	3.9236e-06	3.8819e-06	321.54	88.009	71.406	20.815	3.868e-06	28.726	127.457	231.127	146.254	-116.427	-48.068	16.448	-116.581	-109.424	-22.234	-88.371	-109.642	-103.213	-103.475	-95.627	59.280	-96.161	-8191	255	
997.980	1	1	0	0	0.26166	0.44683	0.0083091	0.10437	0.081439	0.1027	0.24609	0.090832	0.13339	0.20714	0.074154	0.18924	0.1745	0.069522	0.073701	0.31404	-2.1688	-1.6583	-2.4	-2.2	-1.9333	-2.4562	-1.9458	-2.2062	-2.5125	-2.1937	-2.3688	-2.1875	-2.2438	-2.1833	-1.9625	-2.2896	106.683	-116.130	-19.677	130.845	18.319	-31.933	141.984	-109.608	-110.181	202.419	-3.884	147.022	185.785	-27.412	42.695	-95.426	0.00014521	0.00051622	0.00014618	1184.2	4.9068e-06	4.2708e-06	1288.3	260.48	3.2424e-06	3.6594e-06	326.96	87.518	69.912	20.296	2.7662e-06	27.686	0.00035363	0.00034889	9.7436e-05	1163.9	3.8119e-06	3.8191e-06	1262.9	258.24	3.8458e-06	3.8611e-06	321.89	87.979	71.006	20.817	3.8356e-06	28.66	112.889	-41.961	-54.311	-117.274	-123.728	-91.387	-117.653	-110.245	21.802	50.322	-109.445	-102.995	-103.081	-95.053	-78.797	-94.948	-8191	255	
998.076	1	1	0	0	0.10263	0.29871	0.096349	0.26509	0.29594	0.064698	0.22082	0.30051	0.25726	0.08387	0.048454	0.2106	0.17885	0.14249	0.12849	0.086249	-1.9937	-1.5875	-2.2354	-2.3417	-1.9667	-2.55	-2.2021	-2.225	-2.4292	-1.9646	-2.2958	-2.1958	-1.9583	-2.3625	-1.9438	-2.2292	160.755	200.905	70.130	210.467	219.549	-127.103	153.678	187.348	181.256	53.548	-95.414	147.644	-63.283	-8.425	-40.223	185.437	0.00012048	0.00035998	6.4777e-05	1194.6	8.2989e-06	1.5272e-06	1284.4	260.5	9.3029e-07	4.4279e-06	326.54	87.055	68.976	20.276	5.3975e-06	27.713	0.00034486	0.00034484	9.5655e-05	1166.3	3.7534e-06	3.7678e-06	1261.2	258.23	3.7668e-06	3.7668e-06	321.57	87.536	70.728	20.765	3.6793e-06	28.525	54.643	174.422	88.632	-116.508	-51.252	206.560	-116.599	-109.334	150.972	72.444	-109.065	-103.183	-102.789	-95.001	36.979	-95.466	-8191	255	
998.172	1	1	0	0	0.24011	0.16417	0.13298	0.38603	0.16157	0.2167	0.093238	0.23318	0.13662	0.16645	0.16751	0.1806	0.31977	0.20395	0.11362	0.23189	-2	-2.0729	-2.1458	-2.3479	-1.8646	-2.4333	-2.2604	-2.2375	-2.2021	-1.9396	-2.2833	-2.3438	-1.8875	-2.4479	-2.1979	-1.9854	185.775	202.823	10.248	131.841	184.379	34.694	-99.919	222.952	74.631	172.055	211.707	89.087	139.075	151.264	86.792	-125.675	0.00042736	0.00037663	2.1952e-05	1189	5.115e-06	2.3338e-06	1282.4	259.89	2.2966e-06	4.5888e-06	325.81	86.506	69.231	20.314	3.7058e-06	27.712	0.00034285	0.00034297	9.5513e-05	1166.2	3.7647e-06	3.717e-06	1261.9	258.11	3.7574e-06	3.7711e-06	321.13	87.719	70.42	20.748	3.734e-06	28.565	168.591	-33.528	-85.488	-116.221	-41.508	45.637	-116.578	-109.298	-35.756	8.863	-109.271	-102.849	-102.316	-94.766	220.686	-95.393	-8191	255	
998.268	1	1	0	0	0.19688	0.11026	0.2462	0.13173	0.15501	0.21135	0.36294	0.074674	0.2858	0.20301	0.14549	0.091207	0.35757	0.32437	0.17289	0.22011	-2.1042	-1.9542	-2.2062	-2.35	-1.7625	-2.4958	-2.3479	-2.1229	-2.3208	-2.0312	-2.3292	-2.2062	-2.0083	-2.5	-2.1875	-2.1063	224.949	-65.526	-87.907	136.249	221.793	179.885	173.172	206.728	9.799	206.475	204.987	-60.374	-123.834	104.769	67.124	174.262	0.00045564	0.00041849	8.9339e-05	1191.5	4.8159e-06	4.7908e-06	1284.2	261.05	2.1205e-06	4.0847e-06	325.38	87.59	69.708	20.242	5.7766e-07	27.736	0.00034081	0.00033926	9.3675e-05	1165.6	3.7025e-06	3.6974e-06	1263	258.3	3.7415e-06	3.7012e-06	320.61	87.764	70.666	20.737	3.7761e-06	28.682	148.913	-75.019	-37.690	-116.311	186.737	-11.637	-116.435	-109.213	92.312	86.633	-109.468	-102.994	-103.347	-94.914	-115.061	-95.747	-8191	255	
998.389	1	1	0	0	0.18722	0.2729	0.12433	0.27947	0.15693	0.16449	0.37905	0.19569	0.24519	0.11304	0.16102	0.17154	0.10782	0.18079	0.073442	0.030223	-1.9521	-1.9146	-2.2042	-2.5521	-1.9833	-2.1333	-2.4958	-2.0938	-2.3688	-2.2333	-2.1437	-2.3563	-2.2062	-2.2812	-2.4771	-2.1083	-109.244	-47.971	169.044	195.700	117.222	61.530	189.957	130.853	142.482	144.018	179.942	-101.635	34.423	78.674	131.116	-113.702	0.00027293	0.00031287	0.0001483	1187.9	2.3407e-06	4.5626e-06	1283.8	260.22	5.1969e-06	7.4423e-06	325.5	87.288	69.518	20.282	1.6813e-06	27.765	0.00034485	0.00034662	9.6194e-05	1164.5	3.7518e-06	3.7426e-06	1261.1	257.68	3.7119e-06	3.7588e-06	321.38	87.586	70.85	20.694	3.6851e-06	28.594	61.695	-54.528	-86.984	-116.128	171.448	11.638	-116.719	-109.169	-28.683	126.656	-108.893	-103.097	-102.638	-94.953	99.244	-94.627	-8191	255	
998.485	1	1	0	0	0.13913	0.18115	0.12565	0.29009	0.14968	0.15561	0.24406	0.17281	0.079693	0.22604	0.053713	0.14349	0.18366	0.21713	0.2512	0.1405	-2.0979	-2.1354	-1.9438	-2.5542	-1.9354	-2.2812	-2.6208	-1.9542	-2.3125	-2.3604	-1.8479	-2.3646	-1.9292	-2.2875	-2.3792	-1.8479	-126.902	-86.462	59.864	146.870	53.193	-80.328	150.784	32.483	-5.125	218.892	-121.098	-96.019	97.314	113.831	-38.248	215.142	0.00037105	0.0003668	0.00017374	1191.2	3.2907e-06	4.161e-06	1287.2	259.99	4.9765e-06	1.9711e-06	326.47	86.636	70.239	20.363	5.3147e-06	27.978	0.00033594	0.00033545	9.3295e-05	1164.6	3.6829e-06	3.6229e-06	1261	257.17	3.6851e-06	3.58e-06	320.92	87.477	70.68	20.729	3.585e-06	28.573	88.830	68.720	-89.539	-116.789	170.955	-75.725	-116.767	-109.530	74.441	-87.388	-110.194	-103.837	-103.946	-96.382	-73.028	-96.347	-8191	255	
998.557	1	1	0	0	0.21687	0.30429	0.22294	0.33941	0.11629	0.083452	0.22608	0.45984	0.10265	0.19979	0.18374	0.18863	0.078165	0.31008	0.094284	0.20441	-1.9896	-2.0833	-1.9438	-2.375	-1.9833	-2.0792	-2.5958	-1.8708	-2.2646	-2.0271	-2.1104	-2.4458	-1.9729	-2.3083	-2.2479	-2.0333	23.012	67.978	-70.283	212.407	-79.479	119.971	225.243	-127.808	97.181	-21.395	-50.220	181.097	98.755	-65.377	200.983	144.851	0.00032321	0.00064886	7.1938e-05	1191.5	2.4713e-06	1.6041e-06	1284.2	258.26	1.5319e-06	3.2577e-06	325.75	87.419	69.603	20.14	1.8862e-06	27.95	0.00032719	0.0003221	9.057e-05	1166	3.5771e-06	3.5707e-06	1260.5	256.69	3.5387e-06	3.5321e-06	320.95	87.414	70.264	20.665	3.5271e-06	28.527	185.767	-81.489	-21.307	-117.603	15.013	76.428	-117.720	-110.512	-107.700	153.900	-110.016	-103.471	-102.893	-94.792	-58.954	-94.695	-8191	255	
998.678	1	1	0	0	0.10605	0.16586	0.16037	0.13554	0.012801	0.041404	0.20914	0.21918	0.042477	0.27676	0.12759	0.20863	0.2742	0.077775	0.052517	0.23475	-1.8396	-2.5938	-1.8604	-2.5917	-2.1021	-2.3333	-2.5708	-2.0708	-2.1417	-2.2646	-1.9604	-2.4646	-2.1917	-2.0438	-2.3542	-1.8125	96.704	-83.259	-98.250	125.199	95.255	-73.160	169.413	185.254	-51.842	-13.186	214.945	231.474	12.321	153.118	-79.999	161.944	6.8335e-05	0.00038133	0.00010219	1190.4	4.7415e-06	3.3993e-06	1283.1	258.69	5.7612e-06	6.6738e-06	323.59	87.157	69.714	20.309	2.3596e-06	27.729	0.00032454	0.00032228	9.1226e-05	1164.1	3.5736e-06	3.5723e-06	1259.7	256.47	3.6382e-06	3.5617e-06	319.85	87.458	70.548	20.698	3.6474e-06	28.601	198.038	-70.229	-51.204	-116.185	-51.744	193.195	-117.197	-110.018	-84.620	21.543	-109.352	-102.850	-103.132	-94.890	-110.306	-96.527	-8191	255	
998.772	1	1	0	0	0.17727	0.065547	0.1284	0.21068	0.18525	0.10123	0.48694	0.30129	0.097968	0.13278	0.23941	0.22467	0.19212	0.039098	0.085791	0.10842	-1.8229	-2.2333	-1.9375	-2.4625	-1.9729	-1.9625	-2.2875	-2.0729	-2.025	-2.2771	-1.8354	-2.2771	-2.1021	-2.0312	-2.6188	-1.9562	-79.077	218.090	-54.209	214.912	-1.002	36.339	173.364	-122.904	-63.769	2.875	140.522	23.789	38.609	-9.434	55.314	192.146	0.00017733	0.0002803	2.9865e-05	1187.7	4.6189e-06	3.3844e-06	1285	259.96	1.0782e-06	4.3059e-06	322.69	87.038	69.183	20.212	6.1888e-06	27.69	0.00033287	0.00033365	9.2459e-05	1163.7	3.6416e-06	3.6018e-06	1260.5	256.78	3.5734e-06	3.5872e-06	320.04	87.439	70.323	20.658	3.5802e-06	28.49	117.371	217.763	116.708	-117.700	14.262	-7.022	-118.345	-110.692	-103.650	-47.626	-110.497	-104.780	-104.079	-96.521	78.346	-96.353	-8191	255	
998.868	1	1	0	0	0.2487	0.12449	0.22894	0.33016	0.18035	0.15719	0.31988	0.43447	0.090402	0.16351	0.02048	0.13844	0.20841	0.1624	0.069458	0.29183	-1.6688	-2.0208	-1.9521	-2.3792	-2.3104	-1.8188	-2.5667	-2.2042	-2.0646	-2.4146	-1.925	-2.1979	-2.2313	-2.0229	-2.4021	-2.1937	181.312	-108.040	218.053	185.823	167.765	174.373	148.971	134.995	-61.295	-106.891	198.234	-78.265	187.400	223.557	15.467	182.862	0.00022794	0.00026224	0.00030135	1186.3	8.367e-06	6.7124e-06	1284.9	258.14	3.2505e-06	1.3456e-06	324.2	87.225	69.729	20.156	1.035e-05	27.651	0.00032609	0.0003251	9.0843e-05	1161.6	3.6225e-06	3.5791e-06	1259	256.49	3.6197e-06	3.5711e-06	319.92	87.493	70.248	20.637	3.5793e-06	28.518	134.811	-7.100	-55.970	-117.870	-58.193	211.633	-117.809	-110.670	-31.884	224.199	-110.754	-104.346	-104.846	-96.190	169.342	-96.051	-8191	255	
998.964	1	1	0	0	0.047116	0.15188	0.079993	0.36926	0.17086	0.038872	0.27021	0.33685	0.17422	0.11972	0.19077	0.072097	0.1074	0.077675	0.15334	0.083236	-1.6583	-2.2	-1.9813	-2.3187	-2.1042	-1.7812	-2.55	-2.175	-2.0354	-2.2729	-2.0167	-1.9646	-2.3563	-1.8687	-2.2979	-2.1562	210.032	31.063	23.488	192.981	-93.405	176.890	168.016	78.525	-80.644	217.207	172.310	-72.216	229.497	109.937	104.020	205.232	0.00020536	0.00018783	0.0001168	1190.1	1.5421e-06	4.3212e-06	1284.7	258.06	4.5583e-06	2.3217e-06	323.22	86.786	69.761	20.27	2.1917e-06	27.575	0.00032591	0.00032405	9.0878e-05	1162.6	3.582e-06	3.5567e-06	1258.7	256.55	3.5641e-06	3.5066e-06	319.66	87.3	70.261	20.684	3.5229e-06	28.366	96.481	-42.321	-84.072	-117.301	-14.120	-52.378	-118.022	-110.501	-98.319	154.628	-110.709	-103.739	-104.640	-96.087	-77.476	-96.389	-8191	255	
#DATA ENDS
