BOXY.EXE: ISS Imagent and Oximeter Data Acquisition Program Version 0.80
Ascii Record File

#ACQ INFORMATION
2  Detector Channels 
16  External MUX Channels 
1  Auxiliary Channels 
5000  Waveform (CCF) Frequency (Hz)
1  Waveforms Skipped 
30  Waveforms Averaged 
1  Cycles Averaged 
16  Acquisitions per Waveform 
10.0806  Updata Rate (Hz) 

#FILE INFORMATION
TRUE -- External MUX Channel results are PARSED.
FALSE -- AC DC and Phase are NOT grouped.
TRUE -- Companion Program Settings File CREATED.
FALSE -- AC data not excluded
FALSE -- DC data not excluded
FALSE -- Phase data not excluded
FALSE -- Auxillary Chn. data not excluded
Tab delimiters

#CALIBRATION STATE
TRUE -- Waveform Calibration Values APPLIED.


#AUX CALIBRATION VALUES
Val Type	aux-1	

Term	1.0000e+00	
Factor	0.0000e+00	


#WF CALIBRATION VALUES
A = Detector Channel
Val Type	A-AC1	A-AC2	A-AC3	A-AC4	A-AC5	A-AC6	A-AC7	A-AC8	A-AC9	A-AC10	A-AC11	A-AC12	A-AC13	A-AC14	A-AC15	A-AC16	A-DC1	A-DC2	A-DC3	A-DC4	A-DC5	A-DC6	A-DC7	A-DC8	A-DC9	A-DC10	A-DC11	A-DC12	A-DC13	A-DC14	A-DC15	A-DC16	A-Ph1	A-Ph2	A-Ph3	A-Ph4	A-Ph5	A-Ph6	A-Ph7	A-Ph8	A-Ph9	A-Ph10	A-Ph11	A-Ph12	A-Ph13	A-Ph14	A-Ph15	A-Ph16	

Term	0.00000e+00	0.00000e+00	0.00000e+00	0.00000e+00	0.00000e+00	0.00000e+00	0.00000e+00	0.00000e+00	0.00000e+00	0.00000e+00	0.00000e+00	0.00000e+00	0.00000e+00	0.00000e+00	0.00000e+00	0.00000e+00	0.00000e+00	0.00000e+00	0.00000e+00	0.00000e+00	0.00000e+00	0.00000e+00	0.00000e+00	0.00000e+00	0.00000e+00	0.00000e+00	0.00000e+00	0.00000e+00	0.00000e+00	0.00000e+00	0.00000e+00	0.00000e+00	0.00000e+00	0.00000e+00	0.00000e+00	0.00000e+00	0.00000e+00	0.00000e+00	0.00000e+00	0.00000e+00	0.00000e+00	0.00000e+00	0.00000e+00	0.00000e+00	0.00000e+00	0.00000e+00	0.00000e+00	0.00000e+00	
Factor	1.00000e+00	1.00000e+00	1.00000e+00	1.00000e+00	1.00000e+00	1.00000e+00	1.00000e+00	1.00000e+00	1.00000e+00	1.00000e+00	1.00000e+00	1.00000e+00	1.00000e+00	1.00000e+00	1.00000e+00	1.00000e+00	1.00000e+00	1.00000e+00	1.00000e+00	1.00000e+00	1.00000e+00	1.00000e+00	1.00000e+00	1.00000e+00	1.00000e+00	1.00000e+00	1.00000e+00	1.00000e+00	1.00000e+00	1.00000e+00	1.00000e+00	1.00000e+00	X	X	X	X	X	X	X	X	X	X	X	X	X	X	X	X	

B = Detector Channel
Val Type	B-AC1	B-AC2	B-AC3	B-AC4	B-AC5	B-AC6	B-AC7	B-AC8	B-AC9	B-AC10	B-AC11	B-AC12	B-AC13	B-AC14	B-AC15	B-AC16	B-DC1	B-DC2	B-DC3	B-DC4	B-DC5	B-DC6	B-DC7	B-DC8	B-DC9	B-DC10	B-DC11	B-DC12	B-DC13	B-DC14	B-DC15	B-DC16	B-Ph1	B-Ph2	B-Ph3	B-Ph4	B-Ph5	B-Ph6	B-Ph7	B-Ph8	B-Ph9	B-Ph10	B-Ph11	B-Ph12	B-Ph13	B-Ph14	B-Ph15	B-Ph16	

Term	0.00000e+00	0.00000e+00	0.00000e+00	0.00000e+00	0.00000e+00	0.00000e+00	0.00000e+00	0.00000e+00	0.00000e+00	0.00000e+00	0.00000e+00	0.00000e+00	0.00000e+00	0.00000e+00	0.00000e+00	0.00000e+00	0.00000e+00	0.00000e+00	0.00000e+00	0.00000e+00	0.00000e+00	0.00000e+00	0.00000e+00	0.00000e+00	0.00000e+00	0.00000e+00	0.00000e+00	0.00000e+00	0.00000e+00	0.00000e+00	0.00000e+00	0.00000e+00	-2.04106e+02	-1.47295e+02	-1.31471e+02	-1.83006e+02	-1.05308e+02	-9.56335e+01	-1.57489e+02	-1.62015e+02	-1.04563e+02	-3.96514e+01	-1.72066e+02	-1.71987e+02	-1.87133e+02	-1.76833e+02	-7.95936e+01	-1.54913e+02	
Factor	7.03256e-05	1.41041e-04	4.05673e-05	1.70326e-01	1.62816e-06	1.33254e-06	1.95207e-01	5.96007e-02	1.84989e-06	1.49910e-06	1.05898e-01	4.16366e-02	9.64820e-02	1.05399e-02	1.79118e-06	2.58797e-02	1.57653e-06	1.61043e-06	4.48186e-07	8.61403e-02	1.75392e-08	1.76000e-08	9.27146e-02	3.00841e-02	1.75714e-08	1.76740e-08	5.11745e-02	1.99295e-02	4.41448e-02	5.29322e-03	1.75939e-08	1.20619e-02	X	X	X	X	X	X	X	X	X	X	X	X	X	X	X	X	



#DISTANCE SETTINGS
A = Detector Channel
A-1	A-2	A-3	A-4	A-5	A-6	A-7	A-8	A-9	A-10	A-11	A-12	A-13	A-14	A-15	A-16	

2.5000e+00	3.0000e+00	2.5000e+00	3.0000e+00	2.0000e+00	3.0000e+00	1.5000e+00	3.0000e+00	3.0000e+00	3.0000e+00	3.0000e+00	3.0000e+00	3.0000e+00	3.0000e+00	1.5000e+00	3.0000e+00	

B = Detector Channel
B-1	B-2	B-3	B-4	B-5	B-6	B-7	B-8	B-9	B-10	B-11	B-12	B-13	B-14	B-15	B-16	

1.0000e+01	1.0000e+01	1.0000e+01	1.4400e+00	1.0000e+01	1.0000e+01	1.5100e+00	1.9400e+00	1.0000e+01	1.0000e+01	1.9900e+00	2.4900e+00	2.4100e+00	2.9000e+00	1.0000e+01	2.9800e+00	




#DATA BEGINS
time	group	step	mark	flag	A-AC1	A-AC2	A-AC3	A-AC4	A-AC5	A-AC6	A-AC7	A-AC8	A-AC9	A-AC10	A-AC11	A-AC12	A-AC13	A-AC14	A-AC15	A-AC16	A-DC1	A-DC2	A-DC3	A-DC4	A-DC5	A-DC6	A-DC7	A-DC8	A-DC9	A-DC10	A-DC11	A-DC12	A-DC13	A-DC14	A-DC15	A-DC16	A-Ph1	A-Ph2	A-Ph3	A-Ph4	A-Ph5	A-Ph6	A-Ph7	A-Ph8	A-Ph9	A-Ph10	A-Ph11	A-Ph12	A-Ph13	A-Ph14	A-Ph15	A-Ph16	B-AC1	B-AC2	B-AC3	B-AC4	B-AC5	B-AC6	B-AC7	B-AC8	B-AC9	B-AC10	B-AC11	B-AC12	B-AC13	B-AC14	B-AC15	B-AC16	B-DC1	B-DC2	B-DC3	B-DC4	B-DC5	B-DC6	B-DC7	B-DC8	B-DC9	B-DC10	B-DC11	B-DC12	B-DC13	B-DC14	B-DC15	B-DC16	B-Ph1	B-Ph2	B-Ph3	B-Ph4	B-Ph5	B-Ph6	B-Ph7	B-Ph8	B-Ph9	B-Ph10	B-Ph11	B-Ph12	B-Ph13	B-Ph14	B-Ph15	B-Ph16	aux-1	digaux	

1677.600	1	1	0	512	0.16361	0.054176	0.12248	0.10055	0.21384	0.1045	0.080009	0.029886	0.15203	0.068282	0.25237	0.074848	0.15738	0.24432	0.26888	0.23068	-1.4521	-1.8583	-1.6083	-2.1646	-1.8188	-2.0146	-2.4	-1.8417	-1.9625	-2.1854	-1.9	-2.1167	-2.1437	-2.0021	-2.2417	-2.0229	132.356	180.521	166.372	424.339	421.312	175.363	364.809	428.180	414.881	347.986	138.740	399.384	401.026	386.266	262.930	404.020	0.0024106	0.00056876	4.208e-05	831.18	5.4772e-06	8.937e-06	1084.3	289.91	9.9667e-06	2.7783e-06	473.52	189.39	110.72	47.63	1.0361e-05	88.309	0.0023863	0.0023912	0.00066687	933.72	2.6049e-05	2.6159e-05	1187	323.32	2.6215e-05	2.6509e-05	528.33	208.85	161.86	53.837	2.6391e-05	100.18	121.214	333.569	426.468	114.293	262.426	458.041	114.421	119.727	108.605	339.549	118.610	123.515	123.837	129.062	238.823	127.467	-8191	255	
1677.696	1	1	0	0	0.229	0.13896	0.087615	0.1552	0.19732	0.29788	0.1467	0.3086	0.22477	0.19083	0.30661	0.10465	0.2311	0.27061	0.28384	0.015744	-1.75	-2.2438	-1.7333	-2.2354	-1.7917	-1.8229	-2.4458	-2.225	-2.0708	-2.1958	-1.9021	-1.9167	-2.0396	-1.7875	-2.1833	-2.0458	410.252	455.862	427.642	342.013	275.138	414.753	362.318	397.295	323.425	266.703	420.117	422.754	225.004	114.221	246.103	245.067	0.001984	0.00070603	0.00049814	834.83	1.8111e-05	3.8331e-06	1080.8	285.65	1.2293e-05	1.5227e-05	464.27	186.75	110.27	46.575	8.0627e-06	86.328	0.0023926	0.0024398	0.00068256	938.91	2.6748e-05	2.7119e-05	1186.3	322.01	2.7118e-05	2.7372e-05	523.33	207.09	163.34	53.199	2.7081e-05	98.569	453.338	219.579	129.146	115.081	210.411	458.368	114.262	119.702	432.521	361.451	118.517	123.016	123.449	128.752	183.718	127.495	-8191	255	
1677.815	1	1	0	0	0.16353	0.097316	0.22871	0.24253	0.088676	0.1374	0.17156	0.19989	0.12503	0.10367	0.0703	0.063507	0.17894	0.13992	0.25113	0.37457	-1.5479	-2.0625	-1.4958	-2.1042	-2.1792	-1.9521	-2.3688	-1.9208	-1.675	-2.1375	-1.9688	-2.0729	-2.0854	-1.9271	-2.0583	-1.8292	395.505	224.101	436.499	408.650	186.482	377.203	404.793	336.686	252.171	384.751	266.908	103.760	225.938	309.986	140.202	442.682	0.0022133	0.00082442	0.00062275	829.08	5.4489e-06	9.8694e-06	1072.9	281.45	7.2422e-06	2.9188e-06	459.9	184.97	110.75	44.739	7.5132e-06	84.044	0.0024415	0.0024734	0.00068573	933.08	2.6727e-05	2.671e-05	1177.3	315.78	2.6488e-05	2.6724e-05	514.87	204.63	161.23	51.237	2.6501e-05	96.546	126.027	150.901	131.838	114.639	136.116	354.894	114.581	119.391	237.787	356.143	118.863	123.499	123.432	128.567	277.821	127.412	-8191	255	
1677.911	1	1	0	0	0.16231	0.082696	0.16607	0.10572	0.14033	0.12638	0.12361	0.16212	0.1132	0.2935	0.2253	0.065424	0.14817	0.087122	0.15046	0.33173	-1.3375	-2.1583	-1.7938	-2.0312	-1.9	-1.6146	-2.1417	-1.9438	-1.7292	-2.3688	-1.9937	-1.9375	-1.85	-1.7229	-2.0875	-1.9604	168.744	416.793	431.877	427.827	318.391	437.376	156.490	388.103	299.671	316.914	160.734	134.657	218.178	441.497	257.785	449.199	0.0021058	0.0013626	0.00023252	821.65	2.0195e-05	9.4651e-06	1076	283.33	1.0572e-05	6.8874e-06	461.39	188.43	113.46	45.75	1.143e-06	85.727	0.0024226	0.0024428	0.00068109	929.82	2.6788e-05	2.6946e-05	1179.7	318.32	2.6834e-05	2.7082e-05	519.7	208.94	164.01	52.264	2.6909e-05	97.864	460.360	113.056	232.987	114.026	181.902	218.965	113.614	118.871	141.824	145.936	118.272	122.716	122.545	128.146	390.848	126.901	-8191	255	
1678.007	1	1	0	0	0.064103	0.29688	0.44641	0.11744	0.11653	0.18806	0.10505	0.30949	0.37041	0.15411	0.4123	0.099615	0.113	0.15888	0.07659	0.10114	-1.2208	-2.0396	-2.0979	-1.9479	-2.3187	-1.9688	-2.0521	-2.2271	-1.8312	-2.4146	-1.8563	-1.9833	-2.0312	-1.5979	-2.0312	-2.25	124.623	292.667	214.877	169.579	187.082	101.526	328.648	367.219	278.756	412.601	400.866	428.804	366.391	176.757	336.901	160.404	0.001871	0.0016089	0.00026023	820.81	9.8947e-06	9.7937e-06	1064.3	281.37	2.0355e-05	2.2473e-06	465.4	193.18	114.07	46.93	1.2636e-05	88.333	0.0024215	0.0024373	0.0006783	923.33	2.6432e-05	2.6424e-05	1169	316.4	2.6419e-05	2.6561e-05	522.77	212.76	164.22	53.209	2.6273e-05	99.614	451.025	154.603	230.780	114.323	449.378	266.341	113.685	118.950	228.125	402.941	117.910	122.960	122.536	128.172	302.509	126.733	-8191	255	
1678.103	1	1	0	0	0.22858	0.1571	0.023717	0.25482	0.2648	0.19391	0.053829	0.14327	0.24407	0.30868	0.33169	0.18857	0.098022	0.079532	0.26305	0.33892	-1.3604	-2.2167	-1.8021	-1.9813	-2.3229	-1.9438	-1.9937	-1.8458	-1.5312	-2.1208	-2.1333	-1.7458	-2.0771	-1.8583	-2.025	-2.2104	407.489	201.902	130.933	417.579	424.059	177.309	303.332	458.521	300.035	231.313	152.583	201.677	152.732	262.123	253.535	420.596	0.0018468	0.0010429	0.00013034	815.91	4.1744e-06	9.408e-06	1067.9	283.5	2.7094e-05	2.3024e-05	468.54	191.38	113.96	46.734	7.6755e-06	87.635	0.002392	0.0024081	0.00067164	918.42	2.6349e-05	2.6471e-05	1171.1	318.32	2.6593e-05	2.6882e-05	524.28	211.61	165.75	53.267	2.7417e-05	99.945	454.120	197.174	198.596	113.876	218.581	391.170	113.941	118.857	269.649	364.481	118.258	122.856	122.741	127.909	254.860	126.835	-8191	255	
1678.199	1	1	0	0	0.23488	0.2636	0.19768	0.072563	0.24449	0.15928	0.12318	0.26732	0.23669	0.21086	0.15376	0.2324	0.11402	0.29446	0.099081	0.21806	-1.3583	-1.9646	-1.8042	-1.3813	-2.2417	-1.7229	-2.1625	-2.3917	-1.8917	-2.1417	-2.25	-1.7917	-2.0354	-1.9229	-1.9167	-2.3812	292.108	414.540	207.704	124.587	447.980	454.023	372.868	368.285	170.800	232.533	175.418	421.351	431.234	385.678	239.479	363.373	0.0019612	0.00055271	6.3008e-05	810.31	1.4355e-05	1.2903e-05	1064	283.3	1.0622e-05	6.1766e-06	467.61	191.52	112.32	47.13	9.237e-06	88.054	0.0025176	0.0025449	0.00071356	924.27	2.8303e-05	2.8488e-05	1176.9	321.34	2.8394e-05	2.8576e-05	528.91	213.61	168.5	54.024	2.8243e-05	101.31	457.025	197.303	158.928	114.164	166.203	235.886	113.928	118.824	232.060	174.475	118.113	122.814	122.482	127.830	325.959	127.051	-8191	255	
1678.295	1	1	0	0	0.21139	0.19424	0.22976	0.12751	0.2361	0.067448	0.3053	0.26171	0.15752	0.18249	0.21797	0.15548	0.24964	0.36628	0.22597	0.096422	-1.5208	-1.9708	-2.0958	-1.6604	-1.9479	-2.0146	-1.8771	-2.1917	-1.7458	-2.2229	-2.1729	-1.9312	-2.2542	-2.0042	-1.6417	-2.2167	235.927	155.379	447.497	329.496	415.905	459.359	349.217	382.287	273.667	359.654	451.363	328.134	353.812	435.229	417.297	255.824	0.0020138	0.00050783	9.5754e-05	812.18	9.2661e-06	9.2398e-06	1065.9	282.95	1.1132e-05	5.5417e-06	471.3	194.94	114.86	47.737	1.1628e-05	89.414	0.0025613	0.002579	0.0007134	920.25	2.8e-05	2.7891e-05	1174	320.29	2.7764e-05	2.7908e-05	529.15	216.01	168.23	54.4	2.7815e-05	102.39	110.973	203.255	325.474	114.187	259.763	240.966	113.985	118.899	350.516	247.585	117.946	123.130	122.970	128.063	220.832	127.008	-8191	255	
1678.416	1	1	0	0	0.092339	0.13927	0.22635	0.17805	0.16956	0.07753	0.18599	0.25651	0.27057	0.36457	0.16666	0.20913	0.025366	0.20601	0.16527	0.33952	-1.5063	-2.0458	-2.2188	-1.7979	-2.0312	-1.8792	-1.7771	-2.1937	-1.8375	-1.9396	-2.3667	-1.7062	-2.2271	-2.0604	-1.5208	-2.3854	404.904	252.378	333.474	127.037	345.742	338.828	372.097	394.994	141.787	137.866	320.170	347.712	325.338	403.801	200.241	217.442	0.0022166	0.00122	0.00014509	806.5	1.709e-05	1.0773e-05	1065.9	283.56	1.0134e-05	7.1066e-06	473.82	197.32	116.54	48.052	1.378e-05	90.644	0.0025284	0.0025592	0.00071367	916.81	2.8063e-05	2.8234e-05	1177.6	323.1	2.8158e-05	2.845e-05	534.85	218.93	171.26	55.172	2.8584e-05	103.86	109.660	157.827	375.301	115.104	401.337	108.728	114.383	118.961	185.931	309.095	118.543	123.010	123.029	127.843	221.315	126.887	-8191	255	
1678.510	1	1	0	0	0.10943	0.17483	0.19372	0.24368	0.2837	0.037107	0.13283	0.053662	0.16653	0.11199	0.092858	0.080853	0.17594	0.093933	0.16553	0.27012	-1.2625	-1.9312	-2.0458	-1.75	-2.0167	-2.1188	-1.9354	-2.375	-2.0292	-1.9854	-2.0563	-1.7042	-2.1063	-2.1125	-1.8854	-2.3521	431.758	317.970	246.756	417.265	183.412	446.350	440.458	401.448	236.118	131.805	457.937	445.944	346.215	177.803	324.029	388.171	0.0015366	8.2538e-05	0.00036022	804.14	2.0724e-05	3.6361e-06	1062.5	285.82	7.1965e-06	4.6695e-06	472.86	196.36	113.95	47.545	1.3388e-05	88.735	0.0025904	0.0026317	0.00073288	919.68	2.8643e-05	2.8752e-05	1180.4	323.53	2.8626e-05	2.8953e-05	534.78	218.18	170.91	54.447	2.8927e-05	102.28	456.383	303.245	406.536	114.371	317.675	234.999	113.791	118.890	240.818	366.717	118.659	123.164	123.420	128.580	428.341	127.476	-8191	255	
1678.607	1	1	0	0	0.10885	0.23585	0.24106	0.23139	0.24223	0.094703	0.13774	0.22036	0.18194	0.1141	0.35286	0.15008	0.1597	0.26669	0.096296	0.22055	-1.4562	-1.7146	-2.2938	-1.7396	-1.8833	-2.0979	-1.7437	-2.1312	-1.95	-1.9646	-2.2917	-1.5958	-1.8521	-2.0375	-1.4646	-1.9813	194.981	386.411	334.096	425.353	134.061	182.361	358.188	436.062	210.790	130.475	102.474	366.833	452.448	416.464	353.696	322.069	0.0023285	8.6119e-05	5.0316e-05	806.98	2.0383e-05	4.3132e-06	1063	280.86	8.7821e-06	1.3647e-05	468.06	193.91	114.43	47.045	1.0289e-05	88.796	0.0026235	0.0026728	0.00074716	920.76	2.9437e-05	2.9752e-05	1180.1	321.44	2.9898e-05	3.0195e-05	534.06	217.87	173.72	54.616	3.0755e-05	103.81	105.901	408.729	404.647	114.114	213.249	164.128	113.916	119.362	229.090	265.822	118.810	123.130	122.638	128.283	176.239	126.759	-8191	255	
1678.680	1	1	0	0	0.18585	0.11477	0.25106	0.26829	0.29444	0.065355	0.33252	0.24753	0.015276	0.24595	0.072671	0.15439	0.2413	0.14829	0.30956	0.11136	-1.4813	-1.7146	-2.1542	-1.925	-1.9229	-2.0896	-1.7	-2.1958	-2.1063	-1.7313	-2.425	-2.1396	-2.1542	-2.4125	-1.8521	-1.9229	184.410	385.250	305.504	448.958	348.396	349.263	370.392	373.542	187.091	370.958	430.268	374.199	433.416	171.030	263.838	351.427	0.0022339	0.00029316	6.6421e-05	802.52	3.0918e-06	1.0595e-05	1060.1	283.24	1.8123e-05	2.828e-06	473.5	197.56	116.37	48.536	1.5852e-05	91.329	0.0027944	0.002837	0.00079709	927.85	3.1172e-05	3.1575e-05	1191.3	327.16	3.1588e-05	3.2207e-05	544.95	223.32	180.29	56.461	3.2514e-05	107.25	102.571	184.300	438.195	114.210	204.429	201.442	113.711	118.811	277.677	380.954	118.457	122.807	122.700	128.356	288.840	126.819	-8191	255	
1678.799	1	1	0	0	0.35592	0.11361	0.19034	0.076746	0.22653	0.085066	0.078422	0.26214	0.13017	0.08928	0.19747	0.083755	0.31674	0.12578	0.14018	0.098582	-1.5438	-1.6979	-2.0083	-1.9042	-1.9021	-2.4333	-2.1042	-2.4417	-2.2729	-1.9062	-2.4958	-2.0896	-1.8042	-2.1437	-1.6792	-2.0687	426.162	190.955	238.701	177.514	374.003	260.453	121.373	398.650	238.523	128.161	196.059	239.413	256.817	123.127	137.340	330.214	0.0019072	0.00041676	0.00039475	801.23	1.1266e-05	1.5178e-05	1063.5	286.1	1.8466e-05	1.1316e-05	474.43	197.24	115.84	48.088	1.2859e-05	91.364	0.0029704	0.0030159	0.00084324	938.76	3.3089e-05	3.3435e-05	1206.9	333	3.3748e-05	3.4071e-05	555.04	226.46	185.55	56.926	3.4708e-05	108.78	456.895	157.150	144.206	114.248	154.209	296.030	114.385	119.114	236.979	273.038	117.939	122.847	122.868	128.111	227.790	127.053	-8191	255	
1678.895	1	1	0	0	0.14819	0.14771	0.17823	0.14463	0.087518	0.12818	0.19561	0.29843	0.16784	0.27412	0.15237	0.28032	0.1658	0.23828	0.039306	0.25148	-1.8083	-1.8417	-2.2521	-2.0229	-1.8042	-2.2625	-2.075	-2.1479	-2.3604	-1.9688	-2.2333	-2.0542	-1.9021	-2.2375	-1.7437	-1.8312	302.375	175.862	236.025	365.655	335.001	338.334	396.534	368.611	375.903	289.041	283.947	384.598	165.347	377.100	232.707	390.766	0.001939	0.0012114	0.00042894	803.92	9.8125e-06	3.8458e-06	1063.4	286.1	1.2006e-05	1.1032e-05	474.93	198.64	116.49	48.175	2.6475e-05	91.003	0.0031791	0.0032147	0.00089931	951.57	3.5259e-05	3.5332e-05	1215.9	335.59	3.5381e-05	3.5547e-05	556.62	227.61	189	57.122	3.5359e-05	108.99	438.704	439.766	219.160	114.353	166.601	281.465	113.834	119.172	186.107	362.448	117.983	122.861	122.454	127.884	308.361	126.373	-8191	255	
1678.991	1	1	0	0	0.15872	0.11403	0.18312	0.22113	0.1539	0.22828	0.21381	0.068234	0.17897	0.17759	0.30314	0.27914	0.33294	0.046941	0.11504	0.26748	-1.7583	-1.8875	-2.0938	-2.3875	-1.8563	-2.2583	-2.2208	-2.0167	-2.2333	-1.9542	-2.2083	-2.15	-1.8937	-2.4958	-1.9958	-1.8896	191.762	128.035	329.192	191.198	372.640	225.427	411.464	409.801	300.355	431.108	284.917	427.707	334.376	135.913	411.972	390.557	0.0027535	0.00018667	0.00036619	799.5	1.165e-05	1.2807e-05	1054.2	284.26	2.3057e-05	1.0204e-05	475.79	199.84	116.27	48.39	7.2153e-06	91.846	0.0032164	0.0032482	0.00090049	945.25	3.5116e-05	3.5152e-05	1209	334.57	3.484e-05	3.5094e-05	556.02	228.9	188.01	57.3	3.4709e-05	108.9	102.701	155.903	186.834	114.299	251.605	311.522	113.701	118.503	418.998	389.389	117.778	122.576	122.882	127.603	123.212	125.843	-8191	255	
1679.087	1	1	0	0	0.099263	0.099743	0.29237	0.25698	0.17546	0.25344	0.23427	0.07569	0.020486	0.13373	0.088946	0.20162	0.16671	0.14748	0.22635	0.039747	-2.0208	-2.0417	-2.0187	-2.1854	-1.5542	-2.1396	-2.0187	-2.1021	-2.2958	-1.8521	-2.2979	-2.3125	-1.8521	-2.0271	-2.0083	-1.875	132.506	325.130	155.229	392.594	259.263	134.042	365.576	278.556	167.258	403.002	140.116	432.414	293.406	369.094	361.196	377.484	0.0029995	0.00071182	0.00043864	788.8	1.4669e-05	4.3697e-06	1058.2	283.85	1.3846e-06	1.4729e-05	475.44	201.45	116.44	48.665	9.4719e-06	91.537	0.0031328	0.003148	0.00087596	934.51	3.4046e-05	3.4087e-05	1199.5	331.48	3.3635e-05	3.3734e-05	552.31	228.42	183.81	56.891	3.3153e-05	108.18	454.604	308.183	230.146	114.519	429.191	136.692	113.340	118.964	187.064	237.569	117.784	122.717	122.555	127.519	205.125	126.439	-8191	255	
1679.208	1	1	0	0	0.19735	0.13291	0.12842	0.1722	0.084104	0.022629	0.14059	0.25048	0.16675	0.34945	0.091514	0.26279	0.087824	0.12578	0.06287	0.29685	-1.7729	-1.7313	-2.1188	-2.2667	-1.8792	-2.1292	-2.3021	-2.1396	-2.4188	-2.1104	-2.1479	-2.3292	-1.925	-2.1125	-2.1333	-1.7333	105.332	364.796	346.692	426.636	415.176	400.060	398.463	355.657	220.788	171.342	392.692	376.336	154.528	104.809	107.545	155.891	0.0017797	0.00038799	0.00034408	794.95	8.2686e-06	2.6347e-06	1062.6	284.22	1.2236e-05	7.0129e-06	477.11	199.06	116.25	47.963	4.528e-06	90.608	0.0029955	0.0030294	0.00084521	930.21	3.2779e-05	3.2919e-05	1198.6	330.53	3.2948e-05	3.3366e-05	552.26	226.08	182.95	56.377	3.3479e-05	107.19	112.553	170.183	181.694	113.958	122.965	205.009	113.791	118.536	150.740	236.094	117.643	123.056	123.797	127.974	288.034	127.065	-8191	255	
1679.280	1	1	0	0	0.2021	0.1008	0.096807	0.10736	0.11494	0.23885	0.11362	0.20387	0.27244	0.18741	0.20992	0.26659	0.12539	0.087287	0.30197	0.11671	-1.7021	-1.9375	-1.9333	-2.4375	-1.8813	-2.0292	-2.0625	-2.1063	-2.2917	-2.1042	-2.0833	-2.45	-1.925	-2.3167	-2.3729	-1.9479	356.597	164.708	407.249	439.918	367.359	437.092	329.341	364.087	150.895	276.132	421.088	407.661	105.057	213.504	149.888	242.103	0.0024785	0.0013321	0.00019573	796.9	3.5399e-06	1.2902e-05	1065.1	281.92	7.306e-06	1.5361e-05	473.61	197.67	113.76	47.268	2.2485e-05	89.924	0.0030394	0.0030819	0.00085875	936.25	3.348e-05	3.3537e-05	1203.3	329.07	3.3646e-05	3.3846e-05	551.27	225	182.13	55.831	3.3425e-05	106.56	114.897	129.357	198.315	114.910	313.690	158.965	114.289	118.871	218.992	225.111	118.451	123.446	123.282	129.107	259.759	129.526	-8191	255	
1679.376	1	1	0	0	0.31294	0.25466	0.23547	0.16795	0.16933	0.15432	0.18592	0.20949	0.20106	0.39581	0.15173	0.088213	0.21201	0.11678	0.35106	0.080001	-1.6417	-2.0521	-1.9542	-2.3	-2.0604	-2.1021	-2.4167	-2.0187	-2.3271	-2.2562	-2.0125	-2.4458	-1.9229	-2.2125	-2.3937	-2.1042	416.015	222.721	421.880	390.240	267.653	195.331	449.388	392.098	215.637	182.566	376.380	269.571	423.493	448.683	376.224	341.002	0.0019694	0.00097292	0.00054417	795.35	2.1073e-05	1.0118e-05	1059.8	280.16	1.4787e-05	3.1978e-06	472.03	196.78	113.03	47.126	1.3772e-05	89.07	0.0030022	0.003037	0.00083864	931.04	3.2665e-05	3.2838e-05	1194.7	326.5	3.264e-05	3.2991e-05	543.91	222.72	179.8	55.254	3.3024e-05	105.51	115.577	176.806	145.593	117.021	156.200	251.865	116.930	121.601	164.695	405.501	121.016	125.687	126.233	130.844	217.459	129.660	-8191	255	
1679.496	1	1	0	0	0.16188	0.23547	0.12756	0.1877	0.2579	0.03319	0.038353	0.2286	0.23884	0.19203	0.054396	0.18873	0.11348	0.068205	0.16463	0.22394	-1.8896	-2.1896	-1.7208	-2.3854	-2.1417	-1.9354	-2.2729	-1.8604	-2.1646	-2.2542	-2.0771	-2.3333	-1.6792	-1.7812	-2.1646	-2	260.918	414.701	289.815	130.676	397.052	125.800	425.854	414.251	260.130	225.161	212.349	381.102	235.092	454.988	151.255	438.049	0.001758	0.0013648	0.0002015	799.13	9.64e-06	6.471e-06	1057.3	280.03	6.1178e-06	1.2142e-05	469.85	196.14	113.62	47.208	1.3704e-05	89.825	0.0029846	0.0030297	0.00083981	930.33	3.2924e-05	3.3083e-05	1193.8	326.46	3.3008e-05	3.3312e-05	545.28	222.74	180.1	55.462	3.3143e-05	105.98	112.461	137.667	150.496	117.143	252.120	313.863	116.775	121.667	242.945	270.735	120.931	124.289	122.532	128.150	404.619	127.008	-8191	255	
1679.591	1	1	0	0	0.10365	0.25468	0.26979	0.13571	0.11398	0.17332	0.26261	0.068821	0.15528	0.073052	0.22264	0.33455	0.26754	0.20921	0.045967	0.24899	-1.6521	-2.2188	-1.6083	-2.4833	-1.8833	-2.0854	-2.3917	-1.9542	-2.1542	-2.1958	-2.0708	-2.4542	-2.0667	-1.8583	-2.0542	-2.025	426.123	399.263	270.625	165.801	219.466	143.973	437.838	373.362	279.979	231.452	392.882	103.428	406.703	398.280	395.798	308.273	0.0023969	0.0020323	0.0001457	794.32	5.7487e-06	1.2899e-05	1055.9	279.67	1.6186e-05	1.5536e-05	469.03	196.48	115.71	47.378	4.9233e-06	89.898	0.0029867	0.0030151	0.00084019	929.38	3.2561e-05	3.2671e-05	1191.3	325.55	3.2321e-05	3.254e-05	543.87	222.77	179.07	55.4	3.2113e-05	105.67	110.464	379.252	194.415	114.358	235.458	223.763	114.099	119.431	214.273	314.798	118.096	122.694	122.636	128.133	310.847	127.199	-8191	255	
1679.689	1	1	0	0	0.1126	0.075119	0.20916	0.066775	0.20754	0.1857	0.23358	0.40797	0.12566	0.29784	0.08205	0.056345	0.23528	0.17447	0.10189	0.13897	-1.5354	-2.0021	-1.7604	-2.0229	-1.9875	-1.8083	-2.4396	-2.075	-2.0563	-2.1146	-2.0229	-2.2958	-2.1146	-1.8875	-2.2667	-2.1333	389.895	312.234	214.819	456.313	181.638	317.511	379.214	437.785	220.370	400.486	431.180	303.287	417.056	314.144	104.315	395.567	0.0019709	0.0014157	0.00037645	794.89	2.525e-05	3.0018e-06	1055.1	280.19	1.05e-05	9.3621e-06	476.66	198.15	115.95	47.857	1.5709e-05	90.998	0.0029022	0.0029322	0.00081731	924.05	3.1905e-05	3.208e-05	1187.5	325.09	3.1999e-05	3.2144e-05	545.56	223.95	178.69	55.712	3.194e-05	106.51	115.910	168.295	332.827	114.912	206.360	340.256	114.265	119.493	211.972	329.163	118.890	123.501	122.818	128.417	198.770	127.230	-8191	255	
1679.808	1	1	0	0	0.090081	0.13712	0.11288	0.16866	0.34187	0.24926	0.24624	0.12864	0.12364	0.20004	0.17108	0.17916	0.14878	0.30988	0.029375	0.22005	-1.5792	-2.1979	-1.8062	-2.1333	-2.0292	-1.8708	-2.6167	-2.0583	-2.1354	-2.5083	-2.0583	-2.2792	-2.2375	-1.8583	-2.3104	-2.175	171.646	413.311	212.633	457.123	127.839	206.051	424.731	122.599	194.445	410.349	122.932	383.167	427.239	460.539	347.723	410.942	0.0021326	0.00045694	0.00024194	790.71	1.4962e-05	1.3308e-06	1053	278.96	1.9132e-06	1.7402e-05	469.41	195.84	113.05	46.86	9.84e-06	88.892	0.0029003	0.0029373	0.00081236	921.26	3.1806e-05	3.1859e-05	1184.9	322.84	3.1712e-05	3.2148e-05	540.55	221.48	177.31	54.935	3.201e-05	104.96	102.192	139.582	417.344	114.698	300.017	439.053	114.475	119.399	218.908	219.849	119.104	123.792	124.197	128.982	324.163	127.389	-8191	255	
1679.904	1	1	0	0	0.14198	0.010292	0.094503	0.23868	0.048755	0.15083	0.082581	0.23307	0.25284	0.11528	0.26388	0.1097	0.29305	0.38464	0.087883	0.35728	-1.2708	-2.3875	-1.725	-2.0771	-2.1896	-1.7979	-2.0396	-1.9625	-1.7812	-2.2792	-1.9521	-2.2375	-2.2146	-2.0062	-2.1229	-2.1813	369.932	122.034	459.809	375.287	168.411	386.779	292.504	420.517	415.916	406.096	444.784	357.752	332.567	444.826	252.891	445.995	0.0019339	0.0013228	0.00039835	789.52	7.9292e-06	7.593e-06	1051.3	276.96	8.9819e-06	2.3633e-05	466.4	193.6	110.91	46.839	5.92e-06	88.791	0.0029331	0.0029695	0.00082515	922.68	3.2382e-05	3.2584e-05	1186	321.83	3.2495e-05	3.2651e-05	539.23	220.23	177.53	54.719	3.2306e-05	104.71	455.479	118.061	202.916	115.165	170.291	277.314	115.066	119.852	371.369	328.100	119.028	123.634	123.662	129.123	211.726	127.603	-8191	255	
1679.975	1	1	0	0	0.053969	0.14307	0.28081	0.25864	0.15554	0.13184	0.049136	0.15328	0.24715	0.17772	0.17717	0.17833	0.24996	0.13841	0.10233	0.12373	-1.1313	-2.0479	-1.9646	-1.9688	-2.2812	-1.8167	-2.4875	-2.2	-1.8292	-2.1292	-1.8354	-1.8333	-2.2542	-1.9688	-2.075	-2.4042	402.304	135.860	128.041	397.967	269.073	267.072	367.335	436.336	121.462	455.569	432.227	443.778	341.126	194.719	236.541	410.404	0.0018154	0.00078787	0.00013423	786.02	7.4507e-06	5.7367e-06	1056.8	276.91	9.4713e-06	6.3995e-06	463.91	194.12	111.4	46.416	2.5405e-05	89.043	0.0029156	0.0029515	0.00082055	921.11	3.2217e-05	3.2166e-05	1182.9	320.79	3.2212e-05	3.2138e-05	537.49	219.94	175.61	54.419	3.1912e-05	104.38	444.642	357.146	225.585	115.374	397.242	302.751	115.014	119.875	285.670	235.239	118.814	123.836	123.639	128.910	213.979	127.154	-8191	255	
1680.096	1	1	0	0	0.10777	0.068539	0.15109	0.25864	0.069293	0.22658	0.11094	0.30771	0.21286	0.16996	0.27338	0.30371	0.35319	0.12768	0.13142	0.27634	-1.1063	-1.9854	-1.9312	-1.9167	-2.3333	-1.9792	-2.2812	-2.1542	-1.7396	-2.0604	-2.1479	-1.9646	-2.1646	-1.8083	-2.0625	-2.3937	117.586	213.258	337.826	417.647	183.260	190.104	321.138	420.878	290.435	399.045	344.589	452.050	224.178	407.702	344.360	376.065	0.0021119	0.00072968	0.00016131	783.85	9.0895e-06	5.9905e-06	1048.8	271.17	2.2471e-05	8.3537e-06	459.26	192.04	109.57	45.967	1.0764e-05	88.147	0.0028987	0.0029313	0.00081843	917.18	3.2116e-05	3.2204e-05	1182.8	317.71	3.2219e-05	3.2444e-05	534.12	218.05	174.57	53.967	3.2141e-05	103.77	446.599	169.300	410.951	114.955	424.917	362.233	114.291	118.992	362.799	237.388	118.088	122.876	122.368	127.958	359.574	126.575	-8191	255	
1680.192	1	1	0	0	0.0268	0.053064	0.12072	0.29298	0.28989	0.055289	0.38649	0.11906	0.2771	0.16507	0.28694	0.2494	0.30372	0.36642	0.32589	0.088096	-1.45	-2.4083	-1.9646	-1.8646	-2.2687	-1.7833	-1.9896	-2.4104	-1.7125	-2.1229	-2.0604	-1.8646	-2.2167	-1.9312	-1.8813	-2.2146	169.103	448.569	289.734	331.042	400.201	448.054	394.191	379.076	362.518	186.390	404.590	104.236	102.518	456.439	203.872	317.692	0.0022024	0.00092068	0.00081827	781.8	7.6442e-06	2.668e-06	1043.7	267.07	2.4273e-05	1.1905e-05	456.23	189.89	109.59	45.32	8.4821e-06	87.467	0.0028948	0.0029357	0.00081605	913.04	3.1827e-05	3.1764e-05	1172.5	312.4	3.1593e-05	3.1772e-05	526.01	215.09	171.83	53.057	3.1488e-05	102.46	456.502	146.910	152.365	114.312	452.011	450.907	114.314	119.690	280.999	304.207	118.828	123.731	123.001	128.685	128.789	127.206	-8191	255	
1680.288	1	1	0	0	0.1134	0.17825	0.065279	0.25657	0.15515	0.11495	0.44047	0.42851	0.050753	0.15565	0.12371	0.25842	0.17629	0.12219	0.085254	0.36375	-1.4729	-1.9396	-2.0417	-1.9125	-2.1229	-2.0292	-2.0625	-2.1458	-1.6792	-2.0062	-2.2646	-1.7875	-2.2521	-2.2417	-1.7375	-2.3812	162.625	202.138	458.238	114.242	291.835	155.515	439.916	357.943	368.445	107.851	149.241	427.685	433.307	151.919	236.616	407.234	0.0017285	0.00072469	0.00018083	775	1.1364e-05	2.9705e-06	1034.5	266.32	1.075e-05	9.0383e-06	451.35	189.42	108.83	45.552	9.3116e-06	87.51	0.0028182	0.0028495	0.00079953	902.81	3.1132e-05	3.1269e-05	1161.9	309.39	3.1278e-05	3.1466e-05	522.21	214.27	171.38	53.167	3.1274e-05	102.58	118.739	206.399	332.525	114.588	438.781	390.736	114.276	119.386	195.584	288.984	119.312	124.267	123.761	130.656	304.124	129.520	-8191	255	
1680.384	1	1	0	0	0.10265	0.18472	0.30374	0.28845	0.27871	0.2326	0.13528	0.32749	0.13718	0.044082	0.11221	0.31633	0.10764	0.20365	0.11656	0.051848	-1.325	-1.8813	-2.1167	-2.0583	-2.3333	-2.1229	-1.8896	-2.4417	-1.725	-2.0979	-2.1937	-1.7667	-2.1583	-2.1437	-1.8875	-2.4146	364.947	106.276	310.694	458.969	106.927	246.850	185.384	428.031	251.156	316.947	425.984	439.462	391.035	401.258	104.928	388.870	0.0018105	0.00051348	0.00020291	776.45	1.4349e-05	1.2797e-05	1036.7	266.95	1.1681e-05	1.2871e-05	452.39	188.97	108.02	45.361	3.4286e-06	87.569	0.002826	0.0028828	0.00080194	905.3	3.1542e-05	3.1779e-05	1168.8	311.16	3.1815e-05	3.2269e-05	525.32	214.57	172.83	53.386	3.2054e-05	102.82	453.622	115.615	435.268	117.259	107.482	121.389	116.640	122.036	372.887	439.284	121.047	125.528	125.215	130.488	235.276	129.428	-8191	255	
1680.503	1	1	0	0	0.21296	0.16868	0.05921	0.02761	0.019862	0.23506	0.33943	0.085203	0.27329	0.092114	0.21858	0.37532	0.065022	0.18197	0.13094	0.10253	-1.6437	-1.9583	-2.3229	-1.8438	-1.9937	-2.2354	-1.85	-2.4271	-2.15	-2.0146	-2.25	-1.8396	-2.0271	-2.4604	-1.85	-2.4688	333.450	417.058	135.436	248.562	241.082	139.755	355.845	373.891	157.034	197.269	424.914	431.762	192.462	457.986	269.743	390.023	0.001874	0.0011242	0.00029519	780.07	6.7602e-06	7.9823e-06	1041.9	266.21	1.8549e-05	7.3651e-06	451.99	190.46	107.19	45.264	7.1724e-06	87.923	0.0028917	0.0029331	0.00081488	912.5	3.2198e-05	3.2256e-05	1175	312.25	3.2329e-05	3.2647e-05	527.5	216	174.53	53.521	3.2227e-05	103.45	461.351	208.877	219.618	117.214	292.781	252.772	116.607	121.771	176.600	430.657	121.015	125.380	126.209	130.809	154.054	129.164	-8191	255	
1680.575	1	1	0	0	0.27374	0.12939	0.053344	0.22033	0.097873	0.067921	0.37125	0.21007	0.092662	0.11149	0.30445	0.088482	0.12078	0.15291	0.015766	0.18023	-1.5958	-1.9354	-1.9521	-1.9667	-2.0104	-2.5104	-1.9479	-2.4	-1.9542	-1.9354	-2.3167	-2.1188	-2.2292	-2.3646	-1.5958	-2.2271	458.811	235.786	250.700	365.057	306.361	336.787	416.910	118.210	210.530	234.229	112.935	320.640	396.361	399.413	245.900	229.440	0.0018944	0.0010214	0.00040097	783.46	1.3e-05	1.8478e-05	1039.4	267.18	2.8481e-05	1.1056e-05	453.57	188.41	107.96	44.846	7.6591e-06	86.578	0.002907	0.0029267	0.00081041	910.68	3.1585e-05	3.1637e-05	1170.1	310.69	3.1473e-05	3.1904e-05	522.95	213.96	171.92	52.693	3.1568e-05	101.65	114.904	168.686	278.326	117.124	210.679	213.890	116.468	120.491	232.281	342.394	120.907	125.557	125.187	130.701	225.738	129.844	-8191	255	
1680.671	1	1	0	0	0.20139	0.19674	0.026853	0.09692	0.34892	0.30634	0.039666	0.34302	0.2203	0.078212	0.071474	0.1587	0.182	0.26192	0.23366	0.094279	-1.7917	-2.05	-2.2229	-2.0104	-2.1146	-2.2562	-1.9333	-2.1396	-2.025	-1.6938	-2.5583	-2.0771	-2.0083	-2.5458	-1.8292	-2.2208	249.185	460.852	315.507	325.214	148.010	156.830	415.019	133.614	433.747	253.519	314.720	365.158	436.897	438.452	443.298	436.526	0.002322	0.00032147	0.00034428	778.11	4.0447e-06	5.3574e-06	1031.7	264.71	1.8925e-05	6.2112e-06	450.63	188.73	107.94	45.46	1.3341e-05	87.37	0.0028456	0.0028813	0.00079817	905.67	3.1177e-05	3.1381e-05	1161.3	308.49	3.1377e-05	3.154e-05	521.17	213.24	171.29	53.095	3.1256e-05	102.41	109.327	401.236	219.367	116.947	299.798	135.208	116.420	121.700	257.573	195.628	120.802	125.687	125.691	130.732	299.689	129.477	-8191	255	
1680.769	1	1	0	0	0.18683	0.32015	0.11831	0.19576	0.10339	0.11793	0.22779	0.074408	0.1721	0.23017	0.32488	0.18632	0.2439	0.29045	0.23968	0.074958	-1.5646	-1.6042	-2.1688	-2.0917	-2.0875	-2.4104	-2.2896	-2.2562	-2.1396	-1.9375	-2.1917	-2.2	-1.8937	-2.2104	-1.8479	-1.9604	162.271	334.024	430.027	385.819	224.739	380.574	382.826	148.353	243.002	138.959	131.411	118.907	253.958	449.719	188.587	291.137	0.0019726	0.0014548	0.00042854	781.81	8.7326e-06	8.5102e-06	1036.6	267.89	1.7189e-05	5.0813e-06	454.7	191.06	109.26	45.998	2.3103e-05	88.126	0.0028357	0.0028573	0.00079813	906.46	3.1214e-05	3.1316e-05	1163.6	311.25	3.1456e-05	3.1605e-05	524.86	215.65	173.02	53.675	3.1643e-05	103.54	106.860	184.168	165.503	117.087	255.963	347.667	116.439	121.631	161.081	129.609	120.966	125.591	125.222	130.837	289.073	129.379	-8191	255	
1680.888	1	1	0	0	0.24077	0.27311	0.12686	0.088963	0.12674	0.099781	0.2385	0.099025	0.31586	0.041182	0.11121	0.32065	0.18039	0.15482	0.15533	0.095242	-1.775	-2.0083	-2.3292	-2.1646	-1.875	-2.2562	-2.0625	-2.1396	-2.3396	-1.6833	-2.2354	-2.1958	-1.8125	-2.35	-1.7604	-2.1708	364.079	156.118	340.560	368.222	283.188	456.512	413.627	326.663	105.329	285.156	423.545	429.367	435.015	384.002	366.942	408.232	0.0027439	0.0013484	0.000403	782.2	1.0621e-05	1.2667e-05	1040.4	269.37	3.8966e-06	1.413e-05	458.92	190.7	109.27	45.793	1.0354e-05	87.22	0.0028792	0.0029204	0.00081154	910.8	3.2205e-05	3.2181e-05	1173.8	314.74	3.259e-05	3.2752e-05	532.19	217.46	176.78	54.139	3.3297e-05	104.21	459.354	295.491	144.046	117.294	275.568	301.425	116.506	121.855	141.476	170.794	120.743	125.513	125.474	130.310	330.778	129.851	-8191	255	
1680.984	1	1	0	0	0.12523	0.12781	0.1894	0.35014	0.11045	0.1523	0.25727	0.034046	0.083403	0.32843	0.25755	0.21142	0.41646	0.19198	0.17579	0.15393	-1.8979	-1.7771	-1.9937	-2.1292	-2.0583	-2.3854	-2.0708	-1.8188	-2.3104	-1.7396	-2.1896	-2.1833	-1.6396	-2.3479	-2.1437	-2.075	180.602	406.496	308.394	162.728	229.728	426.102	413.547	401.235	411.719	320.593	390.709	147.885	383.731	117.065	135.487	316.399	0.0018129	0.00079677	0.00022719	777.46	8.3899e-06	6.7805e-06	1042.1	270.93	1.2188e-05	1.6547e-05	462.16	191.02	110.47	45.616	1.1378e-05	87.05	0.0030522	0.0030829	0.00086236	922.01	3.3792e-05	3.3822e-05	1186.4	319.04	3.4028e-05	3.4249e-05	537.99	219.57	180.57	54.378	3.4722e-05	104.82	459.607	209.315	246.904	116.898	383.037	228.339	116.505	121.549	141.629	213.668	120.773	125.692	125.255	130.531	206.165	129.589	-8191	255	
1681.080	1	1	0	0	0.10108	0.33584	0.050022	0.16773	0.077533	0.17434	0.23831	0.14013	0.044597	0.11697	0.10529	0.19205	0.097887	0.075007	0.27669	0.082757	-1.7896	-1.75	-2.1208	-2.3146	-1.7812	-2.1396	-1.9271	-1.9813	-2.2375	-1.7333	-2.0958	-2.3146	-1.7792	-2.3438	-1.8542	-1.9208	370.623	293.526	208.534	117.703	269.134	242.322	455.765	420.382	342.532	254.448	333.644	426.909	206.185	424.955	427.266	315.619	0.0022677	0.00070824	0.0002812	785.8	2.1528e-05	3.6959e-06	1037.8	266.74	1.5961e-05	1.8407e-05	450.95	186.86	106.39	44.762	1.7822e-05	85.408	0.0031558	0.0031963	0.00089258	929.37	3.4816e-05	3.4932e-05	1186.3	316.42	3.4968e-05	3.5124e-05	531.89	216.19	179.02	53.409	3.5329e-05	103.73	107.805	240.510	205.517	117.289	251.739	407.332	116.388	121.664	212.627	365.874	120.729	125.379	125.982	130.959	296.611	129.491	-8191	255	
1681.176	1	1	0	0	0.26756	0.23864	0.06473	0.19861	0.15907	0.12691	0.1872	0.16711	0.10449	0.13926	0.29184	0.30385	0.32735	0.27472	0.15486	0.2702	-1.925	-1.8896	-2.125	-2.3667	-1.8354	-2.1063	-2.0958	-1.9229	-2.2771	-2.0396	-1.9312	-2.1521	-1.9729	-2.2521	-1.9937	-1.7979	118.624	179.704	286.695	203.970	280.160	452.972	421.360	380.128	401.566	460.857	340.447	396.419	114.613	450.621	149.662	402.514	0.0025465	0.0008714	0.00012606	776.91	8.8306e-06	7.2683e-06	1034.4	269.49	1.1928e-05	8.0235e-06	458.82	190.04	109.96	46.104	2.5075e-06	88.159	0.0031743	0.003215	0.00089203	923.45	3.4409e-05	3.4336e-05	1180.4	316.87	3.4026e-05	3.4039e-05	535.03	217.8	178.16	54.604	3.3858e-05	105.09	459.355	226.813	436.470	116.882	199.171	103.703	116.743	121.569	409.269	343.827	120.612	125.553	125.817	130.900	379.314	129.357	-8191	255	
1681.273	1	1	0	0	0.22506	0.2423	0.13521	0.14009	0.34879	0.08865	0.3913	0.12498	0.10289	0.056745	0.24608	0.22873	0.29935	0.18029	0.13437	0.24467	-1.6812	-2.0854	-2.0792	-2.1771	-1.8292	-2.0333	-2.3937	-1.9125	-2.0812	-2.2729	-2.2438	-2.5292	-1.7229	-1.9771	-2.0333	-2.0458	457.170	207.518	159.076	457.661	192.428	381.710	421.938	223.492	205.336	272.173	390.533	384.764	433.039	386.024	414.308	183.514	0.0020391	0.0012451	0.00038962	780.16	1.8212e-05	1.9625e-05	1048.3	273.04	1.8317e-05	2.449e-05	462.76	193.79	111.14	46.61	2.3714e-05	89.445	0.0030489	0.0031183	0.00086921	921.18	3.3888e-05	3.4095e-05	1187.1	320.36	3.4056e-05	3.4358e-05	541.38	221.58	181.09	55.54	3.4614e-05	106.77	117.436	132.124	129.143	117.066	344.195	236.230	116.745	121.457	209.000	265.445	120.651	125.321	122.489	127.328	192.535	126.020	-8191	255	
1681.369	1	1	0	0	0.093336	0.080021	0.095946	0.20706	0.13999	0.25062	0.38517	0.17101	0.28659	0.31712	0.20879	0.25396	0.14392	0.13071	0.2292	0.25598	-1.8521	-1.925	-1.8979	-2.3688	-1.5583	-1.9417	-2.2687	-1.9021	-2.2667	-2.0938	-1.8583	-2.3229	-1.8125	-2.2208	-2.0375	-1.8438	108.300	405.341	328.248	368.932	435.739	199.801	442.031	150.165	163.632	395.505	176.854	448.348	438.056	286.711	118.381	291.389	0.0018242	0.0005562	0.00023317	780.99	1.9179e-05	1.6619e-05	1048.4	272.29	9.0013e-06	1.2664e-05	464.4	192.32	109.87	46.097	1.3632e-05	88.006	0.0031381	0.0031846	0.00088963	929.31	3.469e-05	3.4893e-05	1195	322.2	3.4843e-05	3.5068e-05	544.68	221.03	181.79	55.222	3.4988e-05	106.04	117.143	262.173	115.123	114.036	350.342	275.647	113.604	118.489	279.259	198.321	117.736	122.570	122.699	127.329	284.952	126.350	-8191	255	
1681.489	1	1	0	0	0.3688	0.2306	0.12733	0.27932	0.054137	0.091623	0.063701	0.11976	0.068432	0.21759	0.09249	0.21478	0.12792	0.15358	0.076437	0.050637	-1.9813	-1.9729	-1.7646	-2.4208	-1.8687	-1.8083	-2.3458	-1.8896	-2.2542	-2.1042	-1.7958	-2.3833	-1.9667	-2.1146	-2.2146	-1.7	326.107	441.968	117.781	389.890	361.414	105.363	416.624	389.467	139.003	413.691	339.440	140.404	349.879	348.033	352.011	225.890	0.0014579	0.00061357	0.00050681	785.45	1.0827e-05	9.1287e-06	1044.6	271.44	1.3603e-05	3.2738e-06	455.19	188.12	108.61	45.558	1.1741e-05	86.197	0.0031707	0.0032398	0.0009018	935.32	3.541e-05	3.573e-05	1196.7	321.72	3.578e-05	3.5851e-05	540.91	219.6	183.14	54.824	3.5953e-05	105.64	453.266	127.131	183.758	113.757	150.837	311.591	113.300	118.284	287.044	163.069	117.486	122.325	122.644	127.510	217.899	126.328	-8191	255	
1681.584	1	1	0	0	0.19183	0.23904	0.11108	0.20799	0.13518	0.15675	0.13633	0.15598	0.068352	0.11664	0.23514	0.12074	0.096161	0.22982	0.22954	0.31549	-1.6208	-2.3167	-1.7708	-2.0708	-1.7542	-1.7208	-2.4542	-1.8625	-2.0312	-2.1271	-1.8354	-2.3708	-2.0396	-1.85	-2.0062	-1.8896	298.441	441.343	233.755	101.494	351.333	295.524	404.680	373.740	353.075	304.906	289.591	438.435	422.161	404.900	238.650	272.205	0.0018838	0.0014968	0.00024625	784.12	1.4288e-05	4.6364e-06	1043.6	268.21	1.7155e-05	7.2303e-06	454.25	189.24	108.12	45.331	1.8854e-05	87.43	0.0032735	0.0033231	0.00092522	938.6	3.6421e-05	3.6767e-05	1201.7	321.8	3.6831e-05	3.6853e-05	542.03	220.07	183.51	54.721	3.5658e-05	105.44	435.800	156.052	147.485	113.630	353.221	212.408	113.483	118.529	229.980	154.359	117.599	122.411	122.015	127.651	342.345	126.753	-8191	255	
1681.680	1	1	0	0	0.1591	0.039621	0.33224	0.21199	0.10698	0.24168	0.29842	0.11277	0.1335	0.16285	0.18596	0.02011	0.11829	0.14206	0.16729	0.090944	-1.5479	-2.3167	-1.65	-2.0417	-1.925	-1.6042	-2.3896	-1.9062	-2.125	-2.3146	-1.725	-2.4042	-2.0479	-1.6562	-2.1396	-2.0458	103.348	298.215	120.206	431.388	454.739	225.642	449.806	338.605	218.310	328.863	382.937	336.580	124.464	129.473	317.668	374.501	0.0023615	0.00079611	0.00026492	776.88	1.2941e-05	1.1171e-05	1037.6	269.43	1.6878e-05	2.1975e-07	454.62	189.37	107.47	45.418	2.1878e-05	87.355	0.0031853	0.0032225	0.00089179	927.17	3.4961e-05	3.4784e-05	1186.7	318.86	3.4832e-05	3.4997e-05	536.91	218.61	180.27	54.283	3.5003e-05	105.18	106.739	159.037	183.371	113.840	236.304	137.082	113.909	118.743	302.205	157.113	117.770	122.396	122.511	127.463	250.753	126.145	-8191	255	
1681.800	1	1	0	0	0.13109	0.09784	0.20715	0.18302	0.18433	0.26903	0.20445	0.14513	0.1133	0.20699	0.34037	0.083427	0.17289	0.14363	0.040656	0.31967	-1.5625	-2.2604	-1.7708	-2.1792	-2.0271	-1.5917	-2.1854	-1.975	-1.6917	-2.1583	-1.9042	-2.1479	-2.175	-2.0687	-2.2708	-1.9458	360.031	417.980	278.088	165.975	177.114	353.236	377.782	449.893	317.913	178.288	441.842	330.285	314.616	364.305	414.964	128.765	0.0021442	0.00060926	0.00042315	782.9	1.3799e-05	1.2128e-05	1039.7	269.98	1.3774e-05	2.1314e-06	458.71	189.37	108.77	45.08	2.1353e-05	86.625	0.0031859	0.0032246	0.00089967	933.06	3.5398e-05	3.5503e-05	1196.6	321.15	3.5707e-05	3.597e-05	542.05	220.17	183.73	54.521	3.6731e-05	105.85	455.506	219.940	181.624	114.148	437.378	257.749	113.518	118.520	115.286	145.586	117.896	122.587	122.902	127.715	229.138	126.742	-8191	255	
1681.872	1	1	0	0	0.20144	0.17575	0.13202	0.17224	0.062397	0.15712	0.10702	0.082836	0.13079	0.14852	0.36531	0.23476	0.069534	0.31351	0.053281	0.14847	-1.5625	-2.4125	-1.9979	-2.1021	-2.0563	-1.8833	-2.2854	-2.1583	-1.85	-2.3917	-1.8	-2.0521	-2.0417	-1.7583	-2.0042	-1.925	163.239	208.048	295.781	161.086	317.416	150.292	241.176	157.485	335.109	213.233	420.686	378.627	350.822	409.502	120.748	249.026	0.0020565	0.0016586	0.00029032	782.1	6.6461e-06	1.661e-05	1042.3	266.01	1.4477e-05	1.4335e-05	452.34	185.39	105.16	44.407	8.1559e-06	85.342	0.0033304	0.0033829	0.00094445	941.2	3.6963e-05	3.7083e-05	1203.4	320.61	3.6908e-05	3.7141e-05	539.76	218.36	184.24	54.062	3.7349e-05	105	445.129	161.136	149.924	114.114	134.144	283.868	114.055	118.806	123.202	382.524	117.890	122.384	123.169	127.628	278.636	126.349	-8191	255	
1681.967	1	1	0	0	0.38258	0.21174	0.093644	0.05153	0.11669	0.10756	0.26361	0.20609	0.082281	0.20039	0.15182	0.17937	0.055886	0.15846	0.019565	0.27133	-1.2313	-2.1042	-1.9417	-1.7812	-2.0458	-1.8021	-2.2396	-2.1146	-1.8708	-2.4729	-2.0854	-1.9479	-2.1625	-1.7583	-1.975	-2.0625	432.359	246.156	282.424	319.372	201.515	388.203	383.020	371.958	228.655	107.410	443.241	441.016	441.040	390.866	341.141	438.330	0.0021855	0.0011329	8.6808e-05	780.9	1.9062e-05	1.0772e-06	1041.3	267.66	2.4724e-05	1.3424e-05	455.13	188.75	108.3	45.223	9.4179e-06	86.502	0.0033725	0.0034173	0.00095222	939.37	3.7076e-05	3.727e-05	1200.6	321.21	3.6861e-05	3.7194e-05	542.75	220.46	184.96	54.895	3.7254e-05	106.18	456.682	207.824	230.742	113.873	315.962	293.745	113.619	118.954	158.831	389.093	118.257	123.125	122.644	128.355	163.916	127.128	-8191	255	
1682.063	1	1	0	0	0.24212	0.036643	0.23501	0.25649	0.09762	0.18272	0.17194	0.13664	0.18751	0.011169	0.075393	0.3399	0.11635	0.14396	0.1265	0.28611	-1.5	-2.3	-1.9	-2.05	-2.3625	-1.8833	-2.0875	-1.8771	-1.5583	-2.2125	-2.1208	-1.8396	-2.1542	-2.0938	-2.1583	-2.2938	145.108	111.143	202.382	392.913	289.609	452.681	407.254	130.726	150.716	329.123	254.078	131.873	282.305	413.156	205.036	358.937	0.0027029	0.00079483	0.00064261	778.68	9.31e-06	4.5909e-06	1031.9	266.39	4.1392e-06	1.1264e-05	450.76	184.67	104.85	44.169	3.1609e-05	84.339	0.0033685	0.003416	0.00095703	940.03	3.738e-05	3.7505e-05	1201.4	321	3.7286e-05	3.7588e-05	540.15	217.8	183.94	53.807	3.7482e-05	104.61	102.101	230.610	202.553	114.109	284.737	269.626	112.967	118.507	407.408	191.949	117.450	122.196	122.419	127.333	291.157	125.994	-8191	255	
1682.183	1	1	0	0	0.13021	0.24004	0.20968	0.43421	0.18981	0.34444	0.23933	0.13628	0.072447	0.20077	0.2773	0.10897	0.017351	0.26795	0.25474	0.20521	-1.1042	-2.125	-1.925	-2.025	-2.225	-1.8125	-2.0938	-2.3292	-1.9125	-2.1854	-2.125	-1.8417	-2.1833	-1.7521	-1.8062	-2.3063	452.620	384.465	282.865	425.500	373.757	441.236	379.813	404.389	253.061	223.867	401.663	452.782	445.828	112.571	275.314	124.256	0.0026034	0.00086903	0.0001849	774.3	1.0849e-05	9.6365e-06	1031.3	262.73	1.2162e-05	1.5496e-06	446.2	184.25	103.5	43.246	2.9166e-05	84.258	0.003403	0.0034478	0.00095759	938.71	3.757e-05	3.7814e-05	1199.5	318.96	3.7398e-05	3.792e-05	537.69	216.84	183.93	53.169	3.775e-05	104.03	104.128	238.742	302.723	113.677	254.186	197.457	113.335	118.617	143.460	350.546	118.151	122.833	123.162	127.972	124.146	126.579	-8191	255	
1682.279	1	1	0	0	0.33211	0.096441	0.10741	0.1078	0.16325	0.30081	0.2628	0.41498	0.32555	0.38611	0.14034	0.16884	0.11354	0.1508	0.14745	0.19714	-1.5021	-2.2	-2.0083	-1.7271	-2.1437	-1.9292	-2.1667	-2.2729	-1.9833	-1.9417	-2.1167	-1.7042	-2.0875	-2.1271	-1.8167	-2.3104	329.506	261.809	417.245	207.102	343.734	444.932	374.741	414.702	422.374	347.691	400.445	372.966	136.183	426.948	242.290	346.333	0.0020597	0.001784	0.00041117	775.24	1.5271e-05	6.2097e-06	1036.1	259.05	1.5231e-05	6.8271e-06	440.44	181.1	100.94	42.304	2.242e-05	82.73	0.003423	0.0034823	0.00097372	938.84	3.8019e-05	3.8354e-05	1201.4	315.74	3.8108e-05	3.8575e-05	532.79	214.55	183.81	52.432	3.8424e-05	102.75	120.406	150.926	257.375	114.456	224.680	151.969	114.188	119.021	189.174	315.245	117.684	122.864	122.970	127.598	252.907	126.348	-8191	255	
1682.376	1	1	0	0	0.13717	0.20525	0.16475	0.19624	0.29147	0.049266	0.14964	0.30184	0.2401	0.086157	0.17844	0.36034	0.19795	0.025677	0.090003	0.12332	-1.2542	-1.6708	-1.9104	-1.8083	-2.1417	-2.1437	-2.1125	-2.35	-1.8708	-1.975	-2.2812	-1.6313	-1.8833	-1.9125	-1.7375	-2.5125	118.644	449.796	139.198	432.670	275.604	375.397	119.843	138.403	406.916	281.599	433.352	128.566	102.875	234.298	340.776	349.448	0.0019576	0.00050258	0.00042958	771.47	1.7166e-05	5.3671e-06	1023.3	256.01	2.7525e-05	7.5608e-06	436.84	178.1	100.82	41.924	1.0461e-05	81.601	0.0034648	0.0035164	0.00098121	935.39	3.8227e-05	3.8511e-05	1190.2	312.38	3.8331e-05	3.8583e-05	528.61	211.93	182.37	52.073	3.8008e-05	102.13	107.284	442.544	156.403	114.238	413.864	273.572	114.113	119.256	246.337	337.133	118.768	124.043	123.602	128.873	300.840	129.427	-8191	255	
1682.447	1	1	0	0	0.26281	0.22632	0.19209	0.1012	0.15364	0.087471	0.21751	0.24927	0.29301	0.18009	0.16183	0.35969	0.12258	0.27069	0.2331	0.022902	-1.6771	-1.9167	-2.1833	-1.8979	-2.2458	-2.3604	-2.0708	-2.2854	-1.7583	-1.8896	-2.3688	-1.8875	-2.2292	-2.3229	-1.7812	-2.3917	311.056	346.931	233.512	132.644	180.149	163.123	196.084	309.435	435.316	456.013	443.609	419.267	414.354	145.333	228.575	315.640	0.0013202	0.000846	0.00011012	772.13	1.0331e-05	1.0359e-05	1019.3	252.79	2.6045e-05	1.9152e-05	432.3	176.6	100.27	41.427	3.8485e-05	81.588	0.0034333	0.0034853	0.00096947	929.99	3.7885e-05	3.8075e-05	1182.2	308.67	3.7724e-05	3.8013e-05	522.91	209.74	181.15	51.318	3.7872e-05	101.49	121.750	290.747	238.640	117.160	139.141	366.806	116.635	121.819	403.568	229.968	121.051	125.561	125.194	130.624	212.920	129.542	-8191	255	
1682.568	1	1	0	0	0.0696	0.22038	0.15838	0.10637	0.14391	0.20557	0.3461	0.13933	0.2111	0.17732	0.12969	0.2505	0.22115	0.072826	0.24449	0.26271	-1.6292	-2.0062	-2.2646	-2.0854	-2.1854	-1.9417	-1.7938	-2.3646	-2.0375	-1.9813	-2.4313	-1.9438	-1.8167	-2.05	-1.5312	-2.1896	431.978	423.150	119.606	245.844	297.840	141.449	418.775	386.336	181.210	385.443	356.691	428.166	324.221	365.254	370.732	359.262	0.0012712	0.0016453	0.00027982	765.65	7.4691e-06	7.1981e-06	1019.2	253.38	2.3618e-05	1.4579e-05	431.5	177.05	99.884	41.219	7.0026e-06	81.801	0.0034401	0.0034818	0.00096578	927.48	3.7618e-05	3.7668e-05	1178.9	307.56	3.7345e-05	3.7488e-05	521.23	209.38	179.72	51.066	3.7381e-05	101.45	444.629	132.529	246.509	116.971	101.896	134.899	116.017	119.120	334.876	229.921	118.390	122.652	122.329	127.465	328.481	127.354	-8191	255	
1682.664	1	1	0	0	0.26815	0.28218	0.33325	0.072987	0.15864	0.26852	0.22089	0.14551	0.12675	0.18011	0.24879	0.41713	0.23023	0.37533	0.1756	0.16561	-1.6125	-1.875	-2.2812	-1.9479	-1.8917	-2.1646	-1.8188	-2.375	-2.1188	-1.9833	-2.4042	-1.9375	-1.7521	-2.1021	-1.6729	-2.2729	163.145	352.430	397.431	264.380	253.157	391.946	424.743	168.920	214.435	343.367	411.681	400.869	111.876	101.196	159.445	124.736	0.0016471	0.0013711	0.00058853	765.58	8.6173e-06	3.8377e-06	1018.2	251.89	1.3746e-05	9.528e-06	432.66	177.54	100.23	41.743	4.5438e-06	81.8	0.0033966	0.0034311	0.00095573	926.59	3.7313e-05	3.7378e-05	1180.3	307.38	3.7108e-05	3.7317e-05	521.46	209.92	179.95	51.414	3.7188e-05	101.68	114.818	185.331	173.193	114.305	258.674	214.194	113.747	119.136	223.455	328.138	117.797	122.924	122.423	128.124	102.774	126.548	-8191	255	
1682.760	1	1	0	0	0.2851	0.080605	0.25214	0.16127	0.060815	0.21984	0.14121	0.086538	0.21955	0.1921	0.079991	0.027538	0.17321	0.14952	0.11159	0.071159	-1.6812	-1.7854	-2.2604	-2.0479	-1.9188	-1.9875	-1.8271	-2.2729	-2.1354	-1.8167	-2.3917	-2.0604	-1.7875	-2.35	-1.7062	-2.0563	321.027	261.519	459.690	451.662	414.696	425.467	109.321	396.847	117.287	134.614	425.183	268.980	314.371	380.856	416.005	146.174	0.0014033	0.0012892	0.00033185	762.98	4.7716e-06	1.9054e-05	1014.6	253.93	1.649e-05	8.6752e-06	436.27	179.41	102.44	42.302	1.3249e-05	82.963	0.0033903	0.0034309	0.00095635	922.93	3.749e-05	3.7711e-05	1178.7	309.42	3.7597e-05	3.7693e-05	525.34	212.59	181.99	52.402	3.7938e-05	102.78	455.008	116.869	220.472	113.698	408.847	194.043	113.858	119.018	187.494	279.730	117.870	123.040	122.931	127.971	395.060	126.413	-8191	255	
1682.881	1	1	0	0	0.10207	0.12021	0.032856	0.21668	0.12515	0.24431	0.14848	0.21792	0.066782	0.082363	0.23901	0.15447	0.067589	0.18013	0.15321	0.22433	-1.8292	-1.8167	-2.3	-2.0708	-1.8646	-2.1688	-1.8438	-2	-1.9708	-1.7521	-2.1104	-2.1583	-1.9688	-2.3167	-1.9125	-2.0292	319.052	338.089	141.579	446.832	135.294	323.744	387.651	386.807	175.933	292.581	387.539	366.519	219.492	412.525	231.452	433.411	0.0021552	0.0012063	0.00031304	762.89	1.3074e-05	9.0879e-06	1016.4	251.66	1.0893e-05	8.2194e-06	431.64	177.55	101.22	42.301	1.2604e-05	82.708	0.0034485	0.0034883	0.00097721	928.85	3.825e-05	3.8287e-05	1184	309.31	3.8133e-05	3.8242e-05	524.85	212.5	182.01	52.215	3.7673e-05	102.76	460.348	228.900	161.679	114.516	451.881	316.366	114.039	119.263	250.203	327.932	118.342	123.145	122.631	128.015	265.573	126.745	-8191	255	
1682.977	1	1	0	0	0.24241	0.11947	0.061226	0.38304	0.23146	0.10851	0.19706	0.27171	0.13783	0.20467	0.29441	0.13049	0.20335	0.12633	0.058364	0.0065129	-1.775	-1.525	-2.1771	-2.125	-1.7917	-2.2979	-1.9312	-1.8	-2.175	-1.7896	-2.0271	-2.0875	-1.65	-2.3563	-1.8563	-2.0687	356.050	385.315	207.087	427.079	377.577	377.807	293.070	388.013	388.606	456.558	440.550	435.344	270.249	230.645	224.741	179.165	0.0023224	0.0020317	0.00022628	761.82	3.6588e-06	1.2715e-05	1015.3	253.35	2.4836e-05	6.6226e-06	433.6	179.17	102.94	42.879	8.4479e-06	83.889	0.0033846	0.0034355	0.00096016	923.41	3.7373e-05	3.7621e-05	1178.7	308.53	3.7172e-05	3.741e-05	524.67	211.58	180.37	52.519	3.715e-05	103.46	431.127	185.468	443.243	114.188	260.305	221.814	114.122	118.774	198.944	442.035	118.251	123.059	123.787	128.161	235.612	126.709	-8191	255	
1683.071	1	1	0	0	0.34447	0.15594	0.19063	0.49338	0.08787	0.41505	0.21722	0.056752	0.0055029	0.27559	0.29061	0.14127	0.030654	0.12208	0.36204	0.45377	-1.8521	-1.6688	-2.1271	-2.3688	-1.5146	-2.1562	-1.9271	-1.7271	-2.2771	-1.8542	-2.1167	-2.1875	-1.8521	-2.1896	-2.1188	-1.8667	161.816	271.928	291.363	442.528	229.298	108.948	429.129	353.687	268.888	289.652	450.321	395.743	417.998	426.496	252.570	104.162	0.0016879	0.000568	0.00057837	768.13	1.678e-05	1.7804e-05	1021.8	256.74	8.7516e-06	1.2928e-05	437.86	179.98	100.77	42.302	9.031e-06	82.628	0.0033609	0.0034278	0.00095609	928.06	3.7339e-05	3.7725e-05	1186.6	312.1	3.7416e-05	3.772e-05	526.34	212.29	180.65	52.117	3.7445e-05	102.32	121.637	157.928	208.846	113.685	223.885	227.096	113.386	119.105	134.872	371.469	117.917	122.397	122.230	127.844	232.444	126.585	-8191	255	
1683.168	1	1	0	0	0.199	0.24736	0.43649	0.35931	0.35846	0.14226	0.24889	0.15027	0.1029	0.25924	0.040956	0.22401	0.084336	0.16375	0.28003	0.1584	-1.6688	-1.7958	-1.9875	-2.425	-1.7875	-2.2687	-2.2	-1.9062	-1.9875	-1.7854	-2.1437	-2.4479	-1.9896	-2.1396	-2.1813	-1.8813	219.676	328.499	112.030	375.397	330.599	213.562	401.705	415.895	298.763	458.222	102.015	377.018	356.907	415.102	259.896	125.669	0.0025703	0.00016553	0.00012424	763.84	1.6402e-05	5.3782e-06	1020.5	254.43	1.8955e-05	1.0584e-05	433.52	178.14	100.99	42.273	4.0786e-06	82.16	0.0033605	0.0034091	0.00094746	921.98	3.6827e-05	3.715e-05	1178.6	307.26	3.6652e-05	3.7025e-05	521.85	210.16	178.63	51.837	3.6702e-05	101.88	102.930	442.660	161.192	114.159	203.405	202.892	113.433	118.676	256.087	111.212	117.585	122.628	122.516	127.659	185.791	126.535	-8191	255	
1683.264	1	1	0	0	0.18342	0.12009	0.15039	0.21324	0.043027	0.26574	0.15607	0.16719	0.21542	0.066425	0.23576	0.062079	0.24396	0.26659	0.12922	0.064846	-1.8646	-2.0729	-1.9312	-2.2896	-1.5625	-2.0083	-2.3208	-1.7125	-2.1521	-1.8771	-1.7104	-2.1729	-1.6104	-2.0125	-2.125	-1.8271	159.958	108.786	162.996	414.248	261.969	244.951	198.192	378.394	303.269	414.455	405.496	416.372	416.958	411.548	332.179	250.539	0.0014945	0.00096926	0.00040527	764.92	1.3793e-05	9.4596e-06	1013.6	257.21	9.9536e-06	3.9446e-06	440.69	181.91	102.4	43.53	1.4476e-05	84.721	0.0033005	0.0033482	0.0009295	919.74	3.6144e-05	3.6303e-05	1172.8	309.81	3.6008e-05	3.6216e-05	525.4	213.36	178.76	52.891	3.5839e-05	103.16	452.090	204.084	215.016	114.360	170.731	240.821	113.818	118.750	314.895	451.183	117.848	122.315	121.920	127.810	189.340	126.251	-8191	255	
1683.360	1	1	0	0	0.063435	0.11065	0.14033	0.30629	0.14716	0.095397	0.32629	0.035006	0.13249	0.11105	0.15127	0.13785	0.12427	0.11561	0.27369	0.34211	-1.8729	-2.0354	-1.7625	-2.2417	-1.8229	-1.9333	-2.4583	-1.8375	-2.0292	-1.9583	-2.0438	-2.3812	-1.9729	-1.925	-2.1521	-1.8979	172.146	368.527	259.897	116.078	243.695	300.794	411.556	242.627	396.184	110.263	106.411	369.667	288.603	396.973	290.284	111.060	0.0019241	0.001777	0.00023695	766.85	6.9222e-06	8.0191e-06	1025.3	259.06	2.3933e-05	6.0514e-06	446.27	184.39	104.91	44.091	1.0688e-05	86.117	0.0032339	0.0032841	0.00091377	917.3	3.5465e-05	3.55e-05	1176.3	310.77	3.5328e-05	3.5455e-05	528.02	214.8	178.14	53.321	3.5465e-05	103.98	450.172	188.768	423.155	113.788	276.720	236.748	113.333	118.510	203.416	300.775	117.840	122.577	122.895	127.964	173.134	126.852	-8191	255	
1683.480	1	1	0	0	0.32348	0.40741	0.11672	0.24828	0.13254	0.3792	0.15232	0.15369	0.34763	0.22886	0.26161	0.085541	0.036148	0.24579	0.054503	0.1247	-1.8563	-1.9833	-1.7083	-2.2812	-1.8667	-1.9333	-2.1708	-1.8104	-2.1167	-2.3563	-1.7229	-2.3208	-2.0146	-2.0667	-2.2729	-2.0875	287.148	264.226	331.965	414.120	192.024	192.265	231.067	118.957	282.508	246.609	154.947	331.190	269.702	298.499	358.220	307.836	0.0012916	0.00070876	0.00025681	769.37	1.6481e-05	7.52e-06	1026.9	261.42	8.2599e-06	1.2407e-05	445.15	185.81	106.87	44.33	2.0927e-05	85.543	0.0032212	0.0032373	0.00090335	917.04	3.5351e-05	3.5498e-05	1177.5	312.39	3.5481e-05	3.5527e-05	529.76	215.95	179.37	53.405	3.5245e-05	104.06	456.580	435.951	221.120	113.896	188.789	119.774	113.776	118.981	215.406	256.185	117.566	122.903	123.340	127.573	283.308	127.189	-8191	255	
1683.577	1	1	0	0	0.080274	0.22093	0.26788	0.21701	0.1605	0.20688	0.17316	0.082741	0.12938	0.14968	0.34729	0.2498	0.067071	0.12135	0.08397	0.26152	-1.7687	-2.1542	-1.6562	-2.2812	-1.8229	-1.8542	-2.2458	-1.9	-1.9208	-1.9521	-1.9271	-2.2562	-1.9625	-1.7125	-2.0438	-1.9833	145.953	224.025	429.092	106.809	106.707	434.214	417.865	207.852	322.536	190.051	401.949	337.110	303.074	111.589	214.282	404.588	0.0018243	0.0012078	0.0004612	758.91	5.0639e-06	1.0722e-05	1021	259.85	2.0989e-05	3.3338e-06	444.56	186.29	105.87	44.793	1.0945e-05	86.533	0.0032116	0.0032398	0.00090263	911.62	3.5367e-05	3.5658e-05	1173.9	311.33	3.542e-05	3.5429e-05	529.1	216.52	179.75	53.838	3.5147e-05	104.82	458.299	215.359	200.509	114.119	251.109	221.049	114.309	119.207	310.560	316.527	118.201	123.154	123.536	128.362	303.301	127.128	-8191	255	
1683.673	1	1	0	0	0.16344	0.2793	0.20785	0.16732	0.13148	0.26908	0.128	0.14553	0.1984	0.17358	0.2763	0.059929	0.1131	0.14871	0.18057	0.11615	-1.5104	-2.0187	-1.55	-1.9333	-1.7833	-1.9208	-2.2375	-1.8813	-1.7521	-2.2062	-1.7729	-2.2833	-1.9854	-1.8854	-2.3354	-1.8771	407.123	405.241	124.812	177.067	369.368	259.839	104.166	378.577	280.748	204.192	130.964	197.433	345.657	451.283	452.350	354.158	0.0021634	0.00053629	0.00022047	761	1.8327e-06	9.193e-06	1014.5	261.23	1.3901e-05	1.7041e-05	444.07	186.41	105.66	44.56	1.3958e-05	86.37	0.0031805	0.0032115	0.00088453	907.47	3.4723e-05	3.4753e-05	1164	309.87	3.4509e-05	3.4643e-05	525.25	215.99	177.69	53.338	3.456e-05	104.12	460.274	323.936	193.328	114.580	429.302	293.063	113.798	118.650	289.094	272.756	117.731	122.631	123.135	127.455	317.184	126.270	-8191	255	
1683.744	1	1	0	0	0.076688	0.11814	0.24234	0.21327	0.38725	0.25543	0.044494	0.13619	0.20179	0.072352	0.21564	0.47096	0.20027	0.18302	0.20106	0.18027	-1.3396	-2.3688	-1.7667	-1.9833	-1.9708	-1.7062	-2.4208	-2.1271	-1.7354	-2.125	-1.9583	-2.1125	-2.0042	-1.8583	-2.4625	-1.9042	419.309	390.336	243.055	102.247	321.971	117.571	252.918	354.825	207.566	167.946	458.473	456.163	438.049	404.286	233.326	424.084	0.0020727	0.00024763	0.00035099	757.32	6.7238e-06	5.1753e-06	1011.6	255.88	1.4374e-05	1.7377e-05	439.46	184.26	106.02	43.194	1.2863e-05	85.353	0.0031201	0.0031748	0.00088403	905.36	3.4715e-05	3.4732e-05	1163.7	306	3.4676e-05	3.5007e-05	521.26	213.75	176.84	52.199	3.4942e-05	102.95	102.975	278.931	215.321	114.184	355.114	171.356	113.577	118.977	215.358	225.110	117.885	122.915	123.265	128.156	195.506	126.671	-8191	255	
1683.841	1	1	0	0	0.056479	0.27634	0.14594	0.15094	0.18582	0.20895	0.096208	0.17263	0.13634	0.10336	0.15198	0.10153	0.07568	0.1842	0.12231	0.24031	-1.5812	-2.2	-1.7812	-1.975	-1.8896	-1.7479	-2.2188	-1.9438	-2.0729	-2.2521	-2.0708	-1.8833	-2.0729	-1.8958	-1.9771	-2.0583	386.671	267.190	160.481	363.940	160.265	407.932	406.340	129.953	374.240	178.963	389.465	420.417	130.113	119.074	282.266	455.771	0.0018965	0.00038481	0.00037065	757.74	1.1705e-05	7.8002e-06	1008.7	252.21	5.1018e-06	7.0771e-06	436.37	182.61	102.81	43.035	9.5468e-06	84.941	0.0031443	0.0031733	0.00088026	902.63	3.4269e-05	3.4207e-05	1155.6	301	3.3731e-05	3.3825e-05	513.88	210.71	171.29	51.542	3.3081e-05	101.6	454.206	296.699	288.202	113.949	168.689	382.820	113.875	119.044	207.639	375.127	118.844	123.343	124.536	128.177	393.208	126.561	-8191	255	
1683.959	1	1	0	0	0.22911	0.21052	0.24622	0.11383	0.13205	0.1496	0.32529	0.26573	0.31593	0.022841	0.05658	0.027177	0.20258	0.035973	0.29575	0.19706	-1.2854	-2.3458	-1.5917	-1.7875	-2.45	-1.8125	-2.125	-2.0062	-1.5562	-2.2333	-2	-1.9375	-2.0438	-2.1083	-1.9937	-2.0792	102.345	187.728	191.206	132.746	342.593	146.582	396.108	423.318	308.907	460.530	126.742	417.900	164.805	169.773	150.424	384.826	0.0022578	0.00052143	0.00023394	757.45	7.378e-06	4.3277e-06	1002.3	254	3.6442e-06	1.4489e-05	438.45	182.55	104.33	43.381	1.6258e-05	84.832	0.002979	0.0030197	0.00084093	895.22	3.3093e-05	3.319e-05	1150.6	300.56	3.2913e-05	3.3519e-05	513.8	209.92	171.73	51.675	3.3496e-05	101.48	457.231	155.219	191.957	114.501	173.056	358.240	113.685	119.189	379.600	220.969	118.081	122.811	123.051	128.172	179.237	126.695	-8191	255	
1684.056	1	1	0	0	0.13148	0.33564	0.06825	0.34845	0.1078	0.25461	0.21517	0.16355	0.3297	0.11437	0.11892	0.53859	0.18949	0.20412	0.1514	0.045711	-1.1042	-2.1875	-2.1146	-1.8917	-2.2875	-1.8771	-2.3063	-2.3042	-1.7229	-2.1104	-2.1833	-1.9854	-2.2417	-1.8208	-1.9792	-2.1958	177.474	269.847	183.517	385.253	237.687	445.866	333.673	403.928	269.736	458.499	431.772	440.833	386.153	371.326	284.123	315.405	0.0014305	0.00064772	0.00030746	758.22	1.0695e-05	6.3538e-06	1012.5	255.62	1.7267e-06	7.8702e-06	438.14	181.66	102.39	43.063	2.1933e-05	84.782	0.0030237	0.0030796	0.00086008	900.25	3.3514e-05	3.3984e-05	1159	303.62	3.3827e-05	3.4128e-05	516.77	210.32	172.97	51.838	3.3819e-05	101.65	103.618	216.188	247.729	114.382	432.531	118.789	113.639	119.212	221.022	317.917	118.120	122.564	122.900	127.807	226.520	126.437	-8191	255	
1684.152	1	1	0	0	0.25513	0.33882	0.13682	0.18293	0.015403	0.20031	0.11785	0.35054	0.14234	0.048182	0.1009	0.23895	0.084731	0.2385	0.15773	0.25945	-1.3458	-2.1125	-1.8125	-1.9625	-2.2958	-1.9417	-2.2292	-2.0062	-1.7854	-2.1396	-2.1875	-1.7875	-2.2354	-1.8417	-1.8229	-2.3396	150.020	404.056	160.533	411.208	120.744	167.014	268.125	404.300	105.711	415.311	105.665	415.628	125.118	453.306	208.973	361.621	0.0020901	0.0011054	0.00031267	764.12	8.2778e-06	1.9521e-05	1016.1	256.06	1.9509e-05	6.694e-06	440.82	182.92	102.82	43.102	4.2187e-06	84.433	0.0030612	0.0031035	0.00086275	903.32	3.3874e-05	3.4046e-05	1162.2	305.32	3.391e-05	3.4349e-05	518.96	211.28	173.68	52	3.4358e-05	101.98	105.522	175.999	229.728	114.557	128.711	173.226	113.756	118.636	206.306	278.018	118.108	122.580	122.889	127.884	406.390	126.574	-8191	255	
1684.248	1	1	0	0	0.099995	0.028794	0.25239	0.20852	0.32885	0.27551	0.055024	0.11459	0.10903	0.098458	0.083391	0.12355	0.0095047	0.21263	0.071676	0.26773	-1.3833	-1.9625	-2.1312	-1.8646	-2.1208	-2.1333	-2.0667	-2.1979	-1.6208	-2.0896	-2.2958	-1.9646	-2.2542	-2.0167	-1.675	-2.2833	350.002	104.559	265.375	412.909	230.981	325.747	270.783	387.134	227.613	315.970	188.406	213.695	405.874	421.131	237.824	283.383	0.0014559	0.0018207	0.00018006	765.19	3.7605e-06	1.0324e-05	1022.5	255.1	7.1845e-06	1.0832e-05	442.53	182.94	102.94	43.141	2.2321e-05	83.574	0.0031004	0.0031579	0.0008823	909.3	3.4499e-05	3.4749e-05	1167.8	307.03	3.461e-05	3.4805e-05	522.3	211.76	174.72	51.931	3.4234e-05	101.67	452.545	129.515	288.416	114.097	315.086	389.697	113.245	118.828	359.166	186.008	117.883	122.537	121.990	128.137	261.081	127.006	-8191	255	
1684.344	1	1	0	0	0.17871	0.27775	0.23911	0.19784	0.2723	0.23276	0.29632	0.06292	0.069186	0.16625	0.23882	0.15706	0.226	0.27393	0.15908	0.25476	-1.4417	-2.1437	-2.2313	-1.8354	-2.1083	-1.9896	-1.8312	-2.275	-1.9833	-2.1708	-2.1104	-1.8333	-2.25	-2.2792	-1.7958	-2.3604	355.422	295.267	324.516	409.401	358.795	350.382	438.486	384.241	437.388	280.864	132.965	170.797	434.362	153.909	128.242	110.756	0.0020607	0.0012481	0.00024043	764.07	1.4111e-05	1.6399e-05	1026.5	255.81	1.9039e-05	5.7307e-06	440.26	181.4	102.8	43.107	1.4191e-05	83.775	0.0030839	0.0031167	0.00086178	906.7	3.3843e-05	3.3757e-05	1166	305.14	3.3716e-05	3.4013e-05	518.05	210.44	172.5	51.726	3.357e-05	100.97	457.762	154.726	222.290	113.976	148.846	234.512	113.797	119.212	246.975	209.827	118.394	123.312	123.452	128.324	319.931	126.986	-8191	255	
1684.440	1	1	0	0	0.14214	0.24978	0.086671	0.18559	0.034504	0.088438	0.21316	0.21934	0.15179	0.24848	0.10027	0.049851	0.40683	0.29692	0.15794	0.11613	-1.3792	-1.9396	-2.3187	-1.9125	-2.0417	-2.1625	-1.9896	-2.0167	-1.8438	-1.7958	-2.3396	-1.9167	-2.15	-2.1625	-1.9688	-2.3063	201.234	355.321	136.218	326.573	413.136	347.672	424.647	161.766	161.390	147.232	218.081	408.546	379.086	433.886	153.966	368.234	0.0016169	0.0014316	5.515e-05	757.64	9.0894e-06	4.8248e-06	1016.6	255.23	2.1178e-05	1.5148e-05	438.37	181.42	103.58	43.405	1.2874e-05	84.61	0.0030242	0.0030656	0.00085041	900.54	3.3284e-05	3.3259e-05	1155.6	302.76	3.3264e-05	3.3181e-05	515.67	209.71	171.7	51.765	3.2898e-05	101.38	107.093	140.980	403.217	113.811	176.432	443.396	113.268	118.975	165.995	227.018	118.328	122.650	122.927	127.728	264.541	126.541	-8191	255	
1684.561	1	1	0	0	0.11725	0.11139	0.28754	0.16418	0.16504	0.094041	0.2933	0.404	0.14655	0.13697	0.44871	0.3722	0.20953	0.13152	0.10393	0.2004	-1.5125	-2.0646	-2.1042	-2.1042	-2.0729	-2.0146	-1.7687	-2.4125	-2.0479	-1.9292	-2.4062	-1.8333	-2.0208	-2.2646	-1.8667	-2.3292	211.518	446.788	259.725	128.333	158.012	284.824	459.957	430.154	411.880	433.600	211.489	399.724	420.483	391.143	422.102	133.433	0.0020972	0.00086505	0.00065039	760.37	1.382e-05	1.0661e-05	1012.2	253.49	8.633e-06	5.4329e-06	435.73	180.15	101.67	42.602	1.2097e-05	83.631	0.0029967	0.003025	0.00084545	899.31	3.3083e-05	3.3107e-05	1156	301.22	3.2988e-05	3.3209e-05	512.61	207.64	170.51	51.098	3.3003e-05	100.59	450.388	242.012	308.382	113.791	190.888	228.425	113.649	118.546	113.107	343.685	117.730	122.683	122.907	127.975	281.230	126.504	-8191	255	
1684.657	1	1	0	0	0.23813	0.24311	0.17551	0.42543	0.18155	0.14049	0.13775	0.030806	0.24578	0.18222	0.086668	0.056582	0.16432	0.052524	0.15757	0.1809	-1.8396	-1.9479	-2.2771	-1.8875	-1.9188	-2.4	-1.8917	-2.1229	-1.9729	-1.8417	-2.2458	-2.0833	-1.75	-2.1688	-1.7396	-2.1312	134.328	344.141	431.420	445.779	159.982	434.002	122.058	266.606	319.480	338.207	323.382	408.951	120.526	378.452	333.893	283.087	0.0012275	0.0010553	5.6094e-05	760.59	6.1799e-06	5.9959e-06	1013.5	253.64	1.0641e-05	7.0781e-06	432.98	179.63	101.63	42.334	1.0811e-05	83.102	0.0030013	0.0030424	0.00084826	900.57	3.3309e-05	3.3388e-05	1156.6	300.78	3.3196e-05	3.3266e-05	512.63	207.31	169.58	50.789	3.3143e-05	100.13	120.136	304.682	140.009	114.974	395.032	263.664	113.436	118.509	344.115	116.829	118.129	122.677	123.118	128.023	218.618	126.471	-8191	255	
1684.753	1	1	0	0	0.24313	0.21693	0.30173	0.16864	0.22169	0.12458	0.29577	0.11367	0.24801	0.30911	0.33894	0.20583	0.08455	0.17909	0.15311	0.32293	-1.6458	-1.7396	-2.1792	-2.0312	-1.9438	-2.3771	-2.0812	-2.3	-2.1125	-1.7437	-2.1375	-2.2208	-1.8479	-2.3458	-1.6125	-1.8937	331.862	197.423	142.461	377.280	182.562	176.084	380.701	454.459	351.085	231.003	421.637	432.580	374.384	384.325	366.551	433.964	0.0019517	0.00054787	0.00044661	762.04	8.6648e-06	2.15e-05	1014.9	250.1	1.4558e-05	9.0206e-06	430.58	176.58	99.749	40.941	9.8873e-06	80.817	0.0030017	0.0030494	0.00085097	901.37	3.324e-05	3.3529e-05	1154.5	297.68	3.3429e-05	3.3662e-05	508.74	204.62	169.19	49.694	3.3766e-05	98.249	441.838	226.566	214.924	114.022	183.034	230.703	113.922	119.306	316.735	169.173	117.655	122.854	123.189	128.037	190.991	126.702	-8191	255	
1684.849	1	1	0	0	0.34518	0.13481	0.057691	0.25245	0.18119	0.10253	0.1548	0.43693	0.35787	0.15339	0.040943	0.13213	0.13444	0.3243	0.21615	0.37709	-1.775	-1.8167	-2.1271	-1.9813	-1.6833	-2.075	-1.9854	-2.1917	-2.3479	-1.7354	-2.1208	-2.0438	-1.7167	-2.3812	-1.8521	-1.9896	123.864	191.131	116.913	455.305	198.282	191.104	365.394	430.554	333.329	208.162	239.988	172.316	366.294	380.412	194.902	438.698	0.0016645	0.00038929	0.00023548	750.94	1.2311e-05	4.8793e-06	996.88	240.4	1.1482e-05	9.5108e-06	413.93	168.08	94.551	38.75	6.7537e-07	76.965	0.0030411	0.003081	0.00086495	894.6	3.3576e-05	3.3796e-05	1142.9	290.16	3.3849e-05	3.4065e-05	494.45	197.7	165.83	47.524	3.4131e-05	95.141	126.296	233.529	198.516	113.925	346.565	273.050	113.739	118.990	130.487	173.059	118.109	122.584	122.814	128.134	149.399	126.471	-8191	255	
1684.968	1	1	0	0	0.19654	0.11642	0.15288	0.50263	0.12045	0.017424	0.25367	0.25638	0.10697	0.31458	0.17012	0.051559	0.24761	0.12062	0.16577	0.15258	-1.7125	-1.7313	-2.1854	-2.1833	-1.6458	-2.1479	-1.9021	-2.0062	-2.0667	-1.6229	-2.1479	-2.2271	-1.6562	-1.9604	-1.8312	-1.9333	189.457	231.796	357.883	114.735	391.332	108.957	417.712	383.327	321.991	426.733	457.316	243.755	202.119	104.967	142.161	451.100	0.0013856	0.00080149	0.00064213	752.79	1.2686e-05	1.2772e-05	993.76	237.82	1.5807e-05	7.5642e-06	409.39	166.88	92.31	38.304	8.9494e-06	77.299	0.0030865	0.0031142	0.00087207	893.94	3.4055e-05	3.4112e-05	1138	286.99	3.3632e-05	3.3666e-05	489.92	195.38	162.79	46.985	3.2957e-05	94.421	102.866	172.350	209.311	113.946	230.375	273.362	113.510	118.835	171.489	144.363	118.236	122.698	123.222	128.170	249.008	126.370	-8191	255	
1685.040	1	1	0	0	0.094297	0.12956	0.19043	0.19292	0.29953	0.12527	0.19236	0.14628	0.11334	0.12132	0.29471	0.18256	0.39059	0.30969	0.1906	0.37914	-1.9083	-1.8333	-1.9854	-2.3792	-1.6958	-2.1562	-2.0146	-1.9917	-2.05	-1.7125	-2.0563	-2.4125	-1.625	-2.0187	-2.1229	-1.8104	194.082	120.632	134.418	452.608	386.737	318.521	371.587	289.069	348.404	363.957	383.252	230.587	426.417	119.190	149.548	332.294	0.0018634	0.00084104	8.6447e-05	746.42	1.7156e-05	1.032e-05	992.51	237.65	5.1266e-06	1.1333e-05	409.94	167.42	93.919	38.84	3.223e-05	78.048	0.0029451	0.0029933	0.00083051	882.47	3.2435e-05	3.2698e-05	1130.1	284.38	3.2718e-05	3.3039e-05	487.76	195.37	162.78	47.342	3.2907e-05	95.061	452.339	133.764	449.576	114.150	214.923	225.709	114.003	119.053	214.313	198.202	118.578	123.699	122.460	128.412	231.099	127.265	-8191	255	
1685.136	1	1	0	0	0.3751	0.068536	0.29502	0.30453	0.026488	0.15703	0.23159	0.23124	0.31005	0.1616	0.42413	0.2278	0.11891	0.16253	0.17825	0.26536	-1.6875	-1.8563	-1.7167	-2.2562	-1.9354	-2.1292	-1.9604	-1.7104	-2.2125	-1.825	-1.925	-2.3187	-1.8896	-2.2167	-2.0167	-1.7417	184.930	148.399	273.767	127.211	409.589	411.230	451.444	415.597	114.473	453.638	350.958	367.767	226.318	405.974	399.879	292.015	0.0016862	0.0010978	0.00023324	750.25	1.2833e-05	1.3698e-05	996.74	239.41	1.3531e-05	1.1519e-05	413.94	166.91	93.434	38.593	5.1443e-06	76.726	0.0029938	0.0030392	0.00084489	889.77	3.3133e-05	3.338e-05	1139.1	287.46	3.3096e-05	3.3385e-05	489.95	195.35	162.9	47.127	3.3317e-05	94.42	111.675	209.397	140.695	114.186	195.041	262.443	113.596	119.008	117.391	244.848	117.971	122.917	122.334	127.972	161.527	126.401	-8191	255	
1685.257	1	1	0	0	0.33655	0.083069	0.20522	0.10808	0.19282	0.2192	0.11935	0.20661	0.092514	0.09741	0.18965	0.19862	0.12487	0.33535	0.12392	0.087874	-1.725	-2.1	-1.8271	-2.3792	-1.6313	-2.1604	-2.2708	-1.8854	-2.3125	-2.05	-1.95	-2.25	-1.9188	-2.1458	-1.9813	-1.9729	239.960	105.917	304.081	357.012	299.249	153.849	329.272	421.966	138.975	235.351	138.031	362.042	140.490	278.226	288.973	266.553	0.0018481	0.00095682	0.00048613	747.94	1.5821e-05	3.1765e-06	991.76	238.67	4.8632e-06	1.8824e-05	412.63	168.17	93.262	39.519	1.4324e-05	78.537	0.0030129	0.0030463	0.00084741	887.81	3.2982e-05	3.3009e-05	1135.9	287.47	3.2983e-05	3.3315e-05	491.41	196.5	164.25	48.043	3.3099e-05	95.792	103.907	237.737	192.780	114.378	373.810	322.813	113.892	119.048	332.900	256.678	118.335	123.300	124.187	128.466	186.365	127.095	-8191	255	
1685.353	1	1	0	0	0.020498	0.13293	0.15966	0.11704	0.10805	0.0097878	0.027689	0.21272	0.087837	0.25456	0.50808	0.087669	0.19114	0.15684	0.025088	0.18025	-1.8771	-2.025	-1.9875	-2.2208	-1.8292	-2.1542	-2.0812	-1.8271	-2.3542	-2.25	-1.9438	-2.4292	-1.7292	-1.8042	-2.1917	-1.9854	133.235	165.740	194.739	453.562	235.045	220.950	320.307	393.317	127.529	410.147	116.012	163.316	420.596	383.133	269.828	344.791	0.0021002	0.00048702	0.00052013	756.7	1.5551e-05	1.5979e-05	1007	248.36	5.5661e-06	9.8243e-06	429.36	176.06	99.304	42.277	6.823e-06	82.664	0.002985	0.0030102	0.00083216	891.82	3.2549e-05	3.2353e-05	1143.1	294.77	3.209e-05	3.2024e-05	502.66	202.28	164.69	50.14	3.1544e-05	98.463	456.807	177.878	428.095	114.526	338.261	246.445	114.468	119.554	200.272	336.796	118.945	123.595	124.929	131.014	242.340	129.820	-8191	255	
1685.449	1	1	0	0	0.14089	0.10946	0.11282	0.23147	0.13125	0.19576	0.0070018	0.11294	0.053805	0.21182	0.070366	0.32335	0.15532	0.14965	0.14553	0.33021	-1.8271	-2.0604	-1.7938	-2.7167	-2.0083	-1.9438	-2.25	-1.7771	-2.0771	-2.0771	-1.8312	-2.4646	-2.0187	-2.0062	-2.0354	-1.6896	417.198	128.967	428.261	444.934	231.830	214.603	405.445	181.139	191.053	456.811	379.091	443.284	312.606	370.883	230.135	430.726	0.001715	0.00034215	0.00026325	766.97	1.0738e-05	1.3844e-05	1023.3	257.01	1.5968e-05	5.7842e-06	439.8	179.69	102.13	42.742	1.7301e-05	82.294	0.0028671	0.0029	0.00081045	897.65	3.1725e-05	3.1836e-05	1153.9	301.35	3.1776e-05	3.2101e-05	512.08	206.04	166.34	50.819	3.1859e-05	99.246	114.921	379.695	224.855	117.253	179.097	256.497	116.773	121.635	433.652	332.473	121.169	125.582	123.750	127.814	303.224	126.841	-8191	255	
1685.545	1	1	0	0	0.079588	0.12058	0.096879	0.13316	0.15667	0.15934	0.19831	0.086677	0.21496	0.060034	0.14557	0.27058	0.19021	0.18829	0.048873	0.2395	-1.4875	-2.0354	-1.6896	-2.1667	-1.8729	-1.7729	-2.4979	-1.7146	-1.9333	-2.1583	-1.9396	-2.2792	-1.8312	-1.8146	-2.0604	-2.0062	432.809	247.339	145.578	138.524	160.637	236.189	425.912	352.945	200.574	230.850	407.488	129.603	136.085	391.187	231.538	432.049	0.0018335	0.00076087	0.00022579	764.06	1.7614e-05	1.9619e-06	1021.6	254.71	1.6697e-05	9.8306e-07	436.59	178.43	98.867	41.925	1.4481e-05	82.889	0.0029034	0.002939	0.00081896	902.42	3.2138e-05	3.2261e-05	1159.1	300.93	3.2249e-05	3.2443e-05	511.38	205.21	166.04	50.28	3.2099e-05	98.94	102.572	120.900	188.954	113.744	265.062	313.875	113.519	118.484	274.466	125.105	118.279	122.676	122.661	128.380	187.306	127.040	-8191	255	
1685.641	1	1	0	0	0.089307	0.042893	0.11728	0.20435	0.17414	0.09444	0.353	0.10467	0.10801	0.096692	0.20797	0.10005	0.11526	0.29766	0.069382	0.089834	-1.6542	-2.05	-1.6521	-1.9333	-1.9646	-1.8125	-2.3958	-1.6479	-1.9583	-2.3521	-1.8771	-2.3708	-1.9854	-1.6521	-2.05	-1.7854	222.796	146.109	336.168	372.748	368.690	175.987	366.811	357.541	443.305	200.420	434.203	176.307	218.209	126.040	319.531	146.454	0.0019635	0.00074078	5.7653e-05	765.74	9.3154e-06	1.65e-05	1019.3	253.34	5.3098e-06	1.0943e-05	436.52	178.46	99.863	42.102	2.0698e-06	82.521	0.0029152	0.0029539	0.00082531	903.34	3.2391e-05	3.2766e-05	1158.9	300.62	3.2732e-05	3.2854e-05	511.24	205.38	168.08	50.632	3.3034e-05	99.215	113.998	175.887	326.384	113.754	283.698	249.281	113.705	118.595	276.938	313.097	118.544	123.439	123.851	128.338	295.641	127.191	-8191	255	
1685.737	1	1	0	0	0.2325	0.2951	0.076904	0.052232	0.17966	0.21047	0.24065	0.15827	0.14895	0.19142	0.28541	0.071836	0.14562	0.11638	0.044946	0.070233	-1.4792	-2.0979	-1.85	-2.2	-2.1562	-1.6354	-2.3	-2.0375	-1.8979	-2.1188	-1.8333	-2.1229	-2.2875	-1.8479	-2.1063	-1.9292	309.267	132.142	282.653	453.005	316.400	173.765	357.904	127.255	407.555	111.695	401.662	122.521	160.819	446.833	211.216	342.599	0.001364	0.00092557	0.00036742	773.54	4.0456e-06	1.1615e-05	1022.3	255.52	1.8009e-05	1.5044e-05	439.93	179.18	101.93	43.33	1.3464e-05	83.254	0.0029937	0.0030346	0.00084362	907.17	3.3414e-05	3.3596e-05	1164.8	303.51	3.3637e-05	3.4029e-05	516.94	208.12	171.63	51.726	3.3374e-05	101.05	460.475	216.998	144.623	114.259	185.008	233.080	114.498	119.616	237.639	395.754	118.086	122.655	123.189	127.650	287.340	126.746	-8191	255	
1685.834	1	1	0	0	0.21512	0.10532	0.20058	0.26887	0.046053	0.027125	0.16324	0.35849	0.23644	0.12166	0.34574	0.2132	0.084653	0.165	0.26963	0.16456	-1.3958	-2.325	-1.8333	-2.1625	-2.0583	-1.7104	-2.0583	-2.0438	-2.0229	-2.4271	-2.0792	-1.9833	-2.1	-1.7938	-2.4458	-2.1	186.065	136.428	225.503	247.884	416.494	229.296	348.329	456.748	213.641	402.173	416.445	351.204	139.394	112.081	308.000	413.353	0.0014593	0.0015126	0.00028455	765.03	8.2347e-06	3.949e-06	1021.7	258.02	1.1164e-05	6.1884e-06	444.49	183.07	103.39	43.864	4.6411e-06	84.609	0.0030141	0.0030605	0.0008538	905.05	3.3679e-05	3.3741e-05	1162.7	305.35	3.3686e-05	3.3829e-05	520.69	211.09	173.11	52.341	3.3411e-05	101.89	452.534	155.567	142.700	114.601	340.895	332.793	114.315	119.647	108.597	212.697	119.012	123.705	124.201	128.212	206.024	126.422	-8191	255	
1685.930	1	1	0	0	0.17101	0.18257	0.12001	0.18293	0.45687	0.1978	0.078075	0.3459	0.25271	0.29956	0.2063	0.048859	0.059168	0.099406	0.10794	0.15504	-1.3042	-2.2271	-1.9208	-1.9208	-2.1312	-1.9188	-2.2854	-2.1833	-1.9417	-2.2958	-1.8937	-1.9542	-1.9625	-1.7604	-2.1625	-2.2208	141.974	378.111	159.226	107.103	202.084	139.257	166.487	406.604	293.410	121.806	443.710	395.413	175.943	353.943	381.746	368.740	0.0022403	0.0014174	0.00025581	765.82	2.0698e-05	8.7034e-06	1023.4	258.07	1.9549e-05	2.216e-05	440.31	180.1	102.28	42.705	2.0381e-05	83.702	0.0030371	0.0030741	0.00086172	910.93	3.39e-05	3.4464e-05	1173.2	307.79	3.495e-05	3.554e-05	524.58	210.87	177.24	52.008	3.6126e-05	102.5	103.676	349.104	436.810	113.951	200.262	196.859	113.895	119.035	230.758	349.924	118.357	122.575	122.344	127.921	213.416	127.239	-8191	255	
1686.049	1	1	0	0	0.073941	0.072175	0.24258	0.25336	0.14313	0.12215	0.30605	0.16049	0.22093	0.22337	0.23503	0.20601	0.1858	0.13868	0.11688	0.29664	-1.5771	-2.1146	-1.8646	-2.025	-2.2562	-1.9438	-2.0375	-2.0958	-1.9062	-2.2	-1.9729	-1.8083	-2.0458	-1.8646	-1.925	-2.3812	333.001	267.966	414.583	431.778	453.257	442.652	430.429	406.635	150.490	415.414	434.650	426.723	118.648	359.378	245.926	433.981	0.0025237	0.0013169	0.00036035	772.74	1.4767e-05	5.1271e-06	1030.4	257.34	1.5828e-05	1.9325e-05	434.2	177.06	98.362	41.064	9.7828e-06	80.042	0.0032811	0.0033398	0.00092564	925.41	3.6202e-05	3.6407e-05	1184.1	310.2	3.6577e-05	3.6789e-05	524.31	208.9	178.06	50.77	3.7286e-05	99.996	450.775	437.150	182.648	114.881	259.661	163.640	114.140	119.167	176.227	337.224	118.432	123.595	123.162	129.232	125.583	127.502	-8191	255	
1686.145	1	1	0	0	0.19043	0.21474	0.14209	0.27238	0.18548	0.41377	0.089432	0.20133	0.17349	0.126	0.17538	0.23719	0.18342	0.16654	0.11461	0.075066	-1.4542	-2.3312	-2.0438	-1.9604	-2.2958	-1.9937	-1.9875	-2.1937	-1.5208	-2.1	-2.1917	-1.7479	-2.2271	-2.0854	-1.9729	-2.0792	405.898	319.839	313.974	407.935	191.921	379.941	185.186	419.676	383.484	222.645	114.297	428.958	430.641	403.019	138.667	208.800	0.0013023	0.0010827	0.00018317	771.38	4.774e-06	2.7008e-06	1019.9	250.7	5.2998e-06	1.1551e-05	427.37	172.78	97.629	40.074	1.2852e-05	78.767	0.0033649	0.0034172	0.00094983	928.09	3.712e-05	3.7279e-05	1179.7	306.01	3.7457e-05	3.7684e-05	518.59	205.8	178.87	50.081	3.7861e-05	99.255	102.459	243.698	230.235	114.104	196.904	205.726	113.896	119.225	322.184	243.450	118.506	123.241	122.522	128.403	287.034	126.698	-8191	255	
1686.241	1	1	0	0	0.36385	0.20515	0.29577	0.15965	0.13562	0.20328	0.08654	0.094645	0.17523	0.25377	0.098066	0.20343	0.13984	0.050867	0.22803	0.20189	-1.1875	-1.95	-1.8417	-1.6187	-2.325	-1.9979	-2.0292	-2.2292	-1.8875	-2.0646	-2.1229	-1.6354	-2.0875	-1.8208	-1.6063	-2.1979	261.984	430.488	420.051	189.601	196.172	338.401	123.841	387.284	266.870	136.590	437.842	371.303	456.683	355.740	164.727	301.009	0.0021011	0.00035206	0.00038508	764.11	9.3903e-06	5.3368e-06	1018	253.7	2.842e-05	1.3637e-05	432.48	175.87	99.817	41.393	3.4218e-05	81.213	0.0034165	0.0034593	0.00095739	926.25	3.7117e-05	3.7117e-05	1179	307.64	3.6763e-05	3.7064e-05	520.63	208.25	177.46	51.1	3.674e-05	100.8	103.099	268.869	255.171	113.985	296.826	458.891	113.726	118.925	246.989	157.663	117.720	122.732	122.968	127.986	237.702	126.269	-8191	255	
1686.337	1	1	0	0	0.21684	0.21848	0.091205	0.11624	0.32165	0.1401	0.23078	0.085089	0.21262	0.011323	0.13169	0.20426	0.073453	0.083577	0.16545	0.2892	-1.3208	-1.95	-1.9479	-1.8708	-2.0062	-1.8958	-1.8729	-2.1042	-1.8479	-1.925	-2.1875	-1.5958	-2.0167	-1.7687	-1.4854	-2.1708	200.496	298.732	453.384	275.068	278.264	108.533	432.054	109.974	193.308	346.826	430.064	139.813	312.202	421.946	325.652	325.294	0.0019485	0.0010312	0.00034825	761.26	1.3823e-05	2.7668e-06	1020.3	255.31	1.3555e-05	1.7142e-05	438.32	178.36	102.98	42.616	7.148e-06	84.075	0.0033294	0.0033778	0.00094285	921.79	3.7007e-05	3.6987e-05	1179.8	308.94	3.7286e-05	3.7393e-05	526.95	211.77	180.69	52.267	3.7099e-05	103.37	115.506	147.932	131.051	114.119	109.352	299.933	113.888	118.996	460.278	149.576	118.029	122.970	123.632	128.215	164.067	126.784	-8191	255	
1686.433	1	1	0	0	0.35999	0.19266	0.055877	0.13985	0.21207	0.048662	0.18036	0.29987	0.13431	0.19314	0.22825	0.23403	0.23046	0.16241	0.19201	0.24899	-1.2833	-1.7188	-2.1417	-1.5896	-1.9021	-1.9937	-1.5458	-2.2208	-1.8438	-2.1167	-2.2958	-1.9042	-2.0583	-2.1146	-1.5354	-2.0479	148.043	316.429	269.705	159.564	216.360	173.257	391.056	253.090	187.953	247.482	446.753	444.669	240.473	363.848	325.341	382.919	0.0022604	0.0022118	0.00034595	767.25	1.3476e-05	1.1694e-05	1021	259.48	3.2387e-05	5.427e-06	447.36	184.81	104.15	43.81	7.3933e-06	84.963	0.0033355	0.0033774	0.00093438	921.02	3.6365e-05	3.6287e-05	1180.4	313.76	3.6173e-05	3.6493e-05	531.71	214.92	181.04	53.188	3.6133e-05	103.53	107.477	383.368	183.039	114.442	377.214	416.649	113.770	118.947	253.659	310.862	118.207	122.548	123.096	127.802	317.946	126.725	-8191	255	
1686.529	1	1	0	0	0.31281	0.22484	0.24351	0.14869	0.16913	0.013296	0.21234	0.15959	0.12007	0.21671	0.036193	0.12652	0.05845	0.18145	0.18022	0.033778	-1.4854	-1.8479	-2.2875	-1.7854	-2.0542	-2.1646	-1.9	-2.2917	-1.9458	-1.9021	-2.025	-2.0375	-2.1521	-2.0458	-1.6375	-2.3896	295.055	356.163	150.812	436.779	399.480	137.440	413.443	162.984	299.337	218.865	364.896	417.449	209.366	316.302	161.153	378.025	0.0024986	0.00052492	0.00017522	765.03	1.2351e-05	1.2495e-05	1024.5	258.28	1.5965e-05	1.7128e-05	440.12	181.38	103.72	43.301	2.391e-05	83.113	0.0032583	0.0032956	0.00092003	914.81	3.5553e-05	3.5789e-05	1174.2	310.4	3.5804e-05	3.6075e-05	526.53	212.71	178.94	52.461	3.6029e-05	102.12	447.281	151.377	183.167	114.211	326.955	244.498	114.046	119.328	151.484	348.991	118.097	122.997	123.576	128.248	275.266	126.668	-8191	255	
1686.650	1	1	0	0	0.30959	0.14892	0.12683	0.26752	0.025772	0.15135	0.30209	0.26528	0.041646	0.15986	0.051361	0.23804	0.024652	0.16828	0.1708	0.21533	-1.5708	-1.8979	-2.2125	-1.8854	-1.7938	-2.4125	-2.0125	-2.3	-1.9688	-1.5646	-2.3875	-1.8146	-1.7875	-2.3042	-1.4625	-2.0833	122.816	358.302	172.807	106.206	137.551	215.446	406.940	411.430	297.458	180.179	241.196	371.021	153.156	227.264	209.358	426.026	0.0020144	0.00088122	0.00031694	763.64	7.8979e-06	2.9814e-06	1015.2	255.34	4.2064e-06	1.0209e-05	440.6	181.2	103.08	43.106	2.6043e-05	83.609	0.0032652	0.0033127	0.0009273	914.36	3.6029e-05	3.601e-05	1169.6	307.48	3.5818e-05	3.5924e-05	524.49	212.14	177.89	52.328	3.5846e-05	102.27	454.649	101.341	426.719	114.379	320.790	275.855	113.869	119.141	103.855	253.850	118.606	122.895	122.380	128.346	157.067	126.854	-8191	255	
1686.746	1	1	0	0	0.12521	0.057372	0.10493	0.28148	0.12134	0.15945	0.44836	0.1342	0.21195	0.079578	0.17924	0.17106	0.25662	0.10507	0.15483	0.08823	-1.5208	-1.7	-2.1063	-2.0479	-2.0021	-2.4146	-1.8271	-2.3021	-2.1708	-1.6042	-2.2625	-1.9792	-1.8312	-2.3729	-1.7313	-1.9479	320.220	288.497	350.603	397.787	335.906	213.260	420.122	114.790	274.269	267.915	165.426	116.319	445.411	110.170	335.264	392.320	0.0016578	0.0009714	0.00022141	760.33	2.1057e-05	8.7807e-06	1011.7	254.71	2.3445e-05	1.7844e-05	437.85	179.82	102.66	42.319	1.1329e-05	82.298	0.003243	0.0032911	0.00091816	911.67	3.5788e-05	3.5886e-05	1169.1	307.35	3.5678e-05	3.6031e-05	523.04	210.62	177.8	51.862	3.6259e-05	101.7	451.791	186.766	218.858	114.183	246.071	205.152	114.175	119.311	262.868	240.051	117.565	122.715	122.713	127.890	227.713	127.046	-8191	255	
1686.842	1	1	0	0	0.26423	0.16697	0.15106	0.18288	0.18034	0.12593	0.46594	0.15866	0.14651	0.24706	0.3234	0.11573	0.13869	0.31052	0.22961	0.11796	-1.6667	-1.5854	-1.9958	-1.8438	-1.8667	-2.2083	-1.9229	-1.8208	-2.275	-1.6854	-2.0917	-2.1042	-1.5521	-2.35	-1.7896	-1.8563	308.445	369.330	367.389	435.896	444.409	131.219	381.156	378.614	131.155	309.673	444.780	350.143	355.230	174.493	255.797	340.328	0.00157	0.00083816	0.00069207	756.06	8.0626e-06	6.9468e-06	1011.3	252.42	3.7987e-06	1.7112e-05	432.28	175.8	99.157	41.124	1.925e-05	80.682	0.0032768	0.003332	0.00093036	913.31	3.642e-05	3.6504e-05	1170.6	304.57	3.6421e-05	3.6672e-05	519.43	207.38	176.83	50.736	3.6627e-05	100.23	102.033	134.451	137.177	114.195	208.043	249.547	113.537	119.111	340.921	312.711	118.331	122.877	122.742	128.517	240.925	126.727	-8191	255	
1686.938	1	1	0	0	0.036626	0.041771	0.12461	0.29939	0.03485	0.051011	0.28287	0.046086	0.17247	0.24365	0.33671	0.1747	0.27245	0.21081	0.29843	0.22197	-1.6354	-1.5667	-1.7417	-2.1625	-1.7458	-2.0812	-1.8771	-1.975	-2.0979	-1.8333	-2.0958	-2.0458	-1.7333	-2.0292	-1.9062	-1.9958	241.318	434.461	327.152	396.089	389.768	286.023	441.076	376.725	318.514	216.821	103.195	260.743	114.305	350.320	459.721	273.598	0.0011042	0.001966	0.00023367	756.33	1.9136e-05	3.8456e-06	1002.1	247.08	1.584e-05	9.0641e-06	424.5	172.31	98.238	40.537	1.2959e-05	79.187	0.0033112	0.003355	0.0009417	915.47	3.6855e-05	3.7009e-05	1168.8	301.19	3.6776e-05	3.697e-05	513.02	204.86	175.4	49.979	3.6248e-05	98.616	115.647	169.138	166.254	114.332	200.184	216.628	113.611	119.125	187.230	174.082	118.561	123.594	124.156	128.727	213.376	127.277	-8191	255	
1687.033	1	1	0	0	0.25015	0.15548	0.15003	0.14976	0.14846	0.1744	0.1974	0.22041	0.13908	0.06667	0.19951	0.15827	0.056737	0.20184	0.032868	0.12132	-1.8458	-1.8083	-1.9958	-2.2208	-1.7521	-2.1146	-1.7708	-1.6688	-2.05	-1.8896	-2.0708	-2.1917	-1.7667	-2.0646	-1.8396	-1.7458	204.990	215.978	236.047	225.644	328.160	146.649	341.250	397.406	141.608	344.425	180.746	382.969	432.989	451.856	460.746	266.417	0.0020451	0.00027156	0.00013369	752.55	1.4083e-06	4.5643e-06	997.08	245.58	1.0845e-05	9.279e-06	425.64	174.3	99.485	41.155	1.3122e-05	80.407	0.0032606	0.0032878	0.00091589	903.55	3.5508e-05	3.5538e-05	1152.1	298.44	3.5509e-05	3.5703e-05	510.61	205	173.75	50.476	3.5513e-05	99.336	117.673	152.724	230.919	114.279	255.969	380.301	113.433	118.732	211.754	313.622	118.455	123.391	123.460	128.686	250.202	126.756	-8191	255	
1687.129	1	1	0	0	0.16967	0.12921	0.19556	0.1102	0.1079	0.19064	0.29582	0.21595	0.33738	0.1365	0.1779	0.070644	0.23681	0.24671	0.098238	0.011118	-1.8208	-1.8167	-2.1167	-2.3354	-1.5917	-2.0208	-2.0958	-1.6229	-2.0604	-1.8104	-2.0958	-2.2979	-1.6812	-2.0875	-1.8687	-1.7167	310.336	299.787	372.513	394.035	274.868	270.188	379.256	405.011	418.202	296.499	338.047	165.029	236.287	441.083	167.113	351.880	0.0023515	0.00025125	0.00015162	752.3	1.3549e-06	1.3082e-05	1000.4	248.22	1.4027e-05	2.1407e-05	431.45	175.75	100.35	41.403	6.9515e-06	80.275	0.0032161	0.0032646	0.00090909	904.18	3.5572e-05	3.5794e-05	1159.6	301.12	3.5894e-05	3.612e-05	515.29	206.36	175.42	50.59	3.5952e-05	99.232	102.012	225.258	242.766	114.124	350.960	215.091	113.818	119.100	192.879	291.305	118.078	123.111	123.583	127.995	244.364	126.200	-8191	255	
1687.225	1	1	0	0	0.041507	0.16328	0.28205	0.046091	0.13232	0.036635	0.49668	0.10258	0.053815	0.14541	0.14285	0.11024	0.14534	0.16484	0.16688	0.27847	-1.7854	-2.0417	-1.7563	-2.4104	-1.8708	-2.2729	-2.1542	-1.7042	-2.175	-1.8521	-1.7542	-2.1604	-1.8417	-2.2396	-2.1729	-1.8021	194.945	138.615	238.360	247.905	166.493	333.050	332.130	440.343	310.530	358.373	409.750	354.047	234.541	168.550	347.731	458.797	0.001831	0.00038528	6.2574e-05	752.08	1.6401e-05	2.9006e-06	1004.6	246.3	5.0553e-06	4.1302e-06	425.02	171.4	96.928	40.103	4.6713e-06	78.408	0.0032415	0.0032943	0.00091662	906.88	3.5748e-05	3.5913e-05	1158.2	298.54	3.5651e-05	3.585e-05	509.12	202.64	172.36	49.319	3.56e-05	97.412	459.310	328.106	120.858	114.207	245.362	356.164	113.857	118.796	238.505	215.560	117.881	122.753	123.554	127.871	257.862	127.011	-8191	255	
1687.346	1	1	0	0	0.16201	0.13953	0.27454	0.31232	0.45385	0.17168	0.066446	0.246	0.17466	0.23233	0.12978	0.13424	0.14871	0.10854	0.11028	0.22077	-1.6833	-1.9292	-1.7083	-2.3375	-1.7083	-1.9562	-2.2458	-1.8	-2.0417	-2.0854	-1.9604	-2.1271	-1.725	-1.7292	-2.1833	-1.6812	147.116	112.199	330.314	392.786	198.599	159.599	134.401	403.161	190.856	191.313	287.474	165.115	362.559	110.511	104.834	175.913	0.0021848	0.00027713	0.00012467	754.54	8.3226e-06	6.2953e-06	1002.3	242.47	2.6428e-05	2.7057e-06	418.81	167.82	94.92	38.806	2.4315e-05	77.501	0.0032155	0.0032735	0.00091068	906.31	3.5451e-05	3.5507e-05	1157.3	294.67	3.5376e-05	3.5831e-05	502.75	198.96	170	48.243	3.5666e-05	96.138	118.655	173.489	145.255	113.940	296.556	283.246	113.459	118.719	231.431	285.629	118.098	123.187	123.937	128.259	218.936	126.901	-8191	255	
1687.442	1	1	0	0	0.12091	0.11872	0.14119	0.27158	0.062007	0.30423	0.23293	0.12985	0.16082	0.31229	0.16048	0.10924	0.068665	0.089288	0.10576	0.05274	-1.3625	-2.0396	-1.8792	-2.3438	-1.7313	-1.8396	-2.2729	-1.6292	-1.8583	-2.0479	-1.7687	-2.3125	-1.9208	-1.8146	-2.0958	-1.6354	411.923	195.829	121.318	450.746	132.821	381.784	439.399	434.563	451.164	278.755	443.657	118.022	239.135	270.119	310.231	317.748	0.0017047	0.00086225	0.00036985	754.25	1.2041e-05	1.0185e-05	999.96	240.85	1.6781e-05	5.4452e-06	415.52	169.21	96.791	39.728	5.7456e-06	78.921	0.0032097	0.0032506	0.00090469	902.72	3.5305e-05	3.5482e-05	1150.5	293.32	3.5656e-05	3.5727e-05	501.09	200.34	170.77	49.088	3.5303e-05	97.286	436.429	182.800	153.904	114.130	198.188	226.457	113.798	118.811	225.848	250.133	118.007	122.950	123.064	128.207	195.968	126.933	-8191	255	
#DATA ENDS
