BOXY.EXE: ISS Imagent and Oximeter Data Acquisition Program Version 0.80
Ascii Record File

#ACQ INFORMATION
2  Detector Channels 
16  External MUX Channels 
1  Auxiliary Channels 
5000  Waveform (CCF) Frequency (Hz)
1  Waveforms Skipped 
30  Waveforms Averaged 
1  Cycles Averaged 
16  Acquisitions per Waveform 
10.0806  Updata Rate (Hz) 

#FILE INFORMATION
TRUE -- External MUX Channel results are PARSED.
FALSE -- AC DC and Phase are NOT grouped.
TRUE -- Companion Program Settings File CREATED.
FALSE -- AC data not excluded
FALSE -- DC data not excluded
FALSE -- Phase data not excluded
FALSE -- Auxillary Chn. data not excluded
Tab delimiters

#CALIBRATION STATE
TRUE -- Waveform Calibration Values APPLIED.


#AUX CALIBRATION VALUES
Val Type	aux-1	

Term	1.0000e+00	
Factor	0.0000e+00	


#WF CALIBRATION VALUES
A = Detector Channel
Val Type	A-AC1	A-AC2	A-AC3	A-AC4	A-AC5	A-AC6	A-AC7	A-AC8	A-AC9	A-AC10	A-AC11	A-AC12	A-AC13	A-AC14	A-AC15	A-AC16	A-DC1	A-DC2	A-DC3	A-DC4	A-DC5	A-DC6	A-DC7	A-DC8	A-DC9	A-DC10	A-DC11	A-DC12	A-DC13	A-DC14	A-DC15	A-DC16	A-Ph1	A-Ph2	A-Ph3	A-Ph4	A-Ph5	A-Ph6	A-Ph7	A-Ph8	A-Ph9	A-Ph10	A-Ph11	A-Ph12	A-Ph13	A-Ph14	A-Ph15	A-Ph16	

Term	0.00000e+00	0.00000e+00	0.00000e+00	0.00000e+00	0.00000e+00	0.00000e+00	0.00000e+00	0.00000e+00	0.00000e+00	0.00000e+00	0.00000e+00	0.00000e+00	0.00000e+00	0.00000e+00	0.00000e+00	0.00000e+00	0.00000e+00	0.00000e+00	0.00000e+00	0.00000e+00	0.00000e+00	0.00000e+00	0.00000e+00	0.00000e+00	0.00000e+00	0.00000e+00	0.00000e+00	0.00000e+00	0.00000e+00	0.00000e+00	0.00000e+00	0.00000e+00	0.00000e+00	0.00000e+00	0.00000e+00	0.00000e+00	0.00000e+00	0.00000e+00	0.00000e+00	0.00000e+00	0.00000e+00	0.00000e+00	0.00000e+00	0.00000e+00	0.00000e+00	0.00000e+00	0.00000e+00	0.00000e+00	
Factor	1.00000e+00	1.00000e+00	1.00000e+00	1.00000e+00	1.00000e+00	1.00000e+00	1.00000e+00	1.00000e+00	1.00000e+00	1.00000e+00	1.00000e+00	1.00000e+00	1.00000e+00	1.00000e+00	1.00000e+00	1.00000e+00	1.00000e+00	1.00000e+00	1.00000e+00	1.00000e+00	1.00000e+00	1.00000e+00	1.00000e+00	1.00000e+00	1.00000e+00	1.00000e+00	1.00000e+00	1.00000e+00	1.00000e+00	1.00000e+00	1.00000e+00	1.00000e+00	X	X	X	X	X	X	X	X	X	X	X	X	X	X	X	X	

B = Detector Channel
Val Type	B-AC1	B-AC2	B-AC3	B-AC4	B-AC5	B-AC6	B-AC7	B-AC8	B-AC9	B-AC10	B-AC11	B-AC12	B-AC13	B-AC14	B-AC15	B-AC16	B-DC1	B-DC2	B-DC3	B-DC4	B-DC5	B-DC6	B-DC7	B-DC8	B-DC9	B-DC10	B-DC11	B-DC12	B-DC13	B-DC14	B-DC15	B-DC16	B-Ph1	B-Ph2	B-Ph3	B-Ph4	B-Ph5	B-Ph6	B-Ph7	B-Ph8	B-Ph9	B-Ph10	B-Ph11	B-Ph12	B-Ph13	B-Ph14	B-Ph15	B-Ph16	

Term	0.00000e+00	0.00000e+00	0.00000e+00	0.00000e+00	0.00000e+00	0.00000e+00	0.00000e+00	0.00000e+00	0.00000e+00	0.00000e+00	0.00000e+00	0.00000e+00	0.00000e+00	0.00000e+00	0.00000e+00	0.00000e+00	0.00000e+00	0.00000e+00	0.00000e+00	0.00000e+00	0.00000e+00	0.00000e+00	0.00000e+00	0.00000e+00	0.00000e+00	0.00000e+00	0.00000e+00	0.00000e+00	0.00000e+00	0.00000e+00	0.00000e+00	0.00000e+00	-2.04106e+02	-1.47295e+02	-1.31471e+02	-1.83006e+02	-1.05308e+02	-9.56335e+01	-1.57489e+02	-1.62015e+02	-1.04563e+02	-3.96514e+01	-1.72066e+02	-1.71987e+02	-1.87133e+02	-1.76833e+02	-7.95936e+01	-1.54913e+02	
Factor	7.03256e-05	1.41041e-04	4.05673e-05	1.70326e-01	1.62816e-06	1.33254e-06	1.95207e-01	5.96007e-02	1.84989e-06	1.49910e-06	1.05898e-01	4.16366e-02	9.64820e-02	1.05399e-02	1.79118e-06	2.58797e-02	1.57653e-06	1.61043e-06	4.48186e-07	8.61403e-02	1.75392e-08	1.76000e-08	9.27146e-02	3.00841e-02	1.75714e-08	1.76740e-08	5.11745e-02	1.99295e-02	4.41448e-02	5.29322e-03	1.75939e-08	1.20619e-02	X	X	X	X	X	X	X	X	X	X	X	X	X	X	X	X	



#DISTANCE SETTINGS
A = Detector Channel
A-1	A-2	A-3	A-4	A-5	A-6	A-7	A-8	A-9	A-10	A-11	A-12	A-13	A-14	A-15	A-16	

2.5000e+00	3.0000e+00	2.5000e+00	3.0000e+00	2.0000e+00	3.0000e+00	1.5000e+00	3.0000e+00	3.0000e+00	3.0000e+00	3.0000e+00	3.0000e+00	3.0000e+00	3.0000e+00	1.5000e+00	3.0000e+00	

B = Detector Channel
B-1	B-2	B-3	B-4	B-5	B-6	B-7	B-8	B-9	B-10	B-11	B-12	B-13	B-14	B-15	B-16	

1.0000e+01	1.0000e+01	1.0000e+01	1.4400e+00	1.0000e+01	1.0000e+01	1.5100e+00	1.9400e+00	1.0000e+01	1.0000e+01	1.9900e+00	2.4900e+00	2.4100e+00	2.9000e+00	1.0000e+01	2.9800e+00	




#DATA BEGINS
time	group	step	mark	flag	A-AC1	A-AC2	A-AC3	A-AC4	A-AC5	A-AC6	A-AC7	A-AC8	A-AC9	A-AC10	A-AC11	A-AC12	A-AC13	A-AC14	A-AC15	A-AC16	A-DC1	A-DC2	A-DC3	A-DC4	A-DC5	A-DC6	A-DC7	A-DC8	A-DC9	A-DC10	A-DC11	A-DC12	A-DC13	A-DC14	A-DC15	A-DC16	A-Ph1	A-Ph2	A-Ph3	A-Ph4	A-Ph5	A-Ph6	A-Ph7	A-Ph8	A-Ph9	A-Ph10	A-Ph11	A-Ph12	A-Ph13	A-Ph14	A-Ph15	A-Ph16	B-AC1	B-AC2	B-AC3	B-AC4	B-AC5	B-AC6	B-AC7	B-AC8	B-AC9	B-AC10	B-AC11	B-AC12	B-AC13	B-AC14	B-AC15	B-AC16	B-DC1	B-DC2	B-DC3	B-DC4	B-DC5	B-DC6	B-DC7	B-DC8	B-DC9	B-DC10	B-DC11	B-DC12	B-DC13	B-DC14	B-DC15	B-DC16	B-Ph1	B-Ph2	B-Ph3	B-Ph4	B-Ph5	B-Ph6	B-Ph7	B-Ph8	B-Ph9	B-Ph10	B-Ph11	B-Ph12	B-Ph13	B-Ph14	B-Ph15	B-Ph16	aux-1	digaux	

1007.223	1	1	0	256	0.028872	0.15439	0.14804	0.25949	0.29387	0.34218	0.16112	0.15668	0.13631	0.26709	0.055622	0.091503	0.22829	0.083847	0.12311	0.12323	-1.4625	-2.4479	-1.9312	-2.3917	-2.3625	-1.85	-2.4562	-2.4271	-1.9396	-2.4708	-2.0083	-2.0771	-2.425	-1.9479	-2.3312	-2.1875	-111.664	36.896	15.379	190.449	-99.572	-29.940	163.714	189.982	192.231	125.650	155.335	-68.590	192.762	-6.401	125.543	-69.473	0.00073082	0.0001467	0.00014368	1423.5	2.5205e-06	3.5836e-06	1413.5	400.49	2.973e-07	1.189e-05	446.43	143.51	125.14	42.535	4.257e-06	51.918	0.00042843	0.00042492	0.0001172	1433.5	4.6721e-06	4.7029e-06	1429.7	403.14	4.6949e-06	4.7091e-06	450.34	144.81	124.46	43.208	4.736e-06	52.686	115.863	220.387	-69.653	-120.080	-10.307	-33.551	-120.035	-115.287	-51.148	47.086	-116.317	-112.508	-112.229	-106.652	-65.017	-107.295	-8191	255	
1007.319	1	1	0	0	0.083258	0.31548	0.13296	0.48723	0.33616	0.22199	0.088235	0.24657	0.14072	0.013677	0.1064	0.16438	0.11095	0.062767	0.032238	0.1198	-1.5667	-2.4021	-2	-2.1188	-2.2562	-1.9708	-2.2771	-2.3667	-2.0542	-2.2687	-2.2458	-1.9813	-2.3583	-1.8583	-2.1854	-2.1688	-109.413	146.970	155.510	172.129	28.249	121.404	214.394	144.518	-14.499	-30.539	74.636	217.336	217.209	-4.080	150.705	-44.766	0.00067857	0.00026389	0.00017322	1426.2	6.9615e-06	3.4287e-06	1417.9	399.55	3.2102e-06	7.2287e-06	445.54	142.99	125.22	42.334	2.296e-06	51.95	0.00042937	0.00042737	0.00011799	1435.3	4.6157e-06	4.608e-06	1429.8	403.08	4.6039e-06	4.5881e-06	448.9	144.59	124.23	43.017	4.5809e-06	52.517	127.459	-45.686	-115.986	-120.064	-82.010	-110.829	-120.931	-115.919	-6.292	17.967	-116.645	-112.671	-112.294	-106.404	5.025	-106.907	-8191	255	
1007.415	1	1	0	0	0.26613	0.2657	0.1689	0.030271	0.12193	0.060403	0.14956	0.10017	0.18523	0.13002	0.20825	0.17993	0.14345	0.15358	0.28425	0.16041	-1.4125	-2.3417	-2.0417	-2.2917	-2.45	-1.9813	-2.2792	-2.3187	-1.8229	-2.2479	-2.2896	-2.0167	-2.3875	-2.1458	-1.9667	-2.2104	222.975	-93.757	168.244	111.887	29.404	147.953	-27.734	221.201	-26.395	180.441	179.105	-100.936	-96.920	190.036	64.469	211.698	0.00081875	0.00041055	0.00013391	1425.7	1.4771e-06	4.0359e-06	1416.2	398.58	5.4178e-06	2.1926e-06	447.66	143.06	124.93	42.438	6.0599e-06	51.779	0.00042371	0.00042156	0.00011853	1435.7	4.6533e-06	4.6352e-06	1429.9	402.84	4.7185e-06	4.6968e-06	449.84	144.55	124.27	43.11	4.7903e-06	52.683	129.541	-64.131	-72.265	-119.424	160.699	1.862	-120.431	-115.845	-65.501	13.927	-116.336	-113.116	-113.051	-107.038	3.098	-107.332	-8191	255	
1007.487	1	1	0	0	0.14008	0.20552	0.25573	0.080364	0.27856	0.15253	0.35176	0.24806	0.12935	0.14474	0.12908	0.17878	0.13643	0.27456	0.20295	0.1005	-1.4854	-2.0333	-2.0208	-2.0354	-2.575	-2.0396	-2.3729	-2.3417	-1.8813	-2.2417	-2.3542	-2.1646	-2.4708	-2.0333	-2.0438	-2.5333	-79.034	88.680	132.875	-125.605	113.150	68.595	205.891	-133.670	109.301	-28.876	55.103	88.571	-30.336	193.939	-56.001	-45.320	0.00061292	0.000155	0.00013538	1419.3	2.4063e-06	2.7869e-06	1415.7	398	7.7519e-06	5.2409e-06	446.84	142.29	125.45	42.331	4.7153e-06	51.95	0.00044074	0.00043417	0.00012209	1433.4	4.8092e-06	4.7821e-06	1433.9	403.41	4.8924e-06	4.8475e-06	449.91	144.64	125.24	43.105	4.7399e-06	52.628	135.867	-111.032	-14.198	-120.663	105.598	88.411	-120.843	-116.092	-59.852	37.582	-116.386	-112.103	-112.345	-106.226	-116.037	-106.944	-8191	255	
1007.607	1	1	0	0	0.064279	0.037425	0.3642	0.30399	0.12655	0.26454	0.16366	0.22595	0.15819	0.11761	0.25958	0.2305	0.062181	0.10705	0.25262	0.1187	-1.5229	-2.3563	-1.9292	-2.1354	-2.3354	-2.0104	-2.0583	-2.4646	-1.9896	-2.1562	-2.2271	-1.7458	-2.3979	-2.1833	-1.9604	-2.5104	-10.589	-8.460	102.183	-99.914	211.092	70.974	173.062	177.929	-116.005	185.524	213.216	166.176	-84.790	138.901	-68.612	203.379	0.00041688	0.0007382	4.1468e-05	1426.3	4.7576e-06	1.0107e-06	1411.9	399.25	1.3246e-05	5.3023e-06	445.54	143.54	124.71	42.414	3.5444e-06	51.802	0.00044002	0.00043422	0.00012015	1434.9	4.7608e-06	4.7011e-06	1430.9	403.24	4.7811e-06	4.7592e-06	449.44	144.94	124.34	43.189	4.8041e-06	52.701	111.557	-102.227	174.294	-119.891	-61.701	-52.607	-120.921	-116.450	-75.166	128.330	-116.498	-112.660	-112.423	-106.490	-14.907	-107.165	-8191	255	
1007.703	1	1	0	0	0.050276	0.14677	0.12603	0.19924	0.031217	0.091374	0.35371	0.29671	0.024494	0.076593	0.31673	0.11766	0.2305	0.1491	0.19453	0.1469	-1.5521	-2.1813	-2.475	-1.975	-2.2542	-2.0333	-2.1021	-2.4562	-2.2167	-2.075	-2.3396	-1.9208	-2.2792	-2.4437	-1.9396	-2.6208	184.998	-27.526	32.732	200.442	14.264	87.528	182.676	194.647	-2.379	167.741	-114.388	113.589	154.757	155.075	161.647	84.592	0.00071538	0.00064826	0.00019616	1429.4	7.0473e-06	5.2976e-06	1418.1	397.83	4.2489e-06	3.9671e-06	446.69	143.47	125.54	42.38	2.0036e-06	52.136	0.00043991	0.0004328	0.00012146	1435.7	4.7414e-06	4.7302e-06	1432.2	403.14	4.7296e-06	4.7006e-06	450.17	144.6	124.77	43.1	4.745e-06	52.607	119.488	1.589	9.264	-119.306	-38.998	44.725	-120.440	-116.003	-15.346	68.912	-116.517	-112.416	-112.129	-106.243	86.822	-106.863	-8191	255	
1007.800	1	1	0	0	0.25327	0.22433	0.095397	0.1932	0.23131	0.10207	0.37082	0.34986	0.048859	0.1141	0.25863	0.20858	0.32688	0.31222	0.2216	0.21466	-1.7146	-2.1854	-2.3521	-1.9438	-2.1104	-1.9542	-1.9979	-2.5208	-2.0854	-2.0396	-2.3083	-2.1042	-2.1854	-2.4146	-1.8875	-2.1208	-68.795	-63.730	-91.879	108.336	92.713	-23.153	182.746	178.568	-1.992	94.482	-125.506	-78.284	183.200	-121.191	-52.135	165.477	0.00052116	0.00060343	0.00012318	1424.5	3.2694e-06	1.9335e-06	1417.6	400.58	9.9992e-06	4.1479e-06	447.16	143.56	124.71	42.487	4.8994e-06	51.939	0.00043415	0.00043099	0.00011887	1437.2	4.7077e-06	4.6613e-06	1431.6	403.73	4.6981e-06	4.7171e-06	449.84	144.67	124.42	43.195	4.7723e-06	52.621	101.141	-131.057	-47.759	-119.908	191.602	-55.878	-120.472	-116.050	-75.687	25.500	-115.911	-111.898	-112.314	-106.275	64.563	-107.278	-8191	255	
1007.896	1	1	0	0	0.15284	0.12944	0.11093	0.19745	0.16407	0.19151	0.10175	0.036235	0.13381	0.33838	0.16125	0.19371	0.040092	0.12264	0.12611	0.15292	-1.5312	-1.7896	-2.3	-2.0333	-2.0271	-2.2083	-2.0021	-2.3063	-1.8729	-2.0354	-2.3729	-1.9729	-1.8458	-2.4042	-1.95	-2.0646	50.421	28.122	-52.332	222.029	-104.367	145.720	210.565	-49.811	213.560	134.883	17.207	-45.297	154.136	-90.382	6.312	-111.006	0.00076683	0.00049328	0.00017514	1423.7	2.503e-06	2.4279e-06	1419.7	399.16	8.0437e-06	9.1686e-06	445.42	142.55	125.18	42.576	7.0239e-06	51.816	0.00043562	0.0004334	0.00012022	1436.2	4.7491e-06	4.7533e-06	1434	403.54	4.8087e-06	4.7885e-06	449.99	144.76	124.82	43.22	4.7879e-06	52.607	145.141	-63.850	-37.588	-120.493	-0.993	219.849	-120.961	-116.166	-44.824	0.000	-116.385	-112.089	-112.256	-106.633	24.460	-107.387	-8191	255	
1008.015	1	1	0	0	0.21134	0.17393	0.35334	0.40252	0.11468	0.14081	0.46637	0.19649	0.36359	0.28416	0.11332	0.20658	0.24064	0.31577	0.14481	0.13227	-1.7271	-1.9125	-2.2396	-2.1229	-2.1	-2.3854	-2.0021	-2.1375	-2.0604	-1.9042	-2.5583	-2.1229	-2.1562	-2.5833	-2.0563	-2.2125	-3.869	125.764	45.384	182.567	-57.481	-58.777	137.389	-122.381	102.684	-47.470	225.735	202.562	109.865	-126.160	98.961	162.319	0.00066696	0.00073116	7.0231e-05	1427.9	5.0427e-06	4.4042e-06	1416.9	399.78	1.3065e-05	2.0786e-06	446.25	143.06	124.97	42.423	9.8979e-06	51.815	0.0004389	0.00043347	0.00012033	1436.1	4.7627e-06	4.7468e-06	1432.6	404.01	4.789e-06	4.7689e-06	450.44	144.59	124.59	43.231	4.7411e-06	52.691	115.687	-43.019	16.242	-119.810	-66.185	-3.246	-120.586	-115.616	-110.023	73.819	-115.898	-111.991	-112.143	-106.706	-30.328	-107.499	-8191	255	
1008.088	1	1	0	0	0.036112	0.18182	0.10162	0.36553	0.1295	0.087514	0.31839	0.28619	0.19775	0.075314	0.19209	0.19001	0.03574	0.044534	0.17272	0.19738	-1.6812	-1.8375	-2.4062	-2.0896	-2.05	-2.4167	-2.1146	-2.4854	-2.1063	-1.8604	-2.4813	-2.1583	-2.1083	-2.4417	-1.8354	-2.1708	-83.356	-126.629	-33.740	160.828	186.796	74.875	165.390	183.912	46.025	112.733	144.111	156.450	225.083	209.723	91.341	3.331	0.0004253	0.00027355	0.0001083	1423.7	4.9502e-06	4.5689e-06	1413.6	400.28	2.4126e-06	3.8521e-06	448.23	143.27	125.96	42.562	7.349e-06	52.381	0.00043188	0.00043452	0.00012033	1434.7	4.6896e-06	4.6739e-06	1430.8	403.9	4.7539e-06	4.7004e-06	449.99	144.85	124.74	43.22	4.7153e-06	52.779	125.167	-90.665	-88.163	-120.630	-24.663	-12.269	-120.717	-116.063	-98.809	95.148	-116.506	-112.419	-112.370	-106.606	11.570	-107.054	-8191	255	
1008.184	1	1	0	0	0.33569	0.14535	0.13307	0.31302	0.19207	0.31898	0.15409	0.32015	0.16131	0.12969	0.21884	0.19605	0.18571	0.10457	0.086871	0.17852	-1.8229	-1.8458	-2.2104	-2.2729	-1.7708	-2.2792	-2.1833	-2.3646	-2.2812	-1.7729	-2.3958	-2.1375	-1.9125	-2.5062	-1.7812	-2.0333	224.325	-46.282	-91.025	192.758	-91.501	187.433	128.458	152.998	-18.717	10.219	-29.440	154.561	222.176	80.522	203.323	51.372	0.00064244	0.0002266	5.0771e-05	1423	2.8664e-06	4.174e-06	1417.7	400.27	3.4723e-06	2.1899e-06	446.61	142.78	125.48	42.601	4.6148e-06	52.398	0.00043288	0.00043334	0.00012	1434.8	4.7547e-06	4.7218e-06	1432.1	403.72	4.7702e-06	4.752e-06	449.68	144.72	125.07	43.277	4.7227e-06	52.827	126.555	-37.056	76.309	-120.167	-23.881	5.405	-120.581	-116.095	-70.797	129.031	-116.411	-112.620	-111.934	-106.243	-64.648	-106.779	-8191	255	
1008.303	1	1	0	0	0.056104	0.040181	0.20331	0.181	0.081634	0.30034	0.3953	0.37308	0.02815	0.085875	0.16135	0.059047	0.08825	0.26876	0.23115	0.011283	-1.9312	-1.7979	-2.2792	-2.2729	-1.8292	-2.2208	-2.1562	-1.9813	-2.2458	-1.7333	-2.4375	-2.3292	-1.8813	-2.3229	-2.1937	-1.9917	-2.656	187.418	-69.983	180.867	149.661	131.889	105.208	145.930	137.815	84.308	209.308	137.870	137.718	-133.126	153.954	175.116	0.00056729	0.00064643	6.5943e-05	1423.4	7.4068e-06	3.1581e-06	1422.1	401.1	2.1267e-06	1.8927e-06	447.72	142.56	125.14	42.596	5.3541e-06	52.229	0.00044098	0.0004279	0.0001209	1436.4	4.6916e-06	4.6703e-06	1435.1	403.65	4.7342e-06	4.6949e-06	449.68	144.79	124.77	43.228	4.651e-06	52.625	126.213	-57.557	-11.474	-120.554	-77.798	17.685	-120.426	-115.803	-38.425	-21.049	-116.357	-112.632	-112.356	-106.515	54.637	-106.869	-8191	255	
1008.399	1	1	0	0	0.12817	0.076999	0.26301	0.31555	0.2532	0.27848	0.25039	0.11217	0.026481	0.10987	0.19946	0.10587	0.10042	0.039365	0.16411	0.12259	-2.0396	-1.775	-2	-2.4646	-1.775	-2.1208	-2.2375	-2.0354	-2.1958	-1.9833	-2.2062	-2.3625	-1.9312	-2.2521	-2.0542	-1.9792	90.058	151.935	35.137	-106.050	-26.241	53.844	170.526	-3.164	-44.484	145.287	104.092	162.501	-86.995	94.754	146.032	-45.383	0.00029985	0.00082061	6.6368e-05	1424	5.0046e-06	2.4694e-06	1417.8	398.57	1.0681e-06	4.3436e-06	446.73	143.75	125.98	42.392	6.0751e-06	52.071	0.00042739	0.00042299	0.00011777	1436.1	4.6812e-06	4.6077e-06	1433.4	403.56	4.6383e-06	4.6796e-06	450.87	145.12	124.96	43.231	4.6943e-06	52.742	114.761	-63.390	-102.527	-120.281	-9.063	99.959	-120.659	-116.037	-22.067	142.869	-115.756	-111.735	-111.034	-104.499	10.015	-104.106	-8191	255	
1008.495	1	1	0	0	0.16884	0.14989	0.18584	0.077967	0.20293	0.20418	0.20952	0.051605	0.066693	0.25548	0.11298	0.2182	0.15713	0.42394	0.11016	0.048544	-1.7271	-2.0625	-2.2562	-2.6417	-2.1667	-2.4562	-2.3125	-1.8958	-2.4333	-1.8792	-2.1583	-2.3667	-1.7313	-2.2979	-2.1604	-2.0167	143.220	-112.834	100.646	119.575	157.449	172.216	154.864	-7.952	5.275	179.540	214.603	200.759	227.980	130.441	2.664	184.820	0.00070899	0.00034583	0.00018838	1431.8	4.7323e-06	4.6689e-06	1423.4	400.43	3.3216e-06	5.6156e-06	448.88	143.64	127.32	42.875	3.7479e-06	52.087	0.00043295	0.00043372	0.00012204	1440.3	4.7381e-06	4.7449e-06	1435.1	403.95	4.7648e-06	4.7687e-06	451.53	145.11	125.46	43.42	4.7654e-06	52.842	134.677	-61.563	-53.633	-117.178	-0.299	81.030	-117.889	-113.036	92.006	114.631	-113.276	-109.461	-108.713	-103.761	-59.347	-104.314	-8191	255	
1008.591	1	1	0	0	0.067102	0.24103	0.11571	0.21605	0.12602	0.43263	0.37162	0.18989	0.36951	0.1772	0.16565	0.054267	0.2098	0.049028	0.11937	0.27758	-2.1521	-1.9333	-1.9188	-2.5917	-2.1458	-2.1063	-2.4688	-2.1937	-2.1917	-2.0667	-2.0375	-2.4	-1.7104	-2.3542	-2.1312	-1.8104	199.390	-13.041	183.092	172.445	5.319	-17.154	182.557	148.933	32.727	70.671	207.753	170.917	-27.128	-1.199	-65.082	-113.949	0.00058491	0.00062859	7.0007e-05	1432.3	5.9758e-06	6.3904e-06	1424.2	399.41	1.6681e-06	3.5443e-06	447.12	143.51	126.03	42.879	1.4858e-06	52.231	0.00043303	0.00043462	0.00011917	1438.2	4.7551e-06	4.7378e-06	1435	404.17	4.7607e-06	4.7164e-06	450.89	145.19	125.21	43.433	4.7248e-06	52.793	121.546	-23.228	-76.674	-117.168	-82.893	25.298	-117.656	-114.537	-95.446	16.229	-115.191	-111.862	-111.871	-105.959	208.017	-106.825	-8191	255	
1008.712	1	1	0	0	0.027381	0.15534	0.076823	0.22129	0.067047	0.13695	0.30894	0.15862	0.10004	0.27054	0.39579	0.33412	0.13811	0.45836	0.31905	0.11821	-1.6771	-1.9396	-1.9333	-2.45	-1.7958	-2.1	-2.4042	-2.1229	-2.1479	-2.2229	-2.0958	-2.3187	-2.0375	-2.2396	-2.05	-1.8375	182.699	134.225	-119.558	168.494	-41.620	134.939	213.870	-130.005	-82.667	94.436	196.501	205.477	-26.458	198.170	-124.304	-117.922	0.00061706	0.00045466	3.945e-05	1430.9	4.8791e-06	3.0278e-06	1419.9	402.61	6.9645e-06	4.7123e-06	449.93	143.61	126.51	42.722	1.4027e-06	52.674	0.00043478	0.00043821	0.00012089	1440.1	4.7624e-06	4.7349e-06	1434	404.76	4.8171e-06	4.7659e-06	452.11	145.1	125.24	43.393	4.8261e-06	53.059	127.087	-89.612	94.897	-119.896	-75.593	140.142	-120.045	-115.105	-71.275	-101.883	-115.520	-111.916	-111.409	-105.579	9.919	-106.366	-8191	255	
1008.784	1	1	0	0	0.10678	0.23489	0.15491	0.10556	0.22059	0.21067	0.26398	0.11783	0.19058	0.23805	0.30719	0.099856	0.055936	0.13708	0.10143	0.14145	-1.8396	-2.1583	-1.8125	-2.5667	-2.1521	-2.0958	-2.5854	-1.9833	-2.3563	-2.3937	-1.9708	-2.4917	-2.1917	-2.0854	-2.5271	-2.125	128.273	130.820	59.933	138.503	40.879	141.865	185.821	147.488	13.937	205.883	177.869	203.610	-86.191	219.666	197.498	190.737	0.00072534	0.00030616	6.1729e-05	1427.6	4.4849e-06	4.356e-06	1421.3	400.68	7.7649e-06	1.8058e-06	451.66	143.94	126.05	42.949	7.8295e-06	52.752	0.00044514	0.00044641	0.00012471	1440.5	4.8968e-06	4.9188e-06	1438.3	405.01	5.0243e-06	4.966e-06	453.48	145.81	126.07	43.625	5.0309e-06	53.187	137.371	218.264	-86.195	-119.271	-117.043	11.837	-119.912	-115.179	-92.857	-14.169	-115.481	-111.517	-111.376	-105.622	-18.711	-106.073	-8191	255	
1008.904	1	1	0	0	0.027326	0.18333	0.076744	0.24077	0.10904	0.11933	0.10684	0.4193	0.24063	0.20479	0.14115	0.16195	0.18711	0.067775	0.16017	0.088097	-1.8979	-2.2646	-1.625	-2.5687	-2.0187	-2.1271	-2.6458	-1.9583	-2.1333	-2.4	-2.0021	-2.4813	-2.1688	-2.0125	-2.4542	-2.2604	89.760	-79.248	52.080	212.718	121.176	-54.065	204.654	-123.146	142.477	-89.881	136.781	-127.888	100.193	208.907	-64.484	78.765	0.00065657	0.00071893	0.00013442	1425	6.9945e-06	7.6077e-06	1422.6	401.46	2.269e-06	3.7348e-06	451.04	143.59	126.63	42.955	5.2271e-06	52.698	0.00046353	0.00045826	0.00012889	1441.4	5.0855e-06	5.0659e-06	1437.5	405.18	5.0366e-06	4.9959e-06	454.06	145.89	126.22	43.708	4.9335e-06	53.285	136.911	-90.234	-57.078	-119.490	-36.509	4.210	-119.402	-114.775	158.788	83.398	-114.786	-109.785	-108.913	-103.415	67.643	-104.166	-8191	255	
1009.001	1	1	0	0	0.34707	0.14643	0.23412	0.3227	0.18122	0.071443	0.34842	0.30373	0.17555	0.098657	0.10916	0.18119	0.083302	0.19343	0.26737	0.28955	-1.7979	-2.2354	-1.7271	-2.3792	-2.0896	-2.0042	-2.4313	-2.3396	-2.0792	-2.0729	-1.9458	-2.4625	-2.2396	-1.9062	-2.5042	-2.0875	165.065	84.304	63.335	188.455	68.824	95.146	187.505	208.602	-29.766	-115.433	203.091	-42.062	49.859	200.679	-112.609	162.612	0.00050482	0.00054386	5.2538e-05	1435.7	1.0499e-05	6.467e-06	1422.5	401.43	4.3603e-06	5.9772e-06	450.76	144.13	127.32	43.134	2.552e-06	52.792	0.00046015	0.00045936	0.00012708	1443.5	5.0108e-06	4.9765e-06	1436.2	405.61	4.9882e-06	5.0271e-06	453.96	146.24	126.57	43.772	4.9459e-06	53.276	134.279	-32.516	152.662	-117.318	-42.338	15.745	-117.825	-113.026	-74.481	139.507	-113.740	-109.245	-109.376	-103.547	43.476	-104.355	-8191	255	
1009.095	1	1	0	0	0.19777	0.27143	0.075203	0.15259	0.16236	0.13977	0.016247	0.25726	0.18006	0.18226	0.1838	0.056702	0.14154	0.15076	0.13321	0.17463	-1.8208	-2.2062	-1.85	-2.3854	-2.2188	-1.9312	-2.6708	-2.1521	-1.9792	-2.3833	-2.1125	-2.2833	-2.2417	-2.0917	-2.3083	-1.9646	207.430	-113.251	-99.253	199.759	-55.547	205.043	-79.242	189.290	-116.506	-12.507	171.103	102.261	-67.801	209.555	56.137	219.398	0.00047424	0.00063104	7.9817e-05	1430.2	3.032e-06	1.7162e-06	1420.7	401.89	9.0816e-06	5.3855e-06	451.1	144.84	126.84	43.168	5.0124e-06	52.79	0.00045964	0.00045475	0.00012738	1441.6	4.9853e-06	4.9732e-06	1437.5	405.45	4.9924e-06	5.0119e-06	455.3	146.31	126.48	43.798	4.9676e-06	53.352	124.008	-54.926	-106.855	-117.332	-11.547	-19.868	-117.589	-113.226	-78.878	21.653	-113.389	-109.531	-109.577	-103.680	-115.591	-104.324	-8191	255	
1009.191	1	1	0	0	0.11472	0.18343	0.19271	0.14379	0.12214	0.044186	0.18842	0.24485	0.18644	0.10938	0.17434	0.13932	0.06494	0.19879	0.078106	0.1037	-1.7042	-2.4917	-1.9937	-2.2812	-2.3979	-1.9208	-2.3667	-2.1562	-2.0833	-2.3354	-2.0312	-2.3083	-2.2875	-1.9354	-2.2875	-2.3521	-123.176	63.248	166.189	-102.478	13.071	2.153	204.607	192.232	14.164	46.287	217.008	-85.889	18.373	126.217	-78.946	91.811	0.000768	0.0010414	0.00019486	1433.7	2.382e-06	8.9654e-06	1427.6	400.65	8.3588e-06	3.0089e-06	450.27	144.81	127.52	43.191	4.5563e-06	52.295	0.00045712	0.00045098	0.00012509	1442.8	4.9336e-06	4.8779e-06	1439.6	405.3	4.9531e-06	4.8864e-06	453.43	146.19	126.39	43.787	4.9416e-06	53.222	148.707	-46.129	-88.263	-117.262	-24.736	-12.963	-117.633	-113.119	-80.292	28.517	-113.415	-109.467	-109.119	-103.885	216.832	-107.732	-8191	255	
1009.312	1	1	0	0	0.18509	0.14006	0.28674	0.20166	0.11027	0.095017	0.20406	0.2157	0.26186	0.020476	0.16665	0.097139	0.081755	0.14889	0.12761	0.19227	-1.4771	-2.3625	-2.0062	-2.2687	-2.2292	-1.9	-2.3063	-2.1542	-1.7604	-2.3625	-2.1479	-2.1146	-2.3542	-2.0208	-2.2875	-2.2771	112.113	211.616	-45.506	107.263	196.231	-93.934	156.195	188.592	-112.745	-56.196	185.498	103.710	-56.319	-130.303	-5.043	-132.375	0.00075491	0.00043612	0.00017292	1427.9	3.1404e-06	2.2023e-06	1420.3	400.76	7.8226e-06	6.0343e-06	449.91	144.76	126.08	43.117	6.2979e-06	52.5	0.0004554	0.00045058	0.00012699	1440.6	4.9559e-06	4.9589e-06	1436.1	405.16	5.0039e-06	5.0042e-06	454.02	146.31	126.21	43.811	5.04e-06	53.289	131.061	-129.360	-27.420	-120.213	-74.618	-27.551	-120.484	-116.073	-111.740	118.904	-116.260	-112.215	-112.294	-106.281	-78.404	-107.233	-8191	255	
1009.383	1	1	0	0	0.12049	0.19168	0.17481	0.107	0.25639	0.031196	0.263	0.054941	0.12825	0.021762	0.31312	0.14708	0.019799	0.13437	0.070366	0.087068	-1.3208	-2.375	-1.7625	-2.0979	-2.275	-1.9792	-2.4125	-2.225	-1.95	-2.4167	-2.1312	-2.0333	-2.4542	-1.7979	-2.0104	-2.2229	225.286	-17.701	102.468	128.301	105.063	187.037	-107.307	-28.834	-80.416	40.824	-80.136	-121.529	224.818	153.860	44.941	-38.742	0.00052708	0.00039543	0.00019933	1426.8	6.5203e-06	1.2798e-06	1414.6	399.92	4.909e-06	3.3667e-06	449.92	143.61	126.14	43.151	5.2664e-06	52.688	0.00046572	0.00046519	0.00013118	1439.1	5.1167e-06	5.0886e-06	1435.3	405.27	5.1279e-06	5.1158e-06	454.31	146.2	126.47	43.843	5.0552e-06	53.467	117.486	-46.904	-47.003	-119.907	1.514	-87.368	-120.357	-115.857	-48.937	43.784	-115.953	-112.016	-112.371	-106.454	-4.515	-107.115	-8191	255	
1009.480	1	1	0	0	0.1599	0.28836	0.1157	0.079503	0.14676	0.408	0.18002	0.041163	0.066858	0.070169	0.2355	0.035203	0.12339	0.17251	0.18334	0.27903	-1.4438	-2.2875	-2.0667	-2.25	-2.3646	-2.0979	-2.1583	-2.4792	-1.8458	-2.3125	-2.2333	-1.9062	-2.4125	-2.1042	-2.0604	-2.4417	-50.136	-104.701	146.952	217.571	9.097	56.833	212.127	-121.157	-59.477	-58.019	-129.748	34.846	65.393	-91.741	91.516	207.336	0.00067338	0.00078101	0.00017888	1429.1	3.57e-06	3.3266e-06	1419.4	400.3	8.7261e-06	2.2706e-06	449.62	143.96	126.3	43.096	4.761e-06	52.017	0.00046622	0.00045963	0.00012832	1441.4	5.0695e-06	5.016e-06	1435.3	404.92	5.0247e-06	4.9798e-06	453.87	146.07	126.25	43.77	4.9482e-06	53.128	132.868	-96.774	-48.324	-119.869	-129.350	-35.012	-120.358	-116.184	-92.561	97.715	-116.322	-112.296	-112.190	-106.294	88.762	-107.143	-8191	255	
1009.576	1	1	0	0	0.067806	0.11285	0.079834	0.45882	0.086782	0.054374	0.086468	0.049532	0.10954	0.1477	0.09459	0.11577	0.15284	0.28507	0.16628	0.1795	-1.2417	-2.2021	-2.1375	-2.1063	-2.1875	-1.8917	-2.2646	-2.5729	-1.5604	-2.2896	-2.2479	-2.0958	-2.3854	-2.2542	-2.0958	-2.4771	191.038	-47.524	-21.366	170.662	201.000	39.189	-116.692	97.140	13.013	150.644	15.875	156.356	96.742	217.903	-28.607	-101.840	0.00041526	0.00035294	6.6829e-05	1429.5	3.9836e-06	4.5855e-06	1423.3	400.17	6.6951e-06	3.2927e-06	450	144.09	126.24	42.925	2.8523e-06	52.091	0.00045686	0.00045544	0.00012573	1441.6	4.972e-06	4.976e-06	1437.5	405.06	5.0196e-06	5.0073e-06	453.14	146.04	126.29	43.671	5.0241e-06	53.065	151.062	26.908	-83.262	-120.613	-34.288	13.766	-121.234	-116.363	-10.979	30.386	-116.382	-112.794	-112.359	-106.413	45.177	-106.874	-8191	255	
1009.672	1	1	0	0	0.053575	0.16478	0.096417	0.26642	0.019544	0.23787	0.092155	0.25796	0.20778	0.25788	0.44329	0.22513	0.070781	0.26051	0.11443	0.12332	-1.4833	-1.9062	-2.2375	-1.9729	-2.1792	-2.2417	-2.1	-2.3979	-1.9354	-2.2687	-2.2979	-2.0229	-2.2938	-2.2812	-2.0458	-2.3271	-106.345	-44.514	-22.686	190.961	-10.096	198.007	144.563	190.723	-73.565	101.115	164.550	-85.583	201.641	122.789	68.592	-100.866	0.00063081	0.0002818	4.4642e-05	1427.7	3.3622e-06	4.1496e-06	1419.9	399.61	5.9992e-06	3.9911e-06	449.39	143.69	126.02	42.853	2.4889e-06	52.413	0.00045267	0.00045676	0.00012699	1441.3	4.9702e-06	4.9814e-06	1436.8	404.46	5.0102e-06	5.0179e-06	452.51	145.62	126.12	43.565	5.0418e-06	53.11	129.853	-57.276	-117.737	-120.580	11.558	3.836	-120.411	-115.638	-89.620	14.840	-116.427	-112.500	-112.081	-106.169	226.334	-106.529	-8191	255	
1009.792	1	1	0	0	0.10862	0.21915	0.093732	0.27067	0.15888	0.20066	0.086229	0.21066	0.23155	0.10315	0.11295	0.22603	0.14295	0.27158	0.14126	0.22821	-1.5479	-2.0938	-2.4208	-1.9583	-2.2562	-2.2188	-2.125	-2.4437	-1.9542	-2.0479	-2.3271	-2.0333	-2.2938	-2.2729	-1.8646	-2.4188	168.819	33.651	-59.723	157.624	93.768	-105.770	-75.665	-111.998	45.624	103.926	105.941	203.673	15.375	152.523	134.212	173.513	0.00079597	0.00033752	0.00021973	1426.5	2.0084e-06	7.9483e-06	1426.8	399.25	6.8063e-06	3.1828e-06	449.07	143.3	125.91	42.942	3.9943e-06	51.912	0.00046163	0.00046343	0.00012871	1438.6	5.0698e-06	5.0983e-06	1434.6	403.8	5.1793e-06	5.1711e-06	453.43	145.48	126.43	43.619	5.3412e-06	53.06	119.024	-38.043	-78.042	-120.141	-0.591	-1.633	-120.297	-115.543	-77.410	51.283	-115.709	-110.595	-108.584	-103.477	23.936	-104.218	-8191	255	
1009.889	1	1	0	0	0.23616	0.056339	0.12847	0.24189	0.27746	0.077404	0.23544	0.13343	0.083028	0.1859	0.21212	0.34469	0.052954	0.38909	0.19577	0.23016	-1.4708	-2.0583	-2.5479	-2.1854	-2.2104	-2.1375	-2.2	-2.4313	-2.0104	-2.0375	-2.5396	-2.1854	-2.2458	-2.1688	-1.7563	-2.225	105.980	-68.349	-48.156	203.276	-24.939	-43.077	204.515	149.161	225.047	129.069	-74.054	-98.351	-38.040	204.700	157.330	-17.757	0.00052237	0.00046763	8.7038e-05	1432.9	3.8952e-06	2.0092e-06	1423.6	401.79	2.8857e-06	2.0965e-06	451.1	144.63	126.24	42.77	1.1394e-05	51.904	0.00048939	0.00049273	0.00013632	1443.1	5.4161e-06	5.4889e-06	1438.4	405.61	5.5727e-06	5.6339e-06	455.24	146.4	127.37	43.622	5.6827e-06	53.283	137.255	-62.783	216.315	-117.104	27.111	-21.305	-117.723	-112.862	-9.697	46.344	-113.482	-109.569	-108.781	-103.902	-28.253	-104.469	-8191	255	
1009.985	1	1	0	0	0.05981	0.2093	0.1768	0.15288	0.22072	0.19947	0.095896	0.061473	0.16593	0.2167	0.22294	0.37655	0.2196	0.16955	0.15601	0.23624	-1.6187	-2.0938	-2.5812	-2.1437	-2.2208	-2.3396	-2.025	-2.5979	-2.2042	-2.0812	-2.4667	-2.1708	-2.2396	-2.3792	-1.9688	-2.3292	26.455	-46.315	135.757	-104.827	57.477	91.441	-113.781	176.780	-5.175	48.757	188.329	-104.794	-88.824	-114.172	179.782	122.304	0.0005811	0.00068562	0.00024395	1439.4	4.0392e-06	5.0891e-06	1426.8	401.44	5.2737e-07	7.3635e-06	451.49	143.78	126.46	42.828	7.1712e-06	52.192	0.00052085	0.00052502	0.00014543	1448.1	5.7183e-06	5.7425e-06	1443	406.79	5.8093e-06	5.8126e-06	456.6	146.51	128.24	43.775	5.8726e-06	53.538	141.938	-22.461	-26.001	-117.189	-8.934	36.340	-117.808	-113.098	86.238	27.124	-113.503	-109.279	-109.076	-103.776	-1.015	-104.474	-8191	255	
1010.081	1	1	0	0	0.16561	0.13241	0.0416	0.13329	0.18778	0.075804	0.22282	0.03679	0.12878	0.23963	0.065467	0.08868	0.28661	0.32978	0.22092	0.19367	-1.7313	-2.0396	-2.3208	-2.2896	-2.0229	-2.3521	-2.0917	-2.2375	-2.2104	-2.0375	-2.4938	-2.1708	-2.1396	-2.4479	-1.7646	-2.4062	197.110	82.419	-103.698	190.642	-30.337	226.909	175.403	222.260	155.715	84.032	-128.040	215.614	167.031	122.743	-108.356	215.241	0.00053894	0.00072354	9.6195e-05	1440.5	4.5706e-06	9.0024e-06	1422.4	401.55	9.5003e-06	3.8148e-06	450.05	143.95	126.86	42.776	1.0649e-06	52.394	0.00054225	0.00053813	0.00015021	1449.3	5.9161e-06	5.8513e-06	1442.7	406.87	5.9528e-06	5.8917e-06	456.48	146.87	128.8	43.765	5.934e-06	53.54	135.456	-101.143	10.747	-117.338	16.311	31.191	-117.761	-113.046	-104.943	120.705	-113.466	-109.515	-109.062	-103.624	-22.042	-104.941	-8191	255	
1010.177	1	1	0	0	0.13176	0.27875	0.078595	0.28646	0.1863	0.13593	0.080683	0.36663	0.27386	0.34938	0.088047	0.19716	0.16072	0.27442	0.18836	0.06035	-1.7563	-1.8312	-2.3771	-2.2146	-2.2792	-2.4562	-2.2146	-2.2188	-2.2542	-1.8625	-2.3792	-2.4167	-2.2167	-2.5771	-1.9958	-1.9479	186.412	136.032	202.249	205.607	184.970	167.186	53.671	223.191	6.113	221.862	183.222	58.589	58.253	-105.147	28.637	-39.712	0.00046579	0.00021828	4.1056e-05	1441.5	3.8046e-06	2.0194e-06	1428.7	404.13	3.9205e-06	6.7727e-06	449.76	143.82	125.96	42.888	5.7991e-06	52.238	0.00053931	0.00053245	0.00014962	1451.9	5.893e-06	5.7997e-06	1446.1	407.59	5.8524e-06	5.8262e-06	455.82	146.48	127.65	43.74	5.7701e-06	53.442	119.272	-62.897	-37.284	-117.276	89.277	-94.364	-117.887	-113.016	195.619	52.752	-113.578	-109.554	-109.664	-103.758	23.152	-107.060	-8191	255	
1010.273	1	1	0	0	0.19036	0.37346	0.14229	0.24961	0.21691	0.32708	0.35173	0.16617	0.21881	0.32858	0.20639	0.29128	0.12571	0.19202	0.26231	0.18318	-2.1417	-1.7333	-2.2667	-2.3979	-1.8583	-2.2854	-2.1208	-2.3354	-2.3	-1.9521	-2.4417	-2.1896	-1.925	-2.5125	-2.0854	-1.9771	-21.794	-57.227	-89.881	205.523	132.065	38.905	150.432	-98.290	206.474	72.112	148.441	204.148	-24.289	183.197	208.639	42.304	0.0006913	0.00018417	0.00022645	1430.1	2.9589e-06	4.5109e-06	1425	400.34	1.4433e-05	9.8712e-06	449.12	143.6	125.35	42.541	6.29e-07	51.792	0.00052743	0.00051747	0.00014326	1447.3	5.6388e-06	5.6136e-06	1444	406.4	5.6128e-06	5.6121e-06	455.12	146.12	127.39	43.524	5.6146e-06	53.152	133.787	-40.837	-10.527	-120.524	-50.364	-8.924	-120.996	-116.032	-90.239	-16.568	-116.568	-112.352	-112.031	-106.484	176.257	-106.785	-8191	255	
1010.392	1	1	0	0	0.19579	0.18142	0.21412	0.17773	0.10291	0.15806	0.13396	0.23693	0.1989	0.088067	0.11781	0.21797	0.24886	0.15759	0.17435	0.083682	-2.0229	-1.9229	-2.0812	-2.4458	-1.8604	-2.3917	-2.3312	-2.3271	-2.5687	-2.0583	-2.2292	-2.4979	-1.9438	-2.5792	-2.0062	-2.2854	16.907	-43.227	125.537	176.290	138.982	136.544	192.499	-125.890	96.702	141.225	116.460	120.402	-80.926	-123.886	-31.515	144.850	0.00053709	0.00025839	0.00030326	1440.8	1.7385e-06	3.549e-06	1427.9	403.18	6.5449e-07	3.7988e-06	449.34	143.17	126.13	42.647	2.4906e-06	51.844	0.0005076	0.00051083	0.00014177	1450.2	5.5719e-06	5.5364e-06	1443.5	406.8	5.5419e-06	5.588e-06	455.21	145.84	127.48	43.531	5.6369e-06	53.261	136.906	-56.074	-82.770	-118.510	36.794	-71.598	-117.908	-113.086	-96.430	84.834	-113.677	-112.464	-112.494	-106.942	43.269	-107.650	-8191	255	
1010.488	1	1	0	0	0.2504	0.17814	0.2202	0.30501	0.11352	0.059533	0.21366	0.18451	0.4139	0.11307	0.18334	0.17406	0.28717	0.16376	0.16087	0.087614	-1.9188	-1.8875	-2.0771	-2.3479	-1.9062	-2.2375	-2.4062	-2.1625	-2.45	-1.9	-2.3167	-2.4333	-1.7333	-2.3187	-2.1667	-1.9583	52.225	151.006	68.939	225.922	92.551	160.543	128.794	-123.557	111.649	47.736	-28.468	46.764	225.214	-89.963	119.291	153.223	0.00076191	0.00049316	0.00012029	1435.2	3.6869e-06	3.6447e-06	1424.5	400.35	8.2724e-06	7.0828e-06	449.59	143.88	125.76	42.576	5.753e-06	52.024	0.0005174	0.0005152	0.00014266	1448.2	5.6863e-06	5.6555e-06	1444.8	406.36	5.6419e-06	5.6538e-06	454.57	146.04	127.48	43.401	5.7044e-06	53.269	136.804	-123.624	39.299	-120.239	-88.855	-12.308	-120.007	-115.025	-72.409	-22.720	-115.986	-111.972	-112.372	-106.280	-9.670	-106.677	-8191	255	
1010.584	1	1	0	0	0.088969	0.27707	0.10719	0.13598	0.028997	0.14379	0.23331	0.26563	0.11564	0.16623	0.25505	0.048164	0.1084	0.27928	0.035853	0.092398	-1.9729	-2.0583	-1.95	-2.4625	-1.9625	-2.2208	-2.3604	-1.9042	-2.3604	-2.0083	-2.0604	-2.4854	-1.9062	-2.225	-2.1604	-1.8021	116.259	-87.468	41.659	-60.948	157.527	-92.230	199.770	167.994	143.367	221.159	161.713	200.178	152.768	165.929	132.112	111.705	0.0008353	0.00050927	0.00017509	1432.3	4.5881e-06	1.1537e-05	1423.6	399.86	8.7535e-06	3.2913e-06	447.73	143.62	125.97	42.461	6.6662e-06	52.132	0.00051768	0.00052251	0.00014464	1448.8	5.7006e-06	5.7025e-06	1444	406.27	5.6872e-06	5.7317e-06	455.27	146.2	128.06	43.536	5.7114e-06	53.302	145.461	-23.576	-81.625	-120.153	-67.639	-37.776	-120.728	-115.970	-41.301	106.023	-116.086	-112.358	-112.156	-106.440	-59.203	-107.339	-8191	255	
1010.681	1	1	0	0	0.11473	0.03704	0.167	0.36883	0.095428	0.20033	0.025972	0.42845	0.19197	0.10398	0.12285	0.19166	0.23953	0.10981	0.084161	0.35877	-1.725	-2.0958	-2.0271	-2.425	-1.7458	-2.2313	-2.4729	-1.8375	-2.3542	-2.1667	-2.1542	-2.5125	-1.8604	-2.0812	-2.2875	-1.9146	175.197	-4.179	153.683	140.403	-112.129	77.557	83.004	176.447	-70.584	202.450	134.646	156.671	199.497	-53.963	-90.478	175.676	0.00065838	0.00038521	0.00020997	1433.4	1.6954e-06	2.2436e-06	1421.8	399.77	5.5997e-06	3.1158e-06	450.03	142.87	126.12	42.686	8.2144e-06	52.163	0.00052749	0.00052466	0.00014678	1449.4	5.708e-06	5.6306e-06	1441.9	406.25	5.5764e-06	5.6574e-06	455.99	145.72	127.37	43.598	5.5719e-06	53.204	145.932	-30.583	-102.736	-119.728	41.451	31.468	-120.153	-115.583	-131.456	-113.585	-115.661	-111.711	-112.053	-106.164	-36.238	-107.053	-8191	255	
1010.777	1	1	0	0	0.3874	0.2606	0.23019	0.21894	0.13144	0.21462	0.19436	0.22917	0.057756	0.40069	0.10857	0.17134	0.33552	0.044356	0.17439	0.23208	-1.8625	-2.0125	-1.9417	-2.5417	-1.9958	-1.9521	-2.5021	-2.1604	-2.1521	-2.4167	-2.0479	-2.4646	-2.15	-2.3271	-2.4375	-2.0271	-46.837	-65.159	79.611	194.008	154.945	130.631	55.971	196.785	-38.697	-128.333	179.399	143.676	128.291	-103.171	91.505	-98.375	0.00068231	0.0005524	2.6711e-05	1431.2	1.6939e-06	6.3499e-06	1426.9	400.92	4.9238e-06	3.3167e-06	449.47	143.79	125.58	42.594	2.6058e-06	52.151	0.00051256	0.00051233	0.00014196	1449.7	5.6397e-06	5.628e-06	1446	406.41	5.679e-06	5.6877e-06	455.44	146.07	127.47	43.563	5.6417e-06	53.203	145.706	222.038	-19.973	-119.850	22.891	-20.131	-120.187	-115.463	-125.855	25.800	-113.539	-109.483	-109.187	-103.561	-44.319	-104.260	-8191	255	
1010.873	1	1	0	0	0.27787	0.018439	0.23504	0.33774	0.097644	0.056869	0.10115	0.064728	0.1269	0.19757	0.29213	0.17683	0.10377	0.14634	0.18977	0.31822	-1.8542	-2.1562	-1.825	-2.5979	-1.8188	-2.2104	-2.5792	-1.8583	-2.2687	-2.2729	-2.0375	-2.575	-1.9896	-2.3146	-2.0958	-1.9792	2.304	-36.307	46.021	190.792	-54.106	187.953	-6.944	-54.851	15.652	180.705	200.129	-14.139	-28.040	-15.158	124.228	-121.190	0.00049424	0.00066104	0.00018034	1437.9	3.5551e-06	1.5795e-06	1423.7	400.89	1.6337e-06	5.3148e-06	450.75	143.73	126.66	42.934	8.5855e-06	52.109	0.00052121	0.00051626	0.00014432	1451.2	5.7015e-06	5.6068e-06	1444.8	406.57	5.6402e-06	5.55e-06	455.33	146.12	127.26	43.676	5.5069e-06	53.245	137.473	-32.513	-18.482	-117.319	32.056	-29.385	-117.779	-113.150	163.713	102.083	-113.322	-109.427	-109.453	-103.979	-12.477	-104.327	-8191	255	
1010.969	1	1	0	0	0.17973	0.095251	0.25057	0.16475	0.26905	0.12945	0.2434	0.13916	0.33051	0.19034	0.31693	0.1036	0.035025	0.30799	0.211	0.024435	-1.825	-2.4417	-1.6938	-2.5062	-2.0667	-2.0167	-2.5521	-2.1542	-2.3187	-2.2833	-2.0042	-2.4146	-2.2458	-1.9771	-2.425	-2.0521	9.044	1.016	-62.182	-86.567	58.561	34.136	-125.380	96.434	173.823	214.199	131.681	-11.995	113.672	218.626	42.657	-22.870	0.00055169	0.00048976	0.00017276	1441.6	3.1325e-07	2.7816e-06	1431.2	401.21	9.0857e-06	2.9888e-06	449.84	144.11	125.94	42.503	8.5929e-06	52.19	0.00050885	0.00050425	0.00014084	1451.4	5.532e-06	5.495e-06	1445.2	405.9	5.501e-06	5.4662e-06	454.68	146.07	127.27	43.541	5.5107e-06	53.214	125.054	-26.254	-57.833	-117.352	30.082	-37.441	-117.828	-113.058	-68.800	83.248	-113.539	-109.499	-109.504	-103.470	-29.152	-104.527	-8191	255	
1011.088	1	1	0	0	0.27093	0.15231	0.21944	0.23583	0.1868	0.080175	0.20289	0.4147	0.082588	0.056848	0.19641	0.087148	0.18458	0.1788	0.20751	0.097242	-1.7	-2.225	-1.7083	-2.3521	-2.2417	-2.0229	-2.4854	-2.2208	-2.1354	-2.3812	-2.0917	-2.2896	-2.2854	-2.1	-2.3542	-2.2271	48.061	151.799	-108.282	-130.958	175.538	115.044	152.592	178.057	107.752	95.124	179.575	-115.902	-108.422	-111.645	3.926	37.172	0.00063414	0.0005583	0.00016983	1441	1.2991e-06	3.5771e-06	1428.7	400.8	6.3399e-06	2.1321e-06	451.65	143.99	126.3	42.695	7.3586e-06	51.894	0.0005157	0.00050808	0.00014114	1450.1	5.5583e-06	5.5581e-06	1444	406.23	5.5532e-06	5.5814e-06	454.64	145.99	127.25	43.524	5.5502e-06	53.054	139.575	-93.257	-15.996	-117.421	82.327	3.920	-117.805	-113.126	-47.820	111.013	-113.499	-109.457	-109.675	-103.543	-27.240	-104.144	-8191	255	
1011.184	1	1	0	0	0.2543	0.14875	0.074178	0.22744	0.12159	0.036022	0.28158	0.32436	0.094387	0.12204	0.099756	0.23077	0.10769	0.08009	0.079834	0.22031	-1.6583	-2.3833	-2.0062	-2.4021	-2.4146	-2.025	-2.6583	-2.4667	-2.0563	-2.3167	-2.1312	-2.2792	-2.3042	-2.0583	-2.3	-2.3312	-122.955	75.550	-121.341	211.239	194.599	72.207	170.806	-127.281	-123.558	-52.692	-99.567	162.257	-36.298	-108.828	49.515	154.365	0.00047397	0.00023552	0.00017932	1435.9	4.2266e-06	5.2249e-06	1431.1	402.39	2.6168e-06	4.4975e-06	451.58	144.17	126.84	42.702	4.2295e-06	51.845	0.00051009	0.00050676	0.00014069	1447.8	5.5257e-06	5.4734e-06	1443.8	406.63	5.4845e-06	5.4344e-06	455.05	145.98	127.25	43.514	5.4648e-06	53.006	118.873	118.458	9.093	-117.575	-51.305	-5.661	-117.801	-113.195	-59.470	4.769	-113.744	-110.094	-110.152	-103.992	-61.670	-105.290	-8191	255	
1011.257	1	1	0	0	0.11411	0.10235	0.18365	0.05541	0.14099	0.2665	0.13748	0.27047	0.1967	0.20465	0.13077	0.086158	0.052743	0.20506	0.084374	0.15923	-1.425	-2.4083	-1.9958	-2.2979	-2.2604	-1.85	-2.4062	-2.5104	-1.6396	-2.6479	-2.1625	-2.1875	-2.3646	-2.0229	-2.2771	-2.1813	6.450	161.664	137.316	-51.733	213.789	-35.919	211.387	196.598	58.386	-46.863	-77.488	6.478	128.966	63.950	81.854	217.665	0.0004044	0.0010669	1.7253e-05	1434.8	1.9878e-06	3.5245e-06	1429.9	401.68	8.98e-06	7.2472e-06	449.99	143.13	126.04	42.569	5.9728e-06	52.14	0.00050149	0.00049651	0.00013797	1446.7	5.4496e-06	5.4551e-06	1445.2	406.4	5.4979e-06	5.457e-06	455.57	145.9	127.13	43.516	5.5021e-06	53.163	123.188	-93.437	135.017	-117.964	-88.291	-0.132	-118.109	-113.748	-110.554	-12.536	-116.555	-112.575	-112.445	-107.098	-13.618	-107.500	-8191	255	
1011.354	1	1	0	0	0.13147	0.14786	0.080473	0.30845	0.29552	0.10764	0.063631	0.2191	0.18365	0.32688	0.27104	0.020023	0.073151	0.10998	0.22889	0.13052	-1.5187	-2.2792	-2.0229	-2.2438	-2.3438	-1.9396	-2.2583	-2.2271	-1.7292	-2.4833	-2.075	-1.9521	-2.2771	-2.0563	-2.4062	-2.1896	-56.955	125.892	80.323	210.812	-42.285	156.352	-82.349	160.498	206.244	-9.867	-116.057	224.817	-128.403	-95.173	-121.167	-25.028	0.00035201	0.00076236	0.00012808	1437.9	9.6818e-06	6.4733e-06	1421.6	399.73	6.9313e-06	3.7282e-06	451.36	142.92	126.48	42.556	1.5697e-06	51.998	0.00050512	0.00050017	0.00013902	1450.5	5.4807e-06	5.499e-06	1445.6	405.75	5.5184e-06	5.5209e-06	454.88	145.8	127.21	43.577	5.5748e-06	53.15	130.095	-71.759	-60.004	-120.603	-24.992	-16.847	-121.055	-116.534	-3.092	67.686	-116.976	-112.825	-112.920	-107.167	35.966	-107.556	-8191	255	
1011.472	1	1	0	0	0.15821	0.090525	0.16227	0.39151	0.22442	0.14853	0.07969	0.3571	0.1108	0.10056	0.12983	0.082963	0.32536	0.04928	0.090428	0.16389	-1.3646	-2.1333	-1.8167	-2.1188	-2.2812	-2.075	-2.4188	-2.325	-1.75	-2.2875	-2.2938	-2.1063	-2.2271	-2.0062	-2.1583	-2.3021	66.396	110.185	-32.938	153.851	152.095	137.855	71.052	218.032	189.763	-126.628	203.287	136.706	-129.199	150.582	183.638	128.791	0.00055713	0.0010493	0.00013795	1435.2	6.4242e-06	5.3757e-06	1432.7	400.56	7.5576e-06	1.5458e-06	450.43	143.79	126.36	42.772	1.9489e-06	52.008	0.00050816	0.00051104	0.00014216	1451.5	5.6105e-06	5.6036e-06	1450.5	406.36	5.7541e-06	5.7801e-06	456.02	146.44	127.68	43.71	5.7061e-06	53.301	124.323	-76.211	-90.508	-120.637	61.745	-15.441	-120.771	-116.026	-120.323	-132.488	-116.396	-112.313	-112.359	-106.457	52.745	-107.815	-8191	255	
1011.569	1	1	0	0	0.30501	0.26519	0.13501	0.24616	0.18853	0.054712	0.050601	0.17758	0.16339	0.14243	0.31046	0.012355	0.21382	0.23079	0.22538	0.1104	-1.3438	-2.2062	-2.0729	-1.825	-2.3354	-2.025	-2.3292	-2.4708	-1.7625	-2.2729	-2.3125	-2.0667	-2.4854	-2.3167	-1.9729	-2.4604	16.195	-92.054	192.548	201.819	-19.119	206.031	87.113	141.850	210.861	23.138	156.405	213.722	94.453	188.914	75.956	87.007	0.0007565	0.00022716	0.00027993	1433.3	6.1039e-06	4.7764e-06	1426.1	400.55	6.1495e-06	2.0856e-06	452.67	143.69	125.61	42.651	3.7622e-06	52.461	0.00051459	0.0005102	0.00014217	1450.8	5.545e-06	5.5005e-06	1447.9	406.7	5.5056e-06	5.4586e-06	456.27	146.23	127.13	43.626	5.4968e-06	53.271	126.143	-116.814	0.334	-120.719	-5.611	-14.381	-121.312	-116.426	-101.661	-13.537	-116.366	-112.440	-112.229	-106.310	-54.743	-106.889	-8191	255	
1011.665	1	1	0	0	0.023795	0.15354	0.15503	0.27542	0.19378	0.088933	0.14162	0.28774	0.26277	0.031604	0.085313	0.21951	0.012244	0.17352	0.25552	0.081839	-1.5875	-2.2708	-2.1333	-2.1167	-2.3125	-2.0375	-2.2896	-2.4979	-1.8167	-2.3354	-2.5167	-1.9979	-2.2438	-2.0708	-1.8667	-2.5792	92.356	-1.056	1.974	176.890	175.676	-113.377	224.086	221.630	113.287	45.654	161.821	201.664	16.715	144.143	177.405	100.903	0.00062578	0.0004435	0.00037746	1437	6.5029e-07	6.7748e-06	1426.1	402.25	6.4956e-06	2.2025e-06	451.09	143.48	126.08	42.823	3.4024e-06	51.972	0.00050533	0.00050045	0.00013987	1450.4	5.4578e-06	5.4762e-06	1447.7	406.69	5.4136e-06	5.3932e-06	454.63	145.78	126.57	43.54	5.2178e-06	52.884	157.149	-25.816	-48.212	-119.687	223.354	44.243	-119.701	-115.042	-47.597	17.446	-116.042	-112.052	-111.131	-105.533	40.256	-106.465	-8191	255	
1011.785	1	1	0	0	0.34108	0.18924	0.18258	0.3705	0.14996	0.32855	0.33084	0.058448	0.15521	0.2228	0.47185	0.17109	0.23243	0.14104	0.35823	0.12358	-1.6542	-2.225	-2.1	-1.9521	-2.5396	-2.1688	-2.0208	-2.5583	-1.95	-2.0833	-2.3521	-2.0333	-2.2812	-2.4188	-2.0958	-2.5146	51.937	153.848	222.336	213.991	-117.189	-7.687	139.833	175.801	183.117	127.231	212.204	82.517	-75.062	166.724	-37.523	143.058	0.00082126	0.00035978	9.6731e-05	1441.3	6.6974e-06	4.2573e-06	1431.3	400.19	2.4015e-06	2.188e-06	449.38	144.13	127.35	42.851	6.3519e-06	52.426	0.00047136	0.0004736	0.00013056	1451.2	5.1624e-06	5.1368e-06	1445.2	405.69	5.1725e-06	5.1959e-06	453.58	145.66	126.91	43.538	5.1766e-06	53.004	133.228	-94.237	-80.368	-116.926	92.821	-81.222	-117.827	-113.004	2.681	204.901	-113.519	-109.540	-109.513	-103.439	-15.548	-104.324	-8191	255	
1011.882	1	1	0	0	0.20334	0.24912	0.16471	0.1631	0.098809	0.34174	0.091146	0.33549	0.4381	0.059162	0.17607	0.27841	0.12406	0.10852	0.19802	0.16744	-1.6354	-2.2396	-2.3229	-1.9458	-2.4688	-2.2229	-2.1688	-2.5375	-2.0875	-2.1854	-2.7146	-2.0375	-2.325	-2.4229	-1.9062	-2.3958	-48.180	-70.465	-17.954	184.329	-13.826	108.327	124.357	154.361	23.243	160.822	227.111	203.186	118.064	169.968	-51.625	174.544	0.00060245	0.00076109	8.4056e-05	1443.4	4.8047e-06	3.6599e-06	1435.7	401.75	7.0646e-06	7.4652e-06	449.3	143.95	125.93	42.951	3.7192e-06	52.196	0.00047968	0.00047881	0.00013336	1451.9	5.2713e-06	5.2281e-06	1447	406.04	5.3111e-06	5.2863e-06	454.02	145.94	126.61	43.563	5.2613e-06	53.037	153.605	-40.908	-18.523	-117.485	-70.852	-39.812	-117.712	-113.102	-88.621	67.562	-113.294	-109.513	-109.747	-103.714	-74.862	-104.307	-8191	255	
1011.953	1	1	0	0	0.14417	0.16046	0.23108	0.27612	0.073606	0.11892	0.12368	0.27876	0.10722	0.15098	0.13597	0.16997	0.25249	0.23545	0.1755	0.12341	-1.5792	-1.9396	-2.5563	-2.0292	-2.5375	-2.2354	-2.0896	-2.5604	-2.1562	-2.1479	-2.6083	-2.0042	-2.1917	-2.3937	-1.8708	-2.4375	42.969	-104.112	-128.458	180.795	109.552	178.414	213.016	179.690	-29.663	-85.463	161.763	202.731	198.067	-108.123	54.279	-127.598	0.00056446	0.00011122	8.5763e-05	1440.3	6.4262e-06	3.1487e-06	1429.5	401.46	3.5058e-06	2.7664e-06	449.62	144.1	126.24	42.612	4.5507e-06	51.884	0.00048257	0.0004791	0.00013306	1451.3	5.2658e-06	5.232e-06	1445.5	405.72	5.2715e-06	5.2404e-06	454.72	145.93	126.61	43.547	5.3426e-06	53.046	120.358	-82.590	35.416	-117.406	28.834	45.838	-117.721	-113.021	-72.301	87.888	-113.728	-109.481	-109.140	-103.665	44.432	-104.628	-8191	255	
1012.074	1	1	0	0	0.15314	0.17178	0.28363	0.25365	0.085419	0.070955	0.19747	0.28845	0.097665	0.081101	0.31753	0.16778	0.13832	0.22678	0.16155	0.28309	-1.85	-1.9188	-2.4	-2.2229	-2.2562	-1.9229	-2.1854	-2.2646	-2.2021	-1.9604	-2.4688	-2.1417	-2.1271	-2.3333	-1.8396	-2.1979	167.293	-50.866	-56.978	173.508	-126.437	-44.907	148.833	168.263	15.151	88.996	199.704	213.014	197.321	218.783	113.795	2.786	0.00070519	0.00067117	6.1099e-05	1438.6	5.5225e-06	1.9275e-06	1428.5	401.43	5.4272e-06	9.1736e-07	449.72	143.35	126.27	42.663	1.2958e-05	51.847	0.00049445	0.00048911	0.00013533	1451.3	5.3956e-06	5.3808e-06	1446.5	405.76	5.3361e-06	5.3084e-06	455.17	145.82	126.52	43.476	5.274e-06	53.053	140.186	-78.463	113.733	-117.338	199.682	-79.438	-117.742	-113.162	-48.592	-125.422	-116.281	-112.301	-112.182	-106.332	16.483	-106.995	-8191	255	
1012.170	1	1	0	0	0.25454	0.13842	0.083399	0.41276	0.25101	0.021442	0.36993	0.055134	0.24836	0.081432	0.22226	0.26777	0.21742	0.061871	0.14551	0.12025	-1.575	-1.825	-2.2208	-2.3104	-2.0917	-2.2313	-2.1104	-2.2083	-2.1854	-1.9396	-2.4479	-2.0583	-1.8375	-2.3729	-1.8542	-2.2	-131.486	160.525	-131.542	224.481	187.915	-88.261	148.323	152.695	-114.758	-3.182	189.697	170.486	-51.927	-120.847	-75.046	75.879	0.00068336	0.00024507	0.00011575	1434.7	7.2705e-06	6.6842e-06	1433.9	402.16	3.5053e-06	5.8841e-06	451.08	144.33	126.11	42.701	3.6562e-06	51.957	0.00048573	0.00048345	0.00013403	1448.9	5.2597e-06	5.1813e-06	1447.8	406.58	5.1868e-06	5.1861e-06	454.61	145.77	126.27	43.483	5.1557e-06	52.954	142.260	-105.299	221.841	-119.952	-18.501	-35.345	-120.337	-115.622	213.035	165.724	-116.302	-112.422	-112.453	-106.337	-4.536	-107.066	-8191	255	
1012.264	1	1	0	0	0.30211	0.10675	0.033147	0.33323	0.14798	0.13761	0.13674	0.19464	0.15678	0.1879	0.082432	0.17737	0.071702	0.07919	0.095865	0.15127	-1.6417	-1.9729	-2.1125	-2.2479	-2	-2.3479	-2	-2.2729	-2.2646	-1.9333	-2.4292	-2.1604	-1.9354	-2.4042	-1.9771	-1.9583	161.107	157.454	192.424	214.166	186.770	152.675	157.463	101.469	-117.605	166.976	74.063	202.530	-31.723	139.376	-4.434	-96.369	0.0004728	0.00027552	3.0578e-05	1437.6	3.356e-06	4.8403e-06	1430.8	400.19	5.8463e-06	7.8579e-06	450.98	143.72	126.5	42.466	5.0701e-06	52.254	0.00047321	0.00047142	0.00012996	1449.3	5.1462e-06	5.1337e-06	1445.3	405.39	5.2221e-06	5.2423e-06	455.07	145.79	126.58	43.466	5.3081e-06	52.922	129.577	15.164	212.942	-119.956	-102.855	-55.169	-119.879	-115.242	-104.749	37.391	-116.046	-112.672	-112.796	-107.219	4.847	-107.910	-8191	255	
1012.385	1	1	0	0	0.26338	0.16647	0.25784	0.29582	0.11487	0.42574	0.17267	0.21837	0.14477	0.34217	0.38079	0.22266	0.20048	0.20324	0.17462	0.2668	-1.9062	-1.8375	-2.3792	-2.3521	-1.85	-2.3187	-2.2646	-2.0875	-2.3229	-2.0208	-2.2438	-2.1833	-1.9896	-2.2958	-1.9875	-2.1646	196.580	132.552	3.333	178.671	-100.302	137.874	180.770	128.964	-43.670	148.790	135.978	145.136	117.098	158.877	-48.263	-78.598	0.00053622	0.00047062	0.00023755	1433.4	4.9888e-06	1.729e-06	1429.3	401.9	2.0914e-06	8.3131e-06	449.93	144.2	125.62	42.654	6.8166e-06	52.086	0.0004796	0.00047792	0.000134	1448.2	5.2628e-06	5.1739e-06	1444.5	406.5	5.196e-06	5.2302e-06	453.85	145.79	126.42	43.489	5.1632e-06	52.826	113.637	-21.086	-58.099	-120.472	-65.220	-105.987	-120.882	-116.145	-108.019	28.891	-116.365	-112.668	-112.219	-106.734	-2.967	-107.400	-8191	255	
1012.481	1	1	0	0	0.26186	0.18515	0.05145	0.1035	0.089807	0.071697	0.18077	0.21199	0.23451	0.3505	0.18746	0.25986	0.31801	0.28154	0.31976	0.20336	-1.8604	-1.9438	-2.2125	-2.2521	-1.8438	-2.4396	-2.0771	-1.9583	-2.375	-1.8833	-2.3583	-2.3271	-1.8604	-2.4896	-2.0021	-1.9208	192.318	-67.129	70.791	80.261	-99.352	65.391	171.204	175.732	-117.997	198.547	168.764	165.174	223.817	175.421	117.094	109.941	0.00068116	0.00036237	0.00017691	1431.7	4.0562e-06	1.2867e-06	1422	400.95	1.355e-05	1.078e-06	449.32	143.02	125.95	42.561	4.3488e-06	51.853	0.00047271	0.00046975	0.00013032	1446.3	5.17e-06	5.152e-06	1442.2	405.9	5.1728e-06	5.1316e-06	453.82	145.27	126.66	43.458	5.2501e-06	52.76	106.494	-104.814	-41.734	-120.753	-17.823	209.458	-121.225	-116.478	-39.151	-5.178	-116.496	-112.453	-112.107	-106.904	-11.154	-107.373	-8191	255	
1012.553	1	1	0	0	0.077042	0.16824	0.26893	0.23955	0.13518	0.27749	0.07991	0.12852	0.19484	0.1062	0.19964	0.27382	0.16284	0.1945	0.090105	0.12193	-2.05	-1.9104	-2.1	-2.5896	-1.7229	-2.1104	-2.3854	-2.0854	-2.25	-1.8333	-1.9521	-2.3396	-2.0167	-2.2958	-2.2208	-1.7354	-4.176	-69.770	-28.671	178.402	181.757	-30.115	189.411	197.066	122.761	-65.346	80.174	163.188	198.438	-125.982	57.944	145.239	0.00031859	0.00013711	0.00023067	1432.3	8.6336e-06	2.3178e-06	1431.4	401.83	3.0164e-06	3.2049e-06	450.96	143.39	126.29	42.576	1.1306e-06	51.973	0.00048382	0.00048051	0.0001333	1447.1	5.2298e-06	5.1875e-06	1444	406.23	5.2276e-06	5.2168e-06	454.36	145.61	126.8	43.46	5.1302e-06	52.892	116.482	-51.617	-56.646	-120.963	-28.081	6.979	-121.115	-115.892	-131.220	23.868	-116.265	-112.222	-111.560	-106.662	-38.990	-107.635	-8191	255	
1012.649	1	1	0	0	0.19597	0.28875	0.075589	0.29947	0.13248	0.11112	0.10695	0.18844	0.18637	0.2472	0.052396	0.30553	0.1928	0.070997	0.12945	0.05058	-1.8896	-2.1312	-2.0979	-2.3063	-1.8771	-2.1417	-2.3375	-1.8292	-2.2687	-2.0104	-2.0625	-2.45	-1.9604	-2.2875	-2.3187	-1.8104	202.766	33.436	94.100	202.462	118.707	188.685	137.671	-84.315	123.723	27.068	83.551	192.312	-72.889	36.845	0.193	-89.856	0.00072086	0.00046696	8.5511e-05	1432.7	2.6227e-06	1.4321e-06	1423.4	400.96	2.2576e-06	5.2096e-06	450.25	143.63	126.08	42.724	3.542e-06	51.998	0.00047315	0.00046868	0.00012954	1448.1	5.1134e-06	5.1659e-06	1442.7	405.5	5.0996e-06	5.139e-06	453.78	145.67	126.07	43.473	5.1401e-06	52.898	141.833	27.056	22.077	-120.466	-79.427	-62.103	-120.826	-115.873	-107.456	36.051	-116.463	-112.245	-112.212	-106.368	-43.067	-107.188	-8191	255	
1012.770	1	1	0	0	0.098837	0.10933	0.37553	0.29145	0.13243	0.34633	0.078236	0.26327	0.085123	0.29759	0.31089	0.023266	0.094754	0.19881	0.019882	0.19388	-1.8625	-2.0771	-1.9708	-2.4188	-2.0083	-2.2229	-2.425	-2.1917	-2.4167	-2.2	-2.0396	-2.5312	-1.9875	-2.225	-2.4542	-1.925	-117.429	-41.322	-38.413	191.384	-105.288	-65.616	165.576	104.513	-121.976	38.864	-64.067	225.435	102.942	4.223	114.912	-64.900	0.00084301	0.001072	5.3362e-05	1436.2	2.2327e-06	4.793e-06	1425.5	403.3	2.3045e-06	2.8649e-06	451.73	143.59	126.39	42.648	4.082e-06	51.976	0.00047416	0.0004728	0.00013044	1448.6	5.2001e-06	5.1689e-06	1442.4	406.56	5.2835e-06	5.2294e-06	454.95	145.71	126.36	43.514	5.2525e-06	52.827	122.983	-41.857	46.504	-119.636	-61.432	-41.009	-119.232	-114.040	55.665	76.418	-113.520	-109.699	-109.829	-103.588	3.466	-104.198	-8191	255	
1012.866	1	1	0	0	0.22753	0.42549	0.090824	0.10719	0.13581	0.33453	0.20579	0.16687	0.093169	0.17255	0.27592	0.12353	0.17353	0.050791	0.10795	0.33667	-1.7875	-2.1271	-1.8958	-2.4958	-1.9062	-2.2375	-2.4854	-1.6729	-2.2771	-2.1396	-2.0833	-2.4167	-1.9833	-2.1188	-2.3104	-1.8646	-120.371	-129.611	26.201	195.951	22.567	86.407	165.079	181.660	186.813	210.811	-112.182	-37.257	161.006	136.634	-101.708	-106.496	0.00055726	0.00016823	8.435e-05	1437.4	4.2728e-06	6.1056e-06	1424.1	400.97	1.0142e-05	1.2214e-06	451.3	143.31	126.31	42.731	3.1904e-06	52.102	0.0004785	0.00047697	0.00013421	1447.2	5.2525e-06	5.1814e-06	1441.6	406.1	5.295e-06	5.2784e-06	454.87	145.54	126.8	43.452	5.2893e-06	52.912	126.395	107.394	-4.293	-117.291	-59.960	35.904	-117.858	-113.094	-62.400	-52.630	-113.482	-109.388	-109.413	-103.749	-5.348	-104.249	-8191	255	
1012.962	1	1	0	0	0.31588	0.33513	0.31311	0.3635	0.12092	0.30165	0.11887	0.15476	0.1507	0.38956	0.21857	0.10559	0.24584	0.22277	0.11124	0.21289	-2.1063	-2.2438	-1.8333	-2.5917	-2.0438	-1.9208	-2.3271	-2.1146	-2.3146	-2.0875	-2.0146	-2.3479	-2.0167	-2.125	-2.2	-1.8146	-9.162	7.114	-49.294	-111.444	99.800	39.760	69.699	164.626	150.129	162.225	154.561	106.026	78.561	178.373	180.832	-134.462	0.00051883	0.00055936	0.00015082	1437.9	5.5072e-06	5.2832e-06	1431.9	401.32	1.0978e-06	1.8948e-06	449.47	143.42	126.2	42.479	4.5966e-06	51.953	0.00048269	0.00047782	0.00013494	1449	5.2998e-06	5.1966e-06	1445	406.13	5.2908e-06	5.2346e-06	454.55	145.85	126.87	43.362	5.3064e-06	52.873	152.681	-56.746	-103.924	-117.349	6.683	-29.878	-117.820	-116.590	-108.668	3.790	-116.823	-112.620	-112.864	-106.774	-55.603	-107.391	-8191	255	
1013.058	1	1	0	0	0.090965	0.056698	0.22789	0.13657	0.07729	0.043123	0.12667	0.18013	0.045022	0.04264	0.39328	0.23571	0.18811	0.095375	0.2308	0.15079	-1.7062	-2.0667	-1.7771	-2.3854	-2.1188	-1.6708	-2.6	-2.0875	-2.1729	-2.2208	-2.0687	-2.3833	-2.1937	-1.9958	-2.2125	-2.0687	194.294	-67.594	87.136	-81.546	158.973	221.096	207.104	-61.479	103.136	-118.511	138.300	137.790	120.808	194.693	112.563	47.296	0.00068779	0.00042765	0.00012869	1434.4	5.2168e-06	7.1333e-06	1429.3	401.76	7.1174e-06	3.6742e-06	450.51	143.89	125.29	42.561	6.0949e-06	51.885	0.00048455	0.00048196	0.00013549	1447.8	5.3167e-06	5.2489e-06	1443.4	406.66	5.3292e-06	5.3455e-06	454.51	145.94	126.74	43.46	5.2737e-06	52.922	133.049	-75.155	19.807	-120.163	-10.750	1.367	-120.732	-115.494	-17.022	-4.657	-116.115	-112.092	-111.634	-106.330	-67.763	-107.486	-8191	255	
1013.154	1	1	0	0	0.17131	0.17132	0.13854	0.33507	0.085015	0.1589	0.39975	0.1484	0.30879	0.029983	0.02231	0.20686	0.22983	0.26406	0.094086	0.086439	-1.5333	-2.2208	-1.9667	-2.375	-2.25	-1.9	-2.4521	-2.0354	-2.0542	-2.4167	-2.0458	-2.2938	-2.0438	-1.9083	-2.3271	-2.2396	51.457	172.322	-6.992	-103.913	68.533	-21.435	138.502	188.743	-19.317	-58.217	-1.082	-109.189	178.370	186.315	182.515	188.379	0.00052157	0.00055027	9.5592e-05	1428.5	6.8089e-06	3.3502e-06	1428.2	401.43	3.5982e-06	3.2743e-06	449.32	143.43	125.86	42.523	8.9774e-06	52.158	0.00047969	0.00047607	0.00013364	1447	5.2468e-06	5.2176e-06	1445.4	405.88	5.2511e-06	5.2269e-06	454.75	145.75	126.78	43.45	5.1989e-06	52.841	124.530	-33.037	207.990	-119.883	-15.451	-18.014	-120.033	-114.793	-54.841	39.606	-116.115	-112.965	-112.731	-107.080	-2.170	-107.322	-8191	255	
1013.250	1	1	0	0	0.087368	0.22956	0.13679	0.5007	0.30076	0.31171	0.24123	0.12765	0.17086	0.14291	0.088404	0.089236	0.026181	0.10493	0.1075	0.2526	-1.6021	-2.1354	-1.7521	-2.2625	-2.1542	-1.9521	-2.6292	-2.2354	-1.9583	-2.3937	-2.1333	-2.1667	-2.0938	-1.9229	-2.4104	-2.0583	-3.975	-56.917	-109.011	187.283	165.116	-25.794	195.158	109.553	-120.898	48.606	81.008	-115.276	-5.588	206.818	148.905	133.998	0.00072662	0.00072616	0.00011454	1434	1.9957e-06	2.5861e-06	1425.2	400.26	2.6785e-06	5.4389e-06	448.89	143.87	127.53	42.627	3.6626e-06	51.809	0.00047877	0.00047756	0.00013319	1449.2	5.2795e-06	5.2369e-06	1445.1	405.92	5.2949e-06	5.2649e-06	453.65	145.81	127.17	43.388	5.337e-06	52.973	124.879	-81.791	-113.566	-120.449	-68.233	-15.227	-120.894	-116.383	-91.686	81.239	-116.609	-112.694	-112.254	-106.686	108.977	-107.274	-8191	255	
1013.347	1	1	0	0	0.37689	0.16907	0.066513	0.25285	0.12574	0.19364	0.28986	0.20247	0.20232	0.18746	0.15944	0.05847	0.20919	0.069756	0.13313	0.29741	-1.4125	-2.2375	-2.1479	-2.3792	-2.4917	-1.9458	-2.4417	-2.2771	-1.9333	-2.3021	-2.0167	-2.1771	-2.1917	-1.9104	-2.0792	-2.2167	-127.430	-84.723	173.643	202.902	87.729	17.701	131.884	165.029	114.066	100.283	184.203	-132.928	24.937	201.736	196.214	160.154	0.00058652	0.00029544	0.00015271	1437.5	2.0336e-06	5.3051e-06	1426.8	399.32	4.826e-06	5.3283e-06	449.56	144.11	125.62	42.488	4.981e-06	51.998	0.0004852	0.00048765	0.00013494	1449.3	5.3e-06	5.2816e-06	1443.6	405.72	5.2771e-06	5.3005e-06	453.89	145.97	126.47	43.458	5.2095e-06	52.91	118.591	-74.907	-93.262	-120.558	-22.394	0.649	-120.964	-116.270	-97.025	24.386	-116.753	-112.483	-112.466	-106.440	-15.982	-107.399	-8191	255	
1013.465	1	1	0	0	0.25868	0.13556	0.13075	0.27529	0.2292	0.24104	0.19715	0.2293	0.04938	0.065764	0.28155	0.14748	0.057078	0.31552	0.080153	0.13773	-1.6313	-2.3187	-1.7479	-2.1917	-2.1896	-1.9021	-2.4458	-2.3792	-1.7667	-2.2375	-2.2208	-2.0125	-2.2083	-2.0563	-2.1271	-2.3292	152.445	-35.626	-56.554	-105.983	181.153	40.554	119.857	192.801	160.960	38.388	-104.466	183.294	98.684	224.586	8.086	-56.087	0.00048716	0.00073666	0.00010917	1435.9	4.3829e-06	3.9017e-06	1428.8	399.72	8.0497e-06	2.2776e-06	448.02	143.93	125.72	42.615	6.571e-06	52.283	0.00047644	0.00047054	0.00013282	1447.8	5.1602e-06	5.1324e-06	1442	405.55	5.1632e-06	5.1699e-06	454.34	145.51	126.37	43.437	5.1923e-06	52.916	135.295	-73.393	-31.639	-120.468	-58.431	-42.926	-120.843	-116.141	-25.460	18.638	-116.473	-112.547	-112.288	-106.514	47.646	-107.068	-8191	255	
1013.562	1	1	0	0	0.12642	0.18582	0.41999	0.43579	0.15238	0.03054	0.35414	0.20041	0.18395	0.0038386	0.42034	0.28647	0.14317	0.12045	0.042693	0.1489	-1.3208	-2.3229	-2.0208	-2.2396	-2.525	-1.9354	-2.3604	-2.3542	-1.8167	-2.3458	-2.2979	-1.8729	-2.525	-2.0333	-2.1542	-2.5729	-70.222	123.411	218.396	158.652	-60.135	45.848	201.604	123.784	-22.914	-112.280	-125.411	211.981	177.321	189.985	-39.700	174.529	0.00062848	0.00043414	5.3907e-05	1434.4	1.5082e-06	1.6135e-06	1430.5	401.18	9.4003e-06	3.9478e-06	450.21	143.1	125.97	42.757	6.2101e-06	51.782	0.00047723	0.00046876	0.00013087	1449	5.1889e-06	5.1725e-06	1446.4	406.03	5.2288e-06	5.2231e-06	454.52	145.62	126.36	43.452	5.2449e-06	52.693	127.560	-6.099	33.511	-119.619	135.734	-74.371	-120.306	-114.927	-83.287	-6.719	-114.562	-110.161	-109.862	-104.919	-1.497	-106.421	-8191	255	
1013.658	1	1	0	0	0.13134	0.095697	0.17935	0.55796	0.09071	0.32314	0.1499	0.17458	0.12838	0.13797	0.19523	0.065352	0.2429	0.098855	0.27472	0.14726	-1.3208	-2.3354	-2.0354	-1.975	-2.5396	-1.9188	-2.1979	-2.6188	-1.8521	-2.3333	-2.1292	-1.9021	-2.2	-1.9104	-2.0083	-2.325	-124.057	31.987	53.871	174.619	185.977	150.318	137.127	129.278	86.803	39.492	153.057	-82.885	-108.813	49.098	5.303	66.079	0.00068547	0.00065396	0.00017226	1432.2	3.0907e-06	4.7983e-06	1427.9	400.54	7.4219e-06	7.3278e-06	450.09	143.18	125.93	42.628	4.5749e-06	52.042	0.00048087	0.00047676	0.00013277	1446.9	5.2681e-06	5.2282e-06	1444	405.86	5.3182e-06	5.295e-06	454.3	145.63	126.45	43.474	5.2608e-06	52.938	106.706	-89.180	-37.076	-118.992	2.066	-25.420	-120.480	-115.820	-33.884	-3.342	-116.218	-112.198	-111.760	-105.914	-15.059	-106.747	-8191	255	
1013.754	1	1	0	0	0.26209	0.27465	0.17514	0.14596	0.049064	0.10192	0.38747	0.3946	0.089906	0.19095	0.20052	0.046403	0.099042	0.14787	0.25564	0.11422	-1.4875	-2.1667	-2.0896	-2.0271	-2.1042	-1.8854	-2.1479	-2.2396	-1.825	-2.2396	-2.4167	-1.9125	-2.1854	-2.1229	-2.0708	-2.1083	159.549	90.379	132.925	114.649	-21.084	38.996	202.770	176.695	-34.134	-27.854	160.101	80.388	-77.030	205.417	77.538	193.763	0.00058489	0.00072573	0.00027499	1438.5	1.0306e-05	2.2204e-06	1432.8	401.28	1.0588e-06	4.991e-06	450.38	143.71	125.37	42.449	3.7532e-06	51.642	0.00048874	0.00048146	0.00013494	1450.5	5.3185e-06	5.3119e-06	1444.5	406.05	5.3341e-06	5.2683e-06	454.81	145.74	126.63	43.446	5.3032e-06	52.946	123.139	-20.331	-26.456	-119.498	-54.592	-66.431	-120.060	-115.050	207.747	4.747	-115.885	-111.844	-111.623	-106.446	-13.807	-106.761	-8191	255	
1013.850	1	1	0	0	0.23238	0.14597	0.20518	0.30272	0.10982	0.09856	0.20824	0.058115	0.048363	0.17812	0.0139	0.22085	0.24813	0.053881	0.041761	0.0054857	-1.5771	-1.9958	-2.0812	-1.9688	-2.0833	-2.1521	-2.15	-2.5104	-1.9667	-1.9417	-2.5104	-1.9271	-2.2854	-2.1312	-1.8646	-2.4813	193.523	93.411	76.954	194.588	-132.826	211.357	74.391	166.994	-129.234	31.075	192.021	-132.132	220.868	150.155	23.842	133.870	0.00058048	0.00032956	0.00012143	1436.2	5.2143e-06	3.0849e-06	1424.9	401.23	4.1935e-06	4.2232e-06	451.59	143.29	126.07	42.456	3.6766e-06	52.011	0.00048645	0.00048404	0.00013501	1450.5	5.2797e-06	5.2545e-06	1444.9	405.51	5.2822e-06	5.3135e-06	454.93	145.75	126.85	43.458	5.3472e-06	53.121	145.750	-36.470	-66.018	-120.078	-98.221	-27.984	-120.530	-116.095	-94.868	41.345	-116.668	-112.408	-112.373	-106.545	-19.146	-107.477	-8191	255	
1013.946	1	1	0	0	0.15983	0.26485	0.13676	0.38895	0.12836	0.076774	0.12738	0.16479	0.20909	0.14085	0.11231	0.19731	0.050257	0.43177	0.21683	0.20462	-1.5271	-2.0125	-2.1792	-2.0458	-2.1604	-2.125	-2.1354	-2.5667	-2.0333	-1.9042	-2.2979	-1.9	-2.3312	-2.1021	-1.9937	-2.2917	11.027	-43.433	-122.229	-121.790	94.242	-8.425	25.372	108.013	52.792	149.543	130.615	209.415	93.684	173.897	-72.690	-100.355	0.00065391	0.00016787	0.00017999	1432.7	5.1676e-06	2.2627e-06	1422.6	400.16	6.3105e-06	5.82e-06	449.32	143.41	126.23	42.659	7.5977e-06	51.799	0.00049269	0.0004894	0.00013609	1449.6	5.3519e-06	5.3344e-06	1445.8	405.56	5.3406e-06	5.3398e-06	454.25	145.54	126.88	43.519	5.33e-06	52.993	139.273	-132.163	-47.876	-120.254	-107.093	11.665	-120.894	-116.059	-0.731	62.665	-116.193	-112.108	-111.860	-106.270	-4.181	-106.805	-8191	255	
1014.067	1	1	0	0	0.16541	0.072614	0.093595	0.22746	0.32492	0.12679	0.41055	0.34165	0.16042	0.24202	0.30657	0.14196	0.046788	0.11102	0.32881	0.2996	-1.6187	-1.9188	-2.2562	-2.0292	-2.1375	-2.1167	-2.0312	-2.4	-1.9833	-2.1542	-2.3854	-1.8708	-2.0146	-2.3208	-1.9271	-2.3792	-67.430	46.507	156.363	221.268	-96.221	-30.029	178.238	146.478	116.964	176.407	218.539	-133.514	72.522	223.475	172.892	-67.285	0.00044625	0.00012997	0.00013489	1442.3	3.3684e-06	7.7147e-06	1431.6	400.83	1.1019e-05	6.6653e-07	449.62	144.03	126.26	42.845	5.3652e-06	52.217	0.00048571	0.00048472	0.00013531	1452.4	5.2773e-06	5.2705e-06	1447.1	405.56	5.3007e-06	5.2796e-06	454.01	146.17	126.65	43.627	5.3116e-06	52.972	120.809	-77.361	-112.981	-119.506	-115.448	-43.404	-120.144	-115.721	-98.635	-109.009	-115.893	-111.648	-111.491	-105.447	-33.617	-106.024	-8191	255	
1014.163	1	1	0	0	0.30842	0.11434	0.13722	0.32032	0.13235	0.13718	0.17792	0.24648	0.26746	0.17921	0.19601	0.052263	0.13974	0.1419	0.025209	0.10966	-1.8188	-1.975	-2.2458	-2.1979	-2.0667	-2.175	-2.2271	-2.4167	-2.2875	-1.8792	-2.6146	-2.0396	-2.1021	-2.3937	-1.8479	-2.4104	139.569	-110.753	39.852	119.406	112.764	-33.956	201.351	118.237	52.244	51.481	165.831	190.479	21.918	185.812	14.998	37.299	0.00053692	0.00063753	8.1801e-05	1443.1	5.9484e-06	2.2332e-06	1427.6	401.54	7.0315e-06	8.8729e-06	450.77	144.47	128.06	42.801	6.967e-06	52.272	0.00048708	0.00048695	0.00013543	1452.6	5.3253e-06	5.3232e-06	1445.7	405.82	5.3142e-06	5.3462e-06	454.8	145.81	127.4	43.471	5.3308e-06	53.051	127.030	-42.294	147.487	-117.317	-64.675	-130.556	-117.909	-112.977	-111.107	53.481	-113.690	-109.626	-109.666	-103.468	-41.904	-104.389	-8191	255	
1014.257	1	1	0	0	0.077915	0.13089	0.57154	0.13515	0.27983	0.13322	0.33984	0.2081	0.18036	0.33267	0.038995	0.013609	0.12391	0.15814	0.12436	0.19485	-1.6854	-1.7771	-2.4083	-2.1562	-2.0021	-2.1625	-2.0271	-2.1083	-2.3167	-1.8604	-2.4604	-2.1312	-2.0104	-2.2854	-1.7062	-2.2542	-94.020	199.600	-18.580	189.730	-78.815	215.098	171.938	212.795	186.929	68.578	19.255	71.677	167.372	189.339	66.309	65.388	0.00058582	0.00043168	0.00020253	1435.5	5.3802e-06	2.8783e-06	1425.7	400.55	5.5918e-06	1.909e-06	449.92	143.58	126.48	42.551	4.7161e-06	51.97	0.00048874	0.00048676	0.00013366	1450.3	5.2848e-06	5.298e-06	1445.3	405.75	5.3225e-06	5.3202e-06	454.48	145.69	126.73	43.437	5.3288e-06	52.966	134.746	-38.477	-77.802	-120.230	-13.716	186.539	-120.602	-116.033	-104.616	-90.841	-116.393	-112.209	-112.412	-106.153	14.646	-106.586	-8191	255	
1014.354	1	1	0	0	0.38761	0.070795	0.078963	0.040395	0.11695	0.044273	0.33542	0.13804	0.11236	0.076763	0.28985	0.23654	0.11786	0.2811	0.030629	0.076665	-1.7292	-1.7958	-2.2583	-2.1688	-1.8396	-2.5062	-2.0312	-2.3729	-2.1562	-1.8521	-2.2667	-2.2542	-1.7417	-2.4292	-1.8667	-1.9521	-15.825	-38.182	66.174	112.029	40.941	168.569	-131.739	217.571	67.872	-70.213	103.644	101.096	115.164	211.572	172.617	10.157	0.00058831	0.00033705	0.00012035	1436.8	2.9673e-06	4.5478e-06	1430.9	400.76	3.5788e-06	2.8083e-06	449.1	143.01	126.06	42.63	9.2461e-06	52.29	0.0004884	0.00048687	0.00013449	1450.2	5.2714e-06	5.2754e-06	1445.7	405.68	5.2968e-06	5.302e-06	453.62	145.52	126.67	43.472	5.2583e-06	52.878	121.093	-74.984	-70.674	-119.859	-92.589	-0.595	-120.527	-115.874	221.834	225.473	-116.060	-112.130	-111.963	-106.316	-14.801	-107.152	-8191	255	
1014.450	1	1	0	0	0.21928	0.12491	0.069774	0.2218	0.020681	0.17016	0.13952	0.30678	0.02963	0.059021	0.23431	0.029521	0.31667	0.10413	0.056378	0.13623	-1.7729	-1.8563	-1.9937	-2.3979	-1.85	-2.3521	-2.0312	-2.0312	-2.2708	-1.8271	-2.2333	-2.1229	-1.8583	-2.3667	-1.9521	-2.0187	-105.461	211.797	206.447	215.965	58.290	217.258	201.783	208.663	-105.839	-50.025	182.592	212.108	93.999	-83.535	-78.193	108.186	0.00036535	0.00053557	0.00014778	1435.7	5.5032e-06	2.4613e-06	1432.8	399.9	5.4413e-06	5.6814e-06	447.99	143.48	125.28	42.62	8.6528e-06	51.868	0.00048167	0.00048027	0.00013343	1450	5.2048e-06	5.2043e-06	1445.6	405.49	5.194e-06	5.1841e-06	453.35	145.55	126.29	43.408	5.1717e-06	52.877	122.341	-70.342	-55.362	-119.725	-48.267	-63.571	-120.428	-115.613	-110.085	26.568	-115.654	-111.742	-112.014	-105.900	-44.972	-106.504	-8191	255	
1014.546	1	1	0	0	0.31367	0.19869	0.29388	0.29751	0.02513	0.10936	0.22595	0.23605	0.13169	0.20499	0.2476	0.036005	0.28315	0.14987	0.11409	0.070825	-1.75	-1.6396	-2.1333	-2.2229	-1.8	-2.0875	-2.2021	-2.1708	-2.2562	-1.8354	-2.1708	-2.2625	-1.8646	-2.1792	-1.8375	-2.0854	-97.322	-11.183	-18.602	212.971	-28.682	-10.198	-125.973	196.109	23.523	-74.173	189.477	175.476	14.477	-16.888	-50.677	24.979	0.00053658	0.00010798	6.6695e-05	1435.6	5.35e-06	4.2896e-06	1422.5	399.87	3.9422e-06	4.6964e-06	449.31	143.54	126.12	42.622	4.4543e-06	51.895	0.00047655	0.00047598	0.0001331	1447	5.2328e-06	5.2082e-06	1443	405.04	5.2381e-06	5.2728e-06	453.92	145.57	126.27	43.374	5.2236e-06	52.87	131.754	-131.979	-109.349	-120.162	-24.742	3.768	-120.384	-115.432	28.838	65.821	-115.200	-110.989	-111.588	-105.805	14.251	-106.561	-8191	255	
1014.642	1	1	0	0	0.075424	0.11221	0.1486	0.3109	0.053078	0.13073	0.31459	0.25114	0.20446	0.38723	0.12968	0.065015	0.15168	0.11517	0.32015	0.28755	-1.8896	-1.8917	-1.9062	-2.3125	-1.6354	-2.175	-2.2313	-2.0271	-2.3625	-2.0438	-2.1042	-2.1542	-1.9521	-2.0875	-2.0833	-2.1562	-112.970	-32.443	100.618	207.933	-4.750	-54.246	167.203	205.267	-102.934	70.371	-132.125	189.779	211.583	170.860	82.997	14.319	0.0007959	0.00029618	6.727e-05	1433.2	5.335e-06	4.5312e-06	1428.9	400.76	7.6283e-06	2.3047e-06	449.35	143.36	125.16	42.519	6.9619e-06	51.968	0.00048053	0.00047307	0.000131	1446.5	5.1779e-06	5.14e-06	1444.1	405.22	5.1124e-06	5.1363e-06	453.26	145.28	125.62	43.336	5.0627e-06	52.758	131.277	-71.751	-91.632	-119.786	6.563	10.774	-120.648	-115.742	-89.863	59.089	-116.124	-112.188	-112.074	-105.350	62.077	-106.660	-8191	255	
1014.738	1	1	0	0	0.17207	0.22767	0.10717	0.33976	0.032951	0.12354	0.22248	0.10183	0.26548	0.024769	0.099035	0.11567	0.17107	0.24161	0.13276	0.11533	-1.9438	-2.1042	-1.7979	-2.3937	-1.7146	-2.2792	-2.1896	-1.7792	-2.2104	-1.9917	-2.2313	-2.45	-1.9958	-2.2625	-2.2313	-2.1167	66.919	211.453	168.955	215.037	181.546	-89.076	100.206	216.891	-81.990	25.326	-37.109	120.800	144.638	219.884	12.768	135.648	0.00061833	0.00061836	0.00025517	1431.5	1.2637e-06	3.9009e-06	1423.9	400.52	3.434e-06	9.6896e-07	447.33	143.42	126.93	42.831	1.6677e-06	51.688	0.00047051	0.00045916	0.00012924	1446.4	5.1344e-06	5.1017e-06	1442.7	405.69	5.1302e-06	5.1505e-06	453.5	145.53	126.56	43.454	5.116e-06	52.828	135.727	19.151	-37.409	-120.183	-114.899	-22.615	-120.503	-115.956	218.965	153.240	-115.417	-111.619	-111.682	-105.978	62.378	-106.968	-8191	255	
1014.859	1	1	0	0	0.20591	0.051883	0.33485	0.2468	0.11252	0.32811	0.23573	0.22785	0.18583	0.12153	0.10675	0.22133	0.14535	0.12484	0.077862	0.23811	-1.9792	-1.9521	-1.7792	-2.5812	-1.9083	-2.0729	-2.3708	-2.0542	-2.2146	-2.0979	-1.9125	-2.4667	-1.9125	-2.1625	-2.2938	-2.0604	52.546	-133.558	78.601	162.077	13.731	219.346	187.812	-76.886	25.787	150.879	198.040	103.742	155.210	217.742	-101.597	223.588	0.00046791	0.00017737	3.4343e-05	1431.9	6.1411e-06	3.0998e-06	1425.3	399.99	6.4088e-06	2.3448e-06	450.33	143.33	126.35	42.631	4.0845e-06	51.798	0.00047303	0.00046873	0.00013092	1447.2	5.1887e-06	5.1299e-06	1444.5	405.22	5.1317e-06	5.098e-06	454.49	145.21	126.04	43.362	5.0406e-06	52.726	139.625	-58.619	-43.200	-120.014	-33.269	39.006	-120.701	-115.927	10.286	67.001	-116.571	-112.799	-112.107	-106.604	-13.957	-107.443	-8191	255	
1014.955	1	1	0	0	0.089549	0.11147	0.22601	0.39916	0.21958	0.27062	0.26606	0.15775	0.13015	0.11398	0.21715	0.33896	0.30914	0.21735	0.14223	0.19294	-1.7	-2.2792	-1.9292	-2.4771	-1.7875	-1.9167	-2.4542	-1.9521	-2.0646	-2.05	-1.9167	-2.3854	-1.9729	-2.1125	-2.2958	-1.8354	87.732	-45.388	79.742	205.220	180.824	-109.538	157.427	9.757	54.321	40.984	192.404	-98.506	-113.890	-130.411	-11.133	207.090	0.00069416	0.00027227	0.00015047	1434.3	3.8783e-06	3.5528e-06	1424.7	399.07	2.2741e-06	2.9602e-06	448.66	142.63	125.18	42.309	4.6552e-06	51.692	0.00046498	0.00046414	0.00012959	1447.1	5.0693e-06	5.1122e-06	1440.7	404.72	5.096e-06	5.0932e-06	453.06	145.17	125.84	43.272	5.0601e-06	52.795	119.343	-17.996	-46.274	-119.525	11.475	-12.095	-120.845	-116.315	204.243	-10.135	-116.397	-112.623	-112.349	-106.837	8.482	-107.734	-8191	255	
1015.051	1	1	0	0	0.34755	0.082608	0.26865	0.29442	0.12644	0.018733	0.16852	0.12223	0.12371	0.17879	0.18335	0.28902	0.16343	0.1035	0.1895	0.1976	-1.6417	-2.1125	-1.7417	-2.1604	-1.9271	-1.8021	-2.5104	-1.9271	-2.0208	-2.0896	-1.9792	-2.3771	-2.1375	-1.8854	-2.2646	-1.8708	17.789	-28.325	62.709	138.003	14.099	150.783	192.994	-51.095	22.972	202.320	121.893	-10.912	66.046	187.262	-111.607	105.107	0.00057599	0.0004937	5.9519e-05	1432.1	5.2544e-06	1.7963e-06	1425.1	400.97	3.5449e-06	7.8446e-06	447.71	143.12	124.32	42.451	4.2074e-06	51.869	0.00046672	0.00046786	0.0001303	1446.5	5.0738e-06	5.1183e-06	1440.3	405.55	5.1404e-06	5.153e-06	452.39	144.88	125.61	43.351	5.1204e-06	52.776	150.743	-13.639	-56.693	-120.395	-84.293	-83.274	-120.997	-116.048	-133.302	72.705	-116.373	-111.631	-111.794	-106.067	-36.514	-106.772	-8191	255	
1015.147	1	1	0	0	0.14922	0.078832	0.32594	0.23565	0.31277	0.05758	0.15136	0.21361	0.20544	0.067839	0.22318	0.14181	0.11394	0.28257	0.0081525	0.071157	-1.7792	-2.2687	-1.7583	-2.4771	-2.0667	-1.9562	-2.6729	-2.2188	-2.2	-2.2812	-1.8229	-2.3688	-2.2646	-1.825	-2.2792	-2.0312	-128.548	146.889	131.101	-129.999	87.457	-14.215	166.566	-119.347	164.545	-89.748	-118.573	172.457	-101.831	218.594	141.443	90.752	0.00079908	0.00072124	8.115e-05	1434.3	5.4574e-06	1.5889e-06	1426.2	400.74	4.1857e-06	5.8262e-06	448.48	143.7	125.83	42.852	5.2283e-06	51.933	0.00046183	0.000464	0.00012936	1446	5.0853e-06	5.0869e-06	1440.4	404.88	5.1147e-06	5.0766e-06	453.62	145.24	125.86	43.361	5.0111e-06	52.757	141.842	-14.780	18.179	-119.634	-77.167	188.120	-119.482	-113.244	-22.684	40.243	-113.342	-109.363	-108.897	-103.741	1.671	-104.210	-8191	255	
1015.243	1	1	0	0	0.47489	0.061739	0.32814	0.30539	0.22192	0.048381	0.22499	0.26017	0.096602	0.25346	0.18261	0.31832	0.11485	0.22244	0.16885	0.14654	-1.6167	-2.2875	-1.7271	-2.4688	-2.1312	-1.8396	-2.5917	-2.1583	-1.9292	-2.35	-2.0062	-2.3667	-2.1354	-1.9229	-2.2812	-2.05	-64.028	110.470	82.994	206.668	15.093	85.782	193.033	203.624	-22.021	-11.471	15.596	209.367	73.627	203.534	-80.404	32.882	0.00052188	0.0002252	9.3073e-05	1433.5	7.4392e-06	2.0731e-06	1425.3	400.4	3.5476e-06	5.3169e-06	449.31	142.83	126.59	42.656	8.0537e-06	52.155	0.00045927	0.00046015	0.00012784	1446	5.0224e-06	5e-06	1440.7	404.23	5.0272e-06	5.0103e-06	452.04	144.87	125.76	43.295	4.9113e-06	52.72	128.306	80.125	-51.662	-117.359	-84.317	-0.005	-117.768	-113.129	-77.567	104.625	-113.590	-109.535	-109.390	-103.681	-43.869	-104.316	-8191	255	
1015.338	1	1	0	0	0.17432	0.29134	0.17184	0.084479	0.25845	0.070282	0.2074	0.15686	0.14019	0.039369	0.13449	0.11284	0.045105	0.13563	0.17226	0.034686	-1.6354	-2.2313	-1.8687	-2.2646	-2.2604	-1.8354	-2.375	-2.0479	-1.8042	-2.4208	-2.0917	-2.2	-2.2104	-1.9167	-2.2833	-2.1979	54.471	-123.007	208.864	-101.868	173.002	-41.046	199.396	168.236	-71.003	91.491	142.536	219.143	-75.853	-29.935	42.448	178.850	0.00048681	0.00056759	0.00011817	1435.2	2.3734e-06	3.7903e-06	1427.8	399.94	3.1886e-06	2.0408e-06	449.73	143.16	125.67	42.537	3.907e-06	51.995	0.00045544	0.00045085	0.00012403	1445.4	4.9092e-06	4.8823e-06	1441.8	403.86	4.922e-06	4.9158e-06	452.2	144.78	125.09	43.243	4.8335e-06	52.576	140.780	-83.705	-48.483	-117.355	-101.004	21.360	-117.887	-113.059	178.315	-1.000	-113.356	-109.512	-109.115	-103.625	-32.714	-104.426	-8191	255	
1015.436	1	1	0	0	0.19258	0.1687	0.28933	0.16834	0.35944	0.16114	0.1585	0.1305	0.063027	0.068461	0.23975	0.11062	0.1755	0.16344	0.036842	0.22387	-1.5583	-2.2458	-1.9771	-2.2708	-2.4021	-1.7917	-2.45	-2.2479	-1.9208	-2.2146	-1.9708	-2.0583	-2.2375	-1.9854	-2.1583	-2.4125	226.783	-117.334	-113.262	97.003	8.309	145.190	152.867	-52.507	147.508	223.955	182.246	4.853	-20.920	221.123	-18.677	176.179	0.00042742	0.00069471	7.4e-05	1438.6	3.4819e-06	3.7719e-06	1428.5	399.63	4.2179e-06	4.6309e-06	448.26	143.06	126.12	42.55	2.7907e-06	51.826	0.00044429	0.00044151	0.00012274	1445.3	4.8296e-06	4.8272e-06	1439.2	403.58	4.8327e-06	4.839e-06	452.21	144.45	125.37	43.182	4.8198e-06	52.434	144.425	-71.781	-9.454	-117.208	-39.732	38.725	-117.869	-113.062	177.122	105.005	-113.541	-109.445	-109.204	-103.710	-95.125	-104.484	-8191	255	
1015.555	1	1	0	0	0.086643	0.014583	0.099087	0.14526	0.12193	0.063273	0.10132	0.19871	0.25715	0.12827	0.082922	0.33126	0.05863	0.18007	0.10964	0.1969	-1.6083	-2.2104	-1.9583	-2.1625	-2.3396	-1.6667	-2.4458	-2.2083	-2.1458	-2.2104	-2.2333	-1.9375	-2.4271	-1.8625	-2.0167	-2.1312	120.538	79.581	70.429	-88.872	-38.678	124.978	-12.040	160.539	19.610	-15.558	168.788	-128.321	-87.013	-105.073	188.901	44.480	0.00067284	0.00026005	2.4264e-05	1435.9	4.6588e-06	3.311e-06	1426.3	399.74	4.2064e-06	1.621e-06	449.22	143.48	125.55	42.459	5.2702e-06	51.943	0.00044747	0.00044131	0.00012327	1444.5	4.83e-06	4.8359e-06	1439.1	404.18	4.8798e-06	4.8349e-06	451.95	144.65	125.19	43.141	4.8088e-06	52.529	134.213	-103.094	178.307	-117.165	-4.436	7.238	-119.365	-115.328	-68.423	-31.322	-116.135	-112.375	-112.163	-106.567	-14.274	-106.954	-8191	255	
1015.651	1	1	0	0	0.23893	0.21562	0.20686	0.31421	0.15524	0.23116	0.086582	0.29366	0.11801	0.14814	0.27239	0.080661	0.12427	0.15332	0.16361	0.29399	-1.2833	-2.2938	-1.8896	-2.0458	-2.2458	-1.8542	-2.3979	-2.3396	-1.6479	-2.1354	-2.3083	-1.8875	-2.3875	-1.8854	-2.1292	-2.2271	123.711	64.981	181.766	197.573	5.476	-73.739	-62.722	144.477	72.977	0.364	-126.047	151.391	-108.849	-130.707	97.408	-116.106	0.00035513	0.00047811	7.8606e-05	1433.2	2.611e-06	3.9612e-06	1418.8	398.57	6.9823e-06	5.4811e-06	447.32	142.42	125.61	42.418	9.2327e-06	52.1	0.00044291	0.00043944	0.00012173	1443.2	4.7948e-06	4.7702e-06	1436.1	403.64	4.7734e-06	4.8038e-06	450.86	144.57	124.73	43.142	4.81e-06	52.571	129.475	-126.672	-46.127	-120.330	-64.668	-48.528	-120.592	-116.470	-35.749	-14.158	-116.926	-112.931	-112.501	-106.755	23.852	-106.833	-8191	255	
1015.722	1	1	0	0	0.25115	0.15034	0.105	0.18318	0.29873	0.12317	0.099804	0.12051	0.091944	0.14139	0.1837	0.13957	0.28388	0.091865	0.1932	0.1355	-1.5479	-2.1188	-2.0625	-2.1708	-2.3146	-1.9021	-2.0958	-2.2438	-1.8396	-2.0938	-2.3542	-1.7354	-2.2396	-1.9708	-1.9729	-2.175	173.758	34.724	-29.673	-120.801	186.957	117.760	-119.550	29.702	-111.384	-13.007	93.711	223.927	-17.825	221.009	-12.007	-68.385	0.00060107	0.00036194	0.000175	1428.1	4.0857e-06	1.3601e-06	1426	399.43	4.2056e-06	3.3355e-06	446.73	142.8	126.27	42.672	2.9792e-06	51.881	0.00043442	0.00043538	0.0001209	1442.5	4.7515e-06	4.7317e-06	1438	403.37	4.7629e-06	4.7405e-06	450.91	144.5	125.02	43.217	4.7867e-06	52.434	135.707	-69.331	-32.956	-120.178	79.924	71.005	-120.192	-115.746	-95.749	61.518	-116.130	-112.317	-112.165	-106.162	-68.281	-107.038	-8191	255	
1015.843	1	1	0	0	0.28781	0.10303	0.1072	0.16133	0.027889	0.12583	0.23673	0.23929	0.11319	0.15978	0.20066	0.20092	0.23796	0.14401	0.16728	0.21197	-1.4521	-2.0646	-2.2938	-1.8375	-2.3021	-1.8604	-2.2458	-2.4875	-1.7521	-2.2396	-2.3833	-1.9937	-2.1	-2.0187	-1.9729	-2.3271	-110.110	35.927	17.434	172.500	-4.890	-20.762	-97.813	210.392	38.409	-61.860	204.767	20.929	-37.208	222.776	71.757	119.354	0.00053391	0.00042855	0.00016359	1433.6	4.8191e-06	5.4575e-06	1423.2	399.92	5.0422e-06	1.9423e-06	447.86	142.1	126.72	42.536	5.913e-06	51.519	0.000438	0.00043181	0.00012132	1444	4.76e-06	4.691e-06	1437.3	403.6	4.734e-06	4.7529e-06	451.01	144.28	124.85	43.167	4.6899e-06	52.257	132.032	-77.751	-27.003	-120.312	-31.694	-32.965	-120.808	-115.873	-10.245	-100.183	-116.040	-112.590	-112.415	-106.637	7.756	-107.645	-8191	255	
1015.939	1	1	0	0	0.16747	0.18785	0.15617	0.34321	0.11923	0.23915	0.04125	0.11583	0.16917	0.043887	0.11662	0.20847	0.23772	0.10971	0.13235	0.039807	-1.5083	-2.0187	-2.1646	-1.8458	-2.0625	-2.0458	-2.025	-2.575	-1.8458	-2.0292	-2.4833	-1.5812	-2.2542	-2.1042	-1.8125	-2.2646	155.007	216.118	23.686	-118.969	136.041	-16.928	146.689	163.291	221.540	18.847	197.859	195.274	216.475	109.897	-45.503	219.327	0.00067385	0.00031662	0.00021567	1429.9	6.8641e-06	3.9376e-06	1415.1	397.07	7.2726e-06	8.9016e-06	448.55	141.88	124.45	42.384	4.3876e-06	51.653	0.00043193	0.00042935	0.00011908	1442	4.6988e-06	4.717e-06	1435	402.98	4.7134e-06	4.7206e-06	451.23	144.03	124.35	43.101	4.7e-06	52.304	132.140	9.574	-73.744	-120.548	-9.649	-8.483	-120.908	-116.157	-58.549	-0.465	-116.539	-112.382	-112.330	-107.094	-11.975	-107.557	-8191	255	
1016.035	1	1	0	0	0.13652	0.071624	0.075477	0.3105	0.077769	0.13937	0.14608	0.20851	0.14586	0.03481	0.2192	0.10501	0.028944	0.13396	0.14363	0.072418	-1.3125	-1.7563	-2.2958	-2.0167	-2.0708	-2.1479	-2.0062	-2.4292	-1.9625	-2.0708	-2.3354	-1.8229	-1.9062	-2.1625	-1.6812	-2.3896	-125.549	-115.513	197.813	-127.857	205.235	58.240	-54.278	221.851	177.301	146.553	180.845	169.313	42.250	219.778	110.704	110.618	0.00055071	0.00058728	0.00017408	1429.7	1.8455e-06	3.6269e-06	1420.2	399.39	2.0153e-06	5.0518e-06	445.86	142.46	125.48	42.338	3.8265e-06	52.061	0.00043197	0.00042896	0.00011836	1442.4	4.6796e-06	4.6371e-06	1436.7	403.31	4.6604e-06	4.6396e-06	450.92	144.09	124.5	43.094	4.6131e-06	52.44	137.258	-98.787	-46.943	-120.437	-56.463	-13.517	-120.904	-116.211	30.153	34.875	-116.855	-112.296	-112.226	-106.794	-11.674	-107.333	-8191	255	
1016.156	1	1	0	0	0.14657	0.26358	0.14223	0.24139	0.1835	0.15404	0.1493	0.15088	0.11437	0.092299	0.257	0.1279	0.11205	0.11984	0.35876	0.18759	-1.6542	-1.7167	-2.3083	-1.8146	-2.2812	-2.0917	-2.0375	-2.4062	-1.7958	-1.9688	-2.2667	-1.8875	-2.1333	-2.3333	-1.7021	-2.2792	-47.901	-68.366	55.957	95.652	-113.985	-35.765	204.433	142.667	160.963	31.866	-24.667	97.225	-66.006	151.366	10.575	84.933	0.00044345	0.00011822	8.117e-05	1428.9	3.3213e-06	5.0657e-06	1418.7	399.21	4.2563e-06	5.289e-06	448.67	142.86	125.81	42.321	7.533e-07	51.798	0.00042535	0.00042487	0.00011785	1441.1	4.6265e-06	4.6077e-06	1434.9	402.75	4.6245e-06	4.6537e-06	451.19	144.39	124.73	43.087	4.6439e-06	52.481	136.496	122.661	5.037	-120.617	179.230	-28.478	-120.830	-116.188	-130.051	11.111	-116.624	-112.525	-112.245	-106.253	139.988	-106.611	-8191	255	
1016.250	1	1	0	0	0.22033	0.076745	0.056065	0.072194	0.17852	0.11438	0.18871	0.2135	0.051924	0.17653	0.15272	0.097081	0.11904	0.045423	0.10673	0.063884	-1.3937	-1.8917	-2.1813	-2.2542	-1.9688	-2.2646	-2.0583	-2.5708	-2.075	-2.0125	-2.4333	-1.9271	-1.8312	-2.3417	-1.9	-2.2167	-87.336	141.382	208.638	64.188	11.842	195.442	166.712	29.657	-7.494	-88.196	138.411	-128.261	-120.440	-85.168	33.332	140.298	0.00045726	0.00016884	0.00012041	1429.2	1.8931e-06	5.4947e-06	1420.8	399.21	4.1265e-06	8.7129e-06	447.44	142.77	125.6	42.499	2.2299e-06	51.81	0.00042993	0.00042335	0.00011784	1442.3	4.6466e-06	4.6028e-06	1436.2	403.34	4.6802e-06	4.6527e-06	450.39	144.19	124.56	43.125	4.6706e-06	52.473	114.275	-97.562	-30.500	-120.077	-53.318	-40.034	-120.532	-115.445	-80.555	30.390	-115.473	-111.794	-111.450	-105.888	-92.991	-106.330	-8191	255	
1016.324	1	1	0	0	0.12997	0.37626	0.24469	0.07875	0.29813	0.32057	0.30921	0.22369	0.10898	0.24398	0.18733	0.21723	0.078303	0.14733	0.2343	0.31787	-1.8375	-1.7125	-2.2667	-2.1771	-2.1583	-2.3979	-2.0958	-2.5187	-2.1896	-1.9813	-2.2833	-2.2292	-1.8042	-2.5146	-1.9479	-2.3812	8.791	25.080	-104.877	215.907	70.083	-61.435	191.838	135.992	-66.557	150.805	-86.568	194.172	14.887	186.308	-87.016	210.432	0.00044546	0.00079736	0.00011071	1436.7	6.7881e-06	2.0068e-06	1420.6	399.63	4.0356e-06	4.667e-06	448.82	143	125.07	42.667	7.6935e-06	51.874	0.00042851	0.0004242	0.00011837	1442.8	4.6561e-06	4.6388e-06	1434.1	403.3	4.689e-06	4.6561e-06	451.04	144.28	124.42	43.079	4.6505e-06	52.35	135.342	-83.686	-67.126	-117.227	-57.459	65.447	-117.750	-113.086	-36.737	52.751	-113.248	-109.309	-109.793	-103.513	1.633	-104.299	-8191	255	
1016.418	1	1	0	0	0.208	0.1783	0.14385	0.18118	0.26408	0.21805	0.16869	0.22784	0.31554	0.14125	0.24326	0.28499	0.099259	0.12243	0.13588	0.080804	-1.8167	-1.8375	-2.2771	-2.1729	-1.7521	-2.4313	-2.1083	-2.3458	-2.3271	-2.0042	-2.3583	-2.0646	-1.8604	-2.3833	-2.2	-2.2938	126.364	211.562	76.209	132.393	56.047	-103.397	219.661	106.918	21.178	-20.253	216.613	91.338	81.697	-48.082	36.168	88.507	0.00048662	0.00023557	0.00012211	1440.1	4.1312e-06	6.1167e-06	1424.5	399.23	3.3416e-06	2.8534e-06	447.92	143.54	126.22	42.649	5.857e-06	51.864	0.00042734	0.00043003	0.00011826	1444.5	4.6777e-06	4.6327e-06	1437.8	402.85	4.7025e-06	4.6814e-06	450.31	144.46	125.03	43.104	4.6596e-06	52.456	145.209	-28.977	-37.735	-117.257	-0.793	33.846	-117.870	-113.122	-45.459	-12.350	-113.435	-109.336	-108.731	-103.587	99.352	-104.051	-8191	255	
1016.516	1	1	0	0	0.32722	0.122	0.19802	0.36891	0.14045	0.21439	0.23345	0.09388	0.1014	0.11255	0.13394	0.079014	0.10193	0.2844	0.043237	0.097535	-1.825	-1.9438	-2.2354	-2.3646	-1.8833	-2.3458	-2.2271	-2.2021	-2.3083	-1.7646	-2.3979	-2.1458	-1.875	-2.3854	-2.1167	-2.2042	193.795	37.013	-67.265	188.260	167.692	20.318	-84.644	69.258	-124.174	199.722	158.017	110.845	113.626	-109.587	-11.884	128.442	0.00050765	0.00033201	7.2749e-05	1438.8	6.7659e-06	3.608e-06	1427.9	399.16	5.1112e-06	5.4392e-06	449.63	142.98	124.59	42.404	3.8134e-06	51.76	0.00043159	0.00042441	0.00012002	1445.3	4.7322e-06	4.7078e-06	1438.2	403.65	4.7774e-06	4.7389e-06	451.52	144.38	124.42	43.085	4.7693e-06	52.387	128.303	-102.164	-99.499	-117.277	-26.347	16.513	-117.739	-113.161	-90.986	18.861	-113.707	-109.535	-109.731	-103.765	30.059	-104.442	-8191	255	
1016.635	1	1	0	0	0.13831	0.215	0.088301	0.091986	0.23058	0.2827	0.12481	0.30449	0.22702	0.18883	0.37624	0.17899	0.2413	0.16622	0.27139	0.34687	-1.9875	-1.8771	-2.0625	-2.65	-1.8896	-2.3688	-2.2125	-2.1729	-2.1104	-2.1271	-2.1312	-2.4688	-1.9583	-2.5333	-1.9417	-2.1375	-19.943	155.319	-3.139	-87.109	99.026	56.706	223.837	157.459	-95.242	132.314	174.871	-99.366	84.374	228.154	-48.149	-128.295	0.00071162	0.00066528	0.00013612	1435.7	4.8536e-06	3.0865e-06	1426.5	399.89	6.7839e-06	1.7579e-06	448.87	143.19	125.78	42.422	5.4051e-06	51.968	0.00043656	0.00043171	0.00012024	1443.2	4.7386e-06	4.704e-06	1436.8	403.84	4.7711e-06	4.7585e-06	451.71	144.62	125.05	43.113	4.8241e-06	52.443	143.085	27.285	-39.500	-117.338	-25.994	-119.116	-117.806	-113.263	-78.118	104.761	-113.474	-109.241	-109.364	-103.521	-72.398	-104.374	-8191	255	
1016.731	1	1	0	0	0.30651	0.11054	0.051193	0.21662	0.19985	0.10063	0.4382	0.19945	0.12607	0.087801	0.15382	0.28951	0.17417	0.14382	0.037528	0.39081	-2.1229	-1.975	-2.0021	-2.4313	-1.8271	-2.3438	-2.2646	-2.0854	-2.4208	-1.9729	-2.2333	-2.55	-1.7729	-2.4604	-2.1854	-1.7917	-107.226	-80.699	48.771	215.474	-49.450	-101.479	130.837	169.947	158.566	-21.342	182.435	178.713	-118.092	96.918	-45.089	225.656	0.000617	0.00044107	4.289e-05	1434.9	5.3351e-06	3.8133e-06	1422.9	400.45	1.9555e-06	1.8223e-06	448.77	144.03	125.78	42.459	6.1285e-06	52.302	0.00043919	0.00043354	0.00012238	1443.9	4.814e-06	4.7738e-06	1436.9	403.79	4.8276e-06	4.7871e-06	451.09	144.57	124.9	43.174	4.8578e-06	52.578	133.606	1.699	-87.787	-117.340	-61.104	11.329	-117.942	-113.140	-13.509	61.820	-113.475	-109.420	-108.950	-103.700	48.674	-104.471	-8191	255	
1016.827	1	1	0	0	0.15377	0.25436	0.26033	0.10001	0.21579	0.19889	0.35679	0.23004	0.076497	0.2634	0.19115	0.088629	0.078012	0.26607	0.27394	0.26152	-2.0979	-2.1	-2.1833	-2.5833	-2.0375	-2.4437	-2.4542	-2.1	-2.1479	-2.1854	-2.0646	-2.5208	-1.6958	-2.2729	-2.0229	-1.8604	115.322	-6.247	-56.000	-104.281	-59.073	164.086	199.113	199.510	49.223	139.373	162.505	-20.317	163.894	14.161	-94.450	-121.735	0.00047562	0.00041787	0.00015756	1433	2.2934e-06	7.4528e-06	1428.2	399.42	3.1203e-06	1.7292e-06	446.73	143.35	126.08	42.384	3.7164e-06	51.906	0.00044647	0.00044108	0.00012278	1443.5	4.8126e-06	4.8115e-06	1437.6	403.69	4.8295e-06	4.8342e-06	451.06	144.79	125.24	43.183	4.8454e-06	52.577	136.175	176.689	-51.998	-117.173	-50.270	-19.762	-117.836	-113.136	-105.006	70.179	-113.407	-109.269	-111.640	-107.009	7.884	-108.040	-8191	255	
1016.948	1	1	0	0	0.3785	0.13803	0.21645	0.19687	0.18624	0.035508	0.31246	0.04978	0.044237	0.23115	0.24429	0.28536	0.25281	0.23244	0.39365	0.15372	-1.9521	-1.9937	-1.7979	-2.5208	-1.7479	-1.9708	-2.4083	-1.8875	-2.2521	-2.0375	-1.8958	-2.2646	-1.8563	-2.1729	-2.2771	-1.9562	197.420	-50.336	54.994	205.536	208.731	208.359	-94.180	202.263	46.261	28.094	-118.432	202.225	-23.274	24.910	70.434	155.585	0.00078568	0.00062489	0.00020804	1429.6	3.3105e-06	3.5391e-06	1426.4	399.34	4.8044e-06	5.7901e-06	447.4	142.33	124.52	42.45	7.6854e-06	51.674	0.00044381	0.00043934	0.00012213	1443	4.8438e-06	4.8126e-06	1438.3	403.74	4.825e-06	4.8656e-06	451.95	144.44	124.98	43.108	4.8333e-06	52.472	125.846	-102.926	-67.893	-120.791	15.879	-42.329	-121.341	-116.481	-100.717	-0.016	-116.952	-112.856	-112.728	-107.159	-42.914	-107.574	-8191	255	
1017.019	1	1	0	0	0.14185	0.054744	0.26044	0.053349	0.10433	0.24345	0.11798	0.28871	0.035732	0.15168	0.067857	0.13883	0.25257	0.19068	0.061046	0.42957	-1.6938	-2.1021	-1.7771	-2.45	-2.0458	-1.9896	-2.2146	-1.9583	-2.2562	-2.3875	-2.0187	-2.4458	-2.0354	-2.0021	-2.2146	-1.6812	-14.005	-88.970	-44.353	126.593	-7.981	101.526	202.225	108.413	-7.658	74.045	179.162	220.689	199.641	98.506	-23.330	134.154	0.00051976	0.00021726	0.00013199	1428.5	7.5196e-07	3.6414e-06	1415.9	398.53	1.6563e-06	8.805e-06	449.08	143.27	124.41	42.541	7.211e-06	51.613	0.0004446	0.00043855	0.00012272	1442.5	4.8008e-06	4.8279e-06	1436.7	404.05	4.836e-06	4.8395e-06	452.34	144.75	124.97	43.231	4.8631e-06	52.574	120.051	-112.311	-111.146	-120.714	-127.811	1.813	-121.209	-116.188	31.205	54.224	-116.792	-112.521	-112.625	-106.840	-46.636	-107.056	-8191	255	
#DATA ENDS
