BOXY.EXE: ISS Imagent and Oximeter Data Acquisition Program Version 0.80
Ascii Record File

#ACQ INFORMATION
2  Detector Channels 
16  External MUX Channels 
1  Auxiliary Channels 
5000  Waveform (CCF) Frequency (Hz)
1  Waveforms Skipped 
30  Waveforms Averaged 
1  Cycles Averaged 
16  Acquisitions per Waveform 
10.0806  Updata Rate (Hz) 

#FILE INFORMATION
TRUE -- External MUX Channel results are PARSED.
FALSE -- AC DC and Phase are NOT grouped.
TRUE -- Companion Program Settings File CREATED.
FALSE -- AC data not excluded
FALSE -- DC data not excluded
FALSE -- Phase data not excluded
FALSE -- Auxillary Chn. data not excluded
Tab delimiters

#CALIBRATION STATE
TRUE -- Waveform Calibration Values APPLIED.


#AUX CALIBRATION VALUES
Val Type	aux-1	

Term	1.0000e+00	
Factor	0.0000e+00	


#WF CALIBRATION VALUES
A = Detector Channel
Val Type	A-AC1	A-AC2	A-AC3	A-AC4	A-AC5	A-AC6	A-AC7	A-AC8	A-AC9	A-AC10	A-AC11	A-AC12	A-AC13	A-AC14	A-AC15	A-AC16	A-DC1	A-DC2	A-DC3	A-DC4	A-DC5	A-DC6	A-DC7	A-DC8	A-DC9	A-DC10	A-DC11	A-DC12	A-DC13	A-DC14	A-DC15	A-DC16	A-Ph1	A-Ph2	A-Ph3	A-Ph4	A-Ph5	A-Ph6	A-Ph7	A-Ph8	A-Ph9	A-Ph10	A-Ph11	A-Ph12	A-Ph13	A-Ph14	A-Ph15	A-Ph16	

Term	0.00000e+00	0.00000e+00	0.00000e+00	0.00000e+00	0.00000e+00	0.00000e+00	0.00000e+00	0.00000e+00	0.00000e+00	0.00000e+00	0.00000e+00	0.00000e+00	0.00000e+00	0.00000e+00	0.00000e+00	0.00000e+00	0.00000e+00	0.00000e+00	0.00000e+00	0.00000e+00	0.00000e+00	0.00000e+00	0.00000e+00	0.00000e+00	0.00000e+00	0.00000e+00	0.00000e+00	0.00000e+00	0.00000e+00	0.00000e+00	0.00000e+00	0.00000e+00	0.00000e+00	0.00000e+00	0.00000e+00	0.00000e+00	0.00000e+00	0.00000e+00	0.00000e+00	0.00000e+00	0.00000e+00	0.00000e+00	0.00000e+00	0.00000e+00	0.00000e+00	0.00000e+00	0.00000e+00	0.00000e+00	
Factor	1.00000e+00	1.00000e+00	1.00000e+00	1.00000e+00	1.00000e+00	1.00000e+00	1.00000e+00	1.00000e+00	1.00000e+00	1.00000e+00	1.00000e+00	1.00000e+00	1.00000e+00	1.00000e+00	1.00000e+00	1.00000e+00	1.00000e+00	1.00000e+00	1.00000e+00	1.00000e+00	1.00000e+00	1.00000e+00	1.00000e+00	1.00000e+00	1.00000e+00	1.00000e+00	1.00000e+00	1.00000e+00	1.00000e+00	1.00000e+00	1.00000e+00	1.00000e+00	X	X	X	X	X	X	X	X	X	X	X	X	X	X	X	X	

B = Detector Channel
Val Type	B-AC1	B-AC2	B-AC3	B-AC4	B-AC5	B-AC6	B-AC7	B-AC8	B-AC9	B-AC10	B-AC11	B-AC12	B-AC13	B-AC14	B-AC15	B-AC16	B-DC1	B-DC2	B-DC3	B-DC4	B-DC5	B-DC6	B-DC7	B-DC8	B-DC9	B-DC10	B-DC11	B-DC12	B-DC13	B-DC14	B-DC15	B-DC16	B-Ph1	B-Ph2	B-Ph3	B-Ph4	B-Ph5	B-Ph6	B-Ph7	B-Ph8	B-Ph9	B-Ph10	B-Ph11	B-Ph12	B-Ph13	B-Ph14	B-Ph15	B-Ph16	

Term	0.00000e+00	0.00000e+00	0.00000e+00	0.00000e+00	0.00000e+00	0.00000e+00	0.00000e+00	0.00000e+00	0.00000e+00	0.00000e+00	0.00000e+00	0.00000e+00	0.00000e+00	0.00000e+00	0.00000e+00	0.00000e+00	0.00000e+00	0.00000e+00	0.00000e+00	0.00000e+00	0.00000e+00	0.00000e+00	0.00000e+00	0.00000e+00	0.00000e+00	0.00000e+00	0.00000e+00	0.00000e+00	0.00000e+00	0.00000e+00	0.00000e+00	0.00000e+00	-2.04106e+02	-1.47295e+02	-1.31471e+02	-1.83006e+02	-1.05308e+02	-9.56335e+01	-1.57489e+02	-1.62015e+02	-1.04563e+02	-3.96514e+01	-1.72066e+02	-1.71987e+02	-1.87133e+02	-1.76833e+02	-7.95936e+01	-1.54913e+02	
Factor	7.03256e-05	1.41041e-04	4.05673e-05	1.70326e-01	1.62816e-06	1.33254e-06	1.95207e-01	5.96007e-02	1.84989e-06	1.49910e-06	1.05898e-01	4.16366e-02	9.64820e-02	1.05399e-02	1.79118e-06	2.58797e-02	1.57653e-06	1.61043e-06	4.48186e-07	8.61403e-02	1.75392e-08	1.76000e-08	9.27146e-02	3.00841e-02	1.75714e-08	1.76740e-08	5.11745e-02	1.99295e-02	4.41448e-02	5.29322e-03	1.75939e-08	1.20619e-02	X	X	X	X	X	X	X	X	X	X	X	X	X	X	X	X	



#DISTANCE SETTINGS
A = Detector Channel
A-1	A-2	A-3	A-4	A-5	A-6	A-7	A-8	A-9	A-10	A-11	A-12	A-13	A-14	A-15	A-16	

2.5000e+00	3.0000e+00	2.5000e+00	3.0000e+00	2.0000e+00	3.0000e+00	1.5000e+00	3.0000e+00	3.0000e+00	3.0000e+00	3.0000e+00	3.0000e+00	3.0000e+00	3.0000e+00	1.5000e+00	3.0000e+00	

B = Detector Channel
B-1	B-2	B-3	B-4	B-5	B-6	B-7	B-8	B-9	B-10	B-11	B-12	B-13	B-14	B-15	B-16	

1.0000e+01	1.0000e+01	1.0000e+01	1.4400e+00	1.0000e+01	1.0000e+01	1.5100e+00	1.9400e+00	1.0000e+01	1.0000e+01	1.9900e+00	2.4900e+00	2.4100e+00	2.9000e+00	1.0000e+01	2.9800e+00	




#DATA BEGINS
time	group	step	mark	flag	A-AC1	A-AC2	A-AC3	A-AC4	A-AC5	A-AC6	A-AC7	A-AC8	A-AC9	A-AC10	A-AC11	A-AC12	A-AC13	A-AC14	A-AC15	A-AC16	A-DC1	A-DC2	A-DC3	A-DC4	A-DC5	A-DC6	A-DC7	A-DC8	A-DC9	A-DC10	A-DC11	A-DC12	A-DC13	A-DC14	A-DC15	A-DC16	A-Ph1	A-Ph2	A-Ph3	A-Ph4	A-Ph5	A-Ph6	A-Ph7	A-Ph8	A-Ph9	A-Ph10	A-Ph11	A-Ph12	A-Ph13	A-Ph14	A-Ph15	A-Ph16	B-AC1	B-AC2	B-AC3	B-AC4	B-AC5	B-AC6	B-AC7	B-AC8	B-AC9	B-AC10	B-AC11	B-AC12	B-AC13	B-AC14	B-AC15	B-AC16	B-DC1	B-DC2	B-DC3	B-DC4	B-DC5	B-DC6	B-DC7	B-DC8	B-DC9	B-DC10	B-DC11	B-DC12	B-DC13	B-DC14	B-DC15	B-DC16	B-Ph1	B-Ph2	B-Ph3	B-Ph4	B-Ph5	B-Ph6	B-Ph7	B-Ph8	B-Ph9	B-Ph10	B-Ph11	B-Ph12	B-Ph13	B-Ph14	B-Ph15	B-Ph16	aux-1	digaux	

972.675	1	1	0	256	0.24704	0.12204	0.34555	0.1484	0.076889	0.17521	0.22483	0.19647	0.091771	0.27424	0.076914	0.3116	0.1152	0.36051	0.033917	0.20508	-1.5979	-2.2229	-1.9604	-2.375	-2.1333	-1.8333	-2.5438	-2.1604	-1.9896	-2.3438	-2.3708	-2.0687	-2.3521	-1.8542	-2.1146	-2.1333	-61.574	-45.184	55.060	-111.273	0.732	176.709	161.486	159.285	217.672	-95.063	-46.644	161.467	206.243	174.207	-107.457	98.578	0.00064391	0.0006807	3.1486e-05	1521.5	7.9537e-06	2.1859e-06	1506.4	435	7.3651e-06	1.2476e-06	487.97	156.19	136.71	47.111	6.773e-06	57.497	0.00035777	0.00034587	9.6469e-05	1527.4	3.7791e-06	3.8059e-06	1517.9	437.13	3.7924e-06	3.7716e-06	487.93	156.26	132.5	47.361	3.8694e-06	57.031	141.034	-50.420	-116.339	-120.115	5.043	-130.520	-120.659	-116.106	-71.753	-10.131	-116.627	-112.500	-112.880	-106.460	39.928	-107.081	-8191	255	
972.771	1	1	0	0	0.2311	0.059419	0.20748	0.36314	0.17805	0.1946	0.1552	0.17248	0.083047	0.15066	0.11131	0.32023	0.24244	0.24433	0.20878	0.070747	-1.6917	-2.3958	-1.85	-2.2708	-2.35	-1.8667	-2.3604	-2.2292	-1.7625	-2.4646	-2.1104	-2.1917	-2.15	-1.9646	-2.1896	-2.2354	10.725	-76.500	73.681	201.179	13.730	5.552	200.929	198.625	205.909	-50.474	23.250	-122.789	31.787	-55.850	22.195	-123.644	0.00073726	0.00059372	0.00018561	1519.6	3.3122e-06	2.1905e-06	1500.1	434.48	6.3186e-06	4.9768e-06	486.43	155.56	136.93	46.89	2.727e-06	57.197	0.00036858	0.00036452	0.00010134	1527.1	4.0275e-06	3.9639e-06	1515.8	436.35	4.0291e-06	4.021e-06	487.58	156.13	133.47	47.337	4.0794e-06	57.178	127.494	-40.413	-51.403	-120.053	-43.625	-80.038	-120.847	-116.323	-39.030	3.912	-115.672	-113.089	-113.275	-107.261	-81.075	-107.520	-8191	255	
972.867	1	1	0	0	0.11354	0.12292	0.08994	0.36025	0.09089	0.012749	0.12797	0.373	0.39098	0.028423	0.28815	0.078863	0.16245	0.23037	0.2146	0.28609	-1.4229	-2.4188	-1.8854	-2.1625	-2.3917	-1.8167	-2.4938	-2.5604	-1.8292	-2.1854	-2.225	-1.9479	-2.1417	-2.1125	-2.0708	-2.4062	155.757	18.926	41.238	195.693	-89.977	-20.645	207.010	121.883	14.698	88.831	191.980	-52.775	33.810	-102.883	213.712	172.788	0.00050068	0.00031442	7.9139e-05	1524.3	8.0028e-06	5.8015e-06	1509.1	432.53	1.5726e-06	4.9325e-06	486.39	154.64	137.38	46.844	3.4694e-06	57.226	0.00037959	0.00037451	0.00010463	1529.3	4.0613e-06	3.9337e-06	1516.9	435.57	3.9294e-06	3.8318e-06	486.18	155.35	132.53	47.158	3.7252e-06	56.9	129.202	-52.107	-123.309	-120.684	-51.054	-21.676	-121.042	-116.426	152.331	-3.403	-116.619	-112.605	-113.046	-106.981	-6.277	-108.111	-8191	255	
972.988	1	1	0	0	0.17955	0.10927	0.18074	0.20232	0.13291	0.18906	0.20563	0.35399	0.17307	0.062626	0.12466	0.15877	0.34283	0.16421	0.17405	0.20194	-1.2542	-2.1625	-2.2146	-2.1042	-2.3479	-2.0521	-2.325	-2.55	-1.9979	-2.3937	-2.3229	-1.9917	-2.5104	-2.3271	-2.1604	-2.1875	35.985	157.589	212.857	214.931	208.639	94.448	200.795	161.259	57.551	204.074	207.752	-110.879	-75.868	199.295	-61.264	214.088	0.00068793	0.00047495	3.864e-05	1513.9	3.9078e-06	5.601e-06	1496.8	430.32	3.535e-06	7.1037e-06	483.94	154.73	135.13	46.498	7.0146e-06	57.03	0.00034853	0.00033993	9.4642e-05	1521	3.6818e-06	3.665e-06	1509.1	432.57	3.6904e-06	3.6426e-06	483.18	154.49	131.41	46.909	3.6822e-06	56.521	136.756	-64.811	14.032	-120.616	-21.436	4.425	-121.021	-116.286	-116.778	55.984	-116.347	-112.529	-112.385	-106.484	-111.631	-107.563	-8191	255	
973.082	1	1	0	0	0.094811	0.1939	0.16008	0.28199	0.21341	0.10841	0.21969	0.15992	0.13223	0.16212	0.15169	0.16714	0.15696	0.099987	0.35431	0.2008	-1.4833	-2.2604	-2.2812	-2.1042	-2.4646	-2.1333	-2.0854	-2.375	-2.0042	-2.2146	-2.2896	-2.1542	-2.575	-2.1646	-2.0417	-2.2542	-89.142	153.602	-119.115	205.674	200.713	-37.454	170.715	174.003	64.026	-117.210	193.116	183.439	67.107	218.752	-83.716	126.970	0.00069463	0.00041439	2.1238e-05	1507.6	4.9453e-06	4.2553e-06	1498.4	429.55	4.6336e-06	7.687e-06	483.32	154.15	135.81	46.303	5.06e-06	56.828	0.00034374	0.00033415	9.3916e-05	1513.2	3.6961e-06	3.6665e-06	1503.5	430.82	3.7094e-06	3.6841e-06	482.82	154.39	131.22	46.792	3.724e-06	56.348	155.504	-76.657	-70.414	-120.279	16.505	-33.472	-120.353	-116.219	-56.078	88.551	-116.499	-112.375	-111.819	-106.331	5.754	-106.901	-8191	255	
973.156	1	1	0	0	0.069639	0.080064	0.19091	0.11468	0.077733	0.073733	0.3799	0.10315	0.18122	0.032271	0.17426	0.20037	0.2433	0.18373	0.22035	0.093999	-1.6229	-2.1125	-2.2979	-2.1146	-2.3875	-2.3063	-2.1167	-2.3875	-2.0417	-1.9104	-2.35	-2.1021	-2.2146	-2.2146	-1.9792	-2.5812	148.052	-54.001	-87.540	195.827	127.930	-111.515	180.598	148.680	207.605	40.651	202.803	197.306	48.280	-132.524	172.227	-62.286	0.0007171	0.0004158	1.3588e-05	1504.6	2.8699e-06	2.12e-06	1492.9	426.62	5.0352e-06	5.2379e-06	479.51	153.37	135.16	46.318	5.5658e-06	56.246	0.00034209	0.00033407	9.3323e-05	1508.6	3.6639e-06	3.6467e-06	1498	428.12	3.6459e-06	3.6098e-06	479.83	153.39	130.47	46.608	3.6346e-06	55.997	126.457	-118.498	-59.256	-120.581	-34.575	-130.451	-121.097	-116.247	-108.179	76.693	-116.499	-112.663	-112.310	-106.861	34.066	-107.536	-8191	255	
973.250	1	1	0	0	0.1208	0.13337	0.19863	0.13982	0.10786	0.09346	0.30456	0.17438	0.014111	0.18666	0.16562	0.132	0.30651	0.24428	0.17316	0.10606	-1.6812	-1.9917	-2.4	-2.0687	-2.1792	-2.2083	-2.2896	-2.4708	-2.1542	-2.1479	-2.3937	-2.0917	-2.2646	-2.4	-1.7583	-2.2271	167.011	12.721	56.201	152.448	39.969	123.072	59.713	147.763	148.736	-16.363	223.193	45.155	-24.747	97.947	175.012	80.252	0.00072708	0.00046926	0.00013844	1498.3	3.3146e-06	5.9795e-06	1481.5	424.19	6.3566e-06	5.9912e-06	478.65	153.39	133.4	46.212	6.6827e-06	56.549	0.00033836	0.00032808	9.0466e-05	1501.9	3.6006e-06	3.564e-06	1491.2	426.07	3.6231e-06	3.5591e-06	477.91	153.03	129.95	46.512	3.5814e-06	56.148	139.128	-96.640	-48.415	-120.253	-34.212	22.609	-120.735	-116.099	-91.832	86.771	-116.423	-112.653	-112.536	-106.749	-33.052	-107.908	-8191	255	
973.371	1	1	0	0	0.24143	0.048937	0.177	0.28428	0.19146	0.14626	0.32289	0.24668	0.29042	0.1028	0.049046	0.21945	0.26134	0.2369	0.15534	0.24214	-1.5146	-2.1021	-2.3958	-2.225	-2.15	-2.1854	-1.9937	-2.3875	-2.0771	-2.1083	-2.4688	-2.1312	-2.0771	-2.2604	-2.0146	-2.2542	175.576	123.917	55.716	200.629	-69.469	126.057	138.030	154.468	-14.855	200.703	141.795	157.035	-65.845	151.279	55.731	160.903	0.00080471	0.00067047	0.00017782	1494.9	3.4901e-06	1.16e-06	1481.8	425.47	1.0384e-05	6.3344e-06	479.24	152.78	133.66	46.062	6.2276e-06	56.827	0.00033478	0.00032827	9.1097e-05	1498.8	3.5625e-06	3.5569e-06	1488.8	426.98	3.608e-06	3.5413e-06	478.7	153.1	129.71	46.414	3.5641e-06	56.084	141.713	-94.982	-34.260	-120.748	-98.705	-42.189	-120.709	-115.894	-84.181	62.237	-116.890	-112.638	-112.458	-106.624	-58.406	-107.772	-8191	255	
973.467	1	1	0	0	0.10222	0.35778	0.27019	0.31953	0.10635	0.18498	0.10147	0.28947	0.15827	0.1454	0.12502	0.12664	0.18185	0.14167	0.17447	0.18152	-1.6958	-1.9583	-2.2208	-2.1333	-2.2938	-2.1958	-1.9958	-2.425	-2.0396	-1.9229	-2.45	-2.2	-2.0792	-2.4313	-2.0687	-2.425	170.808	36.852	133.331	180.495	38.839	-131.080	144.639	206.383	138.617	55.632	-91.307	216.813	211.060	187.104	58.632	-107.545	0.00075365	3.2535e-05	0.00014479	1495.5	2.9406e-06	2.8337e-06	1483.4	426.19	6.3964e-06	5.3543e-06	481.65	153.24	133.5	46.434	6.5268e-06	56.654	0.00033143	0.00032695	9.0966e-05	1497.5	3.5924e-06	3.5602e-06	1488.2	427.15	3.6202e-06	3.555e-06	479.34	153.28	129.65	46.517	3.6062e-06	56.112	113.552	116.211	-2.527	-120.175	196.320	-33.148	-120.655	-116.014	-53.985	51.300	-115.748	-111.761	-110.174	-103.525	21.111	-104.135	-8191	255	
973.563	1	1	0	0	0.27078	0.25326	0.12683	0.31182	0.10786	0.11011	0.19629	0.19455	0.037479	0.19854	0.19201	0.13291	0.30857	0.087045	0.12592	0.25855	-1.6333	-2.1271	-2.35	-2.3187	-2.2104	-2.45	-2.125	-2.3958	-2.3083	-2.0229	-2.4854	-2.2083	-2.0458	-2.5104	-2.1208	-2.4708	-26.657	31.484	146.253	147.980	-31.985	187.162	154.515	99.395	64.197	109.743	-75.848	84.017	162.758	-30.715	161.833	162.604	0.00059543	0.00063884	0.00017335	1498.7	5.4987e-06	2.8906e-06	1482.8	426.83	1.344e-06	3.3097e-06	481.35	153.01	135.28	46.503	8.4356e-06	56.765	0.00033188	0.00032754	8.9521e-05	1501.3	3.5603e-06	3.5147e-06	1492.4	426.98	3.5545e-06	3.5325e-06	479.15	152.89	130	46.592	3.5845e-06	56.164	128.160	-73.580	-7.014	-117.303	-18.051	23.480	-117.580	-113.270	-110.056	123.237	-113.500	-109.633	-108.961	-103.699	-11.131	-104.401	-8191	255	
973.659	1	1	0	0	0.033254	0.18243	0.074532	0.23375	0.37657	0.023152	0.18172	0.34919	0.050932	0.21838	0.12687	0.22236	0.084249	0.13549	0.3089	0.23398	-1.8229	-2.0479	-2.5104	-2.2313	-2.05	-2.5875	-2.1583	-2.375	-2.2875	-1.9979	-2.3917	-2.0833	-1.8896	-2.5042	-1.9396	-2.2375	178.590	-49.633	66.592	207.809	165.418	202.197	174.329	162.141	-48.384	169.893	81.435	197.218	79.079	148.865	145.772	225.448	0.00063098	0.00041835	9.4166e-05	1501.3	1.4008e-06	5.3099e-06	1488.8	425.54	6.1176e-06	5.1412e-06	480.57	153.03	135.37	46.393	2.5857e-06	56.818	0.00033454	0.00032472	8.9662e-05	1501.6	3.5651e-06	3.5195e-06	1492	427.52	3.5698e-06	3.5337e-06	479.44	153.27	129.92	46.599	3.4972e-06	56.252	130.877	-73.630	-43.679	-117.381	0.735	-8.862	-117.707	-112.962	-62.199	89.913	-115.796	-112.539	-112.320	-106.620	-7.597	-107.676	-8191	255	
973.780	1	1	0	0	0.34181	0.28491	0.167	0.27529	0.041013	0.060825	0.24734	0.18838	0.075246	0.039527	0.15191	0.11292	0.27306	0.045894	0.026441	0.12491	-1.8604	-1.7563	-2.2083	-2.3979	-1.7458	-2.6083	-2.0167	-2.4333	-2.1708	-1.8396	-2.2667	-2.3792	-1.9562	-2.4125	-2.0062	-2.0979	171.466	-1.055	-53.305	-81.473	-9.105	-4.153	-56.973	150.817	170.327	21.628	74.292	202.613	17.158	-7.480	-108.506	-85.105	0.00052852	0.0002813	9.9584e-05	1498.1	3.6368e-06	2.9403e-06	1487.6	425.39	7.9272e-06	1.5775e-06	480.43	153.57	133.71	46.523	5.8288e-06	56.505	0.00032698	0.0003195	8.8973e-05	1502.4	3.5343e-06	3.484e-06	1495.1	427.44	3.515e-06	3.4917e-06	479.55	153.48	129.92	46.654	3.5101e-06	56.266	107.854	-114.090	-25.647	-120.156	-76.334	63.263	-120.561	-116.393	-64.180	-42.275	-116.393	-112.550	-112.210	-106.435	4.519	-107.281	-8191	255	
973.852	1	1	0	0	0.2118	0.15171	0.087006	0.15268	0.11989	0.14677	0.17594	0.19829	0.046668	0.065803	0.30105	0.22468	0.1037	0.36211	0.13159	0.15911	-1.7437	-2.0938	-2.1625	-2.4646	-1.9521	-2.2167	-2.4896	-2.2958	-2.25	-2.0583	-2.2625	-2.3042	-1.9583	-2.3667	-2.1583	-1.9771	49.927	7.738	3.707	138.616	-90.364	184.209	171.366	176.221	28.079	-12.995	224.760	72.848	225.959	220.165	217.604	-13.082	0.00081264	0.00031678	5.3085e-05	1499.3	5.0376e-06	8.0397e-06	1486.5	425.28	4.1867e-06	5.2258e-06	481.25	154.03	135.2	46.237	8.641e-06	56.78	0.00032456	0.00031934	8.8719e-05	1502.8	3.5316e-06	3.4714e-06	1493.5	427.83	3.5436e-06	3.5073e-06	480.11	153.5	129.83	46.592	3.5069e-06	56.262	133.182	-82.675	-57.656	-118.520	-11.791	-31.425	-119.999	-115.729	-76.871	64.194	-116.209	-112.345	-112.111	-106.580	-7.240	-107.246	-8191	255	
973.948	1	1	0	0	0.19351	0.073239	0.15982	0.18416	0.11029	0.23957	0.14489	0.058235	0.24339	0.14849	0.10553	0.35263	0.2091	0.16917	0.16528	0.18388	-2	-1.8771	-2.1188	-2.45	-1.7917	-2.3125	-2.4042	-1.9604	-2.3083	-2.0125	-2.3604	-2.3521	-1.825	-2.5083	-2.1937	-1.9688	212.964	56.786	220.708	191.493	-128.806	-133.079	-82.236	74.211	29.349	-77.565	-96.162	212.530	-17.508	31.365	123.583	110.976	0.00037131	0.00043351	0.00012665	1500.4	1.1527e-06	3.8265e-06	1482.6	426.6	3.86e-06	2.8759e-06	482.3	153.46	134.78	46.431	4.1624e-06	56.588	0.00032635	0.00031758	8.8845e-05	1501.9	3.5067e-06	3.4692e-06	1492.1	428.23	3.5178e-06	3.5111e-06	480.47	153.63	129.84	46.617	3.4666e-06	56.18	158.335	-5.860	-31.477	-120.332	-58.109	-42.832	-120.666	-115.812	-127.841	65.322	-116.037	-112.352	-111.922	-106.170	-21.046	-106.583	-8191	255	
974.068	1	1	0	0	0.18748	0.1044	0.22802	0.17936	0.32327	0.22723	0.17988	0.27635	0.14454	0.079085	0.094098	0.21194	0.04188	0.17664	0.13599	0.1146	-1.9292	-2.1479	-2.1437	-2.7958	-1.8646	-2.5146	-2.5083	-2.0396	-2.3354	-2.1229	-2.1854	-2.4604	-2.0479	-2.3771	-2.1333	-1.9479	217.917	172.242	163.706	166.572	-87.436	176.351	195.346	151.532	-80.097	132.972	161.795	202.433	-106.742	184.240	201.831	100.530	0.00069166	0.00045661	0.00014243	1501.1	1.0451e-06	3.048e-06	1486.7	427.27	8.3078e-06	2.1591e-06	481.55	153.93	134.78	46.357	8.3891e-06	56.728	0.00032745	0.00031957	8.9088e-05	1503.1	3.5074e-06	3.494e-06	1493	428.62	3.5392e-06	3.5055e-06	479.62	153.49	129.91	46.601	3.4968e-06	56.165	140.909	-20.060	-106.876	-119.160	155.953	18.350	-119.816	-115.041	-63.360	-94.947	-116.147	-112.170	-111.788	-106.789	-57.427	-107.350	-8191	255	
974.163	1	1	0	0	0.11809	0.088058	0.40403	0.066629	0.26513	0.38963	0.28522	0.02775	0.29417	0.13015	0.17539	0.16111	0.22941	0.23686	0.21212	0.038113	-1.8438	-2.0708	-1.9375	-2.4042	-2	-2.025	-2.6479	-2.0438	-2.1917	-2.125	-1.95	-2.4292	-1.8458	-1.9583	-2.425	-1.9229	-5.828	33.484	-63.351	0.225	223.023	49.427	162.334	184.546	-15.184	-111.526	83.201	-72.930	160.901	-129.313	138.118	5.349	0.00077148	0.00035938	0.00013408	1496.7	6.8658e-06	5.1899e-06	1488.3	427.81	6.1301e-06	3.4683e-06	481.85	153.42	135.26	46.297	4.4181e-06	56.946	0.00032685	0.00031466	8.7406e-05	1501.4	3.4827e-06	3.4377e-06	1494	428.67	3.5083e-06	3.4661e-06	479.66	153.25	130.19	46.562	3.4813e-06	56.22	130.433	-98.888	-79.830	-120.476	-9.469	-55.929	-120.407	-115.877	-61.499	58.243	-116.402	-111.929	-112.275	-105.887	-28.405	-106.915	-8191	255	
974.261	1	1	0	0	0.35295	0.07618	0.245	0.27851	0.20344	0.21099	0.078539	0.13817	0.10902	0.21644	0.13446	0.075973	0.19843	0.1053	0.27463	0.075288	-1.9646	-2.1479	-1.7396	-2.3792	-2.0542	-2.125	-2.4958	-2.0042	-2.2292	-2.3896	-1.9729	-2.2729	-2.0292	-2.3333	-2.4313	-1.9979	-131.111	185.139	-124.654	222.920	-95.763	116.534	-96.718	-125.554	-28.445	-32.317	91.722	137.108	207.835	-93.357	-118.989	26.134	0.00073784	0.00042164	0.00012009	1499.7	3.1925e-06	4.0912e-06	1490.8	426.34	7.5634e-06	4.7488e-06	479.65	153.11	133.72	46.416	3.2688e-06	56.671	0.00032193	0.00031868	8.8395e-05	1502	3.475e-06	3.5019e-06	1494.4	428.32	3.5262e-06	3.4728e-06	479.11	153.31	129.99	46.624	3.5249e-06	56.127	123.435	-67.607	-59.569	-119.785	3.682	-76.264	-120.121	-115.615	-61.374	57.182	-115.738	-111.686	-111.666	-105.890	53.267	-106.770	-8191	255	
974.379	1	1	0	0	0.028416	0.092319	0.3552	0.15342	0.12876	0.064133	0.40638	0.080167	0.34134	0.37453	0.30764	0.10966	0.13858	0.036549	0.28718	0.17324	-1.7375	-2.3833	-1.7229	-2.3958	-2.1521	-2.0687	-2.4875	-1.925	-2.1771	-2.3021	-2.0812	-2.25	-1.9292	-2.0375	-2.4417	-2.2062	134.256	159.004	-58.164	181.910	-34.445	-0.220	199.773	-102.025	-7.553	181.372	192.832	-16.876	195.815	10.943	-101.715	104.466	0.00067048	0.00050869	0.00014981	1499	2.7324e-06	3.6281e-06	1486.5	426.15	4.3412e-06	3.3696e-06	482.04	153.56	134.13	46.363	5.1818e-06	56.649	0.00032736	0.00031819	8.902e-05	1502.1	3.5009e-06	3.494e-06	1493.4	428.22	3.5304e-06	3.5349e-06	480	153.38	130.04	46.617	3.4837e-06	56.173	120.742	-80.206	-76.716	-120.204	-34.854	-24.327	-120.627	-116.041	-72.158	21.242	-116.447	-112.257	-111.979	-106.466	-38.704	-106.466	-8191	255	
974.451	1	1	0	0	0.077618	0.14675	0.10064	0.17811	0.19015	0.17212	0.28603	0.035422	0.069407	0.038968	0.23303	0.52037	0.23145	0.10519	0.093815	0.12801	-1.6125	-2.3625	-1.6542	-2.4479	-2.2062	-1.7958	-2.6479	-2.1125	-2.2771	-2.35	-2.1312	-2.3479	-2.2062	-1.9625	-2.5604	-2.0583	1.996	7.402	102.482	160.173	148.170	15.813	132.738	117.423	156.948	191.295	26.494	194.174	212.697	27.307	103.075	79.385	0.00054882	0.00057792	0.000232	1499.3	4.5782e-06	6.3097e-06	1485.3	426.38	6.4103e-06	3.2477e-06	481.84	153.68	134.63	46.257	4.6881e-06	56.371	0.00032547	0.00031855	8.8714e-05	1500.6	3.491e-06	3.4869e-06	1491.6	427.82	3.5503e-06	3.5281e-06	480.01	153.6	129.5	46.573	3.4651e-06	56.127	126.007	-78.018	-61.586	-120.239	-49.112	85.912	-120.357	-115.925	-68.425	165.056	-115.860	-111.866	-111.937	-105.837	2.189	-106.519	-8191	255	
974.547	1	1	0	0	0.13976	0.22542	0.13129	0.23224	0.010373	0.080223	0.31034	0.4267	0.12212	0.17894	0.26449	0.22562	0.11227	0.21853	0.048541	0.1056	-1.8312	-2.2896	-1.9646	-2.5083	-2.1667	-2.1083	-2.5563	-2.0938	-2.0479	-2.2708	-2.0083	-2.3937	-2.2938	-1.9646	-2.2687	-2.2188	-1.255	39.963	145.503	207.564	70.230	-103.867	104.790	137.539	-0.504	96.470	-130.499	224.881	-26.974	200.086	58.508	197.019	0.00058465	0.0005833	0.00012257	1499.8	2.3441e-06	5.8162e-06	1486.9	426.94	6.7639e-06	9.2284e-06	481.37	153.13	135.11	46.436	7.2257e-06	56.775	0.00032173	0.00031117	8.7323e-05	1501.7	3.442e-06	3.4247e-06	1493.4	428.24	3.4344e-06	3.4012e-06	479.76	153.17	129.77	46.615	3.4202e-06	56.154	121.344	-55.454	-80.092	-119.575	-77.157	4.837	-120.407	-115.792	-90.674	53.314	-116.367	-112.376	-111.846	-106.624	4.081	-107.756	-8191	255	
974.668	1	1	0	0	0.23674	0.065939	0.20202	0.31209	0.12688	0.12581	0.082687	0.36412	0.12016	0.042215	0.35215	0.18373	0.032299	0.11383	0.16424	0.12327	-1.4375	-2.3854	-1.7625	-2.5625	-2.2833	-1.7833	-2.6042	-2.4958	-1.9396	-2.4188	-2.1688	-2.1875	-2.3833	-2.0271	-2.2833	-2.1562	156.006	127.767	-4.541	206.979	-26.086	-52.618	219.381	185.692	-74.269	160.348	150.080	131.007	-47.630	178.023	7.974	-0.811	0.00074699	0.00035564	0.00015279	1495.6	3.8703e-06	1.8335e-06	1487	426.1	5.3835e-06	2.3661e-06	481.44	153.75	134.93	46.371	7.1295e-06	56.796	0.00031412	0.0003114	8.6385e-05	1498.2	3.4566e-06	3.407e-06	1492.2	427.74	3.4168e-06	3.3824e-06	479.98	153.33	129.68	46.492	3.3473e-06	56.017	133.424	-127.314	-27.112	-120.769	-10.687	95.416	-120.965	-116.496	-102.907	44.121	-116.471	-112.452	-112.467	-106.577	39.819	-107.390	-8191	255	
974.764	1	1	0	0	0.17369	0.068626	0.11063	0.13246	0.13654	0.25736	0.18108	0.2242	0.071706	0.095639	0.12185	0.16553	0.033157	0.10251	0.26435	0.18821	-1.4667	-2.2958	-2.0333	-2.4562	-2.4458	-1.9896	-2.6937	-2.3354	-2.0333	-2.5	-2.1104	-2.1729	-2.15	-1.9771	-2.3333	-2.2854	159.657	167.690	111.780	-89.945	81.352	68.432	191.780	199.436	-84.276	-44.558	93.952	55.307	157.522	152.398	200.553	-46.958	0.00048595	0.00061974	0.00012611	1493.3	7.7969e-06	1.0934e-06	1485.8	425.55	3.0919e-06	2.562e-06	481.96	153.4	134.55	46.372	7.9499e-06	56.535	0.00031626	0.00030348	8.6234e-05	1498.3	3.3698e-06	3.3621e-06	1491.6	427.57	3.3844e-06	3.3543e-06	479.85	153	129.57	46.551	3.3426e-06	56.016	138.497	-100.671	-58.992	-120.132	-87.797	17.678	-120.566	-116.221	-71.538	34.371	-116.568	-112.450	-112.259	-106.388	8.733	-106.940	-8191	255	
974.860	1	1	0	0	0.10425	0.11284	0.35958	0.23663	0.1859	0.24243	0.11028	0.20381	0.10284	0.045599	0.15525	0.27601	0.21928	0.03758	0.1245	0.17632	-1.5542	-2.1604	-1.9917	-2.1437	-2.4583	-1.625	-2.3271	-2.4646	-1.6812	-2.275	-2.1562	-2.1042	-2.5208	-2.2729	-2.2062	-2.3063	1.111	-29.895	-26.736	170.515	-61.202	82.876	-101.219	202.772	-53.525	-73.480	-114.651	136.423	225.336	29.691	-46.938	-126.863	0.00056466	0.00040474	0.00012778	1498.1	1.1104e-06	6.6654e-06	1484	424.88	5.4486e-06	5.1493e-06	480.38	153.71	134.45	46.376	1.1709e-05	56.646	0.00031338	0.00030673	8.5148e-05	1499.1	3.3479e-06	3.3456e-06	1491.7	427.44	3.4294e-06	3.3629e-06	479.6	153.39	129.62	46.602	3.3722e-06	56.066	145.516	-25.824	-45.310	-118.890	49.184	19.512	-121.023	-116.441	-33.379	69.475	-116.393	-112.110	-112.311	-106.495	4.867	-107.538	-8191	255	
974.956	1	1	0	0	0.3153	0.12631	0.12061	0.12918	0.16496	0.25423	0.24979	0.27295	0.048855	0.20537	0.34034	0.099886	0.15138	0.14469	0.13563	0.30793	-1.4083	-2.2854	-1.9896	-1.9625	-2.4125	-2.0771	-2.2292	-2.2646	-1.7854	-2.3021	-2.3167	-2.0417	-2.2979	-2.2167	-2.0292	-2.4646	167.615	75.045	-34.885	219.997	-25.280	192.905	162.155	179.971	-129.061	-51.748	-57.201	145.195	-24.180	-111.718	211.684	204.621	0.00066114	0.00069412	9.122e-05	1501.2	5.1197e-06	2.6026e-06	1486.5	426.88	2.8507e-06	5.5369e-06	481.37	153.42	136.37	46.379	3.4571e-06	56.576	0.00031377	0.00030575	8.4924e-05	1499.7	3.3823e-06	3.3246e-06	1493.2	427.95	3.3985e-06	3.338e-06	479.11	153.27	129.83	46.523	3.3301e-06	56.029	125.364	-62.001	22.080	-119.703	-53.369	-2.598	-120.355	-115.740	43.498	-11.518	-116.146	-112.040	-111.947	-106.339	-9.280	-107.175	-8191	255	
975.028	1	1	0	0	0.064817	0.15253	0.13669	0.17377	0.084926	0.062176	0.153	0.15661	0.096589	0.13541	0.058451	0.0466	0.099178	0.17246	0.19376	0.089224	-1.4438	-2.4146	-2.0396	-2.1167	-2.3042	-2.0792	-2.3458	-2.2667	-2.0583	-2.1562	-2.3333	-2.0396	-2.4667	-1.9854	-2.0229	-2.2521	-80.116	131.928	4.275	209.129	150.470	160.537	147.418	218.272	199.891	-129.422	126.327	-100.799	-42.546	127.762	-55.993	204.542	0.00069771	0.00025415	0.00015662	1494	2.8638e-06	5.3872e-06	1488.7	426.4	4.1644e-06	4.9807e-06	482.27	153.81	135.46	46.305	4.7698e-06	56.529	0.00031214	0.00030128	8.4131e-05	1498.3	3.3078e-06	3.2952e-06	1493.7	427.77	3.3592e-06	3.3067e-06	479.67	153.33	129.63	46.537	3.3656e-06	56.039	129.957	-67.171	-106.446	-119.848	-110.480	-3.304	-120.607	-116.431	-78.703	69.955	-115.834	-111.771	-111.496	-106.292	60.493	-106.542	-8191	255	
975.147	1	1	0	0	0.21133	0.42185	0.079431	0.31491	0.18241	0.083611	0.24721	0.24838	0.18697	0.18311	0.11116	0.094526	0.10903	0.132	0.18576	0.21654	-1.4813	-2.175	-2.3854	-1.9729	-2.4542	-2.1458	-2.2313	-2.6104	-1.8667	-2.3312	-2.3438	-2.0958	-2.3271	-2.3229	-1.8542	-2.6188	-37.760	69.535	-107.657	215.275	187.399	151.067	158.776	182.175	206.538	79.029	104.225	-64.689	-91.373	182.780	31.698	-131.717	0.00061174	0.00027596	0.00021914	1495.6	1.4419e-06	4.6447e-06	1489.4	426.6	8.2254e-06	2.9661e-06	480.08	153.72	134.35	46.369	3.2234e-06	56.596	0.00031177	0.00030598	8.4644e-05	1499.2	3.3655e-06	3.31e-06	1492.3	427.88	3.3689e-06	3.3213e-06	479.11	153.32	129.51	46.605	3.3514e-06	56.087	144.158	-65.103	-33.248	-119.663	-21.243	-70.971	-120.622	-116.314	-107.743	42.834	-116.639	-112.330	-112.166	-106.328	-46.771	-106.781	-8191	255	
975.243	1	1	0	0	0.12335	0.18933	0.052415	0.1029	0.094348	0.31688	0.19145	0.025639	0.16361	0.18364	0.24743	0.68032	0.18967	0.20316	0.15187	0.091981	-1.6104	-2.3417	-2.2438	-2.0125	-2.2208	-2.1625	-2.1521	-2.575	-1.8813	-2.1208	-2.4229	-1.9	-2.3125	-2.2687	-1.9229	-2.2438	-6.103	151.695	77.217	189.046	223.653	-28.243	141.455	112.371	151.813	160.091	205.894	204.223	74.856	-119.320	219.280	133.709	0.00044132	0.00063905	5.9116e-05	1497.8	2.8827e-06	4.775e-06	1485	427.6	7.8561e-06	6.0487e-06	479.13	153.82	134.94	46.28	2.2517e-06	56.616	0.00031592	0.00030921	8.5594e-05	1499.8	3.3933e-06	3.3695e-06	1492.5	428.16	3.4229e-06	3.3576e-06	479.22	153.39	129.58	46.506	3.42e-06	55.997	135.165	-38.697	-15.537	-119.772	-44.674	12.257	-120.856	-116.201	-55.514	58.364	-116.044	-111.934	-111.973	-106.622	41.380	-106.865	-8191	255	
975.341	1	1	0	0	0.16324	0.40714	0.17984	0.15197	0.024444	0.15941	0.28742	0.020565	0.35197	0.24862	0.13788	0.098947	0.17807	0.17512	0.14922	0.0436	-1.5667	-1.9146	-2.4604	-2.1542	-2.3771	-2.125	-2.0833	-2.55	-2.2021	-2.0896	-2.5271	-1.9646	-2.1167	-2.2687	-1.8625	-2.4458	25.311	-72.692	223.570	157.154	-59.802	89.355	166.969	-84.155	-36.483	-124.901	159.069	24.052	65.147	-42.318	136.752	107.004	0.00060889	0.00044008	0.00018991	1495.6	1.102e-06	1.2729e-06	1487.9	427.34	3.4049e-06	3.1823e-06	481.43	153.34	134.89	46.188	3.6525e-06	56.646	0.00031381	0.0003105	8.5394e-05	1499.7	3.3836e-06	3.3544e-06	1494.6	428.21	3.4276e-06	3.3781e-06	479.41	153.43	129.98	46.532	3.3922e-06	56.136	130.944	-44.749	-45.355	-119.771	55.708	-14.015	-120.261	-115.512	-25.175	31.446	-116.288	-112.668	-112.103	-106.246	63.078	-106.988	-8191	255	
975.460	1	1	0	0	0.23554	0.13133	0.19868	0.077207	0.16245	0.14216	0.16698	0.18636	0.20253	0.18256	0.052493	0.2681	0.14352	0.21396	0.054463	0.081058	-1.6	-1.7	-2.4417	-2.2333	-2.1625	-2.2021	-2.1021	-2.3583	-2.2292	-1.9458	-2.5708	-1.7563	-2.2438	-2.1688	-1.825	-2.1875	89.675	101.495	-45.953	-107.507	26.899	-53.391	194.014	181.883	210.587	-56.463	93.454	190.469	-91.790	197.760	-1.277	140.100	0.00047134	0.00042792	9.036e-05	1492.3	1.0332e-06	4.8937e-06	1488.5	425.37	4.3319e-06	2.2265e-06	480.83	153.65	134.36	46.297	1.8427e-06	56.774	0.00031564	0.00031193	8.5027e-05	1499.9	3.4025e-06	3.3845e-06	1495.3	427.92	3.4413e-06	3.4557e-06	479.55	153.44	129.76	46.635	3.4609e-06	56.129	118.196	-91.013	-18.336	-119.742	-28.193	0.150	-120.127	-115.655	-25.903	52.189	-116.093	-111.887	-111.018	-105.726	-59.861	-106.732	-8191	255	
975.556	1	1	0	0	0.19054	0.3688	0.22911	0.14072	0.24622	0.34824	0.22259	0.30597	0.12342	0.27843	0.029546	0.055965	0.44194	0.26288	0.25386	0.23975	-1.5771	-1.9708	-2.3396	-2.2667	-2.0792	-2.4708	-2.1271	-2.4708	-2.0646	-1.7833	-2.525	-2.0583	-2.2083	-2.2542	-1.9875	-2.3042	-120.117	124.266	-80.773	165.839	161.146	40.462	166.449	213.854	-59.326	163.223	65.622	-98.302	147.766	-113.771	139.653	108.446	0.00064865	0.00043723	0.00013832	1494.5	4.1805e-06	5.1799e-06	1489.8	427.83	3.4628e-06	6.4213e-06	482.38	153.83	134.13	46.618	6.1249e-06	56.782	0.00032341	0.0003201	8.7756e-05	1501	3.443e-06	3.4307e-06	1493.4	428.49	3.4953e-06	3.4707e-06	480.23	153.55	130	46.695	3.4741e-06	56.25	136.736	-64.176	-18.157	-119.744	-55.643	-30.208	-119.996	-115.714	-65.037	48.634	-115.838	-111.711	-111.733	-105.898	-15.882	-107.060	-8191	255	
975.652	1	1	0	0	0.1084	0.036075	0.099499	0.31149	0.093143	0.034462	0.14771	0.26053	0.14787	0.17573	0.15821	0.24753	0.13477	0.39603	0.10753	0.14454	-1.825	-1.9333	-2.1792	-2.3021	-1.7667	-2.4771	-2.1917	-2.1771	-2.4146	-1.8104	-2.6042	-2.0604	-1.9833	-2.4646	-2.2042	-2.1958	117.742	-67.068	198.831	217.842	-88.363	138.256	-85.938	-124.846	-11.932	-128.210	-117.924	213.040	218.180	179.159	212.800	-72.492	0.00066528	0.00054741	0.00017204	1502.4	7.1958e-06	6.1692e-06	1486.1	428.16	7.0569e-06	4.0784e-06	482.89	153.17	133.34	46.663	1.8463e-06	56.765	0.0003246	0.00031339	8.7637e-05	1502.1	3.4288e-06	3.3926e-06	1492.8	428.73	3.4426e-06	3.4202e-06	480.69	153.44	129.7	46.668	3.4095e-06	56.152	133.748	-97.379	-59.605	-119.567	-53.358	-12.256	-120.138	-115.317	-124.043	77.695	-113.515	-109.626	-109.363	-103.655	-46.567	-104.323	-8191	255	
975.748	1	1	0	0	0.027531	0.14313	0.21303	0.38242	0.097092	0.1599	0.22716	0.0097977	0.24208	0.18546	0.089657	0.16475	0.21345	0.17311	0.23813	0.043175	-1.9271	-1.6542	-2.3438	-2.2896	-2.0708	-2.4208	-2.0125	-2.1167	-2.2354	-1.8312	-2.2833	-2.3667	-1.8792	-2.6417	-1.9708	-2.1521	3.010	134.887	77.159	196.298	34.140	38.507	158.833	176.950	63.122	92.640	184.656	100.690	-108.622	-132.354	-58.240	137.682	0.00055156	0.00027935	0.00013134	1495.7	1.7728e-06	3.3038e-06	1483.4	427.36	4.532e-06	4.0832e-06	481.87	154.42	135.14	46.169	4.1432e-06	56.65	0.0003173	0.00030838	8.5926e-05	1502.3	3.4219e-06	3.3433e-06	1493	428.25	3.386e-06	3.382e-06	479.72	153.61	130.31	46.554	3.3657e-06	56.168	136.054	-49.162	-30.414	-120.075	-38.061	40.563	-120.436	-115.725	-109.502	74.159	-115.379	-111.832	-111.633	-106.403	-9.797	-107.260	-8191	255	
975.844	1	1	0	0	0.14256	0.076863	0.20499	0.042708	0.1954	0.15592	0.25568	0.067353	0.18623	0.16789	0.1613	0.30669	0.13532	0.042036	0.058558	0.028531	-1.7812	-1.9479	-2.0854	-2.3417	-2.0167	-2.4354	-2.2875	-2.2625	-2.2854	-2.0125	-2.1333	-2.325	-1.95	-2.2896	-2.125	-2.2083	6.297	-86.431	63.515	212.182	-31.821	35.521	109.171	110.770	134.373	-34.297	-99.371	-93.474	133.507	2.044	39.427	190.198	0.0005799	0.00085911	8.7647e-05	1494.8	5.7245e-06	8.2953e-06	1481	426.15	5.5813e-06	8.8427e-06	483.31	154.08	135.04	46.336	6.113e-06	57.085	0.00031449	0.00030651	8.496e-05	1501.9	3.4187e-06	3.3649e-06	1493.1	428.84	3.4098e-06	3.3782e-06	480.15	153.4	129.86	46.658	3.4084e-06	56.122	132.383	-56.427	-37.152	-120.354	-11.031	-30.534	-120.744	-116.143	-103.756	52.650	-116.448	-112.045	-112.243	-106.257	-37.674	-107.149	-8191	255	
975.941	1	1	0	0	0.28541	0.14167	0.10034	0.13273	0.01423	0.15524	0.2535	0.16053	0.18782	0.16196	0.041351	0.19791	0.066488	0.16456	0.21153	0.38792	-1.8792	-1.8604	-2.3354	-2.5167	-1.8271	-2.4333	-2.3667	-1.9292	-2.4896	-2.1375	-2.2938	-2.375	-1.8875	-2.2833	-2.175	-2.075	209.806	-88.793	-78.522	220.644	224.055	171.295	188.549	179.182	-58.085	-117.669	91.111	203.923	211.459	202.653	-114.245	195.651	0.00079154	0.00043601	0.00015852	1500.7	4.8267e-06	3.0855e-06	1485.6	426.74	3.4241e-06	2.825e-06	481.75	154.25	136.02	46.17	5.9665e-06	56.42	0.00031506	0.00030245	8.604e-05	1502	3.3976e-06	3.3304e-06	1493.6	428.64	3.4232e-06	3.33e-06	480.21	153.56	130.09	46.523	3.3848e-06	56.119	130.911	-59.602	-48.897	-120.525	-29.761	44.828	-121.027	-116.614	-110.828	100.580	-116.900	-113.020	-112.904	-106.855	40.836	-107.993	-8191	255	
976.061	1	1	0	0	0.080409	0.25766	0.20609	0.22711	0.2094	0.1309	0.23401	0.38529	0.20298	0.097675	0.085131	0.33885	0.051846	0.078717	0.11825	0.40383	-1.9562	-1.8167	-2.025	-2.4958	-1.9104	-2.2833	-2.3063	-2.0708	-2.3542	-2.0625	-2.2229	-2.475	-1.6208	-2.3625	-2.2021	-2.0042	220.944	-104.035	155.310	125.854	181.099	-15.012	103.840	187.621	45.694	1.094	-97.306	101.378	201.108	-68.054	13.698	216.520	0.00045573	0.00040919	9.0519e-05	1497.2	6.3913e-06	2.6019e-06	1484.3	425.65	6.2831e-06	3.4855e-06	481.01	153.41	135.57	46.432	1.0422e-05	56.594	0.00031587	0.0003066	8.6416e-05	1501.5	3.4033e-06	3.3429e-06	1492.7	428.2	3.3905e-06	3.349e-06	479.6	153.65	129.75	46.575	3.3678e-06	56.13	120.380	184.796	-26.296	-120.337	-86.968	-0.304	-120.814	-116.046	-81.637	23.249	-116.346	-112.017	-111.252	-105.402	-6.420	-106.889	-8191	255	
976.156	1	1	0	0	0.26556	0.1435	0.040754	0.1214	0.022403	0.16242	0.29426	0.28115	0.26345	0.13192	0.19616	0.18959	0.083458	0.045329	0.12898	0.28217	-1.7958	-1.9312	-2.175	-2.3854	-1.9521	-2.2812	-2.2125	-2.1896	-2.1958	-2.125	-1.9979	-2.3979	-1.7021	-2.0896	-2.0792	-1.7479	124.597	129.922	115.699	209.312	70.005	192.330	99.413	144.688	-30.177	150.449	189.207	119.348	-25.107	145.333	-9.700	205.687	0.00064822	0.00059168	9.62e-05	1497.1	6.0869e-06	5.8956e-06	1485.4	427.57	2.4141e-06	5.4006e-06	481.09	153.6	135.16	46.456	9.9679e-06	56.704	0.00031539	0.00030689	8.5152e-05	1499.7	3.363e-06	3.3659e-06	1492.2	428.97	3.4184e-06	3.3737e-06	479.99	153.45	129.84	46.58	3.3843e-06	56.156	131.958	-57.210	-22.151	-120.154	-113.866	-20.476	-120.745	-115.899	-32.857	37.162	-116.206	-112.259	-111.835	-106.412	-38.393	-107.278	-8191	255	
976.252	1	1	0	0	0.21902	0.18012	0.20258	0.40465	0.090252	0.11123	0.24953	0.28814	0.15519	0.27203	0.20572	0.25538	0.13048	0.19398	0.16465	0.099742	-1.7917	-1.9937	-1.9125	-2.4271	-1.9708	-2.1063	-2.5021	-1.9458	-2.1958	-2.0271	-2.0125	-2.4167	-1.8875	-2.0438	-2.0979	-1.9458	56.848	153.049	113.721	192.671	124.390	181.398	136.612	-97.976	57.133	168.983	-97.488	114.198	109.130	212.959	-59.103	139.816	0.00060021	0.0007672	0.00024895	1493.9	2.4827e-06	9.9774e-07	1488.2	426.22	9.0112e-06	3.4415e-06	481.87	154.09	134.56	46.51	4.5552e-06	56.772	0.00031748	0.00030774	8.443e-05	1498.3	3.3531e-06	3.3719e-06	1493.4	428.61	3.3724e-06	3.367e-06	480.31	153.59	129.81	46.673	3.3856e-06	56.158	123.398	-42.978	-1.970	-120.350	-1.532	-119.780	-120.836	-115.834	-10.145	5.840	-116.085	-111.850	-111.914	-105.949	-40.233	-106.655	-8191	255	
976.348	1	1	0	0	0.24413	0.2524	0.096747	0.29909	0.064584	0.074884	0.14809	0.33524	0.22681	0.091847	0.096057	0.28526	0.053168	0.16027	0.34518	0.12466	-1.5854	-2.0771	-1.6792	-2.5604	-1.8563	-2.0938	-2.6063	-1.8729	-2.2646	-2.1958	-1.8687	-2.1437	-2.1021	-2.0146	-2.3917	-1.8813	-43.271	10.886	-84.739	136.456	186.542	2.537	216.317	187.737	-90.263	44.547	200.163	-118.602	-68.535	184.590	22.587	183.042	0.00067763	0.00051631	0.0002004	1496.7	4.5787e-06	6.5551e-06	1485.5	428.21	5.9086e-06	8.5425e-06	480.73	153.44	134.95	46.318	1.2947e-05	56.77	0.00031789	0.00030492	8.3884e-05	1499.3	3.3911e-06	3.3906e-06	1492	429.06	3.4449e-06	3.3853e-06	480.09	153.48	129.72	46.527	3.3993e-06	56.064	135.383	-66.070	-65.001	-118.157	3.627	-6.535	-118.646	-113.828	-37.352	41.121	-117.006	-112.993	-112.624	-106.981	-16.499	-107.532	-8191	255	
976.444	1	1	0	0	0.13279	0.27773	0.036512	0.093152	0.086789	0.24179	0.18352	0.066403	0.2691	0.23471	0.082701	0.087629	0.055495	0.21191	0.056371	0.14309	-1.5833	-1.9917	-1.8604	-2.2729	-1.9833	-1.8563	-2.4833	-1.9521	-2.0854	-2.2583	-1.8813	-2.4875	-1.9729	-1.7771	-2.3688	-1.9688	137.592	194.846	64.085	189.223	-108.124	-21.754	-117.801	183.985	-55.799	-82.055	148.619	208.324	-107.809	-62.425	17.697	221.866	0.00058095	0.00036986	2.9978e-05	1500.9	2.9012e-06	2.0435e-06	1491.6	427.33	6.1948e-06	5.2345e-06	479.54	153.09	135.1	46.486	4.0289e-06	56.603	0.00031859	0.000307	8.6292e-05	1502	3.4532e-06	3.3954e-06	1494.3	428.67	3.4449e-06	3.4005e-06	479.66	153.17	130.31	46.608	3.4241e-06	56.093	119.669	-38.640	-99.380	-119.878	-6.353	-4.602	-118.692	-114.587	202.668	25.311	-115.889	-112.119	-112.043	-106.323	-39.160	-106.855	-8191	255	
976.540	1	1	0	0	0.31336	0.074929	0.11273	0.016895	0.3482	0.32772	0.42503	0.12924	0.10177	0.11259	0.18846	0.1514	0.24262	0.05348	0.04591	0.2171	-1.7896	-2.3292	-1.8854	-2.4062	-2.0521	-2.0229	-2.5917	-2.0938	-1.9562	-2.3021	-2.0187	-2.2896	-2.1979	-1.9937	-2.1667	-1.9917	88.261	-120.069	159.150	87.747	222.591	-1.792	164.890	137.199	179.864	8.577	218.823	-121.575	31.500	-63.080	34.856	-56.183	0.00066705	0.00034512	0.00018165	1500.4	3.3543e-06	1.0765e-06	1483.6	426.97	2.4642e-06	2.1946e-06	483.36	153.6	133.79	46.535	5.1946e-06	56.357	0.00032023	0.00030939	8.6833e-05	1501.8	3.4048e-06	3.3868e-06	1492.4	428.73	3.4476e-06	3.4086e-06	480.42	153.6	129.77	46.684	3.3651e-06	56.07	129.089	-44.876	-113.725	-119.792	-94.640	-19.738	-120.598	-115.906	-119.683	-8.924	-116.251	-112.034	-111.557	-106.157	-68.361	-106.538	-8191	255	
976.636	1	1	0	0	0.15654	0.12234	0.047438	0.18263	0.15366	0.25357	0.14229	0.3289	0.178	0.16249	0.076867	0.19269	0.16143	0.15833	0.05884	0.12368	-1.675	-2.4896	-1.7958	-2.4729	-2.1437	-1.8833	-2.4562	-2.2479	-2.1125	-2.25	-2.1063	-2.1979	-2.3146	-1.9042	-2.4729	-2.2083	-121.312	89.358	177.316	127.735	148.934	-120.693	150.758	146.502	114.027	143.368	152.553	-108.346	180.159	149.666	-80.799	217.269	0.00078066	0.00063527	0.00024078	1497.7	4.4784e-06	1.8606e-06	1484.3	426.68	7.548e-06	2.4236e-06	482.07	153.59	135.4	46.434	6.2596e-06	56.552	0.00032064	0.00030797	8.6411e-05	1501.8	3.4186e-06	3.4038e-06	1493.2	428.46	3.4394e-06	3.3926e-06	480.39	153.65	130.06	46.653	3.4295e-06	56.224	137.409	-80.690	-51.604	-119.647	-47.361	-77.518	-120.262	-115.578	-32.208	42.760	-115.713	-111.315	-111.556	-105.990	-4.404	-106.719	-8191	255	
976.733	1	1	0	0	0.1451	0.013903	0.14913	0.29078	0.076727	0.10477	0.26186	0.16495	0.21034	0.08377	0.18276	0.11899	0.26058	0.12174	0.066215	0.25493	-1.45	-2.4479	-1.8875	-2.4021	-2.3937	-2.0167	-2.7146	-2.2625	-2.1604	-2.2812	-2.2333	-2.3104	-2.0417	-2.1396	-2.5146	-2.2604	-17.866	10.009	-89.367	198.481	194.672	31.969	153.567	218.805	165.389	86.154	124.735	222.886	-126.048	-40.091	57.996	189.298	0.00038425	0.00033826	0.00011573	1501.4	2.7622e-06	6.3128e-06	1486.3	426.26	4.3414e-06	4.4551e-06	482.8	154.22	135	46.574	1.4537e-07	56.881	0.00031893	0.00031136	8.5962e-05	1501.4	3.4461e-06	3.4127e-06	1494.5	428.51	3.4373e-06	3.391e-06	480.37	153.67	129.86	46.612	3.4306e-06	56.182	158.205	-93.120	-62.240	-119.407	1.466	3.711	-119.633	-114.967	-75.332	22.034	-114.185	-110.351	-109.971	-104.708	96.178	-106.274	-8191	255	
976.853	1	1	0	0	0.14485	0.10753	0.098287	0.22615	0.11445	0.084265	0.32836	0.14881	0.10185	0.20794	0.29424	0.10871	0.03523	0.17595	0.26509	0.27213	-1.575	-2.3271	-2.1708	-2.3458	-2.3438	-2.0792	-2.4771	-2.4542	-1.7333	-2.3688	-2.0208	-2.1042	-2.3	-2.0354	-2.2625	-2.2625	20.232	93.020	212.358	-112.124	-120.131	177.779	155.984	177.994	-21.535	28.053	38.855	-94.505	-122.999	140.555	127.894	122.227	0.00054248	0.00037051	0.00020116	1496	2.8962e-06	6.6291e-06	1487.5	426.95	5.2215e-06	2.2332e-06	482.13	154.05	133.77	46.535	2.1433e-06	56.938	0.00031935	0.00031519	8.7096e-05	1500.1	3.4547e-06	3.3838e-06	1493.2	428.79	3.4334e-06	3.3784e-06	480.59	153.67	129.87	46.641	3.414e-06	56.177	140.822	-96.855	-29.053	-119.238	-75.719	-5.466	-119.185	-114.503	-128.626	70.594	-115.350	-111.124	-111.334	-106.092	-11.332	-106.575	-8191	255	
976.949	1	1	0	0	0.24571	0.21462	0.11531	0.038612	0.15571	0.1274	0.084831	0.14857	0.17826	0.11325	0.22283	0.26611	0.18486	0.1301	0.25751	0.19368	-1.4792	-2.4458	-1.9146	-1.9417	-2.4104	-1.9833	-2.3688	-2.425	-1.9479	-2.1708	-2.2125	-2.0167	-2.4188	-2.0417	-2.2875	-2.2521	51.682	113.034	-43.018	-54.273	209.995	7.146	199.089	20.584	174.772	22.595	-78.980	-107.863	-8.029	-63.757	-30.480	-110.508	0.00072591	0.0004873	0.00010263	1500.3	2.8627e-06	3.2167e-06	1487.3	426.85	1.5635e-06	4.6297e-06	480.35	154.75	134.75	46.271	4.7031e-06	56.714	0.0003195	0.00031	8.632e-05	1501.7	3.4122e-06	3.4038e-06	1495.1	428.62	3.4809e-06	3.4517e-06	479.84	153.89	129.92	46.581	3.4555e-06	56.147	140.442	-86.285	-47.083	-118.739	218.423	-18.838	-119.511	-114.832	-91.595	45.837	-114.915	-111.249	-111.066	-105.256	86.069	-106.134	-8191	255	
977.021	1	1	0	0	0.17161	0.13853	0.15162	0.1076	0.20196	0.04628	0.13776	0.23388	0.18274	0.19586	0.20214	0.1986	0.11572	0.078501	0.1555	0.28772	-1.4771	-2.3375	-1.9896	-2.0083	-2.4083	-2.0208	-2.2833	-2.4583	-1.5187	-2.1479	-2.2062	-1.8667	-2.4229	-2.0833	-2.0521	-2.1312	-19.324	112.783	-109.475	136.316	-21.234	-8.695	40.737	184.093	58.670	44.890	124.419	185.200	-54.383	195.807	70.147	168.770	0.00076007	0.00041013	0.00015452	1497.1	3.2264e-06	4.4803e-06	1487.2	426.61	5.3563e-06	2.6261e-06	482.95	153.56	134.53	46.469	8.6984e-06	57.009	0.00031934	0.00031264	8.6809e-05	1500.3	3.436e-06	3.3709e-06	1493.8	428.71	3.44e-06	3.3883e-06	480.35	153.44	129.85	46.644	3.3974e-06	56.274	112.023	-46.595	-30.745	-118.977	-97.243	-13.318	-120.749	-115.861	-71.272	121.627	-116.254	-112.337	-112.003	-106.547	-6.853	-107.375	-8191	255	
977.142	1	1	0	0	0.15773	0.41762	0.043002	0.13141	0.14898	0.44311	0.34434	0.26111	0.28427	0.12979	0.14128	0.088393	0.15344	0.13312	0.064888	0.13883	-1.5896	-2.0604	-2.1375	-2.0146	-2.3583	-1.8729	-2.2938	-2.4458	-1.8083	-2.0812	-2.1458	-1.8188	-2.1125	-2.1312	-1.9271	-2.4271	74.591	-49.262	17.093	206.379	68.711	120.078	209.300	148.130	-92.131	82.343	182.031	206.078	133.965	-65.808	-133.377	12.455	0.00066595	0.00056287	0.00020199	1499.4	5.6933e-06	4.3195e-06	1486.3	425.03	6.4056e-06	4.6945e-06	479.96	153.8	135.25	46.488	1.0249e-05	56.828	0.0003188	0.00030775	8.5993e-05	1501.6	3.3898e-06	3.3899e-06	1494.6	428.25	3.4229e-06	3.406e-06	479.3	153.68	130.01	46.612	3.4303e-06	56.159	138.877	7.127	-56.130	-120.359	-23.641	-21.814	-120.146	-115.487	-103.037	86.669	-116.332	-111.995	-112.142	-106.120	-31.920	-106.811	-8191	255	
977.236	1	1	0	0	0.30011	0.36908	0.25761	0.29723	0.26789	0.35908	0.093055	0.15063	0.21662	0.18712	0.076674	0.12455	0.065669	0.22915	0.15141	0.31517	-1.55	-2.2646	-2.3042	-2.0312	-2.1208	-2.1333	-2.2313	-2.6333	-1.9813	-2.1021	-2.5583	-1.8833	-2.3937	-2.1	-2.0833	-2.3375	-16.378	52.347	200.248	223.955	-123.278	118.919	213.480	186.834	-3.950	-60.753	20.031	160.432	66.284	181.634	88.504	-96.837	0.00059605	0.00022409	0.0001802	1498	5.4059e-06	3.7869e-06	1489.9	426.06	4.6543e-06	1.0617e-06	481.24	153.38	134.44	46.342	2.0281e-06	56.309	0.00031962	0.0003155	8.6729e-05	1502.5	3.4233e-06	3.3887e-06	1496.6	428.15	3.4289e-06	3.4513e-06	480.1	153.43	129.86	46.565	3.4493e-06	56.092	122.130	-106.552	-61.334	-120.341	23.068	-34.226	-120.878	-116.461	-26.955	-102.684	-116.737	-112.831	-113.063	-106.956	-52.046	-107.009	-8191	255	
977.332	1	1	0	0	0.084463	0.021608	0.14069	0.44507	0.25767	0.2463	0.28011	0.1236	0.077392	0.25499	0.30987	0.098439	0.028292	0.28364	0.1389	0.23699	-1.5688	-2.0438	-2.1583	-2.1188	-2.2583	-2.4375	-2.0646	-2.6146	-2.0583	-2.2	-2.3417	-1.9729	-2.3792	-2.2687	-1.9396	-2.4521	4.610	90.435	70.715	180.305	213.186	-105.704	164.809	220.143	93.444	99.517	212.727	147.046	110.722	211.148	141.674	119.317	0.00043113	0.0005083	0.00012351	1496.2	3.8799e-06	3.4032e-06	1485.9	427.26	1.0307e-05	3.5573e-06	482.09	153.78	135.57	46.507	4.8304e-06	56.959	0.00031561	0.00031038	8.6004e-05	1500.9	3.4069e-06	3.3674e-06	1493.8	428.45	3.3922e-06	3.3683e-06	480.71	153.45	130.07	46.629	3.3849e-06	56.195	144.531	-78.667	-95.806	-119.921	-56.628	-48.524	-120.295	-115.608	-81.165	84.014	-115.656	-110.819	-109.393	-103.647	-9.699	-104.414	-8191	255	
977.428	1	1	0	0	0.074704	0.2925	0.04184	0.17539	0.32609	0.03147	0.093626	0.2118	0.1316	0.089243	0.19241	0.090416	0.041019	0.22608	0.17038	0.066105	-1.65	-2.075	-2.3875	-2.0062	-2.2687	-2.3604	-2.1458	-2.2792	-2.125	-2.0687	-2.4875	-2.0917	-2.1875	-2.2271	-2.0187	-2.3417	115.246	-42.127	71.385	225.458	204.447	215.548	122.503	170.850	-91.585	31.169	181.536	-15.806	210.566	212.552	-61.171	-2.995	0.00058547	0.0007787	7.8117e-05	1493.9	2.2801e-06	3.2983e-06	1480.2	427.41	6.35e-06	4.0785e-06	483.28	154.43	135.22	46.47	2.1464e-06	56.807	0.0003143	0.00030732	8.5319e-05	1498.9	3.3776e-06	3.3174e-06	1492.3	428.43	3.399e-06	3.3818e-06	480.45	153.64	129.83	46.672	3.3462e-06	56.165	133.423	-75.461	32.175	-120.415	-59.704	10.432	-120.909	-116.031	-73.132	26.472	-116.436	-112.261	-112.131	-106.234	18.667	-106.640	-8191	255	
977.549	1	1	0	0	0.11608	0.12607	0.15569	0.43729	0.19625	0.21398	0.22175	0.24756	0.19955	0.0324	0.11879	0.25917	0.13483	0.10226	0.1417	0.28357	-1.6479	-1.8333	-2.4313	-2.025	-2.175	-2.3375	-2.1125	-2.4979	-2.0583	-1.9354	-2.475	-2.2562	-2.1083	-2.5021	-1.8062	-2.2896	-23.649	91.081	-71.941	176.463	34.729	111.882	72.600	152.139	41.081	-126.364	145.128	203.731	-85.523	-84.515	-112.829	162.733	0.00061599	0.00034743	6.1186e-05	1504.6	6.3781e-06	1.1706e-06	1489	427.95	7.2294e-06	2.4654e-06	483.96	153.39	134.43	46.445	4.0527e-06	56.551	0.0003161	0.00030768	8.4619e-05	1502.4	3.3865e-06	3.3533e-06	1493.2	428.42	3.3594e-06	3.3232e-06	480.4	153.52	129.57	46.599	3.3501e-06	56.029	128.162	-18.540	-57.093	-117.196	-2.095	147.851	-117.663	-113.089	-41.110	53.301	-113.419	-109.331	-109.213	-103.672	53.268	-104.609	-8191	255	
977.621	1	1	0	0	0.20232	0.11343	0.13536	0.40593	0.13859	0.33757	0.12052	0.10084	0.17245	0.15897	0.11883	0.21053	0.079558	0.22385	0.31277	0.1409	-1.4292	-1.9708	-2.25	-2.1312	-2.1229	-2.2042	-2.1521	-2.2875	-2.2208	-2.0354	-2.525	-2.1437	-1.9042	-2.5271	-1.8104	-2.3187	-68.877	207.346	-80.242	174.485	45.383	-64.935	63.893	-77.247	134.866	128.119	18.760	-112.836	-4.766	-25.306	87.109	-68.736	0.00057904	0.00062563	0.00019739	1495.4	4.2613e-06	4.6803e-06	1489.7	426.66	5.08e-06	3.5456e-06	485.18	153.81	135.05	46.47	7.0901e-06	56.903	0.00030952	0.00030172	8.3904e-05	1499.1	3.3354e-06	3.2584e-06	1493.7	428.22	3.2629e-06	3.257e-06	480.34	153.55	129.48	46.571	3.2677e-06	56.078	131.980	-91.707	-46.353	-117.319	-121.072	-22.168	-117.627	-113.297	-78.864	103.894	-113.443	-109.475	-109.607	-103.771	18.874	-104.264	-8191	255	
977.741	1	1	0	0	0.13933	0.11695	0.12346	0.10471	0.049152	0.22529	0.10436	0.067965	0.24477	0.32569	0.072999	0.15557	0.11168	0.049306	0.12082	0.16281	-1.9479	-2.0229	-2.375	-2.2583	-2.0062	-2.3583	-2.1875	-2.2396	-2.3312	-2.0208	-2.4521	-2.1979	-1.9062	-2.2354	-1.8875	-2.0021	97.879	59.003	60.480	143.943	221.427	-13.092	-129.128	147.346	-88.728	91.915	-103.914	141.299	137.517	104.313	-116.554	-131.117	0.0004091	0.00047305	0.00013895	1502.9	3.7641e-06	5.9572e-06	1487.7	426.02	4.4965e-06	3.177e-06	482.75	154.36	134.59	46.408	5.6699e-06	56.959	0.00030282	0.00029827	8.3017e-05	1500.8	3.2975e-06	3.1967e-06	1493.1	427.84	3.3076e-06	3.2126e-06	479.52	153.53	129.45	46.594	3.2421e-06	56.183	149.616	-100.024	-53.287	-117.326	-81.395	-45.638	-118.824	-114.921	-100.242	31.067	-115.099	-111.390	-111.565	-106.173	-2.664	-107.388	-8191	255	
977.837	1	1	0	0	0.12825	0.15354	0.25211	0.16901	0.29256	0.11736	0.21283	0.1539	0.054927	0.29302	0.30098	0.15823	0.11463	0.06974	0.095849	0.29508	-1.7958	-2.0104	-2.2771	-2.3958	-1.8021	-2.2438	-2.3563	-2.0896	-2.3563	-1.9667	-2.4208	-2.2771	-1.9062	-2.3583	-2.1396	-1.9333	-81.835	-57.680	214.413	195.308	-100.139	146.793	87.184	162.534	1.688	-20.097	153.996	179.225	108.352	211.119	14.611	172.753	0.00051776	0.0003651	0.00017397	1498.4	3.5193e-06	4.3339e-06	1489.3	427.1	2.3064e-06	5.5552e-06	484.04	153.76	134.67	46.209	3.8282e-06	56.452	0.0003002	0.00029306	8.1172e-05	1501.3	3.2314e-06	3.2019e-06	1493.3	428.66	3.2218e-06	3.2119e-06	479.71	153.45	129.48	46.51	3.2715e-06	56.064	138.073	-17.281	-122.538	-120.321	-68.966	-57.959	-120.779	-116.198	-52.068	88.343	-116.441	-112.546	-112.540	-106.746	-27.389	-107.205	-8191	255	
977.934	1	1	0	0	0.074358	0.22477	0.18409	0.48342	0.27195	0.065251	0.29311	0.179	0.21451	0.14832	0.2055	0.14199	0.065149	0.24954	0.13745	0.045154	-1.8167	-1.8271	-2.2021	-2.4521	-2.1042	-2.1562	-2.2396	-2.0833	-2.1479	-1.7833	-2.1646	-2.3812	-1.8854	-2.3229	-2.0229	-1.9396	112.575	-14.817	164.318	-120.289	68.146	199.780	174.833	-72.963	-33.636	209.378	191.890	101.550	56.185	-79.622	-114.611	16.607	0.00068637	0.00024913	0.00019107	1493.6	2.4145e-06	4e-06	1486.5	428.06	8.1959e-06	3.7e-06	480.86	153.26	133.85	46.029	9.6101e-06	56.81	0.00030101	0.00029278	8.2723e-05	1498.1	3.2337e-06	3.2226e-06	1489.2	428.2	3.2654e-06	3.2155e-06	479.14	153.4	129.43	46.51	3.1952e-06	55.997	130.143	-99.034	-41.278	-120.011	-42.662	-58.403	-120.564	-115.260	-48.480	68.850	-115.750	-112.075	-111.837	-106.553	-51.288	-107.210	-8191	255	
978.030	1	1	0	0	0.36682	0.098505	0.089603	0.42238	0.15896	0.28072	0.13345	0.2281	0.033628	0.13831	0.16913	0.1486	0.1801	0.23318	0.15453	0.11899	-1.95	-1.7771	-2.2062	-2.3917	-1.8875	-2.3208	-2.2917	-2.0604	-2.4188	-1.9854	-2.3958	-2.5146	-1.9896	-2.3563	-2.1854	-2.1125	140.905	190.012	124.520	212.714	12.974	-92.912	218.229	172.479	132.015	166.690	91.858	157.835	125.813	-121.616	12.534	204.840	0.00066601	0.00036082	0.00013959	1498.9	1.123e-06	3.9672e-06	1481.4	426.46	5.7413e-06	6.5865e-06	481.77	153.83	134.62	46.565	3.7254e-06	56.582	0.0003022	0.00029591	8.1035e-05	1499.2	3.1795e-06	3.2035e-06	1490.4	428.51	3.1999e-06	3.1807e-06	480.13	153.51	129.27	46.622	3.1738e-06	55.96	144.811	-79.656	-0.324	-120.040	216.121	-78.769	-120.310	-115.910	-50.568	46.226	-116.241	-112.243	-112.168	-106.553	33.520	-106.900	-8191	255	
978.150	1	1	0	0	0.14049	0.094026	0.075023	0.27767	0.067528	0.11039	0.35461	0.18112	0.32795	0.16312	0.18428	0.18305	0.19877	0.13366	0.088689	0.27316	-2.075	-2.0042	-1.8833	-2.6396	-2.0375	-2.1604	-2.7313	-2.0479	-2.3771	-2.125	-2.175	-2.3917	-1.8521	-2.0542	-2.2542	-1.7958	137.315	110.696	152.439	176.836	127.930	29.837	206.913	168.847	38.423	-60.929	11.696	191.994	-52.479	177.612	-122.609	-122.762	0.00068022	0.00030296	8.362e-05	1498	2.1377e-06	2.6747e-06	1484.9	426.26	4.5019e-06	4.6537e-06	482.11	154.08	134.43	46.417	5.033e-06	56.359	0.00029533	0.00028589	7.9826e-05	1499.3	3.1811e-06	3.1824e-06	1491.5	428.22	3.1567e-06	3.152e-06	479.09	153.41	129.08	46.537	3.167e-06	55.893	129.064	-62.709	-59.233	-119.822	-78.547	3.092	-120.162	-115.559	213.273	5.978	-115.967	-111.972	-111.743	-106.090	-60.209	-107.000	-8191	255	
978.220	1	1	0	0	0.14897	0.29234	0.20089	0.32509	0.25041	0.25246	0.32686	0.10252	0.14731	0.17708	0.12113	0.099117	0.18854	0.12008	0.1458	0.10642	-1.7479	-2.0625	-1.8917	-2.6104	-2.175	-2.0938	-2.4771	-2.1771	-2.3667	-2.1854	-1.8937	-2.5438	-1.9479	-2.3438	-2.3854	-1.9604	13.646	15.779	-23.595	195.902	182.877	206.665	134.094	-126.397	127.303	67.155	186.453	88.851	18.256	-106.081	-107.036	-122.843	0.00052342	0.00016847	5.5414e-05	1496.7	3.9908e-06	3.3445e-06	1487.6	428.16	3.4946e-06	4.6447e-06	482.82	153.79	135.5	46.521	2.4753e-06	56.617	0.00029707	0.00028688	8.0066e-05	1498.2	3.1697e-06	3.1574e-06	1490.5	428.36	3.1962e-06	3.1557e-06	479.34	153.38	129.61	46.524	3.1735e-06	55.863	128.029	-12.273	-87.293	-119.025	-17.793	28.683	-117.819	-113.301	-39.599	66.986	-113.388	-109.444	-109.085	-103.576	-58.862	-104.646	-8191	255	
978.316	1	1	0	0	0.28081	0.20424	0.033557	0.22132	0.21437	0.22078	0.1331	0.21725	0.20664	0.12914	0.13607	0.058415	0.26252	0.070298	0.059597	0.28004	-1.7792	-1.9875	-1.9833	-2.4521	-2.1375	-2.1833	-2.4938	-2.0667	-2.0583	-2.2708	-2.0417	-2.4521	-2.0875	-2.0938	-2.4396	-2.0042	-9.395	9.974	36.161	196.288	-22.437	181.222	74.596	185.858	19.875	195.746	108.227	152.320	12.088	185.510	-42.924	157.053	0.00052798	0.00043704	0.00012498	1501.1	5.2467e-06	5.4217e-06	1488.6	427.72	9.3097e-06	5.3903e-06	483.08	154.24	134.97	46.407	1.9805e-06	56.78	0.00029554	0.00028827	8.052e-05	1499.1	3.1966e-06	3.1758e-06	1490.4	427.5	3.1929e-06	3.1678e-06	479.89	153.45	129.48	46.537	3.1361e-06	55.997	137.413	-81.249	-57.814	-117.266	-24.464	-19.861	-117.670	-113.228	-58.497	28.061	-113.433	-109.563	-109.475	-103.725	17.466	-104.347	-8191	255	
978.413	1	1	0	0	0.21395	0.19945	0.373	0.36993	0.26034	0.19061	0.44054	0.24266	0.14546	0.050033	0.14711	0.10541	0.45669	0.2004	0.07902	0.13633	-1.7563	-2.2375	-1.8021	-2.5667	-2.1167	-2.1417	-2.4688	-2.1458	-2.1958	-2.2354	-2.0833	-2.4125	-1.9604	-2.175	-2.4771	-1.9271	69.801	114.907	-46.071	206.844	67.546	-35.614	198.197	-107.835	179.333	-37.890	88.897	219.008	226.169	159.108	-127.984	131.153	0.00055127	0.0006924	0.00010304	1500.6	1.8467e-06	6.4412e-06	1486	427.22	2.4648e-06	6.609e-06	481.77	154.33	134.74	46.504	1.1749e-06	56.684	0.00029533	0.00028718	7.9716e-05	1498.3	3.1593e-06	3.1429e-06	1489.7	427.56	3.1681e-06	3.1484e-06	478.5	153.3	129.08	46.552	3.1301e-06	55.903	113.562	-68.204	-87.253	-117.289	-84.261	-30.112	-117.768	-113.344	24.796	37.976	-113.594	-109.514	-109.454	-103.620	-63.041	-104.304	-8191	255	
978.533	1	1	0	0	0.19481	0.10955	0.18412	0.12407	0.26868	0.15834	0.23746	0.30059	0.13341	0.073511	0.038505	0.41083	0.4871	0.083421	0.26988	0.4652	-1.8188	-2.2417	-1.6125	-2.325	-2.3125	-1.9438	-2.475	-2.15	-1.9021	-2.4479	-1.9062	-2.3104	-2.2646	-2.0771	-2.3958	-1.9312	-38.082	199.771	30.992	187.929	-5.598	40.658	196.535	220.761	190.435	88.866	217.183	161.731	134.304	170.366	-111.636	179.766	0.00057259	0.00035634	9.3498e-05	1493.6	3.4276e-06	3.4876e-06	1480.2	426.14	4.291e-06	4.4713e-06	479.43	153.45	135.37	46.232	1.8809e-06	56.633	0.00029637	0.00028561	8.0258e-05	1496.2	3.1459e-06	3.153e-06	1488.9	427.53	3.1898e-06	3.1301e-06	477.99	153.23	129.45	46.509	3.1661e-06	55.987	147.513	-11.884	-39.964	-119.900	19.120	-0.512	-120.988	-116.430	-100.321	5.814	-116.438	-112.491	-112.088	-106.300	97.308	-107.298	-8191	255	
978.629	1	1	0	0	0.14555	0.24089	0.064961	0.36424	0.17871	0.25719	0.17392	0.15422	0.5355	0.15094	0.1995	0.23034	0.26097	0.22919	0.095599	0.36939	-1.5479	-2.2021	-1.875	-2.35	-2.1375	-1.9146	-2.5375	-2.1312	-2.0708	-2.2958	-1.8438	-2.2125	-2.1375	-2.1	-2.4437	-2.0896	124.054	14.965	-40.682	220.434	200.961	217.945	184.490	86.969	-29.688	66.227	66.248	-117.501	188.807	-133.310	8.907	133.336	0.00064265	0.00041752	0.00014199	1494.9	4.067e-06	3.8851e-06	1485.7	425.61	4.9403e-06	4.9432e-06	481.64	153.86	134.64	46.355	2.3049e-06	56.911	0.00029723	0.00029126	8.0648e-05	1496.9	3.2046e-06	3.1729e-06	1489.3	427.64	3.209e-06	3.1527e-06	479.56	153.36	129.13	46.529	3.2158e-06	55.907	136.999	-73.438	-44.567	-119.712	-55.051	-25.809	-120.170	-115.786	2.830	32.533	-116.333	-112.079	-112.377	-106.392	-57.485	-106.882	-8191	255	
978.725	1	1	0	0	0.081746	0.13616	0.040657	0.075445	0.10166	0.20615	0.28448	0.19938	0.12864	0.042459	0.11352	0.095947	0.25079	0.14044	0.071583	0.15141	-1.8729	-2.4542	-1.8479	-2.5167	-2.1813	-1.7771	-2.6521	-2.2313	-1.8625	-2.45	-2.1562	-2.3583	-2.2833	-1.7208	-2.1688	-2.2333	13.756	-74.656	-132.623	220.370	9.312	215.354	-131.848	209.570	44.753	172.375	48.598	-110.884	-130.065	223.330	-96.727	99.681	0.00052868	0.00021845	0.0001195	1492.8	1.5416e-06	2.1172e-06	1486	426.57	6.7933e-06	5.0777e-07	483.04	153.86	135.02	46.186	7.8408e-06	56.579	0.00030012	0.00029254	8.0852e-05	1495	3.24e-06	3.1972e-06	1488.5	427.51	3.2428e-06	3.1382e-06	479.22	153.13	129.12	46.392	3.2002e-06	55.826	158.441	-111.704	-45.498	-119.851	212.354	184.499	-120.188	-115.596	-84.632	-36.295	-116.034	-111.843	-112.145	-106.456	57.027	-106.891	-8191	255	
978.822	1	1	0	0	0.1166	0.39525	0.24555	0.1195	0.12815	0.13438	0.031824	0.3765	0.25329	0.19677	0.34295	0.25592	0.090406	0.29588	0.22228	0.23686	-1.6604	-2.4271	-2.0729	-2.4354	-2.4313	-2.0833	-2.5104	-2.4792	-2.2792	-2.4479	-2.1333	-2.3	-2.425	-2.2438	-2.2604	-2.3896	-133.539	-85.817	25.661	-119.004	110.358	172.208	-110.339	169.754	177.550	-108.126	171.655	-23.850	-41.795	-108.870	-63.376	-84.830	0.00074077	0.00032674	0.00011697	1495.4	5.2375e-06	6.5962e-06	1483.5	427.06	7.7229e-06	4.4537e-06	480.32	153.94	134.37	46.338	4.3808e-06	56.77	0.00029848	0.00028868	8.0613e-05	1496.1	3.1835e-06	3.1552e-06	1486.5	427.59	3.2107e-06	3.1309e-06	478.69	153.17	129.26	46.482	3.1901e-06	55.937	136.143	-74.049	-6.567	-119.614	-50.373	16.324	-120.649	-116.034	-58.525	8.562	-116.203	-112.106	-112.214	-106.202	-16.659	-107.075	-8191	255	
978.918	1	1	0	0	0.056654	0.19353	0.10342	0.038759	0.30344	0.056346	0.23666	0.18119	0.18996	0.3373	0.14361	0.14925	0.22447	0.20138	0.088225	0.12671	-1.4375	-2.4417	-2.0771	-2.0604	-2.4104	-2.0875	-2.5125	-2.3667	-1.9875	-2.4375	-2.2896	-1.9979	-2.3438	-2.0438	-2.1979	-2.2833	219.519	62.235	34.171	-8.295	-113.330	-16.050	154.107	209.308	104.349	-78.733	173.404	149.793	64.880	142.660	4.975	92.472	0.00055558	0.00031276	8.3217e-05	1492.6	4.8668e-06	2.5131e-06	1481.8	425.79	5.7212e-06	3.5045e-06	479.96	153.75	133.41	46.432	7.1896e-07	56.314	0.00029691	0.00028571	8.0457e-05	1496.3	3.163e-06	3.1583e-06	1487.2	427.78	3.2499e-06	3.1266e-06	478.33	153.29	128.97	46.453	3.2319e-06	55.729	116.180	-123.540	-55.554	-119.876	1.899	0.918	-120.204	-115.640	-56.030	25.378	-116.015	-111.873	-111.510	-105.971	-2.152	-106.276	-8191	255	
979.014	1	1	0	0	0.32001	0.136	0.22844	0.23727	0.068503	0.27378	0.1758	0.14443	0.11555	0.15173	0.2178	0.23233	0.042389	0.29305	0.12643	0.13111	-1.4646	-2.3688	-2.1625	-2.1937	-2.2792	-1.975	-2.5354	-2.4646	-2.1479	-2.3312	-2.0771	-2.1125	-2.5208	-2.0333	-2.1042	-2.6021	149.036	18.893	-16.662	187.408	84.238	127.288	166.179	76.957	-101.677	86.889	28.477	95.797	125.813	126.131	57.081	70.131	0.00073414	0.00060836	0.00019046	1496.9	4.7032e-06	7.502e-06	1483.7	428.33	2.6099e-06	5.5235e-06	481.77	153.66	133.81	46.536	5.2392e-06	56.442	0.0002973	0.00028741	8.0671e-05	1495.1	3.1563e-06	3.1725e-06	1486.6	427.8	3.2373e-06	3.1488e-06	478.51	153.07	128.9	46.526	3.1821e-06	55.81	132.046	-40.129	-1.300	-117.308	-103.641	11.715	-117.821	-113.091	-25.614	79.440	-113.692	-109.409	-109.130	-103.708	10.219	-104.684	-8191	255	
979.110	1	1	0	0	0.18725	0.041426	0.11164	0.38075	0.09127	0.13029	0.18617	0.44749	0.21066	0.35401	0.16596	0.21495	0.22943	0.096159	0.12557	0.15486	-1.4813	-2.3792	-2.4562	-2.0479	-2.5	-2.3021	-2.1896	-2.5938	-2.1167	-2.3083	-2.3958	-1.9	-2.4479	-2.2687	-2.1063	-2.5438	108.900	-45.520	-70.117	192.705	103.435	76.143	-120.000	163.976	65.567	94.048	79.804	-126.853	120.928	213.225	78.591	211.963	0.00059175	0.0003762	0.00012294	1495.8	4.8114e-06	2.8526e-06	1481.5	427.48	4.1555e-06	6.9554e-06	484.08	153.87	135.71	46.395	3.7755e-06	56.834	0.00029893	0.00028742	8.098e-05	1494.9	3.1779e-06	3.0811e-06	1487	427.68	3.17e-06	3.1548e-06	479.27	153.07	129.41	46.511	3.1536e-06	55.857	128.445	-69.502	-24.294	-117.421	-19.665	-19.364	-117.697	-113.263	-109.554	103.300	-113.481	-109.655	-109.410	-103.714	-3.465	-104.008	-8191	255	
979.229	1	1	0	0	0.1119	0.2565	0.091333	0.28814	0.21139	0.14919	0.34917	0.16302	0.36083	0.12	0.15796	0.22185	0.25116	0.11914	0.20688	0.16881	-1.5	-2.4146	-2.1875	-2.0125	-2.4562	-2.2167	-2.3146	-2.4521	-1.9021	-2.1625	-2.2562	-1.9813	-2.4042	-2.1188	-1.7042	-2.1562	176.996	11.055	-50.410	169.666	-25.770	-93.072	214.408	152.333	-21.917	-41.729	-132.957	143.216	178.941	-132.284	-106.922	37.993	0.00066073	0.00049013	0.00017368	1497.9	1.6344e-06	3.4556e-06	1483.4	425.05	8.8821e-06	5.9743e-06	481.27	153.32	134.62	46.417	4.8997e-06	56.733	0.00029166	0.00028505	7.8315e-05	1497	3.1223e-06	3.1166e-06	1488.5	427.34	3.1804e-06	3.0888e-06	478.94	153.14	129.24	46.521	3.127e-06	55.969	138.986	-69.724	-27.758	-117.156	-125.625	-8.254	-118.225	-117.880	-87.733	-24.679	-117.109	-113.012	-112.783	-107.087	-47.050	-107.800	-8191	255	
979.325	1	1	0	0	0.2229	0.15991	0.22489	0.13575	0.30118	0.1509	0.14806	0.20097	0.25258	0.05896	0.086784	0.19363	0.16547	0.024394	0.25444	0.26219	-1.5604	-1.9583	-2.2271	-1.9479	-2.1708	-2.0438	-2.0625	-2.5542	-2.0812	-1.9604	-2.5271	-1.9583	-1.9375	-2.4375	-1.7812	-2.4354	180.284	-134.079	144.802	-90.201	-26.942	-20.134	57.509	-3.731	58.799	194.947	209.779	129.539	-133.270	155.002	84.562	9.530	0.00071324	0.00057452	5.1043e-05	1492.4	2.2464e-06	4.4082e-06	1485.1	426.62	2.8558e-06	4.1059e-06	482.9	153.36	134.41	46.351	6.2693e-06	56.512	0.00029476	0.00028714	7.8531e-05	1496.4	3.1888e-06	3.1195e-06	1488.2	427.76	3.1724e-06	3.1299e-06	479.26	153.02	129.39	46.566	3.1376e-06	55.885	133.675	-32.316	-3.017	-120.778	8.010	-12.751	-121.219	-116.480	-40.018	61.754	-116.644	-112.704	-113.255	-107.142	18.921	-107.335	-8191	255	
979.421	1	1	0	0	0.16174	0.2058	0.12953	0.25321	0.13621	0.058259	0.17615	0.23158	0.14066	0.26139	0.13678	0.37141	0.071984	0.20191	0.17656	0.037849	-1.5187	-1.8354	-2.3958	-2.0854	-2.1146	-2.0917	-2.1188	-2.4688	-2.0625	-2.0021	-2.3396	-2.025	-2.3583	-2.1479	-1.9875	-2.2271	115.793	-87.839	-18.472	141.786	184.444	86.254	162.839	148.690	204.640	-53.003	-125.774	36.165	33.385	174.984	96.629	-92.300	0.00048768	0.00047984	0.00016337	1495.5	5.9158e-06	3.1318e-06	1481.3	426.95	5.6712e-06	3.8891e-06	479.76	153.86	134.83	46.439	2.9823e-06	56.568	0.00029429	0.00028537	7.8885e-05	1496.9	3.1845e-06	3.1106e-06	1488.8	427.81	3.1652e-06	3.1438e-06	478.65	153.3	129.16	46.557	3.1243e-06	55.988	121.516	-41.841	6.262	-120.308	10.694	-41.585	-120.800	-116.473	-92.851	37.878	-116.534	-112.980	-112.426	-106.676	7.529	-107.345	-8191	255	
979.517	1	1	0	0	0.15903	0.27088	0.1426	0.35036	0.19284	0.256	0.11353	0.26299	0.17105	0.13657	0.23192	0.1724	0.22318	0.097456	0.27562	0.064641	-1.5938	-1.9354	-2.3229	-2.0563	-2.0542	-2.4188	-1.9729	-2.4729	-1.9958	-2.0396	-2.5208	-1.9417	-2.1104	-2.4396	-1.9062	-2.3792	207.268	-15.169	-27.837	211.980	83.015	-122.578	117.685	94.585	70.704	147.620	-117.339	170.727	-75.201	34.472	169.848	183.342	0.00050392	0.00019464	8.9321e-05	1491.4	4.802e-06	1.7446e-06	1477.9	425.76	3.826e-06	5.5492e-06	481.1	153.72	135.66	46.392	3.9226e-06	56.484	0.00029403	0.00028726	7.9844e-05	1496.9	3.1637e-06	3.093e-06	1485.8	427.83	3.1557e-06	3.1681e-06	478.21	153.34	129.48	46.587	3.195e-06	55.888	127.046	-111.410	-76.770	-120.827	-5.090	-32.192	-121.170	-116.460	-88.059	43.091	-116.694	-112.314	-112.312	-106.435	-62.295	-106.301	-8191	255	
979.614	1	1	0	0	0.15955	0.040769	0.07268	0.094029	0.14977	0.066156	0.0055595	0.1994	0.1652	0.18359	0.069951	0.021747	0.14004	0.20065	0.16423	0.20738	-1.6146	-1.9979	-2.2042	-2.3021	-2.1417	-2.3229	-1.975	-2.4688	-2.1625	-1.8833	-2.2771	-2.1458	-1.9688	-2.4708	-1.975	-2.2438	-78.599	187.074	120.864	214.979	161.599	84.713	-3.230	169.907	142.746	19.391	55.023	175.327	-42.326	76.642	151.583	138.472	0.00022511	0.00041649	0.00012347	1493.3	2.8668e-06	1.9599e-06	1484.2	426.36	2.3391e-06	1.6194e-06	480.03	153.29	135	46.217	3.9629e-06	56.389	0.00029667	0.0002869	7.9517e-05	1496.3	3.1624e-06	3.0919e-06	1490.1	428.26	3.1623e-06	3.1026e-06	478.45	153.2	129.19	46.442	3.146e-06	55.927	128.053	-82.651	15.140	-119.746	-94.431	50.939	-120.650	-115.800	-27.981	44.189	-116.696	-112.876	-112.765	-106.295	-76.360	-106.981	-8191	255	
979.710	1	1	0	0	0.38272	0.27003	0.044798	0.282	0.19983	0.26169	0.14298	0.47826	0.16402	0.2134	0.19475	0.31968	0.20778	0.052306	0.13956	0.069113	-1.7563	-1.7333	-2.2646	-2.3479	-2.0583	-2.325	-2.1792	-2.3646	-2.0771	-1.9042	-2.4333	-2.3042	-1.9958	-2.3729	-1.7479	-2.0125	-77.248	-77.593	-127.231	-118.746	113.505	33.529	174.724	172.809	53.946	-2.201	-52.088	153.364	85.911	180.673	-26.497	137.781	0.00053694	0.00049059	0.00010853	1493.9	3.3869e-06	3.7765e-06	1485.2	426.74	4.5558e-06	4.9121e-06	479.75	153	134.94	46.505	5.8699e-06	56.827	0.00029472	0.00028378	7.9477e-05	1495.8	3.1423e-06	3.0688e-06	1489.7	427.67	3.1245e-06	3.1172e-06	478.68	153.13	129.4	46.571	3.1448e-06	55.889	121.364	-85.749	-48.990	-119.837	20.243	-49.244	-120.227	-115.576	-129.760	7.509	-115.833	-112.957	-112.538	-106.559	-3.906	-107.594	-8191	255	
979.830	1	1	0	0	0.055747	0.23772	0.28209	0.062	0.10954	0.12753	0.063007	0.18475	0.19195	0.074686	0.16412	0.22406	0.10706	0.26851	0.22162	0.09223	-1.8646	-1.9917	-2.0875	-2.2646	-1.8563	-2.4417	-2.05	-2.1875	-2.2917	-2.0083	-2.4625	-2.2146	-1.9375	-2.3708	-2.0521	-2.0375	-90.600	92.494	-10.060	-67.940	140.443	73.638	20.449	129.337	190.483	44.242	168.591	220.900	-89.687	-110.905	134.991	140.266	0.00052685	0.00066774	0.00017818	1494.5	4.0855e-06	5.1331e-06	1480	425.35	6.5058e-06	6.9504e-06	480.44	153.47	135.64	46.226	7.878e-06	56.605	0.00028924	0.00028416	7.9791e-05	1497.5	3.0993e-06	3.0807e-06	1488.5	427.65	3.1005e-06	3.0964e-06	478.29	153.26	129.31	46.514	3.1294e-06	55.888	131.518	-9.529	7.121	-120.890	-80.333	60.997	-121.016	-116.586	-54.680	43.149	-116.745	-112.575	-112.570	-106.849	38.462	-107.097	-8191	255	
979.926	1	1	0	0	0.16599	0.29386	0.14261	0.26743	0.045464	0.15198	0.32418	0.036398	0.15223	0.11071	0.047056	0.087776	0.28854	0.13371	0.089794	0.19667	-2.0563	-1.9479	-2.0833	-2.3521	-2.0125	-2.425	-2.2208	-2.3125	-2.5417	-1.9312	-2.2917	-2.5104	-2.0312	-2.5375	-1.9312	-2.0604	216.123	218.939	-50.134	176.877	215.817	66.098	159.334	12.711	-112.186	-117.985	-74.729	-46.827	137.533	143.544	165.368	170.084	0.00084906	0.00046754	0.00016625	1495.6	6.9148e-06	4.5043e-06	1484.4	427.17	3.3102e-06	3.1494e-06	480.85	153.86	135.39	46.62	3.1224e-06	56.928	0.0002916	0.00028201	7.8446e-05	1497.1	3.0857e-06	3.0689e-06	1488.8	427.59	3.1093e-06	3.1098e-06	478.8	153.35	129.4	46.582	3.1183e-06	55.972	119.726	-93.201	-14.748	-119.765	-33.374	-10.590	-119.666	-115.232	-88.742	12.964	-114.532	-109.314	-109.746	-103.679	-50.014	-104.339	-8191	255	
980.023	1	1	0	0	0.070876	0.30733	0.063237	0.18287	0.07098	0.22559	0.27696	0.25584	0.18464	0.28518	0.26063	0.26282	0.23326	0.21988	0.0928	0.15265	-2.1125	-1.9479	-2.15	-2.5938	-1.9271	-2.3937	-2.2812	-2.0896	-2.3333	-1.9958	-2.1813	-2.5	-2.0417	-2.4938	-2.1854	-2.0042	226.520	-48.027	-115.234	166.231	-63.320	52.612	-125.323	151.768	55.845	65.383	139.267	217.418	117.558	215.475	104.080	200.482	0.00045061	0.00047013	0.00010928	1496.3	5.7966e-06	1.7887e-06	1487.9	427.36	7.7919e-06	3.5708e-06	481.67	154.17	135.3	46.696	2.2973e-06	57.049	0.00029249	0.00028457	7.8637e-05	1496.1	3.0888e-06	3.0314e-06	1491.1	428.17	3.098e-06	3.0835e-06	478.93	153.13	129.24	46.619	3.1003e-06	55.997	139.611	-18.331	-52.196	-117.331	-28.661	36.786	-117.910	-113.079	-58.880	10.775	-113.233	-109.685	-108.972	-103.643	-52.295	-104.382	-8191	255	
980.117	1	1	0	0	0.18827	0.14404	0.052678	0.30216	0.073406	0.18079	0.15539	0.09014	0.073498	0.40321	0.15528	0.073528	0.26375	0.20552	0.14682	0.19803	-1.9188	-2.1771	-2.2583	-2.5687	-1.9583	-2.3021	-2.2812	-2.1167	-2.3854	-2.1146	-2.2104	-2.55	-2.1104	-2.4896	-2.2833	-1.9708	125.741	174.833	10.546	166.815	-52.536	47.416	105.670	-7.587	-98.462	-22.740	112.085	177.129	175.336	179.992	31.995	-112.421	0.00067162	0.00026057	0.00017782	1498.2	1.915e-06	3.6801e-06	1483.2	429.82	5.1776e-06	1.5799e-06	480.88	153.71	136.43	46.436	5.7213e-06	56.565	0.0002955	0.00028344	7.7876e-05	1496.3	3.132e-06	3.0602e-06	1488	428.34	3.1425e-06	3.0965e-06	478.62	153.24	129.48	46.503	3.0931e-06	55.866	138.460	-48.270	-24.027	-117.290	-38.044	0.625	-117.819	-113.162	-95.865	33.483	-113.401	-109.340	-108.986	-103.491	-65.661	-104.113	-8191	255	
980.213	1	1	0	0	0.1624	0.14009	0.18681	0.14511	0.24035	0.11861	0.12786	0.28682	0.14972	0.085031	0.22277	0.13535	0.30153	0.10868	0.049191	0.15774	-2.2729	-2.1	-1.9729	-2.5771	-2.1063	-2.2542	-2.6479	-2.0333	-2.3208	-2.0792	-2.225	-2.3917	-1.9062	-2.2021	-2.3417	-1.9458	-108.067	7.312	90.961	155.076	123.963	149.730	96.061	-128.821	128.246	-120.533	125.771	147.195	207.211	-2.112	175.667	198.426	0.00060735	0.0006369	8.5103e-05	1501	3.4582e-06	2.987e-06	1488.9	425.09	4.9393e-06	5.2449e-06	481.45	153.39	135.12	46.094	8.3093e-06	56.633	0.00028739	0.00028304	7.7699e-05	1496.9	3.1165e-06	3.0536e-06	1488.6	427.41	3.097e-06	3.0238e-06	478.82	153.26	129.07	46.446	3.0654e-06	55.88	128.333	-74.432	-52.117	-117.261	-131.706	-32.638	-117.822	-116.395	-52.783	54.148	-116.999	-112.699	-112.611	-106.498	-53.126	-107.394	-8191	255	
980.309	1	1	0	0	0.18865	0.24555	0.22318	0.30807	0.092719	0.16819	0.20258	0.27801	0.10018	0.21612	0.21685	0.33327	0.19127	0.35754	0.091688	0.27558	-1.8833	-2.1937	-1.7104	-2.6125	-2.0604	-2.1917	-2.5708	-2.0917	-2.3583	-2.3167	-2.0625	-2.5396	-2.0687	-2.1583	-2.3646	-2.0292	3.950	-3.150	-46.997	-132.337	-81.704	39.006	146.380	213.389	159.498	208.498	221.721	194.537	158.537	196.262	154.161	138.325	0.00062515	0.00032193	9.3334e-05	1494	5.1725e-06	8.0965e-07	1482.4	427	3.972e-06	2.9785e-06	481.51	153.56	134.55	46.547	2.1892e-06	56.612	0.00028611	0.00027702	7.6363e-05	1496.8	3.061e-06	3.024e-06	1488.7	427.66	3.082e-06	3.0057e-06	478.26	153.04	129.05	46.578	3.0244e-06	55.9	135.192	-89.724	-34.485	-120.589	-55.702	-55.096	-120.707	-116.087	75.788	2.525	-115.794	-111.816	-112.079	-106.522	-22.872	-107.635	-8191	255	
980.405	1	1	0	0	0.20322	0.10669	0.18154	0.42486	0.24686	0.1147	0.36529	0.28821	0.2296	0.062863	0.17371	0.34095	0.082321	0.26799	0.28908	0.13357	-1.8792	-2.2562	-1.7708	-2.6854	-2.0042	-2.1125	-2.4938	-2.1333	-2.2417	-2.0979	-1.975	-2.5792	-1.8667	-2.0938	-2.4229	-1.9083	112.638	77.965	-5.432	208.745	154.404	98.344	125.252	133.811	191.418	-5.499	202.902	206.861	2.122	191.885	-4.053	96.459	0.00067165	2.6018e-05	0.00011612	1490.6	4.8694e-07	2.5509e-06	1480	424.62	5.3159e-06	5.0561e-06	480.5	154.22	134.68	46.497	6.166e-06	56.581	0.00028317	0.00027454	7.6583e-05	1494.1	3.0229e-06	3.0006e-06	1487.5	427.14	3.0383e-06	2.9531e-06	477.7	153.27	128.74	46.542	2.9511e-06	55.863	138.144	53.100	-72.850	-120.378	90.524	-6.806	-121.017	-116.360	-60.432	102.170	-116.856	-113.023	-112.881	-106.838	-22.051	-107.818	-8191	255	
980.502	1	1	0	0	0.20773	0.32957	0.12739	0.44199	0.10747	0.2173	0.13062	0.085861	0.22022	0.19774	0.21979	0.15175	0.080071	0.10885	0.077192	0.065089	-1.6354	-2.3937	-1.8229	-2.4021	-1.9729	-2.0438	-2.475	-2.0042	-2.0979	-2.4688	-2.0354	-2.2271	-2.075	-1.9833	-2.3083	-1.9604	175.278	-113.401	132.968	203.319	-16.200	212.764	146.747	50.009	-81.984	60.816	165.835	153.901	-115.325	-21.988	0.193	-47.169	0.00057861	0.00050545	0.00011035	1489	2.3826e-06	2.0719e-06	1482.3	427.26	2.1365e-06	3.9775e-06	482.33	154.16	134.53	46.421	4.5684e-06	56.907	0.00027792	0.00026848	7.5133e-05	1493.9	2.9571e-06	2.9195e-06	1487.6	428.11	2.9824e-06	2.9322e-06	478.94	153.44	128.61	46.577	2.9532e-06	55.955	153.753	-41.510	-51.755	-120.537	220.838	-36.804	-121.133	-116.350	222.886	25.249	-117.014	-113.085	-112.732	-107.007	-58.550	-107.398	-8191	255	
980.622	1	1	0	0	0.057917	0.18599	0.23673	0.28422	0.21274	0.19954	0.32802	0.14152	0.043309	0.077812	0.36421	0.25292	0.41184	0.15622	0.13486	0.27664	-1.6667	-2.2458	-1.5146	-2.4625	-1.9729	-1.9083	-2.2792	-2.1792	-1.9854	-2.5396	-1.8708	-2.3375	-2.2042	-2.0542	-2.2125	-2.1688	31.008	206.125	224.496	182.647	9.435	0.762	104.533	-50.231	114.217	-79.071	-124.378	-96.477	131.930	175.778	140.473	164.082	0.00063819	0.0007271	0.00018614	1493.1	2.5161e-06	4.8773e-06	1485.7	427.09	5.2085e-06	6.2874e-06	482.33	154	135.4	46.66	1.7222e-06	56.871	0.00027482	0.0002681	7.4279e-05	1495.6	2.9538e-06	2.898e-06	1490.5	428.03	2.9618e-06	2.9175e-06	478.08	153.38	129.12	46.633	2.921e-06	55.922	123.293	-59.988	-80.731	-120.243	-45.538	6.635	-120.931	-116.687	-73.951	74.714	-116.572	-111.968	-111.774	-105.932	-81.673	-104.450	-8191	255	
980.718	1	1	0	0	0.095708	0.28117	0.072574	0.071108	0.089291	0.11172	0.24498	0.020125	0.1838	0.067878	0.19462	0.056327	0.083593	0.21867	0.34964	0.1203	-1.5312	-2.3167	-1.7958	-2.1604	-2.3979	-1.8583	-2.5125	-2.0396	-1.9771	-2.2271	-2.1104	-2.4854	-2.3375	-1.7792	-2.2229	-2.1542	-129.902	15.473	119.603	159.394	31.488	135.923	-114.259	-5.436	200.057	67.869	156.610	96.951	193.879	218.233	17.130	175.272	0.00055314	0.00064613	5.9329e-05	1499	3.4521e-06	4.6053e-06	1486.9	428.47	3.2972e-06	5.852e-06	482.19	154.26	135.8	46.642	1.2446e-06	56.788	0.00027731	0.0002661	7.353e-05	1496.4	2.9567e-06	2.8743e-06	1488.3	428.22	2.9582e-06	2.9147e-06	478.03	153.11	129.04	46.586	2.9284e-06	55.869	122.682	-41.647	36.267	-117.278	-78.162	-28.097	-117.953	-113.130	-65.952	7.686	-113.400	-109.237	-109.428	-103.797	-16.685	-104.152	-8191	255	
980.790	1	1	0	0	0.19561	0.25125	0.16918	0.17747	0.082195	0.039993	0.29624	0.1627	0.23282	0.18196	0.13219	0.33934	0.28319	0.16194	0.16009	0.086994	-1.4333	-2.5312	-1.775	-2.5687	-2.3771	-1.7854	-2.4875	-2.3229	-2.0708	-2.2083	-2.1979	-2.1854	-2.1458	-2.0958	-2.3187	-2.3833	191.334	134.055	145.463	193.292	189.613	1.620	204.533	160.199	125.786	86.915	132.757	32.551	202.987	-41.107	107.922	-31.119	0.00060754	2.4836e-05	0.00012332	1501	5.9952e-06	7.0585e-07	1482.4	428.34	2.2225e-06	5.1495e-06	483.34	154.52	136.01	46.756	8.3885e-06	56.966	0.00027386	0.00026604	7.4519e-05	1493.4	2.8812e-06	2.9165e-06	1487.4	428.31	2.9609e-06	2.9076e-06	478.67	153.39	129.05	46.654	2.8681e-06	55.939	123.445	59.838	-36.880	-117.169	-44.538	-112.022	-117.911	-113.303	-90.595	75.740	-113.323	-109.477	-109.630	-103.549	4.867	-104.436	-8191	255	
980.911	1	1	0	0	0.29655	0.13583	0.085933	0.24231	0.19022	0.11903	0.17143	0.3179	0.17396	0.11569	0.09702	0.2926	0.27858	0.136	0.076398	0.013646	-1.5875	-2.3417	-2.1229	-2.375	-2.3187	-2.025	-2.425	-2.4562	-1.9104	-2.3896	-2.175	-2.0646	-2.5333	-2.0396	-2.4354	-2.2917	-37.504	-116.532	130.048	188.335	5.445	122.889	220.251	167.756	187.725	67.034	226.288	227.162	218.646	210.683	10.810	194.332	0.00059808	0.00083094	6.6363e-05	1494.3	3.4502e-06	4.0882e-06	1479.4	428.06	4.686e-06	3.1607e-06	482.45	154.45	136.22	46.583	1.4625e-06	56.938	0.00027182	0.00026368	7.3855e-05	1494.2	2.8771e-06	2.8589e-06	1484.8	428.39	2.9126e-06	2.848e-06	478.76	153.41	129.06	46.602	2.8933e-06	55.89	134.223	-68.810	-26.509	-117.185	-64.425	-38.166	-117.742	-113.024	-32.338	-20.872	-113.570	-109.380	-108.828	-103.713	-13.483	-104.315	-8191	255	
981.007	1	1	0	0	0.1584	0.14301	0.06963	0.41744	0.16253	0.1213	0.36398	0.015516	0.12802	0.16725	0.14344	0.16184	0.28117	0.11437	0.063099	0.26531	-1.4937	-2.5	-1.9062	-2.3333	-2.2438	-2.1729	-2.3292	-2.4208	-2.1	-2.2979	-2.3521	-2.2229	-2.5083	-2.0125	-2.2729	-2.4437	117.159	-118.534	67.016	173.302	-1.751	31.158	200.732	27.713	39.950	143.810	135.739	175.903	180.172	145.941	-27.142	-81.240	0.00065048	0.00042632	0.00012946	1497.2	5.9866e-06	3.8874e-06	1489.7	431.61	4.4458e-06	5.9918e-06	482.54	155.1	136.61	46.823	1.2476e-06	57.336	0.00027252	0.00026256	7.3127e-05	1494.1	2.8626e-06	2.8123e-06	1488.4	429.71	2.9197e-06	2.8733e-06	479.77	154.05	129.25	46.761	2.8539e-06	56.039	118.865	-48.806	-16.424	-117.049	-88.692	-32.125	-117.788	-113.173	-62.161	30.909	-113.311	-109.286	-109.669	-103.808	-20.201	-104.532	-8191	255	
981.103	1	1	0	0	0.17526	0.29176	0.1472	0.36174	0.099113	0.20857	0.37671	0.18493	0.037122	0.20581	0.17615	0.082216	0.2149	0.033277	0.34008	0.21117	-1.4562	-2.3708	-2.325	-2.1771	-2.5479	-1.8771	-2.3021	-2.4375	-1.9104	-2.2292	-2.4208	-1.9271	-2.4583	-2.2438	-2.1958	-2.5062	178.665	-10.940	-18.907	206.402	193.309	-86.269	169.641	203.087	168.054	-75.707	134.192	179.522	191.465	148.505	100.254	20.642	0.00047167	0.00016396	1.9867e-05	1500.9	6.0222e-06	3.1019e-06	1489.3	430.65	3.0638e-06	2.4702e-06	484.65	155.5	136.47	46.913	4.837e-06	57.314	0.00026773	0.00025891	7.1334e-05	1497.5	2.8345e-06	2.8242e-06	1491	430.47	2.8392e-06	2.8104e-06	480.04	154.27	129.52	46.845	2.8564e-06	56.085	131.286	33.232	-74.671	-117.202	-3.085	18.859	-117.859	-113.207	-113.076	-41.291	-113.689	-109.394	-108.960	-103.872	15.215	-104.324	-8191	255	
981.222	1	1	0	0	0.07957	0.25629	0.22629	0.092186	0.15989	0.19113	0.29643	0.44216	0.14847	0.10613	0.21074	0.072784	0.10691	0.14248	0.221	0.15299	-1.6542	-2.2687	-2.2583	-2.15	-2.4437	-2.2458	-2.2292	-2.4458	-1.8104	-2.2979	-2.3292	-2.1729	-2.3208	-2.3521	-2.1354	-2.3438	-83.440	-83.763	203.680	117.928	72.652	-69.632	143.885	131.733	153.848	-77.803	-70.367	-115.411	-1.095	-81.342	155.219	192.753	0.00064418	0.00049627	0.00014418	1500.3	4.6408e-06	3.978e-06	1489.9	430.08	7.6477e-06	3.0767e-06	485.01	155.06	137.03	46.965	2.5416e-06	57.293	0.00026704	0.00025662	7.1825e-05	1496.5	2.8451e-06	2.8217e-06	1491	430.16	2.8915e-06	2.798e-06	480.21	153.74	129.26	46.812	2.8536e-06	56.079	133.631	-48.312	-2.094	-117.303	23.686	-34.969	-117.844	-113.209	-83.959	61.861	-113.618	-109.310	-109.256	-103.919	8.958	-104.021	-8191	255	
981.318	1	1	0	0	0.033119	0.2079	0.13243	0.29926	0.11748	0.18382	0.34256	0.14587	0.22011	0.06229	0.14268	0.31023	0.23595	0.19116	0.12784	0.18292	-1.8	-2.1146	-2.2875	-2.0812	-2.2313	-2.2146	-2.2292	-2.4021	-2.0583	-2.175	-2.3688	-1.6604	-2.4062	-2.4021	-2.0854	-2.4	87.399	67.903	-104.643	193.792	168.649	-98.926	199.506	152.649	216.210	186.119	201.786	224.468	-62.603	156.612	-111.860	204.217	0.00054256	0.00051771	0.00018168	1496.1	8.9793e-06	3.903e-06	1492.1	431.19	1.3249e-06	3.5148e-06	485.24	155	135.2	46.591	4.1723e-06	57.124	0.00026691	0.00025532	7.0629e-05	1497.1	2.8286e-06	2.7801e-06	1490.6	430.11	2.8159e-06	2.8002e-06	479.96	154.16	129.25	46.721	2.7993e-06	56.044	130.854	-78.351	-53.347	-117.395	-63.352	9.014	-117.812	-113.153	-128.283	44.842	-113.385	-109.464	-109.400	-103.642	5.983	-104.432	-8191	255	
981.390	1	1	0	0	0.2479	0.037081	0.15131	0.31404	0.046485	0.28111	0.09944	0.086543	0.21922	0.21285	0.12427	0.099663	0.13087	0.24799	0.10518	0.25853	-1.7292	-2.2646	-2.2417	-2.1083	-2.3583	-2.1437	-2.0292	-2.5167	-1.9937	-2.1417	-2.525	-2.1771	-2.2188	-2.2083	-1.9917	-2.2125	49.996	114.023	-78.969	185.671	-99.344	-25.622	208.041	151.673	215.603	-54.232	-59.406	91.989	-107.891	-112.516	-107.690	108.141	0.0005353	0.00032599	0.00015212	1498.9	1.0975e-06	2.8808e-06	1491.4	430.89	4.3058e-06	5.1524e-06	485.22	155.63	136.74	47.003	4.2172e-06	57.034	0.00026119	0.00025452	7.0623e-05	1496.9	2.8235e-06	2.7476e-06	1490.5	430.79	2.8631e-06	2.7565e-06	480.57	154.3	129.44	46.838	2.7774e-06	56.053	117.266	-52.572	-45.442	-117.337	-37.547	13.722	-117.897	-113.231	-17.175	31.415	-113.416	-109.747	-109.401	-103.852	-26.957	-104.257	-8191	255	
981.510	1	1	0	0	0.036177	0.25022	0.25374	0.31091	0.25026	0.12508	0.11739	0.13323	0.11513	0.050491	0.16796	0.2627	0.090124	0.24581	0.099079	0.059728	-1.575	-1.9458	-2.3563	-2.0438	-2.1292	-2.3396	-2.0271	-2.4917	-2.1458	-2.0271	-2.55	-2.0917	-2.1167	-2.45	-1.9792	-2.4125	43.911	125.533	139.042	177.017	24.291	-80.268	194.775	-26.535	131.253	-12.201	112.955	209.007	203.494	-87.929	36.051	68.958	0.00082464	0.00017242	4.0052e-05	1504.6	3.2707e-06	8.7068e-07	1491.7	429.4	4.15e-06	2.1121e-06	485.01	155.5	135.19	46.919	2.6952e-06	57.047	0.0002663	0.00025588	6.963e-05	1499.6	2.795e-06	2.7841e-06	1490.4	430.05	2.8257e-06	2.8246e-06	480.38	154.18	129.1	46.827	2.814e-06	56.035	132.564	-47.287	-62.371	-117.418	-30.048	-21.038	-117.980	-113.085	-68.610	79.186	-113.315	-109.824	-109.132	-103.659	-48.527	-104.438	-8191	255	
981.606	1	1	0	0	0.12326	0.21783	0.1648	0.096872	0.375	0.044869	0.28893	0.096155	0.15906	0.11666	0.18284	0.11054	0.22948	0.20235	0.22291	0.059322	-1.8146	-2.1667	-2.4021	-2.2625	-2.2521	-2.3729	-2.1667	-2.4583	-2.3187	-2.0229	-2.6833	-2.0958	-2.1875	-2.4938	-2.0625	-2.3187	222.824	-128.777	115.243	97.945	-110.280	86.847	122.770	139.770	41.614	32.116	200.338	-76.036	30.813	167.996	170.139	-104.081	0.00065735	0.00051557	9.6024e-05	1494.5	4.282e-06	3.9989e-06	1490.1	431.16	4.8084e-06	9.0584e-06	483.99	154.97	136.42	46.986	5.1894e-06	57.214	0.00026274	0.00025796	7.0697e-05	1496.1	2.8111e-06	2.7639e-06	1491.6	430.76	2.8207e-06	2.779e-06	480.55	154.06	129.67	46.872	2.8007e-06	56.095	126.843	-60.515	-68.739	-117.228	-26.353	8.841	-117.809	-113.273	-105.606	60.051	-113.506	-109.420	-109.373	-103.779	26.873	-104.442	-8191	255	
981.703	1	1	0	0	0.1477	0.10685	0.1497	0.26022	0.019932	0.27675	0.28561	0.077633	0.22304	0.042319	0.1896	0.10479	0.067827	0.19877	0.33037	0.090001	-2.0375	-1.75	-2.3479	-2.1354	-2.0187	-2.4354	-2.3063	-2.3875	-2.2271	-2.0229	-2.3896	-2.3146	-2.0479	-2.4229	-2.0771	-2.0229	6.460	225.237	79.974	200.851	62.320	-84.482	-19.957	-93.451	35.058	-52.675	120.240	-47.428	-99.976	-63.018	-122.604	214.873	0.00078597	0.00044763	0.00010651	1500.5	3.3418e-06	2.0532e-06	1490.6	432.1	9.976e-06	3.4995e-06	483.81	155	135.16	47.011	6.1427e-06	56.945	0.00026229	0.00025783	7.0965e-05	1498.5	2.798e-06	2.7906e-06	1493.6	431.1	2.8324e-06	2.8225e-06	479.7	154.18	129.34	46.799	2.858e-06	56.031	133.269	-4.347	-71.488	-117.284	0.442	17.602	-117.844	-113.047	-55.150	48.746	-113.477	-109.504	-109.612	-104.027	-30.304	-104.244	-8191	255	
981.799	1	1	0	0	0.41179	0.25457	0.26283	0.049025	0.16424	0.030348	0.44493	0.19369	0.22551	0.1769	0.098656	0.20024	0.2994	0.048746	0.10313	0.072953	-1.8583	-1.8958	-2.3146	-2.4208	-2.0167	-2.4	-2.1458	-2.3167	-2.1958	-1.9146	-2.4125	-2.1417	-1.9208	-2.3229	-2.1562	-2.2771	185.243	176.909	-56.864	117.293	228.185	112.874	123.547	182.423	-49.546	121.382	209.306	-95.900	-83.856	205.896	22.391	52.482	0.00056348	0.00050509	8.5568e-05	1501.3	2.3235e-06	1.9691e-06	1487.4	431.01	7.4837e-07	6.1241e-06	483.87	155.09	136.7	46.878	3.2856e-06	57.175	0.00026223	0.00025594	7.1656e-05	1496.6	2.8225e-06	2.761e-06	1490.7	430.57	2.8317e-06	2.8078e-06	480.05	154.04	129.37	46.849	2.8102e-06	56.106	129.789	-74.822	-110.968	-117.355	-31.360	45.569	-118.028	-113.191	-4.116	12.355	-113.210	-109.470	-109.759	-103.580	22.916	-104.281	-8191	255	
981.895	1	1	0	0	0.12279	0.1153	0.20414	0.13741	0.19927	0.10098	0.3966	0.26795	0.12919	0.045036	0.36966	0.27751	0.06344	0.025169	0.05626	0.093743	-1.8875	-1.925	-2.3083	-2.5854	-2	-2.4938	-2.3812	-2.0875	-2.2042	-1.9417	-2.2542	-2.2417	-1.9646	-2.3792	-2.0333	-2.2271	-6.640	178.460	-129.215	-90.864	-31.534	197.344	226.583	105.297	27.818	-58.207	191.892	-131.039	212.410	-90.512	59.332	-12.547	0.00064296	0.00049269	7.2284e-05	1501.4	3.8763e-07	5.2984e-06	1487	430.74	7.3256e-06	5.758e-06	482.71	155.79	136.03	46.915	6.8341e-06	56.945	0.00026359	0.0002559	7.1249e-05	1499.3	2.8531e-06	2.806e-06	1490.8	430.61	2.8289e-06	2.7985e-06	479.71	154.4	129.57	46.84	2.8012e-06	56.033	126.142	-112.362	-45.923	-117.296	48.854	-33.086	-117.695	-113.241	-84.598	79.492	-113.623	-109.773	-109.218	-103.754	-12.041	-104.426	-8191	255	
982.014	1	1	0	0	0.071499	0.26784	0.23294	0.19094	0.05896	0.080097	0.27858	0.1812	0.2179	0.28202	0.18464	0.17985	0.11283	0.2346	0.19295	0.34915	-1.9625	-2.1104	-2.1458	-2.3125	-1.8229	-2.4333	-2.4458	-2.1729	-2.3896	-1.8937	-2.3208	-2.3729	-1.7708	-2.3333	-2.0917	-1.8	93.165	-38.932	83.039	221.583	16.692	164.383	-87.068	211.709	55.208	95.348	57.026	220.974	207.875	-119.159	66.973	112.915	0.00072132	0.0004363	7.4033e-05	1499.9	3.5154e-06	4.537e-06	1487.6	430.19	2.9976e-06	4.3968e-06	484.59	155.29	136.81	46.835	4.8357e-06	57.409	0.00026247	0.00025419	7.1046e-05	1498.2	2.8073e-06	2.7486e-06	1488.8	430.18	2.794e-06	2.7721e-06	480.62	154.14	129.5	46.762	2.7734e-06	56.173	127.074	-69.553	-79.150	-117.303	-50.041	-2.818	-117.805	-113.236	227.065	42.930	-113.706	-109.569	-109.855	-103.615	-34.410	-104.464	-8191	255	
982.087	1	1	0	0	0.15153	0.10262	0.18737	0.26643	0.23078	0.12528	0.12093	0.10573	0.13616	0.22206	0.39979	0.26074	0.30989	0.090482	0.30019	0.12163	-1.9312	-2.1063	-2.1646	-2.5104	-2	-2.2708	-2.5146	-2.2104	-2.4021	-2.0375	-2.1479	-2.4562	-1.8708	-2.5125	-2.0563	-1.8396	125.599	-24.077	188.595	163.576	218.854	-105.637	185.299	-13.497	227.894	-104.660	178.166	133.591	11.256	14.019	-108.013	93.920	0.00059602	0.0007495	0.0001131	1501.6	2.2304e-06	5.114e-06	1488.4	430.29	6.5321e-06	5.3296e-06	483.27	156.08	136	46.902	6.6366e-06	57.162	0.00026333	0.00025078	7.0687e-05	1499.3	2.8331e-06	2.7621e-06	1490.9	430.53	2.8317e-06	2.7422e-06	479.96	154.48	129.56	46.861	2.8024e-06	56.036	139.162	-30.842	-89.392	-117.233	70.839	-43.222	-117.638	-113.257	-113.502	70.550	-113.465	-109.551	-109.594	-103.673	13.796	-104.195	-8191	255	
982.183	1	1	0	0	0.14084	0.2052	0.1871	0.11697	0.10943	0.2963	0.35941	0.14461	0.11451	0.11234	0.40529	0.20597	0.12348	0.14377	0.14697	0.32832	-2.0146	-2.0958	-1.7917	-2.5729	-2.2062	-2.1354	-2.4083	-1.9958	-2.1646	-2	-2.2021	-2.4708	-1.9771	-2.3875	-2.3875	-1.9667	-54.806	22.631	88.305	143.879	-15.263	39.077	183.865	212.780	9.008	150.340	165.531	177.264	-65.928	191.132	47.724	-126.746	0.00055306	0.00040119	7.5666e-05	1502.5	2.8297e-06	2.6501e-06	1488.7	429.93	5.1426e-06	1.7218e-06	482.67	155.14	136.48	46.636	4.9779e-06	57.326	0.00026234	0.00025348	7.0259e-05	1498.2	2.8313e-06	2.7522e-06	1490	430.68	2.8395e-06	2.7646e-06	479.57	154.3	129.44	46.722	2.7999e-06	56.004	123.694	-82.993	18.193	-117.322	-42.675	57.309	-119.243	-115.123	-53.292	4.214	-115.654	-111.748	-111.687	-106.343	-43.065	-106.844	-8191	255	
982.302	1	1	0	0	0.24366	0.22854	0.11939	0.32593	0.10088	0.021826	0.34275	0.25124	0.1752	0.33029	0.22861	0.44339	0.31771	0.22556	0.13264	0.069515	-1.9854	-1.9854	-1.8146	-2.5875	-1.8875	-2.2083	-2.375	-2.3229	-2.4042	-2.075	-1.9417	-2.4562	-1.7979	-2.1646	-2.425	-1.8979	-125.897	-111.469	-118.760	-105.706	44.816	212.130	114.095	213.827	-100.135	138.079	-117.475	194.326	-53.199	128.424	-20.497	-39.122	0.00072487	0.00059882	3.4951e-05	1491.5	5.9707e-06	3.0672e-06	1483.3	427.7	2.1077e-06	3.559e-06	480.71	155.51	135.28	46.587	4.2246e-06	56.822	0.00026384	0.00025432	7.0735e-05	1494.6	2.7927e-06	2.7565e-06	1487.8	429.68	2.8099e-06	2.7767e-06	478.68	154.41	129.34	46.7	2.8142e-06	55.981	138.221	-77.592	-15.812	-120.666	-76.781	-22.709	-121.027	-116.553	-92.965	64.394	-116.754	-112.716	-112.640	-106.849	-45.232	-107.441	-8191	255	
982.398	1	1	0	0	0.07104	0.1582	0.16478	0.37626	0.09998	0.29699	0.082435	0.31047	0.16419	0.17879	0.26563	0.17903	0.2751	0.1128	0.21169	0.11301	-1.7812	-2.1375	-1.9167	-2.4667	-1.8917	-1.9854	-2.5187	-2.0771	-2.1271	-2.0875	-2.0854	-2.3979	-2.0979	-2.1833	-2.5604	-1.9833	-72.337	121.775	142.923	182.935	116.294	-5.210	10.704	207.350	-29.952	-127.264	173.361	77.638	-125.552	-64.314	186.054	-111.617	0.00054283	0.00030178	0.00011135	1494.1	6.4053e-06	4.7767e-06	1484	428.75	5.1553e-06	1.7895e-06	481.7	154.94	135.73	46.61	7.2532e-06	56.967	0.00026397	0.00025547	7.1102e-05	1495.4	2.7979e-06	2.7789e-06	1487.2	429.47	2.8536e-06	2.8117e-06	478.87	153.98	129.06	46.673	2.7529e-06	55.945	130.702	-24.912	-70.660	-120.201	-55.563	-25.638	-120.589	-115.861	-118.483	38.011	-116.453	-112.357	-111.929	-106.376	-11.330	-107.215	-8191	255	
982.495	1	1	0	0	0.19609	0.16404	0.15951	0.18904	0.21534	0.11614	0.16933	0.13066	0.048474	0.075509	0.07568	0.28036	0.15312	0.23591	0.16139	0.17686	-1.6	-2.2208	-1.9979	-2.5396	-2.1396	-2.0125	-2.4833	-2.2333	-1.9729	-2.4	-1.9708	-2.5021	-2.2542	-2.1312	-2.3688	-1.9	146.095	132.314	-98.740	-124.859	45.675	72.893	147.976	153.630	159.422	-9.166	83.368	217.710	-94.581	196.526	-63.297	-75.914	0.00074916	0.00059263	0.00012674	1498.7	9.1499e-07	5.6975e-06	1483.1	430.53	3.0269e-06	2.6554e-06	482.35	154.41	135	46.713	4.5662e-06	56.944	0.00026347	0.00025492	7.0802e-05	1495.3	2.7641e-06	2.7658e-06	1487.7	430.09	2.7812e-06	2.7519e-06	478.78	153.86	128.99	46.703	2.752e-06	55.932	123.346	-54.711	-87.638	-119.954	8.843	9.764	-120.460	-115.773	-41.581	42.201	-116.471	-112.420	-112.091	-107.152	-121.096	-107.398	-8191	255	
#DATA ENDS
