BOXY.EXE: ISS Imagent and Oximeter Data Acquisition Program Version 0.80
Ascii Record File

#ACQ INFORMATION
2  Detector Channels 
16  External MUX Channels 
1  Auxiliary Channels 
5000  Waveform (CCF) Frequency (Hz)
1  Waveforms Skipped 
30  Waveforms Averaged 
1  Cycles Averaged 
16  Acquisitions per Waveform 
10.0806  Updata Rate (Hz) 

#FILE INFORMATION
TRUE -- External MUX Channel results are PARSED.
FALSE -- AC DC and Phase are NOT grouped.
TRUE -- Companion Program Settings File CREATED.
FALSE -- AC data not excluded
FALSE -- DC data not excluded
FALSE -- Phase data not excluded
FALSE -- Auxillary Chn. data not excluded
Tab delimiters

#CALIBRATION STATE
TRUE -- Waveform Calibration Values APPLIED.


#AUX CALIBRATION VALUES
Val Type	aux-1	

Term	1.0000e+00	
Factor	0.0000e+00	


#WF CALIBRATION VALUES
A = Detector Channel
Val Type	A-AC1	A-AC2	A-AC3	A-AC4	A-AC5	A-AC6	A-AC7	A-AC8	A-AC9	A-AC10	A-AC11	A-AC12	A-AC13	A-AC14	A-AC15	A-AC16	A-DC1	A-DC2	A-DC3	A-DC4	A-DC5	A-DC6	A-DC7	A-DC8	A-DC9	A-DC10	A-DC11	A-DC12	A-DC13	A-DC14	A-DC15	A-DC16	A-Ph1	A-Ph2	A-Ph3	A-Ph4	A-Ph5	A-Ph6	A-Ph7	A-Ph8	A-Ph9	A-Ph10	A-Ph11	A-Ph12	A-Ph13	A-Ph14	A-Ph15	A-Ph16	

Term	0.00000e+00	0.00000e+00	0.00000e+00	0.00000e+00	0.00000e+00	0.00000e+00	0.00000e+00	0.00000e+00	0.00000e+00	0.00000e+00	0.00000e+00	0.00000e+00	0.00000e+00	0.00000e+00	0.00000e+00	0.00000e+00	0.00000e+00	0.00000e+00	0.00000e+00	0.00000e+00	0.00000e+00	0.00000e+00	0.00000e+00	0.00000e+00	0.00000e+00	0.00000e+00	0.00000e+00	0.00000e+00	0.00000e+00	0.00000e+00	0.00000e+00	0.00000e+00	0.00000e+00	0.00000e+00	0.00000e+00	0.00000e+00	0.00000e+00	0.00000e+00	0.00000e+00	0.00000e+00	0.00000e+00	0.00000e+00	0.00000e+00	0.00000e+00	0.00000e+00	0.00000e+00	0.00000e+00	0.00000e+00	
Factor	1.00000e+00	1.00000e+00	1.00000e+00	1.00000e+00	1.00000e+00	1.00000e+00	1.00000e+00	1.00000e+00	1.00000e+00	1.00000e+00	1.00000e+00	1.00000e+00	1.00000e+00	1.00000e+00	1.00000e+00	1.00000e+00	1.00000e+00	1.00000e+00	1.00000e+00	1.00000e+00	1.00000e+00	1.00000e+00	1.00000e+00	1.00000e+00	1.00000e+00	1.00000e+00	1.00000e+00	1.00000e+00	1.00000e+00	1.00000e+00	1.00000e+00	1.00000e+00	X	X	X	X	X	X	X	X	X	X	X	X	X	X	X	X	

B = Detector Channel
Val Type	B-AC1	B-AC2	B-AC3	B-AC4	B-AC5	B-AC6	B-AC7	B-AC8	B-AC9	B-AC10	B-AC11	B-AC12	B-AC13	B-AC14	B-AC15	B-AC16	B-DC1	B-DC2	B-DC3	B-DC4	B-DC5	B-DC6	B-DC7	B-DC8	B-DC9	B-DC10	B-DC11	B-DC12	B-DC13	B-DC14	B-DC15	B-DC16	B-Ph1	B-Ph2	B-Ph3	B-Ph4	B-Ph5	B-Ph6	B-Ph7	B-Ph8	B-Ph9	B-Ph10	B-Ph11	B-Ph12	B-Ph13	B-Ph14	B-Ph15	B-Ph16	

Term	0.00000e+00	0.00000e+00	0.00000e+00	0.00000e+00	0.00000e+00	0.00000e+00	0.00000e+00	0.00000e+00	0.00000e+00	0.00000e+00	0.00000e+00	0.00000e+00	0.00000e+00	0.00000e+00	0.00000e+00	0.00000e+00	0.00000e+00	0.00000e+00	0.00000e+00	0.00000e+00	0.00000e+00	0.00000e+00	0.00000e+00	0.00000e+00	0.00000e+00	0.00000e+00	0.00000e+00	0.00000e+00	0.00000e+00	0.00000e+00	0.00000e+00	0.00000e+00	-2.04106e+02	-1.47295e+02	-1.31471e+02	-1.83006e+02	-1.05308e+02	-9.56335e+01	-1.57489e+02	-1.62015e+02	-1.04563e+02	-3.96514e+01	-1.72066e+02	-1.71987e+02	-1.87133e+02	-1.76833e+02	-7.95936e+01	-1.54913e+02	
Factor	7.03256e-05	1.41041e-04	4.05673e-05	1.70326e-01	1.62816e-06	1.33254e-06	1.95207e-01	5.96007e-02	1.84989e-06	1.49910e-06	1.05898e-01	4.16366e-02	9.64820e-02	1.05399e-02	1.79118e-06	2.58797e-02	1.57653e-06	1.61043e-06	4.48186e-07	8.61403e-02	1.75392e-08	1.76000e-08	9.27146e-02	3.00841e-02	1.75714e-08	1.76740e-08	5.11745e-02	1.99295e-02	4.41448e-02	5.29322e-03	1.75939e-08	1.20619e-02	X	X	X	X	X	X	X	X	X	X	X	X	X	X	X	X	



#DISTANCE SETTINGS
A = Detector Channel
A-1	A-2	A-3	A-4	A-5	A-6	A-7	A-8	A-9	A-10	A-11	A-12	A-13	A-14	A-15	A-16	

2.5000e+00	3.0000e+00	2.5000e+00	3.0000e+00	2.0000e+00	3.0000e+00	1.5000e+00	3.0000e+00	3.0000e+00	3.0000e+00	3.0000e+00	3.0000e+00	3.0000e+00	3.0000e+00	1.5000e+00	3.0000e+00	

B = Detector Channel
B-1	B-2	B-3	B-4	B-5	B-6	B-7	B-8	B-9	B-10	B-11	B-12	B-13	B-14	B-15	B-16	

1.0000e+01	1.0000e+01	1.0000e+01	1.4400e+00	1.0000e+01	1.0000e+01	1.5100e+00	1.9400e+00	1.0000e+01	1.0000e+01	1.9900e+00	2.4900e+00	2.4100e+00	2.9000e+00	1.0000e+01	2.9800e+00	




#DATA BEGINS
time	group	step	mark	flag	A-AC1	A-AC2	A-AC3	A-AC4	A-AC5	A-AC6	A-AC7	A-AC8	A-AC9	A-AC10	A-AC11	A-AC12	A-AC13	A-AC14	A-AC15	A-AC16	A-DC1	A-DC2	A-DC3	A-DC4	A-DC5	A-DC6	A-DC7	A-DC8	A-DC9	A-DC10	A-DC11	A-DC12	A-DC13	A-DC14	A-DC15	A-DC16	A-Ph1	A-Ph2	A-Ph3	A-Ph4	A-Ph5	A-Ph6	A-Ph7	A-Ph8	A-Ph9	A-Ph10	A-Ph11	A-Ph12	A-Ph13	A-Ph14	A-Ph15	A-Ph16	B-AC1	B-AC2	B-AC3	B-AC4	B-AC5	B-AC6	B-AC7	B-AC8	B-AC9	B-AC10	B-AC11	B-AC12	B-AC13	B-AC14	B-AC15	B-AC16	B-DC1	B-DC2	B-DC3	B-DC4	B-DC5	B-DC6	B-DC7	B-DC8	B-DC9	B-DC10	B-DC11	B-DC12	B-DC13	B-DC14	B-DC15	B-DC16	B-Ph1	B-Ph2	B-Ph3	B-Ph4	B-Ph5	B-Ph6	B-Ph7	B-Ph8	B-Ph9	B-Ph10	B-Ph11	B-Ph12	B-Ph13	B-Ph14	B-Ph15	B-Ph16	aux-1	digaux	

957.478	1	1	0	256	0.081307	0.2113	0.1281	0.16118	0.12157	0.051733	0.23898	0.29192	0.12621	0.29421	0.25884	0.10141	0.4454	0.06133	0.091511	0.36137	-1.8667	-1.7167	-2.1063	-2.3917	-1.6229	-2.3292	-2.2958	-1.8375	-2.3354	-1.7437	-2.2146	-2.3208	-1.8292	-2.1292	-1.9771	-1.825	80.470	-121.141	129.296	-119.539	-0.617	157.331	165.848	92.148	84.683	42.576	-7.314	108.814	167.605	147.493	34.281	-49.239	0.00028471	0.00022828	6.1186e-05	1158.2	1.9829e-07	1.4217e-06	1258.8	248.33	6.4677e-06	4.8999e-06	315	84.865	66.658	18.957	3.4647e-06	26.432	0.00029894	0.00029589	8.2557e-05	1130.8	3.2236e-06	3.1605e-06	1234.7	244.74	3.187e-06	3.1699e-06	308.17	84.579	66.891	19.277	3.1636e-06	26.942	116.417	-63.990	195.754	-118.054	111.704	164.363	-118.016	-110.631	-118.414	-13.224	-110.651	-104.199	-104.576	-95.622	54.459	-96.983	-8191	255	
957.597	1	1	0	0	0.18368	0.13373	0.26675	0.12929	0.045632	0.15212	0.17204	0.14616	0.17986	0.1558	0.16917	0.12132	0.11971	0.16001	0.048511	0.18958	-1.7125	-1.8458	-2.025	-2.2521	-1.9583	-2.1604	-2.2229	-2.0146	-2.2	-2.1104	-2.0771	-2.1708	-1.8958	-2.2125	-2.1208	-1.8771	212.910	-17.470	-51.224	-123.994	75.698	51.291	97.407	144.551	-118.352	39.517	-65.209	102.060	122.323	-62.089	-127.256	168.490	0.00031516	0.00053628	0.00011329	1154.1	2.5723e-06	2.4541e-06	1253.9	246.67	2.5554e-06	3.7938e-06	312.32	84.737	67.481	19.031	5.8029e-06	26.503	0.00028514	0.00028512	7.845e-05	1127.2	3.1316e-06	3.049e-06	1229.1	243.53	3.0479e-06	3.0444e-06	306.34	84.464	66.806	19.294	3.0934e-06	26.973	129.364	-21.207	-5.267	-117.836	109.328	-40.346	-118.093	-110.888	-34.376	46.969	-110.711	-104.541	-104.321	-95.784	-14.740	-97.103	-8191	255	
957.693	1	1	0	0	0.17147	0.14278	0.12309	0.13485	0.16382	0.1429	0.052976	0.13489	0.059793	0.094692	0.1583	0.12084	0.29752	0.20699	0.32143	0.13528	-1.7458	-1.9562	-2.0521	-2.6125	-1.7188	-2.0875	-2.2542	-1.7208	-2.3479	-2.0333	-1.9625	-2.1958	-1.9396	-1.9542	-2.3896	-1.7646	153.876	153.911	20.809	177.327	228.650	-67.420	40.777	-125.175	-53.824	200.368	160.800	-86.252	124.226	-88.146	95.805	139.455	0.00014763	0.00029496	0.00015085	1149.2	5.3862e-06	2.7032e-06	1251.8	246.6	3.0311e-06	9.7824e-07	313.58	84.429	66.874	18.945	3.7946e-06	26.346	0.00028518	0.0002847	7.9844e-05	1124.8	3.1731e-06	3.1816e-06	1229.1	243.35	3.2703e-06	3.2392e-06	308.47	84.487	67.385	19.359	3.327e-06	27.062	80.187	-40.995	-43.446	-117.930	-121.988	47.160	-117.917	-110.259	-18.743	56.715	-110.516	-103.812	-103.559	-96.043	22.232	-96.034	-8191	255	
957.789	1	1	0	0	0.19078	0.27976	0.26565	0.28343	0.051128	0.19006	0.26859	0.19409	0.080876	0.2192	0.059783	0.039594	0.24031	0.085093	0.1505	0.11012	-1.7083	-2.0062	-2.0187	-2.5229	-2.1417	-2.1292	-2.3875	-2.1688	-2.2917	-2.2354	-1.9667	-2.4333	-2.0083	-1.9958	-2.4167	-1.8167	-18.112	51.093	-48.976	140.059	230.669	-112.497	179.805	200.868	202.631	104.015	135.465	28.010	96.105	204.958	133.344	-83.225	0.00037121	0.00070197	9.8685e-05	1151.8	2.5197e-06	2.6357e-06	1255.1	246.93	6.8849e-07	5.5121e-07	313.71	85.075	67.103	19.053	3.0333e-06	26.51	0.00030363	0.00030451	8.3354e-05	1124	3.3074e-06	3.2935e-06	1228.3	243.71	3.2285e-06	3.1991e-06	307.49	84.613	67.019	19.303	3.1519e-06	26.993	112.641	-75.082	-52.221	-114.812	-125.270	-56.736	-115.024	-107.993	-2.631	210.406	-108.156	-101.286	-102.283	-93.258	70.481	-93.657	-8191	255	
957.885	1	1	0	0	0.037117	0.14844	0.07518	0.19399	0.14905	0.13328	0.031896	0.16171	0.14493	0.11509	0.21904	0.20911	0.23244	0.055418	0.1358	0.24859	-1.8771	-2.0208	-1.8979	-2.3604	-2.1396	-2.075	-2.3792	-1.9958	-1.9458	-2.1354	-1.8792	-2.1708	-1.9188	-1.7938	-2.2917	-1.8771	55.873	231.046	51.639	162.655	7.618	137.015	27.173	-37.983	3.761	-44.105	147.479	-97.525	40.674	188.646	-117.620	87.467	0.00024844	0.00016211	7.6692e-05	1155.6	3.7684e-06	2.2569e-06	1254.6	246.47	1.1449e-06	5.8735e-07	312.72	85.039	66.38	19.019	1.5056e-06	26.44	0.00029386	0.00029301	8.1225e-05	1126.9	3.2707e-06	3.2956e-06	1230.9	243.94	3.331e-06	3.3554e-06	308.1	84.889	67.727	19.439	3.4332e-06	27.18	103.508	-23.495	11.105	-115.267	176.431	58.772	-115.220	-107.839	1.916	196.284	-110.124	-104.554	-104.329	-95.968	66.141	-96.381	-8191	255	
957.981	1	1	0	0	0.14125	0.15465	0.1231	0.27544	0.20882	0.20395	0.32022	0.31198	0.16418	0.11347	0.21931	0.30857	0.12098	0.18326	0.12386	0.2328	-1.65	-2.3208	-1.6958	-2.3771	-1.95	-1.8771	-2.4792	-1.8083	-2.1292	-2.1312	-1.8167	-2.2396	-2.1188	-1.9896	-2.45	-1.8875	132.668	-27.991	170.128	187.370	64.247	-99.928	183.833	86.783	-73.310	208.823	46.805	138.139	-10.845	-83.840	-112.077	93.305	0.00045012	0.00024292	4.9393e-05	1156.1	4.9897e-06	4.021e-06	1254.6	247.43	3.4365e-06	4.9396e-06	312.82	85.02	67.728	19.161	1.9219e-06	26.504	0.00031858	0.00031629	8.7182e-05	1129	3.4815e-06	3.409e-06	1233.4	244.82	3.4091e-06	3.4471e-06	309.06	84.972	67.718	19.495	3.3974e-06	27.351	113.688	-8.814	-63.706	-118.048	-28.385	46.071	-118.230	-111.059	134.507	81.102	-110.633	-104.246	-104.618	-96.401	219.409	-97.416	-8191	255	
958.078	1	1	0	0	0.13094	0.2815	0.02329	0.2606	0.22601	0.055258	0.26746	0.17858	0.12787	0.28645	0.054714	0.10458	0.1143	0.1371	0.068028	0.11834	-1.6333	-2.1646	-1.7083	-2.3229	-2.0438	-1.8771	-2.3646	-1.7792	-2.1396	-2.2604	-1.7167	-2.2146	-2.0938	-1.7854	-2.2625	-2.05	185.249	212.019	163.494	-119.298	-40.529	-123.273	113.689	69.698	-46.717	101.514	-49.658	-118.167	-94.341	49.500	135.712	-125.106	0.00018124	6.314e-05	3.5612e-05	1151.1	3.8032e-06	5.0538e-06	1263.4	247.02	3.2065e-06	3.7127e-06	313.74	84.609	67.175	19.087	5.1089e-06	26.603	0.00031183	0.00031087	8.6757e-05	1126.8	3.3791e-06	3.3286e-06	1234.9	244.59	3.3936e-06	3.3427e-06	309.14	84.894	67.523	19.44	3.2835e-06	27.291	147.895	123.666	45.412	-118.044	-94.553	31.810	-118.338	-111.317	-50.522	56.616	-110.744	-104.101	-104.624	-96.560	11.400	-96.010	-8191	255	
958.174	1	1	0	0	0.3877	0.16638	0.16756	0.19277	0.27527	0.089893	0.18976	0.23649	0.54734	0.18978	0.16045	0.11884	0.26091	0.03776	0.098666	0.16531	-1.45	-2.3479	-1.7188	-2.1604	-2.0167	-1.9354	-2.2438	-2.0396	-1.9708	-2.3563	-1.7458	-2.2646	-2.2604	-1.65	-2.1792	-2.0271	222.736	105.817	180.031	209.656	159.871	154.583	47.330	186.156	-23.929	224.922	-109.747	25.772	-44.753	66.525	193.378	-104.097	0.00011779	0.00039779	0.00012609	1150.5	4.83e-06	1.6697e-06	1260.3	248.09	6.1084e-06	5.3777e-06	310.91	84.405	66.658	19.114	5.5604e-06	26.575	0.0003027	0.0003054	8.5039e-05	1128	3.348e-06	3.3534e-06	1234.1	244.48	3.397e-06	3.3823e-06	308.83	85.039	67.635	19.479	3.47e-06	27.341	134.040	-57.468	-26.098	-117.688	-34.871	-34.030	-118.009	-110.950	-65.293	100.009	-110.991	-104.829	-104.950	-96.513	0.259	-97.209	-8191	255	
958.294	1	1	0	0	0.36426	0.28076	0.24057	0.044493	0.1182	0.30027	0.25116	0.16406	0.11263	0.20609	0.22477	0.076992	0.058842	0.21408	0.20514	0.18712	-1.6375	-2.4437	-1.8958	-2.2729	-2.0979	-1.9146	-2.4208	-1.9833	-1.9083	-2.3604	-1.8687	-2.0542	-2.3312	-1.7958	-2.1562	-1.9896	-91.962	145.906	75.480	-117.424	82.076	194.155	211.710	125.660	2.965	-58.948	187.306	193.092	59.631	54.262	-46.038	-111.437	4.4218e-05	0.00044889	3.549e-05	1150.9	5.2501e-06	4.5889e-06	1255.4	246.95	5.0918e-06	5.0429e-06	313.02	84.492	67.22	18.968	7.2891e-06	26.461	0.00031786	0.00032012	8.9692e-05	1129.2	3.5408e-06	3.4824e-06	1233	245.29	3.512e-06	3.522e-06	309.32	85.235	67.904	19.479	3.4371e-06	27.263	67.102	-122.151	21.795	-118.182	-24.162	21.303	-118.443	-111.012	-63.462	0.921	-110.977	-104.825	-105.148	-96.810	5.163	-97.487	-8191	255	
958.391	1	1	0	0	0.13534	0.24866	0.20396	0.23721	0.29033	0.25918	0.23121	0.032032	0.20101	0.11899	0.17803	0.10025	0.095398	0.23287	0.14546	0.062804	-1.425	-2.1979	-1.775	-1.9542	-2.3292	-1.9042	-2.2812	-2.4729	-1.6458	-2.1937	-2	-2.0896	-2.4562	-1.925	-2.3104	-2.1646	-63.788	182.856	221.470	143.963	204.623	-113.074	172.301	135.845	21.389	9.916	-113.697	-89.167	64.552	-61.267	-30.903	-98.100	0.00035196	0.00048731	0.00010026	1157	4.632e-06	2.2027e-06	1257.8	247.52	7.0076e-06	3.155e-06	313.94	84.85	66.524	19.092	5.0306e-06	26.775	0.0003137	0.0003175	8.8193e-05	1130	3.4573e-06	3.4491e-06	1234.8	245.27	3.4793e-06	3.4383e-06	309.84	85.169	67.791	19.492	3.4706e-06	27.345	142.522	-58.834	-3.234	-118.362	-35.791	-110.814	-118.621	-111.455	-125.393	21.119	-111.266	-105.102	-104.565	-96.381	-0.507	-96.779	-8191	255	
958.487	1	1	0	0	0.040506	0.063644	0.20029	0.16432	0.22223	0.027686	0.14262	0.065042	0.0593	0.23669	0.13572	0.13865	0.18688	0.11079	0.084168	0.20161	-1.3729	-2.2396	-1.9813	-2.0187	-2.4313	-1.925	-2.15	-2.2792	-1.7729	-2.2146	-1.9813	-1.9312	-2.5208	-1.9792	-2.2083	-2.2333	17.589	-109.593	146.907	156.772	76.199	53.914	154.446	213.025	-33.413	-3.362	64.458	68.564	-6.978	-86.436	108.280	-46.016	0.00024491	0.00053555	6.0371e-05	1147.8	1.8949e-06	4.0963e-06	1259.2	247.37	4.807e-06	3.34e-06	311.86	84.357	67.068	19.118	6.3133e-06	26.799	0.00032206	0.00031516	8.6313e-05	1127.5	3.4566e-06	3.4296e-06	1233.2	244.78	3.437e-06	3.4455e-06	308.45	84.814	67.823	19.443	3.3498e-06	27.342	153.247	-70.720	-71.407	-117.885	143.470	124.360	-118.201	-110.806	-4.398	107.815	-111.474	-104.954	-104.594	-96.877	73.264	-96.812	-8191	255	
958.583	1	1	0	0	0.13462	0.085221	0.22744	0.27666	0.10076	0.20763	0.31759	0.31396	0.14141	0.15773	0.29029	0.22602	0.10271	0.31948	0.14371	0.087533	-1.6208	-2.2208	-2.0042	-2.1312	-2.3375	-1.9667	-2.0229	-2.1771	-1.8417	-2.1312	-2.2625	-1.9917	-2.3688	-1.8792	-2.0062	-2.3271	146.124	215.031	59.037	224.354	97.513	203.550	-89.305	211.754	164.632	122.421	174.644	-55.265	184.967	-100.418	-71.012	227.282	0.00032794	0.00022688	8.1488e-05	1150.7	3.0177e-06	4.8821e-06	1260.4	246.5	3.0672e-06	4.6259e-06	311.77	84.898	66.872	18.94	7.9299e-06	26.606	0.00030388	0.00030405	8.403e-05	1125	3.2765e-06	3.2477e-06	1231.9	243.94	3.2815e-06	3.1836e-06	307.63	84.661	66.974	19.326	3.1433e-06	27.076	146.235	-78.527	225.763	-118.220	-73.268	41.936	-118.704	-111.054	219.267	21.254	-110.542	-104.766	-104.578	-96.782	0.202	-96.879	-8191	255	
958.677	1	1	0	0	0.10082	0.28647	0.16231	0.0091912	0.19383	0.099454	0.22825	0.19441	0.40293	0.10858	0.31696	0.26753	0.22915	0.1076	0.23026	0.28045	-1.4167	-2.0083	-2.0917	-2.0083	-2.3104	-2	-2.0542	-2.3208	-1.7437	-2.0208	-2.3583	-1.8896	-2.2875	-1.9292	-1.7146	-2.3	51.134	103.656	1.308	-24.387	102.939	-15.796	-108.247	-88.648	-36.503	186.198	118.838	130.966	-79.307	57.535	-128.482	210.571	0.00032678	0.00040679	7.3163e-05	1149.3	1.8671e-06	2.6536e-06	1240.4	246.6	3.133e-06	5.592e-07	310.97	84.3	65.731	18.981	4.8957e-06	26.854	0.00028214	0.00028584	7.9567e-05	1121.7	3.1505e-06	3.1096e-06	1222.8	243.38	3.1638e-06	3.1308e-06	306.11	84.274	66.473	19.378	3.1048e-06	27.105	174.875	-24.558	-22.239	-117.819	-44.535	60.197	-118.397	-110.551	-74.691	-106.423	-110.576	-104.080	-104.266	-96.807	100.179	-96.745	-8191	255	
958.773	1	1	0	0	0.17387	0.16187	0.14048	0.17824	0.055859	0.040392	0.11125	0.16984	0.10692	0.14057	0.27324	0.16683	0.18884	0.42084	0.1773	0.18506	-1.3667	-1.8854	-2.0312	-1.8583	-2.2167	-1.9062	-1.9937	-2.35	-1.7479	-2.2208	-2.2333	-1.875	-2.0292	-2.0792	-1.8937	-2.3521	-17.521	-49.831	119.979	226.891	113.648	-100.630	92.670	6.640	87.584	-119.108	116.949	225.286	219.172	-120.400	8.102	-20.229	0.00043351	0.00014745	2.3952e-05	1148	2.8822e-06	4.9386e-06	1249.3	245.85	4.2084e-06	5.5447e-06	309.8	84.336	67.143	19.159	6.171e-06	26.722	0.0002817	0.00028324	7.8651e-05	1119.7	3.1372e-06	3.1353e-06	1223.1	242.88	3.1459e-06	3.1778e-06	306.58	84.245	66.857	19.345	3.0929e-06	27.089	127.778	168.131	-25.074	-118.266	-82.727	62.192	-117.870	-110.363	-72.245	25.434	-111.172	-104.249	-104.867	-97.000	19.667	-96.807	-8191	255	
958.894	1	1	0	0	0.18729	0.27486	0.10065	0.060844	0.14472	0.1477	0.39721	0.3304	0.18867	0.19063	0.0404	0.186	0.1205	0.30147	0.10556	0.19837	-1.5958	-2	-2.1833	-1.9667	-2.1417	-2.3021	-1.8667	-2.3604	-1.8958	-1.9042	-2.35	-1.9792	-2.3521	-2.0979	-1.8563	-2.3187	-22.890	18.479	-58.984	96.089	145.862	208.697	180.110	191.236	-88.085	-66.996	-18.569	158.305	-97.072	191.682	22.221	23.399	0.00024907	7.124e-05	7.9337e-05	1144.9	4.7737e-06	3.3982e-06	1247.2	247.01	2.7751e-06	6.9334e-06	310.49	84.074	66.397	19.016	2.9081e-06	26.265	0.0002861	0.0002886	7.9306e-05	1117.5	3.1644e-06	3.1741e-06	1223.3	243.28	3.2319e-06	3.178e-06	306.08	84.246	66.817	19.368	3.2252e-06	27.042	75.222	-44.768	80.968	-116.957	-119.159	223.354	-118.173	-111.033	-45.148	34.733	-110.872	-104.485	-103.817	-95.033	-72.407	-96.747	-8191	255	
958.990	1	1	0	0	0.11025	0.15664	0.10248	0.27774	0.095025	0.060267	0.22144	0.19558	0.099366	0.17215	0.24899	0.065052	0.28126	0.31259	0.16683	0.19304	-1.5375	-1.7917	-2.3146	-2.1042	-2.0292	-2.2625	-1.7812	-2.3688	-2.2313	-2.0146	-2.6437	-1.9833	-2.2958	-2.2562	-2.0521	-2.3792	127.593	20.829	-64.800	188.178	-89.339	-40.836	194.262	82.960	65.660	133.472	159.840	-8.267	195.762	167.529	95.220	-93.799	0.00021156	0.00014514	3.4813e-05	1144	7.1473e-07	4.2641e-06	1248	246.39	5.811e-06	1.1851e-06	310.06	85.132	66.833	18.942	4.2505e-06	26.383	0.00029321	0.00029122	8.0547e-05	1118.5	3.1673e-06	3.1483e-06	1223.2	243.3	3.1719e-06	3.1736e-06	306.27	84.503	66.687	19.338	3.153e-06	26.958	167.189	172.880	-11.009	-117.812	42.592	45.128	-117.728	-109.712	95.288	44.591	-108.793	-102.169	-102.468	-96.500	-61.213	-96.208	-8191	255	
959.086	1	1	0	0	0.18805	0.14353	0.075853	0.15321	0.3983	0.049251	0.15756	0.31333	0.3369	0.27088	0.15279	0.26683	0.19769	0.32194	0.20476	0.046655	-1.65	-1.9542	-2.2896	-1.9542	-2.0187	-2.1312	-1.8667	-2.1604	-1.9292	-1.9729	-2.5771	-1.9375	-1.9604	-2.2812	-1.8125	-2.2125	200.148	230.248	101.222	230.129	64.892	138.833	134.938	-71.222	133.098	-114.393	-114.572	-78.021	-28.821	-114.566	-106.973	5.232	0.00020206	0.00031658	9.5034e-05	1148	3.0281e-06	3.6849e-06	1246.7	244.64	7.1333e-06	3.48e-06	311.47	84.371	66.571	19.03	7.9384e-06	26.741	0.00028999	0.00028422	7.9315e-05	1120.3	3.1642e-06	3.1236e-06	1222.7	242.54	3.1013e-06	3.1865e-06	306.8	84.431	66.502	19.331	3.1885e-06	27.054	142.258	162.982	-5.439	-117.780	-119.079	59.579	-118.211	-110.710	-29.355	81.992	-111.145	-104.720	-104.938	-96.750	-25.094	-97.193	-8191	255	
959.158	1	1	0	0	0.040259	0.098804	0.059031	0.146	0.12041	0.13356	0.26376	0.16599	0.18802	0.085876	0.273	0.071978	0.15776	0.048462	0.17846	0.10974	-1.7313	-1.7958	-2.4917	-2.2354	-1.9771	-2.2729	-2.0646	-2.2729	-2.2792	-1.9333	-2.2562	-2.2458	-2.1979	-2.3208	-1.8458	-2.2354	94.569	219.727	15.162	-11.575	-23.401	225.413	-74.788	205.560	-2.698	77.528	219.386	66.810	128.954	-44.750	109.995	106.931	0.00010991	0.00058523	3.1574e-05	1146.7	3.3658e-06	3.3857e-06	1241	244.31	7.2015e-06	6.1546e-06	312.34	84.646	66.277	19.057	2.1694e-06	26.692	0.00028594	0.00028598	8.0764e-05	1116.9	3.1356e-06	3.1287e-06	1220.2	242.09	3.1297e-06	3.1522e-06	306.95	84.363	66.625	19.349	3.1211e-06	27.064	125.566	-23.906	200.890	-117.928	-121.941	-32.636	-118.072	-110.818	-12.753	-5.205	-110.158	-104.683	-104.917	-95.862	-96.668	-96.049	-8191	255	
959.279	1	1	0	0	0.14435	0.20517	0.19471	0.17412	0.27788	0.056229	0.18103	0.18312	0.14848	0.19138	0.25149	0.35378	0.057993	0.22995	0.22141	0.051104	-1.7729	-2.0271	-2.1063	-2.3833	-2.1	-2.425	-2.025	-2.2562	-2.3771	-1.7917	-2.4333	-2.3542	-1.7583	-2.4354	-2.0563	-2.1146	53.249	-24.074	154.592	225.699	-15.406	64.090	-19.824	169.034	185.226	82.982	123.873	164.642	-32.516	212.409	-63.038	-7.497	0.0002344	0.00014698	0.00015787	1146.1	2.5838e-06	5.1127e-06	1251	245.8	1.1933e-06	1.9702e-06	312.16	83.889	66.173	18.977	1.4074e-06	26.516	0.00029272	0.0002903	8.0431e-05	1117.6	3.2187e-06	3.1576e-06	1223.2	242.64	3.2301e-06	3.1939e-06	306.7	84.196	66.585	19.368	3.2179e-06	27.147	150.738	-59.997	-53.726	-114.895	-70.430	47.262	-114.858	-107.889	15.876	-33.572	-107.976	-101.051	-103.765	-95.944	71.262	-96.052	-8191	255	
959.375	1	1	0	0	0.24966	0.16701	0.2593	0.060157	0.18517	0.26935	0.35994	0.12707	0.2063	0.29231	0.08816	0.19956	0.13854	0.099498	0.2545	0.094007	-1.9021	-1.75	-2.1708	-2.2958	-1.8458	-2.5812	-2.1979	-2.0104	-2.3167	-1.8021	-2.3583	-2.3708	-1.8354	-2.3875	-1.8062	-1.9562	213.476	164.222	90.757	100.867	175.301	-80.976	229.567	192.118	230.468	110.361	221.531	202.714	101.534	-58.444	173.227	-92.651	0.00021123	0.00031341	0.00014761	1143.6	3.3821e-06	2.1058e-06	1251.1	245.37	4.7565e-06	2.119e-06	310.35	84.285	67.102	19.051	2.5905e-06	26.474	0.000292	0.00028787	7.925e-05	1117.3	3.1631e-06	3.1121e-06	1220.8	242.48	3.0988e-06	3.1298e-06	305.72	84.144	66.722	19.339	3.182e-06	27.081	135.489	-35.155	32.476	-116.232	4.733	20.840	-114.965	-107.892	-62.771	98.135	-107.821	-101.763	-101.406	-93.269	23.768	-98.289	-8191	255	
959.471	1	1	0	0	0.30863	0.18318	0.20514	0.25285	0.22801	0.2564	0.33098	0.25329	0.30225	0.3365	0.31223	0.28295	0.1285	0.22639	0.054534	0.10827	-1.8604	-1.8438	-2.2729	-2.2458	-1.7104	-2.2208	-2.2458	-2.075	-2.2792	-1.9125	-2.1771	-2.4021	-2.0375	-2.4021	-2.1146	-2.0042	206.689	130.085	-5.654	162.183	9.623	-38.901	80.768	108.937	-98.492	131.863	113.720	206.300	103.822	195.625	197.593	174.886	0.00038822	0.00040041	0.00010395	1138	5.2481e-06	6.678e-08	1244.5	245.53	5.3699e-06	4.8887e-06	309.86	83.757	66.322	19.075	1.5382e-06	26.556	0.00028897	0.00029419	8.2989e-05	1116	3.3073e-06	3.2814e-06	1220.5	242.84	3.2771e-06	3.2403e-06	306.42	84.369	67.12	19.426	3.339e-06	27.216	134.380	0.509	132.165	-118.841	-103.141	-54.009	-119.019	-111.693	-2.585	17.112	-111.340	-105.391	-105.665	-97.102	-19.756	-96.872	-8191	255	
959.567	1	1	0	0	0.24724	0.29883	0.09983	0.24177	0.19029	0.026531	0.20724	0.39226	0.26222	0.12098	0.28744	0.1295	0.1248	0.13846	0.099103	0.13045	-1.9271	-2.0979	-2.0083	-2.1917	-1.7875	-2.1833	-2.3771	-1.9333	-2.3187	-2.0062	-2.2958	-2.275	-2.125	-2.0583	-2.2854	-2.0292	-42.563	95.547	99.296	204.075	-28.592	104.180	160.677	199.028	76.775	137.489	156.508	89.070	-41.256	-95.267	220.927	214.303	0.00023647	0.00051435	0.00010692	1143	2.2219e-06	3.1513e-06	1247.3	246.23	2.7241e-06	1.2464e-06	310.34	84.235	66.404	18.99	6.4508e-06	26.575	0.00030244	0.0003035	8.5102e-05	1118.9	3.3657e-06	3.2777e-06	1224.5	243.38	3.3035e-06	3.3235e-06	306.58	84.492	66.969	19.386	3.2568e-06	27.314	138.620	-37.195	-45.516	-118.478	179.592	12.350	-118.558	-111.278	190.364	193.097	-111.325	-105.258	-104.841	-96.566	-1.787	-97.441	-8191	255	
959.686	1	1	0	0	0.12664	0.31254	0.098151	0.19831	0.21471	0.20747	0.35755	0.13222	0.31847	0.076451	0.059222	0.11634	0.24773	0.062128	0.22818	0.11371	-1.925	-1.825	-1.9813	-2.3583	-1.8417	-2.0438	-2.2333	-1.9333	-2.3229	-2.0458	-2.1958	-2.2354	-1.7521	-2.0958	-2.3229	-1.9729	122.076	65.760	223.622	58.823	4.939	-106.173	-105.765	204.411	-98.862	178.814	-49.783	-113.284	-108.893	34.141	-85.828	165.313	0.00022682	0.00043621	0.000121	1146.7	2.8153e-06	3.5868e-06	1244.7	244.85	6.955e-06	2.1537e-06	311.08	84.617	67.256	19.017	1.8438e-06	26.511	0.00030155	0.00030204	8.2556e-05	1117.1	3.2806e-06	3.2058e-06	1221.2	242.89	3.2299e-06	3.2462e-06	306.45	84.345	67.085	19.338	3.1759e-06	27.068	144.158	-27.728	-34.116	-118.308	3.539	-77.127	-118.850	-111.156	-67.523	57.612	-111.355	-105.093	-104.451	-96.481	-116.228	-96.820	-8191	255	
959.782	1	1	0	0	0.11193	0.026489	0.07077	0.24169	0.35224	0.15364	0.29743	0.31186	0.091376	0.15698	0.10038	0.11223	0.29147	0.25789	0.097794	0.19407	-1.9021	-2.1875	-1.8458	-2.4313	-2.0187	-2.0396	-2.3229	-1.9146	-2.15	-2.1167	-2.15	-2.4458	-1.9417	-2.1125	-2.2229	-1.9417	-6.545	-90.289	32.788	205.026	-87.851	112.825	209.025	199.122	214.834	174.828	114.898	112.931	-86.544	213.608	74.446	70.859	0.00030451	0.00037789	4.143e-05	1139.2	2.3521e-06	3.7033e-06	1243.9	244.59	1.4524e-06	2.136e-06	310.69	84.596	66.4	18.93	4.1135e-06	26.528	0.00028862	0.00028586	8.0032e-05	1115.7	3.1837e-06	3.1828e-06	1220	242.46	3.1783e-06	3.1817e-06	306.57	84.41	66.802	19.395	3.2642e-06	27.076	122.815	41.005	-75.992	-118.252	-25.757	74.882	-118.248	-111.017	56.017	-76.655	-110.064	-103.689	-104.628	-96.571	129.427	-97.272	-8191	255	
959.856	1	1	0	0	0.22384	0.37198	0.24892	0.15779	0.31977	0.087927	0.066222	0.29405	0.082742	0.1425	0.3003	0.12746	0.027505	0.058591	0.23087	0.22742	-2.0062	-2.1708	-1.7479	-2.3167	-2.0104	-2.0563	-2.35	-1.85	-2.2167	-2.2562	-1.8062	-2.1604	-2.1375	-2.1208	-2.3604	-1.8917	176.774	-86.513	11.165	225.842	-53.806	83.355	175.797	160.757	48.576	10.131	29.139	201.981	154.648	82.607	174.639	46.882	0.00029749	0.00020625	6.7328e-05	1139.1	3.4372e-06	1.7048e-06	1245.4	245.94	5.5032e-06	2.6636e-06	312.15	84.156	66.486	19.091	1.8428e-06	26.571	0.00029578	0.00029826	8.049e-05	1116.5	3.2051e-06	3.1627e-06	1221.6	242.5	3.1447e-06	3.1223e-06	306.34	84.1	66.606	19.38	3.0982e-06	26.951	122.160	62.554	185.606	-118.454	-98.832	-13.972	-118.516	-111.163	-67.100	23.452	-111.197	-104.518	-104.909	-96.426	29.600	-96.799	-8191	255	
959.974	1	1	0	0	0.20299	0.20496	0.17845	0.11075	0.099854	0.1263	0.083348	0.35558	0.17284	0.18182	0.14508	0.039393	0.018452	0.29069	0.065478	0.18494	-1.7875	-2.0667	-1.7333	-2.4667	-1.9583	-1.9583	-2.4458	-2.0438	-2.0646	-2.2521	-2.0292	-2.1375	-2.05	-1.9521	-2.4042	-1.8708	-74.753	34.487	-103.287	123.674	142.280	133.827	34.024	160.102	220.267	-17.274	19.388	160.088	81.500	75.018	-1.828	-53.512	0.00023958	0.00016723	9.5909e-05	1146.5	2.7054e-06	2.2044e-06	1242	244.71	2.9824e-06	5.2155e-06	311.33	84.169	66.392	19.048	4.081e-06	26.802	0.00028253	0.00028249	7.9799e-05	1116.3	3.149e-06	3.1203e-06	1220.6	242.74	3.0787e-06	3.15e-06	306.27	83.966	66.685	19.319	3.1078e-06	27.13	176.820	112.608	29.265	-117.794	-29.389	179.282	-117.856	-110.450	-24.082	45.653	-111.313	-104.922	-104.791	-96.413	120.193	-97.403	-8191	255	
960.071	1	1	0	0	0.20905	0.25446	0.20499	0.1042	0.32855	0.2039	0.13479	0.27392	0.2892	0.11398	0.046403	0.2469	0.071626	0.11617	0.090026	0.15228	-1.7083	-2.1979	-1.8646	-2.4625	-2.0042	-1.8604	-2.2958	-1.95	-2.0896	-2.2771	-1.7708	-2.2417	-2.3854	-1.8854	-2.1646	-2.1854	-72.696	154.637	57.061	229.576	100.523	219.761	200.096	185.049	20.892	-91.206	-117.294	34.632	84.088	64.382	-61.046	63.531	0.00023574	0.00041785	8.0912e-05	1145.1	1.272e-06	7.5072e-06	1244	245.52	5.6968e-06	1.4426e-06	308.97	83.967	66.025	19.053	6.745e-06	26.359	0.0002796	0.00028002	7.7821e-05	1118.6	3.127e-06	3.1149e-06	1221	242.58	3.1588e-06	3.1234e-06	305.49	84.168	66.513	19.398	3.1424e-06	27.048	105.750	-76.183	-106.763	-118.104	9.218	-21.071	-118.177	-110.564	-74.635	132.106	-110.462	-104.288	-104.213	-96.332	35.907	-96.580	-8191	255	
960.167	1	1	0	0	0.18284	0.10579	0.22335	0.14199	0.092077	0.26335	0.22538	0.22755	0.206	0.21436	0.080126	0.14126	0.15992	0.20422	0.18466	0.12174	-1.6896	-2.1396	-1.6979	-2.3083	-2.025	-1.7271	-2.4583	-2.0062	-1.9708	-2.2812	-1.8813	-2.2521	-2.2812	-1.7458	-2.4375	-2.0333	93.033	-24.291	138.663	-102.784	-112.012	39.297	127.801	161.570	124.448	22.067	153.985	47.334	-50.620	213.236	201.050	-82.866	0.0001814	0.00070549	9.7992e-05	1145.5	5.599e-06	3.8094e-06	1244.8	243.98	3.8173e-06	2.481e-06	310.82	84.264	66.444	18.864	3.1921e-06	26.619	0.00028579	0.00028548	7.9807e-05	1118.4	3.1776e-06	3.1118e-06	1219.8	241.87	3.0828e-06	3.0713e-06	305.94	84.208	66.192	19.295	2.984e-06	26.994	135.955	-49.025	-115.125	-117.531	-100.345	-31.874	-117.591	-110.825	-48.856	22.778	-110.701	-104.485	-104.740	-96.341	-39.173	-96.751	-8191	255	
960.263	1	1	0	0	0.065071	0.047788	0.074358	0.2208	0.25404	0.064471	0.093847	0.064803	0.089918	0.01605	0.023481	0.35516	0.057513	0.38281	0.0375	0.12414	-1.5625	-2.3688	-1.8813	-2.4167	-2.1125	-1.9813	-2.5354	-1.9208	-1.8271	-2.425	-1.9438	-2.1229	-2.0979	-1.6375	-2.1562	-2.1354	15.830	-84.709	-70.451	198.730	-102.713	-123.039	192.100	-45.749	-8.132	-127.314	0.913	148.487	-99.956	183.847	118.902	197.250	0.00018855	0.00020892	9.4473e-05	1139.9	1.7867e-06	3.7561e-06	1247	245.19	2.5907e-06	1.5768e-06	310.01	84.052	67.282	19.064	4.6283e-06	26.641	0.00027199	0.00027628	7.4819e-05	1117.1	2.9903e-06	2.9493e-06	1220	241.88	2.9899e-06	3.0154e-06	305.12	84.133	66.378	19.341	3.0487e-06	27.003	177.202	184.049	-28.759	-117.938	222.475	151.999	-118.547	-110.911	-72.809	7.505	-110.898	-104.543	-104.576	-96.335	7.734	-97.129	-8191	255	
960.384	1	1	0	0	0.078496	0.13696	0.16447	0.10483	0.21602	0.25907	0.21529	0.32373	0.10735	0.10021	0.07455	0.29145	0.089871	0.37466	0.14126	0.15072	-1.4625	-2.0917	-1.8958	-2.2792	-2.2229	-1.8354	-2.3875	-2.2	-1.8771	-2.1042	-1.9688	-2.125	-2.3229	-1.8021	-2.3063	-2.4125	-92.805	180.757	156.062	108.186	98.819	-4.709	153.099	-97.944	95.169	-13.666	-105.025	227.645	8.209	10.143	-71.235	83.343	0.00033371	0.00055527	9.1179e-05	1143.4	1.8815e-06	1.7257e-06	1244.6	245.3	1.1681e-06	5.9674e-06	311.06	84.381	66.486	19.031	3.9024e-06	26.366	0.00028074	0.00028327	7.8489e-05	1117	3.1348e-06	3.1152e-06	1219.7	242.38	3.1978e-06	3.1495e-06	305.85	84.266	66.33	19.349	3.1288e-06	27.103	173.789	-78.263	-31.802	-117.976	-56.103	-82.395	-118.223	-111.064	157.581	112.771	-110.955	-104.059	-104.934	-95.840	-35.832	-96.198	-8191	255	
960.455	1	1	0	0	0.22777	0.27584	0.14756	0.17063	0.19391	0.10269	0.14683	0.09577	0.13019	0.098414	0.20283	0.079	0.22895	0.1388	0.087532	0.25561	-1.4312	-2.4771	-2.1937	-2.1063	-2.1688	-1.8937	-2.3021	-2.375	-1.8563	-2.3063	-2.0521	-2.1146	-2.2521	-1.9729	-2.3083	-1.9708	-62.686	-51.300	62.420	219.380	161.414	58.798	152.844	147.202	70.238	207.636	140.807	-101.095	111.983	175.949	40.783	-105.106	0.00034478	0.0003439	0.00012048	1144.5	3.1086e-06	1.6889e-06	1248.7	244.31	5.8622e-06	6.8461e-06	310.48	84.41	67.079	19.077	8.611e-06	26.443	0.00027879	0.00027979	7.859e-05	1117.6	3.1025e-06	3.1054e-06	1222.5	242.18	3.1205e-06	3.082e-06	306.43	84.262	66.657	19.397	3.0894e-06	27.014	129.875	2.195	-20.428	-117.161	-94.397	-90.785	-118.151	-111.249	-98.170	86.923	-111.106	-104.536	-104.678	-96.273	32.556	-96.715	-8191	255	
960.576	1	1	0	0	0.099752	0.126	0.19873	0.41185	0.1245	0.22454	0.27585	0.061206	0.048192	0.20474	0.048708	0.40892	0.094006	0.25328	0.069976	0.13234	-1.4875	-2.4042	-1.9562	-2.0187	-2.3667	-1.9062	-2.3292	-2.4521	-2.0083	-2.45	-2.1521	-2.0729	-2.2896	-1.9521	-1.9979	-2.5312	206.603	129.221	87.348	183.243	-27.574	221.575	196.541	-75.827	209.070	-112.293	199.086	15.020	173.945	-8.614	138.712	9.927	0.00015383	0.000176	0.00010119	1144.1	7.01e-06	1.9568e-06	1244.5	244.63	1.6299e-06	4.1111e-06	311	84.3	66.611	18.991	3.9931e-06	26.487	0.00028023	0.00028369	7.9588e-05	1117.5	3.1575e-06	3.0813e-06	1221.9	242.23	3.1456e-06	3.1561e-06	306.36	84.065	66.916	19.351	3.1439e-06	27.068	83.657	-41.184	219.876	-116.988	88.205	-95.369	-116.958	-109.714	-76.139	46.561	-110.910	-104.143	-104.676	-96.236	73.919	-96.979	-8191	255	
960.672	1	1	0	0	0.2368	0.030241	0.086046	0.10761	0.23459	0.14704	0.10863	0.33574	0.034093	0.081851	0.20529	0.18375	0.1671	0.12849	0.10008	0.097016	-1.4792	-2.2229	-2.0604	-2.0438	-2.4333	-1.9292	-2.0375	-2.3312	-2.0312	-2.1729	-2.0812	-1.7542	-2.275	-2.1125	-1.9271	-2.4271	86.639	69.748	210.968	153.957	72.910	79.559	193.256	-97.906	176.061	179.762	-110.338	87.953	37.704	226.269	176.034	-110.128	0.00046694	0.00025537	0.0001213	1147.9	3.6651e-06	3.6686e-06	1246.6	244.47	7.0216e-06	2.6414e-06	309.67	84.05	66.711	19.085	3.2572e-06	26.696	0.00028735	0.0002844	8.0676e-05	1119.7	3.1436e-06	3.1028e-06	1222.6	241.9	3.1562e-06	3.136e-06	305.46	84.265	66.613	19.39	3.1824e-06	27.197	134.097	-56.613	-17.654	-118.332	18.533	59.244	-118.551	-110.926	-76.836	220.408	-110.844	-105.039	-104.731	-96.637	63.355	-95.924	-8191	255	
960.766	1	1	0	0	0.36495	0.062256	0.12099	0.25514	0.10568	0.094104	0.11997	0.26228	0.033809	0.092444	0.20822	0.12055	0.07167	0.20738	0.089448	0.28454	-1.4604	-2.0812	-2.2125	-1.9438	-2.3646	-2.0792	-2.0958	-2.3167	-1.9229	-2.3979	-2.2771	-1.7229	-2.3	-2.0938	-1.8292	-2.2042	-93.708	91.319	85.622	216.238	91.942	185.465	137.177	95.131	-73.135	149.376	-67.598	95.426	40.230	188.043	-74.976	148.302	0.00033692	8.5731e-05	8.5229e-05	1146.7	1.4972e-06	3.7989e-06	1250.6	244.85	5.737e-06	1.991e-06	312.3	85.121	66.116	19.102	3.1815e-06	26.811	0.00029067	0.0002887	8.1491e-05	1118.7	3.1657e-06	3.1993e-06	1223.9	242.28	3.1758e-06	3.2163e-06	306.36	84.441	66.938	19.457	3.2483e-06	27.221	129.345	178.956	-62.120	-116.528	-46.590	15.077	-114.955	-107.747	-115.787	192.542	-108.200	-104.785	-104.404	-96.432	115.089	-97.136	-8191	255	
960.863	1	1	0	0	0.15889	0.11317	0.043563	0.13149	0.031151	0.097133	0.13601	0.042718	0.13834	0.14587	0.25457	0.16274	0.25163	0.13806	0.2513	0.17182	-1.4813	-1.9875	-2.1688	-1.9896	-2.1458	-2.0062	-2.0792	-2.4458	-2.0083	-2.1292	-2.1896	-1.9521	-2.2208	-2.1875	-1.9042	-2.2458	118.147	133.507	189.954	-53.773	-116.776	-54.528	-93.172	-36.320	70.941	-110.870	133.603	-89.134	-3.771	104.515	-60.667	-86.990	0.00018938	0.00055449	0.00011861	1142.5	7.5897e-06	1.6699e-06	1250.8	244.27	2.9422e-06	4.3776e-06	311.2	84.636	66.305	19.001	5.064e-06	26.785	0.0002916	0.00029306	8.178e-05	1117.6	3.2257e-06	3.1907e-06	1222.5	242.19	3.175e-06	3.2188e-06	305.93	84.304	66.909	19.407	3.1917e-06	27.219	161.131	71.548	-27.387	-118.130	23.292	37.740	-118.464	-111.191	-117.326	69.345	-110.571	-104.767	-104.610	-96.799	-22.903	-97.099	-8191	255	
960.983	1	1	0	0	0.28805	0.27419	0.14735	0.23885	0.16241	0.083471	0.055382	0.13562	0.12627	0.26707	0.082648	0.087955	0.054251	0.072779	0.17395	0.046282	-1.5271	-1.9208	-2.2729	-1.9333	-2.1521	-2.0875	-1.9646	-2.3521	-2.0042	-1.8062	-2.475	-2.0292	-2.0458	-2.2479	-1.8396	-2.1708	46.790	-63.828	-103.727	207.120	-121.028	119.253	159.445	200.224	-52.847	164.549	101.727	-22.909	164.580	63.102	-88.028	41.672	0.00018757	0.00034475	6.9979e-05	1142.1	3.8194e-06	2.3828e-06	1250.8	244.03	7.5009e-06	2.3726e-06	309.74	84.324	66.41	19.112	4.1879e-06	26.645	0.00029553	0.0002991	8.3552e-05	1117.4	3.2755e-06	3.2501e-06	1224	241.96	3.2654e-06	3.2491e-06	305.47	84.262	66.703	19.441	3.2196e-06	27.148	152.541	-59.699	-8.376	-117.927	53.279	-95.483	-118.508	-111.080	6.489	79.179	-110.913	-104.721	-104.449	-95.992	84.460	-97.493	-8191	255	
961.079	1	1	0	0	0.0888	0.070674	0.078099	0.056231	0.14653	0.071094	0.13834	0.20046	0.34805	0.089202	0.0098635	0.1045	0.28175	0.15163	0.10854	0.32208	-1.6729	-1.7896	-2.1354	-2.0187	-2.1792	-2.1792	-2.1646	-2.2896	-2.0417	-1.9083	-2.3937	-1.85	-2.0125	-2.0917	-1.8125	-2.125	-87.306	-49.255	138.586	-64.767	-4.031	161.722	125.378	174.048	15.892	146.190	17.345	-100.742	4.256	-63.458	74.231	-120.620	0.00022093	0.00026899	0.00010884	1146.3	1.6423e-06	2.1023e-06	1246.5	245.61	4.5303e-06	3.745e-06	311.28	84.057	66.913	18.959	1.8782e-06	26.376	0.00029248	0.00029468	8.0957e-05	1118.3	3.1744e-06	3.1212e-06	1223	242.73	3.1102e-06	3.1149e-06	306.06	84.271	66.791	19.361	3.1224e-06	27.046	129.107	24.163	-27.454	-118.312	-85.934	-89.041	-118.465	-110.959	-91.351	15.324	-110.929	-104.752	-104.737	-96.853	23.403	-96.682	-8191	255	
961.151	1	1	0	0	0.25661	0.22438	0.18829	0.38386	0.2317	0.27471	0.083816	0.26126	0.31427	0.057482	0.072773	0.238	0.17567	0.21014	0.25455	0.27045	-1.6313	-1.8563	-2.4125	-1.8604	-1.9458	-2.0438	-1.9208	-2.2	-2.2354	-1.8583	-2.3312	-2.0563	-2.0312	-2.1854	-1.7375	-2.2833	217.970	37.957	227.229	-98.342	-41.205	-55.307	109.602	173.885	178.921	42.485	190.420	-85.062	-127.450	202.936	-37.572	-48.706	0.0003769	0.00044705	6.0834e-05	1144.1	2.8807e-07	3.5543e-06	1250.7	244.81	7.5254e-06	2.55e-06	308.44	84.527	66.269	19.076	6.3568e-06	26.836	0.00028628	0.0002873	8.0001e-05	1118.8	3.137e-06	3.1456e-06	1223.1	242.37	3.1817e-06	3.2605e-06	305.43	84.227	66.726	19.436	3.296e-06	27.229	135.886	-61.461	-77.410	-118.360	202.011	60.101	-118.671	-111.518	-120.637	134.790	-111.187	-105.302	-105.076	-96.531	-62.538	-97.322	-8191	255	
961.247	1	1	0	0	0.13182	0.14816	0.25391	0.26482	0.16952	0.17038	0.22589	0.27066	0.20971	0.25183	0.13571	0.087731	0.16317	0.13859	0.14816	0.12721	-1.7146	-1.8625	-2.1813	-2.2104	-1.8312	-2.1542	-1.9562	-2.3187	-2.3271	-1.6875	-2.1854	-2.0583	-1.9583	-2.175	-1.6729	-2.325	-119.946	221.536	-123.912	207.900	104.316	142.542	202.029	216.740	36.132	124.520	112.479	-0.239	162.311	177.926	-109.517	-38.999	0.00021144	4.7709e-05	0.00011454	1139.8	5.3386e-06	1.714e-06	1244.6	245.75	3.7838e-06	1.5568e-06	309.75	83.553	65.702	19.105	3.1371e-06	26.692	0.00030041	0.00029891	8.2492e-05	1116.1	3.3428e-06	3.2266e-06	1219.1	242.9	3.2589e-06	3.2611e-06	305.93	84.275	66.852	19.421	3.2346e-06	27.181	121.812	-28.733	-78.710	-117.752	-103.486	-22.671	-118.470	-110.482	-107.784	63.342	-111.257	-104.855	-104.998	-96.526	-22.438	-97.542	-8191	255	
961.368	1	1	0	0	0.13209	0.17686	0.27973	0.37945	0.12109	0.11703	0.24335	0.029436	0.21273	0.19005	0.037881	0.33306	0.27396	0.027299	0.10643	0.090197	-1.6792	-1.8458	-2.2917	-2.2208	-2.0271	-2.4667	-2.0521	-2.05	-2.0938	-1.7375	-2.2687	-2.2271	-1.7458	-2.2833	-1.6938	-2.0021	0.673	-2.318	94.625	160.150	206.351	15.007	-119.100	76.220	160.589	110.791	117.672	208.365	-83.168	23.181	10.285	103.284	0.00031106	0.00049386	0.00013807	1138.5	5.3398e-06	8.9653e-07	1239	245.71	3.8801e-06	3.2101e-06	309.29	83.304	66.24	19.092	2.7604e-06	26.785	0.00029608	0.00029668	8.2439e-05	1113.5	3.2465e-06	3.2085e-06	1217.6	242.54	3.1834e-06	3.196e-06	305.39	83.822	66.528	19.357	3.1524e-06	27.172	133.450	-21.273	-85.717	-118.471	-20.538	118.077	-118.520	-111.483	20.322	22.457	-111.200	-105.172	-105.140	-96.803	-25.103	-97.334	-8191	255	
961.464	1	1	0	0	0.17714	0.14243	0.10982	0.15241	0.057005	0.10105	0.12476	0.16916	0.15906	0.3436	0.13593	0.034137	0.16743	0.19941	0.12619	0.10935	-1.6583	-1.6958	-2.1375	-2.1875	-1.8479	-2.3438	-1.9208	-2.0708	-2.1583	-1.7292	-2.3187	-2.1	-1.7521	-2.3792	-1.9208	-1.7938	-105.297	101.916	64.539	223.993	-107.664	-40.596	-90.027	202.342	43.188	203.925	13.803	201.548	-66.394	-109.426	50.097	189.958	0.00012537	0.00039042	0.00015626	1145.3	7.3117e-07	3.1672e-06	1238.5	243.92	3.5644e-06	2.2307e-06	310.55	84.668	65.987	18.902	3.1377e-06	26.981	0.0002909	0.0002887	8.0889e-05	1115.9	3.2071e-06	3.1663e-06	1217.5	242.41	3.178e-06	3.1659e-06	305.39	84.253	66.454	19.37	3.1126e-06	27.133	79.138	37.640	-83.415	-118.153	-69.456	-24.295	-118.341	-111.011	-51.915	154.345	-110.924	-104.894	-104.828	-96.090	62.435	-96.598	-8191	255	
961.560	1	1	0	0	0.32342	0.093881	0.15845	0.15747	0.1508	0.20727	0.29616	0.19977	0.1496	0.22948	0.087081	0.12393	0.16543	0.027407	0.27101	0.046129	-1.7896	-1.7396	-2.25	-2.2562	-1.6688	-2.2875	-2.3271	-2.0792	-2.4042	-1.8979	-2.2375	-2.1979	-1.7812	-2.4958	-2.1354	-1.6521	20.927	-113.437	81.335	-98.214	222.665	4.887	141.771	230.420	156.275	-79.287	-95.182	190.555	119.710	39.035	129.837	152.691	0.00018103	0.00021223	7.2014e-05	1139	1.8311e-06	1.3938e-06	1239.9	245.27	6.5492e-06	4.5693e-06	308.11	84.452	66.645	19.076	2.8781e-06	26.645	0.00028496	0.0002806	7.8573e-05	1115.2	3.0704e-06	3.0852e-06	1215.8	241.89	3.0774e-06	3.0716e-06	304.64	83.952	66.421	19.376	3.0125e-06	26.984	195.255	-104.034	-69.984	-117.960	16.370	13.089	-117.983	-110.823	-26.559	90.602	-110.861	-104.516	-103.975	-96.491	-28.002	-97.076	-8191	255	
961.656	1	1	0	0	0.17347	0.13723	0.066261	0.25712	0.20767	0.19624	0.23207	0.16179	0.16972	0.031091	0.10137	0.067537	0.30225	0.030058	0.20657	0.11334	-1.8687	-1.6688	-1.9229	-2.5042	-1.7521	-2.3833	-2.375	-1.8292	-2.2646	-1.9958	-2.0354	-2.5312	-1.8062	-2.2104	-2.2375	-1.7062	160.706	-51.979	133.079	-61.587	38.184	-59.810	189.880	190.753	166.653	101.603	197.362	118.677	91.623	-128.561	-79.127	209.313	0.00018933	0.00028303	7.3991e-05	1134.9	5.0594e-06	2.3293e-06	1239.7	244.84	2.9313e-06	1.5408e-06	310.29	84.462	65.572	19.15	1.856e-06	26.592	0.00027877	0.00027472	7.7184e-05	1112.5	3.0183e-06	3.0542e-06	1214.4	241.88	3.0194e-06	3.0262e-06	305.05	83.935	65.858	19.338	2.9684e-06	26.905	159.503	-104.664	-59.488	-117.632	-85.445	61.017	-117.708	-110.586	-46.525	72.934	-110.611	-103.985	-104.047	-96.456	-39.585	-96.655	-8191	255	
961.752	1	1	0	0	0.057818	0.2058	0.10843	0.40538	0.12255	0.19147	0.18894	0.29296	0.15526	0.43948	0.19025	0.16771	0.16177	0.25776	0.066866	0.11967	-1.7667	-1.9792	-2.0354	-2.4062	-1.725	-2.1729	-2.3479	-1.8771	-2.2438	-2.0312	-2.2479	-2.3771	-1.9813	-2.1521	-2.1479	-1.9771	12.638	-39.795	35.963	182.427	-7.489	-106.142	134.423	174.088	73.619	-124.982	-97.179	-83.126	225.257	-48.601	102.214	9.209	0.00035064	0.00029764	0.00014486	1139.8	3.7216e-06	3.0391e-06	1240.5	245.04	5.569e-06	4.6323e-06	312.8	84.297	66.18	18.959	4.2831e-06	26.455	0.00027136	0.00027495	7.6235e-05	1112.5	3.0044e-06	2.9174e-06	1214.2	241.41	2.9264e-06	2.9724e-06	305.1	83.678	65.827	19.349	2.948e-06	26.836	121.331	-12.711	-78.620	-117.922	-120.128	-45.848	-117.437	-109.043	-17.922	58.571	-109.445	-103.294	-103.412	-95.808	53.112	-95.746	-8191	255	
961.847	1	1	0	0	0.15373	0.14598	0.049787	0.16461	0.1935	0.23445	0.1609	0.14943	0.04132	0.078032	0.041247	0.24014	0.12794	0.26409	0.34083	0.12803	-1.9625	-2.0125	-1.9375	-2.5396	-1.8104	-2.2687	-2.5125	-1.9208	-2.2708	-1.9937	-2.1042	-2.3312	-1.9625	-1.9375	-2.1833	-1.8729	211.179	221.536	-11.822	199.379	72.609	227.264	122.810	-105.659	200.003	10.144	107.179	-79.416	-76.169	224.040	173.802	-60.991	0.00045597	0.00043139	2.6914e-05	1136.2	4.8049e-06	5.3292e-06	1238	244.95	7.2405e-06	6.2455e-06	309.83	83.372	65.653	18.985	3.5182e-06	26.669	0.00026959	0.00027077	7.5378e-05	1109.2	2.9862e-06	2.9667e-06	1212.9	241.41	2.9828e-06	2.94e-06	304.08	83.656	65.941	19.302	2.9465e-06	27.008	135.903	226.010	-23.969	-117.758	165.061	-27.563	-117.668	-110.549	-121.616	77.260	-109.998	-103.386	-103.932	-95.651	-28.821	-96.954	-8191	255	
961.943	1	1	0	0	0.13012	0.065457	0.1947	0.28712	0.31131	0.22792	0.28541	0.090915	0.08674	0.11424	0.24291	0.057436	0.28592	0.15531	0.087423	0.24162	-1.7333	-2.1854	-1.875	-2.4042	-2.0687	-1.9438	-2.3292	-1.9292	-1.9583	-2.2229	-1.9667	-2.3812	-1.9271	-2.1604	-2.2854	-1.95	-12.514	-6.844	58.187	176.101	155.911	66.342	160.890	162.803	82.912	-3.536	200.275	167.618	220.871	50.182	191.885	51.617	0.0001927	0.0003447	0.00010067	1143.5	6.9484e-06	3.2011e-06	1240	243.92	1.8487e-06	3.1862e-06	308.9	84.254	65.921	19.154	3.8771e-06	26.622	0.00027356	0.00026986	7.5233e-05	1113	2.9772e-06	2.9577e-06	1214.2	241.04	2.9849e-06	3.0141e-06	303.45	83.769	65.943	19.362	2.9859e-06	26.988	120.840	-11.978	-50.865	-117.673	-50.500	23.429	-117.568	-110.355	-19.933	192.747	-110.140	-103.813	-104.252	-95.301	49.895	-96.301	-8191	255	
962.064	1	1	0	0	0.1925	0.04411	0.2903	0.032976	0.14417	0.21713	0.32109	0.049705	0.12653	0.10204	0.42578	0.13692	0.17529	0.31394	0.23535	0.05173	-1.6292	-2.1021	-1.9604	-2.4042	-1.9229	-2.0792	-2.3563	-2.0604	-2.1437	-2.275	-2.0583	-2.2958	-2.0479	-1.9937	-2.1375	-1.9062	-6.665	-21.839	-78.447	229.986	110.937	223.855	215.162	174.053	38.297	12.657	195.075	-41.486	166.218	10.367	76.414	-120.757	0.00024305	7.714e-05	0.00013129	1138.9	8.8171e-07	2.7471e-06	1245.3	243.88	5.5884e-06	4.8874e-06	308.35	84.088	65.548	19.136	5.5796e-06	26.456	0.00027358	0.00027141	7.6351e-05	1111.7	3.0221e-06	2.9746e-06	1214.3	241.28	3.0224e-06	2.9907e-06	304.16	83.46	65.698	19.31	2.9667e-06	26.894	158.625	114.044	-59.450	-117.078	-119.179	-23.422	-117.063	-109.569	195.775	-3.969	-110.358	-103.863	-103.817	-95.759	-81.769	-95.891	-8191	255	
962.160	1	1	0	0	0.27757	0.32334	0.2051	0.1273	0.20197	0.11269	0.15051	0.33658	0.034388	0.15496	0.10887	0.24136	0.1906	0.17112	0.37657	0.3247	-1.5979	-2.0917	-1.9021	-2.3812	-2.1771	-1.9062	-2.4979	-1.9417	-2.1312	-2.25	-1.8771	-2.2687	-2.3333	-1.925	-2.3542	-2.0646	60.788	14.173	-73.059	194.962	-117.817	223.093	115.232	213.394	115.902	221.702	58.793	108.449	219.744	161.824	-6.105	-107.774	0.00023415	0.00022665	7.3614e-05	1136.3	4.6301e-06	4.9327e-06	1235.9	244.68	2.4596e-06	3.5753e-06	309.01	84.164	65.875	18.893	8.5909e-06	26.455	0.00027628	0.00027099	7.5666e-05	1109.1	2.9851e-06	2.9431e-06	1211.8	241.13	2.8978e-06	2.9279e-06	303.75	83.408	65.396	19.251	2.8714e-06	26.764	136.896	-79.093	24.027	-116.654	-36.264	-75.240	-116.970	-108.412	203.732	85.961	-107.419	-101.350	-101.638	-93.325	9.525	-93.809	-8191	255	
962.256	1	1	0	0	0.12584	0.084634	0.041456	0.19641	0.011773	0.13248	0.25931	0.21628	0.23686	0.21888	0.16539	0.061766	0.1088	0.3518	0.11224	0.028455	-1.7021	-2.2167	-1.7917	-2.325	-2.0542	-1.875	-2.5812	-1.9708	-1.8729	-2.3438	-2.1208	-2.1354	-2.2958	-1.8937	-2.2833	-2.0792	65.483	-11.647	3.752	160.495	161.228	134.226	195.484	98.846	-90.246	103.593	203.187	-88.102	34.527	51.833	-37.928	120.701	0.0004191	0.00025547	0.00013272	1138.1	1.758e-06	5.1341e-06	1237	242.95	6.9079e-06	4.5424e-06	308.93	84.092	66.213	18.931	5.9895e-06	26.708	0.00026633	0.00026248	7.3365e-05	1105.2	2.925e-06	2.8476e-06	1210	240.32	2.958e-06	2.8999e-06	302.4	83.466	65.433	19.214	2.8738e-06	26.816	134.539	-82.721	-95.433	-114.983	-111.668	27.411	-114.964	-107.861	-118.378	59.151	-107.618	-101.484	-101.492	-93.130	-9.250	-93.483	-8191	255	
962.352	1	1	0	0	0.14049	0.16809	0.10879	0.088742	0.18152	0.39983	0.31734	0.065888	0.12715	0.092892	0.24738	0.095708	0.44911	0.050825	0.20013	0.032441	-1.5771	-2.2667	-1.8062	-2.1375	-2.0208	-1.8792	-2.3646	-2.2125	-1.8854	-2.2812	-1.9083	-2.1063	-2.2042	-1.9083	-2.4021	-2.0896	219.233	-72.041	216.109	42.290	70.700	-123.765	227.854	83.837	220.238	-55.618	186.057	115.269	116.095	4.342	75.923	43.112	0.00033343	0.00028993	5.8112e-05	1134.6	2.2817e-06	3.8203e-06	1231.1	244.57	5.1611e-06	7.184e-06	309.1	83.775	65.845	18.866	1.4462e-06	26.33	0.0002588	0.0002578	7.0952e-05	1104.3	2.8287e-06	2.809e-06	1203.9	240.22	2.8324e-06	2.7534e-06	302.27	83.108	65.177	19.171	2.8182e-06	26.657	122.843	-37.209	226.980	-114.710	-25.177	-13.100	-115.081	-107.796	180.607	123.491	-107.835	-101.415	-101.468	-93.299	-5.007	-93.934	-8191	255	
962.448	1	1	0	0	0.1939	0.2251	0.14964	0.1812	0.11046	0.19404	0.33797	0.32506	0.1143	0.15256	0.17451	0.19984	0.11484	0.10514	0.24361	0.15615	-1.8	-2.4333	-2.0375	-2.0938	-2.3417	-1.8188	-2.2875	-2.1813	-1.8896	-2.4167	-1.9479	-2.1667	-2.2542	-1.9125	-2.3063	-2.2625	65.442	169.268	123.896	-48.693	182.159	73.248	176.763	168.413	-124.943	13.984	-92.240	195.104	95.321	-80.538	3.868	208.570	0.00019646	0.00055075	0.0001291	1125.1	3.2285e-06	2.8991e-06	1240.6	242.63	3.2011e-06	3.5943e-07	305.97	83.249	65.905	18.858	1.8823e-06	26.637	0.00025859	0.00026242	7.2394e-05	1100.7	2.9083e-06	2.8386e-06	1206.6	239.59	2.8703e-06	2.8865e-06	301.12	83.073	65.377	19.189	2.8618e-06	26.737	102.302	-50.446	-37.682	-114.828	-117.410	-58.130	-115.018	-107.639	-102.635	193.132	-108.012	-101.382	-100.742	-92.791	-57.375	-93.077	-8191	255	
962.544	1	1	0	0	0.21245	0.14923	0.16089	0.33666	0.11171	0.094005	0.068934	0.095933	0.088159	0.12094	0.093057	0.11845	0.16884	0.1389	0.078575	0.20917	-1.3083	-2.5979	-2.0438	-2.15	-2.4667	-1.8687	-2.5729	-2.225	-1.8375	-2.1854	-2.0583	-1.8771	-2.1979	-1.8479	-2.1708	-2.0938	114.480	169.503	147.052	222.286	124.919	121.068	224.135	5.548	-113.933	210.040	-73.997	14.014	129.150	98.861	-54.122	47.960	9.2322e-05	0.00021295	0.00016358	1128.9	1.1425e-06	1.2506e-06	1233	243.16	4.2852e-06	5.0354e-06	305.82	83.788	65.182	18.847	4.4391e-06	26.51	0.00026525	0.00026159	7.2591e-05	1101.8	2.8537e-06	2.8497e-06	1205.7	239.62	2.9014e-06	2.854e-06	301.89	83.261	65.06	19.216	2.886e-06	26.765	156.245	-120.199	1.223	-114.775	-106.881	-86.572	-115.200	-107.715	37.494	26.471	-109.814	-103.476	-104.131	-96.111	-19.742	-96.911	-8191	255	
962.665	1	1	0	0	0.10332	0.15281	0.081021	0.16203	0.17861	0.29665	0.2069	0.32571	0.15954	0.21839	0.31197	0.19675	0.010322	0.26095	0.44844	0.13779	-1.3146	-2.3958	-2.0625	-2.1	-2.4292	-1.9667	-2.4688	-2.4021	-1.9333	-2.3063	-1.9333	-1.9521	-2.3333	-2.0187	-2.0479	-2.2875	38.532	100.488	131.735	143.330	181.250	-116.896	122.878	199.578	164.743	209.809	-52.239	-27.789	-99.147	167.233	29.421	152.279	0.00038456	7.5459e-05	7.3942e-05	1128.6	1.9236e-06	4.9834e-06	1227.3	242.61	6.3627e-06	4.5735e-06	304.96	82.852	65.404	18.888	4.4159e-06	26.6	0.00026607	0.0002665	7.413e-05	1101.2	2.8906e-06	2.9044e-06	1203.1	239.18	2.9136e-06	2.8866e-06	301.23	82.902	65.221	19.171	2.9073e-06	26.756	88.679	-98.615	4.580	-118.122	-52.311	18.705	-118.378	-110.730	-125.663	66.285	-110.642	-104.294	-104.096	-96.306	69.265	-97.168	-8191	255	
962.759	1	1	0	0	0.12346	0.023148	0.16485	0.21164	0.18093	0.23976	0.1505	0.20022	0.1772	0.05864	0.30766	0.13307	0.30045	0.2733	0.35679	0.14665	-1.5708	-2.3833	-2.1688	-2.0979	-2.4333	-1.9479	-2.4313	-2.2333	-1.775	-2.1354	-2.4583	-1.8333	-2.4	-1.9354	-1.8438	-2.3208	-84.988	-118.474	150.689	149.386	-93.219	99.960	110.019	159.921	-108.106	199.341	-82.225	-31.708	131.840	91.358	136.726	-4.518	8.2207e-05	0.00025558	6.8383e-05	1124	4.7649e-06	3.0973e-06	1229.1	242.29	4.8243e-06	2.3322e-06	307.41	83.636	65.442	18.859	4.8187e-06	26.527	0.00026356	0.00026067	7.0799e-05	1099.4	2.8187e-06	2.7818e-06	1202.4	238.88	2.7829e-06	2.7904e-06	301.72	83.243	65.062	19.174	2.7987e-06	26.713	156.329	-100.753	-82.569	-117.612	-113.343	-53.799	-117.940	-110.383	-90.794	101.021	-110.776	-104.155	-104.753	-96.278	-9.875	-96.708	-8191	255	
962.855	1	1	0	0	0.21367	0.22066	0.20077	0.14454	0.22264	0.11918	0.14573	0.096806	0.17234	0.31861	0.095979	0.10456	0.075831	0.28341	0.12667	0.14511	-1.3708	-1.9896	-2.1583	-1.9604	-2.3729	-2.2271	-2.075	-2.5146	-2.0083	-2.3937	-2.4083	-2.0563	-2.3375	-2.1437	-2.0854	-2.3521	10.615	45.249	208.890	182.366	-61.846	180.264	-94.695	229.827	-119.516	182.548	-121.023	-102.155	114.895	-69.752	147.599	126.533	0.0001037	0.00040688	9.6519e-05	1125.8	4.9498e-06	3.6828e-06	1225.7	242.91	3.7084e-06	1.3014e-06	307.83	83.437	66.974	19.018	1.6825e-06	26.62	0.00025876	0.00025663	6.9906e-05	1101	2.7828e-06	2.7995e-06	1203.8	239.1	2.8392e-06	2.8552e-06	302.39	83.038	65.664	19.218	2.9198e-06	26.845	167.545	-69.647	25.917	-117.200	-88.213	58.484	-117.467	-110.136	-87.156	40.480	-109.764	-103.351	-103.122	-95.276	109.244	-96.484	-8191	255	
962.952	1	1	0	0	0.25128	0.090085	0.078842	0.12826	0.22094	0.048661	0.11445	0.24078	0.2038	0.12543	0.23887	0.27732	0.18891	0.29379	0.15122	0.28828	-1.4042	-1.9708	-2.3125	-1.9708	-2.0917	-2.0812	-2.1312	-2.2938	-1.8521	-2.2792	-2.3042	-2.0208	-2.3312	-2.3292	-2.0167	-2.3937	-36.063	144.553	-26.183	211.501	-66.332	-104.604	204.659	-10.529	-37.117	73.838	-126.209	103.661	-34.506	-74.668	187.038	93.316	0.00024726	5.9637e-05	2.2743e-05	1128.5	3.1774e-06	9.2251e-07	1234.9	242.49	5.1282e-06	5.9813e-06	307.37	83.625	66.762	19.066	6.7805e-06	26.494	0.00026374	0.00026444	7.3291e-05	1101.1	2.8996e-06	2.9247e-06	1204.4	239.3	2.967e-06	2.9062e-06	301.63	83.315	65.592	19.248	2.8872e-06	26.835	139.871	-27.844	69.725	-117.539	-29.906	116.071	-117.562	-110.196	-110.917	29.400	-110.361	-103.536	-103.315	-95.607	-3.142	-95.724	-8191	255	
963.025	1	1	0	0	0.2643	0.30089	0.060435	0.34364	0.12285	0.076791	0.13629	0.15583	0.1144	0.1732	0.098756	0.12235	0.15289	0.16768	0.069437	0.09469	-1.4979	-2.0396	-2.3396	-1.8937	-2.2333	-2.3646	-2.0708	-2.3896	-2.0563	-1.9562	-2.4208	-1.9688	-2.1833	-2.3417	-1.9375	-2.4833	-92.674	152.181	-111.867	223.849	50.448	58.563	204.075	188.555	-8.572	47.801	-86.877	35.267	-74.296	149.710	195.522	161.960	0.00027253	0.00025404	0.00012593	1132	1.8966e-06	3.3831e-06	1231	242.44	1.1543e-06	5.4871e-06	308.97	83.268	65.313	19.086	3.4957e-06	26.713	0.0002657	0.00026434	7.2165e-05	1100.9	2.8792e-06	2.7821e-06	1204.5	239.41	2.8151e-06	2.8123e-06	302.52	82.957	64.837	19.22	2.7984e-06	26.771	157.149	177.632	-39.774	-117.435	29.376	-35.448	-117.704	-110.431	200.639	57.872	-108.234	-100.861	-101.336	-93.437	49.918	-93.877	-8191	255	
963.144	1	1	0	0	0.10173	0.25013	0.09343	0.30907	0.25563	0.084576	0.19604	0.42525	0.062822	0.10732	0.18986	0.16839	0.075921	0.25267	0.30409	0.25768	-1.85	-1.9958	-2.4083	-2.1042	-2.2146	-2.2396	-2.0854	-2.2938	-2.2604	-1.8958	-2.4646	-2.2229	-2.0917	-2.4208	-1.8	-2.225	111.687	138.272	148.455	200.110	41.903	-51.836	130.981	-109.578	55.467	63.439	81.584	-72.761	101.476	-121.413	195.278	162.352	0.00035528	0.00021458	3.7822e-05	1133.8	2.8048e-06	2.253e-06	1236.8	244.08	5.5226e-06	3.0491e-06	307.13	84.188	65.613	19.104	3.7404e-06	26.639	0.00025238	0.00025248	6.9789e-05	1101.9	2.7841e-06	2.7533e-06	1205.8	239.55	2.7927e-06	2.7791e-06	301.64	83.266	65.291	19.21	2.803e-06	26.795	147.046	-73.438	-63.073	-114.731	-101.566	143.802	-114.629	-107.550	198.028	160.369	-107.975	-101.299	-101.711	-92.682	-123.250	-93.595	-8191	255	
963.240	1	1	0	0	0.13662	0.075162	0.10633	0.2246	0.46704	0.29136	0.19331	0.063621	0.22668	0.21087	0.21187	0.30052	0.30949	0.18187	0.083246	0.1656	-1.8896	-1.7437	-2.325	-2.1458	-2.2062	-2.2771	-2.1583	-2.3542	-2.1562	-1.9604	-2.5187	-2.0292	-2.1146	-2.3167	-2.0563	-2.3021	-74.261	-41.582	54.365	-102.072	-79.180	-102.189	175.415	107.437	112.649	-86.360	-50.375	103.778	-54.907	125.497	79.595	159.516	0.00021542	0.00031687	6.9578e-05	1129.7	4.8583e-06	2.6881e-06	1234.3	243.4	6.5491e-06	3.5032e-06	306.96	84.086	65.074	19.116	2.5047e-06	26.545	0.00025608	0.00025412	7.088e-05	1102.6	2.7708e-06	2.7527e-06	1203.8	239.47	2.7242e-06	2.7536e-06	301.33	82.807	64.64	19.198	2.7343e-06	26.694	119.613	-60.815	-99.782	-114.941	35.315	26.310	-115.070	-107.658	-10.931	29.854	-107.722	-101.198	-100.711	-93.540	-101.150	-93.958	-8191	255	
963.336	1	1	0	0	0.15116	0.23574	0.13381	0.17298	0.084125	0.1449	0.17466	0.19355	0.12842	0.21212	0.15842	0.06807	0.3062	0.24749	0.18697	0.24507	-1.75	-1.8312	-2.2812	-2.0021	-2.0917	-2.3792	-1.9479	-2.3042	-2.2812	-1.8833	-2.3625	-2.0146	-1.9937	-2.3812	-2.0125	-2.3729	-61.988	63.445	-44.674	103.092	22.301	19.211	32.354	121.298	-20.686	84.220	13.964	33.629	-29.102	48.445	-47.392	30.831	0.00018611	0.0002992	8.0284e-05	1129.3	2.7393e-06	3.0531e-06	1232.2	242.76	9.3829e-07	1.2594e-06	306.88	83.042	66.152	19.096	5.9013e-06	26.41	0.00025381	0.00024936	6.9571e-05	1099.5	2.7968e-06	2.7305e-06	1202.3	239.14	2.7945e-06	2.8103e-06	301.71	82.877	64.957	19.218	2.7717e-06	26.706	152.471	-86.868	-33.259	-114.922	-55.098	0.103	-115.261	-107.810	190.574	-72.903	-107.941	-101.710	-101.568	-93.126	-26.084	-93.730	-8191	255	
963.457	1	1	0	0	0.045745	0.25354	0.04265	0.064237	0.21024	0.14357	0.21704	0.20719	0.14918	0.055259	0.25662	0.40046	0.15159	0.39236	0.16847	0.20862	-1.7604	-1.8188	-2.1208	-2.1208	-1.9708	-2.2833	-2.0792	-2.2521	-2.3833	-1.9188	-2.1771	-2.0854	-1.8104	-2.4437	-2.275	-2.075	-124.058	204.013	101.444	185.318	-84.281	-93.317	129.153	-32.446	125.141	182.311	10.908	87.213	214.982	-46.584	23.794	97.324	0.00024585	0.00023281	0.00011467	1129	2.3986e-06	1.979e-06	1229.7	242.33	3.5409e-06	2.7623e-06	307.59	83.734	66.681	19.112	3.7613e-06	26.938	0.00025344	0.00024949	6.9412e-05	1098.5	2.7506e-06	2.7403e-06	1199.6	238.98	2.7794e-06	2.7784e-06	301.18	82.866	65.06	19.211	2.7386e-06	26.693	78.164	-8.612	152.547	-116.681	102.388	144.790	-115.033	-107.570	-51.576	109.809	-107.717	-101.450	-101.426	-93.316	-54.723	-93.567	-8191	255	
963.551	1	1	0	0	0.23705	0.15969	0.20008	0.1676	0.068739	0.08652	0.098197	0.2351	0.17551	0.26659	0.30342	0.29225	0.24524	0.16531	0.10797	0.27422	-1.9604	-1.8521	-2.1625	-2.3625	-1.9417	-2.3688	-2.0917	-2.0062	-2.3271	-1.9312	-2.3354	-2.3875	-1.775	-2.4354	-1.9854	-2.0729	-26.605	-97.734	-116.439	200.644	68.667	-49.587	86.378	57.737	-0.380	5.096	170.780	-2.607	123.025	137.404	6.132	38.470	0.00034114	0.00028365	7.6778e-05	1127.3	4.4265e-06	6.1992e-06	1226.2	242.44	6.6036e-06	4.1942e-06	306.32	83.28	65.277	18.939	3.7235e-06	26.537	0.00025151	0.00025026	6.9942e-05	1097.2	2.756e-06	2.7178e-06	1200.5	238.44	2.7579e-06	2.7511e-06	300.93	82.712	64.754	19.136	2.6992e-06	26.656	130.168	-10.959	28.158	-114.796	-77.906	-8.560	-115.018	-107.568	-62.474	25.498	-107.709	-101.278	-101.372	-93.269	-8.225	-93.250	-8191	255	
963.625	1	1	0	0	0.27645	0.10034	0.27964	0.12293	0.11168	0.20795	0.42197	0.18269	0.24671	0.14094	0.19427	0.24779	0.17829	0.05416	0.24804	0.12296	-1.9333	-1.8271	-2.2354	-2.4375	-1.6688	-2.3396	-2.3042	-2.0792	-2.4708	-1.8833	-2.1375	-2.2812	-1.7542	-2.2562	-2.0146	-1.9479	108.136	217.518	-51.435	-96.708	92.823	-44.730	156.994	94.657	142.739	205.165	79.820	208.002	-90.505	-115.225	220.003	-62.167	0.0002388	0.00065763	1.5883e-05	1126	1.8056e-06	6.0448e-06	1230.2	242.59	3.0146e-06	1.8598e-06	306.97	83.115	65.398	18.995	6.6214e-06	26.51	0.00024532	0.00024712	6.868e-05	1097.4	2.7374e-06	2.6808e-06	1201.2	238.49	2.7228e-06	2.7134e-06	300.93	82.649	64.994	19.166	2.7365e-06	26.664	128.535	-62.649	-47.574	-114.700	206.696	25.087	-115.210	-107.754	-18.647	-38.820	-111.441	-104.748	-104.514	-95.850	49.344	-96.729	-8191	255	
963.745	1	1	0	0	0.12889	0.10522	0.16234	0.42211	0.12818	0.11169	0.26893	0.2877	0.089366	0.1449	0.23154	0.1107	0.10198	0.19964	0.048124	0.15965	-1.8979	-1.6625	-2.0229	-2.3375	-1.8646	-2.3042	-2.2625	-1.9708	-2.2729	-1.9792	-2.2042	-2.3729	-1.9312	-2.3521	-2.3583	-1.9271	43.119	79.009	93.600	150.395	-22.121	-77.602	147.883	114.782	29.056	-92.353	206.095	108.584	59.077	167.516	35.201	-4.063	0.00024017	0.00040155	0.00010069	1121.5	1.5759e-06	2.0806e-06	1228.8	241.94	3.1727e-06	3.5673e-06	305.72	83.399	65.204	19.009	3.3097e-06	26.571	0.0002512	0.00024655	6.9885e-05	1095.7	2.727e-06	2.7234e-06	1198.6	238.24	2.746e-06	2.6867e-06	300.74	82.788	64.917	19.191	2.7253e-06	26.713	117.505	-114.725	-42.939	-117.281	21.847	-5.675	-114.909	-107.632	61.995	110.919	-107.691	-101.232	-100.898	-93.357	29.969	-93.431	-8191	255	
963.840	1	1	0	0	0.31213	0.056912	0.29819	0.21825	0.02092	0.18215	0.14128	0.20639	0.10458	0.21739	0.033428	0.32844	0.19453	0.32209	0.17592	0.29563	-1.9917	-1.9083	-2.1104	-2.6542	-2.0708	-2.4083	-2.3896	-2.0312	-2.2958	-2.1312	-2.1667	-2.3167	-1.8896	-2.2729	-2.2667	-2.075	54.875	-51.780	63.213	187.096	23.236	67.215	121.055	188.431	147.046	67.478	230.534	-22.300	135.053	27.978	-99.721	151.084	0.00042788	0.00018602	0.00025652	1120.3	5.7499e-06	3.303e-06	1230.9	241.78	4.4416e-06	4.0828e-06	305.7	83.191	65.027	18.971	2.911e-06	26.682	0.00024891	0.00024642	6.8711e-05	1094.4	2.6946e-06	2.6761e-06	1199.7	238.29	2.6924e-06	2.697e-06	300.27	82.647	64.463	19.15	2.6477e-06	26.641	138.806	68.897	-53.246	-114.639	-23.486	-5.498	-115.084	-107.555	-62.992	68.564	-107.825	-101.107	-101.057	-93.221	-47.881	-93.559	-8191	255	
963.936	1	1	0	0	0.048002	0.15402	0.04767	0.12646	0.18766	0.068608	0.0057237	0.20784	0.046602	0.068992	0.30284	0.11603	0.063924	0.15565	0.13516	0.14491	-2	-2.1792	-1.9979	-2.5833	-1.8958	-2.3604	-2.3521	-2.0208	-2.4729	-2.1583	-1.8542	-2.5042	-2	-2.0792	-2.3958	-2.1854	80.824	59.537	178.026	218.592	-105.965	166.206	-41.921	67.584	-100.931	152.504	181.401	124.074	-51.035	-56.505	146.348	156.838	0.00032215	0.00047955	5.9976e-05	1123.7	3.7268e-06	2.9938e-06	1224.3	240.9	5.5193e-06	1.3399e-06	307.4	84.349	65.83	19.001	2.7672e-06	26.431	0.00024112	0.00024146	6.6588e-05	1094.7	2.677e-06	2.6614e-06	1195.7	237.91	2.6884e-06	2.6975e-06	300.79	82.858	64.916	19.142	2.7443e-06	26.641	87.945	-63.338	-42.924	-114.864	-58.741	59.540	-115.052	-107.628	42.437	13.931	-108.050	-101.155	-101.514	-93.257	-79.193	-94.234	-8191	255	
964.056	1	1	0	0	0.075292	0.020212	0.16162	0.16956	0.14673	0.13677	0.17129	0.27298	0.3268	0.21955	0.30234	0.059817	0.16196	0.18908	0.16414	0.054409	-1.9125	-2.1604	-1.8479	-2.4417	-1.9896	-2.1146	-2.4417	-1.9688	-2.3854	-2.1542	-1.9708	-2.3083	-2.125	-2.1208	-2.4729	-1.8312	-97.226	134.731	173.899	-69.307	1.874	-11.505	140.551	184.337	-69.745	106.994	194.185	209.243	142.459	-84.732	-41.033	125.093	0.00023866	0.00031833	0.00015146	1118.3	2.1869e-06	2.1628e-06	1222.2	242.08	3.8036e-06	6.2356e-06	307.51	83.234	65.684	18.961	5.5492e-06	26.539	0.00024957	0.00024944	6.9497e-05	1093	2.7401e-06	2.7505e-06	1195.3	238.7	2.7611e-06	2.7644e-06	300.37	82.698	64.778	19.173	2.6883e-06	26.665	98.501	-46.980	12.930	-114.677	-13.894	-86.729	-114.840	-107.461	-77.315	47.545	-107.643	-101.178	-102.168	-93.399	70.355	-93.067	-8191	255	
964.153	1	1	0	0	0.17948	0.20903	0.17739	0.17805	0.33441	0.16228	0.23219	0.10715	0.09545	0.22874	0.10819	0.24583	0.17334	0.12832	0.18492	0.19404	-1.8438	-2.175	-1.8521	-2.5833	-2.1417	-1.925	-2.4833	-2.0958	-2.0958	-2.4125	-1.9479	-2.4021	-2.2083	-1.9729	-2.3083	-2.0917	-77.360	-45.787	-93.480	124.887	-93.113	199.637	127.126	223.979	95.066	86.877	54.594	211.725	232.766	-81.103	217.320	154.811	0.00037536	0.0001596	0.00011969	1122.1	7.7345e-06	5.0889e-06	1222.9	242.39	1.7897e-06	5.3778e-06	305.96	83.41	65.484	19.08	1.8261e-06	26.61	0.00024916	0.00024815	6.8911e-05	1094.9	2.7367e-06	2.6292e-06	1196.6	238.06	2.6752e-06	2.5857e-06	300.08	82.81	64.462	19.171	2.6875e-06	26.651	109.652	123.993	-29.580	-114.801	-22.602	-77.740	-115.082	-107.686	9.168	11.634	-107.714	-101.425	-100.667	-93.490	-4.567	-93.633	-8191	255	
964.249	1	1	0	0	0.28402	0.082661	0.081757	0.25921	0.37783	0.11065	0.1987	0.11969	0.12775	0.13554	0.083968	0.11368	0.16865	0.16661	0.11446	0.089236	-1.7125	-2.2042	-1.8312	-2.3146	-2.2771	-1.9542	-2.2375	-2.0187	-1.9396	-2.3458	-1.9583	-2.4104	-2.1562	-1.8792	-2.3083	-2.0292	13.353	-89.027	32.226	183.429	-57.544	-117.314	110.715	-87.777	-23.316	-4.837	-109.014	-108.403	-105.127	120.920	-103.584	104.779	0.00031889	0.00020002	5.6806e-05	1120.7	3.085e-06	2.7372e-06	1225.5	240.77	3.8955e-06	3.6525e-06	307.7	83.177	65.299	19.01	2.1586e-06	26.526	0.00024591	0.0002463	6.8106e-05	1092.9	2.6912e-06	2.6852e-06	1194.8	237.62	2.7053e-06	2.6618e-06	300.1	82.603	64.709	19.169	2.6863e-06	26.623	135.370	30.109	-18.555	-114.708	16.508	37.736	-114.881	-107.381	-71.242	9.062	-107.721	-101.894	-101.129	-94.169	28.680	-97.129	-8191	255	
964.345	1	1	0	0	0.25642	0.1249	0.13578	0.26066	0.18017	0.12974	0.21982	0.13585	0.24125	0.21575	0.092001	0.13793	0.11182	0.24931	0.11624	0.20858	-1.4979	-2.2812	-1.6562	-2.3104	-2.1583	-1.7583	-2.2313	-2.0687	-2.1104	-2.2313	-1.9833	-2.3167	-2.2792	-1.9208	-2.1813	-2.1854	131.124	134.746	147.245	158.550	140.892	172.823	132.695	159.521	228.822	91.319	223.003	173.457	174.229	184.669	107.992	176.117	0.00037973	0.00035168	0.00013814	1118.7	8.0137e-07	2.9202e-06	1221.8	242.49	2.7665e-06	9.1198e-07	306.86	83.009	64.756	19.031	4.7514e-06	26.607	0.00024631	0.00024321	6.7698e-05	1092.8	2.6586e-06	2.6913e-06	1195.3	238.38	2.6694e-06	2.6528e-06	299.98	82.571	64.049	19.149	2.6267e-06	26.49	134.573	-100.489	-42.806	-117.868	-96.776	-87.317	-117.982	-110.772	-80.903	136.603	-110.881	-104.164	-105.465	-96.724	-72.669	-96.719	-8191	255	
964.441	1	1	0	0	0.095721	0.20484	0.31753	0.10541	0.34303	0.28038	0.20611	0.14067	0.28324	0.29126	0.21063	0.13843	0.20921	0.21089	0.16532	0.12019	-1.3625	-2.3438	-1.7833	-2.1875	-2.4042	-1.7563	-2.4	-2.0854	-1.9521	-2.4771	-1.9062	-2.0875	-2.2354	-2.0729	-2.1958	-2.1521	176.583	146.494	-43.840	184.598	38.096	168.331	154.608	143.361	-46.121	57.141	154.214	144.753	4.562	172.154	136.273	62.778	0.00042612	0.00035575	9.4189e-05	1120.7	4.0915e-06	4.0155e-06	1222.8	240.43	2.1856e-06	2.9119e-06	305.32	83.947	65.208	19.012	1.5238e-06	26.606	0.00023994	0.00023893	6.7284e-05	1093.4	2.6661e-06	2.624e-06	1195.1	237.67	2.6429e-06	2.6964e-06	300.05	82.953	64.808	19.202	2.735e-06	26.649	127.245	76.558	-31.082	-118.353	41.310	30.792	-118.279	-110.936	61.295	11.054	-110.936	-104.201	-103.671	-96.166	13.347	-96.387	-8191	255	
964.537	1	1	0	0	0.20109	0.16316	0.12095	0.22685	0.15152	0.13541	0.21091	0.30198	0.23928	0.094704	0.15545	0.19693	0.10934	0.20876	0.077565	0.21719	-1.625	-2.425	-1.9375	-2.0687	-2.0938	-1.9125	-2.3146	-2.1146	-1.9937	-2.3583	-1.9958	-2.0833	-2.2438	-1.7437	-2.2792	-2.1437	-92.268	-15.539	183.669	56.496	198.944	-59.145	149.775	168.198	37.619	-45.805	177.916	41.617	116.216	-79.888	26.901	-12.718	0.00016712	0.00043889	6.7302e-05	1122.2	1.0734e-06	3.5745e-06	1222.3	240.92	5.2156e-06	1.3213e-06	305.99	82.93	64.031	19.055	1.3875e-06	26.381	0.00025333	0.00025131	6.9949e-05	1093.5	2.7895e-06	2.7436e-06	1195.8	237.39	2.733e-06	2.7607e-06	300.16	82.628	64.221	19.22	2.7088e-06	26.593	82.018	-38.316	-26.078	-117.714	123.530	14.338	-118.063	-110.702	99.544	34.084	-110.229	-104.347	-103.857	-96.048	-13.672	-96.092	-8191	255	
964.633	1	1	0	0	0.027923	0.05029	0.048645	0.26563	0.15322	0.20534	0.23148	0.096553	0.10555	0.04679	0.22261	0.12377	0.27505	0.2151	0.05204	0.17417	-1.5187	-2.2729	-1.9312	-1.9813	-2.4229	-2.0542	-2.6063	-2.2667	-1.9958	-2.3542	-2.0917	-2.2562	-2.3646	-2.0604	-2.1625	-2.1625	176.957	176.009	18.121	192.045	47.228	55.573	218.709	219.543	-68.410	-57.606	-121.612	-61.441	-102.735	-69.519	166.031	-38.095	0.00016517	0.00062094	0.00011385	1125.9	3.2519e-06	2.4093e-06	1224.8	241.86	2.953e-06	4.92e-06	307.74	83.669	65.507	19.155	5.0648e-06	26.557	0.00024348	0.00024521	6.7838e-05	1094.7	2.6907e-06	2.6794e-06	1194.9	237.89	2.686e-06	2.6931e-06	300.42	82.679	64.657	19.227	2.6613e-06	26.613	143.667	-109.633	139.103	-115.101	17.714	-89.711	-115.086	-107.616	217.509	75.560	-107.764	-100.896	-101.398	-93.164	43.779	-93.275	-8191	255	
964.728	1	1	0	0	0.29132	0.15806	0.042064	0.067378	0.033385	0.20114	0.16042	0.18382	0.22248	0.3607	0.13313	0.3703	0.40316	0.16094	0.19907	0.10629	-1.6854	-2.4313	-2.2188	-2.2896	-2.5396	-1.9188	-2.3312	-2.3271	-1.7208	-2.4146	-2.3333	-2.0354	-2.2771	-1.8854	-2.0687	-2.3292	-43.196	-92.325	192.755	62.128	163.158	195.764	138.188	154.370	-96.758	70.600	162.717	211.145	149.893	-103.881	-35.553	77.000	0.00017376	0.0004126	0.00011773	1124.4	1.9365e-06	3.4608e-06	1219.3	242.22	1.2208e-06	3.713e-06	305.64	83.297	66.042	19.055	4.6433e-06	26.572	0.00024472	0.00024114	6.714e-05	1092.8	2.6511e-06	2.6541e-06	1193.6	237.82	2.7031e-06	2.6402e-06	299.67	82.545	64.3	19.22	2.5914e-06	26.536	89.247	28.591	-93.001	-114.788	195.661	58.052	-115.144	-107.809	-15.822	90.037	-107.587	-101.525	-101.558	-93.165	-4.362	-93.807	-8191	255	
964.848	1	1	0	0	0.042662	0.1405	0.072555	0.24322	0.1209	0.2384	0.1492	0.24478	0.26139	0.15535	0.056752	0.13436	0.28553	0.16351	0.079646	0.27409	-1.4917	-2.2812	-2.2062	-2.1167	-2.4813	-1.7917	-2.0708	-2.3979	-2.0354	-2.225	-2.3271	-1.9479	-2.4271	-1.9792	-2.0958	-2.3042	85.954	162.878	88.852	77.314	-36.697	127.693	109.977	133.068	88.156	144.442	-10.533	-73.616	-66.006	-103.669	-124.737	-52.906	0.00022988	0.00031485	0.00013234	1120	1.4496e-06	2.329e-06	1222.5	241.5	3.0231e-06	1.1956e-06	303.73	83.2	65.531	19.071	4.013e-06	26.489	0.00023817	0.00023041	6.5134e-05	1090.8	2.5859e-06	2.5759e-06	1194	237.19	2.5945e-06	2.5861e-06	298.66	82.417	64.329	19.222	2.591e-06	26.556	153.707	-41.762	-33.741	-114.889	211.984	32.574	-115.154	-107.799	32.203	96.821	-107.822	-101.289	-103.006	-95.656	-121.454	-96.227	-8191	255	
964.920	1	1	0	0	0.12423	0.31905	0.096646	0.20678	0.24935	0.21369	0.056911	0.27625	0.20954	0.2117	0.17274	0.15333	0.095355	0.27889	0.066871	0.09349	-1.4604	-2.1708	-2.4229	-1.9479	-2.4083	-2.1	-2.0312	-2.4354	-1.7792	-2.2208	-2.125	-1.8729	-2.2042	-1.975	-1.7958	-2.3771	148.879	48.507	14.448	-6.025	-0.034	92.017	-68.208	194.164	-19.467	124.477	52.091	49.681	61.284	-117.711	138.048	-6.622	0.00027178	0.00047065	3.3504e-05	1121.2	4.0891e-06	4.3165e-06	1216.6	241.1	5.8467e-06	3.5223e-06	303.49	82.937	65.639	18.979	2.4031e-06	26.678	0.00023758	0.00023378	6.5877e-05	1090.8	2.6078e-06	2.6283e-06	1190.2	236.92	2.635e-06	2.5985e-06	298.85	82.491	64.414	19.201	2.5724e-06	26.598	148.691	-20.083	219.733	-117.342	-95.937	17.513	-117.667	-110.228	214.935	77.355	-110.319	-104.213	-103.933	-95.609	-87.878	-96.512	-8191	255	
965.016	1	1	0	0	0.047051	0.20648	0.2156	0.32102	0.24785	0.16023	0.24161	0.14795	0.084872	0.19936	0.13946	0.18236	0.21289	0.27886	0.12581	0.10263	-1.4958	-1.8563	-2.35	-1.8771	-2.4417	-2.1917	-2.025	-2.3833	-2.0354	-2.0875	-2.475	-1.8271	-2.05	-2.2771	-1.8896	-2.3917	214.910	79.518	107.427	199.045	3.749	101.774	106.203	192.216	196.446	-73.338	190.078	182.310	-30.875	51.582	90.046	59.629	0.00043778	0.00043317	0.00013536	1114.5	2.9023e-06	2.8673e-06	1217.8	240.59	5.4775e-06	6.731e-06	303	82.649	64.609	19.099	1.037e-06	26.46	0.00023854	0.00023424	6.541e-05	1089.4	2.5716e-06	2.534e-06	1192.1	237.19	2.6263e-06	2.6068e-06	299.02	82.34	64.232	19.21	2.6059e-06	26.55	120.249	-66.429	-25.839	-117.783	228.737	18.201	-118.101	-110.233	-16.093	32.537	-110.862	-104.071	-103.822	-95.769	-41.170	-96.863	-8191	255	
965.137	1	1	0	0	0.13159	0.18719	0.10078	0.31511	0.09568	0.24656	0.096882	0.30021	0.064171	0.23079	0.097844	0.21281	0.22251	0.12049	0.17106	0.21778	-1.6708	-1.975	-2.2479	-1.9479	-2.0708	-2.2896	-2.0312	-2.4042	-2.0687	-2.0167	-2.3563	-1.9292	-2.2812	-2.4875	-1.7958	-2.2667	-76.546	-14.874	-94.799	187.624	63.646	204.454	232.518	214.936	-57.581	-119.422	127.257	-108.269	110.701	166.578	203.338	196.201	0.00021113	5.5237e-05	3.9538e-05	1115.4	7.2608e-06	2.5228e-06	1218.9	240.77	1.2202e-06	4.3488e-06	305.46	82.645	66.103	19.233	1.7156e-07	26.543	0.00023925	0.00022982	6.5191e-05	1088.6	2.5683e-06	2.531e-06	1191	237.32	2.5579e-06	2.5676e-06	298.72	82.254	64.332	19.264	2.5793e-06	26.589	150.717	-52.349	-5.514	-116.947	5.749	-4.698	-116.996	-109.342	182.245	163.195	-108.104	-101.468	-101.158	-93.446	205.730	-93.724	-8191	255	
965.233	1	1	0	0	0.21055	0.20522	0.27979	0.14887	0.059714	0.088518	0.16874	0.24326	0.28705	0.1159	0.22847	0.1382	0.12186	0.21165	0.1348	0.12233	-1.7958	-2.0021	-2.3312	-2.0708	-2.2792	-2.2083	-2.0771	-2.6104	-2.1729	-2.0708	-2.3667	-2.1646	-2.075	-2.275	-1.9833	-2.3167	170.865	-44.231	52.083	213.918	-48.093	89.148	151.108	180.832	-102.418	65.447	64.296	186.452	-71.175	125.884	-62.543	179.456	0.00024088	0.00017066	9.7567e-05	1119.6	1.1096e-06	1.2395e-06	1220.7	241.25	3.3249e-06	2.6947e-06	305.11	83.146	64.932	19.103	8.9589e-06	26.615	0.00023405	0.0002359	6.5768e-05	1088.8	2.6161e-06	2.6085e-06	1189.8	237.3	2.5357e-06	2.604e-06	298.73	82.178	63.867	19.186	2.5387e-06	26.476	115.455	-42.039	-36.968	-114.781	173.290	145.721	-115.008	-107.819	8.217	216.825	-107.858	-101.270	-101.253	-93.398	66.446	-93.848	-8191	255	
965.329	1	1	0	0	0.11579	0.34408	0.17292	0.16178	0.25661	0.26874	0.28359	0.19138	0.0097835	0.046271	0.14255	0.1266	0.13579	0.26756	0.12211	0.18791	-1.8583	-2.025	-2.3833	-2.075	-2.1854	-2.4729	-1.9292	-2.2958	-2.275	-1.7667	-2.5396	-2.0875	-2.0438	-2.3229	-2.1125	-2.1104	-92.675	-67.913	204.282	189.714	69.146	7.970	182.979	21.785	-12.754	-59.207	-39.132	160.069	-71.992	-124.471	149.888	74.137	0.00038345	0.00016716	1.8039e-05	1120	1.6258e-06	1.5175e-06	1222.9	241.03	4.4801e-06	6.9395e-07	305.3	83.174	65.303	19.034	6.267e-06	26.38	0.00023278	0.00023382	6.3571e-05	1087.5	2.5659e-06	2.5175e-06	1191.6	236.55	2.5642e-06	2.5421e-06	298.24	82.228	63.8	19.174	2.5392e-06	26.559	147.739	-16.249	-12.938	-115.032	-92.821	8.598	-115.021	-107.512	-100.911	-55.258	-108.192	-101.723	-101.717	-93.220	24.551	-93.430	-8191	255	
965.425	1	1	0	0	0.1924	0.1643	0.22785	0.16573	0.15649	0.12523	0.17893	0.19774	0.25616	0.31199	0.16775	0.17876	0.10405	0.27721	0.1437	0.11971	-1.7542	-1.8542	-2.2167	-2.3521	-1.9833	-2.3479	-2.0521	-2.1688	-2.1208	-1.975	-2.4542	-2.0396	-2.075	-2.5229	-2.0625	-2.1479	77.822	144.323	-44.652	177.842	60.139	-98.526	153.982	195.882	-119.924	161.503	129.018	234.366	190.505	-105.370	192.416	167.488	0.00016907	0.0005921	0.00010135	1116.6	6.26e-06	2.2977e-06	1219.8	241.24	1.419e-06	6.5781e-06	306.65	82.867	65.59	19.088	2.4407e-06	26.598	0.00023636	0.00023582	6.4667e-05	1087	2.5613e-06	2.5444e-06	1188.9	237.14	2.6239e-06	2.5881e-06	298.79	82.085	64.081	19.146	2.5761e-06	26.509	93.557	-70.504	-53.337	-114.718	-81.459	101.209	-115.060	-107.533	-38.796	90.622	-107.944	-101.390	-101.051	-93.296	133.191	-93.730	-8191	255	
965.521	1	1	0	0	0.11487	0.19501	0.11917	0.29775	0.24644	0.20121	0.3106	0.087497	0.039112	0.18254	0.18842	0.26684	0.12708	0.14533	0.095701	0.32158	-2.0187	-2.1063	-2.2271	-2.2896	-1.9958	-2.4188	-2.2604	-2.1813	-2.2625	-1.8792	-2.3417	-2.4562	-2.2042	-2.4917	-2.0833	-1.8896	-109.619	190.258	148.399	-108.261	-25.631	87.893	198.899	-8.857	204.112	185.758	-29.338	215.610	214.886	-64.683	-29.029	-46.487	0.00018237	0.00054839	1.3668e-05	1114.1	3.6057e-06	3.4357e-06	1220.3	240.38	1.7629e-06	1.0909e-06	306.66	82.428	65.303	19.03	1.4812e-06	26.427	0.00023712	0.00023471	6.5282e-05	1087.5	2.5604e-06	2.5359e-06	1188.7	236.51	2.5573e-06	2.5289e-06	298.45	81.948	64.277	19.162	2.5243e-06	26.502	120.799	-65.689	-75.247	-114.867	-99.347	2.565	-114.899	-107.598	173.385	141.323	-107.712	-101.217	-101.729	-93.378	85.025	-93.345	-8191	255	
965.618	1	1	0	0	0.18283	0.19554	0.18546	0.18636	0.17263	0.16738	0.23001	0.21451	0.1747	0.1835	0.035294	0.037097	0.0664	0.12046	0.26581	0.08602	-1.9417	-1.9813	-2.2625	-2.4167	-1.8854	-2.3708	-2.3417	-2.1	-2.4458	-1.9208	-2.2938	-2.3396	-1.7979	-2.3667	-2.0146	-1.9646	59.974	79.358	175.667	-54.478	-57.553	190.572	98.708	10.253	31.735	31.183	-62.574	190.991	198.533	196.615	119.389	138.937	0.00023571	9.2431e-05	0.00014903	1114.7	3.3881e-06	2.2396e-06	1216.9	240.08	2.2011e-06	5.0796e-06	304.47	83.173	66.196	18.992	9.4985e-07	26.554	0.0002314	0.0002284	6.336e-05	1085.1	2.5393e-06	2.4945e-06	1187.1	236.02	2.5614e-06	2.5146e-06	297.82	82.132	64.298	19.133	2.5278e-06	26.474	150.615	145.549	6.207	-114.877	-27.344	50.431	-115.099	-107.827	82.718	29.691	-107.357	-101.321	-101.495	-93.154	-46.764	-93.346	-8191	255	
965.738	1	1	0	0	0.16555	0.17002	0.040195	0.25669	0.060434	0.13877	0.44185	0.22514	0.060324	0.11531	0.10368	0.22231	0.13068	0.21023	0.070518	0.12114	-1.9042	-2.0271	-2.2	-2.4354	-2.0542	-2.3	-2.1792	-2.1354	-2.0812	-2.1125	-2.2125	-2.2354	-1.8937	-2.3333	-2.1437	-1.9833	109.090	100.175	164.677	197.821	91.144	8.116	143.403	221.980	132.190	68.850	76.567	142.281	39.150	183.397	225.850	-62.860	0.00021623	0.0002615	0.00013571	1104.7	4.781e-06	4.5822e-06	1222.4	240.64	5.1535e-06	1.1755e-06	304.41	82.483	65.944	19.074	2.5686e-06	26.804	0.00023374	0.00022983	6.3473e-05	1081.9	2.5226e-06	2.4982e-06	1188.5	236.3	2.5108e-06	2.4673e-06	297.87	81.761	63.87	19.118	2.4521e-06	26.472	131.574	-34.861	-48.078	-114.792	115.018	28.757	-115.081	-107.420	-31.853	128.268	-107.930	-101.397	-101.344	-93.286	-28.900	-93.319	-8191	255	
965.833	1	1	0	0	0.062832	0.023261	0.13627	0.11287	0.13696	0.23954	0.2157	0.11066	0.16649	0.23784	0.010467	0.23503	0.24957	0.088522	0.12475	0.25049	-2.1021	-1.8917	-2.25	-2.6125	-1.8792	-2.2333	-2.4458	-2	-2.5208	-2.0187	-2.1312	-2.3854	-2.0062	-2.4729	-2.375	-1.8958	-28.519	-83.410	-52.484	176.882	226.206	47.649	184.742	127.879	-74.891	175.002	-105.156	-101.269	157.121	5.928	28.373	71.771	0.00027856	0.0001269	8.9649e-05	1112.1	4.9735e-06	4.1122e-06	1216.6	240.1	3.9707e-06	2.9038e-06	305.87	82.694	64.519	19.035	2.1958e-06	26.526	0.00022276	0.000221	6.2106e-05	1082.6	2.4714e-06	2.4199e-06	1185.8	235.85	2.4331e-06	2.3976e-06	297.3	81.91	63.731	19.104	2.4146e-06	26.485	116.855	-88.539	-27.740	-114.592	-19.812	-66.780	-115.240	-107.409	-56.148	197.707	-107.502	-101.414	-101.533	-93.004	-82.646	-93.375	-8191	255	
965.929	1	1	0	0	0.27831	0.0080644	0.096618	0.1428	0.09645	0.093994	0.093052	0.061554	0.12206	0.06559	0.074743	0.14434	0.078652	0.26823	0.2561	0.22067	-2.0396	-2.1354	-2.0646	-2.4729	-1.9292	-2.3854	-2.4062	-1.8937	-2.3583	-2.0667	-2.1896	-2.4417	-2.0312	-2.2125	-2.2729	-1.9292	88.430	150.013	-32.376	181.371	-8.943	0.593	176.083	-116.037	-93.578	224.306	203.501	-90.824	-53.496	-104.864	-22.595	161.632	0.00015923	0.00036517	7.0606e-05	1113.6	2.5646e-06	3.725e-06	1208.8	241.39	5.1784e-06	1.2241e-06	304.13	82.589	64.985	19.037	4.1754e-06	26.566	0.00022608	0.00022375	6.2621e-05	1080.9	2.4524e-06	2.4356e-06	1183.3	236.27	2.465e-06	2.4322e-06	297.78	81.824	63.542	19.113	2.4961e-06	26.335	140.338	-104.270	-39.939	-114.799	-13.059	-7.161	-115.256	-107.707	-0.108	169.109	-107.782	-101.557	-101.420	-92.945	71.947	-93.451	-8191	255	
966.025	1	1	0	0	0.2969	0.2178	0.29864	0.35647	0.062373	0.12523	0.075454	0.36016	0.10032	0.21705	0.24746	0.11987	0.12997	0.11474	0.058474	0.066385	-1.8917	-2.2292	-1.9604	-2.3896	-1.9292	-2.25	-2.4688	-1.9958	-2.4354	-2.1646	-2.1021	-2.4271	-1.9813	-2.2271	-2.2875	-1.7938	85.702	106.844	34.748	131.008	-103.269	70.456	221.793	201.678	31.674	-24.778	103.968	-20.678	-48.129	-73.089	35.711	116.377	0.00035284	0.00011446	8.6618e-05	1108.5	9.1798e-07	2.9476e-06	1210.4	238.75	2.9911e-06	3.7609e-06	303.83	82.221	63.747	19.119	6.5452e-06	26.556	0.00022652	0.00022661	6.2668e-05	1081.1	2.526e-06	2.4405e-06	1183.3	235.46	2.4253e-06	2.4952e-06	296.95	81.876	63.325	19.116	2.4315e-06	26.419	125.502	-44.869	124.126	-116.828	-86.427	0.135	-118.192	-111.006	-91.251	42.474	-110.365	-104.252	-104.196	-96.157	8.018	-94.932	-8191	255	
966.146	1	1	0	0	0.12789	0.17594	0.091246	0.084584	0.043143	0.15335	0.22225	0.19588	0.17505	0.21458	0.053239	0.21048	0.12439	0.18256	0.18195	0.33576	-1.8958	-2.3083	-1.8521	-2.5333	-1.875	-2.2208	-2.4521	-1.8937	-2.1792	-2.3771	-2.0438	-2.375	-2.1042	-2.1542	-2.4271	-1.8792	50.243	-83.827	24.846	152.973	163.747	-21.343	134.057	-119.529	140.933	-70.619	169.369	196.425	136.175	7.506	96.292	78.158	0.00026872	0.00038999	2.7928e-05	1107.2	5.7287e-07	3.3013e-06	1207.6	239.43	9.3791e-06	2.9957e-06	303.97	82.913	65.524	19.036	6.9371e-07	26.393	0.00022283	0.00022553	6.2112e-05	1079.8	2.4508e-06	2.4221e-06	1181.6	235.22	2.4425e-06	2.4855e-06	297.04	81.896	63.627	19.13	2.4581e-06	26.338	140.847	-38.973	-11.428	-116.783	-84.879	-20.476	-117.961	-109.933	-22.017	81.663	-109.909	-103.219	-103.414	-95.866	65.323	-96.404	-8191	255	
966.217	1	1	0	0	0.33794	0.097902	0.24248	0.13979	0.21852	0.096499	0.13974	0.1915	0.076872	0.1761	0.22059	0.11562	0.31346	0.16157	0.11445	0.18521	-1.875	-2.2604	-1.8042	-2.3812	-2.0312	-1.9562	-2.5917	-1.9146	-2.0625	-2.0833	-1.8667	-2.3833	-2.0521	-1.7667	-2.2771	-2.0875	213.799	199.869	-79.407	134.753	88.196	164.895	215.316	100.884	187.876	-117.219	-82.799	88.031	-92.767	-15.093	78.233	-124.702	0.00015396	0.00027344	0.0001556	1109.5	1.672e-06	1.7008e-06	1204.5	240.03	2.8353e-06	4.0738e-06	303.09	82.392	64.737	19.027	2.8143e-06	26.391	0.00022758	0.00021961	6.2431e-05	1079.5	2.4814e-06	2.4077e-06	1179.6	235.68	2.4124e-06	2.4386e-06	296.89	81.729	63.427	19.117	2.4424e-06	26.358	195.247	-35.865	-50.531	-117.425	-76.094	92.615	-117.676	-109.991	170.513	83.489	-109.953	-103.627	-103.009	-95.960	50.502	-96.124	-8191	255	
966.313	1	1	0	0	0.16375	0.2088	0.10163	0.10395	0.15003	0.49398	0.19331	0.088011	0.22869	0.29808	0.039169	0.23932	0.10165	0.024102	0.15174	0.13068	-1.8479	-2.3271	-1.9854	-2.3021	-2.1312	-2.0354	-2.5521	-2.0833	-2.0583	-2.3146	-1.9458	-2.3771	-2.1771	-1.8708	-2.2583	-1.9896	-76.183	103.436	-32.764	-113.889	-78.905	46.228	147.496	85.093	139.369	184.169	-110.502	202.755	199.181	-107.073	189.862	36.508	0.00013738	0.00042251	5.379e-05	1107.5	2.7448e-06	3.8641e-06	1205.3	238.58	5.7661e-06	4.2373e-06	304.35	82.574	64.455	18.898	3.2053e-06	26.228	0.00022696	0.0002288	6.2628e-05	1079.3	2.4829e-06	2.4486e-06	1182.1	234.99	2.4771e-06	2.4255e-06	296.65	81.692	63.379	19.014	2.4244e-06	26.364	141.219	-43.234	174.589	-118.060	-51.323	-48.554	-117.677	-110.299	-47.202	68.141	-110.390	-104.342	-104.354	-95.923	86.048	-96.196	-8191	255	
966.410	1	1	0	0	0.20406	0.18917	0.14966	0.22501	0.16642	0.28623	0.087385	0.19862	0.14412	0.05041	0.088895	0.2893	0.049484	0.3805	0.12424	0.21646	-1.3708	-2.3646	-1.8104	-2.2604	-1.9146	-1.85	-2.3896	-2.0979	-2.0604	-2.3396	-1.8312	-2.2583	-2.1646	-1.6708	-2.275	-2.0771	150.457	137.261	106.372	189.266	122.814	181.981	-60.045	116.327	156.524	89.356	213.974	88.700	-86.520	-98.889	41.023	22.016	0.00039685	0.00041133	0.00010346	1106.8	9.8243e-07	1.4662e-06	1205	238.63	4.8708e-06	1.6588e-06	305.09	82.877	64.9	19.015	5.9725e-06	26.391	0.00022705	0.0002235	6.131e-05	1079.9	2.4398e-06	2.426e-06	1180.5	235	2.4467e-06	2.4187e-06	297.32	81.902	63.534	19.071	2.4475e-06	26.409	138.676	-7.451	-48.647	-117.749	-93.219	-43.225	-117.596	-110.078	-99.024	45.367	-110.628	-103.940	-104.102	-95.630	-30.704	-95.955	-8191	255	
966.530	1	1	0	0	0.3125	0.17733	0.28274	0.42548	0.27276	0.10199	0.1635	0.096348	0.19407	0.20003	0.037299	0.16428	0.024902	0.17453	0.16781	0.14456	-1.4979	-2.3479	-1.8813	-2.1667	-2.2542	-1.8375	-2.3875	-2.0646	-1.8	-2.2708	-1.9042	-2.1604	-2.2	-1.7313	-2.2625	-2.1125	115.089	-114.010	74.968	165.054	183.979	209.994	-127.759	129.648	-67.644	62.766	-53.274	220.446	-42.781	164.718	-23.622	-32.794	0.00029511	0.0007443	9.726e-05	1104	3.4752e-06	3.3113e-06	1203.5	238.87	2.3386e-06	2.4707e-06	303.63	82.337	64.816	18.965	2.9053e-06	26.42	0.00022655	0.00022284	6.1836e-05	1076.5	2.4579e-06	2.4236e-06	1178.4	235.02	2.4771e-06	2.3982e-06	296.51	81.68	63.468	19.054	2.4182e-06	26.339	155.022	-82.026	69.268	-117.472	-10.708	51.523	-118.165	-111.195	179.943	-33.655	-111.309	-104.807	-103.814	-96.091	7.844	-97.259	-8191	255	
966.626	1	1	0	0	0.31672	0.19686	0.30506	0.25504	0.091634	0.15071	0.052435	0.2188	0.34202	0.12404	0.17732	0.34634	0.31712	0.17034	0.30068	0.17434	-1.4417	-2.2917	-1.7563	-2.2938	-2.4125	-1.7604	-2.5167	-2.2313	-1.85	-2.4188	-1.9937	-1.9979	-2.2604	-1.8687	-2.1271	-2.1583	-26.597	105.697	155.390	119.404	136.309	114.745	209.580	-22.096	36.820	63.828	78.252	224.576	82.776	-122.623	75.470	221.876	0.00016266	0.00049578	5.1703e-05	1106.3	3.8879e-06	2.0658e-06	1210.4	238.63	2.3166e-06	3.3223e-06	299.46	82.332	64.148	18.942	3.2292e-06	26.339	0.0002243	0.00021838	6.0605e-05	1077.2	2.3934e-06	2.4026e-06	1179.3	234.9	2.4305e-06	2.4147e-06	295.57	81.625	62.961	19.056	2.4277e-06	26.262	159.890	-71.222	57.809	-117.779	159.432	-41.324	-118.002	-110.338	230.561	125.827	-111.020	-104.958	-105.074	-96.280	210.227	-96.884	-8191	255	
966.721	1	1	0	0	0.16799	0.19756	0.097718	0.16935	0.34229	0.11601	0.2424	0.23467	0.26519	0.15596	0.40276	0.291	0.14562	0.094891	0.17225	0.31561	-1.5312	-2.2167	-2.0042	-2.2292	-2.4458	-1.9771	-2.3688	-2.2708	-1.5896	-2.1375	-2.2125	-2.0833	-2.5208	-1.9979	-2.0646	-2.2562	191.684	160.840	7.950	165.615	41.622	-99.166	128.760	120.938	66.297	-22.608	212.379	202.395	186.504	120.687	-112.911	-61.876	0.00014772	0.00010264	0.00014343	1109.4	3.1772e-06	2.1586e-06	1204.3	238.25	2.6641e-06	1.9362e-06	300.87	82.416	65.281	18.999	2.2704e-06	26.312	0.00022111	0.00022069	6.1934e-05	1077.1	2.4498e-06	2.3996e-06	1179.1	234.36	2.4644e-06	2.4641e-06	294.69	81.497	63.402	19.104	2.4498e-06	26.327	-107.208	-56.358	-85.905	-117.882	-48.419	-38.467	-118.324	-110.941	128.498	115.562	-111.101	-104.615	-104.650	-96.081	-2.371	-96.554	-8191	255	
966.819	1	1	0	0	0.072957	0.24726	0.10404	0.37495	0.13245	0.3062	0.41341	0.16542	0.12716	0.18288	0.043719	0.14516	0.15694	0.088953	0.078588	0.16347	-1.5667	-2.1854	-2.1229	-2.2042	-2.3312	-2.1771	-2.1146	-2.3146	-1.6979	-2.1667	-2.3083	-1.9708	-2.1521	-2.1	-2.2333	-2.1813	208.390	-56.820	-12.683	178.564	55.115	-62.401	132.897	-112.376	-101.968	174.609	230.513	174.819	-117.772	-100.916	-74.735	186.346	0.00033112	0.00020908	9.0812e-05	1101.5	1.8852e-06	5.783e-06	1206.4	239.88	5.5057e-06	1.4021e-06	302.33	82.401	65.485	18.88	3.0408e-06	26.288	0.00022092	0.00022022	6.1229e-05	1076.8	2.433e-06	2.4037e-06	1178.6	235.09	2.4607e-06	2.4134e-06	296.06	81.471	63.354	19.062	2.4155e-06	26.309	131.843	-52.207	-66.099	-117.950	6.891	-3.128	-118.145	-110.545	-114.668	-112.181	-110.356	-104.258	-103.544	-95.813	-27.320	-96.776	-8191	255	
966.913	1	1	0	0	0.13564	0.050105	0.15464	0.3318	0.30662	0.31531	0.31995	0.1397	0.081633	0.01748	0.15902	0.036302	0.17733	0.25359	0.080837	0.18875	-1.4417	-2.2833	-2.0271	-2.1875	-2.2812	-2.0125	-2.2562	-2.1771	-1.8542	-2.3521	-2.1708	-1.8875	-2.2042	-2.1188	-2.0167	-2.1854	6.336	-96.993	151.625	221.900	67.664	-119.723	118.019	-128.181	-18.514	183.657	14.356	136.686	197.844	-74.161	-43.558	-41.357	0.00030719	0.00011347	0.00011625	1104.9	4.6269e-06	2.2632e-06	1203.7	237.18	4.7092e-06	1.6588e-06	302.81	81.976	64.563	19.082	5.6578e-06	26.441	0.00022287	0.00022115	6.2219e-05	1076.2	2.4204e-06	2.3871e-06	1176.2	234.18	2.4358e-06	2.4163e-06	295.82	81.601	63.161	19.099	2.4151e-06	26.425	137.449	114.461	-40.144	-117.552	-67.821	54.733	-118.600	-111.276	-126.034	59.094	-110.733	-104.996	-105.030	-96.729	-38.311	-97.099	-8191	255	
967.009	1	1	0	0	0.097943	0.1666	0.12292	0.30565	0.042411	0.22975	0.22619	0.21028	0.096791	0.17054	0.20122	0.079822	0.2785	0.1912	0.14232	0.078143	-1.6	-2.0167	-2.1437	-1.9167	-2.0604	-2.0521	-2.1208	-2.6667	-1.9167	-2.0958	-2.2562	-1.8479	-2.1417	-2.0792	-1.9729	-2.4521	155.097	-89.696	0.102	129.459	145.629	135.420	150.694	-91.409	-24.663	183.272	155.453	216.485	182.500	84.475	-14.263	118.066	0.00017895	0.00035822	9.5349e-05	1102.9	4.8219e-06	4.4946e-06	1207.2	237.78	3.2375e-06	3.4563e-06	301.23	82.481	64.932	18.924	5.9531e-06	26.215	0.00021982	0.0002207	6.1288e-05	1075.6	2.4283e-06	2.3757e-06	1178.2	234.39	2.4413e-06	2.3846e-06	296	81.514	63.179	19.074	2.403e-06	26.297	149.682	92.457	-111.928	-118.297	-69.328	-3.319	-118.488	-111.129	-61.872	84.028	-111.183	-105.102	-104.779	-96.662	-46.369	-96.681	-8191	255	
967.105	1	1	0	0	0.19179	0.12944	0.056215	0.040591	0.084759	0.072659	0.35145	0.22572	0.1194	0.12351	0.20504	0.12276	0.24841	0.20044	0.03219	0.20398	-1.4417	-1.9229	-2.1437	-2.0083	-2.175	-1.9896	-2.0479	-2.4521	-2.05	-2.1417	-2.1083	-1.9146	-2.3625	-2.2729	-1.7917	-2.3063	65.585	-104.185	46.978	-9.240	120.513	34.027	139.486	85.300	-33.257	175.733	155.596	110.315	-78.404	173.015	81.060	-103.508	0.00028058	0.0003487	5.0361e-05	1098.7	3.566e-06	1.6794e-06	1201.8	238.74	5.5592e-06	2.6241e-06	302.75	82.119	64.992	19.035	1.0161e-05	26.523	0.00022248	0.00021863	6.0226e-05	1073.8	2.3805e-06	2.3607e-06	1175.7	234.57	2.4215e-06	2.3743e-06	295.45	81.466	63.191	19.088	2.4244e-06	26.365	131.952	-12.066	-25.960	-117.891	-85.919	-30.918	-118.441	-111.057	-65.568	28.579	-111.079	-104.734	-105.057	-96.674	39.788	-96.847	-8191	255	
967.226	1	1	0	0	0.17739	0.055452	0.12913	0.19986	0.061708	0.10194	0.19655	0.23165	0.11144	0.15368	0.41424	0.054505	0.13342	0.28473	0.23617	0.2386	-1.6708	-2.0167	-2.4188	-2.1667	-2.1083	-2.2583	-1.875	-2.3812	-2.2396	-1.8833	-2.4062	-2.0417	-2.0917	-2.35	-1.7812	-2.1833	-127.709	85.093	190.700	173.472	174.973	208.546	75.505	183.723	-112.746	-99.581	201.474	-9.426	-2.551	79.322	-37.147	157.931	0.00017727	0.00051134	8.0506e-05	1105.8	5.545e-06	5.5192e-06	1207.7	238.25	1.0579e-06	5.7944e-06	302.99	82.462	64.676	19.05	4.21e-06	26.181	0.00021768	0.00022087	6.128e-05	1074.4	2.387e-06	2.3873e-06	1178.5	234.98	2.3574e-06	2.3588e-06	295.87	81.509	63.221	19.056	2.3176e-06	26.247	110.185	-31.849	4.922	-118.224	-17.526	12.345	-118.545	-111.331	139.150	67.847	-110.774	-104.266	-104.761	-96.331	20.739	-97.524	-8191	255	
967.322	1	1	0	0	0.27776	0.16973	0.026423	0.2939	0.10656	0.29928	0.4156	0.077636	0.24203	0.12848	0.21215	0.17441	0.19844	0.17908	0.29971	0.09159	-1.6958	-1.8979	-2.2625	-1.7667	-2.1604	-2.1437	-1.8813	-2.2812	-1.8667	-1.85	-2.4604	-2.1188	-2.0396	-2.1437	-1.9271	-2.1479	190.306	-68.273	225.623	196.740	75.873	220.762	207.322	-55.183	152.974	194.246	197.185	83.264	102.857	74.930	-59.675	176.704	0.00024033	0.00016108	2.3647e-05	1098.4	1.016e-06	2.3696e-06	1200.8	237.18	6.1511e-06	2.7729e-06	299.64	82.262	64.023	18.813	3.7688e-06	26.357	0.00021481	0.00020951	5.8724e-05	1071.9	2.3029e-06	2.2924e-06	1173.2	233.67	2.32e-06	2.3002e-06	294.32	81.288	62.97	19.016	2.331e-06	26.235	163.482	-88.661	8.302	-117.936	169.462	27.068	-118.596	-111.024	-60.584	96.616	-110.963	-104.504	-104.089	-96.772	-36.236	-97.025	-8191	255	
#DATA ENDS
