BOXY.EXE: ISS Imagent and Oximeter Data Acquisition Program Version 0.80
Ascii Record File

#ACQ INFORMATION
2  Detector Channels 
16  External MUX Channels 
1  Auxiliary Channels 
5000  Waveform (CCF) Frequency (Hz)
1  Waveforms Skipped 
30  Waveforms Averaged 
1  Cycles Averaged 
16  Acquisitions per Waveform 
10.0806  Updata Rate (Hz) 

#FILE INFORMATION
TRUE -- External MUX Channel results are PARSED.
FALSE -- AC DC and Phase are NOT grouped.
TRUE -- Companion Program Settings File CREATED.
FALSE -- AC data not excluded
FALSE -- DC data not excluded
FALSE -- Phase data not excluded
FALSE -- Auxillary Chn. data not excluded
Tab delimiters

#CALIBRATION STATE
TRUE -- Waveform Calibration Values APPLIED.


#AUX CALIBRATION VALUES
Val Type	aux-1	

Term	1.0000e+00	
Factor	0.0000e+00	


#WF CALIBRATION VALUES
A = Detector Channel
Val Type	A-AC1	A-AC2	A-AC3	A-AC4	A-AC5	A-AC6	A-AC7	A-AC8	A-AC9	A-AC10	A-AC11	A-AC12	A-AC13	A-AC14	A-AC15	A-AC16	A-DC1	A-DC2	A-DC3	A-DC4	A-DC5	A-DC6	A-DC7	A-DC8	A-DC9	A-DC10	A-DC11	A-DC12	A-DC13	A-DC14	A-DC15	A-DC16	A-Ph1	A-Ph2	A-Ph3	A-Ph4	A-Ph5	A-Ph6	A-Ph7	A-Ph8	A-Ph9	A-Ph10	A-Ph11	A-Ph12	A-Ph13	A-Ph14	A-Ph15	A-Ph16	

Term	0.00000e+00	0.00000e+00	0.00000e+00	0.00000e+00	0.00000e+00	0.00000e+00	0.00000e+00	0.00000e+00	0.00000e+00	0.00000e+00	0.00000e+00	0.00000e+00	0.00000e+00	0.00000e+00	0.00000e+00	0.00000e+00	0.00000e+00	0.00000e+00	0.00000e+00	0.00000e+00	0.00000e+00	0.00000e+00	0.00000e+00	0.00000e+00	0.00000e+00	0.00000e+00	0.00000e+00	0.00000e+00	0.00000e+00	0.00000e+00	0.00000e+00	0.00000e+00	0.00000e+00	0.00000e+00	0.00000e+00	0.00000e+00	0.00000e+00	0.00000e+00	0.00000e+00	0.00000e+00	0.00000e+00	0.00000e+00	0.00000e+00	0.00000e+00	0.00000e+00	0.00000e+00	0.00000e+00	0.00000e+00	
Factor	1.00000e+00	1.00000e+00	1.00000e+00	1.00000e+00	1.00000e+00	1.00000e+00	1.00000e+00	1.00000e+00	1.00000e+00	1.00000e+00	1.00000e+00	1.00000e+00	1.00000e+00	1.00000e+00	1.00000e+00	1.00000e+00	1.00000e+00	1.00000e+00	1.00000e+00	1.00000e+00	1.00000e+00	1.00000e+00	1.00000e+00	1.00000e+00	1.00000e+00	1.00000e+00	1.00000e+00	1.00000e+00	1.00000e+00	1.00000e+00	1.00000e+00	1.00000e+00	X	X	X	X	X	X	X	X	X	X	X	X	X	X	X	X	

B = Detector Channel
Val Type	B-AC1	B-AC2	B-AC3	B-AC4	B-AC5	B-AC6	B-AC7	B-AC8	B-AC9	B-AC10	B-AC11	B-AC12	B-AC13	B-AC14	B-AC15	B-AC16	B-DC1	B-DC2	B-DC3	B-DC4	B-DC5	B-DC6	B-DC7	B-DC8	B-DC9	B-DC10	B-DC11	B-DC12	B-DC13	B-DC14	B-DC15	B-DC16	B-Ph1	B-Ph2	B-Ph3	B-Ph4	B-Ph5	B-Ph6	B-Ph7	B-Ph8	B-Ph9	B-Ph10	B-Ph11	B-Ph12	B-Ph13	B-Ph14	B-Ph15	B-Ph16	

Term	0.00000e+00	0.00000e+00	0.00000e+00	0.00000e+00	0.00000e+00	0.00000e+00	0.00000e+00	0.00000e+00	0.00000e+00	0.00000e+00	0.00000e+00	0.00000e+00	0.00000e+00	0.00000e+00	0.00000e+00	0.00000e+00	0.00000e+00	0.00000e+00	0.00000e+00	0.00000e+00	0.00000e+00	0.00000e+00	0.00000e+00	0.00000e+00	0.00000e+00	0.00000e+00	0.00000e+00	0.00000e+00	0.00000e+00	0.00000e+00	0.00000e+00	0.00000e+00	-2.04106e+02	-1.47295e+02	-1.31471e+02	-1.83006e+02	-1.05308e+02	-9.56335e+01	-1.57489e+02	-1.62015e+02	-1.04563e+02	-3.96514e+01	-1.72066e+02	-1.71987e+02	-1.87133e+02	-1.76833e+02	-7.95936e+01	-1.54913e+02	
Factor	7.03256e-05	1.41041e-04	4.05673e-05	1.70326e-01	1.62816e-06	1.33254e-06	1.95207e-01	5.96007e-02	1.84989e-06	1.49910e-06	1.05898e-01	4.16366e-02	9.64820e-02	1.05399e-02	1.79118e-06	2.58797e-02	1.57653e-06	1.61043e-06	4.48186e-07	8.61403e-02	1.75392e-08	1.76000e-08	9.27146e-02	3.00841e-02	1.75714e-08	1.76740e-08	5.11745e-02	1.99295e-02	4.41448e-02	5.29322e-03	1.75939e-08	1.20619e-02	X	X	X	X	X	X	X	X	X	X	X	X	X	X	X	X	



#DISTANCE SETTINGS
A = Detector Channel
A-1	A-2	A-3	A-4	A-5	A-6	A-7	A-8	A-9	A-10	A-11	A-12	A-13	A-14	A-15	A-16	

2.5000e+00	3.0000e+00	2.5000e+00	3.0000e+00	2.0000e+00	3.0000e+00	1.5000e+00	3.0000e+00	3.0000e+00	3.0000e+00	3.0000e+00	3.0000e+00	3.0000e+00	3.0000e+00	1.5000e+00	3.0000e+00	

B = Detector Channel
B-1	B-2	B-3	B-4	B-5	B-6	B-7	B-8	B-9	B-10	B-11	B-12	B-13	B-14	B-15	B-16	

1.0000e+01	1.0000e+01	1.0000e+01	1.4400e+00	1.0000e+01	1.0000e+01	1.5100e+00	1.9400e+00	1.0000e+01	1.0000e+01	1.9900e+00	2.4900e+00	2.4100e+00	2.9000e+00	1.0000e+01	2.9800e+00	




#DATA BEGINS
time	group	step	mark	flag	A-AC1	A-AC2	A-AC3	A-AC4	A-AC5	A-AC6	A-AC7	A-AC8	A-AC9	A-AC10	A-AC11	A-AC12	A-AC13	A-AC14	A-AC15	A-AC16	A-DC1	A-DC2	A-DC3	A-DC4	A-DC5	A-DC6	A-DC7	A-DC8	A-DC9	A-DC10	A-DC11	A-DC12	A-DC13	A-DC14	A-DC15	A-DC16	A-Ph1	A-Ph2	A-Ph3	A-Ph4	A-Ph5	A-Ph6	A-Ph7	A-Ph8	A-Ph9	A-Ph10	A-Ph11	A-Ph12	A-Ph13	A-Ph14	A-Ph15	A-Ph16	B-AC1	B-AC2	B-AC3	B-AC4	B-AC5	B-AC6	B-AC7	B-AC8	B-AC9	B-AC10	B-AC11	B-AC12	B-AC13	B-AC14	B-AC15	B-AC16	B-DC1	B-DC2	B-DC3	B-DC4	B-DC5	B-DC6	B-DC7	B-DC8	B-DC9	B-DC10	B-DC11	B-DC12	B-DC13	B-DC14	B-DC15	B-DC16	B-Ph1	B-Ph2	B-Ph3	B-Ph4	B-Ph5	B-Ph6	B-Ph7	B-Ph8	B-Ph9	B-Ph10	B-Ph11	B-Ph12	B-Ph13	B-Ph14	B-Ph15	B-Ph16	aux-1	digaux	

1024.269	1	1	0	256	0.073469	0.095883	0.098524	0.12375	0.030371	0.19652	0.085598	0.12105	0.10369	0.038518	0.20587	0.20901	0.24776	0.049407	0.31766	0.11775	-1.5854	-2.1333	-2.1354	-1.975	-2.0375	-2.0438	-1.8563	-2.3875	-1.8708	-2.0625	-2.3312	-1.9396	-2.0958	-2.1104	-1.9667	-2.2271	122.339	-22.498	215.191	119.960	219.210	6.108	154.464	224.388	-20.508	-28.417	186.281	139.833	-85.989	-89.351	169.080	-49.058	0.00039561	0.00038938	0.00010898	1193.5	9.6275e-07	5.5797e-06	1271.4	256.45	3.3708e-06	1.5175e-06	317.15	85.317	67.879	19.986	6.8742e-07	27.01	0.00038151	0.00037769	0.00010385	1169.2	4.0166e-06	3.9998e-06	1249.4	254.71	3.9501e-06	3.9505e-06	315.44	85.907	70.324	20.471	3.8847e-06	28.184	113.740	50.067	210.824	-117.561	-45.382	68.663	-117.688	-110.283	17.852	-6.114	-110.440	-104.282	-103.904	-96.141	179.389	-96.466	-8191	255	
1024.390	1	1	0	0	0.35091	0.1067	0.18219	0.28746	0.20615	0.10969	0.25218	0.31599	0.053599	0.12307	0.080966	0.1536	0.19764	0.1717	0.10827	0.040404	-1.4708	-1.8917	-2.2313	-1.8646	-2.1729	-2.0396	-2.0812	-2.2604	-1.9708	-1.775	-2.4333	-1.6729	-2.0938	-2.0875	-1.7271	-2.3375	46.105	222.314	-109.252	161.065	-20.062	186.504	134.660	-85.350	189.718	201.035	152.010	195.296	112.419	202.745	43.806	122.058	0.00048028	0.00058894	4.597e-05	1186.4	2.5293e-06	6.1745e-06	1264.6	254.6	4.5982e-06	5.6157e-06	315.38	84.551	69.221	19.673	7.1376e-06	27.01	0.00035174	0.00035435	9.7249e-05	1161.8	3.7786e-06	3.8036e-06	1240.5	251.75	3.7846e-06	3.7436e-06	311.88	85.419	69.561	20.252	3.6305e-06	27.742	140.798	-16.733	214.622	-117.432	200.298	-22.813	-117.788	-110.265	-118.554	179.490	-110.310	-104.027	-104.144	-95.768	-29.429	-95.770	-8191	255	
1024.486	1	1	0	0	0.20793	0.17929	0.21688	0.060046	0.32015	0.29866	0.17934	0.084528	0.20014	0.13203	0.057293	0.12255	0.095442	0.13329	0.15824	0.19479	-1.4667	-1.8479	-2.2417	-1.9021	-2.2042	-2.1542	-1.8292	-2.3542	-2.2042	-2.1	-2.2708	-2.1208	-2.0042	-2.4229	-1.7875	-2.1833	-18.452	-32.626	-107.089	-45.082	174.846	-110.012	212.984	54.651	31.409	20.971	-20.365	-74.385	78.894	-55.444	177.168	192.561	0.00043052	0.00034858	1.9643e-05	1175.3	1.705e-06	2.0759e-06	1253.8	251.41	4.1354e-06	3.8445e-06	312.77	83.69	67.547	19.577	1.7824e-06	26.944	0.00032298	0.00032092	8.9341e-05	1150.3	3.5261e-06	3.4843e-06	1228.8	248.78	3.5391e-06	3.5081e-06	309	84.412	68.644	20.044	3.4743e-06	27.587	115.260	-74.697	-49.326	-117.005	5.660	-13.119	-117.345	-110.193	-104.243	139.782	-110.484	-103.748	-103.400	-95.166	51.905	-96.521	-8191	255	
1024.580	1	1	0	0	0.04284	0.38957	0.19974	0.029032	0.19235	0.10412	0.22986	0.039044	0.15444	0.17803	0.10157	0.10193	0.065613	0.14982	0.24568	0.25914	-1.6021	-1.8042	-2.3396	-1.9229	-2.1208	-2.2146	-2.0979	-2.3479	-2.2229	-1.8312	-2.5146	-2.0375	-2.1083	-2.5479	-1.7729	-2.2979	-15.298	122.371	-6.202	176.017	-82.110	-93.729	127.392	189.033	-115.501	47.161	227.721	-74.127	84.428	-49.478	229.558	220.880	0.00036841	0.0002542	2.8564e-05	1174.3	1.8468e-06	4.2386e-06	1253.7	250.41	5.1788e-06	4.371e-06	309.92	83.746	67.926	19.831	2.0845e-06	27.055	0.00031608	0.0003181	8.6885e-05	1148.6	3.5442e-06	3.5233e-06	1229.3	248.08	3.6095e-06	3.6577e-06	308.01	84.246	68.893	20.194	3.7065e-06	27.785	181.415	218.888	-80.831	-117.058	57.267	-14.648	-116.983	-109.901	66.873	138.476	-109.936	-103.705	-103.586	-95.345	5.792	-95.457	-8191	255	
1024.654	1	1	0	0	0.24513	0.039014	0.072624	0.37701	0.06406	0.16289	0.13946	0.094693	0.17736	0.13831	0.1203	0.090817	0.2639	0.2119	0.2141	0.1016	-1.7479	-1.7437	-2.5021	-1.9	-1.8333	-2.3625	-2.0687	-2.0563	-2.1917	-1.8563	-2.2854	-2.1646	-1.9708	-2.3083	-1.8813	-2.1271	-54.286	129.207	210.385	174.176	30.295	148.202	209.228	161.207	-34.329	-37.915	155.860	79.070	-16.796	-95.780	58.432	160.489	0.00035061	0.00015228	6.8311e-05	1174.4	2.6173e-06	9.403e-07	1246.3	251.37	6.749e-06	2.9608e-06	312.36	83.315	67.707	19.604	2.8768e-06	26.765	0.00033935	0.00033517	9.3613e-05	1148.5	3.6925e-06	3.6209e-06	1228	248.8	3.7002e-06	3.6923e-06	308.15	84.327	69.031	20.126	3.7323e-06	27.651	107.337	-2.180	-83.364	-116.797	214.307	128.919	-117.153	-109.561	-48.161	64.592	-109.300	-103.631	-104.048	-95.277	-54.581	-95.348	-8191	255	
1024.773	1	1	0	0	0.27484	0.14686	0.3379	0.2171	0.23142	0.11144	0.271	0.059718	0.24425	0.14567	0.11346	0.16296	0.16557	0.21976	0.32682	0.15417	-1.6812	-1.6562	-2.1479	-2.1917	-2.1146	-2.2521	-2.1146	-2.0625	-2.2667	-1.6938	-2.3146	-2.1875	-1.7771	-2.4562	-2.0625	-2.1542	-118.913	-101.562	-46.844	-126.983	-74.901	-74.022	115.587	193.248	17.058	212.831	-75.342	166.621	143.788	136.136	-105.674	-56.934	0.0004114	0.00043576	0.00010425	1169.6	2.7625e-06	4.7974e-06	1251.6	251.6	2.8329e-06	2.3642e-06	311.27	83.581	67.36	19.56	5.5813e-06	26.965	0.00034042	0.00034531	9.5318e-05	1149.6	3.8243e-06	3.7439e-06	1229.5	249.25	3.7323e-06	3.7234e-06	308.48	84.305	68.891	20.072	3.6483e-06	27.765	154.471	-74.576	134.660	-116.982	-26.367	72.175	-117.685	-110.231	224.822	50.578	-109.767	-103.739	-102.705	-95.186	54.440	-95.868	-8191	255	
1024.869	1	1	0	0	0.20031	0.064293	0.13111	0.13884	0.19787	0.23942	0.40336	0.27603	0.18104	0.16099	0.13658	0.21542	0.070854	0.16362	0.22787	0.21724	-1.9	-1.75	-2.1958	-2.2083	-1.95	-2.2229	-2.1562	-2.2438	-2.2521	-1.8188	-2.2896	-2.2333	-1.8563	-2.325	-1.9667	-2.1125	26.270	142.510	74.126	173.483	-110.270	-69.393	160.180	175.538	44.415	226.747	175.861	144.339	213.616	227.820	-23.075	116.445	0.0001893	0.00065716	5.7401e-05	1170.7	3.8798e-06	3.433e-06	1247.8	250.47	3.2189e-06	1.4486e-06	311.66	83.039	67.559	19.553	7.4322e-06	27.071	0.00033143	0.00033557	9.3328e-05	1146.3	3.6798e-06	3.65e-06	1227.7	248.91	3.7472e-06	3.7417e-06	308.18	84.078	68.838	20.076	3.7072e-06	27.739	142.649	-3.223	-31.890	-116.750	33.959	40.018	-117.588	-110.671	-63.960	-52.658	-110.866	-104.728	-104.366	-95.600	111.887	-96.511	-8191	255	
1024.965	1	1	0	0	0.19128	0.34259	0.14195	0.095728	0.16544	0.28165	0.058296	0.25113	0.1938	0.18934	0.12127	0.053943	0.074136	0.28951	0.24113	0.17636	-1.7313	-1.825	-2.1417	-2.2167	-1.8292	-2.2729	-2.0896	-2.0812	-2.2229	-1.9625	-2.2	-2.0979	-1.7771	-2.0875	-1.8521	-1.9083	-51.550	141.589	-97.062	143.597	-127.156	173.262	-44.752	156.889	-103.932	184.149	133.262	175.104	84.033	219.689	-93.482	185.892	0.00029781	0.00041284	0.00019373	1169.5	3.7894e-06	5.3863e-07	1254.4	249.84	5.7286e-06	3.2458e-06	311.05	83.704	67.169	19.639	4.3563e-06	26.89	0.00034025	0.00034065	9.4657e-05	1146.1	3.7428e-06	3.7634e-06	1229.7	249	3.7432e-06	3.713e-06	307.99	84.288	68.881	20.137	3.7722e-06	27.775	57.443	-59.896	19.539	-117.393	17.858	93.616	-117.551	-109.941	-25.808	48.145	-110.292	-104.006	-104.170	-96.500	163.580	-96.463	-8191	255	
1025.061	1	1	0	0	0.126	0.092777	0.26577	0.15865	0.13834	0.24054	0.43789	0.15913	0.24054	0.04387	0.28852	0.52762	0.34636	0.18242	0.021603	0.14078	-1.9458	-1.9229	-1.9896	-2.2167	-1.8312	-2.0042	-2.1583	-1.9479	-2.0167	-2.0292	-1.9396	-2.0875	-1.8021	-1.9771	-1.9729	-1.7563	-107.030	-49.749	-70.737	200.378	24.403	156.177	181.810	67.032	-65.990	62.421	194.347	133.478	61.369	25.322	54.238	162.477	0.00036193	4.6215e-05	0.00014007	1165.2	4.8078e-06	5.9742e-06	1250.5	251.26	4.3855e-06	3.5836e-06	310.97	83.577	67.359	19.633	2.9202e-06	26.868	0.00034364	0.00034646	9.7565e-05	1145.4	3.8146e-06	3.7794e-06	1227.9	249.39	3.7728e-06	3.7944e-06	308.36	84.199	69.179	20.13	3.7557e-06	27.744	84.602	-104.321	-44.018	-117.498	97.079	-69.982	-118.144	-110.365	-101.221	23.665	-110.510	-104.476	-103.891	-95.726	129.025	-96.386	-8191	255	
1025.182	1	1	0	0	0.13941	0.14958	0.10826	0.17251	0.25976	0.16989	0.36218	0.19094	0.29877	0.30776	0.19904	0.26387	0.14992	0.29174	0.20356	0.19923	-1.8771	-1.6646	-1.8667	-2.3896	-1.7979	-2.1521	-2.4021	-1.8188	-2.3896	-2.0354	-2.1229	-2.5083	-1.9854	-2.3396	-1.9979	-2.0542	72.410	148.855	47.079	170.913	-40.465	135.369	163.027	120.702	198.436	89.341	-54.219	139.291	128.855	123.275	-23.809	199.937	0.00023681	0.00069501	0.00010497	1172.4	7.1052e-06	2.5007e-06	1250.2	251.77	3.096e-06	2.0316e-06	310.22	83.56	67.406	19.696	4.9259e-06	26.585	0.00034223	0.00034246	9.6333e-05	1147.6	3.7719e-06	3.7355e-06	1226.7	249.1	3.7867e-06	3.7472e-06	308.17	84.343	69.241	20.183	3.837e-06	27.74	146.832	-119.081	-7.757	-116.937	-87.165	-105.207	-116.548	-108.184	-20.835	131.511	-107.514	-101.433	-101.231	-92.871	-16.983	-93.412	-8191	255	
1025.253	1	1	0	0	0.12165	0.23941	0.13223	0.14233	0.090418	0.085275	0.14033	0.17895	0.19277	0.1177	0.22404	0.24973	0.13294	0.33816	0.14475	0.22858	-1.9	-2.1854	-1.6958	-2.4417	-1.925	-2.2583	-2.4792	-2.1271	-2.2958	-2.1125	-1.9562	-2.3792	-1.8479	-1.9792	-2.4042	-1.9854	200.436	-3.494	83.423	193.568	136.737	201.639	107.711	157.558	-98.318	33.425	194.204	132.046	-39.575	183.597	-17.815	-110.962	0.00022294	0.00076027	0.0001724	1178.8	3.693e-06	2.9698e-06	1250.2	251.2	1.4965e-06	3.5592e-06	311.03	84.123	67.848	19.634	7.3012e-06	26.941	0.00034755	0.00035408	9.8465e-05	1150.7	3.8458e-06	3.8401e-06	1229.8	249.22	3.865e-06	3.8942e-06	309.01	84.593	69.639	20.211	3.8465e-06	27.894	140.021	-5.669	-0.195	-114.693	-86.412	-2.940	-114.836	-107.511	31.094	95.209	-107.713	-101.216	-101.145	-93.023	38.212	-96.315	-8191	255	
1025.350	1	1	0	0	0.12803	0.19131	0.27249	0.050961	0.13417	0.24682	0.31639	0.11613	0.29515	0.11231	0.099085	0.17567	0.25962	0.20255	0.19524	0.20232	-1.9646	-2.0062	-1.9396	-2.55	-1.9833	-2.0812	-2.2188	-1.9125	-2.4771	-2.0417	-1.9	-2.3187	-1.8167	-2.1792	-2.3688	-1.9792	37.596	142.286	-89.017	-113.923	-99.503	217.317	151.077	-55.570	-99.921	0.868	163.861	-9.920	-121.517	-71.432	88.153	95.739	0.00028472	0.00049206	5.6423e-05	1171.7	4.0929e-06	5.7371e-06	1258.1	251.34	6.1286e-06	3.6342e-06	310.64	83.251	67.738	19.593	5.2366e-06	26.779	0.00034814	0.00035285	9.7086e-05	1151	3.7988e-06	3.8369e-06	1232.7	249.87	3.8408e-06	3.9137e-06	308.36	84.641	69.255	20.25	3.8563e-06	27.793	127.190	-84.579	-107.165	-117.188	-25.799	37.882	-117.927	-110.277	228.257	181.822	-110.040	-104.050	-104.003	-95.997	-12.412	-96.359	-8191	255	
1025.470	1	1	0	0	0.22508	0.11396	0.040479	0.22562	0.22773	0.1682	0.096839	0.11697	0.22762	0.17715	0.10488	0.37527	0.2222	0.2488	0.14912	0.12965	-1.7646	-2.1021	-1.7188	-2.1396	-1.9312	-1.8188	-2.4188	-1.9167	-2.0375	-2.4	-1.8104	-2.4542	-1.9771	-1.9229	-2.225	-1.8875	180.854	118.610	86.454	180.020	4.549	-35.553	-83.657	12.520	67.977	183.915	180.278	231.274	31.081	223.107	165.189	-124.140	0.00012079	0.0006071	3.4567e-05	1174.5	1.6689e-06	2.3031e-06	1255.2	251.19	2.3147e-06	2.437e-06	314.04	84.506	67.742	19.857	8.3737e-06	27.205	0.00035493	0.00035375	9.8032e-05	1151.8	3.8983e-06	3.8478e-06	1233.8	249.97	3.9067e-06	3.8963e-06	310.13	84.919	69.922	20.325	4.0135e-06	28.029	106.157	-13.352	227.993	-117.839	125.162	-38.175	-117.901	-110.369	-117.625	100.769	-110.817	-104.110	-104.248	-96.156	23.652	-96.470	-8191	255	
1025.566	1	1	0	0	0.095136	0.055486	0.10643	0.2796	0.10885	0.16575	0.12961	0.24076	0.2217	0.18726	0.20054	0.20169	0.23142	0.06091	0.11967	0.084297	-1.7646	-2.3708	-1.8125	-2.5625	-2.0167	-2.0229	-2.4062	-1.9021	-2.1708	-2.3312	-1.6958	-2.3354	-2	-1.8333	-2.2604	-1.9125	174.829	-4.201	189.207	157.422	68.775	84.339	-120.062	226.522	47.787	-123.724	120.018	208.700	131.979	218.789	172.817	-60.098	0.00012471	0.00011706	0.00020138	1180.2	4.7215e-06	1.9663e-06	1252.1	251.93	4.29e-06	2.789e-06	313.14	83.862	67.525	19.829	3.5802e-06	26.679	0.00036959	0.00036599	0.00010277	1154.8	4.1018e-06	4.0837e-06	1236.7	251.02	4.1716e-06	4.1454e-06	310.87	85.193	70.291	20.436	4.1663e-06	28.089	115.352	90.781	105.303	-116.533	-86.401	-84.546	-117.551	-110.473	202.448	88.149	-110.936	-104.826	-104.192	-96.575	178.656	-97.273	-8191	255	
1025.663	1	1	0	0	0.33713	0.12374	0.1719	0.013256	0.1875	0.16472	0.072634	0.37914	0.17213	0.16397	0.1612	0.17483	0.24674	0.051051	0.12562	0.11932	-1.5021	-2.075	-1.7792	-2.2438	-1.9937	-1.8896	-2.3479	-2.1562	-1.8438	-2.3708	-1.8646	-2.175	-2.2729	-1.7771	-2.0729	-2.0687	-126.370	-82.186	-23.098	-128.486	-61.799	-94.594	-77.248	201.468	-88.097	-62.568	46.888	-21.095	157.962	43.476	187.404	155.042	0.00033486	0.00034311	0.00011004	1183	4.343e-06	7.4136e-06	1260.2	252.35	4.9092e-06	6.6695e-06	312.71	83.836	68.133	19.765	4.7452e-06	27.165	0.00038551	0.00038216	0.00010745	1158	4.1912e-06	4.1958e-06	1239.8	251.36	4.2316e-06	4.2013e-06	311.62	85.299	70.598	20.423	4.2151e-06	28.303	135.558	-17.479	-77.072	-117.922	92.649	-43.704	-117.952	-110.618	197.174	26.692	-110.779	-104.804	-105.271	-96.473	104.697	-96.607	-8191	255	
1025.781	1	1	0	0	0.20217	0.28862	0.15093	0.42999	0.18887	0.25083	0.15792	0.27675	0.14497	0.24012	0.20244	0.12082	0.14958	0.096511	0.126	0.084351	-1.4604	-2.2875	-1.775	-2.1979	-2.1042	-1.7125	-2.3521	-2.1312	-1.7917	-2.4979	-1.9604	-2.3708	-2.1354	-2.0667	-2.0812	-2.0646	-91.921	-77.928	214.359	216.912	144.255	-115.597	-100.278	216.829	57.293	-73.247	-54.013	133.692	132.516	142.150	-86.323	184.160	0.00025315	0.00040332	0.00013416	1179.7	3.4717e-06	4.2288e-06	1261	253.24	5.3389e-06	6.415e-06	312.89	83.937	68.486	19.769	1.2533e-06	27.196	0.00037929	0.00038306	0.00010709	1158.1	4.2213e-06	4.2054e-06	1241.5	251.9	4.1997e-06	4.2024e-06	311.6	85.579	70.884	20.461	4.2091e-06	28.331	121.326	225.753	207.236	-117.898	-90.122	-45.854	-117.974	-110.418	130.310	101.889	-110.002	-103.726	-104.450	-95.831	177.746	-96.333	-8191	255	
1025.853	1	1	0	0	0.28778	0.064677	0.40136	0.34901	0.20461	0.12948	0.40581	0.19452	0.14715	0.15602	0.1438	0.12635	0.1889	0.081888	0.046609	0.35498	-1.5229	-2.0646	-1.8771	-2.1521	-2.1646	-1.8354	-2.2583	-2.3396	-1.7979	-2.3354	-2.0958	-2.1958	-2.4	-2.0583	-2.2438	-2.275	-127.440	170.255	-86.141	215.852	158.647	73.474	195.593	181.918	-102.331	90.441	133.517	78.112	159.386	-101.493	97.486	165.185	0.00034024	0.00035936	7.8755e-05	1180.3	2.0773e-06	1.0727e-06	1258.6	253.49	7.0453e-06	8.2378e-06	314.08	84.39	68.112	19.882	5.0926e-06	26.993	0.0003839	0.00038673	0.00010799	1159.5	4.2518e-06	4.252e-06	1242.3	251.99	4.3511e-06	4.3567e-06	312.19	85.622	71.118	20.56	4.3467e-06	28.372	114.111	-84.780	80.093	-117.149	-78.924	-19.071	-117.557	-110.032	-107.809	41.684	-108.435	-100.984	-101.094	-93.247	32.450	-93.721	-8191	255	
1025.949	1	1	0	0	0.082049	0.2039	0.12327	0.16697	0.33349	0.08737	0.073236	0.1016	0.15374	0.21151	0.083405	0.094869	0.18081	0.15498	0.14886	0.20068	-1.5917	-2.1375	-2.0292	-2.1	-2.35	-1.8021	-2.4	-2.3292	-1.9646	-2.4062	-2.2938	-2.1188	-2.5146	-2.0708	-2.1917	-2.2958	-21.676	131.018	-27.965	-58.744	65.078	-115.408	-113.716	77.250	57.724	175.575	-34.878	-112.495	73.098	89.914	179.977	144.258	0.00021032	0.00038475	0.00011272	1184.8	3.8645e-06	4.816e-06	1265.9	253.24	8.0811e-07	2.897e-06	313.36	84.273	67.829	19.849	3.5501e-06	27.289	0.00040126	0.00040165	0.00011172	1163.5	4.4208e-06	4.4155e-06	1245.7	252.43	4.4565e-06	4.4603e-06	312.83	85.934	71.803	20.631	4.4999e-06	28.521	-32.065	-88.881	-59.511	-114.477	-123.992	47.695	-114.921	-107.488	100.520	-36.635	-107.862	-101.054	-101.527	-93.545	20.045	-93.727	-8191	255	
1026.070	1	1	0	0	0.1617	0.068294	0.18559	0.37063	0.14157	0.1913	0.19522	0.13617	0.18665	0.10855	0.33583	0.25881	0.17989	0.17967	0.40779	0.26644	-1.5292	-2.1833	-2.0229	-2.1604	-2.4354	-2.0563	-2.2354	-2.3937	-1.9062	-2.4458	-2.3125	-2.0312	-2.4813	-2.0875	-2.1063	-2.4625	129.933	83.099	219.123	173.903	-11.982	14.370	180.317	178.717	83.305	19.893	116.513	-49.747	-104.440	90.720	210.177	-93.920	0.00050248	0.00048914	0.00017368	1187.2	3.5386e-06	4.5147e-06	1266.7	253.57	4.4158e-06	8.6019e-06	315.29	85.425	68.293	20.117	6.4411e-06	27.074	0.00040763	0.00040783	0.0001141	1163.5	4.4152e-06	4.3869e-06	1245.4	253.16	4.4146e-06	4.4459e-06	313.39	86.164	71.693	20.629	4.5336e-06	28.522	107.412	51.397	-42.376	-114.645	82.032	-104.166	-114.782	-107.509	145.853	26.112	-107.596	-101.543	-101.068	-92.962	168.576	-93.741	-8191	255	
1026.166	1	1	0	0	0.070606	0.091705	0.09493	0.16946	0.2086	0.06552	0.19685	0.3452	0.27162	0.077319	0.081456	0.12391	0.14019	0.27893	0.1876	0.30363	-1.6896	-2.2771	-2.2271	-2.1104	-2.3583	-2.1833	-2.3729	-2.4542	-1.9354	-2.3542	-2.1	-2.0542	-2.2458	-2.1521	-1.8937	-2.4083	-122.435	233.960	207.599	72.191	78.548	126.898	183.007	-62.572	174.843	-125.055	-77.031	-9.064	-68.735	230.980	-94.463	121.516	0.00014448	0.00059381	0.00010276	1183.2	4.9028e-06	6.3627e-06	1259.9	254.2	9.6549e-06	9.187e-07	315.83	85.154	69.211	20.122	5.697e-06	27.218	0.00041378	0.0004184	0.0001157	1162.4	4.5399e-06	4.634e-06	1243.6	253.8	4.6803e-06	4.6318e-06	315.19	86.383	72.165	20.738	4.6177e-06	28.614	124.560	54.665	-19.960	-114.588	-83.839	19.900	-114.940	-107.657	223.922	108.953	-107.545	-101.090	-100.944	-93.029	191.011	-93.254	-8191	255	
1026.262	1	1	0	0	0.19698	0.26463	0.10944	0.18788	0.18899	0.059221	0.09142	0.1454	0.14612	0.144	0.20804	0.13477	0.05206	0.062553	0.21071	0.26987	-1.5604	-2.2646	-2.3104	-1.95	-2.3937	-2.0479	-2.3063	-2.6083	-1.9479	-1.9667	-2.4333	-1.8208	-2.3104	-2.1875	-1.9208	-2.2208	11.483	-110.456	2.455	182.395	-55.073	81.948	209.117	215.188	86.154	177.977	-125.353	-93.277	-53.506	-69.325	41.262	-78.222	0.00023008	0.00061528	6.4328e-05	1188.7	4.2097e-06	3.2656e-06	1269.3	255.53	4.9444e-06	3.3891e-06	317.26	85.371	69.106	19.947	5.4783e-06	26.983	0.00041702	0.00042214	0.0001169	1166.5	4.545e-06	4.5626e-06	1248.9	254.18	4.5455e-06	4.5941e-06	316.17	86.642	72.14	20.673	4.5593e-06	28.595	153.924	-89.646	19.287	-114.692	35.755	-59.060	-115.018	-107.574	-61.196	164.679	-107.336	-101.568	-101.670	-92.918	66.319	-93.186	-8191	255	
1026.358	1	1	0	0	0.27475	0.13833	0.23145	0.24993	0.10417	0.068391	0.15046	0.24319	0.12425	0.25744	0.24072	0.14565	0.36258	0.24579	0.21085	0.25428	-1.5875	-2.2188	-2.4062	-2.0979	-2.3625	-2.1479	-1.8813	-2.2812	-2.0104	-2.2083	-2.1437	-1.9583	-2.2875	-2.2062	-1.8188	-2.4667	155.052	120.144	199.600	191.128	198.211	-26.374	30.788	-20.285	87.391	-119.174	143.370	79.313	4.278	13.709	-5.134	-36.154	0.0001956	0.00026571	0.00011997	1191.3	3.1064e-06	2.998e-06	1269.5	253.93	5.8659e-06	3.9761e-06	317.5	84.789	69.256	20.078	1.1605e-06	27.319	0.00041081	0.00041553	0.00011605	1167.5	4.5298e-06	4.5122e-06	1251	253.68	4.5602e-06	4.5076e-06	315.34	86.38	71.77	20.686	4.5421e-06	28.531	106.564	212.679	224.295	-114.715	203.589	62.082	-115.104	-107.503	15.898	-116.964	-107.934	-101.508	-101.174	-93.060	79.163	-93.843	-8191	255	
1026.479	1	1	0	0	0.1827	0.21392	0.032463	0.33675	0.06463	0.10452	0.34041	0.35135	0.42947	0.2997	0.11504	0.44861	0.14191	0.22567	0.24342	0.1411	-1.5521	-2.0646	-2.3604	-2.1396	-2.1688	-2.3771	-1.8458	-2.4979	-2.0958	-2.0042	-2.3479	-1.9792	-2.2875	-2.0333	-1.9813	-2.1708	90.931	114.648	-70.749	-113.561	-100.737	15.297	202.906	200.671	-52.685	172.552	-105.879	-80.400	64.799	172.917	191.544	182.399	0.00037984	0.00050713	0.00012031	1188.7	9.1568e-07	1.0004e-05	1267.8	256.75	8.625e-06	6.9247e-06	315.93	84.737	69.487	20.057	7.6454e-06	27.134	0.00041532	0.00041547	0.00011672	1167.8	4.5526e-06	4.5775e-06	1247.2	254.98	4.6219e-06	4.5878e-06	314.69	86.529	72.124	20.753	4.5946e-06	28.61	153.135	-72.139	-107.904	-114.820	26.313	-20.677	-115.007	-107.638	-7.504	119.646	-107.920	-101.141	-100.971	-93.299	-9.888	-93.692	-8191	255	
1026.551	1	1	0	0	0.20897	0.037698	0.075594	0.20236	0.057283	0.1448	0.10622	0.17637	0.17764	0.26744	0.22865	0.15165	0.18959	0.29611	0.026686	0.27995	-1.8604	-1.9625	-2.5042	-1.9979	-2.1042	-2.3917	-2.0208	-2.4729	-2.05	-1.9708	-2.4146	-2.1188	-2.3688	-2.3708	-2.0687	-2.4	92.016	-1.002	36.030	195.977	56.113	-34.424	211.370	187.927	184.013	106.314	170.805	7.090	-1.713	226.533	88.879	175.686	0.00024509	0.00017112	9.9883e-05	1189.3	6.2075e-06	3.069e-06	1267.2	256.67	4.1677e-06	4.1292e-06	317.16	84.408	68.379	20.062	1.4096e-06	27.468	0.00042159	0.00042554	0.00011614	1167.9	4.596e-06	4.5293e-06	1249.6	254.78	4.5797e-06	4.6368e-06	315.07	86.306	71.905	20.726	4.4862e-06	28.667	120.322	17.005	-97.272	-114.788	-42.841	0.983	-114.838	-107.341	-50.285	48.410	-107.618	-101.461	-100.733	-93.339	-21.240	-93.407	-8191	255	
1026.647	1	1	0	0	0.081046	0.11624	0.056722	0.38559	0.1684	0.20069	0.21901	0.20536	0.17574	0.054305	0.1316	0.11234	0.141	0.26777	0.31409	0.22353	-1.9042	-1.9083	-2.4354	-2.1312	-2.1583	-2.4188	-2.1396	-2.3396	-2.3542	-1.8146	-2.65	-1.9833	-2.2875	-2.4167	-1.9188	-2.0417	-28.703	-89.742	-0.275	195.357	-119.300	-82.026	120.356	183.232	216.787	209.314	54.951	-51.062	-112.072	6.594	-75.244	-99.182	0.00023633	0.00037643	6.3295e-05	1189.5	1.6801e-06	9.0494e-06	1269.8	255.1	1.9407e-06	3.3781e-06	317.78	85.713	68.8	19.93	5.0714e-06	27.256	0.00041363	0.00041422	0.00011525	1168.1	4.5173e-06	4.4926e-06	1249.6	254.1	4.571e-06	4.5302e-06	315.7	86.71	72.306	20.737	4.5858e-06	28.663	157.922	42.321	-21.989	-114.800	-6.784	-4.125	-114.972	-107.575	-95.848	64.901	-108.095	-101.307	-101.010	-93.527	-95.696	-96.056	-8191	255	
1026.743	1	1	0	0	0.1969	0.040246	0.025694	0.25081	0.041667	0.20042	0.23793	0.36238	0.46131	0.12106	0.094751	0.17657	0.17979	0.1172	0.16698	0.095514	-1.7375	-2.025	-2.3312	-2.2792	-2.0729	-2.3958	-2.0312	-2.3521	-2.1208	-1.9021	-2.3979	-2.1729	-2.1	-2.2542	-1.9229	-2.2	123.761	-15.805	129.632	220.704	146.318	116.604	164.608	162.163	172.151	200.752	-22.225	107.088	22.321	187.514	-114.903	228.941	0.00027071	0.00016627	9.8798e-05	1188.9	4.8899e-06	3.5432e-06	1268.8	254.95	6.5482e-07	1.2052e-06	315.14	85.007	68.677	19.997	2.3846e-06	27.107	0.0004173	0.00041599	0.00011791	1167.2	4.6007e-06	4.6079e-06	1250.5	254.45	4.638e-06	4.6104e-06	315.79	86.753	72.608	20.748	4.5929e-06	28.694	112.811	-19.629	-114.135	-117.242	143.753	-40.920	-118.167	-110.923	219.163	-101.172	-110.653	-104.402	-104.099	-96.015	28.608	-96.574	-8191	255	
1026.862	1	1	0	0	0.086515	0.20329	0.13734	0.23818	0.18277	0.38334	0.25783	0.095167	0.04422	0.19131	0.094617	0.082857	0.11284	0.098514	0.1887	0.13187	-1.8542	-2.0062	-2.3063	-2.1542	-2.1063	-2.1083	-2.0312	-2.1958	-2.2042	-2	-2.2104	-2.2625	-1.7854	-2.4688	-1.8979	-2.0021	-18.298	74.632	175.363	-122.749	95.905	29.882	223.176	123.702	47.772	-66.083	95.700	230.484	-73.509	-20.849	-97.120	201.532	0.00015998	0.00030978	0.00018463	1186.7	3.3803e-06	1.0652e-06	1265.9	255.35	9.898e-06	1.1995e-06	315.53	85.043	68.771	19.983	6.8273e-06	27.266	0.00041763	0.00042072	0.00011636	1168.9	4.5525e-06	4.5552e-06	1249.7	255.26	4.6044e-06	4.5862e-06	315.54	86.749	72.093	20.782	4.6208e-06	28.756	129.683	-39.667	-61.283	-117.866	-59.599	69.188	-118.116	-110.608	-110.700	12.524	-111.006	-104.739	-104.641	-96.084	3.434	-96.846	-8191	255	
1026.958	1	1	0	0	0.14624	0.099807	0.071606	0.33092	0.099946	0.11146	0.09085	0.19508	0.2014	0.26384	0.064646	0.40245	0.1752	0.37323	0.15005	0.30542	-1.8792	-1.9937	-2.0958	-2.35	-1.675	-2.4313	-2.0563	-2.1667	-2.3563	-1.7604	-2.2958	-2.4292	-1.6542	-2.3271	-1.9896	-2.2438	-51.504	37.500	-64.692	-104.885	-122.250	151.099	139.850	222.674	113.352	137.582	187.318	207.015	218.002	-97.007	-70.430	191.796	5.8102e-05	0.00017558	0.0001589	1187	2.3941e-06	2.8993e-06	1270.6	254.48	6.115e-06	5.8082e-06	318.48	85.361	68.763	20.006	3.1384e-06	27.416	0.00041977	0.00042691	0.00011922	1169.5	4.7018e-06	4.7011e-06	1252.1	254.84	4.7097e-06	4.7438e-06	317.33	86.893	72.419	20.813	4.6914e-06	28.764	75.804	-75.060	9.529	-117.724	67.414	109.335	-118.134	-110.243	-35.488	41.129	-110.217	-104.025	-104.346	-96.167	-115.821	-95.964	-8191	255	
1027.054	1	1	0	0	0.071484	0.24677	0.17985	0.35395	0.060807	0.019751	0.23841	0.25679	0.18017	0.014339	0.27798	0.32049	0.26097	0.20168	0.13973	0.046304	-1.9542	-1.8896	-2.1271	-2.4979	-1.925	-2.2313	-2.3396	-2.1375	-2.3688	-1.9625	-2.2083	-2.3479	-1.9104	-2.2708	-2.1958	-1.9833	39.599	-61.168	30.674	201.132	-127.149	49.672	162.289	109.557	14.760	-9.807	60.241	175.086	-25.630	-32.718	39.823	-72.883	0.00016901	9.1921e-05	9.107e-05	1190.8	7.8995e-06	4.6242e-06	1274.7	255.49	3.6125e-06	3.787e-06	317.77	85.207	69.533	20.09	1.5698e-06	27.473	0.00042205	0.00043255	0.00011871	1171.1	4.6947e-06	4.65e-06	1253.7	254.91	4.6558e-06	4.6431e-06	316.68	86.719	72.366	20.751	4.5609e-06	28.765	158.601	-27.770	230.944	-116.924	-94.945	5.939	-116.609	-109.471	90.426	28.008	-109.263	-103.569	-103.717	-95.053	-53.178	-95.513	-8191	255	
1027.150	1	1	0	0	0.31194	0.087191	0.069405	0.2826	0.14325	0.11272	0.3827	0.24853	0.33591	0.12342	0.17556	0.39564	0.1625	0.28803	0.2418	0.16897	-1.9562	-1.8896	-2.1479	-2.4771	-1.8771	-2.3042	-2.3396	-2.1896	-2.3604	-2.0417	-2.1604	-2.3646	-2.0938	-2.2812	-2.3083	-1.9062	1.325	-106.249	55.878	-116.736	12.202	112.021	126.033	226.497	-119.504	-118.727	167.144	213.020	18.693	-110.166	101.438	-114.369	0.00036027	0.00016176	9.0403e-05	1188.6	8.0335e-06	3.2964e-06	1269.8	255.09	1.5959e-06	3.8249e-06	318.47	84.92	67.908	20.121	7.3236e-06	27.417	0.00041298	0.00041238	0.00011474	1169.9	4.5094e-06	4.5003e-06	1251.7	254.46	4.5454e-06	4.5403e-06	316.43	86.601	71.979	20.76	4.5162e-06	28.731	113.366	-108.587	-32.084	-117.006	-31.392	73.969	-117.289	-109.754	144.314	39.500	-109.556	-103.322	-103.030	-94.524	-28.008	-94.768	-8191	255	
1027.246	1	1	0	0	0.17652	0.2034	0.22538	0.14536	0.14977	0.091014	0.43577	0.1114	0.083154	0.21837	0.17627	0.18813	0.054718	0.38067	0.010835	0.18649	-1.9688	-2.2438	-2.0146	-2.4896	-1.7792	-2.1375	-2.2896	-2.1375	-2.2542	-2.0271	-2.2354	-2.5104	-1.7938	-2.5167	-2.2396	-1.8479	130.855	47.103	-28.923	94.499	89.763	226.579	206.552	-94.626	172.257	184.037	149.534	204.358	-15.636	192.342	-62.342	86.843	0.00012075	0.00040418	8.1219e-05	1192.3	6.9964e-06	6.6397e-06	1266	255.5	4.9726e-06	4.3617e-06	315.9	85.069	69.09	20.013	4.6011e-06	27.327	0.0004148	0.00041132	0.00011571	1170.8	4.4851e-06	4.5128e-06	1249.3	254.63	4.532e-06	4.5384e-06	315.74	86.538	72.157	20.754	4.5704e-06	28.717	42.013	212.410	196.828	-116.624	110.244	-6.586	-117.536	-110.192	-119.898	146.607	-109.823	-103.545	-103.632	-95.224	30.434	-95.398	-8191	255	
1027.343	1	1	0	0	0.10912	0.36175	0.18105	0.1543	0.059545	0.044221	0.43601	0.073494	0.074598	0.22258	0.40745	0.19647	0.14287	0.26028	0.12891	0.29361	-2.075	-2.2479	-1.8896	-2.6104	-1.9688	-2.1417	-2.5396	-2.0458	-2.3396	-2.2438	-2.0646	-2.3021	-1.9542	-2.0646	-2.4354	-1.8646	-115.029	-46.769	113.729	139.950	45.440	-123.542	174.019	205.439	-105.210	194.845	167.472	183.402	90.479	223.097	21.546	12.102	0.00019551	0.00052802	0.00023404	1189.9	5.2491e-06	2.6699e-06	1272.7	255.92	4.0627e-06	5.1359e-06	317.45	85.062	67.951	20.119	4.4528e-06	27.314	0.0004194	0.00041948	0.00011866	1170.2	4.6232e-06	4.6503e-06	1253.4	255.22	4.6968e-06	4.7162e-06	316.58	86.929	72.364	20.782	4.6973e-06	28.772	159.625	94.834	-4.222	-116.808	54.245	54.332	-117.049	-109.521	50.427	70.796	-110.302	-104.197	-104.610	-95.137	84.172	-95.800	-8191	255	
1027.463	1	1	0	0	0.076381	0.14905	0.2603	0.25697	0.1947	0.27803	0.4745	0.0309	0.11347	0.19912	0.30966	0.15865	0.090075	0.096634	0.29187	0.17799	-1.6458	-2.1042	-1.9354	-2.4771	-2.0563	-2.0438	-2.575	-2.0333	-2.1917	-2.2	-2.0979	-2.5021	-2.0292	-1.9729	-2.3604	-1.8708	125.399	-126.573	221.964	105.345	74.384	134.643	220.960	-121.499	-114.421	-8.175	219.338	138.697	179.369	197.501	194.577	-24.782	0.00012853	7.1919e-05	0.00014426	1184.3	1.486e-06	3.9347e-06	1268.4	255.72	4.4552e-06	2.0302e-06	317.75	84.814	67.988	20.05	3.1729e-06	27.076	0.00042707	0.00042796	0.00012046	1168.4	4.7621e-06	4.6472e-06	1252.3	255.01	4.6697e-06	4.7106e-06	316.7	86.816	72.343	20.803	4.6541e-06	28.794	144.925	139.269	-75.782	-117.027	216.219	-34.007	-117.461	-109.631	24.552	17.508	-109.323	-103.242	-102.641	-94.837	51.744	-94.915	-8191	255	
1027.559	1	1	0	0	0.05115	0.14828	0.15253	0.064665	0.055192	0.37881	0.055159	0.17457	0.16515	0.08271	0.29392	0.13256	0.054942	0.19184	0.43232	0.14499	-1.6875	-2.3021	-1.8125	-2.4479	-2.1792	-2.0208	-2.4229	-2.1167	-2.2354	-2.3708	-2.0687	-2.4313	-2.2104	-2.275	-2.2875	-2.0208	-125.240	226.829	-20.139	141.415	213.456	7.578	-126.450	159.972	80.937	-29.404	179.019	182.529	207.373	201.992	-97.882	124.159	0.0003402	0.00014819	0.00024032	1195.5	5.6675e-06	6.8479e-06	1275.1	255.88	1.0153e-05	4.578e-06	320.12	84.942	68.939	19.926	5.7785e-06	27.415	0.00041851	0.00042734	0.00012028	1172	4.6501e-06	4.6717e-06	1255.8	255.26	4.6833e-06	4.7591e-06	318.23	86.867	72.878	20.813	4.6805e-06	28.84	116.417	-100.646	-27.515	-116.346	-52.307	32.976	-116.517	-109.482	-76.610	61.835	-108.573	-102.624	-102.261	-94.554	193.420	-94.935	-8191	255	
1027.654	1	1	0	0	0.10927	0.076709	0.26197	0.17281	0.12822	0.25438	0.34005	0.37123	0.11398	0.16229	0.2782	0.13581	0.072314	0.22791	0.14321	0.40442	-1.5792	-2.4521	-1.8396	-2.6229	-2.2708	-2.1354	-2.4833	-2.1208	-2.1792	-2.4208	-1.9062	-2.2458	-2.2583	-2.0625	-2.2562	-2.2229	73.601	22.611	146.802	130.292	167.852	221.549	187.106	200.910	77.286	118.812	91.327	-62.398	135.109	-124.212	74.384	-115.729	0.00021469	0.00026326	0.00013914	1186.6	1.8544e-06	5.1164e-06	1268.4	256.87	3.3856e-06	4.5346e-06	317.76	85.112	68.848	20.129	2.902e-06	27.192	0.00043054	0.00042658	0.00011926	1169	4.7709e-06	4.7766e-06	1251.1	255.73	4.8291e-06	4.7892e-06	317.23	87.078	72.966	20.876	4.8248e-06	28.853	155.685	-50.878	-114.042	-115.161	-53.222	125.021	-116.308	-108.971	-97.325	66.763	-110.196	-103.856	-103.667	-95.487	-95.530	-95.368	-8191	255	
1027.752	1	1	0	0	0.043757	0.19641	0.12671	0.2	0.095852	0.35357	0.40929	0.096519	0.12619	0.18979	0.083724	0.24234	0.26685	0.13319	0.14116	0.24322	-1.6104	-2.4625	-1.8042	-2.3625	-2.2687	-2.0125	-2.7396	-2.1854	-2.0375	-2.3458	-2.1271	-2.3896	-2.2062	-1.9146	-2.3375	-2.1854	114.473	53.241	209.527	186.004	8.585	158.390	203.609	-113.549	-80.243	-35.681	151.426	224.727	112.962	67.664	55.622	170.314	0.00029509	0.00045149	0.00018662	1191.2	1.3643e-06	8.4656e-07	1275.9	256.4	5.8666e-06	3.7795e-06	319.84	85.793	68.065	20.197	8.8404e-06	27.541	0.00043725	0.00044431	0.00012387	1170.8	4.7682e-06	4.7776e-06	1254.7	255.69	4.8064e-06	4.7369e-06	318.55	87.384	72.91	20.876	4.7911e-06	28.882	129.449	-111.567	-97.212	-116.350	-26.391	-12.776	-116.713	-109.380	209.280	-41.053	-109.392	-103.021	-103.256	-94.833	-27.913	-94.823	-8191	255	
1027.846	1	1	0	0	0.21458	0.050746	0.15739	0.24116	0.0020218	0.13749	0.030204	0.27114	0.42428	0.20194	0.03618	0.112	0.22534	0.0069446	0.11231	0.17285	-1.7458	-2.3729	-1.8917	-2.3875	-2.1917	-1.9729	-2.4813	-2.2375	-1.9042	-2.4521	-1.9521	-2.1854	-2.3208	-1.9604	-2.2167	-2.1292	-116.753	99.514	-41.839	215.780	180.000	205.706	0.922	187.520	-122.829	98.522	102.969	210.239	-126.160	24.142	220.216	109.985	0.00037275	0.00034604	0.00020697	1193	5.2054e-06	7.555e-06	1268.6	256.18	6.2441e-06	1.1723e-06	318.8	85.188	69.627	20.18	2.0171e-06	27.487	0.00043324	0.00043519	0.00012249	1173.3	4.8217e-06	4.7463e-06	1253.1	255.98	4.764e-06	4.6984e-06	317.99	87.227	72.835	20.929	4.7177e-06	28.958	151.298	-74.025	21.410	-116.761	169.265	48.385	-116.298	-109.049	-9.303	-1.820	-109.582	-102.822	-103.001	-95.280	5.405	-95.365	-8191	255	
1027.942	1	1	0	0	0.14334	0.25963	0.18053	0.32425	0.20266	0.28645	0.079004	0.21539	0.1325	0.041422	0.24766	0.11892	0.089884	0.061778	0.0098488	0.25572	-1.4646	-2.375	-2.1083	-1.9604	-2.2896	-1.9396	-2.3667	-2.475	-2.0083	-2.3458	-2.0521	-2.1875	-2.3812	-1.9229	-2.0625	-2.3792	126.400	104.415	-10.629	166.690	-90.859	-74.887	228.579	-122.815	124.873	109.030	67.297	-121.411	192.502	46.637	80.181	22.983	0.00014627	0.00032616	4.1506e-05	1196	4.2016e-06	2.1487e-06	1273.6	256.37	5.0925e-06	2.2303e-06	320.74	86.147	69.019	20.056	3.0606e-06	27.504	0.00042861	0.00043086	0.00012056	1174	4.8162e-06	4.7544e-06	1255.1	255.92	4.7459e-06	4.8171e-06	318.96	87.376	72.875	20.878	4.7226e-06	28.847	-101.629	-22.666	182.360	-116.553	-113.501	-103.917	-116.544	-108.798	-55.420	58.568	-109.103	-103.104	-102.145	-94.787	117.316	-94.870	-8191	255	
1028.038	1	1	0	0	0.37667	0.12077	0.080179	0.24797	0.13816	0.25957	0.51461	0.17348	0.09616	0.25911	0.0049983	0.025261	0.17029	0.10126	0.23464	0.19582	-1.4792	-2.3688	-2.2333	-2.1708	-2.4521	-1.8875	-2.45	-2.4083	-1.8479	-2.3417	-2.2604	-1.9354	-2.45	-2.1396	-2.0229	-2.4417	-7.459	179.292	1.431	148.436	-1.304	156.073	162.990	153.345	108.567	64.641	49.034	-87.565	-7.812	-108.861	74.293	42.719	0.00014779	0.00018249	0.00022914	1192.2	3.3312e-06	4.5936e-06	1275.7	257.03	5.3573e-06	4.0737e-07	321.3	85.405	69.308	20.206	3.1205e-06	27.606	0.0004316	0.00043578	0.00012089	1171	4.7805e-06	4.764e-06	1255.9	256.65	4.8192e-06	4.8564e-06	318.67	87.309	73.45	20.945	4.8644e-06	29.076	173.844	-65.699	17.626	-115.894	-103.110	42.322	-116.154	-108.726	-13.007	-122.042	-109.529	-102.766	-102.233	-94.907	-78.359	-94.883	-8191	255	
1028.159	1	1	0	0	0.12887	0.13908	0.20611	0.074752	0.16931	0.10616	0.35907	0.30258	0.011912	0.034406	0.12911	0.071585	0.15453	0.2722	0.25083	0.068105	-1.6875	-2.2417	-2.0687	-2.0167	-2.4771	-1.9146	-2.3979	-2.2438	-2.0208	-2.3458	-2.3667	-1.8979	-2.2625	-2.1104	-1.9958	-2.4104	3.920	-13.666	-79.576	-126.398	-0.385	-21.661	104.781	165.394	114.353	95.148	-53.704	64.083	220.460	-89.979	130.677	183.999	0.00054407	0.00055758	0.00011978	1192.4	1.5805e-06	4.9462e-06	1270.8	257.82	5.4369e-06	2.7806e-06	320.16	85.235	69.516	20.038	1.3481e-06	27.397	0.00044484	0.00044532	0.00012511	1171.6	4.8798e-06	4.8549e-06	1255.7	257.16	4.8693e-06	4.961e-06	318.9	87.382	73.668	20.925	4.9391e-06	29.078	175.866	-44.259	30.863	-115.175	18.493	-28.153	-115.927	-109.223	-76.046	222.356	-109.254	-102.822	-103.194	-94.899	-54.974	-95.353	-8191	255	
1028.255	1	1	0	0	0.024241	0.20498	0.18637	0.21926	0.14605	0.22123	0.19205	0.057196	0.1546	0.10064	0.20526	0.039968	0.082138	0.29239	0.45895	0.11047	-1.4625	-2.0625	-2.2729	-1.9813	-2.2313	-2.05	-2.2812	-2.4729	-1.9208	-2.3021	-2.1771	-1.7896	-2.4083	-2.1	-1.8333	-2.2521	89.330	54.186	43.898	221.081	-28.049	59.253	193.180	153.951	-122.735	21.113	195.862	54.158	184.078	-126.970	-56.787	-32.324	0.00015065	0.00065207	0.00019242	1192.6	3.4935e-06	3.8274e-06	1273.4	256.17	2.6083e-06	4.0686e-06	318.76	85.523	70.043	20.012	1.1342e-05	27.511	0.00044795	0.00044826	0.00012558	1173.3	4.9366e-06	4.8838e-06	1258.7	256.87	4.9937e-06	4.9736e-06	319.18	87.559	74.086	21.062	5.0148e-06	29.149	80.424	-94.769	-47.073	-116.206	-48.660	21.729	-116.758	-110.785	154.573	56.703	-111.548	-104.935	-105.309	-97.251	-10.662	-97.720	-8191	255	
1028.351	1	1	0	0	0.26273	0.1626	0.084254	0.1234	0.25648	0.18374	0.38461	0.046199	0.2608	0.077508	0.089831	0.33393	0.046738	0.07467	0.2214	0.18575	-1.5021	-2.3563	-2.3167	-1.9708	-2.1167	-2.1146	-2.1167	-2.4521	-1.8917	-2.1479	-2.2042	-2.0396	-2.2396	-2.1271	-2.05	-2.2854	151.432	-12.053	155.834	74.905	220.764	-74.952	178.481	99.969	104.351	-94.187	202.387	222.194	117.434	-38.349	168.139	-99.277	0.00024522	0.00030216	0.00013237	1191.7	1.9302e-06	2.5061e-06	1276.5	257.47	3.7466e-06	3.9448e-06	320.32	86.151	68.938	20.255	4.7429e-06	27.328	0.00045547	0.00046058	0.00012853	1175.7	5.0025e-06	4.9837e-06	1258.2	257.55	5.0542e-06	5.0058e-06	319.96	87.94	73.502	21.026	5.0151e-06	29.047	47.023	-57.550	104.288	-117.802	-80.247	59.181	-118.290	-110.908	191.000	1.215	-110.730	-104.468	-104.590	-96.317	15.365	-96.566	-8191	255	
1028.423	1	1	0	0	0.33391	0.31832	0.22901	0.19826	0.01919	0.11446	0.11624	0.53798	0.057585	0.10691	0.1602	0.06281	0.27152	0.18727	0.22974	0.16121	-1.4438	-2.0938	-2.4813	-1.8979	-2.3667	-2.2979	-2.1021	-2.4583	-1.8979	-1.9083	-2.3542	-1.7125	-2.0812	-2.3563	-2.0354	-2.2792	57.544	115.328	87.796	126.297	-85.419	122.033	181.199	188.288	-58.883	38.630	-21.764	166.705	10.724	217.564	73.543	179.143	0.00040614	0.00015158	0.00012588	1187.3	1.4619e-06	3.7218e-06	1272.1	257.74	5.0078e-06	3.7511e-06	319.76	85.398	69.773	20.132	9.4766e-06	27.48	0.00045169	0.00045657	0.00012791	1172.9	5.0592e-06	5.0474e-06	1257.4	257.66	5.0531e-06	5.1017e-06	320.45	87.89	73.938	21.065	5.0497e-06	29.19	137.807	12.150	28.788	-117.045	-81.968	50.984	-118.040	-110.828	148.054	92.280	-110.773	-104.386	-104.135	-95.877	-58.559	-96.294	-8191	255	
1028.544	1	1	0	0	0.10797	0.21259	0.10064	0.29216	0.089698	0.1897	0.13966	0.32467	0.097254	0.095043	0.13818	0.087043	0.18865	0.06089	0.20479	0.14994	-1.6667	-1.7812	-2.3125	-1.8896	-2.0542	-2.1896	-1.9625	-2.2708	-2.0708	-1.8417	-2.3688	-1.9688	-2.2208	-2.1104	-1.9125	-2.3167	98.386	-3.753	-14.787	209.668	-53.168	205.695	146.449	176.184	61.436	48.476	129.078	45.080	2.140	179.249	-42.074	-26.911	0.00016314	0.00059869	0.0001824	1189.2	4.4854e-06	5.8407e-06	1278.6	256.17	3.5162e-06	5.0759e-06	319.81	84.822	70.088	20.231	4.5731e-07	27.34	0.00046307	0.00045951	0.00012669	1173.7	4.9982e-06	5.0033e-06	1259.9	256.99	5.0139e-06	4.9738e-06	320.45	87.515	73.839	21.047	4.8805e-06	29.085	230.275	-30.198	26.226	-117.385	42.463	-62.383	-118.207	-110.966	9.695	73.723	-110.782	-104.707	-104.029	-96.423	-82.703	-96.855	-8191	255	
1028.640	1	1	0	0	0.22765	0.13945	0.10536	0.41865	0.14458	0.099391	0.35693	0.084679	0.23151	0.068868	0.24186	0.53231	0.11676	0.063479	0.14511	0.094799	-1.5063	-1.9583	-2.3458	-1.95	-2.4042	-2.3479	-2.0812	-2.4125	-2.0604	-1.8542	-2.2917	-2.0438	-2.0625	-2.1417	-1.9667	-2.1146	47.713	67.371	-63.188	65.355	218.948	9.568	178.352	-98.137	111.815	132.999	153.785	-116.134	178.831	-27.543	18.805	60.224	0.00035443	0.00017512	9.0568e-05	1193.8	2.4307e-06	5.7983e-07	1271.3	257.55	6.3218e-06	5.0823e-06	319.99	86.302	68.783	20.135	3.2849e-06	27.477	0.00044949	0.00045225	0.00012423	1176.2	4.9063e-06	4.916e-06	1256.6	257.4	4.8758e-06	4.8912e-06	320.19	87.687	73.631	21.037	4.8678e-06	29.114	105.224	224.437	54.819	-117.681	-100.622	14.680	-118.185	-111.092	-90.737	106.061	-110.837	-103.941	-103.766	-96.225	-19.990	-96.241	-8191	255	
1028.734	1	1	0	0	0.096052	0.16285	0.28503	0.088857	0.17478	0.17315	0.073865	0.16671	0.095288	0.079023	0.28658	0.27424	0.027552	0.055992	0.065512	0.1159	-1.7208	-1.9458	-2.4292	-2.1125	-2.0479	-2.3146	-2.0062	-2.3667	-2.1625	-1.9917	-2.5583	-1.9688	-2.0917	-2.3542	-2.0604	-2.1646	-60.188	-56.505	208.917	133.012	221.643	-107.958	110.258	-123.103	86.312	-103.601	-108.818	214.316	83.627	-36.650	143.172	-118.712	0.00029499	0.00061302	3.7333e-05	1191.4	1.0415e-06	4.5343e-06	1272	257.66	1.9347e-06	5.6776e-06	319.71	85.95	69.906	20.227	9.8322e-06	27.54	0.00044075	0.00044223	0.00012283	1174.3	4.8609e-06	4.8355e-06	1255.9	257.61	4.8366e-06	4.9194e-06	319.59	87.57	73.314	21.018	4.7792e-06	29.041	169.192	-32.986	-56.645	-117.428	-1.115	8.954	-117.657	-109.897	-47.942	47.059	-110.083	-103.111	-103.669	-95.388	52.740	-95.486	-8191	255	
1028.832	1	1	0	0	0.14723	0.2005	0.1818	0.24521	0.2364	0.05307	0.28907	0.27429	0.18831	0.19739	0.03106	0.27939	0.15803	0.0085866	0.21457	0.064349	-1.8521	-1.7104	-2.3729	-2.2812	-2.2417	-2.3542	-2.3104	-2.3542	-2.3312	-1.9625	-2.4417	-2.1917	-1.8875	-2.4792	-1.8625	-2.15	90.913	12.481	133.863	211.403	11.504	-86.748	161.598	218.419	-120.049	159.668	-125.357	-85.997	70.762	206.860	-52.065	-46.817	0.00044469	0.00030817	8.5993e-05	1192.2	3.9236e-06	2.2844e-06	1279.1	258.75	2.132e-06	6.8953e-06	319.62	85.852	69.33	20.314	3.5996e-06	27.091	0.00043953	0.00043929	0.00012301	1174	4.7479e-06	4.7398e-06	1258.6	257.54	4.8109e-06	4.8392e-06	319.26	87.691	73.362	20.979	4.8487e-06	28.904	161.351	9.460	-20.840	-114.619	-65.487	-60.476	-114.920	-107.605	-36.935	44.438	-107.541	-101.157	-100.771	-93.404	17.051	-94.117	-8191	255	
1028.951	1	1	0	0	0.19006	0.43753	0.3878	0.37686	0.1802	0.1328	0.1441	0.19591	0.030062	0.24575	0.16615	0.25435	0.082216	0.1964	0.31455	0.26865	-1.8229	-1.85	-2.3354	-2.2062	-2.0729	-2.375	-2.1813	-2.2521	-2.2875	-1.8813	-2.6292	-2.0958	-2.2396	-2.5125	-2.1937	-2.2458	137.387	-63.816	-59.661	172.731	-87.385	64.492	191.382	52.343	48.663	98.135	140.193	212.104	5.637	154.807	-84.672	-55.817	0.00010154	0.0004531	0.00016026	1194.7	3.5819e-06	6.5646e-06	1278.9	258.15	4.3691e-06	2.7748e-07	319.97	85.764	68.7	20.22	5.6572e-06	27.505	0.00043421	0.0004395	0.00012253	1174.8	4.849e-06	4.8549e-06	1257	257.57	4.8848e-06	4.9873e-06	320.23	87.54	73.681	21.039	4.9937e-06	29.158	-62.052	-54.046	26.704	-114.563	-77.470	-42.510	-115.032	-107.608	141.149	-20.062	-107.878	-101.203	-102.183	-93.098	150.917	-93.410	-8191	255	
1029.023	1	1	0	0	0.18666	0.13915	0.16096	0.28721	0.12245	0.067295	0.091835	0.048388	0.05001	0.1252	0.18381	0.16848	0.28718	0.082755	0.1357	0.17957	-2.025	-1.8917	-2.2708	-2.2687	-2.2562	-2.2687	-2.2562	-2.0833	-2.4313	-1.9833	-2.4833	-2.3083	-1.8521	-2.3521	-2.0312	-2.1542	-65.101	33.046	109.139	188.221	178.029	45.476	-124.681	-77.005	-90.801	105.372	-29.354	216.675	139.505	-14.798	175.486	130.498	0.00027812	0.00057863	8.7196e-05	1195.9	6.2899e-06	4.5548e-06	1271.7	258.54	4.9153e-06	4.5676e-06	319.16	86.298	69.573	20.094	3.6175e-06	27.415	0.00045552	0.00045115	0.00012678	1176.4	5.0151e-06	4.9543e-06	1255.9	257.88	4.9429e-06	4.9362e-06	319.81	87.702	73.717	20.994	4.9457e-06	29.146	134.356	-127.363	-50.803	-114.596	178.437	22.919	-117.640	-109.676	-104.448	-80.224	-109.327	-102.749	-102.910	-94.578	-9.164	-94.513	-8191	255	
1029.143	1	1	0	0	0.23566	0.1089	0.22237	0.25846	0.19933	0.19543	0.15682	0.20592	0.059342	0.10951	0.2199	0.25034	0.1467	0.2258	0.18909	0.099653	-2.0167	-2.1625	-2.2271	-2.4396	-1.7	-2.4375	-2.4646	-2.2438	-2.4688	-2.0333	-2.3271	-2.3875	-1.8188	-2.2979	-2.1042	-1.8542	144.777	-23.104	-60.280	-124.987	-61.157	88.166	175.916	208.011	167.788	135.308	222.836	69.776	-96.537	-119.322	130.259	-120.161	0.00032741	0.00035365	2.953e-05	1193.7	9.3587e-06	2.5946e-06	1274.5	258.48	9.6265e-06	5.5254e-07	319.1	86.322	69.514	20.268	9.478e-07	27.294	0.00044582	0.00044846	0.00012469	1174.3	4.9339e-06	4.9101e-06	1258.4	258.07	4.9756e-06	4.9256e-06	320.33	87.699	73.93	21.091	4.97e-06	29.019	118.166	-79.511	122.945	-115.784	-12.439	-25.230	-116.124	-108.952	-47.420	-114.456	-108.835	-102.721	-102.777	-94.702	16.937	-95.382	-8191	255	
1029.239	1	1	0	0	0.11268	0.12457	0.12652	0.042128	0.077539	0.067896	0.13279	0.18761	0.12516	0.090637	0.065003	0.14479	0.22088	0.1307	0.16458	0.23355	-2.0167	-1.7833	-2.2458	-2.3958	-1.8833	-2.4604	-2.2792	-1.9542	-2.3229	-1.9792	-2.0521	-2.55	-1.8646	-2.4229	-2.2542	-1.8021	174.777	-50.955	-80.963	-94.354	224.087	-2.611	6.956	206.566	137.559	136.098	179.737	-107.729	93.037	222.399	-106.453	217.055	0.00044222	0.00026765	4.6793e-05	1198.1	9.2284e-06	2.4522e-06	1272.5	258.73	3.1648e-06	2.8553e-06	318.64	85.659	69.352	20.209	5.2035e-06	27.418	0.00045015	0.00045667	0.00012615	1177	5.0102e-06	4.9578e-06	1257.7	257.9	4.9786e-06	4.9789e-06	319.68	87.698	73.627	21.044	4.9433e-06	29.009	135.148	199.011	44.460	-115.795	-75.043	4.420	-116.430	-108.877	187.004	49.280	-108.866	-102.417	-103.217	-94.626	129.420	-94.779	-8191	255	
1029.335	1	1	0	0	0.018388	0.28193	0.088879	0.37946	0.083044	0.26879	0.3122	0.13733	0.11804	0.092379	0.31238	0.19467	0.29219	0.036975	0.09916	0.17941	-1.9917	-2.1063	-1.9875	-2.4729	-1.9646	-2.2271	-2.2875	-1.9542	-2.2708	-1.8875	-1.8458	-2.3271	-1.775	-2.2792	-2.3229	-2.0021	94.635	-83.333	181.091	186.277	205.441	183.430	182.718	169.150	155.043	187.385	-105.209	199.727	34.087	-118.685	79.563	-48.303	0.00029078	0.00012208	0.00018883	1195.8	6.8938e-06	3.4807e-06	1276.5	257.38	4.307e-06	2.5745e-06	320.47	85.836	69.895	20.158	5.3108e-06	27.171	0.00045111	0.00045297	0.0001265	1175	4.954e-06	4.887e-06	1258	257.76	4.9491e-06	4.8864e-06	319.85	87.722	73.549	21	4.8141e-06	28.914	108.113	-34.314	169.842	-115.721	-91.024	44.101	-115.879	-108.485	196.926	-30.709	-109.122	-103.977	-102.884	-94.720	93.035	-94.495	-8191	255	
1029.432	1	1	0	0	0.10559	0.12294	0.29472	0.10172	0.25745	0.091646	0.28987	0.15461	0.20109	0.11871	0.09737	0.077391	0.23053	0.27358	0.19894	0.0057415	-1.8979	-2.0292	-1.7979	-2.5979	-2.0542	-2.1292	-2.5729	-1.9208	-2.3438	-2.1833	-1.9792	-2.2229	-1.8083	-2.0854	-2.2687	-2.0333	-100.425	152.154	108.906	101.849	86.931	-85.495	181.737	148.340	-18.657	115.055	8.799	88.599	-108.353	-71.381	-60.964	-100.892	0.00026674	0.00053161	0.00015142	1194.3	1.0405e-05	2.7556e-06	1271.9	257.93	4.8048e-06	3.661e-06	319.03	85.836	69.976	20.27	6.9938e-06	27.663	0.00043308	0.00043495	0.00012103	1174.3	4.8084e-06	4.7834e-06	1256.1	256.98	4.834e-06	4.8802e-06	319.71	87.582	73.73	21.017	4.9855e-06	29.155	143.132	-13.262	-0.538	-117.105	-48.306	13.844	-117.212	-110.149	-77.883	168.143	-110.006	-103.894	-103.469	-95.437	71.997	-96.298	-8191	255	
1029.552	1	1	0	0	0.01964	0.031684	0.058332	0.20479	0.05808	0.19384	0.11683	0.4173	0.30703	0.26197	0.27506	0.083904	0.23622	0.11244	0.17066	0.15553	-1.8521	-2.0021	-1.8937	-2.3104	-2.1083	-1.95	-2.2125	-1.7625	-2.2146	-2.225	-1.9458	-2.2792	-1.9896	-2.1479	-2.4146	-1.9854	192.853	-4.327	-88.287	-123.658	39.767	-58.760	61.345	169.242	174.624	-26.766	230.065	30.684	-118.769	-61.880	70.410	-27.189	0.00062856	0.00032479	0.00014463	1195.2	6.8269e-06	3.2341e-06	1274.9	257.01	4.5875e-06	1.0041e-05	319.71	85.41	69.075	20.293	8.77e-06	27.619	0.00045517	0.0004541	0.00012842	1175.9	5.0191e-06	4.9795e-06	1257.3	257.56	4.9681e-06	5.0127e-06	320.01	87.668	73.942	21.121	4.9653e-06	29.271	98.810	-77.769	13.127	-116.907	31.918	-55.434	-117.499	-110.410	-27.226	52.617	-110.531	-104.153	-104.467	-96.104	-83.029	-95.984	-8191	255	
1029.647	1	1	0	0	0.29523	0.23045	0.063525	0.39037	0.293	0.096674	0.12503	0.050869	0.12662	0.15383	0.030962	0.13948	0.35866	0.070503	0.10232	0.11564	-1.7188	-2.3146	-1.6792	-2.5438	-2.0333	-1.8146	-2.5917	-2.0062	-1.975	-2.2729	-2.0042	-2.2938	-2.275	-1.8458	-2.4562	-1.7375	-20.240	188.970	-42.096	-121.192	78.370	41.909	182.304	-67.639	-40.995	-94.855	217.273	129.534	155.484	86.056	-26.435	213.677	0.00019476	0.00022721	0.00010347	1194.4	1.4006e-06	4.9069e-06	1270.4	257.43	6.4613e-06	3.454e-06	319.05	86.306	68.887	20.124	2.1297e-06	27.105	0.00045463	0.00045864	0.00012844	1175.1	5.05e-06	4.9849e-06	1257.2	257.91	4.9748e-06	4.9715e-06	319.51	87.819	73.274	20.951	4.8758e-06	28.967	79.116	-50.698	90.576	-116.875	152.808	-0.286	-117.047	-109.663	-43.774	217.667	-109.714	-104.168	-104.487	-95.490	-37.773	-96.087	-8191	255	
1029.720	1	1	0	0	0.22866	0.049631	0.16712	0.47619	0.13932	0.21052	0.33433	0.20288	0.13472	0.14319	0.16962	0.27649	0.14525	0.16385	0.16583	0.16695	-1.8021	-2.2875	-1.8188	-2.35	-2.1958	-1.6938	-2.4417	-2.0521	-2.1021	-2.3458	-1.8937	-2.2062	-2.2479	-2.1729	-2.4708	-2.2083	-7.723	-107.771	-106.466	147.682	57.075	139.303	166.548	-56.167	189.782	38.788	131.722	133.505	129.296	-25.219	75.734	125.322	0.00034191	0.00033188	0.00012504	1196.3	6.3882e-06	8.1481e-06	1275.4	257.7	5.4033e-06	2.661e-06	318.18	85.997	70.523	20.191	5.8694e-06	27.281	0.00043678	0.00044003	0.00012292	1176.4	4.857e-06	4.8025e-06	1254.9	257.29	4.8118e-06	4.8381e-06	319.1	87.815	73.719	21.001	4.8886e-06	28.973	110.679	-72.048	-88.802	-117.015	215.108	-12.595	-117.270	-110.168	-61.235	34.882	-110.045	-103.067	-103.640	-94.769	34.448	-94.840	-8191	255	
1029.841	1	1	0	0	0.12493	0.093097	0.049709	0.30551	0.12978	0.35486	0.084287	0.11789	0.19372	0.16869	0.19323	0.062243	0.22519	0.36798	0.089585	0.035981	-1.7583	-2.3438	-2.1875	-2.3646	-2.1833	-1.8687	-2.4771	-2.1729	-2.0354	-2.4188	-1.8813	-2.1292	-2.3063	-1.8083	-2.1542	-2.1813	116.343	56.976	157.654	167.381	44.873	69.189	106.142	108.755	146.063	82.678	-71.866	0.592	224.984	-106.125	140.891	0.387	0.00025334	0.00050277	0.00013113	1196.8	4.7348e-06	3.14e-06	1269.6	256.75	4.5844e-06	2.5322e-06	320.05	85.944	69.506	20.212	6.4785e-06	27.388	0.00044682	0.00044426	0.00012444	1177.1	4.91e-06	4.9063e-06	1255.6	257.12	4.942e-06	4.9901e-06	319.65	87.91	73.449	21.011	4.9678e-06	29.058	86.152	-81.020	-48.007	-115.717	29.345	36.198	-116.896	-109.656	230.918	101.168	-109.702	-103.331	-102.942	-94.807	-37.402	-95.510	-8191	255	
1029.935	1	1	0	0	0.14614	0.085595	0.2572	0.034254	0.14857	0.16124	0.14182	0.27275	0.047173	0.35411	0.3092	0.12132	0.028447	0.13834	0.083044	0.1787	-1.6792	-2.2792	-2.0833	-2.2542	-2.0854	-1.7313	-2.5458	-2.3937	-1.9667	-2.4271	-2.2125	-2.1771	-2.3625	-1.9	-2.2042	-2.0667	34.659	70.132	-34.909	-33.485	-64.257	51.264	100.985	100.639	-70.435	-104.825	192.849	-0.309	-6.926	-67.633	151.441	-33.451	0.00039351	0.00038719	0.00018317	1194.2	7.1081e-06	3.633e-06	1272	256.4	1.0395e-05	3.5072e-06	319.93	85.631	69.564	20.185	2.7545e-06	27.322	0.00044701	0.00044825	0.00012629	1173.7	4.9158e-06	4.9792e-06	1256.6	257.26	5.0043e-06	4.921e-06	319.85	87.639	73.775	20.967	4.9163e-06	29.021	119.594	210.238	-72.346	-116.649	-5.582	-47.652	-117.156	-109.782	223.956	96.055	-109.747	-103.525	-103.901	-95.131	-25.588	-96.088	-8191	255	
1030.031	1	1	0	0	0.11095	0.25773	0.41801	0.28391	0.23436	0.083665	0.1728	0.13367	0.14352	0.30999	0.31363	0.3748	0.15026	0.30533	0.092451	0.2567	-1.5646	-2.4208	-1.9542	-2.1021	-2.2833	-1.6896	-2.2438	-2.1958	-1.8813	-2.3208	-1.9167	-2.1875	-2.4104	-1.7271	-2.25	-2.0812	148.691	208.444	135.133	214.589	188.785	193.937	186.873	105.406	227.747	-49.930	120.307	-111.700	177.190	-48.264	-101.864	129.238	0.00016112	0.00048635	3.967e-05	1192.6	5.4566e-06	6.0864e-06	1275.2	256.03	6.0615e-06	6.6255e-06	320.31	85.203	69.956	20.126	3.118e-06	27.346	0.00044499	0.00044523	0.00012387	1175	4.8844e-06	4.8365e-06	1256.6	257.44	4.9406e-06	4.906e-06	319.58	87.514	73.876	21.018	4.9394e-06	29.12	110.567	-114.450	80.330	-116.220	224.525	-11.248	-116.496	-109.136	118.631	50.229	-109.148	-102.798	-102.426	-94.884	-11.842	-95.068	-8191	255	
1030.127	1	1	0	0	0.11074	0.13473	0.11693	0.20701	0.31859	0.32659	0.26505	0.17224	0.24223	0.20441	0.052197	0.25351	0.11927	0.0092029	0.233	0.24013	-1.4312	-2.3229	-2.0563	-2.0042	-2.1937	-1.95	-2.3583	-2.3208	-2.0833	-2.2812	-2.2062	-2.2146	-2.2229	-1.8646	-1.9375	-2.5083	-91.822	191.134	-9.949	206.783	17.425	220.213	230.965	159.844	223.546	125.767	229.080	-38.767	-27.267	59.248	145.875	-90.393	0.00033632	0.00068773	0.00014006	1196.7	7.6667e-06	7.4048e-06	1270	258.92	2.9858e-06	5.907e-06	318.84	86.247	69.087	20.13	7.8601e-06	27.657	0.00044805	0.00045086	0.00012653	1176.1	4.9721e-06	4.9583e-06	1255.1	257.84	4.977e-06	4.9112e-06	320.01	87.895	73.73	21.061	4.9033e-06	29.239	176.084	-61.522	-61.711	-116.504	72.179	-61.259	-116.811	-109.587	169.035	146.145	-109.818	-103.512	-103.700	-94.911	77.116	-95.755	-8191	255	
1030.224	1	1	0	0	0.01318	0.29821	0.17892	0.31411	0.067431	0.065755	0.080278	0.23232	0.27581	0.078129	0.17505	0.12391	0.16663	0.15367	0.2221	0.099848	-1.2979	-2.2771	-2.0646	-2.2104	-2.2188	-1.9104	-2.3229	-2.2667	-1.8375	-2.1437	-2.4083	-1.9375	-2.3458	-2.0187	-2.0333	-2.4896	223.970	49.394	-88.233	134.236	200.440	-12.702	106.142	200.788	156.250	-99.904	61.989	-115.308	-52.755	198.554	122.498	90.680	7.799e-05	0.00033667	0.00018065	1198.1	1.2547e-06	3.5726e-06	1272	258.15	5.1118e-06	3.4689e-06	321.05	86.068	69.041	20.163	4.0972e-06	27.296	0.00045089	0.00044893	0.00012413	1176.3	4.8778e-06	4.9569e-06	1257.4	257.98	4.9753e-06	4.9025e-06	321.17	87.904	73.782	21.045	5.0006e-06	29.106	-62.114	129.136	-66.826	-116.568	124.697	214.119	-116.956	-109.670	-82.113	19.039	-109.729	-103.469	-102.989	-96.274	-110.445	-95.989	-8191	255	
1030.320	1	1	0	0	0.19315	0.1048	0.15156	0.22567	0.17793	0.11642	0.26201	0.14286	0.12314	0.15428	0.049384	0.080065	0.044193	0.25216	0.12314	0.20097	-1.6271	-2.1729	-2.1479	-2.0354	-2.1167	-1.9354	-2.2083	-2.4146	-1.9542	-2.1208	-2.225	-1.9375	-2.4375	-2.0062	-2.0208	-2.4479	177.638	-71.105	157.112	-107.175	178.295	194.937	142.321	207.178	-55.988	-36.574	161.296	-73.917	50.907	229.319	176.805	98.976	0.00011683	0.00010536	0.00012532	1197.9	2.5033e-06	4.3832e-06	1270.4	258.6	6.2009e-06	4.7711e-07	319.9	86.033	68.906	20.253	4.8102e-06	27.267	0.00044855	0.00045035	0.00012401	1177.5	4.832e-06	4.8279e-06	1257.4	257.65	4.7642e-06	4.7694e-06	319.92	87.616	73.272	20.997	4.8695e-06	29.038	138.433	94.178	12.740	-116.653	73.679	-14.315	-117.606	-110.264	204.406	182.047	-110.850	-103.785	-104.035	-96.043	38.446	-96.136	-8191	255	
1030.416	1	1	0	0	0.15774	0.13527	0.034975	0.39183	0.2507	0.18722	0.26391	0.1999	0.096718	0.096783	0.33775	0.20506	0.24377	0.065627	0.21067	0.31431	-1.5562	-1.8104	-2.2708	-1.9708	-2.3021	-2.0396	-1.9521	-2.4521	-2.0229	-2.1542	-2.2104	-1.8854	-2.0667	-2.0479	-1.9104	-2.3146	178.310	-125.479	134.737	213.202	105.049	44.253	178.623	61.031	-84.565	34.290	213.714	-126.996	56.320	171.273	39.815	120.873	0.00026825	0.00047706	0.00015878	1193.2	3.5723e-06	2.299e-06	1268.7	257.89	2.4259e-06	4.2099e-06	319.99	85.364	68.716	20.002	3.1341e-06	27.708	0.00044459	0.0004477	0.00012594	1173.6	4.9975e-06	4.993e-06	1254.8	258.21	5.1389e-06	5.1511e-06	320.6	88.026	74.515	21.127	5.303e-06	29.375	134.664	-15.337	-22.413	-117.278	118.880	5.269	-117.552	-110.207	116.855	27.070	-110.434	-103.804	-103.978	-95.687	-11.975	-95.565	-8191	255	
1030.512	1	1	0	0	0.40623	0.019842	0.16402	0.11425	0.054978	0.11107	0.33391	0.28724	0.30622	0.34739	0.068962	0.10075	0.041633	0.09873	0.041201	0.23258	-1.5646	-2.2771	-2.3417	-2.1208	-2.2583	-2.1562	-2.0833	-2.4667	-1.9813	-2.275	-2.4292	-2.0625	-2.1667	-2.2708	-1.7437	-2.3521	-82.045	-77.118	175.669	200.661	155.087	185.234	177.044	136.545	-43.402	214.010	-84.412	49.392	88.488	213.374	46.230	-46.598	0.00034344	0.0003824	0.00015408	1197.6	1.5871e-06	3.4609e-06	1269.6	258.2	7.1871e-06	2.194e-06	319.71	85.858	70.024	20.201	7.7968e-06	27.531	0.00048771	0.00048533	0.00013427	1178	5.2946e-06	5.195e-06	1257.7	258.32	5.1071e-06	5.1138e-06	320.71	87.906	73.974	21.082	4.978e-06	29.161	94.691	71.002	7.306	-117.175	-11.135	-118.302	-117.451	-109.846	-66.604	100.873	-109.427	-103.020	-103.015	-94.878	-9.588	-95.000	-8191	255	
1030.633	1	1	0	0	0.16895	0.098718	0.13049	0.41645	0.014577	0.30131	0.39718	0.27192	0.12445	0.20129	0.35009	0.20546	0.13657	0.11397	0.27802	0.1731	-1.5229	-2.025	-2.2667	-2.0542	-2.0062	-2.3708	-1.8042	-2.4125	-1.975	-2.1375	-2.2938	-2.1833	-2.1229	-2.2521	-1.9208	-2.425	20.529	-52.944	-95.470	179.951	-34.991	152.208	131.526	182.894	-41.876	128.197	-104.761	188.321	31.801	220.136	-0.497	183.096	0.00020244	0.00028642	0.00026568	1190.4	4.161e-06	8.3045e-06	1282.2	257.59	7.1468e-06	2.0834e-06	321.09	85.786	70.454	20.269	1.8303e-06	27.712	0.00045475	0.00046114	0.00012818	1175.6	5.0542e-06	5.0707e-06	1258.9	258.45	5.143e-06	5.1232e-06	321.77	87.941	74.344	21.174	5.2715e-06	29.365	149.259	-72.828	-96.573	-117.346	-27.577	137.203	-117.664	-109.944	-34.359	-48.122	-110.279	-103.811	-104.140	-95.546	-123.248	-94.714	-8191	255	
1030.727	1	1	0	0	0.13576	0.092608	0.077847	0.24295	0.39985	0.04	0.1507	0.19757	0.2386	0.27755	0.0038434	0.14462	0.04226	0.046679	0.15922	0.11719	-1.65	-1.8958	-2.5438	-1.9917	-2.1042	-2.325	-2.0854	-2.4667	-2.1104	-2.1958	-2.3146	-1.9354	-2.2125	-2.3625	-1.9771	-2.2938	152.077	-25.507	-28.109	192.151	15.886	179.097	176.209	220.168	37.083	-37.562	174.499	105.664	216.175	-2.027	-84.462	-88.233	0.00041874	0.00049175	0.00011989	1193.7	4.9242e-06	3.7585e-06	1273.5	259.22	5.4495e-06	7.5641e-06	320.85	86.002	69.701	20.194	6.6806e-06	27.613	0.00048239	0.00048898	0.0001367	1176.7	5.4438e-06	5.3935e-06	1259.1	259.17	5.5119e-06	5.4527e-06	321.94	88.592	74.897	21.221	5.4488e-06	29.452	86.688	200.140	-45.994	-114.603	-73.974	159.250	-114.986	-107.540	-79.630	-64.432	-107.839	-101.659	-101.210	-93.331	-69.392	-93.287	-8191	255	
1030.825	1	1	0	0	0.02033	0.18757	0.11764	0.016374	0.25212	0.12697	0.16592	0.1805	0.10458	0.065676	0.25907	0.19757	0.13413	0.44295	0.32323	0.13812	-1.7042	-1.9146	-2.3875	-2.1583	-2.0917	-2.3896	-2.0187	-2.4062	-2.2042	-1.8188	-2.475	-2.0708	-1.9625	-2.4021	-1.9792	-2.3208	-27.979	-29.177	39.370	179.005	73.409	92.631	-7.787	3.885	-52.667	63.393	62.202	165.561	-55.203	184.515	-9.644	-72.486	0.00037266	0.00018382	0.00014866	1194.5	3.6896e-06	2.3913e-06	1274.4	259.07	6.8331e-06	8.3971e-06	322.45	86.451	69.508	20.192	6.2181e-06	27.898	0.00049444	0.00049883	0.00013882	1176.5	5.5759e-06	5.4671e-06	1259.2	259.9	5.5619e-06	5.5583e-06	323.15	88.789	75.442	21.223	5.4834e-06	29.568	179.507	68.688	129.597	-114.784	-9.503	-75.268	-115.050	-107.614	23.938	67.435	-107.805	-101.127	-102.315	-93.575	-43.891	-93.969	-8191	255	
1030.944	1	1	0	0	0.012752	0.04711	0.22315	0.29547	0.16244	0.24744	0.23795	0.12243	0.099463	0.16944	0.077273	0.31094	0.16135	0.15221	0.27578	0.12144	-1.9188	-2.0563	-2.1583	-2.5417	-1.9583	-2.4271	-1.9583	-2.3021	-2.3167	-2.0729	-2.3479	-2.2646	-1.9771	-2.3479	-2.1229	-2.2479	150.244	-82.289	-0.885	228.785	213.732	84.277	220.202	-81.125	230.145	221.522	-29.386	198.326	149.461	228.907	150.925	-88.608	0.00040638	0.00040304	8.8021e-05	1194.1	5.1222e-06	3.8278e-07	1281.6	259.68	1.1564e-06	4.3997e-06	320.36	86.605	69.672	20.302	1.3403e-06	27.108	0.00049982	0.00049851	0.00013871	1177.4	5.4311e-06	5.359e-06	1261.2	259.75	5.4264e-06	5.5152e-06	322.2	88.43	75.029	21.275	5.4467e-06	29.304	114.158	-97.185	47.352	-114.643	-60.525	162.112	-115.176	-107.540	12.661	52.138	-107.729	-101.497	-100.744	-93.588	113.505	-93.664	-8191	255	
1031.015	1	1	0	0	0.072689	0.15636	0.10402	0.21434	0.14901	0.098917	0.26442	0.20341	0.18372	0.27789	0.24212	0.3702	0.14258	0.031794	0.1362	0.21138	-1.9021	-1.7625	-2.2062	-2.3583	-2.0292	-2.3479	-2.3063	-1.9333	-2.3854	-1.8458	-2.4688	-2.3563	-2.0187	-2.2958	-2.2542	-1.9958	-18.022	209.049	-44.171	160.912	145.313	123.582	169.359	29.897	197.334	88.022	157.856	120.836	200.379	25.760	-17.457	136.445	0.00034654	0.00044517	0.00012219	1198.6	6.879e-06	4.4528e-06	1274.8	259.59	5.4783e-06	4.158e-06	322.52	86.62	68.908	20.316	3.4132e-06	27.169	0.00048941	0.00049375	0.00013739	1180.1	5.4377e-06	5.4859e-06	1261.6	260.14	5.4938e-06	5.5133e-06	324.01	88.638	75.374	21.334	5.6699e-06	29.588	113.295	48.472	173.725	-114.627	-10.955	-87.739	-114.906	-107.873	-66.218	-1.419	-107.900	-101.494	-101.726	-93.122	36.137	-93.985	-8191	255	
1031.112	1	1	0	0	0.17943	0.096164	0.1554	0.026397	0.1901	0.26072	0.10676	0.29198	0.16456	0.17353	0.11238	0.16662	0.044785	0.21214	0.10386	0.33878	-1.9917	-1.9792	-2.3479	-2.3375	-1.8625	-2.4875	-2.2417	-1.9292	-2.425	-2.0062	-2.3125	-2.3187	-2.0146	-2.3583	-1.9771	-2.0563	-25.288	62.366	97.821	46.134	15.417	7.861	194.937	-105.847	229.564	-100.767	135.661	217.654	-75.721	-110.609	231.593	203.606	0.00021639	0.00031918	0.00010218	1197.6	5.4374e-06	4.9384e-06	1278.8	260.6	5.0208e-06	7.3765e-06	321.7	85.701	70.096	20.479	6.4218e-07	27.563	0.0005184	0.00052706	0.00014864	1180.8	5.7929e-06	5.7507e-06	1263.4	260.97	5.731e-06	5.74e-06	324.42	88.807	75.971	21.397	5.7605e-06	29.745	133.594	-97.103	51.472	-114.600	22.143	27.721	-115.054	-107.839	-9.949	72.807	-107.590	-101.283	-101.585	-93.449	200.061	-94.108	-8191	255	
1031.232	1	1	0	0	0.21196	0.25619	0.17938	0.3568	0.10863	0.22181	0.10715	0.2018	0.12842	0.22289	0.1656	0.19101	0.10871	0.13077	0.21942	0.12846	-2.0896	-1.9417	-2.325	-2.2625	-2.0438	-2.1437	-2.45	-1.8354	-2.5729	-1.8875	-2.3458	-2.1813	-1.9188	-2.3187	-2.2438	-1.9979	2.880	-47.214	70.279	203.884	36.850	-94.481	-79.876	210.948	90.667	88.297	219.053	219.620	102.892	-121.222	-72.232	-88.068	0.00039173	0.00056073	0.00014441	1200	5.2119e-06	3.8727e-06	1278.4	261.01	1.8301e-06	3.9752e-06	324.25	85.864	70.043	20.516	3.5053e-06	27.547	0.00052783	0.00053059	0.00014908	1183.6	5.9056e-06	5.9111e-06	1263.4	262.17	6.0024e-06	6.0761e-06	326.17	89.361	76.888	21.497	6.0156e-06	30.021	128.896	208.175	65.229	-114.782	145.258	-74.362	-115.073	-107.478	37.666	121.580	-107.811	-101.831	-101.966	-93.444	95.709	-94.020	-8191	255	
1031.328	1	1	0	0	0.065098	0.14462	0.1888	0.24264	0.046675	0.24744	0.29216	0.12983	0.22953	0.11594	0.075618	0.29738	0.11344	0.10319	0.12121	0.14403	-2.0792	-1.9	-2.2896	-2.3729	-1.9688	-2.3854	-2.4521	-1.875	-2.3604	-1.9688	-2.2167	-2.2479	-1.8125	-2.1583	-2.1625	-1.8042	135.641	154.090	-114.943	176.345	70.461	14.426	140.884	52.041	232.339	78.193	-77.465	120.648	72.812	91.398	142.588	-80.040	0.00053499	0.00064887	4.3966e-05	1199.4	7.6181e-06	1.9595e-06	1277.3	261.42	8.0464e-06	4.1708e-06	323.94	86.611	70.123	20.341	7.7131e-06	27.463	0.00055283	0.00055464	0.00015453	1181.7	6.0341e-06	5.9987e-06	1266.4	262.69	6.0806e-06	6.0917e-06	327.19	89.771	77.188	21.573	6.1343e-06	30.008	139.200	-74.385	-95.649	-114.805	-9.370	68.536	-115.179	-108.742	-49.018	104.166	-110.775	-104.622	-104.480	-96.221	-110.260	-96.849	-8191	255	
1031.425	1	1	0	0	0.062762	0.19081	0.19182	0.28262	0.49363	0.23526	0.35386	0.12241	0.22885	0.071116	0.051045	0.50656	0.13413	0.14411	0.064018	0.048167	-1.9625	-1.85	-2.1	-2.3333	-2.0083	-2.0958	-2.4104	-1.7375	-2.3146	-1.9688	-2.1104	-2.2375	-1.8792	-2.0375	-2.3292	-1.7208	0.546	31.499	160.800	62.924	172.898	196.977	93.149	128.040	-76.476	137.580	-39.827	170.667	-78.748	212.776	26.261	121.443	0.0001856	0.0004123	0.00020882	1196.3	1.3528e-06	4.2264e-06	1279.5	261.4	9.0878e-06	8.5476e-06	321.31	86.743	70.724	20.425	8.9359e-06	27.656	0.00055672	0.00055686	0.00015553	1185	6.1125e-06	6.0833e-06	1267.4	262.82	6.0673e-06	6.1392e-06	326.28	89.744	77.447	21.555	6.123e-06	30.052	149.769	-65.601	-40.133	-117.483	160.082	42.729	-117.566	-110.056	-18.654	-66.395	-109.996	-103.302	-102.414	-94.608	-9.492	-95.523	-8191	255	
1031.521	1	1	0	0	0.44534	0.16361	0.20324	0.22547	0.21418	0.24219	0.26867	0.26934	0.12846	0.24078	0.27685	0.059174	0.25474	0.13625	0.25452	0.26944	-1.9458	-1.8375	-2.0021	-2.3333	-1.9354	-1.9021	-2.45	-1.8438	-2.1333	-2.2271	-1.8792	-2.3458	-1.9604	-2.0458	-2.1833	-1.7542	-115.713	-65.928	113.038	-109.091	-87.777	145.089	163.085	198.812	20.843	-12.491	-113.623	165.569	135.809	-114.469	57.811	221.808	6.3001e-05	0.00056972	0.00024276	1194.2	1.92e-06	2.4625e-06	1280.5	261.99	7.1398e-06	1.9317e-06	322.11	87.095	70.013	20.186	1.2981e-06	27.18	0.00055361	0.00055514	0.00015471	1184.5	6.068e-06	5.9861e-06	1266.7	263.21	6.0299e-06	6.0278e-06	325.83	89.696	76.82	21.418	5.9746e-06	29.87	29.032	206.670	-59.000	-117.164	41.924	27.510	-117.425	-110.265	7.181	186.393	-110.291	-103.828	-104.485	-95.906	-34.129	-96.229	-8191	255	
1031.617	1	1	0	0	0.083578	0.14771	0.14239	0.31896	0.084464	0.16508	0.19557	0.11652	0.32496	0.22642	0.20357	0.23913	0.13121	0.096798	0.12748	0.18773	-1.7792	-2.2208	-1.7167	-2.7562	-1.8625	-2.0187	-2.4125	-1.9583	-2.3896	-2.2562	-1.9792	-2.2604	-2.0625	-2.0312	-2.4813	-1.7854	185.095	-70.543	5.471	222.902	97.354	-64.424	194.098	116.709	170.735	75.149	111.195	202.796	-42.674	36.417	44.333	183.601	0.0005326	0.00025555	0.00012662	1199.4	1.2624e-06	6.753e-06	1281.4	261.86	5.2661e-06	3.9558e-06	321.21	86.366	70.41	20.482	6.7252e-06	27.972	0.00054398	0.00055168	0.0001535	1184.6	5.9839e-06	6.0585e-06	1268.5	263.43	6.1408e-06	6.0754e-06	325.73	89.938	77.109	21.629	6.0848e-06	30.28	150.428	223.410	127.061	-117.135	63.125	6.178	-117.617	-110.057	63.881	-16.645	-108.935	-102.409	-102.200	-94.294	136.935	-95.168	-8191	255	
1031.711	1	1	0	0	0.11597	0.27791	0.19588	0.065244	0.21314	0.22871	0.10974	0.5176	0.25434	0.1422	0.15958	0.10065	0.20129	0.18542	0.33938	0.12869	-1.7875	-2.1083	-1.8875	-2.3	-2.1354	-1.9146	-2.6562	-2.0187	-2.0938	-2.1708	-2.0854	-2.1292	-2.1792	-1.9021	-2.4688	-2.0917	-47.846	-10.133	134.649	-33.522	-56.891	-91.208	-44.682	-119.381	-8.392	-95.850	217.896	9.271	185.687	-42.576	-30.207	106.685	0.00026122	0.00051371	0.00010057	1202.4	9.1468e-07	1.6901e-06	1285.4	261.73	4.1146e-06	2.3205e-06	324.49	86.588	70.649	20.379	6.7233e-06	27.783	0.00056376	0.00056564	0.00015784	1188.3	6.2247e-06	6.2453e-06	1271.6	264.11	6.3039e-06	6.247e-06	327.47	89.946	77.52	21.665	6.2285e-06	30.178	119.789	-116.942	224.809	-116.333	-16.466	30.974	-116.320	-108.887	217.702	-56.213	-108.606	-102.916	-102.559	-94.360	54.402	-94.686	-8191	255	
1031.807	1	1	0	0	0.17186	0.25107	0.063481	0.16205	0.18286	0.077796	0.18083	0.14813	0.11363	0.15539	0.16885	0.10938	0.19648	0.038014	0.066387	0.10526	-1.6854	-2.3958	-1.6917	-2.4688	-2.0833	-1.9438	-2.4042	-2.2479	-2.0687	-2.4104	-1.8729	-2.2958	-2.1375	-1.8896	-2.3187	-1.9979	32.357	90.396	116.211	-105.897	-23.188	22.334	178.562	211.944	133.116	-44.229	198.075	-56.335	19.138	-56.072	176.009	226.380	0.00039934	0.00014337	5.701e-05	1201.7	4.1696e-06	1.0914e-06	1283	263.15	8.7344e-06	4.213e-06	325.49	86.176	69.664	20.439	6.133e-06	27.908	0.00056004	0.00055951	0.0001573	1186.8	6.193e-06	6.121e-06	1269.4	264.43	6.1527e-06	6.1593e-06	327.68	89.805	77.476	21.608	6.172e-06	30.256	163.506	-118.667	-6.310	-115.537	90.130	-47.212	-115.902	-108.933	6.466	-35.374	-109.454	-103.016	-103.298	-95.099	-0.849	-95.154	-8191	255	
1031.905	1	1	0	0	0.18485	0.18153	0.18574	0.30314	0.22108	0.1267	0.37529	0.27784	0.23786	0.10452	0.19291	0.22786	0.067532	0.20991	0.22494	0.13148	-1.6333	-2.25	-2.0271	-2.4375	-2.3312	-1.8292	-2.4333	-2.0021	-2.0812	-2.2917	-2.1875	-2.1729	-2.4271	-1.8479	-2.3708	-1.9646	-12.445	53.956	-40.335	175.405	198.439	26.027	217.105	144.029	194.251	-111.158	113.991	168.529	-102.312	186.394	145.837	34.351	2.5875e-05	0.00012761	0.0001246	1195.5	1.1069e-05	3.7331e-06	1276	263.83	6.9228e-06	6.7349e-06	324.68	86.799	70.475	20.279	1.3446e-06	27.589	0.00056175	0.00056388	0.0001566	1184.7	6.208e-06	6.1667e-06	1266.3	264.7	6.2034e-06	6.1648e-06	328.38	89.965	77.206	21.568	6.0763e-06	29.962	0.570	-88.718	-83.242	-116.653	-81.021	76.891	-116.923	-109.256	-109.086	87.196	-108.972	-102.483	-102.456	-94.248	87.207	-94.823	-8191	255	
1032.024	1	1	0	0	0.075517	0.34284	0.19166	0.10099	0.28509	0.098354	0.26644	0.099588	0.086797	0.1124	0.06645	0.092418	0.13823	0.16742	0.32387	0.17032	-1.8875	-2.3875	-1.9937	-2.3729	-2.5146	-1.7479	-2.5125	-2.3229	-1.9167	-2.1771	-2.0333	-2.1854	-2.3	-1.8229	-2.2771	-2.0958	-81.976	-47.037	54.698	61.057	219.518	-64.099	135.678	106.892	113.121	-113.757	120.268	211.936	185.062	-97.444	48.392	-54.858	0.00035043	0.0005084	0.00012441	1198.8	5.783e-06	5.8345e-07	1279.9	262.63	3.334e-06	4.6969e-06	325.15	86.561	70.664	20.296	3.5903e-06	27.605	0.00053913	0.00053799	0.00014985	1185.2	5.8426e-06	5.8085e-06	1265.3	263.6	5.7668e-06	5.7542e-06	326.3	89.265	75.941	21.386	5.6254e-06	29.65	227.606	-52.198	-106.342	-115.461	-17.622	-88.681	-115.954	-108.899	88.063	67.743	-108.540	-102.145	-103.334	-94.442	-40.808	-94.808	-8191	255	
1032.120	1	1	0	0	0.095984	0.23828	0.14647	0.19846	0.14786	0.12426	0.066663	0.17318	0.086658	0.1375	0.33209	0.03116	0.040167	0.23765	0.098459	0.047658	-1.3604	-2.3667	-1.675	-2.275	-2.3896	-1.825	-2.5167	-2.2375	-1.8563	-2.3021	-2.0771	-2.0146	-2.2958	-1.8896	-1.9771	-2.1458	15.225	-99.355	84.596	-62.750	140.126	27.366	206.008	-113.012	-53.434	-34.537	190.996	198.506	30.029	195.182	90.041	66.083	0.00037691	9.3531e-05	0.00011155	1201.4	1.7619e-06	6.133e-06	1279.4	263.29	1.2437e-05	7.975e-06	323.83	86.655	70.251	20.211	1.1537e-05	27.677	0.00050501	0.00050313	0.00014048	1182.5	5.5918e-06	5.5662e-06	1264.6	263.35	5.6424e-06	5.6275e-06	326.37	89.343	76.144	21.413	5.6654e-06	29.767	104.026	64.963	-44.036	-116.120	175.601	87.275	-117.414	-110.059	-67.780	101.628	-110.262	-103.871	-103.519	-96.082	7.126	-96.434	-8191	255	
1032.192	1	1	0	0	0.31686	0.33516	0.076887	0.2145	0.18702	0.11626	0.17923	0.12789	0.24823	0.15492	0.13713	0.061675	0.15029	0.3102	0.097422	0.22695	-1.3021	-2.2625	-1.8813	-2	-2.1646	-1.7	-2.4229	-2.2938	-1.8104	-2.225	-2.0771	-2.0479	-2.225	-1.9625	-1.9896	-2.3333	79.169	-99.514	-55.662	106.236	-106.096	41.371	200.832	-106.479	126.361	-74.287	32.351	12.318	-55.886	-81.157	-64.869	178.409	0.00062717	0.00058081	9.0077e-05	1196.5	3.2304e-06	2.4891e-06	1273.9	262.35	2.9982e-06	6.3079e-06	323.73	86.993	70.598	20.326	5.9932e-06	27.584	0.00051717	0.00052096	0.00014522	1181.7	5.6681e-06	5.6308e-06	1263.9	263.6	5.6034e-06	5.5902e-06	325.73	89.23	75.722	21.367	5.4333e-06	29.463	125.113	4.066	-44.495	-117.385	-109.427	87.902	-117.853	-110.556	135.046	-11.623	-110.611	-103.674	-104.041	-95.878	-51.486	-96.017	-8191	255	
1032.313	1	1	0	0	0.11442	0.30596	0.17419	0.28067	0.11161	0.16573	0.2997	0.16715	0.049986	0.093351	0.13112	0.10547	0.17383	0.060778	0.21836	0.2503	-1.3292	-2.2542	-1.9896	-2.2042	-2.3021	-2.0417	-2.1458	-2.3688	-1.7917	-2.2812	-2.275	-2.1	-2.2583	-1.9771	-2.1188	-2.3375	-86.241	74.526	-17.944	172.772	37.481	-3.390	215.987	-122.313	49.227	90.278	51.920	-42.231	50.498	-116.255	116.262	229.612	0.0002613	0.00026762	3.0386e-05	1193.9	1.2671e-06	4.685e-06	1274.7	260.43	3.5519e-06	5.8943e-07	323.43	86.448	69.786	20.459	6.3491e-06	27.608	0.00048022	0.00048334	0.00013419	1176.9	5.189e-06	5.1331e-06	1260	261.98	5.0696e-06	5.1044e-06	323.61	88.636	74.426	21.278	5.0194e-06	29.307	216.697	161.092	-72.477	-116.511	55.324	-2.305	-117.763	-111.223	-128.396	38.824	-111.173	-104.786	-104.691	-96.369	-8.000	-96.956	-8191	255	
1032.409	1	1	0	0	0.039399	0.31387	0.17543	0.35981	0.13505	0.22064	0.064777	0.16758	0.12745	0.092928	0.10708	0.1896	0.21639	0.43843	0.13103	0.16627	-1.3438	-2.25	-2.0417	-2	-2.3854	-2.0479	-2.1104	-2.3083	-1.9792	-2.0563	-2.2854	-1.6854	-2.25	-1.8542	-1.8979	-2.3479	183.361	217.798	37.285	150.986	78.665	-104.515	196.125	-121.975	-20.201	133.194	127.738	114.828	89.641	219.442	99.062	161.742	0.0003088	0.00054714	3.4355e-05	1194.8	6.2326e-06	3.3748e-06	1266.3	262.32	7.9612e-06	3.0085e-06	321.19	87.163	70.053	20.41	4.9218e-06	27.326	0.00045755	0.00046377	0.00012774	1175.6	5.0375e-06	5.042e-06	1256	261.78	5.0063e-06	5.0548e-06	322.94	88.787	74.636	21.259	5.1413e-06	29.292	153.766	-66.558	52.728	-117.451	98.491	-15.018	-117.686	-110.705	-110.182	-101.770	-111.178	-104.237	-104.062	-96.384	211.917	-96.237	-8191	255	
1032.505	1	1	0	0	0.070616	0.17509	0.14901	0.36229	0.092782	0.094668	0.32824	0.22929	0.22238	0.3975	0.1177	0.12337	0.24498	0.20746	0.19373	0.15156	-1.4167	-2.0687	-2.1146	-2.1167	-2.1937	-2.0604	-1.9438	-2.6125	-1.9375	-2.3021	-2.4062	-1.9104	-2.2438	-2.3625	-1.7812	-2.4229	110.778	-107.205	131.094	212.972	19.108	65.117	92.882	212.331	-19.069	137.315	200.997	-124.091	20.216	226.690	-60.887	140.314	0.00041014	0.00041652	0.00012335	1190.7	2.8365e-06	3.0431e-06	1268.5	262.13	6.0516e-06	6.5915e-06	323.42	86.228	70.069	20.308	2.0775e-07	27.193	0.00046828	0.00046886	0.00012964	1174.9	5.1721e-06	5.1636e-06	1255.3	261.65	5.1286e-06	5.1552e-06	323.79	88.488	74.89	21.28	5.1677e-06	29.25	93.514	172.561	89.872	-117.976	101.436	-87.269	-118.432	-111.223	1.734	15.180	-110.920	-104.988	-104.748	-96.783	-75.926	-97.092	-8191	255	
1032.626	1	1	0	0	0.049327	0.15507	0.15606	0.28189	0.097627	0.12493	0.071847	0.21719	0.17287	0.32122	0.03334	0.12189	0.096143	0.032884	0.082404	0.21063	-1.5042	-2.1208	-2.3229	-1.9604	-2.2667	-2.0896	-1.9583	-2.3438	-1.8792	-2.1354	-2.4313	-1.95	-2.0271	-2.2188	-1.8292	-2.2479	226.791	-71.641	109.294	-114.065	186.421	13.090	160.966	105.465	187.042	-31.587	-117.437	-50.448	-68.579	54.365	-108.739	-99.374	0.00045146	0.00049356	7.2746e-05	1186.4	6.8166e-06	6.5819e-07	1268.6	261.66	5.6767e-06	2.2484e-06	324.14	86.681	70.137	20.346	4.5348e-06	27.483	0.0004708	0.00047621	0.00013091	1172.5	5.1589e-06	5.1867e-06	1255.2	261.77	5.1995e-06	5.1256e-06	323.79	88.704	74.534	21.239	5.0284e-06	29.317	121.708	-67.076	67.852	-117.403	-85.268	17.071	-118.468	-110.758	209.731	-39.174	-110.177	-104.734	-104.338	-96.326	205.413	-97.020	-8191	255	
1032.722	1	1	0	0	0.30798	0.29493	0.17441	0.12838	0.11447	0.13324	0.19638	0.043256	0.12101	0.24387	0.22711	0.13216	0.085598	0.0406	0.16536	0.24147	-1.6708	-1.9375	-2.3396	-2.0583	-2.1354	-2.2042	-2.1	-2.3271	-2.0375	-2.0354	-2.2521	-1.9688	-2.0375	-2.2292	-1.8271	-2.3812	0.818	-10.133	-112.851	-76.580	-68.038	91.693	206.910	97.971	-23.695	149.841	-60.937	229.214	132.789	-94.629	136.641	96.754	0.0002704	0.00030777	0.00011525	1192.6	6.2365e-06	2.649e-06	1270.7	262.01	1.1837e-05	3.4845e-06	326.57	86.193	70.596	20.331	5.0161e-06	27.538	0.0004585	0.00046339	0.00012801	1174.2	5.1517e-06	5.0712e-06	1255	262.36	5.0934e-06	5.0603e-06	324.72	88.591	74.572	21.242	4.9204e-06	29.138	138.540	-30.492	-82.238	-115.952	-71.808	-26.177	-117.584	-110.254	-103.195	-55.380	-110.291	-103.946	-103.736	-95.868	4.260	-96.156	-8191	255	
1032.816	1	1	0	0	0.3113	0.08659	0.23647	0.08211	0.12379	0.082359	0.19389	0.25222	0.1761	0.15992	0.13131	0.040001	0.16318	0.21189	0.19147	0.25359	-1.5521	-1.825	-2.2146	-2.1958	-2.0542	-2.1729	-1.9542	-2.3021	-2.2125	-1.9083	-2.4167	-1.9667	-2.0229	-2.3271	-1.7354	-2.2292	90.232	105.695	69.615	8.333	157.056	148.778	-99.397	138.317	28.552	-33.878	203.440	-52.903	-31.491	-117.204	-3.166	-40.349	0.00028375	0.00040764	0.00010684	1188.7	4.1589e-06	3.17e-06	1265.5	261.41	1.2685e-05	4.7372e-06	320.61	85.845	69.573	20.288	4.8747e-06	27.669	0.00044504	0.0004408	0.00012151	1170.9	4.825e-06	4.7206e-06	1252.2	260.7	4.7178e-06	4.7363e-06	322.39	87.883	73.694	21.088	4.835e-06	29.111	104.689	-125.798	157.900	-116.991	1.427	99.003	-117.169	-109.963	-108.504	150.819	-110.128	-103.532	-102.983	-95.771	105.403	-95.649	-8191	255	
1032.912	1	1	0	0	0.033424	0.065151	0.16209	0.25454	0.16348	0.23421	0.0072351	0.22801	0.12886	0.15145	0.28362	0.21658	0.11126	0.13463	0.094982	0.10191	-1.6771	-2.05	-2.4083	-2.2771	-2.1458	-2.2812	-2.1208	-2.3042	-2.1917	-1.9854	-2.2625	-2.1646	-2.0146	-2.4813	-1.7771	-2.3542	-107.561	143.940	130.785	184.103	-78.609	37.655	69.140	178.597	-19.989	124.154	197.226	126.819	214.568	228.540	173.371	205.902	0.00062735	0.00057007	0.00013313	1190.7	1.0648e-06	4.8588e-06	1271.9	261.67	3.7882e-06	3.0752e-06	324.6	86.752	70.225	20.308	3.0457e-06	27.887	0.00043375	0.00044605	0.00012415	1172.4	4.8093e-06	4.8384e-06	1251.9	260.83	4.8433e-06	4.8821e-06	322.54	88.022	73.932	21.063	4.9395e-06	29.084	138.482	29.604	-23.858	-114.500	189.631	-59.111	-114.962	-107.497	210.320	135.059	-107.736	-101.645	-101.524	-93.150	-16.688	-93.646	-8191	255	
1033.008	1	1	0	0	0.022138	0.04026	0.22005	0.11756	0.069023	0.12284	0.26894	0.17415	0.2124	0.26185	0.21399	0.17267	0.14031	0.23337	0.13757	0.33192	-1.775	-1.9604	-2.3667	-2.2562	-1.9729	-2.4208	-2.0625	-2.3104	-2.0542	-1.8563	-2.1125	-2.2375	-1.8937	-2.65	-1.8917	-2.2292	-41.833	-97.461	-43.878	148.815	26.597	200.706	93.503	213.427	-83.374	-35.105	227.256	116.806	-23.383	-38.581	127.626	180.296	0.00053793	7.7125e-05	0.0001348	1192.7	2.6155e-06	5.7011e-06	1271.9	260.93	3.8033e-06	3.406e-06	323.56	86.309	69.812	20.273	4.8292e-06	27.362	0.00044181	0.00044884	0.00012482	1171.4	4.8808e-06	4.8178e-06	1250.1	260.64	4.825e-06	4.8501e-06	322.03	88.018	73.509	21.065	4.7145e-06	28.957	114.657	-110.035	0.147	-114.691	-95.646	30.626	-114.835	-107.865	-5.143	148.081	-107.689	-101.346	-101.710	-92.812	-46.703	-93.643	-8191	255	
1033.105	1	1	0	0	0.24828	0.06376	0.14153	0.36137	0.19763	0.29912	0.44649	0.14664	0.23824	0.24309	0.077521	0.17429	0.24011	0.19655	0.1426	0.19021	-1.8563	-1.925	-2.3146	-2.325	-2.0833	-2.3104	-2.1875	-2.1292	-2.1958	-1.9	-2.3187	-2.2313	-1.7792	-2.3542	-2.0833	-1.9208	37.575	102.620	136.229	196.547	18.738	119.862	209.209	68.921	-36.418	138.186	21.862	223.539	142.770	151.605	-68.801	159.454	0.00032817	0.00051535	5.8052e-05	1192.4	1.8926e-06	9.0643e-07	1271.1	261.13	8.9069e-07	1.2975e-06	323.45	86.487	69.599	20.233	4.6409e-06	27.363	0.00042712	0.00043203	0.00011887	1168.4	4.6721e-06	4.6569e-06	1249.6	260.07	4.649e-06	4.6334e-06	321.91	87.895	72.981	20.945	4.6027e-06	28.812	119.434	-32.455	-94.516	-114.479	119.171	56.377	-114.921	-108.993	-75.858	50.503	-109.756	-103.499	-103.452	-95.224	37.535	-96.593	-8191	255	
1033.201	1	1	0	0	0.23551	0.093493	0.09443	0.2987	0.21491	0.26245	0.10671	0.25312	0.080099	0.15429	0.1825	0.060348	0.10752	0.10259	0.039517	0.22915	-1.7125	-1.7437	-2.1437	-2.3896	-1.925	-2.3208	-2.2771	-2.075	-2.5583	-1.9292	-2.4271	-2.3771	-1.9042	-2.3208	-2.0708	-1.8542	219.632	97.019	132.432	231.578	-20.818	226.316	190.514	217.307	-109.691	181.358	143.845	197.211	-122.704	111.949	71.548	141.986	0.00023895	0.00010101	0.00015435	1185.9	3.4364e-06	4.528e-07	1268.1	260.04	3.8977e-06	3.8506e-06	321.42	85.722	68.863	20.244	1.1995e-06	27.205	0.0004138	0.00042223	0.0001177	1166.9	4.6036e-06	4.636e-06	1249.5	259.38	4.6589e-06	4.6408e-06	321.16	87.516	73.007	20.963	4.7124e-06	28.848	184.184	-44.443	12.630	-116.934	208.294	133.008	-117.378	-109.804	103.104	45.430	-109.955	-103.375	-103.066	-95.248	-93.254	-96.233	-8191	255	
1033.321	1	1	0	0	0.043558	0.023225	0.075188	0.14165	0.11507	0.10173	0.12103	0.27882	0.1421	0.27469	0.1738	0.092797	0.14829	0.056278	0.075562	0.10765	-2.0146	-1.8521	-2.2542	-2.4958	-1.8604	-2.3396	-2.1854	-1.9937	-2.3875	-1.9375	-2.2146	-2.4833	-1.8167	-2.4458	-2.0917	-2.0979	31.076	-26.732	86.612	173.327	170.356	14.250	173.311	215.373	172.168	-111.401	145.473	-34.432	40.720	31.981	-91.595	-68.598	0.0002776	0.00020708	8.0346e-05	1185.6	3.6495e-06	2.8935e-06	1271.8	258.93	4.7976e-06	2.758e-06	323.06	86.041	69.011	20.238	8.7914e-06	27.631	0.00042964	0.00043796	0.00012031	1169	4.7314e-06	4.7687e-06	1251.4	259.66	4.7712e-06	4.7952e-06	321.57	87.804	73.383	20.979	4.6808e-06	28.934	52.805	215.624	21.195	-116.593	-17.345	114.559	-116.984	-109.818	210.549	29.824	-109.465	-103.716	-103.324	-95.198	-84.256	-95.133	-8191	255	
1033.417	1	1	0	0	0.24263	0.092172	0.13127	0.079753	0.21528	0.20778	0.24036	0.12587	0.14729	0.17511	0.24118	0.17231	0.12579	0.11946	0.19087	0.038309	-2.0833	-2.0292	-1.8875	-2.4792	-1.9417	-2.5042	-2.2833	-1.825	-2.3854	-2.15	-2.0708	-2.4083	-1.8979	-2.1125	-2.2667	-2.0521	41.688	-44.818	-43.131	224.130	115.244	198.426	173.181	-6.869	-105.963	22.649	-61.682	225.624	6.404	187.024	184.729	207.770	0.00028548	0.00026695	6.3577e-05	1185.5	1.2083e-06	3.8747e-06	1270.5	259.77	5.0127e-06	2.5893e-06	321.69	86.167	69.721	20.128	1.1663e-06	27.565	0.00042526	0.0004296	0.00011902	1165.9	4.6105e-06	4.5576e-06	1249.8	259.25	4.6111e-06	4.604e-06	320.49	87.431	72.995	20.881	4.6563e-06	28.918	111.806	117.081	23.190	-115.934	153.669	-75.476	-116.425	-108.839	-85.343	-13.070	-110.106	-103.676	-103.738	-95.318	15.315	-95.605	-8191	255	
1033.489	1	1	0	0	0.11622	0.059604	0.18073	0.28896	0.11509	0.40496	0.19502	0.17422	0.34644	0.21017	0.033907	0.13794	0.30777	0.21509	0.37787	0.074432	-2.0062	-2.0021	-2.2062	-2.4	-2.0396	-2.1833	-2.3	-1.8146	-2.3417	-2.0312	-2.0583	-2.5563	-1.7625	-2.175	-2.2188	-1.725	91.633	64.101	228.632	168.139	207.637	158.570	139.713	102.055	-59.394	-6.575	83.996	-114.804	119.886	-108.583	151.006	183.484	0.00033494	0.00055331	3.5404e-05	1183.4	6.4641e-06	1.4789e-06	1266.9	259.85	4.9679e-06	6.8422e-06	322.15	85.458	69.301	20.26	3.0102e-06	27.472	0.00042789	0.00042706	0.0001178	1166	4.7418e-06	4.6793e-06	1248.8	259.13	4.7218e-06	4.7666e-06	320.8	87.398	73.023	20.92	4.7316e-06	28.799	124.516	204.122	-117.986	-116.598	230.619	-51.765	-116.586	-109.412	220.823	41.822	-109.520	-102.903	-103.057	-94.413	-41.897	-95.410	-8191	255	
1033.585	1	1	0	0	0.47076	0.30095	0.11447	0.11359	0.35	0.097466	0.093355	0.18618	0.18081	0.28306	0.075951	0.13303	0.075678	0.1431	0.22863	0.056022	-1.9375	-2.0875	-1.9604	-2.4771	-2.0938	-1.9875	-2.4292	-1.9271	-2.2625	-2.0833	-1.8958	-2.3187	-1.9688	-2.1875	-2.3042	-1.8542	203.431	106.864	219.440	149.048	-120.118	178.968	212.500	158.184	172.361	-38.591	-77.977	105.710	6.492	-44.345	50.064	-104.047	0.00031927	0.0003828	0.00021835	1180.2	2.4014e-06	1.4217e-06	1267	259.87	5.0302e-06	4.4486e-06	320.51	85.218	69.459	20.126	2.8449e-06	27.146	0.00042742	0.00042647	0.00011918	1163.6	4.6583e-06	4.683e-06	1248.3	258.7	4.6291e-06	4.6564e-06	319.94	87.284	72.652	20.897	4.6131e-06	28.849	120.335	48.747	39.916	-116.619	69.606	-42.257	-117.103	-109.595	-50.561	40.879	-110.066	-103.876	-103.222	-95.047	106.913	-96.012	-8191	255	
1033.704	1	1	0	0	0.21106	0.16507	0.23203	0.076797	0.17202	0.18423	0.1784	0.1257	0.33925	0.1854	0.20993	0.05308	0.055266	0.14242	0.26062	0.31244	-1.6833	-2.2687	-1.8333	-2.4375	-1.9104	-2.0646	-2.3812	-2.0229	-2.1458	-2.1708	-1.8396	-2.3063	-1.9271	-1.9708	-2.3063	-2.1875	81.664	221.451	-38.287	168.770	223.570	208.522	187.019	150.065	78.181	78.753	210.946	182.548	205.739	162.420	-81.095	-13.504	0.0001841	0.0004205	8.465e-05	1185.2	3.0518e-06	6.6438e-06	1262	258.78	1.2533e-06	3.8695e-06	319.51	85.768	69.219	20.089	1.9837e-06	27.122	0.00041404	0.0004185	0.0001159	1164.9	4.5572e-06	4.5362e-06	1245.6	258.07	4.5684e-06	4.5666e-06	318.86	87.13	72.748	20.836	4.5794e-06	28.664	167.268	-44.645	-15.877	-116.606	-15.677	37.825	-117.125	-109.861	-60.838	44.861	-109.658	-103.284	-103.857	-95.152	-12.198	-96.002	-8191	255	
1033.800	1	1	0	0	0.21763	0.14764	0.12101	0.22705	0.12361	0.079581	0.16663	0.060727	0.21805	0.19086	0.060058	0.15378	0.12928	0.18698	0.15724	0.064136	-1.6208	-2.1437	-1.6771	-2.4208	-2.2479	-1.7938	-2.6354	-1.9479	-2.2396	-2.3104	-1.8937	-2.3563	-2.0896	-2.075	-2.2917	-1.9229	19.877	89.086	50.150	-89.976	168.334	-74.208	145.588	-45.243	159.738	24.668	133.125	-27.089	113.835	196.057	-105.011	52.584	0.00035592	0.00067363	8.9966e-05	1185.1	1.0061e-05	5.8256e-06	1260.8	258.37	6.388e-06	1.7924e-06	318.31	85.6	68.932	20.078	1.2734e-06	27.67	0.000417	0.00041648	0.00011653	1164.3	4.577e-06	4.5785e-06	1245	257.74	4.6202e-06	4.5725e-06	318.8	86.944	72.549	20.789	4.5767e-06	28.792	131.459	-56.588	-16.556	-116.566	-16.713	2.711	-116.622	-109.642	71.036	-95.870	-110.634	-103.920	-104.216	-95.527	-29.100	-96.006	-8191	255	
1033.896	1	1	0	0	0.070492	0.1914	0.08658	0.32288	0.039606	0.11055	0.24689	0.15075	0.17824	0.21308	0.2332	0.26037	0.26341	0.18773	0.25104	0.14449	-1.8979	-2.325	-2.0854	-2.3021	-2.3125	-1.9917	-2.6208	-2.1625	-2.0625	-2.2583	-2.1875	-2.125	-2.3271	-1.8979	-2.3937	-2.1646	-33.870	40.587	113.973	152.394	-73.862	-32.065	180.101	163.287	134.984	94.056	146.242	185.094	124.349	165.741	15.119	90.316	0.00016002	0.00055948	0.00018068	1182.5	4.3354e-06	6.3803e-06	1265.1	259.01	5.6539e-06	6.7715e-06	320.38	85.337	69.272	20.171	6.6407e-06	27.426	0.00041428	0.00041726	0.00011659	1163	4.5862e-06	4.5672e-06	1244.2	257.91	4.569e-06	4.5619e-06	318.34	86.808	72.357	20.827	4.5028e-06	28.678	63.277	-62.716	3.315	-116.039	-92.235	-70.739	-114.969	-107.491	-56.203	-124.404	-107.649	-101.298	-101.582	-93.170	25.842	-93.798	-8191	255	
1033.993	1	1	0	0	0.27212	0.16786	0.24969	0.22198	0.13554	0.46455	0.25765	0.25459	0.35299	0.056638	0.22544	0.21744	0.26492	0.15779	0.087489	0.17703	-1.8021	-2.4625	-1.8	-2.4646	-2.1458	-1.8083	-2.4062	-2.2229	-2.0229	-2.3771	-1.9521	-2.1625	-2.2188	-2.0125	-2.4125	-2.3479	45.464	-31.784	-38.134	171.013	101.012	-60.607	185.454	225.612	-88.909	-94.526	168.633	216.405	117.785	0.729	77.038	46.115	0.00040732	0.00038196	4.9813e-05	1186.4	2.3509e-06	2.6604e-06	1262.4	258.9	4.5097e-06	7.1099e-06	319.06	85.462	68.799	20.161	4.1917e-06	27.327	0.00041045	0.00041125	0.0001142	1163.7	4.4931e-06	4.498e-06	1242.6	257.41	4.5308e-06	4.5343e-06	318.81	86.847	72.336	20.802	4.4843e-06	28.715	116.835	0.406	85.075	-114.400	24.195	226.281	-114.745	-107.318	-22.304	28.997	-107.935	-101.414	-101.004	-93.109	215.071	-93.080	-8191	255	
1034.113	1	1	0	0	0.19751	0.14391	0.20675	0.056646	0.11916	0.097006	0.15132	0.12999	0.080133	0.068752	0.30882	0.17483	0.14645	0.25076	0.11537	0.21098	-1.575	-2.3042	-1.975	-2.2562	-2.3563	-1.8458	-2.5687	-2.1875	-2.0771	-2.2938	-1.9208	-1.9646	-2.3021	-1.9479	-2.1708	-2.3187	233.188	158.994	44.449	-101.662	-4.919	103.745	-36.089	181.400	80.128	105.192	194.066	207.056	85.353	149.034	21.648	75.565	0.00030749	0.00039766	7.1037e-05	1187.1	3.2913e-06	4.9606e-06	1267.6	258.18	2.1006e-06	6.7338e-06	318.95	85.23	69.565	20.176	2.8193e-06	27.332	0.00041057	0.00041899	0.00011563	1163.7	4.5554e-06	4.531e-06	1244.2	257.05	4.5576e-06	4.5266e-06	318.65	86.947	72.77	20.805	4.559e-06	28.668	144.792	-97.450	-19.008	-114.487	-41.565	5.434	-114.956	-107.409	133.718	76.776	-107.536	-101.409	-100.982	-92.915	-56.032	-93.488	-8191	255	
#DATA ENDS
