BOXY.EXE: ISS Imagent and Oximeter Data Acquisition Program Version 0.80
Ascii Record File

#ACQ INFORMATION
2  Detector Channels 
16  External MUX Channels 
1  Auxiliary Channels 
5000  Waveform (CCF) Frequency (Hz)
1  Waveforms Skipped 
30  Waveforms Averaged 
1  Cycles Averaged 
16  Acquisitions per Waveform 
10.0806  Updata Rate (Hz) 

#FILE INFORMATION
TRUE -- External MUX Channel results are PARSED.
FALSE -- AC DC and Phase are NOT grouped.
TRUE -- Companion Program Settings File CREATED.
FALSE -- AC data not excluded
FALSE -- DC data not excluded
FALSE -- Phase data not excluded
FALSE -- Auxillary Chn. data not excluded
Tab delimiters

#CALIBRATION STATE
TRUE -- Waveform Calibration Values APPLIED.


#AUX CALIBRATION VALUES
Val Type	aux-1	

Term	1.0000e+00	
Factor	0.0000e+00	


#WF CALIBRATION VALUES
A = Detector Channel
Val Type	A-AC1	A-AC2	A-AC3	A-AC4	A-AC5	A-AC6	A-AC7	A-AC8	A-AC9	A-AC10	A-AC11	A-AC12	A-AC13	A-AC14	A-AC15	A-AC16	A-DC1	A-DC2	A-DC3	A-DC4	A-DC5	A-DC6	A-DC7	A-DC8	A-DC9	A-DC10	A-DC11	A-DC12	A-DC13	A-DC14	A-DC15	A-DC16	A-Ph1	A-Ph2	A-Ph3	A-Ph4	A-Ph5	A-Ph6	A-Ph7	A-Ph8	A-Ph9	A-Ph10	A-Ph11	A-Ph12	A-Ph13	A-Ph14	A-Ph15	A-Ph16	

Term	0.00000e+00	0.00000e+00	0.00000e+00	0.00000e+00	0.00000e+00	0.00000e+00	0.00000e+00	0.00000e+00	0.00000e+00	0.00000e+00	0.00000e+00	0.00000e+00	0.00000e+00	0.00000e+00	0.00000e+00	0.00000e+00	0.00000e+00	0.00000e+00	0.00000e+00	0.00000e+00	0.00000e+00	0.00000e+00	0.00000e+00	0.00000e+00	0.00000e+00	0.00000e+00	0.00000e+00	0.00000e+00	0.00000e+00	0.00000e+00	0.00000e+00	0.00000e+00	0.00000e+00	0.00000e+00	0.00000e+00	0.00000e+00	0.00000e+00	0.00000e+00	0.00000e+00	0.00000e+00	0.00000e+00	0.00000e+00	0.00000e+00	0.00000e+00	0.00000e+00	0.00000e+00	0.00000e+00	0.00000e+00	
Factor	1.00000e+00	1.00000e+00	1.00000e+00	1.00000e+00	1.00000e+00	1.00000e+00	1.00000e+00	1.00000e+00	1.00000e+00	1.00000e+00	1.00000e+00	1.00000e+00	1.00000e+00	1.00000e+00	1.00000e+00	1.00000e+00	1.00000e+00	1.00000e+00	1.00000e+00	1.00000e+00	1.00000e+00	1.00000e+00	1.00000e+00	1.00000e+00	1.00000e+00	1.00000e+00	1.00000e+00	1.00000e+00	1.00000e+00	1.00000e+00	1.00000e+00	1.00000e+00	X	X	X	X	X	X	X	X	X	X	X	X	X	X	X	X	

B = Detector Channel
Val Type	B-AC1	B-AC2	B-AC3	B-AC4	B-AC5	B-AC6	B-AC7	B-AC8	B-AC9	B-AC10	B-AC11	B-AC12	B-AC13	B-AC14	B-AC15	B-AC16	B-DC1	B-DC2	B-DC3	B-DC4	B-DC5	B-DC6	B-DC7	B-DC8	B-DC9	B-DC10	B-DC11	B-DC12	B-DC13	B-DC14	B-DC15	B-DC16	B-Ph1	B-Ph2	B-Ph3	B-Ph4	B-Ph5	B-Ph6	B-Ph7	B-Ph8	B-Ph9	B-Ph10	B-Ph11	B-Ph12	B-Ph13	B-Ph14	B-Ph15	B-Ph16	

Term	0.00000e+00	0.00000e+00	0.00000e+00	0.00000e+00	0.00000e+00	0.00000e+00	0.00000e+00	0.00000e+00	0.00000e+00	0.00000e+00	0.00000e+00	0.00000e+00	0.00000e+00	0.00000e+00	0.00000e+00	0.00000e+00	0.00000e+00	0.00000e+00	0.00000e+00	0.00000e+00	0.00000e+00	0.00000e+00	0.00000e+00	0.00000e+00	0.00000e+00	0.00000e+00	0.00000e+00	0.00000e+00	0.00000e+00	0.00000e+00	0.00000e+00	0.00000e+00	-2.60428e+02	-1.10120e+02	-1.35771e+02	-1.82358e+02	-8.82290e+01	-8.01576e+01	-1.56915e+02	-1.62015e+02	-1.40806e+02	-6.49328e+01	-1.82532e+02	-1.70017e+02	-1.83467e+02	-1.76494e+02	-8.40987e+01	-1.49052e+02	
Factor	5.47524e-05	1.28517e-04	3.34994e-05	1.65911e-01	1.40518e-06	1.31051e-06	1.63629e-01	5.02796e-02	1.91554e-06	1.41169e-06	2.54980e-01	2.65488e-02	4.71564e-02	8.70794e-03	1.47822e-06	1.22069e-02	1.50795e-06	1.56019e-06	4.34946e-07	8.49721e-02	1.70309e-08	1.70813e-08	7.89962e-02	2.58188e-02	1.70192e-08	1.70604e-08	1.17178e-01	1.31686e-02	2.32700e-02	4.46970e-03	1.70381e-08	6.05392e-03	X	X	X	X	X	X	X	X	X	X	X	X	X	X	X	X	



#DISTANCE SETTINGS
A = Detector Channel
A-1	A-2	A-3	A-4	A-5	A-6	A-7	A-8	A-9	A-10	A-11	A-12	A-13	A-14	A-15	A-16	

2.5000e+00	3.0000e+00	2.5000e+00	3.0000e+00	2.0000e+00	3.0000e+00	1.5000e+00	3.0000e+00	3.0000e+00	3.0000e+00	3.0000e+00	3.0000e+00	3.0000e+00	3.0000e+00	1.5000e+00	3.0000e+00	

B = Detector Channel
B-1	B-2	B-3	B-4	B-5	B-6	B-7	B-8	B-9	B-10	B-11	B-12	B-13	B-14	B-15	B-16	

1.0000e+01	1.0000e+01	1.0000e+01	1.4400e+00	1.0000e+01	1.0000e+01	1.5100e+00	1.9400e+00	1.0000e+01	1.0000e+01	1.9900e+00	2.4900e+00	2.4100e+00	2.9000e+00	1.0000e+01	2.9800e+00	




#DATA BEGINS
time	group	step	mark	flag	A-AC1	A-AC2	A-AC3	A-AC4	A-AC5	A-AC6	A-AC7	A-AC8	A-AC9	A-AC10	A-AC11	A-AC12	A-AC13	A-AC14	A-AC15	A-AC16	A-DC1	A-DC2	A-DC3	A-DC4	A-DC5	A-DC6	A-DC7	A-DC8	A-DC9	A-DC10	A-DC11	A-DC12	A-DC13	A-DC14	A-DC15	A-DC16	A-Ph1	A-Ph2	A-Ph3	A-Ph4	A-Ph5	A-Ph6	A-Ph7	A-Ph8	A-Ph9	A-Ph10	A-Ph11	A-Ph12	A-Ph13	A-Ph14	A-Ph15	A-Ph16	B-AC1	B-AC2	B-AC3	B-AC4	B-AC5	B-AC6	B-AC7	B-AC8	B-AC9	B-AC10	B-AC11	B-AC12	B-AC13	B-AC14	B-AC15	B-AC16	B-DC1	B-DC2	B-DC3	B-DC4	B-DC5	B-DC6	B-DC7	B-DC8	B-DC9	B-DC10	B-DC11	B-DC12	B-DC13	B-DC14	B-DC15	B-DC16	B-Ph1	B-Ph2	B-Ph3	B-Ph4	B-Ph5	B-Ph6	B-Ph7	B-Ph8	B-Ph9	B-Ph10	B-Ph11	B-Ph12	B-Ph13	B-Ph14	B-Ph15	B-Ph16	aux-1	digaux	

1412.347	1	1	0	512	0.026681	0.16202	0.049801	0.19392	0.23551	0.15777	0.081	0.25978	0.22818	0.060895	0.37195	0.094025	0.13531	0.24555	0.17459	0.31907	-2.1604	-3.3042	-2.35	-3.0667	-3.0271	-2.1042	-3.5187	-2.525	-2.4583	-3.2646	-2.1979	-3.0958	-2.8854	-2.15	-3.2625	-2.6854	-7.708	188.458	58.945	-112.614	193.816	-48.942	106.679	169.671	-97.628	100.068	113.362	212.376	90.333	-114.623	-57.167	181.044	0.0016643	0.0014294	6.8445e-05	801.63	6.4174e-06	9.9456e-06	853.93	284.02	5.723e-06	1.2763e-05	365.74	146.53	113.59	52.103	1.2505e-05	77.399	0.0021913	0.0022238	0.00062271	934.35	2.4189e-05	2.4284e-05	982.78	325.47	2.4318e-05	2.4376e-05	513.43	167.68	144.14	59.371	2.454e-05	87.437	62.995	-42.319	153.293	-133.774	-62.699	34.137	-134.271	-128.079	-25.980	38.122	-129.086	-124.439	-123.549	-117.526	-65.111	-120.336	-8191	255	
1412.443	1	1	0	0	0.32778	0.071068	0.054216	0.32568	0.35078	0.12624	0.10647	0.1454	0.10924	0.16599	0.13041	0.097514	0.30552	0.27203	0.062563	0.10446	-2.0812	-3.125	-2.3104	-2.8104	-3.0187	-2.0938	-3.2771	-2.8521	-2.0771	-3.2521	-2.3104	-2.7562	-3.2021	-2.1896	-3.1479	-3.0917	-18.304	57.553	-1.482	-132.726	186.785	186.271	-128.590	186.544	-138.175	28.728	-3.463	187.384	-134.824	183.296	-119.906	167.507	0.0018715	0.00048322	2.2681e-05	805.08	1.1642e-05	3.7903e-06	855.14	284.09	6.0266e-06	8.113e-06	365.75	146.74	113.34	51.918	4.5209e-06	77.318	0.0022111	0.0022427	0.00063067	938.55	2.4517e-05	2.4608e-05	984.3	326.03	2.4442e-05	2.452e-05	514.21	168.12	144.19	59.276	2.4686e-05	87.562	76.591	-57.555	205.461	-133.964	-55.363	-19.710	-134.397	-128.132	213.680	118.275	-129.451	-124.330	-123.442	-117.510	162.074	-120.344	-8191	255	
1412.564	1	1	0	0	0.16683	0.23392	0.088051	0.29786	0.15672	0.093355	0.090673	0.29051	0.18477	0.098284	0.23574	0.22706	0.11557	0.19405	0.17983	0.020422	-1.8292	-3.2021	-2.4833	-2.7292	-3.0604	-2.2292	-3.1	-2.9792	-2.2833	-3.225	-2.5146	-2.6104	-3.3542	-2.3854	-2.9562	-2.9958	132.567	148.450	-14.815	185.789	116.052	-140.872	203.000	-106.592	-66.829	45.439	3.001	111.689	-83.362	-137.599	-2.351	-75.644	0.0019288	0.00021886	5.6902e-05	802.5	1.0358e-05	6.5978e-06	857.77	284.59	1.1026e-05	7.3502e-06	366.29	147.24	113.46	52.105	3.7327e-06	77.969	0.002215	0.0022693	0.00063433	939.04	2.4591e-05	2.4853e-05	989.11	327.48	2.4704e-05	2.4868e-05	517.33	168.59	144.56	59.452	2.4774e-05	87.819	73.521	157.819	-125.662	-133.763	-2.486	-59.820	-134.455	-127.955	-31.594	-90.895	-129.626	-124.186	-123.345	-117.551	-71.375	-120.145	-8191	255	
1412.658	1	1	0	0	0.15052	0.14118	0.31951	0.10077	0.079309	0.19897	0.12393	0.35395	0.21469	0.08716	0.0025918	0.10736	0.13075	0.12587	0.10612	0.1617	-1.9333	-3.3646	-2.5042	-2.4562	-3.2229	-2.2687	-3.1167	-3.1625	-1.9896	-3.25	-2.7125	-2.4188	-3.4375	-2.4729	-2.7479	-3.1333	-6.272	56.102	88.292	7.953	-37.090	184.225	167.418	172.449	-78.812	-116.709	180.000	-62.397	186.313	-36.974	-25.220	-127.773	0.0019269	0.0011021	5.5864e-05	807.18	8.8798e-06	1.2247e-05	864.14	285.08	1.1218e-05	7.258e-06	368.68	148.19	113.44	51.865	8.3558e-06	76.986	0.002217	0.0022751	0.00063593	942.19	2.486e-05	2.522e-05	995.34	328.16	2.5186e-05	2.5282e-05	520.89	169.18	145.01	59.345	2.521e-05	87.19	67.241	-59.320	-60.616	-133.667	-15.581	-26.116	-134.021	-128.178	-104.549	199.020	-128.933	-124.389	-123.723	-117.498	52.443	-119.878	-8191	255	
1412.755	1	1	0	0	0.18951	0.097455	0.20127	0.12543	0.20102	0.071468	0.12462	0.24802	0.17543	0.13709	0.17655	0.050978	0.024681	0.55562	0.14778	0.31134	-1.7146	-2.9875	-2.4417	-2.3563	-3.3354	-2.3771	-2.7583	-3.3146	-2.1146	-3.0917	-2.8438	-2.2542	-3.5104	-2.5354	-2.6792	-3.2458	133.877	-77.227	102.512	166.205	-45.052	-48.006	69.502	98.346	-128.892	-106.872	39.576	202.414	-117.307	81.435	-11.952	194.234	0.0020915	0.00021704	0.00019746	805.02	5.2826e-06	2.7652e-06	856.58	284.55	6.4683e-06	1.3201e-05	367.12	146.25	112.31	51.615	1.4621e-05	76.714	0.0022468	0.0023075	0.00063957	941.54	2.5124e-05	2.5353e-05	990.41	327.41	2.522e-05	2.5311e-05	518.13	167.65	144.32	59.072	2.5161e-05	86.63	69.203	30.720	26.791	-133.583	-62.448	102.051	-134.518	-128.055	-86.468	-5.741	-129.568	-124.218	-123.606	-117.514	-14.480	-120.148	-8191	255	
1412.826	1	1	0	0	0.343	0.35199	0.1409	0.19271	0.13078	0.13536	0.1316	0.20466	0.19411	0.12352	0.17102	0.21296	0.085303	0.080854	0.29803	0.26296	-1.7458	-2.9125	-2.8833	-2.0833	-3.15	-2.4583	-2.4542	-3.4896	-2.0854	-2.8167	-2.9813	-2.275	-3.2896	-2.675	-2.4188	-3.4417	158.101	-125.425	-4.407	-118.151	-143.125	134.211	159.700	-93.319	-126.987	-111.798	18.164	193.601	109.514	88.760	-115.272	106.960	0.0017937	0.00075439	0.00018881	807.97	3.9696e-06	1.4611e-05	858.21	283.55	1.6811e-05	9.7442e-06	361.68	146.2	112.55	51.712	7.1227e-06	76.865	0.0022681	0.0023149	0.00064306	940.73	2.5139e-05	2.5264e-05	987.4	326.37	2.5133e-05	2.5309e-05	515.1	167.25	144.33	59.102	2.5051e-05	86.928	73.964	-65.308	-130.398	-133.896	-74.978	-7.933	-134.456	-127.989	-69.677	0.143	-129.161	-124.382	-123.965	-117.646	-88.098	-119.867	-8191	255	
1412.947	1	1	0	0	0.22161	0.30952	0.20128	0.15594	0.20982	0.14512	0.28082	0.16529	0.24915	0.1214	0.23374	0.1707	0.13264	0.16256	0.1437	0.31697	-1.9979	-2.95	-2.9875	-2.1604	-3.1333	-2.6188	-2.4958	-3.2354	-2.3146	-2.5667	-3.2438	-2.5208	-3.0854	-2.775	-2.4062	-3.4188	-70.979	53.279	125.205	-79.778	90.603	53.344	65.463	97.746	151.138	159.346	182.966	159.552	7.654	-127.410	-115.883	171.080	0.0020645	0.001058	0.00027111	802.43	1.065e-05	9.0586e-06	855.52	284.05	9.9439e-06	7.1917e-06	365.7	145.73	112.71	51.862	1.1222e-05	77.383	0.0022775	0.0023189	0.00064501	941.45	2.5366e-05	2.5412e-05	987.01	326.85	2.5174e-05	2.5347e-05	518.4	167.98	145.28	59.283	2.52e-05	87.597	76.656	-24.610	-135.219	-133.598	-131.986	5.646	-134.414	-128.033	209.025	18.032	-129.850	-124.331	-123.544	-117.432	139.995	-119.948	-8191	255	
1413.043	1	1	0	0	0.04613	0.072904	0.068575	0.20078	0.1262	0.093456	0.09109	0.061141	0.24439	0.15733	0.19223	0.11933	0.13658	0.14123	0.1518	0.085259	-2.0896	-2.5917	-3.2375	-2.1854	-2.9208	-2.9604	-2.1458	-3.4771	-2.4375	-2.4479	-3.3729	-2.2896	-2.8708	-3.025	-2.2875	-3.3354	-97.923	-86.879	98.784	-104.924	-108.692	-79.349	88.153	183.091	141.979	210.981	90.771	-100.673	125.832	142.898	-55.370	206.675	0.0014292	0.00081558	0.0001008	805.1	4.6889e-06	1.6811e-05	860.04	284.2	1.9461e-05	4.3162e-06	371.09	147.2	113.08	52.123	6.5833e-06	78.005	0.0022817	0.0023123	0.00064449	941.53	2.5398e-05	2.5357e-05	992.3	328.71	2.5507e-05	2.5543e-05	522.3	169.48	146.04	59.636	2.5485e-05	88.367	54.833	21.800	-114.474	-133.875	-14.299	-73.872	-134.395	-128.140	-89.253	44.976	-129.222	-124.355	-123.332	-117.671	-118.105	-120.023	-8191	255	
1413.139	1	1	0	0	0.061315	0.29816	0.14616	0.27758	0.15236	0.23597	0.23336	0.18053	0.25277	0.14983	0.3725	0.28849	0.058323	0.16857	0.1715	0.12406	-2.1604	-2.2771	-3.2833	-2.2875	-2.8792	-2.9979	-2.1417	-3.3521	-2.3875	-2.2687	-3.3771	-2.2479	-2.9083	-3.1396	-2.1604	-3.2542	80.389	-89.672	70.216	150.255	-82.071	-32.277	213.236	-91.300	-33.885	43.838	-53.051	149.314	-123.123	158.614	111.912	179.370	0.0018694	0.00070563	0.00015177	808.22	8.5568e-06	6.0761e-06	858.95	285.95	1.2437e-05	5.8114e-06	369.9	147.8	114.2	52.11	1.2272e-05	77.388	0.0023115	0.0023493	0.00065418	946.81	2.5811e-05	2.5903e-05	996.99	330.36	2.602e-05	2.6139e-05	527.3	170.13	147.04	59.802	2.6048e-05	88.069	65.563	204.771	-128.693	-133.911	-27.929	5.777	-134.282	-127.959	-104.202	-64.366	-129.343	-124.481	-123.289	-117.714	-23.570	-119.841	-8191	255	
1413.235	1	1	0	0	0.20054	0.038747	0.13364	0.22225	0.095558	0.05988	0.2452	0.072474	0.15828	0.18074	0.13148	0.1787	0.12309	0.12729	0.24941	0.073223	-2.3375	-2.3312	-3.3563	-2.3937	-2.5896	-3.2729	-2.4208	-3.1312	-2.7771	-2.3292	-3.4313	-2.4708	-2.6646	-3.325	-2.0271	-3.2	-115.403	181.589	-67.430	161.198	-16.397	154.914	151.053	85.899	-142.523	68.661	204.594	39.630	172.729	160.415	119.526	213.259	0.0021145	0.00039278	0.00021958	803.89	2.761e-06	9.5185e-06	859.03	286.09	9.0156e-06	5.1462e-06	366.11	147.09	114.2	51.835	7.365e-06	77.228	0.0023585	0.0023848	0.0006653	945.84	2.6177e-05	2.6017e-05	993.05	330.14	2.5973e-05	2.588e-05	523.82	168.98	146.35	59.515	2.5892e-05	87.575	68.970	24.889	44.895	-133.692	175.248	11.746	-134.209	-128.127	145.123	-91.056	-128.924	-124.158	-123.100	-117.319	7.636	-119.739	-8191	255	
1413.332	1	1	0	0	0.19493	0.26267	0.12011	0.22848	0.29084	0.23825	0.078905	0.10722	0.22743	0.13164	0.070116	0.14454	0.089364	0.15507	0.19633	0.11169	-2.7167	-2.2208	-3.2083	-2.5125	-2.4604	-3.2854	-2.1604	-2.8646	-3.0729	-2.05	-3.2375	-2.6583	-2.5646	-3.2604	-2.0708	-3.0021	107.244	121.744	-3.093	53.910	9.188	11.818	182.607	183.926	12.950	66.385	157.414	156.983	-21.970	-145.092	56.566	130.526	0.0020506	0.00072063	0.00032811	804.34	1.9275e-05	1.0906e-05	857.27	285.36	1.029e-05	6.4497e-06	368.71	146.65	113.99	51.843	1.9359e-05	77.598	0.002309	0.0023503	0.00066064	944.93	2.574e-05	2.5735e-05	991.25	329.27	2.5605e-05	2.5675e-05	522.72	168.9	145.95	59.482	2.5624e-05	87.943	66.783	-14.313	-3.448	-133.599	-47.811	-17.625	-134.163	-128.042	131.695	-48.312	-129.237	-124.567	-123.731	-117.665	-40.404	-120.150	-8191	255	
1413.428	1	1	0	0	0.085223	0.048535	0.29512	0.10507	0.13499	0.21823	0.35024	0.12523	0.32154	0.14555	0.14076	0.22358	0.051947	0.29824	0.17844	0.22329	-2.6688	-2.0771	-3.1958	-2.7125	-2.3563	-3.2313	-2.3271	-2.6479	-3.0458	-1.9083	-3.0979	-2.7479	-2.1875	-3.5312	-2.3542	-2.7188	-109.152	-54.834	130.252	-142.405	163.818	45.584	126.066	137.256	-31.809	-53.512	-62.893	196.967	86.933	182.735	29.792	107.404	0.0019224	0.00083411	0.0002817	804.55	1.3566e-05	5.5307e-06	858.85	284.85	1.2036e-05	5.0728e-06	369.78	148.08	114.25	51.853	1.5841e-05	77.818	0.0022907	0.0023416	0.00065665	944.42	2.5632e-05	2.5702e-05	994.58	329.82	2.5841e-05	2.5791e-05	527.4	170.13	146.55	59.652	2.6035e-05	88.334	72.002	-113.110	-13.790	-133.810	-75.083	-60.866	-134.600	-128.260	101.662	-62.263	-129.466	-124.436	-123.529	-117.354	-18.128	-120.158	-8191	255	
1413.524	1	1	0	0	0.30691	0.10845	0.16086	0.091528	0.03058	0.14593	0.22351	0.20022	0.059635	0.34642	0.22557	0.089204	0.15455	0.096881	0.24991	0.34022	-2.8479	-2.0021	-3.0146	-2.9292	-2.2333	-3.2479	-2.4875	-2.6771	-3.1646	-2.1354	-3	-2.8937	-2.15	-3.2917	-2.4333	-2.5146	-95.604	-81.538	-81.543	-86.232	189.086	166.618	104.294	162.814	104.498	-92.363	-49.859	213.136	-34.001	-107.586	127.068	83.504	0.002251	0.00087405	8.1095e-05	804.41	1.2068e-05	1.6423e-05	861.27	286.08	8.7794e-06	5.8703e-06	368.68	148.53	114.4	52.019	7.1875e-06	77.891	0.0023217	0.0023755	0.00066443	947.59	2.5842e-05	2.604e-05	997.94	330.68	2.5931e-05	2.6099e-05	528.38	170.61	147.08	59.785	2.6147e-05	88.551	76.539	-81.120	-58.007	-133.919	-33.588	3.331	-134.681	-127.719	-69.591	-15.037	-129.056	-124.493	-123.725	-117.797	-96.511	-119.916	-8191	255	
1413.644	1	1	0	0	0.05653	0.10547	0.21129	0.12414	0.084396	0.41684	0.24951	0.068743	0.31192	0.17085	0.27729	0.17973	0.21721	0.22651	0.095232	0.23614	-3.0396	-2.1312	-3	-2.7875	-2.1917	-3.1208	-2.6437	-2.4333	-3.2375	-2.2062	-2.8312	-3.2208	-2.2083	-3.2708	-2.6208	-2.5104	147.852	-77.687	-13.509	92.857	-39.541	174.163	106.399	73.947	87.266	165.798	89.566	88.309	13.491	-103.813	-94.121	41.996	0.0014493	0.00098598	0.0002101	809.06	8.4529e-06	4.2181e-06	859.05	287.25	1.1837e-05	7.6784e-06	369.41	147.57	114.35	51.914	8.0788e-06	77.265	0.0023303	0.0023613	0.00065925	948.26	2.5568e-05	2.603e-05	996.91	330.8	2.5742e-05	2.595e-05	526.43	169.56	146.63	59.575	2.5746e-05	87.476	64.767	-82.844	-85.333	-133.976	-26.723	-27.607	-134.552	-128.147	-71.296	114.821	-129.619	-124.519	-123.727	-117.415	-79.024	-120.082	-8191	255	
1413.741	1	1	0	0	0.23865	0.18679	0.1686	0.08652	0.069463	0.059551	0.12913	0.076523	0.1013	0.094678	0.13323	0.10517	0.25654	0.33527	0.069996	0.15216	-3.0479	-2.0833	-2.6833	-3.1417	-2.1792	-3.0438	-2.6354	-2.55	-3.0917	-2.3063	-2.5375	-3.1437	-2.2146	-3.2271	-2.8354	-2.2646	40.467	131.706	116.852	201.727	175.216	76.203	132.815	-125.075	-13.653	-78.242	129.137	189.769	140.578	165.065	156.334	-93.830	0.0021317	0.00030027	0.0003397	805.98	6.0827e-06	1.1043e-05	857.55	285.53	5.7691e-06	7.9534e-06	369.66	147.51	113.55	51.558	3.507e-06	76.898	0.002295	0.0023512	0.00065262	944.85	2.5571e-05	2.5706e-05	991.49	329.25	2.5584e-05	2.5708e-05	522.09	168.71	145.84	59.193	2.5653e-05	87.059	58.933	38.527	-57.290	-133.688	50.946	22.049	-134.533	-127.793	48.135	28.155	-129.372	-124.270	-123.533	-117.443	-10.524	-120.282	-8191	255	
1413.835	1	1	0	0	0.17869	0.16592	0.14206	0.19155	0.15271	0.099802	0.10372	0.089019	0.16256	0.14504	0.13345	0.27788	0.08927	0.1478	0.038474	0.092332	-3.0396	-2.2625	-2.4604	-3.3708	-1.9771	-2.9958	-2.9813	-2.2229	-3.4062	-2.3	-2.5021	-3.3521	-2.1604	-2.9917	-2.9396	-2.1979	5.059	213.225	80.938	153.582	-2.800	206.175	-14.965	172.966	-53.016	-56.357	151.568	174.936	-112.625	112.702	35.139	106.754	0.0019098	0.0010133	0.00023461	809.21	8.2961e-06	9.4494e-06	856.75	285.04	9.6519e-06	4.126e-06	367.56	147.19	113.88	51.557	1.9827e-06	76.868	0.0023071	0.0023463	0.000655	944.77	2.5511e-05	2.5744e-05	990.47	328.65	2.5435e-05	2.5532e-05	520.62	168.42	145.62	59.197	2.5355e-05	87.258	68.847	-86.850	-106.160	-133.872	-24.326	11.792	-134.209	-127.991	-28.265	-43.027	-129.565	-124.479	-123.812	-117.431	16.809	-119.976	-8191	255	
1413.931	1	1	0	0	0.24877	0.050959	0.18188	0.092388	0.031084	0.25761	0.11016	0.12692	0.1542	0.22207	0.13624	0.17487	0.029175	0.075478	0.1471	0.1816	-2.7875	-2.4292	-2.2229	-3.3604	-2.1854	-2.7333	-2.8438	-2.3979	-3.1312	-2.6521	-2.1708	-3.2687	-2.3604	-2.9292	-3.0812	-2.1979	57.349	-123.408	-124.763	-133.365	213.489	158.348	142.138	172.219	-117.098	86.441	98.077	127.465	-19.419	-138.400	-104.112	138.858	0.0018257	0.00032537	0.00036219	808.95	4.3466e-06	1.2553e-05	854.23	286.04	1.7129e-05	1.6958e-05	368.91	147.58	113.87	51.88	1.2094e-05	77.192	0.0022891	0.0023348	0.00064824	943.8	2.5607e-05	2.5785e-05	991.73	329.74	2.5664e-05	2.5598e-05	522.8	169.08	146	59.415	2.5265e-05	87.705	71.198	172.180	-59.167	-133.576	-21.213	94.751	-134.416	-128.104	210.812	1.844	-129.259	-124.560	-123.274	-117.414	18.084	-120.082	-8191	255	
1414.052	1	1	0	0	0.06397	0.20061	0.11944	0.058061	0.1363	0.22527	0.15817	0.14676	0.13218	0.22779	0.12744	0.15106	0.072573	0.17405	0.13149	0.27574	-2.7167	-2.6562	-2.0979	-3.4062	-2.1896	-2.675	-3.4771	-2.3417	-2.925	-2.9583	-2.1646	-3.3042	-2.2958	-2.6104	-3.35	-2.225	119.695	28.087	-58.163	-44.068	113.031	162.494	138.837	26.144	-130.414	-36.335	-110.414	163.963	-32.295	7.522	190.321	208.045	0.0017794	0.0014264	0.00022786	808.56	3.8565e-06	9.7887e-06	861.33	284.4	1.7269e-05	1.2554e-05	367.11	148.16	113.79	52.159	1.2113e-05	77.893	0.0022981	0.0023293	0.00064705	945.09	2.5659e-05	2.5542e-05	993.69	329.5	2.5675e-05	2.5851e-05	524.81	170.25	146.6	59.746	2.5425e-05	88.394	76.077	-15.774	-82.266	-133.862	27.246	-81.995	-134.523	-128.359	-61.053	77.013	-129.288	-124.396	-123.582	-117.759	-9.358	-120.165	-8191	255	
1414.123	1	1	0	0	0.19249	0.21497	0.095876	0.28444	0.11215	0.34793	0.17963	0.35149	0.080312	0.20373	0.064378	0.25687	0.095377	0.35938	0.15262	0.14855	-2.5229	-2.9021	-2.1437	-3.3833	-2.3042	-2.3271	-3.3271	-2.3479	-2.9479	-3.1167	-2.2146	-3.2958	-2.5396	-2.3271	-3.1479	-2.325	43.839	185.848	137.106	-13.396	52.687	-103.415	188.598	208.519	-111.666	19.786	-145.987	152.602	166.654	-61.906	-19.647	110.084	0.0018121	0.00088728	0.00028825	807.13	7.0954e-06	8.7701e-06	859.77	286.55	1.2341e-05	1.8016e-05	365	147.29	114.04	51.913	1.2842e-05	77.5	0.002318	0.0023478	0.00065372	947.28	2.5738e-05	2.5711e-05	994.6	330.19	2.5827e-05	2.5722e-05	524.05	169.78	146.65	59.522	2.5623e-05	87.732	74.858	184.832	-129.467	-133.917	40.704	41.465	-134.541	-128.423	-102.811	5.301	-129.689	-124.662	-123.728	-117.423	30.941	-120.315	-8191	255	
1414.244	1	1	0	0	0.19887	0.22186	0.10985	0.11334	0.28549	0.073845	0.19702	0.18724	0.12903	0.21111	0.051912	0.11599	0.13832	0.20544	0.37855	0.037039	-2.5125	-3.0208	-2.2208	-3.2125	-2.7083	-2.3708	-3.425	-2.2729	-2.6813	-3.1	-2.2667	-3.1792	-2.7229	-2.1813	-3.3688	-2.4417	-143.623	130.319	78.767	-52.061	-81.532	-120.857	213.706	-132.420	-15.414	-82.026	-34.878	172.742	156.187	-133.774	-121.708	12.287	0.0020107	0.00077547	0.00020842	810.23	1.0216e-05	1.033e-05	855.28	285.46	7.5077e-06	3.828e-06	369.66	147.11	113.45	51.832	1.0652e-05	77.269	0.0023353	0.0023657	0.00066319	949.67	2.5979e-05	2.5942e-05	992.04	330.32	2.5737e-05	2.5599e-05	523.87	169.14	146.24	59.452	2.5655e-05	87.61	58.470	-37.049	12.891	-134.064	20.580	-87.079	-134.802	-128.228	-131.737	68.804	-129.858	-124.616	-124.074	-117.772	-129.879	-120.171	-8191	255	
1414.340	1	1	0	0	0.3412	0.067451	0.32855	0.14771	0.13357	0.14141	0.20068	0.25414	0.33117	0.096541	0.082824	0.28211	0.14092	0.079563	0.20281	0.37442	-2.2292	-3.1271	-1.7771	-3.05	-2.8583	-2.1271	-3.3563	-2.4854	-2.4938	-3.3333	-2.1271	-2.9938	-2.9208	-2.225	-3.3583	-2.6896	133.221	185.156	-126.742	-51.916	-38.590	-52.733	201.709	109.549	-15.821	82.445	137.855	-145.766	92.339	-138.901	-68.192	173.724	0.0015186	0.00083748	0.00026014	808.48	8.0756e-06	2.6178e-06	857.99	284.86	1.8607e-05	1.3906e-05	367.06	147	113.94	51.864	1.5912e-06	77.744	0.0023086	0.0023315	0.00065565	946.74	2.5651e-05	2.5653e-05	992.15	329.79	2.5621e-05	2.5671e-05	523.84	169.74	146.54	59.624	2.5811e-05	88.254	79.397	35.129	61.427	-133.850	67.158	80.345	-134.492	-128.391	-91.788	-47.952	-129.315	-124.536	-123.516	-117.652	-81.949	-120.424	-8191	255	
1414.436	1	1	0	0	0.28095	0.13317	0.099123	0.12824	0.19051	0.067249	0.33434	0.12912	0.20359	0.21437	0.26426	0.045253	0.070147	0.33614	0.14582	0.11201	-2.1521	-3.1479	-1.9583	-2.9188	-3.0812	-2.1562	-3.3667	-2.7229	-2.4354	-3.3667	-2.3458	-2.8333	-3.1333	-2.1125	-3.2542	-2.8438	-40.435	6.816	-104.554	-105.574	-79.838	-56.865	203.909	205.106	-137.477	49.054	119.906	101.969	-62.245	199.422	91.600	-125.546	0.001852	0.00059491	0.00019701	805.42	1.1985e-05	6.8118e-06	859.48	286.15	5.4403e-06	7.5608e-06	372.59	148.69	113.92	52.043	1.2169e-05	77.779	0.0023149	0.0023359	0.00065749	946.07	2.5644e-05	2.5728e-05	995.54	330.69	2.5743e-05	2.5831e-05	528.25	170.86	146.97	59.85	2.5909e-05	88.507	72.586	10.827	-50.199	-133.939	8.834	22.285	-134.288	-128.344	-91.221	25.904	-129.134	-124.514	-123.763	-117.409	43.002	-120.202	-8191	255	
1414.533	1	1	0	0	0.086075	0.15357	0.36019	0.069919	0.20382	0.16854	0.08091	0.33489	0.1772	0.24748	0.10509	0.29219	0.032856	0.29569	0.2942	0.12151	-1.975	-3.2479	-2.3083	-2.8292	-2.8937	-2.1229	-3.1917	-2.8771	-2.1708	-3.1667	-2.4354	-2.7021	-3.2521	-2.2354	-2.9167	-2.9313	193.200	12.251	124.764	105.998	168.265	169.301	177.713	64.576	167.024	-129.597	-119.976	170.462	163.107	-144.573	142.515	170.859	0.0021197	0.00053298	0.00016344	806.17	4.1651e-06	8.1422e-06	862.81	288.55	1.855e-05	1.7138e-05	374.02	149.57	114.62	52.171	2.1289e-05	78.218	0.0023096	0.0023683	0.00066181	948.67	2.5772e-05	2.5928e-05	999.45	332.28	2.5812e-05	2.5881e-05	529.31	171.51	147.42	59.935	2.5911e-05	88.66	70.543	-80.526	-117.040	-133.977	-91.870	174.136	-134.603	-128.345	211.056	-61.379	-129.016	-124.612	-124.057	-117.768	-69.929	-120.182	-8191	255	
1414.627	1	1	0	0	0.24242	0.17991	0.21094	0.070633	0.12948	0.20825	0.034041	0.1285	0.072333	0.13183	0.10005	0.20605	0.15681	0.14468	0.25079	0.13112	-1.9562	-3.2438	-2.4562	-2.45	-3.2667	-2.3042	-3.0167	-3.1188	-2.0146	-3.35	-2.3958	-2.5104	-3.3229	-2.3125	-2.8563	-3.2917	-105.752	-112.775	20.516	55.747	-7.327	128.507	35.941	61.833	-19.521	174.786	211.129	171.427	-86.984	192.394	182.094	145.960	0.0018438	0.00095005	0.00013127	811.26	1.2079e-05	8.8474e-06	858.78	288.17	1.3423e-06	4.2109e-06	370.69	148.14	114.38	52.22	4.514e-06	77.439	0.0022964	0.0023643	0.00066131	947.71	2.5695e-05	2.595e-05	996.33	331.76	2.5839e-05	2.6166e-05	526.83	170.55	147.47	59.75	2.5837e-05	87.785	66.764	-29.198	-58.299	-133.874	-5.630	-72.807	-134.561	-128.344	134.147	-87.266	-129.659	-124.604	-124.043	-117.758	-72.451	-120.125	-8191	255	
1414.723	1	1	0	0	0.14677	0.11222	0.20304	0.13793	0.066542	0.24845	0.2017	0.10038	0.087178	0.18433	0.017801	0.23406	0.1918	0.30669	0.26567	0.079989	-1.8146	-3.1813	-2.4437	-2.4021	-3.35	-2.3229	-2.9958	-3.1542	-2.0354	-3.175	-2.7125	-2.3583	-3.3667	-2.5625	-2.5667	-3.3771	154.366	-8.793	-21.024	61.640	-49.619	62.264	-122.772	100.787	124.530	201.571	122.264	-113.910	205.862	146.903	7.736	213.363	0.001871	0.00043616	0.00017643	810.56	1.3309e-05	9.6659e-06	856.95	287.55	2.692e-05	6.6226e-06	365.91	147.63	113.91	51.813	6.0534e-06	77.267	0.0023059	0.0023565	0.00065726	947.32	2.5555e-05	2.5705e-05	990.78	330.7	2.5625e-05	2.5871e-05	523.73	169.58	146.42	59.389	2.5503e-05	87.418	67.398	-92.132	150.208	-133.828	-40.984	-24.631	-134.289	-127.957	-84.742	25.627	-129.287	-124.504	-123.836	-117.737	177.426	-120.238	-8191	255	
1414.819	1	1	0	0	0.19772	0.19565	0.13204	0.2507	0.070505	0.089038	0.19603	0.18761	0.13787	0.1209	0.16676	0.16533	0.18626	0.03102	0.15328	0.24837	-1.9354	-3.1792	-2.6562	-2.325	-3.1875	-2.2938	-2.4521	-3.2188	-2.075	-3.0729	-3.0479	-2.3167	-3.1958	-2.5042	-2.4313	-3.3417	-38.324	213.135	29.842	213.805	-73.031	1.405	110.702	-116.471	129.012	78.374	48.703	-139.448	185.189	-59.041	182.734	84.015	0.0020986	0.00061219	0.00044911	806.41	9.673e-06	1.1931e-05	858.86	286.02	8.3485e-06	3.9681e-06	367.43	147.82	114.05	51.703	8.6234e-07	77.23	0.0022883	0.0023463	0.00064979	944.12	2.5323e-05	2.5486e-05	990.06	329.78	2.5332e-05	2.5573e-05	521.38	169.23	146.29	59.337	2.5465e-05	87.561	63.549	153.407	2.375	-133.786	4.015	-30.575	-134.770	-128.177	149.889	44.500	-129.838	-124.408	-123.497	-117.658	124.003	-120.073	-8191	255	
1414.915	1	1	0	0	0.20516	0.05188	0.22427	0.16367	0.23063	0.11135	0.13421	0.21471	0.15078	0.22044	0.17997	0.17873	0.17407	0.14034	0.034943	0.19852	-1.8271	-2.8521	-2.9292	-2.1021	-3.2167	-2.6021	-2.3896	-3.3854	-2.3458	-2.7271	-3.1167	-2.0229	-3.2167	-2.8417	-2.1396	-3.4313	211.201	-22.138	108.915	36.211	-46.541	0.619	107.696	165.187	64.741	-132.463	-58.435	138.773	128.040	-19.289	-20.581	139.417	0.0019494	0.00078524	6.9528e-05	808.16	8.41e-06	4.1111e-06	858.86	286.73	3.0001e-06	4.0922e-06	368.62	148.56	114.47	51.838	1.0109e-05	77.767	0.0022903	0.002346	0.00064416	943.55	2.5265e-05	2.5451e-05	991.59	330.09	2.5486e-05	2.5604e-05	524.08	170.15	146.87	59.57	2.546e-05	88.075	53.501	-72.228	160.395	-134.004	-29.835	-134.441	-134.395	-128.160	63.657	-10.762	-129.471	-124.480	-123.398	-117.559	35.847	-120.008	-8191	255	
1415.012	1	1	0	0	0.089486	0.05822	0.21305	0.062128	0.32976	0.053216	0.053776	0.53292	0.13155	0.13711	0.1365	0.072352	0.31306	0.22259	0.14041	0.074372	-2.1792	-2.5396	-3.2188	-2.1312	-3.1479	-2.7771	-2.375	-3.4062	-2.0292	-2.7062	-3.2667	-2.2812	-3.0146	-3.1521	-2.1771	-3.3708	97.182	16.417	205.177	8.607	1.429	23.186	56.060	155.274	-51.728	37.865	202.496	-134.123	-59.229	-118.186	-27.073	193.356	0.0017062	0.00098633	0.00017043	807.69	9.4783e-06	1.1155e-05	862.1	287.18	6.7671e-06	5.5082e-06	370.18	148.57	114.98	51.999	1.3456e-05	77.978	0.0022983	0.0023358	0.00064896	946.2	2.5559e-05	2.5489e-05	994.98	331.02	2.5587e-05	2.5622e-05	524.48	170.58	147.11	59.708	2.5527e-05	88.363	58.747	-17.156	-65.793	-133.781	-102.838	-17.869	-134.402	-128.370	-40.583	167.032	-129.262	-124.401	-123.517	-117.501	11.995	-120.051	-8191	255	
1415.132	1	1	0	0	0.34279	0.15249	0.11607	0.23152	0.094705	0.22517	0.21642	0.21942	0.18188	0.20621	0.16404	0.058218	0.29125	0.053764	0.13466	0.15049	-2.3146	-2.425	-3.1875	-2.2083	-2.9062	-2.8521	-2.3333	-3.2833	-2.3396	-2.3771	-3.2625	-2.3292	-2.7146	-3.0104	-2.1479	-3.2417	68.152	-83.166	-41.339	187.653	155.768	-106.769	137.922	140.647	137.219	85.768	167.640	95.109	-58.966	15.967	-99.060	130.055	0.0020553	0.00013087	0.0001885	813.05	1.7009e-05	7.5911e-06	860.94	287.22	1.9571e-05	1.4006e-05	372.06	147.4	114.61	51.712	4.706e-06	77.075	0.0023313	0.0023429	0.00065463	947.9	2.5693e-05	2.559e-05	992.55	331.17	2.5681e-05	2.5577e-05	523.59	169.24	146.94	59.352	2.5513e-05	87.528	76.168	-17.892	210.498	-133.610	-44.134	-119.778	-134.200	-128.254	-111.314	-0.712	-129.191	-124.413	-123.646	-117.629	-29.622	-119.867	-8191	255	
1415.228	1	1	0	0	0.1402	0.15879	0.12533	0.10673	0.06484	0.070784	0.20861	0.21159	0.26004	0.23519	0.25909	0.28874	0.10701	0.049618	0.13597	0.16391	-2.3021	-2.3625	-3.1979	-2.1813	-2.8354	-3.0687	-2.2521	-3.3333	-2.5333	-2.2292	-3.2854	-2.2833	-2.7292	-3.1729	-2.0792	-3.3083	-119.969	-10.572	126.741	16.677	-75.439	170.480	43.325	105.737	64.510	-99.416	192.291	186.064	179.597	-119.931	-92.366	-137.051	0.0018854	0.0013057	0.00010236	807.18	4.6644e-06	8.3204e-06	855.94	286.27	6.9523e-06	1.0358e-05	368.99	147.57	113.7	51.78	4.8893e-06	77.247	0.0023122	0.0023443	0.00065413	946.37	2.5736e-05	2.573e-05	991.42	330.84	2.5793e-05	2.5667e-05	523.38	169.42	146.67	59.311	2.5635e-05	87.55	71.349	-65.228	135.212	-133.807	-105.773	-4.395	-134.684	-128.190	-89.983	119.639	-129.513	-124.688	-123.583	-117.701	-99.393	-119.974	-8191	255	
1415.324	1	1	0	0	0.083054	0.36038	0.12689	0.28432	0.14059	0.10244	0.27756	0.15338	0.039709	0.21926	0.20278	0.25428	0.21474	0.29003	0.083352	0.19546	-2.4938	-2.1437	-3.2604	-2.3625	-2.5167	-3.2104	-2.0396	-3.1771	-2.8604	-2.1813	-3.2979	-2.6	-2.3604	-3.25	-2.1875	-2.9313	-32.249	6.778	104.908	-126.065	111.493	122.812	151.741	168.296	199.180	185.416	-107.331	128.096	-86.630	210.436	-6.044	-95.047	0.0018853	0.00046163	0.00012072	809.63	1.2518e-05	8.6808e-06	859.08	285.79	5.2908e-06	1.07e-05	368.33	147.64	113.62	51.852	1.2964e-05	77.478	0.0023057	0.0023346	0.00065059	945.01	2.5625e-05	2.5414e-05	991.37	330.33	2.5528e-05	2.56e-05	522.3	169.54	146.64	59.437	2.5557e-05	87.89	58.088	-45.491	-106.359	-133.818	14.796	19.328	-134.518	-128.062	81.080	41.077	-129.514	-124.320	-123.517	-117.698	-34.156	-120.162	-8191	255	
1415.421	1	1	0	0	0.14113	0.13249	0.27556	0.24858	0.29434	0.27677	0.18864	0.20765	0.22573	0.12897	0.14364	0.094013	0.31873	0.16956	0.23743	0.12167	-2.6979	-2.0229	-3.1896	-2.5	-2.3312	-3.2625	-2.3479	-2.9333	-3.0396	-2.2146	-3.2583	-2.7104	-2.4729	-3.4083	-2.1167	-2.9979	-118.973	155.836	64.756	182.653	166.978	179.971	185.163	87.239	53.730	-115.968	133.292	152.256	-100.163	179.653	72.897	-105.962	0.0019752	0.0014569	0.00021149	804.28	5.9258e-06	9.5137e-06	860.69	287.25	1.219e-05	5.4528e-06	370.26	148	113.7	51.75	7.5265e-06	77.626	0.0022889	0.0023392	0.00065392	947.08	2.5625e-05	2.5601e-05	994.64	331.43	2.5565e-05	2.5772e-05	525.86	170.37	146.58	59.545	2.5608e-05	88.182	52.235	30.826	-14.787	-133.975	-20.575	-22.437	-134.808	-128.100	-75.044	147.645	-129.448	-124.563	-123.802	-117.608	-55.380	-119.977	-8191	255	
1415.517	1	1	0	0	0.19934	0.31121	0.10097	0.1333	0.19979	0.1312	0.13401	0.23129	0.099746	0.14312	0.24971	0.13471	0.099497	0.14024	0.085243	0.05487	-2.7687	-2.0875	-3.2146	-2.75	-2.1354	-3.2729	-2.45	-2.7833	-3.1042	-1.9688	-3.1854	-2.7062	-2.2562	-3.425	-2.3708	-2.7125	38.364	-42.637	177.014	185.813	-129.515	203.633	160.312	202.332	-121.913	154.469	-137.883	149.612	-104.917	30.416	98.050	204.259	0.0019975	0.00066832	0.00027865	806.64	2.468e-05	1.5705e-05	861.33	287.04	5.4299e-06	1.5807e-06	369.41	148.66	114.59	52.054	1.3882e-05	77.815	0.0022895	0.0023429	0.00065795	946.72	2.5678e-05	2.5732e-05	997.02	331.4	2.5528e-05	2.5643e-05	525.98	170.46	146.63	59.518	2.5585e-05	88.06	60.980	-35.597	-86.240	-133.928	-4.608	-0.588	-134.259	-128.171	-140.429	204.154	-129.344	-124.637	-123.606	-117.471	-36.302	-120.140	-8191	255	
1415.613	1	1	0	0	0.20633	0.043518	0.11535	0.19527	0.094494	0.23469	0.19233	0.091375	0.2726	0.32177	0.038341	0.015064	0.21978	0.33246	0.10493	0.19888	-2.9146	-2.1167	-2.8896	-2.8625	-1.9438	-3.3688	-2.4396	-2.625	-3.2167	-2.0896	-3.025	-3.1021	-2.0563	-3.1979	-2.45	-2.2583	158.878	194.040	97.436	139.098	95.586	56.459	117.159	-137.199	8.556	-63.592	-140.061	-126.825	185.397	-124.464	-100.503	201.780	0.0018924	0.00093761	0.0003125	805.07	2.6761e-06	4.3294e-06	858.99	286.45	1.6701e-05	6.4825e-06	368.34	146.91	112.95	51.508	1.9851e-06	76.692	0.0022927	0.0023414	0.00065454	945.51	2.5371e-05	2.5595e-05	992.46	330.07	2.5281e-05	2.5525e-05	523.12	168.65	145.66	59.151	2.5504e-05	87.049	73.236	27.827	133.289	-133.822	99.358	133.223	-134.565	-127.972	178.958	-24.428	-129.302	-124.684	-123.907	-117.495	-81.376	-120.416	-8191	255	
1415.732	1	1	0	0	0.15803	0.091595	0.12536	0.013242	0.083669	0.043459	0.14396	0.30805	0.082454	0.13237	0.096379	0.054099	0.0039085	0.28126	0.015023	0.30089	-3.0438	-2.175	-2.8729	-3.1813	-2.0854	-3.1896	-2.6562	-2.4396	-3.3292	-2.1875	-2.7333	-3.1333	-1.8687	-3.1979	-2.5542	-2.275	175.884	130.500	-18.380	79.511	131.391	-58.088	159.668	-120.557	34.626	-54.268	13.459	172.648	91.742	-145.051	95.287	91.508	0.0019193	0.00062645	0.00024485	801.63	9.4486e-06	9.6539e-06	853.05	286.2	1.627e-05	9.663e-06	368.91	147.12	113.63	51.426	6.9865e-06	76.832	0.0022754	0.0023354	0.00064883	941.97	2.5257e-05	2.5438e-05	988.29	329.2	2.5071e-05	2.5373e-05	519.38	168.05	145.15	58.95	2.5008e-05	86.897	70.467	20.365	-91.975	-134.118	114.681	134.884	-134.823	-128.326	-90.896	37.175	-129.096	-124.591	-123.570	-117.501	183.266	-119.744	-8191	255	
1415.828	1	1	0	0	0.10033	0.21289	0.078586	0.22717	0.17329	0.18976	0.092498	0.17658	0.032265	0.11377	0.29137	0.20105	0.17324	0.09708	0.25159	0.18261	-2.8458	-2.2812	-2.5667	-3.2979	-2.2	-3.0583	-3.0625	-2.2646	-3.1958	-2.2833	-2.5396	-3.1917	-2.0583	-2.9792	-2.8208	-2.2354	-129.213	175.791	100.351	-74.213	157.073	-51.394	194.467	160.889	-9.445	-74.364	-85.231	-36.448	168.029	-123.481	7.236	178.077	0.002172	0.00029359	2.8635e-05	803.11	1.3799e-05	7.6854e-06	857.55	286.61	1.2569e-05	1.1287e-05	368.39	147.52	113.17	51.772	9.2547e-06	77.423	0.0022573	0.0023025	0.00064052	941.15	2.5242e-05	2.5509e-05	987.52	328.92	2.5213e-05	2.5521e-05	520.86	168.79	145.81	59.278	2.5355e-05	87.565	67.090	-59.636	-16.698	-134.082	-135.725	106.205	-134.511	-127.880	22.754	-4.715	-128.895	-124.373	-123.289	-117.428	37.100	-120.002	-8191	255	
1415.924	1	1	0	0	0.051789	0.10105	0.13801	0.22492	0.18181	0.019188	0.32647	0.18843	0.030686	0.053492	0.45258	0.21296	0.24821	0.066614	0.09334	0.14001	-2.9625	-2.3833	-2.4208	-3.3854	-2.0417	-2.9833	-3.1	-2.3937	-3.1229	-2.3042	-2.5083	-3.3708	-2.1604	-2.7896	-3.0604	-2.2542	93.833	-78.555	113.364	172.758	133.791	-0.585	92.276	183.890	-127.523	-57.602	205.803	204.325	-103.357	187.053	126.701	200.675	0.0019906	0.0015311	0.00028675	806.32	9.6797e-06	8.9494e-07	859.74	286.4	2.2377e-05	1.2891e-05	371.1	148.15	114.35	51.711	7.471e-06	78.076	0.0022901	0.0023325	0.00064861	943.92	2.5471e-05	2.564e-05	993.94	329.7	2.5554e-05	2.5679e-05	524.63	169.78	146.62	59.503	2.546e-05	88.327	67.275	-52.978	-72.903	-133.848	22.241	-30.331	-134.507	-128.153	-119.389	85.058	-129.173	-124.660	-123.894	-117.608	13.615	-120.037	-8191	255	
1416.020	1	1	0	0	0.12448	0.29637	0.22507	0.13743	0.108	0.20273	0.16401	0.3139	0.22767	0.11558	0.19155	0.080135	0.17738	0.1763	0.22074	0.21204	-2.9792	-2.6833	-2.1	-3.2229	-2.1688	-2.7646	-3.2125	-2.125	-3.1188	-2.6604	-2.1542	-3.4229	-2.2917	-2.6854	-3.0833	-2.3937	23.010	76.877	-109.679	-98.246	211.920	187.902	201.436	61.147	92.177	103.273	78.318	-145.780	167.275	108.896	55.049	73.771	0.0018301	0.00091659	0.00019269	808.6	2.9005e-06	7.3482e-06	864.07	287.32	2.8116e-05	8.955e-06	370.56	148.19	114.43	51.967	6.0503e-06	77.465	0.0023245	0.0023442	0.00065236	946.28	2.5661e-05	2.5713e-05	996.72	330.67	2.572e-05	2.5643e-05	524.86	170.03	147	59.619	2.5578e-05	88.035	56.204	-73.409	-33.731	-133.796	-2.397	-20.923	-134.616	-128.244	-79.507	68.341	-129.320	-124.399	-123.453	-117.438	-26.197	-120.257	-8191	255	
1416.116	1	1	0	0	0.15114	0.087709	0.13934	0.30187	0.20595	0.18722	0.23061	0.21492	0.1079	0.13053	0.31922	0.1442	0.12524	0.044963	0.26305	0.17784	-2.7313	-2.8458	-2.0479	-3.1562	-2.3771	-2.4625	-3.5375	-2.1771	-2.7083	-3.0375	-1.9979	-3.1292	-2.5375	-2.5271	-3.1521	-2.3688	200.294	123.819	22.585	152.705	-144.555	20.695	59.920	109.518	23.982	-108.485	-37.375	208.282	142.956	118.175	74.692	-41.207	0.0018479	0.00031781	0.00010816	808.26	6.069e-06	2.5327e-06	856.06	285.75	9.1046e-06	1.4299e-05	365.15	147.52	114.27	51.99	4.6892e-06	76.986	0.0023291	0.0023658	0.00065923	947.13	2.5796e-05	2.5805e-05	992.02	330.53	2.5714e-05	2.5655e-05	521.68	169.3	146.48	59.42	2.5422e-05	87.571	62.066	-79.740	22.360	-133.922	-34.193	158.958	-134.410	-128.235	-87.548	-36.740	-129.420	-124.678	-123.718	-117.384	-76.423	-120.020	-8191	255	
1416.213	1	1	0	0	0.076714	0.13009	0.080008	0.077915	0.1319	0.34272	0.11723	0.18424	0.2004	0.13586	0.27919	0.11091	0.16037	0.10234	0.061317	0.29043	-2.6	-2.9708	-2.1771	-3.3854	-2.5687	-2.3771	-3.3521	-2.2708	-2.6458	-3.2	-2.1958	-3.2917	-2.7542	-2.4	-3.1813	-2.4229	47.686	16.481	180.626	185.388	-47.582	-43.344	50.553	195.613	41.636	85.418	106.501	11.888	145.122	169.390	21.941	182.901	0.0024519	0.00033507	0.00015706	807.78	1.5661e-05	5.8614e-06	856.66	286.86	1.5843e-05	5.6041e-07	367.06	147.68	113.35	51.939	2.9173e-06	77.322	0.0023167	0.0023398	0.00065265	946.2	2.5594e-05	2.545e-05	990	330.3	2.5541e-05	2.551e-05	522.47	169.49	146.46	59.505	2.5328e-05	87.692	66.817	186.631	-124.541	-133.799	-2.831	25.394	-134.606	-127.939	-52.951	-19.174	-129.276	-124.546	-123.836	-117.464	1.540	-120.081	-8191	255	
1416.309	1	1	0	0	0.088533	0.10949	0.18898	0.031354	0.12093	0.1343	0.20533	0.15657	0.40161	0.17042	0.40812	0.12085	0.23595	0.38628	0.26169	0.33801	-2.5375	-3.0979	-2.2417	-3.3312	-2.9062	-2.1771	-3.4083	-2.4875	-2.4938	-3.15	-2.075	-3.1312	-3.0354	-2.3417	-3.3583	-2.6917	23.002	37.110	2.867	-99.399	127.626	-98.725	174.281	127.738	-111.001	85.768	177.947	194.441	113.124	190.980	-7.869	198.595	0.0016265	0.00097799	0.00015957	806.46	3.4749e-06	2.1653e-06	861.43	287.72	4.26e-06	4.1363e-06	372.13	148.58	114.81	51.953	6.9863e-06	77.884	0.0022939	0.0023193	0.0006481	944.13	2.5309e-05	2.5401e-05	991.69	330.83	2.5397e-05	2.5247e-05	522.46	169.79	146.42	59.588	2.525e-05	88.135	69.973	-35.652	76.600	-133.452	-3.789	-20.209	-134.349	-127.908	43.974	131.559	-129.459	-124.218	-123.611	-117.445	31.111	-119.924	-8191	255	
1416.429	1	1	0	0	0.24448	0.084617	0.072591	0.092661	0.28051	0.22725	0.11544	0.098462	0.22059	0.11511	0.31801	0.14539	0.13586	0.10974	0.2071	0.052686	-2.3125	-2.9813	-2.1437	-2.9521	-2.7458	-2.2	-3.325	-2.5146	-2.4062	-3.2583	-2.1437	-2.9938	-3.0687	-2.0812	-3.0833	-2.5479	62.532	-100.499	204.682	48.639	-104.328	61.638	49.691	188.159	166.922	-50.167	107.982	129.868	19.505	159.235	117.570	-124.229	0.0017186	7.155e-05	0.00021851	807.53	7.2049e-06	1.5679e-05	862.75	286.59	1.04e-05	4.6636e-06	369.49	148.7	114.89	52.324	6.8794e-06	78.356	0.002275	0.0023009	0.00064263	944.59	2.5163e-05	2.5222e-05	994.1	330.46	2.5217e-05	2.5118e-05	523.08	170.48	146.16	59.8	2.5377e-05	88.601	61.543	142.855	-46.591	-133.549	-8.057	-37.251	-134.431	-128.122	-1.558	-40.131	-129.134	-124.110	-123.632	-117.139	41.328	-119.878	-8191	255	
1416.524	1	1	0	0	0.24602	0.080065	0.32224	0.17583	0.20681	0.28889	0.073089	0.12541	0.14382	0.1581	0.23005	0.27355	0.1697	0.17882	0.25494	0.10752	-1.8917	-3.275	-2.1167	-2.7104	-3.0458	-2.225	-3.1146	-2.7521	-2.2625	-3.2896	-2.3375	-2.6708	-3.3104	-2.2562	-3.0875	-2.8667	-74.882	83.936	-31.573	93.538	-66.307	174.309	212.582	202.916	44.052	-25.382	181.104	133.223	97.768	129.588	-50.831	210.225	0.0023898	0.00062622	0.00022983	810.33	6.438e-06	9.394e-06	862.34	288.05	1.7446e-05	3.258e-06	370.73	148.7	114.48	52.157	1.585e-05	77.642	0.0022752	0.0023209	0.00065219	948.05	2.5246e-05	2.5521e-05	997.24	332.11	2.5304e-05	2.5357e-05	524.05	170.13	146.1	59.626	2.5353e-05	87.745	65.616	-7.536	-75.714	-133.651	-29.713	13.264	-134.452	-127.951	-83.582	202.818	-129.020	-124.437	-123.402	-117.522	-43.844	-120.020	-8191	255	
1416.597	1	1	0	0	0.089175	0.16284	0.064625	0.31199	0.19475	0.15338	0.13679	0.18372	0.18883	0.18475	0.064074	0.1727	0.20101	0.15295	0.1503	0.14672	-1.9125	-3.0729	-2.2062	-2.7146	-3.1854	-1.9792	-3.2958	-2.9083	-2.1396	-3.2687	-2.5583	-2.5333	-3.2812	-2.1188	-2.6813	-3.1604	-42.897	-72.587	180.807	112.674	97.069	101.734	94.588	205.479	-71.634	9.004	44.861	-66.348	7.537	168.279	3.717	185.891	0.0017177	0.00044384	0.00010792	809.79	7.2113e-06	1.0895e-05	859.8	286.59	1.1902e-05	6.7159e-06	367.86	147.38	114.38	51.686	1.8341e-06	76.993	0.0022594	0.0023011	0.00064495	946.3	2.5109e-05	2.5254e-05	992.49	330.17	2.5114e-05	2.535e-05	521.99	168.6	145.69	59.328	2.5225e-05	87.259	70.442	202.135	-77.534	-133.630	-56.224	40.731	-134.490	-128.409	190.857	157.467	-129.298	-124.415	-123.722	-117.494	96.914	-120.341	-8191	255	
1416.693	1	1	0	0	0.14715	0.32617	0.26536	0.20523	0.11104	0.072189	0.19931	0.16706	0.13877	0.11621	0.14604	0.12543	0.15947	0.1439	0.15281	0.42655	-1.7604	-3.2771	-2.4896	-2.3146	-3.1646	-2.1562	-3.0271	-3.1979	-2.1833	-3.1604	-2.6354	-2.4208	-3.3542	-2.3583	-2.5146	-3.1792	-127.316	112.919	-72.144	201.946	91.809	45.588	-115.470	-116.832	26.741	48.240	-141.222	180.001	-121.415	-131.349	6.524	206.671	0.0019926	0.00049841	0.00027985	809.12	1.0083e-05	1.2813e-05	860.5	285.73	8.7439e-06	1.2817e-05	368.98	146.98	114.08	51.633	2.8731e-06	77.014	0.0022568	0.0022936	0.0006415	942.48	2.4745e-05	2.5173e-05	988.91	328.4	2.4975e-05	2.5164e-05	518.81	168.12	145.14	59.05	2.4856e-05	87.045	75.426	177.143	-55.150	-133.756	-136.834	15.070	-134.617	-127.993	-1.109	-35.732	-129.673	-124.263	-123.830	-117.669	194.936	-120.420	-8191	255	
1416.812	1	1	0	0	0.11738	0.14178	0.075907	0.15114	0.1356	0.096513	0.23927	0.29895	0.2494	0.34009	0.18527	0.026172	0.067325	0.22701	0.18564	0.25315	-1.8375	-3.0521	-2.7083	-2.3479	-3.1854	-2.2833	-2.9229	-3.2167	-2.1937	-3.1604	-2.9792	-2.2771	-3.5062	-2.5146	-2.5208	-3.475	-22.146	-75.362	160.660	146.072	118.181	-144.511	151.872	106.055	-24.321	-22.483	-109.536	154.151	109.449	92.445	-69.299	-141.445	0.0021382	0.00062618	0.00020423	807.05	1.5213e-06	1.5185e-06	858.54	285.9	6.9273e-06	1.0055e-05	368.99	147.24	114.42	51.691	1.7913e-05	77.224	0.0022225	0.0022706	0.00063557	940.98	2.471e-05	2.5078e-05	990.28	328.32	2.4955e-05	2.5027e-05	518.1	168.54	145.19	59.08	2.4767e-05	87.19	60.661	95.034	-33.474	-133.885	46.912	-70.472	-134.551	-128.316	-79.709	24.206	-129.230	-124.587	-123.348	-117.570	156.589	-120.027	-8191	255	
1416.908	1	1	0	0	0.10468	0.11094	0.033679	0.045135	0.17167	0.21124	0.30224	0.19103	0.097668	0.078498	0.085346	0.14624	0.075211	0.074962	0.028806	0.15073	-1.7875	-2.9896	-2.8458	-2.2542	-3.2021	-2.5062	-2.5521	-3.2875	-2.4458	-2.8646	-2.9521	-2.3604	-3.2896	-2.4458	-2.3771	-3.4938	14.886	-70.123	99.552	-145.695	28.090	123.652	138.800	146.666	-32.212	-69.654	89.320	-53.567	100.292	-130.910	13.924	169.769	0.0021434	0.00046233	0.00011036	808.75	9.3257e-06	1.0708e-05	861.51	285.77	8.1963e-06	1.4018e-05	370.58	148.23	114.78	52.016	4.4376e-06	77.752	0.0022288	0.0022853	0.00063355	942.05	2.4788e-05	2.5098e-05	992.76	329.04	2.4976e-05	2.5147e-05	521.21	169.48	145.94	59.384	2.516e-05	87.935	64.887	-15.651	-91.803	-133.770	107.704	-5.693	-134.454	-127.962	148.473	-55.062	-129.651	-124.366	-123.274	-117.771	-63.259	-120.040	-8191	255	
1417.004	1	1	0	0	0.35733	0.068077	0.26574	0.20873	0.081621	0.11192	0.15911	0.38662	0.06408	0.052922	0.36089	0.27436	0.18167	0.13777	0.16412	0.33785	-1.9	-2.8083	-3.1146	-2.1146	-2.9896	-2.5667	-2.4938	-3.2375	-2.2271	-2.8042	-3.05	-2.2604	-3.1542	-2.7729	-2.1521	-3.2292	-43.818	167.008	-29.187	184.604	-77.090	51.954	-14.595	164.833	61.373	211.639	-42.320	15.375	65.256	201.264	36.406	-85.869	0.0016773	0.00082362	0.00021203	808.18	1.1633e-05	1.1117e-05	863.95	287.34	5.296e-06	8.8091e-06	372.7	147.05	113.87	51.722	1.1537e-05	77.312	0.0022807	0.0023057	0.00064179	944.81	2.5175e-05	2.5186e-05	992.7	329.78	2.5287e-05	2.5278e-05	521.72	169.13	146.06	59.324	2.5476e-05	87.478	70.087	-14.525	-73.822	-133.659	-130.671	-37.660	-134.647	-128.239	50.859	-110.496	-129.111	-124.492	-123.391	-117.613	-21.051	-119.879	-8191	255	
1417.125	1	1	0	0	0.15404	0.19785	0.30372	0.026914	0.19114	0.16361	0.30263	0.16673	0.089091	0.43291	0.071334	0.2084	0.076338	0.066615	0.13361	0.11364	-2.1312	-2.6042	-2.9875	-2.0667	-3.0062	-2.6854	-2.1937	-3.5938	-2.4271	-2.5771	-3.3104	-2.1021	-2.9771	-3.0333	-2.1042	-3.3958	203.067	26.638	-61.404	124.558	169.057	-25.404	98.980	211.774	203.172	25.927	171.659	83.881	92.692	204.778	211.591	198.736	0.0016587	0.00052343	0.00010975	811.55	6.4434e-06	3.2432e-06	861.44	286.84	3.267e-06	1.1345e-05	369.92	146.97	114.09	51.699	9.6643e-06	76.907	0.002304	0.0023425	0.00065052	946.32	2.5524e-05	2.5466e-05	991.76	330.34	2.5498e-05	2.5498e-05	521.45	168.61	146.31	59.203	2.5499e-05	87.23	70.235	33.366	-31.093	-133.655	-43.235	74.163	-134.389	-127.890	-58.233	70.437	-128.843	-124.385	-123.334	-117.653	103.980	-120.036	-8191	255	
1417.221	1	1	0	0	0.082582	0.32094	0.096965	0.19337	0.13397	0.22775	0.20423	0.18328	0.2032	0.097949	0.21383	0.22035	0.13288	0.055598	0.1343	0.13447	-2.2104	-2.3542	-3.1688	-2.2396	-2.8438	-3.05	-2.2833	-3.2938	-2.4604	-2.3479	-3.3646	-2.3771	-2.7479	-3.1604	-2	-3.3187	142.935	-74.262	-91.498	179.911	24.294	17.996	122.267	149.131	196.916	135.308	76.001	170.599	134.087	115.310	-133.701	159.874	0.002208	0.0012232	4.6806e-05	805.63	6.561e-06	1.123e-06	860.48	285.76	8.8146e-06	1.1398e-05	368.57	147.26	113.6	51.756	5.0083e-06	77.156	0.002313	0.0023378	0.00065063	944.88	2.5655e-05	2.5621e-05	991.52	329.54	2.5517e-05	2.5319e-05	521.99	168.83	146.23	59.296	2.5426e-05	87.421	66.070	-63.461	-51.382	-133.843	-59.028	-143.611	-134.448	-127.943	-144.962	-35.606	-129.073	-124.497	-123.385	-117.250	-83.080	-119.876	-8191	255	
1417.293	1	1	0	0	0.11197	0.14844	0.12241	0.31353	0.26028	0.10543	0.26308	0.22389	0.17639	0.23193	0.088193	0.085025	0.12935	0.040749	0.21286	0.34516	-2.35	-2.2167	-3.4625	-2.0792	-2.4979	-3.0167	-2.3125	-3.0958	-2.7375	-2.1229	-3.3979	-2.5125	-2.5917	-3.2583	-2.0021	-3.25	181.945	-102.377	-11.165	154.545	-66.230	156.306	144.173	198.212	-118.774	15.537	17.024	204.804	97.095	144.778	-101.752	132.926	0.0016787	0.0014043	0.00026872	805.3	8.1349e-06	4.493e-06	857.62	287.04	1.6296e-05	1.3078e-05	367.67	147.75	113.91	51.933	3.7137e-06	77.716	0.0022987	0.0023117	0.00065016	944.92	2.5412e-05	2.5393e-05	992.04	330.42	2.5547e-05	2.5411e-05	523.21	169.83	146.74	59.547	2.5704e-05	88.075	68.313	-50.998	-122.898	-133.882	-20.650	174.322	-134.424	-128.024	-35.041	-19.713	-129.350	-124.609	-123.778	-117.777	55.496	-119.992	-8191	255	
1417.414	1	1	0	0	0.21814	0.122	0.16397	0.18204	0.117	0.16285	0.3018	0.13797	0.04406	0.022258	0.12053	0.16566	0.47258	0.24699	0.23131	0.24556	-2.5542	-2.0292	-3.2083	-2.3917	-2.4938	-3.2667	-2.2792	-3.0979	-2.8896	-2.1958	-3.2479	-2.5604	-2.6417	-3.4271	-2.1854	-2.9375	190.128	-111.597	178.209	160.885	170.072	-119.120	-13.504	169.665	-39.434	-118.461	49.293	72.112	-101.658	168.605	122.175	154.137	0.0018551	0.00040304	0.00025688	808.42	1.3641e-05	7.2145e-06	861.31	286.52	3.6171e-06	1.1232e-05	372.51	148.25	114.8	52.179	7.3119e-06	78.205	0.002318	0.0023406	0.00065468	946.79	2.5605e-05	2.5578e-05	996.5	331.42	2.5611e-05	2.565e-05	526.84	170.74	147.05	59.798	2.5884e-05	88.537	69.065	108.973	7.535	-133.693	-27.386	-22.431	-134.307	-128.026	43.266	22.802	-129.177	-124.575	-123.535	-117.437	-78.436	-120.096	-8191	255	
1417.510	1	1	0	0	0.19101	0.22946	0.016217	0.18579	0.10253	0.11026	0.10174	0.29005	0.028081	0.18622	0.17564	0.13425	0.09738	0.16857	0.22493	0.11233	-2.6437	-1.9417	-3.1813	-2.5521	-2.0875	-3.3354	-2.4792	-2.7917	-3.0146	-2.1583	-3.2021	-2.7792	-2.3854	-3.2938	-2.1458	-2.7771	-43.710	-35.729	-93.832	174.418	105.733	-11.541	57.485	98.586	-56.891	81.448	23.709	116.705	40.476	121.147	36.337	-139.722	0.0020662	0.00092484	0.00025398	807.89	2.2941e-06	6.642e-06	864.4	287.14	1.2628e-05	1.7303e-06	370.39	148.09	114.57	52	4.6094e-06	77.645	0.0023069	0.0023506	0.00065731	947.05	2.5523e-05	2.56e-05	997.78	331.5	2.5588e-05	2.5917e-05	527.56	170.13	147.18	59.707	2.5957e-05	88.005	76.972	-130.510	-5.438	-133.847	90.592	-77.450	-134.687	-128.079	-95.583	-137.526	-129.357	-124.685	-123.680	-117.568	-17.487	-119.973	-8191	255	
1417.604	1	1	0	0	0.1468	0.2651	0.24258	0.12987	0.20688	0.14179	0.10132	0.15613	0.13112	0.075763	0.074956	0.032196	0.16467	0.14644	0.21797	0.2114	-2.8521	-2.1771	-3.0104	-2.8792	-2.0479	-3.3167	-2.5479	-2.6792	-3.1	-2.0854	-2.9583	-3.1042	-2.35	-3.4313	-2.3292	-2.7	-55.426	-131.365	-71.617	-140.139	111.501	-127.782	-41.606	136.278	204.521	143.983	103.083	3.154	0.466	-134.522	23.265	212.515	0.0015628	0.00041303	0.00026902	808.51	3.4154e-06	1.8141e-05	855.68	286.48	1.912e-05	1.0289e-05	369.6	147.59	114.63	51.596	3.0213e-06	76.967	0.0023294	0.002378	0.00066138	948.54	2.5778e-05	2.5897e-05	993.41	331.06	2.578e-05	2.5918e-05	526.05	169.76	146.84	59.599	2.6081e-05	87.597	63.019	-143.286	-61.648	-133.858	-55.680	-44.220	-134.545	-127.768	212.059	53.245	-129.004	-124.490	-123.745	-117.296	-23.406	-119.986	-8191	255	
1417.725	1	1	0	0	0.1003	0.25913	0.24886	0.20927	0.26416	0.15018	0.13887	0.17022	0.045525	0.22504	0.15536	0.029732	0.15219	0.26399	0.20936	0.068995	-3.0187	-2.0917	-2.8229	-3.0083	-2.1979	-3.2812	-2.5271	-2.5042	-3.1292	-2.1354	-2.9125	-3.2021	-2.3396	-3.3438	-2.4958	-2.5271	-66.183	-27.858	200.315	210.972	-132.318	137.052	177.769	5.779	94.757	-24.909	118.372	-118.536	123.246	165.966	102.271	174.384	0.0017368	0.00086067	0.0002356	807.07	8.8979e-06	8.4885e-06	856.98	288.64	1.4854e-05	7.8411e-06	373.91	147.9	113.64	52.069	1.6558e-05	77.247	0.0023277	0.0023826	0.00066847	948.2	2.6017e-05	2.617e-05	995.02	331.73	2.5833e-05	2.6149e-05	527.41	170.03	147.16	59.742	2.608e-05	87.784	64.161	12.948	-33.073	-133.817	13.384	85.725	-134.799	-128.150	106.633	133.313	-129.389	-124.834	-123.662	-117.828	1.113	-120.324	-8191	255	
1417.821	1	1	0	0	0.14353	0.10254	0.1762	0.22623	0.16246	0.19754	0.36024	0.22091	0.26987	0.11597	0.25313	0.16247	0.058632	0.13072	0.083967	0.30945	-2.9354	-2.2062	-2.7354	-3.2854	-2.1771	-3.1292	-2.6688	-2.3312	-3.4	-2.1771	-2.7646	-3.2271	-2.1229	-3.2979	-2.7396	-2.3854	4.020	159.006	-130.441	181.777	163.586	-112.443	172.687	101.233	112.692	134.995	-90.196	67.739	3.098	-55.259	2.018	32.301	0.0018412	0.00038373	0.0002758	806.84	1.098e-05	8.3515e-06	859.95	286.48	1.7794e-05	7.5285e-06	370.23	148.03	114.54	51.888	7.4611e-06	77.584	0.0023254	0.00238	0.00066425	948.58	2.5742e-05	2.5879e-05	996.86	330.96	2.5585e-05	2.5726e-05	526.07	169.85	146.57	59.653	2.5732e-05	87.974	65.794	-112.335	-88.460	-133.772	30.889	-47.003	-134.691	-128.302	203.853	-119.196	-129.191	-124.558	-123.445	-117.401	53.420	-120.091	-8191	255	
1417.893	1	1	0	0	0.091525	0.14156	0.071415	0.12945	0.24245	0.068417	0.2876	0.1824	0.1803	0.18977	0.24866	0.17816	0.46042	0.08406	0.14133	0.20395	-3.1542	-2.3229	-2.4021	-3.2292	-2.125	-2.8187	-3.1312	-2.0979	-3.1688	-2.2292	-2.3708	-3.3063	-2.0396	-3.0042	-2.8625	-2.1396	-58.805	99.757	185.780	70.387	18.233	173.597	155.675	134.619	-140.395	-1.465	134.504	213.737	-141.219	165.736	92.155	129.726	0.0018313	0.00060556	0.00026505	807.27	7.3624e-06	7.8375e-06	864.18	287.66	1.6341e-05	6.5374e-06	371.5	148.71	113.62	52.068	1.7084e-05	78.05	0.0023143	0.0023735	0.00066003	947.72	2.5632e-05	2.5764e-05	997.61	331.6	2.5541e-05	2.5705e-05	526.09	170.27	146.66	59.785	2.5722e-05	88.511	72.396	44.732	-68.971	-133.855	-60.225	-30.558	-134.529	-128.220	195.813	-24.692	-129.212	-124.427	-123.212	-117.509	-38.793	-120.380	-8191	255	
1417.989	1	1	0	0	0.098615	0.14569	0.075501	0.23086	0.10857	0.026983	0.14614	0.3458	0.25181	0.061157	0.12977	0.19756	0.18782	0.20102	0.23459	0.1798	-2.9271	-2.4667	-2.3083	-3.1667	-2.0271	-2.6583	-3.1021	-2.2104	-2.9979	-2.6229	-2.0479	-3.35	-2.2417	-2.6875	-3.0312	-2.2354	149.683	-107.168	76.280	174.577	-132.717	-59.084	-132.068	-89.398	-10.276	-43.394	10.735	138.036	13.102	-65.058	67.816	158.646	0.0019141	0.0014378	0.00020495	809.88	8.2229e-06	1.4803e-05	862.68	286.55	1.6227e-05	1.1181e-05	369.15	147.42	114.43	51.819	3.4355e-07	76.84	0.0023407	0.0023902	0.00066258	950.59	2.6136e-05	2.6106e-05	999.08	331.9	2.5981e-05	2.604e-05	526.7	169.65	147.46	59.517	2.5945e-05	87.328	65.921	-6.008	-132.170	-134.032	11.600	-37.611	-134.736	-128.520	-103.195	95.315	-129.541	-124.804	-123.679	-117.722	90.092	-120.281	-8191	255	
1418.109	1	1	0	0	0.051677	0.24795	0.24121	0.19343	0.19025	0.21772	0.13161	0.18235	0.10247	0.15924	0.16455	0.16088	0.10952	0.14323	0.18263	0.16805	-2.7458	-2.5979	-2.1729	-3.1813	-2.1896	-2.4875	-3.375	-2.0729	-2.9	-2.8354	-2.1354	-3.3771	-2.4521	-2.5875	-3.1479	-2.3187	189.575	1.977	-86.881	79.030	-21.437	-37.346	-104.675	145.285	-84.062	-35.033	64.966	162.258	38.907	108.251	19.203	50.011	0.0021325	0.00031434	0.00013336	812.25	6.5914e-06	1.5257e-06	857.1	286.46	1.5103e-05	1.4026e-05	365.77	147.22	113.74	51.537	1.0657e-05	76.484	0.0023482	0.0023927	0.00066243	950.74	2.6221e-05	2.6275e-05	993.96	331.51	2.6095e-05	2.5951e-05	524.25	168.95	146.58	59.219	2.5549e-05	86.812	69.403	-16.286	-34.669	-133.916	68.489	173.116	-134.375	-128.256	-71.178	74.948	-128.858	-124.658	-123.408	-117.300	43.884	-120.044	-8191	255	
1418.205	1	1	0	0	0.1492	0.012471	0.058407	0.10693	0.14377	0.17242	0.20583	0.18849	0.12993	0.19165	0.11134	0.097056	0.28491	0.12631	0.040705	0.15008	-2.6792	-3.0021	-2.0042	-3.2812	-2.3479	-2.5354	-3.2729	-2.2562	-2.8208	-2.9625	-2.0083	-3.2479	-2.65	-2.4833	-3.3063	-2.2667	28.994	21.495	15.129	-90.857	156.506	-73.015	134.783	-89.512	-51.101	73.863	162.296	98.248	159.952	-137.982	95.190	178.813	0.0016292	0.00019268	0.00019196	802.93	9.0474e-06	6.9491e-06	858.15	286.48	7.8756e-06	4.0305e-06	368.49	146.65	114.08	51.772	3.106e-06	77.04	0.0023158	0.002339	0.00065137	945.49	2.5697e-05	2.5624e-05	992.86	330.83	2.5763e-05	2.5846e-05	524.03	169.11	146.71	59.451	2.5753e-05	87.428	66.466	163.470	202.853	-133.909	9.840	-11.459	-134.526	-128.203	44.465	14.534	-129.608	-124.374	-123.638	-117.290	31.675	-119.999	-8191	255	
1418.302	1	1	0	0	0.26063	0.20411	0.25371	0.14659	0.15871	0.14959	0.26085	0.23573	0.17202	0.055056	0.12593	0.22458	0.088046	0.20658	0.29941	0.16289	-2.425	-3.1646	-1.8917	-3.2938	-2.6021	-2.2104	-3.3104	-2.4125	-2.6604	-3.0646	-2.0708	-3.1708	-2.6875	-2.2167	-3.3708	-2.6375	-79.195	-66.318	-85.265	60.066	69.153	178.977	172.157	-73.354	178.682	-142.328	31.520	-144.773	43.718	-115.014	212.386	29.705	0.0018077	0.00074397	0.00021759	810.3	7.745e-06	2.472e-06	863.26	287.78	4.2257e-06	1.3476e-05	370.92	147.3	114.78	52.026	5.7606e-06	77.687	0.0023345	0.0023599	0.0006575	947.3	2.6018e-05	2.5899e-05	997.71	331.68	2.6085e-05	2.6035e-05	529.42	170.36	147.61	59.741	2.6142e-05	88.094	76.005	123.172	-64.018	-133.545	-60.965	65.952	-134.466	-127.989	-14.997	-17.321	-129.187	-124.297	-123.447	-117.516	125.617	-120.241	-8191	255	
1418.398	1	1	0	0	0.19026	0.019134	0.26826	0.18588	0.10361	0.32312	0.094549	0.39932	0.12173	0.2254	0.21552	0.096506	0.0095196	0.18132	0.10139	0.30673	-2.3333	-3.3021	-2.1958	-3.1875	-2.8146	-2.1583	-3.4271	-2.55	-2.5229	-3.4792	-2.2458	-2.9875	-3.1458	-2.4062	-3.1958	-2.6146	200.488	165.581	-103.122	131.268	196.223	155.772	-69.755	131.811	208.082	143.046	82.698	-118.351	168.427	210.219	-139.541	148.469	0.0021823	0.00065367	0.00012457	808.79	4.1923e-06	6.8329e-06	865.2	287.66	1.3177e-06	6.9513e-06	374.28	148.53	114.56	52.278	7.9815e-06	78.126	0.0023517	0.0023904	0.00066817	952.57	2.6113e-05	2.6182e-05	1002	332.77	2.6332e-05	2.634e-05	531.41	171.37	148.15	60.004	2.6602e-05	88.645	71.047	-36.825	-1.569	-133.708	-52.190	108.471	-134.234	-128.137	-131.302	140.604	-129.127	-124.537	-123.804	-117.604	-85.385	-120.076	-8191	255	
1418.494	1	1	0	0	0.2741	0.18478	0.26852	0.30573	0.12046	0.1207	0.10084	0.18825	0.0481	0.073348	0.17727	0.22559	0.18906	0.3586	0.051498	0.025389	-1.9229	-3.2687	-2.175	-3.0146	-3.1917	-2.0458	-3.3396	-2.8167	-2.3396	-3.2167	-2.1583	-2.8854	-3.0979	-2.3125	-3.0812	-2.7479	-9.289	197.792	-26.295	-108.684	-108.676	91.543	143.267	164.790	-111.265	-25.270	167.675	132.108	-28.776	167.573	-125.907	-45.744	0.0020381	0.0014222	0.00014822	813.57	6.017e-06	4.5601e-06	867.59	288.26	1.2653e-05	4.1821e-06	371.6	148.13	114.52	52.152	3.9186e-06	77.556	0.0023791	0.002392	0.00067634	953.53	2.6167e-05	2.6361e-05	1002	333.23	2.6158e-05	2.635e-05	531.28	170.9	148.13	59.905	2.6589e-05	87.99	71.831	-103.898	-87.144	-133.719	-48.872	-16.535	-134.386	-128.232	157.750	-78.418	-129.479	-124.457	-123.470	-117.572	152.932	-120.219	-8191	255	
1418.590	1	1	0	0	0.11159	0.24621	0.030191	0.27685	0.10895	0.31817	0.43807	0.23452	0.11416	0.086818	0.072319	0.13833	0.18235	0.18617	0.182	0.39434	-1.8854	-3.4188	-2.1917	-2.6146	-3.0354	-2.2625	-3.2562	-2.7687	-2.1583	-3.3229	-2.4229	-2.4146	-3.4	-2.2417	-3.0396	-2.9521	190.604	130.684	146.558	198.144	133.458	132.900	141.708	172.303	71.226	177.180	195.517	158.053	60.055	165.394	76.374	113.019	0.0015111	0.00017931	0.00010638	809.47	5.4256e-06	8.9956e-06	861.38	287.8	1.6075e-05	5.5278e-06	371.37	147.79	114.71	51.888	6.7718e-06	77.026	0.0023716	0.0024155	0.00067935	951.36	2.6232e-05	2.6495e-05	998.65	332.31	2.6223e-05	2.6359e-05	530.47	169.92	147.82	59.81	2.6526e-05	87.546	58.212	146.814	-120.622	-133.614	40.879	-71.242	-134.310	-128.301	191.618	-8.749	-129.043	-124.621	-123.572	-117.578	41.675	-120.177	-8191	255	
1418.686	1	1	0	0	0.22089	0.1027	0.28649	0.16273	0.14369	0.13872	0.10802	0.083863	0.11055	0.099871	0.19073	0.13193	0.21967	0.22334	0.056432	0.22193	-1.9979	-3.1875	-2.2771	-2.5854	-3.1771	-1.9125	-2.9708	-3.1104	-2.175	-3.2562	-2.3854	-2.4771	-3.2271	-2.1583	-2.6771	-3.1396	-119.985	-78.981	-2.295	-63.162	-39.062	29.088	-57.320	106.041	-64.877	71.629	-141.587	191.584	63.081	53.038	204.430	194.562	0.0016075	0.00063679	4.3547e-05	804.32	8.986e-06	6.3838e-06	857.36	287.34	1.368e-05	7.7483e-06	370.2	147.54	115.42	51.95	2.1836e-06	77.649	0.0023747	0.002424	0.00067851	950.42	2.6376e-05	2.656e-05	997.53	332.52	2.6368e-05	2.6572e-05	530.73	170.37	148.24	59.987	2.6662e-05	88.112	60.516	-87.276	133.254	-133.763	-27.140	7.582	-134.267	-128.163	-137.141	66.625	-129.221	-124.736	-123.594	-117.842	121.929	-120.223	-8191	255	
1418.805	1	1	0	0	0.18754	0.13283	0.090729	0.024514	0.016737	0.073102	0.27701	0.15615	0.11458	0.15936	0.15342	0.12698	0.28076	0.32546	0.28819	0.30315	-1.9333	-3.15	-2.5917	-2.4792	-3.25	-2.2417	-2.9396	-3.2854	-2.1979	-3.1188	-2.6875	-2.2667	-3.1896	-2.3521	-2.7354	-3.4188	-36.424	-140.029	140.669	152.546	167.558	0.061	-105.593	170.646	-41.123	77.711	122.532	194.943	181.393	208.415	-108.945	138.286	0.002021	0.0015139	0.00025981	811.14	5.7992e-06	2.5035e-06	865.25	287.48	1.4414e-05	6.8863e-06	367.38	147.68	114.48	52.201	1.1422e-05	77.387	0.0023759	0.002439	0.00067779	951.43	2.6407e-05	2.6615e-05	1001.4	332.28	2.6346e-05	2.6577e-05	530.65	170.25	148.08	59.889	2.6558e-05	88.076	64.187	-5.205	-107.310	-133.849	-50.068	212.477	-134.361	-128.189	-85.707	-116.805	-129.464	-124.487	-123.547	-117.429	-51.095	-120.093	-8191	255	
1418.901	1	1	0	0	0.30781	0.16068	0.043463	0.33466	0.25044	0.046288	0.19577	0.27828	0.066794	0.14789	0.19153	0.17869	0.29726	0.31508	0.085202	0.32191	-1.6396	-3.0083	-2.8125	-2.425	-3.2771	-2.3792	-2.5875	-3.3104	-2.1292	-3.0458	-2.8458	-2.2854	-3.3458	-2.6937	-2.3542	-3.2167	19.002	31.032	142.985	-134.559	67.863	-58.879	197.897	-97.615	86.193	121.102	-46.311	-132.046	-141.173	144.036	93.118	122.944	0.0023402	0.00046619	0.00021176	806.38	4.5718e-06	1.2252e-05	866.01	287.86	1.8004e-05	2.2648e-06	372.09	148.3	114.19	51.968	8.8462e-06	77.532	0.0023877	0.002446	0.00068249	951.08	2.6732e-05	2.6897e-05	1003.9	333.4	2.6782e-05	2.6894e-05	533.66	171.1	148.05	59.882	2.6687e-05	88.21	62.619	-42.463	-39.627	-133.631	175.534	117.457	-134.104	-127.957	170.066	-126.450	-129.516	-124.276	-123.208	-117.462	107.318	-120.190	-8191	255	
1418.996	1	1	0	0	0.18465	0.20628	0.34962	0.21805	0.23882	0.12007	0.29547	0.19027	0.081909	0.18131	0.11949	0.30892	0.11859	0.22059	0.070134	0.18167	-1.7812	-2.8771	-2.8646	-2.0438	-3.2188	-2.3875	-2.4396	-3.4917	-2.0938	-2.8229	-3.2271	-2.2021	-3.4437	-2.6833	-2.2917	-3.4479	-20.575	91.311	160.416	-117.876	-26.076	68.172	147.135	115.848	105.537	107.532	63.479	204.358	-37.290	-138.303	51.282	176.501	0.0017862	0.00096951	0.00023043	811.65	2.1691e-05	1.0276e-05	864.09	288.45	1.1474e-05	1.619e-05	370.7	146.93	114.24	51.718	1.5303e-05	76.535	0.0023981	0.0024622	0.00068166	953.96	2.6725e-05	2.6964e-05	1002.5	333.41	2.6815e-05	2.682e-05	531.1	169.71	148.22	59.668	2.6658e-05	87.278	75.923	23.019	33.642	-133.793	-64.304	45.873	-134.032	-127.786	-139.684	14.083	-129.133	-124.416	-123.437	-117.127	104.898	-119.833	-8191	255	
1419.094	1	1	0	0	0.14466	0.14694	0.096596	0.17265	0.089999	0.17429	0.27413	0.030012	0.16931	0.015443	0.22278	0.23563	0.017875	0.057956	0.17463	0.19878	-1.9333	-2.7875	-3.1188	-2.2313	-3.0292	-2.6792	-2.2979	-3.275	-2.1792	-2.5854	-3.1792	-2.1833	-2.9917	-2.85	-2.1771	-3.2708	61.439	25.771	140.635	91.402	151.840	158.117	-21.803	179.751	207.316	-117.699	-90.788	158.562	151.394	29.996	144.583	73.400	0.0021446	0.00072283	0.00024677	806.34	1.0144e-05	6.6605e-06	858.44	286.79	4.7098e-06	9.8443e-06	365.26	146.08	114.24	51.485	7.8723e-06	76.487	0.0024058	0.0024635	0.00068204	951.3	2.6866e-05	2.6911e-05	996.4	331.6	2.6782e-05	2.6767e-05	528.81	168.98	147.97	59.395	2.6495e-05	86.946	61.310	-9.368	-144.122	-133.718	-30.374	78.089	-134.525	-128.014	132.241	-49.636	-129.265	-124.584	-123.337	-117.635	-34.574	-120.284	-8191	255	
1419.188	1	1	0	0	0.1289	0.061417	0.12142	0.31363	0.17067	0.23012	0.2302	0.19239	0.16168	0.030761	0.095783	0.23103	0.16879	0.037174	0.063714	0.2668	-2.0542	-2.5667	-3.1125	-2.2438	-2.8708	-2.7708	-2.1896	-3.2	-2.3625	-2.375	-3.2292	-2.2854	-2.8583	-2.8979	-2.0771	-3.2062	208.067	74.485	117.923	22.556	-61.121	90.494	148.960	119.749	-49.088	201.411	47.259	109.435	135.073	-41.786	94.769	178.945	0.0018122	0.00092092	0.00014998	802.33	1.5904e-05	5.7441e-06	854.2	285.57	7.095e-06	1.2244e-05	366.09	146.81	114.33	51.936	5.0055e-06	76.888	0.0023956	0.0024267	0.00067447	947.96	2.655e-05	2.6489e-05	993.31	330.46	2.6602e-05	2.6485e-05	527.94	169.53	147.92	59.549	2.639e-05	87.602	68.847	-110.684	184.870	-133.915	-29.680	-80.407	-134.565	-128.239	-127.164	-23.865	-129.336	-124.473	-123.550	-117.431	-5.806	-120.137	-8191	255	
1419.284	1	1	0	0	0.2668	0.13299	0.16897	0.25617	0.12907	0.067088	0.27266	0.12005	0.11181	0.060447	0.080316	0.16384	0.15002	0.15886	0.048594	0.35917	-2.0875	-2.4333	-3.1	-2.1188	-2.8063	-3.1813	-2.0646	-3.1896	-2.525	-2.1937	-3.1146	-2.4125	-2.5417	-3.2583	-1.9792	-3.1312	118.033	117.706	-24.163	157.332	-142.122	157.185	195.180	-128.076	14.570	129.645	102.706	102.415	-126.520	187.774	48.285	153.751	0.0023072	0.00057826	6.4274e-05	802.37	8.5051e-06	5.5137e-06	858.46	286.65	1.2355e-06	3.0928e-06	367.16	148.24	113.99	52.157	7.0061e-06	77.456	0.0023834	0.002412	0.00067271	947.99	2.656e-05	2.6584e-05	994.75	331.74	2.6643e-05	2.6605e-05	529.57	170.91	148.28	60.008	2.653e-05	88.322	67.457	81.333	136.958	-133.541	206.275	72.153	-133.959	-127.680	151.881	-13.653	-129.018	-124.349	-123.691	-117.387	-101.009	-120.013	-8191	255	
1419.405	1	1	0	0	0.092159	0.087202	0.161	0.27969	0.046726	0.15279	0.38041	0.20723	0.24288	0.10235	0.14609	0.191	0.24064	0.23884	0.17651	0.017691	-2.4042	-2.3521	-3.2396	-2.3354	-2.6208	-3.0021	-2.2208	-3.2188	-2.8375	-2.0521	-3.4938	-2.375	-2.4354	-3.1833	-2.0438	-3.1167	56.805	-47.568	-67.870	-76.563	37.430	4.000	185.201	-137.998	-6.176	112.685	20.708	-135.666	-81.390	206.661	-2.525	140.135	0.0018897	0.00049524	0.00019694	804.92	8.9966e-06	1.5362e-05	855.9	285.48	1.0461e-05	7.6944e-06	369.89	149.4	114.66	52.362	1.6863e-05	77.961	0.0023933	0.002428	0.00067925	949.73	2.6642e-05	2.6686e-05	997.02	331.82	2.6727e-05	2.6775e-05	532.1	171.84	148.46	60.275	2.6496e-05	88.58	66.463	19.232	-50.248	-133.630	-140.192	-29.435	-134.265	-127.684	207.934	126.874	-128.709	-124.270	-123.499	-117.473	27.554	-119.829	-8191	255	
1419.501	1	1	0	0	0.15203	0.057257	0.091907	0.041312	0.35662	0.11613	0.03457	0.13602	0.13872	0.22839	0.064974	0.1401	0.1923	0.060316	0.25745	0.061949	-2.6	-2.1437	-3.2417	-2.5604	-2.2625	-3.3875	-2.1958	-2.9813	-2.9	-2.0417	-3.2687	-2.6458	-2.4688	-3.5271	-2.1083	-2.8083	-127.563	-9.456	-65.125	184.371	-80.880	-71.045	-118.829	-128.444	163.910	107.014	54.317	129.776	173.223	77.105	-118.972	179.665	0.0016785	0.0008031	5.4806e-05	801.15	6.5984e-06	1.7609e-05	855.42	285.9	3.7024e-06	9.1149e-06	370.67	148.42	114.44	52.507	3.6365e-06	77.263	0.0023697	0.0024098	0.00067567	945.13	2.6449e-05	2.6469e-05	992.57	330.6	2.6436e-05	2.6557e-05	530.31	170.84	148.25	60.21	2.6614e-05	88.027	79.026	-71.706	-115.452	-133.777	-98.024	-27.977	-134.136	-127.941	-56.319	15.134	-128.931	-124.414	-123.549	-117.171	6.415	-119.700	-8191	255	
1419.597	1	1	0	0	0.1811	0.27991	0.21707	0.19571	0.063792	0.1616	0.28317	0.17744	0.14115	0.06805	0.13151	0.16438	0.046095	0.17145	0.088552	0.12342	-2.8333	-2.1188	-3.0458	-2.7583	-2.1104	-3.2708	-2.4479	-2.6188	-3.0708	-2.1063	-3.0271	-2.7938	-2.2562	-3.3917	-2.3	-2.8354	164.756	-75.993	-19.849	-145.773	108.482	-115.249	167.233	-28.588	-63.424	166.822	-103.247	-143.108	-124.406	179.682	113.366	206.063	0.0017767	0.0013395	0.00021558	800.17	1.125e-05	1.1831e-06	850.95	284.48	1.9947e-05	8.8592e-06	364.72	146.77	114.26	52.049	8.134e-06	77.316	0.0023765	0.0024305	0.0006752	943.41	2.6222e-05	2.6356e-05	988.31	329.28	2.6229e-05	2.638e-05	525.65	169.7	147.8	59.981	2.6635e-05	87.97	76.377	-55.659	204.573	-133.704	29.401	165.852	-134.120	-127.915	192.436	113.956	-128.725	-124.498	-123.177	-117.524	27.829	-120.031	-8191	255	
1419.693	1	1	0	0	0.11071	0.33899	0.086793	0.16379	0.13117	0.26025	0.23801	0.30293	0.11639	0.18089	0.073665	0.10135	0.2363	0.20852	0.21775	0.36295	-2.7521	-2.0687	-3.0812	-3.0938	-2.0375	-3.2521	-2.5896	-2.5896	-3.1792	-1.9458	-2.9938	-3.0354	-2.225	-3.3729	-2.3792	-2.3333	144.632	112.155	-61.947	-84.861	110.734	-94.471	182.593	-133.366	-1.563	131.339	68.864	-122.011	65.459	-137.952	3.167	191.024	0.0017335	0.0001469	5.1897e-05	799.2	8.4857e-06	5.6209e-06	851.92	285.23	1.3392e-05	5.6488e-06	363.6	147.97	114.38	52.086	5.5224e-06	77.161	0.002398	0.0024504	0.00068452	942.81	2.6583e-05	2.6673e-05	990.23	329.91	2.643e-05	2.6605e-05	527.25	170.17	147.74	60.087	2.6665e-05	87.905	57.877	8.643	-102.651	-133.534	-39.965	-35.965	-134.033	-127.590	-59.833	7.264	-129.224	-124.442	-123.539	-117.405	-86.106	-120.158	-8191	255	
1419.789	1	1	0	0	0.066471	0.28848	0.11956	0.31976	0.28994	0.064365	0.15458	0.21351	0.25533	0.32396	0.11297	0.26768	0.27225	0.10753	0.076322	0.10264	-2.9333	-2.275	-2.8292	-3.0896	-2.0167	-3.1562	-2.6625	-2.3896	-3.2708	-2.15	-2.7854	-3.0646	-2.1208	-3.0187	-2.6042	-2.3583	-87.327	-10.814	12.122	62.345	-25.202	-1.186	40.454	171.917	-5.614	22.426	102.083	24.203	88.058	207.585	82.674	110.234	0.001782	0.0012422	0.00016208	802.87	1.8699e-06	1.5844e-05	854.22	285.54	6.172e-06	1.1323e-05	369.52	148.37	114.58	52.294	1.7666e-06	78.111	0.0023677	0.0024189	0.00067687	944.09	2.6374e-05	2.6446e-05	993.44	330.44	2.649e-05	2.6773e-05	531.71	171.13	148.48	60.366	2.6706e-05	88.522	77.018	-25.344	161.552	-133.519	-114.125	-48.036	-134.345	-127.728	-136.713	-19.230	-128.949	-124.322	-123.338	-117.293	181.428	-119.904	-8191	255	
1419.885	1	1	0	0	0.12429	0.1963	0.078291	0.051063	0.12785	0.20043	0.10998	0.29476	0.25846	0.065132	0.14975	0.30697	0.16196	0.3186	0.085306	0.21291	-3.1	-2.1208	-2.5375	-3.1229	-1.9979	-2.9625	-2.8583	-2.2396	-3.3833	-2.3771	-2.6562	-3.2562	-2.1521	-3.1604	-2.8708	-2.0833	-63.044	-97.660	166.001	128.989	168.386	146.057	89.150	-138.183	60.278	211.970	-80.797	-51.356	-72.717	-135.936	168.323	120.838	0.0015516	0.00025156	0.0001553	803.21	7.1734e-06	1.0408e-05	855.76	285.18	1.0247e-05	8.2331e-06	370.79	149.07	114.61	52.334	5.98e-06	77.654	0.0023895	0.0024452	0.00067934	945.18	2.6506e-05	2.6763e-05	993.23	330.62	2.6566e-05	2.6621e-05	531.04	171.4	148.89	60.327	2.6683e-05	88.326	60.803	-130.370	-42.244	-133.480	18.625	-38.657	-134.412	-127.827	-65.748	-9.329	-129.166	-124.454	-123.678	-117.098	-24.262	-119.678	-8191	255	
1419.982	1	1	0	0	0.1017	0.15721	0.11264	0.069904	0.14135	0.18406	0.15265	0.29043	0.12129	0.3404	0.26076	0.13468	0.0461	0.16593	0.054885	0.20579	-3.0979	-2.4229	-2.2812	-3.3021	-2.0312	-2.8396	-3.1	-2.2896	-3.2146	-2.4833	-2.3854	-3.3021	-2.2979	-3.0021	-2.9896	-2.2125	-134.685	31.935	-87.225	-13.119	86.089	-105.925	-138.326	190.168	101.807	-117.924	-56.947	103.835	88.889	166.886	-37.046	185.614	0.0017294	0.00053268	9.5341e-05	801.09	7.572e-06	3.0831e-06	850.44	285.07	3.8213e-06	1.779e-05	365.01	147.79	114.16	52.033	8.7235e-06	76.886	0.0024059	0.002465	0.00068326	947.72	2.6762e-05	2.6891e-05	992.47	330.45	2.6616e-05	2.6766e-05	527.32	170.1	148.12	59.932	2.6483e-05	87.469	64.123	71.441	-1.725	-133.559	129.500	-54.758	-134.259	-127.859	132.958	32.521	-128.915	-124.261	-123.564	-117.105	66.767	-119.872	-8191	255	
1420.078	1	1	0	0	0.11203	0.095909	0.11649	0.15235	0.073581	0.18729	0.12642	0.1064	0.11073	0.085788	0.054785	0.13428	0.18596	0.16909	0.15029	0.50763	-2.9854	-2.6458	-2.1688	-3.3125	-1.8458	-2.7208	-3.3875	-2.25	-3.1146	-2.5896	-2.1417	-3.4	-2.4938	-2.5521	-3.225	-2.1437	-57.453	-80.273	168.596	111.747	176.530	76.726	139.965	-126.948	66.811	87.547	95.492	204.867	-128.368	174.552	-4.778	167.804	0.0017341	0.00062083	9.1962e-05	803.01	2.1108e-06	1.0271e-05	852.37	284.47	1.3443e-05	1.1858e-05	364.09	147.84	114.33	52.111	5.6687e-06	76.821	0.0023954	0.0024442	0.00067763	946.86	2.6637e-05	2.6702e-05	990.12	329.69	2.6548e-05	2.645e-05	525.03	169.67	147.57	59.869	2.6218e-05	87.458	75.110	-20.186	-40.948	-133.481	-78.135	14.127	-134.255	-127.693	19.136	-7.205	-128.807	-124.277	-123.069	-117.333	-128.867	-119.935	-8191	255	
1420.174	1	1	0	0	0.25658	0.058768	0.16411	0.13319	0.16322	0.25524	0.15067	0.11371	0.083824	0.14313	0.2755	0.44581	0.14187	0.31594	0.21066	0.092189	-2.7313	-2.8438	-1.9729	-3.4771	-2.1312	-2.6104	-3.3354	-2.2333	-3.0583	-2.8646	-2.0417	-3.2667	-2.3604	-2.3354	-3.15	-2.2354	-67.479	33.650	52.446	210.875	181.861	99.335	159.334	191.486	-68.430	205.065	-12.526	-117.643	66.909	176.179	204.335	-56.659	0.0017439	0.0016167	0.00025315	801.2	1.5511e-05	1.2955e-05	849.43	285.89	4.5619e-06	4.6064e-06	367.43	147.41	114.46	52.471	5.5528e-06	77.303	0.0023771	0.0024122	0.00067346	944.63	2.6489e-05	2.655e-05	989.46	330.24	2.6349e-05	2.626e-05	525.86	170.25	147.62	60.046	2.594e-05	87.852	69.730	-26.236	-47.204	-133.535	-13.296	44.742	-134.537	-128.269	-45.862	36.006	-129.236	-124.434	-123.429	-117.677	10.899	-120.242	-8191	255	
1420.293	1	1	0	0	0.080707	0.12064	0.20328	0.16819	0.11216	0.19307	0.075084	0.47878	0.098965	0.23075	0.14946	0.25933	0.2394	0.21061	0.25017	0.20677	-2.6562	-2.8646	-2.1167	-3.3688	-2.4146	-2.2333	-3.1729	-2.2896	-2.7625	-3.0792	-2.2271	-3.2083	-2.7083	-2.0979	-3.3021	-2.2917	64.278	210.339	198.060	157.062	-137.345	-52.057	108.056	209.628	-125.555	103.976	-20.152	160.144	-28.508	180.402	34.857	195.820	0.0015743	0.00062433	0.0003262	801.95	6.6939e-06	1.1351e-05	851.28	285.98	5.985e-06	7.2921e-06	367.45	148.48	114.22	52.402	9.5689e-06	78.094	0.0023637	0.0023841	0.0006659	943.64	2.6298e-05	2.6238e-05	989.62	330.42	2.6185e-05	2.6018e-05	525.54	170.96	147.84	60.211	2.6068e-05	88.494	79.907	-119.438	67.830	-133.469	70.230	-63.555	-134.193	-127.992	54.025	-28.965	-129.213	-124.384	-123.278	-117.702	-23.577	-120.148	-8191	255	
1420.389	1	1	0	0	0.20256	0.16414	0.09335	0.17114	0.23789	0.21949	0.28044	0.17718	0.025966	0.088846	0.20061	0.17519	0.063412	0.19853	0.087964	0.23248	-2.325	-2.8792	-1.9021	-3.1312	-2.6146	-2.1937	-3.2542	-2.3563	-2.4458	-3.2271	-2.3396	-3.0479	-2.9062	-2.2271	-3.2792	-2.6312	-29.708	-139.743	63.183	76.118	101.160	-5.594	119.468	68.217	180.122	159.884	182.011	178.475	118.535	197.218	-71.113	110.525	0.0023966	0.00036828	9.8112e-05	803.19	8.6425e-06	6.4052e-06	859.21	285.96	1.8776e-05	1.8878e-06	371.4	148.73	114.89	52.5	1.0395e-05	77.706	0.0023505	0.0023814	0.00066809	943.8	2.6156e-05	2.6147e-05	994.24	330.71	2.6105e-05	2.6076e-05	527.36	171.51	148.28	60.345	2.6323e-05	88.311	58.638	-145.277	45.206	-133.585	-56.187	-63.736	-134.422	-127.895	-122.350	115.115	-129.044	-124.431	-123.791	-117.304	-123.475	-120.149	-8191	255	
1420.485	1	1	0	0	0.019398	0.20777	0.042348	0.17249	0.3358	0.26522	0.26833	0.23586	0.15653	0.16509	0.14813	0.18034	0.15875	0.21339	0.036333	0.04978	-2.2021	-3.2375	-2.1	-3.0771	-2.95	-2.0396	-3.4625	-2.6021	-2.3458	-3.1417	-2.2396	-2.9542	-3.1854	-2.1646	-3.175	-2.7083	99.516	42.868	-107.903	49.150	6.563	-38.390	191.298	-128.427	-61.114	-104.236	75.378	-126.574	-95.074	144.281	143.364	146.789	0.0019458	0.0005378	0.00013221	800.31	9.5643e-06	1.1372e-05	853.26	285.29	8.0892e-06	7.8221e-06	366.25	148.22	114.01	52.169	1.3882e-05	76.595	0.0023788	0.0024186	0.00068036	947.13	2.6524e-05	2.6641e-05	992.94	331.28	2.6584e-05	2.6692e-05	529.33	170.72	148.68	60.175	2.678e-05	87.655	70.029	-78.131	8.331	-133.189	0.003	-10.053	-134.250	-128.039	-47.188	-130.622	-129.604	-124.154	-123.512	-117.521	-36.078	-120.346	-8191	255	
1420.581	1	1	0	0	0.15655	0.096282	0.19408	0.19598	0.13548	0.084996	0.16483	0.13204	0.14681	0.14925	0.19522	0.17096	0.36077	0.1657	0.18514	0.065484	-2.0458	-3.2812	-2.1104	-2.7729	-3.0646	-2.1521	-3.3688	-2.725	-2.0687	-3.3187	-2.1458	-2.725	-3.2417	-2.1979	-3.0854	-3.0375	-6.187	-114.541	-118.082	150.505	43.910	-7.438	-69.145	-122.660	59.705	124.981	116.507	-93.218	213.105	187.599	-96.375	176.103	0.0015759	0.00059063	0.0003113	800.37	8.801e-06	3.2842e-06	852.63	285.59	1.6889e-05	1.2312e-05	365.51	148.32	114.49	52.365	3.5739e-06	76.908	0.0024037	0.0024539	0.00068654	947.68	2.6728e-05	2.6982e-05	992.67	331.89	2.6979e-05	2.7086e-05	532.89	171.05	148.58	60.345	2.7138e-05	87.847	72.570	-35.609	-33.071	-133.286	13.359	1.634	-134.278	-128.115	208.315	70.754	-129.318	-124.487	-123.477	-117.332	29.945	-120.249	-8191	255	
1420.677	1	1	0	0	0.11389	0.17398	0.23684	0.29359	0.31376	0.15444	0.2535	0.098943	0.16611	0.093535	0.1651	0.10286	0.24066	0.19504	0.036168	0.15995	-1.8188	-3.1146	-2.1271	-2.6521	-3.0917	-2.0396	-2.9229	-2.7521	-1.9458	-3.2708	-2.5521	-2.5875	-3.1833	-2.2938	-2.8312	-2.8125	79.265	39.210	86.834	210.974	102.480	-141.166	132.051	20.640	21.302	-89.618	-34.354	101.357	-94.775	-144.779	190.856	86.637	0.0017977	0.0012988	0.0002385	798.07	1.0733e-05	3.8362e-06	854.87	284.39	1.2847e-05	8.5323e-06	367.2	148.1	114.19	52.2	1.309e-05	77.15	0.002406	0.0024659	0.00069057	947.71	2.6745e-05	2.7116e-05	993.98	330.69	2.678e-05	2.6909e-05	531.89	170.57	148.08	60.179	2.6867e-05	87.871	61.485	73.072	198.005	-133.590	-112.936	-3.190	-134.262	-128.065	161.795	68.810	-129.574	-124.498	-123.695	-117.262	-63.043	-120.194	-8191	255	
1420.774	1	1	0	0	0.27607	0.27888	0.16046	0.093662	0.035803	0.15458	0.070952	0.068866	0.090372	0.12027	0.063777	0.02554	0.052081	0.098643	0.024271	0.21731	-1.7812	-2.9958	-2.3563	-2.5312	-3.2021	-1.975	-2.8604	-3.2062	-2.0812	-3.1792	-2.5042	-2.4604	-3.1958	-2.3	-2.6771	-3.1708	-135.330	49.780	126.275	112.456	38.894	158.992	-119.181	-104.268	-80.327	121.038	-121.140	100.330	150.725	186.039	150.234	116.091	0.0015031	0.001114	6.3239e-05	802.25	6.5677e-06	3.017e-06	856.65	285.14	1.1287e-05	7.9276e-06	365.69	148.27	114.45	52.276	7.9978e-06	77.41	0.0024118	0.0024642	0.0006879	947.29	2.6798e-05	2.7051e-05	996.68	331.09	2.6677e-05	2.6936e-05	529.99	170.8	148.19	60.11	2.6857e-05	87.997	68.955	-36.200	-54.823	-134.014	-119.484	19.570	-134.657	-128.284	-77.359	-45.494	-129.964	-125.085	-123.961	-117.737	-39.632	-120.406	-8191	255	
1420.894	1	1	0	0	0.025356	0.034903	0.16924	0.19159	0.16821	0.15464	0.19834	0.1228	0.085804	0.11978	0.10129	0.26763	0.058526	0.15288	0.046841	0.12847	-1.9854	-2.9813	-2.5312	-2.4	-3.425	-2.4813	-2.8396	-3.35	-2.2708	-3.1208	-2.6292	-2.1833	-3.2313	-2.4813	-2.4792	-3.3542	-25.082	-76.352	-0.854	139.459	9.120	190.910	117.428	-93.005	37.379	67.921	-45.078	70.653	2.112	191.921	-4.756	-86.779	0.0015462	0.00098955	0.00012793	805.4	9.7839e-06	1.3552e-05	857.6	286.79	1.2489e-05	5.2658e-06	366.59	147.93	114.24	52.238	8.1794e-06	77.219	0.0023945	0.0024616	0.00068519	948.91	2.6794e-05	2.6988e-05	997.8	331.42	2.6642e-05	2.6778e-05	532.11	170.98	148.54	60.139	2.67e-05	87.777	68.563	-102.722	30.611	-133.859	-49.295	-20.648	-134.397	-128.348	-56.761	193.678	-129.544	-124.562	-123.607	-117.576	11.008	-120.400	-8191	255	
1420.989	1	1	0	0	0.23186	0.10999	0.21973	0.38653	0.15798	0.23937	0.29822	0.13389	0.11072	0.30429	0.15686	0.031631	0.1141	0.33301	0.13284	0.13081	-1.8167	-2.8896	-2.9417	-2.1604	-3.1813	-2.3979	-2.5729	-3.3063	-2.0979	-2.7854	-2.9437	-2.1354	-3.3042	-2.675	-2.4271	-3.4208	-131.583	6.895	60.156	199.915	-41.465	-132.163	120.021	47.924	137.206	183.906	-134.033	40.977	205.694	-48.356	168.545	-31.979	0.0018643	0.00035191	9.68e-05	805.87	1.6095e-06	1.1382e-05	851.47	285.48	5.943e-06	1.158e-05	367.61	147.15	114.79	51.916	1.163e-05	76.964	0.0023993	0.0024478	0.00067842	948.87	2.6686e-05	2.6892e-05	994.24	330.77	2.6735e-05	2.6916e-05	528.17	169.95	148.48	60.037	2.6585e-05	87.462	68.317	-10.742	-19.728	-133.795	-135.101	92.268	-134.625	-127.649	-76.024	-34.153	-129.406	-124.162	-123.638	-117.280	-15.504	-119.951	-8191	255	
1421.062	1	1	0	0	0.055556	0.25433	0.14557	0.21152	0.20895	0.18549	0.32163	0.15743	0.37723	0.16047	0.043536	0.17283	0.23403	0.3565	0.25661	0.076563	-1.8667	-2.9146	-2.7146	-2.1063	-3.1104	-2.6167	-2.35	-3.2208	-2.0229	-2.8729	-3.2292	-2.0563	-3.1854	-2.7042	-2.1479	-3.35	-37.377	77.447	83.604	-129.477	36.301	95.269	161.808	-62.095	32.291	66.211	-29.862	173.053	-102.227	-144.907	-22.822	-135.769	0.0015794	0.00032939	0.0001051	802.4	6.0738e-06	8.085e-06	854.22	286.19	1.3998e-05	1.3906e-05	368.54	147.35	114.13	52.28	1.5624e-05	76.759	0.0024088	0.0024599	0.00068026	947.47	2.6855e-05	2.6914e-05	993.04	331.26	2.6672e-05	2.6839e-05	528.48	170.04	148.36	60.075	2.6432e-05	87.505	84.532	-22.131	-3.030	-133.584	127.779	-12.589	-134.358	-128.040	147.809	75.508	-128.620	-124.272	-123.528	-117.566	-66.050	-120.301	-8191	255	
1421.181	1	1	0	0	0.1753	0.27933	0.19601	0.19874	0.10281	0.20542	0.34515	0.18948	0.16451	0.031399	0.2957	0.19739	0.30456	0.29322	0.082938	0.17702	-1.7729	-2.5062	-2.9792	-2.1396	-3.0604	-2.85	-2.2958	-3.2896	-2.2854	-2.4083	-3.3917	-2.0333	-2.9729	-3.0333	-2.1833	-3.3521	-114.079	202.746	-24.925	-141.962	-18.227	85.423	143.503	134.684	130.517	-84.707	-21.184	183.305	23.395	171.612	-105.750	154.751	0.0016396	0.00051006	0.00011492	803.01	1.3173e-05	3.5893e-06	857.55	285.38	6.9816e-06	5.2767e-06	370.09	148.05	114.55	52.494	1.3338e-05	77.617	0.0024021	0.0024351	0.00067727	945.33	2.674e-05	2.6627e-05	994.59	331.43	2.6806e-05	2.6755e-05	530.01	170.79	148.9	60.451	2.6418e-05	88.123	65.946	184.649	42.464	-133.724	-67.914	-28.291	-134.227	-127.984	130.334	160.606	-129.291	-124.513	-123.306	-117.532	-42.300	-120.054	-8191	255	
1421.277	1	1	0	0	0.17439	0.24473	0.11919	0.096435	0.03406	0.20814	0.27205	0.26067	0.13318	0.1333	0.21475	0.26193	0.20288	0.31261	0.12472	0.062878	-2.0208	-2.3896	-3.2333	-2.3021	-2.7562	-3.0958	-2.3458	-3.2271	-2.6437	-2.4125	-3.2667	-2.1354	-2.9479	-3.175	-2.0833	-3.1958	203.296	7.764	-118.209	3.775	133.577	95.753	125.229	-90.512	213.630	104.181	41.211	-143.614	176.139	43.853	-53.786	210.746	0.0017876	0.00037672	0.00026813	802.63	1.5463e-05	4.9747e-06	857.36	286.33	9.5608e-06	8.1081e-06	371.58	148.22	115.69	52.624	1.3589e-05	77.546	0.0023942	0.002437	0.00068085	946.68	2.6913e-05	2.6681e-05	995.5	331.76	2.6797e-05	2.6841e-05	530.83	171.32	149.35	60.556	2.6592e-05	88.648	62.718	-34.993	-85.330	-133.362	-23.171	94.387	-134.135	-127.778	-28.757	45.971	-129.453	-124.530	-123.205	-117.178	-7.514	-120.122	-8191	255	
1421.373	1	1	0	0	0.17418	0.050018	0.15103	0.20454	0.091535	0.020868	0.21973	0.10253	0.15988	0.21236	0.26261	0.17078	0.092812	0.43547	0.26705	0.075148	-2.2833	-2.1937	-3.2062	-2.5229	-2.6396	-3.2083	-2.1979	-3.2667	-2.75	-2.2354	-3.1729	-2.5208	-2.65	-3.3396	-1.9208	-3.0312	59.593	-35.580	-62.267	121.672	-101.162	-17.353	108.325	-123.841	-124.644	194.592	-145.659	-144.872	2.339	-142.617	186.475	191.956	0.0021303	0.00099085	0.00035883	805.64	1.5099e-05	8.3718e-06	854.94	285.91	9.8153e-06	1.027e-05	369.64	148.68	114.95	52.502	1.0673e-05	77.297	0.0024219	0.0024391	0.0006824	948.65	2.6789e-05	2.6694e-05	995.85	331.96	2.6679e-05	2.6559e-05	531.88	171.01	148.81	60.411	2.6844e-05	88.246	75.144	-84.059	-129.671	-133.558	-9.357	73.834	-134.416	-127.832	60.495	-34.286	-129.716	-124.716	-123.246	-117.468	-34.678	-120.111	-8191	255	
1421.469	1	1	0	0	0.28028	0.16501	0.10204	0.013286	0.23756	0.29881	0.21144	0.29985	0.12702	0.10006	0.19044	0.26765	0.19984	0.11472	0.065266	0.26273	-2.4667	-2.1146	-3.2229	-2.5	-2.3979	-3.2146	-2.2062	-2.9813	-2.7604	-2.1	-3.4083	-2.4917	-2.5	-3.325	-2.0771	-3.0042	-141.132	81.797	-68.452	70.809	20.861	97.145	151.568	169.001	-93.468	-101.219	-137.891	206.285	200.137	25.532	-104.139	-142.915	0.0020045	0.00050135	0.00038856	802.34	1.9593e-05	8.2176e-06	853.25	284.8	1.0835e-05	4.981e-06	364.55	146.7	113.91	52.338	6.7763e-06	76.73	0.0024159	0.0024702	0.00068887	948.14	2.6929e-05	2.6946e-05	994.24	331.78	2.6805e-05	2.6995e-05	530.68	169.79	148.36	60.246	2.6984e-05	87.496	70.916	-51.115	-65.503	-133.804	-8.178	13.926	-134.455	-127.966	-96.858	20.255	-128.837	-124.579	-123.185	-117.637	135.616	-120.007	-8191	255	
1421.590	1	1	0	0	0.16392	0.11172	0.13008	0.27552	0.13929	0.16929	0.18286	0.183	0.11945	0.073259	0.11383	0.32789	0.18665	0.033149	0.31704	0.33879	-2.6292	-2.2333	-3.1188	-2.6521	-2.2625	-3.1792	-2.4875	-2.8542	-2.9583	-1.9104	-3.1479	-2.6771	-2.3229	-3.3167	-2.2	-2.7979	-16.683	2.975	-121.337	93.709	1.164	-17.425	26.643	37.161	182.144	-142.304	98.927	149.249	152.590	-2.188	-1.153	213.476	0.0017343	0.00048292	0.00014503	802.31	8.4913e-06	5.9169e-06	857.14	286.06	2.5882e-06	1.2611e-05	366.38	146.86	114.58	52.312	7.577e-07	76.867	0.0024137	0.0024729	0.00069285	947.66	2.6988e-05	2.6929e-05	994.22	331.82	2.6928e-05	2.7038e-05	530.9	169.92	148.33	60.187	2.7045e-05	87.649	71.925	14.134	-125.933	-133.572	71.214	-26.564	-134.281	-127.962	-0.048	55.216	-129.034	-124.516	-123.465	-117.501	-59.281	-120.172	-8191	255	
1421.662	1	1	0	0	0.15115	0.34066	0.16534	0.0025065	0.24831	0.18515	0.2217	0.35401	0.064601	0.35548	0.18716	0.12347	0.081121	0.11641	0.274	0.14755	-2.7417	-2.0438	-3.1229	-2.7458	-2.05	-3.3021	-2.4729	-2.6813	-3.1937	-2.0938	-3.0271	-3.0604	-2.0938	-3.3125	-2.2958	-2.3854	118.166	105.311	157.359	-82.286	63.923	-87.781	153.310	186.747	-2.598	-65.798	156.186	-137.381	121.850	206.586	28.712	150.072	0.0018676	0.00062064	0.00018587	799.3	7.1403e-06	1.0803e-05	851.51	285.47	6.3646e-06	7.8059e-06	368.94	146.97	114.57	52.332	1.3269e-05	77.012	0.0024278	0.0024815	0.00069815	948.71	2.7022e-05	2.7244e-05	994.61	331.48	2.7072e-05	2.7178e-05	533.4	170.31	148.82	60.346	2.7431e-05	87.84	71.019	-36.632	-72.391	-133.887	-82.563	-99.757	-134.460	-128.048	6.225	105.203	-129.712	-124.371	-123.458	-117.633	-105.965	-120.028	-8191	255	
1421.758	1	1	0	0	0.077793	0.19849	0.15182	0.10058	0.087084	0.21246	0.17758	0.29155	0.093777	0.19866	0.13884	0.25393	0.10571	0.18337	0.16278	0.10789	-2.9125	-1.8625	-2.9479	-2.9146	-2.1229	-3.0896	-2.3937	-2.5396	-3.2062	-2.0417	-2.9229	-3.1188	-2.0958	-3.5125	-2.5854	-2.3042	142.617	210.626	43.148	172.181	-81.663	28.229	95.628	182.900	183.377	-83.020	-60.871	145.778	-130.153	212.187	172.621	-129.373	0.0018889	0.0007106	0.00027007	802.95	8.4032e-06	6.6206e-06	855.75	285.32	1.7069e-05	1.3904e-05	368.67	147.64	114.25	52.386	7.6791e-06	77.379	0.0024368	0.002503	0.00069752	949.18	2.7221e-05	2.7501e-05	998.29	331.86	2.7046e-05	2.7361e-05	533.62	170.73	149.15	60.487	2.7424e-05	88.295	72.389	53.085	-70.661	-133.623	-65.720	-111.266	-134.416	-127.997	-92.710	-76.002	-129.154	-124.555	-123.571	-117.260	11.374	-120.241	-8191	255	
1421.854	1	1	0	0	0.068572	0.23053	0.10123	0.058042	0.17057	0.1178	0.23559	0.13441	0.35188	0.11173	0.07923	0.2538	0.20834	0.28323	0.10687	0.12003	-3.0458	-2.2521	-2.775	-3.1	-2.2062	-3.2042	-2.7875	-2.3312	-3.2521	-2.1417	-2.6396	-3.1833	-2	-3.2604	-2.7875	-2.5083	-111.520	83.066	49.294	208.859	51.897	-66.184	164.514	180.205	131.000	-41.987	23.249	193.327	-47.893	-119.096	-44.450	80.502	0.0017623	0.00088721	0.000247	807.55	5.5421e-06	5.0275e-06	853.74	287.49	2.65e-06	2.0908e-05	368.71	146.66	114.08	52.181	1.603e-05	76.826	0.0024635	0.0025225	0.00070613	953.24	2.7469e-05	2.7774e-05	1000.3	332.94	2.7393e-05	2.7406e-05	534.94	170.52	149.02	60.224	2.73e-05	87.548	60.239	-20.649	93.946	-133.717	169.685	138.180	-134.380	-127.858	-21.150	15.160	-129.511	-124.388	-123.625	-117.360	-4.897	-119.779	-8191	255	
1421.975	1	1	0	0	0.098544	0.078175	0.054671	0.20248	0.14666	0.15539	0.024349	0.19019	0.076764	0.15424	0.20565	0.3082	0.33574	0.18145	0.24379	0.19908	-3.1854	-2.4188	-2.5396	-3.4479	-2.1375	-3.0667	-2.9125	-2.3729	-3.2604	-2.5458	-2.4771	-3.35	-2.0958	-3.1771	-2.8312	-2.2354	-122.335	-37.035	103.062	188.336	22.512	26.963	179.223	112.883	143.004	126.921	213.247	196.131	171.251	-118.649	-22.053	168.838	0.0019785	0.00077354	9.4431e-05	806.22	1.234e-05	8.692e-06	852.66	287.56	5.9957e-06	4.1374e-06	366.65	147.09	114.38	51.976	1.4672e-05	76.727	0.0024604	0.0025199	0.00069947	952.07	2.7629e-05	2.7734e-05	998.36	333.09	2.7482e-05	2.7556e-05	533.79	170.03	148.89	60.198	2.7138e-05	87.344	59.813	-23.521	152.567	-133.581	174.529	75.481	-134.433	-127.688	88.683	-94.575	-128.633	-124.321	-123.193	-117.332	-85.242	-119.959	-8191	255	
1422.069	1	1	0	0	0.045348	0.38148	0.16308	0.29225	0.05713	0.24436	0.085404	0.1265	0.083769	0.15363	0.07177	0.20059	0.16202	0.14441	0.11905	0.47172	-3.0271	-2.3521	-2.4	-3.3333	-2.0396	-2.8729	-3.2562	-2.075	-3.1667	-2.5229	-2.1833	-3.5208	-2.2229	-2.8792	-3.0458	-2.0583	-6.836	74.988	207.793	86.970	-95.253	109.633	80.510	206.718	175.088	-58.067	103.482	-111.870	178.547	159.263	-60.398	187.857	0.0018769	0.00050628	0.00014283	801.36	1.5022e-05	6.8731e-06	853.6	285.35	1.1781e-05	6.4567e-06	363.6	146.9	114.63	52.206	3.6035e-06	77.056	0.002455	0.0025053	0.0006973	949.7	2.7415e-05	2.7549e-05	994.86	331.37	2.7516e-05	2.7563e-05	531.99	170.09	149.02	60.397	2.707e-05	87.692	58.470	5.040	-82.173	-133.522	-106.847	50.792	-134.394	-127.935	187.676	53.250	-129.451	-124.476	-123.507	-117.318	67.089	-120.033	-8191	255	
1422.167	1	1	0	0	0.16597	0.022803	0.26144	0.072452	0.10471	0.14734	0.1799	0.13365	0.14482	0.037069	0.044298	0.17566	0.074209	0.38879	0.04138	0.18339	-2.6083	-2.6979	-2.2958	-3.3229	-2.2042	-2.6542	-3.3292	-2.0458	-2.9375	-2.6562	-2.2604	-3.3854	-2.3458	-2.4979	-3.2	-2.2479	60.674	-87.822	-117.744	62.913	21.001	-37.181	31.974	140.178	-99.207	144.214	114.973	123.163	0.655	175.355	158.218	68.183	0.0014281	0.00073063	0.00034403	801.46	3.2814e-06	1.0821e-05	852.17	285.18	6.5143e-06	7.0189e-06	365.98	147.3	114.32	52.358	1.6099e-05	76.81	0.002461	0.0025034	0.00069391	948.59	2.7458e-05	2.7512e-05	995.08	331.72	2.7384e-05	2.7483e-05	533.23	170.76	149.46	60.43	2.7134e-05	87.926	51.865	21.856	-73.339	-133.657	-84.982	16.376	-134.243	-127.804	72.786	-18.343	-129.302	-124.331	-123.503	-117.466	-5.895	-120.277	-8191	255	
#DATA ENDS
