BOXY.EXE: ISS Imagent and Oximeter Data Acquisition Program Version 0.80
Ascii Record File

#ACQ INFORMATION
2  Detector Channels 
16  External MUX Channels 
1  Auxiliary Channels 
5000  Waveform (CCF) Frequency (Hz)
1  Waveforms Skipped 
30  Waveforms Averaged 
1  Cycles Averaged 
16  Acquisitions per Waveform 
10.0806  Updata Rate (Hz) 

#FILE INFORMATION
TRUE -- External MUX Channel results are PARSED.
FALSE -- AC DC and Phase are NOT grouped.
TRUE -- Companion Program Settings File CREATED.
FALSE -- AC data not excluded
FALSE -- DC data not excluded
FALSE -- Phase data not excluded
FALSE -- Auxillary Chn. data not excluded
Tab delimiters

#CALIBRATION STATE
TRUE -- Waveform Calibration Values APPLIED.


#AUX CALIBRATION VALUES
Val Type	aux-1	

Term	1.0000e+00	
Factor	0.0000e+00	


#WF CALIBRATION VALUES
A = Detector Channel
Val Type	A-AC1	A-AC2	A-AC3	A-AC4	A-AC5	A-AC6	A-AC7	A-AC8	A-AC9	A-AC10	A-AC11	A-AC12	A-AC13	A-AC14	A-AC15	A-AC16	A-DC1	A-DC2	A-DC3	A-DC4	A-DC5	A-DC6	A-DC7	A-DC8	A-DC9	A-DC10	A-DC11	A-DC12	A-DC13	A-DC14	A-DC15	A-DC16	A-Ph1	A-Ph2	A-Ph3	A-Ph4	A-Ph5	A-Ph6	A-Ph7	A-Ph8	A-Ph9	A-Ph10	A-Ph11	A-Ph12	A-Ph13	A-Ph14	A-Ph15	A-Ph16	

Term	0.00000e+00	0.00000e+00	0.00000e+00	0.00000e+00	0.00000e+00	0.00000e+00	0.00000e+00	0.00000e+00	0.00000e+00	0.00000e+00	0.00000e+00	0.00000e+00	0.00000e+00	0.00000e+00	0.00000e+00	0.00000e+00	0.00000e+00	0.00000e+00	0.00000e+00	0.00000e+00	0.00000e+00	0.00000e+00	0.00000e+00	0.00000e+00	0.00000e+00	0.00000e+00	0.00000e+00	0.00000e+00	0.00000e+00	0.00000e+00	0.00000e+00	0.00000e+00	0.00000e+00	0.00000e+00	0.00000e+00	0.00000e+00	0.00000e+00	0.00000e+00	0.00000e+00	0.00000e+00	0.00000e+00	0.00000e+00	0.00000e+00	0.00000e+00	0.00000e+00	0.00000e+00	0.00000e+00	0.00000e+00	
Factor	1.00000e+00	1.00000e+00	1.00000e+00	1.00000e+00	1.00000e+00	1.00000e+00	1.00000e+00	1.00000e+00	1.00000e+00	1.00000e+00	1.00000e+00	1.00000e+00	1.00000e+00	1.00000e+00	1.00000e+00	1.00000e+00	1.00000e+00	1.00000e+00	1.00000e+00	1.00000e+00	1.00000e+00	1.00000e+00	1.00000e+00	1.00000e+00	1.00000e+00	1.00000e+00	1.00000e+00	1.00000e+00	1.00000e+00	1.00000e+00	1.00000e+00	1.00000e+00	X	X	X	X	X	X	X	X	X	X	X	X	X	X	X	X	

B = Detector Channel
Val Type	B-AC1	B-AC2	B-AC3	B-AC4	B-AC5	B-AC6	B-AC7	B-AC8	B-AC9	B-AC10	B-AC11	B-AC12	B-AC13	B-AC14	B-AC15	B-AC16	B-DC1	B-DC2	B-DC3	B-DC4	B-DC5	B-DC6	B-DC7	B-DC8	B-DC9	B-DC10	B-DC11	B-DC12	B-DC13	B-DC14	B-DC15	B-DC16	B-Ph1	B-Ph2	B-Ph3	B-Ph4	B-Ph5	B-Ph6	B-Ph7	B-Ph8	B-Ph9	B-Ph10	B-Ph11	B-Ph12	B-Ph13	B-Ph14	B-Ph15	B-Ph16	

Term	0.00000e+00	0.00000e+00	0.00000e+00	0.00000e+00	0.00000e+00	0.00000e+00	0.00000e+00	0.00000e+00	0.00000e+00	0.00000e+00	0.00000e+00	0.00000e+00	0.00000e+00	0.00000e+00	0.00000e+00	0.00000e+00	0.00000e+00	0.00000e+00	0.00000e+00	0.00000e+00	0.00000e+00	0.00000e+00	0.00000e+00	0.00000e+00	0.00000e+00	0.00000e+00	0.00000e+00	0.00000e+00	0.00000e+00	0.00000e+00	0.00000e+00	0.00000e+00	-2.60428e+02	-1.10120e+02	-1.35771e+02	-1.82358e+02	-8.82290e+01	-8.01576e+01	-1.56915e+02	-1.62015e+02	-1.40806e+02	-6.49328e+01	-1.82532e+02	-1.70017e+02	-1.83467e+02	-1.76494e+02	-8.40987e+01	-1.49052e+02	
Factor	5.47524e-05	1.28517e-04	3.34994e-05	1.65911e-01	1.40518e-06	1.31051e-06	1.63629e-01	5.02796e-02	1.91554e-06	1.41169e-06	2.54980e-01	2.65488e-02	4.71564e-02	8.70794e-03	1.47822e-06	1.22069e-02	1.50795e-06	1.56019e-06	4.34946e-07	8.49721e-02	1.70309e-08	1.70813e-08	7.89962e-02	2.58188e-02	1.70192e-08	1.70604e-08	1.17178e-01	1.31686e-02	2.32700e-02	4.46970e-03	1.70381e-08	6.05392e-03	X	X	X	X	X	X	X	X	X	X	X	X	X	X	X	X	



#DISTANCE SETTINGS
A = Detector Channel
A-1	A-2	A-3	A-4	A-5	A-6	A-7	A-8	A-9	A-10	A-11	A-12	A-13	A-14	A-15	A-16	

2.5000e+00	3.0000e+00	2.5000e+00	3.0000e+00	2.0000e+00	3.0000e+00	1.5000e+00	3.0000e+00	3.0000e+00	3.0000e+00	3.0000e+00	3.0000e+00	3.0000e+00	3.0000e+00	1.5000e+00	3.0000e+00	

B = Detector Channel
B-1	B-2	B-3	B-4	B-5	B-6	B-7	B-8	B-9	B-10	B-11	B-12	B-13	B-14	B-15	B-16	

1.0000e+01	1.0000e+01	1.0000e+01	1.4400e+00	1.0000e+01	1.0000e+01	1.5100e+00	1.9400e+00	1.0000e+01	1.0000e+01	1.9900e+00	2.4900e+00	2.4100e+00	2.9000e+00	1.0000e+01	2.9800e+00	




#DATA BEGINS
time	group	step	mark	flag	A-AC1	A-AC2	A-AC3	A-AC4	A-AC5	A-AC6	A-AC7	A-AC8	A-AC9	A-AC10	A-AC11	A-AC12	A-AC13	A-AC14	A-AC15	A-AC16	A-DC1	A-DC2	A-DC3	A-DC4	A-DC5	A-DC6	A-DC7	A-DC8	A-DC9	A-DC10	A-DC11	A-DC12	A-DC13	A-DC14	A-DC15	A-DC16	A-Ph1	A-Ph2	A-Ph3	A-Ph4	A-Ph5	A-Ph6	A-Ph7	A-Ph8	A-Ph9	A-Ph10	A-Ph11	A-Ph12	A-Ph13	A-Ph14	A-Ph15	A-Ph16	B-AC1	B-AC2	B-AC3	B-AC4	B-AC5	B-AC6	B-AC7	B-AC8	B-AC9	B-AC10	B-AC11	B-AC12	B-AC13	B-AC14	B-AC15	B-AC16	B-DC1	B-DC2	B-DC3	B-DC4	B-DC5	B-DC6	B-DC7	B-DC8	B-DC9	B-DC10	B-DC11	B-DC12	B-DC13	B-DC14	B-DC15	B-DC16	B-Ph1	B-Ph2	B-Ph3	B-Ph4	B-Ph5	B-Ph6	B-Ph7	B-Ph8	B-Ph9	B-Ph10	B-Ph11	B-Ph12	B-Ph13	B-Ph14	B-Ph15	B-Ph16	aux-1	digaux	

590.934	1	1	0	256	0.23951	0.0042041	0.19922	0.40129	0.099801	0.26012	0.076769	0.15756	0.20425	0.19029	0.15569	0.28219	0.076916	0.070689	0.1203	0.084865	-1.9417	-3.0792	-2.9229	-2.4354	-3.2354	-2.4958	-2.6833	-3.4437	-2.0146	-2.8792	-3.0021	-2.175	-3.2896	-2.6083	-2.3021	-3.4729	237.827	-48.967	-4.230	-82.682	44.678	-13.158	164.564	250.600	134.559	242.200	228.361	-63.284	139.113	155.517	31.840	70.853	0.00068522	0.00066966	0.00022414	1379.7	5.7207e-06	4.6335e-06	1360.4	371.84	9.4775e-06	9.2464e-06	424.24	141.14	122.78	42.034	4.4298e-06	51.838	0.00077323	0.00077775	0.00021594	1407.4	8.4673e-06	8.5392e-06	1394.4	383.01	8.5894e-06	8.5691e-06	450.24	146.08	129.04	43.773	8.6034e-06	54.198	62.402	40.522	-36.201	-94.047	136.727	133.143	-94.148	-89.470	-71.772	107.746	-89.885	-85.612	-85.418	-80.707	71.973	-81.463	-8191	255	
591.030	1	1	0	0	0.082363	0.068752	0.14362	0.11411	0.19251	0.061036	0.23953	0.19386	0.16692	0.10637	0.2068	0.34492	0.14157	0.22749	0.07403	0.16106	-1.7938	-2.95	-2.9771	-2.3896	-3.2438	-2.6375	-2.3729	-3.4979	-2.1979	-2.8354	-3.2292	-2.2333	-3.3688	-2.675	-2.2875	-3.55	133.000	221.991	194.495	-64.867	-101.336	100.424	176.637	182.428	198.505	-0.292	-87.721	-101.242	199.336	-92.083	101.869	190.543	0.00078284	0.00053746	0.00015256	1377.8	8.4886e-06	7.9807e-06	1361.3	372.49	7.8253e-06	4.6279e-06	426.92	141.03	123.96	41.832	8.6022e-06	51.632	0.00079327	0.00079593	0.00022263	1408.3	8.8713e-06	8.8145e-06	1397.7	383.95	8.9386e-06	8.9041e-06	453.49	146.21	129.5	43.721	8.9034e-06	54.208	61.773	-2.093	-25.877	-94.018	-11.740	163.441	-94.012	-89.366	-14.192	58.852	-90.021	-85.479	-85.449	-80.437	30.823	-81.261	-8191	255	
591.151	1	1	0	0	0.2087	0.10187	0.11151	0.061743	0.28103	0.23879	0.26942	0.18621	0.048197	0.14826	0.11252	0.070967	0.080628	0.27476	0.021915	0.12132	-2.1542	-2.5875	-3.1604	-2.4125	-3.0646	-2.6542	-2.4625	-3.4771	-2.5187	-2.6875	-3.3479	-2.2708	-3.2562	-2.8271	-2.1021	-3.4146	27.303	122.162	138.061	231.714	159.451	123.382	190.717	146.102	205.773	37.705	215.109	-35.592	55.828	200.335	108.572	155.105	0.00061464	0.0010797	0.00011037	1379	3.8175e-06	5.6372e-06	1358.9	371.31	1.85e-06	7.2311e-06	426.2	140.39	122.59	41.686	6.448e-06	51.573	0.00081441	0.00082522	0.0002278	1409.7	8.9456e-06	8.9381e-06	1395.6	383.36	8.915e-06	8.8925e-06	452.78	145.91	129.34	43.608	8.9049e-06	54.163	61.489	-12.535	-80.289	-94.010	105.642	38.688	-94.226	-89.306	178.481	76.356	-89.934	-85.824	-85.207	-80.300	122.442	-81.108	-8191	255	
591.247	1	1	0	0	0.2074	0.10269	0.16745	0.26173	0.29207	0.14501	0.30628	0.26591	0.17652	0.094802	0.18107	0.26008	0.16744	0.10211	0.1533	0.16157	-2.0854	-2.6333	-3.2771	-2.4333	-3.0396	-2.8708	-2.3167	-3.2542	-2.6417	-2.2917	-3.4958	-2.0062	-2.8833	-3.3208	-1.9375	-3.3417	8.368	127.872	187.444	241.320	109.060	37.332	200.434	245.306	-13.694	156.885	24.446	144.530	-49.342	-104.004	30.929	227.992	0.00049216	0.00031011	4.4153e-05	1375.8	1.8548e-06	6.1512e-06	1358.7	371.73	3.0689e-06	1.591e-06	424.41	139.87	122.82	41.696	5.4128e-06	51.636	0.00081263	0.00081747	0.00022862	1407.7	9.0306e-06	8.9779e-06	1394.1	383.39	9.0388e-06	8.941e-06	453.94	145.67	129.01	43.576	9.0304e-06	54.137	62.320	-13.552	-6.531	-93.953	44.523	37.887	-94.090	-89.357	198.042	-24.127	-89.391	-85.434	-85.327	-80.450	183.668	-81.213	-8191	255	
591.319	1	1	0	0	0.095347	0.047361	0.13671	0.11544	0.14939	0.29763	0.074436	0.19823	0.01228	0.27762	0.14248	0.1576	0.21759	0.19953	0.23531	0.27186	-2.1562	-2.4562	-3.3146	-2.5042	-3.0125	-3.3979	-2.3354	-3.4792	-2.6583	-2.3042	-3.3292	-2.5583	-2.6771	-3.2812	-2.0792	-3.2896	13.612	113.550	199.844	-100.753	4.554	155.813	170.688	126.105	58.822	5.105	191.768	-64.360	-62.629	-77.624	144.916	239.751	0.00057918	0.00034956	0.00026411	1377.7	7.752e-06	7.6718e-06	1360.6	372.51	1.3845e-05	6.536e-06	426.67	139.36	122.91	41.589	4.667e-06	51.582	0.00082176	0.00081803	0.00022839	1406.4	9.0261e-06	9.0285e-06	1393.5	383.18	9.0219e-06	9.0346e-06	454.17	145.27	129.37	43.575	9.0523e-06	54.16	71.161	-27.298	-75.312	-93.964	-42.557	30.722	-94.132	-89.490	-36.024	-23.452	-89.679	-85.640	-85.602	-80.390	-26.428	-81.178	-8191	255	
591.415	1	1	0	0	0.14568	0.10402	0.19104	0.30287	0.05771	0.10956	0.26366	0.087321	0.038519	0.20063	0.10518	0.37366	0.33234	0.19825	0.047062	0.073842	-2.5021	-2.1979	-3.4062	-2.4583	-2.6479	-3.375	-2.3146	-3.1875	-2.8563	-2.2417	-3.45	-2.6667	-2.5708	-3.2146	-2.3333	-3.0292	-87.925	-42.366	62.857	-84.392	162.358	-25.122	165.887	-86.708	-7.273	-43.704	87.701	164.100	209.360	173.657	140.640	174.231	0.00066078	0.00066721	8.7677e-05	1376.1	2.2453e-06	7.8158e-06	1359.1	372.02	4.0447e-06	7.3364e-06	429.91	140.35	122.12	41.734	6.1948e-06	51.361	0.00082454	0.00083531	0.00023281	1407.4	9.1563e-06	9.113e-06	1392.1	383.9	9.1146e-06	9.1457e-06	454.88	145.76	129.33	43.597	9.2453e-06	54.084	67.517	10.257	-7.004	-93.936	104.243	73.142	-94.010	-89.533	-42.855	70.611	-89.798	-85.555	-85.486	-80.562	103.541	-81.034	-8191	255	
591.535	1	1	0	0	0.089533	0.088369	0.13946	0.096957	0.25792	0.33583	0.092111	0.2821	0.079226	0.1186	0.1067	0.050858	0.09385	0.34906	0.16052	0.18078	-2.8563	-2.1167	-3.4	-2.8583	-2.4396	-3.3896	-2.4583	-3.0938	-3.0708	-1.9937	-3.1396	-2.9646	-2.3542	-3.3729	-2.3479	-2.7646	92.318	161.805	-105.904	-103.213	-96.173	11.021	-37.601	250.805	6.808	-38.906	-27.382	173.752	195.697	230.161	27.043	140.138	0.00076264	0.00011298	5.9532e-05	1372.5	9.3808e-06	1.8219e-06	1352.3	372.97	8.6274e-06	6.2764e-06	426.95	139.45	122.14	41.686	1.6352e-06	51.673	0.00083246	0.00084382	0.00023594	1406.9	9.1977e-06	9.1735e-06	1390.4	384.06	9.2169e-06	9.1807e-06	454.82	145.55	129.17	43.557	9.2335e-06	54.149	71.772	28.077	32.243	-93.956	-65.695	53.314	-94.283	-89.347	3.983	52.686	-89.777	-85.701	-85.117	-80.264	-50.402	-81.132	-8191	255	
591.632	1	1	0	0	0.072217	0.05526	0.12913	0.14085	0.31517	0.087833	0.29197	0.25488	0.074419	0.38719	0.15734	0.094763	0.19134	0.13265	0.096546	0.050498	-3.0292	-2.1271	-3.2646	-2.7521	-2.3979	-3.1229	-2.7021	-2.75	-3.1937	-2.1437	-3.1	-2.825	-2.2521	-3.5708	-2.1979	-2.6167	14.742	-47.467	238.048	-47.292	-15.152	-47.712	203.044	200.599	-51.202	240.453	-55.166	111.741	185.638	169.640	-72.143	164.532	0.00048019	0.00018498	5.0605e-05	1372.1	7.8155e-06	6.1102e-06	1357.4	371.09	1.2562e-05	4.8532e-06	426.55	140.29	122.67	41.763	8.0131e-06	51.452	0.00083747	0.00084319	0.00023652	1406.4	9.1681e-06	9.1405e-06	1393.4	383.78	9.0632e-06	9.1752e-06	454.5	145.86	129.13	43.717	9.1509e-06	54.154	54.651	39.041	37.570	-94.030	37.978	97.808	-94.166	-89.289	-79.038	66.723	-90.074	-85.530	-85.390	-80.357	60.161	-81.359	-8191	255	
591.728	1	1	0	0	0.11825	0.15613	0.088341	0.37865	0.14507	0.21447	0.2339	0.14722	0.15383	0.13738	0.22945	0.27945	0.24341	0.20753	0.16868	0.18982	-2.9333	-2.1312	-3.0604	-2.9667	-2.3354	-3.3604	-2.7542	-2.7521	-3.4396	-2.075	-3.0938	-3.2292	-2.2625	-3.3854	-2.4708	-2.3125	-25.299	212.606	78.805	-68.164	29.100	211.818	144.752	154.266	89.319	-45.304	223.271	68.152	161.585	219.835	70.950	210.187	0.00085265	0.00016108	0.00021638	1370.3	3.0356e-06	3.5531e-06	1355.7	372.46	6.1448e-06	1.2743e-05	426.84	140.65	122.69	41.76	2.2803e-06	51.598	0.00081712	0.00083116	0.00023168	1406.2	9.1137e-06	9.0738e-06	1393.2	383.41	9.0854e-06	9.1246e-06	454.36	145.87	129.04	43.633	9.1995e-06	54.103	77.875	129.264	47.884	-93.964	-57.008	65.133	-94.101	-89.301	75.948	7.813	-90.122	-85.701	-85.573	-80.035	179.209	-80.824	-8191	255	
591.824	1	1	0	0	0.32491	0.19413	0.15394	0.15709	0.24644	0.14374	0.071598	0.27198	0.13396	0.04065	0.16847	0.085742	0.11767	0.088331	0.10243	0.45006	-2.9083	-2.3833	-2.825	-3.3312	-2.1479	-3.3167	-2.8292	-2.5646	-3.3458	-2.35	-2.9542	-3.2042	-2.3104	-3.4333	-2.6958	-2.3792	60.949	139.767	-77.910	-64.421	-105.190	-20.381	-63.784	203.945	87.921	33.703	-61.067	117.058	176.368	-71.958	94.703	175.146	0.00071527	0.0012615	0.00023583	1369.4	2.8995e-06	1.1114e-05	1360.8	373.15	5.2286e-06	4.0518e-06	425.41	140.61	122.28	41.768	2.6859e-06	51.56	0.00082772	0.00083982	0.00023249	1403.9	9.1948e-06	9.1387e-06	1393.8	383.61	9.1757e-06	9.1344e-06	455.15	145.9	129.43	43.723	9.1466e-06	54.163	68.716	-10.311	-60.419	-94.005	50.053	20.206	-94.240	-89.387	81.142	-51.877	-89.983	-85.802	-85.003	-80.432	-38.547	-81.090	-8191	255	
591.920	1	1	0	0	0.06594	0.2459	0.27566	0.20288	0.073246	0.29422	0.19931	0.44432	0.10638	0.2425	0.092601	0.18362	0.38639	0.25406	0.073804	0.11702	-3.1229	-2.2333	-2.8396	-3.5229	-2.1375	-3.2958	-2.925	-2.3438	-3.3125	-2.4729	-2.6958	-3.3646	-2.1104	-3.2792	-2.7521	-2.4437	127.475	-11.364	211.500	149.710	-103.912	128.123	111.014	245.675	82.300	64.000	18.366	207.775	239.388	-91.780	221.225	135.340	0.00056623	0.00057602	0.00026366	1365.2	6.766e-06	6.1218e-06	1358.6	372.22	7.3385e-06	6.3062e-06	426.69	140.39	123.14	41.696	8.6541e-06	51.523	0.00082281	0.00083607	0.000233	1403	9.0498e-06	9.0799e-06	1392.3	382.9	9.0132e-06	9.0303e-06	453.13	145.85	129.11	43.675	8.9714e-06	54.062	73.921	119.421	-46.054	-93.913	-24.149	78.681	-94.211	-89.120	-35.043	-6.096	-90.166	-85.704	-85.385	-80.405	-34.854	-81.017	-8191	255	
592.014	1	1	0	0	0.03051	0.2619	0.05782	0.12238	0.078366	0.21183	0.25114	0.14279	0.19714	0.10698	0.32237	0.12808	0.27157	0.095462	0.20278	0.36871	-2.9875	-2.4688	-2.35	-3.4708	-2.4688	-2.9792	-3.1729	-2.225	-3.2938	-2.4938	-2.5896	-3.625	-2.325	-3.1354	-3.0333	-2.4792	-16.066	118.098	18.142	157.263	250.051	-10.643	161.749	137.072	58.651	179.178	210.278	230.055	213.778	-79.246	-43.296	162.611	0.00058333	0.00074816	9.4044e-05	1375.5	2.9821e-06	2.3694e-06	1356.5	371.8	5.5615e-06	6.6344e-06	426.47	140.75	122.61	41.959	6.29e-06	51.509	0.00081465	0.00082896	0.00023027	1404.9	9.0951e-06	9.0537e-06	1391.8	382.97	9.1398e-06	9.0863e-06	453.51	145.95	129.15	43.708	8.9482e-06	54.147	77.355	-12.023	11.887	-93.905	215.977	-5.677	-94.118	-89.183	-76.132	93.946	-89.603	-85.494	-85.410	-80.281	46.343	-81.208	-8191	255	
592.135	1	1	0	0	0.058951	0.065006	0.086576	0.34389	0.16973	0.025048	0.24818	0.096081	0.34852	0.15535	0.15572	0.20738	0.25392	0.23453	0.19637	0.066808	-2.9938	-2.875	-2.4833	-3.6292	-2.4271	-2.9188	-3.5833	-2.3771	-3.2438	-2.5896	-2.3146	-3.5312	-2.4896	-2.8625	-3.1667	-2.4875	250.876	-22.795	159.904	178.031	221.026	-73.068	237.392	40.746	14.256	107.242	-88.552	233.277	165.862	238.919	192.881	99.284	0.00086438	0.00042093	0.00016215	1372.8	4.5801e-06	8.4622e-06	1355.4	370.87	1.025e-05	9.8607e-06	424.18	140.13	122.74	41.675	2.9929e-07	51.63	0.00082096	0.0008221	0.00022867	1404.5	9.0024e-06	9.0262e-06	1390.6	382.62	8.9935e-06	8.9996e-06	452.2	145.78	128.92	43.668	8.8313e-06	54.071	76.017	-21.762	-56.390	-94.001	133.034	4.227	-94.224	-89.381	65.032	19.402	-89.922	-85.607	-85.489	-80.426	230.433	-81.282	-8191	255	
592.231	1	1	0	0	0.13597	0.18609	0.11471	0.21225	0.054267	0.16481	0.28706	0.089559	0.21151	0.1322	0.095351	0.26895	0.11935	0.25576	0.066427	0.068066	-2.8979	-2.875	-2.3625	-3.6688	-2.3396	-2.5563	-3.5021	-2.2771	-2.8917	-3.0042	-2.0646	-3.5417	-2.525	-2.725	-3.2896	-2.5167	221.304	223.028	96.328	202.059	105.557	199.711	189.475	62.575	84.960	43.788	65.606	-80.533	241.697	229.454	94.729	127.167	0.0006917	0.00077037	0.00015612	1367.9	4.0312e-06	7.8471e-06	1356.5	371.02	1.2816e-05	7.472e-06	425.17	141.18	121.66	41.809	4.4895e-06	51.77	0.00081098	0.00081176	0.00022562	1400.3	8.8239e-06	8.8484e-06	1389.6	381.93	8.7903e-06	8.8607e-06	451.28	145.8	128.38	43.575	8.717e-06	54.057	69.976	-24.411	50.540	-93.976	66.431	-34.342	-94.269	-89.387	229.432	45.123	-89.855	-85.431	-85.693	-80.320	130.664	-81.179	-8191	255	
592.327	1	1	0	0	0.23494	0.019628	0.095781	0.17864	0.099746	0.031509	0.27288	0.64921	0.19886	0.12954	0.1366	0.11026	0.11576	0.225	0.0077879	0.23358	-2.5625	-2.9479	-2.2687	-3.5417	-2.8	-2.4354	-3.6729	-2.3208	-2.8167	-3.025	-2.3354	-3.2417	-2.8375	-2.4313	-3.3146	-2.3896	199.764	87.072	-27.538	133.933	150.943	-94.345	162.976	207.540	44.181	246.685	-67.971	28.506	213.229	-65.110	38.045	-69.475	0.00070214	0.00082691	6.6645e-05	1371	2.0223e-06	4.4459e-06	1351	370.83	2.2407e-06	7.6408e-06	424.44	140.98	122.07	41.846	9.828e-06	51.621	0.00079798	0.00079184	0.00022377	1400.4	8.8189e-06	8.773e-06	1387.7	381.46	8.762e-06	8.7222e-06	450.53	145.57	128.62	43.612	8.6752e-06	54.079	57.543	44.338	185.410	-93.882	167.822	62.608	-94.195	-89.378	-38.375	25.191	-89.948	-85.598	-85.359	-80.213	9.449	-81.278	-8191	255	
592.424	1	1	0	0	0.087269	0.18434	0.24559	0.38023	0.11836	0.22617	0.47341	0.092591	0.34526	0.12583	0.30732	0.18328	0.12669	0.12167	0.020695	0.20614	-2.4792	-3.0312	-2.0021	-3.2833	-2.8187	-2.5271	-3.5	-2.5208	-2.4792	-3.2979	-2.0521	-3.1229	-2.9521	-2.2333	-3.2938	-2.5667	-84.012	140.169	134.632	238.900	188.120	-58.140	194.001	137.589	78.805	18.662	-70.707	-61.526	-3.539	248.455	-26.300	190.704	0.0007745	0.00011768	0.00023087	1370.6	3.6539e-06	5.9483e-06	1352.5	370.72	3.951e-06	1.6684e-06	424.73	140.43	122.31	41.898	7.2109e-06	51.621	0.00079554	0.0007982	0.00022094	1400.9	8.6968e-06	8.6994e-06	1387.3	381.56	8.7083e-06	8.6392e-06	449.1	145.54	128.37	43.616	8.6552e-06	54	64.725	25.761	-7.224	-93.787	201.159	43.198	-94.047	-89.286	239.380	33.665	-90.063	-85.671	-85.624	-80.249	-40.364	-81.157	-8191	255	
592.544	1	1	0	0	0.051173	0.10399	0.14168	0.10594	0.076141	0.25903	0.062104	0.19511	0.20199	0.16536	0.13342	0.33583	0.083428	0.24233	0.10662	0.038142	-2.1604	-3.175	-2.2208	-3.1875	-3.0354	-2.3271	-3.4562	-2.6625	-2.3	-3.2896	-2.3125	-2.8854	-2.9667	-2.3708	-3.2812	-2.6229	187.237	-99.179	50.679	-51.204	-52.360	134.146	44.280	144.574	223.641	134.526	-96.568	233.729	16.500	219.903	166.766	-64.902	0.00084811	0.00021116	1.6346e-05	1367.7	4.0569e-06	1.2905e-06	1352.3	371.03	1.9849e-06	5.8847e-06	426.47	140.21	122.4	41.778	7.5739e-06	51.706	0.00078603	0.00079382	0.00022224	1398.6	8.7104e-06	8.649e-06	1386.1	381.73	8.6577e-06	8.6133e-06	450.18	145.46	128.63	43.528	8.6815e-06	54.057	57.481	154.476	105.030	-93.804	-73.679	-37.453	-94.106	-89.225	1.997	97.108	-89.617	-85.414	-85.263	-80.060	79.315	-80.935	-8191	255	
592.616	1	1	0	0	0.12908	0.10465	0.18148	0.29807	0.13731	0.30344	0.24843	0.20163	0.23253	0.18148	0.10871	0.066679	0.099499	0.20941	0.18555	0.33815	-2.125	-3.3021	-2.2917	-2.9354	-3.0917	-2.2208	-3.4542	-2.8042	-2.4604	-3.2104	-2.1792	-2.9562	-3.3438	-2.4104	-3.0792	-2.9146	-103.895	22.926	9.286	211.186	73.649	141.914	178.412	169.033	-81.937	-28.816	17.297	117.118	-73.217	-95.457	243.312	177.536	0.00064391	0.00082066	0.00015435	1369.4	7.8395e-06	4.7562e-06	1355.3	370.23	9.5284e-06	3.0098e-06	422.41	140.67	122.57	41.853	5.3801e-06	51.619	0.00079129	0.00079284	0.00022228	1398.7	8.6791e-06	8.6687e-06	1387.7	381.16	8.6589e-06	8.7014e-06	450.05	145.65	128.5	43.587	8.7707e-06	54.064	77.509	-68.794	41.746	-93.812	34.308	122.867	-94.105	-89.495	-73.973	193.312	-90.040	-85.409	-85.278	-80.416	-94.375	-80.950	-8191	255	
592.712	1	1	0	0	0.089879	0.31938	0.15327	0.31508	0.18226	0.31787	0.16133	0.17994	0.065183	0.12251	0.18665	0.099707	0.20527	0.3589	0.10535	0.30673	-1.9667	-3.3042	-2.2917	-2.9375	-3.3646	-2.1	-3.15	-3.1021	-2.1417	-3.3979	-2.3458	-2.5854	-3.3479	-2.2104	-3.0125	-3.275	-8.146	-96.949	4.624	-90.863	123.735	175.124	231.965	69.267	238.215	190.799	72.863	-67.414	-32.877	204.301	27.181	-30.099	0.00056365	0.00069043	0.00019143	1373.2	5.2746e-06	4.2424e-06	1352.8	370.44	1.7714e-06	4.0236e-06	423.6	140.27	122.31	41.784	3.4592e-06	51.509	0.00078897	0.00078831	0.00022202	1400.9	8.6123e-06	8.5935e-06	1385.4	381.08	8.6371e-06	8.5829e-06	449.24	145.57	128.43	43.594	8.5471e-06	53.991	83.918	27.719	-63.227	-93.877	-47.385	31.815	-94.099	-89.298	-55.514	77.314	-89.668	-85.580	-85.246	-80.245	100.201	-81.167	-8191	255	
592.808	1	1	0	0	0.12301	0.24912	0.016068	0.17563	0.12156	0.049026	0.31764	0.27716	0.055696	0.030882	0.050162	0.092668	0.1282	0.055973	0.26934	0.28993	-1.9188	-3.1604	-2.5167	-2.5312	-3.4458	-2.2604	-3.1562	-3.1437	-2.2521	-3.2708	-2.6125	-2.5646	-3.4167	-2.3396	-2.7708	-3.2562	-83.418	74.307	237.693	-106.338	215.434	205.334	177.600	223.691	194.771	-20.272	217.874	110.616	-79.403	228.022	-89.827	161.693	0.00095148	0.00045234	0.00023615	1367.2	8.0786e-06	6.5592e-06	1347	368.04	2.4343e-06	4.8452e-06	425.03	140.1	122.54	41.697	6.6971e-06	51.654	0.00077147	0.00077215	0.00021644	1395.3	8.3918e-06	8.4018e-06	1381.3	379.44	8.3405e-06	8.3372e-06	447.05	144.96	127.85	43.446	8.4056e-06	53.898	67.880	-25.435	-1.000	-93.785	81.245	-16.375	-93.745	-89.358	146.752	47.463	-89.699	-85.579	-85.218	-80.247	70.910	-81.146	-8191	255	
592.927	1	1	0	0	0.24452	0.080048	0.040807	0.34292	0.0508	0.1575	0.11995	0.25273	0.048375	0.12998	0.23493	0.14496	0.1593	0.14935	0.18145	0.050743	-1.6292	-3.3229	-2.7646	-2.4958	-3.2354	-2.4521	-2.8896	-3.5417	-2.0729	-3.1208	-2.975	-2.3875	-3.3771	-2.5667	-2.3104	-3.4562	124.695	-76.300	76.359	247.941	193.523	47.654	110.651	248.976	101.345	-39.024	-93.410	-78.561	202.610	-73.749	93.785	76.168	0.00061653	0.00014366	0.00016322	1362.2	4.9088e-07	3.8396e-06	1349	370.86	3.2559e-06	6.3125e-06	423.44	140.19	122.13	41.819	3.8662e-06	51.652	0.00075798	0.00076464	0.00021509	1390.6	8.3717e-06	8.3689e-06	1380.9	380.2	8.3984e-06	8.4489e-06	447.89	145.17	128.11	43.49	8.4561e-06	53.978	78.156	202.363	-13.457	-93.669	150.713	-69.920	-93.935	-89.467	201.967	60.615	-89.689	-85.636	-85.313	-80.446	44.980	-80.943	-8191	255	
593.023	1	1	0	0	0.22018	0.14959	0.094555	0.22102	0.25833	0.020839	0.18045	0.21921	0.25959	0.21034	0.16253	0.21051	0.31836	0.076345	0.14253	0.12409	-1.9021	-2.9104	-3.0792	-2.1813	-3.4625	-2.4479	-2.5583	-3.6063	-2.1292	-2.8729	-3.1396	-2.3604	-3.4021	-2.7188	-2.4271	-3.6042	7.812	133.279	157.042	-102.171	92.228	19.319	161.864	189.131	-35.373	-20.697	230.726	-53.773	246.806	127.140	73.624	111.521	0.00057892	0.00066739	0.00016729	1362.6	1.1172e-07	5.4747e-06	1349.5	369.95	2.1691e-06	6.6828e-06	425.69	139.79	121.67	41.538	8.5957e-07	51.623	0.00077501	0.00078328	0.00021659	1391.6	8.555e-06	8.5929e-06	1380.4	380.19	8.6685e-06	8.6718e-06	448.79	145.02	128.29	43.446	8.5945e-06	53.945	61.276	-28.658	243.414	-93.815	38.108	-65.745	-94.145	-89.358	-29.658	58.558	-90.110	-85.565	-85.409	-80.255	35.910	-81.009	-8191	255	
593.119	1	1	0	0	0.028475	0.15397	0.20245	0.095454	0.075974	0.090122	0.10136	0.41204	0.21982	0.19109	0.12608	0.094131	0.15094	0.14581	0.20354	0.069955	-1.8083	-2.9708	-2.9729	-2.1979	-3.3208	-2.7687	-2.4833	-3.4583	-2.2354	-2.6896	-3.2521	-2.1312	-3.2542	-2.7	-2.4833	-3.4771	42.713	87.422	204.828	-50.568	46.523	166.413	196.783	-92.793	-26.980	240.917	246.349	221.459	-63.563	235.498	-62.064	2.825	0.0006331	0.00067532	0.00020153	1359.9	4.1134e-06	9.0973e-06	1349	369.65	4.8875e-06	4.1882e-06	422.7	140.24	122.11	41.718	5.077e-06	51.653	0.0007877	0.00078916	0.00021866	1391.4	8.6384e-06	8.6124e-06	1380.1	379.94	8.6197e-06	8.6077e-06	447.36	144.96	127.89	43.523	8.4391e-06	53.923	57.522	-26.570	-37.264	-93.744	-13.533	21.937	-93.936	-89.416	30.539	54.823	-89.686	-85.498	-85.014	-80.125	126.430	-81.119	-8191	255	
593.215	1	1	0	0	0.17379	0.24221	0.077725	0.1257	0.22705	0.20024	0.15858	0.11134	0.37089	0.33829	0.12308	0.14627	0.38847	0.16936	0.17422	0.085084	-2.0792	-2.5646	-3.3063	-2.3208	-2.9396	-2.9042	-2.2271	-3.4417	-2.3563	-2.6979	-3.3667	-2.2313	-3.0771	-2.9604	-2.3708	-3.3479	63.256	-4.791	-3.514	189.108	248.542	124.495	-102.666	174.923	237.581	34.426	162.914	6.594	-101.357	177.536	52.465	215.643	0.00054198	0.00074769	0.00012517	1357.6	8.226e-06	6.4988e-06	1347.1	369.35	1.2281e-05	4.1978e-06	424.03	140.05	121.88	41.694	7.6883e-06	51.544	0.00077653	0.00077468	0.00021477	1389.3	8.469e-06	8.4373e-06	1379.9	379.86	8.4779e-06	8.5238e-06	448.14	145.01	128.03	43.469	8.4988e-06	53.915	51.624	46.084	246.265	-93.896	109.884	40.560	-94.098	-89.099	233.027	55.810	-89.822	-85.381	-84.885	-80.155	52.845	-80.806	-8191	255	
593.312	1	1	0	0	0.061183	0.18908	0.066298	0.24689	0.097033	0.13343	0.10168	0.19737	0.26603	0.21585	0.13842	0.096571	0.21537	0.076502	0.063574	0.09653	-2.1958	-2.4771	-3.3375	-2.6083	-2.9583	-3.1	-2.425	-3.4021	-2.4917	-2.6042	-3.2938	-2.4229	-2.7833	-3.2458	-2.0708	-3.4313	70.806	129.802	-91.603	227.192	-16.972	13.436	47.881	232.213	12.179	-14.037	78.174	209.001	173.717	160.008	247.353	211.559	0.00072528	0.00049939	0.00014813	1357.3	6.1629e-06	1.4871e-06	1346.2	368.69	8.3776e-07	5.8281e-06	427.11	140.17	121.76	41.653	4.7294e-06	51.721	0.000772	0.00077901	0.00021527	1390.2	8.5566e-06	8.4602e-06	1378.1	380.22	8.5217e-06	8.5702e-06	448.82	145	128.08	43.461	8.5798e-06	54.012	73.675	29.370	-66.590	-93.717	32.626	239.545	-93.957	-89.241	-35.702	186.840	-89.266	-85.381	-85.287	-80.149	30.991	-81.101	-8191	255	
593.408	1	1	0	0	0.22674	0.23241	0.078663	0.26813	0.03716	0.28436	0.081191	0.050051	0.078661	0.15721	0.13323	0.11397	0.10236	0.068547	0.1377	0.23084	-2.5375	-2.5292	-3.5646	-2.5646	-2.8104	-3.0396	-2.3979	-3.3187	-2.7021	-2.2812	-3.5458	-2.6042	-2.9125	-3.4458	-2.1979	-3.4542	73.052	116.072	-56.043	245.112	240.127	43.161	-105.460	-49.929	-58.878	200.615	213.242	-41.989	-62.062	122.987	120.380	178.718	0.00070468	0.00055297	8.2328e-05	1363.6	1.1139e-05	6.5693e-06	1340.3	369.46	8.2542e-06	4.6651e-06	423.28	140.03	122.04	41.624	6.451e-06	51.504	0.00077488	0.00078519	0.00021775	1392	8.5571e-06	8.5315e-06	1376.2	379.35	8.5594e-06	8.5038e-06	447.21	144.83	127.95	43.428	8.4561e-06	53.854	72.816	-26.083	-5.758	-93.927	-85.014	47.353	-93.993	-88.934	-78.414	101.884	-89.593	-85.409	-84.963	-80.394	-13.862	-80.686	-8191	255	
593.504	1	1	0	0	0.053335	0.073175	0.10813	0.24096	0.16513	0.052748	0.26679	0.1445	0.15977	0.17798	0.033111	0.296	0.081809	0.23597	0.039074	0.20824	-2.6646	-2.4437	-3.2458	-2.6917	-2.7375	-3.3521	-2.4354	-3.1167	-3.0271	-2.2167	-3.3937	-2.6729	-2.4521	-3.5229	-2.1167	-3.1833	26.996	192.107	-96.148	-96.429	2.521	47.167	161.325	-103.367	68.832	-34.148	-8.975	122.387	107.020	198.033	14.887	201.823	0.00093323	0.00037428	0.00012528	1351.9	8.8461e-06	1.0832e-05	1342.6	368.55	3.7808e-06	3.7038e-06	424.01	140.08	121.48	41.723	3.923e-06	51.113	0.00076933	0.00076617	0.00021416	1384.9	8.386e-06	8.3515e-06	1375.1	379.14	8.4358e-06	8.3547e-06	447.34	144.72	127.49	43.447	8.4087e-06	53.648	64.641	40.672	1.141	-93.757	0.397	32.747	-94.058	-89.001	-80.597	104.092	-89.338	-85.451	-85.083	-80.346	3.828	-81.045	-8191	255	
593.625	1	1	0	0	0.099376	0.21668	0.036927	0.18008	0.26518	0.064394	0.19604	0.16245	0.14165	0.15172	0.1343	0.21784	0.15936	0.21613	0.12873	0.2778	-2.7667	-2.2521	-3.2521	-2.6354	-2.3854	-3.3979	-2.4875	-3.1604	-3.0146	-2	-3.4375	-2.8271	-2.4542	-3.4042	-2.4354	-3.0312	-20.490	69.115	66.343	221.427	3.495	-81.157	153.531	232.857	58.312	10.492	0.874	213.658	-4.998	249.680	249.378	193.600	0.00071805	3.7866e-05	7.864e-05	1356.6	4.6138e-07	1.2994e-06	1343.4	369.21	3.2324e-06	1.6036e-06	423.86	139.88	121.67	41.594	2.3976e-06	51.711	0.00076166	0.00076464	0.00021538	1387	8.3949e-06	8.3186e-06	1376.4	379.01	8.3412e-06	8.3192e-06	445.95	144.66	127.61	43.392	8.4698e-06	53.819	83.606	-73.631	-35.910	-93.822	43.015	54.157	-94.138	-89.065	-92.716	98.362	-89.578	-85.735	-85.157	-80.088	4.778	-81.146	-8191	255	
593.721	1	1	0	0	0.16273	0.32653	0.14437	0.40158	0.10519	0.21826	0.14188	0.29883	0.084413	0.1305	0.25741	0.14191	0.19367	0.090106	0.089731	0.24841	-2.9583	-2.1625	-3.0375	-3.0479	-2.3104	-3.1875	-2.5833	-2.7979	-3.3271	-2.1333	-3.1063	-2.9854	-2.1604	-3.3333	-2.5146	-2.4833	157.640	-14.844	14.567	230.002	175.527	36.023	127.492	225.180	-25.990	224.401	165.439	89.092	-106.165	183.257	15.865	158.049	0.0010263	0.00033905	1.5292e-05	1360.1	1.0633e-06	7.7833e-06	1341.6	368.76	5.2676e-06	6.7121e-06	422.57	140.61	121.64	41.706	5.8815e-06	51.527	0.00075419	0.00076303	0.00021391	1387.9	8.3343e-06	8.361e-06	1375.3	378.59	8.2994e-06	8.2693e-06	445.38	144.75	127.43	43.36	8.4164e-06	53.796	49.893	88.624	122.085	-93.906	61.310	114.984	-93.955	-88.933	-7.176	131.761	-89.641	-85.513	-85.485	-80.556	-22.667	-80.933	-8191	255	
593.817	1	1	0	0	0.11389	0.061643	0.20945	0.3742	0.20138	0.12055	0.36886	0.27791	0.12893	0.16358	0.088188	0.11104	0.27992	0.22745	0.14271	0.10681	-3.1875	-2.2313	-3.0375	-3.1333	-2.0021	-3.4313	-2.7646	-2.7354	-3.1312	-2.2417	-3.0375	-3.1604	-2.2354	-3.4625	-2.5812	-2.5083	94.798	58.760	13.933	190.061	6.348	80.974	190.301	204.520	234.343	97.102	206.922	160.513	25.564	-71.497	191.270	-70.984	0.00041076	0.00062954	8.8212e-05	1361.4	4.3317e-06	4.9841e-06	1347.5	368.53	6.6052e-06	2.3234e-06	423.43	139.42	122.37	41.638	9.0534e-06	51.483	0.00075472	0.00076583	0.00021301	1387.8	8.2617e-06	8.2891e-06	1376.3	378.42	8.2707e-06	8.3144e-06	446.49	144.37	127.48	43.344	8.3695e-06	53.725	70.030	6.408	-13.566	-93.845	72.075	-5.817	-93.955	-89.279	136.927	-14.626	-89.565	-85.459	-85.070	-80.272	16.611	-80.996	-8191	255	
593.911	1	1	0	0	0.18914	0.14346	0.16215	0.076621	0.16094	0.18466	0.2665	0.31274	0.23137	0.13298	0.15023	0.19177	0.42802	0.357	0.065244	0.33659	-3.1833	-2.3208	-2.8333	-3.225	-2.125	-3.1917	-2.9188	-2.7021	-3.1958	-2.3125	-2.675	-3.4521	-2.1208	-3.2062	-2.6437	-2.5083	88.269	-56.871	-89.464	147.945	89.384	114.749	165.408	225.805	44.011	219.590	177.299	-46.917	193.496	171.107	146.918	179.743	0.00067963	0.00021467	0.00020474	1352.1	4.9304e-06	6.708e-06	1343.9	369.03	4.6336e-06	1.5297e-06	424.22	139.97	122.48	41.59	6.9546e-06	51.305	0.00075201	0.00076396	0.00021419	1384.8	8.3146e-06	8.3752e-06	1375.1	378.75	8.2752e-06	8.3956e-06	447.14	144.47	127.63	43.377	8.3824e-06	53.682	78.018	-79.124	-50.852	-93.691	206.710	10.524	-93.953	-89.170	-100.167	-1.149	-89.946	-85.232	-85.285	-80.134	199.639	-80.876	-8191	255	
594.007	1	1	0	0	0.32954	0.085799	0.082824	0.36374	0.14381	0.043078	0.24532	0.19399	0.084503	0.26981	0.049099	0.081771	0.31315	0.15134	0.13047	0.065126	-2.9646	-2.1854	-2.6271	-3.4146	-2.0396	-3.025	-3.1667	-2.3396	-3.2458	-2.4042	-2.6125	-3.4146	-2.4292	-3.1708	-2.9729	-2.2708	176.223	111.993	-17.924	230.300	185.220	78.037	179.458	171.185	93.378	158.193	164.841	159.104	-101.548	244.730	-45.869	247.543	0.00071303	0.0003255	0.00011511	1357.6	7.3993e-06	4.1648e-06	1340.5	368.55	3.7891e-06	2.3091e-06	423.42	139.29	120.68	41.685	6.1764e-06	51.447	0.00075857	0.00076898	0.00021367	1386.8	8.3716e-06	8.3492e-06	1372.1	377.92	8.2956e-06	8.4141e-06	446.38	144.33	127.34	43.413	8.3205e-06	53.749	77.656	41.017	-17.224	-93.782	-57.154	79.419	-93.914	-89.136	6.209	204.447	-89.271	-85.337	-85.173	-80.486	34.529	-80.989	-8191	255	
594.104	1	1	0	0	0.047809	0.081638	0.18772	0.25798	0.20223	0.044572	0.24601	0.35184	0.1224	0.10667	0.15727	0.35123	0.2053	0.17776	0.19908	0.13852	-3.0438	-2.4958	-2.45	-3.5687	-2.2438	-2.9375	-3.3042	-2.2458	-3.1021	-2.7438	-2.2875	-3.4167	-2.3729	-2.9521	-3.2562	-2.3271	65.697	164.899	243.060	96.934	98.614	-92.767	-102.522	155.271	-95.879	43.190	-20.504	-103.721	192.364	191.480	32.281	177.611	0.00082542	0.00073647	0.00013247	1355	6.3072e-06	3.3741e-06	1338.8	368.28	5.7084e-06	9.6397e-06	421.15	140.06	121.13	41.531	8.8758e-06	51.245	0.00076508	0.00076482	0.00021215	1384.6	8.4614e-06	8.3935e-06	1373.4	377.98	8.4632e-06	8.4216e-06	445.38	144.65	127.38	43.351	8.4369e-06	53.699	70.716	22.068	52.398	-93.709	23.301	54.486	-93.872	-88.987	34.440	18.969	-89.636	-85.320	-85.555	-80.080	13.199	-80.782	-8191	255	
594.224	1	1	0	0	0.10904	0.19795	0.060232	0.36958	0.2816	0.083665	0.23082	0.11377	0.25651	0.22545	0.15454	0.083597	0.16211	0.27907	0.12791	0.11194	-2.9625	-2.7583	-2.2167	-3.6688	-2.3563	-2.7479	-3.475	-2.2625	-3.2333	-2.8292	-2.3479	-3.4542	-2.4813	-2.7375	-3.1562	-2.5958	37.460	78.663	110.679	-103.080	162.596	-91.397	-106.884	156.084	198.847	139.605	183.918	173.240	129.995	169.390	4.868	-83.639	0.00065624	0.00041632	0.00022867	1352.6	1.7698e-06	5.2043e-06	1339	367.99	8.4782e-06	6.3766e-06	421.76	139.91	121.76	41.66	2.981e-06	51.488	0.00076676	0.00076833	0.00021622	1383.2	8.5001e-06	8.4017e-06	1373.6	378.03	8.475e-06	8.4386e-06	445.86	144.49	127.47	43.39	8.4582e-06	53.766	72.420	-9.194	-75.995	-93.785	90.906	30.387	-93.797	-89.263	-106.622	81.197	-89.966	-85.012	-85.151	-80.056	83.991	-81.009	-8191	255	
594.320	1	1	0	0	0.27767	0.12233	0.17924	0.1416	0.13933	0.18979	0.093136	0.43214	0.18128	0.10428	0.11945	0.24872	0.26342	0.28595	0.16907	0.24369	-2.8979	-3.0417	-2.2375	-3.3542	-2.4542	-2.5854	-3.6937	-2.4375	-2.8833	-2.9979	-2.2771	-3.3292	-2.65	-2.6229	-3.3146	-2.2583	32.681	-67.268	9.757	175.262	29.098	74.897	234.465	187.344	183.303	132.061	220.571	171.223	-71.632	187.120	100.984	215.360	0.00062124	0.00013642	0.00012723	1362.9	7.2537e-06	1.3424e-06	1335.7	368.23	1.169e-05	5.6642e-06	418.69	139.75	121.67	41.617	6.63e-06	51.604	0.00077481	0.00077519	0.00021597	1387.6	8.5253e-06	8.5094e-06	1370.8	377.88	8.5722e-06	8.4506e-06	445.58	144.53	127.62	43.325	8.416e-06	53.749	64.042	-74.024	44.112	-93.781	56.397	104.413	-93.972	-89.166	-96.801	27.144	-89.674	-85.376	-85.428	-80.070	-4.984	-81.088	-8191	255	
594.416	1	1	0	0	0.041006	0.182	0.058571	0.33226	0.1266	0.20912	0.30917	0.094908	0.10078	0.23522	0.13768	0.20957	0.16169	0.17241	0.13388	0.20642	-2.8208	-3.1417	-1.9188	-3.5271	-2.7667	-2.3833	-3.65	-2.5583	-2.9042	-3.2354	-2.2792	-3.4688	-2.9562	-2.5563	-3.4875	-2.5542	146.716	-97.091	-59.387	237.297	114.535	-43.782	167.622	49.844	-36.894	-29.473	-53.066	177.864	-47.820	-89.291	-39.761	113.996	0.0008038	0.00024163	0.00010007	1352	3.7807e-06	7.9776e-06	1338.2	366.91	8.2784e-06	5.8723e-06	423.15	139.72	121.86	41.548	1.2919e-06	51.18	0.00076351	0.00076923	0.00021509	1384.4	8.3694e-06	8.3886e-06	1368.7	377.38	8.3553e-06	8.3281e-06	446.4	144.45	127.36	43.278	8.4047e-06	53.684	74.048	-97.092	-36.213	-93.519	57.777	70.244	-94.005	-89.090	227.123	-36.798	-89.403	-85.431	-85.325	-80.145	159.665	-81.202	-8191	255	
594.488	1	1	0	0	0.24636	0.16012	0.18377	0.17893	0.15856	0.22429	0.067919	0.046197	0.12704	0.19576	0.104	0.17322	0.14052	0.30829	0.23224	0.19088	-2.5292	-3.3521	-2.2146	-3.2938	-2.9708	-2.2792	-3.4854	-2.8354	-2.5583	-3.3583	-2.2583	-3.1229	-3.0833	-2.2938	-3.3125	-2.7104	-40.890	240.161	-75.143	178.310	173.332	-4.180	-98.538	59.329	134.254	176.870	-50.810	89.518	137.161	192.500	225.460	118.726	0.00087129	0.00036562	7.3846e-05	1354.5	4.8069e-06	6.0833e-06	1337.4	366.99	1.7667e-06	6.2684e-06	420.33	139.4	121.38	41.468	3.2512e-06	51.325	0.00076428	0.00076686	0.00021465	1382.5	8.3851e-06	8.4111e-06	1368.3	377.04	8.3599e-06	8.329e-06	444.3	144.39	127.3	43.248	8.394e-06	53.665	73.249	246.515	16.045	-93.680	-43.654	42.073	-93.924	-89.055	24.592	-30.882	-89.532	-85.303	-85.313	-80.263	191.219	-81.094	-8191	255	
594.609	1	1	0	0	0.32854	0.37429	0.053528	0.12538	0.11388	0.061517	0.08643	0.15292	0.16679	0.08292	0.25491	0.23099	0.1488	0.17793	0.10072	0.067808	-2.4271	-3.2667	-2.1937	-3.1896	-3.075	-2.0812	-3.6312	-2.9396	-2.4792	-3.3729	-2.25	-3.0396	-3.2896	-2.0771	-3.3479	-2.7625	83.639	177.058	79.776	199.094	148.461	-52.919	128.305	-74.929	252.651	34.746	199.626	90.592	-103.843	-35.451	29.640	250.685	0.00085627	0.0010057	5.639e-05	1354.7	1.0212e-05	2.2833e-06	1337	365.83	6.1308e-06	7.4816e-06	422.94	138.88	120.76	41.661	2.3264e-06	51.373	0.00076152	0.00077013	0.00021507	1382.2	8.4549e-06	8.3996e-06	1370.2	376.34	8.4093e-06	8.4012e-06	446.23	144.03	126.83	43.308	8.4074e-06	53.68	61.848	-33.234	-45.867	-93.529	-46.377	51.800	-93.903	-89.116	-80.337	97.041	-89.508	-85.068	-85.305	-80.242	33.802	-80.939	-8191	255	
594.705	1	1	0	0	0.13853	0.27308	0.12641	0.062065	0.24117	0.28688	0.23133	0.33596	0.26109	0.18365	0.22574	0.26724	0.017622	0.45557	0.15007	0.077557	-2.1688	-3.4562	-2.2313	-3.1125	-3.1542	-2.0958	-3.5646	-2.9125	-2.3917	-3.35	-2.3354	-2.9	-3.2958	-2.2917	-2.9896	-3.0375	-18.718	218.606	94.713	-72.997	175.211	-89.391	171.783	176.198	211.574	43.922	87.930	200.527	-19.248	233.143	-1.290	-88.087	0.00064501	0.00059153	0.00016948	1358.9	6.4396e-06	2.8323e-06	1336.5	367.06	2.5632e-06	1.9626e-06	423.11	138.87	121.86	41.503	2.1724e-06	51.506	0.00075667	0.00076365	0.00021261	1384.1	8.3386e-06	8.3279e-06	1369.2	377.33	8.2722e-06	8.3184e-06	444.51	144.15	127.12	43.264	8.2764e-06	53.607	70.952	-18.850	-9.597	-93.609	51.410	3.406	-93.883	-89.048	46.342	52.025	-89.475	-85.186	-85.113	-80.245	68.878	-80.862	-8191	255	
594.801	1	1	0	0	0.12896	0.17716	0.17968	0.11711	0.16455	0.24329	0.11692	0.12314	0.099537	0.33542	0.19603	0.29177	0.14465	0.12695	0.035609	0.20496	-1.8604	-3.2479	-2.3542	-2.6646	-3.425	-2.3375	-3.3958	-3.1479	-2.2333	-3.2833	-2.7667	-2.7354	-3.4188	-2.2917	-2.9542	-3.1688	182.471	-68.657	115.215	234.396	9.044	57.975	-91.825	-82.425	126.968	-13.688	120.455	227.119	-88.427	-82.957	184.099	237.865	0.00086338	0.00039236	0.00011368	1352.9	3.2294e-06	5.1634e-06	1339.7	366.01	4.3706e-06	3.5044e-06	422.01	138.72	121.55	41.72	3.7233e-06	51.562	0.00075376	0.00075402	0.00021155	1382.8	8.244e-06	8.2557e-06	1368.1	375.8	8.2469e-06	8.2838e-06	445.4	143.85	127.11	43.279	8.2786e-06	53.65	66.350	238.456	105.703	-93.545	4.601	85.513	-93.690	-89.199	-7.392	97.210	-89.772	-85.269	-85.309	-80.020	-9.239	-81.022	-8191	255	
594.897	1	1	0	0	0.10445	0.28141	0.071476	0.30649	0.24346	0.25382	0.29709	0.18476	0.069113	0.19144	0.14213	0.1204	0.10146	0.073735	0.1129	0.13101	-1.9958	-3.2146	-2.5021	-2.8083	-3.2833	-2.3333	-3.3021	-3.3042	-2.1167	-3.4146	-2.5438	-2.4667	-3.4083	-2.4271	-2.8688	-3.3229	-17.996	225.832	41.165	157.894	96.915	156.343	229.861	234.144	78.985	115.012	34.020	-98.121	-7.008	-41.671	252.508	225.527	0.00094246	0.0003087	9.7801e-05	1350.2	4.9242e-06	4.5492e-06	1336	365.27	6.9349e-06	8.5015e-06	421.47	139.57	121.32	41.602	5.4945e-06	51.582	0.0007478	0.00075872	0.00020983	1379.1	8.2203e-06	8.1858e-06	1368.5	376.24	8.1382e-06	8.1825e-06	443.32	144.17	127.06	43.254	8.1539e-06	53.581	70.697	64.981	-75.695	-93.469	-92.488	30.772	-93.708	-89.078	-27.081	66.563	-89.459	-85.262	-85.043	-80.149	7.507	-80.751	-8191	255	
595.016	1	1	0	0	0.21001	0.089118	0.24332	0.2189	0.17179	0.22901	0.15884	0.16343	0.12972	0.26495	0.19174	0.38211	0.27629	0.17993	0.30524	0.070324	-1.9771	-3.275	-2.6479	-2.6813	-3.3896	-2.4458	-2.9979	-3.3625	-2.3438	-3.1354	-2.7938	-2.3792	-3.325	-2.6458	-2.5938	-3.4646	117.256	249.660	204.133	-86.887	203.281	-89.096	166.780	134.391	-25.586	214.518	91.683	237.836	147.046	-77.781	-83.457	189.687	0.00076192	0.0003888	0.00013517	1347.3	2.5292e-06	4.6552e-06	1334	365.8	6.4267e-06	6.067e-06	420.82	139.31	121.48	41.363	7.0195e-07	51.44	0.00074246	0.00074729	0.00020875	1378.1	8.0693e-06	8.1514e-06	1365.7	375.91	8.0838e-06	8.0534e-06	442.07	143.9	126.88	43.102	8.0472e-06	53.474	71.913	46.525	-62.199	-93.574	56.917	-74.541	-93.622	-89.086	-53.458	-40.949	-89.366	-85.270	-84.861	-79.994	-88.828	-81.033	-8191	255	
595.088	1	1	0	0	0.29664	0.20584	0.25951	0.34014	0.1574	0.17419	0.24059	0.14951	0.092843	0.16812	0.13136	0.051431	0.23063	0.17326	0.21081	0.18838	-1.7812	-2.9917	-3.1188	-2.3167	-3.4479	-2.6625	-2.7313	-3.6167	-2.1354	-3.1042	-3.1333	-2.1958	-3.325	-2.7917	-2.3167	-3.4167	11.894	68.052	-33.978	248.324	-98.157	79.395	-66.542	-49.201	-72.101	-7.366	-106.746	30.927	-43.384	166.046	-49.546	198.651	0.00068535	0.00048186	0.00016426	1346.2	3.8123e-06	6.2035e-06	1332.3	365.5	3.6945e-06	5.216e-06	419.32	138.71	120.75	41.495	5.61e-06	51.472	0.00073032	0.00073744	0.00020391	1374.6	8.0692e-06	8.051e-06	1362.8	375.38	8.0214e-06	8.0015e-06	440.34	143.54	126.34	43.175	8.0139e-06	53.566	45.567	-13.648	-13.481	-93.488	64.518	13.799	-93.691	-89.028	17.372	155.028	-89.660	-85.331	-85.213	-80.371	7.196	-81.084	-8191	255	
595.186	1	1	0	0	0.22348	0.2698	0.19159	0.41315	0.086408	0.21379	0.20821	0.23343	0.060602	0.17441	0.20094	0.10646	0.17145	0.20408	0.16352	0.26956	-1.8229	-2.9354	-3.0896	-2.3521	-3.0458	-2.7604	-2.5979	-3.4917	-2.3292	-2.8083	-3.2792	-2.2833	-3.275	-3.0438	-2.25	-3.5938	121.061	180.763	-83.213	246.005	-5.296	35.770	233.756	194.428	6.359	-63.244	228.406	227.372	-12.407	188.432	165.848	-73.794	0.00095246	0.0007887	7.39e-05	1346.4	2.5113e-06	4.844e-06	1334	365.41	7.1307e-06	3.2956e-07	423.29	139.09	120.9	41.501	9.9326e-06	51.47	0.00072568	0.00073484	0.00020323	1374.4	7.9976e-06	7.975e-06	1363.3	375.34	8.0404e-06	8.0135e-06	441.41	143.43	126.46	43.093	7.948e-06	53.565	49.500	-54.024	156.462	-93.674	148.703	27.886	-93.755	-89.028	-76.067	-84.284	-89.913	-85.211	-84.884	-80.311	45.281	-80.866	-8191	255	
595.305	1	1	0	0	0.18278	0.21154	0.047241	0.31251	0.12803	0.22332	0.177	0.080393	0.21975	0.19649	0.14764	0.1608	0.076241	0.20864	0.18045	0.12965	-2.2333	-2.7896	-3.25	-2.3292	-3.1417	-2.9583	-2.4313	-3.5854	-2.4	-2.475	-3.3187	-2.4333	-3.0354	-3.2625	-2.2562	-3.575	251.834	206.613	121.280	227.248	126.486	64.833	176.978	-15.154	-3.754	-42.254	217.233	211.548	-100.371	111.116	21.491	31.595	0.00064533	0.00054313	0.00014371	1343.3	5.9428e-06	2.5398e-06	1334.6	364.37	8.9925e-06	7.7348e-06	419.88	139.08	121.43	41.528	9.7318e-07	51.329	0.00072867	0.0007262	0.0002015	1372.8	7.928e-06	7.9331e-06	1361.8	374.83	7.9169e-06	7.8348e-06	439.34	143.5	126.41	43.074	7.816e-06	53.494	66.216	23.433	64.586	-93.648	123.455	-44.022	-93.792	-89.120	-66.141	94.569	-89.833	-85.220	-85.045	-80.022	183.272	-80.808	-8191	255	
595.401	1	1	0	0	0.13771	0.22375	0.086967	0.10224	0.090179	0.071449	0.082563	0.17075	0.44952	0.089258	0.078086	0.21829	0.063138	0.30018	0.10849	0.086485	-2.2979	-2.5583	-3.4021	-2.3604	-2.8187	-3.1896	-2.4938	-3.5375	-2.8104	-2.4521	-3.3708	-2.4042	-2.8917	-3.4417	-2.0833	-3.3812	228.627	250.280	122.287	-101.445	169.361	-80.352	144.875	196.470	57.099	251.198	-50.884	-77.307	162.313	235.914	-72.232	22.687	0.00081091	0.00039659	9.4807e-05	1343.1	1.896e-06	3.2648e-06	1327	365.9	1.8276e-06	4.2695e-06	419.65	139.44	121.21	41.696	7.082e-06	51.306	0.00071219	0.00071526	0.00019846	1371.3	7.813e-06	7.7337e-06	1357.9	375.1	7.8086e-06	7.7981e-06	437.42	143.49	125.9	43.142	7.768e-06	53.42	60.009	148.516	-45.617	-93.716	24.617	39.540	-93.847	-89.064	-99.737	98.311	-89.804	-85.425	-84.773	-80.161	-67.693	-80.801	-8191	255	
595.497	1	1	0	0	0.12183	0.45528	0.016109	0.25777	0.034164	0.2134	0.35472	0.18151	0.069063	0.083735	0.27015	0.080573	0.28396	0.064643	0.48599	0.34178	-2.5687	-2.4208	-3.3187	-2.4375	-2.7458	-3.1583	-2.5042	-3.2896	-3.0833	-2.2479	-3.4062	-2.7188	-2.7333	-3.2812	-2.2	-3.1771	84.705	-44.464	104.115	193.610	192.468	198.171	175.367	-58.090	108.449	-33.585	12.339	-26.203	-100.881	217.417	-70.404	-102.676	0.00077086	0.00059593	0.00016628	1344.3	7.4375e-06	5.3003e-06	1332.7	366.14	6.5125e-06	4.1494e-06	422.7	139.24	121.36	41.521	3.3261e-06	51.515	0.00070703	0.00070686	0.00019681	1371.4	7.7643e-06	7.7036e-06	1360.2	375.36	7.7918e-06	7.7096e-06	439.5	143.66	126.12	43.105	7.6702e-06	53.466	70.800	0.092	-67.275	-93.602	-17.429	86.547	-93.881	-89.125	213.308	48.933	-89.594	-85.147	-85.138	-79.964	34.126	-80.819	-8191	255	
595.617	1	1	0	0	0.021446	0.23375	0.14737	0.20153	0.096937	0.13082	0.3185	0.23171	0.12063	0.2236	0.1211	0.18774	0.29999	0.13863	0.080963	0.16653	-2.3854	-2.1479	-3.3646	-2.8042	-2.6083	-3.2771	-2.5938	-3.1167	-2.8333	-2.1813	-3.4458	-2.9167	-2.5812	-3.4667	-2.2417	-3.0792	105.546	137.701	17.276	139.870	41.723	131.581	149.742	192.128	-73.282	27.235	115.994	40.879	-30.131	61.193	-38.133	27.525	0.00067538	0.00035078	7.5517e-05	1346.4	6.1507e-06	6.3558e-06	1331.2	366.61	1.4082e-06	5.1728e-06	420.57	139.19	121.06	41.598	1.7898e-06	51.147	0.00069929	0.00069691	0.00019591	1372.7	7.6796e-06	7.6143e-06	1361.3	375.3	7.6992e-06	7.7228e-06	440.28	143.5	126.23	43.135	7.7673e-06	53.336	83.688	88.672	-54.660	-93.513	17.862	-12.460	-93.757	-88.840	-28.472	130.397	-89.442	-84.986	-85.517	-79.977	48.475	-80.915	-8191	255	
595.714	1	1	0	0	0.23965	0.084286	0.082399	0.21507	0.067423	0.087534	0.25812	0.25561	0.13629	0.19145	0.061588	0.32225	0.24015	0.12881	0.079155	0.15471	-2.9854	-2.1667	-3.1208	-2.9938	-2.4146	-3.1667	-2.3729	-2.8875	-3.0771	-2.3375	-3.2771	-2.975	-2.325	-3.4021	-2.375	-2.925	-95.713	-37.468	208.193	203.780	182.131	-69.179	177.353	-102.088	-14.897	42.321	237.618	241.346	205.785	169.429	15.962	179.755	0.00062142	0.00038638	0.00012036	1346.7	1.9834e-06	3.5564e-06	1334.9	364.86	3.6876e-06	7.4768e-06	421.12	139.17	121.77	41.316	2.8232e-06	51.364	0.00070618	0.00071009	0.00019735	1371	7.7333e-06	7.7131e-06	1362.7	374.83	7.7712e-06	7.7364e-06	440.05	143.67	126.49	43.048	7.8125e-06	53.537	75.142	39.686	-59.423	-93.397	-68.153	-92.120	-93.892	-88.968	-31.185	67.319	-89.335	-85.167	-85.098	-80.034	-43.811	-81.002	-8191	255	
595.785	1	1	0	0	0.17907	0.15775	0.07279	0.11816	0.047899	0.17803	0.33815	0.42811	0.29116	0.13942	0.024148	0.2301	0.20011	0.27015	0.28099	0.2392	-3.1333	-2.2479	-3.1021	-3.0479	-2.1688	-3.4688	-2.7458	-2.7896	-3.3021	-2.3667	-3.1688	-3.1375	-2.3937	-3.3375	-2.2833	-2.4646	-73.424	-100.300	27.154	-93.260	-23.421	-53.742	211.827	196.859	85.134	-3.526	-37.865	213.146	-32.826	205.336	250.149	-95.439	0.00081783	0.0002445	8.8443e-05	1344.6	3.3786e-06	5.7783e-06	1330.8	364.53	4.1885e-06	8.8904e-06	423.3	139.27	121.25	41.49	4.1418e-06	51.411	0.0007089	0.0007162	0.00020005	1374.1	7.8192e-06	7.8943e-06	1362.1	374.75	7.8208e-06	7.8609e-06	440.17	143.86	126.54	43.167	7.8766e-06	53.587	67.136	-16.351	14.297	-93.640	13.105	42.933	-93.822	-89.066	193.636	5.579	-89.717	-85.414	-85.126	-80.089	-63.130	-80.507	-8191	255	
595.906	1	1	0	0	0.013229	0.046329	0.21313	0.31111	0.19115	0.22722	0.32962	0.25693	0.10038	0.26685	0.14563	0.20151	0.26969	0.32738	0.10511	0.0044312	-3.2062	-2.2125	-2.9354	-3.1562	-2.15	-3.3958	-3	-2.5542	-3.1792	-2.2521	-2.8896	-3.1312	-2.1958	-3.3083	-2.7833	-2.3937	-19.314	-11.046	101.423	-93.779	118.362	-43.243	199.755	-103.170	131.500	-14.912	115.320	163.321	-41.448	-88.192	210.670	23.263	0.00067379	0.00073283	0.00013235	1342.3	4.9778e-06	4.5406e-06	1326.3	367.07	3.2981e-06	1.3612e-06	421.42	139.37	120.91	41.683	3.4277e-06	51.623	0.00071724	0.00072007	0.00020122	1372.6	7.8457e-06	7.8489e-06	1360.5	375.31	7.8485e-06	7.8808e-06	438.97	143.9	126.34	43.218	7.8596e-06	53.569	77.172	7.823	-34.714	-93.764	40.162	-59.061	-93.726	-89.112	235.562	-7.255	-89.390	-85.405	-85.020	-79.975	25.785	-80.809	-8191	255	
596.000	1	1	0	0	0.20395	0.11359	0.19217	0.11617	0.18933	0.2994	0.12127	0.28178	0.051932	0.17711	0.045396	0.10733	0.26707	0.19278	0.077368	0.13518	-3.1208	-2.2042	-2.8396	-3.4083	-2.0604	-3.1646	-2.7667	-2.3354	-3.2708	-2.225	-2.9	-3.3563	-2.0687	-3.2333	-2.9271	-2.2458	123.565	203.312	-13.576	152.409	57.335	14.506	147.014	246.130	199.506	-28.108	238.547	142.086	-28.915	210.038	95.071	-86.247	0.00076566	0.00023535	0.00029147	1343	4.9405e-06	3.7661e-06	1328.7	364.85	5.4149e-06	7.8916e-06	420.86	140.16	121.86	41.814	3.0973e-06	51.574	0.00070814	0.00071906	0.00019894	1372.8	7.7442e-06	7.8515e-06	1361	375.02	7.8286e-06	7.9277e-06	440.56	144.38	126.92	43.344	7.9228e-06	53.647	65.134	64.898	-42.951	-93.606	35.258	17.446	-93.963	-88.840	-67.667	65.353	-89.714	-85.328	-85.023	-80.103	84.548	-80.664	-8191	255	
596.096	1	1	0	0	0.096426	0.10624	0.17465	0.13437	0.37922	0.28788	0.083812	0.26627	0.1517	0.25901	0.19579	0.10029	0.081979	0.11512	0.13192	0.098827	-3.2417	-2.4875	-2.3604	-3.5646	-2.2729	-3.1479	-3.3083	-2.3042	-3.1583	-2.5687	-2.5167	-3.3583	-2.4458	-3.0875	-2.9333	-2.5125	84.823	200.507	2.741	232.020	102.824	127.486	-103.186	251.070	36.983	144.045	216.313	-48.851	9.820	223.331	-35.124	101.289	0.00075882	0.00055272	0.00027799	1350.2	2.2295e-06	6.0186e-06	1339.2	367.11	6.7803e-06	1.1561e-05	421.25	139.44	121.8	41.712	1.2549e-06	51.669	0.00072615	0.00072983	0.0002027	1377.6	8.0004e-06	7.992e-06	1366.3	376.15	7.9837e-06	7.9939e-06	441.75	144.23	126.96	43.377	8.0095e-06	53.68	56.841	59.749	35.486	-93.517	80.887	-28.365	-93.840	-88.998	222.912	99.582	-89.608	-85.063	-85.182	-79.949	214.894	-80.560	-8191	255	
596.193	1	1	0	0	0.30628	0.17291	0.37219	0.34236	0.2249	0.077638	0.21114	0.33287	0.12284	0.21115	0.14863	0.078876	0.1947	0.14462	0.086851	0.18595	-3.0604	-2.6146	-2.3771	-3.5333	-2.225	-2.9896	-3.3125	-2.3063	-3.3312	-2.7042	-2.2396	-3.5333	-2.3812	-2.8625	-3.1021	-2.2	94.324	190.213	-70.926	240.661	76.527	175.290	178.186	210.125	211.148	-36.534	51.148	79.580	-21.451	181.661	-92.156	210.567	0.00069323	0.00027384	0.00027715	1349.5	3.713e-06	1.1296e-05	1339.9	366.55	1.2426e-05	9.6649e-06	422.31	140.41	122.13	42.079	4.2209e-06	51.535	0.00073092	0.00073605	0.00020589	1377.4	8.0395e-06	8.0583e-06	1367.9	376.64	8.0724e-06	7.9853e-06	441.56	144.77	127.43	43.605	8.0396e-06	53.805	77.591	69.036	-61.832	-93.525	63.707	25.900	-93.832	-88.948	201.683	87.822	-89.417	-85.226	-84.959	-80.023	-76.194	-80.825	-8191	255	
596.289	1	1	0	0	0.18991	0.22687	0.078721	0.33463	0.058664	0.1359	0.21951	0.091725	0.2096	0.32809	0.27917	0.091865	0.12492	0.38754	0.15263	0.22966	-2.8063	-2.9208	-2.2979	-3.4688	-2.4021	-2.5583	-3.3667	-2.2812	-3.0771	-2.9938	-2.325	-3.4854	-2.3083	-2.7479	-3.3521	-2.2833	30.228	209.518	-75.971	86.796	-55.499	199.022	197.817	33.504	-40.325	50.792	210.342	79.924	80.174	238.799	235.118	221.757	0.0007059	0.00036181	0.00017206	1354.8	4.6998e-07	1.7371e-06	1335.7	368.65	5.4958e-06	1.285e-06	425.38	140.33	121.49	42.091	4.3548e-06	51.784	0.0007397	0.00073769	0.00020436	1381	8.0473e-06	8.1183e-06	1368.3	377.6	8.1032e-06	8.1494e-06	444.67	145.01	127.74	43.737	8.1548e-06	53.998	51.251	8.459	-28.274	-93.571	41.828	140.019	-93.802	-88.840	206.199	154.072	-89.574	-85.219	-85.088	-80.065	11.478	-80.764	-8191	255	
596.385	1	1	0	0	0.057723	0.1809	0.19978	0.20634	0.1317	0.29451	0.06895	0.34371	0.09861	0.11092	0.26791	0.20747	0.28159	0.20011	0.10297	0.095136	-2.8625	-3.0312	-1.9729	-3.3854	-2.5583	-2.2917	-3.5583	-2.5354	-3.0896	-3.1229	-2.1792	-3.1271	-2.6896	-2.6813	-3.1292	-2.1958	135.390	162.931	-51.789	182.329	143.522	207.639	112.635	193.145	154.849	201.096	-36.928	246.963	201.520	212.456	67.320	222.351	0.00057215	0.00092547	0.00013939	1350.2	8.2554e-06	5.1493e-06	1340.4	367.94	7.0944e-06	1.3236e-06	420.44	141.63	122.63	42.407	2.4856e-06	52.499	0.00073323	0.00073589	0.00020426	1381.5	8.0829e-06	8.0036e-06	1373.5	377.83	8.0184e-06	7.9101e-06	443.37	145.87	128.09	44.039	7.82e-06	54.518	80.841	-10.484	60.117	-93.615	-52.615	132.977	-93.773	-89.060	-28.086	-17.346	-89.951	-85.491	-85.068	-80.153	54.098	-80.943	-8191	255	
596.481	1	1	0	0	0.058096	0.047104	0.34141	0.31549	0.13662	0.23695	0.34902	0.10396	0.12318	0.22692	0.28037	0.30341	0.24007	0.11674	0.17706	0.039212	-2.5979	-3.2125	-2.1354	-3.3312	-2.7167	-2.3563	-3.5417	-2.4917	-2.5958	-3.25	-2.2667	-3.1625	-2.8083	-2.4625	-3.3125	-2.5292	184.072	55.487	189.647	176.600	51.742	190.506	172.246	126.977	-67.932	81.402	221.238	251.215	-84.459	178.691	90.414	184.076	0.00054962	0.00027368	0.00020927	1359.5	5.3984e-06	6.4699e-06	1342.7	369.71	1.1793e-05	4.1915e-06	424.77	142.26	123.57	42.713	7.1268e-06	52.666	0.00071464	0.00070306	0.00019697	1383.1	7.7395e-06	7.6641e-06	1373.2	378.06	7.6283e-06	7.664e-06	443.76	146.7	128.69	44.346	7.6641e-06	54.721	58.420	-11.521	-55.840	-93.544	57.010	119.460	-93.905	-89.005	-103.809	87.708	-89.408	-84.883	-85.071	-80.300	11.620	-80.929	-8191	255	
596.577	1	1	0	0	0.23773	0.066536	0.31141	0.22988	0.039334	0.17902	0.43757	0.29654	0.3001	0.18987	0.1848	0.23435	0.15486	0.33808	0.17205	0.10891	-2.425	-3.1875	-2.1042	-3.275	-2.8771	-2.1396	-3.4958	-2.7104	-2.5563	-3.2208	-2.2667	-3.1208	-3.1146	-2.0833	-3.2458	-2.6833	-8.349	60.630	-46.359	196.807	147.989	-0.726	178.044	-85.437	-27.325	199.693	-84.930	-100.768	1.806	177.601	231.668	-66.077	0.00063823	0.00071364	2.5088e-05	1354.8	8.8735e-06	4.7331e-06	1342.5	369.19	1.0678e-05	3.695e-06	424.89	142.84	123.47	42.844	1.1879e-05	53.009	0.00070249	0.00069605	0.00019572	1382.7	7.6315e-06	7.7654e-06	1371.6	378.09	7.7223e-06	7.6635e-06	443.48	146.95	128.59	44.377	7.7177e-06	54.779	85.336	30.308	67.165	-93.649	5.270	142.439	-93.805	-89.190	-65.171	-61.458	-89.714	-85.095	-85.083	-80.157	-69.124	-81.015	-8191	255	
596.698	1	1	0	0	0.077725	0.16701	0.1606	0.27599	0.12762	0.067349	0.043099	0.13198	0.39296	0.077792	0.25997	0.31572	0.11277	0.23461	0.18495	0.21444	-2.0708	-3.2188	-2.1854	-3.0687	-3.0646	-2.0667	-3.4875	-2.7667	-2.4313	-3.4062	-2.3187	-2.7583	-3.2188	-2.2479	-3.2375	-2.7792	-46.646	91.458	-84.957	-83.562	242.229	-62.654	185.931	224.537	243.438	-45.172	-80.959	-63.416	-81.275	-96.500	229.717	229.604	0.00062887	0.00089435	0.00019615	1354.6	6.47e-06	6.6042e-06	1344.5	370.17	1.7156e-06	2.1439e-06	426.85	142.86	124.45	42.617	2.6399e-06	52.577	0.00070611	0.00069911	0.00019634	1383.2	7.694e-06	7.6625e-06	1375.2	378.85	7.7037e-06	7.6909e-06	444.96	146.91	128.87	44.314	7.7573e-06	54.697	74.996	14.641	-3.503	-93.494	3.262	28.043	-93.505	-89.030	229.811	73.109	-89.430	-85.162	-85.044	-79.989	-10.925	-81.133	-8191	255	
596.794	1	1	0	0	0.32829	0.12149	0.053543	0.13145	0.17458	0.1084	0.17057	0.30966	0.15291	0.23964	0.14259	0.13527	0.15889	0.17555	0.12461	0.022123	-2.05	-3.2562	-2.3417	-2.9188	-3.225	-2.1188	-3.3708	-3.0979	-2.3229	-3.1771	-2.325	-2.8063	-3.1937	-2.3479	-3.0396	-3.1375	119.383	-91.838	226.195	-58.870	147.660	-45.679	242.062	142.930	-105.006	-4.912	165.256	206.016	-7.518	200.012	-58.118	-65.677	0.00076216	0.00081993	0.00010914	1360.7	4.4392e-06	6.6828e-06	1347.5	370.26	5.1352e-06	5.6247e-06	424.8	142.39	124.65	42.558	3.5792e-06	52.337	0.00070432	0.00070199	0.00019919	1385.9	7.7328e-06	7.7878e-06	1377	379.18	7.7959e-06	7.8049e-06	444.15	146.91	128.96	44.226	7.8817e-06	54.625	79.942	-28.123	6.503	-93.535	-31.485	1.847	-93.643	-89.016	212.292	23.293	-89.392	-85.337	-85.287	-80.420	8.660	-80.818	-8191	255	
596.888	1	1	0	0	0.32335	0.061002	0.18564	0.33122	0.09477	0.13117	0.24596	0.103	0.075029	0.1327	0.10034	0.043142	0.22154	0.40613	0.084612	0.11456	-1.9688	-3.3271	-2.4104	-2.6542	-3.1333	-2.0583	-3.0792	-3.1854	-2.1792	-3.2896	-2.4479	-2.6729	-3.5104	-2.3354	-2.8583	-3.3625	26.934	208.295	32.870	152.794	142.737	23.029	201.732	33.950	204.348	118.865	228.616	80.626	189.078	181.569	169.180	103.692	0.00061063	0.00069008	0.00014866	1362.9	1.7431e-06	1.7187e-06	1352	369.42	8.9705e-06	3.0371e-06	427.47	142.04	124.14	42.472	4.5356e-06	52.501	0.00071827	0.00072412	0.00020487	1388.6	7.9975e-06	8.0517e-06	1382.8	379.79	8.083e-06	8.107e-06	446.23	146.67	128.9	44.105	8.2303e-06	54.582	83.979	-24.158	-22.019	-93.461	82.429	-20.176	-93.466	-89.018	189.219	91.009	-89.333	-85.127	-84.972	-80.260	129.703	-80.793	-8191	255	
596.986	1	1	0	0	0.17535	0.19454	0.10375	0.1416	0.14517	0.23279	0.086025	0.34648	0.21463	0.19231	0.26414	0.26426	0.2065	0.4133	0.071192	0.2609	-1.7875	-3.2438	-2.6125	-2.6688	-3.3729	-2.2125	-3.125	-3.4271	-2.175	-3.2333	-2.9854	-2.2771	-3.3958	-2.8063	-2.7687	-3.5396	159.170	237.699	75.247	146.174	10.253	201.179	224.964	166.388	101.219	6.861	239.533	-79.877	191.430	220.676	250.513	-37.210	0.00077041	0.00066974	0.00010105	1364.8	2.3274e-06	1.0123e-05	1353.4	371.47	3.6176e-06	8.8974e-06	425.66	142.47	123.48	42.362	2.0257e-06	52.539	0.00074873	0.00074923	0.00021052	1393.9	8.2162e-06	8.3505e-06	1385.6	380.73	8.2033e-06	8.2349e-06	446.69	146.83	129.1	44.171	8.2922e-06	54.627	72.956	-20.024	16.748	-93.406	20.820	38.744	-93.431	-89.077	213.359	39.973	-89.901	-85.164	-84.834	-80.095	85.348	-80.845	-8191	255	
597.081	1	1	0	0	0.18852	0.13653	0.25874	0.23949	0.14743	0.26762	0.29795	0.28136	0.20999	0.15122	0.15752	0.26292	0.15122	0.077523	0.14416	0.28776	-1.8833	-3.2833	-2.7562	-2.3937	-3.2167	-2.3375	-2.9	-3.5229	-2.3146	-3.1354	-3.0354	-2.4667	-3.3521	-2.575	-2.6063	-3.4396	235.943	152.835	2.842	203.538	74.483	40.686	150.891	222.419	65.179	-85.450	164.481	207.300	167.010	87.244	76.145	203.660	0.00060139	0.00018873	6.2051e-05	1366.5	8.414e-06	5.5065e-06	1359.7	370.73	7.5796e-06	6.9333e-06	428.25	142.24	124.24	42.511	3.0804e-06	52.39	0.00074955	0.00074979	0.00021022	1395.5	8.2322e-06	8.2508e-06	1386.8	380.92	8.2521e-06	8.3055e-06	448.15	147.08	129.38	44.257	8.2627e-06	54.624	56.747	211.327	-22.545	-93.392	-2.166	47.926	-93.447	-89.074	-30.741	107.018	-89.305	-85.240	-84.868	-80.134	-89.202	-80.463	-8191	255	
597.179	1	1	0	0	0.048233	0.20296	0.1222	0.31907	0.031267	0.31973	0.22704	0.11841	0.11023	0.042567	0.19009	0.16374	0.040714	0.14445	0.10719	0.069292	-1.9583	-2.9208	-3.0167	-2.3063	-3.2542	-2.5667	-2.7083	-3.4146	-2.2625	-2.6875	-3.0792	-2.2375	-3.3187	-2.7125	-2.4458	-3.4667	203.340	113.475	38.161	110.942	117.337	146.723	176.794	206.374	-46.978	-49.365	28.318	243.380	161.446	209.858	17.787	-94.241	0.00075073	0.00088025	7.9798e-05	1365.6	1.6428e-06	4.3086e-06	1356.5	370.15	3.9983e-06	3.1998e-06	423.04	141.19	123.49	42.455	5.3694e-06	52.349	0.00075129	0.00076044	0.00021034	1395	8.2957e-06	8.3209e-06	1385	380.66	8.3402e-06	8.3177e-06	446.8	146.63	129.54	44.192	8.3866e-06	54.67	68.318	32.814	-102.099	-93.289	3.739	27.764	-93.664	-88.966	-39.483	33.729	-89.725	-84.924	-84.817	-80.091	24.149	-80.728	-8191	255	
597.297	1	1	0	0	0.19594	0.13162	0.076096	0.21937	0.27477	0.10208	0.057232	0.2654	0.22964	0.13492	0.30444	0.2781	0.40452	0.11335	0.18267	0.17286	-1.9375	-2.8	-2.9875	-2.4396	-2.9979	-2.8458	-2.5563	-3.4542	-2.4104	-2.8271	-3.3688	-2.2104	-3.3667	-2.875	-2.4042	-3.325	-84.131	136.564	92.402	239.273	219.728	-83.035	205.038	233.983	-48.893	35.664	120.223	86.682	-88.804	246.956	55.219	185.966	0.00077671	0.00084935	0.0001402	1370.8	6.4677e-06	5.3922e-06	1355.9	371.61	2.6014e-06	5.8148e-06	424.59	141.96	123.57	42.503	7.4563e-06	52.401	0.00076598	0.00077484	0.00021605	1396.6	8.4944e-06	8.4937e-06	1387.6	381.44	8.5009e-06	8.521e-06	448.7	146.84	129.63	44.286	8.5375e-06	54.65	62.132	-86.755	-100.468	-93.435	-48.915	17.186	-93.652	-88.725	73.211	79.420	-89.645	-85.033	-84.942	-80.137	52.170	-80.692	-8191	255	
597.394	1	1	0	0	0.37691	0.21872	0.11168	0.11363	0.18684	0.086363	0.053513	0.16257	0.074904	0.25155	0.25004	0.26635	0.10939	0.34701	0.15573	0.12777	-2.0333	-2.6417	-3.1771	-2.5271	-3.1854	-2.8292	-2.3583	-3.4917	-2.4354	-2.4958	-3.1958	-2.4688	-3.2812	-3.15	-2.1646	-3.3958	30.161	200.511	179.284	-104.856	142.599	212.670	246.013	119.731	94.972	161.715	229.760	187.462	220.021	189.610	154.845	105.112	0.00081796	0.00097237	0.00018293	1369.3	6.4205e-06	4.73e-06	1357.9	372.19	3.2799e-06	9.6527e-07	426.67	141.76	124.12	42.508	2.5141e-06	52.24	0.00078082	0.0007838	0.00021642	1398.4	8.6386e-06	8.5703e-06	1389.7	382.73	8.5663e-06	8.5801e-06	450.81	147.05	129.93	44.214	8.5325e-06	54.709	61.269	-7.527	14.213	-93.248	-33.478	45.006	-93.477	-88.864	207.810	194.568	-89.172	-85.097	-84.888	-80.092	18.129	-80.704	-8191	255	
597.490	1	1	0	0	0.12448	0.061426	0.26563	0.081634	0.044052	0.29467	0.15498	0.24719	0.15302	0.13822	0.17366	0.09243	0.098353	0.18862	0.14398	0.28477	-2.2479	-2.5458	-3.55	-2.4604	-2.975	-2.8812	-2.3812	-3.3646	-2.6021	-2.5271	-3.2458	-2.3479	-2.8167	-3.2229	-2.2687	-3.1854	215.803	50.148	-20.573	173.635	209.871	100.240	220.473	174.879	69.713	110.171	233.800	-69.845	42.215	148.002	158.404	178.990	0.00067334	0.00058795	0.00021791	1369.9	2.4564e-06	5.3979e-06	1355.2	370.52	1.0738e-05	1.3505e-05	426.06	142.03	123.75	42.339	3.8433e-06	52.42	0.00078325	0.00078559	0.00021905	1400.4	8.6003e-06	8.6007e-06	1388.5	381.8	8.5584e-06	8.6161e-06	450.97	147.13	129.77	44.22	8.5634e-06	54.806	72.208	-11.279	-5.303	-93.502	150.266	115.084	-93.588	-88.840	-40.215	80.495	-89.550	-85.061	-84.764	-80.221	-48.301	-80.470	-8191	255	
597.586	1	1	0	0	0.14391	0.11518	0.22876	0.069279	0.202	0.16745	0.064788	0.091528	0.20211	0.18438	0.2405	0.14864	0.13708	0.066461	0.085734	0.20313	-2.4813	-2.1396	-3.3917	-2.5604	-2.7583	-3.1188	-2.2604	-3.4271	-2.7708	-2.2354	-3.2979	-2.575	-2.7458	-3.4042	-2.1896	-3.1458	-5.783	137.530	234.869	174.736	38.550	218.231	175.136	-45.585	-13.188	-88.404	191.689	251.151	228.065	118.586	114.477	185.023	0.00054103	0.00061314	0.00015007	1372.3	2.6147e-06	6.23e-06	1351.5	371.04	1.2657e-05	3.6822e-06	429.65	142.81	123.81	42.616	9.6695e-06	52.478	0.00078238	0.00077595	0.00021799	1398.6	8.5989e-06	8.5669e-06	1386.8	381.33	8.5554e-06	8.5283e-06	451.38	147.29	130.08	44.328	8.5656e-06	54.768	74.596	-18.732	-48.727	-93.408	-105.043	-49.236	-93.593	-88.777	-36.078	85.028	-89.372	-85.181	-84.670	-80.055	28.081	-80.763	-8191	255	
597.682	1	1	0	0	0.15087	0.077823	0.099131	0.19373	0.049736	0.048376	0.36517	0.12727	0.16748	0.027092	0.17734	0.31024	0.020286	0.11423	0.10201	0.18382	-2.8375	-2.0667	-3.3375	-2.6229	-2.3583	-3.3583	-2.3083	-3.2812	-3.0312	-2.1437	-3.2687	-2.7542	-2.6188	-3.4292	-2.3979	-2.9938	241.086	157.958	198.600	195.959	188.598	205.635	184.559	148.631	-82.266	214.075	-98.052	252.370	-16.146	234.869	216.608	-98.172	0.00059993	0.00044706	6.7347e-05	1368.6	4.327e-06	4.6473e-06	1358.5	370.96	2.0633e-06	6.5949e-06	426.44	142.76	124.22	42.673	4.9996e-06	52.513	0.00077612	0.0007795	0.00021753	1398.4	8.5664e-06	8.5347e-06	1387.7	382	8.4419e-06	8.4663e-06	450.67	147.39	129.98	44.4	8.4741e-06	54.872	69.124	-5.308	-35.612	-93.427	33.773	63.658	-93.569	-88.804	49.465	61.145	-89.145	-85.347	-84.948	-80.008	206.593	-80.701	-8191	255	
597.778	1	1	0	0	0.3462	0.27495	0.19325	0.10319	0.097814	0.12358	0.1476	0.075956	0.04114	0.27456	0.08184	0.06108	0.20748	0.2399	0.076414	0.31837	-2.8771	-2.2229	-3.3667	-3.2062	-2.4417	-3.4813	-2.3937	-2.9583	-3.1312	-2.1583	-3.2646	-3.075	-2.35	-3.4917	-2.2792	-2.9771	-96.580	172.923	177.445	199.712	169.545	39.029	202.796	142.806	86.747	90.545	-72.572	227.484	-68.690	-96.919	7.055	217.634	0.00072289	0.00028185	0.00015627	1368	1.688e-06	2.6985e-07	1357.5	371.49	6.021e-06	5.1491e-06	426.08	142.44	123.62	42.666	1.0431e-05	52.394	0.00076233	0.00076943	0.00021478	1396.6	8.3877e-06	8.4312e-06	1387.1	381.48	8.3555e-06	8.4758e-06	451.64	147.3	129.76	44.357	8.5022e-06	54.936	53.531	227.247	-46.965	-93.368	9.062	43.654	-93.629	-88.788	248.374	35.387	-89.447	-85.212	-85.055	-80.164	33.189	-80.759	-8191	255	
597.874	1	1	0	0	0.15516	0.16538	0.16523	0.22671	0.18903	0.11362	0.25405	0.15729	0.2294	0.11063	0.12229	0.14217	0.054478	0.22792	0.073472	0.32372	-2.9729	-2.1958	-3.1688	-3.0292	-2.0604	-3.3771	-2.5125	-2.7687	-3.4208	-2.0917	-3.0521	-3.0479	-2.2604	-3.4771	-2.4125	-2.7021	140.811	52.196	220.900	240.581	11.677	244.207	185.307	-14.281	215.512	-102.047	253.019	63.513	160.004	233.519	-89.775	221.351	0.00084052	0.00068476	0.00017187	1373.2	8.131e-06	5.2374e-06	1353.8	371.08	7.0487e-06	8.0936e-06	425.84	142.4	124.16	42.964	5.856e-06	52.581	0.00076224	0.0007813	0.0002178	1399.6	8.523e-06	8.473e-06	1386.6	381.65	8.4509e-06	8.4662e-06	450.55	147.17	129.83	44.545	8.4612e-06	54.869	52.655	-28.645	-8.223	-93.401	83.795	38.646	-93.580	-88.664	41.489	66.576	-89.267	-85.032	-85.250	-79.710	-37.989	-80.442	-8191	255	
597.971	1	1	0	0	0.093706	0.25111	0.17262	0.2737	0.055701	0.13167	0.13118	0.28154	0.10545	0.10621	0.23349	0.32136	0.0069424	0.29394	0.24416	0.27317	-3.0333	-2.2229	-3.0833	-3.0312	-2.0792	-3.2875	-2.6979	-2.5708	-3.3625	-2.1604	-3.0229	-3.1437	-2.2792	-3.3917	-2.7687	-2.4042	24.704	58.328	218.094	242.538	6.665	102.103	189.950	228.565	170.592	-25.334	-57.852	-59.799	174.481	224.743	108.163	141.024	0.0007032	0.00067354	0.0001946	1371.6	5.1082e-06	7.2719e-06	1353.6	372.36	4.2756e-06	1.1047e-05	425.58	142.39	123.36	42.723	8.4696e-06	52.422	0.00076676	0.00077582	0.00021682	1398.6	8.451e-06	8.5309e-06	1387.7	381.99	8.4984e-06	8.4737e-06	450.04	147.65	129.95	44.483	8.5115e-06	54.85	70.367	5.706	6.980	-93.424	95.825	168.366	-93.458	-88.673	209.860	42.834	-89.247	-85.025	-84.944	-79.903	14.319	-80.763	-8191	255	
598.089	1	1	0	0	0.24291	0.21917	0.1951	0.30456	0.062573	0.20804	0.28788	0.33562	0.15568	0.21529	0.039373	0.1881	0.17224	0.11495	0.15557	0.33672	-3.1542	-2.3125	-2.7667	-3.3604	-2.2042	-3.2062	-2.9229	-2.4729	-3.3563	-2.6208	-2.4188	-3.425	-2.2604	-3.1167	-2.6937	-2.4833	-81.547	-49.362	-35.389	-77.497	-80.658	192.922	231.876	239.955	215.231	110.726	12.141	217.000	-8.869	210.091	252.055	200.961	0.00051031	0.00072311	0.00019085	1367	8.7491e-06	5.5587e-06	1354.4	370.59	1.1011e-05	3.8711e-06	429.18	142.23	123.32	42.848	2.6494e-06	52.646	0.00076322	0.00076941	0.00021566	1397.6	8.4503e-06	8.3852e-06	1385.6	381.27	8.3646e-06	8.4574e-06	450.04	147.34	129.59	44.46	8.4265e-06	54.825	45.550	19.847	-8.863	-93.400	13.432	-10.372	-93.504	-88.907	47.972	-14.199	-89.190	-85.061	-85.100	-79.826	225.874	-80.344	-8191	255	
598.186	1	1	0	0	0.18353	0.10583	0.18372	0.33278	0.15277	0.12656	0.18168	0.13492	0.014221	0.26052	0.055333	0.045463	0.18077	0.095996	0.23944	0.15679	-3.0354	-2.5729	-2.4625	-3.4896	-2.2792	-3.0354	-3.0438	-2.4854	-3.3229	-2.5021	-2.5771	-3.3521	-2.0625	-3.0542	-2.9583	-2.3438	-40.583	154.632	121.740	213.194	-40.875	207.609	180.669	245.034	-40.620	188.594	1.334	-91.007	50.430	62.482	78.785	143.348	0.0006792	0.00012517	0.00023931	1368.9	6.7172e-06	5.3083e-06	1353.7	371.34	2.825e-06	4.0765e-06	424.83	142.57	123.65	42.86	7.6052e-06	52.387	0.00076897	0.00076812	0.00021346	1398.8	8.4734e-06	8.3895e-06	1387.5	381.16	8.4448e-06	8.4929e-06	449.96	147.38	129.68	44.423	8.3893e-06	54.706	50.205	81.898	-11.792	-93.215	-29.464	-0.307	-93.580	-88.742	-64.733	141.238	-89.264	-85.068	-84.724	-79.907	91.668	-80.642	-8191	255	
598.259	1	1	0	0	0.17191	0.29879	0.073907	0.18947	0.34564	0.18598	0.14875	0.31208	0.087632	0.11672	0.14087	0.23807	0.047365	0.21563	0.25508	0.19234	-3.0458	-2.4979	-2.6125	-3.5125	-2.2208	-2.8021	-3.4583	-2.2875	-3.3604	-2.6562	-2.3792	-3.4771	-2.2896	-2.7458	-3.1542	-2.3187	75.973	177.238	94.972	201.763	-6.194	-98.895	189.679	224.889	0.679	241.488	165.905	152.218	-45.043	175.778	73.450	102.966	0.00050875	0.00071567	7.8157e-05	1368	7.0288e-06	1.014e-05	1357	372.07	8.5204e-06	3.697e-06	426.11	142.43	123.69	42.553	3.309e-06	52.127	0.00077249	0.00077764	0.00021701	1398	8.5605e-06	8.5812e-06	1386.8	381.43	8.5572e-06	8.571e-06	449.72	147.11	129.57	44.296	8.422e-06	54.705	71.372	-22.065	-19.849	-93.201	-30.026	46.174	-93.510	-88.585	-18.668	126.254	-89.522	-84.898	-84.902	-79.981	143.603	-80.612	-8191	255	
598.378	1	1	0	0	0.054411	0.3285	0.035112	0.16332	0.061329	0.2663	0.33844	0.26936	0.1911	0.15504	0.1918	0.13538	0.078916	0.2577	0.080141	0.25244	-2.9333	-2.6771	-2.0729	-3.425	-2.4062	-2.7104	-3.4333	-2.3	-3.0312	-2.9458	-2.3	-3.5292	-2.45	-2.5438	-3.4062	-2.3771	-51.298	-35.190	184.982	-96.845	-100.727	209.977	243.783	152.364	-21.342	65.252	-67.202	180.531	116.152	233.690	101.032	195.719	0.0003886	0.00029645	0.00041484	1368.6	1.7393e-06	4.0042e-06	1350.9	371.44	2.127e-06	9.7554e-06	425.35	141.89	123.61	42.278	3.5317e-06	52.186	0.0007691	0.00077102	0.00021546	1397.1	8.4333e-06	8.3847e-06	1384.3	380.71	8.5058e-06	8.4265e-06	449.34	146.65	129.22	44.046	8.4468e-06	54.544	67.618	-13.182	-27.374	-93.445	-93.198	98.869	-93.509	-88.826	67.892	26.526	-88.835	-85.119	-85.010	-79.772	84.445	-80.894	-8191	255	
598.474	1	1	0	0	0.13563	0.22804	0.16505	0.21482	0.21765	0.04707	0.096157	0.19504	0.064872	0.074763	0.26952	0.12279	0.11399	0.31022	0.18963	0.22263	-2.8063	-2.9021	-2.2771	-3.5104	-2.3937	-2.4854	-3.4188	-2.1646	-2.8563	-2.9875	-2.125	-3.3833	-2.7646	-2.5062	-3.3917	-2.3292	227.425	99.025	218.514	-79.158	-7.418	80.464	-60.814	150.441	93.093	-46.444	-105.537	162.084	176.607	231.698	82.450	249.296	0.00093362	0.00010938	6.9201e-05	1368.5	6.9448e-06	6.5031e-06	1352	370.95	8.7514e-06	9.5971e-06	425.48	141.68	122.85	42.171	3.1078e-06	51.923	0.00077639	0.00078494	0.00021847	1396.7	8.6497e-06	8.6133e-06	1386	381.03	8.6828e-06	8.6874e-06	449.49	146.5	129.13	43.926	8.7383e-06	54.317	64.388	69.274	-24.363	-93.280	43.415	-89.046	-93.475	-88.978	-19.690	22.761	-89.633	-84.990	-84.715	-79.834	45.360	-80.510	-8191	255	
598.570	1	1	0	0	0.25965	0.24519	0.077117	0.11421	0.35472	0.1675	0.17232	0.097998	0.084677	0.15352	0.2092	0.16225	0.25431	0.10472	0.086956	0.27672	-2.5542	-3.1188	-2.0854	-3.5271	-2.6479	-2.3771	-3.6167	-2.5771	-2.6583	-3.125	-2.2729	-3.4375	-2.9062	-2.3021	-3.2875	-2.4562	168.222	247.964	-0.723	246.785	180.072	211.497	144.788	-26.852	-63.310	214.949	208.290	-92.939	-66.422	-82.135	134.784	222.515	0.00074313	0.00099346	0.00020657	1366.4	2.7592e-06	1.0272e-05	1354	369.84	7.1155e-06	1.3131e-06	425.6	140.7	123.3	41.877	8.3108e-06	51.827	0.0007913	0.00079624	0.00022175	1397.7	8.6823e-06	8.7794e-06	1383.9	381.08	8.6821e-06	8.5894e-06	450.95	145.96	129.03	43.75	8.6138e-06	54.235	73.234	-36.064	-6.932	-93.432	47.298	4.774	-93.364	-88.870	-27.311	210.891	-89.073	-84.869	-84.847	-79.695	9.161	-80.591	-8191	255	
598.666	1	1	0	0	0.16027	0.31384	0.13573	0.3272	0.045873	0.33675	0.16242	0.10849	0.32099	0.10724	0.20856	0.21482	0.22103	0.16737	0.17111	0.25464	-2.3563	-3.2646	-2.0125	-3.3063	-2.9417	-2.1042	-3.4083	-2.725	-2.5271	-3.4875	-2.2167	-3.0958	-3.0208	-2.1896	-3.4229	-2.7313	133.756	36.247	121.133	249.032	-20.357	96.184	142.090	182.799	35.434	11.295	152.729	236.477	-91.181	79.474	196.493	-40.656	0.00077284	0.00040807	4.6747e-05	1363.5	3.9741e-06	2.0614e-06	1351	369.51	8.834e-06	2.2749e-06	418.38	140.97	122.3	41.921	5.6831e-06	51.778	0.00078427	0.0007891	0.00021969	1393.8	8.5582e-06	8.5517e-06	1384.2	380.31	8.5203e-06	8.5411e-06	447.41	145.75	128.46	43.7	8.617e-06	54.087	76.744	-8.601	189.611	-93.331	-10.781	193.964	-93.312	-88.712	-100.664	106.857	-89.713	-84.899	-84.763	-79.839	4.926	-80.554	-8191	255	
598.787	1	1	0	0	0.12955	0.19487	0.24132	0.28254	0.34077	0.21064	0.33671	0.12987	0.12408	0.074	0.1687	0.22149	0.10292	0.1206	0.1524	0.062951	-2.0854	-3.3312	-2.2479	-3.2562	-2.9333	-2.3042	-3.4792	-2.9083	-2.4021	-3.4729	-2.2562	-2.7521	-3.0896	-2.2354	-3.2729	-2.8688	20.859	108.154	236.451	-103.325	25.305	28.193	197.632	236.386	-9.845	-23.092	49.351	-61.367	215.359	148.494	34.523	-5.388	0.00067791	0.0010915	2.1738e-05	1363.9	8.03e-06	2.4801e-06	1348.6	370.71	3.9114e-06	1.1636e-06	425.84	140.52	122.7	41.866	7.2781e-06	51.497	0.00077576	0.00078234	0.00021682	1394	8.4874e-06	8.4518e-06	1379.3	380.09	8.4554e-06	8.415e-06	447.67	145.27	128.1	43.538	8.4307e-06	53.952	55.906	0.475	105.324	-93.111	-46.177	113.301	-93.373	-88.661	-27.486	-19.346	-89.448	-85.068	-84.609	-79.495	34.713	-80.528	-8191	255	
598.881	1	1	0	0	0.14916	0.15773	0.10029	0.20614	0.11598	0.056233	0.2175	0.21083	0.099901	0.13146	0.14898	0.28011	0.13474	0.19015	0.20447	0.17395	-2.0083	-3.4333	-2.1792	-2.8104	-3.2042	-2.1875	-3.3417	-2.8583	-2.2313	-3.3458	-2.3688	-2.7917	-3.2625	-2.1458	-3.0854	-2.9188	116.038	-89.854	-38.038	-80.969	-45.479	164.775	54.441	155.947	135.087	205.692	251.453	-67.858	142.407	208.801	102.931	91.471	0.00065558	0.00099137	0.00023737	1359.8	4.247e-06	3.1139e-06	1346	370.12	4.906e-06	6.4747e-06	424.05	140.51	121.56	41.66	1.5105e-05	51.454	0.00075971	0.00076637	0.00021358	1390.1	8.2336e-06	8.352e-06	1379.2	379.36	8.343e-06	8.3178e-06	447.15	144.98	127.59	43.403	8.4157e-06	53.752	69.900	-44.155	-51.798	-93.227	194.833	-40.893	-93.430	-88.554	151.936	38.535	-88.932	-84.824	-84.844	-79.718	6.296	-80.600	-8191	255	
598.979	1	1	0	0	0.2536	0.21887	0.17831	0.20686	0.17904	0.072379	0.24286	0.16591	0.36474	0.19047	0.15135	0.056731	0.13742	0.26061	0.094221	0.029089	-1.9875	-3.4021	-2.5146	-2.8354	-3.3354	-2.2021	-3.3271	-3.3375	-2.0667	-3.2521	-2.6583	-2.6021	-3.4167	-2.3125	-2.9604	-3.2021	17.908	16.455	-68.146	-100.269	-82.614	157.996	200.524	44.677	16.489	71.371	78.217	146.856	219.969	-76.809	249.543	77.552	0.00078756	0.00028039	0.00022348	1364	7.1715e-06	1.2681e-06	1345.2	368.26	2.6008e-06	1.3168e-05	424.03	139.89	121.63	41.398	4.4068e-06	51.49	0.00076601	0.00077435	0.00021772	1392.2	8.4292e-06	8.5773e-06	1379.9	378.94	8.5059e-06	8.5242e-06	447.07	144.86	127.63	43.283	8.5458e-06	53.714	73.761	-103.989	-18.794	-93.039	-65.429	114.443	-93.414	-88.855	160.733	40.670	-88.739	-84.671	-84.481	-79.557	242.574	-80.618	-8191	255	
599.074	1	1	0	0	0.10361	0.10702	0.2442	0.17006	0.079781	0.379	0.29554	0.080777	0.05447	0.11732	0.092016	0.28983	0.16999	0.18907	0.14472	0.24343	-1.9479	-3.2146	-2.6833	-2.8167	-3.2958	-2.2542	-3.2333	-3.2354	-2.1521	-3.325	-2.7229	-2.6083	-3.3854	-2.6604	-2.7125	-3.3083	-91.186	-51.313	127.743	234.531	160.477	56.962	244.525	222.082	242.399	16.805	212.564	164.921	79.602	236.376	36.200	183.814	0.00086125	0.00018004	0.00017391	1362.6	1.6649e-06	3.9285e-06	1343	367.65	8.7234e-06	1.1295e-05	424.26	139.43	121.09	41.452	1.0379e-05	51.384	0.00077096	0.00077468	0.00021903	1390.2	8.4658e-06	8.4976e-06	1376.7	377.98	8.3182e-06	8.365e-06	447.18	144.14	127.2	43.175	8.3647e-06	53.642	55.431	-36.049	-67.328	-92.953	-2.680	57.588	-93.184	-88.763	165.261	65.941	-89.345	-84.790	-84.872	-79.649	-58.244	-80.399	-8191	255	
599.170	1	1	0	0	0.078864	0.14902	0.32304	0.18822	0.2021	0.015702	0.17837	0.21871	0.11807	0.064779	0.17818	0.046484	0.12359	0.098148	0.090052	0.23744	-1.7854	-3.1958	-2.7229	-2.5312	-3.1667	-2.4667	-2.8667	-3.3312	-2.2417	-3.1354	-2.9208	-2.4021	-3.3542	-2.4042	-2.4958	-3.4	34.906	200.387	-55.896	-83.368	-77.262	21.667	124.580	183.803	32.115	-71.519	-91.022	112.167	-85.943	215.957	-75.185	167.237	0.00058548	0.00042222	6.1552e-05	1355.4	2.8681e-06	2.3038e-06	1344.4	368.94	1.0884e-05	7.7723e-06	423.65	139.57	121.17	41.407	1.1386e-05	51.134	0.00076476	0.00076828	0.00021334	1385.5	8.3526e-06	8.4065e-06	1375	378.52	8.3933e-06	8.3481e-06	445.71	143.94	127.01	43.073	8.3254e-06	53.508	69.575	-2.095	-73.946	-93.192	-8.903	-83.248	-93.264	-88.779	-51.444	67.111	-89.941	-84.678	-84.399	-79.397	5.847	-80.553	-8191	255	
599.266	1	1	0	0	0.056225	0.31378	0.17273	0.34136	0.20328	0.1422	0.18189	0.039602	0.19065	0.13402	0.106	0.22332	0.020924	0.20634	0.20924	0.095919	-2	-2.9146	-3.1125	-2.4688	-3.1833	-2.5729	-2.5604	-3.5187	-2.2292	-2.9813	-3.0125	-2.5083	-3.3063	-2.8438	-2.3312	-3.6021	29.027	118.783	131.000	234.275	178.239	224.492	-60.261	-69.164	46.633	117.100	174.667	196.709	130.472	186.529	17.874	209.169	0.0010006	0.00010107	0.00016978	1349.5	1.7545e-06	4.9339e-06	1343.5	368.41	4.8203e-06	4.8942e-06	422.19	139.2	120.86	41.302	1.1365e-05	51.012	0.00076495	0.00077001	0.00021254	1383.7	8.3454e-06	8.4456e-06	1373.2	377.92	8.4571e-06	8.4324e-06	445.13	143.96	126.87	43.063	8.297e-06	53.398	66.363	109.797	-10.717	-93.200	18.420	40.491	-93.265	-88.641	-70.451	156.394	-89.046	-84.792	-84.551	-79.665	42.267	-80.332	-8191	255	
599.387	1	1	0	0	0.2187	0.15531	0.10081	0.22917	0.27052	0.28598	0.37014	0.28262	0.095895	0.19869	0.076429	0.1035	0.084762	0.14438	0.26711	0.060044	-2.0312	-2.8604	-3.175	-2.2833	-3.2062	-2.6979	-2.3333	-3.6146	-2.3854	-2.7438	-3.3438	-2.3021	-3.1437	-3.0438	-2.1125	-3.4688	58.938	68.920	-67.284	206.430	88.301	39.925	149.594	185.431	77.793	138.087	241.051	214.383	177.008	177.124	174.275	-21.797	0.00056425	0.00066482	0.00030293	1353.5	1.5198e-06	1.2932e-06	1344.3	367.94	7.2243e-06	4.1063e-06	423.4	139.72	121.87	41.139	8.7662e-06	50.945	0.00076123	0.00076365	0.00021175	1383.7	8.2886e-06	8.3107e-06	1374.2	378.04	8.3279e-06	8.3648e-06	444.95	143.79	127.33	42.92	8.3025e-06	53.311	69.150	-38.773	-13.272	-93.171	-5.099	27.491	-93.184	-88.546	171.532	14.662	-89.298	-84.599	-84.534	-79.552	-2.690	-80.562	-8191	255	
599.483	1	1	0	0	0.27614	0.072658	0.49547	0.25602	0.21151	0.09191	0.27136	0.02507	0.12267	0.30794	0.17976	0.35559	0.053154	0.30335	0.35337	0.24057	-2.2396	-2.5604	-3.2646	-2.3104	-3.0396	-2.9021	-2.5625	-3.4688	-2.5167	-2.4396	-3.45	-2.3042	-3.0917	-3.0729	-2.2625	-3.4625	111.590	243.537	210.010	216.974	-30.661	-10.408	210.525	139.574	-88.497	-50.557	233.465	190.872	-82.029	156.320	3.179	152.885	0.00076346	7.6293e-05	0.00012072	1361.5	3.6957e-06	3.7703e-06	1341	367.77	1.0002e-05	5.9683e-06	419.88	138.42	120.44	41.107	3.7846e-06	51.226	0.00075934	0.00076133	0.0002122	1386.8	8.3586e-06	8.4152e-06	1372.2	377.77	8.3792e-06	8.3376e-06	444.34	143.56	126.71	42.858	8.3354e-06	53.383	45.615	75.724	27.573	-93.009	67.772	-74.288	-93.098	-88.550	-88.437	68.557	-88.886	-84.847	-84.712	-79.540	51.477	-80.376	-8191	255	
599.554	1	1	0	0	0.093388	0.0539	0.14161	0.17583	0.16177	0.18887	0.48032	0.090899	0.22206	0.1195	0.14739	0.060375	0.27837	0.21348	0.016161	0.1593	-2.2771	-2.3187	-3.3292	-2.5833	-2.8979	-3.1937	-2.3771	-3.4813	-2.7625	-2.2646	-3.5042	-2.5187	-2.8542	-3.2354	-2.225	-3.3854	175.080	17.768	-57.359	-88.349	18.029	5.996	161.616	-33.477	-4.378	-14.658	234.359	242.449	-104.257	203.653	166.869	-71.224	0.0008305	0.00068197	0.00017432	1356.5	3.2635e-06	4.2552e-06	1338.9	367.95	4.0514e-06	9.9922e-06	421.15	138.62	120.6	41.318	3.43e-06	51.049	0.00075366	0.0007584	0.00021154	1383.1	8.2639e-06	8.3288e-06	1370.6	377.91	8.3203e-06	8.2785e-06	444.16	143.54	126.44	42.915	8.3645e-06	53.348	53.803	-15.997	-65.577	-93.267	-42.121	53.314	-93.392	-88.436	171.061	2.890	-89.074	-84.546	-84.396	-79.537	44.765	-80.388	-8191	255	
599.651	1	1	0	0	0.19862	0.04433	0.061161	0.081762	0.10407	0.03841	0.033025	0.07599	0.073002	0.052203	0.091849	0.13296	0.24077	0.23671	0.069809	0.16516	-2.4938	-2.2917	-3.2229	-2.3937	-2.6813	-3.2958	-2.2792	-3.3667	-2.7062	-2.25	-3.1917	-2.6083	-2.4292	-3.3271	-2.1021	-3.2792	-89.526	182.812	80.014	-103.951	135.982	220.086	-74.533	229.685	-67.059	195.440	252.352	214.601	-93.242	247.295	80.941	207.839	0.00078731	0.00077996	9.4262e-05	1353	9.6005e-06	4.4166e-06	1337.5	367.26	1.1983e-06	5.7517e-06	423.14	137.89	121.15	41.323	1.2109e-05	51.045	0.00075095	0.00076304	0.00020968	1382.6	8.3155e-06	8.2946e-06	1369	377.39	8.2716e-06	8.2928e-06	445.03	143.26	126.45	42.89	8.3188e-06	53.254	63.511	-2.909	-6.556	-93.293	174.249	4.520	-93.310	-88.621	-10.083	43.628	-89.342	-84.813	-84.728	-79.681	70.074	-80.562	-8191	255	
599.771	1	1	0	0	0.24339	0.042554	0.23797	0.45032	0.09424	0.28779	0.19414	0.2336	0.05047	0.21626	0.064487	0.093271	0.11201	0.21611	0.12692	0.12981	-2.8042	-2.0604	-3.3396	-2.5354	-2.3229	-3.2354	-2.3833	-3.1979	-3.0125	-2.4354	-3.3146	-2.8521	-2.7167	-3.4479	-2.2479	-3.1312	52.465	-47.602	143.545	205.717	78.292	43.995	198.258	-72.289	-92.769	4.868	-106.103	138.504	173.762	213.648	91.686	246.698	0.00078726	0.00052499	3.6591e-05	1353.5	7.8179e-06	5.2546e-06	1342.7	365.82	6.926e-06	2.5112e-06	422.47	138.35	120.77	41.147	9.9243e-07	51.111	0.00074901	0.00075025	0.00021018	1380.7	8.2598e-06	8.2095e-06	1370.1	377.37	8.2065e-06	8.115e-06	444.27	143.24	126.16	42.862	8.2275e-06	53.341	69.596	61.584	-77.093	-93.151	17.448	74.300	-93.342	-88.538	236.880	231.390	-89.510	-84.711	-84.740	-79.170	80.817	-80.236	-8191	255	
599.867	1	1	0	0	0.28109	0.12043	0.22866	0.30785	0.21068	0.11005	0.19067	0.2479	0.25564	0.13863	0.12399	0.13845	0.14579	0.15207	0.2202	0.096575	-2.8729	-2.225	-3.0625	-2.9729	-2.3104	-3.4146	-2.4938	-2.8896	-3.1604	-2.0563	-3.0958	-2.6854	-2.3271	-3.5687	-2.3063	-2.7833	118.744	177.135	89.467	-89.434	57.584	-17.906	236.719	197.513	246.106	135.468	211.751	16.827	-60.019	193.675	-70.746	211.525	0.00073442	0.00034598	6.3186e-05	1349.3	7.7049e-06	6.6352e-06	1335.8	367.04	3.7674e-06	7.656e-06	420.29	138.6	121.05	41.205	8.1945e-06	50.958	0.00073749	0.00075303	0.00020874	1379.6	8.2204e-06	8.1312e-06	1367.7	376.7	8.2182e-06	8.1951e-06	444.06	143.41	126.43	42.864	8.1826e-06	53.271	71.862	181.186	-99.383	-92.999	74.422	128.998	-93.408	-88.361	-34.143	45.871	-88.888	-84.571	-84.682	-79.522	-53.836	-80.237	-8191	255	
599.962	1	1	0	0	0.2144	0.14879	0.2563	0.25345	0.21259	0.091993	0.067483	0.24476	0.19218	0.27635	0.16945	0.28329	0.11892	0.060462	0.096574	0.10675	-3.0187	-2.0625	-3.0458	-3.0812	-2.1479	-3.2542	-2.4938	-2.7812	-3.1063	-2.1417	-3.0208	-3.1729	-2.2292	-3.4729	-2.4521	-2.6896	-68.649	230.701	104.285	187.459	39.700	225.843	-57.766	216.051	-2.957	-53.023	-75.490	227.204	229.427	252.744	44.245	123.866	0.00084974	0.00085326	0.00025308	1354.5	7.2678e-06	7.7298e-07	1335.3	366.63	3.2229e-06	6.4457e-06	419.24	138.94	120.95	41.221	1.1385e-05	51.094	0.00074313	0.00075214	0.00021091	1379.4	8.2522e-06	8.2158e-06	1366.7	376.67	8.1547e-06	8.2419e-06	443.43	143.4	126.54	42.944	8.2735e-06	53.291	63.218	15.903	-8.524	-93.224	51.898	-61.812	-93.337	-88.586	-43.344	87.721	-89.222	-84.724	-84.789	-79.275	-4.519	-80.270	-8191	255	
600.060	1	1	0	0	0.17285	0.23931	0.34981	0.25398	0.22175	0.18432	0.29672	0.23415	0.19764	0.46404	0.15425	0.29753	0.23294	0.077426	0.27683	0.081799	-2.9833	-2.2771	-2.8438	-3.125	-2.3354	-3.2708	-2.7479	-2.8708	-3.4104	-2.2667	-2.9542	-3.0896	-2.2396	-3.4083	-2.75	-2.4104	58.758	-85.849	-81.476	200.577	165.126	80.280	-102.144	233.193	-3.293	-8.465	46.050	-75.944	-105.762	215.094	89.837	134.026	0.00063953	0.0008254	0.00011004	1352.9	2.6876e-06	5.4362e-06	1336.7	368.15	2.1255e-06	5.4607e-06	423.04	138.8	120.75	41.344	1.0611e-05	51.159	0.00073981	0.00075498	0.00020891	1380.7	8.1932e-06	8.2364e-06	1367.4	377	8.1684e-06	8.2843e-06	444.56	143.37	126.38	42.978	8.2482e-06	53.36	64.600	17.760	234.260	-93.168	82.016	24.483	-93.402	-88.628	15.899	166.574	-89.169	-84.834	-84.742	-79.531	26.609	-80.318	-8191	255	
600.154	1	1	0	0	0.04364	0.20263	0.12784	0.26309	0.11764	0.11085	0.089429	0.23155	0.073652	0.2606	0.13129	0.10144	0.23182	0.15769	0.30624	0.047226	-3.1125	-2.3979	-2.7375	-3.4062	-2.225	-3.2354	-3.0021	-2.4208	-3.1333	-2.3646	-2.6792	-3.4792	-2.0417	-3.35	-2.8833	-2.425	227.381	59.680	-62.040	215.485	-100.442	168.822	34.721	186.364	236.646	205.802	-73.228	180.964	96.422	-104.493	8.757	203.122	0.00049252	0.00026608	0.00014422	1354.4	1.0478e-06	2.6504e-06	1340.3	368.1	1.742e-06	2.0684e-06	420.64	139.64	120.88	41.623	4.2562e-06	51.125	0.00074786	0.00075873	0.00021217	1382.7	8.2291e-06	8.1971e-06	1370.5	377.07	8.1575e-06	8.1087e-06	443.1	143.89	126.51	43.064	7.9484e-06	53.459	70.369	-57.167	24.677	-93.069	27.519	34.386	-93.473	-88.497	-15.184	151.099	-89.040	-84.573	-84.433	-79.631	41.711	-80.191	-8191	255	
600.250	1	1	0	0	0.066155	0.097224	0.30033	0.35362	0.10345	0.17744	0.19967	0.15247	0.22876	0.11627	0.21159	0.23139	0.28458	0.34196	0.1587	0.16242	-3.0146	-2.3542	-2.6188	-3.4646	-2.1083	-3.0438	-3.2083	-2.4104	-3.2729	-2.525	-2.4708	-3.6937	-2.1188	-3.0812	-3.2792	-2.0875	226.772	-37.407	-104.562	234.490	26.409	6.265	242.542	178.598	135.582	-34.283	-18.989	214.861	253.146	-93.142	173.884	76.731	0.00059838	0.00023709	5.9521e-05	1351.9	9.4465e-06	1.0286e-05	1334.1	368.31	6.4398e-06	1.6872e-06	419.22	139.23	120.51	41.543	1.4429e-06	51.493	0.00072271	0.00072361	0.00020077	1379.4	7.8676e-06	7.8036e-06	1365.9	376.09	7.6636e-06	7.6406e-06	437.79	143.43	125.76	42.988	7.3927e-06	53.285	69.235	-1.815	30.709	-93.114	80.762	50.083	-93.443	-88.562	147.311	86.761	-89.276	-84.651	-84.551	-79.457	-81.702	-80.391	-8191	255	
600.346	1	1	0	0	0.13759	0.19646	0.21118	0.068706	0.087888	0.18484	0.065335	0.32198	0.1827	0.055523	0.06445	0.16338	0.29131	0.08779	0.31498	0.13262	-3.0583	-2.525	-2.4104	-3.5229	-2.2146	-3.05	-3.2604	-2.1792	-3.1583	-2.8875	-2.3333	-3.5625	-2.3646	-2.9458	-3.0167	-2.2313	-44.741	134.861	40.954	179.743	182.400	159.989	252.110	174.189	146.555	104.869	153.303	224.749	-76.085	235.675	88.582	176.943	0.00071439	0.00017158	7.405e-05	1347	3.2803e-06	4.1847e-06	1330.7	366.54	1.8344e-06	7.589e-06	420.54	139.61	122.07	41.575	1.8935e-06	51.357	0.00066831	0.00067674	0.00018662	1369.8	7.3447e-06	7.2537e-06	1358	374.17	7.2809e-06	7.2665e-06	435.9	143.29	125.63	42.946	7.3747e-06	53.28	65.132	15.381	12.105	-92.832	151.626	7.912	-93.328	-88.622	194.566	65.793	-88.999	-84.814	-84.221	-79.501	32.049	-80.325	-8191	255	
600.467	1	1	0	0	0.1157	0.17888	0.088301	0.30162	0.13136	0.18016	0.1539	0.239	0.19015	0.12626	0.26421	0.22924	0.24112	0.30235	0.20022	0.077932	-2.7271	-2.8438	-2.1729	-3.5771	-2.2583	-2.7792	-3.3229	-2.3812	-3.0271	-2.9729	-2.3917	-3.3979	-2.5979	-2.575	-3.2583	-2.2812	238.644	-87.784	-69.969	-100.872	113.211	171.384	235.628	228.045	-5.630	118.765	128.191	-85.948	135.334	-63.195	-82.120	44.105	0.00071902	0.00011121	0.00015516	1346.3	6.4108e-06	4.8061e-06	1334.8	365.34	6.8143e-06	3.5993e-06	422.31	139.48	120.27	41.21	5.1198e-06	51.201	0.00068251	0.000677	0.00019206	1369.2	7.6964e-06	7.6693e-06	1361	374.65	7.8962e-06	7.7841e-06	440.74	143.49	126.03	42.901	8.0382e-06	53.371	43.230	35.682	6.145	-93.010	-20.742	56.225	-93.145	-88.289	185.201	47.429	-89.246	-84.634	-84.737	-79.522	0.207	-80.229	-8191	255	
600.563	1	1	0	0	0.12837	0.046981	0.16214	0.030734	0.19998	0.17196	0.24347	0.095566	0.21319	0.14361	0.21898	0.23938	0.064115	0.35017	0.28927	0.35388	-2.7812	-3.1562	-2.2354	-3.5062	-2.4042	-2.4625	-3.5458	-2.5083	-2.7125	-3.2104	-2.1375	-3.3833	-2.6375	-2.4542	-3.3021	-2.3833	251.317	-20.784	149.148	84.636	99.167	0.551	175.505	204.400	244.625	65.728	141.035	208.584	-66.188	206.573	35.422	198.481	0.00063896	0.00058513	4.4053e-05	1352.3	4.6012e-06	4.947e-06	1339.3	368.07	3.9939e-06	3.0643e-06	421.24	139.38	121.24	41.407	8.0598e-06	51.155	0.00074092	0.00074604	0.00020832	1379.5	8.3011e-06	8.2451e-06	1370.5	377.53	8.3606e-06	8.3804e-06	446.32	143.91	127.04	43.106	8.3905e-06	53.497	65.769	0.017	2.794	-93.050	-19.443	-75.699	-93.224	-88.545	-24.666	119.707	-89.287	-84.675	-84.743	-79.653	-26.808	-80.258	-8191	255	
600.659	1	1	0	0	0.29683	0.17319	0.2158	0.22638	0.096967	0.21591	0.32146	0.32228	0.1454	0.29114	0.12607	0.2227	0.05084	0.02344	0.028044	0.36328	-2.4646	-3.0187	-2.1208	-3.3396	-2.6979	-2.2771	-3.5563	-2.5417	-2.675	-3.0187	-2.0417	-3.2583	-2.8958	-2.475	-3.3271	-2.4875	244.473	7.932	-13.818	185.922	237.572	-26.575	184.791	156.193	60.484	53.866	48.387	176.344	70.261	-37.754	39.474	-103.023	0.0010647	9.423e-05	0.00017138	1354.4	5.4524e-06	4.7434e-06	1341.2	367.1	2.1647e-06	3.6945e-06	424.75	138.85	120.74	41.408	6.092e-06	51.28	0.00076185	0.00077088	0.00021243	1383.3	8.3572e-06	8.2694e-06	1371.2	377.3	8.3403e-06	8.2146e-06	444.8	143.9	126.53	43.038	8.1178e-06	53.406	61.423	72.290	-65.050	-93.035	27.804	125.177	-93.166	-88.625	28.775	116.152	-88.920	-84.787	-84.845	-79.363	46.829	-80.221	-8191	255	
600.780	1	1	0	0	0.32052	0.198	0.086414	0.30689	0.090183	0.13578	0.29762	0.23252	0.33331	0.35415	0.077031	0.040777	0.024861	0.078192	0.34737	0.18007	-2.3229	-3.225	-2.0729	-3.2833	-3.0646	-2.1042	-3.6208	-2.5333	-2.4854	-3.2521	-2.2875	-3.0812	-3.2021	-2.4667	-3.1083	-2.7562	-100.629	-26.395	62.632	216.131	179.866	192.125	175.604	175.348	-71.705	61.181	210.957	247.192	-79.126	-21.100	-8.991	249.385	0.00092053	0.00068456	0.0001981	1355.1	5.5741e-06	4.7267e-06	1338.8	367.46	2.8711e-06	1.1675e-06	422.52	138.71	121.59	41.368	1.0088e-06	51.178	0.00073728	0.00073295	0.00020499	1380.6	7.9035e-06	7.8413e-06	1366.2	376.42	7.7778e-06	7.661e-06	439	143.09	125.75	42.864	7.6272e-06	53.195	61.475	12.382	-55.669	-93.060	72.908	62.216	-93.396	-88.367	-69.799	-49.023	-89.001	-84.656	-84.607	-79.529	83.561	-80.159	-8191	255	
#DATA ENDS
