BOXY.EXE: ISS Imagent and Oximeter Data Acquisition Program Version 0.80
Ascii Record File

#ACQ INFORMATION
2  Detector Channels 
16  External MUX Channels 
1  Auxiliary Channels 
5000  Waveform (CCF) Frequency (Hz)
1  Waveforms Skipped 
30  Waveforms Averaged 
1  Cycles Averaged 
16  Acquisitions per Waveform 
10.0806  Updata Rate (Hz) 

#FILE INFORMATION
TRUE -- External MUX Channel results are PARSED.
FALSE -- AC DC and Phase are NOT grouped.
TRUE -- Companion Program Settings File CREATED.
FALSE -- AC data not excluded
FALSE -- DC data not excluded
FALSE -- Phase data not excluded
FALSE -- Auxillary Chn. data not excluded
Tab delimiters

#CALIBRATION STATE
TRUE -- Waveform Calibration Values APPLIED.


#AUX CALIBRATION VALUES
Val Type	aux-1	

Term	1.0000e+00	
Factor	0.0000e+00	


#WF CALIBRATION VALUES
A = Detector Channel
Val Type	A-AC1	A-AC2	A-AC3	A-AC4	A-AC5	A-AC6	A-AC7	A-AC8	A-AC9	A-AC10	A-AC11	A-AC12	A-AC13	A-AC14	A-AC15	A-AC16	A-DC1	A-DC2	A-DC3	A-DC4	A-DC5	A-DC6	A-DC7	A-DC8	A-DC9	A-DC10	A-DC11	A-DC12	A-DC13	A-DC14	A-DC15	A-DC16	A-Ph1	A-Ph2	A-Ph3	A-Ph4	A-Ph5	A-Ph6	A-Ph7	A-Ph8	A-Ph9	A-Ph10	A-Ph11	A-Ph12	A-Ph13	A-Ph14	A-Ph15	A-Ph16	

Term	0.00000e+00	0.00000e+00	0.00000e+00	0.00000e+00	0.00000e+00	0.00000e+00	0.00000e+00	0.00000e+00	0.00000e+00	0.00000e+00	0.00000e+00	0.00000e+00	0.00000e+00	0.00000e+00	0.00000e+00	0.00000e+00	0.00000e+00	0.00000e+00	0.00000e+00	0.00000e+00	0.00000e+00	0.00000e+00	0.00000e+00	0.00000e+00	0.00000e+00	0.00000e+00	0.00000e+00	0.00000e+00	0.00000e+00	0.00000e+00	0.00000e+00	0.00000e+00	0.00000e+00	0.00000e+00	0.00000e+00	0.00000e+00	0.00000e+00	0.00000e+00	0.00000e+00	0.00000e+00	0.00000e+00	0.00000e+00	0.00000e+00	0.00000e+00	0.00000e+00	0.00000e+00	0.00000e+00	0.00000e+00	
Factor	1.00000e+00	1.00000e+00	1.00000e+00	1.00000e+00	1.00000e+00	1.00000e+00	1.00000e+00	1.00000e+00	1.00000e+00	1.00000e+00	1.00000e+00	1.00000e+00	1.00000e+00	1.00000e+00	1.00000e+00	1.00000e+00	1.00000e+00	1.00000e+00	1.00000e+00	1.00000e+00	1.00000e+00	1.00000e+00	1.00000e+00	1.00000e+00	1.00000e+00	1.00000e+00	1.00000e+00	1.00000e+00	1.00000e+00	1.00000e+00	1.00000e+00	1.00000e+00	X	X	X	X	X	X	X	X	X	X	X	X	X	X	X	X	

B = Detector Channel
Val Type	B-AC1	B-AC2	B-AC3	B-AC4	B-AC5	B-AC6	B-AC7	B-AC8	B-AC9	B-AC10	B-AC11	B-AC12	B-AC13	B-AC14	B-AC15	B-AC16	B-DC1	B-DC2	B-DC3	B-DC4	B-DC5	B-DC6	B-DC7	B-DC8	B-DC9	B-DC10	B-DC11	B-DC12	B-DC13	B-DC14	B-DC15	B-DC16	B-Ph1	B-Ph2	B-Ph3	B-Ph4	B-Ph5	B-Ph6	B-Ph7	B-Ph8	B-Ph9	B-Ph10	B-Ph11	B-Ph12	B-Ph13	B-Ph14	B-Ph15	B-Ph16	

Term	0.00000e+00	0.00000e+00	0.00000e+00	0.00000e+00	0.00000e+00	0.00000e+00	0.00000e+00	0.00000e+00	0.00000e+00	0.00000e+00	0.00000e+00	0.00000e+00	0.00000e+00	0.00000e+00	0.00000e+00	0.00000e+00	0.00000e+00	0.00000e+00	0.00000e+00	0.00000e+00	0.00000e+00	0.00000e+00	0.00000e+00	0.00000e+00	0.00000e+00	0.00000e+00	0.00000e+00	0.00000e+00	0.00000e+00	0.00000e+00	0.00000e+00	0.00000e+00	-2.60428e+02	-1.10120e+02	-1.35771e+02	-1.82358e+02	-8.82290e+01	-8.01576e+01	-1.56915e+02	-1.62015e+02	-1.40806e+02	-6.49328e+01	-1.82532e+02	-1.70017e+02	-1.83467e+02	-1.76494e+02	-8.40987e+01	-1.49052e+02	
Factor	5.47524e-05	1.28517e-04	3.34994e-05	1.65911e-01	1.40518e-06	1.31051e-06	1.63629e-01	5.02796e-02	1.91554e-06	1.41169e-06	2.54980e-01	2.65488e-02	4.71564e-02	8.70794e-03	1.47822e-06	1.22069e-02	1.50795e-06	1.56019e-06	4.34946e-07	8.49721e-02	1.70309e-08	1.70813e-08	7.89962e-02	2.58188e-02	1.70192e-08	1.70604e-08	1.17178e-01	1.31686e-02	2.32700e-02	4.46970e-03	1.70381e-08	6.05392e-03	X	X	X	X	X	X	X	X	X	X	X	X	X	X	X	X	



#DISTANCE SETTINGS
A = Detector Channel
A-1	A-2	A-3	A-4	A-5	A-6	A-7	A-8	A-9	A-10	A-11	A-12	A-13	A-14	A-15	A-16	

2.5000e+00	3.0000e+00	2.5000e+00	3.0000e+00	2.0000e+00	3.0000e+00	1.5000e+00	3.0000e+00	3.0000e+00	3.0000e+00	3.0000e+00	3.0000e+00	3.0000e+00	3.0000e+00	1.5000e+00	3.0000e+00	

B = Detector Channel
B-1	B-2	B-3	B-4	B-5	B-6	B-7	B-8	B-9	B-10	B-11	B-12	B-13	B-14	B-15	B-16	

1.0000e+01	1.0000e+01	1.0000e+01	1.4400e+00	1.0000e+01	1.0000e+01	1.5100e+00	1.9400e+00	1.0000e+01	1.0000e+01	1.9900e+00	2.4900e+00	2.4100e+00	2.9000e+00	1.0000e+01	2.9800e+00	




#DATA BEGINS
time	group	step	mark	flag	A-AC1	A-AC2	A-AC3	A-AC4	A-AC5	A-AC6	A-AC7	A-AC8	A-AC9	A-AC10	A-AC11	A-AC12	A-AC13	A-AC14	A-AC15	A-AC16	A-DC1	A-DC2	A-DC3	A-DC4	A-DC5	A-DC6	A-DC7	A-DC8	A-DC9	A-DC10	A-DC11	A-DC12	A-DC13	A-DC14	A-DC15	A-DC16	A-Ph1	A-Ph2	A-Ph3	A-Ph4	A-Ph5	A-Ph6	A-Ph7	A-Ph8	A-Ph9	A-Ph10	A-Ph11	A-Ph12	A-Ph13	A-Ph14	A-Ph15	A-Ph16	B-AC1	B-AC2	B-AC3	B-AC4	B-AC5	B-AC6	B-AC7	B-AC8	B-AC9	B-AC10	B-AC11	B-AC12	B-AC13	B-AC14	B-AC15	B-AC16	B-DC1	B-DC2	B-DC3	B-DC4	B-DC5	B-DC6	B-DC7	B-DC8	B-DC9	B-DC10	B-DC11	B-DC12	B-DC13	B-DC14	B-DC15	B-DC16	B-Ph1	B-Ph2	B-Ph3	B-Ph4	B-Ph5	B-Ph6	B-Ph7	B-Ph8	B-Ph9	B-Ph10	B-Ph11	B-Ph12	B-Ph13	B-Ph14	B-Ph15	B-Ph16	aux-1	digaux	

1508.047	1	1	0	768	0.089846	0.096192	0.068287	0.18742	0.38287	0.13072	0.079927	0.10038	0.10548	0.10771	0.14111	0.18672	0.14191	0.27803	0.16226	0.22231	-1.8062	-2.6688	-3.0792	-2.0896	-3.1646	-2.6042	-2.525	-3.4729	-2.1	-2.6458	-3.25	-2.1333	-3.0375	-2.9313	-2.2146	-3.4896	121.364	82.497	153.139	98.757	343.157	38.776	178.373	334.381	258.987	105.768	302.884	251.374	60.854	10.731	162.938	275.070	0.0011253	0.0007696	0.00024628	755.91	1.0471e-05	2.5613e-06	807.89	286.96	1.354e-05	5.0773e-06	363.67	154.11	118.22	66.148	4.6911e-06	90.618	0.0013286	0.0013396	0.0003727	843.56	1.4664e-05	1.4765e-05	885.98	314.98	1.4839e-05	1.4802e-05	444.24	167.39	135.39	71.292	1.4724e-05	97.007	-1.263	74.790	47.725	-2.194	188.001	212.716	-2.765	3.574	15.414	153.865	1.864	6.815	9.282	12.940	181.759	10.286	-8191	255	
1508.143	1	1	0	0	0.052924	0.04135	0.11998	0.16432	0.17336	0.055298	0.17122	0.10237	0.054346	0.21679	0.20167	0.11401	0.2648	0.1168	0.15674	0.17837	-2.1875	-2.6042	-3.1333	-1.9896	-2.9396	-2.6521	-2.5042	-3.3042	-2.4292	-2.4167	-3.35	-2.0917	-2.9958	-3.1375	-2.0375	-3.5687	324.864	343.211	-11.738	285.927	234.734	289.660	236.721	183.784	175.401	210.985	72.474	294.587	70.906	265.229	205.344	-3.635	0.0011888	0.00055489	0.00018137	757.73	6.3987e-06	1.1322e-05	804.67	287.38	2.2198e-06	1.758e-06	365.93	153.77	118.24	66.106	6.336e-06	90.551	0.0013447	0.0013565	0.00037562	845.01	1.4757e-05	1.4694e-05	885.44	315.07	1.4488e-05	1.4369e-05	442.79	167.36	134.91	71.192	1.4304e-05	96.874	15.986	315.922	81.429	-2.191	69.228	71.558	-2.932	3.805	161.858	303.275	2.563	6.916	8.824	13.121	161.840	10.200	-8191	255	
1508.239	1	1	0	0	0.33046	0.10937	0.17152	0.15769	0.07972	0.13443	0.23587	0.056301	0.19927	0.18745	0.21826	0.29232	0.13614	0.19755	0.15305	0.14638	-1.9792	-2.5333	-3.3167	-2.2958	-2.7375	-2.9333	-2.0354	-3.3521	-2.575	-2.1792	-3.225	-2.3604	-2.7479	-3.2271	-2.1396	-3.2521	85.634	171.815	245.855	210.566	23.040	299.686	170.607	123.320	51.997	195.367	137.259	260.409	275.811	321.296	329.371	242.009	0.0013531	0.00033657	0.00010095	760.1	8.2938e-06	9.8764e-06	801.34	286.8	8.2985e-06	8.3696e-06	359.91	152.79	116.72	65.73	4.1623e-06	89.57	0.0013143	0.001312	0.00036705	842.37	1.4571e-05	1.4501e-05	882.37	314.57	1.4392e-05	1.4442e-05	439.67	166.18	134.08	70.724	1.4018e-05	95.678	18.387	325.849	54.773	-2.297	129.620	55.602	-2.931	3.799	323.414	200.802	1.998	6.658	9.020	12.850	83.146	9.935	-8191	255	
1508.335	1	1	0	0	0.16368	0.16595	0.12896	0.29757	0.13219	0.064303	0.44268	0.22674	0.1087	0.062011	0.27939	0.24997	0.22753	0.21987	0.18915	0.25308	-2.2208	-2.3333	-3.1521	-2.3417	-2.6312	-3	-2.2021	-3.2188	-2.6792	-2.1188	-3.3542	-2.4958	-2.6125	-3.2854	-1.9875	-3.3688	75.522	138.823	262.444	267.550	120.691	54.576	264.390	338.324	50.529	310.540	311.902	13.401	246.757	298.800	198.997	268.982	0.0015309	0.00085798	0.00036376	757.72	7.5505e-06	5.2526e-06	802.93	285.72	9.6557e-06	6.534e-06	363.47	152.72	116.97	65.263	9.2014e-06	89.583	0.0012789	0.0012763	0.0003562	837.56	1.4084e-05	1.398e-05	877.87	313.1	1.3893e-05	1.386e-05	436.86	165.74	133.28	70.454	1.3758e-05	95.637	14.709	6.110	82.804	-2.100	206.540	118.960	-2.931	3.730	79.597	87.597	1.509	6.759	9.044	13.043	182.391	10.259	-8191	255	
1508.431	1	1	0	0	0.22531	0.22567	0.09652	0.22544	0.073211	0.23865	0.23223	0.14221	0.13325	0.21239	0.13375	0.24928	0.21291	0.16597	0.056238	0.43685	-2.5187	-2.1792	-3.3229	-2.375	-2.2938	-3.1146	-2.2458	-2.9625	-2.8625	-2.2021	-3.3125	-2.5125	-2.3458	-3.325	-2.0375	-3.0354	114.286	245.981	340.994	341.294	270.999	-1.405	178.781	280.066	232.709	77.626	327.167	280.941	9.243	75.364	263.055	-5.964	0.001207	0.000515	3.3806e-05	758.33	9.5435e-06	7.9169e-06	802.63	286.11	3.1458e-06	3.8438e-06	360.64	152.66	117.13	65.875	4.2821e-06	89.911	0.0012599	0.0012651	0.00035112	838.89	1.3843e-05	1.3715e-05	877.57	313.04	1.379e-05	1.3656e-05	435.69	165.75	133.19	70.578	1.3573e-05	95.974	28.776	107.352	39.879	-2.205	99.589	146.323	-2.837	3.667	116.480	58.984	1.753	6.652	8.790	13.141	224.127	10.393	-8191	255	
1508.527	1	1	0	0	0.10931	0.069115	0.07599	0.35675	0.38535	0.15501	0.15095	0.15803	0.19067	0.1024	0.22819	0.30041	0.30333	0.049163	0.19635	0.20089	-2.6813	-2.0417	-3.2167	-2.6562	-2.2042	-3.3958	-2.3271	-2.8583	-3.0687	-1.9542	-3.3979	-2.8875	-2.3521	-3.5375	-2.2292	-2.9437	103.163	64.442	328.283	15.428	136.719	77.540	265.273	3.533	185.813	24.304	120.875	270.246	15.643	171.546	101.064	310.975	0.00092373	0.0009798	6.4907e-05	758.54	1.08e-05	2.7216e-06	802.2	287.73	2.6404e-06	8.6412e-06	362.6	153.34	116.69	65.717	4.0618e-06	90.529	0.0012398	0.0012307	0.00034572	837.73	1.3333e-05	1.3336e-05	878.39	313.26	1.3417e-05	1.3343e-05	434.93	166.26	132.89	70.537	1.3469e-05	96.386	10.391	189.833	183.361	-2.031	84.500	65.985	-2.874	3.563	183.990	49.330	1.970	6.561	9.141	13.305	116.848	10.329	-8191	255	
1508.646	1	1	0	0	0.21648	0.26427	0.065161	0.30467	0.06521	0.067922	0.12576	0.21363	0.12076	0.17779	0.2034	0.095426	0.17889	0.08868	0.3001	0.20075	-2.8771	-2.0083	-3.1562	-2.8396	-2.1729	-3.2917	-2.4104	-2.5479	-3.1063	-2.1188	-2.9792	-3.0042	-2.2042	-3.4583	-2.1583	-2.575	187.111	46.929	273.163	278.454	197.472	275.979	323.919	6.644	153.812	78.943	106.507	266.400	15.395	231.466	289.011	295.534	0.0011985	0.00090065	5.6028e-05	759.73	9.6765e-06	4.5547e-06	806.34	287.12	1.019e-05	1.0672e-05	363.1	153.7	117.07	65.879	1.36e-06	90.794	0.0012204	0.0012318	0.00034604	838.1	1.3424e-05	1.3494e-05	880.15	313.36	1.3431e-05	1.357e-05	436.79	166.81	133.39	70.832	1.3476e-05	96.63	26.131	100.277	96.232	-2.071	119.912	66.744	-2.841	3.683	121.613	237.838	2.353	6.669	9.286	13.295	203.565	10.271	-8191	255	
1508.742	1	1	0	0	0.11531	0.20466	0.050881	0.11064	0.36513	0.10642	0.20492	0.093892	0.091383	0.1406	0.15976	0.1167	0.082679	0.33313	0.39545	0.33566	-3.0062	-2.1083	-2.8875	-2.95	-2.0604	-3.3063	-2.6688	-2.4313	-3.3125	-1.9042	-2.9792	-3.1583	-2.1667	-3.4792	-2.6688	-2.4792	140.095	338.040	308.828	320.406	207.848	41.769	316.738	312.879	224.574	78.465	289.671	333.921	34.776	321.042	8.802	309.804	0.0014678	0.00057417	0.0001909	759.26	6.6322e-06	7.981e-06	803.83	287.27	7.2648e-06	5.958e-06	364.6	153.25	117.94	65.741	7.0333e-06	90.38	0.0012101	0.0012157	0.00033704	834.66	1.2891e-05	1.2903e-05	875.66	311.84	1.2561e-05	1.2631e-05	430.8	165.48	132.24	70.484	1.2619e-05	95.901	7.443	306.586	56.891	-2.097	146.802	108.898	-2.636	3.994	325.457	160.795	2.307	6.735	8.791	13.210	142.635	10.374	-8191	255	
1508.838	1	1	0	0	0.17487	0.044651	0.18669	0.13546	0.16064	0.086485	0.26026	0.30506	0.050186	0.12721	0.37008	0.18985	0.21976	0.38896	0.1764	0.30632	-3.0771	-2.0125	-2.6792	-3.1813	-2.0792	-3.1542	-2.8625	-2.425	-3.3771	-2.3771	-2.7854	-3.2417	-2.0625	-3.3063	-2.7458	-2.4833	279.799	47.706	261.969	69.774	23.769	336.696	255.088	272.393	127.262	166.896	26.915	318.625	288.232	303.384	195.070	271.689	0.0013215	0.00053226	0.00022409	756.83	3.7772e-06	1.8413e-06	799.35	286.46	1.4604e-05	9.7365e-06	365.92	153.05	116.99	65.766	1.2001e-05	90.109	0.0011501	0.001155	0.00032487	832.93	1.2542e-05	1.2685e-05	871.78	311.4	1.2468e-05	1.2553e-05	429.51	165.12	131.43	70.41	1.2502e-05	95.71	21.980	113.229	31.474	-1.913	316.398	59.282	-2.537	3.489	119.331	128.160	2.346	6.824	9.231	13.367	137.778	10.522	-8191	255	
1508.935	1	1	0	0	0.18481	0.2888	0.10599	0.21008	0.14876	0.20577	0.041345	0.24854	0.16443	0.13403	0.2652	0.21104	0.22758	0.14271	0.14412	0.24196	-3.0438	-2.3042	-2.5167	-3.1417	-2.0417	-3.0771	-2.9271	-2.3187	-3.2104	-2.4	-2.7	-3.4583	-2.1937	-3.2333	-2.8979	-2.2062	260.998	115.895	111.123	208.282	93.899	289.686	231.961	196.004	271.029	143.970	-0.109	91.933	82.561	294.124	118.918	295.998	0.0014505	0.0011109	8.2878e-05	757.43	7.8141e-06	7.506e-06	803.63	288.06	5.031e-06	1.1274e-05	363.83	153.38	117.81	65.979	2.7595e-06	90.282	0.0011441	0.0011565	0.00031906	831.86	1.2501e-05	1.252e-05	874.48	312.08	1.2545e-05	1.2715e-05	430.81	165.67	132.5	70.592	1.2761e-05	96.063	13.077	87.090	131.668	-2.173	110.060	133.877	-2.698	3.754	99.652	206.199	2.532	6.824	9.118	13.379	166.656	10.391	-8191	255	
1509.031	1	1	0	0	0.29737	0.053638	0.12157	0.12308	0.13871	0.16148	0.0045535	0.15776	0.14022	0.1016	0.19067	0.032569	0.20093	0.37909	0.12973	0.10308	-3.0646	-2.6354	-2.4458	-3.2625	-2.1625	-2.8104	-3.2417	-2.0708	-3.1937	-2.5458	-2.3771	-3.2833	-2.3146	-2.9125	-3.1917	-2.1542	284.096	182.307	286.478	290.368	70.801	195.288	255.747	321.721	157.291	38.927	223.706	314.621	47.735	341.380	1.866	86.116	0.0015633	0.00093943	4.0978e-05	759.25	1.024e-05	6.5694e-06	804.85	287.35	6.0447e-06	6.6175e-06	364.17	154.13	117.37	65.977	5.6068e-06	90.635	0.0011658	0.0011682	0.00032458	832.99	1.267e-05	1.2828e-05	874.28	312.22	1.2828e-05	1.2952e-05	431.97	166.12	132.54	70.669	1.2828e-05	96.448	9.857	69.351	168.632	-2.108	84.407	117.088	-2.787	3.849	88.787	117.798	2.095	6.801	8.831	13.417	255.341	10.281	-8191	255	
1509.127	1	1	0	0	0.090444	0.11785	0.15657	0.14053	0.058405	0.19134	0.093695	0.19829	0.19475	0.084199	0.13345	0.14338	0.31646	0.25409	0.10153	0.082183	-2.9417	-2.6896	-2.2917	-3.3833	-2.1229	-2.7854	-3.1125	-2.2646	-3.1188	-2.8	-2.2062	-3.3667	-2.4583	-2.4562	-3.2875	-2.275	276.203	147.263	280.771	309.501	15.506	197.731	64.750	283.974	64.770	51.788	296.164	196.990	311.756	30.868	125.704	243.470	0.0015193	0.00035752	0.00016636	759.82	3.865e-06	1.1346e-05	802.67	286.51	1.5643e-05	5.9866e-06	363.69	154.44	116.86	65.751	5.5516e-06	90.921	0.0011761	0.0011872	0.00032938	835.96	1.3032e-05	1.2998e-05	878.57	312.39	1.2972e-05	1.306e-05	434.21	166.86	132.81	70.585	1.3007e-05	96.709	14.268	89.478	32.705	-1.890	141.810	105.792	-2.616	3.762	44.378	182.934	2.522	7.063	9.090	13.349	112.588	10.416	-8191	255	
1509.248	1	1	0	0	0.11483	0.045856	0.069656	0.0051654	0.10505	0.046341	0.15085	0.11045	0.21371	0.2457	0.083861	0.22133	0.11254	0.24293	0.2169	0.24072	-2.8563	-2.7729	-2.0875	-3.2188	-2.4792	-2.5667	-3.3083	-2.4938	-3.1271	-2.85	-2.0417	-3.3708	-2.7104	-2.5125	-3.3667	-2.2604	264.255	312.777	238.246	340.839	49.805	217.783	287.406	249.659	171.480	247.455	14.954	336.130	203.910	33.077	25.182	301.400	0.0012248	0.00043112	0.00016326	757.73	5.9885e-06	4.6684e-06	800.29	286.52	8.0739e-06	4.8283e-06	368.98	153.61	116.59	65.315	7.4963e-06	89.518	0.0011909	0.0011824	0.00032812	834.42	1.294e-05	1.2944e-05	874.05	312.35	1.2944e-05	1.2878e-05	432.6	165.92	132.21	70.122	1.2905e-05	95.591	14.069	146.833	55.056	-2.068	101.432	314.598	-2.583	3.513	91.226	139.207	2.428	6.958	9.032	13.354	123.399	10.428	-8191	255	
1509.342	1	1	0	0	0.35967	0.060934	0.21537	0.06953	0.091535	0.076539	0.17038	0.16835	0.27872	0.046473	0.17369	0.20928	0.15424	0.29484	0.28254	0.20209	-2.775	-2.8208	-2.2479	-3.2167	-2.5604	-2.4417	-3.3417	-2.4146	-2.7875	-3.2062	-2.1604	-3.2687	-2.5979	-2.2771	-3.3458	-2.5333	76.538	197.260	317.307	1.043	144.546	301.089	218.857	308.360	56.312	56.224	8.968	303.649	195.162	294.306	254.705	289.439	0.0012716	0.00014471	0.00016516	757.41	5.2445e-06	6.3947e-06	797.71	285.84	8.0282e-06	6.5803e-06	362.93	152.98	116.55	65.098	5.4471e-06	89.713	0.0011934	0.0011895	0.00033115	833.54	1.309e-05	1.311e-05	872.38	311.51	1.3117e-05	1.3131e-05	431.6	165.13	132	69.903	1.288e-05	95.361	12.490	-9.999	126.988	-1.821	122.636	159.918	-2.703	3.433	61.312	136.235	2.146	7.012	9.096	13.479	177.637	10.479	-8191	255	
1509.438	1	1	0	0	0.18058	0.27151	0.34572	0.14927	0.16519	0.34372	0.22585	0.034492	0.21165	0.12407	0.10767	0.259	0.26521	0.42942	0.23008	0.14696	-2.4604	-3.0062	-1.9771	-3.075	-2.6667	-2.3417	-3.2875	-2.3688	-2.6958	-3.2396	-2.1646	-3.2042	-2.825	-2.25	-3.4042	-2.5979	95.921	325.750	274.034	-11.591	77.880	57.731	288.177	253.430	206.358	17.302	164.754	246.407	40.719	321.737	221.723	272.895	0.0017225	0.00015692	5.0343e-05	752.27	3.755e-06	8.1524e-07	800.61	285.85	1.4888e-05	5.7891e-06	359.35	152.17	116.94	65.321	1.1035e-05	89.846	0.0011873	0.0011855	0.00033551	832.22	1.315e-05	1.3156e-05	872.39	311.48	1.3173e-05	1.3196e-05	431.85	165.4	132.25	70.095	1.3251e-05	95.823	7.186	268.451	113.409	-1.932	93.088	229.745	-2.424	3.794	61.453	158.836	1.861	6.997	9.184	13.346	139.559	10.338	-8191	255	
1509.534	1	1	0	0	0.15067	0.17357	0.17361	0.06988	0.29741	0.12361	0.040962	0.19809	0.052291	0.13696	0.24668	0.1135	0.20543	0.14427	0.071919	0.17644	-2.1667	-3.0563	-2.0521	-3.0146	-2.7958	-2.1562	-3.3479	-2.5208	-2.4417	-3.2396	-2.1312	-2.8896	-3.2604	-2.15	-3.25	-2.6771	53.727	230.118	54.904	281.096	133.445	327.190	4.305	298.467	309.658	241.258	244.750	18.404	293.124	321.641	267.225	270.272	0.0012865	0.0006367	0.00016209	757.05	6.6409e-06	1.0703e-05	804.45	285.96	1.4122e-05	3.1049e-06	362.97	153.97	117.14	65.424	1.899e-07	90.577	0.0012155	0.0012088	0.0003372	832.66	1.3146e-05	1.3128e-05	874.89	311.9	1.3138e-05	1.303e-05	433.51	166.2	132.37	70.307	1.3197e-05	96.198	4.529	120.527	41.652	-1.603	194.637	130.443	-2.640	4.036	19.527	191.128	2.630	6.947	9.180	13.304	217.228	10.386	-8191	255	
1509.608	1	1	0	0	0.017952	0.041768	0.14428	0.26381	0.15712	0.48005	0.3379	0.27086	0.11015	0.049449	0.13832	0.34603	0.27905	0.27641	0.21338	0.18641	-1.9125	-3.2167	-2.0896	-2.95	-3.0542	-2.0104	-3.3125	-2.6562	-2.0375	-3.3563	-2.2229	-2.7521	-2.9813	-2.0458	-3.0563	-2.7729	244.275	228.361	212.464	-5.890	273.806	280.309	278.185	311.946	-1.807	340.731	-9.240	271.418	231.132	0.085	215.151	316.049	0.0015353	0.00039979	0.00017703	756.76	5.8466e-06	5.7902e-06	803.04	287.54	2.6896e-06	3.6792e-06	364.63	154.42	116.52	65.792	3.6446e-06	91.046	0.0012071	0.0012089	0.00034007	833.9	1.315e-05	1.3201e-05	877.49	312.46	1.3198e-05	1.3232e-05	435.53	166.78	132.42	70.501	1.3138e-05	96.865	0.698	96.463	42.217	-1.852	177.778	109.651	-2.641	3.860	323.398	198.513	1.742	7.087	9.033	13.389	184.713	10.605	-8191	255	
1509.727	1	1	0	0	0.18862	0.16001	0.18182	0.090223	0.25227	0.14703	0.18896	0.17466	0.20024	0.14118	0.17818	0.2517	0.31752	0.31546	0.17085	0.3605	-2.0271	-3.2479	-2.25	-2.6354	-3.1875	-2.0292	-3.1	-2.9042	-2.0417	-3.1917	-2.5146	-2.5375	-3.2812	-2.1792	-3	-2.9813	324.476	142.808	140.429	32.257	90.616	91.520	215.393	327.332	55.892	76.006	19.639	322.973	268.097	318.009	344.536	315.399	0.0012161	0.001111	7.5244e-05	756.32	1.1066e-05	5.0552e-06	806.29	286.74	1.8529e-05	1.2873e-05	366.95	153.73	116.34	65.313	3.4051e-06	90.05	0.0011852	0.0011875	0.00033348	833.11	1.2901e-05	1.289e-05	876.68	311.94	1.2729e-05	1.2806e-05	432.23	166.11	131.6	70.124	1.2825e-05	95.994	11.281	102.290	151.914	-1.818	142.388	125.971	-2.176	3.690	77.794	131.202	1.742	7.010	9.220	13.294	84.123	10.291	-8191	255	
1509.823	1	1	0	0	0.15686	0.1377	0.13086	0.21824	0.066371	0.12881	0.094761	0.15417	0.048805	0.20282	0.40699	0.28684	0.062778	0.26028	0.25562	0.28425	-1.7542	-3.2	-2.4	-2.675	-3.4125	-2.1437	-3.1813	-3.0583	-2.1146	-3.1708	-2.4813	-2.3042	-3.3312	-2.4021	-2.7458	-3.0896	20.641	90.264	177.428	230.314	79.886	267.867	231.476	150.734	287.968	250.024	69.060	-0.972	233.084	334.386	81.975	292.687	0.001347	0.00053549	4.8024e-05	756.31	6.3133e-06	2.0965e-06	801.31	287.67	3.0892e-06	7.9012e-06	366.14	153	117.02	65.171	6.3158e-06	89.63	0.001158	0.0011631	0.00032435	831.31	1.2642e-05	1.2726e-05	872.9	311.27	1.2592e-05	1.2738e-05	430.5	164.96	131.18	69.854	1.268e-05	95.391	6.651	114.277	274.636	-1.854	142.615	170.721	-2.220	3.920	43.979	138.399	2.450	6.986	9.142	13.415	165.322	10.291	-8191	255	
1509.919	1	1	0	0	0.12592	0.19367	0.12738	0.12646	0.13267	0.1186	0.049228	0.31932	0.23511	0.081729	0.13438	0.21743	0.097287	0.17855	0.034375	0.022876	-1.6875	-3.0125	-2.5729	-2.4188	-3.0563	-2.4021	-2.7583	-3.1354	-1.8917	-2.9854	-2.8667	-2.25	-3.2667	-2.3604	-2.5979	-3.3479	174.367	63.619	15.362	293.019	40.852	195.329	-12.930	104.814	156.750	66.087	315.611	290.552	86.182	41.662	280.163	226.544	0.0015759	0.00022572	0.00020328	758.32	2.9276e-06	4.3801e-06	799.44	286.85	1.3066e-05	6.9278e-06	363	153.29	116.34	65.196	3.9357e-06	90.282	0.0011584	0.0011609	0.00032362	830.66	1.2547e-05	1.2605e-05	870.36	311.14	1.2433e-05	1.251e-05	429.07	165.16	131.01	69.899	1.2454e-05	95.817	5.868	21.939	130.330	-2.126	137.116	109.830	-2.691	3.605	97.243	197.647	2.196	6.657	8.941	13.154	106.052	10.363	-8191	255	
1510.039	1	1	0	0	0.16735	0.31947	0.044818	0.15672	0.07211	0.2053	0.3796	0.23903	0.093678	0.18463	0.40241	0.18098	0.012179	0.37068	0.13888	0.19941	-1.925	-2.8354	-2.6146	-2.2562	-3.3396	-2.3979	-2.5833	-3.3458	-2.0021	-3.1458	-3.1771	-2.3125	-3.2208	-2.5708	-2.3271	-3.475	243.417	241.493	-5.947	116.432	-6.298	143.865	275.710	255.840	138.422	154.454	134.154	191.202	-10.187	344.770	96.309	196.645	0.0014349	9.7861e-05	6.0491e-05	756.94	1.3633e-05	5.7945e-06	801.33	285.94	3.5756e-06	7.3342e-06	367.6	153.69	116.78	65.135	8.9664e-06	90.386	0.0011358	0.0011461	0.00031758	829.2	1.2352e-05	1.2429e-05	870.91	310.52	1.2273e-05	1.2468e-05	429.05	165.47	131.1	69.807	1.2361e-05	96.009	13.372	47.830	182.599	-1.753	154.000	69.604	-2.927	3.575	113.080	81.034	1.892	6.802	9.056	13.003	150.043	10.393	-8191	255	
1510.136	1	1	0	0	0.065095	0.083855	0.17622	0.3085	0.25194	0.024574	0.3203	0.37456	0.041553	0.1932	0.09722	0.36927	0.24433	0.27687	0.11785	0.24148	-1.9062	-2.8396	-2.9771	-2.075	-3.1771	-2.5458	-2.4083	-3.325	-2.1437	-2.7458	-2.9708	-2.2167	-3.1604	-2.6208	-2.1	-3.4	178.849	207.116	184.863	294.470	317.775	229.374	314.782	141.366	202.561	169.392	200.886	313.050	122.043	277.336	233.031	286.247	0.001348	0.00016947	0.00017701	756.98	7.9665e-06	6.0207e-06	803.19	287.06	1.1846e-05	7.2293e-06	364.93	154.1	116.16	65.529	6.7271e-06	90.737	0.001127	0.0011381	0.000316	828.16	1.2322e-05	1.2299e-05	870.82	311.04	1.2244e-05	1.2243e-05	427.31	165.43	130.87	69.895	1.2146e-05	96.526	10.228	325.210	69.646	-2.139	89.445	238.975	-2.903	3.721	78.871	113.416	1.774	6.799	8.976	13.105	94.745	10.451	-8191	255	
1510.207	1	1	0	0	0.18616	0.24155	0.16804	0.094205	0.13612	0.14553	0.06953	0.25471	0.30982	0.23896	0.06332	0.17772	0.27662	0.24949	0.11587	0.16402	-1.8062	-2.6063	-3.0875	-2.0708	-3.0292	-2.525	-2.3021	-3.2875	-2.3958	-2.7146	-3.0292	-2.1521	-3.225	-2.9396	-2.0917	-3.4583	91.511	234.072	136.119	184.722	10.589	173.654	129.064	316.897	184.367	3.111	71.708	268.470	311.138	256.535	306.209	320.227	0.0015079	0.00051449	0.00012782	755.25	1.1631e-05	3.9247e-06	804.69	287.76	8.8691e-06	4.4868e-06	364.35	154.28	116.07	64.847	4.9679e-06	90.201	0.0011161	0.0011173	0.0003122	827.36	1.2189e-05	1.2145e-05	871.61	310.77	1.2158e-05	1.2202e-05	427.37	165.69	130.49	69.561	1.197e-05	95.719	11.374	36.218	149.169	-1.957	138.506	103.231	-2.492	3.560	122.609	101.719	2.514	6.741	9.143	13.149	58.374	10.350	-8191	255	
1510.328	1	1	0	0	0.24013	0.23823	0.11531	0.14469	0.1805	0.3155	0.18528	0.13307	0.058929	0.089035	0.2645	0.34225	0.15876	0.21595	0.10054	0.16432	-2.0125	-2.6021	-3.2	-2.2771	-2.9167	-2.9688	-2.0958	-3.3521	-2.2521	-2.4208	-3.3	-2.4125	-2.8063	-3.2042	-2.0896	-3.4583	57.159	27.160	283.480	302.825	223.414	16.200	211.417	40.828	153.039	190.908	-12.561	319.046	287.769	311.269	71.731	309.316	0.001224	0.00019647	0.00014906	755.54	5.2138e-06	7.2189e-06	794.42	286.79	1.2667e-05	9.6461e-06	363.67	152.71	116.14	64.768	4.5936e-06	90.082	0.0010981	0.0010994	0.00030419	825.38	1.2172e-05	1.2151e-05	866.8	309.99	1.2207e-05	1.2185e-05	426.15	164.47	130.76	69.382	1.2206e-05	95.357	3.391	81.915	112.255	-2.013	45.358	121.195	-2.428	3.865	73.446	144.254	1.738	6.782	9.013	13.338	188.166	10.412	-8191	255	
1510.424	1	1	0	0	0.10875	0.32378	0.1748	0.2949	0.11001	0.1836	0.20748	0.28967	0.21538	0.22054	0.21465	0.20596	0.30405	0.10635	0.22472	0.1284	-2.0583	-2.2083	-3.25	-2.2917	-2.6	-2.9146	-2.2	-3.1792	-2.6208	-2.1521	-3.3896	-2.3792	-2.9021	-3.3229	-1.9604	-2.9896	80.394	153.305	55.607	280.282	98.004	172.192	288.025	291.986	235.657	51.191	3.438	305.246	6.928	261.205	77.449	292.763	0.0014012	0.00079345	0.00021319	755.82	5.7396e-06	7.7337e-06	800.85	286.43	3.1556e-06	6.5332e-06	363.9	152.67	115.78	65.042	9.9434e-06	89.923	0.0011254	0.0011158	0.00030963	825.97	1.2226e-05	1.2108e-05	867.11	310.45	1.2028e-05	1.2024e-05	425.75	164.38	130.08	69.404	1.1996e-05	95.446	5.969	84.639	49.530	-1.832	142.434	92.057	-2.498	3.651	322.163	112.947	2.450	6.939	9.174	13.081	128.790	10.550	-8191	255	
1510.518	1	1	0	0	0.060449	0.079597	0.076026	0.24506	0.16544	0.12453	0.12115	0.079685	0.29225	0.16992	0.17719	0.36329	0.15129	0.11745	0.21618	0.23785	-2.4125	-2.1396	-3.2521	-2.3187	-2.4542	-3.0812	-2.1604	-3.3	-2.725	-2.0771	-3.2375	-2.6562	-2.5521	-3.2958	-2.0708	-3.2062	226.911	306.259	171.525	59.830	321.655	147.659	271.263	15.744	85.528	6.465	-7.057	49.395	228.290	255.086	179.758	268.045	0.0016226	0.00052318	9.197e-05	753.74	1.474e-06	1.9815e-06	799.45	287.64	8.9639e-06	2.149e-06	364.34	153.74	115.78	65.073	3.883e-06	90.431	0.0011108	0.0011121	0.00031129	826.01	1.2345e-05	1.2266e-05	869.46	310.6	1.2351e-05	1.2212e-05	428.15	165.36	130.33	69.593	1.2306e-05	95.914	4.644	83.694	135.909	-1.775	48.003	122.275	-2.448	3.792	122.288	137.273	2.316	6.931	8.832	13.213	92.231	10.602	-8191	255	
1510.639	1	1	0	0	0.089296	0.10844	0.14299	0.12958	0.15981	0.11002	0.28058	0.15559	0.1737	0.11466	0.33045	0.20937	0.092156	0.3377	0.14338	0.30625	-2.5625	-1.9479	-3.0479	-2.4771	-2.2687	-3.2562	-2.3229	-2.8229	-2.8917	-2.0333	-2.9771	-2.5083	-2.3271	-3.5417	-2.1042	-2.9583	315.443	39.698	80.508	8.501	305.703	324.681	22.177	275.527	224.152	237.885	10.877	276.936	243.288	277.855	184.960	291.146	0.0012345	0.00098591	0.00017995	755.65	7.0942e-06	8.7285e-06	804.36	285.82	1.3156e-05	5.3597e-06	363.78	154.47	116.58	65.199	3.6427e-06	90.721	0.0011282	0.0011316	0.00031888	828.08	1.2599e-05	1.255e-05	874.05	311.06	1.253e-05	1.2503e-05	429.79	165.95	130.89	69.811	1.2611e-05	96.381	8.891	125.887	35.644	-2.067	235.728	97.311	-2.739	4.015	56.434	201.290	2.015	6.790	9.087	13.238	322.946	10.518	-8191	255	
1510.735	1	1	0	0	0.26672	0.12386	0.19343	0.13707	0.0052452	0.089074	0.16034	0.06239	0.24791	0.053785	0.057529	0.11388	0.042389	0.098053	0.27311	0.16245	-2.6792	-1.9833	-3.1396	-2.6562	-2.1417	-3.2354	-2.3604	-2.7854	-3.0958	-1.9979	-2.9896	-2.7479	-2.3125	-3.5458	-2.2667	-2.6854	2.182	213.510	257.619	214.327	75.560	28.312	292.976	332.906	60.631	221.088	79.756	248.436	114.135	227.024	27.979	268.976	0.0012961	0.00041213	0.00027167	754.67	4.5932e-06	3.6611e-06	805.81	286.64	4.7e-06	2.6473e-06	366.41	153.94	116.24	65.152	6.3295e-06	90.031	0.0011452	0.0011463	0.00032094	828.04	1.2427e-05	1.2368e-05	873.84	311.12	1.2395e-05	1.2427e-05	430.62	165.77	131.02	69.607	1.2643e-05	95.796	19.357	63.894	116.166	-1.952	211.829	85.811	-2.546	3.815	126.036	28.450	2.503	7.120	9.173	13.192	136.077	10.574	-8191	255	
1510.831	1	1	0	0	0.021567	0.29662	0.18979	0.30245	0.15394	0.18707	0.10843	0.2244	0.22352	0.14872	0.14122	0.13328	0.19504	0.31346	0.17174	0.1499	-2.75	-2.1667	-3	-2.7687	-1.9229	-3.1354	-2.4042	-2.5938	-3.1833	-2	-2.8063	-3.2687	-2.1417	-3.4083	-2.2333	-2.6604	133.197	322.698	-10.356	330.701	277.514	273.680	272.154	339.682	194.618	28.410	51.754	254.240	263.812	5.077	202.065	41.273	0.0013651	0.00027808	0.00032645	758.95	9.0841e-06	4.9591e-06	797.54	285.59	1.0761e-05	4.4778e-06	363.13	152.7	115.76	64.481	3.3167e-06	89.155	0.0011633	0.0011683	0.00032726	829.85	1.2751e-05	1.2859e-05	871.18	310.78	1.2907e-05	1.3e-05	431.7	164.73	130.79	69.208	1.3012e-05	94.92	5.781	24.305	136.057	-1.959	128.307	113.174	-2.820	3.750	53.834	129.967	2.350	7.008	9.523	13.359	135.765	10.605	-8191	255	
1510.903	1	1	0	0	0.10643	0.26282	0.26578	0.23057	0.28216	0.13711	0.10804	0.23703	0.10237	0.25804	0.087781	0.21846	0.15914	0.043667	0.092155	0.37518	-3.1208	-2.1854	-2.8354	-2.95	-2.0771	-3.0812	-2.5521	-2.5833	-3.3104	-2.0833	-2.8583	-3.0708	-2.1583	-3.2458	-2.7208	-2.4021	329.044	104.752	85.980	49.476	223.681	42.500	145.273	192.260	13.236	47.542	252.786	-2.953	22.675	69.187	64.647	-3.309	0.0011951	0.00047024	0.00018545	752.47	1.0369e-05	7.5746e-06	795.23	286.41	6.0019e-06	8.829e-06	362.77	152.38	115.22	64.487	1.0016e-05	89.582	0.0011637	0.0011731	0.00032539	827.83	1.2695e-05	1.2821e-05	867.65	310.46	1.2739e-05	1.2845e-05	429.27	164.34	130.31	68.967	1.2857e-05	95.114	14.518	54.540	102.712	-2.070	119.517	132.012	-2.397	3.981	80.078	226.306	2.134	7.169	8.935	13.377	227.001	10.705	-8191	255	
1511.024	1	1	0	0	0.19416	0.23569	0.16885	0.091433	0.29058	0.13966	0.0779	0.23987	0.1326	0.14781	0.21845	0.23804	0.048819	0.06317	0.15035	0.22269	-2.9396	-2.1729	-2.5792	-3.3583	-1.9438	-3.2146	-2.7313	-2.4021	-3.3104	-2.2438	-2.6208	-3.3063	-2.1104	-3.1583	-2.6688	-2.2708	101.734	158.039	58.771	247.725	31.662	119.351	20.693	291.225	319.992	43.240	175.018	-1.364	10.454	332.040	189.989	334.777	0.0012855	0.00057879	0.00024866	752.84	2.5199e-06	3.3322e-06	800.14	285.7	4.2055e-06	4.1525e-06	365.5	153.16	115.28	64.465	4.9697e-06	89.745	0.0011701	0.001179	0.00032748	828.23	1.2774e-05	1.2866e-05	869.97	310.4	1.2729e-05	1.2774e-05	431.03	164.67	130.28	69.02	1.2779e-05	95.371	25.305	70.659	67.924	-1.948	145.316	102.344	-2.438	3.567	121.837	141.342	2.160	6.959	8.803	13.479	90.840	10.580	-8191	255	
1511.120	1	1	0	0	0.05407	0.23934	0.16904	0.086335	0.22606	0.24874	0.054189	0.28051	0.1341	0.21251	0.068468	0.27453	0.02738	0.36243	0.068373	0.052472	-2.9354	-2.2771	-2.4792	-3.1521	-2.1292	-2.9229	-2.9521	-2.2729	-3.1542	-2.5208	-2.4979	-3.4146	-2.1292	-2.8979	-2.8187	-2.3771	274.789	239.747	205.244	329.113	280.778	161.892	136.084	288.711	109.533	147.320	332.807	236.989	68.646	15.343	339.098	8.344	0.0013342	0.00022998	0.00017281	754.88	3.9197e-06	6.5062e-06	798.66	285.77	6.6315e-06	6.3433e-06	365.62	153.51	115.51	64.471	4.6636e-06	90.068	0.0011633	0.0011726	0.00032765	828.87	1.2623e-05	1.2693e-05	871.43	309.93	1.2504e-05	1.2644e-05	430.91	165.34	130.27	69.024	1.2418e-05	95.725	11.570	76.833	2.466	-2.114	38.017	126.278	-2.740	3.955	98.759	151.478	2.276	6.918	9.211	13.465	232.712	10.679	-8191	255	
1511.216	1	1	0	0	0.10044	0.20818	0.12386	0.32922	0.094366	0.14166	0.17807	0.14971	0.20357	0.31663	0.23798	0.18208	0.23692	0.13393	0.078629	0.34445	-2.9083	-2.4188	-2.3396	-3.3146	-2.0625	-2.6271	-3.2042	-2.1396	-3.0917	-2.5687	-2.3125	-3.3063	-2.2938	-2.7438	-3.0771	-2.1583	72.841	-11.327	124.992	-9.374	295.842	86.005	274.196	345.337	4.265	109.059	74.362	38.018	313.169	3.084	1.087	295.466	0.0014891	0.00084661	0.0002059	756.08	5.8609e-06	1.1294e-05	800.95	286.72	1.0635e-05	1.097e-05	365.95	153.13	115.58	64.225	1.8529e-06	89.594	0.001136	0.0011429	0.00031707	827.28	1.2552e-05	1.25e-05	871.17	310.51	1.2629e-05	1.2633e-05	430.66	165.1	130.55	68.874	1.2612e-05	95.217	15.074	58.434	37.377	-1.893	146.482	143.911	-2.409	3.425	120.698	131.563	2.355	6.974	8.921	13.336	192.532	10.302	-8191	255	
1511.312	1	1	0	0	0.073464	0.19401	0.15237	0.094547	0.06372	0.13179	0.18609	0.095963	0.14465	0.30176	0.27733	0.029224	0.18983	0.069664	0.076661	0.11161	-2.7417	-2.6542	-2.0125	-3.3	-2.3333	-2.4188	-3.3	-2.1312	-2.8896	-2.6542	-2.2667	-3.275	-2.3125	-2.4771	-2.9271	-2.3417	223.519	-8.208	28.373	296.773	18.704	217.892	327.582	13.096	221.072	205.867	184.020	270.847	238.696	345.306	343.066	246.156	0.0012847	0.00024644	0.00011509	757.77	5.1752e-06	5.6502e-06	801.89	284.72	3.853e-06	2.988e-06	363.42	151.84	115.02	63.927	6.9061e-06	88.678	0.001152	0.0011519	0.0003224	828.84	1.2612e-05	1.2547e-05	870.59	308.96	1.2465e-05	1.2485e-05	427.01	163.62	129.55	68.377	1.2299e-05	94.308	25.706	41.761	23.453	-2.274	131.806	202.810	-2.817	3.583	8.776	-5.178	1.673	6.926	8.870	13.385	135.621	10.359	-8191	255	
1511.431	1	1	0	0	0.32006	0.1375	0.28494	0.096968	0.36332	0.25448	0.12644	0.47024	0.094408	0.11001	0.2297	0.16291	0.176	0.21746	0.25235	0.36065	-2.7896	-2.7083	-2.1063	-3.3563	-2.2833	-2.4583	-3.3271	-2.1542	-2.8104	-2.9375	-2.1667	-3.3042	-2.5625	-2.3438	-3.1375	-2.325	326.100	180.760	283.390	111.375	15.003	36.958	297.695	204.728	266.749	154.733	279.212	303.392	108.567	341.494	67.731	325.870	0.0012175	0.00084047	0.00023435	753.14	1.0946e-05	9.2766e-06	793.64	286.49	7.3982e-06	7.8104e-06	362.72	151.64	114.83	63.805	6.0437e-06	88.807	0.0011319	0.0011374	0.00031724	826.61	1.2608e-05	1.2592e-05	868.72	309.77	1.2826e-05	1.2812e-05	428.27	163.75	129.65	68.284	1.2416e-05	94.474	0.391	101.544	56.984	-1.921	148.549	179.011	-2.728	3.800	106.000	123.420	2.107	7.054	8.953	13.194	145.134	10.497	-8191	255	
1511.504	1	1	0	0	0.20031	0.35542	0.10961	0.15504	0.16655	0.060634	0.07888	0.10166	0.32455	0.13982	0.33	0.35726	0.45941	0.20016	0.061634	0.21144	-2.8375	-2.9708	-1.9396	-3.275	-2.5375	-2.1625	-3.4333	-2.1188	-2.8354	-3.0563	-1.9937	-3.3396	-2.7646	-2.3104	-3.1146	-2.3563	99.218	126.492	216.856	48.617	21.529	164.703	30.558	325.436	202.102	42.910	-6.816	327.656	78.879	335.569	37.764	277.804	0.0016624	0.00056485	0.00016397	754.89	7.3671e-06	2.8518e-06	798.45	285.09	7.0121e-06	1.0041e-05	360.53	152.11	115.03	63.751	1.318e-05	88.617	0.0011404	0.0011412	0.00031634	828.56	1.2631e-05	1.2631e-05	870.52	309.62	1.2884e-05	1.2815e-05	429.49	164.36	130.1	68.316	1.2873e-05	94.749	6.274	134.387	153.301	-2.039	64.121	140.452	-2.929	3.690	17.952	142.140	1.614	7.347	9.247	13.388	192.599	10.468	-8191	255	
1511.601	1	1	0	0	0.10314	0.32081	0.36325	0.12355	0.08957	0.28605	0.17916	0.1371	0.23837	0.12153	0.30044	0.089759	0.24821	0.12246	0.068698	0.28056	-2.1583	-3.0208	-2.0896	-3.0958	-2.7354	-2.1813	-3.2667	-2.3312	-2.3563	-3.25	-1.9229	-3.1417	-2.9333	-2.2146	-3.1729	-2.5167	36.908	53.931	164.396	240.622	71.066	187.379	43.656	343.064	297.634	208.848	134.049	175.885	250.741	304.816	339.149	186.035	0.0013637	0.00054839	0.00011617	754.34	5.0741e-06	5.7175e-06	802.18	285.01	6.6796e-06	1.2199e-05	361.96	152.28	114.57	63.958	6.1095e-06	89.478	0.0011842	0.0011783	0.00033003	830.41	1.2965e-05	1.2952e-05	872.78	309.62	1.2813e-05	1.2711e-05	430.06	164.48	129.6	68.513	1.2525e-05	95.126	17.930	59.475	57.453	-2.001	127.823	168.032	-2.417	3.467	82.266	87.924	2.097	6.952	8.856	13.179	141.568	10.293	-8191	255	
1511.719	1	1	0	0	0.11547	0.27819	0.12215	0.03833	0.16425	0.27575	0.22463	0.32679	0.18058	0.10498	0.26415	0.12145	0.1004	0.26991	0.15134	0.22654	-2.0396	-3.3708	-2.2687	-2.9354	-2.8792	-2.1042	-3.3521	-2.5208	-2.3771	-3.2354	-2.2104	-2.8958	-2.9458	-2.15	-3.2271	-2.6333	247.934	340.093	37.178	199.307	298.474	82.098	314.326	252.492	139.751	325.333	257.406	237.355	330.160	239.664	47.502	271.992	0.0015805	0.0004025	0.00028436	752.88	6.8183e-06	3.1559e-06	798.2	285.01	8.7655e-06	3.5422e-06	362.85	153.1	114.5	63.844	6.5977e-06	89.615	0.0011386	0.0011311	0.00031536	826.87	1.239e-05	1.2373e-05	870.96	309.41	1.2319e-05	1.229e-05	428.21	164.99	129.17	68.359	1.2469e-05	95.089	8.206	114.288	9.261	-2.211	131.235	225.135	-2.652	3.622	-0.813	109.613	1.961	6.975	8.737	13.186	83.924	10.449	-8191	255	
1511.816	1	1	0	0	0.19579	0.17752	0.15268	0.22067	0.10876	0.25124	0.08843	0.1202	0.23796	0.20127	0.247	0.15608	0.27715	0.053658	0.044949	0.12918	-1.9667	-3.3375	-2.2854	-2.8521	-2.9875	-1.9833	-3.3521	-2.7583	-2.1646	-3.3	-2.2396	-2.6896	-3.2333	-2.1208	-3.0646	-2.7938	165.411	271.318	264.165	293.754	68.710	80.203	297.757	51.169	116.067	26.332	289.692	266.301	289.503	338.399	16.327	189.858	0.0018305	0.00082466	0.00054912	756.02	9.5444e-06	6.8896e-06	798.18	285.07	8.6409e-06	4.4572e-06	363.01	151.37	113.97	63.314	9.6395e-06	88.357	0.0011371	0.0011338	0.00032131	829.67	1.2629e-05	1.2684e-05	870.91	309.43	1.2656e-05	1.2676e-05	428.63	163.55	129.35	67.828	1.2857e-05	93.988	25.152	297.027	15.677	-1.834	105.584	122.804	-2.567	3.570	50.117	155.216	2.379	7.064	9.249	13.107	172.612	10.207	-8191	255	
1511.912	1	1	0	0	0.18474	0.25699	0.10544	0.13106	0.25509	0.10408	0.17093	0.16808	0.17159	0.21022	0.10864	0.19379	0.14796	0.30606	0.14609	0.24601	-1.9688	-3.2917	-2.225	-2.6063	-3.0292	-2.0958	-3.0333	-3.1646	-1.9771	-3.1417	-2.3208	-2.4208	-3.2438	-2.3667	-2.7417	-3.1437	33.273	65.118	182.062	284.899	38.682	330.924	144.306	212.629	95.546	319.557	165.540	5.858	20.844	304.015	147.044	253.321	0.0014864	0.00062847	6.2476e-05	755.81	3.7962e-06	3.701e-06	795.37	284.32	3.6708e-06	7.1543e-06	364.7	150.87	114.13	63.077	3.3706e-06	88.13	0.0011619	0.0011736	0.00033086	829.43	1.2902e-05	1.2919e-05	871	309.42	1.3013e-05	1.3142e-05	431.63	163.44	129.87	67.809	1.3396e-05	94	7.404	86.419	339.482	-2.147	84.826	33.664	-2.753	3.473	331.466	167.848	1.961	6.777	8.854	13.125	336.168	10.471	-8191	255	
1512.008	1	1	0	0	0.29616	0.15417	0.17262	0.11868	0.11686	0.076476	0.11043	0.26394	0.059831	0.042293	0.20538	0.26902	0.16471	0.42125	0.25606	0.19949	-1.7021	-2.9792	-2.3937	-2.3937	-3.3667	-2.2438	-3.0771	-3.0646	-2.0896	-3.1042	-2.6021	-2.2833	-3.3042	-2.3125	-2.5771	-3.3021	220.378	262.048	296.389	311.600	312.641	303.382	126.696	25.980	331.881	258.022	38.052	279.628	306.617	308.201	149.278	141.254	0.001247	0.00061314	0.00011116	752	1.6633e-06	5.3226e-06	801.17	284.4	1.0524e-05	7.2781e-06	364.64	150.93	114	63.173	4.8514e-06	88.742	0.001207	0.0012159	0.00033884	830.25	1.3086e-05	1.319e-05	872.41	309.26	1.3045e-05	1.3133e-05	432.5	163.48	129.77	67.834	1.3075e-05	94.456	5.644	324.554	160.996	-1.945	116.567	143.140	-2.600	3.580	119.160	144.305	1.601	6.987	8.969	13.234	167.681	10.278	-8191	255	
1512.104	1	1	0	0	0.052966	0.1009	0.06659	0.1241	0.048576	0.19081	0.31259	0.096407	0.17314	0.24282	0.27858	0.13191	0.12067	0.18518	0.20409	0.065905	-1.8312	-3.1292	-2.6063	-2.3438	-3.1417	-2.0583	-2.5375	-3.0667	-1.9479	-3.0458	-2.8	-2.3833	-3.3063	-2.3937	-2.2854	-3.2333	97.728	48.776	196.924	53.112	304.693	322.861	183.863	166.684	248.075	277.973	16.424	67.890	278.380	309.174	283.178	235.520	0.0013342	0.0012324	0.00010103	752.64	7.5414e-06	1.1565e-05	800.36	285.27	1.1277e-05	6.8625e-06	362.64	151.58	114.7	63.22	1.3911e-05	89.09	0.0011946	0.0011996	0.00033238	826.48	1.2964e-05	1.3102e-05	871.33	309.01	1.281e-05	1.2865e-05	431.22	163.94	129.75	67.826	1.3104e-05	94.823	10.713	21.490	182.606	-1.882	140.788	108.031	-2.633	3.585	84.344	121.850	2.002	7.039	9.209	13.361	105.842	10.669	-8191	255	
1512.200	1	1	0	0	0.14131	0.18838	0.15656	0.13401	0.076061	0.22801	0.14759	0.13368	0.18864	0.19052	0.15732	0.38408	0.2448	0.14214	0.26756	0.17567	-1.6229	-2.8646	-2.7521	-2.0896	-3.0917	-2.4542	-2.6083	-3.25	-2.0542	-2.9083	-2.8458	-2.2062	-3.2375	-2.7292	-2.3104	-3.6292	213.471	298.305	109.462	139.514	52.473	82.341	305.073	-0.765	17.370	14.709	57.113	341.209	230.499	36.783	228.218	287.614	0.0014498	0.00033046	9.678e-05	750.99	3.3001e-06	8.5353e-06	800.24	285.33	9.3905e-06	5.6249e-06	366.34	151.76	114.95	62.998	1.3906e-06	88.678	0.0011957	0.0012119	0.00033574	828.85	1.3101e-05	1.3216e-05	874.74	309.75	1.3139e-05	1.3262e-05	434.52	164.37	130.22	67.728	1.3287e-05	94.602	14.522	100.186	68.644	-1.902	138.084	220.894	-2.242	3.808	183.892	168.608	2.057	6.897	9.184	13.369	100.163	10.727	-8191	255	
1512.321	1	1	0	0	0.20678	0.036617	0.14481	0.16707	0.010683	0.22584	0.13336	0.18379	0.19178	0.16889	0.20186	0.13377	0.092987	0.23157	0.1482	0.09787	-1.7792	-2.7479	-2.9708	-2.0458	-2.9938	-2.6292	-2.2708	-3.4208	-2.1104	-2.4437	-3.1667	-2.0417	-3.1771	-2.7687	-2.2604	-3.3458	208.567	69.919	8.991	118.472	43.838	111.071	293.966	-9.371	241.970	172.814	169.188	336.504	249.062	300.759	9.505	13.463	0.0011782	0.00085385	0.00026363	752.23	3.1955e-06	8.5298e-06	797.68	283	1.687e-05	3.1133e-06	362.14	150.91	113.58	62.862	6.7188e-06	88.171	0.0012154	0.0012128	0.00033613	827.74	1.3162e-05	1.3248e-05	870.58	308.46	1.3092e-05	1.3051e-05	430.35	163.24	129.24	67.438	1.3097e-05	93.781	17.614	114.346	94.255	-1.912	107.375	113.157	-2.464	3.616	97.169	163.450	2.725	7.244	9.121	13.182	112.252	10.400	-8191	255	
1512.417	1	1	0	0	0.1521	0.23722	0.029495	0.085232	0.058786	0.044982	0.17435	0.094262	0.12398	0.32958	0.36423	0.26018	0.1303	0.078043	0.0577	0.34349	-1.9708	-2.4979	-3.0667	-2.0354	-2.8417	-2.7729	-1.925	-3.2188	-2.2146	-2.4458	-3.1708	-2.1479	-3.0167	-2.8146	-2.0354	-3.3146	243.749	326.181	125.011	245.885	20.455	116.266	286.654	113.463	222.052	145.266	261.563	20.814	204.186	183.150	59.910	295.077	0.0012946	0.00073137	0.00026393	749.22	5.7415e-06	1.1022e-05	794.96	282.96	1.1482e-05	1.6176e-05	357.58	150.76	112.98	63.009	7.1159e-06	88.39	0.0012009	0.0012033	0.00033562	825.85	1.3304e-05	1.3186e-05	867.48	308.17	1.328e-05	1.3206e-05	428.38	163.02	129.25	67.535	1.3029e-05	93.889	18.161	162.439	64.608	-2.138	176.569	135.095	-2.695	3.604	333.574	126.682	1.630	6.808	8.692	12.933	110.031	10.536	-8191	255	
1512.511	1	1	0	0	0.34083	0.11659	0.13802	0.052648	0.18556	0.10527	0.18165	0.2823	0.10149	0.14528	0.26745	0.17741	0.24516	0.32496	0.09312	0.2947	-2.0833	-2.175	-3.0583	-1.8687	-2.6688	-2.8458	-1.9729	-3.1229	-2.3958	-2.2604	-3.3	-2.3812	-2.9083	-2.9917	-1.9813	-3.1813	36.160	68.366	-1.286	212.277	139.084	173.629	323.211	327.238	116.194	-12.237	267.705	308.784	315.829	1.495	2.237	201.830	0.0014398	0.00010069	0.00014934	750.03	8.3214e-06	4.8524e-06	796.28	282.33	6.7288e-06	1.3343e-05	360.78	151.05	113.72	62.968	1.7619e-06	88.714	0.0011961	0.001199	0.00033109	824.96	1.3146e-05	1.3062e-05	868.46	307.86	1.3173e-05	1.3085e-05	429.93	163.35	129.26	67.595	1.2932e-05	94.376	12.021	74.867	41.473	-2.078	111.403	93.753	-2.861	3.580	331.784	112.586	2.005	6.762	8.990	13.048	102.824	10.498	-8191	255	
1512.608	1	1	0	0	0.28162	0.28732	0.29095	0.067875	0.25304	0.074785	0.28185	0.24887	0.098949	0.1384	0.12399	0.28547	0.033788	0.2003	0.20553	0.26264	-2.2396	-2.3271	-3.1646	-2.2938	-2.7104	-3.0896	-1.8917	-3.0646	-2.8417	-2.0583	-3.2375	-2.4208	-2.6833	-3.1708	-2.2188	-3.0812	72.115	222.954	-6.119	186.995	323.458	77.774	328.526	328.532	68.990	270.085	329.008	4.620	233.866	335.371	93.292	179.316	0.0013146	0.00033458	0.0001768	747.52	5.6223e-06	3.5321e-06	797.05	284.81	6.9187e-06	6.2496e-06	363.37	152.18	114.33	63.287	9.1324e-06	89.264	0.0011764	0.0011735	0.00032342	824.05	1.2848e-05	1.2796e-05	869.03	308.41	1.2847e-05	1.2816e-05	429.41	164.16	129.24	67.797	1.2792e-05	94.84	6.827	-5.272	30.717	-1.978	89.967	77.789	-2.363	3.847	32.487	138.365	2.067	6.881	9.111	13.372	111.675	10.420	-8191	255	
1512.728	1	1	0	0	0.17734	0.064975	0.16562	0.0011535	0.20875	0.11244	0.1035	0.029681	0.14351	0.064283	0.21944	0.094665	0.17828	0.26023	0.067342	0.2506	-2.4458	-2.1417	-3.2354	-2.4729	-2.2708	-3.1437	-2.1521	-2.9792	-2.7458	-1.9312	-3.1437	-2.4792	-2.3646	-3.4062	-2.1813	-3.025	-4.263	223.084	146.441	180.000	297.378	85.815	186.796	-11.753	90.465	138.552	89.497	270.663	215.482	263.414	104.264	279.268	0.0015908	0.00027371	0.00011936	752.08	7.1045e-06	7.2301e-06	796.39	284.6	1.156e-05	6.4915e-06	365.36	152.27	114.32	63.338	4.7926e-06	89.476	0.0011694	0.0011691	0.00032498	826.49	1.2738e-05	1.2759e-05	869.18	308.49	1.2645e-05	1.2467e-05	429.76	164.32	128.78	67.851	1.243e-05	95.07	5.104	323.685	93.894	-1.810	76.220	125.115	-2.553	3.826	98.841	133.441	2.827	6.838	9.336	13.257	142.203	10.744	-8191	255	
1512.800	1	1	0	0	0.038315	0.074514	0.076683	0.10683	0.091003	0.075872	0.060527	0.17504	0.24702	0.060482	0.03852	0.3371	0.064064	0.14891	0.07711	0.19118	-2.6292	-1.9625	-3.05	-2.3	-2.1229	-3.0854	-2.2292	-2.8187	-2.8646	-1.9479	-3.2313	-2.7104	-2.5312	-3.3354	-2.2875	-2.8792	28.075	340.328	213.563	250.995	132.834	283.229	147.670	54.675	-2.081	175.993	308.239	276.410	13.473	213.664	204.256	249.732	0.001374	0.00073666	9.696e-05	749.31	5.9993e-06	1.188e-06	798.53	283.94	5.8931e-06	7.6404e-06	362.23	151.59	113.86	63.08	7.94e-06	88.519	0.0011385	0.0011502	0.00032065	822.63	1.2713e-05	1.2671e-05	868.24	307.61	1.2712e-05	1.2796e-05	428.7	163.61	128.93	67.619	1.2724e-05	94.143	13.692	128.127	36.918	-2.021	119.779	144.576	-2.403	3.706	113.835	115.052	1.897	6.861	8.816	13.136	127.100	10.558	-8191	255	
1512.896	1	1	0	0	0.042489	0.24723	0.31841	0.15538	0.11867	0.2867	0.11251	0.22928	0.17463	0.20269	0.13867	0.020858	0.11342	0.33551	0.10886	0.14662	-2.7562	-2.0187	-3.0792	-2.6875	-2.0958	-3.1875	-2.4104	-2.7458	-3.0875	-2.1063	-3.0083	-2.9625	-2.2021	-3.35	-2.2125	-2.7375	229.103	91.969	70.416	319.380	39.965	25.918	310.001	296.359	293.197	300.186	133.290	1.587	128.325	255.172	87.200	248.527	0.0016826	5.5271e-05	0.00018514	748.67	6.092e-06	2.4628e-06	793.46	281.36	5.5915e-06	1.2791e-05	362.57	150.85	113.02	62.91	3.8814e-06	88.441	0.0011368	0.0011567	0.00032118	821.92	1.2541e-05	1.268e-05	864.1	306.45	1.2672e-05	1.2698e-05	428.84	163	128.41	67.586	1.2869e-05	94.193	18.715	10.935	86.966	-2.111	149.913	101.343	-2.784	3.664	26.965	117.756	2.139	6.778	8.784	12.915	156.246	10.417	-8191	255	
1512.992	1	1	0	0	0.16566	0.07269	0.066844	0.16729	0.20075	0.13597	0.21339	0.30662	0.12658	0.22571	0.087946	0.12529	0.20321	0.32477	0.058669	0.19344	-2.9688	-2.0375	-3.0354	-2.8542	-2.1625	-3.2833	-2.3812	-2.4437	-3.2333	-2.1042	-2.8479	-3.1354	-2.2021	-3.3063	-2.3667	-2.3375	172.247	341.351	336.667	25.340	164.193	336.859	251.714	231.593	278.156	206.858	189.267	251.457	303.159	275.930	130.391	294.759	0.0014823	0.00054784	0.00011318	745.7	9.5152e-06	4.9897e-06	792.29	282.7	1.2026e-05	1.1509e-06	364.42	151.3	113.72	63.074	3.4666e-06	88.992	0.0011614	0.0011683	0.00032482	820.35	1.2732e-05	1.2678e-05	864.33	306.87	1.2447e-05	1.2556e-05	427.4	163.43	128.17	67.687	1.2536e-05	94.506	9.225	83.124	113.475	-2.176	194.969	62.340	-2.824	3.386	-6.748	203.507	2.053	6.660	9.214	13.149	143.426	10.660	-8191	255	
1513.113	1	1	0	0	0.15834	0.099667	0.11893	0.032992	0.21894	0.16636	0.21291	0.51674	0.069415	0.075855	0.049635	0.19942	0.14217	0.30517	0.26176	0.24561	-3.1229	-2.2042	-2.8083	-3.0771	-1.9896	-3.1688	-2.8812	-2.4	-3.2646	-2.0979	-2.7833	-3.2	-2.3104	-3.3563	-2.6625	-2.4167	200.470	42.100	270.969	204.261	315.895	-5.726	337.355	286.124	82.569	152.137	32.067	231.437	150.270	2.971	341.787	281.581	0.0011899	0.00010339	0.00017057	746.89	8.8245e-06	6.9651e-06	797.64	283.77	1.3648e-05	6.4466e-06	362.32	151.79	114.15	63.248	7.3186e-06	89.641	0.0011546	0.001169	0.00032281	821.92	1.2658e-05	1.2735e-05	867.68	307.15	1.26e-05	1.2698e-05	428.62	163.82	128.46	67.689	1.2436e-05	94.893	12.541	90.238	146.513	-1.860	141.457	136.057	-2.517	3.887	114.951	138.179	2.352	6.744	8.725	13.161	107.530	10.353	-8191	255	
1513.209	1	1	0	0	0.25539	0.20428	0.42979	0.14856	0.15935	0.061439	0.12353	0.40984	0.13342	0.27873	0.12282	0.25428	0.18058	0.26521	0.072734	0.28381	-3.0375	-2.375	-2.6021	-3.2438	-1.9354	-2.8917	-2.9375	-2.3063	-3.1833	-2.2729	-2.5708	-3.4062	-2.3	-2.9979	-2.7354	-2.3312	226.212	227.666	258.636	3.542	8.844	304.865	146.902	290.265	-11.179	249.985	279.085	256.246	218.484	313.330	21.606	315.172	0.0012087	0.00068795	0.00016286	748.03	3.6151e-06	6.3174e-06	799.37	282.5	1.1007e-05	3.1386e-06	364.23	152.72	114.01	63.287	7.8834e-06	89.592	0.0011311	0.0011318	0.00031466	819.72	1.2308e-05	1.2414e-05	867.91	306.68	1.2421e-05	1.2431e-05	428.27	164.1	128.26	67.699	1.2048e-05	94.82	-2.063	63.006	33.691	-2.285	50.032	128.681	-2.830	3.484	90.356	256.618	2.517	6.797	9.219	13.272	115.766	10.632	-8191	255	
1513.305	1	1	0	0	0.32899	0.13376	0.11292	0.15383	0.1499	0.10413	0.3264	0.14986	0.19911	0.22174	0.21482	0.11348	0.30937	0.10798	0.20225	0.31027	-2.9062	-2.2729	-2.4354	-3.2438	-2.0021	-2.9479	-2.9521	-2.225	-3.325	-2.6042	-2.4396	-3.3417	-2.0833	-2.8688	-2.8875	-2.3521	10.825	251.489	256.045	47.545	276.178	129.459	258.545	310.922	99.324	148.772	-8.920	39.164	253.210	319.222	3.562	281.903	0.0012055	0.0010368	0.00020768	749.12	8.6451e-06	5.0267e-06	799.45	282.11	1.0248e-05	8.4517e-06	361.36	151.24	113.61	62.849	7.7831e-06	88.552	0.0011046	0.0011135	0.00030778	818.68	1.2131e-05	1.2164e-05	865.58	305.42	1.2166e-05	1.2152e-05	423.22	162.82	127.74	67.293	1.2044e-05	93.883	12.125	80.989	80.668	-1.758	40.571	150.979	-2.602	3.772	68.458	119.053	2.662	6.913	9.006	13.349	68.476	10.634	-8191	255	
1513.401	1	1	0	0	0.06533	0.19638	0.27785	0.16787	0.07709	0.11621	0.13722	0.22704	0.10154	0.28606	0.16071	0.27189	0.15572	0.27382	0.069032	0.17879	-2.7396	-2.4542	-2.3479	-3.2792	-2.1813	-2.7687	-3.1208	-2.1125	-3.1375	-2.625	-2.1146	-3.2146	-2.2188	-2.6937	-2.8917	-2.3979	258.590	61.126	334.460	2.292	297.479	91.958	244.162	211.490	293.009	69.916	-9.072	0.386	307.097	343.572	66.300	297.364	0.0013608	0.00047068	0.0001011	748.74	3.3417e-06	6.6815e-06	789.18	282.75	6.0951e-06	2.1529e-06	361.3	151.65	113.09	62.94	3.4613e-06	88.731	0.001096	0.0011015	0.00030503	818.18	1.2041e-05	1.2053e-05	861.04	305.43	1.1975e-05	1.1989e-05	421.47	162.75	127.14	67.2	1.1798e-05	93.965	29.757	80.932	86.063	-1.769	10.678	165.940	-2.543	3.356	31.107	114.296	2.457	6.902	8.891	13.297	162.830	10.477	-8191	255	
1513.497	1	1	0	0	0.040623	0.15872	0.081996	0.059975	0.11121	0.090203	0.12965	0.22418	0.089889	0.23717	0.1579	0.11661	0.14263	0.12001	0.2126	0.29945	-2.7396	-2.65	-2.0479	-3.3479	-2.2979	-2.4021	-3.275	-2.1458	-2.7396	-2.8063	-2.0979	-3.275	-2.4562	-2.4667	-3.0479	-2.3563	155.040	-2.676	133.400	98.904	37.996	152.926	334.978	274.418	267.698	293.664	199.174	55.716	258.101	284.842	97.647	-7.254	0.0011188	0.00095104	0.00017048	749.56	6.9386e-06	8.9166e-06	797.23	282.72	6.3932e-06	8.8129e-06	360.19	151.01	114.09	62.906	1.0943e-06	88.764	0.0010976	0.0011026	0.00030551	820.21	1.2068e-05	1.2009e-05	862.61	305.54	1.1923e-05	1.1859e-05	421.92	163.03	127.45	67.274	1.1858e-05	94.247	23.288	64.267	130.548	-2.126	103.790	74.582	-2.719	3.496	86.845	134.234	2.289	6.749	9.092	13.406	98.402	10.386	-8191	255	
1513.592	1	1	0	0	0.39134	0.036908	0.18096	0.10619	0.24803	0.1574	0.22593	0.088903	0.235	0.13612	0.039204	0.21477	0.13761	0.23866	0.054307	0.11155	-2.4875	-2.9	-1.9354	-3.0958	-2.3917	-2.3	-3.2479	-2.1625	-2.575	-3.0021	-1.9771	-3.3104	-2.4021	-2.3729	-3.2938	-2.25	109.442	268.167	309.479	278.603	80.904	33.743	215.290	9.650	-10.277	288.580	109.306	300.941	20.337	316.317	110.109	169.346	0.0012048	0.00049924	0.00021932	746.92	4.6658e-06	1.0253e-06	800.16	281.38	1.1587e-05	2.6738e-06	362.51	152.15	113.83	62.858	8.4216e-06	89.079	0.0010996	0.0010946	0.00030463	819.74	1.1995e-05	1.1974e-05	865.06	305.58	1.1976e-05	1.1781e-05	422.85	163.59	127.41	67.388	1.1745e-05	94.52	9.086	91.767	65.882	-2.116	85.272	227.925	-2.634	3.420	35.448	139.645	2.543	6.597	8.866	13.085	130.086	10.182	-8191	255	
1513.690	1	1	0	0	0.073924	0.23584	0.07682	0.072306	0.13154	0.08418	0.29417	0.25125	0.16556	0.065779	0.11726	0.12896	0.26385	0.32564	0.066707	0.24866	-2.4271	-3.0542	-2.0854	-3.1396	-2.6729	-2.3021	-3.5125	-2.2938	-2.6208	-3.2062	-2.0917	-3.1646	-2.775	-2.2771	-3.2917	-2.6375	168.817	158.396	-4.567	238.251	276.163	125.713	-7.737	229.886	132.131	3.114	125.170	331.996	90.682	-6.281	303.960	318.445	0.0012731	0.00087666	4.4868e-05	748.17	2.8388e-06	7.0714e-06	797.56	281.89	1.2662e-06	4.9029e-06	366.85	152.64	113.98	63.21	6.2778e-06	89.563	0.0010831	0.0010736	0.00029982	817.82	1.1701e-05	1.1626e-05	863.73	305.39	1.1651e-05	1.153e-05	423	164.12	127.43	67.387	1.1526e-05	94.901	1.703	41.335	76.704	-2.013	187.050	76.376	-2.849	3.307	200.592	102.181	1.819	6.722	8.940	12.964	128.521	10.330	-8191	255	
1513.809	1	1	0	0	0.22323	0.27885	0.13794	0.18304	0.12883	0.19325	0.0096635	0.11538	0.10724	0.08728	0.36973	0.23545	0.2595	0.18898	0.19153	0.14554	-2.3583	-3.1896	-2.1312	-3.0729	-2.7792	-2.1292	-3.3479	-2.6292	-2.4771	-3.0687	-2.0854	-3.2396	-2.8833	-2.2354	-3.2188	-2.4938	172.399	7.958	193.355	-2.865	203.237	-0.932	217.794	24.249	173.241	-6.902	297.651	333.490	39.074	298.438	278.126	294.047	0.0014004	0.0002656	0.00010994	748.77	9.399e-06	4.488e-06	798.15	282.1	3.1078e-06	8.7435e-06	362.01	152	113.05	62.706	1.2055e-05	88.4	0.001069	0.0010686	0.00029668	817.5	1.1536e-05	1.1562e-05	862.98	304.83	1.1427e-05	1.1359e-05	419.88	162.87	126.46	66.912	1.1439e-05	93.748	8.813	116.228	80.151	-2.139	92.980	150.200	-2.869	3.719	107.960	183.535	2.291	6.931	8.888	13.209	144.163	10.315	-8191	255	
1513.905	1	1	0	0	0.15264	0.063944	0.2551	0.3588	0.23227	0.13768	0.11751	0.28573	0.10001	0.12608	0.23606	0.2025	0.06314	0.32588	0.070543	0.17803	-2.1021	-3.2146	-2.1	-2.8187	-3.0083	-2.1125	-3.3604	-2.8187	-2.1354	-3.5729	-2.1708	-2.6917	-3.0563	-2.1458	-3.0083	-2.8729	5.820	174.202	342.601	293.589	146.161	133.530	221.274	198.697	168.646	113.030	23.380	271.614	17.483	233.158	239.232	-12.453	0.0011028	0.00041773	0.00016633	745.22	3.494e-06	5.5098e-06	795.29	282.21	1.0057e-05	7.2207e-06	360.57	150.98	112.98	62.691	5.9276e-06	88.362	0.0010452	0.0010422	0.0002933	814.77	1.1469e-05	1.1453e-05	859.62	304.94	1.1439e-05	1.1437e-05	419.58	162.15	126.3	66.84	1.1339e-05	93.611	17.185	54.816	27.377	-2.228	110.717	142.766	-2.666	3.538	55.737	334.463	1.608	6.703	8.600	13.163	153.344	10.269	-8191	255	
1514.001	1	1	0	0	0.20247	0.15759	0.053036	0.099955	0.23123	0.080243	0.16387	0.21735	0.27747	0.2247	0.23368	0.14827	0.26409	0.11154	0.091753	0.26599	-2.0229	-3.3042	-2.0208	-2.6583	-3.1042	-1.9917	-3.1708	-2.8792	-2.1396	-3.1937	-2.425	-2.6104	-3.3396	-2.325	-3.0146	-2.95	136.299	106.611	188.383	149.107	80.340	54.368	283.296	-7.569	198.865	331.753	96.833	65.847	21.711	79.354	329.958	-2.838	0.0013886	5.9669e-05	6.0385e-06	745.81	8.4298e-06	7.7073e-06	798.95	282.97	1.11e-05	6.743e-06	361.18	152.05	113.91	63.003	1.0631e-05	89.16	0.0010332	0.0010241	0.0002889	813.12	1.1243e-05	1.1369e-05	861.66	305	1.1292e-05	1.144e-05	419.5	163.07	126.48	67.193	1.1374e-05	94.384	9.610	101.229	44.858	-1.940	53.848	141.786	-2.878	3.369	68.285	199.506	1.794	6.673	8.716	12.921	143.601	10.193	-8191	255	
1514.097	1	1	0	0	0.26338	0.17804	0.17585	0.19532	0.028858	0.19689	0.36893	0.29667	0.29836	0.28461	0.30108	0.15696	0.062903	0.18414	0.18283	0.2556	-1.7521	-3.2562	-2.2271	-2.4	-3.1	-2.0375	-2.9083	-2.8479	-1.9833	-3.1292	-2.2896	-2.4521	-3.1854	-2.3229	-2.675	-3.2979	175.816	73.004	274.458	185.851	32.249	140.407	308.334	335.343	50.783	192.852	2.811	99.162	340.499	336.848	283.697	295.505	0.00097736	0.00030552	0.00015784	751.4	7.4781e-06	9.7668e-06	799.76	283.54	6.4569e-06	8.6206e-06	363.43	151.96	114.68	63.18	2.9698e-06	89.533	0.0010454	0.0010533	0.00029381	816.26	1.1422e-05	1.1482e-05	863.99	305.63	1.1468e-05	1.1559e-05	422.58	163.46	127.43	67.38	1.1561e-05	94.759	8.268	77.082	20.326	-1.977	175.646	155.696	-2.866	3.387	101.858	126.234	2.363	7.004	9.066	13.145	55.901	10.278	-8191	255	
1514.193	1	1	0	0	0.036632	0.20306	0.24779	0.23947	0.009829	0.16177	0.067082	0.17287	0.27306	0.21416	0.064814	0.27431	0.094603	0.12502	0.14359	0.052037	-1.825	-3.0312	-2.5938	-2.3833	-3.2188	-2.2313	-2.8104	-3.1688	-2.0125	-3.0417	-2.6271	-2.2333	-3.1333	-2.4833	-2.4938	-3.2271	40.344	174.289	98.283	308.416	303.528	35.365	228.625	-2.025	132.825	83.555	286.659	328.793	327.069	320.932	282.384	0.699	0.0015514	0.00055804	6.7002e-05	748.19	5.5911e-06	9.2177e-06	800.07	282.63	3.3034e-06	3.1812e-06	365.45	153.19	114.32	63.207	4.876e-06	89.862	0.0010473	0.0010596	0.00029584	816.68	1.1525e-05	1.1556e-05	864.82	305.85	1.1572e-05	1.1708e-05	424.5	164.3	127.55	67.461	1.1525e-05	95.018	16.747	62.728	204.757	-2.040	117.458	119.747	-2.431	3.502	303.762	123.020	2.213	6.815	8.781	12.928	178.302	10.500	-8191	255	
1514.289	1	1	0	0	0.14283	0.11998	0.05817	0.074405	0.089116	0.15593	0.3374	0.4367	0.21638	0.12954	0.18723	0.16511	0.029895	0.23479	0.045488	0.28375	-1.5271	-2.9313	-2.8021	-2.2417	-3.1146	-2.3708	-2.6042	-3.2417	-2.0438	-2.9083	-2.9146	-2.1562	-3.1604	-2.4917	-2.2687	-3.3542	15.521	284.508	91.696	242.863	324.930	25.370	283.053	264.003	311.022	341.114	24.655	116.835	-2.498	287.378	42.970	276.555	0.0014217	0.001439	0.00011394	748.19	4.8642e-06	6.9955e-06	798.59	281.93	5.7475e-06	7.5251e-06	362.5	152.56	113.57	62.923	3.5666e-06	88.917	0.0010543	0.0010571	0.00029263	816.81	1.1452e-05	1.1541e-05	862.2	304.86	1.1444e-05	1.1534e-05	420.16	163.24	126.79	67.071	1.1406e-05	94.047	9.853	132.742	59.643	-1.757	324.592	116.400	-2.664	3.738	109.517	173.326	2.066	6.758	9.198	13.305	198.477	10.374	-8191	255	
1514.385	1	1	0	0	0.10835	0.33793	0.12013	0.12017	0.21468	0.1385	0.24959	0.24507	0.078776	0.13621	0.0645	0.30477	0.28804	0.29517	0.2241	0.23817	-1.9104	-2.6542	-2.8688	-2.2479	-3.0812	-2.5458	-2.3688	-3.4	-1.9542	-2.8979	-2.8937	-1.9583	-3.2	-2.6917	-2.05	-3.2521	186.907	202.308	122.834	118.552	103.009	334.118	340.586	268.467	16.722	312.833	43.058	-4.010	44.626	330.200	268.902	281.927	0.0013741	0.00049324	0.00031976	745.81	9.2185e-06	1.1026e-06	792.81	281.77	1.1005e-05	3.5397e-06	360.77	151.22	113.21	62.439	3.275e-06	88.131	0.0010392	0.0010455	0.00029027	814.39	1.1389e-05	1.142e-05	858.97	304.34	1.1512e-05	1.1533e-05	420	162.34	126.6	66.729	1.1551e-05	93.569	4.471	125.090	111.009	-1.920	143.144	201.439	-2.629	3.272	81.418	213.648	1.755	6.920	8.457	12.855	149.651	10.045	-8191	255	
1514.504	1	1	0	0	0.17377	0.15954	0.2341	0.095651	0.097551	0.10228	0.31925	0.14891	0.091731	0.10132	0.1766	0.14649	0.37771	0.2477	0.15721	0.20857	-1.8917	-2.4938	-3.0417	-2.0229	-3.0896	-2.6708	-2.1604	-3.1771	-2.2521	-2.6375	-3.0271	-2.25	-3.0187	-3.0187	-2.0854	-3.2917	302.407	287.524	117.293	13.784	-10.929	258.153	201.396	20.410	69.361	233.558	277.371	1.764	-7.142	344.794	-10.579	238.959	0.0014201	0.00035215	0.00026464	749.06	5.411e-06	3.1027e-06	794.47	281.47	1.0956e-05	7.9726e-06	359.99	151.42	113.24	62.321	5.1518e-06	88.252	0.0010642	0.001068	0.00029499	815.02	1.1599e-05	1.1504e-05	858.95	304.39	1.1648e-05	1.1684e-05	420.73	162.48	126.92	66.668	1.1924e-05	93.794	0.272	98.215	76.714	-2.077	130.236	128.606	-2.866	3.186	69.080	131.161	1.723	6.502	8.698	12.738	14.155	10.097	-8191	255	
1514.600	1	1	0	0	0.12327	0.12382	0.087226	0.10785	0.080332	0.14138	0.021497	0.14297	0.14873	0.3914	0.198	0.10292	0.080225	0.37373	0.061804	0.12812	-1.9771	-2.4271	-3.0208	-2.1063	-3.025	-2.9083	-2.2146	-3.2792	-2.2375	-2.3333	-3.2458	-2.2667	-3.0187	-3.0229	-2.1729	-3.2521	339.486	214.854	112.356	244.219	138.624	292.833	117.447	241.205	105.181	222.472	10.139	336.347	293.832	329.624	242.786	5.773	0.0014238	0.00077148	0.00014934	752.3	6.4345e-06	5.9456e-06	797.42	282.1	8.3544e-06	5.0308e-06	361.65	151.89	113.57	62.489	1.3815e-05	89.335	0.0010985	0.0010956	0.00030198	819.5	1.1984e-05	1.2051e-05	865.18	305.66	1.2204e-05	1.2127e-05	425.36	163.41	127.54	67.039	1.2017e-05	94.649	18.955	71.382	77.281	-2.391	164.026	137.285	-2.861	3.408	147.040	194.566	2.383	6.762	8.791	12.868	123.826	10.203	-8191	255	
1514.672	1	1	0	0	0.10918	0.086427	0.053016	0.11296	0.2145	0.05828	0.14177	0.3361	0.21702	0.186	0.12599	0.025611	0.11096	0.30001	0.11468	0.19149	-2.0729	-2.1813	-3.0542	-2.1229	-2.8354	-2.9313	-2.0917	-3.3167	-2.5396	-2.1917	-3.125	-2.3479	-2.8187	-3.2646	-2.1437	-3.3333	171.403	95.308	324.200	255.483	292.358	333.575	234.515	293.226	220.596	313.280	126.945	-1.562	264.548	331.150	89.194	293.303	0.0012288	0.00056557	0.00010843	746.7	2.6492e-06	3.694e-06	795.61	281.31	4.3828e-06	5.9827e-06	362.29	152.33	113.07	62.677	1.4862e-06	89.151	0.0011128	0.00111	0.00030944	819.4	1.2268e-05	1.2237e-05	866.68	306.13	1.2425e-05	1.2463e-05	427.65	164.44	128.04	67.099	1.2417e-05	94.592	0.482	122.303	97.185	-2.069	65.036	332.915	-2.656	3.622	67.516	138.824	1.492	6.398	9.068	12.763	329.088	10.270	-8191	255	
1514.770	1	1	0	0	0.35754	0.15799	0.21697	0.13697	0.11108	0.11842	0.23015	0.24734	0.24059	0.11747	0.11351	0.19708	0.37664	0.2135	0.11124	0.28191	-2.4125	-2.1813	-3.2979	-2.4417	-2.4604	-3.1104	-2.1688	-3.1583	-2.5625	-2.1396	-3.1625	-2.2542	-2.5542	-3.3458	-1.9021	-3.0396	201.360	260.920	139.356	312.612	65.239	198.977	296.185	14.000	41.596	248.779	60.700	269.931	260.309	326.061	10.687	283.040	0.0012449	0.00015685	0.00024858	750.16	9.2133e-06	9.5621e-06	797.94	282.3	1.1898e-05	6.6571e-06	362.66	150.96	112.95	62.023	7.1757e-06	88.204	0.0011367	0.0011316	0.00031574	819.62	1.2301e-05	1.2233e-05	865.31	305.93	1.2176e-05	1.201e-05	425.11	162.82	126.92	66.585	1.2045e-05	93.511	11.282	61.882	104.344	-2.398	38.294	154.850	-2.646	3.557	23.913	173.464	2.088	6.535	8.661	12.810	96.187	10.157	-8191	255	
1514.889	1	1	0	0	0.032516	0.311	0.28139	0.090965	0.16161	0.35272	0.33954	0.22691	0.1298	0.15611	0.24723	0.19881	0.14553	0.23968	0.10722	0.35362	-2.7875	-2.0583	-3.2396	-2.4188	-2.3375	-3.2729	-2.2938	-2.9813	-2.775	-1.9937	-2.9146	-2.4375	-2.2354	-3.2771	-2.0917	-2.8896	230.913	50.488	39.100	37.727	94.096	-12.488	231.053	286.263	212.574	306.430	294.329	38.354	296.152	37.828	5.587	294.372	0.0013174	0.00061978	0.00010571	744.5	4.861e-06	3.3664e-06	793.06	282.45	9.2308e-06	6.8077e-06	363.01	150	113.33	62.052	1.0501e-05	88.019	0.0011061	0.0011051	0.00030798	815.88	1.1982e-05	1.1911e-05	861.68	305.14	1.1904e-05	1.1874e-05	422.2	162.23	126.78	66.389	1.2041e-05	93.334	6.042	77.405	84.660	-2.267	140.076	21.953	-2.828	3.293	-0.468	177.041	2.151	6.596	8.841	13.008	152.418	10.317	-8191	255	
1514.985	1	1	0	0	0.18351	0.16556	0.18761	0.15342	0.036816	0.15924	0.22808	0.12339	0.23806	0.11324	0.084822	0.23096	0.29422	0.2753	0.14404	0.14403	-2.5854	-2.0563	-3.0604	-2.5979	-2.0354	-3.2854	-2.3063	-2.7083	-3.1542	-2.1396	-2.8875	-2.6958	-2.2292	-3.3625	-2.1292	-2.5729	94.250	246.020	174.535	131.826	26.708	10.300	261.854	85.925	135.267	111.894	4.202	310.490	42.438	313.130	126.141	212.111	0.0012917	0.00031204	0.00015215	743.78	9.9958e-06	1.121e-05	789.9	282.55	1.0184e-06	4.5973e-06	360.94	151.31	112.84	62.185	2.1693e-06	88.238	0.0010967	0.0011019	0.00030435	815.94	1.1885e-05	1.1818e-05	859.27	304.12	1.1632e-05	1.1604e-05	420.31	162.39	126.35	66.395	1.1671e-05	93.521	11.204	149.543	66.628	-2.103	129.285	100.526	-2.623	3.575	292.210	93.861	2.172	6.663	9.000	13.174	115.566	10.364	-8191	255	
1515.081	1	1	0	0	0.24589	0.040239	0.31816	0.15873	0.29861	0.11577	0.18252	0.21928	0.075324	0.05031	0.14416	0.051484	0.20704	0.3908	0.18189	0.14747	-2.7021	-1.9146	-2.8958	-2.7479	-2.0708	-3.3979	-2.3896	-2.5833	-2.9458	-2.0375	-3.0958	-3.0938	-2.0229	-3.3125	-2.2625	-2.5146	138.696	322.756	63.901	291.334	187.756	286.816	223.071	311.224	266.204	97.676	210.207	4.682	215.005	29.581	183.577	158.637	0.0014461	0.00046452	0.00031981	746.53	4.4283e-06	5.4752e-06	797.94	281.88	1.1908e-05	3.4123e-06	362.92	151.56	113.19	62.305	1.6561e-05	88.328	0.0010593	0.0010581	0.00029706	814.44	1.162e-05	1.1633e-05	862.35	304.47	1.168e-05	1.1681e-05	421.82	162.85	126.52	66.45	1.1648e-05	93.738	24.208	82.152	101.557	-2.004	29.576	112.691	-2.677	3.571	115.171	223.621	1.804	6.988	9.406	12.930	109.430	10.365	-8191	255	
1515.202	1	1	0	0	0.19701	0.13489	0.23148	0.10553	0.16373	0.15544	0.30926	0.36407	0.16037	0.16309	0.1587	0.055609	0.151	0.13301	0.1284	0.30837	-2.8104	-1.9479	-2.9562	-2.9792	-2.0396	-3.3063	-2.6458	-2.3104	-3.0854	-2.0792	-2.7458	-3.2188	-2.0917	-3.4083	-2.4958	-2.4521	237.908	295.748	47.557	292.916	312.970	18.185	8.257	300.821	170.505	225.464	251.807	334.413	190.617	327.176	198.464	295.509	0.0014343	0.00033987	5.8376e-05	749.09	8.7588e-06	5.8839e-06	797.48	282.13	1.0212e-05	1.231e-05	366.34	152.08	113.34	62.404	6.1205e-06	88.656	0.0010521	0.0010583	0.00029476	814.58	1.1403e-05	1.1487e-05	861.12	304.58	1.1449e-05	1.1472e-05	422.63	163.02	126.21	66.364	1.1513e-05	93.763	19.002	189.448	53.470	-2.231	84.584	73.675	-2.686	3.737	97.612	101.566	1.677	6.985	8.699	13.107	100.161	10.327	-8191	255	
1515.274	1	1	0	0	0.11257	0.17637	0.070716	0.034713	0.063243	0.099328	0.18437	0.1942	0.13234	0.20042	0.073682	0.087669	0.078041	0.24115	0.031193	0.098287	-2.9542	-2.1396	-2.8104	-3.2708	-2.1	-2.8896	-2.8292	-2.3187	-3.1542	-2.2792	-2.35	-3.0917	-1.9792	-3.1562	-2.75	-2.2958	160.296	38.844	108.925	51.562	257.064	180.380	209.155	196.482	173.288	231.013	236.218	25.975	247.063	343.311	108.323	291.191	0.0015902	0.00061887	0.00023795	749.2	1.0925e-05	7.7256e-06	792.7	282	9.0837e-06	1.8424e-06	358.38	150.71	112.17	61.521	8.5995e-06	87.591	0.0010471	0.0010613	0.0002967	815.65	1.1637e-05	1.1832e-05	861.58	303.84	1.155e-05	1.1558e-05	421.2	161.6	125.34	65.824	1.1232e-05	92.676	8.116	84.580	47.990	-1.976	97.121	179.949	-2.662	3.751	132.687	88.878	2.060	6.906	9.047	13.280	121.807	10.491	-8191	255	
1515.370	1	1	0	0	0.065761	0.080485	0.15962	0.168	0.15818	0.072636	0.089834	0.10036	0.22349	0.17462	0.15205	0.40423	0.28586	0.48063	0.32009	0.1087	-2.9188	-2.2604	-2.4646	-3.1167	-2.0708	-2.9875	-3.0333	-2.1417	-3.0896	-2.3396	-2.475	-3.4562	-2.1688	-3.0708	-3.0833	-2.2667	8.177	128.327	33.083	278.490	252.419	334.050	160.385	191.791	268.410	62.201	-9.042	267.869	236.331	328.938	331.853	209.365	0.0014998	0.00048021	0.00015934	745.69	8.7317e-06	1.2012e-05	791.29	280.47	1.1023e-05	7.9527e-06	359.51	150.97	112.15	62.016	1.2047e-05	87.542	0.0010233	0.0010307	0.00028454	811.66	1.1297e-05	1.1315e-05	856.12	302.56	1.1195e-05	1.1265e-05	416.89	161.3	125.3	65.927	1.1183e-05	92.59	9.591	87.026	108.465	-1.992	134.207	110.918	-2.631	3.869	34.609	120.997	2.247	6.806	9.024	13.248	70.369	10.489	-8191	255	
1515.490	1	1	0	0	0.065988	0.078264	0.2463	0.37509	0.22546	0.08132	0.071416	0.17267	0.10344	0.013492	0.3014	0.19837	0.14632	0.081249	0.34079	0.19741	-3.0417	-2.575	-2.4313	-3.2896	-2.1271	-2.8333	-3.1875	-2.1875	-3.1229	-2.5958	-2.3563	-3.3667	-2.1146	-2.6771	-3.0146	-2.3292	125.480	342.113	111.518	318.830	218.547	225.241	119.870	232.805	43.377	23.666	286.360	272.328	-1.912	334.222	337.824	20.686	0.0010335	0.0007322	0.00023122	747.96	5.0943e-06	3.1608e-06	794.23	281.6	1.0511e-05	3.4796e-06	362.22	151.14	113.01	61.912	5.1393e-06	88.014	0.0010301	0.001033	0.000286	812.79	1.1295e-05	1.1321e-05	857.44	303.28	1.1271e-05	1.1263e-05	418.03	161.83	125.6	66.07	1.1027e-05	93.106	19.741	138.465	26.852	-2.165	105.166	146.355	-2.486	3.532	99.614	285.907	2.397	6.554	8.951	12.910	160.514	10.141	-8191	255	
1515.585	1	1	0	0	0.22099	0.32791	0.10895	0.16569	0.17806	0.26843	0.15498	0.22614	0.084531	0.083555	0.19717	0.10044	0.14166	0.2427	0.11394	0.26126	-3	-2.5563	-2.2646	-3.4583	-2.2417	-2.6063	-3.2708	-2.1292	-2.9979	-2.7333	-2.0542	-3.3146	-2.2125	-2.6896	-3.1979	-2.2146	245.041	146.265	69.862	-12.149	214.663	210.523	189.333	282.988	222.620	124.172	60.796	309.727	26.982	45.863	43.444	274.336	0.0010662	0.0006915	0.0002365	749.3	5.3872e-06	6.2882e-06	795.49	283.47	9.3205e-06	9.8947e-06	362.47	152.35	112.93	62.218	4.5062e-06	88.617	0.0010108	0.0010066	0.00028005	811.43	1.0892e-05	1.0877e-05	857.35	303.94	1.0878e-05	1.0932e-05	416.56	162.55	125.62	66.278	1.0993e-05	93.751	13.123	106.547	79.189	-1.900	10.861	195.661	-2.782	3.694	122.153	113.177	2.317	6.890	8.776	13.192	180.829	10.388	-8191	255	
1515.681	1	1	0	0	0.073519	0.15049	0.064123	0.25769	0.1084	0.12133	0.17797	0.020597	0.1479	0.12518	0.43377	0.14656	0.22781	0.21569	0.22805	0.43204	-2.7146	-2.8083	-2.1688	-3.2708	-2.2625	-2.5125	-3.2313	-2.3354	-2.8854	-2.7354	-2.0125	-3.275	-2.3833	-2.6125	-3.125	-2.2229	132.913	49.826	39.521	-9.469	156.761	278.522	243.414	199.225	268.166	344.484	237.230	306.227	66.068	293.618	246.965	292.706	0.0012763	0.00063109	5.8696e-05	749.78	1.6616e-05	3.8006e-06	799.95	283.03	8.0851e-06	1.1365e-05	365.49	152.65	113.43	62.064	1.3121e-05	88.517	0.0010285	0.0010282	0.00028364	814.89	1.1162e-05	1.1222e-05	862.83	304.84	1.1296e-05	1.1228e-05	420.37	163.32	126.37	66.31	1.1289e-05	93.758	5.149	97.957	107.063	-1.999	118.660	98.897	-2.445	3.583	65.208	120.997	1.988	6.901	8.820	13.213	75.007	10.285	-8191	255	
1515.801	1	1	0	0	0.24938	0.12271	0.161	0.087422	0.067142	0.16867	0.22389	0.25661	0.15988	0.17583	0.20297	0.058263	0.21978	0.2187	0.02653	0.15582	-2.5417	-2.9917	-1.8937	-3.4083	-2.5396	-2.2604	-3.4188	-2.3167	-2.65	-3.2396	-2.1375	-3.4562	-2.6937	-2.3333	-3.2292	-2.5167	278.414	334.202	212.841	24.847	241.038	-10.022	270.799	294.733	200.586	84.081	284.735	82.946	-6.377	265.119	116.465	246.791	0.0011959	0.0002101	0.00029863	749.87	1.0324e-05	4.7667e-06	794.83	282.16	8.0531e-06	8.8489e-06	360.75	151.12	113.03	61.954	9.7122e-06	87.951	0.0010458	0.0010386	0.00029026	816.05	1.1376e-05	1.131e-05	860.27	303.99	1.1336e-05	1.1323e-05	419.68	162.18	125.93	66.061	1.135e-05	92.928	8.193	89.614	110.872	-1.990	108.037	140.293	-2.563	3.487	-1.614	150.944	2.228	6.659	8.683	13.031	105.923	10.341	-8191	255	
1515.898	1	1	0	0	0.094902	0.26321	0.13694	0.25413	0.19878	0.13188	0.089081	0.24879	0.090681	0.025887	0.19247	0.086601	0.083411	0.17409	0.09352	0.28692	-2.1771	-3.0083	-2.0521	-3.1146	-2.8104	-1.9667	-3.4333	-2.4104	-2.575	-3.1229	-2.05	-3.275	-2.8208	-2.1479	-3.2042	-2.6021	252.095	64.762	6.785	-6.028	10.053	196.878	264.401	285.038	84.546	295.561	212.729	257.353	271.960	22.468	51.629	240.454	0.0013902	0.00020986	0.0002069	747.7	5.4357e-06	3.9586e-06	794.2	281.09	7.5632e-06	4.9745e-06	361.56	150.5	112.43	61.795	1.0441e-06	87.573	0.0010384	0.0010288	0.00028849	813.96	1.1387e-05	1.1379e-05	858.9	303.36	1.144e-05	1.1454e-05	419.38	161.64	125.86	65.978	1.1487e-05	92.78	14.528	119.619	44.922	-2.044	196.603	118.364	-2.789	3.612	61.559	135.232	1.961	7.083	8.692	13.305	138.684	10.361	-8191	255	
1515.969	1	1	0	0	0.015941	0.1859	0.033469	0.096766	0.17933	0.18378	0.16581	0.15678	0.054168	0.22228	0.079533	0.16592	0.11236	0.32059	0.14734	0.11296	-2.1625	-3.1479	-2.1875	-2.9125	-2.9458	-2.025	-3.2729	-2.5896	-2.1417	-3.1354	-2.0896	-3.0292	-3.0542	-2.2875	-3.1437	-2.6625	212.547	66.476	84.944	139.317	30.449	323.313	148.742	274.485	250.895	69.535	117.468	317.087	337.936	4.582	268.322	-14.575	0.0012328	0.00042787	0.0001991	746.07	5.6668e-06	9.0813e-06	794.9	281.29	1.1323e-05	5.7582e-06	358.75	150.19	111.94	61.556	9.5009e-06	87.357	0.0010471	0.0010341	0.00029232	813.96	1.1387e-05	1.141e-05	859.67	303.5	1.1366e-05	1.1257e-05	418.42	161.66	125.77	65.772	1.1459e-05	92.833	7.572	68.346	82.909	-1.988	58.197	154.854	-2.812	3.361	126.937	36.984	2.130	6.817	8.613	13.115	92.742	10.327	-8191	255	
1516.065	1	1	0	0	0.29936	0.20333	0.28892	0.10363	0.24582	0.12398	0.24889	0.29017	0.26722	0.11041	0.12385	0.10112	0.2427	0.28982	0.088722	0.19407	-1.9875	-3.1792	-2.0312	-2.9396	-2.8583	-1.8625	-3.3354	-2.7417	-2.2021	-3.3042	-2.2917	-2.6583	-3.0083	-2.1146	-2.8792	-2.8396	37.407	-9.525	137.345	310.604	8.075	230.260	301.287	319.365	28.645	79.032	312.297	285.159	334.091	32.513	-13.670	255.397	0.0016551	0.0004943	0.00014647	747.46	2.7228e-06	5.7797e-06	795.29	280.84	1.3541e-05	1.0228e-06	362.51	151.38	111.66	61.51	1.1571e-05	87.784	0.0010528	0.0010536	0.00029761	815.74	1.1544e-05	1.1508e-05	861.59	303.36	1.1469e-05	1.1441e-05	419.96	162.03	125.39	65.752	1.1538e-05	93.089	10.097	136.775	45.445	-2.007	70.521	138.985	-2.576	3.713	119.110	88.984	2.350	6.778	9.110	13.153	187.606	10.359	-8191	255	
1516.186	1	1	0	0	0.071551	0.11239	0.19751	0.067128	0.38673	0.055122	0.16421	0.16313	0.14442	0.041491	0.031475	0.12167	0.21101	0.1137	0.24649	0.18404	-1.8354	-3.3896	-2.2021	-2.4229	-3.1	-1.9708	-2.9583	-2.8604	-2.0479	-3.2542	-2.4417	-2.5917	-3.1896	-2.3146	-2.9104	-3.1125	225.247	249.456	184.888	-6.315	138.594	19.028	145.131	308.380	262.856	256.291	138.751	275.064	329.711	7.355	111.200	0.116	0.0012759	0.0005033	5.8419e-05	748.93	6.277e-06	7.9293e-06	794.62	280.85	1.1365e-05	5.9211e-06	360.48	151.71	112.39	61.738	4.0309e-06	87.705	0.0010521	0.0010508	0.00029582	815.58	1.1501e-05	1.1561e-05	861.6	303.32	1.1462e-05	1.1541e-05	420.84	162.5	125.46	65.768	1.1573e-05	93.073	11.686	321.783	-7.265	-1.723	96.761	97.106	-2.590	3.672	23.502	143.649	2.134	6.840	9.373	13.218	146.416	10.473	-8191	255	
1516.282	1	1	0	0	0.18031	0.13968	0.09241	0.37503	0.081283	0.050179	0.17377	0.26416	0.12099	0.12791	0.055237	0.27131	0.19977	0.42983	0.14124	0.2099	-1.7021	-3.1229	-2.3937	-2.3021	-3.1271	-2.1042	-2.9958	-3.0958	-2.0979	-3.0729	-2.5125	-2.2438	-3.2917	-2.2604	-2.6729	-3.15	81.935	161.008	140.623	304.972	305.459	161.212	315.141	178.334	159.336	58.317	297.502	304.723	-3.781	275.417	270.463	164.557	0.0013407	0.00025251	6.6865e-05	747.67	7.5519e-06	1.1312e-05	791.42	280.91	1.0769e-05	3.8626e-06	361.55	150.54	112.35	61.439	3.2876e-06	87.096	0.0010538	0.0010576	0.00029632	814.75	1.1586e-05	1.172e-05	859.9	303.52	1.1585e-05	1.1652e-05	419.97	161.4	125.6	65.586	1.1564e-05	92.25	24.171	38.112	88.734	-1.991	173.732	135.371	-2.713	3.775	104.745	175.891	2.332	6.912	9.001	13.273	136.570	10.415	-8191	255	
1516.378	1	1	0	0	0.10927	0.058574	0.037964	0.10887	0.0087486	0.22724	0.2322	0.13401	0.25646	0.11634	0.034122	0.32454	0.13433	0.46316	0.1825	0.14289	-1.7479	-3.1063	-2.5708	-2.1792	-3.2771	-2.0917	-2.5438	-3.2417	-2.1083	-3.0646	-2.8542	-2.1771	-3.2979	-2.5312	-2.6521	-3.1875	106.852	212.442	228.597	40.378	121.624	126.927	25.024	272.216	163.149	290.125	-8.993	343.923	30.118	14.963	298.867	250.673	0.0013477	0.00059232	0.00026082	744.62	4.5268e-06	5.206e-06	795.41	279.91	5.5965e-06	3.3497e-06	362.72	150.63	111.76	61.45	5.4788e-06	87.227	0.0010555	0.0010495	0.00029567	811.9	1.1522e-05	1.1652e-05	857.88	302.34	1.152e-05	1.1478e-05	418.63	161.15	125.43	65.665	1.1335e-05	92.413	6.308	148.366	23.182	-2.057	150.303	75.084	-2.541	3.702	76.518	145.207	2.352	7.126	8.937	13.091	114.043	10.501	-8191	255	
1516.475	1	1	0	0	0.17541	0.23403	0.25504	0.085699	0.11251	0.0889	0.26578	0.18503	0.12793	0.13109	0.10101	0.19227	0.32904	0.099146	0.10421	0.28169	-1.9125	-2.9417	-2.9646	-2.2729	-3.1104	-2.275	-2.5625	-3.4854	-1.8729	-2.8187	-3.0292	-2.0292	-3.175	-2.5792	-2.1646	-3.5042	341.644	286.180	228.011	318.402	332.271	61.669	300.171	259.927	135.336	25.993	7.338	181.043	283.735	77.031	155.057	245.928	0.0014814	0.00082781	0.00015836	749.94	2.0568e-06	5.6847e-06	788.61	281.36	1.1809e-05	7.9015e-06	362.74	150.74	112.45	61.447	3.7888e-06	87.758	0.00104	0.0010514	0.00029138	813.98	1.1519e-05	1.1624e-05	857.89	303.59	1.1555e-05	1.1646e-05	420.72	161.85	125.83	65.875	1.1694e-05	92.919	10.049	95.157	61.343	-2.075	108.344	105.700	-2.371	3.581	33.852	157.517	2.237	6.784	9.123	13.096	34.774	10.294	-8191	255	
1516.571	1	1	0	0	0.099537	0.0090795	0.22604	0.16706	0.18171	0.12865	0.21444	0.12818	0.1479	0.18369	0.06494	0.12071	0.11495	0.33518	0.2061	0.35646	-1.7854	-2.8063	-2.8542	-2.0646	-3.0333	-2.5146	-2.6792	-3.4104	-2.2333	-2.8104	-3.0146	-2.1458	-3.2396	-2.7021	-2.2687	-3.2021	10.041	301.883	39.336	267.455	282.374	264.828	212.698	271.659	52.266	232.769	338.696	309.102	172.460	294.975	50.027	339.987	0.0012037	0.0012435	0.00014786	744.61	5.9036e-06	2.7955e-06	793.19	282.1	1.1226e-05	3.6438e-06	363.74	151.48	112.86	61.985	4.6544e-06	88.177	0.0010754	0.0010849	0.00029898	814.75	1.1691e-05	1.1689e-05	860.9	304.22	1.161e-05	1.1641e-05	420.55	162.32	126.1	66.139	1.1545e-05	93.459	22.240	83.092	42.406	-1.808	135.880	114.172	-2.391	3.839	83.648	133.764	2.503	7.278	9.157	13.328	158.633	10.511	-8191	255	
1516.665	1	1	0	0	0.15982	0.40017	0.11042	0.10132	0.0084617	0.15803	0.17611	0.22555	0.16276	0.052584	0.095643	0.35228	0.16001	0.36979	0.095872	0.1755	-1.9917	-2.5125	-3.1271	-2.0729	-2.8417	-2.8917	-2.3354	-3.3979	-2.3479	-2.3958	-3.2417	-2.2979	-2.8958	-2.8688	-2.1479	-3.4771	236.985	163.589	49.583	312.097	186.696	333.297	301.242	275.315	176.947	133.334	167.589	245.216	207.873	322.770	61.858	306.980	0.0014363	0.0006206	0.00012717	747.84	6.3984e-06	3.355e-06	797.13	281.98	8.3863e-06	7.2612e-06	368.76	151.82	113.21	62.108	5.5462e-06	88.586	0.0010691	0.0010645	0.00029784	816.22	1.182e-05	1.1743e-05	863.11	304.73	1.1847e-05	1.1747e-05	423.87	162.96	126.66	66.208	1.1634e-05	93.778	20.541	103.450	81.679	-1.789	132.205	68.918	-2.295	3.724	89.660	152.135	2.085	6.945	9.274	13.160	159.781	10.812	-8191	255	
1516.763	1	1	0	0	0.34016	0.18969	0.1159	0.10093	0.28518	0.068488	0.22258	0.19148	0.086301	0.072516	0.11892	0.15866	0.1317	0.31277	0.076968	0.015457	-2.0833	-2.5354	-3.2854	-2.0958	-3.0167	-2.9562	-2.3104	-3.2667	-2.3375	-2.3438	-3.2146	-2.175	-2.9958	-3.2042	-2.0021	-3.2979	61.953	176.963	185.630	251.709	249.293	67.765	258.823	274.655	36.763	142.150	69.446	-11.238	251.984	-11.499	249.333	1.933	0.0017368	0.00069008	0.00014412	746.61	1.0083e-05	9.1247e-06	795.22	280.45	1.0991e-05	8.347e-06	359.88	150.18	112.49	61.496	1.1854e-05	87.08	0.0010777	0.0010832	0.00030035	815.67	1.1935e-05	1.1836e-05	861.99	303.83	1.2003e-05	1.1938e-05	421.04	161.67	126.1	65.623	1.1811e-05	92.399	9.937	95.739	111.742	-1.808	134.079	103.088	-2.220	3.868	193.377	80.118	2.174	7.309	9.160	13.321	106.978	10.665	-8191	255	
1516.882	1	1	0	0	0.15957	0.1203	0.021899	0.11029	0.19965	0.27013	0.25827	0.09586	0.30767	0.17564	0.20615	0.31108	0.24469	0.3269	0.29076	0.12897	-2.1167	-2.175	-3.2438	-2.2812	-2.8063	-2.7583	-2.1479	-3.2771	-2.55	-2.2833	-3.3292	-2.3896	-2.6312	-3.1792	-2.1042	-3.2417	246.170	55.501	301.696	110.523	25.591	-11.873	305.509	246.860	29.568	-6.126	29.301	337.175	204.041	11.655	245.971	291.726	0.0013241	0.00063606	0.00023939	746.53	8.6982e-06	9.1928e-06	791.1	280.57	7.055e-06	5.2752e-06	357.78	149.23	111.92	61.201	7.6518e-06	86.756	0.0010783	0.001081	0.00029993	813.71	1.1883e-05	1.1845e-05	857.76	303.6	1.2019e-05	1.1955e-05	420.74	160.94	126.01	65.494	1.21e-05	92.297	12.517	22.368	73.981	-2.025	127.049	129.309	-2.191	4.028	0.013	66.639	2.434	7.250	9.198	13.144	116.394	10.615	-8191	255	
1516.978	1	1	0	0	0.2234	0.027983	0.16465	0.23419	0.11015	0.069763	0.33626	0.22276	0.12016	0.070176	0.25084	0.15323	0.31519	0.1262	0.05788	0.28798	-2.3521	-2.1375	-3.2458	-2.4729	-2.3792	-3.0896	-2.3083	-3.2687	-2.7562	-2.3875	-3.2062	-2.6	-2.4917	-3.2104	-2.0042	-2.9188	120.340	241.155	38.230	266.139	133.297	107.493	-12.831	303.846	323.954	209.023	140.947	335.505	15.074	274.753	122.651	300.174	0.0012224	0.00057018	6.8712e-05	745.85	5.1455e-06	3.8172e-06	791.4	279.88	1.0557e-05	5.9268e-06	359.37	149.78	111.79	61.49	4.3014e-06	87.613	0.0011052	0.0010988	0.00030784	814.87	1.1967e-05	1.2052e-05	858.58	302.66	1.198e-05	1.186e-05	421.05	161.33	125.81	65.684	1.1988e-05	92.777	21.114	-4.406	83.092	-1.697	177.947	68.834	-2.139	4.094	91.214	172.717	2.268	7.303	9.592	13.526	183.651	10.879	-8191	255	
1517.074	1	1	0	0	0.26769	0.096985	0.13311	0.14845	0.092256	0.085904	0.30753	0.033894	0.054577	0.14627	0.12178	0.13721	0.11203	0.20934	0.11658	0.049388	-2.5938	-2.0604	-3.1542	-2.6042	-2.3208	-3.3083	-2.2208	-2.9417	-3.1042	-2.0687	-3.1375	-2.6333	-2.2458	-3.3833	-2.2687	-2.9833	310.117	41.598	316.931	274.192	161.276	56.450	323.147	286.389	182.277	94.615	18.411	-5.199	221.491	308.451	118.200	344.662	0.0012563	7.2312e-05	0.00030009	743.87	2.8252e-06	4.4255e-06	793.11	279.99	9.7259e-06	4.6971e-06	359.71	150.81	112.25	61.513	2.6122e-06	88.27	0.0010938	0.0011013	0.00030855	814.51	1.2156e-05	1.2148e-05	860.45	303.45	1.2109e-05	1.2072e-05	423.01	162.23	126.33	66	1.2063e-05	93.411	7.063	32.659	114.196	-1.693	115.810	39.567	-2.215	4.335	-3.583	138.594	2.881	7.538	9.494	13.788	236.565	10.869	-8191	255	
1517.170	1	1	0	0	0.081625	0.09004	0.10498	0.1668	0.13814	0.11042	0.22123	0.15155	0.23069	0.1551	0.05356	0.076674	0.099241	0.31526	0.19046	0.19247	-2.9292	-1.7563	-3.2104	-2.7042	-2.3042	-3.075	-2.4333	-2.7375	-3.1833	-2.0375	-3.0104	-2.8521	-2.1688	-3.1375	-2.2833	-2.65	151.778	286.756	133.738	146.868	273.339	143.922	45.035	300.927	88.438	282.382	5.204	44.656	340.536	303.678	298.643	242.527	0.0012377	0.00034583	7.7981e-05	744.19	5.0062e-06	3.8513e-06	794.86	282.18	9.2169e-06	4.4715e-06	365.23	152.05	113.09	61.948	7.1079e-06	88.336	0.0011018	0.0011064	0.00030999	815.65	1.2054e-05	1.2019e-05	861.59	304.92	1.1955e-05	1.2039e-05	425.63	163.48	126.65	66.406	1.1868e-05	93.761	14.451	13.707	62.828	-1.713	34.746	33.872	-2.235	4.143	36.183	216.136	2.548	6.994	9.042	13.235	125.940	10.394	-8191	255	
1517.266	1	1	0	0	0.078634	0.30651	0.14082	0.1645	0.26285	0.138	0.23705	0.14223	0.17021	0.18123	0.10602	0.066984	0.12833	0.22607	0.1036	0.19735	-2.7083	-2.2188	-3.0312	-2.7562	-2.0812	-3.3521	-2.3667	-2.7667	-3.1292	-2.0938	-3.0042	-2.8937	-2.1417	-3.2604	-2.4417	-2.7042	130.220	305.578	267.375	190.837	226.136	239.416	10.502	68.984	243.629	295.104	339.181	88.313	62.749	294.798	192.908	318.438	0.0014761	0.00035445	0.000183	743.54	6.2878e-06	1.6652e-06	790.69	282.02	4.439e-06	9.2268e-06	360	151.07	112.34	61.756	6.2845e-06	87.582	0.0010671	0.0010865	0.0003058	814.76	1.1769e-05	1.186e-05	861.95	304.41	1.1759e-05	1.186e-05	422	162.28	126.09	66.015	1.2025e-05	92.86	9.537	40.797	38.858	-1.444	98.429	227.112	-2.084	4.290	328.196	104.105	2.137	7.474	9.368	13.799	140.814	10.826	-8191	255	
1517.363	1	1	0	0	0.1648	0.12316	0.20293	0.20938	0.068597	0.40344	0.20753	0.15776	0.23082	0.11176	0.22354	0.10464	0.049206	0.061208	0.22301	0.16776	-2.8729	-2.125	-2.7562	-2.8458	-2.0062	-3.3583	-2.5979	-2.3417	-3.2375	-2.0667	-2.6813	-3.175	-2.2042	-3.2458	-2.5208	-2.3917	289.886	312.446	59.844	39.526	10.260	79.788	-9.580	345.933	119.642	41.554	76.781	28.015	197.014	319.635	339.731	259.553	0.0013696	0.00058025	0.00014769	743.01	3.6735e-06	3.9831e-06	790.73	281.27	6.2129e-06	7.0515e-06	363.63	150.33	112.49	61.729	7.4177e-06	87.637	0.0010883	0.0010954	0.00030789	815.12	1.204e-05	1.2143e-05	860.6	304.72	1.2049e-05	1.2054e-05	423.57	161.71	126.33	66.014	1.208e-05	92.703	9.885	209.916	73.143	-1.509	113.068	166.880	-2.270	4.153	54.474	238.934	2.828	7.456	9.651	13.796	134.282	11.015	-8191	255	
1517.483	1	1	0	0	0.19754	0.09836	0.090344	0.10814	0.1436	0.21016	0.15697	0.36314	0.087852	0.33536	0.05466	0.14361	0.067764	0.31884	0.24653	0.33538	-3.1708	-2.0646	-2.7333	-3.2229	-2.0375	-2.9708	-2.8646	-2.2021	-3.2375	-2.4208	-2.5542	-3.1562	-2.3667	-3.1562	-2.9667	-2.5479	336.918	158.680	24.425	231.497	48.957	39.580	72.790	208.249	345.237	25.513	13.733	235.563	344.089	-10.135	70.034	282.182	0.0013877	0.00052339	0.00017444	746.41	5.1261e-06	3.464e-06	790.56	281.72	1.9588e-06	2.8468e-06	361.46	150.87	112.59	62.213	9.6671e-06	87.877	0.0010918	0.0011038	0.00030829	814.67	1.202e-05	1.2095e-05	858.47	304.28	1.1936e-05	1.2022e-05	422.96	162.39	126.34	66.31	1.1885e-05	93.199	14.102	87.475	55.415	-1.016	243.108	126.012	-1.587	5.307	90.129	77.852	3.510	7.903	10.349	14.485	64.092	11.446	-8191	255	
1517.579	1	1	0	0	0.1915	0.25322	0.064892	0.28793	0.067095	0.019748	0.21116	0.11825	0.23312	0.10285	0.12585	0.22525	0.18741	0.16503	0.093335	0.30873	-2.9375	-2.3438	-2.4437	-3.3167	-2.1229	-2.9042	-3.0917	-2.2687	-3.3396	-2.3375	-2.5333	-3.3229	-2.2229	-2.925	-3.0167	-2.3458	121.806	97.902	32.313	126.631	-5.751	-6.325	260.334	187.089	212.493	36.275	304.899	333.421	311.756	329.376	79.092	20.468	0.001303	0.00075976	0.00015933	743.73	5.5564e-06	1.3466e-05	797.82	280.31	1.01e-05	1.1813e-05	363.18	151.62	113.16	62.047	7.4907e-06	88.233	0.0010877	0.0010833	0.00030467	814.5	1.1882e-05	1.2007e-05	862.13	304.21	1.1979e-05	1.1928e-05	423.33	162.65	126.82	66.343	1.1845e-05	93.548	7.194	76.328	109.555	-1.236	172.237	121.212	-1.802	4.643	130.365	102.888	3.145	7.601	9.468	13.653	85.202	10.553	-8191	255	
1517.674	1	1	0	0	0.088174	0.25059	0.11441	0.17357	0.033773	0.15918	0.28663	0.16076	0.29419	0.084584	0.14893	0.21285	0.20114	0.39758	0.080623	0.1235	-2.8312	-2.4813	-2.4875	-3.2542	-2.2146	-2.7625	-3.125	-2.1833	-3.0979	-2.6021	-2.2646	-3.3917	-2.3375	-2.8479	-3.1625	-2.2292	251.067	248.400	33.042	344.514	110.994	254.314	-7.091	301.563	145.177	338.303	18.548	295.364	216.045	30.235	267.338	247.726	0.0014865	0.001063	0.00023965	749.68	7.3414e-06	1.8228e-06	794.1	282.03	1.3566e-05	1.7909e-05	364.93	151.72	113.1	62.167	3.9106e-06	88.286	0.0010918	0.0010879	0.00030125	817.36	1.1882e-05	1.1849e-05	862.21	304.67	1.1749e-05	1.1707e-05	422.48	163.06	126.5	66.371	1.1556e-05	93.503	13.173	109.524	50.491	-1.912	153.993	320.021	-2.126	4.287	98.704	153.113	2.614	7.576	9.484	13.852	215.953	10.940	-8191	255	
1517.770	1	1	0	0	0.12399	0.2811	0.16173	0.17614	0.21167	0.19077	0.052724	0.21144	0.25972	0.24894	0.066351	0.012494	0.21329	0.18537	0.18377	0.21219	-2.7833	-2.8542	-2.2021	-3.4333	-2.3146	-2.7396	-3.3646	-2.3667	-3.0938	-2.7021	-2.1188	-3.4562	-2.3875	-2.6333	-3.2438	-2.35	69.439	66.819	125.635	157.505	67.639	67.322	335.105	214.226	47.634	167.626	113.917	251.499	214.014	322.642	37.100	302.175	0.0013859	0.00042034	0.00010346	744.2	6.5568e-06	6.698e-06	793.69	281.51	7.5385e-06	9.5662e-06	359.37	151.22	112.69	61.85	4.8204e-06	87.537	0.0010767	0.0010711	0.0002994	814.59	1.1736e-05	1.1648e-05	860.2	303.62	1.1641e-05	1.151e-05	419.54	162.14	126.13	66.119	1.1427e-05	92.793	4.599	90.056	89.735	-1.300	89.178	93.036	-1.868	4.454	77.984	127.425	2.268	7.381	9.337	13.388	119.563	10.710	-8191	255	
1517.866	1	1	0	0	0.22555	0.19938	0.17331	0.20875	0.22999	0.17617	0.063774	0.34501	0.221	0.10766	0.28522	0.32893	0.13271	0.26346	0.11503	0.097551	-2.6	-2.9417	-1.9854	-3.2938	-2.3771	-2.3417	-3.4083	-2.2604	-2.8708	-2.9875	-2.2896	-3.1542	-2.4979	-2.3958	-3.375	-2.3563	131.248	142.644	100.669	319.933	213.640	-4.394	191.267	306.158	294.132	173.782	124.215	280.196	213.506	304.415	223.457	-3.518	0.0013024	0.00070184	0.00012039	747.82	6.5847e-06	6.7038e-06	789.86	281.7	1.8085e-05	4.8368e-06	361.07	150.85	112.89	61.921	7.2252e-06	87.78	0.0010573	0.001042	0.00029019	813.74	1.1488e-05	1.1451e-05	856.21	303.63	1.1391e-05	1.1296e-05	418.02	162	125.95	66.265	1.1344e-05	93.094	17.214	28.082	12.744	-1.908	134.853	113.385	-2.598	3.673	39.423	126.751	2.198	6.943	8.911	13.099	124.269	10.064	-8191	255	
#DATA ENDS
