BOXY.EXE: ISS Imagent and Oximeter Data Acquisition Program Version 0.80
Ascii Record File

#ACQ INFORMATION
2  Detector Channels 
16  External MUX Channels 
1  Auxiliary Channels 
5000  Waveform (CCF) Frequency (Hz)
1  Waveforms Skipped 
30  Waveforms Averaged 
1  Cycles Averaged 
16  Acquisitions per Waveform 
10.0806  Updata Rate (Hz) 

#FILE INFORMATION
TRUE -- External MUX Channel results are PARSED.
FALSE -- AC DC and Phase are NOT grouped.
TRUE -- Companion Program Settings File CREATED.
FALSE -- AC data not excluded
FALSE -- DC data not excluded
FALSE -- Phase data not excluded
FALSE -- Auxillary Chn. data not excluded
Tab delimiters

#CALIBRATION STATE
TRUE -- Waveform Calibration Values APPLIED.


#AUX CALIBRATION VALUES
Val Type	aux-1	

Term	1.0000e+00	
Factor	0.0000e+00	


#WF CALIBRATION VALUES
A = Detector Channel
Val Type	A-AC1	A-AC2	A-AC3	A-AC4	A-AC5	A-AC6	A-AC7	A-AC8	A-AC9	A-AC10	A-AC11	A-AC12	A-AC13	A-AC14	A-AC15	A-AC16	A-DC1	A-DC2	A-DC3	A-DC4	A-DC5	A-DC6	A-DC7	A-DC8	A-DC9	A-DC10	A-DC11	A-DC12	A-DC13	A-DC14	A-DC15	A-DC16	A-Ph1	A-Ph2	A-Ph3	A-Ph4	A-Ph5	A-Ph6	A-Ph7	A-Ph8	A-Ph9	A-Ph10	A-Ph11	A-Ph12	A-Ph13	A-Ph14	A-Ph15	A-Ph16	

Term	0.00000e+00	0.00000e+00	0.00000e+00	0.00000e+00	0.00000e+00	0.00000e+00	0.00000e+00	0.00000e+00	0.00000e+00	0.00000e+00	0.00000e+00	0.00000e+00	0.00000e+00	0.00000e+00	0.00000e+00	0.00000e+00	0.00000e+00	0.00000e+00	0.00000e+00	0.00000e+00	0.00000e+00	0.00000e+00	0.00000e+00	0.00000e+00	0.00000e+00	0.00000e+00	0.00000e+00	0.00000e+00	0.00000e+00	0.00000e+00	0.00000e+00	0.00000e+00	0.00000e+00	0.00000e+00	0.00000e+00	0.00000e+00	0.00000e+00	0.00000e+00	0.00000e+00	0.00000e+00	0.00000e+00	0.00000e+00	0.00000e+00	0.00000e+00	0.00000e+00	0.00000e+00	0.00000e+00	0.00000e+00	
Factor	1.00000e+00	1.00000e+00	1.00000e+00	1.00000e+00	1.00000e+00	1.00000e+00	1.00000e+00	1.00000e+00	1.00000e+00	1.00000e+00	1.00000e+00	1.00000e+00	1.00000e+00	1.00000e+00	1.00000e+00	1.00000e+00	1.00000e+00	1.00000e+00	1.00000e+00	1.00000e+00	1.00000e+00	1.00000e+00	1.00000e+00	1.00000e+00	1.00000e+00	1.00000e+00	1.00000e+00	1.00000e+00	1.00000e+00	1.00000e+00	1.00000e+00	1.00000e+00	X	X	X	X	X	X	X	X	X	X	X	X	X	X	X	X	

B = Detector Channel
Val Type	B-AC1	B-AC2	B-AC3	B-AC4	B-AC5	B-AC6	B-AC7	B-AC8	B-AC9	B-AC10	B-AC11	B-AC12	B-AC13	B-AC14	B-AC15	B-AC16	B-DC1	B-DC2	B-DC3	B-DC4	B-DC5	B-DC6	B-DC7	B-DC8	B-DC9	B-DC10	B-DC11	B-DC12	B-DC13	B-DC14	B-DC15	B-DC16	B-Ph1	B-Ph2	B-Ph3	B-Ph4	B-Ph5	B-Ph6	B-Ph7	B-Ph8	B-Ph9	B-Ph10	B-Ph11	B-Ph12	B-Ph13	B-Ph14	B-Ph15	B-Ph16	

Term	0.00000e+00	0.00000e+00	0.00000e+00	0.00000e+00	0.00000e+00	0.00000e+00	0.00000e+00	0.00000e+00	0.00000e+00	0.00000e+00	0.00000e+00	0.00000e+00	0.00000e+00	0.00000e+00	0.00000e+00	0.00000e+00	0.00000e+00	0.00000e+00	0.00000e+00	0.00000e+00	0.00000e+00	0.00000e+00	0.00000e+00	0.00000e+00	0.00000e+00	0.00000e+00	0.00000e+00	0.00000e+00	0.00000e+00	0.00000e+00	0.00000e+00	0.00000e+00	-2.60428e+02	-1.10120e+02	-1.35771e+02	-1.82358e+02	-8.82290e+01	-8.01576e+01	-1.56915e+02	-1.62015e+02	-1.40806e+02	-6.49328e+01	-1.82532e+02	-1.70017e+02	-1.83467e+02	-1.76494e+02	-8.40987e+01	-1.49052e+02	
Factor	5.47524e-05	1.28517e-04	3.34994e-05	1.65911e-01	1.40518e-06	1.31051e-06	1.63629e-01	5.02796e-02	1.91554e-06	1.41169e-06	2.54980e-01	2.65488e-02	4.71564e-02	8.70794e-03	1.47822e-06	1.22069e-02	1.50795e-06	1.56019e-06	4.34946e-07	8.49721e-02	1.70309e-08	1.70813e-08	7.89962e-02	2.58188e-02	1.70192e-08	1.70604e-08	1.17178e-01	1.31686e-02	2.32700e-02	4.46970e-03	1.70381e-08	6.05392e-03	X	X	X	X	X	X	X	X	X	X	X	X	X	X	X	X	



#DISTANCE SETTINGS
A = Detector Channel
A-1	A-2	A-3	A-4	A-5	A-6	A-7	A-8	A-9	A-10	A-11	A-12	A-13	A-14	A-15	A-16	

2.5000e+00	3.0000e+00	2.5000e+00	3.0000e+00	2.0000e+00	3.0000e+00	1.5000e+00	3.0000e+00	3.0000e+00	3.0000e+00	3.0000e+00	3.0000e+00	3.0000e+00	3.0000e+00	1.5000e+00	3.0000e+00	

B = Detector Channel
B-1	B-2	B-3	B-4	B-5	B-6	B-7	B-8	B-9	B-10	B-11	B-12	B-13	B-14	B-15	B-16	

1.0000e+01	1.0000e+01	1.0000e+01	1.4400e+00	1.0000e+01	1.0000e+01	1.5100e+00	1.9400e+00	1.0000e+01	1.0000e+01	1.9900e+00	2.4900e+00	2.4100e+00	2.9000e+00	1.0000e+01	2.9800e+00	




#DATA BEGINS
time	group	step	mark	flag	A-AC1	A-AC2	A-AC3	A-AC4	A-AC5	A-AC6	A-AC7	A-AC8	A-AC9	A-AC10	A-AC11	A-AC12	A-AC13	A-AC14	A-AC15	A-AC16	A-DC1	A-DC2	A-DC3	A-DC4	A-DC5	A-DC6	A-DC7	A-DC8	A-DC9	A-DC10	A-DC11	A-DC12	A-DC13	A-DC14	A-DC15	A-DC16	A-Ph1	A-Ph2	A-Ph3	A-Ph4	A-Ph5	A-Ph6	A-Ph7	A-Ph8	A-Ph9	A-Ph10	A-Ph11	A-Ph12	A-Ph13	A-Ph14	A-Ph15	A-Ph16	B-AC1	B-AC2	B-AC3	B-AC4	B-AC5	B-AC6	B-AC7	B-AC8	B-AC9	B-AC10	B-AC11	B-AC12	B-AC13	B-AC14	B-AC15	B-AC16	B-DC1	B-DC2	B-DC3	B-DC4	B-DC5	B-DC6	B-DC7	B-DC8	B-DC9	B-DC10	B-DC11	B-DC12	B-DC13	B-DC14	B-DC15	B-DC16	B-Ph1	B-Ph2	B-Ph3	B-Ph4	B-Ph5	B-Ph6	B-Ph7	B-Ph8	B-Ph9	B-Ph10	B-Ph11	B-Ph12	B-Ph13	B-Ph14	B-Ph15	B-Ph16	aux-1	digaux	

612.183	1	1	0	256	0.14625	0.19804	0.13214	0.086436	0.30853	0.11541	0.29557	0.23756	0.24254	0.35499	0.053699	0.17538	0.085983	0.22525	0.40042	0.1092	-2.3146	-2.3833	-3.1875	-2.5979	-2.7792	-3.1833	-2.3458	-3.4292	-2.6583	-2.2729	-3.4729	-2.4792	-2.7625	-3.2042	-2.125	-3.2188	182.393	216.445	256.253	180.452	-10.704	86.050	211.903	244.312	117.830	72.742	-33.042	246.051	233.030	-56.888	108.409	242.717	0.00031479	0.00020779	3.4438e-05	1163.4	3.4188e-06	3.4651e-06	1256.6	249.62	1.2804e-06	6.9455e-07	318.43	84.525	67.001	19.536	4.6197e-06	26.938	0.00020576	0.0001977	5.7012e-05	1132.2	2.2296e-06	2.2019e-06	1221.5	245.62	2.2319e-06	2.1823e-06	299.55	84.228	66.15	19.51	2.2342e-06	27.15	52.868	-16.510	228.944	-90.930	74.540	76.336	-90.799	-83.621	-24.601	208.536	-84.087	-77.187	-76.672	-69.739	24.048	-69.966	-8191	255	
612.255	1	1	0	0	0.088482	0.30409	0.092577	0.087	0.047785	0.17535	0.51019	0.072032	0.28167	0.080927	0.02841	0.13611	0.095584	0.15982	0.066895	0.24081	-2.6271	-2.4479	-3.4042	-2.5271	-2.6562	-3.1792	-2.3854	-3.0229	-2.65	-2.0646	-3.4771	-2.6625	-2.6729	-3.3875	-2.1833	-3.0271	-43.520	86.152	109.209	249.140	141.414	-19.120	171.462	-78.306	-85.137	181.016	230.313	-0.553	-75.878	-94.527	133.256	-25.943	0.00042574	0.00029391	4.5814e-05	1163	3.7719e-06	1.984e-06	1254.3	249.89	3.245e-06	6.8791e-07	313.62	85.281	67.809	19.549	2.9334e-06	27.159	0.00020682	0.00020146	5.6461e-05	1131	2.2282e-06	2.1949e-06	1224.1	245.49	2.1958e-06	2.1667e-06	297.9	84.381	66.365	19.525	2.179e-06	27.118	55.468	26.345	166.683	-90.829	224.186	113.252	-90.877	-83.541	-43.534	159.011	-83.746	-77.233	-77.016	-70.055	97.305	-69.857	-8191	255	
612.376	1	1	0	0	0.14893	0.28165	0.022243	0.16372	0.18161	0.03504	0.1943	0.24671	0.26942	0.16685	0.18858	0.22434	0.19065	0.1469	0.36987	0.18597	-2.6646	-2.0958	-3.1312	-2.7271	-2.4375	-3.4437	-2.4354	-2.9521	-3.0125	-2.2021	-3.2896	-2.8271	-2.4896	-3.3229	-2.1708	-2.825	49.781	220.623	76.871	188.217	122.424	-0.218	236.554	177.784	166.281	233.437	153.862	-99.007	90.684	230.705	140.576	129.101	0.00029079	0.00058005	4.6472e-05	1166.2	3.969e-06	4.0548e-06	1252	250.97	2.1174e-06	1.4635e-06	317.1	85.037	67.434	19.572	1.4318e-06	26.908	0.00020422	0.00019697	5.4629e-05	1131.9	2.184e-06	2.1304e-06	1220.8	245.54	2.1294e-06	2.0785e-06	297.46	84.06	65.952	19.449	2.0543e-06	26.962	45.558	-16.317	-2.432	-90.918	-33.771	30.400	-90.660	-83.516	170.658	62.742	-83.619	-77.321	-76.904	-69.614	235.642	-70.032	-8191	255	
612.472	1	1	0	0	0.17198	0.35224	0.23209	0.14177	0.18082	0.2734	0.38499	0.18344	0.15427	0.12248	0.10066	0.25032	0.22411	0.13482	0.19648	0.21387	-2.8792	-2.0708	-3.1229	-2.7104	-2.1958	-3.2521	-2.6146	-2.8563	-3.0563	-2.05	-3.0083	-2.9125	-2.225	-3.4125	-2.2646	-2.6521	-76.134	56.783	19.115	-81.420	18.387	-32.175	213.634	-74.777	33.475	69.145	53.489	200.350	242.266	200.326	225.162	-18.141	0.0002237	0.00038826	4.1797e-05	1159.8	2.3117e-06	3.2038e-06	1248.3	248.78	5.6189e-06	4.357e-06	318.43	84.969	67.837	19.479	1.6759e-06	27.018	0.00018708	0.00018928	5.0777e-05	1130	2.077e-06	2.0319e-06	1220	244.77	2.0914e-06	2.1122e-06	297.36	83.921	66.342	19.553	2.1651e-06	27.09	48.282	74.434	17.691	-91.041	-10.131	9.726	-90.853	-83.557	202.375	107.583	-84.140	-77.178	-76.738	-69.765	-66.088	-70.663	-8191	255	
612.566	1	1	0	0	0.048981	0.1778	0.10974	0.15884	0.22169	0.26209	0.27386	0.18871	0.074297	0.31431	0.2618	0.2527	0.26879	0.23382	0.20454	0.12633	-2.7979	-2.0896	-2.9688	-2.9813	-1.9667	-3.2354	-2.5438	-2.6396	-3.2208	-2.1208	-3.0125	-3.2167	-2.1229	-3.2875	-2.5896	-2.4604	-80.477	-79.966	-41.429	223.437	194.945	43.858	27.631	230.122	218.222	15.478	39.002	212.790	-96.373	225.415	58.100	123.959	0.00035796	0.00047123	0.00010409	1162	4.8988e-06	6.0736e-07	1253.3	248.67	4.2898e-06	2.9591e-06	317.34	84.791	67.257	19.534	2.4658e-07	26.876	0.00019751	0.00019864	5.4894e-05	1130.3	2.1585e-06	2.1463e-06	1221.4	244.89	2.169e-06	2.1428e-06	298.71	84.125	66.173	19.504	2.1537e-06	26.968	57.913	4.145	-14.656	-90.906	53.189	144.259	-90.983	-83.653	-76.423	28.085	-83.742	-77.112	-77.209	-69.344	-75.428	-69.713	-8191	255	
612.662	1	1	0	0	0.23778	0.1307	0.12802	0.12679	0.25463	0.11138	0.13147	0.11303	0.14625	0.21272	0.094299	0.065582	0.10218	0.13761	0.16428	0.063382	-2.9479	-2.1125	-2.9833	-3.2875	-2.1542	-3.3667	-2.8438	-2.3854	-3.2812	-2.3146	-2.8396	-3.0979	-2.1	-3.3312	-2.6292	-2.3708	240.295	121.723	151.911	111.311	181.952	123.913	218.379	150.286	103.859	-32.803	-22.801	-39.673	174.334	-43.460	-32.461	191.070	0.0002423	0.00018805	0.00010519	1166.9	3.1217e-06	2.1107e-06	1248.1	248.62	3.3455e-06	3.0218e-06	317.77	84.784	67.88	19.546	2.4848e-06	27.12	0.00020422	0.00019862	5.6128e-05	1132.2	2.2332e-06	2.2074e-06	1219.7	244.9	2.2238e-06	2.2171e-06	299.53	84.319	66.546	19.604	2.2147e-06	27.167	64.770	-71.031	-24.122	-90.869	5.829	-58.446	-90.742	-83.618	221.664	15.215	-84.030	-77.206	-76.934	-69.407	94.044	-70.063	-8191	255	
612.783	1	1	0	0	0.21624	0.090492	0.12192	0.1306	0.10525	0.15128	0.22544	0.27515	0.020578	0.12293	0.24677	0.061672	0.073561	0.24553	0.15654	0.18462	-3.125	-2.2958	-2.6813	-3.2062	-2.1271	-3.1729	-3.2062	-2.3688	-3.2729	-2.375	-2.7542	-3.4771	-1.9875	-3.0417	-3.0458	-2.3417	243.989	7.651	100.247	232.912	237.027	194.567	202.773	-87.197	191.548	49.421	234.188	-37.455	204.420	-27.557	46.051	-12.634	0.0003673	0.00021288	6.3447e-05	1162.6	4.2096e-06	2.2287e-06	1252.5	249.71	2.9746e-06	1.4927e-06	316.08	84.928	68.322	19.476	8.2203e-07	26.987	0.00020656	0.00020832	5.8174e-05	1132.3	2.308e-06	2.2894e-06	1221.4	245.51	2.3092e-06	2.2777e-06	298.74	84.263	66.627	19.602	2.2565e-06	27.175	40.515	29.310	-40.669	-90.776	147.439	57.394	-90.850	-83.611	185.055	85.390	-84.071	-77.333	-77.031	-69.889	151.734	-70.138	-8191	255	
612.855	1	1	0	0	0.21416	0.36286	0.11526	0.085831	0.21112	0.093524	0.17264	0.28	0.19018	0.12185	0.071058	0.13124	0.26008	0.15189	0.2259	0.052808	-3.0958	-2.5729	-2.3771	-3.675	-2.1104	-2.9167	-3.2542	-2.3792	-3.4458	-2.4917	-2.3438	-3.2542	-2.1396	-2.9604	-3.1813	-2.3083	219.278	-50.170	-99.981	190.964	180.510	159.803	-85.389	234.228	110.205	-50.904	-44.672	205.462	-81.374	201.807	179.129	-75.956	0.00032155	3.0822e-05	9.5506e-05	1167.1	1.0274e-06	4.7654e-06	1249.5	250.06	1.6098e-06	2.0217e-06	317.22	85.451	68.093	19.653	2.1834e-06	27.02	0.00021186	0.00020935	5.8496e-05	1133.8	2.3064e-06	2.2696e-06	1222.4	246.12	2.3057e-06	2.2669e-06	299.76	84.629	66.753	19.686	2.3113e-06	27.167	56.722	63.421	1.507	-90.709	-26.650	7.629	-90.824	-83.769	125.074	85.072	-83.766	-77.324	-77.467	-69.419	-20.643	-69.745	-8191	255	
612.975	1	1	0	0	0.09786	0.02064	0.26101	0.064818	0.26541	0.12514	0.31332	0.24726	0.093879	0.15867	0.43494	0.15774	0.069057	0.064574	0.15155	0.067995	-3.0438	-2.6833	-2.2354	-3.4833	-2.3021	-2.6979	-3.2062	-2.3688	-3.0729	-2.6792	-2.2771	-3.5771	-2.325	-2.7792	-3.0875	-2.15	168.859	53.311	-86.975	147.500	31.655	212.542	221.170	-97.360	-88.430	71.426	-51.605	225.351	240.963	116.960	79.679	204.192	0.00022491	0.00025889	0.00013229	1169.7	1.812e-06	2.001e-07	1255.4	251.69	3.8704e-06	2.998e-06	317.65	85.587	67.687	19.647	4.5534e-06	27.273	0.00021875	0.00021223	5.9091e-05	1135.2	2.4185e-06	2.3572e-06	1227.1	246.84	2.4302e-06	2.3382e-06	301.25	84.787	67.118	19.742	2.4253e-06	27.315	69.156	-11.297	-1.783	-90.916	8.706	39.847	-90.748	-83.707	-63.165	-13.512	-84.061	-77.120	-77.279	-69.430	53.971	-70.166	-8191	255	
613.071	1	1	0	0	0.3753	0.10153	0.19941	0.14728	0.25003	0.03564	0.22026	0.13986	0.098528	0.22688	0.060807	0.11398	0.058175	0.12752	0.16455	0.18077	-2.8271	-2.8729	-2.3187	-3.3937	-2.4396	-2.5021	-3.4125	-2.1479	-2.95	-2.875	-2.3167	-3.4292	-2.4021	-2.4813	-3.2417	-2.2958	-16.008	130.458	4.780	213.147	237.258	118.311	196.930	160.660	242.047	40.513	-18.120	33.058	40.855	83.176	174.344	214.737	0.0002632	0.00013158	0.00015798	1167.8	1.7333e-06	5.3505e-06	1258.5	249.76	6.2731e-06	4.799e-06	315.85	86.097	68.435	19.683	5.1895e-06	27.059	0.00022657	0.00022111	6.1992e-05	1136.2	2.4824e-06	2.4189e-06	1227.7	246.53	2.4766e-06	2.4279e-06	300.87	85.065	67.171	19.796	2.4692e-06	27.391	73.746	-93.908	-51.660	-90.966	255.307	8.560	-90.678	-83.381	196.703	-17.142	-83.717	-77.284	-77.062	-69.772	129.566	-69.828	-8191	255	
613.168	1	1	0	0	0.14054	0.15603	0.042337	0.27565	0.15406	0.1132	0.096758	0.18287	0.25976	0.041918	0.24224	0.040961	0.2844	0.30835	0.14454	0.13787	-2.7562	-3.0312	-2.1896	-3.5187	-2.4958	-2.5208	-3.5438	-2.3396	-2.6562	-3.2583	-2.1667	-3.3229	-2.6604	-2.3083	-3.375	-2.4646	-0.147	52.608	103.575	216.164	-19.335	58.911	154.926	251.606	240.168	13.188	254.719	76.703	175.244	-80.258	227.978	114.899	0.00027917	0.00013108	4.5282e-05	1168.3	1.6254e-06	3.3185e-06	1261.4	250.77	3.8885e-06	3.1743e-06	316.92	86.03	68.56	19.73	5.4302e-06	27.229	0.00023456	0.00022856	6.4221e-05	1137.6	2.528e-06	2.5137e-06	1229.3	246.92	2.589e-06	2.4712e-06	302.1	85.481	67.325	19.86	2.5413e-06	27.447	57.777	24.379	50.541	-90.692	2.800	61.813	-90.511	-83.435	38.582	29.368	-83.670	-77.429	-77.245	-69.370	35.630	-70.122	-8191	255	
613.264	1	1	0	0	0.31523	0.054947	0.24404	0.080916	0.0033299	0.12002	0.17101	0.050024	0.11234	0.21253	0.24784	0.10911	0.092648	0.25617	0.21674	0.14617	-2.6771	-3.1167	-2.2208	-3.3042	-2.8688	-2.3563	-3.375	-2.3021	-2.7125	-3.2854	-2.1708	-3.0896	-2.9229	-2.1958	-3.3521	-2.55	2.589	100.390	52.444	35.669	150.784	213.521	167.625	119.259	176.514	-17.520	239.524	79.690	-45.233	65.636	31.618	155.376	0.00026459	0.00040041	3.2665e-05	1172.2	4.7166e-06	2.0083e-06	1261.7	250.2	4.0226e-06	1.3168e-06	317.65	85.426	68.625	19.709	2.1786e-06	27.314	0.00024073	0.00023385	6.555e-05	1141.5	2.5701e-06	2.5276e-06	1230.2	247.2	2.5801e-06	2.5341e-06	302.47	85.125	67.423	19.824	2.5497e-06	27.395	51.568	28.401	206.617	-90.855	27.276	-76.962	-90.760	-83.735	193.665	25.960	-84.189	-77.044	-77.595	-69.698	61.173	-69.993	-8191	255	
613.360	1	1	0	0	0.046052	0.09394	0.20263	0.18578	0.22466	0.33106	0.050456	0.12783	0.14353	0.14394	0.10364	0.062521	0.024381	0.23645	0.18946	0.20968	-2.4813	-3.3104	-2.1562	-3.25	-2.8979	-2.1521	-3.475	-2.8229	-2.4771	-3.1063	-2.1292	-3.0375	-3.0479	-2.3875	-3.2146	-2.5938	195.924	164.554	103.740	185.661	148.407	-0.484	125.444	195.905	-26.783	199.119	-5.411	-27.424	60.012	137.171	191.222	-87.820	0.00018167	0.00019119	0.00017327	1171.8	2.1161e-06	1.7833e-06	1260.1	251.27	2.3604e-06	3.1771e-06	316.4	84.908	67.957	19.59	6.4762e-06	27.177	0.00023743	0.00023297	6.5799e-05	1141	2.5982e-06	2.5938e-06	1230.9	247.73	2.5893e-06	2.5601e-06	301.91	84.994	67.334	19.826	2.5483e-06	27.367	15.560	236.576	-33.069	-90.458	7.915	-74.081	-90.621	-83.376	-57.286	-47.638	-84.137	-77.212	-77.091	-69.356	71.010	-69.836	-8191	255	
613.479	1	1	0	0	0.15608	0.15828	0.04244	0.34906	0.10341	0.10053	0.15376	0.15474	0.099686	0.13444	0.10217	0.17552	0.081839	0.15455	0.16754	0.032074	-2.1021	-3.5187	-2.1729	-2.6854	-2.9708	-1.9417	-3.3125	-2.7583	-2.4813	-3.4146	-2.4396	-2.7229	-3.1979	-2.1833	-2.9479	-3.0083	61.014	-12.798	257.897	215.500	196.919	-9.553	212.886	195.849	45.548	-10.112	203.013	-17.645	-7.844	204.724	190.021	84.121	0.00035458	0.00032899	0.00012172	1169.3	4.002e-06	1.3024e-06	1258.6	251.46	2.0739e-06	2.2205e-06	316.42	85.86	67.632	19.601	8.1054e-07	27.214	0.0002302	0.00022774	6.4701e-05	1140.5	2.5225e-06	2.5297e-06	1228.1	247.17	2.53e-06	2.4978e-06	302.12	85.177	67.028	19.765	2.4999e-06	27.285	63.100	-46.036	59.703	-90.899	162.877	177.441	-90.718	-83.366	59.765	77.336	-84.041	-77.153	-76.897	-69.709	-21.249	-70.433	-8191	255	
613.550	1	1	0	0	0.22916	0.13654	0.09694	0.26064	0.1301	0.12364	0.073591	0.24532	0.091131	0.081518	0.19427	0.054003	0.25278	0.073974	0.099254	0.14453	-2.0104	-3.3229	-2.3042	-3.0438	-3.1583	-2.2146	-3.2938	-3.0708	-2.2146	-3.2333	-2.3854	-2.6167	-3.3604	-2.3812	-2.9813	-3.0521	128.696	176.206	184.598	166.034	-60.848	239.599	138.775	229.602	221.827	49.354	244.221	174.297	8.560	125.740	83.436	225.469	0.00028637	0.00038049	2.215e-05	1172	3.8224e-06	4.5964e-06	1256.3	251.43	5.8158e-06	3.6043e-06	318.86	85.42	68.028	19.562	5.0328e-06	27.219	0.00022895	0.00022656	6.3707e-05	1138.3	2.4696e-06	2.4747e-06	1226.8	246.77	2.4952e-06	2.4489e-06	302.01	84.752	66.949	19.633	2.4462e-06	27.267	63.536	161.757	-82.088	-90.636	224.511	73.610	-90.728	-83.878	-61.567	47.048	-83.767	-77.306	-77.176	-69.578	-9.828	-69.990	-8191	255	
613.647	1	1	0	0	0.13796	0.12228	0.20348	0.060504	0.050164	0.10824	0.13668	0.26657	0.059902	0.10966	0.13826	0.23327	0.23466	0.25788	0.17819	0.10271	-1.9292	-3.2979	-2.4896	-2.8583	-3.2792	-2.0979	-3.2542	-3.2188	-2.0979	-3.2	-2.6	-2.4583	-3.3208	-2.3479	-2.8167	-3.1271	159.824	243.306	165.995	251.069	-77.124	168.318	122.097	144.138	41.179	151.125	184.748	-54.986	-6.312	11.494	205.705	85.741	0.00024917	0.00028545	9.3155e-05	1172	2.1118e-06	2.2488e-06	1259.5	250.96	4.757e-06	4.2516e-06	316.84	85.704	68.016	19.475	3.9434e-06	27.021	0.00022782	0.00022241	6.2176e-05	1137.9	2.4319e-06	2.435e-06	1226.5	246.51	2.5081e-06	2.4356e-06	300.79	84.801	66.988	19.708	2.4927e-06	27.232	71.442	82.286	-24.734	-90.962	230.178	90.424	-90.511	-83.526	-59.946	36.549	-83.891	-77.294	-76.391	-70.041	35.549	-70.184	-8191	255	
613.744	1	1	0	0	0.1937	0.12102	0.11916	0.11	0.1873	0.19704	0.23329	0.13943	0.12442	0.21563	0.0539	0.17443	0.1794	0.29121	0.25797	0.15143	-1.9583	-3.2625	-2.55	-2.5271	-3.3708	-2.2542	-2.8812	-3.2417	-2.0854	-3.2979	-2.8229	-2.3292	-3.4625	-2.4813	-2.6479	-3.3292	221.754	-59.034	202.091	-68.960	101.040	99.125	168.202	154.644	178.656	155.632	105.845	204.614	-33.852	195.280	88.854	27.327	0.00036467	0.00071456	9.4826e-05	1164.4	6.5479e-06	9.0607e-07	1253.5	250.51	1.1422e-06	1.8669e-06	317.4	85.297	68.172	19.544	4.2943e-06	27.06	0.00022816	0.00022225	6.3989e-05	1135.2	2.4534e-06	2.4827e-06	1224.7	246.81	2.4925e-06	2.4899e-06	301	84.713	67.155	19.662	2.5167e-06	27.219	65.748	-18.277	4.873	-90.713	-15.869	215.582	-90.693	-83.535	169.635	24.129	-83.648	-77.215	-76.869	-69.224	207.828	-69.899	-8191	255	
613.863	1	1	0	0	0.16481	0.024995	0.24364	0.07224	0.18058	0.15156	0.15883	0.13282	0.37187	0.20439	0.16373	0.25327	0.11667	0.31204	0.22723	0.20792	-1.9417	-3.025	-2.9167	-2.3937	-3.0792	-2.1771	-2.65	-3.3354	-2.2438	-2.9521	-3.0229	-2.3125	-3.375	-2.6792	-2.4271	-3.4792	8.856	235.921	2.504	244.156	64.966	0.709	221.724	149.285	88.471	-100.481	172.399	212.683	4.980	64.874	239.454	171.009	0.00032581	0.00034165	0.00010332	1171.5	1.24e-06	7.1286e-06	1253.9	251.3	1.8382e-06	5.1371e-06	315.69	85.416	68.43	19.654	2.2343e-06	27.106	0.00022978	0.00022633	6.3248e-05	1138.1	2.5011e-06	2.4988e-06	1226.5	247.05	2.5171e-06	2.488e-06	300.56	84.854	67.224	19.675	2.4342e-06	27.259	67.011	44.103	18.137	-90.718	16.364	57.505	-90.579	-83.391	202.841	109.036	-83.446	-77.231	-76.859	-70.084	62.866	-70.352	-8191	255	
613.959	1	1	0	0	0.23656	0.40758	0.16712	0.15771	0.17695	0.16446	0.20023	0.15911	0.065342	0.046283	0.090228	0.25692	0.17685	0.12802	0.28455	0.10347	-2.0542	-2.9854	-3.0896	-2.2979	-3.4313	-2.4375	-2.4333	-3.4208	-2.4562	-3.1417	-3.2313	-2.2188	-3.3104	-2.75	-2.3771	-3.45	39.888	42.285	113.792	211.143	-73.117	36.603	182.163	53.324	247.948	-52.010	41.598	213.212	118.281	246.677	-10.799	196.411	0.00039875	0.00023186	7.9052e-05	1164.3	6.4355e-06	5.6264e-07	1253.6	251.5	1.5917e-06	4.0746e-06	317.38	85.521	68.328	19.573	3.5181e-06	27.099	0.00022929	0.00022421	6.2611e-05	1134.5	2.4729e-06	2.4969e-06	1225.2	247.04	2.4877e-06	2.4756e-06	301.85	84.864	67.007	19.655	2.4542e-06	27.305	67.270	190.832	93.262	-90.538	-29.249	234.696	-90.535	-83.473	189.322	79.290	-83.652	-77.129	-77.838	-69.500	-6.982	-70.147	-8191	255	
614.056	1	1	0	0	0.12454	0.085768	0.16631	0.43007	0.093308	0.085963	0.43673	0.087798	0.049786	0.15292	0.032503	0.21015	0.23617	0.21698	0.080332	0.17644	-1.8917	-2.6896	-3.2458	-2.15	-3.2917	-2.7292	-2.5146	-3.4125	-2.5521	-2.6792	-3.3208	-2.1896	-3.1604	-3.1396	-2.3854	-3.4917	194.912	26.917	-61.192	210.597	104.689	197.602	225.162	161.203	100.542	66.166	63.181	-94.552	236.174	-101.452	4.256	120.366	0.00029913	0.00042442	0.00012395	1163.4	4.0584e-06	3.9312e-06	1255.8	250.14	1.047e-06	5.6396e-07	315.42	85.361	67.494	19.632	5.2887e-06	27.13	0.0002287	0.00022034	6.0892e-05	1134.6	2.4113e-06	2.3757e-06	1224.6	246.45	2.4259e-06	2.3562e-06	299.61	84.661	66.84	19.64	2.3868e-06	27.143	77.831	-98.004	96.961	-90.622	-58.513	31.595	-90.554	-83.562	56.139	174.527	-84.041	-77.174	-77.199	-69.320	46.263	-70.068	-8191	255	
614.152	1	1	0	0	0.083738	0.18169	0.26526	0.26908	0.084294	0.12039	0.017737	0.15251	0.1393	0.40991	0.089412	0.26511	0.098242	0.28	0.24359	0.12549	-2.4562	-2.675	-3.2687	-2.4375	-3.1104	-3.0563	-2.4417	-3.3688	-2.5687	-2.5771	-3.3458	-2.2479	-2.8708	-3.1792	-2.2667	-3.425	-59.748	-43.777	53.986	138.186	-94.959	-95.165	166.986	135.637	222.050	252.682	-52.774	249.241	14.128	177.460	223.373	197.428	0.00036694	0.00036034	9.786e-05	1165.8	2.0696e-06	2.3125e-06	1249.5	250.54	2.6113e-06	1.9013e-06	316.1	84.909	67.621	19.315	4.1837e-06	27.087	0.0002187	0.00021662	6.0427e-05	1134	2.3285e-06	2.3481e-06	1222.6	245.34	2.3476e-06	2.3222e-06	299.38	84.356	66.537	19.492	2.3325e-06	27.104	76.509	52.170	10.965	-90.698	59.492	129.422	-90.658	-83.370	-12.189	-38.422	-83.409	-76.858	-76.885	-69.556	-8.231	-70.019	-8191	255	
614.248	1	1	0	0	0.18255	0.15492	0.074097	0.039185	0.18849	0.22223	0.35288	0.20678	0.04811	0.1124	0.085073	0.13255	0.063662	0.27406	0.20256	0.049959	-2.3875	-2.4188	-3.2771	-2.4479	-2.9188	-3.1354	-2.5438	-3.4188	-2.6917	-2.2625	-3.4229	-2.3875	-2.7104	-3.2396	-2.0687	-3.4083	12.428	100.958	44.313	-36.025	-91.229	63.266	240.343	184.164	172.044	2.133	-2.483	147.139	192.464	139.326	150.500	-94.187	0.00023475	0.00052065	5.9662e-05	1163.7	2.1387e-06	6.9647e-06	1251.1	249.18	8.3817e-06	3.8209e-06	314.47	84.467	67.637	19.506	6.5689e-06	27.051	0.00021269	0.00021	5.8154e-05	1132.2	2.3498e-06	2.2872e-06	1220.8	245.61	2.3596e-06	2.3208e-06	298.75	84.141	66.489	19.552	2.2964e-06	27.093	32.662	49.856	-20.274	-90.793	75.399	31.358	-90.621	-83.765	-20.996	-44.350	-83.556	-77.190	-76.949	-69.560	-1.069	-69.751	-8191	255	
614.344	1	1	0	0	0.16927	0.20261	0.092044	0.11987	0.090799	0.22561	0.11448	0.26373	0.09687	0.077005	0.084887	0.070924	0.09064	0.078303	0.085121	0.073814	-2.4104	-2.2125	-3.5167	-2.4896	-2.6771	-3.2292	-2.5062	-3.3104	-3.1646	-2.3812	-3.4292	-2.4417	-2.6458	-3.3875	-1.9646	-3.1	155.699	-57.489	26.835	253.381	-15.191	240.927	255.830	151.257	89.843	139.331	-12.995	42.697	116.647	157.816	129.785	207.581	0.00055425	0.00022484	0.00011311	1162.8	5.2262e-07	2.3134e-06	1246.5	250.03	1.4157e-06	7.7656e-07	315.55	85.049	67.219	19.472	4.4692e-06	26.868	0.000216	0.00021007	5.867e-05	1131.7	2.3122e-06	2.2701e-06	1220.2	245.67	2.3625e-06	2.3312e-06	298.72	84.311	66.438	19.52	2.2646e-06	27.055	73.222	213.626	-43.165	-90.845	-84.899	-6.171	-90.631	-83.540	-9.402	-39.380	-83.984	-77.105	-76.725	-69.479	-48.268	-70.020	-8191	255	
614.465	1	1	0	0	0.16528	0.15883	0.094319	0.11836	0.2057	0.082179	0.42072	0.47735	0.30817	0.25358	0.15957	0.24122	0.075047	0.073913	0.22132	0.25385	-2.6604	-2.0604	-3.3958	-2.5792	-2.4875	-3.3896	-2.2958	-3.0021	-3.1688	-2.2625	-3.4708	-2.5292	-2.525	-3.2854	-2.3792	-3.0042	-44.252	114.074	4.283	206.778	218.214	16.646	205.516	119.490	122.486	-85.797	-79.137	235.075	-6.138	-70.569	147.889	-49.478	0.00031116	0.00026535	8.4947e-05	1159.1	3.1045e-06	2.3475e-06	1249.1	249.81	1.07e-06	2.1609e-06	312.85	85.109	67.34	19.425	4.3048e-06	26.994	0.00021456	0.00020828	5.8749e-05	1128.8	2.3219e-06	2.2778e-06	1220.2	245.3	2.2832e-06	2.2964e-06	298.5	84.317	66.089	19.473	2.312e-06	27.051	78.454	-13.787	-88.104	-90.700	-16.579	27.123	-90.635	-83.448	-6.878	102.983	-83.898	-77.328	-77.259	-70.046	36.404	-69.744	-8191	255	
614.559	1	1	0	0	0.23185	0.11682	0.039171	0.23483	0.021671	0.20422	0.15942	0.24915	0.27137	0.18346	0.21383	0.16474	0.20764	0.2222	0.15755	0.21257	-2.8312	-2.2542	-3.1667	-2.8396	-2.3125	-3.5021	-2.4625	-2.9167	-3.3146	-2.1458	-3.35	-2.9	-2.15	-3.5354	-2.4167	-2.8021	105.115	177.755	-62.241	-47.808	-75.115	194.791	182.652	-75.966	179.240	-47.989	143.262	173.080	-14.556	-69.995	-12.043	248.323	0.00040993	0.00049202	7.0633e-05	1162.6	3.1299e-06	2.3998e-06	1249.7	249.18	8.0448e-06	5.193e-06	315.27	84.978	68.21	19.484	5.7399e-06	26.817	0.00021448	0.00021314	5.9395e-05	1129.4	2.2909e-06	2.2986e-06	1219.7	245.03	2.3154e-06	2.3133e-06	299.01	84.208	66.683	19.551	2.3166e-06	27.061	64.417	-71.366	216.820	-90.543	110.324	1.393	-90.626	-83.272	256.956	53.991	-84.032	-76.832	-77.034	-69.436	41.142	-70.077	-8191	255	
614.655	1	1	0	0	0.018231	0.2763	0.10717	0.13771	0.16095	0.16403	0.24718	0.16621	0.083677	0.13295	0.17779	0.3324	0.1223	0.16129	0.058926	0.046205	-2.9021	-2.2479	-3.1417	-3.1688	-2.1479	-3.3771	-2.5542	-2.7917	-3.1437	-2.3646	-2.9896	-3.0312	-2.2479	-3.5062	-2.5083	-2.6708	120.173	91.741	-67.104	7.063	-22.565	-90.868	157.399	187.700	-52.360	43.269	18.413	233.541	-15.124	212.147	67.668	142.673	0.00026953	0.00023582	7.4267e-05	1163.9	3.8256e-06	2.434e-07	1250	249.38	4.2775e-06	5.0548e-06	317.3	85.154	67.531	19.482	3.4324e-06	27.182	0.00021593	0.00021671	5.7915e-05	1130.9	2.3466e-06	2.2767e-06	1220.5	245.22	2.3043e-06	2.3659e-06	299.88	84.178	66.431	19.535	2.3478e-06	27.1	67.744	-32.072	-57.091	-90.604	-52.891	129.501	-90.931	-83.350	-1.026	69.629	-83.358	-76.920	-77.248	-69.453	95.090	-70.180	-8191	255	
614.776	1	1	0	0	0.27258	0.19628	0.24282	0.10929	0.050473	0.067969	0.090253	0.19838	0.18674	0.088266	0.14331	0.049438	0.23339	0.17408	0.18849	0.33139	-3.1688	-2.275	-2.675	-3.15	-2.4458	-3.3	-2.7146	-2.4667	-3.2208	-2.0687	-2.8063	-3.3688	-2.2438	-3.0792	-2.6583	-2.2979	137.887	251.856	124.926	13.490	10.176	-37.633	55.540	258.535	7.003	179.440	221.163	-55.143	128.361	-53.565	153.839	152.009	0.00033485	0.00066616	3.6088e-05	1160.2	2.0204e-06	2.4306e-06	1251.3	249.63	1.9262e-06	2.2838e-06	314.33	84.828	67.433	19.465	2.146e-06	27.151	0.00021496	0.00021457	5.8846e-05	1130.4	2.3539e-06	2.3453e-06	1220.1	245.19	2.3351e-06	2.3464e-06	297.89	84.155	66.387	19.567	2.3204e-06	27.06	77.502	-4.809	44.316	-90.632	250.603	77.088	-90.761	-83.329	139.063	70.410	-83.668	-76.826	-76.644	-69.510	-5.065	-70.108	-8191	255	
614.848	1	1	0	0	0.15698	0.013024	0.20446	0.26136	0.065945	0.067451	0.34227	0.11976	0.15719	0.2217	0.14975	0.14783	0.059831	0.12394	0.17068	0.036239	-3.2042	-2.5333	-2.5271	-3.2833	-2.0875	-3.0979	-2.9396	-2.3521	-3.2229	-2.4125	-2.5771	-3.3042	-2.2812	-3.0646	-2.8354	-2.3521	-13.307	-1.183	187.719	208.578	134.304	137.122	164.185	177.595	-76.521	121.843	57.175	141.842	-50.129	-71.818	138.782	236.301	0.00025874	0.00031085	0.00017284	1162.1	4.2409e-06	5.9074e-06	1252.5	249.43	6.2663e-06	4.9109e-06	317.23	85.352	67.945	19.384	3.6965e-06	26.885	0.00021624	0.00021426	6.0116e-05	1130.7	2.3562e-06	2.3312e-06	1222.3	245.1	2.3853e-06	2.3486e-06	299.45	84.236	66.498	19.528	2.3973e-06	27.032	65.085	52.429	5.429	-90.738	58.720	0.175	-90.679	-83.263	-34.587	117.733	-83.806	-77.230	-76.710	-69.304	78.143	-70.170	-8191	255	
614.944	1	1	0	0	0.2031	0.1455	0.29821	0.30285	0.32221	0.10118	0.096716	0.17792	0.16947	0.24952	0.26997	0.27028	0.2597	0.25488	0.10029	0.20465	-3.0667	-2.375	-2.5312	-3.4167	-2.2208	-3.0563	-3.4562	-2.3063	-3.3187	-2.6417	-2.575	-3.5542	-2.25	-2.9833	-3.1521	-2.3312	-53.017	106.852	-24.844	140.756	-17.792	-75.108	-89.703	241.934	-4.714	168.077	-80.381	239.130	111.113	-51.386	86.154	-94.868	0.00024333	0.00032879	4.6572e-05	1158.8	1.6418e-06	1.9481e-06	1251.4	249.14	2.0285e-06	3.8255e-06	317.39	85.498	67.914	19.508	4.3725e-06	27.062	0.00022046	0.00022208	6.0986e-05	1129.5	2.471e-06	2.3942e-06	1220.5	245.34	2.4101e-06	2.4477e-06	299.93	84.361	66.668	19.593	2.4022e-06	27.119	77.527	31.514	-72.527	-90.691	-65.818	41.818	-90.698	-83.251	-69.865	44.211	-83.217	-77.088	-77.082	-69.147	51.447	-70.294	-8191	255	
615.040	1	1	0	0	0.31876	0.088444	0.32561	0.063436	0.16416	0.24335	0.095372	0.18797	0.15387	0.15713	0.14077	0.18697	0.27141	0.12482	0.3327	0.14163	-3.1125	-2.7167	-2.3937	-3.4271	-2.1854	-2.9729	-3.3979	-2.4417	-3.2896	-2.9875	-2.4354	-3.3521	-2.3438	-2.7917	-3.2125	-2.2354	-43.260	-3.425	212.607	177.925	-1.768	-67.366	147.750	141.085	-76.688	194.926	91.771	65.667	2.911	11.826	-70.153	-57.470	0.00036343	0.00039005	8.8166e-05	1168	3.8386e-06	3.6415e-06	1254.6	248.85	2.4563e-06	4.3803e-06	314.63	85.04	67.698	19.31	2.7759e-06	26.864	0.00022296	0.0002195	6.0644e-05	1132.7	2.4585e-06	2.3913e-06	1221	245.24	2.4186e-06	2.3969e-06	299.52	84.349	66.401	19.494	2.3417e-06	26.997	83.464	-10.990	36.956	-90.378	58.455	-19.982	-90.556	-83.535	-86.353	0.719	-83.915	-77.356	-77.344	-69.047	95.229	-69.673	-8191	255	
615.160	1	1	0	0	0.18955	0.25929	0.11748	0.052531	0.089249	0.14731	0.14617	0.15183	0.097036	0.04135	0.13487	0.30838	0.22791	0.21334	0.31275	0.050412	-2.9208	-2.7542	-2.4771	-3.525	-2.3438	-2.725	-3.5229	-2.225	-3.1271	-3.0042	-2.2812	-3.3104	-2.4938	-2.5958	-3.2125	-2.2625	49.454	215.005	147.799	189.850	131.791	-38.666	169.366	182.528	196.312	168.723	-85.774	221.006	206.297	45.137	-69.250	15.593	0.00018981	0.00041173	6.2768e-05	1160.4	3.3889e-06	3.3849e-06	1248.6	250.83	5.8241e-06	1.4507e-06	314.89	84.963	67.733	19.419	6.0801e-06	26.728	0.00022236	0.0002209	6.0778e-05	1130.5	2.4252e-06	2.3564e-06	1220.1	245.73	2.4092e-06	2.3572e-06	298.99	84.091	66.357	19.499	2.3753e-06	27.061	76.298	-53.308	-20.249	-90.577	18.680	134.696	-90.651	-83.361	30.799	147.945	-83.676	-77.119	-76.858	-69.269	51.045	-69.721	-8191	255	
615.255	1	1	0	0	0.089261	0.15125	0.1	0.34608	0.17809	0.10296	0.26182	0.050737	0.20429	0.2243	0.1266	0.1691	0.071034	0.2246	0.048993	0.16625	-2.7396	-3.0042	-2.0979	-3.4229	-2.7104	-2.4479	-3.4729	-2.3688	-3.0312	-3.0771	-2.0625	-3.3646	-2.7313	-2.425	-3.4542	-2.2708	27.367	69.595	132.354	223.186	175.141	-67.242	174.474	23.008	20.686	-56.193	-67.634	-34.208	55.753	-25.329	42.527	152.107	0.00021582	0.00027668	0.00013498	1162.1	1.4097e-06	3.9054e-06	1253.1	248.6	1.7364e-06	2.8924e-06	320.88	84.473	67.456	19.264	3.5793e-06	26.884	0.00022172	0.00021228	6.0636e-05	1129.5	2.3524e-06	2.3304e-06	1219.2	244.78	2.3382e-06	2.2992e-06	299.79	84.118	66.053	19.446	2.2851e-06	26.994	63.583	127.282	-9.545	-90.694	52.927	54.599	-90.667	-83.508	156.668	19.255	-83.036	-77.234	-76.517	-69.491	115.145	-69.565	-8191	255	
615.353	1	1	0	0	0.087828	0.28505	0.13198	0.14149	0.18937	0.12308	0.1712	0.17776	0.079042	0.15425	0.021824	0.13223	0.13903	0.20246	0.071197	0.074697	-2.6125	-3.1562	-1.9646	-3.3646	-2.8417	-2.2146	-3.5438	-2.4437	-2.7354	-3.2687	-2.2667	-3.2562	-2.9521	-2.3667	-3.2396	-2.5187	-0.874	-46.941	97.587	244.107	119.528	-40.346	243.883	246.077	-78.098	-20.242	194.488	229.061	15.476	110.138	-70.595	-60.479	0.00028895	0.00037168	6.7806e-05	1160.7	1.8241e-06	4.5585e-06	1247.3	248.22	6.3983e-06	3.5238e-06	313.36	84.665	67.913	19.396	1.7868e-06	26.801	0.00021424	0.00020783	5.819e-05	1128.8	2.2961e-06	2.2341e-06	1219	243.89	2.288e-06	2.2258e-06	297.74	83.938	66.132	19.431	2.1989e-06	26.982	65.154	94.642	-37.148	-90.694	16.332	8.190	-90.298	-83.435	-52.319	87.241	-83.736	-76.838	-76.463	-69.553	129.025	-69.975	-8191	255	
615.424	1	1	0	0	0.15783	0.082388	0.11726	0.21666	0.096286	0.11892	0.13799	0.21461	0.23267	0.17751	0.10499	0.072187	0.096024	0.33447	0.12903	0.031851	-2.2979	-3.2417	-2.3688	-3.175	-2.9875	-2.3583	-3.4896	-2.6167	-2.6854	-3.5292	-2.4208	-3.125	-3.0417	-2.3042	-3.1583	-2.6333	-73.737	255.978	-55.020	157.239	47.365	138.757	127.636	200.210	151.256	-51.499	162.470	-19.434	32.050	-86.409	22.705	-16.461	0.00031865	0.00023332	3.9253e-05	1157.1	3.3464e-06	7.0331e-07	1246.6	247.92	3.8429e-06	2.6776e-06	313.65	84.277	66.697	19.309	2.719e-06	26.894	0.00020674	0.00020437	5.6764e-05	1128.2	2.2316e-06	2.2037e-06	1216	243.9	2.2624e-06	2.1875e-06	296.39	83.805	65.808	19.428	2.2359e-06	26.895	34.017	11.799	-30.393	-90.862	-5.391	-101.490	-90.797	-83.712	-97.713	76.543	-83.896	-77.327	-77.218	-69.710	60.140	-70.319	-8191	255	
615.543	1	1	0	0	0.22488	0.097978	0.1203	0.31251	0.21366	0.12135	0.12019	0.064949	0.22765	0.14214	0.17816	0.044028	0.13917	0.25069	0.28221	0.19604	-2.2771	-3.3396	-2.1479	-3.1333	-3.2229	-2.1479	-3.4792	-2.8771	-2.3833	-3.2354	-2.3583	-2.9458	-3.2021	-2.2438	-3.3083	-2.7896	-58.408	257.080	113.495	249.081	-34.031	249.115	162.039	89.435	105.995	129.405	237.266	-53.649	211.435	213.983	254.476	99.288	0.00035606	7.2672e-05	6.5938e-05	1165.5	2.2254e-06	2.0272e-07	1249.1	248.73	7.5388e-06	4.8211e-06	311.22	84.717	67.626	19.354	2.5687e-06	26.901	0.00020453	0.00020394	5.673e-05	1130.4	2.2345e-06	2.2482e-06	1217.5	243.9	2.2528e-06	2.2137e-06	297.33	83.974	66.201	19.418	2.2495e-06	26.958	43.597	2.423	-30.304	-90.897	57.761	2.255	-90.871	-83.846	-91.530	26.284	-84.563	-77.240	-78.046	-69.551	217.257	-70.654	-8191	255	
615.639	1	1	0	0	0.33696	0.071148	0.28196	0.33117	0.13626	0.094782	0.060398	0.089184	0.1432	0.15205	0.14447	0.32516	0.041289	0.29735	0.11473	0.034678	-2.0604	-3.2417	-2.1958	-2.6354	-3.1375	-2.3146	-3.3542	-2.8875	-2.3604	-3.2917	-2.4208	-2.8542	-3.2625	-2.1375	-3.0646	-2.9229	-35.722	108.743	153.254	237.532	81.553	229.659	94.123	-6.191	-13.631	-78.068	128.328	168.979	219.929	218.008	92.933	152.875	0.00027546	0.00062733	2.582e-05	1161.9	3.5622e-06	6.0186e-06	1245.2	246.75	2.6156e-06	9.3914e-07	312.3	84.876	67.589	19.445	3.2997e-06	27.022	0.00020489	0.0001987	5.744e-05	1129.1	2.208e-06	2.2279e-06	1217.8	243.88	2.1974e-06	2.1712e-06	296.43	83.961	66.126	19.426	2.188e-06	26.971	65.081	30.060	3.694	-91.060	-70.857	58.494	-91.221	-83.798	257.199	10.196	-84.295	-77.327	-77.390	-69.834	11.320	-70.121	-8191	255	
615.736	1	1	0	0	0.19117	0.31823	0.12732	0.30413	0.21833	0.076951	0.11349	0.35758	0.1297	0.19556	0.34137	0.032362	0.18948	0.14895	0.083764	0.042944	-2.0229	-3.2771	-2.4604	-2.9688	-3.3688	-2.1229	-3.1562	-3.0271	-2.2729	-3.2708	-2.6021	-2.6167	-3.4354	-2.3354	-2.9896	-3.125	188.285	120.513	213.567	244.573	-1.235	257.103	197.554	207.174	60.245	-26.794	247.346	43.089	112.115	244.404	132.062	40.084	0.00029017	0.00042511	8.7774e-05	1159.4	2.1702e-06	2.1577e-06	1246.7	247.71	2.0884e-06	6.6031e-07	315.34	84.728	67.494	19.25	6.1273e-06	26.887	0.00020557	0.00019832	5.5953e-05	1127.8	2.1971e-06	2.2008e-06	1217	243.59	2.1778e-06	2.1973e-06	296.85	83.865	66.092	19.4	2.2127e-06	26.996	91.592	66.748	-61.150	-90.739	-51.734	-11.763	-90.818	-83.833	171.849	111.244	-83.969	-77.145	-77.415	-69.639	-6.572	-70.256	-8191	255	
615.856	1	1	0	0	0.13992	0.25948	0.032183	0.21118	0.38129	0.11796	0.35113	0.14806	0.24075	0.044493	0.1073	0.22504	0.12594	0.15838	0.046513	0.33752	-1.9979	-3.3792	-2.6208	-2.6479	-3.2875	-2.1667	-2.8875	-3.4208	-1.9917	-3.1021	-2.7229	-2.4375	-3.4708	-2.3937	-2.7333	-3.2062	254.185	224.715	-57.292	-40.695	-27.697	125.202	164.234	233.696	257.268	-62.798	-19.887	247.804	14.022	123.079	118.501	147.051	0.0004194	0.00029639	9.1484e-05	1156.4	2.5132e-06	7.9604e-07	1247.8	247.54	3.8584e-07	2.1321e-06	316.15	84.17	66.919	19.517	3.5753e-06	26.817	0.00020426	0.00020319	5.5028e-05	1128.5	2.2153e-06	2.2206e-06	1217.9	243.88	2.2582e-06	2.1916e-06	297.56	83.685	65.771	19.427	2.2376e-06	26.956	52.909	52.135	32.631	-91.153	53.270	-35.280	-90.988	-83.533	14.673	100.658	-84.388	-77.231	-77.755	-69.434	-3.770	-70.439	-8191	255	
615.952	1	1	0	0	0.056979	0.054427	0.17963	0.16303	0.18566	0.26022	0.19511	0.20398	0.21532	0.089653	0.16273	0.27109	0.069982	0.031661	0.32249	0.048094	-2.0229	-3.1146	-2.6917	-2.3958	-3.2125	-2.3125	-2.8354	-3.4896	-2.3417	-3.1063	-2.95	-2.3604	-3.4562	-2.6479	-2.5583	-3.5187	61.942	69.173	-12.326	257.674	113.135	69.367	127.240	216.065	-70.097	129.155	219.941	-22.692	205.349	202.244	-33.125	184.352	0.000259	0.00015537	5.5852e-05	1161	1.7624e-06	4.8533e-06	1244.3	246.68	6.2135e-06	4.0916e-06	312.78	84.791	67.452	19.196	4.4904e-06	27.115	0.00020533	0.00020083	5.512e-05	1128.6	2.2003e-06	2.1882e-06	1217.2	243.33	2.2124e-06	2.1822e-06	296.7	83.898	65.972	19.355	2.1854e-06	27.032	55.918	233.466	97.722	-91.094	-79.796	20.609	-90.958	-84.031	206.197	21.048	-83.615	-77.372	-77.149	-69.983	77.141	-70.544	-8191	255	
616.024	1	1	0	0	0.17654	0.11733	0.081901	0.02904	0.38358	0.28962	0.21961	0.17943	0.0046682	0.26198	0.15289	0.025115	0.34224	0.042402	0.12682	0.15581	-2.0479	-2.9896	-2.9562	-2.1146	-3.3521	-2.7167	-2.6375	-3.5646	-2.1125	-2.8187	-3.1292	-2.4	-3.2625	-2.8688	-2.3208	-3.4354	12.739	94.958	-80.844	253.877	258.255	165.022	200.893	222.327	165.258	-89.206	-15.091	134.972	4.459	-20.587	-79.491	122.348	0.00040667	0.00026176	4.2847e-05	1157.3	3.0455e-06	2.918e-06	1247.2	246.84	3.8644e-06	2.2265e-06	313.35	84.762	67.574	19.286	3.6253e-06	26.726	0.00020333	0.00019934	5.5609e-05	1125.9	2.2049e-06	2.1809e-06	1218.1	243.03	2.1898e-06	2.1326e-06	297.43	83.799	65.8	19.396	2.1798e-06	26.867	61.172	-6.941	-16.162	-90.784	83.264	109.233	-90.527	-83.529	-23.006	71.767	-84.185	-77.406	-77.494	-69.882	-59.398	-69.841	-8191	255	
616.145	1	1	0	0	0.052765	0.21141	0.19803	0.1054	0.12128	0.29026	0.27181	0.093689	0.31169	0.14747	0.03932	0.061595	0.12235	0.10591	0.24459	0.16239	-2.1917	-2.8667	-3.1521	-2.3083	-3.1792	-2.7646	-2.3521	-3.4667	-2.4271	-2.6708	-3.3854	-2.1312	-3.1521	-2.9958	-2.1021	-3.4625	-16.356	237.074	-81.724	244.106	178.108	78.981	168.884	-71.824	159.571	-5.492	55.338	17.298	239.351	18.589	-39.503	204.518	0.00036085	0.00039046	0.00010071	1158.4	2.97e-06	4.6573e-06	1244.7	246.85	4.5358e-06	3.8309e-06	314.51	84.599	67.369	19.351	1.3468e-06	26.927	0.00020477	0.00019908	5.5336e-05	1126.9	2.2369e-06	2.1663e-06	1215.7	243.35	2.236e-06	2.1686e-06	296.4	83.662	65.925	19.381	2.119e-06	26.895	63.964	-33.524	-18.266	-91.073	100.131	73.555	-90.900	-83.713	225.481	-33.447	-83.886	-77.282	-76.811	-69.736	157.115	-70.287	-8191	255	
616.241	1	1	0	0	0.1756	0.06742	0.14188	0.076502	0.01396	0.088754	0.063888	0.30032	0.28519	0.39117	0.32596	0.27023	0.18079	0.08051	0.12161	0.16453	-2.0125	-2.5938	-3.1521	-2.3396	-2.9354	-2.9583	-2.3833	-3.4021	-2.7604	-2.6292	-3.2729	-2.1479	-2.9708	-3.0812	-2.3688	-3.4417	105.393	-92.640	-7.643	134.215	-43.780	137.340	-15.357	12.586	167.785	50.780	-79.749	-97.623	237.628	-38.328	54.489	-78.599	0.00028559	0.00049412	9.345e-05	1155.8	2.4314e-06	2.7333e-06	1244.9	248.1	1.8837e-06	3.2419e-06	310.38	84.425	67.123	19.284	2.0071e-06	26.99	0.00020038	0.00019132	5.4282e-05	1125.8	2.1634e-06	2.0877e-06	1213	243.62	2.1067e-06	2.1076e-06	295.04	83.648	65.864	19.32	2.092e-06	26.93	46.151	3.484	8.270	-91.105	18.419	38.012	-90.948	-83.432	-78.466	-36.620	-83.952	-77.142	-76.907	-69.676	119.349	-70.130	-8191	255	
616.337	1	1	0	0	0.27765	0.094499	0.18381	0.35807	0.24313	0.095036	0.02232	0.06236	0.021915	0.16099	0.062312	0.17782	0.11368	0.12952	0.11024	0.079854	-2.2208	-2.5708	-3.25	-2.2292	-2.9771	-3.0312	-2.4313	-3.3104	-2.6771	-2.5792	-3.3104	-2.55	-2.7833	-3.1688	-2.3208	-3.2792	68.621	-51.575	166.243	-86.078	-53.422	-77.060	202.398	76.693	-22.353	-19.752	124.961	184.744	-14.753	214.512	-29.170	192.271	0.00046017	0.0001882	0.00013068	1156.4	2.6965e-06	1.9029e-06	1244.1	246.75	3.1257e-06	1.0535e-06	314.66	83.963	67.323	19.235	2.3979e-06	26.849	0.00019517	0.00018847	5.2298e-05	1122.3	2.0787e-06	2.0588e-06	1211	242.45	2.0557e-06	2.0062e-06	294.63	83.293	65.667	19.287	2.0549e-06	26.829	56.712	101.750	-62.980	-91.024	73.377	121.501	-90.878	-83.497	236.382	81.071	-84.094	-76.973	-77.083	-69.907	35.570	-70.440	-8191	255	
616.456	1	1	0	0	0.030734	0.17668	0.16141	0.22078	0.21937	0.078939	0.22979	0.16421	0.028787	0.1242	0.075503	0.24235	0.28371	0.17378	0.047544	0.29707	-2.5104	-2.3958	-3.475	-2.3396	-2.7	-3.3604	-2.3729	-3.3187	-2.9333	-2.2583	-3.5021	-2.5833	-2.6917	-3.3312	-2.1896	-3.2833	-91.719	250.636	-47.647	252.773	244.066	158.958	228.207	173.335	-51.814	18.925	-35.678	201.450	158.873	193.739	-50.461	250.206	0.00020154	0.0004161	6.9129e-05	1149.7	2.3707e-06	1.8788e-06	1232.7	245.18	2.9098e-06	3.3976e-06	310	83.986	66.783	19.312	2.9232e-06	26.846	0.0001849	0.00018224	5.042e-05	1118.1	2.0167e-06	1.9204e-06	1206.2	241.05	1.9407e-06	1.9178e-06	292	83.204	65.042	19.278	1.8638e-06	26.829	42.800	99.587	150.711	-91.141	-21.921	35.840	-90.761	-83.750	59.801	115.433	-84.132	-77.251	-77.234	-69.809	-87.745	-70.337	-8191	255	
616.552	1	1	0	0	0.10932	0.17211	0.063511	0.38563	0.11842	0.081651	0.27414	0.33573	0.027162	0.2093	0.077914	0.23899	0.27282	0.18149	0.060464	0.14092	-2.8583	-2.2667	-3.35	-2.7792	-2.5542	-3.4667	-2.6	-3.2333	-3.0312	-2.0792	-3.4708	-2.6271	-2.5083	-3.5167	-2.1833	-3.2521	-11.801	79.665	171.064	235.033	128.970	63.974	170.234	-33.258	152.468	164.997	169.458	120.782	-86.369	144.434	-55.814	132.488	0.0003064	0.00043182	0.00012052	1141.7	1.231e-06	5.3426e-06	1235	244.7	6.9568e-06	2.2951e-06	308.93	84.403	66.919	19.419	2.9062e-06	26.908	0.00016909	0.00016586	4.5794e-05	1112.2	1.8034e-06	1.7434e-06	1203.7	240.46	1.7371e-06	1.7205e-06	289.53	83.133	64.935	19.284	1.6415e-06	26.843	51.500	6.132	20.429	-90.850	-80.446	89.973	-90.784	-83.499	48.872	-11.036	-83.521	-77.310	-77.256	-69.550	76.605	-70.041	-8191	255	
616.648	1	1	0	0	0.073465	0.12144	0.16363	0.09714	0.29161	0.26524	0.18841	0.12418	0.093641	0.23499	0.05635	0.14698	0.20586	0.039196	0.31395	0.26053	-2.8167	-2.3812	-3.2812	-2.775	-2.2333	-3.4125	-2.4917	-2.9875	-3.1375	-2.2542	-3.3146	-2.675	-2.2896	-3.4188	-2.3417	-2.8521	-100.054	25.025	2.110	-74.913	204.069	208.990	155.279	212.336	-95.157	75.472	-44.543	136.878	-32.854	-53.766	206.673	242.595	0.0003469	0.00029555	8.5637e-05	1139.9	3.995e-07	3.6292e-06	1225.6	244.39	5.2784e-07	7.8238e-07	306.15	83.972	66.475	19.494	2.3979e-06	27.095	0.0001477	0.00014202	3.8191e-05	1103.8	1.507e-06	1.4047e-06	1191.7	238.01	1.4179e-06	1.3909e-06	285.79	82.718	64.225	19.311	1.4437e-06	26.719	67.329	-22.714	-35.350	-91.028	148.350	17.644	-90.870	-83.599	191.803	52.399	-83.834	-77.365	-77.171	-69.883	87.923	-70.282	-8191	255	
616.720	1	1	0	0	0.31558	0.19362	0.11418	0.15802	0.15103	0.26516	0.04759	0.26675	0.099683	0.17552	0.13968	0.24064	0.24896	0.099824	0.0647	0.20864	-3.0396	-2.0583	-3.175	-3.1146	-2.0792	-3.375	-2.7646	-2.7208	-3.3292	-2.2604	-3.1125	-3.0771	-2.0042	-3.3542	-2.4437	-2.6229	182.399	8.163	2.378	140.582	176.956	216.046	63.873	254.915	4.035	23.862	229.319	211.595	-17.382	195.699	242.213	-101.542	0.00034029	0.00022414	0.00011953	1138.9	2.2456e-06	1.7648e-06	1215.9	243.47	4.5961e-06	2.0784e-06	304.79	83.522	66.092	19.405	4.063e-06	26.72	0.00013181	0.00012809	3.4792e-05	1101.3	1.4352e-06	1.3604e-06	1186.4	237.14	1.4131e-06	1.4104e-06	285.05	82.226	63.923	19.211	1.3971e-06	26.644	63.498	46.459	-6.352	-90.816	102.473	119.630	-90.776	-83.693	-46.712	20.675	-83.958	-77.278	-76.872	-69.714	51.333	-70.207	-8191	255	
616.818	1	1	0	0	0.26359	0.18778	0.23033	0.32494	0.15058	0.067402	0.46589	0.11201	0.10264	0.28989	0.1218	0.072494	0.04443	0.19272	0.11018	0.26393	-3.1417	-2.0854	-2.8729	-3.0896	-2.0687	-3.3792	-2.8229	-2.5958	-3.5604	-2.3896	-2.6917	-3.2042	-2.0708	-3.1396	-2.5542	-2.4479	-36.156	134.113	72.590	183.924	161.430	29.017	193.878	192.931	204.697	153.028	85.200	144.434	85.580	-82.675	-76.553	178.632	0.00036284	0.00038389	8.3767e-05	1133.9	2.5249e-06	4.7484e-06	1219.8	242.68	3.3377e-06	1.7405e-06	305.93	83.615	66.977	19.291	2.559e-06	27.038	0.00013111	0.0001261	3.5092e-05	1097.2	1.4283e-06	1.3523e-06	1186	236.95	1.3504e-06	1.3244e-06	285.27	82.352	64.243	19.213	1.345e-06	26.759	67.325	-9.152	-6.745	-90.800	-11.955	79.830	-90.728	-83.488	-47.056	28.240	-83.905	-77.043	-77.129	-69.591	131.506	-69.980	-8191	255	
616.937	1	1	0	0	0.15422	0.061772	0.12431	0.28432	0.20892	0.046066	0.099394	0.087016	0.163	0.053482	0.1086	0.14811	0.15576	0.092414	0.065068	0.30942	-3.0687	-2.3812	-2.6292	-3.2521	-2.0687	-3.2313	-3.0833	-2.3333	-3.0729	-2.3583	-2.8354	-3.1042	-2.2333	-2.9958	-2.8396	-2.4313	-37.474	-10.265	35.735	191.752	-56.100	180.297	238.281	15.049	-95.710	-11.810	-96.285	-87.509	88.672	147.419	100.640	256.213	0.00019766	0.00044946	4.4896e-05	1127.8	3.6257e-06	2.3729e-06	1215.7	242.13	4.1595e-06	1.8635e-06	307.73	83.96	66.813	19.605	3.1602e-06	27.113	0.00012813	0.00012498	3.4064e-05	1095	1.3621e-06	1.3412e-06	1185.7	236.36	1.348e-06	1.3595e-06	284.95	82.344	64.111	19.34	1.3403e-06	26.796	61.498	23.487	7.484	-90.563	39.443	-12.540	-90.538	-83.480	107.682	85.504	-84.109	-77.153	-76.821	-69.456	-2.736	-69.769	-8191	255	
617.033	1	1	0	0	0.23101	0.15407	0.071512	0.062811	0.20931	0.14049	0.21574	0.33751	0.098089	0.2421	0.2471	0.050753	0.10484	0.094921	0.077408	0.25408	-2.7687	-2.3521	-2.6479	-3.2917	-2.4104	-3.0958	-3.2417	-2.3729	-3.2	-2.5708	-2.6417	-3.4562	-2.1396	-2.9229	-2.8083	-2.2583	189.137	170.726	54.368	201.221	-59.440	105.540	99.234	225.606	26.959	36.647	-0.756	4.571	19.937	-54.160	79.140	151.681	0.00028692	0.00043343	8.6108e-05	1132.3	3.2281e-06	4.1723e-06	1214.3	242.48	1.2404e-06	2.4429e-06	306.26	84.01	66.886	19.593	4.3269e-06	27.158	0.00012797	0.00012333	3.4097e-05	1094.7	1.3862e-06	1.3613e-06	1184.2	236.63	1.3317e-06	1.337e-06	283.4	82.547	64.157	19.403	1.3161e-06	26.898	58.234	-12.127	-35.381	-90.702	92.531	9.279	-90.536	-83.467	-49.527	52.047	-83.803	-77.157	-76.841	-69.634	45.326	-70.047	-8191	255	
617.129	1	1	0	0	0.25231	0.18656	0.085197	0.19263	0.056893	0.26314	0.24829	0.13897	0.11531	0.14863	0.1839	0.20252	0.31431	0.084187	0.10264	0.18752	-2.9146	-2.6833	-2.475	-3.3917	-2.3021	-2.8979	-3.2104	-2.2729	-3.2646	-2.8187	-2.4125	-3.4042	-2.3396	-2.7062	-3.1437	-2.0958	246.762	-37.409	26.057	-43.457	163.003	232.286	108.820	113.705	193.750	201.149	187.783	176.665	181.020	201.706	146.872	71.438	0.00039884	0.00043822	0.00010494	1132.3	2.089e-06	3.3691e-06	1221.4	242.7	3.5427e-06	3.6087e-06	307.13	84.241	66.853	19.611	3.0582e-06	27.214	0.00012551	0.00011979	3.3218e-05	1096.9	1.3395e-06	1.2912e-06	1187.5	237.2	1.2892e-06	1.285e-06	285.34	82.683	64.419	19.488	1.3596e-06	26.958	51.600	-13.510	61.548	-90.619	164.020	28.226	-90.566	-83.395	-27.585	14.969	-83.309	-77.408	-77.348	-70.016	63.719	-70.265	-8191	255	
617.225	1	1	0	0	0.04164	0.20402	0.054909	0.24196	0.13483	0.052349	0.087931	0.19076	0.080598	0.18803	0.14448	0.25121	0.22861	0.073373	0.19906	0.31485	-2.9875	-2.6896	-2.5208	-3.5896	-2.3333	-2.7083	-3.3438	-2.5062	-3.1312	-2.85	-2.3688	-3.3104	-2.4979	-2.5479	-3.3375	-2.1562	175.843	110.520	75.442	239.592	-97.416	74.640	-56.610	219.542	27.580	192.864	67.692	191.100	102.314	123.442	211.729	179.834	0.00021846	0.00027079	6.346e-05	1137.2	3.6738e-06	4.1928e-06	1223.7	243.94	3.622e-06	5.2616e-06	307.4	84.583	67.304	19.606	8.6473e-07	27.126	0.00013112	0.00012584	3.4998e-05	1099.8	1.4545e-06	1.3702e-06	1189.8	237.9	1.4594e-06	1.4214e-06	286.76	83.144	64.853	19.577	1.4959e-06	27.011	57.736	18.189	21.371	-90.584	-26.871	37.413	-90.710	-83.602	17.558	75.472	-83.785	-77.167	-77.358	-69.850	7.512	-70.380	-8191	255	
617.321	1	1	0	0	0.081506	0.23389	0.30427	0.42564	0.13443	0.28655	0.19109	0.37017	0.16952	0.13402	0.18761	0.1342	0.061569	0.22388	0.11353	0.18925	-2.6833	-3.0062	-2.2208	-3.6271	-2.525	-2.5729	-3.5854	-2.4771	-3.0104	-3.2104	-2.0583	-3.5958	-2.7458	-2.375	-3.4583	-2.475	-14.051	65.074	-19.264	209.072	160.147	40.274	135.411	198.257	16.679	242.079	-60.170	-67.107	19.222	93.030	45.251	245.938	0.00036662	0.00025399	7.2092e-05	1137.7	4.2658e-06	3.3601e-06	1225.6	242.94	3.9924e-06	4.2839e-06	310.37	84.152	67.061	19.649	2.8443e-06	27.019	0.00014475	0.0001364	3.8657e-05	1104.7	1.5705e-06	1.5168e-06	1195.2	238.35	1.5821e-06	1.4935e-06	288.55	83.22	64.932	19.558	1.574e-06	26.883	72.404	-31.122	-14.648	-90.793	18.716	-5.015	-90.795	-83.345	-68.057	42.410	-83.761	-77.021	-76.802	-70.002	45.943	-70.541	-8191	255	
617.417	1	1	0	0	0.23028	0.074607	0.14549	0.15112	0.174	0.24138	0.24854	0.18457	0.19814	0.12222	0.052829	0.29036	0.19992	0.090565	0.058775	0.1382	-2.6958	-3.1063	-2.0938	-3.4229	-2.8812	-2.1271	-3.5917	-2.4417	-2.6458	-3.1208	-2.3125	-3.2854	-2.9062	-2.2604	-3.2812	-2.6229	215.204	9.001	93.867	189.541	178.282	27.871	215.874	93.127	-16.326	46.668	201.684	196.100	-84.324	213.924	105.745	173.783	0.00026475	0.00030366	3.5743e-05	1136.2	1.0129e-06	1.7131e-06	1226.6	243.02	3.3191e-06	1.0416e-06	308.44	83.879	66.559	19.454	1.8105e-06	27.083	0.00014673	0.00014118	4.0167e-05	1104.4	1.6069e-06	1.5947e-06	1195.8	238.58	1.6328e-06	1.6031e-06	288.26	83.053	64.956	19.443	1.6241e-06	26.979	48.066	24.238	-55.921	-90.790	210.382	49.379	-90.603	-83.439	-56.462	213.661	-83.928	-77.166	-76.948	-70.147	78.998	-69.978	-8191	255	
617.538	1	1	0	0	0.060784	0.21978	0.079347	0.16095	0.15251	0.1464	0.21286	0.099968	0.14037	0.13896	0.16277	0.18643	0.31257	0.20435	0.19389	0.19483	-2.4083	-3.2188	-2.1042	-3.1479	-2.875	-2.225	-3.5333	-2.6437	-2.3479	-3.2562	-2.4021	-3.0583	-2.9688	-2.4167	-3.3458	-2.4146	-21.639	149.995	174.565	236.013	118.575	244.758	178.596	221.877	97.545	-27.593	73.531	250.410	245.752	122.044	240.742	134.048	0.00030752	0.00048289	0.0001191	1143.4	4.9704e-06	3.1636e-06	1225.2	243.44	3.1013e-06	2.6786e-06	307.42	83.683	66.533	19.646	2.218e-06	27.037	0.0001528	0.00014749	4.2012e-05	1105.8	1.6917e-06	1.6394e-06	1194.6	238.6	1.6932e-06	1.5932e-06	288.45	82.788	64.813	19.52	1.6103e-06	26.945	62.996	-0.958	-11.409	-90.626	-8.898	95.762	-90.950	-83.586	33.920	116.542	-84.022	-77.079	-77.126	-69.515	107.830	-70.483	-8191	255	
617.632	1	1	0	0	0.12253	0.11182	0.11093	0.444	0.091683	0.10039	0.21602	0.19682	0.10735	0.045268	0.1541	0.28478	0.15709	0.037815	0.16858	0.14479	-2.1729	-3.3271	-2.1063	-3.0271	-3.0667	-2.3542	-3.5083	-2.7042	-2.4896	-3.3354	-2.2646	-3.0292	-3.0333	-2.2958	-3.2229	-2.7771	23.197	8.699	120.089	252.362	83.163	234.115	230.941	242.871	26.350	149.424	152.413	-91.123	133.809	-71.570	257.323	177.513	0.00023853	0.00061832	7.0212e-05	1137.3	4.3156e-06	4.2022e-06	1225.2	242.79	1.7066e-06	1.4554e-06	311.59	84.477	67.146	19.423	1.7928e-06	27.041	0.0001542	0.0001461	4.2095e-05	1104.9	1.6237e-06	1.5778e-06	1194.6	238.16	1.5899e-06	1.5592e-06	288.21	82.998	64.541	19.403	1.5505e-06	26.882	66.647	1.143	11.415	-90.529	73.695	-48.210	-90.710	-83.583	241.065	244.610	-83.772	-77.273	-76.899	-69.781	-9.732	-70.643	-8191	255	
617.729	1	1	0	0	0.12462	0.064646	0.19631	0.1429	0.013465	0.10079	0.1426	0.17874	0.15016	0.019212	0.07333	0.19605	0.27149	0.12377	0.11761	0.12893	-2.0479	-3.2729	-2.1854	-2.9583	-3.2458	-2.2188	-3.4458	-2.8875	-2.4104	-3.2812	-2.2854	-2.6625	-3.4188	-2.1729	-2.9521	-2.9396	63.383	71.838	216.724	-77.852	49.233	40.015	247.375	39.011	132.760	-53.405	82.609	236.738	66.991	251.931	224.003	-64.508	0.00028901	0.00033719	6.7792e-05	1135.5	3.0643e-06	4.4813e-06	1230.5	242.59	1.4108e-06	2.9718e-06	307.95	84.273	66.19	19.474	5.955e-06	27.197	0.00014503	0.0001374	3.8292e-05	1103.6	1.4992e-06	1.5033e-06	1194.8	237.97	1.5163e-06	1.4401e-06	287.14	82.852	64.256	19.332	1.4886e-06	26.867	53.054	-4.841	58.469	-90.774	74.016	13.856	-90.759	-83.386	-82.110	107.065	-83.536	-77.053	-77.340	-69.537	31.583	-70.274	-8191	255	
617.825	1	1	0	0	0.15646	0.13783	0.22483	0.14879	0.13338	0.10448	0.2035	0.15409	0.20482	0.062972	0.23838	0.24291	0.07044	0.157	0.030352	0.027309	-2.0417	-3.3563	-2.6229	-2.4771	-3.1542	-2.4125	-3.1396	-3.15	-2.1958	-3.3167	-2.6813	-2.4583	-3.2146	-2.4188	-2.7146	-3.2146	116.421	93.893	-29.651	211.275	-91.877	-14.661	-92.776	152.190	24.884	181.569	-86.334	238.614	109.080	224.941	98.315	0.827	0.00024265	0.00040694	7.6218e-05	1137	1.7087e-06	2.5417e-06	1227.2	242.28	5.7622e-06	3.5502e-06	305.45	83.945	66.685	19.358	3.1018e-06	26.848	0.0001439	0.00013272	3.7853e-05	1102.8	1.4854e-06	1.4748e-06	1192.1	237.43	1.5153e-06	1.4337e-06	285.73	82.632	64.298	19.213	1.4739e-06	26.741	63.272	6.296	-52.794	-90.752	52.852	52.818	-90.556	-83.507	-88.984	63.063	-84.275	-76.729	-77.055	-69.805	75.665	-70.149	-8191	255	
617.945	1	1	0	0	0.20929	0.066018	0.076518	0.15187	0.068439	0.23415	0.26542	0.088369	0.16634	0.12415	0.17785	0.37593	0.10767	0.10841	0.19946	0.14682	-1.9333	-3.3354	-2.7896	-2.7125	-3.4188	-2.4208	-2.9792	-3.2229	-2.1125	-3.2313	-2.8187	-2.4375	-3.3771	-2.3312	-2.6125	-3.2792	118.214	-70.718	202.039	227.157	132.217	38.700	214.537	-30.139	82.249	227.287	-34.050	-64.701	247.196	-70.766	-81.010	-40.527	0.0003344	0.00032589	6.0972e-05	1135.2	2.5739e-06	3.7233e-06	1216	241.62	2.6196e-06	2.4051e-06	308.43	83.58	66.793	19.404	1.7503e-06	27.054	0.00013634	0.00013252	3.6214e-05	1100.2	1.4077e-06	1.4244e-06	1188.8	236.55	1.4236e-06	1.3847e-06	285.7	82.223	64.136	19.242	1.3763e-06	26.653	75.536	61.180	129.710	-90.527	-50.114	19.866	-90.775	-83.599	-17.732	80.374	-83.880	-77.003	-77.206	-69.573	211.511	-70.302	-8191	255	
618.017	1	1	0	0	0.17867	0.42801	0.16975	0.14758	0.13723	0.15096	0.24358	0.10477	0.13233	0.080741	0.10159	0.1097	0.066413	0.15641	0.29842	0.12209	-2.1271	-3.3333	-2.8292	-2.5083	-3.2854	-2.3292	-2.8688	-3.4521	-2.1854	-3.1	-3.1729	-2.4313	-3.2271	-2.6333	-2.5104	-3.4125	148.675	130.065	16.137	251.278	-58.529	228.627	-74.997	121.259	178.694	159.787	162.362	94.778	-99.295	-56.097	210.416	-6.002	0.0002765	5.8117e-05	4.1688e-05	1127.6	3.1392e-06	1.1072e-06	1221.1	241.63	5.3988e-06	2.6303e-06	305.15	83.229	66.082	19.29	1.7196e-06	26.769	0.00013303	0.00012724	3.5583e-05	1095.6	1.3696e-06	1.3737e-06	1185.5	235.81	1.4179e-06	1.3508e-06	283.46	82.053	63.74	19.182	1.401e-06	26.552	46.731	-36.275	-31.097	-90.652	-29.215	-67.175	-90.624	-83.395	-69.744	20.250	-84.088	-76.964	-77.317	-69.603	-41.361	-70.250	-8191	255	
618.138	1	1	0	0	0.10241	0.31647	0.3062	0.14966	0.097812	0.029566	0.21053	0.034739	0.27115	0.13015	0.067221	0.089752	0.21976	0.16626	0.054603	0.15169	-1.8542	-3.1896	-2.9458	-2.2167	-3.4208	-2.5875	-2.6792	-3.3667	-2.2417	-2.9437	-3.175	-2.1854	-3.3125	-2.3917	-2.4083	-3.5146	21.261	67.838	195.962	178.489	197.317	127.210	-78.028	210.700	6.497	154.014	-50.409	255.931	-69.507	32.176	201.435	114.123	0.00034669	0.00025282	2.9409e-05	1129.4	3.5119e-06	2.5168e-06	1217.4	241.59	3.3581e-06	6.8701e-07	306.74	83.462	65.876	19.076	2.8732e-06	26.868	0.00013372	0.00012517	3.4273e-05	1093.4	1.3864e-06	1.4002e-06	1183.2	236.11	1.4066e-06	1.3566e-06	284.33	82.042	63.864	19.066	1.3909e-06	26.497	80.898	58.270	6.902	-90.797	20.334	112.036	-90.607	-83.410	-31.616	58.399	-84.188	-76.881	-77.272	-69.457	-14.400	-69.790	-8191	255	
618.234	1	1	0	0	0.095306	0.20803	0.077352	0.23239	0.1556	0.21858	0.21838	0.24256	0.081978	0.11849	0.078248	0.20193	0.12008	0.057635	0.11648	0.12946	-2.0833	-2.8646	-3.1354	-2.2188	-3.1375	-2.9042	-2.6083	-3.4625	-2.5125	-2.825	-3.1271	-2.2083	-3.4188	-2.9417	-2.3458	-3.4813	30.302	80.321	101.705	214.019	101.238	169.910	197.784	246.718	173.818	-33.019	-42.416	137.433	151.739	-88.727	11.484	-98.104	0.00013353	0.00016852	9.115e-05	1133.8	3.7057e-06	1.8539e-06	1214.8	240.58	3.9799e-06	2.1246e-06	306.27	83.119	66.109	19.242	2.2235e-06	26.69	0.00013501	0.00012518	3.4747e-05	1094.4	1.3746e-06	1.366e-06	1182.8	235.71	1.3961e-06	1.3365e-06	284.36	81.766	63.754	19.08	1.3646e-06	26.501	52.853	98.013	-54.839	-90.398	2.964	40.510	-90.503	-83.408	-57.421	64.024	-83.348	-77.200	-76.755	-69.621	71.200	-70.175	-8191	255	
618.330	1	1	0	0	0.14759	0.12346	0.065455	0.45289	0.099223	0.14266	0.29157	0.10048	0.33723	0.25173	0.25082	0.21538	0.1126	0.024864	0.37273	0.23025	-1.9917	-2.7042	-3.2583	-2.3854	-3.0438	-2.9313	-2.3021	-3.4042	-2.4458	-2.5792	-3.3271	-2.2667	-2.8063	-3.1417	-2.025	-3.5625	155.523	9.643	-10.669	236.217	-6.150	157.309	112.057	239.660	1.150	-23.492	-45.053	253.914	154.967	128.815	-49.778	204.817	0.00031113	0.00038564	8.1239e-05	1124.4	2.9503e-06	3.7516e-06	1216.6	242.34	1.0941e-06	2.7277e-06	308.65	83.131	65.916	19.207	1.27e-06	26.822	0.00013054	0.00012179	3.4197e-05	1092	1.3889e-06	1.3178e-06	1183.6	236.06	1.3936e-06	1.3465e-06	284.92	81.795	63.65	19.071	1.3691e-06	26.526	55.257	-7.752	0.090	-90.550	70.207	-6.870	-90.508	-83.479	21.111	18.956	-83.630	-77.030	-76.294	-69.460	-46.923	-69.740	-8191	255	
618.424	1	1	0	0	0.12441	0.070278	0.14521	0.2391	0.20547	0.16035	0.33655	0.20299	0.2639	0.15059	0.15398	0.25998	0.14404	0.059014	0.16537	0.06649	-2.1	-2.3167	-3.3542	-2.4	-2.7542	-3.2313	-2.2271	-3.45	-2.7479	-2.4354	-3.3312	-2.5271	-2.8125	-3.1833	-2.1021	-3.3833	80.677	224.246	-8.244	248.763	-28.954	123.422	179.847	184.822	196.255	148.833	124.759	232.672	151.851	188.074	-84.123	181.541	0.00041863	0.00043897	9.6416e-05	1126	8.941e-07	3.6946e-06	1214.8	240.45	1.4135e-06	2.8424e-06	304	83.403	65.59	19.169	5.5363e-06	26.743	0.00013429	0.00012659	3.4392e-05	1090.5	1.3941e-06	1.3588e-06	1181	235.42	1.3794e-06	1.3538e-06	283.08	81.792	63.463	19.011	1.3722e-06	26.443	73.011	13.844	23.372	-90.764	97.107	46.877	-90.442	-83.330	97.072	-37.328	-83.569	-76.654	-76.524	-69.439	31.801	-69.868	-8191	255	
618.545	1	1	0	0	0.1596	0.066846	0.092074	0.22368	0.11008	0.29145	0.45443	0.19994	0.19798	0.26579	0.090166	0.19433	0.14714	0.08556	0.25444	0.2513	-2.6083	-2.3563	-3.3396	-2.4896	-2.6708	-3.2333	-2.4854	-3.3271	-2.8292	-2.4729	-3.3417	-2.3833	-2.7354	-3.0604	-2.175	-3.0979	155.539	216.057	109.785	219.400	57.199	242.474	172.212	215.193	103.762	235.708	-19.203	229.684	-34.040	-35.029	7.171	167.270	0.00028021	0.0005841	0.00011574	1120.1	3.6843e-06	1.6681e-06	1212.7	242.31	2.8252e-06	4.4869e-06	305.38	82.818	65.854	19.116	2.9306e-06	26.474	0.0001321	0.00012648	3.3906e-05	1088.8	1.3805e-06	1.3124e-06	1179.2	236.01	1.3552e-06	1.355e-06	282.62	81.411	63.353	18.963	1.3786e-06	26.422	83.468	-23.934	-10.758	-90.398	-20.781	208.870	-90.335	-83.372	-96.029	55.080	-83.343	-76.832	-76.413	-69.579	61.692	-69.708	-8191	255	
618.617	1	1	0	0	0.13889	0.12207	0.06239	0.37026	0.21524	0.22518	0.35964	0.11879	0.1578	0.20618	0.13791	0.11179	0.081932	0.16542	0.10793	0.070345	-2.5542	-2.1625	-3.2521	-2.4583	-2.5875	-3.2979	-2.2208	-3.0604	-3.0687	-2.0458	-3.2188	-2.6833	-2.5979	-3.3604	-2.1208	-3.1271	-55.479	248.160	75.204	165.838	-32.328	243.008	167.884	194.412	35.896	-44.398	-24.680	238.880	43.643	117.522	125.305	101.713	0.00029904	0.00041638	0.00010609	1127.9	1.2637e-06	1.9133e-06	1209.2	240.79	4.0202e-06	1.6966e-06	307.23	82.986	65.961	19.168	2.9878e-06	26.549	0.00012953	0.00012454	3.3573e-05	1091.5	1.3695e-06	1.3329e-06	1178.7	235.11	1.3739e-06	1.3275e-06	283.12	81.652	63.455	19	1.3538e-06	26.425	50.475	55.414	-50.588	-90.540	82.775	38.815	-90.508	-83.060	-87.055	62.470	-82.929	-77.362	-77.022	-69.194	47.700	-69.581	-8191	255	
618.713	1	1	0	0	0.14998	0.11679	0.21284	0.24487	0.044402	0.074471	0.13016	0.27802	0.32534	0.076548	0.15031	0.081163	0.25956	0.12618	0.15072	0.104	-2.8021	-2.2417	-3.4562	-2.8396	-2.3646	-3.3333	-2.4354	-2.9375	-3.0062	-2.1542	-3.3792	-2.75	-2.3688	-3.3563	-2.15	-2.7917	215.932	150.641	152.710	-48.472	209.215	120.355	89.950	208.910	201.616	208.915	228.040	179.969	-46.443	96.927	40.949	29.491	0.00030942	0.00039742	7.4345e-05	1123	2.389e-06	9.0981e-07	1210	240.59	3.6126e-06	4.1049e-06	303	82.988	65.222	19.274	1.1157e-06	26.681	0.00012795	0.00012268	3.3566e-05	1089.3	1.3667e-06	1.2973e-06	1177.7	235.38	1.3286e-06	1.3225e-06	283.26	81.502	63.159	18.98	1.3272e-06	26.437	62.587	-5.801	24.464	-90.587	-58.943	-24.153	-90.539	-83.094	-77.236	46.153	-83.693	-76.937	-77.094	-69.217	68.276	-69.431	-8191	255	
618.809	1	1	0	0	0.081526	0.17818	0.36664	0.11865	0.11628	0.09058	0.28552	0.12416	0.26842	0.16118	0.21009	0.22373	0.13315	0.080746	0.18703	0.14007	-2.9896	-2.1688	-3.1	-2.8979	-2.0354	-3.5375	-2.6229	-2.7104	-3.2729	-2.0687	-3.1208	-2.9375	-2.3417	-3.4167	-2.5417	-2.5375	23.266	-64.846	-55.754	202.815	185.478	16.348	246.369	129.105	-26.159	-33.693	200.865	225.326	-56.618	171.643	-17.804	25.089	0.00031538	0.00050102	0.00010895	1123.2	1.4513e-06	2.8819e-06	1213.4	239.92	4.7411e-06	3.8086e-06	306.71	82.71	65.575	19.015	2.2757e-06	26.679	0.0001232	0.0001206	3.2726e-05	1088.7	1.3308e-06	1.2867e-06	1175.2	234.33	1.2939e-06	1.2737e-06	282.62	81.314	62.969	18.868	1.2767e-06	26.336	58.587	10.658	-21.409	-90.588	-80.424	34.952	-90.546	-83.384	-77.890	64.822	-83.257	-76.749	-76.901	-69.266	8.398	-69.904	-8191	255	
618.905	1	1	0	0	0.1214	0.097444	0.22061	0.19437	0.17007	0.095447	0.33768	0.18972	0.14856	0.093069	0.028995	0.20505	0.011232	0.10405	0.13444	0.19454	-3.0667	-2.1854	-2.9604	-3.1937	-2.2167	-3.2562	-2.6688	-2.4417	-3.3229	-2.2208	-2.8354	-3.1042	-2.1521	-3.175	-2.7729	-2.4479	48.118	18.567	-41.567	134.584	-89.597	236.438	162.688	-52.447	54.169	-67.057	-85.173	255.193	-41.530	-35.416	169.900	234.286	0.00024232	0.00059094	4.307e-05	1115.1	6.6745e-07	5.2622e-06	1204	238.76	2.5176e-06	5.5709e-06	301.94	82.164	65.587	19.081	1.9571e-06	26.54	0.00012238	0.00011563	3.2902e-05	1085.5	1.3194e-06	1.275e-06	1173.5	233.87	1.278e-06	1.286e-06	280.35	80.845	62.95	18.911	1.2636e-06	26.273	61.545	10.917	32.068	-90.641	78.999	48.582	-90.569	-83.243	67.844	52.009	-83.106	-76.830	-76.861	-69.485	9.851	-69.671	-8191	255	
619.026	1	1	0	0	0.16435	0.13685	0.16723	0.041084	0.081265	0.2292	0.31341	0.19648	0.41714	0.23783	0.33846	0.081523	0.16012	0.15376	0.18033	0.1787	-3.0312	-2.2417	-2.8063	-3.0938	-2.1167	-3.3417	-2.9062	-2.4313	-3.4271	-2.3937	-2.9125	-3.3917	-2.1208	-3.2875	-2.7292	-2.2979	-33.751	254.978	230.588	219.250	-78.797	-51.974	213.467	-66.806	223.695	113.053	177.000	170.151	157.672	185.981	-35.122	-63.036	0.0002801	0.00037969	5.9508e-05	1120.5	1.4998e-06	2.391e-06	1209.2	239.05	4.144e-06	3.1099e-06	302.68	82.644	65.322	19.207	1.3881e-06	26.44	0.00012288	0.0001149	3.2428e-05	1085.5	1.3243e-06	1.3147e-06	1173.9	233.61	1.3141e-06	1.2487e-06	281.38	81.113	62.831	18.897	1.2724e-06	26.284	68.097	8.044	-44.440	-90.311	192.043	51.740	-90.492	-83.076	64.017	57.887	-83.407	-76.420	-76.312	-68.807	44.863	-69.628	-8191	255	
619.122	1	1	0	0	0.17599	0.33475	0.090628	0.16101	0.13255	0.22784	0.20826	0.30885	0.24651	0.15915	0.12944	0.17678	0.13938	0.11574	0.12629	0.048157	-3.3083	-2.3438	-2.6604	-3.3292	-2.2542	-3.1604	-3.2	-2.3271	-3.3438	-2.6167	-2.4958	-3.3438	-2.2625	-3.1104	-3.1771	-2.2458	-3.529	101.750	232.277	231.361	30.304	66.035	128.712	204.480	7.543	184.773	-24.241	136.523	58.424	138.860	18.769	183.857	0.00020902	0.00038665	2.0143e-05	1116.9	1.1701e-06	2.1085e-06	1204.1	239.61	2.0159e-06	4.6647e-06	303.65	82.862	65.085	19.066	1.7874e-06	26.719	0.00012118	0.00011739	3.2492e-05	1082.9	1.3358e-06	1.2576e-06	1172.8	233.86	1.2706e-06	1.2547e-06	281.38	81.071	62.739	18.834	1.264e-06	26.314	78.910	41.320	-38.352	-90.178	9.195	-1.447	-90.244	-83.098	200.991	61.832	-83.236	-76.648	-76.512	-69.034	75.029	-69.690	-8191	255	
619.218	1	1	0	0	0.20657	0.16781	0.1096	0.21571	0.17436	0.23566	0.14544	0.18477	0.031928	0.12878	0.1044	0.11686	0.12946	0.2745	0.15107	0.13701	-3.025	-2.6375	-2.2479	-3.5042	-2.3521	-2.75	-3.0042	-2.3708	-3.2771	-2.4958	-2.3396	-3.3854	-2.2958	-3.0187	-3.3667	-2.2854	-44.497	-41.089	24.410	66.577	229.154	-67.979	216.869	72.127	-32.952	25.235	-3.653	217.042	-95.905	-64.110	88.515	176.071	0.00039026	0.00040502	9.8401e-05	1122.9	7.4635e-07	1.0935e-06	1204.5	238.95	7.6049e-07	2.3748e-06	303.33	82.895	64.942	18.893	3.6412e-06	26.34	0.00012389	0.00011547	3.262e-05	1085.7	1.2931e-06	1.271e-06	1174.2	233.68	1.3035e-06	1.2344e-06	281.57	80.959	62.643	18.799	1.2503e-06	26.13	78.646	15.285	-31.762	-90.607	15.199	8.404	-90.651	-82.811	184.581	-70.017	-83.690	-76.771	-77.052	-69.334	-13.646	-69.833	-8191	255	
619.314	1	1	0	0	0.23145	0.11205	0.22032	0.28713	0.10173	0.027305	0.36538	0.023876	0.3141	0.23342	0.36399	0.13948	0.15173	0.11491	0.17394	0.15735	-2.9875	-2.7375	-2.35	-3.725	-2.1646	-2.7958	-3.3083	-2.3812	-3.0417	-2.85	-2.2583	-3.3479	-2.5208	-2.6896	-3.2021	-2.3208	22.363	154.672	95.011	-90.501	25.061	48.062	209.228	-39.166	-68.619	12.592	-47.663	-62.007	-5.394	-67.431	253.467	-98.236	0.00030288	0.00038728	7.5248e-05	1116.2	2.5425e-06	4.1549e-06	1203.1	239.09	5.9454e-06	4.4226e-06	302.87	82.435	65.625	19.144	3.6705e-07	26.433	0.00012133	0.00011375	3.1898e-05	1083.8	1.2839e-06	1.2608e-06	1171.4	233.68	1.2918e-06	1.25e-06	281.29	80.979	62.929	18.844	1.2352e-06	26.176	66.324	12.300	8.604	-90.388	67.789	103.161	-90.558	-82.982	-18.168	74.144	-83.492	-76.950	-76.842	-69.203	-68.383	-69.825	-8191	255	
619.410	1	1	0	0	0.26765	0.14832	0.11137	0.087383	0.23571	0.23149	0.31563	0.078642	0.18988	0.095136	0.26546	0.22	0.055981	0.039977	0.10491	0.27035	-3.0396	-2.9042	-2.3229	-3.5917	-2.5833	-2.5979	-3.4604	-2.0396	-3.0167	-3.1146	-2.2438	-3.3625	-2.8083	-2.3729	-3.1875	-2.3875	-49.348	62.948	239.306	-79.474	26.561	29.094	218.238	114.079	244.289	-30.147	153.584	245.904	239.354	128.670	-66.469	207.840	0.00035167	0.00027847	7.4885e-05	1120.1	3.6977e-06	1.2971e-06	1206.1	238.09	5.7438e-06	4.4176e-06	305.04	82.232	65.515	19.028	5.7929e-06	26.485	0.00012123	0.00011318	3.1723e-05	1082.9	1.2811e-06	1.2597e-06	1173.4	233.36	1.3205e-06	1.2542e-06	282.81	80.899	62.942	18.799	1.2707e-06	26.232	70.401	-0.537	258.250	-90.491	-2.546	-4.253	-90.696	-83.264	193.248	37.344	-83.432	-77.026	-76.885	-69.359	6.572	-69.787	-8191	255	
619.506	1	1	0	0	0.19496	0.12933	0.14708	0.093804	0.35824	0.17536	0.15129	0.30376	0.127	0.12747	0.06749	0.32579	0.15796	0.2351	0.10369	0.39706	-2.4917	-3.1021	-2.125	-3.3312	-2.6	-2.4708	-3.5208	-2.35	-2.725	-3.1667	-2.3583	-3.1958	-2.8688	-2.3458	-3.2333	-2.325	-85.914	190.762	188.767	26.828	82.016	-4.179	205.079	181.236	218.189	-34.052	93.863	199.489	-37.004	222.474	124.896	101.499	0.00023559	0.00035006	1.067e-05	1118.1	1.381e-06	2.9798e-06	1204	240.01	1.0448e-06	2.0547e-06	301.95	82.453	64.668	19.078	4.9521e-06	26.513	0.00012373	0.00011305	3.2005e-05	1084.2	1.2704e-06	1.2813e-06	1172	233.59	1.2664e-06	1.2675e-06	281.34	80.967	62.595	18.825	1.2494e-06	26.269	62.909	-1.275	104.594	-90.656	206.533	16.936	-90.705	-83.023	119.335	55.768	-83.633	-76.671	-76.921	-69.387	-75.450	-69.519	-8191	255	
619.625	1	1	0	0	0.13194	0.31679	0.12731	0.46571	0.0795	0.22163	0.23565	0.13372	0.098927	0.18453	0.27788	0.14428	0.23587	0.15385	0.16048	0.14062	-2.5938	-3.1146	-2.0229	-3.4125	-2.6854	-2.3021	-3.5625	-2.4875	-2.3812	-3.4646	-2.1917	-3.1021	-2.85	-1.9937	-3.1542	-2.5042	81.420	249.429	41.647	223.811	-19.938	167.720	158.408	67.842	62.036	80.498	155.536	-47.752	-42.519	200.828	65.291	191.296	0.00027954	0.00029668	3.5132e-05	1119.9	2.087e-06	1.3605e-06	1204.8	239.18	4.6177e-06	3.236e-06	305.83	82.557	64.839	18.964	7.456e-07	26.291	0.00012318	0.00011382	3.1761e-05	1084.6	1.2714e-06	1.2679e-06	1171	233.62	1.277e-06	1.2245e-06	281.38	81.039	62.689	18.855	1.2201e-06	26.174	52.004	18.115	215.679	-90.261	145.883	75.628	-90.576	-83.188	-51.198	67.187	-84.390	-76.892	-76.813	-69.119	45.086	-69.135	-8191	255	
619.721	1	1	0	0	0.12182	0.15076	0.11637	0.092507	0.1304	0.12651	0.11327	0.17476	0.066184	0.24495	0.049989	0.19885	0.19636	0.17209	0.064385	0.049862	-2.2042	-3.2625	-2.2083	-3.2583	-2.9021	-2.0062	-3.3479	-2.5542	-2.3333	-3.3	-2.2083	-2.9896	-3.0292	-2.0583	-3.1625	-2.7083	-41.356	147.507	-90.508	199.161	113.575	232.741	164.076	248.826	-16.139	210.778	-31.772	55.454	-9.168	52.589	-38.441	80.571	0.0002428	0.0002692	1.5111e-05	1117	1.7872e-06	2.2388e-06	1207.4	238.79	2.8431e-06	7.0942e-07	301.84	82.516	65.623	18.95	6.3763e-07	26.378	0.0001179	0.00011028	3.1848e-05	1082.9	1.2659e-06	1.2321e-06	1172.7	233.39	1.2892e-06	1.2138e-06	280.33	80.99	62.997	18.789	1.2358e-06	26.204	46.448	43.260	42.912	-90.400	-43.331	85.902	-90.354	-82.878	210.820	-6.081	-83.423	-76.496	-76.433	-68.835	127.040	-69.465	-8191	255	
619.818	1	1	0	0	0.020285	0.21061	0.092936	0.38814	0.19026	0.12216	0.17819	0.39392	0.16561	0.17834	0.22161	0.19233	0.21034	0.20181	0.086749	0.13074	-2.1	-3.4021	-2.2146	-2.8604	-3.1771	-2.2125	-3.375	-2.8167	-2.1937	-3.225	-2.2979	-2.6875	-3.3646	-2.2333	-3.1979	-2.85	-0.374	42.307	-96.955	239.908	2.917	32.516	189.934	186.806	54.186	224.377	-67.717	136.095	90.913	-83.673	119.290	28.323	0.00033134	0.00025037	4.3686e-05	1118.4	4.305e-06	3.0586e-06	1207.8	238.86	3.8235e-06	2.5338e-06	304.35	82.295	65.31	19.029	1.7004e-06	26.582	0.0001219	0.00011398	3.1363e-05	1083.1	1.2513e-06	1.2431e-06	1173.6	233.33	1.2685e-06	1.2215e-06	281.56	80.934	62.801	18.842	1.2324e-06	26.239	58.743	46.447	38.114	-90.429	92.802	82.100	-90.268	-83.190	-49.569	76.006	-83.266	-76.515	-76.233	-68.994	38.658	-69.558	-8191	255	
619.914	1	1	0	0	0.17837	0.19557	0.0218	0.098426	0.13829	0.30035	0.2873	0.15119	0.32789	0.12421	0.077739	0.27842	0.13894	0.16339	0.19739	0.074332	-2.25	-3.3312	-2.3396	-2.7083	-3.4292	-2.1417	-3.1375	-3.0563	-2.1312	-3.1208	-2.5625	-2.5479	-3.3937	-2.1958	-2.8625	-2.9896	-86.072	189.928	234.040	-5.357	-38.776	6.171	215.473	164.702	1.339	242.538	-59.351	218.499	51.960	180.332	245.853	-100.114	0.00021421	0.00016034	7.6545e-05	1119.1	1.6021e-06	1.3181e-06	1204.5	238.75	5.024e-07	2.8147e-06	302.67	82.465	65.758	18.913	3.8616e-06	26.436	0.00012078	0.00011272	3.1368e-05	1084.6	1.2455e-06	1.2265e-06	1172.7	233.66	1.2756e-06	1.1904e-06	280.05	81.089	62.836	18.807	1.231e-06	26.158	74.626	-41.201	-8.935	-90.776	21.417	64.824	-90.445	-83.464	125.199	52.706	-83.708	-76.852	-76.673	-69.270	35.490	-69.927	-8191	255	
620.010	1	1	0	0	0.33546	0.25103	0.075868	0.27948	0.11564	0.21432	0.25496	0.049378	0.13187	0.098898	0.10831	0.21485	0.11903	0.15748	0.2012	0.13495	-1.8813	-3.2938	-2.6354	-2.4938	-3.3354	-2.1458	-3.0208	-3.1958	-2.05	-3.2708	-2.6896	-2.2833	-3.4333	-2.3792	-2.7812	-3.4104	40.520	-56.115	-35.995	241.838	-68.151	7.488	171.347	168.677	-64.209	3.809	66.291	194.872	216.177	-92.951	43.865	243.298	0.00023722	0.00024437	6.325e-05	1115.8	1.305e-06	1.2336e-06	1203.6	238.67	2.2176e-06	1.9946e-06	305.71	82.51	65.545	18.854	5.5465e-07	26.572	0.00012006	0.00011481	3.0995e-05	1082.4	1.2575e-06	1.2576e-06	1172	233.26	1.2803e-06	1.2442e-06	281.13	80.954	62.799	18.77	1.256e-06	26.213	55.674	-25.144	-33.882	-90.575	63.008	-7.086	-90.509	-83.288	145.095	50.730	-84.135	-76.593	-77.193	-68.940	75.108	-69.723	-8191	255	
620.106	1	1	0	0	0.15441	0.1569	0.30081	0.068916	0.089912	0.14934	0.21319	0.32863	0.066034	0.22987	0.1209	0.0096623	0.1949	0.090703	0.18401	0.15141	-1.8979	-3.2667	-2.7229	-2.6417	-3.5208	-2.3292	-2.8958	-3.4333	-2.3396	-3.1104	-2.9083	-2.0896	-3.2896	-2.6104	-2.4958	-3.3979	72.063	37.790	40.233	243.952	167.128	64.089	251.423	210.685	12.365	124.963	156.717	177.802	248.436	-52.730	4.442	130.264	0.00025642	0.0001583	7.5556e-05	1117.2	1.3883e-06	1.3847e-06	1208.8	239.87	1.2333e-06	6.9603e-07	303.37	82.044	64.824	18.904	2.1981e-06	26.49	0.00012017	0.00011124	3.1557e-05	1083.8	1.2503e-06	1.2584e-06	1172.3	233.49	1.3034e-06	1.2439e-06	280.34	80.743	62.559	18.751	1.2196e-06	26.166	94.401	76.546	-50.276	-90.353	88.333	45.330	-90.658	-83.066	3.252	-69.792	-83.284	-76.588	-76.581	-69.174	117.107	-69.583	-8191	255	
620.202	1	1	0	0	0.13452	0.31979	0.19258	0.2167	0.08484	0.16596	0.12746	0.22111	0.32201	0.080823	0.088369	0.1214	0.20059	0.23041	0.13923	0.070359	-1.9583	-3.0146	-2.9667	-2.3208	-3.4062	-2.6375	-2.5917	-3.4562	-2.1896	-3	-3.0958	-2.2979	-3.4896	-2.7854	-2.3208	-3.2125	230.033	-89.396	107.387	-43.422	-23.900	177.226	213.836	178.688	3.404	-93.956	214.696	94.760	-37.506	-63.259	-26.595	177.077	0.00031736	0.00014565	4.356e-05	1112.6	1.7851e-07	4.7098e-06	1207.5	237.08	5.2777e-06	2.1735e-06	305.53	82.517	65.272	18.97	2.1532e-06	26.319	0.00012134	0.00011347	3.201e-05	1082.2	1.2843e-06	1.2689e-06	1173.2	232.98	1.2717e-06	1.2436e-06	280.48	80.953	62.694	18.76	1.257e-06	26.119	80.676	-36.172	-37.212	-90.506	249.730	45.443	-90.578	-83.166	209.565	33.432	-83.648	-76.675	-76.970	-69.106	-1.867	-69.876	-8191	255	
620.323	1	1	0	0	0.21324	0.163	0.10722	0.19468	0.095526	0.13342	0.35287	0.10018	0.3031	0.19647	0.19689	0.068441	0.16364	0.15024	0.27445	0.15791	-2.0667	-2.7979	-3.2583	-2.4042	-3.1479	-2.7667	-2.5146	-3.4021	-2.3937	-2.95	-3.1854	-2.1979	-3.1208	-2.9188	-2.2479	-3.3917	-14.957	14.957	9.311	-84.418	73.428	125.732	247.477	-74.172	60.773	-32.090	-44.272	46.709	-67.005	-90.806	198.176	-79.008	0.00034378	0.00024632	3.0329e-05	1113.6	1.7784e-06	5.4182e-06	1204.1	237.52	3.4778e-06	9.7983e-07	303.45	82.85	65.617	18.905	1.5802e-06	26.369	0.00012123	0.00011252	3.1569e-05	1081.2	1.2865e-06	1.2364e-06	1171.7	233.35	1.2768e-06	1.2145e-06	279.97	81.033	62.782	18.723	1.249e-06	26.153	74.871	56.251	-23.947	-90.393	59.903	7.636	-90.433	-83.433	-20.440	-32.426	-83.629	-77.125	-76.698	-69.441	-76.927	-69.726	-8191	255	
620.417	1	1	0	0	0.11005	0.25695	0.21621	0.28378	0.23731	0.067056	0.28929	0.23087	0.15405	0.099104	0.11003	0.062962	0.12721	0.0087474	0.15004	0.18637	-2.2417	-2.6021	-3.2062	-2.2917	-3.1354	-2.8187	-2.4146	-3.4458	-2.35	-2.5708	-3.4146	-2.1271	-2.8896	-2.9313	-2.0833	-3.2938	125.949	49.614	-75.195	255.968	-16.103	76.752	221.502	54.120	247.253	19.510	216.762	127.761	-90.725	240.700	9.648	133.177	0.00030666	0.00013595	5.9164e-05	1123	4.1238e-06	2.3929e-06	1206.4	238.85	2.0046e-06	4.1888e-06	303.5	82.376	65.307	18.969	2.6921e-06	26.364	0.00012426	0.00011573	3.1962e-05	1084.5	1.2891e-06	1.2524e-06	1172.3	233.42	1.3189e-06	1.2589e-06	281.17	81.034	62.971	18.739	1.3053e-06	26.125	52.495	2.396	-20.689	-90.825	87.015	64.731	-90.396	-83.013	-82.091	44.994	-83.437	-76.842	-77.120	-69.654	1.561	-69.628	-8191	255	
620.491	1	1	0	0	0.12141	0.23296	0.069018	0.045054	0.25091	0.065281	0.37466	0.17397	0.21832	0.15156	0.14301	0.11862	0.36548	0.26345	0.069545	0.1403	-2.2958	-2.55	-3.3083	-2.3063	-3.0417	-2.9229	-2.3604	-3.3833	-2.5625	-2.3042	-3.4688	-2.2167	-2.725	-3.1229	-2.0396	-3.4104	-8.439	-46.240	-48.842	153.546	212.144	142.842	197.561	180.765	89.216	67.370	165.589	198.413	210.743	-36.418	-98.644	-16.600	0.0002275	0.00048768	8.8373e-05	1117.6	6.345e-07	2.7431e-06	1201.1	239.12	4.9389e-06	6.1858e-07	303.32	82.257	65.062	18.89	1.4715e-06	26.557	0.00012264	0.00011839	3.3309e-05	1082.4	1.3279e-06	1.2745e-06	1170.6	233.64	1.3474e-06	1.3098e-06	281.13	80.927	62.74	18.748	1.3316e-06	26.264	60.292	-10.923	-15.000	-90.852	62.349	-54.061	-90.257	-83.136	115.164	95.221	-83.657	-76.833	-76.919	-69.223	73.505	-70.077	-8191	255	
620.587	1	1	0	0	0.029197	0.099426	0.42014	0.34388	0.19556	0.26642	0.035477	0.025678	0.12831	0.19783	0.24965	0.052617	0.27865	0.14423	0.12892	0.059831	-2.5271	-2.2354	-3.2812	-2.3875	-2.7771	-3.2271	-2.2667	-3.2229	-2.7271	-2.2292	-3.4917	-2.5292	-2.7229	-3.3667	-2.2021	-3.2125	28.011	-70.959	9.394	243.451	25.445	-9.070	132.073	119.226	72.774	107.622	172.998	58.560	-7.998	-83.725	239.939	69.444	0.00016821	9.0802e-05	7.3728e-05	1121.9	1.586e-06	2.0294e-06	1209.8	238.86	1.4124e-06	1.5115e-06	303.53	81.887	65.144	19.006	7.4608e-07	26.335	0.00012806	0.00012111	3.3015e-05	1084.8	1.3399e-06	1.2909e-06	1173.7	233.48	1.3569e-06	1.3202e-06	281.1	80.749	62.858	18.829	1.3702e-06	26.147	83.952	-55.157	-36.877	-90.739	52.291	14.103	-90.481	-83.020	255.986	10.531	-83.287	-77.010	-76.974	-69.197	59.068	-69.750	-8191	255	
620.706	1	1	0	0	0.23749	0.22149	0.25045	0.18684	0.26968	0.12713	0.36908	0.14381	0.12555	0.14311	0.11245	0.17013	0.15607	0.3144	0.21141	0.18834	-2.6146	-2.1667	-3.2708	-2.5	-2.6354	-3.1063	-2.3937	-2.9771	-2.9208	-2.2104	-3.5417	-2.5938	-2.4854	-3.5062	-2.3438	-3.0938	51.393	258.644	-6.729	239.986	244.945	124.288	218.394	-93.771	120.809	124.836	-70.425	-64.732	191.158	239.449	6.589	238.701	0.00031915	9.3273e-05	9.1004e-05	1115.8	1.5553e-06	2.0907e-06	1203.9	238.69	6.5544e-06	4.0626e-06	304.26	82.213	65.405	18.993	5.0449e-06	26.424	0.00012872	0.00012478	3.4243e-05	1084	1.3608e-06	1.286e-06	1173.2	233.76	1.3679e-06	1.3573e-06	282.72	80.837	62.921	18.813	1.3617e-06	26.16	67.378	-0.852	-23.880	-90.557	-58.898	110.641	-90.475	-83.054	-58.310	74.438	-83.550	-76.621	-76.694	-68.998	-30.432	-69.616	-8191	255	
620.802	1	1	0	0	0.11983	0.27617	0.20411	0.28242	0.30559	0.064011	0.20933	0.14426	0.07851	0.10549	0.15573	0.18294	0.22395	0.065939	0.15837	0.1197	-2.775	-2.25	-3.2313	-2.8563	-2.4917	-3.4062	-2.5687	-2.9708	-3.0646	-2.0062	-3.2417	-2.8042	-2.3083	-3.4354	-2.275	-2.8646	210.159	107.340	239.132	-89.616	-72.311	-24.750	197.630	-91.880	97.306	-48.197	52.232	116.201	-83.484	-10.669	22.613	-78.589	0.00030964	0.00044246	9.6949e-05	1117.1	1.9857e-06	2.4148e-06	1201.8	238.65	4.9637e-06	3.2705e-06	302.86	82.211	65.48	18.928	3.0982e-06	26.305	0.00012637	0.0001227	3.3787e-05	1084.9	1.3765e-06	1.3286e-06	1170.7	233.83	1.3552e-06	1.338e-06	282.1	80.954	62.845	18.81	1.3522e-06	26.231	69.421	48.193	-26.642	-90.376	-13.013	-8.499	-90.595	-83.333	225.827	96.396	-83.399	-76.965	-76.598	-69.369	17.418	-69.324	-8191	255	
620.898	1	1	0	0	0.18912	0.35002	0.087802	0.13864	0.30516	0.096593	0.11945	0.067491	0.1143	0.2649	0.1032	0.2405	0.09326	0.10902	0.086792	0.14395	-3.2083	-2.1958	-3.0708	-3.0292	-2.2396	-3.3542	-2.4708	-2.6604	-3.2438	-2.0958	-3.2208	-2.8583	-2.2708	-3.1917	-2.375	-2.5458	35.573	205.517	-65.410	154.071	227.964	-12.255	192.643	234.257	-13.351	140.497	14.651	240.077	51.594	-89.197	-88.600	186.160	0.00039525	0.00044274	2.8513e-05	1118.9	3.4831e-07	3.3878e-06	1202.2	239.2	6.2633e-07	4.3068e-06	303.65	82.195	64.838	18.989	3.5368e-06	26.349	0.00012944	0.00012331	3.3405e-05	1084.7	1.3712e-06	1.3495e-06	1173.4	234.12	1.3584e-06	1.3467e-06	281.58	80.908	62.92	18.769	1.3703e-06	26.259	53.323	31.440	2.293	-90.410	86.374	38.748	-90.456	-83.117	44.895	12.817	-83.749	-76.669	-76.470	-69.262	31.789	-70.068	-8191	255	
621.019	1	1	0	0	0.1507	0.15969	0.18982	0.26429	0.17342	0.11005	0.076705	0.0485	0.12082	0.098203	0.17698	0.20867	0.17525	0.12215	0.25539	0.21516	-2.8667	-2.1208	-3.175	-3.1063	-2.2104	-3.1375	-2.7479	-2.5792	-3.1813	-2.2646	-3.0646	-3.0104	-2.1917	-3.1646	-2.7333	-2.3396	-45.626	156.088	108.351	187.056	29.280	243.669	180.833	209.652	167.511	253.611	-53.405	89.853	25.072	247.311	49.706	62.720	0.00035358	0.00029347	3.2903e-05	1121	2.5851e-06	1.689e-06	1207	239.23	3.3464e-06	2.4127e-06	302.58	82.18	65.47	19.102	2.378e-06	26.529	0.0001272	0.00012413	3.3791e-05	1083.9	1.3891e-06	1.3428e-06	1173.9	233.88	1.3834e-06	1.3802e-06	282.37	80.849	63.048	18.868	1.3721e-06	26.289	67.916	14.731	-64.166	-90.575	95.906	-15.508	-90.605	-83.239	251.940	41.115	-83.187	-77.029	-76.789	-69.186	254.198	-69.805	-8191	255	
621.115	1	1	0	0	0.1402	0.16062	0.080009	0.1079	0.19672	0.23947	0.22986	0.038104	0.1247	0.12048	0.31993	0.066109	0.15496	0.057473	0.15779	0.19609	-3.1646	-2.3042	-2.9583	-3.0854	-2.1229	-3.3271	-2.8021	-2.4396	-3.4021	-2.1771	-2.7542	-3.2896	-2.2938	-3.4917	-2.6875	-2.3042	158.426	155.578	116.502	247.970	181.425	204.296	236.066	-26.869	-42.847	2.595	163.148	210.312	208.436	-71.748	-22.223	88.705	0.00022639	0.00029956	5.1705e-05	1115.8	4.1099e-06	1.5879e-06	1203.3	239.76	4.153e-06	1.8525e-06	302.33	82.357	65.577	19.028	1.9387e-06	26.479	0.00013149	0.00012465	3.4317e-05	1083.9	1.4034e-06	1.3747e-06	1173.2	234.03	1.4004e-06	1.3681e-06	282.46	81.021	63.06	18.84	1.3629e-06	26.258	71.311	1.565	1.972	-90.677	100.004	97.890	-90.378	-83.231	-99.500	44.055	-83.776	-77.074	-76.884	-69.179	95.478	-69.704	-8191	255	
621.186	1	1	0	0	0.098377	0.24112	0.084013	0.12506	0.092057	0.071735	0.18771	0.33633	0.1818	0.061047	0.21145	0.16264	0.18475	0.19088	0.13355	0.32336	-3.0417	-2.2479	-2.5833	-3.2146	-2.2583	-3.2708	-3.0083	-2.2479	-3.3229	-2.4917	-2.5667	-3.2104	-2.2167	-3.1208	-3.1042	-2.2438	19.344	-48.740	-20.628	149.258	193.831	174.399	244.756	237.182	47.834	100.825	84.030	100.812	223.951	254.575	88.487	196.139	0.00031441	6.6225e-05	8.166e-05	1118.6	3.4259e-06	3.9032e-06	1201.2	238.97	4.6246e-06	4.64e-06	305.21	82.318	64.593	18.969	7.8486e-07	26.383	0.00013116	0.00012508	3.4462e-05	1084.7	1.3668e-06	1.3502e-06	1173.6	233.72	1.3866e-06	1.3483e-06	282.48	80.96	62.845	18.794	1.328e-06	26.216	82.943	-45.176	-29.866	-90.643	-32.738	29.373	-90.524	-83.351	-25.454	75.771	-83.494	-77.022	-77.075	-69.285	-92.735	-69.579	-8191	255	
621.307	1	1	0	0	0.14006	0.18532	0.29845	0.20465	0.16659	0.25369	0.036345	0.12623	0.17231	0.06202	0.11914	0.11536	0.16364	0.31022	0.14697	0.31971	-2.9583	-2.6813	-2.4562	-3.6583	-2.3958	-2.9583	-3.2896	-2.3104	-3.3958	-2.6708	-2.4208	-3.575	-2.3042	-2.8646	-3.2458	-2.25	168.239	-54.046	199.807	227.680	117.536	47.873	-13.119	246.835	68.299	-18.089	110.741	28.840	186.130	178.422	-89.288	173.046	0.00032965	0.0004003	8.5404e-05	1123.1	1.2724e-06	6.376e-06	1205.8	239.5	3.1024e-06	3.1955e-06	302.31	82.265	65.285	19.055	1.0363e-06	26.599	0.00013013	0.00012512	3.5219e-05	1086.6	1.4031e-06	1.3717e-06	1174.9	233.97	1.398e-06	1.3545e-06	282.45	81.085	62.941	18.887	1.3828e-06	26.25	72.604	-33.558	-78.251	-90.652	-50.157	59.773	-90.566	-83.130	-71.727	79.583	-83.821	-77.117	-77.096	-68.990	75.227	-69.845	-8191	255	
621.403	1	1	0	0	0.043458	0.029516	0.27847	0.27743	0.24329	0.11417	0.30115	0.21908	0.22077	0.080698	0.084512	0.15802	0.23074	0.15794	0.18854	0.26562	-2.9292	-2.7687	-2.4188	-3.6104	-2.3208	-2.7396	-3.4125	-2.2458	-3.15	-2.8688	-2.2979	-3.4583	-2.4042	-2.7729	-3.1292	-2.3208	207.213	68.299	80.854	189.947	62.247	211.545	183.972	196.931	-95.538	94.122	-70.797	208.968	-19.173	-82.447	221.505	190.955	0.00023994	0.00034796	3.7457e-05	1116.9	9.7925e-07	2.7397e-06	1207.6	239.23	3.29e-06	2.2801e-06	306.63	82.858	65.85	19.01	2.835e-06	26.447	0.00013265	0.00012765	3.5424e-05	1085.4	1.4056e-06	1.3866e-06	1175.4	234.12	1.3876e-06	1.3689e-06	283.24	81.173	63.107	18.828	1.3675e-06	26.265	74.157	-37.162	3.693	-90.418	-14.859	11.134	-90.821	-83.470	-7.738	1.964	-83.444	-76.864	-76.762	-69.193	24.508	-69.414	-8191	255	
621.498	1	1	0	0	0.30487	0.081033	0.027022	0.17949	0.17761	0.17764	0.14289	0.15143	0.32165	0.12942	0.20563	0.0789	0.15834	0.20254	0.1284	0.074647	-2.7771	-2.9333	-2.0875	-3.5354	-2.3729	-2.3708	-3.6063	-2.3958	-2.8771	-2.9896	-2.2375	-3.3417	-2.6333	-2.6312	-3.3042	-2.4125	-45.064	168.650	173.232	-92.851	59.230	184.557	218.914	104.748	130.461	38.906	91.671	-28.486	94.632	141.213	-41.710	18.129	0.00025384	0.00029388	0.00012808	1121.9	3.3794e-07	3.3128e-06	1211.3	239.98	4.5906e-06	2.7978e-06	303.49	82.895	64.887	19.074	4.4286e-06	26.521	0.00013208	0.00012446	3.5842e-05	1087.5	1.4467e-06	1.37e-06	1176.1	234.1	1.3741e-06	1.3452e-06	282.66	81.265	63.13	18.854	1.4029e-06	26.295	39.055	-9.435	-20.806	-90.439	-73.934	232.544	-90.385	-83.244	140.269	53.107	-83.559	-76.765	-76.788	-69.229	45.284	-69.850	-8191	255	
621.618	1	1	0	0	0.15807	0.12608	0.22629	0.21499	0.18222	0.3406	0.11178	0.22426	0.23059	0.17478	0.012332	0.23856	0.11826	0.10098	0.077491	0.21147	-2.6833	-3.0187	-2.1354	-3.4625	-2.5854	-2.7	-3.5479	-2.4292	-2.9708	-2.9813	-2.275	-3.2375	-2.7938	-2.3937	-3.3854	-2.3187	233.764	121.144	-45.474	255.456	-99.933	225.526	255.503	-76.480	57.603	32.903	-5.378	122.440	222.386	114.247	205.918	242.877	0.00016525	0.00023275	2.6369e-05	1118.3	4.8468e-06	3.9772e-06	1210	239.61	1.5359e-06	2.0023e-06	301.72	82.845	64.942	18.989	5.1583e-06	26.562	0.00013201	0.00012701	3.4608e-05	1087.6	1.3998e-06	1.3816e-06	1177.1	234.28	1.3911e-06	1.3552e-06	282.33	81.381	62.953	18.869	1.3717e-06	26.281	73.917	27.008	243.678	-90.635	31.407	15.493	-90.360	-83.259	-56.456	32.411	-84.046	-76.897	-77.470	-68.808	60.239	-69.729	-8191	255	
621.714	1	1	0	0	0.089359	0.024174	0.16997	0.10009	0.099281	0.069517	0.2955	0.20207	0.096006	0.2938	0.11406	0.14376	0.2832	0.22102	0.077058	0.1376	-2.5062	-3.1604	-2.1917	-3.3937	-2.7792	-2.5083	-3.5708	-2.575	-2.6625	-3.325	-2.0208	-3.0104	-2.9583	-2.2729	-3.4042	-2.5542	19.130	-20.274	-75.520	197.383	-45.976	232.948	128.746	152.880	0.436	124.139	78.137	182.159	-2.959	-59.497	206.787	194.333	0.00018591	0.00018373	9.154e-05	1120.9	3.4911e-06	4.3246e-06	1208.6	239.82	4.9072e-06	3.6771e-06	308.54	83.041	65.76	19.05	2.025e-06	26.406	0.00013017	0.00012311	3.4907e-05	1088.3	1.3796e-06	1.369e-06	1176.8	234.18	1.3869e-06	1.3517e-06	283.23	81.29	63.143	18.891	1.3499e-06	26.264	61.087	-22.852	-12.944	-90.470	29.058	-18.734	-90.453	-83.202	-96.551	56.747	-83.677	-76.828	-76.502	-69.463	93.539	-69.641	-8191	255	
621.786	1	1	0	0	0.19394	0.2023	0.21656	0.22401	0.2619	0.093916	0.23866	0.1867	0.10398	0.09642	0.2081	0.33513	0.11798	0.091331	0.22476	0.12486	-2.1958	-3.4104	-2.2333	-3.1604	-2.9979	-2.2938	-3.4667	-2.6188	-2.5708	-3.2917	-2.1708	-2.8521	-3.1688	-2.175	-3.1	-2.5438	207.286	-71.379	156.492	189.707	47.614	71.581	213.236	240.805	-48.331	-81.943	121.499	169.493	109.755	251.671	94.990	174.817	0.00034715	0.00029522	7.0428e-05	1118.1	1.5138e-06	2.8902e-06	1213.7	240.17	2.0009e-06	1.8004e-06	306.71	82.711	65.969	19.142	1.7616e-06	26.552	0.00013228	0.00012527	3.4481e-05	1088.3	1.3935e-06	1.3535e-06	1178.4	234.63	1.3793e-06	1.3172e-06	283.39	81.307	63.236	18.913	1.3351e-06	26.261	69.883	9.885	-70.682	-90.521	89.532	98.601	-90.285	-83.250	41.051	-81.736	-83.860	-76.723	-76.747	-69.316	-99.134	-69.819	-8191	255	
621.882	1	1	0	0	0.075915	0.13496	0.075869	0.23068	0.12835	0.21537	0.20111	0.2602	0.054223	0.06159	0.23794	0.23316	0.096814	0.24233	0.065562	0.40728	-2.1437	-3.5	-2.3083	-2.8604	-3.1	-2.1813	-3.5042	-2.7062	-2.2625	-3.3146	-2.2979	-2.7687	-3.1896	-2.1312	-3.2188	-2.9458	158.676	-25.854	15.902	257.833	207.124	244.932	187.153	230.435	149.358	1.423	123.938	149.974	47.308	15.102	2.074	145.733	0.00031912	0.00019906	5.2442e-05	1125.7	1.314e-06	1.5382e-06	1207.4	239.81	1.4248e-06	6.4614e-06	304.75	82.612	65.402	18.945	3.3331e-06	26.502	0.00012841	0.00012277	3.5152e-05	1088.5	1.4022e-06	1.3711e-06	1175.7	234.27	1.3722e-06	1.3297e-06	282.5	81.197	63.121	18.917	1.3492e-06	26.223	59.996	-37.232	-1.851	-90.195	43.593	-26.786	-90.395	-83.399	83.678	32.788	-83.161	-76.819	-76.846	-68.975	-32.564	-69.633	-8191	255	
622.003	1	1	0	0	0.18406	0.027316	0.076615	0.13779	0.035787	0.18263	0.20835	0.12159	0.12885	0.069452	0.18611	0.22741	0.11272	0.18536	0.22205	0.09883	-1.8958	-3.3083	-2.5896	-2.6729	-3.2292	-2.1979	-3.2	-3.0542	-2.2938	-3.4	-2.4646	-2.6521	-3.1979	-2.2667	-2.9542	-2.9354	-79.882	-78.513	59.028	-83.013	-13.337	141.233	161.850	77.480	198.097	140.641	156.989	135.921	-35.806	200.249	21.532	191.785	0.00035892	0.00028302	0.00011987	1124.5	3.1061e-06	6.0809e-06	1213.3	239.24	3.5217e-06	2.9765e-06	303.84	82.401	64.769	18.992	3.3584e-06	26.468	0.0001311	0.00012574	3.4717e-05	1089.1	1.3831e-06	1.3722e-06	1177.7	233.95	1.3671e-06	1.3326e-06	282.45	81.079	62.792	18.866	1.3315e-06	26.266	63.377	41.624	-40.698	-90.170	-21.278	43.706	-90.455	-83.304	19.069	40.458	-83.854	-76.586	-76.629	-68.962	26.815	-69.264	-8191	255	
#DATA ENDS
