BOXY.EXE: ISS Imagent and Oximeter Data Acquisition Program Version 0.80
Ascii Record File

#ACQ INFORMATION
2  Detector Channels 
16  External MUX Channels 
1  Auxiliary Channels 
5000  Waveform (CCF) Frequency (Hz)
1  Waveforms Skipped 
30  Waveforms Averaged 
1  Cycles Averaged 
16  Acquisitions per Waveform 
10.0806  Updata Rate (Hz) 

#FILE INFORMATION
TRUE -- External MUX Channel results are PARSED.
FALSE -- AC DC and Phase are NOT grouped.
TRUE -- Companion Program Settings File CREATED.
FALSE -- AC data not excluded
FALSE -- DC data not excluded
FALSE -- Phase data not excluded
FALSE -- Auxillary Chn. data not excluded
Tab delimiters

#CALIBRATION STATE
TRUE -- Waveform Calibration Values APPLIED.


#AUX CALIBRATION VALUES
Val Type	aux-1	

Term	1.0000e+00	
Factor	0.0000e+00	


#WF CALIBRATION VALUES
A = Detector Channel
Val Type	A-AC1	A-AC2	A-AC3	A-AC4	A-AC5	A-AC6	A-AC7	A-AC8	A-AC9	A-AC10	A-AC11	A-AC12	A-AC13	A-AC14	A-AC15	A-AC16	A-DC1	A-DC2	A-DC3	A-DC4	A-DC5	A-DC6	A-DC7	A-DC8	A-DC9	A-DC10	A-DC11	A-DC12	A-DC13	A-DC14	A-DC15	A-DC16	A-Ph1	A-Ph2	A-Ph3	A-Ph4	A-Ph5	A-Ph6	A-Ph7	A-Ph8	A-Ph9	A-Ph10	A-Ph11	A-Ph12	A-Ph13	A-Ph14	A-Ph15	A-Ph16	

Term	0.00000e+00	0.00000e+00	0.00000e+00	0.00000e+00	0.00000e+00	0.00000e+00	0.00000e+00	0.00000e+00	0.00000e+00	0.00000e+00	0.00000e+00	0.00000e+00	0.00000e+00	0.00000e+00	0.00000e+00	0.00000e+00	0.00000e+00	0.00000e+00	0.00000e+00	0.00000e+00	0.00000e+00	0.00000e+00	0.00000e+00	0.00000e+00	0.00000e+00	0.00000e+00	0.00000e+00	0.00000e+00	0.00000e+00	0.00000e+00	0.00000e+00	0.00000e+00	0.00000e+00	0.00000e+00	0.00000e+00	0.00000e+00	0.00000e+00	0.00000e+00	0.00000e+00	0.00000e+00	0.00000e+00	0.00000e+00	0.00000e+00	0.00000e+00	0.00000e+00	0.00000e+00	0.00000e+00	0.00000e+00	
Factor	1.00000e+00	1.00000e+00	1.00000e+00	1.00000e+00	1.00000e+00	1.00000e+00	1.00000e+00	1.00000e+00	1.00000e+00	1.00000e+00	1.00000e+00	1.00000e+00	1.00000e+00	1.00000e+00	1.00000e+00	1.00000e+00	1.00000e+00	1.00000e+00	1.00000e+00	1.00000e+00	1.00000e+00	1.00000e+00	1.00000e+00	1.00000e+00	1.00000e+00	1.00000e+00	1.00000e+00	1.00000e+00	1.00000e+00	1.00000e+00	1.00000e+00	1.00000e+00	X	X	X	X	X	X	X	X	X	X	X	X	X	X	X	X	

B = Detector Channel
Val Type	B-AC1	B-AC2	B-AC3	B-AC4	B-AC5	B-AC6	B-AC7	B-AC8	B-AC9	B-AC10	B-AC11	B-AC12	B-AC13	B-AC14	B-AC15	B-AC16	B-DC1	B-DC2	B-DC3	B-DC4	B-DC5	B-DC6	B-DC7	B-DC8	B-DC9	B-DC10	B-DC11	B-DC12	B-DC13	B-DC14	B-DC15	B-DC16	B-Ph1	B-Ph2	B-Ph3	B-Ph4	B-Ph5	B-Ph6	B-Ph7	B-Ph8	B-Ph9	B-Ph10	B-Ph11	B-Ph12	B-Ph13	B-Ph14	B-Ph15	B-Ph16	

Term	0.00000e+00	0.00000e+00	0.00000e+00	0.00000e+00	0.00000e+00	0.00000e+00	0.00000e+00	0.00000e+00	0.00000e+00	0.00000e+00	0.00000e+00	0.00000e+00	0.00000e+00	0.00000e+00	0.00000e+00	0.00000e+00	0.00000e+00	0.00000e+00	0.00000e+00	0.00000e+00	0.00000e+00	0.00000e+00	0.00000e+00	0.00000e+00	0.00000e+00	0.00000e+00	0.00000e+00	0.00000e+00	0.00000e+00	0.00000e+00	0.00000e+00	0.00000e+00	-2.60428e+02	-1.10120e+02	-1.35771e+02	-1.82358e+02	-8.82290e+01	-8.01576e+01	-1.56915e+02	-1.62015e+02	-1.40806e+02	-6.49328e+01	-1.82532e+02	-1.70017e+02	-1.83467e+02	-1.76494e+02	-8.40987e+01	-1.49052e+02	
Factor	5.47524e-05	1.28517e-04	3.34994e-05	1.65911e-01	1.40518e-06	1.31051e-06	1.63629e-01	5.02796e-02	1.91554e-06	1.41169e-06	2.54980e-01	2.65488e-02	4.71564e-02	8.70794e-03	1.47822e-06	1.22069e-02	1.50795e-06	1.56019e-06	4.34946e-07	8.49721e-02	1.70309e-08	1.70813e-08	7.89962e-02	2.58188e-02	1.70192e-08	1.70604e-08	1.17178e-01	1.31686e-02	2.32700e-02	4.46970e-03	1.70381e-08	6.05392e-03	X	X	X	X	X	X	X	X	X	X	X	X	X	X	X	X	



#DISTANCE SETTINGS
A = Detector Channel
A-1	A-2	A-3	A-4	A-5	A-6	A-7	A-8	A-9	A-10	A-11	A-12	A-13	A-14	A-15	A-16	

2.5000e+00	3.0000e+00	2.5000e+00	3.0000e+00	2.0000e+00	3.0000e+00	1.5000e+00	3.0000e+00	3.0000e+00	3.0000e+00	3.0000e+00	3.0000e+00	3.0000e+00	3.0000e+00	1.5000e+00	3.0000e+00	

B = Detector Channel
B-1	B-2	B-3	B-4	B-5	B-6	B-7	B-8	B-9	B-10	B-11	B-12	B-13	B-14	B-15	B-16	

1.0000e+01	1.0000e+01	1.0000e+01	1.4400e+00	1.0000e+01	1.0000e+01	1.5100e+00	1.9400e+00	1.0000e+01	1.0000e+01	1.9900e+00	2.4900e+00	2.4100e+00	2.9000e+00	1.0000e+01	2.9800e+00	




#DATA BEGINS
time	group	step	mark	flag	A-AC1	A-AC2	A-AC3	A-AC4	A-AC5	A-AC6	A-AC7	A-AC8	A-AC9	A-AC10	A-AC11	A-AC12	A-AC13	A-AC14	A-AC15	A-AC16	A-DC1	A-DC2	A-DC3	A-DC4	A-DC5	A-DC6	A-DC7	A-DC8	A-DC9	A-DC10	A-DC11	A-DC12	A-DC13	A-DC14	A-DC15	A-DC16	A-Ph1	A-Ph2	A-Ph3	A-Ph4	A-Ph5	A-Ph6	A-Ph7	A-Ph8	A-Ph9	A-Ph10	A-Ph11	A-Ph12	A-Ph13	A-Ph14	A-Ph15	A-Ph16	B-AC1	B-AC2	B-AC3	B-AC4	B-AC5	B-AC6	B-AC7	B-AC8	B-AC9	B-AC10	B-AC11	B-AC12	B-AC13	B-AC14	B-AC15	B-AC16	B-DC1	B-DC2	B-DC3	B-DC4	B-DC5	B-DC6	B-DC7	B-DC8	B-DC9	B-DC10	B-DC11	B-DC12	B-DC13	B-DC14	B-DC15	B-DC16	B-Ph1	B-Ph2	B-Ph3	B-Ph4	B-Ph5	B-Ph6	B-Ph7	B-Ph8	B-Ph9	B-Ph10	B-Ph11	B-Ph12	B-Ph13	B-Ph14	B-Ph15	B-Ph16	aux-1	digaux	

570.695	1	1	0	768	0.17084	0.28366	0.15128	0.11707	0.21287	0.05971	0.10206	0.12644	0.11629	0.19586	0.11609	0.11975	0.1827	0.2269	0.12756	0.17251	-1.7625	-2.9875	-3.1479	-2.5062	-3.2708	-2.8375	-2.6104	-3.575	-2.4208	-2.9958	-3.4146	-2.3646	-3.2354	-3.0667	-2.3937	-3.6813	81.669	0.426	-30.048	247.477	71.830	247.041	110.121	30.630	15.554	-76.581	191.265	121.612	-56.585	12.265	50.688	-58.558	0.00034934	0.00032413	3.8917e-05	1035.1	1.3847e-06	6.375e-06	1122.2	203.42	6.6908e-06	4.8671e-06	265.47	71.463	56.119	16.383	1.7498e-06	23.055	0.0001799	0.00017647	4.9181e-05	1006.5	1.9876e-06	1.9188e-06	1095.7	200.54	1.958e-06	1.9241e-06	249.01	71.084	55.378	16.476	1.9431e-06	23.165	60.671	54.895	23.044	-91.437	58.783	72.037	-91.514	-83.652	-52.710	124.487	-83.805	-77.447	-77.525	-69.548	162.416	-70.571	-8191	255	
570.791	1	1	0	0	0.2473	0.090268	0.198	0.092791	0.10197	0.081147	0.1367	0.22059	0.10255	0.13467	0.1231	0.13604	0.23105	0.10249	0.042923	0.12736	-2.1063	-2.8875	-3.3729	-2.7	-3.0958	-2.9354	-2.4583	-3.4917	-2.4667	-2.6271	-3.3812	-2.4188	-3.3438	-3.1271	-2.2042	-3.4271	-11.953	-21.959	106.934	-64.295	227.730	170.554	181.278	-80.640	-79.276	24.830	21.794	-32.338	11.042	196.183	-84.567	-68.932	0.00037035	0.00028697	6.4e-05	1032.8	3.9949e-06	2.1951e-06	1119.7	203.74	3.7994e-06	2.8209e-06	265.79	71.611	56.244	16.409	3.2231e-06	23.192	0.00018144	0.00017901	4.8255e-05	1006.2	1.9554e-06	1.9153e-06	1096.2	200.37	1.9368e-06	1.932e-06	250.15	71.247	55.34	16.47	1.9322e-06	23.219	64.258	-83.211	19.542	-91.565	77.926	21.666	-91.508	-84.132	34.494	17.640	-84.602	-78.003	-77.389	-69.723	29.521	-70.114	-8191	255	
570.888	1	1	0	0	0.19786	0.11958	0.098217	0.26432	0.27081	0.25652	0.27451	0.16901	0.068934	0.25654	0.071339	0.23602	0.28531	0.11816	0.26317	0.081777	-2.4417	-2.6042	-3.4938	-2.4042	-3.0646	-3.1	-2.5583	-3.6437	-2.7375	-2.6333	-3.2979	-2.4625	-3.0083	-3.2771	-2.4062	-3.2833	141.039	181.962	168.119	-62.078	-22.100	184.071	164.284	214.532	-13.914	23.607	-71.417	225.477	227.504	164.802	-8.205	44.184	0.00033603	0.00020829	5.4622e-05	1029.5	3.2774e-06	2.0677e-06	1120.9	203.44	4.5801e-06	2.1847e-07	262.36	71.332	56.48	16.34	1.8767e-06	23.069	0.00017593	0.00017608	4.8141e-05	1004.7	1.9216e-06	1.8733e-06	1095.3	200.26	1.9134e-06	1.8831e-06	248.75	71.092	55.347	16.478	1.8945e-06	23.128	88.404	10.945	75.640	-91.492	63.412	46.710	-91.807	-83.957	59.778	104.309	-84.160	-77.531	-77.448	-69.739	-81.507	-70.538	-8191	255	
570.984	1	1	0	0	0.18619	0.15706	0.16888	0.2755	0.10442	0.04845	0.10868	0.18937	0.056083	0.19939	0.22207	0.018227	0.21318	0.19852	0.22449	0.12087	-2.4792	-2.3792	-3.5687	-2.6354	-2.8792	-3.2667	-2.6063	-3.4813	-2.8146	-2.4583	-3.4583	-2.55	-2.5396	-3.3292	-2.1813	-3.2771	227.642	141.304	-53.550	237.958	-74.537	-83.767	195.636	248.222	45.679	146.736	234.779	-14.035	10.494	237.276	217.231	108.910	0.00025511	0.00025555	4.9863e-05	1036.9	6.3739e-07	2.9937e-06	1123.6	204.7	6.7097e-06	2.7036e-06	260.39	71.898	56.378	16.471	3.7163e-06	23.094	0.00017638	0.00017376	4.907e-05	1006.2	1.9196e-06	1.8644e-06	1094.9	200.33	1.8962e-06	1.8855e-06	248.22	71.254	55.243	16.487	1.8672e-06	23.156	57.056	28.813	-64.541	-91.590	55.834	94.932	-91.404	-83.790	253.551	92.656	-84.164	-77.184	-77.232	-69.676	9.395	-69.895	-8191	255	
571.080	1	1	0	0	0.10639	0.14202	0.037424	0.15798	0.25429	0.088033	0.14025	0.055084	0.14734	0.27366	0.18641	0.17613	0.15554	0.15222	0.31876	0.084733	-2.7229	-2.4146	-3.2958	-2.7062	-2.675	-3.4562	-2.5646	-3.1042	-3.1063	-2.3979	-3.6542	-2.7	-2.4667	-3.4062	-2.2771	-3.0271	116.521	-78.155	-73.267	185.485	138.021	243.317	110.769	-82.254	83.260	-48.259	242.081	194.400	-39.891	-9.446	89.452	122.905	0.00022549	0.00015552	4.5895e-05	1031.3	2.9633e-06	4.508e-06	1119.7	201.85	5.0845e-06	1.9601e-06	262.41	71.609	56.147	16.522	1.7812e-06	23.108	0.00017331	0.00016882	4.7307e-05	1002.7	1.9038e-06	1.8175e-06	1093	199.88	1.8236e-06	1.8286e-06	247.98	71.109	55.12	16.457	1.8119e-06	23.167	54.952	29.103	17.645	-91.561	-85.419	27.600	-91.616	-83.813	-37.428	0.540	-84.735	-77.279	-77.498	-69.493	-0.337	-70.459	-8191	255	
571.176	1	1	0	0	0.029402	0.28318	0.21813	0.20156	0.24704	0.040625	0.20084	0.3642	0.13031	0.15087	0.26753	0.16952	0.13813	0.23796	0.24203	0.32863	-2.8792	-2.1937	-3.2417	-2.8521	-2.4229	-3.3896	-2.6854	-2.9854	-3.3479	-2.0375	-3.1125	-3.0229	-2.3833	-3.1146	-2.5083	-2.7042	-32.953	58.635	-8.469	173.074	243.852	-10.158	235.751	161.322	-88.598	169.419	232.891	124.188	256.229	143.947	82.272	161.672	0.00041328	0.00027765	1.6642e-05	1029.5	5.3444e-06	1.8452e-06	1117	202.36	1.9894e-06	1.0073e-06	261.39	72.349	55.933	16.47	8.4846e-07	23.351	0.00017176	0.00016508	4.7142e-05	1003.8	1.8624e-06	1.8325e-06	1092.9	199.95	1.8325e-06	1.8592e-06	248.5	71.314	55.035	16.462	1.8523e-06	23.203	58.230	1.617	81.007	-91.640	-55.979	41.968	-91.440	-83.613	-43.527	57.462	-84.241	-77.580	-77.278	-69.442	-56.981	-69.770	-8191	255	
571.297	1	1	0	0	0.34317	0.13548	0.054462	0.090134	0.26864	0.13734	0.13765	0.083131	0.16838	0.23938	0.15091	0.1897	0.2333	0.22371	0.13562	0.068074	-3.0938	-2.2125	-3.1771	-3.0792	-2.4229	-3.2833	-2.7396	-2.6979	-3.3583	-2.1375	-3.1583	-2.9083	-2.4271	-3.4813	-2.6188	-2.6854	110.174	62.984	120.989	219.004	-72.254	208.833	189.936	62.963	110.089	254.008	148.415	150.233	182.136	116.532	249.963	52.876	0.00042332	0.0002559	7.2248e-05	1032.9	9.0734e-07	7.1679e-07	1122.9	202.96	2.6626e-06	6.9525e-07	265.11	71.132	55.809	16.347	5.606e-06	23.365	0.00017022	0.00016494	4.6149e-05	1004.9	1.8519e-06	1.8035e-06	1093.5	200.01	1.787e-06	1.8128e-06	248.68	70.986	55.049	16.484	1.8284e-06	23.262	41.142	-22.076	-0.181	-91.516	50.373	1.992	-91.480	-83.536	-35.069	112.149	-84.107	-77.207	-76.935	-69.346	5.969	-70.162	-8191	255	
571.391	1	1	0	0	0.16395	0.10209	0.13375	0.12027	0.2402	0.070856	0.13242	0.084784	0.15392	0.066506	0.085451	0.11607	0.17402	0.06709	0.21125	0.17609	-3.0687	-2.1458	-3.1417	-3.3542	-2.2042	-3.4208	-2.8729	-2.7354	-3.4542	-2.4938	-2.9146	-3.2708	-2.3792	-3.2417	-2.7083	-2.3104	-87.802	154.698	53.628	-100.952	185.048	201.618	-66.173	-27.520	-34.000	35.522	-12.423	-90.678	232.662	46.911	140.505	90.719	0.00022213	0.00031425	6.4871e-05	1033.2	6.1342e-06	3.9083e-06	1118.9	203.43	5.9353e-06	1.6189e-06	264.19	71.737	55.717	16.549	2.1812e-06	23.235	0.00016647	0.00016991	4.7126e-05	1004.8	1.913e-06	1.84e-06	1094.8	199.89	1.8434e-06	1.8704e-06	248.22	71.179	55.221	16.535	1.8859e-06	23.223	45.657	95.802	4.386	-91.303	9.432	81.618	-91.358	-83.404	-34.989	-50.157	-84.314	-77.330	-77.216	-69.952	-87.400	-69.970	-8191	255	
571.487	1	1	0	0	0.33574	0.027911	0.084655	0.13463	0.065712	0.051016	0.45895	0.07911	0.20239	0.1181	0.10586	0.19499	0.22988	0.063323	0.073419	0.089254	-3.2875	-2.3208	-2.9292	-3.3167	-2.2792	-3.3229	-3.0896	-2.5187	-3.1792	-2.3563	-2.85	-3.2208	-2.1937	-3.2083	-2.7917	-2.3625	235.731	178.881	183.221	237.818	164.719	7.443	191.055	90.719	54.589	-15.161	42.057	-56.590	40.177	168.162	178.103	-54.855	0.00014974	7.3382e-05	4.5869e-05	1029	2.6643e-06	3.281e-06	1122.9	201.95	2.5066e-06	4.2961e-06	264	71.311	56.075	16.429	2.4808e-06	23.201	0.00017431	0.00017322	4.7515e-05	1003.2	1.9316e-06	1.8821e-06	1094.4	199.84	1.8932e-06	1.8584e-06	249.55	71.1	55.276	16.51	1.9204e-06	23.269	88.771	67.302	69.905	-91.433	-97.643	113.955	-91.490	-83.861	-3.334	74.603	-83.817	-77.026	-77.326	-69.598	-53.466	-69.894	-8191	255	
571.583	1	1	0	0	0.13912	0.19727	0.13907	0.13809	0.22986	0.20045	0.18359	0.2485	0.15383	0.12295	0.11384	0.053465	0.12421	0.12186	0.08127	0.18208	-3.0979	-2.4458	-2.5833	-3.5354	-2.25	-3.175	-3.2521	-2.2313	-3.2417	-2.6188	-2.4854	-3.4729	-2.2062	-3.0042	-3.0833	-2.2438	-60.306	7.283	-48.127	3.476	89.911	-24.148	224.464	203.699	150.042	-6.492	243.876	208.245	-52.387	38.576	181.387	-0.982	9.6591e-05	0.00034886	4.8041e-05	1030.6	3.8089e-06	2.2382e-06	1120.5	203.58	2.5562e-06	1.0506e-06	261.24	72.092	56.078	16.425	3.7256e-06	23.229	0.00018067	0.00017894	4.9521e-05	1005.5	1.9593e-06	1.8943e-06	1095.6	200.44	1.9018e-06	1.9279e-06	249.14	71.412	55.242	16.515	1.8674e-06	23.255	89.684	-13.037	-35.388	-91.366	4.031	42.220	-91.437	-83.942	-50.998	172.816	-84.282	-77.465	-77.549	-69.282	-38.341	-70.197	-8191	255	
571.680	1	1	0	0	0.3387	0.19557	0.22398	0.19522	0.26754	0.046967	0.01648	0.1196	0.32657	0.2442	0.24232	0.12877	0.16439	0.13374	0.24583	0.15799	-3.1312	-2.7208	-2.4604	-3.4292	-2.2542	-3.1146	-3.35	-2.475	-3.4229	-2.7583	-2.5438	-3.4375	-2.4729	-2.6896	-3.2604	-2.1146	34.509	129.653	223.011	242.184	-89.744	123.184	-68.389	109.127	39.811	64.384	233.277	-37.199	228.124	157.819	238.723	-95.807	0.00025621	9.8334e-05	5.737e-05	1030.4	3.4665e-06	6.0003e-07	1127	202.64	4.1144e-06	4.3106e-06	262.39	71.228	56.478	16.439	2.1383e-06	23.219	0.00017496	0.00017519	4.895e-05	1006.4	1.9197e-06	1.8857e-06	1098	199.97	1.9511e-06	1.9111e-06	249.81	71.289	55.447	16.54	1.9003e-06	23.311	74.853	19.690	24.363	-91.539	-32.319	48.487	-91.436	-83.649	131.171	77.402	-83.920	-77.517	-77.239	-69.879	-82.747	-70.538	-8191	255	
571.776	1	1	0	0	0.036853	0.077478	0.21179	0.16476	0.14527	0.14416	0.12175	0.19246	0.096036	0.31871	0.056509	0.21663	0.068398	0.067395	0.21966	0.038817	-3.0062	-2.9083	-2.4021	-3.4771	-2.4521	-2.9188	-3.5438	-2.4229	-3.0625	-3.0104	-2.4271	-3.4917	-2.5979	-2.7708	-3.4437	-2.2958	124.996	120.962	-99.785	133.440	239.121	11.917	97.069	-21.857	83.434	256.296	169.074	140.295	155.806	107.455	232.571	114.596	0.00032085	0.0004904	5.4946e-05	1033.7	6.1614e-07	2.5031e-06	1122.6	203.29	9.0378e-06	2.5982e-06	262.74	72.21	56.332	16.364	4.554e-06	23.271	0.00017915	0.00018013	4.9617e-05	1008.2	1.9899e-06	1.9359e-06	1100.4	200.76	1.9733e-06	1.9459e-06	250.15	71.767	55.61	16.556	1.9738e-06	23.326	65.992	-26.292	-9.140	-91.793	63.393	74.203	-91.775	-83.877	-28.946	-4.417	-84.734	-77.256	-77.629	-69.663	-85.328	-70.349	-8191	255	
571.896	1	1	0	0	0.13246	0.22543	0.22592	0.34709	0.13743	0.23045	0.38142	0.23799	0.19314	0.16939	0.14159	0.085715	0.24786	0.11081	0.20077	0.11126	-2.8958	-3.0833	-2.1958	-3.6771	-2.5687	-2.5062	-3.4688	-2.2771	-3.0604	-3.2292	-2.3812	-3.2896	-2.8688	-2.4604	-3.3646	-2.3563	-35.183	31.225	40.623	-77.443	-79.994	116.389	223.356	-100.325	122.896	232.582	59.723	217.480	95.702	-77.027	4.361	234.337	0.00027895	0.00049265	0.00012054	1036.7	3.644e-06	3.6776e-06	1123.9	203.21	3.6855e-06	4.1994e-06	265.22	72.216	56.754	16.487	4.991e-06	23.166	0.00018285	0.0001827	4.9662e-05	1009.8	1.9664e-06	1.9499e-06	1099.8	200.79	1.9614e-06	1.917e-06	250.19	71.639	55.606	16.561	1.9268e-06	23.338	53.166	26.944	-51.873	-91.264	74.744	104.325	-91.608	-83.944	-32.513	63.338	-83.889	-77.127	-77.495	-69.737	40.346	-70.718	-8191	255	
571.993	1	1	0	0	0.11337	0.21464	0.29122	0.40572	0.023054	0.17463	0.39038	0.074169	0.059858	0.092391	0.10407	0.19545	0.057023	0.33439	0.19198	0.053382	-2.5792	-3.2354	-2.2083	-3.375	-2.8417	-2.4104	-3.5917	-2.6646	-2.8042	-3.3375	-2.2875	-3.2875	-2.7938	-2.3667	-3.3271	-2.3979	254.496	24.241	198.420	178.508	130.837	26.334	174.356	-61.194	-18.562	89.928	115.155	151.712	205.448	-95.832	243.309	-68.979	0.00013337	0.00052196	6.696e-05	1040.6	2.1999e-06	1.2573e-06	1124.3	204.05	4.3021e-06	5.9841e-07	263.22	71.868	56.563	16.462	3.2699e-06	23.1	0.00018055	0.00017644	4.9713e-05	1010.1	1.9957e-06	1.9591e-06	1098.2	200.74	1.9815e-06	1.909e-06	250.35	71.504	55.594	16.572	1.9128e-06	23.347	69.700	-10.453	-52.804	-91.708	15.094	133.173	-91.785	-84.267	94.452	105.129	-84.530	-77.344	-77.633	-69.613	-95.125	-70.502	-8191	255	
572.089	1	1	0	0	0.11542	0.11904	0.038821	0.2285	0.18236	0.15967	0.028083	0.16677	0.13095	0.25789	0.081475	0.069788	0.14306	0.15445	0.099137	0.11474	-2.4104	-3.1688	-2.1646	-3.2833	-3	-2.1979	-3.4771	-2.6354	-2.5104	-3.3229	-2.3854	-3.1375	-3.0271	-2.375	-3.1479	-2.7188	-87.578	180.937	166.044	252.071	40.883	171.803	244.152	86.683	248.275	124.852	107.095	-63.503	199.013	-28.767	27.308	119.098	0.00022384	0.00037365	9.2528e-05	1040	7.6105e-07	2.9672e-06	1129.5	204.23	7.5041e-06	3.1336e-06	265.4	72.656	56.712	16.561	4.7239e-06	23.305	0.00018158	0.00018116	5.0032e-05	1011	1.9938e-06	1.9853e-06	1103.6	201.24	2.0198e-06	1.996e-06	250.61	72.039	55.892	16.714	1.9443e-06	23.44	52.039	94.118	-55.882	-91.660	223.852	-34.099	-91.825	-84.147	-44.040	99.155	-84.812	-77.696	-78.087	-69.919	44.121	-70.700	-8191	255	
572.185	1	1	0	0	0.27883	0.19569	0.18559	0.1998	0.15663	0.032979	0.19831	0.14536	0.30986	0.14214	0.16543	0.034114	0.23426	0.0715	0.026766	0.32893	-2.2875	-3.3146	-2.3042	-3.075	-3.1167	-2.1583	-3.4729	-2.7687	-2.2958	-3.3667	-2.3896	-2.7958	-3.2188	-2.2	-3.3729	-2.8479	90.783	77.908	113.358	-45.176	-62.969	40.912	127.974	20.516	-34.053	-32.406	-86.612	119.235	145.793	-87.765	76.476	236.180	0.00030741	0.00031291	0.00011982	1036.2	3.0367e-06	3.6621e-06	1130.9	203.8	9.7471e-07	4.7433e-06	262.61	72.402	56.965	16.598	2.5044e-06	23.56	0.00018185	0.00017875	4.9357e-05	1010.7	1.9123e-06	1.9088e-06	1101.8	201.17	1.8909e-06	1.8747e-06	249.5	71.787	55.825	16.671	1.8998e-06	23.518	65.867	14.417	5.376	-91.634	167.600	95.136	-91.744	-84.200	-82.223	10.215	-84.758	-77.430	-77.460	-69.868	35.377	-70.550	-8191	255	
572.256	1	1	0	0	0.12993	0.1143	0.13488	0.05825	0.055288	0.17776	0.1643	0.31294	0.19297	0.19752	0.077035	0.30899	0.13789	0.31411	0.28295	0.10948	-2.0229	-3.4833	-2.4354	-2.7646	-3.375	-2.2083	-3.4604	-2.9146	-2.1146	-3.4042	-2.6333	-2.675	-3.4271	-2.2917	-2.9354	-3.1542	-91.356	54.715	221.783	71.953	82.400	-11.849	140.879	90.853	-5.623	94.757	-25.518	155.081	256.227	191.162	6.277	208.775	0.00026436	0.00028685	4.6278e-05	1039.3	5.0734e-06	2.1746e-06	1130.1	204.73	2.8744e-06	4.7983e-06	262.66	72.831	56.328	16.576	2.1945e-06	23.369	0.00017617	0.00016999	4.7558e-05	1010.9	1.8868e-06	1.8806e-06	1102.5	201.44	1.8985e-06	1.884e-06	249.24	71.857	55.462	16.697	1.8672e-06	23.505	63.200	5.476	-31.423	-91.712	85.444	62.984	-91.822	-84.178	219.127	79.573	-84.926	-77.814	-77.443	-70.276	63.300	-70.504	-8191	255	
572.375	1	1	0	0	0.11538	0.13151	0.14134	0.22551	0.10534	0.087708	0.17081	0.20889	0.16735	0.056047	0.17129	0.071131	0.14675	0.14273	0.15945	0.1576	-1.9896	-3.0729	-2.5125	-2.75	-3.2812	-2.1354	-3.1583	-3.1708	-2.2521	-3.1979	-2.6292	-2.3854	-3.5167	-2.4396	-2.8729	-3.3167	212.936	-0.414	198.505	-52.499	22.396	-36.146	223.582	136.005	-38.891	-21.074	-1.907	-61.286	131.903	149.906	118.424	-61.824	0.00026691	0.00022546	6.0517e-05	1035.7	2.0413e-06	3.7732e-07	1128.4	205.04	4.4732e-06	2.6091e-06	263.54	72.156	56.886	16.721	3.1878e-06	23.62	0.00017547	0.00017192	4.8609e-05	1009.6	1.8782e-06	1.9325e-06	1099.1	201.05	1.8987e-06	1.8902e-06	250.02	71.652	55.656	16.728	1.8698e-06	23.54	56.857	-16.272	-42.935	-91.610	26.041	41.067	-91.837	-84.109	-92.938	-96.792	-84.864	-77.252	-77.697	-70.049	-5.906	-70.491	-8191	255	
572.472	1	1	0	0	0.079986	0.118	0.08899	0.18143	0.19797	0.14405	0.12159	0.33004	0.35429	0.10897	0.061584	0.11874	0.021492	0.11164	0.20736	0.1633	-1.8917	-3.0854	-2.8167	-2.675	-3.4042	-2.3563	-3.0479	-3.2292	-2.2167	-3.0583	-2.8438	-2.4	-3.2354	-2.3833	-2.6958	-3.3708	-86.615	-18.614	153.502	170.408	216.377	43.580	97.114	247.465	56.726	-4.529	137.658	105.124	52.706	142.376	-87.269	-83.886	0.00041001	0.00026484	1.5318e-05	1031.6	6.4348e-06	8.6797e-07	1129.6	204.12	6.6639e-06	1.1451e-06	265.51	72.277	57.384	16.759	1.5607e-06	23.658	0.00017719	0.00017133	4.7519e-05	1006.9	1.9216e-06	1.9285e-06	1101	201.58	1.947e-06	1.8701e-06	251.02	71.855	55.909	16.755	1.8884e-06	23.624	58.999	-55.936	-9.046	-91.769	47.368	179.001	-91.743	-84.190	-56.131	-11.296	-84.762	-77.438	-78.372	-70.371	-73.151	-70.773	-8191	255	
572.569	1	1	0	0	0.1602	0.18281	0.18637	0.21033	0.036341	0.31261	0.17168	0.14782	0.15855	0.25849	0.23869	0.27631	0.040229	0.075034	0.092024	0.12277	-1.8521	-2.9958	-3.0271	-2.3292	-3.2938	-2.6167	-2.7667	-3.3208	-2.1833	-3.15	-3.1333	-2.4125	-3.05	-2.6896	-2.4333	-3.3958	138.707	-75.483	176.682	241.314	-17.557	146.950	146.199	-10.523	94.959	183.236	-22.153	184.076	146.566	150.301	-34.520	79.688	0.00027537	0.00031699	7.2883e-05	1037.4	8.3959e-07	4.5326e-06	1125.2	204.83	1.7828e-06	8.5902e-07	263.8	72.466	56.822	16.75	3.3549e-06	23.479	0.00018115	0.0001708	4.7929e-05	1010.7	1.9108e-06	1.8908e-06	1099.9	201.28	1.9442e-06	1.89e-06	250.24	71.887	55.854	16.799	1.9091e-06	23.654	68.968	34.378	9.803	-91.529	43.670	199.923	-91.555	-83.917	-14.589	50.629	-84.755	-77.906	-77.077	-69.807	52.846	-70.322	-8191	255	
572.688	1	1	0	0	0.18502	0.224	0.21737	0.11097	0.17739	0.19897	0.23217	0.15969	0.15258	0.26201	0.21985	0.12987	0.15507	0.10399	0.23592	0.25202	-1.95	-3.0271	-3.05	-2.3104	-3.3521	-2.55	-2.7667	-3.3708	-2.225	-3.0229	-2.95	-2.2167	-3.2229	-2.8333	-2.4667	-3.3583	30.371	170.178	121.774	244.352	194.082	-10.546	128.945	181.123	169.271	248.158	152.439	-54.119	89.156	-71.372	175.352	213.591	0.00023639	0.0002494	7.8553e-05	1037	2.4784e-06	6.2435e-06	1128.2	205.96	8.5875e-06	1.5946e-06	262.1	72.328	57.417	16.689	3.539e-06	23.861	0.00018073	0.00017324	4.7902e-05	1009.6	1.8942e-06	1.8982e-06	1102.8	201.6	1.9055e-06	1.8858e-06	250.26	71.97	55.901	16.754	1.8605e-06	23.827	24.277	32.366	-44.261	-91.459	61.656	1.903	-91.599	-84.250	-22.993	-46.154	-84.912	-77.518	-77.676	-70.503	37.929	-70.467	-8191	255	
572.784	1	1	0	0	0.035559	0.11658	0.19042	0.056317	0.039689	0.089239	0.093247	0.13363	0.2399	0.075353	0.11058	0.057632	0.10206	0.087798	0.31517	0.081767	-2.0271	-2.8458	-3.3042	-2.2083	-3.2271	-2.8312	-2.5396	-3.3979	-2.2062	-2.4979	-3.425	-2.1917	-3.2729	-2.975	-2.1333	-3.6208	-93.910	61.765	-50.788	-40.043	-32.592	-7.144	255.034	120.933	55.686	141.718	123.144	-40.587	171.451	237.463	-69.073	239.726	0.0002574	0.00021021	0.00010735	1039.5	3.8001e-06	2.7161e-06	1124.9	205.66	2.1221e-06	1.7424e-06	265.07	72.786	56.636	16.679	3.1814e-06	23.687	0.00017464	0.00016949	4.7095e-05	1010.7	1.8836e-06	1.8471e-06	1101.6	201.42	1.8671e-06	1.8605e-06	250.83	71.982	55.847	16.806	1.9173e-06	23.842	64.686	-39.547	50.707	-91.793	12.650	-84.690	-91.669	-84.306	-44.692	16.242	-84.621	-77.827	-77.418	-69.753	225.507	-70.602	-8191	255	
572.856	1	1	0	0	0.081574	0.13762	0.12189	0.24667	0.20266	0.20553	0.42876	0.11957	0.19144	0.11611	0.18593	0.37071	0.17434	0.070735	0.12648	0.16663	-2.1542	-2.4938	-3.1875	-2.5062	-2.9792	-3.1021	-2.3917	-3.4458	-2.6375	-2.4188	-3.4021	-2.3146	-2.9417	-3.1188	-2.0146	-3.4771	236.961	-12.377	-92.227	-101.008	230.586	75.837	177.433	156.123	-101.902	123.997	-14.693	85.659	15.311	119.020	-91.570	-57.259	0.00012085	0.00030495	6.2399e-05	1034.1	3.2856e-07	3.5615e-06	1128.5	204.86	3.7199e-06	3.205e-06	266.56	72.316	56.919	16.734	4.8696e-06	23.864	0.00017937	0.0001712	4.8871e-05	1012	1.9146e-06	1.9019e-06	1103.2	201.79	1.9658e-06	1.9234e-06	251.56	71.991	56.061	16.834	1.9637e-06	23.838	3.277	13.212	-44.181	-91.917	-27.812	83.025	-91.680	-84.303	77.123	35.463	-84.362	-77.610	-77.261	-70.256	49.013	-71.162	-8191	255	
572.977	1	1	0	0	0.26794	0.08581	0.2325	0.5099	0.13789	0.24059	0.24369	0.085199	0.29939	0.26609	0.22491	0.29636	0.070732	0.18651	0.21083	0.23636	-2.375	-2.4813	-3.225	-2.5125	-2.8625	-3.0708	-2.3812	-3.2792	-2.8	-2.2229	-3.5771	-2.5271	-2.7604	-3.3292	-2.1	-3.0354	173.609	182.620	-18.407	158.723	-53.407	-22.182	139.465	200.068	90.008	-55.024	77.626	182.282	173.360	-66.319	37.177	211.524	0.00028961	0.00023366	0.00016366	1044.2	1.2778e-06	3.9632e-06	1132.6	204.34	2.6591e-06	4.5734e-06	265.72	72.556	57.76	16.834	4.1041e-06	23.605	0.0001845	0.00017859	4.9115e-05	1015	2.0108e-06	1.9556e-06	1104.9	201.66	1.9881e-06	1.9972e-06	251.62	72.03	56.241	16.847	1.9974e-06	23.866	50.074	85.447	32.295	-91.749	-102.017	-4.298	-91.932	-84.057	-9.407	78.632	-84.675	-77.861	-77.881	-70.076	-9.419	-70.482	-8191	255	
573.073	1	1	0	0	0.1476	0.29826	0.18261	0.29712	0.19843	0.16101	0.33449	0.20421	0.049709	0.24052	0.24545	0.13465	0.12738	0.2555	0.26718	0.0701	-2.5771	-2.2271	-3.2729	-2.7104	-2.5354	-3.4917	-2.2583	-3.0708	-3.0375	-2.325	-3.3542	-2.7042	-2.6104	-3.3458	-2.1458	-3.2479	185.233	240.002	232.760	143.562	224.836	50.378	221.667	-46.254	234.772	152.202	122.918	126.941	232.540	61.463	-39.104	101.559	0.00022216	0.00035118	8.7702e-05	1041.9	5.8738e-06	2.9948e-06	1138	205.67	1.6803e-06	9.7515e-07	263.66	72.547	57.354	16.73	5.4377e-06	23.939	0.00018746	0.00018488	5.1386e-05	1015.7	2.0849e-06	2.0173e-06	1106.6	202.41	2.0452e-06	2.0456e-06	252.8	72.166	56.255	16.915	2.0953e-06	24.008	68.786	-68.966	3.683	-91.882	-35.380	22.777	-91.880	-84.312	-33.877	212.995	-84.522	-77.834	-77.871	-70.481	-24.961	-71.103	-8191	255	
573.169	1	1	0	0	0.33952	0.14636	0.2057	0.21276	0.13139	0.056169	0.13931	0.1684	0.10802	0.064243	0.14913	0.072466	0.041386	0.061086	0.4201	0.19598	-2.825	-2.45	-3.3833	-2.5375	-2.4875	-3.55	-2.3979	-3.0854	-3.1604	-2.0312	-3.3625	-2.9479	-2.3646	-3.4271	-2.3854	-2.8729	103.738	-66.868	128.260	247.077	112.812	-91.376	218.428	-82.196	-48.873	82.361	-19.072	80.109	-22.715	56.979	124.320	-90.687	0.00026561	0.00040286	5.3961e-05	1041.2	3.0617e-06	3.0147e-07	1129.7	203.98	3.6193e-06	3.9276e-06	264.6	73.351	56.957	16.725	4.9274e-06	23.922	0.00018842	0.00018828	5.2543e-05	1014.9	2.1126e-06	2.0592e-06	1105.7	201.83	2.0732e-06	2.0493e-06	253.77	72.435	56.342	16.903	2.0428e-06	23.99	76.415	58.992	-58.672	-92.012	80.337	223.492	-91.769	-84.356	247.700	142.657	-84.592	-77.761	-77.544	-69.638	81.590	-70.308	-8191	255	
573.290	1	1	0	0	0.10026	0.21983	0.063619	0.14707	0.054414	0.16751	0.38519	0.11255	0.19247	0.059023	0.1359	0.27818	0.10745	0.14197	0.094768	0.12101	-3.0104	-2.2062	-3.3167	-2.8021	-2.4604	-3.4542	-2.6229	-2.6813	-3.3729	-2.2208	-3.3646	-2.9896	-2.2917	-3.5604	-2.3833	-2.5667	50.100	1.483	-87.048	131.007	47.326	39.984	230.435	-26.269	202.180	28.126	53.114	-18.142	18.416	168.170	98.565	-99.073	0.00031354	0.00036655	4.2642e-05	1037.7	1.8932e-06	1.4321e-06	1132.6	204.63	1.6854e-06	9.4759e-07	267.83	72.884	57.569	16.786	6.4594e-06	23.767	0.00019103	0.00018965	5.2832e-05	1014.8	2.0953e-06	2.0571e-06	1107.6	202.03	2.0568e-06	2.1099e-06	253.56	72.334	56.406	16.912	2.0985e-06	24.01	52.753	-12.039	17.687	-91.824	162.046	22.192	-91.725	-84.260	187.274	-18.122	-83.846	-77.624	-77.932	-70.214	161.852	-70.494	-8191	255	
573.386	1	1	0	0	0.069339	0.1278	0.07851	0.019866	0.32518	0.13786	0.21745	0.14186	0.038897	0.097099	0.078518	0.11736	0.097866	0.088692	0.022146	0.19578	-2.9125	-2.1229	-2.9625	-3.1625	-2.1625	-3.3229	-2.6875	-2.5875	-3.3667	-2.0604	-2.9479	-3.1312	-2.3812	-3.3625	-2.7438	-2.55	138.005	235.827	178.278	-49.941	-20.015	-90.429	165.253	-78.619	213.488	220.901	243.265	230.164	214.941	229.332	186.858	120.699	0.00028513	0.00025175	4.4165e-05	1040.2	1.6326e-06	1.0181e-06	1137.8	205.26	1.4974e-06	3.0268e-06	265.83	72.952	57.247	16.772	2.6369e-06	23.938	0.0001931	0.00019101	5.2616e-05	1015	2.1269e-06	2.0568e-06	1109.4	202.8	2.1018e-06	2.0798e-06	253.21	72.469	56.473	16.96	2.0971e-06	24.085	25.825	-38.675	-73.696	-92.014	86.864	163.965	-91.854	-84.192	34.653	80.918	-84.098	-77.673	-77.438	-69.872	143.121	-70.366	-8191	255	
573.480	1	1	0	0	0.181	0.061911	0.22114	0.2813	0.12845	0.20265	0.16209	0.34957	0.068628	0.1784	0.21163	0.16985	0.17468	0.33723	0.22277	0.23472	-3.1688	-2.3042	-2.9625	-3.3771	-2.1604	-3.1583	-2.9042	-2.5854	-3.3688	-2.2854	-2.7521	-3.25	-2.1771	-3.2313	-2.8125	-2.1833	106.483	138.898	254.204	229.511	-81.230	198.693	98.855	-76.277	66.841	-75.867	2.334	75.895	54.705	213.299	190.400	-42.038	0.00027209	0.00026741	5.5128e-05	1044.6	3.4177e-06	9.6926e-07	1137.6	205.07	1.5925e-06	3.4031e-06	261.39	72.885	57.616	16.999	3.1555e-06	23.876	0.00019422	0.00019394	5.3201e-05	1017.9	2.1942e-06	2.1214e-06	1109.9	202.68	2.1755e-06	2.1584e-06	253.67	72.475	56.822	17.043	2.16e-06	24.129	44.794	34.755	66.867	-91.691	-7.641	-29.119	-91.859	-84.122	21.594	-61.097	-84.125	-77.950	-78.044	-69.963	70.473	-70.376	-8191	255	
573.552	1	1	0	0	0.24448	0.33293	0.10436	0.37266	0.02993	0.031726	0.18131	0.11723	0.056154	0.18117	0.12238	0.071085	0.15109	0.41392	0.13396	0.28695	-3.1479	-2.4813	-2.7062	-3.3792	-2.2646	-3.1979	-3.0333	-2.4521	-3.3271	-2.5729	-2.6354	-3.5687	-2.2292	-3.2042	-2.9667	-2.2979	93.596	-92.074	177.345	229.874	103.525	-15.929	194.632	221.204	-2.527	-68.771	97.055	246.379	166.250	240.297	-99.892	99.919	0.00034012	0.00029733	0.00014301	1050	2.3131e-06	8.8303e-07	1135.9	205.74	8.042e-07	1.7587e-06	268.11	72.699	56.862	16.848	6.3296e-06	24.004	0.00020353	0.00019923	5.5843e-05	1021.6	2.1945e-06	2.1446e-06	1110.2	203.05	2.1596e-06	2.1359e-06	253.85	72.594	56.461	17.011	2.1395e-06	24.085	87.794	13.375	-5.362	-91.670	-71.184	-84.987	-91.684	-83.904	168.694	124.878	-84.578	-77.890	-77.763	-69.662	29.934	-70.828	-8191	255	
573.673	1	1	0	0	0.15647	0.1828	0.10535	0.29311	0.20687	0.15613	0.1893	0.4106	0.060207	0.16522	0.13944	0.061243	0.15241	0.23074	0.053802	0.14309	-2.9688	-2.7313	-2.5563	-3.4104	-2.0062	-3.1729	-3.3292	-2.3	-3.3604	-2.5333	-2.3563	-3.4792	-2.5	-2.95	-3.2938	-2.1917	85.226	199.147	-69.060	200.724	5.936	166.815	117.919	154.662	182.272	16.762	110.852	-2.868	113.258	32.145	-90.776	-62.032	0.00022649	0.00032655	4.2091e-05	1049.1	1.7246e-06	3.6583e-06	1136.4	205.68	2.0754e-06	3.0657e-07	265.68	72.787	57.443	16.912	2.2047e-06	23.987	0.00019961	0.00019726	5.5209e-05	1021	2.2052e-06	2.16e-06	1110.8	202.99	2.201e-06	2.2029e-06	253.52	72.694	56.876	17.077	2.1999e-06	24.136	62.262	67.099	190.598	-91.764	135.999	4.812	-91.753	-84.065	128.092	165.317	-84.670	-77.678	-77.640	-69.772	23.643	-70.416	-8191	255	
573.769	1	1	0	0	0.26736	0.07747	0.13977	0.11391	0.18775	0.19826	0.23129	0.041738	0.17481	0.121	0.15693	0.25038	0.1161	0.19968	0.19495	0.14717	-2.9313	-2.9188	-2.3625	-3.6125	-2.2167	-2.7396	-3.4979	-2.1125	-3.3229	-2.6	-2.3271	-3.4313	-2.2479	-2.8417	-3.2812	-2.375	-18.782	-68.980	256.680	183.603	246.614	207.636	176.574	143.008	251.490	240.196	172.571	-9.684	212.836	234.708	-73.708	80.131	0.00026248	0.0003465	4.2448e-05	1052.5	3.706e-06	2.1817e-06	1139.1	206.03	3.5071e-06	3.1451e-06	266.36	73.335	57.257	16.876	2.6931e-06	23.831	0.00020657	0.00019878	5.5916e-05	1024.6	2.2703e-06	2.2359e-06	1113.5	203.46	2.2719e-06	2.2367e-06	255.58	73.046	56.668	17.098	2.204e-06	24.184	64.315	-5.059	-19.947	-91.837	49.255	-62.718	-91.799	-84.165	-27.322	161.159	-84.585	-77.475	-77.556	-70.270	-54.765	-70.389	-8191	255	
573.865	1	1	0	0	0.26789	0.31989	0.03509	0.013488	0.15696	0.032862	0.19827	0.13522	0.26624	0.079884	0.1241	0.33524	0.11979	0.078554	0.0547	0.29558	-2.8125	-2.8729	-2.1063	-3.4208	-2.4479	-2.6021	-3.6417	-2.2396	-3.0563	-3.0354	-2.3333	-3.4958	-2.4667	-2.4021	-3.3479	-2.2917	106.744	151.620	44.855	180.420	242.881	-13.869	134.030	155.790	74.390	-46.879	162.975	228.203	182.576	50.518	54.489	256.949	0.00017373	0.00025076	4.8756e-05	1047.6	2.072e-06	2.3822e-06	1137.6	205.79	7.8528e-06	2.5635e-06	264.84	73.091	57.147	16.932	1.3701e-06	23.929	0.00020744	0.0001989	5.7552e-05	1022.1	2.2496e-06	2.2294e-06	1114	203.45	2.2171e-06	2.2074e-06	254.87	72.838	56.773	17.089	2.1937e-06	24.119	74.834	-17.533	-32.766	-91.875	154.481	68.372	-91.875	-84.284	-27.837	148.978	-84.529	-77.920	-77.508	-69.964	66.591	-70.362	-8191	255	
573.961	1	1	0	0	0.062997	0.17444	0.094598	0.25209	0.18926	0.31775	0.14114	0.18541	0.079195	0.080398	0.16939	0.12204	0.12226	0.21782	0.013314	0.15128	-2.7208	-3.1417	-2.0271	-3.3354	-2.6771	-2.3937	-3.6937	-2.4896	-2.8604	-2.9875	-2.1042	-3.4771	-2.6813	-2.4125	-3.3917	-2.3438	229.063	197.357	62.186	-50.929	210.796	-57.710	99.777	208.265	253.275	85.774	-78.882	138.759	-19.983	204.122	201.479	96.009	0.00032592	0.00035751	4.1126e-05	1050.5	5.9663e-06	2.2989e-06	1140.3	205.63	3.212e-06	1.2975e-06	268.01	73.839	57.322	16.841	3.7988e-06	24.053	0.00020361	0.00019904	5.5554e-05	1023.1	2.1915e-06	2.1594e-06	1115.3	203.05	2.1871e-06	2.1461e-06	255.7	73.092	56.7	17.048	2.1589e-06	24.183	51.476	-41.775	-28.871	-91.616	-7.296	102.359	-92.006	-84.262	201.440	-0.125	-84.620	-78.018	-78.312	-69.857	-5.802	-70.729	-8191	255	
574.082	1	1	0	0	0.14376	0.24778	0.18275	0.25103	0.071201	0.33219	0.19545	0.066507	0.13765	0.047594	0.14302	0.1579	0.087418	0.14811	0.026907	0.090951	-2.4896	-3.1917	-2.1562	-3.2854	-2.8187	-2.3563	-3.5396	-2.5625	-2.5354	-3.4833	-2.1208	-3.1354	-2.8875	-2.3333	-3.2458	-2.6188	-14.874	256.135	215.533	221.016	-96.975	92.006	205.898	199.660	57.527	220.927	148.090	-37.598	119.558	215.133	64.674	-87.949	0.00039028	8.997e-05	6.3246e-05	1053.4	1.6768e-06	4.9916e-07	1141.4	204.96	2.7108e-06	2.5099e-06	267.2	73.516	56.789	17.1	2.4197e-06	23.915	0.00020077	0.00019891	5.6596e-05	1024.9	2.2155e-06	2.1996e-06	1115.7	203.14	2.1943e-06	2.1737e-06	255.35	73.007	56.849	17.168	2.2079e-06	24.224	55.392	17.049	-30.676	-91.923	239.045	14.736	-91.774	-83.885	229.760	103.979	-84.427	-77.662	-77.461	-70.144	6.721	-70.569	-8191	255	
574.153	1	1	0	0	0.16911	0.11766	0.17376	0.17808	0.0036949	0.11702	0.32111	0.1845	0.13484	0.29479	0.15559	0.22001	0.17253	0.11645	0.24237	0.065338	-2.3625	-3.2542	-2.2271	-3.2062	-3.0312	-2.2396	-3.5875	-2.6688	-2.5583	-3.3312	-2.1771	-2.8896	-3.1042	-2.1021	-3.0792	-2.6979	-52.151	157.480	211.514	204.861	222.797	72.210	127.091	-62.278	66.652	202.135	-91.093	-44.712	-52.797	231.139	133.566	168.843	0.00017344	0.00032307	2.9914e-05	1051.6	1.2052e-06	5.8145e-06	1144.7	205.29	4.882e-06	5.0595e-07	268.04	73.545	57.784	16.929	2.2121e-06	24.142	0.00020553	0.00020087	5.681e-05	1025.5	2.2228e-06	2.2275e-06	1116.7	203.24	2.255e-06	2.2217e-06	255.37	72.961	56.995	17.08	2.2092e-06	24.164	43.349	48.790	-47.440	-91.741	101.802	48.272	-91.635	-84.094	-31.464	-30.683	-84.869	-77.235	-77.798	-70.382	228.846	-70.609	-8191	255	
574.249	1	1	0	0	0.16836	0.11249	0.25681	0.1383	0.2819	0.076545	0.20132	0.12231	0.16524	0.03749	0.10093	0.14437	0.17	0.20994	0.31692	0.20407	-2.2062	-3.5083	-2.3021	-2.9729	-3.1229	-2.2542	-3.4896	-2.9292	-2.4979	-3.3458	-2.5687	-2.7	-3.1854	-2.2333	-3.0521	-3.0333	94.505	231.520	75.773	186.166	150.450	18.025	199.652	164.894	114.641	-75.370	85.256	70.853	55.450	-76.833	165.578	-36.730	0.00023652	0.00024313	1.6418e-05	1052.8	3.0172e-06	2.0485e-06	1145	205.56	3.6815e-06	2.6357e-06	267.98	73.582	57.589	16.958	5.8987e-06	23.895	0.00020602	0.00020149	5.6172e-05	1026.5	2.2415e-06	2.2074e-06	1116.7	203.04	2.2341e-06	2.193e-06	255.16	73.06	56.883	17.115	2.2278e-06	24.181	71.063	-41.361	-82.924	-91.662	-11.721	110.522	-91.858	-84.179	234.431	89.211	-84.922	-77.824	-77.598	-70.028	65.014	-70.564	-8191	255	
574.370	1	1	0	0	0.063834	0.030511	0.29717	0.12515	0.14171	0.18302	0.2444	0.054065	0.10563	0.038315	0.20846	0.26205	0.14007	0.1937	0.055092	0.17717	-1.9417	-3.3917	-2.3792	-2.7604	-3.1917	-2.4042	-3.2625	-2.9917	-2.1312	-3.2708	-2.6833	-2.4313	-3.4375	-2.2667	-3.1729	-3.1542	131.414	-3.168	120.136	209.960	95.188	159.611	222.621	-20.326	133.367	178.942	154.723	-92.273	-77.208	106.900	-71.332	202.412	0.00027219	0.00022177	2.7479e-05	1052	1.9294e-06	3.4173e-06	1137.3	206.17	3.4428e-06	3.645e-06	268.31	73.523	57.114	16.935	1.9577e-06	23.953	0.00020725	0.00020103	5.6089e-05	1024.6	2.2371e-06	2.1862e-06	1115.1	203.32	2.2141e-06	2.1725e-06	255.6	73.06	56.781	17.112	2.1624e-06	24.22	51.105	59.496	85.704	-91.522	-95.653	93.790	-91.760	-84.167	-41.501	61.922	-84.455	-77.710	-77.575	-69.742	43.366	-70.522	-8191	255	
574.464	1	1	0	0	0.29328	0.13755	0.26611	0.15112	0.24751	0.10764	0.19414	0.11184	0.17775	0.15604	0.35698	0.3849	0.1078	0.22225	0.12386	0.15931	-2.0938	-3.2375	-2.6937	-2.4396	-3.3375	-2.3937	-2.9833	-3.1312	-2.3042	-3.2208	-2.8729	-2.5354	-3.5229	-2.4521	-2.7979	-3.1479	98.319	61.609	131.222	26.720	47.287	-95.303	243.882	80.917	10.611	82.084	56.931	201.346	68.757	-83.697	34.039	223.675	0.00025905	9.7171e-05	7.791e-05	1051.2	3.1247e-06	1.8258e-06	1142.3	207.05	1.9939e-06	4.3581e-06	265.53	73.433	57.529	17.099	1.2705e-06	23.847	0.00020529	0.00019706	5.4996e-05	1024.7	2.2023e-06	2.2028e-06	1116.5	203.92	2.2433e-06	2.1743e-06	255.17	73.16	56.88	17.128	2.2112e-06	24.148	41.255	-66.962	62.040	-91.609	-86.607	58.500	-91.684	-84.113	142.072	48.593	-84.185	-77.687	-76.530	-69.969	-72.326	-70.526	-8191	255	
574.561	1	1	0	0	0.23875	0.054606	0.12348	0.13031	0.14373	0.074604	0.25039	0.040601	0.21432	0.076247	0.24521	0.13474	0.26722	0.048455	0.25053	0.037027	-1.9104	-3.1208	-2.7687	-2.4333	-3.4604	-2.3521	-2.9521	-3.3375	-2.2417	-3.0417	-2.9625	-2.3542	-3.5167	-2.5354	-2.5875	-3.3688	-76.441	-67.010	-63.199	-81.882	148.543	-68.783	231.808	141.605	89.718	28.055	139.542	-20.606	9.283	63.355	119.877	-31.762	0.00030584	0.00020046	8.8522e-05	1051.8	1.9573e-06	8.9629e-07	1141.7	207.02	6.539e-06	3.8658e-06	266.88	73.089	57.617	17.159	3.7004e-06	23.901	0.00020662	0.00019937	5.5599e-05	1025.1	2.1565e-06	2.1884e-06	1116.8	203.48	2.1977e-06	2.102e-06	255.08	72.904	56.965	17.122	2.1927e-06	24.115	54.783	7.663	19.038	-91.793	58.433	60.774	-91.652	-83.941	-36.328	90.576	-84.296	-77.796	-77.489	-69.973	236.968	-70.604	-8191	255	
574.657	1	1	0	0	0.38124	0.11029	0.15022	0.20288	0.13608	0.061429	0.21309	0.11761	0.14638	0.38038	0.11098	0.11545	0.1584	0.11374	0.12002	0.22041	-1.8021	-2.8875	-2.9062	-2.3688	-3.2521	-2.4854	-2.6917	-3.3208	-2.3229	-2.9854	-3.1542	-2.3333	-3.3708	-2.5896	-2.4104	-3.4083	208.609	105.730	-80.151	11.074	67.869	165.013	203.526	-4.439	46.731	103.214	34.507	9.255	-50.125	183.287	-31.404	153.687	0.00035746	0.00050822	5.7147e-05	1049.2	3.596e-06	3.4749e-06	1139.8	205.3	3.7759e-06	3.3683e-06	265.98	73.221	57.356	17.021	1.3307e-06	23.929	0.00019885	0.00019525	5.4429e-05	1024.6	2.1313e-06	2.119e-06	1115.6	203.17	2.104e-06	2.0622e-06	254.06	72.75	56.771	17.081	2.1397e-06	24.099	72.778	12.519	-23.023	-91.683	126.150	147.815	-91.466	-84.166	74.500	41.540	-84.563	-77.790	-77.457	-70.031	-13.198	-70.789	-8191	255	
574.753	1	1	0	0	0.3816	0.079333	0.17421	0.072181	0.092163	0.08527	0.22527	0.084825	0.15028	0.07412	0.21901	0.12758	0.065991	0.12157	0.33946	0.14171	-1.9562	-2.8479	-2.8812	-2.1937	-3.15	-2.9333	-2.5667	-3.4104	-2.1792	-2.8479	-3.1604	-2.1958	-3.0208	-2.7625	-2.4667	-3.5208	129.260	-23.256	98.104	85.830	-21.256	-39.796	-37.030	205.562	111.710	-33.239	-44.389	83.932	94.456	-36.982	-65.269	103.890	0.0003184	0.00019955	9.3001e-05	1054.3	2.4113e-06	4.8287e-06	1143.8	205.65	2.1817e-06	4.128e-06	269.81	73.704	57.541	17.046	4.751e-06	24	0.00019497	0.00019418	5.3125e-05	1025.4	2.1572e-06	2.0845e-06	1116.4	203.37	2.1031e-06	2.0697e-06	255.88	72.938	56.75	17.124	2.097e-06	24.137	58.911	72.830	2.525	-91.706	-30.042	84.974	-91.484	-84.066	54.579	-10.870	-84.813	-77.377	-77.320	-70.162	96.176	-70.658	-8191	255	
574.849	1	1	0	0	0.16008	0.1871	0.23077	0.24051	0.11694	0.159	0.24488	0.21046	0.12142	0.2333	0.27448	0.45573	0.066169	0.092595	0.27014	0.094104	-2.1333	-2.7625	-3.1521	-2.375	-3.0312	-2.9688	-2.4146	-3.2562	-2.5187	-2.5229	-3.275	-2.1521	-3	-3.1417	-2.2375	-3.3896	105.198	157.444	71.250	186.605	160.570	228.936	230.066	-96.492	-46.950	138.617	-43.576	49.895	67.455	-51.406	238.749	164.640	0.00036425	0.00028108	5.0438e-05	1047.4	2.4223e-06	7.4885e-06	1135.9	206.48	6.3819e-06	3.7396e-06	266.6	73.307	57.411	16.89	1.8863e-06	24.113	0.00019474	0.00019041	5.2591e-05	1021.2	2.1341e-06	2.081e-06	1114.1	203.22	2.1528e-06	2.1308e-06	254.44	73.033	56.908	17.103	2.1642e-06	24.252	69.994	-11.847	-30.162	-91.615	-11.154	61.264	-91.735	-84.070	201.397	-20.787	-84.139	-77.204	-77.156	-70.376	70.660	-70.484	-8191	255	
574.970	1	1	0	0	0.053296	0.11362	0.051851	0.098174	0.088993	0.28543	0.26434	0.15819	0.15212	0.12018	0.20013	0.1829	0.31144	0.15915	0.28523	0.051923	-2.2417	-2.3083	-3.3167	-2.3646	-2.9646	-3.1104	-2.4333	-3.4062	-2.5958	-2.5771	-3.4208	-2.425	-2.8125	-3.2396	-2.1021	-3.1958	159.524	-66.561	67.805	-91.895	49.110	106.238	121.175	186.960	161.409	-31.648	38.396	6.640	196.514	250.622	113.123	73.900	0.00022232	9.2125e-05	8.0073e-05	1050.6	2.8326e-06	2.8193e-06	1139.9	207.06	6.8057e-06	3.57e-06	269.14	74.101	57.802	17.042	1.9342e-06	23.938	0.00019978	0.000196	5.4032e-05	1023.1	2.1912e-06	2.1595e-06	1115.4	203.83	2.176e-06	2.1395e-06	255.55	73.141	56.98	17.106	2.1766e-06	24.199	76.737	-54.021	-36.874	-91.582	8.257	43.420	-91.679	-83.950	-47.542	5.716	-84.522	-77.688	-77.459	-69.909	-97.051	-70.805	-8191	255	
575.066	1	1	0	0	0.16364	0.064877	0.19624	0.065643	0.26287	0.11896	0.15975	0.11244	0.12501	0.099521	0.081266	0.20952	0.22569	0.18368	0.18848	0.36962	-2.5062	-2.3583	-3.2917	-2.6188	-2.7271	-3.2646	-2.4604	-3.3875	-2.9167	-2.2229	-3.5604	-2.3521	-2.8438	-3.2479	-2.1708	-3.1146	96.124	240.967	74.090	138.502	83.688	-100.131	196.860	205.747	-15.994	241.451	148.336	-95.853	179.156	-7.087	39.896	54.357	0.00035839	0.00047043	1.1651e-05	1053.4	3.1959e-06	1.9165e-06	1139.8	207.89	5.0296e-06	4.0746e-06	262.81	73.286	57.034	17.062	4.0048e-06	24.12	0.00020002	0.00019935	5.474e-05	1023.3	2.1512e-06	2.0932e-06	1116.1	203.6	2.1612e-06	2.1348e-06	254.64	72.97	56.674	17.133	2.1804e-06	24.234	54.710	-34.673	248.455	-91.672	-70.996	51.400	-91.552	-84.006	250.811	-85.344	-84.694	-77.766	-77.185	-70.121	38.398	-70.597	-8191	255	
575.162	1	1	0	0	0.18218	0.10877	0.38267	0.16653	0.17967	0.14011	0.22909	0.15452	0.30702	0.24293	0.10121	0.18965	0.13069	0.23728	0.20939	0.13535	-2.8208	-2.1417	-3.4729	-2.5021	-2.8458	-3.1979	-2.2687	-2.9104	-3.2146	-2.2188	-3.5458	-2.5917	-2.5396	-3.4062	-2.2625	-3.1021	158.225	-47.667	104.765	-39.913	29.962	75.080	197.970	-23.657	-18.447	206.824	-12.017	177.291	246.810	195.497	212.529	168.935	0.00011799	0.00025121	5.7494e-05	1048.6	3.8803e-06	4.1342e-07	1137.9	206.36	6.4578e-07	4.9639e-06	268.62	72.782	57.637	17	1.9718e-06	23.962	0.00020164	0.0002023	5.4904e-05	1022.8	2.2142e-06	2.1667e-06	1115.1	203.9	2.1799e-06	2.1392e-06	255.41	72.762	57.003	17.106	2.1786e-06	24.223	52.228	0.157	-35.729	-91.918	136.193	1.093	-91.589	-83.592	149.807	39.434	-84.334	-77.645	-77.886	-70.105	23.001	-70.049	-8191	255	
575.258	1	1	0	0	0.30071	0.1556	0.11358	0.23375	0.42589	0.054612	0.16672	0.076028	0.3942	0.08612	0.1528	0.071187	0.30713	0.16209	0.30876	0.15729	-2.8896	-2.0167	-3.2521	-2.8854	-2.2375	-3.3854	-2.5167	-3.1271	-3.2188	-2.1625	-3.3646	-2.9354	-2.3375	-3.4146	-2.3771	-3	183.915	95.514	85.309	192.516	212.677	23.549	132.343	210.001	191.214	-92.664	247.936	154.082	-40.534	132.661	238.595	224.930	0.0003568	0.0001703	6.3922e-05	1049.1	7.1736e-07	1.1847e-06	1137.1	206.41	4.7356e-06	2.7039e-06	266.75	73.34	58.061	16.951	3.513e-06	24.112	0.00020097	0.00020111	5.5251e-05	1023.8	2.1963e-06	2.1851e-06	1114.8	203.75	2.1856e-06	2.1846e-06	255.17	72.975	56.899	17.103	2.1876e-06	24.261	98.481	-51.111	-84.108	-91.696	181.892	26.818	-91.579	-84.096	-65.088	32.305	-84.431	-77.893	-77.556	-69.845	69.222	-70.192	-8191	255	
575.379	1	1	0	0	0.11161	0.24586	0.15641	0.28258	0.085418	0.15961	0.56381	0.31924	0.13297	0.17905	0.050847	0.12391	0.06755	0.17302	0.16028	0.091386	-2.8896	-2.0167	-3.0646	-3.0542	-2.075	-3.3187	-2.4417	-2.7375	-3.3292	-2.1875	-3.0771	-2.9792	-2.1625	-3.2708	-2.5104	-2.5396	-97.462	123.762	191.359	254.688	202.333	33.670	213.528	155.742	-68.191	190.839	101.764	214.852	-100.417	183.707	23.734	234.892	0.00015422	0.00015151	0.00014394	1051.1	9.3173e-07	3.5578e-06	1143.1	205.63	3.3362e-06	2.0132e-06	268.65	72.951	57.528	16.968	4.2802e-06	23.986	0.00020191	0.00019888	5.4927e-05	1024.4	2.2198e-06	2.1843e-06	1115.1	203.24	2.1928e-06	2.213e-06	255.82	72.856	56.839	17.146	2.2054e-06	24.235	64.779	204.251	-38.471	-91.845	-68.382	31.655	-91.652	-84.161	-72.584	103.347	-84.326	-77.681	-77.696	-69.906	-5.124	-70.432	-8191	255	
575.449	1	1	0	0	0.068137	0.20872	0.25915	0.14531	0.044189	0.15178	0.28817	0.14773	0.059239	0.16848	0.13858	0.30126	0.12335	0.27758	0.07613	0.25198	-3.1958	-1.8958	-2.9333	-3.25	-2.2812	-3.2896	-2.7062	-2.6188	-3.4021	-2.2729	-2.8083	-3.2792	-2.175	-3.3167	-2.8396	-2.375	114.734	111.061	224.846	129.240	-19.443	64.553	214.663	-7.020	177.705	32.458	190.994	170.324	112.268	-7.801	148.367	209.797	0.00023931	0.00035413	6.2656e-05	1046.1	3.5715e-06	2.3197e-06	1137.8	205.55	6.9804e-06	5.3432e-06	271.03	73.383	57.809	17.122	1.709e-06	24.034	0.00020197	0.00020407	5.5282e-05	1023.8	2.1791e-06	2.1505e-06	1113.2	203.31	2.1866e-06	2.1593e-06	256.51	73.015	56.841	17.153	2.1454e-06	24.158	54.555	-3.460	16.044	-91.853	-21.537	170.527	-91.539	-83.935	-82.104	67.102	-84.282	-77.572	-77.606	-69.916	79.356	-70.633	-8191	255	
575.545	1	1	0	0	0.13645	0.056081	0.16893	0.15363	0.28964	0.41676	0.35313	0.26079	0.17687	0.30112	0.073234	0.026491	0.21501	0.054088	0.098275	0.11624	-3.1375	-2.3375	-2.7771	-3.5125	-2.1542	-3.2729	-3.0521	-2.5146	-3.2646	-2.4875	-2.6625	-3.4271	-2.0958	-3.325	-2.9542	-2.2938	61.879	-79.438	-68.663	-91.922	201.251	-97.915	182.145	-71.392	-65.949	-48.703	195.045	82.824	-100.114	173.866	151.322	-70.772	0.0002179	0.00034603	8.1311e-05	1056.3	5.2699e-06	1.2496e-06	1137.8	207.01	3.3085e-06	3.9233e-06	267.74	73.087	57.807	17.074	1.7265e-06	23.917	0.00020121	0.00020181	5.5599e-05	1025.5	2.2478e-06	2.1764e-06	1114.4	203.73	2.2134e-06	2.2134e-06	255.87	73.059	57.001	17.134	2.2113e-06	24.207	42.236	30.253	-20.448	-91.710	-0.901	-11.375	-91.574	-83.774	206.610	63.987	-84.223	-77.400	-77.211	-70.306	176.072	-70.462	-8191	255	
575.641	1	1	0	0	0.17546	0.29035	0.23997	0.21421	0.3304	0.19093	0.12403	0.30727	0.087026	0.14465	0.13487	0.2043	0.059875	0.13957	0.086788	0.2278	-2.9292	-2.4437	-2.5333	-3.2542	-2.2042	-3.125	-3.15	-2.3667	-3.3812	-2.6312	-2.5146	-3.45	-2.1729	-2.9562	-3.2188	-2.2625	-41.566	96.163	242.439	224.658	80.927	-63.873	111.408	223.327	-6.265	145.200	216.870	60.912	-40.774	155.087	120.558	16.062	0.00025719	0.00034234	1.389e-05	1054	6.5286e-07	3.1404e-06	1140.1	205.91	4.3802e-06	2.0859e-06	271.27	73.35	58.216	16.899	2.0565e-06	24.108	0.0002014	0.00020431	5.7306e-05	1025.8	2.2302e-06	2.2116e-06	1113.2	203.69	2.1794e-06	2.2246e-06	256.91	73.12	57.032	17.106	2.193e-06	24.288	61.118	16.597	177.581	-91.519	-78.610	44.439	-91.372	-83.933	255.855	234.839	-84.269	-77.724	-77.890	-69.639	123.939	-70.277	-8191	255	
575.762	1	1	0	0	0.085873	0.090009	0.15072	0.074655	0.25904	0.13683	0.29424	0.10824	0.04955	0.10003	0.077743	0.20529	0.065182	0.045997	0.25808	0.079165	-3.1292	-2.6958	-2.4875	-3.6146	-2.3417	-2.7792	-3.4271	-2.3187	-3.2833	-2.9854	-2.3083	-3.5979	-2.3396	-2.8333	-2.8875	-2.3625	170.218	240.718	214.411	33.145	26.389	-40.862	222.208	121.838	216.165	98.942	-27.806	3.285	162.630	214.591	237.644	-17.341	0.00034133	0.00024318	1.6508e-05	1045.7	2.9134e-06	3.7295e-06	1135.5	205.64	1.2329e-06	3.0734e-06	268.65	73.557	57.339	17.037	3.5746e-06	24.149	0.00020114	0.00019773	5.5118e-05	1023.3	2.2126e-06	2.1852e-06	1112.9	203.34	2.2022e-06	2.1418e-06	255.77	72.875	56.909	17.128	2.2042e-06	24.225	79.447	13.563	233.547	-91.459	179.845	-15.979	-91.799	-84.024	186.423	15.753	-84.641	-77.491	-77.449	-69.748	106.592	-70.287	-8191	255	
575.858	1	1	0	0	0.14675	0.12207	0.069247	0.26845	0.18816	0.1306	0.24021	0.10908	0.13754	0.045652	0.11057	0.10646	0.11552	0.19711	0.23765	0.19542	-2.7562	-3.0083	-2.1125	-3.4208	-2.4729	-2.7583	-3.3521	-2.3667	-2.8771	-3.1167	-2.2938	-3.4313	-2.6667	-2.6854	-3.4979	-2.2333	47.826	-58.478	48.809	257.862	83.963	-57.630	-94.277	201.458	112.734	100.034	143.176	123.382	124.912	205.891	173.265	50.898	0.00026537	0.00028002	1.7874e-05	1050.3	3.719e-06	4.0981e-06	1143.9	206.59	1.3121e-06	4.1577e-06	267.91	73.204	57.577	16.975	2.1405e-06	23.986	0.00020356	0.00019721	5.6269e-05	1023.3	2.2201e-06	2.1793e-06	1115.3	203.76	2.1807e-06	2.1619e-06	255.87	72.991	56.982	17.092	2.1914e-06	24.186	78.601	-2.567	31.131	-91.675	144.507	-3.700	-91.544	-83.955	-7.215	95.093	-84.239	-77.144	-77.379	-70.236	-50.563	-70.643	-8191	255	
575.954	1	1	0	0	0.10014	0.06465	0.18194	0.13329	0.21851	0.15296	0.036027	0.039086	0.057264	0.19312	0.20248	0.065168	0.19635	0.052575	0.11853	0.14037	-2.7104	-3.1333	-2.0479	-3.4333	-2.6854	-2.4188	-3.4875	-2.4104	-2.9062	-3.0146	-2.3042	-3.2938	-2.5812	-2.4583	-3.2104	-2.2	21.763	145.309	-89.015	-43.888	202.851	-27.416	158.119	190.250	138.593	206.785	221.320	125.975	67.546	-74.613	-27.893	152.472	0.00030137	2.8936e-05	5.0742e-05	1053.6	6.2069e-07	3.9758e-06	1141.5	207.14	2.0152e-06	4.3371e-06	266.79	73.314	57.885	16.899	1.3252e-06	24.027	0.00020379	0.00020126	5.5661e-05	1025	2.1992e-06	2.1799e-06	1114.7	203.82	2.1893e-06	2.1561e-06	256.04	73.097	57.025	17.084	2.1962e-06	24.193	47.013	148.739	235.667	-91.792	24.774	120.687	-91.651	-84.030	230.822	45.080	-83.999	-77.453	-77.023	-70.210	-61.009	-70.535	-8191	255	
576.050	1	1	0	0	0.12934	0.30632	0.084096	0.11864	0.103	0.082637	0.0083901	0.27807	0.11693	0.10709	0.086203	0.15961	0.10631	0.059244	0.27655	0.29592	-2.6104	-3.0229	-2.1271	-3.3792	-2.6604	-2.4896	-3.5396	-2.325	-2.5812	-3.1979	-2.2229	-3.0625	-2.8229	-2.0396	-3.4292	-2.4708	-19.397	-101.074	-47.733	217.571	70.389	-34.199	251.917	256.033	242.992	99.363	99.614	171.142	200.046	-53.682	-43.866	63.627	0.0002665	0.00012641	9.8358e-05	1050.9	1.4603e-06	1.9361e-06	1140.9	206.99	5.0121e-06	6.9925e-06	267.06	73.484	57.387	16.968	3.5946e-06	23.894	0.00020445	0.00019741	5.5512e-05	1024.2	2.196e-06	2.1621e-06	1116.1	203.82	2.1675e-06	2.1792e-06	256.25	73.083	56.823	17.138	2.1783e-06	24.207	61.192	-19.465	21.778	-91.844	13.718	158.483	-91.721	-84.152	-87.994	92.983	-83.752	-77.356	-77.002	-70.184	72.738	-70.453	-8191	255	
576.146	1	1	0	0	0.18187	0.15039	0.1189	0.051526	0.20128	0.11476	0.095628	0.16771	0.076515	0.26818	0.22598	0.15129	0.16773	0.34682	0.10115	0.14494	-2.4854	-3.3625	-2.2896	-3.2417	-2.8458	-2.1688	-3.5208	-2.6104	-2.4688	-3.2542	-2.1	-3.025	-2.9708	-2.2687	-3.2042	-2.4938	44.350	117.048	-17.348	190.912	173.648	26.032	-39.348	187.193	14.977	-0.611	-39.770	144.584	162.027	246.465	-18.350	-71.239	0.0002489	0.00029029	4.8472e-05	1053.7	1.8735e-06	4.0421e-06	1141	205.25	1.9672e-06	6.1616e-07	270.51	73.289	57.568	17.051	4.5765e-07	23.97	0.00020291	0.00019972	5.6156e-05	1025.8	2.2028e-06	2.1803e-06	1116	203.4	2.2313e-06	2.1946e-06	256.64	73.012	56.913	17.125	2.2131e-06	24.161	49.087	25.808	-54.669	-91.569	-97.532	-29.225	-91.534	-84.429	-49.693	222.961	-84.341	-77.575	-78.221	-70.203	90.874	-70.340	-8191	255	
576.242	1	1	0	0	0.039323	0.1921	0.077716	0.099231	0.18112	0.12583	0.13867	0.078651	0.29668	0.16208	0.07197	0.35699	0.16321	0.16006	0.26058	0.23162	-2.1729	-3.5229	-2.2375	-3.1604	-3.1792	-2.25	-3.6354	-2.7021	-2.4417	-3.5187	-2.4333	-3.05	-3.1375	-2.4083	-3.0792	-2.8833	220.432	65.262	232.801	-70.414	-69.464	178.609	167.757	-78.132	247.478	-67.057	198.360	156.953	23.490	242.459	88.633	-15.533	0.00012186	0.00027305	6.7066e-05	1050.6	2.1448e-06	2.7569e-06	1138	205.42	8.6767e-07	1.324e-06	267.85	73.25	57.288	17.11	3.9923e-06	23.898	0.00020455	0.00019809	5.6361e-05	1024	2.2151e-06	2.2502e-06	1115	203.51	2.2434e-06	2.1958e-06	255.77	72.775	56.914	17.151	2.2284e-06	24.151	90.528	20.745	8.337	-91.647	-3.118	-40.783	-91.770	-84.231	250.415	-69.611	-84.452	-77.660	-77.340	-70.396	90.516	-70.479	-8191	255	
576.338	1	1	0	0	0.169	0.12874	0.25528	0.15326	0.04997	0.22384	0.18712	0.17354	0.12635	0.16424	0.17176	0.16236	0.26191	0.18412	0.21092	0.32472	-1.8875	-3.3167	-2.2042	-2.8479	-3.1125	-2.2	-3.1521	-2.95	-2.2771	-3.4271	-2.4979	-2.6458	-3.2542	-2.2646	-3.0396	-2.9229	41.261	255.511	211.947	-54.447	172.171	41.872	191.586	82.265	28.193	-21.983	-20.999	-43.554	-84.908	87.781	2.401	148.243	0.00030529	0.00040217	6.3724e-05	1050.3	6.7198e-06	5.6406e-06	1138.9	205.64	3.7283e-06	5.5128e-06	268.99	73.047	57.506	16.966	2.3278e-06	24.027	0.0002111	0.00020424	5.8259e-05	1023.4	2.2505e-06	2.2829e-06	1113.4	203.35	2.2868e-06	2.2427e-06	256.42	72.969	56.844	17.116	2.2924e-06	24.23	51.856	42.137	-62.289	-91.774	-12.896	24.007	-91.914	-83.950	-33.194	41.748	-84.865	-77.302	-77.907	-70.170	22.484	-70.780	-8191	255	
576.457	1	1	0	0	0.07004	0.028507	0.08374	0.22155	0.18804	0.2295	0.19194	0.26464	0.13826	0.11872	0.16874	0.1838	0.18291	0.091474	0.34072	0.18909	-1.9104	-3.4313	-2.3146	-2.5812	-3.2083	-2.2771	-3.3729	-3.0833	-2.1271	-3.3625	-2.6437	-2.5229	-3.4083	-2.2354	-2.8604	-3.1354	181.741	226.459	97.170	-86.556	189.719	-45.558	121.810	161.205	26.617	-3.092	-15.275	237.478	153.427	249.677	14.481	-34.604	0.00013459	0.0003222	0.00011982	1049.5	4.3854e-06	5.47e-07	1141.2	205.62	1.9833e-06	1.4059e-06	265.73	73.212	57.908	16.776	3.7037e-06	23.9	0.00020765	0.00020963	5.781e-05	1024.2	2.2649e-06	2.2897e-06	1115.5	203.2	2.2634e-06	2.2164e-06	255.65	73.073	57.177	17.071	2.2257e-06	24.168	103.860	94.394	53.237	-91.715	-54.798	66.632	-91.738	-84.017	-58.989	26.668	-84.618	-77.815	-77.526	-70.368	54.629	-70.683	-8191	255	
576.554	1	1	0	0	0.082418	0.14753	0.083368	0.099539	0.09047	0.29367	0.067638	0.21227	0.23697	0.13196	0.1808	0.25217	0.059436	0.25173	0.15166	0.13415	-1.9062	-3.3833	-2.6125	-2.5125	-3.3812	-2.4104	-2.7229	-3.375	-2.1646	-3.1604	-2.8083	-2.1813	-3.4167	-2.2833	-2.7104	-3.2562	-80.690	61.890	206.679	-101.198	120.515	-64.571	230.884	133.930	20.159	234.536	63.685	99.982	-56.119	198.245	-52.960	-9.280	0.00032068	8.1211e-05	2.3169e-05	1046.3	5.0477e-06	2.1871e-06	1135.2	205.93	6.3607e-06	2.186e-06	270.19	73.121	57.617	16.961	1.7654e-06	23.997	0.00020757	0.00020353	5.6119e-05	1022.7	2.2285e-06	2.2322e-06	1113.3	203.37	2.2564e-06	2.1929e-06	256.16	72.945	56.913	17.101	2.2162e-06	24.237	37.685	63.917	250.503	-91.749	118.733	-59.301	-91.480	-84.121	-44.778	42.645	-84.785	-77.604	-77.231	-70.140	-12.225	-70.357	-8191	255	
576.650	1	1	0	0	0.041599	0.048346	0.035368	0.16956	0.20282	0.20733	0.4011	0.24596	0.26339	0.38198	0.096095	0.13694	0.073901	0.05495	0.082726	0.042866	-1.7833	-3.1479	-2.7854	-2.225	-3.3479	-2.45	-2.6875	-3.4688	-1.9208	-3.0438	-3.0875	-2.2729	-3.3146	-2.4896	-2.4875	-3.3312	-90.621	-2.544	228.764	-70.916	87.785	-34.498	-98.735	133.994	88.790	-21.042	-32.872	255.387	230.468	17.698	164.712	203.438	0.00031979	0.00028621	8.9926e-05	1047.6	3.8007e-06	4.3218e-06	1143.6	205.76	3.5062e-07	2.8657e-06	266.8	73.11	57.557	16.936	5.265e-06	24.091	0.00020535	0.00020116	5.6262e-05	1022.8	2.2063e-06	2.2237e-06	1115	203.27	2.2425e-06	2.1823e-06	255.31	73.04	56.903	17.085	2.1797e-06	24.242	50.818	34.043	249.812	-91.687	220.342	214.992	-91.525	-83.963	9.506	40.847	-84.287	-77.563	-77.779	-70.215	-19.044	-70.285	-8191	255	
576.746	1	1	0	0	0.094851	0.14842	0.21577	0.13914	0.19359	0.16163	0.11364	0.30408	0.28583	0.18788	0.21507	0.14913	0.17962	0.2094	0.13987	0.29559	-1.9167	-2.8667	-3.1167	-2.3146	-3.2896	-2.6354	-2.3771	-3.4583	-2.1979	-2.7771	-3.2083	-2.1875	-3.3021	-2.5458	-2.3583	-3.3875	149.007	24.215	-90.446	201.825	46.315	126.802	183.158	2.229	257.462	-97.996	212.500	-80.234	-10.215	-18.586	-65.228	230.421	0.00033729	0.00020498	8.5988e-05	1046.9	4.6873e-06	8.458e-07	1138.3	205.86	5.3215e-06	1.599e-06	265.96	73.719	57.704	16.91	4.4085e-06	23.999	0.00020159	0.0001945	5.4274e-05	1022.5	2.1523e-06	2.152e-06	1113.4	203.1	2.1773e-06	2.1366e-06	254.37	73.007	56.836	17.1	2.1206e-06	24.176	79.584	16.946	-84.793	-91.689	31.612	31.306	-91.791	-84.150	-59.261	-14.808	-84.343	-77.911	-77.653	-70.297	64.829	-70.709	-8191	255	
576.842	1	1	0	0	0.13518	0.10681	0.11547	0.1416	0.11643	0.19725	0.12334	0.32085	0.15872	0.032393	0.077599	0.25362	0.11901	0.084857	0.34727	0.081986	-2.0083	-2.7375	-3.1146	-2.3583	-3.3146	-2.85	-2.6188	-3.4062	-2.6792	-2.4979	-3.3833	-2.2354	-3.0417	-2.9313	-2.1271	-3.3063	-8.981	123.539	69.541	-84.107	180.950	83.256	-91.509	181.845	185.828	80.033	112.465	249.671	-85.062	220.352	-75.546	136.229	0.00029626	0.00040796	9.6061e-05	1050.8	2.4115e-06	1.3782e-06	1136.1	206.56	4.6075e-06	1.7866e-06	269.46	73.504	57.744	17.069	1.9102e-06	23.909	0.00019618	0.00019687	5.3157e-05	1022.1	2.1619e-06	2.1189e-06	1112	203.39	2.1365e-06	2.0959e-06	255.17	72.955	56.935	17.121	2.1488e-06	24.145	55.166	13.074	-29.175	-91.801	37.445	20.792	-91.755	-84.105	38.658	56.278	-84.372	-77.579	-77.034	-70.087	-39.652	-70.715	-8191	255	
576.938	1	1	0	0	0.35706	0.12589	0.20968	0.1288	0.15412	0.025811	0.3326	0.30046	0.10905	0.1727	0.22278	0.15181	0.28112	0.19648	0.13648	0.20522	-2.2833	-2.4479	-3.3354	-2.2958	-2.9583	-2.9062	-2.5771	-3.3563	-2.5833	-2.4458	-3.3833	-2.3604	-2.8688	-3.3042	-1.9583	-3.4625	133.968	242.589	169.039	126.214	256.433	-70.212	-99.527	175.208	214.732	-2.837	-83.428	-86.535	135.533	-67.010	77.109	-99.673	0.00037425	0.00017975	7.0974e-05	1052.5	9.7707e-07	2.7716e-06	1142.1	205.54	4.683e-06	1.9993e-06	270.07	73.736	57.262	17.033	6.164e-06	24.01	0.0001984	0.00019024	5.3035e-05	1023.8	2.1169e-06	2.0515e-06	1115.7	203.05	2.117e-06	2.0976e-06	255.23	73.043	56.744	17.113	2.1632e-06	24.217	47.013	187.526	-21.520	-91.549	230.434	82.861	-91.600	-84.141	-23.906	-30.478	-84.458	-77.820	-77.641	-69.848	-1.109	-70.412	-8191	255	
577.059	1	1	0	0	0.10812	0.17364	0.16114	0.10627	0.020516	0.037468	0.29682	0.18568	0.081981	0.094345	0.29832	0.053722	0.23784	0.28668	0.26929	0.13672	-2.4021	-2.2375	-3.2625	-2.3958	-2.8958	-3.1	-2.4521	-3.2562	-2.7938	-2.3	-3.3792	-2.4708	-2.6312	-3.2917	-2.2042	-3.2792	190.441	-81.425	126.984	-53.112	257.959	171.684	121.884	220.903	81.182	147.388	96.304	99.448	-29.662	-88.324	9.357	178.305	0.00018431	9.8894e-05	9.5088e-05	1052.8	4.0849e-06	2.9951e-06	1138.9	206.76	3.5223e-08	4.4455e-06	268.1	72.857	57.433	16.978	3.6919e-06	24.064	0.00019628	0.00019558	5.3401e-05	1025	2.1395e-06	2.11e-06	1114.3	203.18	2.1418e-06	2.1245e-06	255.57	72.706	56.804	17.108	2.1022e-06	24.17	65.966	107.217	-54.081	-91.608	63.834	-58.288	-91.640	-83.981	41.376	22.638	-84.644	-77.728	-77.258	-70.248	42.358	-70.179	-8191	255	
577.155	1	1	0	0	0.1088	0.25069	0.081184	0.24763	0.12653	0.27768	0.2105	0.041283	0.34652	0.027099	0.036137	0.14402	0.14966	0.26662	0.15611	0.17965	-2.4833	-2.325	-3.5438	-2.4146	-2.5333	-3.2771	-2.35	-3.2208	-2.8896	-2.2438	-3.2313	-2.5333	-2.2833	-3.5375	-2.2562	-3.1458	69.622	-69.859	138.449	71.958	-73.457	132.323	185.346	-101.612	121.860	105.965	3.284	-20.808	55.243	200.728	6.843	233.671	0.00026808	0.00030488	7.2333e-05	1050.3	3.7924e-06	3.4449e-06	1139.1	206	4.833e-06	2.0052e-06	267.11	73.297	57.147	16.992	3.9116e-06	23.949	0.00019632	0.00019	5.3102e-05	1023.8	2.1309e-06	2.1012e-06	1116.1	203.1	2.1011e-06	2.0723e-06	254.56	72.807	56.574	17.086	2.0628e-06	24.162	53.678	79.993	-20.495	-91.612	30.536	-46.751	-91.698	-84.136	-45.041	85.481	-84.608	-77.455	-77.621	-69.489	93.608	-70.500	-8191	255	
577.251	1	1	0	0	0.21396	0.092547	0.2379	0.10521	0.17316	0.10169	0.13588	0.25651	0.077056	0.31086	0.10634	0.10908	0.11522	0.2946	0.19573	0.1132	-2.8187	-2.1312	-3.3479	-2.5292	-2.3396	-3.3708	-2.5083	-3.0125	-3.2812	-2.2604	-3.1833	-2.8875	-2.3583	-3.65	-2.1271	-3.0125	8.395	-65.963	252.190	173.096	26.144	-90.083	-58.979	139.468	180.678	-21.826	165.987	-71.389	221.719	-73.435	19.369	-19.970	0.00027974	0.00015618	4.7229e-05	1048.8	2.154e-07	1.8331e-06	1138.3	206.65	1.7516e-06	4.6222e-06	268.85	73.518	57.375	16.992	2.9461e-06	23.803	0.00019176	0.00018963	5.2799e-05	1021	2.0966e-06	2.0961e-06	1114.9	203.22	2.0905e-06	2.0752e-06	254.83	73.078	56.685	17.131	2.1267e-06	24.107	52.919	11.775	209.393	-91.736	143.189	7.965	-91.626	-83.907	226.458	93.173	-84.501	-77.670	-77.317	-69.952	59.664	-70.967	-8191	255	
577.323	1	1	0	0	0.29848	0.20743	0.1931	0.062286	0.18032	0.40895	0.2315	0.083594	0.20491	0.20629	0.06296	0.14251	0.36742	0.25481	0.073452	0.2479	-2.8625	-2.1083	-3.1813	-2.6271	-2.4146	-3.3958	-2.5375	-2.925	-3.1417	-2.0833	-3.1437	-2.9292	-2.25	-3.3479	-2.2146	-2.8875	51.995	183.590	149.959	-68.342	-13.237	-87.361	175.211	-0.302	236.043	33.191	-9.801	-99.619	-77.162	161.649	241.042	190.710	0.00033619	0.00063789	3.4264e-05	1049.1	1.9565e-06	6.8399e-06	1142.8	206.2	9.6403e-06	3.4737e-06	266.57	73.151	57.644	17.103	6.7677e-06	24.056	0.00019363	0.0001908	5.3082e-05	1020.3	2.1371e-06	2.0998e-06	1116.4	203.41	2.1149e-06	2.1192e-06	254.82	72.717	56.732	17.141	2.1359e-06	24.153	77.178	21.417	-90.890	-91.735	-59.285	83.477	-91.946	-84.024	-41.544	64.195	-83.994	-77.788	-77.662	-69.886	44.107	-70.758	-8191	255	
577.419	1	1	0	0	0.21814	0.20006	0.20382	0.12234	0.1694	0.31732	0.08218	0.080147	0.17829	0.22587	0.16506	0.10357	0.2373	0.22902	0.071142	0.1666	-2.9333	-2.2604	-3.0083	-3.2375	-2.0646	-3.3458	-2.6208	-2.6	-3.1042	-2.35	-3.0271	-3.0375	-2.1667	-3.1521	-2.5812	-2.4313	-3.102	59.394	105.834	28.614	51.676	63.831	106.165	48.814	224.477	195.894	88.109	238.895	251.053	49.209	80.825	96.826	0.00029267	0.00019668	2.9038e-05	1050	3.2769e-06	4.053e-06	1139.1	206.23	1.6021e-06	2.0497e-06	267.98	73.493	57.192	16.974	2.3461e-06	24.091	0.00019452	0.00019602	5.3019e-05	1024.2	2.1576e-06	2.0908e-06	1114.5	203.37	2.1275e-06	2.16e-06	255.49	73.007	56.748	17.149	2.1409e-06	24.16	82.831	-25.248	-98.817	-91.849	18.420	-84.964	-91.959	-84.194	-90.899	87.903	-84.501	-77.725	-77.878	-69.927	91.463	-70.642	-8191	255	
577.538	1	1	0	0	0.30061	0.11702	0.43289	0.20123	0.21344	0.055468	0.3918	0.11939	0.084022	0.042514	0.077956	0.092893	0.27944	0.038754	0.077816	0.19736	-3.1813	-2.1833	-2.7229	-3.1979	-2.1875	-3.1854	-2.7646	-2.2979	-3.4396	-2.1625	-2.8646	-3.2229	-2.1729	-3.3479	-2.8187	-2.2958	-10.460	-77.636	-28.927	161.583	13.692	24.316	239.711	-77.365	187.513	-45.983	193.265	-57.601	-39.153	74.363	177.148	169.615	0.00029927	6.7943e-05	0.00012197	1050.9	3.0756e-06	3.7203e-06	1142.4	205.64	6.103e-06	1.377e-06	269.94	73.145	57.261	17.005	1.7771e-06	24.073	0.00019523	0.00019512	5.3614e-05	1023.3	2.1928e-06	2.0687e-06	1114.6	203.35	2.1216e-06	2.1101e-06	255.73	72.865	56.832	17.101	2.1099e-06	24.208	30.707	-71.709	-21.727	-91.844	84.555	37.909	-91.771	-84.161	-25.769	94.075	-84.390	-77.695	-77.736	-69.789	41.914	-70.405	-8191	255	
577.634	1	1	0	0	0.22769	0.40257	0.28598	0.05277	0.28979	0.12492	0.25683	0.21516	0.10997	0.26034	0.19118	0.15555	0.18021	0.25478	0.22987	0.082851	-3.1021	-2.4	-2.625	-3.425	-2.2208	-2.9979	-3.1042	-2.4208	-3.4188	-2.3771	-2.6417	-3.375	-2.2729	-3.2479	-2.9562	-2.3042	-88.235	35.760	64.890	245.704	29.603	69.385	138.613	230.712	257.427	-1.734	233.148	-25.490	-34.173	-59.048	91.785	109.294	0.00030798	0.0003517	6.6353e-05	1049.4	2.5278e-06	2.2536e-06	1138	206.19	4.4223e-06	2.4682e-06	268.32	73.322	57.689	16.992	4.2257e-06	24.018	0.00019566	0.00019573	5.4429e-05	1023.7	2.1663e-06	2.129e-06	1113.3	203.12	2.1167e-06	2.1337e-06	255.41	72.86	56.921	17.097	2.0872e-06	24.132	43.946	-34.312	-75.546	-91.858	91.233	-12.731	-91.811	-84.135	-97.091	-12.903	-84.022	-77.701	-77.609	-70.295	55.357	-70.688	-8191	255	
577.730	1	1	0	0	0.071258	0.10199	0.1923	0.18279	0.038717	0.24812	0.092299	0.062838	0.12155	0.24885	0.15574	0.074679	0.19614	0.23851	0.17152	0.18496	-3.3187	-2.4958	-2.5687	-3.3563	-2.3833	-2.9	-3.3292	-2.2083	-3.4771	-2.5833	-2.3312	-3.4188	-2.2417	-3.0042	-2.9333	-2.2875	-48.033	182.939	-16.836	202.543	-89.758	64.514	169.656	-18.025	147.207	162.720	-6.623	-25.185	-100.870	255.046	119.195	83.916	0.00029944	0.00064542	7.8818e-05	1050.3	1.7125e-06	1.6629e-06	1138.5	205.44	5.0157e-06	1.0784e-06	266.29	73.204	57.892	16.979	4.005e-06	24.116	0.00019442	0.00019426	5.4066e-05	1023.8	2.1494e-06	2.0929e-06	1114.1	202.73	2.1006e-06	2.0944e-06	253.92	72.758	56.862	17.061	2.0639e-06	24.155	51.862	-7.147	-23.253	-91.794	-69.132	33.897	-91.736	-84.510	252.964	174.720	-83.879	-77.456	-77.380	-69.879	123.257	-70.580	-8191	255	
577.851	1	1	0	0	0.084846	0.062892	0.16864	0.24015	0.30556	0.17545	0.25812	0.15727	0.17952	0.18029	0.21378	0.14022	0.050265	0.13741	0.22688	0.13455	-2.8521	-2.7812	-2.5146	-3.3208	-2.3063	-2.8729	-3.5542	-2.3229	-3.2812	-2.9938	-2.3312	-3.4146	-2.4562	-2.9333	-3.1667	-2.3104	-28.117	176.139	229.304	248.224	190.596	1.444	141.124	104.784	36.163	-63.484	-28.745	32.275	115.581	-32.001	61.389	239.145	0.00020874	0.00012808	0.00011664	1052	4.1269e-06	1.3849e-06	1138	206.3	2.4692e-06	4.1757e-06	267.9	73.066	57.483	16.944	4.6369e-06	24.045	0.00019257	0.00019227	5.3519e-05	1023.4	2.1427e-06	2.0605e-06	1112.9	203.06	2.0825e-06	2.0377e-06	254.95	72.977	56.707	17.087	2.0361e-06	24.119	88.874	205.009	-78.012	-91.663	27.362	93.062	-91.936	-84.012	0.604	82.313	-84.307	-77.624	-77.495	-70.468	-20.902	-70.300	-8191	255	
577.922	1	1	0	0	0.11151	0.25502	0.31333	0.12176	0.12788	0.25905	0.073466	0.20118	0.33854	0.13921	0.090023	0.1472	0.30394	0.093502	0.088314	0.079108	-2.7083	-2.8167	-2.2958	-3.4437	-2.5333	-2.4833	-3.5021	-2.3	-3.2229	-2.9396	-2.0583	-3.4042	-2.3271	-2.5583	-3.2687	-2.3688	63.847	54.550	102.198	-25.005	86.360	223.944	175.501	-72.925	27.890	124.991	238.508	154.734	-37.153	181.000	12.581	11.667	0.00021826	7.7196e-05	0.00015576	1051.7	3.0703e-06	2.226e-06	1141.2	206.01	5.7767e-06	5.2734e-06	267.69	73.123	58.189	16.894	6.4926e-06	24.083	0.00019135	0.00018678	5.3224e-05	1022.2	2.1113e-06	2.0893e-06	1114.2	203.26	2.0711e-06	2.0659e-06	255	72.844	56.808	17.098	2.038e-06	24.145	38.258	36.231	-45.454	-91.807	49.211	44.353	-91.537	-84.156	-26.196	7.544	-84.494	-77.494	-77.888	-70.088	53.068	-70.854	-8191	255	
578.018	1	1	0	0	0.29299	0.31236	0.19401	0.19091	0.1732	0.13131	0.12707	0.20461	0.074447	0.12354	0.27221	0.10851	0.30622	0.081551	0.092604	0.21454	-2.7583	-3.0625	-2.3563	-3.4125	-2.7208	-2.4917	-3.7792	-2.325	-2.6979	-3.2208	-2.3708	-3.3438	-2.7083	-2.4104	-3.2708	-2.25	208.427	113.035	217.439	219.519	131.974	142.101	88.562	209.884	-9.853	-71.431	59.848	-21.229	-95.953	224.473	49.449	238.590	0.00026101	0.00037712	0.00010376	1050.2	1.6265e-06	3.8447e-06	1134.5	207.35	4.3995e-06	3.4875e-06	266.19	73.439	57.209	16.995	2.1486e-06	24.05	0.0001933	0.00018698	5.3116e-05	1023.4	2.1165e-06	2.06e-06	1112.8	203.53	2.0649e-06	2.0494e-06	254.8	73.027	56.648	17.086	2.0755e-06	24.177	39.816	-3.760	-11.123	-91.879	-1.793	57.813	-91.938	-84.395	102.473	55.228	-84.831	-77.382	-77.671	-70.288	112.755	-70.755	-8191	255	
578.139	1	1	0	0	0.1289	0.057788	0.06415	0.18463	0.21355	0.14405	0.34537	0.12157	0.20413	0.20802	0.20133	0.030623	0.14368	0.14371	0.019814	0.18248	-2.5312	-3.3646	-2.3375	-3.1813	-2.9875	-2.2125	-3.7375	-2.4583	-2.7229	-3.5396	-2.0771	-3.3146	-3.0438	-2.3292	-3.5583	-2.5563	26.386	-87.380	59.748	212.715	77.179	-97.196	235.091	-70.006	244.605	241.319	224.978	-83.364	53.972	196.756	246.408	17.026	0.00029522	0.00025995	8.9135e-05	1047.1	3.5149e-06	5.6869e-06	1138.1	206.16	4.4729e-06	3.851e-06	266.84	73.329	57.648	17.071	2.6929e-06	24.073	0.00019562	0.00019124	5.4252e-05	1021.9	2.1364e-06	2.0962e-06	1113.8	203.13	2.11e-06	2.0661e-06	254.56	72.834	56.833	17.131	2.0608e-06	24.185	58.144	34.723	255.660	-92.087	162.785	4.631	-91.995	-84.541	-4.418	127.070	-84.854	-77.844	-77.748	-70.428	-41.212	-70.969	-8191	255	
578.235	1	1	0	0	0.17389	0.14439	0.1523	0.35427	0.22045	0.14485	0.2728	0.23764	0.18667	0.14243	0.17946	0.040286	0.18265	0.28376	0.13966	0.12224	-2.3396	-3.2292	-2.1958	-3.175	-2.9646	-2.0354	-3.4313	-2.8042	-2.3542	-3.3604	-2.2875	-3.0667	-3.0521	-2.2417	-3.1625	-2.8896	103.838	-60.340	211.682	-86.427	46.089	166.788	151.911	-32.520	-27.643	-61.896	190.694	55.812	38.771	185.580	241.238	-68.214	0.00017772	0.00022912	4.4035e-05	1051	1.1688e-06	1.8086e-06	1141.4	205.91	7.3001e-06	2.364e-06	264.97	73.877	57.21	17.104	1.241e-06	23.988	0.00019085	0.00018859	5.2877e-05	1024.3	2.0971e-06	2.1101e-06	1116	203.29	2.0901e-06	2.038e-06	253.81	72.973	56.661	17.165	2.051e-06	24.131	4.686	2.458	-8.129	-92.080	79.681	-3.844	-92.065	-84.464	222.643	145.305	-85.213	-77.650	-78.142	-70.364	160.435	-71.047	-8191	255	
578.331	1	1	0	0	0.37073	0.10638	0.087897	0.13937	0.065333	0.082777	0.19616	0.25267	0.35464	0.10124	0.18107	0.40691	0.15926	0.035095	0.25482	0.18709	-2.2292	-3.5292	-2.3125	-2.9521	-3.0979	-2.2646	-3.4125	-2.8542	-2.1875	-3.2562	-2.4521	-2.7542	-3.2667	-2.0542	-3.1354	-2.9021	38.572	-5.515	63.094	-66.871	-36.645	103.672	151.764	-47.373	-17.584	-36.566	-62.289	223.892	-73.708	202.570	187.255	193.987	0.00021032	3.7262e-05	2.1074e-05	1053.5	2.9384e-06	1.9866e-06	1141.5	205.54	3.7621e-06	1.2322e-06	267.05	73.533	57.337	17.075	2.9585e-06	24.015	0.00019094	0.00018773	5.3013e-05	1023.8	2.0872e-06	2.0864e-06	1114.5	203.18	2.1088e-06	2.0851e-06	255.56	73.005	56.73	17.118	2.1152e-06	24.21	58.795	140.680	77.010	-91.826	43.165	10.913	-91.947	-84.478	145.604	14.982	-84.346	-77.992	-77.781	-70.704	-12.853	-70.879	-8191	255	
578.450	1	1	0	0	0.22848	0.12655	0.080426	0.3087	0.10004	0.1338	0.15065	0.30368	0.077043	0.12127	0.085675	0.10119	0.1666	0.30184	0.17569	0.15815	-2.1375	-3.3937	-2.4271	-2.7708	-3.2042	-2.1792	-3.1979	-3.0438	-2.1625	-3.3979	-2.5583	-2.5583	-3.3	-2.1354	-2.9938	-3.1937	201.897	187.916	68.103	-81.323	243.407	-78.581	-16.615	186.127	33.819	-23.356	243.681	134.390	1.561	191.487	-34.636	123.340	0.00021168	0.00024182	6.3732e-05	1051.5	2.5275e-06	9.2166e-07	1139.7	205.38	2.9178e-06	1.031e-06	264.77	73.701	56.965	17.044	3.31e-06	23.982	0.00019307	0.00019054	5.3366e-05	1023.1	2.1288e-06	2.1025e-06	1114.6	202.76	2.0796e-06	2.0637e-06	254.51	72.908	56.462	17.102	2.0874e-06	24.14	84.995	-23.151	91.759	-91.999	4.304	56.420	-92.044	-84.697	13.673	256.861	-84.192	-77.667	-77.872	-70.243	34.461	-70.752	-8191	255	
578.546	1	1	0	0	0.19856	0.11187	0.014957	0.18276	0.038006	0.084016	0.23228	0.29291	0.14196	0.098432	0.067507	0.4342	0.17063	0.055158	0.12641	0.20384	-1.9521	-3.3646	-2.4125	-2.375	-3.45	-2.1937	-3.0938	-3.3021	-2.2708	-3.3563	-2.7812	-2.3979	-3.3958	-2.4771	-2.9396	-3.2271	78.422	-71.783	60.141	-56.249	100.147	74.596	218.204	-101.251	164.192	176.622	4.912	-88.046	185.074	30.403	165.874	1.122	0.00027981	0.00032584	9.1853e-05	1050	1.0789e-06	8.3435e-07	1142	206.12	5.0463e-06	3.0225e-06	267.57	72.924	57.71	17.007	2.2496e-06	24.183	0.00019492	0.00019127	5.3209e-05	1023.4	2.098e-06	2.0939e-06	1113.6	202.84	2.09e-06	2.0879e-06	255.26	72.751	56.734	17.084	2.07e-06	24.216	55.273	-61.383	203.806	-91.888	-6.945	123.902	-91.803	-84.493	-75.422	-39.781	-84.935	-77.888	-77.578	-70.140	-10.283	-70.504	-8191	255	
578.618	1	1	0	0	0.1802	0.21409	0.18904	0.18834	0.26712	0.21499	0.15272	0.096582	0.16839	0.11972	0.20988	0.088043	0.31403	0.12928	0.054235	0.13143	-1.8333	-3.1146	-2.8229	-2.3875	-3.3125	-2.5083	-2.8771	-3.2062	-2.2562	-3.1937	-3.0875	-2.3563	-3.3708	-2.5	-2.5208	-3.3479	-34.183	179.146	-69.393	204.867	-96.918	94.893	-93.230	176.983	59.945	161.644	204.155	62.537	208.617	-90.532	168.114	201.982	0.00021118	0.00028885	4.5393e-05	1047.6	1.9512e-06	3.4258e-06	1138.3	206.47	2.8205e-06	3.7903e-06	268.31	73.271	58.162	16.862	3.3204e-06	23.839	0.0001966	0.00019143	5.3573e-05	1022.4	2.0906e-06	2.128e-06	1114.4	203.08	2.0678e-06	2.0393e-06	255.58	72.73	56.917	17.068	2.0899e-06	24.103	28.291	-10.514	16.718	-91.875	47.730	96.635	-91.846	-84.485	91.402	-13.162	-84.736	-78.001	-77.747	-70.301	4.518	-70.462	-8191	255	
578.739	1	1	0	0	0.090314	0.070138	0.13885	0.16511	0.059761	0.15467	0.25285	0.1253	0.2815	0.057427	0.066619	0.20354	0.13345	0.22482	0.21202	0.14602	-1.8667	-3.1	-2.9188	-2.3958	-3.2292	-2.6146	-2.5104	-3.3708	-2.2292	-2.9	-2.9688	-2.1083	-3.175	-2.6729	-2.3021	-3.5312	154.890	54.375	232.688	240.280	188.047	-89.614	212.229	13.287	74.855	206.941	-37.144	-24.433	230.050	254.726	-89.653	252.140	0.00024069	0.00021014	0.00013414	1055.3	4.3877e-06	6.7473e-07	1138.2	206.43	4.5344e-06	1.9138e-06	266.49	73.579	57.156	17.039	4.9787e-06	23.933	0.00019451	0.00018876	5.2997e-05	1023.8	2.0868e-06	2.045e-06	1114.5	203.11	2.0917e-06	2.0326e-06	254.81	72.923	56.677	17.112	2.0508e-06	24.146	69.485	60.857	3.145	-92.105	-46.491	215.344	-91.835	-84.118	-62.505	0.219	-85.255	-77.976	-77.437	-70.348	56.619	-71.071	-8191	255	
578.835	1	1	0	0	0.21707	0.16161	0.10947	0.23997	0.14422	0.1351	0.15013	0.085892	0.25531	0.17445	0.080219	0.17037	0.035636	0.070397	0.25407	0.19731	-2.0938	-2.9313	-3.0521	-2.3979	-3.2687	-2.8958	-2.4354	-3.2562	-2.3187	-2.8625	-3.25	-2.1458	-3.0646	-2.9083	-2.2292	-3.3479	216.508	17.214	199.341	-48.445	-32.716	233.730	142.904	161.071	152.828	26.134	202.933	209.716	-33.812	130.237	-33.936	213.973	0.00030412	0.00013223	4.269e-05	1050.7	1.581e-06	3.4284e-06	1132.8	206.48	3.1051e-06	7.6112e-06	268.14	73.116	57.223	17.033	2.3493e-06	23.865	0.0001911	0.00018941	5.2144e-05	1023.1	2.0773e-06	2.0773e-06	1112	203.64	2.0611e-06	2.0432e-06	254.67	72.875	56.55	17.055	2.0341e-06	24.157	50.061	69.295	0.904	-92.113	29.042	33.735	-92.097	-84.468	255.888	64.610	-85.001	-77.660	-78.422	-70.369	0.908	-70.802	-8191	255	
578.931	1	1	0	0	0.058423	0.22253	0.12915	0.35983	0.23241	0.2298	0.27309	0.095032	0.29559	0.12172	0.093661	0.06803	0.12759	0.081674	0.1042	0.089537	-2.1604	-2.6917	-3.3812	-2.4646	-2.9854	-3.0938	-2.3937	-3.2729	-2.4146	-2.55	-3.3917	-2.1813	-3.1562	-3.1042	-2.1625	-3.2562	245.019	87.015	252.012	188.687	132.518	159.374	253.312	220.703	115.477	-76.497	-34.642	33.787	244.999	37.001	240.742	7.121	0.00030076	0.00022591	7.4812e-05	1046.9	2.1822e-06	1.1906e-06	1137.9	205.84	9.4928e-06	3.4499e-06	264.24	73.47	57.385	17.061	3.0654e-06	24.059	0.00018815	0.00018782	5.1516e-05	1022.6	2.0703e-06	2.0261e-06	1112	203.04	2.0598e-06	2.0389e-06	254.23	72.937	56.794	17.103	2.0778e-06	24.139	62.900	-23.392	26.832	-91.999	16.893	137.111	-92.253	-84.237	68.135	56.399	-84.767	-77.833	-77.635	-70.116	-25.673	-70.917	-8191	255	
579.027	1	1	0	0	0.081971	0.1501	0.41061	0.076552	0.064236	0.12286	0.14341	0.17839	0.059278	0.21068	0.11008	0.33434	0.18041	0.29592	0.24809	0.18165	-2.4875	-2.3604	-3.3417	-2.4979	-2.9708	-3.2812	-2.3354	-3.2854	-2.5875	-2.3958	-3.5021	-2.3792	-3.0062	-3.1646	-2.3896	-3.3937	168.774	218.943	223.728	182.259	-85.277	197.052	-39.101	152.183	-71.423	252.921	-98.012	236.584	-101.224	-1.671	-73.292	246.107	0.00032164	0.00012674	0.00013061	1048.8	2.2992e-06	3.6541e-06	1138.7	206.37	4.8816e-06	1.2229e-06	267.44	73.449	57.627	16.894	1.5415e-06	24.071	0.00019185	0.00018753	5.1537e-05	1022.1	2.1016e-06	2.0013e-06	1114.5	203.43	2.0357e-06	2.0274e-06	253.8	72.629	56.79	17.029	2.0445e-06	24.1	52.735	0.096	41.103	-91.890	154.529	38.877	-91.840	-84.099	63.524	31.224	-84.633	-77.822	-77.602	-70.298	90.135	-70.319	-8191	255	
579.148	1	1	0	0	0.24788	0.10121	0.056581	0.25309	0.080575	0.077124	0.42316	0.028045	0.065308	0.15042	0.085919	0.08112	0.071392	0.035285	0.21327	0.29977	-2.3667	-2.3354	-3.3438	-2.4917	-2.6042	-3.3896	-2.125	-3.3958	-2.8458	-2.0729	-3.6167	-2.4875	-2.5083	-3.425	-1.9438	-3.2854	-35.545	71.315	-64.607	174.843	-4.176	40.785	-96.765	102.094	41.471	142.917	221.655	-70.066	137.417	146.769	71.202	234.172	0.0003931	0.00013196	9.0729e-05	1045.1	2.8147e-06	4.0818e-06	1137.3	206.51	3.2871e-06	4.7339e-06	267.21	73.116	57.824	16.92	3.454e-07	23.78	0.00018531	0.00018301	5.0919e-05	1021.5	2.0463e-06	1.9665e-06	1112.8	202.86	2.0011e-06	2.0008e-06	254.04	72.891	56.633	17.044	2.0394e-06	24.065	66.115	93.469	-9.427	-92.067	88.523	43.019	-92.067	-84.355	204.963	71.285	-84.897	-77.929	-77.826	-70.321	194.904	-70.499	-8191	255	
579.220	1	1	0	0	0.21024	0.18897	0.10936	0.34451	0.2392	0.036719	0.31174	0.15819	0.17535	0.25259	0.28836	0.15225	0.26674	0.094652	0.23065	0.054501	-2.7104	-2.2167	-3.525	-2.5458	-2.4042	-3.2958	-2.3896	-3.0708	-2.9521	-2.4083	-3.4437	-2.5604	-2.4938	-3.5917	-2.2938	-2.9375	-62.880	40.856	130.193	-87.329	213.653	43.487	195.281	171.171	106.768	124.540	28.494	77.685	249.717	51.843	202.573	-93.942	0.00024252	0.00034683	1.0587e-05	1048.1	2.7191e-06	5.3928e-06	1135	205.79	2.171e-06	5.1373e-06	265.81	73.154	57.574	16.941	2.1299e-06	24.041	0.00018404	0.0001804	5.0348e-05	1021.7	2.0223e-06	1.99e-06	1110.2	203.28	2.036e-06	1.9793e-06	253.8	72.742	56.595	17.059	2.0547e-06	24.12	50.414	-10.752	180.388	-91.908	-67.352	54.234	-91.922	-84.285	-52.193	58.411	-84.576	-77.990	-77.840	-70.039	44.811	-70.609	-8191	255	
579.316	1	1	0	0	0.21562	0.17344	0.13067	0.25192	0.1997	0.12937	0.33372	0.043544	0.15746	0.25075	0.07565	0.26956	0.068452	0.19413	0.27932	0.18269	-3.0083	-1.9646	-3.1583	-2.6813	-2.35	-3.3833	-2.4375	-2.7188	-3.2125	-2.2438	-3.3125	-2.8146	-2.3021	-3.2562	-2.3375	-2.6792	-92.416	-11.358	217.574	-97.642	186.367	103.458	188.634	188.193	88.831	132.889	-22.475	202.455	118.341	-0.909	209.970	22.557	0.00021344	4.7042e-05	6.0356e-05	1047	3.3902e-06	3.0547e-06	1133.3	205.48	1.9767e-06	9.6788e-07	267.08	73.541	57.586	17.088	1.2445e-06	24.093	0.00018306	0.00018759	5.1196e-05	1020.5	2.0749e-06	1.9968e-06	1110.4	203.08	1.9972e-06	2.002e-06	255.13	72.788	56.676	17.125	2.0307e-06	24.158	42.701	82.633	213.694	-91.894	23.221	62.679	-92.070	-84.247	218.515	40.583	-84.713	-77.891	-77.337	-70.180	37.433	-70.812	-8191	255	
579.412	1	1	0	0	0.13562	0.3458	0.062926	0.2335	0.040525	0.096083	0.12886	0.20046	0.19038	0.13054	0.26094	0.18995	0.11823	0.16663	0.24884	0.13848	-2.825	-2.15	-2.9458	-3.15	-2.1625	-3.5708	-2.55	-2.525	-3.3354	-2.1042	-3.0146	-3.1417	-2.225	-3.3063	-2.5042	-2.5438	179.749	149.601	54.205	-42.258	94.813	71.470	-86.147	-86.978	49.263	201.893	170.030	108.805	-18.552	-11.872	105.512	226.124	0.0003414	0.00041743	7.1031e-05	1051.5	4.9595e-06	1.3993e-06	1135	205.26	3.885e-06	5.3937e-06	267.2	73.304	57.427	16.996	4.8376e-06	24.178	0.00018476	0.00018716	5.1085e-05	1022.1	2.0957e-06	2.0166e-06	1111.7	202.99	2.0556e-06	2.0321e-06	254.68	72.636	56.691	17.064	2.0327e-06	24.241	51.790	-46.357	-13.124	-91.978	-44.095	22.903	-92.130	-84.135	2.715	51.087	-84.575	-77.783	-77.829	-69.901	-3.233	-70.764	-8191	255	
579.531	1	1	0	0	0.10521	0.075935	0.096455	0.2983	0.20434	0.13386	0.34504	0.12276	0.12087	0.27487	0.13391	0.13551	0.27248	0.2245	0.30581	0.26512	-3.0021	-2.2562	-3.05	-3.3375	-2.4021	-3.2854	-3.0583	-2.4646	-3.4417	-2.3937	-2.9813	-3.2042	-2.175	-3.1375	-2.6771	-2.4021	203.377	67.360	194.476	191.677	49.408	11.110	219.961	187.034	67.656	161.663	-97.280	142.018	17.862	239.170	101.496	43.043	0.00040018	0.0005778	4.5758e-05	1044.9	1.4242e-06	2.8348e-06	1137.8	205.91	3.5356e-06	3.8944e-06	265.44	73.177	57.547	16.923	2.6171e-06	24.052	0.00019177	0.0001917	5.3187e-05	1020.7	2.102e-06	2.0547e-06	1111.1	203.37	2.0759e-06	2.0682e-06	254.79	72.895	56.673	17.052	2.0769e-06	24.111	55.318	-2.124	144.479	-92.034	-32.064	21.692	-91.795	-84.414	42.007	21.733	-84.905	-78.093	-78.028	-70.296	2.982	-70.626	-8191	255	
579.627	1	1	0	0	0.16988	0.063265	0.13948	0.15397	0.082397	0.12046	0.1641	0.16299	0.088251	0.39556	0.15589	0.21568	0.085976	0.078994	0.21672	0.17215	-2.9479	-2.1688	-2.7646	-3.4521	-2.1188	-3.1333	-3.1771	-2.3271	-3.4313	-2.5187	-2.5563	-3.2625	-2.1854	-3.2042	-2.8937	-2.4125	18.911	-31.827	245.873	228.155	154.747	27.887	244.638	78.809	-83.695	2.589	-21.062	-26.330	82.581	-33.848	121.819	215.256	0.00036694	0.0003044	9.2341e-05	1049.5	2.6686e-06	1.3523e-06	1144.9	207.14	3.4336e-06	3.1178e-06	266.95	73.302	57.622	17.158	1.944e-06	23.945	0.0001894	0.00019165	5.2498e-05	1023.3	2.1071e-06	2.082e-06	1116.1	203.58	2.0729e-06	2.1415e-06	254.76	72.788	56.977	17.124	2.062e-06	24.12	66.020	63.391	21.239	-91.954	-43.069	80.794	-91.980	-83.922	214.997	19.828	-84.610	-77.409	-77.786	-70.542	50.579	-70.442	-8191	255	
579.723	1	1	0	0	0.066493	0.19653	0.28863	0.14045	0.024065	0.15551	0.13136	0.088328	0.19304	0.17629	0.15315	0.064595	0.16019	0.19233	0.20271	0.34766	-3.1417	-2.4625	-2.4646	-3.3042	-2.1625	-2.8812	-3.1562	-2.2271	-3.1437	-2.6167	-2.5146	-3.4208	-2.3063	-2.8417	-2.9062	-2.3229	-70.948	209.034	-70.203	-89.947	107.236	93.412	35.103	192.876	121.106	43.862	99.985	27.433	92.010	9.008	226.486	-79.670	0.00033071	0.00029171	0.00019139	1054.2	8.4732e-07	4.1916e-07	1136.2	205.65	4.4944e-06	2.1569e-06	268.92	73.464	57.392	16.932	2.966e-06	23.962	0.00019517	0.0001894	5.3295e-05	1023.8	2.1341e-06	2.0921e-06	1112.1	202.87	2.0702e-06	2.084e-06	255.39	73.037	56.712	17.09	2.0373e-06	24.177	66.465	139.474	-46.660	-92.020	166.305	-45.874	-91.982	-84.089	-45.459	43.307	-83.942	-78.236	-78.191	-69.947	112.090	-70.437	-8191	255	
579.819	1	1	0	0	0.18966	0.10093	0.18418	0.1875	0.077905	0.10904	0.32578	0.16542	0.10289	0.070724	0.22258	0.34432	0.068617	0.1825	0.041974	0.1686	-3.1229	-2.5729	-2.3958	-3.5583	-2.4583	-2.8438	-3.3167	-2.1937	-3.3646	-2.7	-2.3708	-3.5354	-2.4125	-2.9333	-3.175	-2.2625	23.112	173.786	253.408	221.172	51.367	-12.601	216.471	233.014	84.283	59.233	253.207	202.151	196.967	-62.797	165.531	-22.147	0.00024447	5.9306e-05	4.5672e-05	1049.5	1.728e-06	2.0229e-06	1138.3	205.89	3.6659e-07	1.1449e-06	268.06	73.242	57.282	17.076	2.6542e-06	23.907	0.00018852	0.00019046	5.1362e-05	1023.7	2.099e-06	2.0518e-06	1113.2	203.35	2.0411e-06	2.052e-06	255.09	72.879	56.554	17.092	2.0019e-06	24.146	70.609	119.176	-7.900	-91.903	-60.912	30.740	-91.790	-84.236	20.022	-18.099	-84.737	-77.733	-77.556	-70.182	37.488	-70.708	-8191	255	
579.915	1	1	0	0	0.37562	0.19842	0.036027	0.30569	0.21466	0.18363	0.20282	0.20161	0.19965	0.17122	0.25742	0.12774	0.2328	0.049006	0.045319	0.16218	-2.9646	-2.6937	-2.3979	-3.65	-2.5375	-2.7562	-3.4604	-2.6229	-3.0479	-2.9417	-2.2229	-3.3479	-2.4979	-2.5771	-3.2333	-2.1792	-23.887	60.043	88.358	192.219	-93.705	-62.521	194.767	162.637	88.662	27.680	-7.910	165.191	-46.498	-80.255	-58.128	158.823	0.00019132	0.00019433	8.7765e-05	1049.4	1.7999e-06	1.7419e-06	1138.4	206.86	2.8146e-06	3.8075e-06	266.77	72.739	57.648	16.958	5.1801e-06	24.124	0.00018621	0.00018578	5.1056e-05	1023	2.0398e-06	1.986e-06	1114.7	203.09	2.0109e-06	1.9879e-06	254.96	72.794	56.571	17.051	1.9762e-06	24.131	76.032	46.443	29.078	-91.911	113.152	100.416	-92.043	-84.213	-98.626	150.230	-84.105	-77.609	-78.321	-70.061	14.248	-70.777	-8191	255	
580.011	1	1	0	0	0.077549	0.14978	0.24851	0.2152	0.11309	0.21451	0.23403	0.25986	0.10891	0.17605	0.15284	0.18503	0.15407	0.06689	0.10315	0.14789	-2.7375	-3.0312	-2.1792	-3.325	-2.5479	-2.4854	-3.4688	-2.4979	-2.8167	-3.0667	-2.1917	-3.5938	-2.7417	-2.4979	-3.4875	-2.2833	18.049	63.124	-78.837	234.736	164.934	140.037	142.271	164.753	162.854	-71.637	-82.742	-62.838	-0.989	146.823	158.694	-42.023	0.0004726	0.00026216	7.272e-05	1048.7	2.6778e-06	2.0577e-07	1139.6	206.04	5.2354e-06	6.5453e-06	266.12	73.192	57.787	16.963	4.5512e-06	24.032	0.00018728	0.00017987	5.0129e-05	1022.1	2.0515e-06	1.96e-06	1111.2	202.79	2.0068e-06	1.9497e-06	254.3	72.755	56.711	17.099	1.9773e-06	24.18	53.902	41.227	100.127	-91.948	117.249	-16.004	-91.949	-84.057	139.315	25.310	-84.842	-77.807	-77.719	-70.051	55.521	-71.102	-8191	255	
580.132	1	1	0	0	0.15282	0.11842	0.1419	0.20239	0.2293	0.19973	0.17513	0.27545	0.20479	0.1482	0.03074	0.25184	0.37424	0.073285	0.060012	0.19444	-2.6854	-3.1312	-2.2687	-3.3104	-2.7458	-2.3583	-3.6458	-2.5187	-2.7083	-3.3667	-2.2938	-3.2604	-2.8	-2.2354	-3.4833	-2.5208	-76.009	-52.869	216.704	195.232	-37.858	134.896	116.916	220.751	205.411	9.395	122.873	-32.359	117.552	255.010	191.343	203.270	0.00021405	0.00039408	0.00013053	1048.8	4.4313e-06	4.5332e-06	1138.3	205.8	2.1377e-06	3.4412e-06	265.17	73.288	57.636	17.095	3.3809e-06	24.09	0.00018522	0.00018159	5.0582e-05	1022.1	1.9869e-06	1.9888e-06	1112.5	202.92	2.0041e-06	1.9609e-06	253.67	72.768	56.564	17.118	1.9802e-06	24.169	82.279	4.277	-43.783	-91.756	13.133	0.793	-91.885	-84.110	122.914	49.718	-84.892	-77.811	-77.677	-70.106	58.554	-70.660	-8191	255	
580.228	1	1	0	0	0.21413	0.084282	0.14081	0.10842	0.20733	0.14444	0.25129	0.10087	0.23163	0.25848	0.032717	0.082614	0.27047	0.08128	0.18587	0.14336	-2.3521	-3.3479	-2.2396	-3.25	-2.9271	-2.3208	-3.6083	-2.5687	-2.5208	-3.2625	-2.2042	-3.2667	-3.075	-2.2104	-3.5396	-2.7104	36.543	-61.187	137.877	-92.347	8.689	-9.430	-98.676	182.802	-11.784	6.313	227.242	-7.633	217.801	69.858	77.664	127.973	0.0001575	0.00027064	0.00012074	1051	1.5068e-06	1.8868e-06	1138.4	205.77	3.6955e-06	2.4838e-06	268.46	73.256	57.268	17.046	3.4795e-06	23.964	0.0001787	0.00017923	4.9391e-05	1021.6	1.9368e-06	1.9495e-06	1112.6	202.77	1.9045e-06	1.9364e-06	254.19	72.766	56.366	17.058	1.9231e-06	24.149	29.496	-44.211	-27.209	-91.562	-82.203	99.211	-91.748	-84.161	30.063	75.281	-84.311	-77.172	-77.390	-69.785	-34.279	-70.461	-8191	255	
580.323	1	1	0	0	0.19028	0.068259	0.072548	0.27176	0.19773	0.1948	0.17431	0.20103	0.22254	0.15512	0.2117	0.056838	0.16567	0.28397	0.11617	0.14207	-2.3271	-3.4	-2.3292	-3.1021	-3.2	-2.1479	-3.5042	-2.7667	-2.325	-3.5479	-2.3792	-2.9562	-3.4604	-2.2229	-3.2875	-3.0375	-61.743	-15.884	-21.964	249.833	-64.094	-99.974	213.928	2.118	-0.714	241.319	198.029	-14.454	199.243	-58.659	61.388	2.128	0.00020823	0.00040125	4.5954e-05	1050.9	6.6409e-07	2.455e-06	1138.1	205.79	3.1381e-06	1.5785e-06	266.52	72.947	57.564	16.789	4.0592e-07	24.007	0.00018107	0.00017621	4.911e-05	1022.3	1.9263e-06	1.9364e-06	1112.5	202.68	1.9261e-06	1.894e-06	253.68	72.534	56.415	16.989	1.8754e-06	24.098	63.568	-36.875	-25.856	-91.668	-33.498	217.554	-91.520	-83.850	-76.262	67.493	-84.215	-77.758	-77.282	-69.843	106.273	-70.306	-8191	255	
580.419	1	1	0	0	0.24991	0.27744	0.14586	0.076216	0.16592	0.25235	0.1369	0.17242	0.19146	0.14924	0.27262	0.2578	0.12721	0.30064	0.20634	0.10682	-2.1	-3.3187	-2.6271	-2.8688	-3.2396	-2.0646	-3.5167	-3.0333	-2.1667	-3.4958	-2.4771	-2.7542	-3.3396	-2.2417	-3.3063	-2.9896	240.523	-76.675	172.520	209.908	-47.187	44.998	202.655	149.154	188.820	-18.025	-98.936	204.213	203.211	163.098	185.240	114.326	0.00034188	0.00035068	8.3337e-05	1049.7	2.7207e-06	1.1412e-06	1140.8	206.08	4.7863e-06	2.6134e-06	264.44	73.572	57.26	16.95	1.5347e-06	23.823	0.00017894	0.00017643	4.9593e-05	1022.7	1.9877e-06	1.9749e-06	1112.7	203.1	1.9793e-06	1.9602e-06	252.79	72.96	56.637	17.098	2.0143e-06	24.031	13.007	-13.593	16.268	-91.581	246.412	-90.263	-91.371	-84.008	256.191	97.136	-84.262	-77.454	-77.256	-69.745	101.546	-70.161	-8191	255	
580.515	1	1	0	0	0.20749	0.031938	0.20794	0.1785	0.3107	0.21763	0.18153	0.2193	0.069375	0.029215	0.26781	0.16305	0.091762	0.34374	0.31293	0.14576	-2.0479	-3.2167	-2.6021	-2.6604	-3.2542	-2.3583	-3.1208	-3.2354	-2.1	-3.2938	-2.6979	-2.5167	-3.4146	-2.4458	-2.8146	-3.1729	221.364	198.955	-45.361	228.717	-29.846	60.004	158.574	222.361	-50.565	194.242	91.712	173.071	135.075	-89.317	42.560	86.841	0.00031387	0.0004524	3.7774e-05	1053.7	1.2287e-06	1.1862e-06	1137.5	205.1	6.3093e-06	9.0393e-07	265.62	73.566	57.583	16.84	4.4084e-06	24.145	0.00018705	0.00018121	5.2323e-05	1022.9	2.0024e-06	2.0116e-06	1114.6	202.78	2.0343e-06	1.997e-06	254.37	72.732	56.605	17.051	1.9591e-06	24.169	27.084	53.006	-45.693	-91.409	47.923	-82.243	-91.648	-84.057	-54.731	54.730	-83.840	-77.292	-77.325	-69.991	21.101	-70.914	-8191	255	
#DATA ENDS
