BOXY.EXE: ISS Imagent and Oximeter Data Acquisition Program Version 0.80
Ascii Record File

#ACQ INFORMATION
2  Detector Channels 
16  External MUX Channels 
1  Auxiliary Channels 
5000  Waveform (CCF) Frequency (Hz)
1  Waveforms Skipped 
30  Waveforms Averaged 
1  Cycles Averaged 
16  Acquisitions per Waveform 
10.0806  Updata Rate (Hz) 

#FILE INFORMATION
TRUE -- External MUX Channel results are PARSED.
FALSE -- AC DC and Phase are NOT grouped.
TRUE -- Companion Program Settings File CREATED.
FALSE -- AC data not excluded
FALSE -- DC data not excluded
FALSE -- Phase data not excluded
FALSE -- Auxillary Chn. data not excluded
Tab delimiters

#CALIBRATION STATE
TRUE -- Waveform Calibration Values APPLIED.


#AUX CALIBRATION VALUES
Val Type	aux-1	

Term	1.0000e+00	
Factor	0.0000e+00	


#WF CALIBRATION VALUES
A = Detector Channel
Val Type	A-AC1	A-AC2	A-AC3	A-AC4	A-AC5	A-AC6	A-AC7	A-AC8	A-AC9	A-AC10	A-AC11	A-AC12	A-AC13	A-AC14	A-AC15	A-AC16	A-DC1	A-DC2	A-DC3	A-DC4	A-DC5	A-DC6	A-DC7	A-DC8	A-DC9	A-DC10	A-DC11	A-DC12	A-DC13	A-DC14	A-DC15	A-DC16	A-Ph1	A-Ph2	A-Ph3	A-Ph4	A-Ph5	A-Ph6	A-Ph7	A-Ph8	A-Ph9	A-Ph10	A-Ph11	A-Ph12	A-Ph13	A-Ph14	A-Ph15	A-Ph16	

Term	0.00000e+00	0.00000e+00	0.00000e+00	0.00000e+00	0.00000e+00	0.00000e+00	0.00000e+00	0.00000e+00	0.00000e+00	0.00000e+00	0.00000e+00	0.00000e+00	0.00000e+00	0.00000e+00	0.00000e+00	0.00000e+00	0.00000e+00	0.00000e+00	0.00000e+00	0.00000e+00	0.00000e+00	0.00000e+00	0.00000e+00	0.00000e+00	0.00000e+00	0.00000e+00	0.00000e+00	0.00000e+00	0.00000e+00	0.00000e+00	0.00000e+00	0.00000e+00	0.00000e+00	0.00000e+00	0.00000e+00	0.00000e+00	0.00000e+00	0.00000e+00	0.00000e+00	0.00000e+00	0.00000e+00	0.00000e+00	0.00000e+00	0.00000e+00	0.00000e+00	0.00000e+00	0.00000e+00	0.00000e+00	
Factor	1.00000e+00	1.00000e+00	1.00000e+00	1.00000e+00	1.00000e+00	1.00000e+00	1.00000e+00	1.00000e+00	1.00000e+00	1.00000e+00	1.00000e+00	1.00000e+00	1.00000e+00	1.00000e+00	1.00000e+00	1.00000e+00	1.00000e+00	1.00000e+00	1.00000e+00	1.00000e+00	1.00000e+00	1.00000e+00	1.00000e+00	1.00000e+00	1.00000e+00	1.00000e+00	1.00000e+00	1.00000e+00	1.00000e+00	1.00000e+00	1.00000e+00	1.00000e+00	X	X	X	X	X	X	X	X	X	X	X	X	X	X	X	X	

B = Detector Channel
Val Type	B-AC1	B-AC2	B-AC3	B-AC4	B-AC5	B-AC6	B-AC7	B-AC8	B-AC9	B-AC10	B-AC11	B-AC12	B-AC13	B-AC14	B-AC15	B-AC16	B-DC1	B-DC2	B-DC3	B-DC4	B-DC5	B-DC6	B-DC7	B-DC8	B-DC9	B-DC10	B-DC11	B-DC12	B-DC13	B-DC14	B-DC15	B-DC16	B-Ph1	B-Ph2	B-Ph3	B-Ph4	B-Ph5	B-Ph6	B-Ph7	B-Ph8	B-Ph9	B-Ph10	B-Ph11	B-Ph12	B-Ph13	B-Ph14	B-Ph15	B-Ph16	

Term	0.00000e+00	0.00000e+00	0.00000e+00	0.00000e+00	0.00000e+00	0.00000e+00	0.00000e+00	0.00000e+00	0.00000e+00	0.00000e+00	0.00000e+00	0.00000e+00	0.00000e+00	0.00000e+00	0.00000e+00	0.00000e+00	0.00000e+00	0.00000e+00	0.00000e+00	0.00000e+00	0.00000e+00	0.00000e+00	0.00000e+00	0.00000e+00	0.00000e+00	0.00000e+00	0.00000e+00	0.00000e+00	0.00000e+00	0.00000e+00	0.00000e+00	0.00000e+00	-2.43752e+02	-1.49369e+02	-1.15578e+02	-1.84971e+02	-8.15020e+01	-8.02216e+01	-1.60638e+02	-1.62015e+02	-1.44886e+02	-8.86984e+01	-1.72071e+02	-1.76694e+02	-1.82305e+02	-1.76928e+02	-8.49769e+01	-1.50541e+02	
Factor	5.18947e-05	1.17211e-04	3.88026e-05	4.52419e-01	1.23514e-06	1.32260e-06	1.67699e-01	4.40929e-02	2.18152e-06	1.19589e-06	8.16000e-02	6.67102e-02	3.52009e-02	8.40092e-03	1.28892e-06	1.23437e-02	1.01606e-06	1.04120e-06	2.89414e-07	2.14893e-01	1.13683e-08	1.13954e-08	7.84688e-02	2.22030e-02	1.13717e-08	1.13943e-08	3.91502e-02	2.96658e-02	1.70639e-02	4.19268e-03	1.13581e-08	5.91318e-03	X	X	X	X	X	X	X	X	X	X	X	X	X	X	X	X	



#DISTANCE SETTINGS
A = Detector Channel
A-1	A-2	A-3	A-4	A-5	A-6	A-7	A-8	A-9	A-10	A-11	A-12	A-13	A-14	A-15	A-16	

2.5000e+00	3.0000e+00	2.5000e+00	3.0000e+00	2.0000e+00	3.0000e+00	1.5000e+00	3.0000e+00	3.0000e+00	3.0000e+00	3.0000e+00	3.0000e+00	3.0000e+00	3.0000e+00	1.5000e+00	3.0000e+00	

B = Detector Channel
B-1	B-2	B-3	B-4	B-5	B-6	B-7	B-8	B-9	B-10	B-11	B-12	B-13	B-14	B-15	B-16	

1.0000e+01	1.0000e+01	1.0000e+01	1.4400e+00	1.0000e+01	1.0000e+01	1.5100e+00	1.9400e+00	1.0000e+01	1.0000e+01	1.9900e+00	2.4900e+00	2.4100e+00	2.9000e+00	1.0000e+01	2.9800e+00	




#DATA BEGINS
time	group	step	mark	flag	A-AC1	A-AC2	A-AC3	A-AC4	A-AC5	A-AC6	A-AC7	A-AC8	A-AC9	A-AC10	A-AC11	A-AC12	A-AC13	A-AC14	A-AC15	A-AC16	A-DC1	A-DC2	A-DC3	A-DC4	A-DC5	A-DC6	A-DC7	A-DC8	A-DC9	A-DC10	A-DC11	A-DC12	A-DC13	A-DC14	A-DC15	A-DC16	A-Ph1	A-Ph2	A-Ph3	A-Ph4	A-Ph5	A-Ph6	A-Ph7	A-Ph8	A-Ph9	A-Ph10	A-Ph11	A-Ph12	A-Ph13	A-Ph14	A-Ph15	A-Ph16	B-AC1	B-AC2	B-AC3	B-AC4	B-AC5	B-AC6	B-AC7	B-AC8	B-AC9	B-AC10	B-AC11	B-AC12	B-AC13	B-AC14	B-AC15	B-AC16	B-DC1	B-DC2	B-DC3	B-DC4	B-DC5	B-DC6	B-DC7	B-DC8	B-DC9	B-DC10	B-DC11	B-DC12	B-DC13	B-DC14	B-DC15	B-DC16	B-Ph1	B-Ph2	B-Ph3	B-Ph4	B-Ph5	B-Ph6	B-Ph7	B-Ph8	B-Ph9	B-Ph10	B-Ph11	B-Ph12	B-Ph13	B-Ph14	B-Ph15	B-Ph16	aux-1	digaux	

596.719	1	1	0	768	0.19202	0.22142	0.040146	0.14654	0.23163	0.062492	0.039446	0.26353	0.27796	0.043674	0.038082	0.19364	0.046955	0.29549	0.11584	0.15743	-2.8646	-3	-3.4229	-2.9562	-3.1146	-3.3375	-3.125	-3.3667	-3.3271	-2.9437	-3.4146	-3.1083	-3.2292	-3.3646	-2.9854	-3.4833	174.625	418.321	424.576	392.896	394.825	378.577	380.604	388.803	264.297	155.099	236.872	311.339	169.058	475.825	457.378	474.836	0.0016132	0.00017261	0.00010735	1341.8	7.7836e-06	7.5061e-06	1345.5	364.73	1.7281e-05	1.0826e-06	412.16	141.76	121.03	41.178	1.0301e-05	51.244	0.00057379	0.000561	0.0001561	1378.4	6.1274e-06	6.1463e-06	1374.2	373.15	6.1517e-06	6.1306e-06	425.14	143.21	124.29	42.786	6.1428e-06	53.154	430.806	191.221	314.143	144.817	294.467	352.303	144.507	149.718	187.738	284.471	149.077	152.731	153.938	158.432	243.999	157.720	-8191	255	
596.815	1	1	0	0	0.17776	0.15305	0.14469	0.19698	0.096488	0.095513	0.15774	0.32328	0.20809	0.21159	0.14379	0.20312	0.069213	0.077573	0.19221	0.204	-2.7229	-2.7812	-3.2938	-3.1917	-3.1646	-3.2812	-3.2208	-3.2167	-3.2708	-3.0292	-3.4708	-3.0208	-3.05	-3.5417	-2.9542	-3.2354	153.183	272.678	323.304	331.462	247.214	354.957	385.535	489.649	171.567	218.225	423.523	150.216	336.678	237.948	486.972	254.334	0.0017086	0.00073705	5.5006e-05	1344.1	6.2058e-06	8.8985e-06	1345.6	365.68	1.5069e-05	1.4703e-06	414.93	141	121.14	41.309	5.6643e-06	51.021	0.00057131	0.00056023	0.00015629	1374.8	6.0704e-06	6.0887e-06	1374.7	373.67	6.1181e-06	6.1062e-06	425.72	143.17	124.35	42.815	6.1709e-06	52.999	419.078	472.873	226.502	144.666	281.592	261.414	144.410	149.449	240.092	282.710	148.861	152.822	153.941	158.560	222.802	157.646	-8191	255	
596.911	1	1	0	0	0.31264	0.40625	0.1628	0.37763	0.054104	0.22267	0.28974	0.18294	0.19562	0.25184	0.068948	0.17549	0.060658	0.10809	0.23706	0.38386	-2.7917	-3.0271	-3.325	-3.1729	-3.025	-3.5042	-3.425	-3.2979	-3.3292	-3.2	-3.3021	-3.2083	-3.0646	-3.4292	-3.1125	-3.3708	422.994	134.045	333.165	425.295	363.305	273.485	433.175	433.539	154.377	421.151	447.420	307.697	428.344	417.644	161.755	486.232	0.0016954	0.00037063	9.7717e-05	1339.4	4.4756e-06	5.0688e-06	1354.2	365.33	1.2939e-05	2.8514e-06	416.55	142.19	120.39	41.219	9.1139e-06	51.018	0.00057205	0.00056446	0.00015431	1375.7	6.1222e-06	6.1134e-06	1377	373.3	6.1716e-06	6.1181e-06	426.74	143.06	124.01	42.724	6.0464e-06	52.977	435.456	198.181	205.060	144.782	216.438	294.426	144.610	149.709	158.853	167.803	149.064	152.917	153.698	158.521	263.673	157.358	-8191	255	
597.007	1	1	0	0	0.050296	0.20136	0.20885	0.14488	0.24808	0.06567	0.24981	0.17445	0.19885	0.14311	0.05584	0.11409	0.090238	0.13162	0.27811	0.11673	-2.9208	-2.95	-3.1312	-3.2354	-3.0563	-3.3333	-3.35	-3.375	-3.3	-2.9646	-3.2771	-3.3375	-3.1	-3.3063	-3.1688	-3.2542	274.536	267.210	310.759	341.195	451.409	143.519	451.954	461.759	431.752	445.808	380.431	219.890	227.880	356.826	234.817	348.866	0.0015741	0.00080709	0.00012995	1339.3	8.811e-06	6.6533e-06	1353.1	365.03	9.8974e-06	3.8819e-06	414.52	140.35	120.91	41.15	9.32e-06	51.063	0.00056351	0.00055388	0.00015447	1375	6.0447e-06	6.0821e-06	1375.9	373.3	6.0894e-06	6.1006e-06	425.92	142.81	124.31	42.751	6.0531e-06	52.955	435.077	192.934	347.862	145.101	267.368	357.225	144.764	149.652	227.949	321.121	149.071	152.798	153.992	158.715	243.370	157.738	-8191	255	
597.103	1	1	0	0	0.076688	0.138	0.071752	0.18493	0.30997	0.039008	0.39914	0.35953	0.11874	0.027465	0.12579	0.093267	0.14646	0.24906	0.25071	0.19744	-2.9083	-3.1104	-3.0604	-3.3125	-3.1208	-3.2333	-3.4062	-3.2771	-3.25	-3.0979	-3.3563	-3.3896	-3.0854	-3.4917	-3.1292	-3.3812	442.888	192.429	338.086	151.956	182.837	426.895	436.172	437.439	472.654	360.736	141.051	170.661	149.025	466.168	382.491	489.805	0.0016654	0.00024314	0.00017705	1350.4	3.2881e-06	6.2658e-06	1347.6	363.95	1.3868e-05	5.3711e-06	413.82	141.2	120.46	41.262	1.1056e-06	50.986	0.00056166	0.00055494	0.00015333	1378	5.9995e-06	6.0333e-06	1373.8	372.86	6.0557e-06	6.0879e-06	425.32	142.48	123.94	42.753	5.9879e-06	52.902	431.994	490.647	232.288	145.220	322.296	280.864	144.538	149.576	149.575	202.632	149.152	153.043	153.890	158.652	323.763	157.514	-8191	255	
597.200	1	1	0	0	0.094194	0.4202	0.083423	0.024448	0.28663	0.059379	0.14863	0.10634	0.17169	0.20126	0.21278	0.13719	0.2288	0.10973	0.13453	0.1325	-2.9688	-3.0396	-3.2646	-3.4104	-3.1521	-3.1813	-3.4521	-3.125	-3.3542	-3.0604	-3.2292	-3.425	-3.0229	-3.45	-3.3063	-3.1375	475.918	329.216	400.885	257.825	444.469	377.383	194.867	446.086	186.912	391.890	399.942	462.522	449.017	369.983	468.015	323.472	0.001473	0.00054601	0.00023993	1346.7	2.3659e-06	1.4058e-06	1344.5	364.54	1.7592e-05	5.7379e-06	415.26	141.93	120.58	41.058	6.4584e-06	51.148	0.0005613	0.00055216	0.00015337	1372.8	5.9975e-06	6.0452e-06	1374	372.72	5.9688e-06	5.9754e-06	425.28	142.72	123.89	42.657	5.9727e-06	52.88	429.505	272.882	223.423	144.722	294.136	352.545	144.546	149.591	209.807	229.781	148.955	152.981	154.170	158.691	272.559	157.429	-8191	255	
597.320	1	1	0	0	0.14391	0.02962	0.10202	0.086701	0.090646	0.35899	0.33227	0.22036	0.24556	0.13464	0.18976	0.10268	0.10845	0.039006	0.12659	0.33743	-2.9854	-3.2021	-3.175	-3.3042	-3.1125	-3.4	-3.4729	-3.1104	-3.4188	-3.2354	-3.3208	-3.4521	-2.9979	-3.3125	-3.4083	-3.1104	403.680	340.255	344.630	143.186	286.076	367.099	430.539	397.971	177.127	354.559	392.888	425.040	447.875	201.711	201.793	191.861	0.0018133	0.00028076	0.00018355	1338	5.9158e-06	9.8447e-06	1347.9	363.62	9.1423e-06	3.3654e-06	413.75	143.3	120.18	41.051	4.6912e-06	51.078	0.00055773	0.00054949	0.00015131	1370.1	5.9773e-06	5.9413e-06	1372.9	372.16	5.9487e-06	5.9793e-06	425.05	142.86	123.7	42.637	5.9889e-06	52.829	432.314	193.823	272.666	145.027	309.243	302.727	144.568	149.588	244.374	451.343	149.073	152.900	154.118	158.694	309.925	157.578	-8191	255	
597.415	1	1	0	0	0.083879	0.26259	0.16784	0.29081	0.17958	0.23695	0.36401	0.34799	0.090302	0.072017	0.22864	0.16318	0.10125	0.21829	0.020803	0.18985	-2.8396	-3.0375	-3.0833	-3.3021	-3.1958	-3.0521	-3.5062	-3.1604	-3.3875	-3.1229	-3.0854	-3.4813	-3.2854	-3.2875	-3.4417	-3.1375	411.414	431.892	263.693	172.516	272.552	284.049	424.693	460.186	202.566	216.000	143.321	440.009	458.051	439.069	140.844	407.425	0.0017429	0.00049859	0.00028013	1342.1	6.5933e-06	2.6293e-06	1346.5	364.28	8.0804e-06	8.5097e-06	414.4	141.22	121.18	41.284	3.7352e-06	50.872	0.00055394	0.00054418	0.00015009	1372.2	5.9155e-06	5.9403e-06	1371.1	372.05	5.94e-06	5.882e-06	424.63	142.12	123.9	42.708	5.9145e-06	52.868	428.110	166.670	172.169	144.664	258.351	252.824	144.628	149.429	157.286	256.684	149.051	153.045	153.768	158.656	294.360	157.564	-8191	255	
597.511	1	1	0	0	0.21343	0.12258	0.10863	0.19537	0.31522	0.019141	0.049755	0.28163	0.11851	0.12803	0.37579	0.15783	0.3482	0.046539	0.23824	0.069302	-2.9479	-3.2083	-3.1312	-3.4562	-2.9729	-3.2396	-3.5604	-3.1	-3.4896	-3.3896	-3.275	-3.4125	-3.1188	-3.1729	-3.35	-3.2396	166.875	442.385	206.051	144.057	208.334	238.083	138.088	427.521	228.551	150.435	472.912	490.186	137.494	451.749	287.574	448.335	0.0017934	0.00044096	0.00012445	1345.1	1.1002e-05	7.8664e-06	1345.4	364.05	1.2812e-06	4.4758e-06	414.07	140.71	120.69	41.337	7.2212e-07	51.269	0.00055324	0.000539	0.00015053	1372.6	5.9021e-06	5.9244e-06	1372.2	372.3	5.9036e-06	5.9118e-06	424.66	142.42	123.81	42.723	5.9604e-06	52.955	430.352	277.868	169.628	145.046	194.558	366.628	144.717	149.510	174.434	324.034	149.000	152.749	153.969	158.631	394.670	157.628	-8191	255	
597.607	1	1	0	0	0.20874	0.11683	0.21179	0.10386	0.16813	0.19395	0.28205	0.26855	0.18904	0.1627	0.14305	0.12167	0.12054	0.18789	0.21628	0.41365	-3.025	-3.2896	-2.8312	-3.3875	-3.2542	-3.2604	-3.5687	-3.1042	-3.2687	-3.4125	-3.1688	-3.3479	-3.1688	-3.2479	-3.4042	-3.275	348.724	192.825	444.003	138.349	353.226	348.408	415.870	441.814	275.300	465.569	383.673	419.338	477.327	247.467	305.971	428.020	0.0015382	0.00036923	0.00013319	1345	5.5998e-06	3.9267e-06	1346.2	364.24	1.0035e-05	5.1386e-06	415.82	141.53	120.48	41.163	7.8279e-06	50.758	0.00055382	0.00054358	0.00015054	1370.3	5.8656e-06	5.855e-06	1372.3	372.24	5.9399e-06	5.8728e-06	424.98	142.58	123.63	42.657	5.9373e-06	52.867	421.669	467.781	340.590	145.076	466.346	277.171	144.570	149.504	198.805	263.140	148.954	153.277	154.003	158.524	158.813	157.664	-8191	255	
597.703	1	1	0	0	0.24656	0.20978	0.16578	0.17357	0.16815	0.18327	0.2523	0.14702	0.091869	0.12739	0.15185	0.1995	0.094389	0.063181	0.068179	0.21935	-2.9938	-3.1937	-2.925	-3.4854	-3.0896	-3.1188	-3.5021	-3.2438	-3.1688	-3.2	-2.9625	-3.3937	-3.2396	-3.3375	-3.3729	-3.2896	158.720	321.940	351.981	144.132	399.370	276.830	438.762	354.197	469.413	422.141	164.366	341.263	272.399	467.373	442.011	483.860	0.0019073	0.00047034	8.612e-05	1338.7	1.0025e-06	1.4068e-06	1346.4	363.9	1.5681e-05	1.9938e-06	414.54	140.83	120.98	41.451	8.7088e-06	51.099	0.00055242	0.00053828	0.00015075	1368.6	5.9377e-06	5.939e-06	1371.6	372.65	5.955e-06	5.8969e-06	424.68	142.32	123.79	42.781	5.9226e-06	52.83	432.817	213.782	298.195	145.034	217.931	262.375	144.453	149.647	189.389	250.332	148.974	152.962	153.945	158.697	267.529	157.711	-8191	255	
597.799	1	1	0	0	0.13458	0.10349	0.017619	0.34119	0.10749	0.27145	0.53485	0.23591	0.13057	0.092259	0.25732	0.085098	0.33216	0.029279	0.081869	0.026375	-2.6979	-3.4	-3.0938	-3.5167	-3.3167	-3.0833	-3.5604	-3.1729	-3.0687	-3.325	-3.2104	-3.125	-3.375	-3.0833	-3.2229	-3.3229	187.152	275.883	434.509	467.534	433.133	457.408	449.454	437.332	140.991	365.905	354.153	472.664	446.074	298.759	400.847	140.458	0.0015803	0.00056853	0.00020834	1344.6	6.1413e-06	1.0761e-05	1347.2	364.71	1.0501e-05	2.03e-06	412.96	140.56	120.39	41.335	8.7685e-06	51.061	0.00055088	0.00053961	0.00014912	1369.9	5.8826e-06	5.8622e-06	1370.9	372.29	5.8121e-06	5.7522e-06	423.58	141.94	123.08	42.606	5.7371e-06	52.75	429.472	205.172	178.679	145.068	222.885	227.042	144.660	149.532	225.723	218.224	149.112	152.932	154.127	158.647	190.282	157.733	-8191	255	
597.920	1	1	0	0	0.099357	0.076153	0.12233	0.32709	0.12083	0.26861	0.023906	0.17799	0.068636	0.29807	0.31024	0.19119	0.11942	0.20836	0.23855	0.25634	-2.5187	-3.3271	-3.0187	-3.3688	-3.15	-3.0062	-3.5271	-3.2438	-3.1292	-3.2896	-3.1021	-3.3125	-3.5958	-3.1854	-3.3708	-3.4771	181.780	398.882	414.300	191.574	310.995	229.359	183.060	465.445	352.811	394.139	471.041	195.555	216.758	440.570	427.026	414.789	0.001608	0.00040863	0.00021328	1342.2	3.4068e-06	2.599e-06	1343.5	363.99	4.5849e-06	5.597e-06	413.15	140.16	120.85	41.328	5.0518e-06	51.114	0.00053514	0.00052315	0.00014774	1366.5	5.7315e-06	5.7761e-06	1368	371.11	5.7994e-06	5.8213e-06	423.77	141.33	123.48	42.678	5.9582e-06	52.949	425.781	190.834	335.284	145.148	209.019	245.317	144.622	149.689	236.291	258.043	148.972	152.823	153.893	158.524	447.927	157.671	-8191	255	
598.016	1	1	0	0	0.088514	0.076729	0.049737	0.071041	0.069294	0.11174	0.20047	0.31816	0.10639	0.0078189	0.14173	0.05663	0.089592	0.20999	0.16166	0.093379	-2.6396	-3.3958	-3.0604	-3.4167	-3.4437	-3.0292	-3.5833	-3.525	-2.9813	-3.4188	-3.2333	-3.1646	-3.3771	-3.1562	-3.1771	-3.3312	306.828	389.209	383.519	362.034	176.332	460.993	333.832	441.757	349.937	292.417	452.992	277.703	374.723	331.934	466.006	159.670	0.0018962	0.00027429	2.5408e-05	1348.2	2.682e-06	5.26e-06	1349	363.47	1.483e-05	7.5411e-06	414.38	139.58	120.66	41.389	6.2795e-06	50.893	0.00056137	0.00055315	0.0001545	1375.8	6.0851e-06	6.1192e-06	1373.7	372.54	6.1514e-06	6.1189e-06	425.67	141.11	124.11	42.811	6.0883e-06	52.834	432.666	133.270	353.051	145.016	330.790	265.961	144.609	149.742	200.587	291.468	149.140	152.908	153.762	158.620	236.577	157.458	-8191	255	
598.112	1	1	0	0	0.36735	0.035515	0.20465	0.12378	0.070889	0.26048	0.20672	0.35585	0.37603	0.22576	0.29411	0.12855	0.14724	0.22001	0.08608	0.055664	-2.5687	-3.2854	-3.0604	-3.1708	-3.3229	-3.0354	-3.3875	-3.4562	-2.9792	-3.3583	-3.2104	-3.2021	-3.4229	-3.0687	-3.2812	-3.3854	394.019	198.786	445.917	463.109	355.319	234.620	440.717	468.075	155.104	481.813	403.213	213.449	362.746	157.504	365.124	458.397	0.0016708	0.00013485	0.00019219	1340.7	2.7182e-06	3.3833e-06	1341.9	364.56	1.1714e-05	2.5917e-06	413.98	139.31	120.54	41.083	6.1802e-06	50.773	0.00056322	0.00055221	0.00015323	1371.6	5.9529e-06	6.0339e-06	1370.5	372.18	5.9485e-06	5.8958e-06	424.34	140.14	123.45	42.577	5.8411e-06	52.694	431.345	253.866	181.508	145.291	262.033	329.738	144.504	149.626	210.838	253.567	149.083	153.291	153.820	158.686	261.598	157.762	-8191	255	
598.207	1	1	0	0	0.13983	0.23468	0.069497	0.1898	0.20894	0.19678	0.12168	0.11047	0.18447	0.047723	0.10712	0.16388	0.23637	0.2185	0.15876	0.1984	-2.5792	-3.4479	-3.2292	-3.1583	-3.3875	-3.1542	-3.2875	-3.5812	-3.0646	-3.4396	-3.3375	-3.1771	-3.35	-3.2271	-3.1375	-3.5479	306.578	263.735	343.475	154.072	234.991	473.793	417.232	364.590	262.335	164.077	470.292	180.483	167.921	419.217	326.311	449.792	0.001605	0.00076654	0.0001802	1340.5	4.91e-06	5.3119e-06	1343.1	363.41	1.3734e-05	6.8308e-06	413.19	138.74	119.98	41.263	7.324e-06	51.081	0.00054307	0.00053249	0.00014656	1362.7	5.7924e-06	5.7865e-06	1367.8	371.26	5.7681e-06	5.7638e-06	423.09	139.66	123.27	42.618	5.7689e-06	52.748	431.829	226.410	294.038	145.025	216.056	274.598	144.873	149.561	228.230	223.954	149.118	153.030	154.113	158.466	283.110	157.813	-8191	255	
598.280	1	1	0	0	0.19433	0.068022	0.20824	0.14398	0.3851	0.058383	0.11806	0.32585	0.24063	0.047014	0.24725	0.2032	0.17739	0.15754	0.14421	0.18559	-2.6625	-3.3625	-3.0583	-3.0167	-3.3063	-3.1104	-3.2771	-3.5292	-3.0417	-3.2625	-3.4562	-3.0812	-3.3833	-3.2313	-3.2438	-3.4146	262.974	272.626	233.550	390.422	219.748	245.773	345.109	474.782	323.762	256.511	457.191	384.346	177.964	395.223	478.733	423.779	0.0017414	0.00022836	0.00014215	1343.4	4.1895e-06	3.3738e-06	1341.8	363.56	8.2998e-06	1.3332e-06	413.53	140.7	120.01	41.032	8.4602e-06	50.937	0.00054083	0.00052996	0.00014721	1360.5	5.7475e-06	5.7363e-06	1365	370.95	5.6914e-06	5.6774e-06	422.54	140.49	122.83	42.446	5.6465e-06	52.647	438.239	167.867	226.831	144.979	306.434	285.428	144.581	149.766	221.925	429.397	149.170	152.593	154.063	158.569	299.760	157.489	-8191	255	
598.399	1	1	0	0	0.027299	0.12208	0.21534	0.041219	0.27869	0.1746	0.24242	0.28546	0.086749	0.28126	0.14315	0.10758	0.40425	0.067025	0.12745	0.17061	-2.7521	-3.2271	-3.275	-2.8937	-3.1729	-3.2083	-3.2875	-3.4708	-3.1333	-3.1875	-3.2833	-2.9771	-3.4333	-3.2917	-3.0958	-3.4604	149.067	194.527	198.269	291.683	418.157	301.257	417.609	410.123	308.599	414.322	349.621	207.869	428.630	164.720	335.605	473.331	0.00171	0.00031499	0.00018306	1330.6	3.8643e-06	6.5871e-06	1337.1	362.98	1.2767e-05	2.4346e-06	412.48	141.13	119.91	41.027	1.0909e-06	51	0.00052736	0.00052327	0.00014546	1357.8	5.7442e-06	5.7306e-06	1361.8	370.86	5.7675e-06	5.7592e-06	422.38	141.96	123.07	42.522	5.7211e-06	52.716	429.118	173.802	229.352	145.230	188.327	261.644	144.559	149.662	157.047	448.207	148.918	152.995	154.003	158.497	467.560	157.631	-8191	255	
598.495	1	1	0	0	0.16271	0.15418	0.30013	0.073447	0.028703	0.187	0.2046	0.1944	0.2318	0.077246	0.14753	0.41039	0.048019	0.24315	0.082658	0.10622	-2.8396	-3.0708	-3.275	-3.1792	-3.3396	-3.1896	-3.0958	-3.5583	-3.1417	-3.0146	-3.4271	-3.0479	-3.2708	-3.2979	-3.0167	-3.5375	328.153	328.324	331.309	480.773	180.168	374.679	414.803	395.530	322.407	144.033	432.068	459.287	405.760	483.876	488.259	132.886	0.0018123	0.00013945	0.00011081	1336.6	2.9248e-06	2.1478e-06	1339.6	363.31	7.8495e-06	2.6141e-06	412.38	141.21	121.06	41.178	6.896e-06	51.175	0.00053701	0.00052908	0.00014742	1359.7	5.8069e-06	5.8607e-06	1365.1	371.9	5.951e-06	6.0043e-06	423.76	142.38	123.76	42.686	5.9709e-06	52.912	426.351	134.415	218.434	144.824	262.968	310.435	144.503	149.692	240.665	303.458	149.109	152.834	154.034	158.487	260.776	157.636	-8191	255	
598.591	1	1	0	0	0.062108	0.24391	0.031019	0.14478	0.027977	0.12201	0.16076	0.092613	0.12926	0.17412	0.0098119	0.084167	0.17803	0.24507	0.21374	0.071325	-2.5833	-3.1208	-3.3604	-3.1063	-3.1792	-3.1604	-3.3104	-3.6229	-3.1021	-3.2188	-3.45	-3.0417	-3.175	-3.2604	-2.8917	-3.3458	426.033	232.298	135.390	139.165	248.838	425.415	471.345	361.035	478.225	433.399	240.384	216.028	478.793	489.205	353.497	202.077	0.001935	0.00038876	0.00015524	1335.9	7.4412e-06	3.528e-06	1338.7	363.95	9.8861e-06	5.1304e-06	412.47	141.96	120.44	41.267	8.124e-06	50.802	0.00055613	0.00055114	0.00015297	1369.1	5.9616e-06	5.9436e-06	1368.9	372.48	5.8983e-06	5.8431e-06	423.61	141.8	123.3	42.655	5.8084e-06	52.725	434.144	311.206	320.287	144.737	349.602	307.816	144.658	149.676	179.765	308.752	149.154	153.043	154.249	158.409	256.723	157.851	-8191	255	
598.687	1	1	0	0	0.054826	0.030596	0.21086	0.12611	0.14196	0.32448	0.24004	0.028165	0.14403	0.052781	0.073595	0.14261	0.22122	0.13318	0.27085	0.033743	-2.7687	-3.0104	-3.3271	-3.0646	-3.2	-3.35	-3.0646	-3.5021	-3.1312	-3.0125	-3.4667	-3.0896	-3.2979	-3.5833	-3.0104	-3.3771	273.505	237.100	201.465	313.823	456.390	429.392	139.627	486.589	289.560	227.579	282.098	318.233	356.429	422.064	422.065	354.189	0.0019202	0.00051289	0.00020276	1337.2	5.3207e-06	5.4055e-06	1342.8	363.68	1.6173e-05	3.4534e-06	413.08	137.63	120.64	41.125	8.081e-06	50.997	0.00054714	0.00053663	0.00014934	1367.2	5.897e-06	5.9092e-06	1369.7	372	5.9835e-06	5.9891e-06	424.48	139.8	123.74	42.723	6.1088e-06	52.901	428.250	221.971	164.591	145.439	247.474	200.157	144.636	149.511	183.055	272.847	149.028	152.963	154.093	158.417	294.157	157.572	-8191	255	
598.808	1	1	0	0	0.17965	0.27153	0.28169	0.089912	0.22542	0.1065	0.18542	0.36827	0.15675	0.13992	0.37573	0.32551	0.18636	0.065622	0.12297	0.083978	-2.8104	-2.9313	-3.3833	-3.2396	-3.1813	-3.3208	-3.0854	-3.4813	-3.2167	-2.9	-3.3417	-2.9562	-3.0958	-3.3063	-3.0521	-3.2354	435.922	280.831	483.299	445.238	366.609	286.750	448.422	449.032	450.705	387.858	401.406	406.062	132.988	377.180	352.028	446.782	0.0019533	0.00047429	0.00020909	1334	4.4716e-06	9.4656e-07	1345.3	362.82	2.6e-05	1.1952e-06	412.3	136.08	120.57	41.179	9.4331e-07	50.756	0.00056262	0.00055261	0.00015312	1368.3	5.9051e-06	5.8884e-06	1367.3	371.18	5.8298e-06	5.8165e-06	423.21	137.6	123.24	42.559	5.7574e-06	52.647	438.493	241.246	184.885	145.093	249.813	162.049	144.520	149.437	174.810	181.951	149.111	153.004	154.100	158.786	209.327	157.664	-8191	255	
598.880	1	1	0	0	0.2766	0.084305	0.061837	0.28609	0.094863	0.1868	0.25208	0.31716	0.15925	0.41799	0.06132	0.23145	0.11511	0.14823	0.22555	0.18239	-2.8396	-3.0229	-3.1792	-3.0375	-3.0083	-3.4354	-3.2667	-3.2354	-3.0125	-2.9104	-3.3604	-3.1958	-3.1521	-3.3875	-3.0729	-3.375	138.005	143.716	180.033	415.403	467.888	366.106	460.023	471.880	347.032	167.603	446.647	354.460	451.785	463.161	238.978	220.725	0.0016908	9.5049e-05	0.00035213	1329.1	9.6055e-06	4.0507e-06	1336.3	363.6	1.0066e-05	5.9354e-06	413.3	136.82	119.94	41.047	5.4602e-06	50.927	0.00053391	0.000524	0.0001456	1360.6	5.7956e-06	5.8096e-06	1365	370.82	5.8696e-06	5.8202e-06	423.36	137.89	122.93	42.467	5.847e-06	52.731	440.582	366.691	244.672	145.159	222.619	482.952	144.724	149.466	239.989	258.053	149.164	152.821	153.961	158.540	244.349	157.624	-8191	255	
599.000	1	1	0	0	0.16191	0.15669	0.20191	0.073469	0.26343	0.17251	0.044078	0.34324	0.062847	0.15804	0.18291	0.17473	0.29184	0.068708	0.13403	0.03232	-2.7042	-3.0187	-3.2479	-3.2458	-3.0417	-3.4083	-3.2417	-3.2208	-3.1521	-3.0271	-3.2792	-3.0187	-2.8729	-3.4562	-3.1583	-3.0375	441.404	268.046	169.230	186.732	285.318	132.819	400.824	412.636	265.719	227.280	153.565	395.455	393.211	223.201	298.815	334.687	0.0017609	0.0004758	0.00024936	1336	5.078e-06	2.05e-07	1344.1	363.54	6.9453e-06	5.268e-06	413.6	137.55	120.08	41.002	5.8755e-06	50.868	0.00054235	0.00054076	0.00015029	1362.1	5.8752e-06	5.905e-06	1368	371.34	5.9214e-06	5.9226e-06	423.7	138.04	123.35	42.55	5.8667e-06	52.758	438.141	190.753	285.138	144.881	226.596	425.588	144.465	149.575	213.916	164.048	149.125	153.203	153.910	158.687	279.092	157.774	-8191	255	
599.096	1	1	0	0	0.075339	0.13084	0.28865	0.24349	0.051922	0.049951	0.34491	0.20752	0.19535	0.099423	0.065797	0.21349	0.212	0.33724	0.17759	0.23338	-2.8646	-2.8542	-3.1458	-3.1875	-2.8417	-3.2188	-3.2938	-3.1125	-3.3542	-3.1042	-3.2979	-3.3812	-3.1292	-3.6229	-3.1625	-3.2292	180.933	474.656	247.299	414.335	322.597	199.758	444.433	452.223	143.413	351.386	444.145	189.781	207.649	491.396	457.565	445.515	0.0017669	4.938e-05	5.5724e-05	1333	5.1561e-06	5.5534e-06	1342.8	362.72	9.9226e-06	7.8649e-06	412.56	136.82	120.68	41.152	2.0244e-06	50.837	0.0005413	0.00053462	0.00014713	1360.7	5.81e-06	5.8478e-06	1365.9	370.76	5.8467e-06	5.8267e-06	423.16	137.27	123.07	42.515	5.7953e-06	52.725	423.726	184.358	227.622	145.239	185.790	291.756	144.570	149.607	208.731	202.283	149.233	152.947	154.064	158.497	289.627	157.487	-8191	255	
599.193	1	1	0	0	0.17959	0.20699	0.069603	0.086199	0.17643	0.20214	0.13432	0.30897	0.076568	0.032291	0.08387	0.078134	0.11105	0.06494	0.13816	0.12476	-3.1562	-3.1354	-3.3083	-3.2333	-2.9083	-3.4292	-3.2229	-3.1896	-3.3542	-3.1396	-3.425	-3.3708	-3.1875	-3.4479	-3.3167	-3.2521	356.717	452.797	388.366	400.637	207.149	277.295	387.275	406.338	327.233	394.412	417.340	299.038	416.489	385.043	276.660	481.357	0.0017529	0.00051902	3.623e-05	1331.6	1.978e-06	2.301e-06	1334	361.97	9.4556e-06	3.6584e-06	410.41	136.03	120.39	40.873	6.3763e-06	50.874	0.00053185	0.00052367	0.00014561	1357.4	5.7272e-06	5.6914e-06	1361.4	369.87	5.7495e-06	5.7278e-06	421.84	136.93	122.85	42.372	5.6828e-06	52.556	425.644	160.160	339.479	145.102	167.510	163.137	144.479	149.504	484.249	223.423	149.143	152.795	154.040	158.708	366.797	157.616	-8191	255	
599.289	1	1	0	0	0.002067	0.28832	0.086129	0.12759	0.23746	0.087566	0.3753	0.33056	0.20278	0.23787	0.022789	0.11098	0.1828	0.24044	0.046026	0.033214	-2.9771	-3	-3.1125	-3.4562	-2.8042	-3.3667	-3.4542	-3.1917	-3.2771	-3.1312	-3.2833	-3.2875	-3.0875	-3.2938	-3.1646	-3.0187	180.000	198.674	383.736	358.901	221.137	333.769	457.419	459.836	416.217	464.814	276.468	448.875	357.176	435.886	326.434	391.525	0.0015245	0.0008815	0.00031281	1333.1	6.8393e-06	6.0823e-06	1333.8	361.35	4.7524e-06	4.7654e-06	413.65	139.4	120.35	41.082	2.9207e-06	50.723	0.000536	0.00052333	0.00014461	1357.6	5.7538e-06	5.7939e-06	1360.5	370.13	5.8006e-06	5.8402e-06	422.19	139.85	122.98	42.483	5.7753e-06	52.596	432.040	214.420	275.271	144.963	153.773	294.504	144.560	149.601	170.626	327.293	148.985	153.049	153.981	158.916	276.018	157.673	-8191	255	
599.408	1	1	0	0	0.10323	0.061197	0.06444	0.035006	0.14951	0.074622	0.094549	0.15159	0.23631	0.20324	0.092246	0.10247	0.05711	0.23781	0.10501	0.28646	-2.8833	-3.0542	-2.9833	-3.3396	-3.0417	-3.2583	-3.4667	-3.2792	-3.5167	-3.0146	-3.1958	-3.2917	-3.0771	-3.4021	-3.3042	-3.1354	177.005	299.901	253.328	150.187	406.721	164.761	147.477	332.868	331.090	416.045	344.275	176.848	392.969	153.207	268.277	448.752	0.0017613	0.00019756	3.1462e-05	1329.6	1.0476e-06	7.9072e-06	1333	361.75	2.005e-05	5.371e-06	411.86	140.25	118.98	40.926	6.6685e-06	50.58	0.00053468	0.00051629	0.00014365	1354.1	5.6184e-06	5.5619e-06	1358.7	369.37	5.4918e-06	5.4693e-06	420.62	140.52	121.98	42.256	5.4644e-06	52.23	434.095	235.516	418.157	144.713	272.592	251.148	144.511	149.649	214.665	267.299	149.144	152.725	153.807	158.539	247.548	157.925	-8191	255	
599.504	1	1	0	0	0.11152	0.24491	0.11647	0.032688	0.088129	0.047905	0.25775	0.30085	0.064411	0.2623	0.3061	0.12336	0.13475	0.070783	0.14105	0.1004	-2.8	-3.0167	-2.9938	-3.3354	-2.9833	-3.3229	-3.4708	-3.1354	-3.2604	-3.0917	-3.1833	-3.4479	-3.1771	-3.2188	-3.3937	-3.2958	461.815	181.735	283.995	275.062	372.186	206.956	455.724	438.859	136.576	300.235	481.471	320.650	478.256	151.394	259.703	257.929	0.0017164	0.00040823	0.00023741	1330.4	7.1953e-06	4.1049e-06	1331.4	360.41	1.9679e-05	9.2293e-07	408.04	138.08	119.29	40.804	8.2934e-06	50.452	0.00051	0.00049575	0.00013701	1344.6	5.3195e-06	5.3284e-06	1352	367.21	5.2764e-06	5.2846e-06	417.54	136.76	121.47	42.101	5.1915e-06	52.154	429.321	468.700	253.723	144.902	264.776	274.716	144.778	149.987	230.895	280.519	149.210	153.023	154.251	158.762	270.182	157.664	-8191	255	
599.600	1	1	0	0	0.30288	0.22037	0.17914	0.11784	0.14744	0.09088	0.23829	0.17703	0.13492	0.19315	0.078671	0.14868	0.2604	0.3024	0.1385	0.16368	-2.8396	-3.275	-2.9521	-3.2271	-3.0021	-3.1292	-3.5271	-3.2479	-3.225	-3.2562	-2.9458	-3.3708	-3.1854	-3.3229	-3.3458	-3.0104	233.464	151.021	453.796	461.305	315.523	211.281	345.247	440.352	275.017	164.215	397.722	320.908	463.105	420.647	363.114	452.609	0.0017605	0.0009121	5.1122e-05	1317.7	4.5791e-06	7.73e-06	1324.1	359.3	1.2192e-05	3.3245e-06	409.03	137.22	119.29	40.802	4.9865e-06	50.704	0.00048952	0.00047232	0.00013258	1335.3	5.2201e-06	5.1703e-06	1343.4	365.91	5.2179e-06	5.1791e-06	417.05	136.09	121.54	41.972	5.2297e-06	52.08	423.590	204.694	181.988	145.019	251.767	255.834	144.633	149.633	228.070	282.373	149.143	152.975	154.029	158.845	248.069	157.568	-8191	255	
599.696	1	1	0	0	0.086196	0.23464	0.14602	0.20874	0.060738	0.095351	0.19278	0.14418	0.19119	0.13157	0.17176	0.24341	0.1939	0.1446	0.18084	0.05773	-2.8271	-3.125	-2.9437	-3.4771	-3.0646	-3.1125	-3.525	-3.1562	-3.1417	-3.3271	-3.0792	-3.4667	-3.325	-3.0792	-3.25	-3.1604	436.174	288.392	223.427	366.141	449.068	170.711	447.895	133.987	196.173	457.395	481.043	464.055	392.377	176.800	334.914	168.204	0.0016199	0.00074627	7.0359e-05	1318.6	4.2668e-06	6.4339e-06	1321.2	358.18	9.8503e-06	1.4641e-06	409.27	136.45	119.26	40.786	3.8033e-06	50.695	0.00049435	0.00048075	0.00013377	1334.6	5.2968e-06	5.2869e-06	1345.2	365.99	5.297e-06	5.3e-06	418.21	136.58	121.51	42.001	5.325e-06	52.12	431.040	228.684	187.445	145.308	316.894	279.637	144.779	149.504	231.681	464.712	149.029	153.049	154.309	158.659	380.134	157.544	-8191	255	
599.792	1	1	0	0	0.1036	0.059028	0.027775	0.11677	0.094277	0.21215	0.049863	0.29449	0.063871	0.14018	0.065532	0.14217	0.1123	0.0058937	0.21613	0.33655	-2.7396	-3.2188	-2.9167	-3.2812	-3.1125	-3.1896	-3.4125	-3.0854	-3.0312	-3.4104	-3.2104	-3.3083	-3.1437	-3.0896	-3.2354	-3.1312	221.660	169.613	216.771	208.473	367.784	396.354	155.686	460.242	376.439	447.151	356.919	240.144	438.290	274.790	355.343	488.880	0.0017958	0.00064568	0.00014556	1316.5	5.4063e-06	4.7563e-06	1317.9	358.87	9.9326e-06	6.0818e-06	409.31	137.34	119	40.651	6.9591e-06	50.389	0.0004949	0.00048576	0.00013479	1334.9	5.219e-06	5.1644e-06	1342.2	365.77	5.1672e-06	5.1105e-06	415.72	136.61	120.67	41.844	5.0515e-06	51.843	432.085	164.740	320.406	144.975	242.439	287.354	144.834	149.714	231.796	258.621	149.083	152.993	154.519	158.652	192.137	157.872	-8191	255	
599.888	1	1	0	0	0.14808	0.31233	0.057494	0.095001	0.16198	0.16307	0.21814	0.17691	0.14145	0.27758	0.23054	0.17602	0.098218	0.24774	0.10262	0.24483	-2.8083	-3.3375	-2.9208	-3.3083	-3.3583	-2.9708	-3.775	-3.3229	-3.0771	-3.525	-3.075	-3.4271	-3.3125	-3.0042	-3.2708	-3.2562	272.783	419.681	200.487	468.529	435.416	293.601	426.974	149.869	405.230	155.776	210.472	152.760	236.859	194.091	333.345	425.876	0.0017547	0.00059729	0.00013562	1312.8	6.276e-06	3.2559e-06	1319.3	356.23	1.3255e-05	8.2876e-07	405.69	136.35	118.58	40.605	5.2499e-06	50.321	0.00047257	0.000461	0.00012795	1324.1	4.9514e-06	4.9385e-06	1336.3	363.14	4.9267e-06	4.9218e-06	413.93	135.13	120.26	41.707	4.8889e-06	51.667	427.078	138.624	226.072	144.841	293.792	303.973	144.826	149.662	198.309	287.808	149.095	153.007	154.308	158.840	271.390	157.644	-8191	255	
599.984	1	1	0	0	0.22959	0.075783	0.16094	0.2193	0.09369	0.14359	0.2949	0.077321	0.24442	0.12783	0.1273	0.27358	0.25495	0.24212	0.061807	0.18487	-2.7979	-3.2354	-2.9896	-3.4167	-3.3771	-3.1042	-3.4771	-3.2833	-3.0292	-3.4833	-3.3375	-3.2396	-3.3729	-3.1437	-3.3396	-3.1917	365.439	385.756	191.553	464.151	277.213	182.698	393.825	446.390	203.054	344.821	149.675	307.476	484.609	482.196	306.944	169.999	0.0017653	0.00056311	0.00016148	1303.3	5.6088e-06	6.2851e-06	1314.2	356.58	1.1592e-05	3.9863e-06	406.3	136.18	118.91	40.636	7.5824e-06	50.283	0.00045875	0.0004491	0.00012548	1316.6	4.9265e-06	4.9312e-06	1331	363.62	5.0291e-06	5.0356e-06	414.51	135.81	120.61	41.78	5.1386e-06	51.771	427.857	219.101	191.053	145.114	238.340	258.522	144.785	149.758	177.990	298.670	149.132	153.171	154.276	158.744	249.565	157.766	-8191	255	
600.103	1	1	0	0	0.23735	0.16251	0.12681	0.18623	0.26765	0.22012	0.28602	0.24206	0.46486	0.094909	0.39806	0.17537	0.12464	0.13026	0.13053	0.24633	-2.6104	-3.2375	-3.2313	-3.1312	-3.2854	-3.0542	-3.4313	-3.3521	-2.95	-3.4417	-3.1417	-3.1708	-3.3854	-3.1729	-3.2708	-3.3292	174.318	258.506	398.712	210.327	134.609	307.258	438.364	131.995	361.460	405.697	423.961	375.938	171.849	144.321	179.217	422.326	0.00169	0.00031759	5.3802e-05	1315	4.0095e-06	3.6212e-06	1311.3	357.53	7.1789e-06	8.4317e-06	405.92	137.99	119.22	40.561	3.8898e-06	50.392	0.00048533	0.00047157	0.00013272	1329.2	5.2191e-06	5.2191e-06	1336.2	364.78	5.2547e-06	5.2659e-06	415.74	137.41	120.98	41.854	5.2089e-06	51.904	435.068	178.150	209.507	145.075	204.396	270.534	144.738	149.650	187.684	271.636	149.229	152.743	154.186	158.830	270.526	157.782	-8191	255	
600.177	1	1	0	0	0.16285	0.17974	0.11727	0.19994	0.09949	0.40271	0.22703	0.16059	0.034465	0.16011	0.18265	0.19678	0.058134	0.16317	0.086604	0.22166	-2.6208	-3.2812	-3.0542	-3.0729	-3.4625	-3.0583	-3.2208	-3.4083	-3.0208	-3.2208	-3.3583	-3.2021	-3.5042	-3.0896	-3.2396	-3.4375	392.414	449.714	319.083	485.523	368.543	201.086	430.215	187.975	448.239	195.639	133.195	399.611	324.915	143.343	404.696	391.362	0.0015985	0.00042815	0.00019415	1303.7	3.3754e-06	5.9729e-06	1316.1	357.61	1.4819e-05	5.4671e-06	407.43	137.14	119.36	40.657	4.0303e-06	50.498	0.00048701	0.00047724	0.00013285	1326.6	5.213e-06	5.2173e-06	1338.1	364.53	5.2741e-06	5.2485e-06	416.03	136.93	121.09	41.927	5.273e-06	51.99	432.018	167.967	228.912	145.080	249.244	301.819	144.723	149.776	194.513	252.933	149.147	153.112	154.094	158.501	168.687	157.428	-8191	255	
600.273	1	1	0	0	0.28317	0.042068	0.16733	0.19149	0.1342	0.19682	0.12034	0.26268	0.17664	0.090756	0.24511	0.095533	0.072179	0.11837	0.30205	0.13131	-2.5167	-3.1792	-2.9333	-3.0396	-3.2083	-3.1083	-3.3458	-3.4313	-2.8333	-3.3521	-3.2917	-3.0792	-3.3563	-3.2438	-3.0667	-3.5	283.194	147.950	245.321	458.012	299.432	137.131	429.527	472.740	190.081	388.708	457.214	355.294	135.870	355.927	369.555	162.244	0.0017078	0.00045825	6.6292e-05	1312.1	2.3087e-06	4.8507e-06	1315.2	357.67	1.7077e-05	3.3919e-06	407	135.99	118.75	40.552	4.8503e-06	50.181	0.00049283	0.00047995	0.00013213	1326.8	5.1952e-06	5.1517e-06	1336.6	364.57	5.098e-06	5.0441e-06	415.03	135.82	120.65	41.827	5.0946e-06	51.82	423.130	226.828	184.621	144.659	210.980	236.663	144.695	149.721	193.891	214.950	149.027	153.082	154.047	158.561	254.043	157.763	-8191	255	
600.369	1	1	0	0	0.094408	0.11658	0.23337	0.1563	0.34134	0.18901	0.3868	0.26099	0.10555	0.2183	0.29371	0.16294	0.087844	0.083672	0.16462	0.34634	-2.5667	-3.1646	-3.2729	-2.8563	-3.2604	-3.3187	-3.2875	-3.5917	-3.0521	-3.325	-3.4104	-2.9583	-3.4146	-3.4083	-2.9854	-3.3667	411.143	146.362	199.304	452.255	407.400	477.117	421.271	466.134	327.004	340.311	483.086	140.100	461.282	302.650	397.477	422.983	0.0016913	0.0005192	5.922e-05	1310.8	9.9222e-07	3.0895e-06	1313.2	358.2	1.1887e-05	4.2332e-06	408.39	137.25	119.21	40.765	4.2516e-06	50.479	0.00048334	0.00047206	0.00013206	1329.1	5.2416e-06	5.2247e-06	1338.3	365.14	5.26e-06	5.2633e-06	416.61	136.76	120.96	41.966	5.2672e-06	52.06	429.780	172.048	200.808	145.085	211.604	234.296	144.704	149.705	193.805	203.812	149.252	153.053	154.170	158.602	280.700	157.507	-8191	255	
600.488	1	1	0	0	0.070993	0.1884	0.083964	0.32999	0.099991	0.11663	0.17555	0.1217	0.019279	0.12719	0.40142	0.22848	0.25689	0.30858	0.17497	0.061233	-2.5792	-3.3542	-3.3292	-2.9188	-3.2729	-3.2729	-3.3833	-3.4625	-3.175	-3.1417	-3.4479	-3.1479	-3.2687	-3.35	-2.8833	-3.4167	463.658	189.634	266.127	142.781	276.795	193.944	400.636	416.593	305.163	291.736	176.946	368.857	308.262	470.846	428.131	184.214	0.0016126	0.00034468	0.00013147	1310.4	5.7781e-06	4.4682e-06	1316.6	358.02	1.2188e-05	3.5584e-06	405.92	137.99	118.71	40.858	7.9759e-07	50.468	0.00048916	0.00048079	0.00013291	1329.9	5.2183e-06	5.2439e-06	1339.2	365.18	5.1596e-06	5.1526e-06	415.9	137.02	120.84	41.902	5.2255e-06	51.971	425.029	195.718	239.290	145.321	249.167	373.280	144.519	149.753	195.781	344.609	149.071	152.572	154.122	158.592	427.500	157.356	-8191	255	
600.584	1	1	0	0	0.15246	0.1825	0.33569	0.45059	0.095078	0.10481	0.23615	0.17798	0.18321	0.10576	0.28843	0.32514	0.29754	0.20549	0.13188	0.074658	-2.5687	-3.0563	-3.1937	-3.0396	-3.2458	-3.0583	-3.2021	-3.4833	-3.0687	-3.0396	-3.2354	-3.0104	-3.3333	-3.2667	-2.8812	-3.4729	203.225	279.305	229.517	387.914	339.853	446.177	482.749	399.726	418.913	165.127	482.828	454.184	456.080	434.207	256.155	194.258	0.0017679	0.00087933	0.00037963	1310.8	1.1281e-06	7.0028e-06	1322.2	358.05	6.4709e-06	1.0524e-06	407.71	135.92	119.08	40.716	6.557e-06	50.525	0.00049039	0.00047753	0.00013412	1333.4	5.2693e-06	5.2297e-06	1341	365.26	5.2869e-06	5.235e-06	416.71	136.24	121.15	41.924	5.3182e-06	51.992	420.363	185.851	206.229	145.192	433.090	268.584	144.795	149.695	217.062	326.247	148.925	152.940	154.310	158.764	270.540	157.707	-8191	255	
600.680	1	1	0	0	0.29009	0.26615	0.14131	0.23255	0.16136	0.15052	0.17715	0.38806	0.27092	0.25365	0.4126	0.028379	0.19646	0.047434	0.26391	0.074633	-2.5625	-3.0563	-3.3875	-3.0958	-3.0875	-3.1667	-3.0542	-3.4958	-3.125	-3.2125	-3.3083	-2.9729	-3.2562	-3.2542	-3.0625	-3.4188	393.919	141.014	359.263	173.763	137.819	474.093	376.844	426.984	366.736	218.414	488.029	369.563	184.696	450.439	482.956	348.047	0.0018283	0.00061525	0.00038803	1316.7	1.5564e-06	6.6326e-06	1321.5	358.41	8.7429e-06	2.5349e-06	407.96	135.29	119.27	40.679	7.0652e-06	50.437	0.00049713	0.00047982	0.00013366	1331.6	5.2317e-06	5.2978e-06	1342	365.52	5.2795e-06	5.3331e-06	416.52	135.82	121.29	41.937	5.3092e-06	51.902	428.499	218.591	211.774	145.367	236.887	263.836	144.707	149.815	205.654	383.750	149.325	153.014	154.073	158.749	248.654	157.500	-8191	255	
600.776	1	1	0	0	0.09459	0.192	0.11435	0.14742	0.1393	0.1813	0.12065	0.20097	0.20184	0.10564	0.10684	0.15268	0.16933	0.075414	0.22429	0.074631	-2.825	-2.9542	-3.3604	-3.1021	-3.0833	-3.3208	-3.2771	-3.4667	-3.1917	-3.1333	-3.4396	-3.0604	-3.2854	-3.3937	-2.9125	-3.2938	454.897	460.523	456.692	421.986	173.614	397.905	325.077	153.144	177.827	476.045	458.012	436.682	250.778	421.357	430.287	150.745	0.0017769	0.00050146	0.00024607	1315	2.8877e-06	6.1345e-06	1315	358.94	6.1649e-06	3.7573e-06	408.29	136.52	119.01	40.775	1.1332e-05	50.512	0.00049981	0.00048835	0.00013512	1331.6	5.2838e-06	5.3195e-06	1340.7	365.32	5.3197e-06	5.3184e-06	416.57	136.13	121.16	41.974	5.3131e-06	52.067	426.275	235.462	193.858	144.986	309.330	211.050	144.740	149.582	230.193	199.500	149.194	153.044	153.853	158.855	304.373	157.544	-8191	255	
600.873	1	1	0	0	0.28344	0.075416	0.17782	0.12123	0.020345	0.088429	0.13622	0.055395	0.26851	0.15496	0.16476	0.14468	0.079667	0.31208	0.13576	0.020948	-2.6188	-2.8854	-3.4313	-3.2146	-3.0792	-3.2896	-3.0896	-3.375	-3.2125	-3.0833	-3.3667	-3.0563	-3.1625	-3.5521	-2.7896	-3.3021	468.292	248.290	268.464	429.098	370.208	361.955	149.966	155.351	337.618	391.093	436.507	488.039	230.266	474.114	175.428	443.596	0.0018057	0.00010138	0.00016265	1308.2	6.0797e-06	4.2736e-06	1313.6	357.99	1.2559e-05	1.086e-05	409.04	136.73	118.42	40.52	5.6294e-06	50.553	0.00049658	0.00049004	0.00013542	1330.1	5.3458e-06	5.3165e-06	1337.7	365.19	5.2787e-06	5.2329e-06	416.36	136.28	120.56	41.825	5.047e-06	51.777	428.601	299.525	272.585	145.474	269.196	378.804	144.689	149.837	165.465	256.927	149.067	152.617	153.999	158.566	198.609	157.742	-8191	255	
600.969	1	1	0	0	0.1193	0.10861	0.062174	0.13105	0.23591	0.038128	0.38074	0.16814	0.23886	0.039853	0.27263	0.16398	0.16749	0.089738	0.18247	0.26654	-2.9208	-2.9979	-3.3104	-3.175	-3.0062	-3.2188	-3.1229	-3.3229	-3.4396	-2.9646	-3.3875	-3.1583	-3.1188	-3.4313	-3	-3.3042	191.421	187.428	434.840	145.424	239.010	477.524	362.710	446.881	174.813	444.357	484.943	424.059	164.039	410.985	462.279	435.210	0.0017504	0.00053819	0.00014598	1304.5	1.4388e-06	5.5428e-06	1304.9	356.21	1.7947e-05	3.8234e-06	405.06	138.91	118.03	40.596	3.049e-06	50.402	0.00047208	0.00045779	0.00012757	1317	5.0165e-06	5.0194e-06	1328.3	363.42	5.1909e-06	5.2105e-06	415	138.39	120.87	41.94	5.4564e-06	51.982	422.253	166.923	209.301	145.021	260.681	305.364	144.652	149.697	177.829	295.919	148.991	152.830	154.141	158.643	353.926	157.549	-8191	255	
601.089	1	1	0	0	0.18522	0.27517	0.040711	0.023291	0.15332	0.22373	0.15865	0.23468	0.13576	0.35053	0.21025	0.02914	0.09134	0.16468	0.12961	0.08841	-2.9271	-2.9813	-3.275	-3.2042	-3.0583	-3.2875	-3.2979	-3.1896	-3.325	-3.0833	-3.3104	-3.3771	-3.1188	-3.4354	-3.0062	-3.3312	201.184	481.088	318.831	360.958	370.631	383.786	438.973	422.354	267.968	344.391	457.387	176.624	387.422	488.363	137.421	357.035	0.0016654	0.00013373	5.9652e-05	1299.2	3.5475e-06	6.9072e-06	1307.2	356.04	1.5471e-05	6.4431e-06	404.49	140.28	118.22	40.536	4.7571e-06	50.298	0.00050259	0.00048847	0.00013552	1322.7	5.2665e-06	5.2188e-06	1329.2	363.5	5.1403e-06	5.0508e-06	413.3	138.8	119.85	41.628	5.029e-06	51.721	431.871	457.763	229.369	145.328	225.833	190.436	144.738	149.766	218.684	281.471	149.232	152.775	154.385	158.660	234.481	157.827	-8191	255	
601.185	1	1	0	0	0.097221	0.16519	0.3407	0.41196	0.16743	0.042467	0.17999	0.02893	0.043956	0.16204	0.034203	0.32122	0.13837	0.10886	0.16056	0.13154	-2.8854	-2.7375	-3.2438	-3.0104	-3.0187	-3.4104	-3.2104	-3.2812	-3.3438	-2.9396	-3.3438	-3.0938	-3.1667	-3.5979	-3.0146	-3.0708	204.698	483.483	273.416	446.753	405.220	415.040	465.468	399.346	250.213	415.587	224.594	484.974	237.547	166.884	258.866	419.927	0.0015389	0.00031877	0.00014819	1304.5	4.7098e-06	9.4373e-06	1300.1	356.61	8.8594e-06	4.4806e-06	405.53	140.75	118.18	40.58	1.5641e-06	50.131	0.00047146	0.00046344	0.00012836	1315.2	5.057e-06	5.0979e-06	1324.7	362.9	5.084e-06	5.1057e-06	413.26	140.21	119.85	41.765	5.1047e-06	51.71	432.074	209.670	214.399	145.600	239.826	257.587	144.748	149.776	210.130	298.007	149.401	152.917	154.033	158.690	226.200	157.979	-8191	255	
601.280	1	1	0	0	0.16079	0.074839	0.088688	0.25403	0.11339	0.4145	0.075973	0.2216	0.17227	0.20834	0.14546	0.087166	0.0076032	0.23111	0.094879	0.27187	-2.9146	-2.8396	-3.1479	-3.3083	-2.7875	-3.2771	-3.1833	-3.3083	-3.325	-3.0354	-3.2771	-3.1937	-3.1562	-3.3521	-3.1646	-3.0583	431.792	301.309	470.843	140.276	279.696	239.692	322.187	364.854	148.666	140.470	136.173	182.262	487.964	420.561	160.529	489.161	0.0019546	0.00042434	6.1796e-05	1298	4.7789e-06	7.3237e-06	1307	356.58	9.6443e-06	4.0827e-06	406.72	142.26	118.68	40.859	5.9067e-06	50.155	0.00048134	0.00047099	0.00013128	1315	5.2812e-06	5.2484e-06	1328	363.75	5.3152e-06	5.3761e-06	415.35	141.48	120.99	42.043	5.4099e-06	51.894	429.989	210.586	132.660	145.183	268.693	321.429	144.675	149.889	205.391	252.444	149.363	153.061	153.921	158.509	282.849	157.721	-8191	255	
601.400	1	1	0	0	0.19202	0.27893	0.094994	0.16698	0.18396	0.27352	0.23553	0.32876	0.097888	0.11247	0.23297	0.15777	0.066101	0.12358	0.12257	0.048156	-2.7979	-2.9854	-3.1771	-3.2	-2.9813	-3.2479	-3.3354	-3.1792	-3.1896	-3.1021	-3.2	-3.4875	-3.0625	-3.3396	-3.0896	-3.0542	491.316	308.988	174.576	357.142	270.721	212.230	413.189	407.750	291.861	150.780	302.275	355.195	196.794	375.482	458.782	423.067	0.0016674	0.00029232	0.00023092	1308.2	9.7781e-07	6.1375e-06	1309.9	356.66	6.5522e-06	9.3142e-06	406.49	261.55	119.28	40.572	3.5979e-06	50.339	0.0005061	0.00050034	0.00013788	1327.7	5.4467e-06	5.444e-06	1333.5	364.28	5.3525e-06	5.3734e-06	415.35	249.21	120.76	41.862	5.2002e-06	51.924	430.150	143.319	255.288	145.192	413.752	159.868	144.612	149.824	211.362	217.375	149.403	153.002	153.772	158.969	284.531	157.935	-8191	255	
601.472	1	1	0	0	0.18949	0.14784	0.1976	0.13417	0.20304	0.17916	0.2195	0.34499	0.12911	0.075226	0.272	0.3393	0.21221	0.099091	0.10583	0.051227	-2.8187	-2.9813	-2.9229	-3.5042	-2.9125	-3.4542	-3.3396	-3.2188	-3.3063	-3.1063	-3.1854	-3.3646	-3.0917	-3.3917	-3.1521	-3.2188	478.616	222.083	487.165	327.153	258.883	155.367	432.430	398.889	163.385	156.891	189.788	315.228	376.346	465.118	226.197	302.920	0.0016588	0.00067208	0.00020925	1296.7	6.2027e-06	4.9781e-06	1308.9	356.14	1.4114e-05	7.8409e-06	407.15	259.17	118.65	40.718	2.9397e-06	50.434	0.00048184	0.00047048	0.00013011	1315.2	5.0472e-06	5.0181e-06	1326	362.71	4.9954e-06	4.9531e-06	413.43	246.29	119.95	41.736	4.9335e-06	51.69	439.580	201.681	280.469	145.289	267.518	349.030	145.006	149.811	207.006	273.993	149.121	152.626	154.135	158.704	186.865	157.860	-8191	255	
601.568	1	1	0	0	0.17779	0.20292	0.112	0.083077	0.0538	0.085194	0.23109	0.21265	0.061576	0.17739	0.10783	0.12741	0.033582	0.13837	0.15329	0.20438	-2.8292	-3.1854	-3.0021	-3.6458	-2.9708	-3.2542	-3.5354	-3.0792	-3.4313	-3.3083	-3.1813	-3.4417	-3.0792	-3.4146	-3.3542	-3.0687	449.841	152.121	397.934	399.697	211.581	180.645	424.227	432.499	308.862	282.936	433.807	450.286	209.274	328.840	154.147	448.333	0.0015589	0.00019885	0.00030051	1301.3	1.6292e-06	5.0167e-06	1298.7	355.28	7.9373e-06	4.9528e-06	405.33	277.61	118.34	40.604	4.0739e-06	50.26	0.00046575	0.00045257	0.0001264	1310.5	4.9321e-06	4.8747e-06	1319.6	361.81	4.8484e-06	4.8302e-06	412.34	261.69	119.74	41.59	4.8133e-06	51.554	431.779	205.810	259.842	144.963	403.029	248.885	144.570	149.873	251.631	229.511	149.338	152.517	153.771	158.787	317.971	157.728	-8191	255	
601.664	1	1	0	0	0.26215	0.11765	0.1216	0.14019	0.081031	0.067737	0.38023	0.12158	0.16227	0.13838	0.082173	0.028847	0.18579	0.20138	0.082903	0.079663	-2.7979	-3.2354	-3.0938	-3.3333	-3.0125	-3.2042	-3.5229	-3.1792	-3.2042	-3.2458	-3.1125	-3.4729	-3.1771	-3.0687	-3.3208	-3.0312	228.063	464.532	331.831	391.059	190.641	305.101	394.834	458.737	383.382	266.304	454.733	452.123	485.937	163.679	178.857	427.026	0.0016158	0.00033842	0.00017056	1284.3	4.5096e-06	6.893e-06	1291.7	354.75	2.4397e-05	4.9134e-06	403.88	141.57	117.31	40.375	7.1634e-06	50.144	0.00045294	0.00043448	0.00012097	1297	4.7163e-06	4.7084e-06	1310.6	359.58	4.6243e-06	4.6054e-06	409.43	138.76	118.78	41.37	4.6029e-06	51.208	424.395	264.924	205.230	145.368	156.421	326.889	144.684	149.773	170.343	270.982	149.325	153.023	154.342	158.800	257.230	157.615	-8191	255	
601.785	1	1	0	0	0.1962	0.15779	0.19246	0.31295	0.1494	0.1089	0.22791	0.22496	0.11799	0.084133	0.16448	0.033737	0.090866	0.077155	0.15183	0.30873	-2.9313	-3.2521	-2.9417	-3.2833	-3.1083	-2.9833	-3.4833	-3.3396	-3.2104	-3.1875	-3.0917	-3.3083	-3.0208	-3.1437	-3.1667	-3.2062	379.631	265.767	203.206	473.145	220.794	428.898	471.579	173.427	236.755	175.807	453.609	342.143	155.872	364.434	211.281	143.837	0.0015122	0.00036815	0.00011091	1285.3	4.2409e-06	3.1985e-06	1292.6	351.69	1.417e-05	1.5852e-06	401.86	140.2	117.7	40.356	2.1787e-06	49.955	0.0004328	0.00042133	0.00011727	1294.3	4.6385e-06	4.65e-06	1309.3	358.69	4.7028e-06	4.6788e-06	409.35	138.09	118.86	41.324	4.6873e-06	51.232	436.715	192.028	486.105	145.133	413.010	292.768	144.732	149.733	198.889	250.992	149.213	152.905	154.103	158.609	295.350	158.117	-8191	255	
601.881	1	1	0	0	0.12691	0.13216	0.21189	0.29569	0.028286	0.17731	0.18644	0.14398	0.070919	0.058629	0.19078	0.11153	0.29913	0.34257	0.14408	0.34027	-2.7188	-3.3604	-3.0021	-3.3271	-3.3563	-3.0792	-3.6104	-3.3375	-3.1	-3.3563	-3.1917	-3.4521	-3.2875	-3.0938	-3.4458	-3.1583	433.415	485.665	331.003	189.356	188.474	432.014	415.173	409.144	426.236	233.439	449.460	212.042	218.830	462.549	441.851	390.558	0.0016669	0.00027489	0.00017448	1284.4	8.3267e-06	2.6915e-06	1291.7	351.05	3.233e-06	4.4777e-06	403.52	139.57	117.45	40.263	6.2252e-06	49.985	0.00043928	0.00042691	0.0001188	1291.1	4.6584e-06	4.6994e-06	1307.4	357.88	4.7302e-06	4.6973e-06	408.61	137.47	118.92	41.377	4.7053e-06	51.132	428.876	423.663	257.525	145.480	295.499	340.240	144.741	149.894	157.712	278.812	149.690	152.984	154.143	158.982	193.656	157.612	-8191	255	
601.977	1	1	0	0	0.16536	0.027682	0.43987	0.13848	0.15676	0.07746	0.11635	0.28381	0.15348	0.13385	0.17175	0.22804	0.15939	0.27585	0.21178	0.36135	-2.8042	-3.225	-2.95	-3.3229	-3.3125	-3.025	-3.575	-3.2062	-3.1458	-3.3396	-3.3375	-3.2458	-3.2771	-3.1354	-3.3375	-3.3583	291.723	482.749	149.838	217.104	431.875	316.960	153.157	154.046	209.031	462.711	132.641	402.497	484.183	140.669	477.145	437.226	0.0014549	0.00053246	0.00020251	1280.5	1.5672e-06	1.5073e-06	1290.6	352.43	1.0502e-05	5.4706e-06	401.27	140.25	117.26	40.25	1.0126e-05	50.079	0.00044083	0.00043235	0.00011968	1290.7	4.7286e-06	4.7319e-06	1308.4	358.81	4.8008e-06	4.7894e-06	408.96	138.1	118.97	41.42	4.9055e-06	51.388	430.861	149.057	258.546	145.263	261.459	483.922	144.721	149.768	186.759	241.556	149.104	153.538	154.120	158.619	278.124	157.846	-8191	255	
602.049	1	1	0	0	0.30486	0.24843	0.27268	0.11846	0.096691	0.10482	0.14134	0.21761	0.19993	0.10086	0.11469	0.050202	0.10336	0.13539	0.095404	0.038861	-2.5854	-3.25	-3.0729	-3.1188	-3.2792	-3.0604	-3.4917	-3.1604	-3.1188	-3.4625	-3.1979	-3.2167	-3.4188	-3.2542	-3.3063	-3.2208	255.289	424.069	455.249	186.583	485.601	410.713	389.975	451.294	190.693	330.454	449.920	199.590	253.134	440.592	483.739	232.469	0.0016003	0.00048492	8.0195e-05	1289.8	3.5226e-06	2.1964e-06	1295.1	353.14	7.3964e-06	4.345e-06	404.27	140.18	118.09	40.453	3.6404e-06	49.961	0.00046087	0.00045197	0.00012571	1302.4	4.9767e-06	4.9671e-06	1313.3	360.1	5.0052e-06	4.9766e-06	411.46	138.35	119.55	41.581	4.9349e-06	51.515	422.915	191.980	164.398	145.257	202.977	265.064	144.761	149.878	198.664	214.943	149.536	153.135	154.245	159.049	290.130	157.695	-8191	255	
602.170	1	1	0	0	0.19481	0.25955	0.08457	0.25711	0.22637	0.31885	0.36429	0.08919	0.08366	0.13381	0.196	0.3033	0.14353	0.2348	0.073019	0.029511	-2.65	-3.3104	-3.0875	-3.0708	-3.2271	-3.0958	-3.5229	-3.3438	-3.1458	-3.5896	-3.2062	-3.1063	-3.5292	-3.1875	-3.325	-3.3854	263.066	321.217	397.586	234.009	270.703	160.823	433.073	424.873	281.930	367.916	180.644	239.732	442.580	370.910	436.189	400.270	0.0017655	0.00063739	0.00010652	1289.8	6.1946e-06	6.1995e-06	1296.4	355.3	1.5679e-05	3.2684e-06	405.45	139.97	117.87	40.627	7.6559e-06	50.104	0.00046681	0.00045451	0.00012746	1304.5	5.0487e-06	5.077e-06	1319.4	361.84	5.064e-06	5.0842e-06	412.88	139.17	119.95	41.719	5.0758e-06	51.695	430.746	164.144	474.569	145.351	169.317	260.669	144.925	149.718	199.510	276.628	149.419	152.803	154.113	158.710	233.391	157.822	-8191	255	
602.266	1	1	0	0	0.33161	0.081515	0.10247	0.17474	0.15948	0.10677	0.37324	0.13597	0.079275	0.12501	0.25427	0.097508	0.36632	0.32057	0.25863	0.25983	-2.5667	-3.3083	-3.0146	-3.1479	-3.2917	-2.9437	-3.4208	-3.2875	-3	-3.4313	-3.3417	-3.1708	-3.5333	-3.0979	-3.2583	-3.3187	269.809	378.950	412.111	472.156	360.499	436.084	409.720	439.362	421.190	249.289	442.150	292.232	405.862	465.963	250.872	470.980	0.0015802	0.00078215	5.6206e-05	1295.5	7.6182e-06	6.2399e-06	1294	355.58	1.5275e-05	5.7496e-06	404.52	140.89	117.5	40.449	5.3873e-06	50.128	0.000475	0.00046095	0.00012824	1307	5.0421e-06	5.0632e-06	1318.6	361.55	5.0864e-06	5.0309e-06	412.07	139.04	119.94	41.665	5.0982e-06	51.652	427.377	161.894	291.122	144.745	246.205	335.032	144.719	149.693	204.827	253.372	149.326	153.146	154.121	158.909	243.135	157.565	-8191	255	
602.362	1	1	0	0	0.22815	0.10994	0.18568	0.13761	0.097443	0.27701	0.04622	0.17083	0.17043	0.17571	0.19016	0.14023	0.16805	0.3431	0.19562	0.13611	-2.7271	-3.2271	-2.8937	-3.0896	-3.3333	-3.1	-3.4146	-3.6542	-2.7812	-3.4333	-3.4396	-3.0458	-3.3063	-3.2021	-3.1854	-3.575	282.948	153.780	408.048	442.815	150.352	214.864	276.413	378.964	283.556	286.767	408.086	187.998	148.365	433.431	357.196	173.313	0.0017345	0.00054295	8.2625e-05	1292.5	5.9757e-06	7.7269e-06	1295.3	356.51	1.4315e-05	5.5639e-06	405.25	140.84	118.31	40.771	3.4853e-06	50.296	0.00048045	0.00046733	0.00013	1308.4	5.1414e-06	5.1053e-06	1320.9	362.65	5.1759e-06	5.0837e-06	413.34	140	120.05	41.854	5.1157e-06	51.752	437.321	242.243	242.049	145.285	295.907	226.342	144.814	149.689	198.941	302.556	149.015	153.160	154.510	158.717	228.521	157.428	-8191	255	
602.481	1	1	0	0	0.28141	0.013327	0.046385	0.072928	0.14131	0.18986	0.10456	0.050486	0.25314	0.12263	0.26184	0.1724	0.28187	0.32877	0.11909	0.11253	-2.5292	-3.1896	-3.2396	-3.1375	-3.4979	-3.1229	-3.2396	-3.4458	-2.9646	-3.3812	-3.4583	-2.8875	-3.4667	-3.325	-3.1146	-3.5833	214.565	222.451	319.474	277.355	491.717	392.834	387.871	413.193	349.202	281.122	449.303	160.079	473.044	156.272	309.200	474.269	0.0018061	0.00038627	0.00015541	1293.1	6.4331e-06	5.1593e-06	1295.6	355.01	4.9529e-06	3.2363e-06	405.63	143.08	117.88	40.518	6.1972e-06	50.305	0.00047127	0.00045877	0.00012743	1306.5	4.9923e-06	4.9528e-06	1317.6	361.18	4.9371e-06	4.9596e-06	411.79	140.61	119.92	41.661	4.9793e-06	51.692	434.964	180.701	250.144	145.121	304.233	295.853	144.925	149.990	227.413	257.762	149.105	152.907	154.399	158.801	264.545	157.936	-8191	255	
602.577	1	1	0	0	0.059501	0.0011329	0.097307	0.18318	0.2119	0.14338	0.43984	0.085885	0.13441	0.13312	0.16519	0.30437	0.063327	0.053224	0.18788	0.32546	-2.7292	-3.4188	-3.3604	-3.0208	-3.4437	-3.2021	-3.3063	-3.5479	-3.2875	-3.3812	-3.3917	-3.0229	-3.55	-3.3563	-3.0354	-3.4688	490.305	180.000	433.427	468.514	201.004	412.738	475.238	486.182	283.460	366.078	441.178	202.076	212.613	413.759	299.948	476.956	0.0016513	0.0001937	0.0003482	1290.1	3.9765e-06	8.7957e-06	1293.8	355.91	1.8631e-05	4.8572e-06	402.67	142.14	117.87	40.58	5.1851e-06	50.432	0.00046669	0.00045345	0.0001242	1302.2	4.8506e-06	4.8128e-06	1314	361.24	4.8634e-06	4.8494e-06	410.89	140.07	119.38	41.646	4.8416e-06	51.613	434.256	306.608	182.790	145.133	216.537	228.742	144.784	149.794	188.102	240.948	149.283	152.924	154.395	158.743	248.068	157.516	-8191	255	
602.673	1	1	0	0	0.093884	0.12782	0.041862	0.3372	0.13528	0.17825	0.26442	0.23452	0.11621	0.07197	0.19311	0.092235	0.28489	0.15708	0.17459	0.33933	-2.5812	-3.1417	-3.175	-3.0708	-3.2104	-3.2833	-3.2146	-3.6188	-3.1771	-3.1771	-3.4521	-3.0583	-3.2271	-3.3063	-2.8812	-3.4833	342.109	491.000	310.835	468.614	266.146	397.337	452.083	346.262	198.654	210.082	464.382	294.191	147.789	432.357	462.558	428.891	0.0018057	0.00047431	7.2032e-05	1289.4	6.316e-06	7.4474e-06	1293.7	354.07	7.9146e-06	9.1832e-06	404.58	140.91	118.18	40.478	5.4075e-06	50.244	0.00045505	0.00043829	0.00012192	1297	4.7322e-06	4.7635e-06	1312	360.09	4.7808e-06	4.7227e-06	410.59	139.38	119.24	41.469	4.6871e-06	51.491	435.080	419.569	170.623	145.329	239.521	294.325	144.958	149.700	143.307	272.741	149.235	152.884	154.235	158.778	255.167	157.993	-8191	255	
602.769	1	1	0	0	0.22794	0.076828	0.11632	0.28178	0.23198	0.14556	0.14036	0.032635	0.20777	0.27883	0.10219	0.12404	0.078719	0.16208	0.15358	0.22357	-2.8167	-3.1063	-3.2792	-2.8083	-3.0729	-3.2687	-3.2167	-3.4958	-3.0708	-3.2167	-3.5312	-2.9667	-3.2562	-3.4292	-3.0229	-3.6604	401.041	265.435	214.400	162.666	483.273	390.837	410.124	143.321	241.292	272.097	374.998	154.221	249.483	152.796	365.061	168.322	0.0016651	0.00032444	6.358e-05	1284.7	5.5893e-06	1.7765e-06	1294.2	353.12	1.2177e-05	5.068e-06	403.69	140.02	118.2	40.425	4.3495e-06	50.23	0.0004431	0.00042938	0.0001177	1293.2	4.6541e-06	4.6819e-06	1311.2	359.86	4.6607e-06	4.6141e-06	409.91	137.6	119.04	41.522	4.5572e-06	51.331	430.082	169.345	322.157	145.068	294.074	264.611	144.774	149.767	164.522	275.413	149.244	153.535	154.331	158.732	199.438	157.876	-8191	255	
602.865	1	1	0	0	0.15116	0.078114	0.070426	0.043932	0.38708	0.18705	0.37775	0.095271	0.11233	0.32001	0.071776	0.20391	0.229	0.16092	0.038169	0.3094	-2.7896	-2.9104	-3.4125	-3.1125	-3.1354	-3.3	-3.0563	-3.5958	-3.1771	-3.0021	-3.5	-3.1562	-3.1104	-3.4938	-3.0187	-3.4667	351.865	132.129	480.805	475.548	248.080	261.944	417.079	219.850	202.948	250.818	419.036	449.366	137.311	184.236	356.149	403.096	0.0015123	0.00046683	0.00029007	1289.2	1.3002e-05	4.2892e-06	1295	353.52	7.5048e-06	5.2897e-06	403.98	138.9	117.53	40.428	3.9022e-06	50.118	0.00043774	0.00042585	0.00011768	1292.2	4.6175e-06	4.6069e-06	1309.9	359.56	4.6042e-06	4.6029e-06	409.93	136.84	119.01	41.483	4.5398e-06	51.307	434.774	173.308	214.055	144.950	199.290	254.224	144.833	149.986	186.794	202.194	149.263	152.849	154.209	158.566	293.288	157.941	-8191	255	
602.962	1	1	0	0	0.26981	0.084937	0.021546	0.26744	0.14156	0.21451	0.33768	0.28832	0.18521	0.098131	0.21598	0.056333	0.021523	0.25746	0.14439	0.34272	-2.7958	-3.0375	-3.3771	-3.0604	-3.0833	-3.5458	-3.1917	-3.4917	-3.1167	-3.2062	-3.55	-3.3625	-3.2687	-3.3812	-2.9271	-3.2979	193.974	409.513	272.555	376.565	238.814	405.008	384.420	464.764	179.297	157.707	438.439	436.368	266.126	454.696	152.291	426.754	0.0017467	0.00055759	0.00017053	1277.2	8.873e-06	7.014e-06	1289.5	353.28	7.6202e-06	2.3098e-06	403.95	140.71	118.08	40.496	6.3941e-06	50.083	0.00042252	0.00041079	0.00011375	1284.2	4.4704e-06	4.444e-06	1304	358.88	4.4096e-06	4.4209e-06	408.45	136.63	118.51	41.387	4.3735e-06	51.147	432.646	176.696	240.416	145.273	251.658	232.872	144.931	149.688	199.874	317.821	149.380	152.963	154.055	158.971	265.871	157.880	-8191	255	
603.082	1	1	0	0	0.14468	0.10346	0.16013	0.18627	0.066098	0.1171	0.31275	0.38137	0.36533	0.085044	0.3795	0.20525	0.15668	0.35183	0.085651	0.16676	-2.775	-2.8167	-3.2542	-3.1604	-3.2208	-3.4104	-2.9958	-3.2333	-3.1688	-3.0771	-3.5458	-3.4062	-3.1604	-3.4208	-3.05	-3.2729	250.148	385.220	182.410	137.262	167.513	204.215	438.179	427.819	385.605	173.254	138.626	200.686	181.416	455.802	490.625	480.361	0.0014932	0.00021884	0.0002144	1279.8	3.9423e-06	5.4445e-06	1288.7	352.46	1.6426e-05	4.2544e-06	403.23	139.99	117.5	40.34	5.6685e-06	50.125	0.00041415	0.00039608	0.00011114	1281.4	4.3827e-06	4.399e-06	1304	358.17	4.4458e-06	4.4336e-06	408.55	136.45	118.46	41.329	4.3288e-06	51.135	428.753	233.842	154.782	145.224	296.104	269.093	144.959	149.896	178.605	343.383	149.289	152.835	154.490	158.778	269.475	157.668	-8191	255	
603.178	1	1	0	0	0.23566	0.21029	0.25494	0.1328	0.15272	0.26176	0.13759	0.13955	0.11764	0.12473	0.1228	0.12489	0.21133	0.10168	0.095389	0.025073	-2.825	-2.8625	-3.1958	-3.2292	-3.0125	-3.3812	-3.1625	-3.2375	-3.2375	-2.9042	-3.2979	-3.3708	-2.9437	-3.4021	-3.0396	-3.1375	224.367	147.389	470.869	473.129	318.737	296.112	456.149	429.708	350.033	264.740	455.900	345.735	443.226	174.458	222.927	373.622	0.0018208	0.00018671	0.00014669	1270.9	9.0099e-06	5.8472e-06	1285.2	351.28	4.4075e-06	3.2597e-06	400.57	139.68	117.77	40.535	4.9061e-06	50.259	0.00040486	0.00039076	0.00010775	1277.1	4.2607e-06	4.2641e-06	1299.2	356.88	4.2771e-06	4.2885e-06	406.28	136.99	118.17	41.297	4.2551e-06	51.127	431.842	225.065	255.101	145.479	287.526	375.044	144.692	149.813	483.983	257.238	149.391	153.119	154.280	158.690	274.271	157.862	-8191	255	
603.273	1	1	0	0	0.047283	0.20777	0.12495	0.097757	0.13671	0.1222	0.01061	0.40216	0.29652	0.17927	0.21924	0.27313	0.40611	0.35604	0.11391	0.10569	-2.9062	-3.075	-3.2042	-3.2167	-3.0458	-3.3833	-3.1729	-3.2521	-3.3792	-2.9917	-3.3042	-3.2021	-3.1167	-3.1188	-3.0771	-3.25	265.370	435.622	186.186	351.098	332.273	326.994	150.712	147.111	351.219	146.066	263.202	195.762	441.698	427.552	420.802	132.101	0.0015797	0.00017416	0.00016642	1278.3	2.1702e-06	2.9022e-06	1284.9	350.92	1.1007e-05	8.9399e-07	401.81	140.97	116.84	40.444	7.996e-06	50.321	0.00040117	0.00038667	0.00010786	1276.4	4.2717e-06	4.2928e-06	1299.9	357.03	4.304e-06	4.2826e-06	407.05	137.78	118.03	41.325	4.2732e-06	51.22	433.790	147.298	149.394	145.145	455.657	318.714	144.900	149.613	197.744	279.674	149.248	153.224	154.322	158.967	233.684	157.813	-8191	255	
603.346	1	1	0	0	0.031219	0.15399	0.20075	0.2471	0.099966	0.027209	0.24102	0.17389	0.16317	0.34287	0.02687	0.090285	0.12322	0.1183	0.16753	0.14699	-3.0354	-2.9021	-3.0271	-3.3521	-2.9521	-3.3625	-3.4604	-3.2521	-3.325	-3.2188	-3.4271	-3.2438	-3.1646	-3.3958	-3.3208	-3.2208	490.931	210.010	330.155	430.265	313.373	425.059	419.015	284.098	282.159	444.141	437.501	166.661	332.827	479.507	166.327	441.272	0.0016985	0.00033842	7.3289e-05	1277	6.8578e-06	7.7993e-06	1285.1	352.5	1.1055e-05	2.3836e-06	402.37	142.54	117.46	40.557	4.4039e-06	50.494	0.00040335	0.00039386	0.00010881	1278.4	4.279e-06	4.2803e-06	1299	357.58	4.2552e-06	4.2831e-06	407.47	138.55	118.04	41.394	4.2706e-06	51.259	424.970	218.423	257.700	145.201	269.451	247.529	144.899	149.828	193.039	213.267	149.412	152.975	154.386	158.764	193.930	157.915	-8191	255	
603.442	1	1	0	0	0.046606	0.023811	0.084444	0.16671	0.19313	0.12981	0.13671	0.10824	0.10019	0.1473	0.20642	0.096471	0.23325	0.090337	0.10408	0.12618	-2.7771	-2.9979	-3.2229	-3.4062	-3.2021	-3.5354	-3.5208	-3.2333	-3.3729	-3.2771	-3.3667	-3.5104	-3.0042	-3.4729	-3.2208	-3.0292	202.824	151.582	189.819	237.835	358.297	456.540	430.198	154.486	170.134	168.845	364.142	152.186	152.512	480.014	359.701	467.454	0.0018952	0.0007675	3.9624e-06	1280.5	3.1173e-06	9.3253e-07	1283.1	352.45	1.6759e-05	1.8566e-06	401.18	141.56	117.79	40.479	6.1249e-06	50.258	0.00040336	0.00039107	0.00010912	1280.1	4.2245e-06	4.2425e-06	1298.6	357.39	4.2218e-06	4.2358e-06	406.4	137.94	118.01	41.367	4.2393e-06	51.175	428.718	273.217	275.976	145.274	217.269	301.513	144.828	149.829	206.800	313.587	149.343	153.222	153.989	159.127	262.078	157.752	-8191	255	
603.561	1	1	0	0	0.1517	0.086087	0.18235	0.32228	0.08472	0.037611	0.41769	0.28621	0.077399	0.055413	0.10223	0.12442	0.11523	0.10149	0.17669	0.22715	-2.8979	-3.1208	-3.0896	-3.425	-2.9875	-3.1708	-3.4313	-3.2458	-3.275	-3.1229	-3.0292	-3.475	-3.1604	-3.2083	-3.2625	-3.0104	186.780	190.835	254.793	138.671	442.483	330.367	429.223	345.085	352.104	421.564	176.123	458.118	486.391	471.864	135.342	422.389	0.0017086	0.00052283	0.00014906	1281.5	2.7756e-06	2.7423e-06	1279.7	352.19	8.897e-06	2.146e-06	402.35	141.34	117.25	40.5	4.4005e-06	50.017	0.00040039	0.00038786	0.00010819	1277.2	4.2162e-06	4.2226e-06	1296.4	357.05	4.2564e-06	4.2553e-06	407.08	137.92	118.2	41.374	4.225e-06	51.227	439.674	188.396	308.987	145.207	236.514	162.998	144.641	149.876	175.535	174.807	149.422	153.474	154.062	158.906	228.665	157.698	-8191	255	
603.657	1	1	0	0	0.25825	0.10317	0.22229	0.054429	0.20542	0.070924	0.22148	0.15997	0.2007	0.08493	0.14247	0.021273	0.3693	0.14795	0.035234	0.12532	-2.9646	-3.1396	-3.0792	-3.4917	-2.9354	-3.2229	-3.3375	-3.0938	-3.4917	-3.1688	-3.1479	-3.3208	-3.1729	-3.2021	-3.2438	-3.075	430.348	143.154	477.946	450.092	152.580	217.707	422.383	450.591	376.798	288.046	459.836	340.313	438.295	351.149	410.718	273.467	0.0015924	0.00017371	0.0001674	1275.4	4.3073e-06	8.4439e-06	1279.3	351.58	6.2908e-06	2.7725e-06	400.83	141.19	117.79	40.459	1.092e-06	50.297	0.00040144	0.00038578	0.00010712	1273	4.1995e-06	4.2131e-06	1294.8	356.62	4.2219e-06	4.1853e-06	406.21	137.79	118.09	41.368	4.2e-06	51.169	438.885	174.111	388.363	145.200	303.836	294.762	144.927	149.719	181.988	297.524	149.219	153.652	154.223	158.866	407.134	158.043	-8191	255	
603.754	1	1	0	0	0.034879	0.13559	0.19314	0.068256	0.11876	0.33397	0.19182	0.40346	0.21526	0.31625	0.11723	0.13639	0.058092	0.40045	0.073749	0.33174	-2.8354	-3.0479	-2.9062	-3.2979	-2.9896	-3.0917	-3.6188	-3.2313	-3.3021	-3.1729	-3.1458	-3.2625	-3.1583	-3.2708	-3.3812	-3.2229	294.160	310.100	139.044	447.229	138.673	198.470	446.582	453.659	187.576	318.457	155.967	453.012	250.964	477.627	253.360	475.153	0.0017224	0.00059015	0.00015541	1279.9	4.8269e-06	4.4143e-06	1283.3	352.16	1.2727e-05	8.128e-06	402.55	141.27	117.44	40.504	3.6388e-06	50.353	0.00039892	0.00038395	0.00010636	1273.6	4.1839e-06	4.1876e-06	1296.6	356.95	4.1888e-06	4.1576e-06	406.53	137.26	118.04	41.407	4.1636e-06	51.248	428.951	166.675	241.356	145.235	179.761	307.869	144.736	149.973	177.582	253.178	149.581	153.073	154.448	158.742	250.528	157.236	-8191	255	
603.874	1	1	0	0	0.22338	0.036429	0.24962	0.12783	0.11209	0.19218	0.11072	0.066423	0.0609	0.16007	0.27249	0.13451	0.18461	0.15379	0.11471	0.093014	-2.775	-3.1979	-3.0312	-3.4896	-3.1125	-2.8646	-3.5187	-3.2667	-3.3187	-3.3833	-3.1562	-3.2333	-3.2208	-3.0646	-3.2188	-3.1375	319.082	232.464	321.919	233.539	190.723	200.816	246.189	426.372	250.651	347.956	490.207	359.850	289.151	429.817	217.997	146.646	0.0017198	0.00052355	9.8758e-05	1277	3.1409e-06	3.0894e-06	1278.5	351.42	6.7504e-06	3.0392e-06	400.25	140.26	117.93	40.581	8.2715e-06	50.237	0.00039785	0.00038072	0.00010528	1271.6	4.1324e-06	4.0674e-06	1292.9	356.46	4.0896e-06	4.0183e-06	405.24	136.71	117.7	41.371	4.1092e-06	51.15	428.489	143.427	266.877	145.361	259.947	277.518	144.883	149.596	234.631	267.056	149.428	153.390	154.446	158.822	289.516	157.844	-8191	255	
603.946	1	1	0	0	0.14593	0.25492	0.20279	0.28864	0.1496	0.13332	0.29052	0.26024	0.078934	0.012414	0.23631	0.31842	0.17566	0.28508	0.14225	0.24986	-2.85	-3.0833	-2.9708	-3.3625	-3.2083	-3.0854	-3.5896	-3.4188	-3.1875	-3.2667	-3.0917	-3.3917	-3.0333	-3.1312	-3.1958	-3.2625	297.636	150.100	297.965	460.865	268.881	189.922	430.456	444.383	273.271	178.710	376.724	334.717	236.546	143.504	190.603	381.454	0.0017847	0.00043041	0.00018303	1268.6	1.1181e-06	5.9008e-06	1275	350.88	9.6835e-06	2.1357e-06	400.05	140.83	116.91	40.659	4.5688e-06	50.158	0.00039136	0.00037634	0.00010403	1267.3	4.0592e-06	4.0835e-06	1290.6	355.6	4.111e-06	4.0797e-06	405.12	136.61	117.61	41.425	4.1462e-06	51.107	431.152	182.151	222.625	145.238	434.750	262.553	144.738	149.776	160.098	261.796	149.028	152.809	154.465	158.681	261.720	157.774	-8191	255	
604.042	1	1	0	0	0.26143	0.096243	0.021875	0.10081	0.21551	0.13448	0.19236	0.22713	0.18399	0.19869	0.12143	0.066501	0.041846	0.16522	0.21374	0.21634	-2.7625	-3.3479	-2.9104	-3.2687	-3.1042	-3.0438	-3.5271	-3.2333	-3.1833	-3.3104	-3.1833	-3.2021	-3.2313	-3.0875	-3.4146	-3.1479	183.832	412.458	341.711	261.071	143.443	452.126	386.955	440.579	443.948	475.124	442.974	170.682	342.539	488.207	360.272	203.499	0.0018684	0.00038107	7.4874e-05	1268.1	2.6314e-06	5.4203e-06	1278.1	350.29	9.4135e-06	2.7701e-06	399.78	138.9	117.07	40.501	8.4202e-07	50.108	0.00039027	0.00037763	0.00010509	1266.7	4.0909e-06	4.0361e-06	1287.7	355.28	3.9991e-06	3.9769e-06	404.1	135.96	117.36	41.312	3.9515e-06	51.033	431.158	202.092	185.032	145.267	271.888	302.144	144.826	149.665	186.441	380.782	149.177	153.150	154.083	158.897	204.283	157.702	-8191	255	
604.163	1	1	0	0	0.2272	0.085831	0.18228	0.085343	0.038128	0.072974	0.30296	0.14179	0.26964	0.20253	0.26789	0.321	0.30773	0.31777	0.21603	0.18068	-2.6104	-3.2708	-2.8979	-3.3417	-3.2313	-3.1375	-3.3688	-3.2771	-3.0583	-3.3917	-3.2208	-3.2417	-3.4333	-3.0083	-3.2792	-3.2583	350.434	157.708	372.737	253.835	265.709	213.674	483.373	407.836	491.101	156.552	484.905	435.900	481.383	434.944	442.084	428.682	0.0017548	0.00020002	9.2387e-05	1263.8	4.3807e-06	5.1258e-06	1269.3	348.92	8.2636e-06	4.5818e-06	400.81	140.18	117.19	40.654	4.2945e-06	50.292	0.00037827	0.00036167	0.00010145	1259.9	3.9574e-06	3.9621e-06	1285.1	354.35	3.969e-06	3.9765e-06	404.3	136.21	117.4	41.335	4.053e-06	51.086	438.011	235.807	486.109	145.202	303.915	251.741	145.058	149.847	175.366	345.500	149.056	153.300	154.207	158.800	301.367	157.714	-8191	255	
604.259	1	1	0	0	0.36402	0.28988	0.10304	0.15159	0.21066	0.023677	0.37146	0.15627	0.067896	0.19451	0.14911	0.23453	0.31849	0.20882	0.18834	0.26393	-2.5062	-3.3271	-3.1167	-3.3104	-3.3688	-3.0396	-3.275	-3.375	-3.0438	-3.2854	-3.1458	-3.0917	-3.3458	-3.1229	-3.2875	-3.3292	297.075	300.146	412.895	379.620	141.331	379.944	464.859	446.712	482.303	415.229	459.805	433.204	441.549	249.428	242.055	433.549	0.0016182	0.00050002	0.00016432	1261.2	9.0962e-07	5.8928e-06	1274.7	351.76	1.148e-05	2.3845e-06	399.33	139.58	117.49	40.64	2.2626e-06	50.169	0.00038416	0.00037394	0.000103	1261.6	4.0272e-06	4.041e-06	1287.5	355.86	4.0234e-06	4.0225e-06	404.2	135.6	117.25	41.36	3.949e-06	51.029	425.051	218.488	287.408	145.158	285.020	201.604	145.099	149.755	235.380	292.039	149.288	153.181	154.374	158.848	413.034	157.682	-8191	255	
604.353	1	1	0	0	0.11435	0.14878	0.07219	0.069974	0.09773	0.10641	0.31725	0.12225	0.1964	0.13805	0.2075	0.15016	0.11679	0.10151	0.080472	0.10702	-2.5938	-3.4292	-3.2333	-3.0667	-3.325	-2.9938	-3.3563	-3.4188	-2.9688	-3.275	-3.2479	-3.1979	-3.2958	-3.0375	-3.1125	-3.4854	426.146	139.059	189.951	425.020	344.487	171.512	471.701	343.023	256.978	184.035	176.012	215.794	389.224	145.865	140.590	149.634	0.001764	0.00072303	0.00014183	1266.8	6.3588e-06	7.584e-06	1269.3	349.31	9.098e-06	3.1742e-06	401.91	140.03	117.11	40.482	4.3829e-06	50.344	0.00037792	0.00036085	9.9901e-05	1258.7	3.9523e-06	3.9416e-06	1284.1	354.56	3.9698e-06	3.9613e-06	404.36	135.74	117.27	41.345	3.9761e-06	51.148	437.168	231.853	270.078	145.330	259.942	277.799	144.739	149.745	188.545	240.310	149.010	152.931	154.189	158.745	232.849	157.836	-8191	255	
604.451	1	1	0	0	0.034858	0.074355	0.074246	0.34131	0.18395	0.24402	0.24848	0.38431	0.020216	0.082098	0.087618	0.03918	0.10897	0.19252	0.10713	0.11648	-2.5833	-3.4333	-3.0729	-2.9354	-3.2938	-3.1167	-3.1875	-3.5146	-3.0979	-3.2896	-3.2646	-2.8354	-3.2833	-3.2146	-3.1604	-3.2938	434.659	434.217	205.721	485.963	214.626	208.186	401.465	398.923	178.906	179.339	415.435	319.320	155.658	397.706	393.755	434.363	0.0018129	0.00019072	0.00019217	1264	1.377e-06	2.7084e-06	1275.9	352.22	8.903e-06	3.2204e-06	402.2	137.55	117.42	40.722	3.5223e-06	50.531	0.00037966	0.00036829	0.0001023	1259.6	4.0558e-06	4.0378e-06	1286.3	356.3	4.1039e-06	4.1217e-06	405.41	134.88	117.87	41.541	4.1528e-06	51.386	429.616	251.440	238.272	145.168	276.188	261.821	144.854	149.871	193.656	206.623	149.307	152.950	154.411	158.895	220.813	157.916	-8191	255	
604.570	1	1	0	0	0.29876	0.23478	0.18556	0.078301	0.21216	0.10136	0.15404	0.1854	0.29825	0.26186	0.08736	0.15757	0.19595	0.28931	0.067636	0.12692	-2.4604	-3.1646	-3.2792	-3.0958	-3.4021	-3.0938	-3.2687	-3.5792	-2.9313	-3.0958	-3.275	-2.9958	-3.3979	-3.3104	-3.1292	-3.4417	483.619	248.487	340.590	387.386	270.650	356.434	434.953	464.688	152.305	330.085	458.586	162.877	139.304	484.155	343.581	356.343	0.0016224	0.00033591	0.00033538	1269.4	4.2115e-06	3.5984e-06	1279.7	351.83	8.7112e-06	4.2953e-06	402.52	136.23	117.18	40.836	4.3344e-06	50.724	0.00039593	0.00038104	0.00010526	1269.8	4.1613e-06	4.141e-06	1293.9	356.86	4.1766e-06	4.1685e-06	407.38	132.85	118.19	41.741	4.2787e-06	51.653	432.613	220.742	235.972	145.471	392.143	257.598	144.917	149.718	199.128	305.709	149.247	153.365	154.211	158.798	327.249	157.698	-8191	255	
604.642	1	1	0	0	0.086316	0.21776	0.11058	0.16081	0.033917	0.2576	0.17532	0.064689	0.14623	0.22305	0.089408	0.020563	0.18159	0.055334	0.15764	0.10489	-2.7958	-3.0354	-3.2417	-3.1354	-3.3	-3.1312	-3.3021	-3.65	-3.1396	-3.1354	-3.1708	-3.0042	-3.3104	-3.2958	-3.0875	-3.4583	163.266	465.043	326.732	410.556	273.037	430.269	489.833	394.930	296.318	350.720	460.481	220.486	390.629	456.407	457.753	176.791	0.0016187	0.00033522	0.00014257	1277.5	1.7195e-06	3.4088e-06	1287.9	354.36	8.6696e-06	3.0224e-06	405.28	136.08	118.42	41.138	2.098e-06	50.999	0.00041007	0.00039909	0.00011052	1278.9	4.4097e-06	4.4097e-06	1303.4	359.79	4.4563e-06	4.4529e-06	410.4	133.69	119.42	41.945	4.4329e-06	51.931	422.628	244.257	289.743	145.406	260.728	249.569	144.830	149.704	142.568	224.750	149.420	153.171	154.135	158.759	268.354	157.709	-8191	255	
604.762	1	1	0	0	0.053441	0.2064	0.29048	0.23077	0.16801	0.12873	0.31461	0.13679	0.10978	0.26938	0.13236	0.14847	0.19761	0.20815	0.06107	0.33321	-2.4354	-3.1562	-3.275	-3.0458	-3.1646	-3.1875	-3.125	-3.4417	-3.1354	-2.9792	-3.4896	-2.8771	-3.2979	-3.3729	-3.0146	-3.4271	132.440	293.699	190.003	246.547	166.958	299.099	475.361	465.111	221.508	445.140	388.095	323.279	303.907	487.781	200.548	356.798	0.00183	0.00015725	9.2184e-05	1275.3	4.0792e-06	3.9531e-06	1290.9	355.53	3.6425e-06	1.4919e-06	406.79	136.92	118.28	41.111	4.9818e-06	50.742	0.00041723	0.00040435	0.0001112	1283.6	4.4589e-06	4.4488e-06	1306.3	360.5	4.4638e-06	4.4124e-06	411.63	134.11	119.45	42.075	4.4359e-06	51.914	430.021	247.105	256.269	145.194	169.627	285.306	144.957	149.638	433.312	367.546	149.286	153.226	154.270	158.682	261.623	157.867	-8191	255	
604.858	1	1	0	0	0.20974	0.21583	0.22048	0.16816	0.19751	0.031271	0.02343	0.51305	0.03967	0.06896	0.10807	0.16757	0.16136	0.17023	0.26515	0.1351	-2.6521	-2.9813	-3.2896	-3.0271	-3.3021	-3.1458	-3.1417	-3.4021	-3.0042	-3.075	-3.4792	-3.0958	-3.3146	-3.2792	-2.9813	-3.4271	430.927	292.142	255.948	470.958	224.064	248.128	358.718	454.922	205.585	208.245	141.374	491.630	311.637	146.947	261.293	419.353	0.0018069	0.00038122	0.00011792	1276.9	2.6935e-06	6.0216e-06	1285.1	354.28	1.439e-05	4.8274e-06	404.82	136.5	119.03	41.023	2.0819e-06	50.758	0.00041982	0.00040228	0.00011344	1284.7	4.4331e-06	4.4559e-06	1303.6	360.51	4.4359e-06	4.4639e-06	411.2	134.25	119.43	42.001	4.5137e-06	51.924	428.964	233.060	238.411	145.305	278.963	260.546	144.816	149.791	220.107	251.321	149.315	153.117	154.250	158.558	234.816	157.727	-8191	255	
604.955	1	1	0	0	0.077079	0.10064	0.09126	0.1831	0.10907	0.045085	0.13407	0.1699	0.25228	0.13529	0.31128	0.069638	0.18616	0.14778	0.11226	0.086243	-2.7208	-3.1146	-3.2729	-2.9104	-3.1646	-3.1396	-3.2812	-3.4292	-3.1375	-3.0167	-3.4354	-3.0729	-3.1271	-3.3375	-2.9542	-3.3438	400.151	325.994	385.623	162.613	319.652	283.857	134.945	367.143	240.338	295.763	415.399	321.944	270.996	141.171	132.273	443.538	0.0017298	0.0005463	0.00016772	1279.2	5.3061e-06	5.0417e-06	1287.8	354	9.7843e-06	1.8288e-06	404.73	136.95	117.97	41.256	5.6645e-06	50.907	0.00042582	0.00041464	0.00011483	1284.6	4.4859e-06	4.4656e-06	1304.1	360.19	4.4885e-06	4.4562e-06	411.09	134.21	119.16	42.028	4.4224e-06	51.964	433.925	211.933	244.961	145.114	263.604	234.597	144.946	149.889	206.673	266.195	149.150	152.996	154.123	158.794	254.055	157.526	-8191	255	
605.051	1	1	0	0	0.21964	0.076479	0.1776	0.22093	0.060092	0.19349	0.076755	0.20829	0.011816	0.22509	0.3096	0.11476	0.14231	0.078849	0.1831	0.069748	-2.8667	-2.95	-3.225	-3.0646	-3.1562	-3.4562	-3.1271	-3.3646	-3.1271	-2.9792	-3.2771	-2.9792	-3.1667	-3.5583	-3.0146	-3.2833	319.727	297.637	361.840	415.591	412.966	376.032	410.778	465.413	484.111	446.194	422.040	258.245	437.156	444.122	403.833	177.634	0.001716	0.00018961	6.2096e-05	1277.4	5.927e-06	7.104e-06	1289.9	354.44	6.2358e-06	1.8622e-06	404.85	137.76	118.26	41.153	3.6054e-06	50.935	0.00042084	0.00040624	0.0001129	1279.5	4.3918e-06	4.3983e-06	1302.1	360.2	4.391e-06	4.3495e-06	409.65	134.34	118.97	41.916	4.208e-06	51.79	428.590	290.872	423.060	145.275	275.603	272.394	144.735	149.892	488.343	140.315	149.245	153.043	154.154	158.716	301.734	157.670	-8191	255	
605.147	1	1	0	0	0.045811	0.20141	0.21325	0.091326	0.13528	0.10951	0.080723	0.096542	0.17411	0.14326	0.10245	0.21448	0.22625	0.067206	0.15113	0.28086	-2.8667	-2.9333	-3.3292	-3.0646	-3.1479	-3.3146	-3.3187	-3.3937	-3.3625	-2.9896	-3.4688	-3.1708	-3.0792	-3.5479	-3.0021	-3.1708	477.983	378.106	254.647	143.748	269.481	169.151	163.033	445.799	466.513	371.427	307.956	219.587	397.146	400.460	335.917	467.455	0.0016465	0.00054001	1.9532e-05	1261.7	5.431e-06	2.6042e-06	1275.1	352.19	5.7993e-06	1.8688e-06	402.15	136.39	117.48	40.813	6.319e-06	50.386	0.00039718	0.00037847	0.00010492	1266.4	4.1198e-06	4.0952e-06	1288.5	356.96	4.0507e-06	4.0784e-06	406.32	133.06	117.65	41.589	4.0386e-06	51.35	429.722	487.069	449.605	145.570	239.378	228.285	144.919	149.732	485.803	343.750	149.373	153.241	154.311	158.757	281.330	157.674	-8191	255	
605.243	1	1	0	0	0.18127	0.12641	0.13196	0.16673	0.075327	0.17982	0.14359	0.19731	0.15813	0.2449	0.19543	0.15907	0.24848	0.28365	0.32858	0.050816	-2.9458	-2.8563	-3.1771	-3.0729	-3.0042	-3.3229	-3.3375	-3.1021	-3.2542	-3.0687	-3.2583	-3.0687	-3.0896	-3.2938	-3.25	-3.1542	244.243	240.483	370.244	322.250	326.104	291.171	462.581	140.207	470.248	225.033	138.340	168.790	421.660	174.183	374.073	199.545	0.0017408	0.00039553	0.00018416	1261.5	5.5617e-06	5.6941e-06	1258.5	350.01	7.3775e-06	5.4422e-06	400.91	136.65	117.02	40.757	6.4768e-06	50.503	0.00038135	0.00036682	0.00010094	1253.3	3.9813e-06	3.9653e-06	1274.7	354.97	3.9809e-06	4.0043e-06	404.07	133.36	117.3	41.484	3.941e-06	51.329	424.483	202.340	259.191	145.278	209.722	247.061	144.923	149.805	246.850	220.911	149.577	153.144	154.000	158.827	198.605	157.797	-8191	255	
605.339	1	1	0	0	0.087998	0.15031	0.18419	0.10554	0.21453	0.10187	0.091348	0.25415	0.071586	0.11021	0.27202	0.076084	0.20112	0.25713	0.22124	0.24145	-2.8812	-2.8688	-3.4458	-3.2313	-2.8208	-3.4417	-3.325	-3.3125	-3.3458	-2.9625	-3.4083	-3.375	-3.2062	-3.4396	-3.2458	-3.2083	400.461	268.621	298.977	439.873	347.765	490.612	305.448	446.790	450.416	347.416	204.886	480.838	467.157	468.896	320.203	435.170	0.0017553	0.00066586	8.1061e-05	1247	5.2264e-06	4.5517e-06	1260.6	350.57	8.8136e-06	4.3398e-07	398.19	137.8	116.58	40.771	9.6563e-06	50.425	0.00037391	0.00036057	0.00010089	1245.2	3.9516e-06	3.932e-06	1273.5	354.08	3.9299e-06	3.8977e-06	403.33	134.14	116.85	41.382	3.856e-06	51.164	437.376	224.461	218.000	145.605	222.433	267.565	144.876	150.064	166.138	354.810	149.429	152.849	154.532	158.834	289.951	157.885	-8191	255	
605.434	1	1	0	0	0.14917	0.20921	0.095188	0.040267	0.047677	0.27325	0.15383	0.29806	0.12633	0.18098	0.062527	0.24624	0.30159	0.10361	0.07221	0.28466	-2.8146	-2.7542	-2.9688	-3.1646	-3.1583	-3.3604	-3.3125	-3.15	-3.4083	-3.0417	-3.1604	-3.2687	-3.1708	-3.3979	-3.1813	-3.1354	355.293	238.623	377.075	255.762	194.306	321.810	451.395	453.967	439.624	233.886	217.770	432.264	133.613	357.746	335.295	474.954	0.0016334	0.00037937	6.1871e-05	1251	4.3995e-06	3.8514e-06	1255.5	348.31	5.9588e-06	6.3099e-06	398.72	139.15	116.52	40.802	4.942e-06	50.697	0.00036593	0.0003489	9.7529e-05	1241.8	3.8696e-06	3.8736e-06	1270.5	353.74	3.9295e-06	3.9721e-06	403.3	135.63	117.17	41.435	3.9973e-06	51.283	430.764	205.697	216.140	145.264	253.042	225.521	144.932	149.919	465.610	232.931	149.322	153.094	154.624	158.788	292.821	158.015	-8191	255	
605.531	1	1	0	0	0.14546	0.081466	0.27684	0.082122	0.097293	0.05765	0.29	0.44279	0.078461	0.010948	0.38974	0.23346	0.20501	0.3655	0.14085	0.029809	-2.8792	-3.0542	-3.0521	-3.3625	-2.9813	-3.2229	-3.3688	-3.2354	-3.1521	-3.2333	-3.2854	-3.1917	-2.9729	-3.2021	-3.2104	-3.0979	275.952	280.533	415.049	145.952	228.183	253.981	441.636	419.181	312.053	253.168	485.057	161.385	211.113	456.867	467.161	275.223	0.0017498	0.00017283	0.00018054	1252.5	9.2378e-06	3.0046e-06	1260.4	349.16	4.0413e-06	5.4633e-06	401.26	139.22	116.57	40.825	4.7879e-06	50.362	0.00037898	0.00036002	0.0001	1246.8	3.9391e-06	3.9149e-06	1274.5	354.5	3.9239e-06	3.8834e-06	403.85	135.15	117.11	41.5	3.8825e-06	51.303	430.602	449.267	267.889	145.240	274.584	272.576	144.720	149.924	172.972	342.728	149.344	153.296	154.334	158.931	338.184	158.013	-8191	255	
605.650	1	1	0	0	0.12224	0.055143	0.3704	0.29404	0.16964	0.19187	0.21695	0.15275	0.12599	0.10533	0.16184	0.18195	0.28957	0.058212	0.055139	0.15726	-2.8833	-3.2458	-2.9021	-3.5208	-2.9917	-3.2979	-3.25	-3.15	-3.3271	-3.1854	-3.1312	-3.3812	-2.9813	-3.2521	-3.0771	-3.0396	327.703	221.945	209.593	162.636	310.047	384.184	393.621	408.123	150.678	406.176	491.479	487.336	483.032	477.844	163.055	405.217	0.001765	0.00058279	3.0933e-05	1251.7	5.2706e-06	4.0998e-06	1265.6	351.46	1.9965e-05	3.5304e-06	401.12	141.37	117.2	41.054	3.6937e-06	50.643	0.00036625	0.000357	9.9757e-05	1250.9	3.9894e-06	3.9871e-06	1278.5	355.99	3.9772e-06	3.9763e-06	405.48	136.77	117.7	41.626	3.9324e-06	51.548	429.570	208.153	214.833	145.052	272.142	330.419	144.868	149.832	201.017	194.665	149.351	153.236	154.097	158.776	213.947	157.954	-8191	255	
605.746	1	1	0	0	0.066737	0.26678	0.21749	0.088959	0.11578	0.13098	0.33372	0.12837	0.083691	0.29165	0.14445	0.21787	0.08201	0.1443	0.070085	0.16028	-2.9792	-3.2896	-3.0625	-3.3271	-3.0312	-3.1542	-3.475	-3.1125	-3.3521	-3.2979	-3.1542	-3.3396	-3.0687	-3.0563	-3.3292	-3.1042	474.608	450.085	215.009	189.790	337.722	311.059	403.994	181.891	431.561	182.013	474.591	479.293	133.775	364.198	221.297	399.574	0.0018549	0.00036722	0.00029122	1252.9	2.693e-06	5.4685e-06	1264.5	350.94	1.7865e-05	5.5146e-06	400.55	139.06	117.13	40.905	3.205e-06	50.922	0.0003722	0.00035502	9.8715e-05	1250	3.8308e-06	3.8274e-06	1275.5	355.38	3.7876e-06	3.7338e-06	405.06	134.4	117.27	41.512	3.6563e-06	51.496	425.904	233.824	240.755	145.184	290.151	267.149	144.847	149.790	209.823	263.592	149.217	153.245	154.411	158.806	303.992	157.861	-8191	255	
605.843	1	1	0	0	0.24129	0.14281	0.101	0.050274	0.050901	0.14429	0.42685	0.23444	0.12935	0.073993	0.18001	0.32101	0.23843	0.15897	0.089962	0.42704	-2.775	-3.125	-2.7562	-3.3208	-3.2271	-3.2354	-3.35	-3.1979	-3.2854	-3.2875	-3.1271	-3.4625	-3.1771	-3.2354	-3.375	-3.1021	306.318	189.886	284.901	198.692	283.132	470.852	426.366	147.529	486.188	191.364	403.591	143.971	426.875	474.433	419.515	472.653	0.001783	0.00017025	0.00015817	1251.1	3.1057e-06	5.8576e-06	1261.5	351.58	1.545e-05	2.5057e-06	401.65	137.14	117.51	40.884	3.7565e-07	50.811	0.00035014	0.00033012	9.2406e-05	1243.5	3.6094e-06	3.6296e-06	1274.1	355.83	3.7113e-06	3.6403e-06	404.44	132.53	117.57	41.518	3.6948e-06	51.484	428.342	183.765	274.902	145.561	252.019	278.299	144.870	149.974	178.489	262.961	149.300	153.580	154.526	158.749	237.486	157.866	-8191	255	
605.939	1	1	0	0	0.24201	0.12572	0.25139	0.07987	0.27268	0.20283	0.069774	0.13886	0.16045	0.09401	0.24168	0.18752	0.28817	0.44926	0.17057	0.2368	-3.0042	-3.1625	-2.9417	-3.2854	-3.0729	-3.0938	-3.3646	-3.0021	-3.1583	-3.4667	-3.1729	-3.2625	-3.1792	-3.1146	-3.3	-2.9875	161.116	190.313	277.236	357.030	407.653	425.559	371.497	432.954	201.799	442.908	457.373	466.896	450.243	156.491	150.679	489.431	0.0018732	0.00019833	0.00014088	1269.1	5.0011e-06	3.3531e-06	1272.6	352.24	8.326e-06	2.2685e-06	402.45	135.07	117.4	41.018	4.211e-06	51.301	0.00035865	0.00034037	9.5197e-05	1259.5	3.7571e-06	3.7467e-06	1284	357.06	3.6935e-06	3.6535e-06	405.31	130.98	117.69	41.615	3.6522e-06	51.787	431.102	278.031	255.263	145.553	279.973	284.724	144.678	149.731	211.918	176.553	149.178	153.213	154.299	158.662	242.322	157.611	-8191	255	
606.035	1	1	0	0	0.13036	0.14067	0.15267	0.032796	0.13623	0.21324	0.16186	0.10505	0.23526	0.1264	0.10248	0.095677	0.16853	0.03761	0.07688	0.17411	-2.7417	-3.1604	-2.9646	-3.2521	-3.2208	-2.9479	-3.35	-3.2333	-3.0292	-3.2896	-2.9479	-3.1792	-3.2917	-2.8458	-3.4833	-3.1917	381.099	201.763	475.273	432.808	195.612	292.047	136.523	192.335	446.688	460.521	332.502	199.901	400.364	336.560	265.953	397.851	0.0016615	0.0002262	6.1777e-05	1270.2	5.6483e-06	4.8565e-06	1277.1	353.36	1.9583e-05	2.3425e-06	402.68	134.82	118.08	40.999	2.8143e-06	51.135	0.00035323	0.00034107	9.5601e-05	1261.1	3.7814e-06	3.8245e-06	1289.6	358.04	3.8256e-06	3.8118e-06	407.23	131.26	118.25	41.727	3.8178e-06	51.818	429.751	214.536	153.548	145.446	289.693	274.098	144.936	149.799	191.348	267.431	149.368	153.316	154.401	158.872	211.719	157.664	-8191	255	
606.131	1	1	0	0	0.17802	0.07378	0.035088	0.039899	0.28836	0.093048	0.10463	0.21745	0.2683	0.10554	0.063799	0.30592	0.21079	0.11573	0.19465	0.2994	-2.8021	-3.25	-2.9917	-3.2979	-3.1937	-2.8125	-3.5208	-3.3667	-3.0062	-3.3104	-3.0604	-3.2021	-3.2208	-2.9854	-3.2125	-3.3063	381.371	397.684	254.347	427.984	278.612	386.216	390.351	407.637	437.586	265.463	137.731	164.476	187.041	464.006	266.746	434.579	0.0017818	0.0004031	0.00018967	1270.3	3.3758e-06	2.0501e-06	1277.4	353.69	1.9575e-05	2.0885e-06	403.29	135.56	118.06	40.944	8.4447e-06	51.186	0.00036023	0.0003434	9.6657e-05	1261.7	3.7547e-06	3.759e-06	1289.9	357.64	3.7412e-06	3.7523e-06	407.15	131.46	118.39	41.678	3.772e-06	51.959	434.578	196.097	188.510	145.452	260.556	197.569	144.866	149.819	177.395	197.210	149.262	153.034	154.318	158.507	224.190	158.054	-8191	255	
606.252	1	1	0	0	0.073584	0.20045	0.11165	0.12628	0.19488	0.083105	0.10255	0.16586	0.091797	0.069776	0.21555	0.21496	0.14287	0.11909	0.13123	0.30549	-2.55	-3.1667	-3.1	-2.9854	-3.1875	-3.0458	-3.5583	-3.2958	-2.9417	-3.3146	-3.1396	-3.1792	-3.3417	-3.0729	-3.1937	-3.2188	315.850	431.449	405.951	348.786	365.952	327.310	163.269	454.997	155.481	294.885	458.217	143.122	257.230	364.315	381.347	437.174	0.0019767	0.00056927	8.2842e-05	1261.8	5.9293e-06	1.6793e-06	1275	352.77	1.4605e-05	5.0619e-06	404.53	136.91	118.52	41.072	3.0304e-06	51.167	0.00035604	0.0003397	9.4831e-05	1254.2	3.6766e-06	3.7054e-06	1284.2	357.47	3.6862e-06	3.659e-06	406.53	132.11	118.17	41.658	3.6681e-06	51.745	434.473	177.129	231.081	145.673	248.903	313.562	145.001	149.990	187.319	210.917	149.340	152.685	154.576	158.828	195.341	158.024	-8191	255	
606.346	1	1	0	0	0.21332	0.049087	0.098041	0.18504	0.19026	0.06226	0.15545	0.12969	0.10612	0.076066	0.16482	0.27949	0.11121	0.19431	0.084935	0.25271	-2.5167	-3.4583	-2.9375	-3.1458	-3.4813	-2.8542	-3.3292	-3.3438	-2.9083	-3.4188	-3.1396	-3.1562	-3.275	-2.9938	-3.2667	-3.375	342.306	322.180	430.756	458.882	345.275	385.362	131.725	482.311	469.888	354.902	463.925	391.575	282.119	445.368	255.764	476.949	0.0018625	0.00066088	0.00010539	1262	2.0677e-06	2.1198e-06	1269.6	352.88	9.4757e-06	5.2282e-06	402.28	139.06	117.86	41.107	3.4996e-06	51.123	0.00035526	0.00033795	9.4163e-05	1253.8	3.7031e-06	3.7402e-06	1281.1	356.82	3.7192e-06	3.6826e-06	405.72	134.76	117.71	41.633	3.7208e-06	51.784	435.180	243.320	266.368	145.278	289.178	319.686	145.096	149.632	172.074	279.961	149.577	153.289	154.496	158.787	304.381	157.817	-8191	255	
606.442	1	1	0	0	0.080641	0.17446	0.11975	0.16884	0.23457	0.17309	0.25126	0.11309	0.14477	0.14031	0.27322	0.12904	0.059693	0.058268	0.043176	0.2185	-2.4833	-3.3021	-3.0479	-3.075	-3.1896	-3.0042	-3.3979	-3.3958	-2.7583	-3.3979	-3.0667	-3.1875	-3.575	-3.0687	-3.175	-3.3167	219.582	366.704	177.202	450.060	338.501	191.730	463.313	331.133	189.320	379.444	403.030	262.978	262.896	420.329	484.055	448.216	0.0016028	0.00038609	0.00018899	1268.4	3.612e-06	9.4141e-07	1272.7	353.16	1.1415e-05	3.2531e-06	404	141	118.08	41.225	3.597e-06	51.358	0.00036095	0.00034664	9.6873e-05	1258.3	3.8277e-06	3.8524e-06	1286.7	357.93	3.9078e-06	3.8535e-06	406.97	136.27	118.13	41.778	3.8667e-06	51.963	431.479	244.274	258.023	145.516	260.884	404.914	144.929	149.725	218.266	329.348	149.335	152.970	154.074	158.758	258.942	157.786	-8191	255	
606.538	1	1	0	0	0.042549	0.17504	0.028636	0.21447	0.22749	0.092654	0.053597	0.2456	0.090167	0.066207	0.019161	0.08826	0.11644	0.40482	0.078614	0.13833	-2.6958	-3.1771	-3.1063	-2.9562	-3.3312	-2.8125	-3.3042	-3.3583	-2.9958	-3.2208	-3.2375	-2.9562	-3.1188	-3.1792	-3.1292	-3.4083	466.120	147.622	400.112	394.362	458.137	401.052	424.607	472.234	320.962	274.490	421.066	276.813	226.528	429.612	277.580	397.164	0.0016423	7.2496e-05	0.00011247	1262.9	4.4703e-06	3.6816e-06	1270.2	353.47	1.654e-05	4.3939e-06	402.47	139.92	119.01	41.112	6.6187e-06	51.194	0.00036718	0.00035355	9.8368e-05	1256.6	3.8941e-06	3.8864e-06	1284	357.7	3.9748e-06	3.9351e-06	407.25	136.24	118.69	41.815	3.9684e-06	52.092	429.800	281.059	266.642	145.493	299.396	185.653	144.940	149.719	167.267	172.527	149.110	152.917	154.323	158.938	251.027	157.570	-8191	255	
#DATA ENDS
