BOXY.EXE: ISS Imagent and Oximeter Data Acquisition Program Version 0.80
Ascii Record File

#ACQ INFORMATION
2  Detector Channels 
16  External MUX Channels 
1  Auxiliary Channels 
5000  Waveform (CCF) Frequency (Hz)
1  Waveforms Skipped 
30  Waveforms Averaged 
1  Cycles Averaged 
16  Acquisitions per Waveform 
10.0806  Updata Rate (Hz) 

#FILE INFORMATION
TRUE -- External MUX Channel results are PARSED.
FALSE -- AC DC and Phase are NOT grouped.
TRUE -- Companion Program Settings File CREATED.
FALSE -- AC data not excluded
FALSE -- DC data not excluded
FALSE -- Phase data not excluded
FALSE -- Auxillary Chn. data not excluded
Tab delimiters

#CALIBRATION STATE
TRUE -- Waveform Calibration Values APPLIED.


#AUX CALIBRATION VALUES
Val Type	aux-1	

Term	1.0000e+00	
Factor	0.0000e+00	


#WF CALIBRATION VALUES
A = Detector Channel
Val Type	A-AC1	A-AC2	A-AC3	A-AC4	A-AC5	A-AC6	A-AC7	A-AC8	A-AC9	A-AC10	A-AC11	A-AC12	A-AC13	A-AC14	A-AC15	A-AC16	A-DC1	A-DC2	A-DC3	A-DC4	A-DC5	A-DC6	A-DC7	A-DC8	A-DC9	A-DC10	A-DC11	A-DC12	A-DC13	A-DC14	A-DC15	A-DC16	A-Ph1	A-Ph2	A-Ph3	A-Ph4	A-Ph5	A-Ph6	A-Ph7	A-Ph8	A-Ph9	A-Ph10	A-Ph11	A-Ph12	A-Ph13	A-Ph14	A-Ph15	A-Ph16	

Term	0.00000e+00	0.00000e+00	0.00000e+00	0.00000e+00	0.00000e+00	0.00000e+00	0.00000e+00	0.00000e+00	0.00000e+00	0.00000e+00	0.00000e+00	0.00000e+00	0.00000e+00	0.00000e+00	0.00000e+00	0.00000e+00	0.00000e+00	0.00000e+00	0.00000e+00	0.00000e+00	0.00000e+00	0.00000e+00	0.00000e+00	0.00000e+00	0.00000e+00	0.00000e+00	0.00000e+00	0.00000e+00	0.00000e+00	0.00000e+00	0.00000e+00	0.00000e+00	0.00000e+00	0.00000e+00	0.00000e+00	0.00000e+00	0.00000e+00	0.00000e+00	0.00000e+00	0.00000e+00	0.00000e+00	0.00000e+00	0.00000e+00	0.00000e+00	0.00000e+00	0.00000e+00	0.00000e+00	0.00000e+00	
Factor	1.00000e+00	1.00000e+00	1.00000e+00	1.00000e+00	1.00000e+00	1.00000e+00	1.00000e+00	1.00000e+00	1.00000e+00	1.00000e+00	1.00000e+00	1.00000e+00	1.00000e+00	1.00000e+00	1.00000e+00	1.00000e+00	1.00000e+00	1.00000e+00	1.00000e+00	1.00000e+00	1.00000e+00	1.00000e+00	1.00000e+00	1.00000e+00	1.00000e+00	1.00000e+00	1.00000e+00	1.00000e+00	1.00000e+00	1.00000e+00	1.00000e+00	1.00000e+00	X	X	X	X	X	X	X	X	X	X	X	X	X	X	X	X	

B = Detector Channel
Val Type	B-AC1	B-AC2	B-AC3	B-AC4	B-AC5	B-AC6	B-AC7	B-AC8	B-AC9	B-AC10	B-AC11	B-AC12	B-AC13	B-AC14	B-AC15	B-AC16	B-DC1	B-DC2	B-DC3	B-DC4	B-DC5	B-DC6	B-DC7	B-DC8	B-DC9	B-DC10	B-DC11	B-DC12	B-DC13	B-DC14	B-DC15	B-DC16	B-Ph1	B-Ph2	B-Ph3	B-Ph4	B-Ph5	B-Ph6	B-Ph7	B-Ph8	B-Ph9	B-Ph10	B-Ph11	B-Ph12	B-Ph13	B-Ph14	B-Ph15	B-Ph16	

Term	0.00000e+00	0.00000e+00	0.00000e+00	0.00000e+00	0.00000e+00	0.00000e+00	0.00000e+00	0.00000e+00	0.00000e+00	0.00000e+00	0.00000e+00	0.00000e+00	0.00000e+00	0.00000e+00	0.00000e+00	0.00000e+00	0.00000e+00	0.00000e+00	0.00000e+00	0.00000e+00	0.00000e+00	0.00000e+00	0.00000e+00	0.00000e+00	0.00000e+00	0.00000e+00	0.00000e+00	0.00000e+00	0.00000e+00	0.00000e+00	0.00000e+00	0.00000e+00	-1.33282e+02	-1.24244e+02	-1.31194e+02	-1.84878e+02	-7.19354e+01	-7.70418e+01	-1.60504e+02	-1.62015e+02	-7.27160e+01	-5.22238e+01	-1.71878e+02	-1.76365e+02	-1.81387e+02	-1.76600e+02	-6.40966e+01	-1.50049e+02	
Factor	1.61160e-05	1.40305e-04	3.26510e-05	4.79770e-01	1.15018e-06	1.37140e-06	1.76387e-01	4.39700e-02	1.02792e-06	1.52153e-06	8.14531e-02	4.11143e-02	3.17810e-02	7.47551e-03	1.37671e-06	1.12200e-02	2.09604e-06	2.29989e-06	6.39286e-07	2.36417e-01	2.51055e-08	2.52244e-08	8.35563e-02	2.24285e-02	2.49656e-08	2.52171e-08	3.99457e-02	2.00416e-02	1.60763e-02	3.82177e-03	2.50317e-08	5.53561e-03	X	X	X	X	X	X	X	X	X	X	X	X	X	X	X	X	



#DISTANCE SETTINGS
A = Detector Channel
A-1	A-2	A-3	A-4	A-5	A-6	A-7	A-8	A-9	A-10	A-11	A-12	A-13	A-14	A-15	A-16	

2.5000e+00	3.0000e+00	2.5000e+00	3.0000e+00	2.0000e+00	3.0000e+00	1.5000e+00	3.0000e+00	3.0000e+00	3.0000e+00	3.0000e+00	3.0000e+00	3.0000e+00	3.0000e+00	1.5000e+00	3.0000e+00	

B = Detector Channel
B-1	B-2	B-3	B-4	B-5	B-6	B-7	B-8	B-9	B-10	B-11	B-12	B-13	B-14	B-15	B-16	

1.0000e+01	1.0000e+01	1.0000e+01	1.4400e+00	1.0000e+01	1.0000e+01	1.5100e+00	1.9400e+00	1.0000e+01	1.0000e+01	1.9900e+00	2.4900e+00	2.4100e+00	2.9000e+00	1.0000e+01	2.9800e+00	




#DATA BEGINS
time	group	step	mark	flag	A-AC1	A-AC2	A-AC3	A-AC4	A-AC5	A-AC6	A-AC7	A-AC8	A-AC9	A-AC10	A-AC11	A-AC12	A-AC13	A-AC14	A-AC15	A-AC16	A-DC1	A-DC2	A-DC3	A-DC4	A-DC5	A-DC6	A-DC7	A-DC8	A-DC9	A-DC10	A-DC11	A-DC12	A-DC13	A-DC14	A-DC15	A-DC16	A-Ph1	A-Ph2	A-Ph3	A-Ph4	A-Ph5	A-Ph6	A-Ph7	A-Ph8	A-Ph9	A-Ph10	A-Ph11	A-Ph12	A-Ph13	A-Ph14	A-Ph15	A-Ph16	B-AC1	B-AC2	B-AC3	B-AC4	B-AC5	B-AC6	B-AC7	B-AC8	B-AC9	B-AC10	B-AC11	B-AC12	B-AC13	B-AC14	B-AC15	B-AC16	B-DC1	B-DC2	B-DC3	B-DC4	B-DC5	B-DC6	B-DC7	B-DC8	B-DC9	B-DC10	B-DC11	B-DC12	B-DC13	B-DC14	B-DC15	B-DC16	B-Ph1	B-Ph2	B-Ph3	B-Ph4	B-Ph5	B-Ph6	B-Ph7	B-Ph8	B-Ph9	B-Ph10	B-Ph11	B-Ph12	B-Ph13	B-Ph14	B-Ph15	B-Ph16	aux-1	digaux	

487.943	1	1	0	768	0.12467	0.1919	0.20963	0.080921	0.16848	0.26972	0.18916	0.1378	0.1217	0.18832	0.19848	0.21864	0.13392	0.19688	0.11575	0.11487	-2.9562	-3.6042	-3.2708	-3.3104	-3.5396	-3.1813	-3.6958	-3.5729	-3.3083	-3.65	-3.4479	-3.375	-3.6354	-3.3833	-3.4021	-3.5479	504.223	246.117	494.971	489.370	373.127	166.835	454.869	444.628	265.721	302.283	455.349	465.802	259.640	177.070	508.507	401.216	0.00054402	0.00061606	9.2145e-05	1355.1	1.3019e-06	2.4099e-06	1349.3	367.38	2.7117e-06	1.0984e-05	419.21	129.67	121.83	41.779	6.4859e-06	51.385	0.00055351	0.00054962	0.00015339	1375.1	6.0771e-06	6.0158e-06	1373.4	373.94	6.0333e-06	6.0843e-06	427.01	133	124.42	42.84	6.0634e-06	53.043	183.158	273.970	247.376	172.100	269.735	303.909	171.693	176.454	322.563	306.737	176.075	179.582	180.388	185.335	306.858	184.571	-8191	255	
488.039	1	1	0	0	0.19584	0.20139	0.11386	0.20097	0.31139	0.055488	0.14503	0.29543	0.33658	0.052162	0.22722	0.15848	0.057901	0.19699	0.16235	0.36679	-2.9333	-3.4875	-3.2479	-3.4	-3.5667	-3.1688	-3.5854	-3.5375	-3.2771	-3.6188	-3.4042	-3.3896	-3.7375	-3.3104	-3.4875	-3.5667	304.201	265.829	197.594	318.909	485.935	295.925	490.203	159.790	379.259	219.783	187.739	365.089	445.606	161.484	247.714	491.245	0.00049806	0.00076473	0.00015987	1353.5	4.7338e-06	1.0099e-05	1349.1	367.13	3.2703e-06	4.1878e-06	419.98	117.99	121.96	41.701	7.2553e-06	51.561	0.00055689	0.00054866	0.00015527	1374.8	6.052e-06	6.0823e-06	1375.1	373.75	6.0152e-06	6.0093e-06	426.25	121.02	124.26	42.854	5.9811e-06	53.04	193.864	243.005	232.797	172.078	246.573	305.428	171.773	176.559	313.195	328.456	175.924	179.952	180.682	185.758	284.682	184.834	-8191	255	
488.136	1	1	0	0	0.18908	0.097973	0.42169	0.20463	0.11931	0.11682	0.13569	0.2643	0.1262	0.091235	0.0089437	0.097242	0.20688	0.15155	0.19661	0.14051	-2.6875	-3.5729	-3.2625	-3.3917	-3.725	-3.1771	-3.5646	-3.7021	-3.3271	-3.6396	-3.4	-3.325	-3.5812	-3.4917	-3.5417	-3.3958	211.835	442.813	434.908	471.265	346.498	310.050	365.838	454.921	328.574	516.773	177.459	394.708	162.729	484.552	179.795	387.073	0.00058874	0.00062893	1.4037e-05	1360.5	4.8751e-06	3.6638e-06	1352.7	367.56	3.4087e-06	4.9727e-06	418.17	136.5	121.37	41.703	4.2922e-06	51.448	0.00055622	0.00054399	0.00015206	1377.3	5.9747e-06	6.0022e-06	1376.1	373.87	5.9786e-06	5.9539e-06	426.29	139.61	124.03	42.801	5.9688e-06	52.997	189.199	261.260	240.121	172.330	290.990	214.256	171.702	176.349	239.350	283.473	175.889	179.623	180.811	185.569	290.203	184.664	-8191	255	
488.232	1	1	0	0	0.067172	0.0016048	0.10077	0.16102	0.26774	0.064466	0.16276	0.18344	0.1643	0.21556	0.4363	0.23174	0.022685	0.043464	0.052741	0.25241	-2.7917	-3.4292	-3.4354	-3.2917	-3.4083	-3.1958	-3.55	-3.5667	-3.0479	-3.4646	-3.4729	-3.2667	-3.7	-3.4771	-3.1708	-3.5417	176.340	180.000	159.590	498.211	468.835	204.435	386.634	465.019	182.891	203.189	487.074	446.636	271.668	178.305	474.732	504.769	0.00056319	0.00066954	0.00011683	1355	3.394e-06	2.8313e-06	1351.9	368.22	5.2556e-06	3.0062e-06	418.03	129.96	121.87	41.534	4.1736e-06	51.516	0.00054719	0.00054778	0.00015259	1373.7	5.9249e-06	5.9895e-06	1373.2	374.38	5.9087e-06	5.9852e-06	426.13	133.97	124.36	42.756	5.9242e-06	52.974	191.860	182.336	231.737	171.715	343.123	294.443	171.780	176.638	254.809	395.387	176.345	179.786	180.923	185.594	309.045	184.808	-8191	255	
488.328	1	1	0	0	0.072657	0.093968	0.24547	0.039571	0.033798	0.1423	0.3019	0.13603	0.12874	0.12607	0.3531	0.29163	0.042927	0.16906	0.084946	0.43773	-2.8917	-3.3812	-3.4292	-3.3187	-3.5292	-3.3646	-3.5479	-3.6708	-3.3604	-3.4125	-3.5729	-3.3417	-3.6417	-3.4083	-3.2396	-3.5354	196.988	214.619	267.180	211.807	431.411	317.967	430.996	406.573	302.159	434.153	473.363	438.526	513.948	502.889	350.627	428.960	0.00055937	0.00022726	0.00011469	1348.9	1.488e-06	1.7127e-06	1356.4	367.72	4.66e-06	3.8441e-06	418.41	119.48	121.33	41.525	4.0601e-06	51.585	0.00055962	0.00054473	0.00015029	1372.8	5.889e-06	5.9214e-06	1374.4	373.73	5.961e-06	5.877e-06	425.76	122.44	123.9	42.722	5.8815e-06	53.08	186.191	293.488	225.909	171.957	267.632	287.100	171.704	176.473	298.713	336.151	175.946	179.779	180.791	185.565	307.168	184.463	-8191	255	
488.424	1	1	0	0	0.24761	0.14956	0.058056	0.10174	0.24834	0.23302	0.064722	0.29167	0.16526	0.20154	0.37046	0.15557	0.32359	0.20561	0.22958	0.24756	-2.8354	-3.4792	-3.4417	-3.1979	-3.4562	-3.3688	-3.2604	-3.6646	-3.2292	-3.3875	-3.5854	-3.2771	-3.6792	-3.5187	-3.2792	-3.5687	387.462	202.199	280.854	453.539	420.678	378.827	491.858	443.796	344.134	443.882	453.615	505.434	453.431	167.394	242.446	448.462	0.00057124	0.00046476	7.4078e-05	1342.8	8.7178e-06	4.2292e-07	1354.4	365.85	7.3234e-06	6.4126e-06	418.2	119.97	121.71	41.584	6.0988e-06	51.434	0.000547	0.00053661	0.00015037	1371	5.9359e-06	5.8994e-06	1372.3	373.37	5.9351e-06	5.9085e-06	425.93	123.32	123.94	42.735	5.8804e-06	52.994	185.449	221.669	184.674	172.198	327.601	401.362	171.696	176.408	271.744	364.221	176.113	179.670	180.427	185.661	303.866	184.583	-8191	255	
488.545	1	1	0	0	0.097554	0.12875	0.17811	0.25695	0.10015	0.049001	0.34421	0.087437	0.064063	0.19239	0.21562	0.051638	0.098231	0.25641	0.059923	0.22407	-2.9333	-3.1708	-3.4667	-3.3229	-3.4562	-3.4458	-3.4	-3.7833	-3.1229	-3.1417	-3.6375	-3.2396	-3.4917	-3.5542	-3.2229	-3.4792	433.841	408.734	453.320	456.273	224.375	350.819	176.173	459.717	421.971	323.542	477.378	204.665	459.688	499.381	304.333	450.083	0.00060622	0.00041416	0.00011029	1353.4	5.1063e-06	5.8679e-06	1347.7	367.47	2.8547e-06	8.0192e-06	417.71	133.42	121.74	41.652	3.1308e-06	51.662	0.00053823	0.00053853	0.00014783	1373.1	5.8352e-06	5.88e-06	1369.5	372.96	5.8863e-06	5.8337e-06	425.93	136.04	124	42.678	5.8365e-06	52.987	183.971	243.046	237.943	172.110	274.037	294.284	171.969	176.409	297.794	319.575	176.172	179.841	180.821	185.788	322.139	184.562	-8191	255	
488.641	1	1	0	0	0.055147	0.15769	0.15165	0.10938	0.041441	0.33814	0.18231	0.21889	0.12927	0.077569	0.13292	0.15353	0.28632	0.13378	0.16314	0.21349	-2.8542	-3.2188	-3.4875	-3.2062	-3.3063	-3.2646	-3.4667	-3.625	-3.3563	-3.2646	-3.4104	-3.3542	-3.4708	-3.475	-3.1063	-3.4542	463.991	242.609	448.554	415.943	264.310	353.064	470.331	425.829	282.413	296.130	195.275	372.388	436.440	453.714	192.985	468.670	0.00061697	0.0004492	4.0238e-05	1352.4	3.8225e-06	4.413e-06	1349.6	366.9	8.8152e-06	5.4488e-06	416.86	119.02	121.13	41.676	4.7817e-06	51.217	0.0005432	0.00053254	0.0001484	1369.6	5.8509e-06	5.8897e-06	1370.2	372.79	5.877e-06	5.823e-06	425.19	122.63	123.83	42.724	5.888e-06	52.937	185.999	292.092	242.315	171.876	293.442	291.059	171.739	176.636	279.265	304.333	176.117	179.893	180.833	185.664	336.492	184.919	-8191	255	
488.737	1	1	0	0	0.083185	0.18138	0.17361	0.08944	0.029828	0.15459	0.1428	0.02989	0.12091	0.069499	0.20482	0.15921	0.038223	0.34513	0.15426	0.22912	-2.9729	-3.3	-3.5667	-3.3146	-3.3021	-3.3854	-3.3187	-3.7146	-3.2313	-3.35	-3.5771	-3.3333	-3.5062	-3.5708	-3.2458	-3.6333	242.998	184.240	278.089	188.959	514.959	494.869	450.451	450.614	244.176	466.321	472.341	165.611	287.493	464.833	418.685	420.553	0.00054159	0.00032598	0.00011497	1346.8	3.5123e-06	5.5008e-06	1346.9	366.76	6.3633e-06	8.4123e-06	417.05	123.54	121.37	41.531	7.0299e-06	51.716	0.00053946	0.00053415	0.00014746	1367.5	5.9009e-06	5.7975e-06	1368.8	373.31	5.8432e-06	5.8245e-06	424.95	126.93	123.77	42.68	5.8163e-06	52.899	191.327	163.352	257.581	172.117	264.982	283.436	171.558	176.444	276.121	294.597	176.102	179.968	180.669	185.542	340.139	184.612	-8191	255	
488.833	1	1	0	0	0.34199	0.2428	0.052556	0.17899	0.14307	0.121	0.20147	0.10633	0.27633	0.24045	0.44237	0.12961	0.20146	0.14044	0.24377	0.32774	-2.9792	-3.0896	-3.4667	-3.2958	-3.3125	-3.5479	-3.25	-3.4417	-3.25	-3.1167	-3.6604	-3.2021	-3.375	-3.7167	-3.2062	-3.5312	187.874	490.261	168.226	400.601	264.791	313.944	425.458	251.418	324.935	290.147	351.317	214.206	227.506	294.483	184.987	472.735	0.00057521	0.00036453	6.9502e-05	1351.2	4.9367e-06	4.0599e-06	1352	366.54	8.1641e-06	2.1483e-06	416.77	130.25	121.21	41.659	2.513e-06	51.382	0.00054184	0.00053249	0.00014868	1368.3	5.7367e-06	5.7514e-06	1371	372.69	5.8528e-06	5.7394e-06	424.56	133.16	123.81	42.727	5.8523e-06	52.796	189.937	242.603	496.953	172.251	316.361	293.234	171.548	176.538	276.855	359.830	176.178	179.852	180.785	185.445	266.819	184.471	-8191	255	
488.929	1	1	0	0	0.10709	0.077403	0.19475	0.098291	0.072646	0.16049	0.14477	0.11715	0.35592	0.079612	0.15477	0.18968	0.2063	0.26866	0.12728	0.17576	-2.9896	-3.1063	-3.5812	-3.3958	-3.2542	-3.55	-3.4167	-3.6188	-3.375	-2.9958	-3.6292	-3.3271	-3.3646	-3.5521	-3.225	-3.4396	191.239	338.129	191.088	465.551	183.960	397.302	210.334	197.313	428.700	234.272	503.518	187.023	394.637	509.730	216.704	414.042	0.00055136	0.00028627	0.00012647	1343.4	2.4241e-06	6.1659e-06	1347.4	365.91	7.9844e-06	2.3618e-06	418.71	126.02	121.17	41.647	6.6455e-06	51.263	0.0005333	0.00052396	0.00014598	1363.8	5.8029e-06	5.729e-06	1365.9	372.48	5.7878e-06	5.8107e-06	425.36	128.96	123.67	42.619	5.7914e-06	52.817	188.619	232.632	229.844	172.112	287.709	288.095	171.664	176.689	258.241	343.718	176.190	179.696	180.629	185.724	307.926	184.461	-8191	255	
489.024	1	1	0	0	0.22662	0.13326	0.16963	0.25736	0.18347	0.090229	0.22612	0.11909	0.13734	0.26821	0.24468	0.14722	0.2214	0.077584	0.18425	0.14662	-3.0208	-3.2521	-3.5375	-3.3354	-3.1729	-3.6833	-3.4104	-3.5542	-3.5687	-3.4229	-3.5312	-3.4167	-3.225	-3.6521	-3.225	-3.6125	218.954	421.969	202.238	440.851	415.871	445.544	448.666	186.864	336.964	277.636	196.657	463.750	426.368	481.735	263.389	335.873	0.00058662	0.00078404	0.00011502	1347.6	1.2387e-06	3.5634e-06	1345.5	367.17	6.1857e-06	7.7504e-06	417.45	137.45	120.94	41.532	6.1994e-06	51.326	0.00053342	0.00052096	0.00014543	1365	5.7369e-06	5.7593e-06	1365.3	372.54	5.771e-06	5.8227e-06	424.27	140.53	123.46	42.623	5.8276e-06	52.872	182.666	231.479	233.551	172.305	355.882	394.568	171.552	176.573	254.080	346.000	176.184	179.247	180.339	185.512	251.712	184.765	-8191	255	
489.144	1	1	0	0	0.18162	0.22339	0.092401	0.30337	0.35205	0.02163	0.055522	0.23598	0.085979	0.13182	0.1915	0.15419	0.097307	0.080667	0.088658	0.23086	-2.9271	-3.3208	-3.3396	-3.4688	-3.1479	-3.6104	-3.475	-3.475	-3.7375	-3.2188	-3.575	-3.5417	-3.2125	-3.6354	-3.4125	-3.5125	180.695	249.952	275.628	470.867	280.097	422.435	384.882	465.812	421.744	225.445	474.663	191.871	218.757	261.241	293.140	183.279	0.00053973	7.3907e-05	8.2076e-05	1350.6	4.3941e-06	2.812e-06	1345.8	365.84	2.8517e-06	4.8273e-06	417.1	137.45	121.09	41.61	3.9924e-06	51.419	0.00053675	0.00052835	0.00014757	1364.5	5.7884e-06	5.8099e-06	1365.2	372.54	5.8101e-06	5.8553e-06	424.55	139.87	123.47	42.592	5.7635e-06	52.745	183.901	461.358	262.023	172.221	347.444	351.149	171.823	176.485	291.116	330.910	176.337	179.709	180.671	185.605	304.968	184.585	-8191	255	
489.240	1	1	0	0	0.17924	0.065598	0.16309	0.092583	0.2581	0.16111	0.16907	0.32243	0.37764	0.24034	0.24253	0.31566	0.13399	0.26381	0.1004	0.26989	-2.9896	-3.1958	-3.5146	-3.3896	-3.0979	-3.5687	-3.3917	-3.2979	-3.5687	-3.3125	-3.4813	-3.6063	-3.4625	-3.4417	-3.1437	-3.4208	375.866	346.621	503.036	507.682	490.255	484.260	474.027	463.788	486.464	269.075	480.380	464.581	470.440	456.619	226.836	424.417	0.00059316	0.00054671	0.00011338	1348.7	1.4188e-06	2.9685e-06	1348.3	365.41	7.3637e-06	4.4433e-06	417.38	137.17	120.93	41.62	5.3687e-06	51.175	0.00053654	0.00053065	0.00014724	1364.7	5.7724e-06	5.7748e-06	1367.6	372.47	5.8121e-06	5.7868e-06	424.07	140.16	123.49	42.661	5.7539e-06	52.777	186.848	214.636	223.875	171.991	369.501	305.410	171.764	176.492	295.446	386.872	176.342	179.863	180.832	185.647	259.327	184.650	-8191	255	
489.337	1	1	0	0	0.15465	0.077987	0.080564	0.23894	0.17583	0.12213	0.077074	0.091744	0.15174	0.052279	0.17141	0.31414	0.11654	0.23744	0.14187	0.059133	-3.2812	-3.2917	-3.3187	-3.4104	-3.1896	-3.5208	-3.6458	-3.3063	-3.4458	-3.3187	-3.4042	-3.4521	-3.3208	-3.55	-3.3833	-3.3187	239.044	231.999	512.145	200.919	213.404	192.414	485.690	476.887	224.218	462.175	162.193	421.567	481.927	469.798	215.624	301.960	0.00060488	0.00067102	7.4958e-05	1346.5	6.9373e-06	1.5635e-06	1346.9	366.97	5.5345e-06	4.6786e-06	416.08	139.22	121.32	41.472	5.8414e-06	51.53	0.0005321	0.00053173	0.00014739	1363.8	5.7724e-06	5.7813e-06	1366.5	372.7	5.7744e-06	5.8065e-06	423.5	141.87	123.66	42.585	5.8416e-06	52.87	191.082	249.580	266.783	171.880	308.963	324.308	171.839	176.368	270.949	348.143	176.124	179.880	180.942	185.516	310.402	184.680	-8191	255	
489.433	1	1	0	0	0.24223	0.12701	0.062994	0.11224	0.1417	0.054305	0.15984	0.13151	0.22184	0.094372	0.17517	0.087783	0.11774	0.093655	0.10627	0.24341	-2.9708	-3.1937	-3.1542	-3.5167	-3.1833	-3.6167	-3.6917	-3.4729	-3.5521	-3.2333	-3.4771	-3.4771	-3.4229	-3.3417	-3.5	-3.3521	484.018	268.723	366.367	255.115	453.031	390.456	450.915	397.312	172.082	467.914	467.446	492.198	221.354	216.325	484.795	498.388	0.00056005	0.0005295	3.4546e-05	1348.1	5.9867e-06	5.9734e-06	1341.7	365.61	3.1938e-06	4.183e-06	417.53	146.77	120.99	41.524	6.4823e-06	51.648	0.00053675	0.0005271	0.00014797	1365	5.7543e-06	5.7507e-06	1363.6	372.04	5.7854e-06	5.7516e-06	424.22	149.56	123.58	42.619	5.7813e-06	52.835	186.011	483.746	291.774	172.305	342.649	313.431	171.697	176.383	238.563	354.288	175.953	179.902	180.605	185.680	254.724	184.674	-8191	255	
489.504	1	1	0	0	0.028769	0.29532	0.24675	0.099715	0.045605	0.058616	0.032846	0.36434	0.15505	0.15048	0.31001	0.23499	0.39453	0.15689	0.083948	0.20728	-3.0667	-3.1771	-3.1667	-3.5375	-3.0938	-3.4313	-3.5146	-3.2125	-3.3521	-3.2896	-3.2917	-3.5708	-3.4	-3.4437	-3.4167	-3.2938	431.123	371.106	391.006	423.962	485.154	392.424	407.507	166.332	405.572	384.391	482.174	251.372	176.996	163.150	198.898	515.596	0.00056319	0.00050634	5.2005e-05	1342.6	4.639e-06	4.7956e-06	1344.7	367.16	8.1083e-06	8.3327e-06	415.06	163.75	121.56	41.575	3.8651e-06	51.525	0.00053525	0.00052602	0.00014673	1361.8	5.7909e-06	5.7664e-06	1364.2	372.85	5.7312e-06	5.6383e-06	423.53	166.28	123.6	42.675	5.5376e-06	52.855	194.192	255.442	324.529	171.875	306.147	295.551	171.748	176.602	288.503	335.865	176.058	179.598	180.650	185.410	313.507	184.617	-8191	255	
489.625	1	1	0	0	0.23685	0.14977	0.1635	0.25924	0.09784	0.15591	0.24217	0.24389	0.31933	0.13698	0.23326	0.16466	0.21291	0.1505	0.24349	0.23039	-3.2708	-3.4104	-3.1375	-3.4167	-3.3479	-3.3521	-3.5687	-3.4313	-3.5083	-3.4083	-3.175	-3.4854	-3.0854	-3.3229	-3.6229	-3.3771	294.915	173.930	176.656	507.752	333.420	490.945	457.903	471.087	192.246	164.574	496.468	352.852	331.975	486.800	462.694	438.186	0.00064079	0.00064585	6.8477e-05	1347.5	6.0085e-06	3.0162e-06	1346	367.32	4.0244e-06	2.8791e-06	417.62	175.95	121.91	41.849	7.2279e-06	51.715	0.00051549	0.00050162	0.00013988	1362.4	5.4552e-06	5.4165e-06	1365.9	372.71	5.402e-06	5.3394e-06	424.36	178.64	123.8	42.851	5.1384e-06	53.033	189.131	260.570	190.821	171.967	257.457	256.221	171.553	176.730	264.654	339.676	176.145	179.597	180.625	185.792	325.340	184.483	-8191	255	
489.721	1	1	0	0	0.081821	0.15461	0.11631	0.18677	0.1999	0.092583	0.072747	0.18221	0.18555	0.3514	0.1635	0.23495	0.23923	0.31749	0.3427	0.12098	-2.9854	-3.2875	-3.275	-3.4562	-3.4625	-3.3667	-3.7396	-3.45	-3.6479	-3.4917	-3.2167	-3.4792	-3.4562	-3.3625	-3.4	-3.2604	460.729	307.542	194.505	328.783	289.440	454.538	417.675	161.989	223.005	252.841	184.044	509.445	212.690	481.295	500.965	411.073	0.00059054	0.00059215	1.6143e-05	1346.7	5.3107e-06	4.2769e-06	1342.4	365.2	4.7498e-06	7.283e-06	418.53	163.33	121.88	41.642	6.3178e-06	51.321	0.00049105	0.00047578	0.00013306	1359.5	5.323e-06	5.311e-06	1363.3	371.52	5.3972e-06	5.3296e-06	424.71	165.37	123.52	42.679	5.3637e-06	52.788	188.088	180.501	258.327	172.057	341.493	322.953	171.759	176.285	296.486	320.668	176.155	179.465	180.671	185.687	315.657	184.495	-8191	255	
489.817	1	1	0	0	0.07	0.1172	0.10725	0.063551	0.18964	0.18584	0.11949	0.043472	0.10307	0.19301	0.32463	0.17959	0.10446	0.20392	0.057141	0.13156	-2.9646	-3.3021	-3.1917	-3.3688	-3.1188	-3.2875	-3.6875	-3.2562	-3.0146	-3.4167	-3.3688	-3.5646	-3.375	-3.3937	-3.4208	-3.1063	422.808	341.060	248.398	412.136	300.854	273.026	408.515	406.410	228.979	460.964	499.353	475.355	243.255	189.095	206.175	470.820	0.00060044	0.00060717	0.00014383	1342	2.9743e-06	1.1267e-06	1347.7	366.48	7.3421e-06	3.0955e-06	416.32	134.49	120.71	41.437	5.9309e-06	50.977	0.00049806	0.00048956	0.00013546	1355.9	5.3853e-06	5.3787e-06	1363.9	371.27	5.4971e-06	5.4521e-06	423.1	137.76	122.95	42.454	5.4747e-06	52.529	191.163	241.177	288.526	172.235	268.011	338.460	171.646	176.501	289.807	323.106	176.105	179.797	180.948	185.636	345.282	184.856	-8191	255	
489.913	1	1	0	0	0.042311	0.1554	0.34217	0.14808	0.19911	0.26907	0.28062	0.28065	0.10642	0.1578	0.16134	0.11169	0.24532	0.30581	0.10942	0.01392	-2.9583	-3.2854	-3.2375	-3.5042	-3.3604	-3.1437	-3.7125	-3.4354	-3.2583	-3.6896	-3.45	-3.5812	-3.4917	-3.3354	-3.5438	-3.3292	406.497	191.648	197.182	515.117	183.077	256.974	493.321	421.228	189.879	176.052	176.054	515.565	160.124	510.334	507.560	462.266	0.00055482	0.00023521	9.6687e-05	1342.8	4.4996e-06	6.1416e-06	1336.6	363.67	6.2343e-06	2.5844e-06	414.72	150.87	120.16	41.402	6.1116e-06	51.203	0.00050604	0.00049788	0.00013825	1354.1	5.4317e-06	5.4666e-06	1356.1	370.5	5.574e-06	5.5559e-06	421.53	153.45	122.9	42.467	5.6219e-06	52.619	190.572	289.289	294.095	171.984	254.404	270.605	171.735	176.571	291.887	199.552	176.378	179.498	180.627	185.697	307.744	184.838	-8191	255	
490.032	1	1	0	0	0.21556	0.049215	0.13193	0.056552	0.02338	0.28917	0.21144	0.047535	0.2195	0.1753	0.28839	0.059453	0.27779	0.080012	0.14865	0.10296	-2.8271	-3.4979	-3.1312	-3.5667	-3.4562	-3.2625	-3.8	-3.4417	-3.3125	-3.2938	-3.2479	-3.4333	-3.4583	-3.2042	-3.5854	-3.4479	411.493	359.296	282.428	214.502	354.222	207.368	480.031	448.432	270.596	203.789	498.722	503.733	401.753	481.083	427.130	451.980	0.00055061	0.00061111	0.00012259	1339.8	1.1637e-06	3.0082e-06	1336.2	365.37	7.4335e-06	2.5224e-06	416.74	164.01	120.87	41.573	5.6897e-06	51.159	0.00052099	0.00051417	0.00014594	1354.2	5.6511e-06	5.6326e-06	1356	371.28	5.6532e-06	5.6156e-06	422.87	166.87	123.24	42.569	5.4933e-06	52.663	188.287	257.719	284.746	172.231	230.608	252.496	171.750	176.607	281.458	337.310	176.114	179.354	180.894	185.728	301.239	184.561	-8191	255	
490.106	1	1	0	0	0.19544	0.23512	0.063273	0.20978	0.1245	0.41049	0.14605	0.1827	0.093439	0.25877	0.1739	0.3566	0.19132	0.10426	0.069897	0.284	-2.8187	-3.525	-3.2875	-3.5604	-3.3104	-3.0021	-3.775	-3.5917	-3.1521	-3.5521	-3.4938	-3.3167	-3.6562	-3.375	-3.3812	-3.45	197.081	239.705	503.055	222.193	198.132	410.471	475.740	447.753	348.943	472.385	432.866	518.043	491.739	426.433	457.344	500.300	0.00058852	6.1566e-05	0.00015247	1341.8	5.0039e-06	5.5716e-06	1339.1	365.75	1.6154e-06	5.0386e-06	414.8	158.62	120.5	41.31	3.5508e-06	51.169	0.00051745	0.00051134	0.0001412	1358.3	5.5727e-06	5.5456e-06	1355.8	371.65	5.6212e-06	5.5653e-06	422.15	161.1	123.02	42.51	5.5281e-06	52.647	190.339	233.236	282.476	172.088	290.955	291.577	171.749	176.565	234.272	341.327	176.070	179.720	180.554	185.603	296.387	184.778	-8191	255	
490.225	1	1	0	0	0.1159	0.15042	0.14719	0.1088	0.084806	0.087796	0.23361	0.20879	0.16164	0.1962	0.3377	0.22328	0.13241	0.21527	0.11337	0.46517	-2.7417	-3.5458	-3.225	-3.3854	-3.5563	-3.0771	-3.7042	-3.5625	-3.1729	-3.3792	-3.3417	-3.4146	-3.5438	-3.3271	-3.4396	-3.5771	450.625	462.074	313.869	447.830	341.562	392.007	416.753	458.528	495.133	510.488	381.455	488.737	401.264	429.580	412.662	502.938	0.00059997	0.00012371	0.00016012	1349.9	5.6033e-06	3.9626e-06	1340.3	365.15	3.504e-06	3.5978e-06	415.68	163.16	121.29	41.424	4.7698e-06	51.153	0.00050966	0.00050961	0.00014091	1358.6	5.5535e-06	5.5261e-06	1358.3	371.03	5.667e-06	5.6801e-06	423.33	165.99	123.32	42.527	5.69e-06	52.782	185.336	214.641	238.491	171.988	286.943	366.442	171.715	176.541	284.534	398.662	176.011	179.857	180.603	185.598	301.324	184.694	-8191	255	
490.321	1	1	0	0	0.22205	0.094437	0.057321	0.14301	0.079341	0.11132	0.27482	0.131	0.19425	0.086035	0.21743	0.1533	0.1796	0.20815	0.24931	0.056513	-2.6646	-3.4979	-3.1	-3.3604	-3.5542	-3.2354	-3.5083	-3.6188	-3.2979	-3.4688	-3.4625	-3.1583	-3.5875	-3.2729	-3.4604	-3.4688	353.046	336.595	476.632	246.712	207.335	396.258	191.682	502.688	192.715	438.808	163.973	272.473	177.545	189.948	486.833	162.012	0.00053479	0.00036431	0.00014201	1348.4	3.6291e-06	2.2716e-06	1344.3	366.48	6.1597e-06	3.0829e-06	416.4	123.92	121.62	41.581	6.5878e-06	51.427	0.00052142	0.00052169	0.00014394	1359.5	5.6096e-06	5.617e-06	1362.2	372.17	5.6636e-06	5.6061e-06	423.38	126.99	123.49	42.551	5.5126e-06	52.723	189.160	509.733	221.587	171.817	212.468	291.237	171.728	176.615	252.164	297.512	175.928	180.004	180.980	185.779	321.310	184.540	-8191	255	
490.417	1	1	0	0	0.04781	0.096601	0.10853	0.044097	0.11001	0.17151	0.27233	0.27828	0.11101	0.35885	0.048431	0.1252	0.27178	0.12099	0.17356	0.23788	-2.7708	-3.3583	-3.2333	-3.1375	-3.5875	-3.3812	-3.3396	-3.5438	-3.2229	-3.5979	-3.425	-3.15	-3.4708	-3.2958	-3.1333	-3.5208	369.587	390.215	503.535	297.509	229.550	322.314	509.721	451.998	256.143	243.418	491.044	405.810	490.314	364.614	370.569	517.164	0.00056203	0.00029195	3.1895e-05	1340.7	5.2654e-06	6.8361e-06	1340	364.55	6.4499e-06	1.7571e-06	412.56	126.39	120.38	41.105	6.6748e-06	51.195	0.00050708	0.00049706	0.00013801	1351.8	5.4074e-06	5.4966e-06	1355.6	370.73	5.5322e-06	5.5708e-06	421.1	129.43	122.4	42.283	5.6211e-06	52.434	192.396	278.632	193.867	172.243	287.268	264.220	171.600	176.454	281.821	334.814	176.161	179.754	180.837	185.709	333.544	184.799	-8191	255	
490.513	1	1	0	0	0.12259	0.078452	0.26787	0.14899	0.15971	0.047254	0.26831	0.14608	0.22353	0.23858	0.076724	0.034718	0.25316	0.387	0.071353	0.20305	-2.85	-3.5229	-3.1917	-3.2646	-3.6292	-3.2458	-3.5292	-3.5958	-3.1354	-3.3667	-3.5083	-3.3604	-3.4896	-3.4188	-3.3042	-3.7313	348.874	326.545	202.361	239.291	466.322	303.861	490.647	458.030	357.029	186.638	286.980	398.903	173.679	473.554	476.919	171.807	0.00057838	0.00049801	3.0429e-05	1332.2	2.5845e-06	6.3247e-06	1336	364.69	4.8818e-06	6.0389e-06	413.67	154.97	120.89	41.284	7.2202e-06	51.023	0.00052918	0.00052983	0.00014643	1352.2	5.8563e-06	5.9482e-06	1354.2	371.52	6.0106e-06	6.0443e-06	421.93	158.21	122.83	42.293	6.1189e-06	52.444	190.229	269.991	203.057	171.847	321.429	268.836	171.782	176.462	295.618	320.277	176.197	179.578	181.026	185.614	312.165	184.642	-8191	255	
490.634	1	1	0	0	0.136	0.3254	0.13647	0.13758	0.24451	0.24598	0.22782	0.062984	0.12062	0.12434	0.18709	0.081863	0.04251	0.24825	0.32572	0.17023	-2.9458	-3.3271	-3.4708	-3.1125	-3.5563	-3.3375	-3.3688	-3.7146	-3.2938	-3.3563	-3.4375	-3.1042	-3.6625	-3.4833	-3.1688	-3.525	265.204	438.609	497.832	477.468	188.353	372.790	492.846	430.278	417.695	239.360	419.661	383.538	476.307	392.158	505.175	477.815	0.00055379	0.00038876	5.9829e-05	1335.4	5.4327e-06	4.1992e-06	1332.1	364.87	5.7174e-06	3.677e-06	411.91	124.29	118.94	40.917	5.7917e-06	50.452	0.00055581	0.00055319	0.00015282	1352.2	6.0619e-06	6.0683e-06	1350.9	371	6.0786e-06	6.0327e-06	420.36	127.46	121.7	41.921	6.1093e-06	52.038	184.842	249.578	266.797	172.508	275.785	269.457	171.665	176.586	278.029	259.134	176.026	179.696	180.886	185.513	238.843	184.847	-8191	255	
490.730	1	1	0	0	0.11532	0.14054	0.12818	0.1266	0.30144	0.15393	0.11796	0.27234	0.11453	0.21723	0.23768	0.10119	0.27098	0.031488	0.26135	0.093251	-2.8208	-3.1229	-3.4437	-3.3	-3.3729	-3.3271	-3.4521	-3.5333	-3.1271	-3.3083	-3.6688	-3.2667	-3.4583	-3.4125	-3.1	-3.6125	319.375	191.220	325.403	382.930	310.888	324.075	465.991	411.070	282.655	431.818	467.226	246.672	184.118	478.224	304.495	512.357	0.00063984	0.00069961	0.00014675	1324.9	3.6064e-06	6.9675e-06	1327.1	364.67	3.4147e-06	4.1131e-06	411.84	119.21	118.98	40.898	4.1799e-06	50.322	0.00055506	0.00055481	0.00015402	1346	6.0653e-06	6.0785e-06	1344.9	370.82	6.1522e-06	6.1226e-06	420.68	122.91	121.83	42.017	6.2838e-06	52.154	184.384	255.980	277.610	172.236	346.565	302.239	171.790	176.671	276.982	301.521	175.928	179.846	181.064	185.872	267.398	184.562	-8191	255	
490.801	1	1	0	0	0.18254	0.1276	0.02215	0.2844	0.1672	0.071149	0.11569	0.46619	0.068791	0.26515	0.14215	0.11758	0.11075	0.17839	0.11193	0.24145	-3.0062	-3.2313	-3.525	-3.2708	-3.4021	-3.5021	-3.1833	-3.6063	-3.2979	-3.2833	-3.5187	-3.2562	-3.3937	-3.5417	-3.0104	-3.5646	298.196	332.383	177.888	440.182	335.352	421.482	511.711	501.079	340.854	330.548	444.640	181.218	272.418	474.172	385.850	506.028	0.0005493	0.00024808	0.00019947	1335.4	2.0446e-06	7.4802e-06	1333	366.56	6.121e-06	3.9971e-06	413.45	137.9	119.55	40.941	7.4489e-06	50.769	0.00058341	0.00058788	0.00016246	1355.8	6.3835e-06	6.4013e-06	1355.6	373.3	6.5233e-06	6.5397e-06	422.83	141.16	122.52	42.141	6.6161e-06	52.422	188.134	196.677	235.632	172.206	304.433	281.189	171.843	176.448	291.921	342.697	176.068	179.578	180.834	185.660	327.346	184.753	-8191	255	
490.920	1	1	0	0	0.16357	0.14637	0.1306	0.12929	0.10822	0.10097	0.27737	0.30803	0.053049	0.098529	0.17614	0.1118	0.13666	0.18509	0.023601	0.19184	-3.0292	-3.2771	-3.4792	-3.125	-3.2438	-3.475	-3.3458	-3.7292	-3.2646	-3.3792	-3.6417	-3.1813	-3.2979	-3.5271	-3.0375	-3.5958	498.460	462.868	463.898	165.487	493.027	168.215	410.913	501.338	419.191	299.388	374.131	454.348	474.785	397.045	315.799	479.900	0.00054826	0.00024485	0.00016688	1340.5	2.8395e-06	2.631e-06	1333.1	367.61	5.5634e-06	2.5761e-06	414.41	154.03	119.68	41.116	8.869e-06	51	0.00060799	0.00060236	0.00016928	1362.6	6.657e-06	6.5129e-06	1358.8	374.4	6.5566e-06	6.5709e-06	423.45	157.54	122.73	42.309	6.526e-06	52.558	193.208	232.734	204.923	171.979	234.222	294.527	171.797	176.519	300.059	309.373	176.045	179.636	180.775	185.638	282.701	184.745	-8191	255	
491.017	1	1	0	0	0.049193	0.052964	0.092092	0.14813	0.012305	0.043969	0.054172	0.15318	0.13524	0.0099833	0.37868	0.060196	0.10463	0.11815	0.28405	0.10131	-2.9083	-3.0625	-3.5667	-3.3646	-3.2521	-3.3896	-3.1646	-3.6125	-3.2771	-3.2396	-3.8438	-3.3812	-3.4313	-3.5812	-3.25	-3.525	473.589	338.013	498.901	491.337	184.501	287.025	480.071	495.473	260.670	312.116	500.564	412.464	363.733	497.764	427.531	406.916	0.00055128	0.00056424	8.4172e-05	1342.6	5.5931e-06	1.0627e-05	1332.2	366.67	5.3683e-06	2.1163e-06	412.95	161.61	119.79	41.085	4.2856e-06	50.728	0.0005949	0.00060535	0.00016656	1363.4	6.5639e-06	6.5484e-06	1358.7	373.83	6.4436e-06	6.4861e-06	422.73	164.8	122.78	42.293	6.3697e-06	52.392	187.994	295.910	217.585	172.340	292.773	300.356	171.716	176.367	317.937	267.935	176.296	179.765	180.736	185.795	342.965	184.868	-8191	255	
491.113	1	1	0	0	0.080207	0.19627	0.29432	0.27347	0.15014	0.22032	0.24759	0.36757	0.056635	0.063885	0.0024164	0.18344	0.23225	0.19499	0.051962	0.17144	-2.9917	-3.0708	-3.5458	-3.3229	-3.2375	-3.525	-3.3083	-3.5042	-3.4083	-3.1063	-3.7396	-3.4062	-3.2229	-3.6333	-3.3333	-3.4875	432.157	331.207	513.147	492.286	331.874	208.742	416.630	425.941	495.107	290.128	376.654	453.940	222.965	460.516	455.721	436.419	0.00058696	0.00047519	0.00011908	1345.1	4.42e-06	1.5559e-06	1331.8	366.81	6.1049e-06	6.9638e-06	412.9	101.41	119.16	40.949	8.1804e-06	50.765	0.00058398	0.00058716	0.00016256	1362.4	6.3614e-06	6.3665e-06	1354.8	373.57	6.3572e-06	6.3646e-06	422	105.69	122.27	42.159	6.3528e-06	52.251	188.748	213.912	240.937	172.190	290.234	195.882	171.814	176.703	263.743	289.570	176.160	180.209	181.050	185.549	280.267	184.935	-8191	255	
491.209	1	1	0	0	0.11254	0.28662	0.1741	0.078433	0.20778	0.13837	0.20557	0.2378	0.16368	0.31596	0.26069	0.10537	0.29764	0.025948	0.045727	0.25551	-2.9833	-3.0667	-3.4771	-3.3042	-3.2354	-3.4854	-3.2833	-3.5479	-3.5104	-3.2292	-3.5812	-3.4292	-3.1354	-3.4938	-3.2062	-3.5812	428.992	247.293	498.259	189.023	465.149	301.312	477.501	518.510	376.744	336.495	161.267	248.915	322.598	254.760	489.570	339.900	0.00053663	0.00068885	0.0001376	1329.7	5.0547e-06	5.4186e-06	1327.3	364.81	5.2858e-06	5.6477e-06	414.44	124.73	119.06	40.736	3.2922e-06	50.576	0.00057894	0.000574	0.00016152	1352.7	6.3729e-06	6.2993e-06	1351.8	372.52	6.3166e-06	6.3171e-06	421.8	127.65	122.01	42.035	6.4731e-06	52.217	193.355	266.052	187.615	172.199	298.752	252.242	171.744	176.557	261.225	298.428	176.241	179.241	180.806	185.620	346.481	184.763	-8191	255	
491.329	1	1	0	0	0.067198	0.050898	0.07277	0.088785	0.25456	0.050687	0.18777	0.25359	0.24075	0.14872	0.26094	0.0062014	0.052083	0.34273	0.078123	0.23649	-3.2167	-3.1	-3.4	-3.3667	-3.1208	-3.5625	-3.3937	-3.5438	-3.4271	-3.1604	-3.5917	-3.5208	-3.2229	-3.7854	-3.1792	-3.2313	422.700	489.235	486.297	277.413	336.200	274.002	452.282	417.901	283.158	307.035	300.346	351.582	161.947	498.518	235.855	408.571	0.00050606	0.00044958	0.00020261	1338.1	5.5377e-06	1.9348e-06	1333.2	366.98	2.8445e-06	6.4055e-06	413.55	165.36	118.88	40.945	4.0598e-06	50.724	0.0005894	0.00059129	0.00016353	1355.9	6.4623e-06	6.4202e-06	1354.5	373.98	6.3285e-06	6.3381e-06	422.71	168.43	122.01	42.103	6.5015e-06	52.307	190.096	206.325	245.166	172.044	312.386	267.863	171.690	176.518	286.331	350.394	176.036	179.610	180.675	185.422	282.525	184.830	-8191	255	
491.401	1	1	0	0	0.12809	0.10727	0.14874	0.25074	0.35995	0.17871	0.22962	0.26663	0.22605	0.20743	0.21867	0.13947	0.31593	0.095983	0.034523	0.33026	-2.9562	-3.1	-3.2396	-3.3729	-3.1083	-3.5042	-3.3	-3.3583	-3.5771	-3.1396	-3.4875	-3.3604	-3.1875	-3.7125	-3.3646	-3.3937	505.633	196.438	496.260	394.169	346.514	461.843	401.945	430.909	515.464	179.465	463.484	508.928	507.562	220.760	431.641	424.732	0.0005668	0.001126	0.00017032	1329.6	8.0392e-06	5.1746e-07	1329.3	365.08	2.9242e-06	3.0716e-06	412.7	170.8	119.18	40.997	6.3187e-06	50.496	0.00060473	0.0006122	0.00017042	1354.1	6.6042e-06	6.5985e-06	1351.2	372.05	6.6202e-06	6.6006e-06	422.44	173.97	122.02	42.133	6.7329e-06	52.253	190.955	275.150	195.299	171.993	290.993	256.872	171.748	176.581	273.874	369.790	176.202	179.697	180.684	185.613	287.575	185.007	-8191	255	
491.497	1	1	0	0	0.17835	0.29786	0.12755	0.13849	0.17295	0.13903	0.22052	0.49663	0.18828	0.065724	0.12764	0.01398	0.22286	0.053424	0.18522	0.19383	-3.2	-3.3	-3.2438	-3.3563	-3.1583	-3.3542	-3.4458	-3.225	-3.4354	-3.3208	-3.3167	-3.4	-2.9708	-3.5083	-3.0958	-3.2313	205.062	511.240	307.636	369.373	218.055	310.904	504.411	464.347	513.750	411.351	458.640	348.459	180.595	516.995	413.611	393.163	0.00058285	0.00045881	0.00017837	1338.2	1.6581e-06	4.7593e-06	1331.1	364.29	7.1683e-06	5.275e-06	413.85	170.77	118.21	40.395	2.6401e-06	49.805	0.00061566	0.0006179	0.00017105	1357.1	6.7254e-06	6.7462e-06	1350.8	371.76	6.9285e-06	7.0108e-06	423.74	175.1	121.38	41.634	7.4225e-06	51.796	191.629	259.004	277.065	172.017	172.056	299.949	171.855	176.634	263.761	364.552	176.068	179.748	180.387	185.733	234.508	184.718	-8191	255	
491.593	1	1	0	0	0.13144	0.071995	0.15464	0.10825	0.16966	0.12109	0.10455	0.30037	0.20892	0.116	0.18454	0.23946	0.15024	0.063567	0.132	0.18152	-3.0167	-3.0333	-3.2646	-3.3875	-3.1562	-3.4979	-3.5292	-3.4688	-3.4417	-3.1646	-3.325	-3.4896	-3.2042	-3.4396	-3.3375	-3.1292	383.669	451.179	320.614	475.212	213.251	515.696	486.981	457.958	419.729	391.526	508.173	511.237	512.156	480.433	207.663	180.341	0.00048791	0.00079456	0.00010857	1325.2	5.2657e-06	2.7783e-06	1321.4	361.64	5.6476e-06	8.2408e-06	412.27	165.37	117.51	40.142	2.9583e-06	50.037	0.00067214	0.00068344	0.00019075	1355.9	7.3949e-06	7.4537e-06	1344.1	369.26	7.3633e-06	7.3162e-06	422.86	168.86	120.44	41.445	7.0139e-06	51.725	186.531	229.978	240.306	172.142	283.938	285.704	171.678	176.629	326.866	314.468	176.272	180.216	180.963	185.687	258.420	184.808	-8191	255	
491.714	1	1	0	0	0.13687	0.12351	0.15959	0.28237	0.24611	0.091512	0.14446	0.095988	0.18729	0.097265	0.26922	0.19373	0.27699	0.013903	0.12699	0.24528	-3.2021	-3.2604	-3.1771	-3.6104	-3.1646	-3.3917	-3.5333	-3.3583	-3.3937	-3.1667	-3.2979	-3.5292	-3.0167	-3.5958	-3.4646	-3.2417	208.188	356.047	293.221	369.354	313.715	280.403	473.671	246.535	178.121	260.096	228.832	500.993	452.604	231.730	483.393	453.494	0.00049005	0.00024177	3.1987e-05	1324.8	8.1686e-06	2.5975e-06	1318.8	362.26	4.0295e-06	2.9928e-06	412.71	192.99	117.56	40.27	3.5841e-06	49.977	0.00062683	0.00063897	0.00017767	1346.9	7.0752e-06	7.1074e-06	1342.7	369.93	7.1913e-06	7.2783e-06	423.71	196.01	120.57	41.552	7.4271e-06	51.77	187.927	338.986	191.815	171.944	324.347	225.438	171.828	176.608	308.992	328.225	176.304	178.851	180.646	185.688	327.296	184.649	-8191	255	
491.810	1	1	0	0	0.089238	0.17832	0.22829	0.0934	0.10647	0.13344	0.33604	0.053689	0.10622	0.23355	0.052628	0.13224	0.16356	0.14272	0.24458	0.3346	-2.9583	-3.2188	-2.9813	-3.3583	-3.1271	-3.1646	-3.5604	-3.1917	-3.3604	-3.2562	-3.4021	-3.6167	-3.3896	-3.4833	-3.6146	-3.2271	499.614	297.371	423.225	423.662	198.409	172.388	430.667	418.584	346.425	516.472	386.093	163.455	203.784	333.726	396.256	462.532	0.00059448	0.00042993	0.00018863	1322.7	4.7643e-06	5.5397e-06	1319.3	361.69	3.1538e-06	3.877e-06	413.81	201.41	117.4	40.089	7.1621e-06	49.733	0.00067587	0.00067788	0.00019004	1353.2	7.4681e-06	7.4265e-06	1340.3	369.5	7.5584e-06	7.4644e-06	423.72	204.65	120.31	41.344	7.3022e-06	51.538	191.540	247.454	248.482	171.984	337.988	297.408	171.700	176.565	275.852	386.935	176.227	177.115	180.410	185.438	309.303	184.597	-8191	255	
491.906	1	1	0	0	0.14776	0.245	0.21872	0.11653	0.33675	0.15464	0.3082	0.11352	0.099284	0.26141	0.039247	0.051487	0.088662	0.19092	0.29349	0.25124	-3.0208	-3.2188	-3.1708	-3.525	-3.3563	-3.1042	-3.7188	-3.2438	-3.3604	-3.5417	-3.2625	-3.6229	-3.1979	-3.2292	-3.5292	-3.3208	248.392	467.969	354.091	504.561	206.273	249.081	440.001	352.265	424.259	183.076	168.740	470.341	517.185	497.232	295.813	499.620	0.00056605	0.00071884	0.00022181	1324.8	4.7795e-06	2.8086e-06	1314.6	361.34	4.3562e-06	6.2912e-06	413.6	197.22	116.69	39.87	4.5483e-06	49.717	0.00066974	0.00067139	0.00018749	1348.3	7.4045e-06	7.3988e-06	1339.7	369.51	7.3672e-06	7.3598e-06	423.72	200.5	120.19	41.273	7.0677e-06	51.386	190.941	222.819	278.501	171.940	303.970	269.327	171.723	176.463	323.742	314.101	176.219	177.878	180.460	185.585	323.392	185.000	-8191	255	
492.002	1	1	0	0	0.071005	0.18974	0.21771	0.24278	0.097602	0.2824	0.12187	0.44608	0.23462	0.23075	0.16819	0.32272	0.11853	0.10164	0.14014	0.16546	-2.9	-3.3604	-3.0625	-3.4333	-3.0979	-3.1229	-3.7167	-3.275	-3.3021	-3.425	-3.1854	-3.5354	-3.4125	-3.2188	-3.4729	-3.2917	339.720	378.441	228.816	275.006	323.650	385.247	397.724	447.372	369.852	320.974	208.209	496.129	237.639	187.199	388.758	281.374	0.00052558	0.00069397	0.0001223	1303.9	4.1167e-06	1.7811e-06	1299.1	359.77	8.6569e-06	3.7845e-06	409.41	201.28	116.11	39.902	6.6405e-06	49.472	0.0006365	0.00064474	0.00018016	1333.4	7.0391e-06	7.0535e-06	1326.7	367.08	7.1502e-06	7.1597e-06	420.81	204.58	119.6	41.176	7.375e-06	51.358	183.578	287.939	265.117	171.894	246.646	283.828	171.742	176.539	259.925	266.790	176.065	177.217	180.362	185.627	291.521	184.831	-8191	255	
492.097	1	1	0	0	0.13578	0.06759	0.13821	0.14645	0.13616	0.12012	0.36209	0.20154	0.13621	0.16588	0.2322	0.25936	0.11498	0.089108	0.044125	0.086283	-2.7167	-3.3917	-3.175	-3.3833	-3.2917	-3.1854	-3.475	-3.3479	-3.2646	-3.4062	-3.2042	-3.4583	-3.3542	-3.1646	-3.5812	-3.4667	497.105	331.624	461.493	448.181	465.879	266.922	417.304	458.068	496.804	489.808	512.963	391.357	181.681	503.200	463.142	436.362	0.00058943	0.0004165	0.00013001	1303.3	5.1076e-06	4.445e-06	1308.7	360.88	6.2745e-06	8.7551e-06	414.55	199.15	116.61	39.861	5.4087e-06	49.368	0.00068145	0.0006927	0.00019314	1339	7.5908e-06	7.5481e-06	1333.3	368.5	7.5148e-06	7.4512e-06	423.06	202.77	119.79	41.175	7.3956e-06	51.429	188.175	204.482	246.591	171.945	255.945	290.894	171.567	176.577	270.150	310.495	176.277	177.247	180.701	185.723	362.849	184.636	-8191	255	
492.195	1	1	0	0	0.05132	0.32784	0.18796	0.23844	0.1347	0.20693	0.27802	0.2534	0.24392	0.19547	0.22104	0.10431	0.15736	0.10853	0.11046	0.09925	-2.8771	-3.2604	-3.1813	-3.2812	-3.3896	-3.1167	-3.4813	-3.3812	-3.1604	-3.5187	-3.1729	-3.5042	-3.5187	-3.1771	-3.3833	-3.2938	209.503	419.916	291.370	498.423	275.389	362.961	441.433	500.309	355.224	426.015	490.590	340.206	445.272	461.361	367.590	217.886	0.00053529	0.0009961	0.0001318	1307.4	5.2825e-06	5.7177e-06	1304.5	360.95	6.1422e-06	5.8897e-06	410.51	201.34	115.83	39.712	5.4703e-06	49.461	0.0006706	0.00068186	0.0001916	1339.5	7.472e-06	7.488e-06	1332.4	368.02	7.5268e-06	7.5641e-06	421.72	204.27	119.31	41.12	7.4853e-06	51.412	192.580	204.477	259.728	172.234	287.884	270.269	171.815	176.595	318.031	305.447	176.059	177.037	180.712	185.654	243.069	184.741	-8191	255	
492.314	1	1	0	0	0.22603	0.13083	0.10954	0.25239	0.16805	0.14762	0.2245	0.22588	0.20395	0.14929	0.24825	0.148	0.085736	0.15475	0.15504	0.26011	-2.8333	-3.3083	-3.1479	-3.4667	-3.3583	-3.2104	-3.6583	-3.4104	-3.1917	-3.4292	-3.3438	-3.4292	-3.3771	-3.1437	-3.4125	-3.2979	350.641	238.104	427.172	411.931	412.883	356.169	385.576	466.074	376.026	502.966	462.926	412.757	348.747	496.337	299.099	446.381	0.00056277	0.00070071	0.00013605	1309.6	5.4384e-06	7.6529e-06	1311.8	362.36	3.6294e-06	6.0337e-06	413.17	202	116.46	40.01	4.0931e-06	49.801	0.00068125	0.000698	0.00019491	1343.3	7.6388e-06	7.7052e-06	1336.3	369.43	7.7127e-06	7.7379e-06	423.61	205.42	120.36	41.412	7.7041e-06	51.609	187.643	251.363	301.103	172.188	377.823	305.946	171.768	176.570	290.258	359.043	176.298	177.173	180.582	185.680	279.423	184.674	-8191	255	
492.410	1	1	0	0	0.21825	0.12457	0.058231	0.16376	0.23811	0.12873	0.2255	0.17288	0.25018	0.13761	0.077436	0.1698	0.058366	0.11845	0.095944	0.22345	-2.9396	-3.3417	-3.1979	-3.2354	-3.5417	-3.2208	-3.5104	-3.6125	-3.1	-3.5125	-3.2938	-3.3417	-3.3	-3.0438	-3.2354	-3.3458	474.562	318.220	267.120	197.254	206.742	352.566	420.109	459.280	407.737	440.716	475.805	440.276	442.707	436.268	365.907	477.967	0.00058132	0.00046756	0.00014393	1305.2	5.1489e-06	1.7115e-06	1319.9	363.51	7.8211e-06	4.5438e-06	415.37	200.96	116.99	40.187	7.7983e-06	49.876	0.00070467	0.00071966	0.00020204	1350.4	7.9054e-06	7.886e-06	1346	370.95	7.7627e-06	7.8302e-06	425.62	205.33	120.68	41.539	7.7899e-06	51.761	186.384	260.860	258.520	172.295	361.221	287.803	171.803	176.476	288.236	339.425	176.127	177.038	180.411	185.675	276.650	184.449	-8191	255	
492.506	1	1	0	0	0.20239	0.043666	0.12014	0.068122	0.13344	0.22582	0.12722	0.38241	0.038337	0.12247	0.19014	0.075626	0.050462	0.12627	0.26665	0.22946	-2.5417	-3.3667	-3.2583	-3.3875	-3.5187	-3.1479	-3.5604	-3.3208	-3.1354	-3.4729	-3.2854	-3.3688	-3.5187	-3.3208	-3.3083	-3.5104	320.117	260.327	214.040	458.152	191.678	359.747	470.876	453.591	509.179	230.211	434.293	435.127	363.629	372.920	212.194	457.577	0.00054123	0.0001518	0.00019919	1307.9	3.1104e-06	6.9325e-06	1312.3	361.55	4.4143e-06	2.1895e-06	413.8	199.9	116.89	40.014	7.2731e-06	49.852	0.00069635	0.00071408	0.00019597	1346.3	7.5208e-06	7.6204e-06	1339.6	369.49	7.4721e-06	7.3741e-06	424	203.17	119.98	41.307	7.1394e-06	51.443	191.552	246.693	257.881	172.237	301.501	285.292	171.957	176.739	265.154	207.568	176.321	177.191	180.709	185.612	302.550	184.691	-8191	255	
492.627	1	1	0	0	0.05544	0.21769	0.25472	0.20471	0.2291	0.37181	0.2971	0.30227	0.27258	0.2316	0.25366	0.13319	0.14448	0.18934	0.14409	0.1564	-2.7062	-3.325	-3.2854	-3.2625	-3.4125	-3.1271	-3.3854	-3.55	-3.0979	-3.5312	-3.3875	-3.1813	-3.5187	-3.475	-3.3292	-3.6646	374.265	290.580	264.637	377.004	391.527	405.113	498.742	440.971	383.146	416.393	465.731	487.497	232.433	184.756	241.282	448.105	0.00050125	0.00063698	0.00011951	1306.9	3.5872e-06	4.1727e-06	1306.9	361.01	5.7758e-06	8.489e-06	411.65	193.27	116.35	40.099	7.6233e-06	49.413	0.00064044	0.00064967	0.00017894	1338.3	7.0718e-06	7.0927e-06	1330	367.75	7.1253e-06	7.1316e-06	421.57	196.34	119.57	41.194	6.9509e-06	51.292	192.510	263.830	303.124	172.027	351.301	313.478	171.641	176.632	272.535	369.766	176.045	178.176	180.609	185.616	313.960	184.813	-8191	255	
492.698	1	1	0	0	0.23963	0.11824	0.28574	0.14563	0.28446	0.14702	0.083453	0.25912	0.071664	0.21035	0.24494	0.078843	0.31787	0.437	0.16164	0.12441	-2.6604	-3.6083	-3.3354	-3.15	-3.4417	-3.3833	-3.2896	-3.6583	-3.0875	-3.4583	-3.4021	-3.2708	-3.5417	-3.3292	-3.2333	-3.4333	198.022	435.281	480.804	479.315	241.268	188.714	180.544	478.397	275.175	467.710	510.251	214.435	459.443	478.126	363.458	432.087	0.00051765	0.00074985	9.5106e-05	1305.1	5.0228e-06	6.1674e-06	1308.7	359.35	5.7727e-06	6.159e-06	411.42	189.25	115.87	39.864	2.7694e-06	49.568	0.00063172	0.0006368	0.00017543	1336.2	7.04e-06	7.0147e-06	1329	367.26	7.0804e-06	7.0022e-06	421.82	192.45	119.25	41.122	7.0156e-06	51.248	184.300	253.594	234.530	172.288	333.195	277.612	171.774	176.507	276.876	322.484	176.097	178.795	180.478	185.731	349.265	184.717	-8191	255	
492.794	1	1	0	0	0.0201	0.14323	0.15903	0.2762	0.052196	0.14928	0.09159	0.094634	0.19927	0.085583	0.26932	0.080513	0.13	0.28686	0.087208	0.1254	-2.7854	-3.275	-3.3	-3.1646	-3.4437	-3.3125	-3.3583	-3.5062	-3.1813	-3.5604	-3.4813	-3.1458	-3.3896	-3.5333	-3.1896	-3.5417	378.355	507.771	341.220	463.086	439.690	373.873	360.147	456.931	265.067	279.768	516.933	465.478	420.925	477.907	292.686	433.179	0.00057313	0.00072421	0.00014754	1307.8	6.7721e-06	5.6162e-06	1304.1	358.8	5.8623e-06	7.4355e-06	410.77	173.03	116.09	39.847	3.1207e-06	49.772	0.00063747	0.000642	0.00017974	1332.2	7.0248e-06	7.0312e-06	1325.4	366.49	6.8268e-06	6.8767e-06	420.09	176.24	119	41.018	6.6797e-06	51.175	191.067	243.453	199.563	172.451	341.002	268.417	171.861	176.427	244.082	373.014	176.182	179.876	180.661	185.870	309.443	184.821	-8191	255	
492.891	1	1	0	0	0.23098	0.095992	0.13648	0.055948	0.1181	0.17278	0.31699	0.27773	0.2002	0.10346	0.18086	0.027883	0.19165	0.21827	0.052399	0.12063	-2.8292	-3.3312	-3.35	-3.1583	-3.4333	-3.2646	-3.3667	-3.6708	-3.3771	-3.2021	-3.4062	-2.9896	-3.2687	-3.4083	-2.8896	-3.5917	472.324	161.347	299.513	503.129	298.642	403.921	450.121	425.433	363.740	236.909	486.914	428.286	448.271	468.598	304.322	303.722	0.00057601	0.00066395	0.00022874	1298.8	6.6794e-06	3.6665e-06	1291.4	358.22	8.8813e-06	1.4201e-06	409.84	162.68	115.93	39.562	4.9376e-06	49.345	0.0006087	0.00061127	0.00016953	1325	6.7036e-06	6.7262e-06	1318.3	365.25	6.7186e-06	6.694e-06	418.56	165.86	118.35	40.796	6.4911e-06	50.905	184.228	259.794	240.961	172.229	310.381	342.997	171.744	176.550	269.950	403.048	176.203	180.147	180.745	185.716	293.331	184.947	-8191	255	
493.009	1	1	0	0	0.10933	0.04985	0.20411	0.04918	0.096733	0.25534	0.1682	0.3182	0.097398	0.11207	0.14392	0.22306	0.087727	0.07795	0.013693	0.18221	-2.5312	-3.0875	-3.3812	-3.125	-3.3042	-3.4979	-3.3917	-3.5896	-3.1125	-3.2708	-3.6729	-3.2062	-3.4708	-3.3979	-3.0333	-3.575	284.338	424.088	479.757	235.914	237.051	280.032	463.017	471.492	308.105	484.206	203.354	433.077	490.511	372.707	477.000	479.677	0.00060241	0.00066507	6.1846e-05	1289.6	2.7743e-06	3.5494e-06	1297.9	358.27	6.9278e-06	7.7691e-06	409.47	163.52	115.92	39.816	2.0931e-06	49.633	0.00058627	0.00059095	0.00016429	1316.2	6.5132e-06	6.5504e-06	1318.6	365.12	6.6948e-06	6.6615e-06	419.34	167.41	118.72	41.009	6.6652e-06	51.108	190.200	274.522	187.596	172.007	260.226	343.710	171.951	176.773	256.186	338.316	176.097	179.880	180.866	185.853	272.482	184.926	-8191	255	
493.106	1	1	0	0	0.13199	0.21971	0.20473	0.16161	0.16721	0.20654	0.19466	0.14797	0.11016	0.22771	0.075764	0.12766	0.29684	0.26937	0.018389	0.1697	-2.7083	-3.2146	-3.2812	-3.1229	-3.3688	-3.1292	-3.4083	-3.6896	-3.3583	-3.2625	-3.6104	-3.3729	-3.3646	-3.4375	-3.0917	-3.5792	364.023	469.398	417.906	482.167	457.240	234.274	467.215	497.580	453.747	371.216	275.236	208.611	489.424	456.495	515.114	162.332	0.00055938	0.00048302	0.00016818	1295.2	6.0416e-06	1.8936e-06	1296.1	358.3	5.1033e-06	6.1009e-06	410.68	177.03	116.05	39.817	3.3746e-06	49.666	0.0006175	0.00061535	0.00016968	1321.2	6.7985e-06	6.7066e-06	1318.7	365.25	6.754e-06	6.7303e-06	419.48	179.84	119.04	41.038	6.6185e-06	51.272	186.373	242.340	271.853	172.345	310.132	308.402	171.830	176.613	259.514	298.551	176.431	179.786	180.709	185.669	312.237	184.692	-8191	255	
493.202	1	1	0	0	0.1305	0.12752	0.15673	0.047178	0.16631	0.13716	0.32927	0.074686	0.20213	0.25104	0.13102	0.31384	0.21867	0.34514	0.15175	0.16781	-2.7604	-3.0687	-3.2979	-3.0812	-3.4	-3.2708	-3.2583	-3.6479	-3.3333	-3.0146	-3.6646	-3.1458	-3.3354	-3.6125	-3.2208	-3.4542	179.258	327.220	469.464	220.252	409.917	367.013	449.302	170.611	424.852	331.948	462.362	463.221	233.815	460.539	214.708	517.567	0.00059863	0.00026468	3.5478e-05	1305.9	1.996e-06	5.7332e-06	1306.7	360.26	4.0332e-06	2.1363e-06	412.26	165.51	116.27	40.047	3.9104e-06	49.666	0.00061373	0.00062452	0.00017384	1329.7	6.9051e-06	6.9712e-06	1327.8	367.63	6.8799e-06	6.8955e-06	422.3	169.12	119.74	41.265	6.8587e-06	51.496	191.083	277.385	250.401	171.988	408.853	314.443	171.870	176.635	283.871	218.385	176.254	179.621	180.827	185.826	276.552	184.759	-8191	255	
493.275	1	1	0	0	0.16752	0.026035	0.18751	0.13286	0.20795	0.20066	0.21582	0.23972	0.14016	0.20053	0.25345	0.12956	0.071922	0.28584	0.24821	0.33684	-2.9229	-2.975	-3.4104	-3.2062	-3.1729	-3.55	-3.2792	-3.6	-3.3729	-3.3	-3.6937	-3.4083	-3.1729	-3.6063	-3.1208	-3.4479	278.227	303.702	461.618	303.619	329.927	318.065	169.141	478.917	197.728	492.581	492.691	190.194	418.085	479.347	159.889	497.436	0.00056375	0.00065657	0.00015641	1307.4	4.9351e-06	5.1818e-06	1306.8	360.2	3.4198e-06	1.1594e-05	413.86	165.8	116.2	40.216	9.6683e-06	49.987	0.0006398	0.00063936	0.00017854	1334.7	7.0594e-06	7.1143e-06	1331.1	368.39	7.2528e-06	7.277e-06	423.77	169.43	119.88	41.446	7.4102e-06	51.638	189.149	277.933	230.932	172.111	306.627	286.530	171.851	176.581	282.355	323.928	176.030	180.103	180.766	185.881	321.828	184.941	-8191	255	
493.394	1	1	0	0	0.065007	0.025129	0.13642	0.27715	0.23106	0.17794	0.088895	0.18196	0.12221	0.24483	0.42168	0.069652	0.19102	0.086659	0.072134	0.21205	-3.0104	-3.0687	-3.2625	-3.3167	-3.1833	-3.4021	-3.475	-3.3354	-3.4917	-3.1708	-3.5271	-3.3979	-3.2	-3.5521	-3.2854	-3.4313	373.109	491.934	477.382	465.195	292.494	477.803	447.504	457.578	234.677	225.007	477.753	380.191	499.092	246.839	294.816	490.509	0.00059085	0.00016113	2.6463e-05	1311.8	3.1341e-06	4.9381e-06	1308.9	362.29	8.5168e-06	1.968e-06	414.61	198.07	117.08	40.035	4.7986e-06	49.78	0.00066359	0.0006752	0.00018336	1342.7	7.2451e-06	7.218e-06	1335	369.81	7.3321e-06	7.2542e-06	424.57	201.29	120.35	41.468	7.3967e-06	51.653	188.675	309.845	276.917	172.061	269.401	264.469	171.828	176.523	294.511	414.619	176.164	177.810	180.449	185.736	315.180	184.655	-8191	255	
493.490	1	1	0	0	0.067957	0.11535	0.074292	0.22474	0.10693	0.16309	0.12673	0.29189	0.065544	0.24313	0.17212	0.1262	0.0090855	0.16222	0.29793	0.042812	-3.0229	-3.2021	-3.3229	-3.3937	-3.1396	-3.2333	-3.2625	-3.4437	-3.3521	-3.1771	-3.6833	-3.4188	-3.0687	-3.4729	-3.3854	-3.5021	299.575	256.423	196.448	163.597	295.141	306.701	204.307	495.328	219.648	462.704	515.204	425.069	372.098	514.831	289.010	335.907	0.00055824	0.00049813	0.00011598	1315.2	3.9008e-06	4.733e-06	1309.5	362.13	5.247e-06	4.4203e-06	416.51	197.02	117.02	40.024	6.881e-06	49.698	0.00066005	0.00067319	0.00018694	1344.9	7.3927e-06	7.3945e-06	1335.8	369.52	7.3631e-06	7.2727e-06	424.59	200.43	120.11	41.294	7.0528e-06	51.564	185.535	297.113	226.933	172.077	333.826	268.379	171.694	176.602	269.227	329.438	176.366	177.887	180.585	185.746	312.836	184.824	-8191	255	
493.586	1	1	0	0	0.19244	0.14168	0.069712	0.11664	0.030418	0.029856	0.28951	0.23771	0.022915	0.20734	0.18624	0.16443	0.030299	0.18497	0.099889	0.13917	-2.9729	-3.225	-3.3229	-3.2854	-3	-3.3937	-3.4667	-3.4062	-3.4354	-3.3729	-3.4167	-3.5583	-3.1479	-3.6229	-3.4292	-3.5021	357.344	346.788	378.584	163.412	249.218	190.056	161.228	452.444	439.926	448.482	498.863	411.820	230.542	435.515	252.369	389.710	0.00053238	0.00028819	0.00011528	1310.7	4.9611e-06	1.5406e-06	1311.3	362.85	7.1033e-06	4.189e-06	415.16	200.48	117.21	40.09	5.2974e-06	49.837	0.00062751	0.00063134	0.00017599	1338.6	6.9984e-06	6.9197e-06	1333.6	369.43	7.0534e-06	7.0736e-06	424.1	204.18	120.2	41.47	7.0684e-06	51.547	183.777	201.337	285.633	172.146	317.088	283.925	171.851	176.575	270.820	335.661	176.316	177.308	180.536	185.734	322.390	184.959	-8191	255	
493.707	1	1	0	0	0.3216	0.0724	0.1557	0.1542	0.15493	0.050553	0.3602	0.066794	0.18462	0.18443	0.3645	0.1545	0.28919	0.084009	0.0098481	0.17641	-3.1083	-3.2479	-3.4271	-3.325	-3.1375	-3.5292	-3.4125	-3.3354	-3.4333	-3.2604	-3.35	-3.6	-3.1813	-3.4792	-3.0042	-3.2458	421.607	377.060	316.866	392.339	190.355	258.155	439.276	332.430	312.234	324.566	456.977	502.138	198.713	377.190	502.453	417.310	0.000505	0.00088196	0.00017968	1309.3	4.8671e-06	2.5875e-06	1314.9	361.04	6.4537e-06	3.9025e-06	413.03	200.13	117.18	40.213	9.3859e-06	49.854	0.00064187	0.00064487	0.00018213	1339.9	7.0842e-06	7.1664e-06	1337	369.39	7.2239e-06	7.2444e-06	424.59	203.12	120.46	41.491	7.0975e-06	51.67	187.715	276.412	234.598	171.851	329.635	269.643	171.696	176.574	283.285	372.536	176.229	177.703	180.479	185.640	273.481	184.918	-8191	255	
493.803	1	1	0	0	0.059435	0.11965	0.19297	0.14242	0.11728	0.085766	0.17875	0.085236	0.042717	0.043565	0.069514	0.11108	0.29388	0.11686	0.23727	0.15466	-3.1063	-3.1729	-3.2167	-3.3146	-2.9917	-3.4437	-3.4646	-3.3771	-3.3729	-3.2042	-3.3417	-3.4896	-3.1771	-3.5312	-3.2646	-3.2833	389.619	331.469	245.891	494.146	398.637	444.125	360.646	425.360	273.623	454.072	454.657	379.258	186.929	186.732	477.090	315.106	0.00059013	0.0004047	3.7931e-05	1315.9	4.1965e-06	4.5576e-06	1313.1	361.2	7.7393e-06	7.3774e-06	415.46	199.47	117.8	40.292	6.6904e-06	49.908	0.00064924	0.00065631	0.00017834	1339.7	7.1807e-06	7.2024e-06	1338	369.98	7.2112e-06	7.1706e-06	424.79	201.99	120.72	41.491	7.0581e-06	51.614	190.391	214.754	308.941	172.292	320.283	342.128	171.998	176.426	303.056	374.686	176.167	177.519	180.634	186.088	298.767	184.901	-8191	255	
493.898	1	1	0	0	0.12849	0.05555	0.23121	0.4253	0.060764	0.029599	0.094738	0.31024	0.1815	0.11808	0.17878	0.11508	0.19153	0.19991	0.12495	0.076906	-3.1021	-3.1729	-3.3542	-3.5021	-3.3396	-3.4437	-3.5396	-3.25	-3.4667	-3.0896	-3.4354	-3.5396	-3.2896	-3.4625	-3.4125	-3.2771	402.251	386.407	272.352	171.092	385.018	391.637	180.066	451.333	433.918	194.703	405.236	295.464	504.552	461.519	319.591	244.754	0.00053076	0.00079616	0.00013301	1316.7	2.6019e-06	4.6762e-06	1314.3	363.42	6.4781e-06	7.008e-06	416.13	199.92	117.95	40.339	5.7078e-06	49.91	0.00063541	0.00065019	0.00018185	1344.1	7.197e-06	7.2689e-06	1338.5	370.76	7.1952e-06	7.1343e-06	425.25	203.71	120.92	41.577	7.1835e-06	51.729	189.483	252.367	284.158	172.282	369.121	261.812	171.829	176.556	270.946	322.235	176.370	177.529	180.469	185.762	311.625	184.820	-8191	255	
493.995	1	1	0	0	0.2279	0.24076	0.020283	0.13402	0.08568	0.13358	0.32944	0.3674	0.24346	0.15799	0.1578	0.21175	0.16319	0.21741	0.15646	0.20983	-2.9917	-3.1917	-3.1375	-3.5854	-3.2979	-3.35	-3.5229	-3.2875	-3.2479	-3.2708	-3.3125	-3.55	-3.2062	-3.4208	-3.4437	-3.2438	434.852	279.441	370.401	397.293	507.169	493.231	416.894	500.987	305.686	480.722	413.408	491.561	384.778	225.200	516.968	317.214	0.00055607	0.00043185	4.2968e-05	1309.4	3.0728e-06	7.6212e-06	1310.3	362.7	7.2756e-06	2.0642e-06	414.57	198.22	117.66	40.35	5.0422e-06	49.945	0.00064442	0.00065696	0.00018291	1339.3	7.1014e-06	7.0985e-06	1333	370.16	6.9725e-06	6.9071e-06	424.29	201.44	120.41	41.495	7.0822e-06	51.684	188.478	289.684	243.221	172.396	339.998	315.411	171.966	176.684	266.584	330.481	176.215	177.797	180.527	185.477	304.016	184.933	-8191	255	
494.090	1	1	0	0	0.27361	0.23216	0.011945	0.099841	0.14586	0.17105	0.33085	0.25157	0.12631	0.24297	0.19214	0.17824	0.22488	0.12578	0.13187	0.13856	-3.0583	-3.3104	-3.2708	-3.4417	-3.2104	-3.2979	-3.7479	-3.2083	-3.4417	-3.4333	-3.1937	-3.475	-3.3083	-3.3667	-3.4396	-3.325	252.829	446.007	344.357	210.009	387.335	201.358	423.568	179.782	172.659	461.203	404.057	443.691	366.533	477.249	352.360	510.961	0.00063559	0.00027279	7.5091e-05	1313.6	1.2878e-06	4.5223e-06	1311.1	361.91	4.1755e-06	9.1942e-06	414.93	198.13	117.14	40.429	7.4674e-06	49.974	0.00064669	0.00066153	0.00018412	1342.3	7.2851e-06	7.1971e-06	1334	369.58	7.1235e-06	7.1177e-06	424.43	200.79	120.3	41.564	7.0799e-06	51.75	186.982	366.735	242.290	172.207	325.122	339.552	171.853	176.797	311.463	325.550	176.168	177.776	180.674	185.812	295.580	184.626	-8191	255	
494.186	1	1	0	0	0.14852	0.096438	0.15677	0.24943	0.15459	0.15806	0.1285	0.36921	0.10473	0.1855	0.34648	0.1685	0.035165	0.031029	0.065548	0.39635	-2.8937	-3.1562	-3.1	-3.4521	-3.1583	-3.2083	-3.6562	-3.3438	-3.2188	-3.4333	-3.1292	-3.5271	-3.4188	-3.3812	-3.4083	-3.1917	315.209	209.308	354.021	192.528	253.885	403.256	394.109	184.197	331.924	240.160	512.954	354.182	177.768	477.626	377.595	385.634	0.00057147	0.00053132	4.2503e-05	1303.9	5.1105e-06	3.2456e-06	1311.7	362.75	5.7163e-06	1.0802e-05	413.89	198.49	117.77	40.35	1.9369e-06	49.983	0.00063734	0.00064431	0.00017892	1337.7	7.0508e-06	7.0468e-06	1331.7	369.66	6.9593e-06	6.8797e-06	423.53	201.43	120.21	41.499	6.6732e-06	51.636	184.167	257.137	205.165	171.987	309.343	270.946	172.042	176.664	260.969	314.320	176.121	177.915	180.531	185.890	492.633	184.630	-8191	255	
494.307	1	1	0	0	0.19739	0.095405	0.11226	0.22237	0.32397	0.21051	0.18655	0.12707	0.20518	0.33783	0.2108	0.079502	0.091341	0.23524	0.072244	0.32061	-2.8729	-3.3	-2.8417	-3.5312	-3.1625	-3.2333	-3.7938	-3.5438	-3.3021	-3.3333	-3.2021	-3.5125	-3.2104	-3.3	-3.5	-3.1583	354.959	282.462	434.420	432.273	343.175	491.202	451.957	498.957	284.297	371.404	450.709	218.323	517.185	462.749	361.207	453.842	0.00055183	0.00088542	0.00017494	1310.6	5.0659e-06	3.3677e-06	1307.1	361.2	4.887e-06	3.6392e-06	413.39	196.76	117.17	40.183	3.9739e-06	49.94	0.00060509	0.00059993	0.00016645	1329.5	6.3629e-06	6.3263e-06	1327.3	368.39	6.333e-06	6.3851e-06	422.39	199.27	119.65	41.322	6.3389e-06	51.568	189.714	242.041	260.061	172.116	328.766	179.452	171.880	176.541	305.444	305.449	176.377	178.143	180.517	185.866	306.870	185.057	-8191	255	
494.403	1	1	0	0	0.17659	0.036477	0.04508	0.092846	0.033943	0.17246	0.38081	0.066647	0.14162	0.054127	0.17456	0.2746	0.10681	0.12818	0.19462	0.31764	-2.6604	-3.4188	-3.0333	-3.3396	-3.2958	-3.1333	-3.6146	-3.4146	-3.2625	-3.3167	-3.2104	-3.5604	-3.3917	-3.2229	-3.35	-3.4188	492.426	294.149	391.256	337.198	365.588	513.863	503.062	405.414	464.664	190.583	399.114	171.405	394.723	162.829	373.895	432.102	0.00055914	0.00028364	0.0001943	1310.9	5.9734e-06	8.3119e-06	1311.9	362.94	3.9964e-06	8.269e-06	415.78	187.42	117.31	40.384	3.1377e-06	49.842	0.00058176	0.00058686	0.00016378	1333.7	6.5194e-06	6.6486e-06	1332.8	370.12	6.7565e-06	6.8405e-06	424.71	189.79	120.41	41.571	6.8982e-06	51.649	194.773	270.563	260.172	172.029	294.352	290.743	171.889	176.502	266.412	398.687	176.252	179.107	180.480	185.768	291.094	184.889	-8191	255	
494.499	1	1	0	0	0.14719	0.28389	0.13628	0.27711	0.37099	0.34446	0.22709	0.14586	0.098593	0.081623	0.14636	0.30277	0.2525	0.1309	0.058611	0.16637	-2.8875	-3.4667	-3.0771	-3.2729	-3.3812	-3.2021	-3.6458	-3.35	-3.1458	-3.5187	-3.2583	-3.5187	-3.2687	-3.4062	-3.4417	-3.1792	239.096	362.594	248.092	245.830	470.580	469.256	425.963	458.436	422.425	463.225	207.376	487.070	488.061	296.923	229.680	456.826	0.00055452	0.00014271	0.00014241	1312.1	6.7543e-06	3.8155e-06	1309.1	363.04	3.8892e-06	3.3076e-06	412.41	169.57	116.86	40.229	7.7942e-06	49.967	0.00061865	0.00062826	0.0001737	1336	6.735e-06	6.8003e-06	1334.2	369.73	6.7537e-06	6.7546e-06	423.03	172.67	120.11	41.386	6.8197e-06	51.579	190.464	273.134	296.576	172.238	333.396	376.220	171.887	176.542	263.023	418.438	176.149	179.863	180.715	185.615	269.105	184.816	-8191	255	
494.571	1	1	0	0	0.18914	0.14708	0.15727	0.10148	0.085657	0.15374	0.20027	0.11095	0.03531	0.053234	0.33011	0.25874	0.17676	0.11806	0.29419	0.19983	-2.7687	-3.4979	-3.2042	-3.3833	-3.4167	-3.2792	-3.7125	-3.3979	-3.1625	-3.4562	-3.2104	-3.3271	-3.65	-3.2104	-3.4292	-3.4333	165.032	286.751	407.074	506.091	334.818	243.312	480.459	448.470	345.204	174.793	470.708	203.698	171.629	167.054	361.922	505.576	0.00062723	0.00016241	0.00015314	1307.8	6.701e-06	4.3246e-06	1299.4	360.96	2.7242e-06	6.59e-06	412.79	169.12	116.33	40.053	3.5214e-06	49.909	0.00062452	0.00062672	0.00017622	1333.2	6.9363e-06	6.9365e-06	1326.2	368.22	6.9419e-06	6.8943e-06	422.71	171.96	119.61	41.306	6.9456e-06	51.449	190.197	244.360	174.867	172.288	293.881	326.762	171.737	176.650	316.342	306.486	176.414	179.977	180.633	185.911	316.456	184.819	-8191	255	
494.691	1	1	0	0	0.29468	0.11901	0.14193	0.15501	0.11637	0.1328	0.28657	0.39221	0.17477	0.11406	0.21951	0.22651	0.22626	0.13324	0.2039	0.18451	-2.6979	-3.4521	-3.05	-3.2313	-3.5354	-3.1896	-3.6813	-3.4646	-3.1125	-3.4667	-3.2771	-3.3812	-3.5375	-3.2292	-3.2875	-3.5167	368.600	312.422	256.538	190.597	458.266	456.729	496.074	446.087	435.902	306.540	448.399	357.756	177.810	494.283	441.304	423.409	0.00061127	0.00051993	0.00012707	1301.5	7.261e-06	6.1948e-06	1301.7	362.17	9.2215e-06	8.2207e-06	414.7	164.94	115.59	39.798	3.8037e-06	49.482	0.00063675	0.00064104	0.0001798	1329.9	7.0547e-06	7.0098e-06	1325.3	368.3	6.9255e-06	6.9573e-06	422.85	168.05	119.46	41.133	6.9881e-06	51.283	182.958	234.282	235.881	172.193	291.119	259.006	171.817	176.705	264.199	359.952	176.338	180.322	180.775	185.530	322.974	184.893	-8191	255	
494.787	1	1	0	0	0.17126	0.30842	0.10727	0.057948	0.18477	0.12988	0.17259	0.11336	0.17267	0.14072	0.23124	0.11292	0.27765	0.16854	0.12271	0.096922	-2.7667	-3.4521	-3.2667	-3.4	-3.4542	-3.2896	-3.4896	-3.5521	-3.1437	-3.5354	-3.4354	-3.1688	-3.4938	-3.1708	-3.1042	-3.6479	216.560	517.159	314.973	165.751	371.831	437.136	502.755	482.312	315.604	509.853	424.682	468.244	485.879	164.126	340.026	381.735	0.0005542	0.00027613	0.00011008	1304.2	3.6202e-06	5.3057e-06	1299.9	360.41	3.8036e-06	7.0823e-06	411.99	145.83	116.5	39.895	4.1882e-06	49.457	0.00063806	0.00064451	0.00017867	1330.3	7.0619e-06	7.0948e-06	1324.4	367.24	7.1029e-06	7.1069e-06	421.81	149.34	119.53	41.159	6.9255e-06	51.198	184.558	276.037	196.520	172.264	343.750	311.990	171.845	176.630	290.192	354.493	176.302	179.883	180.793	185.554	301.058	184.796	-8191	255	
494.884	1	1	0	0	0.13312	0.091087	0.053907	0.061133	0.1604	0.031922	0.27764	0.34779	0.27289	0.0065472	0.20896	0.19153	0.18439	0.098291	0.20978	0.06586	-2.6896	-3.4354	-3.15	-3.3083	-3.3896	-3.3625	-3.3958	-3.675	-3.0396	-3.4292	-3.5646	-3.0979	-3.5521	-3.5104	-3.1854	-3.4354	395.949	516.805	386.472	379.266	493.095	315.892	476.481	451.281	242.859	356.505	420.774	421.134	227.417	498.251	393.171	189.224	0.00055511	0.0006261	7.0853e-05	1301.8	4.0402e-06	1.7868e-06	1298.5	360.26	7.1493e-06	3.5893e-06	413.17	165.05	116.34	39.95	4.1877e-06	49.603	0.00062365	0.00063656	0.00017709	1328.5	6.879e-06	6.8783e-06	1322.3	366.95	6.8502e-06	6.8058e-06	421.99	168.55	119.38	41.159	6.665e-06	51.255	185.870	201.648	294.287	172.364	349.320	341.532	171.829	176.679	286.503	259.231	176.371	179.856	180.769	185.554	310.508	185.064	-8191	255	
494.978	1	1	0	0	0.3537	0.082111	0.17596	0.095812	0.28185	0.14565	0.014813	0.11325	0.12164	0.12467	0.11668	0.12925	0.1616	0.11546	0.14978	0.30964	-2.6021	-3.3125	-3.3521	-3.0167	-3.3438	-3.3583	-3.3229	-3.5708	-3.225	-3.4229	-3.4	-3.1437	-3.6646	-3.4271	-3.15	-3.4708	184.701	332.251	361.313	407.553	426.720	226.567	401.677	499.959	491.084	268.074	410.594	462.366	455.768	400.953	197.719	173.329	0.00053237	0.00032179	8.8957e-05	1301.7	4.401e-06	6.2417e-06	1296.6	359.73	8.8517e-06	5.4165e-06	411.01	166.08	116.08	39.932	3.7435e-06	49.739	0.00060989	0.00061311	0.00016904	1325	6.7419e-06	6.6798e-06	1320.2	367.3	6.676e-06	6.619e-06	420.86	169.22	119.04	41.182	6.5739e-06	51.255	187.458	224.571	272.934	172.244	289.232	294.678	171.738	176.561	297.989	311.024	176.140	179.621	180.804	185.877	305.773	184.650	-8191	255	
495.076	1	1	0	0	0.17426	0.024011	0.23008	0.15147	0.21462	0.21208	0.094532	0.32896	0.38211	0.24237	0.28956	0.15016	0.044942	0.22015	0.15942	0.13396	-2.6896	-3.1437	-3.3	-2.9188	-3.3937	-3.1271	-3.3063	-3.5667	-3.1562	-3.3375	-3.5333	-3.1958	-3.2833	-3.4437	-3.0938	-3.4917	266.959	325.208	368.741	517.044	486.079	401.672	249.165	466.658	163.201	356.002	446.546	418.962	437.625	448.560	320.907	411.321	0.000551	0.00031565	5.2142e-05	1300.2	2.8356e-06	6.3913e-06	1301.2	359.67	5.8241e-06	5.7903e-06	414.61	161.17	116.25	40.111	4.258e-06	49.683	0.00059989	0.00060535	0.00016847	1326.2	6.6442e-06	6.6859e-06	1322.5	367.33	6.6575e-06	6.5956e-06	422.02	164.6	119.53	41.296	6.514e-06	51.345	190.772	231.881	240.751	172.150	328.460	279.767	171.822	176.723	322.924	345.950	176.378	179.592	181.165	185.745	303.920	184.732	-8191	255	
495.170	1	1	0	0	0.17738	0.088556	0.14076	0.068655	0.13928	0.15082	0.13116	0.21108	0.23374	0.15369	0.12431	0.10302	0.22196	0.20309	0.20748	0.17304	-2.7687	-3.1271	-3.4813	-3.1312	-3.2458	-3.1208	-3.1479	-3.7083	-3.0187	-3.3021	-3.5187	-3.2458	-3.4354	-3.4292	-3.1146	-3.4333	423.272	430.348	228.893	250.739	210.088	354.867	416.747	164.527	446.992	336.164	425.476	243.909	509.814	192.366	425.623	169.108	0.00061013	0.00031224	0.00010463	1300.3	5.9319e-06	4.9434e-06	1298.7	359.09	4.0219e-06	4.9418e-06	413.38	163.76	116.91	40.086	4.696e-06	49.811	0.00060004	0.0006048	0.00016927	1323.2	6.6204e-06	6.6532e-06	1323.4	367.04	6.6795e-06	6.6604e-06	421.82	166.83	119.62	41.273	6.4615e-06	51.4	187.791	290.439	259.321	172.514	289.273	281.996	171.899	176.574	284.206	432.654	176.255	179.563	180.801	185.646	320.903	184.797	-8191	255	
495.268	1	1	0	0	0.15646	0.12769	0.22459	0.2488	0.32078	0.033672	0.27055	0.16531	0.12149	0.15185	0.14924	0.25845	0.18985	0.43849	0.09154	0.21638	-2.6417	-3.0312	-3.3521	-2.9646	-3.3	-3.3208	-3.2104	-3.6104	-3.2104	-3.2687	-3.6271	-3.2958	-3.3646	-3.3271	-2.9917	-3.4729	439.748	316.948	462.577	479.300	509.880	176.480	516.797	514.567	487.771	461.823	169.624	476.648	498.356	487.169	225.401	425.474	0.00055104	0.0001722	0.00011451	1292.8	5.8924e-06	5.4467e-06	1301.6	361.17	6.5471e-06	6.2501e-06	412.12	168.52	117.38	40.103	3.4646e-06	49.926	0.0005884	0.00058418	0.00016414	1322.1	6.4399e-06	6.4135e-06	1322.4	367.43	6.388e-06	6.3643e-06	421.11	171.74	119.69	41.306	6.3309e-06	51.334	188.904	208.254	213.327	172.190	318.574	261.435	171.731	176.721	285.402	290.907	176.035	179.649	180.760	185.791	370.788	184.925	-8191	255	
495.387	1	1	0	0	0.07222	0.13121	0.16149	0.31667	0.11844	0.32116	0.11284	0.17481	0.17031	0.070832	0.20736	0.03245	0.14223	0.12814	0.24998	0.16307	-2.7708	-3.1188	-3.4062	-3.2229	-3.2958	-3.4104	-3.2125	-3.5938	-3.325	-3.1375	-3.5792	-3.2854	-3.2375	-3.4708	-3.0854	-3.4521	159.059	333.044	476.974	476.386	183.884	163.609	445.696	392.483	324.681	374.983	322.911	445.879	505.964	420.266	300.088	412.713	0.00050913	0.00073471	0.00021893	1291.2	6.2377e-06	6.3834e-06	1295.7	361.15	2.0396e-06	9.0196e-07	413.03	167.47	116.66	40.023	8.6922e-06	49.775	0.0005789	0.000579	0.00016179	1320.2	6.4037e-06	6.4704e-06	1319.6	367.53	6.5458e-06	6.4805e-06	421.39	170.44	119.23	41.209	6.415e-06	51.271	187.008	289.007	246.608	172.336	330.034	253.573	171.810	176.663	315.333	382.097	176.334	179.910	180.918	185.623	286.906	184.861	-8191	255	
495.483	1	1	0	0	0.24744	0.11375	0.22732	0.085012	0.15477	0.094687	0.23455	0.3056	0.095498	0.43155	0.14969	0.23368	0.15877	0.058636	0.19776	0.20288	-2.9875	-3.0021	-3.5042	-3.2667	-3.2604	-3.375	-3.3146	-3.6104	-3.35	-3.225	-3.4979	-3.1292	-3.1583	-3.5729	-3.2062	-3.5167	386.150	470.948	477.280	475.148	468.337	415.716	486.118	391.267	426.661	312.571	169.396	193.080	291.140	161.025	202.211	474.929	0.00056201	0.0004268	6.2538e-05	1294.5	1.0588e-06	4.7767e-06	1297.6	360	4.5746e-06	3.2148e-06	412.12	165.94	116.28	39.865	6.0173e-06	49.556	0.0005862	0.00058669	0.00016121	1320	6.3539e-06	6.3871e-06	1318.4	366.36	6.2849e-06	6.3224e-06	420.85	169.94	119.16	41.083	6.3811e-06	51.262	193.424	269.874	317.891	172.109	321.174	283.751	171.854	176.625	256.515	329.058	176.425	179.954	180.789	185.680	289.594	185.108	-8191	255	
495.579	1	1	0	0	0.052299	0.19377	0.10485	0.16493	0.13812	0.054386	0.13557	0.15484	0.24318	0.21288	0.28948	0.087629	0.20553	0.42615	0.12355	0.14763	-2.975	-2.9875	-3.4708	-3.3208	-3.2833	-3.5458	-3.3083	-3.4813	-3.3417	-3.0521	-3.4833	-3.3104	-3.1875	-3.7375	-3.2208	-3.3937	484.780	384.025	495.447	329.934	362.562	325.685	517.678	410.663	255.626	477.805	480.838	517.945	353.646	489.630	274.513	427.631	0.00058701	0.00062401	3.0228e-05	1290.7	5.2203e-06	5.6733e-06	1301.3	359.19	3.9988e-06	4.8312e-06	412.09	168.73	116.61	39.94	6.6877e-06	49.488	0.00058141	0.00057239	0.00016121	1319.7	6.2377e-06	6.2616e-06	1320.5	366.18	6.2799e-06	6.3285e-06	420.58	172.09	119.38	41.21	6.3305e-06	51.179	187.582	220.001	286.229	172.136	329.917	293.549	171.969	176.645	311.889	338.879	176.393	179.888	180.588	185.962	274.471	184.770	-8191	255	
495.675	1	1	0	0	0.19536	0.21382	0.033246	0.22112	0.077998	0.13566	0.18679	0.14341	0.20411	0.10696	0.088773	0.19849	0.23638	0.1991	0.20204	0.14942	-2.9833	-3.1979	-3.2833	-3.1875	-3.1083	-3.3812	-3.2542	-3.3229	-3.35	-3.0958	-3.5687	-3.4979	-3.1813	-3.5896	-2.9833	-3.2896	324.669	386.319	311.671	499.993	349.642	505.613	444.162	473.960	203.609	404.954	190.099	462.667	500.517	229.684	433.720	422.046	0.00051726	0.00019578	9.0279e-05	1296.4	4.3458e-06	9.6648e-06	1290.4	358.09	4.0653e-06	5.9529e-06	410.99	169	116.36	40.017	5.2488e-06	49.601	0.0005804	0.00057779	0.00016128	1318.4	6.4165e-06	6.3561e-06	1316	365.98	6.492e-06	6.5421e-06	420.47	171.81	119.22	41.164	6.7733e-06	51.28	187.343	494.410	296.399	172.086	298.129	320.382	171.882	176.656	262.722	345.191	176.255	180.036	180.380	185.729	213.761	184.905	-8191	255	
495.796	1	1	0	0	0.096351	0.23112	0.18685	0.15195	0.12611	0.15098	0.2164	0.050747	0.032352	0.077269	0.12942	0.067142	0.32552	0.17693	0.26219	0.33003	-3.2	-3.0312	-3.4	-3.3375	-3.0375	-3.5729	-3.4833	-3.3167	-3.3854	-3.1271	-3.4083	-3.4125	-3.1979	-3.5312	-3.2917	-3.2479	318.302	391.026	273.519	172.100	376.694	370.261	402.730	229.040	406.662	289.132	384.523	447.004	461.021	485.502	276.838	504.862	0.00052523	0.00059098	0.00013785	1290.4	4.0137e-06	5.1965e-06	1300.2	359.23	5.9273e-06	4.2608e-06	411.7	166.09	116.23	39.847	8.7434e-06	49.519	0.00061372	0.00062308	0.00017273	1320.1	6.8457e-06	6.844e-06	1321.9	366.71	6.7996e-06	6.8199e-06	420.29	169.7	118.86	41.085	6.6966e-06	51.194	186.415	295.631	233.232	172.210	263.418	283.003	171.889	176.639	276.887	357.009	176.399	179.745	180.914	185.809	238.492	184.953	-8191	255	
495.868	1	1	0	0	0.2187	0.088094	0.22441	0.24925	0.16096	0.054402	0.19768	0.16176	0.087476	0.04901	0.27559	0.061812	0.19669	0.1238	0.33635	0.11081	-2.9375	-3.0687	-3.3271	-3.4292	-3.1667	-3.3604	-3.5375	-3.3021	-3.5146	-3.2104	-3.4667	-3.3958	-3.2438	-3.5458	-3.2417	-3.1833	273.740	422.525	167.982	201.451	224.973	304.470	407.241	442.260	274.326	402.659	443.424	182.675	230.496	401.431	280.322	170.504	0.0005387	0.00036315	0.00010338	1288.9	4.7647e-06	6.5272e-06	1290.6	359.41	2.9401e-06	6.9895e-07	410.49	167.49	115.41	39.679	9.0781e-06	49.418	0.00060589	0.00060973	0.00016826	1315.6	6.5409e-06	6.6319e-06	1314.7	365.93	6.691e-06	6.63e-06	420.45	170.78	118.79	41.017	6.7902e-06	51.06	183.029	177.608	299.729	171.945	237.538	277.859	171.905	176.702	291.142	362.839	176.222	179.580	180.770	185.941	312.894	185.134	-8191	255	
495.964	1	1	0	0	0.073232	0.19254	0.16318	0.035941	0.095894	0.044404	0.30366	0.27737	0.043789	0.055606	0.22376	0.10322	0.18197	0.14516	0.10565	0.08454	-3.0354	-3.15	-3.3917	-3.5646	-2.9875	-3.5104	-3.4229	-3.4604	-3.45	-3.2604	-3.275	-3.5854	-3.0938	-3.5146	-3.2354	-3.3604	375.298	277.303	260.978	247.523	433.563	495.693	485.821	491.684	393.100	299.507	418.193	331.795	223.894	357.617	350.605	376.199	0.00055474	0.00013568	0.00021218	1288.8	2.78e-06	6.0586e-06	1290.6	358.85	3.9219e-06	8.7801e-06	409.89	166.72	116	39.733	1.4297e-06	49.329	0.00060969	0.00062174	0.00017188	1316.2	6.7883e-06	6.8227e-06	1315.4	365.63	6.7739e-06	6.9138e-06	419.64	170.42	118.81	41.01	6.9508e-06	51.079	187.336	183.472	226.413	172.350	322.384	303.466	171.935	176.779	316.929	351.957	176.248	179.804	181.034	185.889	312.589	185.193	-8191	255	
496.083	1	1	0	0	0.14135	0.047412	0.13712	0.048221	0.44123	0.11485	0.069733	0.06672	0.10696	0.0060518	0.13264	0.25264	0.19222	0.16333	0.14482	0.17722	-2.9375	-3.1188	-3.3104	-3.4271	-3.0917	-3.4521	-3.4479	-3.2292	-3.4542	-3.1854	-3.3771	-3.5208	-3.2104	-3.5146	-3.2375	-3.2313	304.923	326.948	420.042	302.296	381.447	187.332	193.939	169.852	395.453	253.354	167.163	509.734	427.740	472.689	173.289	212.844	0.0004939	0.00025792	0.00016915	1287	2.0659e-06	2.9216e-06	1291.4	357.48	6.818e-06	6.8893e-06	410.57	165.32	115.45	39.802	5.5531e-06	49.171	0.00063013	0.00063666	0.00017546	1317.1	6.8834e-06	6.9201e-06	1314.2	365.08	6.9051e-06	6.9217e-06	419.19	169.63	118.41	40.953	6.9342e-06	50.987	186.041	256.875	244.242	172.547	356.564	268.293	171.698	176.766	268.501	401.722	176.106	179.980	180.583	185.930	314.823	184.883	-8191	255	
496.179	1	1	0	0	0.044471	0.27856	0.068233	0.2756	0.058024	0.18724	0.46831	0.22876	0.12742	0.1149	0.090191	0.30006	0.1816	0.030529	0.28778	0.16656	-3.0667	-3.025	-3.1521	-3.4333	-3.2	-3.3229	-3.3625	-3.1854	-3.3542	-3.2208	-3.2125	-3.5687	-3.2229	-3.6375	-3.4167	-3.2687	308.786	379.261	415.267	493.245	225.830	300.916	507.612	481.081	319.068	334.118	185.018	515.969	466.664	210.333	287.335	450.825	0.00049902	0.0006122	0.00010163	1283.9	6.6278e-06	7.2336e-06	1289.8	356.33	2.0173e-06	1.0356e-05	410.58	165.71	115.76	39.956	6.2724e-06	49.32	0.00062775	0.000639	0.00017724	1316.9	6.9842e-06	7.0152e-06	1316.2	365.05	6.9099e-06	6.9779e-06	419.27	169.49	118.66	40.98	6.9333e-06	51.032	190.472	245.956	216.385	172.368	251.293	292.906	171.987	176.573	276.998	284.599	176.182	179.949	180.754	185.718	314.652	184.913	-8191	255	
496.275	1	1	0	0	0.096143	0.060195	0.082557	0.26275	0.12995	0.25202	0.27294	0.28051	0.028243	0.22408	0.05295	0.17573	0.17199	0.23019	0.3004	0.27087	-2.9854	-3.2125	-3.1271	-3.5146	-3.1833	-3.3083	-3.7062	-3.2562	-3.3146	-3.3979	-3.2521	-3.65	-3.1896	-3.3604	-3.4062	-3.1708	192.901	462.763	303.018	222.659	303.539	234.263	204.869	468.792	331.337	254.701	272.047	204.558	495.499	416.140	357.701	460.360	0.00058971	0.00077336	5.4168e-05	1289.4	5.279e-06	1.9275e-06	1290.5	358.3	6.7519e-06	8.3951e-06	408.91	160.91	115.84	40.009	5.0155e-06	49.676	0.00063212	0.00063793	0.00017749	1319.2	6.9927e-06	7.1093e-06	1315.9	365.63	6.9627e-06	6.9358e-06	419.53	164.68	118.91	41.135	7.0266e-06	51.331	188.160	260.894	326.802	172.090	302.827	356.718	171.815	176.588	303.798	340.379	176.060	179.654	180.680	185.693	377.145	184.931	-8191	255	
496.371	1	1	0	0	0.047525	0.15105	0.14925	0.2425	0.17044	0.22394	0.19459	0.16458	0.064117	0.21625	0.20612	0.036844	0.21679	0.04711	0.16735	0.14171	-2.7458	-3.3604	-3.2104	-3.4208	-3.3	-3.1625	-3.75	-3.2354	-3.3833	-3.5229	-3.2958	-3.6188	-3.1312	-3.225	-3.5042	-3.3354	285.403	429.351	433.062	486.305	219.474	183.893	476.921	500.867	352.807	324.863	483.011	453.505	429.835	272.845	460.742	429.284	0.00054719	0.00091615	7.4317e-05	1287.9	3.7608e-06	6.7898e-06	1299.8	359.46	5.3179e-06	8.2017e-06	411.16	91.492	115.71	39.821	7.75e-06	49.532	0.0006435	0.00065261	0.00018124	1324.9	7.1285e-06	7.1342e-06	1320.7	366.26	6.9774e-06	6.952e-06	420.71	95.762	118.97	41.124	6.9079e-06	51.265	188.934	254.273	236.088	172.167	318.067	302.797	172.001	176.631	294.797	366.307	176.188	180.012	181.022	186.048	269.400	185.017	-8191	255	
496.467	1	1	0	0	0.14682	0.19984	0.19252	0.06212	0.076908	0.076077	0.14768	0.28587	0.11087	0.083526	0.277	0.15402	0.061222	0.15821	0.08568	0.092894	-2.85	-3.425	-3.0479	-3.5125	-3.1958	-3.2271	-3.6042	-3.3208	-3.2625	-3.3125	-3.075	-3.5792	-3.3479	-3.3271	-3.4479	-3.2917	502.537	507.304	473.850	233.262	444.283	270.237	455.065	458.621	399.393	283.943	451.041	422.130	158.922	180.644	497.251	424.143	0.00049378	0.00060938	0.00015927	1290.9	4.5266e-06	1.6753e-06	1294.5	359.49	6.9669e-06	5.7236e-06	411.39	200.92	116.12	39.803	6.9972e-06	49.671	0.00064154	0.00064243	0.00017948	1325	7.0702e-06	7.1148e-06	1317.1	366.67	7.0792e-06	7.1547e-06	421.92	204.33	119.24	41.074	7.2207e-06	51.213	187.813	241.533	222.954	172.159	262.218	300.879	171.603	176.787	266.736	344.373	176.590	177.316	180.591	185.623	307.043	185.018	-8191	255	
496.564	1	1	0	0	0.090533	0.18965	0.13389	0.078396	0.073872	0.21718	0.14462	0.35146	0.15067	0.087923	0.13853	0.12723	0.16964	0.067734	0.076621	0.084315	-2.8271	-3.2938	-3.3104	-3.45	-3.2104	-3.2792	-3.7146	-3.4167	-3.2417	-3.4708	-3.2188	-3.3542	-3.3979	-3.1271	-3.4333	-3.3292	324.834	272.828	291.499	412.974	320.912	305.147	399.193	415.709	234.425	239.166	409.605	184.238	469.309	386.128	416.004	212.627	0.00053604	0.00068284	0.000149	1301.4	3.6927e-06	8.1259e-07	1301.3	360.42	8.9797e-06	3.0358e-06	412.69	200.75	115.16	39.88	1.0593e-05	49.385	0.00065882	0.00066784	0.00018479	1330.5	7.2841e-06	7.2971e-06	1322.3	367.9	7.306e-06	7.2159e-06	421.59	203.78	119.19	41.192	7.4329e-06	51.322	193.424	280.529	225.540	172.260	349.408	335.607	171.954	176.733	301.628	320.886	176.505	177.161	180.762	185.718	255.461	185.002	-8191	255	
496.660	1	1	0	0	0.16268	0.15174	0.080445	0.11187	0.27941	0.11973	0.048454	0.40039	0.14988	0.10403	0.042234	0.21093	0.22264	0.18149	0.14155	0.16232	-2.7438	-3.4437	-3.0417	-3.3375	-3.275	-3.1875	-3.6333	-3.4729	-3.2833	-3.4271	-3.1792	-3.4313	-3.4771	-3.1875	-3.4583	-3.3208	458.610	471.556	396.113	395.397	379.245	412.575	198.435	485.857	383.857	284.676	367.740	218.057	193.236	508.995	331.779	368.330	0.0005894	0.00064793	0.00015372	1303.3	4.3125e-06	6.0724e-06	1295	358.72	5.6286e-06	1.4737e-06	413.18	200.21	116.26	39.75	7.2107e-06	49.396	0.00067096	0.00067698	0.00019046	1331.5	7.5311e-06	7.5508e-06	1320.7	367.68	7.5544e-06	7.5952e-06	423.15	203.11	119.58	41.088	7.642e-06	51.229	190.946	237.116	229.223	172.308	384.469	286.835	172.103	176.560	303.631	312.893	176.340	177.118	180.495	185.756	322.356	185.014	-8191	255	
496.756	1	1	0	0	0.13978	0.22561	0.16158	0.30859	0.0896	0.19009	0.26255	0.099566	0.15679	0.075991	0.1607	0.28715	0.20551	0.24017	0.05611	0.31571	-2.7604	-3.5146	-3.25	-3.3292	-3.3896	-3.3104	-3.4083	-3.4125	-3.2208	-3.4583	-3.2708	-3.3438	-3.4979	-3.2917	-3.4167	-3.4354	372.133	159.098	372.188	424.237	469.173	250.594	458.365	491.835	241.899	465.788	510.346	499.417	446.792	422.878	280.050	170.975	0.00053448	0.00066371	0.00013568	1302.6	1.1758e-05	3.9914e-06	1296.5	359.23	7.4703e-07	2.1777e-06	411.14	202.59	116.19	39.908	8.2624e-06	49.349	0.00069403	0.00069475	0.00019519	1333.8	7.6149e-06	7.7063e-06	1323.6	367.96	7.7122e-06	7.5573e-06	423.23	206.46	119.54	41.102	7.7215e-06	51.326	181.875	261.767	267.321	172.333	305.995	361.975	171.929	176.741	301.506	420.214	176.206	176.574	180.737	185.823	306.809	184.893	-8191	255	
496.876	1	1	0	0	0.11216	0.25058	0.15109	0.13234	0.096844	0.17862	0.069832	0.25892	0.25735	0.064741	0.13698	0.055798	0.17574	0.093697	0.2053	0.14084	-2.7667	-3.3833	-3.1896	-3.1792	-3.4479	-3.1521	-3.575	-3.4813	-3.0312	-3.525	-3.5292	-3.2979	-3.5396	-3.2292	-3.3271	-3.3917	232.788	413.332	504.296	467.800	230.397	344.955	252.808	160.371	399.146	233.453	190.303	355.295	165.655	208.590	433.714	516.968	0.0005465	2.9548e-05	0.00010675	1302.6	1.3498e-06	3.953e-06	1298.1	360.51	7.5877e-06	1.143e-06	412.71	202.4	115.45	39.782	5.5573e-06	49.618	0.000693	0.00070036	0.00019408	1334.3	7.557e-06	7.6376e-06	1323.5	368.62	7.7129e-06	7.6916e-06	423.71	206.5	119.48	41.173	7.7971e-06	51.408	194.491	501.930	234.562	172.213	255.476	362.157	171.820	176.782	286.374	241.780	176.248	176.773	180.711	185.548	279.544	184.910	-8191	255	
496.971	1	1	0	0	0.31088	0.17303	0.098359	0.14906	0.070716	0.12193	0.26335	0.10646	0.33968	0.19916	0.15359	0.095893	0.28137	0.16082	0.24172	0.095618	-2.7229	-3.325	-3.0917	-3.4813	-3.6333	-3.075	-3.5938	-3.5833	-3.175	-3.5104	-3.4042	-3.3354	-3.4854	-3.275	-3.3167	-3.4771	288.558	472.344	428.120	370.519	321.307	192.932	440.042	497.510	515.195	442.834	246.945	384.207	473.188	477.000	237.272	474.209	0.00054588	0.0005811	0.00013298	1293.5	6.8025e-06	5.5081e-06	1295.9	360.6	5.2645e-06	2.9459e-06	411.74	203.93	115.87	39.817	6.1579e-06	49.377	0.00070271	0.00072027	0.00020104	1332.5	7.9032e-06	7.8857e-06	1325.8	368.64	7.872e-06	7.9039e-06	423.8	207.14	119.61	41.167	8.033e-06	51.369	189.693	226.576	237.201	172.179	304.495	335.807	171.848	176.661	245.089	349.407	176.101	176.455	180.679	185.515	304.252	185.027	-8191	255	
497.069	1	1	0	0	0.16487	0.17638	0.23491	0.063975	0.069519	0.12962	0.14335	0.29951	0.35646	0.37615	0.11377	0.20274	0.21547	0.3289	0.076705	0.11684	-2.8333	-3.4417	-3.2417	-3.125	-3.3917	-3.225	-3.5542	-3.4292	-3.2042	-3.4083	-3.5042	-3.2417	-3.575	-3.1604	-3.1167	-3.5458	399.139	480.313	462.354	336.053	281.903	353.454	456.276	159.980	377.215	509.726	180.121	172.886	295.185	517.068	292.263	186.184	0.00054006	0.00024744	0.00014567	1293	4.02e-06	7.5883e-06	1297.6	359.72	2.9636e-06	6.7594e-06	413.28	203.27	115.53	39.77	7.1548e-06	49.217	0.00071961	0.00073704	0.0002069	1335.1	8.1085e-06	8.1271e-06	1326.7	368.77	8.0163e-06	8.129e-06	424.33	207.05	119.46	41.125	7.959e-06	51.329	182.528	503.569	256.927	172.056	290.109	243.850	172.023	176.779	305.401	316.635	176.241	176.690	180.654	185.699	293.342	184.825	-8191	255	
497.163	1	1	0	0	0.13659	0.26015	0.35024	0.13824	0.15652	0.14233	0.25669	0.122	0.11019	0.12047	0.13023	0.15031	0.25921	0.090686	0.051902	0.085321	-2.7833	-3.2521	-3.2479	-3.0583	-3.5187	-3.3125	-3.3875	-3.6917	-3.0896	-3.4604	-3.3563	-3.1667	-3.6292	-3.2938	-3.2042	-3.6688	486.590	164.921	248.935	201.661	437.314	241.552	438.913	466.150	383.262	177.317	500.442	184.297	195.242	268.871	329.839	426.563	0.00053245	0.001013	6.0041e-05	1293.5	3.0159e-06	2.1314e-06	1296.9	359.95	9.7834e-06	3.1611e-06	413.4	202.92	116.3	39.591	2.3383e-06	49.488	0.00071396	0.00072789	0.00020281	1336.6	7.8691e-06	7.9567e-06	1325.6	368.6	7.8996e-06	7.9933e-06	424.61	206.35	119.82	41.137	8.0236e-06	51.36	186.464	205.847	252.506	172.484	213.731	282.985	171.636	176.723	290.751	362.648	176.199	176.888	180.911	185.655	379.798	184.894	-8191	255	
497.259	1	1	0	0	0.088243	0.15859	0.23119	0.059426	0.12486	0.11139	0.13337	0.26561	0.16698	0.047338	0.15923	0.19502	0.20212	0.32901	0.13976	0.22167	-2.6583	-3.3354	-3.3792	-3.1437	-3.4292	-3.3438	-3.2604	-3.6771	-3.2208	-3.4625	-3.5292	-3.2604	-3.5875	-3.3104	-3.1958	-3.6792	460.751	387.544	258.831	494.990	183.696	331.484	434.180	478.638	198.458	344.901	178.644	440.618	397.756	456.133	218.460	488.413	0.00054662	0.00050334	8.5633e-05	1305	5.917e-06	6.1792e-06	1295.1	361.48	4.3238e-06	3.8131e-06	414.12	203.33	116.16	39.629	5.6841e-06	49.545	0.00072912	0.00074024	0.00020568	1340.9	8.0036e-06	7.9704e-06	1323	369.19	7.8755e-06	7.882e-06	424.52	206.57	119.92	41.159	7.8137e-06	51.334	194.806	322.098	272.893	172.180	283.712	348.345	171.934	176.463	283.262	373.213	176.079	176.812	180.415	185.727	291.783	184.924	-8191	255	
497.355	1	1	0	0	0.1668	0.17225	0.08651	0.066957	0.15688	0.22916	0.14489	0.23746	0.075071	0.022196	0.13333	0.22207	0.13747	0.28078	0.035765	0.054774	-2.55	-3.2521	-3.3667	-3.2188	-3.5625	-3.2833	-3.2604	-3.4729	-3.2875	-3.2313	-3.3521	-3.2583	-3.4771	-3.4146	-3.15	-3.5458	421.755	475.414	221.643	288.853	192.698	514.289	427.284	466.568	304.751	307.571	178.708	402.400	418.002	461.764	459.019	445.873	0.00053875	0.00031251	0.00017451	1294.7	5.0526e-06	7.2524e-06	1298.8	359.89	4.703e-06	3.2945e-06	413.06	201.99	115.85	39.917	6.3848e-06	49.315	0.00070713	0.00072772	0.00020124	1335.9	7.8063e-06	7.8689e-06	1326.9	368.72	7.8193e-06	7.8414e-06	424.1	205.21	119.49	41.176	7.8981e-06	51.353	188.180	322.449	256.182	172.173	293.655	299.227	171.728	176.643	291.123	310.589	176.329	176.879	180.707	185.782	264.939	184.974	-8191	255	
497.476	1	1	0	0	0.10399	0.26015	0.11682	0.15729	0.15373	0.1452	0.15653	0.11424	0.11435	0.22058	0.36549	0.033273	0.091629	0.14894	0.031511	0.09631	-3.0083	-3.1625	-3.5	-3.1646	-3.4792	-3.3125	-3.3354	-3.6479	-3.1042	-3.2729	-3.5354	-3.2208	-3.4938	-3.3125	-3.0396	-3.4917	410.935	425.950	228.194	272.960	290.761	503.708	415.795	447.257	333.660	478.701	416.063	182.955	254.698	514.393	404.876	384.232	0.00057267	0.00032983	6.4791e-05	1301.3	1.3509e-06	1.7764e-06	1299.9	361.07	6.7271e-06	4.7832e-06	414.54	201.71	115.77	39.663	3.4603e-06	49.325	0.000713	0.00072566	0.00020065	1338.1	8.0089e-06	7.9443e-06	1327.6	369.97	8.0408e-06	8.0569e-06	425.54	205.76	119.86	41.143	8.0538e-06	51.407	188.914	183.991	218.893	172.413	289.845	352.748	171.635	176.430	255.088	335.227	176.316	176.691	180.677	185.778	284.426	184.901	-8191	255	
497.572	1	1	0	0	0.12538	0.22768	0.19093	0.055037	0.0093705	0.18725	0.23934	0.1408	0.21676	0.15813	0.049277	0.096461	0.056917	0.1647	0.14692	0.24406	-2.8104	-3.1437	-3.5042	-3.1354	-3.4521	-3.5479	-3.2917	-3.6333	-3.2521	-3.1979	-3.5833	-3.2979	-3.2167	-3.4562	-3.1333	-3.4958	345.376	335.905	437.833	232.240	307.413	304.571	514.594	159.057	504.829	370.126	456.543	312.063	481.197	510.420	455.671	423.062	0.00051888	0.00052461	5.1864e-05	1304	5.7855e-06	1.7155e-06	1299.4	361.38	3.8212e-06	7.2101e-06	415.19	201.84	116.57	39.833	2.8299e-06	49.617	0.00073271	0.00074891	0.00020747	1343.5	8.241e-06	8.2147e-06	1329.6	369.87	8.2759e-06	8.2966e-06	426.27	206.44	120.23	41.244	8.218e-06	51.559	185.303	240.708	445.035	172.151	294.186	285.456	171.924	176.759	310.125	330.846	176.333	176.889	180.652	185.695	211.296	185.025	-8191	255	
497.668	1	1	0	0	0.17289	0.11828	0.23366	0.19032	0.055068	0.15969	0.36133	0.17028	0.30015	0.17149	0.22438	0.20658	0.14629	0.21895	0.071079	0.14798	-3.0958	-3.2021	-3.4042	-3.3333	-3.3812	-3.425	-3.3958	-3.6667	-3.3063	-3.2479	-3.7396	-3.2979	-3.3917	-3.4958	-3.0938	-3.3542	505.852	420.465	266.958	365.022	194.657	437.374	457.409	434.717	360.081	265.715	453.634	456.264	476.625	197.409	474.948	273.873	0.0006045	0.000543	0.00010371	1308.7	7.2208e-06	4.7656e-06	1302	362.42	3.3055e-06	9.0655e-06	414.46	201.87	116.13	39.922	5.7085e-07	49.609	0.00073902	0.00075638	0.00020909	1347.3	8.2401e-06	8.1689e-06	1329.5	370.73	8.1584e-06	8.1048e-06	426.45	205.31	120.22	41.278	8.0727e-06	51.495	196.242	226.963	256.899	172.264	317.713	292.004	172.000	176.672	323.368	315.007	176.075	176.991	180.869	185.778	327.734	185.021	-8191	255	
497.765	1	1	0	0	0.20692	0.073989	0.037937	0.061642	0.19837	0.05527	0.19571	0.24837	0.36725	0.18877	0.17897	0.14263	0.23425	0.16975	0.11238	0.15249	-3.15	-3.0646	-3.3688	-3.1167	-3.3083	-3.4104	-3.3625	-3.4521	-3.3979	-3.1146	-3.5083	-3.4125	-3.3021	-3.3563	-3.2042	-3.4396	169.718	171.545	492.804	215.740	332.372	408.743	503.032	403.933	410.079	179.297	437.968	225.838	392.496	175.429	317.364	307.695	0.00053712	0.00074949	8.5157e-05	1305.3	4.9672e-06	4.7224e-06	1301.3	362.05	4.4615e-06	1.6409e-06	414.28	202.44	116.22	39.998	4.9479e-06	49.341	0.0007149	0.00072484	0.00020251	1343.4	7.8963e-06	7.8981e-06	1330.3	370.6	8.0325e-06	8.0313e-06	426.22	206.27	120.15	41.281	8.0536e-06	51.458	191.912	189.008	355.959	172.217	268.154	398.449	171.900	176.496	276.768	482.843	176.203	177.024	180.661	185.726	303.637	184.831	-8191	255	
#DATA ENDS
