BOXY.EXE: ISS Imagent and Oximeter Data Acquisition Program Version 0.80
Ascii Record File

#ACQ INFORMATION
2  Detector Channels 
16  External MUX Channels 
1  Auxiliary Channels 
5000  Waveform (CCF) Frequency (Hz)
1  Waveforms Skipped 
30  Waveforms Averaged 
1  Cycles Averaged 
16  Acquisitions per Waveform 
10.0806  Updata Rate (Hz) 

#FILE INFORMATION
TRUE -- External MUX Channel results are PARSED.
FALSE -- AC DC and Phase are NOT grouped.
TRUE -- Companion Program Settings File CREATED.
FALSE -- AC data not excluded
FALSE -- DC data not excluded
FALSE -- Phase data not excluded
FALSE -- Auxillary Chn. data not excluded
Tab delimiters

#CALIBRATION STATE
TRUE -- Waveform Calibration Values APPLIED.


#AUX CALIBRATION VALUES
Val Type	aux-1	

Term	1.0000e+00	
Factor	0.0000e+00	


#WF CALIBRATION VALUES
A = Detector Channel
Val Type	A-AC1	A-AC2	A-AC3	A-AC4	A-AC5	A-AC6	A-AC7	A-AC8	A-AC9	A-AC10	A-AC11	A-AC12	A-AC13	A-AC14	A-AC15	A-AC16	A-DC1	A-DC2	A-DC3	A-DC4	A-DC5	A-DC6	A-DC7	A-DC8	A-DC9	A-DC10	A-DC11	A-DC12	A-DC13	A-DC14	A-DC15	A-DC16	A-Ph1	A-Ph2	A-Ph3	A-Ph4	A-Ph5	A-Ph6	A-Ph7	A-Ph8	A-Ph9	A-Ph10	A-Ph11	A-Ph12	A-Ph13	A-Ph14	A-Ph15	A-Ph16	

Term	0.00000e+00	0.00000e+00	0.00000e+00	0.00000e+00	0.00000e+00	0.00000e+00	0.00000e+00	0.00000e+00	0.00000e+00	0.00000e+00	0.00000e+00	0.00000e+00	0.00000e+00	0.00000e+00	0.00000e+00	0.00000e+00	0.00000e+00	0.00000e+00	0.00000e+00	0.00000e+00	0.00000e+00	0.00000e+00	0.00000e+00	0.00000e+00	0.00000e+00	0.00000e+00	0.00000e+00	0.00000e+00	0.00000e+00	0.00000e+00	0.00000e+00	0.00000e+00	0.00000e+00	0.00000e+00	0.00000e+00	0.00000e+00	0.00000e+00	0.00000e+00	0.00000e+00	0.00000e+00	0.00000e+00	0.00000e+00	0.00000e+00	0.00000e+00	0.00000e+00	0.00000e+00	0.00000e+00	0.00000e+00	
Factor	1.00000e+00	1.00000e+00	1.00000e+00	1.00000e+00	1.00000e+00	1.00000e+00	1.00000e+00	1.00000e+00	1.00000e+00	1.00000e+00	1.00000e+00	1.00000e+00	1.00000e+00	1.00000e+00	1.00000e+00	1.00000e+00	1.00000e+00	1.00000e+00	1.00000e+00	1.00000e+00	1.00000e+00	1.00000e+00	1.00000e+00	1.00000e+00	1.00000e+00	1.00000e+00	1.00000e+00	1.00000e+00	1.00000e+00	1.00000e+00	1.00000e+00	1.00000e+00	X	X	X	X	X	X	X	X	X	X	X	X	X	X	X	X	

B = Detector Channel
Val Type	B-AC1	B-AC2	B-AC3	B-AC4	B-AC5	B-AC6	B-AC7	B-AC8	B-AC9	B-AC10	B-AC11	B-AC12	B-AC13	B-AC14	B-AC15	B-AC16	B-DC1	B-DC2	B-DC3	B-DC4	B-DC5	B-DC6	B-DC7	B-DC8	B-DC9	B-DC10	B-DC11	B-DC12	B-DC13	B-DC14	B-DC15	B-DC16	B-Ph1	B-Ph2	B-Ph3	B-Ph4	B-Ph5	B-Ph6	B-Ph7	B-Ph8	B-Ph9	B-Ph10	B-Ph11	B-Ph12	B-Ph13	B-Ph14	B-Ph15	B-Ph16	

Term	0.00000e+00	0.00000e+00	0.00000e+00	0.00000e+00	0.00000e+00	0.00000e+00	0.00000e+00	0.00000e+00	0.00000e+00	0.00000e+00	0.00000e+00	0.00000e+00	0.00000e+00	0.00000e+00	0.00000e+00	0.00000e+00	0.00000e+00	0.00000e+00	0.00000e+00	0.00000e+00	0.00000e+00	0.00000e+00	0.00000e+00	0.00000e+00	0.00000e+00	0.00000e+00	0.00000e+00	0.00000e+00	0.00000e+00	0.00000e+00	0.00000e+00	0.00000e+00	-2.24060e+02	-1.11729e+02	-1.18567e+02	-1.84289e+02	-1.11961e+02	-6.00827e+01	-1.55886e+02	-1.62015e+02	-1.01531e+02	-6.74875e+01	-1.85687e+02	-1.70606e+02	-1.87784e+02	-1.76603e+02	-9.45758e+01	-1.49601e+02	
Factor	5.43509e-05	1.63650e-04	4.33084e-05	2.33733e-01	1.94758e-06	1.75263e-06	1.64518e-01	5.27251e-02	1.66082e-06	1.87297e-06	2.24341e-01	3.14586e-02	6.61009e-02	9.37024e-03	1.76255e-06	1.36036e-02	1.76928e-06	1.83696e-06	5.12401e-07	1.16323e-01	2.00414e-08	2.01515e-08	7.78427e-02	2.64679e-02	1.99929e-08	2.01544e-08	1.02877e-01	1.51848e-02	3.14592e-02	4.69440e-03	2.00290e-08	6.58755e-03	X	X	X	X	X	X	X	X	X	X	X	X	X	X	X	X	



#DISTANCE SETTINGS
A = Detector Channel
A-1	A-2	A-3	A-4	A-5	A-6	A-7	A-8	A-9	A-10	A-11	A-12	A-13	A-14	A-15	A-16	

2.5000e+00	3.0000e+00	2.5000e+00	3.0000e+00	2.0000e+00	3.0000e+00	1.5000e+00	3.0000e+00	3.0000e+00	3.0000e+00	3.0000e+00	3.0000e+00	3.0000e+00	3.0000e+00	1.5000e+00	3.0000e+00	

B = Detector Channel
B-1	B-2	B-3	B-4	B-5	B-6	B-7	B-8	B-9	B-10	B-11	B-12	B-13	B-14	B-15	B-16	

1.0000e+01	1.0000e+01	1.0000e+01	1.4400e+00	1.0000e+01	1.0000e+01	1.5100e+00	1.9400e+00	1.0000e+01	1.0000e+01	1.9900e+00	2.4900e+00	2.4100e+00	2.9000e+00	1.0000e+01	2.9800e+00	




#DATA BEGINS
time	group	step	mark	flag	A-AC1	A-AC2	A-AC3	A-AC4	A-AC5	A-AC6	A-AC7	A-AC8	A-AC9	A-AC10	A-AC11	A-AC12	A-AC13	A-AC14	A-AC15	A-AC16	A-DC1	A-DC2	A-DC3	A-DC4	A-DC5	A-DC6	A-DC7	A-DC8	A-DC9	A-DC10	A-DC11	A-DC12	A-DC13	A-DC14	A-DC15	A-DC16	A-Ph1	A-Ph2	A-Ph3	A-Ph4	A-Ph5	A-Ph6	A-Ph7	A-Ph8	A-Ph9	A-Ph10	A-Ph11	A-Ph12	A-Ph13	A-Ph14	A-Ph15	A-Ph16	B-AC1	B-AC2	B-AC3	B-AC4	B-AC5	B-AC6	B-AC7	B-AC8	B-AC9	B-AC10	B-AC11	B-AC12	B-AC13	B-AC14	B-AC15	B-AC16	B-DC1	B-DC2	B-DC3	B-DC4	B-DC5	B-DC6	B-DC7	B-DC8	B-DC9	B-DC10	B-DC11	B-DC12	B-DC13	B-DC14	B-DC15	B-DC16	B-Ph1	B-Ph2	B-Ph3	B-Ph4	B-Ph5	B-Ph6	B-Ph7	B-Ph8	B-Ph9	B-Ph10	B-Ph11	B-Ph12	B-Ph13	B-Ph14	B-Ph15	B-Ph16	aux-1	digaux	

1209.790	1	1	0	768	0.27739	0.077751	0.080373	0.1394	0.091168	0.068539	0.21958	0.15625	0.19946	0.13676	0.26351	0.098265	0.20249	0.28428	0.10424	0.16983	-1.6896	-2.3729	-1.7042	-2.1688	-2.2958	-2.0396	-2.2521	-2.0125	-1.9208	-2.4104	-2.0104	-2.1458	-2.1937	-1.8917	-2.325	-1.7938	179.217	-19.698	114.959	194.120	217.696	159.895	248.310	162.305	189.297	179.393	-58.556	167.965	125.724	231.888	12.472	186.972	0.00043724	0.00049344	0.00016115	1328.8	3.7946e-06	3.6433e-06	1339.8	359.65	4.5241e-06	4.7143e-06	419.3	142	120.86	42.372	7.1742e-06	52.78	0.00053297	0.00052644	0.00014808	1341.1	5.793e-06	5.7183e-06	1352.3	365.78	5.8035e-06	5.817e-06	423.72	144.44	123.63	43.24	5.6647e-06	53.896	77.710	62.502	60.720	-63.494	105.543	64.921	-63.646	-58.770	-22.684	104.974	-59.152	-54.868	-54.361	-49.780	38.624	-50.675	-8191	255	
1209.886	1	1	0	0	0.092129	0.26269	0.10976	0.26203	0.28345	0.039147	0.20751	0.20818	0.12187	0.22186	0.20886	0.16097	0.17086	0.2601	0.22387	0.14912	-1.5521	-2.3312	-1.8375	-2.2375	-2.3042	-1.6604	-2.4083	-2.175	-2.0687	-2.3417	-2.0125	-2.3542	-2.2583	-1.8292	-2.1875	-2.2271	79.023	-33.029	27.458	227.999	218.805	30.479	265.594	49.330	51.110	57.004	162.679	220.656	236.657	-14.472	168.024	106.245	0.00047294	0.00087872	9.3652e-05	1333.6	1.6719e-06	4.3047e-06	1336	361.5	4.2167e-06	8.2488e-06	418.39	141.77	121.59	42.381	7.8878e-06	52.755	0.00051776	0.00051703	0.00014351	1342	5.6541e-06	5.6652e-06	1350.6	366.7	5.648e-06	5.6619e-06	422.91	144.53	123.38	43.243	5.6755e-06	53.922	80.371	35.873	22.104	-63.222	98.293	105.392	-63.219	-58.710	48.202	73.505	-59.142	-54.858	-54.587	-49.810	68.918	-50.548	-8191	255	
1209.983	1	1	0	0	0.2653	0.099454	0.063001	0.31752	0.134	0.10661	0.24544	0.44522	0.090946	0.24972	0.30579	0.091247	0.11607	0.10699	0.30556	0.30607	-1.5417	-2.3292	-2.0458	-2.1104	-2.2125	-1.8479	-2.6417	-2.2313	-1.7437	-2.35	-2.1813	-2.0354	-2.0687	-2.0521	-2.2333	-2.2854	91.694	190.425	183.083	247.229	63.443	141.792	210.272	217.935	26.895	47.974	-74.911	164.195	156.058	178.629	144.242	199.943	0.00070652	0.00065591	0.0001113	1332.4	6.9765e-06	4.8363e-06	1340.9	361.16	5.4702e-06	6.808e-06	418.08	142.3	122.11	42.538	1.8641e-06	52.801	0.00052524	0.00052008	0.00014569	1342.9	5.7128e-06	5.7327e-06	1354.3	366.72	5.7087e-06	5.7487e-06	422.52	144.73	123.83	43.359	5.6688e-06	53.924	76.467	1.315	33.799	-63.148	47.455	126.450	-63.530	-58.623	93.924	11.308	-59.225	-55.035	-54.890	-49.776	50.637	-50.248	-8191	255	
1210.079	1	1	0	0	0.079537	0.15194	0.26049	0.3801	0.1436	0.36411	0.33306	0.3555	0.20042	0.18724	0.095314	0.044029	0.23798	0.070409	0.16067	0.13249	-1.2729	-1.9708	-1.9	-2.1146	-2.3937	-1.9521	-2.4375	-2.3479	-1.8271	-2.2	-1.8896	-1.7833	-2.2292	-2.0292	-2.2104	-2.3979	3.708	262.274	92.507	255.137	49.360	113.496	225.497	-72.716	257.035	29.393	237.693	281.019	220.328	236.006	95.364	-10.658	0.00040794	0.00038069	0.0002011	1337.2	2.2737e-06	4.7561e-06	1341.6	361.78	4.088e-06	8.3568e-06	419.42	142.62	121.33	42.589	4.4925e-06	52.873	0.00052207	0.00051854	0.00014394	1345.4	5.6971e-06	5.7377e-06	1355.4	366.85	5.7079e-06	5.6771e-06	423.67	145.05	123.98	43.453	5.6653e-06	54.08	51.727	10.059	10.555	-63.157	-61.765	129.774	-63.212	-58.527	38.690	49.963	-58.972	-54.903	-54.587	-49.585	141.536	-50.496	-8191	255	
1210.175	1	1	0	0	0.1346	0.13654	0.38398	0.21017	0.18269	0.32058	0.25207	0.30835	0.18458	0.13112	0.28452	0.22542	0.37464	0.38423	0.13958	0.16947	-1.2875	-2.2562	-2.0833	-2.0167	-2.3604	-1.7708	-2.1604	-2.5375	-1.9167	-2.1646	-1.9771	-2.1333	-2.3854	-1.8771	-1.9354	-2.2667	154.814	-7.501	46.698	225.153	42.539	-35.159	265.099	217.196	129.665	-18.557	193.406	-25.723	159.522	205.527	-60.744	172.501	0.00049738	0.00069211	0.0001128	1333	4.5022e-06	3.123e-06	1336.6	361.98	2.1954e-06	4.3951e-06	420.42	142.42	121.89	42.478	2.6e-06	52.777	0.00052016	0.00051439	0.0001447	1346	5.7139e-06	5.742e-06	1355.1	367.32	5.7156e-06	5.728e-06	424.24	145.01	123.99	43.43	5.754e-06	53.927	72.997	84.768	50.363	-63.254	-45.781	145.255	-63.466	-58.501	-22.806	168.878	-59.033	-54.893	-54.612	-49.938	87.697	-50.450	-8191	255	
1210.271	1	1	0	0	0.21429	0.13626	0.14965	0.053343	0.17834	0.198	0.22922	0.43925	0.095234	0.18747	0.1299	0.20825	0.11798	0.14784	0.056311	0.20677	-1.3854	-2.1458	-2.3	-1.8833	-2.2438	-1.8583	-2.0167	-2.4458	-1.7938	-1.9958	-2.2021	-2.0521	-2.375	-2.1417	-1.8708	-2.3271	246.538	-32.234	223.859	276.174	197.952	63.590	270.079	183.593	130.414	-18.488	257.225	264.385	117.273	140.480	7.119	-31.287	0.00037592	0.00051772	0.00012	1335.6	5.7577e-06	7.0377e-06	1343.3	362.92	2.1513e-06	4.3507e-06	418.41	142.33	122.44	42.674	3.7049e-06	52.871	0.00053544	0.00053232	0.00014751	1345.6	5.8331e-06	5.8186e-06	1356.8	367.86	5.7392e-06	5.7818e-06	424.43	144.91	124.07	43.535	5.7919e-06	54.042	81.478	36.579	67.036	-63.258	37.857	31.132	-63.554	-58.689	111.910	86.858	-59.368	-54.771	-54.557	-49.763	-50.712	-50.687	-8191	255	
1210.392	1	1	0	0	0.11991	0.16458	0.14014	0.3754	0.05535	0.13229	0.38116	0.18695	0.075227	0.14025	0.07095	0.31258	0.29814	0.073188	0.21134	0.14282	-1.6271	-1.8896	-2.0958	-1.7604	-2.3458	-2.0333	-2.1688	-2.4	-1.5875	-2.1854	-2.3208	-1.9958	-2.125	-1.9688	-1.8708	-2.3688	60.516	-14.141	189.951	255.447	38.582	64.508	226.759	235.261	-69.732	129.258	72.303	208.025	-27.007	175.564	221.228	235.772	0.00046301	0.00051602	4.0529e-05	1338.4	6.5584e-06	4.1458e-06	1341.3	362.16	1.1475e-06	9.8873e-06	420.09	142.6	121.61	42.412	2.0087e-06	53.073	0.00052623	0.00052305	0.00014553	1348.2	5.676e-06	5.7061e-06	1357.9	367.17	5.6267e-06	5.6383e-06	423.86	145.32	123.83	43.377	5.583e-06	54.118	83.941	-1.412	116.587	-63.570	4.719	78.274	-63.427	-58.719	-55.422	83.762	-58.927	-54.740	-54.129	-49.965	271.654	-50.343	-8191	255	
1210.488	1	1	0	0	0.028137	0.16056	0.29072	0.43581	0.11079	0.12508	0.27713	0.29165	0.10943	0.087329	0.31665	0.082366	0.24686	0.071223	0.117	0.18514	-1.6271	-2.1833	-2.0396	-1.9479	-2.1312	-2.0375	-2.0042	-2.2104	-1.9708	-2.2396	-2.3104	-1.8167	-2.1375	-2.1688	-1.8875	-2.3042	169.830	148.890	265.562	247.616	-62.365	125.060	261.481	215.425	183.459	231.547	-57.845	241.983	-49.965	220.172	227.090	213.334	0.00057557	0.00083534	0.00014599	1332.1	6.6691e-06	6.0969e-06	1344	361.76	4.5873e-06	9.1687e-06	418.39	142.58	121.32	42.584	4.0375e-06	53.151	0.00050943	0.00050602	0.00014094	1342.8	5.4735e-06	5.4644e-06	1355	366.29	5.4561e-06	5.3901e-06	421.84	144.58	123.43	43.275	5.3117e-06	53.874	66.438	9.865	-1.887	-63.194	28.028	123.866	-63.469	-58.532	127.128	90.147	-59.475	-54.781	-54.309	-49.605	15.236	-50.194	-8191	255	
1210.582	1	1	0	0	0.22133	0.21732	0.18541	0.1413	0.20941	0.24184	0.20722	0.098292	0.1478	0.22096	0.078312	0.10885	0.18982	0.12989	0.16799	0.070073	-1.4125	-1.825	-2.3	-1.975	-1.9667	-2.1271	-2.0792	-2.4625	-1.7646	-2.1979	-2.3333	-1.8042	-2.1333	-2.3667	-1.9646	-2.275	-33.879	142.998	141.348	-9.956	50.168	138.077	-73.068	206.308	128.608	48.734	274.527	244.232	171.707	180.603	130.596	187.243	0.000585	0.00046595	9.8295e-05	1328.6	6.258e-06	3.1601e-06	1338.6	360.06	2.9813e-06	6.8563e-06	415.83	142.36	121.54	42.356	2.1357e-06	52.59	0.00048323	0.00047542	0.00013266	1337.9	5.1936e-06	5.1868e-06	1348.3	365.18	5.1429e-06	5.0894e-06	419.15	144.02	122.23	43.098	5.007e-06	53.491	70.202	-42.543	64.877	-63.083	42.792	105.492	-63.473	-58.466	131.989	78.855	-58.947	-54.622	-54.300	-49.478	65.763	-50.166	-8191	255	
1210.680	1	1	0	0	0.28432	0.096402	0.14302	0.11114	0.21636	0.012663	0.1466	0.084103	0.27227	0.18452	0.07267	0.080082	0.2326	0.21135	0.25745	0.1451	-1.4333	-1.8104	-2.2104	-2.2104	-2.2646	-2.2792	-1.975	-2.3771	-1.8042	-1.8604	-2.4	-2.1708	-2.1021	-2.3479	-1.7729	-2.6208	35.959	-49.657	230.584	173.769	41.530	114.341	204.604	147.056	-9.924	98.503	37.588	188.630	257.285	214.966	125.015	-41.429	0.00027446	0.00080002	0.00012588	1321.5	3.8822e-06	2.9417e-06	1329.8	358.16	6.4562e-06	3.0615e-06	412.14	140.43	119.7	41.755	6.5492e-06	52.046	0.00046137	0.00044927	0.00012611	1331	4.8845e-06	4.8516e-06	1337.1	362.31	4.7972e-06	4.7605e-06	414.61	142.12	120.61	42.401	4.8252e-06	52.802	85.271	40.502	33.885	-63.012	66.697	93.405	-63.158	-58.338	3.719	-31.220	-58.543	-54.501	-54.195	-49.402	42.947	-50.365	-8191	255	
1210.774	1	1	0	0	0.16674	0.13449	0.15611	0.19978	0.20313	0.18417	0.22109	0.34039	0.1731	0.13628	0.2443	0.20838	0.10962	0.077228	0.22918	0.35026	-1.8708	-1.7062	-2.0417	-2.15	-2.0187	-2.3688	-2.1312	-2.1771	-2.1562	-1.7458	-2.2771	-2.0021	-2.2646	-2.4792	-2.0146	-2.35	200.862	-17.445	89.210	254.890	-68.671	112.595	195.854	209.642	-36.198	202.047	200.697	246.879	250.141	162.632	-62.079	181.209	0.00051232	0.0006617	2.875e-05	1319.7	6.6488e-06	5.1444e-06	1314.7	356.89	2.0066e-06	5.1846e-06	412.6	139.02	118.05	41.269	5.0765e-06	51.771	0.00044867	0.00044512	0.00012353	1321.7	4.9624e-06	4.9784e-06	1328.8	361.05	4.9874e-06	4.9619e-06	414.01	141.09	120	42.084	5.0582e-06	52.549	73.501	29.720	49.163	-63.156	5.965	102.844	-63.300	-58.221	-39.167	152.110	-58.888	-54.605	-54.493	-49.424	-1.732	-50.225	-8191	255	
1210.871	1	1	0	0	0.061582	0.15552	0.073609	0.25075	0.16914	0.26895	0.14065	0.42975	0.13852	0.3416	0.075096	0.20991	0.23047	0.14256	0.14947	0.26829	-1.6729	-1.5229	-2.2833	-2.1354	-1.9417	-2.3125	-2.0521	-2.1125	-2.2792	-1.8604	-2.3229	-2.0312	-1.8813	-2.2125	-1.7458	-2.3208	279.506	190.908	243.818	226.781	4.865	265.368	226.040	221.326	89.408	42.691	102.926	229.558	11.984	213.003	271.268	257.427	0.00049474	0.00040647	0.00030818	1313.6	5.1955e-06	3.6193e-06	1319.6	355.68	7.1586e-06	7.8031e-06	413.24	139.97	118.57	41.21	1.1284e-06	51.665	0.00046711	0.00046035	0.00012916	1319.1	5.0859e-06	5.0672e-06	1328.9	360.04	4.9714e-06	4.9986e-06	413.33	141.2	119.91	42.034	5.0539e-06	52.651	80.699	1.739	41.886	-62.925	38.049	118.336	-63.295	-58.121	-38.364	95.969	-58.846	-54.347	-53.925	-49.326	84.548	-50.074	-8191	255	
1210.967	1	1	0	0	0.35973	0.10925	0.23582	0.12156	0.21239	0.07073	0.069851	0.17444	0.076643	0.088794	0.14838	0.093457	0.14386	0.081845	0.13303	0.15472	-1.6333	-1.8104	-1.9333	-2.1437	-2.1312	-2.2146	-2.0979	-2.05	-1.875	-1.6042	-2.3375	-2.3438	-1.7687	-2.2854	-2.0125	-2.2938	262.330	-19.640	-56.719	215.366	165.994	175.573	256.080	203.540	26.090	120.907	245.996	44.277	246.249	277.300	183.813	278.649	0.0004652	0.00039302	7.9168e-05	1308.3	2.0315e-06	5.7514e-06	1315.6	357.03	1.2651e-06	7.0456e-06	411.79	139.67	119.01	41.253	4.4042e-06	51.523	0.00046346	0.00046305	0.00012895	1318.9	5.0765e-06	5.0498e-06	1328.7	360.85	5.0857e-06	5.0583e-06	413.57	141.02	119.99	42.07	4.9919e-06	52.55	78.029	62.413	38.156	-62.880	247.951	76.541	-63.188	-58.178	120.452	56.791	-58.528	-54.313	-54.228	-49.163	80.520	-49.957	-8191	255	
1211.087	1	1	0	0	0.18592	0.16524	0.218	0.3026	0.12694	0.045536	0.11556	0.3822	0.27176	0.048916	0.14603	0.12027	0.16665	0.29789	0.11428	0.13834	-1.95	-1.5833	-2.1896	-2.1375	-1.8979	-2.4833	-1.8021	-2.1688	-2.4354	-1.9833	-2.1437	-2.2625	-1.6938	-2.2062	-1.9708	-1.9458	19.333	24.073	101.894	231.282	178.516	133.357	45.506	239.066	-42.998	-46.826	-70.727	184.713	280.454	272.921	94.718	151.468	0.00044093	0.00024746	0.00011662	1310.1	3.9898e-06	2.5528e-06	1319.4	357.52	1.0139e-06	7.8003e-06	410.82	138.98	118.84	41.474	7.1284e-06	51.663	0.00046745	0.00045537	0.00012598	1320.4	4.9316e-06	4.9502e-06	1329.2	360.85	4.9012e-06	4.9352e-06	412.62	141.01	119.72	42.152	4.9067e-06	52.583	80.763	64.846	11.998	-62.897	69.116	129.728	-63.198	-58.348	268.841	27.975	-58.754	-54.208	-54.266	-49.344	98.306	-49.985	-8191	255	
1211.184	1	1	0	0	0.1852	0.18343	0.12628	0.20644	0.22386	0.25465	0.26483	0.41355	0.13527	0.18027	0.27497	0.13181	0.035968	0.15007	0.13768	0.13012	-1.9625	-2.0583	-2.0938	-2.5458	-1.9958	-2.3125	-2.0375	-1.8	-2.3042	-1.9604	-2.125	-2.3812	-1.95	-2.3417	-1.9521	-1.9667	-5.568	121.534	50.050	200.968	-72.400	89.656	218.134	152.484	132.750	65.309	242.628	7.499	-48.245	-54.645	14.671	207.192	0.0004342	7.1364e-06	5.5739e-05	1310	3.7296e-06	4.3305e-06	1314.6	355.36	3.6652e-06	9.2336e-06	410.06	138.78	118.54	41.284	8.1414e-06	51.758	0.00044865	0.0004433	0.00012452	1318.1	4.9017e-06	4.8119e-06	1325	359.64	4.8448e-06	4.8436e-06	411.68	140.64	119.58	41.956	4.8404e-06	52.535	84.157	-59.746	29.890	-62.919	62.264	73.445	-63.007	-58.229	19.911	76.917	-58.273	-54.447	-53.914	-49.144	14.919	-50.019	-8191	255	
1211.280	1	1	0	0	0.19978	0.12021	0.17958	0.22551	0.13267	0.25054	0.27839	0.21891	0.054837	0.16723	0.08068	0.3039	0.28056	0.035963	0.026378	0.19253	-1.8417	-1.8833	-1.9604	-2.5125	-1.8417	-2.2812	-2.4958	-2.1604	-2.1312	-2.0146	-2.1521	-2.3271	-1.8125	-2.1917	-2.0021	-1.9229	35.465	19.846	42.999	39.851	107.725	104.895	-75.934	185.360	234.425	67.014	-3.989	276.860	-25.298	174.602	-28.025	-67.295	0.00045549	0.00050603	6.7068e-05	1306.3	1.0587e-07	7.3516e-06	1312.1	355.16	6.7631e-06	2.1612e-06	413.4	138.57	118.29	41.273	5.2405e-06	51.585	0.00044898	0.00044799	0.00012333	1315.9	4.8281e-06	4.7956e-06	1321.5	359.28	4.8224e-06	4.802e-06	412.79	140.34	119.27	41.903	4.8403e-06	52.289	66.363	75.735	98.939	-62.506	-52.935	112.013	-62.733	-57.976	104.629	75.814	-58.229	-54.423	-53.421	-48.803	55.960	-49.303	-8191	255	
1211.351	1	1	0	0	0.17398	0.22603	0.059275	0.21078	0.13812	0.083875	0.0632	0.024647	0.093594	0.16836	0.17721	0.29369	0.12768	0.2049	0.20448	0.13567	-1.9062	-1.775	-2.0021	-2.4104	-1.7875	-2.2062	-2.4625	-1.8875	-2.1958	-2.1292	-1.9438	-2.2	-2.0687	-2.3042	-2.2646	-2.125	2.999	144.350	-60.952	59.187	58.067	-32.068	-69.223	260.642	-16.223	31.015	15.104	242.301	-14.132	226.143	103.822	136.335	0.00041081	0.0005596	4.4496e-05	1306.2	5.2223e-06	5.9477e-06	1310.3	354.97	4.7014e-06	6.8984e-06	411.93	138.19	118.24	41.176	5.3017e-06	51.24	0.00044511	0.00043826	0.0001236	1312.1	4.8517e-06	4.8144e-06	1320.6	358.76	4.8793e-06	4.8835e-06	412.32	140.18	119.27	41.785	4.8896e-06	52.284	89.314	49.226	-35.319	-63.060	125.133	143.533	-63.144	-58.413	-36.564	66.908	-59.256	-54.714	-54.349	-49.335	78.042	-50.188	-8191	255	
1211.472	1	1	0	0	0.13599	0.10168	0.1081	0.21302	0.31834	0.10545	0.18259	0.024653	0.21683	0.31548	0.22664	0.099018	0.12114	0.22547	0.096487	0.25103	-1.9542	-1.9146	-1.7667	-2.3208	-1.5229	-1.9833	-2.3833	-2.0667	-2.2333	-2.075	-1.8854	-2.25	-1.8271	-2.1896	-2.3021	-1.8062	172.026	247.572	234.337	243.409	164.782	-22.107	-77.325	-74.237	9.821	-68.521	224.090	64.597	80.003	-34.285	-11.500	-77.587	0.00028473	0.00040056	9.6882e-05	1306.5	7.8902e-06	6.5963e-06	1306.7	353.68	4.4751e-06	6.2718e-06	408.46	137.35	118.16	41.201	3.2562e-06	51.345	0.00045382	0.00044774	0.00012538	1311.7	4.9246e-06	4.9705e-06	1321.3	358.51	4.9595e-06	4.9213e-06	412.09	139.83	119.34	41.748	4.8847e-06	52.292	62.779	-2.678	68.953	-63.320	53.659	78.791	-64.704	-59.898	15.592	113.763	-60.409	-55.777	-55.177	-50.791	44.077	-50.963	-8191	255	
1211.568	1	1	0	0	0.057327	0.21596	0.36839	0.037367	0.23545	0.11631	0.14372	0.086852	0.13955	0.10753	0.20531	0.10216	0.17	0.20751	0.17302	0.06773	-1.9417	-1.9562	-1.8	-2.45	-1.5708	-2.2	-2.4062	-1.9792	-2.3271	-2.1271	-1.8354	-2.2667	-1.7729	-1.9312	-2.2667	-1.8083	9.373	36.502	219.090	16.513	103.331	106.420	200.433	271.444	126.319	265.261	254.842	49.308	270.609	-40.344	59.133	106.715	0.00034482	0.00058399	6.283e-05	1300.9	5.5933e-06	2.9806e-06	1306.9	354.09	7.1097e-06	3.7573e-06	407.33	137.29	116.53	41.12	3.4857e-06	51.427	0.00045274	0.00044399	0.00012375	1310.1	4.8313e-06	4.8383e-06	1320.1	358.27	4.8454e-06	4.8353e-06	410.86	139.8	118.75	41.757	4.7862e-06	52.17	67.925	-68.232	70.817	-63.891	13.720	60.133	-64.514	-59.602	-70.937	50.972	-60.024	-55.944	-55.411	-50.696	33.883	-51.629	-8191	255	
1211.663	1	1	0	0	0.071304	0.28891	0.17238	0.27405	0.036815	0.15435	0.17909	0.31086	0.50254	0.25779	0.060454	0.12239	0.11692	0.12854	0.2606	0.084064	-1.5146	-1.9021	-1.7437	-2.3354	-1.9333	-1.9021	-2.2646	-1.7375	-2.0458	-2.2562	-1.6896	-2.1854	-2.0687	-2.175	-2.2687	-1.9208	49.681	83.613	54.348	257.622	129.078	19.296	178.801	205.099	116.371	224.270	242.326	272.822	205.371	182.424	180.952	-70.623	0.00050483	0.00044785	9.8822e-05	1299.1	6.44e-06	5.5589e-06	1306	353.33	1.5812e-06	3.1784e-06	411.3	138.02	117.49	41.005	4.5498e-06	51.112	0.00044155	0.00044283	0.0001235	1307	4.8149e-06	4.8624e-06	1319.4	358.14	4.8708e-06	4.9044e-06	411.69	139.72	118.71	41.751	4.8002e-06	52.184	79.147	49.154	29.899	-64.287	58.874	66.464	-64.423	-59.755	-59.678	126.526	-59.968	-55.822	-55.575	-50.630	-25.558	-51.465	-8191	255	
1211.760	1	1	0	0	0.19772	0.19852	0.20682	0.21088	0.14892	0.089708	0.32504	0.40015	0.13849	0.42384	0.034732	0.28454	0.1898	0.24383	0.15148	0.23768	-1.5396	-2.0479	-1.725	-2.3021	-2.0708	-1.8708	-2.8167	-2.175	-2.0479	-2.2542	-1.575	-2.2042	-1.9979	-2	-2.1188	-2.1312	105.953	180.553	-41.122	218.442	282.388	-5.611	188.686	263.827	12.797	92.327	261.785	-56.790	132.132	189.484	77.570	254.764	0.00038116	0.00035753	0.00014742	1297.2	4.3572e-06	5.3928e-06	1302.8	353.21	1.692e-06	7.5884e-06	411.72	137.83	117.57	41.01	5.3733e-06	51.135	0.00043565	0.00043766	0.0001222	1306.1	4.7666e-06	4.7673e-06	1316.2	357.51	4.7669e-06	4.7402e-06	411.71	139.68	118.76	41.709	4.7559e-06	52.098	81.055	138.686	36.529	-64.274	-18.345	55.085	-64.500	-59.474	225.304	68.888	-60.272	-56.146	-55.559	-50.469	66.289	-51.291	-8191	255	
1211.879	1	1	0	0	0.22714	0.078078	0.37701	0.20869	0.14237	0.15341	0.28137	0.24939	0.21479	0.13552	0.098394	0.2579	0.060156	0.26626	0.33721	0.20907	-1.7771	-2.2979	-1.7708	-2.4875	-2.1083	-2.0208	-2.5208	-2.2208	-1.8542	-2.0958	-1.9542	-2.2875	-2.1292	-1.9479	-2.2104	-2.1188	190.929	71.166	11.131	85.053	99.478	33.033	227.878	187.749	-1.008	104.757	245.571	206.524	177.311	274.352	-20.650	-36.563	0.00047814	0.00074871	0.00014441	1301.3	4.9672e-06	5.5309e-06	1305.9	353.47	4.9259e-06	6.5586e-06	410.64	137.34	117.64	40.844	2.9084e-06	51.191	0.0004386	0.00043957	0.00012154	1307.6	4.774e-06	4.8011e-06	1316.3	357.37	4.7594e-06	4.7297e-06	409.28	139.17	118.45	41.661	4.7337e-06	52.052	82.309	12.040	26.930	-64.173	-14.032	-38.901	-64.257	-59.613	72.776	98.173	-59.842	-55.889	-55.331	-50.216	85.293	-50.936	-8191	255	
1211.951	1	1	0	0	0.1054	0.17913	0.11014	0.20693	0.20666	0.090301	0.44153	0.11025	0.25917	0.1356	0.1312	0.084143	0.0063943	0.14436	0.07414	0.10709	-1.6021	-2.1625	-1.6896	-1.9937	-2.0521	-1.5417	-2.45	-2.1104	-1.8229	-2.3667	-1.7896	-2.0479	-2.1688	-1.8604	-2.2021	-2.1958	44.702	223.209	170.790	-63.304	183.907	212.015	238.758	4.713	277.900	52.270	-28.162	-62.414	69.243	95.056	145.259	52.518	0.00046439	0.00046587	0.00010852	1297.9	4.9916e-06	4.2367e-06	1304.7	353.4	2.6458e-06	8.7586e-06	406.68	137.52	117.24	40.917	4.3651e-06	50.915	0.00044064	0.00043811	0.00012213	1306.8	4.8012e-06	4.7809e-06	1316.5	357.4	4.7886e-06	4.7509e-06	409.13	139.29	118.47	41.62	4.7341e-06	51.957	71.071	37.538	-13.399	-63.852	43.646	74.564	-64.343	-59.758	-70.936	87.770	-60.026	-55.922	-55.721	-50.641	62.598	-51.166	-8191	255	
1212.072	1	1	0	0	0.12273	0.33089	0.1839	0.057685	0.09786	0.2357	0.045468	0.19993	0.23328	0.081246	0.10045	0.42239	0.16116	0.21173	0.18442	0.22202	-1.225	-2.2979	-2.0354	-2.1854	-2.1542	-1.9062	-2.4542	-2.1104	-1.8521	-2.2812	-1.9417	-2.0146	-2.3271	-1.9208	-2.175	-1.9021	6.750	91.739	-77.373	72.289	-43.285	102.324	54.819	226.674	116.155	-3.913	240.036	231.674	-50.690	212.475	94.753	198.296	0.00040648	0.00019377	0.00024181	1296.7	8.7583e-06	1.3129e-05	1306.2	352.97	2.7296e-06	5.2213e-06	409.92	136.69	117.02	40.649	9.0076e-07	50.981	0.00044107	0.00043382	0.00012047	1304.5	4.7711e-06	4.7594e-06	1314.6	356.46	4.7679e-06	4.8221e-06	409.71	139.11	117.86	41.423	4.7391e-06	51.822	79.103	42.611	18.968	-64.256	100.861	40.424	-64.297	-59.414	46.482	136.240	-59.765	-55.677	-55.004	-50.211	162.752	-50.932	-8191	255	
1212.168	1	1	0	0	0.18752	0.022778	0.23502	0.18384	0.15473	0.13363	0.24022	0.093238	0.17256	0.32528	0.25105	0.29826	0.25115	0.31984	0.125	0.12048	-1.1083	-2.0958	-1.7375	-2.0479	-2.0729	-1.6479	-2.2812	-2.1833	-1.8333	-2.3896	-2.1167	-1.9917	-2.175	-2.0208	-1.9979	-2.1667	-5.139	264.902	201.647	154.459	163.835	127.620	188.954	6.683	168.594	50.210	100.358	200.068	208.354	233.529	132.680	155.969	0.00036726	0.00084165	2.829e-05	1296.2	5.1705e-06	4.1345e-06	1297.4	350.48	3.0818e-06	3.7611e-06	407.69	136.89	115.89	40.632	8.6011e-06	50.521	0.00043912	0.00043656	0.00012308	1301.4	4.8166e-06	4.8024e-06	1309.5	354.9	4.8031e-06	4.7782e-06	408.06	138.54	117.53	41.289	4.7318e-06	51.616	94.382	45.953	202.598	-63.776	57.779	60.765	-63.798	-59.457	106.389	12.729	-60.431	-55.883	-55.431	-50.739	43.672	-51.277	-8191	255	
1212.264	1	1	0	0	0.2034	0.16198	0.17519	0.28848	0.23556	0.047168	0.19063	0.12577	0.14617	0.43999	0.12666	0.22824	0.12543	0.21019	0.17658	0.29519	-1.3208	-2.0792	-1.8458	-1.9062	-2.0729	-1.6146	-2.2062	-2.2938	-1.7396	-2.3083	-2.2083	-2.0708	-2.3333	-1.925	-2.1771	-2.2396	273.051	133.619	265.987	-22.053	201.077	-66.743	262.689	164.144	214.283	108.491	282.284	26.377	11.221	222.990	2.748	126.461	0.0004134	0.00035319	0.00011918	1292.2	2.6336e-06	6.7455e-06	1292	349.07	2.845e-06	3.5286e-06	403.98	136.47	115.49	40.412	9.9613e-06	50.684	0.00043911	0.00043638	0.00012206	1298.7	4.7257e-06	4.7491e-06	1303.7	353.72	4.8066e-06	4.7189e-06	405.55	138.02	116.82	41.116	4.6604e-06	51.53	96.207	85.807	22.969	-64.347	-47.397	105.352	-64.465	-59.565	232.254	133.444	-59.756	-55.784	-55.395	-50.461	80.110	-51.308	-8191	255	
1212.360	1	1	0	0	0.11186	0.05073	0.13519	0.26028	0.070047	0.1566	0.28486	0.18728	0.22796	0.18006	0.045065	0.22333	0.25347	0.22893	0.17417	0.15059	-1.3667	-2.1312	-1.8563	-1.8771	-2.2458	-1.7167	-2.0333	-2.3563	-2	-2.2583	-2.1229	-1.8396	-2.1625	-1.9333	-1.5896	-2.1396	-1.282	210.782	123.362	266.879	-0.303	219.313	188.078	170.590	-60.357	180.358	274.070	-21.095	-56.391	237.256	-36.329	277.587	0.00040823	0.00051841	0.00018648	1279	9.9509e-06	1.0138e-05	1286.5	348.9	4.177e-06	8.2013e-06	405.88	135.43	115.76	40.229	6.328e-06	50.666	0.00043267	0.00042742	0.00011817	1292.6	4.6586e-06	4.684e-06	1300.5	352.61	4.6861e-06	4.6086e-06	405.44	137.71	116.89	41.059	4.6824e-06	51.515	79.356	30.049	49.013	-64.005	-21.306	122.134	-64.264	-59.522	21.735	37.629	-59.855	-55.768	-55.495	-50.644	103.753	-51.327	-8191	255	
1212.481	1	1	0	0	0.14956	0.21527	0.15088	0.31732	0.26034	0.11502	0.26131	0.29522	0.23483	0.13625	0.32553	0.24262	0.078398	0.28017	0.29944	0.14709	-1.3104	-2.0625	-2.1937	-1.9896	-2.4333	-2.1708	-2.2146	-2.3	-1.8396	-2.1271	-2.0146	-1.7229	-2.3021	-1.9083	-1.9833	-2.3792	57.652	-67.757	250.275	276.784	195.091	124.965	231.766	263.617	174.503	141.618	-13.866	-73.025	115.627	273.291	220.989	176.232	0.00033586	0.00036615	0.00015426	1285.7	7.5196e-06	5.7235e-06	1287	348.4	7.7204e-06	6.958e-06	406.28	135.92	115.98	40.27	2.0926e-06	50.666	0.00043175	0.00042589	0.00011746	1291.7	4.6612e-06	4.6963e-06	1299.6	352.39	4.7025e-06	4.6772e-06	405.48	137.58	116.77	41.039	4.6515e-06	51.494	74.422	9.841	31.602	-63.922	32.931	95.439	-64.517	-59.186	-24.205	95.802	-59.129	-55.224	-54.684	-50.032	281.587	-51.017	-8191	255	
1212.575	1	1	0	0	0.16114	0.16867	0.2286	0.41754	0.3331	0.15357	0.046511	0.39543	0.1173	0.055193	0.28978	0.14747	0.08796	0.053458	0.14479	0.21173	-1.35	-1.9979	-2.1125	-1.7521	-2.2292	-2.0833	-2.0375	-2.4333	-2.0708	-2.2271	-2.5917	-1.9188	-2.3563	-2.3021	-1.875	-2.2917	218.537	-17.815	183.478	276.933	171.447	255.107	262.920	246.799	227.364	-4.883	204.894	213.590	254.765	236.027	9.508	259.455	0.0006354	0.0006692	0.00018858	1283.9	2.9653e-06	1.0197e-06	1288.1	348.15	5.8435e-06	5.9608e-06	407.66	136.21	115.71	40.274	1.6587e-06	50.532	0.00043467	0.00042436	0.0001193	1290.7	4.6762e-06	4.6435e-06	1299.5	352.56	4.6242e-06	4.5993e-06	405.4	137.77	116.6	41.034	4.6045e-06	51.406	90.105	44.464	33.256	-63.713	70.531	260.973	-63.859	-58.752	122.188	-21.710	-59.174	-54.989	-54.777	-49.649	98.950	-50.485	-8191	255	
1212.671	1	1	0	0	0.040366	0.28818	0.043968	0.20239	0.039797	0.19557	0.20925	0.056645	0.37721	0.1939	0.27194	0.052322	0.27979	0.25049	0.1197	0.22305	-1.5375	-2.0458	-2.1208	-2.0792	-2.2042	-2.4021	-1.9542	-2.5083	-1.9042	-2.1854	-2.4042	-1.8854	-2.4396	-2.35	-2.0187	-2.3896	-13.117	142.268	163.552	178.334	177.115	143.734	207.070	263.396	213.195	77.582	-20.766	-74.629	250.667	176.534	164.184	236.413	0.00036771	0.00024559	0.00030414	1279.7	1.6477e-06	4.7903e-06	1287.3	348.93	4.2724e-06	7.06e-06	405.6	135.81	115.6	40.537	7.0606e-06	50.626	0.00042625	0.00042483	0.00011912	1290.6	4.6415e-06	4.6023e-06	1298.5	352.56	4.6227e-06	4.6024e-06	405.15	137.53	116.73	41.066	4.672e-06	51.49	73.992	-49.980	-19.107	-63.362	16.447	33.491	-63.540	-58.418	27.161	65.803	-58.792	-54.463	-54.165	-49.142	53.551	-50.153	-8191	255	
1212.767	1	1	0	0	0.091852	0.1708	0.16992	0.11761	0.24504	0.27148	0.28442	0.054082	0.18015	0.17369	0.20133	0.16028	0.31303	0.10225	0.18399	0.05237	-1.4562	-1.9188	-2.1437	-1.7792	-2.1688	-2.1437	-1.7958	-2.1917	-2.0854	-1.8958	-2.4333	-1.8292	-2.2062	-2.2417	-1.8583	-2.3854	281.648	202.888	-64.681	213.997	150.121	-65.768	235.050	62.716	139.003	141.650	41.003	42.242	-66.211	238.910	111.611	156.426	0.00049913	0.00023396	0.00015813	1278.2	4.1985e-06	2.0692e-06	1288.4	347.48	2.7913e-06	1.4909e-06	403.76	135.73	115.3	40.38	5.8107e-06	50.709	0.00042856	0.00042475	0.00011809	1288.3	4.6289e-06	4.5893e-06	1298.7	352.36	4.6264e-06	4.6487e-06	403.73	137.68	116.69	41.095	4.6061e-06	51.49	69.695	100.938	39.163	-63.857	7.164	36.967	-64.128	-59.094	1.346	31.804	-59.209	-54.540	-54.097	-49.656	74.398	-50.509	-8191	255	
1212.864	1	1	0	0	0.20598	0.13096	0.19642	0.16785	0.34669	0.16352	0.26403	0.16952	0.31615	0.030277	0.25784	0.21747	0.33926	0.27512	0.11844	0.19533	-1.5125	-1.8458	-2.3333	-1.9646	-2.0146	-2.1792	-2.0521	-2.2	-2.2188	-1.7083	-2.5646	-2.2771	-1.875	-2.1333	-1.6313	-1.9438	215.038	29.649	120.499	220.361	38.095	96.908	253.801	51.751	232.305	33.538	222.319	-10.490	-1.472	247.147	53.427	240.657	0.0005107	0.00069337	0.00012335	1281.1	6.3284e-06	1.8284e-06	1283.4	348.03	5.4126e-06	3.57e-06	405.73	135.21	115.77	40.373	2.5293e-06	50.545	0.00042637	0.00042594	0.00011807	1288	4.5791e-06	4.5899e-06	1296.3	352.22	4.5727e-06	4.5649e-06	404.23	137.55	116.57	41.108	4.6243e-06	51.349	74.374	34.129	274.871	-63.276	44.450	73.259	-63.401	-58.551	58.326	73.570	-59.197	-54.883	-54.212	-49.623	-9.278	-50.931	-8191	255	
1212.960	1	1	0	0	0.22994	0.059066	0.19126	0.30507	0.24433	0.14591	0.22041	0.20667	0.29317	0.28131	0.019307	0.090109	0.16893	0.12552	0.17802	0.13678	-1.6854	-1.7854	-2.2542	-2.1813	-1.9354	-2.2542	-2.0354	-2.3229	-2.1354	-1.7958	-2.3854	-2.0625	-2.0062	-2.2208	-2.1208	-2.3937	242.652	209.286	198.695	234.683	11.114	246.317	177.888	220.251	-23.002	81.408	-62.579	196.877	3.199	244.444	54.378	186.233	0.0003638	0.0002547	0.00013601	1279.9	6.03e-06	1.0356e-05	1287.3	349.1	3.2542e-06	5.8898e-06	406.57	135.96	115.9	40.406	5.3264e-06	50.612	0.00041981	0.00041714	0.0001159	1286	4.5326e-06	4.588e-06	1296.9	352.35	4.5821e-06	4.6213e-06	405.71	137.79	116.74	41.075	4.6058e-06	51.512	97.547	134.268	121.737	-63.804	12.062	72.762	-63.916	-59.131	13.397	44.723	-59.738	-55.224	-54.820	-50.717	125.980	-50.980	-8191	255	
1213.056	1	1	0	0	0.33359	0.22051	0.14549	0.26941	0.13515	0.099042	0.30475	0.29827	0.19258	0.096947	0.15939	0.28714	0.13272	0.11573	0.15819	0.041068	-1.8813	-1.5792	-2.0667	-2.1125	-1.8604	-2.1958	-2.1458	-2.175	-2.3146	-1.9125	-2.3375	-2.0708	-2.0062	-2.2417	-1.95	-2.2021	230.787	8.831	-18.675	191.556	181.220	230.396	252.583	143.947	-2.303	8.724	19.718	171.133	141.833	8.717	7.266	255.873	0.00036284	0.00027811	9.6545e-05	1283.9	5.027e-07	6.2967e-06	1288.7	347.94	6.4043e-07	6.2679e-06	405.99	135.49	116.25	40.411	1.236e-06	50.729	0.00042964	0.00042698	0.0001177	1289.5	4.6399e-06	4.7031e-06	1299.1	353.04	4.7166e-06	4.664e-06	405.58	137.64	116.76	41.18	4.6592e-06	51.58	73.900	39.051	6.153	-63.594	98.519	51.406	-63.836	-58.986	251.759	67.459	-59.726	-54.900	-54.806	-49.896	196.149	-50.758	-8191	255	
1213.176	1	1	0	0	0.12955	0.23117	0.24397	0.26893	0.20734	0.084916	0.099205	0.15179	0.17815	0.23553	0.11008	0.34033	0.18596	0.21778	0.19946	0.014274	-1.7938	-1.8146	-2.1813	-2.05	-1.8563	-2.3104	-2.2896	-2.2792	-2.3521	-1.8708	-2.2146	-2.1333	-1.5729	-2.3354	-1.8396	-1.9458	182.661	7.643	82.538	-62.228	88.063	221.862	155.217	203.390	66.684	109.622	-35.855	235.123	215.211	265.105	169.765	0.396	0.00054033	0.00026633	0.00016336	1283	2.119e-06	3.8668e-06	1291.3	348.86	3.5256e-06	7.2577e-06	405.21	136.59	116.27	40.552	6.9478e-07	50.866	0.0004295	0.00042236	0.00011729	1288.6	4.6385e-06	4.6054e-06	1299.7	352.79	4.6653e-06	4.6451e-06	405.01	138.04	117.34	41.166	4.5905e-06	51.646	84.183	35.048	-17.180	-63.867	3.077	72.748	-63.662	-59.136	-56.539	115.614	-59.349	-55.699	-55.344	-50.266	5.473	-50.834	-8191	255	
1213.248	1	1	0	0	0.23321	0.24876	0.041348	0.085075	0.198	0.17045	0.07709	0.24198	0.13472	0.17346	0.15769	0.2125	0.094484	0.23045	0.042849	0.22134	-1.7229	-1.8146	-2.1937	-2.4167	-2.0833	-2.4667	-2.3604	-1.9792	-2.3479	-2.0625	-2.2562	-2.3563	-2.0604	-2.475	-2.1083	-2.2646	-44.728	109.544	27.639	-72.719	-47.391	207.186	227.292	244.523	-7.413	236.993	23.841	225.166	268.890	276.305	278.619	217.900	0.00049516	0.00064642	0.0001189	1287.7	5.6367e-06	4.5743e-06	1290.2	350.28	5.1541e-06	9.6011e-06	406.42	136.41	116.63	40.692	8.3852e-06	51.043	0.00042911	0.00042646	0.00011825	1293.5	4.6807e-06	4.663e-06	1302.8	354.34	4.7354e-06	4.6984e-06	406.3	138.53	117.51	41.419	4.6921e-06	51.751	67.857	52.797	17.372	-63.942	130.874	92.493	-64.041	-58.948	53.368	111.517	-59.583	-55.309	-54.834	-50.050	57.720	-50.660	-8191	255	
1213.344	1	1	0	0	0.23118	0.1262	0.22371	0.23321	0.17178	0.14388	0.34433	0.23433	0.16077	0.20996	0.16514	0.10271	0.23718	0.2512	0.20138	0.25436	-2.1021	-1.8146	-2.2104	-2.5875	-1.85	-2.2146	-2.2042	-1.9604	-2.2729	-2.0625	-2.1312	-2.4437	-1.9667	-2.3208	-2.0187	-1.6771	-7.237	19.860	37.069	229.654	167.511	207.012	261.647	245.127	54.688	-74.192	202.290	214.325	-74.464	239.676	191.527	275.233	0.0004495	0.00061967	0.00014519	1294.9	3.8063e-06	1.4841e-06	1292.7	351.82	3.1411e-06	8.2635e-06	407	136.89	116.7	40.765	7.8532e-06	50.819	0.0004275	0.00042774	0.00011847	1297.6	4.6646e-06	4.6757e-06	1305.8	355.08	4.7419e-06	4.6996e-06	408.08	138.88	117.72	41.42	4.7625e-06	51.824	64.104	29.259	53.209	-63.701	36.572	71.034	-63.880	-59.108	220.090	47.242	-59.312	-55.211	-54.753	-50.031	42.485	-50.522	-8191	255	
1213.440	1	1	0	0	0.19569	0.099336	0.085881	0.30651	0.14708	0.066534	0.2296	0.17278	0.14617	0.12779	0.20966	0.089091	0.13222	0.22141	0.10772	0.15613	-1.925	-1.8479	-1.9708	-2.2917	-1.8104	-2.0104	-2.2	-1.8062	-2.2354	-1.8375	-1.9833	-2.2479	-1.6187	-1.8333	-1.95	-1.7354	-51.347	55.193	69.551	-51.527	39.045	278.157	185.031	200.395	6.478	56.393	208.407	107.068	-40.826	253.779	237.663	222.171	0.0005259	0.00057821	0.00015689	1292.5	7.7474e-06	4.7506e-06	1295.4	350.37	2.5322e-06	2.7549e-06	409.08	136.52	115.84	40.942	1.83e-06	51.073	0.00043765	0.00043716	0.00012335	1296.9	4.876e-06	4.8198e-06	1309.1	355.45	4.8433e-06	4.7908e-06	408.19	138.7	117.82	41.552	4.7906e-06	51.866	82.548	26.501	13.927	-63.405	-15.649	109.595	-63.667	-58.850	-40.344	111.717	-59.291	-54.996	-54.702	-49.727	204.291	-50.621	-8191	255	
1213.561	1	1	0	0	0.25436	0.087315	0.22306	0.18025	0.072215	0.17683	0.099787	0.23622	0.20309	0.20064	0.063579	0.14208	0.17653	0.19802	0.22181	0.2586	-1.7521	-2.0062	-2.0167	-2.3583	-1.8625	-2.1146	-2.3187	-1.7458	-1.9729	-1.9625	-2.0104	-2.2854	-1.9	-2	-2.1979	-1.9625	11.734	-53.735	43.967	224.632	251.589	61.153	160.294	187.416	83.698	202.076	254.698	20.705	273.614	252.221	83.571	122.243	0.00036477	0.00040368	0.00013093	1291.4	6.7607e-06	5.496e-06	1296.2	352.4	1.4409e-06	4.3188e-06	409.69	136.81	117.43	40.844	4.8231e-06	50.947	0.00044105	0.00043654	0.00012141	1299.8	4.82e-06	4.743e-06	1309.3	356	4.8404e-06	4.7878e-06	408.69	139.1	118.07	41.547	4.788e-06	51.928	96.811	6.959	34.451	-63.495	43.404	37.181	-63.683	-58.938	128.421	86.865	-59.739	-55.512	-54.289	-49.946	49.993	-50.968	-8191	255	
1213.655	1	1	0	0	0.1327	0.044351	0.019754	0.30602	0.31715	0.062461	0.2239	0.41596	0.18243	0.085665	0.27836	0.17285	0.14616	0.18654	0.095985	0.016366	-1.8896	-2.0646	-1.9292	-2.4062	-1.6917	-2.0917	-2.5354	-1.9958	-2.2375	-2.3937	-1.9146	-2.5062	-1.9625	-1.9792	-2.1729	-1.8104	-72.873	250.484	246.388	259.546	84.774	168.934	231.730	208.679	258.554	229.268	272.234	220.814	136.092	167.223	54.468	-74.296	0.00040854	0.0005041	0.00016425	1292.6	3.5661e-06	4.0816e-06	1298.8	352.84	4.8752e-06	4.1903e-07	410.28	137.5	117.84	40.973	3.2254e-06	51.412	0.0004434	0.00043609	0.00012255	1299.3	4.7954e-06	4.7765e-06	1311.1	357.01	4.761e-06	4.7289e-06	409.65	139.37	118.48	41.57	4.7521e-06	52.159	65.225	121.036	35.720	-63.732	33.822	124.189	-63.897	-59.159	24.606	266.237	-59.427	-55.257	-55.060	-50.148	107.112	-50.901	-8191	255	
1213.753	1	1	0	0	0.13815	0.10522	0.20444	0.082549	0.13856	0.06876	0.32568	0.32488	0.20272	0.14866	0.19136	0.2276	0.39525	0.067603	0.17143	0.11685	-1.75	-2.0396	-1.7229	-2.5417	-2.1146	-1.7479	-2.5375	-1.7229	-2.0042	-1.8125	-1.6542	-2.275	-1.8	-1.9208	-2.2708	-1.7458	150.180	23.790	174.342	235.321	8.831	24.857	224.333	208.520	55.045	17.850	239.386	182.929	-72.018	163.137	224.840	244.975	0.00042936	0.00062608	0.00015856	1299.7	6.8578e-06	8.1083e-06	1299.8	352.67	3.0523e-06	8.7197e-06	409.36	137.63	117.09	40.869	2.1064e-06	51.181	0.00043897	0.00043366	0.00012302	1302.5	4.7873e-06	4.7877e-06	1311.3	356.68	4.7382e-06	4.7759e-06	409.78	139.49	118.63	41.666	4.834e-06	52.048	78.757	62.834	32.958	-63.811	51.025	53.550	-63.708	-58.976	185.918	75.246	-59.522	-55.112	-55.211	-50.242	40.622	-50.757	-8191	255	
1213.848	1	1	0	0	0.13667	0.075726	0.11523	0.22986	0.10125	0.16044	0.20116	0.13831	0.20143	0.18407	0.2329	0.30963	0.16928	0.21246	0.13835	0.12555	-1.5083	-2.0167	-1.5187	-2.4125	-2.1375	-2.0187	-2.5667	-2.1312	-2.2333	-2.1229	-1.9979	-2.3354	-2.1312	-2.1604	-2.3479	-1.8396	43.011	121.253	113.095	263.287	-71.604	76.389	133.271	238.544	-32.162	48.242	-53.996	228.489	236.234	-74.559	258.533	232.701	0.0004972	0.00023094	7.8231e-05	1291.6	9.1267e-06	3.9388e-06	1304.5	352.06	5.405e-06	7.8995e-06	407.95	137.42	117.7	40.991	2.8306e-06	51.344	0.00044062	0.00043801	0.00012229	1301.8	4.768e-06	4.764e-06	1314.3	356.78	4.7797e-06	4.8342e-06	409.99	139.64	118.83	41.74	4.7972e-06	52.164	79.764	86.513	-27.563	-63.725	-24.453	96.185	-63.769	-59.051	59.124	96.046	-59.228	-54.920	-54.865	-49.845	-23.125	-50.931	-8191	255	
1213.944	1	1	0	0	0.060699	0.22668	0.2309	0.31253	0.036248	0.21915	0.26335	0.18246	0.10421	0.26017	0.21279	0.21082	0.26236	0.049242	0.13157	0.12352	-1.9083	-2.0979	-1.6667	-2.1792	-1.9542	-1.9583	-2.3583	-1.9125	-2.0708	-2.2188	-1.7042	-2.2021	-2.1667	-1.8042	-2.2958	-2.2083	79.580	85.773	237.106	226.925	257.613	278.263	-74.729	-53.427	74.502	39.830	-19.604	229.212	244.839	174.484	73.306	163.226	0.00045863	0.00094649	0.00010257	1299.9	5.7373e-06	7.0403e-06	1304.8	352.31	6.1817e-06	7.0144e-07	407.71	137.54	117.88	40.985	2.174e-06	51.426	0.00044455	0.00044167	0.00012438	1302.9	4.8348e-06	4.8521e-06	1314.6	356.96	4.7695e-06	4.861e-06	409.99	139.55	118.77	41.729	4.863e-06	52.17	89.330	-3.121	50.113	-63.525	34.897	124.873	-63.560	-58.736	89.967	126.692	-59.382	-55.265	-54.523	-49.871	-11.898	-50.472	-8191	255	
1214.040	1	1	0	0	0.058756	0.14197	0.061783	0.080007	0.25811	0.087503	0.30232	0.09944	0.12223	0.29468	0.2766	0.035274	0.10535	0.2035	0.10577	0.12091	-1.5375	-2.2562	-1.8438	-2.2438	-2.1125	-1.8854	-2.2833	-2.2271	-2.0125	-2.2125	-1.6208	-1.9875	-2.0958	-1.8208	-2.0021	-2.0896	105.332	247.250	12.511	240.815	-9.648	80.770	204.950	272.998	-13.278	174.926	204.246	106.809	98.178	192.671	242.170	184.396	0.00059001	0.00063186	0.00021785	1290.1	2.6962e-06	3.787e-06	1309.9	351.38	2.3068e-06	3.6916e-07	411.83	137.94	118.11	40.991	4.6507e-06	51.355	0.00044293	0.00044111	0.00012368	1303.1	4.8528e-06	4.8417e-06	1316.2	356.92	4.8848e-06	4.8892e-06	410.4	139.63	118.88	41.648	4.8945e-06	52.115	79.462	48.601	35.633	-63.957	8.369	141.898	-63.945	-59.017	-68.727	173.386	-59.587	-55.532	-54.866	-50.124	-29.183	-50.686	-8191	255	
1214.161	1	1	0	0	0.26592	0.059084	0.23407	0.090242	0.17696	0.013026	0.24289	0.11475	0.077609	0.037957	0.30637	0.35107	0.19875	0.10169	0.11773	0.51062	-1.2938	-2.2021	-1.6625	-1.9688	-2.1167	-1.9083	-2.3729	-2.1229	-1.7687	-2.4042	-2.1771	-2.175	-2.4125	-2.0375	-2.0771	-2.2708	169.221	179.156	153.269	-41.413	32.914	-32.391	97.830	264.335	233.654	-9.881	196.361	261.401	62.854	207.216	157.512	-70.805	0.00052719	0.00091397	1.1311e-05	1295.2	3.5709e-06	6.5953e-06	1304.2	352.85	1.913e-06	6.7025e-06	409.81	137.62	117.62	40.963	6.9283e-06	51.008	0.00044948	0.00044404	0.00012283	1303.6	4.865e-06	4.9023e-06	1313.9	357.03	4.8622e-06	4.8698e-06	410.55	139.54	118.94	41.71	4.8577e-06	52.139	80.719	1.816	49.899	-63.811	70.283	66.187	-63.778	-58.985	22.339	83.883	-59.528	-55.283	-54.719	-49.892	1.698	-51.152	-8191	255	
1214.257	1	1	0	0	0.28423	0.16724	0.18249	0.25782	0.12987	0.30308	0.52287	0.13615	0.19753	0.10187	0.059495	0.072733	0.33634	0.12842	0.051923	0.12553	-1.4062	-2.3667	-2.0667	-2.1958	-2.3208	-1.8208	-2.5479	-2.5208	-1.7771	-2.4083	-2.1188	-2.2333	-2.3063	-1.9896	-2.1417	-2.2021	165.012	264.853	29.733	256.809	165.864	-42.989	237.373	-13.322	46.507	14.205	-36.523	-46.015	268.925	154.247	158.638	252.050	0.00040084	0.00062622	0.00016473	1297.6	2.9133e-06	7.4683e-06	1304.4	352.88	3.3891e-06	9.2472e-06	410.73	137.82	117.78	41.088	4.1119e-06	51.23	0.00044758	0.00044696	0.00012431	1304.6	4.9763e-06	4.8723e-06	1315.4	357.74	4.8468e-06	4.8497e-06	409.78	139.74	118.81	41.744	4.832e-06	52.15	75.604	36.259	-23.142	-63.447	-15.389	103.372	-63.930	-58.908	9.633	46.191	-59.717	-55.128	-55.275	-49.793	-32.556	-50.920	-8191	255	
1214.353	1	1	0	0	0.10219	0.22615	0.27736	0.18047	0.26519	0.1983	0.12755	0.33392	0.35071	0.20238	0.12428	0.13048	0.19936	0.11956	0.22121	0.2043	-1.4729	-2.1542	-1.7417	-1.9688	-2.1479	-1.7958	-2.3667	-2.4146	-1.9021	-2.1417	-2.1979	-2.0042	-2.4354	-1.9083	-2.1792	-2.2958	78.658	98.274	-38.807	174.381	250.713	93.800	181.797	233.090	40.841	245.688	37.603	162.056	-15.002	162.564	148.626	250.950	0.00045815	0.00037722	0.00012074	1296.1	1.6173e-06	4.1533e-06	1302	353.21	3.3891e-06	5.5669e-06	411.92	138.34	117.76	41.085	8.9759e-06	51.285	0.00044892	0.00044388	0.00012233	1305.8	4.8674e-06	4.7888e-06	1314.7	357.05	4.8411e-06	4.8301e-06	409.98	139.89	118.87	41.741	4.8117e-06	52.255	58.247	52.013	26.108	-63.728	64.513	50.245	-63.791	-59.137	-7.662	56.602	-59.102	-55.079	-54.828	-50.044	37.800	-51.073	-8191	255	
1214.474	1	1	0	0	0.2591	0.16099	0.11887	0.26831	0.21532	0.35629	0.31093	0.27108	0.32733	0.15007	0.193	0.15254	0.15845	0.15633	0.32974	0.16406	-1.2479	-2.0854	-2.0667	-2.0438	-2.2938	-1.7771	-2.2188	-2.375	-1.7479	-2.4583	-2.1625	-2.1813	-2.35	-2.1937	-1.9979	-2.5604	-68.444	121.650	117.376	232.734	187.972	26.969	218.385	-52.869	176.647	-39.238	161.423	157.167	211.287	-40.953	269.701	9.197	0.00054625	0.00017523	8.4988e-05	1303.6	4.4043e-06	5.3541e-06	1302.6	353.48	2.5909e-06	7.3934e-06	409.7	138.43	118.14	41.221	5.9484e-06	51.522	0.0004482	0.00043751	0.00012271	1306.6	4.8165e-06	4.8169e-06	1316.2	357.71	4.8512e-06	4.8417e-06	409.09	140.32	119.11	41.853	4.8472e-06	52.215	84.824	100.440	101.822	-64.069	-49.974	92.083	-64.082	-59.149	141.767	98.386	-59.745	-55.183	-55.027	-50.095	107.610	-50.956	-8191	255	
1214.545	1	1	0	0	0.13736	0.13472	0.070762	0.2679	0.13813	0.093737	0.3948	0.19987	0.33475	0.16188	0.17545	0.36224	0.36448	0.30108	0.28875	0.23523	-1.2792	-2.0021	-1.9625	-1.9271	-2.2667	-2.0521	-2.1271	-2.3917	-1.7292	-1.9833	-2.0667	-1.6938	-1.925	-1.9479	-1.7771	-2.2208	-65.156	29.642	255.535	272.496	20.036	153.252	-62.929	250.055	179.978	282.452	-47.906	273.330	227.061	276.343	125.710	-56.993	0.00043582	0.00053613	5.9888e-05	1295.8	4.9491e-06	3.1659e-06	1304.7	353.04	3.53e-06	1.8653e-06	407.43	138.08	118.07	41.114	4.4191e-06	51.537	0.00044388	0.00043626	0.00012344	1306	4.8414e-06	4.7894e-06	1316.8	357.61	4.8417e-06	4.8397e-06	410.49	139.99	119.06	41.788	4.8444e-06	52.363	81.625	34.968	3.349	-63.686	111.158	125.602	-64.467	-59.475	40.325	177.572	-59.492	-55.050	-55.075	-49.977	148.638	-50.522	-8191	255	
1214.640	1	1	0	0	0.23217	0.22925	0.29155	0.27138	0.12774	0.29889	0.41051	0.068135	0.21166	0.03784	0.30584	0.17109	0.056241	0.081613	0.0336	0.26432	-1.1521	-1.9229	-2.1771	-1.8917	-2.1333	-2.0812	-2.0083	-2.2812	-1.7167	-2.0833	-1.9646	-1.6979	-1.9083	-2.0833	-1.8083	-2.45	241.949	179.144	115.460	193.790	221.469	244.633	232.172	137.914	241.024	172.511	276.280	144.859	-71.740	242.756	211.390	147.406	0.00064735	0.00082986	0.00033457	1302.4	5.1202e-06	5.307e-06	1302.6	353.87	2.4892e-06	6.1753e-06	411.04	137.76	118.17	41.063	9.2543e-06	51.425	0.0004459	0.00044159	0.00012368	1308.9	4.8414e-06	4.8215e-06	1315.6	358.09	4.8867e-06	4.8944e-06	411.26	140.05	119.15	41.814	4.8436e-06	52.295	74.610	72.997	6.591	-63.714	79.910	87.767	-63.719	-59.084	263.506	187.739	-59.006	-56.044	-55.475	-50.472	27.203	-50.947	-8191	255	
1214.736	1	1	0	0	0.23567	0.29782	0.13437	0.21325	0.055036	0.13698	0.22052	0.22975	0.30396	0.11376	0.10669	0.065547	0.14726	0.11315	0.17837	0.15179	-1.2917	-2.0104	-2.0896	-1.9021	-2.0104	-1.9667	-2.0521	-2.5083	-2.0104	-1.9854	-2.1063	-1.6354	-2.0375	-1.9917	-1.4813	-2.0542	145.318	11.567	238.629	226.224	228.242	110.168	186.779	273.809	241.382	-73.080	112.188	154.486	189.238	-62.446	103.965	28.359	0.00049658	0.000922	0.00025243	1297.6	8.0169e-06	7.1932e-06	1306.4	354.05	4.6035e-06	9.9697e-06	410.37	137.6	117.43	41.203	4.3653e-06	51.507	0.00044843	0.00044791	0.00012356	1305.5	4.9063e-06	4.8545e-06	1318.5	358.26	4.9056e-06	4.8799e-06	411.86	139.97	119.14	41.904	4.9617e-06	52.261	86.327	49.374	4.542	-63.567	60.425	15.669	-63.683	-58.898	12.588	60.867	-59.595	-55.375	-54.665	-50.070	114.471	-50.712	-8191	255	
1214.856	1	1	0	0	0.24707	0.0043698	0.11453	0.27926	0.061619	0.12384	0.15906	0.076012	0.2659	0.33696	0.12664	0.1231	0.15857	0.085834	0.019376	0.081314	-1.3104	-1.8958	-2.2021	-2	-2.1958	-2.1604	-1.5167	-2.3167	-2.0938	-1.9104	-2.4979	-2.0062	-2	-1.9062	-1.6	-2.1083	173.896	255.919	120.641	139.763	82.566	114.440	-47.212	160.327	-66.015	-60.086	225.638	193.966	49.375	-9.629	194.014	221.690	0.00059704	0.00046844	6.8385e-05	1300.4	5.4563e-06	5.7612e-06	1307.7	353.68	3.1511e-06	1.108e-05	410.72	138.29	118.21	41.029	2.77e-06	51.417	0.00045711	0.00045179	0.00012686	1308.7	4.9591e-06	4.9801e-06	1319.6	357.79	4.9752e-06	4.9875e-06	411.64	140.15	119.21	41.851	4.9831e-06	52.336	81.205	28.654	68.485	-63.738	172.174	109.966	-63.462	-58.802	83.786	93.461	-59.441	-55.517	-55.036	-49.990	72.988	-50.782	-8191	255	
1214.953	1	1	0	0	0.14673	0.012478	0.15646	0.17479	0.10921	0.34025	0.15713	0.42029	0.25654	0.11193	0.10087	0.22339	0.095914	0.31216	0.3896	0.27357	-1.6729	-1.7188	-2.2896	-1.7833	-2.0146	-2.1083	-2.125	-2.4375	-2.0396	-1.8125	-2.1042	-1.6958	-1.9333	-2.1937	-1.7375	-2.0333	129.963	248.152	214.327	250.856	180.535	42.816	-65.983	217.671	-57.194	36.768	176.251	230.696	47.099	238.681	-25.906	249.561	0.0005819	0.00030259	0.00019718	1297.5	2.5341e-06	1.9409e-06	1305.6	354.13	6.5354e-06	4.1094e-06	412.68	138.18	118.36	41.159	4.8976e-06	51.547	0.00045886	0.00045466	0.00012663	1307.6	4.9776e-06	4.9786e-06	1317.3	358	4.9652e-06	5.0107e-06	412.4	140.04	119.32	41.89	4.9694e-06	52.38	81.916	4.805	12.516	-63.522	-21.980	166.908	-63.789	-59.147	45.906	83.674	-59.270	-55.257	-54.620	-50.045	90.330	-51.147	-8191	255	
1215.049	1	1	0	0	0.13793	0.28545	0.14997	0.032375	0.31861	0.12597	0.39533	0.5109	0.087117	0.064463	0.31052	0.083073	0.36094	0.27041	0.35309	0.0078274	-1.5021	-1.6729	-2.1229	-2.0021	-1.9396	-2.1958	-1.9979	-2.1417	-2.1854	-1.7062	-2.3167	-2.075	-2.1854	-2.2687	-1.9979	-2.1375	-1.772	118.398	136.147	212.521	161.814	259.675	238.446	247.658	115.088	204.022	-19.276	218.072	89.690	270.456	43.782	210.860	0.00043233	0.00048566	9.601e-05	1297.3	2.444e-06	1.1155e-05	1309.6	354.13	1.7543e-06	1.0841e-05	412.95	139.02	119.61	41.121	2.263e-06	51.552	0.00045872	0.00045621	0.00012709	1308.3	4.9967e-06	5.035e-06	1320.2	358.69	4.9791e-06	4.9831e-06	412.72	140.63	119.7	41.919	5.0108e-06	52.422	78.733	24.463	71.471	-63.576	249.794	53.703	-63.965	-58.883	190.575	88.798	-59.327	-55.096	-55.045	-49.996	161.742	-50.473	-8191	255	
1215.120	1	1	0	0	0.23389	0.21769	0.14218	0.19983	0.20949	0.084087	0.02526	0.35601	0.1303	0.15148	0.36192	0.14568	0.18278	0.17227	0.18952	0.099049	-1.5667	-1.8604	-2.2354	-2.1979	-2.0521	-2.3479	-2.0938	-2.1979	-2.1562	-1.9292	-2.2625	-2.1	-1.9542	-2.2625	-1.7875	-2.1646	12.757	155.671	243.305	-63.294	280.517	260.096	220.762	240.597	-57.057	-9.584	-20.096	-44.763	222.092	-64.102	145.296	55.012	0.00039493	0.00025696	0.00012354	1302.5	4.2936e-06	3.0926e-06	1307.5	355.45	1.893e-06	1.3024e-06	411.58	138.64	118.5	41.358	3.7471e-06	51.273	0.00046257	0.00045874	0.00012672	1310.6	4.9807e-06	4.9902e-06	1320.3	358.58	5.017e-06	4.9689e-06	412.29	140.6	119.6	42.01	4.9538e-06	52.437	75.616	236.650	-18.849	-63.477	0.096	53.537	-63.396	-58.860	261.577	33.674	-59.071	-54.984	-54.607	-49.653	42.335	-50.251	-8191	255	
1215.241	1	1	0	0	0.12465	0.35963	0.12615	0.11048	0.2954	0.33708	0.083195	0.23403	0.074271	0.018779	0.14615	0.058882	0.24969	0.12663	0.071416	0.15965	-1.7687	-1.7271	-2.2521	-2.0708	-1.7729	-2.2896	-2.2313	-2.1271	-2.2583	-1.9125	-2.3542	-2.125	-1.8625	-2.2646	-1.7729	-2.2313	178.827	275.195	258.164	140.160	21.992	-21.198	240.451	7.035	-74.032	231.705	15.224	-13.990	55.998	-2.842	-63.279	198.423	0.00047352	0.00043393	0.00010493	1301.7	4.0544e-06	5.3653e-06	1312.8	354.97	2.3235e-06	7.019e-06	413.94	139.15	118.33	41.428	4.6477e-06	51.739	0.00045724	0.00045772	0.0001261	1311.8	4.9738e-06	4.9565e-06	1324.5	359.43	4.9855e-06	4.9418e-06	413.39	140.97	119.56	42.095	4.9289e-06	52.624	55.197	33.171	-49.562	-63.460	58.547	87.537	-63.746	-58.817	97.651	74.459	-59.667	-55.285	-54.863	-49.781	13.795	-50.952	-8191	255	
1215.337	1	1	0	0	0.17311	0.17683	0.22587	0.1693	0.1537	0.15744	0.15143	0.15934	0.22705	0.15455	0.14688	0.32043	0.086303	0.092488	0.19809	0.13513	-1.8625	-1.8646	-2.1667	-2.2562	-1.6771	-2.2438	-2.1562	-2.05	-2.2375	-1.7375	-2.0271	-2.1021	-1.6979	-2.5146	-2.1771	-2.0979	57.882	21.206	260.201	185.487	174.380	16.589	170.661	137.001	43.541	-14.762	-56.578	227.610	256.670	281.186	98.177	-29.162	0.0003337	0.00028883	0.0001248	1300.2	1.6979e-06	3.2135e-06	1314.9	354.51	8.6632e-07	7.2656e-06	410.88	138.73	118.67	41.445	5.2303e-06	52.019	0.00045351	0.00044603	0.0001244	1312.9	4.8992e-06	4.8504e-06	1326	359.45	4.9179e-06	4.8932e-06	412.4	141.15	119.94	42.12	4.8996e-06	52.659	70.113	64.859	-29.597	-63.860	98.045	63.196	-64.012	-59.212	107.396	84.979	-59.254	-55.354	-54.822	-50.016	141.543	-50.928	-8191	255	
1215.433	1	1	0	0	0.28166	0.055487	0.22935	0.079058	0.13972	0.18797	0.24815	0.23433	0.30192	0.073748	0.23653	0.1855	0.06581	0.16469	0.062845	0.11398	-1.8396	-2.0812	-2.0625	-2.2438	-1.7771	-2.4667	-2.1437	-2.0333	-2.0208	-1.6042	-1.9979	-2.3354	-1.6354	-2.3354	-2.2062	-2.0917	6.599	254.723	-22.561	133.333	228.651	-76.219	208.407	248.656	137.364	189.534	-41.715	210.020	24.005	250.377	-21.528	112.293	0.00041382	0.00028669	0.00019045	1308.4	3.624e-06	1.8542e-06	1312.8	355.18	3.9584e-06	2.0174e-06	413.54	139.21	120.04	41.367	6.2773e-06	51.807	0.00045571	0.0004541	0.0001256	1316.4	4.9247e-06	4.8875e-06	1325.9	359.95	4.9707e-06	4.9348e-06	414.4	141.02	120.22	42.191	4.9977e-06	52.681	77.331	-0.828	77.089	-63.942	1.266	99.404	-63.969	-58.774	7.732	43.349	-59.524	-55.346	-54.590	-50.014	37.603	-50.949	-8191	255	
1215.554	1	1	0	0	0.064249	0.32627	0.19815	0.12809	0.19656	0.080825	0.18652	0.38776	0.1571	0.23375	0.27136	0.17248	0.15913	0.073271	0.40335	0.18063	-1.9979	-1.7833	-1.8583	-2.3063	-1.9333	-2.2208	-2.5125	-2.0333	-2.4583	-2.0854	-2.1188	-2.3438	-1.8	-1.9833	-1.8271	-1.8354	-68.488	207.301	-1.382	196.769	226.672	32.019	52.800	236.573	231.374	197.616	204.681	93.036	229.131	180.824	229.410	273.064	0.00058641	0.00037193	0.00018297	1305.3	1.3985e-06	7.2019e-06	1311.4	356.49	3.7495e-06	7.2473e-06	412.12	139.44	118.36	41.427	1.2077e-06	51.57	0.00046138	0.00045253	0.00012776	1315.4	5.0294e-06	4.9751e-06	1327.1	359.98	4.9906e-06	4.9753e-06	413.94	141.12	119.81	42.166	5.0357e-06	52.654	58.693	63.879	0.622	-63.959	160.297	58.825	-63.936	-59.061	193.890	50.338	-60.075	-55.102	-54.715	-49.769	98.652	-50.757	-8191	255	
1215.648	1	1	0	0	0.13827	0.24132	0.22039	0.06018	0.060547	0.16816	0.28646	0.065206	0.14497	0.32306	0.19369	0.30701	0.03832	0.17759	0.22054	0.20491	-1.8521	-1.8958	-2.0208	-2.575	-1.8458	-2.2062	-2.4313	-1.8625	-2.2604	-1.8646	-1.75	-2.1292	-1.8188	-2.3021	-2.2583	-1.8958	-52.574	-7.053	271.271	-70.740	100.505	-27.579	196.068	76.048	242.546	186.988	-19.648	223.868	-50.397	-47.260	73.666	247.680	0.00044816	0.00051046	0.00011534	1313.7	6.5823e-06	5.7242e-06	1313.5	355.01	2.7634e-06	5.8964e-06	412.07	138.94	118.97	41.429	8.5053e-06	51.649	0.0004582	0.00045819	0.00012665	1316.3	5.0337e-06	4.9831e-06	1325.5	359.82	5.0056e-06	5.0087e-06	413.28	141.24	119.78	42.145	5.049e-06	52.642	106.550	55.626	47.509	-63.508	261.538	60.126	-63.861	-58.967	232.268	62.108	-59.473	-55.043	-55.197	-50.056	47.153	-50.391	-8191	255	
1215.745	1	1	0	0	0.17522	0.13391	0.14785	0.39021	0.032741	0.24615	0.15604	0.16025	0.084827	0.11574	0.04124	0.27776	0.26122	0.10375	0.044686	0.24816	-1.8229	-2.1562	-1.8687	-2.3479	-1.8813	-1.9979	-2.4875	-2.0271	-2.2042	-2.1688	-1.8417	-2.5208	-2.0021	-2.2167	-2.2146	-2.0271	250.361	188.556	-71.359	205.811	23.259	-67.995	256.141	241.407	252.755	44.629	135.414	282.020	262.790	165.546	-4.492	236.044	0.00042206	4.1764e-05	0.00017269	1307.2	6.5343e-06	6.0139e-06	1317.1	356.03	1.0623e-06	6.4789e-06	411.74	139.51	118.86	41.365	5.3523e-06	51.762	0.00046093	0.00045416	0.00012689	1315.7	4.9881e-06	4.9631e-06	1328	360.41	5.0131e-06	4.9919e-06	413.71	141.05	120.12	42.098	5.0216e-06	52.664	90.853	210.292	-39.885	-63.537	66.446	111.929	-63.746	-59.106	155.827	106.006	-59.384	-54.979	-54.727	-49.900	76.933	-50.917	-8191	255	
1215.841	1	1	0	0	0.30703	0.48398	0.15499	0.27858	0.13185	0.23168	0.22116	0.28479	0.31609	0.15557	0.2524	0.057118	0.17865	0.10555	0.18444	0.22531	-1.7167	-2.1667	-1.8854	-2.2521	-1.9792	-1.8646	-2.2979	-1.8896	-1.8937	-2.1542	-1.7396	-2.2521	-1.8854	-1.8792	-2.2729	-2.0833	-47.888	45.350	186.569	251.822	-43.150	117.496	190.466	217.631	122.867	154.939	-21.532	54.336	-9.875	201.264	-48.021	204.839	0.00051918	4.8382e-05	5.6066e-06	1301	9.4655e-06	4.747e-06	1311.2	354.43	2.5805e-06	9.7123e-06	414.12	139.05	119.24	41.302	5.3809e-06	51.781	0.00045998	0.00045615	0.00012822	1313.2	5.0081e-06	5.0454e-06	1327.1	359.75	4.9592e-06	5.0078e-06	413.39	141.26	119.93	42.18	4.9387e-06	52.586	84.753	93.913	-45.727	-63.845	45.652	48.769	-63.861	-58.894	40.672	95.836	-59.550	-54.919	-55.037	-50.015	20.509	-50.935	-8191	255	
1215.937	1	1	0	0	0.13604	0.13216	0.096378	0.13888	0.12504	0.17483	0.057493	0.25319	0.18786	0.04882	0.26429	0.2333	0.08313	0.16794	0.054021	0.16243	-1.7604	-2.2	-1.8667	-2.3125	-2.0438	-1.9125	-2.425	-2.1021	-2.1729	-2.2292	-1.8104	-2.2271	-1.8729	-1.9958	-2.1417	-1.9042	75.365	3.339	58.476	251.880	152.974	216.050	274.125	144.745	125.913	8.210	176.706	282.889	202.069	-29.194	197.811	282.421	0.00050734	0.00063512	0.00010612	1310.9	1.663e-06	4.6316e-06	1314.2	354.31	2.519e-06	1.1056e-05	414.13	139.14	118.8	41.212	3.594e-06	51.59	0.0004578	0.00045671	0.00012646	1315	4.9813e-06	4.965e-06	1326	359.65	4.9596e-06	4.9911e-06	413.54	140.97	119.89	42.106	5.0003e-06	52.6	78.048	34.635	32.558	-63.519	113.436	156.723	-63.489	-58.578	245.192	69.325	-59.376	-55.168	-54.531	-49.628	-21.464	-50.890	-8191	255	
1216.033	1	1	0	0	0.063531	0.21932	0.32666	0.11169	0.21807	0.13149	0.13515	0.14033	0.062228	0.089725	0.24189	0.25706	0.35792	0.25879	0.14526	0.23268	-1.6125	-2.2375	-1.975	-2.5062	-2.0104	-1.7521	-2.4479	-2.0271	-2.1771	-2.225	-1.5479	-2.1208	-1.925	-2.075	-2.2313	-2.0375	249.154	168.541	224.940	67.028	82.500	201.767	239.335	159.490	158.674	68.421	213.494	217.229	101.486	246.847	-11.853	270.077	0.00045939	0.0010502	0.00015313	1307.8	6.0341e-06	5.5469e-06	1314.4	355.22	1.232e-06	5.6403e-06	411.42	138.92	119.48	41.349	3.3723e-06	51.903	0.00045744	0.00045691	0.00012706	1316.6	4.9674e-06	4.9821e-06	1325.6	359.41	4.9613e-06	5.0276e-06	413.63	141.09	120.11	42.119	4.9443e-06	52.687	72.251	40.716	44.357	-63.602	19.556	89.934	-63.722	-58.656	49.778	42.593	-59.422	-55.274	-54.835	-49.854	-17.789	-50.796	-8191	255	
1216.154	1	1	0	0	0.23568	0.090346	0.13793	0.073217	0.13277	0.21389	0.27123	0.27818	0.10783	0.36935	0.033446	0.24628	0.18926	0.20351	0.1648	0.29553	-1.6854	-2.2375	-1.8521	-2.2313	-2.0229	-1.5542	-2.3875	-2.0292	-1.7021	-2.3396	-1.7875	-2.2958	-2.2021	-1.8833	-2.0771	-1.9479	59.095	270.785	277.162	213.937	168.876	-6.992	265.635	209.869	270.269	169.135	179.120	-58.540	-47.230	-59.286	195.765	196.840	0.00051475	0.0003431	0.00010608	1306.9	8.3588e-06	5.9347e-06	1316.2	354.9	2.7983e-06	4.4555e-06	413.45	139.11	119.04	41.417	3.1543e-06	51.574	0.00046065	0.00044904	0.00012634	1314.9	5.0008e-06	4.9533e-06	1326.3	359.36	5.0088e-06	4.9831e-06	414.04	141.17	120.16	42.143	4.8983e-06	52.563	78.309	-28.078	45.055	-63.547	11.054	59.652	-63.329	-58.613	-12.808	93.165	-59.777	-54.962	-54.807	-50.016	72.599	-50.768	-8191	255	
1216.250	1	1	0	0	0.14802	0.10465	0.19376	0.34475	0.27185	0.26845	0.29863	0.036826	0.18642	0.27232	0.21746	0.29203	0.11548	0.37404	0.040419	0.30192	-1.3312	-2.2708	-1.9062	-2.3854	-2.1042	-1.7583	-2.1771	-2.1208	-1.9917	-2.3292	-2.0875	-2.1625	-2.2083	-1.6708	-2.2521	-2.1104	93.843	166.081	45.321	246.240	187.666	251.977	230.881	-49.974	219.447	-18.747	242.612	172.038	241.999	37.730	48.975	272.241	0.00026674	0.00038353	0.00016395	1305.4	4.4961e-06	6.2461e-06	1311.7	355.2	2.4105e-06	7.8922e-06	412.28	139.23	118.72	41.345	1.563e-06	51.61	0.00045852	0.0004526	0.00012567	1315.1	4.9858e-06	4.9647e-06	1326.2	359.75	5.0111e-06	4.958e-06	413.55	141.15	120.03	42.173	4.9457e-06	52.467	88.435	-12.518	29.674	-63.370	103.327	108.506	-63.742	-58.788	265.396	114.965	-60.111	-55.098	-54.333	-49.981	10.831	-50.709	-8191	255	
1216.346	1	1	0	0	0.32303	0.24072	0.16869	0.15141	0.20487	0.19619	0.19954	0.14544	0.15971	0.29025	0.26942	0.25443	0.10552	0.092161	0.098913	0.086077	-1.4771	-2.4062	-1.8958	-2.0958	-2.1229	-2.0229	-2.5104	-2.1646	-1.7979	-2.3104	-1.775	-1.8667	-2.2938	-2.0604	-2.2083	-2.2354	261.701	178.506	-73.492	51.264	26.106	21.765	157.032	234.766	103.188	270.440	171.526	-4.278	86.165	-71.206	39.994	-60.047	0.00050904	0.00038105	0.00013195	1303.1	9.0808e-06	6.3009e-06	1317.9	355.11	2.1148e-06	6.5419e-06	413.49	139.36	118.6	41.478	1.7252e-06	51.651	0.00045329	0.00045037	0.00012631	1314.6	4.9408e-06	4.8948e-06	1326.7	359.65	4.9524e-06	4.9278e-06	413.08	141.17	119.87	42.101	4.9575e-06	52.56	57.587	72.364	15.407	-63.551	40.500	82.702	-63.770	-58.782	81.726	88.253	-59.521	-54.941	-54.884	-49.802	20.146	-50.694	-8191	255	
1216.418	1	1	0	0	0.20585	0.031395	0.026894	0.15426	0.18761	0.11013	0.40895	0.03339	0.26895	0.16668	0.14808	0.25381	0.19109	0.24709	0.11356	0.093864	-1.3792	-2.0271	-1.7771	-2.2396	-2.2896	-2.0542	-2.2812	-2.3042	-1.525	-2.1813	-1.9292	-1.7604	-2.2958	-1.8188	-2.0396	-2.2958	-27.629	24.387	255.782	163.119	81.202	160.752	214.965	232.774	281.680	201.204	72.890	-64.136	179.292	10.164	110.124	244.592	0.00059244	0.0010037	0.00012257	1311.3	7.0474e-06	6.4015e-06	1315.7	355.41	7.3091e-06	8.1229e-06	412.57	139.39	118.61	41.527	6.7655e-06	51.559	0.00045905	0.00045294	0.00012721	1315.9	5.0418e-06	5.0284e-06	1326.6	359.56	5.0612e-06	5.0036e-06	413.6	141.24	120.01	42.124	4.9998e-06	52.555	79.226	7.094	27.109	-63.619	5.015	44.317	-63.563	-58.712	13.755	30.853	-59.451	-55.408	-54.858	-50.329	13.190	-51.185	-8191	255	
1216.514	1	1	0	0	0.18562	0.17603	0.026758	0.083003	0.068789	0.1379	0.12532	0.31369	0.24049	0.13229	0.1075	0.28437	0.15367	0.48226	0.13103	0.10047	-1.2958	-1.8813	-1.8333	-1.6979	-2.3167	-1.7646	-2.0271	-2.2562	-1.7833	-2.3417	-2.0458	-1.7687	-2.1854	-1.8625	-1.8667	-2.1396	16.722	114.743	161.289	157.321	196.396	105.702	236.575	215.321	186.164	174.276	-56.240	192.114	174.128	-76.626	-25.151	-63.131	0.00061067	0.00042822	8.3345e-05	1307.3	8.5943e-06	2.1787e-06	1314.9	354.8	3.4241e-06	8.2177e-06	409.68	139.46	119.48	41.618	2.6878e-06	51.858	0.00045787	0.00045636	0.00012759	1314.1	5.0241e-06	4.9732e-06	1325.3	359.42	5.0352e-06	4.9769e-06	413.56	141.15	120.22	42.258	5.0106e-06	52.586	70.522	31.266	28.512	-63.924	-5.925	94.200	-63.910	-59.187	-42.148	79.904	-59.405	-55.685	-54.777	-50.239	63.501	-50.837	-8191	255	
1216.633	1	1	0	0	0.23202	0.18236	0.10032	0.32831	0.209	0.16981	0.18698	0.069035	0.32024	0.31539	0.084382	0.14571	0.39809	0.048146	0.096086	0.11677	-1.2729	-2.1188	-2.2396	-1.9813	-2.3021	-1.7417	-2.0167	-2.2917	-1.9688	-2.2646	-2.225	-1.925	-1.9771	-1.8687	-1.8396	-2.5062	168.612	144.934	193.791	120.743	9.560	153.828	192.000	271.757	186.342	132.716	155.279	255.638	-72.082	-58.590	80.846	279.372	0.00065086	0.00041238	0.00017594	1304.6	2.9986e-06	1.7313e-06	1313.3	356.04	3.6626e-06	2.241e-06	415.62	139	118.61	41.368	7.9985e-06	51.452	0.00046222	0.00045707	0.00012646	1314.5	5.0809e-06	5.0702e-06	1325.7	360	5.0601e-06	5.05e-06	414.28	141.05	120.07	42.098	5.1198e-06	52.637	77.754	27.044	13.921	-63.675	195.685	60.484	-63.817	-59.009	108.214	90.808	-59.283	-55.106	-54.881	-49.703	58.676	-50.607	-8191	255	
1216.729	1	1	0	0	0.15833	0.15924	0.13345	0.20898	0.24492	0.080544	0.29733	0.33212	0.17575	0.12791	0.34141	0.19535	0.22694	0.17607	0.42748	0.26154	-1.4167	-1.9271	-2.0958	-1.7625	-2.2	-1.9917	-2.0812	-2.4417	-1.7792	-1.8875	-2.1937	-1.7437	-2.2833	-1.8062	-1.7812	-2.4396	254.683	9.924	273.682	197.641	139.789	18.673	229.011	195.068	191.353	144.967	-22.511	184.757	102.481	12.641	271.801	-62.888	0.00056053	0.00078977	0.00017352	1313.5	3.4696e-06	4.2825e-06	1317	355.34	5.0246e-06	1.8072e-06	412.35	138.99	119.7	41.418	1.4603e-06	51.76	0.00046805	0.00046282	0.00013024	1316.3	5.0246e-06	5.0904e-06	1329	359.36	5.0807e-06	5.0264e-06	413.64	140.96	120.29	42.214	5.0495e-06	52.679	83.134	44.197	-2.754	-63.505	268.020	92.869	-63.796	-58.880	90.640	102.286	-59.273	-55.185	-55.029	-49.922	49.549	-51.003	-8191	255	
1216.825	1	1	0	0	0.077505	0.23705	0.12566	0.16869	0.074713	0.095266	0.28655	0.039588	0.031752	0.28034	0.11512	0.2545	0.21346	0.43229	0.053148	0.18358	-1.4104	-1.8813	-2.1146	-1.9312	-2.0083	-2.0729	-2.0062	-2.4604	-1.975	-1.8687	-2.1896	-1.8104	-2.2562	-2.0521	-1.6896	-2.3104	155.036	251.984	165.779	232.905	220.890	178.529	223.232	273.379	223.840	-16.431	80.296	268.135	89.202	227.602	-22.829	190.074	0.00051747	6.3564e-05	9.714e-05	1310.9	8.7226e-06	5.7131e-06	1313.5	355.8	5.997e-06	7.9055e-06	411.14	138.9	118.88	41.431	8.8808e-06	51.788	0.00045532	0.0004517	0.00012747	1314.9	4.9835e-06	4.9875e-06	1325.5	359.71	5.036e-06	4.8699e-06	413.57	141.22	120.1	42.191	4.939e-06	52.642	85.685	206.046	-65.632	-63.714	72.856	134.890	-63.791	-59.139	-0.416	70.130	-59.647	-55.188	-54.749	-50.179	46.463	-50.961	-8191	255	
1216.921	1	1	0	0	0.24125	0.16354	0.045521	0.19214	0.032096	0.23228	0.23473	0.47975	0.20891	0.30941	0.18481	0.19317	0.081469	0.17081	0.15608	0.30016	-1.4542	-2.075	-2.1688	-1.7896	-2.1042	-2.1271	-1.7583	-2.3042	-1.7979	-1.7812	-2.1562	-1.7875	-2.2208	-2.3146	-1.6125	-2.4854	32.590	200.060	24.309	-72.854	122.229	131.571	225.241	202.205	3.160	67.914	245.664	8.913	85.124	-6.054	267.383	166.061	0.00045607	0.00078932	0.00017531	1304.2	3.7666e-06	2.7646e-06	1314.2	355.57	1.5523e-06	4.0958e-06	413.39	139.46	118.67	41.539	5.5054e-06	51.806	0.00045144	0.00044769	0.00012511	1312.5	4.9072e-06	4.8537e-06	1324.3	359.53	4.8588e-06	4.9111e-06	413.49	141.16	119.96	42.224	4.8557e-06	52.691	83.971	15.361	22.436	-63.775	-8.281	149.563	-63.618	-58.839	-32.962	104.633	-59.057	-54.997	-54.461	-49.444	66.740	-50.097	-8191	255	
1217.017	1	1	0	0	0.10581	0.22098	0.53427	0.39333	0.06925	0.39704	0.28663	0.14739	0.043451	0.014646	0.088942	0.081763	0.098338	0.25643	0.16353	0.060178	-1.5833	-1.7188	-2.0812	-1.6396	-1.7208	-1.9958	-1.9146	-2.3563	-1.8458	-1.8104	-2.2917	-1.9083	-2.125	-2.3021	-1.5729	-1.9396	168.069	96.855	279.333	262.653	189.931	-41.604	246.837	244.350	94.168	-27.687	259.805	211.210	213.832	230.648	238.327	-70.137	0.00028409	0.00039302	3.0886e-05	1310.8	1.0421e-06	5.3716e-06	1314.9	355.65	4.4764e-06	7.281e-06	413.18	139.39	119.52	41.551	7.468e-06	51.873	0.00045097	0.00044945	0.00012487	1317.1	4.8651e-06	4.8691e-06	1325.5	359.5	4.9368e-06	4.9274e-06	413.2	141.32	120.13	42.238	4.8908e-06	52.767	63.877	107.780	77.559	-63.461	249.669	81.803	-63.274	-59.039	30.153	88.900	-59.635	-54.955	-54.934	-50.185	37.792	-50.787	-8191	255	
1217.113	1	1	0	0	0.059665	0.1483	0.13124	0.19237	0.2164	0.21586	0.3564	0.15041	0.30643	0.2743	0.25243	0.30676	0.13384	0.17109	0.20966	0.14199	-1.3229	-1.6437	-2.1167	-1.9979	-2.0854	-2.3396	-1.9417	-2.075	-1.9854	-1.8104	-2.4375	-2.0208	-2.0271	-2.3333	-1.75	-2.1583	77.597	22.936	243.528	-73.134	-36.720	281.871	272.288	157.988	-40.132	-70.636	225.430	274.555	-37.858	267.802	152.991	-39.733	0.00049931	0.00065924	0.00010766	1307.1	7.7961e-06	3.2749e-06	1312.2	354.92	6.6845e-06	3.4081e-06	411.88	139.69	119.28	41.464	7.3715e-06	52.005	0.00044686	0.00044514	0.00012352	1314.6	4.8621e-06	4.8205e-06	1325.6	359.14	4.8042e-06	4.7855e-06	412.44	141.37	119.94	42.193	4.7613e-06	52.705	89.789	47.757	-26.620	-63.803	22.876	56.281	-63.699	-58.747	79.050	5.200	-59.240	-54.820	-54.476	-49.547	30.254	-50.464	-8191	255	
1217.234	1	1	0	0	0.14401	0.23779	0.20512	0.35758	0.27564	0.17763	0.2461	0.28383	0.092011	0.084312	0.20374	0.045676	0.16384	0.1876	0.19296	0.1949	-1.7958	-1.6625	-2.1021	-1.8958	-1.7854	-2.0125	-1.8458	-2.0604	-2.0604	-1.5354	-2.1542	-2.0771	-1.9646	-2.2792	-1.9146	-2.3625	230.117	38.768	-60.324	205.163	175.491	227.011	240.500	202.409	149.570	144.278	-72.113	117.866	167.123	213.763	208.525	201.730	0.00029659	0.00029679	0.00012109	1305.2	5.7704e-06	1.2049e-05	1309.5	356.62	2.9975e-06	6.9196e-06	412.05	139.33	118.54	41.504	4.0033e-06	51.786	0.00043727	0.00043211	0.0001209	1312.3	4.7748e-06	4.7573e-06	1322.5	359.66	4.7793e-06	4.7449e-06	412.69	141.32	119.83	42.175	4.7837e-06	52.621	89.979	30.559	28.430	-63.418	38.357	69.731	-64.096	-59.246	61.766	76.724	-59.375	-55.318	-54.742	-49.837	111.382	-50.828	-8191	255	
1217.330	1	1	0	0	0.29894	0.29313	0.19974	0.092479	0.054963	0.17287	0.085366	0.31776	0.44637	0.048845	0.071007	0.40095	0.17696	0.32572	0.16773	0.13539	-1.8104	-1.8458	-2.2396	-2.0708	-1.9521	-2.4167	-2.0854	-2.2938	-2.2938	-1.8229	-2.3729	-2.1604	-1.875	-2.3417	-1.9354	-2.1854	168.360	0.147	134.616	-66.487	201.877	210.718	217.566	-54.866	87.407	216.217	-71.416	108.077	262.155	-76.175	57.207	-9.398	0.00033652	0.00039911	7.014e-05	1307.5	5.6511e-06	4.0081e-06	1311.4	355.4	3.4563e-06	2.5814e-06	411.65	138.51	118.6	41.353	1.9961e-06	51.936	0.00044454	0.00043788	0.00012311	1313	4.8471e-06	4.8651e-06	1323.1	359.54	4.925e-06	4.9416e-06	412.76	141.08	120.14	42.115	4.945e-06	52.643	87.271	106.225	-18.489	-63.380	36.306	80.353	-63.319	-58.366	-12.986	107.865	-59.078	-55.166	-54.829	-50.029	0.130	-50.676	-8191	255	
1217.426	1	1	0	0	0.082457	0.27359	0.18709	0.24402	0.078647	0.25067	0.11365	0.43954	0.14001	0.14312	0.24591	0.24995	0.11167	0.29741	0.19996	0.16774	-1.7396	-1.8062	-2.3063	-2.15	-1.7687	-2.175	-2.1104	-1.9104	-2.2083	-1.6292	-2.3542	-2.1625	-1.8583	-2.3458	-2.0062	-2.0875	162.008	282.617	143.545	271.517	111.885	26.257	245.284	209.654	-38.221	128.713	-39.735	191.114	-60.841	-36.875	123.993	26.043	0.00032048	8.3861e-05	7.4871e-05	1306.2	1.9319e-06	5.575e-06	1313.7	355.72	4.9946e-06	3.1949e-06	412.59	139.43	117.67	41.462	6.8964e-06	51.801	0.00045486	0.00045198	0.00012526	1314.3	4.9551e-06	4.9283e-06	1323.1	359.43	4.9783e-06	4.9365e-06	412.29	141.25	119.58	42.123	4.9708e-06	52.584	72.832	88.350	-5.800	-63.458	77.421	107.606	-63.975	-58.726	1.882	69.680	-59.039	-54.987	-54.997	-49.787	-2.446	-50.489	-8191	255	
1217.522	1	1	0	0	0.22918	0.082733	0.25778	0.08628	0.20215	0.25215	0.11406	0.28821	0.34202	0.055743	0.22993	0.10289	0.14656	0.19694	0.1565	0.046235	-1.7583	-1.8021	-2.1896	-2.3667	-1.7563	-2.3021	-2.0875	-2.1125	-2.2458	-1.6854	-2.0229	-2.2896	-1.7729	-2.3646	-1.9729	-1.8604	54.943	147.988	267.717	-56.379	269.743	-49.344	232.558	234.485	100.032	-54.236	142.313	-65.688	115.144	180.549	174.463	110.847	0.00050801	0.00098567	0.0001468	1301.3	3.6064e-06	1.0183e-05	1312.7	354.99	5.3629e-06	3.3972e-06	411.23	139.71	118.49	41.314	6.6711e-06	51.74	0.00045915	0.00045571	0.00012581	1311.3	4.9423e-06	4.984e-06	1324.1	359.2	4.9827e-06	4.9487e-06	412.93	141.42	120.14	42.152	4.9672e-06	52.651	92.665	5.454	71.194	-63.365	-13.200	58.880	-63.904	-59.013	95.736	46.531	-59.202	-55.158	-54.866	-49.852	91.298	-50.925	-8191	255	
1217.641	1	1	0	0	0.091578	0.34255	0.2788	0.28294	0.10342	0.27441	0.14007	0.23945	0.1544	0.14266	0.17187	0.12718	0.25845	0.29756	0.19243	0.29785	-1.9083	-1.7042	-1.9521	-2.0771	-1.5271	-2.2042	-2.3042	-2.0729	-2.3604	-1.8958	-1.7979	-2.3375	-1.7292	-2.2083	-1.9771	-1.9125	180.152	205.397	279.289	267.921	142.014	-9.707	207.815	114.022	-75.874	72.607	232.152	223.130	78.446	248.638	3.260	149.099	0.0002409	0.00043159	7.1097e-05	1305.3	4.1814e-06	4.5738e-06	1316.2	355.94	1.1317e-06	5.1084e-06	415.27	139.19	119.65	41.453	1.7172e-06	51.653	0.00046037	0.00045539	0.00012781	1313.8	5.0327e-06	4.9945e-06	1326.4	359.91	4.9654e-06	5.022e-06	414.34	141.29	120.28	42.2	4.9637e-06	52.67	50.504	1.981	-33.033	-63.500	42.674	85.987	-63.562	-58.653	167.424	90.070	-59.304	-54.927	-54.769	-50.031	20.539	-50.438	-8191	255	
1217.713	1	1	0	0	0.20912	0.40602	0.025277	0.17032	0.33584	0.048671	0.12408	0.025486	0.31303	0.36201	0.10081	0.17107	0.10182	0.061011	0.11906	0.11863	-1.9875	-1.875	-1.85	-2.4146	-1.6938	-2.1125	-2.4042	-2.0708	-2.1542	-1.7437	-2.0021	-2.2625	-1.6667	-1.9333	-1.8771	-1.7812	147.910	38.685	-40.357	275.960	254.354	32.222	172.856	143.645	95.850	121.088	40.264	47.460	-21.025	131.109	47.902	194.316	0.00039363	0.00063918	0.0002046	1306.4	2.4443e-06	3.7614e-06	1311.3	354.61	5.9946e-06	1.3428e-06	413.93	139.31	118.33	41.539	2.3681e-06	51.851	0.000457	0.00046009	0.00012735	1313.7	4.9817e-06	4.9671e-06	1325.5	359.63	4.9839e-06	5.0088e-06	414.62	141.33	120.05	42.269	4.9788e-06	52.732	69.418	11.773	8.684	-63.362	-7.643	113.282	-63.678	-58.739	-34.109	-69.626	-59.567	-55.156	-54.737	-50.115	28.372	-50.646	-8191	255	
1217.834	1	1	0	0	0.11903	0.17069	0.22933	0.21541	0.17928	0.081043	0.36488	0.14415	0.11691	0.18775	0.3128	0.1278	0.087337	0.031521	0.055217	0.29541	-1.7625	-2.0062	-2.0375	-2.3646	-1.6792	-1.8729	-2.3458	-1.9167	-2.1937	-2.0146	-1.6063	-2.4688	-1.8042	-1.8521	-2.2708	-1.8583	151.225	224.389	-45.232	-74.510	113.381	-26.060	192.039	216.159	137.023	141.757	220.798	256.220	105.483	166.785	237.462	-62.204	0.00073611	0.00054787	0.00019071	1309.3	8.5961e-06	5.2505e-06	1316.4	355	2.7285e-06	1.3504e-06	412.35	139.26	119.1	41.666	2.1612e-06	51.917	0.0004557	0.00045429	0.00012726	1314.9	4.9343e-06	4.9751e-06	1326.4	359.59	4.9175e-06	4.9182e-06	412.81	141.41	120.08	42.288	4.9852e-06	52.743	78.977	-0.583	10.165	-63.441	13.587	71.144	-63.316	-59.190	165.212	166.961	-60.286	-55.828	-55.256	-50.144	-6.491	-50.741	-8191	255	
1217.930	1	1	0	0	0.28356	0.25364	0.10529	0.25031	0.072958	0.071088	0.23863	0.16945	0.18241	0.30522	0.20897	0.17057	0.10403	0.090519	0.077087	0.35733	-1.65	-1.6458	-1.5354	-2.3729	-1.8708	-1.8917	-2.2583	-1.9062	-2.1479	-2.1479	-1.6708	-2.1104	-1.8229	-2.1521	-2.0625	-1.8917	38.707	-14.878	-40.349	211.532	147.986	264.272	265.466	190.790	87.541	45.622	272.440	246.366	119.503	213.055	235.864	255.391	0.00039735	0.00036655	0.00011281	1303	4.517e-06	3.5809e-06	1311.3	355.16	3.7265e-06	5.6969e-06	411.62	139.29	118.94	41.597	8.3069e-06	51.816	0.00045252	0.00045632	0.00012491	1315.1	4.979e-06	4.8741e-06	1326.4	359.79	4.9655e-06	4.9378e-06	413.5	141.44	120.27	42.27	4.9148e-06	52.814	77.644	42.214	67.229	-63.848	86.362	80.587	-64.187	-59.101	33.187	79.036	-59.438	-55.450	-55.438	-50.234	-0.950	-50.723	-8191	255	
1218.026	1	1	0	0	0.081516	0.26066	0.057767	0.15412	0.1675	0.22153	0.12882	0.1644	0.069413	0.18666	0.36813	0.078053	0.023329	0.028381	0.34789	0.15014	-1.6792	-2.0875	-1.525	-2.1833	-1.8521	-2.0375	-2.3812	-1.7313	-2.0938	-2.1063	-1.85	-2.1771	-1.8729	-1.9542	-2.0729	-1.8813	172.301	-29.308	9.295	228.541	-37.470	18.356	228.273	-64.706	-18.336	-4.691	197.445	125.865	-76.696	234.175	222.591	174.422	0.00035309	0.00061248	0.00013871	1311.2	3.6575e-06	6.9642e-06	1315.9	355.54	4.7302e-06	1.5789e-06	412.21	139.44	118.32	41.536	2.0415e-06	51.789	0.00045653	0.00045399	0.00012626	1317.5	4.9653e-06	4.9786e-06	1328.6	360.23	4.9521e-06	4.9556e-06	413.29	141.48	120.26	42.338	4.9677e-06	52.752	60.317	61.170	89.508	-63.698	34.790	76.876	-64.057	-59.194	18.363	-4.885	-59.732	-55.437	-55.129	-50.166	47.649	-51.020	-8191	255	
1218.122	1	1	0	0	0.059445	0.19243	0.24333	0.098248	0.069493	0.23098	0.11493	0.16161	0.11442	0.41996	0.26524	0.099884	0.16466	0.22285	0.096644	0.32473	-1.5667	-1.9896	-1.5396	-2.4062	-1.9875	-1.6542	-2.2771	-1.7167	-1.9646	-2.2313	-1.6938	-2.1271	-2.025	-1.5917	-2.0042	-1.85	104.497	188.612	0.849	-47.528	-19.782	-9.632	229.012	253.856	69.835	67.830	260.470	256.051	200.207	-12.082	19.409	220.693	0.00060134	0.00043134	0.00012111	1307.4	6.6151e-06	4.4298e-06	1312.7	354.69	4.4801e-06	5.0546e-06	411.61	139.13	118.92	41.624	7.3133e-06	51.74	0.00045604	0.00045389	0.0001251	1316.5	4.9323e-06	4.912e-06	1324.4	359.69	4.945e-06	4.9422e-06	413.04	141.49	120.27	42.263	4.9744e-06	52.777	80.014	36.755	101.223	-64.064	126.667	39.604	-63.943	-59.022	50.739	96.748	-59.058	-55.385	-54.922	-50.361	78.925	-51.142	-8191	255	
1218.218	1	1	0	0	0.37114	0.14911	0.12175	0.096094	0.15139	0.21881	0.096648	0.26981	0.13873	0.12247	0.37732	0.20773	0.18246	0.20393	0.17492	0.15097	-1.6583	-2.2604	-1.6896	-2.0896	-2.1083	-1.8375	-2.5042	-1.9958	-1.9458	-2.35	-2.0417	-2.2083	-2.2229	-1.825	-2.1854	-2.0271	-16.779	-12.505	138.054	258.901	108.896	41.554	230.366	206.569	183.176	59.438	-48.039	27.918	267.372	178.818	114.617	75.597	0.00044907	0.00048956	0.00018133	1303.5	4.4636e-06	3.8635e-06	1314	355.4	5.5435e-06	5.8659e-06	413.8	140.09	118.49	41.511	7.3096e-06	51.691	0.00045456	0.0004467	0.00012628	1314.1	4.944e-06	4.9329e-06	1325.4	359.71	4.9396e-06	4.9632e-06	413.88	141.65	120.22	42.261	4.9077e-06	52.651	96.695	32.097	71.599	-63.798	69.741	27.934	-63.785	-59.143	-67.442	183.867	-59.609	-54.975	-54.458	-49.993	87.880	-50.872	-8191	255	
1218.314	1	1	0	0	0.26094	0.22709	0.17982	0.25784	0.2186	0.084395	0.37626	0.10377	0.084195	0.21193	0.03323	0.21981	0.064296	0.063155	0.060848	0.26606	-1.3583	-2.2167	-1.8021	-2.0771	-2.0375	-1.8958	-2.4271	-1.9438	-1.6542	-2.2042	-1.5333	-2.1729	-2.3771	-1.6187	-1.9958	-2.0438	126.893	-69.256	201.628	-75.799	204.574	240.845	219.821	280.398	82.775	40.587	-21.061	193.362	119.782	51.897	155.007	236.186	0.00062451	0.00056526	8.1948e-05	1302.2	2.8057e-06	4.2648e-06	1310.4	355.67	2.7324e-06	5.9892e-06	414.24	139.89	119.17	41.531	3.7284e-06	51.801	0.00045734	0.00045468	0.00012678	1312.3	4.976e-06	4.9521e-06	1324.7	359.95	4.9247e-06	4.9193e-06	413.2	141.45	120.26	42.299	4.9273e-06	52.698	63.277	37.152	12.274	-63.230	204.728	74.198	-63.696	-59.056	20.462	114.231	-59.267	-55.103	-54.916	-50.070	73.880	-50.575	-8191	255	
1218.411	1	1	0	0	0.066446	0.28559	0.12851	0.25993	0.12277	0.1458	0.39718	0.33234	0.19661	0.097677	0.11059	0.13569	0.080793	0.16259	0.23582	0.16624	-1.5354	-2.2417	-1.7896	-1.9208	-1.9604	-1.8167	-2.4	-2.0667	-1.3958	-2.1958	-1.8458	-2.1521	-2.2708	-1.9958	-2.0667	-2.1104	-23.828	224.830	72.273	-57.872	12.711	87.362	199.190	194.815	188.229	81.472	11.331	7.357	-69.674	190.775	24.986	269.265	0.00052715	0.0008789	5.1936e-05	1309.5	4.5148e-06	6.1111e-06	1313.8	354.6	8.8235e-06	6.351e-06	412.48	139.72	119.48	41.437	2.5595e-06	51.695	0.0004633	0.0004511	0.00012622	1315.4	4.9418e-06	5.0307e-06	1326.1	359.78	4.9812e-06	4.9479e-06	413.78	141.66	120.16	42.205	4.9625e-06	52.7	65.904	21.809	80.349	-63.681	86.881	127.859	-63.839	-59.497	49.017	99.165	-59.644	-55.282	-54.771	-50.152	91.502	-50.971	-8191	255	
1218.507	1	1	0	0	0.11301	0.12587	0.2372	0.35695	0.20669	0.298	0.33468	0.20163	0.21719	0.14345	0.099013	0.24802	0.079005	0.12483	0.08663	0.12556	-1.1292	-2.3396	-1.9188	-2.1562	-2.3792	-1.6375	-2.2438	-2.3312	-1.7271	-2.2854	-1.9979	-1.9438	-2.1688	-1.8854	-1.9479	-2.3354	-24.157	35.698	107.363	275.888	170.004	-35.904	242.971	-73.066	137.931	-41.273	110.951	-33.511	79.428	268.975	-40.845	241.837	0.00039208	0.00096288	4.8927e-05	1305.8	3.0339e-06	5.9705e-06	1312.8	355.85	2.6605e-06	8.5572e-06	413.41	139.42	118.72	41.414	1.6269e-06	51.77	0.00045563	0.00045458	0.00012643	1315.1	4.9896e-06	4.9634e-06	1326.1	359.99	5.0126e-06	4.9771e-06	414.03	141.16	120.07	42.225	4.9958e-06	52.746	71.125	22.465	25.428	-63.751	-4.802	123.444	-63.985	-58.977	-18.313	71.182	-59.462	-55.309	-54.864	-49.907	-42.885	-50.787	-8191	255	
1218.603	1	1	0	0	0.13174	0.24376	0.18769	0.34126	0.04256	0.035393	0.11549	0.23962	0.17611	0.095125	0.20014	0.093043	0.18653	0.086788	0.19065	0.08604	-1.3	-2.2646	-1.9854	-2.0917	-2.1167	-1.5854	-2.1958	-2.2208	-1.7729	-2.1813	-1.9354	-1.9646	-2.2875	-1.9229	-1.9583	-2.1354	197.097	222.733	232.561	-72.930	109.740	-53.295	-69.541	-53.294	186.949	262.201	-44.483	-47.257	-53.204	100.089	3.261	-69.051	0.00050169	0.00051794	0.00017705	1304.1	9.467e-06	6.9841e-06	1309.3	354.61	4.6693e-06	5.3241e-06	413.87	139.64	118.35	41.347	7.1384e-06	51.624	0.00046055	0.000456	0.00012618	1315.3	4.9849e-06	4.9777e-06	1324.7	359.61	5.0017e-06	4.9753e-06	414.14	141.57	119.89	42.177	4.9546e-06	52.628	98.072	99.423	18.198	-63.652	-26.553	69.089	-63.469	-58.849	-2.450	60.954	-59.071	-55.361	-54.411	-49.780	108.618	-50.762	-8191	255	
1218.722	1	1	0	0	0.20508	0.38297	0.087766	0.10677	0.24252	0.13093	0.30955	0.2292	0.17531	0.16522	0.33316	0.15284	0.091542	0.16697	0.069461	0.090687	-1.3083	-2.2833	-1.9333	-1.9354	-2.3667	-1.7437	-2.0125	-2.2521	-1.7792	-2.0958	-2.1562	-1.7812	-2.2062	-1.9875	-1.9667	-2.4875	218.301	151.385	252.373	192.938	151.692	223.839	138.562	160.672	58.695	176.187	-43.206	66.338	131.599	-12.028	259.739	202.511	0.0005809	0.00043144	0.00011965	1310.3	1.7652e-06	1.3111e-06	1314	355.63	1.4982e-06	8.7213e-06	413.8	139.42	118.65	41.529	7.3845e-06	51.6	0.00046307	0.00045634	0.00012789	1315.4	4.9897e-06	5.0539e-06	1326.3	360.5	5.0377e-06	5.0153e-06	413.83	141.43	120.28	42.209	5.0033e-06	52.644	85.771	23.879	77.777	-63.335	-5.826	119.328	-63.488	-58.788	-28.901	25.694	-59.242	-54.912	-54.238	-49.642	75.149	-50.498	-8191	255	
1218.818	1	1	0	0	0.15899	0.2585	0.17129	0.17848	0.21068	0.18168	0.22249	0.056982	0.23805	0.19857	0.29182	0.32102	0.032393	0.11086	0.3083	0.10565	-1.4688	-2.1458	-1.9917	-1.7521	-2.2896	-1.9167	-2.3146	-2.3812	-2.0187	-2.1396	-2.0979	-1.7833	-2.0917	-1.8062	-1.9625	-2.2917	92.075	5.663	165.236	280.027	28.674	41.200	164.505	150.828	237.665	225.258	-7.616	-74.461	16.973	90.837	187.178	158.397	0.00051804	0.00038852	0.00011778	1310.2	8.1375e-06	5.8719e-06	1313.7	355.77	2.8494e-06	1.0465e-05	413.06	139.29	119.38	41.678	5.1729e-06	51.462	0.00046305	0.00045511	0.00012827	1316.3	5.0392e-06	4.9742e-06	1326.9	359.94	4.9769e-06	4.9617e-06	413.88	141.34	120.37	42.268	4.999e-06	52.594	88.835	44.017	73.712	-63.254	-8.407	63.890	-63.458	-58.410	55.189	85.857	-59.057	-54.613	-54.302	-49.357	74.612	-50.101	-8191	255	
1218.914	1	1	0	0	0.24499	0.027003	0.15451	0.14716	0.10981	0.016569	0.14849	0.19702	0.17013	0.17906	0.15745	0.078759	0.16056	0.09926	0.13029	0.12508	-1.3167	-1.9208	-2.0604	-1.7313	-2.3937	-2.1646	-2.2021	-2.5292	-1.7583	-1.8917	-2.2208	-2.1229	-2.125	-2.0563	-1.6375	-2.4854	85.822	37.401	-19.409	254.857	162.706	-75.285	216.145	279.288	264.923	255.937	85.791	18.115	274.371	278.895	8.447	267.683	0.00050471	0.00044227	0.00012669	1299.9	6.8579e-06	1.7506e-06	1316.4	355.11	1.4098e-06	3.5925e-06	410.56	139.47	118.53	41.43	4.8138e-06	51.821	0.00046195	0.00045085	0.00012625	1313.4	5.0008e-06	4.9851e-06	1326.4	359.7	4.9884e-06	4.9865e-06	414.5	141.4	120	42.2	5.0159e-06	52.733	73.574	-0.889	18.276	-63.336	23.810	12.706	-63.442	-58.381	112.598	51.843	-58.723	-54.843	-54.331	-49.531	102.468	-50.419	-8191	255	
1219.010	1	1	0	0	0.11657	0.24927	0.10905	0.14248	0.16411	0.11424	0.13078	0.044574	0.15484	0.08224	0.1953	0.13067	0.14776	0.2656	0.075492	0.21513	-1.5396	-1.9646	-2.1583	-1.8083	-2.2229	-1.9333	-2.0042	-2.3937	-1.9	-1.9188	-2.3042	-2.0104	-2.1042	-2.0104	-1.7875	-2.3271	25.384	276.545	217.781	-31.224	172.036	46.381	218.592	166.075	215.964	-34.244	201.062	-69.275	-75.053	148.277	235.938	219.223	0.00044632	0.00041919	0.00012547	1307.4	1.7783e-06	7.1589e-06	1314.6	355.59	2.5012e-06	6.2761e-06	414.07	139.43	119.51	41.267	2.8967e-06	51.908	0.0004637	0.00045562	0.00012653	1315.2	4.9261e-06	5.0101e-06	1326.6	359.93	5.0348e-06	4.9757e-06	414.7	141.45	120.14	42.2	4.9895e-06	52.784	72.690	46.415	-36.340	-63.202	-42.734	95.588	-63.113	-58.403	48.231	83.572	-58.695	-54.341	-53.763	-49.558	52.304	-49.925	-8191	255	
1219.106	1	1	0	0	0.0096736	0.20054	0.23295	0.23433	0.081756	0.074915	0.20885	0.20753	0.079561	0.1821	0.16257	0.18828	0.10701	0.13015	0.35519	0.17078	-1.3875	-1.8563	-2.2417	-1.8021	-1.9375	-2.1396	-1.9562	-2.4583	-2.1479	-1.9667	-2.3375	-1.9583	-2.325	-2.3729	-1.875	-2.2708	-17.218	-59.093	-34.212	-52.259	214.275	-44.069	175.320	219.373	37.728	86.829	150.998	10.400	-74.650	248.255	61.506	193.407	0.00039656	0.00051907	5.2412e-05	1306.8	3.4404e-06	1.0036e-05	1316.2	355.09	8.6814e-06	3.617e-06	412.66	139.3	119.45	41.462	1.8713e-06	51.77	0.00046337	0.00045598	0.00012677	1314.7	4.9957e-06	5.0048e-06	1326.4	359.92	5.0461e-06	5.0135e-06	413.67	141.43	120.19	42.261	5.0227e-06	52.67	90.668	50.361	112.528	-63.087	92.942	85.792	-63.398	-58.461	53.088	-24.807	-58.936	-54.725	-54.170	-49.699	45.482	-50.046	-8191	255	
1219.202	1	1	0	0	0.061459	0.19382	0.26844	0.23225	0.10471	0.1358	0.17167	0.17185	0.12564	0.13483	0.17982	0.29709	0.30314	0.18537	0.27076	0.21949	-1.4917	-1.7646	-2.25	-2.0521	-2.0167	-2.1833	-1.8646	-2.225	-1.9521	-1.8729	-2.1646	-1.8438	-1.9562	-2.375	-1.7437	-2.425	122.629	254.666	193.404	230.482	82.406	-26.879	-6.650	-10.066	117.248	270.622	213.155	218.920	81.127	237.831	136.068	162.835	0.00047407	0.00070867	0.00011485	1306.6	5.4903e-06	5.0267e-06	1315.7	354.8	2.8311e-06	6.9568e-06	411.51	139.28	118.61	41.449	2.1518e-06	51.885	0.00046233	0.00046023	0.00012695	1314.9	5.0143e-06	5.0205e-06	1326.3	359.8	4.9873e-06	5.0448e-06	413.52	141.37	120.15	42.165	5.0534e-06	52.706	67.336	-22.141	20.483	-63.122	50.382	70.766	-63.450	-58.243	-15.951	46.493	-58.627	-54.473	-54.193	-49.360	92.560	-50.611	-8191	255	
1219.323	1	1	0	0	0.15532	0.098858	0.023867	0.062309	0.16714	0.087717	0.35186	0.15702	0.23845	0.32813	0.25452	0.11374	0.16993	0.1567	0.40264	0.15745	-1.7396	-1.7208	-2.3021	-2.2687	-2.0083	-2.3167	-2.0708	-2.3521	-2.2938	-1.8125	-2.2062	-2.0917	-2.0292	-2.2583	-1.8438	-2.0167	268.898	129.815	249.831	255.829	206.023	283.018	207.924	191.873	104.975	250.972	-28.194	121.902	-61.420	51.466	254.061	-21.227	0.00051569	6.2311e-05	0.00016244	1304.2	1.5924e-06	8.0473e-06	1316.2	355.91	3.704e-06	8.5743e-06	412.45	139.48	118.99	41.551	4.8391e-06	51.759	0.00046292	0.00046357	0.00012867	1314.8	5.0474e-06	5.0339e-06	1326.7	359.86	5.0489e-06	5.0546e-06	413.05	141.51	120.11	42.281	5.0196e-06	52.657	73.872	27.126	23.279	-63.146	26.760	89.395	-63.071	-58.528	80.439	100.966	-58.776	-54.653	-54.187	-49.671	33.131	-50.131	-8191	255	
1219.419	1	1	0	0	0.1642	0.44308	0.23473	0.28275	0.11827	0.099099	0.21383	0.17521	0.12394	0.37459	0.13522	0.060412	0.084039	0.099925	0.25069	0.10955	-1.5312	-1.5604	-2.0729	-2.0958	-1.9771	-2.1708	-2.0958	-2.2542	-2.1937	-1.5417	-2.1521	-2.0187	-2.0208	-2.5563	-2.1208	-2.225	264.538	183.119	113.853	270.447	242.606	139.272	213.955	193.882	85.687	269.002	239.949	-44.219	212.699	234.790	-47.528	-75.651	0.00057257	0.00026597	0.0001419	1304.8	1.1761e-06	4.7926e-06	1312.3	356.14	2.0516e-06	8.3591e-06	411.56	139.55	118.7	41.437	8.8659e-06	51.824	0.00046152	0.00045994	0.00012733	1314.5	5.0665e-06	5.0514e-06	1325.4	360.45	5.0674e-06	5.0612e-06	412.63	141.53	120.35	42.276	5.0527e-06	52.649	77.799	17.443	-41.794	-63.659	85.546	78.793	-64.040	-58.935	78.264	64.247	-58.629	-54.507	-54.429	-49.529	25.290	-50.568	-8191	255	
1219.515	1	1	0	0	0.20109	0.019156	0.055804	0.24879	0.080892	0.16536	0.34761	0.32316	0.11713	0.05351	0.075939	0.17178	0.22885	0.2976	0.13009	0.15927	-1.6854	-1.8083	-2.1437	-2.2313	-1.8271	-2.175	-1.9604	-2.1188	-2.1958	-1.7104	-2.1708	-2.0375	-1.6125	-2.2729	-1.8625	-1.9417	178.607	210.633	140.185	100.659	-30.633	133.338	224.439	228.811	172.855	135.924	247.440	249.089	-41.126	238.931	223.087	194.629	0.00054456	0.00073249	0.00011874	1306.8	5.5213e-06	4.5963e-06	1315.5	356.09	5.0976e-06	7.5744e-06	413.94	139.78	118.77	41.364	4.0749e-06	51.759	0.00046448	0.00046077	0.00012703	1315.8	4.9806e-06	5.0145e-06	1327.1	360.12	5.0223e-06	4.9756e-06	413.71	141.74	120.66	42.216	4.9912e-06	52.752	69.673	-18.463	22.252	-64.078	-76.680	125.278	-63.969	-59.154	261.757	56.256	-59.807	-55.491	-55.071	-50.132	11.496	-51.485	-8191	255	
1219.612	1	1	0	0	0.12657	0.29332	0.11571	0.24503	0.14411	0.08962	0.2902	0.031051	0.12922	0.026854	0.28177	0.30215	0.21853	0.17002	0.02526	0.15223	-1.5354	-1.4771	-1.85	-2.1729	-1.7938	-2.1	-2.1771	-2.0438	-2.325	-1.9188	-2.1271	-2.3625	-2.0542	-2.5292	-2	-2.1208	122.310	52.087	221.987	162.989	126.688	-44.650	268.056	181.048	-46.759	34.186	227.598	142.405	110.774	241.793	-48.411	117.370	0.00026667	0.00047317	6.3028e-05	1308.8	3.3824e-07	6.6668e-06	1313.1	355.99	5.8358e-07	7.4051e-06	412.09	139.32	118.83	41.561	2.1634e-06	51.609	0.00046416	0.00045473	0.00012749	1317.8	5.0244e-06	4.919e-06	1326.8	360.41	5.0651e-06	4.9923e-06	413.74	141.43	120.4	42.305	4.992e-06	52.71	86.650	4.315	52.375	-63.821	249.211	29.721	-63.969	-59.042	117.657	129.664	-59.404	-55.346	-55.305	-50.435	24.209	-51.025	-8191	255	
#DATA ENDS
