BOXY.EXE: ISS Imagent and Oximeter Data Acquisition Program Version 0.80
Ascii Record File

#ACQ INFORMATION
2  Detector Channels 
16  External MUX Channels 
1  Auxiliary Channels 
5000  Waveform (CCF) Frequency (Hz)
1  Waveforms Skipped 
30  Waveforms Averaged 
1  Cycles Averaged 
16  Acquisitions per Waveform 
10.0806  Updata Rate (Hz) 

#FILE INFORMATION
TRUE -- External MUX Channel results are PARSED.
FALSE -- AC DC and Phase are NOT grouped.
TRUE -- Companion Program Settings File CREATED.
FALSE -- AC data not excluded
FALSE -- DC data not excluded
FALSE -- Phase data not excluded
FALSE -- Auxillary Chn. data not excluded
Tab delimiters

#CALIBRATION STATE
TRUE -- Waveform Calibration Values APPLIED.


#AUX CALIBRATION VALUES
Val Type	aux-1	

Term	1.0000e+00	
Factor	0.0000e+00	


#WF CALIBRATION VALUES
A = Detector Channel
Val Type	A-AC1	A-AC2	A-AC3	A-AC4	A-AC5	A-AC6	A-AC7	A-AC8	A-AC9	A-AC10	A-AC11	A-AC12	A-AC13	A-AC14	A-AC15	A-AC16	A-DC1	A-DC2	A-DC3	A-DC4	A-DC5	A-DC6	A-DC7	A-DC8	A-DC9	A-DC10	A-DC11	A-DC12	A-DC13	A-DC14	A-DC15	A-DC16	A-Ph1	A-Ph2	A-Ph3	A-Ph4	A-Ph5	A-Ph6	A-Ph7	A-Ph8	A-Ph9	A-Ph10	A-Ph11	A-Ph12	A-Ph13	A-Ph14	A-Ph15	A-Ph16	

Term	0.00000e+00	0.00000e+00	0.00000e+00	0.00000e+00	0.00000e+00	0.00000e+00	0.00000e+00	0.00000e+00	0.00000e+00	0.00000e+00	0.00000e+00	0.00000e+00	0.00000e+00	0.00000e+00	0.00000e+00	0.00000e+00	0.00000e+00	0.00000e+00	0.00000e+00	0.00000e+00	0.00000e+00	0.00000e+00	0.00000e+00	0.00000e+00	0.00000e+00	0.00000e+00	0.00000e+00	0.00000e+00	0.00000e+00	0.00000e+00	0.00000e+00	0.00000e+00	0.00000e+00	0.00000e+00	0.00000e+00	0.00000e+00	0.00000e+00	0.00000e+00	0.00000e+00	0.00000e+00	0.00000e+00	0.00000e+00	0.00000e+00	0.00000e+00	0.00000e+00	0.00000e+00	0.00000e+00	0.00000e+00	
Factor	1.00000e+00	1.00000e+00	1.00000e+00	1.00000e+00	1.00000e+00	1.00000e+00	1.00000e+00	1.00000e+00	1.00000e+00	1.00000e+00	1.00000e+00	1.00000e+00	1.00000e+00	1.00000e+00	1.00000e+00	1.00000e+00	1.00000e+00	1.00000e+00	1.00000e+00	1.00000e+00	1.00000e+00	1.00000e+00	1.00000e+00	1.00000e+00	1.00000e+00	1.00000e+00	1.00000e+00	1.00000e+00	1.00000e+00	1.00000e+00	1.00000e+00	1.00000e+00	X	X	X	X	X	X	X	X	X	X	X	X	X	X	X	X	

B = Detector Channel
Val Type	B-AC1	B-AC2	B-AC3	B-AC4	B-AC5	B-AC6	B-AC7	B-AC8	B-AC9	B-AC10	B-AC11	B-AC12	B-AC13	B-AC14	B-AC15	B-AC16	B-DC1	B-DC2	B-DC3	B-DC4	B-DC5	B-DC6	B-DC7	B-DC8	B-DC9	B-DC10	B-DC11	B-DC12	B-DC13	B-DC14	B-DC15	B-DC16	B-Ph1	B-Ph2	B-Ph3	B-Ph4	B-Ph5	B-Ph6	B-Ph7	B-Ph8	B-Ph9	B-Ph10	B-Ph11	B-Ph12	B-Ph13	B-Ph14	B-Ph15	B-Ph16	

Term	0.00000e+00	0.00000e+00	0.00000e+00	0.00000e+00	0.00000e+00	0.00000e+00	0.00000e+00	0.00000e+00	0.00000e+00	0.00000e+00	0.00000e+00	0.00000e+00	0.00000e+00	0.00000e+00	0.00000e+00	0.00000e+00	0.00000e+00	0.00000e+00	0.00000e+00	0.00000e+00	0.00000e+00	0.00000e+00	0.00000e+00	0.00000e+00	0.00000e+00	0.00000e+00	0.00000e+00	0.00000e+00	0.00000e+00	0.00000e+00	0.00000e+00	0.00000e+00	-2.24060e+02	-1.11729e+02	-1.18567e+02	-1.84289e+02	-1.11961e+02	-6.00827e+01	-1.55886e+02	-1.62015e+02	-1.01531e+02	-6.74875e+01	-1.85687e+02	-1.70606e+02	-1.87784e+02	-1.76603e+02	-9.45758e+01	-1.49601e+02	
Factor	5.43509e-05	1.63650e-04	4.33084e-05	2.33733e-01	1.94758e-06	1.75263e-06	1.64518e-01	5.27251e-02	1.66082e-06	1.87297e-06	2.24341e-01	3.14586e-02	6.61009e-02	9.37024e-03	1.76255e-06	1.36036e-02	1.76928e-06	1.83696e-06	5.12401e-07	1.16323e-01	2.00414e-08	2.01515e-08	7.78427e-02	2.64679e-02	1.99929e-08	2.01544e-08	1.02877e-01	1.51848e-02	3.14592e-02	4.69440e-03	2.00290e-08	6.58755e-03	X	X	X	X	X	X	X	X	X	X	X	X	X	X	X	X	



#DISTANCE SETTINGS
A = Detector Channel
A-1	A-2	A-3	A-4	A-5	A-6	A-7	A-8	A-9	A-10	A-11	A-12	A-13	A-14	A-15	A-16	

2.5000e+00	3.0000e+00	2.5000e+00	3.0000e+00	2.0000e+00	3.0000e+00	1.5000e+00	3.0000e+00	3.0000e+00	3.0000e+00	3.0000e+00	3.0000e+00	3.0000e+00	3.0000e+00	1.5000e+00	3.0000e+00	

B = Detector Channel
B-1	B-2	B-3	B-4	B-5	B-6	B-7	B-8	B-9	B-10	B-11	B-12	B-13	B-14	B-15	B-16	

1.0000e+01	1.0000e+01	1.0000e+01	1.4400e+00	1.0000e+01	1.0000e+01	1.5100e+00	1.9400e+00	1.0000e+01	1.0000e+01	1.9900e+00	2.4900e+00	2.4100e+00	2.9000e+00	1.0000e+01	2.9800e+00	




#DATA BEGINS
time	group	step	mark	flag	A-AC1	A-AC2	A-AC3	A-AC4	A-AC5	A-AC6	A-AC7	A-AC8	A-AC9	A-AC10	A-AC11	A-AC12	A-AC13	A-AC14	A-AC15	A-AC16	A-DC1	A-DC2	A-DC3	A-DC4	A-DC5	A-DC6	A-DC7	A-DC8	A-DC9	A-DC10	A-DC11	A-DC12	A-DC13	A-DC14	A-DC15	A-DC16	A-Ph1	A-Ph2	A-Ph3	A-Ph4	A-Ph5	A-Ph6	A-Ph7	A-Ph8	A-Ph9	A-Ph10	A-Ph11	A-Ph12	A-Ph13	A-Ph14	A-Ph15	A-Ph16	B-AC1	B-AC2	B-AC3	B-AC4	B-AC5	B-AC6	B-AC7	B-AC8	B-AC9	B-AC10	B-AC11	B-AC12	B-AC13	B-AC14	B-AC15	B-AC16	B-DC1	B-DC2	B-DC3	B-DC4	B-DC5	B-DC6	B-DC7	B-DC8	B-DC9	B-DC10	B-DC11	B-DC12	B-DC13	B-DC14	B-DC15	B-DC16	B-Ph1	B-Ph2	B-Ph3	B-Ph4	B-Ph5	B-Ph6	B-Ph7	B-Ph8	B-Ph9	B-Ph10	B-Ph11	B-Ph12	B-Ph13	B-Ph14	B-Ph15	B-Ph16	aux-1	digaux	

3867.961	1	1	0	768	0.18839	0.15452	0.22305	0.15151	0.19983	0.18627	0.15699	0.16643	0.18602	0.18701	0.049977	0.33309	0.34005	0.25989	0.29453	0.31506	-1.0604	-1.5917	-1.8104	-1.3854	-1.8042	-1.6521	-1.7104	-1.9708	-1.4104	-1.7042	-1.8813	-1.5083	-1.8479	-1.7208	-1.4438	-2.1	146.655	18.356	24.786	188.791	86.902	187.759	90.479	156.509	193.429	192.830	-86.122	198.505	-52.874	228.404	123.350	190.593	0.0014875	0.001129	0.00010356	914.48	1.3786e-05	7.8868e-06	1122.2	401.12	1.3615e-06	1.3779e-05	514.06	232.33	175.97	86.743	1.3789e-05	117.39	0.0019597	0.001981	0.00055415	977.54	2.1653e-05	2.1797e-05	1142.4	405.61	2.1454e-05	2.1455e-05	568.42	233	192.15	86.78	2.1521e-05	116.87	113.533	-45.592	54.770	-110.484	148.598	151.949	-111.730	-106.317	-84.574	-6.615	-107.935	-104.234	-103.688	-98.198	-51.452	-100.500	-8191	255	
3868.058	1	1	0	0	0.069009	0.23806	0.088995	0.063255	0.2302	0.091487	0.24406	0.038544	0.2116	0.1219	0.12645	0.24762	0.10452	0.19572	0.14326	0.3325	-1.1521	-1.4854	-1.7042	-1.3833	-1.7792	-1.8125	-1.5333	-2.1354	-1.4208	-1.4521	-1.8479	-1.5521	-1.7125	-1.8875	-1.2417	-1.9771	-9.521	84.627	-26.673	233.998	1.370	-65.434	156.011	112.794	77.493	176.133	-74.688	-81.415	35.893	155.055	2.771	166.862	0.0019238	0.0015175	3.7946e-05	909.72	1.1617e-05	7.014e-06	1117.6	401.89	2.031e-06	1.1641e-05	511.34	228.39	176.7	85.844	3.1308e-06	115.14	0.0019425	0.0019648	0.00054758	975.32	2.1328e-05	2.142e-05	1130.6	405.02	2.118e-05	2.1429e-05	562.08	229.7	191.07	85.982	2.1378e-05	115.16	106.314	5.197	77.184	-110.215	-47.551	28.869	-111.511	-105.999	217.927	16.253	-107.756	-104.409	-103.481	-97.985	-57.511	-100.496	-8191	255	
3868.154	1	1	0	0	0.095583	0.3193	0.10559	0.24553	0.26086	0.24881	0.17573	0.20587	0.20592	0.3581	0.041898	0.17484	0.20539	0.21883	0.099512	0.31226	-0.86458	-1.3271	-1.8146	-1.5542	-1.7146	-1.6854	-1.5979	-2.0208	-1.6167	-1.5562	-1.9167	-1.4271	-1.7396	-1.7437	-1.175	-1.9896	211.240	145.387	89.181	-46.195	54.884	138.428	83.035	127.649	146.626	-5.760	43.530	-106.605	172.651	-103.856	235.865	102.035	0.0015383	0.00096207	0.00024677	904.34	1.4253e-05	1.3702e-05	1103.2	398.35	6.1097e-06	1.5523e-05	509.58	227.84	175.23	85.664	1.4433e-05	116.13	0.0019379	0.0019574	0.00054691	970.07	2.1462e-05	2.1499e-05	1124.2	403.4	2.1502e-05	2.1422e-05	563.66	229.67	190.82	86.167	2.1656e-05	116	97.004	-18.690	-2.918	-110.402	-39.261	148.267	-111.507	-105.962	220.045	96.780	-107.628	-104.420	-103.301	-97.926	-31.120	-100.543	-8191	255	
3868.250	1	1	0	0	0.13058	0.11473	0.059675	0.051303	0.023212	0.042552	0.22636	0.086106	0.1273	0.31769	0.1544	0.20181	0.11194	0.11598	0.037356	0.18021	-1.1771	-1.3687	-1.7229	-1.5812	-1.5729	-1.6792	-1.3125	-1.775	-1.5	-1.5104	-1.9771	-1.8188	-1.5104	-2.1	-1.1979	-1.8708	143.931	-42.269	226.301	-117.006	88.665	132.065	-31.793	153.091	140.216	-116.328	126.969	139.647	132.910	181.908	136.716	-39.837	0.0021265	0.0014277	0.00024762	901.23	2.1971e-05	9.5234e-06	1108.3	398.24	2.8845e-06	1.2621e-05	508.83	229.24	175.51	86.076	4.558e-06	116.92	0.0019584	0.0019939	0.000559	966.96	2.1805e-05	2.2072e-05	1130.8	403.18	2.1878e-05	2.2251e-05	566.94	231.3	191.75	86.495	2.2126e-05	116.93	101.857	-101.641	166.124	-110.277	-48.935	94.484	-111.451	-106.049	177.979	25.538	-107.838	-104.640	-103.335	-98.006	27.860	-100.482	-8191	255	
3868.346	1	1	0	0	0.10028	0.12391	0.18902	0.16183	0.29705	0.15679	0.0097638	0.20242	0.11565	0.047113	0.13412	0.31678	0.34748	0.27686	0.097307	0.34889	-1.2354	-1.3062	-1.775	-1.5521	-1.5167	-1.8438	-1.6688	-1.9875	-1.7833	-1.5417	-2.0146	-1.6333	-1.7104	-2.1354	-1.3167	-1.925	41.737	27.569	-35.402	-97.751	170.013	38.658	177.055	181.894	52.601	6.649	100.857	150.817	-120.139	205.079	73.882	150.109	0.0016556	0.00090888	0.00026041	908.25	4.7271e-06	1.8869e-05	1115.5	400.61	3.3517e-06	1.1768e-05	514.49	230.43	177.22	86.746	1.4227e-05	118.66	0.0020271	0.0020577	0.00057459	979.04	2.2581e-05	2.2921e-05	1142.2	406.82	2.2828e-05	2.3049e-05	575.87	233.58	194.09	87.314	2.2835e-05	118.24	115.466	-21.502	-32.694	-110.063	-17.230	47.238	-111.168	-105.919	102.136	103.585	-107.381	-104.218	-103.460	-98.065	-32.684	-100.319	-8191	255	
3868.442	1	1	0	0	0.10867	0.09759	0.27901	0.27893	0.19448	0.056793	0.12993	0.17927	0.083685	0.22307	0.18063	0.2313	0.081297	0.41278	0.02593	0.27977	-1.4542	-1.2583	-1.7646	-1.8646	-1.4188	-1.8188	-1.5833	-1.8375	-1.7333	-1.3229	-1.9792	-1.8042	-1.4604	-2.0625	-1.4292	-1.7729	176.250	190.402	112.546	211.925	23.593	138.517	209.657	-104.081	-36.899	154.080	50.807	-96.928	230.678	197.863	34.988	183.490	0.0017622	0.00052848	0.00041883	909.65	1.4232e-05	1.5748e-05	1120.1	402.44	3.1764e-06	2.7948e-06	515.19	230.4	178.43	86.85	1.3409e-05	117.43	0.0020753	0.002108	0.00058348	983.56	2.3123e-05	2.3174e-05	1145.8	408.85	2.2948e-05	2.3152e-05	576	233.35	195.16	87.538	2.3031e-05	117.56	101.985	-36.315	-64.938	-110.225	-81.961	87.586	-111.389	-106.180	-36.297	-104.289	-107.634	-104.161	-103.407	-98.166	9.630	-100.491	-8191	255	
3868.563	1	1	0	0	0.14895	0.051178	0.23977	0.25878	0.30805	0.071845	0.25538	0.4925	0.2678	0.10323	0.29745	0.26177	0.17429	0.3308	0.084432	0.19899	-1.2604	-1.4604	-1.7396	-1.6542	-1.5208	-1.9354	-1.625	-1.5708	-1.8125	-1.5833	-1.8479	-1.8521	-1.6271	-2.0667	-1.6542	-1.8479	189.798	-22.095	-71.887	207.072	119.104	-77.667	229.793	179.214	79.927	126.896	1.003	186.940	25.301	216.839	211.425	165.747	0.0015474	0.0018764	0.00035442	908.8	9.6542e-06	1.6414e-05	1112.4	400.44	7.5516e-06	3.4765e-08	506.8	231.33	175.25	87.451	1.2133e-05	117.35	0.0020835	0.0021122	0.00058817	981.82	2.3049e-05	2.3077e-05	1137.9	406.76	2.2697e-05	2.2834e-05	572.93	233.51	194.29	87.711	2.263e-05	117.59	109.279	-61.434	198.130	-109.614	-112.261	106.253	-110.982	-105.427	14.989	104.868	-107.414	-103.715	-102.469	-97.661	-41.528	-100.423	-8191	255	
3868.657	1	1	0	0	0.03595	0.077832	0.046241	0.15596	0.20839	0.086921	0.19623	0.19566	0.14259	0.15986	0.27031	0.2493	0.1713	0.29924	0.082294	0.31722	-1.5167	-1.3146	-1.5979	-1.7125	-1.3229	-1.8521	-1.6625	-1.6437	-1.8	-1.4188	-1.8625	-1.9354	-1.5375	-2.1312	-1.6646	-1.6229	215.858	208.782	149.378	81.932	-25.722	153.230	176.471	-114.235	127.786	192.068	122.089	171.099	23.530	152.578	-108.474	205.424	0.0014515	0.0006085	0.00022874	915.66	9.1765e-06	1.1966e-05	1118.2	401.58	8.0052e-06	7.2237e-06	513.07	231.88	177.31	87.229	1.2511e-05	117.38	0.0020548	0.0020992	0.0005822	983.98	2.2825e-05	2.2905e-05	1142.8	408.14	2.2692e-05	2.2915e-05	574.28	234.29	194.68	87.671	2.2789e-05	117.93	88.705	187.849	127.378	-110.263	-77.042	54.678	-111.329	-105.782	-52.369	-52.205	-107.755	-104.020	-103.017	-97.896	-52.411	-100.446	-8191	255	
3868.753	1	1	0	0	0.092866	0.015229	0.17747	0.30187	0.16718	0.096896	0.15458	0.58531	0.19077	0.15226	0.16741	0.18553	0.2046	0.19572	0.30624	0.31262	-1.3708	-1.4583	-1.625	-1.85	-1.4438	-1.7479	-1.8833	-1.65	-1.7458	-1.4792	-1.7042	-1.9917	-1.3292	-2.05	-1.6562	-1.7375	-108.839	163.430	-3.017	230.251	98.349	-120.152	66.355	230.951	131.963	1.082	233.540	188.563	175.846	219.638	-117.458	170.725	0.0019693	0.00091666	0.00035394	915.79	1.7028e-05	5.3081e-06	1122.7	403.58	5.1477e-06	4.4801e-06	510.33	231.48	177.98	87.002	1.1598e-05	118.04	0.0020621	0.0020947	0.0005876	986.22	2.3055e-05	2.323e-05	1146.6	409.98	2.295e-05	2.322e-05	575.25	234.19	194.24	87.391	2.2982e-05	117.92	116.144	118.904	5.664	-110.054	55.615	-27.865	-111.368	-106.090	-34.627	-34.817	-107.604	-104.254	-103.102	-97.884	215.246	-100.162	-8191	255	
3868.849	1	1	0	0	0.26407	0.10069	0.21469	0.056411	0.062684	0.20798	0.18254	0.38535	0.056122	0.092971	0.024173	0.39994	0.10219	0.16481	0.33158	0.31013	-1.4917	-1.3458	-1.575	-1.9229	-1.3	-1.7833	-1.6271	-1.4646	-1.8646	-1.6021	-1.55	-2.0062	-1.6229	-1.8438	-1.4854	-1.5271	-44.063	210.522	-115.932	-81.647	-73.106	-34.404	60.268	164.475	151.095	32.004	131.071	-110.462	21.171	173.280	137.935	219.275	0.0016606	0.001611	0.00050118	912.43	4.2771e-06	2.5694e-05	1118	401.27	1.4002e-05	1.648e-05	513.19	231.02	176.11	86.249	1.1828e-05	116.68	0.0020839	0.0021101	0.00058996	980.52	2.2971e-05	2.3226e-05	1143.8	407.04	2.2952e-05	2.3177e-05	574.68	233.25	193.99	86.921	2.3062e-05	116.75	95.100	26.291	-69.654	-110.163	183.218	-0.153	-110.825	-105.401	-41.556	34.226	-107.450	-104.224	-103.001	-97.841	-87.718	-100.125	-8191	255	
3868.946	1	1	0	0	0.31879	0.17085	0.062586	0.38023	0.35831	0.24282	0.058485	0.2872	0.29775	0.17737	0.15134	0.13702	0.12556	0.56004	0.18491	0.15955	-1.2875	-1.4354	-1.3042	-1.9042	-1.1167	-1.7979	-1.8521	-1.3687	-1.7792	-1.35	-1.4146	-2.0083	-1.425	-1.9	-1.5667	-1.4937	216.760	179.860	69.436	-40.928	48.209	209.169	180.892	218.517	196.274	151.521	151.341	222.558	225.530	179.229	22.413	124.890	0.0019896	0.00089193	0.00022815	904.2	8.5592e-06	9.4346e-06	1103.8	394.72	1.453e-05	4.8103e-06	507.1	228.5	174.14	86.084	2.6963e-06	115.67	0.0020829	0.0021047	0.00058542	977.52	2.3108e-05	2.3017e-05	1130.7	403	2.2805e-05	2.2913e-05	569.02	230.61	192.62	86.234	2.2824e-05	116.01	93.337	-4.744	-29.826	-110.004	34.935	-61.354	-111.393	-105.806	-51.297	23.434	-107.892	-104.005	-103.164	-97.941	1.843	-100.346	-8191	255	
3869.042	1	1	0	0	0.1798	0.17584	0.086011	0.19981	0.11292	0.29704	0.28858	0.049226	0.12191	0.14376	0.29089	0.19783	0.28822	0.21486	0.18595	0.27111	-1.4438	-1.5438	-1.5083	-2.0104	-1.4937	-1.4625	-2.0208	-1.5396	-1.7521	-1.5187	-1.3958	-1.9562	-1.4521	-1.6625	-1.5458	-1.4917	-110.208	58.257	53.040	189.422	75.403	134.146	167.685	141.801	81.826	18.722	173.219	144.885	180.078	137.132	5.717	191.264	0.0021034	0.00095873	0.00044102	902.74	2.5061e-05	8.0258e-06	1105	394.75	6.8798e-06	1.0931e-05	510.55	229.09	176.1	85.605	1.0846e-05	116.89	0.0020684	0.0021132	0.00058794	975.96	2.295e-05	2.3106e-05	1129	403.26	2.2792e-05	2.2889e-05	569.23	231.27	192.31	86.109	2.2787e-05	116.72	97.904	-5.059	-9.905	-109.979	-36.407	17.616	-111.022	-105.689	121.125	64.040	-107.393	-104.043	-103.483	-97.724	202.651	-100.103	-8191	255	
3869.162	1	1	0	0	0.19109	0.077192	0.072784	0.25935	0.33326	0.31362	0.50657	0.14304	0.30014	0.19735	0.14529	0.23596	0.055199	0.19968	0.17128	0.1494	-1.1146	-1.4271	-1.2208	-1.8083	-1.4021	-1.3292	-2.0271	-1.5979	-1.4937	-1.8312	-1.225	-1.8979	-1.6458	-1.7354	-1.8708	-1.6167	-76.859	54.008	-72.135	203.842	12.465	226.165	215.380	-47.086	-64.698	97.084	-71.068	172.157	-29.374	178.517	-4.994	-102.882	0.0017809	0.0007076	0.00034203	908.58	2.0549e-05	5.8829e-06	1113.4	396.95	5.8707e-06	2.6355e-06	512.13	230.29	175.57	86.042	1.8911e-05	116.74	0.0020478	0.0020704	0.00057956	976.66	2.2486e-05	2.2605e-05	1137.3	403.49	2.2123e-05	2.2391e-05	569.46	231.82	191.99	86.221	2.2177e-05	116.72	117.662	-21.730	23.625	-109.535	-27.454	-35.887	-110.927	-105.385	193.072	-107.696	-107.706	-104.030	-102.781	-97.408	-19.260	-100.208	-8191	255	
3869.259	1	1	0	0	0.10744	0.052144	0.20184	0.19289	0.1513	0.081851	0.39771	0.34056	0.28101	0.027148	0.2473	0.17286	0.36804	0.37972	0.070616	0.21721	-1.2125	-1.6417	-1.3375	-1.8292	-1.625	-1.2521	-1.9583	-1.4604	-1.4479	-1.6021	-1.3	-1.7625	-1.3729	-1.7062	-1.8458	-1.6896	144.285	-29.905	-78.187	-52.491	181.353	-77.694	158.180	199.118	-62.695	14.012	149.112	-68.910	124.238	168.714	76.901	142.257	0.0015907	0.00073978	0.00029827	908.01	2.0648e-05	7.1945e-06	1120.5	398.27	3.1184e-06	1.2213e-05	511.83	229.89	175.56	85.973	1.3479e-05	116.61	0.0019919	0.0020413	0.00056785	975.44	2.2089e-05	2.2147e-05	1142.6	403.23	2.2105e-05	2.2096e-05	569.05	232.01	191.93	86.144	2.2301e-05	116.46	102.448	-2.602	-31.687	-109.897	114.331	-20.369	-110.871	-105.668	228.087	-34.570	-107.456	-103.711	-102.689	-98.271	4.321	-100.693	-8191	255	
3869.355	1	1	0	0	0.19643	0.12164	0.23046	0.139	0.15576	0.15423	0.37342	0.19862	0.034896	0.25836	0.089302	0.41482	0.35186	0.30838	0.16809	0.17542	-1.0729	-1.6958	-1.5063	-1.8188	-1.4604	-1.5146	-2.1667	-1.6958	-1.8271	-1.8292	-1.4104	-1.8813	-1.6562	-1.6104	-1.8417	-1.725	-81.327	131.574	70.035	170.185	-113.508	-73.440	175.738	142.873	18.699	180.124	-119.277	144.182	-46.643	172.913	-116.717	182.835	0.0020874	0.00032259	0.00018886	903.12	8.7156e-06	2.018e-05	1107.3	396.62	6.4565e-06	3.954e-06	508.12	227.69	173.27	85.214	1.68e-05	115.65	0.0020048	0.0020341	0.00056685	972.41	2.2366e-05	2.2309e-05	1130.3	402.04	2.1906e-05	2.2049e-05	564.17	229.21	190.06	85.404	2.1773e-05	115.38	111.889	178.673	-19.024	-110.135	-86.310	52.338	-111.268	-105.754	226.316	153.669	-108.449	-104.284	-102.786	-98.265	-9.833	-100.586	-8191	255	
3869.451	1	1	0	0	0.27328	0.17027	0.051567	0.05972	0.1382	0.14406	0.17497	0.20562	0.13543	0.16828	0.044383	0.23045	0.1348	0.18979	0.15364	0.20427	-1.0979	-1.6917	-1.1729	-1.6125	-1.4021	-1.3458	-1.8521	-1.7167	-1.6792	-1.8979	-1.4271	-1.9021	-1.85	-1.5104	-1.8771	-1.7333	233.742	-14.917	-25.067	150.569	-34.165	33.932	176.345	169.712	133.055	-87.383	221.519	-97.503	-62.099	-108.720	-40.970	209.961	0.0017025	0.001286	0.00023313	901.71	3.1771e-06	1.4002e-05	1101.2	395.34	1.464e-05	2.5668e-05	505.87	227.14	173.6	85.504	1.0877e-05	116.15	0.0019675	0.0020018	0.00055804	965.24	2.1693e-05	2.169e-05	1122.7	400.12	2.1353e-05	2.1541e-05	559.29	228.56	188.49	85.31	2.0698e-05	115.5	101.129	36.975	56.327	-110.002	-87.938	42.973	-111.211	-106.031	-68.638	-58.755	-107.818	-104.004	-103.435	-98.037	234.885	-100.087	-8191	255	
3869.522	1	1	0	0	0.11682	0.13585	0.13813	0.20109	0.19266	0.27088	0.22679	0.34203	0.32696	0.058949	0.23706	0.23003	0.37229	0.20561	0.12409	0.1766	-0.90625	-1.8104	-1.3917	-1.6979	-1.5771	-1.5583	-1.8188	-1.7271	-1.2792	-1.7292	-1.3979	-1.7542	-1.9729	-1.5417	-1.7687	-1.7875	-36.408	184.079	-109.090	176.439	48.762	84.140	186.856	165.513	-76.914	108.124	156.175	-113.809	-110.699	204.887	42.325	124.182	0.0018027	0.0011471	0.00042754	902.15	1.0233e-05	1.4949e-05	1105.3	393.09	1.1684e-05	1.6176e-05	503.61	228.47	173.69	85.225	1.2072e-05	117.07	0.0018714	0.0019035	0.00052923	955.67	2.0737e-05	2.0916e-05	1120.8	397.51	2.0881e-05	2.1137e-05	559.8	229.98	188.97	85.548	2.1279e-05	116.63	111.272	-110.515	-37.936	-110.083	7.275	57.483	-111.500	-106.053	130.140	8.717	-107.934	-104.444	-103.414	-98.110	35.163	-100.425	-8191	255	
3869.641	1	1	0	0	0.28006	0.12619	0.27464	0.26665	0.16446	0.30157	0.16917	0.23961	0.12614	0.27453	0.30555	0.30773	0.04098	0.09445	0.090522	0.27845	-0.95417	-1.9438	-1.5	-1.6875	-1.7792	-1.3125	-1.8417	-1.7292	-1.3792	-1.7833	-1.4583	-1.7792	-1.7563	-1.5729	-1.7188	-1.8021	48.659	33.293	204.731	187.265	-78.548	14.447	146.252	155.217	201.483	-106.559	190.217	193.131	159.031	41.385	68.273	149.827	0.0020677	0.00053032	0.00038639	890.92	1.517e-05	1.1579e-05	1106.2	394.83	1.6243e-05	1.2335e-05	507.61	228.51	173.74	85.688	5.5762e-06	117.4	0.0019395	0.0019676	0.00055433	960.02	2.167e-05	2.1848e-05	1129.3	400.19	2.1911e-05	2.1957e-05	566.39	231.34	190.34	85.957	2.1954e-05	117.17	105.392	-82.019	-44.047	-109.879	-62.718	94.053	-111.299	-105.822	-42.520	18.351	-107.556	-104.009	-103.352	-97.926	227.650	-100.465	-8191	255	
3869.738	1	1	0	0	0.14882	0.054901	0.063407	0.089965	0.12731	0.15659	0.16764	0.24405	0.13602	0.084838	0.3549	0.093178	0.041178	0.37444	0.063753	0.084626	-1.1063	-1.7542	-1.5063	-1.6271	-1.85	-1.5333	-2.0312	-1.7521	-1.3854	-1.7958	-1.6812	-1.7354	-2.0667	-1.6542	-1.6688	-1.8521	2.212	181.914	235.567	231.258	215.398	131.672	216.668	160.945	-110.556	-40.617	-98.629	-104.426	175.350	151.884	70.090	199.399	0.001964	0.00088754	0.00040946	904.65	1.8577e-05	9.0491e-06	1109.4	394.84	1.3033e-05	2.0159e-05	509.4	228.2	174.44	85.515	1.6205e-05	116.26	0.002	0.0020277	0.00057166	968.45	2.2294e-05	2.2444e-05	1133.5	401.34	2.2256e-05	2.2372e-05	567.17	230.89	191.21	85.899	2.2293e-05	116.29	109.281	-92.267	-38.821	-109.992	87.034	108.898	-111.132	-105.914	69.358	14.457	-107.629	-104.269	-102.983	-97.952	61.316	-100.397	-8191	255	
3869.834	1	1	0	0	0.24431	0.087619	0.11926	0.20134	0.43676	0.14664	0.17749	0.16531	0.097413	0.087816	0.15597	0.069065	0.16174	0.14087	0.039875	0.24595	-0.78125	-1.6562	-1.4792	-1.6167	-1.8646	-1.4979	-1.8396	-1.875	-1.5083	-1.6333	-1.5312	-1.5438	-1.8937	-1.6458	-1.5458	-1.9312	-66.344	-10.935	85.384	130.463	183.321	67.440	189.201	189.249	-16.539	-121.304	-3.426	108.263	51.621	131.732	-117.496	195.465	0.0018717	0.0010854	0.00036669	901.51	1.6414e-05	1.477e-05	1099.3	394.97	5.9497e-06	2.1947e-06	506.08	228.77	175.46	85.285	3.2765e-06	116.76	0.0020302	0.0020562	0.00057804	967.79	2.2797e-05	2.3064e-05	1125.7	401.98	2.274e-05	2.2712e-05	569.25	231.01	191.93	85.997	2.2563e-05	116.75	94.065	-58.465	0.030	-110.167	-110.426	15.620	-111.315	-106.092	-87.509	192.081	-107.949	-104.541	-103.226	-97.983	-50.829	-100.433	-8191	255	
3869.930	1	1	0	0	0.073557	0.2383	0.057505	0.19585	0.093395	0.18001	0.2598	0.3685	0.21146	0.15515	0.21983	0.29385	0.16933	0.088273	0.15055	0.31852	-0.78958	-1.6375	-1.5521	-1.4979	-1.9021	-1.4208	-1.5187	-1.8771	-1.4396	-1.6854	-1.675	-1.3604	-1.7875	-1.5812	-1.5792	-2.2125	2.155	16.066	215.873	180.098	-39.346	5.769	174.568	193.490	-88.008	55.078	24.492	201.332	195.891	129.529	52.035	156.560	0.0019221	0.0019282	0.00034178	892.51	1.1958e-05	1.5954e-05	1102.5	394.03	5.8233e-06	1.342e-05	506.29	230.82	175.3	86.302	7.4562e-06	117.42	0.0020503	0.0020729	0.0005807	965.49	2.2493e-05	2.2485e-05	1124	399.58	2.1406e-05	2.1252e-05	558.71	230.56	187.38	85.56	1.8266e-05	115.62	104.362	3.610	42.057	-109.944	-66.639	-30.853	-111.421	-105.870	109.379	-36.057	-107.969	-104.381	-103.477	-98.033	35.629	-100.289	-8191	255	
3870.050	1	1	0	0	0.1711	0.25945	0.11723	0.17033	0.074961	0.19199	0.17961	0.21224	0.18029	0.25441	0.28408	0.19048	0.25455	0.30439	0.15993	0.28555	-0.90833	-1.7271	-1.6063	-1.3458	-1.9417	-1.5812	-1.6729	-2.0917	-1.3354	-1.6187	-1.7313	-1.4188	-1.775	-1.5458	-1.4312	-2.0625	-0.191	119.744	7.432	208.947	-89.554	7.093	181.922	90.533	-114.915	32.056	130.726	159.457	-94.134	221.636	167.188	167.467	0.0017408	0.00051462	0.00038353	894.84	1.0501e-05	5.1944e-06	1109.3	392.97	1.5734e-05	1.2392e-05	512.25	231.99	176.19	86.718	5.4733e-06	118.82	0.0015168	0.0014355	0.00037857	912.61	1.3243e-05	1.2902e-05	1092.5	387.31	1.2043e-05	1.1789e-05	515.97	225.26	175.22	84.26	1.1725e-05	115.05	117.445	-53.138	-34.968	-109.717	-11.034	2.900	-111.366	-106.106	-20.112	-74.266	-107.836	-103.681	-102.583	-97.731	3.489	-99.822	-8191	255	
3870.122	1	1	0	0	0.1262	0.13423	0.28341	0.27118	0.22807	0.30297	0.25067	0.37358	0.031243	0.24227	0.27597	0.35592	0.34378	0.30269	0.098166	0.15704	-0.98333	-1.625	-1.7625	-1.3563	-1.6771	-1.5187	-1.725	-1.9146	-1.3396	-1.5646	-1.9479	-1.5521	-1.8417	-1.7625	-1.4021	-1.9271	22.579	162.419	-62.035	186.551	124.475	113.854	164.122	134.749	-63.967	214.953	188.716	231.573	225.026	231.673	178.350	187.984	0.0017757	0.00016575	0.00024005	898.85	5.8124e-06	1.4686e-05	1116	396.57	8.3615e-06	1.0919e-05	514.46	231.37	175.76	86.507	3.3094e-06	117.99	0.0011325	0.0011394	0.00032652	912.08	1.3366e-05	1.382e-05	1105.8	392.14	1.4127e-05	1.4208e-05	530.02	226.92	179.48	84.723	1.3912e-05	114.78	97.840	166.382	-9.655	-109.492	56.422	52.321	-110.902	-105.971	81.866	115.759	-107.808	-104.217	-103.566	-97.754	-70.301	-99.942	-8191	255	
3870.243	1	1	0	0	0.065382	0.23904	0.17025	0.18388	0.38649	0.11157	0.23198	0.10245	0.18324	0.18726	0.21096	0.36045	0.26335	0.19593	0.25274	0.16326	-1.1708	-1.5771	-1.8542	-1.5458	-1.5417	-1.7729	-1.5167	-1.9771	-1.4917	-1.5375	-1.8833	-1.475	-1.8937	-1.8854	-1.4937	-2.0375	-101.667	147.722	-119.558	179.704	62.821	201.393	147.206	176.934	-69.589	161.066	232.458	72.411	-71.900	-120.571	160.963	81.906	0.0016257	0.0011046	0.00039143	897.71	1.1699e-05	7.8729e-06	1108.1	395.16	6.0885e-06	2.0582e-05	507.66	229.5	174.61	86.234	5.9232e-06	117.01	0.0012679	0.0012613	0.0003501	914.91	1.3498e-05	1.3435e-05	1091.8	389.2	1.3249e-05	1.3244e-05	519.61	223.96	176.71	84.309	1.2769e-05	113.66	112.581	80.387	-20.233	-109.281	-31.027	-15.778	-110.554	-105.483	70.226	35.431	-107.167	-103.511	-102.614	-97.312	63.344	-99.730	-8191	255	
3870.339	1	1	0	0	0.019996	0.25042	0.20727	0.18359	0.11095	0.22508	0.28915	0.12866	0.25542	0.19062	0.15316	0.17692	0.22068	0.17557	0.0035688	0.35502	-1.0333	-1.2958	-1.9312	-1.4625	-1.625	-1.8875	-1.2958	-1.7583	-1.6833	-1.4562	-1.7208	-1.4792	-1.6708	-1.7667	-1.3021	-1.9521	231.468	-91.533	-7.838	233.309	-33.480	31.094	148.976	108.865	-40.255	-94.920	230.098	207.288	-92.202	198.753	224.635	198.261	0.001845	0.0011234	0.00057344	898	1.2174e-05	1.131e-05	1100.4	395.74	1.0233e-05	1.5776e-05	507.81	229.48	175.15	85.96	1.2115e-05	116.86	0.00117	0.0011524	0.00032045	904.99	1.2542e-05	1.2531e-05	1085.6	388.06	1.2594e-05	1.2618e-05	515.93	224	176.04	84.078	1.2433e-05	113.76	115.054	-77.384	-70.084	-109.952	36.938	92.258	-111.170	-105.898	18.923	18.220	-107.942	-104.122	-102.825	-97.816	-14.235	-100.066	-8191	255	
3870.435	1	1	0	0	0.061948	0.25535	0.3023	0.23435	0.056074	0.026879	0.25785	0.17805	0.18139	0.17318	0.058753	0.092443	0.15691	0.11025	0.2315	0.16271	-1.125	-1.4792	-1.7833	-1.55	-1.7021	-1.7896	-1.625	-2.0208	-1.5542	-1.3292	-2.0083	-1.8104	-1.5708	-2.2167	-1.425	-1.8312	-47.020	59.649	102.389	205.625	-100.516	148.209	153.606	174.644	-113.646	212.853	81.801	195.884	193.322	166.373	31.712	218.758	0.0018602	0.0011035	0.00042011	892.59	4.1301e-06	1.5272e-05	1101	391.81	3.8625e-06	5.5034e-06	507.82	229.92	173.84	85.918	5.3336e-06	117.92	0.001141	0.0011234	0.00031377	902.73	1.2219e-05	1.2223e-05	1082.9	384.67	1.2164e-05	1.216e-05	513.18	223.52	174.58	83.713	1.2199e-05	114.05	107.735	0.886	-30.685	-109.943	31.360	22.200	-110.934	-105.588	115.947	48.186	-107.390	-103.829	-102.674	-97.839	58.117	-100.560	-8191	255	
3870.531	1	1	0	0	0.065223	0.033791	0.19738	0.056887	0.13797	0.034929	0.1957	0.28877	0.09334	0.32173	0.10553	0.1529	0.31813	0.16199	0.11108	0.26212	-1.4042	-1.3729	-1.725	-1.5292	-1.3792	-1.7625	-1.5708	-1.9312	-1.7708	-1.4937	-1.8813	-1.7333	-1.6083	-2.1375	-1.2042	-1.8417	-85.782	-112.605	212.105	194.713	-54.038	-51.244	173.561	165.817	97.812	-109.042	129.999	87.764	213.803	172.713	212.697	172.421	0.0018171	0.00055274	0.00021171	891.62	1.3956e-05	1.4217e-05	1107.4	390.01	5.6549e-06	9.4512e-06	505.17	228.08	172.51	84.968	6.1101e-06	116.13	0.0011598	0.0011576	0.00032281	904.03	1.2816e-05	1.2932e-05	1090.8	384.67	1.315e-05	1.3348e-05	517.53	222.9	175.8	83.298	1.3659e-05	113.17	104.955	-10.153	-91.840	-110.057	-77.207	0.503	-110.832	-105.406	-78.690	-58.654	-107.280	-103.581	-102.464	-97.592	-28.909	-100.090	-8191	255	
3870.650	1	1	0	0	0.16119	0.20385	0.17665	0.12203	0.15535	0.040582	0.22264	0.49453	0.3237	0.11996	0.16358	0.31609	0.10906	0.42808	0.21131	0.18692	-1.4021	-1.15	-1.6896	-1.6688	-1.3625	-2.0271	-1.5938	-1.6938	-1.8188	-1.4396	-1.7938	-1.6375	-1.4479	-2.0167	-1.3146	-1.7208	66.860	89.183	127.468	-98.191	164.611	83.786	201.749	156.013	-113.630	-55.783	161.185	232.752	-94.086	205.176	-111.438	169.914	0.0019399	0.00096382	0.00039405	888.62	1.6099e-05	5.4883e-06	1096	391.54	6.6755e-06	1.4604e-05	502.38	225.78	172.12	84.934	8.0288e-06	115.11	0.0012718	0.0012619	0.00035754	909.02	1.4017e-05	1.4249e-05	1083.5	385.34	1.4492e-05	1.4677e-05	521.4	222.35	176.93	83.318	1.5001e-05	112.69	103.099	-99.625	42.744	-109.622	-23.604	37.476	-110.790	-105.267	28.299	47.218	-107.152	-103.510	-102.251	-97.435	55.084	-99.259	-8191	255	
3870.746	1	1	0	0	0.16853	0.26073	0.19264	0.13724	0.34322	0.42676	0.25012	0.2801	0.26388	0.19875	0.054212	0.10792	0.20783	0.13209	0.18518	0.31584	-1.4125	-1.3771	-1.5104	-1.675	-1.3167	-1.8104	-1.5771	-1.7292	-1.9562	-1.4833	-1.8375	-1.9646	-1.5125	-2.0187	-1.4562	-1.5146	-73.558	49.809	98.759	-97.935	-115.353	-56.580	194.240	204.769	1.411	39.202	-107.193	-109.202	-83.023	205.101	21.417	215.931	0.0017037	0.00084311	0.00015775	890.68	3.849e-06	8.7264e-06	1094.7	392.06	5.6811e-06	9.6595e-06	503.81	226.33	173.71	84.367	2.1851e-06	115.51	0.0013782	0.0013834	0.00038879	916.75	1.5357e-05	1.5546e-05	1089.9	388.04	1.5707e-05	1.5813e-05	527.45	223.32	178.98	83.237	1.5873e-05	113.17	98.382	99.110	39.838	-108.683	-78.195	45.271	-110.474	-104.859	-92.572	22.118	-106.424	-103.697	-102.179	-97.107	50.887	-99.645	-8191	255	
3870.842	1	1	0	0	0.070004	0.22186	0.24256	0.34576	0.10008	0.26038	0.33792	0.1191	0.29639	0.15289	0.323	0.20676	0.23161	0.3032	0.27966	0.13152	-1.2667	-1.3542	-1.5271	-1.9208	-1.3354	-2.0021	-1.7458	-1.4875	-1.8292	-1.4354	-1.6625	-1.5625	-1.2	-2.1417	-1.7229	-1.7667	172.506	59.592	-42.484	190.033	103.503	-116.544	204.631	-118.696	82.529	192.282	129.206	187.385	230.431	171.137	58.561	-84.265	0.0016949	0.00059429	0.00013485	886.12	6.6372e-06	1.1444e-05	1094.3	391.24	1.3607e-05	8.5935e-06	506.69	226.28	172.37	84.342	7.8284e-06	115.98	0.0014429	0.00145	0.00040436	916.66	1.5774e-05	1.5871e-05	1090.5	386.93	1.5829e-05	1.5953e-05	528.95	223.27	178.3	83.143	1.5578e-05	113.37	114.957	4.497	27.798	-109.211	-35.197	32.708	-110.592	-105.010	-57.879	-19.582	-106.452	-103.117	-101.979	-96.577	189.249	-98.842	-8191	255	
3870.939	1	1	0	0	0.027145	0.15265	0.28419	0.25338	0.23613	0.1202	0.28364	0.13803	0.23093	0.14373	0.27726	0.27137	0.12923	0.10568	0.048302	0.21367	-1.3542	-1.3604	-1.7792	-1.8854	-1.4042	-1.725	-1.8667	-1.3083	-1.7	-1.4833	-1.5667	-2.0062	-1.5688	-1.9292	-1.5146	-1.7354	215.150	56.413	212.849	221.578	-12.883	-117.102	158.031	159.068	227.750	51.012	229.797	-121.521	145.780	141.855	139.388	164.005	0.0017105	0.0014109	0.00023214	890.64	1.0862e-05	6.5698e-06	1098.7	388.49	1.7988e-06	1.2223e-05	506.21	226.98	170.81	84.754	7.5635e-06	116.4	0.0013985	0.0013875	0.00038136	913.41	1.478e-05	1.4583e-05	1089	384.2	1.4113e-05	1.4118e-05	520.4	222.44	174.86	82.728	1.4035e-05	113.05	104.956	9.115	-93.861	-108.154	-13.334	105.433	-109.638	-104.596	200.180	142.582	-106.797	-103.094	-102.217	-97.290	-73.142	-99.465	-8191	255	
3871.035	1	1	0	0	0.10006	0.13963	0.21602	0.15338	0.10821	0.24133	0.24168	0.25271	0.024829	0.28154	0.11941	0.2932	0.18937	0.25258	0.23419	0.13358	-1.275	-1.4208	-1.4271	-1.9292	-1.2708	-1.5708	-1.8271	-1.5271	-1.7667	-1.4125	-1.5438	-2.0667	-1.2458	-2.0812	-1.7583	-1.4271	219.377	47.897	-5.482	184.938	-10.269	-110.186	217.462	172.390	109.552	171.545	218.344	195.326	-92.383	193.502	-119.505	196.336	0.002003	0.00084051	0.00041135	893.16	2.0279e-06	1.0813e-05	1093.9	387.9	9.3819e-06	1.8039e-05	498.33	224.93	170.15	84.054	3.3075e-06	114.44	0.0012988	0.0013249	0.00037039	916.05	1.4845e-05	1.5072e-05	1086.2	384.76	1.5467e-05	1.5921e-05	527.13	222.17	178.27	82.805	1.6829e-05	112.56	101.994	4.005	-48.495	-109.005	-55.551	106.290	-110.662	-104.971	-48.115	59.017	-106.594	-103.432	-102.122	-97.339	204.262	-99.532	-8191	255	
3871.131	1	1	0	0	0.26557	0.20035	0.18781	0.2909	0.088497	0.043105	0.14119	0.32446	0.09073	0.192	0.3458	0.20443	0.069337	0.43371	0.17476	0.16228	-1.4229	-1.5667	-1.3125	-1.8	-1.475	-1.4729	-1.9729	-1.5833	-1.7479	-1.5792	-1.5729	-2.0854	-1.4854	-1.7417	-1.7146	-1.6042	227.117	-12.552	73.498	200.312	85.161	100.832	153.449	222.961	169.432	55.983	188.638	-119.395	-115.071	208.675	-96.576	218.780	0.0017977	0.00068497	0.00033401	889.22	1.2252e-05	9.2935e-06	1088.3	386.68	8.9225e-06	2.0169e-05	500.43	225.13	169.89	83.655	3.7363e-06	114.87	0.0014931	0.001515	0.00042091	918.45	1.6044e-05	1.6029e-05	1084	384.75	1.5168e-05	1.5019e-05	519.82	220.56	174.47	82.095	1.3836e-05	111.98	100.139	-17.319	-27.760	-109.149	-112.483	9.029	-110.015	-104.874	-19.911	28.252	-106.784	-103.346	-102.458	-97.057	23.114	-99.427	-8191	255	
3871.227	1	1	0	0	0.20725	0.30262	0.031109	0.055896	0.088391	0.31646	0.15392	0.19011	0.092854	0.13966	0.14317	0.23257	0.088584	0.23555	0.33063	0.37028	-1.4354	-1.6125	-1.4771	-2.0833	-1.4354	-1.6604	-2.0479	-1.4875	-1.8792	-1.7313	-1.6917	-1.9729	-1.7292	-1.8188	-1.9833	-1.6958	197.637	-97.033	-67.249	203.021	-61.482	222.706	172.005	-119.934	10.158	19.539	-109.108	190.899	-110.658	-115.554	186.805	179.147	0.0017729	0.00096942	7.4592e-05	885.32	1.3383e-05	7.713e-06	1089.6	387.14	1.3238e-05	6.4893e-06	497.66	225.83	170.89	83.727	5.7944e-06	115.37	0.0012358	0.0012485	0.00034907	904.2	1.3821e-05	1.3969e-05	1079.7	382.42	1.4309e-05	1.4628e-05	519.56	221.68	175.45	82.485	1.4781e-05	112.73	109.885	-49.522	-28.361	-109.163	-100.138	57.582	-109.999	-104.773	1.369	44.996	-107.238	-103.520	-102.808	-97.142	-26.269	-99.620	-8191	255	
3871.348	1	1	0	0	0.10219	0.072339	0.12709	0.16172	0.06639	0.086329	0.1892	0.13092	0.080216	0.055588	0.20842	0.26415	0.20051	0.47862	0.072737	0.14977	-1.3604	-1.5979	-1.3583	-1.925	-1.5604	-1.4875	-2.0583	-1.5187	-1.6271	-1.7333	-1.3292	-1.9542	-1.475	-1.6729	-1.8188	-1.6437	110.797	153.300	-91.466	221.336	-22.282	108.310	-97.899	115.971	50.810	-23.881	162.705	189.695	112.533	192.170	159.501	149.424	0.0016876	0.00084952	0.00027285	889.14	1.2932e-05	5.5579e-06	1092.5	388.01	6.2317e-06	7.6578e-06	508.83	227.13	171.17	84.409	1.9238e-05	116.49	0.0013531	0.0013619	0.00038075	911.97	1.4833e-05	1.5015e-05	1087	384.84	1.4831e-05	1.4967e-05	526.33	223.7	176.75	83.157	1.4808e-05	114.03	106.047	-52.128	177.544	-109.802	46.417	7.240	-110.988	-105.858	-4.032	-13.463	-107.566	-103.949	-103.176	-97.934	-18.156	-100.256	-8191	255	
3871.419	1	1	0	0	0.29825	0.14109	0.14634	0.1429	0.1622	0.20727	0.29464	0.18334	0.20301	0.10444	0.063473	0.24581	0.017566	0.51098	0.067097	0.095026	-1.0625	-1.6354	-1.2792	-1.9354	-1.5792	-1.3708	-1.9854	-1.5688	-1.5479	-1.7958	-1.3146	-1.9062	-1.7188	-1.6562	-1.8646	-1.6792	211.896	74.751	-82.883	144.464	162.595	185.117	201.562	79.314	-45.381	211.835	174.603	115.453	-110.731	-98.228	191.173	172.796	0.002039	0.0008213	8.9096e-05	890.99	1.6281e-05	5.2635e-06	1091.5	388.61	2.756e-06	1.6807e-05	497.43	224.68	170.6	84.168	3.9776e-06	115.03	0.001361	0.0013519	0.00038139	913.3	1.4988e-05	1.5049e-05	1087.2	384.83	1.5088e-05	1.5275e-05	522.66	221.87	176.3	82.717	1.5054e-05	112.68	111.349	-25.504	51.704	-109.750	11.850	69.696	-110.862	-105.697	-103.917	14.645	-107.440	-103.848	-102.775	-97.523	166.656	-99.844	-8191	255	
3871.515	1	1	0	0	0.13187	0.15135	0.14466	0.15686	0.17978	0.21024	0.02848	0.12651	0.25771	0.20895	0.061214	0.33144	0.20446	0.1086	0.36538	0.13829	-1.1396	-1.6896	-1.3583	-1.8479	-1.4833	-1.2812	-2.1521	-1.5688	-1.5708	-1.7542	-1.3438	-1.9312	-1.7313	-1.5354	-1.9042	-1.7542	-61.733	37.799	45.446	89.846	169.130	75.828	147.481	75.079	-54.981	82.448	235.501	191.224	-115.333	-122.409	108.140	93.611	0.0018865	0.00048418	8.4601e-05	884.14	1.3889e-05	2.8409e-06	1078.3	385.11	6.966e-06	7.1623e-06	497.62	223.49	170.27	84.118	1.121e-05	114.7	0.0013731	0.0013824	0.00038232	904.69	1.4861e-05	1.4944e-05	1073.5	381.38	1.4745e-05	1.4809e-05	516.4	220.04	174.99	82.532	1.4597e-05	112.22	107.256	135.896	-32.990	-109.680	30.818	80.672	-110.836	-105.212	197.110	47.880	-107.346	-103.826	-102.771	-97.718	-74.346	-100.031	-8191	255	
3871.612	1	1	0	0	0.27498	0.22429	0.1245	0.18515	0.069437	0.02999	0.19051	0.33194	0.12318	0.28917	0.1253	0.10519	0.26305	0.3401	0.063128	0.25249	-1.0792	-1.725	-1.3813	-1.5604	-1.8188	-1.4104	-2.0563	-1.6021	-1.4813	-1.8188	-1.6437	-1.6896	-1.9021	-1.4042	-1.9042	-1.6854	-3.135	-99.545	60.446	-82.328	-121.708	-60.420	163.767	150.901	-55.761	35.779	-71.841	-122.381	-101.980	194.522	-88.636	198.536	0.0020524	0.00095417	0.00013467	875.82	1.0399e-05	1.2192e-05	1079.3	384.2	1.8361e-05	8.5594e-06	492.49	224.13	169.38	83.928	1.3457e-05	114.92	0.0013347	0.0013385	0.00037466	900.47	1.465e-05	1.483e-05	1072.9	380.25	1.4688e-05	1.4679e-05	515.44	220.18	174.26	82.455	1.466e-05	112.5	103.861	6.192	194.888	-109.479	-64.239	5.144	-110.859	-105.360	-70.436	50.575	-107.708	-104.011	-103.273	-97.736	-15.254	-100.136	-8191	255	
3871.730	1	1	0	0	0.056082	0.13881	0.15931	0.081495	0.24408	0.25441	0.15536	0.28627	0.052724	0.13122	0.046578	0.10906	0.11923	0.3621	0.3462	0.31507	-0.95833	-1.7313	-1.2375	-1.7667	-1.5458	-1.5063	-1.9937	-1.825	-1.2917	-1.9062	-1.4208	-1.575	-1.8292	-1.6021	-1.5229	-1.8229	184.744	-68.640	-13.966	88.990	203.698	77.374	141.866	119.121	-45.953	-58.589	190.136	-83.913	51.808	139.706	-71.363	167.345	0.0014935	0.0009948	0.00015879	872.87	6.1703e-06	1.4541e-05	1082.1	384.29	2.6509e-06	2.5247e-06	497.6	224.15	167.07	83.556	1.0071e-05	115.02	0.0013365	0.0013398	0.00037668	900.43	1.4921e-05	1.4874e-05	1076.4	380.84	1.4829e-05	1.5018e-05	518.91	220.78	173.9	82.195	1.4918e-05	112.7	107.349	-84.427	-8.552	-109.825	-22.525	-52.285	-110.929	-105.527	-82.909	72.318	-107.864	-104.017	-103.056	-97.701	203.668	-100.051	-8191	255	
3871.827	1	1	0	0	0.32537	0.24598	0.11714	0.17696	0.10416	0.19836	0.55693	0.28524	0.1082	0.057704	0.16226	0.13908	0.15745	0.46806	0.076522	0.28501	-0.95833	-1.8604	-1.5688	-1.55	-1.8979	-1.2729	-1.9813	-1.8771	-1.4771	-1.7604	-1.5458	-1.7938	-1.9562	-1.6125	-1.7188	-1.9896	71.527	-102.397	44.818	59.870	-71.206	107.636	155.342	181.574	-51.786	217.622	-81.087	171.336	165.977	179.976	-45.317	145.910	0.0020249	0.00053177	0.00022384	875.81	1.148e-05	1.0128e-05	1086.3	382.99	8.5146e-06	1.8344e-05	502.24	223.72	169.14	83.085	6.2725e-06	114.32	0.0013745	0.0013702	0.00038427	905.68	1.5242e-05	1.5104e-05	1081.5	381.04	1.5143e-05	1.5224e-05	522.43	220.39	174.64	81.796	1.5353e-05	111.9	106.631	108.105	36.732	-109.679	-80.369	-29.821	-110.826	-105.816	0.490	78.455	-107.327	-103.891	-102.926	-98.087	101.708	-100.101	-8191	255	
3871.923	1	1	0	0	0.15153	0.35685	0.10559	0.16527	0.12903	0.33044	0.27338	0.33959	0.22055	0.066091	0.13899	0.2616	0.33919	0.31287	0.084753	0.20117	-1.0083	-1.7875	-1.7021	-1.55	-1.9354	-1.6375	-1.6437	-1.6688	-1.2313	-1.6729	-1.6562	-1.5083	-1.9146	-1.6083	-1.6437	-2.0563	188.785	-77.335	8.019	92.093	-51.554	131.936	113.292	211.407	41.898	-69.644	205.320	160.608	-32.669	151.732	124.659	125.031	0.0016035	0.001581	0.00021432	871.13	7.5983e-06	1.4954e-05	1078.2	382.03	4.6115e-06	1.0925e-05	493.52	221.8	167.11	82.621	1.4897e-05	113.64	0.001418	0.0014215	0.00039911	904.61	1.5621e-05	1.5845e-05	1073.8	380.09	1.5668e-05	1.5962e-05	519.35	219.01	174.33	81.584	1.5792e-05	111.47	109.398	-27.852	-58.016	-109.360	-12.437	60.118	-110.923	-105.413	-32.112	68.092	-107.065	-103.722	-103.114	-97.792	-49.178	-100.087	-8191	255	
3872.019	1	1	0	0	0.40543	0.20616	0.13561	0.15525	0.22999	0.14941	0.2787	0.40362	0.16961	0.10712	0.17787	0.26036	0.088432	0.098048	0.19072	0.13031	-0.8875	-1.5771	-1.6021	-1.4458	-1.9375	-1.2542	-1.8042	-1.9937	-1.3896	-1.7104	-1.5292	-1.4438	-1.9333	-1.5896	-1.425	-2.1625	33.389	-62.967	23.876	174.967	78.146	-40.542	136.830	217.207	-6.751	-99.717	158.304	233.780	100.692	218.726	193.099	162.136	0.0019008	0.00047181	0.00018624	874.51	7.3301e-06	6.2557e-06	1074.7	381.07	4.0114e-06	2.6801e-05	493.71	221.95	167.87	82.727	1.0875e-05	114.37	0.001454	0.001446	0.00040682	906.28	1.5937e-05	1.6033e-05	1072.8	380.14	1.6229e-05	1.6558e-05	525.84	219.76	176.51	82.126	1.742e-05	112.55	108.895	-67.691	-19.025	-109.626	-8.797	35.781	-110.915	-105.487	7.389	6.176	-107.724	-103.983	-102.805	-97.742	44.739	-100.107	-8191	255	
3872.115	1	1	0	0	0.15849	0.11695	0.056075	0.083837	0.076684	0.27983	0.41441	0.093509	0.22227	0.33382	0.031578	0.16534	0.26528	0.29189	0.24384	0.48185	-0.80625	-1.6021	-1.55	-1.5833	-1.5917	-1.3833	-1.5521	-2.0104	-1.4146	-1.6063	-1.7271	-1.525	-1.9167	-1.7417	-1.5208	-2.1229	76.964	168.876	-87.392	-64.961	154.067	-29.038	167.219	92.188	73.856	33.021	-66.794	212.927	-45.365	194.595	75.364	150.293	0.0016497	0.00088866	0.00014336	880.56	2.3691e-05	9.6488e-06	1085	384.99	5.0627e-06	1.9386e-05	497.99	224.21	169.41	82.789	5.4684e-06	114.68	0.001612	0.0016199	0.00046056	922.35	1.7944e-05	1.8236e-05	1090.5	385.49	1.8271e-05	1.8431e-05	537.6	223.18	180.24	82.731	1.8908e-05	113.67	93.445	-25.967	188.595	-109.928	-78.950	71.081	-110.842	-105.508	-107.391	2.746	-107.657	-103.925	-102.867	-97.778	139.540	-100.031	-8191	255	
3872.211	1	1	0	0	0.18762	0.27109	0.30112	0.10845	0.12517	0.29923	0.22851	0.27755	0.26942	0.071062	0.14369	0.14137	0.086869	0.071245	0.4564	0.21678	-1.0688	-1.6146	-1.7021	-1.5042	-1.7854	-1.8542	-1.5104	-2	-1.5667	-1.5854	-1.7646	-1.4	-1.7729	-1.8354	-1.3646	-2.0042	111.899	224.961	138.231	179.062	-24.568	22.908	231.036	180.424	-80.699	114.036	-12.529	181.594	165.761	226.213	2.002	156.663	0.0015167	0.00050754	0.00026777	884.37	6.396e-06	4.2621e-06	1097	385.98	7.2311e-06	1.2498e-06	497.22	226.14	170.37	83.528	1.5731e-05	115.19	0.001729	0.0017331	0.00048626	933.29	1.8933e-05	1.91e-05	1103.9	387.9	1.9163e-05	1.9182e-05	543.2	225.19	180.75	82.794	1.7727e-05	113.59	112.111	57.657	-24.608	-109.692	-5.238	48.167	-110.976	-105.600	-18.262	74.439	-107.122	-104.032	-103.057	-97.659	-53.180	-99.862	-8191	255	
3872.332	1	1	0	0	0.13176	0.12167	0.12084	0.09193	0.18129	0.15317	0.26422	0.17767	0.20969	0.092901	0.22246	0.27565	0.12883	0.44905	0.36527	0.1324	-0.89792	-1.4875	-1.8354	-1.4354	-1.7125	-1.7229	-1.4646	-2.0125	-1.4604	-1.5042	-1.6771	-1.4958	-1.8125	-1.9271	-1.3208	-2.0146	29.914	166.244	-103.523	157.125	58.407	113.001	140.872	-103.853	-35.167	-48.197	-121.194	130.876	-94.081	177.969	166.541	219.673	0.0016367	0.00059491	0.00016158	881.5	9.6538e-06	1.1282e-05	1087.1	385.19	6.861e-06	1.8736e-05	496.34	222.42	168.15	82.788	7.8118e-06	113.89	0.0015267	0.0014768	0.00040334	911.42	1.5273e-05	1.5399e-05	1080.3	381.81	1.5423e-05	1.55e-05	521.37	219.6	175.1	81.68	1.5722e-05	111.59	107.884	-28.037	25.180	-110.023	3.441	28.823	-110.855	-105.494	19.017	53.378	-107.906	-104.062	-103.084	-97.888	-119.197	-100.056	-8191	255	
3872.428	1	1	0	0	0.092133	0.022677	0.14796	0.14738	0.16737	0.091122	0.1295	0.17326	0.13639	0.24222	0.27496	0.23221	0.035639	0.23583	0.047249	0.17388	-1.0562	-1.3625	-1.8708	-1.4292	-1.7875	-1.7458	-1.6604	-2.0312	-1.3333	-1.4958	-1.9292	-1.4729	-1.6646	-1.825	-1.2646	-2.0104	1.432	-4.768	-98.611	43.795	160.323	-54.640	111.281	182.612	106.485	197.316	-107.670	203.424	235.232	-115.920	111.892	123.587	0.0019758	0.0011236	0.00020819	875.23	8.4434e-06	6.7013e-06	1080.7	383.11	1.2041e-05	1.7067e-06	494.77	222.2	167.94	82.716	6.0854e-06	113.76	0.0014421	0.0014717	0.0004098	910.87	1.613e-05	1.6485e-05	1081.1	382.38	1.6906e-05	1.7214e-05	528.73	220.77	177.51	82.047	1.7642e-05	112.37	112.645	-42.685	-8.762	-109.827	213.415	84.993	-110.674	-105.190	58.897	21.188	-107.249	-103.926	-103.346	-97.873	-79.681	-100.303	-8191	255	
3872.524	1	1	0	0	0.3295	0.2032	0.199	0.21949	0.18888	0.17651	0.065054	0.32105	0.080013	0.094103	0.11503	0.10298	0.26065	0.16126	0.21451	0.23484	-1.1771	-1.4292	-1.8875	-1.5271	-1.5646	-1.625	-1.3521	-1.7542	-1.7	-1.4708	-1.9542	-1.6083	-1.6313	-1.9417	-1.3875	-1.7917	109.323	219.760	-4.705	212.597	217.426	210.310	219.379	211.749	43.197	-68.772	213.225	52.984	115.734	155.331	134.046	192.507	0.0017945	0.00035977	0.00019114	875.62	5.572e-06	3.5726e-06	1080.3	383.7	1.3988e-05	1.0733e-05	499.23	222.34	167.65	82.748	6.1117e-06	114.47	0.0016025	0.0016135	0.00044513	919.46	1.7176e-05	1.7324e-05	1086	383.29	1.7255e-05	1.7274e-05	529.68	221.18	177.25	82.011	1.6899e-05	112.7	99.518	18.812	-56.746	-109.756	-15.095	150.601	-110.753	-105.743	-45.943	-4.474	-107.454	-103.669	-102.838	-97.556	11.109	-100.108	-8191	255	
3872.643	1	1	0	0	0.17636	0.1736	0.10528	0.26891	0.11625	0.13158	0.26503	0.1567	0.02449	0.20242	0.080986	0.4019	0.13679	0.12845	0.20784	0.30359	-1.3333	-1.3188	-1.7854	-1.6729	-1.4562	-1.6479	-1.4229	-1.825	-1.7271	-1.2479	-1.7875	-1.8292	-1.7333	-1.8896	-1.4167	-1.8229	-116.062	105.118	200.098	123.464	153.745	-64.906	176.881	173.921	-106.422	124.381	192.849	163.124	105.197	-88.586	32.858	173.017	0.0017033	0.0012745	0.00020947	872.34	1.9071e-05	1.3038e-05	1080.7	383.84	3.756e-06	1.654e-05	497.22	224.23	167.11	83.013	7.3499e-06	115.48	0.0015298	0.0015219	0.00042516	909.2	1.6472e-05	1.6376e-05	1081.5	381.86	1.6123e-05	1.608e-05	523.82	221.14	175.14	81.875	1.5532e-05	113.03	106.505	-14.572	-93.896	-109.580	-72.141	59.227	-111.384	-105.760	80.902	41.586	-107.236	-103.874	-103.067	-97.973	9.879	-100.162	-8191	255	
3872.715	1	1	0	0	0.17827	0.21445	0.15821	0.16946	0.23692	0.060554	0.12811	0.088789	0.038563	0.16082	0.14015	0.14889	0.28715	0.17178	0.12686	0.21421	-1.2167	-1.3667	-1.7604	-1.6792	-1.3312	-1.7292	-1.3542	-1.7875	-1.7062	-1.3958	-1.8604	-1.7188	-1.4729	-2.1875	-1.2208	-1.8062	63.582	193.981	-14.033	121.103	23.324	228.539	153.493	215.009	17.516	164.439	-121.638	145.661	-102.234	211.522	120.282	102.810	0.0015675	0.00035462	0.0003888	885.73	2.2699e-05	1.793e-05	1086.3	384.34	1.1174e-05	1.1414e-05	495.06	223.01	167.14	82.687	3.2216e-06	113.67	0.0014158	0.0014044	0.00038815	906.73	1.4754e-05	1.4656e-05	1078.2	379.76	1.4563e-05	1.4856e-05	516.91	219.25	173.84	81.494	1.524e-05	111.66	108.716	34.090	-32.676	-109.720	176.893	13.543	-110.998	-105.658	6.708	97.946	-107.370	-104.052	-102.926	-97.663	-72.617	-100.060	-8191	255	
3872.811	1	1	0	0	0.072344	0.19632	0.14275	0.23612	0.28761	0.14125	0.071137	0.31751	0.094805	0.12931	0.058493	0.28294	0.26109	0.25129	0.14475	0.46911	-1.1229	-1.3	-1.7792	-1.6437	-1.3521	-1.8958	-1.6854	-1.6729	-1.7542	-1.1604	-1.9417	-1.9604	-1.5417	-1.9271	-1.5521	-1.7208	34.784	154.544	183.370	162.667	74.745	75.887	-63.105	167.154	25.522	94.434	93.906	-39.407	158.752	215.759	175.679	206.930	0.0019187	0.0013424	0.00035783	873.22	1.3428e-05	4.7227e-06	1071.9	383.25	7.7427e-06	2.0076e-05	497.98	222.67	169.29	82.975	1.3151e-05	114.28	0.001385	0.0013918	0.00038527	900.32	1.5039e-05	1.51e-05	1068.9	379.84	1.4949e-05	1.4948e-05	517.18	219.43	174.16	81.588	1.4789e-05	111.81	109.583	-56.130	-35.757	-109.768	47.577	69.005	-110.870	-105.625	-31.681	0.994	-107.138	-103.973	-102.612	-97.637	-25.136	-100.022	-8191	255	
3872.907	1	1	0	0	0.064585	0.057422	0.25986	0.11683	0.051766	0.15613	0.080668	0.41003	0.17091	0.17509	0.15783	0.2407	0.23363	0.11916	0.25417	0.40407	-1.1479	-1.2875	-1.7354	-1.5479	-1.3	-1.7583	-1.6958	-1.5708	-1.6604	-1.2979	-1.7708	-1.7	-1.4125	-1.9667	-1.625	-1.6021	46.797	-25.671	-69.973	139.397	136.011	-15.808	182.025	141.042	103.226	189.426	168.056	190.413	58.431	-72.990	-80.999	181.124	0.001396	0.00069186	1.7217e-05	875.42	9.097e-06	6.7141e-06	1074.7	383.01	5.1493e-06	1.1945e-05	493.21	223.69	168.62	83.033	3.1827e-06	115.06	0.0013584	0.0013428	0.00037441	899.51	1.4609e-05	1.4761e-05	1068.8	378.72	1.4757e-05	1.484e-05	516.94	219.91	173.98	81.802	1.4876e-05	112.44	120.361	37.115	166.690	-109.785	154.097	31.092	-110.948	-105.732	-23.161	14.259	-107.373	-103.901	-103.543	-97.928	-28.651	-100.285	-8191	255	
3873.028	1	1	0	0	0.11535	0.43165	0.17397	0.11559	0.063769	0.068115	0.29834	0.18123	0.091368	0.25138	0.073071	0.40116	0.21005	0.42903	0.14193	0.15869	-1.3854	-1.4771	-1.5896	-1.7521	-1.025	-1.9625	-1.675	-1.4688	-1.8354	-1.2417	-1.6646	-1.8438	-1.3188	-1.8229	-1.4625	-1.75	7.382	117.216	-98.330	91.349	162.255	51.778	204.612	168.866	-85.106	15.707	-96.885	185.469	130.840	-112.187	186.137	184.793	0.0018113	0.0015005	0.00041111	870.62	6.1793e-06	7.6135e-06	1079.1	382.11	1.5071e-05	7.7937e-06	494.87	224.24	168.29	83.078	1.5099e-05	115.41	0.0013711	0.0013667	0.00037439	894.34	1.4544e-05	1.447e-05	1069.5	377.29	1.4337e-05	1.4185e-05	511.92	219.68	171.94	81.407	1.3629e-05	112.79	112.068	-35.130	6.609	-110.148	3.503	-6.789	-110.716	-105.232	-12.191	58.971	-107.471	-103.929	-102.821	-97.730	11.021	-99.978	-8191	255	
3873.124	1	1	0	0	0.10678	0.098843	0.022517	0.011601	0.11894	0.28249	0.19664	0.23291	0.13133	0.27651	0.23166	0.18124	0.14718	0.17054	0.16054	0.33637	-1.375	-1.3771	-1.4312	-2.0792	-1.3875	-1.8083	-1.8875	-1.6417	-1.8813	-1.5375	-1.4958	-1.9042	-1.3208	-1.8771	-1.6521	-1.7896	-1.642	124.247	35.339	208.163	-63.913	-120.320	153.696	198.941	-49.768	42.823	29.494	209.905	202.022	182.511	234.796	202.322	0.0022372	0.0010663	0.00020147	872.33	1.4628e-05	7.9376e-06	1080.4	380.81	9.992e-06	1.2176e-05	496.46	224.45	169.24	83.666	3.4593e-06	115.57	0.0012905	0.0013019	0.00036355	894.98	1.4358e-05	1.4482e-05	1073.4	378.16	1.4622e-05	1.4653e-05	516.73	220.82	173.9	82.103	1.4512e-05	112.88	115.198	212.298	-16.507	-109.520	-87.437	90.752	-110.759	-105.573	-4.857	140.634	-107.149	-103.845	-102.927	-97.722	-3.646	-100.087	-8191	255	
3873.220	1	1	0	0	0.088428	0.4607	0.24045	0.1702	0.17542	0.045725	0.39718	0.26017	0.33954	0.2594	0.15521	0.22089	0.30132	0.19938	0.087108	0.33314	-1.3021	-1.3917	-1.3604	-1.8625	-1.4562	-1.7417	-2.0958	-1.7521	-1.85	-1.4708	-1.425	-1.9333	-1.4479	-1.7646	-1.5854	-1.3646	207.504	-24.243	110.913	89.574	118.728	23.709	137.017	195.466	95.053	173.506	-34.791	-78.255	-107.348	-113.811	213.267	186.253	0.0016264	0.0016602	0.00023004	872.97	1.2641e-05	2.7988e-06	1074.2	383.47	1.0445e-05	9.1672e-06	496.85	223.6	168.9	83.521	8.088e-06	114.57	0.0013158	0.0013152	0.0003666	894.1	1.4299e-05	1.432e-05	1067.3	378.27	1.418e-05	1.4342e-05	513.88	219.59	173.22	81.941	1.417e-05	112.2	114.185	-9.371	61.033	-109.703	50.160	54.271	-110.766	-105.352	-79.774	15.897	-107.299	-103.599	-102.504	-97.680	-0.643	-99.909	-8191	255	
3873.292	1	1	0	0	0.19046	0.09443	0.23564	0.31279	0.34162	0.14822	0.24848	0.21172	0.016333	0.42046	0.21575	0.12206	0.30742	0.12186	0.17047	0.21576	-1.4458	-1.5458	-1.3771	-1.9479	-1.2667	-1.5896	-2.0208	-1.5438	-1.8438	-1.725	-1.5938	-1.9396	-1.4979	-1.5417	-1.8104	-1.5562	106.086	84.886	194.849	234.826	-4.350	124.712	148.891	203.119	180.290	24.821	-75.290	146.157	236.411	-67.076	186.311	204.618	0.0020134	0.00048701	0.00019153	873.72	4.2925e-06	1.6833e-05	1078.8	385.01	1.6131e-05	4.453e-06	496.33	224.66	170.09	83.954	7.5584e-06	115.98	0.0012887	0.001292	0.00036116	892.99	1.4123e-05	1.4072e-05	1069	379.4	1.4061e-05	1.4295e-05	514.88	220.42	173.79	82.241	1.3986e-05	112.98	109.488	-41.913	-98.571	-109.528	-96.511	-7.565	-110.849	-105.462	-6.327	-114.306	-107.582	-103.748	-102.994	-97.628	-23.536	-99.915	-8191	255	
3873.412	1	1	0	0	0.23215	0.066497	0.144	0.17848	0.027037	0.16076	0.38983	0.27042	0.09225	0.15116	0.056554	0.19769	0.027069	0.12843	0.25362	0.31067	-1.1875	-1.8	-1.4604	-2.1125	-1.4271	-1.525	-2.0542	-1.5812	-1.8646	-1.6771	-1.4271	-2.0625	-1.5417	-1.7021	-1.8333	-1.6625	92.660	74.581	128.668	-123.167	108.339	-45.499	174.000	146.749	212.611	123.056	81.637	227.951	-111.962	210.271	86.105	206.853	0.0019974	0.00053963	6.218e-05	870.92	2.9383e-06	1.4837e-05	1073.5	381.21	7.4103e-06	1.3997e-05	497.95	225.15	169.81	83.497	2.0945e-06	116.13	0.0012762	0.0012874	0.00035728	891.51	1.408e-05	1.3892e-05	1069	377.22	1.3905e-05	1.3991e-05	515.59	220.44	172.91	81.898	1.3977e-05	113.06	105.586	134.618	-85.476	-109.896	73.320	-70.460	-110.876	-105.581	3.109	54.191	-107.483	-103.642	-102.707	-97.720	27.547	-100.063	-8191	255	
3873.508	1	1	0	0	0.11531	0.16044	0.067173	0.28279	0.15286	0.0932	0.25947	0.05448	0.23571	0.062226	0.24264	0.22781	0.26924	0.10055	0.32742	0.34919	-1.3687	-1.6562	-1.3667	-1.9062	-1.4	-1.4667	-2.0354	-1.3896	-1.7188	-1.8188	-1.2625	-2.0125	-1.4833	-1.4604	-1.9729	-1.6083	93.031	-79.918	-14.715	223.028	101.356	52.119	219.805	118.221	131.427	191.122	157.583	224.029	45.559	166.072	130.162	152.407	0.0017526	0.001778	5.7843e-05	869.22	8.4912e-06	6.9927e-06	1079.9	383.02	9.0893e-06	1.5533e-05	497.69	225.1	168.14	83.31	2.6578e-05	115.61	0.0012713	0.001285	0.00035639	891.26	1.3992e-05	1.4027e-05	1071	377.33	1.4001e-05	1.4168e-05	514.84	220.54	172.93	81.644	1.4108e-05	112.61	107.368	-47.818	92.676	-109.614	75.560	-43.786	-110.828	-105.530	-86.243	35.596	-107.293	-103.904	-103.339	-97.988	0.352	-100.135	-8191	255	
3873.605	1	1	0	0	0.12729	0.12165	0.090399	0.11349	0.097819	0.1172	0.13104	0.24981	0.12011	0.14133	0.31789	0.15993	0.16087	0.12405	0.15476	0.071884	-1.0646	-1.8104	-1.3417	-1.7208	-1.5604	-1.3792	-2.1688	-1.4958	-1.55	-1.6875	-1.2854	-1.8813	-1.8646	-1.475	-1.7625	-1.55	-49.168	0.631	179.411	180.916	120.192	76.929	86.305	217.130	65.234	200.347	179.356	109.858	150.424	226.711	54.112	-4.616	0.0020178	0.00099411	0.00012713	864.99	8.0345e-06	6.4015e-06	1073.5	379.61	1.1367e-05	1.4884e-05	489.89	222.17	167.96	82.657	4.664e-06	113.85	0.0012993	0.0012976	0.000361	887.5	1.412e-05	1.4215e-05	1062.7	375.65	1.407e-05	1.4266e-05	510.95	217.81	172.1	81.123	1.4249e-05	111.22	108.389	-59.615	14.600	-109.305	33.522	-37.582	-110.858	-105.106	-13.084	39.088	-107.278	-103.585	-102.811	-97.432	-31.085	-99.863	-8191	255	
3873.723	1	1	0	0	0.14316	0.28216	0.14555	0.31302	0.07268	0.21227	0.33086	0.16181	0.12429	0.26348	0.038748	0.16323	0.17156	0.17788	0.25205	0.1325	-1.2333	-1.9062	-1.2979	-1.6021	-1.525	-1.325	-2.0062	-1.6479	-1.5688	-1.8062	-1.2938	-1.8979	-1.6208	-1.6229	-1.6792	-1.7958	-81.733	-16.624	-95.435	215.632	-72.365	51.329	161.618	171.541	128.585	219.097	84.960	166.761	166.560	171.076	150.811	157.294	0.0016764	0.0011057	0.00035756	866.89	1.6121e-05	3.9935e-06	1063.7	377.8	7.2353e-06	1.5519e-05	494.66	221.96	167.71	82.528	1.0626e-05	114.45	0.0013041	0.001309	0.00036366	887.55	1.4344e-05	1.4418e-05	1056.4	373.87	1.4171e-05	1.4355e-05	511.32	218.39	172.06	81.111	1.4266e-05	111.6	98.997	-36.041	-41.224	-109.715	-66.697	123.261	-110.539	-105.409	-41.005	7.257	-107.304	-103.533	-102.906	-97.676	6.275	-99.839	-8191	255	
3873.820	1	1	0	0	0.057278	0.086294	0.090875	0.12638	0.1926	0.10847	0.19011	0.02296	0.13242	0.22565	0.070257	0.32576	0.050942	0.13352	0.2138	0.19673	-1	-1.5396	-1.4479	-1.775	-1.7625	-1.2625	-1.725	-1.7208	-1.4312	-1.8271	-1.6063	-1.7208	-1.7958	-1.3188	-1.7812	-1.9167	-14.954	-58.310	130.244	64.047	-53.701	-118.838	200.373	132.821	-15.083	197.728	-21.842	210.488	95.007	-119.987	133.721	86.974	0.0018071	0.0012327	0.00023845	862.68	5.2506e-06	1.8239e-05	1072.5	378.29	3.9152e-06	7.7261e-06	497.07	222.52	167.99	82.212	9.8152e-06	114.22	0.0013012	0.0013086	0.00036578	887.77	1.4423e-05	1.438e-05	1062.4	374.42	1.4283e-05	1.4366e-05	512.47	218.39	172.16	80.846	1.4204e-05	111.58	104.247	5.475	3.730	-109.724	6.132	38.709	-110.681	-105.325	-14.226	55.626	-107.139	-103.543	-102.705	-97.607	-61.511	-100.048	-8191	255	
3873.916	1	1	0	0	0.11705	0.10993	0.16292	0.3678	0.12275	0.046432	0.14891	0.20632	0.186	0.24243	0.36881	0.37237	0.090578	0.15155	0.055481	0.42825	-0.95833	-1.875	-1.3312	-1.5729	-1.6479	-1.2188	-2.0021	-1.8813	-1.5167	-1.8188	-1.4188	-1.7417	-1.8354	-1.4875	-1.7583	-1.6083	230.850	125.452	84.383	153.641	227.603	54.388	182.658	121.879	34.292	85.240	-51.391	226.889	104.535	-121.006	177.899	169.273	0.0015899	0.00030803	0.0001902	865.35	1.0299e-05	8.8326e-06	1072.3	378.48	5.5029e-06	1.1754e-05	490.76	223.35	166.83	82.24	1.496e-05	114.14	0.0013164	0.0013098	0.00036545	888.5	1.4349e-05	1.4437e-05	1065.7	374.22	1.436e-05	1.4388e-05	511.7	218.86	171.99	80.834	1.4338e-05	111.91	113.748	-96.281	-23.169	-109.559	-94.274	15.944	-111.078	-105.480	198.812	75.782	-107.755	-103.905	-103.060	-98.050	-26.178	-100.309	-8191	255	
3874.012	1	1	0	0	0.21544	0.18919	0.19215	0.19299	0.11587	0.26858	0.30563	0.20804	0.16821	0.1305	0.15241	0.2682	0.14358	0.18368	0.20537	0.15176	-0.78542	-1.6812	-1.3937	-1.5167	-1.8396	-1.4979	-1.975	-1.8729	-1.475	-1.8417	-1.6021	-1.6667	-1.9104	-1.6875	-1.6812	-1.9167	185.101	-33.816	139.554	235.695	-66.281	74.400	178.272	162.137	49.797	90.835	115.278	209.450	234.340	221.287	-104.866	152.245	0.0016532	0.0010159	0.00048463	862.35	1.6578e-05	8.269e-06	1068.4	376.46	1.5182e-05	2.04e-05	490.72	220.33	166.88	81.599	8.0469e-06	112.46	0.0013194	0.0013102	0.00036811	887.52	1.4512e-05	1.442e-05	1059.7	372.59	1.4357e-05	1.4417e-05	509.25	216.87	171.28	80.408	1.4239e-05	110.29	110.955	-57.022	-32.835	-109.962	6.377	18.710	-111.005	-105.193	184.669	82.139	-107.085	-103.756	-102.789	-97.611	-39.666	-100.225	-8191	255	
3874.108	1	1	0	0	0.30907	0.18136	0.15293	0.137	0.047293	0.080664	0.10989	0.18866	0.068568	0.082627	0.10836	0.40397	0.15312	0.17864	0.15432	0.18465	-0.88125	-1.8292	-1.5396	-1.5896	-1.925	-1.5333	-1.8563	-2.025	-1.4937	-1.8833	-1.6333	-1.5292	-1.7833	-1.5229	-1.525	-1.9083	-44.557	-9.137	-98.838	-114.888	-7.362	-54.796	174.575	157.871	166.953	-85.799	198.742	177.147	211.943	111.374	63.263	234.505	0.0015503	0.00088079	0.00026353	859.79	9.1655e-06	1.0074e-05	1066.2	377.15	6.1888e-06	8.8029e-06	487.74	221.24	167.77	81.769	7.8511e-06	113.12	0.0013191	0.001317	0.00036803	884.52	1.4453e-05	1.4515e-05	1056.5	373.81	1.4502e-05	1.4585e-05	509.28	217.06	171.97	80.356	1.4526e-05	110.66	115.457	-29.027	-23.449	-109.766	17.871	-2.973	-110.719	-105.273	-89.366	11.203	-107.380	-103.488	-102.422	-97.535	13.392	-99.802	-8191	255	
3874.204	1	1	0	0	0.074852	0.23472	0.38453	0.21958	0.17399	0.20787	0.27575	0.51709	0.18947	0.11505	0.14137	0.3452	0.024903	0.066848	0.083911	0.26769	-0.83958	-1.7104	-1.7396	-1.575	-1.8979	-1.525	-1.7625	-2.0563	-1.4333	-1.7729	-1.6833	-1.3458	-1.8438	-1.7313	-1.4438	-2.1542	-61.787	-102.463	-86.639	47.271	-54.218	112.835	132.837	192.361	137.804	152.193	-86.609	-110.002	-104.079	182.633	60.972	182.590	0.0016106	0.00096923	0.00030317	867.9	1.8675e-06	1.0155e-05	1062.6	377.67	5.1767e-06	4.8794e-06	489.73	221.63	167.15	82.023	1.1363e-05	113.67	0.001331	0.0013094	0.00036622	887.05	1.4131e-05	1.4434e-05	1055.6	373.08	1.4182e-05	1.4108e-05	507.95	217.63	172	80.568	1.4148e-05	111.2	103.251	2.905	-53.950	-109.235	234.202	-70.599	-110.555	-105.169	234.594	-5.325	-107.362	-103.892	-103.022	-97.935	-12.935	-100.473	-8191	255	
3874.325	1	1	0	0	0.18341	0.097525	0.40451	0.2943	0.049597	0.23352	0.091885	0.34296	0.13948	0.1853	0.2032	0.11347	0.16184	0.32154	0.16552	0.22624	-1.025	-1.7854	-1.7604	-1.3333	-1.7167	-1.5583	-1.6208	-2.0583	-1.4146	-1.7896	-1.8792	-1.6125	-1.7958	-1.7521	-1.4583	-2.2042	132.549	-72.420	-84.666	123.746	2.890	-111.527	214.363	156.425	142.503	132.071	-82.121	216.931	-10.714	186.863	189.921	229.291	0.0017641	0.00096419	0.00027627	865.57	9.2145e-06	6.6687e-06	1071.3	376.61	1.2701e-05	1.5628e-05	491.89	222.16	167.15	82.43	1.391e-05	115.05	0.0013005	0.0013127	0.00036735	888.49	1.4262e-05	1.4511e-05	1062.8	374.29	1.4446e-05	1.4556e-05	512.76	219.22	172.83	81.325	1.4526e-05	112.51	114.015	-20.980	-10.692	-109.868	151.711	61.802	-111.059	-105.561	23.690	5.437	-107.509	-104.105	-103.146	-98.159	-69.854	-100.074	-8191	255	
3874.421	1	1	0	0	0.2325	0.13176	0.039932	0.078112	0.26874	0.10499	0.26955	0.32281	0.25628	0.096459	0.17406	0.17954	0.14117	0.10689	0.21482	0.1475	-0.93333	-1.4688	-1.8062	-1.3792	-1.8021	-1.75	-1.6229	-1.9229	-1.4188	-1.5771	-1.9896	-1.5	-1.7042	-1.7479	-1.2896	-2.0979	20.769	-3.777	-90.558	-4.645	223.233	91.347	159.348	164.883	-2.501	41.272	-44.694	197.018	-55.254	-108.657	140.226	-121.366	0.0016289	0.00061402	0.00034996	868.65	1.8387e-05	5.6002e-06	1078.8	381.3	2.9371e-06	1.1437e-05	492.86	224.03	168.09	82.956	2.1883e-06	114.68	0.0013525	0.0013462	0.00037916	893.24	1.4756e-05	1.4949e-05	1071.9	377.23	1.4684e-05	1.4798e-05	517.08	220.37	173.85	81.769	1.4825e-05	112.4	112.298	114.301	-25.352	-110.091	21.434	111.983	-111.016	-105.677	-67.432	-51.445	-107.159	-104.020	-103.062	-97.956	14.807	-100.101	-8191	255	
3874.515	1	1	0	0	0.30046	0.091345	0.36355	0.34712	0.16291	0.10542	0.24397	0.35786	0.097126	0.26322	0.10348	0.12493	0.35616	0.55173	0.15284	0.22583	-1.0104	-1.4021	-1.7167	-1.5479	-1.5521	-1.6958	-1.6146	-1.95	-1.7375	-1.6063	-1.9542	-1.5229	-1.6479	-1.9188	-1.4562	-1.9854	98.996	208.226	-6.576	197.854	-68.228	-68.075	147.943	173.870	207.536	-88.605	50.035	82.323	-121.530	-106.558	233.094	155.957	0.0019248	0.00058701	0.00028205	870.83	1.6928e-05	7.948e-06	1074.7	379.45	6.7826e-06	7.6157e-06	497.78	223.88	168.76	83.274	1.4909e-05	115.13	0.0013506	0.0013562	0.00037959	894.11	1.4769e-05	1.4978e-05	1066.1	377.26	1.4702e-05	1.491e-05	517.72	220.25	174.42	81.849	1.4981e-05	112.51	98.780	-69.491	23.231	-109.576	-13.674	123.075	-111.014	-105.817	-119.409	-6.294	-106.973	-103.828	-103.306	-98.210	-45.983	-100.384	-8191	255	
3874.589	1	1	0	0	0.12917	0.10157	0.21158	0.16243	0.095764	0.21093	0.38377	0.51347	0.20792	0.15255	0.042885	0.12322	0.31601	0.38712	0.11836	0.2537	-1.0812	-1.5875	-2.0021	-1.5083	-1.7292	-1.9083	-1.5271	-1.8917	-1.6042	-1.5896	-1.9729	-1.6375	-1.7667	-2.0125	-1.3854	-1.9208	-18.185	-85.834	27.408	68.648	131.595	8.512	171.199	192.522	216.757	233.263	216.866	-60.105	161.341	212.383	-108.624	159.311	0.0019042	0.001245	0.00037095	869.75	8.8102e-06	1.411e-05	1073.3	382.37	1.5619e-05	6.3896e-06	500.61	225	169.84	83.71	9.4519e-07	115.15	0.0013659	0.0013668	0.00038146	894.06	1.4823e-05	1.492e-05	1068	379.01	1.4932e-05	1.5031e-05	519.82	221.48	175.38	82.237	1.5027e-05	112.99	104.154	88.894	-10.565	-109.684	72.317	-9.524	-110.572	-105.563	0.526	60.510	-107.340	-103.990	-103.196	-97.705	56.586	-100.074	-8191	255	
3874.685	1	1	0	0	0.14771	0.20346	0.19042	0.24291	0.12068	0.19783	0.084355	0.42577	0.22312	0.39783	0.12215	0.23947	0.087539	0.55562	0.13382	0.2744	-1.1396	-1.6958	-1.8667	-1.5917	-1.5708	-1.7292	-1.5625	-1.9396	-1.6562	-1.2542	-2.0438	-1.6688	-1.5542	-2.025	-1.4479	-2.0167	93.678	126.293	-42.388	172.848	131.513	187.144	215.181	147.759	18.344	89.630	36.557	72.701	148.496	195.759	225.832	150.695	0.0020284	0.0011601	0.00014102	869.37	2.8439e-06	1.867e-06	1078	380.37	7.6831e-06	1.9839e-06	496.84	225.21	168.01	83.298	1.2771e-05	115.59	0.0013766	0.0013743	0.00038551	894.1	1.4944e-05	1.5078e-05	1067.2	377.27	1.4913e-05	1.5046e-05	516.91	220.87	173.97	81.802	1.5112e-05	113.08	114.476	5.094	5.521	-109.603	-31.062	95.724	-110.816	-105.487	-60.264	229.837	-107.313	-104.005	-102.881	-97.887	-96.630	-100.094	-8191	255	
3874.804	1	1	0	0	0.28523	0.22106	0.033164	0.33612	0.04106	0.095578	0.17731	0.23502	0.1636	0.074329	0.15823	0.2288	0.18513	0.080038	0.26514	0.20242	-1.3438	-1.4583	-1.8062	-1.6542	-1.5479	-1.8021	-1.4333	-1.8896	-1.85	-1.5438	-1.9896	-1.75	-1.7104	-1.9375	-1.4125	-2.0187	16.525	-53.366	65.475	227.306	38.471	99.066	170.976	195.131	-30.997	6.031	52.837	-117.467	-116.370	127.968	10.445	135.669	0.0015299	0.0016066	0.00015008	865.49	1.4522e-05	8.3204e-06	1069.8	379.1	6.331e-06	3.0314e-06	494.85	224.43	168.47	82.737	6.9678e-06	114.75	0.0013787	0.0013692	0.00038161	893.94	1.4841e-05	1.5095e-05	1067.4	376.47	1.5042e-05	1.5048e-05	517.46	221.07	173.84	81.569	1.4996e-05	112.38	97.830	49.625	12.566	-110.209	-41.733	55.576	-110.595	-105.771	-65.608	-107.498	-107.486	-103.988	-102.918	-97.784	233.382	-100.159	-8191	255	
3874.900	1	1	0	0	0.039739	0.19359	0.097145	0.20964	0.24828	0.14283	0.28405	0.46218	0.18838	0.23909	0.097174	0.14318	0.24705	0.17432	0.028749	0.11004	-1.4813	-1.2854	-1.6729	-1.7708	-1.5979	-1.7563	-1.7167	-1.675	-1.8229	-1.3958	-1.7375	-1.7479	-1.2375	-1.9833	-1.4625	-1.7062	-74.670	78.775	166.017	211.286	98.578	188.630	177.325	174.696	-22.027	58.200	-95.407	8.461	209.682	185.818	143.570	213.085	0.0017929	0.00019677	0.00055829	868.34	1.0121e-05	7.5751e-07	1070.2	380.08	5.5248e-06	1.454e-05	496.01	223.15	167.65	82.701	2.0106e-05	113.91	0.001381	0.0013768	0.0003826	892.74	1.5106e-05	1.5191e-05	1064.6	377.14	1.5069e-05	1.5145e-05	517.04	219.52	174.27	81.427	1.5024e-05	111.63	93.144	-23.030	-41.401	-109.706	-92.543	50.464	-111.117	-105.847	80.389	-24.291	-107.408	-103.602	-102.797	-97.844	-11.993	-100.087	-8191	255	
3874.996	1	1	0	0	0.056881	0.078196	0.12219	0.25075	0.091864	0.1927	0.26338	0.18286	0.11362	0.2136	0.13394	0.25998	0.33783	0.086313	0.20837	0.29524	-1.1417	-1.1021	-1.5833	-1.7396	-1.5063	-1.8521	-1.8167	-1.65	-1.8479	-1.4125	-1.6125	-1.8729	-1.5187	-1.9625	-1.7563	-1.7313	223.130	23.098	-79.239	173.582	-79.674	76.626	191.459	169.618	132.226	236.220	-81.688	143.418	-120.065	147.995	85.051	211.651	0.0015105	0.0005509	0.00033791	863.53	2.1651e-05	1.2046e-05	1067.3	379.32	9.6409e-06	1.459e-06	497.19	223.28	169.11	82.692	1.0204e-05	114.17	0.0013789	0.0013828	0.00038569	891.38	1.509e-05	1.5266e-05	1062.8	376.85	1.5112e-05	1.5259e-05	516.61	219.62	174.38	81.213	1.4987e-05	111.63	101.922	-102.631	40.567	-109.398	-38.889	-60.201	-110.851	-105.190	235.057	211.141	-106.879	-103.566	-102.559	-97.534	-86.259	-99.828	-8191	255	
3875.117	1	1	0	0	0.20556	0.093847	0.14588	0.14502	0.2812	0.1035	0.096205	0.29892	0.1096	0.20788	0.17011	0.42	0.075083	0.20044	0.017696	0.30104	-1.5167	-1.4354	-1.6208	-1.7896	-1.3333	-1.7521	-1.6083	-1.5938	-1.9333	-1.4583	-1.6958	-2.0708	-1.5708	-1.8167	-1.6479	-1.8312	233.293	-114.615	62.415	-93.231	97.311	208.918	96.060	180.934	8.387	171.695	214.032	179.616	127.880	199.945	93.093	177.479	0.0018206	0.00050268	0.00043544	864.16	6.7887e-06	1.8977e-05	1071.2	379.4	9.0844e-06	1.0096e-05	496.92	223.01	166.61	82.003	1.5548e-05	114.52	0.0013746	0.0013694	0.00038011	890.79	1.4866e-05	1.4895e-05	1062.2	376.09	1.494e-05	1.4913e-05	514.94	218.97	172.56	80.829	1.4697e-05	111.73	97.790	-7.254	4.493	-109.557	-104.964	1.032	-110.749	-104.868	92.890	-51.684	-107.471	-103.807	-103.141	-97.796	-37.853	-99.899	-8191	255	
3875.188	1	1	0	0	0.078379	0.044523	0.10436	0.13538	0.25449	0.21919	0.18433	0.16194	0.21296	0.13056	0.13848	0.22282	0.26275	0.23478	0.1086	0.28222	-1.5875	-1.35	-1.6146	-1.8875	-1.3542	-1.7167	-1.8333	-1.6625	-1.7854	-1.5396	-1.6458	-1.9125	-1.5417	-2.025	-1.5542	-1.5812	76.795	83.050	63.520	-64.607	231.422	-7.530	129.408	120.941	-10.844	128.967	54.143	-120.083	-17.737	182.636	-58.143	167.026	0.0017447	0.00075042	0.00019056	862.65	9.7766e-06	8.3994e-06	1070.5	377.66	1.0241e-05	5.3683e-06	490.99	222.99	167.58	82.186	3.0889e-06	114.42	0.001344	0.0013358	0.00037219	890.4	1.4601e-05	1.4737e-05	1064.8	375.22	1.4439e-05	1.461e-05	514.22	219.28	172.95	80.944	1.438e-05	111.83	98.297	18.876	-71.392	-109.623	-29.390	99.238	-110.645	-105.578	-23.083	11.049	-107.199	-103.682	-102.549	-97.390	39.758	-99.804	-8191	255	
3875.285	1	1	0	0	0.066312	0.16636	0.12899	0.27074	0.25053	0.16252	0.39491	0.12554	0.31458	0.32792	0.12014	0.15955	0.13921	0.046633	0.19021	0.1689	-1.5521	-1.5792	-1.5042	-1.8417	-1.2437	-1.9271	-1.7708	-1.6646	-1.95	-1.4979	-1.6333	-1.8854	-1.5208	-1.9375	-1.7938	-1.5063	-112.222	-78.969	213.680	146.308	-3.999	178.873	181.104	219.930	182.021	61.685	169.620	152.880	68.614	113.770	116.869	186.693	0.0017727	0.00092118	0.00021479	868.82	1.57e-05	1.5901e-05	1075.5	378.51	1.5323e-05	6.892e-06	489.63	221.41	167.49	81.628	1.1851e-05	113.02	0.0013172	0.0013044	0.00036785	890.02	1.4291e-05	1.436e-05	1063.9	374.95	1.4202e-05	1.4278e-05	509.56	217.67	171.97	80.378	1.4292e-05	110.39	103.307	-66.244	31.094	-109.190	31.836	35.817	-110.973	-105.489	-36.422	197.062	-107.004	-103.507	-102.414	-97.418	-9.016	-99.863	-8191	255	
3875.405	1	1	0	0	0.26308	0.068252	0.49691	0.36735	0.23232	0.14654	0.30476	0.1425	0.10585	0.2008	0.031492	0.40147	0.39245	0.12134	0.16376	0.18733	-1.3979	-1.4979	-1.3792	-1.775	-1.2917	-1.5875	-1.8708	-1.3354	-1.6854	-1.6292	-1.3729	-1.8687	-1.45	-1.8083	-1.8667	-1.6417	209.168	150.517	47.169	217.658	44.960	-77.179	209.363	176.410	106.092	136.339	124.991	236.788	201.937	223.515	50.328	167.780	0.0019027	0.00067241	0.00035164	859.1	5.6162e-06	6.1499e-06	1059.9	376.9	8.5354e-06	1.7561e-05	493.42	221.76	167	81.906	1.1292e-05	112.53	0.0013049	0.0012997	0.00036354	884.45	1.4312e-05	1.4191e-05	1054.6	374.06	1.4164e-05	1.4336e-05	509.93	217.31	172.07	80.43	1.4263e-05	110.07	118.659	-5.989	-33.857	-109.465	-35.064	103.485	-110.523	-105.221	29.313	13.482	-107.279	-103.719	-102.704	-97.432	105.170	-99.821	-8191	255	
3875.501	1	1	0	0	0.049318	0.13147	0.18254	0.11427	0.22013	0.18186	0.37456	0.27125	0.094176	0.1305	0.3822	0.15966	0.20694	0.13338	0.082306	0.25135	-1.4562	-1.5479	-1.2938	-1.7417	-1.3188	-1.5458	-1.9375	-1.4188	-1.7271	-1.5792	-1.3396	-2.0229	-1.55	-1.6021	-1.7313	-1.5271	74.328	-30.746	156.304	62.618	-102.817	13.331	131.904	179.362	98.009	84.927	208.535	165.285	74.349	122.493	64.160	139.674	0.0018219	0.00049025	0.00019356	860.75	1.2098e-05	3.2688e-06	1065.8	377.97	7.2645e-06	8.5133e-06	492.09	221.14	167.11	81.938	3.0054e-06	113.76	0.0013021	0.0013071	0.00036504	884.98	1.4145e-05	1.4327e-05	1056.1	373.57	1.4184e-05	1.4377e-05	510.25	217.12	171.57	80.429	1.4248e-05	110.75	98.071	85.796	-18.030	-109.284	28.171	44.088	-110.447	-104.906	-0.176	29.122	-107.305	-103.862	-102.738	-97.529	219.949	-99.786	-8191	255	
3875.596	1	1	0	0	0.072965	0.074684	0.087454	0.049126	0.11126	0.2768	0.12452	0.27129	0.25919	0.27628	0.082121	0.29011	0.20981	0.29456	0.15785	0.41358	-1.3042	-1.5958	-1.4062	-1.9208	-1.4271	-1.3729	-1.9479	-1.2229	-1.6729	-1.5187	-1.2396	-1.9542	-1.3375	-1.5688	-1.85	-1.6833	-50.561	93.817	33.532	183.127	196.266	-88.598	165.732	35.442	126.350	-85.080	5.849	-123.310	122.871	201.991	186.796	185.837	0.0017782	0.00037154	0.00025396	863.07	9.9127e-06	4.9742e-06	1075.8	379.5	8.4893e-06	1.8587e-05	494.27	223.2	167.74	82.114	1.6686e-05	114.39	0.0013018	0.0013093	0.00036557	887.05	1.4274e-05	1.4285e-05	1063.7	374.87	1.4132e-05	1.4555e-05	513.48	219.16	172.12	80.638	1.4388e-05	111.49	95.930	46.492	-6.189	-110.192	-46.709	-36.036	-111.065	-105.676	-91.047	-5.900	-107.920	-104.234	-103.399	-98.027	36.396	-100.136	-8191	255	
3875.694	1	1	0	0	0.090187	0.36004	0.25985	0.11011	0.22865	0.23507	0.18797	0.3416	0.058171	0.16892	0.12662	0.34201	0.11743	0.14016	0.18316	0.11656	-1.1896	-1.6437	-1.1917	-1.75	-1.6625	-1.3729	-2.0729	-1.5333	-1.4729	-1.8188	-1.3375	-1.9458	-1.5917	-1.4792	-1.9312	-1.5708	-114.976	-67.536	169.145	203.024	165.522	-92.652	134.503	174.734	-3.267	23.443	-68.304	188.468	83.750	160.420	51.698	199.377	0.0015438	0.0010081	0.00020727	863.15	8.2294e-06	8.0877e-06	1073.9	378.98	1.1068e-05	3.9406e-06	495.56	222.89	167.76	82.347	5.9422e-06	113.59	0.0013139	0.0013207	0.00036932	888.53	1.4351e-05	1.4453e-05	1067.6	376.35	1.4364e-05	1.4562e-05	514.51	218.93	172.79	80.871	1.4397e-05	111.1	111.792	-45.539	-11.770	-109.650	-14.738	-13.260	-111.011	-105.386	-42.923	134.052	-107.052	-104.336	-103.439	-98.061	-75.563	-100.539	-8191	255	
3875.812	1	1	0	0	0.16532	0.27538	0.14235	0.069097	0.087088	0.057064	0.24957	0.17434	0.12808	0.31528	0.10034	0.30176	0.16329	0.2345	0.067129	0.3239	-0.99375	-1.9229	-1.3438	-1.85	-1.7292	-1.4354	-2.0521	-1.8167	-1.5417	-1.7292	-1.475	-1.8104	-1.6979	-1.4854	-1.8854	-1.6562	175.240	200.535	171.978	178.073	125.354	147.634	205.321	163.797	32.649	129.313	166.689	190.203	-85.420	188.370	-1.536	166.937	0.0017645	0.0017789	0.00016924	864.79	8.4905e-06	1.18e-05	1064.6	380.48	1.3736e-05	1.2503e-05	492.75	222.83	168.36	82.308	6.6123e-06	113.93	0.0013174	0.0013198	0.00036889	889.51	1.4317e-05	1.4462e-05	1060.2	376.19	1.4376e-05	1.4525e-05	511.9	218.08	173.05	81.023	1.4252e-05	111.3	102.577	-85.173	21.266	-109.899	-48.590	17.563	-111.007	-106.209	-19.939	-56.782	-107.461	-104.441	-103.486	-98.122	-4.807	-100.615	-8191	255	
3875.884	1	1	0	0	0.10624	0.29287	0.031993	0.157	0.15575	0.14029	0.32207	0.42998	0.22643	0.198	0.29075	0.29908	0.040464	0.12814	0.087169	0.17664	-1.0583	-1.7833	-1.3646	-1.5542	-1.5917	-1.3188	-1.9083	-1.6375	-1.4875	-1.9167	-1.6	-1.8458	-1.8021	-1.5417	-1.8083	-1.7604	187.283	-120.452	-121.337	203.252	-104.785	60.069	219.316	186.435	37.540	162.511	107.830	217.779	11.391	201.132	-99.132	167.015	0.001513	0.00064697	0.00038638	860.39	1.3216e-05	5.9309e-06	1068.3	380.44	5.6851e-06	1.5655e-05	500.88	223.84	169.17	82.892	8.5986e-07	113.91	0.0013182	0.0013289	0.00037013	887.07	1.4545e-05	1.4574e-05	1063.7	376.67	1.4397e-05	1.4615e-05	516.39	220.15	174.35	81.521	1.4409e-05	111.89	107.825	-20.944	-41.979	-110.245	48.530	52.414	-110.955	-106.065	18.485	0.779	-107.908	-104.186	-103.080	-98.206	224.848	-100.659	-8191	255	
3876.005	1	1	0	0	0.066532	0.14074	0.12726	0.23004	0.083145	0.12493	0.13228	0.16654	0.16288	0.15127	0.25775	0.33095	0.1484	0.14303	0.28285	0.27635	-1.0479	-1.7833	-1.3917	-1.6646	-1.6583	-1.2333	-1.85	-1.7146	-1.3813	-1.9271	-1.4021	-1.6646	-1.7042	-1.5292	-1.6833	-1.8479	-106.089	92.918	190.103	202.817	-122.485	226.703	-98.809	231.607	52.956	2.386	70.940	186.444	-85.840	199.494	158.333	123.749	0.0017904	0.0012017	0.00032683	865.79	1.2652e-05	5.8761e-06	1074.4	381.14	5.474e-06	1.2311e-05	495.71	224.23	169.64	83.178	1.3776e-05	115.53	0.0013283	0.0013283	0.00037133	891.06	1.4627e-05	1.4567e-05	1068.3	378.08	1.4503e-05	1.469e-05	517.81	220.64	174.65	81.805	1.4535e-05	112.89	105.053	18.227	-31.755	-110.144	-4.844	62.289	-111.328	-105.783	10.681	8.049	-107.298	-104.460	-103.813	-98.058	-47.731	-100.340	-8191	255	
3876.101	1	1	0	0	0.21678	0.079438	0.17842	0.24377	0.059021	0.075062	0.14669	0.35476	0.10289	0.25771	0.11527	0.35547	0.17337	0.32519	0.20949	0.23299	-1.0792	-1.7938	-1.4333	-1.55	-1.7313	-1.2958	-1.7167	-1.6646	-1.3	-1.9521	-1.5292	-1.5979	-1.6229	-1.5229	-1.5042	-1.7979	-71.032	203.219	-110.448	204.584	113.165	-116.185	59.797	164.141	96.339	196.122	23.972	143.277	38.436	30.030	6.239	142.348	0.002035	0.0010856	0.00010171	870.03	2.5659e-06	4.5846e-06	1084.3	382.92	7.8338e-06	1.1565e-05	501.07	226.41	169.95	83.773	1.3042e-05	116.12	0.001349	0.0013404	0.00037489	894.42	1.4742e-05	1.4738e-05	1075.1	379.53	1.4657e-05	1.4737e-05	522.64	222.71	175.76	82.291	1.4714e-05	113.41	116.806	-3.454	-30.046	-110.327	-63.874	170.683	-111.565	-105.588	-104.062	-57.400	-107.529	-104.386	-103.344	-98.395	130.212	-100.621	-8191	255	
3876.197	1	1	0	0	0.18824	0.14414	0.22477	0.28239	0.14031	0.15792	0.28739	0.076444	0.055004	0.21864	0.28142	0.12089	0.21435	0.15338	0.16957	0.20414	-0.97708	-1.7208	-1.5875	-1.4979	-1.7417	-1.5312	-1.9146	-1.8542	-1.3563	-1.7437	-1.7104	-1.5542	-1.9771	-1.5771	-1.4458	-1.8312	-35.269	176.496	63.126	183.134	-87.863	216.201	192.151	228.451	201.036	115.713	33.657	225.754	-6.647	-118.070	7.303	111.328	0.0020483	0.00058492	0.00018052	868.56	7.5672e-06	7.3495e-06	1074.5	382.82	1.2848e-05	3.8654e-06	498.96	225.2	169.9	83.231	4.542e-06	115.1	0.0013525	0.0013453	0.00037339	892.89	1.4746e-05	1.4792e-05	1068.5	379.48	1.4664e-05	1.4765e-05	518.92	221.16	175.14	81.995	1.4686e-05	112.39	107.317	-23.266	10.345	-110.105	65.039	175.274	-111.218	-105.893	-41.661	-56.421	-107.391	-103.942	-102.785	-97.662	145.191	-100.150	-8191	255	
3876.293	1	1	0	0	0.2839	0.071611	0.11285	0.30222	0.10233	0.14588	0.25338	0.36577	0.17382	0.27127	0.17981	0.20912	0.049064	0.26726	0.38346	0.2373	-0.99792	-1.8062	-1.5688	-1.5354	-1.8188	-1.5	-1.8417	-2.1188	-1.2396	-1.7188	-1.6479	-1.5646	-1.7792	-1.5271	-1.3167	-1.9312	15.339	235.062	228.588	-95.935	-81.275	-20.203	140.711	232.594	-98.018	185.392	107.004	-84.127	77.040	-72.628	-115.274	202.176	0.0019521	0.00083522	0.00018844	862.98	7.1447e-06	3.4437e-06	1074.9	382.04	5.7222e-06	3.7809e-06	497.02	224.18	170.52	83.442	2.2405e-06	115.35	0.0013497	0.0013435	0.00037684	891.55	1.4652e-05	1.4701e-05	1066.5	378.53	1.4581e-05	1.4739e-05	518.01	220.77	174.91	82.031	1.457e-05	112.55	92.034	-23.921	-10.601	-109.795	-64.198	20.464	-110.739	-105.666	-43.760	177.035	-107.231	-104.066	-103.181	-97.925	-86.808	-100.460	-8191	255	
3876.414	1	1	0	0	0.14075	0.052456	0.12485	0.12382	0.057941	0.10398	0.17268	0.38292	0.30602	0.19672	0.29247	0.28615	0.13847	0.12906	0.096127	0.40069	-0.84792	-1.7729	-1.6792	-1.3771	-1.9125	-1.6542	-1.6375	-1.925	-1.2729	-1.7292	-1.5458	-1.5271	-1.8	-1.7062	-1.2938	-2.0083	11.801	45.405	190.229	-87.900	87.231	101.658	164.142	-116.405	-33.896	-11.982	175.301	167.789	18.141	204.946	-4.727	114.952	0.0017007	0.0017259	0.00040198	865.78	1.0387e-05	1.2323e-05	1075.6	381.46	5.1233e-06	5.468e-06	496.58	225.62	170.03	83.692	1.1222e-05	115.46	0.0013344	0.0013264	0.00037202	891.42	1.4579e-05	1.4565e-05	1069.3	378.07	1.457e-05	1.4487e-05	518.31	221.44	174.8	82.11	1.4511e-05	113.13	110.146	-12.612	-16.721	-109.815	-3.839	-69.110	-110.547	-105.652	16.898	59.723	-107.477	-103.976	-103.003	-98.010	161.087	-100.185	-8191	255	
3876.486	1	1	0	0	0.13579	0.26794	0.15301	0.18251	0.19481	0.09517	0.58221	0.19137	0.28647	0.13558	0.059928	0.2457	0.073935	0.35138	0.16077	0.13244	-0.975	-1.6917	-1.9479	-1.3	-1.9	-1.8083	-1.5667	-2.0146	-1.4208	-1.6333	-1.5833	-1.4542	-1.7792	-1.7625	-1.0771	-2.0312	141.170	52.861	50.011	203.222	84.793	154.613	174.645	172.712	200.797	131.816	223.945	150.176	17.609	216.629	-12.798	206.861	0.0014403	0.0016895	0.00035408	871.07	1.8384e-06	6.5856e-06	1084.9	380.89	6.3764e-06	6.9704e-06	501.65	225.88	169.42	83.138	6.9995e-06	116.34	0.001342	0.0013291	0.00037198	894.13	1.4525e-05	1.4569e-05	1077.2	378.72	1.4497e-05	1.4562e-05	518.94	222.07	174.41	81.937	1.4524e-05	113.3	123.400	-24.188	-68.934	-109.898	-18.645	3.564	-110.866	-105.598	-111.384	101.514	-107.274	-103.849	-102.706	-98.031	6.470	-100.119	-8191	255	
3876.582	1	1	0	0	0.17585	0.14037	0.21365	0.071702	0.083421	0.13252	0.22112	0.40863	0.14396	0.2188	0.26201	0.18324	0.24554	0.33076	0.089466	0.2075	-0.76042	-1.4042	-1.7604	-1.0896	-1.5417	-1.7292	-1.4542	-2.0104	-1.4188	-1.5979	-1.5917	-1.3563	-1.7437	-1.8021	-1.425	-1.7437	-75.098	233.216	15.538	89.299	189.497	40.476	166.461	-117.251	151.205	-21.590	-107.146	150.692	-93.454	171.802	10.592	184.363	0.0020467	0.0008106	0.00029494	868.05	7.9344e-06	1.2306e-05	1080.3	379.03	1.8195e-05	1.6514e-05	491.96	222.21	169.25	82.56	8.2074e-06	113.19	0.00133	0.0013343	0.00037289	891.68	1.4519e-05	1.4725e-05	1071.6	376.23	1.4458e-05	1.4548e-05	513.75	218.74	173.28	81.19	1.452e-05	110.89	106.268	-15.784	-91.479	-109.761	3.542	-14.005	-111.066	-105.745	-75.175	48.317	-107.753	-103.823	-103.215	-97.928	-45.973	-100.429	-8191	255	
3876.678	1	1	0	0	0.1986	0.23954	0.19107	0.15063	0.19192	0.24707	0.35492	0.27585	0.13344	0.073702	0.21279	0.1008	0.21529	0.31419	0.06546	0.33857	-1.0354	-1.5021	-1.9292	-1.4896	-1.675	-1.5208	-1.3438	-2.0104	-1.6562	-1.3646	-1.8542	-1.725	-1.5646	-1.8042	-1.3354	-2.0875	213.737	-57.129	-49.173	162.493	-91.961	221.208	128.971	196.834	-40.823	168.445	-61.340	-45.675	-28.180	181.021	-30.152	189.545	0.0017408	0.0013792	0.00027254	860.95	2.1344e-05	7.47e-06	1063.8	379.7	9.5564e-06	5.5089e-06	492.55	221.55	169.74	82.459	7.137e-06	113.92	0.001327	0.0013288	0.00037094	886.19	1.4392e-05	1.4469e-05	1058	375.58	1.4415e-05	1.4499e-05	513.93	218.34	173.61	81.285	1.4328e-05	111.42	95.386	-41.074	-91.365	-110.008	24.164	73.616	-111.225	-105.729	-20.143	59.932	-107.188	-103.777	-102.821	-98.115	5.511	-100.272	-8191	255	
3876.774	1	1	0	0	0.16843	0.29953	0.11844	0.11118	0.10657	0.28024	0.34241	0.14161	0.096055	0.13541	0.24625	0.27572	0.23599	0.28959	0.12401	0.2277	-1.1396	-1.4438	-1.775	-1.5208	-1.4625	-1.6875	-1.6417	-1.9833	-1.5667	-1.5333	-1.8438	-1.75	-1.6187	-1.8979	-1.1938	-1.8146	152.062	122.966	-45.996	22.084	39.295	42.212	157.371	-116.660	85.295	78.955	-122.992	131.562	190.337	-117.326	94.681	207.122	0.0017776	0.00088521	0.00032222	863.41	1.6846e-06	8.5793e-06	1072.2	379.95	3.3184e-06	8.2268e-06	491.78	223.91	168.43	82.9	7.0115e-06	114.79	0.0013173	0.0013183	0.00036473	884.89	1.4194e-05	1.4484e-05	1063.3	375.92	1.4251e-05	1.4407e-05	514.51	219.66	173.69	81.487	1.4337e-05	111.98	106.940	-1.286	-73.169	-109.701	-22.105	7.468	-110.958	-105.537	-114.279	-31.347	-107.143	-103.757	-102.842	-98.098	-38.178	-100.150	-8191	255	
3876.893	1	1	0	0	0.19315	0.14417	0.1573	0.11848	0.19324	0.18094	0.20972	0.11724	0.21348	0.051393	0.076854	0.074198	0.5364	0.14099	0.11754	0.41004	-1.2687	-1.3354	-1.7417	-1.6667	-1.4438	-1.9396	-1.5667	-1.85	-1.7521	-1.4271	-1.75	-1.6958	-1.7687	-1.9667	-1.3854	-1.8583	69.240	71.418	-46.519	-52.462	5.778	126.310	197.474	-123.207	203.478	71.910	-98.779	-78.789	-58.322	194.316	168.425	183.593	0.0017507	0.0017458	0.00057887	861.6	2.2771e-05	7.4884e-06	1074.4	380.15	1.64e-05	1.176e-05	501.87	224.29	168.74	82.61	7.7433e-06	115.2	0.0013145	0.0013041	0.00036434	886	1.4307e-05	1.4412e-05	1069.1	376.86	1.446e-05	1.4423e-05	517.73	220.38	173.59	81.419	1.4506e-05	112.42	106.186	-8.403	-41.045	-109.745	0.779	6.307	-110.692	-105.479	-5.086	-34.916	-107.393	-103.842	-102.998	-98.095	-15.832	-100.337	-8191	255	
3876.989	1	1	0	0	0.072314	0.22504	0.21764	0.10257	0.052455	0.20964	0.12925	0.14501	0.14718	0.16068	0.17026	0.47526	0.088207	0.2631	0.044094	0.15537	-1.1458	-1.2188	-1.7958	-1.5562	-1.4896	-1.8438	-1.6604	-1.6875	-1.7104	-1.4813	-1.7646	-1.6688	-1.3667	-2.0458	-1.3625	-1.6688	145.821	209.591	73.348	191.291	57.893	196.387	82.836	189.230	-51.884	72.007	184.185	159.111	117.361	126.189	-7.821	166.436	0.001788	0.00077022	4.8794e-05	863.08	2.6641e-06	1.3613e-05	1076.4	381.6	9.7203e-06	8.661e-06	496.91	223.73	169.19	82.768	1.1335e-05	113.83	0.0013192	0.0013223	0.00036597	887.49	1.4336e-05	1.439e-05	1070.7	377.05	1.4419e-05	1.4458e-05	515.59	219.55	173.73	81.311	1.4287e-05	111.3	100.783	-29.038	18.517	-109.703	-36.427	27.105	-110.792	-105.348	-16.050	16.845	-107.288	-103.759	-102.828	-97.922	-0.060	-100.632	-8191	255	
3877.085	1	1	0	0	0.25135	0.077021	0.14811	0.095439	0.21994	0.16764	0.29426	0.33287	0.12388	0.085209	0.19622	0.20359	0.13413	0.35916	0.13456	0.043107	-1.2583	-1.1729	-1.6729	-1.7979	-1.4896	-1.5917	-1.55	-1.6729	-1.8479	-1.2042	-1.5875	-1.9458	-1.4312	-2.1958	-1.6229	-1.7896	55.017	229.883	-54.678	94.489	-98.651	-68.845	164.348	136.789	24.342	-38.389	-86.612	177.191	-121.055	193.464	41.511	152.270	0.0020075	0.0017458	0.00022764	862.66	5.1198e-06	6.6796e-06	1065.2	379.53	1.1509e-05	1.0589e-05	493.31	222.17	169.9	82.825	4.5263e-06	113.07	0.001311	0.0013107	0.00036691	884.98	1.4203e-05	1.4414e-05	1058.7	375.11	1.4278e-05	1.4369e-05	511.43	218.39	173.46	81.177	1.4209e-05	110.9	111.682	13.074	-53.118	-109.572	180.234	30.989	-110.981	-105.616	-26.648	4.248	-107.146	-103.943	-103.097	-97.874	-34.276	-99.996	-8191	255	
3877.181	1	1	0	0	0.12949	0.19963	0.27913	0.30781	0.14602	0.073164	0.15947	0.1487	0.25734	0.19197	0.090072	0.17498	0.18951	0.1095	0.1196	0.22485	-1.3563	-1.2542	-1.8208	-1.7583	-1.4937	-1.6938	-1.5958	-1.8125	-1.9	-1.4354	-1.6021	-1.7542	-1.3958	-1.9937	-1.7583	-1.7479	228.957	49.514	62.720	192.989	195.125	-62.449	34.413	182.179	-36.772	152.460	106.920	210.689	117.284	9.667	72.106	222.062	0.0017989	0.0009933	9.2554e-05	863.47	3.9969e-06	1.5225e-05	1069.7	379.48	4.1811e-07	7.7939e-06	491.97	223.5	169.6	82.579	1.6321e-05	114.34	0.0013116	0.0013124	0.00036384	885.7	1.44e-05	1.4469e-05	1063.5	375.87	1.4254e-05	1.4359e-05	513.11	219.69	173.6	81.418	1.4293e-05	111.61	105.228	72.625	20.161	-109.911	-36.165	35.599	-110.847	-105.411	223.493	1.884	-107.667	-103.942	-102.489	-97.692	-40.843	-100.140	-8191	255	
3877.277	1	1	0	0	0.27624	0.13132	0.12789	0.014746	0.17084	0.1333	0.28204	0.35761	0.20142	0.15011	0.053744	0.14932	0.24698	0.18621	0.061297	0.38604	-1.475	-1.3479	-1.7229	-1.9375	-1.3937	-1.7917	-1.5938	-1.7	-1.9146	-1.5042	-1.6604	-2.0042	-1.4312	-1.8667	-1.6083	-1.6313	-102.756	99.855	203.156	141.746	125.060	110.294	32.228	168.252	67.768	46.402	-4.119	-79.929	-112.395	200.735	55.448	205.160	0.0018309	0.0016599	0.0002227	863.73	7.1118e-06	4.6295e-06	1075.4	381.17	1.0972e-05	2.1579e-05	496.64	226.12	170.59	83.531	9.0023e-06	114.89	0.0013151	0.0013078	0.00036341	886.35	1.4299e-05	1.4464e-05	1068	377.88	1.4395e-05	1.4382e-05	517.11	221.43	175.48	81.995	1.4305e-05	112.58	95.476	-27.999	22.610	-109.640	-17.804	38.706	-110.830	-105.459	-8.246	134.409	-107.279	-103.738	-102.818	-97.441	2.269	-99.812	-8191	255	
3877.374	1	1	0	0	0.14124	0.13444	0.13995	0.15831	0.2761	0.022919	0.16366	0.31489	0.31433	0.18798	0.18707	0.24469	0.14009	0.27431	0.3281	0.56467	-1.45	-1.4479	-1.7083	-1.7542	-1.4354	-1.6187	-1.8646	-1.4833	-1.8354	-1.7083	-1.7271	-2.0271	-1.2938	-1.9396	-1.7313	-1.6042	103.145	-112.780	25.175	150.305	21.634	21.172	166.268	149.847	67.462	26.516	233.401	197.172	112.170	-86.831	121.526	177.830	0.0020727	0.0017988	0.00018152	866.09	6.968e-06	5.5806e-06	1084.8	384.35	3.8618e-06	5.7559e-06	505.83	226.82	172.52	84.34	1.3914e-05	116.17	0.0013022	0.0013051	0.00036504	890.13	1.4289e-05	1.4341e-05	1076.2	380.46	1.4322e-05	1.443e-05	521.75	223.35	176.36	82.716	1.4329e-05	113.25	98.679	31.598	63.567	-109.695	98.869	82.631	-110.750	-105.343	67.974	183.103	-107.367	-103.987	-102.978	-97.736	-26.478	-99.890	-8191	255	
3877.494	1	1	0	0	0.3656	0.14353	0.027853	0.20089	0.15506	0.10434	0.31024	0.37296	0.23903	0.18633	0.16799	0.13382	0.31232	0.34395	0.061712	0.30989	-1.4021	-1.5271	-1.3979	-1.9688	-1.2708	-1.7563	-1.6646	-1.3854	-1.8062	-1.6292	-1.2271	-1.9229	-1.3208	-1.8208	-1.7667	-1.4937	157.147	-71.733	59.772	140.472	-54.376	175.768	188.255	195.011	143.297	2.636	188.529	-78.852	194.785	213.570	194.604	219.425	0.0019435	0.0018339	0.00035042	869.72	1.5575e-05	9.4612e-06	1078.1	383.51	6.4613e-06	1.2123e-05	497.97	225.45	171.09	84.043	5.595e-06	114.88	0.0013079	0.0013138	0.00036514	891.31	1.419e-05	1.4261e-05	1067.1	379.03	1.4205e-05	1.4428e-05	517.19	221.58	175.79	82.476	1.427e-05	112.33	105.715	7.948	14.531	-109.249	-24.520	86.007	-110.566	-104.851	95.205	-58.098	-107.077	-103.628	-102.556	-97.481	-113.888	-99.943	-8191	255	
3877.589	1	1	0	0	0.062165	0.14869	0.083928	0.3646	0.23159	0.15107	0.13968	0.32592	0.089647	0.047786	0.1892	0.20816	0.22827	0.25493	0.14579	0.26333	-1.4688	-1.6208	-1.4208	-2.025	-1.2458	-1.5458	-1.8625	-1.5	-1.675	-1.6354	-1.3813	-2.0208	-1.4646	-1.6458	-1.6625	-1.5438	224.792	14.548	-5.810	-14.116	208.902	180.036	182.154	135.911	3.239	139.558	139.859	207.463	91.050	211.557	-93.066	-78.300	0.0015571	0.00089726	3.9645e-05	867.33	4.7652e-06	1.0046e-05	1071.8	383.71	7.6019e-06	1.3067e-05	497.2	226.4	171.67	83.931	1.8316e-06	115.38	0.0013031	0.0013078	0.00036373	887.44	1.4218e-05	1.4224e-05	1065.5	379.6	1.4148e-05	1.4376e-05	517.79	221.85	176.07	82.499	1.4261e-05	112.78	113.104	-54.205	15.635	-109.306	-39.033	66.214	-110.636	-105.334	-28.521	25.110	-106.787	-103.620	-103.238	-97.471	142.483	-99.701	-8191	255	
3877.685	1	1	0	0	0.1702	0.13623	0.20605	0.13973	0.17294	0.086831	0.15335	0.18125	0.26141	0.19421	0.26545	0.28931	0.17516	0.052043	0.15144	0.23904	-1.2854	-1.7125	-1.2292	-2.0312	-1.5917	-1.4875	-1.8979	-1.3479	-1.7313	-1.5688	-1.4937	-1.8563	-1.4708	-1.6271	-1.8438	-1.8	137.013	213.400	102.867	111.173	40.592	105.198	-117.662	193.141	110.485	54.332	172.696	-115.148	228.561	231.117	-105.880	197.362	0.0019403	0.001572	9.8132e-05	870.36	1.0115e-05	3.6363e-06	1075.9	382.08	1.392e-05	3.518e-06	498.67	226.32	171.39	83.887	1.5456e-05	115.64	0.0013079	0.0013154	0.00036938	889.24	1.4436e-05	1.4425e-05	1068.6	379.2	1.4361e-05	1.4449e-05	518.9	222.03	176.01	82.377	1.4221e-05	112.99	108.867	29.289	-32.328	-109.192	67.922	209.807	-110.595	-105.078	13.616	110.933	-106.702	-103.222	-102.756	-97.379	-19.021	-99.775	-8191	255	
3877.781	1	1	0	0	0.1674	0.22976	0.11091	0.40893	0.13216	0.28717	0.11972	0.3152	0.091739	0.10231	0.23133	0.18972	0.21618	0.20084	0.28055	0.16291	-1.4229	-1.6854	-1.1771	-1.7687	-1.4104	-1.4667	-1.7792	-1.4292	-1.6708	-1.6771	-1.3604	-1.8583	-1.7708	-1.6146	-1.7146	-1.7354	78.224	146.247	-73.940	158.765	-24.742	75.291	-90.411	231.312	-89.689	151.014	218.882	-49.137	-60.216	215.671	-68.641	175.900	0.0016317	0.00033637	0.00036703	861.08	3.6743e-06	4.3991e-06	1077.8	383.56	9.1293e-06	1.5028e-05	499.68	227.23	171.94	83.674	3.7188e-06	116.02	0.0013135	0.0013141	0.00036667	887.54	1.438e-05	1.4437e-05	1071.3	379.92	1.4481e-05	1.4502e-05	520.4	222.91	175.8	82.218	1.4303e-05	112.95	99.565	-3.965	-46.886	-109.683	-37.955	134.008	-111.037	-105.832	-45.277	41.175	-107.609	-104.369	-103.368	-98.129	36.529	-100.600	-8191	255	
#DATA ENDS
