BOXY.EXE: ISS Imagent and Oximeter Data Acquisition Program Version 0.80
Ascii Record File

#ACQ INFORMATION
2  Detector Channels 
16  External MUX Channels 
1  Auxiliary Channels 
5000  Waveform (CCF) Frequency (Hz)
1  Waveforms Skipped 
30  Waveforms Averaged 
1  Cycles Averaged 
16  Acquisitions per Waveform 
10.0806  Updata Rate (Hz) 

#FILE INFORMATION
TRUE -- External MUX Channel results are PARSED.
FALSE -- AC DC and Phase are NOT grouped.
TRUE -- Companion Program Settings File CREATED.
FALSE -- AC data not excluded
FALSE -- DC data not excluded
FALSE -- Phase data not excluded
FALSE -- Auxillary Chn. data not excluded
Tab delimiters

#CALIBRATION STATE
TRUE -- Waveform Calibration Values APPLIED.


#AUX CALIBRATION VALUES
Val Type	aux-1	

Term	1.0000e+00	
Factor	0.0000e+00	


#WF CALIBRATION VALUES
A = Detector Channel
Val Type	A-AC1	A-AC2	A-AC3	A-AC4	A-AC5	A-AC6	A-AC7	A-AC8	A-AC9	A-AC10	A-AC11	A-AC12	A-AC13	A-AC14	A-AC15	A-AC16	A-DC1	A-DC2	A-DC3	A-DC4	A-DC5	A-DC6	A-DC7	A-DC8	A-DC9	A-DC10	A-DC11	A-DC12	A-DC13	A-DC14	A-DC15	A-DC16	A-Ph1	A-Ph2	A-Ph3	A-Ph4	A-Ph5	A-Ph6	A-Ph7	A-Ph8	A-Ph9	A-Ph10	A-Ph11	A-Ph12	A-Ph13	A-Ph14	A-Ph15	A-Ph16	

Term	0.00000e+00	0.00000e+00	0.00000e+00	0.00000e+00	0.00000e+00	0.00000e+00	0.00000e+00	0.00000e+00	0.00000e+00	0.00000e+00	0.00000e+00	0.00000e+00	0.00000e+00	0.00000e+00	0.00000e+00	0.00000e+00	0.00000e+00	0.00000e+00	0.00000e+00	0.00000e+00	0.00000e+00	0.00000e+00	0.00000e+00	0.00000e+00	0.00000e+00	0.00000e+00	0.00000e+00	0.00000e+00	0.00000e+00	0.00000e+00	0.00000e+00	0.00000e+00	0.00000e+00	0.00000e+00	0.00000e+00	0.00000e+00	0.00000e+00	0.00000e+00	0.00000e+00	0.00000e+00	0.00000e+00	0.00000e+00	0.00000e+00	0.00000e+00	0.00000e+00	0.00000e+00	0.00000e+00	0.00000e+00	
Factor	1.00000e+00	1.00000e+00	1.00000e+00	1.00000e+00	1.00000e+00	1.00000e+00	1.00000e+00	1.00000e+00	1.00000e+00	1.00000e+00	1.00000e+00	1.00000e+00	1.00000e+00	1.00000e+00	1.00000e+00	1.00000e+00	1.00000e+00	1.00000e+00	1.00000e+00	1.00000e+00	1.00000e+00	1.00000e+00	1.00000e+00	1.00000e+00	1.00000e+00	1.00000e+00	1.00000e+00	1.00000e+00	1.00000e+00	1.00000e+00	1.00000e+00	1.00000e+00	X	X	X	X	X	X	X	X	X	X	X	X	X	X	X	X	

B = Detector Channel
Val Type	B-AC1	B-AC2	B-AC3	B-AC4	B-AC5	B-AC6	B-AC7	B-AC8	B-AC9	B-AC10	B-AC11	B-AC12	B-AC13	B-AC14	B-AC15	B-AC16	B-DC1	B-DC2	B-DC3	B-DC4	B-DC5	B-DC6	B-DC7	B-DC8	B-DC9	B-DC10	B-DC11	B-DC12	B-DC13	B-DC14	B-DC15	B-DC16	B-Ph1	B-Ph2	B-Ph3	B-Ph4	B-Ph5	B-Ph6	B-Ph7	B-Ph8	B-Ph9	B-Ph10	B-Ph11	B-Ph12	B-Ph13	B-Ph14	B-Ph15	B-Ph16	

Term	0.00000e+00	0.00000e+00	0.00000e+00	0.00000e+00	0.00000e+00	0.00000e+00	0.00000e+00	0.00000e+00	0.00000e+00	0.00000e+00	0.00000e+00	0.00000e+00	0.00000e+00	0.00000e+00	0.00000e+00	0.00000e+00	0.00000e+00	0.00000e+00	0.00000e+00	0.00000e+00	0.00000e+00	0.00000e+00	0.00000e+00	0.00000e+00	0.00000e+00	0.00000e+00	0.00000e+00	0.00000e+00	0.00000e+00	0.00000e+00	0.00000e+00	0.00000e+00	1.75774e+01	-1.46235e+02	-1.17124e+02	-1.81868e+02	-8.91195e+01	-6.48731e+01	-1.55593e+02	-1.62015e+02	-9.75022e+01	-8.17833e+01	-1.72047e+02	-1.70197e+02	-1.80263e+02	-1.76670e+02	-7.13823e+01	-1.48961e+02	
Factor	4.51161e-05	1.29920e-04	3.80509e-05	1.84395e-01	1.28156e-06	1.39230e-06	1.71929e-01	6.00013e-02	1.74208e-06	1.47441e-06	9.93773e-02	3.72057e-02	2.45678e-02	1.02851e-02	1.73701e-06	1.47878e-02	1.01581e-06	1.03816e-06	2.88466e-07	9.16057e-02	1.13405e-08	1.13887e-08	8.04221e-02	2.97712e-02	1.13638e-08	1.13723e-08	4.69853e-02	1.74268e-02	1.22168e-02	5.05173e-03	1.13582e-08	6.97409e-03	X	X	X	X	X	X	X	X	X	X	X	X	X	X	X	X	



#DISTANCE SETTINGS
A = Detector Channel
A-1	A-2	A-3	A-4	A-5	A-6	A-7	A-8	A-9	A-10	A-11	A-12	A-13	A-14	A-15	A-16	

2.5000e+00	3.0000e+00	2.5000e+00	3.0000e+00	2.0000e+00	3.0000e+00	1.5000e+00	3.0000e+00	3.0000e+00	3.0000e+00	3.0000e+00	3.0000e+00	3.0000e+00	3.0000e+00	1.5000e+00	3.0000e+00	

B = Detector Channel
B-1	B-2	B-3	B-4	B-5	B-6	B-7	B-8	B-9	B-10	B-11	B-12	B-13	B-14	B-15	B-16	

1.0000e+01	1.0000e+01	1.0000e+01	1.4400e+00	1.0000e+01	1.0000e+01	1.5100e+00	1.9400e+00	1.0000e+01	1.0000e+01	1.9900e+00	2.4900e+00	2.4100e+00	2.9000e+00	1.0000e+01	2.9800e+00	




#DATA BEGINS
time	group	step	mark	flag	A-AC1	A-AC2	A-AC3	A-AC4	A-AC5	A-AC6	A-AC7	A-AC8	A-AC9	A-AC10	A-AC11	A-AC12	A-AC13	A-AC14	A-AC15	A-AC16	A-DC1	A-DC2	A-DC3	A-DC4	A-DC5	A-DC6	A-DC7	A-DC8	A-DC9	A-DC10	A-DC11	A-DC12	A-DC13	A-DC14	A-DC15	A-DC16	A-Ph1	A-Ph2	A-Ph3	A-Ph4	A-Ph5	A-Ph6	A-Ph7	A-Ph8	A-Ph9	A-Ph10	A-Ph11	A-Ph12	A-Ph13	A-Ph14	A-Ph15	A-Ph16	B-AC1	B-AC2	B-AC3	B-AC4	B-AC5	B-AC6	B-AC7	B-AC8	B-AC9	B-AC10	B-AC11	B-AC12	B-AC13	B-AC14	B-AC15	B-AC16	B-DC1	B-DC2	B-DC3	B-DC4	B-DC5	B-DC6	B-DC7	B-DC8	B-DC9	B-DC10	B-DC11	B-DC12	B-DC13	B-DC14	B-DC15	B-DC16	B-Ph1	B-Ph2	B-Ph3	B-Ph4	B-Ph5	B-Ph6	B-Ph7	B-Ph8	B-Ph9	B-Ph10	B-Ph11	B-Ph12	B-Ph13	B-Ph14	B-Ph15	B-Ph16	aux-1	digaux	

691.736	1	1	0	768	0.070316	0.098086	0.013172	0.32408	0.2046	0.1131	0.19786	0.23281	0.0064345	0.10807	0.23769	0.17657	0.099379	0.18363	0.1409	0.1107	0.19583	-0.16875	0.38542	-0.58333	0.21667	0.26667	-0.5	0.31667	0.25417	-0.12708	0.525	-0.28542	0.40833	0.475	-0.054167	0.5	96.349	148.648	-66.975	-141.377	9.257	-0.785	128.430	91.460	125.173	39.219	145.578	39.256	-28.744	-76.513	-123.648	65.795	0.00087369	0.00049714	0.00013542	1251.6	1.7196e-06	2.9478e-06	1249	340.41	9.8939e-06	5.1997e-06	392.3	131.48	114.25	39.4	8.6701e-06	48.863	0.00028669	0.00027844	7.7689e-05	1248.3	3.0529e-06	3.0491e-06	1250.2	340.14	3.0797e-06	3.0695e-06	387.41	130.64	113.85	39.348	3.0414e-06	48.748	-4.683	-80.867	16.753	-134.701	-36.785	3.247	-135.177	-130.126	-66.326	53.022	-130.974	-126.489	-125.979	-121.389	-37.504	-122.244	-8191	255	
691.831	1	1	0	0	0.30131	0.12436	0.10266	0.27681	0.15843	0.01849	0.35412	0.23816	0.08823	0.20545	0.24495	0.2108	0.17588	0.19117	0.21402	0.15455	0.33125	-0.3	0.56042	-0.50208	0.15417	0.61042	-0.54167	0.38125	0.31458	-0.1375	0.44167	-0.50208	-0.14792	0.40208	-0.44375	0.33542	209.779	92.220	-69.316	-125.886	50.102	-43.675	-132.282	-107.404	-6.909	191.271	157.207	146.912	-116.107	205.393	-17.692	185.786	0.00081252	0.00039766	4.0799e-05	1249	1.2519e-06	3.5277e-06	1247.5	340.35	1.4134e-05	4.0621e-06	388.93	132.28	114.38	39.431	6.8918e-06	48.919	0.00028855	0.00027897	7.7405e-05	1248.9	3.0457e-06	3.0326e-06	1250.1	340.71	3.0829e-06	3.0599e-06	386.99	130.91	114.17	39.305	3.0975e-06	48.772	-7.445	-84.787	-65.628	-134.625	-37.278	71.206	-134.868	-129.955	-38.161	-26.664	-130.708	-126.409	-125.848	-121.106	-44.087	-122.149	-8191	255	
691.929	1	1	0	0	0.28631	0.16367	0.15991	0.22128	0.072582	0.070984	0.15027	0.3635	0.11965	0.16744	0.29199	0.072112	0.11992	0.35083	0.10399	0.12376	0.55625	-0.36458	0.61458	-0.17708	0.0375	0.57708	-0.45	0.42083	0.51042	-0.26042	0.5125	-0.2625	-0.25833	0.3625	-0.4	0.21875	-77.078	152.410	41.956	158.500	43.241	133.973	105.681	207.751	158.349	183.400	-77.652	34.909	40.410	194.487	96.830	-101.324	0.00085286	0.00029507	0.00011003	1248.7	5.6263e-06	3.4324e-06	1248.3	341.56	4.4785e-06	2.3174e-06	389.46	131.48	114.43	39.392	1.0229e-05	48.995	0.00028941	0.00028056	7.835e-05	1248.3	3.0856e-06	3.0804e-06	1249.8	341.27	3.1075e-06	3.0653e-06	387.44	130.66	114.02	39.287	3.0745e-06	48.806	-13.753	-21.974	-3.624	-134.827	-21.480	54.082	-135.091	-129.944	-98.657	-33.246	-130.856	-126.239	-125.854	-121.028	-5.962	-122.151	-8191	255	
692.025	1	1	0	0	0.26285	0.12298	0.21083	0.048854	0.15444	0.088689	0.20765	0.13159	0.2375	0.24848	0.37543	0.15693	0.19523	0.2254	0.046362	0.19675	0.72083	-0.35833	0.41667	-0.014583	-0.18542	0.51042	-0.63958	0.025	0.25208	-0.42292	0.35	-0.010417	-0.23542	0.71875	-0.10625	0.16042	-121.614	15.991	33.576	-5.899	74.829	-104.408	163.141	174.840	-41.875	59.264	154.643	-55.754	81.898	179.744	49.381	208.500	0.00085132	0.00030195	0.00012951	1251.9	3.9662e-06	2.9471e-06	1252.8	340.53	1.0423e-06	3.9527e-06	390.82	132.26	113.98	39.507	7.5094e-06	48.877	0.00029076	0.00028373	7.9001e-05	1248.3	3.1287e-06	3.1072e-06	1249.8	340.4	3.1029e-06	3.0812e-06	387.24	130.88	114.1	39.328	3.1081e-06	48.726	-12.610	-123.291	-100.781	-134.512	-3.636	-18.118	-134.754	-130.044	-34.932	-9.610	-130.712	-126.122	-125.643	-120.955	-32.548	-122.112	-8191	255	
692.119	1	1	0	0	0.076318	0.073368	0.21739	0.47269	0.19141	0.10168	0.12064	0.23937	0.20604	0.38378	0.062896	0.15048	0.17301	0.16746	0.29537	0.34405	0.85625	-0.4	0.38958	-0.0875	-0.22292	0.32083	-0.47292	0.0083333	0.53333	-0.41042	0.11875	0.15625	-0.425	0.3	-0.22917	-0.20417	30.265	11.640	-114.267	-141.443	123.514	30.133	86.562	153.411	-111.106	-41.931	165.160	-8.311	-97.510	121.969	42.576	210.987	0.00077057	0.00024934	0.00010979	1252.6	2.8182e-06	4.2824e-06	1246.2	340.07	6.3764e-06	2.7605e-06	389.03	132.29	114.37	39.443	3.6369e-06	48.868	0.00028958	0.00028095	7.8266e-05	1248.8	3.0812e-06	3.0717e-06	1247.9	340.79	3.1066e-06	3.1072e-06	386.73	130.72	114.07	39.295	3.066e-06	48.752	-8.297	140.674	-43.398	-134.632	159.417	-16.209	-134.849	-129.943	-52.934	-42.232	-130.586	-126.048	-125.435	-120.887	-38.920	-121.865	-8191	255	
692.215	1	1	0	0	0.19653	0.34348	0.16816	0.28394	0.28696	0.25277	0.052435	0.19849	0.072191	0.20221	0.039239	0.075736	0.30146	0.1333	0.33965	0.12747	0.9	-0.15625	0.3	0.08125	-0.33333	0.44167	-0.18333	-0.37292	0.63958	-0.16875	0.025	0.20417	-0.33958	0.49583	0.072917	-0.15625	-66.320	173.280	-46.879	182.277	0.338	65.479	115.130	-123.145	0.141	34.270	92.216	160.103	-129.469	-123.548	-14.081	189.135	0.00091968	0.00014567	0.00025362	1253	4.9385e-06	5.7339e-06	1245	339.8	6.6944e-06	3.7703e-06	389.82	131.43	114.03	39.15	7.3131e-06	48.792	0.00028794	0.00028185	7.7541e-05	1246.5	3.0801e-06	3.1044e-06	1246.8	339.91	3.104e-06	3.0735e-06	387	130.4	113.86	39.194	3.0927e-06	48.754	-10.575	-82.463	-13.379	-134.520	-20.737	-6.192	-134.608	-129.794	-72.152	-44.283	-130.908	-126.381	-125.765	-120.944	25.399	-122.129	-8191	255	
692.336	1	1	0	0	0.2298	0.10643	0.13174	0.29213	0.43112	0.24718	0.10888	0.15084	0.1311	0.1685	0.053266	0.20589	0.078514	0.11627	0.17546	0.33845	0.775	-0.35833	0.39792	0.25208	-0.38125	0.32917	-0.22917	-0.41042	0.625	-0.12292	-0.022917	0.33958	-0.375	0.21042	0.14792	-0.39583	38.462	-29.268	-66.303	147.929	187.513	-32.262	115.215	182.888	-81.135	-95.993	-40.078	105.791	113.964	-65.145	134.752	156.619	0.00080026	0.00048608	6.5121e-05	1246.9	5.7438e-06	6.7411e-06	1246.2	340.85	1.6345e-06	2.5571e-06	390.19	132.23	114.55	39.252	8.9297e-06	48.794	0.00029251	0.00028199	7.9009e-05	1245.4	3.0991e-06	3.108e-06	1246.8	339.97	3.1327e-06	3.0673e-06	386.79	130.48	113.98	39.249	3.0842e-06	48.641	-6.688	-107.303	-19.641	-134.792	-19.497	-15.558	-135.109	-130.334	11.461	-10.134	-130.838	-126.383	-125.904	-120.966	7.042	-122.088	-8191	255	
692.432	1	1	0	0	0.14814	0.2044	0.24433	0.018135	0.11167	0.10496	0.26881	0.062369	0.16044	0.44357	0.078597	0.29705	0.17172	0.1978	0.04036	0.027567	0.78958	-0.058333	-0.089583	0.39792	-0.30208	0.325	0.25417	-0.46458	0.53542	-0.17292	-0.21875	0.2875	-0.50208	0.047917	0.36458	-0.33958	-99.749	210.064	-71.479	2.231	-26.366	-145.800	-145.012	152.470	61.768	203.768	210.872	130.473	182.459	206.975	17.643	-69.618	0.0009187	0.00043618	0.00019386	1245.4	4.0753e-06	2.1193e-06	1242.6	339.87	6.5383e-06	5.0042e-06	388.51	131.51	113.89	39.346	8.0313e-06	49.005	0.00029158	0.0002793	7.7766e-05	1243.1	3.0426e-06	3.0633e-06	1245.9	340.08	3.0641e-06	2.9939e-06	386.26	130.32	113.87	39.22	3.0377e-06	48.632	-4.933	-55.767	-39.116	-134.780	48.907	-59.706	-134.733	-129.885	-63.319	-39.977	-130.729	-126.238	-125.854	-121.294	-0.591	-122.278	-8191	255	
692.528	1	1	0	0	0.16588	0.20409	0.16561	0.16715	0.22008	0.1781	0.11463	0.40272	0.096939	0.26286	0.25686	0.093936	0.096987	0.12281	0.4085	0.085213	0.80625	-0.11042	-0.16458	0.26875	-0.38542	0.21667	0.2375	-0.57292	0.43958	0.0875	-0.53958	0.36667	-0.37083	-0.18958	0.24792	-0.39167	151.569	98.137	115.977	-82.149	-80.848	153.953	53.825	205.742	102.644	175.338	205.122	84.036	23.359	47.717	161.226	167.325	0.00087594	0.00036078	0.00016334	1244.2	1.2379e-06	2.9788e-06	1246.3	340.12	3.0712e-06	3.7357e-06	388.9	131.5	114.56	39.468	9.4763e-06	48.917	0.0002827	0.00027553	7.5884e-05	1242.8	3.0164e-06	3.0363e-06	1245.6	340.16	3.0478e-06	3.0143e-06	385.72	130.35	113.84	39.275	3.0102e-06	48.717	-4.451	-53.255	-42.246	-134.747	6.142	-33.250	-134.824	-130.232	-62.164	53.496	-130.454	-126.077	-125.672	-121.191	-82.801	-122.017	-8191	255	
692.624	1	1	0	0	0.17363	0.15883	0.33249	0.32922	0.22147	0.10675	0.25158	0.29537	0.31028	0.094453	0.12243	0.13201	0.24111	0.050773	0.13139	0.16895	0.87708	0.058333	-0.2	0.45417	-0.33125	0.05	0.275	-0.32083	0.31875	0.047917	-0.55	0.53333	-0.23333	0.095833	0.59792	-0.43125	-103.141	-119.277	10.248	-105.924	48.476	-111.230	155.606	138.970	184.422	-106.517	-37.584	-32.111	108.277	112.123	58.188	-68.390	0.00077079	0.00043464	0.00013847	1242.8	4.8902e-06	5.2129e-06	1244.2	339.98	2.2096e-06	5.386e-06	388.06	131.27	114.2	39.344	6.111e-06	49.02	0.00028078	0.00027245	7.6665e-05	1242.3	3.0014e-06	3.0057e-06	1245.5	339.62	3.0435e-06	3.0595e-06	385.73	130.28	113.86	39.206	3.0544e-06	48.743	-3.852	-79.873	-87.457	-134.771	-94.712	37.013	-134.875	-130.154	-48.129	-53.743	-130.497	-126.233	-125.671	-120.787	-31.297	-122.114	-8191	255	
692.720	1	1	0	0	0.081468	0.29643	0.33599	0.16971	0.28028	0.23211	0.15318	0.21902	0.32736	0.13209	0.099453	0.25687	0.21598	0.088893	0.088268	0.20062	0.64375	0.19583	-0.53958	0.35	0.035417	-0.014583	0.31875	-0.16458	0.225	0.37917	-0.41667	0.45417	-0.12292	-0.15625	0.72708	-0.29583	101.694	-27.189	102.103	-71.156	-47.307	140.400	161.303	156.602	102.055	-65.533	-7.579	-11.275	178.559	-134.379	143.280	62.128	0.00072228	0.00076051	0.0001782	1243.6	2.1371e-06	5.2839e-06	1241.8	340.27	8.3802e-06	2.4448e-06	390.8	131.63	114.01	39.21	5.5717e-06	48.677	0.00028517	0.00027967	7.7578e-05	1242.7	3.044e-06	3.0806e-06	1244.3	340.29	3.0644e-06	3.0625e-06	386.46	130.25	113.74	39.147	3.0221e-06	48.716	-4.320	-106.602	15.695	-134.593	-92.364	46.148	-134.977	-129.877	-82.030	24.759	-130.714	-126.316	-125.506	-121.241	-36.229	-121.929	-8191	255	
692.817	1	1	0	0	0.18853	0.26406	0.21902	0.22081	0.21739	0.20609	0.2319	0.28993	0.2731	0.18665	0.43376	0.37041	0.12514	0.39934	0.12337	0.27177	0.73958	0.50625	-0.49583	0.3125	0.12708	-0.25	0.27083	-0.43542	0.0083333	0.50417	-0.51042	0.33333	0.058333	-0.32708	0.60833	-0.38958	121.538	139.694	-98.286	-135.296	-121.348	-92.202	199.792	91.793	-100.642	-107.854	207.225	-137.711	92.679	194.098	121.684	118.404	0.00071411	0.00042761	4.7789e-05	1243.2	5.2334e-06	3.3527e-06	1245.7	339.94	4.7751e-06	4.7699e-06	388.92	131.81	114.16	39.35	1.4971e-06	48.955	0.00028318	0.00027736	7.7011e-05	1243.3	3.041e-06	3.0273e-06	1246.7	339.93	3.0237e-06	3.0344e-06	385.72	130.36	113.76	39.212	3.041e-06	48.693	-10.397	-88.249	-103.783	-134.636	-62.059	-4.341	-134.913	-130.252	-130.057	-51.047	-130.861	-126.317	-125.816	-121.099	-15.712	-122.020	-8191	255	
692.936	1	1	0	0	0.1496	0.56637	0.27558	0.082745	0.20151	0.15539	0.20226	0.35998	0.21409	0.20066	0.34935	0.098227	0.25416	0.17212	0.45672	0.18563	0.61458	0.66458	-0.25417	0.09375	0.32083	-0.48125	0.26458	-0.34792	-0.125	0.51042	-0.38958	0.23125	0.25	-0.43125	0.48125	-0.29375	-78.797	-53.365	12.660	79.179	78.195	-54.747	173.009	173.635	108.671	-27.654	169.030	211.437	166.748	-139.267	208.642	105.993	0.00073497	0.00020307	0.00023095	1245	1.4267e-06	3.6955e-06	1244	340.68	5.1143e-06	5.8454e-06	389.84	130.92	114.3	39.299	7.1199e-06	48.981	0.00028419	0.00027595	7.6975e-05	1243.4	3.0054e-06	2.9618e-06	1245.3	339.87	3.0281e-06	3.0204e-06	386.36	130.2	113.82	39.178	3.0152e-06	48.697	-15.619	-112.888	-47.747	-134.701	-72.421	79.389	-135.021	-129.684	43.468	-12.444	-130.817	-126.405	-125.759	-120.912	-4.954	-122.019	-8191	255	
693.032	1	1	0	0	0.024608	0.10557	0.52642	0.15624	0.075284	0.18931	0.15672	0.24509	0.15311	0.076247	0.34866	0.21004	0.080033	0.30774	0.28838	0.1457	0.18125	0.42917	-0.39375	0.06875	0.4375	-0.3875	0.36667	0.0083333	0.01875	0.65417	-0.00625	0.15208	0.22292	-0.44167	0.53125	-0.054167	-69.252	195.804	67.477	200.600	44.347	170.837	107.082	188.651	-141.810	-111.328	206.812	115.392	174.179	105.616	207.888	177.383	0.0007715	0.00033448	0.00012002	1249.3	4.7167e-06	5.9054e-06	1244.3	339.08	7.0804e-06	7.0302e-06	388.55	130.61	114.1	39.159	9.5992e-06	48.859	0.00028248	0.00027608	7.5955e-05	1242.9	3.0256e-06	2.9954e-06	1244.4	339.54	2.9768e-06	2.9659e-06	385.91	130.1	113.76	39.131	3.004e-06	48.627	-12.273	-67.295	182.101	-134.776	-42.465	-15.195	-134.860	-129.907	-31.211	21.201	-130.570	-126.381	-125.734	-121.252	-43.794	-122.347	-8191	255	
693.128	1	1	0	0	0.068315	0.23901	0.17907	0.40013	0.12593	0.11849	0.27347	0.35948	0.28736	0.090013	0.094463	0.10761	0.27249	0.057137	0.045381	0.10223	-0.035417	0.54583	-0.11458	-0.19583	0.35208	-0.45208	0.1375	-0.025	-0.26667	0.4625	-0.33125	-0.22292	0.2	-0.39792	0.28333	-0.027083	-31.599	106.130	-133.020	196.219	193.901	30.237	131.497	191.380	120.524	-71.203	145.064	92.352	207.626	-35.650	-77.735	-60.214	0.0007997	0.00040335	0.00011001	1244	1.8217e-06	4.2003e-06	1242.2	339.63	3.57e-06	4.9324e-06	389.11	130.69	114.16	39.185	6.8205e-06	48.679	0.00028101	0.00027185	7.5336e-05	1242.5	2.9841e-06	2.9665e-06	1243.3	339.57	2.9803e-06	2.9602e-06	385.92	130.1	113.71	39.163	2.957e-06	48.548	-7.514	-59.170	-5.350	-135.043	-48.320	15.647	-134.982	-130.045	137.341	-18.847	-130.677	-126.809	-125.723	-120.946	-9.109	-122.244	-8191	255	
693.224	1	1	0	0	0.046404	0.17606	0.14367	0.18213	0.27759	0.11723	0.46504	0.22856	0.19111	0.26614	0.13164	0.12469	0.033016	0.16952	0.20285	0.26451	0.089583	0.45833	-0.27708	-0.25208	0.55625	-0.3	0.097917	0.06875	-0.37708	0.39583	-0.40833	-0.097917	0.41875	-0.45417	0.041667	0.32083	187.098	153.221	-15.139	-34.663	-0.769	47.636	140.949	131.771	118.379	78.688	107.970	-109.538	65.747	-137.790	97.788	-70.612	0.00097214	0.00044653	0.00011049	1247.1	5.5015e-06	3.4763e-06	1239	339.6	4.8949e-06	5.1866e-06	389.45	131.6	113.83	39.279	6.7119e-06	48.736	0.00027759	0.00026962	7.5595e-05	1242.5	2.9893e-06	2.9464e-06	1241.7	339.09	2.9793e-06	2.9452e-06	385.63	130.44	113.62	39.186	2.9981e-06	48.672	-15.055	-123.202	-89.987	-134.939	-69.115	-76.255	-135.143	-129.856	-94.999	-5.368	-130.783	-126.546	-125.702	-121.143	-35.517	-122.077	-8191	255	
693.297	1	1	0	0	0.14668	0.24364	0.30127	0.4019	0.085664	0.23545	0.06627	0.13592	0.13049	0.12612	0.16824	0.32525	0.17365	0.16667	0.16686	0.080733	-0.029167	0.71667	0.13542	-0.1	0.71667	-0.34375	0.014583	0.28958	-0.24792	0.15	0.10208	-0.50833	0.46458	-0.36875	-0.05	0.41042	-83.741	170.703	-64.760	207.112	137.738	9.513	167.761	171.455	135.011	-98.978	161.260	154.405	178.693	-72.237	-71.763	117.803	0.00089589	0.00072809	6.8118e-05	1241	1.9418e-06	3.1308e-06	1241	339.16	3.711e-06	3.1688e-06	389.16	131.74	113.63	39.436	4.5362e-06	48.726	0.00027837	0.00027159	7.5925e-05	1240.6	3.0051e-06	2.9668e-06	1240.7	339.12	3.0011e-06	2.9845e-06	385.24	130.36	113.53	39.288	3.0074e-06	48.587	-6.128	-44.862	-48.536	-135.116	87.247	-11.850	-135.320	-130.124	-60.806	-95.796	-130.687	-126.494	-125.953	-121.214	133.736	-122.418	-8191	255	
693.416	1	1	0	0	0.15677	0.17477	0.12708	0.41018	0.050698	0.17932	0.24599	0.043582	0.19925	0.2332	0.090568	0.16819	0.20882	0.086737	0.11798	0.092228	-0.23958	0.34583	0.38333	-0.575	0.63958	-0.0020833	-0.089583	0.56458	-0.016667	0.36667	0.13333	-0.46458	0.32708	-0.1625	0.24167	0.55417	203.190	-38.089	-17.675	161.452	138.913	-68.539	120.619	204.270	-146.513	-68.084	-22.189	190.308	171.110	107.445	174.082	150.949	0.00079933	0.00059206	0.00015451	1242.4	5.6614e-06	4.9933e-06	1239.4	339.84	7.7303e-06	3.3251e-06	387.7	131.05	113.81	39.334	3.4001e-06	48.688	0.00028095	0.00027496	7.6004e-05	1241.3	3.0546e-06	3.0106e-06	1240.6	339.5	3.0147e-06	3.0137e-06	386.08	130.18	113.6	39.214	2.9709e-06	48.626	-8.314	-78.156	-43.543	-135.059	14.348	6.497	-135.211	-130.203	-109.288	-28.771	-130.904	-126.354	-126.135	-121.019	-35.851	-122.412	-8191	255	
693.512	1	1	0	0	0.047882	0.08857	0.1109	0.45185	0.11618	0.15511	0.20505	0.094736	0.17942	0.023282	0.17242	0.40198	0.14915	0.21271	0.16895	0.11462	0.1875	0.20417	0.27083	-0.58958	0.75625	-0.025	-0.36042	0.44583	-0.55	0.12292	0.33125	-0.49375	0.45833	0.085417	0.10208	0.56458	-29.736	41.021	-1.494	131.197	-124.372	61.843	-137.610	106.537	-37.207	173.984	-119.984	203.099	164.768	188.417	115.701	155.422	0.00080833	0.00026517	0.00010528	1243.9	4.3544e-06	1.7943e-06	1237.9	339.2	1.1964e-05	4.1422e-06	387.26	131.06	113.6	39.28	5.135e-06	48.804	0.00028071	0.00026886	7.469e-05	1239.4	2.9667e-06	2.9447e-06	1240.5	338.8	2.9588e-06	2.9557e-06	385.25	129.91	113.49	39.211	2.9333e-06	48.64	-14.979	-121.706	-64.563	-135.158	-85.378	21.714	-135.029	-130.288	-21.825	10.410	-131.026	-126.587	-125.997	-120.956	10.047	-122.409	-8191	255	
693.609	1	1	0	0	0.06354	0.14497	0.13354	0.24757	0.26878	0.21388	0.31245	0.40324	0.42111	0.34678	0.28551	0.1916	0.028926	0.38464	0.073006	0.22393	0.15208	0.058333	0.35833	-0.37917	0.46458	0.42708	-0.25208	0.37708	-0.029167	0.0125	0.33542	-0.58542	0.25625	0.28958	-0.20625	0.27917	-110.708	49.913	81.056	170.048	39.640	-45.346	110.576	153.830	-80.025	-85.991	149.499	160.248	-42.716	-88.469	54.475	-124.646	0.00075604	0.00043345	0.00021648	1246.2	4.4021e-06	3.4773e-06	1238.5	338.19	4.3927e-06	3.3025e-06	388.85	131.02	113.69	39.247	6.9139e-06	48.555	0.00027588	0.0002699	7.4374e-05	1240.9	2.9301e-06	2.9382e-06	1241.3	338.48	2.9622e-06	2.938e-06	385.4	129.95	113.47	39.144	2.9472e-06	48.521	-4.950	-100.434	-56.714	-134.997	-42.548	-62.833	-135.118	-130.204	-57.763	12.551	-130.970	-126.537	-125.857	-121.179	-15.751	-122.450	-8191	255	
693.729	1	1	0	0	0.19632	0.08899	0.076727	0.18844	0.171	0.16356	0.34132	0.28002	0.074155	0.1983	0.24974	0.13926	0.052373	0.056993	0.21801	0.10837	0.58958	0.17083	0.53125	-0.39375	0.36667	0.36458	-0.74167	0.19375	0.0125	-0.12917	0.5	-0.38125	0.085417	0.51458	-0.039583	0.47708	16.768	-28.240	120.613	166.109	84.380	-136.176	109.032	-136.396	109.185	108.085	205.331	156.740	60.780	8.009	91.307	-35.019	0.0008283	0.00044163	6.4804e-05	1239.3	2.9934e-06	5.2753e-06	1241.2	338.19	3.619e-06	5.8519e-06	389.27	131.89	113.73	39.24	7.487e-06	48.959	0.00027457	0.00026922	7.4473e-05	1238.9	2.9534e-06	2.9343e-06	1241.1	338.76	2.9466e-06	2.9183e-06	385.17	130.22	113.5	39.153	2.95e-06	48.583	-10.273	-128.305	-21.188	-134.822	-84.147	10.390	-135.144	-130.160	-3.228	-74.095	-130.896	-126.683	-125.855	-121.254	-2.797	-122.142	-8191	255	
693.824	1	1	0	0	0.070996	0.26897	0.29654	0.081437	0.12389	0.064685	0.42393	0.21569	0.098781	0.072455	0.11871	0.11448	0.19893	0.22	0.083472	0.24758	0.5125	0.079167	0.56042	-0.33125	0.28958	0.31458	-0.57917	0.21042	0.077083	-0.28125	0.3125	-0.43958	-0.072917	0.42708	-0.3	0.325	-86.070	85.683	-147.993	-96.595	90.290	-127.872	211.151	-125.147	-147.327	-28.224	191.826	7.440	201.179	-138.250	77.665	182.048	0.00075425	0.00020443	0.00014075	1243.5	4.3959e-06	3.7879e-06	1239.2	339.75	6.4046e-06	2.2578e-06	386.62	131.12	113.66	39.025	6.6313e-06	48.88	0.00027294	0.00026658	7.4362e-05	1239.9	2.9249e-06	2.9283e-06	1241	338.83	2.9648e-06	2.916e-06	384.63	129.99	113.48	39.027	2.9307e-06	48.516	-10.155	-16.229	-39.821	-134.776	-27.031	-39.196	-135.250	-130.131	-12.401	54.307	-131.037	-126.240	-125.965	-121.153	22.491	-122.356	-8191	255	
693.897	1	1	0	0	0.1796	0.18889	0.081795	0.26823	0.12433	0.22352	0.17629	0.3996	0.11942	0.049071	0.29052	0.17078	0.13644	0.28699	0.19347	0.12973	0.51875	-0.40417	0.64375	-0.19583	0.13958	0.52083	-0.24792	0.27292	0.28125	-0.27917	0.57708	-0.15417	-0.035417	0.4375	-0.14792	0.34167	204.969	-145.243	-14.941	141.683	8.935	196.670	111.507	160.817	140.500	72.660	93.369	-145.018	205.038	71.603	152.549	146.473	0.00051269	0.00026648	0.00015722	1241.8	4.5245e-06	2.5858e-06	1241.4	338.92	4.2381e-06	4.6826e-06	387.17	131.37	113.83	39.186	1.0437e-05	48.725	0.00027586	0.00026876	7.5034e-05	1239.8	2.9658e-06	2.9444e-06	1241.5	338.5	2.974e-06	2.9612e-06	384.7	129.97	113.47	39.093	2.9577e-06	48.548	-8.850	-112.379	-41.038	-134.663	-58.574	195.820	-135.350	-130.055	-46.753	3.219	-130.766	-126.362	-125.922	-121.107	23.642	-122.264	-8191	255	
694.016	1	1	0	0	0.23115	0.11083	0.14588	0.1137	0.19357	0.14941	0.27142	0.35605	0.22142	0.061084	0.1862	0.12923	0.21631	0.27399	0.17469	0.35219	0.71667	-0.4375	0.475	-0.27083	-0.10833	0.72917	-0.48125	0.24167	0.36042	-0.21875	0.51667	-0.19792	-0.22292	0.6	-0.11458	0.23958	180.541	165.704	122.369	-64.198	-53.227	73.631	160.783	164.656	22.575	-141.665	189.634	-113.118	174.509	124.488	-134.064	-137.422	0.00070565	0.00035335	0.00011294	1241.6	3.6415e-06	3.3686e-06	1235.7	339.65	1.2047e-06	5.4526e-07	388.36	131.15	113.88	39.354	1.4446e-06	48.685	0.00027741	0.0002682	7.5219e-05	1240.5	2.9683e-06	2.9648e-06	1239.1	338.65	2.9709e-06	2.9368e-06	385.15	130.08	113.47	39.151	2.9315e-06	48.528	-2.649	-66.800	-22.470	-134.745	-46.015	-5.521	-135.035	-130.121	-76.362	57.127	-130.991	-126.489	-125.838	-121.286	-96.352	-122.326	-8191	255	
694.112	1	1	0	0	0.097186	0.20928	0.20642	0.20154	0.13433	0.34127	0.10991	0.037111	0.1261	0.30555	0.12559	0.062451	0.053579	0.049508	0.058831	0.18822	0.92917	-0.33125	0.58542	-0.0375	-0.37708	0.525	-0.35208	-0.070833	0.62292	-0.225	0.28542	0.33542	-0.15417	0.5875	0.045833	0.125	37.481	207.777	-1.042	143.309	-142.785	3.511	-90.260	87.577	9.807	-8.702	184.643	159.701	-122.973	21.355	-21.928	152.274	0.00081617	0.00092975	2.7056e-05	1241.6	3.3045e-06	2.7596e-06	1239.8	339.66	4.5404e-06	1.6926e-06	385.73	131.34	114.27	39.03	6.8765e-06	48.76	0.00027736	0.00026595	7.5176e-05	1238.7	2.9467e-06	2.9284e-06	1240.2	338.57	2.9687e-06	2.9205e-06	384.61	130.02	113.68	39.02	2.9181e-06	48.527	-11.887	-83.209	-132.985	-134.789	-97.386	-19.160	-135.216	-130.242	-67.456	25.177	-131.249	-126.258	-125.990	-121.088	-6.119	-122.218	-8191	255	
694.208	1	1	0	0	0.15183	0.069314	0.2337	0.095625	0.33299	0.1196	0.15455	0.19694	0.041507	0.21172	0.1782	0.18351	0.10557	0.36042	0.19139	0.19865	1	-0.21875	0.5	0.1125	-0.1875	0.80208	-0.13125	-0.12708	0.49167	-0.2625	0.42708	0.24792	-0.37292	0.40833	0.14792	-0.22083	52.541	-45.385	178.862	-57.113	-77.442	95.548	147.042	196.724	21.724	-95.891	211.833	-133.728	197.257	-89.971	-99.691	128.015	0.00073349	0.00054348	9.782e-05	1240.5	3.4812e-06	4.1756e-06	1236.4	339.07	3.3732e-06	8.6039e-06	387.74	130.77	113.73	39.245	9.7406e-06	48.764	0.00027822	0.00026894	7.5229e-05	1237.6	2.9716e-06	2.9532e-06	1239.3	338.25	2.9832e-06	2.9474e-06	385.02	129.96	113.38	39.107	2.9723e-06	48.493	-1.887	-67.682	-58.687	-134.865	11.271	-5.134	-135.190	-130.119	-81.581	-12.870	-130.931	-126.512	-125.992	-121.172	-18.746	-122.183	-8191	255	
694.329	1	1	0	0	0.11984	0.099657	0.051141	0.33105	0.13	0.0836	0.30988	0.065834	0.15192	0.24939	0.053303	0.12662	0.027332	0.2871	0.054249	0.20664	0.975	0.066667	0.36875	0.425	-0.12708	0.46042	-0.060417	-0.14375	0.56875	-0.2125	-0.0125	0.41667	-0.077083	0.57083	0.17083	-0.13125	-23.042	-27.968	176.437	181.820	1.916	-48.841	206.558	147.173	-106.100	-26.419	-134.249	143.854	98.863	199.676	-109.592	70.120	0.0006324	0.00063924	6.8778e-05	1239.2	3.6142e-06	8.368e-06	1235.1	338.42	4.5864e-06	4.7699e-06	385.77	131.51	114.05	39.349	3.9941e-06	48.869	0.00027753	0.00026955	7.4973e-05	1238.3	2.9515e-06	2.9524e-06	1238.6	338.12	2.9425e-06	2.8992e-06	384.59	130.09	113.58	39.124	2.9373e-06	48.525	-6.445	-49.504	-104.522	-134.767	20.532	57.102	-135.198	-130.478	24.379	-21.666	-130.940	-126.385	-125.795	-121.380	-15.435	-122.544	-8191	255	
694.425	1	1	0	0	0.17841	0.385	0.13095	0.055416	0.21821	0.15546	0.20631	0.19657	0.37255	0.036682	0.095326	0.247	0.10615	0.32742	0.2238	0.047621	1.0229	-0.30833	0.13958	0.37083	-0.23333	0.39583	-0.075	-0.23333	0.73542	-0.21875	0.0020833	0.59375	-0.45833	0.27292	0.44792	-0.26667	-135.151	-47.116	-124.434	161.316	200.067	-5.955	189.081	-122.854	-40.406	-60.348	128.260	100.600	187.159	-142.953	150.542	42.011	0.00082101	0.00046481	0.00011238	1246.7	5.9008e-06	1.3709e-06	1246	341	3.826e-06	8.7024e-06	388.51	131.97	113.68	39.067	1.8299e-06	48.738	0.00027624	0.00026795	7.4591e-05	1242.9	2.9361e-06	2.9321e-06	1243.1	339.18	2.9175e-06	2.8826e-06	385.01	130.19	113.53	39.082	2.9274e-06	48.625	-15.262	-60.790	-13.180	-135.020	-11.977	70.095	-135.207	-130.196	-17.824	-51.057	-130.963	-126.518	-125.943	-121.549	-82.324	-122.281	-8191	255	
694.521	1	1	0	0	0.29785	0.30359	0.21322	0.1674	0.11525	0.19181	0.25093	0.16379	0.11962	0.0451	0.08737	0.14684	0.27742	0.20044	0.14699	0.12565	0.875	0.079167	0.039583	0.53542	-0.23333	0.4875	0.1	-0.44375	0.40625	-0.0041667	-0.052083	0.38333	-0.41667	0.022917	0.60417	-0.10833	-141.574	-84.561	211.047	-50.736	30.729	13.741	93.490	33.400	-111.327	106.670	129.481	160.399	138.782	102.817	-135.929	-72.939	0.00094212	0.00047265	0.0001446	1245	1.2302e-06	6.3449e-06	1239	339.18	2.9445e-06	5.0756e-06	389.73	131.07	113.84	39.093	8.0783e-06	48.865	0.00027675	0.00026694	7.4621e-05	1242.3	2.9773e-06	2.9857e-06	1242.9	338.8	3.0719e-06	3.0725e-06	386.12	130.39	113.76	39.169	3.1382e-06	48.627	-9.089	-42.837	-47.182	-134.693	-125.471	36.954	-134.953	-130.185	178.106	38.688	-130.966	-126.564	-125.779	-121.188	17.787	-122.279	-8191	255	
694.593	1	1	0	0	0.13551	0.15424	0.14964	0.26162	0.2319	0.22476	0.20719	0.12135	0.11162	0.31515	0.056951	0.079269	0.085884	0.25294	0.18661	0.13868	0.79583	-0.0041667	0.033333	0.46042	-0.27083	0.047917	0.35	-0.23125	0.51042	0.18542	-0.25833	0.84375	-0.21458	-0.054167	0.66458	-0.25	141.908	59.556	-46.479	172.604	134.186	11.996	150.633	206.866	64.343	-144.721	201.841	-140.269	193.193	-75.976	-1.505	54.456	0.00076068	9.2584e-05	0.00017233	1237.9	3.0087e-06	9.2585e-07	1241.4	340.44	1.8956e-06	7.7287e-06	388.51	131.34	114.07	39.32	5.2325e-06	48.938	0.00029235	0.00028278	7.8207e-05	1238.9	3.0689e-06	3.0546e-06	1244.4	339.63	3.0652e-06	3.0022e-06	384.91	130.03	113.79	39.206	2.9877e-06	48.626	-9.661	-29.493	-75.705	-134.988	-64.619	-143.925	-135.030	-130.193	-14.139	-20.123	-130.825	-126.249	-125.907	-121.202	17.945	-122.070	-8191	255	
694.713	1	1	0	0	0.27828	0.14676	0.1323	0.1908	0.16668	0.35322	0.11534	0.33996	0.16157	0.11702	0.031809	0.24432	0.047696	0.21574	0.097043	0.083302	0.75417	0.41667	-0.32083	0.63542	-0.083333	-0.1125	0.36667	-0.31667	0.46042	0.35208	-0.5125	0.54167	-0.0083333	0.085417	0.57292	-0.39167	70.168	131.773	157.191	174.862	117.572	48.666	119.867	198.038	199.534	-124.240	52.930	120.139	-83.055	127.598	-71.621	-108.584	0.00070609	0.0001093	8.4234e-05	1244.7	4.1768e-06	4.147e-06	1242	339.05	8.4608e-06	4.8978e-06	389.06	132.11	114.26	39.265	6.5111e-06	49.06	0.00028	0.00027135	7.4732e-05	1243	2.9392e-06	2.9217e-06	1244.3	338.94	2.9348e-06	2.9285e-06	385.25	129.9	113.91	39.164	2.8708e-06	48.55	-7.950	75.789	-99.128	-134.818	-16.167	15.762	-135.046	-130.117	-27.742	-26.174	-130.885	-126.692	-125.996	-120.998	-9.264	-122.510	-8191	255	
694.808	1	1	0	0	0.24272	0.046993	0.054689	0.23328	0.074551	0.1186	0.2632	0.11898	0.14443	0.12342	0.16563	0.11788	0.21595	0.24424	0.17594	0.22686	0.58333	0.49792	-0.31667	0.39792	0.28542	-0.035417	0.32083	-0.29375	0.17708	0.5	-0.22917	0.35417	-0.060417	-0.2375	0.81458	-0.3625	-10.458	111.040	-74.668	-86.023	-104.810	208.629	145.417	87.411	36.217	-18.887	-96.975	-81.581	12.842	125.408	-137.788	37.961	0.00086026	0.00037483	0.00012442	1249.2	5.3926e-06	2.3706e-06	1240.9	340.67	5.1571e-06	4.2874e-06	390.15	131.49	114.43	39.331	6.2303e-06	49.049	0.00026955	0.00026111	7.2633e-05	1243.2	2.8827e-06	2.8817e-06	1242.8	339.22	2.9124e-06	2.8933e-06	385.89	130.34	113.99	39.2	2.9855e-06	48.69	-11.455	-86.402	-62.021	-134.999	3.418	68.513	-135.303	-130.504	-108.488	-41.148	-131.078	-126.717	-126.167	-121.498	-90.280	-122.680	-8191	255	
694.904	1	1	0	0	0.096124	0.15997	0.17766	0.1215	0.12857	0.069685	0.44235	0.20934	0.3214	0.070684	0.25528	0.074432	0.49269	0.063075	0.15328	0.21385	0.51042	0.77083	-0.06875	0.26042	0.12917	-0.31458	0.50208	-0.32083	0.14375	0.58542	-0.325	0.175	0.25625	-0.15	0.55833	-0.04375	93.156	155.199	-90.760	187.569	164.367	2.168	125.252	147.310	-125.268	-121.247	176.761	-84.881	-111.496	74.379	192.428	90.772	0.00062444	0.00034416	0.00016987	1245.6	4.8395e-06	5.0796e-06	1241.2	338.91	5.4714e-06	7.155e-06	390.17	131.75	114.34	39.332	2.941e-06	48.887	0.00027779	0.00027143	7.4714e-05	1243.4	2.9646e-06	2.982e-06	1244.3	338.92	2.9695e-06	2.9772e-06	385.87	130.16	113.85	39.177	3.0047e-06	48.59	-15.574	-51.613	-90.708	-135.326	-41.272	50.026	-135.396	-130.314	-67.931	-2.773	-131.545	-126.811	-126.084	-121.448	-97.022	-122.519	-8191	255	
695.000	1	1	0	0	0.2894	0.054677	0.2137	0.19838	0.2397	0.15183	0.22017	0.043858	0.29342	0.30646	0.29051	0.11776	0.15012	0.10105	0.07724	0.27921	0.31458	0.61667	-0.054167	0.38958	0.26667	-0.2375	0.37708	-0.04375	-0.16458	0.54375	-0.34583	0.20625	0.35417	-0.29375	0.66667	0.091667	79.380	115.578	-100.469	158.811	-15.193	-82.147	152.049	-46.499	-45.287	174.889	193.354	-110.202	159.344	-130.099	42.118	182.403	0.00077294	0.00029611	0.00025088	1246.7	3.6579e-06	5.6547e-06	1241	338.27	4.2607e-06	2.4905e-06	389.83	131.6	114.31	39.256	9.4005e-06	48.727	0.00028267	0.00027342	7.6034e-05	1244.2	3.0335e-06	3.023e-06	1243.9	339.47	3.022e-06	3.042e-06	386.51	130.46	113.72	39.177	3.0618e-06	48.7	-7.684	-80.343	-3.923	-135.192	-56.335	-35.407	-135.444	-130.310	-64.882	14.123	-131.178	-127.082	-125.934	-121.467	-13.687	-122.760	-8191	255	
695.121	1	1	0	0	0.084607	0.30729	0.054274	0.22314	0.2644	0.20298	0.26722	0.3833	0.085691	0.11577	0.19012	0.38827	0.14742	0.057391	0.18569	0.30045	0.36042	0.66042	-0.15417	0.20417	0.48542	-0.04375	0.41042	0.1125	0.0125	0.65208	-0.23958	0.09375	0.42292	-0.28958	0.59167	0.30833	85.529	145.641	-95.004	195.122	-104.475	159.707	180.086	201.747	-85.870	-70.764	-46.030	152.106	208.317	-8.404	70.327	33.634	0.00066839	0.00029006	0.0001187	1244	4.0651e-06	5.6434e-06	1243.6	340.1	8.7948e-06	3.2319e-06	388.33	131.57	114.16	39.273	1.1449e-05	48.782	0.00028796	0.00028238	7.8056e-05	1244	3.0631e-06	3.0599e-06	1244.1	339.66	3.0478e-06	3.0567e-06	385.94	130.32	113.86	39.2	3.0139e-06	48.606	-13.450	-98.249	6.116	-135.396	-19.139	23.222	-135.598	-130.464	-84.665	31.536	-131.406	-126.734	-126.014	-121.234	31.474	-122.546	-8191	255	
695.192	1	1	0	0	0.068162	0.20918	0.15582	0.15612	0.17906	0.013367	0.43284	0.32934	0.14542	0.16512	0.2007	0.16603	0.33369	0.14006	0.26485	0.091483	0.1625	0.47292	-0.014583	-0.15833	0.675	-0.20833	0.51875	0.22708	-0.20833	0.66042	-0.097917	0.020833	0.64792	-0.225	0.45833	0.19792	209.920	-71.259	207.613	131.409	130.387	188.549	134.851	185.935	118.728	67.743	-133.477	21.568	-130.047	186.491	-106.533	192.096	0.00084107	0.00036403	5.55e-05	1246.9	8.1172e-06	4.1999e-06	1242.9	338.63	7.8779e-06	5.7966e-06	389.62	131.25	113.8	39.172	4.5987e-06	48.591	0.00028274	0.00027954	7.6557e-05	1243.9	3.025e-06	2.9894e-06	1244.4	339.08	2.9741e-06	2.9543e-06	385.76	130.2	113.67	39.179	3.0007e-06	48.521	-1.828	-77.458	1.036	-135.289	-27.188	15.344	-135.581	-130.440	-135.955	159.915	-131.344	-126.789	-126.285	-121.522	-20.878	-122.495	-8191	255	
695.289	1	1	0	0	0.11386	0.10563	0.20722	0.30117	0.20572	0.18889	0.33498	0.071709	0.15603	0.29566	0.29353	0.36972	0.17934	0.11766	0.18753	0.35006	0.027083	0.67708	0.26667	-0.14167	0.65	-0.03125	0.10833	0.30833	-0.39792	0.47292	-0.12708	-0.325	0.49792	-0.054167	0.30833	0.57708	160.797	-26.481	126.009	160.515	-116.668	181.006	108.039	36.178	18.193	-33.921	-97.538	178.287	155.419	-123.151	-117.932	116.797	0.00083228	0.00022563	9.3267e-05	1242.6	7.3345e-06	4.5815e-06	1244	340.27	9.2889e-06	2.7557e-06	387.94	131.7	113.89	39.221	5.0291e-06	48.828	0.00028028	0.00027128	7.6475e-05	1241.2	3.0131e-06	3.0033e-06	1244.1	339.29	3.0147e-06	2.992e-06	385.32	130.25	113.7	39.123	3.0218e-06	48.632	-10.322	-39.206	-34.969	-135.145	-42.439	-13.602	-135.326	-130.435	-40.732	8.228	-131.034	-126.429	-125.993	-121.300	6.265	-122.262	-8191	255	
695.409	1	1	0	0	0.22064	0.15443	0.17328	0.084036	0.32086	0.27913	0.25486	0.16377	0.15265	0.057062	0.23283	0.20909	0.093628	0.18726	0.098568	0.17267	-0.17708	0.44375	0.26042	-0.29792	0.73958	-0.060417	-0.079167	0.55833	-0.26667	0.45208	0.052083	-0.40417	0.35625	-0.20833	-0.0875	0.59375	-38.389	-20.512	90.690	160.523	-82.670	-69.711	110.278	151.934	-106.482	77.982	140.222	151.556	29.603	-127.429	-136.512	9.319	0.00078302	0.0002925	0.00010028	1240.8	9.9774e-07	9.0124e-07	1239.9	339.65	5.5642e-06	3.4461e-06	388.86	131.64	113.66	39.271	3.7667e-06	48.63	0.00028214	0.00027538	7.5468e-05	1239.8	3.0026e-06	2.9904e-06	1241.6	338.97	2.9786e-06	2.9413e-06	385.29	130.05	113.5	39.078	2.9361e-06	48.502	-7.298	-55.161	-82.273	-134.894	-53.145	-55.388	-135.187	-130.401	-60.082	26.068	-130.891	-126.318	-125.771	-121.084	-60.051	-122.420	-8191	255	
695.505	1	1	0	0	0.015371	0.13536	0.16673	0.24037	0.068536	0.21689	0.40417	0.24185	0.075443	0.14628	0.11767	0.191	0.28618	0.24377	0.20071	0.25447	0.21667	0.30833	0.44792	-0.27708	0.59583	0.24792	-0.11875	0.43542	-0.35833	0.34583	0.17083	-0.22917	0.31042	-0.12292	-0.060417	0.5625	-126.365	134.801	112.033	210.925	200.810	41.671	110.543	201.587	-43.635	111.424	158.692	-104.890	155.933	114.936	-9.551	-88.967	0.00050753	0.00042286	8.5277e-05	1243.6	2.8891e-06	1.1062e-06	1237.5	339.19	9.3442e-06	5.7155e-06	387.5	131.5	114.04	39.299	8.7947e-06	48.349	0.000274	0.00026546	7.352e-05	1240.1	2.9005e-06	2.9068e-06	1239.6	338.52	2.9184e-06	2.8818e-06	384.89	130	113.5	39.055	2.9e-06	48.35	-8.327	-94.439	-52.418	-134.929	-73.621	-26.645	-135.239	-130.344	-92.459	-7.634	-130.711	-126.371	-125.719	-120.794	-17.785	-122.299	-8191	255	
695.601	1	1	0	0	0.13767	0.18228	0.083742	0.2495	0.10358	0.041493	0.097502	0.36899	0.19152	0.2766	0.054834	0.24257	0.14774	0.19337	0.43237	0.44729	0.36458	0.21667	0.65625	-0.1625	0.60208	0.325	-0.22708	0.33542	-0.33333	0.18333	0.33958	-0.28333	0.15	0.060417	-0.16875	0.57292	172.057	-42.238	76.978	158.018	50.311	-49.054	31.256	159.496	62.153	-89.740	198.695	92.739	115.238	-127.180	114.064	79.400	0.0008216	0.00018092	5.9367e-05	1242	4.5367e-06	2.4e-06	1239	338.57	4.8535e-06	7.238e-06	389.04	131.05	113.21	39.271	5.8455e-06	48.758	0.00027415	0.0002646	7.3988e-05	1237.9	2.9559e-06	2.9693e-06	1238.7	338	2.9492e-06	2.962e-06	384.74	130.02	113.25	39.11	2.9918e-06	48.504	-9.410	-24.831	-22.787	-134.802	-42.593	12.055	-135.243	-129.850	-36.477	-56.177	-130.949	-126.520	-126.150	-121.273	-99.910	-122.133	-8191	255	
695.698	1	1	0	0	0.15721	0.07288	0.10595	0.27828	0.12462	0.13631	0.10911	0.26831	0.042108	0.17701	0.18924	0.15056	0.20499	0.30006	0.19048	0.18788	0.28542	0.35	0.88958	-0.29375	0.55208	0.3625	-0.43542	0.51458	-0.10833	-0.027083	0.54792	-0.45833	0.37083	0.3125	-0.095833	0.48542	67.167	150.495	2.165	-124.341	-28.407	168.740	132.374	128.845	53.132	158.404	147.855	173.260	-143.524	182.240	-119.822	94.373	0.00075872	0.00024135	0.00015498	1242.4	7.0771e-07	2.8493e-06	1239.5	339.02	7.8487e-06	1.8848e-06	388.35	130.95	114.09	39.071	4.82e-06	48.504	0.00028551	0.00027881	7.7201e-05	1239.9	3.0606e-06	3.0508e-06	1240.3	338.69	3.0686e-06	3.0432e-06	384.69	130.01	113.48	39.145	3.0635e-06	48.501	-14.933	-107.560	-66.981	-134.744	-27.771	4.166	-135.275	-130.107	-38.142	69.482	-130.651	-126.269	-125.950	-121.004	5.966	-122.290	-8191	255	
695.794	1	1	0	0	0.1415	0.010378	0.16504	0.1198	0.16853	0.14956	0.24087	0.48851	0.22744	0.094673	0.25605	0.089834	0.27685	0.18914	0.051441	0.17683	0.3625	-0.1	0.56875	-0.35417	0.20208	0.34583	-0.20625	0.525	0.2	-0.13542	0.30208	-0.45625	0.022917	0.42292	-0.18333	0.5125	195.573	-61.639	143.083	147.060	-27.514	-10.517	169.267	130.090	26.391	-14.970	146.789	-51.958	197.748	108.004	-77.055	109.474	0.00086395	0.00018951	0.00011658	1246.2	3.4294e-06	3.5735e-06	1243.4	339.36	6.5933e-06	2.1947e-06	389.29	131.35	113.77	39.226	9.4751e-06	48.586	0.00028708	0.00027845	7.8065e-05	1242.4	3.1101e-06	3.0538e-06	1245.9	339.4	3.0608e-06	3.0292e-06	386.12	130.18	113.75	39.144	2.9591e-06	48.472	-20.345	-31.811	33.680	-134.999	-16.095	43.271	-134.944	-130.045	-81.507	22.592	-130.857	-126.476	-125.849	-121.194	5.179	-122.315	-8191	255	
695.890	1	1	0	0	0.16028	0.050764	0.22524	0.26466	0.2692	0.082016	0.13026	0.28447	0.17001	0.092898	0.14028	0.20658	0.31095	0.048455	0.44738	0.24567	0.65208	-0.19375	0.46875	-0.42292	-0.066667	0.44792	-0.59375	0.35208	0.21667	-0.12083	0.61667	-0.029167	-0.014583	0.44792	-0.27708	0.20208	206.557	204.843	-43.609	174.462	148.426	175.962	169.391	203.283	175.026	-85.617	167.917	3.305	137.287	135.361	-63.297	-103.066	0.00084409	0.00061741	0.00019126	1244.7	7.4031e-06	2.5729e-06	1243.6	339.27	2.7473e-06	5.8216e-06	389.2	131.82	113.45	39.269	8.8642e-06	48.784	0.00028017	0.00027174	7.4826e-05	1241.2	2.9781e-06	2.9665e-06	1242.4	338.87	2.9834e-06	2.9643e-06	385.48	130.27	113.53	39.158	2.9764e-06	48.548	-8.048	-100.684	-73.024	-134.868	-68.861	-50.541	-135.005	-130.115	-48.706	-77.896	-130.895	-126.497	-125.943	-121.144	47.942	-122.027	-8191	255	
696.009	1	1	0	0	0.1066	0.090454	0.055062	0.26764	0.096074	0.021464	0.23547	0.1122	0.35009	0.18409	0.26162	0.067643	0.19354	0.18994	0.071668	0.14027	0.64792	-0.2	0.71042	-0.16458	0.12292	0.66667	-0.23958	0.15208	0.11458	-0.41042	0.38542	-0.16875	-0.175	0.5875	0.05625	0.38542	204.525	210.359	-106.709	205.940	-85.491	81.860	82.752	90.071	137.641	147.493	205.249	209.401	142.855	168.087	69.831	-31.891	0.00079067	0.00056427	5.2025e-05	1245.7	3.698e-06	3.8966e-06	1244.2	339.35	6.7326e-06	7.1914e-06	388.11	131.53	114.05	39.386	4.9326e-06	48.791	0.0002826	0.00027191	7.6517e-05	1243.7	3.0226e-06	2.9938e-06	1243.5	339.21	3.0377e-06	3.0157e-06	384.86	130.17	113.61	39.199	3.0072e-06	48.667	-17.751	-81.407	17.692	-134.718	-47.280	12.510	-134.990	-130.103	-38.929	2.607	-130.695	-126.079	-125.861	-121.184	-76.547	-122.051	-8191	255	
696.105	1	1	0	0	0.13728	0.11475	0.19631	0.2619	0.18454	0.20326	0.36207	0.25987	0.23683	0.35089	0.17423	0.14175	0.27195	0.072794	0.11449	0.024368	0.71458	-0.28125	0.52917	-0.025	-0.00625	0.46042	-0.40833	0.14167	0.54583	-0.041667	0.50625	-0.00625	-0.31667	0.54167	-0.17917	-0.19167	-147.448	195.750	-143.454	145.963	68.436	196.992	190.864	140.359	13.793	199.435	-24.350	-139.067	184.026	-128.912	-124.473	105.311	0.00072806	5.9856e-05	0.00023273	1245.9	4.4795e-06	2.0599e-06	1240.5	340.91	2.5229e-06	4.4407e-06	388.91	131.83	113.93	39.386	3.7052e-06	48.831	0.00028384	0.00027329	7.6461e-05	1242.7	2.979e-06	2.9898e-06	1242.8	339.31	2.9355e-06	2.8644e-06	385.58	130.34	113.78	39.182	2.8371e-06	48.526	-17.240	81.272	-45.956	-134.736	-73.745	76.852	-135.101	-130.226	-64.137	-16.343	-131.079	-126.339	-125.781	-121.192	-26.861	-121.886	-8191	255	
696.201	1	1	0	0	0.10057	0.17676	0.11448	0.16331	0.11173	0.22666	0.49728	0.24134	0.26515	0.070619	0.10585	0.33057	0.20447	0.27271	0.03343	0.13258	0.84792	-0.34167	0.67292	0.29167	0.075	0.83542	0.025	0.035417	0.70208	-0.2	0.31458	0.24167	-0.36667	0.40208	-0.14375	-0.1875	38.196	71.376	-27.685	-83.118	-45.083	94.543	127.863	144.095	108.768	-28.802	166.905	59.153	190.094	208.447	180.896	65.221	0.00079588	0.00081639	0.0002351	1247	6.1594e-06	6.7511e-06	1242.4	339.17	3.7071e-06	1.6649e-06	387.83	132.52	114.62	39.122	6.4247e-06	49.193	0.00026618	0.00025807	7.1783e-05	1241.8	2.8021e-06	2.8205e-06	1243	338.48	2.8438e-06	2.8277e-06	385.23	130.28	113.88	39.149	2.8833e-06	48.655	-7.988	-139.535	-15.041	-134.734	31.913	-10.571	-135.146	-130.095	-42.253	-19.559	-130.703	-126.146	-125.822	-121.138	5.136	-122.237	-8191	255	
696.297	1	1	0	0	0.23608	0.10552	0.25771	0.20741	0.13607	0.28128	0.15112	0.27279	0.27866	0.18898	0.24776	0.051797	0.1654	0.29773	0.16722	0.24163	0.77917	-0.23542	0.3375	0.12708	-0.045833	0.67292	-0.047917	-0.17708	0.73333	-0.29167	0.46667	0.34583	-0.19167	0.61042	0.38333	-0.0083333	64.894	24.926	47.940	208.782	-29.868	121.307	-51.953	76.175	41.510	195.703	176.786	-112.543	-125.093	-46.721	153.192	175.011	0.00082843	0.00041203	8.8824e-05	1245.7	4.2018e-06	2.5607e-06	1241.2	340.74	7.0197e-06	4.0122e-06	388.45	131.25	113.95	39.28	3.2427e-06	49.196	0.00027049	0.00026819	7.4112e-05	1242.6	2.9412e-06	2.9497e-06	1244.9	339.61	2.9662e-06	2.9517e-06	385.62	130.41	113.82	39.187	2.9625e-06	48.712	-7.214	-107.205	-148.063	-134.938	22.863	-3.295	-135.020	-130.368	-24.223	35.933	-130.753	-126.709	-125.944	-121.393	-86.136	-122.524	-8191	255	
696.418	1	1	0	0	0.069238	0.13706	0.096204	0.24727	0.13706	0.15491	0.3678	0.1671	0.27251	0.15406	0.11478	0.13071	0.2353	0.29848	0.057803	0.068581	0.9625	0.04375	0.40208	0.32292	-0.089583	0.66667	0.10417	-0.25417	0.61458	-0.0083333	0.058333	0.56042	-0.21458	0.32917	0.15208	-0.37292	-148.031	96.350	119.035	180.734	132.321	62.592	134.287	67.484	-101.847	-119.359	129.136	-93.956	-73.441	117.250	112.876	-3.248	0.00082131	0.00066309	0.00021199	1242	4.6009e-06	4.6843e-06	1241.5	340.19	2.4682e-06	5.755e-06	388.89	131.24	113.55	39.349	6.0701e-06	48.889	0.0002814	0.00027465	7.5716e-05	1241.6	2.9953e-06	2.9973e-06	1243.2	339.47	2.9968e-06	2.9401e-06	385.24	130.2	113.76	39.198	2.9542e-06	48.606	-1.273	-116.834	-52.987	-134.507	-66.658	-31.669	-134.672	-130.189	-41.147	-54.393	-130.989	-126.246	-125.999	-121.078	-51.842	-122.146	-8191	255	
696.490	1	1	0	0	0.025267	0.13289	0.28037	0.081276	0.058494	0.1639	0.31346	0.22546	0.16849	0.089573	0.27191	0.17019	0.15915	0.21758	0.031101	0.12737	0.92917	-0.052083	-0.097917	0.525	-0.2	0.42917	0.14167	-0.56042	0.52917	0.0125	-0.079167	0.41458	-0.24583	0.2	0.56875	-0.42708	-122.869	164.687	109.439	-39.857	54.370	140.697	144.291	13.916	131.333	21.016	165.184	-134.858	141.647	-73.437	-50.183	-16.915	0.00083744	0.00041059	0.00010182	1243.1	4.6875e-06	3.9168e-06	1247	339.73	6.6175e-06	7.9174e-06	389.3	131.43	114.24	39.353	3.3061e-06	48.992	0.00027526	0.00026621	7.2915e-05	1242.5	2.9185e-06	2.9147e-06	1244.8	339.14	2.9047e-06	2.8904e-06	385.74	130.29	113.77	39.236	2.8975e-06	48.557	-8.480	-100.477	-67.496	-134.861	-11.478	-12.227	-135.027	-130.352	-59.256	-46.159	-131.091	-126.242	-125.895	-121.032	-17.423	-122.445	-8191	255	
696.586	1	1	0	0	0.20059	0.12533	0.26883	0.14372	0.08765	0.13701	0.35061	0.21731	0.064505	0.19898	0.17044	0.20482	0.071155	0.21587	0.048697	0.16819	1.0792	0.28333	-0.095833	0.43333	-0.14167	0.06875	0.027083	-0.51458	0.38333	0.11875	-0.32292	0.56667	-0.20833	0.17292	0.475	-0.28958	-36.390	148.738	158.988	210.823	-84.385	-12.350	155.797	141.798	148.999	3.202	183.739	204.312	106.314	-139.926	157.042	-135.261	0.00065615	0.00051531	0.00023668	1244.4	7.4026e-06	1.6205e-06	1237.8	340.38	5.6361e-06	3.681e-06	389.2	131.39	114.51	39.278	1.7625e-06	48.82	0.00027705	0.00026608	7.3782e-05	1242.5	2.9187e-06	2.9119e-06	1242.7	339.54	2.9192e-06	2.8965e-06	386.09	130.33	114.01	39.136	2.9329e-06	48.646	-3.323	-95.564	-99.663	-134.818	-74.907	54.169	-135.117	-130.349	-51.907	-89.259	-130.995	-126.510	-125.806	-121.518	35.206	-122.111	-8191	255	
696.682	1	1	0	0	0.059421	0.26522	0.053235	0.045035	0.26884	0.16553	0.22565	0.18323	0.26264	0.11554	0.16919	0.21035	0.25113	0.11338	0.20272	0.066995	1.0542	0.40625	-0.058333	0.54167	-0.05625	0.23333	0.40417	-0.52083	0.2625	0.3375	-0.20417	0.45208	-0.2	-0.097917	0.54583	-0.16458	-64.106	-93.935	35.340	189.867	210.132	-49.297	141.418	154.428	-48.738	60.357	175.744	182.444	-145.158	202.449	-50.785	-46.281	0.00065892	0.00037653	0.00016419	1243.7	1.2564e-06	6.5112e-06	1244.9	339.73	3.6668e-06	2.9768e-06	390.64	131.5	113.97	39.431	6.4142e-06	48.785	0.00027392	0.00026676	7.3537e-05	1241.4	2.9145e-06	2.8718e-06	1242.6	339.61	2.9346e-06	2.9024e-06	385.91	130.43	113.73	39.209	2.9155e-06	48.609	-1.698	-64.303	-72.454	-134.922	35.375	17.429	-134.946	-129.890	-123.263	-7.924	-131.185	-126.469	-125.558	-121.122	72.981	-121.931	-8191	255	
696.801	1	1	0	0	0.12523	0.23958	0.15449	0.42158	0.13524	0.11037	0.27968	0.26894	0.17783	0.15914	0.24705	0.26277	0.2697	0.28069	0.27712	0.072766	0.84375	0.34583	-0.21042	0.42708	0.064583	0.064583	0.26667	-0.45833	0.36875	0.5125	-0.32083	0.47917	0.21667	-0.025	0.65	-0.15	89.163	153.914	-38.964	188.348	105.286	199.857	146.646	-136.089	118.475	16.301	204.846	182.852	206.989	210.115	-116.014	-123.823	0.00075897	0.00027744	8.8896e-05	1246.7	7.6225e-06	3.0516e-06	1237.9	340.52	1.033e-05	7.0111e-06	388.68	131.89	114.66	39.522	8.6686e-06	48.539	0.00027541	0.00026643	7.3922e-05	1241.6	2.9249e-06	2.8918e-06	1242.3	339.63	2.9008e-06	2.9091e-06	385.8	130.44	113.89	39.254	2.8939e-06	48.571	-20.808	-3.117	-40.718	-134.816	-40.445	29.977	-134.802	-130.100	-48.916	-54.090	-131.063	-126.560	-125.753	-121.112	49.590	-121.896	-8191	255	
696.897	1	1	0	0	0.16125	0.075842	0.11074	0.14118	0.084209	0.0997	0.39547	0.31532	0.28656	0.13452	0.1911	0.1602	0.40151	0.27881	0.29375	0.18613	0.54583	0.37292	-0.12917	0.35625	0.11667	-0.10833	0.39583	-0.275	0.36458	0.5625	-0.28958	0.3125	0.14375	-0.18333	0.80625	-0.0083333	11.085	121.788	148.657	204.025	-29.815	-95.174	121.693	47.481	205.200	-129.173	-121.126	47.252	193.327	-142.139	-55.767	197.782	0.00085635	0.00076045	7.4271e-05	1242.4	2.8803e-06	2.0612e-07	1234.3	339.85	3.3328e-06	3.4419e-06	390.87	131.47	114.39	39.413	8.4932e-06	48.899	0.00027107	0.00026466	7.302e-05	1239.4	2.8849e-06	2.8696e-06	1239.9	339.5	2.9235e-06	2.8946e-06	386.27	130.15	113.89	39.19	2.9399e-06	48.61	-9.343	-74.823	-76.512	-134.969	-53.958	153.896	-135.037	-130.011	-75.606	-5.336	-130.877	-126.595	-125.772	-121.222	51.092	-121.950	-8191	255	
696.993	1	1	0	0	0.27114	0.36176	0.33258	0.08202	0.22627	0.30465	0.22657	0.32499	0.22917	0.15439	0.11941	0.15137	0.1668	0.2366	0.20936	0.48932	0.51042	0.45625	-0.1	0.17083	0.27292	-0.37292	0.44583	-0.2375	-0.15417	0.54167	-0.42292	0.19375	0.13958	-0.38542	0.39792	0.05	-35.650	-40.188	-94.758	168.880	35.491	-32.247	126.124	120.718	-24.937	-134.657	-105.295	99.500	-101.652	141.914	136.007	86.512	0.00067292	0.00031523	0.00019601	1242.8	2.3287e-06	4.763e-06	1241.2	340.25	2.3617e-06	4.2641e-06	388.13	130.99	114.24	39.263	6.6879e-06	48.815	0.00027643	0.00026677	7.4281e-05	1240.8	2.9368e-06	2.9454e-06	1243.4	339.46	2.9359e-06	2.926e-06	386.06	130.15	114.02	39.203	2.9617e-06	48.691	-19.856	-4.098	-39.753	-134.877	-5.162	7.067	-135.141	-130.063	-46.377	-29.567	-130.806	-126.156	-125.711	-120.997	-11.199	-121.967	-8191	255	
697.089	1	1	0	0	0.17291	0.12199	0.12413	0.21362	0.27291	0.15999	0.10694	0.13439	0.20534	0.099053	0.083166	0.07697	0.22772	0.12911	0.20626	0.19588	0.37917	0.58333	-0.033333	0.23333	0.425	-0.42083	0.50417	0.079167	0.033333	0.54792	-0.34792	-0.03125	0.3625	-0.47083	0.68542	0.095833	-78.140	112.643	99.014	168.215	61.162	-144.427	61.834	208.246	211.557	107.827	181.134	-22.820	205.609	67.779	0.155	12.077	0.0007656	0.00024145	0.00012049	1249.1	4.4445e-06	1.7033e-06	1245.6	341.95	4.9082e-06	5.747e-06	388.45	131.68	114.14	39.39	3.0633e-06	48.962	0.0002763	0.00026694	7.4902e-05	1242.8	2.9637e-06	2.9456e-06	1245.7	340.2	2.9703e-06	2.9801e-06	385.78	130.43	113.79	39.235	2.9886e-06	48.632	-11.601	-77.650	-30.201	-134.891	-23.160	-32.155	-135.096	-130.104	-32.195	-20.263	-130.717	-126.636	-125.778	-121.113	-90.735	-122.003	-8191	255	
697.185	1	1	0	0	0.079324	0.057742	0.18994	0.23703	0.1927	0.076292	0.23941	0.10668	0.1081	0.097165	0.053572	0.044945	0.1822	0.075455	0.05588	0.15745	0.43125	0.74583	-0.085417	0.14375	0.40833	-0.25	-0.075	0.039583	-0.28542	0.69583	-0.089583	0.14583	0.44583	-0.33333	0.35	0.37083	177.711	180.833	20.511	153.643	-90.008	-146.763	167.245	136.836	205.370	-143.227	82.301	-134.946	96.195	-59.717	35.901	63.183	0.00082072	0.00017442	0.00011906	1243.9	4.0279e-06	4.2015e-06	1245.5	340.42	3.3098e-06	6.6719e-06	388.93	131.73	114.85	39.352	7.549e-06	48.875	0.00028066	0.00027492	7.6079e-05	1244.1	2.9705e-06	2.9701e-06	1245.7	339.7	2.9646e-06	2.9684e-06	385.57	130.5	114.04	39.233	2.9669e-06	48.698	-11.717	-131.831	-54.165	-135.046	2.783	30.459	-135.319	-130.293	44.492	-20.576	-131.491	-126.714	-126.077	-121.462	-80.217	-122.199	-8191	255	
697.282	1	1	0	0	0.064798	0.33405	0.24684	0.37082	0.027262	0.18878	0.2338	0.084997	0.034851	0.13523	0.24825	0.1666	0.089087	0.066723	0.11456	0.078432	-0.13542	0.37083	0.045833	-0.14583	0.5875	0.089583	0.375	0.36875	-0.17708	0.61667	-0.05625	0.064583	0.34167	-0.25833	0.25	0.55417	148.487	-131.125	122.686	-146.683	79.075	42.481	186.797	-108.248	-35.541	44.169	-98.027	184.766	98.632	-48.453	34.903	141.122	0.00096526	0.00030616	7.8792e-05	1244	3.6894e-06	6.9419e-06	1246.6	340.41	7.1261e-06	1.3549e-06	389.48	131.21	113.87	39.43	7.519e-06	48.659	0.00027529	0.00027191	7.4472e-05	1244.2	2.9917e-06	2.9787e-06	1245.6	339.63	2.9675e-06	2.9867e-06	386.21	130.28	113.85	39.249	2.9676e-06	48.529	-15.434	-134.605	-50.819	-134.918	-39.814	27.128	-135.308	-130.306	-53.384	31.395	-130.785	-126.741	-126.008	-121.208	16.161	-122.064	-8191	255	
697.378	1	1	0	0	0.24263	0.14253	0.17179	0.1458	0.023474	0.35688	0.21013	0.21356	0.093244	0.40565	0.40285	0.16474	0.13673	0.37854	0.11217	0.35618	0.27708	0.73958	0.10625	-0.29792	0.67917	-0.125	0.041667	0.31458	-0.27083	0.53125	0.15833	-0.1	0.475	-0.15625	0.19792	0.48958	71.212	-130.265	142.526	200.530	-133.046	118.585	210.988	193.747	26.470	47.136	195.047	66.989	202.714	-145.184	9.505	151.703	0.00083698	0.00063144	0.00015567	1248.6	3.5401e-06	6.2264e-06	1238.8	339.85	6.0718e-06	5.8901e-06	388.97	131.82	113.84	39.294	5.3705e-06	48.901	0.00028126	0.00027375	7.5171e-05	1243.6	3.0105e-06	2.9773e-06	1244.3	339.93	3.0063e-06	2.9689e-06	386.23	130.4	113.8	39.176	2.9524e-06	48.683	-17.476	-86.134	-38.068	-135.046	5.946	22.607	-135.088	-130.116	-36.482	8.590	-130.921	-126.324	-125.778	-121.232	10.901	-122.119	-8191	255	
697.498	1	1	0	0	0.078259	0.043705	0.22515	0.26026	0.072605	0.086592	0.16191	0.1743	0.17064	0.29224	0.11205	0.11914	0.11799	0.26936	0.11787	0.17854	0.25	0.36042	0.3375	-0.10625	0.57083	-0.04375	0.083333	0.37917	-0.13125	0.52708	0.25833	-0.10208	0.71667	0.029167	0.10833	0.425	182.351	-51.497	19.743	125.997	75.155	-77.468	-137.153	205.947	-132.420	-58.568	176.216	170.120	91.439	-65.593	140.673	-38.291	0.0007885	0.00068712	0.00013063	1246.2	3.5885e-07	2.8515e-06	1244.7	341.11	5.4075e-06	5.7113e-06	389.51	131.51	114.14	39.279	3.4957e-06	48.589	0.00027981	0.0002686	7.5513e-05	1244	2.9726e-06	2.9489e-06	1244.5	339.62	2.9986e-06	2.9515e-06	385.72	130.17	113.6	39.247	2.9614e-06	48.562	-14.151	-109.340	-55.525	-134.771	99.131	-5.548	-135.187	-130.183	-48.690	-26.281	-130.930	-126.372	-125.822	-120.981	-17.933	-122.302	-8191	255	
697.594	1	1	0	0	0.26467	0.02273	0.098957	0.19122	0.061904	0.16364	0.24776	0.10367	0.2027	0.23368	0.21636	0.25931	0.20957	0.022621	0.217	0.1295	0.15417	0.48125	0.22917	-0.17917	0.70833	0.23125	-0.26458	0.65417	0.014583	0.34792	0.53542	-0.19375	0.62917	0.24167	-0.1625	0.39792	158.934	130.645	-39.462	84.611	51.859	-106.149	95.334	-125.521	126.558	125.507	-77.982	180.327	-28.867	-136.140	-55.949	71.378	0.00073603	0.00048847	7.3459e-05	1244.6	5.6057e-06	3.8801e-06	1241.6	340.11	7.89e-06	6.9839e-06	387.77	131.18	114.46	39.246	7.3096e-06	48.596	0.00027934	0.00027199	7.5588e-05	1242.9	2.9794e-06	2.9813e-06	1243.1	339.29	3.0141e-06	3.0045e-06	385.7	130.26	113.89	39.2	3.0189e-06	48.514	-10.751	-27.318	-48.975	-134.832	44.317	-12.978	-135.104	-130.064	-46.143	28.696	-131.194	-126.310	-125.798	-121.186	26.767	-122.107	-8191	255	
697.691	1	1	0	0	0.21376	0.17862	0.08948	0.1619	0.16939	0.014774	0.27157	0.42716	0.17027	0.03253	0.22787	0.15612	0.16621	0.084456	0.27791	0.17925	0.035417	0.24583	0.51458	-0.089583	0.55417	0.2625	-0.23542	0.46042	-0.10417	0.022917	0.48958	-0.28542	0.40417	0.32917	0.075	0.60208	186.527	31.000	169.294	156.791	39.487	-140.999	209.741	202.268	98.713	-134.610	96.705	180.045	79.049	-47.820	188.326	9.191	0.00074467	0.00040248	0.0001427	1243.9	6.0628e-06	2.1925e-06	1238.8	339.06	6.8888e-06	6.4373e-06	388.99	131.56	113.98	39.139	5.1941e-06	48.638	0.00028502	0.00027613	7.6697e-05	1244.2	3.0582e-06	3.0223e-06	1242.3	339.59	3.0289e-06	3.0102e-06	385.89	130.45	113.74	39.16	3.0045e-06	48.512	3.950	-41.397	-72.649	-134.690	4.496	9.786	-135.220	-130.054	-67.687	-5.252	-130.618	-126.738	-125.881	-121.000	-51.616	-122.063	-8191	255	
697.787	1	1	0	0	0.088539	0.32118	0.19035	0.27012	0.020828	0.094264	0.26513	0.123	0.21625	0.25417	0.23156	0.14691	0.20921	0.18373	0.14478	0.048955	0.38125	0.08125	0.60208	-0.58125	0.41875	0.25	-0.26042	0.65833	0.12917	0.095833	0.60625	-0.13958	0.16875	0.21667	-0.06875	0.38333	139.274	198.247	-31.498	-127.216	168.972	-141.591	141.182	-5.239	183.803	114.770	162.613	107.085	-127.072	133.186	-38.028	-145.332	0.00094716	0.00029863	0.00014179	1245.1	3.7229e-06	3.8991e-06	1242.4	340.42	4.1043e-07	5.1316e-06	390.93	131.07	114.18	39.369	4.3813e-06	48.733	0.00027946	0.00027332	7.5684e-05	1242.2	2.9961e-06	2.9578e-06	1243.6	339.39	2.9992e-06	2.9608e-06	386.14	130.29	113.53	39.209	2.9909e-06	48.541	-12.800	-112.415	-2.014	-134.625	-94.855	-80.322	-135.065	-130.103	-83.670	-61.147	-131.141	-126.576	-125.797	-121.241	-39.708	-122.427	-8191	255	
697.881	1	1	0	0	0.12715	0.10365	0.29784	0.047369	0.21173	0.015626	0.17257	0.055517	0.1895	0.33813	0.10378	0.06745	0.33209	0.46188	0.18257	0.30299	0.475	0.097917	0.75	-0.10625	0.10625	0.43125	-0.40833	0.52708	0.2125	-0.15208	0.55833	-0.00625	0.15	0.5875	-0.041667	0.3875	201.375	-63.743	-46.122	87.327	195.902	9.949	204.214	-14.251	61.729	154.068	-142.910	-143.504	140.592	159.375	64.630	111.655	0.00061142	0.00026517	0.00016396	1248.3	5.1984e-06	6.8218e-06	1242.2	340.1	6.0302e-06	5.9029e-06	387.96	130.94	113.77	39.35	1.0723e-06	48.576	0.00028411	0.00027783	7.7669e-05	1243	3.0608e-06	3.0852e-06	1242.9	339.64	3.1158e-06	3.0822e-06	386.08	130.28	113.68	39.264	3.0672e-06	48.544	-6.257	-125.625	-93.063	-134.650	-56.080	50.118	-135.196	-130.016	-61.387	-5.018	-130.719	-126.515	-125.976	-121.131	80.105	-121.871	-8191	255	
697.977	1	1	0	0	0.26683	0.036786	0.23554	0.12562	0.22129	0.2191	0.10691	0.40652	0.08254	0.12862	0.13628	0.27687	0.13622	0.258	0.32138	0.21805	0.63542	0.020833	0.79792	-0.36875	-0.13958	0.51042	-0.49375	0.27083	0.4625	-0.3625	0.41458	-0.014583	0.025	0.69792	-0.2875	0.13958	11.404	115.232	60.304	-117.641	152.768	-113.667	-140.443	175.909	184.364	177.808	114.653	188.521	7.545	116.272	-132.078	69.521	0.0008543	0.00022927	0.00012819	1249.4	3.9255e-06	2.6698e-06	1240.6	340.64	4.6276e-06	3.3969e-06	389.41	131.29	114.03	39.188	5.5102e-06	48.748	0.00028659	0.00027857	7.7781e-05	1246.1	3.0372e-06	3.0779e-06	1245.2	339.51	3.0853e-06	3.0502e-06	386.18	130.13	113.84	39.197	3.0627e-06	48.69	-14.676	18.899	-28.690	-134.911	-1.610	28.523	-135.071	-130.300	-84.835	-47.991	-131.038	-126.477	-126.153	-121.253	13.241	-121.958	-8191	255	
698.098	1	1	0	0	0.13711	0.05767	0.021665	0.26146	0.17734	0.17106	0.085066	0.31624	0.13698	0.11889	0.22127	0.2034	0.19504	0.24909	0.078275	0.052966	0.6875	-0.28333	0.41458	0.0041667	0.18542	0.61042	-0.35	0.1875	0.48958	-0.47083	0.35625	0.1875	-0.1375	0.60625	-0.083333	0.33958	-64.586	-3.514	82.825	132.841	191.436	-34.305	51.725	126.406	-127.682	-97.893	179.322	165.377	161.658	130.118	109.396	97.276	0.00063355	0.00034118	0.00018277	1246.3	5.1038e-06	3.5109e-06	1244.5	340.01	5.0706e-06	2.5334e-06	388.7	131.55	114.28	39.21	1.2429e-05	48.921	0.00028667	0.00028043	7.7434e-05	1244.5	3.0481e-06	3.0358e-06	1245.6	339.2	3.0099e-06	3.0032e-06	385.65	130.4	113.87	39.172	2.9925e-06	48.586	-9.438	-140.076	-35.242	-134.731	-30.189	77.609	-135.130	-130.375	-75.410	13.189	-130.970	-126.494	-125.827	-121.097	-19.800	-122.178	-8191	255	
698.194	1	1	0	0	0.12061	0.12235	0.20486	0.326	0.1544	0.33564	0.25464	0.047072	0.32531	0.066474	0.11333	0.086954	0.31055	0.11179	0.19545	0.20632	1.1125	-0.21458	0.70625	0.05	0.17083	0.56667	-0.29792	0.041667	0.4875	-0.30208	0.27917	0.225	-0.29792	0.62917	-0.12083	0.225	28.848	32.109	-1.775	-121.084	-130.556	-46.854	-103.879	186.073	-27.969	29.379	-35.447	146.077	211.893	-145.083	47.940	114.853	0.00088578	0.00030504	0.00017497	1246.3	1.9951e-06	2.1039e-06	1240.2	339.63	6.9555e-06	5.707e-06	387.01	131.77	114.12	39.337	4.6992e-06	48.803	0.0002809	0.0002713	7.589e-05	1244.2	2.9834e-06	2.9612e-06	1244.3	339.56	2.9965e-06	2.9769e-06	384.87	130.35	113.73	39.17	2.9654e-06	48.554	-1.020	-60.859	-57.454	-134.849	-121.740	151.480	-135.017	-130.036	-94.549	-27.324	-131.083	-126.589	-125.772	-121.112	8.526	-122.386	-8191	255	
698.290	1	1	0	0	0.076335	0.33195	0.11405	0.050809	0.22409	0.17383	0.092305	0.38627	0.10413	0.21172	0.14292	0.28348	0.12693	0.11922	0.23872	0.044367	1	-0.1	0.36875	0.05	-0.2125	0.5375	-0.089583	-0.083333	0.75625	-0.10208	0.15625	0.40833	-0.28125	0.35	-0.17917	-0.24167	129.834	141.893	-30.713	121.206	-3.296	111.898	-5.220	201.614	-63.847	-65.174	-124.311	-107.235	-23.138	121.193	-99.548	161.368	0.00080509	0.00018013	0.00014547	1242.7	3.9016e-06	5.742e-06	1244.8	339.69	9.9136e-06	2.4038e-06	386.74	131.77	113.77	39.275	5.1807e-06	48.657	0.00028462	0.00027591	7.6326e-05	1242.2	3.0211e-06	3.0129e-06	1244.5	338.74	3.0464e-06	3.0006e-06	385.39	130.46	113.71	39.15	3.0138e-06	48.54	-7.802	46.525	-50.177	-134.794	-88.205	10.612	-135.008	-130.223	-22.922	-7.471	-130.981	-126.655	-125.893	-121.275	-21.442	-122.461	-8191	255	
698.362	1	1	0	0	0.13262	0.32646	0.13634	0.2435	0.12462	0.096044	0.2825	0.21655	0.32468	0.094194	0.14131	0.1001	0.064386	0.31525	0.17776	0.16063	0.68542	-0.35833	0.23125	0.14583	-0.44583	0.29583	-0.29167	-0.28125	0.4875	-0.43958	0.075	0.33542	-0.275	0.18958	0.11458	-0.37917	50.570	-88.698	197.922	-20.724	-54.400	-93.803	182.256	183.781	4.072	-123.734	135.395	143.167	147.276	94.390	-115.328	147.728	0.00073648	0.00035937	7.292e-05	1244.7	2.2158e-06	4.8952e-06	1240.6	340.51	5.368e-06	3.1585e-06	388.67	131.61	113.95	39.441	1.3377e-06	48.647	0.0002832	0.00027282	7.6079e-05	1241.4	3.0099e-06	2.9834e-06	1242.5	339.95	2.9957e-06	2.9624e-06	386.09	130.38	113.84	39.189	3.0199e-06	48.531	-7.433	-86.308	-57.366	-134.938	-21.990	-11.679	-135.005	-130.251	-36.643	1.333	-131.010	-126.356	-125.805	-121.086	-53.736	-122.072	-8191	255	
698.483	1	1	0	0	0.42055	0.28358	0.30978	0.31792	0.096684	0.089706	0.38707	0.31158	0.1272	0.34296	0.32439	0.10008	0.28692	0.3997	0.049408	0.091221	0.84583	-0.15	0.033333	0.30208	-0.22708	0.19583	-0.08125	-0.3875	0.52917	-0.20625	-0.15208	0.29583	-0.50625	0.45833	0.25417	0.01875	181.875	77.797	-53.453	86.534	159.928	4.169	163.646	-116.298	105.478	30.688	-113.755	-87.276	123.322	125.711	177.047	-110.800	0.00083634	0.00042467	0.00015718	1245.1	1.2037e-06	5.2793e-06	1243.6	341.01	4.4837e-06	5.6852e-06	388.73	131.46	113.8	39.339	3.7294e-07	48.602	0.00028145	0.00027481	7.6311e-05	1242.7	3.052e-06	3.0266e-06	1245.6	339.9	3.0222e-06	3.0339e-06	386.27	130.29	113.79	39.204	3.0165e-06	48.518	-17.745	-53.266	-15.328	-134.766	12.282	27.400	-135.080	-130.245	-134.311	-30.377	-130.935	-126.434	-125.583	-121.075	134.256	-122.332	-8191	255	
698.579	1	1	0	0	0.074011	0.2182	0.35204	0.20873	0.33456	0.18009	0.11337	0.35705	0.26629	0.052032	0.17972	0.18226	0.03333	0.10867	0.18183	0.20587	1.0646	0.28125	0.21458	0.54375	0.020833	0.34375	0.3	-0.28958	0.62083	0.15833	0.14583	0.66458	-0.18333	0.33333	0.46667	-0.40833	187.409	107.431	92.165	-72.047	156.589	75.973	177.687	153.419	-60.950	159.317	-31.799	211.320	117.257	205.502	172.996	125.947	0.00075047	0.00028767	4.8689e-05	1246.8	7.2591e-06	6.7157e-06	1244.6	339.59	3.4847e-06	2.3995e-06	387.61	131.64	114.25	39.244	3.4263e-06	48.84	0.00028433	0.00027628	7.6706e-05	1244.7	3.0616e-06	3.0386e-06	1246.2	339.79	3.0601e-06	3.0269e-06	385.47	130.34	113.93	39.206	3.0591e-06	48.593	-6.100	-51.791	-15.903	-134.732	2.801	-20.592	-135.303	-130.240	209.761	-16.781	-130.946	-126.295	-125.711	-120.865	-23.992	-122.262	-8191	255	
698.675	1	1	0	0	0.098677	0.1559	0.11592	0.32506	0.27075	0.29983	0.20007	0.11151	0.39568	0.17719	0.18525	0.3969	0.10291	0.33593	0.1552	0.11413	0.74583	0.083333	-0.29375	0.36667	0.05	0.16667	0.20208	-0.4	0.42292	0.15833	-0.12083	0.66458	-0.19583	0.083333	0.64167	-0.06875	210.172	-24.031	-64.365	159.117	196.366	-109.045	123.902	207.592	128.383	-11.025	192.727	187.083	92.224	93.495	43.429	92.064	0.00072065	0.00052311	0.00010403	1245.6	3.7264e-06	4.3558e-06	1243.9	339.15	5.2393e-06	4.8194e-06	386.7	131.65	114.1	39.209	5.2856e-06	48.645	0.00028579	0.00027812	7.7125e-05	1244	3.0914e-06	3.04e-06	1245	339.62	3.0882e-06	3.0381e-06	385.37	130.29	113.75	39.121	3.0608e-06	48.557	-11.170	-58.266	-8.507	-134.856	-23.251	-58.836	-135.174	-130.138	-35.158	4.641	-130.929	-126.748	-125.856	-121.416	-27.214	-122.421	-8191	255	
698.771	1	1	0	0	0.40061	0.12059	0.20513	0.17157	0.08643	0.23607	0.31653	0.24396	0.11615	0.16577	0.23005	0.27202	0.19025	0.17767	0.097205	0.21786	0.75208	0.35417	0.095833	0.3375	0.16667	-0.083333	0.27917	-0.36042	0.31667	0.47083	-0.44792	0.63958	-0.035417	0.12708	0.68333	0.029167	26.636	-8.884	-127.464	122.162	-21.832	113.258	170.191	140.175	54.525	-115.642	195.093	139.450	-133.116	-95.218	147.666	180.144	0.00080759	0.00050302	0.00010645	1247.5	7.2231e-06	1.0594e-06	1242	340.28	5.7434e-06	7.6479e-06	389.01	130.39	113.9	39.367	6.9969e-06	48.763	0.00028782	0.00028258	7.7912e-05	1244	3.1221e-06	3.0799e-06	1243.6	340.02	3.0757e-06	3.0635e-06	386.13	129.78	113.82	39.215	3.0521e-06	48.619	-8.312	-100.991	-15.478	-134.931	-37.030	-37.998	-135.198	-130.090	-43.642	-10.583	-131.073	-126.440	-125.756	-121.009	-28.488	-121.979	-8191	255	
698.892	1	1	0	0	0.33867	0.20844	0.21668	0.44229	0.27428	0.16211	0.10795	0.2898	0.15386	0.067602	0.28901	0.24562	0.21831	0.080358	0.15722	0.18781	0.71667	0.46042	-0.30625	0.27917	0.097917	-0.083333	0.37292	-0.275	0.2	0.2875	-0.43958	0.45208	-0.041667	-0.25208	0.63125	-0.33333	-111.568	151.693	146.647	-126.409	-57.172	196.401	207.681	-17.722	-89.644	-9.144	-147.061	130.704	-59.617	26.800	132.542	-71.535	0.00097912	0.00070934	0.00010707	1245.9	4.9267e-06	3.0425e-06	1240.1	340.39	5.2233e-06	7.8737e-06	390	130.82	113.37	39.292	6.0698e-06	48.728	0.00028663	0.00027578	7.7684e-05	1242.4	3.045e-06	3.0423e-06	1242.2	339.57	3.0696e-06	3.0485e-06	386.46	130.05	113.53	39.158	3.0583e-06	48.627	-18.319	-108.822	2.463	-134.846	-29.466	4.971	-135.131	-130.283	-59.762	12.854	-130.960	-126.435	-125.954	-121.025	-59.244	-122.170	-8191	255	
698.962	1	1	0	0	0.087844	0.41051	0.080692	0.33457	0.0080223	0.023639	0.12771	0.18888	0.049913	0.2815	0.16054	0.21916	0.12884	0.35337	0.13327	0.25257	0.44792	0.4125	-0.2875	0.44167	0.37083	-0.16458	0.45	-0.23125	-0.072917	0.49792	-0.40625	0.075	0.14375	-0.21458	0.71042	0.08125	118.605	-64.099	133.331	138.463	159.060	-111.660	-141.896	204.997	147.796	-97.785	-132.707	151.193	-119.698	173.751	35.056	-119.572	0.000762	0.00030021	4.5164e-06	1244.6	2.164e-06	3.9724e-06	1243.9	339.8	1.6698e-06	2.6388e-06	389.32	130.99	114.24	39.312	3.9057e-06	48.859	0.00028227	0.00027781	7.7052e-05	1242.6	3.0428e-06	3.0434e-06	1243.6	339.3	3.0263e-06	2.9947e-06	384.86	130.05	113.78	39.142	3.0062e-06	48.592	-6.029	-24.174	-68.519	-134.742	-81.056	63.627	-135.340	-130.074	-56.983	14.702	-130.872	-126.273	-125.691	-121.329	-50.645	-122.261	-8191	255	
699.059	1	1	0	0	0.11166	0.19546	0.28595	0.131	0.27392	0.14126	0.093075	0.016487	0.25294	0.10585	0.13327	0.1035	0.25251	0.24687	0.093718	0.082512	0.3875	0.57708	-0.20625	0.11458	0.29167	-0.39792	0.2	-0.15208	-0.089583	0.49583	-0.27917	0.175	0.35	-0.37292	0.43125	-0.085417	73.240	164.239	-7.040	181.626	-59.296	-5.825	37.788	-31.750	-137.034	-101.273	163.470	63.631	-6.778	196.693	-15.845	61.879	0.00081156	0.00028803	0.00013934	1242.8	6.4557e-06	3.0759e-06	1237.9	339.68	5.8601e-06	4.4521e-06	388.43	131.09	113.94	39.051	8.9739e-06	48.725	0.0002831	0.0002752	7.6627e-05	1241.8	3.0426e-06	3.0221e-06	1240.9	339.39	3.0276e-06	3.0218e-06	385.92	130.04	113.72	39.104	3.0201e-06	48.563	-7.330	196.987	-45.504	-134.809	-67.587	-90.336	-135.151	-130.083	-58.287	53.471	-130.843	-126.425	-125.851	-121.027	-23.864	-121.975	-8191	255	
699.178	1	1	0	0	0.10036	0.18248	0.091483	0.20163	0.06744	0.23076	0.1848	0.20509	0.099187	0.16647	0.15109	0.1562	0.1128	0.1246	0.21596	0.15265	0.25208	0.69583	-0.091667	0.21875	0.49375	-0.064583	0.35833	0.12083	-0.014583	0.60417	0.0020833	0.2875	0.72917	-0.44583	0.50417	0.23125	1.960	13.457	81.869	116.139	-92.483	50.907	133.991	168.310	-46.710	125.099	-108.897	100.276	-102.436	65.371	-8.284	202.844	0.00090218	0.00046838	0.00016007	1249.9	1.7049e-06	1.3691e-06	1236.3	339.73	1.0474e-05	8.6617e-06	390.2	131.88	114.32	39.334	4.1538e-06	48.802	0.00028583	0.00027363	7.6908e-05	1244	2.9982e-06	3.0016e-06	1242	339.73	3.0239e-06	2.9944e-06	386.37	130.36	114.15	39.208	3.0029e-06	48.641	-17.305	-40.498	-31.575	-135.316	-79.396	-22.119	-135.290	-130.175	-38.429	23.741	-130.854	-126.505	-126.111	-121.259	-14.985	-122.032	-8191	255	
699.274	1	1	0	0	0.074097	0.073646	0.15241	0.35532	0.073871	0.20494	0.20284	0.16007	0.26286	0.17719	0.18762	0.39018	0.046934	0.24151	0.14061	0.057268	-0.14583	0.50833	-0.06875	-0.125	0.43542	-0.35625	0.25	0.14167	-0.27292	0.70625	0.00625	-0.06875	0.33125	-0.35625	0.35625	0.28542	199.644	-140.665	20.976	128.844	-95.182	-130.619	146.709	132.989	146.374	171.557	-89.900	-18.087	146.771	129.136	146.187	169.589	0.000864	0.00034872	0.0002101	1247.1	1.237e-06	7.5863e-06	1241.4	339.85	1.1362e-05	4.4645e-06	389.36	130.91	113.69	39.337	5.0899e-06	48.565	0.00028405	0.00027394	7.6323e-05	1244.5	3.0128e-06	3.0168e-06	1244.1	339.71	3.0294e-06	2.9966e-06	386.24	130.26	113.84	39.213	3.002e-06	48.557	-17.756	-122.576	-49.715	-134.902	-84.081	9.405	-135.311	-130.152	-68.577	-94.004	-131.040	-126.559	-125.899	-121.421	-65.335	-122.431	-8191	255	
699.371	1	1	0	0	0.046198	0.068374	0.10702	0.086492	0.12547	0.2364	0.25393	0.13205	0.1402	0.19419	0.036055	0.17232	0.28289	0.27267	0.15063	0.2006	0.060417	0.4875	0.1	-0.27917	0.44167	-0.17917	0.26667	0.53125	-0.34792	0.75	0.12292	-0.085417	0.75833	-0.34375	0.34167	0.44792	-124.065	-92.661	127.086	-40.296	193.066	160.583	168.369	151.318	-34.238	-135.032	74.597	150.546	-144.593	149.552	128.211	195.578	0.00075022	0.00074443	0.0002065	1246.6	1.3705e-06	3.3635e-06	1241.6	340.17	6.1756e-06	3.8245e-06	388.97	130.86	114.05	39.192	7.6934e-06	48.807	0.00028543	0.00027794	7.6455e-05	1244	3.0743e-06	3.0361e-06	1244.3	339.78	3.0596e-06	3.0467e-06	385.77	130.09	113.76	39.187	3.0409e-06	48.693	-14.247	-40.297	-19.590	-134.953	165.067	7.573	-135.349	-130.195	-79.452	-14.556	-130.803	-126.560	-125.903	-121.255	37.405	-122.605	-8191	255	
699.491	1	1	0	0	0.13064	0.31007	0.27593	0.46805	0.090357	0.23261	0.44701	0.26105	0.24331	0.17648	0.23322	0.11651	0.1754	0.33488	0.15125	0.071776	0.039583	0.44583	0.46667	-0.39375	0.63125	0.13958	-0.14583	0.34167	-0.16042	0.19167	0.28958	-0.15	0.52708	-0.24375	-0.060417	0.54792	-93.843	179.302	188.100	-146.080	192.019	-138.344	181.401	168.519	-32.017	-113.156	152.719	66.818	43.489	183.151	53.579	64.809	0.0007994	0.00014211	7.8666e-05	1243.2	5.2262e-06	5.0108e-06	1244.9	341.12	6.686e-06	4.2781e-06	388.46	131.69	113.91	39.179	7.1756e-06	48.793	0.00028505	0.00027849	7.6747e-05	1242.5	3.064e-06	3.0203e-06	1245.1	340.11	3.0313e-06	3.004e-06	385.69	130.61	113.83	39.212	3.03e-06	48.539	-15.259	-128.463	16.493	-134.965	-79.272	-19.242	-135.233	-130.114	-64.321	12.345	-131.149	-126.726	-126.037	-121.180	-62.954	-122.295	-8191	255	
699.587	1	1	0	0	0.15112	0.202	0.17579	0.078451	0.22478	0.20226	0.29646	0.19209	0.072677	0.25029	0.082657	0.2135	0.20916	0.12778	0.26451	0.15374	0.0625	0.40417	0.24167	-0.30625	0.57083	-0.0875	-0.052083	0.76667	-0.1	0.28125	0.375	-0.325	0.34167	-0.00625	-0.091667	0.40833	5.778	-0.105	-122.066	50.844	22.594	-1.678	182.878	-125.504	11.052	205.465	-58.867	158.803	-135.541	-89.992	96.336	-86.384	0.00088334	0.00060308	0.00018275	1241.5	3.7253e-06	3.7987e-06	1243.6	339.28	4.7306e-06	4.38e-06	389.17	131.56	113.96	39.149	2.681e-06	48.743	0.00028382	0.00027517	7.6259e-05	1242.4	2.9952e-06	3.005e-06	1244.5	339.17	3.0245e-06	2.9943e-06	385.67	130.22	113.62	39.161	2.9941e-06	48.523	-4.287	-69.914	-38.307	-134.921	-40.274	27.395	-135.152	-130.365	-44.724	-22.117	-130.820	-126.597	-126.016	-121.145	197.344	-122.418	-8191	255	
699.659	1	1	0	0	0.06007	0.039105	0.33251	0.15656	0.12503	0.37586	0.22701	0.086544	0.20989	0.12048	0.22243	0.082047	0.19526	0.11839	0.039188	0.13461	0.23958	0.25625	0.65833	-0.31458	0.79583	0.35	-0.31667	0.725	-0.11042	0.066667	0.46875	-0.23542	0.475	-0.0041667	-0.18125	0.69792	-48.677	-125.738	154.213	-141.324	142.716	-88.797	127.192	-117.213	-92.010	-94.222	172.694	182.096	99.442	-43.023	90.078	204.550	0.00072171	0.0005171	0.00028943	1245.4	4.612e-06	4.9132e-07	1241.2	339.62	1.4253e-06	5.5445e-07	388.45	132.06	113.92	39.38	6.1799e-06	48.744	0.00028078	0.00027507	7.675e-05	1242.6	3.0419e-06	3.0192e-06	1242.6	339	3.035e-06	2.9993e-06	385.45	130.46	113.75	39.255	3.0156e-06	48.547	-16.457	-30.410	-44.400	-135.096	-36.913	-105.230	-135.219	-130.415	-62.499	2.685	-130.990	-126.616	-126.084	-121.298	-65.712	-122.203	-8191	255	
699.755	1	1	0	0	0.10428	0.087414	0.1073	0.18364	0.12723	0.20946	0.17398	0.079601	0.16352	0.13999	0.069389	0.2762	0.2339	0.19772	0.18595	0.15176	0.39167	0.16458	0.57917	-0.30833	0.42292	0.16667	-0.54792	0.36875	-0.29792	-0.0083333	0.46667	-0.34792	0.19167	0.20208	-0.2875	0.4	-101.734	-87.234	150.278	180.664	102.839	-68.187	-124.315	170.423	-124.904	-59.357	10.479	112.443	159.184	126.386	137.862	122.221	0.000913	0.00012936	0.00014463	1245.9	1.6964e-06	4.9826e-06	1235.7	340.26	3.6614e-06	6.8422e-06	387.88	131.2	113.77	39.215	5.89e-06	48.724	0.00028423	0.00027467	7.6725e-05	1243.1	3.0215e-06	3.0058e-06	1242	339.37	2.9918e-06	2.9809e-06	385.39	130.21	113.63	39.206	3.0393e-06	48.562	-2.556	-17.250	-46.381	-134.999	114.925	41.908	-135.559	-130.308	-17.638	21.093	-131.037	-126.781	-126.019	-121.130	56.325	-122.341	-8191	255	
699.874	1	1	0	0	0.095338	0.44197	0.19381	0.25876	0.2879	0.23867	0.46332	0.34818	0.14794	0.068886	0.11075	0.11338	0.20485	0.20993	0.16557	0.21782	0.65	0.0625	0.60208	-0.27708	0.26667	0.50208	-0.50625	0.48333	0.17917	-0.15417	0.52083	-0.22708	0.1625	0.49375	-0.12917	0.30208	-129.753	-141.298	-28.953	-138.080	102.368	190.028	179.984	152.907	120.634	39.847	148.988	-67.898	193.519	-83.825	-48.234	-124.961	0.00073718	0.00050612	7.8339e-05	1241.6	4.4392e-06	2.4864e-06	1241	339.36	5.2677e-06	6.5605e-06	388.3	131.29	113.98	39.214	4.6783e-06	48.618	0.00028277	0.00027315	7.6654e-05	1240.1	3.0335e-06	3.0048e-06	1241.7	338.8	3.0341e-06	3.0025e-06	385.12	130.16	113.65	39.175	2.994e-06	48.606	-5.170	-73.266	-50.181	-135.118	-34.904	-57.137	-135.161	-130.093	-115.834	-8.275	-130.903	-126.513	-125.873	-120.993	16.926	-122.024	-8191	255	
699.970	1	1	0	0	0.26201	0.10975	0.36688	0.35005	0.084787	0.086847	0.07455	0.16004	0.27808	0.043081	0.30305	0.17701	0.068567	0.21744	0.074026	0.25883	0.30833	-0.2	0.48958	-0.325	0.058333	0.71875	-0.325	0.46875	0.45	-0.15625	0.59167	0.05625	0.11458	0.5125	-0.25833	0.25625	100.399	9.095	116.198	-142.175	106.607	150.783	146.380	83.720	48.786	67.611	197.589	211.095	-81.760	-27.383	-70.176	-139.566	0.00079092	0.00032854	0.00012511	1243.5	2.4804e-06	5.1163e-06	1238.3	339.46	3.4853e-06	6.3384e-06	387.96	131.45	114.37	39.364	4.8608e-06	48.989	0.00028066	0.00027487	7.6126e-05	1241.6	3.0037e-06	3.0245e-06	1240.4	339.03	3.0242e-06	2.9936e-06	385.38	130.21	113.81	39.231	3.0201e-06	48.617	-7.943	-136.815	4.269	-134.813	-57.157	-45.934	-135.310	-130.341	-103.601	31.692	-130.838	-126.593	-125.884	-120.945	-54.148	-122.480	-8191	255	
700.066	1	1	0	0	0.31549	0.1171	0.2059	0.040985	0.014997	0.045405	0.47035	0.031558	0.062193	0.08582	0.24203	0.044516	0.11542	0.092654	0.14531	0.15324	0.68125	0.1125	0.78542	-0.30417	-0.21875	0.56458	-0.41667	0.30208	0.67083	-0.19583	0.37292	-0.095833	-0.039583	0.62083	-0.10625	0.30625	168.602	125.629	139.794	202.957	65.648	-144.015	173.593	-30.104	57.671	-97.917	-34.023	10.777	-32.015	98.631	-13.833	201.789	0.00068114	0.00050464	5.2898e-05	1240.8	4.0763e-06	5.0555e-06	1241.2	338.76	3.7162e-06	4.4727e-06	386.93	131.25	113.9	39.194	3.4565e-06	48.698	0.00028056	0.00027289	7.5797e-05	1239.9	3.0186e-06	2.9803e-06	1241.7	338.96	3.0132e-06	2.9935e-06	384.25	130.14	113.61	39.137	3.0019e-06	48.595	-22.033	-50.726	-102.614	-134.868	-24.913	-9.369	-135.030	-130.330	-45.025	-38.008	-131.069	-126.541	-126.134	-121.240	54.537	-122.518	-8191	255	
700.163	1	1	0	0	0.24511	0.18006	0.1092	0.3751	0.12486	0.13685	0.17459	0.38603	0.22067	0.21586	0.16427	0.11817	0.19334	0.11749	0.20611	0.12359	0.75833	-0.34583	0.49375	-0.14167	-0.16042	0.68125	-0.34167	0.26667	0.58125	-0.21458	0.48333	0.25417	-0.24167	0.55417	-0.083333	0.077083	172.234	-116.533	52.508	163.764	14.854	68.482	-10.412	130.024	0.577	-105.608	156.344	-40.300	156.511	173.532	-38.118	149.074	0.00074284	0.00057118	8.8731e-05	1239.3	4.4755e-06	3.1368e-06	1240	338.29	3.1056e-06	7.2722e-06	388.15	131.24	113.85	39.415	5.8374e-06	48.52	0.0002792	0.00027239	7.6035e-05	1239.6	2.9938e-06	2.9795e-06	1241.9	338.13	2.9957e-06	2.9944e-06	385.13	129.94	113.57	39.124	2.9872e-06	48.494	-19.323	-62.904	-46.953	-134.929	16.168	-71.504	-135.140	-130.298	-16.994	7.764	-131.027	-126.778	-126.076	-121.165	-59.995	-122.470	-8191	255	
700.259	1	1	0	0	0.050467	0.15086	0.17822	0.30962	0.22478	0.15291	0.14191	0.25192	0.15703	0.19282	0.1864	0.23756	0.20501	0.19242	0.10292	0.24185	0.83542	-0.21667	0.61458	0.27083	0.060417	0.72083	-0.33125	-0.14792	0.58542	-0.31875	0.2	0.27292	-0.26042	0.47292	-0.21042	-0.08125	-129.873	-22.491	21.680	194.213	-83.750	101.253	-117.254	175.774	98.492	57.989	150.869	-120.545	-133.666	172.030	-72.869	58.059	0.00083932	0.00050084	0.00010063	1242.6	2.4325e-06	2.1634e-06	1240.9	338.31	8.039e-06	5.6876e-06	388.23	131.32	113.83	39.059	4.4615e-06	48.903	0.00028194	0.00026721	7.4761e-05	1240.3	2.9614e-06	2.9494e-06	1240.8	338.59	2.9838e-06	2.9282e-06	384.79	130.08	113.45	39.08	2.9346e-06	48.548	-16.469	-71.651	-84.014	-135.245	-49.863	57.754	-135.001	-130.362	-78.060	-35.325	-130.936	-126.456	-126.051	-121.309	-65.429	-122.114	-8191	255	
700.355	1	1	0	0	0.018439	0.12866	0.40984	0.47393	0.16182	0.14367	0.30632	0.20596	0.2914	0.054787	0.14189	0.10962	0.06441	0.13616	0.22988	0.090996	1.125	-0.089583	0.60833	0.36875	-0.10625	0.67083	0	-0.10417	0.54792	-0.23958	-0.066667	0.36667	-0.4	0.42083	0.32292	-0.23125	-89.451	115.593	15.164	204.409	3.187	9.284	188.013	-53.408	136.947	100.270	86.334	-15.680	179.361	169.107	179.284	192.185	0.0009938	0.00015753	9.1907e-05	1244.2	1.267e-06	5.8487e-06	1241.8	338.99	1.2791e-06	4.9706e-06	387.16	130.69	113.85	39.386	4.1252e-06	48.755	0.0002768	0.00026968	7.4921e-05	1239.4	2.924e-06	2.9347e-06	1240	338.67	2.9599e-06	2.937e-06	384.18	129.66	113.64	39.105	2.9405e-06	48.498	-4.019	0.834	-61.277	-134.824	15.280	9.741	-135.122	-130.502	84.082	-25.600	-131.081	-126.412	-125.931	-121.536	-41.227	-122.275	-8191	255	
700.451	1	1	0	0	0.057758	0.065748	0.052911	0.14047	0.11294	0.12954	0.27966	0.29256	0.18941	0.18183	0.095122	0.15494	0.10262	0.23619	0.14332	0.11325	1.0812	-0.077083	0.21458	0.34375	-0.45	0.3875	0.16042	-0.3375	0.54583	-0.12292	0.16875	0.65	-0.1625	0.525	0.32083	-0.16667	205.847	142.020	196.139	-89.342	-104.430	-19.476	91.812	168.716	148.508	71.428	164.311	128.250	167.663	-105.238	160.774	-130.199	0.00078796	0.0002999	0.00018474	1242	1.8456e-06	2.3112e-06	1239.6	339.56	4.9768e-06	1.3893e-06	388.28	131.24	113.96	39.14	1.2867e-06	48.848	0.00027873	0.00026656	7.3944e-05	1239.6	2.9331e-06	2.9368e-06	1240.4	338.91	2.9684e-06	2.9592e-06	384.89	130.08	113.55	39.066	2.9444e-06	48.479	-12.150	-68.607	-39.733	-135.111	-24.782	45.735	-135.195	-130.249	-119.110	81.002	-131.240	-126.634	-126.119	-121.481	-15.868	-122.407	-8191	255	
700.572	1	1	0	0	0.18252	0.12562	0.045584	0.18009	0.15579	0.33468	0.28073	0.15304	0.2044	0.19584	0.41465	0.11051	0.48695	0.25797	0.11304	0.17987	0.87917	0.052083	0.28125	0.63958	-0.075	0.42083	0.46875	-0.29792	0.7125	0.1	-0.022917	0.6625	-0.25208	0.32917	0.50833	-0.15	103.389	-5.053	62.571	187.141	-38.710	-89.404	106.739	-141.291	1.698	42.445	188.988	179.770	184.361	184.200	53.498	171.593	0.00083807	0.00042828	8.2068e-05	1239.2	2.9975e-06	2.6965e-06	1235.9	338.51	7.9791e-06	2.2557e-06	386.65	131.19	113.93	39.207	7.1881e-06	48.788	0.00027566	0.00026852	7.4231e-05	1237.6	2.961e-06	2.9341e-06	1239.9	338.03	2.9677e-06	2.9179e-06	384.09	130.05	113.49	39.036	2.9293e-06	48.458	-9.882	-139.742	22.797	-134.920	-69.952	66.670	-135.076	-130.238	-96.627	-25.590	-131.181	-126.435	-125.851	-121.451	-71.589	-122.183	-8191	255	
700.668	1	1	0	0	0.16647	0.26164	0.14855	0.27657	0.15068	0.0067789	0.19619	0.36643	0.30113	0.090853	0.011888	0.32237	0.18503	0.34024	0.26999	0.28241	1.15	0.18333	0.04375	0.4375	-0.17917	0.29792	0.26458	-0.32917	0.34167	0.27708	-0.21458	0.48125	-0.41667	0.15625	0.39375	-0.36875	-37.816	188.742	175.033	179.743	-134.972	34.769	22.258	167.137	99.224	-38.318	-130.057	-145.132	-145.106	200.817	-67.306	-147.655	0.00074337	0.00074786	0.00011705	1242.9	2.1696e-06	4.3603e-06	1237.6	336.95	5.6869e-06	6.481e-06	387.86	131.37	113.8	39.171	8.9494e-06	48.457	0.00027649	0.00026669	7.3756e-05	1236.5	2.9203e-06	2.915e-06	1238.7	337.78	2.9536e-06	2.9441e-06	384.5	129.77	113.35	38.998	2.973e-06	48.365	-6.763	-46.194	-59.209	-134.916	7.260	-28.872	-135.253	-130.173	-58.364	7.655	-131.042	-126.592	-125.876	-121.453	-26.953	-122.022	-8191	255	
700.764	1	1	0	0	0.047955	0.097482	0.16489	0.11308	0.18563	0.13794	0.22396	0.28856	0.2045	0.22202	0.20101	0.17968	0.052973	0.31656	0.058521	0.045744	0.66667	0.50833	0.0041667	0.5875	0.26667	0.12917	0.61875	0.0125	0.5875	0.55208	-0.1875	0.45417	-0.04375	0.045833	0.65833	-0.24167	-36.890	155.340	26.674	-96.806	78.872	137.587	117.480	179.917	-138.250	13.818	86.586	81.112	147.268	134.572	-24.308	160.919	0.00083426	4.1437e-05	0.00018407	1239.8	4.8906e-06	5.7843e-06	1235.3	339.38	8.8494e-06	1.535e-06	388	131.64	113.84	39.126	6.4408e-06	48.842	0.00027684	0.00027107	7.4967e-05	1236.8	2.9789e-06	2.9439e-06	1236	338.32	2.9355e-06	2.9316e-06	384.09	129.92	113.56	39.086	2.9151e-06	48.462	-16.239	-92.295	-80.442	-134.894	-81.104	-0.983	-135.176	-130.375	-82.373	124.983	-131.008	-126.660	-125.782	-121.412	-27.938	-122.167	-8191	255	
700.860	1	1	0	0	0.35148	0.19273	0.067495	0.20474	0.35005	0.13628	0.14385	0.070712	0.19516	0.062759	0.16442	0.12511	0.11905	0.1425	0.097124	0.27878	0.92917	0.31875	-0.25833	0.7375	0.19375	-0.089583	0.46875	-0.29792	0.23125	0.39792	-0.27292	0.46458	0.075	-0.12708	0.61458	-0.27083	149.455	68.586	-84.540	187.449	147.045	-14.767	137.482	140.937	185.619	38.646	185.447	154.785	13.047	163.718	129.702	131.095	0.00077069	0.0005917	0.00010656	1239.6	4.9693e-06	5.107e-06	1235.7	338.26	3.6032e-06	2.9099e-06	388.98	131.3	113.99	39.293	8.8131e-06	48.881	0.00027472	0.00026643	7.3399e-05	1237.4	2.9221e-06	2.9049e-06	1236.8	337.87	2.9235e-06	2.9409e-06	384.18	130.01	113.5	39.107	2.9372e-06	48.543	-7.718	-78.466	-120.313	-134.791	-31.478	-41.527	-135.166	-130.143	-26.949	-57.735	-131.189	-126.718	-125.663	-121.170	-12.406	-122.372	-8191	255	
700.954	1	1	0	0	0.36368	0.11475	0.20132	0.2856	0.09984	0.27291	0.24837	0.28438	0.074273	0.22168	0.22806	0.18355	0.20012	0.020389	0.2128	0.050402	0.45417	0.69375	-0.072917	0.35	0.17917	-0.039583	0.54583	-0.083333	0.18333	0.53542	-0.43958	0.21042	0.1125	-0.33542	0.52917	-0.37083	-115.542	-45.598	70.613	186.309	161.544	-40.255	150.953	139.036	57.434	141.021	173.191	137.377	-116.442	-148.041	109.789	189.271	0.00076061	0.00034053	0.00022874	1236.4	3.7425e-06	7.7245e-07	1233.8	337.78	6.2152e-06	5.601e-06	388.61	130.99	114.03	39.11	2.7652e-06	48.695	0.0002747	0.00026869	7.4382e-05	1235.6	2.9491e-06	2.9153e-06	1236.1	337.76	2.9141e-06	2.9374e-06	384.29	129.72	113.31	39.047	2.9175e-06	48.432	-9.320	-106.903	-55.639	-135.022	-40.597	66.261	-134.866	-130.211	11.026	-42.172	-131.176	-126.552	-125.970	-121.395	-2.696	-122.414	-8191	255	
701.052	1	1	0	0	0.11303	0.27138	0.17337	0.18266	0.19837	0.13385	0.22819	0.12197	0.025929	0.12971	0.20837	0.12332	0.14275	0.12697	0.18502	0.13454	0.39583	0.57917	-0.16458	0.45833	0.35833	-0.16042	0.58125	0.091667	0.11667	0.57292	-0.23958	0.41458	0.37292	-0.225	0.46875	-0.025	-89.660	-51.931	-119.285	169.456	-135.825	-46.883	177.030	156.190	22.063	-30.553	168.135	121.735	-26.552	-9.507	-62.439	78.704	0.00079819	0.00057298	8.3401e-05	1237	5.6321e-06	6.2116e-06	1242.3	338.91	6.6332e-06	5.3644e-06	386.48	130.76	113.71	39.134	3.7852e-06	48.62	0.00027777	0.00026744	7.3991e-05	1236	2.9615e-06	2.9104e-06	1240.1	338.16	2.9411e-06	2.9126e-06	384.18	129.84	113.36	39.052	2.9264e-06	48.398	-6.860	-87.374	-19.828	-135.179	15.897	-11.956	-135.178	-130.303	-14.232	-24.388	-131.072	-126.657	-126.051	-121.554	-10.404	-122.127	-8191	255	
701.171	1	1	0	0	0.29556	0.083965	0.13893	0.038998	0.14156	0.25011	0.17982	0.19597	0.20131	0.24553	0.27374	0.25085	0.086619	0.10511	0.23302	0.26747	0.35833	0.41875	-0.077083	0.15417	0.5875	-0.4875	0.11042	0.027083	-0.13542	0.7125	-0.38125	0.06875	0.42708	-0.36875	0.375	0.125	96.784	-22.804	84.327	-105.207	23.492	124.793	82.239	40.152	195.623	-122.713	184.858	165.491	126.231	-73.877	202.256	161.907	0.00079812	0.000588	7.6964e-05	1235.9	4.1824e-06	5.3329e-06	1236.8	338.38	1.2989e-06	5.4242e-06	386.62	131.52	113.19	39.25	5.3323e-06	48.62	0.00027335	0.0002662	7.4343e-05	1234.6	2.9291e-06	2.9242e-06	1237.2	338.11	2.9501e-06	2.9291e-06	383.33	129.77	113.18	39.04	2.9597e-06	48.447	-4.460	-104.454	-122.322	-135.231	-33.603	35.178	-135.289	-130.501	-12.314	-5.696	-131.131	-126.828	-125.935	-121.586	-73.407	-122.617	-8191	255	
701.267	1	1	0	0	0.094953	0.086767	0.18142	0.10863	0.21137	0.075443	0.25934	0.22493	0.17562	0.078235	0.042741	0.11008	0.16822	0.16749	0.22926	0.090779	0.010417	0.55417	-0.10625	0.033333	0.71042	-0.21667	0.17292	0.13125	-0.0875	0.57292	0.025	0.15208	0.74792	-0.15208	0.2375	0.091667	-114.155	143.655	50.086	-131.899	89.051	-31.601	80.418	175.836	-106.711	100.359	-73.519	206.280	161.932	182.873	-61.825	150.720	0.00074077	0.00032485	6.4175e-05	1237.1	2.7801e-06	5.1048e-06	1233.3	337.5	4.2272e-06	5.2524e-06	387.03	131.37	113.66	39.328	4.8578e-06	48.533	0.00027481	0.00027124	7.4261e-05	1236	2.9401e-06	2.9134e-06	1235.6	337.67	2.9432e-06	2.9284e-06	384.29	129.8	113.33	39.095	2.9737e-06	48.428	-6.593	10.443	-42.870	-135.097	12.855	-46.119	-135.222	-130.230	-43.438	29.979	-130.936	-126.856	-125.987	-121.292	27.222	-122.614	-8191	255	
701.364	1	1	0	0	0.23814	0.24361	0.14783	0.49347	0.14587	0.23194	0.2889	0.32402	0.18873	0.12339	0.25296	0.073178	0.059004	0.15963	0.075936	0.2403	0.26667	0.62917	0.23542	0.010417	0.69375	-0.28542	0.16875	0.325	-0.31875	0.5375	0.22083	0.0020833	0.63542	-0.33125	0.1625	0.24583	-125.983	194.815	-12.163	129.762	21.756	-143.698	168.284	71.415	22.587	46.804	133.200	57.880	86.605	200.480	-117.411	167.266	0.00084104	0.00036311	7.7183e-05	1232.8	5.1164e-06	3.3285e-06	1231	338.92	4.2196e-06	3.6614e-06	385.19	131.27	113.47	38.971	6.3957e-06	48.731	0.00027625	0.00027072	7.4539e-05	1234.1	2.9454e-06	2.938e-06	1234.9	338.24	2.9481e-06	2.9529e-06	383.6	129.88	113.33	39.038	2.9408e-06	48.418	-9.700	-91.790	-58.975	-135.098	-20.799	56.158	-135.423	-130.438	12.816	-47.747	-131.111	-126.681	-126.036	-121.280	-15.902	-122.532	-8191	255	
701.460	1	1	0	0	0.17665	0.17557	0.13734	0.22391	0.31903	0.088889	0.1826	0.33884	0.16075	0.20321	0.072153	0.19117	0.26957	0.10803	0.30108	0.10445	-0.016667	0.61667	-0.0083333	-0.30208	0.625	0.12083	0.21667	0.41667	-0.13958	0.47708	0.11667	-0.23333	0.57708	-0.1125	0.30208	0.47292	192.385	17.337	15.012	205.631	-42.556	168.415	108.128	-129.336	-21.938	141.806	196.689	-74.055	202.744	131.515	25.930	193.830	0.00088548	0.0005393	0.00020549	1233.3	4.9559e-06	1.915e-06	1230.2	338.44	9.3709e-06	3.2091e-06	386.07	130.91	113.82	39.096	9.2617e-06	48.701	0.00027833	0.00027043	7.5436e-05	1233.9	2.9749e-06	2.9738e-06	1236	338.05	2.9736e-06	2.9398e-06	384.19	129.68	113.31	39	2.964e-06	48.4	-7.636	-106.202	-42.500	-135.066	-76.700	-59.286	-135.453	-130.456	-54.506	-40.511	-131.368	-126.716	-125.899	-121.524	-11.011	-122.431	-8191	255	
701.556	1	1	0	0	0.11936	0.15472	0.16575	0.32818	0.10764	0.20725	0.22074	0.22135	0.25149	0.17832	0.074526	0.42888	0.18232	0.22532	0.14145	0.084339	0.29375	0.46042	0.325	-0.37708	0.47708	0.025	-0.125	0.60833	-0.2875	0.37083	0.24792	-0.26458	0.62708	0.2375	0.045833	0.54167	-109.571	-18.512	196.019	189.694	-14.926	31.241	147.986	196.788	8.767	74.466	205.064	191.628	102.630	108.937	177.235	66.299	0.00079524	0.00035436	0.0001889	1241.2	3.83e-06	3.0747e-06	1232.1	337.97	4.2766e-06	7.8783e-06	386.44	131.1	113.72	39.027	5.1944e-06	48.642	0.00027761	0.00027058	7.4195e-05	1235.5	2.9775e-06	2.958e-06	1234.4	337.62	2.9652e-06	2.9642e-06	383.43	129.87	113.18	39.023	2.9572e-06	48.372	-24.715	-68.327	-18.490	-135.136	37.982	-12.137	-135.130	-130.016	-84.098	-8.147	-131.006	-126.390	-126.086	-121.214	4.931	-122.345	-8191	255	
#DATA ENDS
