BOXY.EXE: ISS Imagent and Oximeter Data Acquisition Program Version 0.80
Ascii Record File

#ACQ INFORMATION
2  Detector Channels 
16  External MUX Channels 
1  Auxiliary Channels 
5000  Waveform (CCF) Frequency (Hz)
1  Waveforms Skipped 
30  Waveforms Averaged 
1  Cycles Averaged 
16  Acquisitions per Waveform 
10.0806  Updata Rate (Hz) 

#FILE INFORMATION
TRUE -- External MUX Channel results are PARSED.
FALSE -- AC DC and Phase are NOT grouped.
TRUE -- Companion Program Settings File CREATED.
FALSE -- AC data not excluded
FALSE -- DC data not excluded
FALSE -- Phase data not excluded
FALSE -- Auxillary Chn. data not excluded
Tab delimiters

#CALIBRATION STATE
TRUE -- Waveform Calibration Values APPLIED.


#AUX CALIBRATION VALUES
Val Type	aux-1	

Term	1.0000e+00	
Factor	0.0000e+00	


#WF CALIBRATION VALUES
A = Detector Channel
Val Type	A-AC1	A-AC2	A-AC3	A-AC4	A-AC5	A-AC6	A-AC7	A-AC8	A-AC9	A-AC10	A-AC11	A-AC12	A-AC13	A-AC14	A-AC15	A-AC16	A-DC1	A-DC2	A-DC3	A-DC4	A-DC5	A-DC6	A-DC7	A-DC8	A-DC9	A-DC10	A-DC11	A-DC12	A-DC13	A-DC14	A-DC15	A-DC16	A-Ph1	A-Ph2	A-Ph3	A-Ph4	A-Ph5	A-Ph6	A-Ph7	A-Ph8	A-Ph9	A-Ph10	A-Ph11	A-Ph12	A-Ph13	A-Ph14	A-Ph15	A-Ph16	

Term	0.00000e+00	0.00000e+00	0.00000e+00	0.00000e+00	0.00000e+00	0.00000e+00	0.00000e+00	0.00000e+00	0.00000e+00	0.00000e+00	0.00000e+00	0.00000e+00	0.00000e+00	0.00000e+00	0.00000e+00	0.00000e+00	0.00000e+00	0.00000e+00	0.00000e+00	0.00000e+00	0.00000e+00	0.00000e+00	0.00000e+00	0.00000e+00	0.00000e+00	0.00000e+00	0.00000e+00	0.00000e+00	0.00000e+00	0.00000e+00	0.00000e+00	0.00000e+00	0.00000e+00	0.00000e+00	0.00000e+00	0.00000e+00	0.00000e+00	0.00000e+00	0.00000e+00	0.00000e+00	0.00000e+00	0.00000e+00	0.00000e+00	0.00000e+00	0.00000e+00	0.00000e+00	0.00000e+00	0.00000e+00	
Factor	1.00000e+00	1.00000e+00	1.00000e+00	1.00000e+00	1.00000e+00	1.00000e+00	1.00000e+00	1.00000e+00	1.00000e+00	1.00000e+00	1.00000e+00	1.00000e+00	1.00000e+00	1.00000e+00	1.00000e+00	1.00000e+00	1.00000e+00	1.00000e+00	1.00000e+00	1.00000e+00	1.00000e+00	1.00000e+00	1.00000e+00	1.00000e+00	1.00000e+00	1.00000e+00	1.00000e+00	1.00000e+00	1.00000e+00	1.00000e+00	1.00000e+00	1.00000e+00	X	X	X	X	X	X	X	X	X	X	X	X	X	X	X	X	

B = Detector Channel
Val Type	B-AC1	B-AC2	B-AC3	B-AC4	B-AC5	B-AC6	B-AC7	B-AC8	B-AC9	B-AC10	B-AC11	B-AC12	B-AC13	B-AC14	B-AC15	B-AC16	B-DC1	B-DC2	B-DC3	B-DC4	B-DC5	B-DC6	B-DC7	B-DC8	B-DC9	B-DC10	B-DC11	B-DC12	B-DC13	B-DC14	B-DC15	B-DC16	B-Ph1	B-Ph2	B-Ph3	B-Ph4	B-Ph5	B-Ph6	B-Ph7	B-Ph8	B-Ph9	B-Ph10	B-Ph11	B-Ph12	B-Ph13	B-Ph14	B-Ph15	B-Ph16	

Term	0.00000e+00	0.00000e+00	0.00000e+00	0.00000e+00	0.00000e+00	0.00000e+00	0.00000e+00	0.00000e+00	0.00000e+00	0.00000e+00	0.00000e+00	0.00000e+00	0.00000e+00	0.00000e+00	0.00000e+00	0.00000e+00	0.00000e+00	0.00000e+00	0.00000e+00	0.00000e+00	0.00000e+00	0.00000e+00	0.00000e+00	0.00000e+00	0.00000e+00	0.00000e+00	0.00000e+00	0.00000e+00	0.00000e+00	0.00000e+00	0.00000e+00	0.00000e+00	-9.97839e+01	-1.27879e+02	-1.28521e+02	-1.82006e+02	-5.58992e+01	-7.33021e+01	-1.57810e+02	-1.62015e+02	-5.12818e+01	-6.74143e+01	-1.72403e+02	-1.70165e+02	-1.80574e+02	-1.76604e+02	-6.35904e+01	-1.48996e+02	
Factor	1.65874e-05	1.60630e-04	4.67225e-05	1.56642e-01	1.23825e-06	1.65992e-06	1.81458e-01	5.32774e-02	1.10927e-06	1.85625e-06	9.31568e-02	3.11199e-02	4.21576e-02	9.47623e-03	1.36244e-06	1.40405e-02	8.31017e-06	1.23189e-05	3.42039e-06	7.89887e-02	1.27350e-07	1.35954e-07	8.60234e-02	2.70087e-02	1.27156e-07	1.36589e-07	4.55214e-02	1.53836e-02	2.16466e-02	4.83925e-03	1.31139e-07	6.92868e-03	X	X	X	X	X	X	X	X	X	X	X	X	X	X	X	X	



#DISTANCE SETTINGS
A = Detector Channel
A-1	A-2	A-3	A-4	A-5	A-6	A-7	A-8	A-9	A-10	A-11	A-12	A-13	A-14	A-15	A-16	

2.5000e+00	3.0000e+00	2.5000e+00	3.0000e+00	2.0000e+00	3.0000e+00	1.5000e+00	3.0000e+00	3.0000e+00	3.0000e+00	3.0000e+00	3.0000e+00	3.0000e+00	3.0000e+00	1.5000e+00	3.0000e+00	

B = Detector Channel
B-1	B-2	B-3	B-4	B-5	B-6	B-7	B-8	B-9	B-10	B-11	B-12	B-13	B-14	B-15	B-16	

1.0000e+01	1.0000e+01	1.0000e+01	1.4400e+00	1.0000e+01	1.0000e+01	1.5100e+00	1.9400e+00	1.0000e+01	1.0000e+01	1.9900e+00	2.4900e+00	2.4100e+00	2.9000e+00	1.0000e+01	2.9800e+00	




#DATA BEGINS
time	group	step	mark	flag	A-AC1	A-AC2	A-AC3	A-AC4	A-AC5	A-AC6	A-AC7	A-AC8	A-AC9	A-AC10	A-AC11	A-AC12	A-AC13	A-AC14	A-AC15	A-AC16	A-DC1	A-DC2	A-DC3	A-DC4	A-DC5	A-DC6	A-DC7	A-DC8	A-DC9	A-DC10	A-DC11	A-DC12	A-DC13	A-DC14	A-DC15	A-DC16	A-Ph1	A-Ph2	A-Ph3	A-Ph4	A-Ph5	A-Ph6	A-Ph7	A-Ph8	A-Ph9	A-Ph10	A-Ph11	A-Ph12	A-Ph13	A-Ph14	A-Ph15	A-Ph16	B-AC1	B-AC2	B-AC3	B-AC4	B-AC5	B-AC6	B-AC7	B-AC8	B-AC9	B-AC10	B-AC11	B-AC12	B-AC13	B-AC14	B-AC15	B-AC16	B-DC1	B-DC2	B-DC3	B-DC4	B-DC5	B-DC6	B-DC7	B-DC8	B-DC9	B-DC10	B-DC11	B-DC12	B-DC13	B-DC14	B-DC15	B-DC16	B-Ph1	B-Ph2	B-Ph3	B-Ph4	B-Ph5	B-Ph6	B-Ph7	B-Ph8	B-Ph9	B-Ph10	B-Ph11	B-Ph12	B-Ph13	B-Ph14	B-Ph15	B-Ph16	aux-1	digaux	

2964.730	1	1	0	512	0.46502	0.15742	0.29447	0.13749	0.10741	0.048617	0.050278	0.32795	0.15526	0.075587	0.21172	0.18166	0.12468	0.17293	0.32708	0.31711	-2.4375	-3.0875	-3.3083	-2.7896	-3.3229	-3.0104	-2.7229	-3.4	-2.7792	-2.7646	-3.3271	-2.6458	-3.425	-3.1104	-2.8042	-3.4771	167.139	108.972	27.484	-86.338	-37.492	-117.917	-102.625	-110.344	-50.844	29.349	212.644	186.169	234.318	123.278	99.250	154.969	0.00038753	0.0010415	0.00015789	733.19	6.1466e-06	4.6995e-06	1309	211.53	5.2675e-06	6.6675e-06	542.96	246.59	137.58	45.927	9.7132e-06	112.83	0.00061331	0.00079079	0.00019001	545.23	7.7415e-06	7.5636e-06	969.93	160.12	6.7861e-06	7.9953e-06	406.18	187.27	105.72	34.731	8.1372e-06	85.16	237.796	-61.521	-42.328	-110.155	5.808	-105.816	-110.983	-102.832	51.417	7.375	-106.238	-100.043	-99.606	-92.911	29.100	-95.231	-8191	255	
2964.850	1	1	0	0	0.057817	0.20884	0.068048	0.10449	0.079946	0.078815	0.2723	0.22777	0.14427	0.094337	0.13987	0.24176	0.083254	0.35128	0.15503	0.22331	-2.6708	-2.9354	-3.225	-2.7	-3.2062	-3.2521	-2.6958	-3.3083	-2.9354	-2.7292	-3.4104	-2.7021	-3.2708	-3.2521	-2.625	-3.4375	48.503	21.993	-9.380	205.690	-104.304	163.182	195.005	107.195	16.569	129.285	212.652	204.637	203.232	-52.699	175.982	216.726	0.00036469	0.0011969	1.8205e-05	735.68	2.9091e-06	5.5631e-06	1307.2	214.24	7.4496e-06	1.367e-05	549.8	246.36	139.66	45.385	1.549e-06	113.57	0.00066147	0.00077493	0.00018937	546.14	7.6744e-06	8.279e-06	971.62	160.88	7.3854e-06	7.7449e-06	410.9	187.15	106.75	34.74	6.9799e-06	85.342	227.507	-27.131	-55.938	-110.073	52.469	66.443	-110.272	-103.718	-6.831	27.418	-105.413	-99.704	-99.098	-93.274	4.748	-95.417	-8191	255	
2964.946	1	1	0	0	0.36217	0.11653	0.2905	0.25528	0.22126	0.15809	0.14299	0.073845	0.10889	0.16432	0.097366	0.1234	0.050927	0.024011	0.45013	0.1327	-2.5042	-2.6146	-3.3646	-2.6312	-3.0417	-3.1604	-2.6583	-3.4521	-3.0208	-2.5667	-3.5583	-2.7708	-3.0812	-3.3292	-2.7333	-3.3875	-9.017	167.424	-58.697	213.471	-85.776	-39.306	-60.097	237.270	171.288	181.034	159.441	128.008	80.232	222.178	193.088	73.137	0.00038455	0.00074279	0.00019068	739.71	7.4428e-06	3.1982e-06	1285.4	212.71	6.4824e-06	1.5953e-06	538.66	245.94	138.18	45.635	6.4192e-06	111.59	0.00065682	0.00065352	0.00020703	551.42	7.1623e-06	7.2871e-06	961.3	160.59	7.3382e-06	7.781e-06	401.6	185.93	105.93	34.76	7.0963e-06	84.263	233.886	-1.208	-31.066	-110.921	11.098	-0.873	-110.712	-103.779	57.357	-31.967	-106.228	-99.599	-99.296	-93.072	39.561	-95.404	-8191	255	
2965.042	1	1	0	0	0.072879	0.14796	0.069409	0.17649	0.34045	0.26958	0.19962	0.2477	0.13986	0.18908	0.2161	0.16317	0.077613	0.035022	0.12776	0.37039	-2.6208	-2.6083	-3.2938	-2.875	-2.7188	-3.4875	-2.7979	-3.3604	-3.1625	-2.8167	-3.3854	-2.9604	-2.7271	-3.3958	-2.6833	-3.55	57.416	-93.467	-13.009	206.236	-87.017	-44.077	163.441	-118.060	147.201	6.869	157.560	177.648	30.604	64.843	5.557	180.546	0.00037722	0.00022654	0.00014405	733.53	8.2801e-06	4.4993e-06	1296.1	214.46	2.3458e-06	9.9825e-06	543.63	245.56	140.03	45.428	4.9865e-06	111.33	0.00061757	0.00066671	0.00019794	547.68	7.5309e-06	7.708e-06	962.45	160.46	7.89e-06	7.0494e-06	405.93	186.6	106.06	34.681	7.3878e-06	84.823	232.980	-4.315	12.634	-109.966	23.740	2.551	-110.640	-103.471	-5.635	84.570	-105.558	-100.148	-99.490	-92.267	6.165	-95.669	-8191	255	
2965.161	1	1	0	0	0.12818	0.058004	0.25368	0.066392	0.12649	0.14208	0.43218	0.20628	0.0026863	0.055307	0.14273	0.28404	0.094417	0.18625	0.14965	0.15558	-2.8563	-2.4792	-3.4521	-3.0938	-2.8625	-3.3563	-2.675	-3.2771	-3.1958	-2.5479	-3.6396	-3.0167	-2.6583	-3.3917	-2.5917	-2.9479	-92.293	7.746	94.734	112.247	116.669	-108.600	193.308	204.699	163.844	-48.451	-84.549	177.457	106.157	203.550	109.695	-94.166	0.00040247	0.0012583	0.00034247	744.48	5.848e-06	1.181e-05	1297.2	214.48	7.0005e-06	7.3663e-06	546.33	247.51	138.04	45.749	2.4098e-06	113.03	0.00061017	0.00068362	0.00018834	552.52	6.7914e-06	7.7635e-06	965.96	161.74	8.045e-06	7.4219e-06	407.86	187.99	105.59	34.818	6.9187e-06	85.521	230.466	-29.952	-35.580	-110.001	102.405	31.797	-110.649	-103.119	25.203	21.857	-106.089	-99.754	-99.812	-93.075	-3.407	-95.758	-8191	255	
2965.258	1	1	0	0	0.11421	0.17706	0.14397	0.080217	0.12047	0.17467	0.27728	0.20176	0.112	0.20159	0.091823	0.23098	0.14815	0.26287	0.094449	0.32837	-2.8979	-2.5646	-3.3292	-3.0625	-2.7875	-3.3937	-2.7667	-3.0625	-3.2812	-2.5375	-3.2292	-3.2896	-2.6896	-3.5083	-2.8083	-2.9583	-83.759	-29.213	-23.780	-43.852	-56.978	95.156	183.469	236.648	-107.532	-75.110	114.951	-108.304	233.848	-66.351	28.469	-98.664	0.00036316	0.00059367	0.00020198	751.53	3.2461e-06	1.9275e-05	1306.9	215.95	6.3681e-06	4.7965e-06	546.62	250.51	141.96	46.278	4.0277e-06	115.7	0.00063781	0.00069643	0.00019496	555.44	6.7039e-06	7.5551e-06	974.73	162.42	7.2712e-06	7.2352e-06	412.68	189.95	107.38	35.113	7.2594e-06	87.103	-105.660	-14.438	16.928	-110.507	58.684	32.895	-110.456	-102.846	13.630	40.313	-105.883	-99.544	-98.819	-92.880	-44.049	-95.586	-8191	255	
2965.329	1	1	0	0	0.052247	0.20491	0.18009	0.26989	0.11796	0.028657	0.15138	0.21448	0.20612	0.031603	0.21872	0.12969	0.15086	0.17755	0.19658	0.22304	-3.05	-2.4375	-2.8333	-3.0542	-2.6146	-3.5104	-2.7125	-2.7896	-3.2958	-2.7	-3.3	-3.3042	-2.3312	-3.4437	-2.8354	-2.9042	90.562	121.575	43.987	190.917	138.063	-54.148	205.493	224.530	28.360	121.399	147.922	206.174	196.512	227.626	92.693	163.446	0.00041937	0.00060098	0.00020147	752.92	6.5659e-06	9.6185e-06	1310.4	217.49	3.0328e-06	4.3165e-06	550.07	247.82	139.26	45.577	6.3804e-06	113.82	0.00066786	0.0006404	0.00018444	557.32	6.7458e-06	7.6208e-06	979.73	162.47	7.7547e-06	6.9953e-06	410.69	188.69	105.94	34.851	7.6296e-06	85.765	234.923	17.034	-58.359	-110.808	38.960	38.550	-110.853	-102.960	0.808	19.008	-105.544	-100.275	-99.188	-92.348	-11.698	-95.319	-8191	255	
2965.425	1	1	0	0	0.11252	0.14667	0.20834	0.15701	0.082112	0.19254	0.13945	0.098434	0.19582	0.1949	0.18691	0.18058	0.20503	0.098856	0.17457	0.31104	-3.0021	-2.6104	-2.8375	-3.1479	-2.5146	-3.5042	-3.1312	-2.7646	-3.5042	-2.6125	-2.9646	-3.1833	-2.5333	-3.4396	-2.9604	-2.8688	16.469	157.703	-93.744	-82.391	148.243	95.145	220.229	159.144	126.253	-55.283	-51.409	219.948	235.080	56.746	131.072	169.060	0.00040927	0.0007913	0.00037938	738.5	3.9259e-06	1.0433e-05	1284.4	218.16	4.4039e-06	4.1006e-06	537.5	244.07	138.07	45.69	1.1104e-06	111.31	0.00065211	0.00068698	0.00019429	549.27	6.6638e-06	7.6046e-06	957.74	163.02	7.5904e-06	7.6532e-06	403.04	185.42	104.97	34.591	7.4025e-06	84.396	-120.677	-52.727	-25.178	-110.653	69.944	32.025	-110.771	-103.453	63.351	53.026	-106.443	-99.849	-100.223	-92.451	124.966	-94.822	-8191	255	
2965.546	1	1	0	0	0.065435	0.25811	0.14821	0.24107	0.3116	0.29524	0.39047	0.029469	0.053954	0.085054	0.156	0.387	0.13696	0.15314	0.16147	0.090596	-3.0896	-2.7125	-2.9146	-3.3	-2.6458	-3.3542	-3.2375	-2.7438	-3.3729	-2.775	-2.9562	-3.4583	-2.6688	-3.3063	-3.0812	-2.8	136.664	96.321	9.333	230.440	-74.081	93.462	139.345	224.385	44.896	-0.462	110.020	155.276	-62.667	237.093	116.513	-93.835	0.00047275	0.0005413	0.00024831	733.97	7.5966e-06	4.5313e-06	1298.9	216.29	1.3334e-06	1.7468e-05	542.45	244.43	137.89	45.593	3.5349e-06	112.27	0.00069032	0.00068398	0.00019124	547.55	7.2457e-06	7.861e-06	967.43	162.19	7.5472e-06	8.5152e-06	402.98	185.64	105.18	34.684	7.5785e-06	84.552	232.393	-5.456	5.598	-110.104	41.260	-0.323	-110.640	-103.315	96.388	44.446	-106.178	-100.505	-99.640	-91.992	2.853	-95.327	-8191	255	
2965.642	1	1	0	0	0.21167	0.13934	0.17172	0.10948	0.11325	0.24202	0.25805	0.078498	0.27762	0.17179	0.19728	0.303	0.3102	0.22619	0.11724	0.59186	-3.0917	-2.6792	-2.8146	-3.4208	-2.6667	-3.3104	-3.4604	-2.6562	-3.5208	-3.0292	-2.9208	-3.4271	-2.6521	-3.1875	-3.25	-2.7104	6.643	24.148	-107.038	-67.977	-70.104	134.978	222.256	116.162	217.653	56.796	195.689	211.624	160.160	198.928	42.038	164.558	0.00040427	0.00075226	0.00046347	741.49	4.5598e-06	1.0047e-05	1291.3	213.89	5.2917e-06	2.3775e-06	544.36	248.72	139.59	45.558	1.1918e-05	112.11	0.00067851	0.00069925	0.00019255	548.93	7.0997e-06	7.9655e-06	968.22	161.46	7.4617e-06	7.6459e-06	405.62	187.28	105.59	34.713	7.7304e-06	85.14	222.823	-29.374	-39.441	-110.402	-5.871	-17.496	-111.069	-103.481	27.045	194.307	-105.546	-100.120	-99.208	-92.287	2.824	-95.303	-8191	255	
2965.738	1	1	0	0	0.14789	0.14359	0.07018	0.21116	0.11974	0.18716	0.16129	0.2694	0.065951	0.17304	0.30119	0.095164	0.090363	0.29726	0.12941	0.13694	-2.9292	-2.9417	-2.5271	-3.4854	-2.6937	-3.0583	-3.4646	-2.55	-3.2625	-3.05	-2.7708	-3.5729	-2.7833	-3.0167	-3.2458	-2.6583	153.695	33.989	63.792	180.426	168.391	220.693	146.518	194.720	199.846	173.558	-102.966	64.772	101.044	205.435	200.648	158.921	0.00035503	0.00047196	0.00013965	734.51	6.2191e-06	1.0818e-05	1318.1	216.48	4.5462e-06	1.302e-05	545.61	249.6	138.39	45.958	9.3225e-06	114.32	0.00068162	0.00073464	0.00019024	546.83	7.5789e-06	7.9947e-06	979.21	163.18	7.4802e-06	8.4144e-06	407.38	188.68	105.36	34.956	8.1011e-06	85.919	-120.427	6.476	-12.279	-110.297	42.119	-47.257	-110.852	-103.370	140.368	22.422	-105.795	-99.808	-98.644	-92.571	39.700	-96.038	-8191	255	
2965.834	1	1	0	0	0.041864	0.099337	0.060551	0.093252	0.29519	0.13173	0.22062	0.10347	0.085576	0.25544	0.17744	0.2983	0.2029	0.012916	0.26627	0.13192	-2.9417	-3.0563	-2.4729	-3.4979	-2.8458	-2.7583	-3.55	-2.7125	-3.2771	-3.0563	-2.6042	-3.5	-2.7292	-2.8208	-3.425	-2.7833	-87.327	-111.677	-10.011	-44.246	54.301	138.743	218.791	174.554	137.333	-42.038	193.921	178.613	225.427	145.787	1.614	160.296	0.00037755	0.0011195	0.00013548	741.08	7.9163e-06	7.1136e-06	1302.5	216.63	3.3556e-06	9.9141e-06	542.24	245.92	137.6	45.816	4.8624e-06	112.1	0.0006416	0.00075065	0.00020367	550.29	7.7712e-06	8.1929e-06	977.94	163.02	7.4508e-06	8.0474e-06	405.38	186.39	105.74	34.851	8.0765e-06	84.887	-120.823	-38.798	-43.211	-110.145	48.032	67.030	-110.398	-103.115	18.359	61.059	-105.670	-99.171	-99.207	-92.805	54.763	-95.423	-8191	255	
2965.953	1	1	0	0	0.16307	0.22086	0.25931	0.3136	0.27418	0.26812	0.30872	0.1392	0.08375	0.05215	0.22298	0.37227	0.0047895	0.28039	0.088177	0.053888	-2.8167	-3.2313	-2.5146	-3.4188	-2.8187	-2.8458	-3.4271	-2.7438	-3.1688	-3.2042	-2.6417	-3.4229	-2.9458	-2.8042	-3.3625	-2.8458	-58.327	-32.499	-23.599	-43.045	184.759	-9.468	209.689	171.950	187.072	-59.020	-107.702	194.989	-78.052	-80.794	150.635	-98.278	0.00041253	0.0006113	0.0002534	732.95	6.0715e-06	9.8127e-06	1304.6	215.06	6.9776e-06	3.7223e-06	534.02	241.79	137.95	45.628	5.3764e-06	112.1	0.00065399	0.00072969	0.00018638	544.84	8.07e-06	7.5106e-06	968.23	161.75	7.3917e-06	8.1865e-06	399.38	184.86	104.87	34.603	7.5001e-06	84.374	-117.617	-7.773	-116.067	-110.010	33.798	28.388	-110.805	-103.225	30.276	-108.285	-105.693	-100.152	-99.240	-92.020	8.496	-95.564	-8191	255	
2966.027	1	1	0	0	0.040908	0.30192	0.19373	0.13949	0.04131	0.15164	0.2437	0.35586	0.24099	0.26752	0.24622	0.31678	0.23553	0.28912	0.2083	0.23495	-2.6042	-3.2333	-2.6958	-3.4354	-3.0271	-2.8354	-3.65	-2.8438	-3.0208	-3.5396	-2.8187	-3.4042	-3.15	-2.6854	-3.5417	-2.9625	-83.914	14.091	28.976	181.718	199.841	68.035	191.400	219.190	164.664	62.293	-80.656	170.009	111.087	3.677	168.024	93.352	0.00040052	0.00095839	0.00017858	735.31	6.1878e-06	6.5819e-06	1311.4	215.38	6.8075e-06	1.2498e-05	545.11	248.43	138.02	46.041	3.5195e-06	112.29	0.00066961	0.00070066	0.00020172	547.11	8.1429e-06	7.3075e-06	972.94	162.03	7.4164e-06	7.7708e-06	404.76	187.05	105.71	35.096	6.9515e-06	85.451	235.219	-27.408	50.745	-110.123	38.345	-40.887	-110.792	-102.672	35.323	-11.533	-105.251	-99.959	-99.072	-92.358	3.192	-95.538	-8191	255	
2966.123	1	1	0	0	0.1007	0.13578	0.091764	0.2796	0.14984	0.13318	0.24654	0.1601	0.27818	0.072913	0.23065	0.078936	0.14294	0.20904	0.11002	0.076204	-2.5021	-3.3271	-2.4979	-3.2875	-3.1063	-2.6583	-3.5354	-2.8146	-2.8167	-3.4292	-2.7583	-3.3688	-3.4854	-2.7979	-3.3667	-2.9833	-84.409	78.173	68.190	141.843	159.026	46.408	165.049	215.591	236.927	216.898	204.238	230.199	233.140	183.653	217.072	112.365	0.00039774	0.0016656	0.00033901	745.16	4.8895e-06	6.9499e-06	1322	217.98	3.7586e-06	6.2635e-06	553.06	249.93	140.4	46.711	3.6491e-06	115.68	0.00063576	0.0006829	0.00019035	551.77	8.0021e-06	7.297e-06	983.72	163.91	7.2995e-06	7.2509e-06	414.12	189.95	107.71	35.382	7.2433e-06	87.333	227.084	-29.840	-14.482	-110.123	20.554	61.066	-110.627	-103.567	-14.112	50.735	-105.321	-99.735	-99.309	-92.636	91.905	-95.502	-8191	255	
2966.242	1	1	0	0	0.14792	0.038811	0.17067	0.12039	0.025695	0.28614	0.11041	0.202	0.24868	0.24639	0.28383	0.14134	0.10301	0.079828	0.10016	0.17704	-2.525	-3.4917	-2.6708	-3.125	-3.4375	-2.4729	-3.1104	-3.0104	-2.6146	-3.4	-2.7646	-3.0271	-3.425	-2.6771	-3.35	-3.0708	127.258	199.752	-67.167	26.926	116.500	-32.667	187.898	184.072	-71.312	97.274	123.144	195.047	182.465	-94.576	8.432	194.854	0.00041157	0.00067962	0.0003074	740.16	4.0292e-06	5.7753e-06	1327.8	217.71	6.2448e-06	1.296e-05	558.01	251.33	140.67	46.856	6.8796e-06	115.84	0.00061023	0.00067903	0.00018977	553.39	7.2451e-06	7.1296e-06	991.19	164.22	7.1406e-06	7.5901e-06	416.59	192	107.62	35.657	7.7309e-06	87.863	238.512	-63.867	14.536	-110.028	27.472	70.403	-110.297	-103.354	102.810	43.912	-105.698	-99.588	-99.018	-92.941	-52.930	-95.494	-8191	255	
2966.338	1	1	0	0	0.088989	0.40956	0.18574	0.10771	0.20182	0.093996	0.12086	0.036833	0.20654	0.1302	0.11177	0.34548	0.16938	0.1833	0.31362	0.11588	-2.3771	-3.4479	-2.8042	-2.9437	-3.3937	-2.7687	-3.4521	-3.1833	-2.6417	-3.3979	-2.8354	-3.0062	-3.4896	-2.6333	-3.2125	-3.2562	-30.156	8.418	-73.737	223.750	187.205	-17.466	126.823	78.066	-108.189	167.432	148.516	227.078	156.157	-118.826	-112.776	-100.613	0.00034421	0.00076744	0.00018244	754.82	8.1027e-06	7.9905e-06	1330.2	219.59	7.0475e-06	5.9022e-06	546.11	250.84	141.81	46.442	8.7528e-06	113.51	0.00063839	0.00068103	0.00020437	561.8	7.9318e-06	7.4837e-06	989.16	165.59	7.4527e-06	7.219e-06	412.05	190.71	107.82	35.363	7.379e-06	86.116	228.931	-13.727	-39.689	-110.241	45.058	-17.689	-110.535	-103.307	50.817	6.507	-106.040	-99.320	-98.947	-92.645	21.093	-95.647	-8191	255	
2966.434	1	1	0	0	0.21603	0.096981	0.23219	0.073254	0.1689	0.15511	0.2845	0.14516	0.21524	0.12707	0.42626	0.04846	0.20729	0.17401	0.233	0.32767	-2.2313	-3.3688	-2.9292	-2.7646	-3.3438	-2.7542	-3.2604	-3.2958	-2.6375	-3.3792	-3.0292	-2.7792	-3.4854	-2.4958	-3.0396	-3.4354	-50.922	-59.014	21.340	218.189	-110.475	36.813	208.363	-74.351	159.999	237.708	178.049	231.803	-83.939	213.789	100.492	147.627	0.00046028	0.00085819	0.00029855	746.19	7.0011e-06	8.811e-06	1316.5	218.2	6.7411e-06	6.8658e-06	549.43	249.4	141.37	46.671	6.9068e-06	114.75	0.00062389	0.00072073	0.000199	555.09	7.2258e-06	7.4214e-06	983.31	164.83	6.8103e-06	7.404e-06	411.22	188.92	107.21	35.392	7.2687e-06	86.486	231.239	-12.855	-14.366	-110.325	47.969	144.230	-110.080	-102.916	35.958	68.986	-105.736	-99.887	-98.900	-92.651	22.253	-95.418	-8191	255	
2966.530	1	1	0	0	0.1387	0.072083	0.060618	0.24849	0.28351	0.077978	0.21177	0.23801	0.096605	0.091249	0.24972	0.13119	0.29555	0.095104	0.10359	0.19064	-2.2396	-3.2229	-2.9042	-2.6375	-3.4021	-2.6854	-3.1167	-3.3208	-2.4583	-3.2938	-3.1	-2.6875	-3.4	-2.6292	-2.9625	-3.4771	201.432	-4.124	213.721	-67.842	-49.531	203.144	201.865	209.637	214.473	-35.565	133.233	209.336	206.154	-101.978	128.696	121.854	0.00038812	0.0001478	0.00024466	740.8	5.137e-06	8.2609e-06	1331.5	214.55	8.3082e-06	6.9551e-06	551.89	249.35	141.58	46.367	3.0334e-06	114.86	0.00062335	0.00068152	0.0001934	551.82	6.7779e-06	7.6641e-06	988.47	162.25	7.5597e-06	7.4287e-06	413.24	189.87	107.52	35.212	7.2361e-06	86.748	228.189	-66.254	-66.610	-110.346	10.812	72.205	-110.607	-103.361	-5.195	34.555	-105.997	-99.191	-99.486	-93.291	61.833	-95.468	-8191	255	
2966.626	1	1	0	0	0.16767	0.14267	0.038196	0.28677	0.10607	0.246	0.21511	0.24814	0.042929	0.25895	0.063294	0.33235	0.1366	0.11635	0.17009	0.25875	-2.1437	-3.275	-3.0812	-2.8292	-3.3729	-2.7396	-3.0208	-3.3958	-2.7229	-3.2604	-3.2458	-2.7062	-3.4313	-2.8375	-2.8083	-3.7188	113.890	-15.881	159.119	-66.657	-57.397	-17.133	-71.699	170.495	-27.171	209.756	-99.063	159.283	212.705	171.383	-48.506	187.270	0.00041246	0.00080167	0.00026832	750.47	7.2657e-06	7.8255e-06	1322.9	218.43	5.3448e-06	3.3189e-06	555.4	253.14	139.76	46.263	6.1237e-06	115.53	0.00063829	0.00064592	0.00020382	555.43	7.2534e-06	8.0233e-06	983.58	163.85	7.4386e-06	7.6498e-06	415.16	191.14	107.25	35.207	7.4427e-06	87.125	-115.040	4.338	-63.137	-109.898	19.131	35.769	-110.275	-103.459	26.027	38.501	-105.495	-99.735	-99.511	-92.636	57.745	-95.523	-8191	255	
2966.722	1	1	0	0	0.30181	0.32014	0.15622	0.23216	0.13188	0.19095	0.11488	0.095563	0.16618	0.014903	0.29118	0.22234	0.15961	0.21728	0.13961	0.35374	-2.175	-3.0687	-3.1042	-2.6625	-3.275	-2.7521	-2.8458	-3.5646	-2.9375	-3.0271	-3.3458	-2.6437	-3.3958	-3.1958	-2.5396	-3.5062	60.637	79.941	-115.736	197.377	212.507	136.218	218.375	-100.211	159.031	105.776	224.922	-93.270	-18.914	-64.190	-25.170	192.305	0.00034446	0.00060557	0.00024165	740.2	6.9884e-06	1.0896e-05	1342.5	216.91	3.8454e-06	4.5355e-06	553.88	253.53	140.82	46.32	6.4551e-06	115.02	0.00066601	0.00073233	0.00020093	549.29	7.4096e-06	8.5356e-06	993.05	163.8	7.9358e-06	7.3875e-06	415.07	192.15	107.27	35.306	7.5563e-06	86.936	231.218	-83.305	-27.496	-110.842	30.956	5.505	-110.677	-103.634	36.310	73.143	-105.951	-99.744	-99.284	-92.499	30.816	-95.630	-8191	255	
2966.843	1	1	0	0	0.13862	0.11791	0.18437	0.28936	0.30049	0.20237	0.16221	0.12262	0.011944	0.19278	0.22325	0.33224	0.22386	0.15628	0.13103	0.20434	-2.4896	-2.8833	-3.2188	-2.8083	-3.3792	-3.1063	-2.7625	-3.5208	-2.8625	-2.8771	-3.4396	-2.5542	-3.2313	-3.1458	-2.5771	-3.4146	152.090	-7.445	137.105	-67.286	125.267	182.825	-58.086	-68.504	48.249	-52.523	227.250	198.992	189.525	-115.224	-68.501	62.699	0.00037728	0.00073472	0.00030228	745.38	2.402e-06	3.9026e-06	1344.8	222.92	4.6844e-06	6.6604e-06	550.33	251.64	139.95	46.411	1.202e-05	113.16	0.00068297	0.00066347	0.00020723	549.41	6.7684e-06	7.9389e-06	992.11	166.03	7.5107e-06	7.1684e-06	412.69	189.44	106.77	35.228	7.058e-06	86.158	235.108	-53.117	-67.338	-110.311	119.356	7.029	-110.258	-103.427	3.801	59.226	-105.519	-99.653	-98.468	-92.639	43.961	-95.198	-8191	255	
2966.939	1	1	0	0	0.21371	0.41392	0.16196	0.22727	0.06598	0.046764	0.13381	0.18693	0.035381	0.3577	0.087912	0.14679	0.20897	0.16169	0.18478	0.072867	-2.6104	-2.775	-3.4833	-2.675	-3.1688	-3.2625	-2.6833	-3.3354	-2.8167	-2.9125	-3.5062	-2.8958	-3.0812	-3.275	-2.5917	-3.4729	-92.890	93.539	218.160	185.490	-36.711	172.842	209.021	196.796	75.765	39.499	227.328	83.080	124.349	-91.601	24.596	-109.110	0.00038476	0.00071219	0.00025073	730.86	8.7245e-06	6.6991e-06	1307	219.52	9.1825e-06	4.8952e-06	548.94	248.97	139.68	46.02	6.2087e-06	113.33	0.00066502	0.00065511	0.00019761	544.6	7.4614e-06	8.0269e-06	971.1	165.16	7.5536e-06	7.252e-06	409	188.03	107.13	34.916	7.4823e-06	85.805	222.527	-11.034	-70.349	-110.133	27.156	-24.724	-110.493	-103.316	59.228	94.391	-105.641	-99.488	-98.512	-92.464	68.988	-95.061	-8191	255	
2967.035	1	1	0	0	0.3281	0.025069	0.19244	0.060707	0.028783	0.30248	0.064835	0.19184	0.055957	0.17856	0.19899	0.25202	0.34824	0.22551	0.2226	0.23763	-2.5812	-2.6854	-3.4833	-2.85	-2.8042	-3.2958	-2.7792	-3.3812	-3.1083	-2.5625	-3.5417	-2.7812	-2.9313	-3.3333	-2.5	-3.4062	79.472	-88.361	-39.838	-10.059	222.193	230.151	215.065	190.100	93.819	43.630	-89.107	220.041	224.128	99.631	27.940	164.413	0.00039734	0.00034259	8.1379e-05	735.4	5.8224e-06	4.0453e-06	1308.5	215.27	3.1174e-06	5.4189e-06	559.56	252.31	139.36	46.416	6.5711e-06	114.11	0.00066864	0.00064004	0.00019489	547.39	6.6455e-06	7.7434e-06	975.74	163.27	7.0579e-06	6.7139e-06	414.06	190.81	106.85	35.168	7.7033e-06	86.465	222.340	1.882	13.189	-110.576	75.654	61.996	-110.350	-102.940	24.901	28.670	-105.291	-100.042	-98.980	-92.645	-46.336	-95.557	-8191	255	
2967.130	1	1	0	0	0.21323	0.19013	0.087126	0.086287	0.13287	0.066244	0.057148	0.1133	0.088156	0.082567	0.16688	0.18443	0.18405	0.15972	0.24675	0.38689	-2.6271	-2.725	-3.3979	-2.6667	-2.9167	-3.3396	-2.7375	-3.2812	-3.1937	-2.4938	-3.5187	-3.0979	-2.8667	-3.5021	-2.5542	-3.1646	-116.553	-81.265	-1.274	208.729	-45.276	135.093	-57.473	16.112	222.098	72.181	219.625	231.103	142.367	215.652	134.507	198.327	0.00031924	0.0005617	0.00012851	748.97	6.5349e-06	1.3666e-06	1321.2	221.21	4.3218e-06	1.1578e-05	554.74	254.89	140.76	46.328	7.0018e-06	115.01	0.00064006	0.00062724	0.00018482	552.96	7.3101e-06	7.4769e-06	986.57	164.82	7.1043e-06	7.5998e-06	415.97	192.93	107.66	35.322	7.2252e-06	87.282	226.896	-20.480	-61.884	-110.005	17.758	-0.809	-110.216	-103.043	55.470	36.646	-105.354	-99.439	-98.860	-92.656	92.664	-94.677	-8191	255	
2967.203	1	1	0	0	0.082232	0.11316	0.19298	0.14919	0.03047	0.16779	0.10359	0.17062	0.21892	0.16256	0.24181	0.071443	0.14504	0.37263	0.078883	0.11957	-2.8021	-2.4229	-3.2396	-2.9417	-2.75	-3.4042	-2.6875	-3.0208	-3.3438	-2.5229	-3.4625	-2.8438	-2.7	-3.3896	-2.7333	-3.0062	117.097	21.213	41.096	-87.092	86.750	66.806	181.918	164.383	-54.143	-87.626	-118.447	236.928	170.037	207.295	68.781	-104.978	0.00040163	0.00047451	0.00015094	757.25	1.8365e-06	1.0283e-05	1355.5	222.73	7.1085e-06	1.1931e-05	563.84	258.2	143.79	46.688	3.989e-06	117.79	0.00066461	0.00064525	0.00017651	560.42	6.9042e-06	7.7295e-06	1002.7	166.86	7.0066e-06	7.1832e-06	422.3	194.58	109.12	35.529	6.9837e-06	88.956	235.522	-28.230	-14.384	-110.582	67.033	34.037	-110.720	-102.706	16.755	13.657	-105.363	-99.710	-99.062	-92.273	58.488	-95.155	-8191	255	
2967.322	1	1	0	0	0.061016	0.11318	0.087206	0.18872	0.31321	0.13203	0.28751	0.093947	0.096537	0.046925	0.16786	0.16396	0.067158	0.11708	0.061046	0.15836	-2.8812	-2.3083	-3.2729	-3.0958	-2.5438	-3.4104	-2.9792	-3.0521	-3.3563	-2.7042	-3.2646	-3.2292	-2.55	-3.5729	-2.875	-3.0958	78.171	125.047	55.685	196.259	62.123	206.294	67.390	73.939	-97.705	46.423	79.739	-111.056	213.243	-85.424	-78.917	125.769	0.0003158	0.00075814	0.00022388	751.85	5.7685e-06	9.9634e-06	1340.5	224.51	1.2104e-06	1.0703e-05	561.2	254.74	143.32	46.491	8.9673e-06	115.27	0.00062181	0.00067987	0.0001839	558.15	6.4625e-06	6.826e-06	999.03	167.69	7.0858e-06	7.5958e-06	418.87	192.07	108.67	35.533	7.1427e-06	87.216	237.085	-64.248	-7.438	-110.134	47.808	46.058	-110.884	-103.133	75.033	14.339	-105.291	-99.326	-99.618	-92.561	-8.840	-95.118	-8191	255	
2967.418	1	1	0	0	0.093086	0.23143	0.17644	0.24036	0.1528	0.059302	0.1408	0.20616	0.17052	0.064452	0.17003	0.10596	0.16739	0.36162	0.34354	0.23968	-2.8875	-2.5563	-3.1937	-3.225	-2.65	-3.5125	-2.9042	-2.9062	-3.4917	-2.5938	-3.2167	-3.35	-2.6042	-3.3812	-2.8667	-2.8937	185.029	-7.081	228.656	116.415	-112.155	-1.889	195.089	14.266	154.173	-27.371	217.055	110.612	218.133	198.756	-94.179	228.164	0.00039574	0.0010472	0.00038625	746.75	2.798e-06	8.46e-06	1329.6	220.88	4.1877e-06	1.2781e-05	555.03	251.83	143.15	46.378	1.0409e-05	115.11	0.00064049	0.00068752	0.00016913	556.47	6.7883e-06	7.1472e-06	987.12	165.72	7.4442e-06	7.4683e-06	415.32	190.83	108.46	35.221	7.5189e-06	86.999	238.169	-56.403	-26.416	-110.203	99.258	-5.138	-110.404	-103.841	83.445	55.593	-105.321	-99.547	-99.777	-92.265	14.105	-95.298	-8191	255	
2967.514	1	1	0	0	0.30222	0.16763	0.036596	0.29432	0.18718	0.13779	0.054104	0.29991	0.33865	0.27569	0.25191	0.091667	0.21356	0.28574	0.19261	0.15021	-2.9562	-2.5812	-3.0125	-3.2479	-2.5479	-3.3604	-3.1458	-2.6875	-3.325	-2.6896	-3.1604	-3.3563	-2.65	-3.2583	-2.8708	-2.7771	175.806	14.264	165.115	156.826	148.047	-6.524	159.649	225.341	-83.752	78.667	168.194	99.993	145.577	229.646	160.592	215.356	0.00043579	0.00053597	0.0004389	748.4	7.0778e-06	4.7289e-06	1335.9	221.05	3.7751e-06	9.3573e-06	557.76	251.77	142.54	46.276	3.0153e-06	115.11	0.00062236	0.00070081	0.00019001	554.52	6.6463e-06	7.1095e-06	991.26	164.66	7.4664e-06	8.2753e-06	415.32	191.51	108.33	35.131	7.4564e-06	86.876	228.214	-28.068	4.421	-110.439	99.674	57.266	-110.649	-103.505	64.783	-12.964	-105.376	-100.053	-98.922	-92.726	49.468	-95.320	-8191	255	
2967.611	1	1	0	0	0.018658	0.15264	0.16052	0.1648	0.073067	0.19618	0.24354	0.082986	0.3823	0.31475	0.21099	0.47925	0.17378	0.22342	0.10345	0.30087	-3.2417	-2.6625	-2.9958	-3.3167	-2.7979	-3.0208	-3.1542	-2.6458	-3.3479	-2.625	-2.9313	-3.5208	-2.5917	-3.0708	-2.9979	-2.5438	-104.075	192.634	166.376	190.742	95.605	-58.408	-102.091	141.621	114.597	220.396	-117.267	234.921	173.693	163.360	61.817	178.641	0.00034003	0.0008738	0.00022563	748.32	5.6451e-06	1.0912e-05	1337.4	219.07	6.9529e-06	7.017e-06	564.02	253.26	142.03	46.434	5.3368e-06	116.09	0.00064141	0.00070015	0.00017415	555.89	7.5004e-06	7.1803e-06	991.63	163.24	6.9782e-06	7.3508e-06	420.66	192.38	107.85	35.418	7.6156e-06	87.752	237.684	-0.608	6.991	-110.258	52.667	26.258	-110.424	-103.163	-25.052	-44.111	-104.896	-99.388	-98.829	-92.728	-32.377	-95.135	-8191	255	
2967.731	1	1	0	0	0.065959	0.16234	0.076853	0.21464	0.20107	0.20705	0.26993	0.1442	0.13397	0.027061	0.10828	0.16715	0.14813	0.14823	0.10311	0.35663	-3.0083	-2.7833	-2.7875	-3.4542	-2.5438	-3.1396	-3.3896	-2.6333	-3.2958	-2.8417	-2.8333	-3.4896	-2.675	-3.2125	-3.1583	-2.6333	202.625	-116.394	201.135	205.630	162.740	1.159	58.073	193.607	195.340	98.021	154.515	-118.761	131.027	197.077	78.791	174.858	0.00041609	0.0006964	0.0002015	750.62	8.8114e-06	5.1575e-06	1343.5	217.62	5.5638e-06	1.126e-05	567.74	259.28	143.45	46.357	1.0422e-05	116.86	0.00063803	0.00073692	0.00017799	559.08	7.3961e-06	7.1178e-06	998.65	164.33	7.1125e-06	7.8331e-06	422.93	194.99	109	35.475	7.9503e-06	88.47	227.466	-18.391	-47.082	-110.082	20.139	-17.089	-111.432	-104.057	-34.513	70.371	-105.883	-100.211	-100.538	-93.224	35.802	-95.820	-8191	255	
2967.827	1	1	0	0	0.23444	0.13994	0.082266	0.30314	0.21106	0.0093008	0.34642	0.25227	0.30437	0.1652	0.065469	0.17554	0.40079	0.2393	0.098005	0.21393	-2.8292	-3.0042	-2.5458	-3.4083	-2.5708	-2.9396	-3.4354	-2.5563	-3.3792	-3.0458	-2.5458	-3.5354	-2.6937	-2.9208	-3.4062	-2.6292	0.966	103.997	105.233	205.653	-31.813	136.383	142.913	209.211	131.281	166.770	-55.458	-107.279	136.515	195.739	12.224	187.746	0.00039129	0.00094976	0.00025313	756.14	4.7484e-06	1.0719e-05	1327	218.31	5.9313e-06	1.1194e-05	551.73	250.72	141.2	46.108	1.0148e-05	114.57	0.00064696	0.00068721	0.00016813	560.06	7.5701e-06	7.444e-06	988.89	164.6	7.0164e-06	7.6589e-06	415.27	190.61	107.77	35.125	7.7492e-06	86.592	229.873	6.032	-60.634	-110.740	94.633	-26.641	-111.112	-103.822	15.712	-24.174	-106.057	-100.765	-99.978	-93.248	23.854	-96.201	-8191	255	
2967.923	1	1	0	0	0.20094	0.1985	0.28096	0.12524	0.14239	0.15205	0.15229	0.18131	0.087682	0.2478	0.16578	0.1305	0.16011	0.25228	0.035119	0.25209	-2.7938	-3.1396	-2.5854	-3.2708	-2.6917	-2.7812	-3.4333	-2.5958	-3.1312	-3.1375	-2.6021	-3.4521	-2.8563	-2.9229	-3.2875	-2.7896	-105.552	65.279	-62.942	133.081	200.066	78.713	146.916	179.127	93.302	19.305	-85.213	217.029	114.158	230.419	-63.899	191.793	0.00042926	0.0012194	0.00024009	748.39	9.3282e-06	3.7449e-06	1316.8	215.31	2.6549e-06	1.1238e-05	547.08	252.31	140.11	46.215	4.6518e-06	114.68	0.00064541	0.00072733	0.00017545	557.12	7.303e-06	7.0679e-06	979.47	162.27	6.8873e-06	8.1885e-06	411.72	190.93	107.23	35.064	7.3738e-06	86.665	-115.369	-36.695	-13.108	-110.661	80.017	5.809	-111.331	-103.612	-16.627	37.989	-106.437	-100.520	-99.593	-93.641	20.855	-96.056	-8191	255	
2968.020	1	1	0	0	0.1868	0.23749	0.25123	0.075118	0.14205	0.19632	0.22366	0.08516	0.16513	0.29105	0.19349	0.23426	0.21048	0.1114	0.11708	0.20568	-2.8125	-3.1271	-2.5396	-3.3792	-2.7938	-2.7687	-3.55	-2.7979	-3.0625	-3.4333	-2.8042	-3.3021	-2.925	-2.6937	-3.4854	-2.8937	53.720	168.262	149.023	163.025	10.372	-85.397	209.790	106.824	-88.210	188.894	165.436	211.674	204.585	-57.369	185.572	136.032	0.00032729	0.00055393	3.8856e-05	751.4	8.5429e-06	8.2509e-06	1331.8	213.56	3.9245e-06	8.9744e-06	550.39	252.42	140.36	45.907	6.5146e-06	115.17	0.00060477	0.00072556	0.00018381	558.66	7.6826e-06	7.0047e-06	989.89	161.73	6.3636e-06	8.0755e-06	414.08	191.59	107.67	35.021	7.4148e-06	87.06	231.835	-5.635	19.608	-110.814	-7.697	48.321	-110.867	-103.280	0.515	74.638	-106.573	-100.550	-100.089	-93.401	45.357	-95.959	-8191	255	
2968.116	1	1	0	0	0.12478	0.10881	0.38507	0.036946	0.1611	0.19998	0.31661	0.17453	0.33529	0.23701	0.14361	0.29976	0.16364	0.07771	0.11226	0.22051	-2.5292	-3.3354	-2.5333	-3.1813	-3.1417	-2.6396	-3.4875	-2.8333	-2.7875	-3.3563	-2.4875	-3.3125	-3.1708	-2.6146	-3.5292	-2.9583	-87.932	87.840	9.348	184.264	-112.828	163.664	189.064	-80.921	3.914	43.457	217.686	190.423	211.557	233.293	90.145	137.647	0.00035892	0.0010493	0.00031269	752.99	7.641e-06	6.5875e-06	1348.2	216.18	3.9857e-06	4.3214e-06	558.52	255.76	141.09	46.377	6.4015e-06	116.55	0.00060231	0.00070954	0.00019783	558.98	7.697e-06	7.1993e-06	999.55	162.79	6.6264e-06	7.9799e-06	417.98	193.41	107.54	35.318	7.5547e-06	88.137	-111.128	5.518	-32.887	-110.835	89.698	9.914	-111.019	-103.702	72.229	-13.228	-106.331	-100.240	-100.152	-93.189	19.540	-95.724	-8191	255	
2968.212	1	1	0	0	0.19728	0.086894	0.024738	0.19188	0.036531	0.19064	0.49898	0.21532	0.12675	0.22286	0.20048	0.091046	0.045738	0.22056	0.088566	0.37829	-2.2771	-3.3604	-2.6042	-3.0187	-3.2146	-2.5104	-3.4708	-2.9333	-2.7292	-3.4854	-2.6208	-3.1542	-3.1708	-2.7417	-3.3354	-3.1458	76.423	14.323	-85.113	-103.658	-30.437	-100.143	170.279	100.187	114.195	87.892	203.900	-59.166	-67.309	-94.373	-77.118	199.671	0.00037958	0.00061354	0.000196	759.73	8.5434e-06	4.426e-06	1354.3	215.51	5.0309e-06	7.441e-06	564.78	257.19	142.18	46.362	1.0968e-05	117.91	0.00062105	0.00070821	0.00019762	563.29	7.9071e-06	7.533e-06	1007.4	162.21	6.6333e-06	8.1344e-06	423.92	194.8	108.57	35.251	7.2512e-06	88.857	233.497	-37.452	-20.043	-111.013	37.961	-22.320	-110.960	-103.871	36.706	-0.659	-106.007	-100.254	-99.430	-92.850	-19.735	-96.068	-8191	255	
2968.331	1	1	0	0	0.04769	0.29629	0.12413	0.046711	0.32372	0.1909	0.16171	0.3323	0.14024	0.13457	0.21596	0.13707	0.087373	0.18725	0.066885	0.33218	-2.1458	-3.3208	-2.4938	-3.0167	-3.0896	-2.3979	-3.3771	-3.0625	-2.5292	-3.2854	-2.8875	-2.9542	-3.3312	-2.5271	-3.25	-3.1958	37.838	216.752	204.432	213.311	105.128	-13.735	150.535	155.283	80.921	145.338	219.772	-112.959	-93.342	-82.756	-58.846	168.233	0.0003958	0.00058962	0.00025607	753.69	3.524e-06	3.1415e-06	1341.7	214.63	4.2175e-06	9.5299e-06	556.35	253.89	139.8	45.994	1.2591e-05	114.08	0.00062995	0.00076015	0.00020383	560.89	7.8731e-06	7.6706e-06	997.29	162.35	7.2198e-06	7.8547e-06	414.65	192.27	107.56	34.96	7.4957e-06	86.57	230.255	21.161	-49.057	-110.578	81.561	-22.366	-111.092	-104.075	10.141	-1.832	-106.342	-100.051	-99.289	-93.400	8.354	-96.199	-8191	255	
2968.427	1	1	0	0	0.22129	0.24651	0.28682	0.15045	0.028596	0.11205	0.29604	0.17548	0.19927	0.15325	0.27613	0.26429	0.10149	0.099951	0.41364	0.37293	-2.2979	-3.0833	-2.6646	-2.7375	-3.2917	-2.5604	-3.1917	-3.3563	-2.5333	-3.2521	-2.8729	-2.7979	-3.4333	-2.5563	-2.9479	-3.3083	-34.448	-60.465	-37.652	179.125	101.264	-32.619	228.010	232.206	-44.957	220.521	126.010	181.379	234.127	108.733	-64.888	126.638	0.00032104	0.0014423	0.0001346	741.82	4.4757e-06	6.7744e-06	1341.5	213.47	4.7233e-06	6.5613e-06	544.71	250.02	138.44	45.745	6.2744e-06	114	0.00061793	0.00068798	0.00021256	553.58	7.871e-06	7.6658e-06	991.17	160.05	7.6691e-06	7.3269e-06	408.22	190.18	105.82	34.747	7.1818e-06	86.122	235.892	-53.694	-7.721	-110.632	64.887	13.155	-111.083	-103.637	87.623	34.749	-106.270	-100.201	-99.847	-93.666	60.406	-96.098	-8191	255	
2968.499	1	1	0	0	0.059843	0.032625	0.071185	0.17326	0.094887	0.23022	0.13298	0.1433	0.11215	0.28195	0.28389	0.1387	0.20341	0.23929	0.11135	0.30619	-2.1688	-3.1375	-2.825	-2.825	-3.2042	-2.6813	-3.1688	-3.1104	-2.55	-3.375	-2.9646	-2.6542	-3.3958	-2.7313	-2.8479	-3.2938	-119.220	189.261	156.506	176.792	-5.587	100.576	-58.021	-37.133	-57.931	-77.818	190.345	172.523	-73.152	200.976	63.695	208.439	0.00039677	0.0003112	0.00044768	742.75	9.1907e-06	9.9934e-06	1345.6	210.71	1.8955e-06	8.819e-06	552.91	251.43	139.42	45.707	3.9716e-06	113.72	0.00066625	0.00069576	0.00022542	552.13	7.2478e-06	8.2116e-06	999.6	159.1	7.2402e-06	7.8948e-06	413.08	189.97	106.27	34.944	6.9646e-06	85.958	234.227	-21.349	-76.428	-110.630	35.988	11.135	-110.857	-103.616	14.842	-3.887	-106.733	-99.927	-99.510	-93.104	10.938	-95.678	-8191	255	
2968.619	1	1	0	0	0.35972	0.1278	0.21577	0.23536	0.10129	0.24647	0.28696	0.028698	0.13987	0.055578	0.26789	0.12855	0.16859	0.089675	0.057388	0.20645	-2.2292	-3.2625	-2.9562	-2.625	-3.3458	-2.5667	-3.0875	-3.2021	-2.5	-3.2167	-3.2146	-2.5292	-3.1708	-2.7521	-2.7562	-3.5042	26.016	234.232	154.840	193.561	50.811	16.166	185.005	-15.702	36.395	-102.672	203.620	-81.680	237.801	212.857	201.424	214.154	0.0004856	0.00016589	0.00011059	743.25	6.647e-06	9.2588e-06	1346.3	213.39	3.7432e-06	4.4465e-06	550.81	252.07	141.18	45.743	3.4298e-06	114.82	0.0006815	0.00070064	0.00021357	552.82	7.269e-06	8.462e-06	1000.5	160.78	7.6492e-06	7.7312e-06	413.8	191.14	106.73	34.925	7.1247e-06	87.047	232.394	-12.611	-24.323	-110.674	36.267	12.384	-110.939	-103.805	159.562	32.634	-106.265	-100.053	-99.668	-93.554	43.669	-95.845	-8191	255	
2968.715	1	1	0	0	0.27679	0.11386	0.062274	0.1087	0.042388	0.35432	0.15582	0.22818	0.18416	0.08962	0.23361	0.094013	0.15937	0.28451	0.29474	0.29768	-2.0771	-3.1375	-3.1479	-2.4375	-3.3021	-2.7438	-2.8812	-3.35	-2.4667	-3.0958	-3.2396	-2.7354	-3.1979	-2.9229	-2.7958	-3.5021	120.259	-22.250	108.399	48.611	-61.474	203.683	186.369	204.955	2.440	187.470	224.764	193.572	227.164	227.778	73.785	179.699	0.00047304	0.00060395	0.00019352	747.22	6.4419e-06	1.5179e-05	1346.1	216.61	3.0592e-06	1.1444e-05	560.3	252.81	141.27	45.866	1.0229e-05	115.28	0.00069246	0.0007176	0.00021484	551.86	7.3871e-06	8.7823e-06	999.74	162.57	8.4251e-06	7.6569e-06	416.91	192.17	107.17	34.955	7.4779e-06	87.332	237.061	-29.710	-33.820	-110.682	112.867	32.342	-110.929	-103.568	100.127	46.987	-106.016	-99.885	-99.694	-93.473	53.394	-95.923	-8191	255	
2968.812	1	1	0	0	0.26249	0.12281	0.16055	0.095921	0.079583	0.18877	0.25911	0.16259	0.26425	0.17289	0.26674	0.065396	0.090434	0.10151	0.40969	0.33226	-2.2625	-3.0479	-3.1271	-2.4917	-3.2583	-2.8708	-2.6375	-3.3521	-2.5583	-2.9479	-3.35	-2.6479	-3.3438	-3.2042	-2.5417	-3.5	136.016	-67.744	6.652	185.073	-121.290	153.274	149.273	183.728	-9.573	-88.343	208.908	225.961	141.368	210.057	200.167	222.689	0.000341	0.00070753	0.0001472	740.55	9.3899e-06	3.5711e-06	1329.5	216.35	6.732e-06	7.816e-06	557.53	249.31	139.96	45.609	3.4698e-06	114.3	0.00071128	0.00068359	0.00020459	551.68	7.3523e-06	8.8795e-06	990.97	163.59	8.4567e-06	7.1029e-06	415.51	189.89	106.55	34.794	7.8517e-06	86.592	224.420	-53.977	28.790	-111.242	24.332	11.578	-110.965	-103.771	-32.139	4.745	-105.970	-100.314	-99.866	-93.333	-4.299	-95.933	-8191	255	
2968.908	1	1	0	0	0.16187	0.15462	0.18069	0.071106	0.17398	0.15384	0.22131	0.084405	0.060394	0.086106	0.19634	0.20205	0.34693	0.089941	0.042378	0.24454	-2.4208	-2.8208	-3.2958	-2.5938	-3.3417	-2.9604	-2.6167	-3.4938	-2.7458	-2.7271	-3.3167	-2.4437	-3.0875	-3.1542	-2.5687	-3.6354	105.178	74.041	118.113	191.813	-69.702	199.314	106.679	-93.267	77.529	-55.028	189.372	220.293	-87.032	125.999	235.171	235.696	0.00039252	0.00072676	0.00045232	741.6	3.8238e-06	7.4678e-06	1328.4	218.21	6.7432e-06	1.6474e-05	551.62	249.57	141.11	45.608	5.8948e-06	115.29	0.00066682	0.00065814	0.00020249	548.28	6.8968e-06	8.3872e-06	988.22	163.83	7.8596e-06	6.9271e-06	413.9	189.97	107.01	34.782	7.7481e-06	86.751	220.928	4.861	-8.157	-110.872	23.454	17.174	-110.960	-103.510	42.397	68.197	-106.222	-100.327	-99.576	-93.253	22.278	-95.949	-8191	255	
2969.027	1	1	0	0	0.1587	0.19632	0.090813	0.21663	0.18074	0.24382	0.14935	0.12812	0.22618	0.12787	0.2059	0.30784	0.14544	0.28869	0.13379	0.38296	-2.4604	-2.7542	-3.3542	-2.4417	-3.1833	-3.2792	-2.7521	-3.2771	-2.9	-2.7062	-3.55	-2.6958	-3.0458	-3.1417	-2.525	-3.2562	27.499	135.243	225.620	188.960	-23.275	-78.900	171.137	171.291	234.425	-37.005	206.940	198.828	233.634	149.212	85.472	161.538	0.00034072	0.00088219	0.00030813	738.7	8.6038e-06	7.9613e-06	1333.9	215.75	5.8844e-06	6.4347e-06	556.22	251.67	139.43	45.394	8.4928e-06	113.37	0.00068294	0.0006491	0.00020865	548.01	6.8358e-06	8.1012e-06	994.36	162.33	7.7743e-06	7.0204e-06	415.53	190.32	105.86	34.537	8.2317e-06	85.963	-117.958	-85.184	-44.416	-110.438	31.757	42.051	-110.622	-104.013	-0.829	8.246	-106.540	-99.986	-99.950	-92.967	81.681	-95.578	-8191	255	
2969.123	1	1	0	0	0.11251	0.15676	0.067804	0.28663	0.27385	0.075221	0.20096	0.12884	0.12986	0.063707	0.19942	0.13101	0.13266	0.023209	0.30953	0.26184	-2.625	-2.575	-3.3438	-2.7354	-2.9083	-3.2875	-2.5417	-3.2313	-3.0375	-2.5646	-3.6188	-2.7417	-2.875	-3.2854	-2.6521	-3.2479	82.164	-53.683	202.494	228.365	-115.633	-58.697	-94.233	161.870	155.761	-81.240	175.335	204.083	61.156	-63.208	27.318	235.082	0.00037761	0.00063323	0.00021081	742.24	1.6472e-06	1.8876e-06	1327.2	215.56	2.0154e-06	5.7727e-06	556.71	250.57	138.14	45.271	6.2916e-06	113.13	0.00066545	0.00072964	0.00020792	550.58	6.9663e-06	8.456e-06	988.51	162.07	8.4005e-06	7.53e-06	415.61	190.02	105.44	34.62	8.703e-06	86.105	229.208	-37.608	-30.047	-110.717	98.073	-115.137	-110.824	-103.232	93.356	226.400	-106.305	-100.312	-99.010	-93.045	-12.996	-95.743	-8191	255	
2969.196	1	1	0	0	0.052016	0.21568	0.18783	0.18035	0.11054	0.12255	0.14369	0.17389	0.20175	0.10667	0.10888	0.41912	0.11308	0.026251	0.13073	0.27682	-2.7458	-2.5792	-3.3604	-2.9062	-2.85	-3.3458	-2.8063	-3.2687	-3.1854	-2.5812	-3.3563	-3.0042	-2.5875	-3.4771	-2.6562	-3.2188	99.078	180.405	222.118	74.404	-72.901	52.816	201.355	203.946	-42.314	-64.131	171.326	160.449	-55.583	-74.841	-41.044	226.573	0.00040265	0.00073704	0.00011037	746.3	4.1835e-06	7.6378e-06	1347.7	214.21	1.6814e-06	1.0898e-05	554.36	254.31	136.69	45.753	9.4442e-06	113.92	0.00070391	0.00073408	0.00021742	551.79	7.1135e-06	9.1956e-06	998.5	161.66	8.3067e-06	8.8088e-06	412.47	192.37	104.75	34.537	9.1306e-06	86.37	217.363	4.128	7.412	-110.522	121.532	8.546	-110.568	-103.403	36.158	63.078	-105.857	-100.076	-99.851	-92.718	17.250	-95.831	-8191	255	
2969.292	1	1	0	0	0.16442	0.13765	0.11268	0.103	0.054893	0.24755	0.36915	0.21841	0.19969	0.30041	0.30469	0.34976	0.19471	0.086782	0.26385	0.23666	-2.8375	-2.3792	-3.2146	-2.8396	-2.8208	-3.45	-2.7708	-2.9708	-3.2188	-2.5542	-3.3625	-3.1854	-2.6271	-3.3812	-2.6833	-3.0938	104.172	29.165	81.193	121.547	175.912	110.050	-88.645	-71.617	-102.529	230.583	205.490	175.781	17.819	173.509	139.675	163.458	0.00043608	0.00066682	0.00028873	717.47	6.3122e-06	9.1492e-06	1315	206.55	2.9899e-06	1.0531e-05	529.92	248.37	132.37	44.197	3.4835e-06	111.05	0.00076992	0.0008346	0.00022218	530.3	7.7861e-06	9.3058e-06	977.91	155.74	9.0863e-06	9.3549e-06	397.23	188.66	101.62	34.06	9.4035e-06	84.019	-116.768	2.402	-59.469	-110.433	36.918	106.678	-110.404	-102.774	-1.208	5.679	-105.298	-100.024	-99.208	-92.563	48.441	-95.468	-8191	255	
2969.411	1	1	0	0	0.17948	0.22285	0.19386	0.14279	0.11798	0.26099	0.29716	0.081029	0.28488	0.18594	0.17356	0.27661	0.07609	0.084188	0.060843	0.32791	-3.1042	-2.5729	-3.2562	-3.0271	-2.6292	-3.4854	-2.85	-2.7562	-3.4146	-2.6125	-3.275	-3.1063	-2.4458	-3.4271	-2.7333	-2.8083	26.098	199.039	219.691	162.695	-65.381	-58.213	220.862	58.021	231.674	28.407	197.965	159.571	183.888	117.222	91.310	204.720	0.00034223	0.0003688	0.00013444	694.64	5.3862e-06	6.9372e-06	1310.8	201.2	8.7554e-06	7.7289e-06	530.89	248.72	131.96	45.057	3.2584e-06	112.05	0.00070891	0.00083145	0.00021853	520.73	7.6383e-06	8.5186e-06	973.67	151.42	8.6948e-06	9.3535e-06	397.06	188.58	101.97	34.431	8.697e-06	84.823	233.993	40.091	-104.928	-110.081	72.217	124.727	-110.721	-103.376	21.211	49.914	-105.194	-100.263	-99.255	-92.892	62.476	-95.368	-8191	255	
2969.507	1	1	0	0	0.083649	0.19213	0.19592	0.0089343	0.13089	0.11701	0.3312	0.1399	0.25151	0.099469	0.06934	0.10845	0.1726	0.14447	0.13388	0.088332	-3	-2.5646	-3.1604	-3.175	-2.5458	-3.3354	-3.0125	-2.5125	-3.4292	-2.6875	-3.0563	-3.3417	-2.4729	-3.3854	-2.8604	-2.6708	40.638	117.927	-53.627	-100.062	52.005	230.917	203.387	141.736	190.626	67.260	86.425	-99.037	-59.485	-62.025	-84.541	106.486	0.00036814	0.00069404	0.00021703	700.84	1.2246e-05	1.6086e-05	1308.3	201.16	5.6133e-06	9.6177e-06	535.79	250.57	134.88	45.236	3.8525e-06	112.77	0.00064812	0.00077596	0.00019605	524.17	8.1217e-06	8.3173e-06	973.13	150.39	8.1012e-06	8.8219e-06	400.56	190.29	103.41	34.581	8.603e-06	85.578	225.653	-47.839	-42.229	-110.019	6.090	-22.270	-110.707	-102.948	58.641	25.177	-105.180	-99.983	-98.956	-92.754	-51.873	-95.135	-8191	255	
2969.603	1	1	0	0	0.15107	0.12105	0.17213	0.20581	0.28572	0.067007	0.18109	0.24602	0.079981	0.10856	0.13157	0.41015	0.24134	0.15383	0.08733	0.25601	-3.0167	-2.6625	-3	-3.2833	-2.4542	-3.1083	-3.0521	-2.425	-3.3083	-2.6667	-3.1063	-3.4813	-2.5458	-3.2646	-3.0583	-2.625	35.075	84.816	-8.299	6.747	-45.412	-61.919	-116.930	208.858	-5.463	21.132	153.398	207.275	69.692	-41.223	101.595	148.380	0.00038004	0.0011451	0.00016494	711.91	4.6295e-06	9.0132e-06	1311.7	202.38	1.4268e-06	1.6235e-06	534.94	252.11	135.13	45.572	9.3175e-06	113.66	0.00065444	0.00083637	0.00020125	528.19	8.322e-06	7.7621e-06	984.62	152.65	7.8672e-06	9.611e-06	401.08	191.13	102.87	34.662	8.0312e-06	86.005	235.584	-10.445	-70.564	-110.140	70.593	1.891	-110.471	-103.549	12.299	150.615	-105.595	-99.615	-98.398	-92.255	104.043	-95.247	-8191	255	
2969.724	1	1	0	0	0.1294	0.08196	0.19848	0.032982	0.17581	0.068559	0.12791	0.16741	0.20605	0.030088	0.34572	0.1016	0.20795	0.21675	0.36939	0.11774	-2.95	-2.5792	-2.6521	-3.3896	-2.6333	-3.5417	-3.2562	-2.6146	-3.2958	-2.7938	-2.9833	-3.4688	-2.4229	-3.2062	-3.125	-2.5146	1.567	-110.218	202.273	-74.539	-10.005	158.655	127.856	-46.105	226.949	135.402	142.248	-50.197	207.803	-39.954	10.909	186.324	0.00041484	0.00091555	0.0003299	699.06	9.2872e-06	5.5515e-06	1337.5	195.19	6.8673e-06	1.1357e-05	533.61	251.91	132.37	45.95	3.8526e-06	113.59	0.00068024	0.00079919	0.00020872	523.57	8.2509e-06	8.5048e-06	994.46	146.89	7.6519e-06	9.4263e-06	397.41	191.91	101.76	34.735	7.9954e-06	85.969	235.822	28.632	-33.417	-109.953	86.007	-13.067	-110.725	-102.594	43.276	76.599	-105.149	-99.771	-98.853	-92.273	12.974	-95.547	-8191	255	
2969.796	1	1	0	0	0.19071	0.089899	0.15524	0.33324	0.31396	0.20799	0.21409	0.05656	0.12405	0.2408	0.054352	0.28393	0.13065	0.034014	0.014422	0.2079	-2.9979	-2.9062	-2.6229	-3.3854	-2.5812	-2.8667	-3.4521	-2.4833	-3.3417	-2.9688	-2.5729	-3.4667	-2.7	-2.8063	-3.1542	-2.7604	-82.173	-105.685	175.341	182.471	-21.569	159.277	125.451	-104.292	16.717	-47.289	155.640	-104.087	99.771	215.315	-117.462	227.329	0.00041796	0.00049236	0.0001895	693.07	6.2978e-06	9.819e-06	1315.5	187.62	7.0855e-06	1.2141e-05	507.77	246.02	131.9	44.729	6.0643e-06	110.98	0.00066656	0.00084741	0.00022293	518.64	9.8555e-06	8.6059e-06	977.54	141.85	8.2074e-06	9.6455e-06	380.21	186.77	99.928	33.713	8.9341e-06	83.714	230.349	-23.601	-96.234	-109.945	3.630	-2.613	-110.218	-102.791	10.606	14.426	-104.805	-99.581	-98.874	-92.271	46.117	-95.134	-8191	255	
2969.892	1	1	0	0	0.10627	0.39656	0.36178	0.13787	0.20138	0.12732	0.29232	0.14926	0.20783	0.12644	0.20706	0.17142	0.1439	0.13192	0.09711	0.32489	-2.8979	-2.8937	-2.5	-3.2708	-2.6458	-3.0625	-3.4813	-2.55	-3.0583	-3.1271	-2.8375	-3.4896	-2.7	-2.8187	-3.4917	-2.8458	-17.336	238.318	112.413	150.028	-38.629	152.801	167.647	31.409	7.075	221.549	213.766	-118.070	240.257	160.058	-12.775	173.050	0.00033012	0.00063716	0.00026338	679.3	2.2887e-06	2.1451e-06	1280.1	177.7	6.8238e-06	4.9688e-06	494.23	241.9	128.04	43.939	2.3158e-06	110.6	0.00073689	0.00083966	0.00023004	503.75	9.517e-06	8.6396e-06	958.69	133.52	8.5088e-06	9.1913e-06	368.53	182.9	97.813	33.561	8.9721e-06	83.718	239.670	8.451	-29.589	-110.038	61.823	105.353	-109.725	-101.428	42.748	-32.355	-105.804	-99.227	-98.681	-91.519	142.601	-95.226	-8191	255	
2970.013	1	1	0	0	0.15444	0.17824	0.063318	0.076233	0.098561	0.13625	0.1152	0.11374	0.22443	0.12607	0.15585	0.30827	0.23189	0.083038	0.09868	0.15728	-2.7229	-3.1104	-2.5542	-3.4188	-2.5458	-2.8104	-3.3229	-2.3396	-3.2271	-3.1104	-2.5354	-3.4271	-2.9146	-2.9104	-3.4354	-2.7271	148.552	-72.442	24.528	-73.778	216.910	-108.251	-40.394	149.981	-100.328	155.521	200.712	191.347	129.528	81.515	-119.097	68.128	0.00034806	0.0015506	0.00047246	663.44	8.5031e-07	8.1108e-06	1290.7	170.7	6.663e-06	5.2087e-06	489.9	240.22	128.03	44.028	9.7687e-06	110.51	0.00071719	0.00086527	0.00023311	491.15	9.1716e-06	8.8427e-06	958.92	129.29	8.73e-06	9.4056e-06	365.06	182.09	98.123	33.513	9.3767e-06	83.494	235.296	-12.779	-52.288	-110.049	-103.338	-26.123	-110.183	-102.756	9.452	22.961	-105.038	-99.098	-98.791	-92.231	45.223	-95.192	-8191	255	
2970.109	1	1	0	0	0.093573	0.31716	0.18194	0.11196	0.14811	0.21955	0.34533	0.028205	0.10105	0.24745	0.17275	0.011435	0.33478	0.18823	0.036322	0.25012	-2.5729	-3.2979	-2.4583	-3.3833	-2.9875	-2.7646	-3.3854	-2.5083	-2.9396	-3.375	-2.7083	-3.2542	-3.2146	-2.7188	-3.3646	-2.6417	64.934	-23.087	46.957	-92.938	73.508	-60.829	189.446	30.163	228.011	91.251	186.102	-111.078	-85.527	165.436	159.002	144.553	0.00035738	0.00048884	0.00014321	656.44	5.0787e-06	1.0013e-05	1290.9	166.17	2.2564e-06	3.8186e-06	492.18	242.17	128	44.129	7.1301e-06	112.48	0.00075247	0.00084854	0.00024224	488.94	9.0055e-06	8.7588e-06	959.54	127.32	8.8132e-06	9.4309e-06	369.35	183.95	97.795	33.613	9.4376e-06	84.608	236.866	-75.535	77.392	-109.332	127.460	65.229	-110.268	-101.869	-94.348	50.770	-105.737	-99.526	-98.478	-91.787	12.472	-94.971	-8191	255	
2970.203	1	1	0	0	0.24261	0.16201	0.13961	0.19451	0.27064	0.059819	0.17828	0.072653	0.18019	0.18017	0.31302	0.36264	0.070741	0.011127	0.12459	0.12198	-2.575	-3.2104	-2.4875	-3.0333	-3.0271	-2.6271	-3.4979	-2.7979	-2.7812	-3.3125	-2.7125	-3.1354	-3.0938	-2.5146	-3.425	-2.9208	-49.651	-89.174	2.102	-111.443	46.710	121.752	-110.879	-82.758	-57.283	158.403	198.520	185.830	-65.761	116.955	-106.548	42.990	0.00039802	0.0010563	4.9667e-05	657.46	4.5685e-06	3.798e-06	1304.7	169.08	4.4953e-06	8.7674e-06	500.99	245.72	129.82	44.711	6.0661e-06	114.62	0.00074821	0.00080948	0.00024603	491.34	8.6003e-06	9.3063e-06	969.39	128.4	8.3043e-06	8.909e-06	372.51	186.29	99.523	33.971	8.5197e-06	86.344	233.482	-9.535	79.254	-109.552	49.377	-27.753	-110.046	-101.925	52.109	23.106	-105.314	-99.493	-98.770	-92.114	29.830	-95.357	-8191	255	
2970.324	1	1	0	0	0.15484	0.035086	0.11035	0.12186	0.044109	0.27356	0.31419	0.18409	0.14346	0.031482	0.13503	0.094577	0.11488	0.052184	0.0872	0.25827	-2.3292	-3.4417	-2.7125	-3.1542	-3.2875	-2.6729	-3.5062	-2.9042	-2.6646	-3.4708	-2.7208	-3.2146	-3.3146	-2.8167	-3.3292	-3.2146	198.459	118.581	17.206	-76.211	124.668	65.934	130.488	-74.358	181.868	234.327	58.169	183.903	-61.481	132.792	108.183	148.735	0.00038139	0.00085438	0.00030658	662.87	4.9157e-06	3.1962e-06	1292.9	171.99	6.2378e-06	1.3398e-05	500.46	243.07	132.31	44.992	5.1964e-06	113.68	0.00072115	0.00087356	0.00024506	495.55	8.53e-06	8.4037e-06	969.37	130.43	8.3359e-06	8.9059e-06	373.16	184.06	100.1	34.049	7.8055e-06	85.706	233.439	-28.435	-64.652	-109.851	31.691	1.161	-110.043	-102.147	83.558	-17.956	-105.323	-99.487	-98.703	-91.637	30.362	-95.088	-8191	255	
2970.395	1	1	0	0	0.11397	0.14358	0.11578	0.066258	0.092186	0.10305	0.19498	0.14609	0.24544	0.10398	0.21282	0.36803	0.052323	0.1527	0.082181	0.26531	-2.5979	-3.3417	-2.5812	-2.9521	-3.3042	-2.7021	-3.4521	-3.1146	-2.5	-3.6083	-2.8917	-3.0604	-3.4917	-2.6813	-3.4125	-3.2062	52.549	138.792	134.991	68.026	84.298	-78.715	224.117	198.624	110.120	-37.803	34.304	188.888	232.239	196.263	-28.308	135.575	0.0003633	0.00075679	0.00010622	659.31	5.0857e-06	1.4207e-05	1282.4	171.9	9.861e-06	7.7366e-07	501.47	243.09	131.56	45.023	4.7402e-06	113.67	0.00069007	0.00075563	0.00021702	491.41	7.8869e-06	8.3801e-06	956.34	130.59	7.8948e-06	7.8846e-06	372.67	183.91	99.62	34.087	8.0899e-06	85.714	226.877	-113.146	-31.569	-109.153	54.077	21.802	-109.836	-102.631	39.825	114.000	-104.909	-99.468	-98.826	-92.170	106.632	-95.510	-8191	255	
2970.492	1	1	0	0	0.12302	0.064247	0.2033	0.22207	0.13373	0.10832	0.29532	0.10277	0.068074	0.11633	0.3095	0.31085	0.087151	0.1216	0.23826	0.19024	-2.3333	-3.3354	-2.7167	-2.7938	-3.3958	-2.775	-3.4979	-3.2021	-2.5667	-3.6083	-3.025	-2.8896	-3.3438	-2.6646	-3.1875	-3.4146	178.472	217.786	-100.268	144.541	92.209	51.100	197.368	74.920	33.555	192.103	135.494	192.879	24.327	-85.778	46.870	192.761	0.00036785	0.00095611	0.0003652	671.09	4.6896e-06	1.1005e-05	1297.7	176.08	6.2308e-06	1.0491e-05	502.36	243.19	131.27	45.262	5.6706e-06	114.56	0.00067084	0.00070384	0.00021177	494.83	7.368e-06	7.8468e-06	965.17	132.16	7.1377e-06	7.6165e-06	376.5	184.65	100.14	34.227	7.5662e-06	86.48	236.524	-14.308	-37.697	-109.087	63.400	28.810	-110.303	-101.723	3.821	33.544	-105.942	-99.299	-98.311	-92.038	-24.936	-95.276	-8191	255	
2970.588	1	1	0	0	0.14444	0.16806	0.34443	0.19591	0.15821	0.13751	0.1703	0.16478	0.26341	0.059159	0.17231	0.13436	0.13542	0.11574	0.16222	0.30497	-2.2917	-3.2979	-2.7562	-2.5938	-3.5021	-2.6875	-3.175	-3.3417	-2.5458	-3.3979	-3.0729	-2.5458	-3.5125	-2.8958	-3.0417	-3.5708	94.734	-97.604	57.262	-120.284	132.395	-9.191	215.745	229.650	-30.394	-9.061	201.686	109.965	115.792	238.447	79.340	152.720	0.00033424	0.00078111	0.00036686	676.44	6.027e-06	4.7893e-06	1291.8	175.01	6.2104e-06	1.1202e-05	506.16	247.76	132.19	44.85	6.1121e-06	114.91	0.00069873	0.00070787	0.00020669	499.18	7.6895e-06	8.0768e-06	961.09	132.54	7.4527e-06	8.036e-06	379.43	187.15	101	34.212	7.5747e-06	86.697	219.358	-80.187	-17.268	-109.969	-21.051	125.152	-109.947	-102.725	29.666	12.837	-105.234	-99.250	-98.227	-92.301	11.403	-95.561	-8191	255	
2970.707	1	1	0	0	0.019726	0.0706	0.25565	0.062097	0.052303	0.2539	0.12925	0.15032	0.34493	0.10243	0.18334	0.1738	0.24377	0.36518	0.21816	0.091337	-2.3792	-3.3021	-2.8458	-2.7083	-3.3854	-2.7771	-3.0187	-3.4479	-2.6646	-3.2229	-3.2313	-2.6292	-3.5167	-2.9604	-2.8958	-3.5312	-18.940	198.512	-31.027	72.380	-107.248	-114.829	159.520	-19.664	49.884	235.498	-101.632	166.296	-111.675	238.457	90.824	32.431	0.00041039	0.00085565	0.00023945	664.86	5.3828e-06	1.0192e-05	1298.8	173.81	3.4429e-06	1.5213e-05	507	249	131.47	44.495	9.0229e-06	115.63	0.00069451	0.00072807	0.00021184	494.67	7.6192e-06	8.3926e-06	967.99	131.85	8.2095e-06	7.6726e-06	379.4	187.65	99.789	34.08	8.0519e-06	87.37	233.318	-48.761	-79.566	-109.593	37.594	21.453	-110.061	-102.149	20.939	8.393	-105.550	-99.026	-98.560	-91.932	38.475	-95.304	-8191	255	
2970.803	1	1	0	0	0.29307	0.02283	0.025873	0.13506	0.07203	0.15364	0.14972	0.12506	0.17276	0.19803	0.196	0.18051	0.15245	0.24381	0.11699	0.2183	-2.3917	-3.2708	-2.9854	-2.6833	-3.375	-2.8167	-2.7417	-3.4417	-2.8333	-3.1937	-3.4229	-2.7875	-3.4271	-3.0958	-2.95	-3.6	24.579	-108.340	87.117	133.591	21.027	124.031	190.580	22.667	181.978	213.709	205.176	140.887	206.195	206.858	-68.893	205.133	0.00034679	0.0012894	0.00018339	666.42	7.4837e-06	1.0698e-05	1293.8	176.5	1.0737e-06	1.1049e-05	501.22	244.15	131.18	44.672	6.8988e-06	113.38	0.00070541	0.00073166	0.00021201	498.24	8.201e-06	8.669e-06	964.58	132.01	8.4251e-06	8.1228e-06	375.33	185.32	99.521	34.037	7.7935e-06	85.767	234.078	-41.385	-40.907	-109.440	-11.842	97.011	-110.452	-102.058	-79.305	77.218	-105.219	-99.123	-98.839	-92.301	6.669	-95.123	-8191	255	
2970.899	1	1	0	0	0.18594	0.06086	0.17195	0.2362	0.079746	0.10938	0.31395	0.17377	0.18221	0.20397	0.23486	0.25869	0.18946	0.30261	0.097416	0.17022	-2.2833	-3.1458	-3.4042	-2.7812	-3.4083	-3.1479	-2.9792	-3.4479	-2.7188	-2.7896	-3.5146	-2.7333	-3.3688	-3.1354	-2.4854	-3.5792	38.695	-21.884	197.648	62.314	233.173	10.747	176.616	143.584	-27.805	234.723	225.150	210.077	-56.571	237.316	-87.578	-100.865	0.00031024	0.0007149	0.00018256	665.12	2.5042e-06	7.2806e-06	1278	174.93	6.2215e-06	9.1646e-06	501.24	240.66	130.71	44.478	5.7749e-06	112.29	0.00069007	0.00071493	0.00021595	494.24	7.3581e-06	8.6047e-06	953.55	131.1	8.3647e-06	8.1327e-06	371.56	182.3	99.083	33.765	8.9139e-06	84.982	223.457	-22.677	-16.348	-109.178	10.174	19.645	-109.874	-101.369	50.030	58.213	-105.050	-99.610	-98.426	-91.837	-34.844	-95.327	-8191	255	
2970.995	1	1	0	0	0.14608	0.074541	0.20342	0.19241	0.040761	0.094062	0.036174	0.021585	0.10559	0.11861	0.28745	0.20337	0.092415	0.1526	0.25648	0.28199	-2.4875	-2.9188	-3.2042	-2.625	-3.1417	-3.25	-2.7417	-3.4375	-2.8042	-2.7896	-3.3937	-2.6979	-3.4271	-3.2583	-2.6208	-3.7	-59.493	67.227	-1.762	235.046	-62.088	-12.633	89.324	-55.349	-22.186	-64.872	238.953	-95.044	17.260	207.654	25.093	197.812	0.00042675	0.00030942	0.00040383	668.2	4.0608e-06	9.9853e-06	1287.5	173.44	9.5664e-06	1.2249e-06	502.62	244.21	131.17	44.441	4.22e-06	113.61	0.00072733	0.00072694	0.00022538	494.4	8.2066e-06	8.6348e-06	956.79	130.25	8.4522e-06	8.7502e-06	372.9	184.83	99.522	33.779	7.9544e-06	85.622	220.335	-24.650	-41.031	-109.469	-116.233	24.646	-110.390	-102.112	64.650	148.635	-105.081	-99.427	-98.362	-92.107	11.323	-95.467	-8191	255	
2971.091	1	1	0	0	0.27972	0.16006	0.030652	0.1556	0.2546	0.16161	0.25048	0.20915	0.058547	0.16932	0.086837	0.19449	0.12423	0.089865	0.25072	0.17081	-2.3271	-2.8208	-3.35	-2.5875	-3.175	-3.4667	-2.7917	-3.4021	-3.1042	-2.7854	-3.5604	-2.8875	-3.0625	-3.2667	-2.4938	-3.3729	84.859	-5.959	191.749	-70.084	-100.114	149.677	152.921	151.882	16.568	114.300	175.040	150.005	116.156	97.904	1.037	166.169	0.00037407	0.0012251	0.00037616	662.58	7.8327e-06	7.703e-06	1293.3	172.79	2.1371e-06	1.2354e-05	499.34	243.94	128.21	44.733	4.5972e-06	114.9	0.00073926	0.00077673	0.00021465	496.98	7.9564e-06	8.7988e-06	963.04	130.3	8.0257e-06	8.7514e-06	373.73	185.09	98.1	33.846	8.6527e-06	86.424	236.271	-11.848	-14.018	-108.381	80.394	14.063	-109.595	-101.241	49.377	47.965	-104.878	-99.031	-98.951	-91.768	109.842	-94.834	-8191	255	
2971.187	1	1	0	0	0.18848	0.11023	0.15668	0.042793	0.2514	0.11465	0.27879	0.054918	0.23445	0.12645	0.27797	0.18935	0.091196	0.16223	0.23595	0.086822	-2.65	-2.7417	-3.4604	-2.9958	-3.0417	-3.4479	-2.6021	-3.4292	-3.0312	-2.6542	-3.7438	-3.0292	-3.05	-3.6208	-2.5708	-3.3833	-21.654	2.867	-14.599	46.865	224.769	215.688	232.986	-37.401	-78.657	63.238	190.809	134.509	236.287	81.784	128.739	236.432	0.00035339	0.00054152	0.00037534	671.67	5.9551e-06	7.2451e-06	1310.1	173.4	2.3751e-06	4.9929e-06	504.3	245.57	128.52	44.364	1.5483e-06	114.22	0.00073389	0.00076585	0.00022152	498.4	8.2061e-06	8.9415e-06	974.72	130.26	8.5253e-06	9.5407e-06	376.42	185.71	98.528	33.805	9.1896e-06	86.412	234.332	239.208	-44.212	-109.084	85.583	-27.100	-109.542	-101.896	-27.522	51.412	-104.871	-98.846	-98.188	-91.499	-4.255	-94.546	-8191	255	
2971.284	1	1	0	0	0.16664	0.12927	0.19627	0.13144	0.1448	0.039488	0.40152	0.082641	0.097205	0.090805	0.11624	0.13103	0.14228	0.13773	0.070146	0.062167	-2.9896	-2.6188	-3.4458	-2.8625	-2.8396	-3.4854	-2.7354	-3.3125	-3.3625	-2.6167	-3.5042	-3.0729	-2.6479	-3.4458	-2.4854	-3.2875	17.637	24.402	67.382	-86.491	50.275	131.090	205.638	106.972	20.618	198.128	135.690	28.824	-100.559	93.797	44.942	4.592	0.00032548	0.00097145	0.00010421	668.79	3.6327e-06	4.8423e-06	1294.8	174.13	4.534e-06	8.6203e-06	498.52	243.39	129.69	44.602	1.1937e-06	113.81	0.00070062	0.00082205	0.00021477	497.22	8.1973e-06	8.5422e-06	963.98	130.27	8.1181e-06	8.9412e-06	373.2	184.47	98.745	33.855	9.1093e-06	86.131	-116.462	23.616	-78.777	-108.753	71.886	48.436	-109.845	-101.253	40.724	21.832	-104.489	-98.908	-98.295	-91.643	-55.703	-94.697	-8191	255	
2971.404	1	1	0	0	0.15209	0.16926	0.031798	0.15054	0.16051	0.31471	0.051549	0.17253	0.16627	0.089684	0.18649	0.1536	0.18401	0.17653	0.077673	0.058101	-2.8875	-2.7708	-3.4125	-3.0021	-2.8667	-3.2542	-2.7125	-3.0104	-3.4813	-2.6771	-3.3937	-3.0292	-2.7292	-3.6104	-2.9208	-3.0187	1.945	-41.036	-119.028	69.966	-49.500	113.155	152.082	14.711	213.681	-60.348	180.864	229.859	132.554	211.446	-63.819	82.849	0.00035412	0.000525	0.00041093	659.6	3.1555e-06	1.3539e-05	1281.7	172.12	4.009e-06	8.5858e-06	492.02	241.94	129.19	43.893	8.1146e-06	113.06	0.00072683	0.00083011	0.00021478	489.88	8.5019e-06	8.6971e-06	947.11	129.41	8.3888e-06	9.7234e-06	369	182.53	98.416	33.477	8.774e-06	85.043	229.776	231.202	-29.090	-109.380	-13.077	37.762	-109.633	-101.536	59.579	80.536	-104.300	-98.953	-98.034	-92.018	42.160	-94.416	-8191	255	
2971.499	1	1	0	0	0.20703	0.081881	0.11644	0.18232	0.14683	0.084739	0.21325	0.062128	0.27107	0.12302	0.10237	0.31404	0.38361	0.082803	0.18601	0.37841	-3.1104	-2.5563	-3.2375	-3.1771	-2.5583	-3.5208	-2.9813	-2.8021	-3.5021	-2.6167	-3.325	-3.2458	-2.6396	-3.2958	-3.0375	-2.9542	66.626	39.725	-103.281	-90.582	87.640	-47.479	172.861	100.609	206.917	37.697	59.768	196.051	153.343	-106.541	-96.486	151.342	0.00037447	0.00023094	0.0002129	664.5	8.8272e-06	1.0583e-05	1284.4	169.52	6.0938e-06	6.512e-06	491.75	241.9	128.47	44.15	1.0106e-05	112.12	0.00070282	0.00084661	0.00021293	491.54	8.8901e-06	8.4365e-06	957.14	128.05	9.3467e-06	1.1105e-05	368.88	182.8	97.972	33.511	1.1183e-05	85.079	-112.601	1.542	235.861	-108.768	92.485	-7.499	-109.567	-102.138	-40.915	24.336	-104.827	-99.135	-98.200	-91.218	61.066	-95.197	-8191	255	
2971.596	1	1	0	0	0.33077	0.10404	0.21296	0.11385	0.14951	0.24906	0.24442	0.24015	0.28678	0.24965	0.15305	0.14018	0.26731	0.06783	0.1287	0.16208	-3.0146	-2.725	-3.075	-3.2521	-2.8083	-3.4979	-2.975	-2.85	-3.4292	-2.6771	-3.0687	-3.4938	-2.6146	-3.4479	-3.0271	-2.9125	-36.487	105.181	-14.383	-35.735	-41.586	147.765	121.123	156.235	142.271	-65.220	192.529	120.670	222.764	-18.159	-97.908	159.221	0.00033992	0.00031161	0.0001632	658.14	6.4916e-06	7.6303e-06	1283.3	172.25	8.6744e-06	1.2321e-05	496.42	244.95	128.32	44.165	6.6844e-06	113.77	0.00080584	0.0010623	0.00021548	490.89	9.7398e-06	8.7764e-06	951.73	128.31	8.5785e-06	1.0643e-05	370.59	184.35	98.023	33.486	9.9518e-06	86.066	226.005	0.223	1.709	-109.099	62.436	45.783	-109.784	-101.445	38.402	55.708	-105.305	-98.952	-98.155	-91.673	-6.256	-95.381	-8191	255	
2971.693	1	1	0	0	0.13198	0.27182	0.19494	0.054474	0.083191	0.12072	0.20485	0.13612	0.094917	0.14987	0.15147	0.1922	0.099738	0.11017	0.26835	0.18553	-3.1292	-2.7625	-3.1417	-3.4333	-2.7062	-3.4771	-3.2521	-2.6021	-3.5021	-2.7875	-2.8104	-3.5062	-2.7021	-3.2396	-3.1271	-2.8958	113.302	-103.810	39.409	204.155	71.170	25.252	141.179	-22.095	221.287	138.827	172.827	188.741	-76.007	221.628	47.581	185.045	0.0003979	0.00028368	0.00022292	661.56	8.1759e-06	4.6455e-06	1296.3	171.37	6.8897e-06	1.0175e-05	503.9	244.36	130.35	44.888	6.02e-06	115.11	0.00076807	0.0010227	0.00022259	492.87	1.0563e-05	8.5521e-06	958.64	128.97	8.3642e-06	9.4707e-06	376.3	185.62	98.827	33.959	9.3917e-06	87.18	230.069	56.062	-39.300	-108.565	0.758	230.808	-109.737	-100.795	-23.814	4.693	-104.390	-99.141	-99.008	-91.596	13.540	-94.396	-8191	255	
2971.787	1	1	0	0	0.11895	0.061313	0.21927	0.20096	0.16164	0.26261	0.30301	0.13956	0.21632	0.16144	0.1043	0.34306	0.029178	0.062846	0.18077	0.075881	-3.075	-2.8208	-2.9104	-3.6021	-2.5271	-3.05	-3.3125	-2.6312	-3.4146	-3.125	-2.9062	-3.5563	-2.625	-3.2438	-3.1458	-2.6833	128.423	65.319	171.679	98.147	189.935	106.865	186.312	232.124	26.348	-74.388	-87.682	188.927	183.717	238.975	56.882	214.714	0.00037557	0.00069727	0.00022075	672.94	4.5042e-06	1.1882e-06	1308	173.67	1.1831e-06	1.02e-05	503.68	243.67	129.45	44.689	5.8315e-06	115.24	0.00070628	0.00095928	0.00021918	495.9	9.7507e-06	8.5583e-06	964.91	130.48	8.0161e-06	1.043e-05	374.68	184.7	97.994	33.913	9.5005e-06	86.579	234.567	142.020	-44.977	-109.387	34.195	97.239	-109.696	-101.940	19.139	12.829	-104.116	-99.160	-98.417	-91.024	83.246	-94.252	-8191	255	
2971.883	1	1	0	0	0.094569	0.2385	0.12645	0.1948	0.31104	0.096259	0.2461	0.081827	0.16177	0.059009	0.11429	0.28224	0.40266	0.35688	0.094492	0.38362	-3.1667	-2.8021	-2.8937	-3.5208	-2.7521	-3.325	-3.3021	-2.6667	-3.4667	-3.0292	-2.8729	-3.6583	-2.7771	-3.1229	-3.4521	-3.0083	165.805	5.644	-50.546	149.830	-27.808	236.919	227.947	207.598	153.182	216.789	208.823	206.059	183.996	199.887	-74.049	-114.571	0.00043311	0.00046084	4.27e-05	663.41	5.9315e-06	8.9875e-06	1271.2	171.19	3.042e-06	1.0052e-05	489.5	240.81	128.46	44.264	5.1519e-06	113.08	0.00071722	0.0008915	0.0002356	489.49	9.4623e-06	8.745e-06	945.45	130.12	8.0752e-06	9.3287e-06	370.77	182.09	98.671	33.66	9.7204e-06	85.458	225.604	-75.739	-67.234	-108.593	-41.238	86.118	-109.787	-100.822	59.605	48.933	-104.852	-98.648	-98.835	-91.580	13.626	-94.646	-8191	255	
2972.004	1	1	0	0	0.072299	0.063761	0.12404	0.14072	0.31973	0.079381	0.24047	0.1288	0.30716	0.12013	0.22071	0.33505	0.3331	0.020668	0.079843	0.23212	-3.0667	-3.0729	-2.6229	-3.5312	-2.8688	-2.7542	-3.4562	-2.6542	-3.4771	-3.2083	-2.8875	-3.5917	-2.8333	-2.975	-3.3187	-2.7229	-28.089	93.942	-68.607	-62.221	135.564	-75.400	185.413	-9.691	121.705	-65.585	126.342	-95.452	96.333	192.784	222.223	-103.560	0.00042866	0.00071152	0.00013781	646.48	7.2619e-06	8.707e-06	1277.7	169.6	5.3557e-06	4.8133e-06	498.11	238.47	126.47	43.659	5.8154e-06	112.8	0.00068663	0.00086288	0.00023671	482.07	9.8038e-06	9.1302e-06	948.46	128.55	7.8794e-06	9.6119e-06	370.45	180.14	97.105	33.158	9.6524e-06	85.616	227.370	5.473	-95.975	-109.485	39.961	6.610	-109.212	-101.617	87.025	21.758	-104.450	-98.707	-98.622	-91.105	61.263	-94.385	-8191	255	
2972.100	1	1	0	0	0.045801	0.025858	0.063373	0.12588	0.29862	0.044723	0.23046	0.17336	0.15893	0.046787	0.052595	0.31351	0.11757	0.048384	0.19612	0.26309	-2.7729	-3.2396	-2.5479	-3.3563	-2.9938	-2.8312	-3.6	-2.6625	-3.1729	-3.2771	-2.8438	-3.6167	-3.0333	-2.7938	-3.4458	-2.9146	145.354	162.557	99.179	137.319	25.754	166.416	111.178	219.885	-102.447	165.138	234.486	149.564	144.338	-98.181	133.165	142.195	0.00038673	0.00043759	0.00043556	653.14	6.2741e-06	2.2249e-06	1282.5	169.78	1.3638e-06	7.812e-06	496.37	239.94	125.4	43.443	5.4759e-06	114.12	0.00068718	0.00083132	0.00025423	485.1	9.9303e-06	9.5355e-06	953.98	129.15	8.5589e-06	9.3825e-06	371.18	181.31	96.772	33.165	8.7806e-06	86.311	237.986	-50.926	-61.711	-108.729	-87.111	-12.216	-109.897	-101.667	35.369	-42.737	-104.327	-99.063	-98.433	-91.697	33.747	-94.735	-8191	255	
2972.196	1	1	0	0	0.14082	0.1796	0.2014	0.1161	0.12925	0.066643	0.18933	0.16753	0.091098	0.066823	0.32234	0.22482	0.041924	0.087802	0.26671	0.23535	-2.5708	-3.25	-2.3583	-3.3646	-3.0563	-2.7229	-3.6021	-2.8292	-2.9062	-3.3417	-2.6562	-3.4146	-3.0542	-2.5625	-3.4771	-3.0229	76.099	-107.655	-2.938	-57.588	-65.522	18.526	225.774	138.588	44.232	138.488	179.077	170.448	167.270	141.555	20.250	126.711	0.00036217	0.0007098	0.00031384	650.82	6.1924e-06	1.0789e-05	1294.6	173.21	5.0232e-06	8.4567e-06	501.87	240.64	127.95	43.257	3.8726e-06	115.19	0.00076708	0.00082765	0.00027529	482.06	9.9972e-06	9.9988e-06	957.6	130.05	8.4384e-06	1.002e-05	375.04	182.64	97.776	33.064	8.8579e-06	86.897	230.286	-84.658	2.252	-108.559	102.061	43.472	-109.755	-101.280	11.597	5.794	-104.735	-98.583	-98.255	-90.999	81.779	-94.822	-8191	255	
2972.292	1	1	0	0	0.21461	0.14927	0.11134	0.38637	0.084644	0.033388	0.20231	0.10377	0.12391	0.18453	0.35147	0.17257	0.15456	0.3024	0.10809	0.13131	-2.4854	-3.1604	-2.5729	-3.2687	-3.1813	-2.7854	-3.3521	-2.7521	-2.8479	-3.4437	-2.8146	-3.3271	-3.2396	-2.7542	-3.5396	-3.2542	209.462	-3.643	157.130	202.033	194.110	113.104	185.964	233.582	231.176	26.094	180.628	191.633	187.315	-44.858	162.043	160.574	0.00036348	0.0005493	0.00020365	659.97	3.9694e-06	4.7844e-06	1294.1	173.73	4.7312e-06	9.9532e-06	496.86	238.87	126.49	43.617	9.7317e-06	112.79	0.00074189	0.00084736	0.00025984	486.21	9.7184e-06	1.076e-05	959.8	130.19	9.272e-06	9.8831e-06	371.78	180.95	96.368	32.993	8.9964e-06	85.371	230.076	-44.626	-13.813	-108.768	24.738	11.839	-109.366	-102.021	32.335	-4.223	-104.651	-98.631	-98.789	-91.290	23.921	-95.023	-8191	255	
2972.388	1	1	0	0	0.075158	0.038307	0.11094	0.12449	0.054206	0.10505	0.21147	0.31203	0.21531	0.12466	0.21447	0.11088	0.081761	0.27623	0.046954	0.22065	-2.3063	-3.2604	-2.7521	-3.2062	-3.3667	-2.6437	-3.3	-3.1	-2.9	-3.4208	-2.7562	-3.1333	-3.2917	-2.7042	-3.3271	-3.0979	111.769	-17.479	125.692	52.700	-41.938	30.206	211.359	142.219	-42.333	-99.058	216.696	-67.424	87.251	-112.469	180.574	132.944	0.00040049	0.00041018	0.00024864	646.59	1.2068e-05	1.1786e-05	1274.4	172.14	1.7746e-06	4.055e-06	496.55	236.92	125.93	43.61	6.9571e-06	111.85	0.00081964	0.00084941	0.00027285	479.64	1.022e-05	1.1222e-05	947.08	129.84	9.6893e-06	9.6972e-06	368.65	178.88	96.435	32.984	8.5404e-06	84.86	-104.862	-44.995	-63.050	-108.433	11.659	61.127	-110.088	-101.815	27.748	64.888	-104.649	-98.596	-98.121	-91.336	38.387	-94.347	-8191	255	
2972.485	1	1	0	0	0.27195	0.13386	0.25498	0.041678	0.3402	0.12871	0.20656	0.23855	0.19126	0.10506	0.036359	0.10051	0.35397	0.13908	0.12749	0.22641	-2.2104	-3.3646	-2.6458	-3.1188	-3.4813	-2.7833	-3.2125	-3.0104	-2.5583	-3.4188	-3.0208	-2.9875	-3.5854	-2.7604	-3.1521	-3.3375	-101.426	32.311	176.484	107.464	108.602	191.751	-95.982	182.581	201.225	93.439	-5.963	-109.749	212.261	162.349	116.868	91.503	0.00040096	0.00094082	0.00025735	649.1	9.8046e-06	9.1679e-06	1271.5	173.64	4.3398e-06	1.2607e-06	498.83	236.57	126.84	43.226	5.0503e-06	112.57	0.00081552	0.00084844	0.00029708	480.87	9.4838e-06	1.1186e-05	950.87	131.23	1.0163e-05	9.5942e-06	372.15	178.66	96.352	32.91	9.1426e-06	85.39	239.889	-28.414	-24.203	-108.888	43.632	27.767	-109.968	-101.710	-3.434	36.791	-105.023	-98.685	-97.644	-91.017	-55.170	-94.869	-8191	255	
2972.581	1	1	0	0	0.21195	0.21569	0.15022	0.27791	0.21111	0.24937	0.18193	0.042283	0.074797	0.19338	0.05982	0.12831	0.19377	0.20222	0.094899	0.0514	-2.1688	-3.2646	-2.9458	-2.8667	-3.475	-2.6083	-3.2229	-3.0604	-2.5563	-3.4458	-3.0625	-2.8958	-3.4208	-2.8	-3.2479	-3.3333	213.310	76.497	117.684	-57.103	173.168	58.495	-102.748	182.805	-1.804	32.424	216.807	183.448	122.340	181.872	67.201	-23.255	0.00030027	0.00046312	0.00016656	646.2	1.2065e-05	1.2645e-05	1289.3	177.44	5.0102e-06	1.2265e-05	500.59	237.61	127.51	43.862	6.822e-06	114.28	0.00084033	0.00082739	0.00027835	481.98	9.1002e-06	1.0986e-05	960.81	133.05	1.0223e-05	9.2542e-06	376.88	180.32	97.76	33.385	9.124e-06	86.417	232.473	-50.962	27.134	-109.171	46.928	37.593	-109.691	-101.618	-33.300	60.698	-104.783	-98.309	-98.535	-91.598	77.051	-94.301	-8191	255	
2972.677	1	1	0	0	0.2993	0.08414	0.1048	0.14728	0.19284	0.061485	0.0098771	0.025934	0.12026	0.20521	0.10057	0.21551	0.37499	0.19049	0.099687	0.34127	-2.1188	-3.3521	-2.7896	-2.7188	-3.2458	-2.5438	-3.075	-3.3125	-2.7271	-3.375	-3.1708	-2.6708	-3.5458	-2.8354	-3.075	-3.4729	128.144	90.420	178.628	187.236	-54.931	-53.445	36.812	-63.824	-17.290	116.204	228.541	160.169	143.163	225.273	-83.489	164.917	0.00030847	0.00077436	0.00010613	657.61	6.6347e-06	2.1306e-06	1304.1	176.33	3.9163e-06	7.0917e-06	505.64	238.75	129.63	43.672	8.8133e-06	115.59	0.00083606	0.00079913	0.00026026	489.42	8.7587e-06	1.0621e-05	969.32	133.1	1.045e-05	8.6845e-06	378.82	181.65	98.635	33.368	9.3989e-06	87.305	232.333	-19.761	40.354	-109.087	73.066	102.352	-109.123	-101.341	34.605	-15.344	-104.555	-98.521	-97.559	-91.495	55.118	-94.571	-8191	255	
2972.796	1	1	0	0	0.20679	0.30184	0.076813	0.39642	0.069449	0.11426	0.20833	0.091968	0.074056	0.25951	0.21983	0.12865	0.095506	0.21025	0.2895	0.17756	-2.1458	-3.1562	-3.1646	-2.6208	-3.625	-2.8333	-3.0229	-3.3271	-2.7125	-3.3125	-3.2042	-2.7104	-3.4437	-3.0458	-2.9625	-3.5729	-24.864	170.723	-73.897	-97.017	116.799	-40.491	-98.233	52.642	220.965	45.206	-96.805	85.107	-62.241	231.092	-35.880	175.995	0.00035651	0.00035718	7.5451e-05	655.68	1.2729e-06	7.5567e-06	1300.1	177.24	6.7545e-06	6.7603e-06	509.01	238.48	126.17	44.01	9.1945e-06	113.61	0.00082861	0.00084743	0.00025606	487.94	7.8108e-06	1.007e-05	973.15	133.61	1.0071e-05	8.7357e-06	378.2	181.28	97.562	33.407	1.0072e-05	86.316	232.948	-21.002	105.777	-109.450	134.047	65.254	-109.795	-101.768	35.037	30.227	-104.977	-98.864	-97.692	-91.359	3.692	-94.876	-8191	255	
2972.892	1	1	0	0	0.33046	0.15126	0.019733	0.028952	0.15362	0.058264	0.20146	0.021539	0.19124	0.14139	0.097745	0.16835	0.12272	0.23608	0.39208	0.15856	-1.9604	-3.0958	-3.3729	-2.6604	-3.5167	-3.0854	-2.8833	-3.6771	-2.5833	-3.1917	-3.3854	-2.8	-3.4021	-2.8542	-2.7188	-3.5958	43.452	125.013	213.546	-54.587	120.801	27.569	233.884	92.930	122.610	176.008	-43.133	202.583	-92.992	58.596	44.929	156.824	0.00041635	0.0010541	0.00021408	649.59	5.7738e-06	1.359e-05	1286.2	177.31	7.9667e-06	5.0826e-06	493.14	235.39	128.62	42.958	7.6516e-06	112.5	0.00082532	0.00085683	0.00025733	485.15	8.526e-06	1.0713e-05	958.67	132.2	1.0641e-05	9.3882e-06	369.16	178.67	97.181	32.741	1.0805e-05	84.96	-110.419	16.028	-19.114	-108.673	-14.836	7.635	-109.318	-101.050	50.488	-2.843	-104.853	-98.724	-97.752	-91.552	47.759	-94.881	-8191	255	
2972.964	1	1	0	0	0.075113	0.10858	0.11314	0.095881	0.035138	0.11874	0.36218	0.086437	0.15076	0.13149	0.15719	0.36171	0.17563	0.18771	0.28452	0.034999	-2.4479	-2.9417	-3.2917	-2.6729	-3.2687	-2.9458	-2.7188	-3.4667	-2.8292	-2.825	-3.3979	-2.7146	-3.3771	-3.1479	-2.5979	-3.4896	66.817	-116.970	-83.597	112.884	111.406	18.705	182.412	-39.091	35.062	157.557	239.882	199.124	125.521	-112.274	102.738	-95.496	0.00031544	0.00076756	0.00015219	645.8	7.2122e-06	8.7762e-06	1294.3	168.15	6.8101e-06	6.3427e-06	484.54	235.85	125	42.707	1.0816e-05	114.01	0.00079622	0.0009245	0.00025224	482.17	8.7242e-06	1.1032e-05	963.64	127.5	1.0379e-05	1.0398e-05	364.72	178.52	96.048	32.602	1.1307e-05	85.812	230.496	-49.550	-75.232	-108.779	37.289	75.384	-109.760	-101.267	45.985	112.418	-104.850	-98.223	-98.136	-91.755	47.592	-94.649	-8191	255	
2973.084	1	1	0	0	0.034805	0.37253	0.18507	0.17476	0.17471	0.10997	0.23085	0.25236	0.033189	0.12807	0.22879	0.34056	0.17665	0.10414	0.094789	0.15783	-2.5312	-2.9646	-3.2771	-2.6271	-3.2521	-3.0583	-2.8083	-3.5	-2.8833	-2.8104	-3.5771	-2.7604	-3.1333	-3.2729	-2.5854	-3.3937	156.238	197.979	90.987	32.258	209.285	119.033	151.678	-89.055	79.284	167.443	209.648	200.662	204.718	12.742	-31.791	171.950	0.00043372	0.0015529	0.0001563	638.3	5.5486e-06	7.1661e-06	1290.7	169	4.7523e-06	3.7931e-06	487.15	238.74	127.24	43.603	5.5294e-06	115.41	0.00085392	0.0010007	0.00025207	475.84	9.7884e-06	1.1483e-05	961.02	126.94	1.0591e-05	1.1368e-05	367.13	181.03	96.895	33.222	1.1725e-05	87.191	237.879	-30.362	-36.881	-108.718	182.450	-5.774	-109.656	-101.458	-15.593	-11.843	-104.628	-98.403	-98.012	-91.475	53.421	-94.800	-8191	255	
2973.180	1	1	0	0	0.17466	0.23958	0.10869	0.1342	0.12434	0.13039	0.13296	0.051916	0.19622	0.076475	0.12566	0.054471	0.073509	0.18005	0.0919	0.42973	-2.5708	-2.7479	-3.4542	-2.7583	-2.95	-3.3438	-2.6625	-3.3854	-3.0417	-2.6708	-3.4479	-3.0521	-3.0292	-3.4646	-2.6146	-3.2771	175.515	-99.080	4.844	171.592	218.912	167.128	212.927	118.482	-80.785	69.990	-80.040	167.352	-100.896	157.806	215.387	160.043	0.00046125	0.00064021	0.00042794	646.47	6.5181e-06	6.2067e-06	1314.1	170.9	3.4959e-06	1.9304e-05	501.4	241.29	128.64	44.451	6.4286e-06	117.52	0.0008266	0.00099708	0.00024962	484.41	9.1872e-06	1.0401e-05	980.73	129.26	9.946e-06	1.1059e-05	376.02	182.95	98.258	33.742	1.0949e-05	88.809	235.153	-72.336	-13.913	-108.659	66.313	39.957	-110.026	-101.352	113.123	9.401	-104.533	-98.753	-98.250	-91.031	53.074	-94.552	-8191	255	
2973.276	1	1	0	0	0.33836	0.073131	0.20577	0.21409	0.11904	0.19259	0.31335	0.18577	0.037988	0.17323	0.19199	0.39285	0.19663	0.27611	0.058317	0.20279	-2.8854	-2.5542	-3.3833	-2.9375	-2.8563	-3.4104	-2.6646	-3.2375	-3.2271	-2.7479	-3.4917	-3.1646	-2.8229	-3.4229	-2.8708	-3.4604	-85.582	-109.443	-63.122	165.976	116.550	26.741	17.062	73.058	136.003	-33.041	-82.188	216.277	191.254	137.678	77.751	192.530	0.00049545	0.00071044	0.00016641	642.68	2.8225e-06	1.2661e-05	1336	170.94	8.6329e-06	1.2198e-05	511.83	245.38	129.31	45.041	8.5437e-06	119.68	0.00078574	0.00097196	0.00023811	481.32	9.8542e-06	9.5083e-06	993.61	128.43	8.8471e-06	1.0264e-05	379.13	185.34	99.302	34.194	9.5365e-06	89.971	234.721	-29.193	25.213	-108.427	13.867	53.441	-109.576	-101.338	-30.341	-23.297	-104.765	-98.731	-98.079	-90.823	96.729	-94.393	-8191	255	
2973.397	1	1	0	0	0.41764	0.069247	0.1797	0.24114	0.095451	0.19417	0.33162	0.047821	0.083432	0.11091	0.12782	0.18118	0.10185	0.061077	0.048667	0.20887	-2.8271	-2.575	-3.4896	-2.9729	-2.8542	-3.4688	-3.0229	-3.3083	-3.1875	-2.6625	-3.4854	-3.1312	-2.5125	-3.4667	-2.6521	-3.1729	175.655	-76.929	116.250	233.570	-91.490	-17.176	200.971	106.660	34.110	118.381	238.136	226.165	237.252	152.082	-24.937	206.074	0.00038016	0.00092304	0.00021828	648.49	6.0971e-06	1.061e-05	1299.8	170.36	7.2267e-06	1.1149e-05	497.36	240.09	127.49	44.91	9.5563e-07	117.55	0.0007319	0.00093105	0.00021275	482.9	9.1946e-06	8.8854e-06	971.43	128.17	8.9769e-06	1.0771e-05	372.65	181.63	97.92	33.914	9.9141e-06	88.438	235.200	-40.799	-96.462	-108.858	-23.700	49.489	-109.457	-100.994	86.825	18.772	-105.061	-98.850	-98.278	-90.744	-106.358	-94.636	-8191	255	
2973.493	1	1	0	0	0.10157	0.22769	0.096725	0.099088	0.029261	0.083912	0.18757	0.11917	0.25246	0.13398	0.14494	0.059039	0.22939	0.076436	0.22763	0.10905	-3.05	-2.6625	-3.2938	-2.9271	-2.8479	-3.4229	-2.9125	-3.1854	-3.4333	-2.5167	-3.475	-3.2979	-2.6771	-3.6604	-2.8021	-2.9833	-68.131	55.719	193.028	104.572	111.464	35.147	137.487	-75.774	34.140	86.638	198.177	-96.695	167.548	111.608	-105.586	216.072	0.00033762	0.00058348	0.00027852	649.06	1.903e-06	4.2796e-06	1300.2	166.42	1.1758e-05	1.3325e-05	489.05	239.74	128.1	44.633	6.5396e-07	117	0.00071512	0.0009659	0.00021943	483.74	9.11e-06	8.8792e-06	965.53	125.02	9.0993e-06	1.1027e-05	365.66	181.9	97.494	33.8	9.6223e-06	88.598	234.224	8.698	-46.601	-108.883	64.217	68.297	-109.925	-101.226	65.908	-3.792	-104.524	-98.629	-97.852	-91.424	-15.685	-94.426	-8191	255	
2973.565	1	1	0	0	0.18703	0.054567	0.16693	0.19431	0.022884	0.15079	0.18055	0.23764	0.1276	0.1477	0.15967	0.24559	0.12591	0.10974	0.14174	0.16889	-3.2229	-2.4729	-3.3458	-3.3563	-2.5958	-3.4167	-3.0104	-3.0042	-3.5146	-2.8292	-3.1979	-3.4271	-2.6021	-3.65	-2.9271	-2.9708	54.869	212.487	23.843	151.885	221.455	73.584	103.494	110.628	63.149	84.975	-55.980	222.769	205.292	-87.825	-116.797	176.435	0.00044097	0.0011255	0.0001375	647.92	2.4159e-06	9.9478e-06	1293.8	163.92	5.2668e-06	8.8212e-06	496.74	240.51	127.78	44.368	3.1773e-06	119.1	0.00071499	0.00095792	0.00023588	482.42	9.5043e-06	8.3867e-06	964.18	124.39	8.0219e-06	1.0261e-05	371.89	182.98	97.877	33.671	9.0229e-06	90.181	235.478	-14.203	-60.080	-108.884	-84.788	-7.808	-110.037	-100.828	18.155	57.195	-104.248	-98.700	-98.404	-91.579	236.866	-94.381	-8191	255	
2973.686	1	1	0	0	0.17999	0.2024	0.19098	0.21401	0.12733	0.17286	0.4715	0.022794	0.15448	0.14109	0.13641	0.16323	0.11838	0.13525	0.11378	0.24704	-3.1729	-2.6646	-3.0854	-3.4333	-2.6417	-3.5708	-3.0875	-2.8625	-3.4375	-2.7979	-3	-3.5604	-2.5479	-3.3708	-3.0354	-2.7792	209.475	209.766	153.408	139.933	187.285	-36.253	214.784	84.108	106.291	235.401	237.182	193.589	237.370	-79.338	-53.460	196.988	0.00046356	0.00078695	0.00022137	659.82	4.0559e-07	1.3235e-05	1306.5	170.31	2.4319e-06	1.3128e-05	509.38	246.06	128.64	44.698	1.0741e-05	119.61	0.0007157	0.0009338	0.00023232	492.18	9.5868e-06	8.5373e-06	970.59	128.1	8.2198e-06	1.0338e-05	380.04	186.24	99.037	34.047	8.8164e-06	90.88	238.303	-21.528	-101.497	-109.073	-6.649	-2.039	-109.663	-101.305	17.801	64.810	-104.069	-98.803	-98.302	-91.375	29.996	-94.214	-8191	255	
2973.780	1	1	0	0	0.22798	0.15411	0.27091	0.31617	0.20883	0.13221	0.32251	0.26375	0.12421	0.23476	0.20945	0.2498	0.28704	0.44631	0.28086	0.27825	-3.1521	-2.775	-2.8396	-3.5229	-2.5958	-3.2812	-3.3729	-2.7188	-3.5583	-2.9167	-3.0875	-3.5583	-2.8083	-3.2625	-3.3375	-2.9104	-112.392	106.719	115.089	-76.667	-4.062	-117.521	187.373	162.124	-81.740	176.205	231.969	238.259	215.454	189.416	34.486	205.841	0.00042173	0.00092297	0.00044294	667.79	7.7407e-06	1.3505e-05	1308.1	170.8	4.7439e-06	1.0161e-05	505.46	246.62	129.93	44.823	9.7912e-06	120.35	0.00068716	0.00086427	0.000234	496.25	9.4419e-06	8.4957e-06	976.45	128.5	7.8198e-06	9.8828e-06	378.65	186.82	99.455	34.086	9.5092e-06	90.422	230.955	-47.995	-67.900	-108.967	83.834	52.417	-109.938	-101.052	72.863	45.474	-104.610	-98.649	-97.509	-91.827	29.709	-94.587	-8191	255	
2973.876	1	1	0	0	0.2446	0.14349	0.11889	0.25046	0.033259	0.26762	0.34736	0.095681	0.16523	0.16077	0.065877	0.1346	0.17211	0.1321	0.080696	0.14887	-3.1813	-2.7938	-2.6875	-3.4813	-2.6292	-3.3354	-3.4062	-2.6063	-3.3937	-2.9771	-2.9042	-3.5333	-2.9083	-3.1479	-3.4146	-2.825	117.655	104.846	37.764	238.973	-23.953	-89.162	167.286	49.976	-29.274	144.478	60.831	73.543	137.323	67.883	-41.798	123.605	0.00037627	0.00055881	0.00016579	656.55	8.861e-06	1.3143e-05	1299.9	166.56	8.142e-06	2.2861e-06	493.04	241.49	127.68	44.417	1.161e-05	115.91	0.00071405	0.00094239	0.00023847	487.32	1.0025e-05	9.5576e-06	967.61	126.49	8.7449e-06	1.0167e-05	369.01	182.68	97.292	33.758	8.9481e-06	87.926	235.352	-89.099	-47.120	-109.175	67.264	43.630	-109.718	-101.578	101.428	104.287	-104.622	-98.874	-98.062	-90.857	69.305	-94.832	-8191	255	
2973.972	1	1	0	0	0.11716	0.14883	0.07638	0.23698	0.085484	0.17922	0.24555	0.11956	0.23288	0.24753	0.26892	0.12133	0.17438	0.22538	0.066309	0.24994	-2.8479	-2.9813	-2.5438	-3.5333	-2.7021	-2.9688	-3.5479	-2.7167	-3.2417	-3.2083	-2.8604	-3.5229	-2.8187	-2.9708	-3.5604	-2.8937	225.670	147.737	151.880	217.454	6.837	153.202	174.345	168.054	-86.817	92.340	131.374	-85.425	240.028	219.186	-101.881	-113.370	0.00045027	0.00094119	0.0001229	647.77	4.7711e-06	1.0643e-05	1313.9	163.61	4.3942e-06	4.3367e-06	489.69	240.4	128.2	44.493	4e-06	115.21	0.00077453	0.00091886	0.00026373	479.94	1.0093e-05	9.8847e-06	976.27	124.14	9.2071e-06	9.9676e-06	364.4	181.78	96.814	33.925	9.4469e-06	87.618	230.936	-59.396	14.846	-109.304	-28.382	37.644	-109.574	-100.748	-8.788	-45.094	-104.880	-98.235	-98.526	-91.215	41.112	-94.581	-8191	255	
2974.093	1	1	0	0	0.055203	0.16087	0.056471	0.16389	0.32694	0.17253	0.32357	0.075094	0.10049	0.18126	0.071154	0.093919	0.14703	0.081546	0.20247	0.26222	-2.8146	-3.1937	-2.4688	-3.3667	-3.0229	-2.7896	-3.6	-2.8104	-3.2729	-3.2479	-2.7562	-3.5021	-2.7938	-2.9437	-3.4604	-3.0625	127.793	-16.704	61.792	179.215	-60.560	-60.094	189.866	-50.455	-39.013	-106.455	-114.824	133.035	-32.462	153.221	106.626	166.157	0.00041358	0.0018996	4.5654e-05	639.21	3.2025e-06	1.2708e-05	1330.4	163.59	5.9431e-06	7.1866e-06	481.58	243.29	126.74	44.823	1.0164e-05	117.71	0.00077049	0.00095484	0.00029657	474.89	1.0253e-05	1.0315e-05	987.62	123.13	8.7671e-06	9.3341e-06	362.68	183.21	97.102	34.136	9.2199e-06	88.946	237.460	-8.715	-114.419	-108.418	116.473	-71.524	-109.932	-101.273	30.000	-77.261	-104.244	-99.185	-98.070	-91.091	51.470	-94.404	-8191	255	
2974.189	1	1	0	0	0.15183	0.050539	0.14913	0.25493	0.12521	0.01208	0.10631	0.21057	0.075593	0.35855	0.14814	0.23608	0.11594	0.024253	0.097332	0.28212	-2.7542	-3.2333	-2.6271	-3.4979	-3.0875	-2.7562	-3.5479	-2.8917	-3.0729	-3.275	-2.6917	-3.3583	-3.2792	-2.875	-3.4875	-2.7708	-96.707	38.218	-98.991	233.236	-96.364	186.854	110.377	142.435	47.583	183.668	155.632	215.797	231.551	126.493	156.564	193.074	0.00042192	0.00032724	0.00040845	652.09	3.6775e-06	4.2055e-06	1298.8	157.84	1.0721e-05	1.1213e-05	480.41	246.45	126.74	44.583	8.6343e-06	118.4	0.00080119	0.00093562	0.00029603	482.99	9.7576e-06	1.1299e-05	960.9	119.35	1.0088e-05	9.7436e-06	359.3	185.7	96.289	34.1	8.9396e-06	89.844	235.535	83.137	-3.746	-108.306	85.322	46.597	-109.491	-101.942	21.219	24.185	-104.524	-98.899	-98.160	-91.337	35.667	-94.775	-8191	255	
2974.261	1	1	0	0	0.30205	0.17761	0.2651	0.12937	0.037804	0.024983	0.087729	0.06892	0.065285	0.10636	0.18807	0.26688	0.11659	0.11333	0.13309	0.16344	-2.4771	-3.3104	-2.5354	-3.4437	-3.1521	-2.6333	-3.7354	-2.8271	-2.8937	-3.3771	-2.8083	-3.2708	-3.0563	-2.8854	-3.5479	-3.1	-88.031	145.537	184.709	232.086	-22.391	164.900	-38.017	59.577	190.334	51.869	200.715	182.848	153.650	116.092	78.539	174.000	0.00045791	0.0013417	0.00024772	637.1	9.84e-06	7.6039e-06	1291.3	157.67	4.1691e-06	1.7079e-05	486.45	247.09	126.97	45.029	6.4868e-06	117.14	0.00085112	0.00090387	0.00028065	475.38	9.7348e-06	1.1177e-05	958.79	119.77	1.0185e-05	9.3259e-06	362.56	186.15	96.332	34.06	8.9628e-06	89.08	237.064	-56.569	-94.986	-109.178	20.623	59.853	-109.641	-101.552	72.832	57.386	-104.501	-98.312	-97.687	-91.380	22.844	-94.494	-8191	255	
2974.357	1	1	0	0	0.02221	0.094369	0.22934	0.20367	0.057158	0.18237	0.017827	0.18459	0.055484	0.10769	0.21721	0.30996	0.13264	0.22142	0.063126	0.21277	-2.5938	-3.6208	-2.7667	-3.1937	-3.1917	-2.6188	-3.5917	-2.975	-2.7125	-3.4583	-2.8354	-3.3958	-3.2042	-2.7958	-3.3625	-3.1813	36.225	8.489	183.641	124.418	64.720	142.931	119.621	224.870	-89.559	141.517	136.902	-109.898	202.432	171.676	-35.336	202.592	0.00042448	0.0010408	0.00020093	638.51	8.0975e-06	1.409e-05	1281.7	159.31	5.5044e-06	6.8041e-06	479.18	238.21	124.39	44.339	6.1789e-06	116.21	0.00081963	0.00087803	0.00027432	474.9	9.1676e-06	1.1549e-05	954.74	121.33	1.0147e-05	9.7783e-06	355.56	180.75	95.375	33.658	9.348e-06	87.965	235.093	-60.656	-48.552	-108.824	-8.760	8.568	-109.454	-100.994	5.846	5.494	-104.123	-98.704	-98.902	-90.835	-5.204	-94.620	-8191	255	
2974.477	1	1	0	0	0.26325	0.19102	0.12711	0.18348	0.26237	0.068712	0.33323	0.28457	0.22343	0.24981	0.20295	0.18586	0.21063	0.14918	0.086389	0.2324	-2.6125	-3.4896	-2.8375	-3.1042	-3.2771	-2.5604	-3.5187	-3.0333	-2.7208	-3.4813	-2.8146	-3.1312	-3.5042	-2.525	-3.275	-3.2604	139.114	-58.547	-118.511	-106.033	63.776	13.626	180.258	188.021	53.764	203.947	209.929	229.621	58.649	-113.463	136.734	215.294	0.00031736	0.0012062	0.00019439	629.46	8.7031e-06	5.9666e-06	1300	160.05	2.8177e-06	1.0292e-05	477.89	239.52	125.37	44.473	5.301e-06	117.07	0.0008368	0.00085044	0.0002932	468.27	8.4454e-06	1.1001e-05	966.06	121.11	1.0134e-05	8.7892e-06	357.73	181.98	95.972	33.579	9.7723e-06	88.681	232.239	-34.349	-98.867	-108.531	58.291	-105.681	-109.529	-101.281	-74.697	166.810	-104.614	-98.529	-98.091	-91.989	36.347	-94.653	-8191	255	
2974.572	1	1	0	0	0.14813	0.30377	0.01275	0.057215	0.15211	0.14583	0.16042	0.26826	0.20546	0.14287	0.074575	0.19559	0.085522	0.22443	0.053019	0.46883	-2.4188	-3.4354	-2.7896	-2.9188	-3.4333	-2.775	-3.35	-3.025	-2.5208	-3.5187	-2.8271	-2.95	-3.5104	-2.7229	-3.2792	-3.3479	-108.723	-18.561	152.513	25.997	4.741	41.802	128.023	75.555	-80.016	187.516	103.383	188.422	-112.277	226.814	120.987	191.862	0.00029935	0.0012196	0.00025077	640.6	5.415e-06	8.129e-06	1310.3	162.9	5.9375e-06	1.668e-05	488.27	243.58	124.66	44.367	2.6503e-06	118.7	0.00084495	0.00083329	0.00025856	477.64	8.5937e-06	1.0681e-05	975.01	122.48	9.6432e-06	9.7533e-06	363.23	184.65	95.932	33.785	9.4707e-06	89.926	239.887	-39.611	65.077	-108.522	50.641	117.532	-109.178	-100.925	90.194	11.914	-104.851	-98.454	-98.561	-91.134	-43.428	-94.438	-8191	255	
#DATA ENDS
