BOXY.EXE: ISS Imagent and Oximeter Data Acquisition Program Version 0.80
Ascii Record File

#ACQ INFORMATION
2  Detector Channels 
16  External MUX Channels 
1  Auxiliary Channels 
5000  Waveform (CCF) Frequency (Hz)
1  Waveforms Skipped 
30  Waveforms Averaged 
1  Cycles Averaged 
16  Acquisitions per Waveform 
10.0806  Updata Rate (Hz) 

#FILE INFORMATION
TRUE -- External MUX Channel results are PARSED.
FALSE -- AC DC and Phase are NOT grouped.
TRUE -- Companion Program Settings File CREATED.
FALSE -- AC data not excluded
FALSE -- DC data not excluded
FALSE -- Phase data not excluded
FALSE -- Auxillary Chn. data not excluded
Tab delimiters

#CALIBRATION STATE
TRUE -- Waveform Calibration Values APPLIED.


#AUX CALIBRATION VALUES
Val Type	aux-1	

Term	1.0000e+00	
Factor	0.0000e+00	


#WF CALIBRATION VALUES
A = Detector Channel
Val Type	A-AC1	A-AC2	A-AC3	A-AC4	A-AC5	A-AC6	A-AC7	A-AC8	A-AC9	A-AC10	A-AC11	A-AC12	A-AC13	A-AC14	A-AC15	A-AC16	A-DC1	A-DC2	A-DC3	A-DC4	A-DC5	A-DC6	A-DC7	A-DC8	A-DC9	A-DC10	A-DC11	A-DC12	A-DC13	A-DC14	A-DC15	A-DC16	A-Ph1	A-Ph2	A-Ph3	A-Ph4	A-Ph5	A-Ph6	A-Ph7	A-Ph8	A-Ph9	A-Ph10	A-Ph11	A-Ph12	A-Ph13	A-Ph14	A-Ph15	A-Ph16	

Term	0.00000e+00	0.00000e+00	0.00000e+00	0.00000e+00	0.00000e+00	0.00000e+00	0.00000e+00	0.00000e+00	0.00000e+00	0.00000e+00	0.00000e+00	0.00000e+00	0.00000e+00	0.00000e+00	0.00000e+00	0.00000e+00	0.00000e+00	0.00000e+00	0.00000e+00	0.00000e+00	0.00000e+00	0.00000e+00	0.00000e+00	0.00000e+00	0.00000e+00	0.00000e+00	0.00000e+00	0.00000e+00	0.00000e+00	0.00000e+00	0.00000e+00	0.00000e+00	0.00000e+00	0.00000e+00	0.00000e+00	0.00000e+00	0.00000e+00	0.00000e+00	0.00000e+00	0.00000e+00	0.00000e+00	0.00000e+00	0.00000e+00	0.00000e+00	0.00000e+00	0.00000e+00	0.00000e+00	0.00000e+00	
Factor	1.00000e+00	1.00000e+00	1.00000e+00	1.00000e+00	1.00000e+00	1.00000e+00	1.00000e+00	1.00000e+00	1.00000e+00	1.00000e+00	1.00000e+00	1.00000e+00	1.00000e+00	1.00000e+00	1.00000e+00	1.00000e+00	1.00000e+00	1.00000e+00	1.00000e+00	1.00000e+00	1.00000e+00	1.00000e+00	1.00000e+00	1.00000e+00	1.00000e+00	1.00000e+00	1.00000e+00	1.00000e+00	1.00000e+00	1.00000e+00	1.00000e+00	1.00000e+00	X	X	X	X	X	X	X	X	X	X	X	X	X	X	X	X	

B = Detector Channel
Val Type	B-AC1	B-AC2	B-AC3	B-AC4	B-AC5	B-AC6	B-AC7	B-AC8	B-AC9	B-AC10	B-AC11	B-AC12	B-AC13	B-AC14	B-AC15	B-AC16	B-DC1	B-DC2	B-DC3	B-DC4	B-DC5	B-DC6	B-DC7	B-DC8	B-DC9	B-DC10	B-DC11	B-DC12	B-DC13	B-DC14	B-DC15	B-DC16	B-Ph1	B-Ph2	B-Ph3	B-Ph4	B-Ph5	B-Ph6	B-Ph7	B-Ph8	B-Ph9	B-Ph10	B-Ph11	B-Ph12	B-Ph13	B-Ph14	B-Ph15	B-Ph16	

Term	0.00000e+00	0.00000e+00	0.00000e+00	0.00000e+00	0.00000e+00	0.00000e+00	0.00000e+00	0.00000e+00	0.00000e+00	0.00000e+00	0.00000e+00	0.00000e+00	0.00000e+00	0.00000e+00	0.00000e+00	0.00000e+00	0.00000e+00	0.00000e+00	0.00000e+00	0.00000e+00	0.00000e+00	0.00000e+00	0.00000e+00	0.00000e+00	0.00000e+00	0.00000e+00	0.00000e+00	0.00000e+00	0.00000e+00	0.00000e+00	0.00000e+00	0.00000e+00	-9.97839e+01	-1.27879e+02	-1.28521e+02	-1.82006e+02	-5.58992e+01	-7.33021e+01	-1.57810e+02	-1.62015e+02	-5.12818e+01	-6.74143e+01	-1.72403e+02	-1.70165e+02	-1.80574e+02	-1.76604e+02	-6.35904e+01	-1.48996e+02	
Factor	1.65874e-05	1.60630e-04	4.67225e-05	1.56642e-01	1.23825e-06	1.65992e-06	1.81458e-01	5.32774e-02	1.10927e-06	1.85625e-06	9.31568e-02	3.11199e-02	4.21576e-02	9.47623e-03	1.36244e-06	1.40405e-02	8.31017e-06	1.23189e-05	3.42039e-06	7.89887e-02	1.27350e-07	1.35954e-07	8.60234e-02	2.70087e-02	1.27156e-07	1.36589e-07	4.55214e-02	1.53836e-02	2.16466e-02	4.83925e-03	1.31139e-07	6.92868e-03	X	X	X	X	X	X	X	X	X	X	X	X	X	X	X	X	



#DISTANCE SETTINGS
A = Detector Channel
A-1	A-2	A-3	A-4	A-5	A-6	A-7	A-8	A-9	A-10	A-11	A-12	A-13	A-14	A-15	A-16	

2.5000e+00	3.0000e+00	2.5000e+00	3.0000e+00	2.0000e+00	3.0000e+00	1.5000e+00	3.0000e+00	3.0000e+00	3.0000e+00	3.0000e+00	3.0000e+00	3.0000e+00	3.0000e+00	1.5000e+00	3.0000e+00	

B = Detector Channel
B-1	B-2	B-3	B-4	B-5	B-6	B-7	B-8	B-9	B-10	B-11	B-12	B-13	B-14	B-15	B-16	

1.0000e+01	1.0000e+01	1.0000e+01	1.4400e+00	1.0000e+01	1.0000e+01	1.5100e+00	1.9400e+00	1.0000e+01	1.0000e+01	1.9900e+00	2.4900e+00	2.4100e+00	2.9000e+00	1.0000e+01	2.9800e+00	




#DATA BEGINS
time	group	step	mark	flag	A-AC1	A-AC2	A-AC3	A-AC4	A-AC5	A-AC6	A-AC7	A-AC8	A-AC9	A-AC10	A-AC11	A-AC12	A-AC13	A-AC14	A-AC15	A-AC16	A-DC1	A-DC2	A-DC3	A-DC4	A-DC5	A-DC6	A-DC7	A-DC8	A-DC9	A-DC10	A-DC11	A-DC12	A-DC13	A-DC14	A-DC15	A-DC16	A-Ph1	A-Ph2	A-Ph3	A-Ph4	A-Ph5	A-Ph6	A-Ph7	A-Ph8	A-Ph9	A-Ph10	A-Ph11	A-Ph12	A-Ph13	A-Ph14	A-Ph15	A-Ph16	B-AC1	B-AC2	B-AC3	B-AC4	B-AC5	B-AC6	B-AC7	B-AC8	B-AC9	B-AC10	B-AC11	B-AC12	B-AC13	B-AC14	B-AC15	B-AC16	B-DC1	B-DC2	B-DC3	B-DC4	B-DC5	B-DC6	B-DC7	B-DC8	B-DC9	B-DC10	B-DC11	B-DC12	B-DC13	B-DC14	B-DC15	B-DC16	B-Ph1	B-Ph2	B-Ph3	B-Ph4	B-Ph5	B-Ph6	B-Ph7	B-Ph8	B-Ph9	B-Ph10	B-Ph11	B-Ph12	B-Ph13	B-Ph14	B-Ph15	B-Ph16	aux-1	digaux	

1950.768	1	1	0	256	0.28488	0.32017	0.23784	0.11562	0.12572	0.065331	0.025668	0.30788	0.16104	0.079854	0.19672	0.060388	0.12828	0.13225	0.25171	0.14694	-3.5	-2.9708	-3.0521	-3.5854	-2.625	-3.4562	-3.5083	-3.0271	-3.6396	-3.0667	-2.9854	-3.5708	-2.7854	-3.4646	-3.6	-3.0187	75.712	95.548	186.235	137.485	24.787	-126.447	74.633	135.936	159.370	-109.638	144.635	70.128	-60.694	104.162	46.949	-67.228	0.00028368	0.00039846	0.00012969	892.08	3.1087e-06	3.8757e-06	949.37	300.86	2.2514e-06	5.3136e-06	345.69	111.78	99.801	41.289	2.3356e-06	49.212	0.0004288	0.00043647	0.00013398	931.8	4.8719e-06	5.0779e-06	993.63	316.28	4.7379e-06	5.1039e-06	361.96	119.21	106.32	43.733	4.9781e-06	52.365	-131.544	-35.071	-35.187	-124.463	14.101	1.722	-125.629	-119.224	-10.186	11.417	-121.043	-116.053	-114.248	-107.649	9.980	-110.287	-8191	255	
1950.864	1	1	0	0	0.0927	0.11922	0.062835	0.028346	0.29215	0.16119	0.049324	0.14724	0.037003	0.30253	0.088221	0.41203	0.13171	0.26657	0.11918	0.20336	-3.3812	-3.1271	-2.9167	-3.6958	-2.7979	-3.2292	-3.5771	-2.8167	-3.5167	-3.2104	-2.8792	-3.6188	-3.0312	-3.3063	-3.4104	-2.9	-25.063	206.399	-56.747	-50.527	222.756	62.080	-69.326	124.241	-57.173	38.080	142.253	153.668	-63.918	-67.717	125.156	123.547	0.00029594	0.00042104	9.813e-05	895.55	2.7246e-06	4.2876e-06	951.37	299.41	2.4154e-06	3.41e-06	344.5	112	100.49	41.36	3.0807e-06	49.863	0.00043336	0.00044997	0.0001334	934.53	5.2147e-06	5.3045e-06	994.19	315.63	5.1911e-06	5.4932e-06	361.15	119.43	106.76	44.02	5.3559e-06	52.897	-127.221	-48.691	-54.612	-124.315	-13.700	2.617	-125.533	-119.133	-31.997	29.211	-120.928	-116.076	-114.051	-107.601	16.799	-110.454	-8191	255	
1950.960	1	1	0	0	0.21242	0.10788	0.12018	0.22895	0.11488	0.23721	0.079662	0.23315	0.16291	0.16521	0.079953	0.32192	0.11144	0.12879	0.22948	0.10611	-3.2646	-3.1083	-2.7917	-3.625	-3.0979	-3.1	-3.6708	-2.9604	-3.45	-3.3917	-2.9104	-3.5938	-3.1562	-3.2354	-3.6562	-2.9021	60.269	3.738	-83.553	169.842	-81.974	179.425	-99.939	144.927	123.977	220.780	79.150	-133.757	137.655	-96.498	79.143	74.126	0.000293	0.00024832	0.00014843	895.34	2.5282e-06	3.8296e-06	951.82	300.1	2.7709e-06	4.2499e-06	344.85	111.97	99.629	41.269	2.7141e-06	49.106	0.00046802	0.00046021	0.00014241	932.67	5.3983e-06	5.42e-06	995.49	316.55	5.3607e-06	5.3514e-06	362.04	119.55	106.63	43.889	5.1081e-06	52.076	-132.330	-61.035	-40.345	-124.416	26.974	-17.972	-125.602	-119.301	-3.716	34.277	-121.043	-116.272	-114.172	-107.438	-6.757	-110.633	-8191	255	
1951.056	1	1	0	0	0.37829	0.18469	0.12968	0.10958	0.046206	0.25294	0.11891	0.079765	0.15302	0.34936	0.1479	0.14043	0.25066	0.23171	0.22495	0.097774	-3.1354	-3.4375	-2.7792	-3.8875	-3.1771	-2.9813	-3.7583	-3.0583	-3.2812	-3.3688	-2.8458	-3.6437	-3.2167	-3.0417	-3.4583	-3.1021	77.845	-107.180	-91.556	174.343	46.146	-113.558	-117.310	147.134	-129.691	-113.715	-112.030	110.528	-109.928	7.936	-6.084	193.694	0.00027181	0.00042805	0.00012182	891.43	2.4888e-06	3.8985e-06	942.42	298.23	2.2894e-06	3.8101e-06	342.17	110.64	98.244	40.59	3.3953e-06	48.15	0.00047081	0.00047969	0.00014259	929.2	5.4312e-06	5.4121e-06	987.34	314.79	5.5016e-06	5.4305e-06	358.4	117.57	105.29	43.166	5.0426e-06	51.179	-128.572	-54.559	-38.079	-124.352	-8.139	-11.109	-125.724	-119.218	-16.079	11.208	-121.168	-116.312	-114.067	-107.434	26.306	-110.440	-8191	255	
1951.177	1	1	0	0	0.27649	0.098359	0.33691	0.13784	0.16311	0.20275	0.11304	0.18014	0.030355	0.15263	0.30287	0.16852	0.14092	0.15037	0.13076	0.080913	-2.7292	-3.5167	-2.9	-3.6979	-3.1792	-2.9229	-3.7021	-2.8958	-3.1958	-3.5208	-2.8438	-3.5521	-3.1896	-2.7958	-3.5021	-2.95	-115.672	67.180	57.815	93.131	91.490	81.903	98.409	56.725	188.957	211.259	130.236	201.701	147.438	-118.704	136.615	124.483	0.00029394	0.00039532	0.00010246	889.15	1.9913e-06	4.4385e-06	945.71	299.24	2.0672e-06	4.8757e-06	344.49	111.09	99.083	40.97	3.0335e-06	49.248	0.00046028	0.00046106	0.00013128	929.71	4.7477e-06	4.9062e-06	992.29	315.56	5.0452e-06	4.6864e-06	360.75	118.69	105.94	43.685	4.6773e-06	52.137	-125.604	-56.224	-94.253	-124.388	17.904	13.771	-125.508	-119.304	1.482	32.980	-121.156	-116.117	-114.242	-107.596	17.350	-110.473	-8191	255	
1951.273	1	1	0	0	0.19722	0.17917	0.14019	0.11439	0.28024	0.19144	0.11387	0.090961	0.14218	0.22983	0.26103	0.081778	0.092512	0.23085	0.20216	0.19434	-2.5958	-3.6875	-2.7042	-3.6354	-3.5	-2.8937	-3.925	-3.2	-3.1979	-3.6917	-2.8875	-3.3937	-3.5854	-2.9021	-3.7354	-3.1437	42.924	81.694	5.434	202.047	127.139	-59.205	158.695	187.639	21.344	10.164	180.309	36.862	4.786	90.993	65.843	205.785	0.00030353	0.00031441	0.0001481	896.9	1.6808e-06	4.0914e-06	955.27	301.14	2.7317e-06	4.3915e-06	345.17	113.32	100.82	41.94	3.0969e-06	50.167	0.0004359	0.00042172	0.00012085	934.93	4.6591e-06	4.7383e-06	998.79	316.51	5.0256e-06	4.4824e-06	362.85	120.69	107.6	44.593	4.7366e-06	53.289	-132.264	-21.281	-74.374	-124.230	-4.857	18.799	-125.477	-119.041	-5.708	26.811	-120.934	-115.859	-114.068	-107.481	4.342	-110.250	-8191	255	
1951.345	1	1	0	0	0.13519	0.085742	0.14857	0.11339	0.014702	0.1457	0.12052	0.18657	0.20007	0.10443	0.10948	0.15531	0.14438	0.042225	0.17857	0.24718	-2.8979	-3.5917	-2.9333	-3.5729	-3.65	-2.7292	-3.6833	-3.1646	-2.9417	-3.825	-3.1479	-3.3688	-3.55	-2.9167	-3.4938	-3.3271	91.662	77.394	111.066	218.382	65.844	69.077	195.053	186.830	159.451	138.835	128.280	21.920	176.520	15.084	-49.168	134.504	0.00029488	0.00031046	9.4998e-05	891.61	2.5804e-06	4.1073e-06	949.28	299.56	2.8918e-06	4.8427e-06	344.1	113.06	99.949	42.008	2.7712e-06	50.087	0.00043765	0.00044194	0.00012433	932.99	4.8809e-06	4.9173e-06	995.36	315.53	5.3609e-06	4.8452e-06	361.41	120.48	106.99	44.656	5.1759e-06	53.395	-130.426	-49.550	-56.911	-124.120	17.189	-7.231	-125.511	-119.077	-12.880	18.608	-120.918	-115.953	-113.964	-107.203	20.638	-110.149	-8191	255	
1951.465	1	1	0	0	0.37659	0.18329	0.24032	0.22749	0.083852	0.24397	0.21182	0.22775	0.098914	0.022368	0.33873	0.23826	0.1198	0.088291	0.029476	0.11838	-2.5375	-3.6312	-2.9333	-3.2687	-3.5812	-2.8854	-3.6312	-3.5083	-3.0563	-3.7583	-2.8792	-3.2375	-3.7292	-2.8729	-3.3292	-3.4292	56.747	-88.429	132.873	165.357	108.502	93.196	186.317	174.114	-30.809	174.981	162.434	152.171	187.953	89.256	-64.487	189.600	0.0002997	0.00035379	0.0001167	890.77	3.6846e-06	4.6142e-06	946.33	300.21	2.5872e-06	5.2037e-06	343.08	112.79	99.403	41.58	2.1221e-06	49.264	0.0004547	0.00046563	0.00012822	929.49	4.8451e-06	5.1838e-06	991.79	315.74	5.3554e-06	4.961e-06	360.55	119.72	106.73	44.157	5.3363e-06	52.335	-129.998	-43.792	-20.948	-123.993	14.647	-23.325	-125.377	-118.977	-10.140	16.990	-120.689	-115.810	-113.887	-107.573	8.787	-110.194	-8191	255	
1951.561	1	1	0	0	0.14833	0.057655	0.18074	0.1545	0.096462	0.11649	0.14398	0.19134	0.167	0.074196	0.10596	0.35161	0.12099	0.20224	0.12336	0.22473	-2.55	-3.4979	-2.9188	-3.2167	-3.6292	-2.7917	-3.6708	-3.4292	-2.6562	-3.5438	-3.2417	-3.0167	-3.8042	-2.9938	-3.1021	-3.6	-41.675	39.441	176.338	122.372	132.079	121.523	86.527	-117.744	-59.103	169.640	191.330	-92.259	184.053	212.586	-47.417	186.028	0.00030027	0.00049621	0.00012789	889.39	3.9535e-06	2.9651e-06	942.97	299.32	3.2635e-06	4.7075e-06	342.42	111.79	98.963	40.742	4.1301e-06	48.203	0.00045571	0.00048821	0.00013025	928.05	5.0237e-06	5.26e-06	987.42	315.12	5.5236e-06	5.177e-06	359.13	118.7	106	43.406	5.4122e-06	51.341	-131.222	-53.611	-49.593	-124.360	-9.717	27.436	-125.501	-119.011	10.123	3.793	-120.867	-116.023	-113.951	-107.346	4.524	-110.209	-8191	255	
1951.656	1	1	0	0	0.071079	0.18426	0.11209	0.37789	0.029187	0.084736	0.19718	0.13781	0.094724	0.14316	0.093875	0.021318	0.04109	0.23062	0.2514	0.09334	-2.4437	-3.5354	-3.1729	-2.9479	-3.7417	-2.9917	-3.4417	-3.7125	-2.7917	-3.6083	-3.2646	-3.2	-3.7167	-3.0438	-3.1312	-3.7188	178.639	78.277	-18.111	221.421	-13.119	-22.773	-100.854	135.344	-7.143	-55.986	-104.524	132.513	-19.237	-81.765	-56.693	175.995	0.00027952	0.00043357	0.00015563	891.98	1.2045e-06	5.4782e-06	948.62	301.03	3.6794e-06	5.9293e-06	344.16	111.81	99.615	41.332	2.9303e-06	49.147	0.00044563	0.00047061	0.00012221	929.99	4.5803e-06	4.8581e-06	993.15	316.75	5.0176e-06	4.8481e-06	361.94	119.04	106.67	43.892	5.1529e-06	52.252	-127.618	-41.920	-35.442	-124.183	22.054	11.678	-125.439	-119.038	-0.451	28.696	-120.906	-115.980	-113.876	-107.567	-25.413	-110.252	-8191	255	
1951.754	1	1	0	0	0.21743	0.28293	0.22335	0.1873	0.053978	0.21739	0.18481	0.32204	0.087276	0.20157	0.23916	0.1487	0.093932	0.3809	0.18696	0.083539	-2.5563	-3.4188	-3.3708	-2.8917	-3.6979	-3.1042	-3.3104	-3.8333	-2.7896	-3.4375	-3.4396	-2.9458	-3.6646	-3.0958	-3.1188	-3.7125	157.051	-8.797	185.870	201.850	-58.076	-19.295	-118.078	221.735	-80.612	67.066	137.746	-121.976	39.007	195.269	-76.473	104.448	0.00028066	0.00025581	9.4901e-05	900.74	3.6547e-06	4.9573e-06	959.32	304.1	2.1542e-06	4.237e-06	348.57	113.35	100.82	41.601	3.6489e-06	49.652	0.00043455	0.00045972	0.00011701	938.91	4.5275e-06	4.9077e-06	1004.3	319.82	4.8415e-06	4.9556e-06	366.32	120.89	107.94	44.371	5.2535e-06	52.913	-132.633	-46.340	-51.282	-124.172	5.123	10.770	-125.257	-118.911	12.024	24.264	-120.968	-116.113	-113.622	-107.444	-11.247	-110.375	-8191	255	
1951.872	1	1	0	0	0.19642	0.27811	0.17147	0.28375	0.19668	0.17568	0.29289	0.19496	0.26271	0.095341	0.28634	0.18092	0.1946	0.22164	0.051116	0.19852	-2.5208	-3.2938	-3.4854	-2.9	-3.5229	-3.1792	-3.1167	-3.7812	-2.9479	-3.2188	-3.6	-2.7708	-3.4146	-3.3146	-2.8688	-3.7583	151.331	-104.820	13.523	130.877	-61.914	108.225	165.630	69.959	-34.721	54.429	141.082	52.448	202.753	-83.899	137.661	-11.844	0.00031764	0.00040699	0.0001332	901.23	1.8191e-06	3.6172e-06	959.15	304.69	2.6574e-06	3.0597e-06	348.62	113.51	101.12	41.846	3.1437e-06	49.968	0.00044897	0.00047553	0.00012392	938.57	4.9815e-06	5.3319e-06	1002.4	319.62	5.2515e-06	5.5526e-06	365.6	120.96	107.97	44.531	5.5925e-06	53.03	-127.532	-26.749	-45.516	-124.221	-2.378	3.267	-125.411	-118.929	-0.491	23.423	-120.929	-116.007	-113.777	-107.562	-8.322	-110.307	-8191	255	
1951.944	1	1	0	0	0.10894	0.16847	0.066862	0.074105	0.19924	0.23386	0.14327	0.11591	0.18437	0.2449	0.033292	0.036085	0.13956	0.15907	0.037745	0.18625	-2.55	-3.0458	-3.5333	-2.8646	-3.4104	-3.3417	-3.0333	-3.8146	-2.9792	-3.1792	-3.6083	-2.9958	-3.5958	-3.3438	-2.7396	-3.7875	102.565	-19.528	-68.697	76.404	13.347	210.895	210.791	-18.201	191.057	88.809	-136.773	41.320	-92.880	-114.666	-4.141	138.530	0.00031174	0.00044544	0.00014719	896.1	2.4412e-06	4.5323e-06	953.64	302.87	3.2681e-06	4.5065e-06	345.73	112.48	100.92	41.312	3.651e-06	49.096	0.00046005	0.00048808	0.00012856	935.77	5.1072e-06	5.1736e-06	998.49	318.88	5.1514e-06	5.6579e-06	363.56	119.93	107.63	44.08	5.6171e-06	52.164	-127.615	-59.217	-45.861	-124.300	42.531	-2.288	-125.349	-119.119	-3.014	-18.245	-121.153	-116.082	-113.871	-107.705	-22.741	-110.337	-8191	255	
1952.065	1	1	0	0	0.19405	0.086679	0.21543	0.10478	0.16287	0.19615	0.18305	0.18042	0.069019	0.11193	0.4002	0.19189	0.14967	0.24679	0.057183	0.13073	-2.4792	-2.8042	-3.5708	-2.8604	-3.2583	-3.5083	-2.9521	-3.6562	-3.0646	-3.0187	-3.8479	-2.7938	-3.3875	-3.5646	-2.7438	-3.525	71.747	126.519	129.669	218.133	53.823	87.029	-119.635	-64.443	172.749	57.498	177.898	213.710	203.691	164.208	-27.877	185.867	0.00029292	0.00050221	0.00014083	892.07	3.6393e-06	5.0362e-06	944.68	300.98	2.7924e-06	1.55e-06	343.41	111.18	99.045	40.771	2.6458e-06	48.318	0.00045356	0.0004831	0.00013104	930.56	5.2622e-06	5.2002e-06	989.51	316.35	5.0372e-06	5.4078e-06	359.41	118.12	105.9	43.256	5.3278e-06	51.285	-132.498	-47.222	-31.702	-124.434	12.713	16.590	-125.491	-118.998	-4.898	-13.844	-121.104	-116.105	-113.771	-107.647	-15.985	-110.329	-8191	255	
1952.161	1	1	0	0	0.18013	0.11546	0.16668	0.068788	0.16026	0.084366	0.10201	0.14518	0.078492	0.10942	0.37976	0.38938	0.19195	0.35665	0.17825	0.2277	-2.8937	-2.8958	-3.6646	-3.2125	-3.3042	-3.5792	-2.9667	-3.6146	-3.3042	-2.8937	-3.7646	-2.8646	-3.3604	-3.5833	-2.9146	-3.6958	145.594	92.553	-49.727	-120.708	33.343	37.601	126.037	-135.110	-43.944	-87.467	155.054	61.139	-84.905	181.963	-38.116	25.496	0.00028194	0.00038516	0.0001302	890.63	3.8589e-06	3.92e-06	949.98	301.42	2.7251e-06	4.3748e-06	346.05	111.92	99.934	41.038	3.1069e-06	48.913	0.0004469	0.00048441	0.00013112	929.35	5.2229e-06	4.9853e-06	991.98	317.64	4.6115e-06	5.039e-06	363.14	119.18	106.8	43.633	4.8524e-06	51.941	-126.501	-58.220	-46.102	-124.308	9.160	10.026	-125.401	-119.067	6.690	11.912	-120.885	-116.185	-113.936	-107.567	-16.379	-110.314	-8191	255	
1952.257	1	1	0	0	0.056222	0.1227	0.13328	0.087042	0.11514	0.067167	0.18392	0.10433	0.26423	0.31215	0.072238	0.23167	0.10694	0.23629	0.15553	0.1923	-2.9479	-2.8854	-3.65	-3.2	-3.2604	-3.6708	-2.8375	-3.5604	-3.3625	-2.8583	-3.5479	-3.1437	-3.0729	-3.7292	-2.8125	-3.525	-113.288	-33.455	99.748	84.614	-121.199	147.790	96.918	-53.064	209.141	154.346	121.188	-102.824	212.377	213.622	4.522	175.226	0.00028755	0.00023453	0.00018366	901.69	2.9998e-06	4.0987e-06	961.43	303.5	2.5692e-06	3.6433e-06	350.07	113.04	101.25	41.574	3.4779e-06	49.705	0.00041949	0.00043206	0.00012079	938.93	4.8552e-06	4.587e-06	1005.1	319.85	4.5201e-06	4.8708e-06	366.22	120.61	108.03	44.218	4.6926e-06	52.894	-129.943	-59.379	-29.734	-124.250	-1.410	-1.427	-125.201	-118.916	-19.142	-6.743	-120.900	-115.937	-113.980	-107.483	5.677	-110.168	-8191	255	
1952.353	1	1	0	0	0.1452	0.091066	0.053993	0.10784	0.096754	0.22179	0.19833	0.29798	0.03997	0.0698	0.030704	0.16407	0.2091	0.053578	0.19995	0.051404	-3.05	-2.7313	-3.5708	-3.2854	-2.9313	-3.7521	-3.0125	-3.3812	-3.4625	-2.8354	-3.7375	-3.2083	-2.9104	-3.7542	-2.9646	-3.3083	22.587	121.613	17.176	148.991	-53.201	-29.669	97.539	99.636	94.453	182.995	-84.140	-108.472	-96.689	-105.158	-1.389	170.923	0.00030286	0.0003177	0.00013872	901.15	3.8022e-06	3.3343e-06	959.21	303.14	2.2673e-06	6.1548e-06	347.82	114.13	101.73	42.147	4.2457e-06	50.124	0.00042349	0.00042898	0.00012092	939.08	4.9486e-06	4.504e-06	1003.1	319.04	4.7061e-06	4.9485e-06	363.79	121.2	108.15	44.719	4.8664e-06	53.345	-128.204	-36.960	-76.729	-124.185	19.253	11.989	-125.221	-118.780	-38.078	14.263	-120.783	-116.021	-113.512	-107.168	-20.429	-109.930	-8191	255	
1952.474	1	1	0	0	0.41301	0.14304	0.096403	0.022645	0.11218	0.30008	0.31694	0.26565	0.13637	0.12217	0.077987	0.18923	0.10867	0.034394	0.26022	0.16329	-3.1729	-2.8521	-3.4771	-3.1833	-2.8	-3.6583	-2.8771	-3.4125	-3.6688	-2.7146	-3.6312	-3.4646	-2.8521	-3.8854	-2.9688	-3.4062	61.190	46.946	180.806	86.709	-36.862	219.281	117.847	-100.797	184.095	-9.761	-66.748	134.838	-82.878	75.770	148.199	115.732	0.00026338	0.00033623	0.00012977	892.78	2.762e-06	3.3089e-06	952.89	299.81	3.3158e-06	4.4659e-06	344.27	112.86	100.53	42.228	1.3302e-06	50.073	0.00043203	0.00046073	0.00012903	927.71	5.1094e-06	4.7927e-06	992.02	315.79	4.9185e-06	4.9832e-06	360.59	120.32	107.43	44.892	4.6937e-06	53.093	-131.851	-35.397	-53.057	-124.077	2.297	7.601	-125.365	-118.841	-0.100	-6.671	-120.700	-115.791	-113.439	-107.010	13.843	-109.946	-8191	255	
1952.546	1	1	0	0	0.22489	0.049283	0.12586	0.21702	0.070126	0.077694	0.080857	0.3265	0.024426	0.30698	0.087288	0.29249	0.30824	0.23777	0.12725	0.097496	-3.3625	-2.6312	-3.3146	-3.5667	-2.7625	-3.6833	-2.9625	-3.0812	-3.8312	-2.8646	-3.4896	-3.5042	-2.7667	-3.5167	-3.1479	-3.0292	157.433	-88.930	37.700	-111.056	215.896	200.213	-91.762	195.058	-105.625	117.966	41.761	161.370	216.245	208.234	-74.031	113.846	0.00029063	0.00049533	0.00010727	882.5	2.6888e-06	5.1902e-06	940.64	298.16	2.7295e-06	5.3416e-06	341.93	111.35	98.923	41.657	3.4769e-06	49.373	0.00041729	0.00045441	0.00012674	920.42	5.0767e-06	4.6995e-06	985.97	314.32	4.9162e-06	4.8825e-06	359.01	118.95	106.3	44.217	4.8617e-06	52.465	-132.955	-33.731	-53.698	-124.128	11.512	8.778	-125.337	-118.605	-18.876	9.958	-120.621	-115.838	-113.520	-107.117	4.621	-109.927	-8191	255	
1952.642	1	1	0	0	0.17602	0.15059	0.10293	0.18592	0.08404	0.1617	0.12967	0.19861	0.3137	0.21195	0.20375	0.12145	0.20434	0.14518	0.053713	0.0025904	-3.2417	-2.8333	-3.4271	-3.4938	-2.7938	-3.6646	-3.2104	-3.0146	-3.5833	-2.9292	-3.2646	-3.5625	-3.0292	-3.475	-3.2812	-2.7146	196.564	21.189	-62.363	-115.905	-103.441	136.834	144.589	147.972	-31.530	27.716	173.888	209.490	166.302	-21.636	142.115	-106.402	0.00028896	0.00029394	0.00017212	882.61	3.7282e-06	5.158e-06	944.34	300.61	3.1537e-06	3.9357e-06	343.73	112.25	99.933	41.381	3.1324e-06	49.123	0.00043016	0.00046948	0.00013144	922.96	5.0672e-06	4.9439e-06	988.43	315.6	4.9472e-06	4.7695e-06	361.41	119.14	106.88	44.019	4.6549e-06	52.312	-128.313	-45.229	-39.070	-124.226	12.446	10.477	-125.379	-118.916	1.796	4.304	-120.879	-115.787	-113.733	-107.313	9.775	-110.098	-8191	255	
1952.738	1	1	0	0	0.25404	0.2492	0.22896	0.16454	0.064203	0.16888	0.18621	0.19434	0.024793	0.019583	0.16978	0.038813	0.10822	0.17203	0.18762	0.19573	-3.2875	-3.0354	-3.1833	-3.7062	-3.0604	-3.3688	-3.5292	-2.9688	-3.7646	-2.9562	-3.2812	-3.6833	-2.7938	-3.5667	-3.3958	-2.875	-107.542	-94.294	-78.591	-2.233	1.381	-55.486	123.771	83.434	103.165	84.435	-99.314	117.494	154.166	-132.472	60.938	183.784	0.00029795	0.00040311	0.00011061	899.96	3.9796e-06	2.6265e-06	961.7	304.67	3.6929e-06	3.8301e-06	352.24	114.93	102.17	42.22	3.5245e-06	50.406	0.00041167	0.00044063	0.00012113	937.81	4.7562e-06	4.847e-06	1004.4	321.05	4.9649e-06	4.6568e-06	368.73	122.18	109.04	44.835	4.8374e-06	53.385	-130.887	-47.292	-43.040	-124.098	16.269	-3.977	-125.466	-118.841	-10.522	2.930	-120.877	-115.834	-113.684	-107.360	18.054	-110.167	-8191	255	
1952.857	1	1	0	0	0.062256	0.18321	0.14046	0.18723	0.20903	0.077974	0.11805	0.16008	0.20953	0.25202	0.092751	0.069787	0.11515	0.17809	0.054252	0.10368	-3.2042	-2.9958	-3.0958	-3.9521	-3.075	-3.3563	-3.5896	-2.9917	-3.6	-3.1167	-3.0708	-3.7562	-3.0812	-3.4208	-3.5354	-3.0583	175.743	206.360	63.658	189.751	-24.189	146.641	147.173	179.755	44.054	-38.089	151.628	99.805	100.824	-15.521	-91.127	148.087	0.00029797	0.0005702	0.00011273	909.08	2.3801e-06	2.5967e-06	969.63	308.88	3.5633e-06	5.8343e-06	353.58	115.42	102.48	42.498	2.3616e-06	50.485	0.00043235	0.00045816	0.00012948	949.31	4.8682e-06	5.0555e-06	1015.8	325.22	5.0767e-06	4.7769e-06	370.4	122.87	109.69	45.196	5.0084e-06	53.506	-130.535	-44.825	-52.747	-124.228	18.393	2.964	-125.544	-119.054	3.007	19.001	-120.623	-115.981	-113.886	-107.318	9.252	-109.973	-8191	255	
1952.953	1	1	0	0	0.28483	0.089281	0.19116	0.22605	0.15369	0.31448	0.2699	0.30449	0.23526	0.17266	0.072463	0.13903	0.25064	0.066606	0.18264	0.1062	-3.1167	-3.3375	-2.8812	-3.6083	-2.9542	-3.1875	-3.6083	-2.9917	-3.4437	-3.0958	-3.0083	-3.7562	-3.2271	-3.2	-3.6188	-2.875	169.082	70.382	-79.112	187.079	151.554	-127.239	212.462	170.572	84.985	221.774	94.307	-131.933	220.641	31.100	74.837	162.553	0.00030827	0.00045982	9.9006e-05	900.73	2.7959e-06	6.557e-06	956.29	305.57	2.5756e-06	3.864e-06	349.24	115.19	102.29	42.697	2.1778e-06	50.642	0.00045114	0.00048254	0.00013554	939.66	5.0855e-06	5.6393e-06	1003.3	321.61	5.3395e-06	5.1508e-06	366.77	122.46	109.54	45.401	5.3081e-06	53.65	-129.379	-50.436	-46.051	-124.214	3.659	33.664	-125.391	-119.055	-14.102	34.552	-121.005	-115.981	-114.282	-107.307	-17.340	-110.351	-8191	255	
1953.049	1	1	0	0	0.264	0.17819	0.12787	0.14685	0.1519	0.011296	0.0081442	0.078337	0.14059	0.076391	0.23297	0.30171	0.061586	0.034612	0.23197	0.1593	-3.2229	-3.3417	-2.7562	-3.5396	-3.0563	-3.2583	-3.7313	-3.15	-3.4979	-3.3937	-2.8917	-3.7729	-3.1312	-3.1583	-3.8375	-2.9542	142.296	29.943	115.828	-114.475	-119.968	202.462	69.401	149.634	-83.275	-37.690	-110.887	195.077	145.536	166.753	217.731	-125.097	0.00029496	0.00052356	0.00013107	889.87	2.9318e-06	5.5059e-06	952.05	303.75	2.9203e-06	5.0925e-06	347.56	114.73	102.25	42.3	2.5952e-06	50.395	0.00046521	0.00046552	0.0001382	930.12	5.0465e-06	5.6115e-06	996.61	319.85	5.2338e-06	5.1318e-06	366	122.03	109.35	45.079	5.3349e-06	53.367	-126.784	-52.297	-43.111	-124.001	16.490	11.108	-125.311	-119.026	0.360	-1.716	-120.888	-116.152	-113.974	-107.224	0.825	-110.157	-8191	255	
1953.145	1	1	0	0	0.12468	0.2034	0.23091	0.33619	0.23306	0.15299	0.11872	0.11741	0.11751	0.038776	0.10884	0.063541	0.071275	0.016027	0.16821	0.22633	-2.9688	-3.3917	-2.9833	-3.6937	-3.3792	-3.0021	-4.0167	-3.1042	-3.3125	-3.5854	-2.9917	-3.6333	-3.2646	-3.0208	-3.9271	-3.2271	81.135	81.464	-78.131	212.002	-23.003	136.730	129.200	119.241	174.769	-4.964	180.406	118.976	54.653	11.906	215.637	174.884	0.00028683	0.00047568	0.0001755	899.05	3.4558e-06	3.6612e-06	962.71	306.52	3.6771e-06	3.9351e-06	352.51	114.83	101.76	42.051	4.197e-06	50.044	0.00046231	0.0004715	0.00013662	937.42	5.0972e-06	5.6197e-06	1004.5	322.59	5.4719e-06	5.49e-06	368.96	122.16	109.05	44.669	5.5404e-06	52.935	-131.461	-43.523	-49.367	-124.300	12.054	13.596	-125.429	-119.101	-2.210	21.182	-120.821	-116.026	-113.852	-107.187	0.755	-110.284	-8191	255	
1953.240	1	1	0	0	0.2118	0.073399	0.058724	0.044188	0.22516	0.039916	0.078419	0.17777	0.03272	0.13918	0.25792	0.18164	0.24453	0.22657	0.36745	0.43205	-2.9167	-3.425	-2.9688	-3.525	-3.4646	-2.8833	-3.8625	-3.2	-3.1479	-3.5896	-3.0125	-3.575	-3.3563	-2.7771	-3.6083	-3.0917	46.098	-28.795	134.619	-77.032	182.287	-136.559	112.826	163.068	-71.945	43.892	155.830	149.886	-130.890	189.808	62.268	197.194	0.00030506	0.00045409	0.0001177	904.1	2.7731e-06	3.9693e-06	965.4	308.53	2.5974e-06	4.6144e-06	353.18	114.61	102.13	41.916	3.0222e-06	49.735	0.00048914	0.00047304	0.00013636	943.75	5.0743e-06	5.4399e-06	1010	324.15	4.9861e-06	4.9141e-06	371.15	122.16	109.12	44.537	5.0601e-06	52.863	-128.603	-23.084	-42.466	-124.209	33.456	12.743	-125.272	-119.024	9.178	7.166	-121.031	-115.886	-113.864	-107.236	15.625	-110.238	-8191	255	
1953.336	1	1	0	0	0.11953	0.14647	0.10402	0.31911	0.10145	0.049245	0.023055	0.18235	0.30674	0.11406	0.054602	0.23548	0.16069	0.19856	0.044819	0.15011	-2.7604	-3.65	-2.7812	-3.6042	-3.5458	-2.775	-3.8812	-3.3354	-2.8479	-3.6479	-3.0833	-3.25	-3.5563	-2.8396	-3.5479	-3.1604	-134.370	199.686	35.325	174.828	167.315	184.433	30.268	-121.154	3.866	-69.167	180.080	-96.368	-105.337	-98.486	-33.933	26.764	0.00029879	0.0003941	0.00015605	912.98	1.7598e-06	4.6558e-06	968.9	309.33	3.601e-06	6.3892e-06	353.54	114.94	102.78	42.1	2.9915e-06	49.521	0.00044723	0.00042038	0.00012445	951.8	4.6676e-06	4.9346e-06	1017.2	326.15	4.9956e-06	4.7504e-06	371.38	122.51	109.67	44.735	4.95e-06	52.503	-130.039	-55.831	-48.777	-124.068	17.610	6.709	-124.972	-119.163	-29.543	8.381	-120.919	-116.051	-113.901	-107.535	-8.675	-110.121	-8191	255	
1953.432	1	1	0	0	0.015228	0.13117	0.25468	0.091944	0.047275	0.1345	0.083725	0.1206	0.06266	0.0952	0.15503	0.41691	0.11107	0.28222	0.24505	0.11553	-2.6188	-3.5604	-3.0354	-3.475	-3.475	-2.8667	-3.6083	-3.3229	-2.8438	-3.6188	-3.1729	-3.1937	-3.6604	-2.6104	-3.4792	-3.3896	36.929	-114.246	-8.063	156.759	-36.073	-2.431	-79.975	134.641	33.972	-42.013	62.369	189.527	122.079	213.585	31.054	139.876	0.00029894	0.00062112	0.0001192	912.39	3.2344e-06	5.5113e-06	968.16	308.9	7.6184e-07	5.5468e-06	352.77	115.54	103.11	42.629	3.4474e-06	50.335	0.00044144	0.00041733	0.00012117	950.59	4.709e-06	4.7026e-06	1014.1	325.25	4.7948e-06	4.6918e-06	369.81	122.9	110.29	45.261	5.0144e-06	53.4	-131.724	-49.363	-47.307	-124.106	10.969	-8.534	-125.292	-118.998	-0.374	7.153	-120.536	-115.887	-113.406	-107.294	3.522	-110.301	-8191	255	
1953.552	1	1	0	0	0.13633	0.15378	0.085744	0.27564	0.1781	0.091039	0.37334	0.25803	0.1657	0.26041	0.03791	0.036009	0.15159	0.14405	0.16041	0.1115	-2.5021	-3.5938	-3.1396	-3.1229	-3.6	-2.8417	-3.5396	-3.475	-2.8875	-3.6229	-3.2146	-2.9896	-3.6813	-2.8583	-3.1875	-3.6521	-24.670	119.477	-24.982	-135.839	138.172	93.994	190.427	77.712	-0.083	-45.214	152.743	38.353	207.887	207.005	33.597	40.759	0.00031355	0.0003713	0.00015614	905.23	3.6387e-06	4.2265e-06	967.64	309.22	2.8973e-06	4.3058e-06	354.73	116.51	103.7	42.923	2.47e-06	50.902	0.00045419	0.00044007	0.00012696	943.61	5.0714e-06	5.1314e-06	1010.5	325.21	5.3784e-06	5.4115e-06	371.34	124.12	111.1	45.721	5.4576e-06	53.93	-130.167	-43.251	-50.911	-123.957	-10.082	12.970	-125.278	-118.732	-7.755	14.182	-120.836	-115.893	-113.706	-107.160	-11.174	-110.220	-8191	255	
1953.649	1	1	0	0	0.15545	0.15577	0.039702	0.19508	0.053758	0.13619	0.18885	0.054381	0.20939	0.07848	0.16252	0.22904	0.017066	0.29814	0.09075	0.21483	-2.3021	-3.5187	-3.1229	-3.0521	-3.8812	-2.7792	-3.4021	-3.5875	-2.825	-3.5771	-3.3521	-3.0354	-3.6063	-2.9417	-3.1646	-3.6979	51.824	20.533	-56.641	172.331	-130.336	-59.522	133.293	191.470	-128.603	15.529	55.083	-98.890	-123.502	143.553	-67.373	148.381	0.00029448	0.00059224	0.0001111	907.54	2.0128e-06	6.8405e-06	971.64	312.24	3.1261e-06	6.6125e-06	357.59	116.79	103.96	42.94	3.0207e-06	50.871	0.00047304	0.00049376	0.00013744	948.54	5.3948e-06	5.2665e-06	1018.8	328.62	5.4942e-06	5.6149e-06	374.05	124.44	111.37	45.659	5.4975e-06	53.921	-130.448	-54.303	-60.909	-123.858	26.285	13.924	-124.971	-118.884	-7.003	5.190	-120.977	-116.317	-113.876	-107.567	-11.258	-110.305	-8191	255	
1953.745	1	1	0	0	0.2521	0.046225	0.16217	0.11386	0.22324	0.16374	0.1921	0.22624	0.098777	0.1981	0.14604	0.11686	0.073219	0.052218	0.1515	0.12536	-2.3729	-3.4875	-3.2833	-2.9125	-3.5062	-2.9625	-3.2375	-3.6208	-2.8479	-3.6292	-3.7583	-2.9938	-3.7438	-3.1625	-2.8187	-3.6125	-6.122	212.361	-71.951	189.168	188.789	32.910	203.704	219.700	125.512	36.842	-95.999	34.123	10.016	-21.789	-51.444	-124.870	0.00031749	0.00039872	0.0002106	909.99	2.934e-06	4.0581e-06	972.08	310.65	2.8179e-06	5.0255e-06	356.13	116.37	103.34	42.38	2.8832e-06	50.035	0.00047276	0.00050926	0.00013932	951.46	5.4482e-06	5.3186e-06	1018	327.2	5.5747e-06	5.5922e-06	373.46	123.63	110.43	45.06	5.6005e-06	53.156	-127.904	-47.925	-43.771	-124.020	14.013	-3.196	-125.236	-119.167	9.729	13.473	-121.136	-116.254	-113.950	-107.710	3.294	-110.434	-8191	255	
1953.841	1	1	0	0	0.17186	0.16899	0.24935	0.070692	0.0623	0.13804	0.068178	0.2756	0.073335	0.26991	0.14287	0.050945	0.14929	0.11714	0.14267	0.10568	-2.4229	-3.3521	-3.4521	-2.8646	-3.3937	-3.2667	-3.1583	-3.8125	-2.9708	-3.2521	-3.6188	-2.8042	-3.4437	-3.1375	-2.9708	-3.6813	59.921	211.161	-14.442	102.002	-134.605	55.223	-85.824	131.796	121.577	-115.216	189.529	152.543	-125.417	192.675	-4.026	218.866	0.00030196	0.00036253	0.00012855	912.65	3.904e-06	4.3183e-06	963.42	310.67	2.1828e-06	6.0699e-06	352.04	114.21	101.72	41.518	3.4091e-06	48.676	0.00045813	0.00052106	0.00013826	950.03	5.4463e-06	5.2127e-06	1010.9	326.16	5.3413e-06	5.3788e-06	369.73	121.28	109.11	44.096	5.304e-06	51.713	-128.449	-53.805	-42.001	-124.175	38.880	4.201	-125.385	-119.064	-5.968	-6.269	-121.203	-116.204	-114.018	-107.757	3.357	-110.295	-8191	255	
1953.937	1	1	0	0	0.27571	0.21522	0.11821	0.20938	0.085342	0.21019	0.29098	0.029485	0.24713	0.11578	0.059968	0.097971	0.17526	0.036445	0.14388	0.16988	-2.3937	-3.275	-3.3417	-2.8229	-3.6688	-3.35	-3.0021	-3.9208	-2.9458	-3.2583	-3.6479	-2.8583	-3.6354	-3.3833	-2.9375	-3.7833	172.358	-13.694	121.416	103.798	65.841	176.917	155.128	-49.004	-74.728	146.054	-70.711	-115.030	-75.722	116.440	-62.776	-19.472	0.00029607	0.00050973	0.00015681	913.09	2.8448e-06	3.1179e-06	972.76	311.15	1.9369e-06	5.8127e-06	353.4	114.63	102.17	41.71	3.2433e-06	48.805	0.00042976	0.00047297	0.00012373	953.03	5.025e-06	4.7621e-06	1016.9	327.56	4.8913e-06	4.8688e-06	371.02	121.75	109.51	44.33	4.9857e-06	51.984	-128.525	-36.566	-22.870	-124.230	5.451	10.457	-125.376	-119.139	27.991	3.520	-121.310	-116.242	-113.874	-107.665	7.067	-110.486	-8191	255	
1954.033	1	1	0	0	0.12552	0.048626	0.068007	0.11106	0.080842	0.10695	0.20436	0.34537	0.066858	0.058842	0.072537	0.0063194	0.14309	0.20718	0.27511	0.13079	-2.6771	-3.1271	-3.7042	-3.0187	-3.4771	-3.5396	-3.2833	-3.7938	-3.2729	-3.1063	-3.7167	-3.0646	-3.4688	-3.5563	-2.9521	-3.6521	177.358	84.375	-103.752	-82.911	125.066	-91.061	130.585	216.859	24.649	218.484	213.520	45.012	222.206	156.226	62.914	60.550	0.00029989	0.00042399	6.6684e-05	914.65	1.6789e-06	5.4089e-06	974.68	312.23	1.6562e-06	4.6326e-06	356.4	115.25	102.49	41.902	2.8948e-06	49.389	0.00041946	0.00046124	0.00011974	954.98	4.8544e-06	4.7473e-06	1021.1	328.32	4.9548e-06	4.8737e-06	373.22	122.25	109.93	44.572	4.9379e-06	52.461	-131.157	-61.353	-44.808	-124.222	40.668	-16.070	-125.542	-119.189	10.763	34.385	-121.107	-116.643	-114.048	-107.821	-9.063	-110.443	-8191	255	
1954.152	1	1	0	0	0.18061	0.18864	0.083047	0.16883	0.065317	0.30372	0.27705	0.084191	0.084884	0.089083	0.1392	0.15559	0.12198	0.19677	0.12223	0.14217	-2.8542	-2.9375	-3.7292	-2.8271	-3.2667	-3.5125	-2.9292	-3.7	-3.3833	-2.8917	-3.8563	-2.9958	-3.2458	-3.7188	-2.875	-3.6188	12.731	210.101	-74.102	88.908	-98.723	-23.145	166.074	209.623	195.695	-19.699	46.072	187.401	-111.189	165.197	177.125	119.834	0.00028796	0.00057741	0.00014614	915.93	2.4472e-06	4.1257e-06	974.83	313.51	2.7383e-06	2.7368e-06	356.81	116.85	103.75	42.569	2.9779e-06	50.452	0.00042036	0.00047122	0.00012337	958.43	4.8701e-06	4.8853e-06	1023.9	329.21	4.9996e-06	4.9693e-06	374.75	124.01	111.13	45.471	5.2049e-06	53.568	-134.513	-61.772	-28.823	-124.313	27.430	4.244	-125.637	-119.209	-11.917	33.260	-120.956	-116.376	-114.062	-107.817	-23.306	-110.355	-8191	255	
1954.248	1	1	0	0	0.2253	0.019552	0.25034	0.20276	0.12314	0.13724	0.11967	0.23409	0.20763	0.23784	0.02878	0.17304	0.16026	0.14795	0.24881	0.14595	-3.0854	-2.9688	-3.6292	-3.3937	-3.2188	-3.6521	-2.9104	-3.5458	-3.4042	-2.9104	-3.8021	-3.2021	-3.0458	-3.7562	-2.8729	-3.6375	101.864	72.734	15.202	199.242	33.703	-135.248	163.051	200.226	145.046	125.412	123.086	127.230	222.822	155.619	96.989	214.163	0.00032214	0.00039103	0.00011105	912.68	3.6105e-06	4.1487e-06	976.85	310.95	2.9355e-06	6.1292e-06	357.8	117.25	104.69	43.268	3.5312e-06	51.189	0.00045251	0.00050281	0.00013237	952.64	5.3044e-06	5.4112e-06	1020.5	328.13	5.3941e-06	5.5134e-06	374.99	124.67	111.86	46.095	5.3589e-06	54.322	-128.313	-36.261	-51.353	-124.280	22.533	1.347	-125.403	-119.179	-17.697	23.910	-120.941	-116.265	-114.061	-107.291	6.793	-110.220	-8191	255	
1954.344	1	1	0	0	0.17018	0.04654	0.19317	0.020877	0.18017	0.17989	0.33557	0.20244	0.060955	0.13016	0.10521	0.10427	0.11399	0.048361	0.28853	0.1471	-3.1146	-2.7458	-3.9021	-3.0729	-2.9667	-3.7062	-3	-3.5646	-3.5563	-2.9667	-3.8375	-3.3583	-2.9958	-3.6562	-2.9125	-3.4729	-96.918	156.769	65.478	35.846	-28.297	-64.696	175.638	112.585	189.721	-45.292	191.805	197.941	183.388	212.175	-35.059	-49.947	0.00029401	0.00045548	0.00010926	909.02	2.7912e-06	5.3388e-06	969.52	309.84	3.2077e-06	5.3448e-06	354.09	115.82	103.72	42.807	3.1463e-06	50.057	0.00045943	0.0004918	0.00013175	947.73	5.1839e-06	5.3957e-06	1014.8	326.14	5.1694e-06	5.1909e-06	370.89	122.97	110.79	45.611	5.2568e-06	53.198	-129.354	-77.963	-42.771	-124.328	-32.143	8.409	-125.349	-118.819	-30.783	20.160	-120.974	-116.171	-113.714	-107.622	28.280	-110.531	-8191	255	
1954.441	1	1	0	0	0.21067	0.11318	0.29842	0.26479	0.076893	0.21298	0.26294	0.12836	0.094371	0.11758	0.15132	0.27774	0.069897	0.1175	0.093875	0.20019	-3.3375	-2.925	-3.5667	-3.6146	-3.0229	-3.8	-2.9604	-3.1521	-3.5896	-2.8917	-3.7729	-3.3604	-2.9375	-3.8896	-3.025	-3.1104	-84.629	-3.760	-19.352	164.233	33.007	40.318	206.901	112.290	193.089	-84.790	206.923	191.904	-53.443	176.803	-20.720	93.744	0.00031872	0.00040945	0.0001313	906.14	2.9043e-06	5.0566e-06	963.17	306.97	2.1295e-06	5.7837e-06	350.17	113.63	102.56	42.07	3.5164e-06	49.173	0.00045616	0.00046825	0.00013515	944.61	5.1157e-06	5.26e-06	1007.5	324.2	5.1723e-06	5.2092e-06	368.24	121.13	109.4	44.665	5.3434e-06	52.208	-127.608	-47.962	-66.316	-124.260	19.783	2.000	-125.519	-119.077	10.497	4.578	-120.905	-116.472	-114.064	-107.465	-2.011	-110.614	-8191	255	
1954.537	1	1	0	0	0.16887	0.088173	0.012751	0.12865	0.057182	0.066296	0.22929	0.21032	0.056072	0.17377	0.26532	0.05927	0.18827	0.21885	0.10612	0.13208	-3.15	-2.875	-3.4813	-3.375	-2.8229	-3.6271	-3.0521	-3.2562	-3.6125	-2.9	-3.5187	-3.6875	-2.8604	-3.7771	-3.1479	-2.8792	-97.603	-108.866	213.038	24.145	109.015	-109.018	151.123	-108.426	142.300	-83.578	109.644	125.301	-115.077	152.675	147.548	17.654	0.00029574	0.00036981	8.0977e-05	907.69	3.1338e-06	4.003e-06	967.03	307.61	3.7155e-06	4.0989e-06	350.78	113.28	101.85	41.661	3.0214e-06	48.9	0.00045628	0.00047422	0.00013631	947.03	5.2603e-06	5.2376e-06	1008.9	324.76	5.0677e-06	5.2507e-06	369.37	120.83	108.93	44.296	5.0136e-06	51.999	-135.161	-50.587	-52.579	-124.225	9.770	17.653	-125.796	-119.160	-10.891	21.071	-121.213	-116.342	-113.970	-107.628	-31.514	-110.389	-8191	255	
1954.633	1	1	0	0	0.026664	0.10712	0.20339	0.23944	0.033442	0.098365	0.13489	0.22168	0.014737	0.12746	0.33133	0.052167	0.24967	0.080777	0.024464	0.055809	-3.2771	-2.7167	-3.2167	-3.8521	-2.9375	-3.475	-3.3563	-3.0729	-3.6646	-2.8708	-3.2188	-3.6208	-3.0521	-3.5271	-3.2812	-3.1646	154.046	-39.017	-45.728	-133.341	-109.015	-13.629	148.521	186.319	-45.664	157.433	173.624	168.059	-113.837	202.984	166.705	-110.703	0.00030418	0.00031679	0.00015566	917.93	3.7004e-06	4.9552e-06	983.37	312.83	3.9734e-06	4.875e-06	358.62	116.01	103.84	42.158	2.5398e-06	49.659	0.00043824	0.00043645	0.00012983	958.01	4.9282e-06	4.9969e-06	1026.2	329.99	4.9265e-06	4.8162e-06	376.34	123.31	110.87	44.831	5.059e-06	52.772	-131.089	-50.851	-42.446	-124.373	15.534	6.407	-125.431	-119.093	-2.423	7.983	-121.110	-116.452	-114.199	-107.524	-9.277	-110.684	-8191	255	
1954.729	1	1	0	0	0.080545	0.13532	0.086698	0.058789	0.050934	0.091787	0.22765	0.18917	0.20375	0.12236	0.17178	0.31041	0.17943	0.17341	0.035479	0.11406	-3.3646	-3.0104	-3.2521	-3.4979	-2.9292	-3.6063	-3.4958	-2.9771	-3.7667	-3.1583	-3.2292	-3.5958	-2.8125	-3.5	-3.5208	-2.8563	107.409	4.837	173.615	-132.544	206.974	-67.454	182.948	-129.918	-131.390	9.293	201.064	-25.507	-125.152	193.109	-100.594	76.714	0.00028987	0.00044472	0.00011303	931.26	3.2072e-06	5.4495e-06	990.46	317.12	1.9027e-06	4.1576e-06	360.33	116.3	104.52	42.191	2.8594e-06	49.536	0.00044392	0.00043968	0.00013505	968.97	5.0266e-06	5.1017e-06	1035.8	333.42	4.8555e-06	4.8307e-06	377.84	123.47	111.42	45.014	4.9095e-06	52.667	-128.001	-42.416	-33.276	-124.360	17.445	-10.277	-125.645	-119.004	-23.524	-3.883	-121.140	-116.620	-113.840	-107.360	6.076	-110.459	-8191	255	
1954.825	1	1	0	0	0.1601	0.13281	0.090977	0.40936	0.11379	0.088416	0.12134	0.095332	0.1499	0.23215	0.1792	0.098517	0.11776	0.4012	0.15559	0.068218	-3.3688	-3.0375	-2.9938	-3.6917	-2.975	-3.4896	-3.65	-2.95	-3.7313	-3.1562	-2.9396	-3.6417	-3.0125	-3.4104	-3.4979	-2.9354	-78.005	24.732	100.742	171.386	-69.795	12.183	76.314	78.357	138.249	-82.725	40.817	182.104	185.125	-109.515	98.968	-9.104	0.00031273	0.00042823	0.00013398	917.61	3.3341e-06	4.278e-06	973	310.35	3.3444e-06	3.4661e-06	352.13	115.4	103.3	42.751	2.2654e-06	49.694	0.00043062	0.00042918	0.00012824	959.49	4.7936e-06	4.7649e-06	1022	327.59	4.7368e-06	4.784e-06	370.52	122.56	110.58	45.437	5.0322e-06	52.925	-126.548	-62.873	-49.928	-124.471	13.722	17.090	-125.409	-119.235	9.427	8.757	-121.052	-116.146	-113.951	-107.330	5.345	-110.628	-8191	255	
1954.944	1	1	0	0	0.14921	0.12365	0.093682	0.079953	0.035366	0.047382	0.27524	0.049281	0.25515	0.14523	0.060683	0.18324	0.24118	0.20625	0.20363	0.14505	-3.1354	-3.3563	-2.8458	-3.6437	-3.0938	-3.0729	-3.7229	-3.0312	-3.4542	-3.3458	-2.9562	-3.9688	-2.875	-3.3146	-3.6937	-2.9062	121.813	-81.711	48.803	-103.796	19.758	137.708	111.839	96.329	-128.601	-0.952	-131.730	174.906	-133.733	149.056	135.486	176.616	0.00029349	0.00050246	0.00012033	913.47	3.1025e-06	5.9033e-06	965.37	310.08	2.773e-06	6.0463e-06	351.77	115.51	103.66	43.042	3.4626e-06	50.466	0.00044877	0.00045164	0.00013694	950.79	5.2012e-06	5.2546e-06	1014	326.16	5.2968e-06	5.2057e-06	369.57	123.14	111	45.855	5.1565e-06	53.51	-132.292	-26.247	-70.807	-124.281	7.911	4.749	-125.376	-119.017	14.117	12.235	-121.009	-116.074	-113.935	-107.433	-26.176	-110.524	-8191	255	
1955.040	1	1	0	0	0.30927	0.16146	0.47042	0.31639	0.19973	0.22026	0.077536	0.084635	0.086811	0.26726	0.063529	0.17656	0.23701	0.19275	0.058574	0.067543	-3.0125	-3.3854	-2.9354	-3.7417	-3.1063	-2.9688	-3.7604	-3.1271	-3.35	-3.4083	-2.9375	-3.7021	-2.9833	-3.2542	-3.6458	-2.9062	76.438	-35.957	-12.739	180.411	-28.298	107.310	116.229	113.960	-32.120	87.433	204.904	170.590	-54.786	-67.855	-91.011	40.396	0.00030123	0.0003225	7.7499e-05	909.48	3.3316e-06	3.192e-06	972.2	309.79	4.7225e-06	4.9068e-06	354.48	115.64	103.47	42.797	2.7601e-06	50.098	0.00045412	0.00047402	0.00013368	948.22	5.1022e-06	5.2815e-06	1015.7	326.68	5.473e-06	5.181e-06	371.69	123.07	110.74	45.525	5.2404e-06	53.082	-129.504	-31.171	-34.449	-124.145	3.750	17.214	-125.329	-118.957	-3.403	5.144	-121.071	-116.213	-114.049	-107.549	-12.924	-110.509	-8191	255	
1955.114	1	1	0	0	0.064946	0.18958	0.18506	0.17202	0.13341	0.11888	0.25986	0.071129	0.24036	0.12137	0.23632	0.11628	0.11639	0.11817	0.089661	0.27154	-3.0042	-3.4854	-2.8	-3.8354	-3.1104	-2.95	-3.9188	-3.0771	-3.2562	-3.3917	-2.7875	-3.5208	-3.4396	-2.9354	-3.425	-3.05	188.139	204.580	19.062	200.627	-97.054	55.186	-78.783	84.884	-53.097	141.792	134.734	189.208	-118.468	-124.611	-113.758	181.419	0.00030504	0.00045792	0.00010028	914.24	2.1021e-06	3.0164e-06	974.1	310.39	3.8098e-06	3.9741e-06	355.26	115.03	102.19	42.095	2.2169e-06	49.181	0.00046186	0.00049401	0.00013585	953.27	5.2961e-06	5.3594e-06	1018.5	327.01	5.5151e-06	5.1303e-06	371.94	122.21	109.88	44.841	5.109e-06	52.223	-128.658	-53.445	-32.363	-124.322	33.106	-10.577	-125.355	-119.071	-23.070	13.740	-121.033	-115.992	-113.939	-107.469	-3.485	-110.552	-8191	255	
1955.233	1	1	0	0	0.2977	0.24047	0.031235	0.12653	0.13738	0.1169	0.17338	0.19494	0.19799	0.22936	0.08688	0.068404	0.18364	0.16735	0.29997	0.22668	-2.8396	-3.5833	-2.7917	-3.6354	-3.3458	-2.9521	-3.8937	-3.25	-3.075	-3.7958	-3.0896	-3.3792	-3.5146	-2.8708	-3.6125	-3.1542	-89.462	58.116	-15.768	203.202	81.422	-47.455	181.376	-86.823	42.115	10.388	169.358	104.784	-96.681	112.241	53.673	147.437	0.00030098	0.00039679	0.00010296	918.19	3.9314e-06	3.2814e-06	972.41	309.59	2.4703e-06	4.3497e-06	353.35	113.7	102.56	42.127	3.6646e-06	49.125	0.00044678	0.00047163	0.00012192	954.99	4.7329e-06	4.808e-06	1017	325.8	5.1461e-06	4.5205e-06	369.72	120.88	109.49	44.795	4.6003e-06	52.064	-131.083	-73.041	-42.144	-124.141	10.543	-16.233	-125.530	-119.152	11.528	26.099	-120.963	-116.035	-113.961	-107.562	-2.285	-110.370	-8191	255	
1955.329	1	1	0	0	0.25853	0.13199	0.14258	0.12811	0.11001	0.089379	0.19873	0.18844	0.12486	0.28379	0.33991	0.11807	0.2077	0.19611	0.13016	0.12337	-2.7417	-3.5896	-2.7521	-3.4583	-3.3917	-2.8833	-3.7333	-3.2583	-2.8604	-3.7	-3.0458	-3.3708	-3.4708	-3.0312	-3.4542	-3.3021	-19.470	-102.020	-111.892	-113.069	210.429	150.426	136.560	103.583	129.357	50.491	108.701	69.163	145.699	173.756	-106.384	21.257	0.00030761	0.00040466	8.8902e-05	916.62	3.1615e-06	4.9268e-06	974.49	311.09	2.2761e-06	5.0328e-06	353.7	114.15	103.12	42.253	2.4395e-06	49.266	0.00042436	0.00043919	0.00011431	954.55	4.5326e-06	4.7442e-06	1018.7	327.35	4.9739e-06	4.6611e-06	371.02	121.43	110.06	44.881	4.8224e-06	52.082	-128.514	-32.658	-43.320	-124.386	7.516	3.692	-125.613	-119.080	-14.458	5.297	-120.980	-116.373	-113.922	-107.387	22.476	-110.470	-8191	255	
1955.425	1	1	0	0	0.055145	0.29716	0.13185	0.13493	0.22056	0.12112	0.10224	0.14206	0.16075	0.036086	0.2251	0.16559	0.13557	0.29266	0.1171	0.19782	-2.6833	-3.6562	-3.0125	-3.3875	-3.4562	-2.7667	-3.7938	-3.4125	-2.8667	-3.7417	-2.9479	-3.2583	-3.5917	-3.0625	-3.4021	-3.1937	-71.126	128.383	-119.557	91.822	-47.014	-24.236	136.794	203.404	91.453	148.789	131.278	-110.343	156.402	-49.616	211.142	-118.306	0.00027645	0.00049577	0.00013562	912.32	1.7151e-06	5.4712e-06	970.28	308.04	3.2621e-06	5.1743e-06	352.06	114.88	103.22	42.797	3.5292e-06	50.199	0.0004223	0.00043306	0.00011404	951.88	4.5445e-06	4.7125e-06	1015.7	325.02	4.9273e-06	4.6449e-06	368.44	122.19	110.32	45.505	4.9644e-06	53.192	-127.497	-36.395	-45.947	-124.030	-8.966	19.092	-125.216	-118.928	-9.626	13.960	-121.035	-116.026	-113.926	-107.061	-13.244	-110.410	-8191	255	
1955.545	1	1	0	0	0.11504	0.16019	0.1659	0.29714	0.022575	0.057814	0.41191	0.34421	0.17003	0.32353	0.34029	0.25789	0.40173	0.22253	0.13439	0.059511	-2.3167	-3.4	-2.9854	-2.9083	-3.4813	-2.7646	-3.6021	-3.4437	-2.9521	-3.6417	-2.9604	-3.1292	-3.5438	-2.9354	-3.6354	-3.4792	-103.664	150.845	197.640	-129.397	-13.105	-14.512	197.608	181.264	103.493	49.478	210.146	215.405	183.752	170.891	76.816	173.541	0.00028887	0.00047431	0.00013381	904.02	3.3695e-06	3.071e-06	964.56	307.73	3.2334e-06	6.8915e-06	351.98	116.17	104.19	43.355	3.7741e-06	50.954	0.00042259	0.00044204	0.00011706	941.59	4.7467e-06	4.9331e-06	1009.4	323.99	5.1088e-06	4.9593e-06	368.76	123.51	111.3	46.248	5.1803e-06	54.1	-132.029	-55.984	-61.843	-123.951	-4.516	1.749	-125.076	-119.007	4.019	21.839	-120.755	-115.829	-113.649	-107.251	-3.784	-110.202	-8191	255	
1955.642	1	1	0	0	0.13016	0.24801	0.18767	0.17549	0.043671	0.27578	0.19903	0.18978	0.20222	0.14173	0.11642	0.17166	0.20292	0.10743	0.26998	0.26523	-2.3104	-3.525	-3.1542	-3.1479	-3.575	-2.9437	-3.3979	-3.475	-2.6125	-3.6417	-3.2646	-2.7396	-3.7125	-3.0125	-3.2042	-3.6792	-108.267	94.091	164.785	179.721	-115.215	108.619	160.988	176.464	-2.115	-24.637	119.453	0.602	205.787	-45.578	10.030	-27.393	0.00029212	0.00032101	9.0779e-05	899.21	2.3571e-06	4.6067e-06	965.87	308.43	2.621e-06	3.7823e-06	349.06	114.83	102.86	43.071	3.216e-06	50.275	0.00043386	0.00046091	0.00012261	940.31	4.7759e-06	4.8926e-06	1008.7	323.72	4.8817e-06	4.9408e-06	367.18	122.22	110.22	45.795	5.2988e-06	53.301	-129.415	-53.101	-43.313	-123.748	25.723	1.320	-124.925	-118.827	2.754	-14.501	-120.748	-115.535	-113.763	-107.131	32.393	-110.291	-8191	255	
1955.713	1	1	0	0	0.14458	0.073589	0.13908	0.17816	0.030674	0.04971	0.1171	0.33253	0.051553	0.2386	0.17526	0.18214	0.062979	0.37721	0.18123	0.13516	-2.2333	-3.1917	-3.4313	-2.9313	-3.6604	-3.15	-3.2146	-3.6333	-2.8667	-3.5521	-3.5	-2.8896	-3.6083	-3.0875	-2.9271	-3.7812	6.765	97.786	171.554	187.742	61.036	-18.942	18.637	177.190	175.589	-60.008	-109.864	28.124	39.186	166.887	135.948	158.190	0.00030194	0.00024805	0.00015412	900.16	2.9599e-06	4.0308e-06	960.41	307.72	2.7531e-06	3.1952e-06	348.34	113.64	102.86	42.469	2.6369e-06	49.196	0.000438	0.00045113	0.00012358	940.7	4.7759e-06	4.9221e-06	1005.3	323.45	4.9588e-06	5.1673e-06	365.75	120.83	109.78	45.184	5.2994e-06	52.31	-129.497	-83.053	-26.316	-124.151	16.146	38.799	-125.197	-118.850	-21.005	-1.152	-120.973	-115.813	-113.659	-107.085	-23.801	-110.249	-8191	255	
1955.834	1	1	0	0	0.20389	0.20142	0.23192	0.26258	0.08349	0.14266	0.21645	0.16192	0.1042	0.23622	0.10063	0.2782	0.17154	0.1284	0.22944	0.22378	-2.5125	-3.3958	-3.2729	-2.9729	-3.575	-3.2354	-3.2042	-3.6229	-3.0062	-3.2729	-3.4958	-2.9021	-3.6771	-3.1229	-3.0583	-3.7458	-127.119	-42.841	-0.446	201.146	-18.265	94.243	134.963	164.568	-1.006	-76.575	110.528	136.751	212.720	206.348	68.645	154.890	0.00030699	0.00038463	0.00019605	898.15	2.7679e-06	5.2029e-06	953.93	304.2	2.5752e-06	4.5254e-06	347.27	112.61	101.59	41.774	3.5004e-06	48.568	0.00043758	0.00046108	0.00012618	937.81	4.9518e-06	4.9657e-06	998.89	320.75	4.8486e-06	5.2075e-06	363.86	119.61	108.49	44.511	5.3923e-06	51.588	-127.123	-43.161	-47.998	-124.243	-5.438	6.477	-125.290	-118.690	30.513	35.214	-121.033	-115.833	-113.600	-107.175	1.584	-110.177	-8191	255	
1955.930	1	1	0	0	0.15087	0.17918	0.21616	0.1638	0.17948	0.24116	0.16789	0.068837	0.1278	0.039894	0.12189	0.30128	0.14727	0.040456	0.18306	0.10293	-2.5104	-3.1646	-3.5771	-2.8896	-3.3708	-3.3792	-3.0542	-3.7333	-2.9542	-2.9625	-3.7229	-2.9042	-3.4521	-3.4792	-2.8208	-3.7896	220.514	10.635	28.318	183.795	96.981	-19.817	135.591	98.290	77.408	-74.665	159.900	171.856	207.251	-71.940	200.293	28.575	0.00029216	0.00052788	9.3922e-05	907.04	1.3613e-06	3.1168e-06	960	307.66	4.0359e-06	5.9214e-06	349.81	112.48	101.54	41.672	3.7788e-06	48.846	0.0004462	0.00046819	0.0001291	943.38	5.1234e-06	5.2028e-06	1004	324.02	4.8531e-06	5.3967e-06	366.64	119.6	108.54	44.406	4.9478e-06	51.779	-133.810	-59.478	-38.803	-124.041	7.599	-4.906	-125.198	-118.976	-7.257	14.466	-120.862	-115.996	-113.723	-107.181	13.815	-110.135	-8191	255	
1956.026	1	1	0	0	0.1122	0.24759	0.1349	0.33178	0.077894	0.21879	0.44195	0.216	0.13768	0.25915	0.19309	0.13205	0.086466	0.18148	0.3562	0.18791	-2.6021	-2.9813	-3.6583	-2.875	-3.4917	-3.4542	-3.1688	-3.6	-3.0708	-3.1792	-3.5875	-2.975	-3.35	-3.4542	-3.1	-3.5563	118.588	-20.746	179.483	167.332	126.255	219.516	154.567	173.350	164.023	205.519	72.439	-78.001	-64.967	218.959	-77.226	118.293	0.00029124	0.00056356	0.00015519	911.06	3.2498e-06	4.6497e-06	967.96	308.49	2.9467e-06	4.1822e-06	349.97	114.32	102.54	42.572	3.0797e-06	49.794	0.00041385	0.00043049	0.00012353	948.65	4.7764e-06	4.5525e-06	1011.4	324.99	4.4746e-06	4.784e-06	368.26	121.53	109.62	45.218	4.6196e-06	52.747	-127.373	-37.273	-48.461	-124.176	-13.598	18.730	-125.306	-118.897	1.398	-3.637	-120.984	-116.086	-113.425	-107.388	-8.875	-110.414	-8191	255	
1956.122	1	1	0	0	0.25646	0.29162	0.20069	0.021042	0.068076	0.16696	0.13085	0.02973	0.19092	0.094587	0.086483	0.11567	0.14013	0.18923	0.32659	0.19166	-2.5729	-3.0333	-3.5125	-2.8896	-3.3083	-3.3708	-2.8479	-3.5542	-3.2062	-3.0083	-3.6729	-3.0563	-3.1521	-3.6333	-2.7354	-3.5938	-64.894	26.961	104.910	-125.927	147.173	-90.406	210.094	173.176	-21.295	-100.988	-75.328	144.631	-71.284	-107.587	71.207	-24.770	0.00029532	0.00046207	0.00015051	905.71	2.8469e-06	3.4071e-06	969.36	308.95	2.9509e-06	4.8051e-06	351.84	114.16	103.18	42.458	3.507e-06	49.309	0.0004096	0.00041222	0.00011649	945.61	4.757e-06	4.4392e-06	1012.3	325.07	4.5731e-06	4.7593e-06	368.67	121.39	110.06	45.224	4.6049e-06	52.276	-134.738	-46.937	-47.534	-124.151	23.381	10.649	-125.304	-118.835	-7.363	28.151	-120.868	-115.818	-113.797	-107.194	-6.053	-110.232	-8191	255	
1956.241	1	1	0	0	0.25803	0.11664	0.1708	0.16389	0.16308	0.2062	0.17626	0.31713	0.21478	0.38767	0.15658	0.12952	0.20756	0.19906	0.15957	0.096142	-2.9375	-2.8083	-3.5229	-3.1292	-3.2708	-3.5667	-2.9833	-3.5187	-3.3688	-2.7313	-3.7167	-3.2292	-2.9333	-3.8146	-2.9313	-3.4333	221.452	137.511	66.676	162.354	112.634	141.347	90.403	148.182	12.628	21.996	-27.950	49.538	-126.500	-33.704	-102.706	167.327	0.00030163	0.00043939	0.00011353	917.28	2.8965e-06	2.244e-06	968.32	309.06	3.2193e-06	2.0565e-06	350.81	113.85	102.57	42.476	3.608e-06	48.945	0.00042183	0.00043468	0.00011978	953.58	4.7788e-06	4.4321e-06	1014.3	325.9	4.5122e-06	4.7522e-06	366.65	120.91	109.66	45.179	4.3404e-06	52.105	-128.134	-46.814	-57.045	-124.237	-5.170	22.918	-125.224	-118.723	-1.404	28.524	-120.914	-116.004	-113.606	-107.004	11.206	-110.336	-8191	255	
1956.337	1	1	0	0	0.24411	0.18051	0.067451	0.31579	0.21717	0.30817	0.22226	0.20576	0.086194	0.099512	0.14707	0.050141	0.025738	0.10592	0.15301	0.013989	-3.1771	-2.9062	-3.4521	-3.3479	-2.9667	-3.65	-3.1104	-3.5229	-3.5417	-2.8333	-3.5896	-3.2271	-2.8917	-3.7625	-2.9271	-3.1958	163.757	194.911	-11.760	190.098	63.230	40.021	128.947	191.015	40.895	13.757	188.069	190.433	-46.182	-67.644	-39.041	-25.911	0.00028783	0.00036913	0.00012069	899.54	3.3001e-06	5.7964e-06	956.7	305.32	3.0189e-06	4.0605e-06	346.91	112.45	101.89	42.36	2.2921e-06	49.241	0.00040313	0.00041681	0.00011899	937.44	4.7825e-06	4.5734e-06	999.09	320.93	4.8388e-06	4.7601e-06	363.04	119.83	108.71	45.17	4.6052e-06	52.323	-130.551	-40.953	-57.807	-124.111	33.029	3.118	-125.211	-118.855	-4.355	-8.799	-120.836	-115.994	-113.465	-107.265	-1.453	-110.081	-8191	255	
1956.409	1	1	0	0	0.20906	0.18558	0.13553	0.052529	0.10695	0.15931	0.3318	0.090201	0.10269	0.29521	0.13006	0.12988	0.13908	0.045849	0.3128	0.32482	-3.1958	-2.7542	-3.3812	-3.3438	-2.9375	-3.6292	-3.2271	-3.2167	-3.5979	-2.8063	-3.6625	-3.3229	-2.8271	-3.7583	-2.9042	-3.225	-118.765	-61.399	30.906	169.335	217.056	80.685	-89.964	15.746	180.579	61.874	124.400	-121.849	189.253	147.176	-110.036	159.329	0.00029669	0.0003678	0.00011694	898.08	2.2578e-06	4.0669e-06	955.23	303.72	3.2474e-06	4.9847e-06	346.85	113	101.88	42.418	4.3376e-06	49.229	0.00041925	0.00043683	0.00012348	937.77	4.904e-06	4.6185e-06	999.04	320.52	5.0031e-06	4.6733e-06	364.14	120.15	108.92	45.199	4.7481e-06	52.362	-127.108	-43.100	-37.358	-124.005	5.945	26.827	-125.191	-118.556	-0.535	12.594	-120.710	-115.994	-113.323	-106.898	-12.045	-110.438	-8191	255	
1956.505	1	1	0	0	0.19539	0.1697	0.10242	0.060961	0.071687	0.17181	0.11242	0.084475	0.13649	0.076916	0.1928	0.076036	0.11224	0.19616	0.23311	0.2643	-3.3438	-2.7896	-3.175	-3.4958	-2.6271	-3.7042	-3.1104	-2.9875	-3.5646	-2.7083	-3.3729	-3.5479	-2.8271	-3.7083	-3.2792	-2.95	-108.578	141.125	2.168	33.205	-33.264	166.218	176.269	90.710	-56.803	-27.029	200.299	23.338	114.264	218.433	78.940	-51.379	0.0003013	0.00025528	0.00013195	895.8	4.1164e-06	3.2129e-06	953.5	303.38	2.9488e-06	4.2454e-06	346.41	112	101.37	42.396	2.7543e-06	48.926	0.00042422	0.00044281	0.00012029	936.46	4.8337e-06	4.7629e-06	998.82	320.28	5.0269e-06	4.5937e-06	362.73	119.6	108.51	45.03	4.8213e-06	51.963	-129.338	-40.800	-45.319	-123.936	-5.790	17.523	-124.994	-118.532	-16.136	27.313	-120.770	-115.821	-113.533	-107.194	-13.605	-110.049	-8191	255	
1956.626	1	1	0	0	0.12708	0.27111	0.13429	0.24858	0.19781	0.30929	0.20298	0.20219	0.054676	0.177	0.27707	0.045108	0.046869	0.22058	0.21328	0.26681	-3.3063	-2.7833	-3.2062	-3.6063	-2.7479	-3.5583	-3.1458	-2.9667	-3.6167	-3.0708	-3.3125	-3.5208	-2.9292	-3.4896	-3.3021	-2.9188	-25.377	-102.036	-128.365	179.377	-5.019	155.218	132.180	-47.356	199.170	-38.979	-51.532	206.225	122.815	128.024	112.273	122.355	0.00028695	0.00063898	0.00012779	895.95	2.6042e-06	4.1651e-06	948.98	304.02	2.953e-06	5.2088e-06	342.98	111.14	101.02	42.108	2.128e-06	48.577	0.00042848	0.00044607	0.00012127	934.58	4.8104e-06	4.9105e-06	993.42	319.86	5.0452e-06	4.6776e-06	361.1	118.55	108.18	44.727	4.8918e-06	51.573	-129.829	-50.395	-41.940	-123.994	12.659	6.701	-125.335	-118.807	-1.030	-5.279	-120.595	-116.124	-113.636	-107.052	5.024	-110.324	-8191	255	
1956.722	1	1	0	0	0.093217	0.30726	0.23136	0.17755	0.056223	0.30776	0.23613	0.32822	0.062325	0.14518	0.08214	0.16925	0.18421	0.11747	0.12295	0.078653	-3.5292	-2.9625	-3.0792	-3.6917	-2.6833	-3.5375	-3.4562	-3.0542	-3.6813	-2.9562	-2.9021	-3.6458	-2.6875	-3.5062	-3.3333	-2.7958	62.580	143.769	-48.292	110.902	23.194	-29.500	192.493	192.432	-66.097	47.026	40.336	219.967	183.105	185.466	100.390	-112.758	0.00028381	0.00049131	0.0001545	900.54	3.2363e-06	5.0823e-06	958.22	305.97	3.5069e-06	4.5245e-06	346.98	112.78	102.18	42.489	3.9073e-06	48.937	0.00042529	0.00044612	0.00012447	940.86	4.6825e-06	5.0243e-06	1002.5	322.3	5.0015e-06	4.5897e-06	364.54	119.91	109.16	45.113	4.7508e-06	51.977	-130.045	-20.470	-52.297	-124.016	-8.192	10.365	-125.257	-118.763	-11.436	-10.213	-120.854	-115.988	-113.410	-107.143	-4.441	-110.048	-8191	255	
1956.818	1	1	0	0	0.10842	0.089928	0.37393	0.064607	0.11663	0.037997	0.19477	0.17424	0.15445	0.33383	0.30985	0.032572	0.14522	0.13987	0.032476	0.19586	-3.0125	-3.1021	-3.0604	-3.8396	-2.9813	-3.2729	-3.6167	-2.8125	-3.7646	-3.0563	-3.0271	-3.7646	-2.775	-3.4062	-3.4562	-3.0438	126.153	72.048	5.047	92.053	130.786	138.069	-101.519	204.070	146.813	172.778	146.672	86.336	105.374	159.377	-32.798	148.669	0.00027853	0.00040641	0.00017694	911.73	2.9602e-06	4.5616e-06	966.53	310.29	2.8357e-06	4.4982e-06	353.53	114.8	103.9	43.143	2.4106e-06	49.906	0.00040136	0.00042459	0.0001148	948.97	4.3349e-06	4.7332e-06	1012.8	326.62	4.6701e-06	4.4576e-06	370.45	122.13	111.09	45.814	4.9696e-06	52.929	-127.652	-42.357	-32.262	-123.809	-10.340	7.660	-125.303	-118.903	-2.502	10.486	-120.909	-115.962	-114.016	-106.924	11.269	-109.990	-8191	255	
1956.914	1	1	0	0	0.13708	0.054621	0.2043	0.13745	0.21811	0.19046	0.41782	0.18692	0.14083	0.20705	0.14216	0.066797	0.126	0.21462	0.15035	0.37299	-3.0917	-3.4083	-2.7875	-3.7458	-2.8646	-3.2188	-3.6896	-2.8063	-3.4125	-3.3	-2.9583	-3.7375	-2.9021	-3.1542	-3.5417	-2.9354	111.139	-74.847	13.559	150.160	173.644	109.606	117.780	176.257	166.489	-87.159	123.776	171.132	124.621	-101.242	118.065	156.033	0.00030897	0.00039372	7.497e-05	917.08	1.6712e-06	4.222e-06	974.17	311.47	2.316e-06	4.1448e-06	352.02	115.72	104.35	43.359	4.0681e-06	50.486	0.00042242	0.00042708	0.00011904	957.08	4.4243e-06	4.8632e-06	1019.6	327.9	4.7291e-06	4.5954e-06	370.33	122.91	111.36	46.304	5.0155e-06	53.54	-130.837	-47.559	-49.835	-124.032	-25.790	21.572	-125.266	-118.758	6.131	2.998	-120.695	-115.817	-113.831	-107.134	10.894	-110.015	-8191	255	
1957.010	1	1	0	0	0.18467	0.11498	0.2628	0.13029	0.1924	0.11464	0.13789	0.076352	0.15401	0.10319	0.19472	0.15112	0.22383	0.06673	0.18301	0.12638	-2.975	-3.2625	-2.6937	-3.7438	-3.0417	-3.1063	-3.8583	-2.7292	-3.4021	-3.3729	-2.7687	-3.6792	-3.1688	-3.0104	-3.5458	-2.9021	212.503	-89.625	-122.401	217.862	62.732	-99.810	-36.856	207.984	31.520	11.043	151.995	151.888	-3.060	-128.149	44.037	218.803	0.00030653	0.0004361	0.00015881	912.33	3.2492e-06	4.3e-06	967.33	308.75	4.0334e-06	3.7217e-06	349.73	113.78	103.28	43.264	1.7707e-06	49.926	0.00044317	0.00045095	0.00012964	950.89	4.8804e-06	5.2257e-06	1012.2	325.28	4.9917e-06	5.1491e-06	367.08	121.15	110.45	45.974	5.1803e-06	52.879	-129.225	-48.900	-45.851	-123.926	12.828	-1.353	-125.244	-118.944	-0.831	39.166	-121.054	-115.818	-113.878	-106.980	36.134	-110.009	-8191	255	
1957.107	1	1	0	0	0.14619	0.17647	0.14214	0.043946	0.10438	0.18809	0.20692	0.07699	0.2686	0.28092	0.27415	0.17348	0.11931	0.23429	0.061805	0.24986	-3.0354	-3.3229	-2.6125	-3.6854	-3.1417	-2.875	-3.7229	-2.9542	-3.2	-3.5708	-2.6604	-3.5729	-3.3146	-2.9104	-3.5812	-2.875	-15.710	-109.721	-51.608	-13.475	-117.009	-36.333	-40.019	170.422	74.760	183.922	-78.619	206.192	147.121	-83.323	-48.777	147.942	0.00030227	0.00058772	0.00016565	902.06	3.1487e-06	4.1388e-06	957.15	306.26	2.6237e-06	4.1084e-06	346.9	113.04	102.72	43.006	2.2936e-06	49.421	0.00044515	0.00044238	0.00012486	941.16	4.8199e-06	5.1705e-06	1000.4	322.23	4.9156e-06	5.1505e-06	363.85	120.39	109.89	45.739	5.1871e-06	52.489	-130.168	-45.568	-48.022	-124.007	0.683	19.443	-125.380	-118.962	-7.316	-9.964	-120.814	-115.928	-113.810	-107.148	2.036	-110.136	-8191	255	
1957.225	1	1	0	0	0.1512	0.040314	0.15905	0.14923	0.080637	0.2338	0.29073	0.15739	0.13974	0.11331	0.27001	0.046053	0.13306	0.1586	0.12954	0.14049	-2.6979	-3.5833	-2.8583	-3.5062	-3.2646	-2.6063	-3.7521	-2.9792	-2.9375	-3.4333	-2.8937	-3.4792	-3.3833	-2.8792	-3.5083	-3.1979	141.107	-63.780	141.944	-128.512	-77.072	161.918	169.055	124.029	197.081	39.885	171.985	109.459	-45.523	176.780	198.450	-13.818	0.00029905	0.00056784	0.00013197	902.74	4.0539e-06	4.1666e-06	955.14	305.78	2.5974e-06	4.966e-06	345.59	112.44	102.28	42.585	4.8848e-06	49.063	0.00045109	0.00045418	0.000129	941.28	4.8913e-06	5.0051e-06	998.19	321.6	5.0049e-06	5.1093e-06	362.89	119.74	109.11	45.285	5.1743e-06	52.106	-129.148	-56.681	-55.148	-124.082	-13.371	-8.221	-125.382	-119.004	-25.463	14.989	-121.233	-115.994	-113.937	-107.140	-35.523	-110.472	-8191	255	
1957.322	1	1	0	0	0.09931	0.085789	0.20907	0.16107	0.040129	0.10321	0.21018	0.078548	0.038586	0.19146	0.13128	0.055846	0.20151	0.11179	0.12566	0.064152	-2.4646	-3.5833	-2.5563	-3.4292	-3.3542	-2.6667	-3.6042	-3.0312	-3.0062	-3.6083	-2.8312	-3.1896	-3.4125	-2.6896	-3.6688	-3.0375	-30.304	202.525	221.818	-110.429	121.796	190.690	-73.841	163.006	222.591	94.643	70.486	-38.794	-117.004	-8.624	-82.567	198.076	0.00029183	0.00050258	0.00011661	900.53	2.225e-06	5.4929e-06	952.09	304.6	2.2844e-06	6.4269e-06	345.81	112.5	102.22	42.526	3.0763e-06	49.204	0.00045245	0.00046755	0.00012732	937.15	5.0969e-06	5.013e-06	994.97	320.91	5.0902e-06	5.2718e-06	362.28	119.98	109.05	45.252	5.1404e-06	52.307	-128.930	-58.393	-39.507	-124.035	-3.767	16.773	-125.333	-118.808	-24.570	5.759	-120.794	-116.024	-113.868	-107.384	17.731	-110.196	-8191	255	
1957.418	1	1	0	0	0.1638	0.14804	0.13527	0.20838	0.095343	0.16765	0.15958	0.059797	0.20947	0.15057	0.085186	0.084251	0.13252	0.15163	0.12732	0.057185	-2.4458	-3.5854	-2.9062	-3.1979	-3.4542	-2.6979	-3.4458	-3.3417	-2.7396	-3.5479	-3.2	-3.0125	-3.6271	-2.825	-3.2917	-3.3854	187.496	-121.539	110.900	123.016	139.951	103.237	202.005	80.956	46.543	39.652	31.405	-2.032	193.119	-107.471	-23.087	141.660	0.00029606	0.00052573	0.00011267	901.08	2.6775e-06	5.4407e-06	955.39	304.57	3.2424e-06	5.6143e-06	346.52	112.92	102.56	42.564	4.0938e-06	49.177	0.00046061	0.00047168	0.00013064	939.02	5.3901e-06	4.8553e-06	997.98	321.46	5.1747e-06	5.3748e-06	363.66	120.3	109.26	45.234	5.1128e-06	52.269	-129.810	-51.340	-35.085	-124.038	20.243	26.696	-125.352	-118.988	-6.655	13.441	-120.990	-115.796	-113.720	-107.109	1.698	-110.354	-8191	255	
1957.514	1	1	0	0	0.33087	0.252	0.048246	0.026912	0.26097	0.03005	0.097862	0.1091	0.091636	0.24415	0.15403	0.328	0.097059	0.22931	0.21154	0.18965	-2.3542	-3.525	-3.0104	-3.3354	-3.4833	-2.7354	-3.6729	-3.5146	-2.8812	-3.4875	-2.9646	-2.9604	-3.5958	-2.9562	-3.1063	-3.4375	176.764	-119.833	20.072	203.928	70.654	-104.673	24.564	-2.748	86.075	12.096	-121.263	176.849	31.227	142.474	166.703	0.436	0.00027081	0.00042974	0.00012744	900.49	2.7215e-06	3.1331e-06	950.65	304.82	2.8156e-06	4.6424e-06	345.65	112.07	101.51	42.357	3.1125e-06	48.574	0.0004555	0.00048126	0.00013591	938.47	5.2534e-06	5.0187e-06	994.66	320.89	5.3813e-06	5.1392e-06	361.58	119.13	108.69	44.912	5.3499e-06	51.574	-129.421	-40.096	-74.753	-123.993	39.998	20.916	-125.113	-119.020	-3.212	16.834	-120.965	-116.084	-113.703	-107.273	26.709	-110.395	-8191	255	
1957.635	1	1	0	0	0.10993	0.12963	0.18813	0.17855	0.27256	0.12445	0.069454	0.13359	0.14808	0.090607	0.12989	0.26318	0.19451	0.1013	0.15267	0.23031	-2.3542	-3.6021	-3.0604	-2.8521	-3.5667	-2.8729	-3.4396	-3.4521	-2.6917	-3.5708	-3.2396	-3.1	-3.7083	-2.9229	-3.0583	-3.5729	-131.278	20.146	147.642	139.219	19.971	84.974	-19.229	218.032	193.904	17.829	169.644	-112.924	163.792	-96.072	-73.644	-59.784	0.00030736	0.0004214	0.00012595	899.4	3.6371e-06	5.4076e-06	948.59	305.05	2.9354e-06	4.0825e-06	344.98	111.31	101.42	42.263	3.8337e-06	48.519	0.00045249	0.00048531	0.0001362	936.45	5.3192e-06	5.0629e-06	992.99	320.83	5.4314e-06	5.3645e-06	361.02	118.97	108.71	44.849	5.3046e-06	51.563	-127.864	-44.153	-44.196	-124.065	54.887	5.059	-125.232	-119.042	-22.001	8.867	-120.980	-116.082	-113.900	-107.368	11.481	-110.333	-8191	255	
1957.706	1	1	0	0	0.20109	0.24628	0.16359	0.16822	0.10637	0.05567	0.065939	0.11951	0.13777	0.15727	0.11293	0.20946	0.18901	0.2905	0.1719	0.082588	-2.2729	-3.4938	-3.0792	-3.0312	-3.5292	-2.9458	-3.0604	-3.75	-2.6875	-3.5396	-3.2333	-2.7833	-3.8646	-3.0521	-3.0604	-3.8542	145.023	22.929	23.943	-117.965	-35.989	140.667	68.669	-136.630	203.320	-97.025	143.111	188.635	62.342	150.008	168.987	213.536	0.00028412	0.00047872	0.00016939	895.93	3.07e-06	4.1976e-06	945.98	304.44	1.9266e-06	3.1169e-06	344.95	112.08	101.65	41.92	2.7693e-06	48.504	0.00045351	0.00049565	0.00013667	935.57	5.4845e-06	5.2195e-06	991.29	320.78	5.3845e-06	5.5336e-06	362.21	119.14	108.69	44.645	5.4835e-06	51.618	-128.021	-49.517	-43.802	-124.015	-6.721	18.700	-125.202	-118.927	-17.427	15.574	-120.936	-116.063	-113.845	-107.583	12.541	-110.512	-8191	255	
1957.802	1	1	0	0	0.03637	0.12905	0.34963	0.28315	0.10385	0.13063	0.18153	0.11159	0.20475	0.24109	0.27759	0.17872	0.051099	0.18924	0.17444	0.13836	-2.3438	-3.1771	-3.4542	-3.0667	-3.5938	-3.1729	-3.0042	-3.7583	-2.7896	-3.2271	-3.4354	-2.9938	-3.5104	-3.1625	-2.8563	-3.5417	-64.094	-128.071	-103.837	163.614	150.040	220.724	130.915	169.882	-69.437	-128.292	150.061	195.671	-106.993	-121.093	31.758	-25.853	0.00029148	0.00056358	0.00012776	897.53	3.2893e-06	2.9479e-06	955.27	306.58	3.306e-06	7.4311e-06	349.15	112.53	102.31	42.181	2.8588e-06	49.044	0.00045083	0.00051554	0.00013457	937.98	5.4575e-06	5.3076e-06	997.9	323.26	5.5631e-06	5.5947e-06	365.23	120.08	109.24	44.833	5.5111e-06	51.987	-130.554	-69.569	-45.918	-124.213	24.552	-11.392	-125.377	-119.049	-7.789	12.819	-121.175	-116.112	-113.897	-107.396	-4.268	-110.430	-8191	255	
1957.898	1	1	0	0	0.14692	0.30172	0.206	0.15246	0.30659	0.17299	0.13915	0.18169	0.41635	0.084739	0.35396	0.15313	0.16819	0.17828	0.1322	0.12767	-2.5458	-3.1521	-3.5479	-2.8625	-3.5396	-3.0417	-2.9688	-3.6146	-2.8896	-3.1917	-3.5646	-2.9583	-3.3563	-3.3604	-2.9813	-3.4813	97.048	59.630	-46.893	182.881	-37.882	-108.633	141.558	158.941	132.414	-40.076	187.002	184.686	-17.292	1.545	93.955	-82.540	0.00029551	0.00031919	7.7814e-05	898.89	3.3416e-06	5.4239e-06	952.92	305.97	2.4709e-06	4.3266e-06	345.2	112.25	102.09	42.105	4.976e-06	48.619	0.00045535	0.00052229	0.00014133	939.77	5.3893e-06	5.5625e-06	996.79	322.6	5.5286e-06	5.4718e-06	363.17	119.39	109.08	44.738	5.4494e-06	51.496	-129.481	-54.389	-55.719	-124.086	42.418	-11.816	-125.485	-119.080	7.038	13.319	-120.833	-116.109	-113.860	-107.509	10.102	-110.408	-8191	255	
1958.017	1	1	0	0	0.1348	0.19193	0.12288	0.32834	0.25739	0.12942	0.15452	0.30667	0.026382	0.32029	0.15474	0.25557	0.077083	0.1176	0.13729	0.11078	-2.3792	-2.8	-3.4771	-3.0167	-3.3125	-3.2938	-2.875	-3.6125	-3.0625	-3.075	-3.5583	-2.7687	-3.5271	-3.6188	-2.6688	-3.7938	-43.496	-7.891	192.048	203.957	111.119	-65.023	-130.182	116.012	27.454	-101.313	-74.949	151.655	108.346	190.190	147.298	-70.013	0.00029928	0.00060814	0.00014962	894.28	2.956e-06	4.5935e-06	945.9	304.33	4.1469e-06	5.4821e-06	342.67	111.16	101.25	41.822	1.699e-06	48.201	0.00044979	0.00051354	0.00013772	934.73	5.2837e-06	5.4699e-06	988.96	319.94	5.5035e-06	5.3571e-06	359.43	117.95	108.15	44.498	5.3827e-06	51.079	-132.123	-45.376	-62.097	-124.265	16.343	21.399	-125.362	-118.943	-9.820	24.821	-121.036	-116.299	-113.853	-107.524	-16.830	-110.298	-8191	255	
1958.114	1	1	0	0	0.19729	0.19018	0.25909	0.16348	0.13518	0.22575	0.17403	0.091301	0.070248	0.043989	0.20237	0.13989	0.099248	0.17266	0.28718	0.20681	-2.8146	-3.0354	-3.5875	-2.8854	-3.1833	-3.3083	-2.8854	-3.6688	-3.1833	-2.9083	-3.7	-2.7875	-3.4062	-3.6417	-2.6271	-3.4479	180.184	161.524	148.208	158.191	-135.759	-20.322	144.252	91.940	-40.965	-121.848	185.368	-41.674	23.408	-124.208	-2.366	210.772	0.00029076	0.00058143	9.5875e-05	896.46	1.5708e-06	4.4474e-06	942.86	302.32	3.8932e-06	5.4676e-06	341.87	111.35	100.64	41.784	2.6124e-06	48.146	0.00045225	0.00051167	0.00013364	931.75	5.1096e-06	5.5008e-06	986.53	318.69	5.3294e-06	5.3958e-06	358.78	118.09	107.71	44.402	5.5272e-06	51.144	-130.474	-60.688	-73.060	-124.021	20.141	-0.775	-125.192	-118.779	-23.394	9.297	-120.839	-116.115	-113.642	-107.212	-10.763	-110.236	-8191	255	
1958.210	1	1	0	0	0.15406	0.0073697	0.067428	0.17754	0.14106	0.11638	0.11204	0.065927	0.10288	0.16768	0.23062	0.20517	0.13327	0.24462	0.1342	0.017662	-2.9167	-2.6917	-3.5792	-3.075	-3.0271	-3.4688	-2.8833	-3.5771	-3.2354	-2.825	-3.7854	-2.9708	-3.1479	-3.7375	-2.8083	-3.5	-85.708	-33.984	-42.522	205.214	106.415	203.685	69.521	-106.789	-78.864	132.056	-12.348	183.192	176.781	194.240	-50.749	-27.519	0.0002775	0.00037113	0.00011552	894.61	2.4871e-06	3.1499e-06	940.55	303.04	2.9326e-06	5.1097e-06	341.12	111.11	101.15	41.893	1.9604e-06	48.546	0.00045382	0.00049791	0.00013507	931.43	5.2577e-06	5.5401e-06	987.1	319.27	5.3011e-06	5.3105e-06	359.62	118.35	108.07	44.483	5.4742e-06	51.421	-130.945	-49.206	-53.629	-124.141	3.570	40.492	-125.146	-118.903	-16.086	17.533	-120.826	-115.979	-113.763	-107.334	-30.863	-110.159	-8191	255	
1958.306	1	1	0	0	0.28236	0.16178	0.022752	0.09142	0.037599	0.1717	0.21507	0.18065	0.032987	0.08836	0.014156	0.091626	0.19293	0.13655	0.22636	0.19557	-3.0062	-2.6729	-3.6021	-3.1896	-3.0667	-3.7021	-2.9083	-3.4521	-3.4979	-2.8104	-3.7375	-3.0646	-3.0708	-3.5958	-2.85	-3.3646	60.714	-99.829	83.512	212.285	-84.461	-89.810	3.381	22.712	188.149	143.899	-97.429	170.660	10.372	-132.381	53.628	171.458	0.00028514	0.00042284	0.00015285	894.69	3.281e-06	2.8669e-06	942.28	301.91	2.6785e-06	5.1854e-06	342.89	111.03	100.88	41.622	4.0684e-06	48.426	0.00046482	0.00048393	0.00013593	930.43	5.2038e-06	5.4424e-06	985.53	318.07	5.2669e-06	5.4288e-06	359.71	118.25	107.87	44.352	5.3324e-06	51.255	-130.658	-71.399	-40.558	-124.087	7.306	20.612	-125.179	-118.614	-19.322	15.206	-120.771	-115.988	-113.704	-107.467	12.618	-110.132	-8191	255	
1958.402	1	1	0	0	0.24016	0.13108	0.12212	0.21107	0.11341	0.017224	0.096597	0.10108	0.14145	0.21058	0.34565	0.18422	0.048605	0.21045	0.041484	0.29057	-3.025	-2.9771	-3.2562	-3.2833	-2.9271	-3.6021	-3.025	-3.2313	-3.5333	-2.6063	-3.4104	-3.3083	-2.8396	-3.5521	-3.05	-3.1	137.837	-114.403	-93.722	-116.565	-115.198	-4.267	221.092	-70.281	150.131	191.476	138.169	-135.005	-74.939	161.360	-32.230	147.216	0.00029266	0.00045505	0.00013374	891.22	2.4719e-06	3.5705e-06	940.74	302.67	3.6383e-06	4.5216e-06	340.08	109.89	99.925	41.399	3.4299e-06	47.586	0.00047318	0.0004712	0.00013615	929.12	5.1879e-06	5.4231e-06	985.06	318.44	5.3657e-06	5.3842e-06	357.49	117.13	107	44.077	5.4551e-06	50.508	-127.541	-64.855	-49.409	-124.032	32.309	9.789	-125.391	-118.895	-13.956	11.197	-120.819	-116.012	-113.754	-107.404	-32.501	-110.308	-8191	255	
1958.498	1	1	0	0	0.1678	0.13889	0.16626	0.088428	0.14412	0.35122	0.038035	0.24408	0.11082	0.15592	0.14058	0.11317	0.25392	0.10083	0.19583	0.050078	-3.2104	-2.7	-3.4333	-3.3729	-2.7646	-3.5708	-3.1417	-3.1688	-3.7271	-2.8229	-3.2833	-3.375	-2.8271	-3.525	-3.0812	-2.9708	114.949	-79.453	8.226	-126.432	-114.872	138.354	156.882	-58.009	221.418	71.371	130.580	185.068	218.622	-20.729	130.739	32.703	0.00028216	0.00054043	0.00011016	888.84	2.0164e-06	3.5081e-06	933.93	300.95	2.4289e-06	5.498e-06	339.01	109.86	99.452	41.2	2.1112e-06	47.667	0.00046551	0.00047125	0.00013849	927.39	5.1547e-06	5.3739e-06	978.95	316.79	5.4065e-06	5.3961e-06	355.66	116.7	106.68	43.853	5.3707e-06	50.455	-128.349	-45.261	-42.178	-124.338	5.973	6.179	-125.440	-118.860	-0.268	6.800	-120.732	-115.770	-113.682	-107.205	-7.910	-110.376	-8191	255	
1958.594	1	1	0	0	0.13089	0.3076	0.14551	0.17337	0.30271	0.1885	0.032601	0.20714	0.0216	0.21828	0.12736	0.12207	0.14475	0.11203	0.0833	0.23712	-3.0771	-2.6271	-3.0771	-3.4562	-2.7354	-3.5458	-3.1771	-3.0792	-3.5021	-2.7625	-3.2438	-3.4104	-2.8771	-3.4667	-3.2438	-2.8729	134.151	-10.948	167.850	111.574	135.976	-76.034	198.088	93.706	77.176	178.109	-129.029	89.469	28.925	-58.713	-104.959	199.050	0.0002655	0.00040665	0.00013708	886.43	2.6067e-06	4.0348e-06	936.49	303.11	2.9714e-06	3.3939e-06	341.72	110.21	100.61	41.328	2.4424e-06	47.948	0.00046326	0.00046519	0.00013694	925.67	5.3357e-06	5.2991e-06	981.81	317.94	5.2309e-06	5.4402e-06	358.21	117.44	107.29	43.998	5.3324e-06	50.763	-125.352	-45.691	-49.447	-124.088	9.903	-12.691	-125.347	-118.765	21.467	27.462	-120.761	-116.427	-113.821	-107.298	43.825	-110.349	-8191	255	
1958.715	1	1	0	0	0.29414	0.19026	0.28182	0.17416	0.027953	0.060881	0.086114	0.1918	0.04455	0.30855	0.062239	0.11809	0.17202	0.078244	0.22491	0.089852	-3.2583	-2.8646	-3.2313	-3.6375	-2.8417	-3.6771	-3.2438	-2.9083	-3.6875	-3.0583	-3.125	-3.5938	-2.5	-3.4333	-3.3146	-2.7958	165.421	-85.258	3.282	149.196	-40.620	79.512	-130.909	-93.377	158.006	-129.813	151.643	206.307	196.356	-84.967	-35.277	-99.813	0.00030426	0.00034053	0.00018212	892.83	3.1134e-06	3.2644e-06	941.04	302.88	2.4027e-06	6.6503e-06	340.98	111.43	100.09	41.486	2.4331e-06	48.185	0.00046641	0.00047256	0.00014073	929.73	5.3434e-06	5.2441e-06	985.43	318.66	5.4444e-06	5.5441e-06	358.65	118.06	107.26	44.214	5.3669e-06	51.226	-129.663	-56.054	-49.152	-124.049	-8.788	3.821	-125.199	-118.661	5.390	1.730	-120.779	-115.904	-113.657	-107.192	-10.530	-110.419	-8191	255	
1958.811	1	1	0	0	0.22137	0.37706	0.1945	0.30891	0.13351	0.12825	0.18687	0.075898	0.052131	0.15871	0.16229	0.14809	0.072074	0.087385	0.18727	0.065138	-3.2146	-2.9958	-2.8937	-3.4896	-2.8063	-3.3583	-3.5667	-2.8271	-3.6333	-3.0417	-3.0375	-3.6125	-2.8667	-3.4208	-3.4771	-2.7354	132.268	37.819	31.376	172.220	-86.454	-51.363	222.569	117.093	33.695	18.721	200.966	123.513	53.740	-82.938	-28.146	168.064	0.00028753	0.00026758	0.00013246	893.88	2.9799e-06	5.3682e-06	947.98	303.74	3.3431e-06	6.0211e-06	343.82	111.72	101.09	41.861	4.3177e-06	48.064	0.00046646	0.0004889	0.00014315	931.01	5.407e-06	5.3863e-06	991.26	320.36	5.6073e-06	5.5153e-06	361.17	118.86	108.01	44.497	5.5144e-06	51.169	-128.902	-66.756	-62.878	-123.929	13.378	4.042	-125.349	-118.637	5.798	28.665	-120.494	-115.645	-113.504	-106.983	23.604	-110.121	-8191	255	
1958.907	1	1	0	0	0.10219	0.20962	0.1972	0.11123	0.057765	0.079056	0.094433	0.10989	0.044824	0.1467	0.15527	0.077613	0.20515	0.23109	0.099491	0.23415	-3.0687	-3.0896	-2.7521	-3.7458	-2.8375	-3.2104	-3.5354	-2.9979	-3.2583	-3.1833	-2.8708	-3.6042	-3.0917	-3.1583	-3.6188	-2.875	-46.259	178.565	152.313	198.224	52.627	-69.975	156.997	166.310	-48.174	220.346	170.187	176.653	192.895	199.068	70.681	164.345	0.00029454	0.00047149	0.00016271	893.74	2.4107e-06	4.0621e-06	941.97	302.48	1.5454e-06	3.6233e-06	340.84	110.93	100.35	41.562	2.5357e-06	48.017	0.00046473	0.00050189	0.00014148	931.74	5.5339e-06	5.2926e-06	985.46	319	5.5678e-06	5.4556e-06	358.28	118.02	107.38	44.127	5.5805e-06	50.822	-129.748	-36.419	-23.237	-124.074	28.586	7.475	-125.345	-118.749	9.704	13.758	-120.883	-115.630	-113.548	-107.068	3.260	-110.402	-8191	255	
1959.003	1	1	0	0	0.19298	0.078468	0.048795	0.016035	0.12177	0.24134	0.051667	0.26305	0.26021	0.12927	0.16527	0.16573	0.29491	0.18189	0.073627	0.16137	-3.1479	-3.2208	-2.6917	-3.7875	-2.9813	-3.0896	-3.7313	-2.9146	-3.4646	-3.4292	-2.825	-3.7062	-3.2625	-2.9437	-3.6167	-2.9062	-85.745	-22.498	52.568	162.688	97.917	174.052	204.316	76.232	-115.014	34.876	-46.580	177.999	149.787	35.000	127.736	145.212	0.00028769	0.00024055	0.00012647	893.21	1.6668e-06	5.662e-06	943.82	303.22	3.9137e-06	6.3134e-06	343.12	110.9	100.03	41.47	2.3382e-06	47.917	0.0004689	0.00052399	0.00014067	930.62	5.5092e-06	5.5027e-06	984.26	318.75	5.6121e-06	5.5444e-06	358.48	117.88	107.34	44.093	5.5854e-06	50.929	-125.419	-76.586	-45.802	-123.977	-26.274	-0.314	-125.365	-119.041	-1.717	6.586	-120.873	-115.924	-113.789	-107.048	-23.214	-110.366	-8191	255	
1959.099	1	1	0	0	0.14461	0.060781	0.1679	0.12633	0.2351	0.19324	0.13366	0.12348	0.17251	0.16136	0.10481	0.30258	0.1667	0.38624	0.14815	0.046318	-2.8917	-3.4938	-2.8896	-3.5729	-3.0292	-2.9313	-3.7208	-2.8167	-3.3625	-3.4271	-2.7042	-3.4458	-3.4229	-2.875	-3.5229	-3.1958	104.085	-118.042	-100.868	156.399	16.004	-82.996	147.089	103.902	193.300	-1.195	-56.556	191.448	194.029	207.068	-134.436	81.699	0.00027842	0.00044447	6.175e-05	890.79	2.866e-06	4.8556e-06	942.07	303.15	2.2637e-06	4.8505e-06	342.78	111.01	101.16	41.701	3.7491e-06	48.292	0.00046899	0.00053941	0.00014145	928.93	5.688e-06	5.4736e-06	985.52	319.04	5.6616e-06	5.6847e-06	359.92	118.5	108.02	44.315	5.76e-06	51.335	-130.004	-50.338	-42.798	-123.880	6.057	-13.655	-124.962	-119.003	-10.316	17.295	-120.840	-116.010	-114.120	-107.310	41.787	-110.274	-8191	255	
1959.194	1	1	0	0	0.16639	0.12087	0.12058	0.10253	0.27977	0.047479	0.056738	0.071767	0.095169	0.17488	0.30219	0.18226	0.22448	0.059526	0.048859	0.06217	-2.7146	-3.4458	-2.7146	-3.4813	-3.1604	-2.6604	-3.7708	-2.9458	-3.2812	-3.5083	-2.9458	-3.5938	-3.25	-2.8375	-3.6167	-3.1917	221.998	-99.437	-106.979	-134.537	-108.143	-48.519	35.027	-26.319	-105.615	-99.831	188.138	90.629	200.498	-31.137	190.256	39.412	0.00027896	0.00042136	0.00013332	892.77	3.3058e-06	3.4519e-06	948.55	304.86	3.3582e-06	4.1424e-06	344.65	112.48	101.42	41.725	2.9037e-06	48.542	0.00047091	0.00052812	0.00013828	933.4	5.4991e-06	5.6871e-06	992.58	321.1	5.7798e-06	5.696e-06	362.15	119.5	108.39	44.46	5.6499e-06	51.543	-132.823	-47.741	-29.283	-123.707	8.226	2.817	-125.014	-118.634	-8.832	1.953	-120.678	-115.774	-113.158	-106.915	-17.298	-110.091	-8191	255	
1959.315	1	1	0	0	0.2277	0.20268	0.13623	0.057271	0.05478	0.094356	0.12396	0.33483	0.040988	0.033166	0.089905	0.080352	0.27264	0.082947	0.071412	0.38843	-2.7021	-3.5604	-2.6271	-3.4813	-3.325	-2.8771	-3.6167	-3.1021	-3.0104	-3.6896	-2.8167	-3.425	-3.4125	-2.7562	-3.6771	-3.1292	-113.036	-1.484	192.158	146.854	-134.085	-24.246	-127.902	184.801	223.112	-5.594	-125.754	-60.148	137.537	47.067	-79.385	144.047	0.00029945	0.00038835	0.00010382	894.89	4.1725e-06	2.3773e-06	944.42	303.5	2.7707e-06	3.8639e-06	342.63	110.96	100.39	41.339	3.4511e-06	47.748	0.00046681	0.00052861	0.00013706	933.29	5.4702e-06	5.6557e-06	989	319.93	5.6825e-06	5.543e-06	360.01	118.15	107.34	44.007	5.7286e-06	50.741	-129.644	-52.922	-45.550	-123.764	30.990	20.007	-125.017	-118.515	16.224	18.333	-120.638	-115.755	-113.721	-107.302	20.922	-110.419	-8191	255	
1959.411	1	1	0	0	0.064299	0.062456	0.17396	0.10247	0.11807	0.15873	0.062069	0.1627	0.17643	0.075514	0.12244	0.11137	0.19299	0.24276	0.25039	0.27598	-2.5938	-3.6354	-2.7917	-3.2854	-3.4458	-2.7604	-3.5271	-3.2646	-2.7021	-3.7083	-2.8542	-3.1958	-3.4521	-2.7979	-3.3833	-3.2958	-65.994	-2.655	-43.210	199.198	58.006	184.850	193.898	-27.687	-1.441	-13.391	113.964	164.418	174.272	153.847	203.155	100.624	0.00028828	0.00048632	0.00014837	889.47	2.9735e-06	3.7745e-06	941.66	301.81	3.2099e-06	5.178e-06	343.03	111.16	100.64	41.323	3.3589e-06	47.683	0.00046639	0.00052147	0.00013754	927.07	5.3413e-06	5.4687e-06	984	318.28	5.5572e-06	5.5321e-06	359.02	117.8	107.52	43.831	5.7666e-06	50.637	-131.531	-48.568	-71.935	-124.125	32.238	9.274	-125.179	-118.864	2.692	-8.754	-120.823	-115.838	-113.966	-107.032	-10.271	-110.195	-8191	255	
1959.507	1	1	0	0	0.055507	0.37767	0.13792	0.20031	0.4136	0.2108	0.23181	0.23326	0.11337	0.13735	0.02125	0.11254	0.19905	0.13455	0.13745	0.093605	-2.5458	-3.5604	-2.9813	-3.3479	-3.2479	-2.8771	-3.4771	-3.3958	-2.8333	-3.5312	-3.2313	-3.0187	-3.5771	-2.9437	-3.375	-3.5917	131.803	166.147	-102.815	196.674	89.911	-65.128	-58.628	136.668	-66.876	132.215	108.410	7.250	16.255	139.958	164.653	145.982	0.00029335	0.00052599	0.00013661	889.03	3.6078e-06	3.0205e-06	941.59	303.31	2.5522e-06	5.4148e-06	343.03	111.56	100.79	41.147	2.9474e-06	47.91	0.00046987	0.00052943	0.00014307	927.9	5.5883e-06	5.6789e-06	984.14	319.26	5.53e-06	5.6892e-06	360.15	118.4	107.72	43.791	5.9395e-06	50.861	-131.197	-53.027	-43.669	-123.716	36.426	13.185	-124.915	-118.921	8.129	3.677	-120.495	-115.714	-113.519	-107.093	24.101	-110.012	-8191	255	
1959.578	1	1	0	0	0.13908	0.2374	0.18031	0.26743	0.3032	0.15754	0.13869	0.097443	0.01559	0.14123	0.19925	0.17899	0.12032	0.10602	0.18788	0.086137	-2.3542	-3.5062	-3.2062	-3.1125	-3.6667	-2.9396	-3.3896	-3.6667	-2.875	-3.5229	-3.2625	-2.7229	-3.4333	-2.8312	-3.2354	-3.5833	-70.973	102.280	61.863	213.983	-2.353	-61.254	-84.946	-132.784	-132.365	16.266	193.416	123.976	203.132	-50.088	-90.402	-19.401	0.00026404	0.00052302	0.00011096	892.23	2.6328e-06	3.2167e-06	944.9	302.93	2.9509e-06	3.1999e-06	344.78	112.14	100.69	41.299	2.7537e-06	48.133	0.00048099	0.00052342	0.00014377	930.77	5.472e-06	5.7231e-06	988.89	319.77	5.3609e-06	5.749e-06	361.57	118.99	107.95	43.917	5.8261e-06	51.131	-128.650	-28.864	-58.222	-123.646	-16.280	8.077	-124.870	-118.628	-10.177	-6.672	-120.463	-115.543	-113.282	-107.042	25.756	-109.936	-8191	255	
1959.699	1	1	0	0	0.13441	0.039685	0.14502	0.21586	0.034793	0.0518	0.32071	0.082319	0.098883	0.1508	0.058794	0.21857	0.18971	0.13374	0.25118	0.29727	-2.3688	-3.3146	-3.2604	-2.9229	-3.3771	-2.9333	-3.1583	-3.5563	-2.6292	-3.3167	-3.5042	-2.8021	-3.6854	-3.2333	-3.0167	-3.5083	180.488	-81.557	69.497	155.429	117.461	-3.568	176.424	39.099	-12.827	-78.016	-118.196	-100.534	91.841	-136.083	-44.865	217.453	0.00027486	0.00041568	0.00010556	896.06	2.2247e-06	4.5812e-06	945.74	304.75	3.5176e-06	4.4699e-06	344.7	112.23	101.26	41.493	3.9119e-06	48.371	0.00048613	0.00050736	0.0001476	933.81	5.6148e-06	5.6585e-06	991.4	320.89	5.3382e-06	5.7427e-06	362.15	119.24	108.2	44.102	5.6947e-06	51.333	-132.146	-45.693	-56.326	-123.543	2.380	-5.043	-124.707	-118.350	-1.262	31.401	-120.424	-115.234	-113.288	-106.776	19.152	-109.740	-8191	255	
1959.795	1	1	0	0	0.14266	0.29463	0.066146	0.084849	0.065699	0.24915	0.3018	0.31204	0.16875	0.12063	0.18408	0.28598	0.20053	0.22831	0.1166	0.10759	-2.2271	-3.4458	-3.3312	-2.9125	-3.525	-3.275	-3.1021	-3.7625	-2.9813	-3.375	-3.3875	-2.9583	-3.55	-3.1375	-2.8563	-3.65	206.808	-27.023	-0.093	175.199	-111.626	27.339	194.418	197.189	84.501	59.819	69.948	208.790	-112.883	-75.699	-129.540	44.301	0.00028032	0.00038132	5.3514e-05	897.86	3.2562e-06	3.271e-06	947.64	303.81	3.3331e-06	4.704e-06	345.13	111.3	100.83	41.314	3.5165e-06	47.921	0.0004764	0.00049681	0.00014585	934.65	5.5917e-06	5.4934e-06	991.51	320.28	5.5064e-06	5.4997e-06	360.89	118.42	107.76	43.936	5.4578e-06	50.777	-131.226	-37.305	-65.201	-123.346	9.349	-2.236	-124.954	-118.871	-3.756	22.722	-120.617	-115.488	-113.615	-107.228	16.585	-110.025	-8191	255	
1959.891	1	1	0	0	0.084803	0.25726	0.21692	0.1656	0.11349	0.10784	0.14825	0.073886	0.16553	0.209	0.11004	0.20378	0.044166	0.028432	0.082712	0.121	-2.5646	-3.1063	-3.4375	-2.9417	-3.4271	-3.2771	-3.1104	-3.775	-2.8521	-3.1292	-3.5062	-2.7188	-3.5854	-3.4021	-2.7375	-3.8187	186.248	-81.806	-29.190	-56.336	10.167	-130.348	-90.335	66.885	57.568	95.242	-50.595	162.162	202.614	112.858	85.221	-85.539	0.00026694	0.00048528	0.0001092	893.57	2.3627e-06	2.8803e-06	943.4	302.44	3.1285e-06	3.3012e-06	343.02	110.86	100.53	41.09	3.2435e-06	47.702	0.00046182	0.00048244	0.00014238	931.91	5.3927e-06	5.4546e-06	986.08	319.01	5.2775e-06	5.4858e-06	359.16	117.91	107.46	43.763	5.4578e-06	50.661	-132.316	-40.787	-42.363	-123.498	-0.948	7.525	-124.927	-118.995	2.722	12.626	-120.890	-115.967	-113.644	-107.299	0.098	-110.321	-8191	255	
1959.988	1	1	0	0	0.40544	0.30945	0.13494	0.15757	0.25695	0.19581	0.22624	0.2493	0.093874	0.00020344	0.14676	0.13641	0.14774	0.14128	0.098368	0.21342	-2.7667	-3.1646	-3.5083	-2.8	-3.5417	-3.2917	-2.8333	-3.5542	-2.8708	-3.0021	-3.6771	-2.875	-3.4333	-3.5292	-2.7542	-3.5187	97.482	146.719	6.930	199.699	-111.768	202.191	197.040	-126.167	13.288	180.000	153.204	202.727	-108.582	220.586	-33.935	171.475	0.00027983	0.00047733	9.0198e-05	893.34	2.9162e-06	3.4281e-06	941.09	302.66	2.0542e-06	7.1076e-06	341.8	111.42	101.03	41.349	4.0868e-06	47.923	0.00046914	0.00048916	0.00014497	929.07	5.6633e-06	5.6381e-06	986.64	318.56	5.4966e-06	5.5455e-06	359.16	118.42	107.67	43.998	5.5152e-06	51	-130.804	-49.386	-25.567	-123.828	24.021	-27.159	-125.046	-118.710	18.771	11.494	-119.883	-115.403	-113.278	-106.892	-5.525	-109.854	-8191	255	
1960.106	1	1	0	0	0.057193	0.17117	0.15865	0.092798	0.22382	0.26779	0.12499	0.20834	0.20387	0.073154	0.065336	0.10899	0.13229	0.2176	0.12481	0.078118	-2.7417	-3.0438	-3.6708	-2.9792	-3.4146	-3.5625	-2.8646	-3.6021	-3.0833	-2.85	-3.6208	-3.0083	-3.2104	-3.5625	-2.7021	-3.5563	128.375	140.220	-40.282	163.933	55.950	-13.114	20.145	198.236	150.939	-123.568	91.329	-0.081	127.773	108.639	-113.277	164.171	0.00028927	0.00052406	0.00013859	894.04	2.4927e-06	4.4753e-06	950.3	304.83	1.9898e-06	5.4817e-06	345.52	112.45	101.25	41.432	1.0646e-06	48.789	0.0004756	0.00049879	0.00014772	932.33	5.5195e-06	5.5772e-06	991.66	320.76	5.6966e-06	5.6906e-06	363.03	119.74	108.44	44.236	5.5436e-06	51.601	-129.883	-59.320	-44.948	-123.676	4.047	28.108	-125.011	-118.589	22.595	6.927	-120.704	-115.944	-113.809	-107.252	-9.926	-110.057	-8191	255	
1960.180	1	1	0	0	0.1403	0.024046	0.13216	0.088897	0.19096	0.15592	0.057128	0.11351	0.095096	0.31739	0.15651	0.09579	0.16712	0.16064	0.2951	0.275	-2.8063	-2.7771	-3.5396	-3.1771	-3.0458	-3.3833	-2.8729	-3.5208	-3.3229	-2.775	-3.7062	-3.1729	-3.0771	-3.6937	-2.7625	-3.4396	154.983	115.693	-5.401	-133.144	-9.204	85.454	-0.307	-135.949	113.938	25.163	74.031	178.703	-116.772	212.996	-100.501	221.955	0.00026428	0.00055838	0.0001515	896.69	4.5762e-06	4.8247e-06	954.15	307.28	2.6259e-06	4.9987e-06	349.01	112.97	101.59	41.725	4.0663e-06	48.408	0.00048317	0.00050746	0.00014711	937.21	5.5466e-06	5.8208e-06	998.86	322.88	5.8518e-06	5.6351e-06	365.92	120.19	108.96	44.325	5.5663e-06	51.407	-125.361	-74.029	-62.354	-123.740	-9.244	-0.238	-124.709	-118.346	11.341	4.531	-120.370	-115.677	-113.118	-106.870	3.826	-109.817	-8191	255	
1960.276	1	1	0	0	0.1452	0.24826	0.36513	0.11587	0.16912	0.032999	0.27577	0.31414	0.20385	0.23378	0.28226	0.20509	0.079232	0.15516	0.076302	0.26192	-2.8729	-2.8021	-3.4562	-3.2875	-3.0479	-3.7292	-2.9562	-3.4854	-3.55	-2.8917	-3.75	-3.25	-3.0187	-3.7083	-2.7271	-3.3563	109.250	185.533	-132.401	-51.191	211.506	-37.721	-21.036	161.123	-53.144	20.472	130.127	116.022	-110.574	124.700	-84.526	158.576	0.0002805	0.00046515	0.00013295	896.2	2.9809e-06	5.3417e-06	950.08	306.31	3.6167e-06	5.0643e-06	346.91	112.29	101.64	41.519	3.9148e-06	48.048	0.00048086	0.0005197	0.00014673	936.42	5.5729e-06	5.5483e-06	993.9	322.38	5.9856e-06	5.6858e-06	363.64	119.76	108.88	44.209	5.6133e-06	51.161	-130.967	-24.320	-54.805	-123.293	13.193	16.066	-124.292	-117.895	-7.701	28.650	-119.839	-115.387	-112.710	-106.572	-6.593	-109.516	-8191	255	
1960.395	1	1	0	0	0.025892	0.24649	0.22195	0.16723	0.022266	0.090047	0.31905	0.28442	0.33095	0.2154	0.14954	0.19156	0.03456	0.060072	0.13613	0.14573	-3.2292	-2.6896	-3.4313	-3.2125	-2.7104	-3.6625	-3.0604	-3.3104	-3.6896	-2.7833	-3.6333	-3.2958	-2.8646	-3.6229	-2.9479	-3.2188	136.884	-48.871	85.901	136.206	-102.739	-36.145	132.967	183.394	-34.408	190.362	105.756	181.712	190.461	197.733	178.938	201.697	0.00027332	0.00049676	0.0001163	897.24	3.3951e-06	4.8196e-06	951.44	307.35	1.5067e-06	3.9671e-06	346.99	113.02	101.99	41.563	3.405e-06	48.483	0.00047074	0.00053774	0.00014247	936.71	5.5867e-06	5.6545e-06	995.35	323	5.9652e-06	5.494e-06	364.48	120.18	109.27	44.279	5.8086e-06	51.464	-130.279	-30.613	-64.088	-123.544	17.042	4.825	-124.552	-117.944	3.706	22.317	-119.916	-115.548	-113.260	-106.434	-8.841	-109.471	-8191	255	
1960.491	1	1	0	0	0.1222	0.042109	0.14149	0.094695	0.29325	0.13237	0.12442	0.23878	0.077627	0.31158	0.095798	0.12464	0.1966	0.063839	0.41023	0.18028	-3.2521	-2.7104	-3.4083	-3.4708	-2.7313	-3.5271	-3.2542	-3.0479	-3.6854	-2.7562	-3.4437	-3.5167	-2.7	-3.7167	-2.9104	-2.9917	-95.283	60.881	117.644	165.673	-22.178	11.802	156.307	-129.852	-123.454	19.545	25.287	147.566	-117.690	93.836	-112.549	165.760	0.00027396	0.00041017	0.00018031	904.01	1.8547e-06	2.8845e-06	961.53	310.39	3.8554e-06	4.559e-06	351.9	115.19	103.24	41.858	4.3124e-06	48.855	0.00048663	0.0005573	0.00014678	943.5	5.8071e-06	6.0559e-06	1006.2	326.52	6.1965e-06	5.8423e-06	369.98	122.14	110.5	44.67	6.0586e-06	51.953	-129.186	-57.209	-21.348	-123.687	22.127	51.352	-124.532	-118.346	-21.543	-27.668	-120.282	-115.670	-113.363	-106.722	-2.041	-109.706	-8191	255	
1960.587	1	1	0	0	0.28049	0.32739	0.14336	0.12264	0.15229	0.19688	0.13336	0.28403	0.12337	0.22314	0.22966	0.27621	0.13646	0.11101	0.19723	0.17978	-3.475	-2.8125	-3.2438	-3.4042	-2.7396	-3.6021	-3.1688	-3.3063	-3.65	-2.8375	-3.5354	-3.4604	-2.8604	-3.4979	-3.2604	-2.675	55.267	138.166	-95.049	-105.894	142.479	174.528	141.917	141.035	-40.202	-89.536	220.127	-62.553	78.560	-54.448	11.939	88.936	0.00027175	0.00051857	0.00015252	912.31	2.1764e-06	3.6327e-06	967.21	313.8	2.9404e-06	3.3842e-06	355.61	115.82	104.5	42.143	3.0832e-06	49.369	0.00049395	0.00056577	0.00015077	949.64	5.8663e-06	6.1066e-06	1011.5	329.98	6.4497e-06	6.07e-06	373.47	123.39	111.79	44.976	6.3747e-06	52.364	-129.099	-47.403	-53.628	-123.492	10.129	7.475	-124.562	-118.215	-4.946	31.004	-120.231	-115.615	-113.290	-106.277	-14.998	-109.917	-8191	255	
#DATA ENDS
