BOXY.EXE: ISS Imagent and Oximeter Data Acquisition Program Version 0.80
Ascii Record File

#ACQ INFORMATION
2  Detector Channels 
16  External MUX Channels 
1  Auxiliary Channels 
5000  Waveform (CCF) Frequency (Hz)
1  Waveforms Skipped 
30  Waveforms Averaged 
1  Cycles Averaged 
16  Acquisitions per Waveform 
10.0806  Updata Rate (Hz) 

#FILE INFORMATION
TRUE -- External MUX Channel results are PARSED.
FALSE -- AC DC and Phase are NOT grouped.
TRUE -- Companion Program Settings File CREATED.
FALSE -- AC data not excluded
FALSE -- DC data not excluded
FALSE -- Phase data not excluded
FALSE -- Auxillary Chn. data not excluded
Tab delimiters

#CALIBRATION STATE
TRUE -- Waveform Calibration Values APPLIED.


#AUX CALIBRATION VALUES
Val Type	aux-1	

Term	1.0000e+00	
Factor	0.0000e+00	


#WF CALIBRATION VALUES
A = Detector Channel
Val Type	A-AC1	A-AC2	A-AC3	A-AC4	A-AC5	A-AC6	A-AC7	A-AC8	A-AC9	A-AC10	A-AC11	A-AC12	A-AC13	A-AC14	A-AC15	A-AC16	A-DC1	A-DC2	A-DC3	A-DC4	A-DC5	A-DC6	A-DC7	A-DC8	A-DC9	A-DC10	A-DC11	A-DC12	A-DC13	A-DC14	A-DC15	A-DC16	A-Ph1	A-Ph2	A-Ph3	A-Ph4	A-Ph5	A-Ph6	A-Ph7	A-Ph8	A-Ph9	A-Ph10	A-Ph11	A-Ph12	A-Ph13	A-Ph14	A-Ph15	A-Ph16	

Term	0.00000e+00	0.00000e+00	0.00000e+00	0.00000e+00	0.00000e+00	0.00000e+00	0.00000e+00	0.00000e+00	0.00000e+00	0.00000e+00	0.00000e+00	0.00000e+00	0.00000e+00	0.00000e+00	0.00000e+00	0.00000e+00	0.00000e+00	0.00000e+00	0.00000e+00	0.00000e+00	0.00000e+00	0.00000e+00	0.00000e+00	0.00000e+00	0.00000e+00	0.00000e+00	0.00000e+00	0.00000e+00	0.00000e+00	0.00000e+00	0.00000e+00	0.00000e+00	0.00000e+00	0.00000e+00	0.00000e+00	0.00000e+00	0.00000e+00	0.00000e+00	0.00000e+00	0.00000e+00	0.00000e+00	0.00000e+00	0.00000e+00	0.00000e+00	0.00000e+00	0.00000e+00	0.00000e+00	0.00000e+00	
Factor	1.00000e+00	1.00000e+00	1.00000e+00	1.00000e+00	1.00000e+00	1.00000e+00	1.00000e+00	1.00000e+00	1.00000e+00	1.00000e+00	1.00000e+00	1.00000e+00	1.00000e+00	1.00000e+00	1.00000e+00	1.00000e+00	1.00000e+00	1.00000e+00	1.00000e+00	1.00000e+00	1.00000e+00	1.00000e+00	1.00000e+00	1.00000e+00	1.00000e+00	1.00000e+00	1.00000e+00	1.00000e+00	1.00000e+00	1.00000e+00	1.00000e+00	1.00000e+00	X	X	X	X	X	X	X	X	X	X	X	X	X	X	X	X	

B = Detector Channel
Val Type	B-AC1	B-AC2	B-AC3	B-AC4	B-AC5	B-AC6	B-AC7	B-AC8	B-AC9	B-AC10	B-AC11	B-AC12	B-AC13	B-AC14	B-AC15	B-AC16	B-DC1	B-DC2	B-DC3	B-DC4	B-DC5	B-DC6	B-DC7	B-DC8	B-DC9	B-DC10	B-DC11	B-DC12	B-DC13	B-DC14	B-DC15	B-DC16	B-Ph1	B-Ph2	B-Ph3	B-Ph4	B-Ph5	B-Ph6	B-Ph7	B-Ph8	B-Ph9	B-Ph10	B-Ph11	B-Ph12	B-Ph13	B-Ph14	B-Ph15	B-Ph16	

Term	0.00000e+00	0.00000e+00	0.00000e+00	0.00000e+00	0.00000e+00	0.00000e+00	0.00000e+00	0.00000e+00	0.00000e+00	0.00000e+00	0.00000e+00	0.00000e+00	0.00000e+00	0.00000e+00	0.00000e+00	0.00000e+00	0.00000e+00	0.00000e+00	0.00000e+00	0.00000e+00	0.00000e+00	0.00000e+00	0.00000e+00	0.00000e+00	0.00000e+00	0.00000e+00	0.00000e+00	0.00000e+00	0.00000e+00	0.00000e+00	0.00000e+00	0.00000e+00	-9.97839e+01	-1.27879e+02	-1.28521e+02	-1.82006e+02	-5.58992e+01	-7.33021e+01	-1.57810e+02	-1.62015e+02	-5.12818e+01	-6.74143e+01	-1.72403e+02	-1.70165e+02	-1.80574e+02	-1.76604e+02	-6.35904e+01	-1.48996e+02	
Factor	1.65874e-05	1.60630e-04	4.67225e-05	1.56642e-01	1.23825e-06	1.65992e-06	1.81458e-01	5.32774e-02	1.10927e-06	1.85625e-06	9.31568e-02	3.11199e-02	4.21576e-02	9.47623e-03	1.36244e-06	1.40405e-02	8.31017e-06	1.23189e-05	3.42039e-06	7.89887e-02	1.27350e-07	1.35954e-07	8.60234e-02	2.70087e-02	1.27156e-07	1.36589e-07	4.55214e-02	1.53836e-02	2.16466e-02	4.83925e-03	1.31139e-07	6.92868e-03	X	X	X	X	X	X	X	X	X	X	X	X	X	X	X	X	



#DISTANCE SETTINGS
A = Detector Channel
A-1	A-2	A-3	A-4	A-5	A-6	A-7	A-8	A-9	A-10	A-11	A-12	A-13	A-14	A-15	A-16	

2.5000e+00	3.0000e+00	2.5000e+00	3.0000e+00	2.0000e+00	3.0000e+00	1.5000e+00	3.0000e+00	3.0000e+00	3.0000e+00	3.0000e+00	3.0000e+00	3.0000e+00	3.0000e+00	1.5000e+00	3.0000e+00	

B = Detector Channel
B-1	B-2	B-3	B-4	B-5	B-6	B-7	B-8	B-9	B-10	B-11	B-12	B-13	B-14	B-15	B-16	

1.0000e+01	1.0000e+01	1.0000e+01	1.4400e+00	1.0000e+01	1.0000e+01	1.5100e+00	1.9400e+00	1.0000e+01	1.0000e+01	1.9900e+00	2.4900e+00	2.4100e+00	2.9000e+00	1.0000e+01	2.9800e+00	




#DATA BEGINS
time	group	step	mark	flag	A-AC1	A-AC2	A-AC3	A-AC4	A-AC5	A-AC6	A-AC7	A-AC8	A-AC9	A-AC10	A-AC11	A-AC12	A-AC13	A-AC14	A-AC15	A-AC16	A-DC1	A-DC2	A-DC3	A-DC4	A-DC5	A-DC6	A-DC7	A-DC8	A-DC9	A-DC10	A-DC11	A-DC12	A-DC13	A-DC14	A-DC15	A-DC16	A-Ph1	A-Ph2	A-Ph3	A-Ph4	A-Ph5	A-Ph6	A-Ph7	A-Ph8	A-Ph9	A-Ph10	A-Ph11	A-Ph12	A-Ph13	A-Ph14	A-Ph15	A-Ph16	B-AC1	B-AC2	B-AC3	B-AC4	B-AC5	B-AC6	B-AC7	B-AC8	B-AC9	B-AC10	B-AC11	B-AC12	B-AC13	B-AC14	B-AC15	B-AC16	B-DC1	B-DC2	B-DC3	B-DC4	B-DC5	B-DC6	B-DC7	B-DC8	B-DC9	B-DC10	B-DC11	B-DC12	B-DC13	B-DC14	B-DC15	B-DC16	B-Ph1	B-Ph2	B-Ph3	B-Ph4	B-Ph5	B-Ph6	B-Ph7	B-Ph8	B-Ph9	B-Ph10	B-Ph11	B-Ph12	B-Ph13	B-Ph14	B-Ph15	B-Ph16	aux-1	digaux	

2538.240	1	1	0	768	0.13522	0.10353	0.0048901	0.33509	0.12368	0.17782	0.10355	0.091238	0.10619	0.273	0.052804	0.24722	0.27952	0.26727	0.22402	0.19928	-2.7979	-2.6312	-3.4938	-2.8042	-2.9542	-3.4479	-2.6146	-3.2896	-3.1792	-2.55	-3.45	-2.9688	-3.0875	-3.4479	-2.6292	-3.2542	-37.349	217.986	25.734	200.138	225.858	173.112	-80.842	-106.215	133.661	-89.267	-64.955	-127.892	-95.360	-57.697	-66.474	223.051	2.9968e-05	4.7819e-05	1.1715e-05	55.889	7.7969e-08	7.3501e-07	101.03	18.808	4.8141e-07	7.5612e-07	35.72	11.767	6.259	3.2199	4.1709e-07	4.6473	0.00010476	0.00012234	3.6691e-05	60.76	1.3626e-06	1.4165e-06	110.39	20.716	1.3677e-06	1.4376e-06	39.02	13.059	7.0596	3.5715	1.4573e-06	5.1403	-125.188	-43.539	209.577	-117.876	100.178	77.185	-118.433	-111.339	24.455	41.004	-114.680	-110.028	-107.450	-104.444	91.312	-105.865	-8191	255	
2538.336	1	1	0	0	0.092888	0.26033	0.043317	0.14416	0.30854	0.26412	0.18497	0.054691	0.17379	0.14563	0.024203	0.28265	0.24331	0.074337	0.19901	0.12116	-2.7146	-2.5479	-3.3958	-2.8771	-2.8771	-3.4667	-2.6479	-3.3708	-3.45	-2.7604	-3.5312	-3.0042	-2.775	-3.4271	-2.7292	-3.0125	-72.958	13.853	-108.234	51.530	43.886	30.304	159.927	20.366	54.066	-116.801	15.011	147.760	57.512	-98.086	21.913	-99.370	2.6496e-05	7.7684e-05	9.7476e-06	55.995	7.1422e-07	8.4578e-07	100.98	18.729	3.4763e-07	1.2077e-06	35.287	11.513	6.1219	3.2118	3.1108e-07	4.4026	0.00010355	0.00012966	3.7061e-05	60.94	1.2414e-06	1.4281e-06	109.89	20.509	1.355e-06	1.4976e-06	38.377	12.814	6.9501	3.5525	1.5302e-06	4.9338	220.341	114.355	-54.531	-117.896	66.330	-24.095	-119.211	-111.391	-79.527	120.334	-114.260	-109.921	-107.539	-104.373	-5.723	-105.322	-8191	255	
2538.433	1	1	0	0	0.1654	0.2065	0.17836	0.1967	0.091216	0.10711	0.17833	0.18066	0.014424	0.2326	0.17005	0.060492	0.043324	0.099379	0.11296	0.19352	-2.8729	-2.6813	-3.3083	-3.0292	-2.6417	-3.4479	-2.8229	-3.0125	-3.375	-2.7146	-3.4104	-3.0333	-2.6958	-3.3125	-2.8312	-2.8333	-123.471	46.909	159.332	124.408	-25.593	1.373	-26.058	-22.385	228.167	81.052	50.239	54.944	-39.659	-87.646	-90.412	-111.938	2.6411e-05	2.5971e-05	2.1824e-05	55.014	6.8913e-07	8.9878e-07	99.662	18.601	5.7849e-07	5.5028e-07	34.83	11.593	5.9806	3.126	6.1669e-07	4.3207	0.00010178	0.00013002	3.6441e-05	59.806	1.2722e-06	1.5323e-06	108.27	20.364	1.4223e-06	1.4646e-06	38.31	12.845	6.7709	3.4814	1.4666e-06	4.7957	-108.520	-14.679	-20.665	-117.561	-41.756	78.006	-118.745	-111.948	15.171	49.142	-114.184	-110.154	-108.355	-104.164	-35.423	-106.120	-8191	255	
2538.529	1	1	0	0	0.17314	0.11176	0.20779	0.16603	0.068002	0.060584	0.058863	0.090998	0.21621	0.027628	0.21958	0.24325	0.11646	0.23688	0.16161	0.15185	-2.9917	-2.7083	-3.2083	-2.9792	-2.7917	-3.4958	-2.8354	-2.8021	-3.5104	-2.6437	-3.3063	-3.1646	-2.5167	-3.3104	-2.9792	-2.8729	121.251	155.460	-72.837	-97.793	221.535	-116.433	172.422	89.861	-110.144	124.377	-47.582	169.299	126.728	-111.609	96.046	-25.625	2.1287e-05	0.00010613	1.8792e-05	55.125	7.7201e-07	6.2398e-07	98.921	18.599	3.5394e-07	9.8248e-07	35.561	11.347	5.8821	3.1311	1.0528e-07	4.3059	0.00010789	0.0001353	3.6634e-05	59.886	1.2746e-06	1.5207e-06	108.28	20.361	1.4546e-06	1.4777e-06	38.501	12.597	6.6065	3.487	1.5403e-06	4.7781	222.227	-93.934	10.945	-117.793	-3.146	52.848	-119.055	-111.243	-80.062	14.863	-114.756	-110.239	-107.697	-104.621	29.391	-105.913	-8191	255	
2538.623	1	1	0	0	0.15397	0.079962	0.32528	0.14718	0.19107	0.043219	0.042064	0.20411	0.18674	0.11289	0.10915	0.12733	0.12317	0.13632	0.13746	0.11672	-3.2354	-2.6542	-3.1917	-3.2667	-2.6521	-3.5125	-3.0729	-2.5854	-3.4104	-2.9125	-3.0979	-3.3292	-2.5292	-3.2854	-3.0208	-2.7708	-121.812	81.477	52.108	130.548	-54.411	171.089	6.157	164.030	-85.815	131.621	77.001	77.755	60.509	108.750	70.013	-89.285	2.767e-05	9.899e-05	1.0967e-05	54.966	2.4351e-07	1.1432e-06	100.29	18.549	8.0037e-07	3.2451e-07	35.038	11.117	5.769	3.1899	9.8104e-07	4.2994	0.00010943	0.00013656	3.5707e-05	60.03	1.3608e-06	1.5417e-06	108.88	20.359	1.5799e-06	1.5725e-06	38.41	12.353	6.5332	3.5711	1.5357e-06	4.7174	215.612	-48.286	-44.063	-117.845	-58.732	82.855	-119.109	-111.626	60.416	52.649	-114.089	-109.623	-107.558	-103.985	-22.707	-105.427	-8191	255	
2538.719	1	1	0	0	0.12506	0.227	0.2004	0.16689	0.16092	0.15477	0.2361	0.04261	0.030025	0.23568	0.33977	0.22893	0.15355	0.12267	0.14248	0.16965	-2.9729	-2.6188	-2.9354	-3.1813	-2.4188	-3.2958	-3.1521	-2.6146	-3.4125	-2.9562	-2.875	-3.3104	-2.5167	-3.1354	-3.1646	-2.5229	-82.066	-17.109	-58.333	-64.345	-20.519	150.882	134.977	181.336	12.351	72.497	-35.219	-123.206	-76.533	46.125	-98.899	-129.391	3.2645e-05	8.1548e-05	1.8192e-05	54.866	7.8068e-07	8.8329e-07	100.84	18.549	4.5585e-07	7.6139e-07	35.576	10.953	5.5172	3.2017	6.4234e-07	4.0115	0.0001133	0.00014367	3.5323e-05	60.24	1.4154e-06	1.5139e-06	109.4	20.154	1.5812e-06	1.5833e-06	38.579	12.19	6.3588	3.5505	1.51e-06	4.4974	-121.647	-13.262	-1.555	-117.870	29.440	48.540	-119.406	-111.696	65.101	50.650	-114.669	-109.476	-107.657	-103.755	125.080	-104.679	-8191	255	
2538.840	1	1	0	0	0.23599	0.023447	0.13081	0.2089	0.26332	0.14605	0.32045	0.18489	0.28559	0.21191	0.019212	0.18969	0.29616	0.19228	0.052061	0.21065	-3.0687	-2.7271	-2.7458	-3.4562	-2.525	-3.175	-3.2896	-2.6125	-3.3021	-2.8375	-2.5938	-3.3771	-2.6083	-3.0354	-3.3625	-2.4354	-79.063	107.769	112.567	-46.890	166.414	-55.138	225.055	-61.058	-110.084	-19.940	154.431	120.917	-56.579	172.837	206.548	88.899	2.023e-05	9.5737e-05	2.5225e-05	55.354	2.2658e-07	4.0369e-07	100.66	18.534	5.4917e-07	1.0993e-06	34.599	10.483	5.3937	2.9455	5.1374e-07	3.8582	0.0001095	0.00013797	3.5437e-05	60.28	1.4664e-06	1.432e-06	109.54	20.438	1.4697e-06	1.5639e-06	38.008	11.664	6.1742	3.299	1.5769e-06	4.2564	-110.287	-81.253	178.403	-117.511	-23.911	120.051	-119.243	-112.203	-28.492	-16.585	-114.523	-109.447	-106.999	-103.019	-65.156	-103.856	-8191	255	
2538.936	1	1	0	0	0.061752	0.11766	0.14049	0.062397	0.13096	0.039868	0.13651	0.073483	0.094993	0.060414	0.18888	0.11674	0.25739	0.38461	0.10078	0.018594	-2.9479	-2.6833	-2.5938	-3.4042	-2.6875	-3.1375	-3.3875	-2.4667	-3.4542	-3.1813	-2.7875	-3.2854	-2.8708	-3.0042	-3.4375	-2.5146	216.597	39.287	160.556	107.310	137.769	194.572	72.195	207.837	-128.506	130.707	-98.786	-59.520	88.234	-87.748	186.132	-118.589	2.7349e-05	5.5315e-05	2.6405e-05	57.022	5.3484e-07	5.862e-07	99.125	18.268	2.744e-07	2.9758e-07	35.861	10.065	5.2421	2.7145	6.0718e-07	4.0355	0.00010831	0.00014403	3.4596e-05	61.669	1.5001e-06	1.4165e-06	107.31	20.128	1.4792e-06	1.6311e-06	39.145	11.296	6.0324	3.0171	1.6018e-06	4.5144	-126.616	205.624	13.859	-117.683	73.031	41.312	-119.150	-112.233	-19.910	-66.079	-115.788	-109.693	-105.701	-100.634	8.109	-103.449	-8191	255	
2539.032	1	1	0	0	0.068603	0.0816	0.23662	0.073157	0.094234	0.18021	0.25533	0.17307	0.025029	0.041347	0.091828	0.057238	0.14491	0.13528	0.22424	0.20108	-3.025	-3.1708	-2.5729	-3.4375	-2.8604	-2.8729	-3.4688	-2.7229	-3.2708	-3.2479	-2.525	-3.5583	-2.8438	-2.7562	-3.5875	-2.725	-38.268	162.696	62.097	155.633	2.463	-32.222	169.192	-18.868	202.574	79.094	217.567	87.320	-57.506	-97.996	54.223	101.598	1.9012e-05	9.0959e-05	7.3336e-06	55.071	4.1734e-07	2.284e-07	99.614	18.623	8.411e-07	1.8846e-07	36.007	9.9689	5.083	2.5054	7.8361e-07	4.1395	0.00010537	0.00014416	3.6563e-05	60.32	1.4574e-06	1.3969e-06	108.09	20.38	1.4281e-06	1.6103e-06	39.655	11.155	5.8133	2.781	1.5966e-06	4.6291	212.418	35.963	70.384	-117.581	7.311	-6.142	-119.345	-112.475	-36.290	143.247	-115.565	-108.792	-107.263	-100.526	202.025	-103.021	-8191	255	
2539.128	1	1	0	0	0.25988	0.17732	0.14237	0.032028	0.029897	0.10209	0.29904	0.070216	0.10151	0.17477	0.069312	0.065228	0.037931	0.24111	0.063007	0.16159	-3.025	-3.1667	-2.7	-3.3396	-2.9333	-2.7188	-3.4792	-2.6021	-3.1521	-3.2708	-2.5854	-3.2646	-2.9167	-2.7854	-3.6562	-2.7271	-98.835	109.609	-125.894	148.505	-70.529	-111.662	-19.532	161.734	-107.770	1.607	-39.019	228.245	124.824	3.105	48.002	82.874	1.8238e-05	0.00012404	2.7611e-05	56.074	5.6769e-07	3.9712e-07	100.42	18.726	8.9141e-07	1.03e-06	36.589	10.288	5.1787	2.5473	5.8132e-07	4.2214	0.00010808	0.000145	3.8216e-05	60.946	1.4908e-06	1.3346e-06	108.96	20.562	1.3916e-06	1.6957e-06	40.178	11.343	5.8629	2.8389	1.6786e-06	4.6577	227.771	-29.790	34.784	-117.732	-72.082	-70.832	-119.562	-111.909	65.629	59.430	-114.987	-109.059	-107.726	-101.097	48.657	-103.436	-8191	255	
2539.225	1	1	0	0	0.16168	0.21576	0.15781	0.12334	0.15109	0.047527	0.1697	0.046549	0.15969	0.28782	0.1596	0.12449	0.29745	0.08341	0.075473	0.13462	-2.6625	-3.3646	-2.5021	-3.35	-2.9688	-2.7521	-3.3312	-2.7083	-2.9083	-3.4604	-2.7812	-3.3625	-2.9896	-2.6167	-3.6417	-2.8937	-70.909	201.839	59.641	-48.294	-106.300	223.254	84.673	-69.810	-107.906	-47.514	79.954	193.740	142.770	-6.433	154.187	104.892	1.9175e-05	7.4738e-05	1.9562e-05	56.916	8.8091e-07	5.4344e-07	100.27	18.683	2.7209e-07	1.0509e-06	36.84	10.349	5.0878	2.4995	5.875e-07	4.1832	0.00010493	0.00015265	3.9605e-05	61.458	1.5555e-06	1.4989e-06	109.38	20.743	1.3508e-06	1.7116e-06	40.217	11.471	5.9238	2.8034	1.6239e-06	4.7015	-104.038	-23.092	80.813	-117.538	12.773	64.498	-119.420	-113.001	-49.897	81.699	-115.273	-109.151	-107.034	-100.685	33.237	-103.707	-8191	255	
2539.321	1	1	0	0	0.15825	0.19246	0.35335	0.096893	0.18367	0.24499	0.19222	0.04175	0.14617	0.20052	0.12636	0.1057	0.18916	0.099415	0.1353	0.095698	-2.4229	-3.3167	-2.6021	-3.1792	-3.1	-2.7062	-3.5208	-2.8125	-2.9021	-3.4292	-2.65	-3.2646	-3.1	-2.6042	-3.3	-3.0229	-69.668	12.355	154.798	-94.658	46.425	46.137	-88.465	-17.766	155.503	98.693	160.742	-43.083	-3.410	116.754	-96.176	47.413	3.3955e-05	7.5652e-05	1.1472e-06	56.474	5.2226e-07	9.3284e-07	101.8	18.412	2.0942e-07	1.3683e-06	36.263	10.283	5.0951	2.4355	3.5764e-07	4.1997	0.00010343	0.00015322	3.88e-05	61.574	1.5452e-06	1.4575e-06	110.31	20.426	1.3648e-06	1.6411e-06	39.606	11.447	5.8533	2.7267	1.5529e-06	4.6618	221.439	-94.491	-30.592	-117.935	-5.959	-68.850	-119.291	-112.376	-40.932	148.650	-114.570	-109.055	-106.464	-100.256	97.654	-104.201	-8191	255	
2539.441	1	1	0	0	0.15032	0.24761	0.14559	0.15044	0.10525	0.1098	0.028147	0.064487	0.23722	0.26079	0.14965	0.17121	0.029224	0.25681	0.13444	0.27518	-2.5375	-3.4062	-2.7333	-3.2125	-3.3312	-2.6333	-3.3083	-2.9562	-2.6333	-3.2562	-2.6083	-2.9083	-3.3979	-2.5208	-3.4	-3.0292	-32.944	194.883	121.368	-125.459	-111.825	125.113	-21.562	90.493	121.256	95.609	183.030	67.146	114.139	-26.336	-68.340	-63.340	2.1393e-05	7.4758e-05	2.0207e-05	55.843	1.3201e-07	3.6837e-07	100.07	18.359	6.2463e-07	5.3761e-07	36.439	9.9955	5.1063	2.4137	6.1575e-07	4.2293	9.922e-05	0.0001478	3.9014e-05	61.088	1.5094e-06	1.4952e-06	108.71	20.137	1.3476e-06	1.5913e-06	39.569	11.203	5.8942	2.6764	1.4576e-06	4.6874	-127.310	-82.637	-117.577	-116.849	56.528	-116.374	-119.176	-112.071	-49.733	81.180	-115.002	-108.773	-106.152	-100.387	17.377	-104.191	-8191	255	
2539.536	1	1	0	0	0.28887	0.25177	0.15252	0.1559	0.1667	0.14008	0.18836	0.12129	0.033635	0.12659	0.16334	0.046646	0.21142	0.20365	0.096856	0.19152	-2.2667	-3.4417	-2.85	-2.8083	-3.5208	-2.7562	-3.2396	-3.1833	-2.7604	-3.3125	-2.8688	-2.9146	-3.225	-2.5542	-3.1833	-3.2792	122.376	-28.464	38.529	86.473	-74.258	142.654	220.565	-14.233	-19.501	-102.802	-68.129	-62.535	113.924	52.989	-6.538	39.064	2.5455e-05	0.00010078	2.154e-05	55.761	5.6673e-07	9.1121e-08	100.5	18.342	1.6823e-07	1.022e-06	36.105	10.476	5.2487	2.2359	3.5188e-07	4.4095	0.00010365	0.00014439	3.8444e-05	60.426	1.5176e-06	1.455e-06	109.16	20.189	1.3781e-06	1.5176e-06	39.622	11.562	6.0289	2.5003	1.3827e-06	4.8942	223.332	-74.664	-22.207	-117.335	70.289	190.568	-119.894	-112.077	-97.139	22.618	-115.235	-109.753	-106.487	-100.540	-7.023	-103.059	-8191	255	
2539.632	1	1	0	0	0.26561	0.062812	0.20487	0.30844	0.085722	0.10126	0.12218	0.17232	0.12755	0.13871	0.20473	0.15822	0.12239	0.26894	0.093377	0.13805	-2.2313	-3.3708	-2.8292	-2.8479	-3.525	-2.6208	-3.1583	-3.3063	-2.5167	-3.3375	-2.9833	-2.7333	-3.4083	-2.6354	-3.1354	-3.2875	164.730	3.206	99.803	99.803	-2.240	65.668	31.708	-117.825	168.303	-128.216	1.308	0.989	161.478	-30.868	138.700	164.297	2.7662e-05	9.1553e-05	2.6439e-05	54.715	6.1647e-07	4.1509e-07	100.8	18.872	6.288e-07	7.4022e-07	36.22	10.544	5.2765	2.1285	7.4818e-07	4.5166	0.00010322	0.00014028	3.8707e-05	59.684	1.5356e-06	1.5368e-06	109.16	20.639	1.3902e-06	1.5651e-06	39.903	11.76	6.0358	2.3997	1.3701e-06	5.022	218.870	196.059	-57.119	-117.543	32.239	93.235	-119.635	-112.611	-48.007	-35.017	-115.507	-109.337	-106.464	-100.867	12.950	-103.605	-8191	255	
2539.728	1	1	0	0	0.21875	0.1376	0.02239	0.20072	0.096751	0.21669	0.29132	0.08762	0.15473	0.15596	0.33993	0.056653	0.20423	0.23445	0.24263	0.02725	-2.1667	-3.2521	-2.9208	-2.5792	-3.4146	-2.6708	-2.9437	-3.3104	-2.7458	-3.1917	-2.9562	-2.6021	-3.4396	-2.6979	-2.8937	-3.4437	7.554	133.291	108.457	191.201	-80.998	65.384	166.331	203.302	94.590	103.263	11.943	-12.522	206.859	-84.990	-124.838	-99.219	3.1304e-05	7.8424e-05	3.3453e-05	55.646	7.4251e-07	7.3057e-07	101.44	18.688	1.0587e-06	6.3356e-07	37.388	10.703	5.338	2.14	5.991e-07	4.6197	0.00010969	0.00013292	3.9976e-05	60.272	1.5144e-06	1.5374e-06	110.07	20.604	1.5007e-06	1.523e-06	40.588	11.855	6.0694	2.4172	1.3502e-06	5.1141	-121.003	-90.936	-47.866	-117.640	-8.432	-99.794	-118.842	-112.533	93.948	20.050	-115.736	-109.606	-106.711	-100.608	-54.640	-103.534	-8191	255	
2539.801	1	1	0	0	0.17094	0.090745	0.10073	0.19599	0.21101	0.15364	0.060812	0.22905	0.20768	0.14772	0.25185	0.036914	0.15647	0.083115	0.32374	0.035139	-2.2604	-3.325	-3.1792	-2.6	-3.2729	-2.9854	-2.7896	-3.4396	-2.6583	-3.1208	-3.2042	-2.3708	-3.2313	-2.9542	-2.75	-3.3438	192.329	222.388	163.832	-125.432	202.698	-39.515	-69.364	200.717	46.783	203.418	175.669	157.817	-73.813	168.943	-107.136	147.829	2.0337e-05	0.00011346	2.8159e-05	55.497	7.9882e-07	1.1105e-06	101.37	18.771	1.7414e-07	1.0966e-06	37.124	10.618	5.2102	2.1233	2.0893e-07	4.56	0.00010711	0.00013066	3.9719e-05	60.113	1.4605e-06	1.6125e-06	110.18	20.649	1.5118e-06	1.4484e-06	40.293	11.815	6.0324	2.3692	1.3035e-06	5.0584	-120.119	-101.673	-109.952	-117.566	25.009	-15.983	-119.322	-113.096	-81.622	-86.467	-115.615	-109.349	-107.740	-99.501	17.541	-104.170	-8191	255	
2539.920	1	1	0	0	0.0096882	0.22848	0.067575	0.073951	0.12847	0.28755	0.14654	0.085884	0.15738	0.031685	0.033996	0.14802	0.082197	0.3458	0.3892	0.15731	-2.3688	-2.9667	-3.2229	-2.6042	-3.2667	-3.1437	-2.6979	-3.3896	-2.8063	-3.0771	-3.3042	-2.4437	-3.3396	-2.9813	-2.7042	-3.4292	180.306	199.037	85.444	-50.421	196.545	154.933	144.434	94.389	-29.501	144.406	229.135	121.703	160.711	113.369	20.039	-81.334	2.6849e-05	0.00011493	2.8627e-05	54.981	3.9494e-07	3.7665e-07	100.56	18.75	3.7022e-07	1.14e-06	36.544	10.63	5.2207	2.1348	3.6485e-07	4.4176	0.00011179	0.00012886	3.8857e-05	60.13	1.3905e-06	1.5434e-06	109.74	20.639	1.4665e-06	1.3488e-06	39.528	11.736	6.0074	2.3584	1.4209e-06	4.9399	-126.177	-85.296	26.893	-117.818	34.501	79.172	-119.572	-112.746	-8.995	15.337	-115.638	-109.184	-107.413	-100.546	-3.032	-103.723	-8191	255	
2540.016	1	1	0	0	0.19223	0.1473	0.091219	0.13715	0.10967	0.1469	0.1016	0.16744	0.062052	0.054082	0.063946	0.20827	0.063318	0.28423	0.12803	0.051666	-2.4667	-2.8917	-3.2021	-2.5938	-3.2396	-3.0604	-2.6958	-3.4979	-2.7667	-2.8833	-3.3271	-2.6688	-3.0896	-3.1562	-2.5771	-3.3583	-4.608	-30.289	216.600	160.126	115.282	57.555	-68.824	-129.675	187.388	136.096	-126.954	149.071	-84.698	-16.544	212.627	-74.402	2.5631e-05	4.495e-05	1.6268e-05	55.149	4.8209e-07	9.035e-07	101.1	18.533	9.4917e-07	3.6694e-07	35.948	10.577	5.283	2.1365	1.3647e-06	4.4289	0.00010685	0.00012283	3.962e-05	59.529	1.3491e-06	1.5043e-06	109.44	20.415	1.4546e-06	1.375e-06	39.593	11.721	6.0098	2.3626	1.3742e-06	4.9399	-113.934	187.850	221.325	-116.963	2.865	118.241	-118.938	-112.386	5.447	-19.636	-115.231	-109.534	-107.706	-99.893	17.905	-103.400	-8191	255	
2540.113	1	1	0	0	0.11535	0.083912	0.14775	0.060141	0.14745	0.016372	0.27349	0.072764	0.13661	0.15177	0.32893	0.18893	0.11549	0.10017	0.18136	0.11638	-2.4562	-2.6396	-3.4729	-2.8104	-3.2271	-3.2646	-2.7021	-3.3229	-2.9313	-2.8208	-3.4667	-2.6396	-2.9	-3.1979	-2.5021	-3.3396	44.793	122.721	74.077	147.069	-15.504	-53.474	-125.802	108.309	-81.290	12.113	58.634	52.518	189.676	-10.576	154.688	-57.535	2.9603e-05	0.00010298	3.977e-05	54.25	6.5277e-07	8.5376e-08	101.14	18.866	4.512e-07	3.129e-07	36.726	10.535	5.2354	2.1598	8.1699e-07	4.5158	0.0001111	0.0001238	4.0076e-05	59.495	1.3703e-06	1.5439e-06	109.54	20.529	1.5455e-06	1.4658e-06	40.136	11.764	5.9777	2.4138	1.5166e-06	5.0323	-116.177	-32.736	-34.516	-118.283	53.133	45.523	-118.945	-112.667	51.274	54.607	-115.552	-109.034	-106.196	-100.332	-51.000	-104.124	-8191	255	
2540.233	1	1	0	0	0.23126	0.37801	0.055065	0.17066	0.24651	0.12214	0.18569	0.1413	0.12824	0.14784	0.060118	0.24411	0.28093	0.18123	0.1813	0.25667	-2.5708	-2.875	-3.1917	-2.6417	-2.9417	-3.2229	-2.5396	-3.2167	-3.0667	-2.8021	-3.3229	-2.7292	-2.7875	-3.3438	-2.4292	-3.325	175.009	200.194	81.534	-79.254	193.216	99.878	209.417	203.022	197.954	-43.027	-79.573	117.281	-109.496	-9.399	-89.330	183.936	2.2799e-05	0.00012368	2.0186e-05	54.62	3.3219e-07	3.6066e-07	101.29	18.771	6.1396e-07	5.4099e-07	37.208	10.777	5.1867	2.1794	4.0147e-07	4.635	0.00011388	0.00013102	4.0204e-05	59.835	1.2812e-06	1.6215e-06	109.99	20.666	1.6167e-06	1.5036e-06	40.392	11.92	5.9669	2.4117	1.5398e-06	5.1072	-129.044	-57.726	3.591	-117.651	-71.606	94.058	-119.523	-112.506	-56.611	103.863	-115.179	-109.643	-106.503	-99.657	100.258	-103.773	-8191	255	
2540.328	1	1	0	0	0.21373	0.14176	0.041643	0.25586	0.15792	0.20103	0.041723	0.11111	0.034626	0.21095	0.16437	0.36512	0.16108	0.0176	0.22979	0.14712	-2.8521	-2.5438	-3.3812	-2.9271	-2.8479	-3.4021	-2.6875	-3.1958	-3.3187	-2.6229	-3.4167	-2.9458	-2.6854	-3.3917	-2.7479	-3.2625	-120.758	-91.650	-61.363	57.716	-77.686	-118.740	49.210	-26.032	114.889	-14.179	42.620	-113.987	143.204	63.527	-41.097	7.412	2.8919e-05	3.2723e-05	1.1647e-05	54.88	6.2502e-07	4.2673e-07	101.23	18.598	4.8268e-07	2.8347e-07	37.603	10.642	5.3032	2.1892	3.315e-07	4.619	0.0001174	0.00014108	3.9014e-05	59.667	1.3205e-06	1.634e-06	110	20.65	1.7349e-06	1.7537e-06	40.83	11.909	5.9804	2.4371	1.9354e-06	5.1753	216.982	218.205	16.916	-117.228	131.358	-30.448	-118.648	-111.990	-2.164	209.187	-115.400	-109.284	-105.504	-100.034	88.227	-103.186	-8191	255	
2540.401	1	1	0	0	0.25716	0.093667	0.17091	0.081203	0.12306	0.10049	0.0371	0.21627	0.19245	0.19585	0.24527	0.089863	0.37853	0.15316	0.090666	0.19522	-2.8167	-2.5438	-3.3271	-2.8521	-2.7229	-3.4354	-2.8042	-2.9979	-3.3229	-2.6813	-3.3917	-2.8667	-2.6375	-3.5167	-2.8125	-2.7667	55.161	227.846	-55.694	117.630	0.405	63.858	67.364	-25.554	195.206	181.672	200.802	61.767	-56.758	150.111	114.693	222.362	2.7457e-05	0.00013503	1.5266e-05	55.052	1.8146e-07	7.3338e-07	101.61	19.069	6.0937e-07	2.1194e-07	37.251	10.524	5.1507	2.1439	9.009e-07	4.6372	0.00012728	0.00015406	3.6099e-05	60.179	1.4213e-06	1.5476e-06	110.74	20.859	1.6445e-06	1.8192e-06	40.608	11.732	5.9161	2.4007	1.8865e-06	5.0927	-120.899	-76.537	-65.214	-117.243	99.848	11.678	-119.295	-112.627	14.374	64.420	-114.518	-108.952	-106.783	-100.074	36.015	-103.161	-8191	255	
2540.522	1	1	0	0	0.1116	0.31079	0.064408	0.081927	0.18059	0.15446	0.25366	0.13617	0.033026	0.063226	0.2182	0.20141	0.12669	0.18176	0.14604	0.079081	-3.15	-2.6458	-3.2604	-3.1833	-2.7875	-3.3583	-2.7979	-2.7458	-3.4354	-2.7313	-3.2896	-3.1646	-2.4333	-3.4167	-2.8646	-2.6708	79.450	128.884	-115.448	-125.580	87.241	208.260	201.328	102.266	-32.143	-89.093	-69.651	-20.159	-15.021	-29.124	-15.025	-54.993	2.6663e-05	5.1821e-05	2.6012e-05	54.879	3.2724e-07	1.1834e-06	101.01	19.005	3.8448e-07	5.5438e-07	36.766	10.179	4.9715	2.1554	7.33e-07	4.6648	0.00012026	0.00017085	3.3798e-05	59.594	1.5744e-06	1.4799e-06	109.94	20.895	1.6498e-06	1.9401e-06	40.267	11.483	5.7909	2.4072	1.9441e-06	5.1612	227.458	-70.452	-14.339	-116.831	57.981	89.982	-119.251	-112.521	12.067	18.625	-115.057	-108.819	-105.848	-99.755	37.571	-104.151	-8191	255	
2540.616	1	1	0	0	0.076746	0.029228	0.17342	0.1435	0.24565	0.12007	0.14679	0.12768	0.10122	0.14066	0.19947	0.13431	0.024792	0.28784	0.15066	0.22217	-3.1312	-2.6917	-3.275	-3.2354	-2.5979	-3.4792	-2.9167	-2.9083	-3.425	-2.5062	-3.2646	-3.2354	-2.4583	-3.5021	-2.9833	-2.8604	47.835	-66.824	207.796	137.629	-20.843	228.019	124.716	43.360	-90.047	-56.418	-57.303	-111.204	164.279	-85.246	221.336	-96.806	2.8838e-05	0.00013838	8.8823e-06	55.503	1.0355e-06	7.813e-07	100.56	18.689	7.7888e-07	7.5653e-07	36.82	10.497	5.2187	2.1146	9.9179e-07	4.7216	0.00012223	0.0001952	3.8323e-05	60.432	1.8479e-06	1.5476e-06	109.7	20.676	1.7298e-06	2.1282e-06	40.315	11.65	5.9409	2.365	2.0488e-06	5.2481	225.100	-13.604	-28.572	-116.857	4.435	25.804	-119.354	-111.670	-27.123	80.057	-114.603	-109.188	-105.853	-99.537	-46.210	-103.071	-8191	255	
2540.712	1	1	0	0	0.19409	0.30735	0.11831	0.077353	0.19729	0.25583	0.079852	0.17063	0.043458	0.23175	0.24698	0.041254	0.11032	0.01842	0.18217	0.1552	-2.9875	-2.6875	-3.0958	-3.3479	-2.4833	-3.3021	-3.0146	-2.8417	-3.5354	-2.5938	-3.1521	-3.4188	-2.6396	-3.2167	-3.1875	-2.7521	-95.403	58.318	-48.951	-25.342	-9.728	-17.220	87.523	163.116	-9.351	12.970	25.240	-77.018	-25.176	-100.214	-23.265	204.934	3.3734e-05	8.855e-05	2.9176e-05	55.139	1.4333e-07	6.3009e-07	100.12	18.967	3.1614e-07	5.1969e-07	37.519	10.326	5.2125	2.0408	5.3437e-07	4.9353	0.00012666	0.00020031	3.8814e-05	60.439	2.0222e-06	1.6164e-06	110.02	20.986	1.7253e-06	2.256e-06	40.822	11.583	6.0348	2.275	2.0288e-06	5.469	218.793	-9.839	-43.633	-117.301	-78.813	-7.941	-118.571	-112.354	-45.362	7.373	-114.790	-108.733	-106.727	-99.759	31.952	-103.677	-8191	255	
2540.833	1	1	0	0	0.13593	0.22361	0.15161	0.21453	0.14463	0.109	0.16424	0.074746	0.025895	0.1508	0.16456	0.081396	0.3836	0.10177	0.10015	0.35111	-3.0833	-2.7854	-2.8292	-3.3583	-2.5438	-3.1958	-3.2354	-2.6271	-3.4333	-2.8667	-2.7562	-3.3563	-2.6896	-3.1542	-3.1604	-2.6521	219.378	21.163	-47.389	-17.214	79.128	167.843	1.775	-52.367	79.140	69.705	-65.711	51.315	-57.184	184.686	15.757	-5.862	2.7171e-05	0.00014205	1.4859e-05	54.469	5.943e-07	7.3152e-07	101.06	18.621	1.204e-07	2.4212e-07	37.166	10.442	5.0968	2.1095	8.1443e-07	4.8736	0.00011885	0.00019572	4.1893e-05	59.548	2.0861e-06	1.6136e-06	110.37	20.728	1.5147e-06	2.1493e-06	40.784	11.667	5.9437	2.3367	1.834e-06	5.459	-124.306	-1.846	-83.570	-116.992	-8.797	14.625	-118.855	-111.999	38.748	95.277	-114.671	-109.004	-105.328	-98.401	-26.332	-103.020	-8191	255	
2540.929	1	1	0	0	0.092604	0.17709	0.29821	0.10159	0.061196	0.10558	0.34079	0.23763	0.064805	0.14597	0.28771	0.21385	0.072888	0.026516	0.12158	0.11221	-3.1792	-2.9813	-2.6396	-3.35	-2.6833	-3.0229	-3.2958	-2.6875	-3.4042	-2.925	-2.5917	-3.3104	-2.675	-2.9333	-3.3187	-2.5021	80.400	-80.352	27.664	148.879	-30.981	-36.020	75.911	21.912	161.793	145.385	85.245	64.814	-6.919	28.542	66.289	200.839	2.6644e-05	4.8988e-05	1.1537e-05	55.06	6.2029e-07	8.6817e-07	101.61	18.741	3.5748e-07	4.4457e-07	36.842	10.449	5.0822	2.1124	6.6549e-07	4.8294	0.00010795	0.00019505	4.5057e-05	60.422	2.0944e-06	1.5204e-06	110.58	20.826	1.4019e-06	2.0983e-06	40.221	11.612	5.8809	2.3623	1.6983e-06	5.3931	-126.961	201.406	-76.949	-117.006	39.466	-119.686	-118.798	-111.814	163.901	223.477	-115.016	-109.219	-105.664	-99.482	10.053	-103.204	-8191	255	
2541.025	1	1	0	0	0.064846	0.29751	0.1073	0.1385	0.23078	0.051295	0.035958	0.15443	0.062233	0.17905	0.25402	0.21589	0.32372	0.077447	0.30038	0.11329	-3.0042	-3.1208	-2.6063	-3.3458	-2.8104	-2.8833	-3.4313	-2.5125	-3.1625	-3.1437	-2.6583	-3.4042	-2.7375	-2.8146	-3.3771	-2.5687	151.504	-80.312	222.928	-101.856	185.954	-54.705	70.237	70.623	128.060	191.736	-101.979	208.480	-60.453	152.925	185.056	-44.353	2.6141e-05	0.00010901	1.788e-05	54.945	1.1453e-06	3.2716e-07	99.783	18.376	3.4196e-07	3.7753e-07	36.255	10.284	4.9271	2.1703	8.2929e-07	4.7761	0.00010563	0.00018021	4.9268e-05	59.681	2.053e-06	1.6391e-06	109.39	20.374	1.4075e-06	1.898e-06	39.778	11.374	5.7703	2.4302	1.5567e-06	5.3109	226.865	-58.889	212.879	-116.996	38.409	-14.976	-118.194	-111.533	-17.631	-8.492	-114.479	-108.690	-105.196	-99.274	32.021	-103.183	-8191	255	
2541.097	1	1	0	0	0.063735	0.070637	0.24105	0.20366	0.19525	0.055911	0.076805	0.13096	0.11757	0.14769	0.17444	0.092731	0.19051	0.10093	0.12025	0.069561	-2.8729	-3.2771	-2.5042	-3.2625	-2.8833	-2.8937	-3.4917	-2.6771	-3.3146	-3.3167	-2.6146	-3.5208	-2.9354	-2.525	-3.4542	-2.7229	-76.510	-91.505	191.421	-93.009	7.903	-119.015	221.701	10.159	-66.604	43.186	-66.665	-81.303	-17.469	-17.332	-46.801	36.256	2.2418e-05	3.5338e-05	2.6747e-05	55.059	9.988e-07	5.4295e-07	100.43	18.529	2.5729e-07	7.5364e-08	36.421	10.369	4.9251	2.1764	2.5926e-07	4.793	0.00010194	0.00016002	5.1056e-05	59.628	1.9336e-06	1.7068e-06	109.56	20.588	1.3971e-06	1.7412e-06	40.045	11.476	5.7746	2.4246	1.4846e-06	5.364	-127.833	198.874	100.997	-116.570	13.979	21.548	-118.089	-111.259	-38.267	-51.451	-114.291	-108.023	-106.626	-99.554	147.933	-102.465	-8191	255	
2541.217	1	1	0	0	0.23848	0.10991	0.20889	0.29327	0.14378	0.081954	0.14371	0.11427	0.065526	0.10411	0.24322	0.2246	0.07889	0.20738	0.07843	0.038356	-2.6146	-3.2687	-2.5187	-3.1521	-3.0229	-2.5917	-3.4771	-2.6021	-3.025	-3.3937	-2.7146	-3.3125	-3.1875	-2.65	-3.5312	-2.8667	215.581	-84.879	229.667	121.058	-31.429	-2.246	225.314	101.345	-19.871	-2.318	157.273	-9.329	46.471	-126.899	199.204	216.909	2.616e-05	0.00011228	6.6158e-06	54.887	6.0703e-07	6.5445e-07	101.04	18.231	4.6316e-07	1.0006e-06	36.361	10.521	5.0259	2.2417	5.9976e-07	4.7867	0.00010864	0.0001614	5.5959e-05	59.989	1.9522e-06	1.8767e-06	109.89	20.265	1.5759e-06	1.7296e-06	40.079	11.701	5.7828	2.5218	1.4759e-06	5.344	-124.753	-36.667	39.318	-116.538	14.381	-120.508	-118.209	-110.984	84.710	53.253	-113.044	-107.791	-103.722	-98.694	29.604	-102.757	-8191	255	
2541.314	1	1	0	0	0.18763	0.087037	0.046491	0.11748	0.18836	0.25636	0.048989	0.27253	0.21696	0.029943	0.12065	0.16888	0.094286	0.15057	0.10658	0.29727	-2.525	-3.225	-2.6	-3.1875	-3.3208	-2.7417	-3.2604	-2.8688	-2.6688	-3.6271	-2.625	-2.9875	-3.0812	-2.5104	-3.3542	-2.7812	-99.578	44.098	199.291	160.417	-100.961	-61.572	105.501	-11.807	180.690	185.479	-49.081	109.358	114.851	213.867	74.143	228.876	2.4696e-05	7.8474e-05	4.5663e-05	55.541	1.5518e-07	9.1291e-07	101.89	18.313	6.3286e-07	9.695e-07	36.671	10.699	5.0249	2.3388	8.1252e-07	4.7094	0.00012323	0.00015807	6.0427e-05	60.384	1.9811e-06	2.1263e-06	110.15	20.293	1.7521e-06	1.7088e-06	40.151	11.924	5.8507	2.607	1.4625e-06	5.2878	196.146	1.790	-84.670	-116.084	140.100	100.706	-117.685	-110.409	-103.975	-6.402	-112.944	-107.521	-104.175	-98.485	52.444	-102.678	-8191	255	
2541.410	1	1	0	0	0.22594	0.037393	0.20244	0.037439	0.14949	0.055809	0.058644	0.22231	0.18016	0.060304	0.10908	0.055789	0.084533	0.26947	0.10644	0.18431	-2.2458	-3.3479	-2.7833	-2.9708	-3.1417	-2.6	-3.3688	-3.0167	-2.7542	-3.5292	-2.9042	-3.0521	-3.3771	-2.5604	-3.2771	-3.1937	-75.779	42.186	-51.648	222.596	111.389	166.241	173.552	-19.090	-0.745	97.600	126.281	163.298	197.651	37.591	125.162	29.084	2.3105e-05	8.2133e-05	2.7782e-05	55.398	9.2746e-07	1.0823e-06	100.45	18.657	7.8333e-08	1.7775e-06	36.118	10.764	5.2588	2.3407	6.9192e-07	4.53	0.00013075	0.00015019	6.1033e-05	60.989	1.728e-06	2.2206e-06	109.77	20.588	1.8472e-06	1.593e-06	39.967	11.866	5.9953	2.6599	1.4458e-06	5.0404	222.082	-28.171	52.604	-116.285	72.245	-14.378	-118.146	-110.930	207.166	74.889	-113.530	-108.068	-105.093	-99.516	63.826	-102.589	-8191	255	
2541.504	1	1	0	0	0.25118	0.17488	0.13	0.10828	0.045193	0.045786	0.1282	0.32377	0.1015	0.17843	0.22902	0.12432	0.046115	0.10911	0.21231	0.20763	-2.3	-3.4479	-2.7292	-2.9854	-3.2229	-2.5187	-3.3292	-3.2354	-2.7188	-3.5833	-2.7875	-2.8083	-3.55	-2.6063	-3.0667	-3.2208	-101.934	-9.203	228.283	230.349	-122.751	118.861	45.646	118.785	-51.282	-124.895	78.834	-35.929	156.055	-24.064	44.029	145.057	1.7829e-05	9.9203e-05	1.1622e-05	55.975	4.4906e-07	1.1897e-06	101.19	18.421	1.7188e-07	2.176e-07	35.307	10.66	5.3022	2.435	5.9951e-07	4.5573	0.00013362	0.00014044	5.6109e-05	60.925	1.6088e-06	2.2067e-06	109.78	20.279	1.9608e-06	1.4717e-06	39.212	11.878	6.0628	2.743	1.3901e-06	5.0597	-117.279	-75.996	-8.908	-116.667	19.075	4.662	-118.780	-110.893	105.865	62.251	-114.220	-108.423	-106.021	-100.220	92.741	-102.819	-8191	255	
2541.625	1	1	0	0	0.19496	0.1248	0.19135	0.085556	0.10418	0.19146	0.19351	0.21869	0.045285	0.083859	0.24048	0.22176	0.072909	0.30489	0.19575	0.1575	-2.2354	-3.3333	-2.8542	-2.7083	-3.35	-2.6937	-3.2979	-3.1333	-2.6229	-3.4167	-2.8438	-2.7208	-3.325	-2.5625	-3.1271	-3.1896	-40.482	30.616	216.063	115.992	68.262	144.655	82.627	127.884	-95.369	-10.877	141.695	-89.913	95.240	53.122	221.031	166.059	1.7677e-05	3.6133e-05	2.646e-05	55.368	8.2664e-07	7.2459e-07	101.65	18.73	1.5853e-07	5.7536e-07	35.982	10.645	5.3327	2.4482	4.407e-07	4.5621	0.00013473	0.00012822	5.2617e-05	60.388	1.5431e-06	2.2489e-06	110.58	20.451	2.004e-06	1.4797e-06	39.407	11.914	6.1112	2.7835	1.4972e-06	5.071	-91.483	-46.362	43.688	-116.745	-1.854	-69.029	-118.184	-111.276	74.636	133.195	-113.536	-108.416	-105.755	-100.221	30.160	-102.948	-8191	255	
2541.696	1	1	0	0	0.11324	0.11971	0.10272	0.32229	0.26766	0.14828	0.14989	0.14269	0.012742	0.14936	0.048977	0.11863	0.14096	0.034528	0.18008	0.3228	-2.2188	-3.3896	-2.8708	-2.7438	-3.5812	-2.6646	-3.1792	-3.3667	-2.5396	-3.2979	-3.0583	-2.6688	-3.5292	-2.6813	-2.9042	-3.4437	-101.178	119.338	58.307	60.549	-12.182	3.307	-27.453	94.173	87.276	-114.800	7.545	-32.632	12.261	28.686	3.012	192.384	2.7249e-05	6.9826e-05	3.9439e-05	56.753	2.5743e-07	1.0816e-06	101.71	18.915	4.8691e-07	1.7739e-06	36.824	10.76	5.3254	2.4925	1.0175e-06	4.5921	0.00014648	0.00013235	5.1798e-05	61.707	1.4454e-06	2.243e-06	111.09	20.563	2.1068e-06	1.5013e-06	40.07	12.057	6.115	2.7652	1.6548e-06	5.0868	225.866	-9.005	-98.231	-116.796	-32.957	-34.180	-118.425	-111.753	40.049	154.095	-114.397	-108.335	-105.444	-99.718	160.388	-102.977	-8191	255	
2541.793	1	1	0	0	0.079484	0.14441	0.1098	0.086359	0.13682	0.12105	0.10196	0.24071	0.19666	0.088765	0.10494	0.092719	0.13941	0.12006	0.065854	0.11024	-2.3667	-3.3187	-2.9833	-2.5208	-3.4062	-2.7479	-2.9167	-3.3979	-2.6937	-3.1333	-3.0521	-2.6229	-3.5312	-2.8229	-2.8042	-3.5812	-58.882	195.033	-62.641	-19.009	-25.162	-55.927	50.488	70.248	-114.178	60.073	229.602	130.327	59.516	-93.238	97.508	160.571	3.3234e-05	7.044e-05	3.7057e-05	55.945	4.7475e-08	3.2613e-07	101.58	18.749	4.7042e-07	4.7037e-07	36.645	10.823	5.3077	2.4228	3.9092e-07	4.5073	0.00015464	0.00013674	4.8983e-05	61.32	1.4669e-06	2.226e-06	110.67	20.591	2.1399e-06	1.5981e-06	40.299	12.113	6.0189	2.734	1.7843e-06	5.0883	-116.022	122.041	7.538	-116.424	178.171	-14.571	-117.824	-110.441	-41.119	191.020	-113.312	-108.035	-105.371	-99.390	-69.911	-102.976	-8191	255	
2541.913	1	1	0	0	0.15799	0.24287	0.15017	0.30861	0.12785	0.1428	0.20019	0.065775	0.16144	0.051899	0.11599	0.2102	0.15572	0.070328	0.24013	0.078118	-2.1396	-2.95	-3.075	-2.7333	-3.3125	-2.9729	-2.6229	-3.5104	-2.8563	-3.2333	-3.3833	-2.5938	-3.4042	-3.0583	-2.6542	-3.4542	-124.412	34.808	14.900	-91.011	45.245	148.669	185.043	174.766	-126.314	207.745	56.437	85.512	81.696	-67.111	47.107	92.567	2.4947e-05	2.0945e-05	4.2374e-05	56.252	2.325e-07	1.2501e-06	102.46	18.78	2.5812e-07	1.0548e-06	37.214	10.701	5.3332	2.4056	1.1054e-07	4.4875	0.00015588	0.00014613	4.6688e-05	61.703	1.4658e-06	2.0441e-06	111.27	20.702	2.1246e-06	1.6302e-06	40.326	11.917	5.9956	2.6968	1.5494e-06	4.988	228.824	18.809	5.654	-116.860	-81.341	-35.089	-117.944	-110.846	-35.455	203.411	-113.764	-107.720	-104.366	-99.049	199.382	-102.118	-8191	255	
2542.009	1	1	0	0	0.074981	0.177	0.13341	0.1266	0.10168	0.084862	0.10582	0.22678	0.13982	0.12654	0.1097	0.11154	0.17695	0.14364	0.14204	0.13792	-2.4354	-3.0833	-3.2271	-2.6104	-3.425	-3.0958	-2.8146	-3.4479	-2.8417	-2.9375	-3.3792	-2.5292	-3.4042	-3.1188	-2.7042	-3.6083	118.310	61.322	78.875	-11.945	-67.433	-105.736	-93.769	-115.002	107.413	179.454	36.070	134.957	-70.968	128.409	120.990	-94.404	2.3036e-05	1.6286e-05	2.3074e-05	55.798	3.1919e-07	4.2854e-07	101.28	18.067	4.8381e-07	9.2606e-07	35.871	10.587	5.1768	2.4098	1.4088e-07	4.4969	0.00012443	0.00013995	4.2277e-05	60.884	1.4584e-06	1.7017e-06	109.76	19.874	1.6475e-06	1.5446e-06	39.543	11.846	5.8923	2.6832	1.5324e-06	4.9727	228.382	-30.576	8.204	-115.875	-9.804	83.684	-118.008	-111.255	68.402	52.911	-113.589	-108.434	-106.164	-99.984	93.303	-102.933	-8191	255	
2542.106	1	1	0	0	0.19425	0.092535	0.025618	0.066611	0.14916	0.23065	0.38217	0.064701	0.15605	0.37387	0.11316	0.27014	0.13036	0.25852	0.079611	0.20246	-2.5458	-2.9729	-3.3063	-2.5833	-3.2812	-3.2958	-2.6146	-3.4354	-2.9125	-2.7396	-3.4625	-2.6479	-3.1333	-3.4021	-2.5854	-3.3875	-35.297	-71.055	-95.531	176.326	142.540	165.250	131.741	114.710	26.772	-107.682	217.153	-26.690	-118.981	-83.503	-104.011	-12.564	2.0544e-05	6.1783e-05	3.3881e-05	54.051	7.4536e-07	1.0375e-06	101.29	17.748	4.464e-07	7.2439e-07	36.28	10.665	5.0474	2.4281	3.5869e-07	4.5564	0.00011797	0.00013553	3.9591e-05	59.426	1.2982e-06	1.6601e-06	110.2	19.597	1.6432e-06	1.4663e-06	39.61	11.708	5.8109	2.7006	1.5843e-06	5.0078	222.995	69.924	-5.201	-116.840	7.429	44.814	-118.105	-111.610	-61.002	-24.857	-114.695	-108.674	-105.690	-99.886	187.275	-103.469	-8191	255	
2542.202	1	1	0	0	0.058019	0.16002	0.19564	0.10485	0.14075	0.2053	0.074285	0.10921	0.16514	0.039102	0.28087	0.2678	0.044467	0.068502	0.10606	0.12397	-2.6229	-2.7438	-3.4	-2.6167	-3.1521	-3.3083	-2.6771	-3.3875	-3.0896	-2.6625	-3.3333	-2.7667	-2.9062	-3.1771	-2.575	-3.2938	-112.987	211.449	166.779	230.322	167.679	113.488	144.704	46.799	106.149	36.284	72.272	51.903	34.489	229.746	-83.762	81.650	2.4489e-05	0.00013954	2.9035e-05	54.617	5.4269e-07	1.243e-06	102.24	18.217	7.6681e-07	1.1487e-06	36.937	10.509	5.0534	2.263	9.8973e-07	4.5974	0.00011927	0.00013553	3.8743e-05	59.684	1.348e-06	1.6544e-06	110.9	20.071	1.6559e-06	1.5796e-06	40.282	11.765	5.7877	2.543	1.6816e-06	5.1072	-128.921	-76.780	-62.821	-117.062	82.251	40.639	-118.173	-111.618	-67.497	-31.778	-113.889	-108.064	-104.222	-99.667	36.330	-101.852	-8191	255	
2542.298	1	1	0	0	0.19141	0.16341	0.16401	0.18133	0.10157	0.24167	0.21578	0.24734	0.24567	0.066216	0.22891	0.28394	0.039377	0.12651	0.18646	0.13891	-2.6813	-2.5083	-3.4854	-2.9	-2.8979	-3.5812	-2.7417	-3.1917	-3.1021	-2.8646	-3.5229	-2.9417	-2.8521	-3.4292	-2.4625	-3.2125	141.379	147.950	186.477	78.301	-38.514	49.424	138.966	134.572	37.008	-51.522	117.887	79.341	194.276	145.440	142.649	154.213	2.0795e-05	6.6367e-05	1.944e-05	55.523	8.1654e-07	4.7176e-07	100.6	18.434	9.8024e-07	3.2155e-07	37.456	10.476	4.9333	2.2707	6.0914e-07	4.7181	0.00012367	0.00015237	3.9712e-05	60.448	1.4895e-06	1.6878e-06	110.07	20.415	1.6848e-06	1.6948e-06	40.764	11.703	5.6978	2.5598	1.7679e-06	5.2412	210.029	-120.255	-93.007	-115.615	98.824	-17.597	-117.770	-110.427	51.401	66.810	-114.242	-107.343	-104.336	-98.781	-38.820	-102.001	-8191	255	
2542.394	1	1	0	0	0.094773	0.11371	0.10099	0.15851	0.12447	0.15198	0.36693	0.18781	0.17212	0.21654	0.13642	0.085399	0.15798	0.13543	0.37829	0.12423	-2.9833	-2.5125	-3.4146	-2.9667	-2.7854	-3.6354	-2.7271	-3.0812	-3.4188	-2.675	-3.1917	-3.0917	-2.6083	-3.4833	-2.8479	-2.9396	147.686	-56.254	-30.525	172.683	-2.483	148.915	94.064	177.540	-1.472	-80.213	-62.213	174.332	-67.748	-20.574	110.261	99.872	2.4893e-05	4.8681e-05	3.6835e-05	55.294	2.7359e-07	4.7743e-07	100.08	18.968	8.1303e-07	6.527e-07	37.338	10.725	4.895	2.1867	6.1746e-07	4.6355	0.0001245	0.00015401	3.8059e-05	60.448	1.5277e-06	1.6986e-06	108.78	20.812	1.6962e-06	1.7953e-06	41.047	11.843	5.7144	2.4563	1.7406e-06	5.1665	201.077	5.276	32.480	-116.008	2.997	-32.708	-117.721	-111.129	-42.849	-112.295	-114.112	-108.277	-105.850	-98.994	68.287	-101.988	-8191	255	
2542.513	1	1	0	0	0.13424	0.19181	0.15115	0.17067	0.12878	0.15589	0.11428	0.25491	0.22002	0.23346	0.20084	0.20574	0.09411	0.11653	0.20631	0.047808	-3.1271	-2.4917	-3.2854	-3.0771	-2.7042	-3.4771	-2.6708	-2.95	-3.3271	-2.5833	-3.2687	-3.0687	-2.5667	-3.45	-2.7979	-2.8042	193.154	-19.092	-43.664	105.489	24.977	45.194	36.865	-3.862	108.712	105.216	177.936	158.779	192.665	190.275	141.154	96.016	2.2048e-05	3.2722e-05	6.453e-06	56.07	2.8965e-07	6.531e-07	99.417	18.73	4.2526e-07	1.2779e-06	37.255	10.333	5.0405	2.1592	1.0759e-06	4.5801	0.00012122	0.00016156	3.7617e-05	60.3	1.607e-06	1.5737e-06	108.55	20.841	1.631e-06	1.8124e-06	41.076	11.547	5.8017	2.4364	1.7988e-06	5.0895	-126.114	116.221	-88.434	-116.653	20.496	163.791	-118.728	-112.089	21.986	100.627	-114.410	-108.913	-104.707	-99.962	136.782	-102.453	-8191	255	
2542.609	1	1	0	0	0.20533	0.18797	0.096286	0.17673	0.14227	0.21181	0.19339	0.059025	0.19521	0.14962	0.1063	0.13085	0.22522	0.19563	0.2435	0.079623	-3.2396	-2.6458	-3.4667	-3.2062	-2.7521	-3.5042	-2.9917	-2.8083	-3.5979	-2.6479	-3.1542	-3.3542	-2.6146	-3.4125	-3.0938	-2.9	-101.885	-25.060	172.429	69.281	160.523	20.326	-92.893	152.060	56.603	88.262	-16.225	35.860	24.595	87.354	130.681	75.978	3.0722e-05	4.2442e-05	1.728e-05	54.855	1.0383e-06	1.5989e-06	99.971	19.217	5.179e-07	6.0012e-07	37.991	10.474	5.0702	2.1316	2.4339e-07	4.683	0.00011794	0.00016438	3.8693e-05	59.738	1.7251e-06	1.566e-06	108.96	21.083	1.5653e-06	1.8326e-06	41.625	11.696	5.8714	2.4025	1.7991e-06	5.1707	-120.834	-124.760	-30.527	-117.145	-1.023	-22.329	-118.290	-111.544	-31.671	-32.049	-114.885	-109.016	-106.685	-98.996	29.463	-103.140	-8191	255	
2542.705	1	1	0	0	0.16713	0.15908	0.19376	0.085822	0.15146	0.14012	0.0334	0.23454	0.021576	0.03459	0.036307	0.18082	0.035588	0.26119	0.076776	0.18885	-3.1625	-2.6646	-3.1063	-3.3854	-2.6	-3.4229	-3.1667	-2.6063	-3.5125	-2.7167	-3.0812	-3.3563	-2.5187	-3.2646	-3.2583	-2.6042	12.698	80.645	-6.231	28.340	-66.158	154.896	209.362	36.609	-77.776	36.960	24.528	28.016	190.775	18.673	84.876	196.126	3.418e-05	0.00011161	1.6404e-05	53.098	4.355e-07	6.9609e-07	100.58	19.452	4.0711e-07	1.5603e-06	39.201	10.42	4.9374	2.1329	8.9195e-07	4.6922	0.00011684	0.00017382	3.8458e-05	58.24	1.7152e-06	1.5773e-06	109.54	21.414	1.6117e-06	1.8838e-06	42.601	11.638	5.7657	2.388	1.816e-06	5.2457	-112.533	-102.721	193.546	-117.243	57.564	36.065	-118.471	-112.485	61.478	51.202	-114.375	-108.734	-104.669	-99.314	23.207	-103.868	-8191	255	
2542.801	1	1	0	0	0.070163	0.29744	0.17	0.2263	0.13244	0.067041	0.26723	0.20466	0.051185	0.072317	0.15529	0.25648	0.22076	0.2621	0.10233	0.29311	-3.0938	-2.925	-2.6333	-3.4771	-2.5687	-3.3104	-3.1458	-2.7104	-3.4125	-2.8021	-2.8312	-3.6167	-2.6667	-3.2667	-3.0792	-2.625	127.116	-90.980	50.435	-84.772	-104.289	-61.696	32.001	-123.816	-88.070	213.090	-63.824	-96.972	124.036	1.590	54.792	135.779	1.7762e-05	4.9389e-05	2.3705e-06	53.421	2.2707e-07	4.486e-07	101.44	19.63	4.2388e-07	6.6939e-07	39.043	10.511	5.0742	2.1566	2.2499e-07	4.8185	0.0001111	0.00017003	4.1102e-05	58.316	1.7205e-06	1.5643e-06	110.58	21.539	1.5118e-06	1.9111e-06	42.814	11.691	5.8012	2.4037	1.7698e-06	5.3351	-122.472	25.625	99.542	-116.498	17.310	-53.475	-118.081	-111.979	14.051	68.520	-114.866	-107.738	-104.325	-98.935	147.664	-103.046	-8191	255	
2542.922	1	1	0	0	0.038879	0.12699	0.22203	0.20925	0.096785	0.037197	0.086993	0.19286	0.11981	0.054576	0.22902	0.098682	0.16133	0.12696	0.15393	0.079863	-2.975	-2.8479	-2.7854	-3.4042	-2.7396	-3.1542	-3.1542	-2.5625	-3.2646	-3.1042	-2.7146	-3.4521	-2.7021	-3.1	-3.4604	-2.8542	45.801	105.096	209.570	193.548	-38.960	-13.315	4.804	142.033	-57.906	-75.684	197.472	128.604	163.401	161.757	120.536	-109.211	2.9602e-05	7.9243e-05	1.1164e-05	53.05	4.916e-07	8.8928e-07	101.8	19.479	5.0225e-07	6.7944e-07	39.288	10.505	5.072	2.1698	6.4833e-07	4.7428	0.00011186	0.00016695	4.2769e-05	58.019	1.806e-06	1.6139e-06	110.92	21.53	1.5447e-06	1.8994e-06	42.947	11.723	5.8155	2.3901	1.6715e-06	5.3184	-125.021	-36.837	-24.729	-116.387	57.375	59.562	-118.224	-111.905	34.326	14.624	-114.568	-107.729	-104.663	-98.419	37.273	-103.154	-8191	255	
2542.994	1	1	0	0	0.23877	0.24044	0.061788	0.14938	0.10669	0.33443	0.15216	0.28543	0.31923	0.24415	0.10143	0.092625	0.099069	0.12484	0.18166	0.13969	-3.0062	-3.1229	-2.825	-3.4354	-2.8688	-2.8458	-3.5312	-2.5187	-3.1875	-3.2333	-2.8667	-3.2229	-2.6937	-2.7271	-3.4188	-2.5958	-120.221	175.004	-95.731	-65.487	166.942	176.093	186.094	161.854	-94.647	56.547	174.922	-87.789	166.081	-52.296	20.517	163.932	2.1983e-05	0.00011397	2.0211e-05	52.821	8.6095e-07	4.0907e-07	100.8	19.176	5.2648e-07	6.4219e-07	38.629	10.353	4.9381	2.2229	9.695e-07	4.7603	0.00010905	0.00016874	4.3717e-05	58.212	1.7932e-06	1.5708e-06	109.37	21.232	1.4612e-06	1.7896e-06	42.072	11.473	5.7148	2.4896	1.6567e-06	5.2566	219.390	-86.082	9.118	-116.521	-31.566	223.433	-118.078	-112.259	-8.243	49.526	-114.083	-107.972	-105.294	-98.769	25.572	-103.487	-8191	255	
2543.090	1	1	0	0	0.11896	0.10715	0.12732	0.12428	0.26167	0.082532	0.15105	0.3766	0.090813	0.1878	0.10628	0.2318	0.35479	0.10189	0.056607	0.25787	-2.7417	-3.1854	-2.3771	-3.425	-2.8854	-2.8563	-3.5187	-2.5979	-3.1646	-3.4958	-2.5938	-3.3646	-2.8833	-2.6292	-3.2958	-2.6833	-104.470	131.922	-6.005	154.916	128.682	-118.387	24.987	166.605	-63.489	96.508	182.434	-129.070	144.051	-1.856	-13.678	139.763	3.1588e-05	9.8905e-05	1.7664e-05	53.365	4.356e-07	7.6545e-07	100.87	19.304	3.3409e-07	3.7083e-07	38.784	10.282	4.9909	2.2779	1.1381e-06	4.8047	0.00010843	0.00016025	4.0916e-05	58.67	1.6765e-06	1.5589e-06	109.45	21.338	1.4419e-06	1.7617e-06	42.47	11.481	5.7414	2.5407	1.5611e-06	5.2904	-121.583	51.196	-1.124	-116.412	-83.117	55.724	-117.943	-111.741	5.217	204.904	-114.906	-108.161	-106.051	-99.657	-20.707	-102.583	-8191	255	
2543.186	1	1	0	0	0.18589	0.35189	0.17366	0.11321	0.070066	0.34639	0.22485	0.29824	0.33038	0.089959	0.22405	0.21707	0.1417	0.18807	0.099333	0.13323	-2.8125	-3.275	-2.4729	-3.4458	-3.1375	-2.7125	-3.3646	-2.6104	-3.0417	-3.3292	-2.7083	-3.1937	-3.0438	-2.6896	-3.3354	-2.7771	71.982	226.773	75.687	-80.215	57.244	149.616	165.961	77.676	-90.599	12.077	189.673	142.728	-28.391	-87.744	223.840	-15.428	2.5005e-05	5.8952e-05	2.7558e-05	54.081	2.0428e-07	3.1643e-07	100.8	19.623	3.4919e-08	8.3425e-07	39.392	10.371	4.9592	2.2729	1.4868e-07	4.7341	0.00010798	0.00015514	4.4793e-05	58.446	1.716e-06	1.6918e-06	110.26	21.548	1.5444e-06	1.7409e-06	42.919	11.548	5.7444	2.5435	1.5488e-06	5.3147	-108.315	-26.988	-59.650	-116.327	-127.589	93.822	-118.545	-111.860	104.645	175.342	-114.156	-108.544	-106.260	-99.037	-72.163	-102.642	-8191	255	
2543.282	1	1	0	0	0.12102	0.12491	0.10486	0.4113	0.31494	0.16078	0.14715	0.1295	0.26301	0.11019	0.15022	0.23427	0.25191	0.25035	0.11304	0.010839	-2.5229	-3.4708	-2.6458	-3.3771	-3.2542	-2.5958	-3.4729	-2.925	-2.8958	-3.4562	-2.6667	-3.2354	-2.9771	-2.5438	-3.3354	-3.0396	108.633	16.941	-114.426	-81.759	98.763	113.633	-13.325	-64.393	60.972	-69.192	68.816	-113.141	-27.546	-60.660	228.320	122.339	1.8725e-05	9.3951e-05	1.6084e-05	54.612	5.1025e-07	6.7031e-07	103.77	20.118	1.6144e-07	1.7457e-06	39.265	10.443	5.0021	2.3695	7.8365e-07	4.7731	0.000113	0.00015524	4.8064e-05	59.127	1.7115e-06	1.7612e-06	112.45	21.893	1.5608e-06	1.6923e-06	43.161	11.627	5.7785	2.6652	1.5425e-06	5.3051	208.822	-16.129	-10.148	-116.823	-102.673	45.529	-118.203	-111.759	141.465	-28.987	-114.190	-107.938	-105.497	-99.316	42.278	-101.819	-8191	255	
2543.401	1	1	0	0	0.21865	0.21158	0.067611	0.25879	0.163	0.093072	0.11661	0.14873	0.20264	0.076001	0.19213	0.20856	0.2098	0.18166	0.096489	0.31212	-2.4667	-3.4292	-2.5896	-3.2958	-3.3312	-2.5125	-3.4104	-3.0521	-2.6521	-3.6312	-2.8729	-2.9604	-3.3979	-2.5729	-3.5875	-3.1458	25.529	114.095	-93.679	-72.907	-57.627	-86.242	206.928	221.535	123.213	-42.714	192.198	227.361	141.247	190.384	-52.990	0.004	2.1104e-05	5.8221e-05	1.9195e-05	55.462	9.318e-07	4.9508e-07	103.24	19.967	2.8768e-07	1.2936e-06	39.4	10.539	5.0319	2.3481	7.3759e-07	4.6669	0.00011454	0.00014634	4.7066e-05	60.358	1.6887e-06	1.7943e-06	112.97	21.81	1.6199e-06	1.6661e-06	43.044	11.617	5.8225	2.654	1.4994e-06	5.2189	218.805	-59.110	162.115	-116.037	20.411	50.146	-117.380	-111.546	-0.920	195.428	-114.738	-109.021	-106.765	-100.766	138.109	-102.899	-8191	255	
2543.497	1	1	0	0	0.030479	0.20548	0.37491	0.15255	0.18712	0.33498	0.11343	0.075441	0.15672	0.061267	0.36427	0.33854	0.21964	0.046104	0.24179	0.064431	-2.4792	-3.5896	-2.7646	-2.9458	-3.3917	-2.6042	-3.1813	-3.1375	-2.7729	-3.5521	-2.9021	-2.9542	-3.4375	-2.425	-3.3063	-3.0333	-56.744	201.050	61.261	-35.522	46.428	58.184	-80.939	18.896	-12.380	161.713	156.798	126.154	91.989	-91.819	46.679	-12.484	2.9906e-05	7.925e-05	2.2088e-05	54.57	7.3147e-07	5.4945e-07	102.38	19.394	5.2761e-07	5.0863e-07	38.231	10.216	5.0278	2.308	9.0991e-07	4.5904	0.00011996	0.00013697	4.7857e-05	59.99	1.6396e-06	1.7969e-06	111.57	21.325	1.6954e-06	1.5489e-06	41.932	11.388	5.6857	2.5768	1.4868e-06	5.1171	220.993	-76.299	151.279	-117.556	34.512	39.588	-118.717	-112.768	-59.723	113.874	-115.052	-108.819	-106.946	-100.169	79.113	-103.783	-8191	255	
2543.593	1	1	0	0	0.28071	0.14555	0.22316	0.28806	0.11323	0.073504	0.016619	0.068276	0.31857	0.17953	0.14604	0.13132	0.029175	0.072644	0.10239	0.19484	-2.2021	-3.4667	-2.8458	-3.0438	-3.4333	-2.7	-3.2812	-3.2229	-2.6542	-3.4229	-3.0479	-2.7375	-3.5375	-2.5333	-3.1312	-3.2708	-59.572	10.394	-23.070	71.526	127.868	79.628	164.303	-125.342	-37.450	84.079	194.253	-123.947	53.855	166.365	50.799	140.532	1.2424e-05	3.3843e-05	4.8925e-05	54.919	3.0582e-07	9.6556e-07	103.18	19.17	3.2911e-07	3.2504e-07	38.462	10.249	4.8893	2.331	5.0361e-07	4.6652	0.00011885	0.000136	4.4223e-05	60.46	1.5152e-06	1.7966e-06	111.4	21.221	1.7145e-06	1.5215e-06	41.886	11.394	5.6631	2.619	1.5149e-06	5.1308	-124.961	63.943	-22.475	-117.260	99.992	-90.067	-118.686	-112.942	134.899	119.387	-115.230	-109.201	-106.558	-100.462	-25.145	-103.668	-8191	255	
2543.689	1	1	0	0	0.03458	0.033974	0.23338	0.1888	0.27873	0.17741	0.11297	0.068801	0.3252	0.066705	0.12704	0.28288	0.14741	0.17253	0.20313	0.33191	-2.1479	-3.3396	-2.8958	-2.7396	-3.425	-2.5625	-3.1688	-3.1792	-2.5104	-3.3708	-3.0083	-2.525	-3.4083	-2.8438	-3.0458	-3.4979	23.089	97.559	76.797	-130.415	107.900	224.786	183.416	89.909	-39.814	17.578	-15.481	-14.402	144.763	181.211	8.326	136.012	3.0443e-05	0.00010619	2.2045e-05	55.82	3.5293e-07	7.1586e-07	103.45	19.301	8.0289e-07	4.6413e-07	38.989	10.364	4.9565	2.4321	3.9843e-07	4.5392	0.00012084	0.00013168	4.3867e-05	60.728	1.3961e-06	1.8079e-06	112.18	21.38	1.6716e-06	1.4248e-06	42.599	11.585	5.7024	2.7324	1.6051e-06	5.0646	-112.902	-25.140	-69.734	-117.752	85.588	41.954	-118.692	-112.571	-26.287	-72.108	-115.165	-109.106	-106.700	-100.721	-74.950	-103.827	-8191	255	
2543.786	1	1	0	0	0.087037	0.075433	0.089196	0.11137	0.11341	0.078999	0.18262	0.14721	0.13318	0.24003	0.031978	0.23038	0.22185	0.071676	0.059732	0.20941	-2.1813	-3.325	-3.0396	-2.6354	-3.2687	-2.7354	-2.8333	-3.3583	-2.725	-3.1771	-3.1437	-2.6188	-3.325	-2.8375	-2.9354	-3.4167	67.255	-19.774	178.643	127.837	-43.400	-80.716	-58.382	127.948	190.082	194.290	28.288	-37.565	109.766	199.448	155.585	-16.637	2.3834e-05	5.7796e-05	1.6047e-05	56.445	2.4643e-07	3.5963e-07	102.93	19.241	2.2898e-07	1.2022e-06	38.538	10.555	5.0535	2.4455	8.4395e-07	4.5453	0.00012554	0.00013605	4.4857e-05	61.342	1.4595e-06	1.8156e-06	111.99	21.101	1.72e-06	1.5375e-06	42.674	11.779	5.7898	2.756	1.6685e-06	5.0715	203.941	-34.160	-67.468	-117.341	-89.202	6.910	-119.128	-113.091	170.683	1.398	-115.209	-109.832	-105.731	-100.775	-18.780	-103.062	-8191	255	
2543.882	1	1	0	0	0.231	0.17459	0.14731	0.16507	0.11515	0.098089	0.067789	0.17533	0.077333	0.099084	0.12041	0.054944	0.19567	0.14405	0.31003	0.088573	-2.3688	-3.1917	-3.3187	-2.5667	-3.4125	-2.7896	-2.6271	-3.3292	-2.75	-3.2104	-3.3917	-2.5667	-3.1792	-2.9104	-2.6229	-3.4646	-110.843	168.348	188.850	163.312	-95.619	107.499	197.246	138.791	177.337	59.920	-123.481	-12.605	122.861	189.253	198.609	90.108	2.116e-05	4.5805e-05	8.0725e-06	55.712	2.7597e-07	1.0144e-06	103	19.2	7.9242e-07	5.2328e-07	39.946	10.682	5.0345	2.4502	3.0994e-07	4.642	0.00012715	0.00014698	4.4308e-05	61.213	1.3746e-06	1.858e-06	112.99	21.239	1.7272e-06	1.5981e-06	43.279	11.889	5.7806	2.7313	1.7513e-06	5.1537	227.895	-49.623	-84.309	-117.311	81.983	-92.043	-118.881	-112.669	-21.165	92.441	-115.240	-109.892	-108.228	-100.600	-65.599	-103.560	-8191	255	
2544.002	1	1	0	0	0.24582	0.23972	0.12129	0.13157	0.1732	0.22427	0.13429	0.021955	0.11465	0.068825	0.1449	0.08279	0.19111	0.1596	0.09982	0.1538	-2.4437	-2.9083	-3.2938	-2.5292	-3.3979	-3.0563	-2.6271	-3.6125	-2.8688	-2.7833	-3.2833	-2.4958	-3.05	-3.1417	-2.5958	-3.3729	75.417	-32.540	166.872	222.639	5.157	68.207	-83.838	54.778	226.744	-59.290	205.055	99.328	119.716	153.557	-90.506	-32.013	3.2785e-05	6.782e-05	1.34e-05	55.868	5.5016e-07	6.1205e-07	103	19.271	4.8064e-07	1.5023e-06	38.831	10.449	4.9327	2.32	4.3497e-07	4.587	0.00012706	0.00015257	4.081e-05	61.226	1.3695e-06	1.7671e-06	112.33	21.121	1.7439e-06	1.684e-06	42.208	11.665	5.7061	2.6206	1.7597e-06	5.07	-118.153	7.369	-58.950	-117.505	-34.248	115.821	-119.127	-113.374	-44.670	26.392	-115.321	-109.239	-106.000	-100.057	64.714	-103.360	-8191	255	
2544.098	1	1	0	0	0.17495	0.089754	0.2175	0.14421	0.20053	0.3417	0.054837	0.19187	0.16189	0.28505	0.027432	0.36585	0.19589	0.10912	0.24265	0.14231	-2.575	-2.8792	-3.3854	-2.6146	-3.25	-3.2667	-2.7417	-3.3812	-2.9354	-2.9479	-3.5208	-2.6354	-3.2146	-3.1688	-2.7229	-3.3333	85.358	-75.391	119.688	185.195	-126.329	147.621	-120.579	-64.222	-129.459	-17.382	113.790	140.914	27.746	46.089	-88.094	45.453	2.4424e-05	4.9901e-05	3.2922e-05	54.677	4.8049e-07	6.4854e-07	101.42	19.014	4.33e-07	1.2422e-06	38.388	10.239	4.8967	2.2768	5.1416e-07	4.527	0.00012096	0.0001498	3.7731e-05	60.238	1.4462e-06	1.6499e-06	110.33	20.866	1.6125e-06	1.661e-06	42.137	11.519	5.6772	2.5548	1.7127e-06	5.0539	224.056	18.484	-43.985	-117.785	-3.025	22.908	-119.297	-112.230	46.717	143.102	-115.416	-109.200	-107.238	-99.912	-64.221	-103.152	-8191	255	
2544.195	1	1	0	0	0.13279	0.13835	0.072118	0.14056	0.14436	0.12661	0.16082	0.13931	0.19891	0.063792	0.21323	0.25237	0.054674	0.10612	0.080066	0.037443	-2.6458	-2.7583	-3.2771	-2.3312	-3.1312	-3.2771	-2.6021	-3.2	-2.8542	-2.7188	-3.4896	-2.6583	-3.0563	-3.2167	-2.5792	-3.2083	-120.733	86.061	-117.447	36.904	-54.123	198.390	-4.998	-100.688	21.207	177.462	17.248	152.014	-43.647	106.632	-35.921	214.999	3.1996e-05	9.4348e-05	2.4412e-05	54.554	3.6906e-07	6.4888e-07	102.98	19.551	7.8393e-07	2.1397e-07	38.731	10.288	4.897	2.1456	6.9327e-07	4.543	0.00011697	0.00015445	3.6812e-05	59.889	1.4459e-06	1.5807e-06	111.13	21.364	1.6673e-06	1.7959e-06	42.48	11.554	5.6319	2.4137	1.8343e-06	5.0821	222.422	-35.165	-20.283	-117.532	93.638	-27.487	-118.905	-112.682	-29.185	-101.732	-115.586	-109.113	-106.765	-100.246	99.710	-103.137	-8191	255	
2544.291	1	1	0	0	0.081551	0.20518	0.1572	0.10485	0.13097	0.1126	0.18345	0.074167	0.13425	0.11615	0.19103	0.079533	0.27613	0.01701	0.12134	0.18776	-2.6604	-2.6396	-3.3604	-2.6562	-2.9062	-3.1583	-2.55	-3.1646	-3.3187	-2.6458	-3.4833	-2.8458	-2.7646	-3.3833	-2.5563	-3.1083	215.540	8.344	-110.854	30.230	119.567	10.131	0.768	-55.886	182.695	-81.620	149.511	205.446	-111.896	21.467	-22.686	-30.133	2.8257e-05	0.0001647	3.1905e-05	52.384	3.8931e-07	1.8471e-07	100.18	19.018	6.7953e-07	1.6132e-07	37.33	10.965	4.9884	2.0681	3.2792e-07	4.7574	0.00012365	0.00016553	3.8401e-05	57.382	1.6104e-06	1.6235e-06	109.17	20.884	1.6035e-06	1.8986e-06	41.148	12.397	5.8549	2.3113	1.831e-06	5.2598	-125.639	-69.480	-90.389	-117.495	-35.781	-89.653	-118.808	-113.001	83.964	83.674	-115.789	-109.501	-106.598	-100.571	76.516	-103.677	-8191	255	
2544.387	1	1	0	0	0.35978	0.082	0.13533	0.29222	0.29763	0.070562	0.19635	0.06438	0.12227	0.10973	0.055468	0.28168	0.064417	0.17108	0.21466	0.21992	-2.7875	-2.4375	-3.3396	-2.8771	-2.7417	-3.4208	-2.7396	-3.0812	-3.1458	-2.6375	-3.35	-2.9146	-2.6312	-3.4938	-2.5833	-2.9333	194.625	213.230	214.067	-93.804	195.421	87.370	1.469	-127.691	184.356	-18.431	111.640	221.893	197.012	-10.641	189.876	22.675	2.5598e-05	7.8761e-05	1.966e-05	48.884	5.4636e-07	5.6454e-07	98.441	18.389	5.5603e-07	1.3334e-06	36.792	10.973	5.1629	2.0565	5.3288e-07	4.7737	0.0001193	0.00016843	3.8501e-05	53.882	1.6598e-06	1.5502e-06	107.12	20.382	1.582e-06	1.8477e-06	40.417	12.274	6.0224	2.2919	1.7846e-06	5.2998	-124.260	57.016	39.709	-116.141	81.620	28.339	-118.740	-113.844	-98.556	-22.455	-115.266	-109.150	-107.645	-99.208	128.864	-103.650	-8191	255	
2544.481	1	1	0	0	0.3892	0.35966	0.18071	0.22897	0.05558	0.062094	0.090647	0.28124	0.043512	0.13672	0.27289	0.047642	0.13727	0.035295	0.15363	0.27174	-2.8792	-2.6146	-3.3229	-2.9979	-2.6854	-3.5021	-2.7333	-3.1188	-3.3333	-2.5687	-3.3354	-2.8854	-2.4979	-3.325	-2.8083	-2.9354	120.871	135.243	33.696	87.479	113.007	42.841	-47.670	184.650	33.660	48.832	-66.540	-79.770	-58.525	29.174	103.406	54.605	3.4398e-05	3.9142e-05	5.5002e-06	47.416	8.9553e-08	5.2736e-07	100.2	17.792	7.1466e-07	5.4711e-07	36.565	10.543	5.1344	2.0044	4.5329e-07	4.686	0.00011357	0.00016843	3.6741e-05	52.432	1.6484e-06	1.436e-06	108.39	19.632	1.422e-06	1.7836e-06	39.61	11.835	5.846	2.2449	1.6911e-06	5.2216	224.274	-9.400	-10.251	-117.195	51.277	23.163	-119.584	-112.950	152.763	31.671	-115.560	-109.153	-106.464	-99.749	95.393	-104.278	-8191	255	
2544.602	1	1	0	0	0.36274	0.10346	0.012373	0.26653	0.23173	0.11943	0.1068	0.096253	0.1833	0.23454	0.15988	0.19794	0.39999	0.063149	0.21492	0.037727	-3.0625	-2.5396	-3.2146	-3.2062	-2.6479	-3.4854	-2.8833	-2.7438	-3.4375	-2.5896	-3.1333	-3.1875	-2.4542	-3.3812	-2.8854	-2.55	55.373	44.001	-45.481	-98.145	59.624	-4.063	-119.506	192.478	-88.458	-58.038	61.281	104.508	-26.977	23.320	80.020	-52.700	3.0657e-05	5.2591e-05	6.3825e-06	48.725	3.5498e-07	4.4607e-07	99.708	17.438	3.9406e-08	1.2635e-06	36.126	10.664	4.9904	2.0223	1.1974e-06	4.7096	0.00010696	0.00016279	3.6555e-05	52.944	1.5996e-06	1.342e-06	108.25	19.375	1.3251e-06	1.6934e-06	39.217	11.852	5.8089	2.2375	1.6611e-06	5.2339	228.462	9.821	-106.846	-117.805	-50.162	-1.882	-119.285	-113.070	121.491	0.569	-115.306	-109.785	-106.514	-99.731	44.188	-103.993	-8191	255	
2544.698	1	1	0	0	0.25493	0.049413	0.19761	0.18015	0.068268	0.050078	0.21988	0.11951	0.060848	0.10017	0.13312	0.097325	0.033457	0.11507	0.29446	0.12128	-2.9958	-2.5771	-3.0271	-3.2812	-2.5042	-3.5687	-2.8458	-2.7729	-3.1937	-2.8208	-2.8917	-3.3833	-2.5583	-3.1917	-3.0583	-2.5479	-95.354	-72.345	214.606	162.644	11.481	37.303	-112.737	144.735	48.286	190.963	-69.100	-29.421	109.292	135.908	143.455	145.985	2.424e-05	0.00014222	1.689e-05	47.601	1.0209e-06	1.3256e-07	96.482	18.096	2.6773e-07	1.2083e-06	34.923	10.838	5.0753	1.9681	6.0574e-07	5.0206	0.00010537	0.00015391	3.87e-05	51.666	1.6444e-06	1.3593e-06	104.96	19.966	1.3192e-06	1.7344e-06	38.326	12.099	5.9114	2.1926	1.533e-06	5.5248	224.382	-80.238	33.586	-117.361	-86.674	179.453	-119.283	-113.019	-62.237	-6.198	-114.394	-109.591	-106.427	-100.561	-98.476	-105.079	-8191	255	
2544.794	1	1	0	0	0.25238	0.20546	0.35046	0.24094	0.30587	0.11031	0.19974	0.22353	0.1295	0.091271	0.06096	0.027509	0.13522	0.16597	0.104	0.1055	-3.2229	-2.6437	-2.8521	-3.4271	-2.5979	-3.2083	-3.0896	-2.5083	-3.3042	-2.8563	-2.9562	-3.325	-2.5167	-3.3896	-3.1167	-2.4833	113.765	-99.261	180.200	107.039	1.412	190.626	100.390	86.939	-69.896	79.219	165.660	112.235	92.657	187.177	48.939	-28.796	2.3821e-05	4.7973e-05	3.1818e-06	43.212	8.5017e-07	1.4648e-06	87.932	17.221	2.2509e-07	4.4661e-07	33.69	10.751	5.5173	1.7693	5.8365e-07	6.0607	0.00010135	0.00016181	4.0133e-05	47.078	1.6651e-06	1.4547e-06	95.65	19.066	1.3139e-06	1.6971e-06	36.741	12.032	6.3643	2.0025	1.4895e-06	6.7573	228.343	109.997	105.969	-117.201	63.985	-124.379	-118.658	-113.192	28.577	95.915	-114.618	-109.110	-107.733	-100.007	48.347	-106.108	-8191	255	
2544.866	1	1	0	0	0.038657	0.11579	0.14711	0.05173	0.11915	0.25418	0.13662	0.1643	0.15514	0.059555	0.11883	0.18173	0.12881	0.10125	0.10534	0.076749	-3.0812	-2.9396	-2.6979	-3.5417	-2.8292	-3.2438	-3.2542	-2.4396	-3.4125	-3.0729	-2.7188	-3.55	-2.6146	-3.0875	-3.4458	-2.5333	100.059	74.208	-65.996	35.670	-26.557	111.284	216.933	121.239	-62.277	-127.369	74.418	101.241	-120.749	-65.481	129.720	113.967	3.6754e-05	5.8063e-05	2.4329e-05	40.751	1.816e-07	9.0409e-07	82.733	14.15	2.5186e-07	2.7546e-07	29.174	10.874	5.5008	2.0807	4.3384e-07	7.5205	9.9081e-05	0.0001556	4.1707e-05	44.582	1.6579e-06	1.555e-06	91.017	15.617	1.3502e-06	1.684e-06	32.437	12.099	6.3786	2.3339	1.4513e-06	8.2648	219.985	25.238	29.166	-117.514	-24.896	32.715	-118.334	-111.639	-76.358	162.661	-113.772	-109.435	-108.760	-100.664	67.988	-106.749	-8191	255	
2544.962	1	1	0	0	0.093147	0.17924	0.13887	0.19108	0.083922	0.15086	0.21671	0.074089	0.20688	0.10257	0.12843	0.11283	0.092119	0.22996	0.11609	0.15251	-2.9875	-2.8479	-2.6729	-3.5	-2.8021	-2.8958	-3.3646	-2.6229	-3.2979	-3.0292	-2.7208	-3.4146	-2.7458	-2.8	-3.3333	-2.5458	161.258	230.105	-103.098	97.095	6.777	181.720	192.006	-66.722	100.138	-67.191	101.143	-2.473	66.293	210.571	213.398	162.978	5.7978e-05	8.9219e-05	2.0124e-05	43.425	3.6336e-07	3.7385e-07	84.274	13.533	5.5073e-07	8.0088e-07	29.275	10.861	5.3809	2.0831	7.8982e-07	7.4012	0.00011035	0.00015658	4.5897e-05	47.147	1.6675e-06	1.6133e-06	92.571	14.983	1.3897e-06	1.7017e-06	32.217	11.987	6.1971	2.3547	1.436e-06	8.1901	-128.007	3.116	218.327	-117.272	120.946	35.509	-118.286	-111.076	-23.900	-1.220	-114.452	-109.431	-108.250	-101.339	10.271	-107.174	-8191	255	
2545.083	1	1	0	0	0.18195	0.051983	0.094003	0.1319	0.054036	0.34893	0.20191	0.14265	0.18096	0.089179	0.11885	0.058317	0.29808	0.24532	0.075999	0.20153	-2.9042	-3.0292	-2.45	-3.425	-2.6688	-2.8979	-3.2	-2.5479	-3.125	-3.0708	-2.4188	-3.2958	-2.6542	-2.6625	-3.1958	-2.5708	197.047	-117.537	-34.229	15.236	54.896	133.167	-9.987	-114.080	192.168	26.332	164.035	146.145	107.857	-122.829	192.914	-102.531	3.3515e-05	0.00012816	2.7319e-05	42.082	3.0481e-07	3.649e-07	83.97	13.58	5.4747e-07	6.9587e-07	29.671	10.83	5.6165	2.1	2.2821e-07	7.5049	0.00011352	0.00015021	4.7159e-05	46.156	1.7065e-06	1.7031e-06	91.444	15.145	1.5063e-06	1.6465e-06	32.385	12.027	6.4306	2.3657	1.3958e-06	8.2901	224.047	-30.859	-14.495	-117.132	49.538	122.952	-118.596	-111.801	155.526	-67.113	-114.375	-109.088	-108.031	-102.278	-48.148	-107.076	-8191	255	
2545.179	1	1	0	0	0.069687	0.11918	0.14712	0.16866	0.30082	0.074605	0.26336	0.025945	0.15931	0.070902	0.21828	0.31078	0.23257	0.063761	0.2209	0.14797	-2.4958	-3.0312	-2.5438	-3.3604	-2.7375	-2.7771	-3.2854	-2.5083	-3.0979	-3.2521	-2.5438	-3.1417	-3.0062	-2.6271	-3.4458	-2.7333	-104.325	229.825	-38.936	141.094	80.553	107.726	81.338	31.927	-4.073	108.894	0.832	204.546	15.798	127.111	-38.821	41.777	5.5619e-05	7.9483e-05	5.353e-06	41.995	3.3336e-07	1.0508e-06	82.883	13.449	7.0928e-07	1.4794e-06	29.556	10.859	5.6571	2.1647	4.5896e-07	7.4855	0.00012143	0.00014641	4.6524e-05	45.851	1.6945e-06	1.7532e-06	90.399	15.088	1.5423e-06	1.5258e-06	32.377	12.13	6.5217	2.4188	1.4231e-06	8.2991	228.472	-16.435	-8.394	-117.259	0.892	169.731	-118.356	-111.112	-55.472	12.013	-114.561	-109.723	-107.862	-101.839	75.061	-107.021	-8191	255	
2545.275	1	1	0	0	0.12862	0.24731	0.16779	0.057579	0.19009	0.067119	0.36304	0.15126	0.42734	0.053855	0.059423	0.29811	0.13922	0.098424	0.12384	0.18972	-2.7458	-3.4521	-2.5271	-3.4521	-3.0854	-2.6417	-3.3396	-2.8625	-2.9271	-3.4333	-2.6104	-3.2271	-3.05	-2.7021	-3.4646	-3.05	58.964	-124.144	-9.127	-106.948	185.941	207.442	71.931	29.822	65.831	20.800	-103.298	44.279	-9.295	22.696	190.995	-92.806	4.2554e-05	0.00011242	8.355e-06	42.58	6.5536e-07	5.9032e-07	85.692	13.922	3.5233e-07	1.1457e-06	29.643	11.097	5.6548	2.1575	4.4921e-07	7.07	0.00012176	0.00013928	4.5306e-05	46.551	1.6006e-06	1.8079e-06	92.61	15.62	1.5894e-06	1.5383e-06	32.584	12.389	6.4943	2.4378	1.375e-06	7.7993	224.204	-41.329	-62.901	-117.617	48.674	67.298	-118.684	-110.969	152.358	63.314	-114.309	-109.460	-108.393	-101.372	29.038	-106.648	-8191	255	
2545.394	1	1	0	0	0.16477	0.14505	0.064065	0.12518	0.076668	0.21062	0.13833	0.13798	0.14608	0.33286	0.1288	0.23804	0.077586	0.2997	0.14446	0.080749	-2.4146	-3.2396	-2.7479	-3.1146	-3.1937	-2.7188	-3.25	-2.9458	-2.8104	-3.5396	-2.7354	-3.3021	-3.3	-2.4833	-3.2667	-3.0146	-5.005	54.688	-28.660	-29.173	-47.962	136.627	-68.425	-120.976	23.551	-77.671	194.506	118.553	-119.889	193.576	-70.210	127.519	3.9228e-05	3.3965e-05	1.3613e-05	47.969	3.8825e-07	5.524e-07	92.274	14.786	8.3743e-07	7.1001e-07	30.546	11.292	5.8472	1.9751	1.0591e-06	6.5231	0.00012612	0.0001314	4.646e-05	52.494	1.5324e-06	1.7654e-06	100.98	16.388	1.697e-06	1.4478e-06	33.793	12.569	6.6381	2.2031	1.419e-06	7.1955	229.589	-74.143	-4.198	-117.772	-68.796	-26.693	-118.318	-111.166	-79.914	-56.123	-114.737	-108.821	-107.449	-101.431	19.989	-105.728	-8191	255	
2545.467	1	1	0	0	0.14245	0.19642	0.22369	0.13413	0.076422	0.22829	0.34543	0.22343	0.048217	0.11803	0.29372	0.21557	0.24471	0.12575	0.26039	0.18283	-2.2687	-3.3833	-2.5979	-2.8771	-3.4146	-2.6125	-3.2542	-3.1188	-2.7708	-3.4979	-2.6396	-3.0417	-3.2604	-2.5563	-3.3083	-3.2229	206.285	118.545	85.924	112.206	221.501	-67.700	141.916	85.562	135.294	70.071	-86.504	-85.243	82.085	-49.996	-107.999	134.773	3.9431e-05	6.7108e-06	5.1914e-05	51.377	7.0738e-07	7.6587e-07	98.448	15.968	1.3838e-07	6.7277e-07	30.473	10.986	5.4854	1.8498	4.5809e-07	6.2347	0.00012531	0.00012688	4.3824e-05	56.091	1.4406e-06	1.7671e-06	106.58	17.598	1.652e-06	1.3406e-06	33.561	12.217	6.3063	2.086	1.3988e-06	6.8483	221.806	224.251	-2.275	-117.427	-33.890	4.499	-118.717	-112.608	-86.394	35.774	-115.162	-109.807	-108.264	-102.173	-118.791	-106.259	-8191	255	
2545.563	1	1	0	0	0.071239	0.12981	0.17128	0.13367	0.19125	0.2237	0.20701	0.067763	0.24607	0.16743	0.1403	0.18155	0.047463	0.085577	0.12525	0.14715	-2.425	-3.3042	-2.8979	-2.9	-3.3583	-2.7208	-3.0917	-3.3083	-2.7	-3.4813	-2.925	-2.7625	-3.3667	-2.6937	-3.0146	-3.3375	226.698	193.723	196.546	110.992	38.613	-123.016	120.437	-117.128	-92.970	39.474	-7.676	-93.709	179.892	-92.778	-125.745	118.218	3.0028e-05	5.7027e-05	1.93e-05	51.523	5.3378e-07	4.4976e-07	99.722	15.788	4.0375e-07	1.0019e-06	30.494	10.79	5.5261	1.8473	5.2614e-07	6.3046	0.00012566	0.00012096	4.418e-05	56.494	1.2891e-06	1.7493e-06	107.72	17.318	1.6035e-06	1.3221e-06	33.156	11.998	6.2574	2.0869	1.495e-06	6.9428	212.061	4.342	-111.440	-116.896	4.158	52.542	-118.809	-112.287	17.816	-2.052	-114.320	-109.367	-108.319	-101.295	-82.910	-106.175	-8191	255	
2545.682	1	1	0	0	0.094684	0.1095	0.096609	0.14906	0.20383	0.12963	0.039377	0.34068	0.030424	0.104	0.16297	0.18318	0.12124	0.016014	0.20079	0.20922	-2.1958	-3.4229	-2.9417	-2.5521	-3.3729	-2.6813	-3.0875	-3.5667	-2.6833	-3.4562	-2.9771	-2.5708	-3.2938	-2.8729	-3.0333	-3.3583	60.794	-129.072	207.542	42.457	157.533	-81.370	48.473	15.714	180.471	3.525	34.827	9.813	57.328	49.924	27.195	-123.712	2.9978e-05	0.0001357	1.6814e-05	52.342	1.245e-06	1.0362e-06	98.437	15.468	6.6843e-07	9.4915e-08	29.932	10.97	5.4388	1.8248	3.266e-07	6.3723	0.00012455	0.00012645	4.1579e-05	57.012	1.2494e-06	1.7935e-06	107.21	17.066	1.671e-06	1.4214e-06	33.153	12.208	6.2742	2.065	1.5767e-06	7.0198	216.719	-40.797	-100.780	-117.360	85.493	91.585	-118.823	-112.713	60.759	74.715	-114.889	-109.306	-107.554	-101.574	40.617	-106.036	-8191	255	
2545.779	1	1	0	0	0.15709	0.19611	0.16493	0.091384	0.17852	0.077825	0.40546	0.22726	0.33702	0.083055	0.30192	0.089782	0.15142	0.31713	0.15417	0.040621	-2.3479	-3.3667	-3.0708	-2.625	-3.3125	-2.9917	-2.7958	-3.3396	-2.7417	-3.2125	-3.2458	-2.7271	-3.35	-2.7146	-2.6792	-3.4479	51.080	-77.442	-83.151	19.153	198.374	85.021	165.924	37.047	57.658	-41.825	-120.771	-8.835	144.681	-103.115	165.223	-51.252	2.8417e-05	2.1173e-05	2.5461e-05	51.882	7.2881e-07	2.319e-07	98.445	15.719	8.8016e-07	8.0806e-07	31.119	11.055	5.4341	1.8212	1.3776e-07	6.2124	0.00013095	0.00013517	4.1315e-05	56.399	1.2852e-06	1.8277e-06	107.22	17.238	1.8247e-06	1.6032e-06	33.892	12.278	6.3591	2.0362	1.7985e-06	6.9118	226.897	-47.871	35.559	-117.266	-101.873	73.040	-118.627	-112.412	-66.482	27.714	-114.038	-108.942	-107.686	-100.892	-6.975	-105.368	-8191	255	
2545.875	1	1	0	0	0.19403	0.19634	0.16667	0.17653	0.13457	0.13764	0.22764	0.047308	0.048863	0.1448	0.083461	0.05778	0.22705	0.09764	0.35113	0.055549	-2.425	-3.2729	-3.1688	-2.4729	-3.4146	-3.1021	-2.8063	-3.4188	-2.5708	-3.1292	-3.2354	-2.5312	-3.4167	-2.9437	-2.8	-3.5042	-57.164	103.986	-92.313	-52.950	197.312	-33.441	-18.474	24.443	-37.660	42.222	170.470	79.527	-118.168	-61.734	192.512	14.317	3.8476e-05	3.1311e-05	2.4041e-05	51.294	3.6545e-07	8.6126e-07	98.717	16.092	3.8648e-07	1.0299e-06	31.534	11.037	5.5879	1.7887	1.324e-07	6.113	0.00014139	0.00014854	4.0225e-05	56.308	1.2785e-06	1.7269e-06	108.08	17.672	1.8541e-06	1.6789e-06	34.436	12.266	6.3273	2.0198	1.8728e-06	6.7644	215.229	89.533	-59.847	-117.096	106.053	17.117	-118.748	-112.688	159.475	-39.015	-114.032	-108.865	-107.762	-100.552	107.496	-105.877	-8191	255	
2545.995	1	1	0	0	0.20839	0.02385	0.048854	0.31941	0.089985	0.099127	0.10226	0.21671	0.25974	0.12884	0.23822	0.19259	0.044432	0.17799	0.016961	0.19092	-2.1937	-3.0896	-3.2583	-2.5187	-3.4708	-2.9062	-2.775	-3.4667	-2.7562	-2.8604	-3.2146	-2.6542	-3.4125	-3.2229	-2.8375	-3.3042	178.294	-115.700	-35.923	61.775	-4.619	34.875	30.072	104.491	23.979	44.915	49.611	50.844	-55.389	-25.210	-20.534	2.186	4.2556e-05	0.00012162	2.0756e-05	51.323	2.0922e-07	6.7206e-07	101.35	16.754	2.6715e-07	9.7879e-07	31.462	10.464	5.112	1.6598	4.0063e-07	5.517	0.00013331	0.00016238	3.6598e-05	55.779	1.413e-06	1.6793e-06	110.04	18.471	1.7563e-06	1.8366e-06	34.303	11.735	5.9923	1.882	1.8559e-06	6.1015	-128.418	-44.411	206.867	-116.822	39.445	-28.275	-118.150	-112.820	42.204	171.382	-113.780	-109.920	-107.138	-100.901	136.055	-105.440	-8191	255	
2546.091	1	1	0	0	0.23729	0.1342	0.30406	0.16848	0.066669	0.097564	0.19447	0.096227	0.21857	0.23671	0.12263	0.056036	0.18073	0.28071	0.3082	0.26487	-2.3583	-2.7896	-3.3625	-2.5167	-3.1562	-3.1104	-2.4729	-3.5208	-2.8292	-2.9167	-3.5167	-2.6292	-3.0646	-3.275	-2.6229	-3.3271	102.027	-59.353	78.422	-24.400	1.075	28.155	-73.022	-94.678	-96.986	3.317	-84.243	-86.834	-97.430	198.876	6.556	13.131	3.037e-05	4.1181e-05	2.4903e-05	48.076	6.887e-07	2.5182e-07	101.3	16.151	3.9849e-07	6.1033e-07	30.702	10.579	5.2156	1.6278	3.9154e-07	5.5656	0.00013168	0.00016725	3.4938e-05	53.09	1.5462e-06	1.5697e-06	109.28	17.729	1.6891e-06	1.842e-06	33.486	11.74	5.943	1.8481	1.7843e-06	6.1287	228.329	-9.845	-51.681	-116.670	-85.218	81.036	-118.918	-112.344	-26.315	126.992	-114.202	-108.742	-107.710	-100.042	83.117	-105.370	-8191	255	
2546.163	1	1	0	0	0.04806	0.11123	0.17835	0.15143	0.17648	0.18033	0.18885	0.089201	0.07829	0.33593	0.16952	0.10094	0.046993	0.28731	0.0747	0.10269	-2.6667	-2.9042	-3.6083	-2.6292	-3.0208	-3.275	-2.5292	-3.3438	-2.9917	-2.6708	-3.3812	-2.8625	-2.9354	-3.3292	-2.7104	-3.375	-67.634	184.728	-65.076	-39.586	90.592	59.989	-78.811	-90.671	-80.262	88.591	90.948	113.644	3.881	91.270	96.550	-129.091	3.6178e-05	7.3678e-05	1.2104e-05	49.34	7.2907e-07	6.0788e-07	97.544	15.682	1.4625e-07	2.4029e-07	31.058	10.51	4.9323	1.6466	6.0816e-07	5.4698	0.00012372	0.00015696	3.5422e-05	54.386	1.5303e-06	1.5145e-06	107.42	17.286	1.6469e-06	1.6766e-06	33.819	11.716	5.7756	1.8519	1.6362e-06	6.067	-122.323	-69.369	-66.407	-117.029	63.455	46.494	-118.742	-111.740	-76.831	27.577	-113.932	-109.520	-106.740	-100.570	28.608	-105.041	-8191	255	
2546.284	1	1	0	0	0.07787	0.16951	0.16026	0.152	0.29561	0.12076	0.17774	0.12963	0.18501	0.11731	0.18388	0.1095	0.13027	0.12291	0.059825	0.07905	-2.9208	-2.7042	-3.3771	-2.9813	-3.0625	-3.2812	-2.75	-3.2938	-2.9521	-2.4792	-3.4562	-2.8667	-2.9104	-3.3354	-2.6208	-3.2583	-32.467	5.458	118.074	200.776	3.015	40.338	-17.956	213.126	9.072	-92.954	-13.807	-88.086	12.118	85.964	152.500	162.974	3.5707e-05	8.9776e-05	1.4628e-05	49.302	5.2821e-07	3.9784e-07	98.213	15.827	2.7809e-07	5.044e-07	31.196	10.303	5.2217	1.6414	3.3078e-07	5.2104	0.00011897	0.0001556	3.3591e-05	54.044	1.5683e-06	1.5261e-06	106.71	17.625	1.5516e-06	1.6667e-06	34.395	11.521	5.9254	1.8273	1.6565e-06	5.775	-117.506	-110.422	-38.390	-117.078	-107.586	-55.130	-118.147	-112.251	14.777	-71.139	-114.719	-108.497	-106.755	-100.145	0.374	-104.147	-8191	255	
2546.378	1	1	0	0	0.058403	0.21543	0.060929	0.19329	0.16257	0.44506	0.088168	0.050114	0.10254	0.19678	0.035424	0.37775	0.052078	0.041327	0.20486	0.12394	-2.9271	-2.5854	-3.3438	-3.0104	-2.7562	-3.5896	-2.6896	-3.1521	-3.2042	-2.5979	-3.3187	-2.9667	-2.7479	-3.3479	-2.6583	-3.1333	161.445	218.479	132.712	11.654	217.505	-43.926	-120.110	103.558	205.191	140.894	-88.747	62.365	194.696	3.654	120.559	-64.807	1.996e-05	9.207e-05	1.7654e-05	49.566	4.2822e-07	8.1623e-07	98.483	16.192	3.7534e-07	3.9226e-07	32.477	10.474	5.2412	1.655	4.2274e-07	4.8809	0.00011094	0.00015026	3.466e-05	54.265	1.5513e-06	1.3369e-06	106.88	17.902	1.4456e-06	1.6368e-06	35.799	11.732	6.0002	1.8548	1.589e-06	5.3968	-113.231	226.307	71.912	-116.728	20.726	3.794	-118.066	-111.944	105.243	-92.460	-114.339	-109.266	-107.376	-99.655	-1.392	-103.961	-8191	255	
2546.474	1	1	0	0	0.21286	0.13595	0.28739	0.17943	0.25116	0.20039	0.036678	0.14248	0.088802	0.34588	0.16713	0.31461	0.13162	0.10423	0.11826	0.10592	-2.9646	-2.6958	-3.3229	-3.0417	-2.7687	-3.575	-2.85	-3.0458	-3.2792	-2.6292	-3.3812	-3.1417	-2.5938	-3.3667	-2.7562	-2.9771	112.779	-117.031	-106.809	129.375	-38.757	56.780	-25.823	49.335	224.374	-124.002	-117.515	99.992	9.677	-36.224	-39.766	188.594	2.9626e-05	5.0081e-05	2.1361e-05	50.794	1.1803e-06	4.2652e-07	102.34	17.249	8.094e-07	5.2632e-07	33.226	10.668	5.3758	2.1401	2.9534e-07	4.5176	0.00010544	0.00015121	3.2487e-05	55.931	1.4613e-06	1.2695e-06	111.06	18.881	1.2745e-06	1.6775e-06	36.525	11.811	6.1446	2.3895	1.5944e-06	4.9952	-129.714	-71.346	-54.484	-116.868	-17.486	-18.762	-118.978	-112.545	-0.897	179.620	-113.653	-109.244	-106.784	-101.052	85.464	-103.418	-8191	255	
2546.570	1	1	0	0	0.10466	0.13846	0.20888	0.10607	0.17783	0.10894	0.15465	0.1351	0.22593	0.047637	0.12129	0.13599	0.24355	0.10786	0.49398	0.14311	-3.0479	-2.5938	-3.2146	-3.1979	-2.7896	-3.5854	-2.8979	-2.8438	-3.4313	-2.6979	-3.2292	-3.175	-2.3521	-3.4	-2.8958	-2.7229	-54.437	66.263	195.621	221.889	65.317	-14.193	15.019	59.942	117.227	107.823	-53.190	180.155	229.352	-61.891	143.343	74.198	2.7421e-05	4.4372e-05	1.5384e-05	54.396	5.1687e-07	3.8299e-07	105.02	17.242	1.5038e-07	3.9676e-07	34.194	10.63	5.1212	2.5871	8.3213e-07	4.518	8.9767e-05	0.00015039	3.3869e-05	59.631	1.5319e-06	1.2216e-06	114.36	19.087	1.0935e-06	1.5335e-06	37.378	11.757	5.9793	2.8776	1.2152e-06	5.0754	221.290	-67.749	218.961	-116.852	-101.500	146.847	-118.759	-112.475	91.300	-52.670	-113.126	-109.391	-107.502	-101.249	37.498	-104.185	-8191	255	
2546.691	1	1	0	0	0.14267	0.12127	0.18846	0.30574	0.22664	0.14097	0.24871	0.2877	0.18166	0.17264	0.10091	0.12035	0.39739	0.083507	0.19621	0.18764	-3.0396	-2.5479	-3.0354	-3.2083	-2.4792	-3.375	-3.1646	-2.6604	-3.2979	-2.7771	-2.9958	-3.1875	-2.5396	-3.2958	-3.0458	-2.7771	102.117	224.277	46.832	6.380	165.516	-124.014	82.536	136.290	35.436	116.544	14.154	-48.248	24.888	54.975	200.847	-126.785	2.2587e-05	0.00011967	1.0208e-05	54.081	1.0186e-06	1.2944e-07	105.6	17.005	2.0294e-07	1.257e-06	33.773	10.594	5.035	2.7047	3.6551e-07	4.7258	8.6374e-05	0.00012596	4.0125e-05	59.309	1.4276e-06	1.3661e-06	114.39	18.669	1.1269e-06	1.3539e-06	36.859	11.738	5.7769	3.0108	1.2062e-06	5.2208	217.005	-30.767	-99.429	-116.759	86.713	-108.343	-118.569	-112.359	7.656	57.847	-112.835	-109.568	-106.190	-101.833	117.856	-104.454	-8191	255	
2546.763	1	1	0	0	0.094479	0.23433	0.15334	0.33305	0.24909	0.2008	0.053718	0.11864	0.19491	0.10951	0.11494	0.24801	0.11432	0.18066	0.10382	0.29175	-2.8896	-2.9083	-2.9208	-3.4604	-2.6667	-3.2667	-3.1562	-2.8187	-3.3167	-2.8646	-3.0312	-3.3417	-2.6917	-3.2	-3.3396	-2.5687	190.616	146.868	-55.227	220.517	-79.383	-58.105	-2.412	30.814	55.585	-108.242	-77.049	179.043	-115.199	93.378	30.395	-73.853	2.9963e-05	4.8674e-05	1.6303e-05	55.191	5.5709e-07	7.4509e-07	105.68	16.751	4.5451e-07	8.4337e-07	34.048	10.881	4.975	2.8802	9.1268e-07	5.1152	9.2814e-05	0.00012427	3.7824e-05	59.78	1.3128e-06	1.5029e-06	114.34	18.452	1.248e-06	1.4328e-06	37.27	12.092	5.7068	3.1734	1.2565e-06	5.6791	-120.770	11.387	-82.736	-116.650	41.162	47.187	-118.275	-111.256	219.732	0.225	-113.375	-109.750	-107.418	-101.344	-29.320	-104.350	-8191	255	
2546.859	1	1	0	0	0.1572	0.14173	0.20679	0.25897	0.1597	0.28083	0.13967	0.19596	0.14195	0.22479	0.27947	0.15135	0.16126	0.17937	0.053955	0.099249	-2.9271	-2.975	-2.7521	-3.5479	-2.7979	-3.2042	-3.3333	-2.6104	-3.3563	-3.1688	-2.8042	-3.4125	-2.7167	-3.0875	-3.3229	-2.4208	91.868	80.684	-63.389	-113.699	-3.255	188.407	-42.394	-38.851	207.741	-87.953	224.241	216.729	61.384	46.237	-89.310	-106.189	3.4716e-05	3.1465e-05	8.9426e-06	52.502	4.2672e-07	1.4931e-06	107.14	16.272	5.0184e-08	5.0978e-07	33.08	11.021	4.9701	2.8607	6.5224e-07	5.3127	0.00010183	0.00012427	4.1159e-05	57.458	1.3581e-06	1.5657e-06	116.03	18.036	1.3328e-06	1.4541e-06	36.15	12.223	5.769	3.1928	1.5619e-06	5.8946	224.883	61.679	209.695	-116.880	92.385	211.010	-118.581	-112.200	-99.275	-38.816	-113.230	-108.985	-106.517	-100.541	-18.236	-104.225	-8191	255	
2546.955	1	1	0	0	0.1415	0.12266	0.15165	0.20771	0.14703	0.050429	0.17093	0.22108	0.11628	0.14873	0.25208	0.14019	0.16556	0.19532	0.14195	0.16723	-2.8292	-3.0312	-2.5958	-3.3125	-2.8937	-2.8708	-3.3729	-2.6437	-3.0854	-3.1021	-2.7167	-3.4375	-2.7229	-2.8542	-3.5625	-2.4562	57.349	122.146	154.805	146.289	44.259	41.384	87.663	80.432	9.350	-94.259	132.042	97.507	24.700	-94.251	13.824	-105.874	2.2014e-05	3.9292e-05	1.1255e-05	52.285	7.1863e-07	1.9371e-07	99.574	16.184	4.8087e-07	1.34e-06	32.395	10.745	4.9683	2.4613	8.8414e-07	5.1166	0.00012183	0.00016715	4.961e-05	57.068	1.8519e-06	1.8362e-06	108.63	17.948	1.6019e-06	1.7731e-06	35.693	11.994	5.7221	2.7718	1.4302e-06	5.6527	-127.001	24.406	-64.437	-116.523	-111.773	-2.229	-117.991	-111.550	-67.619	49.161	-112.669	-108.984	-107.049	-100.453	69.769	-104.090	-8191	255	
2547.076	1	1	0	0	0.069763	0.030695	0.15905	0.23343	0.11467	0.17875	0.14333	0.15659	0.32668	0.23261	0.10303	0.13208	0.17824	0.44174	0.10748	0.23915	-2.8812	-3.0833	-2.7604	-3.4813	-2.8208	-2.9562	-3.5708	-2.5521	-3.1396	-3.2438	-2.5625	-3.4958	-2.8646	-2.7646	-3.4708	-2.4813	79.258	226.890	79.406	-0.032	-73.579	122.401	130.882	209.719	211.650	137.278	35.470	-37.284	-4.333	66.936	144.988	-125.910	3.5168e-05	0.00014255	5.0674e-05	50.244	1.1328e-07	4.5361e-07	95.782	13.755	1.4636e-07	7.7335e-07	31.035	10.975	4.8521	2.0794	9.6868e-08	5.3842	0.0001228	0.00014724	4.894e-05	54.727	1.7293e-06	2.0359e-06	103.58	15.315	1.7638e-06	1.7313e-06	34.382	12.179	5.6888	2.3572	1.4879e-06	5.9679	-125.869	-78.728	-37.945	-116.651	14.059	211.743	-117.773	-112.355	142.784	-65.567	-112.290	-108.727	-105.220	-99.846	76.773	-104.012	-8191	255	
2547.172	1	1	0	0	0.1185	0.10438	0.14657	0.14637	0.077189	0.16394	0.068242	0.25784	0.1009	0.048668	0.12319	0.17443	0.18065	0.27394	0.20183	0.18069	-2.9375	-3.1042	-2.4229	-3.4979	-2.9792	-2.8146	-3.4354	-2.6104	-2.9896	-3.2021	-2.4229	-3.2583	-3.0438	-2.7979	-3.5229	-2.825	83.986	-16.265	173.185	131.536	-123.778	202.660	228.781	-35.382	-32.209	211.014	-28.985	-58.825	116.648	32.244	-76.353	180.914	3.5194e-05	5.6067e-05	1.6472e-05	47.09	5.5109e-07	9.5866e-07	88.029	12.653	7.6435e-07	2.908e-07	27.905	11.363	5.1082	2.2082	1.0839e-07	5.3084	0.00014364	0.00015476	5.2603e-05	51.671	1.784e-06	2.2217e-06	96.342	14.053	2.0231e-06	1.7276e-06	30.675	12.574	5.895	2.5093	1.6226e-06	5.906	210.371	-19.013	-29.438	-116.957	-13.139	64.601	-117.419	-110.976	193.921	-18.236	-111.627	-108.911	-106.331	-99.633	31.648	-104.556	-8191	255	
2547.268	1	1	0	0	0.19717	0.14123	0.11181	0.17768	0.095944	0.029529	0.30235	0.15105	0.07886	0.21833	0.049755	0.16666	0.083139	0.10149	0.083875	0.11012	-2.65	-3.3167	-2.6375	-3.3375	-3.0708	-2.6625	-3.4208	-2.9208	-2.9917	-3.3438	-2.3958	-3.1417	-3.0771	-2.6667	-3.4062	-2.7812	150.991	-35.827	-47.946	194.658	158.056	26.978	198.881	3.054	-90.968	173.249	-60.345	72.120	219.923	116.976	118.127	12.922	2.7639e-05	7.7082e-05	1.7432e-05	39.846	1.1981e-06	3.1972e-07	87.855	12.512	6.537e-07	7.4841e-07	28.063	11.496	5.1818	2.2655	5.5738e-07	5.3716	0.00015569	0.00015186	5.6479e-05	43.738	1.7102e-06	2.3245e-06	95.465	14.116	2.0745e-06	1.6843e-06	31.101	12.767	5.9723	2.574	1.7764e-06	5.9837	228.052	-58.496	-10.934	-116.601	8.671	-115.561	-117.355	-109.861	-99.780	21.207	-112.188	-108.870	-106.853	-100.243	152.734	-105.423	-8191	255	
2547.364	1	1	0	0	0.31065	0.34883	0.35003	0.13707	0.37621	0.2131	0.082777	0.36478	0.17309	0.21697	0.13017	0.22917	0.093959	0.058002	0.18069	0.18315	-2.4458	-3.2833	-2.6417	-3.0438	-3.1917	-2.6	-3.5833	-2.7521	-2.7417	-3.6583	-2.6312	-3.0875	-3.1917	-2.6312	-3.3833	-2.9042	127.470	65.745	47.014	191.918	137.552	-14.946	139.249	-113.149	8.299	179.013	149.883	174.574	-70.493	138.384	44.470	147.925	2.633e-05	3.3462e-05	6.2919e-06	39.58	3.9509e-07	4.2763e-07	89.123	11.828	2.8003e-07	1.1524e-07	29.008	11.448	5.1566	2.3519	7.9484e-07	5.2747	0.00016207	0.0001563	5.6807e-05	43.157	1.6866e-06	2.3274e-06	97.611	13.28	2.1807e-06	1.7148e-06	32.056	12.831	6.0013	2.623	1.9398e-06	5.8995	229.123	-25.903	-83.829	-116.500	-57.611	150.619	-116.826	-109.584	-88.566	229.562	-111.537	-109.180	-106.202	-101.226	-71.258	-105.326	-8191	255	
2547.459	1	1	0	0	0.088805	0.12099	0.040867	0.10177	0.16395	0.072158	0.27627	0.078669	0.24902	0.16987	0.29045	0.078319	0.11898	0.19343	0.090426	0.053861	-2.5271	-3.5479	-2.5667	-2.8563	-3.2812	-2.6979	-3.2271	-3.0479	-2.4104	-3.3583	-2.8354	-2.9958	-3.2875	-2.6583	-3.2021	-3.1396	-106.463	98.196	-86.611	-16.992	230.061	-91.285	-92.334	169.514	-59.680	54.549	134.534	-18.007	228.245	169.017	54.806	91.361	2.1724e-05	0.00013551	1.604e-05	41.843	7.4544e-07	1.2962e-06	91.917	12.172	7.9089e-07	1.8966e-06	28.824	11.633	5.3455	2.3447	6.0021e-07	5.0895	0.00016111	0.0001564	5.5033e-05	46.561	1.628e-06	2.2583e-06	100.35	13.612	2.2345e-06	1.7924e-06	31.82	12.969	6.1182	2.6427	2.0605e-06	5.6993	204.380	226.441	131.348	-115.380	54.302	25.062	-117.335	-109.375	45.229	21.856	-111.760	-109.168	-107.560	-100.930	-36.492	-104.642	-8191	255	
2547.556	1	1	0	0	0.12077	0.14072	0.16364	0.19753	0.14053	0.056953	0.25486	0.16021	0.16875	0.23866	0.21824	0.17535	0.10655	0.33785	0.10277	0.11914	-2.3458	-3.5	-2.7125	-2.8333	-3.35	-2.5729	-3.2104	-3.2208	-2.5729	-3.5604	-2.7146	-2.8583	-3.3646	-2.6125	-3.1354	-3.2208	10.144	80.616	131.716	117.993	19.587	174.346	117.660	26.925	204.568	95.998	-49.214	26.412	-73.676	-46.424	45.854	-18.728	2.6383e-05	5.147e-05	1.8567e-05	45.832	2.917e-07	2.2509e-07	93.116	12.078	1.8572e-07	8.5781e-07	28.496	11.28	5.2354	2.3672	3.7279e-07	5.1499	0.00016179	0.00016274	5.3173e-05	50.704	1.5449e-06	2.226e-06	101.82	13.59	2.1979e-06	1.7922e-06	31.453	12.616	5.9626	2.6544	2.0739e-06	5.662	228.323	-87.519	200.377	-116.241	-0.132	-24.731	-118.145	-109.956	29.830	47.505	-112.747	-109.288	-107.411	-101.284	5.741	-104.677	-8191	255	
2547.675	1	1	0	0	0.18252	0.047386	0.03911	0.24083	0.20935	0.11696	0.12423	0.22628	0.15421	0.181	0.24012	0.18823	0.17627	0.19885	0.1019	0.057041	-2.2417	-3.4062	-2.9458	-2.6333	-3.3521	-2.9562	-3.1292	-3.2458	-2.7354	-3.4229	-3.1021	-2.7333	-3.3375	-2.7646	-2.9333	-3.3688	53.166	-21.540	-7.777	-108.044	-71.356	-43.028	41.627	43.895	-37.485	211.961	128.852	169.689	-87.750	-48.936	157.965	69.055	2.9924e-05	4.7461e-05	2.2604e-05	43.872	3.6225e-07	7.4574e-07	92.009	12.13	7.6193e-07	4.7707e-07	28.623	11.134	5.0063	2.4201	6.3403e-07	5.1801	0.00015026	0.00017136	5.1555e-05	48.821	1.4913e-06	2.1897e-06	100.48	13.4	2.052e-06	1.8104e-06	31.479	12.385	5.8162	2.7221	2.0594e-06	5.7796	227.680	-106.018	-118.552	-116.523	-110.271	-34.848	-118.082	-109.703	64.633	-7.373	-112.966	-109.421	-107.164	-101.364	27.512	-104.730	-8191	255	
2547.771	1	1	0	0	0.14284	0.24844	0.23148	0.30588	0.095123	0.29553	0.14389	0.28683	0.082644	0.11654	0.18643	0.18066	0.14437	0.16377	0.14095	0.38695	-2.1667	-3.1583	-3.0708	-2.6021	-3.4917	-2.8625	-2.9062	-3.3688	-2.6188	-3.3396	-3.1229	-2.7896	-3.1854	-2.8125	-2.7896	-3.4229	211.076	153.194	184.252	31.892	200.191	66.403	188.677	225.886	-57.607	22.590	85.615	-3.552	208.064	-59.458	174.613	96.760	3.9198e-05	8.5897e-05	2.1809e-05	43.044	5.2621e-07	1.4144e-06	92.032	11.831	2.4013e-07	3.3239e-07	28.11	11.12	5.0388	2.4204	4.1597e-07	5.3249	0.0001486	0.00017652	4.6667e-05	47.523	1.559e-06	2.0555e-06	99.689	13.162	2.0809e-06	1.9521e-06	30.699	12.464	5.803	2.7465	2.1676e-06	5.9439	-125.057	-23.837	184.192	-116.820	-27.103	-16.085	-117.730	-109.966	58.249	-57.845	-112.483	-108.756	-105.050	-100.546	63.882	-103.998	-8191	255	
2547.868	1	1	0	0	0.2288	0.091962	0.14345	0.1745	0.076387	0.070309	0.049991	0.065232	0.18655	0.070666	0.19572	0.02425	0.3319	0.25384	0.070258	0.10385	-2.2708	-3.1854	-3.1708	-2.5979	-3.3771	-2.8521	-2.9062	-3.2604	-2.85	-3.2313	-3.2854	-2.5271	-3.3583	-3.0438	-2.8396	-3.5604	227.669	76.707	-64.243	-125.601	-77.853	144.481	-58.300	-106.669	90.527	-74.741	40.801	-106.104	-29.463	134.260	133.146	142.198	3.6495e-05	0.00010506	1.9745e-05	41.786	4.884e-07	3.8724e-07	92.451	12.031	5.2397e-07	1.0128e-06	28.128	11.229	5.0942	2.4071	1.1407e-06	5.3644	0.00015542	0.0001884	4.4679e-05	46.131	1.737e-06	1.9948e-06	101.08	13.401	2.0734e-06	2.04e-06	31.046	12.616	5.9077	2.7197	2.1247e-06	5.9528	226.715	-23.007	-1.368	-115.837	-78.743	209.822	-117.262	-109.776	-13.640	54.986	-111.467	-108.889	-106.043	-100.466	32.633	-104.598	-8191	255	
2547.964	1	1	0	0	0.17073	0.10854	0.19312	0.21499	0.30175	0.16249	0.10121	0.16927	0.15172	0.1548	0.047653	0.16645	0.26187	0.30776	0.07197	0.1265	-2.3875	-3.0646	-3.1417	-2.5625	-3.3292	-3.0625	-2.6	-3.5	-2.6521	-3.0229	-3.4625	-2.5812	-3.2812	-3.1083	-2.5854	-3.3521	111.610	-67.390	217.553	66.728	175.361	96.179	218.764	-44.750	-124.233	-33.940	114.280	17.227	229.155	-109.021	125.567	-43.719	4.1338e-05	9.4213e-05	2.641e-05	42.614	4.4638e-07	1.2806e-06	94.698	12.209	6.2809e-07	8.0082e-07	27.975	11.387	4.9531	2.4083	8.018e-08	5.3088	0.00015078	0.00018925	4.1323e-05	47.286	1.7298e-06	1.8691e-06	103.62	13.476	1.9834e-06	2.1703e-06	30.781	12.59	5.8338	2.6853	2.104e-06	5.8609	219.088	-40.950	12.117	-115.979	70.301	31.043	-117.430	-109.540	64.250	2.362	-111.859	-107.985	-106.571	-100.915	-90.087	-104.422	-8191	255	
2548.060	1	1	0	0	0.090386	0.12499	0.11211	0.1398	0.16743	0.045364	0.2771	0.12876	0.055904	0.13836	0.11503	0.2396	0.13418	0.052576	0.16488	0.1755	-2.45	-2.9313	-3.2354	-2.3896	-3.2375	-3.2667	-2.4333	-3.2062	-3.1229	-2.975	-3.4396	-2.7	-3.0646	-3.2521	-2.6646	-3.2687	141.543	-10.184	-119.340	137.402	-61.427	175.107	179.178	90.526	225.114	51.377	-50.224	-19.161	19.904	103.250	9.811	94.238	2.8843e-05	5.4101e-05	3.3216e-05	43.157	4.6899e-07	1.5618e-07	94.798	11.965	4.6926e-07	3.8666e-07	27.71	11.125	4.8873	2.3888	7.9133e-07	5.1273	0.00013861	0.00019161	3.781e-05	47.994	1.8383e-06	1.7603e-06	102.72	13.341	1.8083e-06	2.1052e-06	30.332	12.301	5.7533	2.6469	2.0881e-06	5.7249	223.754	-77.401	-23.480	-116.282	46.919	70.996	-117.515	-108.922	73.611	177.596	-111.885	-109.065	-106.129	-100.169	-74.703	-104.293	-8191	255	
#DATA ENDS
