BOXY.EXE: ISS Imagent and Oximeter Data Acquisition Program Version 0.80
Ascii Record File

#ACQ INFORMATION
2  Detector Channels 
16  External MUX Channels 
1  Auxiliary Channels 
5000  Waveform (CCF) Frequency (Hz)
1  Waveforms Skipped 
30  Waveforms Averaged 
1  Cycles Averaged 
16  Acquisitions per Waveform 
10.0806  Updata Rate (Hz) 

#FILE INFORMATION
TRUE -- External MUX Channel results are PARSED.
FALSE -- AC DC and Phase are NOT grouped.
TRUE -- Companion Program Settings File CREATED.
FALSE -- AC data not excluded
FALSE -- DC data not excluded
FALSE -- Phase data not excluded
FALSE -- Auxillary Chn. data not excluded
Tab delimiters

#CALIBRATION STATE
TRUE -- Waveform Calibration Values APPLIED.


#AUX CALIBRATION VALUES
Val Type	aux-1	

Term	1.0000e+00	
Factor	0.0000e+00	


#WF CALIBRATION VALUES
A = Detector Channel
Val Type	A-AC1	A-AC2	A-AC3	A-AC4	A-AC5	A-AC6	A-AC7	A-AC8	A-AC9	A-AC10	A-AC11	A-AC12	A-AC13	A-AC14	A-AC15	A-AC16	A-DC1	A-DC2	A-DC3	A-DC4	A-DC5	A-DC6	A-DC7	A-DC8	A-DC9	A-DC10	A-DC11	A-DC12	A-DC13	A-DC14	A-DC15	A-DC16	A-Ph1	A-Ph2	A-Ph3	A-Ph4	A-Ph5	A-Ph6	A-Ph7	A-Ph8	A-Ph9	A-Ph10	A-Ph11	A-Ph12	A-Ph13	A-Ph14	A-Ph15	A-Ph16	

Term	0.00000e+00	0.00000e+00	0.00000e+00	0.00000e+00	0.00000e+00	0.00000e+00	0.00000e+00	0.00000e+00	0.00000e+00	0.00000e+00	0.00000e+00	0.00000e+00	0.00000e+00	0.00000e+00	0.00000e+00	0.00000e+00	0.00000e+00	0.00000e+00	0.00000e+00	0.00000e+00	0.00000e+00	0.00000e+00	0.00000e+00	0.00000e+00	0.00000e+00	0.00000e+00	0.00000e+00	0.00000e+00	0.00000e+00	0.00000e+00	0.00000e+00	0.00000e+00	0.00000e+00	0.00000e+00	0.00000e+00	0.00000e+00	0.00000e+00	0.00000e+00	0.00000e+00	0.00000e+00	0.00000e+00	0.00000e+00	0.00000e+00	0.00000e+00	0.00000e+00	0.00000e+00	0.00000e+00	0.00000e+00	
Factor	1.00000e+00	1.00000e+00	1.00000e+00	1.00000e+00	1.00000e+00	1.00000e+00	1.00000e+00	1.00000e+00	1.00000e+00	1.00000e+00	1.00000e+00	1.00000e+00	1.00000e+00	1.00000e+00	1.00000e+00	1.00000e+00	1.00000e+00	1.00000e+00	1.00000e+00	1.00000e+00	1.00000e+00	1.00000e+00	1.00000e+00	1.00000e+00	1.00000e+00	1.00000e+00	1.00000e+00	1.00000e+00	1.00000e+00	1.00000e+00	1.00000e+00	1.00000e+00	X	X	X	X	X	X	X	X	X	X	X	X	X	X	X	X	

B = Detector Channel
Val Type	B-AC1	B-AC2	B-AC3	B-AC4	B-AC5	B-AC6	B-AC7	B-AC8	B-AC9	B-AC10	B-AC11	B-AC12	B-AC13	B-AC14	B-AC15	B-AC16	B-DC1	B-DC2	B-DC3	B-DC4	B-DC5	B-DC6	B-DC7	B-DC8	B-DC9	B-DC10	B-DC11	B-DC12	B-DC13	B-DC14	B-DC15	B-DC16	B-Ph1	B-Ph2	B-Ph3	B-Ph4	B-Ph5	B-Ph6	B-Ph7	B-Ph8	B-Ph9	B-Ph10	B-Ph11	B-Ph12	B-Ph13	B-Ph14	B-Ph15	B-Ph16	

Term	0.00000e+00	0.00000e+00	0.00000e+00	0.00000e+00	0.00000e+00	0.00000e+00	0.00000e+00	0.00000e+00	0.00000e+00	0.00000e+00	0.00000e+00	0.00000e+00	0.00000e+00	0.00000e+00	0.00000e+00	0.00000e+00	0.00000e+00	0.00000e+00	0.00000e+00	0.00000e+00	0.00000e+00	0.00000e+00	0.00000e+00	0.00000e+00	0.00000e+00	0.00000e+00	0.00000e+00	0.00000e+00	0.00000e+00	0.00000e+00	0.00000e+00	0.00000e+00	-9.97839e+01	-1.27879e+02	-1.28521e+02	-1.82006e+02	-5.58992e+01	-7.33021e+01	-1.57810e+02	-1.62015e+02	-5.12818e+01	-6.74143e+01	-1.72403e+02	-1.70165e+02	-1.80574e+02	-1.76604e+02	-6.35904e+01	-1.48996e+02	
Factor	1.65874e-05	1.60630e-04	4.67225e-05	1.56642e-01	1.23825e-06	1.65992e-06	1.81458e-01	5.32774e-02	1.10927e-06	1.85625e-06	9.31568e-02	3.11199e-02	4.21576e-02	9.47623e-03	1.36244e-06	1.40405e-02	8.31017e-06	1.23189e-05	3.42039e-06	7.89887e-02	1.27350e-07	1.35954e-07	8.60234e-02	2.70087e-02	1.27156e-07	1.36589e-07	4.55214e-02	1.53836e-02	2.16466e-02	4.83925e-03	1.31139e-07	6.92868e-03	X	X	X	X	X	X	X	X	X	X	X	X	X	X	X	X	



#DISTANCE SETTINGS
A = Detector Channel
A-1	A-2	A-3	A-4	A-5	A-6	A-7	A-8	A-9	A-10	A-11	A-12	A-13	A-14	A-15	A-16	

2.5000e+00	3.0000e+00	2.5000e+00	3.0000e+00	2.0000e+00	3.0000e+00	1.5000e+00	3.0000e+00	3.0000e+00	3.0000e+00	3.0000e+00	3.0000e+00	3.0000e+00	3.0000e+00	1.5000e+00	3.0000e+00	

B = Detector Channel
B-1	B-2	B-3	B-4	B-5	B-6	B-7	B-8	B-9	B-10	B-11	B-12	B-13	B-14	B-15	B-16	

1.0000e+01	1.0000e+01	1.0000e+01	1.4400e+00	1.0000e+01	1.0000e+01	1.5100e+00	1.9400e+00	1.0000e+01	1.0000e+01	1.9900e+00	2.4900e+00	2.4100e+00	2.9000e+00	1.0000e+01	2.9800e+00	




#DATA BEGINS
time	group	step	mark	flag	A-AC1	A-AC2	A-AC3	A-AC4	A-AC5	A-AC6	A-AC7	A-AC8	A-AC9	A-AC10	A-AC11	A-AC12	A-AC13	A-AC14	A-AC15	A-AC16	A-DC1	A-DC2	A-DC3	A-DC4	A-DC5	A-DC6	A-DC7	A-DC8	A-DC9	A-DC10	A-DC11	A-DC12	A-DC13	A-DC14	A-DC15	A-DC16	A-Ph1	A-Ph2	A-Ph3	A-Ph4	A-Ph5	A-Ph6	A-Ph7	A-Ph8	A-Ph9	A-Ph10	A-Ph11	A-Ph12	A-Ph13	A-Ph14	A-Ph15	A-Ph16	B-AC1	B-AC2	B-AC3	B-AC4	B-AC5	B-AC6	B-AC7	B-AC8	B-AC9	B-AC10	B-AC11	B-AC12	B-AC13	B-AC14	B-AC15	B-AC16	B-DC1	B-DC2	B-DC3	B-DC4	B-DC5	B-DC6	B-DC7	B-DC8	B-DC9	B-DC10	B-DC11	B-DC12	B-DC13	B-DC14	B-DC15	B-DC16	B-Ph1	B-Ph2	B-Ph3	B-Ph4	B-Ph5	B-Ph6	B-Ph7	B-Ph8	B-Ph9	B-Ph10	B-Ph11	B-Ph12	B-Ph13	B-Ph14	B-Ph15	B-Ph16	aux-1	digaux	

1965.054	1	1	0	256	0.32878	0.21806	0.12232	0.23727	0.043311	0.28154	0.31612	0.065168	0.39065	0.11228	0.28524	0.040875	0.2528	0.11533	0.13482	0.072469	-3.0146	-3.3604	-2.7479	-3.7854	-3.0396	-2.9729	-3.8167	-3.0854	-3.1833	-3.5187	-2.8958	-3.7375	-3.3604	-2.9417	-3.7375	-2.9437	170.836	-37.358	-8.977	160.746	-120.803	-25.617	145.399	150.055	-68.196	175.620	174.158	-114.909	178.369	163.148	-46.050	100.125	0.00035137	0.00067769	0.00015477	955.11	3.5699e-06	7.1445e-06	1021.9	346.47	3.0608e-06	6.7779e-06	393.79	137.9	122.25	48.173	3.7531e-06	55.946	0.00055708	0.00061043	0.0001721	998.1	6.7193e-06	6.6011e-06	1069.1	365.17	6.4404e-06	6.9453e-06	413.3	146.82	131.06	51.385	6.6384e-06	59.464	-129.966	-45.139	-29.709	-124.710	11.388	8.572	-125.880	-119.953	-11.934	14.512	-121.817	-117.814	-115.736	-109.144	-0.305	-111.919	-8191	255	
1965.150	1	1	0	0	0.18899	0.24306	0.10885	0.22815	0.1689	0.14137	0.084299	0.061535	0.20508	0.13253	0.14309	0.19465	0.094325	0.081599	0.059912	0.056461	-2.9437	-3.3875	-2.8771	-3.7938	-3.2021	-2.9854	-3.575	-3.2083	-3.1437	-3.6333	-2.8563	-3.4833	-3.3979	-2.9396	-3.6333	-3.0292	-110.892	213.467	-34.040	125.395	153.656	80.166	-13.868	79.805	78.662	77.442	148.321	129.932	65.759	-6.472	12.041	69.947	0.00034528	0.00048246	0.00014966	954.96	2.6368e-06	5.6558e-06	1013.5	344.63	2.1679e-06	3.9711e-06	391.39	135.92	121.41	46.917	3.073e-06	54.507	0.00055661	0.00060747	0.00017998	997.3	6.8289e-06	6.5555e-06	1063.2	364.02	6.5753e-06	7.1917e-06	410.91	144.83	130.03	50.265	6.969e-06	58.036	-133.076	-54.620	-55.126	-124.692	3.930	15.027	-126.021	-119.906	22.007	2.380	-121.938	-117.769	-115.711	-109.372	35.236	-112.086	-8191	255	
1965.244	1	1	0	0	0.088664	0.11108	0.043169	0.23834	0.07753	0.34577	0.15467	0.089626	0.14525	0.12478	0.194	0.18973	0.10071	0.23199	0.07659	0.0066235	-2.8563	-3.4708	-2.7562	-3.4896	-3.3521	-2.9188	-3.7896	-3	-3.0729	-3.425	-2.8875	-3.4229	-3.2625	-2.9042	-3.4437	-3.1312	78.622	144.633	98.635	-91.704	114.742	-21.134	104.827	189.093	194.910	32.423	198.243	210.229	208.990	196.442	64.794	-124.874	0.00031457	0.00052894	7.8548e-05	955.97	1.7423e-06	5.1706e-06	1011.7	346.95	3.5923e-06	5.8548e-06	394.12	136.4	122.06	47.004	3.9911e-06	54.817	0.00056468	0.00064353	0.00018419	998.45	6.8809e-06	6.9458e-06	1062.8	365.68	6.5064e-06	6.6399e-06	413.66	145.16	130.53	50.082	6.4051e-06	58.28	-126.643	-40.463	-80.244	-124.738	-12.970	1.512	-125.669	-119.885	-9.604	15.433	-121.926	-117.574	-115.757	-109.190	27.935	-112.073	-8191	255	
1965.341	1	1	0	0	0.07251	0.2483	0.071489	0.18164	0.063655	0.15888	0.081344	0.2148	0.1575	0.15756	0.24952	0.2267	0.1598	0.13236	0.076121	0.24676	-2.5854	-3.5896	-2.6458	-3.5354	-3.4396	-2.6542	-3.7583	-3.3083	-3.0792	-3.6667	-3.1771	-3.3625	-3.5271	-2.7562	-3.5812	-3.2562	-131.296	194.548	96.010	199.336	151.907	-41.025	45.780	165.251	86.535	-14.284	197.277	56.023	103.830	-137.323	-115.830	140.375	0.00033375	0.00049126	0.00010016	966.3	2.9905e-06	2.5003e-06	1027.9	349.66	3.6492e-06	5.2591e-06	397.75	138.41	123.65	48.069	3.9494e-06	55.987	0.00054213	0.00059693	0.00017083	1007	6.64e-06	6.5567e-06	1074.3	368.92	6.6669e-06	6.62e-06	417.52	147.38	132.24	51.167	6.3602e-06	59.597	-130.083	-43.530	-56.434	-125.013	5.564	0.413	-125.963	-119.965	-3.939	-0.098	-121.679	-117.794	-115.786	-109.520	-7.935	-112.172	-8191	255	
1965.438	1	1	0	0	0.13688	0.22741	0.17561	0.22574	0.1627	0.15813	0.15375	0.2715	0.097548	0.24148	0.17352	0.15021	0.2826	0.065163	0.15599	0.23112	-2.3896	-3.7833	-2.6375	-3.1083	-3.4042	-2.6875	-3.6813	-3.1937	-2.8521	-3.5958	-3.1312	-3.0125	-3.6229	-2.8375	-3.3542	-3.2687	7.303	34.182	180.259	-132.189	18.877	-103.002	-111.927	165.522	-14.323	-5.810	97.581	195.945	-135.866	181.578	129.302	-122.567	0.00033975	0.00051411	9.0616e-05	963.07	1.7717e-06	5.3075e-06	1024.7	349.33	4.8039e-06	4.8922e-06	398.56	138.89	123.51	48.596	3.8021e-06	56.674	0.00056308	0.00063065	0.00017593	1006.6	7.0101e-06	6.9461e-06	1074.1	367.85	7.0609e-06	7.0486e-06	417.33	147.61	132.51	51.799	6.9384e-06	60.412	-131.167	-37.311	-69.597	-124.641	16.643	5.530	-125.805	-119.929	-0.966	10.080	-121.617	-117.710	-115.491	-109.405	-20.143	-111.938	-8191	255	
1965.557	1	1	0	0	0.21106	0.26928	0.31228	0.16438	0.12868	0.16946	0.10669	0.20251	0.14413	0.12657	0.37526	0.087339	0.066801	0.037947	0.038026	0.024937	-2.5646	-3.4583	-3.025	-3.0354	-3.5438	-2.8979	-3.2979	-3.3479	-2.7188	-3.4125	-3.2104	-3.0479	-3.8146	-2.8979	-3.3167	-3.3729	164.717	132.902	100.411	189.080	54.316	-98.827	90.003	85.605	43.758	8.477	172.286	-0.193	-37.334	144.077	-26.719	113.171	0.00033362	0.00054706	0.00016143	961.09	3.333e-06	4.312e-06	1027.2	350.1	3.7536e-06	6.2216e-06	396	138.25	123.73	48.41	2.3485e-06	55.981	0.00059181	0.00066091	0.00018056	1004.9	7.0798e-06	7.2531e-06	1074	368.61	7.2013e-06	6.7304e-06	416.21	147.6	132.21	51.532	6.7012e-06	59.453	-131.067	-24.424	-46.501	-124.634	22.898	22.242	-125.815	-119.942	-10.571	12.324	-121.632	-117.926	-115.469	-109.648	16.910	-111.896	-8191	255	
1965.653	1	1	0	0	0.083233	0.23688	0.084247	0.27495	0.28328	0.16352	0.1899	0.12524	0.21524	0.11736	0.17588	0.11713	0.10796	0.099887	0.15476	0.18625	-2.3688	-3.6521	-3.0083	-3.0083	-3.6437	-2.8604	-3.5042	-3.5729	-2.9646	-3.5396	-3.3021	-3.1458	-3.7625	-2.9792	-3.1792	-3.5687	-38.373	110.986	119.094	213.837	-92.542	205.526	123.066	123.466	80.880	-73.441	-129.654	187.622	144.730	-92.742	89.492	-58.076	0.00033398	0.0004772	0.00011561	960.33	3.421e-06	5.4773e-06	1016.9	347.25	4.7956e-06	4.8139e-06	391.67	135.51	121.36	47.051	2.4909e-06	54.361	0.00057735	0.00064366	0.00017626	1002.2	6.7607e-06	7.1886e-06	1066.4	366.05	7.1268e-06	6.5284e-06	411.6	144.62	130.12	50.102	6.849e-06	57.855	-128.135	-47.413	-54.537	-124.684	1.558	18.100	-125.660	-119.833	-0.606	9.109	-121.907	-117.778	-115.609	-109.318	18.779	-112.187	-8191	255	
1965.750	1	1	0	0	0.10584	0.20155	0.19607	0.1205	0.29297	0.21905	0.13457	0.068225	0.058151	0.039928	0.15538	0.062552	0.18038	0.1893	0.21751	0.23417	-2.5917	-3.4062	-3.2396	-3.0292	-3.7042	-2.9125	-3.1479	-3.6896	-2.95	-3.4417	-3.3625	-2.9708	-3.5021	-3.1833	-3.0854	-3.8104	217.636	94.915	111.847	122.310	-96.403	-38.003	99.972	-9.306	98.686	154.650	184.623	-56.324	180.279	54.015	170.883	-120.366	0.00032863	0.00052019	0.00016906	957.56	3.402e-06	4.5767e-06	1015.4	346.92	2.5268e-06	5.4378e-06	394.36	135.84	121.06	46.704	2.7712e-06	54.374	0.00056675	0.00061435	0.0001701	1000.3	6.4094e-06	6.8328e-06	1062.5	365.59	6.6706e-06	6.2148e-06	413.01	144.19	129.87	49.567	6.4608e-06	57.688	-128.516	-63.296	-46.956	-124.588	12.243	13.395	-125.985	-119.885	3.201	33.239	-121.921	-118.104	-115.509	-109.437	-57.817	-111.832	-8191	255	
1965.870	1	1	0	0	0.13077	0.085675	0.20724	0.32899	0.1885	0.18873	0.39502	0.29259	0.24581	0.16977	0.26256	0.27452	0.24564	0.20627	0.28208	0.20046	-2.5292	-3.3458	-3.5208	-2.7208	-3.5312	-3.125	-2.9813	-3.6771	-2.9229	-3.2771	-3.4854	-2.9604	-3.6437	-3.3042	-2.9313	-3.7833	130.625	20.244	9.878	-106.705	-53.839	-19.149	160.329	150.665	141.842	-98.465	141.324	119.841	194.259	197.363	-114.691	6.217	0.00032766	0.00059376	0.00012999	964.19	4.3675e-06	5.1031e-06	1027	351.83	3.0659e-06	5.8613e-06	398.57	138.66	124.16	47.709	2.7592e-06	55.697	0.00054556	0.00056831	0.00015748	1007.9	6.13e-06	6.4669e-06	1074.3	369.93	6.6087e-06	6.2341e-06	418.4	147.66	132.62	50.935	6.6392e-06	59.327	-131.250	-54.990	-62.748	-124.731	-5.321	5.430	-125.735	-120.068	-4.065	17.540	-122.017	-117.819	-115.724	-109.538	19.848	-111.993	-8191	255	
1965.942	1	1	0	0	0.17997	0.058201	0.21453	0.013837	0.17124	0.081069	0.21322	0.11402	0.094733	0.17908	0.077253	0.26751	0.13989	0.30312	0.17335	0.13367	-2.5896	-2.875	-3.4688	-2.7938	-3.5021	-3.4208	-3.0354	-3.9062	-2.9021	-3.2313	-3.6229	-2.7646	-3.3979	-3.4917	-2.9125	-3.7167	-36.972	128.424	109.436	168.581	29.562	-118.998	117.283	203.859	189.316	80.086	-60.147	181.866	201.834	-123.684	138.336	175.868	0.00035586	0.00052885	0.00015495	967.57	3.0381e-06	5.5382e-06	1027.3	350.7	3.0314e-06	5.8046e-06	397.47	140.42	124.87	49.09	3.2477e-06	56.878	0.00056218	0.0005775	0.00016749	1009.4	6.3892e-06	7.1583e-06	1076.1	369.48	7.0635e-06	6.9595e-06	417.53	149.61	133.93	52.279	7.508e-06	60.658	-128.802	-40.139	-50.346	-124.940	19.091	25.612	-125.763	-119.827	-19.972	6.527	-121.902	-117.701	-115.401	-109.562	4.310	-112.217	-8191	255	
1966.038	1	1	0	0	0.11554	0.2031	0.12072	0.13536	0.016791	0.069566	0.42457	0.28171	0.19131	0.31115	0.16289	0.28147	0.23193	0.24784	0.15086	0.19865	-2.575	-3.0042	-3.4062	-2.8625	-3.3688	-3.4188	-2.9083	-3.5771	-2.925	-2.8292	-3.9146	-2.8812	-3.5458	-3.6083	-2.8958	-3.6646	27.602	25.786	116.332	48.306	167.181	142.970	138.223	175.673	-131.703	112.791	121.957	133.301	138.819	177.456	-8.345	120.769	0.00033836	0.00060063	9.5147e-05	964.54	3.8589e-06	5.1437e-06	1025.9	351.19	3.8221e-06	4.5566e-06	396.23	140.12	124.63	48.907	4.4067e-06	56.587	0.00060609	0.00064705	0.00018118	1004.9	6.7819e-06	7.3276e-06	1072.1	369.59	7.2047e-06	7.3479e-06	416.16	149.13	133.92	52.236	7.4454e-06	60.196	-132.563	-57.849	-19.702	-124.782	-6.125	11.777	-125.909	-119.853	-13.944	-3.276	-121.980	-117.958	-115.699	-109.551	-11.621	-112.191	-8191	255	
1966.159	1	1	0	0	0.14414	0.27585	0.05741	0.097351	0.20286	0.10064	0.082772	0.26747	0.095196	0.068753	0.28587	0.13857	0.26019	0.10397	0.14995	0.28036	-2.8667	-2.9792	-3.5438	-3.0458	-3.2583	-3.625	-3.0083	-3.5	-3.3812	-2.7083	-3.8229	-2.8792	-3.2562	-3.5354	-2.9417	-3.4188	86.032	95.755	-75.714	-134.614	-45.212	-16.189	-4.299	157.898	39.798	4.562	135.982	105.714	219.271	-99.158	-90.155	-10.618	0.00033595	0.00050837	0.00011819	960.14	2.4355e-06	4.4254e-06	1019	349.97	3.659e-06	4.9009e-06	395.55	138.57	124.41	48.295	3.3715e-06	55.457	0.00060624	0.00065744	0.00018291	1001.9	6.7264e-06	7.4341e-06	1067.7	368.75	7.1525e-06	7.303e-06	415.8	147.84	132.97	51.372	7.5083e-06	59.025	-126.597	-44.641	-58.450	-124.842	43.561	10.246	-125.779	-119.836	-19.765	16.027	-121.847	-118.134	-115.672	-109.657	-25.438	-111.851	-8191	255	
1966.253	1	1	0	0	0.063933	0.34128	0.1578	0.16736	0.079727	0.25572	0.15516	0.24661	0.10131	0.056099	0.09473	0.22242	0.024254	0.07217	0.16611	0.14893	-3	-2.9396	-3.6125	-3.0208	-3.2083	-3.6875	-3.1542	-3.4437	-3.5458	-2.8125	-3.7958	-3.3167	-3.2062	-3.7708	-2.7958	-3.5208	153.058	-82.370	-2.979	-95.108	26.035	141.755	103.238	196.200	-88.349	-64.079	-11.380	117.444	-56.031	-59.395	140.121	-74.545	0.00034288	0.00052825	0.00019587	958.41	5.1398e-06	5.9886e-06	1020.3	350.21	3.6211e-06	8.9583e-06	398.31	138.2	124.94	47.353	2.3947e-06	55.098	0.00060053	0.00064779	0.00018176	1003.8	6.962e-06	7.0654e-06	1068.3	369.41	6.9035e-06	7.361e-06	417.81	147.63	133.12	50.446	7.2457e-06	58.614	-127.047	-48.995	-48.961	-124.826	5.402	16.873	-125.945	-119.835	-13.238	12.706	-121.787	-117.957	-115.535	-109.860	-13.011	-112.176	-8191	255	
1966.349	1	1	0	0	0.12391	0.085066	0.10965	0.37942	0.26149	0.10973	0.41313	0.24588	0.1437	0.22132	0.16674	0.1061	0.10486	0.33621	0.1952	0.12264	-3.2292	-2.8875	-3.5	-3.2708	-2.8625	-3.6604	-3.1771	-3.5333	-3.5708	-2.6854	-3.6292	-3.4313	-3.0396	-3.7458	-2.9708	-3.2521	127.061	-44.566	31.544	166.394	-62.467	176.362	149.594	175.675	72.483	130.753	124.384	179.154	129.658	207.159	6.613	-68.683	0.00034643	0.00041045	0.00012963	973.93	3.6616e-06	3.9509e-06	1036.3	357.12	3.8839e-06	5.8472e-06	405.05	141.89	126.94	48.184	3.9145e-06	56.337	0.00057766	0.00062295	0.00017143	1017.6	6.7219e-06	6.5841e-06	1084.2	376.2	6.6905e-06	7.0312e-06	425.44	151.3	136.1	51.43	6.9438e-06	59.834	-125.622	-78.177	-59.661	-124.832	-7.372	0.548	-125.958	-119.768	-13.903	6.280	-121.880	-118.054	-115.798	-109.709	4.462	-112.270	-8191	255	
1966.445	1	1	0	0	0.14176	0.14847	0.13464	0.2837	0.082845	0.13859	0.099763	0.20479	0.25415	0.1797	0.24516	0.22791	0.3178	0.37357	0.0059648	0.086561	-3.0292	-2.6437	-3.4625	-3.5375	-2.8063	-3.6292	-3.1104	-3.4104	-3.4458	-2.8979	-3.6792	-3.4125	-2.8958	-3.7521	-2.8896	-3.0875	80.395	30.038	117.066	193.847	-102.877	-78.655	-24.458	91.801	221.717	55.248	39.804	180.141	203.578	142.323	97.846	-86.455	0.00032595	0.00066624	0.00012984	984.82	3.4942e-06	5.772e-06	1045.2	360.5	3.4876e-06	4.0144e-06	408.51	144.62	127.92	49.459	4.0658e-06	57.305	0.00057456	0.00063522	0.00017105	1025.7	7.0599e-06	6.6683e-06	1096.1	380.12	6.8219e-06	7.3434e-06	428.42	153.69	137.44	52.8	7.3916e-06	61.102	-131.999	-71.490	-44.243	-124.830	7.265	9.384	-126.013	-119.973	-17.797	11.463	-121.790	-118.269	-115.850	-109.914	-4.932	-112.453	-8191	255	
1966.542	1	1	0	0	0.19173	0.16424	0.17317	0.19119	0.11772	0.078555	0.16966	0.37798	0.086636	0.15877	0.089432	0.10626	0.16755	0.09707	0.085299	0.09427	-3.0958	-2.8167	-3.3833	-3.3542	-2.8312	-3.6708	-3.1396	-3.2333	-3.4042	-2.9229	-3.3937	-3.475	-2.7646	-3.5708	-3.1063	-3.0792	104.092	209.898	-22.475	-131.638	-81.058	-29.122	-122.397	173.020	11.040	-94.865	83.369	216.334	166.865	-103.560	60.083	219.444	0.00032585	0.00031624	0.00015567	975.89	3.2716e-06	4.5924e-06	1036	355.72	3.4784e-06	5.366e-06	403.66	142.66	127.42	49.606	2.6012e-06	57.139	0.00061637	0.0006943	0.00018425	1018.4	7.7237e-06	7.3395e-06	1084.6	375.68	7.5239e-06	7.9213e-06	423.24	152.2	136.81	53.073	7.3088e-06	60.999	-128.504	-49.064	-59.499	-124.602	0.179	-4.437	-125.925	-120.011	-13.900	24.446	-121.692	-118.076	-115.472	-109.682	43.263	-112.293	-8191	255	
1966.638	1	1	0	0	0.033772	0.22681	0.27659	0.29419	0.2207	0.12027	0.077909	0.063673	0.17076	0.13788	0.12355	0.11112	0.26125	0.15428	0.24812	0.076714	-3.4062	-2.7646	-3.25	-3.4875	-2.9229	-3.5458	-3.2062	-3.0042	-3.5979	-2.9146	-3.2667	-3.55	-2.8604	-3.4875	-3.2542	-2.9083	127.200	-137.094	-112.971	172.743	-84.461	69.717	-131.376	72.534	-118.131	185.278	186.475	158.867	160.948	-119.763	152.462	-65.186	0.0003467	0.0005986	0.00010676	967.76	2.477e-06	5.608e-06	1029.5	356.34	4.1434e-06	5.1887e-06	399.09	142.52	127.27	49.326	3.4273e-06	56.834	0.00060541	0.00071778	0.0001885	1013.2	7.7248e-06	7.2795e-06	1080	375.22	7.5313e-06	7.8334e-06	421.43	151.81	136.15	52.627	7.3017e-06	60.474	-130.146	-43.214	-46.128	-124.686	27.231	21.132	-125.751	-119.774	-10.407	26.896	-121.737	-118.316	-115.748	-109.583	-9.603	-112.055	-8191	255	
1966.734	1	1	0	0	0.17303	0.20066	0.18317	0.11925	0.080559	0.088176	0.094439	0.098268	0.20824	0.23281	0.14586	0.15406	0.11986	0.040636	0.22294	0.1579	-3.3479	-2.7333	-2.9875	-3.75	-3.0229	-3.5125	-3.5458	-3.0208	-3.5333	-3.1875	-3.0646	-3.6833	-2.9938	-3.5438	-3.2583	-2.8292	-118.464	141.427	90.098	133.702	131.279	194.511	200.910	139.610	-136.337	172.395	-47.134	210.107	88.647	180.896	-93.620	116.147	0.00034901	0.00041825	0.00018986	967.91	2.5682e-06	4.238e-06	1026.4	352.23	4.1408e-06	5.4866e-06	399.86	140.42	124.94	48.102	2.8417e-06	55.73	0.00058784	0.00070197	0.00018055	1010.1	7.3377e-06	6.8399e-06	1075.9	372.03	6.9819e-06	7.2002e-06	419.6	149.29	133.95	51.247	7.0088e-06	59.17	-130.662	-48.932	-51.101	-124.740	11.659	-4.634	-126.034	-119.849	-14.489	20.973	-121.815	-118.081	-115.596	-109.582	-1.687	-112.127	-8191	255	
1966.830	1	1	0	0	0.19746	0.090275	0.085592	0.33093	0.21372	0.13871	0.26708	0.25473	0.084892	0.088033	0.34787	0.087364	0.3707	0.10163	0.18916	0.1311	-3.25	-3	-2.8187	-3.7125	-3.075	-3.3187	-3.8104	-2.6583	-3.5479	-3.0792	-3.0667	-3.4938	-2.9333	-3.3125	-3.6354	-2.9021	205.089	-60.484	78.966	170.350	187.141	156.002	104.400	-132.917	197.628	-102.005	-93.323	217.751	187.703	212.706	9.656	116.963	0.00034078	0.00062552	0.00011041	972.74	3.4663e-06	5.0944e-06	1033.9	356.6	3.5464e-06	5.0012e-06	401.96	140.76	125.07	47.437	3.2516e-06	55.055	0.00056215	0.00067112	0.00017233	1014.2	7.0663e-06	6.6246e-06	1080.1	375.15	6.7562e-06	6.7267e-06	423.04	149.81	134.27	50.528	6.4936e-06	58.707	-129.559	-71.124	-38.799	-124.716	11.405	-7.301	-125.776	-119.875	-7.009	6.511	-121.948	-118.096	-115.772	-109.627	-4.508	-112.039	-8191	255	
1966.951	1	1	0	0	0.14398	0.12188	0.15773	0.043275	0.17261	0.017799	0.10969	0.27152	0.13897	0.10079	0.15345	0.18872	0.1342	0.26969	0.16128	0.30211	-3.1021	-3.1437	-2.8521	-3.7146	-2.9562	-3.3063	-3.5729	-2.9313	-3.4229	-3.1	-2.9604	-3.7375	-3	-3.2479	-3.6083	-3.0333	124.916	-104.011	-87.764	162.814	-111.873	211.349	106.731	-135.054	211.087	104.106	-134.293	-118.579	78.760	-121.547	-117.280	-37.654	0.00032335	0.00042519	0.00019452	981.54	3.8783e-06	6.5554e-06	1037.9	357.7	3.8154e-06	6.9309e-06	405.13	141.7	126.95	48.174	3.5125e-06	55.694	0.00053095	0.00061884	0.00016383	1023.5	6.3075e-06	6.4182e-06	1089	377.53	6.2606e-06	6.1397e-06	425.53	150.98	135.66	51.376	6.3018e-06	59.243	-126.568	-49.569	-33.140	-124.670	9.165	0.912	-125.847	-119.841	-17.678	20.188	-121.617	-117.901	-115.952	-109.792	-26.098	-112.467	-8191	255	
1967.047	1	1	0	0	0.27707	0.11615	0.029408	0.15408	0.09514	0.083343	0.13465	0.26552	0.20249	0.093158	0.16609	0.026334	0.063446	0.19089	0.15794	0.098755	-3.1125	-3.2833	-2.8792	-3.6937	-3.0896	-2.9042	-3.7	-2.9083	-3.5458	-3.4333	-2.8438	-3.4604	-3.15	-3.0979	-3.4604	-2.9833	31.824	197.866	-125.906	-132.799	88.813	74.659	83.930	166.873	95.635	44.373	79.464	-124.050	204.662	103.244	-66.059	-101.983	0.00033874	0.0004573	0.00012133	978.22	3.8622e-06	4.6471e-06	1037.7	356.27	3.6735e-06	5.7238e-06	401.15	141.67	127.02	48.854	3.8964e-06	56.143	0.00053564	0.00059433	0.00016416	1022.1	6.3346e-06	6.4281e-06	1086.2	375.67	6.4569e-06	6.556e-06	421.15	150.62	135.72	52.021	7.0717e-06	59.777	-128.759	-64.323	-49.229	-124.898	7.744	23.175	-125.903	-120.095	-11.770	1.170	-121.927	-117.945	-115.922	-109.629	8.899	-112.154	-8191	255	
1967.143	1	1	0	0	0.11728	0.17017	0.26623	0.04896	0.19724	0.037117	0.15295	0.30935	0.14339	0.14211	0.089509	0.11447	0.081158	0.2452	0.1156	0.27948	-2.7896	-3.3083	-2.8063	-3.5687	-3.2125	-2.7458	-3.8167	-2.9938	-3.1292	-3.6271	-3.1083	-3.4896	-3.3979	-2.9229	-3.6271	-2.9125	13.312	-23.172	198.959	-48.151	-1.470	-6.980	59.317	172.384	-102.790	155.128	-80.668	218.831	206.969	159.293	-5.652	50.327	0.00033787	0.00050841	0.0001352	968.76	3.111e-06	3.7117e-06	1028.4	353.41	3.31e-06	4.0274e-06	398.34	140.8	126.07	49.083	3.3261e-06	56.789	0.00056663	0.00065444	0.00018434	1011.4	6.819e-06	7.2381e-06	1077	372.08	6.8349e-06	7.0025e-06	418.57	149.93	135.12	52.415	7.1501e-06	60.393	-127.681	-57.186	-53.908	-124.626	-6.901	12.420	-125.770	-119.897	-0.099	10.396	-121.684	-117.984	-115.660	-109.688	5.125	-112.266	-8191	255	
1967.239	1	1	0	0	0.29067	0.13844	0.20241	0.19953	0.037314	0.24183	0.15513	0.22678	0.1359	0.16284	0.16946	0.13697	0.18194	0.24158	0.20196	0.060443	-2.5979	-3.4396	-2.8229	-3.5625	-3.4292	-2.7917	-3.8187	-3.2146	-3.0062	-3.6312	-2.6792	-3.3792	-3.2875	-3.0625	-3.3937	-3.2854	175.493	113.848	67.303	201.409	180.424	-10.583	199.130	164.988	-27.860	108.002	92.007	-67.186	-120.095	-59.983	48.119	56.190	0.00036074	0.00055869	0.00014657	971.56	5.5663e-06	4.7844e-06	1032.4	353.91	3.7796e-06	5.2774e-06	401.01	141.82	126.39	49.227	3.549e-06	56.645	0.00058609	0.00064843	0.00019012	1013	6.9968e-06	7.5667e-06	1080.1	373.27	7.1801e-06	7.2438e-06	421.11	150.87	135.49	52.405	7.2353e-06	60.361	-128.644	-54.289	-50.636	-124.625	6.630	-9.053	-125.882	-119.872	-28.561	14.366	-121.775	-117.942	-115.738	-109.746	-23.466	-112.374	-8191	255	
1967.333	1	1	0	0	0.10382	0.16909	0.04728	0.081843	0.13585	0.093661	0.18155	0.10323	0.001768	0.21184	0.1646	0.13763	0.14694	0.30941	0.075892	0.14719	-2.7375	-3.5333	-2.6021	-3.2354	-3.4125	-2.6146	-3.6646	-3.1688	-3.1125	-3.6792	-2.7958	-3.3896	-3.3979	-2.975	-3.5229	-3.3042	201.018	-129.444	130.958	-104.776	-22.790	-5.114	97.089	128.838	180.000	28.617	201.634	117.415	78.443	-78.906	21.698	-98.348	0.00034206	0.00046058	0.00012009	974.66	2.512e-06	4.4933e-06	1032.4	354.58	3.0126e-06	4.855e-06	401.83	141.18	125.63	48.611	4.1661e-06	56.056	0.0006023	0.00066139	0.00019024	1015.6	6.9363e-06	7.52e-06	1081	373.79	7.121e-06	7.2594e-06	422.28	150.43	134.55	51.76	7.0332e-06	59.754	-128.801	-36.019	-59.746	-124.762	8.024	10.303	-125.662	-119.832	-7.285	15.890	-121.994	-117.892	-115.514	-109.487	3.082	-112.017	-8191	255	
1967.430	1	1	0	0	0.121	0.2798	0.1143	0.20412	0.099357	0.10077	0.032677	0.19096	0.12446	0.18051	0.061082	0.33018	0.17311	0.27824	0.064971	0.1058	-2.4417	-3.7	-2.8125	-3.275	-3.6292	-2.9833	-3.5917	-3.6229	-2.7708	-3.8479	-2.975	-3.0125	-3.7979	-2.8083	-3.3937	-3.3917	105.262	176.881	40.081	-58.240	193.401	212.070	195.073	198.877	169.587	159.632	125.106	178.691	15.798	73.049	174.809	201.069	0.00032611	0.00033089	0.00015277	973.76	3.9643e-06	5.5556e-06	1031.4	354.42	2.9247e-06	6.6907e-06	400.19	139.67	125.04	47.525	4.8247e-06	55.137	0.00060017	0.00062031	0.00018772	1017.4	6.7726e-06	7.3392e-06	1081.3	373.84	6.7085e-06	6.6721e-06	420.13	148.53	133.81	50.709	6.537e-06	58.515	-128.776	-43.809	-88.973	-124.777	-4.429	20.651	-125.836	-119.935	-5.362	7.953	-121.863	-117.891	-115.540	-109.519	-3.510	-112.373	-8191	255	
1967.550	1	1	0	0	0.36646	0.28488	0.2745	0.10396	0.077399	0.30695	0.11808	0.243	0.18955	0.070241	0.15107	0.066489	0.24354	0.22312	0.089157	0.12011	-2.3771	-3.4833	-2.8604	-3.4021	-3.5792	-2.8771	-3.3833	-3.4708	-2.875	-3.4917	-3.1042	-2.8104	-3.8125	-2.8521	-3.2188	-3.3937	161.800	220.117	-87.416	-89.949	159.435	-107.873	39.609	-111.817	-133.528	131.736	182.634	16.181	-51.579	-134.704	83.107	144.141	0.00033102	0.0006288	0.00013819	977.52	3.1479e-06	6.0327e-06	1034.5	354.93	3.4318e-06	4.377e-06	402.46	139.41	125.41	47.813	3.0359e-06	54.875	0.00055926	0.0005583	0.00016872	1020.5	6.047e-06	6.5983e-06	1084.7	375.02	6.3734e-06	6.2802e-06	421.7	148.7	133.94	50.769	6.2362e-06	58.603	-126.851	-57.255	-45.400	-124.785	29.774	6.488	-125.741	-120.028	-8.925	1.459	-121.757	-117.952	-115.754	-109.789	12.393	-112.192	-8191	255	
1967.646	1	1	0	0	0.099853	0.015958	0.25029	0.33768	0.23635	0.19061	0.24175	0.086255	0.16349	0.24386	0.21312	0.3095	0.2039	0.17844	0.038698	0.23356	-2.3958	-3.3812	-3.2104	-3.0438	-3.6104	-2.7708	-3.4313	-3.5417	-2.8312	-3.5062	-3.3458	-2.8521	-3.7	-2.9813	-3.3271	-3.6021	179.407	-29.793	-111.216	154.121	129.848	148.113	78.752	-10.668	144.840	197.092	179.500	6.797	154.413	183.773	-51.042	188.448	0.0003319	0.00070328	0.0001738	982.18	3.9507e-06	3.7161e-06	1041.2	357.8	4.5154e-06	4.7211e-06	404.51	142.14	127	48.552	4.4445e-06	56.297	0.00055453	0.00055058	0.00016215	1024.6	6.0862e-06	6.4977e-06	1090.3	377.06	6.4325e-06	6.3363e-06	424.75	151.16	135.82	51.712	6.5395e-06	59.999	-128.907	-46.350	-54.924	-124.663	15.743	28.223	-125.871	-120.015	-22.185	25.018	-121.959	-117.992	-115.745	-109.785	12.910	-112.187	-8191	255	
1967.743	1	1	0	0	0.2615	0.19495	0.21511	0.44093	0.13336	0.27518	0.15559	0.12295	0.22304	0.11278	0.31678	0.075649	0.18694	0.28941	0.21546	0.15176	-2.525	-3.4083	-3.1771	-3.0792	-3.5438	-3	-3.2979	-3.6729	-2.8604	-3.2896	-3.4813	-2.9479	-3.5708	-3.2125	-3.0187	-3.6583	146.739	79.430	105.481	-123.758	62.491	45.537	-92.848	21.339	4.103	185.559	179.576	-129.875	-51.726	201.246	6.896	133.562	0.00035406	0.00051793	0.00017834	977.02	3.9326e-06	4.2153e-06	1039.1	356.33	3.8141e-06	7.7167e-06	402.22	142.64	126.61	49.487	3.5593e-06	57.403	0.00057186	0.00058191	0.00017465	1020.2	6.5856e-06	6.9464e-06	1086.5	375.28	7.2325e-06	6.9598e-06	423.64	151.86	136.08	52.707	7.1151e-06	60.985	-129.493	-33.964	-68.784	-124.596	-2.623	-3.979	-125.661	-119.949	-23.197	14.704	-121.712	-117.930	-115.550	-109.607	-14.028	-112.159	-8191	255	
1967.839	1	1	0	0	0.16497	0.16044	0.10817	0.1478	0.025929	0.1769	0.21356	0.16493	0.14059	0.18369	0.15951	0.18282	0.062288	0.10921	0.093717	0.1695	-2.3625	-3.3375	-3.3479	-3.0583	-3.6875	-3.2562	-3.2062	-3.8104	-3.0062	-3.4354	-3.6979	-2.9167	-3.5708	-3.2771	-2.7729	-3.7667	102.821	78.559	67.166	169.180	22.264	-136.040	60.428	-114.073	-90.859	98.753	-129.640	-49.621	37.298	-0.818	-37.709	120.247	0.00034927	0.00047225	0.00015873	976.49	5.1531e-06	4.2246e-06	1033.6	355.28	3.7796e-06	5.2248e-06	399.78	142.08	126.75	49.356	5.0761e-06	56.957	0.00061869	0.00064792	0.00018157	1017.4	6.8671e-06	7.1353e-06	1083	374.61	7.2402e-06	7.0642e-06	421.47	151.15	135.51	52.635	7.0982e-06	60.588	-129.427	-38.729	-67.051	-124.591	4.354	-18.386	-125.773	-119.969	-11.129	10.936	-121.814	-117.909	-115.603	-109.785	26.205	-112.302	-8191	255	
1967.935	1	1	0	0	0.11334	0.13202	0.18615	0.16998	0.19551	0.15658	0.43335	0.29	0.1701	0.20473	0.1773	0.16604	0.15796	0.23507	0.14228	0.020291	-2.6417	-3.0958	-3.6083	-2.9938	-3.5667	-3.3083	-2.9396	-3.6479	-3.175	-3.1083	-3.7979	-2.8458	-3.5167	-3.5375	-2.7625	-3.6188	-56.074	41.442	134.362	184.592	-90.481	145.457	130.556	219.055	-38.739	-91.423	-15.917	-129.951	186.369	190.376	1.513	177.507	0.00030232	0.00066932	0.00017242	971.42	2.0539e-06	5.0859e-06	1029	355.03	4.036e-06	4.7493e-06	399.12	139.87	125.27	48.381	4.9124e-06	55.46	0.00059885	0.00063904	0.00018248	1014.7	6.8705e-06	7.0435e-06	1079.3	373	7.3014e-06	6.9549e-06	418.65	149.23	134.45	51.568	7.0903e-06	59.017	-125.740	-18.321	-66.017	-124.480	34.256	4.618	-125.762	-119.911	10.938	-2.821	-121.875	-118.060	-115.603	-109.717	-16.765	-112.013	-8191	255	
1968.031	1	1	0	0	0.16096	0.18047	0.13936	0.11901	0.10787	0.26944	0.18993	0.25646	0.15844	0.18452	0.16277	0.099307	0.25977	0.19026	0.20765	0.090014	-2.8333	-3.0062	-3.6146	-2.9562	-3.4271	-3.3896	-3.1333	-3.6396	-3.1562	-3.0167	-3.8937	-2.9604	-3.1875	-3.5146	-2.7188	-3.6583	194.331	136.505	120.790	-88.407	47.978	-93.152	208.185	-119.013	10.926	-134.765	207.112	186.065	186.118	-103.059	25.996	139.187	0.00035088	0.00049937	0.00011445	969.62	3.6961e-06	5.9341e-06	1024.7	352.34	3.012e-06	7.5176e-06	396.99	138.14	124.37	47.217	4.5296e-06	54.687	0.00058308	0.00063789	0.00017174	1012.5	6.6301e-06	6.6263e-06	1073.5	371.11	7.1032e-06	6.7748e-06	416.89	147.23	132.83	50.406	6.9326e-06	58.151	-128.982	-53.523	-53.704	-124.757	23.998	-6.694	-125.722	-119.889	-11.400	23.485	-121.741	-117.926	-115.533	-109.487	3.683	-112.103	-8191	255	
1968.127	1	1	0	0	0.37418	0.19839	0.2287	0.11789	0.1604	0.19421	0.072139	0.10868	0.25292	0.23872	0.096744	0.20757	0.15885	0.081758	0.28632	0.14638	-2.6875	-2.9208	-3.7354	-2.9708	-3.2875	-3.5646	-2.9313	-3.5792	-3.3229	-3.0292	-3.6854	-2.9854	-3.2271	-3.7146	-2.7521	-3.5375	-12.057	135.176	79.726	90.854	102.994	-104.627	-86.047	-83.552	73.733	63.093	-123.946	189.318	175.732	-3.703	28.724	170.461	0.00033179	0.00049843	0.00013272	968.9	3.1534e-06	3.3371e-06	1023.9	352.91	3.6193e-06	4.616e-06	397.96	138.37	122.94	46.68	4.7028e-06	54.252	0.00055668	0.00063388	0.00016285	1012.7	6.4463e-06	6.3949e-06	1074.4	371.29	6.7599e-06	6.5588e-06	416.69	146.62	131.81	49.744	6.8277e-06	57.775	-127.373	-41.111	-36.107	-124.806	9.385	16.973	-125.942	-119.877	4.161	-7.117	-121.823	-117.830	-115.780	-109.503	26.142	-112.098	-8191	255	
1968.246	1	1	0	0	0.16617	0.097691	0.099581	0.10744	0.081452	0.16164	0.1518	0.199	0.025174	0.1782	0.16894	0.41717	0.18841	0.20487	0.37469	0.25797	-3.0042	-2.6833	-3.5833	-3.1604	-3.2333	-3.6875	-2.8146	-3.6188	-3.1667	-2.9229	-3.775	-3.025	-3.1375	-3.6708	-3.0417	-3.3458	29.222	219.853	123.637	141.894	203.003	-130.308	43.585	172.544	-30.760	63.784	57.350	-128.669	74.183	-101.233	-126.642	-36.845	0.00031643	0.00039993	0.00012644	972.08	4.4536e-06	4.1369e-06	1028.5	353.52	3.2165e-06	6.6701e-06	399.26	139.2	124.2	46.874	3.8012e-06	54.594	0.00053999	0.00061268	0.00015569	1015.3	6.2001e-06	6.3935e-06	1076.6	372.43	6.5496e-06	6.3847e-06	419.35	147.73	132.92	49.996	6.616e-06	58.086	-125.485	-72.935	-46.586	-124.643	8.773	12.258	-125.960	-119.803	7.887	32.638	-121.798	-117.771	-115.496	-109.369	-10.790	-111.913	-8191	255	
1968.342	1	1	0	0	0.20143	0.10377	0.13464	0.21989	0.15637	0.064555	0.27355	0.26763	0.18613	0.18875	0.32468	0.040236	0.12969	0.23619	0.14638	0.17532	-3.0542	-2.6792	-3.6333	-3.175	-3.0687	-3.6063	-2.8625	-3.3604	-3.425	-2.7771	-3.5625	-3.2958	-2.9042	-3.7083	-2.9771	-3.3333	-3.741	44.845	145.728	-131.274	32.235	150.533	142.347	184.433	56.437	174.815	168.185	73.534	-34.922	-66.305	122.316	171.595	0.00031449	0.00054542	0.0001199	976.87	3.8645e-06	4.8283e-06	1035.4	354.51	3.4395e-06	4.858e-06	399.33	139.08	124.76	47.569	4.3229e-06	55.367	0.00052884	0.0006008	0.00015221	1018.6	5.9597e-06	6.2678e-06	1080.1	374.15	6.2357e-06	6.4183e-06	419.61	148.08	133.53	50.769	6.7752e-06	58.727	-130.169	-37.409	-50.619	-124.651	20.126	12.759	-125.850	-119.815	3.178	19.349	-121.809	-118.026	-115.453	-109.431	0.031	-112.183	-8191	255	
1968.414	1	1	0	0	0.090482	0.020868	0.092882	0.061504	0.13752	0.20465	0.15703	0.06658	0.28787	0.070248	0.10534	0.087319	0.24906	0.15192	0.14333	0.21004	-2.9875	-2.7417	-3.4271	-3.1354	-2.875	-3.5458	-3.2	-3.3729	-3.5687	-2.8604	-3.6542	-3.4521	-2.7604	-3.675	-3.0667	-3.1125	-69.964	-9.874	110.229	101.687	20.123	193.576	138.170	-11.660	181.276	-116.047	129.775	-133.182	172.781	-128.559	73.594	177.265	0.00034346	0.00045375	0.00015423	972.52	3.6735e-06	6.7509e-06	1030.9	352.39	4.6141e-06	5.6298e-06	395.78	138.01	124.17	47.981	4.1563e-06	55.32	0.00054191	0.00061317	0.00015764	1016.3	6.5702e-06	6.7175e-06	1076.2	371.48	6.7758e-06	7.0565e-06	415.55	147.3	133.01	51.053	7.2646e-06	58.844	-128.484	-38.749	-53.881	-124.860	-0.310	2.565	-125.911	-119.915	-13.240	-5.232	-121.566	-117.579	-115.520	-109.459	12.732	-112.018	-8191	255	
1968.512	1	1	0	0	0.057232	0.096943	0.15487	0.085539	0.24282	0.10572	0.19962	0.17864	0.12918	0.055473	0.062606	0.027102	0.11164	0.29377	0.23097	0.18239	-3.1667	-2.6813	-3.5042	-3.325	-2.7917	-3.5021	-3.0583	-3.1479	-3.8312	-2.6792	-3.7062	-3.4125	-2.7771	-3.7083	-3.1063	-3.0229	-101.125	-61.147	-71.719	-125.687	-128.422	-21.636	183.919	170.698	180.100	-123.693	100.777	-51.982	132.883	217.907	213.118	181.377	0.00032441	0.00062521	8.4757e-05	965.19	2.5912e-06	4.2664e-06	1023.8	350.48	4.9473e-06	6.3256e-06	394.47	138.21	124.63	48.181	5.0513e-06	55.961	0.00057669	0.00066843	0.00017215	1008.4	6.7859e-06	6.8662e-06	1071.5	369.35	6.7642e-06	7.2378e-06	414.94	147.59	133.03	51.369	7.1637e-06	59.45	-130.922	-73.893	-68.848	-124.557	17.959	1.485	-125.783	-119.782	-20.338	-2.012	-121.536	-117.939	-115.475	-109.407	-8.599	-111.876	-8191	255	
1968.631	1	1	0	0	0.17887	0.16183	0.096963	0.11812	0.20406	0.0085229	0.26922	0.2076	0.11316	0.165	0.11825	0.11686	0.039957	0.083819	0.17935	0.27148	-3.3208	-2.8312	-3.3	-3.6104	-2.8375	-3.6125	-3.4417	-2.9521	-3.5979	-2.9938	-3.3146	-3.4979	-2.9417	-3.5167	-3.15	-2.875	-73.032	5.428	-26.634	155.365	-108.458	161.647	163.277	117.958	220.196	-112.218	-71.021	-21.808	88.118	183.618	166.937	131.513	0.00031751	0.0004402	0.00017273	965.7	4.5017e-06	4.4515e-06	1027.8	352.61	1.6284e-06	7.9892e-06	398.07	139.57	124.84	48.359	3.4207e-06	56.153	0.00057304	0.00066696	0.00017414	1010.3	6.9371e-06	6.9334e-06	1075.7	371.55	6.6961e-06	7.3977e-06	418.52	148.79	133.86	51.665	7.3503e-06	59.841	-128.006	-57.063	-48.583	-124.673	30.631	-1.148	-125.873	-119.735	-12.267	7.462	-121.952	-117.893	-115.575	-109.369	9.078	-112.022	-8191	255	
1968.727	1	1	0	0	0.18696	0.11064	0.14404	0.16444	0.09368	0.22934	0.33035	0.11395	0.022772	0.2497	0.12967	0.086081	0.22244	0.10316	0.070164	0.13232	-3.1729	-3.0729	-3.1688	-3.725	-2.8167	-3.2896	-3.5563	-2.9125	-3.6813	-3.0333	-3.1021	-3.75	-2.9875	-3.4313	-3.3667	-2.8958	78.465	218.404	-92.478	155.606	-128.481	170.482	209.066	-30.353	25.812	-131.931	45.509	-35.276	195.920	52.903	131.389	-25.532	0.00035751	0.00052509	0.00011739	968.23	2.7529e-06	6.6984e-06	1029.9	353.74	3.7875e-06	7.4592e-06	398.25	139.76	125.2	48.152	3.1959e-06	55.871	0.00057498	0.00065685	0.00018104	1012.7	7.1533e-06	7.1472e-06	1079.5	372.66	6.6619e-06	7.4893e-06	418.88	148.91	133.69	51.355	7.0411e-06	59.378	-128.518	-34.231	-43.251	-124.675	-2.395	-3.438	-125.809	-119.708	-13.405	28.025	-121.435	-117.769	-115.755	-109.285	17.886	-112.040	-8191	255	
1968.823	1	1	0	0	0.19263	0.19335	0.27389	0.2226	0.12905	0.057772	0.23855	0.36588	0.053294	0.07824	0.060581	0.27017	0.19886	0.14981	0.084993	0.11651	-3.225	-2.9708	-3.0271	-3.7146	-2.8896	-3.3458	-3.5792	-2.8292	-3.4271	-3.0375	-3.1104	-3.5146	-2.85	-3.3812	-3.3854	-2.9417	120.703	150.115	-58.306	135.925	134.647	64.605	158.433	131.068	-98.905	148.919	-51.715	152.913	220.909	128.603	-95.139	118.065	0.00035076	0.00047678	0.00014902	972.6	4.3602e-06	5.241e-06	1030.8	352.78	3.8203e-06	6.0291e-06	397.6	138.31	123.66	47.686	4.6363e-06	55.046	0.00057254	0.00063976	0.0001808	1014.1	7.0698e-06	6.7521e-06	1075.9	371.91	6.5295e-06	7.1254e-06	417.35	147.42	132.76	50.778	6.7537e-06	58.498	-128.315	-58.083	-50.258	-124.531	11.352	22.962	-125.764	-119.826	-5.978	8.705	-121.751	-117.938	-115.798	-109.428	-11.244	-112.010	-8191	255	
1968.919	1	1	0	0	0.07559	0.29888	0.25509	0.049399	0.10757	0.19873	0.23887	0.13381	0.075564	0.16513	0.22974	0.30387	0.053016	0.34486	0.14508	0.19677	-3.1521	-3.2104	-2.8208	-3.7146	-2.7938	-3.1562	-3.5958	-2.9125	-3.6292	-3.2979	-2.9313	-3.8312	-3.0875	-3.1979	-3.7229	-2.8292	192.912	-1.632	-0.933	-75.707	99.443	-31.939	151.212	108.674	184.800	195.997	-53.473	170.164	-123.030	180.324	-84.965	-50.875	0.00031999	0.00048845	0.00013296	967.24	3.018e-06	4.9512e-06	1022.5	353.35	2.0189e-06	5.6181e-06	397.63	138.31	124	47.146	3.5086e-06	54.938	0.00056146	0.00061117	0.00017963	1011.7	7.0557e-06	6.7461e-06	1073.6	371.41	6.6863e-06	7.0463e-06	416.99	147.24	132.73	50.438	6.7135e-06	58.39	-131.643	-65.688	-27.678	-124.604	21.440	-15.712	-125.720	-119.659	20.956	6.942	-121.759	-117.819	-115.443	-109.467	-1.240	-111.875	-8191	255	
1969.040	1	1	0	0	0.14898	0.11674	0.03904	0.088624	0.11545	0.16775	0.12421	0.21783	0.086439	0.083247	0.29927	0.2369	0.11277	0.12457	0.23702	0.14818	-3.1021	-3.2979	-2.9062	-3.5563	-3.0229	-3.0583	-3.7438	-2.8937	-3.2979	-3.5271	-2.8583	-3.6458	-2.9479	-3.1083	-3.5542	-3.0146	28.669	132.999	102.677	213.542	100.462	-97.515	14.499	-15.279	69.514	202.933	-117.322	-112.470	-32.958	147.242	-96.136	180.905	0.00032579	0.00041975	0.00015007	970.33	3.5603e-06	2.8029e-06	1024.2	352.29	3.2313e-06	5.0393e-06	397.61	137.96	123.37	47.405	4.0361e-06	55.033	0.00057065	0.00061253	0.00018323	1011.4	7.0416e-06	6.7054e-06	1072.7	371.46	6.8163e-06	6.9105e-06	417.59	147.09	132.14	50.392	6.525e-06	58.351	-130.092	-51.392	-60.520	-124.668	8.728	2.362	-125.813	-119.812	0.646	27.696	-121.824	-117.869	-115.454	-109.238	5.707	-111.936	-8191	255	
1969.111	1	1	0	0	0.066421	0.24818	0.3253	0.12779	0.19777	0.058052	0.078412	0.1793	0.10706	0.12949	0.23206	0.037395	0.2865	0.087345	0.087314	0.29036	-2.8458	-3.4833	-2.8542	-3.6583	-3.3438	-3.0271	-3.9125	-3.1542	-3.1042	-3.5792	-2.8563	-3.6917	-3.3229	-3.1188	-3.7313	-3.1208	-48.383	-94.538	158.045	220.718	-100.066	-15.791	-24.281	134.444	-18.035	-46.468	75.595	-118.893	102.074	130.538	-2.506	193.000	0.00030963	0.00038254	0.00017428	963.88	2.9404e-06	5.4825e-06	1027.6	349.29	4.8259e-06	6.2024e-06	398.6	137.26	122.9	46.982	4.4263e-06	54.748	0.00055562	0.00060496	0.00017811	1009	6.7564e-06	6.5901e-06	1074.6	369.17	6.6534e-06	6.6675e-06	416.7	146.29	131.34	50.102	6.3941e-06	58.445	-129.937	-52.353	-40.207	-124.625	-15.357	5.980	-125.630	-119.733	-1.224	26.413	-121.762	-117.493	-115.455	-109.276	10.106	-111.858	-8191	255	
1969.232	1	1	0	0	0.034971	0.12211	0.14137	0.10177	0.10515	0.16432	0.21228	0.3146	0.22478	0.052574	0.1533	0.21812	0.25166	0.044688	0.15596	0.27108	-2.7854	-3.7625	-2.6458	-3.5396	-3.2604	-2.9708	-3.7417	-3.1813	-3.025	-3.7333	-2.9396	-3.7417	-3.4437	-2.8917	-3.6792	-3.2542	-93.361	38.620	205.748	95.428	-27.167	9.545	161.203	175.127	215.731	96.297	76.417	165.838	155.694	-81.943	-137.128	-31.719	0.00032306	0.00040574	0.00017129	968.83	3.5149e-06	5.3688e-06	1024.1	351.54	2.5284e-06	6.1112e-06	396.4	137.32	123.17	46.76	3.0058e-06	54.472	0.00055263	0.0006038	0.00017373	1010.1	6.6331e-06	6.6762e-06	1073.7	370.16	6.7936e-06	6.4695e-06	416.77	146.29	131.47	49.968	6.4275e-06	57.872	-127.941	-77.793	-50.038	-124.409	-10.635	5.469	-125.719	-119.835	6.545	13.758	-121.676	-117.730	-115.628	-109.193	-12.481	-111.884	-8191	255	
1969.326	1	1	0	0	0.037831	0.25549	0.10336	0.13789	0.1188	0.080819	0.213	0.22109	0.12929	0.21131	0.2368	0.28112	0.09243	0.12259	0.21523	0.1755	-2.8375	-3.6188	-3.0083	-3.4688	-3.5167	-2.8542	-3.6042	-3.1396	-3.1937	-3.6625	-3.0979	-3.4313	-3.5938	-2.9083	-3.6604	-3.3167	122.869	53.579	-132.670	215.640	-51.871	93.093	-135.535	189.936	-40.989	73.095	-19.603	172.971	3.153	181.310	106.344	82.214	0.00032344	0.00046307	0.00019433	967.71	2.3045e-06	4.0722e-06	1023	351.51	1.536e-06	6.7279e-06	393.82	136.57	122.53	46.676	2.578e-06	54.124	0.00056234	0.00060545	0.00017734	1009.7	6.5681e-06	6.7501e-06	1069.7	369.65	6.8895e-06	6.5105e-06	414.21	145.49	131.06	49.8	6.4963e-06	57.493	-130.538	-68.650	-48.039	-124.764	1.059	1.947	-125.788	-119.857	-11.494	8.711	-121.698	-117.674	-115.220	-109.340	6.545	-111.837	-8191	255	
1969.423	1	1	0	0	0.19041	0.11358	0.081069	0.22427	0.23979	0.20748	0.095837	0.24233	0.24095	0.083655	0.28732	0.37258	0.094323	0.068001	0.11421	0.16841	-2.7208	-3.5583	-2.875	-3.3708	-3.5042	-2.7188	-3.6562	-3.4125	-2.8917	-3.6188	-3.0938	-3.3292	-3.5958	-2.8854	-3.3708	-3.4292	58.109	98.287	63.413	-104.996	4.717	40.043	197.158	156.479	-19.410	43.260	167.329	165.965	-129.091	-83.432	-96.024	-113.978	0.00033498	0.00055845	0.00015743	967.24	4.2946e-06	5.8406e-06	1019.7	349.83	2.5636e-06	6.5034e-06	394.15	136.18	122.29	46.5	2.6198e-06	54.02	0.00055907	0.0006123	0.00017663	1009.8	6.4808e-06	6.873e-06	1068.4	368.57	6.8095e-06	6.4453e-06	413.88	145.24	130.9	49.693	6.728e-06	57.521	-128.561	-42.105	-48.197	-124.555	16.500	23.355	-125.742	-119.838	-11.421	6.257	-121.988	-117.702	-115.409	-109.209	5.346	-112.098	-8191	255	
1969.519	1	1	0	0	0.10018	0.079153	0.2688	0.16418	0.055545	0.11625	0.12755	0.099394	0.087379	0.1178	0.11962	0.10709	0.060683	0.14453	0.11949	0.11055	-2.4896	-3.6521	-3.0667	-3.0792	-3.5604	-2.8292	-3.6625	-3.5146	-2.9375	-3.4667	-3.1458	-3.0042	-3.6917	-2.9437	-3.3333	-3.6604	-125.385	92.795	-96.879	182.187	136.037	115.709	187.079	-58.880	221.542	110.459	210.373	-28.903	-49.012	158.942	201.807	119.933	0.00032801	0.00059991	0.00016121	965.48	4.0473e-06	4.3891e-06	1017.2	348.1	3.5296e-06	5.7447e-06	393.72	136.07	122.01	46.328	4.0416e-06	54.176	0.00056196	0.00062382	0.00017616	1007.1	6.3837e-06	7.0464e-06	1066.9	367.5	6.9117e-06	6.4885e-06	413.44	145.16	130.48	49.478	6.6993e-06	57.536	-128.525	-52.351	-51.085	-124.498	1.595	14.713	-125.671	-119.794	-6.833	8.997	-121.599	-117.629	-115.574	-109.253	-25.836	-111.949	-8191	255	
1969.639	1	1	0	0	0.24009	0.11831	0.048413	0.1197	0.081951	0.16102	0.030009	0.079053	0.19721	0.081056	0.010781	0.36712	0.16932	0.11994	0.16409	0.30619	-2.1562	-3.3792	-2.9542	-3.0208	-3.6229	-2.8438	-3.3417	-3.6937	-2.7729	-3.5938	-3.1167	-2.8729	-3.6021	-2.8479	-3.3042	-3.4792	-119.791	81.838	200.470	218.692	33.624	90.459	-40.103	196.633	71.737	-6.737	-55.144	-106.958	209.347	155.905	153.611	214.613	0.00033959	0.00053032	0.00016004	966.98	2.5891e-06	5.0975e-06	1022.7	349.72	3.7977e-06	6.6906e-06	395.68	136.56	121.63	46.451	3.359e-06	54.114	0.00056829	0.00061676	0.00017048	1008	6.2887e-06	7.2704e-06	1069.9	368.49	6.9581e-06	6.4871e-06	414.55	145.35	130.48	49.45	6.8184e-06	57.559	-128.452	-24.659	-47.143	-124.451	31.590	-7.901	-125.722	-119.748	-8.741	29.097	-121.541	-117.561	-115.486	-109.274	25.879	-111.694	-8191	255	
1969.711	1	1	0	0	0.14192	0.28917	0.075197	0.1005	0.19653	0.063451	0.048356	0.12609	0.13497	0.13915	0.11482	0.23556	0.20534	0.047466	0.20299	0.10297	-2.4062	-3.5062	-3.3208	-2.9667	-3.4479	-2.9333	-3.2	-3.75	-2.6917	-3.3812	-3.3625	-2.8063	-3.8604	-2.9167	-3.1188	-3.6917	21.009	9.333	115.067	203.414	47.448	16.491	-76.229	38.790	-83.079	56.813	112.728	165.159	213.472	214.029	-7.562	-10.019	0.00030132	0.00053655	0.00016625	968.83	3.8955e-06	4.7937e-06	1020.6	350.1	2.4939e-06	3.9919e-06	393.96	135.3	121.6	46.081	4.169e-06	53.667	0.00056921	0.00062798	0.00016917	1009.8	6.3524e-06	7.0365e-06	1068.9	368.52	6.8148e-06	6.6066e-06	412.83	144	130.03	49.031	6.9933e-06	56.867	-131.387	-43.105	-52.086	-124.673	3.845	27.205	-125.860	-119.762	-8.063	-14.722	-121.811	-117.638	-115.609	-109.361	7.660	-112.093	-8191	255	
1969.807	1	1	0	0	0.17038	0.064858	0.072777	0.094459	0.018012	0.077675	0.12009	0.13749	0.11663	0.1642	0.20613	0.027567	0.079346	0.10208	0.15862	0.28369	-2.4708	-3.4167	-3.2792	-2.925	-3.6312	-3.2667	-3.1208	-3.8583	-2.7708	-3.3563	-3.5375	-2.9062	-3.6958	-3.3	-3.0229	-3.825	-25.729	129.887	6.594	-125.284	6.085	183.665	-122.841	150.076	127.835	95.166	195.202	159.822	84.144	-116.727	138.318	154.445	0.0003189	0.00039134	0.00017829	963.81	3.8587e-06	6.1218e-06	1018.3	348.88	4.1873e-06	4.3395e-06	391.51	134.53	121.29	45.751	4.1037e-06	53.249	0.00056116	0.00061938	0.00016626	1007.8	6.3505e-06	7.0537e-06	1065.1	367.69	6.6982e-06	6.6368e-06	411.12	143.39	129.59	48.818	6.9159e-06	56.589	-130.179	-45.293	-73.156	-124.740	-14.718	6.462	-125.583	-119.786	1.489	24.843	-121.723	-117.636	-115.515	-109.223	3.059	-111.867	-8191	255	
1969.903	1	1	0	0	0.19764	0.11853	0.1733	0.32432	0.24323	0.16562	0.10285	0.1773	0.064796	0.1906	0.057348	0.44446	0.1077	0.27593	0.068946	0.22962	-2.325	-3.275	-3.575	-2.8312	-3.4896	-3.1729	-2.9333	-3.85	-2.8854	-3.0854	-3.5333	-2.9542	-3.5375	-3.2687	-2.7333	-3.8208	200.692	37.583	103.477	160.774	2.158	135.868	113.200	107.102	-127.698	1.398	39.970	203.588	72.506	141.090	-65.501	171.007	0.00032539	0.00054959	0.0001612	960.87	3.0094e-06	5.4442e-06	1013.4	346.85	2.9062e-06	5.6651e-06	392.06	134.61	120.48	45.86	3.5985e-06	53.446	0.00057243	0.00061774	0.00016634	1003.9	6.3423e-06	6.745e-06	1061.3	365.83	6.5912e-06	6.9034e-06	410.65	142.72	128.68	48.815	6.6977e-06	56.783	-130.270	-41.686	-38.025	-124.694	9.151	-0.466	-125.744	-119.700	1.387	27.635	-121.612	-117.709	-115.459	-109.349	-1.243	-111.643	-8191	255	
1970.024	1	1	0	0	0.062396	0.10722	0.11523	0.22819	0.21858	0.12312	0.18411	0.23347	0.24321	0.1043	0.048099	0.10337	0.20162	0.057435	0.088325	0.10258	-2.3896	-3.1271	-3.5312	-2.7479	-3.5375	-3.4437	-2.8625	-3.8	-2.9042	-3.2896	-3.7313	-2.9646	-3.4167	-3.4188	-2.9479	-3.5542	-2.390	-124.527	134.775	-124.442	4.469	13.544	174.574	157.421	132.569	1.025	-46.281	113.081	150.421	193.762	-22.032	156.786	0.00030771	0.00057668	0.00014654	961.32	4.6873e-06	4.2549e-06	1019.3	348.02	3.0452e-06	4.2519e-06	395.01	135.08	120.79	45.972	3.6119e-06	53.609	0.0005698	0.00061204	0.00017107	1004	6.3524e-06	6.6195e-06	1064.9	366.68	6.5385e-06	6.8829e-06	412.58	143.68	129.33	48.991	6.8225e-06	57.161	-129.486	-49.666	-41.284	-124.458	18.000	6.170	-125.446	-119.805	-16.310	17.863	-121.809	-117.614	-115.235	-109.394	-11.545	-111.882	-8191	255	
1970.120	1	1	0	0	0.19858	0.16046	0.42121	0.13295	0.048871	0.24893	0.031767	0.14104	0.10243	0.11929	0.12455	0.058416	0.15656	0.1943	0.2648	0.12826	-2.6979	-2.8833	-3.6792	-3.0062	-3.3187	-3.4729	-2.9729	-3.7938	-3.1771	-3.0021	-3.6229	-3	-3.2875	-3.5062	-2.8604	-3.3833	177.761	-82.736	-107.162	113.604	-83.076	106.363	103.548	-127.322	-19.422	156.948	-124.675	-135.269	-27.831	179.405	-29.546	138.383	0.00030174	0.00033914	0.00015534	961.65	2.7596e-06	5.9091e-06	1021.1	349.8	2.8209e-06	4.546e-06	394.68	134.73	121.67	45.991	3.3467e-06	53.505	0.00055678	0.00061007	0.00016441	1005.4	6.5662e-06	6.4536e-06	1067.7	367.72	6.5565e-06	6.9541e-06	413.71	143.64	129.58	49.054	6.9222e-06	56.957	-126.385	-36.511	-44.285	-124.707	27.101	29.562	-125.758	-119.649	-13.433	-8.702	-121.619	-117.518	-115.334	-109.112	10.168	-111.777	-8191	255	
1970.214	1	1	0	0	0.34662	0.12212	0.066582	0.069761	0.17942	0.23006	0.070395	0.19252	0.1073	0.16502	0.26826	0.172	0.093108	0.14588	0.16105	0.14226	-3.0438	-2.7687	-3.3625	-3.125	-3.0938	-3.4188	-2.8375	-3.5229	-3.4208	-2.8	-3.8187	-3.0167	-3.1188	-3.725	-2.8083	-3.3833	-128.616	13.632	-96.370	186.227	-125.221	41.561	1.183	166.271	56.556	168.986	-107.695	-57.836	105.735	-103.228	24.481	208.935	0.00031593	0.00045872	0.00015262	964.07	1.7196e-06	6.4029e-06	1015.7	349.22	2.9093e-06	5.1969e-06	392.44	134.26	120.91	45.606	3.3272e-06	52.932	0.00055135	0.00060963	0.00016657	1006.4	6.7315e-06	6.3717e-06	1064.1	368.23	6.2897e-06	6.8169e-06	411.97	142.8	129	48.62	6.7755e-06	56.289	-127.002	-58.358	-50.893	-124.512	42.436	-5.704	-125.676	-119.713	-10.139	14.221	-121.563	-117.640	-115.324	-109.202	-1.578	-111.906	-8191	255	
1970.312	1	1	0	0	0.13899	0.26018	0.11451	0.052699	0.12493	0.13859	0.17504	0.18338	0.057806	0.29668	0.096641	0.1541	0.20775	0.12364	0.10291	0.3204	-3.1979	-2.7687	-3.5771	-3.1896	-2.9542	-3.7021	-2.9646	-3.3604	-3.4813	-2.7062	-3.5687	-3.2854	-3.0083	-3.725	-2.8167	-3.2729	98.020	17.060	-33.598	185.552	19.642	-78.846	147.961	8.344	90.630	41.543	219.167	168.927	-59.134	-85.968	209.716	169.526	0.00032472	0.00048129	0.00016673	963.63	4.3015e-06	5.7166e-06	1019.1	348.83	3.5995e-06	5.1146e-06	393.55	134.03	121.07	45.797	4.0508e-06	53.016	0.00054383	0.00060693	0.00016913	1003.7	6.7769e-06	6.1763e-06	1063.9	367.55	6.3551e-06	6.8713e-06	412.26	142.67	129.16	48.72	6.9159e-06	56.502	-126.728	-58.548	-37.013	-124.704	2.223	14.019	-125.594	-119.578	-10.739	16.413	-121.672	-117.774	-115.334	-109.165	4.919	-111.583	-8191	255	
1970.407	1	1	0	0	0.20316	0.15324	0.055678	0.13389	0.03504	0.2757	0.32581	0.18962	0.09875	0.074448	0.010345	0.19351	0.093798	0.1522	0.077414	0.1739	-3.0375	-2.8271	-3.5771	-3.3104	-3.1063	-3.65	-2.9437	-3.3208	-3.5917	-2.7771	-3.7562	-3.1583	-2.8917	-3.7875	-2.9229	-3.2333	206.576	163.041	-54.899	148.281	-69.260	17.178	122.258	193.082	-36.674	53.414	210.149	197.308	194.578	163.401	78.222	180.422	0.00033162	0.00048287	0.00017334	962.47	2.0727e-06	6.0578e-06	1013.3	350.11	4.0764e-06	5.7252e-06	393.83	134.83	120.5	45.656	4.6543e-06	53.124	0.00055387	0.00061851	0.00016915	1004	6.7323e-06	6.242e-06	1063.4	368.11	6.4611e-06	6.8582e-06	412.85	143.02	129	48.674	6.7258e-06	56.644	-129.723	-33.408	-57.852	-124.681	25.940	20.201	-125.820	-119.538	-1.609	-0.214	-121.640	-117.610	-115.288	-109.207	-11.398	-111.839	-8191	255	
1970.503	1	1	0	0	0.37825	0.25949	0.13999	0.19559	0.22472	0.11677	0.11467	0.28934	0.15614	0.3184	0.20307	0.23545	0.1578	0.19464	0.12872	0.16678	-3.1229	-2.7208	-3.3917	-3.3625	-2.7625	-3.6063	-3.2188	-3.3083	-3.5146	-2.8083	-3.5021	-3.4333	-2.9188	-3.6688	-3.1	-3.2938	152.566	-61.108	-97.562	81.762	24.388	-16.350	99.573	186.667	3.295	39.520	183.973	-38.918	208.877	-126.810	-135.412	208.824	0.00032522	0.00048296	0.00015711	964.54	3.4139e-06	2.8328e-06	1018.6	349.77	2.6787e-06	4.6274e-06	393.62	133.94	120.42	45.585	4.4341e-06	53.323	0.00052986	0.00062931	0.00016891	1005.9	6.6453e-06	6.1947e-06	1065.1	368.14	6.2683e-06	6.6604e-06	413.48	142.76	128.76	48.611	6.4072e-06	56.775	-127.445	-69.153	-61.644	-124.603	20.704	10.642	-125.716	-119.478	-13.353	23.816	-121.832	-117.474	-115.317	-108.784	-8.197	-111.411	-8191	255	
1970.624	1	1	0	0	0.12437	0.1046	0.13745	0.28744	0.18029	0.07571	0.17849	0.14755	0.10542	0.23677	0.13797	0.27432	0.11942	0.20513	0.057135	0.1146	-3.2687	-3.0104	-3.1875	-3.5208	-2.9292	-3.4896	-3.2646	-3.0917	-3.6521	-2.8438	-3.4062	-3.4917	-2.8083	-3.6875	-3.375	-3.0083	-86.411	198.862	-47.548	111.529	32.814	164.858	113.090	175.816	91.910	-61.333	140.868	-77.339	212.536	200.402	153.422	142.391	0.0003311	0.00066258	0.00014313	962.48	4.7272e-06	4.0127e-06	1017.6	348.08	2.1795e-06	5.9504e-06	392.51	133.8	119.84	45.74	3.5378e-06	53.002	0.00051527	0.00061297	0.00016244	1004.3	6.6262e-06	6.1734e-06	1064.1	367.58	6.232e-06	6.4222e-06	412.38	142.14	128.3	48.628	6.2381e-06	56.371	-126.752	-50.842	-46.978	-124.359	27.105	-4.798	-125.677	-119.464	-6.778	6.842	-121.615	-117.504	-115.130	-109.021	-0.620	-111.720	-8191	255	
1970.718	1	1	0	0	0.27124	0.13151	0.092548	0.30664	0.20127	0.073927	0.22503	0.054026	0.20028	0.046515	0.1083	0.27936	0.05709	0.20634	0.19872	0.17255	-3.3583	-3.0979	-3.2542	-3.7646	-2.8646	-3.5896	-3.4958	-2.8542	-3.8688	-2.8812	-3.2479	-3.5896	-2.8542	-3.5146	-3.4979	-2.8667	-45.663	-107.150	-5.232	75.703	-133.469	11.454	-37.895	-123.416	-35.496	-102.784	-114.914	185.634	-127.478	-79.333	190.789	39.635	0.00031045	0.00044153	0.00015445	956.63	2.9331e-06	4.1355e-06	1011.8	347.47	2.6392e-06	6.06e-06	389.52	132.1	119.33	45.427	3.3288e-06	52.499	0.00050486	0.00059639	0.00015768	999.33	6.295e-06	6.1188e-06	1058.1	365.68	6.1387e-06	6.3292e-06	408.99	140.6	127.61	48.222	6.0567e-06	55.879	-129.578	-49.701	-31.637	-124.525	3.557	-0.264	-125.760	-119.664	7.959	15.272	-121.729	-117.487	-115.513	-109.015	2.099	-111.494	-8191	255	
1970.814	1	1	0	0	0.075727	0.080604	0.24115	0.13794	0.1221	0.073342	0.35353	0.23238	0.056547	0.12413	0.10057	0.40478	0.29473	0.21641	0.13984	0.064961	-3.2958	-2.9354	-3.0521	-3.8563	-2.6958	-3.35	-3.4437	-2.8292	-3.5812	-3.0938	-2.9979	-3.7125	-2.9437	-3.2667	-3.4771	-2.8458	41.619	69.121	0.175	153.632	-30.065	-7.338	135.627	165.537	158.597	77.795	17.037	174.137	181.188	201.938	63.796	-53.543	0.00032446	0.00047188	0.00010337	952.4	2.8415e-06	4.5772e-06	1007.2	345.91	3.2819e-06	4.6469e-06	389.11	131.25	118.93	45.227	3.7979e-06	52.665	0.00050328	0.00058633	0.00015428	996.32	6.2449e-06	6.2003e-06	1053.3	363.64	6.0886e-06	6.0167e-06	407.59	140.08	127.15	48.122	5.8707e-06	56.005	-128.905	-42.188	-43.861	-124.627	38.267	4.005	-125.640	-119.565	-3.102	5.919	-121.260	-117.481	-115.457	-108.793	-8.849	-111.725	-8191	255	
1970.910	1	1	0	0	0.14856	0.041277	0.1822	0.16452	0.29912	0.28452	0.40498	0.14592	0.13091	0.20906	0.35945	0.2141	0.021611	0.21589	0.23497	0.17919	-3.3167	-3.0062	-2.9562	-3.6833	-3.025	-3.3	-3.6979	-2.975	-3.4938	-3.2521	-2.9375	-3.6375	-2.7562	-3.4583	-3.4583	-3.025	-103.568	-51.867	-62.728	-112.502	57.774	-99.647	148.482	170.971	52.129	214.025	160.065	204.763	207.072	-97.483	-75.082	166.696	0.00032494	0.0004634	0.00015383	953.59	4.0531e-06	3.3209e-06	1009.7	346.67	4.3869e-06	6.9855e-06	388.28	133.18	119.91	45.499	3.5061e-06	53.07	0.0005037	0.00057401	0.00015219	995.78	6.0923e-06	6.2253e-06	1057.2	364.88	6.1196e-06	6.027e-06	409.59	141.74	128.06	48.484	5.9545e-06	56.343	-126.959	-45.314	-64.755	-124.733	16.446	7.940	-125.595	-119.715	-6.048	10.234	-121.595	-117.682	-115.305	-109.144	0.633	-111.595	-8191	255	
1971.006	1	1	0	0	0.22162	0.24259	0.15136	0.2981	0.09269	0.20036	0.3702	0.23959	0.23753	0.085248	0.35349	0.021094	0.075107	0.061823	0.12745	0.15162	-3.1021	-3.1958	-2.8812	-3.7104	-3.1625	-3.0021	-3.7083	-2.9229	-3.3958	-3.4417	-2.9354	-3.8854	-3.2771	-3.1292	-3.4854	-3.0271	120.581	165.353	18.578	110.035	92.484	-78.711	147.475	156.306	-128.482	213.083	188.486	221.370	121.808	-86.897	193.296	-135.195	0.0003196	0.00035258	0.00012051	957.54	3.5532e-06	4.7333e-06	1009.5	345.4	2.9646e-06	5.4329e-06	391.59	132.91	119.23	45.6	2.5241e-06	53.06	0.00050933	0.00055304	0.00015341	998.03	5.9838e-06	6.2023e-06	1058.2	364.36	6.024e-06	5.881e-06	410.32	141.33	127.66	48.549	5.9748e-06	56.55	-129.515	-80.084	-40.166	-124.427	17.756	17.770	-125.755	-119.653	-20.173	31.954	-121.683	-117.414	-115.367	-108.859	-27.211	-111.799	-8191	255	
1971.103	1	1	0	0	0.040416	0.085489	0.22018	0.25061	0.16731	0.093006	0.17139	0.1804	0.1872	0.019128	0.15124	0.21983	0.38358	0.17997	0.018396	0.13915	-2.9854	-3.4	-2.65	-3.8625	-3.1146	-3.0396	-3.8063	-3.0375	-3.2938	-3.6833	-2.8833	-3.55	-3.2229	-3.0792	-3.6208	-2.9771	-135.631	150.665	159.377	153.584	15.240	-36.284	209.110	151.156	-32.760	-22.879	197.586	-94.319	215.042	-113.036	-34.313	-68.189	0.00031591	0.0003721	0.00010889	955.51	3.5566e-06	4.319e-06	1010.2	345.5	2.4779e-06	4.5992e-06	388.46	132.29	119.03	45.368	3.3698e-06	52.535	0.00052512	0.00053279	0.00015187	997.99	5.7814e-06	6.2321e-06	1058.4	364.16	6.0288e-06	5.6795e-06	407.71	140.71	127.15	48.262	5.848e-06	55.804	-128.867	-51.502	-78.922	-124.412	9.455	6.027	-125.758	-119.669	-1.304	5.650	-121.608	-117.749	-115.364	-108.732	1.615	-111.544	-8191	255	
1971.223	1	1	0	0	0.19344	0.22127	0.072424	0.14192	0.16234	0.14189	0.19574	0.188	0.20599	0.16664	0.27666	0.092697	0.075729	0.27482	0.22729	0.082832	-2.6875	-3.5	-2.6896	-3.5458	-3.3292	-2.8208	-3.6771	-3.0833	-3.1458	-3.5167	-2.8729	-3.4	-3.3542	-2.9521	-3.5771	-3.125	-5.214	203.015	12.593	187.580	-67.864	-94.518	75.203	-102.230	222.110	-68.319	142.816	205.222	38.275	206.676	202.016	87.052	0.00032642	0.00048075	0.00014166	952.24	3.5645e-06	4.2506e-06	1004.4	343.41	2.1978e-06	4.2591e-06	385.5	131.48	118.48	45.148	4.484e-06	52.348	0.00051999	0.00051747	0.00015167	994.03	5.5952e-06	6.1222e-06	1050.4	361.8	6.0039e-06	5.6286e-06	404.74	139.79	126.67	48.021	5.8428e-06	55.562	-129.466	-53.566	-43.325	-124.406	6.265	3.217	-125.647	-119.634	13.449	24.868	-121.550	-117.508	-115.310	-109.046	-13.951	-111.665	-8191	255	
1971.319	1	1	0	0	0.12455	0.11149	0.082664	0.20913	0.16808	0.30002	0.2157	0.28036	0.17116	0.15385	0.12399	0.20582	0.25657	0.24646	0.14708	0.21526	-2.6833	-3.5417	-2.625	-3.4792	-3.3333	-2.7479	-3.6167	-3.2875	-3.0771	-3.7083	-2.9771	-3.3625	-3.6063	-2.8854	-3.7417	-3.2021	170.043	117.321	212.886	204.742	204.299	-119.023	216.827	169.715	97.618	101.588	-101.045	8.909	194.267	-85.527	-53.374	156.056	0.00030746	0.00038636	0.00013652	948.6	2.644e-06	4.1098e-06	1002.4	342.08	2.7547e-06	4.0076e-06	385.93	131.27	118.26	45.048	3.4572e-06	52.482	0.00051166	0.00050554	0.00015508	990.82	5.6355e-06	6.091e-06	1048.9	360.47	5.8153e-06	5.7464e-06	404.7	139.57	126.32	47.965	5.9289e-06	55.687	-125.957	-44.210	-52.004	-124.585	1.064	0.363	-125.683	-119.661	-6.055	24.025	-121.726	-117.581	-115.188	-109.039	17.383	-111.683	-8191	255	
1971.415	1	1	0	0	0.090474	0.019969	0.097494	0.23589	0.1914	0.082973	0.095705	0.17087	0.13671	0.10137	0.090436	0.13805	0.15509	0.075017	0.047989	0.10579	-2.7042	-3.6833	-2.6896	-3.3604	-3.5125	-2.8833	-3.7625	-3.3708	-2.9688	-3.6667	-2.7771	-3.3542	-3.6167	-2.7958	-3.4188	-3.4375	-5.577	-63.258	205.482	-128.647	191.725	-129.701	82.195	113.313	-75.491	200.709	51.490	194.616	-92.089	182.367	-1.856	-21.972	0.00032785	0.00049001	9.4885e-05	952.82	2.4854e-06	5.9304e-06	1008.8	344.61	3.8974e-06	3.3255e-06	386.42	132.04	118.67	45.372	4.1857e-06	53.226	0.00051843	0.00051732	0.00015754	993.31	5.6599e-06	6.0627e-06	1053.6	361.96	5.9278e-06	5.8554e-06	406.13	140.73	127.01	48.303	6.1332e-06	56.251	-129.166	-58.061	-58.992	-124.560	6.331	5.312	-125.632	-119.683	4.694	8.847	-121.559	-117.555	-115.009	-109.096	-13.863	-111.851	-8191	255	
1971.510	1	1	0	0	0.10054	0.34347	0.12586	0.24191	0.10214	0.091483	0.020383	0.15455	0.037415	0.18633	0.011894	0.13928	0.18412	0.16582	0.26327	0.30366	-2.3792	-3.6146	-2.9146	-3.0979	-3.5083	-2.6708	-3.4479	-3.4479	-2.7771	-3.5875	-3.0854	-3.1354	-3.725	-2.8708	-3.4729	-3.4625	48.882	92.007	62.012	-129.491	-114.178	-106.817	85.220	158.136	123.866	167.459	12.939	142.851	140.204	107.008	-4.712	129.910	0.00031143	0.00050054	8.842e-05	953.38	2.8192e-06	5.0215e-06	1010.4	345.03	3.4287e-06	7.2146e-06	389	133.29	120.18	45.684	5.5107e-06	52.99	0.00052553	0.0005195	0.00015788	996.1	5.7748e-06	6.2134e-06	1056.9	363.42	6.0179e-06	6.1474e-06	408.88	141.98	128.01	48.617	6.1974e-06	56.418	-130.433	-55.669	-56.908	-124.583	37.644	16.250	-125.668	-119.757	-20.407	6.071	-121.669	-117.578	-115.241	-109.059	6.774	-111.847	-8191	255	
1971.583	1	1	0	0	0.20978	0.24058	0.13257	0.29334	0.28374	0.2622	0.11101	0.30685	0.075307	0.16529	0.16093	0.061513	0.23059	0.3632	0.12436	0.13648	-2.3563	-3.5687	-3.1354	-2.8688	-3.6833	-2.8333	-3.3708	-3.7062	-2.8479	-3.55	-3.2375	-3.0333	-3.5938	-2.9896	-3.2917	-3.5917	151.083	-67.122	84.988	159.558	-123.608	-5.611	120.856	126.343	-134.341	-16.186	75.379	77.575	14.677	159.710	97.224	38.011	0.00034081	0.00046702	0.00013339	958.74	3.3571e-06	4.154e-06	1008.9	346.11	3.3658e-06	3.5903e-06	389.6	132.53	120.07	45.607	2.6543e-06	52.9	0.0005364	0.0005255	0.00015718	1000.9	5.804e-06	6.0301e-06	1057.2	364.63	6.1999e-06	6.0808e-06	407.31	141.39	128.04	48.497	6.007e-06	56.048	-126.238	-58.646	-58.578	-124.339	34.494	-1.178	-125.589	-119.597	26.093	14.323	-121.743	-117.586	-115.414	-109.270	6.682	-111.985	-8191	255	
1971.702	1	1	0	0	0.10694	0.18783	0.1242	0.19782	0.16802	0.15847	0.12882	0.20339	0.17762	0.17352	0.11926	0.012491	0.094541	0.13958	0.14918	0.083178	-2.4021	-3.3521	-3.2354	-3.05	-3.5833	-3.1625	-3.2354	-3.6312	-2.8583	-3.5104	-3.2646	-2.8271	-3.6729	-2.9333	-2.9604	-3.8042	138.606	-55.537	174.031	157.593	136.737	-92.550	-128.409	179.049	-93.610	181.092	72.878	17.887	-83.248	97.590	178.279	-2.563	0.00030358	0.00034163	0.00016052	957.18	4.3533e-06	3.7612e-06	1007.7	345.48	2.8522e-06	5.0115e-06	388.35	133.27	119.63	45.384	4.9053e-06	52.813	0.00053569	0.00055181	0.00015608	997.54	5.9294e-06	6.0358e-06	1055.8	363.98	6.2002e-06	6.0981e-06	407.78	141.55	128.16	48.454	6.1349e-06	56.221	-131.076	-40.172	-49.574	-124.538	12.643	0.868	-125.626	-119.672	-8.282	24.102	-121.915	-117.520	-115.297	-109.204	0.158	-111.841	-8191	255	
1971.798	1	1	0	0	0.16736	0.1238	0.26954	0.043203	0.14284	0.19236	0.13827	0.076508	0.026937	0.13236	0.10193	0.1111	0.081975	0.035088	0.050035	0.091704	-2.4813	-3.3667	-3.2792	-2.9688	-3.65	-3.0229	-3.3271	-3.7875	-2.9104	-3.3896	-3.6271	-2.8292	-3.7271	-3.1729	-2.8375	-3.8271	7.660	-110.178	169.140	190.105	59.572	-104.567	-114.911	165.869	214.883	14.259	-69.049	-77.575	-15.001	-1.946	-100.610	-85.837	0.00031472	0.00033732	0.00013198	957.89	3.1318e-06	6.6756e-06	1008.5	347.14	2.8554e-06	5.5892e-06	391.75	134.72	121.65	46.168	2.6424e-06	53.484	0.00053009	0.00056582	0.00015178	998.18	5.9379e-06	6.023e-06	1057	365.58	6.3684e-06	6.3078e-06	411.1	143.55	129.72	49.1	6.1742e-06	56.973	-127.768	-39.088	-41.301	-124.394	23.916	19.650	-125.700	-119.549	-12.074	-3.183	-121.645	-117.490	-115.388	-109.203	-8.757	-111.654	-8191	255	
1971.894	1	1	0	0	0.049381	0.20045	0.11939	0.26927	0.039171	0.11022	0.40683	0.38015	0.26035	0.13487	0.11368	0.21012	0.17676	0.39734	0.16314	0.22878	-2.6167	-3.2333	-3.425	-2.9229	-3.6583	-3.1104	-2.975	-3.7125	-3.0271	-3.2646	-3.5896	-2.9167	-3.5979	-3.2	-3.0104	-3.8563	-75.272	160.993	136.999	179.687	190.046	207.957	134.190	164.799	-57.174	-47.400	162.951	78.257	64.688	186.302	101.246	131.758	0.00030748	0.00049421	0.00016107	957.21	2.7397e-06	5.303e-06	1010	347.66	3.3448e-06	4.0211e-06	392.79	135.85	121.89	46.406	4.6822e-06	53.996	0.00051499	0.0005552	0.00014725	998.41	6.0398e-06	5.8701e-06	1060.8	366.37	6.1893e-06	6.1348e-06	412.14	144.46	130.04	49.494	6.1605e-06	57.53	-126.803	-55.587	-40.126	-124.387	10.326	-1.157	-125.571	-119.532	-5.638	-6.213	-121.562	-117.538	-115.370	-109.184	4.219	-111.914	-8191	255	
1971.991	1	1	0	0	0.16964	0.3354	0.13348	0.093449	0.18095	0.17769	0.041327	0.1709	0.16229	0.092339	0.30047	0.17775	0.30193	0.29504	0.18974	0.10943	-2.5146	-3.1354	-3.5417	-2.9375	-3.6688	-3.3604	-3.1667	-3.7271	-3.0896	-2.9833	-3.6688	-2.9167	-3.4313	-3.3708	-2.7792	-3.5979	-32.955	14.363	28.920	216.814	177.565	117.986	-59.960	197.810	-115.821	-125.919	76.697	-112.805	216.481	-100.954	-28.846	125.992	0.00031401	0.00052535	0.00011291	960.99	2.1158e-06	5.1745e-06	1015.5	349.41	3.3559e-06	7.0248e-06	392.36	135.19	121.23	46.202	4.7346e-06	53.604	0.00051527	0.00057588	0.00014394	1001.3	5.9775e-06	5.9248e-06	1064.6	367.74	6.3477e-06	6.1306e-06	412.38	143.92	129.69	49.192	6.1272e-06	57.008	-130.820	-51.004	-38.432	-124.366	16.908	-0.316	-125.533	-119.655	-22.772	1.972	-121.508	-117.570	-115.370	-108.951	1.091	-111.627	-8191	255	
1972.111	1	1	0	0	0.27905	0.14333	0.16492	0.26016	0.21475	0.3337	0.19017	0.064899	0.18243	0.078468	0.22491	0.13972	0.24999	0.058539	0.27199	0.14437	-2.8354	-2.9292	-3.525	-2.9292	-3.1375	-3.4729	-3.0646	-3.7708	-2.9062	-2.9417	-3.8458	-2.9417	-3.3063	-3.5854	-2.725	-3.6312	-96.324	-20.413	-71.821	-134.567	-118.367	36.145	108.270	86.147	1.861	-33.047	168.841	111.516	184.725	-111.964	86.317	217.293	0.0003264	0.00058666	0.00012666	956.95	3.1928e-06	4.1254e-06	1007.6	345.42	3.7297e-06	5.7479e-06	388.65	132.9	120.02	45.85	3.9537e-06	53.397	0.00051147	0.00057406	0.00014276	995.88	5.9167e-06	5.6826e-06	1054.6	363.68	6.0569e-06	5.9661e-06	407.27	141.71	128.11	48.771	6.2583e-06	56.639	-128.605	-62.331	-49.529	-124.712	27.939	12.261	-125.518	-119.686	1.028	11.796	-121.687	-117.628	-115.192	-108.946	15.304	-111.792	-8191	255	
1972.207	1	1	0	0	0.048106	0.42832	0.22045	0.076528	0.13257	0.31671	0.14472	0.24118	0.18793	0.16242	0.23755	0.15898	0.19091	0.28739	0.081292	0.1203	-2.7687	-2.9333	-3.4021	-3.0938	-3.2396	-3.5687	-2.8375	-3.6646	-3.2292	-2.9	-3.6042	-2.8729	-3.1375	-3.5521	-2.7938	-3.625	98.579	-104.652	-121.835	81.422	-98.368	70.369	134.497	91.068	147.859	-81.323	107.044	213.175	79.040	163.490	-12.227	-28.220	0.00030121	0.00063057	0.0001286	954.9	4.0564e-06	4.2756e-06	1008.4	345.8	2.8955e-06	6.4622e-06	389.67	133.86	120.42	45.895	4.8972e-06	53.691	0.00049633	0.00055448	0.00014123	994.47	5.766e-06	5.6313e-06	1054.6	363.72	5.9437e-06	6.1252e-06	409.02	142.74	128.97	48.98	6.2113e-06	57.035	-125.130	-43.459	-41.925	-124.500	16.355	-1.507	-125.663	-119.509	9.366	21.991	-121.496	-117.727	-115.209	-109.175	-20.385	-111.599	-8191	255	
1972.304	1	1	0	0	0.02088	0.066831	0.078585	0.12047	0.265	0.10569	0.12853	0.067931	0.16464	0.29099	0.094071	0.22649	0.081416	0.017499	0.18062	0.17534	-2.8125	-2.9479	-3.4875	-3.2313	-3.1042	-3.5354	-2.9646	-3.5354	-3.45	-2.8125	-3.6021	-3	-3.2167	-3.6583	-2.8958	-3.5438	184.836	139.556	-56.481	77.632	80.767	33.732	219.772	44.561	191.780	20.072	156.546	122.442	202.037	9.819	137.453	-135.889	0.00031712	0.00044282	0.00014899	954.88	3.0238e-06	4.5886e-06	1013.4	346.2	3.2583e-06	3.6346e-06	392.16	135.27	121.39	46.228	3.622e-06	53.791	0.0004996	0.00057293	0.00014981	996.88	5.926e-06	5.9956e-06	1059.2	364.83	6.0365e-06	6.2888e-06	410.86	143.76	129.62	49.257	6.4796e-06	57.293	-127.492	-48.629	-44.833	-124.577	13.768	-0.427	-125.657	-119.595	-18.618	16.355	-121.663	-117.515	-115.262	-109.191	0.592	-111.652	-8191	255	
1972.400	1	1	0	0	0.33939	0.090075	0.15518	0.31429	0.051354	0.16479	0.35925	0.15199	0.065452	0.14154	0.23364	0.14521	0.11706	0.12922	0.15941	0.07206	-3.1604	-2.8104	-3.4437	-3.1375	-3.0438	-3.7979	-3.0375	-3.2854	-3.3812	-2.7042	-3.6271	-3.2521	-3.0125	-3.7167	-2.8	-3.3042	10.978	16.730	104.408	197.341	-120.351	185.215	128.937	142.707	143.944	-3.749	128.465	191.881	88.722	-47.272	-97.737	78.625	0.00031633	0.00043829	0.00012077	957.61	3.0799e-06	5.6097e-06	1016.8	349.12	4.6235e-06	5.293e-06	393.6	135.67	121.93	46.276	3.6314e-06	54.486	0.00051002	0.00058201	0.00015737	999.01	5.9777e-06	6.1043e-06	1063.4	367.3	5.8894e-06	6.5309e-06	413.16	144.45	130.33	49.435	6.5657e-06	57.895	-130.006	-58.622	-39.100	-124.583	8.107	-0.793	-125.569	-119.634	-32.136	3.389	-121.427	-117.449	-115.165	-109.068	-11.274	-111.797	-8191	255	
1972.496	1	1	0	0	0.18509	0.15118	0.3577	0.12466	0.12444	0.17286	0.098569	0.34942	0.033084	0.23645	0.21628	0.19858	0.2997	0.22413	0.17314	0.143	-3.0438	-2.7646	-3.4604	-3.4125	-2.6771	-3.7188	-3.2313	-3.2438	-3.7979	-2.8104	-3.6	-3.4917	-2.8417	-3.6542	-3.1437	-3.1937	179.119	136.345	-75.547	-91.180	95.808	-28.944	-73.595	181.928	137.674	219.873	180.785	180.653	207.297	166.995	-97.865	98.423	0.00033094	0.00055495	0.00014445	964.36	2.9032e-06	5.3787e-06	1022.4	349.64	3.7147e-06	6.8627e-06	396.03	137.67	122.8	47.044	3.9956e-06	54.341	0.00052581	0.00059585	0.00016399	1004.8	6.2529e-06	6.1624e-06	1070.1	368.71	5.97e-06	6.7008e-06	415.25	146.15	131.62	49.935	6.6684e-06	57.824	-128.476	-42.676	-33.906	-124.440	21.842	18.458	-125.644	-119.792	-22.931	35.434	-121.683	-117.467	-115.439	-109.206	-5.886	-111.681	-8191	255	
1972.592	1	1	0	0	0.15757	0.11532	0.11459	0.17662	0.17743	0.032832	0.20557	0.25242	0.055167	0.13798	0.17662	0.092104	0.22442	0.092027	0.2144	0.14635	-3.2833	-2.8583	-3.2438	-3.5125	-2.7792	-3.6854	-3.2687	-3.0479	-3.5792	-2.7896	-3.4083	-3.4938	-2.9542	-3.6625	-3.2271	-2.9604	85.996	25.274	-80.004	193.290	3.413	-38.037	143.580	140.008	216.669	165.100	183.706	-95.643	146.748	76.569	82.261	16.525	0.00033683	0.00043132	0.00023645	976.75	3.3804e-06	5.0387e-06	1043.1	361.69	2.7712e-06	5.5134e-06	408.5	142.31	126.85	47.66	4.0837e-06	55.038	0.000534	0.00060619	0.00016991	1020.5	6.467e-06	6.7425e-06	1090.5	380.26	6.4071e-06	7.0224e-06	427.91	151.58	135.96	50.904	6.7315e-06	58.505	-127.648	-46.275	-43.708	-124.535	-15.207	17.132	-125.701	-119.685	-13.494	-0.471	-121.570	-117.815	-115.653	-109.581	16.963	-112.114	-8191	255	
1972.711	1	1	0	0	0.33455	0.06595	0.1246	0.10175	0.17085	0.14363	0.24806	0.14879	0.18586	0.2445	0.2652	0.13474	0.078452	0.039053	0.077531	0.15826	-3.3583	-2.8083	-3.2271	-3.5854	-2.9813	-3.4667	-3.4625	-3.1021	-3.5479	-2.9417	-3.0729	-3.6458	-2.9396	-3.5125	-3.3042	-2.9229	47.315	-74.952	-125.459	-63.288	-102.838	136.955	108.573	-40.493	82.371	36.465	183.129	116.174	74.895	171.221	160.546	81.656	0.00031015	0.00044527	0.00017991	981.23	3.8922e-06	2.8408e-06	1039	358.24	3.0883e-06	5.2654e-06	401.64	138.81	123.99	46.993	2.5193e-06	54.624	0.00054536	0.00060242	0.00017351	1021.5	6.5566e-06	6.6518e-06	1087.6	376.98	6.2505e-06	6.6994e-06	421.6	148.09	133.02	50.08	6.3444e-06	58.017	-126.839	-45.697	-64.467	-124.671	12.562	-38.656	-125.724	-119.600	-12.024	39.984	-121.533	-117.846	-115.517	-109.318	15.458	-111.894	-8191	255	
1972.807	1	1	0	0	0.064558	0.23887	0.11488	0.069262	0.21275	0.17779	0.14465	0.044801	0.16964	0.17871	0.1453	0.34972	0.059121	0.10578	0.3142	0.18673	-3.2896	-2.8396	-3.0875	-3.6042	-2.7417	-3.5187	-3.5812	-2.9354	-3.5542	-2.9771	-3.0354	-3.675	-2.9458	-3.6188	-3.2521	-2.925	201.417	-0.845	-51.806	-105.894	-86.148	-24.245	172.796	208.438	-28.542	128.459	157.100	190.771	50.733	87.993	-130.242	112.169	0.00032615	0.00047534	0.00018121	972.42	1.844e-06	5.7707e-06	1029.9	353.74	3.4795e-06	5.9696e-06	399.97	138.78	124.07	47.285	4.2495e-06	54.874	0.00053836	0.00058391	0.00016823	1013.8	6.464e-06	6.4884e-06	1080.1	373.04	6.3475e-06	6.4114e-06	419.83	147.55	132.33	50.215	6.2682e-06	58.306	-127.786	-27.646	-39.533	-124.370	17.253	14.646	-125.729	-119.677	-24.195	1.360	-121.556	-117.760	-115.393	-109.169	8.388	-111.936	-8191	255	
1972.879	1	1	0	0	0.030664	0.12465	0.07151	0.094965	0.2234	0.18469	0.26799	0.24475	0.1159	0.13008	0.17039	0.17055	0.08094	0.33598	0.15337	0.091599	-3.3937	-3.1063	-3.0438	-3.7667	-2.7333	-3.4146	-3.6125	-2.8563	-3.425	-3.2458	-3.0042	-3.5812	-2.9229	-3.3104	-3.5187	-2.9292	-9.813	-15.074	84.973	105.128	56.089	-123.664	104.442	200.116	-28.554	143.675	-85.913	190.812	-137.129	205.828	-85.435	-132.259	0.00034668	0.00039804	0.00017916	969.4	5.5782e-06	2.6304e-06	1031.8	353.41	3.4762e-06	6.0022e-06	399.1	139.14	123.47	47.298	3.3016e-06	55.049	0.00055105	0.00056793	0.0001679	1013.9	6.4593e-06	6.2695e-06	1080.5	372.4	6.415e-06	6.5648e-06	419.89	147.7	132.03	50.39	6.0963e-06	58.548	-128.610	-42.025	-31.557	-124.452	7.891	-2.396	-125.576	-119.619	-1.823	29.101	-121.621	-117.393	-115.377	-109.156	22.435	-111.698	-8191	255	
1972.999	1	1	0	0	0.13403	0.14627	0.29628	0.28231	0.056542	0.06124	0.081567	0.29268	0.15794	0.21588	0.19505	0.19867	0.38772	0.1478	0.2761	0.17561	-3.2	-3.3812	-2.8292	-3.5979	-3.0958	-3.1292	-3.7729	-3.0104	-3.3917	-3.2896	-2.9396	-3.7292	-3.0104	-3.3146	-3.7	-2.8875	177.810	143.400	-49.417	168.612	2.027	-44.028	130.089	181.565	-9.882	-61.123	170.903	-77.845	198.938	65.379	212.483	-37.169	0.0003258	0.00048754	9.1368e-05	971.61	2.6778e-06	5.8814e-06	1029.3	352.52	2.8062e-06	5.019e-06	397.47	137.46	122.44	46.9	3.6264e-06	54.181	0.00054579	0.00057188	0.00016679	1011.9	6.42e-06	6.4241e-06	1079	371.1	6.4624e-06	6.2566e-06	417.36	146.14	131.03	50.047	6.063e-06	57.765	-125.804	-42.248	-55.089	-124.584	17.406	0.930	-125.692	-119.623	-12.911	5.855	-121.540	-117.457	-115.541	-109.122	-12.306	-111.778	-8191	255	
1973.095	1	1	0	0	0.073558	0.13961	0.14377	0.29545	0.1454	0.054158	0.32863	0.19439	0.23599	0.08264	0.25282	0.02225	0.051018	0.25044	0.12743	0.14717	-3.1292	-3.2521	-2.7729	-3.7562	-2.9292	-2.9229	-3.6604	-3.0104	-3.2313	-3.5854	-3.0229	-3.5625	-3.35	-2.8312	-3.5333	-3.0875	209.418	106.805	192.837	198.368	197.617	120.981	176.583	167.923	49.068	-69.592	160.866	160.665	-94.391	152.080	4.872	-45.295	0.00033874	0.00056544	0.00013981	966.43	4.4038e-06	6.2016e-06	1022.1	350.07	3.734e-06	5.0126e-06	395.46	136.17	121.86	46.496	3.0587e-06	54.148	0.00054714	0.00056261	0.00016358	1007.3	6.2523e-06	6.2329e-06	1072.2	368.52	6.4476e-06	6.0816e-06	414.44	145.04	130.32	49.611	6.0258e-06	57.355	-128.599	-63.686	-62.905	-124.492	-20.349	26.390	-125.572	-119.609	-8.149	-2.706	-121.512	-117.348	-115.343	-109.187	15.666	-111.573	-8191	255	
1973.192	1	1	0	0	0.10599	0.084178	0.075428	0.21338	0.10831	0.069763	0.17285	0.2225	0.21374	0.20844	0.19998	0.12018	0.36665	0.071131	0.091544	0.11578	-2.9417	-3.525	-2.7313	-3.5604	-3.3375	-2.9833	-3.7708	-2.8771	-3.2292	-3.6646	-2.6646	-3.5271	-3.2875	-2.9229	-3.5333	-3.0812	-75.620	86.237	-3.167	190.168	-73.907	-9.702	116.129	185.887	31.934	194.617	207.782	82.485	108.471	180.658	-129.186	-77.025	0.00033405	0.00048891	0.00013809	962.68	1.6702e-06	4.8471e-06	1019.7	349.09	3.0758e-06	3.6571e-06	393.65	134.54	120.8	46.302	5.7054e-06	53.885	0.00052631	0.00055032	0.00016061	1004.4	6.0754e-06	6.0075e-06	1067.1	367.31	6.3414e-06	5.8013e-06	412.52	143.4	129	49.25	5.8379e-06	57.312	-130.934	-53.219	-60.184	-124.411	14.183	-4.437	-125.493	-119.590	-1.809	1.353	-121.748	-117.379	-115.352	-109.107	-2.806	-111.724	-8191	255	
1973.288	1	1	0	0	0.060574	0.19759	0.11413	0.036293	0.31483	0.10867	0.13201	0.20661	0.076739	0.18489	0.19484	0.13565	0.070006	0.065614	0.053173	0.31254	-2.8	-3.525	-2.9437	-3.4479	-3.3646	-2.8458	-3.8312	-3.2083	-3.1	-3.7271	-2.825	-3.2938	-3.5146	-2.7562	-3.6167	-3.3292	118.092	13.586	87.272	190.899	-117.222	210.410	8.035	139.132	4.206	-60.977	180.941	213.455	123.130	-114.657	-74.221	205.732	0.00031942	0.00062105	0.00013259	963.21	3.336e-06	3.341e-06	1022	349.48	4.241e-06	5.3273e-06	393.31	135.25	120.84	46.303	2.8562e-06	54.218	0.00052444	0.00055445	0.00015621	1003.5	5.9485e-06	6.0508e-06	1069.4	367.8	6.4023e-06	5.9288e-06	413.91	143.99	129.32	49.403	6.0327e-06	57.656	-124.878	-47.189	-76.774	-124.303	8.358	2.333	-125.447	-119.534	14.386	20.321	-121.435	-117.473	-115.057	-108.885	-23.506	-111.596	-8191	255	
1973.408	1	1	0	0	0.22606	0.077731	0.12655	0.19319	0.16411	0.1583	0.20453	0.25622	0.068478	0.12791	0.12982	0.30624	0.022911	0.14624	0.19023	0.24835	-2.7479	-3.7229	-2.6729	-3.5417	-3.5333	-2.6937	-3.6312	-3.1375	-2.8937	-3.5833	-3.0542	-3.3208	-3.3438	-2.825	-3.6979	-3.3854	-0.738	50.190	101.146	216.892	90.240	111.144	121.784	147.761	166.528	-99.691	-29.300	220.576	-52.948	175.475	-130.084	177.655	0.00033868	0.0005575	0.00012721	961.44	3.4768e-06	4.7304e-06	1025.8	348.4	2.7101e-06	5.6602e-06	393.59	135.47	121.05	46.408	3.697e-06	54.191	0.00053478	0.0005658	0.000158	1004.2	5.8655e-06	6.2862e-06	1070.7	367.19	6.3612e-06	5.9226e-06	413.21	144.29	129.17	49.417	6.3613e-06	57.76	-130.491	-54.222	-42.108	-124.399	19.460	19.417	-125.541	-119.694	-11.407	3.495	-121.511	-117.365	-115.171	-108.775	-6.949	-111.649	-8191	255	
1973.503	1	1	0	0	0.20686	0.047889	0.14048	0.079971	0.3362	0.083493	0.08366	0.19617	0.11743	0.19109	0.20004	0.028082	0.13213	0.33943	0.027523	0.094702	-2.5062	-3.9	-2.9625	-3.0458	-3.5646	-2.9271	-3.5625	-3.3979	-2.85	-3.4521	-3.1375	-3.1229	-3.6708	-2.9229	-3.3125	-3.4167	-3.416	-34.558	-36.381	76.808	-67.229	183.354	0.854	214.244	-48.587	33.882	180.625	135.362	-60.625	121.116	60.280	41.087	0.00033655	0.00047417	0.00011851	959.89	2.3946e-06	5.3646e-06	1018.2	348.13	2.9453e-06	6.9601e-06	392.52	134.22	120.15	46.166	4.9826e-06	53.832	0.00052259	0.00057124	0.00015462	1001.7	5.731e-06	6.3074e-06	1065.5	366.25	6.3427e-06	6.1226e-06	410.71	142.86	128.56	49.114	6.4127e-06	57.016	-128.226	-40.115	-40.133	-124.441	8.029	16.535	-125.612	-119.538	-2.148	6.159	-121.561	-117.164	-114.920	-108.842	7.749	-111.465	-8191	255	
1973.576	1	1	0	0	0.14707	0.063639	0.32539	0.14652	0.22295	0.18139	0.13253	0.20365	0.090613	0.15772	0.13877	0.053861	0.25074	0.26716	0.13759	0.33614	-2.3937	-3.6083	-2.9979	-3.3104	-3.6021	-2.8229	-3.6688	-3.5708	-2.7083	-3.6562	-3.1729	-3.1396	-3.7146	-2.8646	-3.2979	-3.7083	183.767	178.549	-41.977	197.349	98.182	105.843	178.694	213.812	-90.709	179.031	158.156	-122.150	-94.523	-6.340	215.304	183.466	0.00032904	0.00041349	0.00015399	955.17	3.7883e-06	5.2972e-06	1007.3	345.38	3.7052e-06	5.246e-06	388.06	133.01	119.02	45.9	1.0705e-06	53.372	0.00053083	0.00057514	0.00015474	996.24	5.8427e-06	6.2712e-06	1056	363.01	6.3332e-06	6.0637e-06	407.29	141.43	127.34	48.81	6.3337e-06	56.663	-128.618	-62.825	-45.283	-124.345	6.183	9.396	-125.509	-119.607	-7.657	-1.614	-121.526	-117.237	-115.147	-108.808	-32.906	-111.703	-8191	255	
1973.672	1	1	0	0	0.19855	0.26991	0.112	0.24434	0.047527	0.18406	0.13649	0.32146	0.10339	0.11909	0.1203	0.061585	0.16213	0.14267	0.49143	0.2825	-2.3271	-3.5979	-3.1458	-3.0687	-3.7313	-2.9479	-3.35	-3.6479	-2.8458	-3.6521	-3.2875	-2.9521	-3.675	-3.0354	-3.0521	-3.7458	77.366	-0.510	-24.443	127.897	134.609	178.284	157.504	157.850	46.303	18.307	-19.861	-65.147	203.371	163.275	-87.517	204.571	0.00029745	0.00036736	0.00017639	949.92	1.4259e-06	3.113e-06	1008	343.49	4.2311e-06	6.7202e-06	388.86	132.82	118.84	46.171	3.9595e-06	53.898	0.00052177	0.00056826	0.00015015	992.46	5.7504e-06	6.206e-06	1056.8	362.2	6.0886e-06	6.2094e-06	407.12	141.47	127.24	49.128	6.4012e-06	57.248	-131.378	-21.195	-50.038	-124.185	16.432	-16.072	-125.515	-119.526	-5.175	8.609	-121.442	-117.387	-115.070	-108.658	5.877	-111.542	-8191	255	
1973.791	1	1	0	0	0.093794	0.23861	0.2334	0.16108	0.16326	0.19356	0.21237	0.050865	0.2457	0.28323	0.3765	0.24389	0.24554	0.31777	0.21158	0.22348	-2.4146	-3.25	-3.1667	-2.8104	-3.6854	-2.9583	-3.2021	-3.7	-2.9688	-3.3875	-3.5708	-3.0312	-3.7708	-3.2042	-3.0104	-3.775	-102.398	-108.406	-48.281	-99.510	99.322	133.875	186.856	-17.917	208.107	-4.190	187.000	213.227	169.681	177.634	75.441	124.876	0.00031147	0.00038605	0.0001825	953.14	3.5134e-06	4.0154e-06	1013.3	344.84	3.891e-06	5.1565e-06	392.1	135.17	120.48	46.619	3.1711e-06	54.42	0.0005323	0.00057249	0.00015259	994.93	6.1252e-06	6.489e-06	1061.2	363.05	6.2532e-06	6.6009e-06	410.26	143.68	128.95	49.638	6.6059e-06	57.954	-128.300	-42.987	-47.919	-124.255	14.399	-6.133	-125.393	-119.726	-17.396	31.992	-121.487	-117.038	-114.978	-108.802	32.862	-111.734	-8191	255	
1973.887	1	1	0	0	0.14037	0.26467	0.050746	0.19119	0.091513	0.10777	0.2798	0.13599	0.21837	0.14616	0.162	0.17308	0.16298	0.20579	0.087648	0.14899	-2.4667	-3.1063	-3.4375	-2.9313	-3.5271	-3.0979	-3.2667	-3.7083	-2.8438	-3.4396	-3.6708	-2.8958	-3.4979	-3.325	-2.8396	-3.6583	192.114	-111.329	46.934	165.972	82.898	198.316	142.740	171.777	71.066	-66.674	-118.948	-102.435	100.494	195.686	-16.939	78.710	0.00029973	0.00049539	0.00011669	955.47	3.5978e-06	4.1303e-06	1019	346.8	4.259e-06	6.713e-06	390.99	135.72	121.46	47.148	3.4441e-06	55.188	0.00055768	0.00059195	0.00015878	998.57	6.3298e-06	6.4119e-06	1068.2	365.5	6.2285e-06	6.7785e-06	411.99	145.02	130.05	50.132	6.7665e-06	58.551	-128.560	-30.695	-48.273	-124.271	-8.767	-9.874	-125.424	-119.250	-6.561	8.658	-121.406	-117.300	-114.829	-108.783	5.549	-111.588	-8191	255	
1973.984	1	1	0	0	0.060227	0.48349	0.22413	0.25538	0.14565	0.1062	0.35405	0.091113	0.10345	0.21823	0.13069	0.14756	0.16194	0.21798	0.3063	0.14638	-2.5521	-3.0875	-3.4896	-2.9646	-3.4729	-3.3729	-2.8833	-3.8312	-2.8583	-3.2479	-3.5646	-3.0125	-3.5812	-3.4917	-2.7812	-3.6396	-130.952	61.391	-55.443	-38.290	-126.952	-134.105	141.768	175.345	-46.168	-103.799	-114.489	-95.220	-103.025	187.520	-44.803	107.637	0.00034045	0.00035681	0.00012723	958.07	3.5145e-06	3.7111e-06	1017.2	345.06	2.3806e-06	6.0641e-06	390.36	134.7	120.8	46.841	4.2161e-06	54.656	0.00054638	0.00059436	0.00016012	999.6	6.3229e-06	6.2103e-06	1063.8	364.07	6.1353e-06	6.737e-06	409.36	143.72	129.17	49.941	6.5818e-06	58.076	-127.812	-65.516	-39.211	-124.183	20.802	-7.604	-125.304	-119.418	-0.690	15.941	-121.396	-117.020	-114.931	-108.816	10.375	-111.427	-8191	255	
1974.104	1	1	0	0	0.1565	0.21046	0.2363	0.1333	0.040438	0.16017	0.17651	0.29479	0.16904	0.24402	0.32626	0.15031	0.04142	0.12409	0.053427	0.20444	-2.7667	-3.025	-3.3812	-3.0833	-3.25	-3.4417	-2.8438	-3.8146	-3.0979	-2.9854	-3.8042	-2.8979	-3.25	-3.4375	-2.5833	-3.5125	177.919	205.995	-33.704	-100.381	192.139	-108.322	172.287	136.161	19.529	-5.608	187.224	-103.538	-86.477	-136.355	22.034	121.407	0.00031288	0.0006029	0.00010453	953.46	2.8234e-06	4.2325e-06	1010	345.67	3.3004e-06	3.7978e-06	390.63	135.4	121.76	47.244	3.7388e-06	54.963	0.00054115	0.00058779	0.00016254	993.99	6.6092e-06	6.3176e-06	1059.5	363.8	6.0982e-06	6.735e-06	410.07	144.35	130.09	50.302	6.8034e-06	58.319	-130.869	-48.908	-66.823	-124.246	30.812	15.115	-125.415	-119.410	-18.946	15.429	-121.468	-117.535	-115.176	-108.942	7.099	-111.554	-8191	255	
1974.176	1	1	0	0	0.15365	0.26453	0.15942	0.24213	0.1903	0.055052	0.26692	0.059652	0.36017	0.09969	0.12464	0.22642	0.14953	0.16537	0.1273	0.10874	-2.7729	-2.8438	-3.5792	-3.0708	-3.2417	-3.4542	-2.8354	-3.4292	-3.2188	-3.1167	-3.7771	-3.0083	-3.3833	-3.6562	-2.7812	-3.5958	219.463	200.014	187.879	167.759	-66.582	100.039	109.634	183.261	117.091	-48.212	138.895	209.350	-133.210	-110.401	104.770	-74.707	0.00032054	0.00059058	0.00015196	951.83	2.0595e-06	4.7979e-06	1013.7	346.96	3.8391e-06	4.3064e-06	390.16	135.8	121.48	47.068	4.0421e-06	54.867	0.00055328	0.00061846	0.0001689	995.54	6.8113e-06	6.425e-06	1060.6	364.83	6.4828e-06	6.9936e-06	409.91	144.13	129.68	50.126	6.8815e-06	58.351	-126.408	-41.623	-62.548	-124.261	20.147	6.604	-125.579	-119.489	21.407	21.924	-121.416	-117.388	-114.884	-108.700	26.811	-111.818	-8191	255	
1974.272	1	1	0	0	0.24276	0.099696	0.13331	0.42277	0.16435	0.29074	0.24552	0.16405	0.039047	0.20134	0.16748	0.16334	0.29638	0.21561	0.22425	0.061274	-2.9958	-2.7083	-3.5792	-3.025	-3.1292	-3.5438	-2.9042	-3.6979	-3.2271	-2.8208	-3.8271	-3.15	-3.0396	-3.9458	-2.9292	-3.5479	159.705	-96.306	59.834	-118.251	148.077	74.654	160.951	163.766	194.665	-1.329	209.540	23.011	148.120	125.333	-56.413	124.923	0.00032562	0.00045404	0.00016378	951.02	2.7566e-06	6.0443e-06	1010.2	344.86	3.282e-06	6.1361e-06	388.75	134.35	120.25	46.647	4.1215e-06	54.613	0.0005448	0.00062159	0.00017122	993.2	6.8119e-06	6.3032e-06	1058.6	363.88	6.5459e-06	6.8596e-06	409.3	143.27	128.72	49.75	6.5641e-06	58.061	-132.670	-70.210	-39.373	-124.501	9.864	1.015	-125.336	-119.350	-27.508	-15.343	-121.138	-117.027	-114.896	-108.803	-8.228	-111.261	-8191	255	
1974.393	1	1	0	0	0.3857	0.15261	0.048472	0.17049	0.12177	0.091665	0.14051	0.10773	0.095258	0.2164	0.15252	0.17615	0.12548	0.20733	0.14528	0.13699	-3.0375	-2.7833	-3.4688	-3.1625	-2.8958	-3.5479	-3.05	-3.5167	-3.5042	-2.7604	-3.6521	-3.2396	-3.0104	-3.6333	-2.9417	-3.2167	133.259	-107.571	204.356	173.544	66.069	46.571	125.013	173.219	-24.513	27.316	-81.114	41.730	-52.057	-111.210	-119.891	146.048	0.000328	0.000672	0.00019157	948.8	1.7658e-06	2.4631e-06	1006.5	345.15	3.2176e-06	6.9701e-06	392.45	135.98	122.15	47.348	3.133e-06	55.676	0.00053543	0.00062762	0.00017415	990.94	6.8604e-06	6.4825e-06	1054.8	362.8	6.8267e-06	6.9976e-06	411.82	145.21	130.49	50.437	7.2192e-06	59.12	-129.860	-67.677	-49.607	-124.429	6.124	-4.753	-125.569	-119.123	-6.948	48.182	-121.233	-117.299	-114.924	-109.000	-18.770	-111.814	-8191	255	
1974.489	1	1	0	0	0.072831	0.29294	0.20122	0.092148	0.083331	0.10018	0.17067	0.054695	0.15603	0.26191	0.22737	0.071678	0.31664	0.10905	0.20696	0.1819	-3.2208	-2.9104	-3.4729	-3.3646	-2.8479	-3.8896	-3.1542	-3.1792	-3.6542	-2.8979	-3.5458	-3.5792	-3.0229	-3.7229	-2.8292	-3.125	-132.285	69.444	29.992	216.028	127.815	93.222	135.719	129.710	167.802	150.442	122.943	-64.050	161.817	132.410	132.033	206.497	0.00033765	0.00041745	0.00019292	962.54	3.838e-06	4.0656e-06	1021.9	353.42	3.0083e-06	6.2212e-06	400.4	141.39	126.75	48.703	4.8459e-06	56.486	0.00059229	0.00070628	0.0001981	1003.9	7.797e-06	7.6633e-06	1069.3	372.42	7.7541e-06	8.0528e-06	420.88	150.61	135.57	51.978	8.0279e-06	60.029	-128.286	-63.929	-34.659	-124.338	7.049	0.788	-125.571	-119.312	0.357	25.956	-121.238	-117.381	-115.374	-109.477	2.105	-112.001	-8191	255	
1974.583	1	1	0	0	0.13803	0.20965	0.18349	0.14379	0.19707	0.13396	0.047058	0.090353	0.20247	0.061243	0.20624	0.14436	0.061196	0.15976	0.098855	0.31238	-3.3479	-2.7708	-3.2083	-3.7562	-2.7833	-3.6125	-3.175	-3.0563	-3.5625	-2.8396	-3.4354	-3.3937	-2.825	-3.8167	-3.0792	-2.95	80.552	19.784	-70.561	183.843	70.935	-129.909	133.141	-71.020	105.113	91.957	212.338	82.067	-85.483	163.954	136.396	112.897	0.00033274	0.00055664	0.0001891	968.2	2.1919e-06	5.896e-06	1021.4	353.84	3.4036e-06	4.5334e-06	399.79	141.49	126.1	48.448	4.686e-06	55.91	0.00064161	0.00077563	0.00021891	1009.8	8.2947e-06	8.3065e-06	1070.7	373.31	8.1014e-06	8.0957e-06	419.59	150.39	134.95	51.76	7.9724e-06	59.537	-126.149	-33.272	-45.619	-124.478	-5.637	-8.116	-125.579	-119.342	-38.398	36.870	-121.142	-117.514	-114.978	-109.332	11.722	-111.844	-8191	255	
1974.704	1	1	0	0	0.06731	0.054849	0.11408	0.12971	0.051349	0.1089	0.049724	0.11094	0.16453	0.27169	0.077376	0.17529	0.21211	0.1506	0.19029	0.27696	-3.1937	-2.7771	-3.3458	-3.4354	-2.8083	-3.5083	-3.2667	-2.9479	-3.6917	-2.9625	-3.1625	-3.5854	-2.8125	-3.5792	-3.2792	-3.1708	47.639	173.824	12.012	151.692	140.621	145.281	-32.258	-102.961	15.726	-47.139	212.537	58.133	162.979	160.477	23.270	121.303	0.00032096	0.00034101	0.00012391	963.12	4.4872e-06	4.668e-06	1021.7	351.83	3.1025e-06	5.854e-06	397.32	139.69	124.73	48.27	2.5661e-06	55.901	0.00062453	0.00074052	0.00020336	1005.8	7.7898e-06	8.1822e-06	1070.3	371.15	7.8834e-06	7.8829e-06	417.97	148.94	133.94	51.384	7.7659e-06	59.419	-130.594	-42.846	-33.545	-124.310	30.752	-14.441	-125.661	-119.459	7.578	25.095	-121.208	-117.419	-115.258	-109.311	-23.922	-111.759	-8191	255	
1974.775	1	1	0	0	0.064682	0.13154	0.19672	0.24088	0.1383	0.13739	0.095682	0.2194	0.29176	0.18616	0.11725	0.15013	0.046079	0.18683	0.12767	0.13932	-3.1458	-2.8458	-3.1	-3.5917	-2.7562	-3.3292	-3.4583	-2.9083	-3.525	-3.0396	-3.125	-3.725	-2.7833	-3.5958	-3.4208	-2.8146	-9.128	-69.213	14.848	99.713	16.234	164.820	196.314	123.430	201.164	25.116	6.316	-28.484	217.021	-126.187	-85.381	180.348	0.00032355	0.00060668	0.00013003	964.83	1.3633e-06	4.3412e-06	1020.8	351.67	2.4105e-06	5.3269e-06	398.74	139.68	125.16	48.201	3.8729e-06	56.007	0.00062629	0.00073492	0.00019813	1007	7.6656e-06	8.3079e-06	1070.6	370.59	7.8633e-06	7.5354e-06	418.77	148.87	133.63	51.415	7.6443e-06	59.591	-128.341	-44.456	-47.057	-124.410	5.434	-7.522	-125.550	-119.382	-10.492	10.294	-121.362	-117.672	-115.179	-109.404	6.916	-111.670	-8191	255	
1974.872	1	1	0	0	0.22005	0.1387	0.1582	0.1292	0.26072	0.11833	0.12912	0.18357	0.088168	0.28857	0.088337	0.13695	0.11388	0.11117	0.10999	0.23707	-3.2542	-3.0646	-3.0229	-3.8312	-2.9083	-3.3104	-3.6292	-2.8438	-3.6292	-3.1813	-2.9854	-3.8187	-2.9792	-3.3292	-3.4708	-2.8521	18.838	-67.590	82.750	200.014	26.400	-20.993	212.762	178.010	-83.770	5.679	79.244	-20.968	1.850	117.061	1.916	-33.466	0.00033674	0.00061803	0.00012654	965.49	3.9843e-06	4.2805e-06	1026.1	351.07	2.508e-06	6.4924e-06	398.52	140.09	124.74	48.179	2.4831e-06	55.539	0.00062581	0.00070297	0.00019681	1007.5	7.2945e-06	8.0094e-06	1074.6	370.31	7.6686e-06	7.3991e-06	418.58	149.2	133.69	51.422	7.5359e-06	59.088	-131.427	-34.466	-37.249	-124.405	-3.455	-11.733	-125.502	-119.248	-40.923	28.840	-121.383	-117.428	-115.279	-109.153	6.173	-112.036	-8191	255	
#DATA ENDS
