BOXY.EXE: ISS Imagent and Oximeter Data Acquisition Program Version 0.80
Ascii Record File

#ACQ INFORMATION
2  Detector Channels 
16  External MUX Channels 
1  Auxiliary Channels 
5000  Waveform (CCF) Frequency (Hz)
1  Waveforms Skipped 
30  Waveforms Averaged 
1  Cycles Averaged 
16  Acquisitions per Waveform 
10.0806  Updata Rate (Hz) 

#FILE INFORMATION
TRUE -- External MUX Channel results are PARSED.
FALSE -- AC DC and Phase are NOT grouped.
TRUE -- Companion Program Settings File CREATED.
FALSE -- AC data not excluded
FALSE -- DC data not excluded
FALSE -- Phase data not excluded
FALSE -- Auxillary Chn. data not excluded
Tab delimiters

#CALIBRATION STATE
TRUE -- Waveform Calibration Values APPLIED.


#AUX CALIBRATION VALUES
Val Type	aux-1	

Term	1.0000e+00	
Factor	0.0000e+00	


#WF CALIBRATION VALUES
A = Detector Channel
Val Type	A-AC1	A-AC2	A-AC3	A-AC4	A-AC5	A-AC6	A-AC7	A-AC8	A-AC9	A-AC10	A-AC11	A-AC12	A-AC13	A-AC14	A-AC15	A-AC16	A-DC1	A-DC2	A-DC3	A-DC4	A-DC5	A-DC6	A-DC7	A-DC8	A-DC9	A-DC10	A-DC11	A-DC12	A-DC13	A-DC14	A-DC15	A-DC16	A-Ph1	A-Ph2	A-Ph3	A-Ph4	A-Ph5	A-Ph6	A-Ph7	A-Ph8	A-Ph9	A-Ph10	A-Ph11	A-Ph12	A-Ph13	A-Ph14	A-Ph15	A-Ph16	

Term	0.00000e+00	0.00000e+00	0.00000e+00	0.00000e+00	0.00000e+00	0.00000e+00	0.00000e+00	0.00000e+00	0.00000e+00	0.00000e+00	0.00000e+00	0.00000e+00	0.00000e+00	0.00000e+00	0.00000e+00	0.00000e+00	0.00000e+00	0.00000e+00	0.00000e+00	0.00000e+00	0.00000e+00	0.00000e+00	0.00000e+00	0.00000e+00	0.00000e+00	0.00000e+00	0.00000e+00	0.00000e+00	0.00000e+00	0.00000e+00	0.00000e+00	0.00000e+00	0.00000e+00	0.00000e+00	0.00000e+00	0.00000e+00	0.00000e+00	0.00000e+00	0.00000e+00	0.00000e+00	0.00000e+00	0.00000e+00	0.00000e+00	0.00000e+00	0.00000e+00	0.00000e+00	0.00000e+00	0.00000e+00	
Factor	1.00000e+00	1.00000e+00	1.00000e+00	1.00000e+00	1.00000e+00	1.00000e+00	1.00000e+00	1.00000e+00	1.00000e+00	1.00000e+00	1.00000e+00	1.00000e+00	1.00000e+00	1.00000e+00	1.00000e+00	1.00000e+00	1.00000e+00	1.00000e+00	1.00000e+00	1.00000e+00	1.00000e+00	1.00000e+00	1.00000e+00	1.00000e+00	1.00000e+00	1.00000e+00	1.00000e+00	1.00000e+00	1.00000e+00	1.00000e+00	1.00000e+00	1.00000e+00	X	X	X	X	X	X	X	X	X	X	X	X	X	X	X	X	

B = Detector Channel
Val Type	B-AC1	B-AC2	B-AC3	B-AC4	B-AC5	B-AC6	B-AC7	B-AC8	B-AC9	B-AC10	B-AC11	B-AC12	B-AC13	B-AC14	B-AC15	B-AC16	B-DC1	B-DC2	B-DC3	B-DC4	B-DC5	B-DC6	B-DC7	B-DC8	B-DC9	B-DC10	B-DC11	B-DC12	B-DC13	B-DC14	B-DC15	B-DC16	B-Ph1	B-Ph2	B-Ph3	B-Ph4	B-Ph5	B-Ph6	B-Ph7	B-Ph8	B-Ph9	B-Ph10	B-Ph11	B-Ph12	B-Ph13	B-Ph14	B-Ph15	B-Ph16	

Term	0.00000e+00	0.00000e+00	0.00000e+00	0.00000e+00	0.00000e+00	0.00000e+00	0.00000e+00	0.00000e+00	0.00000e+00	0.00000e+00	0.00000e+00	0.00000e+00	0.00000e+00	0.00000e+00	0.00000e+00	0.00000e+00	0.00000e+00	0.00000e+00	0.00000e+00	0.00000e+00	0.00000e+00	0.00000e+00	0.00000e+00	0.00000e+00	0.00000e+00	0.00000e+00	0.00000e+00	0.00000e+00	0.00000e+00	0.00000e+00	0.00000e+00	0.00000e+00	-9.97839e+01	-1.27879e+02	-1.28521e+02	-1.82006e+02	-5.58992e+01	-7.33021e+01	-1.57810e+02	-1.62015e+02	-5.12818e+01	-6.74143e+01	-1.72403e+02	-1.70165e+02	-1.80574e+02	-1.76604e+02	-6.35904e+01	-1.48996e+02	
Factor	1.65874e-05	1.60630e-04	4.67225e-05	1.56642e-01	1.23825e-06	1.65992e-06	1.81458e-01	5.32774e-02	1.10927e-06	1.85625e-06	9.31568e-02	3.11199e-02	4.21576e-02	9.47623e-03	1.36244e-06	1.40405e-02	8.31017e-06	1.23189e-05	3.42039e-06	7.89887e-02	1.27350e-07	1.35954e-07	8.60234e-02	2.70087e-02	1.27156e-07	1.36589e-07	4.55214e-02	1.53836e-02	2.16466e-02	4.83925e-03	1.31139e-07	6.92868e-03	X	X	X	X	X	X	X	X	X	X	X	X	X	X	X	X	



#DISTANCE SETTINGS
A = Detector Channel
A-1	A-2	A-3	A-4	A-5	A-6	A-7	A-8	A-9	A-10	A-11	A-12	A-13	A-14	A-15	A-16	

2.5000e+00	3.0000e+00	2.5000e+00	3.0000e+00	2.0000e+00	3.0000e+00	1.5000e+00	3.0000e+00	3.0000e+00	3.0000e+00	3.0000e+00	3.0000e+00	3.0000e+00	3.0000e+00	1.5000e+00	3.0000e+00	

B = Detector Channel
B-1	B-2	B-3	B-4	B-5	B-6	B-7	B-8	B-9	B-10	B-11	B-12	B-13	B-14	B-15	B-16	

1.0000e+01	1.0000e+01	1.0000e+01	1.4400e+00	1.0000e+01	1.0000e+01	1.5100e+00	1.9400e+00	1.0000e+01	1.0000e+01	1.9900e+00	2.4900e+00	2.4100e+00	2.9000e+00	1.0000e+01	2.9800e+00	




#DATA BEGINS
time	group	step	mark	flag	A-AC1	A-AC2	A-AC3	A-AC4	A-AC5	A-AC6	A-AC7	A-AC8	A-AC9	A-AC10	A-AC11	A-AC12	A-AC13	A-AC14	A-AC15	A-AC16	A-DC1	A-DC2	A-DC3	A-DC4	A-DC5	A-DC6	A-DC7	A-DC8	A-DC9	A-DC10	A-DC11	A-DC12	A-DC13	A-DC14	A-DC15	A-DC16	A-Ph1	A-Ph2	A-Ph3	A-Ph4	A-Ph5	A-Ph6	A-Ph7	A-Ph8	A-Ph9	A-Ph10	A-Ph11	A-Ph12	A-Ph13	A-Ph14	A-Ph15	A-Ph16	B-AC1	B-AC2	B-AC3	B-AC4	B-AC5	B-AC6	B-AC7	B-AC8	B-AC9	B-AC10	B-AC11	B-AC12	B-AC13	B-AC14	B-AC15	B-AC16	B-DC1	B-DC2	B-DC3	B-DC4	B-DC5	B-DC6	B-DC7	B-DC8	B-DC9	B-DC10	B-DC11	B-DC12	B-DC13	B-DC14	B-DC15	B-DC16	B-Ph1	B-Ph2	B-Ph3	B-Ph4	B-Ph5	B-Ph6	B-Ph7	B-Ph8	B-Ph9	B-Ph10	B-Ph11	B-Ph12	B-Ph13	B-Ph14	B-Ph15	B-Ph16	aux-1	digaux	

2659.713	1	1	0	768	0.19153	0.087408	0.2721	0.17327	0.099076	0.11764	0.28847	0.23321	0.049097	0.16226	0.30659	0.24041	0.20338	0.11084	0.10364	0.32121	-2.8125	-3.4	-2.6146	-3.5833	-2.975	-3.0083	-3.6292	-2.8604	-3.1917	-3.5062	-2.9	-3.4708	-3.2458	-2.7875	-3.5104	-2.8563	30.079	151.475	44.665	223.112	45.747	37.914	216.460	157.259	201.525	139.737	186.533	181.055	256.517	-47.501	-14.938	221.613	0.00015303	0.00079389	6.0764e-05	525.78	5.593e-06	4.5587e-06	1348.5	163.44	5.2934e-06	3.8563e-06	432.61	181.63	66.703	29.278	5.1313e-06	83.987	0.00077627	0.00093228	0.00021185	418.69	8.8643e-06	9.2143e-06	1072.6	132.09	9.4114e-06	1.0617e-05	345.8	147.79	55.557	23.66	1.1293e-05	67.506	202.903	21.706	-22.074	-83.447	29.368	111.001	-83.614	-76.642	64.439	84.867	-77.096	-72.731	-72.086	-67.194	7.210	-68.360	-8191	255	
2659.809	1	1	0	0	0.2466	0.13112	0.27742	0.20567	0.2273	0.18175	0.15519	0.2689	0.12035	0.10374	0.17785	0.12679	0.20735	0.25721	0.020153	0.10113	-2.7542	-3.2792	-2.6188	-3.2625	-3.2583	-2.9188	-3.6083	-2.9062	-3.1667	-3.5938	-2.7979	-3.6813	-3.3958	-2.75	-3.5167	-2.8917	-73.690	126.981	182.233	171.611	237.479	-18.929	256.398	218.279	87.722	230.043	217.589	162.904	193.353	253.759	125.376	129.279	0.00016255	0.00094496	0.00029858	523.88	6.2237e-06	7.4393e-06	1331.1	163.57	1.6585e-06	3.365e-06	429.62	181.08	66.864	29.247	5.9549e-06	83.964	0.00073114	0.00097583	0.00021803	415.36	9.4324e-06	8.8381e-06	1057.4	131.02	9.1825e-06	1.1052e-05	342.29	146.39	55.082	23.502	1.1326e-05	67.226	238.320	27.794	59.420	-82.816	61.807	25.343	-83.435	-75.635	51.281	96.192	-77.648	-72.617	-71.899	-66.865	23.371	-68.050	-8191	255	
2659.905	1	1	0	0	0.25193	0.29571	0.083714	0.20377	0.055564	0.18149	0.20344	0.2198	0.099941	0.075445	0.28384	0.1463	0.12464	0.3646	0.058314	0.26655	-2.5312	-3.6312	-2.8229	-3.1437	-3.4271	-2.7917	-3.7771	-2.8896	-2.7938	-3.5833	-2.9146	-3.3688	-3.25	-2.725	-3.5312	-3.4292	203.005	-48.701	216.717	-25.114	181.042	-65.168	-69.829	212.250	146.716	0.837	223.197	209.312	217.971	143.027	255.766	145.663	0.00016146	0.00084813	8.1763e-05	518.53	5.298e-06	7.492e-06	1316.1	161.38	6.0679e-06	3.8029e-06	427.21	181.2	65.893	28.966	5.931e-06	83.137	0.00071263	0.0010257	0.00022017	413.17	1.0413e-05	8.409e-06	1050.6	129.67	8.7091e-06	1.1891e-05	342.94	146.06	54.854	23.515	1.196e-05	67.149	210.660	13.621	-12.007	-83.303	116.891	22.580	-83.603	-75.871	69.048	68.838	-77.248	-72.858	-70.570	-66.834	-14.183	-68.214	-8191	255	
2660.001	1	1	0	0	0.28855	0.050308	0.23285	0.060471	0.081369	0.18999	0.19087	0.32369	0.20139	0.18041	0.13114	0.11497	0.2818	0.15986	0.12222	0.17668	-2.3937	-3.5833	-3.0104	-3.1833	-3.5646	-2.7958	-3.5292	-3.3521	-2.8646	-3.6229	-3.0062	-3.3583	-3.4146	-2.9458	-3.3042	-3.3667	-91.570	159.485	43.204	227.486	212.563	209.142	238.004	155.668	132.097	12.111	209.453	174.102	63.231	242.435	-75.580	245.067	0.00014959	0.00048453	0.00010573	524.2	3.9169e-06	1.3347e-06	1326.5	158.77	5.9784e-06	7.814e-06	430.5	179.55	65.524	28.976	5.7282e-06	84.006	0.00068633	0.0010871	0.00023653	416.71	1.1152e-05	8.6155e-06	1053.3	129.21	8.5801e-06	1.2139e-05	343.73	146.14	55.007	23.457	1.1264e-05	67.99	228.930	-5.498	-29.085	-82.944	24.576	55.374	-83.424	-75.708	83.357	-13.256	-77.614	-72.799	-72.109	-66.390	14.945	-68.019	-8191	255	
2660.098	1	1	0	0	0.35732	0.064031	0.13839	0.13025	0.219	0.14112	0.19015	0.1286	0.25828	0.083213	0.36006	0.2763	0.062133	0.16046	0.27139	0.12337	-2.5833	-3.6188	-2.8417	-3.0958	-3.5604	-2.9542	-3.4021	-3.3125	-2.7625	-3.6688	-3.1125	-3.1229	-3.5187	-2.8521	-3.2521	-3.325	105.276	110.900	26.214	135.462	70.261	-70.145	107.188	65.073	-35.876	256.541	194.372	250.643	184.791	66.609	104.671	182.776	0.0001452	0.00089431	0.00011834	531.97	5.5172e-06	9.7526e-06	1337	160.37	1.7349e-06	6.3408e-06	432.08	181.95	66.675	28.805	4.0458e-06	85.524	0.00065811	0.0010666	0.00025084	421.23	1.1742e-05	9.3279e-06	1060.1	128.68	8.1298e-06	1.2124e-05	344.72	147.19	55.232	23.48	1.0719e-05	68.828	225.660	33.664	-13.990	-82.623	32.661	39.084	-83.358	-75.744	82.232	33.101	-77.259	-72.909	-71.391	-66.563	69.282	-68.570	-8191	255	
2660.194	1	1	0	0	0.02784	0.26116	0.32131	0.13312	0.057603	0.10014	0.19651	0.053179	0.19774	0.20068	0.29503	0.091978	0.11511	0.028295	0.039488	0.30884	-2.3604	-3.3479	-3.1229	-2.8688	-3.5104	-2.7542	-3.3271	-3.5563	-2.6667	-3.4958	-3.4562	-3.025	-3.5417	-2.6917	-3.2229	-3.5062	111.217	172.663	-27.335	246.274	-53.163	200.350	205.117	49.901	215.975	212.220	180.926	196.937	71.234	-36.852	42.262	207.499	0.0001885	0.0010934	0.00015279	530.61	5.3031e-06	3.7041e-06	1333.2	159.1	8.3537e-06	1.5987e-05	424.19	180.07	66.369	28.508	8.6233e-06	82.965	0.00063156	0.0010754	0.00026411	422.6	1.145e-05	8.8056e-06	1059.2	127.77	8.3923e-06	1.1462e-05	342.21	145.43	55.142	23.187	9.2254e-06	67.298	226.779	6.925	-31.641	-82.191	63.699	49.592	-83.525	-75.817	37.809	38.590	-77.351	-72.337	-71.843	-66.387	69.270	-68.593	-8191	255	
2660.313	1	1	0	0	0.22766	0.18268	0.13681	0.16703	0.2309	0.22029	0.16403	0.024257	0.11953	0.11012	0.25174	0.15739	0.16128	0.20291	0.20916	0.37407	-2.2708	-3.3979	-3.2625	-2.8417	-3.525	-2.9188	-3.15	-3.4313	-2.8146	-3.6417	-3.3458	-2.8958	-3.675	-2.9646	-3.1083	-3.7479	131.927	109.920	4.836	-40.935	184.505	-31.044	-12.282	256.217	-92.954	252.943	209.931	51.263	-32.242	256.847	129.305	258.288	0.00019596	0.00060877	0.00019429	533.3	4.3769e-06	4.2455e-06	1326.8	155.58	8.4617e-06	7.816e-06	423.79	178.68	65.437	28.404	7.2621e-06	83.227	0.00064857	0.0010057	0.00026694	423.49	1.1106e-05	9.5454e-06	1050.8	126.04	8.0996e-06	1.0853e-05	337.68	144.32	54.537	23.001	8.7661e-06	66.941	215.654	74.753	-10.916	-83.101	47.195	47.408	-83.497	-76.065	53.444	124.518	-77.446	-72.966	-71.351	-66.438	83.663	-68.086	-8191	255	
2660.409	1	1	0	0	0.16916	0.095939	0.034471	0.23511	0.035759	0.1609	0.090887	0.16092	0.12358	0.12211	0.19815	0.14152	0.056489	0.20634	0.17558	0.023717	-2.4271	-3.3042	-3.2854	-2.8229	-3.5542	-3.1875	-3.1042	-3.6312	-2.7042	-3.4083	-3.4354	-2.7646	-3.5104	-3.1979	-2.8563	-3.8229	60.682	245.803	191.140	198.060	102.796	159.744	181.283	85.577	23.094	-64.414	158.127	202.456	138.046	218.224	187.046	22.195	0.00017388	0.00022557	0.0002394	535.02	3.9623e-06	8.3634e-06	1317.7	153.97	2.1286e-06	9.033e-06	422.61	179.67	65.299	28.328	2.3012e-06	82.664	0.00065467	0.0009126	0.00026219	422.61	1.0799e-05	9.5043e-06	1046.8	124.54	8.6262e-06	9.9827e-06	338.41	144.57	54.342	23.025	8.3992e-06	66.99	209.322	122.838	38.511	-83.023	70.275	13.098	-83.512	-75.662	218.001	74.799	-76.806	-72.433	-71.531	-66.116	-6.106	-67.941	-8191	255	
2660.505	1	1	0	0	0.11373	0.30125	0.17581	0.14573	0.14104	0.10365	0.23587	0.181	0.067306	0.20494	0.17773	0.20662	0.053453	0.18956	0.2247	0.29736	-2.5292	-3.2896	-3.4792	-2.7292	-3.3917	-3.2938	-3.0438	-3.6646	-3.0125	-3.1771	-3.6354	-2.8208	-3.2583	-3.2708	-2.8625	-3.7812	152.452	-74.046	162.214	182.091	-62.888	41.996	151.994	253.915	-4.451	4.700	157.775	191.457	43.724	256.082	6.461	226.443	0.00017315	0.00054074	0.00032782	539.04	6.781e-06	1.9435e-06	1318.1	155.87	5.6273e-06	1.3607e-05	423.66	178.68	65.202	28.516	7.1832e-06	83.814	0.00065117	0.00091493	0.0002901	425.86	1.0395e-05	1.0289e-05	1045.4	125.33	8.6206e-06	9.7951e-06	339.3	144.63	54.521	23.273	8.0943e-06	67.851	211.748	-30.012	-6.057	-83.069	33.656	-7.760	-83.118	-75.539	90.071	63.028	-77.417	-72.459	-71.427	-66.723	51.305	-68.337	-8191	255	
2660.601	1	1	0	0	0.18357	0.24086	0.31401	0.12385	0.12098	0.23415	0.36588	0.092752	0.086661	0.19539	0.26393	0.16766	0.25075	0.047464	0.19524	0.11881	-2.5333	-3.1479	-3.5187	-2.8625	-3.4875	-3.325	-3.0146	-3.6333	-3.0083	-2.875	-3.4979	-2.9104	-3.4042	-3.4583	-2.9875	-3.7188	-3.690	206.067	-30.014	242.887	113.517	66.209	205.968	28.636	218.102	141.393	22.602	147.790	263.975	29.798	213.036	173.213	0.00026955	0.00052351	0.00026046	537.48	5.2261e-06	4.9003e-06	1321.5	156.65	2.4484e-06	8.4854e-06	425.67	179.67	65.867	28.534	6.7299e-06	84.214	0.00073668	0.00086576	0.00029858	423.15	1.0346e-05	1.0648e-05	1045.6	126.34	9.8336e-06	9.2963e-06	341.08	145.97	54.533	23.29	8.4268e-06	68.055	213.509	-58.407	-6.537	-82.537	42.342	105.133	-83.239	-75.564	63.321	89.812	-76.936	-72.814	-71.625	-67.536	60.271	-68.337	-8191	255	
2660.697	1	1	0	0	0.23903	0.24861	0.10525	0.22865	0.059569	0.16358	0.099783	0.34189	0.18437	0.13827	0.24266	0.19257	0.18048	0.067172	0.18958	0.22329	-2.5229	-3.0271	-3.5687	-2.6958	-3.3271	-3.4979	-2.7625	-3.4542	-3.1146	-2.95	-3.7604	-2.9188	-3.1167	-3.525	-2.7625	-3.575	143.509	-7.413	-66.972	173.654	142.183	253.901	-43.116	-74.701	46.528	-12.112	-75.743	141.623	-71.072	-15.565	-93.047	208.633	0.00020549	0.00052935	0.00032761	523.25	3.6592e-06	4.0394e-06	1299.4	155.91	3.6938e-06	4.0426e-06	420.17	178.57	65.114	27.827	4.8898e-07	82.134	0.00073777	0.00080973	0.00029247	415.17	9.6348e-06	1.0804e-05	1034.9	126.22	1.0283e-05	8.637e-06	338.98	145.19	53.977	22.715	8.7341e-06	66.47	208.367	-19.206	-14.607	-82.720	89.413	88.631	-83.476	-75.597	27.121	95.231	-77.445	-72.779	-71.728	-67.106	248.587	-68.269	-8191	255	
2660.793	1	1	0	0	0.17236	0.081575	0.081528	0.21309	0.028556	0.044242	0.17989	0.28919	0.18857	0.21079	0.13327	0.23365	0.14085	0.195	0.1762	0.053493	-2.725	-2.85	-3.6042	-3.0271	-2.9708	-3.4604	-2.9313	-3.3083	-3.3104	-2.7625	-3.7146	-2.9437	-3	-3.5979	-2.7417	-3.3729	-7.271	-78.787	97.427	-88.252	-78.411	-3.298	187.016	-57.741	189.511	-43.020	139.867	259.633	212.574	217.785	-31.859	182.709	0.00010968	0.00092479	0.00034105	517.71	6.6693e-06	8.7936e-06	1292.7	153.69	5.4454e-06	7.2694e-06	420.49	179.22	63.979	27.82	1.9625e-06	81.614	0.0007657	0.00080019	0.00029434	411.65	9.2533e-06	1.1299e-05	1025.5	124.45	1.0378e-05	8.5189e-06	335.69	144.31	53.494	22.624	8.8161e-06	65.99	257.719	-26.451	13.521	-83.574	108.587	45.972	-83.360	-76.282	95.190	90.531	-77.143	-72.686	-71.811	-66.429	-12.620	-68.226	-8191	255	
2660.890	1	1	0	0	0.32355	0.32267	0.12901	0.17782	0.080033	0.089278	0.25462	0.32376	0.13842	0.051211	0.12833	0.10604	0.28889	0.25579	0.1661	0.15988	-3.0292	-2.7458	-3.4271	-3.0938	-3.2583	-3.6729	-2.9208	-3.2375	-3.3458	-2.8354	-3.55	-3.2021	-3.0854	-3.55	-2.9646	-3.2438	43.536	251.101	113.475	190.583	23.254	183.153	182.050	168.606	61.077	68.173	96.347	171.753	-72.013	222.253	78.627	212.953	0.00020196	0.00084296	0.00029087	511.29	9.637e-07	8.172e-06	1303.3	157.02	5.5857e-06	7.9797e-06	419.74	179.27	65.019	27.526	4.1913e-06	82.272	0.00078413	0.00079777	0.00029295	407.74	8.5417e-06	1.1756e-05	1032.8	126.32	1.0455e-05	8.7946e-06	336.14	145.02	53.834	22.619	9.2516e-06	66.409	211.795	6.293	-76.402	-82.826	101.022	71.898	-82.974	-75.649	32.919	49.633	-77.276	-72.936	-71.423	-66.361	-37.910	-68.259	-8191	255	
2661.008	1	1	0	0	0.13321	0.20417	0.085682	0.16421	0.097302	0.1308	0.36741	0.16633	0.16883	0.2223	0.26647	0.11854	0.20422	0.051288	0.086497	0.26	-2.8479	-2.6854	-3.4854	-3.2792	-2.7958	-3.7104	-3.1479	-3.1958	-3.3729	-2.75	-3.6521	-3.1875	-2.9354	-3.6625	-2.9188	-3.2958	6.741	148.307	7.699	260.261	63.855	242.344	161.973	178.392	-86.432	196.928	215.788	94.212	157.846	215.036	66.722	154.556	0.00017184	0.00047994	0.0001444	516.11	2.852e-07	6.1219e-06	1306.5	157.75	1.4545e-06	5.9541e-06	423.79	179.86	65.637	28.018	3.1952e-06	82.932	0.00081369	0.00079649	0.00028276	407.01	8.2581e-06	1.1433e-05	1032.8	127.32	1.0521e-05	9.3259e-06	337.4	145.63	54.29	22.821	9.6928e-06	67.054	229.778	-12.420	-2.885	-82.880	24.658	223.019	-83.321	-75.484	-10.292	26.446	-76.528	-72.517	-71.499	-66.742	106.689	-68.414	-8191	255	
2661.105	1	1	0	0	0.19371	0.048535	0.25535	0.094418	0.18232	0.033632	0.15402	0.02661	0.17259	0.1958	0.18848	0.24212	0.2662	0.18841	0.066935	0.068222	-3.1021	-2.7542	-3.3792	-3.2542	-2.7958	-3.6437	-3.2333	-3.1771	-3.6688	-2.7396	-3.5083	-3.375	-2.6437	-3.5	-3.0917	-3.1271	71.236	-40.820	145.875	12.885	5.864	105.896	220.210	199.845	180.809	129.408	200.695	-93.565	178.383	-84.085	0.486	227.185	0.00021049	0.00013951	0.00018228	521.32	7.2663e-06	6.4402e-06	1298.8	155.16	3.1635e-06	1.2304e-06	422.13	180.09	64.102	28.071	5.8855e-06	83.464	0.00081026	0.0008481	0.00026422	411.05	7.8471e-06	1.1537e-05	1037	125.43	1.0772e-05	9.5479e-06	337.82	145.86	53.543	22.76	1.0403e-05	67.416	197.735	73.835	10.661	-82.809	13.708	42.579	-83.653	-75.867	79.689	-41.232	-77.077	-72.997	-71.086	-66.568	87.064	-68.051	-8191	255	
2661.201	1	1	0	0	0.1784	0.20054	0.06715	0.37048	0.1736	0.084838	0.10504	0.16034	0.049849	0.15697	0.34782	0.090514	0.17459	0.079869	0.2165	0.16801	-3.1562	-2.6792	-3.4833	-3.3292	-2.8438	-3.5208	-3.3208	-2.9688	-3.6	-2.8812	-3.2958	-3.5292	-2.6792	-3.375	-3.0833	-2.9917	-82.629	15.421	99.584	170.693	-23.455	17.198	-86.443	-60.008	-34.150	-79.066	249.578	259.237	198.680	-42.354	160.660	183.460	0.000239	0.00053977	9.1595e-05	538.31	4.2724e-06	3.5536e-06	1301.9	148.94	5.6629e-06	1.0464e-05	416.63	176.57	64.267	26.917	1.818e-06	81.97	0.00082409	0.00082616	0.00025473	427.19	8.4236e-06	1.1287e-05	1035.7	120.96	1.0899e-05	9.9687e-06	335.58	143.61	53.285	21.996	1.1325e-05	66.058	201.845	-53.811	-37.423	-83.078	54.137	-89.070	-82.828	-75.670	112.684	16.405	-77.296	-72.426	-70.469	-66.466	243.403	-68.060	-8191	255	
2661.274	1	1	0	0	0.108	0.2085	0.087228	0.17962	0.36354	0.15209	0.12733	0.37769	0.10202	0.075298	0.053929	0.089673	0.039201	0.16334	0.085183	0.13329	-3.1688	-2.775	-3.125	-3.4542	-2.6875	-3.5812	-3.3063	-2.8229	-3.4958	-3.0229	-3.3229	-3.6292	-2.6875	-3.3146	-3.2938	-2.9583	211.197	-73.841	90.661	-45.413	152.079	-53.985	159.073	203.626	-69.020	50.317	160.896	23.520	236.416	145.627	92.934	-72.337	0.00028727	0.00128	0.00031526	557.92	1.9415e-06	5.6947e-06	1302.1	146.47	2.2833e-06	2.0596e-06	417.42	173.96	64.017	26.446	3.3206e-06	81.355	0.00085671	0.00090636	0.00023906	443.25	8.6948e-06	1.0523e-05	1033.2	117.32	1.0927e-05	1.0251e-05	333.79	141.32	52.973	21.672	1.1065e-05	65.808	219.951	-5.273	11.723	-82.850	121.096	54.308	-83.040	-76.067	92.018	195.711	-77.868	-72.712	-71.427	-66.398	58.860	-68.249	-8191	255	
2661.393	1	1	0	0	0.17349	0.20111	0.015524	0.15446	0.18368	0.21737	0.23814	0.046013	0.11765	0.18651	0.077739	0.29536	0.1017	0.14781	0.12116	0.22249	-3.1021	-2.8708	-3.0458	-3.5333	-2.6917	-3.3937	-3.3708	-2.8333	-3.5354	-3.1333	-3.0875	-3.6125	-2.8208	-3.4375	-3.4479	-3.0125	73.008	33.834	185.920	204.578	77.286	42.982	183.678	107.237	178.047	141.830	107.540	228.016	98.235	-1.346	46.159	217.246	0.00017155	0.0012564	0.00014194	574.2	4.2823e-06	9.0641e-06	1294	146.23	8.3538e-06	6.7253e-06	418.51	174.85	63.528	26.623	7.9609e-07	81.214	0.00081509	0.00094989	0.00022986	453.98	9.4477e-06	1.0305e-05	1024.5	117.38	1.0713e-05	1.0893e-05	335.15	141.88	52.795	21.737	1.1189e-05	65.317	251.450	17.778	-2.365	-83.673	63.504	57.685	-83.299	-75.476	93.531	52.219	-77.936	-72.475	-71.909	-66.026	25.247	-68.357	-8191	255	
2661.489	1	1	0	0	0.24807	0.18041	0.21674	0.034987	0.065054	0.12181	0.12902	0.025037	0.23423	0.025556	0.023399	0.084579	0.26893	0.40883	0.18164	0.14512	-3.1792	-2.9562	-2.9875	-3.6625	-2.8104	-3.0687	-3.5792	-2.7479	-3.5083	-3.1958	-2.8167	-3.5167	-2.7771	-3.1437	-3.4	-2.8312	124.599	91.215	221.464	-12.365	234.329	103.047	141.520	143.031	39.793	-82.076	-83.582	-69.274	240.928	248.354	-92.756	235.713	0.00018144	0.00067126	0.00015968	570.19	5.7622e-06	9.7586e-06	1275.2	143.85	2.2013e-06	7.8342e-06	415.57	175.73	62.958	27.067	4.3877e-06	81.428	0.00079179	0.0010384	0.00020785	454.05	9.7743e-06	9.2924e-06	1015.6	116.79	1.0148e-05	1.1601e-05	333.05	141.87	52.869	22.008	1.1771e-05	65.916	223.034	18.175	-29.118	-83.190	51.837	110.102	-83.294	-75.722	174.598	65.854	-77.493	-72.463	-71.702	-66.304	151.507	-67.927	-8191	255	
2661.585	1	1	0	0	0.25415	0.13402	0.1834	0.13627	0.1846	0.28916	0.18488	0.073901	0.19986	0.22899	0.30178	0.29631	0.15178	0.23973	0.038202	0.26804	-3.0146	-3.2083	-2.6771	-3.5333	-2.9396	-3.2396	-3.4333	-2.8	-3.2542	-3.3312	-2.8937	-3.4792	-2.9729	-3.0062	-3.5792	-2.9229	82.020	131.735	122.656	-64.109	47.008	208.296	186.946	115.215	60.896	4.839	227.340	176.318	197.470	262.600	-39.863	135.810	0.00012949	0.00066992	0.00013267	576.35	5.5834e-06	9.1728e-06	1282.3	142.75	3.3005e-06	3.1932e-06	415.6	175.18	63.54	27.298	1.6093e-06	82.535	0.0007695	0.00099177	0.00020946	456.42	9.8255e-06	8.7611e-06	1022	115.63	9.7213e-06	1.1324e-05	330.72	142.17	53.279	22.129	1.0937e-05	66.682	203.238	8.916	23.272	-83.392	71.020	22.584	-82.980	-75.531	107.329	-78.575	-76.925	-72.508	-71.219	-66.383	-66.125	-68.216	-8191	255	
2661.706	1	1	0	0	0.080395	0.052174	0.048214	0.13955	0.19634	0.18498	0.32402	0.25638	0.33546	0.059631	0.12989	0.052413	0.36987	0.082808	0.17192	0.223	-2.8396	-3.1833	-2.4979	-3.3854	-2.9208	-2.8	-3.4854	-2.8187	-3.3479	-3.4521	-2.7875	-3.675	-3.2083	-3.0896	-3.5938	-2.975	192.309	-1.647	-78.140	-62.919	57.595	148.973	228.804	-69.343	158.624	28.208	150.220	-11.346	16.795	-85.138	19.325	180.031	0.00023576	0.0012162	0.0001686	578.48	3.5754e-06	8.3866e-06	1293.8	142.83	3.4562e-06	6.4945e-06	415.33	173.36	63.408	26.976	2.5841e-06	82.088	0.00071234	0.0010203	0.00021183	457.94	1.0338e-05	8.4107e-06	1031.8	115.05	9.0728e-06	1.1489e-05	331.5	141.06	53.086	21.868	1.1627e-05	66.056	226.491	10.385	-5.542	-83.125	108.729	136.329	-82.843	-75.796	75.389	244.846	-77.937	-72.194	-70.010	-66.269	149.809	-68.268	-8191	255	
2661.802	1	1	0	0	0.061031	0.11555	0.065279	0.19531	0.21312	0.1117	0.27069	0.010684	0.33554	0.15545	0.16752	0.17327	0.22158	0.17376	0.049829	0.17485	-2.7604	-3.4437	-2.7521	-3.3812	-3.2104	-2.8875	-3.7417	-3.0896	-2.9437	-3.6813	-2.9125	-3.5479	-3.3333	-2.8937	-3.6104	-2.9896	-68.271	213.220	136.423	23.675	110.184	231.229	201.560	-1.149	48.907	-59.488	18.286	223.563	15.115	-5.343	-67.709	-86.075	0.00015966	0.00075535	0.00017295	585.25	6.5487e-06	7.0643e-06	1284.1	143.16	2.4036e-06	9.4955e-06	412.78	175.44	64.58	26.655	7.2145e-06	80.179	0.00069231	0.0010387	0.00021966	461.9	1.0871e-05	8.1904e-06	1022.2	115.66	8.2524e-06	1.1652e-05	330.31	141.37	53.827	21.606	1.082e-05	64.757	220.610	28.690	-25.400	-83.534	51.554	43.786	-82.525	-75.658	14.414	75.833	-77.404	-72.665	-71.590	-66.213	98.313	-67.951	-8191	255	
2661.874	1	1	0	0	0.26017	0.31687	0.12446	0.33754	0.19966	0.074104	0.17144	0.16392	0.19499	0.095956	0.14256	0.04975	0.13856	0.14556	0.2237	0.094142	-2.8583	-3.6604	-2.7771	-3.5208	-3.2146	-2.9521	-3.8187	-3.2146	-2.9875	-3.7979	-2.8792	-3.2792	-3.4271	-2.925	-3.4979	-3.0812	146.183	199.965	84.364	259.549	257.899	155.374	182.823	70.716	51.274	206.708	150.258	179.412	136.363	200.322	253.171	158.850	0.00018531	0.00023818	2.5774e-05	558.5	3.9998e-06	1.0788e-05	1264.1	143.41	3.2085e-06	1.2378e-05	409.29	173.3	63.672	26.787	7.3735e-06	79.371	0.00065475	0.001086	0.00024402	447.48	1.1171e-05	8.9342e-06	1005.7	115.26	8.0066e-06	1.1789e-05	328.24	140.27	53.153	21.797	1.0374e-05	64.167	215.975	48.834	10.368	-82.905	58.778	108.006	-83.137	-76.058	16.073	33.526	-77.553	-72.880	-71.461	-66.148	76.521	-68.082	-8191	255	
2661.994	1	1	0	0	0.085873	0.11215	0.086117	0.04677	0.16741	0.16092	0.34666	0.086153	0.17083	0.098692	0.29919	0.16741	0.0384	0.16647	0.085305	0.086497	-2.4313	-3.6292	-2.7458	-3.2792	-3.5563	-2.8917	-3.6562	-3.1208	-2.975	-3.65	-2.9813	-3.1375	-3.6063	-2.7146	-3.5271	-3.5833	129.619	223.165	246.398	25.946	96.040	262.606	160.888	200.218	-19.294	97.182	232.477	236.836	240.967	-39.582	201.904	162.374	0.00015955	0.00034549	0.00021976	560.47	2.9061e-06	1.0196e-05	1265.8	140.44	3.9729e-06	4.639e-06	409.93	174.23	64.068	27.066	8.355e-06	81.079	0.00061594	0.0010879	0.00024934	447.3	1.1136e-05	9.606e-06	1001.8	114.16	8.0161e-06	1.1715e-05	327.43	140.21	53.103	21.992	9.8652e-06	65.135	230.656	15.733	1.014	-83.280	67.814	59.808	-82.766	-75.575	53.178	-86.702	-77.698	-72.665	-71.660	-66.035	23.441	-68.582	-8191	255	
2662.091	1	1	0	0	0.27772	0.15891	0.15245	0.12434	0.088137	0.15794	0.20606	0.096225	0.15306	0.016493	0.21755	0.18063	0.24289	0.11453	0.12045	0.073689	-2.5062	-3.575	-3.0667	-3.1917	-3.6208	-2.7167	-3.6437	-3.1833	-2.8604	-3.6604	-3.1271	-3.1583	-3.6125	-2.8146	-3.3563	-3.5104	-39.593	-74.954	32.637	246.370	34.836	117.665	204.222	264.984	231.421	-10.114	256.002	226.421	33.429	-75.314	76.693	174.824	0.00016853	0.00073574	0.00010228	579.28	4.3277e-06	2.0453e-06	1259.4	139.96	3.2395e-06	2.6109e-06	410.78	172.49	63.89	27.207	2.4827e-06	80.503	0.00063592	0.0010457	0.00025943	458.02	1.1062e-05	9.7731e-06	1003.8	114.46	8.1745e-06	1.1075e-05	330.38	139.7	53.185	22.135	9.872e-06	65.237	227.590	256.014	38.393	-83.296	102.744	70.930	-83.038	-75.404	95.234	153.350	-77.694	-72.008	-70.550	-66.053	51.202	-67.871	-8191	255	
2662.185	1	1	0	0	0.09478	0.1205	0.27177	0.21333	0.063903	0.073483	0.080471	0.18601	0.12946	0.055578	0.15101	0.25019	0.21081	0.077169	0.015906	0.15215	-2.375	-3.6646	-3.0208	-3.0208	-3.4875	-2.9708	-3.4	-3.5125	-2.7979	-3.3937	-3.2771	-3.0042	-3.6875	-2.9	-3.2646	-3.4896	-78.759	265.015	76.007	254.351	259.454	-28.186	228.397	250.422	157.677	21.617	87.436	137.384	-60.828	160.539	194.125	233.177	0.00022363	0.00056722	0.00026823	585.84	9.8615e-06	6.8548e-06	1249.6	141.58	4.1417e-06	4.0879e-06	414.39	170.73	61.623	26.707	4.6918e-06	79.711	0.00068893	0.0010255	0.00027384	463.99	1.1312e-05	1.0431e-05	997.14	115.12	8.8935e-06	1.0752e-05	331	137.64	51.891	21.823	9.6792e-06	64.383	216.418	-70.746	-91.011	-82.610	112.455	57.329	-82.194	-76.114	34.702	30.218	-77.520	-71.984	-71.323	-65.785	82.879	-67.607	-8191	255	
2662.306	1	1	0	0	0.092673	0.15316	0.098171	0.26842	0.031494	0.23109	0.33324	0.17108	0.22095	0.14321	0.16201	0.3594	0.094947	0.2391	0.18013	0.23641	-2.3312	-3.5687	-2.9917	-2.9646	-3.5687	-3.0479	-3.2417	-3.6167	-2.9646	-3.4146	-3.3625	-2.7417	-3.6208	-3.1667	-3.0667	-3.7062	207.056	100.792	112.322	250.513	32.326	-31.511	249.088	262.572	-88.167	35.621	-92.214	230.429	45.128	-65.933	220.564	256.928	0.00013861	0.0011545	0.00018551	587.28	7.3684e-06	8.018e-06	1245.2	143.05	3.6742e-06	4.2044e-07	413.9	167.72	61.851	26.107	6.191e-06	78.949	0.00067195	0.00094812	0.00028914	464.33	1.1372e-05	1.1165e-05	987.74	115.33	9.0191e-06	1.0186e-05	329.34	136.05	52.02	21.341	8.4363e-06	63.603	225.143	-11.672	11.485	-83.021	66.329	81.366	-82.636	-75.751	89.885	-28.050	-77.699	-71.964	-71.638	-65.781	65.702	-67.849	-8191	255	
2662.402	1	1	0	0	0.10064	0.19867	0.16158	0.28733	0.12061	0.36739	0.11014	0.0982	0.099499	0.095691	0.12125	0.46509	0.14966	0.35964	0.060853	0.32535	-2.4562	-3.3875	-3.3104	-2.8958	-3.5854	-3.1792	-3.2167	-3.7	-2.8958	-3.475	-3.2708	-2.9167	-3.4583	-2.9583	-2.8875	-3.6708	169.752	5.935	153.784	237.873	261.339	204.432	215.332	222.215	143.459	-93.410	-45.900	158.583	39.476	243.224	106.063	199.158	0.00014029	0.00057107	0.00021378	585.87	3.2885e-06	2.7249e-06	1235.7	141.11	5.9482e-06	5.4574e-06	407.32	167.81	60.696	25.802	5.8393e-06	79.369	0.00070084	0.0009058	0.00029575	463.2	1.0456e-05	1.0965e-05	980.43	114.23	9.4217e-06	9.9673e-06	326.7	135.7	50.953	21.096	8.144e-06	64.442	203.060	-6.818	-27.131	-83.919	53.323	-3.742	-83.024	-76.374	69.095	44.798	-78.014	-72.703	-70.444	-66.399	16.662	-68.214	-8191	255	
2662.498	1	1	0	0	0.21364	0.11257	0.25406	0.22506	0.20134	0.14337	0.28693	0.23842	0.16396	0.089981	0.12392	0.043252	0.13029	0.13687	0.3405	0.25078	-2.575	-3.2854	-3.3812	-2.8	-3.4021	-3.1771	-3.0771	-3.7083	-2.8354	-3.2583	-3.425	-2.8063	-3.4938	-3.3771	-2.7938	-3.6458	85.884	119.312	-45.273	2.011	110.919	61.154	195.602	157.853	239.064	58.576	61.663	137.624	258.776	206.071	-15.683	173.799	0.00018813	0.0003783	0.00028391	590.47	5.1298e-06	4.7811e-06	1220	140.72	4.579e-06	2.9269e-06	409.02	166.73	61.045	26.283	7.5189e-06	81.801	0.00074374	0.0008596	0.00029756	466.7	1.0051e-05	1.1356e-05	966.28	114.76	1.0172e-05	9.753e-06	327.55	135.39	50.774	21.487	8.7907e-06	66.161	217.161	-46.487	-47.870	-83.189	70.677	25.076	-82.990	-76.598	52.773	38.104	-77.982	-72.654	-70.549	-66.312	60.043	-68.355	-8191	255	
2662.570	1	1	0	0	0.18204	0.081665	0.18612	0.19086	0.16335	0.12682	0.11747	0.062731	0.14254	0.12046	0.34627	0.10445	0.10591	0.13676	0.21332	0.12515	-2.475	-3.1396	-3.3792	-2.7958	-3.5792	-3.3854	-2.8896	-3.4354	-3.1896	-3.0042	-3.8208	-3.0917	-3.5042	-3.4271	-2.6292	-3.7396	257.960	194.261	63.228	-86.408	-91.338	125.636	155.288	90.313	116.065	52.611	250.512	42.793	120.668	58.244	166.565	177.238	0.00019765	0.0010612	0.00017081	607.61	5.8268e-06	8.0172e-06	1216.5	141.69	7.6624e-06	4.4634e-06	411.25	167.46	60.271	26.972	6.3451e-06	84.978	0.00079279	0.00083258	0.00030827	479.46	1.017e-05	1.2315e-05	962.28	114.54	1.0918e-05	9.1498e-06	330	135.24	50.473	21.846	9.0063e-06	68.482	208.568	11.139	-14.219	-83.896	47.703	41.821	-82.692	-76.545	122.574	201.917	-78.014	-72.539	-71.547	-66.111	93.138	-68.317	-8191	255	
2662.690	1	1	0	0	0.2113	0.20034	0.17258	0.18255	0.21989	0.21267	0.19138	0.045367	0.22875	0.07891	0.11782	0.03966	0.06169	0.25583	0.081395	0.24813	-2.6937	-2.9458	-3.6396	-2.7583	-3.4229	-3.3563	-2.9896	-3.5062	-3.0458	-2.9917	-3.6875	-2.8563	-3.3792	-3.5271	-3.0438	-3.5729	-36.386	-34.496	187.573	-75.670	221.564	-60.993	219.495	63.733	116.580	22.295	-19.133	4.646	255.822	210.848	-57.038	260.009	0.00016695	0.00041869	0.00018702	610.13	4.4752e-06	5.1621e-06	1211.1	140.04	6.0521e-06	7.0997e-06	403.56	166.32	61.024	26.615	5.0965e-06	83.17	0.00086308	0.00078548	0.00029941	482.59	9.2119e-06	1.2009e-05	963.23	113.56	1.1651e-05	8.8843e-06	325.58	134.94	50.268	21.751	9.4057e-06	67.382	220.087	-13.227	57.399	-83.718	43.769	120.448	-82.796	-76.018	38.878	93.051	-78.104	-72.090	-70.311	-66.159	69.691	-68.354	-8191	255	
2662.786	1	1	0	0	0.046234	0.074835	0.13794	0.13952	0.084449	0.10295	0.26608	0.10256	0.15914	0.063334	0.084012	0.15193	0.25408	0.1806	0.12524	0.078834	-2.7875	-2.7958	-3.65	-2.8125	-3.1958	-3.4729	-2.7479	-3.4188	-3.2542	-2.7104	-3.8458	-2.9042	-3.1229	-3.5729	-2.8104	-3.4979	-22.658	55.936	-92.244	-39.233	175.169	89.860	134.097	246.577	26.017	187.173	37.608	-66.754	-42.836	164.337	-37.316	187.887	0.00015118	0.00087318	0.00014199	598.46	7.7549e-06	1.1312e-05	1198.5	137.81	2.3904e-06	1.3449e-05	401.49	162.66	60.867	26.292	3.399e-06	82.454	0.00088238	0.0007815	0.00029867	475.52	8.6534e-06	1.1773e-05	951.7	111.85	1.194e-05	9.3202e-06	323.73	132.45	50.138	21.476	1.0227e-05	66.625	215.113	13.200	53.532	-83.392	88.675	56.256	-82.507	-75.540	255.224	53.387	-77.698	-72.585	-71.213	-65.943	-11.861	-68.155	-8191	255	
2662.882	1	1	0	0	0.11204	0.19391	0.062086	0.32543	0.25506	0.21619	0.41194	0.029918	0.050894	0.035358	0.28835	0.20319	0.24057	0.099342	0.12687	0.19831	-2.875	-2.7958	-3.4938	-2.9604	-3.0333	-3.6333	-2.9208	-3.3167	-3.4146	-2.7917	-3.6333	-3.2917	-2.9625	-3.8146	-2.9313	-3.4917	-51.402	98.560	165.692	109.385	200.726	207.103	186.940	-43.641	163.096	0.618	240.687	187.880	-65.410	133.383	-47.593	204.216	0.00020401	0.00029687	0.00026272	600.97	6.2378e-06	4.5609e-06	1182.8	136.89	5.02e-06	7.5428e-06	402.03	162.09	58.443	26.038	5.8406e-06	81.626	0.00085349	0.00083368	0.0002964	474.71	8.9288e-06	1.2759e-05	940.68	111.31	1.1981e-05	9.5817e-06	321.27	131.11	48.553	21.235	1.0948e-05	65.599	217.257	23.954	-32.129	-83.553	79.249	81.293	-83.060	-75.945	56.862	27.499	-77.433	-73.003	-70.919	-66.180	21.405	-68.248	-8191	255	
2662.979	1	1	0	0	0.20468	0.10002	0.12411	0.25337	0.26664	0.20447	0.26572	0.18732	0.13727	0.10442	0.07185	0.28633	0.24339	0.25805	0.18725	0.19959	-3.1688	-2.8021	-3.6229	-3.1958	-3.0312	-3.6208	-2.8917	-3.1458	-3.5083	-2.8208	-3.525	-3.3	-2.7833	-3.7833	-2.8042	-3.2	10.247	186.068	-54.058	-61.632	83.237	-37.373	226.246	258.766	173.581	245.550	205.128	235.260	-48.170	143.489	209.799	239.484	0.00018549	0.00086348	0.00026832	596.52	1.2786e-06	2.3864e-06	1184.7	137.65	5.0209e-06	5.9019e-06	401.23	160.52	57.912	25.444	6.5534e-06	80.245	0.00088462	0.00087615	0.00028867	471.39	8.7916e-06	1.2377e-05	941.67	111.46	1.1888e-05	1.0065e-05	322.4	130.35	48.387	21.005	1.1236e-05	64.937	213.945	-37.792	-3.664	-83.427	-17.164	200.468	-82.901	-75.580	97.401	66.864	-77.889	-72.884	-70.459	-65.848	31.341	-68.310	-8191	255	
2663.098	1	1	0	0	0.015457	0.10767	0.10318	0.17598	0.26678	0.15851	0.090263	0.17479	0.069801	0.30919	0.18889	0.44039	0.099203	0.31974	0.21932	0.2264	-3.1271	-2.6813	-3.5854	-3.1646	-2.8688	-3.7208	-3.0375	-3.3375	-3.6854	-2.7896	-3.625	-3.4292	-2.8563	-3.65	-3.1146	-3.2896	-79.809	251.666	144.170	261.290	265.043	244.896	179.591	257.087	171.431	-58.659	265.211	258.455	112.892	-48.571	226.170	171.842	0.00016871	0.00040824	0.00015896	596.1	2.7854e-06	8.4412e-06	1169.2	138.67	3.164e-06	7.0489e-06	400.85	161.9	60.311	25.74	6.6869e-06	81.737	0.00086303	0.00091457	0.00025704	475.39	9.0723e-06	1.1614e-05	933.38	112.34	1.2439e-05	1.1026e-05	321.4	131.58	49.475	20.895	1.2089e-05	66.277	223.985	-27.767	0.632	-83.335	73.139	67.245	-82.357	-76.010	33.073	84.646	-77.247	-72.591	-70.487	-66.385	18.038	-68.102	-8191	255	
2663.171	1	1	0	0	0.077765	0.25944	0.21586	0.23836	0.11907	0.080296	0.32351	0.027481	0.15267	0.39136	0.21961	0.094331	0.13404	0.11498	0.24196	0.14062	-3.2313	-2.7417	-3.2625	-3.4333	-2.7	-3.6146	-3.1292	-3.075	-3.5479	-2.7812	-3.5292	-3.5229	-2.7458	-3.4833	-3.0771	-3.0167	199.060	53.493	39.901	156.331	-7.431	233.698	166.354	69.176	96.881	-12.696	237.899	229.236	21.510	164.101	74.282	165.974	0.00020606	0.00039499	0.00023505	581.49	6.2596e-06	2.0163e-06	1118.9	137.74	4.7605e-06	1.0977e-05	383.45	158.56	61.321	23.329	5.4249e-06	77.724	0.00089788	0.0010142	0.00025146	462.46	9.7929e-06	1.103e-05	894.53	111.44	1.2018e-05	1.1464e-05	307.35	129.21	50.708	19.152	1.1926e-05	62.757	227.308	-28.183	-1.150	-83.612	52.427	106.463	-82.571	-75.691	90.909	2.141	-77.122	-72.373	-71.366	-65.098	56.795	-67.703	-8191	255	
2663.267	1	1	0	0	0.08128	0.43637	0.20426	0.22045	0.12587	0.13328	0.097254	0.09211	0.18188	0.10757	0.13592	0.24019	0.16132	0.06052	0.24046	0.27995	-3.2354	-2.8646	-3.1708	-3.4292	-2.8333	-3.5854	-3.4062	-2.9792	-3.7938	-2.8521	-3.2229	-3.5917	-2.8375	-3.4938	-3.375	-2.9229	15.598	3.508	67.148	263.419	3.800	-44.384	239.616	6.877	-57.153	134.970	36.163	-71.625	-51.258	195.450	-32.616	223.316	0.00015305	0.0012571	0.0003741	558.11	3.4607e-06	1.1015e-05	1063.7	136.69	1.8639e-06	4.5705e-06	373.7	154.84	61.277	22.659	7.8043e-06	75.818	0.00087078	0.001097	0.00024011	442.52	9.6921e-06	1.0425e-05	842.23	110.57	1.1496e-05	1.1596e-05	298.66	125.85	50.76	18.59	1.2205e-05	61.267	201.687	55.765	-38.185	-83.222	84.215	-2.597	-82.240	-76.326	202.703	-77.921	-77.172	-71.657	-69.543	-65.080	84.137	-67.912	-8191	255	
2663.386	1	1	0	0	0.078359	0.19319	0.059416	0.02182	0.14045	0.24095	0.1528	0.067339	0.049571	0.24206	0.15859	0.069297	0.077492	0.17485	0.13917	0.15792	-3.2667	-2.7896	-3.0062	-3.7604	-2.9042	-3.4813	-3.5729	-2.8021	-3.6813	-3.1813	-3.0958	-3.6437	-2.7333	-3.4292	-3.3083	-2.8667	42.460	239.512	-46.653	153.717	182.483	198.702	236.181	-80.325	-91.119	117.586	-75.301	-55.014	-83.356	240.917	118.081	217.454	0.00016579	0.00019866	0.00023094	545.63	7.4849e-07	6.4213e-06	1056	135.55	4.8254e-06	9.0192e-06	368.65	154.52	59.511	22.743	4.7488e-06	76.49	0.00082897	0.0011553	0.00022637	436.95	1.0151e-05	1.0387e-05	840.82	109.97	1.0848e-05	1.3093e-05	296.29	125.44	49.797	18.594	1.2786e-05	61.609	238.733	59.905	-3.305	-83.003	99.077	85.656	-82.523	-75.475	37.053	159.347	-77.245	-71.396	-70.329	-65.215	93.492	-67.640	-8191	255	
2663.482	1	1	0	0	0.094727	0.11807	0.14152	0.14219	0.23186	0.10297	0.059429	0.27388	0.058841	0.046649	0.039791	0.12142	0.2881	0.10333	0.15133	0.18354	-3.3896	-3.2375	-2.95	-3.7583	-2.7458	-3.2854	-3.7375	-2.9292	-3.5958	-3.2979	-3.0125	-3.6979	-2.8646	-3.2458	-3.5563	-2.8167	-86.557	187.483	187.931	169.950	23.538	164.947	142.537	149.039	-57.913	240.599	-83.993	160.301	57.526	-58.872	39.134	161.141	0.00021934	0.00024088	0.00030464	548.95	1.1092e-06	3.053e-06	1062.1	132.56	9.2843e-06	1.1121e-05	366.76	155.83	57.756	23.185	4.9241e-06	76.955	0.00077524	0.0011574	0.00023861	438.96	1.0883e-05	9.5326e-06	844.37	107.61	1.1628e-05	1.6378e-05	294.22	125.81	49.288	18.841	1.4679e-05	62.336	224.132	-15.454	9.445	-83.661	247.162	98.540	-82.352	-76.215	16.379	1.709	-76.895	-71.732	-70.238	-65.146	56.391	-67.807	-8191	255	
2663.578	1	1	0	0	0.091611	0.091582	0.24603	0.13345	0.07832	0.089505	0.2335	0.13546	0.18687	0.15161	0.089686	0.32401	0.1917	0.16847	0.070051	0.2438	-3.1708	-3.3646	-2.7687	-3.6562	-3.1729	-3.1417	-3.7313	-3	-3.4729	-3.2958	-2.8646	-3.6104	-3.0687	-3.0854	-3.5687	-2.9813	-11.592	203.490	248.604	86.396	35.435	12.254	169.774	-86.519	18.832	37.823	180.671	248.466	131.455	127.515	-35.993	233.326	0.00014772	0.00076789	0.00025345	551.83	7.8917e-06	8.2846e-06	1068.3	135.08	4.7834e-06	6.7072e-07	369.15	155.7	58.157	23.43	4.6026e-06	76.905	0.00080062	0.0013882	0.00029455	441.78	1.4655e-05	9.6989e-06	850.16	109.47	1.0092e-05	1.4353e-05	295.55	126.46	49.416	19.028	1.4148e-05	62.221	220.424	30.489	101.426	-83.341	51.976	47.334	-82.446	-75.059	81.501	108.130	-77.083	-71.826	-70.013	-65.006	9.139	-67.993	-8191	255	
2663.674	1	1	0	0	0.23368	0.12546	0.21396	0.29688	0.11015	0.091112	0.15263	0.054733	0.030541	0.094955	0.08471	0.091626	0.042771	0.38442	0.17222	0.10187	-3.1688	-3.2708	-2.75	-3.6521	-2.9729	-3.0792	-3.7271	-2.9729	-3.4688	-3.4646	-2.6333	-3.4792	-3.0812	-2.9646	-3.5042	-2.9417	11.841	27.805	54.678	221.760	128.337	184.444	-67.527	71.046	-73.410	-67.592	-50.249	128.040	14.554	-87.206	200.922	80.776	0.00013991	0.00041831	9.179e-05	552.64	5.4201e-06	2.2252e-06	1069.7	135.92	4.0857e-06	5.1122e-06	370.87	156.59	59.825	23.453	5.872e-06	76.655	0.00071674	0.0013352	0.00030606	441.98	1.3935e-05	1.0257e-05	852.02	110.67	9.2355e-06	1.4663e-05	298.09	126.83	49.959	19.003	1.2839e-05	62.137	197.452	-25.847	20.103	-82.693	35.555	-12.757	-81.875	-75.463	123.884	14.500	-76.882	-71.917	-70.206	-65.063	-7.927	-67.394	-8191	255	
2663.771	1	1	0	0	0.053699	0.065366	0.23304	0.091403	0.27286	0.21316	0.16845	0.03289	0.048553	0.22827	0.074993	0.01029	0.083763	0.23947	0.14094	0.098231	-2.8688	-3.5354	-2.7458	-3.4229	-3.1583	-2.8542	-3.6458	-2.8563	-3.175	-3.5438	-2.8292	-3.5646	-3.325	-2.8771	-3.7021	-3.0771	44.570	37.033	76.919	-66.331	146.518	239.893	229.850	223.548	154.198	88.440	-81.115	253.891	159.843	-26.852	41.969	6.370	0.00020754	0.00071657	0.00020324	551.72	7.8181e-06	2.8804e-06	1067	134.7	7.6753e-06	3.7163e-06	369.76	155.54	58.121	22.841	6.6902e-06	74.544	0.00070211	0.0012759	0.00033516	437.75	1.3831e-05	1.0918e-05	850.79	110.07	8.9502e-06	1.3866e-05	298.23	125.78	49.163	18.782	1.157e-05	60.647	225.173	-13.736	29.244	-82.722	121.989	69.616	-81.600	-75.571	-18.876	40.456	-76.998	-72.007	-70.453	-64.936	-49.756	-67.511	-8191	255	
2663.867	1	1	0	0	0.18287	0.13144	0.30067	0.12909	0.25621	0.19583	0.17207	0.21038	0.16168	0.29422	0.035503	0.15426	0.091986	0.010524	0.13679	0.15179	-2.775	-3.5708	-2.8021	-3.5271	-3.5646	-2.8417	-3.6188	-2.9208	-3.1604	-3.6375	-2.7521	-3.5042	-3.4792	-2.8438	-3.6646	-3.2125	260.420	-6.505	-55.253	116.521	20.043	157.697	-79.488	192.033	167.401	183.237	63.704	206.776	8.333	28.330	46.175	175.980	0.00013906	0.00061969	0.00011117	550.8	4.038e-06	4.6347e-06	1055.2	135.14	4.2616e-06	2.7574e-06	369.8	155.25	58.327	22.793	7.7812e-06	74.649	0.00069809	0.0012458	0.00035075	436.83	1.3536e-05	1.1673e-05	839.95	109.82	9.3693e-06	1.3741e-05	297.04	125.21	49.279	18.694	1.0854e-05	60.777	226.690	-33.243	91.879	-83.271	-78.672	16.479	-81.567	-75.314	29.239	-20.890	-76.655	-71.657	-69.312	-65.464	14.309	-67.784	-8191	255	
2663.987	1	1	0	0	0.14393	0.069625	0.13453	0.11645	0.26061	0.13577	0.1237	0.30544	0.20527	0.17783	0.22871	0.1109	0.21057	0.24	0.21811	0.12684	-2.4062	-3.55	-2.7708	-3.4146	-3.3958	-2.6542	-3.5896	-3.1583	-2.9958	-3.6708	-2.9354	-3.4042	-3.4833	-2.8063	-3.6813	-3.2875	133.895	66.510	140.564	17.982	235.387	-75.553	-89.568	185.430	-25.786	-86.932	252.372	231.578	246.648	145.994	214.181	86.819	0.00012924	0.00072617	0.00020783	540.62	5.8184e-06	1.0098e-05	1063.3	136.47	2.7024e-06	7.1337e-06	369.92	155.36	59.437	23.368	3.6931e-06	76.409	0.00073964	0.0011631	0.00036687	431.76	1.3377e-05	1.2571e-05	842.96	111.36	9.8742e-06	1.2922e-05	298.23	126.29	50.075	19.132	1.0391e-05	61.608	214.613	28.722	251.035	-82.627	32.795	198.242	-81.784	-75.994	117.703	159.719	-77.539	-71.489	-70.313	-65.488	50.390	-68.276	-8191	255	
2664.084	1	1	0	0	0.21481	0.245	0.18441	0.20211	0.11813	0.15656	0.31205	0.23125	0.078209	0.20659	0.14865	0.27146	0.20237	0.36633	0.070513	0.1713	-2.6521	-3.4	-2.8125	-3.0229	-3.4854	-2.8125	-3.6021	-3.3604	-2.8438	-3.6646	-2.9437	-3.1333	-3.3854	-2.8812	-3.4833	-3.4667	263.573	63.914	64.354	182.295	257.541	233.430	217.252	208.470	238.636	60.174	40.255	247.268	-53.648	-92.271	250.678	-22.675	0.0001934	0.00051411	0.0003627	539.13	3.257e-06	5.7813e-06	1062.5	139.12	2.9544e-06	6.0985e-06	374.21	157.86	60.362	23.781	5.0039e-06	76.544	0.00081855	0.0011221	0.00038443	426.61	1.3575e-05	1.3493e-05	840.66	113.22	1.0745e-05	1.1846e-05	298.31	127.26	50.563	19.503	9.2166e-06	62.257	220.658	170.591	12.639	-82.964	5.036	30.141	-82.069	-75.360	98.256	4.792	-76.803	-71.486	-69.889	-65.363	-11.793	-67.131	-8191	255	
2664.178	1	1	0	0	0.24904	0.115	0.22836	0.10219	0.067012	0.17119	0.20837	0.020487	0.13205	0.22758	0.071068	0.022828	0.031773	0.055153	0.25054	0.097884	-2.4208	-3.4667	-2.9854	-3.05	-3.4771	-2.7792	-3.4354	-3.4125	-2.6979	-3.5938	-3.2208	-2.8896	-3.5417	-2.7458	-3.3146	-3.4958	48.749	128.343	-70.214	132.567	258.530	188.113	204.554	186.848	-22.896	111.944	173.628	67.681	219.192	-84.352	112.584	-90.362	0.00015966	0.00051212	0.00031991	539.32	9.7144e-06	8.0874e-06	1060	136.68	3.1311e-06	1.5313e-05	368.6	156.98	59.933	23.671	4.6406e-06	76.393	0.00083162	0.0010329	0.0003634	424.88	1.2548e-05	1.3841e-05	842.96	111.63	1.1721e-05	1.1729e-05	298.28	126.93	50.066	19.494	9.342e-06	61.866	216.066	10.415	-6.678	-82.923	45.585	-23.288	-81.764	-75.184	50.744	53.214	-76.765	-71.764	-70.218	-65.862	5.627	-67.314	-8191	255	
2664.274	1	1	0	0	0.17299	0.1046	0.071033	0.20283	0.10698	0.11297	0.3007	0.019831	0.11666	0.083327	0.36683	0.098568	0.15944	0.18632	0.14724	0.24582	-2.4146	-3.5062	-3.2146	-2.9167	-3.6562	-3.0458	-3.2687	-3.3667	-2.7438	-3.6625	-3.3104	-2.9521	-3.6333	-2.9021	-3.1562	-3.6708	194.901	69.894	-30.057	225.484	-60.513	259.263	201.875	201.724	128.350	25.032	-32.115	-73.791	16.745	8.477	232.344	217.861	0.00015218	0.00029411	0.00020038	536.5	1.338e-06	2.5661e-06	1055.9	137.78	1.8292e-06	5.864e-06	364.97	155.93	59.054	24.027	6.3935e-06	75.839	0.00092941	0.00097696	0.00037502	424.69	1.2162e-05	1.4957e-05	843.06	111.45	1.2729e-05	1.0463e-05	293.68	125.91	49.53	19.554	9.3912e-06	61.41	231.529	82.248	237.559	-82.803	-51.137	141.916	-82.050	-75.572	222.955	37.553	-76.891	-71.624	-69.644	-64.893	75.718	-67.590	-8191	255	
2664.395	1	1	0	0	0.16652	0.10588	0.13493	0.28049	0.045178	0.21093	0.17014	0.20263	0.11472	0.24998	0.061711	0.057076	0.2184	0.050137	0.19447	0.045146	-2.4479	-3.5604	-3.3312	-2.7396	-3.6708	-2.9896	-3.4146	-3.6125	-2.9271	-3.5375	-3.3104	-2.9146	-3.6271	-3.0396	-3.0021	-3.8312	43.466	-86.503	35.983	-50.644	170.169	105.056	220.929	-76.027	191.205	185.430	-71.333	265.077	188.239	-25.092	3.580	155.015	0.00015276	0.00060611	0.00025881	528.8	3.0373e-06	3.2372e-06	1061.4	136.47	3.2386e-06	9.1927e-06	367.59	154.3	60.167	23.798	7.8782e-06	75.801	0.00096102	0.00087946	0.0003535	419.71	1.0803e-05	1.4712e-05	846.75	111.64	1.4017e-05	9.7024e-06	294.24	125.68	49.38	19.571	1.0375e-05	61.324	206.170	13.936	-11.564	-82.334	123.053	72.462	-81.495	-74.619	61.487	49.589	-76.724	-71.776	-69.731	-64.527	54.700	-67.524	-8191	255	
2664.466	1	1	0	0	0.041852	0.12729	0.17049	0.19475	0.13031	0.16737	0.21717	0.092115	0.18931	0.074595	0.051708	0.063246	0.19936	0.10147	0.11248	0.21691	-2.4562	-3.3917	-3.2938	-2.8833	-3.6667	-3.0417	-3.2458	-3.8229	-2.8792	-3.2917	-3.6083	-2.8875	-3.5354	-3.2583	-2.8979	-3.7313	-35.485	-59.234	23.215	189.261	20.539	217.463	167.654	216.345	-15.531	191.092	76.599	-91.941	212.447	251.074	183.180	153.418	7.0047e-05	0.00043197	0.00025147	533.46	5.5999e-06	6.6202e-06	1061.8	138.46	3.1814e-06	2.7848e-06	365.65	155.02	59.068	23.957	5.1548e-06	76.85	0.0010134	0.00086073	0.00037557	423.72	1.0331e-05	1.4988e-05	846.2	111.5	1.3667e-05	9.9718e-06	294.32	126.25	49.308	19.722	1.1181e-05	62.262	226.745	-18.899	-41.951	-82.524	65.167	13.486	-81.422	-74.834	-27.772	15.074	-77.304	-71.579	-69.284	-64.620	154.158	-67.459	-8191	255	
2664.563	1	1	0	0	0.10448	0.098192	0.15884	0.067109	0.23469	0.043726	0.071161	0.10837	0.22837	0.14708	0.39451	0.2301	0.05577	0.063597	0.10328	0.21281	-2.3875	-3.3125	-3.4021	-2.7396	-3.5792	-3.0854	-2.9271	-3.6458	-2.875	-3.2917	-3.4813	-2.7146	-3.4521	-3.3458	-2.8104	-3.8375	237.621	221.946	-45.535	206.941	-7.339	20.806	201.534	227.587	11.227	206.579	-83.138	245.403	167.901	-16.473	124.543	229.357	0.00020977	0.00036648	9.7227e-05	546.48	7.3777e-06	3.1216e-06	1073.4	136.36	3.1357e-06	5.0643e-06	367.2	155.23	58.244	24.434	1.7627e-06	78.674	0.001024	0.00087479	0.00035461	432.48	9.833e-06	1.4917e-05	852.19	110.66	1.3963e-05	9.9596e-06	295.56	126.15	48.282	19.967	1.2044e-05	63.322	239.300	16.153	97.174	-82.451	86.650	117.534	-81.641	-74.839	147.946	49.519	-76.220	-70.947	-68.864	-65.253	-11.771	-67.314	-8191	255	
2664.659	1	1	0	0	0.078786	0.18999	0.15799	0.10875	0.34874	0.1821	0.0026568	0.2962	0.093295	0.29598	0.14625	0.092794	0.16144	0.2394	0.13111	0.15218	-2.4833	-3.1	-3.6583	-2.8396	-3.4229	-3.2167	-2.8896	-3.55	-2.9854	-3.1146	-3.6312	-2.9583	-3.2146	-3.5042	-2.7896	-3.6729	59.143	173.537	24.116	220.345	62.080	-70.087	236.757	-71.920	237.237	259.740	23.183	-53.350	18.361	163.134	-4.179	217.417	0.00010326	0.00080105	0.00012341	550.56	3.4995e-06	1.2496e-05	1087.1	135.59	2.9917e-06	7.2641e-06	369.62	154.29	58.341	24.456	3.8216e-06	77.952	0.001005	0.00097571	0.00032898	437.18	9.2108e-06	1.4613e-05	857.46	109.68	1.3656e-05	1.0398e-05	295.9	125.79	48.529	20.003	1.2972e-05	62.91	218.484	37.893	-46.473	-82.856	66.012	12.192	-82.234	-75.011	224.614	107.042	-76.302	-71.463	-69.468	-65.378	79.815	-66.996	-8191	255	
2664.779	1	1	0	0	0.17787	0.093486	0.098254	0.046817	0.28135	0.13897	0.50331	0.028359	0.041121	0.15887	0.13378	0.069569	0.086088	0.023929	0.21197	0.08513	-2.6813	-2.8896	-3.55	-2.8187	-3.3854	-3.5854	-3.0125	-3.6333	-3.1833	-2.9688	-3.7729	-2.925	-3.1583	-3.5125	-2.7521	-3.6646	-72.495	85.158	217.726	131.710	-73.760	240.836	-81.635	144.677	196.315	-63.413	169.152	150.438	-6.748	193.012	-32.618	122.519	0.00013779	0.00064756	0.00017803	541.43	4.2394e-06	4.8115e-06	1066.4	135.11	4.2261e-06	6.009e-06	366.52	153.65	58.914	23.833	6.4011e-06	76.623	0.0010038	0.001007	0.00030784	433.12	8.9728e-06	1.4123e-05	854.89	109.46	1.4268e-05	1.1752e-05	292.77	125.24	48.576	19.69	1.3554e-05	61.805	187.004	134.039	-46.115	-82.677	94.094	8.531	-82.168	-75.793	-88.014	78.298	-77.014	-72.521	-70.716	-65.904	108.194	-68.109	-8191	255	
2664.875	1	1	0	0	0.1006	0.028066	0.16053	0.0086729	0.23032	0.18799	0.20844	0.13947	0.16162	0.15657	0.30433	0.23547	0.084641	0.11058	0.038816	0.19436	-2.9979	-2.9833	-3.5646	-2.8438	-3.1521	-3.6729	-2.9333	-3.5146	-3.4292	-2.7167	-3.6937	-3.0687	-3.0062	-3.4833	-2.9125	-3.625	219.204	-27.587	67.057	140.893	-34.236	69.122	-76.062	13.610	94.222	-3.812	76.446	-72.585	-28.717	113.827	118.026	223.674	0.00017816	0.00064542	0.00027849	539.66	1.7317e-06	8.1211e-06	1075.3	135.58	4.1336e-06	3.2057e-06	366.18	152.59	58.344	24.273	8.3617e-06	76.433	0.0010502	0.0011477	0.00029654	431.81	1.0187e-05	1.3702e-05	861.24	109.36	1.406e-05	1.347e-05	292.74	125.08	48.541	19.901	1.4907e-05	62.359	185.397	-15.810	-52.488	-83.418	94.756	29.211	-82.661	-76.328	58.401	-25.526	-77.657	-72.024	-69.900	-66.599	-20.332	-68.243	-8191	255	
2664.972	1	1	0	0	0.068055	0.23656	0.14104	0.23467	0.080901	0.15532	0.12656	0.089725	0.072017	0.2006	0.19198	0.055219	0.2797	0.11607	0.38421	0.063315	-3.1792	-2.8354	-3.6562	-3.0021	-3.0042	-3.5604	-2.9625	-3.325	-3.5083	-2.7271	-3.5021	-3.1312	-2.9667	-3.4417	-2.7854	-3.1583	-8.059	-24.917	-48.753	-38.143	16.798	34.945	229.714	144.429	23.357	54.287	-6.679	227.549	-9.124	131.593	44.006	211.801	0.00020006	0.00039986	0.00024518	538.23	1.5818e-06	1.7171e-05	1083.8	135.15	5.2302e-06	1.3843e-05	364.36	154.95	57.049	24.33	9.2939e-06	78.129	0.0010557	0.0012494	0.00028448	430.51	1.1165e-05	1.2745e-05	866.04	109.09	1.3669e-05	1.4149e-05	292.68	126.22	48.026	20.126	1.461e-05	63.24	222.201	63.183	-53.222	-83.668	223.993	46.241	-82.434	-75.606	33.361	119.480	-77.701	-72.542	-70.542	-66.248	134.118	-68.109	-8191	255	
2665.068	1	1	0	0	0.18636	0.18627	0.092521	0.11988	0.27318	0.1486	0.32458	0.086207	0.24883	0.021658	0.2464	0.086583	0.050567	0.24913	0.17436	0.0097118	-3.2208	-2.825	-3.6146	-3.2417	-3.075	-3.6437	-2.9375	-3.3563	-3.5187	-2.7812	-3.7333	-3.3917	-2.7938	-3.7667	-2.8604	-3.1646	-93.301	121.009	224.661	169.632	249.478	-9.927	171.174	225.737	125.592	159.926	-93.134	249.261	-52.016	256.577	-64.453	226.227	0.00023738	0.0011206	0.00022261	536.23	4.6639e-06	6.3937e-06	1114.1	135.71	9.9149e-06	7.4618e-06	372.01	159.15	57.989	24.691	3.4994e-06	78.839	0.00097937	0.0012828	0.00026864	424.6	1.1105e-05	1.1282e-05	882.33	109.63	1.2983e-05	1.4255e-05	296.59	128.51	48.297	20.215	1.4259e-05	63.939	237.053	137.509	35.425	-83.190	5.948	-2.113	-83.144	-75.825	102.826	34.462	-77.561	-72.554	-70.761	-65.961	36.980	-68.118	-8191	255	
2665.164	1	1	0	0	0.067307	0.089816	0.094957	0.22541	0.15277	0.28933	0.21434	0.096808	0.1423	0.3483	0.39047	0.17713	0.12409	0.19258	0.13246	0.24272	-3.2687	-2.7833	-3.3771	-3.2833	-2.7396	-3.6937	-3.1437	-3.0271	-3.5208	-2.9333	-3.4833	-3.3688	-2.7083	-3.6396	-3.2146	-3.1021	62.369	-29.759	50.792	204.938	108.127	-37.861	254.710	10.090	-7.572	-53.298	-48.330	170.301	122.041	-14.092	22.334	238.962	0.00023815	0.00042424	0.00013372	519.57	8.6446e-06	7.0448e-06	1104.9	139.02	7.9009e-06	6.2133e-06	374.45	159.09	58.345	25.039	7.6095e-06	79.233	0.0009462	0.001253	0.00024521	416.19	1.1833e-05	1.0639e-05	884.85	110.84	1.1794e-05	1.43e-05	298.86	129.39	48.758	20.432	1.3735e-05	64.327	221.353	34.698	-50.357	-83.528	55.904	-15.580	-82.868	-75.674	121.215	119.976	-77.096	-72.433	-71.022	-66.069	77.688	-68.383	-8191	255	
2665.258	1	1	0	0	0.20987	0.19834	0.11153	0.21069	0.24873	0.21445	0.29205	0.14919	0.13057	0.15085	0.1046	0.30245	0.092445	0.21764	0.29152	0.24322	-3.2313	-2.8667	-3.2667	-3.3167	-2.8521	-3.4896	-3.1042	-2.8896	-3.5375	-3.2729	-3.2313	-3.375	-2.9333	-3.4771	-3.225	-3.0938	188.391	16.146	25.898	200.082	-10.363	102.099	167.686	259.714	137.917	142.363	-87.908	229.526	-37.318	154.187	-7.263	137.529	0.00019025	0.00057426	0.0001221	512.47	5.2003e-06	7.6483e-06	1100.3	136.13	6.2988e-06	3.8193e-06	375.75	159.81	58.417	24.83	1.3386e-06	79.173	0.00081661	0.0013001	0.00025034	409.36	1.2864e-05	9.9099e-06	877.08	110.51	1.0745e-05	1.4517e-05	300.38	130.08	49.446	20.231	1.3734e-05	64.189	218.483	-19.923	-22.693	-83.616	73.292	51.261	-83.176	-75.369	93.522	19.568	-76.919	-72.336	-71.354	-66.049	86.320	-68.163	-8191	255	
2665.356	1	1	0	0	0.16397	0.20121	0.065157	0.2235	0.21897	0.10713	0.2279	0.049194	0.18767	0.15661	0.086372	0.019155	0.02737	0.16765	0.046175	0.20032	-3.2417	-2.8375	-3.1188	-3.5979	-2.7313	-3.6583	-3.3646	-2.8458	-3.4792	-3.0896	-3.175	-3.7188	-2.7542	-3.4875	-3.2875	-2.8063	95.353	-2.001	92.095	157.343	-11.228	244.975	150.849	226.672	73.221	123.543	-74.603	-9.677	253.213	24.588	131.779	194.406	0.00016061	0.00099805	0.00021764	501.28	8.7624e-06	9.4098e-06	1087.5	138.83	1.4879e-06	1.061e-05	376.28	159.87	58.251	24.616	2.9638e-06	80.319	0.00077515	0.0013871	0.00026757	399.32	1.383e-05	9.6816e-06	870.39	112.55	9.8578e-06	1.5365e-05	300.56	129.9	50.023	20.006	1.3705e-05	64.934	242.441	-11.757	48.762	-83.168	57.398	91.639	-83.217	-75.477	142.133	88.049	-77.255	-72.614	-70.229	-66.668	115.662	-68.102	-8191	255	
2665.475	1	1	0	0	0.18922	0.2869	0.13594	0.30063	0.10704	0.13002	0.22032	0.0766	0.15822	0.20863	0.060556	0.21026	0.083206	0.14597	0.132	0.10599	-3.2812	-3.0896	-3.1708	-3.6229	-2.8146	-3.3688	-3.3979	-2.7812	-3.5312	-2.9854	-3.1854	-3.8271	-2.8583	-3.3854	-3.4542	-2.8333	238.398	160.041	-62.657	107.664	18.505	32.917	251.582	198.421	108.615	88.911	249.906	226.530	105.150	-87.752	22.098	-74.778	0.00023042	0.00074186	0.00024448	483.26	3.7009e-06	7.9044e-06	1084.9	140.51	3.2854e-06	1.0228e-05	373.04	161.63	59.103	25.299	8.0648e-07	81.448	0.00074288	0.001338	0.00030765	385.89	1.4111e-05	9.7267e-06	861.63	114.13	9.6911e-06	1.4572e-05	299.62	130.68	49.917	20.629	1.2835e-05	66.198	251.477	51.452	-10.660	-84.228	5.188	94.567	-83.004	-76.550	116.720	10.664	-77.291	-73.180	-70.557	-66.710	121.584	-68.480	-8191	255	
2665.571	1	1	0	0	0.27213	0.16661	0.28614	0.028428	0.17627	0.071077	0.16646	0.221	0.019762	0.34965	0.26684	0.098857	0.31903	0.22584	0.2316	0.247	-3.1583	-3.0563	-2.8063	-3.6396	-2.9083	-3.3229	-3.5667	-2.9354	-3.6021	-3.3771	-2.8896	-3.6229	-3.0479	-3.1	-3.4292	-2.7958	258.513	120.570	237.491	94.911	228.217	259.054	218.388	22.543	110.052	89.045	-85.687	232.916	-18.963	121.135	173.752	-64.717	0.00012359	0.00057317	0.00019043	483.56	9.9287e-06	7.6555e-06	1087.7	140.98	3.9427e-06	9.3848e-06	374.59	162.8	58.277	25.569	2.1642e-06	82.399	0.00071788	0.0013334	0.00032404	384.4	1.4364e-05	1.1154e-05	862.45	114.65	8.7833e-06	1.4151e-05	300.39	130.99	49.42	20.823	1.1801e-05	67.036	217.978	-34.418	43.362	-83.772	85.785	24.956	-83.245	-76.403	139.612	59.349	-77.249	-72.987	-70.605	-66.223	68.888	-68.553	-8191	255	
2665.667	1	1	0	0	0.14475	0.25207	0.22395	0.058528	0.096131	0.24987	0.18037	0.31585	0.21017	0.094504	0.19651	0.41807	0.24076	0.066178	0.17099	0.39474	-2.9667	-3.1104	-2.8646	-3.6375	-2.9542	-3.0604	-3.7604	-2.6896	-3.475	-3.2562	-2.8521	-3.5812	-3.1792	-3.0729	-3.7188	-2.9875	59.122	-59.758	-92.953	224.592	131.611	151.918	167.895	215.525	233.036	29.233	-85.059	218.572	184.365	189.564	-22.432	204.806	0.00018391	0.00096249	0.00018088	488.37	2.9078e-06	8.7688e-06	1078.8	141.84	4.9027e-06	4.1128e-06	373.79	160.51	59.081	25.264	7.3659e-06	81.879	0.00071547	0.0012826	0.00034768	386.79	1.3963e-05	1.1607e-05	858.92	115.49	9.0445e-06	1.3976e-05	302.15	130.23	50.181	20.59	1.1087e-05	66.349	220.238	42.767	-56.339	-83.982	19.844	146.869	-83.261	-75.641	83.226	122.344	-77.039	-72.472	-70.364	-66.681	17.861	-68.649	-8191	255	
2665.764	1	1	0	0	0.18092	0.21337	0.17449	0.24805	0.10291	0.12415	0.17152	0.11035	0.14805	0.061804	0.11578	0.12039	0.10881	0.12946	0.20809	0.094407	-2.9458	-3.3271	-2.8958	-3.4688	-3	-2.9375	-3.725	-2.7958	-3.325	-3.5208	-2.8312	-3.5563	-3.1562	-3.0875	-3.5896	-2.8396	93.743	171.387	143.894	261.603	-59.782	-43.935	43.978	-54.801	71.640	46.125	162.349	-73.263	196.008	177.777	-82.727	112.630	0.00022377	0.0007397	0.00014496	490.49	5.9238e-06	4.3073e-06	1072.7	141.05	3.5246e-06	3.2335e-06	374	157.47	60.086	25.321	8.7704e-06	80.393	0.00075629	0.0012328	0.0003861	390.3	1.3731e-05	1.34e-05	853.55	115.52	1.0057e-05	1.2825e-05	301.27	129.1	50.538	20.596	1.0494e-05	64.887	218.835	-64.871	54.952	-84.193	61.308	93.557	-83.169	-76.204	145.355	-16.905	-77.684	-72.478	-70.687	-65.980	76.409	-68.954	-8191	255	
2665.860	1	1	0	0	0.1338	0.18178	0.13862	0.019272	0.12622	0.083998	0.2282	0.28295	0.16896	0.14001	0.071915	0.11553	0.11075	0.26256	0.31657	0.065906	-2.9188	-3.475	-2.7521	-3.6125	-3.2646	-3.0042	-3.6833	-3.0354	-3.2521	-3.5042	-2.9083	-3.5438	-3.525	-2.7979	-3.6917	-3.1229	-91.992	-83.621	-57.669	-24.558	32.167	242.346	238.911	125.244	158.089	96.083	225.581	-28.404	134.273	202.871	79.263	54.595	0.00017449	0.00049908	0.00021248	486.07	7.6124e-06	4.6512e-06	1064	142.42	3.3587e-06	6.8473e-06	369.93	158.58	60.292	24.987	5.1284e-06	79.696	0.00081549	0.001216	0.00029827	386.71	1.3394e-05	1.0902e-05	850.63	115.36	9.5287e-06	1.2271e-05	297.9	128.42	50.547	20.415	9.9718e-06	64.749	224.745	-32.470	-6.536	-83.911	132.723	-45.320	-82.884	-75.170	103.603	91.408	-77.243	-72.335	-70.720	-66.941	67.202	-68.624	-8191	255	
2665.956	1	1	0	0	0.20123	0.16547	0.17857	0.016805	0.27461	0.098439	0.29813	0.10646	0.066757	0.11755	0.16236	0.13768	0.10898	0.24832	0.016979	0.014401	-2.8604	-3.6437	-2.7854	-3.4875	-3.3792	-2.8	-3.5062	-2.9708	-2.8479	-3.5667	-2.875	-3.425	-3.6375	-2.7917	-3.7229	-3.3958	64.836	-93.027	33.325	185.576	-73.580	-1.096	211.486	169.437	71.227	131.428	162.121	222.415	43.325	118.723	189.512	6.996	0.00018907	0.00063385	2.2219e-05	485.87	7.4041e-06	3.2589e-06	1058.8	141.98	4.9462e-06	5.0583e-06	372.29	157.14	60.183	24.567	5.8353e-06	80.119	0.00072878	0.0010822	0.00032375	385.52	1.3095e-05	1.099e-05	844.83	115.01	9.9054e-06	1.165e-05	299.41	127.5	50.359	20.25	9.4289e-06	65.086	223.933	-4.968	4.254	-83.559	129.018	243.393	-82.963	-76.184	-33.669	-17.766	-77.540	-72.525	-71.021	-66.460	-9.730	-68.780	-8191	255	
2666.076	1	1	0	0	0.23647	0.12173	0.34899	0.071162	0.13596	0.15433	0.13566	0.23088	0.17745	0.064113	0.25989	0.12957	0.10211	0.05825	0.044297	0.43956	-2.6417	-3.5771	-2.8063	-3.2313	-3.4125	-2.7104	-3.7125	-3.1875	-2.9646	-3.5583	-2.9458	-3.3333	-3.3604	-2.6688	-3.4354	-3.2771	36.326	89.674	-42.203	-76.215	-89.593	231.497	234.791	180.239	-9.466	-36.653	261.454	-59.235	-30.757	135.845	-48.057	218.119	0.00016426	0.00017153	0.00012798	497.28	4.7109e-06	5.633e-06	1062.9	142.83	6.2781e-06	7.7033e-06	375	155.89	61.48	24.789	4.4544e-06	79.857	0.00077131	0.0010426	0.00035417	394.59	1.2559e-05	1.2506e-05	843.7	116.15	1.0246e-05	1.1081e-05	301.57	126.73	50.929	20.177	9.2281e-06	64.445	203.457	36.386	254.277	-83.927	10.338	108.256	-82.566	-76.184	62.850	10.167	-77.262	-72.296	-71.350	-65.760	96.872	-68.270	-8191	255	
2666.171	1	1	0	0	0.11953	0.2981	0.083711	0.18085	0.20724	0.070543	0.14233	0.16387	0.096292	0.12479	0.18926	0.12983	0.10925	0.018217	0.14492	0.049652	-2.4646	-3.5375	-2.9854	-3.2333	-3.6688	-2.8375	-3.4333	-3.2896	-2.7667	-3.5271	-3.0896	-3	-3.5938	-2.9479	-3.4146	-3.3042	188.651	-24.288	29.260	154.994	90.400	108.324	156.671	206.103	32.679	117.373	204.453	-25.082	-5.800	179.842	-18.103	-70.298	0.00021261	0.00045426	0.00013638	498.29	2.7458e-06	8.8011e-06	1065.9	142.53	1.6997e-06	1.083e-05	370.88	156.48	59.518	24.72	8.9709e-06	79.707	0.00082768	0.0009657	0.00035221	395.86	1.1884e-05	1.3341e-05	842.12	116.02	1.0911e-05	1.0196e-05	299.87	127.47	49.745	20.179	9.3396e-06	64.578	227.762	-10.344	169.833	-83.667	-3.993	146.159	-82.755	-76.325	111.421	50.269	-77.421	-72.069	-71.048	-66.380	21.261	-68.249	-8191	255	
2666.267	1	1	0	0	0.15705	0.098398	0.03535	0.21564	0.08941	0.1984	0.15409	0.13105	0.1853	0.26308	0.053349	0.054497	0.03422	0.1384	0.14992	0.2291	-2.4354	-3.5458	-3.1	-2.7729	-3.6083	-2.8396	-3.5021	-3.4104	-2.7833	-3.5438	-3.0333	-3.0229	-3.4729	-2.7188	-3.375	-3.5812	115.569	-13.601	108.151	85.281	-84.829	200.091	203.318	182.671	92.338	-61.441	204.482	-79.359	150.993	9.852	90.208	47.376	9.9844e-05	0.00053856	0.00026202	492.64	1.0705e-06	1.14e-05	1057.5	141.46	3.1949e-06	7.7411e-06	372.07	154.67	60.26	24.461	6.2015e-06	79.661	0.0008274	0.00086604	0.00036937	393.77	1.1121e-05	1.4144e-05	841.26	115.56	1.1482e-05	9.6056e-06	298.98	126.24	50.211	20.071	9.7111e-06	64.18	209.941	-73.861	23.667	-83.810	186.585	-26.613	-82.313	-75.821	118.478	49.064	-77.319	-72.235	-71.110	-66.144	3.020	-68.737	-8191	255	
2666.339	1	1	0	0	0.22787	0.049409	0.14718	0.1344	0.27538	0.11981	0.23649	0.43468	0.26615	0.16715	0.14472	0.12011	0.1317	0.055004	0.13171	0.22385	-2.55	-3.6021	-3.2438	-2.8271	-3.4917	-2.8937	-3.375	-3.5542	-2.6604	-3.375	-3.1896	-3.0104	-3.7833	-3.0167	-3.1083	-3.6188	-73.819	30.119	217.848	-90.949	-88.559	64.222	173.212	253.772	207.089	-48.770	263.644	117.904	256.099	59.508	-36.333	232.002	0.00016713	0.00029051	0.0002835	494.92	9.3174e-06	2.6537e-06	1063.5	142.76	3.1695e-06	4.9271e-06	372.79	156.54	61.494	24.362	4.0519e-06	78.664	0.00086911	0.00084423	0.00038476	392.62	1.0405e-05	1.4115e-05	842.77	115.65	1.2167e-05	9.7462e-06	299.58	127.3	51.049	20.03	1.0239e-05	63.513	233.357	-83.582	1.365	-83.486	130.333	11.711	-82.958	-76.513	154.637	91.526	-77.720	-72.920	-71.821	-66.595	-34.435	-68.355	-8191	255	
2666.437	1	1	0	0	0.15283	0.22301	0.090433	0.1954	0.099327	0.32348	0.22364	0.20955	0.091667	0.011733	0.091978	0.030872	0.25314	0.15701	0.22451	0.12615	-2.4188	-3.3021	-3.2521	-2.7979	-3.5062	-3.05	-3.0542	-3.725	-2.9062	-3.3354	-3.3083	-3.0187	-3.5521	-3.1125	-3.2729	-3.7562	227.263	90.587	79.970	-91.745	211.526	100.824	183.637	147.766	228.327	-67.411	155.732	219.981	207.185	50.093	152.524	246.906	0.000176	0.00068326	4.4343e-05	481.85	1.1006e-06	6.8908e-06	1053.1	143.65	4.4696e-06	3.7207e-06	373.82	156.34	59.816	24.683	3.4439e-06	79.603	0.00091973	0.00085152	0.00034916	384.22	9.2302e-06	1.4379e-05	837.06	116.15	1.2753e-05	9.7986e-06	299.07	127.25	50.285	20.301	1.0245e-05	64.301	209.754	3.702	9.110	-83.677	66.673	20.931	-83.152	-75.652	-41.313	100.514	-77.130	-72.629	-71.248	-66.397	76.571	-68.699	-8191	255	
2666.555	1	1	0	0	0.28197	0.091066	0.064595	0.143	0.099772	0.11412	0.42338	0.058002	0.19374	0.042206	0.1218	0.27499	0.12379	0.23143	0.20415	0.20465	-2.6	-3.225	-3.3208	-2.8771	-3.5	-3.1896	-3.1063	-3.6063	-2.8104	-3.2104	-3.5771	-2.8354	-3.5792	-3.2521	-2.8396	-3.7229	-44.411	-85.253	186.321	162.733	179.244	60.378	190.771	130.612	-87.787	218.311	-42.626	203.960	-29.167	253.708	20.111	136.899	0.00021499	0.00030526	4.5282e-05	484.22	5.1705e-06	7.6316e-06	1055.8	143.85	3.959e-06	1.0215e-05	374.77	157.24	61.235	25.171	1.0137e-05	80.818	0.00096687	0.00084477	0.00032236	384.44	8.5176e-06	1.4638e-05	838.16	116.47	1.3209e-05	1.0058e-05	300.84	128.49	50.442	20.585	1.1079e-05	65.309	227.602	-3.969	21.112	-83.261	20.489	-6.768	-82.826	-76.326	40.902	58.555	-76.734	-72.565	-70.473	-66.720	79.182	-68.457	-8191	255	
2666.652	1	1	0	0	0.086384	0.16599	0.071949	0.26876	0.12763	0.22517	0.098335	0.022354	0.1954	0.19689	0.10811	0.1326	0.1662	0.30204	0.12395	0.1895	-2.6229	-3.0417	-3.5875	-2.75	-3.4813	-3.3417	-2.9688	-3.475	-2.8646	-3.1417	-3.5708	-2.9229	-3.3396	-3.3125	-2.8479	-3.5729	1.990	156.732	16.563	189.918	150.548	241.138	261.280	139.510	219.947	126.673	3.653	158.848	-93.095	256.872	19.322	-55.495	0.00015851	0.00071148	0.00029174	481.59	6.1063e-06	3.1115e-06	1068.1	145.41	7.0144e-06	9.0864e-06	377.3	160.86	61.967	25.286	3.072e-06	80.765	0.00097357	0.0009358	0.00030212	387.41	8.8014e-06	1.3785e-05	847.25	117.1	1.345e-05	1.037e-05	302.28	130.45	51.186	20.63	1.1849e-05	65.437	258.203	-40.299	-16.951	-83.906	41.624	-11.012	-82.592	-75.564	66.478	86.631	-77.276	-72.597	-70.791	-66.380	146.053	-68.553	-8191	255	
2666.748	1	1	0	0	0.098496	0.24	0.10493	0.13422	0.23877	0.1322	0.25804	0.11834	0.090787	0.058697	0.067953	0.015023	0.16128	0.08826	0.10384	0.33131	-2.7458	-2.9729	-3.4167	-2.8917	-3.3229	-3.3625	-3.0125	-3.5438	-3.1937	-3.0187	-3.7583	-2.7812	-3.475	-3.4625	-2.9021	-3.6437	-65.165	16.603	92.151	-84.666	260.626	-13.039	27.929	140.013	80.401	212.913	5.740	200.531	212.367	-48.646	210.526	-84.203	0.00021199	0.000716	0.00026994	480.9	1.857e-06	1.296e-05	1057.3	146.8	3.2101e-06	4.4675e-06	376.89	159.41	61.848	25.198	6.6992e-06	78.909	0.0010174	0.00098546	0.0002851	384.28	8.915e-06	1.3411e-05	845.82	117.65	1.398e-05	1.0902e-05	301.81	129.9	50.727	20.715	1.2368e-05	63.791	237.482	-31.790	-60.162	-83.378	64.609	16.214	-82.992	-75.879	53.312	-71.334	-77.268	-72.314	-70.926	-65.824	118.996	-68.542	-8191	255	
2666.868	1	1	0	0	0.025183	0.23403	0.20222	0.17137	0.11817	0.31583	0.20447	0.078893	0.067628	0.16656	0.10375	0.12182	0.11426	0.12728	0.17289	0.089363	-2.825	-2.9021	-3.5729	-3.2167	-3.3812	-3.4083	-2.8688	-3.6375	-3.1208	-2.9396	-3.7479	-3.0563	-3.2083	-3.5	-2.7833	-3.6125	35.603	242.109	-8.954	140.854	-38.505	189.720	139.631	209.692	99.395	-58.542	-33.957	178.706	94.100	-64.641	67.499	81.403	0.00016482	0.00069216	0.00017019	465.57	4.2862e-06	5.9233e-07	1057.2	147.47	4.0584e-06	5.7305e-06	375.25	161.72	62.168	26.359	4.8844e-06	77.502	0.00098765	0.001076	0.00027705	371.62	9.8879e-06	1.2534e-05	840	119.22	1.3819e-05	1.221e-05	302.14	131.6	51.394	21.324	1.3188e-05	62.534	209.095	31.018	161.911	-83.476	81.170	52.492	-83.216	-75.828	73.307	138.789	-77.126	-72.678	-71.131	-66.940	-36.006	-68.186	-8191	255	
2666.940	1	1	0	0	0.066693	0.24084	0.067555	0.16114	0.17336	0.096958	0.13587	0.29175	0.14927	0.27876	0.036285	0.25085	0.14429	0.19534	0.15999	0.25282	-2.9792	-2.8583	-3.4667	-3.0458	-3.0729	-3.7208	-2.9229	-3.3792	-3.4	-2.7167	-3.4875	-3.35	-2.9833	-3.6458	-2.6896	-3.3604	-19.305	199.424	12.903	221.977	-60.644	-51.928	-48.560	134.003	-0.511	33.884	206.477	-89.681	221.697	203.649	249.422	142.910	0.00020573	1.8017e-05	0.00018116	444.84	3.8452e-06	3.2087e-06	1058.6	157.22	3.7128e-06	6.984e-06	376.07	161.21	62.508	26.113	8.9155e-06	78.077	0.0010219	0.0010983	0.00025448	359.09	1.0369e-05	1.1561e-05	844.22	125.36	1.3618e-05	1.2539e-05	301.29	131.52	52.268	21.185	1.3882e-05	63.194	201.909	40.806	61.884	-83.522	67.037	173.668	-83.421	-76.331	121.383	49.614	-76.882	-73.486	-70.980	-66.859	34.378	-68.347	-8191	255	
2667.036	1	1	0	0	0.07532	0.17169	0.1466	0.26042	0.23055	0.075431	0.12201	0.12225	0.24556	0.1874	0.14366	0.20802	0.3702	0.10374	0.25003	0.18885	-3.025	-2.7062	-3.5771	-3.1188	-2.9292	-3.7083	-2.9979	-3.3167	-3.4521	-2.775	-3.55	-3.1937	-2.9417	-3.5812	-2.9083	-3.2604	71.281	107.429	79.861	74.262	122.707	-90.121	113.439	-76.432	231.651	160.322	182.218	220.351	-35.286	135.404	-84.062	200.121	0.00021265	0.0010258	0.00026373	436.43	3.8938e-06	5.5993e-06	1050.1	158.34	4.8011e-06	8.5481e-06	380.67	162.77	63.17	26.53	8.6996e-06	78.944	0.00095093	0.0011754	0.00023561	349.63	1.0502e-05	1.0786e-05	839.75	127.59	1.2099e-05	1.2733e-05	304.55	132.58	52.774	21.518	1.4001e-05	63.678	198.676	-9.845	-33.272	-83.351	67.696	27.821	-83.406	-76.290	78.228	85.798	-76.742	-73.719	-70.816	-66.780	61.449	-68.520	-8191	255	
2667.157	1	1	0	0	0.16246	0.097776	0.096569	0.11897	0.12372	0.12632	0.23243	0.25855	0.19151	0.14842	0.19385	0.14396	0.2465	0.079163	0.17606	0.14208	-3.1813	-2.6896	-3.4979	-3.1604	-2.8021	-3.5208	-2.9604	-3.2562	-3.5708	-2.8479	-3.4437	-3.4729	-2.65	-3.4146	-3.0146	-3.0583	249.964	189.293	54.857	91.455	120.839	154.322	130.797	-67.732	97.333	-84.312	154.036	264.265	69.261	217.063	144.478	145.429	0.00011961	0.00042796	0.00013624	438.17	7.5449e-06	1.427e-05	1072.2	158.08	4.3835e-06	3.2176e-06	380.43	164.36	63.988	26.558	3.2129e-06	79.34	0.00085449	0.0011614	0.00024207	352.1	1.1265e-05	1.0172e-05	849.56	128.21	1.1154e-05	1.3555e-05	305.58	133.87	53.228	21.58	1.4289e-05	64.389	219.909	112.356	-17.067	-83.357	67.190	19.432	-82.719	-75.812	109.681	-51.151	-76.507	-72.922	-71.101	-66.844	157.805	-68.450	-8191	255	
2667.251	1	1	0	0	0.18089	0.29219	0.064426	0.070597	0.08657	0.19899	0.25899	0.14222	0.071213	0.070013	0.19602	0.299	0.22517	0.13116	0.20591	0.079603	-3.0042	-2.6708	-3.2646	-3.3667	-2.7188	-3.5542	-2.9646	-3.0417	-3.6104	-2.9875	-3.3521	-3.5333	-2.8042	-3.3708	-3.0312	-3.0187	145.188	-58.376	256.460	-39.947	117.927	69.076	192.705	110.162	224.708	95.455	-66.785	238.444	36.804	172.510	230.096	-75.645	0.00013608	0.00086652	6.6363e-05	447.42	5.139e-06	5.0171e-06	1072.4	158.5	6.3511e-06	9.3949e-06	381.36	164.08	63.965	26.34	6.804e-06	78.46	0.00081144	0.0012797	0.00025071	358.15	1.1612e-05	9.3579e-06	852.99	127.95	1.0632e-05	1.4538e-05	305.98	133.02	53.32	21.433	1.4402e-05	63.373	229.164	-26.171	46.842	-83.120	18.084	72.889	-82.735	-76.769	23.626	52.304	-76.461	-72.931	-70.869	-66.765	67.072	-68.455	-8191	255	
2667.347	1	1	0	0	0.082238	0.13148	0.24299	0.11154	0.097249	0.24652	0.16547	0.20105	0.14083	0.082412	0.31637	0.18088	0.10793	0.19092	0.11503	0.28519	-3.2625	-2.8167	-3.1833	-3.7104	-2.7708	-3.4458	-3.3042	-2.8396	-3.7083	-2.9958	-3.3146	-3.6396	-2.6688	-3.4104	-3.2229	-2.975	48.678	-4.393	71.596	-41.715	68.434	246.921	185.690	207.960	218.780	-1.420	231.057	237.466	225.963	-1.002	65.373	235.962	0.00012855	0.00030469	0.00024604	444.49	1.5776e-06	6.1216e-06	1053.4	157.67	8.1788e-06	6.0016e-06	375.73	161.45	62.775	25.963	6.2006e-06	77.515	0.00074383	0.0013539	0.00026496	358.54	1.2491e-05	9.64e-06	842.99	126.26	9.746e-06	1.4829e-05	300.78	130.84	52.482	21.135	1.3142e-05	62.905	220.796	4.274	-48.530	-83.442	234.105	78.262	-83.165	-76.149	101.570	30.483	-76.682	-72.898	-70.138	-66.736	73.436	-68.946	-8191	255	
2667.468	1	1	0	0	0.13303	0.0059362	0.10993	0.11441	0.19248	0.15355	0.18966	0.40413	0.20399	0.21584	0.13473	0.21472	0.16169	0.18725	0.31627	0.3031	-3.2938	-2.9208	-3.0271	-3.6188	-2.6979	-3.4229	-3.3333	-2.9062	-3.6188	-2.8771	-3.0375	-3.5979	-2.8896	-3.2562	-3.35	-2.8021	69.076	43.525	263.375	-83.270	113.065	-21.909	167.357	-36.443	61.145	123.723	263.265	164.012	37.193	247.518	214.145	251.296	0.00011271	0.00045065	6.481e-05	450.33	1.1143e-06	4.2604e-06	1059.4	155.31	3.6233e-06	7.2323e-06	371.19	161.58	62.812	26.198	2.1605e-06	78.134	0.00071171	0.0013657	0.00028483	359.52	1.3488e-05	9.8314e-06	844.62	125.44	8.5218e-06	1.2939e-05	300.03	130.76	52.03	21.337	9.9125e-06	63.104	221.850	-70.100	-56.248	-83.379	102.278	5.628	-82.722	-75.784	-60.392	83.317	-76.396	-72.256	-71.437	-66.565	66.328	-68.451	-8191	255	
2667.564	1	1	0	0	0.14384	0.19093	0.24004	0.021651	0.23765	0.041724	0.24981	0.11816	0.096218	0.17119	0.2651	0.16046	0.035108	0.16563	0.19579	0.19804	-3.1813	-3.1854	-3.0729	-3.6479	-2.7729	-3.3187	-3.3708	-2.8083	-3.6125	-3.1771	-2.875	-3.6188	-2.8229	-3.3854	-3.3771	-2.8042	95.099	92.030	-16.819	178.259	-61.428	130.647	189.292	179.607	196.986	115.225	244.165	-34.698	-88.586	209.616	40.714	103.248	0.00021772	0.00034548	0.00028749	454.79	1.1371e-06	5.1495e-06	1070	154.6	5.0213e-06	1.0844e-05	374.74	164.38	62.977	26.873	4.0421e-06	79.046	0.00067181	0.0010217	0.0002824	361.57	1.1006e-05	9.9864e-06	849.94	124.91	8.7785e-06	1.1436e-05	302.52	133.44	52.466	21.827	1.0079e-05	64.326	224.367	-20.262	-25.602	-82.882	148.818	55.203	-83.015	-76.024	180.468	57.676	-76.455	-72.723	-70.701	-65.919	69.781	-68.164	-8191	255	
2667.636	1	1	0	0	0.1567	0.21996	0.23433	0.20659	0.13165	0.03684	0.12228	0.17893	0.34602	0.16077	0.079159	0.12195	0.093235	0.21234	0.1269	0.3088	-3.0354	-3.2229	-2.7708	-3.6625	-2.8896	-3.2083	-3.5854	-2.6229	-3.4125	-3.3104	-2.8167	-3.7875	-3.0333	-3.1896	-3.4667	-2.8333	186.321	239.456	65.097	118.834	-43.555	-74.722	213.954	260.142	49.156	-56.071	-66.464	102.267	222.060	-70.743	153.417	194.181	9.8536e-05	0.0013011	0.00019005	460.28	2.4659e-06	9.885e-06	1083.3	158.82	6.0156e-06	7.314e-06	383.9	166.46	65.111	27.042	4.6232e-06	79.945	0.000664	0.0010216	0.00029043	366.41	1.1284e-05	1.0319e-05	861.63	128.4	8.6903e-06	1.1581e-05	308.37	134.41	53.393	22.207	9.2519e-06	64.899	209.933	-31.990	-51.636	-83.017	26.593	61.474	-83.282	-75.773	81.350	86.288	-76.397	-72.614	-70.443	-66.251	52.067	-68.346	-8191	255	
2667.756	1	1	0	0	0.017877	0.14384	0.27201	0.13405	0.16951	0.13506	0.04297	0.27793	0.089899	0.081651	0.33155	0.16616	0.27873	0.052301	0.2284	0.20692	-2.9833	-3.3333	-2.8042	-3.4313	-2.9958	-2.9854	-3.6875	-2.6729	-3.3083	-3.4833	-2.925	-3.4583	-3.0917	-3.1042	-3.5187	-2.9646	240.437	260.106	-2.861	-15.199	56.402	223.754	-62.481	228.439	208.887	-17.634	190.802	240.244	-49.069	-84.480	188.649	-77.024	0.00017086	8.2995e-05	0.00015461	471.57	9.085e-07	3.6533e-06	1079.6	156.03	1.7964e-06	9.5694e-06	380.11	163.22	62.441	26.427	1.0234e-05	78.217	0.00081641	0.0010117	0.00038313	372.09	1.1952e-05	1.4622e-05	854.89	126.57	1.1533e-05	1.0614e-05	305.14	132	52.642	21.701	8.6967e-06	63.386	184.870	230.735	-18.149	-82.985	241.744	103.360	-82.616	-76.309	-22.081	-1.722	-76.711	-72.534	-70.230	-66.172	75.930	-67.953	-8191	255	
2667.853	1	1	0	0	0.20739	0.08903	0.14888	0.024402	0.30453	0.091955	0.13138	0.036278	0.11459	0.06216	0.082757	0.15881	0.36148	0.043048	0.44262	0.16695	-2.9458	-3.4125	-2.7917	-3.5646	-3.4437	-3.0042	-3.9021	-2.9625	-3.1188	-3.4979	-2.8479	-3.5104	-3.175	-2.9271	-3.7208	-3.1042	-82.265	88.801	102.959	171.320	97.914	56.872	265.808	-67.537	40.757	228.602	219.356	76.289	-88.275	41.917	122.481	252.134	0.0001987	0.00074451	0.00013679	470.06	9.3931e-06	3.7265e-06	1065	154.85	7.2989e-06	3.2152e-06	380.54	162.63	63.972	26.067	7.0615e-06	77.717	0.00094599	0.00098882	0.0004175	370.96	1.23e-05	1.628e-05	843.79	124.7	1.3168e-05	1.0963e-05	306.77	132.59	53.084	21.569	8.7817e-06	62.814	228.146	7.583	92.924	-83.199	74.837	35.199	-82.338	-75.745	192.942	52.717	-77.529	-72.537	-70.891	-65.924	94.778	-68.499	-8191	255	
2667.949	1	1	0	0	0.25502	0.11342	0.14694	0.14034	0.14016	0.25315	0.023465	0.099071	0.15558	0.2158	0.24132	0.11302	0.017387	0.26227	0.1911	0.3104	-2.7938	-3.6188	-2.5938	-3.5167	-3.3833	-2.8229	-3.5938	-2.9313	-3.05	-3.6104	-2.9083	-3.3833	-3.3688	-2.8187	-3.6125	-3.05	20.665	85.211	108.893	-8.782	41.961	53.664	-59.526	218.549	65.215	27.771	-68.951	169.145	176.681	255.463	253.336	167.909	0.00012635	0.00020431	0.00018705	458.92	5.5415e-06	5.1508e-06	1056	151.92	4.6513e-06	5.9721e-06	383.01	160.1	62.188	26.018	2.1311e-06	79.041	0.0010646	0.00094953	0.00041625	366.25	1.2066e-05	1.7261e-05	837.24	124.6	1.5508e-05	1.0371e-05	306.67	130.15	52.381	21.503	1.0499e-05	64.377	193.883	-35.000	9.910	-83.283	-8.563	59.733	-82.439	-75.752	194.222	-17.410	-76.678	-72.535	-71.600	-66.536	-17.323	-68.299	-8191	255	
2668.045	1	1	0	0	0.19924	0.087427	0.24855	0.099562	0.15513	0.20726	0.15065	0.16789	0.35452	0.039304	0.2141	0.16327	0.21809	0.18382	0.046572	0.19287	-2.3937	-3.6312	-2.8625	-3.2417	-3.4167	-2.6667	-3.6896	-3.05	-3.0979	-3.5521	-2.9083	-3.3896	-3.3792	-2.7167	-3.6833	-3.475	109.370	120.934	84.947	-13.997	33.110	192.396	169.855	72.506	140.313	-39.112	248.391	180.701	-13.745	262.568	218.467	220.135	0.00015655	0.00049043	0.00013618	452.78	9.1286e-06	8.8579e-06	1062.5	155.67	5.4993e-06	1.0069e-05	382.61	158.03	62.53	26.239	6.159e-06	80.832	0.0011784	0.00090572	0.00041717	364.47	1.1216e-05	1.7692e-05	840.7	126.93	1.6108e-05	1.0316e-05	310.34	128.7	51.808	21.712	1.1883e-05	65.517	215.056	-16.643	110.283	-83.037	55.998	67.420	-83.127	-76.009	172.344	55.948	-76.681	-72.547	-70.588	-66.458	-21.102	-68.291	-8191	255	
2668.141	1	1	0	0	0.1438	0.22214	0.12705	0.070037	0.12258	0.15534	0.21607	0.07349	0.24404	0.1902	0.18461	0.17838	0.19327	0.16792	0.18616	0.14965	-2.5646	-3.3917	-2.8833	-3.3375	-3.6229	-2.925	-3.5583	-3.3708	-2.85	-3.6771	-3.0896	-3.1063	-3.5312	-2.8729	-3.5187	-3.4854	61.433	-62.276	-21.107	24.190	84.342	162.912	255.985	-1.293	149.482	-47.236	154.931	248.673	238.876	156.532	145.973	184.282	0.00016209	0.00062522	0.00015556	453.03	9.0058e-06	1.6989e-06	1064.6	159.18	8.6636e-06	2.7603e-06	386.33	159.64	63.802	26.409	5.6631e-07	79.998	0.0012307	0.0008993	0.00040128	364.3	1.0424e-05	1.7634e-05	845.08	128.08	1.681e-05	1.0829e-05	309.81	130.01	52.256	21.667	1.3424e-05	64.936	201.159	-11.856	51.485	-83.575	8.609	54.807	-82.716	-76.802	80.732	78.598	-76.437	-72.258	-70.980	-66.244	148.896	-68.108	-8191	255	
2668.235	1	1	0	0	0.31428	0.14655	0.15028	0.28281	0.18426	0.13934	0.16112	0.25572	0.088819	0.16395	0.054841	0.19279	0.15901	0.18093	0.11065	0.092959	-2.4667	-3.6813	-2.9271	-3.075	-3.6167	-2.9562	-3.4292	-3.4604	-2.9229	-3.6729	-3.1688	-3.1	-3.7188	-2.9083	-3.3354	-3.6333	141.697	-42.352	116.119	-46.181	260.391	171.039	191.185	243.442	-71.758	3.561	181.382	222.925	94.702	-25.238	21.344	81.598	7.5956e-05	0.00080233	6.7644e-05	441.31	1.5449e-06	7.7733e-06	1059.8	157.55	7.6535e-06	7.7005e-06	382.03	157.56	61.575	25.874	3.6304e-06	78.959	0.0012223	0.00097914	0.0003628	356.5	9.4111e-06	1.6614e-05	843.27	127.34	1.6532e-05	1.1614e-05	307.12	128.7	51.718	21.305	1.4725e-05	63.821	202.743	-29.608	-14.911	-83.296	131.193	68.006	-82.828	-76.165	99.054	70.014	-76.475	-72.483	-71.077	-66.527	110.108	-68.403	-8191	255	
2668.332	1	1	0	0	0.30748	0.12988	0.1728	0.15785	0.13023	0.15092	0.26264	0.010965	0.012435	0.21635	0.23121	0.11858	0.035005	0.1164	0.16294	0.086691	-2.5125	-3.5375	-3.2167	-2.8688	-3.625	-3.0292	-3.4604	-3.6875	-2.875	-3.5292	-3.2292	-3.0271	-3.5208	-2.9604	-3.1688	-3.6042	114.943	193.947	-67.342	192.553	229.986	24.522	167.411	130.568	132.014	-89.412	198.212	20.134	59.809	261.265	264.341	213.286	0.00020229	0.0010303	0.0001871	442.51	3.1582e-06	2.4767e-06	1052.3	156.92	7.5692e-06	5.5004e-06	377.53	155.33	61.544	25.89	5.488e-06	78.541	0.0011827	0.0011128	0.00034448	357.31	9.3146e-06	1.584e-05	835.99	125.65	1.6058e-05	1.3039e-05	304.59	126.41	51.374	21.127	1.5871e-05	63.381	233.519	0.756	25.656	-83.293	57.115	14.749	-82.855	-75.986	43.809	106.028	-76.847	-72.388	-71.172	-66.320	64.923	-67.710	-8191	255	
2668.429	1	1	0	0	0.3146	0.055699	0.08254	0.34246	0.078478	0.22598	0.15536	0.17412	0.31591	0.10759	0.16052	0.24786	0.21563	0.2358	0.19992	0.072763	-2.3896	-3.4229	-3.125	-2.8375	-3.6937	-2.8688	-3.3479	-3.6125	-2.8104	-3.5021	-3.3375	-2.9896	-3.7917	-3.1208	-3.0396	-3.6521	-31.315	-33.476	194.937	2.400	47.586	140.391	190.264	92.068	149.072	182.322	-81.471	-80.532	78.839	215.129	249.958	128.983	0.00020992	0.00012251	0.00017574	446.49	3.3108e-06	2.6768e-06	1047.6	152.89	4.8132e-06	8.7999e-06	382.14	152.91	61.401	25.763	5.7782e-06	78.599	0.0011319	0.0012243	0.00033497	361.54	1.0195e-05	1.563e-05	832.15	123.93	1.5525e-05	1.4206e-05	305.63	124.59	50.884	21.162	1.659e-05	63.487	183.925	230.230	-6.862	-82.928	65.521	15.635	-82.896	-76.154	128.729	74.328	-76.706	-72.427	-70.810	-66.532	68.096	-68.124	-8191	255	
2668.548	1	1	0	0	0.16751	0.092769	0.087788	0.091719	0.13482	0.11703	0.15215	0.070577	0.068722	0.072009	0.020041	0.04979	0.13728	0.22169	0.070634	0.29957	-2.4375	-3.3563	-3.3812	-2.9021	-3.4938	-3.1583	-2.9437	-3.5958	-2.7938	-3.5229	-3.4979	-3.0083	-3.6583	-3.1458	-2.8917	-3.6729	-83.697	207.771	63.487	-8.224	257.142	216.803	258.500	138.081	17.810	234.931	-74.128	-21.626	-56.632	-37.246	-51.398	257.979	0.0001489	0.0004695	0.0001365	454.74	4.8483e-06	1.2365e-06	1049.4	155.92	8.9179e-06	7.5958e-06	382.45	153.8	61.713	26.241	1.7427e-06	78.964	0.0011509	0.0013418	0.00030784	365.32	1.078e-05	1.4391e-05	839.4	125.32	1.6096e-05	1.5637e-05	306.58	125.5	51.368	21.423	1.7706e-05	63.851	222.593	79.031	140.921	-82.998	-14.442	-40.461	-82.572	-76.407	83.211	14.398	-76.394	-71.855	-71.058	-65.635	-14.307	-68.358	-8191	255	
2668.645	1	1	0	0	0.27607	0.17385	0.026217	0.060719	0.066018	0.062814	0.12549	0.18324	0.1495	0.30827	0.19531	0.38886	0.043682	0.18351	0.23596	0.18297	-2.4542	-3.1688	-3.4938	-2.7062	-3.6125	-3.1437	-3.0167	-3.5625	-2.8375	-3.0979	-3.5167	-2.8625	-3.3417	-3.4667	-2.7292	-3.8042	-57.108	217.156	184.974	189.876	154.424	105.337	158.581	200.798	-41.240	-49.117	-3.200	239.986	187.877	-84.582	246.794	-93.827	0.00013327	0.0010431	0.00022234	448.48	2.2328e-06	3.8537e-06	1058.4	157.54	8.7886e-07	7.2576e-06	385.28	155.21	61.509	26	2.0201e-06	79.382	0.0010929	0.0014719	0.00027612	362	1.2648e-05	1.3682e-05	839.38	125.75	1.5618e-05	1.7144e-05	309.71	126.13	51.742	21.35	1.7389e-05	64.267	234.569	246.821	-19.401	-82.879	68.101	95.181	-82.712	-76.275	260.153	24.342	-76.688	-72.695	-70.563	-66.879	112.949	-67.951	-8191	255	
2668.741	1	1	0	0	0.047716	0.22497	0.16146	0.19531	0.060384	0.32349	0.431	0.16889	0.14272	0.18539	0.18325	0.083723	0.21724	0.10595	0.16547	0.31022	-2.6792	-2.9042	-3.5771	-2.7271	-3.3917	-3.2833	-2.9688	-3.5146	-3.1688	-3.0104	-3.75	-2.8563	-3.3063	-3.3396	-2.9271	-3.7833	-7.660	103.518	208.637	1.588	-31.558	135.960	216.387	200.853	158.484	-70.651	248.830	247.948	-59.502	161.524	-62.534	249.062	0.000192	0.0011795	0.00022028	448.53	6.0422e-06	6.9421e-07	1058.9	159.81	2.2909e-06	3.1034e-06	387.87	155.32	63.332	26.288	5.2335e-06	78.139	0.0010525	0.0016108	0.00027677	362.83	1.3977e-05	1.2035e-05	844.1	128.43	1.4136e-05	1.8683e-05	310.63	126.83	53.493	21.434	1.7918e-05	63.165	214.842	-41.337	-25.533	-82.840	95.898	72.398	-82.944	-75.846	38.172	213.091	-77.319	-72.527	-70.402	-66.363	49.796	-68.407	-8191	255	
2668.837	1	1	0	0	0.31846	0.063242	0.25362	0.077287	0.15736	0.16895	0.061762	0.27472	0.13177	0.17263	0.25538	0.3221	0.075669	0.10468	0.14347	0.23339	-2.6854	-2.8271	-3.5667	-2.7271	-3.1833	-3.4938	-2.9437	-3.425	-3.0896	-2.9854	-3.5604	-2.9708	-3.2354	-3.4896	-2.6917	-3.6875	189.324	135.075	150.683	-78.551	-82.273	-75.733	193.221	189.511	154.602	24.474	-4.544	234.563	112.695	210.271	-13.172	-88.520	0.00016971	0.00087872	0.00011124	445.78	2.7312e-06	4.7017e-06	1061	160.42	2.6443e-06	2.4701e-05	389.66	154.03	63.098	26.115	8.5604e-06	78.037	0.00099507	0.0016865	0.0002676	360.48	1.6091e-05	1.1895e-05	845.94	129.78	1.3222e-05	1.9482e-05	311.94	125.23	53.383	21.321	1.7571e-05	63.117	222.130	34.248	3.747	-83.238	17.866	59.534	-82.976	-76.370	182.789	121.303	-76.935	-72.602	-70.408	-65.837	75.356	-67.447	-8191	255	
2668.933	1	1	0	0	0.11061	0.13094	0.21631	0.17599	0.23673	0.15666	0.38054	0.18766	0.096116	0.18227	0.12153	0.28395	0.064176	0.2176	0.062379	0.21842	-2.8958	-2.9125	-3.4708	-2.8292	-2.8667	-3.6146	-2.65	-3.5083	-3.2479	-2.9292	-3.7417	-3.0333	-2.9479	-3.5708	-2.7375	-3.4354	30.501	-86.357	32.880	61.704	95.296	216.250	225.192	-10.737	246.379	65.108	213.806	-59.398	208.542	-86.958	27.624	239.416	0.00017691	0.00096059	9.8721e-05	447.24	3.8797e-06	8.8907e-06	1057.1	161.69	5.5732e-06	9.0195e-06	389.87	155.23	63.128	26.412	2.3865e-06	78.18	0.0009145	0.0017269	0.00029908	359.08	1.6859e-05	1.0784e-05	841.19	131.2	1.1987e-05	1.9199e-05	312.54	126.09	53.672	21.546	1.7691e-05	63.471	221.238	1.242	3.301	-83.010	187.724	47.549	-82.993	-75.957	75.467	105.845	-77.026	-72.698	-71.080	-66.208	17.454	-68.084	-8191	255	
2669.029	1	1	0	0	0.14053	0.14506	0.13549	0.20368	0.19757	0.2038	0.30962	0.19195	0.21458	0.13095	0.056405	0.25649	0.092136	0.27704	0.20249	0.087473	-3.0167	-2.6771	-3.4437	-3.0458	-2.9688	-3.6771	-3.0021	-3.4021	-3.3875	-2.8667	-3.6396	-3.2354	-2.9042	-3.5812	-2.8167	-3.2875	262.705	215.396	-12.988	261.625	161.233	223.042	227.227	263.382	-34.310	35.502	223.769	169.597	240.263	226.185	190.956	-81.680	0.0001484	0.0019606	0.00014009	447.57	8.5594e-06	9.4591e-06	1057.5	160.82	6.3123e-06	2.7088e-06	390.94	155.54	64.099	26.627	9.0536e-06	79.341	0.00091684	0.001695	0.00032852	359.19	1.7342e-05	1.1035e-05	846.68	131.4	1.1769e-05	1.9488e-05	315.18	127.12	54.683	21.72	1.667e-05	64.304	208.973	30.330	-88.324	-83.518	129.976	52.132	-82.957	-76.280	47.817	-22.300	-76.603	-72.545	-71.071	-66.272	-18.572	-68.199	-8191	255	
2669.150	1	1	0	0	0.33938	0.19194	0.07979	0.023681	0.21913	0.15054	0.185	0.19531	0.15999	0.20036	0.32639	0.065788	0.2633	0.18081	0.29052	0.34195	-3.1104	-2.6	-3.4667	-3.1583	-2.9083	-3.4583	-2.9458	-3.0521	-3.5438	-2.8542	-3.4417	-3.2188	-2.8	-3.4979	-3.0646	-3.1542	119.779	83.344	-77.989	-80.036	-81.227	237.980	196.537	223.284	163.720	26.928	-86.819	-71.508	-37.248	-28.469	249.318	-77.864	0.00012776	0.0012723	0.00022794	450.84	4.849e-06	1.0961e-05	1065.1	165.93	3.5471e-06	1.4053e-05	387.55	155.49	63.745	27.105	4.3057e-06	79.27	0.00083263	0.0016839	0.00035229	360.41	1.771e-05	1.1673e-05	848.74	133.75	1.0481e-05	1.8062e-05	313.37	127	54.559	21.881	1.5224e-05	64.373	213.542	-35.025	-35.859	-83.568	11.611	70.290	-82.862	-75.957	52.886	74.410	-76.439	-72.614	-71.315	-66.011	77.522	-67.689	-8191	255	
2669.246	1	1	0	0	0.24753	0.20077	0.077823	0.12608	0.036188	0.10826	0.22039	0.1498	0.095543	0.20403	0.10739	0.2103	0.34431	0.12077	0.061352	0.23999	-3.2938	-2.575	-3.3417	-3.3542	-2.7604	-3.6875	-3.1729	-2.9604	-3.7646	-2.9062	-3.4625	-3.3854	-2.7562	-3.5375	-2.7854	-3.1208	116.952	121.269	241.811	222.504	-34.235	208.020	218.123	91.482	149.301	100.772	214.193	246.714	242.121	-8.983	179.535	182.140	0.00023411	0.00018009	0.00018433	438.4	7.6351e-06	5.5095e-06	1063.9	162.21	3.7441e-06	1.051e-05	386.53	156.2	63.762	26.848	4.8107e-06	77.809	0.0007686	0.0015635	0.00039246	350.83	1.7325e-05	1.3246e-05	847.21	133.05	1.009e-05	1.7257e-05	314.33	126.31	54.196	21.741	1.4724e-05	63.134	222.170	-55.837	-0.538	-83.051	65.778	99.031	-83.253	-75.751	27.480	52.721	-76.567	-72.439	-70.649	-66.439	6.733	-67.992	-8191	255	
2669.340	1	1	0	0	0.05838	0.20323	0.1132	0.053552	0.077495	0.045473	0.12393	0.091242	0.14163	0.31313	0.046134	0.24064	0.17977	0.1004	0.093803	0.18583	-3.2271	-2.8563	-3.2354	-3.4625	-2.7792	-3.6333	-3.2667	-3.0771	-3.5521	-2.8958	-3.3542	-3.5208	-2.7646	-3.3917	-3.0917	-2.8833	-60.915	118.167	124.859	-8.158	-20.974	-88.383	-71.244	110.517	-84.502	114.106	207.015	198.576	-60.230	-39.272	-59.718	258.484	0.00015622	0.00060709	0.0001195	447.44	2.3242e-06	3.3173e-06	1060	162.91	2.5301e-06	6.5902e-06	390.68	157.99	65.525	26.61	4.5395e-06	78.213	0.00078249	0.0014689	0.00044804	352.86	1.6333e-05	1.4736e-05	841.64	133.28	1.1301e-05	1.6297e-05	316.74	127.58	55.175	21.791	1.369e-05	63.294	215.701	62.173	-0.560	-83.481	92.246	32.780	-83.227	-75.823	27.354	-41.532	-76.829	-72.571	-72.165	-66.522	192.419	-68.126	-8191	255	
2669.436	1	1	0	0	0.10171	0.13874	0.15357	0.27024	0.062264	0.13417	0.030534	0.056998	0.22563	0.12193	0.13783	0.12948	0.098059	0.0355	0.14689	0.22038	-3.3021	-2.8	-3.1771	-3.7167	-2.7542	-3.4188	-3.3979	-2.8854	-3.6042	-2.85	-3	-3.5708	-2.7375	-3.625	-3.3542	-2.8937	111.047	104.368	5.216	262.807	155.209	-33.784	32.476	-47.230	113.896	111.527	6.353	91.358	181.858	-58.290	28.945	243.644	0.00018074	0.0011999	0.00012853	450.03	5.7601e-06	8.3181e-06	1061.5	161.81	4.8244e-06	2.5631e-06	393.98	157.5	64.834	26.441	8.9922e-06	78.01	0.00086351	0.001452	0.00046492	357.85	1.6364e-05	1.5986e-05	846.59	132.51	1.2566e-05	1.6236e-05	317.53	127.97	55.046	21.763	1.2236e-05	63.542	230.139	-9.768	-4.605	-83.304	-0.942	66.834	-83.160	-76.221	96.513	162.366	-76.851	-72.765	-71.595	-66.484	160.225	-67.599	-8191	255	
2669.533	1	1	0	0	0.031389	0.1117	0.20532	0.15423	0.28024	0.14039	0.23305	0.2367	0.086714	0.1147	0.11092	0.14159	0.055924	0.16998	0.13316	0.25912	-3.1792	-2.9542	-3.0667	-3.5104	-2.9021	-3.4583	-3.575	-2.9979	-3.5521	-3.1437	-2.9396	-3.7812	-2.8771	-3.2625	-3.5021	-2.9188	-14.531	-38.974	22.896	157.198	101.192	120.356	205.333	164.343	-67.738	55.504	133.339	249.771	100.929	-85.826	19.065	242.052	0.00010849	0.001344	0.00014343	451.91	8.1084e-06	4.6231e-06	1074.8	163.72	4.2524e-06	6.3808e-06	389.2	158.5	66.135	27.161	2.0162e-06	77.605	0.00096407	0.0013667	0.00048345	358.36	1.5121e-05	1.7429e-05	852.65	133.34	1.3604e-05	1.4375e-05	316.74	127.79	55.842	22.322	1.1519e-05	63.228	200.855	4.602	-30.813	-82.989	150.340	44.842	-83.529	-75.663	67.703	107.680	-76.191	-72.551	-71.500	-65.627	116.225	-67.897	-8191	255	
#DATA ENDS
