BOXY.EXE: ISS Imagent and Oximeter Data Acquisition Program Version 0.80
Ascii Record File

#ACQ INFORMATION
2  Detector Channels 
16  External MUX Channels 
1  Auxiliary Channels 
5000  Waveform (CCF) Frequency (Hz)
1  Waveforms Skipped 
30  Waveforms Averaged 
1  Cycles Averaged 
16  Acquisitions per Waveform 
10.0806  Updata Rate (Hz) 

#FILE INFORMATION
TRUE -- External MUX Channel results are PARSED.
FALSE -- AC DC and Phase are NOT grouped.
TRUE -- Companion Program Settings File CREATED.
FALSE -- AC data not excluded
FALSE -- DC data not excluded
FALSE -- Phase data not excluded
FALSE -- Auxillary Chn. data not excluded
Tab delimiters

#CALIBRATION STATE
TRUE -- Waveform Calibration Values APPLIED.


#AUX CALIBRATION VALUES
Val Type	aux-1	

Term	1.0000e+00	
Factor	0.0000e+00	


#WF CALIBRATION VALUES
A = Detector Channel
Val Type	A-AC1	A-AC2	A-AC3	A-AC4	A-AC5	A-AC6	A-AC7	A-AC8	A-AC9	A-AC10	A-AC11	A-AC12	A-AC13	A-AC14	A-AC15	A-AC16	A-DC1	A-DC2	A-DC3	A-DC4	A-DC5	A-DC6	A-DC7	A-DC8	A-DC9	A-DC10	A-DC11	A-DC12	A-DC13	A-DC14	A-DC15	A-DC16	A-Ph1	A-Ph2	A-Ph3	A-Ph4	A-Ph5	A-Ph6	A-Ph7	A-Ph8	A-Ph9	A-Ph10	A-Ph11	A-Ph12	A-Ph13	A-Ph14	A-Ph15	A-Ph16	

Term	0.00000e+00	0.00000e+00	0.00000e+00	0.00000e+00	0.00000e+00	0.00000e+00	0.00000e+00	0.00000e+00	0.00000e+00	0.00000e+00	0.00000e+00	0.00000e+00	0.00000e+00	0.00000e+00	0.00000e+00	0.00000e+00	0.00000e+00	0.00000e+00	0.00000e+00	0.00000e+00	0.00000e+00	0.00000e+00	0.00000e+00	0.00000e+00	0.00000e+00	0.00000e+00	0.00000e+00	0.00000e+00	0.00000e+00	0.00000e+00	0.00000e+00	0.00000e+00	0.00000e+00	0.00000e+00	0.00000e+00	0.00000e+00	0.00000e+00	0.00000e+00	0.00000e+00	0.00000e+00	0.00000e+00	0.00000e+00	0.00000e+00	0.00000e+00	0.00000e+00	0.00000e+00	0.00000e+00	0.00000e+00	
Factor	1.00000e+00	1.00000e+00	1.00000e+00	1.00000e+00	1.00000e+00	1.00000e+00	1.00000e+00	1.00000e+00	1.00000e+00	1.00000e+00	1.00000e+00	1.00000e+00	1.00000e+00	1.00000e+00	1.00000e+00	1.00000e+00	1.00000e+00	1.00000e+00	1.00000e+00	1.00000e+00	1.00000e+00	1.00000e+00	1.00000e+00	1.00000e+00	1.00000e+00	1.00000e+00	1.00000e+00	1.00000e+00	1.00000e+00	1.00000e+00	1.00000e+00	1.00000e+00	X	X	X	X	X	X	X	X	X	X	X	X	X	X	X	X	

B = Detector Channel
Val Type	B-AC1	B-AC2	B-AC3	B-AC4	B-AC5	B-AC6	B-AC7	B-AC8	B-AC9	B-AC10	B-AC11	B-AC12	B-AC13	B-AC14	B-AC15	B-AC16	B-DC1	B-DC2	B-DC3	B-DC4	B-DC5	B-DC6	B-DC7	B-DC8	B-DC9	B-DC10	B-DC11	B-DC12	B-DC13	B-DC14	B-DC15	B-DC16	B-Ph1	B-Ph2	B-Ph3	B-Ph4	B-Ph5	B-Ph6	B-Ph7	B-Ph8	B-Ph9	B-Ph10	B-Ph11	B-Ph12	B-Ph13	B-Ph14	B-Ph15	B-Ph16	

Term	0.00000e+00	0.00000e+00	0.00000e+00	0.00000e+00	0.00000e+00	0.00000e+00	0.00000e+00	0.00000e+00	0.00000e+00	0.00000e+00	0.00000e+00	0.00000e+00	0.00000e+00	0.00000e+00	0.00000e+00	0.00000e+00	0.00000e+00	0.00000e+00	0.00000e+00	0.00000e+00	0.00000e+00	0.00000e+00	0.00000e+00	0.00000e+00	0.00000e+00	0.00000e+00	0.00000e+00	0.00000e+00	0.00000e+00	0.00000e+00	0.00000e+00	0.00000e+00	-9.97839e+01	-1.27879e+02	-1.28521e+02	-1.82006e+02	-5.58992e+01	-7.33021e+01	-1.57810e+02	-1.62015e+02	-5.12818e+01	-6.74143e+01	-1.72403e+02	-1.70165e+02	-1.80574e+02	-1.76604e+02	-6.35904e+01	-1.48996e+02	
Factor	1.65874e-05	1.60630e-04	4.67225e-05	1.56642e-01	1.23825e-06	1.65992e-06	1.81458e-01	5.32774e-02	1.10927e-06	1.85625e-06	9.31568e-02	3.11199e-02	4.21576e-02	9.47623e-03	1.36244e-06	1.40405e-02	8.31017e-06	1.23189e-05	3.42039e-06	7.89887e-02	1.27350e-07	1.35954e-07	8.60234e-02	2.70087e-02	1.27156e-07	1.36589e-07	4.55214e-02	1.53836e-02	2.16466e-02	4.83925e-03	1.31139e-07	6.92868e-03	X	X	X	X	X	X	X	X	X	X	X	X	X	X	X	X	



#DISTANCE SETTINGS
A = Detector Channel
A-1	A-2	A-3	A-4	A-5	A-6	A-7	A-8	A-9	A-10	A-11	A-12	A-13	A-14	A-15	A-16	

2.5000e+00	3.0000e+00	2.5000e+00	3.0000e+00	2.0000e+00	3.0000e+00	1.5000e+00	3.0000e+00	3.0000e+00	3.0000e+00	3.0000e+00	3.0000e+00	3.0000e+00	3.0000e+00	1.5000e+00	3.0000e+00	

B = Detector Channel
B-1	B-2	B-3	B-4	B-5	B-6	B-7	B-8	B-9	B-10	B-11	B-12	B-13	B-14	B-15	B-16	

1.0000e+01	1.0000e+01	1.0000e+01	1.4400e+00	1.0000e+01	1.0000e+01	1.5100e+00	1.9400e+00	1.0000e+01	1.0000e+01	1.9900e+00	2.4900e+00	2.4100e+00	2.9000e+00	1.0000e+01	2.9800e+00	




#DATA BEGINS
time	group	step	mark	flag	A-AC1	A-AC2	A-AC3	A-AC4	A-AC5	A-AC6	A-AC7	A-AC8	A-AC9	A-AC10	A-AC11	A-AC12	A-AC13	A-AC14	A-AC15	A-AC16	A-DC1	A-DC2	A-DC3	A-DC4	A-DC5	A-DC6	A-DC7	A-DC8	A-DC9	A-DC10	A-DC11	A-DC12	A-DC13	A-DC14	A-DC15	A-DC16	A-Ph1	A-Ph2	A-Ph3	A-Ph4	A-Ph5	A-Ph6	A-Ph7	A-Ph8	A-Ph9	A-Ph10	A-Ph11	A-Ph12	A-Ph13	A-Ph14	A-Ph15	A-Ph16	B-AC1	B-AC2	B-AC3	B-AC4	B-AC5	B-AC6	B-AC7	B-AC8	B-AC9	B-AC10	B-AC11	B-AC12	B-AC13	B-AC14	B-AC15	B-AC16	B-DC1	B-DC2	B-DC3	B-DC4	B-DC5	B-DC6	B-DC7	B-DC8	B-DC9	B-DC10	B-DC11	B-DC12	B-DC13	B-DC14	B-DC15	B-DC16	B-Ph1	B-Ph2	B-Ph3	B-Ph4	B-Ph5	B-Ph6	B-Ph7	B-Ph8	B-Ph9	B-Ph10	B-Ph11	B-Ph12	B-Ph13	B-Ph14	B-Ph15	B-Ph16	aux-1	digaux	

1029.561	1	1	0	256	0.070219	0.075681	0.1601	0.096154	0.068029	0.1729	0.22139	0.079552	0.014965	0.21898	0.19923	0.14215	0.18599	0.053192	0.13457	0.24318	-2.7604	-3.5167	-2.8187	-3.4167	-3.3563	-2.7333	-3.7687	-3.1083	-2.8292	-3.7417	-2.7396	-3.2104	-3.5938	-2.8042	-3.5458	-3.1104	407.120	126.765	420.967	188.115	204.233	213.455	314.727	354.455	348.400	102.652	118.627	207.148	304.282	191.218	269.383	351.502	0.00045779	0.00037419	0.00012633	1302.7	4.3685e-06	3.9777e-06	1305.2	355.3	5.134e-06	6.1001e-06	409.83	137.6	118.41	40.452	5.2047e-06	50.819	0.0003626	0.00026598	7.6617e-05	1314.2	3.2625e-06	2.9335e-06	1318.2	360.58	3.1879e-06	2.9384e-06	416.31	139.97	120.21	41.425	2.9864e-06	52.011	196.892	167.148	160.310	95.284	251.724	231.345	94.979	99.861	264.501	218.988	99.382	104.215	104.629	108.747	232.909	107.849	-8191	255	
1029.657	1	1	0	0	0.092522	0.047098	0.17213	0.26498	0.3036	0.067829	0.040095	0.076092	0.13264	0.27301	0.22556	0.038949	0.21057	0.1261	0.048994	0.081282	-2.3167	-3.4729	-2.8	-3.325	-3.5958	-2.7687	-3.6437	-3.1937	-2.9792	-3.7	-2.9042	-3.3792	-3.5167	-2.8125	-3.4417	-3.1958	348.218	354.973	262.020	368.856	428.436	138.291	252.958	158.011	419.518	216.748	130.761	188.789	414.078	292.380	357.095	197.447	0.00042951	0.00043935	0.00011312	1301.4	4.2372e-06	3.7927e-06	1304.8	354.42	4.2502e-06	5.7533e-06	411.22	137.11	118.22	40.591	3.3556e-06	50.945	0.00036201	0.00027415	7.6716e-05	1313	3.2352e-06	2.957e-06	1319.1	360.14	3.1413e-06	2.8339e-06	416.47	139.81	120.5	41.487	3.0771e-06	52.014	194.749	181.274	170.170	94.861	256.858	238.470	94.849	99.773	251.831	237.427	99.206	103.754	104.558	108.849	244.232	108.199	-8191	255	
1029.729	1	1	0	0	0.1776	0.15808	0.12422	0.23183	0.39297	0.11125	0.0281	0.34814	0.21544	0.14321	0.15036	0.16598	0.12209	0.40862	0.076262	0.13208	-2.2854	-3.5667	-2.7083	-3.2667	-3.4896	-2.6813	-3.5667	-3.3833	-2.9833	-3.4062	-2.9813	-3.1354	-3.5271	-2.8792	-3.4542	-3.3542	428.835	211.990	197.392	359.519	145.489	308.684	351.230	410.434	411.147	290.132	153.260	351.474	325.486	301.505	407.540	164.010	0.00044966	0.00065799	0.00014077	1300.6	4.5236e-06	4.2467e-06	1308.6	355.46	5.555e-06	4.1313e-06	410.76	136.53	118.57	40.511	5.0136e-06	50.931	0.000359	0.00027058	7.6945e-05	1314.2	3.18e-06	2.9321e-06	1321.4	360.97	3.2112e-06	2.8866e-06	416.33	139.72	120.25	41.497	3.1337e-06	52.036	197.297	162.316	155.936	95.362	247.429	211.682	95.183	99.998	263.025	211.730	99.631	104.244	104.715	109.007	230.965	108.148	-8191	255	
1029.849	1	1	0	0	0.16453	0.087222	0.084097	0.11618	0.15718	0.16039	0.15834	0.26369	0.21045	0.16971	0.167	0.11268	0.14682	0.066058	0.23226	0.19359	-2.3083	-3.3667	-2.8521	-3.2604	-3.325	-2.8208	-3.2854	-3.5479	-2.8667	-3.5479	-3.1833	-2.7313	-3.5938	-2.9646	-3.2521	-3.4833	275.353	423.527	210.119	371.814	149.124	179.279	361.244	383.609	267.687	211.294	83.796	212.836	102.183	265.853	311.572	401.193	0.00045226	0.00053905	0.00011889	1303	5.8907e-06	4.5721e-06	1302.3	355.37	4.0152e-06	4.5489e-06	409.95	136.87	117.98	40.399	4.197e-06	50.639	0.00035336	0.00026937	7.9082e-05	1314.5	3.1625e-06	2.9383e-06	1318.6	360.42	3.2072e-06	2.8755e-06	416.36	139.89	119.98	41.357	3.1411e-06	51.848	196.491	167.094	184.146	95.561	254.312	245.528	95.500	100.125	253.558	240.085	99.836	104.269	104.521	109.265	234.983	108.289	-8191	255	
1029.946	1	1	0	0	0.10255	0.090102	0.18471	0.26984	0.085181	0.22997	0.33965	0.075735	0.25517	0.077407	0.21929	0.21817	0.16299	0.024303	0.070767	0.10153	-2.3312	-3.425	-3.0479	-3.025	-3.5125	-2.9188	-3.3021	-3.6021	-2.6646	-3.3396	-3.3937	-2.9021	-3.5062	-2.9354	-3.0042	-3.625	421.909	376.298	127.655	418.133	422.569	330.917	369.560	170.331	233.841	297.877	335.641	92.711	419.639	121.853	102.250	164.783	0.00043826	0.0003905	0.00012269	1297.6	4.9683e-06	4.699e-06	1307.7	354.76	5.3106e-06	5.6132e-06	409.29	136.79	118.35	40.547	4.008e-06	50.799	0.00035673	0.00027666	7.7279e-05	1311.8	3.0569e-06	3.0247e-06	1317.7	360.04	3.1707e-06	2.9222e-06	415.57	139.48	119.91	41.325	3.1348e-06	51.78	197.690	151.119	155.831	95.390	250.164	243.208	95.298	100.344	251.550	226.150	99.382	104.224	105.127	109.171	219.296	108.421	-8191	255	
1030.042	1	1	0	0	0.11564	0.072976	0.14066	0.30983	0.1321	0.28015	0.1897	0.24057	0.19758	0.23946	0.22775	0.26094	0.21853	0.1862	0.21824	0.27303	-2.4938	-3.3479	-3.2667	-2.9083	-3.4375	-3.0083	-3.0062	-3.7271	-2.7854	-3.35	-3.4625	-2.8792	-3.875	-3.1583	-3.0938	-3.6875	129.731	310.359	249.415	406.867	380.788	328.537	403.293	369.486	106.679	137.745	112.214	390.783	408.828	375.341	142.295	402.476	0.00044299	0.00051817	9.7691e-05	1293.5	5.1128e-06	5.7405e-06	1301.2	353.07	5.4366e-06	6.0719e-06	410.69	137	118.14	40.379	4.8929e-06	50.798	0.00035126	0.00027222	7.7721e-05	1310.5	3.098e-06	2.961e-06	1317.6	359.26	3.1866e-06	2.9887e-06	415.35	139.53	119.74	41.318	3.087e-06	51.871	196.777	177.955	159.238	95.303	247.030	235.107	95.431	100.134	243.575	235.977	99.701	104.419	104.786	109.176	237.716	108.335	-8191	255	
1030.162	1	1	0	0	0.098466	0.057063	0.1377	0.43802	0.43367	0.28013	0.15984	0.099006	0.01588	0.22901	0.13117	0.14091	0.07517	0.20786	0.086449	0.28839	-2.3312	-3.3083	-3.3417	-2.9354	-3.6979	-3.0312	-3.0333	-3.6479	-2.9479	-3.3583	-3.6375	-2.8833	-3.5687	-3.125	-2.8021	-3.7375	234.637	101.935	230.431	386.075	114.352	429.832	128.294	316.306	240.706	94.884	306.206	229.874	296.415	345.629	369.139	336.720	0.00045792	0.00060221	0.00011771	1293.2	5.1962e-06	5.2401e-06	1296.6	353.44	4.9713e-06	5.7336e-06	408.17	136.74	117.2	40.241	4.3529e-06	50.475	0.00035592	0.00027297	7.6752e-05	1307.3	2.9856e-06	2.9066e-06	1312.2	359.12	3.048e-06	2.9996e-06	415.09	139.11	119.65	41.158	3.076e-06	51.654	198.788	164.400	179.865	95.341	253.581	229.979	95.356	100.114	258.255	213.540	99.772	104.124	105.096	109.068	246.684	108.201	-8191	255	
1030.259	1	1	0	0	0.18474	0.2143	0.15335	0.12567	0.035761	0.099334	0.22221	0.046932	0.10423	0.23158	0.1769	0.18618	0.35429	0.38991	0.15615	0.14712	-2.4479	-2.9813	-3.4062	-2.8667	-3.4292	-3.275	-3.1292	-3.7667	-3.1396	-3.0938	-3.6521	-2.8438	-3.3542	-3.525	-3.0542	-3.6167	392.238	166.547	376.937	424.538	255.843	327.240	323.259	89.984	319.011	107.372	263.005	146.178	366.841	429.237	406.296	88.801	0.00043499	0.00049958	0.00014096	1296.1	4.7519e-06	5.1997e-06	1296.4	352.54	4.6737e-06	4.3898e-06	408.91	136.26	117	40.394	4.9617e-06	50.74	0.00035623	0.00027243	7.3923e-05	1307.1	3.0758e-06	3.0199e-06	1313.1	358.65	3.1808e-06	3.0232e-06	415	139.03	119.84	41.274	3.073e-06	51.823	197.138	183.875	164.181	95.575	255.747	223.948	95.456	100.370	260.406	219.654	99.528	104.259	104.935	109.211	255.324	108.186	-8191	255	
1030.353	1	1	0	0	0.28801	0.12043	0.13481	0.17241	0.084638	0.0721	0.30007	0.25575	0.17903	0.11356	0.28263	0.30674	0.044295	0.028814	0.16392	0.15577	-2.7958	-2.8417	-3.4917	-2.9958	-3.3354	-3.3792	-2.9437	-3.7417	-3.0625	-2.9979	-3.9875	-2.9437	-3.4125	-3.6146	-2.8542	-3.7104	135.482	106.680	399.968	378.458	132.234	158.165	378.334	390.243	220.733	400.634	367.107	378.821	151.502	401.401	126.511	414.005	0.00045584	0.00040977	0.0001031	1292.1	5.1297e-06	4.1521e-06	1294.8	352.79	5.1105e-06	4.9597e-06	409.49	136.7	117.35	40.382	4.0526e-06	51.017	0.00035635	0.00027078	7.1458e-05	1307.8	3.093e-06	2.9168e-06	1313.8	359.07	3.1087e-06	3.0237e-06	415.18	139.32	119.72	41.242	3.0449e-06	51.9	195.251	174.493	162.309	95.374	253.081	220.225	95.455	100.262	257.714	243.708	99.424	104.402	105.314	109.171	246.868	108.302	-8191	255	
1030.425	1	1	0	0	0.274	0.075298	0.20678	0.26298	0.03149	0.37301	0.38481	0.12138	0.12956	0.076097	0.04046	0.12103	0.032048	0.066179	0.08795	0.21064	-2.7562	-2.7062	-3.4813	-3.15	-3.0438	-3.575	-2.775	-3.6396	-2.9688	-2.8688	-3.5708	-2.9417	-3.0062	-3.7292	-2.7354	-3.5375	276.551	193.739	210.511	435.683	316.639	422.189	385.118	341.111	86.143	187.385	151.072	304.344	103.158	432.669	113.448	94.916	0.00045154	0.00048829	0.00010728	1295.4	4.3051e-06	4.2718e-06	1297.2	353.78	3.7519e-06	4.6269e-06	408.72	136.76	117.58	40.243	3.7117e-06	50.969	0.00035701	0.00027948	7.0104e-05	1308.5	3.1617e-06	2.7786e-06	1312.8	359	3.0878e-06	2.9796e-06	414.93	139.5	119.73	41.146	3.0137e-06	51.82	195.408	169.233	158.419	95.581	238.220	219.271	95.412	100.220	262.464	223.893	99.894	104.441	105.157	109.420	223.625	108.761	-8191	255	
1030.522	1	1	0	0	0.18925	0.11942	0.10195	0.10767	0.10876	0.14178	0.15375	0.12331	0.25787	0.19293	0.33557	0.14937	0.26475	0.30972	0.041164	0.077866	-2.7083	-2.6521	-3.5833	-3.2125	-3.2167	-3.7188	-2.8875	-3.5375	-3.2438	-2.7875	-3.5958	-3.1312	-3.1167	-3.6021	-2.8	-3.4875	197.074	357.391	390.290	434.182	99.946	135.905	126.914	112.884	409.050	118.869	99.764	126.104	94.042	110.947	165.105	356.592	0.00045408	0.00037407	0.0001117	1294.9	5.0072e-06	5.0008e-06	1299.8	353.32	4.2405e-06	5.5637e-06	410.37	136.79	117.23	40.398	5.2424e-06	50.589	0.00035955	0.00027376	7.1771e-05	1307.4	3.1519e-06	2.7936e-06	1313.7	359.2	3.2576e-06	2.913e-06	415.35	139.31	119.78	41.217	3.0708e-06	51.795	195.443	188.947	160.955	95.677	257.301	243.669	95.582	100.806	258.488	231.164	99.926	104.350	105.194	109.341	245.595	108.666	-8191	255	
1030.641	1	1	0	0	0.10649	0.063345	0.2101	0.35599	0.15313	0.075105	0.30012	0.28998	0.38013	0.17743	0.13563	0.28352	0.11534	0.11163	0.20374	0.21791	-3.2625	-2.6167	-3.4854	-2.9688	-2.8625	-3.6208	-2.9583	-3.4062	-3.2604	-2.8479	-3.5917	-3.1625	-2.8688	-3.7896	-2.6875	-3.3771	88.675	302.724	182.845	366.863	388.685	188.699	357.176	393.809	408.696	422.334	368.202	436.650	205.985	324.720	236.389	395.003	0.00043292	0.00052028	0.00012355	1296	3.7248e-06	4.6233e-06	1304.2	353.02	4.9713e-06	3.6685e-06	410.16	136.82	118.06	40.258	5.0728e-06	50.564	0.00034364	0.00028757	7.3154e-05	1308.8	3.1089e-06	2.8882e-06	1316.4	358.56	3.0438e-06	2.9247e-06	415.24	139.32	119.87	41.179	3.1217e-06	51.686	196.851	173.167	170.824	95.755	245.136	219.284	95.647	100.439	252.041	228.500	99.511	104.530	105.351	109.589	234.866	108.649	-8191	255	
1030.738	1	1	0	0	0.16888	0.1363	0.20009	0.20227	0.34029	0.20593	0.27655	0.16493	0.2037	0.12823	0.17425	0.15961	0.0639	0.10239	0.1237	0.42001	-3.0354	-2.6813	-3.5458	-3.275	-2.7938	-3.5583	-3.0375	-3.4146	-3.5375	-2.9333	-3.7125	-3.1729	-2.9917	-3.5771	-3.0521	-2.975	402.399	159.710	114.522	364.386	227.356	238.823	437.195	384.665	124.823	385.659	399.036	362.156	367.975	239.188	343.992	335.784	0.00045151	0.00058779	0.0001383	1298.9	5.1455e-06	4.9159e-06	1300.2	353.09	2.5542e-06	5.3116e-06	409.75	136.7	117.14	40.299	4.3813e-06	50.542	0.00035803	0.00027081	7.6545e-05	1309.2	3.1601e-06	2.7845e-06	1314.4	359.1	3.1527e-06	2.96e-06	414.97	139.19	119.48	41.179	3.1091e-06	51.679	196.675	163.624	167.670	95.229	236.400	214.963	95.543	100.251	247.253	239.541	99.838	104.297	105.088	109.581	241.866	108.234	-8191	255	
1030.834	1	1	0	0	0.20487	0.071714	0.074664	0.28848	0.26011	0.11237	0.18013	0.11235	0.27043	0.19955	0.14362	0.069031	0.19936	0.34275	0.18228	0.1531	-3.0479	-2.6792	-3.3583	-3.3104	-2.8833	-3.4896	-3.2042	-3.1312	-3.5729	-2.75	-3.6042	-3.4667	-2.7479	-3.7188	-3.05	-3.1417	415.161	270.335	347.518	91.256	282.138	292.565	382.892	375.698	391.714	90.945	432.087	272.456	87.710	417.008	402.447	213.871	0.00043641	0.00041797	9.6905e-05	1293.1	4.4165e-06	4.7583e-06	1303.3	352.2	3.2529e-06	6.4914e-06	407.24	136.08	117.76	40.313	5.2528e-06	50.611	0.00034421	0.00027974	7.7771e-05	1307.5	3.1272e-06	2.8581e-06	1315.5	358.39	3.0721e-06	3.0875e-06	415.1	139.02	119.49	41.28	3.1457e-06	51.693	198.326	204.923	164.824	94.815	242.768	212.647	94.828	100.008	244.666	240.739	99.279	104.133	104.581	108.953	242.326	108.143	-8191	255	
1030.930	1	1	0	0	0.15095	0.16088	0.09148	0.32399	0.16922	0.12458	0.092176	0.32081	0.13382	0.33741	0.27682	0.39332	0.10498	0.28016	0.14803	0.092203	-3.0771	-2.725	-3.2667	-3.475	-2.6958	-3.475	-3.3187	-2.9833	-3.5125	-2.9146	-3.2	-3.4646	-2.8104	-3.6688	-3.2479	-2.9604	168.324	316.522	194.319	418.907	178.388	112.121	278.967	373.634	326.654	431.078	349.643	286.542	189.587	431.297	372.662	188.046	0.00045532	0.00042192	0.00012824	1297.2	5.3466e-06	4.3715e-06	1305.1	354.57	4.4154e-06	5.2839e-06	409.07	136.98	117.51	40.434	5.1032e-06	50.776	0.00034513	0.00027261	7.5947e-05	1310.9	3.2087e-06	2.9865e-06	1316.8	359.59	2.9723e-06	3.0286e-06	415.08	139.56	119.7	41.304	3.1208e-06	51.787	196.649	192.159	170.361	95.140	247.374	219.795	95.040	99.942	244.617	207.092	99.271	104.013	105.161	108.928	235.511	108.491	-8191	255	
1031.026	1	1	0	0	0.11866	0.19094	0.21761	0.12782	0.29154	0.041787	0.12574	0.13271	0.071471	0.068702	0.20592	0.21755	0.041738	0.0735	0.070677	0.090595	-3.2271	-2.7542	-3.2125	-3.4938	-2.6333	-3.5208	-3.3854	-2.9625	-3.3917	-2.775	-3.1188	-3.6625	-2.7792	-3.3042	-3.4354	-2.8375	366.753	231.671	259.464	350.084	361.987	280.513	404.353	336.166	287.897	318.926	374.177	118.749	231.083	401.073	212.427	111.368	0.00045687	0.00058997	0.00013674	1298.5	5.1157e-06	5.1788e-06	1304.4	352.67	4.2256e-06	6.8151e-06	408.62	136.76	118.03	40.17	5.1319e-06	50.665	0.00034229	0.00027838	7.5812e-05	1309.5	3.1368e-06	2.8562e-06	1316.7	358.58	2.9394e-06	2.991e-06	415.04	139.15	119.72	41.223	3.1878e-06	51.79	201.052	171.871	165.788	95.174	233.500	218.413	94.891	100.069	249.274	260.333	99.890	104.350	104.829	109.320	250.759	108.767	-8191	255	
1031.122	1	1	0	0	0.19961	0.24845	0.18196	0.29824	0.079295	0.19793	0.042527	0.14646	0.038003	0.13697	0.17801	0.0043338	0.20613	0.27942	0.16463	0.12568	-3.1042	-2.9833	-3.0396	-3.7583	-2.9646	-3.3917	-3.5396	-2.9188	-3.4479	-3.1292	-3.075	-3.6833	-2.8917	-3.3771	-3.3563	-2.7875	272.559	366.366	388.895	425.297	324.940	164.119	252.999	430.707	407.301	260.817	428.699	121.007	381.579	116.455	203.707	324.172	0.00046584	0.00044766	0.00010789	1294.1	5.4993e-06	4.0773e-06	1301	352.83	4.4386e-06	5.8074e-06	407.32	136.84	117.29	40.27	4.5472e-06	50.711	0.00035427	0.00027145	7.894e-05	1309.8	3.2294e-06	2.9819e-06	1316.7	358.62	3.1172e-06	3.0092e-06	415.11	139.43	119.68	41.169	3.0523e-06	51.678	197.343	173.704	182.101	95.425	240.300	241.791	95.407	100.377	247.807	235.937	99.604	104.538	104.876	109.309	254.333	108.322	-8191	255	
1031.243	1	1	0	0	0.29019	0.069504	0.1982	0.26106	0.22886	0.067394	0.21446	0.29897	0.27802	0.090128	0.27616	0.21555	0.13989	0.15561	0.23437	0.12531	-3.0938	-3.1	-2.7438	-3.8333	-2.9125	-3.2333	-3.5438	-2.7021	-3.4521	-3.2042	-2.7667	-3.6813	-2.9292	-3.0042	-3.5271	-2.8792	198.471	406.560	374.260	359.081	314.566	362.165	384.428	364.962	139.442	83.913	334.454	140.056	410.979	89.396	307.899	145.697	0.00043186	0.00054685	0.00012593	1293.1	4.2731e-06	5.0321e-06	1301.9	351.79	4.7598e-06	4.0136e-06	408.64	136.53	118.02	40.508	4.5751e-06	50.528	0.0003461	0.00028077	7.8092e-05	1308.5	3.1286e-06	3.0187e-06	1315	358.53	3.1007e-06	3.0081e-06	414.27	139.29	119.74	41.219	2.9973e-06	51.591	197.905	161.236	174.112	95.515	262.145	218.667	95.499	100.313	256.135	232.156	99.848	104.526	105.133	109.473	237.800	108.505	-8191	255	
1031.339	1	1	0	0	0.26626	0.23793	0.036545	0.20996	0.21388	0.11882	0.2389	0.23485	0.11337	0.048398	0.13455	0.12579	0.10386	0.12616	0.094153	0.061032	-3.1521	-3.1917	-2.6771	-3.7417	-3.0583	-3.2771	-3.7625	-2.6958	-3.4625	-3.3146	-2.9333	-3.7438	-3.0167	-2.95	-3.4083	-2.8792	265.352	427.784	428.913	387.506	342.306	205.070	399.236	379.280	191.908	135.208	312.616	104.960	434.232	169.983	283.033	168.420	0.0004492	0.00055227	9.3678e-05	1295.5	4.505e-06	4.1057e-06	1303.2	352.45	5.0469e-06	5.0514e-06	407.63	136.74	118.06	40.344	4.0543e-06	50.594	0.00034738	0.00027389	7.574e-05	1308.1	3.141e-06	2.9573e-06	1314.1	358.5	3.1566e-06	3.0809e-06	414.3	139.16	119.56	41.246	3.0178e-06	51.704	196.337	201.342	166.702	95.756	245.234	241.076	95.587	100.401	254.076	221.547	100.050	104.721	104.986	109.517	240.383	108.304	-8191	255	
1031.433	1	1	0	0	0.091007	0.1784	0.13881	0.22277	0.092944	0.086414	0.22815	0.061546	0.20907	0.18431	0.14724	0.061708	0.20427	0.062003	0.020849	0.15688	-3.0979	-3.2812	-2.8042	-3.6729	-3.0521	-2.8708	-3.6521	-2.9333	-3.15	-3.5917	-3.0563	-3.6208	-3.2479	-2.9188	-3.65	-2.8875	101.189	208.812	246.033	372.216	213.296	249.264	383.104	428.009	399.443	349.665	416.853	294.602	436.311	327.169	390.741	378.059	0.00043819	0.0005075	0.00014608	1297.1	5.3052e-06	3.8426e-06	1299.6	352.81	4.6486e-06	3.3055e-06	410.26	136.62	117.94	40.268	6.2638e-06	50.427	0.00034743	0.00027543	7.6788e-05	1309.3	3.2702e-06	2.8964e-06	1311.8	358.54	3.0856e-06	2.8388e-06	414.78	139.25	119.57	41.114	2.9211e-06	51.607	197.275	169.420	169.665	95.728	249.955	219.263	95.527	100.512	242.110	251.334	99.990	104.706	105.231	109.423	234.755	108.584	-8191	255	
1031.529	1	1	0	0	0.24619	0.15821	0.050958	0.27708	0.056138	0.14012	0.23682	0.21951	0.1063	0.21284	0.19777	0.14506	0.07747	0.22184	0.18019	0.021995	-2.8208	-3.5563	-2.6063	-3.5875	-3.2021	-2.9708	-3.7021	-2.9562	-3.1354	-3.5667	-3.0062	-3.4833	-3.2188	-3.0208	-3.7125	-2.8812	132.988	385.121	274.912	410.780	355.019	237.630	390.681	111.088	337.043	194.588	121.709	358.939	315.340	100.610	219.619	86.101	0.00046021	0.00048683	0.00018488	1292.4	4.7503e-06	4.8493e-06	1294.6	351.96	4.7434e-06	4.7891e-06	408.71	136.34	117.32	40.288	4.7142e-06	50.467	0.0003551	0.00027327	7.5569e-05	1305.3	3.1325e-06	2.9304e-06	1310.3	357.9	3.1521e-06	2.8234e-06	414.38	138.93	119.24	41.122	2.9599e-06	51.556	195.479	170.304	169.392	95.663	243.282	249.805	95.592	100.449	254.286	239.278	100.127	104.520	105.225	109.469	231.256	108.692	-8191	255	
1031.650	1	1	0	0	0.28885	0.32278	0.13239	0.20321	0.38483	0.041299	0.28327	0.13142	0.026803	0.095911	0.33797	0.11348	0.10666	0.016098	0.045065	0.095232	-2.7042	-3.5021	-2.75	-3.6729	-3.0333	-2.8771	-3.7042	-3.1	-2.9667	-3.5167	-2.8125	-3.5354	-3.3271	-2.925	-3.5958	-3.2167	230.705	345.553	230.552	417.549	235.696	260.862	355.193	436.174	294.586	337.309	368.611	258.550	361.512	205.157	258.885	411.291	0.00046699	0.00045727	0.00017315	1294.3	4.4049e-06	5.1396e-06	1302.3	352.59	4.7107e-06	5.5923e-06	409.29	136.18	117.89	40.261	5.4106e-06	50.711	0.00036561	0.00026491	7.569e-05	1306.6	3.1694e-06	2.9706e-06	1315.2	358.62	3.2777e-06	2.7975e-06	414.83	139.25	119.55	41.117	2.9577e-06	51.687	195.285	183.691	164.111	95.718	246.917	226.727	95.726	100.577	256.497	239.636	99.884	104.565	105.214	109.690	227.059	108.361	-8191	255	
1031.722	1	1	0	0	0.16627	0.074533	0.24855	0.31082	0.22815	0.038753	0.074969	0.1711	0.039346	0.16077	0.048807	0.058142	0.33199	0.16992	0.047249	0.19158	-2.6188	-3.6312	-2.8563	-3.2667	-3.4833	-2.7687	-3.675	-3.2104	-2.9562	-3.7958	-2.8812	-3.2562	-3.3563	-3.0083	-3.5396	-3.2562	253.811	100.064	350.565	424.370	407.970	263.278	353.003	437.026	344.179	131.421	254.298	368.491	122.954	352.389	256.492	369.397	0.00042785	0.00048371	8.8834e-05	1295	4.21e-06	4.4219e-06	1302.7	354.94	4.2764e-06	7.4589e-06	409.65	136.99	117.73	40.399	4.0986e-06	50.639	0.00035682	0.00025903	7.6759e-05	1310.2	3.24e-06	2.9743e-06	1316.8	359.41	3.1365e-06	2.8618e-06	415.01	139.42	119.75	41.236	2.914e-06	51.66	195.295	179.573	172.534	95.481	254.016	237.528	95.500	100.513	260.747	239.603	100.064	104.799	105.134	109.260	257.004	108.349	-8191	255	
1031.818	1	1	0	0	0.10873	0.10833	0.24263	0.2321	0.073108	0.17823	0.23764	0.23573	0.37356	0.13915	0.34339	0.25695	0.074707	0.2623	0.13439	0.10392	-2.4896	-3.5062	-2.9188	-3.1729	-3.5646	-2.6125	-3.6125	-3.3063	-2.7417	-3.4979	-3.0229	-3.0312	-3.5604	-2.8104	-3.4521	-3.1792	105.327	175.083	348.886	115.324	211.903	355.657	432.171	353.349	264.159	145.188	408.341	114.836	219.403	418.387	287.081	416.260	0.00044332	0.00034434	0.00012573	1296.2	3.5434e-06	3.1085e-06	1301.2	353.77	4.5499e-06	6.2996e-06	407.76	136.8	117.36	40.198	5.2125e-06	50.774	0.00035329	0.000256	7.4258e-05	1308.4	2.9174e-06	2.8822e-06	1314.1	358.7	3.1556e-06	2.7907e-06	414.94	139.13	119.39	41.145	3.0088e-06	51.722	199.047	179.219	169.565	95.681	250.199	223.733	95.591	100.420	258.294	229.115	100.113	104.866	105.187	109.525	241.176	108.735	-8191	255	
1031.939	1	1	0	0	0.18467	0.14714	0.22629	0.28217	0.084329	0.26419	0.18836	0.36424	0.19037	0.066181	0.34228	0.16755	0.11341	0.15809	0.14988	0.3577	-2.4146	-3.3875	-2.9938	-3.2875	-3.6312	-2.8792	-3.3125	-3.4562	-2.8271	-3.55	-3.0333	-3.0083	-3.5812	-2.7562	-3.2354	-3.3479	146.669	385.502	194.126	309.803	181.437	183.456	344.659	364.219	113.745	136.057	432.922	432.935	191.761	267.904	348.099	431.170	0.00041975	0.00059037	0.00013894	1290.4	5.2334e-06	6.148e-06	1302.8	352.97	4.6526e-06	5.941e-06	408.62	137.09	117.04	40.169	5.1269e-06	50.635	0.00034414	0.00025903	7.5484e-05	1305.5	2.9871e-06	2.9808e-06	1313.1	358.38	3.1193e-06	2.8641e-06	414.12	139.05	119.46	41.051	3.1211e-06	51.607	196.806	165.688	183.184	95.531	240.362	231.685	95.420	100.166	271.852	224.657	99.657	104.308	104.891	109.240	238.547	108.439	-8191	255	
1032.035	1	1	0	0	0.13168	0.17447	0.08061	0.21507	0.12467	0.13288	0.37358	0.085388	0.31875	0.14674	0.14505	0.20513	0.18984	0.14427	0.10531	0.20051	-2.2104	-3.4625	-3.2021	-2.8667	-3.5771	-2.9854	-3.3667	-3.4875	-2.7687	-3.5208	-3.3812	-2.9896	-3.6708	-2.8604	-3.1146	-3.5833	431.428	195.715	211.902	369.564	148.412	227.958	392.196	334.682	108.524	129.875	425.755	418.341	218.262	351.709	165.878	387.024	0.00045763	0.00040376	0.00014781	1295	4.454e-06	5.2644e-06	1298.3	352.68	3.3028e-06	4.6733e-06	408.58	136.34	116.92	40.098	4.3246e-06	50.448	0.00035329	0.00026429	7.8441e-05	1305.8	2.8985e-06	3.1371e-06	1312.9	358.06	3.0584e-06	2.822e-06	414.09	139	119.3	41.01	3.0788e-06	51.543	195.584	169.795	157.121	95.468	233.542	229.146	95.368	100.133	242.951	233.851	99.693	103.784	104.545	108.986	238.706	108.484	-8191	255	
1032.131	1	1	0	0	0.20851	0.13541	0.077907	0.13697	0.10625	0.14028	0.23695	0.21699	0.049143	0.18324	0.24636	0.072281	0.28339	0.078588	0.26091	0.10452	-2.4792	-3.4979	-3.1917	-2.9896	-3.5104	-2.9729	-3.1688	-3.75	-2.8229	-3.2708	-3.4146	-2.8667	-3.4917	-2.9583	-3.0979	-3.7104	134.129	331.103	412.786	317.756	136.126	112.783	381.391	376.212	118.536	247.837	382.251	139.985	386.725	406.334	360.225	156.171	0.00043223	0.00050466	0.00012949	1289.8	6.1034e-06	4.256e-06	1296	353.23	4.011e-06	3.9341e-06	409.19	136.37	117.74	40.114	5.5295e-06	50.484	0.00033729	0.00026586	7.6553e-05	1303.1	3.0697e-06	3.0635e-06	1311.3	358.2	3.1198e-06	3.024e-06	414.4	138.87	119.4	41.038	3.0296e-06	51.593	196.890	184.944	179.393	95.555	246.585	234.383	95.926	100.502	248.503	219.295	100.025	104.673	105.448	109.448	243.547	108.392	-8191	255	
1032.227	1	1	0	0	0.24344	0.19868	0.25741	0.21995	0.046806	0.22749	0.15963	0.43402	0.18448	0.22163	0.29623	0.11152	0.17082	0.1013	0.044126	0.20099	-2.4042	-3.3917	-3.4146	-2.8875	-3.5646	-3.0792	-3.2313	-3.7708	-2.8563	-3.4917	-3.6063	-2.8333	-3.7438	-3.2021	-2.8875	-3.6583	146.785	248.816	135.621	403.752	296.990	224.365	308.874	367.543	140.790	253.169	417.647	425.645	423.186	107.722	223.000	316.453	0.00044743	0.00039195	0.00011751	1291.9	4.9978e-06	5.3682e-06	1297.9	353.34	5.3545e-06	4.7818e-06	407.62	136.09	117.76	40.182	5.5385e-06	50.499	0.00034636	0.00026478	7.6082e-05	1303.6	2.9492e-06	3.0346e-06	1310.7	358.48	3.1204e-06	2.9503e-06	413.8	138.97	119.68	41.129	3.0359e-06	51.56	196.837	160.125	177.035	95.597	251.090	226.099	96.013	100.806	242.884	245.031	99.802	104.595	105.227	109.575	235.634	108.796	-8191	255	
1032.321	1	1	0	0	0.38368	0.12099	0.095279	0.40076	0.22857	0.22739	0.22619	0.14498	0.07166	0.095457	0.11074	0.097976	0.11386	0.33745	0.045902	0.12865	-2.3646	-3.175	-3.4688	-2.8688	-3.4938	-3.2375	-3.0812	-3.8292	-2.75	-3.3625	-3.6646	-2.6854	-3.6396	-3.2729	-2.8667	-3.5479	437.495	115.735	227.083	400.819	222.186	243.161	365.035	421.847	175.757	365.906	152.061	326.864	373.234	397.281	150.107	439.225	0.00042635	0.00042135	0.00016366	1289.3	4.5644e-06	5.1036e-06	1294.4	352.97	3.5727e-06	7.1384e-06	408.87	136.32	116.84	40.205	3.3393e-06	50.374	0.00034349	0.00026329	7.3959e-05	1303.3	3.0527e-06	2.8825e-06	1309.7	358.07	3.15e-06	2.9056e-06	414.74	139.09	119.31	41.105	3.0643e-06	51.606	197.532	185.716	181.613	95.694	230.305	237.684	95.526	100.456	250.313	225.383	99.901	104.337	105.101	109.212	244.838	108.564	-8191	255	
1032.418	1	1	0	0	0.064354	0.40302	0.096316	0.11079	0.043423	0.20641	0.32933	0.051908	0.21905	0.07846	0.19053	0.14037	0.12858	0.090617	0.093579	0.050658	-2.3771	-3.0208	-3.4583	-2.85	-3.4125	-3.2729	-2.7104	-3.8521	-2.9646	-3.1271	-3.725	-2.8396	-3.4479	-3.5729	-2.7042	-3.8229	330.059	406.117	246.848	426.775	440.291	394.843	387.038	83.235	162.026	181.841	116.269	91.451	134.754	310.851	417.135	338.529	0.00044249	0.00042099	0.00016868	1290.4	4.8161e-06	4.563e-06	1297.1	352.01	5.0042e-06	5.6395e-06	407.43	136.13	117.21	40.103	4.0107e-06	50.52	0.0003505	0.00027343	7.2277e-05	1304.4	3.0752e-06	2.9522e-06	1312.9	358.05	3.154e-06	3.0459e-06	413.43	138.88	119.27	41.092	2.9528e-06	51.57	196.978	167.475	164.079	95.704	245.178	214.560	95.576	100.429	244.470	214.369	99.831	104.406	105.200	109.566	227.696	108.718	-8191	255	
1032.514	1	1	0	0	0.14176	0.16564	0.20446	0.29035	0.072522	0.081015	0.096425	0.38698	0.18303	0.099571	0.022191	0.28041	0.053319	0.099552	0.23813	0.23897	-2.5938	-3.0021	-3.6479	-2.9854	-3.4979	-3.4646	-2.9062	-3.7458	-3.0333	-3	-3.7521	-3.2062	-3.3917	-3.6708	-2.7687	-3.5417	264.785	405.543	381.825	387.297	219.398	97.688	184.332	422.517	427.489	298.111	223.184	439.661	86.935	101.571	347.612	161.787	0.00043743	0.00048973	0.00015427	1288.2	4.7669e-06	2.9084e-06	1296	353.31	4.3569e-06	4.9612e-06	409.21	135.84	117.2	40.214	4.1715e-06	50.463	0.00035621	0.00027466	6.8572e-05	1303.1	3.2718e-06	2.8834e-06	1308.7	358	3.2213e-06	2.9116e-06	414.46	138.95	119.28	41.063	2.981e-06	51.653	196.648	172.655	166.280	95.677	248.891	219.822	95.403	100.419	266.378	248.026	99.826	104.443	104.835	109.347	267.006	108.599	-8191	255	
1032.612	1	1	0	0	0.1464	0.096288	0.071284	0.1137	0.20379	0.16852	0.22064	0.065829	0.24622	0.22771	0.21748	0.070133	0.2248	0.28831	0.29555	0.16845	-2.7958	-2.9292	-3.7792	-3.0479	-3.2021	-3.4875	-2.9646	-3.6458	-3.2333	-2.8563	-3.7521	-3.0187	-3.2979	-3.6417	-2.9979	-3.7313	147.090	222.091	365.441	108.301	290.002	315.998	337.383	90.413	274.756	311.574	345.219	292.559	397.173	424.507	437.988	387.604	0.00044177	0.00043427	0.00014525	1288.7	3.9823e-06	4.7292e-06	1296.1	353.72	4.8045e-06	4.0137e-06	407.69	136.07	117.17	40.256	5.5138e-06	50.335	0.00034581	0.00027291	7.0524e-05	1303.6	3.0399e-06	2.7752e-06	1310.3	358.07	3.1762e-06	2.9617e-06	413.53	138.65	119.22	41.104	3.0402e-06	51.489	198.076	183.436	169.842	95.746	254.887	229.162	95.597	100.530	258.620	244.178	100.214	104.684	105.544	109.590	231.780	109.146	-8191	255	
1032.730	1	1	0	0	0.10029	0.17074	0.059729	0.32716	0.087006	0.20935	0.23253	0.066664	0.23715	0.16618	0.21576	0.29878	0.062911	0.044128	0.33188	0.090887	-2.9458	-2.8146	-3.5979	-3.2646	-2.8	-3.6896	-2.9562	-3.5208	-3.3542	-2.8396	-3.6833	-3.1646	-3.0417	-3.7687	-2.8583	-3.4479	392.072	84.484	397.452	415.083	440.695	99.064	405.518	343.204	85.717	111.977	304.170	417.080	208.197	150.528	427.203	202.340	0.00043119	0.00050112	0.0001155	1291.4	4.1517e-06	4.7697e-06	1298.4	352.59	5.1134e-06	5.4128e-06	407.45	135.73	117.31	40.115	4.707e-06	50.481	0.00035389	0.00027602	7.3588e-05	1303.5	3.1694e-06	2.7562e-06	1311	357.83	3.109e-06	2.8846e-06	413.82	138.73	119.26	41.021	3.1135e-06	51.556	197.881	167.779	179.390	95.877	239.397	209.822	95.841	100.656	252.589	226.900	100.036	104.720	105.534	109.693	227.588	108.702	-8191	255	
1032.827	1	1	0	0	0.17415	0.060166	0.21708	0.22719	0.015866	0.16	0.29669	0.0238	0.029094	0.093249	0.034122	0.032444	0.21337	0.30438	0.076854	0.15538	-3.175	-2.7729	-3.7083	-3.3583	-2.8375	-3.7917	-3.225	-3.3208	-3.4938	-2.7354	-3.6583	-3.3021	-2.9104	-3.85	-2.9813	-3.3187	249.775	98.105	167.776	104.628	84.954	349.229	402.087	202.378	330.334	351.905	98.119	415.875	120.078	363.117	99.494	344.880	0.0004403	0.00044935	0.00014958	1286.8	5.4147e-06	4.5159e-06	1296.4	352.27	3.777e-06	6.5092e-06	408.34	136.29	117.33	40.097	4.8092e-06	50.556	0.0003549	0.00027707	7.3431e-05	1302.5	3.1559e-06	2.7035e-06	1309.8	358.32	3.0653e-06	2.9267e-06	413.92	138.97	119.35	41.021	3.1012e-06	51.591	199.072	185.873	176.584	95.574	252.327	219.298	95.605	100.248	250.233	232.119	100.197	104.333	105.381	109.507	243.709	108.590	-8191	255	
1032.923	1	1	0	0	0.055796	0.15469	0.055265	0.17608	0.060937	0.14441	0.30806	0.19599	0.17315	0.25007	0.063536	0.24986	0.11625	0.096744	0.23453	0.041856	-3.3208	-2.725	-3.4688	-3.4792	-2.9	-3.5604	-3.2812	-3.1437	-3.5958	-2.8979	-3.4042	-3.5062	-2.8563	-3.6958	-3.1167	-3.0875	430.042	368.626	330.876	101.236	98.041	123.782	367.069	423.808	286.344	287.687	120.860	88.253	374.277	148.400	375.990	184.469	0.00045402	0.00049933	0.00014779	1285.5	5.1854e-06	3.974e-06	1293.8	353.85	5.6236e-06	5.094e-06	407.62	136.37	117.56	40.189	3.868e-06	50.658	0.00034247	0.00026801	7.2348e-05	1300.8	3.1087e-06	2.6508e-06	1308.1	358.57	3.0655e-06	2.8917e-06	413.73	138.86	119.38	41.111	3.1238e-06	51.612	194.485	176.689	158.760	95.565	242.086	211.888	95.873	100.605	257.167	218.162	100.015	104.483	105.627	109.682	243.726	108.765	-8191	255	
1033.019	1	1	0	0	0.16599	0.13834	0.17865	0.21574	0.12014	0.084231	0.21553	0.10672	0.30013	0.21482	0.0078378	0.18509	0.17596	0.19948	0.19515	0.25968	-3.3125	-2.7687	-3.4437	-3.7417	-2.7208	-3.6188	-3.3917	-3.1042	-3.6396	-2.8979	-3.3875	-3.4917	-2.9875	-3.6188	-3.0792	-3.1729	131.415	307.029	440.725	381.534	143.404	242.195	137.783	409.908	354.649	188.295	376.722	367.552	194.111	372.593	199.587	419.265	0.00042858	0.00049808	0.00016643	1289.1	4.2901e-06	5.39e-06	1290.5	352.6	5.0115e-06	4.4074e-06	407.79	135.43	117.65	40.12	4.9331e-06	50.634	0.00033036	0.00026675	7.4265e-05	1301	3.0856e-06	2.8842e-06	1306.8	358.17	2.9585e-06	2.8507e-06	413.16	138.62	119.38	41.063	2.9954e-06	51.568	201.561	175.204	174.664	95.807	254.261	216.417	95.932	100.954	258.216	244.438	100.295	105.034	105.478	109.782	254.924	108.903	-8191	255	
1033.115	1	1	0	0	0.17547	0.10963	0.112	0.23723	0.12032	0.078562	0.04525	0.33066	0.17874	0.20331	0.23011	0.25228	0.32695	0.16287	0.13471	0.02558	-3.2667	-2.7646	-3.2792	-3.65	-2.6521	-3.6833	-3.3354	-2.9583	-3.6271	-3.0917	-3.4542	-3.6583	-2.8688	-3.5104	-3.4083	-2.9229	180.172	328.399	403.313	439.401	228.276	294.980	380.303	407.330	301.537	298.181	336.356	441.079	420.385	138.138	249.852	259.981	0.00043242	0.0004276	0.00016233	1288.8	4.5341e-06	2.7575e-06	1297.1	353.54	6.1308e-06	4.0747e-06	407.24	136.48	117.18	40.496	3.6708e-06	50.529	0.00032862	0.00027656	7.4565e-05	1301.9	3.0742e-06	2.8057e-06	1308.4	358.28	3.0072e-06	2.964e-06	413.92	138.82	119.38	41.189	2.9452e-06	51.635	197.324	166.907	190.310	96.063	256.173	238.943	95.670	100.904	248.435	251.082	100.290	104.533	105.509	109.979	251.149	108.981	-8191	255	
1033.211	1	1	0	0	0.2007	0.098024	0.14488	0.031432	0.077979	0.26193	0.3357	0.027456	0.11737	0.097031	0.16005	0.20302	0.32701	0.13439	0.0059433	0.071952	-3.3396	-2.9771	-3.0792	-3.6208	-2.6521	-3.65	-3.3729	-3.0417	-3.6292	-2.9	-3.1167	-3.6271	-2.8083	-3.375	-3.5687	-2.8604	197.594	184.719	110.604	416.286	113.369	94.083	88.438	202.702	240.728	305.324	162.173	427.405	438.271	372.831	238.337	149.042	0.00043234	0.00047497	0.00017207	1292.1	4.2504e-06	4.4012e-06	1293.2	354.12	5.4482e-06	6.1375e-06	408.3	136.11	117.97	40.186	5.2002e-06	50.77	0.00032986	0.00026486	7.7814e-05	1302.6	3.0415e-06	2.9423e-06	1307.2	358.54	3.0173e-06	3.0235e-06	414.18	138.72	119.62	41.089	2.9665e-06	51.606	196.093	185.536	172.388	96.270	236.872	217.050	95.842	100.769	254.177	244.221	100.063	104.750	105.199	109.727	248.702	108.983	-8191	255	
1033.332	1	1	0	0	0.19242	0.28251	0.28111	0.31469	0.11245	0.073481	0.12238	0.19771	0.025557	0.071537	0.23672	0.113	0.068446	0.22999	0.16346	0.15766	-3.3063	-3.0354	-3.0812	-3.6979	-2.6875	-3.4833	-3.5979	-2.9917	-3.5833	-3.1542	-3.0812	-3.8042	-2.9375	-3.4896	-3.6146	-2.9938	158.108	248.897	358.382	83.864	276.069	319.929	339.980	402.889	186.389	85.396	414.862	409.767	393.896	349.415	86.304	245.666	0.00046844	0.00040818	0.00010448	1285.3	4.6534e-06	4.1288e-06	1296.4	352.2	4.1681e-06	5.053e-06	408.35	136.66	116.83	40.126	3.1771e-06	50.669	0.00033402	0.00027171	7.3916e-05	1300.5	2.985e-06	2.9417e-06	1308.1	357.91	2.9211e-06	2.8564e-06	414.28	139.05	119.18	41.068	2.8348e-06	51.588	197.311	190.984	171.881	95.724	256.482	229.937	96.356	101.080	261.477	222.124	100.485	105.332	105.815	109.753	236.413	109.055	-8191	255	
1033.426	1	1	0	0	0.10721	0.15359	0.14865	0.24809	0.2193	0.24088	0.19016	0.13174	0.22181	0.14664	0.28962	0.12499	0.19416	0.059827	0.032102	0.58703	-3.2458	-3.2562	-2.7562	-3.6958	-3.1312	-3.2438	-3.8542	-2.9667	-3.6188	-3.275	-3.0292	-3.6708	-3.0729	-3.3417	-3.5438	-2.9917	231.236	312.028	139.434	424.286	154.551	333.184	381.647	434.380	317.643	279.940	158.162	262.414	288.199	268.208	88.249	88.280	0.00043546	0.00046605	0.00016576	1285.7	4.537e-06	4.6972e-06	1295.4	352.14	3.6562e-06	4.9e-06	407.63	136.33	117.38	40.273	4.2654e-06	50.353	0.00033978	0.00027725	7.5135e-05	1300.6	3.1604e-06	2.9077e-06	1307.9	358.1	3.025e-06	2.8393e-06	414.41	138.76	119.31	41.105	2.8006e-06	51.518	197.100	179.749	164.462	96.229	235.406	237.155	96.291	101.328	252.123	239.196	99.889	104.266	104.724	109.300	220.717	108.549	-8191	255	
1033.522	1	1	0	0	0.28192	0.29866	0.26753	0.26753	0.056941	0.3735	0.28884	0.21587	0.10719	0.1509	0.063292	0.14911	0.18045	0.13257	0.034314	0.044081	-3.1042	-3.4938	-2.5604	-3.6583	-3.0708	-3.1542	-3.7104	-2.8396	-3.3063	-3.4729	-2.6937	-3.4792	-3.0542	-3.1958	-3.5125	-2.8479	278.085	285.456	245.179	411.172	186.251	319.248	393.847	423.875	420.479	130.988	368.380	370.899	421.497	346.497	116.203	87.754	0.00045978	0.00044483	0.00016361	1289.4	4.6844e-06	5.1725e-06	1290.5	353.56	5.0659e-06	6.9643e-06	406.94	136.68	117.54	40.375	4.6146e-06	50.333	0.00034948	0.0002694	7.0524e-05	1302.1	3.1039e-06	2.8899e-06	1307.8	358.28	3.1744e-06	2.9384e-06	413.85	139.07	119.23	41.162	2.8271e-06	51.456	197.858	183.444	165.646	95.491	258.286	230.302	94.879	99.950	251.432	241.242	99.642	104.089	105.095	109.233	228.651	108.312	-8191	255	
1033.619	1	1	0	0	0.18833	0.14982	0.15899	0.25517	0.045083	0.15434	0.18056	0.16729	0.1654	0.15035	0.1642	0.13744	0.1568	0.21343	0.069811	0.1613	-2.8417	-3.4104	-2.7229	-3.6583	-3.0875	-2.9583	-3.825	-2.9917	-3.1813	-3.65	-3.0021	-3.6771	-3.2146	-2.9229	-3.6479	-3.0042	331.148	397.821	306.886	409.102	401.290	147.806	294.252	385.302	296.305	111.159	289.826	292.223	401.191	337.515	351.094	174.552	0.00044502	0.00049016	0.00016238	1287.4	4.8006e-06	3.8812e-06	1298.2	352.92	5.1376e-06	5.5371e-06	408.84	136.59	117.07	40.258	4.6046e-06	50.574	0.00034324	0.00027132	7.2127e-05	1302.8	3.0758e-06	2.9182e-06	1310.1	358.11	3.0925e-06	2.7762e-06	414.42	139.07	119.08	41.127	2.84e-06	51.58	195.692	171.233	166.733	95.463	246.662	223.778	95.309	100.255	255.250	241.999	99.708	104.505	104.969	109.431	240.206	108.370	-8191	255	
1033.715	1	1	0	0	0.32169	0.12029	0.092691	0.096716	0.23546	0.25002	0.28605	0.13946	0.1795	0.27731	0.083492	0.17779	0.21185	0.2685	0.1968	0.11726	-2.95	-3.3542	-2.8438	-3.5792	-3.35	-2.8521	-3.85	-3.0583	-3.1437	-3.5458	-2.9958	-3.5458	-3.3625	-2.8521	-3.4917	-3.1479	291.496	252.792	248.467	344.052	136.914	426.241	90.107	393.210	262.627	282.956	391.761	332.925	432.982	371.993	306.843	108.878	0.00046611	0.00037911	0.00016738	1288.7	4.9337e-06	4.3425e-06	1296.6	351.64	4.2006e-06	4.2062e-06	406.86	135.83	117.09	40.136	5.4112e-06	50.362	0.00035284	0.000258	7.2405e-05	1303.9	3.1272e-06	2.9131e-06	1307.7	357.71	3.1339e-06	2.7124e-06	413.02	138.79	119.24	41.029	2.9195e-06	51.509	193.883	165.670	173.181	95.677	238.418	246.493	95.218	99.856	253.077	244.875	99.367	103.707	104.696	108.926	243.109	107.908	-8191	255	
1033.811	1	1	0	0	0.16244	0.1579	0.19734	0.44054	0.095189	0.044144	0.16775	0.33399	0.32877	0.080284	0.22915	0.21639	0.14196	0.051581	0.12153	0.079259	-2.5812	-3.5438	-2.7062	-3.4729	-3.2979	-2.9562	-3.725	-3.1708	-2.9333	-3.6667	-2.8417	-3.3625	-3.4375	-2.8729	-3.4271	-3.1875	258.527	194.781	82.325	387.525	286.918	321.832	326.304	401.132	328.599	160.378	129.224	425.112	331.779	136.663	395.784	114.090	0.0004736	0.00052256	0.00010621	1286.8	5.3169e-06	5.272e-06	1300.8	351.33	4.5259e-06	6.2113e-06	408.06	136.13	117.02	40.133	4.526e-06	50.309	0.00035412	0.00024802	7.6139e-05	1301.8	3.0195e-06	2.9304e-06	1310.9	357.49	3.0973e-06	2.6902e-06	413.37	139.06	119.17	41.07	2.9402e-06	51.446	197.446	189.358	183.111	95.488	239.061	240.081	95.501	100.069	251.113	235.387	99.656	104.169	104.641	108.926	228.411	108.289	-8191	255	
1033.907	1	1	0	0	0.25261	0.13801	0.021322	0.16346	0.15372	0.23615	0.3401	0.25647	0.089557	0.18408	0.22573	0.079475	0.070416	0.29209	0.18916	0.10539	-2.6583	-3.7229	-2.8312	-3.3854	-3.35	-2.8708	-3.4958	-3.5	-2.7625	-3.6833	-3.0583	-3.3125	-3.5333	-2.9583	-3.5833	-3.5208	417.066	218.620	152.738	356.143	303.081	162.314	382.485	399.680	223.542	182.861	435.754	261.086	154.339	407.776	359.551	276.443	0.00043746	0.00051424	0.00013198	1289.3	3.7669e-06	4.51e-06	1295.4	351.92	3.6122e-06	4.3699e-06	407.42	136.08	117.06	39.983	5.183e-06	50.335	0.00035214	0.00024679	7.5113e-05	1302.1	3.0105e-06	2.8165e-06	1309.9	357.66	3.1582e-06	2.7426e-06	413.72	138.7	119.13	40.996	2.9804e-06	51.501	196.134	156.766	179.628	95.071	255.106	224.207	94.912	99.701	273.647	237.255	99.158	103.892	104.434	108.795	228.110	107.931	-8191	255	
1034.028	1	1	0	0	0.22611	0.11464	0.097286	0.31324	0.074713	0.23651	0.11737	0.25889	0.10354	0.035853	0.023476	0.17521	0.097525	0.05273	0.088225	0.034201	-2.4333	-3.6021	-3.0312	-3.4125	-3.5854	-2.8958	-3.6063	-3.4833	-2.8438	-3.5438	-3.0208	-3.2479	-3.8146	-2.7896	-3.4646	-3.3146	157.933	206.547	329.356	414.319	165.464	159.427	408.605	348.579	203.362	152.078	422.610	306.989	385.731	136.681	226.871	182.402	0.00044079	0.00042536	0.00011256	1288.6	3.7963e-06	4.1786e-06	1293.6	353.81	4.916e-06	5.609e-06	407.23	136.06	116.84	40.089	4.1228e-06	50.347	0.0003464	0.00025187	7.418e-05	1301.8	2.9885e-06	2.959e-06	1309.7	358.65	3.1365e-06	2.8294e-06	413.81	138.91	119.18	41.033	3.0381e-06	51.453	196.844	185.766	190.125	95.117	253.441	231.206	95.377	100.147	252.698	241.365	99.391	104.123	104.991	109.176	238.995	107.956	-8191	255	
1034.124	1	1	0	0	0.064529	0.21994	0.029297	0.44364	0.2119	0.12728	0.28312	0.13872	0.18652	0.062874	0.071964	0.18842	0.14003	0.36128	0.078716	0.13951	-2.3833	-3.5812	-3.1479	-3	-3.6875	-2.7729	-3.4042	-3.4813	-2.8333	-3.4104	-3.3333	-2.9979	-3.7062	-3.0938	-3.1479	-3.6104	433.035	268.676	130.273	393.779	142.833	174.307	422.164	364.153	153.764	170.877	274.376	91.468	422.770	402.732	317.442	364.439	0.0004388	0.00040884	0.0001822	1285.9	3.4475e-06	5.6171e-06	1297.3	352.64	4.3224e-06	5.1795e-06	407.24	135.79	117.32	40.106	4.9183e-06	50.601	0.00034124	0.00025816	7.6154e-05	1302.5	2.9184e-06	2.876e-06	1309.9	358.11	3.14e-06	2.8561e-06	414.01	138.91	119.27	41.024	3.0154e-06	51.64	196.661	182.066	176.821	95.297	240.391	230.538	95.202	99.875	261.557	231.717	99.010	103.895	104.475	108.709	252.668	107.920	-8191	255	
1034.195	1	1	0	0	0.18451	0.098643	0.045701	0.14933	0.32333	0.13035	0.085152	0.12441	0.18072	0.10079	0.082648	0.19895	0.052718	0.19178	0.1976	0.026497	-2.5604	-3.6104	-3.325	-3.2354	-3.5229	-2.9979	-3.3542	-3.8333	-3.0938	-3.4333	-3.3187	-2.9479	-3.7938	-2.9708	-2.9771	-3.65	374.510	112.349	176.904	138.027	284.494	391.094	441.074	329.169	256.505	289.593	327.320	386.555	109.589	430.172	227.644	418.431	0.00046402	0.00044389	0.00010428	1287.3	4.0401e-06	4.6679e-06	1296.7	352.86	4.8397e-06	4.9626e-06	408.51	136.03	117.55	40.133	3.9142e-06	50.567	0.00035102	0.00025487	7.4835e-05	1301.4	2.9927e-06	2.8989e-06	1310.5	358.36	3.0748e-06	2.8778e-06	413.57	138.91	119.37	41.032	3.1091e-06	51.533	196.914	167.810	180.023	94.728	243.783	228.780	94.856	99.516	253.147	224.921	99.377	103.843	105.017	108.950	229.630	108.144	-8191	255	
1034.292	1	1	0	0	0.25999	0.18626	0.044892	0.16227	0.15589	0.1591	0.11287	0.019481	0.26975	0.1655	0.05185	0.15958	0.18115	0.32483	0.21435	0.022074	-2.3583	-3.3625	-3.2458	-2.9833	-3.6104	-3.1854	-3.3688	-3.6562	-2.8042	-3.6604	-3.6917	-2.8438	-3.6771	-3.1375	-3.1229	-3.825	429.262	372.894	108.692	342.130	230.431	96.733	341.130	365.067	259.378	372.459	346.701	396.057	256.937	411.452	298.727	273.999	0.00043966	0.00032247	0.00012481	1289.6	4.0415e-06	5.5847e-06	1299.3	352.77	5.4295e-06	4.5377e-06	407.61	136.22	117.44	40.201	3.7358e-06	50.48	0.00034975	0.0002743	7.5469e-05	1305.4	3.0092e-06	3.0131e-06	1311.5	358.07	3.1794e-06	2.9626e-06	413.73	138.82	119.47	41.093	3.0826e-06	51.563	197.143	169.426	180.938	95.322	253.994	231.569	95.368	100.045	256.592	217.848	99.326	103.780	104.577	109.086	240.081	108.409	-8191	255	
1034.410	1	1	0	0	0.14156	0.057091	0.042215	0.29376	0.33088	0.20493	0.19877	0.045172	0.28763	0.12156	0.0494	0.15644	0.14509	0.24065	0.065072	0.12239	-2.5208	-3.3417	-3.525	-3.0479	-3.725	-3.2479	-3.0167	-3.8458	-2.7438	-3.1937	-3.6271	-2.8667	-3.5708	-3.2979	-2.7958	-3.5604	321.495	261.126	133.323	383.238	258.782	117.448	399.852	118.185	400.987	181.462	408.722	394.039	394.359	263.612	166.199	135.705	0.0004597	0.00054418	0.00011994	1291.4	5.0879e-06	3.3874e-06	1296.6	352.9	4.5487e-06	3.9692e-06	407.5	136.15	117.88	40.068	4.2455e-06	50.444	0.00035498	0.00026847	7.1415e-05	1303.6	3.1795e-06	2.8074e-06	1309.9	358.12	3.021e-06	2.8499e-06	414.08	138.94	119.49	41.045	3.0312e-06	51.509	198.922	167.732	140.991	95.409	238.371	237.893	94.894	99.913	253.601	228.755	99.233	104.053	104.776	109.022	236.802	108.150	-8191	255	
1034.507	1	1	0	0	0.13263	0.25398	0.26076	0.046157	0.26543	0.071773	0.1966	0.21398	0.1543	0.18037	0.094164	0.25751	0.13752	0.17257	0.043544	0.13918	-2.6229	-2.9125	-3.5521	-2.75	-3.4771	-3.2208	-2.9271	-3.5333	-2.8063	-3.2167	-3.8063	-2.7583	-3.3875	-3.3271	-2.9229	-3.5687	429.782	331.309	186.930	351.503	323.336	260.210	407.027	428.331	368.582	334.918	337.803	415.887	337.457	255.438	368.182	373.086	0.00043005	0.00049044	9.9979e-05	1286.3	3.9366e-06	3.6298e-06	1295	352.87	4.7883e-06	6.1875e-06	406.14	135.92	116.57	40.242	5.8906e-06	50.536	0.00034849	0.00028485	6.9762e-05	1302.5	3.1845e-06	2.8448e-06	1309.1	358.04	3.1201e-06	3.0124e-06	413.68	138.59	119.01	41.067	3.0465e-06	51.612	197.108	173.766	163.880	95.178	229.182	242.235	95.172	99.874	258.216	220.239	99.065	104.156	104.770	108.798	237.144	107.866	-8191	255	
1034.603	1	1	0	0	0.12406	0.054674	0.21227	0.1952	0.22857	0.14883	0.23692	0.17419	0.11076	0.1567	0.25092	0.1619	0.1716	0.059935	0.21971	0.050532	-2.7625	-2.9458	-3.5292	-3.0687	-3.2375	-3.3875	-2.7333	-3.7167	-2.8187	-3.0208	-3.8125	-2.9792	-3.3021	-3.6354	-2.875	-3.6521	402.580	281.502	343.256	96.926	368.838	138.960	417.905	311.034	101.159	327.841	391.543	338.150	418.904	87.995	175.228	302.419	0.00044209	0.00049673	0.00012677	1288.2	4.3844e-06	2.6374e-06	1292.9	352.84	4.3023e-06	3.5644e-06	407.94	135.81	117.33	40.128	4.6664e-06	50.39	0.00035261	0.00027823	7.0011e-05	1303.9	3.1336e-06	2.701e-06	1309.7	358.41	3.1622e-06	2.9694e-06	413.82	138.7	119.47	41.054	3.0064e-06	51.532	194.310	155.530	172.966	94.770	240.271	204.498	94.680	99.592	246.419	210.222	99.077	103.535	104.632	108.427	235.942	107.534	-8191	255	
1034.723	1	1	0	0	0.11147	0.10476	0.29891	0.33918	0.065296	0.16547	0.19986	0.099407	0.34812	0.23367	0.06452	0.21806	0.10997	0.29679	0.04636	0.13818	-2.7625	-2.9042	-3.5833	-2.8458	-3.1729	-3.5125	-2.8979	-3.6208	-3.375	-2.8937	-3.7792	-2.8688	-3.325	-3.5354	-2.6896	-3.3937	83.526	253.462	404.830	397.326	123.812	83.006	365.870	131.287	422.728	388.986	392.756	323.943	433.413	116.798	167.977	314.916	0.00043066	0.00048767	0.00010883	1288	5.8146e-06	4.7066e-06	1291.4	352.88	4.9175e-06	4.8314e-06	406.73	135.83	117.02	40.052	3.9621e-06	50.673	0.00034404	0.0002665	7.0432e-05	1302.3	3.153e-06	2.7749e-06	1307.2	358.12	3.1264e-06	2.8837e-06	413.53	138.65	119.36	41.006	3.0902e-06	51.629	196.281	188.641	153.019	94.432	243.635	216.250	94.688	99.494	254.127	244.868	98.809	103.374	104.082	108.376	244.014	107.513	-8191	255	
1034.820	1	1	0	0	0.077127	0.30053	0.022616	0.30688	0.11161	0.19312	0.14016	0.03349	0.078015	0.040252	0.13899	0.30578	0.18903	0.22699	0.36678	0.19107	-2.7729	-2.6792	-3.5563	-2.9708	-3.1188	-3.6896	-2.7729	-3.5083	-3.5271	-2.7625	-3.8563	-3.0021	-2.9458	-3.7521	-2.7646	-3.5875	373.639	319.906	348.620	333.963	223.704	140.873	429.534	365.509	418.575	370.282	394.401	342.783	95.941	320.549	85.706	316.819	0.00043843	0.00055415	0.00012606	1283.3	4.7222e-06	4.6023e-06	1299.1	354.68	4.148e-06	7.3555e-06	407.52	135.53	116.68	39.999	4.7752e-06	50.599	0.00034608	0.00027769	7.1344e-05	1302	3.158e-06	2.7021e-06	1308.2	358.71	3.0774e-06	2.9609e-06	413.78	138.75	119.28	40.992	3.0697e-06	51.665	195.305	175.296	177.530	94.470	238.845	240.460	94.422	99.304	246.523	224.842	98.671	103.085	103.915	108.128	233.862	107.515	-8191	255	
1034.891	1	1	0	0	0.20146	0.11592	0.12751	0.23671	0.12405	0.1629	0.24501	0.23313	0.21648	0.057245	0.098891	0.063979	0.12609	0.0020765	0.15128	0.20908	-3.1729	-2.7583	-3.4854	-3.1083	-2.9458	-3.6583	-2.9646	-3.2333	-3.4604	-2.7521	-3.6708	-3.2604	-2.8854	-3.6292	-2.7729	-3.1813	113.060	182.424	120.057	437.260	309.163	185.707	381.737	362.546	148.170	332.030	411.882	159.635	341.338	180.000	405.507	398.168	0.00042452	0.00047766	0.00016773	1288.7	4.9054e-06	5.0914e-06	1297.8	351.82	3.8414e-06	4.0821e-06	408.04	136.17	116.66	40.1	4.8722e-06	50.533	0.00034151	0.00026496	7.4971e-05	1303.2	3.2092e-06	2.7525e-06	1309.9	358.1	3.0724e-06	2.9523e-06	414.23	138.8	119.35	41.039	3.1348e-06	51.511	200.066	183.247	162.166	94.632	247.331	232.052	94.645	99.628	256.885	205.321	99.146	103.545	104.596	108.785	233.027	107.913	-8191	255	
1035.012	1	1	0	0	0.065732	0.29191	0.094713	0.22855	0.12167	0.085355	0.37165	0.20484	0.2345	0.19243	0.32712	0.17268	0.011908	0.22432	0.21264	0.042677	-3.1063	-2.7979	-3.3958	-3.4229	-2.8021	-3.7979	-3.0542	-3.0208	-3.4354	-2.7708	-3.7229	-3.2958	-2.9854	-3.5958	-2.9979	-3.2583	247.629	99.557	155.005	421.182	343.816	285.061	394.840	265.071	378.137	371.536	377.048	182.524	412.384	381.064	422.142	318.543	0.00044265	0.00055627	0.00012617	1288.1	4.2966e-06	4.3976e-06	1297.9	353.31	4.9669e-06	5.3344e-06	409.35	135.67	117.03	40.153	4.6777e-06	50.508	0.0003461	0.00027553	7.3802e-05	1301.9	3.0885e-06	2.8785e-06	1309.7	358.4	2.9569e-06	2.9498e-06	414.57	138.71	119.24	41.066	3.1252e-06	51.486	196.397	156.150	173.315	95.040	242.951	206.219	94.966	99.992	248.298	244.960	99.366	103.944	104.833	108.646	228.816	108.167	-8191	255	
1035.108	1	1	0	0	0.27897	0.025338	0.016395	0.21844	0.18847	0.13658	0.081074	0.28238	0.35208	0.17626	0.3409	0.10836	0.07504	0.12536	0.38417	0.12258	-3.2625	-2.9854	-3.325	-3.5104	-2.8167	-3.7417	-3.2146	-2.9854	-3.6646	-2.9542	-3.4604	-3.4292	-2.8187	-3.7062	-3.1813	-3.0521	330.725	381.190	343.132	122.008	336.509	111.649	429.164	405.098	374.464	262.290	422.085	186.295	419.420	369.694	160.242	365.121	0.00044594	0.00051343	0.00014371	1291.8	5.1029e-06	5.8555e-06	1297.9	353.65	4.0393e-06	5.3801e-06	409.69	136.09	117.01	40.155	3.567e-06	50.322	0.00034368	0.00027664	7.9602e-05	1303.4	3.1328e-06	2.8474e-06	1310.3	358.09	3.0631e-06	2.9509e-06	414.23	138.7	119.01	41.018	3.0301e-06	51.4	198.772	170.367	175.946	95.108	232.765	228.796	95.161	99.840	250.105	221.561	99.411	104.062	104.852	109.144	230.985	108.162	-8191	255	
1035.204	1	1	0	0	0.17738	0.14411	0.30416	0.1605	0.36255	0.13697	0.11477	0.47273	0.053445	0.045611	0.14144	0.035552	0.17917	0.15537	0.030767	0.1414	-3.1854	-2.8125	-3.225	-3.7313	-2.8292	-3.5396	-3.2208	-3.1146	-3.6417	-3.2521	-3.1917	-3.5167	-2.5646	-3.4646	-3.4188	-2.8396	120.159	161.007	217.306	368.291	199.889	134.406	308.754	417.444	204.543	164.375	98.871	242.013	416.116	392.788	209.608	394.386	0.00044019	0.00035282	0.00016384	1289.2	3.854e-06	4.1143e-06	1295.8	353.25	4.0219e-06	4.4727e-06	407.34	135.87	116.85	40.141	4.5113e-06	50.306	0.00034163	0.0002732	7.6289e-05	1303.9	3.1782e-06	2.8955e-06	1310.9	358.53	2.9834e-06	3.1228e-06	413.35	138.76	119.04	41.014	3.0722e-06	51.422	198.354	184.298	171.947	95.284	232.728	233.937	95.194	99.882	250.176	240.574	99.610	103.830	104.765	108.829	248.229	107.869	-8191	255	
1035.323	1	1	0	0	0.16056	0.14875	0.051632	0.16434	0.25828	0.28003	0.16026	0.29291	0.19727	0.17547	0.44026	0.19924	0.062159	0.23488	0.2015	0.2963	-3.2208	-2.6104	-3.1146	-3.5542	-2.8042	-3.4917	-3.5479	-2.7896	-3.5271	-3.0521	-3.3688	-3.5458	-2.8979	-3.4542	-3.4062	-2.8708	290.085	149.914	381.841	414.764	265.428	163.617	227.579	319.896	207.551	242.860	413.759	179.399	263.396	93.992	129.139	377.345	0.00044007	0.00058705	0.00017305	1290.7	5.1663e-06	4.9474e-06	1296	351.98	4.1678e-06	5.1395e-06	408.07	136.12	117.18	40.177	4.573e-06	50.657	0.00033996	0.00028469	8.1063e-05	1303.9	3.1546e-06	3.0145e-06	1310	357.69	3.0054e-06	3.0434e-06	413.81	138.71	119.33	41.03	3.0432e-06	51.57	198.042	162.959	184.677	95.285	237.667	235.595	94.879	99.941	250.903	209.124	99.240	103.859	104.347	108.990	228.929	107.931	-8191	255	
1035.419	1	1	0	0	0.14841	0.11165	0.14676	0.25015	0.010738	0.13067	0.089863	0.20305	0.14839	0.25384	0.20249	0.1455	0.14285	0.12665	0.33266	0.24861	-3.1458	-3.0625	-2.8979	-3.8812	-2.75	-3.3583	-3.5417	-3.0187	-3.4167	-3.2021	-2.9792	-3.7708	-3.0167	-3.2604	-3.55	-2.8688	217.230	221.816	385.324	100.222	280.190	304.763	428.389	370.347	413.660	430.332	394.757	307.966	146.554	367.156	397.332	396.475	0.00044876	0.00050067	0.00017592	1291.8	5.4206e-06	5.5741e-06	1296.4	352.65	5.6555e-06	5.8461e-06	408.1	135.47	117.01	40.048	3.7618e-06	50.349	0.00035207	0.00027956	7.7037e-05	1305.2	3.2063e-06	3.0862e-06	1310.7	357.59	3.0637e-06	2.9882e-06	414.04	138.63	119.13	41	2.9225e-06	51.445	195.579	175.934	178.451	94.802	234.124	207.860	94.535	99.482	256.561	231.821	98.779	103.544	104.095	108.123	250.880	107.405	-8191	255	
1035.491	1	1	0	0	0.24989	0.070745	0.12554	0.22522	0.19002	0.33953	0.070739	0.12491	0.17009	0.11585	0.063967	0.20737	0.10557	0.12221	0.28067	0.15322	-3.1104	-2.9396	-2.9604	-3.9229	-2.8	-3.3167	-3.6875	-3.0312	-3.4979	-3.3146	-3.0542	-3.7354	-2.9562	-3.1146	-3.6083	-2.9167	181.534	376.327	177.948	122.017	341.025	316.308	84.792	86.642	83.608	196.985	104.531	88.213	387.563	268.819	410.778	356.159	0.00045432	0.00063614	0.00014483	1294.8	5.6362e-06	4.9988e-06	1292.8	353.01	4.924e-06	6.8572e-06	407.84	136.2	117.07	39.941	5.2026e-06	50.475	0.00034686	0.00028105	7.6396e-05	1305.7	3.2328e-06	2.9788e-06	1309.1	358	3.0907e-06	2.9415e-06	413.67	138.64	119.07	40.912	3.0405e-06	51.439	196.906	185.952	174.304	94.570	247.802	219.784	94.675	99.489	253.217	232.186	98.734	103.570	104.367	108.553	229.169	107.701	-8191	255	
1035.587	1	1	0	0	0.16032	0.17899	0.1579	0.14565	0.16317	0.11864	0.23849	0.30615	0.33168	0.029589	0.13395	0.1839	0.26094	0.17142	0.24141	0.07193	-3.0438	-3.2687	-2.8521	-3.7	-3.0187	-3.1	-3.7854	-3.0917	-3.4562	-3.4292	-3.0167	-3.5458	-3.1083	-3.1979	-3.5396	-2.8125	148.068	185.792	319.433	108.238	121.004	165.152	390.519	100.484	295.337	141.458	97.052	326.351	81.892	371.857	405.868	349.887	0.0004419	0.00055458	0.00017584	1290.4	4.8042e-06	3.496e-06	1294.1	352.51	3.8318e-06	6.2761e-06	407.26	135.85	116.67	40.173	5.2823e-06	50.483	0.00034778	0.00026557	7.6189e-05	1305.1	3.1707e-06	3.0298e-06	1309.4	357.75	3.1103e-06	2.9187e-06	413.82	138.46	118.92	40.99	2.9514e-06	51.45	197.785	170.897	172.544	95.266	240.223	251.246	95.104	99.861	256.701	246.016	99.195	104.370	104.674	109.069	235.460	108.381	-8191	255	
1035.683	1	1	0	0	0.19538	0.083481	0.19527	0.17231	0.11888	0.064324	0.1815	0.43401	0.10055	0.15981	0.15659	0.066738	0.17888	0.070771	0.14178	0.2774	-2.8833	-3.5396	-2.6958	-3.7875	-3.0125	-3.0208	-3.7062	-3.1479	-3.3	-3.4979	-2.9896	-3.4667	-3.1792	-3.025	-3.6813	-2.9208	136.641	220.279	335.121	378.196	370.028	305.542	344.253	364.435	195.132	391.364	101.850	440.698	327.874	120.058	335.167	395.660	0.00044414	0.00042682	0.00012549	1292	4.3022e-06	5.3934e-06	1296.3	353.56	3.6437e-06	4.4433e-06	406.99	136.26	116.89	40.11	4.3825e-06	50.566	0.0003532	0.00026457	7.3588e-05	1304.6	3.2095e-06	3.0015e-06	1309.9	358.27	3.1209e-06	2.9219e-06	413.39	138.94	119.08	40.945	2.9479e-06	51.391	196.549	197.482	166.049	95.043	247.056	215.596	95.094	99.782	261.517	237.229	99.366	104.040	104.500	108.569	228.919	107.841	-8191	255	
1035.804	1	1	0	0	0.046642	0.18338	0.13556	0.34026	0.051939	0.15871	0.077231	0.14642	0.21894	0.18075	0.22442	0.14853	0.21035	0.11158	0.20433	0.29016	-2.9188	-3.3563	-2.7938	-3.5396	-3.1437	-2.8958	-3.6188	-3.0729	-3.0917	-3.5187	-2.875	-3.5146	-3.2542	-2.9458	-3.5542	-3.2875	258.429	399.793	232.931	403.168	386.861	235.465	329.105	87.503	121.715	429.966	395.876	432.084	408.062	156.496	268.863	91.014	0.00042113	0.00029789	0.00014336	1289.9	4.5884e-06	4.5661e-06	1298	352.78	4.4122e-06	6.6619e-06	407.14	135.26	117.09	40.053	4.6151e-06	50.288	0.00035268	0.00026488	7.4436e-05	1305.5	3.1535e-06	2.993e-06	1312.3	357.49	3.2406e-06	2.7964e-06	413.08	138.44	118.99	40.958	3.0023e-06	51.43	199.208	152.843	175.668	95.212	233.358	237.962	95.138	99.847	262.215	244.874	99.315	104.011	104.129	108.984	246.995	108.092	-8191	255	
1035.900	1	1	0	0	0.14473	0.10504	0.17581	0.053373	0.16839	0.35341	0.36775	0.12687	0.089859	0.11261	0.21009	0.22468	0.093193	0.12657	0.1616	0.14282	-2.8833	-3.6063	-2.8458	-3.6125	-3.4604	-2.7208	-3.8667	-3.25	-2.9729	-3.7604	-2.9417	-3.5604	-3.2917	-3.0187	-3.6021	-3.2938	258.987	312.092	361.607	291.332	311.929	183.818	253.873	428.956	182.583	172.432	120.079	128.042	413.228	419.777	119.074	228.006	0.00044994	0.0003731	8.8198e-05	1290	4.7752e-06	4.9163e-06	1298.9	353.04	4.9765e-06	4.7883e-06	409.01	135.17	117.62	39.932	4.4921e-06	50.346	0.00035793	0.00026119	7.5462e-05	1303.3	3.1397e-06	2.9196e-06	1311.6	357.5	3.1606e-06	2.7292e-06	413.88	138.54	119.13	40.938	2.8974e-06	51.46	195.536	161.290	187.357	94.741	242.966	222.917	94.479	99.190	259.057	234.657	98.595	103.350	104.203	108.435	257.130	107.569	-8191	255	
1035.996	1	1	0	0	0.27467	0.22579	0.16642	0.18731	0.13437	0.099844	0.079758	0.066415	0.14998	0.082545	0.21028	0.22508	0.19208	0.18648	0.11928	0.057835	-2.4542	-3.6021	-2.8875	-3.3333	-3.5563	-2.6833	-3.6458	-3.3021	-2.9708	-3.5042	-2.9938	-3.2375	-3.5917	-2.7938	-3.3438	-3.3604	403.026	370.172	416.729	405.090	145.348	228.314	90.735	437.825	214.286	82.373	430.181	100.151	417.745	325.640	405.320	388.617	0.00045178	0.00047617	0.00013988	1289.9	4.6353e-06	4.1134e-06	1297.1	351.46	4.0287e-06	4.8659e-06	407.68	135.64	117.18	39.953	3.4832e-06	50.185	0.0003577	0.00026455	7.9602e-05	1303.7	3.0543e-06	2.8658e-06	1310.6	357.24	3.1209e-06	2.8095e-06	413.13	138.59	119.29	40.932	3.0424e-06	51.386	195.992	159.534	183.590	94.492	255.980	220.330	94.394	99.413	245.937	221.413	98.699	103.480	103.708	108.263	229.513	107.561	-8191	255	
1036.092	1	1	0	0	0.30609	0.0599	0.15646	0.14118	0.089497	0.18995	0.29417	0.39073	0.081989	0.20482	0.13802	0.18297	0.073439	0.11369	0.16708	0.24549	-2.2917	-3.5708	-2.7854	-3.0958	-3.1813	-2.7896	-3.5292	-3.2958	-2.8312	-3.5604	-3.2479	-3.1479	-3.8083	-2.7458	-3.4521	-3.4396	288.324	418.665	139.671	440.693	246.264	404.707	407.703	373.703	358.337	418.312	310.000	89.050	422.307	376.965	228.905	274.776	0.00043452	0.0004617	0.0001403	1286.4	4.8118e-06	4.8989e-06	1295.2	353.96	4.8087e-06	4.7656e-06	407.92	136.12	117.11	40.064	5.3657e-06	50.532	0.00034939	0.00027394	7.6873e-05	1302.4	3.0951e-06	3.0615e-06	1310.3	358.08	3.181e-06	2.956e-06	414.4	138.87	119.04	40.961	3.1542e-06	51.414	194.732	180.101	185.812	94.601	240.950	230.551	94.469	99.231	263.884	232.462	98.627	103.423	104.096	108.257	232.050	107.422	-8191	255	
1036.188	1	1	0	0	0.24418	0.06108	0.07401	0.12871	0.14281	0.1398	0.2509	0.20601	0.14946	0.32199	0.065893	0.092135	0.17601	0.27065	0.21821	0.090134	-2.4938	-3.5625	-2.9833	-3.2313	-3.4	-2.7812	-3.4917	-3.4625	-2.6875	-3.5667	-3.0729	-3.1021	-3.5708	-2.9146	-3.2875	-3.4458	409.315	388.160	423.911	85.355	186.861	406.416	359.493	371.258	429.686	220.947	116.324	201.803	399.230	396.960	416.941	334.193	0.00045659	0.00049629	0.00013223	1295.2	4.3677e-06	5.1001e-06	1295.9	352.18	4.6041e-06	3.1731e-06	406.83	136.27	117.46	40.256	3.5682e-06	50.714	0.00034783	0.00027556	7.9239e-05	1305.2	3.0861e-06	2.989e-06	1313.2	358.15	3.1723e-06	2.9372e-06	414.49	138.85	119.41	41.065	3.2085e-06	51.525	198.434	183.818	166.235	94.528	229.848	235.586	94.570	99.414	258.439	225.719	98.837	103.503	104.375	108.485	242.241	107.663	-8191	255	
1036.285	1	1	0	0	0.13483	0.025646	0.145	0.080074	0.23686	0.11979	0.21703	0.042198	0.043856	0.22613	0.2601	0.18528	0.27976	0.19761	0.42778	0.052479	-2.4042	-3.5062	-3.2083	-3.0187	-3.5125	-3.0833	-3.4021	-3.75	-2.825	-3.6	-3.2667	-2.9396	-3.5917	-2.8708	-3.1562	-3.7062	434.136	192.208	351.481	355.195	203.092	394.931	435.920	110.750	101.581	306.867	398.829	395.014	242.525	418.701	333.490	434.867	0.00042631	0.00043828	0.00014414	1292.8	5.1994e-06	5.311e-06	1294.4	353.24	5.1531e-06	3.9392e-06	407.32	136.3	117.09	40.01	3.9999e-06	50.328	0.00034548	0.00028054	7.6624e-05	1306.1	3.0991e-06	3.0369e-06	1311.5	358.77	3.0682e-06	3.0121e-06	414.63	138.87	119.42	41.027	3.1044e-06	51.579	197.490	152.233	177.432	94.743	227.086	225.103	94.839	99.490	259.024	210.863	99.026	103.447	104.457	108.577	254.842	108.041	-8191	255	
1036.405	1	1	0	0	0.14117	0.26005	0.055242	0.087522	0.055531	0.060351	0.22201	0.21581	0.11876	0.10282	0.1701	0.21578	0.03318	0.16958	0.11326	0.28847	-2.3104	-3.5354	-3.2562	-2.9083	-3.6854	-3.1312	-3.2125	-3.5208	-2.8229	-3.575	-3.3896	-2.7708	-3.6208	-3.1104	-2.8937	-3.6188	245.609	160.369	409.416	402.342	300.133	208.030	433.705	401.451	337.313	242.619	339.706	168.124	108.148	148.482	417.913	247.327	0.00043263	0.00028064	0.00014389	1295.8	4.9922e-06	4.3105e-06	1301.8	352.71	5.0633e-06	5.0449e-06	407.42	136.08	117.45	40.112	4.5869e-06	50.375	0.00035249	0.00027417	7.7857e-05	1307.5	3.1055e-06	3.0468e-06	1314.3	358.48	3.2377e-06	3.1512e-06	414.69	138.91	119.35	41.058	3.1233e-06	51.496	198.175	160.265	160.698	94.836	238.023	225.940	94.861	99.586	256.553	217.974	99.079	103.626	104.349	108.764	238.409	107.911	-8191	255	
1036.500	1	1	0	0	0.23073	0.095232	0.18194	0.14673	0.29371	0.10716	0.12193	0.090491	0.15267	0.1036	0.1212	0.043398	0.21288	0.24246	0.26714	0.32706	-2.4938	-3.4396	-3.2979	-2.7125	-3.6104	-3.0729	-3.0625	-3.5583	-2.8792	-3.1354	-3.675	-2.9083	-3.6437	-3.1875	-3.0292	-3.6146	128.776	332.054	132.315	372.241	233.603	227.108	317.086	102.900	321.298	349.618	401.134	123.245	419.671	416.053	361.278	309.034	0.00044694	0.00041597	0.0001216	1292	5.2019e-06	5.8061e-06	1296.5	352.61	5.3725e-06	4.2927e-06	408.79	135.93	117.2	40.087	5.7784e-06	50.415	0.00035671	0.00028195	7.604e-05	1306.1	3.1262e-06	2.9726e-06	1312.1	358.04	3.2475e-06	3.0522e-06	414.69	138.66	119.3	40.96	3.1206e-06	51.462	199.522	148.076	191.805	95.085	250.281	226.307	94.799	99.661	253.937	235.003	99.051	103.690	104.421	108.816	217.549	107.603	-8191	255	
1036.596	1	1	0	0	0.041221	0.21199	0.16357	0.45347	0.10433	0.12615	0.15781	0.12937	0.2716	0.11243	0.10361	0.070799	0.046663	0.023385	0.1165	0.20774	-2.4188	-3.2604	-3.4896	-2.9271	-3.5312	-3.325	-3.025	-3.8312	-2.7667	-2.9833	-3.5292	-2.9229	-3.3958	-3.3667	-2.925	-3.7021	104.929	414.153	424.061	411.942	152.448	396.462	407.262	276.452	370.065	245.819	148.806	222.290	164.601	395.039	437.319	343.728	0.0004355	0.00050949	0.00014887	1291.9	4.4129e-06	4.7837e-06	1299.7	353.19	4.4273e-06	4.0846e-06	408.26	136.33	117.21	40.05	4.7691e-06	50.488	0.00035787	0.0002915	7.584e-05	1307.8	3.2349e-06	3.0457e-06	1312.6	358.45	3.2796e-06	3.1171e-06	414.75	138.88	119.5	41.002	3.1755e-06	51.469	196.975	187.954	178.099	94.807	238.682	209.568	95.023	99.812	254.722	234.354	99.078	103.692	104.547	108.618	243.262	107.486	-8191	255	
1036.692	1	1	0	0	0.18241	0.16109	0.082945	0.11837	0.15808	0.14011	0.12798	0.22099	0.23222	0.18606	0.24278	0.12875	0.17669	0.28203	0.17992	0.17353	-2.7167	-2.8792	-3.5292	-3.0146	-3.3854	-3.4437	-2.9708	-3.5687	-3.25	-2.9708	-3.8167	-2.8521	-3.4083	-3.2938	-2.8479	-3.6021	346.645	152.347	411.490	363.587	276.915	239.565	123.268	364.456	383.781	228.154	370.401	312.798	107.948	291.786	232.904	286.940	0.00043622	0.00034127	0.00014191	1289.1	4.1901e-06	5.7012e-06	1297	352.8	3.9961e-06	4.3031e-06	409.77	135.44	117.65	39.985	4.2925e-06	50.462	0.00035393	0.00028179	7.2769e-05	1305.1	3.2299e-06	2.8695e-06	1312.9	358.58	3.26e-06	3.0229e-06	414.18	138.63	119.25	40.944	3.0031e-06	51.616	194.859	159.382	186.194	94.804	256.017	219.700	94.779	99.738	256.665	234.914	98.973	103.692	104.584	108.424	239.402	107.899	-8191	255	
1036.786	1	1	0	0	0.13909	0.064827	0.22685	0.22546	0.11596	0.040973	0.23077	0.25742	0.24023	0.25438	0.017911	0.040423	0.12296	0.3211	0.19313	0.13584	-2.6417	-2.8312	-3.5833	-2.9562	-3.3458	-3.4938	-2.9771	-3.6	-3.3021	-2.7583	-3.7583	-2.8563	-3.2458	-3.4479	-2.6792	-3.4333	240.123	302.319	325.003	148.218	158.663	163.124	400.991	399.384	272.814	203.039	431.223	257.712	427.005	102.732	422.637	416.894	0.0004363	0.00029027	0.00018756	1293.7	4.7916e-06	3.7014e-06	1299.9	353.3	4.0163e-06	5.5793e-06	407.9	135.73	116.99	40.1	3.9929e-06	50.167	0.00035181	0.00027759	7.2968e-05	1305.8	3.2084e-06	2.8607e-06	1312.3	358.29	3.1778e-06	3.0138e-06	414.38	138.54	119.18	40.981	3.1897e-06	51.408	197.407	182.490	175.469	94.970	249.948	213.794	94.914	99.599	255.936	216.305	99.002	103.326	104.110	108.429	240.471	107.805	-8191	255	
1036.882	1	1	0	0	0.2549	0.199	0.1425	0.11513	0.16091	0.17665	0.11035	0.10633	0.2869	0.21407	0.24675	0.14935	0.13407	0.10681	0.13925	0.18581	-2.9875	-2.7417	-3.6542	-3.0104	-3.2354	-3.5854	-2.9625	-3.5271	-3.2708	-2.7812	-3.9188	-3.0792	-2.9479	-3.7729	-2.7313	-3.6458	248.884	110.342	86.855	130.379	253.314	305.420	385.687	420.824	399.277	166.149	112.871	97.391	416.756	168.379	359.507	205.855	0.00044223	0.00054656	0.00015616	1287.9	4.0263e-06	5.0597e-06	1297	352.9	4.6083e-06	5.4739e-06	407.39	135.93	116.99	40.043	4.0165e-06	50.236	0.00035332	0.00028251	7.4379e-05	1304.5	3.2156e-06	2.9018e-06	1311.5	358.29	3.2059e-06	3.1014e-06	414.21	138.63	119.04	40.885	3.1643e-06	51.412	198.749	165.658	165.401	94.539	262.206	209.481	94.718	99.732	253.421	247.463	99.090	103.573	104.126	108.456	223.429	108.002	-8191	255	
1036.979	1	1	0	0	0.09686	0.12111	0.38927	0.13928	0.26358	0.29628	0.18058	0.14249	0.22867	0.21733	0.069999	0.14441	0.018074	0.12948	0.1792	0.20949	-2.9833	-2.7313	-3.4437	-3.1813	-3.0146	-3.4813	-2.9938	-3.4479	-3.5458	-2.6813	-3.6042	-3.1	-2.9354	-3.6813	-2.8958	-3.3375	123.010	311.940	187.051	403.535	140.377	153.338	405.059	383.699	307.347	203.836	413.227	348.903	359.463	289.735	209.342	316.895	0.00045244	0.00047104	0.00012193	1290.2	3.6708e-06	4.2663e-06	1301	352.59	4.2909e-06	5.922e-06	407.63	136.11	117.23	39.956	4.2467e-06	50.383	0.00035616	0.00027137	7.4386e-05	1304.6	3.3198e-06	2.9162e-06	1312.9	358.42	3.0356e-06	2.9893e-06	414.13	139	119.28	40.958	3.1419e-06	51.472	195.791	176.528	163.960	94.666	257.753	235.467	94.626	99.765	251.799	236.697	98.984	103.583	104.489	108.708	225.643	107.902	-8191	255	
1037.099	1	1	0	0	0.055492	0.19936	0.072971	0.042057	0.2243	0.097724	0.20519	0.18504	0.29326	0.21557	0.17335	0.21419	0.21229	0.21151	0.16805	0.21084	-3.2792	-2.6417	-3.5979	-3.3333	-2.7875	-3.6729	-3.0521	-3.2104	-3.5167	-2.8937	-3.4813	-3.3417	-2.9958	-3.8125	-3.0125	-3.2167	117.202	430.544	210.565	372.924	297.976	164.469	388.512	366.516	317.596	352.901	257.683	408.664	282.284	354.203	120.849	198.838	0.00041852	0.00036447	0.00012435	1289.8	5.8363e-06	6.3666e-06	1294.7	353.09	5.5465e-06	5.3895e-06	409.26	135.95	117.48	39.964	5.581e-06	50.544	0.00033798	0.00028	7.7401e-05	1305.1	3.3023e-06	2.891e-06	1309.8	358.77	3.0817e-06	3.0323e-06	414.31	138.75	119.31	40.967	3.2238e-06	51.496	194.238	179.089	181.456	94.775	236.683	214.656	94.740	99.762	247.817	241.573	99.368	103.670	104.456	108.568	244.416	108.058	-8191	255	
1037.195	1	1	0	0	0.10466	0.16442	0.32635	0.022581	0.25879	0.19554	0.40375	0.15332	0.13852	0.032289	0.16218	0.12982	0.098891	0.14089	0.062113	0.17683	-3.2083	-2.7229	-3.2229	-3.6833	-2.8583	-3.6833	-2.9958	-3.2917	-3.5917	-2.9417	-3.4417	-3.6146	-2.7958	-3.6833	-3.2	-3.1667	389.253	355.024	379.708	167.872	357.306	282.741	411.539	102.851	223.267	290.244	110.311	179.737	400.500	426.809	84.290	432.740	0.00042261	0.00054707	0.00014548	1290.7	3.8418e-06	4.626e-06	1297.1	353.47	5.2226e-06	4.7536e-06	407.4	135.54	116.9	39.995	4.2934e-06	50.448	0.00033912	0.00028151	7.708e-05	1304.5	3.175e-06	2.8675e-06	1310.9	358.67	3.0252e-06	3.04e-06	414.09	138.51	119.07	40.958	3.029e-06	51.543	199.865	172.456	169.678	94.671	235.679	203.353	94.687	99.812	256.819	223.384	99.282	103.726	104.313	108.654	253.451	107.907	-8191	255	
1037.291	1	1	0	0	0.082365	0.014376	0.11069	0.16197	0.22118	0.046993	0.11201	0.083818	0.21442	0.21592	0.21804	0.030029	0.26177	0.12226	0.28013	0.16375	-3.3625	-2.9667	-3.2646	-3.7167	-2.7062	-3.6312	-3.3688	-3.2125	-3.5958	-2.95	-3.3958	-3.7354	-2.8521	-3.675	-3.1458	-3.1417	162.930	104.939	232.808	410.271	325.843	386.340	393.734	283.265	401.257	134.691	90.162	413.396	400.710	266.095	236.718	83.123	0.00043851	0.00039712	0.00014864	1287.6	5.1268e-06	3.6414e-06	1299.6	352.88	4.484e-06	6.849e-06	407.94	135.54	117.06	40.14	4.5043e-06	50.239	0.00034489	0.00027114	7.599e-05	1305	3.1638e-06	2.8802e-06	1311.8	358.65	2.9898e-06	3.0437e-06	413.94	138.51	119.26	41.014	3.2249e-06	51.478	197.424	165.656	157.795	95.005	250.154	225.682	95.039	99.855	254.190	231.635	99.249	103.942	104.626	108.616	256.577	107.739	-8191	255	
1037.363	1	1	0	0	0.23972	0.030211	0.33889	0.19787	0.11251	0.235	0.45871	0.1646	0.17306	0.26245	0.097391	0.038783	0.074635	0.13342	0.12902	0.17703	-3.1958	-2.8979	-3.2708	-3.6437	-2.8771	-3.4833	-3.4542	-3.1	-3.6271	-3.0292	-3.1312	-3.7083	-2.85	-3.3708	-3.1562	-2.9208	399.289	222.558	302.361	427.239	255.173	307.212	383.698	387.706	84.643	307.790	354.206	132.660	134.397	346.478	267.492	359.061	0.00046038	0.00047185	0.00015062	1290.3	5.1883e-06	3.7478e-06	1300.3	352.78	4.2049e-06	5.6592e-06	406.86	136.13	117.43	40.073	3.9209e-06	50.235	0.00035774	0.0002879	7.6296e-05	1304.4	3.2806e-06	3.1765e-06	1313.3	358.21	3.1037e-06	3.0883e-06	413.56	138.62	119.23	40.996	3.2329e-06	51.371	195.775	167.165	170.483	94.823	242.001	228.601	95.043	99.969	243.686	222.980	99.094	103.773	104.284	108.686	239.778	108.205	-8191	255	
1037.484	1	1	0	0	0.14127	0.072693	0.038866	0.11215	0.20735	0.13771	0.26099	0.24138	0.35217	0.20622	0.19484	0.29058	0.4279	0.12378	0.23714	0.32701	-3.3271	-2.8729	-3.2438	-3.7062	-2.6042	-3.4854	-3.6208	-2.9437	-3.4896	-3.0854	-3.1125	-3.6854	-2.8917	-3.5563	-3.5187	-2.9021	285.758	345.247	168.435	147.638	261.527	268.459	415.564	154.662	240.483	220.597	435.646	352.353	425.368	258.773	202.328	441.057	0.0004491	0.00035844	0.00018831	1294.7	5.7548e-06	5.489e-06	1301.8	352.08	5.9957e-06	5.0103e-06	407.93	135.99	116.13	40.089	4.9567e-06	49.991	0.00035339	0.000281	8.0721e-05	1306.2	3.3554e-06	3.1275e-06	1312.7	358.22	3.2218e-06	3.2022e-06	414.78	138.67	118.83	41.046	3.0908e-06	51.34	197.571	172.512	167.448	94.915	258.360	204.887	94.742	100.042	260.835	214.031	99.389	104.092	104.393	108.723	246.077	107.823	-8191	255	
1037.580	1	1	0	0	0.18383	0.14303	0.079341	0.12753	0.14219	0.25227	0.3224	0.36426	0.048758	0.058228	0.30589	0.14442	0.17579	0.22946	0.022776	0.27532	-3.0563	-3.3042	-2.8625	-3.8333	-3.225	-3.325	-3.7542	-2.8729	-3.5042	-3.1625	-3.0396	-3.5687	-3.1063	-3.2875	-3.5771	-3.0208	428.728	359.564	423.605	413.697	253.110	329.035	350.860	395.578	239.240	298.140	427.831	400.632	133.463	436.544	159.478	405.649	0.00044802	0.00054547	0.00016245	1293.9	4.7714e-06	5.1994e-06	1297.7	352.51	5.6145e-06	5.5514e-06	408.64	135.52	117.3	40.006	4.5411e-06	50.098	0.00035368	0.00028752	8.0429e-05	1305.8	3.3307e-06	3.1201e-06	1312	357.89	3.177e-06	3.0445e-06	414.07	138.41	119.41	40.933	3.099e-06	51.315	198.103	175.034	173.231	95.118	239.899	267.525	95.265	99.889	260.161	248.194	99.318	103.894	104.555	108.769	245.226	108.099	-8191	255	
1037.676	1	1	0	0	0.070148	0.18248	0.2284	0.21969	0.13807	0.16401	0.31416	0.10693	0.15531	0.14471	0.16292	0.14111	0.301	0.18698	0.093634	0.25954	-3.1063	-3.2271	-2.7875	-3.8083	-3.0708	-3.3167	-3.8542	-2.8979	-3.4562	-3.4125	-2.8167	-3.7375	-2.9583	-3.1188	-3.4688	-3.0187	377.041	440.279	430.170	82.710	136.997	271.144	336.255	125.302	258.671	279.569	294.714	356.208	116.860	390.739	417.035	401.528	0.00045094	0.00036077	0.00013693	1289.1	4.611e-06	4.6831e-06	1300.3	352.62	4.3001e-06	4.2567e-06	410.48	135.34	117	40.201	5.2312e-06	50.536	0.00035895	0.00028449	7.864e-05	1306.9	3.3172e-06	3.0131e-06	1313.4	357.97	3.2917e-06	2.9665e-06	414.38	138.4	119.02	40.951	2.9659e-06	51.475	196.261	156.132	175.130	95.109	239.642	238.648	95.165	99.946	243.986	218.588	99.458	103.976	104.860	109.020	238.640	108.218	-8191	255	
1037.772	1	1	0	0	0.08709	0.10171	0.16953	0.14525	0.086521	0.50417	0.17222	0.12527	0.1292	0.14304	0.10919	0.11842	0.15157	0.20804	0.054218	0.075287	-2.9521	-3.3104	-2.9083	-3.7188	-3.1188	-3.0521	-3.6917	-2.8583	-3.3688	-3.375	-2.9729	-3.7375	-3.2562	-3.0854	-3.4625	-3.05	315.523	373.650	315.883	365.084	321.957	175.551	407.163	438.975	107.807	344.872	232.969	289.027	328.841	91.695	174.271	389.488	0.0004471	0.00050716	0.00014682	1292.6	3.5619e-06	4.0246e-06	1301.8	351.8	4.5662e-06	4.4075e-06	407.14	136.11	117.45	40.046	5.2228e-06	50.069	0.00036073	0.00028013	8.0044e-05	1306.2	3.2745e-06	3.0879e-06	1313.3	357.8	3.3111e-06	3.0493e-06	413.73	138.72	119.07	40.948	3.0785e-06	51.391	199.605	173.996	168.317	95.082	239.584	216.603	95.010	99.978	252.890	229.223	99.380	103.873	104.550	109.077	231.332	108.389	-8191	255	
1037.891	1	1	0	0	0.20963	0.12273	0.073884	0.17443	0.082379	0.21672	0.20325	0.054796	0.2062	0.10538	0.3567	0.18357	0.0071333	0.083339	0.259	0.18654	-2.7792	-3.4542	-2.8104	-3.6813	-3.0438	-2.8625	-3.7375	-2.9708	-3.2625	-3.6208	-2.8333	-3.6312	-3.1229	-2.9292	-3.6792	-2.8667	218.005	321.624	101.085	126.108	241.009	186.414	348.855	416.748	349.047	263.091	364.861	183.790	181.282	432.967	275.604	390.929	0.00043593	0.0006077	0.00016221	1295.6	4.9443e-06	4.3316e-06	1300.6	352.04	5.1216e-06	6.8802e-06	408.15	135.82	117.56	39.87	4.9768e-06	50.104	0.00036184	0.00028233	8.1092e-05	1308	3.3472e-06	2.9947e-06	1314.4	357.78	3.3511e-06	2.9887e-06	413.6	138.8	119.24	40.924	3.0875e-06	51.34	195.565	168.249	147.378	95.210	245.477	227.927	95.177	100.387	266.267	229.789	99.756	104.205	105.076	109.487	240.834	108.107	-8191	255	
1037.987	1	1	0	0	0.30577	0.13107	0.16644	0.27366	0.081834	0.27883	0.23922	0.24905	0.13978	0.24805	0.061839	0.062825	0.083691	0.059517	0.19636	0.15434	-2.6521	-3.5667	-2.95	-3.5792	-3.4146	-2.7938	-3.9208	-3.2062	-3.0771	-3.7188	-2.9062	-3.5938	-3.5479	-3.05	-3.5604	-3.0979	299.905	131.021	109.616	422.709	118.457	247.274	419.852	435.692	278.138	142.671	221.655	279.891	361.198	361.919	308.399	328.277	0.00042914	0.00041765	0.0001382	1294.8	4.325e-06	5.539e-06	1297.5	352.76	4.5751e-06	5.216e-06	408.34	135.8	116.8	40.136	5.278e-06	50.554	0.00035633	0.00027125	7.931e-05	1308.4	3.2861e-06	3.0434e-06	1313.1	358.53	3.2724e-06	2.9791e-06	414.32	138.42	119.09	40.969	3.223e-06	51.443	195.624	171.419	171.990	94.826	248.745	241.239	94.639	99.641	249.317	223.306	99.174	103.743	104.275	108.786	244.954	107.732	-8191	255	
1038.083	1	1	0	0	0.19592	0.17662	0.14247	0.20767	0.27646	0.15949	0.18533	0.18534	0.29454	0.29048	0.20039	0.24765	0.21996	0.16448	0.22985	0.13965	-2.6917	-3.3312	-2.9896	-3.4521	-3.2896	-2.8521	-3.8187	-3.05	-2.9521	-3.4542	-3.0312	-3.225	-3.4521	-2.9917	-3.4729	-3.4396	374.998	225.080	198.518	371.324	394.289	287.575	354.547	82.022	143.409	252.785	83.765	365.798	90.425	414.241	222.972	387.766	0.000432	0.00056171	0.00013426	1294.6	5.0275e-06	4.6902e-06	1297	352.94	4.8778e-06	7.0524e-06	408.23	135.84	116.51	39.951	4.8249e-06	50.276	0.00036049	0.00027974	8.2325e-05	1306.7	3.2766e-06	3.183e-06	1312.9	358.48	3.3214e-06	2.9643e-06	414.39	138.58	118.76	40.924	3.3203e-06	51.399	197.867	171.656	138.855	95.191	261.134	230.518	94.828	99.748	257.069	208.540	98.790	103.521	104.288	108.310	235.003	107.639	-8191	255	
1038.180	1	1	0	0	0.13323	0.17676	0.14266	0.3015	0.15913	0.10854	0.17032	0.29466	0.14346	0.076399	0.14751	0.18207	0.17211	0.12509	0.12609	0.21264	-2.5625	-3.5583	-2.8229	-3.25	-3.4083	-2.5958	-3.6083	-3.3875	-2.8479	-3.5229	-3.1813	-3.1146	-3.8021	-2.8333	-3.6146	-3.4813	100.343	168.479	236.577	106.168	126.160	188.430	389.416	396.378	275.401	139.523	404.787	423.326	235.296	138.939	439.863	412.186	0.00043632	0.0003564	0.00013316	1292.6	4.8582e-06	4.0946e-06	1297	353.06	3.8011e-06	6.0792e-06	409	135.59	117.02	39.842	5.352e-06	50.379	0.00035566	0.0002752	8.1306e-05	1308	3.2461e-06	3.0519e-06	1313.9	358.37	3.2584e-06	3.0949e-06	414.9	138.53	119.18	40.871	3.237e-06	51.418	196.275	169.597	156.223	94.617	241.675	207.545	94.556	99.346	246.976	244.820	98.905	103.385	104.311	108.580	233.898	107.298	-8191	255	
1038.276	1	1	0	0	0.13601	0.13474	0.26452	0.34856	0.11774	0.28397	0.36779	0.21513	0.16325	0.22019	0.2202	0.27256	0.089953	0.44341	0.15128	0.26939	-2.4542	-3.5271	-3.1271	-3.1979	-3.6375	-2.9104	-3.4813	-3.5354	-2.9146	-3.3875	-3.1479	-3.225	-3.5583	-2.9625	-3.4	-3.6167	362.743	403.015	96.146	404.412	85.443	247.845	378.484	388.210	322.920	156.069	149.141	436.923	287.555	96.283	305.218	398.178	0.00042431	0.00046897	0.00015301	1293.1	4.7291e-06	4.5859e-06	1296.1	352	5.2317e-06	4.3833e-06	408.08	135.76	116.93	40.053	4.712e-06	50.205	0.00036319	0.00027014	7.7458e-05	1309	3.2052e-06	3.1618e-06	1313.6	357.99	3.2001e-06	2.9856e-06	414.17	138.67	119.23	40.924	3.2337e-06	51.39	195.742	160.025	174.598	94.813	233.700	233.641	94.722	99.484	266.683	224.229	99.074	103.769	104.383	108.613	236.777	108.014	-8191	255	
1038.372	1	1	0	0	0.027626	0.112	0.092508	0.17511	0.089756	0.16907	0.24161	0.21041	0.096415	0.14997	0.29069	0.1173	0.15232	0.14683	0.19727	0.24386	-2.3333	-3.5604	-3.3104	-3.0583	-3.6146	-2.875	-3.5521	-3.6521	-2.9854	-3.4188	-3.3458	-2.8563	-3.7396	-2.9125	-3.2812	-3.6333	98.559	238.497	157.638	126.392	349.988	329.198	370.908	435.194	193.962	327.524	416.954	399.966	209.364	100.725	107.884	109.484	0.00043222	0.00058864	0.00013486	1292.7	3.791e-06	5.2013e-06	1296.9	353.39	4.8894e-06	4.9788e-06	409.03	135.64	116.77	39.976	4.2317e-06	50.098	0.00035316	0.00027664	7.9275e-05	1307.6	3.0999e-06	3.0666e-06	1312.2	358.43	3.2353e-06	3.1165e-06	414.64	138.55	119.03	40.931	3.2192e-06	51.26	194.725	160.404	166.486	94.936	251.261	231.115	94.786	99.544	257.569	202.845	99.323	103.936	104.614	108.803	240.230	107.890	-8191	255	
1038.492	1	1	0	0	0.099543	0.10398	0.075016	0.12617	0.13276	0.21303	0.21189	0.14428	0.10737	0.043468	0.14445	0.31099	0.22834	0.15529	0.14982	0.35462	-2.625	-3.6333	-3.0146	-3.0083	-3.6083	-3.0146	-3.275	-3.5542	-2.7313	-3.4313	-3.5375	-2.925	-3.7021	-3.0604	-3.0917	-3.7188	123.332	328.582	297.448	377.975	125.752	429.901	387.213	400.705	92.534	354.597	433.290	397.830	132.048	95.126	234.674	264.179	0.00043903	0.00063073	0.00015505	1291.5	5.1218e-06	4.4571e-06	1296.6	353.79	4.322e-06	6.8021e-06	409.97	135.17	116.75	40.12	5.3302e-06	50.44	0.00035233	0.00029175	7.9645e-05	1306.4	3.0129e-06	2.9927e-06	1313.1	358.42	3.2327e-06	3.0991e-06	414.29	138.45	119.07	40.942	3.1662e-06	51.458	195.884	176.800	173.498	95.138	233.294	227.052	95.346	100.074	245.258	254.784	99.632	104.303	104.755	109.294	237.870	108.583	-8191	255	
1038.589	1	1	0	0	0.15852	0.29912	0.1866	0.3445	0.23758	0.188	0.15852	0.18861	0.14085	0.064927	0.23103	0.06721	0.077007	0.10416	0.22221	0.2755	-2.5458	-3.3208	-3.4313	-2.9729	-3.6229	-3.0292	-3.1333	-3.6521	-2.7271	-3.45	-3.4062	-2.9417	-3.5958	-3.3146	-2.9042	-3.7812	241.381	256.169	392.963	399.078	357.279	187.952	427.347	347.405	363.780	401.778	357.597	88.087	144.184	171.022	185.240	342.447	0.00045254	0.0005636	0.00015381	1290.8	4.654e-06	4.0311e-06	1298.2	352.64	3.6563e-06	5.1968e-06	409.19	135.46	116.81	39.908	4.8412e-06	50.339	0.00036108	0.00029101	7.6774e-05	1305.9	3.2214e-06	3.019e-06	1313	358.36	3.2353e-06	3.0949e-06	414.13	138.52	119.07	40.869	3.2241e-06	51.434	196.299	174.558	160.818	95.174	246.283	203.295	94.617	99.856	248.327	241.095	98.938	103.935	104.439	108.765	226.380	108.152	-8191	255	
1038.660	1	1	0	0	0.38387	0.027095	0.065903	0.077023	0.19386	0.13357	0.1527	0.3258	0.054448	0.19323	0.084748	0.23205	0.085039	0.32131	0.2061	0.090161	-2.6125	-3.1417	-3.35	-2.8729	-3.5833	-3.3917	-3.1625	-3.8208	-2.9667	-3.2375	-3.9271	-2.9062	-3.6188	-3.3854	-2.9979	-3.7854	116.571	309.290	300.055	157.831	164.222	357.731	312.697	381.869	172.304	268.366	224.611	308.768	307.332	328.333	138.069	439.036	0.00045076	0.00042911	0.00013094	1293.3	4.3321e-06	5.4775e-06	1297.1	352.87	4.3969e-06	5.9145e-06	408.68	135.75	117.08	39.934	4.3785e-06	50.332	0.00035585	0.00028215	7.0916e-05	1306.4	3.2381e-06	2.9165e-06	1311.3	357.96	3.2194e-06	3.0209e-06	414.1	138.47	119.3	40.917	3.0596e-06	51.499	200.110	157.096	170.802	95.237	236.003	228.826	94.878	99.455	245.086	225.801	98.978	103.618	104.312	108.518	250.628	108.021	-8191	255	
1038.779	1	1	0	0	0.11123	0.075771	0.12201	0.16141	0.14174	0.11198	0.063331	0.1484	0.29534	0.20398	0.28016	0.059973	0.3398	0.20706	0.30013	0.21283	-2.6937	-2.8667	-3.6521	-2.95	-3.4979	-3.4042	-3.1833	-3.725	-3.175	-3.3563	-3.8438	-3.0583	-3.5708	-3.7	-2.9562	-3.7979	327.950	154.747	422.173	427.699	414.587	205.937	153.542	353.122	385.560	280.480	320.029	89.844	430.989	386.811	210.764	428.114	0.00045049	0.00034176	0.00012434	1288.6	5.0151e-06	3.8487e-06	1297.1	353.28	5.5278e-06	5.978e-06	406.8	135.62	117.22	39.863	3.6929e-06	50.3	0.00035299	0.00028043	7.4458e-05	1301.9	3.1957e-06	2.9635e-06	1310.6	358.01	3.1275e-06	2.958e-06	413.74	138.51	118.97	40.882	3.0353e-06	51.331	198.145	191.009	173.289	94.842	258.588	228.232	94.803	99.741	252.982	224.057	99.129	103.765	104.656	108.745	234.373	108.079	-8191	255	
1038.875	1	1	0	0	0.088516	0.012472	0.10292	0.3217	0.047494	0.2475	0.24652	0.04207	0.16778	0.14785	0.10754	0.24613	0.15574	0.15556	0.28296	0.3123	-2.6896	-2.8146	-3.65	-3.0292	-3.4021	-3.5625	-2.95	-3.7167	-2.9646	-2.9437	-3.9229	-3.2104	-3.35	-3.7917	-2.8521	-3.5875	82.189	207.175	206.020	425.265	111.453	191.827	404.392	395.982	155.002	198.508	279.791	411.557	427.649	363.706	201.154	368.992	0.00045148	0.00053962	0.00011496	1292.9	4.7301e-06	3.1414e-06	1297.4	353.01	5.8356e-06	4.8697e-06	406.45	135.65	116.93	40.029	3.7331e-06	50.24	0.000347	0.00027843	7.2484e-05	1304.1	3.1824e-06	2.9326e-06	1310.9	358.2	3.3715e-06	2.9424e-06	413.98	138.6	119.16	40.923	3.0463e-06	51.417	196.534	160.966	186.988	95.207	248.269	230.253	94.829	99.709	249.019	225.481	98.974	103.758	104.551	108.429	233.250	108.024	-8191	255	
1038.971	1	1	0	0	0.11636	0.2367	0.10833	0.2938	0.28205	0.020945	0.27718	0.3267	0.19354	0.17234	0.05202	0.26176	0.12337	0.019456	0.17674	0.080285	-3.1	-2.8917	-3.5187	-2.9188	-3.3542	-3.5792	-3.0708	-3.4437	-3.4042	-2.8708	-3.7479	-3.0167	-2.9938	-3.6813	-2.9125	-3.5938	242.254	292.987	381.351	366.651	381.984	188.968	365.220	380.445	416.494	120.363	374.843	361.232	323.549	213.129	174.324	334.051	0.00042344	0.00042297	0.00013509	1296	4.7457e-06	3.4555e-06	1294.4	352.48	3.9134e-06	4.577e-06	407.09	135.53	117.04	40.021	4.514e-06	50.476	0.00035201	0.00027397	7.4964e-05	1306.7	3.3015e-06	2.8641e-06	1310.7	357.81	3.1921e-06	2.9836e-06	413.92	138.39	119.27	40.959	3.1779e-06	51.423	198.605	175.541	160.164	94.746	245.000	206.891	94.815	99.977	242.162	235.531	99.108	103.911	104.603	108.786	235.435	108.087	-8191	255	
1039.068	1	1	0	0	0.048945	0.37898	0.2605	0.2739	0.072121	0.082557	0.21483	0.11292	0.14168	0.11363	0.12415	0.25805	0.22805	0.2418	0.21195	0.26554	-3.0604	-2.9396	-3.4729	-3.3125	-3.0479	-3.5208	-3.0854	-3.5771	-3.4479	-3.1375	-3.8125	-3.1979	-3.2167	-3.5292	-2.9562	-3.3083	84.907	310.574	294.909	403.111	199.924	93.623	398.405	367.907	362.988	393.801	407.983	435.263	83.279	403.072	144.916	422.051	0.00044284	0.00062419	0.00011367	1290.4	5.6687e-06	6.1652e-06	1302.2	353.78	2.9954e-06	5.0397e-06	407.82	135.81	116.83	40.139	5.9881e-06	50.331	0.00035701	0.00028372	7.5548e-05	1305.8	3.2771e-06	2.8845e-06	1312.1	358.36	3.2049e-06	2.983e-06	414.03	138.54	118.97	40.923	3.1758e-06	51.4	198.495	174.095	165.380	94.789	248.054	222.967	95.024	99.965	254.521	236.749	99.689	104.177	105.021	109.064	250.514	107.716	-8191	255	
1039.188	1	1	0	0	0.14767	0.15792	0.15918	0.083049	0.25592	0.24133	0.10753	0.069033	0.072284	0.13103	0.065425	0.1674	0.14027	0.21159	0.11351	0.1555	-3.2458	-2.8458	-3.5625	-3.3917	-2.9125	-3.7583	-3.1167	-3.3958	-3.6854	-2.925	-3.6813	-3.4521	-3.0333	-3.7979	-3.1021	-3.4417	201.311	375.515	95.321	435.846	438.506	337.678	413.435	103.806	348.716	126.551	267.934	190.655	401.921	392.217	108.733	362.019	0.00042114	0.0005945	0.0001861	1291.3	4.6171e-06	2.4229e-06	1299.7	352.64	3.3489e-06	6.0871e-06	410.05	135.13	117.84	39.868	4.3094e-06	50.199	0.00034356	0.00028336	7.3866e-05	1303.8	3.3087e-06	3.0355e-06	1310.9	358.14	3.2011e-06	3.0052e-06	414.38	138.44	119.37	40.893	3.2296e-06	51.291	197.984	152.145	164.724	95.105	242.778	223.839	95.028	100.062	260.593	234.882	99.514	103.981	104.703	108.974	247.507	108.478	-8191	255	
1039.260	1	1	0	0	0.16777	0.18482	0.45343	0.35242	0.15332	0.17296	0.31563	0.071659	0.15178	0.29608	0.33349	0.18086	0.23127	0.060991	0.18091	0.08653	-3.2188	-2.8604	-3.4521	-3.6083	-2.9271	-3.9375	-3.0229	-3.2938	-3.5812	-2.8958	-3.4188	-3.5521	-2.7188	-3.7125	-3.2062	-3.175	97.831	330.265	278.640	401.349	410.073	431.489	418.198	212.192	239.780	140.594	392.616	165.225	97.076	175.054	221.770	185.256	0.00042914	0.00054906	0.00014669	1293	5.2179e-06	4.962e-06	1299.1	353.52	4.9307e-06	5.407e-06	407.85	136.02	116.82	39.897	5.7281e-06	50.606	0.00035181	0.00028462	8.1291e-05	1305.4	3.236e-06	2.9581e-06	1312.1	358.97	3.0785e-06	3.028e-06	414	138.56	119.09	40.912	3.2547e-06	51.556	196.112	148.175	167.371	95.241	242.751	227.691	95.005	100.097	244.828	238.853	99.611	104.086	104.624	108.946	234.856	108.130	-8191	255	
1039.356	1	1	0	0	0.057572	0.09847	0.031273	0.077957	0.18623	0.1733	0.31262	0.080113	0.022505	0.14502	0.047321	0.099427	0.084174	0.14203	0.056207	0.28228	-3.3396	-2.8937	-3.4917	-3.5917	-2.8667	-3.8312	-3.4	-3.2333	-3.7667	-3.0771	-3.4396	-3.4083	-3.0208	-3.6396	-3.2333	-2.9208	283.820	287.206	285.384	202.473	295.658	228.182	390.247	217.500	432.337	273.805	437.058	396.136	110.373	407.695	418.813	396.083	0.00041877	0.00048936	0.00014862	1295.9	4.3382e-06	4.0915e-06	1305.9	353.6	4.0843e-06	5.1537e-06	408.01	135.85	117.28	39.966	4.5283e-06	50.589	0.0003425	0.00028916	8.0764e-05	1308.3	3.1283e-06	3.0618e-06	1314.5	358.62	3.159e-06	3.0917e-06	414.4	138.58	119.12	40.933	3.1809e-06	51.476	198.348	161.622	181.252	95.492	231.434	230.120	94.970	99.819	259.777	245.488	99.492	104.208	104.874	109.160	254.141	108.096	-8191	255	
#DATA ENDS
