BOXY.EXE: ISS Imagent and Oximeter Data Acquisition Program Version 0.80
Ascii Record File

#ACQ INFORMATION
2  Detector Channels 
16  External MUX Channels 
1  Auxiliary Channels 
5000  Waveform (CCF) Frequency (Hz)
1  Waveforms Skipped 
30  Waveforms Averaged 
1  Cycles Averaged 
16  Acquisitions per Waveform 
10.0806  Updata Rate (Hz) 

#FILE INFORMATION
TRUE -- External MUX Channel results are PARSED.
FALSE -- AC DC and Phase are NOT grouped.
TRUE -- Companion Program Settings File CREATED.
FALSE -- AC data not excluded
FALSE -- DC data not excluded
FALSE -- Phase data not excluded
FALSE -- Auxillary Chn. data not excluded
Tab delimiters

#CALIBRATION STATE
TRUE -- Waveform Calibration Values APPLIED.


#AUX CALIBRATION VALUES
Val Type	aux-1	

Term	1.0000e+00	
Factor	0.0000e+00	


#WF CALIBRATION VALUES
A = Detector Channel
Val Type	A-AC1	A-AC2	A-AC3	A-AC4	A-AC5	A-AC6	A-AC7	A-AC8	A-AC9	A-AC10	A-AC11	A-AC12	A-AC13	A-AC14	A-AC15	A-AC16	A-DC1	A-DC2	A-DC3	A-DC4	A-DC5	A-DC6	A-DC7	A-DC8	A-DC9	A-DC10	A-DC11	A-DC12	A-DC13	A-DC14	A-DC15	A-DC16	A-Ph1	A-Ph2	A-Ph3	A-Ph4	A-Ph5	A-Ph6	A-Ph7	A-Ph8	A-Ph9	A-Ph10	A-Ph11	A-Ph12	A-Ph13	A-Ph14	A-Ph15	A-Ph16	

Term	0.00000e+00	0.00000e+00	0.00000e+00	0.00000e+00	0.00000e+00	0.00000e+00	0.00000e+00	0.00000e+00	0.00000e+00	0.00000e+00	0.00000e+00	0.00000e+00	0.00000e+00	0.00000e+00	0.00000e+00	0.00000e+00	0.00000e+00	0.00000e+00	0.00000e+00	0.00000e+00	0.00000e+00	0.00000e+00	0.00000e+00	0.00000e+00	0.00000e+00	0.00000e+00	0.00000e+00	0.00000e+00	0.00000e+00	0.00000e+00	0.00000e+00	0.00000e+00	0.00000e+00	0.00000e+00	0.00000e+00	0.00000e+00	0.00000e+00	0.00000e+00	0.00000e+00	0.00000e+00	0.00000e+00	0.00000e+00	0.00000e+00	0.00000e+00	0.00000e+00	0.00000e+00	0.00000e+00	0.00000e+00	
Factor	1.00000e+00	1.00000e+00	1.00000e+00	1.00000e+00	1.00000e+00	1.00000e+00	1.00000e+00	1.00000e+00	1.00000e+00	1.00000e+00	1.00000e+00	1.00000e+00	1.00000e+00	1.00000e+00	1.00000e+00	1.00000e+00	1.00000e+00	1.00000e+00	1.00000e+00	1.00000e+00	1.00000e+00	1.00000e+00	1.00000e+00	1.00000e+00	1.00000e+00	1.00000e+00	1.00000e+00	1.00000e+00	1.00000e+00	1.00000e+00	1.00000e+00	1.00000e+00	X	X	X	X	X	X	X	X	X	X	X	X	X	X	X	X	

B = Detector Channel
Val Type	B-AC1	B-AC2	B-AC3	B-AC4	B-AC5	B-AC6	B-AC7	B-AC8	B-AC9	B-AC10	B-AC11	B-AC12	B-AC13	B-AC14	B-AC15	B-AC16	B-DC1	B-DC2	B-DC3	B-DC4	B-DC5	B-DC6	B-DC7	B-DC8	B-DC9	B-DC10	B-DC11	B-DC12	B-DC13	B-DC14	B-DC15	B-DC16	B-Ph1	B-Ph2	B-Ph3	B-Ph4	B-Ph5	B-Ph6	B-Ph7	B-Ph8	B-Ph9	B-Ph10	B-Ph11	B-Ph12	B-Ph13	B-Ph14	B-Ph15	B-Ph16	

Term	0.00000e+00	0.00000e+00	0.00000e+00	0.00000e+00	0.00000e+00	0.00000e+00	0.00000e+00	0.00000e+00	0.00000e+00	0.00000e+00	0.00000e+00	0.00000e+00	0.00000e+00	0.00000e+00	0.00000e+00	0.00000e+00	0.00000e+00	0.00000e+00	0.00000e+00	0.00000e+00	0.00000e+00	0.00000e+00	0.00000e+00	0.00000e+00	0.00000e+00	0.00000e+00	0.00000e+00	0.00000e+00	0.00000e+00	0.00000e+00	0.00000e+00	0.00000e+00	-9.97839e+01	-1.27879e+02	-1.28521e+02	-1.82006e+02	-5.58992e+01	-7.33021e+01	-1.57810e+02	-1.62015e+02	-5.12818e+01	-6.74143e+01	-1.72403e+02	-1.70165e+02	-1.80574e+02	-1.76604e+02	-6.35904e+01	-1.48996e+02	
Factor	1.65874e-05	1.60630e-04	4.67225e-05	1.56642e-01	1.23825e-06	1.65992e-06	1.81458e-01	5.32774e-02	1.10927e-06	1.85625e-06	9.31568e-02	3.11199e-02	4.21576e-02	9.47623e-03	1.36244e-06	1.40405e-02	8.31017e-06	1.23189e-05	3.42039e-06	7.89887e-02	1.27350e-07	1.35954e-07	8.60234e-02	2.70087e-02	1.27156e-07	1.36589e-07	4.55214e-02	1.53836e-02	2.16466e-02	4.83925e-03	1.31139e-07	6.92868e-03	X	X	X	X	X	X	X	X	X	X	X	X	X	X	X	X	



#DISTANCE SETTINGS
A = Detector Channel
A-1	A-2	A-3	A-4	A-5	A-6	A-7	A-8	A-9	A-10	A-11	A-12	A-13	A-14	A-15	A-16	

2.5000e+00	3.0000e+00	2.5000e+00	3.0000e+00	2.0000e+00	3.0000e+00	1.5000e+00	3.0000e+00	3.0000e+00	3.0000e+00	3.0000e+00	3.0000e+00	3.0000e+00	3.0000e+00	1.5000e+00	3.0000e+00	

B = Detector Channel
B-1	B-2	B-3	B-4	B-5	B-6	B-7	B-8	B-9	B-10	B-11	B-12	B-13	B-14	B-15	B-16	

1.0000e+01	1.0000e+01	1.0000e+01	1.4400e+00	1.0000e+01	1.0000e+01	1.5100e+00	1.9400e+00	1.0000e+01	1.0000e+01	1.9900e+00	2.4900e+00	2.4100e+00	2.9000e+00	1.0000e+01	2.9800e+00	




#DATA BEGINS
time	group	step	mark	flag	A-AC1	A-AC2	A-AC3	A-AC4	A-AC5	A-AC6	A-AC7	A-AC8	A-AC9	A-AC10	A-AC11	A-AC12	A-AC13	A-AC14	A-AC15	A-AC16	A-DC1	A-DC2	A-DC3	A-DC4	A-DC5	A-DC6	A-DC7	A-DC8	A-DC9	A-DC10	A-DC11	A-DC12	A-DC13	A-DC14	A-DC15	A-DC16	A-Ph1	A-Ph2	A-Ph3	A-Ph4	A-Ph5	A-Ph6	A-Ph7	A-Ph8	A-Ph9	A-Ph10	A-Ph11	A-Ph12	A-Ph13	A-Ph14	A-Ph15	A-Ph16	B-AC1	B-AC2	B-AC3	B-AC4	B-AC5	B-AC6	B-AC7	B-AC8	B-AC9	B-AC10	B-AC11	B-AC12	B-AC13	B-AC14	B-AC15	B-AC16	B-DC1	B-DC2	B-DC3	B-DC4	B-DC5	B-DC6	B-DC7	B-DC8	B-DC9	B-DC10	B-DC11	B-DC12	B-DC13	B-DC14	B-DC15	B-DC16	B-Ph1	B-Ph2	B-Ph3	B-Ph4	B-Ph5	B-Ph6	B-Ph7	B-Ph8	B-Ph9	B-Ph10	B-Ph11	B-Ph12	B-Ph13	B-Ph14	B-Ph15	B-Ph16	aux-1	digaux	

3011.331	1	1	0	768	0.18373	0.26703	0.2194	0.072719	0.10669	0.059873	0.49895	0.19911	0.27781	0.12096	0.35193	0.021969	0.31834	0.020644	0.094967	0.18181	-3.0187	-2.5542	-2.7292	-3.1083	-2.425	-3.1542	-2.9396	-2.5292	-3.3333	-2.4729	-2.9583	-3.3958	-2.4917	-3.0542	-3.0042	-2.3708	184.212	20.198	214.136	210.556	5.988	25.949	221.684	109.182	309.982	49.525	335.725	327.401	349.160	306.577	70.920	245.735	0.00028646	0.00098385	0.00029222	761.72	1.0804e-05	8.7195e-06	1140.1	235.57	9.8338e-06	1.4635e-05	481.61	225.22	100.04	27.701	3.1573e-06	98.634	0.0014698	0.0020364	0.00056942	576.91	2.1277e-05	2.2876e-05	863.37	182.15	2.0369e-05	2.3449e-05	366.94	172.19	78.644	21.949	2.2929e-05	75.524	185.400	-4.849	54.055	5.913	170.685	158.317	6.697	11.589	136.440	123.481	11.760	15.954	17.726	21.505	281.968	19.624	-8191	255	
3011.427	1	1	0	0	0.19164	0.14748	0.2279	0.10988	0.085164	0.060644	0.10329	0.12125	0.022145	0.15054	0.014481	0.29636	0.16578	0.1848	0.051899	0.27529	-2.9479	-2.5438	-2.7333	-3.3021	-2.4792	-3.1458	-3.1979	-2.375	-3.4562	-2.7521	-2.95	-3.3625	-2.475	-3.1229	-2.9771	-2.6417	62.567	140.519	53.978	311.306	-2.225	251.143	162.571	105.375	322.797	108.396	258.162	-3.119	37.345	17.345	97.611	-5.836	0.00020039	0.0014127	0.00014497	767.64	2.5808e-06	1.1941e-06	1135.5	233.46	9.6858e-06	5.6318e-07	476.75	220.47	97.384	28.171	1.1125e-05	98.015	0.0015238	0.0020802	0.00057121	577.58	2.0665e-05	2.1495e-05	857.13	179.99	1.9273e-05	2.2906e-05	360.92	169.61	76.771	21.976	2.1202e-05	74.741	145.401	115.527	235.585	6.302	322.476	276.803	7.202	10.839	191.883	36.489	11.655	15.636	18.255	22.485	190.711	19.665	-8191	255	
3011.523	1	1	0	0	0.10124	0.14505	0.057633	0.15433	0.1674	0.027399	0.024613	0.31399	0.13039	0.07564	0.085425	0.20385	0.11693	0.10084	0.22759	0.38157	-2.9521	-2.6479	-2.5917	-3.2396	-2.5208	-2.9604	-3.2583	-2.4583	-3.2458	-2.9562	-2.5812	-3.3958	-2.6917	-2.8688	-3.3167	-2.5479	97.890	227.366	67.540	190.233	308.733	314.165	282.001	260.147	155.034	34.487	17.981	-1.948	186.899	88.894	119.341	347.921	0.00032218	0.00081842	0.0002529	762.22	5.5776e-06	1.3296e-05	1129.3	236.32	1.9179e-06	8.8088e-06	470.37	224.76	98.069	28.684	7.1134e-06	99.788	0.0013943	0.0019202	0.00053543	568.99	1.9128e-05	2.0183e-05	845.98	179.58	1.7781e-05	2.0889e-05	360.17	171.82	77.06	22.22	1.9752e-05	76.011	151.274	115.350	57.229	6.038	206.569	79.677	6.462	11.475	275.580	88.073	11.231	15.921	16.872	21.764	141.509	19.481	-8191	255	
3011.619	1	1	0	0	0.014848	0.095934	0.062725	0.25136	0.11442	0.15367	0.266	0.30741	0.09084	0.13793	0.47738	0.068494	0.22713	0.10476	0.14188	0.27509	-2.8917	-2.8667	-2.5167	-3.3042	-2.5208	-2.8438	-3.3312	-2.4979	-3.1271	-2.9792	-2.4188	-3.425	-2.725	-2.7521	-3.3104	-2.3875	16.518	262.184	88.392	1.527	97.612	75.342	313.867	118.143	297.795	95.979	18.235	329.895	345.016	246.983	271.565	264.225	0.00033526	0.0014372	3.2516e-05	755.76	4.6289e-06	5.5192e-06	1113.4	235.52	6.2194e-06	4.2609e-06	476.81	228.06	100.22	28.721	4.2052e-06	101.73	0.0014004	0.0019068	0.00054306	564.75	2.0247e-05	2.1455e-05	841.68	179.65	1.9847e-05	2.2557e-05	363.71	173.74	78.3	22.616	2.17e-05	77.418	142.663	98.382	92.513	5.838	187.394	34.443	7.102	11.394	185.771	63.722	12.053	15.993	17.190	21.214	19.608	19.136	-8191	255	
3011.716	1	1	0	0	0.18261	0.14472	0.11587	0.085124	0.22342	0.091694	0.24726	0.069688	0.25501	0.27794	0.059934	0.12859	0.045737	0.075218	0.090518	0.18129	-2.6667	-3.0708	-2.4042	-3.3729	-2.6958	-2.9938	-3.5083	-2.5771	-3.1021	-3.2292	-2.5083	-3.3312	-2.8104	-2.6083	-3.3292	-2.6188	276.065	37.976	207.900	240.999	68.985	64.549	291.632	32.748	240.592	73.341	10.945	260.535	329.547	298.629	125.185	251.223	0.0003246	0.0012368	0.00028648	757.51	4.7876e-06	1.4364e-05	1116	242.51	7.5164e-06	1.2549e-05	474.13	231.14	101.82	29.658	3.15e-06	100.72	0.0016938	0.0022705	0.00064362	571.37	2.5514e-05	2.7273e-05	843.62	186.11	2.479e-05	2.9817e-05	364.36	176.91	80.481	23.199	2.7361e-05	77.531	150.331	25.752	334.006	6.296	206.177	151.745	7.104	10.718	168.783	265.167	11.735	15.800	17.598	21.886	48.431	19.124	-8191	255	
3011.812	1	1	0	0	0.0681	0.072918	0.066582	0.20575	0.16815	0.12648	0.042453	0.18527	0.069042	0.20793	0.12519	0.34272	0.13024	0.066384	0.073842	0.26803	-2.5792	-3.1979	-2.475	-3.1667	-2.9646	-2.4583	-3.5312	-2.6146	-2.9625	-3.2771	-2.5271	-3.1604	-2.8208	-2.6646	-3.3979	-2.7083	111.223	235.947	269.713	299.590	94.574	26.366	142.284	31.242	327.691	23.259	351.207	24.287	339.571	344.897	39.910	250.945	0.00028703	0.0019122	0.00028982	750.13	5.441e-06	1.5657e-05	1112	240.96	6.0474e-06	4.1919e-06	475.24	227.87	98.989	28.87	7.2828e-06	99.504	0.0018822	0.0024622	0.000735	564.3	2.6977e-05	2.9051e-05	839.9	186.28	2.7308e-05	2.9836e-05	362.28	175.38	79.424	22.936	2.6886e-05	76.099	168.012	156.451	28.550	5.761	24.178	238.925	7.409	11.293	166.952	308.192	12.469	16.127	16.707	22.127	280.558	19.238	-8191	255	
3011.932	1	1	0	0	0.10896	0.11598	0.22784	0.25178	0.1304	0.062071	0.14258	0.3198	0.13312	0.1358	0.12034	0.17485	0.14667	0.14161	0.087919	0.21641	-2.2938	-3.1146	-2.2562	-3.1188	-2.8	-2.5979	-3.2854	-2.7062	-2.7687	-3.2604	-2.5062	-3.1417	-3.0563	-2.3292	-3.2167	-2.8688	331.158	97.474	197.727	336.463	259.133	329.279	64.033	259.889	-3.817	199.470	287.625	305.725	50.387	330.543	3.208	337.188	0.00025431	0.0018174	0.00031953	724.43	8.7592e-06	3.9573e-06	1073.4	238.48	1.2046e-05	2.987e-05	460.99	220.97	97.939	28.177	1.5627e-05	97.376	0.0019919	0.0026708	0.00076555	550.41	2.9584e-05	3.036e-05	815.17	183.41	2.8792e-05	2.9295e-05	352.88	171.18	78.533	22.376	2.8556e-05	74.524	138.267	59.253	90.159	5.971	72.449	38.272	6.891	11.576	232.577	37.226	11.888	16.061	16.423	22.283	153.380	19.067	-8191	255	
3012.028	1	1	0	0	0.27765	0.1326	0.12952	0.10747	0.061233	0.16201	0.26173	0.19152	0.12317	0.048926	0.1011	0.084103	0.075417	0.18291	0.12969	0.32544	-2.1354	-3.1688	-2.5271	-2.9813	-3.0438	-2.4396	-3.4396	-2.9375	-2.5729	-3.1688	-2.8042	-3.1312	-3.1458	-2.3146	-3.0646	-2.9125	103.443	11.857	332.415	55.168	7.356	330.080	31.788	317.272	270.409	28.476	260.017	76.305	202.212	293.411	237.548	318.161	0.00033365	0.0016702	0.00019097	726.12	1.4954e-05	9.0921e-06	1081.5	236.5	8.5286e-06	3.9618e-06	460.43	222.37	98.427	28.204	6.2752e-06	97.327	0.0020411	0.0026405	0.00079587	553.36	3.0478e-05	3.1342e-05	816.51	182.88	3.0567e-05	3.1172e-05	354.5	170.87	78.951	22.445	3.0621e-05	74.798	126.560	102.604	66.414	6.385	195.969	123.847	6.883	10.784	161.137	328.247	11.682	16.306	16.655	21.245	133.192	19.222	-8191	255	
3012.125	1	1	0	0	0.18338	0.070466	0.32488	0.24553	0.22488	0.088772	0.15835	0.12095	0.048934	0.17832	0.033354	0.34957	0.19101	0.19884	0.031281	0.21863	-2.3083	-3.2833	-2.5354	-2.8146	-3.1208	-2.5062	-3.1917	-3.0312	-2.4375	-3.1771	-2.8438	-2.7896	-3.3896	-2.4896	-3.1979	-3.1271	112.521	219.632	300.446	189.776	176.244	266.516	332.828	336.634	242.700	152.776	224.272	296.075	28.520	296.341	72.515	259.345	0.00035774	0.0014073	0.00048847	716.29	1.3322e-05	1.0328e-05	1090.7	238.97	6.9395e-06	1.027e-05	466.29	225.55	98.955	28.558	6.6247e-06	97.747	0.0021507	0.002903	0.00085892	551.71	3.1436e-05	3.311e-05	824.24	185	3.1377e-05	3.1282e-05	359.92	173.69	80.018	22.625	3.0343e-05	75.504	159.083	307.458	114.573	6.175	181.810	57.677	7.061	11.533	339.178	139.110	11.439	16.206	16.716	21.651	341.848	19.203	-8191	255	
3012.221	1	1	0	0	0.19132	0.058786	0.27329	0.13438	0.23789	0.11369	0.19081	0.1117	0.20068	0.21451	0.30171	0.39176	0.1195	0.21269	0.039192	0.15012	-1.9667	-3.1708	-2.7479	-2.8104	-3.3333	-2.4354	-2.9854	-2.9313	-2.5042	-3.4833	-2.9479	-2.5625	-3.2958	-2.6292	-3.1375	-3.3229	92.285	57.578	53.472	300.806	123.954	129.852	287.629	307.346	33.229	20.614	253.397	-6.235	340.765	299.878	1.951	284.138	0.0002921	0.0019478	0.00031632	719.08	6.6419e-06	1.8511e-06	1080.1	243.37	8.7649e-06	8.7746e-06	468.98	227.16	101.78	28.749	1.0581e-05	98.739	0.0021554	0.0028797	0.00081241	551.38	2.9175e-05	3.1468e-05	824.4	186.59	2.9597e-05	2.9716e-05	359.65	174.98	80.495	22.835	2.7729e-05	75.948	128.923	62.717	64.232	6.142	217.459	170.329	7.072	11.022	258.047	41.628	11.549	15.882	16.657	21.274	131.211	19.071	-8191	255	
3012.317	1	1	0	0	0.074066	0.070231	0.095248	0.04686	0.082036	0.063081	0.28046	0.039765	0.098228	0.12143	0.11949	0.19907	0.040625	0.2041	0.050967	0.13976	-1.9208	-3.0604	-2.7812	-2.5583	-3.1458	-2.575	-3.0042	-3.1917	-2.5458	-3.2208	-3.1063	-2.5604	-3.2771	-2.7	-2.8937	-3.225	268.320	312.214	304.499	252.817	7.256	321.993	181.395	251.093	111.822	97.646	-4.604	340.513	148.491	16.536	162.926	332.385	0.00031048	0.0011379	0.00034064	715.6	8.6722e-06	1.6861e-05	1084.4	243.66	7.3447e-06	3.4567e-06	474.46	226.55	101.5	28.671	1.1106e-05	98.464	0.0019495	0.0025543	0.00070813	545.39	2.52e-05	2.8774e-05	823.34	187.41	2.7161e-05	2.7369e-05	361.37	174.88	79.913	22.644	2.8427e-05	75.604	162.557	179.784	76.721	6.508	204.094	185.611	6.829	11.544	350.712	65.834	11.634	15.922	16.680	21.764	142.846	19.444	-8191	255	
3012.413	1	1	0	0	0.053285	0.21333	0.099802	0.1755	0.095369	0.15763	0.27897	0.15791	0.03489	0.1494	0.21141	0.13011	0.05268	0.22688	0.056283	0.26537	-1.9208	-3.0542	-3.0104	-2.5229	-3.125	-2.4188	-2.7167	-3.2542	-2.4542	-3.0458	-3.1188	-2.4271	-3.2958	-2.6625	-2.6896	-3.3542	100.667	4.004	25.751	298.600	202.641	134.605	252.462	45.637	248.530	274.394	230.822	292.105	16.436	331.895	135.056	308.673	0.00040766	0.00075865	0.00042781	709.24	9.5597e-06	3.8226e-06	1077.6	247.36	1.4792e-05	3.9272e-06	466.78	224.67	98.26	28.78	1.3682e-05	97.693	0.0018326	0.0024674	0.00069391	539.69	2.4266e-05	2.9126e-05	817.38	188.37	2.7196e-05	2.7391e-05	356.96	173.1	78.96	22.513	2.9397e-05	75.098	139.331	143.335	111.195	6.440	173.407	90.731	6.439	10.726	161.532	135.995	11.125	15.759	17.222	21.328	135.975	19.168	-8191	255	
3012.532	1	1	0	0	0.21057	0.087631	0.073413	0.16701	0.13157	0.10096	0.082932	0.33942	0.19613	0.16195	0.17522	0.24153	0.31874	0.17077	0.091697	0.175	-2.1271	-2.9396	-2.8229	-2.5292	-3.3104	-2.725	-2.9667	-3.4021	-2.4667	-2.9917	-3.0708	-2.5	-3.1437	-3.0146	-2.675	-3.3937	346.141	200.401	21.565	0.959	85.879	82.159	212.949	197.424	296.122	194.909	36.892	349.278	-1.905	298.452	6.940	317.981	0.00030623	0.00042886	0.00016744	703.72	9.3203e-06	1.2455e-05	1087	244.99	1.2641e-05	1.3149e-05	468.75	226.01	101.89	28.105	6.7293e-06	98.546	0.0019838	0.0027499	0.00073317	538.79	2.6403e-05	3.0382e-05	822.5	188	2.8688e-05	2.9935e-05	360.31	174.84	80.744	22.464	3.0959e-05	75.115	188.637	278.755	334.106	6.003	156.853	65.984	6.423	11.149	186.831	182.433	11.970	15.957	17.298	20.896	178.074	19.255	-8191	255	
3012.628	1	1	0	0	0.086199	0.084775	0.071251	0.036241	0.037271	0.09943	0.38765	0.099064	0.37615	0.28566	0.21122	0.088121	0.18226	0.088152	0.083614	0.27272	-2.0271	-2.7812	-3.075	-2.3167	-3.2104	-2.875	-2.6229	-3.2833	-2.5542	-2.7896	-3.4458	-2.625	-3.0083	-2.9292	-2.4604	-3.4625	27.023	166.383	39.110	215.995	240.092	3.295	346.508	290.912	225.579	290.156	328.373	340.228	-4.993	31.505	231.458	307.249	0.00021247	0.00067535	7.2915e-05	706.32	6.0995e-06	7.1342e-06	1077.7	245.28	1.0485e-05	1.6256e-05	474.68	226.14	100.48	27.671	6.2429e-06	96.211	0.0021156	0.0028703	0.00077769	541.69	2.9047e-05	3.355e-05	823.66	188.27	3.1435e-05	3.3609e-05	364.84	174.56	80.299	22.079	3.5049e-05	74.453	127.058	24.235	119.971	5.844	257.431	142.299	6.874	11.155	194.636	128.419	11.535	16.132	17.183	21.441	135.277	19.090	-8191	255	
3012.724	1	1	0	0	0.14752	0.068092	0.1899	0.089136	0.24341	0.07272	0.14138	0.24114	0.12333	0.17823	0.15268	0.094922	0.13979	0.2227	0.087313	0.2931	-2.1917	-2.7458	-3.0125	-2.3854	-3.0833	-2.8875	-2.4896	-3.3312	-2.7625	-2.7271	-3.4938	-2.45	-3.0292	-3.0438	-2.2875	-3.2792	17.156	225.734	270.184	-0.840	220.260	44.224	321.571	300.273	103.665	262.062	324.895	116.371	251.846	288.018	150.212	320.564	0.00030237	0.00032955	0.00049188	708.52	2.5122e-06	2.9611e-06	1074.3	239.76	4.2869e-06	2.3463e-05	483.46	226.93	100.06	27.746	2.4336e-05	97.522	0.0023169	0.0032271	0.00088377	542.17	3.4448e-05	3.6857e-05	821.2	185.46	3.5079e-05	4.0457e-05	372.6	175.24	81.898	22.348	3.828e-05	75.176	177.657	195.294	122.284	5.564	45.393	89.935	6.567	11.270	230.596	120.561	11.371	16.244	16.415	21.816	221.818	19.526	-8191	255	
3012.820	1	1	0	0	0.036462	0.078817	0.076237	0.1488	0.1573	0.078559	0.15152	0.10923	0.039543	0.15801	0.33604	0.073469	0.15306	0.12421	0.13647	0.20028	-2.3167	-2.5604	-3.3396	-2.575	-2.8729	-3.0687	-2.6917	-3.2958	-2.8479	-2.8021	-3.4125	-2.5042	-2.9313	-3.2604	-2.5812	-3.4333	30.297	312.763	186.435	343.815	221.422	332.000	77.101	8.775	335.748	291.465	10.546	293.703	5.241	78.407	69.807	342.314	0.00035645	0.00073106	0.00011037	698.8	8.796e-06	1.6439e-05	1072.6	241.31	4.6907e-06	2.1463e-06	482.71	222.79	101.67	28.078	9.2505e-06	96.977	0.0025452	0.0035185	0.00093338	534.02	3.7206e-05	3.856e-05	812.73	186.86	3.7315e-05	4.2047e-05	372.21	173.17	83.046	22.421	3.9682e-05	74.531	167.461	121.149	111.010	5.644	184.769	97.253	7.203	11.578	215.991	32.496	11.311	15.919	18.295	21.601	116.098	19.433	-8191	255	
3012.892	1	1	0	0	0.24326	0.10376	0.084793	0.26535	0.06605	0.41805	0.095362	0.15701	0.23883	0.04283	0.20427	0.25742	0.16018	0.066689	0.13115	0.095277	-2.3958	-2.4354	-3.3292	-2.7708	-2.8688	-3.2667	-2.4437	-3.3646	-2.9958	-2.4792	-3.3	-2.8521	-2.9104	-3.2229	-2.4667	-3.15	149.556	209.002	296.903	64.353	260.633	177.476	351.100	352.759	253.441	132.517	228.038	316.692	134.058	304.485	107.474	347.319	0.00020412	0.00043775	0.0001184	686.28	9.9104e-06	2.1357e-05	1056.1	238.57	8.6823e-06	2.271e-05	476.82	222.74	100.61	27.74	2.39e-06	95.7	0.0025914	0.0037073	0.00099607	531.89	3.8524e-05	3.768e-05	804.69	186.26	3.6786e-05	4.0676e-05	369.69	173.38	82.692	22.28	3.883e-05	73.885	175.060	282.617	28.930	5.757	190.205	62.321	6.218	11.341	198.045	311.141	11.151	15.900	17.153	21.190	180.381	19.354	-8191	255	
3013.013	1	1	0	0	0.09558	0.12937	0.1991	0.16098	0.069727	0.055314	0.36473	0.14226	0.079089	0.16501	0.18592	0.23191	0.1099	0.17699	0.16854	0.25758	-2.7229	-2.4479	-3.2687	-2.7708	-2.7167	-3.1417	-2.7396	-3.0812	-3.1188	-2.5333	-3.3417	-2.9104	-2.5771	-3.3896	-2.5521	-3.0187	71.354	241.796	26.958	269.137	294.212	202.057	-0.367	326.418	118.843	120.777	283.336	300.576	209.757	53.751	238.569	313.175	0.00036175	0.0020638	0.00010522	684.66	4.1565e-06	2.2327e-05	1042.1	240.2	1.5249e-06	2.3954e-05	481.67	221.02	99.828	27.451	5.1547e-06	96.698	0.0026363	0.0035608	0.00098141	528.62	3.7847e-05	3.6502e-05	799.31	186.34	3.4776e-05	3.9212e-05	368.97	171	80.785	22.043	3.6052e-05	74.095	167.462	102.122	158.513	6.284	261.007	4.755	6.574	10.650	44.252	122.298	11.916	15.995	17.557	21.243	90.348	19.380	-8191	255	
3013.109	1	1	0	0	0.12723	0.12877	0.10411	0.10083	0.14794	0.12997	0.32558	0.21205	0.060328	0.28907	0.15283	0.18615	0.035163	0.10522	0.27863	0.24774	-2.8208	-2.4	-3.2687	-2.8458	-2.6292	-3.3625	-2.6458	-2.8458	-3.1375	-2.6146	-3.3563	-2.8271	-2.5687	-3.3625	-2.5521	-2.9417	157.483	300.869	349.372	315.385	203.709	333.585	257.508	19.232	192.102	155.847	298.179	250.343	308.752	119.703	245.897	263.410	0.00014707	0.0010216	0.00044917	676.34	1.359e-05	1.8636e-05	1041.6	243.69	4.4325e-06	8.5238e-06	485.73	222.94	100.73	28.618	8.2566e-06	98.683	0.002339	0.003315	0.00088649	520.04	3.4029e-05	3.2998e-05	794.39	188.33	3.0658e-05	3.4066e-05	371.62	172.22	81.271	22.615	3.0812e-05	76.217	154.896	97.073	63.376	6.460	76.261	113.207	6.614	11.104	122.075	23.385	12.215	15.883	16.960	21.161	249.537	19.370	-8191	255	
3013.205	1	1	0	0	0.012667	0.044502	0.15916	0.23029	0.23045	0.027171	0.31401	0.14438	0.035948	0.2616	0.06236	0.1629	0.13843	0.041657	0.24408	0.3406	-2.8438	-2.4688	-3.1562	-3.1375	-2.5896	-3.4313	-2.7625	-2.8229	-3.3479	-2.3875	-3.1562	-3.2021	-2.425	-3.3021	-3.0021	-2.8125	91.864	56.801	41.773	262.017	153.922	4.967	213.638	39.568	335.466	134.431	266.087	340.760	61.722	-3.260	151.440	262.694	0.00019997	0.00035346	0.00032393	682.9	1.6905e-05	3.0552e-06	1043.1	244.62	1.1673e-05	1.298e-06	486.62	226.57	100.23	29.136	5.0105e-06	99.74	0.0020023	0.0029457	0.00080804	523.37	3.014e-05	2.9297e-05	798.91	188.43	2.9593e-05	3.2983e-05	372.48	173.47	79.958	23.109	2.9657e-05	77.185	164.850	107.860	313.846	6.425	123.086	94.847	6.807	11.750	176.700	30.650	11.278	15.698	17.902	20.962	293.082	19.282	-8191	255	
3013.301	1	1	0	0	0.03054	0.099367	0.27944	0.16974	0.11635	0.096175	0.22769	0.27263	0.17196	0.10588	0.22645	0.17322	0.15634	0.10158	0.13153	0.1524	-3.0771	-2.4	-2.9854	-3.2	-2.4333	-3.3771	-2.8646	-2.6292	-3.3271	-2.5292	-2.9688	-3.2625	-2.3187	-3.1625	-2.8958	-2.7917	55.511	145.845	155.903	260.074	324.395	93.482	213.030	328.654	272.808	3.287	308.569	258.259	262.786	226.873	261.640	234.936	0.0004412	0.00035639	7.0842e-05	679.97	4.4471e-06	2.3123e-05	1044.7	236.17	8.8936e-06	8.2294e-06	482.6	221.74	96.017	29.126	2.8577e-06	98.148	0.0020026	0.0029885	0.00080868	522.22	3.1996e-05	3.2048e-05	793.06	183.36	3.0124e-05	3.2632e-05	369.46	171.29	78.101	23.042	3.1239e-05	75.75	159.306	117.193	243.494	5.900	178.972	133.532	6.998	11.052	197.132	63.830	11.419	15.612	17.499	20.835	114.393	19.287	-8191	255	
3013.420	1	1	0	0	0.14534	0.17769	0.12177	0.063634	0.15299	0.18205	0.14403	0.2552	0.2181	0.23348	0.056693	0.080702	0.13821	0.13817	0.1679	0.40411	-2.8771	-2.6479	-2.9146	-3.1896	-2.5833	-3.1333	-3.0167	-2.6896	-3.3937	-2.7062	-2.7438	-3.4313	-2.5104	-3.1083	-3.0042	-2.7333	207.937	286.935	290.820	236.633	267.812	218.628	331.469	322.236	299.389	102.818	66.342	190.625	294.032	342.357	280.657	351.814	0.00037723	0.0014717	0.00055008	679	8.2999e-06	2.0256e-05	1046.6	235.47	1.1628e-05	6.7771e-06	470.95	221.81	97.263	28.732	1.7997e-05	98.111	0.0019857	0.0029515	0.00088105	522.09	3.2012e-05	3.2697e-05	791.16	181.6	3.0187e-05	3.2316e-05	365.76	170.91	77.971	22.899	3.2361e-05	75.596	152.670	103.379	74.372	6.786	230.189	194.180	6.889	11.109	192.713	241.210	11.663	15.985	17.096	21.070	162.463	18.857	-8191	255	
3013.493	1	1	0	0	0.21789	0.17855	0.25494	0.22348	0.24845	0.12582	0.063104	0.1623	0.18978	0.077882	0.15446	0.17178	0.19395	0.15604	0.10092	0.094228	-2.7979	-2.4625	-2.5875	-3.3167	-2.2687	-3.2042	-3.1646	-2.5771	-3.3708	-2.8479	-2.8375	-3.3292	-2.5146	-3.1125	-3.2083	-2.7042	127.055	144.325	64.062	328.345	79.137	289.212	58.509	307.697	47.021	190.681	311.831	-5.468	342.842	248.588	94.760	331.033	0.00030023	0.00096583	0.00012486	686.21	6.9964e-06	2.1453e-05	1032.6	234.91	8.4643e-06	1.3024e-05	474.13	222.22	98.155	28.869	3.1693e-06	97.853	0.002131	0.003085	0.00092358	527.49	3.3403e-05	3.4726e-05	792.56	180.99	3.2921e-05	3.5282e-05	366.28	172.09	79.244	22.976	3.4144e-05	75.381	195.505	278.109	103.853	5.941	294.457	145.334	6.834	11.560	263.640	287.255	11.844	16.254	16.937	21.595	90.869	19.425	-8191	255	
3013.612	1	1	0	0	0.091859	0.10191	0.28178	0.12463	0.17968	0.1623	0.19501	0.2729	0.36951	0.26155	0.14239	0.27683	0.22554	0.058486	0.070999	0.1352	-2.9417	-2.7833	-2.7021	-3.5604	-2.4521	-3.0021	-3.2271	-2.5167	-3.2979	-2.9125	-2.7104	-3.3875	-2.5667	-2.9625	-3.1375	-2.7875	304.797	73.150	343.965	196.346	128.031	88.211	275.932	1.010	118.902	-4.564	94.681	164.500	300.866	230.361	96.461	292.578	0.00032856	0.0007128	0.00019798	691.88	1.4243e-05	1.837e-05	1053.9	235.42	9.482e-06	2.0196e-05	480.29	220.26	94.416	28.689	1.5111e-05	99.66	0.0022917	0.0032135	0.0009126	531.81	3.1448e-05	3.6476e-05	803.56	182.38	3.1699e-05	3.1612e-05	369.26	170.4	76.694	22.808	2.8568e-05	76.505	166.693	5.462	36.451	5.883	150.962	187.502	6.509	11.090	184.920	216.775	11.132	16.022	16.802	21.220	272.903	18.648	-8191	255	
3013.708	1	1	0	0	0.22383	0.1103	0.067667	0.084536	0.30206	0.27242	0.49179	0.33052	0.1632	0.064855	0.27029	0.17883	0.17763	0.03523	0.0901	0.11188	-2.7625	-3.0125	-2.4625	-3.3896	-2.7646	-2.7708	-3.2938	-2.3167	-3.1063	-2.9917	-2.6229	-3.3083	-2.6104	-2.7979	-3.3458	-2.6542	238.262	306.557	274.498	45.087	290.788	250.899	290.595	241.493	182.351	232.518	334.647	317.525	269.988	331.466	132.637	345.512	0.00022558	0.00048167	0.00030191	688.62	4.7187e-06	1.2249e-05	1072.4	243.9	5.0996e-06	1.1355e-05	487.8	225.04	95.81	28.92	4.4298e-06	101.52	0.0019432	0.0026744	0.00075452	528.65	2.7448e-05	3.0986e-05	810.74	187.14	2.8184e-05	2.8898e-05	375.57	173.63	77.133	23.179	2.8055e-05	77.675	176.792	130.301	110.407	5.656	106.396	288.452	6.115	10.875	235.890	141.633	11.233	15.960	16.731	20.878	221.846	19.074	-8191	255	
3013.805	1	1	0	0	0.039315	0.19881	0.03359	0.30508	0.31238	0.0818	0.057828	0.26249	0.117	0.22596	0.10019	0.26846	0.27279	0.19496	0.11509	0.33749	-2.8396	-3.1479	-2.3167	-3.2938	-2.8542	-2.6083	-3.4583	-2.6396	-3.1188	-3.2229	-2.625	-3.3167	-2.7292	-2.6292	-3.0667	-2.7729	173.539	247.717	351.808	13.292	20.662	121.470	260.898	302.199	139.094	335.255	4.755	349.945	161.645	145.459	282.269	319.322	0.00034583	0.0015807	0.00025378	703.44	1.2691e-05	1.4945e-05	1075.2	240.9	4.3339e-06	1.2691e-05	487.73	221.47	98.407	28.435	9.0076e-06	97.664	0.0020679	0.0027711	0.00079808	534.82	3.1131e-05	3.5632e-05	818.08	184.97	3.4976e-05	3.4255e-05	373.45	172.84	80.097	22.717	3.5503e-05	74.873	144.370	102.207	88.206	6.084	137.064	112.580	7.046	10.881	131.760	207.492	11.614	15.744	16.756	21.200	162.094	19.384	-8191	255	
3013.901	1	1	0	0	0.16894	0.19057	0.25507	0.13684	0.026861	0.051993	0.098019	0.030472	0.058033	0.12671	0.37042	0.14035	0.17245	0.18579	0.13405	0.10216	-2.6271	-3.2104	-2.5354	-3.1729	-2.8833	-2.475	-3.4562	-2.5625	-2.75	-3.1813	-2.6063	-3.1667	-3.1208	-2.5917	-3.3271	-2.8354	114.748	10.399	11.668	21.231	6.845	142.540	3.477	294.531	350.815	284.629	328.634	307.745	155.286	324.958	316.445	341.826	0.00021163	0.0013839	0.00056086	702.07	1.0712e-05	2.0678e-05	1083.6	240.14	6.1376e-06	4.2484e-06	480.83	221.56	98.411	27.984	1.3509e-05	96.666	0.0025183	0.0032737	0.00097163	542.58	3.3834e-05	3.8281e-05	824.2	184.47	3.5095e-05	3.4312e-05	370.05	171.78	79.144	22.328	3.3728e-05	74.726	183.463	54.012	34.171	5.603	205.727	145.468	6.568	10.610	247.190	57.662	11.820	15.640	17.255	21.531	100.197	19.019	-8191	255	
3014.021	1	1	0	0	0.039874	0.26053	0.074825	0.095584	0.16465	0.081893	0.16741	0.07905	0.25178	0.19176	0.18661	0.22285	0.10688	0.43878	0.070346	0.098756	-2.5208	-3.2354	-2.525	-3.2542	-3.1	-2.6188	-3.5021	-2.7479	-2.7896	-3.2167	-2.75	-3.1937	-3.1333	-2.5062	-3.3438	-2.8667	117.357	268.521	24.471	32.629	153.205	177.357	344.003	294.525	236.801	155.451	279.149	288.853	155.110	168.634	31.095	40.392	0.00042558	0.0011397	0.00033988	712.44	3.1751e-06	9.9685e-06	1088.7	235	1.1658e-05	1.2099e-05	483.18	224.2	98.52	28.188	4.0687e-06	97.395	0.0024744	0.0031665	0.00092171	544.52	3.165e-05	3.7488e-05	824.98	181.97	3.4134e-05	3.4188e-05	369.48	172.92	79.288	22.383	3.4914e-05	74.878	173.621	268.420	98.728	5.883	137.532	92.604	6.290	11.359	43.650	84.496	11.816	16.127	16.822	21.216	62.753	19.312	-8191	255	
3014.118	1	1	0	0	0.23908	0.19386	0.23334	0.14749	0.21219	0.061573	0.28987	0.34635	0.28483	0.032339	0.03137	0.15439	0.40149	0.30129	0.10315	0.14423	-2.4146	-3.0083	-2.5854	-3.075	-3.2062	-2.6188	-3.3542	-2.7729	-2.7438	-3.2792	-2.7875	-3.0396	-3.2771	-2.5625	-3.2021	-3.1125	346.837	220.208	86.910	58.932	118.107	314.370	310.222	283.982	23.860	299.663	268.953	351.534	48.590	45.912	350.230	270.590	0.00038359	0.0023614	0.0002827	714.15	1.1664e-05	8.5579e-06	1088.1	235.46	1.4277e-05	1.2573e-05	486.83	222.58	99.897	28.05	1.9636e-05	98.469	0.0024124	0.0031377	0.00089552	546.83	3.2578e-05	3.6931e-05	830.99	181.75	3.4257e-05	3.5357e-05	372.02	172.74	80.387	22.353	3.5228e-05	75.432	151.511	41.139	233.067	6.093	132.532	93.415	6.563	11.630	142.403	21.897	10.648	16.004	16.058	20.969	135.422	18.959	-8191	255	
3014.189	1	1	0	0	0.25943	0.14203	0.12113	0.16521	0.26513	0.15002	0.39517	0.31042	0.16457	0.10172	0.082926	0.16226	0.080079	0.073892	0.21013	0.31136	-2.2438	-3.3583	-2.575	-2.9375	-3.2604	-2.4625	-3.2542	-2.9938	-2.6958	-3.3667	-2.8771	-2.9417	-3.2125	-2.5604	-3.1708	-3.3604	-5.254	134.969	145.004	31.088	183.808	325.370	297.094	295.647	345.371	67.515	136.669	346.404	103.102	259.212	218.770	15.463	0.00024002	0.0012676	0.00052708	719.88	3.6997e-06	1.7545e-05	1095.3	240.02	9.5195e-06	4.9476e-06	488.58	223.76	96.577	28.766	7.3962e-06	98.655	0.002344	0.0030156	0.00086928	551.39	3.0148e-05	3.1812e-05	836.02	184.43	2.9569e-05	3.0053e-05	372.24	172.07	76.996	22.569	2.8007e-05	76.181	154.774	97.786	21.258	5.926	340.328	158.029	6.702	10.780	220.127	99.466	11.324	16.225	17.017	21.760	142.206	18.575	-8191	255	
3014.310	1	1	0	0	0.11773	0.082841	0.19465	0.06703	0.16691	0.1149	0.14454	0.15032	0.13041	0.21564	0.060708	0.27713	0.13519	0.25765	0.26619	0.24338	-2.1083	-3.2167	-2.6	-2.7333	-3.3792	-2.6083	-3.1937	-3.2687	-2.6479	-3.4104	-2.9875	-2.9562	-3.2062	-2.4604	-3.025	-3.3771	252.621	315.901	129.460	157.202	348.870	296.238	285.982	304.953	144.161	187.086	52.846	315.528	47.748	8.894	176.704	304.889	0.00035687	0.0013538	0.00032709	712.93	1.2331e-05	1.2334e-05	1111.1	237.93	1.2242e-05	2.2173e-05	484.08	220.83	96.537	28.037	9.036e-06	97.283	0.0019821	0.0026088	0.00074215	544.94	2.6725e-05	2.9697e-05	844.29	182.66	2.8063e-05	2.973e-05	369.94	170.05	76.05	22.148	3.0283e-05	74.556	139.362	13.967	320.132	6.025	218.112	165.454	6.324	10.639	337.726	154.612	11.615	15.905	17.128	20.988	191.427	18.860	-8191	255	
3014.404	1	1	0	0	0.052711	0.063171	0.069343	0.22249	0.16157	0.142	0.23967	0.29154	0.17261	0.17949	0.082279	0.091056	0.050872	0.10567	0.028286	0.15302	-1.95	-3.3542	-2.8521	-2.7687	-3.2313	-2.5812	-3.0458	-3.2542	-2.6063	-3.2979	-3.0583	-2.6229	-3.3563	-2.6396	-2.7979	-3.2979	317.186	314.488	126.211	309.760	119.014	17.462	275.259	253.252	40.925	115.888	261.826	278.851	198.382	73.647	63.149	259.793	0.00043061	0.0007872	0.00026001	716.63	5.3256e-06	6.1584e-06	1105.4	240.53	5.5436e-06	9.1976e-06	487.5	220.04	94.83	27.666	5.0895e-06	96.732	0.0020176	0.0026778	0.00071857	543.11	2.6872e-05	2.8321e-05	842.38	185.22	2.7287e-05	2.9986e-05	372.39	169.75	75.813	21.985	2.9328e-05	74.888	165.025	113.434	110.808	5.626	235.880	81.624	6.558	10.814	70.345	85.789	11.087	16.017	17.695	21.090	16.947	18.780	-8191	255	
3014.500	1	1	0	0	0.18149	0.091202	0.040344	0.10985	0.13943	0.19051	0.22761	0.084815	0.078195	0.27643	0.22749	0.096927	0.17122	0.22994	0.16249	0.10188	-2.2562	-3.0646	-3.0146	-2.3292	-3.3708	-2.8229	-2.9396	-3.3792	-2.5104	-3.0312	-3.0917	-2.5542	-3.2354	-2.775	-2.8542	-3.5625	204.029	191.886	272.594	290.992	130.542	80.878	327.312	339.801	254.629	344.811	348.226	347.335	315.123	40.046	279.186	263.802	0.00038054	0.0014957	0.00015181	707.72	7.8525e-06	6.1814e-06	1121.6	240.8	6.331e-06	2.9076e-06	485.45	216.96	94.122	28.008	4.9414e-06	97.516	0.0019941	0.0027127	0.00071461	542.33	2.6778e-05	2.8121e-05	849.5	184.35	2.5844e-05	2.9281e-05	370.85	167.22	74.899	21.931	2.7464e-05	74.828	179.547	116.153	299.487	5.678	278.590	180.965	6.438	10.912	55.022	319.657	11.385	15.761	17.142	20.641	196.411	18.770	-8191	255	
3014.597	1	1	0	0	0.24504	0.26245	0.11584	0.17671	0.12062	0.23658	0.24491	0.12881	0.15335	0.12611	0.23234	0.088668	0.11363	0.058515	0.12336	0.21343	-2.1813	-3.1021	-3.1458	-2.4	-3.2812	-2.8187	-2.7771	-3.3458	-2.6792	-2.9146	-3.3167	-2.5563	-3.2229	-3.0646	-2.6167	-3.3187	126.059	96.529	-0.327	204.898	339.628	246.197	310.398	29.028	289.137	274.549	340.827	304.303	349.685	203.710	199.627	321.716	0.00041112	0.0018235	0.00023291	709.85	1.385e-05	1.2118e-05	1119.3	238.5	2.4759e-06	1.1459e-05	486.14	221.6	92.774	28.194	5.2561e-06	98.441	0.0018029	0.0025581	0.00068236	537.9	2.6776e-05	2.6156e-05	845.8	184.3	2.6393e-05	2.9315e-05	372.63	169.28	74.633	22.316	2.8226e-05	75.972	149.910	45.565	88.945	5.597	194.851	177.966	5.913	10.891	273.620	65.298	10.943	15.600	17.215	20.625	168.488	18.627	-8191	255	
3014.717	1	1	0	0	0.067981	0.34476	0.16974	0.13785	0.16444	0.088326	0.1087	0.15299	0.20709	0.23346	0.2903	0.19489	0.13819	0.051258	0.3	0.26162	-2.1479	-2.9229	-3.125	-2.5896	-3.2167	-2.9417	-2.6146	-3.4458	-2.5708	-2.8458	-3.2062	-2.5604	-3.1167	-3.1583	-2.5646	-3.3917	328.766	44.960	338.753	14.987	134.761	89.219	176.399	262.673	150.445	292.346	8.572	294.634	268.580	211.846	347.285	200.199	0.00030547	0.0006565	0.00041016	716	7.0921e-06	9.2007e-06	1116.3	241.52	1.1548e-05	8.6778e-06	485.26	216.89	92.817	27.659	6.1654e-06	95.759	0.0018841	0.0026803	0.00070384	544.23	2.749e-05	2.8771e-05	847.4	185.53	2.813e-05	3.0659e-05	371.63	167.9	74.561	22.007	3.0336e-05	73.769	155.980	323.116	81.058	5.567	182.001	158.845	6.709	11.034	155.082	98.524	11.069	16.094	17.461	20.963	20.684	18.819	-8191	255	
3014.789	1	1	0	0	0.10937	0.13989	0.072867	0.18286	0.059567	0.086509	0.17667	0.30545	0.065511	0.13768	0.069975	0.16983	0.16222	0.23852	0.20512	0.16802	-2.3542	-2.7167	-3.2354	-2.4583	-3.1208	-3.1771	-2.7229	-3.3563	-2.7687	-2.7583	-3.4375	-2.5875	-3.0687	-3.1458	-2.5146	-3.3854	86.314	254.156	80.174	14.916	67.752	133.193	217.875	-3.506	146.688	45.580	210.164	351.081	79.199	341.887	82.247	-0.681	0.00020707	0.00093133	0.00038995	712.21	1.4609e-05	1.6404e-05	1114.2	237.92	3.5184e-06	8.2915e-06	477.32	215.02	95.786	27.249	7.3897e-06	94.552	0.0019119	0.003016	0.0007626	544.72	2.9331e-05	2.9957e-05	845.57	182.55	2.9455e-05	3.3271e-05	366.75	167.38	77.475	21.713	3.3572e-05	72.895	147.358	86.326	80.349	5.620	221.099	69.216	6.535	10.516	225.127	318.784	11.571	15.996	17.770	20.996	247.118	18.804	-8191	255	
3014.885	1	1	0	0	0.03347	0.10528	0.2614	0.045583	0.044659	0.39106	0.20758	0.06672	0.18038	0.23559	0.26986	0.22784	0.23013	0.011505	0.19965	0.31157	-2.5271	-2.6042	-3.3229	-2.5667	-2.9062	-3.2042	-2.6396	-3.2458	-2.9188	-2.4938	-3.4271	-2.5583	-2.9583	-3.2208	-2.4688	-3.2896	59.351	211.969	308.514	114.804	58.474	171.361	53.415	137.002	138.292	7.492	319.717	11.398	216.340	319.500	302.666	242.066	0.00025868	0.0014117	0.00040407	710.08	6.4592e-06	3.0198e-05	1110.8	238.97	5.9887e-06	2.758e-06	481.35	216.37	95.112	27.577	9.2984e-06	94.61	0.0020747	0.0031103	0.00079625	545.04	3.019e-05	3.1035e-05	843.29	183.43	2.9718e-05	3.3536e-05	370.08	166.98	77.015	21.611	3.0531e-05	73.226	191.034	347.657	59.684	5.642	105.168	170.027	6.703	11.160	161.023	282.617	10.389	15.793	17.436	21.213	78.834	19.117	-8191	255	
3014.981	1	1	0	0	0.068373	0.18884	0.094454	0.25099	0.055099	0.10004	0.13999	0.15837	0.21176	0.14603	0.34991	0.169	0.35962	0.20338	0.16512	0.28413	-2.5646	-2.6375	-3.3063	-2.7854	-2.8333	-3.2687	-2.65	-3.2125	-3.1271	-2.5229	-3.4771	-2.7812	-2.7792	-3.2604	-2.4708	-3.1521	173.169	11.386	226.495	240.951	256.477	5.765	349.640	225.836	161.189	288.882	305.019	289.121	44.669	294.328	339.892	304.528	0.00028648	0.00093561	0.00032875	713.46	1.2723e-05	1.6261e-05	1116.8	237.03	1.3087e-05	1.7697e-05	484.44	217.04	93.883	27.54	2.2771e-05	97.321	0.0019691	0.0029193	0.00073238	544.06	2.9025e-05	2.9677e-05	846.46	182.65	2.7733e-05	3.07e-05	371	166.82	75.01	21.721	2.8199e-05	74.609	198.575	284.422	77.574	5.712	188.581	64.199	6.046	11.147	79.289	161.706	11.411	15.868	17.073	20.598	159.023	18.764	-8191	255	
3015.102	1	1	0	0	0.19773	0.13964	0.13551	0.12236	0.17827	0.14366	0.33619	0.17556	0.30134	0.063773	0.25616	0.39644	0.15062	0.28844	0.10841	0.36531	-2.8417	-2.6375	-3.25	-2.825	-2.7083	-3.4583	-2.6667	-3.1979	-2.9479	-2.4604	-3.4625	-2.7875	-2.4917	-3.3854	-2.5938	-3.1479	344.243	75.540	156.162	195.817	163.588	310.728	266.380	239.953	230.636	179.181	344.602	3.490	151.239	36.531	66.347	3.992	0.00030925	0.0011358	0.00027733	704.31	1.1287e-05	2.0263e-05	1124.3	239.32	7.8091e-06	6.2007e-06	488.15	216.03	93.604	27.489	8.792e-06	96.591	0.001868	0.0026688	0.0007275	540.97	2.9197e-05	2.9861e-05	854.76	184.84	2.8464e-05	3.2007e-05	373.53	167.49	76.019	21.775	3.1167e-05	74.578	155.997	71.047	83.890	5.363	201.454	101.316	6.189	11.305	287.295	46.350	11.300	15.965	17.669	20.904	276.673	19.318	-8191	255	
3015.198	1	1	0	0	0.21563	0.1413	0.14195	0.22593	0.073564	0.11804	0.16601	0.27695	0.092061	0.15368	0.10733	0.19108	0.1241	0.035061	0.21748	0.24571	-2.8208	-2.4521	-3.2479	-2.8688	-2.6167	-3.3083	-2.7208	-2.8125	-3.2167	-2.3854	-3.3646	-2.9792	-2.5771	-3.3208	-2.7292	-2.9313	221.741	100.123	169.459	315.723	75.271	258.762	310.788	308.608	208.005	288.323	171.231	263.778	256.794	-3.002	28.306	301.337	0.00024321	0.00060465	0.0003832	713.33	9.8917e-06	2.4714e-05	1123.1	238.96	4.9121e-06	1.2017e-05	491.77	217.36	95.507	27.494	4.7348e-06	95.784	0.0019903	0.0029811	0.00079032	544.61	3.1255e-05	3.1938e-05	851.55	185.41	3.0427e-05	3.4181e-05	374.73	168.48	77.201	21.862	3.185e-05	73.703	162.693	209.938	177.558	5.726	213.379	205.129	6.253	11.227	112.999	14.526	11.003	15.965	16.939	21.840	163.684	19.312	-8191	255	
3015.294	1	1	0	0	0.16216	0.23962	0.091176	0.20224	0.28279	0.058644	0.13803	0.16038	0.07985	0.2411	0.27198	0.097561	0.07804	0.24685	0.22378	0.30512	-2.8771	-2.5104	-3.0563	-3.1521	-2.3917	-3.2438	-2.7062	-2.8854	-3.4271	-2.4458	-3.1542	-3.15	-2.5333	-3.2167	-2.8104	-2.8604	308.946	140.650	234.332	76.462	173.002	221.721	319.619	255.736	295.263	-2.925	6.858	216.265	52.151	76.229	258.896	331.881	0.0002224	0.00055158	0.00016686	714.26	8.4284e-06	2.4715e-05	1119.1	236.81	3.5237e-06	1.3048e-05	475.39	215.9	94.287	27.494	4.9234e-06	93.372	0.0021331	0.0030253	0.00083599	545.46	3.2213e-05	3.296e-05	846.56	184.09	2.9632e-05	3.3302e-05	367.51	166.23	76.114	21.622	3.3025e-05	72.286	159.230	66.378	105.434	6.042	224.754	91.871	5.839	10.996	212.366	140.076	11.189	15.828	16.999	21.310	10.339	19.260	-8191	255	
3015.390	1	1	0	0	0.062219	0.036289	0.060556	0.070553	0.11429	0.22188	0.17461	0.10472	0.12396	0.18513	0.065241	0.14575	0.18244	0.11063	0.084415	0.22136	-2.9896	-2.4437	-3.0375	-3.1854	-2.4854	-3.3896	-2.8563	-2.6917	-3.3771	-2.8083	-3.0438	-3.4208	-2.3563	-3.1646	-2.8917	-2.5958	230.405	215.902	160.041	134.108	217.220	346.240	308.180	225.478	257.213	321.382	23.931	272.717	346.676	61.071	77.963	285.000	0.00029657	0.0015407	0.00028722	714.37	5.2669e-06	1.9267e-05	1108	236.4	5.4514e-06	1.6904e-05	475.41	217.3	96.143	26.547	1.6812e-05	93.661	0.0021654	0.0029766	0.00087785	547.76	3.2543e-05	3.4027e-05	847.58	182.87	3.1009e-05	3.4821e-05	366.76	166.94	77.641	21.449	3.3979e-05	72.363	183.729	195.483	162.501	5.690	317.016	173.612	5.943	10.952	203.878	126.215	11.020	15.891	17.011	21.248	175.946	19.736	-8191	255	
3015.486	1	1	0	0	0.25492	0.10759	0.35758	0.16127	0.1771	0.073989	0.36105	0.1392	0.20204	0.32687	0.2689	0.27809	0.16862	0.098892	0.044911	0.050097	-2.9833	-2.6854	-2.95	-3.3833	-2.4813	-2.9667	-3.0917	-2.5583	-3.2917	-2.6833	-2.8937	-3.3104	-2.5083	-3.2104	-2.9354	-2.6	238.018	200.210	241.665	290.409	133.070	53.463	295.279	254.561	187.102	311.430	27.341	348.184	92.071	2.231	327.649	306.693	0.00034706	0.0015074	0.00024842	716.88	1.4059e-05	1.5846e-05	1114.9	236.71	2.9058e-06	1.0376e-05	480.05	218.4	98.553	26.627	1.2113e-05	94.33	0.0023632	0.0032054	0.00097897	549.8	3.4835e-05	3.7896e-05	853.03	183.44	3.3867e-05	3.7026e-05	368.76	169.36	79.757	21.485	3.3962e-05	72.966	155.318	11.192	131.347	5.874	176.004	159.101	6.497	10.687	116.870	337.738	11.008	15.594	17.375	21.816	239.212	19.643	-8191	255	
3015.583	1	1	0	0	0.25734	0.10205	0.091953	0.13737	0.19276	0.22385	0.28301	0.21571	0.060496	0.19221	0.081896	0.075915	0.14528	0.39791	0.11601	0.075049	-3.1729	-2.6375	-2.5792	-3.3875	-2.425	-3.0458	-3.0542	-2.5979	-3.1937	-2.7479	-2.8521	-3.5396	-2.6437	-3.0667	-3.0396	-2.5625	91.372	327.843	290.671	197.739	2.186	79.517	332.454	329.233	148.190	166.098	342.186	155.038	182.605	21.478	107.454	281.655	0.00042184	0.0014653	0.00074551	717.05	6.0069e-06	1.3621e-05	1130	235.55	1.1019e-05	1.957e-05	481	222.94	98.229	26.83	1.2262e-05	95.709	0.002438	0.0032053	0.00097549	552.09	3.5163e-05	3.8367e-05	857.08	183.94	3.5027e-05	3.7863e-05	370.97	171.81	79.718	21.611	3.545e-05	73.586	166.411	99.471	130.079	5.590	114.928	175.484	6.028	11.098	259.729	142.494	11.598	16.108	17.133	20.606	225.201	19.484	-8191	255	
3015.701	1	1	0	0	0.15502	0.19717	0.11722	0.22612	0.20419	0.31276	0.20033	0.21087	0.2317	0.19154	0.094185	0.42359	0.15555	0.18202	0.095446	0.053315	-2.9521	-2.9104	-2.5583	-3.4271	-2.5521	-2.8229	-3.2208	-2.5667	-3.3104	-2.8333	-2.7083	-3.4854	-2.5521	-2.6896	-3.3208	-2.6688	167.079	195.656	162.729	339.944	330.822	181.346	234.611	291.400	315.163	44.672	67.294	309.267	97.540	209.931	215.317	295.530	0.00044432	0.0011621	0.0004202	710.05	2.985e-06	1.6033e-05	1123.3	237.6	2.1802e-06	1.4509e-05	478.38	218.44	98.441	26.434	8.3945e-06	92.9	0.0024165	0.0032295	0.0010051	547.55	3.4155e-05	3.8897e-05	857.5	184.4	3.4647e-05	3.6625e-05	369.04	169.45	79.103	21.37	3.2827e-05	71.864	159.735	163.109	69.010	6.263	90.323	150.639	6.008	11.067	343.372	138.246	10.951	15.701	17.683	21.620	49.241	19.255	-8191	255	
3015.798	1	1	0	0	0.23769	0.34043	0.177	0.15209	0.020492	0.12808	0.0792	0.14177	0.18274	0.12705	0.10023	0.41497	0.06594	0.24689	0.16051	0.026924	-2.7271	-2.8729	-2.3771	-3.3667	-2.5875	-2.7938	-3.2708	-2.4042	-3.0792	-3.0812	-2.675	-3.4583	-2.7	-2.6813	-3.1937	-2.6437	232.278	122.851	281.366	295.935	25.595	34.346	215.679	32.359	327.629	214.277	315.186	294.494	141.454	217.318	255.737	82.527	0.00038363	0.0012253	0.00077968	711.52	4.4497e-06	2.5127e-05	1121.3	236.35	8.0291e-06	1.8683e-05	477.18	216.36	97.227	26.625	2.524e-06	94.552	0.0023358	0.0030349	0.00093554	548.86	3.2993e-05	3.6012e-05	855.36	183.9	3.3253e-05	3.3282e-05	366.55	167.43	78.429	21.325	3.0743e-05	72.539	137.630	50.427	59.239	5.572	198.735	172.905	6.301	10.995	209.732	299.174	11.154	15.424	17.085	21.156	197.898	19.004	-8191	255	
3015.894	1	1	0	0	0.40703	0.099564	0.22298	0.073429	0.085793	0.3381	0.20763	0.36835	0.06546	0.21107	0.14305	0.13573	0.20886	0.2935	0.21278	0.29223	-2.6729	-3.1437	-2.3708	-3.3312	-2.7458	-2.6396	-3.3	-2.6437	-3.1229	-3.1833	-2.4771	-3.3625	-2.9583	-2.5479	-3.3021	-2.6688	121.794	35.988	216.494	60.993	142.596	254.998	276.978	-4.640	79.272	323.487	312.957	36.789	315.005	-1.703	253.042	272.828	0.00033225	0.00061441	0.00012466	726.08	1.4022e-05	3.9628e-06	1130.7	241.07	9.7688e-06	1.2869e-05	482.38	220.32	99.228	27.147	4.6827e-06	94.834	0.0022868	0.0031101	0.00089157	553.94	3.2796e-05	3.6754e-05	859.34	186.22	3.5147e-05	3.5325e-05	371.79	171.34	80.825	21.7	3.5084e-05	73.387	164.409	217.935	119.801	5.777	161.184	274.968	6.455	11.240	167.633	185.174	10.813	15.625	16.480	20.700	36.381	18.777	-8191	255	
3016.014	1	1	0	0	0.16444	0.15637	0.2288	0.018342	0.034965	0.10182	0.26313	0.26664	0.2417	0.17098	0.19902	0.16141	0.063828	0.12946	0.054074	0.076957	-2.7021	-2.9917	-2.4604	-3.1604	-2.975	-2.5792	-3.575	-2.7125	-2.7646	-3.2188	-2.4604	-3.2313	-3.0896	-2.4521	-3.3125	-2.8312	275.395	1.571	332.073	143.511	56.750	219.789	299.727	287.387	129.811	298.445	328.238	329.712	324.850	300.375	112.409	1.620	0.0002646	0.0011149	0.00034917	722.27	8.9037e-06	1.4092e-05	1130.1	241.56	1.444e-06	1.0733e-05	481.99	219.78	97.225	27.102	9.0783e-06	97.109	0.0024437	0.0033718	0.00091691	557.82	3.3349e-05	3.6432e-05	860.33	186.54	3.4295e-05	3.4476e-05	371.33	170.4	77.907	21.738	3.2193e-05	74.302	167.426	144.524	130.863	6.141	59.066	54.636	6.028	10.449	276.287	298.407	11.233	16.013	16.759	21.668	144.944	18.786	-8191	255	
3016.086	1	1	0	0	0.25928	0.1564	0.063704	0.050947	0.20901	0.099886	0.21334	0.20585	0.049774	0.20409	0.21033	0.18602	0.174	0.19572	0.27809	0.25042	-2.4729	-3.2104	-2.4521	-3.2396	-2.9875	-2.5938	-3.4437	-2.6896	-2.6708	-3.25	-2.5854	-3.1792	-3.2292	-2.4896	-3.4167	-2.9521	8.103	289.738	43.444	282.684	299.177	228.553	6.212	314.061	10.757	224.245	266.647	293.736	286.736	332.134	167.825	215.714	0.0003111	0.00024307	0.0002276	710.62	6.5119e-06	6.2404e-06	1126.7	238.67	2.1702e-06	1.8314e-05	483.24	221.29	97.888	27.565	7.5058e-06	97.456	0.0022018	0.0029418	0.00076518	545.75	2.7624e-05	3.245e-05	854.56	184.23	2.9749e-05	3.0363e-05	369.46	169.95	77.461	21.843	2.9852e-05	74.827	146.253	238.955	349.918	6.201	202.876	102.311	6.443	11.003	-3.306	102.949	11.293	15.330	16.192	20.945	244.557	18.587	-8191	255	
3016.182	1	1	0	0	0.16676	0.23028	0.10489	0.13788	0.045495	0.10745	0.10318	0.37119	0.14741	0.17546	0.38876	0.36934	0.04031	0.097812	0.19361	0.18859	-2.2479	-3.1354	-2.5208	-2.9854	-3.0708	-2.5083	-3.2458	-2.9688	-2.4604	-3.3167	-2.4979	-3.0104	-3.1688	-2.2188	-3.2521	-2.9542	168.132	299.883	196.765	18.311	35.537	42.142	228.372	311.248	5.761	203.365	334.228	312.429	307.527	9.355	292.525	288.159	0.00037486	0.00096472	0.00052078	719.09	9.7813e-06	9.9829e-06	1121.4	236.63	8.571e-06	1.5971e-05	476.43	217.61	93.89	27.22	5.7857e-06	95.133	0.0020761	0.002768	0.00073274	548.82	2.877e-05	3.2351e-05	849.54	181.82	3.0583e-05	3.0155e-05	365.06	168.49	75.988	21.66	3.0514e-05	73.031	177.896	193.709	28.279	5.578	143.057	155.486	5.879	10.791	146.133	135.666	11.006	15.644	17.422	21.536	62.360	18.496	-8191	255	
3016.278	1	1	0	0	0.20962	0.24125	0.22388	0.13681	0.11041	0.1233	0.3498	0.19166	0.084988	0.064837	0.13995	0.080041	0.04599	0.10761	0.16092	0.065384	-2.2062	-3.3229	-2.6458	-2.8896	-3.1021	-2.4917	-3.2042	-3.1021	-2.5667	-3.3937	-2.725	-2.875	-3.2687	-2.5854	-3.1042	-3.1437	193.269	26.706	232.969	22.171	145.202	154.944	309.977	198.830	262.742	305.883	16.593	309.560	19.056	328.104	-2.681	201.103	0.00022577	0.00049521	0.00023154	710.89	7.8568e-06	9.6888e-06	1119	233.98	9.655e-06	1.1213e-05	474.81	218.1	94.213	27.131	1.5534e-05	94.652	0.0021051	0.0029172	0.00078868	546.38	2.9259e-05	3.2705e-05	848.91	180.53	3.2098e-05	3.3067e-05	365.46	168.09	76.231	21.485	3.2223e-05	73.144	154.819	312.075	233.166	5.275	213.259	162.267	6.314	10.833	181.423	147.431	11.671	15.912	17.096	21.466	219.643	18.731	-8191	255	
3016.397	1	1	0	0	0.15309	0.11954	0.29229	0.19533	0.088823	0.27012	0.37479	0.45815	0.053522	0.14062	0.10279	0.11909	0.2827	0.087078	0.17635	0.25712	-2.1271	-3.3396	-2.7	-2.8375	-3.2854	-2.6042	-3.1042	-3.2271	-2.3646	-3.25	-2.9729	-2.8563	-3.3021	-2.6479	-2.9917	-3.2375	132.654	196.187	37.907	290.889	34.851	114.071	17.871	20.250	90.489	14.548	309.510	297.958	55.751	92.154	253.748	30.705	0.00029524	0.0016771	0.00048787	706.73	6.7127e-06	4.6333e-06	1112.7	232.35	1.331e-05	2.3983e-05	476.66	217.81	95.194	27.438	8.0533e-06	95.316	0.0021817	0.002981	0.00078254	544.81	3.0135e-05	3.2386e-05	847.68	180.16	3.1049e-05	3.26e-05	366.94	167.89	76.653	21.606	3.412e-05	73.645	170.640	83.018	112.999	5.409	163.188	209.166	6.090	10.550	94.319	121.799	10.739	15.705	15.869	21.341	52.103	19.025	-8191	255	
3016.493	1	1	0	0	0.032293	0.27863	0.091594	0.28691	0.17016	0.24599	0.1085	0.16558	0.36427	0.082389	0.16471	0.042007	0.072618	0.17063	0.19432	0.12971	-2.0021	-3.1562	-2.8896	-2.5979	-3.3187	-2.6583	-2.9771	-3.1958	-2.3583	-3.1458	-2.7208	-2.5604	-3.2	-2.5312	-2.7208	-3.4479	318.156	-1.506	157.976	316.473	135.649	47.693	119.132	280.734	241.432	284.395	281.029	287.974	126.441	348.812	107.137	287.336	0.0003321	0.00031592	0.00029648	716.98	1.6627e-05	1.6534e-05	1129.4	232.04	4.9325e-06	1.3234e-05	473.06	217.25	93.99	27.198	1.7075e-05	95.438	0.0022154	0.0030685	0.00082181	550.54	3.0488e-05	3.3767e-05	856.67	180.37	2.9382e-05	3.291e-05	363.57	167.99	75.673	21.535	3.3812e-05	73.731	153.005	344.431	133.176	5.329	218.816	170.012	6.085	11.028	27.990	148.556	11.128	15.557	16.811	20.801	68.826	19.056	-8191	255	
3016.589	1	1	0	0	0.098055	0.10003	0.049078	0.17522	0.089392	0.16074	0.13427	0.16519	0.11232	0.12586	0.18235	0.40006	0.11004	0.20555	0.1513	0.25295	-1.9833	-3.1104	-3.0375	-2.6625	-3.2687	-2.7792	-2.8812	-3.2188	-2.4688	-2.8771	-3.1104	-2.6292	-3.4229	-2.9354	-2.7812	-3.5062	245.002	74.375	5.188	276.664	215.277	103.452	260.407	290.459	122.712	108.341	306.840	268.768	10.779	334.943	99.028	264.326	0.00041285	0.0010485	0.00027289	721.9	6.7859e-06	1.6477e-05	1137.8	237.24	1.0713e-05	1.5475e-05	483.35	219.48	95.03	26.973	4.2291e-06	94.001	0.0021604	0.0031222	0.00078485	553.03	3.0705e-05	3.2109e-05	864.43	183.4	3.0767e-05	3.497e-05	372.8	169.2	78.061	21.412	3.5825e-05	72.649	155.234	160.865	41.485	5.985	108.624	97.681	5.989	10.708	160.832	177.618	11.307	15.601	17.261	21.393	150.927	18.986	-8191	255	
3016.663	1	1	0	0	0.056736	0.1848	0.32462	0.19601	0.15909	0.17323	0.12173	0.17952	0.10509	0.18397	0.249	0.030106	0.051965	0.11486	0.13017	0.024489	-2.2458	-3.0625	-3.0563	-2.525	-3.1583	-2.9771	-2.6646	-3.325	-2.5896	-2.9854	-3.2667	-2.6375	-3.1875	-2.9062	-2.45	-3.5396	220.893	277.411	92.174	335.353	92.916	50.462	169.386	304.747	14.115	351.612	307.836	50.171	179.733	210.711	46.088	23.530	0.00034869	0.0010042	0.00033354	719.42	7.3991e-06	1.4702e-05	1153.7	235.43	4.4742e-06	6.9037e-06	471.45	223.57	101.13	25.63	1.3025e-05	91.18	0.0022381	0.0032751	0.0008925	556.05	3.4162e-05	3.588e-05	875.21	183.07	3.3026e-05	3.7444e-05	363.02	173.05	81.327	20.591	3.8766e-05	70.233	172.046	327.752	104.579	6.599	171.369	163.131	5.836	10.829	169.380	142.543	11.519	15.758	16.532	21.172	117.345	19.564	-8191	255	
3016.782	1	1	0	0	0.079248	0.22435	0.15383	0.038463	0.18172	0.18973	0.11326	0.071353	0.07436	0.21766	0.26801	0.19645	0.15274	0.084873	0.14101	0.25141	-2.4146	-2.8458	-3.2104	-2.7188	-3.1854	-2.9271	-2.5687	-3.4062	-2.6229	-2.8812	-3.475	-2.5708	-3.1167	-2.8854	-2.4688	-3.3563	82.016	-5.697	306.813	288.396	5.612	30.659	278.728	293.139	95.678	124.284	54.571	15.155	265.342	200.552	11.702	245.589	0.00033101	0.00081396	0.00033706	724.39	3.6111e-06	1.5934e-05	1142.7	234.51	1.1012e-05	1.7444e-05	464.13	225.28	98.954	25.879	1.2435e-05	91.029	0.0024735	0.0037734	0.00099001	554.56	3.6499e-05	3.6896e-05	876.4	182.95	3.3339e-05	3.9515e-05	360.79	173.77	80.688	20.785	3.5779e-05	69.981	162.512	121.680	147.083	6.458	182.004	193.871	6.485	11.047	144.429	180.311	11.301	16.077	17.076	22.131	279.078	19.186	-8191	255	
3016.878	1	1	0	0	0.21436	0.14559	0.19981	0.10913	0.042607	0.10628	0.17464	0.099167	0.17401	0.10648	0.071554	0.23106	0.061459	0.022728	0.32375	0.15345	-2.2583	-2.7167	-3.2042	-2.675	-2.9229	-2.9625	-2.6896	-3.3292	-2.7125	-2.6208	-3.3792	-2.5625	-3.1042	-3.0292	-2.2562	-3.2542	294.221	337.147	3.623	288.864	293.623	323.264	297.639	347.246	109.029	332.027	341.951	63.202	189.107	21.148	191.295	225.436	0.00039878	0.00077674	0.00041529	716.3	1.0992e-05	1.2686e-05	1144.5	239.68	6.4971e-06	8.6674e-06	468.73	222.99	100.47	25.664	4.0959e-06	90.947	0.0022859	0.0034255	0.00091127	549.64	3.483e-05	3.4179e-05	870.85	184.84	3.0967e-05	3.5899e-05	360.32	171.53	80.692	20.606	3.3943e-05	70.377	174.670	74.109	170.724	6.071	95.408	16.931	6.047	11.350	221.405	127.916	11.843	15.621	18.278	21.393	1.619	19.172	-8191	255	
3016.974	1	1	0	0	0.074349	0.06421	0.25939	0.11562	0.094474	0.084809	0.21153	0.093377	0.14075	0.16088	0.090721	0.048956	0.026832	0.18994	0.099322	0.20001	-2.3688	-2.425	-3.2792	-2.5979	-2.7313	-3.3146	-2.65	-3.1688	-2.7896	-2.5542	-3.3667	-2.6771	-2.8354	-3.3187	-2.45	-3.1583	323.504	179.786	314.305	320.242	180.936	2.687	257.879	321.792	77.190	52.797	34.718	335.117	199.860	214.432	86.802	258.026	0.00047475	0.00049379	0.00033105	723.32	1.1194e-05	1.2178e-05	1153.9	239.8	7.0452e-06	1.5741e-05	476.74	224.92	99.314	25.834	1.5914e-05	92.096	0.0021714	0.0031073	0.00084799	552.84	3.1442e-05	3.2223e-05	879.17	184.72	2.9837e-05	3.4314e-05	364.87	173.43	80.557	20.577	3.0014e-05	71.004	156.332	343.761	158.727	6.232	259.270	243.497	6.179	11.475	65.470	205.911	11.430	15.442	16.945	21.881	102.521	19.374	-8191	255	
3017.095	1	1	0	0	0.20726	0.096205	0.22368	0.17168	0.14573	0.11108	0.027777	0.17953	0.16735	0.31378	0.078317	0.12191	0.44051	0.065941	0.067993	0.15906	-2.6521	-2.5354	-3.4	-2.8042	-2.9042	-3.2229	-2.6208	-2.875	-3.0042	-2.5396	-3.2917	-2.8667	-2.8896	-3.3312	-2.5854	-3.2542	-2.319	323.073	278.793	120.484	239.018	164.074	65.160	308.678	66.668	113.738	160.386	17.708	313.595	134.375	0.370	52.667	0.00030112	0.00082614	0.00044593	728.68	6.8014e-06	6.39e-06	1173.4	238.77	8.8037e-06	3.633e-06	478.2	224.65	99.428	26.091	1.6665e-05	92.061	0.002065	0.0029894	0.00082367	557.95	3.2076e-05	3.2325e-05	886.58	185.17	2.8979e-05	3.2576e-05	365.51	174.09	80.134	20.835	2.8867e-05	70.867	163.990	221.312	71.265	6.693	202.719	66.379	6.252	10.679	176.596	16.343	11.021	16.037	17.396	21.303	130.222	19.597	-8191	255	
3017.191	1	1	0	0	0.13991	0.21581	0.082421	0.23278	0.17581	0.17061	0.17535	0.024317	0.16635	0.14051	0.043409	0.12544	0.24822	0.19001	0.1946	0.25889	-2.8229	-2.4667	-3.1	-2.8646	-2.5125	-3.3937	-2.7	-2.8667	-2.9729	-2.4521	-3.2812	-2.85	-2.6479	-3.2729	-2.6958	-2.9562	223.917	264.609	93.302	124.267	295.421	329.325	188.053	281.108	295.444	244.978	286.541	302.088	-3.681	58.594	127.494	302.293	0.00023818	0.00090947	0.00045658	729.73	3.3487e-06	1.7049e-05	1173.4	237.46	7.7714e-06	1.1596e-05	478.45	229.46	103.04	25.913	8.4832e-06	89.295	0.0019851	0.0029789	0.00080731	557.92	3.1578e-05	3.1874e-05	887.64	184.18	2.9535e-05	3.1119e-05	363.59	175.83	82.317	20.432	2.7668e-05	68.621	155.681	77.326	37.254	5.689	324.791	159.687	6.419	11.003	130.744	122.985	11.370	15.610	16.462	21.855	220.533	19.490	-8191	255	
3017.287	1	1	0	0	0.27088	0.18486	0.21871	0.11993	0.057132	0.32558	0.10906	0.1684	0.22998	0.092557	0.122	0.44852	0.054805	0.12924	0.16648	0.046257	-2.9542	-2.3937	-3.0042	-2.8646	-2.5417	-3.3979	-2.6937	-2.7562	-3.2875	-2.6188	-3.3833	-2.9938	-2.6833	-3.2167	-2.7854	-2.95	135.175	274.252	208.559	259.237	70.177	16.551	53.911	13.747	177.026	123.832	14.747	307.764	110.244	334.473	125.830	320.761	0.00029436	0.0010317	0.00011474	730.26	3.3399e-06	7.1505e-06	1171.3	235.13	4.2337e-06	1.4828e-05	475.37	224.9	102.75	25.4	4.8187e-06	89.159	0.0018862	0.0025222	0.00068954	552.97	2.5593e-05	2.5292e-05	879.7	181.34	2.2326e-05	2.3017e-05	362.7	172.61	79.569	20.052	2.0139e-05	68.107	168.285	6.904	34.561	5.526	160.301	5.300	6.425	11.038	246.953	114.463	11.537	15.853	16.747	21.295	155.064	19.802	-8191	255	
3017.383	1	1	0	0	0.12471	0.17522	0.093355	0.099529	0.17753	0.18098	0.13513	0.22364	0.20415	0.35779	0.070339	0.32955	0.30786	0.18927	0.21449	0.17609	-2.9313	-2.4542	-3.0625	-3.0229	-2.5312	-3.5083	-2.6688	-2.8208	-3.4417	-2.375	-3.0896	-3.2271	-2.5167	-3.2729	-2.6708	-2.8063	326.784	274.795	264.314	25.064	298.335	9.628	315.397	218.508	304.863	178.876	195.656	4.887	299.956	259.005	38.769	306.661	0.00029184	0.00050464	0.00032631	724.78	2.5954e-06	7.4529e-06	1145.3	245.49	1.5358e-05	1.2803e-05	480.13	226.61	102.09	26.013	1.8379e-06	90.352	0.0015068	0.0019192	0.00055932	547.35	2.0549e-05	2.1471e-05	866.27	187.14	2.042e-05	2.1073e-05	365.45	174.15	80.406	20.363	2.0613e-05	69.278	167.474	36.483	17.619	5.652	212.980	238.431	6.048	10.984	270.072	132.254	11.170	15.649	17.116	22.216	153.357	19.536	-8191	255	
3017.478	1	1	0	0	0.14631	0.10462	0.18316	0.27317	0.17679	0.11428	0.1631	0.14925	0.15605	0.23906	0.16936	0.15085	0.073113	0.29142	0.14715	0.22312	-3.1792	-2.5417	-2.9125	-3.0833	-2.4562	-3.1937	-2.825	-2.6417	-3.4021	-2.6813	-3.0021	-3.1312	-2.1833	-3.1042	-2.8583	-2.7792	197.371	190.590	294.600	294.262	28.011	70.477	93.226	-4.819	52.612	243.759	329.334	38.225	184.514	268.145	243.942	303.276	0.00035226	0.0012315	0.00013034	731.12	9.1254e-06	5.0556e-06	1169.8	239.86	4.6957e-06	8.7705e-06	481.72	228.61	102.24	25.958	1.3002e-05	91.652	0.0014277	0.001978	0.00056033	552.6	2.11e-05	2.2948e-05	876.65	183.17	2.2062e-05	2.1756e-05	366.81	175.37	80.402	20.358	2.3561e-05	70.293	169.875	104.296	213.361	6.159	73.517	261.329	6.279	11.349	156.532	174.878	10.893	16.074	17.727	22.067	200.908	19.512	-8191	255	
3017.574	1	1	0	0	0.12154	0.39849	0.090597	0.30175	0.15099	0.10425	0.059866	0.12294	0.1036	0.10037	0.27702	0.34914	0.19028	0.21758	0.15039	0.14929	-2.8708	-2.6937	-2.7625	-3.3771	-2.3875	-3.0812	-3.2167	-2.5833	-3.25	-2.6688	-2.8167	-3.4708	-2.6333	-3.1167	-2.9771	-2.5292	6.726	110.476	197.971	319.069	91.096	32.153	235.808	166.375	169.420	277.525	302.582	327.564	337.348	309.344	-6.018	3.130	9.5084e-05	0.0015406	0.00052355	731.82	4.9708e-06	1.0329e-05	1160.8	243.49	7.4389e-06	1.0434e-05	486.86	230.56	101.73	26.095	7.0008e-06	90.976	0.0015758	0.002127	0.00064098	558.82	2.2005e-05	2.5631e-05	875.94	185.69	2.4098e-05	2.4081e-05	371.79	176.99	80.676	20.608	2.4975e-05	69.964	175.232	89.490	96.385	5.486	68.469	224.259	6.300	11.102	162.240	204.393	11.913	15.887	15.808	21.940	312.531	19.128	-8191	255	
3017.694	1	1	0	0	0.1192	0.26337	0.15656	0.19722	0.23484	0.042067	0.10569	0.15675	0.16748	0.076905	0.21975	0.24228	0.10715	0.20358	0.21954	0.17336	-3.0625	-2.6896	-2.7313	-3.2729	-2.525	-3.0625	-3.2938	-2.3958	-3.1042	-2.6646	-2.675	-3.5187	-2.625	-2.9771	-3.0208	-2.7229	51.861	170.789	249.923	344.771	28.709	46.111	252.955	313.563	204.192	340.199	11.734	16.238	121.302	10.094	-4.154	308.386	0.00035635	0.0010448	0.00016974	742.24	4.8618e-06	8.994e-06	1176	234.33	6.1944e-06	2.3838e-05	473.67	223.63	99.88	25.467	1.2865e-05	87.688	0.0017366	0.0024294	0.0007004	562.37	2.4506e-05	3.029e-05	883.72	180.61	2.6819e-05	2.7953e-05	365.24	172.66	79.687	20.187	2.8657e-05	67.311	174.470	109.656	142.497	5.968	3.264	99.941	6.561	11.682	178.377	149.004	11.709	15.882	16.897	22.308	89.204	19.691	-8191	255	
3017.790	1	1	0	0	0.25615	0.24553	0.20039	0.1072	0.17193	0.36582	0.30881	0.46872	0.18921	0.01445	0.19226	0.32622	0.16627	0.081834	0.17895	0.19909	-2.8792	-2.9083	-2.5104	-3.4583	-2.575	-2.7313	-3.4042	-2.4458	-3.1646	-3.1208	-2.7292	-3.3	-2.7729	-2.85	-3.0812	-2.6042	159.497	302.308	68.765	239.015	247.872	214.311	294.038	334.245	236.025	142.101	310.217	-5.814	331.937	260.623	106.637	280.640	9.492e-05	0.0012237	0.00043098	736.28	9.6479e-06	4.8428e-06	1181.9	230.69	1.7654e-05	2.3407e-05	471.48	223.56	99.839	25.005	1.6095e-06	87.646	0.0019877	0.002738	0.00080109	562.79	2.7249e-05	3.1097e-05	892.69	177.33	2.9971e-05	3.257e-05	362.26	172.26	79.784	20.187	3.2543e-05	67.229	189.919	115.668	18.201	7.009	89.399	21.963	6.377	11.400	165.886	159.183	11.040	16.094	17.426	21.933	88.898	20.144	-8191	255	
3017.887	1	1	0	0	0.40589	0.057901	0.29773	0.26794	0.19829	0.24906	0.24364	0.062343	0.13732	0.34742	0.14367	0.33639	0.20708	0.023262	0.093547	0.24892	-2.8812	-3.0375	-2.2687	-3.1875	-2.7438	-2.6354	-3.3583	-2.4479	-3.0646	-3.0583	-2.6875	-3.3	-2.6375	-2.6813	-3.3729	-2.6042	283.271	234.152	71.282	201.945	110.607	274.291	288.599	17.953	236.972	329.472	254.746	257.363	294.406	125.449	14.851	311.320	0.00026801	0.0011655	0.0003865	723.02	1.1098e-05	1.1789e-05	1186.4	235.71	9.715e-06	8.1147e-06	474.58	223.95	98.764	25.261	5.8732e-06	87.69	0.002255	0.0029453	0.00083723	556.52	3.022e-05	3.4735e-05	895.74	181.65	3.0451e-05	3.3177e-05	364.04	172.4	79.653	20.252	3.2905e-05	67.431	175.314	115.004	95.410	5.884	179.942	138.007	6.408	11.175	111.669	80.894	11.058	15.820	17.614	21.592	186.827	19.519	-8191	255	
3017.958	1	1	0	0	0.13273	0.17459	0.082068	0.32171	0.23138	0.16373	0.1701	0.2965	0.16104	0.31383	0.16346	0.35372	0.21432	0.051157	0.22206	0.25772	-2.6083	-3.0771	-2.4521	-3.1417	-2.7375	-2.5187	-3.4125	-2.7271	-2.825	-3.3542	-2.5271	-3.4188	-2.9729	-2.6708	-3.2292	-2.8208	14.559	193.092	166.512	258.543	292.269	215.370	-3.372	286.209	330.949	165.134	42.619	302.888	20.083	336.082	95.027	339.972	0.00016646	0.00061544	0.00035192	731.99	1.2072e-05	9.8372e-06	1184.1	237.58	6.8152e-06	9.2404e-06	482.94	222.95	98.651	25.934	6.1345e-06	90.968	0.0022114	0.0029927	0.00082784	559.66	3.0913e-05	3.357e-05	897.62	182.76	3.034e-05	3.2112e-05	367.16	172.45	78.9	20.614	3.0135e-05	69.405	183.737	222.096	40.945	6.445	154.752	80.731	6.714	11.154	234.382	112.429	11.374	15.893	16.885	22.537	84.049	19.894	-8191	255	
3018.079	1	1	0	0	0.071501	0.22717	0.094549	0.22178	0.16028	0.093059	0.012254	0.20107	0.12576	0.09235	0.14665	0.11583	0.15076	0.12071	0.22005	0.19585	-2.4813	-3.1208	-2.4188	-3.1458	-2.8375	-2.4021	-3.4396	-2.7542	-2.7375	-3.3	-2.5833	-3.3104	-3.0146	-2.3771	-3.4188	-2.7938	31.333	306.324	177.557	299.188	248.353	98.460	64.450	328.938	174.376	75.619	26.237	-3.554	250.170	348.062	225.216	25.991	0.00037136	0.0019949	0.00027611	725.43	4.6299e-06	1.3114e-05	1187.9	238.12	2.7875e-06	1.6913e-05	476.49	222.22	98.696	26.39	3.1318e-06	88.073	0.0020606	0.0025923	0.00073491	553.82	2.6962e-05	2.8911e-05	896.43	181.69	2.7513e-05	2.978e-05	366.25	172.07	78.697	20.558	2.7046e-05	68.069	169.469	103.508	76.590	6.075	262.136	106.835	6.536	10.471	166.352	182.860	10.738	15.784	16.747	22.046	270.190	18.946	-8191	255	
3018.175	1	1	0	0	0.17774	0.15487	0.061145	0.14268	0.26348	0.29585	0.10675	0.097181	0.16737	0.27727	0.35009	0.25323	0.090479	0.10179	0.062308	0.11403	-2.4042	-3.3083	-2.4417	-3.1333	-3.2396	-2.5563	-3.2812	-2.8604	-2.675	-3.3604	-2.6167	-3.1458	-3.0875	-2.3667	-3.1479	-2.8063	240.816	226.212	31.160	4.695	162.128	94.811	221.974	30.759	188.242	1.924	302.479	342.086	23.215	31.261	199.636	49.768	0.00030725	0.00047215	6.3115e-05	735.22	8.881e-06	1.5099e-05	1191.1	233.45	1.0337e-05	1.8445e-05	476.59	223.51	99.498	25.856	3.9782e-06	88.183	0.0019187	0.0024918	0.00065228	558.52	2.5866e-05	2.7181e-05	899.45	179.37	2.5112e-05	2.8163e-05	362.28	171.77	78.446	20.355	2.5284e-05	67.595	152.339	160.332	155.882	5.928	180.002	137.761	6.541	10.604	87.668	80.579	10.549	15.844	16.558	21.185	230.023	19.177	-8191	255	
3018.271	1	1	0	0	0.094771	0.14742	0.17422	0.074902	0.13062	0.18347	0.21429	0.051512	0.093517	0.050618	0.11005	0.18155	0.17694	0.11138	0.13268	0.16606	-2.3354	-3.15	-2.4938	-2.8875	-3.0854	-2.4708	-3.3646	-2.9083	-2.5792	-3.1875	-2.5062	-2.8854	-3.0375	-2.4917	-3.1208	-2.9875	275.360	138.346	147.745	155.028	322.055	307.016	291.620	306.449	200.222	38.252	312.843	318.194	229.550	343.551	186.485	271.789	0.00032839	0.0017043	0.00052995	733.58	7.267e-06	3.0744e-07	1195.4	238.25	1.591e-06	1.2031e-05	475.39	222.6	99.101	25.606	5.9862e-06	89.395	0.0018	0.0023683	0.00063726	557.81	2.4315e-05	2.4405e-05	899.3	181.11	2.4369e-05	2.6023e-05	362.26	171.4	77.809	20.191	2.5194e-05	68.254	156.763	40.058	81.862	6.506	145.008	326.407	6.371	10.573	189.300	121.099	10.420	15.358	16.548	21.050	176.736	19.411	-8191	255	
3018.367	1	1	0	0	0.047527	0.32513	0.18497	0.058942	0.17438	0.083904	0.080371	0.21353	0.065716	0.23878	0.1146	0.13221	0.16054	0.047028	0.17858	0.15429	-2.0646	-3.2687	-2.6437	-2.8333	-3.1875	-2.5083	-3.175	-3.1	-2.4313	-3.2687	-2.5396	-2.9437	-3.45	-2.3417	-3.0125	-3.3083	12.994	176.791	84.424	335.633	308.496	24.718	4.439	254.577	12.793	66.541	252.997	342.092	191.628	344.783	350.399	309.288	0.00033444	0.00013995	0.00012719	741.97	1.1996e-05	4.4455e-06	1185.5	239.94	3.3651e-06	4.9842e-06	478.51	225.17	99.934	26.022	1.1647e-06	89.31	0.0017401	0.0022938	0.00062664	562.6	2.6074e-05	2.5967e-05	897.34	182.42	2.421e-05	2.6765e-05	366.36	172.85	79.357	20.418	2.5522e-05	68.604	164.289	68.106	50.582	6.358	182.222	216.055	6.344	11.092	164.824	69.177	10.501	15.850	16.255	21.569	184.958	19.153	-8191	255	
3018.464	1	1	0	0	0.12872	0.10985	0.10218	0.11494	0.23824	0.29627	0.29304	0.2088	0.19512	0.18151	0.31671	0.18406	0.12944	0.13126	0.092402	0.23811	-2.075	-3.3292	-2.8125	-2.725	-3.1688	-2.5917	-3.0854	-3.1417	-2.3583	-3.4021	-3.1188	-2.6688	-3.2604	-2.6021	-2.7708	-3.225	150.789	265.999	110.734	12.573	136.097	0.733	231.197	299.930	169.834	79.272	27.743	315.719	40.110	167.119	201.980	291.451	0.0003626	0.0017093	3.3593e-05	742.64	3.7843e-06	1.0664e-05	1195.5	237.35	5.1994e-06	1.7449e-05	487.03	226.65	99.121	26.179	2.1485e-06	90.878	0.0017247	0.0023928	0.00064472	563.9	2.3774e-05	2.424e-05	900.73	182.63	2.309e-05	2.5534e-05	368.64	173.42	78.529	20.423	2.3581e-05	69.47	155.244	107.770	280.046	5.887	203.515	123.875	6.140	10.771	168.595	140.395	10.715	15.755	16.830	20.721	116.776	19.418	-8191	255	
3018.558	1	1	0	0	0.17494	0.11403	0.1643	0.29986	0.11585	0.12392	0.12806	0.10629	0.14937	0.122	0.16104	0.28032	0.072878	0.30518	0.28669	0.26233	-2.0542	-3.1229	-2.7917	-2.6479	-3.2396	-2.525	-2.9479	-3.2687	-2.5146	-3.2687	-3.1188	-2.65	-3.4562	-2.5854	-2.8146	-3.25	32.934	109.296	43.544	347.862	12.243	119.334	280.645	296.520	11.714	17.198	-0.278	345.652	19.249	335.946	184.132	321.039	0.00023558	0.00063289	0.00064232	753.52	5.4537e-07	4.8419e-06	1195.7	243.29	2.4123e-06	2.6128e-05	484.4	225.01	98.925	25.615	6.2653e-06	90.451	0.0015724	0.0022052	0.00058953	566.92	2.2901e-05	2.2132e-05	900.6	185.74	2.1007e-05	2.3405e-05	369.32	172.23	78.141	20.145	2.1171e-05	68.815	147.796	152.774	114.297	5.532	198.586	149.892	5.947	10.799	70.374	132.292	10.905	15.435	16.326	21.280	141.490	19.350	-8191	255	
3018.656	1	1	0	0	0.20688	0.10547	0.1391	0.26823	0.11132	0.20165	0.26122	0.23315	0.16736	0.1728	0.21314	0.017376	0.16118	0.13324	0.064927	0.08862	-2.1458	-3	-2.9333	-2.5229	-3.3083	-2.6521	-2.7438	-3.4333	-2.7	-2.8958	-3.2042	-2.6229	-3.1521	-2.8187	-2.4979	-3.4042	119.431	326.213	202.211	333.026	37.090	-4.721	315.941	251.264	182.877	312.338	305.951	348.528	17.432	78.611	178.861	154.975	0.000411	0.00060034	0.00050082	740.04	8.7797e-06	6.3149e-06	1182.3	246.53	2.255e-06	8.3534e-06	478.98	220.83	98.305	26.056	3.0222e-06	89.18	0.001492	0.0020056	0.00053951	559.02	2.0484e-05	2.0295e-05	893.91	186.61	1.8634e-05	2.1009e-05	364.17	168.98	76.71	20.13	2.0158e-05	68.096	157.695	56.438	69.361	6.221	223.161	77.264	5.845	10.760	120.050	183.795	10.188	15.771	16.803	21.691	116.143	18.841	-8191	255	
3018.775	1	1	0	0	0.32149	0.099433	0.053511	0.15558	0.20871	0.18747	0.27447	0.15157	0.092132	0.23526	0.342	0.079056	0.29166	0.048998	0.09034	0.22632	-2.0062	-2.8042	-3.0125	-2.4792	-3.2229	-2.875	-2.6208	-3.3667	-2.6458	-2.9062	-3.2229	-2.6604	-3.3187	-2.9896	-2.7479	-3.4146	140.406	137.952	186.772	85.454	37.759	333.987	217.712	314.371	64.425	161.959	296.432	273.040	336.710	87.119	-2.492	254.399	0.00048263	0.0010142	0.00015543	738.01	7.8876e-06	8.1049e-06	1202.3	241.99	9.2783e-06	1.1018e-05	487.38	223.76	97.935	26.194	6.8148e-06	90.872	0.0013168	0.0018856	0.00053069	557.76	1.9121e-05	2.0134e-05	899.41	185.21	1.7755e-05	1.9143e-05	367.82	169.56	76.568	20.438	1.7374e-05	69.583	144.822	119.608	29.782	5.999	197.568	171.393	6.371	10.776	223.899	130.633	10.283	15.462	16.909	22.041	85.113	18.981	-8191	255	
3018.871	1	1	0	0	0.24286	0.18215	0.27569	0.286	0.10109	0.40311	0.22598	0.13293	0.22743	0.098012	0.22999	0.12739	0.049487	0.16895	0.18383	0.17838	-2.2438	-2.8833	-3.2625	-2.4896	-3.2229	-2.9417	-2.6354	-3.4375	-2.7188	-2.7375	-3.35	-2.6625	-3.15	-2.9313	-2.5396	-3.3479	91.503	134.619	15.660	31.664	-0.040	35.231	295.768	23.135	14.301	138.388	286.256	241.185	223.610	320.167	305.106	289.302	0.00025348	0.001047	0.00031214	750.53	7.2232e-06	3.3866e-06	1192.5	245.41	7.9375e-06	1.3227e-05	492.28	221.11	98.197	27.213	4.9546e-06	94.496	0.0011604	0.0016198	0.00043465	562.4	1.6051e-05	1.6402e-05	897.32	186.37	1.4689e-05	1.7668e-05	369.87	169.01	76.637	20.987	1.6147e-05	71.548	185.393	110.894	54.905	5.713	93.434	97.886	5.885	10.660	112.986	33.465	10.443	15.730	16.250	21.203	199.541	19.147	-8191	255	
3018.967	1	1	0	0	0.11388	0.14981	0.091463	0.15222	0.1483	0.08101	0.12342	0.11338	0.075046	0.36216	0.10646	0.21979	0.37282	0.26832	0.18567	0.22464	-2.2479	-2.725	-3.1833	-2.3896	-3.0333	-3.25	-2.5583	-3.3667	-2.7812	-2.5604	-3.5438	-2.6125	-2.9125	-3.175	-2.3771	-3.2687	190.029	190.760	212.336	16.216	284.940	130.405	314.091	266.579	323.967	103.294	330.780	333.088	275.219	71.318	160.545	243.078	0.00033271	0.00063478	0.00040823	740.99	3.2438e-06	1.5853e-05	1191	245.11	4.3606e-06	7.5539e-06	487.57	220.03	97.928	27.705	5.196e-06	96.371	0.0010923	0.0015519	0.00040332	557.51	1.577e-05	1.5978e-05	896.88	186.25	1.458e-05	1.6106e-05	369.94	168.48	76.03	21.304	1.5733e-05	73.169	149.468	144.767	105.378	5.761	153.358	201.016	5.860	10.749	71.994	130.241	11.185	16.003	17.573	21.801	95.026	18.772	-8191	255	
3019.063	1	1	0	0	0.043001	0.23917	0.077092	0.26521	0.12425	0.23082	0.40973	0.24147	0.11637	0.046514	0.24726	0.05838	0.17395	0.26023	0.18371	0.16299	-2.5938	-2.575	-3.275	-2.5521	-2.7542	-3.3042	-2.6792	-3.1833	-3.0083	-2.5667	-3.3438	-2.8688	-2.9208	-3.2771	-2.5	-3.3063	224.255	57.177	281.285	235.897	22.462	218.864	245.014	281.224	222.574	247.540	331.929	291.391	137.804	226.746	65.344	30.814	0.00035889	0.00079762	0.00038212	727.09	9.1014e-06	7.3774e-06	1197.2	246.33	8.1956e-06	5.0465e-07	484.44	219.83	98.221	26.631	5.7678e-06	92.521	0.0011506	0.0015322	0.00043611	553.35	1.7092e-05	1.7615e-05	896.58	185.53	1.6771e-05	1.8115e-05	369.2	168.53	76.815	20.876	1.7488e-05	70.747	145.361	96.725	95.267	5.088	229.195	144.033	5.984	10.851	140.782	3.478	11.059	15.256	17.062	21.568	218.492	19.140	-8191	255	
3019.184	1	1	0	0	0.1649	0.27661	0.22669	0.17533	0.14183	0.22353	0.18912	0.1874	0.26332	0.28865	0.28941	0.17229	0.18497	0.1402	0.08938	0.44708	-2.6125	-2.3896	-3.2271	-2.675	-2.7229	-3.2521	-2.5083	-3.0583	-3.2938	-2.3479	-3.3708	-2.7833	-2.6208	-3.5833	-2.6083	-3.05	73.706	251.110	340.118	311.074	82.381	2.022	258.139	240.305	115.358	125.479	316.856	279.242	270.289	24.933	140.596	351.293	0.00028083	0.0010612	0.0005399	743.8	1.2794e-05	1.8136e-05	1191.7	242.83	3.8426e-06	6.2995e-06	481.32	219.1	98.042	27.137	3.7926e-06	93.951	0.0012343	0.0017055	0.0004874	558.3	1.6952e-05	1.8848e-05	890.38	184.78	1.6578e-05	1.8056e-05	364.69	166.81	75.733	20.961	1.5556e-05	71.197	164.337	77.634	144.223	5.695	207.778	174.981	5.409	11.310	197.069	239.906	11.053	15.570	15.803	21.700	12.544	18.848	-8191	255	
3019.255	1	1	0	0	0.20456	0.31544	0.048072	0.11534	0.097556	0.28172	0.10295	0.16796	0.25828	0.43947	0.35464	0.28711	0.34644	0.078001	0.17092	0.20264	-2.7125	-2.3646	-3.2125	-2.8937	-2.6854	-3.2521	-2.6542	-2.9229	-3.1979	-2.45	-3.2604	-3.1479	-2.6063	-3.3458	-2.5333	-3.0792	125.272	72.372	102.744	49.834	2.709	333.651	344.105	265.399	163.415	94.573	-4.100	11.135	243.942	206.711	134.677	23.030	0.0003944	0.0011686	0.00032542	734.69	7.5205e-06	1.2147e-05	1183.3	242.54	3.1224e-06	1.4455e-05	485.95	219.77	94.6	27.5	7.1361e-06	94.173	0.0012058	0.0015509	0.00044834	550.02	1.6761e-05	1.7307e-05	884.76	183.43	1.5935e-05	1.6411e-05	364.65	166.79	73.773	21.182	1.4854e-05	71.515	170.980	74.330	62.081	5.948	173.633	178.850	5.697	10.312	190.406	123.775	10.686	15.406	17.086	21.685	195.980	18.838	-8191	255	
3019.376	1	1	0	0	0.13233	0.074426	0.15873	0.26406	0.061797	0.12825	0.16281	0.093887	0.10992	0.19657	0.19809	0.028592	0.20058	0.095817	0.2279	0.54347	-2.8979	-2.2938	-3.0854	-3.1813	-2.5354	-3.3229	-2.5958	-2.8458	-3.1667	-2.4271	-3.2646	-3.0604	-2.6146	-3.1604	-2.7229	-2.8583	255.821	308.418	225.739	315.153	76.114	290.494	290.308	319.072	147.413	85.824	170.077	257.232	306.463	285.924	70.139	300.541	0.00034711	0.0015161	0.00028234	735.38	6.4495e-06	8.7779e-06	1176.3	243.83	6.4117e-06	2.3432e-05	483.93	219.07	95.768	27.758	1.029e-05	94.821	0.0011079	0.0013567	0.00039178	552.68	1.4452e-05	1.6574e-05	881.2	184.11	1.6473e-05	1.6001e-05	365.76	167.21	74.678	21.512	1.5695e-05	72.094	145.567	129.346	73.062	5.463	278.253	206.773	5.688	11.294	128.808	170.483	10.884	15.379	17.294	21.270	81.193	18.791	-8191	255	
3019.471	1	1	0	0	0.12933	0.24294	0.21397	0.21511	0.10872	0.09326	0.30575	0.33429	0.16589	0.21298	0.238	0.052684	0.026552	0.087883	0.13239	0.16806	-2.9771	-2.4313	-3.0479	-3.0812	-2.4875	-3.3417	-2.8833	-3.0187	-3.2438	-2.525	-3.1188	-3.3688	-2.6792	-3.0917	-2.8875	-2.6854	151.039	96.369	96.247	286.327	244.030	135.995	347.003	223.291	48.131	102.820	254.181	22.863	269.796	8.271	40.195	269.473	0.00029358	0.00089202	0.00033651	738.95	9.9017e-06	3.9767e-06	1173.3	244.51	4.602e-06	1.3257e-05	490.97	218.82	96.447	27.625	1.1075e-05	96.482	0.001197	0.0014559	0.00045159	554.38	1.6734e-05	1.7958e-05	886.42	185.55	1.7229e-05	1.7251e-05	370.27	167.42	75.152	21.637	1.672e-05	73.408	158.622	307.205	143.643	5.644	267.551	42.722	6.241	10.935	344.295	114.235	10.426	15.453	16.266	20.847	95.275	18.497	-8191	255	
3019.567	1	1	0	0	0.12187	0.331	0.13367	0.22623	0.14577	0.16731	0.30601	0.12519	0.073786	0.14067	0.15227	0.10468	0.13726	0.22565	0.32104	0.39622	-2.9437	-2.5062	-2.8229	-3.1	-2.4271	-3.2854	-2.8875	-2.575	-3.5417	-2.7375	-2.8958	-3.3396	-2.3792	-3.3521	-2.9604	-2.5646	92.021	234.583	-4.793	246.414	297.826	36.038	336.774	3.249	283.871	269.675	102.592	259.512	62.751	312.018	54.806	296.630	0.00027859	0.00055442	0.0004739	739.09	2.8868e-06	6.4378e-06	1173.1	242.96	8.0853e-06	1.7208e-05	484.14	217.38	94.501	27.832	1.6491e-05	95.385	0.0012278	0.0015272	0.00045802	553.6	1.5488e-05	1.7258e-05	877.35	185	1.4885e-05	1.464e-05	363.46	165.36	73.549	21.513	1.3452e-05	72.584	162.844	65.512	83.583	5.800	179.451	141.697	6.101	11.480	242.561	163.306	11.340	15.389	16.512	21.467	162.462	18.284	-8191	255	
3019.663	1	1	0	0	0.14928	0.094215	0.20498	0.10356	0.31239	0.034955	0.10853	0.1468	0.14482	0.3179	0.15256	0.063205	0.2872	0.41444	0.079467	0.12202	-3.0792	-2.4542	-2.8792	-3.3021	-2.4125	-3.0875	-3.2167	-2.5312	-3.3438	-2.6708	-2.8646	-3.5146	-2.5521	-3.0542	-3.0583	-2.4646	38.542	0.535	305.442	234.155	40.904	84.236	151.204	7.792	170.017	106.677	291.213	34.670	316.299	338.075	35.535	292.277	0.00029261	0.00070877	0.00021245	723.87	6.5889e-06	1.0661e-05	1143.2	244.24	3.9961e-06	3.6461e-06	484.03	218.57	94.7	28.077	1.4886e-05	95.58	0.00093818	0.0011557	0.00032899	544.62	1.223e-05	1.343e-05	857.66	183.76	1.3127e-05	1.3074e-05	363.72	166.38	73.284	21.807	1.3381e-05	72.701	164.607	93.785	3.754	5.372	159.936	139.489	5.423	10.879	197.886	109.084	10.610	15.171	16.771	21.941	198.357	18.768	-8191	255	
3019.783	1	1	0	0	0.11572	0.21371	0.029499	0.2888	0.17992	0.16828	0.1446	0.19358	0.17549	0.1103	0.30531	0.24225	0.14891	0.20138	0.13601	0.032047	-2.7292	-2.85	-2.6521	-3.4917	-2.6979	-3.2562	-3.1854	-2.5	-3.3896	-2.8917	-2.8417	-3.4104	-2.6562	-3.1354	-3.2667	-2.7562	345.798	38.169	41.833	-2.743	236.344	180.288	290.922	40.332	123.278	159.359	303.245	-0.449	-1.953	2.629	305.468	246.971	0.00022769	0.00047972	0.0001999	739.04	8.0692e-06	6.5459e-06	1179.4	243.35	4.2758e-06	1.227e-05	481.34	222.91	96.692	27.135	6.4742e-06	91.271	0.0010004	0.0012784	0.00037929	551.56	1.4479e-05	1.6377e-05	882.08	183.24	1.677e-05	1.8307e-05	364.33	169.56	76.129	21.062	1.9466e-05	69.762	153.533	55.551	162.892	5.241	179.929	83.082	6.280	11.106	101.916	133.809	11.111	15.748	16.664	21.037	80.007	19.520	-8191	255	
3019.855	1	1	0	0	0.097964	0.25541	0.13797	0.069622	0.084418	0.41636	0.16852	0.20163	0.38476	0.064422	0.060538	0.24575	0.29299	0.17755	0.018082	0.075389	-2.7812	-2.8604	-2.6604	-3.4646	-2.7604	-2.7375	-3.5979	-2.6625	-3.275	-3	-2.5979	-3.4146	-2.7458	-3.0271	-3.2583	-2.7625	350.801	115.033	138.861	341.568	77.548	124.242	16.865	288.686	59.872	130.211	141.176	223.555	57.846	348.766	37.219	-5.443	0.00015497	0.00033657	0.00045514	712.66	8.8729e-06	9.8228e-06	1177.6	241.75	4.0628e-06	3.3589e-06	475.46	219.34	96.722	26.377	1.3038e-05	90.31	0.0013787	0.0018428	0.00050743	540.07	1.8645e-05	2.0635e-05	879.91	182.87	1.9017e-05	1.9681e-05	361.23	168.06	76.021	20.7	1.9085e-05	69.115	172.046	88.668	61.566	5.980	227.184	49.380	6.596	10.920	35.650	95.665	10.828	15.586	17.098	21.307	157.407	19.361	-8191	255	
3019.951	1	1	0	0	0.079611	0.21684	0.077555	0.17494	0.17859	0.21128	0.23037	0.14657	0.26337	0.3337	0.42656	0.12895	0.11057	0.16175	0.17628	0.15877	-2.8083	-2.9271	-2.5521	-3.3354	-2.7667	-2.6333	-3.3563	-2.5083	-3.0604	-3.2271	-2.6188	-3.5396	-2.7687	-2.7354	-3.3542	-2.7708	344.866	15.137	226.455	299.997	314.621	0.418	321.302	247.141	253.427	153.851	298.532	272.573	20.723	212.068	189.432	261.074	0.00031567	0.0011624	0.00015704	697.96	5.2667e-06	6.4188e-06	1160.8	241.99	8.3592e-06	1.2167e-05	474.78	220.5	98.288	25.934	1.89e-06	89.258	0.0014535	0.0019483	0.00053637	527.62	1.9362e-05	2.1765e-05	873.52	182.43	2.1294e-05	2.3219e-05	361.07	169.54	77.15	20.383	2.1907e-05	68.028	150.103	85.452	107.346	5.745	115.391	213.712	6.658	10.961	291.523	111.391	11.126	15.757	16.998	21.939	190.819	20.046	-8191	255	
3020.047	1	1	0	0	0.10242	0.053663	0.12934	0.31976	0.068361	0.16872	0.10627	0.22226	0.17647	0.26186	0.031313	0.15888	0.20257	0.2401	0.32311	0.25986	-2.5542	-3.0958	-2.4125	-3.25	-2.95	-2.6417	-3.4833	-2.5854	-3	-3.25	-2.5625	-3.3333	-2.7687	-2.5542	-3.3271	-2.8083	317.134	15.401	277.447	322.025	-2.838	101.465	32.203	301.480	230.835	5.178	50.655	-0.348	310.250	335.641	191.764	288.168	0.00020481	0.0024362	0.00023765	692.43	4.6231e-06	1.478e-05	1145.3	235.65	7.1212e-06	5.6814e-06	471.91	218.32	94.235	26.05	1.2979e-05	87.412	0.0015209	0.0020204	0.00054161	522.99	1.9659e-05	2.2661e-05	863.69	178.59	2.0641e-05	2.0888e-05	356.87	167.39	75.104	20.294	1.9155e-05	66.589	156.376	125.064	130.016	6.085	215.375	138.383	6.696	11.187	238.932	108.542	11.029	16.586	17.636	21.600	158.913	19.479	-8191	255	
3020.144	1	1	0	0	0.16774	0.22351	0.21316	0.17437	0.23905	0.24535	0.096519	0.064373	0.25422	0.13432	0.13836	0.097792	0.41239	0.17315	0.35614	0.29193	-2.3792	-3.2313	-2.5542	-3.3042	-2.8958	-2.6229	-3.3083	-2.8333	-2.6792	-3.3937	-2.4875	-3.4021	-3.2667	-2.4562	-3.275	-2.8875	101.011	251.205	234.620	266.651	186.222	276.805	222.787	249.596	159.679	162.864	296.426	244.776	80.413	122.189	333.730	261.796	0.00027543	0.00082908	0.00021565	681.42	4.1952e-06	1.1238e-05	1122.3	239.02	1.7715e-06	4.9988e-06	461.58	213.33	96.874	26.515	1.7795e-05	89.416	0.0013529	0.0017708	0.00044174	513.23	1.8499e-05	1.9725e-05	838.61	180.24	1.8785e-05	2.0174e-05	348.05	163.24	75.698	20.759	1.914e-05	67.8	154.310	18.599	344.583	6.227	218.547	184.356	6.383	10.917	83.217	293.308	11.217	16.675	16.934	21.631	143.207	19.077	-8191	255	
3020.264	1	1	0	0	0.015508	0.17567	0.034501	0.27015	0.083006	0.041017	0.097739	0.097933	0.14257	0.23276	0.12266	0.17826	0.11681	0.28015	0.10828	0.14064	-2.2333	-3.2396	-2.4813	-3.0833	-3	-2.6542	-3.4188	-2.825	-2.9396	-3.4521	-2.5979	-3.0708	-3.3333	-2.5625	-3.0896	-3.0833	242.474	243.025	192.494	327.802	89.393	182.988	294.049	117.569	54.962	265.122	343.591	318.497	297.993	64.342	332.653	9.528	0.00025559	0.0001693	0.00042952	670.38	8.8967e-06	7.0458e-06	1113.4	232.97	8.8195e-06	1.0859e-05	460.6	214.03	96.137	26.677	1.3724e-06	87.46	0.0013317	0.0017607	0.00047375	506.54	1.9357e-05	1.9271e-05	836.79	176.9	1.9563e-05	2.0991e-05	350.82	163.37	75.822	20.676	2.0783e-05	67.175	165.663	176.395	31.745	5.742	135.353	170.966	6.327	11.201	111.056	100.695	10.930	15.889	17.437	21.294	291.248	19.227	-8191	255	
3020.360	1	1	0	0	0.20775	0.17849	0.25142	0.2619	0.13188	0.22699	0.24876	0.19264	0.063755	0.18237	0.37891	0.059332	0.028704	0.21303	0.16107	0.28576	-2.1208	-3.225	-2.5875	-2.9271	-3.1979	-2.2854	-3.1646	-2.9562	-2.4667	-3.3292	-2.6125	-2.7562	-3.3563	-2.5417	-3.1688	-3.0938	43.331	288.869	53.601	304.111	33.794	256.235	269.532	334.797	72.076	100.191	323.142	136.727	325.759	336.084	164.913	331.824	0.00038499	0.0013013	5.2999e-05	686.21	7.601e-06	1.4777e-05	1093.1	224.12	4.9164e-06	7.5402e-06	454.9	211.56	96.667	25.842	7.5919e-06	87.544	0.0014861	0.0020256	0.00052243	519.1	2.0096e-05	2.1265e-05	827.74	171.05	2.121e-05	2.2536e-05	347.51	163.18	76.041	20.166	2.299e-05	66.879	152.799	51.426	336.115	6.601	150.707	170.128	6.630	11.008	281.209	203.037	11.114	16.599	17.316	21.299	138.708	19.684	-8191	255	
3020.456	1	1	0	0	0.18684	0.10473	0.096114	0.08101	0.13506	0.056718	0.20535	0.21254	0.18468	0.023764	0.0062694	0.25038	0.17433	0.2937	0.12777	0.016459	-2.0979	-3.3417	-2.7354	-2.9604	-3.2271	-2.5042	-3	-3.0958	-2.5312	-3.4333	-2.9875	-2.7708	-3.2917	-2.8021	-3.1	-3.2646	79.325	251.564	62.565	334.346	61.565	17.816	335.042	66.815	25.247	103.094	214.786	353.618	17.166	276.652	228.113	285.361	0.00021374	0.0018025	0.0003028	673.76	6.8364e-06	5.2461e-06	1106.2	223.55	8.2313e-06	1.0797e-05	462.91	213.02	94.003	25.002	1.5378e-05	85.276	0.0015482	0.0021512	0.00058209	513.7	2.2573e-05	2.2997e-05	833.57	170.99	2.1427e-05	2.5425e-05	352.43	162.8	75.356	19.902	2.4524e-05	65.835	165.670	77.796	55.826	6.602	125.387	23.264	6.751	11.643	169.784	270.779	11.044	16.010	18.608	21.296	151.452	19.606	-8191	255	
3020.551	1	1	0	0	0.18558	0.18761	0.23108	0.051611	0.1922	0.22158	0.18698	0.3281	0.082109	0.20036	0.25132	0.28955	0.18123	0.16523	0.12631	0.1946	-1.9583	-3.1979	-2.7542	-2.6708	-3.3958	-2.5125	-3.1896	-3.2062	-2.4479	-3.1	-2.8125	-2.7167	-3.4625	-2.7479	-2.8271	-3.2271	188.614	46.201	248.749	61.481	214.368	28.485	206.596	339.456	85.937	272.284	326.350	304.790	293.251	28.270	277.466	292.026	0.00016007	0.00056857	0.00047558	686.17	5.0941e-06	2.4399e-06	1105.2	218.09	8.2769e-06	1.6483e-05	458.68	209.34	92.664	25.175	7.2533e-06	84.11	0.0016959	0.0024091	0.00066385	520.91	2.6128e-05	2.7004e-05	838.73	168.65	2.6065e-05	3.0198e-05	351.51	161.45	75.799	20.009	3.2068e-05	65.282	175.983	93.878	81.549	6.499	0.917	232.582	6.893	11.413	181.929	133.333	10.594	16.459	17.853	21.632	249.645	19.555	-8191	255	
3020.647	1	1	0	0	0.24558	0.13348	0.070985	0.32171	0.21447	0.022738	0.14174	0.22324	0.28218	0.21349	0.11456	0.076193	0.22176	0.1259	0.12903	0.27096	-2.0146	-3.1667	-2.9896	-2.4479	-3.3646	-2.7396	-2.8167	-3.3958	-2.6	-3.2479	-3.1125	-2.5917	-3.3521	-2.65	-2.8646	-3.45	147.689	255.528	-2.421	351.560	269.959	13.700	231.695	282.892	6.607	160.059	169.866	248.960	47.335	288.703	188.371	333.461	0.00025458	0.0005352	0.00023849	691.02	1.3335e-05	5.0778e-06	1113.3	222.09	1.0384e-05	9.1793e-06	461.87	207.62	94.53	25.2	1.198e-05	85.264	0.0020937	0.0030696	0.00088566	533.78	3.4943e-05	3.5441e-05	851.79	172.16	3.4044e-05	3.904e-05	357.85	161.44	78.144	20.302	3.782e-05	66.548	184.128	110.275	45.991	6.515	131.484	296.988	6.118	11.470	349.030	197.714	10.284	16.822	17.440	21.456	279.577	19.487	-8191	255	
3020.745	1	1	0	0	0.1392	0.051922	0.32841	0.24552	0.13509	0.17936	0.19484	0.15727	0.1124	0.29156	0.03272	0.29292	0.18722	0.17623	0.16633	0.11012	-2.0979	-3.0646	-2.8896	-2.4667	-3.4083	-2.8667	-2.6854	-3.4396	-2.6104	-2.9521	-3.3167	-2.4313	-3.4188	-2.85	-2.7958	-3.5667	216.354	160.895	278.876	322.693	200.198	292.470	37.968	33.737	41.094	183.660	24.636	12.887	344.584	99.705	353.906	297.256	0.00033751	0.00064035	0.00038609	705.29	1.195e-05	1.6935e-05	1118.6	224.43	5.161e-07	1.0931e-05	464.94	207.48	94.498	25.372	7.4954e-06	86.157	0.0024562	0.0036175	0.0010378	541.79	3.7407e-05	3.7523e-05	855.06	174.79	3.4449e-05	3.8545e-05	358.99	161.4	77.129	20.591	3.5106e-05	67.116	158.401	168.258	119.047	6.684	176.165	278.842	7.037	11.939	352.444	102.207	10.316	15.978	17.230	20.884	304.666	19.489	-8191	255	
3020.864	1	1	0	0	0.10803	0.17149	0.10886	0.20405	0.16343	0.11368	0.16728	0.29118	0.26239	0.18876	0.3139	0.20701	0.13998	0.28093	0.019964	0.26069	-2.2917	-2.7938	-3.3833	-2.6375	-3.0729	-2.9667	-2.5958	-3.3458	-2.575	-2.8208	-3.3583	-2.5896	-3.1375	-3.1562	-2.6333	-3.5229	250.860	329.715	110.735	334.619	335.506	322.014	269.148	267.590	47.324	303.495	345.014	305.368	333.456	222.544	137.821	289.775	0.0003208	0.0019557	0.00034744	696.09	1.0175e-05	1.8933e-05	1114.3	225.93	3.1111e-06	8.3416e-06	467.18	209.63	96.188	26.166	9.1902e-06	88.373	0.0022669	0.0033087	0.00096124	535.14	3.3895e-05	3.5155e-05	848.27	174.32	3.0973e-05	3.5694e-05	359.19	161.6	77.373	20.745	3.0679e-05	68.298	140.928	107.465	339.954	6.628	153.167	102.102	6.908	11.855	179.330	184.051	11.152	16.464	17.760	21.340	17.187	19.604	-8191	255	
3020.960	1	1	0	0	0.202	0.14754	0.34975	0.26323	0.10065	0.23637	0.2704	0.17285	0.13999	0.10859	0.22231	0.33339	0.11987	0.048192	0.079433	0.24971	-2.4125	-2.7271	-3.2708	-2.5979	-3.1854	-3.0604	-2.4896	-3.3604	-2.6896	-2.5938	-3.4708	-2.5333	-3.0792	-3.0812	-2.7271	-3.1896	11.085	271.954	311.002	24.613	86.724	307.027	277.676	228.530	321.887	323.540	284.222	352.342	262.299	219.895	4.397	19.611	0.00014314	0.00059284	0.00013621	706.09	7.2281e-06	6.9992e-06	1115.2	228.85	6.9049e-06	1.441e-05	471.7	209.15	97.527	25.921	1.0165e-05	88.094	0.0020316	0.002837	0.0008072	538.12	3.0352e-05	3.1316e-05	844.74	177.04	2.7674e-05	3.1419e-05	360.05	161.35	77.398	20.592	2.9179e-05	67.485	182.630	167.285	142.783	6.972	288.912	18.750	6.729	11.704	118.617	192.958	10.599	16.115	17.485	20.916	175.401	19.698	-8191	255	
3021.056	1	1	0	0	0.1843	0.15068	0.12982	0.22006	0.040376	0.19382	0.014373	0.19844	0.22019	0.21983	0.065496	0.30481	0.26819	0.21406	0.3047	0.1227	-2.5	-2.6	-3.425	-2.5479	-3.0896	-2.95	-2.7104	-3.3667	-2.8979	-2.5438	-3.5167	-2.6208	-2.9417	-3.2417	-2.5042	-3.3458	144.966	49.074	134.054	308.527	152.892	61.205	12.753	-4.846	1.890	122.798	121.766	335.684	192.023	73.062	279.951	83.733	0.00018649	0.0011418	0.00024291	711.35	3.2206e-06	1.9004e-05	1099.7	230.59	8.7889e-06	1.1555e-05	459.61	205.21	95.2	25.383	1.4941e-05	85.701	0.0020024	0.0028217	0.00075253	537.77	2.787e-05	2.9894e-05	834.95	176.91	2.9423e-05	3.1541e-05	354.36	158.92	76.813	20.458	3.3715e-05	66.52	165.217	10.112	119.589	6.303	324.165	297.799	7.105	11.038	228.749	117.350	11.186	16.190	18.547	21.753	159.679	19.486	-8191	255	
3021.152	1	1	0	0	0.17129	0.19343	0.22707	0.21484	0.071339	0.084605	0.22641	0.15522	0.24303	0.10866	0.29187	0.27033	0.31983	0.052822	0.21351	0.28252	-2.6458	-2.6188	-3.3187	-2.6125	-2.8979	-3.2958	-2.7104	-3.0979	-3.0167	-2.5687	-3.3812	-2.725	-2.6667	-3.3438	-2.475	-3.2146	242.234	40.863	283.662	70.257	258.711	342.964	280.641	87.202	324.471	263.075	309.553	8.300	340.223	318.261	247.491	-3.848	0.00020259	0.0014245	0.00011669	695.5	1.0726e-05	1.8823e-05	1088.9	227.32	5.7026e-06	1.8819e-05	462.48	206.09	94.763	25.533	3.896e-06	85.945	0.0025019	0.0035595	0.0010596	534.77	3.9958e-05	4.3662e-05	834.25	177.64	4.0473e-05	4.3366e-05	358.45	160.02	78.181	20.814	4.1082e-05	66.543	174.826	106.962	6.919	7.063	147.989	161.262	6.910	11.564	280.557	16.640	10.787	16.175	17.617	21.907	318.686	19.669	-8191	255	
#DATA ENDS
