BOXY.EXE: ISS Imagent and Oximeter Data Acquisition Program Version 0.80
Ascii Record File

#ACQ INFORMATION
2  Detector Channels 
16  External MUX Channels 
1  Auxiliary Channels 
5000  Waveform (CCF) Frequency (Hz)
1  Waveforms Skipped 
30  Waveforms Averaged 
1  Cycles Averaged 
16  Acquisitions per Waveform 
10.0806  Updata Rate (Hz) 

#FILE INFORMATION
TRUE -- External MUX Channel results are PARSED.
FALSE -- AC DC and Phase are NOT grouped.
TRUE -- Companion Program Settings File CREATED.
FALSE -- AC data not excluded
FALSE -- DC data not excluded
FALSE -- Phase data not excluded
FALSE -- Auxillary Chn. data not excluded
Tab delimiters

#CALIBRATION STATE
TRUE -- Waveform Calibration Values APPLIED.


#AUX CALIBRATION VALUES
Val Type	aux-1	

Term	1.0000e+00	
Factor	0.0000e+00	


#WF CALIBRATION VALUES
A = Detector Channel
Val Type	A-AC1	A-AC2	A-AC3	A-AC4	A-AC5	A-AC6	A-AC7	A-AC8	A-AC9	A-AC10	A-AC11	A-AC12	A-AC13	A-AC14	A-AC15	A-AC16	A-DC1	A-DC2	A-DC3	A-DC4	A-DC5	A-DC6	A-DC7	A-DC8	A-DC9	A-DC10	A-DC11	A-DC12	A-DC13	A-DC14	A-DC15	A-DC16	A-Ph1	A-Ph2	A-Ph3	A-Ph4	A-Ph5	A-Ph6	A-Ph7	A-Ph8	A-Ph9	A-Ph10	A-Ph11	A-Ph12	A-Ph13	A-Ph14	A-Ph15	A-Ph16	

Term	0.00000e+00	0.00000e+00	0.00000e+00	0.00000e+00	0.00000e+00	0.00000e+00	0.00000e+00	0.00000e+00	0.00000e+00	0.00000e+00	0.00000e+00	0.00000e+00	0.00000e+00	0.00000e+00	0.00000e+00	0.00000e+00	0.00000e+00	0.00000e+00	0.00000e+00	0.00000e+00	0.00000e+00	0.00000e+00	0.00000e+00	0.00000e+00	0.00000e+00	0.00000e+00	0.00000e+00	0.00000e+00	0.00000e+00	0.00000e+00	0.00000e+00	0.00000e+00	0.00000e+00	0.00000e+00	0.00000e+00	0.00000e+00	0.00000e+00	0.00000e+00	0.00000e+00	0.00000e+00	0.00000e+00	0.00000e+00	0.00000e+00	0.00000e+00	0.00000e+00	0.00000e+00	0.00000e+00	0.00000e+00	
Factor	1.00000e+00	1.00000e+00	1.00000e+00	1.00000e+00	1.00000e+00	1.00000e+00	1.00000e+00	1.00000e+00	1.00000e+00	1.00000e+00	1.00000e+00	1.00000e+00	1.00000e+00	1.00000e+00	1.00000e+00	1.00000e+00	1.00000e+00	1.00000e+00	1.00000e+00	1.00000e+00	1.00000e+00	1.00000e+00	1.00000e+00	1.00000e+00	1.00000e+00	1.00000e+00	1.00000e+00	1.00000e+00	1.00000e+00	1.00000e+00	1.00000e+00	1.00000e+00	X	X	X	X	X	X	X	X	X	X	X	X	X	X	X	X	

B = Detector Channel
Val Type	B-AC1	B-AC2	B-AC3	B-AC4	B-AC5	B-AC6	B-AC7	B-AC8	B-AC9	B-AC10	B-AC11	B-AC12	B-AC13	B-AC14	B-AC15	B-AC16	B-DC1	B-DC2	B-DC3	B-DC4	B-DC5	B-DC6	B-DC7	B-DC8	B-DC9	B-DC10	B-DC11	B-DC12	B-DC13	B-DC14	B-DC15	B-DC16	B-Ph1	B-Ph2	B-Ph3	B-Ph4	B-Ph5	B-Ph6	B-Ph7	B-Ph8	B-Ph9	B-Ph10	B-Ph11	B-Ph12	B-Ph13	B-Ph14	B-Ph15	B-Ph16	

Term	0.00000e+00	0.00000e+00	0.00000e+00	0.00000e+00	0.00000e+00	0.00000e+00	0.00000e+00	0.00000e+00	0.00000e+00	0.00000e+00	0.00000e+00	0.00000e+00	0.00000e+00	0.00000e+00	0.00000e+00	0.00000e+00	0.00000e+00	0.00000e+00	0.00000e+00	0.00000e+00	0.00000e+00	0.00000e+00	0.00000e+00	0.00000e+00	0.00000e+00	0.00000e+00	0.00000e+00	0.00000e+00	0.00000e+00	0.00000e+00	0.00000e+00	0.00000e+00	-9.97839e+01	-1.27879e+02	-1.28521e+02	-1.82006e+02	-5.58992e+01	-7.33021e+01	-1.57810e+02	-1.62015e+02	-5.12818e+01	-6.74143e+01	-1.72403e+02	-1.70165e+02	-1.80574e+02	-1.76604e+02	-6.35904e+01	-1.48996e+02	
Factor	1.65874e-05	1.60630e-04	4.67225e-05	1.56642e-01	1.23825e-06	1.65992e-06	1.81458e-01	5.32774e-02	1.10927e-06	1.85625e-06	9.31568e-02	3.11199e-02	4.21576e-02	9.47623e-03	1.36244e-06	1.40405e-02	8.31017e-06	1.23189e-05	3.42039e-06	7.89887e-02	1.27350e-07	1.35954e-07	8.60234e-02	2.70087e-02	1.27156e-07	1.36589e-07	4.55214e-02	1.53836e-02	2.16466e-02	4.83925e-03	1.31139e-07	6.92868e-03	X	X	X	X	X	X	X	X	X	X	X	X	X	X	X	X	



#DISTANCE SETTINGS
A = Detector Channel
A-1	A-2	A-3	A-4	A-5	A-6	A-7	A-8	A-9	A-10	A-11	A-12	A-13	A-14	A-15	A-16	

2.5000e+00	3.0000e+00	2.5000e+00	3.0000e+00	2.0000e+00	3.0000e+00	1.5000e+00	3.0000e+00	3.0000e+00	3.0000e+00	3.0000e+00	3.0000e+00	3.0000e+00	3.0000e+00	1.5000e+00	3.0000e+00	

B = Detector Channel
B-1	B-2	B-3	B-4	B-5	B-6	B-7	B-8	B-9	B-10	B-11	B-12	B-13	B-14	B-15	B-16	

1.0000e+01	1.0000e+01	1.0000e+01	1.4400e+00	1.0000e+01	1.0000e+01	1.5100e+00	1.9400e+00	1.0000e+01	1.0000e+01	1.9900e+00	2.4900e+00	2.4100e+00	2.9000e+00	1.0000e+01	2.9800e+00	




#DATA BEGINS
time	group	step	mark	flag	A-AC1	A-AC2	A-AC3	A-AC4	A-AC5	A-AC6	A-AC7	A-AC8	A-AC9	A-AC10	A-AC11	A-AC12	A-AC13	A-AC14	A-AC15	A-AC16	A-DC1	A-DC2	A-DC3	A-DC4	A-DC5	A-DC6	A-DC7	A-DC8	A-DC9	A-DC10	A-DC11	A-DC12	A-DC13	A-DC14	A-DC15	A-DC16	A-Ph1	A-Ph2	A-Ph3	A-Ph4	A-Ph5	A-Ph6	A-Ph7	A-Ph8	A-Ph9	A-Ph10	A-Ph11	A-Ph12	A-Ph13	A-Ph14	A-Ph15	A-Ph16	B-AC1	B-AC2	B-AC3	B-AC4	B-AC5	B-AC6	B-AC7	B-AC8	B-AC9	B-AC10	B-AC11	B-AC12	B-AC13	B-AC14	B-AC15	B-AC16	B-DC1	B-DC2	B-DC3	B-DC4	B-DC5	B-DC6	B-DC7	B-DC8	B-DC9	B-DC10	B-DC11	B-DC12	B-DC13	B-DC14	B-DC15	B-DC16	B-Ph1	B-Ph2	B-Ph3	B-Ph4	B-Ph5	B-Ph6	B-Ph7	B-Ph8	B-Ph9	B-Ph10	B-Ph11	B-Ph12	B-Ph13	B-Ph14	B-Ph15	B-Ph16	aux-1	digaux	

1935.786	1	1	0	768	0.18432	0.096772	0.25507	0.115	0.053706	0.09983	0.19193	0.10939	0.17207	0.18796	0.0606	0.25397	0.2341	0.18166	0.20822	0.12165	-2.3521	-3.4792	-3.1	-2.8688	-3.5083	-2.8812	-3.4271	-3.4521	-2.7	-3.525	-3.3042	-2.9	-3.4854	-2.9667	-3.0229	-3.5167	126.849	165.152	80.017	-98.626	-43.642	137.549	215.850	176.578	-46.880	-0.407	148.577	115.900	-125.722	69.957	-12.186	54.355	0.00027721	0.0002971	9.3847e-05	838.93	2.9851e-06	3.9767e-06	875.33	280.2	2.7996e-06	3.8957e-06	317.58	104.66	94.901	39.775	2.3563e-06	46.785	0.00046487	0.00052653	0.00014663	875.11	5.6201e-06	5.5353e-06	916.45	295.25	5.7482e-06	5.564e-06	333.97	111.86	101.82	42.285	5.7144e-06	49.765	-130.097	-43.479	-57.494	-125.470	2.208	18.961	-126.562	-120.425	-20.017	8.659	-122.206	-117.018	-114.921	-108.810	4.884	-111.419	-8191	255	
1935.882	1	1	0	0	0.026705	0.24193	0.20855	0.19889	0.046208	0.12103	0.15296	0.1792	0.18533	0.084939	0.3083	0.0060187	0.08513	0.082974	0.23297	0.10526	-2.4688	-3.4833	-3.3708	-2.7792	-3.5	-2.9667	-3.3146	-3.6	-2.9062	-3.3625	-3.3542	-2.9062	-3.5667	-3.0021	-2.8729	-3.7687	216.617	-119.146	-10.909	127.415	91.236	127.834	174.724	178.892	56.026	84.637	-106.386	-4.678	191.988	201.926	-53.231	218.748	0.00029028	0.00044256	0.00015317	842.89	2.2364e-06	4.8022e-06	883.35	282.53	1.8518e-06	5.0912e-06	319.8	105.58	95.651	39.834	5.136e-06	47.312	0.00047635	0.00055535	0.00015385	880.26	5.8443e-06	5.827e-06	926.32	297.8	6.0227e-06	5.7473e-06	336.52	112.61	102.56	42.531	5.9253e-06	50.316	-127.387	-45.199	-28.093	-125.234	31.129	3.559	-126.467	-120.357	4.285	12.978	-121.847	-117.079	-115.038	-108.597	-12.553	-111.329	-8191	255	
1935.978	1	1	0	0	0.16531	0.23349	0.26189	0.12859	0.083095	0.13842	0.27284	0.4648	0.33653	0.080682	0.090765	0.28204	0.18982	0.18871	0.083646	0.11624	-2.5583	-3.2438	-3.3187	-2.7958	-3.3479	-3.2271	-3.2271	-3.8354	-2.5625	-3.4271	-3.5396	-2.7083	-3.4813	-3.1729	-2.925	-3.6063	217.293	-126.791	105.938	182.087	78.135	-83.196	205.435	144.263	17.257	-16.285	-92.844	136.318	179.726	-89.373	-130.506	-123.572	0.00029459	0.00037668	0.00014482	847.04	2.1748e-06	4.3807e-06	887.34	283.68	3.2579e-06	3.7871e-06	321.23	105.93	96.044	40.085	3.4437e-06	47.42	0.00050349	0.00058332	0.00015684	884.8	6.0793e-06	6.2137e-06	930.2	299.11	6.3053e-06	5.9732e-06	338.18	112.76	102.92	42.68	6.2422e-06	50.196	-127.579	-13.776	-53.569	-125.367	-4.727	-10.443	-126.345	-119.913	-18.427	4.548	-122.275	-117.033	-114.769	-108.723	-22.099	-111.186	-8191	255	
1936.074	1	1	0	0	0.073603	0.22848	0.18689	0.14484	0.078997	0.1095	0.30401	0.12511	0.050429	0.024925	0.10253	0.090337	0.17796	0.047945	0.25061	0.040901	-2.6063	-3.0917	-3.3563	-2.7729	-3.5833	-3.1646	-2.9333	-3.5312	-2.8125	-3.0875	-3.5208	-2.9562	-3.5125	-3.2313	-2.6146	-3.5667	184.373	132.858	68.913	-121.506	157.573	106.168	181.408	133.517	-34.246	8.623	165.815	-34.243	184.498	-0.175	-80.697	-120.064	0.00027809	0.00038812	0.00011944	852.22	2.1015e-06	3.6277e-06	888.44	284.85	3.4926e-06	4.5445e-06	321.68	105.27	95.936	39.894	1.6279e-06	46.926	0.00051057	0.00059356	0.00015814	890.16	6.1046e-06	6.3723e-06	931	300.48	6.3252e-06	6.1909e-06	338.32	112.29	102.91	42.514	6.3884e-06	49.953	-129.843	-34.791	-53.633	-125.490	-21.206	6.305	-126.292	-120.074	-10.459	8.297	-121.924	-117.096	-115.167	-108.547	-7.377	-111.280	-8191	255	
1936.170	1	1	0	0	0.31751	0.22045	0.12985	0.096771	0.041967	0.15468	0.10925	0.14438	0.12875	0.11347	0.15829	0.039625	0.25564	0.16402	0.23992	0.11133	-2.4625	-3.0042	-3.4604	-2.9417	-3.3	-3.3208	-2.7812	-3.6542	-3.1063	-2.8333	-3.6562	-2.7708	-3.1896	-3.4542	-2.5646	-3.4771	-27.635	7.511	-15.609	143.379	142.730	165.705	199.383	175.472	207.207	215.751	-31.563	92.684	11.003	146.926	-98.518	159.216	0.00027237	0.00052306	0.00011006	851.03	2.5904e-06	4.1353e-06	885.8	284.37	2.626e-06	3.66e-06	320.94	105.14	95.843	39.757	3.3555e-06	46.846	0.00051303	0.00058307	0.00015912	888.58	5.8958e-06	6.5484e-06	929.96	299.73	6.2386e-06	6.2134e-06	337.58	112.08	102.41	42.393	6.3665e-06	49.762	-132.818	-35.763	-55.742	-125.543	24.529	-5.670	-126.840	-120.271	-9.105	38.720	-122.012	-116.817	-114.773	-108.670	-5.341	-111.291	-8191	255	
1936.266	1	1	0	0	0.2366	0.042796	0.25641	0.28762	0.2647	0.27884	0.14496	0.19524	0.070868	0.24403	0.1605	0.072881	0.079349	0.19876	0.19254	0.13064	-2.7542	-2.7333	-3.4667	-2.8604	-3.1542	-3.4188	-2.8771	-3.6479	-3.0667	-2.8021	-3.675	-2.8979	-3.1021	-3.6604	-2.7458	-3.3875	56.101	36.141	158.511	171.679	59.778	-60.078	91.952	-110.809	-102.224	95.360	37.109	-134.496	-62.858	-59.376	166.170	173.897	0.00025319	0.00052607	0.00010159	847.98	1.5164e-06	3.4255e-06	882.47	283.46	3.1695e-06	2.5557e-06	320.38	105.37	95.325	39.848	4.3645e-06	47.106	0.00051433	0.00056338	0.00015673	885.2	5.8655e-06	6.4051e-06	925.23	299.01	6.1101e-06	6.1155e-06	337.23	112.27	102.23	42.465	6.1627e-06	50.045	-126.537	-68.448	-70.474	-125.305	11.355	6.780	-126.477	-120.218	-2.311	32.036	-122.303	-116.929	-115.048	-108.610	-6.777	-111.212	-8191	255	
1936.387	1	1	0	0	0.10167	0.088638	0.029056	0.20433	0.18425	0.089029	0.23561	0.18267	0.089486	0.21467	0.35972	0.18973	0.04997	0.22385	0.29682	0.094229	-2.9917	-2.8354	-3.5417	-2.8604	-2.95	-3.6917	-3.0312	-3.3229	-3.3812	-2.8354	-3.7438	-3.0604	-3.0917	-3.7271	-2.6979	-3.5542	-63.301	201.738	147.457	217.799	-0.566	-109.612	-59.243	117.115	116.537	-31.660	195.453	-41.467	150.902	139.852	176.637	150.351	0.00028713	0.00052259	0.0001492	844.03	2.631e-06	3.4615e-06	879.28	283	1.6516e-06	5.5875e-06	320.94	105.13	95.224	39.881	2.9844e-06	47.287	0.00050074	0.00054963	0.00015346	880.91	5.7143e-06	6.3e-06	923.02	298.3	5.7633e-06	6.1659e-06	337.14	112.37	102	42.54	6.0029e-06	50.274	-128.600	-53.958	-33.047	-125.415	16.705	14.601	-126.622	-120.095	-15.283	-2.873	-121.869	-116.995	-114.867	-108.465	23.861	-111.295	-8191	255	
1936.483	1	1	0	0	0.26164	0.10937	0.082526	0.25575	0.15309	0.041791	0.1632	0.098497	0.090502	0.32867	0.035129	0.21334	0.26653	0.35228	0.15509	0.18673	-2.9542	-2.825	-3.5062	-3.225	-2.8604	-3.5667	-2.8854	-3.3771	-3.4938	-2.6896	-3.5979	-3.0333	-2.8292	-3.4667	-2.6958	-3.2542	160.189	42.717	-76.521	108.909	35.848	110.428	108.898	81.630	88.339	-66.666	12.967	113.691	221.232	173.920	-134.828	165.351	0.00027933	0.00047018	0.00013531	839.43	2.3844e-06	2.955e-06	876.49	281.4	2.8502e-06	3.0387e-06	320.05	105.46	95.249	39.834	2.47e-06	47.013	0.00050289	0.00051298	0.00015006	876.77	5.5511e-06	5.963e-06	920.02	296.89	5.5458e-06	5.7382e-06	335.69	112.07	101.79	42.425	5.7737e-06	49.955	-128.815	-54.018	-51.488	-125.415	15.272	0.749	-126.454	-119.854	-5.830	-3.888	-121.877	-117.108	-114.971	-108.865	-17.015	-111.294	-8191	255	
1936.579	1	1	0	0	0.066066	0.34194	0.25206	0.21432	0.11365	0.12495	0.14057	0.069709	0.11389	0.15246	0.1729	0.044171	0.27565	0.31967	0.04435	0.13794	-2.8583	-2.5062	-3.375	-3.1937	-2.7875	-3.6083	-3.0146	-3.0667	-3.5458	-2.7208	-3.3312	-3.1917	-2.6708	-3.6896	-2.8833	-3.0479	213.237	117.486	70.801	162.896	-44.807	35.728	180.210	-6.746	203.093	136.149	211.719	193.498	135.391	-119.797	-123.092	-129.659	0.00029412	0.0003322	0.00011631	834.82	3.1972e-06	4.6181e-06	871.2	278.84	1.7456e-06	4.3497e-06	317.39	104.3	94.471	39.734	3.7521e-06	46.72	0.00048298	0.00049881	0.00014392	870.84	5.4662e-06	5.6364e-06	911.35	294.74	5.5392e-06	5.6434e-06	332.67	111.16	101.08	42.307	5.5595e-06	49.734	-130.369	-72.865	-34.010	-125.366	23.950	-7.558	-126.585	-119.874	-6.655	1.590	-121.940	-116.961	-114.796	-108.453	2.098	-111.182	-8191	255	
1936.676	1	1	0	0	0.21382	0.28348	0.13478	0.17707	0.075699	0.23806	0.32083	0.019496	0.096023	0.057822	0.031312	0.19679	0.26095	0.12935	0.093261	0.25606	-3.1375	-2.6792	-3.2979	-3.475	-2.6646	-3.6979	-3.0396	-2.8563	-3.4354	-2.7938	-3.375	-3.5125	-2.7417	-3.4896	-2.9042	-2.8563	37.379	-137.632	86.731	93.454	27.170	-66.099	86.242	188.294	101.931	-137.005	-27.199	78.854	207.699	162.354	200.935	62.086	0.0002821	0.00043391	0.00012328	829.82	2.451e-06	2.0281e-06	869.07	278.62	3.4262e-06	5.0363e-06	315.45	103.82	94.543	39.587	2.986e-06	46.595	0.00047835	0.00049124	0.00014172	867.29	5.5798e-06	5.4648e-06	908.97	293.83	5.3662e-06	5.6024e-06	331.87	110.93	100.91	42.096	5.4745e-06	49.655	-130.101	-68.715	-62.272	-125.315	10.751	44.125	-126.772	-120.109	-23.920	28.578	-121.928	-116.949	-114.946	-108.553	14.350	-111.370	-8191	255	
1936.770	1	1	0	0	0.25896	0.12426	0.15041	0.18013	0.17103	0.12246	0.16855	0.12925	0.14259	0.069197	0.29965	0.12375	0.13935	0.10573	0.089939	0.14898	-3.1813	-2.7583	-3.1708	-3.6104	-2.5521	-3.4792	-3.1688	-3.0583	-3.5625	-3.0125	-3.0521	-3.6958	-2.6625	-3.3708	-3.1333	-2.7229	-30.332	48.673	151.572	186.042	57.819	-65.082	168.930	218.772	81.266	100.828	-95.164	-8.173	-88.769	218.867	30.075	48.127	0.00028802	0.00035129	0.00018665	830.18	1.0683e-06	4.4468e-06	864.08	278.74	2.0335e-06	2.9203e-06	316.74	104.22	94.407	39.687	2.3809e-06	47.089	0.00047041	0.00048565	0.00013648	866.85	5.3728e-06	5.2334e-06	907.46	293.92	5.3212e-06	5.6149e-06	332.52	111.42	100.96	42.3	5.3783e-06	50.074	-128.227	-44.297	-25.711	-125.418	20.251	-14.141	-126.875	-120.055	27.458	3.485	-121.922	-116.776	-114.812	-108.421	-16.216	-111.003	-8191	255	
1936.866	1	1	0	0	0.01156	0.076083	0.091202	0.12796	0.1548	0.178	0.1214	0.13168	0.10756	0.22916	0.32888	0.26766	0.23412	0.17737	0.22176	0.13145	-3.0792	-2.75	-2.9042	-3.6042	-2.6042	-3.3021	-3.3542	-2.9125	-3.5604	-3.0438	-3.0646	-3.6	-2.7313	-3.4833	-3.3083	-2.8604	140.289	115.778	199.407	-117.968	-60.002	-73.385	211.310	118.849	102.003	70.234	19.862	117.962	-136.060	176.756	111.258	161.473	0.00028742	0.00042906	0.00012537	829.56	3.3382e-06	3.3727e-06	867.4	279.24	2.2804e-06	4.2009e-06	318.6	105.18	94.586	39.847	3.8007e-06	47.374	0.0004547	0.00049047	0.00013562	867.97	5.4577e-06	5.0756e-06	910.78	293.96	5.3045e-06	5.3469e-06	333.52	111.93	101.2	42.48	5.4764e-06	50.397	-128.786	-54.428	-50.682	-125.447	6.761	-7.450	-126.448	-119.956	-28.887	38.921	-121.581	-117.008	-114.760	-108.471	-5.576	-111.219	-8191	255	
1936.987	1	1	0	0	0.18118	0.1393	0.10821	0.10859	0.14537	0.13406	0.067125	0.39904	0.1648	0.17806	0.11288	0.13157	0.22607	0.18739	0.29119	0.15352	-3.2021	-2.9875	-2.7958	-3.8187	-2.5854	-3.2	-3.4375	-2.8979	-3.45	-3.0187	-2.9479	-3.5083	-2.7396	-3.0854	-3.2708	-2.7146	-136.820	90.174	171.581	165.358	102.010	138.669	-86.179	162.883	-55.381	161.107	-135.590	-94.198	145.492	-19.891	-118.808	19.324	0.00029076	0.00035202	8.6845e-05	833.55	2.7221e-06	4.4023e-06	866.19	280.53	2.7115e-06	4.8421e-06	317.23	104.79	94.553	39.788	2.7997e-06	46.752	0.0004627	0.00049678	0.00013744	870.5	5.4214e-06	5.1481e-06	911.98	295.19	5.3988e-06	5.471e-06	333.39	111.76	101.14	42.327	5.3327e-06	49.716	-130.177	-31.392	-60.959	-125.393	14.363	27.274	-126.581	-119.966	1.243	46.837	-121.884	-116.990	-115.108	-108.469	-20.552	-111.170	-8191	255	
1937.083	1	1	0	0	0.14726	0.12621	0.20575	0.089825	0.18582	0.077791	0.1941	0.27385	0.20732	0.12678	0.22143	0.060914	0.19983	0.045841	0.184	0.068064	-3.2062	-3.2708	-2.8125	-3.5792	-2.8271	-3.1083	-3.6333	-2.8063	-3.2583	-3.3125	-3.0438	-3.6167	-2.6729	-3.1854	-3.6063	-2.8375	105.812	123.612	-44.500	184.996	198.318	93.544	118.655	205.341	61.703	119.836	94.362	61.661	136.862	3.171	8.465	155.257	0.00027573	0.00041341	0.00015023	832.08	2.9677e-06	4.5265e-06	868.64	278.37	2.6673e-06	4.8377e-06	316.57	103.58	94.363	39.596	3.0415e-06	46.676	0.00045277	0.00050949	0.00013069	869.07	5.471e-06	5.2263e-06	910.07	294.51	5.5435e-06	5.5902e-06	332.26	110.84	101.18	42.123	5.7119e-06	49.467	-125.163	-43.699	-50.926	-125.528	-0.110	3.967	-126.614	-120.048	-22.759	21.011	-121.762	-116.883	-114.747	-108.374	1.059	-111.262	-8191	255	
1937.179	1	1	0	0	0.15622	0.2315	0.10624	0.26853	0.17112	0.10603	0.21205	0.2481	0.15363	0.23757	0.019047	0.11434	0.18851	0.064281	0.21401	0.23935	-2.9542	-3.2604	-2.6979	-3.35	-2.8312	-3.1	-3.6104	-2.8417	-3.3667	-3.3083	-2.775	-3.5896	-2.9479	-2.9062	-3.4917	-2.7521	113.996	-52.357	67.195	-127.433	-120.750	194.861	161.159	173.128	86.070	12.181	-8.742	74.527	-91.498	154.279	58.430	38.720	0.00028152	0.00042567	0.00014064	830.14	2.2242e-06	3.1364e-06	863.9	279.42	1.3262e-06	5.2217e-06	314.59	104.45	93.77	39.372	2.4622e-06	46.44	0.00045162	0.00052999	0.00013789	868.02	5.5692e-06	5.4948e-06	908.5	294.52	5.7188e-06	5.6275e-06	332.08	110.98	101	41.993	5.7649e-06	49.482	-128.930	-64.681	-26.216	-125.389	12.853	-11.618	-126.418	-120.047	-42.936	3.491	-121.947	-116.666	-114.906	-108.486	-2.724	-111.175	-8191	255	
1937.275	1	1	0	0	0.066922	0.10512	0.13877	0.28535	0.14115	0.18017	0.2625	0.33616	0.084235	0.12879	0.27023	0.22309	0.062779	0.1934	0.25063	0.10886	-2.8917	-3.3146	-2.6667	-3.6854	-3.1583	-2.875	-3.6479	-2.8812	-3.0479	-3.4729	-2.8646	-3.525	-3.2854	-2.7292	-3.6729	-2.9479	-35.242	81.545	19.378	211.557	-1.853	7.921	-115.848	164.950	-100.510	-25.108	167.908	112.128	-114.307	-73.790	123.523	156.712	0.00028012	0.00035011	0.00012913	832	1.6003e-06	1.3678e-06	869.09	279.81	3.1789e-06	5.5848e-06	316.78	105.02	95.168	39.656	1.9137e-06	46.925	0.00046622	0.0005285	0.00014187	869.82	5.7137e-06	5.471e-06	911.75	295.25	5.7104e-06	5.6696e-06	334.12	111.83	101.52	42.238	5.5505e-06	49.921	-129.284	-64.885	-27.847	-125.497	40.165	-16.141	-126.741	-120.046	6.408	14.784	-122.139	-116.810	-114.666	-108.287	4.400	-110.906	-8191	255	
1937.347	1	1	0	0	0.10796	0.11743	0.070957	0.088418	0.071213	0.18433	0.16045	0.21599	0.18529	0.056364	0.0080597	0.13861	0.28121	0.14878	0.21377	0.24209	-2.7771	-3.5583	-2.5042	-3.5354	-3.1688	-2.8521	-3.5333	-2.9562	-2.8708	-3.5687	-2.9688	-3.625	-3.3667	-2.6813	-3.4396	-3.2313	15.305	-51.625	-91.593	-73.189	0.365	-50.631	152.739	-111.290	-80.396	-136.722	-27.794	-111.880	64.748	11.623	94.447	-115.460	0.000292	0.00041553	0.00010009	835.68	3.0587e-06	3.7285e-06	874.15	279.57	2.3081e-06	5.2811e-06	318.09	105.69	95.819	40.014	2.3124e-06	47.457	0.00046554	0.0005349	0.00013984	872.7	5.5413e-06	5.6693e-06	915.1	295.53	5.5085e-06	5.5498e-06	334.85	112.59	102.11	42.527	5.6887e-06	50.385	-127.791	-37.517	-34.195	-125.117	9.237	-7.386	-126.428	-120.065	-17.941	10.806	-121.883	-116.827	-114.866	-108.552	-5.751	-111.095	-8191	255	
1937.467	1	1	0	0	0.15166	0.22207	0.15762	0.36927	0.061832	0.23993	0.13353	0.24205	0.41373	0.13627	0.054573	0.03679	0.13452	0.055178	0.07166	0.25778	-2.5604	-3.4292	-2.6792	-3.3208	-3.3479	-2.7062	-3.6229	-3.3104	-2.8146	-3.5167	-2.9104	-3.1333	-3.5625	-2.7687	-3.4521	-3.1708	-123.730	-114.039	38.637	217.069	128.669	193.929	-64.888	-123.318	-42.575	142.657	96.315	8.752	177.061	20.725	-31.018	99.488	0.00030307	0.00036241	0.00010741	836.38	2.7139e-06	4.8242e-06	871.58	282.42	2.7261e-06	2.2313e-06	319.08	105.03	94.921	40.109	2.7256e-06	46.944	0.00046161	0.00052804	0.000141	873.78	5.4113e-06	5.7469e-06	915.42	296.93	5.5268e-06	5.6286e-06	335.09	112.05	101.78	42.625	5.786e-06	50.047	-134.283	-66.911	-49.471	-125.342	-15.013	-16.871	-126.513	-120.101	8.324	20.346	-122.048	-116.586	-114.581	-108.333	-0.619	-111.247	-8191	255	
1937.564	1	1	0	0	0.079334	0.12168	0.058544	0.096433	0.20863	0.15653	0.14925	0.066627	0.13064	0.19104	0.17377	0.1893	0.15647	0.24183	0.15452	0.023897	-2.4667	-3.475	-2.7021	-3.1125	-3.4313	-2.7104	-3.2958	-3.4	-2.8187	-3.5333	-3.1854	-3.0854	-3.4354	-2.8438	-3.3021	-3.2188	96.569	-61.077	-8.257	215.803	202.223	-130.813	212.042	197.628	-130.430	45.785	140.385	-135.664	199.088	176.623	-89.031	205.616	0.00029619	0.00035212	0.00019412	837.03	2.802e-06	2.7201e-06	875.1	281.67	8.8328e-07	5.8827e-06	318.85	104.7	95.602	40.103	3.112e-06	47.177	0.00046935	0.00051939	0.00014464	875.65	5.5705e-06	5.8769e-06	917.49	297.39	5.5543e-06	5.6995e-06	334.76	111.97	102.09	42.708	5.7505e-06	50.215	-130.766	-20.259	-53.649	-125.117	50.156	35.301	-126.327	-119.985	10.125	17.544	-122.155	-116.701	-114.579	-108.484	1.328	-111.311	-8191	255	
1937.660	1	1	0	0	0.10769	0.073132	0.11711	0.21611	0.13482	0.11882	0.070883	0.42504	0.084205	0.24925	0.15342	0.13151	0.021997	0.48332	0.14649	0.18506	-2.4896	-3.4771	-2.9354	-2.9417	-3.5021	-2.5396	-3.4042	-3.4396	-2.7667	-3.3771	-3.0042	-2.7979	-3.6875	-2.8812	-3.2354	-3.4625	4.886	87.724	-82.549	-108.286	179.326	58.139	203.349	151.065	-12.591	29.534	-117.847	126.084	-81.379	-94.828	-59.588	217.345	0.00029312	0.00039525	0.00011985	840.29	1.7728e-06	3.2064e-06	877.59	281.72	2.9392e-06	4.1817e-06	318.04	105.68	95.161	40.16	2.5522e-06	47.471	0.00048782	0.00052999	0.00014492	876.41	5.5978e-06	5.7882e-06	919.07	297.19	5.6047e-06	5.7715e-06	335.57	112.5	102.13	42.803	5.7335e-06	50.569	-132.351	-39.904	-27.215	-125.102	-1.559	5.736	-126.390	-120.223	-13.144	7.216	-122.089	-116.531	-114.720	-108.283	19.002	-111.181	-8191	255	
1937.779	1	1	0	0	0.024623	0.051315	0.12715	0.075445	0.13026	0.15926	0.096036	0.23997	0.12757	0.14538	0.040562	0.19661	0.1136	0.26366	0.17001	0.09017	-2.2687	-3.4521	-3.0833	-2.8812	-3.575	-2.9521	-3.1333	-3.3917	-2.8667	-3.5938	-3.3063	-2.7375	-3.6646	-2.8542	-3.1604	-3.6729	-5.952	121.832	143.023	-135.708	-117.970	100.268	137.199	188.951	102.331	121.809	3.389	209.309	-69.553	178.051	-17.559	157.663	0.00031093	0.0003505	0.00010734	841.79	2.1956e-06	6.4908e-06	878.74	283.86	2.6666e-06	4.9719e-06	322.42	106.57	95.926	40.725	3.0425e-06	48.115	0.00049381	0.00050112	0.00014376	878.25	5.5036e-06	5.9806e-06	922.93	299.1	5.5135e-06	5.873e-06	338.54	113.62	103.09	43.344	5.9321e-06	51.237	-129.936	-29.045	-34.232	-125.212	3.783	-6.596	-126.256	-119.915	-27.723	-3.488	-121.922	-116.757	-114.725	-108.349	18.978	-111.228	-8191	255	
1937.875	1	1	0	0	0.10443	0.34232	0.096825	0.36861	0.14058	0.15714	0.1542	0.17991	0.22151	0.27956	0.16286	0.19807	0.031912	0.13591	0.16876	0.18819	-2.2771	-3.4813	-3.1875	-2.8896	-3.4229	-2.8542	-3.1479	-3.7021	-2.8729	-3.3479	-3.3542	-2.7708	-3.4958	-3.0479	-2.9938	-3.6292	156.108	-21.386	83.198	203.017	199.750	16.241	-109.503	120.815	21.029	-91.621	17.187	194.935	28.144	-121.466	152.444	124.395	0.00029397	0.00021341	0.00011795	852.79	2.4859e-06	3.9325e-06	891.5	286.32	3.4259e-06	4.2937e-06	324.78	108	97.192	40.766	2.9337e-06	48.573	0.00049968	0.00050741	0.00015501	888.29	5.7734e-06	5.8004e-06	932.92	301.89	5.7302e-06	5.8617e-06	341.62	114.76	103.85	43.569	5.8851e-06	51.693	-129.880	-18.361	-51.663	-125.236	3.358	-10.845	-126.314	-120.011	3.680	-6.820	-121.975	-116.707	-114.513	-108.383	-7.525	-110.919	-8191	255	
1937.946	1	1	0	0	0.17062	0.13689	0.13542	0.18752	0.17156	0.077193	0.23444	0.32921	0.46233	0.13293	0.10919	0.25663	0.27859	0.243	0.099282	0.19982	-2.4625	-3.1708	-3.3583	-2.925	-3.5083	-3.2417	-2.9625	-3.5542	-2.7229	-3.1188	-3.4	-2.8	-3.375	-3.225	-2.7854	-3.5271	42.757	-82.983	-55.315	-93.508	-9.558	179.157	181.274	163.029	148.548	152.588	35.485	-73.551	169.274	-128.336	145.323	94.272	0.00031115	0.00024102	0.00015023	852.4	2.2026e-06	4.6967e-06	893.98	287.76	2.273e-06	4.4477e-06	325.55	106.69	96.642	40.526	4.1684e-06	47.584	0.00049281	0.00051046	0.0001536	890.82	5.8223e-06	5.7715e-06	937.13	303.11	5.7326e-06	5.9544e-06	341.57	113.87	103.58	43.244	5.9097e-06	50.765	-131.717	-50.946	-50.845	-125.098	9.772	-16.186	-126.206	-119.909	-8.547	12.457	-122.001	-116.552	-114.929	-108.495	0.766	-111.126	-8191	255	
1938.067	1	1	0	0	0.20663	0.091661	0.22908	0.078616	0.15351	0.097821	0.20294	0.20616	0.20339	0.071546	0.22175	0.22595	0.11749	0.085798	0.11724	0.16064	-2.4437	-2.9083	-3.2979	-2.8792	-3.2042	-3.1833	-2.8667	-3.6792	-2.9708	-3.1896	-3.6125	-2.775	-3.5167	-3.4042	-2.7271	-3.6958	98.842	-129.144	-0.605	89.674	86.588	81.053	143.280	206.298	56.127	9.609	201.310	-68.711	-93.159	178.173	168.292	140.021	0.00027476	0.00042669	0.00018182	853.34	1.1446e-06	4.632e-06	890.03	286.47	2.2983e-06	1.6767e-06	325.89	106.41	96.571	40.065	3.3677e-06	47.536	0.00050354	0.00051511	0.00015464	891.53	5.8116e-06	5.8251e-06	932.95	302.44	5.9808e-06	5.8099e-06	341.07	113.41	103.24	42.749	5.7841e-06	50.319	-129.408	-58.093	-48.554	-125.138	-3.850	14.483	-126.499	-119.969	-19.949	56.637	-121.868	-116.671	-114.535	-108.759	-8.008	-111.171	-8191	255	
1938.163	1	1	0	0	0.21759	0.15216	0.094054	0.24554	0.084237	0.3228	0.18784	0.10072	0.2553	0.11669	0.049818	0.13654	0.26573	0.32726	0.16629	0.065451	-2.6333	-2.925	-3.475	-2.8125	-3.4271	-3.3063	-2.8771	-3.7229	-3.0563	-3.0229	-3.5583	-2.7687	-3.4021	-3.6604	-2.6667	-3.6458	-41.901	198.675	-55.281	-69.045	-58.755	-4.583	153.756	-117.667	212.095	220.506	178.211	-101.045	212.757	182.097	-21.561	-99.212	0.00029895	0.00027146	0.00017357	855.55	2.8671e-06	5.0245e-06	893.62	286.65	2.7239e-06	5.7622e-06	324.95	106.6	96.955	40.219	2.6609e-06	47.53	0.00050228	0.00052176	0.00015676	893.43	5.8453e-06	5.8231e-06	936.24	302.68	5.8709e-06	5.984e-06	341.64	113.63	103.39	42.83	5.792e-06	50.381	-126.940	-29.019	-35.584	-125.400	24.209	-5.659	-126.553	-119.924	19.489	17.665	-121.811	-116.822	-114.816	-108.516	6.752	-110.925	-8191	255	
1938.259	1	1	0	0	0.15014	0.1202	0.20044	0.21881	0.19034	0.23069	0.020342	0.12212	0.099412	0.16086	0.10915	0.17856	0.32178	0.15878	0.18216	0.19635	-2.7625	-2.8312	-3.5104	-2.7979	-3.0396	-3.5062	-2.8312	-3.6937	-3.2375	-2.7271	-3.6854	-2.85	-3.0708	-3.4292	-2.8333	-3.5333	-32.958	46.233	164.892	200.186	-64.004	-101.819	179.948	-39.603	6.500	-67.409	-38.393	30.365	-14.762	-133.809	135.556	214.769	0.0002944	0.00035318	8.9935e-05	857.27	1.9629e-06	3.1558e-06	898.12	289.11	1.6279e-06	4.3197e-06	326.38	107.44	96.78	40.153	3.8085e-06	47.747	0.00049935	0.00053718	0.00015844	896.68	5.9109e-06	5.8559e-06	942.28	304.9	6.0788e-06	5.8876e-06	343.94	114.34	103.62	42.86	5.8636e-06	50.692	-131.382	-73.749	-36.740	-125.100	-7.966	-15.535	-126.483	-120.074	-25.059	11.533	-121.797	-116.826	-114.671	-108.502	4.061	-111.050	-8191	255	
1938.380	1	1	0	0	0.092148	0.20052	0.1514	0.30684	0.14413	0.21465	0.070813	0.12517	0.086211	0.075604	0.095133	0.14048	0.22839	0.11212	0.14466	0.11596	-2.9625	-2.8021	-3.4792	-3.1229	-3.1354	-3.5438	-2.9083	-3.3937	-3.425	-2.9354	-3.6521	-3.1208	-2.7667	-3.7458	-2.8063	-3.3458	-9.962	175.529	-28.258	108.581	-112.945	42.142	97.299	203.956	-124.086	163.225	-48.334	209.794	52.154	-17.956	95.376	27.455	0.00027761	0.00034188	0.00014811	863.97	3.2794e-06	2.461e-06	902.79	289.63	2.6036e-06	2.4085e-06	330.71	107.62	97.29	40.506	3.4494e-06	47.917	0.00049094	0.0005468	0.00015241	901.98	5.74e-06	5.914e-06	947.66	305.87	6.0203e-06	5.8528e-06	346.56	114.73	103.88	43.155	5.851e-06	50.932	-129.204	-48.330	-22.826	-125.179	22.959	11.515	-126.430	-119.824	-11.599	-5.055	-121.900	-116.837	-114.813	-108.415	-14.739	-111.003	-8191	255	
1938.476	1	1	0	0	0.15687	0.27174	0.081003	0.25758	0.25924	0.1453	0.057673	0.087159	0.10658	0.39163	0.13658	0.091603	0.24579	0.077635	0.19745	0.088256	-2.8937	-2.6312	-3.4042	-3.2208	-2.9042	-3.5125	-2.7771	-3.1667	-3.4104	-2.6312	-3.5625	-3.1146	-2.7021	-3.6	-2.7313	-3.3271	221.488	59.047	23.914	137.395	140.968	220.447	68.933	76.446	11.509	101.834	94.002	222.015	-89.715	171.436	21.055	18.365	0.00030444	0.00043088	0.00020716	866.66	2.4795e-06	4.3482e-06	907.61	291.62	3.1408e-06	4.5275e-06	331.07	107.13	97.293	40.381	2.4232e-06	47.672	0.00048885	0.0005591	0.00014569	906.75	5.7413e-06	5.9279e-06	953.13	307.2	6.0706e-06	5.6707e-06	346.69	114.12	103.99	43.031	5.8559e-06	50.592	-132.718	-42.367	-46.545	-125.214	15.631	7.007	-126.360	-119.761	3.674	21.954	-121.833	-116.715	-115.052	-108.434	27.164	-111.105	-8191	255	
1938.571	1	1	0	0	0.22638	0.26924	0.24614	0.12627	0.15394	0.19151	0.27304	0.2671	0.056029	0.21299	0.14192	0.041762	0.13156	0.065321	0.025783	0.070473	-3.1437	-2.7604	-3.5396	-3.2083	-2.8646	-3.4958	-3.1542	-3.2167	-3.5812	-2.8146	-3.5771	-3.3354	-2.9083	-3.6562	-2.9229	-3.0125	47.232	-4.594	196.274	91.976	55.837	79.083	151.051	-43.188	107.852	-109.450	195.821	76.365	138.247	183.061	126.909	-79.534	0.00028939	0.00037562	0.00015222	866.51	2.6634e-06	3.9511e-06	906.25	290.8	3.0517e-06	3.0324e-06	327.63	107.06	96.518	40.394	2.8974e-06	47.417	0.00048	0.00055052	0.00014042	905.12	5.6278e-06	5.7919e-06	950.16	305.59	5.8545e-06	5.7393e-06	344.49	113.94	103.61	42.904	5.7745e-06	50.482	-128.387	-56.748	-39.579	-125.247	-4.602	24.955	-126.400	-119.794	8.309	11.426	-121.688	-116.924	-114.891	-108.449	-50.117	-110.936	-8191	255	
1938.644	1	1	0	0	0.19837	0.056947	0.17064	0.21	0.070726	0.026086	0.17622	0.13706	0.070484	0.10821	0.19555	0.26087	0.16708	0.24535	0.087414	0.20613	-3.1688	-2.6813	-3.2042	-3.4354	-2.8438	-3.5563	-3.1125	-2.9313	-3.525	-2.8521	-3.4396	-3.5438	-2.5958	-3.5479	-2.9042	-3.0042	185.684	11.788	138.227	188.868	-15.544	177.725	152.793	-11.869	-130.965	-45.920	139.796	-114.651	110.248	-86.875	-79.721	153.187	0.00029864	0.00055674	0.00014831	863.61	2.0607e-06	3.3487e-06	902.76	290.26	2.7146e-06	4.3258e-06	327.27	107.04	96.961	40.326	1.8299e-06	47.586	0.00047375	0.00054134	0.00013806	902.12	5.5034e-06	5.7333e-06	946.8	305.26	5.7064e-06	5.6397e-06	343.73	114.07	103.65	43.048	5.8106e-06	50.682	-128.465	-58.564	-36.053	-125.165	14.178	2.853	-126.344	-120.036	-5.138	38.127	-121.740	-116.757	-114.529	-108.265	-3.173	-111.259	-8191	255	
1938.763	1	1	0	0	0.095724	0.21922	0.22727	0.13331	0.061144	0.054962	0.14123	0.14438	0.21249	0.10882	0.26972	0.12074	0.12715	0.18589	0.06101	0.23341	-3.1375	-2.8104	-3.0167	-3.5229	-2.7458	-3.4583	-3.1417	-2.8667	-3.5687	-2.8833	-3.1021	-3.3875	-2.7	-3.5146	-3.1896	-2.6958	-73.057	147.924	180.164	170.072	-24.906	29.590	-124.192	59.755	49.151	189.193	-128.785	-46.800	170.971	191.111	-120.363	183.101	0.00027324	0.00039757	0.00020012	867.92	2.246e-06	5.0611e-06	906.39	291.5	3.4535e-06	3.8848e-06	328.45	107.7	97.777	40.543	3.4096e-06	48.003	0.00047797	0.0005543	0.00014015	905.1	5.5729e-06	5.7837e-06	950.82	307.04	5.8436e-06	5.8164e-06	346.45	114.95	104.43	43.219	6.0523e-06	51.013	-129.030	-41.220	-44.679	-125.335	45.750	12.379	-126.414	-119.755	20.122	27.473	-121.743	-116.835	-114.836	-108.416	-10.479	-111.061	-8191	255	
1938.859	1	1	0	0	0.069888	0.050933	0.14173	0.15248	0.12531	0.14204	0.22336	0.24967	0.022578	0.14484	0.07666	0.12168	0.094223	0.1549	0.028624	0.24346	-3.0938	-2.8667	-2.8896	-3.5563	-2.9417	-3.3292	-3.4458	-2.7833	-3.5812	-3.0792	-2.8958	-3.575	-2.9875	-3.4292	-3.3937	-2.8563	166.426	13.961	-4.505	-136.300	77.167	128.688	130.997	-124.245	-102.490	160.241	-32.182	-92.388	178.187	216.521	147.169	-133.522	0.00029387	0.00047284	0.00010092	870.28	3.3609e-06	3.9694e-06	910.15	291.4	2.6174e-06	6.1454e-06	332.08	108.47	97.69	40.748	4.3833e-06	48.18	0.00048104	0.0005428	0.00014441	910.21	5.6392e-06	5.8789e-06	956.12	307.97	5.8913e-06	5.9778e-06	348.87	115.57	104.59	43.328	6.1685e-06	51.232	-130.767	-34.474	-51.067	-125.072	2.953	9.193	-126.482	-119.941	-4.923	-1.168	-121.829	-116.749	-114.489	-108.309	-8.536	-111.214	-8191	255	
1938.955	1	1	0	0	0.12516	0.23302	0.17889	0.053406	0.090376	0.25248	0.22446	0.08624	0.086664	0.19451	0.17666	0.14697	0.17833	0.26759	0.068465	0.14374	-3.2229	-3.0146	-2.6229	-3.5729	-2.7208	-3.2854	-3.6208	-2.8458	-3.6604	-3.1354	-2.8812	-3.625	-2.8104	-3.25	-3.4917	-2.8125	17.685	-83.041	-57.926	-90.342	-33.614	-76.531	165.228	53.937	-68.933	63.488	58.813	-95.322	-96.298	-124.262	91.743	87.055	0.00028129	0.00052246	0.00014253	870.84	2.2459e-06	6.1043e-06	912.24	292.65	2.6065e-06	4.1542e-06	331.77	108.17	97.878	40.646	3.0464e-06	47.817	0.00050039	0.00054942	0.00014357	910.63	5.831e-06	5.8395e-06	955.1	308.53	5.7233e-06	6.1001e-06	348.36	115.2	104.78	43.323	6.1679e-06	50.849	-131.033	-42.932	-45.425	-125.173	17.391	4.993	-126.368	-120.036	-9.523	8.414	-121.994	-116.674	-114.704	-108.193	34.396	-111.150	-8191	255	
1939.051	1	1	0	0	0.18853	0.20454	0.11334	0.19088	0.3504	0.11956	0.089978	0.25137	0.17691	0.11942	0.29419	0.11922	0.24757	0.10098	0.058922	0.095023	-3.1292	-3.0917	-2.7271	-3.7375	-2.7104	-3.15	-3.5604	-2.8937	-3.3854	-3.2271	-2.7458	-3.6458	-3.0667	-3.2833	-3.5042	-2.8167	145.911	28.396	-103.655	107.332	126.405	21.696	182.477	133.332	-24.585	-106.558	-107.555	125.121	150.669	123.771	116.662	-32.795	0.00027493	0.00047322	0.00014367	872.47	3.3918e-06	2.9908e-06	908.12	292.91	3.1429e-06	4.4555e-06	330.1	107.77	97.303	40.467	3.6985e-06	47.763	0.0004929	0.00053664	0.00015322	911.19	5.8976e-06	5.8905e-06	954.28	308.06	5.6171e-06	6.2176e-06	346.97	114.79	104.31	43.148	6.0384e-06	50.701	-129.785	-42.617	-53.530	-125.321	9.727	2.652	-126.369	-119.946	15.671	-8.442	-121.795	-116.858	-114.949	-108.347	-22.937	-111.633	-8191	255	
1939.172	1	1	0	0	0.19873	0.078655	0.23731	0.21691	0.072146	0.19877	0.1188	0.16519	0.24823	0.19383	0.16992	0.086828	0.12168	0.11625	0.084211	0.26211	-3.1	-3.3417	-2.7292	-3.6104	-2.725	-2.9	-3.7396	-2.8521	-3.2542	-3.2354	-2.7542	-3.4979	-3.1937	-3.0292	-3.6375	-2.8812	-2.648	-87.524	-125.271	220.242	-90.927	136.210	117.264	190.002	-47.572	-69.319	114.176	54.935	-114.543	-77.202	33.049	124.225	0.00028785	0.00049181	9.7316e-05	871.16	1.6617e-06	3.2238e-06	910.43	293.06	2.4717e-06	4.878e-06	330.75	108.17	97.932	40.631	2.1282e-06	48.107	0.00048821	0.00053987	0.00015301	909.07	5.9231e-06	5.9313e-06	953.52	308.31	5.5641e-06	6.1892e-06	347.81	115.18	104.65	43.352	6.0775e-06	51.078	-130.758	-44.470	-39.541	-125.299	-14.253	-17.546	-126.359	-120.002	-42.227	5.083	-121.927	-116.836	-114.727	-108.560	10.690	-111.085	-8191	255	
1939.244	1	1	0	0	0.1553	0.27864	0.14154	0.15571	0.05858	0.26593	0.067288	0.30759	0.1287	0.046162	0.074128	0.1435	0.16404	0.16652	0.092473	0.20466	-2.7562	-3.2521	-2.7375	-3.5729	-3.2604	-2.9	-3.75	-3.0375	-3.0375	-3.5312	-2.6979	-3.5583	-3.3021	-2.9833	-3.55	-3.0896	-6.931	-47.499	114.793	35.156	-29.333	142.074	99.693	137.220	-61.834	149.216	138.728	-14.291	-107.027	123.488	72.606	200.781	0.00027831	0.00036944	0.0001107	871.88	2.8782e-06	4.1271e-06	915.73	294.05	1.8849e-06	7.0436e-06	332.75	108.57	98.237	41.087	5.4235e-06	48.268	0.00050467	0.00053323	0.00015578	912.49	5.9979e-06	5.9389e-06	958.13	309.32	5.6629e-06	6.1548e-06	349.35	115.92	105.05	43.655	5.9406e-06	51.438	-126.009	-19.806	-39.052	-125.392	2.713	12.417	-126.111	-120.105	25.313	3.245	-121.833	-116.570	-114.802	-108.281	-9.713	-111.254	-8191	255	
1939.340	1	1	0	0	0.18296	0.07831	0.11897	0.26258	0.080884	0.12863	0.17749	0.16491	0.15866	0.098464	0.12553	0.12983	0.10603	0.26769	0.07831	0.1788	-2.7208	-3.375	-2.7812	-3.6021	-3.3354	-2.7667	-3.575	-2.975	-3.0187	-3.5583	-2.8688	-3.3667	-3.4917	-2.9313	-3.4479	-3.0042	71.209	150.412	193.849	199.136	121.552	94.006	215.886	166.657	-70.522	213.592	180.496	208.863	-55.934	-24.160	82.061	-33.220	0.00029444	0.0005	0.0001366	873.32	2.1879e-06	4.2025e-06	918.02	293.89	3.0427e-06	6.0552e-06	334.55	109.43	98.275	41.129	4.37e-06	48.522	0.00049513	0.00053908	0.0001585	914.1	6.0175e-06	5.9998e-06	962.42	310.51	5.859e-06	6.3713e-06	351.97	116.6	105.31	43.754	5.9575e-06	51.738	-127.719	-12.253	-55.695	-125.190	26.126	-9.082	-126.201	-119.915	11.737	17.323	-121.862	-116.732	-114.811	-108.467	-3.147	-110.994	-8191	255	
1939.460	1	1	0	0	0.32598	0.11291	0.15027	0.070711	0.065031	0.23727	0.037359	0.11055	0.097538	0.18724	0.098037	0.096894	0.21525	0.16255	0.047461	0.14218	-2.6562	-3.5771	-2.6521	-3.4021	-3.3396	-2.8375	-3.5979	-3.3396	-2.8854	-3.6083	-3.0042	-3.2917	-3.3417	-2.7583	-3.4521	-3.1396	7.747	101.491	-127.427	-89.281	148.283	-20.724	120.566	67.309	-81.865	-44.729	40.275	-103.617	-15.136	-62.499	79.925	121.159	0.00029464	0.00051582	0.00010622	876.27	2.8474e-06	4.2143e-06	915.68	293.98	2.1126e-06	5.1134e-06	333.33	108.33	98.034	40.665	3.6877e-06	47.644	0.00049369	0.00054342	0.00015662	914.72	5.9417e-06	5.9318e-06	961.06	309.71	5.7157e-06	6.0267e-06	349.52	115.3	104.42	43.302	5.7496e-06	50.814	-129.135	-56.856	-50.025	-124.932	-16.909	9.980	-126.428	-119.902	-29.532	22.073	-122.017	-116.669	-115.047	-108.443	17.012	-111.253	-8191	255	
1939.555	1	1	0	0	0.097608	0.067188	0.22105	0.15787	0.038662	0.21134	0.24933	0.22966	0.12964	0.22492	0.25259	0.09739	0.16562	0.046295	0.08991	0.19222	-2.3979	-3.5125	-3.0167	-3.0917	-3.4979	-2.7062	-3.6312	-3.3771	-2.8667	-3.5125	-2.9771	-2.9958	-3.3604	-2.7	-3.1979	-3.3333	5.133	-20.616	-104.740	163.434	35.068	-119.610	150.395	206.573	-4.276	154.387	-131.517	146.039	-14.232	-75.140	-62.306	7.021	0.0002789	0.00038291	0.00013663	870.87	2.4618e-06	3.6053e-06	909.1	292.82	1.9995e-06	5.0581e-06	330.18	107.36	96.948	40.465	4.06e-06	47.62	0.00049037	0.00053069	0.00015479	909.77	5.9281e-06	5.7653e-06	955.01	307.77	5.8934e-06	5.8326e-06	346.29	114.33	103.91	43.017	5.5578e-06	50.574	-129.418	-42.488	-34.576	-125.009	54.022	1.698	-126.372	-119.973	-8.729	9.583	-121.907	-116.643	-114.573	-108.424	13.122	-111.271	-8191	255	
1939.651	1	1	0	0	0.072745	0.19512	0.13872	0.17935	0.13866	0.26837	0.34745	0.25489	0.062699	0.27182	0.13754	0.18229	0.10813	0.13687	0.13204	0.19597	-2.2375	-3.5646	-2.8917	-3.0687	-3.6896	-2.7917	-3.4167	-3.4125	-2.6271	-3.4708	-3.0687	-3.0083	-3.6333	-2.8688	-3.1521	-3.3979	61.013	-85.352	136.696	218.445	142.378	-109.508	211.113	159.601	-27.969	8.438	156.432	-54.668	-16.945	190.800	202.943	98.585	0.00027182	0.00028226	0.0001728	869.67	1.8933e-06	3.1197e-06	908.47	292.99	3.3002e-06	6.1295e-06	331.95	107.5	97.195	40.38	4.2187e-06	47.863	0.00047943	0.00053307	0.00015039	907.04	5.709e-06	5.6953e-06	953.88	307.55	5.7e-06	5.4997e-06	347.82	114.39	103.87	43.003	5.259e-06	50.891	-126.473	-53.315	-65.082	-125.188	-7.904	16.934	-126.206	-119.876	12.203	13.787	-121.768	-116.640	-115.066	-108.432	-2.023	-110.869	-8191	255	
1939.749	1	1	0	0	0.26091	0.12769	0.21629	0.18775	0.078886	0.11903	0.087972	0.12981	0.26414	0.12799	0.047433	0.12541	0.061271	0.09662	0.076219	0.22917	-2.3479	-3.4375	-2.9375	-2.7854	-3.5062	-2.8083	-3.0646	-3.4521	-2.675	-3.5729	-3.2271	-2.8104	-3.5917	-3.0292	-2.9708	-3.6021	8.647	206.415	-134.142	-76.595	-28.662	-27.643	6.008	-33.268	68.760	168.086	37.334	163.902	-57.843	74.732	-134.112	146.883	0.00028825	0.00039989	0.00010269	875.51	1.6055e-06	4.8657e-06	915.56	291.72	3.1048e-06	3.1991e-06	331.55	108.05	97.375	40.615	2.9106e-06	47.855	0.0004603	0.00049717	0.00013312	911.64	5.3375e-06	5.256e-06	959.12	307.85	5.2309e-06	4.87e-06	347.94	114.92	103.6	43.106	4.7904e-06	50.924	-128.523	-53.031	-62.025	-124.986	22.579	12.730	-126.372	-119.918	-1.724	14.616	-122.019	-116.556	-114.804	-108.353	21.597	-111.025	-8191	255	
1939.843	1	1	0	0	0.11823	0.18992	0.063439	0.18497	0.17925	0.21885	0.28744	0.066276	0.17934	0.25045	0.11882	0.24882	0.042296	0.17086	0.19455	0.05271	-2.2854	-3.2146	-3.3812	-2.7708	-3.475	-2.8521	-2.9646	-3.6063	-2.7875	-3.3792	-3.1375	-2.8479	-3.4167	-3.0604	-2.8396	-3.7	82.280	-123.515	-30.457	196.302	35.466	143.586	179.949	65.695	-21.904	159.878	138.906	-86.481	-104.905	103.198	78.350	4.162	0.00028608	0.00038797	0.00011788	861.94	3.2892e-06	4.5072e-06	900.98	288.11	3.944e-06	2.7324e-06	327.25	106.86	96.33	40.3	3.7203e-06	47.752	0.00043663	0.00045115	0.00012169	898.98	4.6124e-06	4.7408e-06	943.69	302.94	4.763e-06	4.3387e-06	343.13	113.99	102.97	42.808	4.5147e-06	50.735	-131.803	-50.567	-52.620	-125.084	3.439	8.648	-126.147	-119.910	-25.527	19.813	-121.742	-116.706	-114.871	-108.525	-5.909	-110.944	-8191	255	
1939.939	1	1	0	0	0.23098	0.060338	0.17511	0.21769	0.052001	0.052726	0.2425	0.098651	0.10361	0.079997	0.1696	0.20937	0.021775	0.13612	0.07357	0.14801	-2.1667	-3.1875	-3.3375	-2.8312	-3.4667	-3.2333	-2.9792	-3.5604	-2.675	-3.3417	-3.3042	-2.6708	-3.3854	-3.1396	-2.6896	-3.7375	216.663	-1.344	166.878	119.077	-9.058	191.895	114.450	-127.698	156.836	98.307	66.090	-116.206	182.295	143.172	156.122	-56.695	0.00029114	0.00044528	0.00011088	862.24	1.6709e-06	4.1794e-06	909.63	289.57	3.4064e-06	4.7784e-06	327.36	107.33	96.846	40.558	2.7918e-06	47.797	0.0004085	0.00041805	0.00011174	900.55	4.3808e-06	4.5811e-06	951.56	305.02	4.6987e-06	4.2818e-06	344.25	113.88	103.2	43.094	4.5522e-06	50.729	-129.737	-33.530	-38.920	-124.941	1.441	21.530	-126.290	-119.808	-11.481	23.592	-121.741	-116.515	-114.759	-108.268	9.282	-111.030	-8191	255	
1940.060	1	1	0	0	0.090533	0.094718	0.13947	0.17613	0.086139	0.14551	0.23724	0.14805	0.2965	0.13556	0.28281	0.24878	0.051086	0.20446	0.028928	0.055024	-2.3896	-3.0917	-3.4875	-2.9167	-3.4208	-3.2875	-2.7438	-3.6729	-2.9167	-3.1521	-3.5833	-2.8438	-3.4313	-3.3333	-2.6667	-3.475	79.160	-79.096	-125.116	-133.102	95.623	-118.513	83.729	152.226	-100.669	107.528	165.070	-83.232	-137.505	147.695	120.239	-104.386	0.00027702	0.0005111	9.9292e-05	862.59	1.5004e-06	4.4517e-06	904.1	288.39	2.3732e-06	3.2369e-06	328.61	106.4	96.285	40.572	3.6938e-06	47.721	0.00041366	0.00040953	0.00011207	900.17	4.2272e-06	4.6836e-06	946.83	304.42	4.7596e-06	4.3304e-06	343.43	113.73	103.07	43.027	4.8464e-06	50.777	-129.769	-43.431	-65.169	-125.071	10.106	3.963	-126.364	-120.007	-20.721	-1.686	-121.704	-116.721	-114.237	-108.289	4.598	-111.113	-8191	255	
1940.156	1	1	0	0	0.16343	0.20431	0.14663	0.319	0.17652	0.028796	0.14604	0.11702	0.22179	0.25147	0.10713	0.43899	0.14287	0.23476	0.12824	0.22706	-2.625	-3.0458	-3.5417	-2.7521	-3.4208	-3.4083	-2.7812	-3.4979	-3.0312	-2.8917	-3.75	-2.7917	-3.1208	-3.4771	-2.8792	-3.6833	77.103	3.074	-92.139	144.642	-52.031	138.163	191.905	155.508	57.796	221.126	197.957	166.285	154.343	-105.226	54.651	189.008	0.00029485	0.0003626	0.00013864	865.02	2.583e-06	3.3497e-06	907.25	290.4	3.1441e-06	4.5677e-06	329.25	107.42	97.135	40.522	2.3551e-06	48.097	0.0004202	0.00042077	0.00011823	903.27	4.4992e-06	4.804e-06	950.65	305.76	5.0253e-06	4.7946e-06	345.87	114.41	103.61	43.209	5.1442e-06	51.173	-130.542	-66.651	-45.113	-125.139	-22.504	-3.650	-126.369	-119.778	10.109	17.724	-121.778	-116.617	-114.473	-108.313	-12.208	-111.128	-8191	255	
1940.252	1	1	0	0	0.22859	0.11474	0.14076	0.41324	0.21648	0.15746	0.092922	0.12159	0.21153	0.25339	0.066525	0.070639	0.050717	0.21907	0.073033	0.097856	-2.6917	-2.5375	-3.6188	-3.0125	-3.0667	-3.5208	-2.7854	-3.55	-3.1208	-2.8083	-3.5708	-2.8625	-3.1562	-3.7521	-2.625	-3.3917	13.005	-18.615	-50.171	156.567	190.110	-104.121	156.872	169.521	217.914	-35.964	20.712	-93.482	-90.617	-75.386	6.433	183.727	0.00030159	0.00044214	0.00014367	867.92	2.6156e-06	4.2221e-06	911.33	291.87	2.9043e-06	2.5377e-06	331.03	107.85	97.203	40.976	2.7026e-06	48.761	0.00043779	0.00044717	0.00012256	905.97	4.574e-06	5.0753e-06	956.15	307.08	4.9628e-06	4.9277e-06	347.5	115.08	104.08	43.51	5.2401e-06	51.684	-130.242	-38.576	-62.685	-125.165	-18.734	17.036	-126.253	-119.805	-30.708	-1.029	-121.805	-116.605	-114.711	-108.320	-1.912	-110.967	-8191	255	
1940.348	1	1	0	0	0.23967	0.19181	0.026182	0.353	0.093102	0.17711	0.056129	0.14713	0.13545	0.22744	0.11875	0.020958	0.16115	0.11413	0.046642	0.18361	-2.9208	-2.5792	-3.4813	-3.0521	-3.0083	-3.5687	-2.6792	-3.3646	-3.3563	-2.85	-3.6125	-3.1083	-3	-3.5604	-2.6833	-3.5333	47.378	168.841	73.988	133.705	-76.453	-114.825	214.715	114.358	-118.149	-76.214	29.743	124.645	187.759	202.291	-10.383	-96.067	0.00029618	0.00057912	0.00012568	873.69	1.2538e-06	5.0593e-06	918.69	293.35	4.4616e-06	4.9067e-06	332.88	108.78	97.508	40.854	3.6814e-06	48.437	0.00045467	0.00047055	0.00012898	912.23	4.8632e-06	5.1654e-06	962.05	309.3	5.086e-06	5.3554e-06	350.17	115.87	104.39	43.464	5.4122e-06	51.462	-130.694	-33.754	-41.630	-124.993	-10.752	-3.658	-126.153	-119.819	-10.631	7.250	-121.637	-116.524	-114.524	-108.419	-1.273	-110.945	-8191	255	
1940.469	1	1	0	0	0.20875	0.14057	0.31738	0.074948	0.0051736	0.26225	0.137	0.16731	0.12526	0.16447	0.18357	0.21314	0.19266	0.23403	0.18156	0.25958	-3.1375	-2.7938	-3.425	-3.0333	-2.9021	-3.6229	-2.925	-3.1354	-3.4271	-2.6625	-3.6354	-3.1771	-2.8937	-3.6667	-2.6188	-3.0083	-50.594	-8.831	-4.467	192.108	-85.053	84.359	162.302	118.492	106.682	-36.121	178.374	177.353	22.225	178.423	187.081	92.771	0.00030044	0.00040411	0.00013231	873.05	2.8888e-06	4.9394e-06	914.77	293.64	3.4349e-06	5.4537e-06	331.77	107.77	97.594	41.029	2.149e-06	48.112	0.00044922	0.0004731	0.00013217	912.62	4.973e-06	5.1915e-06	958.92	309.13	5.0049e-06	5.3036e-06	347.75	114.82	104.07	43.45	5.3275e-06	51.084	-127.072	-46.452	-61.007	-125.183	14.751	12.192	-126.239	-119.892	-6.282	10.339	-121.715	-116.756	-114.877	-108.569	-17.813	-110.921	-8191	255	
1940.541	1	1	0	0	0.1139	0.10047	0.13338	0.13367	0.26834	0.18071	0.30605	0.079101	0.10888	0.15601	0.078754	0.18111	0.067718	0.038334	0.089546	0.068562	-3.1479	-2.7229	-3.4521	-3.3438	-2.7792	-3.5708	-3.0667	-3.2917	-3.5979	-2.7146	-3.4833	-3.2771	-2.8042	-3.5167	-3.0292	-3.1083	-76.065	-31.995	94.843	130.587	141.378	162.349	125.226	217.172	107.416	11.283	218.914	123.159	104.389	-7.875	186.610	-102.562	0.00029159	0.00044195	0.00017724	874.29	3.1581e-06	4.0746e-06	916.61	293.13	3.4374e-06	5.748e-06	332.76	108.55	97.483	41.011	3.4946e-06	48.3	0.00045936	0.00047035	0.00012988	910.87	5.0555e-06	5.0023e-06	958.97	308.98	5.0563e-06	5.3645e-06	348.13	115.13	104.21	43.513	5.2518e-06	51.321	-127.290	-45.419	-49.222	-125.145	-4.009	-2.072	-126.177	-119.739	-16.068	24.174	-121.576	-116.691	-114.478	-108.201	12.022	-111.102	-8191	255	
1940.637	1	1	0	0	0.12627	0.29034	0.37378	0.34725	0.074798	0.076026	0.093707	0.11291	0.17024	0.30828	0.20618	0.14148	0.2029	0.2049	0.11216	0.1887	-3.1896	-2.7938	-3.3396	-3.4708	-2.6375	-3.6354	-3.0563	-2.9354	-3.5854	-2.6875	-3.4562	-3.4167	-2.6771	-3.5146	-3.0771	-2.8708	196.516	-49.996	218.669	118.269	-28.068	-82.484	149.871	181.540	167.316	31.955	80.980	137.730	19.787	221.760	88.765	164.295	0.00029792	0.00049737	8.5514e-05	874.28	3.672e-06	3.966e-06	919.62	293.29	3.2192e-06	3.2394e-06	332.96	108.38	97.679	41.033	2.0595e-06	48.673	0.0004527	0.00047587	0.00012557	912.34	5.203e-06	5.0317e-06	961.65	309.26	5.0939e-06	5.4223e-06	349.48	115.53	104.53	43.619	5.1696e-06	51.567	-128.090	-53.611	-56.867	-125.166	11.712	-3.556	-126.290	-119.963	-23.598	21.602	-121.787	-116.909	-114.625	-108.145	26.491	-111.107	-8191	255	
1940.731	1	1	0	0	0.10439	0.052376	0.10271	0.24907	0.118	0.10468	0.23103	0.081797	0.27243	0.057792	0.25387	0.08126	0.19197	0.26454	0.089753	0.39322	-3.1771	-2.75	-3.025	-3.45	-2.7146	-3.5021	-3.3625	-2.9229	-3.5062	-3.05	-3.0854	-3.5646	-2.7521	-3.4292	-3.2938	-2.8063	-26.799	60.529	-127.884	203.690	148.678	-79.172	213.313	-60.743	-57.032	-8.458	-117.631	214.549	141.048	203.971	-132.372	-102.512	0.00029954	0.00030542	0.00012738	877.49	2.3572e-06	4.0885e-06	921.38	295.45	2.4115e-06	5.7782e-06	335.72	109.4	98.264	41.344	2.6272e-06	48.925	0.00044911	0.00047615	0.00012701	915.16	5.3068e-06	4.9077e-06	965.81	311.22	5.1848e-06	5.4072e-06	351.88	116.4	104.97	43.915	5.1131e-06	52.024	-131.872	-47.524	-46.749	-125.046	6.790	3.600	-126.251	-119.738	-16.316	-1.446	-121.928	-116.760	-114.694	-108.326	7.428	-111.265	-8191	255	
1940.852	1	1	0	0	0.31824	0.045246	0.17713	0.2028	0.1516	0.085825	0.28495	0.20698	0.086335	0.10945	0.20978	0.26036	0.175	0.090531	0.039358	0.11034	-3.3292	-2.7104	-2.9125	-3.7146	-2.7979	-3.5687	-3.4437	-2.8625	-3.4208	-3.1979	-3.0979	-3.6562	-2.7167	-3.5042	-3.3396	-2.825	-11.095	220.908	48.801	148.526	69.959	142.172	156.079	150.643	-114.172	23.410	-73.669	219.282	166.129	100.658	6.765	8.921	0.00029226	0.00033189	0.0001387	875.99	3.1361e-06	2.3895e-06	923.9	296.79	3.3761e-06	4.0876e-06	335.31	109.19	98.08	41.074	2.9811e-06	48.403	0.00044236	0.00047174	0.00012948	915.58	5.3508e-06	4.8994e-06	967.71	312.57	5.3167e-06	5.3048e-06	353.22	116.28	105.08	43.667	5.3076e-06	51.403	-129.655	-43.461	-58.096	-125.196	-0.042	21.455	-126.212	-119.702	-5.154	2.175	-121.626	-116.889	-114.566	-108.439	-11.364	-111.126	-8191	255	
1940.948	1	1	0	0	0.11363	0.41283	0.42936	0.14863	0.24986	0.072506	0.031333	0.11235	0.18512	0.10805	0.17427	0.13781	0.26198	0.15145	0.20623	0.2158	-3.3146	-2.9458	-2.925	-3.5958	-2.7917	-3.2438	-3.5187	-2.7167	-3.475	-3.3208	-2.9	-3.7375	-2.6125	-3.325	-3.4708	-2.8958	-96.181	57.517	24.744	158.478	180.120	211.768	-75.618	100.438	52.933	-19.118	209.548	-115.495	216.217	158.757	-57.154	170.223	0.00030966	0.00039994	0.00011828	882.65	3.4886e-06	4.7697e-06	924.06	298.42	2.8471e-06	5.6002e-06	337.65	109.04	98.561	40.877	2.9416e-06	47.801	0.00045375	0.00051483	0.00013777	921.57	5.6901e-06	5.2555e-06	968.17	314.38	5.5358e-06	5.5589e-06	354.23	116.15	105.3	43.34	5.4879e-06	51.009	-131.338	-58.382	-58.547	-125.007	13.019	33.858	-126.394	-119.881	-3.572	24.627	-121.671	-116.907	-114.655	-108.508	3.270	-111.284	-8191	255	
1941.044	1	1	0	0	0.035889	0.14958	0.18829	0.32388	0.14034	0.10478	0.12134	0.1195	0.18748	0.082787	0.33494	0.1917	0.16019	0.20766	0.068676	0.04675	-3.1375	-3.0354	-2.6063	-3.65	-2.9896	-3.3229	-3.6542	-2.8792	-3.4042	-3.3104	-2.9729	-3.5979	-2.9604	-2.9938	-3.5083	-2.6604	174.650	47.201	175.734	147.016	0.322	-29.183	-9.166	162.265	-39.270	-39.192	200.435	190.265	80.012	163.025	199.112	-127.394	0.00028774	0.0003183	0.00013178	880.19	1.4661e-06	4.9374e-06	922.87	297.28	2.9048e-06	5.4119e-06	337.07	108.81	98.085	40.645	1.8033e-06	48.25	0.00045495	0.00052596	0.0001407	919.35	5.6607e-06	5.4628e-06	966.07	313.81	5.5994e-06	5.644e-06	353.58	116.07	104.92	43.248	5.6813e-06	51.166	-127.536	-31.105	-46.557	-125.136	-20.472	10.994	-126.421	-119.981	-15.486	13.621	-121.805	-116.999	-114.985	-108.291	-36.941	-111.301	-8191	255	
1941.140	1	1	0	0	0.014962	0.19157	0.20542	0.12496	0.085364	0.12134	0.17493	0.14752	0.51913	0.23717	0.10811	0.31877	0.284	0.10604	0.19347	0.11655	-3.0417	-3.2958	-2.5938	-3.7771	-2.8583	-2.8312	-3.6021	-2.7292	-3.1625	-3.3125	-2.9354	-3.6063	-3.1458	-3.0563	-3.575	-2.9938	73.003	117.380	-90.488	168.098	64.603	134.801	218.258	152.489	-56.185	185.620	44.437	206.600	181.321	118.000	116.715	125.895	0.00027304	0.00050951	0.0001652	879.63	1.6557e-06	4.6416e-06	924.12	297.25	2.6272e-06	5.8748e-06	337.9	109.43	97.935	40.831	2.5524e-06	48.552	0.00045013	0.00053756	0.00014235	918.71	5.5493e-06	5.4906e-06	967.91	313.73	5.5429e-06	5.3264e-06	355.06	116.61	105.26	43.507	5.5578e-06	51.534	-132.595	-48.765	-46.429	-125.009	-4.199	17.181	-125.972	-119.743	11.097	-5.428	-121.700	-116.615	-114.393	-108.310	8.676	-110.743	-8191	255	
1941.237	1	1	0	0	0.17124	0.10969	0.11927	0.1279	0.13791	0.076725	0.23053	0.22349	0.25675	0.043667	0.089108	0.041443	0.17701	0.046781	0.12433	0.086916	-2.9146	-3.5271	-2.8417	-3.7542	-3.2271	-2.8563	-3.7542	-2.8333	-3.1354	-3.4333	-2.8792	-3.5708	-3.1667	-2.8208	-3.5958	-2.9979	179.391	70.762	5.663	145.455	-35.481	70.536	184.287	177.434	-30.698	116.190	180.629	-2.831	-135.802	-55.265	-135.462	103.411	0.00028827	0.00037973	5.8673e-05	879.51	3.9516e-06	3.7253e-06	921.34	296.91	4.033e-06	4.0546e-06	337.52	110.15	98.016	41.019	3.0046e-06	48.782	0.00044811	0.00050443	0.00014082	919.76	5.4484e-06	5.556e-06	967.68	313.63	5.4272e-06	5.4525e-06	355.09	117.11	105.35	43.628	5.4628e-06	51.693	-126.767	-39.434	-62.666	-125.003	5.390	9.855	-126.163	-119.768	6.767	2.351	-121.601	-116.808	-114.644	-108.320	-21.308	-111.057	-8191	255	
1941.333	1	1	0	0	0.078634	0.030356	0.1616	0.076587	0.13673	0.058833	0.22161	0.34053	0.11517	0.10959	0.15788	0.15784	0.18185	0.11601	0.35427	0.13169	-2.6	-3.5938	-2.9708	-3.3875	-3.1854	-2.7521	-3.7542	-2.9083	-3.0354	-3.6063	-2.7	-3.3438	-3.3937	-2.7646	-3.6708	-3.0521	-65.301	-111.810	34.546	29.818	64.006	80.599	66.464	112.565	-70.445	187.273	103.405	-41.803	179.256	172.022	-9.821	151.160	0.0002893	0.00048117	6.1459e-05	883.13	2.2809e-06	2.7168e-06	922.8	296.71	4.2926e-06	3.5578e-06	338.36	108.72	97.932	40.553	3.3197e-06	48.011	0.00045524	0.00051208	0.00013904	921.2	5.267e-06	5.7098e-06	966.49	313.25	5.4378e-06	5.4064e-06	354.41	116.01	104.99	43.241	5.4513e-06	50.969	-133.138	-60.454	-32.749	-125.062	-7.386	-16.104	-126.408	-119.641	0.985	9.460	-121.741	-116.728	-114.991	-108.483	0.848	-110.900	-8191	255	
1941.429	1	1	0	0	0.19945	0.20058	0.14447	0.12655	0.087197	0.24718	0.087086	0.23254	0.08949	0.1151	0.081256	0.025127	0.042655	0.28266	0.089468	0.10041	-2.475	-3.5708	-2.7438	-3.5125	-3.1937	-2.7	-3.5458	-3.2583	-2.7917	-3.5521	-2.9521	-3.3354	-3.3229	-2.9479	-3.3438	-3.0958	12.943	-28.950	61.693	203.743	89.448	108.257	105.023	176.039	-55.794	198.512	-5.253	209.818	-59.626	-7.760	133.127	207.916	0.0002787	0.00034586	0.00017113	878.21	3.6073e-06	4.7189e-06	920.71	297.38	3.1428e-06	4.0068e-06	334.8	108.4	97.741	40.455	3.5047e-06	47.776	0.00045768	0.00049324	0.00014055	915.65	5.263e-06	5.735e-06	962.55	312.47	5.202e-06	5.3816e-06	351.9	115.64	104.58	43.052	5.2879e-06	50.758	-130.801	-57.281	-62.609	-124.816	17.964	-12.623	-126.140	-119.678	3.997	2.838	-121.762	-116.594	-114.505	-108.426	12.141	-111.174	-8191	255	
1941.549	1	1	0	0	0.15187	0.1399	0.15048	0.11151	0.2638	0.12914	0.16235	0.11422	0.29317	0.24158	0.26376	0.24021	0.071247	0.14469	0.19095	0.11199	-2.5	-3.5229	-2.9896	-3.2542	-3.3375	-2.8167	-3.4979	-3.2625	-2.7875	-3.6729	-3.1021	-3.1167	-3.5438	-2.7708	-3.3125	-3.3479	58.509	206.296	13.696	217.683	36.463	187.317	125.528	-134.632	-34.564	61.743	44.011	-45.178	-42.501	184.200	-107.038	-118.159	0.00031433	0.00047092	0.00010898	877.65	2.5102e-06	4.8018e-06	916.49	294.18	2.6052e-06	4.3416e-06	334.46	108.54	97.479	40.427	4.7253e-06	47.677	0.00046149	0.00048364	0.00013605	914.61	5.2192e-06	5.6013e-06	961.68	310.8	5.189e-06	5.2874e-06	351.3	115.43	104.34	42.929	5.198e-06	50.822	-129.896	-29.882	-57.477	-125.004	3.405	-8.419	-126.025	-119.834	-14.769	9.239	-121.606	-116.709	-114.575	-108.500	-9.578	-110.860	-8191	255	
1941.644	1	1	0	0	0.30869	0.19567	0.33269	0.27867	0.036328	0.16097	0.16384	0.076942	0.11666	0.016991	0.060246	0.021963	0.072931	0.12786	0.13152	0.1161	-2.3063	-3.5062	-2.9417	-3.0187	-3.4979	-2.8312	-3.2729	-3.4583	-2.6937	-3.4396	-3.3729	-2.7979	-3.6188	-2.8854	-3.2833	-3.4062	-52.876	-6.958	175.260	-130.106	125.014	64.560	97.700	-57.346	131.764	-133.369	136.743	-67.834	-105.710	-101.613	-14.271	135.339	0.00028641	0.00045223	0.00012038	872.18	2.1608e-06	3.5152e-06	919.49	294.08	2.8324e-06	3.711e-06	335.09	108.86	98.226	40.505	3.8416e-06	47.831	0.00046099	0.0004694	0.00013923	910.49	5.1534e-06	5.5036e-06	960.62	310.15	5.318e-06	5.2277e-06	352.05	115.76	104.67	43.014	5.1969e-06	51.029	-128.640	-72.453	-55.209	-124.896	5.221	8.168	-126.017	-119.875	-7.042	8.414	-121.869	-116.558	-114.652	-108.379	-4.526	-111.109	-8191	255	
1941.740	1	1	0	0	0.1278	0.18607	0.080699	0.25189	0.12773	0.1444	0.25024	0.0031553	0.11175	0.32252	0.16444	0.42319	0.062105	0.033812	0.15514	0.3343	-2.3063	-3.4604	-2.8875	-2.9146	-3.5646	-2.8771	-3.4104	-3.6583	-2.6917	-3.4542	-3.1854	-2.8042	-3.375	-3.0229	-3.0417	-3.7208	143.442	208.567	30.172	156.763	39.892	-49.824	185.924	-60.066	40.602	5.734	-112.511	195.452	102.487	42.819	-109.325	-36.111	0.0002974	0.00047632	0.00014596	875.58	3.0707e-06	5.6069e-06	921.13	294.84	2.4527e-06	4.2967e-06	335.69	109.28	97.68	40.61	4.197e-06	48.343	0.00046691	0.00046414	0.00014019	912.81	5.0287e-06	5.3356e-06	963.43	310.93	5.2849e-06	5.2775e-06	352.67	116.42	104.58	43.122	5.3196e-06	51.312	-131.423	-42.321	-50.348	-125.046	16.598	15.982	-126.274	-119.761	-21.797	1.369	-121.683	-116.682	-114.731	-108.127	7.775	-111.018	-8191	255	
1941.836	1	1	0	0	0.27616	0.06317	0.12489	0.11428	0.17817	0.21418	0.20778	0.056283	0.10082	0.11738	0.061095	0.032377	0.14622	0.22944	0.15634	0.12645	-2.2458	-3.2854	-3.1688	-2.9167	-3.4917	-2.75	-3.2771	-3.4792	-2.6583	-3.2438	-3.4458	-2.7812	-3.5333	-3.1083	-2.9125	-3.425	-83.512	-36.530	-0.626	201.421	-63.848	159.089	-87.830	197.251	-9.214	36.056	117.701	-31.631	51.127	131.300	29.206	-82.739	0.00029534	0.00037611	0.00017231	876.59	3.3933e-06	3.9948e-06	918.27	294.08	1.2916e-06	4.3626e-06	334.29	108.74	97.49	40.259	3.1226e-06	47.854	0.00047096	0.00045362	0.00013826	913.1	5.1664e-06	5.2756e-06	962.41	310.34	5.3297e-06	5.1713e-06	350.68	115.53	104.17	42.83	5.1964e-06	50.757	-128.277	-83.641	-63.832	-124.962	13.897	-19.718	-125.947	-119.774	-1.976	27.270	-121.867	-116.722	-114.511	-108.316	7.942	-110.918	-8191	255	
1941.932	1	1	0	0	0.33938	0.063721	0.28017	0.12883	0.15325	0.27761	0.40096	0.038764	0.089975	0.10763	0.13627	0.035825	0.12675	0.26087	0.071662	0.18132	-2.5625	-3.0958	-3.2667	-2.7625	-3.5479	-3.1063	-2.9271	-3.5583	-2.7583	-3.0854	-3.4833	-2.7625	-3.45	-3.1479	-2.7708	-3.5979	55.181	-78.331	-67.637	142.948	176.677	-109.042	157.730	73.196	123.877	29.482	133.718	-94.048	-1.242	205.017	53.814	142.643	0.00027927	0.00022677	0.00012065	869.68	2.1573e-06	2.0166e-06	914.54	293.95	2.0044e-06	4.5589e-06	331.79	107.79	97.203	40.335	3.6275e-06	47.632	0.0004558	0.00045349	0.00013212	908.34	5.0765e-06	5.0906e-06	957.93	309.16	5.3212e-06	5.0766e-06	349.3	115.04	104.12	42.877	5.1412e-06	50.752	-130.016	-40.650	-54.087	-124.980	14.451	-2.184	-126.032	-119.906	-7.460	-8.806	-121.780	-116.591	-114.531	-108.250	7.342	-110.875	-8191	255	
1942.028	1	1	0	0	0.24732	0.10751	0.22984	0.25928	0.25131	0.055364	0.14806	0.2192	0.11993	0.11197	0.06873	0.14625	0.1745	0.078464	0.19509	0.12552	-2.4875	-3.1396	-3.2958	-2.7438	-3.3521	-3.3146	-2.8417	-3.5812	-2.7104	-3.0312	-3.6688	-2.8708	-3.4542	-3.4042	-2.7167	-3.6771	-75.679	-0.824	81.277	176.405	143.825	-25.033	148.167	69.657	140.877	178.158	46.393	78.740	-130.095	87.844	-132.775	118.332	0.00027406	0.00031917	9.0288e-05	869.66	3.8861e-06	3.3004e-06	914.1	292.09	3.0586e-06	5.7838e-06	332.61	108.38	97.411	40.35	3.8139e-06	47.972	0.00045204	0.00045983	0.00013371	907.21	5.0961e-06	5.1634e-06	955.67	308.02	5.2881e-06	5.2459e-06	349.08	115.29	103.96	42.896	5.0357e-06	50.931	-129.974	-42.161	-63.684	-124.965	-21.176	8.559	-126.141	-119.870	-28.836	14.497	-121.366	-116.715	-114.626	-108.283	-4.283	-111.048	-8191	255	
1942.149	1	1	0	0	0.16651	0.092944	0.10849	0.22995	0.13589	0.24472	0.089113	0.18452	0.22916	0.18465	0.088523	0.013892	0.11295	0.1328	0.21686	0.30818	-2.5771	-2.9521	-3.5729	-2.9313	-3.3125	-3.2604	-2.8	-3.6958	-2.8667	-2.7021	-3.6854	-2.9688	-3.1792	-3.5792	-2.6542	-3.5604	-10.136	-29.293	-98.051	137.740	201.502	36.756	-31.951	101.886	105.572	98.825	156.155	143.428	-85.834	184.203	23.688	129.969	0.00028659	0.00028032	0.00012497	873.83	2.4373e-06	4.4418e-06	914.94	294.74	3.141e-06	4.7302e-06	334.95	108.85	98.136	40.548	2.3462e-06	48.488	0.00045334	0.0004723	0.00013151	910.17	4.9897e-06	5.0224e-06	959	309.3	5.4354e-06	5.28e-06	350.95	115.99	104.68	43.269	5.2557e-06	51.638	-132.948	-55.177	-44.408	-124.865	15.667	22.108	-126.165	-119.758	-10.995	-15.028	-121.594	-116.700	-114.457	-108.360	17.188	-110.954	-8191	255	
1942.245	1	1	0	0	0.14378	0.29925	0.19595	0.27989	0.066412	0.30035	0.055761	0.23048	0.16344	0.10807	0.13785	0.12867	0.16492	0.053765	0.15882	0.12765	-2.8104	-2.9604	-3.5583	-3.0125	-3.2021	-3.4208	-2.8708	-3.6646	-3.2938	-2.7458	-3.6375	-3.0646	-3.2479	-3.4188	-2.7833	-3.5042	91.973	182.756	26.886	-127.968	68.477	-20.538	-76.642	-109.008	-88.492	20.920	119.279	161.948	-46.396	-24.934	161.533	-131.095	0.00030101	0.00042565	7.0642e-05	876.02	2.4628e-06	2.3656e-06	921.87	295.59	2.8364e-06	6.0398e-06	335.07	109.69	97.984	40.586	4.3821e-06	48.371	0.00045083	0.00048626	0.00012866	913.77	5.0407e-06	5.0552e-06	965.39	310.59	5.3805e-06	5.2026e-06	352.46	116.68	104.59	43.196	5.3018e-06	51.273	-127.048	-36.553	-39.245	-125.212	-1.747	-22.656	-126.065	-119.496	-1.276	0.737	-121.392	-116.563	-114.580	-108.197	12.638	-110.791	-8191	255	
1942.341	1	1	0	0	0.25636	0.21596	0.08093	0.20203	0.13964	0.13223	0.13207	0.12827	0.048314	0.045565	0.14656	0.20147	0.12338	0.19605	0.25583	0.10765	-2.8458	-2.8625	-3.6562	-3.1167	-3.0667	-3.6542	-3.1396	-3.5708	-3.3729	-2.8667	-3.825	-3.0458	-3.0625	-3.6042	-2.7458	-3.4229	96.007	5.952	8.046	-109.567	-64.872	-15.106	168.331	85.072	134.629	32.335	-115.889	-121.676	116.119	191.940	65.150	-130.530	0.00026745	0.00046621	0.00016691	870.23	2.0444e-06	4.2906e-06	914.55	293.28	1.8802e-06	2.8857e-06	333.22	107.94	97.084	40.231	1.9821e-06	47.633	0.00044034	0.00048903	0.00012774	910.48	5.0043e-06	5.015e-06	957.14	308.67	5.2237e-06	5.0108e-06	348.66	115.11	103.78	42.764	5.0775e-06	50.654	-132.398	-66.912	-53.868	-124.972	14.762	11.060	-126.234	-119.809	-6.400	-10.764	-121.534	-116.615	-114.587	-108.054	20.998	-110.976	-8191	255	
1942.413	1	1	0	0	0.21155	0.094638	0.25106	0.068324	0.1787	0.13983	0.1807	0.1951	0.16693	0.15891	0.16584	0.15994	0.2929	0.23372	0.21588	0.073295	-3.0833	-2.6771	-3.6188	-3.1667	-2.9271	-3.6917	-3.0271	-3.3667	-3.4458	-2.8	-3.5438	-3.2354	-2.825	-3.7687	-2.9729	-3.1437	166.421	202.504	10.500	213.906	63.236	71.318	159.848	-124.709	-116.401	137.829	97.305	138.347	207.874	200.863	85.807	-118.184	0.00028366	0.00042752	9.8948e-05	869.48	1.6447e-06	3.458e-06	915.95	292.28	2.5976e-06	3.3816e-06	332.07	107.97	96.63	39.994	3.4035e-06	47.718	0.00043344	0.00048724	0.00012135	907.51	4.8648e-06	4.8986e-06	956.71	307.33	5.046e-06	5.0381e-06	348.06	114.73	103.32	42.589	5.1158e-06	50.666	-130.235	-51.901	-67.433	-125.053	-13.921	15.523	-126.218	-119.847	6.743	30.285	-121.712	-116.803	-114.623	-108.293	-8.633	-110.756	-8191	255	
1942.509	1	1	0	0	0.284	0.30383	0.12668	0.18397	0.12454	0.1321	0.17877	0.24327	0.22498	0.11748	0.1901	0.13821	0.2518	0.14171	0.14931	0.25191	-3.0062	-2.7042	-3.4167	-3.1458	-2.5771	-3.4521	-2.9771	-3.225	-3.4708	-2.7	-3.3688	-3.375	-2.7729	-3.6312	-2.9542	-3.1542	-91.689	-58.678	-109.054	220.206	15.087	152.893	130.631	202.002	174.067	-75.118	200.266	33.341	-98.303	65.256	65.722	115.683	0.00026495	0.00040154	0.00013098	869.89	2.3597e-06	4.4477e-06	912.33	292.6	2.397e-06	5.2213e-06	333.66	108.35	96.85	40.007	3.2214e-06	47.826	0.00043112	0.00048772	0.00012048	907.85	4.9499e-06	4.8898e-06	958.3	308.29	5.0364e-06	5.0361e-06	350.21	115.34	103.69	42.653	5.2871e-06	50.883	-130.402	-45.718	-60.236	-125.046	26.364	31.783	-126.149	-119.627	-2.413	23.692	-121.557	-116.807	-114.633	-108.293	-3.776	-110.693	-8191	255	
1942.628	1	1	0	0	0.045027	0.2085	0.088665	0.062399	0.21615	0.059899	0.14803	0.17507	0.20465	0.037268	0.20206	0.17022	0.03425	0.16858	0.20698	0.27352	-3.2062	-2.8563	-3.425	-3.5208	-2.7771	-3.7292	-2.9458	-3.2188	-3.6229	-2.8021	-3.4458	-3.5292	-2.7833	-3.6063	-2.9938	-2.8521	132.482	-25.347	120.177	105.079	-23.899	-119.939	149.612	200.957	166.276	194.210	180.958	174.071	-116.985	57.330	55.884	-125.272	0.00028958	0.00047573	0.00011273	872.58	3.0687e-06	4.725e-06	919.68	294.14	4.0356e-06	3.2961e-06	333.76	108.68	97.578	40.353	3.2747e-06	48.296	0.00043395	0.0004897	0.00012273	911.23	4.9733e-06	4.9674e-06	961.74	309.42	4.953e-06	5.2134e-06	351.06	115.81	104.17	42.828	5.4404e-06	51.317	-131.305	-57.470	-50.188	-125.078	15.888	14.921	-126.255	-119.719	-11.657	26.896	-121.590	-116.548	-114.489	-108.234	-13.666	-111.037	-8191	255	
1942.724	1	1	0	0	0.13796	0.15847	0.10897	0.29518	0.1461	0.10837	0.1825	0.37799	0.23414	0.057875	0.23557	0.14868	0.18427	0.043368	0.063899	0.12948	-3.2812	-2.9708	-3.2313	-3.5583	-2.4646	-3.6354	-3.3	-2.8688	-3.6271	-3.0979	-3.2646	-3.6	-2.6479	-3.5417	-3.1875	-2.725	159.282	94.315	-109.222	157.652	-114.670	-108.165	-5.526	75.660	43.820	-64.512	214.361	212.047	101.181	153.993	37.697	-60.986	0.0002833	0.00037634	0.00010717	876.24	2.1336e-06	5.9208e-06	922.82	294.33	3.3379e-06	4.1272e-06	335.23	108.69	96.937	40.306	3.4359e-06	47.874	0.00043145	0.00048418	0.00012349	912.58	5.1298e-06	4.9921e-06	964.83	309.94	4.8248e-06	5.2416e-06	351.42	115.66	103.8	42.765	5.2743e-06	50.858	-130.892	-71.595	-32.022	-125.083	45.984	4.164	-126.167	-119.570	-14.022	-21.935	-121.564	-116.616	-114.512	-108.229	0.271	-110.970	-8191	255	
1942.820	1	1	0	0	0.20385	0.15141	0.20721	0.34757	0.062604	0.090715	0.12827	0.15729	0.16092	0.25367	0.13835	0.17924	0.010713	0.26425	0.087444	0.14867	-3.2646	-2.9229	-3.0271	-3.6271	-2.6813	-3.5062	-3.3937	-2.7271	-3.4562	-2.8729	-3.0875	-3.5229	-2.9062	-3.2375	-3.35	-2.8083	115.652	210.248	-90.891	215.542	206.272	28.782	162.845	28.677	-39.009	2.271	183.993	124.817	-8.160	183.584	58.086	100.433	0.00029426	0.00032205	0.00014481	877.71	2.7323e-06	4.9998e-06	913.87	293.24	2.4078e-06	3.2018e-06	332.03	107.63	96.785	40.173	2.8403e-06	47.921	0.00043918	0.00048762	0.00012812	913.31	4.9844e-06	5.0626e-06	960.05	308.29	4.7252e-06	5.1901e-06	348.97	114.84	103.53	42.73	5.0363e-06	50.853	-129.300	-51.694	-43.645	-125.028	-7.102	3.864	-126.203	-119.788	-19.178	36.944	-121.403	-116.692	-114.638	-108.308	7.101	-110.884	-8191	255	
1942.941	1	1	0	0	0.21121	0.063207	0.095815	0.078937	0.12723	0.10107	0.18037	0.147	0.18267	0.16907	0.16471	0.25671	0.26064	0.10967	0.11816	0.13328	-3.1854	-3.1375	-2.7292	-3.425	-2.8604	-3.1708	-3.4146	-2.7917	-3.4979	-3.0417	-2.9604	-3.6625	-2.7812	-3.4396	-3.4125	-2.5312	-114.171	219.189	128.849	27.370	-88.858	114.292	131.555	168.300	-36.703	214.553	139.521	204.120	221.717	129.093	166.878	178.543	0.0002833	0.00028847	0.00017841	871.95	3.4475e-06	3.3326e-06	914.49	292.21	3.4111e-06	5.0325e-06	332.28	107.91	96.455	40.057	3.2517e-06	47.727	0.00042607	0.0004598	0.00012514	910.07	5.0035e-06	4.802e-06	958.91	307.34	4.7273e-06	5.0393e-06	348.11	115.06	103.26	42.643	4.9418e-06	50.844	-129.735	-36.354	-47.344	-124.994	-8.507	26.426	-126.193	-119.770	-12.124	-20.109	-121.705	-116.468	-114.362	-108.082	7.556	-110.591	-8191	255	
1943.013	1	1	0	0	0.14651	0.061866	0.18745	0.24722	0.17448	0.27724	0.25446	0.14591	0.082428	0.12977	0.18017	0.090456	0.16758	0.19801	0.27879	0.036523	-3.2042	-3.0104	-2.5333	-3.7479	-2.9167	-3.0729	-3.675	-2.725	-3.4	-3.1354	-2.5812	-3.6125	-2.8937	-3.2854	-3.575	-3.0187	74.728	-118.901	-15.010	128.295	-98.739	-79.937	213.696	113.837	-2.764	180.860	-110.459	-38.363	221.484	-98.834	80.112	112.635	0.00029304	0.00045456	0.00011238	866.01	3.1002e-06	4.5848e-06	912.18	289.54	3.9662e-06	4.8946e-06	331.21	107.87	96.563	40.282	3.3139e-06	48.212	0.00042328	0.00043001	0.00012628	903.28	4.848e-06	4.7468e-06	956.34	305.31	4.6176e-06	4.9906e-06	347.35	115.17	103.35	42.863	4.9128e-06	51.334	-131.057	-38.843	-60.216	-124.951	11.499	3.627	-126.080	-119.610	-7.757	16.858	-121.717	-116.604	-114.570	-108.251	3.927	-110.769	-8191	255	
1943.109	1	1	0	0	0.19706	0.033193	0.19533	0.28084	0.28337	0.055061	0.12483	0.31881	0.46852	0.13577	0.17059	0.12334	0.27589	0.20467	0.31388	0.17535	-2.9729	-3.3271	-2.7125	-3.5333	-3.0333	-3.0833	-3.5312	-2.7833	-3.4021	-3.2354	-2.8542	-3.6646	-3.3	-3.0646	-3.4562	-2.9271	196.941	24.679	-34.383	192.812	157.431	-94.460	-76.340	-130.249	56.948	187.247	-102.916	211.745	-56.854	142.075	114.243	-120.092	0.00030091	0.00032671	9.0105e-05	868.4	2.9753e-06	4.3785e-06	918.46	293.28	2.5527e-06	3.4923e-06	334.67	108.75	97.606	40.628	1.9189e-06	48.544	0.00042792	0.0004309	0.00012953	907.69	5.0473e-06	4.8003e-06	963	307.9	4.7617e-06	4.9898e-06	350.44	116.08	104.09	43.252	4.8388e-06	51.785	-127.832	-62.043	-61.430	-124.999	-20.648	-1.095	-126.201	-119.792	-54.791	21.800	-121.472	-116.437	-114.570	-108.150	10.099	-110.747	-8191	255	
1943.229	1	1	0	0	0.035071	0.048196	0.16585	0.11311	0.26286	0.042498	0.066943	0.094526	0.23518	0.18966	0.16447	0.038177	0.20309	0.18243	0.019902	0.1323	-2.9271	-3.3792	-2.7979	-3.6937	-3.1542	-2.9917	-3.6375	-2.8667	-3.0833	-3.4958	-3.0187	-3.4729	-3.2042	-2.9875	-3.6437	-2.9833	-39.017	62.996	-122.334	-0.838	-23.425	172.018	-86.358	158.697	196.514	105.591	137.026	120.612	199.268	202.212	28.543	32.546	0.00027571	0.00041743	0.0001234	870.62	2.802e-06	3.9993e-06	921.49	291.55	2.0386e-06	5.7625e-06	332.5	108.11	97.138	40.547	3.9138e-06	48.511	0.00042152	0.00042644	0.0001273	909.56	4.8441e-06	4.8133e-06	963.31	307.18	4.7323e-06	4.9166e-06	349.11	115.57	103.8	43.152	4.7797e-06	51.456	-131.107	-45.724	-54.009	-124.769	-10.362	2.502	-126.040	-119.699	-5.616	26.307	-121.447	-116.440	-114.572	-108.041	2.306	-110.839	-8191	255	
1943.326	1	1	0	0	0.18398	0.34159	0.11706	0.32541	0.10247	0.16232	0.071514	0.34506	0.11206	0.047839	0.21494	0.1051	0.076179	0.030179	0.18827	0.1791	-2.5687	-3.5104	-2.6021	-3.3958	-3.2583	-2.8	-3.4771	-3.0396	-3.0229	-3.6583	-2.7021	-3.2729	-3.3167	-2.8583	-3.3667	-2.9062	-17.240	81.754	70.889	31.712	-115.527	209.226	-63.109	-25.914	33.058	137.382	200.288	152.963	221.759	41.662	166.441	-94.052	0.0002951	0.00036508	0.00010008	866.73	2.7975e-06	3.8863e-06	916.66	290.58	1.9438e-06	4.9315e-06	330.95	108.53	96.885	40.522	2.246e-06	48.614	0.00043376	0.00043139	0.0001292	905.43	4.8817e-06	4.8592e-06	958.12	305.95	4.7977e-06	4.7502e-06	347.85	115.46	103.56	43.209	4.6147e-06	51.63	-129.670	-61.303	-39.335	-124.786	1.026	12.491	-126.142	-119.747	-8.709	5.242	-121.563	-116.318	-114.517	-108.170	-2.448	-110.831	-8191	255	
1943.422	1	1	0	0	0.12369	0.14861	0.10427	0.24912	0.080222	0.06235	0.1575	0.11322	0.19609	0.22415	0.18049	0.022526	0.10756	0.17186	0.11303	0.30351	-2.5458	-3.6063	-2.7687	-3.2708	-3.4542	-2.7812	-3.4979	-3.1604	-2.8292	-3.5979	-2.9313	-3.0708	-3.5792	-2.9104	-3.3563	-3.2417	105.350	181.092	108.669	-123.524	-84.198	109.732	171.898	90.734	-1.902	68.090	-14.246	48.249	198.252	-105.034	114.315	154.840	0.00029428	0.00024491	0.00014882	867.5	2.6767e-06	5.2157e-06	915.68	289.52	2.5212e-06	3.664e-06	332.24	108.4	97.147	40.66	4.3139e-06	48.62	0.00042422	0.00043357	0.0001281	905.04	4.7103e-06	4.7969e-06	958.09	305.53	4.8213e-06	4.6904e-06	348.02	115.43	103.53	43.25	4.5713e-06	51.697	-131.134	-56.975	-38.051	-124.852	13.557	-9.111	-126.008	-119.744	-14.631	16.164	-121.924	-116.326	-114.159	-108.159	-8.939	-110.734	-8191	255	
1943.542	1	1	0	0	0.10853	0.19136	0.15829	0.053234	0.08515	0.16255	0.063305	0.095036	0.095032	0.10109	0.20136	0.20328	0.062477	0.12238	0.10227	0.21022	-2.4333	-3.4521	-2.7896	-3.3021	-3.4917	-2.6833	-3.4354	-3.3	-2.6937	-3.6333	-2.9875	-3.0875	-3.3792	-2.8667	-3.4167	-3.3271	168.337	20.108	-74.854	73.965	155.722	-20.093	221.032	71.861	-20.718	-18.257	188.664	-100.837	207.767	42.360	178.661	197.154	0.00027601	0.00050575	0.00011478	870.42	1.3389e-06	4.4656e-06	921.79	290.43	2.7674e-06	3.8368e-06	333.71	109.48	97.624	40.984	3.1343e-06	49.009	0.00042579	0.00042744	0.00012603	908.17	4.7326e-06	4.8006e-06	962.14	306.55	4.8997e-06	4.6987e-06	349.34	116.36	104.01	43.403	4.6207e-06	52.142	-132.896	-55.655	-59.127	-125.032	8.884	31.317	-125.984	-119.862	0.418	13.856	-121.621	-116.238	-114.433	-108.249	16.325	-111.069	-8191	255	
1943.637	1	1	0	0	0.16573	0.069254	0.030592	0.044816	0.15591	0.058212	0.16718	0.21319	0.20958	0.10697	0.10642	0.1031	0.072783	0.1893	0.028037	0.30502	-2.2458	-3.4833	-2.9667	-3.1125	-3.4854	-2.775	-3.4333	-3.3792	-2.7958	-3.6083	-3	-2.9521	-3.5417	-2.8854	-3.2438	-3.3688	68.088	148.078	59.596	-101.483	-130.175	-39.029	62.464	222.360	33.440	-72.509	167.091	30.581	179.305	-50.924	204.705	153.431	0.00029313	0.00038446	0.00012588	870.53	3.091e-06	2.7314e-06	919.07	292.74	2.3235e-06	4.0127e-06	335.01	109.4	97.229	40.652	3.3025e-06	49.019	0.00042816	0.00043031	0.00012278	909.24	4.6926e-06	4.8482e-06	963.53	307.89	5.0287e-06	4.5939e-06	351.4	116.59	104.22	43.249	4.7358e-06	51.834	-130.168	-28.988	-39.695	-124.864	18.517	-3.111	-126.196	-119.626	-12.277	12.664	-121.630	-116.340	-114.765	-108.310	11.179	-110.964	-8191	255	
1943.708	1	1	0	0	0.085288	0.15691	0.092452	0.42461	0.13447	0.051072	0.2291	0.10387	0.045649	0.17066	0.047971	0.10635	0.085991	0.094288	0.16463	0.29702	-2.3792	-3.3708	-2.8708	-3.0479	-3.4646	-2.8438	-3.3667	-3.4458	-2.7125	-3.4125	-3.2396	-2.8875	-3.525	-2.9417	-3.0521	-3.5521	-5.165	160.806	-25.648	171.980	-85.779	172.475	145.152	-121.782	190.189	-30.191	108.875	-92.882	24.261	-14.594	221.017	190.539	0.00030932	0.00044821	0.00015364	871.05	3.2521e-06	3.0504e-06	916.23	292.27	2.2013e-06	4.592e-06	332.74	108.29	96.789	40.129	2.6608e-06	48.21	0.00042089	0.00043783	0.00012276	909.79	4.7021e-06	4.8485e-06	961.02	307.99	5.0963e-06	4.7149e-06	349.48	115.33	103.76	42.78	4.8041e-06	51.011	-130.970	-29.553	-36.563	-124.842	5.695	15.124	-126.013	-119.845	3.513	-11.147	-121.713	-116.383	-114.299	-108.238	-15.627	-110.806	-8191	255	
1943.829	1	1	0	0	0.12665	0.091634	0.13016	0.36991	0.1548	0.25465	0.048784	0.039962	0.16975	0.090569	0.081915	0.22863	0.27302	0.32637	0.26447	0.11211	-2.4146	-3.2438	-3.3	-2.8896	-3.4958	-2.9458	-3.1292	-3.5458	-2.6542	-3.4271	-3.4208	-2.7875	-3.6875	-3.1	-2.7792	-3.6625	-90.547	56.319	100.758	190.893	-124.127	-37.430	90.611	-0.224	-39.416	214.079	200.546	98.172	167.417	-120.515	192.455	75.372	0.00028778	0.0004763	0.00015667	872.86	2.1529e-06	3.7751e-06	917.66	291.67	1.624e-06	3.9381e-06	331.9	108.16	96.815	40.057	3.338e-06	47.953	0.000426	0.00043942	0.00012294	908.55	4.5928e-06	4.9943e-06	960.38	307.45	5.0849e-06	4.6483e-06	348.88	115.26	103.45	42.62	4.9005e-06	50.8	-134.082	-51.698	-44.510	-125.024	-15.690	5.560	-126.030	-119.853	-13.634	14.024	-121.677	-116.298	-114.550	-108.243	-2.616	-111.051	-8191	255	
1943.925	1	1	0	0	0.20986	0.066886	0.10879	0.28926	0.064606	0.14489	0.063187	0.17592	0.10453	0.1689	0.2251	0.31775	0.084993	0.1922	0.14203	0.3537	-2.4792	-3.2292	-3.3833	-2.8063	-3.6021	-2.9562	-2.7917	-3.7583	-2.925	-3.2167	-3.5708	-2.7646	-3.3937	-3.2021	-2.8708	-3.5396	-51.685	160.941	64.365	43.354	136.065	130.905	-72.018	84.162	-60.080	62.981	189.426	36.952	-64.609	-115.947	-3.500	131.072	0.0002911	0.00043579	0.00011372	863.82	2.276e-06	3.3862e-06	915.03	292.09	2.3908e-06	3.7927e-06	332.57	107.87	96.412	39.888	3.306e-06	47.713	0.00043755	0.00044602	0.00011919	903.08	4.6201e-06	5.0014e-06	956.28	306.36	5.0158e-06	4.6699e-06	348.56	115.08	103.23	42.495	5.0778e-06	50.858	-131.754	-64.506	-53.423	-124.764	18.917	21.407	-125.941	-119.731	-10.865	15.439	-121.573	-116.589	-114.428	-108.441	10.009	-110.936	-8191	255	
1944.021	1	1	0	0	0.10866	0.34479	0.15651	0.25871	0.11214	0.090892	0.20841	0.16974	0.13377	0.16745	0.065673	0.15255	0.054454	0.098834	0.062856	0.10005	-2.5146	-3.0521	-3.4667	-2.7062	-3.3771	-3.1542	-2.8312	-3.7271	-2.8292	-3.1083	-3.5729	-2.8917	-3.5312	-3.35	-2.7271	-3.675	196.015	-100.197	187.858	193.165	-40.635	-83.770	151.080	206.185	109.205	48.205	117.668	-24.688	-40.899	51.555	167.443	145.049	0.00027322	0.00061079	0.00012256	869.68	2.6035e-06	3.8112e-06	915.61	292.04	2.556e-06	3.0029e-06	332.86	108.31	96.524	39.975	2.3567e-06	47.62	0.00044132	0.00044715	0.00012071	907.08	4.6764e-06	4.9382e-06	960.48	307.94	5.0531e-06	4.8509e-06	349.97	115.5	103.41	42.567	5.1543e-06	50.67	-131.632	-39.032	-65.609	-124.811	22.596	14.915	-126.123	-119.654	-9.157	5.789	-121.594	-116.523	-114.529	-108.392	32.018	-110.713	-8191	255	
1944.118	1	1	0	0	0.092794	0.20953	0.04424	0.21179	0.046803	0.14383	0.2855	0.26928	0.24997	0.03784	0.1132	0.22611	0.078439	0.041308	0.23393	0.26245	-2.7292	-2.8083	-3.55	-2.7229	-3.4771	-3.4958	-3.1354	-3.7479	-2.9396	-2.7458	-3.5854	-2.7792	-3.3896	-3.4583	-2.6625	-3.5083	107.954	-49.238	-120.638	178.840	92.612	35.709	99.262	141.352	-81.730	-107.216	130.292	-25.923	40.875	135.482	-9.273	-98.500	0.00030167	0.00025618	0.00015122	871.13	2.2804e-06	4.0142e-06	918.26	292.8	3.6182e-06	4.9974e-06	332.28	107.74	96.682	39.73	2.5848e-06	47.449	0.00044638	0.00046296	0.00012311	909.57	4.7324e-06	5.0158e-06	960.4	308.21	5.0049e-06	5.0379e-06	349.29	114.71	103.43	42.399	5.2505e-06	50.499	-126.091	-44.469	-35.325	-124.947	22.420	7.433	-126.163	-119.637	-11.980	7.275	-121.973	-116.825	-114.313	-108.204	4.852	-111.025	-8191	255	
1944.238	1	1	0	0	0.043018	0.34835	0.091984	0.1366	0.16496	0.12181	0.11695	0.27635	0.066835	0.18659	0.39596	0.25034	0.072864	0.12358	0.20736	0.17756	-2.6771	-2.8	-3.35	-2.8917	-3.1458	-3.3521	-2.7562	-3.5958	-3.1271	-2.8	-3.5312	-2.9604	-2.9729	-3.6896	-2.8458	-3.4625	-71.792	200.501	17.907	-131.758	110.521	-49.688	87.998	178.166	36.462	27.741	-80.653	130.691	-121.705	134.123	105.263	125.453	0.00028965	0.00044038	0.00012097	869.79	2.8191e-06	2.8885e-06	914.92	291.84	2.0151e-06	4.3212e-06	333.15	108.67	96.795	40.166	2.9426e-06	47.87	0.0004448	0.00044348	0.00012426	908.33	4.939e-06	5.0147e-06	958.02	307.64	4.9178e-06	5.1969e-06	349.46	115.2	103.61	42.641	5.2557e-06	50.838	-130.633	-55.436	-51.788	-125.102	-2.929	28.234	-126.151	-119.563	-2.932	24.005	-121.524	-116.757	-114.679	-108.338	-6.492	-110.689	-8191	255	
1944.310	1	1	0	0	0.14709	0.30573	0.20897	0.035852	0.24953	0.017014	0.24782	0.19897	0.28731	0.15652	0.1478	0.13721	0.098918	0.045882	0.035728	0.2382	-2.9188	-2.4479	-3.3521	-3.1125	-3.0354	-3.6292	-2.8042	-3.3479	-3.225	-2.7667	-3.6167	-3.0792	-3.0729	-3.4979	-2.7979	-3.4479	-30.145	160.460	-15.887	-104.999	215.364	-90.966	188.768	-85.533	198.685	-19.885	-37.143	-39.681	44.589	111.500	-40.136	196.957	0.00029609	0.00051389	0.00013497	871.65	3.4661e-06	3.7869e-06	917.89	292.9	3.2183e-06	6.6091e-06	333.49	108.42	97.797	40.275	4.708e-06	48.283	0.00043911	0.00044579	0.0001271	908.51	4.9144e-06	4.8819e-06	961.66	308.28	4.9249e-06	5.1252e-06	350.29	115.76	103.98	42.828	5.2267e-06	51.275	-131.712	-52.248	-57.337	-124.957	23.994	34.976	-126.059	-119.604	-3.068	8.544	-121.681	-116.753	-114.776	-108.353	33.816	-111.076	-8191	255	
1944.406	1	1	0	0	0.12189	0.17932	0.044849	0.16865	0.046191	0.085094	0.082692	0.29032	0.26636	0.14063	0.16551	0.25084	0.054951	0.20714	0.092082	0.15346	-2.9354	-2.8063	-3.4708	-3.1708	-2.8729	-3.5396	-2.9292	-3.2646	-3.3896	-2.7729	-3.4896	-3.0958	-2.75	-3.5896	-2.8396	-3.1146	179.779	125.006	28.796	-105.900	68.056	42.510	139.738	119.160	-66.530	102.212	172.665	-43.531	-35.299	216.480	202.448	154.715	0.00027801	0.00032321	0.00012373	869.25	2.1459e-06	3.6656e-06	919.84	293.92	2.4141e-06	4.8189e-06	336.94	109.55	97.454	40.582	3.624e-06	48.429	0.00043526	0.00044625	0.00012616	908.03	4.93e-06	4.8003e-06	964.39	309.28	4.7122e-06	5.105e-06	352.91	116.52	104.45	43.123	5.0745e-06	51.511	-130.992	-58.142	-46.960	-124.942	-9.536	-15.967	-125.994	-119.546	-18.586	14.056	-121.598	-116.384	-114.340	-108.113	1.987	-110.724	-8191	255	
1944.502	1	1	0	0	0.20783	0.20857	0.11681	0.15033	0.11055	0.11309	0.31066	0.01929	0.084916	0.093251	0.08256	0.014716	0.26065	0.096498	0.046875	0.15484	-3.1604	-2.5875	-3.3271	-3.4083	-2.8042	-3.4479	-3.0708	-3.1146	-3.4396	-2.7604	-3.3333	-3.4729	-2.6312	-3.4958	-2.9583	-2.9083	13.434	62.904	126.024	-79.430	-135.657	154.254	171.091	-69.762	-81.796	-44.837	-27.493	38.211	215.350	-19.495	-46.193	34.074	0.00028476	0.00041458	0.00011422	872.36	2.334e-06	3.0901e-06	917.29	293.52	1.9377e-06	5.3041e-06	333.61	109.12	96.788	40.328	3.4209e-06	47.969	0.00043497	0.00044966	0.00012702	911.83	5.0693e-06	4.7691e-06	963.12	309.08	4.8462e-06	5.2146e-06	351.02	116	103.89	42.943	5.0131e-06	51.101	-129.296	-36.569	-46.859	-124.991	20.966	-5.553	-126.135	-119.557	-7.264	25.338	-121.442	-116.699	-114.272	-108.404	2.085	-110.785	-8191	255	
1944.623	1	1	0	0	0.032641	0.1553	0.073073	0.15365	0.13118	0.27836	0.32836	0.21209	0.095355	0.05409	0.19964	0.22668	0.1028	0.079284	0.090172	0.24913	-3.2354	-2.6271	-3.1375	-3.3	-2.5958	-3.5917	-3.2833	-2.8458	-3.4646	-2.8167	-3.3438	-3.5062	-2.5312	-3.6208	-3.1125	-2.9708	141.742	123.782	221.092	49.940	198.247	92.429	147.483	185.199	45.862	-111.241	-126.619	70.963	-130.900	-31.935	82.142	197.119	0.00031051	0.00042056	0.00010988	870.23	2.6007e-06	3.4333e-06	912.32	292.55	1.5498e-06	4.2129e-06	332.69	108.36	97.358	40.23	2.0609e-06	47.804	0.00042391	0.00045834	0.00012445	907.49	5.0834e-06	4.7408e-06	958.38	307.99	4.7988e-06	5.222e-06	349.63	115.24	103.72	42.605	4.8735e-06	50.796	-127.209	-54.121	-41.354	-125.056	10.947	1.659	-126.042	-119.623	-8.305	10.803	-121.488	-116.683	-114.812	-108.267	17.825	-110.820	-8191	255	
1944.717	1	1	0	0	0.085705	0.096179	0.16104	0.048013	0.084809	0.040642	0.34843	0.18203	0.21395	0.04561	0.30747	0.086806	0.1478	0.17288	0.31394	0.087121	-3.1542	-2.7812	-3.1521	-3.525	-2.6771	-3.6646	-3.2167	-2.8875	-3.5104	-2.9562	-3.1292	-3.525	-2.7125	-3.3688	-3.1083	-2.7042	-57.319	108.398	-61.705	164.510	194.542	215.875	93.332	150.828	-131.245	-15.454	-108.141	-32.004	29.837	-104.898	-49.341	48.615	0.00030248	0.00036757	0.00014694	864.97	3.3379e-06	3.5725e-06	913.75	291.85	4.0965e-06	4.6502e-06	333.35	108.73	96.895	39.992	2.7114e-06	47.975	0.00042053	0.00045996	0.0001262	906.01	5.0537e-06	4.6377e-06	958.41	307.79	5.0923e-06	5.0683e-06	350.24	115.73	103.72	42.684	4.865e-06	50.97	-132.360	-47.724	-55.659	-124.996	-12.588	-11.332	-126.094	-119.640	-0.674	11.097	-121.601	-116.657	-114.617	-108.114	6.499	-110.926	-8191	255	
1944.813	1	1	0	0	0.035704	0.18618	0.088802	0.24026	0.13643	0.23305	0.12939	0.41352	0.18016	0.14406	0.19002	0.20263	0.098752	0.032835	0.11898	0.05171	-3.2062	-2.8063	-3.0979	-3.6688	-2.8396	-3.3812	-3.3312	-2.8354	-3.5833	-3.0917	-3.1021	-3.5542	-2.6229	-3.2812	-3.4958	-2.7958	48.379	121.095	100.428	196.101	-103.228	-94.933	96.501	121.899	25.001	-46.499	172.068	148.863	68.863	38.920	95.165	-11.220	0.0002748	0.0004848	0.00012371	868.61	1.305e-06	3.6744e-06	922.6	293.81	2.7263e-06	4.7129e-06	333.86	108.44	97.474	40.069	2.1667e-06	47.76	0.00041769	0.00047451	0.00012638	908.4	5.0932e-06	4.6593e-06	963.47	308.96	4.9315e-06	4.9744e-06	350.44	115.42	103.89	42.616	4.8142e-06	50.65	-131.675	-45.859	-66.659	-124.740	34.430	6.633	-125.961	-119.656	-8.787	9.251	-121.626	-116.782	-114.531	-108.179	-8.358	-110.902	-8191	255	
1944.909	1	1	0	0	0.23895	0.053698	0.13425	0.2205	0.23119	0.27469	0.17714	0.14114	0.12404	0.099845	0.22389	0.13258	0.18567	0.17631	0.052078	0.16054	-3.1292	-2.8292	-2.875	-3.8146	-2.9583	-3.1437	-3.3833	-2.725	-3.5292	-3.2958	-2.8917	-3.5062	-2.9188	-3.1708	-3.4333	-2.8125	92.649	31.608	79.676	78.738	90.406	-17.002	176.173	70.110	-65.924	202.781	-107.154	82.598	139.391	-117.283	38.353	199.183	0.00027109	0.00030453	0.00012775	868.64	2.3618e-06	2.7731e-06	915.81	292.22	2.361e-06	4.9238e-06	332.23	107.8	96.107	39.835	2.968e-06	47.495	0.00041589	0.0004704	0.0001236	906.64	5.0274e-06	4.7139e-06	957.41	307.46	4.9636e-06	4.8654e-06	349.09	114.84	103.22	42.433	4.7341e-06	50.437	-127.947	-45.081	-68.119	-125.092	-13.609	-23.623	-126.199	-119.556	1.085	25.377	-121.511	-116.550	-114.609	-108.240	-6.731	-110.951	-8191	255	
1945.006	1	1	0	0	0.32341	0.10525	0.20291	0.077046	0.16188	0.22726	0.45425	0.36805	0.30565	0.12593	0.13259	0.20663	0.22021	0.090771	0.099468	0.1894	-3.0667	-3.1063	-2.8208	-3.7167	-2.8292	-3.05	-3.7167	-2.7146	-3.4271	-3.4104	-2.9417	-3.6042	-2.9062	-3.125	-3.725	-2.7708	13.110	-94.521	-69.869	143.581	134.170	-54.391	187.608	176.223	-129.573	-133.850	-116.672	159.549	210.655	161.351	178.536	165.963	0.00029287	0.0003149	0.00016256	867.88	3.1487e-06	5.0274e-06	916.36	290.83	2.357e-06	4.8243e-06	332.43	108.15	96.937	39.921	3.0066e-06	47.678	0.00041946	0.00046224	0.00012695	906.16	4.8823e-06	4.8337e-06	957.9	307.22	4.9366e-06	4.755e-06	349.41	115.15	103.65	42.523	4.7587e-06	50.647	-127.994	-47.702	-43.243	-124.846	0.015	14.900	-126.023	-119.674	5.512	12.709	-121.410	-116.394	-114.391	-107.903	-4.713	-110.749	-8191	255	
1945.102	1	1	0	0	0.13541	0.24527	0.20986	0.14947	0.13081	0.26137	0.096377	0.11127	0.12443	0.30748	0.12073	0.24254	0.10432	0.055801	0.24469	0.030055	-3.0604	-3.3312	-2.6854	-3.6979	-2.8521	-2.825	-3.825	-2.9	-3.3104	-3.275	-2.7687	-3.5812	-3.0833	-3.1271	-3.6458	-2.8271	66.230	49.925	70.601	180.989	113.470	-27.420	152.746	187.943	-38.817	-17.408	-16.679	44.769	-97.853	-89.719	186.408	-86.278	0.00027549	0.0005024	9.531e-05	867.39	3.4276e-06	2.7407e-06	916.2	291.98	2.8356e-06	4.2501e-06	334.47	108.67	96.753	40.353	2.9932e-06	48.155	0.00041833	0.00045844	0.0001239	906.59	4.9112e-06	4.9674e-06	959.81	307.88	4.914e-06	4.7103e-06	350.61	115.68	103.65	42.789	4.8685e-06	51.164	-133.768	-40.662	-45.508	-124.839	17.429	44.775	-126.030	-119.536	8.623	3.319	-121.555	-116.577	-114.277	-108.287	-0.023	-110.886	-8191	255	
1945.222	1	1	0	0	0.10467	0.17888	0.14737	0.2291	0.23908	0.050354	0.13838	0.26938	0.17336	0.21437	0.12319	0.21981	0.017675	0.13477	0.09166	0.080807	-2.8771	-3.4458	-2.6875	-3.65	-2.9938	-2.7792	-3.6083	-2.9646	-3.0958	-3.6521	-2.9062	-3.5646	-3.25	-2.8563	-3.6	-3.0729	-130.948	104.855	11.182	-27.922	52.423	194.340	182.241	204.579	-89.937	149.128	119.609	136.442	-88.875	191.988	101.603	-88.101	0.00028904	0.00043541	9.5893e-05	870.45	2.392e-06	4.6882e-06	916.6	292.6	2.6662e-06	5.0582e-06	333.4	108.56	96.668	40.342	1.8975e-06	47.998	0.00042498	0.00044458	0.0001273	908.77	4.9019e-06	5.032e-06	962.69	308.58	5.0386e-06	4.6238e-06	350.61	115.56	103.57	42.827	4.8819e-06	50.959	-129.549	-33.397	-68.918	-124.881	13.926	9.622	-125.945	-119.711	-10.228	13.619	-121.580	-116.115	-114.506	-108.132	-5.277	-110.690	-8191	255	
1945.319	1	1	0	0	0.21015	0.12261	0.21846	0.22434	0.080876	0.13701	0.11457	0.24769	0.2582	0.11294	0.26638	0.043388	0.29037	0.21351	0.17534	0.19791	-2.8208	-3.4021	-2.7542	-3.3833	-3.1771	-2.725	-3.5833	-2.9667	-2.8521	-3.6458	-2.9188	-3.2979	-3.3979	-2.7375	-3.3646	-3.0438	164.180	177.975	204.091	-119.767	79.729	113.749	-8.412	57.819	130.393	167.212	-133.362	125.150	167.918	-50.184	11.041	55.149	0.00029192	0.0005433	9.7041e-05	871.55	2.1929e-06	4.2599e-06	918.42	292.91	2.3077e-06	4.6622e-06	331.81	108.24	97.041	40.273	3.783e-06	47.909	0.00043705	0.00044248	0.00012657	908.1	4.6769e-06	5.0915e-06	960.22	307.22	4.7472e-06	4.687e-06	348.6	115.03	103.62	42.816	4.9177e-06	50.956	-129.190	-50.439	-92.011	-124.801	15.793	-0.479	-125.943	-119.817	-10.044	8.184	-121.651	-116.497	-114.339	-107.974	-5.611	-110.709	-8191	255	
1945.415	1	1	0	0	0.021752	0.14136	0.27247	0.065945	0.09137	0.091428	0.14782	0.14849	0.066001	0.18659	0.17226	0.18005	0.09444	0.093337	0.19366	0.29368	-2.3979	-3.4583	-2.8292	-3.1521	-3.4813	-2.6813	-3.7167	-3.2	-2.6917	-3.6521	-2.7625	-3.225	-3.5208	-2.8812	-3.5229	-3.25	34.330	-111.661	55.684	133.226	-22.239	3.805	187.886	94.532	97.276	-96.562	-72.757	-74.484	-106.187	-110.923	-127.723	165.233	0.00029601	0.00053019	0.00014862	868.01	3.4153e-06	2.7213e-06	913.55	290.82	3.729e-06	4.8351e-06	332.78	108.52	97.268	40.352	1.9864e-06	48.066	0.00042558	0.0004297	0.00012747	906.28	4.6101e-06	4.9994e-06	957.72	306.77	4.8597e-06	4.8352e-06	349.1	115.41	103.59	42.905	4.9505e-06	51.169	-127.220	-59.337	-42.522	-124.836	-11.718	27.654	-125.886	-119.624	-12.192	21.662	-121.559	-116.279	-114.314	-108.231	3.787	-110.791	-8191	255	
1945.511	1	1	0	0	0.068392	0.31082	0.041994	0.10856	0.048296	0.16194	0.10609	0.20468	0.298	0.18745	0.15708	0.34132	0.057427	0.26866	0.20956	0.13394	-2.4375	-3.7146	-2.8937	-3.2229	-3.5312	-2.8042	-3.5104	-3.4292	-2.775	-3.45	-3.1	-3.1646	-3.7229	-2.7979	-3.3479	-3.3958	-98.343	169.752	106.601	213.966	154.886	-65.889	-21.285	142.883	215.884	220.852	123.076	-103.208	-2.573	-78.858	98.483	117.594	0.00028579	0.00035127	0.0001342	869.7	2.4645e-06	3.7156e-06	920.07	292.52	3.1439e-06	4.9099e-06	335.47	109.37	97.626	40.562	1.6822e-06	48.747	0.00044387	0.00043509	0.00012688	907.78	4.7082e-06	5.2113e-06	962.12	308.48	4.9424e-06	4.9644e-06	352.03	116.39	104.39	43.278	5.0314e-06	51.806	-127.921	-53.838	-62.250	-124.604	1.609	7.882	-125.867	-119.551	-7.132	35.213	-121.478	-116.363	-114.264	-108.068	12.038	-110.790	-8191	255	
1945.605	1	1	0	0	0.27345	0.16004	0.095244	0.36124	0.08871	0.10947	0.21557	0.090768	0.31496	0.19002	0.047337	0.24478	0.17219	0.32348	0.11864	0.2731	-2.7708	-3.6583	-3.0042	-3.0438	-3.6042	-2.8583	-3.4208	-3.5896	-2.7417	-3.6188	-2.9958	-3.0854	-3.6167	-2.8958	-3.1063	-3.4833	-39.710	141.567	55.177	131.841	-58.182	97.680	189.932	199.101	126.710	188.123	215.991	79.030	220.863	-123.828	221.357	192.035	0.0003142	0.00030787	0.00015583	873.54	2.9774e-06	4.7266e-06	928.74	294.93	3.039e-06	1.8387e-06	338.24	110.64	98.4	41.22	2.907e-06	49.273	0.0004514	0.00041994	0.00013434	914.08	4.8435e-06	5.2277e-06	971.62	310.87	5.105e-06	4.9593e-06	354.46	117.57	105.17	43.712	5.1346e-06	52.244	-130.799	-32.211	-50.665	-124.633	-23.022	-9.845	-125.789	-119.702	-12.150	-6.533	-121.724	-116.403	-114.483	-108.232	-5.457	-110.930	-8191	255	
#DATA ENDS
