BOXY.EXE: ISS Imagent and Oximeter Data Acquisition Program Version 0.80
Ascii Record File

#ACQ INFORMATION
2  Detector Channels 
16  External MUX Channels 
1  Auxiliary Channels 
5000  Waveform (CCF) Frequency (Hz)
1  Waveforms Skipped 
30  Waveforms Averaged 
1  Cycles Averaged 
16  Acquisitions per Waveform 
10.0806  Updata Rate (Hz) 

#FILE INFORMATION
TRUE -- External MUX Channel results are PARSED.
FALSE -- AC DC and Phase are NOT grouped.
TRUE -- Companion Program Settings File CREATED.
FALSE -- AC data not excluded
FALSE -- DC data not excluded
FALSE -- Phase data not excluded
FALSE -- Auxillary Chn. data not excluded
Tab delimiters

#CALIBRATION STATE
TRUE -- Waveform Calibration Values APPLIED.


#AUX CALIBRATION VALUES
Val Type	aux-1	

Term	1.0000e+00	
Factor	0.0000e+00	


#WF CALIBRATION VALUES
A = Detector Channel
Val Type	A-AC1	A-AC2	A-AC3	A-AC4	A-AC5	A-AC6	A-AC7	A-AC8	A-AC9	A-AC10	A-AC11	A-AC12	A-AC13	A-AC14	A-AC15	A-AC16	A-DC1	A-DC2	A-DC3	A-DC4	A-DC5	A-DC6	A-DC7	A-DC8	A-DC9	A-DC10	A-DC11	A-DC12	A-DC13	A-DC14	A-DC15	A-DC16	A-Ph1	A-Ph2	A-Ph3	A-Ph4	A-Ph5	A-Ph6	A-Ph7	A-Ph8	A-Ph9	A-Ph10	A-Ph11	A-Ph12	A-Ph13	A-Ph14	A-Ph15	A-Ph16	

Term	0.00000e+00	0.00000e+00	0.00000e+00	0.00000e+00	0.00000e+00	0.00000e+00	0.00000e+00	0.00000e+00	0.00000e+00	0.00000e+00	0.00000e+00	0.00000e+00	0.00000e+00	0.00000e+00	0.00000e+00	0.00000e+00	0.00000e+00	0.00000e+00	0.00000e+00	0.00000e+00	0.00000e+00	0.00000e+00	0.00000e+00	0.00000e+00	0.00000e+00	0.00000e+00	0.00000e+00	0.00000e+00	0.00000e+00	0.00000e+00	0.00000e+00	0.00000e+00	0.00000e+00	0.00000e+00	0.00000e+00	0.00000e+00	0.00000e+00	0.00000e+00	0.00000e+00	0.00000e+00	0.00000e+00	0.00000e+00	0.00000e+00	0.00000e+00	0.00000e+00	0.00000e+00	0.00000e+00	0.00000e+00	
Factor	1.00000e+00	1.00000e+00	1.00000e+00	1.00000e+00	1.00000e+00	1.00000e+00	1.00000e+00	1.00000e+00	1.00000e+00	1.00000e+00	1.00000e+00	1.00000e+00	1.00000e+00	1.00000e+00	1.00000e+00	1.00000e+00	1.00000e+00	1.00000e+00	1.00000e+00	1.00000e+00	1.00000e+00	1.00000e+00	1.00000e+00	1.00000e+00	1.00000e+00	1.00000e+00	1.00000e+00	1.00000e+00	1.00000e+00	1.00000e+00	1.00000e+00	1.00000e+00	X	X	X	X	X	X	X	X	X	X	X	X	X	X	X	X	

B = Detector Channel
Val Type	B-AC1	B-AC2	B-AC3	B-AC4	B-AC5	B-AC6	B-AC7	B-AC8	B-AC9	B-AC10	B-AC11	B-AC12	B-AC13	B-AC14	B-AC15	B-AC16	B-DC1	B-DC2	B-DC3	B-DC4	B-DC5	B-DC6	B-DC7	B-DC8	B-DC9	B-DC10	B-DC11	B-DC12	B-DC13	B-DC14	B-DC15	B-DC16	B-Ph1	B-Ph2	B-Ph3	B-Ph4	B-Ph5	B-Ph6	B-Ph7	B-Ph8	B-Ph9	B-Ph10	B-Ph11	B-Ph12	B-Ph13	B-Ph14	B-Ph15	B-Ph16	

Term	0.00000e+00	0.00000e+00	0.00000e+00	0.00000e+00	0.00000e+00	0.00000e+00	0.00000e+00	0.00000e+00	0.00000e+00	0.00000e+00	0.00000e+00	0.00000e+00	0.00000e+00	0.00000e+00	0.00000e+00	0.00000e+00	0.00000e+00	0.00000e+00	0.00000e+00	0.00000e+00	0.00000e+00	0.00000e+00	0.00000e+00	0.00000e+00	0.00000e+00	0.00000e+00	0.00000e+00	0.00000e+00	0.00000e+00	0.00000e+00	0.00000e+00	0.00000e+00	-9.97839e+01	-1.27879e+02	-1.28521e+02	-1.82006e+02	-5.58992e+01	-7.33021e+01	-1.57810e+02	-1.62015e+02	-5.12818e+01	-6.74143e+01	-1.72403e+02	-1.70165e+02	-1.80574e+02	-1.76604e+02	-6.35904e+01	-1.48996e+02	
Factor	1.65874e-05	1.60630e-04	4.67225e-05	1.56642e-01	1.23825e-06	1.65992e-06	1.81458e-01	5.32774e-02	1.10927e-06	1.85625e-06	9.31568e-02	3.11199e-02	4.21576e-02	9.47623e-03	1.36244e-06	1.40405e-02	8.31017e-06	1.23189e-05	3.42039e-06	7.89887e-02	1.27350e-07	1.35954e-07	8.60234e-02	2.70087e-02	1.27156e-07	1.36589e-07	4.55214e-02	1.53836e-02	2.16466e-02	4.83925e-03	1.31139e-07	6.92868e-03	X	X	X	X	X	X	X	X	X	X	X	X	X	X	X	X	



#DISTANCE SETTINGS
A = Detector Channel
A-1	A-2	A-3	A-4	A-5	A-6	A-7	A-8	A-9	A-10	A-11	A-12	A-13	A-14	A-15	A-16	

2.5000e+00	3.0000e+00	2.5000e+00	3.0000e+00	2.0000e+00	3.0000e+00	1.5000e+00	3.0000e+00	3.0000e+00	3.0000e+00	3.0000e+00	3.0000e+00	3.0000e+00	3.0000e+00	1.5000e+00	3.0000e+00	

B = Detector Channel
B-1	B-2	B-3	B-4	B-5	B-6	B-7	B-8	B-9	B-10	B-11	B-12	B-13	B-14	B-15	B-16	

1.0000e+01	1.0000e+01	1.0000e+01	1.4400e+00	1.0000e+01	1.0000e+01	1.5100e+00	1.9400e+00	1.0000e+01	1.0000e+01	1.9900e+00	2.4900e+00	2.4100e+00	2.9000e+00	1.0000e+01	2.9800e+00	




#DATA BEGINS
time	group	step	mark	flag	A-AC1	A-AC2	A-AC3	A-AC4	A-AC5	A-AC6	A-AC7	A-AC8	A-AC9	A-AC10	A-AC11	A-AC12	A-AC13	A-AC14	A-AC15	A-AC16	A-DC1	A-DC2	A-DC3	A-DC4	A-DC5	A-DC6	A-DC7	A-DC8	A-DC9	A-DC10	A-DC11	A-DC12	A-DC13	A-DC14	A-DC15	A-DC16	A-Ph1	A-Ph2	A-Ph3	A-Ph4	A-Ph5	A-Ph6	A-Ph7	A-Ph8	A-Ph9	A-Ph10	A-Ph11	A-Ph12	A-Ph13	A-Ph14	A-Ph15	A-Ph16	B-AC1	B-AC2	B-AC3	B-AC4	B-AC5	B-AC6	B-AC7	B-AC8	B-AC9	B-AC10	B-AC11	B-AC12	B-AC13	B-AC14	B-AC15	B-AC16	B-DC1	B-DC2	B-DC3	B-DC4	B-DC5	B-DC6	B-DC7	B-DC8	B-DC9	B-DC10	B-DC11	B-DC12	B-DC13	B-DC14	B-DC15	B-DC16	B-Ph1	B-Ph2	B-Ph3	B-Ph4	B-Ph5	B-Ph6	B-Ph7	B-Ph8	B-Ph9	B-Ph10	B-Ph11	B-Ph12	B-Ph13	B-Ph14	B-Ph15	B-Ph16	aux-1	digaux	

984.400	1	1	0	768	0.16775	0.056036	0.21311	0.079344	0.29255	0.10951	0.099996	0.19364	0.042659	0.22737	0.027078	0.13088	0.25591	0.32748	0.26818	0.15219	-2.8021	-2.9979	-3.8229	-3.2625	-3.2896	-3.5438	-3.0708	-3.6083	-3.6021	-3.0271	-3.9604	-2.9771	-3.2792	-3.6271	-2.9771	-3.6437	396.521	137.295	99.089	371.727	395.157	413.132	308.345	398.549	402.024	349.687	409.790	308.090	217.224	411.178	433.408	336.883	0.00042109	0.00039619	0.00017296	1258.1	4.2323e-06	6.7186e-06	1263.1	340.89	4.638e-06	5.078e-06	398.11	133.57	115.2	39.77	5.0269e-06	49.875	0.00036385	0.00030433	8.288e-05	1273.9	3.3249e-06	3.2606e-06	1278.1	346.79	3.3045e-06	3.2491e-06	403.2	136.44	117.39	40.61	3.396e-06	51.063	194.980	176.617	168.299	93.952	245.179	219.518	93.790	98.740	241.436	243.577	98.211	102.550	103.586	107.612	238.738	106.976	-8191	255	
984.496	1	1	0	0	0.20703	0.11073	0.13616	0.076931	0.1313	0.17622	0.18063	0.17594	0.098874	0.056361	0.20031	0.23731	0.19785	0.087665	0.13613	0.15654	-3.1667	-2.9375	-3.775	-3.2854	-3.0833	-3.7167	-3.0542	-3.6792	-3.3438	-2.9792	-3.7229	-3.1708	-2.9958	-3.7021	-2.9062	-3.7438	163.702	320.314	143.262	195.073	148.910	334.589	413.956	263.178	410.091	426.780	379.331	161.140	93.211	229.771	398.762	135.679	0.00043287	0.00055979	0.00013199	1259.1	4.0431e-06	4.264e-06	1264.8	341.13	5.0111e-06	3.9979e-06	398.9	134.12	115.34	39.63	5.4142e-06	50.211	0.00036651	0.00030902	8.0757e-05	1272.9	3.3161e-06	3.2096e-06	1279.3	346.49	3.4404e-06	3.1888e-06	404.3	136.59	117.46	40.636	3.3872e-06	51.217	196.852	153.947	162.960	93.973	261.435	246.301	94.033	98.803	258.289	239.900	98.483	103.269	103.796	108.190	234.382	107.423	-8191	255	
984.592	1	1	0	0	0.092905	0.062503	0.3356	0.18111	0.33265	0.21002	0.051968	0.41172	0.16248	0.16307	0.071962	0.18764	0.22534	0.15083	0.10328	0.10041	-3.1396	-3.0438	-3.7938	-3.3542	-2.8542	-3.8542	-3.2125	-3.5104	-3.6396	-2.7208	-3.7292	-3.2979	-3.0979	-3.6229	-2.9729	-3.5	186.443	297.565	177.526	142.859	408.369	371.733	170.112	355.633	260.280	318.544	388.383	123.814	396.607	124.115	374.055	440.059	0.00043038	0.00048293	0.00017041	1260	4.0341e-06	5.4237e-06	1266.5	341.65	4.4957e-06	3.7313e-06	395.42	133.37	114.98	39.671	5.0618e-06	49.879	0.0003683	0.00030818	8.1491e-05	1273.5	3.4262e-06	3.2235e-06	1279.9	346.78	3.2242e-06	3.3823e-06	403.4	136.73	117.68	40.647	3.3192e-06	51.072	196.558	174.398	182.729	94.239	239.719	227.765	94.443	99.161	254.245	228.378	98.620	103.001	103.624	108.001	240.827	107.307	-8191	255	
984.689	1	1	0	0	0.11084	0.16856	0.17664	0.2443	0.043945	0.18082	0.35825	0.26664	0.071147	0.15683	0.13823	0.10576	0.15159	0.030215	0.10478	0.035995	-3.0104	-2.7438	-3.4792	-3.4583	-2.8125	-3.7208	-3.1688	-3.3479	-3.7958	-3.0062	-3.6042	-3.4792	-2.9792	-3.7875	-3.1833	-3.1625	308.421	210.602	298.058	419.925	271.076	285.277	382.896	427.856	236.124	116.249	290.481	163.291	431.149	149.364	415.968	332.730	0.00041432	0.00057203	0.00013382	1261.4	4.9242e-06	2.3867e-06	1262.6	342.2	5.3331e-06	6.1584e-06	396.99	134.1	114.76	39.711	3.0328e-06	50.348	0.00036584	0.00030412	7.9987e-05	1273.5	3.3681e-06	3.0335e-06	1279.1	347.61	3.2634e-06	3.2463e-06	403.27	136.83	117.45	40.727	3.2757e-06	51.246	192.636	181.995	171.604	93.988	246.374	224.021	93.984	99.031	249.111	218.164	98.356	102.713	103.644	107.990	243.470	107.278	-8191	255	
984.785	1	1	0	0	0.16846	0.17825	0.17599	0.1766	0.13857	0.16094	0.54258	0.23546	0.037636	0.07045	0.25771	0.15416	0.015802	0.14882	0.1392	0.058861	-3.3604	-2.6437	-3.6188	-3.5708	-2.8167	-3.6792	-3.35	-3.1437	-3.6312	-2.8271	-3.5312	-3.4958	-2.7542	-3.8208	-3.25	-2.9833	437.025	179.142	208.577	396.800	84.075	228.445	393.273	368.426	248.398	218.366	430.045	355.889	91.414	417.672	373.669	363.041	0.00042533	0.00045772	0.00014708	1254.8	4.7057e-06	6.0349e-06	1266.1	342.5	4.3101e-06	6.1322e-06	397.92	134.19	115.89	39.866	5.7502e-06	50.154	0.0003607	0.00030363	7.6139e-05	1271.6	3.5032e-06	3.1504e-06	1279.5	347.38	3.2531e-06	3.2138e-06	404.63	136.9	117.71	40.804	3.2733e-06	51.217	197.032	182.432	160.267	94.197	236.664	226.599	94.162	99.012	269.095	207.305	98.756	103.108	103.966	108.127	243.978	107.410	-8191	255	
984.881	1	1	0	0	0.064424	0.033247	0.1015	0.13442	0.14053	0.13201	0.12253	0.13182	0.055626	0.15084	0.11868	0.16559	0.33928	0.24443	0.28066	0.087093	-3.3187	-3.0854	-3.3292	-3.7292	-2.8708	-3.7562	-3.6229	-3.0812	-3.8458	-3.2396	-3.3375	-3.8542	-3.0854	-3.7354	-3.3292	-3.1917	149.647	216.897	415.871	168.893	151.789	102.980	361.400	406.789	135.819	141.495	389.309	410.499	243.326	401.773	439.810	231.716	0.00044414	0.00039125	0.00012558	1255.4	3.7941e-06	5.4903e-06	1261.7	341.86	3.9295e-06	4.9066e-06	397.31	134.21	115.7	39.901	5.6352e-06	50.168	0.00036051	0.00029791	7.7279e-05	1272.2	3.3838e-06	3.0199e-06	1278.2	347.56	3.238e-06	3.1532e-06	404.34	136.85	117.73	40.81	3.1842e-06	51.28	198.612	176.237	180.759	94.236	230.835	221.049	94.375	99.184	261.229	222.914	98.706	103.341	104.092	108.002	232.326	107.447	-8191	255	
985.001	1	1	0	0	0.086947	0.14954	0.23944	0.16255	0.23213	0.33355	0.28823	0.29317	0.081154	0.30896	0.11653	0.26759	0.17203	0.21555	0.22192	0.36931	-3.3937	-3.1125	-3.175	-3.9229	-2.8563	-3.7208	-3.6083	-3.1896	-3.8	-3.1333	-3.2938	-3.7646	-3.0021	-3.6333	-3.4146	-3.1833	220.800	96.465	333.108	117.804	229.179	124.789	388.379	82.847	359.042	418.204	215.430	367.544	234.977	400.874	273.628	367.836	0.00044358	0.00041322	0.00014684	1257.3	4.6983e-06	3.3669e-06	1264	342.72	4.7379e-06	2.5148e-06	397.62	133.97	114.97	39.905	4.4059e-06	50.31	0.00035943	0.00028256	7.77e-05	1272.7	3.3482e-06	2.859e-06	1278.1	347.65	3.2215e-06	3.098e-06	404.76	136.95	117.56	40.88	3.1277e-06	51.259	193.276	172.539	172.667	94.365	221.681	220.682	94.592	99.434	259.001	221.217	98.639	103.363	104.087	108.310	253.864	107.544	-8191	255	
985.096	1	1	0	0	0.052945	0.086092	0.10892	0.18427	0.078726	0.14211	0.12461	0.17218	0.094557	0.17573	0.17634	0.20165	0.2427	0.20285	0.17585	0.098827	-3.2979	-3.1312	-3.1917	-3.8021	-2.8187	-3.5167	-3.75	-2.9417	-3.9062	-3.0563	-3.0208	-3.9	-3.0271	-3.4104	-3.6063	-3.0646	138.255	307.997	181.499	394.783	152.246	306.773	383.243	322.750	226.601	174.457	188.430	112.033	359.514	184.778	332.687	412.807	0.0004635	0.00044799	8.712e-05	1255.5	4.439e-06	4.5924e-06	1263	342.25	4.2063e-06	3.6947e-06	398.49	134.54	115.32	40.056	4.2473e-06	50.199	0.00035735	0.00027089	7.6702e-05	1270.3	3.2795e-06	2.9632e-06	1276.4	347.71	3.1119e-06	3.0365e-06	404.23	136.93	117.73	40.872	3.0872e-06	51.309	199.235	187.061	177.630	94.836	249.765	232.640	94.687	99.897	252.076	247.046	98.830	103.958	104.384	108.911	241.294	108.085	-8191	255	
985.192	1	1	0	0	0.2311	0.10822	0.085896	0.079129	0.07586	0.081353	0.18416	0.028162	0.12993	0.29246	0.10185	0.20688	0.35849	0.29687	0.077864	0.078598	-3.425	-3.3688	-3.0167	-3.725	-3.0625	-3.2729	-3.6729	-3.2104	-3.8583	-3.3667	-2.9792	-3.8521	-3.0333	-3.3083	-3.6312	-3.0896	182.425	337.348	415.015	268.621	207.277	296.108	134.415	424.868	330.063	126.765	408.535	357.206	102.366	432.064	98.464	385.217	0.00044597	0.00057226	0.00017849	1262.2	5.0706e-06	3.19e-06	1267.3	342.35	3.5538e-06	3.4129e-06	399.34	134.21	115.53	39.884	4.9578e-06	50.113	0.00035206	0.00027787	7.9987e-05	1273.7	3.1994e-06	2.9879e-06	1279.7	347.55	3.1874e-06	2.9927e-06	405.19	137.03	117.84	40.867	3.2036e-06	51.31	196.758	169.814	164.642	94.818	233.205	238.653	94.692	99.465	249.657	243.995	98.837	103.579	104.070	108.461	249.304	107.770	-8191	255	
985.290	1	1	0	0	0.052933	0.1375	0.1384	0.30312	0.056657	0.21135	0.4358	0.13202	0.30888	0.060855	0.27792	0.26174	0.10351	0.10234	0.23472	0.1281	-3.1958	-3.4313	-2.8521	-3.8896	-3.1625	-3.0104	-4.0042	-2.9396	-3.5479	-3.575	-3.0271	-3.6604	-3.1312	-3.0271	-3.6958	-3.0396	286.603	384.607	313.291	409.177	95.651	234.472	352.631	387.166	430.240	307.659	361.314	413.905	91.642	126.170	401.068	299.587	0.00043587	0.00039178	0.00015143	1262.1	4.7938e-06	5.6811e-06	1273.2	343.83	4.8242e-06	4.4465e-06	399.68	134.28	115.79	39.953	4.9822e-06	50.246	0.00035237	0.00028187	8.3365e-05	1275.7	3.1087e-06	2.9983e-06	1283.6	348.97	3.2319e-06	3.094e-06	405.81	137.26	117.84	41.014	3.1452e-06	51.428	198.568	155.435	174.533	94.519	234.701	225.791	94.502	99.377	259.083	244.303	99.261	103.626	104.307	108.481	233.845	108.037	-8191	255	
985.384	1	1	0	0	0.34737	0.25866	0.35044	0.27207	0.37832	0.084041	0.25491	0.10585	0.33832	0.036136	0.18615	0.11705	0.2324	0.28052	0.14416	0.049959	-2.9792	-3.4667	-2.6292	-3.8542	-3.0479	-2.9979	-3.8312	-3.1	-3.2458	-3.5312	-3.1896	-3.675	-3.3354	-3.0646	-3.75	-2.875	346.330	306.419	425.626	89.147	110.069	398.297	379.205	122.265	138.991	162.115	433.460	380.982	438.040	436.814	248.381	133.463	0.00044155	0.00045824	0.00016101	1264.8	5.4902e-06	3.0419e-06	1271.5	343.34	4.5202e-06	6.5239e-06	400.03	134.81	115.92	39.947	3.7316e-06	50.393	0.00035988	0.00027322	7.9952e-05	1278.9	3.2554e-06	3.1247e-06	1285.1	349.13	3.1898e-06	3.1706e-06	405.65	137.57	118.26	40.961	3.1782e-06	51.467	197.153	171.625	173.785	94.766	243.109	239.276	94.567	99.271	247.169	248.554	98.852	103.592	104.410	108.400	241.129	107.808	-8191	255	
985.480	1	1	0	0	0.033572	0.13916	0.032127	0.25753	0.063655	0.075937	0.098732	0.18015	0.2732	0.23516	0.092029	0.16972	0.17208	0.19147	0.18141	0.25186	-2.9896	-3.6063	-2.8604	-3.6771	-3.3729	-2.7667	-3.9167	-3.0271	-3.2833	-3.5208	-2.9083	-3.5	-3.3646	-3.0458	-3.5687	-3.3271	175.969	400.030	428.219	89.177	95.287	267.748	329.157	123.347	153.185	100.165	115.033	147.776	389.110	367.349	363.506	389.775	0.00042608	0.00052248	9.1133e-05	1263.8	5.6349e-06	3.9069e-06	1272.2	343.3	4.0393e-06	5.4366e-06	401.88	134.78	115.57	40.161	3.2746e-06	50.573	0.00035097	0.00028736	7.9731e-05	1279.2	3.2219e-06	3.1663e-06	1286.8	349.99	3.2496e-06	3.1026e-06	406.88	137.69	117.87	41.093	3.1992e-06	51.587	196.185	175.937	167.986	95.125	249.376	223.108	95.208	100.036	267.174	240.326	99.375	104.351	104.609	109.309	222.123	108.004	-8191	255	
985.577	1	1	0	0	0.090359	0.071886	0.097005	0.16128	0.2521	0.031205	0.37098	0.084787	0.1884	0.32189	0.11186	0.34809	0.07213	0.2739	0.16581	0.059758	-2.7146	-3.7542	-2.8958	-3.4917	-3.4979	-2.9646	-3.725	-3.1625	-3.125	-3.9021	-3.2625	-3.2938	-3.6917	-3.0167	-3.6896	-3.3479	169.939	173.753	327.801	85.096	386.585	320.704	414.353	378.816	418.843	89.921	114.841	404.520	180.505	342.678	341.774	93.867	0.00046778	0.00059593	0.00012512	1262.5	4.4591e-06	2.8644e-06	1274.8	344	4.6322e-06	3.6802e-06	401.82	135.56	116.11	40.083	3.3846e-06	50.581	0.00036215	0.0002811	7.9097e-05	1277.7	3.2689e-06	3.1762e-06	1287.5	349.75	3.2804e-06	3.1452e-06	406.93	137.85	118.22	41.033	3.135e-06	51.517	198.406	176.876	163.357	94.607	240.501	234.440	94.753	99.586	265.229	236.747	98.927	103.620	104.184	108.585	227.906	107.859	-8191	255	
985.697	1	1	0	0	0.34698	0.17806	0.097593	0.15412	0.16049	0.059754	0.13323	0.23069	0.20458	0.27775	0.22101	0.015383	0.10443	0.23598	0.13423	0.16876	-2.7417	-3.775	-2.9562	-3.4521	-3.5708	-2.9583	-3.6875	-3.4479	-3.0042	-3.7042	-3.0458	-3.4271	-3.5104	-2.8104	-3.6562	-3.5417	400.685	328.675	112.784	414.457	92.107	344.042	379.448	86.369	396.365	359.414	89.062	97.785	240.178	435.450	203.488	109.555	0.00044095	0.00045421	0.00014786	1265.7	3.4126e-06	2.9599e-06	1276.3	345.53	4.6127e-06	7.535e-06	400.44	135.03	116.61	40.144	3.8793e-06	50.206	0.00035491	0.00027897	8.0287e-05	1280.3	3.2546e-06	3.249e-06	1287.1	349.93	3.3212e-06	3.0616e-06	406.73	137.74	118.22	41.026	3.0785e-06	51.396	196.084	155.272	161.740	94.816	258.512	234.639	95.001	99.572	244.449	224.394	99.230	103.798	104.247	108.689	246.052	107.682	-8191	255	
985.793	1	1	0	0	0.16641	0.23106	0.04879	0.1571	0.23827	0.1417	0.07197	0.25995	0.053909	0.11801	0.17653	0.083511	0.19372	0.34287	0.19486	0.19278	-2.5604	-3.7542	-3.0146	-3.2958	-3.7562	-2.7854	-3.7812	-3.5375	-2.95	-3.6271	-3.0354	-3.1104	-3.9	-3.075	-3.5083	-3.5854	369.457	234.302	333.366	440.548	343.190	123.393	317.965	115.428	354.689	272.990	420.450	195.820	404.384	382.326	268.290	348.059	0.00043722	0.00037858	9.5065e-05	1267.9	6.3732e-06	5.0944e-06	1272.1	343.39	3.9128e-06	5.0884e-06	398.82	134.51	115.88	40.074	5.2572e-06	50.453	0.00036281	0.00028459	7.7992e-05	1280.4	3.3196e-06	3.1994e-06	1286.4	349.99	3.3601e-06	3.1094e-06	405.65	137.6	118.3	41.038	3.1727e-06	51.517	198.285	144.845	166.401	94.950	249.969	223.844	94.899	99.298	251.530	241.492	98.919	103.418	104.122	108.500	234.861	107.957	-8191	255	
985.890	1	1	0	0	0.071593	0.072146	0.31157	0.31087	0.12536	0.24219	0.25478	0.18247	0.056779	0.085189	0.052789	0.097089	0.078846	0.074925	0.1907	0.15109	-2.45	-3.7562	-3.2708	-3.0208	-3.8479	-2.9188	-3.7833	-3.6667	-2.9979	-3.7583	-3.3646	-3.2104	-3.8354	-3.1688	-3.1729	-3.8937	258.416	212.009	387.622	385.594	384.772	360.980	437.997	83.591	108.034	391.469	122.239	337.021	388.145	103.702	173.864	227.673	0.00042927	0.00043915	0.00014847	1267	3.1243e-06	4.4754e-06	1269.4	343.93	3.5601e-06	4.8909e-06	399.92	134.71	116.23	40.187	4.7438e-06	50.424	0.0003683	0.00027769	7.5135e-05	1279.9	3.2262e-06	3.0794e-06	1285.1	349.57	3.3132e-06	2.9776e-06	406.28	137.73	118.47	41.074	3.1517e-06	51.561	195.502	175.297	163.403	95.160	250.939	210.814	95.297	100.041	251.074	227.125	99.724	104.084	104.986	108.727	237.169	107.652	-8191	255	
985.961	1	1	0	0	0.11402	0.052073	0.27536	0.37677	0.027017	0.035076	0.26251	0.054948	0.20848	0.081762	0.20967	0.20406	0.030485	0.11731	0.04406	0.089847	-2.4146	-3.6312	-3.3604	-3.2188	-3.9021	-2.9417	-3.3	-3.9583	-3.0854	-3.5729	-3.6333	-3.0583	-3.7729	-3.2396	-3.0833	-3.6792	388.812	400.851	143.131	412.381	164.548	124.994	403.830	297.458	225.759	303.578	363.764	272.942	349.670	440.965	163.836	388.013	0.00045015	0.00047496	0.00015633	1267.1	5.7032e-06	4.6282e-06	1273.8	343.61	4.9499e-06	5.3365e-06	400.5	134.88	116.38	40.069	4.01e-06	50.514	0.0003725	0.00027433	7.6766e-05	1279.5	3.2766e-06	3.1088e-06	1286.7	349.65	3.3286e-06	2.9022e-06	405.82	137.61	118.29	41.018	3.2268e-06	51.508	196.479	183.465	182.148	94.499	244.858	207.273	94.596	99.504	242.741	205.957	98.588	103.244	104.049	108.368	234.656	107.178	-8191	255	
986.082	1	1	0	0	0.331	0.18255	0.22201	0.10968	0.22277	0.068303	0.10747	0.1841	0.1892	0.24746	0.14038	0.26932	0.19479	0.050605	0.11268	0.012148	-2.55	-3.5	-3.3146	-3.1	-3.5542	-3.1354	-3.3229	-3.8438	-2.9167	-3.3292	-3.5375	-3.0771	-3.7604	-3.2583	-2.8771	-3.8187	412.603	382.659	124.246	266.546	271.521	347.239	100.915	359.273	105.725	404.025	388.065	418.589	410.086	343.248	123.503	378.731	0.0004369	0.00058126	0.00016913	1270.8	5.3568e-06	3.4994e-06	1273.4	343.83	3.1309e-06	5.7905e-06	400.23	134.83	116.21	40.008	5.5371e-06	50.526	0.00036352	0.00028131	7.8562e-05	1280.8	3.3175e-06	2.9672e-06	1287.4	349.51	3.3193e-06	3.0721e-06	407.18	137.76	118.35	40.991	3.2375e-06	51.548	196.443	168.635	175.988	94.520	243.223	230.642	94.886	99.670	265.594	228.059	98.933	103.696	104.234	108.622	228.685	107.894	-8191	255	
986.178	1	1	0	0	0.10234	0.064318	0.20214	0.091252	0.15131	0.040614	0.11703	0.23701	0.22671	0.11049	0.06405	0.22322	0.14618	0.38126	0.095454	0.18827	-2.5917	-3.1667	-3.4271	-2.8812	-3.7042	-3.4104	-3.1604	-3.7562	-2.9646	-3.2625	-3.6646	-2.9771	-3.5375	-3.3021	-2.9229	-3.7292	103.224	322.708	167.867	413.301	116.523	88.762	376.246	257.732	198.022	318.879	423.165	289.173	141.795	362.815	410.212	325.396	0.00044859	0.00052766	0.00011073	1267.7	5.0445e-06	3.6952e-06	1274.9	344.71	4.3653e-06	4.3274e-06	400.79	134.45	116.89	40.239	3.9404e-06	50.515	0.00036669	0.00028354	7.6752e-05	1282.2	3.3634e-06	3.0816e-06	1288	350.27	3.3482e-06	2.8926e-06	406.29	137.44	118.61	41.074	3.3137e-06	51.494	196.585	169.006	170.392	94.941	249.483	215.173	94.720	99.666	256.768	229.312	99.319	103.684	104.063	108.890	232.466	107.984	-8191	255	
986.274	1	1	0	0	0.060508	0.1811	0.11929	0.1078	0.04221	0.16765	0.026239	0.34239	0.017314	0.24872	0.092251	0.013489	0.11951	0.10413	0.22783	0.070514	-2.6667	-3.2229	-3.6875	-3.0062	-3.55	-3.4729	-2.9583	-3.9042	-3.1479	-3.2729	-3.7521	-3.1083	-3.6771	-3.4229	-3.1104	-3.7729	86.328	335.333	346.343	362.583	144.123	239.414	129.801	336.646	216.165	236.812	408.353	169.190	221.494	381.675	232.699	427.840	0.00041989	0.00073937	0.00013516	1265.7	4.6332e-06	4.6357e-06	1272.5	344.55	5.1169e-06	6.6494e-06	399.69	135.28	116.28	40.132	5.2641e-06	50.407	0.00035471	0.00028723	8.1911e-05	1282.2	3.2206e-06	3.0355e-06	1288.5	350.08	3.2793e-06	3.0937e-06	406.32	137.69	118.27	41.069	3.3058e-06	51.481	197.527	182.278	172.770	95.009	245.445	227.666	94.998	99.827	263.759	228.673	99.435	103.857	104.419	108.849	248.956	107.896	-8191	255	
986.393	1	1	0	0	0.28861	0.079441	0.082183	0.28791	0.1481	0.011603	0.15585	0.16916	0.3757	0.15067	0.18783	0.10909	0.13019	0.23892	0.21669	0.2495	-2.8187	-3.1792	-3.7812	-3.1063	-3.4062	-3.6792	-2.9813	-3.8104	-3.2	-3.125	-3.8542	-2.9792	-3.3354	-3.5521	-2.8979	-3.4146	311.060	169.868	97.376	426.153	119.347	203.590	420.658	385.403	148.978	249.005	249.535	132.634	310.960	119.399	362.379	372.406	0.00042758	0.00050008	0.00011534	1266.8	5.1794e-06	5.4133e-06	1274.4	345.66	4.7386e-06	5.0806e-06	401.1	134.83	115.89	40.084	4.9868e-06	50.421	0.00034278	0.00029622	7.6467e-05	1280.9	3.2095e-06	3.132e-06	1290.1	350.76	3.2475e-06	3.1413e-06	406.82	137.64	118.16	40.964	3.3126e-06	51.434	198.444	177.807	166.765	95.287	246.441	208.389	95.466	100.519	258.232	232.803	99.613	104.362	104.875	109.055	242.710	107.870	-8191	255	
986.489	1	1	0	0	0.15953	0.18334	0.1673	0.21574	0.11248	0.11881	0.22148	0.352	0.063297	0.33642	0.06956	0.081304	0.10928	0.22346	0.15223	0.036875	-2.9146	-3.1312	-3.6271	-3.0792	-3.3875	-3.5312	-2.8688	-3.8667	-3.3646	-3.0354	-3.8312	-3.0667	-3.2271	-3.75	-2.7854	-3.8187	257.210	207.101	266.602	433.129	372.014	330.820	401.469	410.160	218.595	349.152	123.337	434.894	419.525	428.070	269.197	312.791	0.00043068	0.00026222	0.00010847	1269	4.6162e-06	3.928e-06	1270.5	344.3	4.2338e-06	4.1912e-06	400.91	134.71	116.39	40.074	4.7789e-06	50.15	0.00035484	0.0002984	7.9937e-05	1281.4	3.2251e-06	3.1394e-06	1289	350.32	3.2192e-06	3.3254e-06	406.36	137.83	118.31	41.018	3.3156e-06	51.46	198.020	177.769	184.033	95.079	243.087	227.512	95.017	100.069	256.252	241.562	99.262	103.530	104.421	108.743	242.686	107.925	-8191	255	
986.561	1	1	0	0	0.25863	0.19596	0.0066667	0.27103	0.088428	0.10872	0.1537	0.099928	0.071623	0.19765	0.11447	0.11771	0.1233	0.17694	0.17232	0.044996	-3.1229	-2.7896	-3.6688	-3.2771	-3.275	-3.6229	-3.1021	-3.6188	-3.4688	-2.8937	-3.6875	-3.35	-3.2354	-3.8688	-2.8312	-3.4667	167.523	385.519	213.682	420.238	303.365	348.702	360.020	226.870	360.281	175.292	176.556	306.193	313.464	425.432	202.765	282.703	0.00044759	0.00049737	0.00015426	1267.3	4.3703e-06	3.407e-06	1272.3	345.22	4.7408e-06	5.1288e-06	400.87	134.8	115.65	39.983	5.6354e-06	50.232	0.00035239	0.00028718	7.7885e-05	1282.9	3.3641e-06	3.1403e-06	1287.8	349.8	3.2337e-06	3.2622e-06	406.27	137.48	118.05	40.957	3.2014e-06	51.406	199.373	169.263	171.369	94.860	241.913	225.204	94.969	99.882	258.072	232.607	99.170	103.629	104.413	108.697	237.391	107.689	-8191	255	
986.681	1	1	0	0	0.031087	0.11915	0.037571	0.09993	0.15169	0.21273	0.18995	0.13684	0.097824	0.14801	0.40364	0.094051	0.04456	0.11543	0.16519	0.12371	-3.1688	-2.8312	-3.525	-3.5083	-3.0938	-3.825	-3.1854	-3.5125	-3.4562	-2.9646	-3.6312	-3.1958	-3.0375	-3.7375	-2.9896	-3.4625	428.495	282.155	370.246	293.266	252.436	144.674	429.793	351.012	96.057	403.082	415.726	171.971	98.494	128.779	167.003	420.927	0.00042938	0.00046021	0.00017184	1268.4	4.548e-06	4.3795e-06	1274.6	344.71	5.0233e-06	4.1472e-06	399.63	134.44	115.5	40.172	5.0661e-06	50.49	0.00035893	0.00029896	7.7828e-05	1283.1	3.3424e-06	3.0992e-06	1287.7	350.08	3.2086e-06	3.1672e-06	406.98	137.5	118.05	41.004	3.1878e-06	51.584	196.643	167.710	182.170	94.798	240.296	225.056	94.770	99.823	248.390	233.605	99.292	103.670	104.637	108.817	228.758	108.113	-8191	255	
986.778	1	1	0	0	0.30125	0.21234	0.038004	0.19624	0.10932	0.052886	0.18221	0.37452	0.159	0.1471	0.13747	0.25754	0.19896	0.21474	0.044387	0.067363	-3.1937	-2.7292	-3.6688	-3.5438	-2.8583	-3.6708	-3.1729	-3.2792	-3.6188	-2.6958	-3.6521	-3.4125	-3.0938	-3.8104	-3.3021	-2.9896	335.908	244.413	341.767	417.811	324.112	337.394	419.044	424.663	110.178	202.873	243.220	327.706	333.072	411.026	108.343	353.822	0.00043177	0.00027044	0.00013684	1268.5	4.1438e-06	5.6051e-06	1274.8	344.35	3.6871e-06	5.5878e-06	400.62	135.35	116.16	40.051	4.9018e-06	50.36	0.00035564	0.00029073	7.5619e-05	1282.1	3.3888e-06	3.0037e-06	1288.7	349.88	3.1582e-06	3.1674e-06	406.22	137.7	118.27	40.97	3.1613e-06	51.384	196.017	161.436	169.008	94.845	241.631	241.114	94.919	99.642	249.586	233.396	99.318	103.641	104.176	108.604	242.160	108.100	-8191	255	
986.874	1	1	0	0	0.23745	0.1536	0.3163	0.31036	0.1769	0.21237	0.24756	0.20462	0.098579	0.21695	0.1524	0.21932	0.097223	0.1446	0.13685	0.28551	-3.1333	-2.8833	-3.375	-3.8125	-2.8771	-3.775	-3.4479	-3.2292	-3.6854	-2.8625	-3.6104	-3.5812	-2.9813	-3.7833	-3.3146	-3.1667	383.574	101.986	108.471	434.616	147.189	262.496	393.306	427.686	189.599	155.979	333.813	348.520	123.063	115.725	217.672	416.870	0.00042317	0.00034804	0.00013751	1266.8	5.3028e-06	4.364e-06	1276.8	344.4	4.7175e-06	5.9841e-06	400.87	134.45	115.49	40.163	5.9734e-06	50.597	0.00035026	0.00029157	7.9168e-05	1281.9	3.3745e-06	3.0434e-06	1288.7	349.45	3.2306e-06	3.2548e-06	406.97	137.31	118.09	41.001	3.1364e-06	51.456	197.621	190.952	174.956	94.906	237.128	214.288	95.180	100.087	257.210	233.235	99.230	103.968	104.873	108.991	237.646	107.926	-8191	255	
986.994	1	1	0	0	0.22315	0.12876	0.089988	0.40796	0.19876	0.32086	0.16791	0.29588	0.14387	0.15272	0.2941	0.25553	0.12857	0.17274	0.31165	0.056881	-3.1229	-2.9167	-3.3125	-3.8104	-2.9188	-3.7812	-3.3187	-3.075	-3.6125	-2.9833	-3.3417	-3.7479	-2.8646	-3.4708	-3.45	-3.0271	291.187	169.232	110.029	404.316	134.271	174.836	378.833	381.526	326.970	278.564	366.040	331.889	366.389	383.827	223.439	278.664	0.0004533	0.00045682	0.00012642	1269.6	4.5167e-06	3.2242e-06	1272.6	343.7	4.2743e-06	5.1416e-06	401.79	135.21	115.61	39.954	4.0316e-06	50.314	0.00035034	0.00030058	7.842e-05	1281.2	3.3862e-06	2.9372e-06	1287	349.46	3.2014e-06	3.1598e-06	406.44	137.78	117.93	40.983	3.0596e-06	51.434	199.057	184.789	150.378	95.163	238.747	219.168	94.990	100.157	239.283	237.915	99.933	104.280	105.026	109.270	261.323	108.420	-8191	255	
987.091	1	1	0	0	0.16974	0.16929	0.14527	0.14046	0.14656	0.16259	0.053719	0.20145	0.12842	0.19978	0.13525	0.14759	0.34922	0.23333	0.14083	0.15878	-3.2875	-2.9167	-3.2542	-3.8542	-2.7667	-3.5104	-3.5771	-3.0938	-3.5729	-3.1833	-3.2438	-3.8542	-2.8542	-3.6271	-3.2875	-3.1458	204.328	246.439	320.890	361.029	284.620	357.323	315.759	337.912	235.722	334.004	329.756	203.622	424.925	401.516	206.847	343.121	0.0004524	0.00052061	0.0001501	1267.1	5.7446e-06	3.3948e-06	1274	343.95	4.4831e-06	5.811e-06	400.15	134.33	115.92	40.041	4.8929e-06	50.378	0.00035774	0.00027694	7.76e-05	1281.7	3.3262e-06	3.0304e-06	1288.2	349.58	3.1709e-06	3.0616e-06	406.1	137.32	118.1	40.928	3.1219e-06	51.451	195.404	174.443	181.730	95.371	244.240	218.991	95.240	100.108	242.233	235.752	99.833	104.315	105.015	109.344	259.150	108.285	-8191	255	
987.185	1	1	0	0	0.22585	0.071268	0.085587	0.20924	0.25702	0.1339	0.23406	0.2391	0.029052	0.21506	0.37365	0.13893	0.34122	0.13322	0.048827	0.044343	-3.1792	-3.2188	-3.1146	-3.8667	-2.9917	-3.4104	-3.7042	-2.8896	-3.6042	-3.2104	-3.1354	-3.7	-3.0146	-3.3833	-3.6396	-2.9333	329.902	184.675	324.331	397.917	322.937	104.384	379.118	119.986	174.223	87.417	402.315	303.510	176.335	408.680	313.607	414.821	0.00043476	0.00052943	0.00012199	1266.1	4.001e-06	5.7303e-06	1270	345.23	3.7321e-06	4.4202e-06	397.46	134.04	115.22	39.996	4.6039e-06	50.07	0.00034887	0.0002867	7.8526e-05	1278.3	3.3153e-06	3.0323e-06	1285.8	349.78	3.1336e-06	3.0735e-06	405.14	137.16	117.88	40.943	3.1334e-06	51.339	196.788	171.056	178.474	94.808	258.150	208.429	94.771	99.920	263.761	229.123	99.191	103.901	104.484	108.791	240.090	107.990	-8191	255	
987.258	1	1	0	0	0.13226	0.12516	0.074383	0.20588	0.039369	0.25762	0.12782	0.047284	0.20133	0.26776	0.2628	0.19762	0.1788	0.06866	0.18309	0.13741	-3.3354	-3.4396	-2.7479	-3.9625	-2.8833	-3.3792	-3.7875	-2.9583	-3.6188	-3.2771	-3.1583	-3.6875	-3.1229	-3.2375	-3.7021	-3.0375	311.790	420.065	85.959	408.844	396.223	359.268	357.403	302.239	385.957	261.539	117.632	332.773	356.113	135.325	366.888	417.780	0.00044825	0.00050728	0.00016255	1268.2	4.8999e-06	6.3219e-06	1269.2	344.5	4.3609e-06	5.5892e-06	400.54	134.21	115.43	39.969	4.8916e-06	50.224	0.00035029	0.00027687	8.1861e-05	1279.9	3.3466e-06	3.068e-06	1286.2	349.3	3.1198e-06	2.9788e-06	406.39	137.17	117.55	40.9	3.2238e-06	51.25	196.199	180.879	175.109	94.798	238.276	237.289	95.136	100.113	262.617	249.697	99.747	104.374	104.453	109.164	243.300	107.974	-8191	255	
987.377	1	1	0	0	0.065113	0.33349	0.2728	0.34562	0.11175	0.11105	0.27884	0.34371	0.25373	0.11002	0.072756	0.24945	0.22652	0.12002	0.053456	0.12575	-3.1063	-3.325	-2.9042	-3.8042	-3.1479	-3.2	-3.8104	-2.9604	-3.4167	-3.4896	-2.9354	-3.8292	-3.1146	-3.1042	-3.8792	-2.9667	407.644	133.744	354.030	379.517	125.629	256.807	405.067	436.230	210.479	175.805	386.671	404.842	294.549	121.955	141.356	374.765	0.00041678	0.00038095	0.00014212	1268.4	5.6745e-06	4.2643e-06	1274.6	343.43	4.2657e-06	4.4345e-06	400.97	134.59	116.11	39.897	4.5594e-06	50.058	0.00034683	0.00028416	8.3294e-05	1280.4	3.2848e-06	3.1133e-06	1286.7	348.83	3.2464e-06	2.9785e-06	406.11	137.55	117.87	40.862	3.2596e-06	51.269	199.283	155.990	170.809	94.997	229.562	229.906	95.106	99.782	249.516	253.108	99.371	103.926	104.618	109.105	240.560	108.241	-8191	255	
987.473	1	1	0	0	0.12771	0.18375	0.2241	0.32457	0.11885	0.25936	0.13457	0.29143	0.098976	0.1664	0.43759	0.29883	0.065955	0.29264	0.32872	0.15881	-3.1813	-3.4437	-2.9271	-3.5417	-3.4021	-3.0646	-4.0146	-2.9729	-3.3312	-3.4958	-2.9062	-3.7667	-3.2062	-3.0958	-3.5375	-3.0542	266.900	303.608	151.713	382.826	246.129	107.323	428.552	101.676	169.910	298.687	195.384	380.260	349.446	91.932	164.915	432.957	0.00044433	0.00046571	0.00012647	1268.5	3.6115e-06	3.0356e-06	1275.2	343.95	4.2921e-06	4.528e-06	401.72	134.23	115.87	39.903	4.4299e-06	50.184	0.00035329	0.00028677	8.2574e-05	1281.8	3.2567e-06	3.2402e-06	1285.2	349.07	3.2457e-06	3.0909e-06	406.27	136.9	117.61	40.836	3.19e-06	51.311	197.887	172.990	168.415	95.107	238.412	220.277	95.211	100.280	254.896	226.256	99.785	104.185	104.519	109.178	236.246	108.006	-8191	255	
987.570	1	1	0	0	0.18622	0.13418	0.050381	0.16538	0.26963	0.10177	0.13674	0.069105	0.15033	0.18177	0.25085	0.17478	0.10495	0.36767	0.13222	0.43722	-2.9854	-3.6583	-2.8542	-3.7958	-3.3958	-2.8771	-4.0479	-3.0146	-3.3042	-3.6667	-3.0354	-3.4708	-3.4042	-3.2083	-3.5979	-3.2188	219.728	407.895	433.932	404.012	136.645	354.232	402.788	117.565	91.475	86.639	360.826	117.817	377.430	95.619	314.516	373.640	0.00045089	0.00036181	0.00014767	1267.2	4.3327e-06	3.8618e-06	1277.3	343.64	4.2477e-06	5.5689e-06	399.71	134.44	115.74	39.813	4.7222e-06	50.147	0.00036461	0.0002831	8.4006e-05	1279.5	3.2302e-06	3.266e-06	1286.5	348.77	3.2809e-06	3.1293e-06	405.65	137.14	118.01	40.811	3.267e-06	51.237	197.130	170.446	177.337	94.906	243.315	222.355	94.939	99.799	245.159	226.216	99.528	104.011	104.495	108.898	243.908	108.311	-8191	255	
987.666	1	1	0	0	0.23669	0.11074	0.058003	0.31183	0.21867	0.22313	0.15409	0.33513	0.046238	0.037708	0.038739	0.21325	0.16796	0.04323	0.10654	0.22988	-2.9104	-3.5	-2.8292	-3.575	-3.3396	-2.9354	-3.7729	-3.2771	-2.8	-3.8479	-2.9437	-3.5438	-3.6167	-3.0938	-3.6458	-3.3083	322.115	394.780	117.178	388.332	136.984	279.248	339.728	401.575	200.481	366.182	298.693	433.996	238.538	221.771	268.400	378.075	0.0004342	0.00052201	0.00011682	1266.6	4.6746e-06	5.3718e-06	1271.4	343.44	4.1423e-06	4.9888e-06	399.46	134.58	115.49	39.935	4.3012e-06	50.322	0.00035552	0.00028131	8.2047e-05	1280	3.2522e-06	3.1822e-06	1285.8	348.61	3.331e-06	3.0024e-06	405.39	137.23	117.9	40.942	3.1121e-06	51.363	197.757	160.976	160.069	95.215	230.955	229.240	95.320	99.958	265.203	227.587	99.736	104.071	104.380	108.784	243.486	108.035	-8191	255	
987.786	1	1	0	0	0.23432	0.065009	0.11925	0.21814	0.15284	0.057024	0.23047	0.14146	0.12703	0.12071	0.22892	0.14197	0.16551	0.30217	0.084762	0.20712	-2.5438	-3.8063	-2.85	-3.4792	-3.6479	-2.7646	-3.7583	-3.4979	-3.0729	-3.5896	-3.0854	-3.2479	-3.7458	-3.0333	-3.6729	-3.5333	143.066	153.889	93.974	435.008	208.367	307.315	410.810	393.921	345.750	431.590	411.177	98.253	378.373	421.330	228.991	419.888	0.00044123	0.00067709	0.0001475	1266.4	4.2353e-06	3.4137e-06	1270.2	344.19	4.1282e-06	3.7963e-06	399.59	134.5	115.64	39.926	4.5598e-06	50.176	0.00036553	0.00028557	8.0963e-05	1280.4	3.2384e-06	3.2504e-06	1284.4	348.8	3.4629e-06	3.0431e-06	405	137.18	118.03	40.861	3.1807e-06	51.263	195.351	174.195	177.060	94.962	233.888	199.789	94.961	99.643	254.269	224.925	99.168	103.987	104.193	108.676	235.722	107.805	-8191	255	
987.858	1	1	0	0	0.076852	0.028533	0.16179	0.17864	0.05398	0.13604	0.16742	0.11952	0.13691	0.16297	0.27564	0.10335	0.13529	0.30392	0.15727	0.34681	-2.5896	-3.575	-2.9542	-3.1917	-3.7396	-2.7729	-3.7062	-3.5521	-2.8542	-3.8	-3.2167	-3.4042	-3.8542	-3.025	-3.6375	-3.5208	182.276	432.314	350.272	93.505	353.788	141.444	379.794	409.172	429.441	358.653	357.861	377.415	312.031	371.136	367.434	374.929	0.00042034	0.00061982	0.00012634	1263.2	4.4705e-06	5.7131e-06	1271.8	344.13	3.851e-06	6.7501e-06	399.54	134.45	115.45	39.655	3.5218e-06	50.356	0.0003701	0.00028762	8.0572e-05	1278.1	3.2182e-06	3.2402e-06	1285.1	348.85	3.3461e-06	3.2235e-06	405.63	137.01	117.68	40.722	3.2329e-06	51.339	198.028	183.641	156.662	94.891	245.810	226.925	94.978	99.729	255.325	239.922	99.287	103.763	104.490	108.757	244.994	107.724	-8191	255	
987.954	1	1	0	0	0.10472	0.10243	0.21619	0.211	0.1132	0.10748	0.3289	0.058846	0.18558	0.018322	0.081529	0.30768	0.25966	0.34931	0.087199	0.10086	-2.5958	-3.5833	-3.1375	-3.1708	-3.5333	-2.825	-3.4958	-3.5833	-2.9333	-3.6021	-3.4062	-2.9771	-3.675	-3.1292	-3.4458	-3.8896	266.172	184.104	112.030	385.528	127.011	151.545	390.877	416.018	245.307	428.315	368.075	414.976	424.555	113.348	288.081	276.391	0.00044393	0.00048892	0.00015666	1264.7	3.4066e-06	5.7898e-06	1272.2	342.72	3.7003e-06	3.3883e-06	398.98	134.03	115.52	39.975	3.3722e-06	50.411	0.00037574	0.0002829	7.9018e-05	1277.7	3.2201e-06	3.1332e-06	1285	348.75	3.4263e-06	3.0084e-06	405.49	136.95	117.62	40.857	3.0924e-06	51.327	196.030	176.775	181.218	95.154	235.897	223.382	94.875	99.693	238.402	239.334	99.127	103.752	104.430	108.850	229.904	107.707	-8191	255	
988.075	1	1	0	0	0.2186	0.073817	0.2606	0.12063	0.20573	0.27933	0.039654	0.070192	0.17516	0.14482	0.30047	0.16033	0.12559	0.25474	0.23707	0.059356	-2.5396	-3.4667	-3.4062	-3.1042	-3.7729	-3.1396	-3.4875	-3.9271	-2.925	-3.6479	-3.425	-3.0125	-3.8083	-3.1833	-3.2625	-3.6667	343.430	325.053	330.744	150.959	200.623	227.992	287.896	155.941	195.652	355.198	153.602	417.293	192.226	440.182	419.733	145.730	0.00043439	0.00059049	0.00012916	1263.8	4.4008e-06	5.3537e-06	1270.1	341.58	4.0005e-06	5.9834e-06	398.44	133.65	115.33	39.841	4.7709e-06	50.25	0.00036097	0.00028593	7.7607e-05	1279.9	3.2087e-06	3.1454e-06	1283.6	348	3.4385e-06	3.1057e-06	404.53	136.94	117.55	40.777	3.1695e-06	51.284	193.556	165.943	159.178	95.133	254.101	220.798	95.039	100.060	260.573	228.638	99.245	103.749	104.271	108.650	236.021	108.079	-8191	255	
988.171	1	1	0	0	0.18501	0.23982	0.27544	0.070096	0.10555	0.10893	0.043129	0.08913	0.13872	0.20481	0.23284	0.25077	0.20869	0.025873	0.014641	0.28071	-2.6042	-3.4958	-3.4021	-3.0021	-3.6771	-3.1229	-3.2271	-3.8208	-2.875	-3.5729	-3.5958	-2.8292	-3.7667	-3.4146	-2.9375	-3.8729	437.552	137.539	438.390	125.929	233.294	202.627	110.663	403.156	248.308	95.218	342.227	374.384	87.380	326.212	415.231	305.671	0.00043139	0.0006018	0.00014716	1267.1	4.5264e-06	5.0625e-06	1265.1	342.98	3.6275e-06	5.5344e-06	399.65	134.26	115.63	39.8	3.9072e-06	50.232	0.00035157	0.0002771	8.0557e-05	1277.8	3.2907e-06	3.1167e-06	1281.8	348.55	3.3286e-06	3.0058e-06	404.59	136.97	117.76	40.782	3.2613e-06	51.267	198.603	174.657	156.654	95.367	240.179	244.855	95.240	99.942	250.297	226.596	99.461	104.123	105.009	108.989	229.909	108.227	-8191	255	
988.265	1	1	0	0	0.29377	0.15583	0.12871	0.57136	0.15899	0.15732	0.22386	0.27396	0.39623	0.081748	0.20966	0.21165	0.07683	0.14986	0.14777	0.15765	-2.625	-3.3104	-3.3792	-3.025	-3.75	-3.1562	-3.3792	-3.8979	-2.8917	-3.5646	-3.8187	-2.95	-3.5375	-3.475	-3.0167	-3.8146	119.050	231.424	212.240	421.827	264.127	149.871	394.380	384.677	329.301	198.159	366.710	391.895	158.576	84.205	125.037	94.359	0.00043035	0.00064748	0.00014708	1262	4.436e-06	3.6726e-06	1268.4	344.92	4.1459e-06	4.4374e-06	400.67	134.17	115.57	39.965	4.6639e-06	50.241	0.00035467	0.0002811	7.8085e-05	1277.1	3.1638e-06	3.0997e-06	1282.2	348.82	3.3336e-06	3.0553e-06	405.45	136.81	117.64	40.803	3.2148e-06	51.257	199.478	166.831	173.066	95.336	223.728	247.204	95.401	100.274	252.913	225.283	99.510	104.165	104.945	109.035	234.914	108.441	-8191	255	
988.363	1	1	0	0	0.20128	0.1194	0.11331	0.33625	0.32104	0.09916	0.23441	0.2676	0.26311	0.24371	0.23915	0.1041	0.16521	0.15847	0.3269	0.10814	-2.6146	-3.1667	-3.7896	-2.9333	-3.6042	-3.4458	-3.2562	-3.7167	-3.1188	-3.4979	-3.725	-3.0896	-3.6021	-3.4708	-3.0521	-3.7854	391.971	348.486	340.763	427.634	204.052	204.176	416.077	126.176	307.046	335.834	106.536	401.439	423.794	114.223	267.776	432.629	0.00043392	0.00054752	0.0001477	1262.4	5.6019e-06	2.6357e-06	1268.2	342.24	4.2944e-06	3.2028e-06	399.31	133.92	115.66	39.946	4.7077e-06	50.235	0.00035471	0.00028788	7.8662e-05	1276	3.0811e-06	2.9924e-06	1280.8	348.09	3.2019e-06	3.065e-06	404.6	136.75	117.61	40.807	3.2544e-06	51.29	194.033	166.838	156.485	95.348	246.267	233.433	95.359	100.269	260.853	228.898	99.571	104.077	105.410	109.140	240.832	108.738	-8191	255	
988.458	1	1	0	0	0.29157	0.052798	0.097895	0.20185	0.10133	0.27885	0.15795	0.29027	0.1169	0.30909	0.16232	0.18367	0.23463	0.030941	0.10898	0.14617	-2.8896	-3.1167	-3.9104	-3.1667	-3.5375	-3.6771	-2.9708	-3.6854	-3.4146	-3.1354	-3.8604	-3.0333	-3.6667	-3.7354	-2.9646	-3.8563	171.413	356.379	274.695	374.035	257.823	399.218	438.268	359.692	317.383	147.199	137.733	440.500	439.040	270.556	140.921	127.715	0.00045586	0.00037556	0.0001309	1261.3	5.3182e-06	5.0723e-06	1264.7	341.34	4.9867e-06	2.9626e-06	400.48	134.39	115.42	39.939	3.0855e-06	50.144	0.00036012	0.00029424	7.904e-05	1275.6	3.1967e-06	3.0397e-06	1280.6	347.73	3.1659e-06	2.9867e-06	405.22	136.95	117.73	40.781	3.2594e-06	51.217	195.718	204.808	169.345	95.649	245.550	227.678	95.565	100.643	250.110	231.880	99.915	104.483	105.331	109.560	247.874	108.889	-8191	255	
988.554	1	1	0	0	0.21646	0.13885	0.24922	0.31742	0.15123	0.10946	0.47253	0.13323	0.19625	0.070565	0.29308	0.13658	0.073279	0.089786	0.19247	0.13593	-3.0083	-2.9938	-3.6854	-3.0729	-3.3542	-3.5646	-3.0708	-3.8937	-3.3208	-2.9875	-3.9313	-3.0042	-3.2458	-3.5021	-3.0292	-3.7083	115.572	385.255	247.074	417.499	171.233	376.553	400.722	318.775	322.128	327.626	430.649	431.243	366.282	178.885	351.104	323.014	0.00042362	0.00039443	0.0001322	1261.9	4.1432e-06	4.0568e-06	1272.1	343.4	4.2439e-06	5.548e-06	400.96	134.34	115.88	40	4.239e-06	50.151	0.00034889	0.00028228	7.6403e-05	1274.8	3.0564e-06	2.936e-06	1281.2	348.27	3.1762e-06	2.9879e-06	405.39	137.18	117.77	40.882	3.2143e-06	51.309	197.998	170.463	174.277	95.981	250.239	217.041	95.884	100.818	263.324	239.902	100.095	104.256	104.317	108.550	251.430	107.745	-8191	255	
988.674	1	1	0	0	0.06508	0.019535	0.24299	0.29642	0.1297	0.35552	0.2066	0.24443	0.33025	0.2406	0.1495	0.074296	0.11415	0.047626	0.12653	0.10626	-3.1271	-3.0833	-3.7062	-3.2271	-3.375	-3.6396	-3.0687	-3.6354	-3.4229	-3.1479	-3.7958	-3.2625	-3.1396	-3.7875	-3.0125	-3.5083	157.384	188.903	351.118	420.067	263.542	221.333	402.672	97.647	420.617	196.841	368.066	424.186	407.481	137.184	207.461	301.169	0.00042285	0.00048203	0.00011865	1260.3	4.1508e-06	3.1246e-06	1268.8	344.97	3.8937e-06	5.7767e-06	399.67	133.52	115.68	39.842	4.7519e-06	50.198	0.00035041	0.00028508	7.3731e-05	1274.9	3.1585e-06	2.9227e-06	1282.3	349.29	3.1214e-06	3.0272e-06	404.95	136.64	118	40.862	3.0626e-06	51.19	197.454	164.553	180.468	94.931	243.650	239.047	95.385	100.249	245.265	241.838	99.805	104.714	105.322	109.647	238.419	109.187	-8191	255	
988.771	1	1	0	0	0.19982	0.08637	0.3306	0.2459	0.052227	0.30355	0.17158	0.060524	0.13156	0.13365	0.16991	0.12619	0.18816	0.073975	0.19267	0.081466	-3.0792	-2.8042	-3.7083	-3.2938	-3.0875	-3.7583	-3.2646	-3.5083	-3.5792	-2.9792	-3.8292	-3.3396	-3.0583	-3.8833	-3.0625	-3.3563	110.560	122.108	235.224	391.542	336.568	106.996	368.140	183.854	304.894	234.452	156.871	317.896	433.497	85.852	305.965	384.107	0.00043653	0.00049829	0.00015644	1259.5	3.2329e-06	5.1785e-06	1261	344.12	4.912e-06	4.8237e-06	397.72	134.13	115.71	39.928	3.9535e-06	50.348	0.00034588	0.0002822	7.3332e-05	1272.8	3.2824e-06	2.8726e-06	1279.5	348.82	3.0245e-06	3.0545e-06	405.22	136.77	117.7	40.823	3.0749e-06	51.341	197.582	175.980	182.199	95.795	258.401	238.982	95.520	100.668	250.080	228.646	100.075	104.749	105.029	109.255	239.937	108.547	-8191	255	
988.867	1	1	0	0	0.19035	0.057123	0.10072	0.34026	0.15068	0.1363	0.31824	0.26422	0.13385	0.090738	0.17914	0.10494	0.08573	0.16425	0.21153	0.11237	-3.175	-2.8458	-3.3667	-3.4083	-2.8958	-3.8208	-3.0938	-3.3458	-3.7313	-2.9042	-3.625	-3.4896	-2.9771	-3.7771	-3.0583	-3.1562	84.975	302.305	143.975	362.431	202.637	103.325	339.086	416.021	425.077	396.374	127.963	116.850	163.174	262.662	114.627	411.640	0.00044632	0.0004318	0.00014889	1265.1	3.5655e-06	3.184e-06	1268.4	342.46	3.4864e-06	5.5074e-06	398.94	133.66	115.3	40.074	5.5994e-06	50.226	0.00034972	0.00027802	7.0866e-05	1274.9	3.2607e-06	2.9383e-06	1282	348.17	3.1275e-06	3.0738e-06	404.92	136.91	117.53	40.861	3.0809e-06	51.208	197.353	162.870	185.735	95.443	238.230	222.244	95.512	100.358	254.891	226.933	99.710	104.223	105.414	109.138	242.784	108.579	-8191	255	
988.963	1	1	0	0	0.07111	0.062584	0.13556	0.15302	0.26834	0.12693	0.22828	0.11035	0.16438	0.13325	0.14709	0.18574	0.19741	0.11215	0.18295	0.071456	-3.3375	-2.9479	-3.2958	-3.7	-2.7396	-3.7083	-3.2188	-3.1333	-3.8229	-2.8688	-3.4625	-3.7687	-2.8917	-3.8	-3.1854	-3.1312	256.857	111.867	296.558	412.554	127.538	319.718	379.776	354.110	397.148	232.023	382.137	399.045	152.872	107.286	92.928	336.056	0.00045015	0.00046915	0.00012285	1260.3	4.5556e-06	3.5881e-06	1269.3	342.37	4.3922e-06	6.1387e-06	400.24	134.13	115.62	39.902	4.8987e-06	50.23	0.000351	0.00028988	7.4814e-05	1275.1	3.3339e-06	2.9635e-06	1281.6	348.46	3.1898e-06	3.1703e-06	405.55	136.89	117.65	40.883	2.9637e-06	51.264	197.282	169.152	164.656	95.758	233.291	228.979	95.464	100.359	246.002	211.607	100.026	104.611	105.322	109.625	242.626	109.250	-8191	255	
989.083	1	1	0	0	0.21584	0.090875	0.19628	0.13315	0.29498	0.15964	0.2114	0.31318	0.094289	0.1569	0.30189	0.47147	0.12459	0.10591	0.34671	0.051317	-3.3229	-3.05	-3.3167	-3.6729	-2.9813	-3.6271	-3.525	-3.1458	-3.6646	-3.1688	-3.4479	-3.6312	-2.8542	-3.7667	-3.4562	-3.0167	90.196	98.854	163.454	94.560	238.495	411.130	129.746	438.023	416.768	288.467	387.239	402.304	421.702	130.608	268.900	258.077	0.00046797	0.00049731	0.00017892	1260.2	4.386e-06	4.2072e-06	1268.9	342.93	4.0031e-06	5.718e-06	398.61	134.69	115.76	39.794	4.9292e-06	50.402	0.00035452	0.00027456	7.6545e-05	1274.3	3.3461e-06	2.9581e-06	1281.8	348.69	3.1341e-06	2.9648e-06	404.8	136.96	117.69	40.863	3.1061e-06	51.339	197.108	178.408	164.466	95.780	242.460	225.461	95.579	100.648	248.736	226.345	100.511	104.392	105.388	109.364	229.157	108.935	-8191	255	
989.155	1	1	0	0	0.21527	0.2273	0.14599	0.061019	0.13442	0.13169	0.20077	0.10067	0.14954	0.3494	0.060688	0.06397	0.039017	0.1134	0.076544	0.067057	-3.4562	-2.9437	-3.1312	-3.8187	-2.9021	-3.6417	-3.4604	-3.0729	-3.6104	-2.8833	-3.3208	-3.8583	-2.8979	-3.6271	-3.6167	-2.8187	127.314	225.289	137.318	327.817	191.558	290.263	307.533	421.584	234.061	104.464	412.190	91.596	372.585	402.275	383.177	115.670	0.00044611	0.00052331	0.00015827	1263.7	4.6438e-06	3.7455e-06	1267.3	342.8	3.7966e-06	4.7527e-06	398.02	134.2	115.83	39.962	6.184e-06	50.233	0.0003554	0.00028143	7.5306e-05	1277.1	3.231e-06	2.8446e-06	1280.4	348.37	3.1744e-06	2.9108e-06	404.64	136.98	117.75	40.891	3.1629e-06	51.26	197.147	163.490	185.071	95.730	237.534	196.246	95.576	100.581	248.427	228.191	100.289	104.909	105.304	109.708	234.268	108.812	-8191	255	
989.251	1	1	0	0	0.13429	0.044646	0.042775	0.1732	0.17687	0.23819	0.29396	0.14077	0.059382	0.17383	0.18622	0.12457	0.082435	0.045545	0.20705	0.29686	-3.2479	-3.1083	-2.9771	-3.9667	-2.8917	-3.4792	-3.6458	-2.9208	-3.6667	-3.3792	-2.9771	-3.8083	-2.8417	-3.3625	-3.4938	-2.9771	150.781	412.039	102.600	296.278	162.159	283.315	399.144	433.047	410.288	236.259	140.551	249.861	297.560	261.686	225.131	442.749	0.00045303	0.00039044	0.00015759	1259.5	4.4809e-06	3.459e-06	1267.8	342.9	4.3827e-06	4.9601e-06	398.09	134.24	115.32	39.939	3.9614e-06	50.128	0.00034946	0.00027828	7.6097e-05	1274.6	3.2341e-06	2.9091e-06	1282.6	348.38	3.1331e-06	2.9364e-06	404.76	137.13	117.55	40.836	3.0594e-06	51.2	197.217	176.796	168.810	96.148	241.108	216.520	96.076	100.984	267.462	242.251	100.122	105.065	105.390	110.052	222.465	109.436	-8191	255	
989.346	1	1	0	0	0.21325	0.12229	0.18992	0.10734	0.092717	0.10938	0.19221	0.078391	0.10348	0.14707	0.16808	0.10962	0.072858	0.10716	0.075433	0.30273	-3.3458	-3	-2.9917	-3.825	-3.0187	-3.4104	-3.6583	-2.8167	-3.4896	-3.4542	-3.0229	-3.8396	-3.0208	-3.3125	-3.7792	-2.7958	275.868	238.377	325.796	419.111	345.129	212.156	327.158	321.704	107.707	353.594	374.849	288.247	380.336	426.111	439.262	282.713	0.00045706	0.00038927	0.00012196	1263.5	3.8451e-06	4.3676e-06	1268.1	343.18	4.8368e-06	3.1766e-06	399.06	134.6	115.4	39.889	4.8572e-06	50.151	0.00035041	0.00027445	7.569e-05	1276.4	3.141e-06	3.0524e-06	1281.4	348.3	3.0292e-06	2.9839e-06	405.11	137.05	117.54	40.829	3.1115e-06	51.252	199.259	163.411	175.922	96.029	252.967	236.971	96.036	100.909	252.708	220.709	99.118	104.035	104.709	108.874	224.426	108.101	-8191	255	
989.444	1	1	0	0	0.17286	0.15231	0.31001	0.12495	0.14705	0.15003	0.23329	0.15526	0.15671	0.12226	0.23113	0.12886	0.29151	0.1449	0.1939	0.21568	-3.0375	-3.3333	-2.5729	-3.7583	-3.0417	-3.3354	-3.7479	-2.95	-3.6292	-3.3271	-2.9729	-3.6271	-3.1896	-3.0542	-3.7375	-3.1104	323.473	90.207	381.890	417.806	175.594	241.875	384.062	358.391	366.075	267.325	92.244	116.977	361.124	116.104	436.205	326.998	0.00046086	0.00033619	0.0001281	1264.7	4.2328e-06	5.0428e-06	1266.7	342.99	3.9778e-06	6.5404e-06	397.88	134.6	115.98	40.005	4.1056e-06	50.401	0.00035394	0.00027589	7.7329e-05	1276.1	3.1898e-06	3.0536e-06	1282	348.22	3.1113e-06	2.9335e-06	404.45	136.98	117.67	40.892	3.0782e-06	51.353	200.157	167.537	170.056	95.438	253.982	219.307	95.039	99.926	255.175	231.528	99.782	104.508	105.168	109.591	256.088	108.551	-8191	255	
989.562	1	1	0	0	0.030523	0.14905	0.079322	0.18678	0.11241	0.19028	0.13537	0.12283	0.15836	0.13765	0.13126	0.11268	0.26084	0.24426	0.044983	0.25736	-2.9542	-3.5292	-2.9271	-3.8688	-3.0729	-3.0792	-3.7521	-3.0958	-3.5125	-3.5042	-2.825	-3.8542	-3.1667	-3.0583	-3.6646	-3.1792	329.848	97.072	154.753	87.709	360.975	128.397	130.461	354.334	272.489	268.172	415.343	305.228	144.966	329.495	253.108	277.103	0.00042052	0.00026779	0.00013739	1259.2	4.748e-06	3.7752e-06	1267.5	342.93	4.1385e-06	3.8256e-06	397.23	134.79	115.24	39.96	5.2613e-06	50.066	0.00034054	0.00026616	7.9702e-05	1275.2	3.2169e-06	2.9632e-06	1279.8	348.09	3.0544e-06	2.8891e-06	403.79	136.88	117.61	40.836	2.9952e-06	51.228	198.040	174.574	146.959	95.743	236.555	234.123	95.568	100.331	254.043	232.431	99.926	104.325	104.893	109.637	247.882	108.427	-8191	255	
989.659	1	1	0	0	0.28048	0.13802	0.066084	0.075638	0.06296	0.10952	0.1479	0.13564	0.042004	0.14743	0.3298	0.34908	0.27412	0.21163	0.13971	0.33863	-2.9104	-3.6125	-2.6375	-3.6021	-3.4	-2.8937	-3.85	-3.1833	-3.0646	-3.6083	-2.875	-3.4646	-3.4667	-3.2104	-3.7146	-3.1042	146.038	390.639	275.302	410.846	363.741	427.633	437.147	412.015	295.554	117.522	421.714	84.787	277.046	410.456	125.302	135.757	0.00042903	0.00038987	0.00013251	1262.8	5.5276e-06	4.6921e-06	1265.3	343.33	4.7879e-06	5.2425e-06	398.44	134.01	115.52	39.834	3.6177e-06	50.257	0.00034534	0.00027266	7.9232e-05	1276.2	3.223e-06	3.1133e-06	1279.8	348.27	3.1037e-06	3.0593e-06	404.78	136.75	117.41	40.78	3.0427e-06	51.206	197.145	181.256	170.312	96.411	247.868	207.714	95.718	100.499	249.325	238.839	99.969	104.563	105.150	109.754	248.004	109.022	-8191	255	
989.755	1	1	0	0	0.044616	0.13481	0.063356	0.27068	0.21005	0.069806	0.13813	0.22889	0.35489	0.19344	0.17338	0.30976	0.23639	0.15602	0.16413	0.10072	-2.8729	-3.7083	-2.7667	-3.5604	-3.4958	-2.8229	-3.8125	-3.2354	-2.9875	-3.6917	-3.0604	-3.4896	-3.6104	-2.7917	-3.4833	-3.3521	312.947	380.403	309.311	401.424	175.100	189.715	91.929	411.099	332.679	139.116	437.586	419.193	87.795	436.236	244.690	98.398	0.00043575	0.00049662	0.00016123	1263.7	4.9274e-06	5.365e-06	1264.9	342.65	4.1213e-06	3.6439e-06	398.34	134.02	115.57	39.943	5.2428e-06	49.953	0.0003456	0.00027887	7.8434e-05	1275.2	3.0943e-06	3.0604e-06	1279.6	348.13	3.2483e-06	2.9865e-06	404.36	136.87	117.72	40.857	3.0367e-06	51.19	197.552	161.683	165.029	95.868	234.976	211.975	95.632	100.840	251.931	230.105	100.384	104.997	105.339	109.724	239.247	108.424	-8191	255	
989.851	1	1	0	0	0.057382	0.16392	0.16472	0.17906	0.20039	0.13188	0.37723	0.36482	0.097087	0.22632	0.081145	0.21723	0.071504	0.17087	0.22596	0.14874	-2.6021	-3.6792	-2.9625	-3.4292	-3.5396	-2.8229	-3.8063	-3.4396	-2.9875	-3.7562	-3.0812	-3.3979	-3.6792	-2.8937	-3.6208	-3.3937	322.948	95.257	98.856	331.693	381.712	148.834	402.915	394.625	373.263	366.049	117.925	340.855	121.695	356.680	418.444	396.400	0.00043863	0.00053866	0.0002112	1262.4	4.9897e-06	4.7349e-06	1265.7	342.63	4.245e-06	5.4727e-06	399.66	134.42	115.89	39.93	5.423e-06	50.201	0.0003491	0.00026393	7.5819e-05	1275.7	3.1389e-06	2.9519e-06	1280.2	348.2	3.2353e-06	2.8988e-06	404.92	136.93	117.84	40.825	3.0555e-06	51.246	195.756	172.303	180.949	95.355	253.702	209.460	95.590	100.262	257.709	226.093	99.601	104.595	104.959	109.454	236.902	108.487	-8191	255	
989.947	1	1	0	0	0.27171	0.2449	0.25784	0.32738	0.36358	0.075191	0.30917	0.15138	0.012092	0.25638	0.069299	0.054467	0.27601	0.13208	0.12679	0.26081	-2.6354	-3.7062	-3	-3.325	-3.6042	-2.8583	-3.6688	-3.5021	-2.7604	-3.6521	-3.3146	-3.2021	-3.6604	-2.8312	-3.3542	-3.7042	264.634	273.615	206.118	159.589	357.472	295.434	353.114	433.942	315.777	402.804	314.715	418.316	361.968	362.683	413.864	301.292	0.00045247	0.00048841	0.00014159	1264.6	4.5159e-06	5.0882e-06	1263	343.04	3.0703e-06	4.234e-06	401	134.26	115.95	39.865	3.4427e-06	50.158	0.00035943	0.00026971	7.641e-05	1276.8	3.1325e-06	3.1187e-06	1279.3	348.26	3.1264e-06	2.9896e-06	404.91	136.89	117.6	40.82	2.9449e-06	51.249	195.263	177.910	164.500	95.451	237.702	231.572	95.570	100.645	251.352	226.766	100.037	105.168	105.699	109.881	222.488	108.974	-8191	255	
990.043	1	1	0	0	0.11486	0.097999	0.13701	0.26385	0.10227	0.14008	0.39552	0.20561	0.16948	0.026101	0.39826	0.33639	0.29409	0.14544	0.10431	0.15381	-2.3937	-3.7021	-3.075	-3.0854	-3.7562	-2.9208	-3.5083	-3.6562	-2.9062	-3.6354	-3.2146	-3.1	-3.7313	-2.9813	-3.3833	-3.7354	197.606	316.813	303.238	397.850	323.021	280.134	368.203	369.282	422.923	107.464	420.510	413.064	101.252	382.256	416.613	336.817	0.00044871	0.00039709	0.00014927	1257	5.7364e-06	4.1628e-06	1266.3	342.88	3.8158e-06	6.0827e-06	399.77	134.59	115.5	39.909	3.0786e-06	50.287	0.00035503	0.00027163	7.3781e-05	1273.8	3.1535e-06	3.0561e-06	1279.3	348.22	3.057e-06	2.9093e-06	405.25	137.01	117.74	40.855	3.052e-06	51.242	197.045	158.600	173.757	95.926	249.621	223.579	96.011	100.604	266.723	221.120	99.489	104.243	104.700	109.032	225.438	108.334	-8191	255	
990.164	1	1	0	0	0.099878	0.061248	0.074524	0.15593	0.11671	0.25929	0.3737	0.14958	0.086215	0.17283	0.3013	0.14381	0.041489	0.06982	0.18032	0.21208	-2.4458	-3.525	-3.1708	-3.1708	-3.5646	-2.8646	-3.4104	-3.5958	-2.6854	-3.5812	-3.4	-3.1562	-3.7979	-3.1458	-3.125	-3.7333	382.096	286.374	331.884	174.832	208.079	254.147	394.424	388.660	128.030	133.136	441.744	274.868	302.228	206.417	156.360	255.535	0.00044873	0.00052535	0.00010406	1266.3	4.6067e-06	5.0558e-06	1267.6	343.06	4.4372e-06	5.9127e-06	399.08	133.84	115.76	39.844	5.3675e-06	50.013	0.00035585	0.0002636	7.4914e-05	1276	3.0604e-06	3.0023e-06	1281.4	348.1	3.1704e-06	2.8854e-06	404.47	136.98	117.7	40.798	3.1118e-06	51.228	199.890	164.431	178.798	95.280	235.514	214.596	95.503	100.244	249.031	219.247	99.777	104.528	105.064	109.275	242.622	108.325	-8191	255	
990.258	1	1	0	0	0.28623	0.052334	0.36374	0.57319	0.33977	0.19671	0.094564	0.098519	0.36457	0.35765	0.27032	0.13497	0.016388	0.13326	0.071775	0.093681	-2.5646	-3.4271	-3.3104	-2.9604	-3.5708	-3.0563	-3.1458	-3.6562	-2.8063	-3.6292	-3.5833	-3.0083	-3.6125	-3.3042	-3.0646	-3.8521	385.212	212.076	440.860	425.823	436.963	426.978	296.208	341.163	237.412	198.366	398.986	160.103	391.817	417.170	382.586	198.395	0.00043169	0.00043448	0.00012661	1260	5.016e-06	5.6376e-06	1266.6	342.17	4.5423e-06	6.5639e-06	397.02	134.17	115.21	39.829	4.0753e-06	49.957	0.00035784	0.00026817	7.6025e-05	1274	3.0535e-06	3.0128e-06	1280.8	348.66	3.2258e-06	2.8644e-06	404.32	137.02	117.58	40.798	3.1564e-06	51.226	195.499	144.953	160.667	95.480	248.290	237.061	95.586	100.179	252.035	244.665	99.853	104.359	104.913	109.232	254.371	108.513	-8191	255	
990.354	1	1	0	0	0.21109	0.057624	0.056427	0.020644	0.16334	0.066956	0.18048	0.19978	0.064996	0.24904	0.082084	0.47607	0.19486	0.33856	0.13297	0.14967	-2.5354	-3.2812	-3.6604	-3.1417	-3.6063	-3.1792	-3.3021	-3.8937	-2.7833	-3.3375	-3.7208	-2.9521	-3.5854	-3.425	-2.8208	-3.8438	427.297	425.009	376.419	156.811	210.925	389.506	329.543	287.494	241.204	295.916	261.300	83.356	287.895	395.312	354.004	280.149	0.00042715	0.00036776	0.00016024	1262.5	4.1627e-06	3.8375e-06	1266.2	343.06	4.3369e-06	3.5941e-06	399.91	134.16	115.43	39.901	3.5108e-06	50.088	0.00034925	0.00027753	7.4807e-05	1273.9	3.1219e-06	2.7239e-06	1280.3	348.09	3.1678e-06	2.9051e-06	404.89	136.86	117.48	40.75	3.1637e-06	51.179	198.063	174.601	176.747	95.507	251.148	224.713	95.562	100.459	251.144	216.260	99.662	104.304	105.074	109.306	245.682	108.777	-8191	255	
990.452	1	1	0	0	0.15497	0.11367	0.20647	0.25446	0.12151	0.13749	0.25024	0.082555	0.16281	0.15827	0.22642	0.18928	0.049071	0.2682	0.046999	0.32704	-2.8187	-3.0187	-3.4896	-2.9229	-3.4688	-3.4688	-3.1167	-3.8354	-3.0812	-3.1646	-3.65	-2.9792	-3.3708	-3.5521	-2.825	-3.6854	173.021	340.908	425.273	413.558	177.063	408.214	364.559	225.884	104.114	137.863	416.876	419.728	376.188	436.956	416.791	386.069	0.00043441	0.0005086	0.00011761	1263.2	3.3842e-06	3.0365e-06	1265.8	342.5	4.4408e-06	6.5278e-06	398.56	133.72	115.49	39.771	5.4258e-06	50.086	0.00035614	0.00028192	7.6018e-05	1274.6	3.1949e-06	2.8635e-06	1279.3	348.01	3.199e-06	3.1418e-06	404.62	136.63	117.46	40.706	3.2509e-06	51.149	198.200	178.231	170.317	95.482	250.211	242.339	95.656	100.699	246.747	225.253	99.929	104.728	105.558	109.944	235.079	108.899	-8191	255	
990.547	1	1	0	0	0.18128	0.084832	0.19484	0.069177	0.1487	0.146	0.18624	0.21501	0.22369	0.082431	0.13055	0.091598	0.30129	0.031105	0.19426	0.13175	-2.6708	-3.125	-3.5438	-3.1083	-3.5104	-3.475	-2.9229	-3.6604	-3.2438	-3.0875	-3.6979	-3.0792	-3.2313	-3.675	-2.925	-3.6	159.436	140.747	192.647	352.590	289.422	134.570	397.438	428.352	172.772	415.405	220.332	295.152	377.676	412.299	277.733	353.723	0.00044123	0.00045387	0.00014235	1261.9	4.6206e-06	3.8868e-06	1265.9	343.41	4.3435e-06	7.0254e-06	399.9	133.75	115.92	39.875	4.5161e-06	50.233	0.00034788	0.00028516	7.5099e-05	1272.6	3.0803e-06	2.8887e-06	1278.8	348.35	3.0827e-06	3.1111e-06	404.82	136.68	117.6	40.751	3.2476e-06	51.215	196.442	160.180	174.435	95.940	245.508	227.844	96.022	100.913	246.493	218.587	100.568	105.229	105.885	109.883	235.615	109.150	-8191	255	
990.643	1	1	0	0	0.17978	0.010775	0.011797	0.032222	0.29734	0.066283	0.27864	0.10568	0.11502	0.038717	0.099877	0.18224	0.05401	0.084861	0.21971	0.13627	-2.9792	-2.9813	-3.6188	-3.1729	-3.3708	-3.3729	-3.1417	-3.5646	-3.3187	-2.9	-4.05	-3.2271	-3.3333	-3.6208	-2.9375	-3.5375	121.987	214.571	163.234	92.333	293.628	292.830	334.177	405.999	368.354	129.498	419.472	206.143	331.957	272.570	412.831	370.690	0.00042855	0.00039165	0.00011553	1261.8	4.8607e-06	4.5101e-06	1265.6	343.17	4.6794e-06	5.0641e-06	398.76	133.58	115.64	39.791	4.8571e-06	50.113	0.00034369	0.00027959	7.718e-05	1273.2	3.1052e-06	2.887e-06	1278.6	348.52	3.1532e-06	3.0863e-06	404.53	136.85	117.65	40.786	3.1517e-06	51.239	196.086	187.066	182.263	95.696	248.095	248.923	95.646	100.726	263.934	237.508	100.090	104.630	105.327	109.342	242.327	108.496	-8191	255	
990.763	1	1	0	0	0.17719	0.10679	0.17535	0.12295	0.26809	0.2193	0.085128	0.17503	0.2366	0.18314	0.18323	0.18819	0.14477	0.22102	0.14993	0.098249	-2.9208	-2.9917	-3.6458	-3.1188	-3.0917	-3.7646	-2.9042	-3.6792	-3.2854	-2.75	-3.7146	-3.2938	-2.9708	-3.7271	-2.8854	-3.5708	396.223	370.385	258.114	406.427	223.019	165.385	150.133	383.567	370.687	386.499	398.101	103.462	306.549	390.416	125.243	338.760	0.00044854	0.00043143	0.00019024	1261.7	4.1907e-06	4.7467e-06	1265.8	342.94	4.1267e-06	4.7589e-06	400.44	134.54	115.22	40.049	5.2755e-06	50.355	0.00034743	0.00028554	7.5284e-05	1273.1	3.1328e-06	2.8004e-06	1278.6	347.92	3.1352e-06	3.0761e-06	404.61	136.73	117.41	40.814	3.1498e-06	51.247	198.099	173.942	164.801	95.625	239.012	229.309	95.535	100.714	249.971	239.832	99.932	104.606	105.526	109.423	222.388	108.627	-8191	255	
990.860	1	1	0	0	0.25183	0.15052	0.20329	0.21792	0.15844	0.20594	0.27351	0.15653	0.16019	0.35838	0.14812	0.38665	0.32027	0.1193	0.14111	0.076223	-3.1104	-2.8354	-3.7062	-3.2542	-2.9229	-3.7521	-3.1792	-3.4562	-3.4938	-2.9604	-3.6958	-3.2438	-2.9979	-3.6	-3.0354	-3.3146	438.811	140.328	344.001	99.166	315.440	374.739	366.966	319.255	349.623	243.396	340.094	432.518	83.739	442.111	432.067	128.655	0.00045763	0.00024178	0.00015552	1261.7	5.0744e-06	3.041e-06	1262	343	3.6016e-06	4.4821e-06	399.6	133.67	114.93	39.877	4.41e-06	50.086	0.00035268	0.0002848	7.45e-05	1273.3	3.3549e-06	2.9185e-06	1277.6	348.8	3.0846e-06	2.9193e-06	404.52	136.88	117.66	40.793	3.1771e-06	51.17	200.319	170.144	167.611	95.498	253.447	229.053	95.689	100.610	252.340	224.178	100.142	104.473	105.473	109.437	242.415	108.669	-8191	255	
990.956	1	1	0	0	0.093563	0.052497	0.10766	0.14251	0.068426	0.27402	0.19219	0.1276	0.13079	0.068299	0.3132	0.21831	0.11427	0.36353	0.19919	0.080401	-3.2875	-2.8833	-3.5042	-3.4229	-3.0625	-3.7083	-3.2354	-3.3063	-3.5292	-2.9021	-3.6021	-3.45	-2.825	-3.5958	-3.0167	-3.3875	304.626	408.444	144.403	229.416	441.749	431.785	356.541	386.964	190.245	219.263	92.658	166.431	404.262	408.496	93.628	97.355	0.00042837	0.00049462	0.00012484	1260	3.8361e-06	4.3661e-06	1267.6	343.51	4.6552e-06	7.2213e-06	398.65	133.81	115.42	39.674	4.4486e-06	49.928	0.00034252	0.00028806	7.4016e-05	1273.8	3.3703e-06	3.0012e-06	1281.1	348.08	3.1079e-06	3.0186e-06	404.75	136.81	117.57	40.724	3.1053e-06	51.202	198.250	157.744	152.894	95.550	237.451	239.028	95.654	100.673	252.376	241.783	99.522	104.047	104.922	108.956	247.135	108.629	-8191	255	
991.027	1	1	0	0	0.059876	0.36328	0.049515	0.16352	0.060871	0.19657	0.075682	0.18933	0.16399	0.13188	0.062384	0.024752	0.28856	0.099458	0.18335	0.1477	-3.4271	-2.7708	-3.325	-3.65	-2.6771	-3.8688	-3.2833	-3.0729	-3.7396	-2.8479	-3.5542	-3.6646	-2.9375	-3.6792	-3.2729	-3.0396	328.827	267.130	300.914	392.945	423.706	326.660	370.581	378.537	328.580	391.312	360.980	210.199	421.738	288.348	95.596	436.545	0.00044907	0.00048215	0.00018244	1262.7	5.0607e-06	5.6905e-06	1261	343.72	3.6623e-06	4.6881e-06	398.74	134.19	114.97	39.844	4.9837e-06	50.154	0.00035478	0.00028038	7.4201e-05	1273.2	3.2681e-06	2.8746e-06	1278.4	348.5	3.0833e-06	3.0926e-06	405.04	136.9	117.42	40.801	2.9881e-06	51.303	195.815	182.107	178.484	95.481	231.706	234.739	95.343	100.409	256.160	240.685	99.904	104.389	105.058	109.079	239.736	108.270	-8191	255	
991.124	1	1	0	0	0.29784	0.16478	0.15905	0.25897	0.054423	0.17484	0.36803	0.099876	0.14759	0.21498	0.20388	0.13397	0.24323	0.15596	0.19396	0.17882	-3.2854	-2.8063	-3.4229	-3.6417	-2.9625	-3.4875	-3.6104	-3.2042	-3.6979	-2.9479	-3.4521	-3.6833	-3.0187	-3.6208	-3.3479	-3.0563	173.343	279.024	409.937	375.838	176.635	251.288	380.046	411.326	430.776	253.243	355.860	172.055	384.083	309.603	431.083	105.530	0.00042053	0.00051999	0.00018596	1259.7	4.4373e-06	5.1602e-06	1267.4	342.91	4.3967e-06	4.8038e-06	397.77	134.57	115.47	39.887	4.8495e-06	50.137	0.00035464	0.00027507	7.4493e-05	1273.3	3.2782e-06	2.9975e-06	1279.3	347.86	3.1654e-06	3.0849e-06	403.87	136.87	117.64	40.747	3.0301e-06	51.243	194.842	171.774	164.366	95.205	235.649	223.006	95.443	100.108	254.714	233.728	99.312	104.007	104.715	108.878	216.519	108.126	-8191	255	
991.242	1	1	0	0	0.11398	0.16533	0.09545	0.18861	0.051638	0.07143	0.2533	0.18203	0.055116	0.07913	0.19753	0.16364	0.16467	0.39461	0.10689	0.24397	-3.3833	-3.0062	-3.0938	-3.6979	-3.0708	-3.5021	-3.5479	-2.8979	-3.6417	-2.9542	-3.2729	-3.775	-2.7979	-3.4583	-3.5062	-2.8333	429.957	149.938	126.263	433.892	90.111	191.053	342.366	149.309	295.188	378.614	395.206	181.878	271.822	414.538	246.591	239.302	0.00043693	0.00040057	0.00017271	1262.9	3.852e-06	5.0958e-06	1265.7	343.21	4.9396e-06	4.9626e-06	396.75	134.27	115.5	39.92	6.3123e-06	50.213	0.00034958	0.00026593	7.9852e-05	1274.5	3.2238e-06	2.9771e-06	1279	348.26	3.2213e-06	2.9241e-06	404.55	136.77	117.54	40.748	3.1528e-06	51.142	199.082	173.220	186.174	95.069	262.387	233.962	95.281	100.279	244.613	231.674	99.584	104.059	104.345	109.156	239.027	108.353	-8191	255	
991.339	1	1	0	0	0.12408	0.19453	0.096514	0.12316	0.19555	0.19221	0.2024	0.018845	0.14957	0.18679	0.27593	0.1681	0.092693	0.18357	0.083606	0.079234	-3.3646	-3.0708	-3.1604	-3.9542	-2.9542	-3.6083	-3.6542	-2.9521	-3.5708	-3.3688	-3.0292	-3.8	-2.8521	-3.2708	-3.5312	-2.8937	416.361	222.348	178.607	385.176	172.477	292.476	91.687	350.169	416.327	236.843	362.582	173.228	183.925	138.071	317.389	309.993	0.00042507	0.00058976	0.00012858	1259.4	4.0551e-06	5.2397e-06	1266.7	341.57	4.0692e-06	6.8051e-06	398.86	134.17	115.2	39.869	4.3619e-06	49.959	0.00034873	0.00026442	7.7479e-05	1272.5	3.2217e-06	2.9612e-06	1277.8	347.6	3.0372e-06	3.053e-06	404.15	136.86	117.36	40.784	3.1173e-06	51.106	194.152	175.367	162.653	95.273	236.186	220.657	95.272	100.568	258.751	240.144	99.697	104.618	105.494	109.420	239.853	108.649	-8191	255	
991.437	1	1	0	0	0.21132	0.22903	0.22552	0.37677	0.059151	0.099076	0.26333	0.038395	0.08061	0.097606	0.10726	0.19896	0.022129	0.041207	0.11001	0.071986	-3.1042	-3.1854	-2.9271	-3.7958	-2.8979	-3.2896	-3.7438	-2.9708	-3.6312	-3.2	-2.9	-3.7042	-3.0042	-3.1479	-3.5167	-2.8667	342.059	351.475	240.023	397.741	109.526	379.351	377.165	306.603	353.726	408.912	189.493	97.616	184.255	273.104	325.727	411.862	0.00044105	0.00041267	0.00011669	1258.2	4.3257e-06	3.0918e-06	1264.5	342.95	4.5577e-06	6.4222e-06	398.29	134.1	115.6	39.94	4.9587e-06	50.037	0.00034825	0.00025782	7.7978e-05	1271.4	3.1076e-06	2.9426e-06	1277.7	348.38	3.1002e-06	2.9435e-06	404.43	136.74	117.4	40.804	2.979e-06	51.165	199.143	181.733	160.352	95.709	256.180	236.921	95.613	100.418	257.047	229.910	99.777	104.532	105.259	109.458	231.285	108.604	-8191	255	
991.555	1	1	0	0	0.23363	0.0069519	0.061469	0.031537	0.15353	0.19221	0.11695	0.18914	0.26007	0.19075	0.22897	0.16764	0.22718	0.207	0.075851	0.14627	-3.2625	-3.275	-2.8771	-3.7438	-3.0708	-3.1042	-3.775	-3.0292	-3.3896	-3.4833	-2.9458	-3.8708	-3.0271	-3.3292	-3.6104	-3.1625	293.765	234.339	286.535	126.563	430.401	305.050	128.718	395.278	318.381	255.315	87.030	98.408	356.417	311.577	342.591	437.702	0.0004375	0.00063007	0.00011236	1257.7	3.9185e-06	2.6488e-06	1260.9	343.02	3.9487e-06	4.8774e-06	397.32	134.36	115.51	39.757	4.3e-06	49.945	0.00034221	0.00027445	7.6645e-05	1271.7	3.0734e-06	3.0074e-06	1277.2	348.37	3.0173e-06	2.8738e-06	404.23	136.91	117.63	40.797	3.0129e-06	51.163	197.030	159.187	156.701	95.613	239.508	223.124	95.725	100.563	245.832	235.415	99.656	104.357	104.405	109.037	229.026	108.347	-8191	255	
991.627	1	1	0	0	0.21584	0.21365	0.092398	0.17461	0.31203	0.1287	0.10583	0.088503	0.068698	0.14601	0.19822	0.11089	0.027758	0.20615	0.18575	0.13498	-2.9229	-3.6	-2.7479	-3.7438	-3.0729	-3.0146	-3.7521	-2.9521	-3.2687	-3.4833	-3.0021	-3.6417	-3.1146	-3.1167	-3.5271	-3.2104	214.206	303.069	142.275	438.197	379.241	281.325	225.475	372.921	326.800	329.836	165.773	393.715	204.129	423.422	111.238	427.430	0.00043733	0.00044762	0.00012717	1257.8	3.7365e-06	4.7151e-06	1268.1	343.07	4.4157e-06	5.1762e-06	398.09	134.21	115.25	39.986	4.6594e-06	50.184	0.00034466	0.00026668	7.8427e-05	1271.5	3.0288e-06	2.9879e-06	1278.5	347.92	3.1278e-06	2.9426e-06	405.1	137	117.56	40.839	3.0815e-06	51.247	198.607	166.985	179.898	95.396	256.483	230.002	95.141	100.200	249.499	249.816	99.755	104.117	104.787	109.059	236.301	108.758	-8191	255	
991.723	1	1	0	0	0.11204	0.19848	0.066673	0.057811	0.17883	0.062673	0.10827	0.19626	0.21756	0.23579	0.30765	0.28353	0.063087	0.055835	0.1281	0.13852	-2.8167	-3.3417	-2.7438	-3.7417	-3.3146	-2.7583	-3.925	-3.2583	-3.0375	-3.7687	-2.9042	-3.5083	-3.3833	-2.8146	-3.6271	-2.9042	237.649	119.883	154.185	103.663	236.786	170.746	353.105	383.716	419.644	262.734	397.727	413.714	303.888	371.823	387.194	417.865	0.00043582	0.00058016	8.694e-05	1262.6	4.725e-06	5.2625e-06	1264.1	344.08	5.2378e-06	4.1354e-06	400.6	134.56	115	39.874	4.1489e-06	50.07	0.00034582	0.00027674	7.6873e-05	1272.8	2.9919e-06	2.9896e-06	1277.4	348.45	3.1429e-06	2.8908e-06	404.46	136.8	117.37	40.808	2.9219e-06	51.128	196.731	178.382	192.656	95.392	251.090	231.509	95.591	100.424	268.951	224.942	99.648	104.323	104.873	109.384	238.371	108.322	-8191	255	
991.844	1	1	0	0	0.12846	0.19986	0.23989	0.082447	0.061008	0.16937	0.099183	0.20633	0.16403	0.1328	0.23546	0.094699	0.1859	0.14642	0.17094	0.18902	-2.7042	-3.5917	-2.8312	-3.5563	-3.2188	-2.6417	-3.7729	-3.1625	-2.8438	-3.7667	-3.1562	-3.4875	-3.5083	-2.9583	-3.7313	-3.0417	319.171	357.867	358.843	274.333	222.450	369.987	258.362	369.268	307.644	239.439	138.213	255.452	420.704	323.621	251.204	116.772	0.00044229	0.00039795	0.00015399	1260.6	4.5056e-06	4.4919e-06	1265.6	342.13	4.0042e-06	4.0053e-06	399.66	133.69	115.6	39.878	4.6661e-06	50.113	0.00034808	0.00026113	7.4964e-05	1271.9	2.9932e-06	3.0547e-06	1279.5	347.55	3.2221e-06	2.9159e-06	404.65	136.73	117.46	40.765	3.0397e-06	51.14	196.556	168.002	169.649	95.594	257.318	234.227	95.649	100.330	261.387	234.888	99.794	104.554	104.926	109.231	234.007	108.463	-8191	255	
991.940	1	1	0	0	0.030055	0.2471	0.13288	0.10334	0.051651	0.048094	0.12236	0.37908	0.11276	0.095217	0.09797	0.15899	0.21034	0.043827	0.054894	0.10275	-2.7646	-3.5979	-3.0375	-3.4854	-3.5333	-3.0042	-3.7125	-3.4854	-2.8333	-3.8125	-3.0917	-3.1792	-3.6417	-2.8729	-3.4542	-3.5583	298.627	159.433	208.109	93.055	197.520	164.997	281.111	332.544	113.806	131.776	107.671	381.622	429.802	373.507	353.767	213.735	0.00046593	0.00045418	0.00016823	1261.9	4.4329e-06	4.0988e-06	1265.3	342.74	3.1367e-06	4.6713e-06	397.83	134.4	114.79	39.785	4.7274e-06	49.868	0.00036388	0.00027107	7.5092e-05	1273.2	3.1408e-06	3.0148e-06	1278.5	347.87	3.212e-06	2.8911e-06	403.95	136.81	117.26	40.793	2.9755e-06	51.138	198.712	171.044	168.096	95.411	226.068	214.239	95.715	100.295	245.810	212.796	99.809	104.361	104.946	109.288	253.007	108.377	-8191	255	
992.036	1	1	0	0	0.14075	0.087825	0.13227	0.26471	0.15531	0.19233	0.029315	0.22574	0.24801	0.18156	0.13164	0.15042	0.18647	0.15584	0.12702	0.087649	-2.5354	-3.5708	-3.1104	-3.2521	-3.6562	-2.7917	-3.3521	-3.4646	-2.8458	-3.6292	-3.1104	-3.0979	-3.6583	-3.1125	-3.1979	-3.5167	212.445	277.153	206.185	356.428	172.392	314.960	173.753	407.513	218.811	260.327	435.872	380.591	334.138	350.899	328.505	344.926	0.00045121	0.00043413	0.00012877	1261.4	4.3499e-06	4.3799e-06	1265	342.72	4.2457e-06	3.5074e-06	399.31	134.64	114.96	39.777	3.8255e-06	50.418	0.00036196	0.00026496	7.2555e-05	1272.7	3.1278e-06	3.0448e-06	1279.1	347.72	3.2973e-06	2.7958e-06	404.26	136.99	117.53	40.683	2.9651e-06	51.285	199.043	166.170	173.790	95.781	226.633	192.097	95.589	100.217	261.036	223.196	99.559	104.480	105.338	109.285	244.119	108.549	-8191	255	
992.157	1	1	0	0	0.11314	0.17889	0.22779	0.19955	0.094033	0.11768	0.14077	0.34953	0.050759	0.10222	0.10184	0.29019	0.12437	0.2225	0.1429	0.042158	-2.4833	-3.6604	-3.0792	-3.3479	-3.7438	-2.9958	-3.4875	-3.3563	-2.9708	-3.7083	-3.2062	-3.175	-3.675	-3.0271	-3.3458	-3.4854	334.396	308.713	252.132	440.763	257.313	155.196	322.778	375.193	369.076	212.738	402.003	222.580	128.491	114.623	200.401	89.411	0.00043996	0.00055977	0.00013149	1261.5	5.4449e-06	4.0199e-06	1262.7	342.11	4.2828e-06	5.3892e-06	397.86	133.8	115.7	39.749	3.6861e-06	50.296	0.0003554	0.00026881	7.3239e-05	1271.9	3.137e-06	2.9154e-06	1279.3	347.66	3.2488e-06	2.9432e-06	404.25	136.47	117.57	40.721	3.0501e-06	51.207	197.374	172.569	181.342	95.847	243.299	229.194	95.703	100.775	237.982	214.299	99.975	104.776	105.383	109.547	239.257	108.555	-8191	255	
992.253	1	1	0	0	0.060144	0.025618	0.061524	0.30984	0.22564	0.099769	0.2724	0.14755	0.10978	0.12517	0.18711	0.14965	0.090186	0.047016	0.086423	0.2717	-2.4667	-3.5583	-3.125	-3.0125	-3.7438	-2.8167	-3.5792	-3.5917	-2.9042	-3.5354	-3.3542	-2.9604	-3.6479	-2.8937	-3.0208	-3.7104	389.703	93.013	88.449	426.104	383.553	229.719	417.873	157.916	291.682	304.792	291.656	284.943	296.630	412.861	287.894	391.977	0.00045097	0.00033726	0.00012537	1259.4	5.2006e-06	4.0261e-06	1266.8	342.36	4.5157e-06	4.7627e-06	399.57	133.89	115.36	39.783	4.5612e-06	50.111	0.00036146	0.00026758	7.2377e-05	1272.9	3.1219e-06	2.9111e-06	1280	347.95	3.2274e-06	2.9808e-06	403.84	136.45	117.44	40.715	3.135e-06	51.186	197.295	190.240	175.732	95.533	247.509	228.318	95.446	100.430	254.661	232.058	100.161	105.029	105.513	109.578	232.991	109.096	-8191	255	
992.323	1	1	0	0	0.16246	0.1507	0.17973	0.27366	0.24285	0.2772	0.29136	0.036637	0.23937	0.11351	0.24538	0.28345	0.29393	0.04496	0.15342	0.094085	-2.625	-3.2875	-3.3458	-3.0354	-3.425	-3.05	-3.1813	-3.7438	-2.7896	-3.3417	-3.5771	-2.8042	-3.6437	-3.1562	-3.0667	-3.4938	88.974	198.765	337.950	407.117	115.079	237.415	403.014	424.980	222.083	313.657	409.210	334.676	396.676	224.540	416.913	396.145	0.00042659	0.00034687	0.00010519	1256.8	5.9845e-06	4.3614e-06	1269.3	342.35	5.0146e-06	4.6143e-06	398.86	133.81	114.84	39.97	5.3717e-06	50.334	0.00035213	0.00026686	7.4529e-05	1269.7	3.071e-06	2.8564e-06	1279.6	348.06	3.1953e-06	2.7938e-06	404.29	136.57	117.1	40.742	3.0842e-06	51.233	197.179	173.714	168.249	95.814	225.888	226.387	95.941	100.754	255.696	235.020	100.198	104.616	105.497	109.913	237.485	108.781	-8191	255	
992.419	1	1	0	0	0.06298	0.056762	0.13542	0.22779	0.091652	0.13456	0.24168	0.1881	0.07444	0.18473	0.15734	0.050813	0.026822	0.21296	0.10257	0.23006	-2.5042	-3.3583	-3.5604	-2.5958	-3.5646	-3.15	-3.0708	-3.8396	-2.8167	-3.4625	-3.6417	-2.7979	-3.475	-3.1521	-2.925	-3.6521	227.795	169.777	430.813	417.440	189.804	201.426	88.557	358.310	175.332	219.054	335.689	178.187	349.849	425.429	376.874	182.725	0.00043386	0.00047023	0.00016526	1258.1	4.5088e-06	3.6725e-06	1268.4	342.86	3.6919e-06	5.033e-06	398.38	133.91	115.25	39.908	5.1574e-06	50.029	0.00035117	0.00027196	7.3439e-05	1273.4	3.0896e-06	2.8938e-06	1280.3	347.98	3.0438e-06	2.9523e-06	403.96	136.52	117.43	40.765	3.1323e-06	51.121	197.596	160.079	176.943	95.954	244.175	232.613	96.059	100.770	254.272	249.625	99.634	104.604	105.153	109.301	228.199	108.491	-8191	255	
992.540	1	1	0	0	0.1638	0.16949	0.13113	0.19174	0.28758	0.14974	0.31944	0.14171	0.087481	0.11653	0.25118	0.23536	0.10643	0.22127	0.13825	0.14597	-2.525	-3.0208	-3.55	-2.9688	-3.6333	-3.3771	-2.9271	-3.7438	-3.0083	-3.2896	-3.6708	-2.9208	-3.7208	-3.3917	-2.8646	-3.8438	217.998	285.258	126.617	434.000	103.278	316.970	353.252	140.083	201.809	234.150	425.151	85.829	370.943	364.473	88.409	434.253	0.00045108	0.00048948	0.00012603	1259.5	4.2122e-06	5.9589e-06	1264.8	343.04	4.4985e-06	5.9051e-06	398.8	133.94	115.06	39.668	4.3696e-06	50.07	0.00034375	0.0002754	7.5298e-05	1271.4	3.0434e-06	3.0193e-06	1277.7	348.13	3.1243e-06	3.0146e-06	404.43	136.62	117.42	40.673	3.1471e-06	51.231	196.515	183.128	159.898	95.584	235.353	247.328	95.747	100.658	260.001	228.676	100.087	104.332	105.299	109.131	256.260	108.844	-8191	255	
992.636	1	1	0	0	0.23771	0.21106	0.13591	0.17774	0.15335	0.312	0.27581	0.12127	0.079998	0.13176	0.17208	0.078482	0.11719	0.10287	0.077413	0.15997	-2.7021	-3.0583	-3.6875	-3.0146	-3.5021	-3.4	-2.8312	-3.6417	-3.1375	-3.1188	-3.7458	-3.0167	-3.5417	-3.65	-2.9375	-3.6708	194.704	376.398	218.702	390.212	392.156	390.891	387.218	102.023	143.568	209.991	405.384	127.852	410.382	366.889	99.525	228.659	0.00044521	0.00027073	0.00013478	1264.6	4.9831e-06	5.4948e-06	1264.4	342.02	4.9824e-06	4.2659e-06	397.23	133.87	115.25	39.742	4.2749e-06	50.122	0.00034475	0.00028072	7.4351e-05	1273.2	3.0548e-06	2.9063e-06	1278	347.62	3.0539e-06	2.9779e-06	404.49	136.69	117.38	40.692	3.1799e-06	51.179	196.284	155.588	194.829	95.463	253.413	221.178	95.976	100.665	253.458	225.639	100.112	104.651	105.412	109.520	246.835	108.953	-8191	255	
992.732	1	1	0	0	0.14874	0.28243	0.057301	0.13545	0.20866	0.20698	0.22588	0.17051	0.099036	0.039103	0.2193	0.10569	0.23602	0.25478	0.17301	0.033873	-2.7792	-2.6875	-3.5708	-2.975	-3.2062	-3.4229	-3.0375	-3.7396	-3.3792	-3.1	-3.8583	-3.0729	-3.3375	-3.5104	-3.05	-3.6396	401.862	313.276	252.124	174.886	163.412	165.613	321.423	426.001	408.576	163.763	102.417	236.230	323.012	412.044	183.759	154.941	0.00042488	0.0005182	0.00012177	1259.3	4.576e-06	4.0679e-06	1264.8	342.86	4.2049e-06	4.3045e-06	397.82	134.01	115.84	39.883	3.4034e-06	50.27	0.00033684	0.00027671	7.3047e-05	1272.1	3.111e-06	2.8706e-06	1277.5	348.29	3.0562e-06	3.0064e-06	404.5	136.61	117.56	40.794	3.0479e-06	51.267	196.924	176.111	177.627	95.649	242.443	220.877	95.413	100.321	266.263	235.199	99.811	104.440	105.105	109.284	253.045	108.807	-8191	255	
992.828	1	1	0	0	0.23633	0.048881	0.14328	0.088609	0.22786	0.15725	0.15544	0.20943	0.18345	0.28201	0.20388	0.11767	0.1394	0.058939	0.058374	0.095175	-2.9375	-2.7792	-3.6437	-3.0563	-3.1625	-3.6521	-2.9021	-3.5854	-3.2313	-2.8312	-3.5625	-3.0958	-3.0187	-3.8417	-2.6542	-3.65	199.577	423.299	102.203	440.562	267.877	369.193	339.837	315.336	195.521	379.632	370.117	90.153	441.345	177.576	415.533	356.079	0.00044218	0.00050003	0.00012516	1260.8	3.4939e-06	3.2439e-06	1263.5	343.8	4.9851e-06	4.6634e-06	399.39	134.28	115.31	39.842	4.9137e-06	50.149	0.00034795	0.00027969	7.6232e-05	1272.9	3.1819e-06	2.9799e-06	1276.4	348.04	3.0997e-06	2.9756e-06	404.66	136.68	117.39	40.768	3.1318e-06	51.222	197.437	184.631	176.267	95.604	249.755	232.472	95.635	100.413	260.882	222.056	99.593	104.521	105.436	109.180	245.475	108.540	-8191	255	
992.924	1	1	0	0	0.12851	0.12752	0.25744	0.27636	0.16516	0.14854	0.093387	0.20046	0.033955	0.20091	0.22469	0.075224	0.24715	0.17275	0.069466	0.21147	-3.0271	-2.8396	-3.6542	-3.2667	-3.025	-3.5042	-3.2313	-3.6271	-3.725	-2.8521	-3.7917	-3.2938	-3.1104	-3.7542	-2.9917	-3.2458	221.669	93.095	231.490	95.237	382.403	341.226	252.528	418.001	413.177	177.935	401.711	374.430	310.272	141.254	147.805	258.880	0.00043879	0.00046201	0.00013184	1258.2	4.27e-06	3.9863e-06	1262.7	342.29	4.1519e-06	4.949e-06	400.13	133.45	115.24	39.846	4.6001e-06	50.178	0.00035098	0.00028064	7.2975e-05	1272.1	3.1909e-06	2.84e-06	1277.4	347.89	3.0502e-06	3.0516e-06	405.07	136.71	117.32	40.773	3.0443e-06	51.201	195.733	180.900	173.346	95.718	247.608	209.772	95.813	100.846	266.496	240.339	99.679	104.234	104.951	108.947	227.053	108.251	-8191	255	
993.020	1	1	0	0	0.20517	0.14477	0.070426	0.1038	0.2055	0.11228	0.41776	0.086691	0.078865	0.14921	0.045933	0.16879	0.070072	0.25543	0.072843	0.099422	-3.2438	-2.7479	-3.7229	-3.3771	-2.8812	-3.8187	-3.1375	-3.5687	-3.6104	-2.8479	-3.5083	-3.4104	-2.9708	-3.95	-3.0687	-3.3375	362.914	378.913	133.143	348.713	202.603	358.214	399.530	400.968	159.661	85.084	275.233	426.562	220.112	431.239	402.214	429.253	0.00044684	0.00044354	0.00014659	1261.3	5.2657e-06	4.0782e-06	1263.8	342.31	4.5494e-06	4.793e-06	398.78	134.54	115.84	39.774	4.6125e-06	50.16	0.00035316	0.00028629	7.2968e-05	1273.9	3.2498e-06	2.827e-06	1279.2	347.75	3.0446e-06	2.9591e-06	404.47	137.02	117.66	40.759	2.9364e-06	51.206	196.267	178.551	171.876	95.454	245.239	222.966	95.738	100.601	255.673	227.885	99.711	104.557	105.065	109.324	234.955	108.642	-8191	255	
993.117	1	1	0	0	0.23025	0.2197	0.2509	0.19505	0.12188	0.095229	0.091082	0.16218	0.13407	0.080114	0.08429	0.44777	0.2312	0.14874	0.17344	0.23264	-3.2729	-2.6521	-3.4604	-3.5854	-3.0104	-3.5792	-3.1854	-3.1354	-3.7604	-2.9479	-3.5333	-3.5062	-2.8458	-3.8458	-3.2375	-3.2979	398.275	93.883	298.051	97.670	365.835	294.210	411.544	433.611	182.580	315.537	119.082	423.862	295.413	227.956	260.386	356.555	0.00044429	0.00047842	0.00012379	1259.1	5.3292e-06	4.8728e-06	1260	341.38	4.3512e-06	4.9717e-06	400.01	133.6	114.98	39.713	5.2069e-06	50.124	0.00035119	0.00027728	7.1565e-05	1271.7	3.2432e-06	2.7893e-06	1276.3	347.48	3.0332e-06	2.915e-06	404.83	136.43	117.22	40.736	3.076e-06	51.242	198.829	170.994	172.326	95.788	250.115	244.438	95.662	100.517	254.481	243.906	99.560	104.273	104.829	109.177	233.824	108.299	-8191	255	
993.237	1	1	0	0	0.13086	0.17139	0.10883	0.21391	0.10546	0.063592	0.15278	0.35952	0.070363	0.05998	0.022134	0.11807	0.17347	0.17027	0.16606	0.36806	-3.3125	-2.925	-3.2854	-3.7271	-2.7521	-3.5604	-3.1937	-3.225	-3.6562	-2.8896	-3.4417	-3.5438	-2.9083	-3.6958	-3.1562	-3.1063	180.003	437.398	238.582	87.492	143.832	243.772	376.217	386.406	433.382	139.941	172.476	406.734	169.664	87.085	280.041	391.384	0.00043891	0.00042579	0.00021761	1257.8	5.6576e-06	4.63e-06	1259.7	343.75	4.7813e-06	4.0681e-06	398.4	133.98	115.23	39.758	4.6696e-06	50.129	0.00035353	0.00027802	7.6061e-05	1271.1	3.2485e-06	2.9006e-06	1274.8	347.86	3.1532e-06	2.9199e-06	404.42	136.67	117.37	40.691	2.9807e-06	51.166	197.884	173.099	171.690	95.198	243.456	223.982	95.248	100.201	258.962	236.275	99.440	104.121	104.900	109.038	238.271	108.235	-8191	255	
993.332	1	1	0	0	0.10662	0.29792	0.17667	0.23206	0.043501	0.26214	0.29817	0.25788	0.1397	0.17463	0.16528	0.19251	0.17877	0.15647	0.092455	0.18049	-3.3063	-3.0479	-3.2083	-3.8167	-2.7875	-3.5271	-3.5042	-3.0125	-3.7521	-3.1979	-3.2687	-3.9208	-2.8146	-3.5229	-3.3708	-2.9562	105.819	369.564	395.992	382.406	351.275	256.465	440.602	408.615	191.921	188.502	371.274	403.829	117.077	376.368	90.353	401.134	0.00043495	0.00058825	0.00013246	1256.4	3.3017e-06	5.4313e-06	1261	341.81	5.0811e-06	4.2931e-06	399.28	133.74	115.41	39.83	5.0583e-06	50.278	0.00034849	0.0002715	7.4294e-05	1270.7	3.179e-06	2.7712e-06	1275.8	347.75	3.1768e-06	2.8374e-06	403.94	136.55	117.26	40.759	3.0146e-06	51.156	198.918	173.125	180.115	95.067	235.401	221.148	95.228	100.107	254.051	231.851	99.405	104.139	105.020	109.139	245.447	108.204	-8191	255	
993.428	1	1	0	0	0.082456	0.13068	0.079299	0.26966	0.041892	0.24045	0.095761	0.14059	0.16111	0.15026	0.078982	0.18251	0.14367	0.058814	0.039563	0.072362	-3.4146	-3.0375	-3.0167	-3.8021	-2.8125	-3.4854	-3.5646	-3.0625	-3.6854	-3.1229	-3.0229	-3.6708	-2.8708	-3.5208	-3.3396	-3.0125	236.385	120.377	248.558	393.175	168.231	253.681	391.954	310.316	421.806	435.832	367.015	117.706	311.314	378.828	337.176	354.439	0.00043973	0.00052392	0.00016086	1258.3	5.2317e-06	3.7461e-06	1264.2	342.07	3.8044e-06	5.0185e-06	396.81	133.81	115.53	39.818	4.2985e-06	50.1	0.00034115	0.00025716	7.5213e-05	1271.2	3.1596e-06	2.8944e-06	1276	347.14	3.1315e-06	2.8536e-06	403.67	136.52	117.34	40.728	2.9613e-06	51.171	199.125	167.491	175.444	95.340	249.603	240.826	95.046	100.071	251.914	243.221	99.661	104.156	104.813	109.334	235.213	108.634	-8191	255	
993.524	1	1	0	0	0.15002	0.17936	0.14278	0.26889	0.28754	0.23077	0.18796	0.23344	0.15904	0.071374	0.10809	0.088719	0.21339	0.16993	0.19304	0.19552	-3.1646	-3.0563	-2.8563	-3.9271	-3.0729	-3.2104	-3.7583	-3.0312	-3.8292	-3.3333	-3.2562	-3.6208	-3.0333	-3.0708	-3.6312	-3.0667	194.684	286.008	145.323	428.867	221.810	423.883	378.875	422.203	150.962	239.273	83.952	421.674	395.014	419.525	133.752	421.156	0.00041671	0.00053242	0.00013929	1255.8	5.2401e-06	4.3284e-06	1257.1	341.6	5.3965e-06	4.3006e-06	397.96	133.96	115.04	39.796	3.8454e-06	50.08	0.00033892	0.0002617	7.8078e-05	1268.6	3.1355e-06	2.8573e-06	1272.8	347.03	2.9937e-06	2.7702e-06	403.62	136.42	117.16	40.741	2.9102e-06	51.176	195.737	172.716	169.425	95.165	251.862	221.354	95.535	100.247	255.482	233.805	99.473	104.188	104.654	109.244	236.304	108.499	-8191	255	
993.620	1	1	0	0	0.35058	0.021333	0.17239	0.224	0.10813	0.17775	0.14386	0.23571	0.046289	0.055849	0.010468	0.14002	0.30012	0.11169	0.068523	0.16773	-3.0812	-3.2625	-2.7042	-3.8854	-2.8896	-3.0625	-3.7875	-2.925	-3.3229	-3.4458	-2.975	-3.7979	-3.0542	-3.0479	-3.6896	-3.2	150.842	293.184	276.201	424.889	84.972	165.652	399.538	407.033	283.598	418.353	199.908	343.708	439.771	113.829	150.825	426.098	0.00044138	0.00036823	0.0001412	1255.6	5.0551e-06	4.3105e-06	1262.3	342.66	4.3883e-06	5.9714e-06	395.79	134.26	115.7	39.851	3.9372e-06	49.892	0.00033689	0.00026373	7.5106e-05	1269.7	3.1272e-06	2.7924e-06	1275.7	347.67	2.9574e-06	2.7281e-06	403.21	136.5	117.38	40.76	2.9722e-06	51.08	197.447	168.810	172.565	95.603	245.952	220.659	95.527	100.473	256.105	235.054	99.768	104.328	104.968	109.402	246.920	108.684	-8191	255	
993.716	1	1	0	0	0.3017	0.051933	0.20384	0.30604	0.18784	0.08549	0.067621	0.13622	0.10351	0.070659	0.064147	0.15118	0.18125	0.20286	0.033114	0.083465	-2.95	-3.6646	-2.8125	-3.7562	-3.1021	-3.1521	-3.8812	-3.1979	-3.325	-3.7	-3.1917	-3.6229	-3.2604	-3.0167	-3.7875	-3.1521	110.775	170.491	131.659	362.760	411.057	403.949	397.625	140.425	244.114	225.439	152.314	400.208	363.921	115.977	170.789	168.420	0.00044323	0.00060993	0.00014521	1256.5	4.5855e-06	4.8614e-06	1266.6	341.75	4.0879e-06	4.2748e-06	395.91	133.26	114.62	39.875	3.7528e-06	50.006	0.00034285	0.00026162	7.7807e-05	1268.2	2.9484e-06	2.8437e-06	1275.5	347.52	2.9588e-06	2.8217e-06	403.18	136.22	116.91	40.745	2.9116e-06	51.096	196.069	192.569	174.158	95.793	244.089	211.285	95.611	100.652	263.661	231.356	99.794	104.554	105.382	109.366	244.542	108.631	-8191	255	
993.837	1	1	0	0	0.39434	0.17531	0.1515	0.35382	0.30213	0.12147	0.18008	0.2488	0.078856	0.09029	0.18463	0.29743	0.24841	0.15007	0.3285	0.18629	-2.7146	-3.4292	-2.85	-3.7562	-3.2875	-2.8229	-3.8979	-3.1583	-3.1604	-3.6188	-3.0021	-3.6208	-3.4396	-2.8688	-3.7771	-3.1458	304.517	345.990	313.247	438.758	139.754	380.706	418.884	360.388	399.449	326.332	422.426	401.467	364.051	190.119	266.596	373.944	0.00043265	0.00068446	0.0001151	1258.7	4.3714e-06	3.7723e-06	1259.9	342.53	4.4527e-06	4.1599e-06	398	133.24	115.36	39.726	5.304e-06	49.954	0.00034728	0.0002606	7.4165e-05	1268.1	2.9903e-06	2.9097e-06	1273.5	347.39	3.1535e-06	2.8547e-06	403.74	136.39	117.05	40.755	2.9165e-06	51.122	197.193	178.312	188.141	95.700	244.746	212.007	95.812	100.559	251.076	217.306	99.896	104.255	105.068	109.472	239.890	108.874	-8191	255	
993.933	1	1	0	0	0.15463	0.13742	0.2964	0.38904	0.060996	0.12309	0.12481	0.13794	0.080855	0.11617	0.15928	0.15097	0.016719	0.2931	0.19473	0.17895	-2.975	-3.7125	-2.7625	-3.6167	-3.3729	-2.8937	-3.7083	-3.1146	-3.1875	-3.7354	-2.9458	-3.4958	-3.5938	-3.1	-3.5271	-3.1583	202.265	290.444	204.777	433.795	219.827	421.040	126.677	394.921	214.407	304.586	371.073	397.642	170.258	102.986	305.426	337.746	0.00044872	0.0005381	0.00014416	1250.5	3.9783e-06	3.2106e-06	1258.6	341.91	4.7032e-06	3.8521e-06	397.53	133.84	115.11	39.907	4.4631e-06	50.09	0.00034898	0.00026108	7.4472e-05	1266.1	3.0537e-06	2.9202e-06	1273.6	347.22	3.1161e-06	2.8738e-06	403.34	136.49	117.23	40.74	2.9345e-06	51.074	195.795	171.057	179.217	95.863	235.962	220.964	95.828	100.869	252.893	244.481	100.059	104.871	105.383	109.608	242.736	108.781	-8191	255	
994.029	1	1	0	0	0.14734	0.018793	0.051397	0.15493	0.13464	0.055245	0.11381	0.21007	0.22767	0.23734	0.077928	0.092483	0.20351	0.081242	0.1092	0.14521	-2.5708	-3.6833	-2.6833	-3.6625	-3.5021	-2.8812	-3.6417	-3.4813	-2.9813	-3.8625	-3.1521	-3.3646	-3.5625	-2.9792	-3.5042	-3.4479	317.130	406.558	338.585	381.832	272.206	268.991	298.065	396.872	201.184	380.807	429.969	411.951	403.115	305.285	349.849	419.987	0.0004303	0.00040933	0.0001035	1258.5	4.4297e-06	3.8512e-06	1264	341.55	4.1796e-06	6.0121e-06	397.02	133.49	115.58	39.83	4.4452e-06	50.156	0.00034747	0.00025857	7.0717e-05	1269.1	3.1079e-06	2.9513e-06	1272.8	346.81	3.0854e-06	2.9867e-06	403.3	136.36	117.25	40.721	2.9075e-06	51.174	196.568	176.878	153.004	95.854	250.702	217.838	96.089	100.268	248.824	255.905	99.530	103.915	104.600	108.971	236.177	108.125	-8191	255	
994.125	1	1	0	0	0.10451	0.07835	0.36263	0.1579	0.31193	0.095833	0.15954	0.06731	0.066813	0.15491	0.32822	0.048719	0.11732	0.21873	0.11017	0.14211	-2.3708	-3.6583	-2.8958	-3.4146	-3.6771	-2.8125	-3.7958	-3.4313	-2.7021	-3.7521	-3.3042	-3.3396	-3.6333	-2.925	-3.4562	-3.5812	174.855	128.852	363.251	355.677	111.375	362.681	419.149	99.024	269.741	343.720	346.317	426.034	412.709	435.047	98.779	175.775	0.00045084	0.00054887	0.00019156	1255.2	4.2806e-06	5.3474e-06	1260.2	340.43	5.087e-06	4.9773e-06	396.99	134.01	115.31	39.683	4.624e-06	50.075	0.00034695	0.00026196	7.2348e-05	1268.5	3.0795e-06	2.9295e-06	1274.6	347.13	3.1831e-06	2.8365e-06	402.44	136.39	117.16	40.691	2.8785e-06	51.144	194.289	170.105	161.940	95.305	249.789	244.563	95.183	100.099	255.858	235.293	99.578	104.463	104.929	109.068	236.292	108.107	-8191	255	
994.221	1	1	0	0	0.051244	0.1875	0.15794	0.31701	0.18308	0.12076	0.31295	0.10021	0.10231	0.12673	0.31002	0.1712	0.1444	0.107	0.18268	0.29543	-2.4896	-3.7854	-3.2354	-3.2438	-3.85	-3.0062	-3.4021	-3.5771	-2.8979	-3.8375	-3.0563	-3.2542	-3.7625	-3.0104	-3.3229	-3.65	177.761	111.642	203.900	94.596	317.661	183.656	436.221	97.020	409.708	381.148	332.690	100.596	436.030	150.784	390.304	320.857	0.00044222	0.0004413	0.00017509	1254.4	4.0604e-06	3.7665e-06	1258.7	341.67	4.2119e-06	5.0298e-06	395.11	134.05	114.85	39.796	4.3955e-06	50.129	0.00035076	0.00025669	7.3346e-05	1267.7	3.0726e-06	2.7851e-06	1272.3	346.73	2.9977e-06	2.738e-06	402.9	136.61	117.11	40.671	2.8943e-06	51.092	196.506	174.811	172.676	95.664	248.028	233.026	95.323	99.956	265.977	237.002	99.563	104.204	104.614	108.770	245.394	108.324	-8191	255	
#DATA ENDS
