BOXY.EXE: ISS Imagent and Oximeter Data Acquisition Program Version 0.80
Ascii Record File

#ACQ INFORMATION
2  Detector Channels 
16  External MUX Channels 
1  Auxiliary Channels 
5000  Waveform (CCF) Frequency (Hz)
1  Waveforms Skipped 
30  Waveforms Averaged 
1  Cycles Averaged 
16  Acquisitions per Waveform 
10.0806  Updata Rate (Hz) 

#FILE INFORMATION
TRUE -- External MUX Channel results are PARSED.
FALSE -- AC DC and Phase are NOT grouped.
TRUE -- Companion Program Settings File CREATED.
FALSE -- AC data not excluded
FALSE -- DC data not excluded
FALSE -- Phase data not excluded
FALSE -- Auxillary Chn. data not excluded
Tab delimiters

#CALIBRATION STATE
TRUE -- Waveform Calibration Values APPLIED.


#AUX CALIBRATION VALUES
Val Type	aux-1	

Term	1.0000e+00	
Factor	0.0000e+00	


#WF CALIBRATION VALUES
A = Detector Channel
Val Type	A-AC1	A-AC2	A-AC3	A-AC4	A-AC5	A-AC6	A-AC7	A-AC8	A-AC9	A-AC10	A-AC11	A-AC12	A-AC13	A-AC14	A-AC15	A-AC16	A-DC1	A-DC2	A-DC3	A-DC4	A-DC5	A-DC6	A-DC7	A-DC8	A-DC9	A-DC10	A-DC11	A-DC12	A-DC13	A-DC14	A-DC15	A-DC16	A-Ph1	A-Ph2	A-Ph3	A-Ph4	A-Ph5	A-Ph6	A-Ph7	A-Ph8	A-Ph9	A-Ph10	A-Ph11	A-Ph12	A-Ph13	A-Ph14	A-Ph15	A-Ph16	

Term	0.00000e+00	0.00000e+00	0.00000e+00	0.00000e+00	0.00000e+00	0.00000e+00	0.00000e+00	0.00000e+00	0.00000e+00	0.00000e+00	0.00000e+00	0.00000e+00	0.00000e+00	0.00000e+00	0.00000e+00	0.00000e+00	0.00000e+00	0.00000e+00	0.00000e+00	0.00000e+00	0.00000e+00	0.00000e+00	0.00000e+00	0.00000e+00	0.00000e+00	0.00000e+00	0.00000e+00	0.00000e+00	0.00000e+00	0.00000e+00	0.00000e+00	0.00000e+00	0.00000e+00	0.00000e+00	0.00000e+00	0.00000e+00	0.00000e+00	0.00000e+00	0.00000e+00	0.00000e+00	0.00000e+00	0.00000e+00	0.00000e+00	0.00000e+00	0.00000e+00	0.00000e+00	0.00000e+00	0.00000e+00	
Factor	1.00000e+00	1.00000e+00	1.00000e+00	1.00000e+00	1.00000e+00	1.00000e+00	1.00000e+00	1.00000e+00	1.00000e+00	1.00000e+00	1.00000e+00	1.00000e+00	1.00000e+00	1.00000e+00	1.00000e+00	1.00000e+00	1.00000e+00	1.00000e+00	1.00000e+00	1.00000e+00	1.00000e+00	1.00000e+00	1.00000e+00	1.00000e+00	1.00000e+00	1.00000e+00	1.00000e+00	1.00000e+00	1.00000e+00	1.00000e+00	1.00000e+00	1.00000e+00	X	X	X	X	X	X	X	X	X	X	X	X	X	X	X	X	

B = Detector Channel
Val Type	B-AC1	B-AC2	B-AC3	B-AC4	B-AC5	B-AC6	B-AC7	B-AC8	B-AC9	B-AC10	B-AC11	B-AC12	B-AC13	B-AC14	B-AC15	B-AC16	B-DC1	B-DC2	B-DC3	B-DC4	B-DC5	B-DC6	B-DC7	B-DC8	B-DC9	B-DC10	B-DC11	B-DC12	B-DC13	B-DC14	B-DC15	B-DC16	B-Ph1	B-Ph2	B-Ph3	B-Ph4	B-Ph5	B-Ph6	B-Ph7	B-Ph8	B-Ph9	B-Ph10	B-Ph11	B-Ph12	B-Ph13	B-Ph14	B-Ph15	B-Ph16	

Term	0.00000e+00	0.00000e+00	0.00000e+00	0.00000e+00	0.00000e+00	0.00000e+00	0.00000e+00	0.00000e+00	0.00000e+00	0.00000e+00	0.00000e+00	0.00000e+00	0.00000e+00	0.00000e+00	0.00000e+00	0.00000e+00	0.00000e+00	0.00000e+00	0.00000e+00	0.00000e+00	0.00000e+00	0.00000e+00	0.00000e+00	0.00000e+00	0.00000e+00	0.00000e+00	0.00000e+00	0.00000e+00	0.00000e+00	0.00000e+00	0.00000e+00	0.00000e+00	-9.97839e+01	-1.27879e+02	-1.28521e+02	-1.82006e+02	-5.58992e+01	-7.33021e+01	-1.57810e+02	-1.62015e+02	-5.12818e+01	-6.74143e+01	-1.72403e+02	-1.70165e+02	-1.80574e+02	-1.76604e+02	-6.35904e+01	-1.48996e+02	
Factor	1.65874e-05	1.60630e-04	4.67225e-05	1.56642e-01	1.23825e-06	1.65992e-06	1.81458e-01	5.32774e-02	1.10927e-06	1.85625e-06	9.31568e-02	3.11199e-02	4.21576e-02	9.47623e-03	1.36244e-06	1.40405e-02	8.31017e-06	1.23189e-05	3.42039e-06	7.89887e-02	1.27350e-07	1.35954e-07	8.60234e-02	2.70087e-02	1.27156e-07	1.36589e-07	4.55214e-02	1.53836e-02	2.16466e-02	4.83925e-03	1.31139e-07	6.92868e-03	X	X	X	X	X	X	X	X	X	X	X	X	X	X	X	X	



#DISTANCE SETTINGS
A = Detector Channel
A-1	A-2	A-3	A-4	A-5	A-6	A-7	A-8	A-9	A-10	A-11	A-12	A-13	A-14	A-15	A-16	

2.5000e+00	3.0000e+00	2.5000e+00	3.0000e+00	2.0000e+00	3.0000e+00	1.5000e+00	3.0000e+00	3.0000e+00	3.0000e+00	3.0000e+00	3.0000e+00	3.0000e+00	3.0000e+00	1.5000e+00	3.0000e+00	

B = Detector Channel
B-1	B-2	B-3	B-4	B-5	B-6	B-7	B-8	B-9	B-10	B-11	B-12	B-13	B-14	B-15	B-16	

1.0000e+01	1.0000e+01	1.0000e+01	1.4400e+00	1.0000e+01	1.0000e+01	1.5100e+00	1.9400e+00	1.0000e+01	1.0000e+01	1.9900e+00	2.4900e+00	2.4100e+00	2.9000e+00	1.0000e+01	2.9800e+00	




#DATA BEGINS
time	group	step	mark	flag	A-AC1	A-AC2	A-AC3	A-AC4	A-AC5	A-AC6	A-AC7	A-AC8	A-AC9	A-AC10	A-AC11	A-AC12	A-AC13	A-AC14	A-AC15	A-AC16	A-DC1	A-DC2	A-DC3	A-DC4	A-DC5	A-DC6	A-DC7	A-DC8	A-DC9	A-DC10	A-DC11	A-DC12	A-DC13	A-DC14	A-DC15	A-DC16	A-Ph1	A-Ph2	A-Ph3	A-Ph4	A-Ph5	A-Ph6	A-Ph7	A-Ph8	A-Ph9	A-Ph10	A-Ph11	A-Ph12	A-Ph13	A-Ph14	A-Ph15	A-Ph16	B-AC1	B-AC2	B-AC3	B-AC4	B-AC5	B-AC6	B-AC7	B-AC8	B-AC9	B-AC10	B-AC11	B-AC12	B-AC13	B-AC14	B-AC15	B-AC16	B-DC1	B-DC2	B-DC3	B-DC4	B-DC5	B-DC6	B-DC7	B-DC8	B-DC9	B-DC10	B-DC11	B-DC12	B-DC13	B-DC14	B-DC15	B-DC16	B-Ph1	B-Ph2	B-Ph3	B-Ph4	B-Ph5	B-Ph6	B-Ph7	B-Ph8	B-Ph9	B-Ph10	B-Ph11	B-Ph12	B-Ph13	B-Ph14	B-Ph15	B-Ph16	aux-1	digaux	

1897.922	1	1	0	768	0.22165	0.23898	0.1307	0.22549	0.25255	0.11369	0.20732	0.11406	0.1531	0.17352	0.29665	0.13379	0.2517	0.1167	0.16096	0.23382	-2.8146	-3.3771	-2.6375	-3.6042	-3.2604	-2.7771	-3.6833	-2.9938	-3.0271	-3.5271	-2.6188	-3.4521	-3.2313	-3.0417	-3.5563	-3.0667	-62.653	-4.952	-37.123	160.829	137.249	80.257	146.374	-22.500	-133.706	-47.473	80.335	159.679	103.228	-152.640	77.102	110.014	0.00080936	0.00058102	0.00022068	684.61	4.1768e-06	5.6839e-06	702.93	281.18	4.5204e-06	6.6997e-06	338.51	155.81	130.8	77.279	4.8067e-06	94.205	0.00043126	0.00018104	5.4498e-05	719.97	2.1175e-06	1.9878e-06	740.46	298.43	2.1807e-06	1.9825e-06	357.61	166.21	139.92	82.89	2.3498e-06	100.45	-134.850	-96.274	-95.628	-162.206	-29.280	-31.825	-162.916	-155.088	-22.814	-26.387	-157.326	-152.295	-150.052	-145.089	-36.214	-148.349	-8191	255	
1898.018	1	1	0	0	0.19183	0.17934	0.16498	0.19311	0.14879	0.067495	0.031663	0.23397	0.3564	0.11945	0.20285	0.26332	0.20234	0.29027	0.2077	0.3037	-2.5833	-3.3875	-2.7812	-3.3896	-3.2625	-2.6688	-3.4813	-3.025	-2.8292	-3.5563	-2.8021	-3.2875	-3.2167	-2.6979	-3.45	-3.1083	-81.699	-82.116	50.474	-122.689	86.814	-139.491	-155.261	150.011	162.957	-169.158	-171.023	77.178	-159.891	-156.041	-118.125	103.347	0.00078263	0.00054926	0.00015455	684.53	4.2872e-06	5.3839e-06	702.22	280.02	5.2965e-06	6.6521e-06	338.22	155.38	129.54	77.201	5.6528e-06	93.913	0.00042498	0.00017696	5.3828e-05	718.45	2.1127e-06	1.998e-06	738	297.96	2.275e-06	1.9797e-06	356.99	166.02	139.21	82.77	2.4124e-06	100.32	-135.167	-78.088	-77.711	-162.207	-15.972	-31.418	-162.922	-155.508	-37.181	-25.117	-157.389	-152.217	-150.001	-145.156	-38.257	-148.384	-8191	255	
1898.114	1	1	0	0	0.078134	0.16109	0.018624	0.15341	0.052181	0.11621	0.14731	0.26817	0.17799	0.075903	0.093184	0.091328	0.25709	0.1654	0.12204	0.051931	-2.5146	-3.2583	-2.6271	-3.3458	-3.2458	-2.6708	-3.4604	-3.0042	-2.725	-3.4042	-2.8729	-3.1792	-3.4625	-3.075	-3.2229	-3.5521	151.054	-25.106	163.744	174.238	-151.240	0.221	77.005	88.517	-51.076	182.762	165.798	-70.818	148.112	-169.150	40.535	-111.293	0.00077942	0.00053069	0.00016155	685.66	4.2757e-06	5.5855e-06	701.3	280.05	4.4732e-06	6.8064e-06	339.02	155.48	130.07	77.372	5.6382e-06	94.379	0.00042578	0.00018306	5.3037e-05	719.36	2.1167e-06	2.0274e-06	738.44	297.59	2.2022e-06	2.0818e-06	358.13	166.32	139.28	82.904	2.3947e-06	100.67	-134.407	-85.913	-82.537	-161.806	-26.993	-25.707	-162.624	-154.955	-23.728	-24.830	-157.177	-151.859	-149.953	-144.714	-36.944	-147.858	-8191	255	
1898.210	1	1	0	0	0.29239	0.27876	0.19404	0.22848	0.17939	0.21534	0.080211	0.1053	0.089514	0.19639	0.38349	0.11785	0.1798	0.29804	0.064289	0.19374	-2.2979	-3.4333	-2.8958	-3.2146	-3.5354	-2.5792	-3.3021	-3.2042	-2.7417	-3.4375	-3.0646	-3.0125	-3.5208	-2.8063	-3.1813	-3.2687	-45.399	-167.265	-84.770	-127.049	67.344	-3.992	-41.457	-18.318	171.533	34.277	168.418	92.374	105.957	130.370	37.996	167.942	0.00079213	0.00060478	0.00017949	683.2	4.3362e-06	5.4369e-06	702.43	280.3	4.0943e-06	6.2349e-06	339.12	156.05	131.04	77.578	5.5627e-06	94.699	0.0004281	0.00019294	5.3337e-05	717.75	2.0185e-06	2.0475e-06	739.15	298.17	2.2658e-06	1.9891e-06	358.38	166.83	139.88	83.042	2.3624e-06	101.22	-134.795	-76.048	-76.033	-161.263	-32.198	-22.991	-162.362	-155.428	-21.680	-18.304	-156.985	-151.844	-149.320	-144.493	-32.787	-147.918	-8191	255	
1898.306	1	1	0	0	0.24795	0.16182	0.16552	0.14906	0.15816	0.15823	0.13022	0.35862	0.21093	0.27194	0.059063	0.12464	0.047804	0.46407	0.082982	0.11486	-2.2354	-3.4604	-2.9313	-2.9562	-3.6188	-2.6458	-3.3542	-3.4271	-2.7333	-3.4562	-3.1979	-2.8583	-3.6417	-2.6646	-3.0812	-3.425	173.820	-112.615	52.884	35.877	-80.915	89.377	88.095	135.089	-152.035	9.302	-116.336	-118.285	90.357	151.138	96.400	161.282	0.00078636	0.00056238	0.00018256	685.74	4.1343e-06	4.8943e-06	706.69	281.56	4.0186e-06	6.6564e-06	338.55	156.06	130.32	77.26	5.8708e-06	93.665	0.00042515	0.00019276	5.4883e-05	718.48	2.1151e-06	1.9773e-06	741.09	298.12	2.2178e-06	1.9322e-06	357.55	166.47	139.63	82.833	2.2867e-06	100.29	-135.295	-84.346	-84.480	-162.269	-19.791	-24.818	-162.775	-154.518	-27.448	-28.891	-156.690	-151.500	-149.708	-145.245	-42.904	-148.626	-8191	255	
1898.402	1	1	0	0	0.19507	0.048224	0.098752	0.16888	0.22148	0.25862	0.046563	0.34829	0.20557	0.25296	0.21495	0.17968	0.38014	0.02449	0.2177	0.20574	-2.2125	-3.4375	-3.125	-2.8375	-3.5479	-2.8917	-3.1479	-3.7125	-2.5938	-3.575	-3.4042	-2.9146	-3.5375	-2.8917	-3.1	-3.7333	-121.930	121.183	53.982	151.765	167.874	-91.607	99.572	163.400	-136.566	-27.151	111.736	92.588	162.209	-78.167	-120.541	172.116	0.00079445	0.0006321	0.00017553	685.61	4.5451e-06	6.0527e-06	706.71	280.57	4.3372e-06	7.4166e-06	337.54	155.58	130.22	77.115	5.7396e-06	93.671	0.00042924	0.00018891	5.1049e-05	719.14	2.023e-06	1.9444e-06	740.66	298.09	2.2152e-06	1.8508e-06	357.05	165.87	139.47	82.71	2.3031e-06	100.15	-134.421	-88.120	-83.468	-162.056	-16.532	-27.300	-162.140	-154.667	-28.301	-19.171	-157.471	-152.191	-149.636	-144.346	-35.664	-147.862	-8191	255	
1898.523	1	1	0	0	0.34111	0.13689	0.044846	0.24145	0.18789	0.30665	0.10279	0.21966	0.18624	0.21278	0.13311	0.16223	0.095504	0.11779	0.16703	0.17031	-2.1896	-3.3708	-3.2854	-2.9125	-3.5729	-2.9125	-3.1729	-3.6854	-2.7125	-3.3063	-3.3875	-2.7604	-3.5833	-3.4021	-2.8229	-3.7583	96.851	118.344	-7.523	158.628	-116.009	22.974	-153.342	127.045	19.057	7.209	68.936	-123.044	-18.874	120.636	-100.690	8.159	0.0007763	0.0006689	0.00018865	687.87	4.0778e-06	6.3573e-06	704.96	283.21	4.2807e-06	7.045e-06	340.17	155.27	130.94	77.292	6.1434e-06	93.735	0.00042056	0.00018689	4.966e-05	721.19	2.001e-06	1.994e-06	741.58	300.09	2.2186e-06	1.8898e-06	358.99	165.91	139.94	82.762	2.4201e-06	100.23	-135.038	-83.864	-76.848	-161.196	-18.542	-29.356	-162.708	-154.822	-17.441	-31.587	-156.864	-151.618	-149.466	-144.390	-35.200	-147.656	-8191	255	
1898.619	1	1	0	0	0.031727	0.20417	0.10318	0.17348	0.20196	0.31286	0.16997	0.1269	0.13195	0.10135	0.13971	0.024758	0.16113	0.21296	0.088606	0.049439	-2.3854	-3.1063	-3.2854	-3.0125	-3.3646	-3.1063	-2.875	-3.6271	-2.8479	-3.1813	-3.4021	-2.8167	-3.3979	-3.4083	-2.625	-3.7292	-2.926	134.192	-8.098	132.477	-92.338	45.190	137.186	125.863	31.990	-113.402	80.785	99.977	-155.968	-109.992	-92.641	155.120	0.00077168	0.00067959	0.00016909	684.9	4.0167e-06	5.3224e-06	705.06	282.59	4.5652e-06	6.9629e-06	338.68	155.42	130.26	77.174	5.9418e-06	94.19	0.00041428	0.0001912	4.8406e-05	721.55	2.032e-06	1.9096e-06	742.84	300.04	2.2313e-06	1.8713e-06	359.25	166.19	139.58	82.69	2.3029e-06	100.6	-134.371	-92.537	-75.907	-162.322	-26.656	-37.910	-163.515	-155.953	-31.460	-22.789	-157.789	-152.648	-150.268	-145.247	-45.867	-148.610	-8191	255	
1898.715	1	1	0	0	0.22616	0.19975	0.18896	0.14355	0.084546	0.066063	0.15855	0.32312	0.12837	0.16267	0.1601	0.12141	0.10607	0.3	0.22437	0.23023	-2.5146	-2.9583	-3.4917	-2.7896	-3.4437	-3.2771	-2.8208	-3.6354	-2.8542	-2.9792	-3.6458	-2.6979	-3.4396	-3.2917	-2.8333	-3.8187	-81.389	-90.081	-3.304	137.415	-153.543	55.888	105.306	135.825	-171.134	-11.892	17.345	64.338	-144.349	140.508	-20.051	142.787	0.00077789	0.00051604	0.0001765	688.79	3.9698e-06	5.1101e-06	705.46	282.55	4.8304e-06	6.0238e-06	340.2	156.41	131.11	77.239	6.0804e-06	94.422	0.00041677	0.0001834	5.0037e-05	723.29	1.9564e-06	1.9288e-06	743.89	300.49	2.1556e-06	1.9387e-06	360.64	167.24	140.36	82.927	2.3671e-06	101.1	-134.289	-78.461	-81.995	-162.366	-26.757	-38.026	-163.538	-155.708	-23.341	-26.009	-157.906	-152.779	-150.417	-145.276	-49.961	-148.705	-8191	255	
1898.812	1	1	0	0	0.021103	0.16669	0.27094	0.21234	0.19345	0.22299	0.15799	0.24561	0.01029	0.1045	0.2793	0.12977	0.27905	0.057295	0.18923	0.12432	-2.5312	-2.9437	-3.2792	-2.7125	-3.1708	-3.3104	-2.875	-3.6104	-2.9313	-2.8958	-3.5187	-2.7979	-3.3146	-3.3979	-2.75	-3.5083	99.384	118.121	157.423	169.615	-0.820	-44.634	-110.216	137.776	58.603	-10.107	174.665	147.393	92.906	179.413	136.087	82.849	0.00078254	0.00063439	0.0001538	686.48	4.9636e-06	6.3433e-06	706.14	283.64	4.9713e-06	7.2538e-06	341.63	155.69	130.54	77.071	5.0307e-06	93.976	0.00042498	0.00018358	5.1641e-05	721.78	2.0134e-06	1.9861e-06	742.84	300.89	2.2462e-06	2.0093e-06	361.13	166.76	140.29	82.854	2.3397e-06	100.36	-134.418	-91.437	-80.049	-162.398	-21.784	-36.068	-163.316	-155.725	-25.173	-26.108	-157.969	-152.915	-150.237	-145.437	-39.660	-148.758	-8191	255	
1898.906	1	1	0	0	0.18499	0.15503	0.21634	0.11593	0.18551	0.12681	0.105	0.26929	0.15052	0.35174	0.29004	0.10234	0.28284	0.068106	0.25197	0.1205	-2.7438	-2.6813	-3.4271	-2.7479	-3.2	-3.5146	-2.7417	-3.4583	-3.0125	-2.7583	-3.4542	-3.0958	-2.8958	-3.8063	-2.6917	-3.5125	107.990	101.683	99.180	134.051	-17.554	-133.321	-170.137	143.817	-154.553	49.903	-159.668	129.950	114.729	126.270	77.549	179.667	0.00079854	0.00058111	0.00018415	685.3	3.3671e-06	5.7004e-06	702.38	282.38	4.6669e-06	6.6426e-06	339.71	155.02	130.73	76.978	4.6143e-06	93.375	0.00042093	0.00018858	5.0016e-05	721.34	1.9572e-06	1.9365e-06	740.33	300.35	2.1881e-06	2.0135e-06	358.92	165.8	139.92	82.64	2.3518e-06	100.01	-136.216	-101.769	-88.104	-162.482	-13.697	-29.763	-163.659	-155.863	-23.659	-32.321	-157.965	-152.948	-150.311	-145.492	-41.588	-148.773	-8191	255	
1899.002	1	1	0	0	0.30176	0.18059	0.24488	0.21339	0.10133	0.20147	0.31964	0.21667	0.19724	0.041801	0.057725	0.2161	0.053458	0.19951	0.070754	0.1565	-2.7542	-2.4833	-3.5333	-2.8896	-3.0563	-3.6417	-2.7917	-3.3917	-3.1854	-2.6896	-3.4021	-3.2938	-2.9125	-3.5625	-2.5667	-3.4104	114.572	32.876	85.810	127.980	-22.405	86.123	79.155	-97.787	-0.536	46.185	-47.578	166.054	-27.815	-145.385	18.304	173.322	0.00077142	0.00055068	0.00017957	685.84	4.0591e-06	6.5088e-06	704.58	283.19	4.368e-06	5.8707e-06	339.65	155.46	130.75	77	5.7674e-06	93.685	0.00041646	0.00018986	4.9781e-05	720.67	2.0522e-06	1.898e-06	739.89	300.7	2.1272e-06	1.9427e-06	359.83	166.27	140.07	82.698	2.3755e-06	100.2	-134.611	-87.190	-86.465	-162.419	-24.619	-24.346	-163.639	-155.906	-28.520	-24.523	-158.010	-152.951	-150.669	-145.429	-38.053	-148.845	-8191	255	
1899.123	1	1	0	0	0.11791	0.23697	0.2052	0.1227	0.28038	0.050603	0.21668	0.15865	0.11098	0.13861	0.12323	0.11362	0.17922	0.24467	0.09735	0.21189	-2.8917	-2.5708	-3.3896	-3.0583	-2.8896	-3.4146	-2.7854	-3.2792	-3.3542	-2.6146	-3.4896	-3.0604	-2.7062	-3.6979	-2.8792	-3.3542	153.002	115.980	-86.900	137.077	-151.980	81.964	169.268	-21.990	-104.173	-18.713	80.993	92.632	130.868	105.680	-19.112	85.448	0.000791	0.00058548	0.00013353	688.82	4.4098e-06	5.0992e-06	703.78	281.83	3.9968e-06	4.9574e-06	340.58	155.98	131.2	77.309	6.093e-06	94.142	0.00042304	0.00019223	5.1341e-05	722.56	2.1031e-06	1.9427e-06	742.56	300.61	2.1386e-06	1.9962e-06	360.52	166.89	140.25	82.935	2.4447e-06	100.74	-135.250	-85.482	-81.529	-162.533	-23.417	-34.545	-163.809	-155.796	-36.077	-19.400	-158.119	-153.035	-150.301	-145.363	-37.952	-148.981	-8191	255	
1899.219	1	1	0	0	0.079996	0.25537	0.049718	0.14164	0.2347	0.28013	0.22358	0.23708	0.024664	0.15081	0.21804	0.12682	0.15961	0.28478	0.35862	0.11856	-2.9958	-2.675	-3.4146	-3.1708	-2.8021	-3.5854	-2.7417	-3.0438	-3.4875	-2.7083	-3.4417	-3.1833	-2.7604	-3.5958	-2.7125	-2.9854	-19.356	84.196	80.495	173.846	127.472	48.734	102.602	122.210	42.695	-90.526	-124.502	64.010	167.070	183.335	-135.795	117.134	0.00077278	0.00061327	0.00015282	687.24	3.8394e-06	6.2649e-06	706.76	283.08	4.4264e-06	5.5043e-06	343.04	157.48	131.35	77.71	5.1628e-06	94.612	0.00042269	0.00018686	5.0066e-05	722.79	2.1641e-06	1.9186e-06	743.94	301.37	2.1844e-06	2.0039e-06	362.35	167.99	140.76	83.346	2.4083e-06	101.36	-134.645	-80.049	-84.234	-162.568	-19.670	-24.106	-163.469	-155.872	-40.930	-33.021	-157.939	-152.920	-150.744	-145.405	-46.372	-148.936	-8191	255	
1899.315	1	1	0	0	0.25527	0.21884	0.19868	0.29733	0.26296	0.072674	0.24751	0.085666	0.18881	0.17253	0.02807	0.16404	0.10881	0.11648	0.16803	0.17401	-3.2333	-2.6458	-3.2333	-3.0958	-2.8083	-3.4292	-3.0292	-2.9188	-3.4958	-2.725	-3.3563	-3.2562	-2.75	-3.6437	-2.9313	-2.9729	-155.421	180.571	-140.035	174.903	179.449	11.454	93.914	-30.180	159.920	111.120	-45.437	114.289	-110.110	42.305	64.922	-163.306	0.00079927	0.00064592	0.00021929	690.2	3.77e-06	6.0806e-06	707.02	283.17	5.0995e-06	6.3981e-06	341.99	156.51	131.23	77.436	6.3238e-06	94.146	0.00042392	0.00019538	5.1505e-05	723.93	2.0647e-06	1.9589e-06	744.22	301.28	2.1715e-06	2.0266e-06	361.44	167.33	140.59	83.111	2.3676e-06	100.59	-135.945	-96.110	-80.129	-162.651	-30.684	-11.705	-163.684	-155.939	-27.907	-22.706	-158.025	-152.968	-150.696	-145.497	-37.632	-148.876	-8191	255	
1899.411	1	1	0	0	0.10445	0.07131	0.19971	0.26337	0.10695	0.088155	0.23756	0.16217	0.05339	0.11438	0.20711	0.25692	0.059971	0.11931	0.037505	0.026929	-2.9542	-2.8063	-3.0167	-3.4792	-2.6833	-3.3583	-2.8396	-2.9917	-3.5375	-2.6792	-3.1	-3.3396	-2.6542	-3.4792	-3.0687	-2.825	-122.250	149.198	-36.368	-160.153	-11.096	113.157	-170.593	166.106	174.844	10.680	52.959	153.071	-94.530	-43.558	109.464	-91.254	0.00077805	0.00063569	0.00019747	686.52	3.8266e-06	5.1096e-06	701.56	282.6	4.3881e-06	6.4637e-06	339.36	155.6	130.45	77.359	4.7477e-06	93.793	0.00041795	0.00018684	5.132e-05	721.14	2.0976e-06	1.8903e-06	740.19	300.02	2.1076e-06	2.0292e-06	359.67	166.38	139.86	82.918	2.2914e-06	100.14	-135.718	-72.440	-78.276	-162.514	-29.982	-28.021	-163.657	-155.944	-28.320	-29.611	-158.169	-152.859	-150.546	-145.452	-45.351	-148.823	-8191	255	
1899.483	1	1	0	0	0.12951	0.14534	0.2264	0.1941	0.075097	0.13779	0.29781	0.11723	0.26476	0.15113	0.011421	0.18571	0.16108	0.32152	0.099594	0.26542	-2.9688	-2.8125	-3.15	-3.5896	-2.5187	-3.3729	-3.3333	-2.9333	-3.4625	-2.7917	-3.1292	-3.6604	-2.6354	-3.5396	-3.2938	-3.1729	-70.737	179.076	169.245	172.225	70.436	-82.220	133.602	-157.078	-39.333	-85.068	-173.739	-104.622	167.083	183.141	39.826	172.299	0.00077891	0.00064334	0.00018789	685.58	3.5862e-06	6.3278e-06	710.9	282.61	4.3972e-06	6.2361e-06	338.73	155.65	130.76	77.382	4.7349e-06	93.386	0.00041463	0.0001904	5.1605e-05	721.76	2.0737e-06	1.9218e-06	743.47	300.18	2.1209e-06	1.9962e-06	359.95	166.69	139.96	82.826	2.3444e-06	100.29	-134.926	-83.232	-85.984	-162.396	-31.049	-16.889	-163.654	-155.783	-25.375	-22.606	-158.215	-153.085	-150.662	-145.601	-34.057	-148.927	-8191	255	
1899.603	1	1	0	0	0.25985	0.30473	0.053594	0.033016	0.26954	0.09244	0.1965	0.020372	0.19678	0.090734	0.071661	0.14376	0.12314	0.13529	0.24697	0.33023	-3.1042	-2.8688	-2.9521	-3.7208	-2.6937	-3.4479	-3.3708	-2.7208	-3.5354	-3.0729	-2.9583	-3.6792	-2.7188	-3.5146	-3.3208	-2.9083	16.110	-113.247	181.166	-7.619	127.129	184.022	114.938	-78.915	-26.725	74.030	172.023	157.795	-159.632	124.269	-108.672	-155.888	0.00079468	0.00058086	0.00015993	684.96	3.5317e-06	5.7565e-06	705.5	281.98	4.6918e-06	7.2977e-06	340.41	156.09	131.17	77.112	4.8793e-06	93.616	0.0004234	0.0001933	5.122e-05	721.17	2.1363e-06	1.8968e-06	743.22	300.09	2.1685e-06	1.9928e-06	360.56	166.79	140.2	82.716	2.3012e-06	100.34	-134.982	-80.079	-89.101	-162.532	-20.832	-31.837	-163.789	-155.950	-34.783	-30.386	-158.174	-152.881	-150.825	-145.498	-45.739	-148.944	-8191	255	
1899.700	1	1	0	0	0.31208	0.077948	0.10398	0.12559	0.37591	0.21174	0.20688	0.33272	0.27474	0.023721	0.37438	0.11864	0.21728	0.087738	0.133	0.053683	-2.9979	-3.1542	-2.7229	-3.7479	-2.7354	-3.3292	-3.3937	-2.9417	-3.5	-3.2687	-2.8375	-3.6396	-2.9167	-3.2542	-3.5125	-2.925	96.329	124.174	25.130	-128.525	-129.706	-19.471	164.336	183.328	20.813	-133.735	-160.959	164.172	-173.217	112.448	41.278	165.072	0.00078457	0.00055732	0.00018814	686.12	4.2073e-06	4.2209e-06	704.31	282.51	4.8547e-06	7.0514e-06	341.77	156.51	130.73	77.124	5.4546e-06	93.826	0.00041523	0.00018899	5.1826e-05	720.83	2.1182e-06	1.8966e-06	743.09	300.28	2.1781e-06	2.0753e-06	361.95	167.39	140.2	82.86	2.3179e-06	100.56	-134.532	-82.207	-83.628	-162.712	-23.822	-17.264	-163.781	-155.992	-28.072	-25.676	-158.167	-153.088	-150.604	-145.511	-33.803	-148.934	-8191	255	
1899.796	1	1	0	0	0.1295	0.20611	0.02692	0.29269	0.14254	0.14627	0.10096	0.23823	0.063869	0.078582	0.17934	0.10409	0.25711	0.090802	0.24811	0.13043	-2.9313	-3.1	-2.8271	-3.5292	-2.8667	-2.9188	-3.5646	-2.6521	-3.4104	-3.3729	-2.7625	-3.5333	-3.0771	-3.0646	-3.4333	-2.9979	-11.336	-30.258	56.242	159.084	-102.169	130.586	182.206	85.398	-32.603	168.361	159.908	-171.132	41.458	-126.992	104.554	134.060	0.00077741	0.00053325	0.00018056	685.22	3.402e-06	4.898e-06	702.73	281.93	4.3132e-06	5.9911e-06	339.62	155.15	130.46	77.008	6.1387e-06	93.172	0.00042065	0.00018607	5.0665e-05	720.35	2.0731e-06	1.9436e-06	739.98	299.5	2.1447e-06	1.927e-06	358.83	166.09	139.8	82.615	2.2936e-06	99.831	-134.610	-85.066	-86.832	-162.642	-10.810	-33.543	-163.903	-156.103	-28.371	-19.473	-158.300	-153.208	-150.949	-145.460	-41.766	-149.031	-8191	255	
1899.892	1	1	0	0	0.3457	0.1964	0.094943	0.11059	0.065544	0.1098	0.0096372	0.35395	0.02643	0.22908	0.13063	0.1366	0.16919	0.06446	0.26959	0.2192	-2.675	-3.3604	-2.5	-3.7021	-2.8854	-3.0563	-3.4833	-2.8958	-3.2062	-3.4146	-2.7125	-3.3833	-3.1354	-2.8667	-3.5042	-2.9167	46.537	147.258	-24.184	-120.457	-144.275	-72.660	50.895	128.228	12.046	-25.471	-136.811	135.318	182.069	-133.064	-140.022	152.593	0.00078641	0.00055702	0.00018428	682.34	3.6683e-06	6.1981e-06	702	280.58	4.6889e-06	6.4394e-06	338.79	154.97	130.36	76.839	4.9682e-06	93.242	0.00041539	0.00018163	5.3073e-05	718.71	2.0161e-06	1.9909e-06	739.67	298.86	2.0981e-06	1.8471e-06	358.51	165.69	139.65	82.459	2.3187e-06	99.781	-134.786	-83.803	-92.861	-162.791	-17.749	-25.917	-163.766	-156.238	-20.418	-22.549	-158.399	-153.055	-150.814	-145.736	-46.970	-149.092	-8191	255	
1900.011	1	1	0	0	0.28867	0.14418	0.098358	0.1307	0.2548	0.25848	0.058196	0.2803	0.1503	0.24997	0.1762	0.29244	0.14214	0.30958	0.011696	0.2955	-2.5125	-3.2229	-2.6458	-3.6271	-3.0792	-2.9667	-3.5708	-2.9167	-3.0875	-3.4958	-2.925	-3.6771	-3.3271	-2.7542	-3.5417	-2.9604	52.186	64.210	13.049	129.429	-104.350	183.308	115.802	94.127	144.839	-58.620	145.628	184.612	-49.862	-167.962	-121.995	85.020	0.00078525	0.00053026	0.00012835	683.35	4.5055e-06	5.2494e-06	699.31	280.89	4.6349e-06	6.1683e-06	338.99	155.22	130.55	76.926	5.4386e-06	93.685	0.00042294	0.00018807	5.1534e-05	719.27	2.0402e-06	2.0461e-06	739.91	299.24	2.1262e-06	1.8918e-06	358.95	166.12	139.75	82.555	2.3004e-06	100.22	-134.252	-82.967	-80.968	-162.733	-10.507	-29.335	-164.029	-156.117	-37.227	-19.800	-158.364	-152.964	-150.816	-145.549	-44.514	-149.075	-8191	255	
1900.084	1	1	0	0	0.22556	0.23273	0.17148	0.26552	0.17332	0.2338	0.18195	0.23991	0.13361	0.12656	0.13902	0.066994	0.19899	0.23799	0.076868	0.39821	-2.7354	-3.4313	-2.6312	-3.5146	-3.15	-2.8854	-3.5292	-3.0438	-2.8375	-3.4917	-2.7938	-3.5938	-3.4083	-2.9167	-3.4188	-3.2021	-51.050	166.417	-103.471	-172.456	-107.369	107.001	182.475	153.704	25.751	-172.555	-125.324	101.357	53.819	-139.008	-147.017	130.568	0.00078929	0.00067136	0.00014799	683.71	4.2963e-06	5.5501e-06	705.3	280.83	5.0955e-06	6.4591e-06	341.06	156.74	131.08	77.124	5.1516e-06	94.254	0.00041831	0.00018881	5.3935e-05	719.05	2.0548e-06	1.9832e-06	741.36	299.44	2.195e-06	1.8903e-06	360.53	167.33	140.26	82.974	2.3414e-06	101.02	-134.898	-75.104	-88.136	-162.744	-26.346	-23.520	-163.674	-156.106	-19.736	-19.215	-158.634	-153.377	-150.786	-145.727	-41.735	-149.147	-8191	255	
1900.203	1	1	0	0	0.11957	0.13474	0.33712	0.09609	0.079656	0.045834	0.075588	0.1012	0.12332	0.24443	0.15358	0.21525	0.16766	0.20594	0.21306	0.28756	-2.4979	-3.4479	-2.5375	-3.3167	-3.3021	-2.7375	-3.5062	-3.2583	-2.9083	-3.7146	-2.8333	-3.2	-3.4437	-2.875	-3.4417	-3.3438	-7.721	138.289	166.141	143.324	-82.640	80.750	151.695	-54.631	58.860	-20.816	132.385	146.467	108.388	-145.406	-69.373	111.255	0.00080281	0.00057361	0.00015335	684.42	4.6701e-06	5.8594e-06	707.97	282.62	4.7446e-06	6.0454e-06	340.74	156.62	130.88	77.211	4.7064e-06	93.667	0.00042841	0.00018358	5.3002e-05	720.87	2.0235e-06	2.0274e-06	745.43	300.34	2.1611e-06	2.0141e-06	360.88	167.25	139.97	82.915	2.3176e-06	100.66	-134.578	-76.716	-97.906	-162.750	-26.600	-35.740	-163.869	-156.079	-37.116	-27.261	-158.233	-153.136	-150.797	-145.723	-49.062	-149.045	-8191	255	
1900.299	1	1	0	0	0.1004	0.14798	0.20509	0.16622	0.2176	0.069363	0.032398	0.12621	0.3366	0.018561	0.061896	0.29679	0.10548	0.14866	0.060514	0.2067	-2.3854	-3.5792	-2.6792	-3.0083	-3.3604	-2.525	-3.3396	-3.3333	-2.7833	-3.5438	-2.8104	-3.0875	-3.3312	-2.85	-3.1729	-3.6063	79.785	159.906	-77.661	-62.057	121.930	-22.505	27.488	153.614	171.767	149.322	138.872	-169.603	127.917	-173.349	-90.331	90.001	0.00078805	0.00065097	0.00014841	682.39	4.5285e-06	5.6568e-06	703.25	280.69	4.338e-06	7.697e-06	336.81	155.04	130.14	76.827	5.4309e-06	93.422	0.0004255	0.00018132	5.4662e-05	718.09	2.0259e-06	2.0829e-06	739.79	298.51	2.1677e-06	1.9296e-06	357.65	165.79	139.43	82.549	2.3102e-06	99.902	-134.784	-88.785	-78.594	-162.682	-34.626	-32.169	-163.904	-156.152	-32.897	-24.528	-158.341	-153.184	-150.734	-145.720	-36.534	-149.122	-8191	255	
1900.395	1	1	0	0	0.14347	0.10361	0.19631	0.066434	0.12034	0.13737	0.15672	0.21719	0.24789	0.14485	0.10288	0.25362	0.25904	0.24578	0.076208	0.1332	-2.4	-3.625	-2.9854	-2.8854	-3.5854	-2.8854	-3.2	-3.4396	-2.5021	-3.4708	-3	-2.7458	-3.5292	-2.8729	-3.2604	-3.4042	163.196	-74.427	111.616	163.935	-90.763	84.306	-68.103	84.582	-154.572	110.220	-62.504	-150.461	140.127	140.396	101.916	154.903	0.00078345	0.00058346	0.00021288	680.29	3.7784e-06	6.0725e-06	701.86	281.16	4.1368e-06	6.7273e-06	338.2	155.08	129.87	76.919	5.695e-06	93.657	0.0004242	0.00018134	5.3237e-05	717.75	2.0567e-06	2.0393e-06	739.17	298.49	2.2173e-06	1.9194e-06	357.67	165.96	139.28	82.611	2.3646e-06	100.14	-134.948	-80.116	-74.769	-162.832	-29.474	-31.368	-163.969	-156.086	-35.185	-16.990	-158.328	-153.382	-150.901	-145.795	-42.399	-149.196	-8191	255	
1900.492	1	1	0	0	0.39944	0.15898	0.31409	0.27436	0.051882	0.074935	0.1919	0.29008	0.24975	0.11719	0.20277	0.4207	0.19966	0.15598	0.28485	0.27381	-2.4333	-3.4167	-2.8229	-3.0104	-3.4313	-2.8	-3.1833	-3.3708	-2.7687	-3.4562	-3.2125	-2.7042	-3.6	-2.9313	-3.2438	-3.6125	-64.633	145.360	-96.179	-72.191	25.398	142.133	110.439	74.349	-96.226	-5.936	115.221	-116.397	15.285	-119.860	78.751	175.995	0.00078887	0.00054961	0.00016399	683.9	5.1357e-06	5.1838e-06	702.59	280.02	4.8504e-06	4.6351e-06	339.32	156	130.87	76.781	5.0364e-06	93.768	0.00042718	0.0001786	5.3087e-05	719.18	2.0591e-06	2.0345e-06	741.62	298.59	2.2787e-06	1.8058e-06	359.14	166.61	139.71	82.486	2.2851e-06	100.34	-135.439	-80.541	-83.598	-162.509	-26.254	-39.394	-163.589	-156.201	-25.818	-22.801	-158.517	-153.288	-150.988	-145.934	-44.935	-149.236	-8191	255	
1900.612	1	1	0	0	0.045877	0.12135	0.17898	0.13388	0.32779	0.03795	0.15425	0.17474	0.35104	0.132	0.11924	0.17725	0.087912	0.23582	0.23827	0.22669	-2.3	-3.3292	-3.0021	-2.75	-3.6146	-2.8063	-3.2229	-3.6437	-2.6562	-3.2313	-3.3958	-2.8937	-3.4604	-3.1333	-2.7875	-3.7417	-98.327	147.085	118.423	-52.100	-131.693	20.738	-128.477	56.771	-42.529	-41.649	147.258	129.927	63.881	132.392	-79.578	135.385	0.00079323	0.00055282	0.00015497	681.95	3.6944e-06	5.3214e-06	704.75	281.15	3.8176e-06	5.9777e-06	340.37	155.96	130.37	77.067	5.5071e-06	94.29	0.00043119	0.00018075	5.179e-05	718.08	2.0294e-06	1.9212e-06	742.62	299.52	2.2472e-06	1.9214e-06	360.43	166.79	139.83	82.72	2.3597e-06	100.94	-133.463	-84.993	-81.217	-162.608	-26.657	-25.689	-163.792	-156.237	-25.813	-21.402	-158.346	-153.236	-150.796	-145.750	-46.710	-149.121	-8191	255	
1900.708	1	1	0	0	0.07369	0.15594	0.22466	0.18172	0.006614	0.018293	0.28422	0.11405	0.26867	0.17492	0.11014	0.10542	0.02394	0.33508	0.26545	0.062327	-2.1646	-3.25	-3.1875	-2.8542	-3.4313	-3.2188	-2.9354	-3.7542	-2.7583	-3.2771	-3.4667	-2.8083	-3.4583	-3.2083	-2.7521	-3.7708	122.411	-69.418	120.104	171.592	40.153	-47.134	-132.066	-35.132	-28.592	-38.454	-154.103	-146.873	23.405	178.218	145.021	-96.920	0.00080098	0.00068312	0.00018694	684.22	4.263e-06	4.9118e-06	707.36	281.28	4.5085e-06	6.7604e-06	339.56	155.53	130.9	76.948	6.3937e-06	93.766	0.00042903	0.00018522	5.0957e-05	721.37	2.0408e-06	1.9096e-06	743.79	299.49	2.2311e-06	1.9675e-06	359.92	166.51	139.46	82.559	2.4444e-06	100.21	-134.304	-91.778	-84.252	-162.635	-26.840	-40.207	-163.752	-156.112	-20.247	-28.688	-158.449	-153.096	-150.679	-145.753	-44.739	-149.176	-8191	255	
1900.804	1	1	0	0	0.26585	0.13542	0.1273	0.17125	0.10339	0.10758	0.17809	0.14655	0.17404	0.16186	0.42347	0.087292	0.054593	0.16898	0.12329	0.20807	-2.3271	-2.9875	-3.3667	-2.7479	-3.4562	-3.3042	-2.7604	-3.6833	-2.7687	-2.9333	-3.5417	-2.9875	-3.3438	-3.4167	-2.8521	-3.7062	-2.887	-106.698	-140.973	117.473	174.696	142.614	129.031	-26.351	143.661	-64.776	113.870	47.877	136.991	155.076	91.102	-14.101	0.0007866	0.00048972	0.00019044	681.24	4.1406e-06	5.7966e-06	704.88	280.91	5.4752e-06	6.7389e-06	338.22	154.08	129.83	76.618	4.6036e-06	92.891	0.00042846	0.00017942	5.0045e-05	717.97	1.9965e-06	1.956e-06	741.52	298.8	2.1956e-06	1.9675e-06	357.99	165.06	139.02	82.167	2.3545e-06	99.586	-134.322	-79.986	-86.281	-162.709	-20.158	-34.308	-163.771	-156.217	-34.101	-23.977	-158.278	-153.047	-150.741	-145.648	-38.589	-149.394	-8191	255	
1900.899	1	1	0	0	0.084664	0.045565	0.088383	0.103	0.30007	0.20352	0.21445	0.22573	0.18879	0.17515	0.074352	0.084539	0.1759	0.22075	0.29205	0.20568	-2.5604	-2.8771	-3.5771	-3.0125	-3.3688	-3.2854	-2.8208	-3.8063	-2.8875	-3.0979	-3.7458	-2.8208	-3.3	-3.5333	-2.8208	-3.6667	-171.868	-168.369	108.622	56.349	76.499	102.965	-97.094	107.800	90.294	-47.680	135.617	103.724	121.766	86.019	10.024	146.522	0.00078076	0.00061927	0.00013864	684.09	4.2271e-06	4.6357e-06	704.7	279.94	4.8716e-06	5.4952e-06	338.8	154.52	129.62	76.48	5.4562e-06	93.372	0.00041843	0.00018335	4.8912e-05	719.4	1.9508e-06	1.8096e-06	741.87	298.34	2.2133e-06	1.937e-06	358.27	165.25	138.88	82.204	2.3458e-06	99.803	-135.979	-83.671	-93.773	-162.819	-19.276	-29.904	-163.795	-156.128	-37.555	-29.120	-158.540	-153.179	-150.819	-145.799	-44.580	-149.166	-8191	255	
1900.995	1	1	0	0	0.3233	0.14638	0.098516	0.17278	0.19169	0.28245	0.23324	0.20398	0.11825	0.042914	0.15666	0.24018	0.253	0.14071	0.27257	0.36025	-2.4938	-2.8083	-3.4208	-3.0167	-3.1917	-3.5792	-2.7667	-3.5958	-3.1729	-2.9	-3.5083	-3.0021	-3.2125	-3.5042	-2.6979	-3.5687	-32.661	-86.245	13.230	129.057	0.238	-156.605	-124.582	82.043	-99.034	-66.037	144.111	127.869	88.392	-138.753	167.436	156.793	0.00077871	0.00045929	0.00017259	683.63	4.398e-06	5.9094e-06	701.88	280.49	5.16e-06	6.3287e-06	337.66	154.88	130.58	76.736	5.5032e-06	93.643	0.00041965	0.00019092	4.9239e-05	718.34	2.0015e-06	1.8181e-06	739.39	298.3	2.1985e-06	1.9777e-06	358.59	165.94	139.38	82.429	2.4001e-06	100.41	-135.001	-80.402	-87.495	-162.794	-12.570	-34.289	-163.943	-155.966	-26.874	-18.648	-158.152	-153.106	-150.643	-145.679	-40.774	-149.137	-8191	255	
1901.091	1	1	0	0	0.1624	0.28733	0.19833	0.32474	0.051426	0.026315	0.41894	0.27998	0.10545	0.057709	0.35717	0.18566	0.19683	0.27418	0.072069	0.13661	-2.8458	-2.6979	-3.5229	-2.925	-3.0958	-3.3979	-2.6188	-3.4896	-3.2396	-2.7604	-3.4	-3.0479	-2.8729	-3.6417	-2.7729	-3.3729	94.014	-137.459	101.538	146.183	136.860	183.167	82.248	131.765	109.129	-26.190	105.849	132.421	-162.503	181.854	33.606	157.267	0.00079474	0.00064521	0.00016975	684.47	3.8987e-06	5.8201e-06	707.79	282.22	4.3328e-06	6.0269e-06	340.78	155.69	129.85	76.999	4.7782e-06	94.083	0.00041831	0.00019762	4.8783e-05	718.43	2.0201e-06	1.9215e-06	743.04	299.61	2.1744e-06	1.9805e-06	360.59	166.48	139.49	82.704	2.3829e-06	100.88	-135.569	-84.806	-84.621	-162.719	-24.410	-26.309	-163.927	-156.235	-26.544	-26.954	-158.318	-153.037	-150.788	-145.716	-40.056	-149.105	-8191	255	
1901.187	1	1	0	0	0.12586	0.18671	0.10581	0.17908	0.31819	0.069879	0.30575	0.2627	0.0264	0.23559	0.21815	0.31001	0.08873	0.21145	0.28296	0.10585	-2.7667	-2.6833	-3.4542	-2.9437	-2.8312	-3.5042	-2.7521	-3.3167	-3.2771	-2.7146	-3.5312	-2.9938	-2.9521	-3.6292	-2.8792	-3.3625	61.719	-72.699	-1.437	-123.139	-28.916	94.456	84.673	151.318	82.706	-149.139	68.313	158.321	-81.014	-124.946	117.571	111.127	0.00078343	0.00055532	0.00017085	682.34	4.6631e-06	5.6322e-06	704.58	280.75	4.3762e-06	6.8737e-06	339.08	154.95	130.14	76.488	5.0113e-06	93.628	0.00042089	0.00019502	5.08e-05	717.05	2.028e-06	1.907e-06	742.22	298.45	2.1267e-06	1.9808e-06	359.21	165.89	139.15	82.285	2.3662e-06	100.03	-135.523	-78.863	-84.936	-162.736	-29.395	-24.894	-163.691	-156.012	-34.813	-24.471	-158.139	-153.185	-150.698	-145.721	-47.017	-149.037	-8191	255	
1901.308	1	1	0	0	0.18259	0.1184	0.065898	0.32894	0.13034	0.19943	0.21981	0.34747	0.082115	0.20029	0.17574	0.24291	0.16185	0.21847	0.25651	0.31382	-2.9229	-2.5625	-3.3688	-3.0167	-2.9229	-3.3563	-2.9333	-3.1813	-3.4688	-2.6729	-3.4167	-3.4188	-2.6562	-3.6917	-2.8563	-3.0917	-154.120	-31.043	43.806	182.512	22.121	-68.461	38.394	87.140	-84.487	-88.538	-109.159	-69.081	-172.919	-122.118	171.254	124.407	0.0007965	0.00058098	0.00015515	681.34	4.7823e-06	5.2977e-06	701.74	280.22	4.6891e-06	6.193e-06	337.33	154.58	130.33	76.568	5.8653e-06	93.06	0.00042169	0.0001961	4.8862e-05	715.56	2.0901e-06	1.8886e-06	738.23	297.12	2.0925e-06	2.0727e-06	357.06	165.16	139.14	82.202	2.3725e-06	99.703	-134.194	-83.763	-94.511	-162.957	-25.489	-40.273	-164.012	-155.911	-26.646	-19.666	-158.260	-153.263	-150.864	-145.742	-41.800	-149.028	-8191	255	
1901.380	1	1	0	0	0.052628	0.066725	0.034338	0.060416	0.060543	0.096591	0.096416	0.13268	0.24096	0.17811	0.11598	0.19212	0.1014	0.30049	0.21769	0.13497	-3.1271	-2.4396	-3.3896	-3.3354	-2.8438	-3.4958	-3.1312	-3.0187	-3.5479	-2.575	-3.3083	-3.4708	-2.6604	-3.75	-2.7313	-3.1083	-114.314	98.088	91.143	63.918	-142.416	183.353	126.982	137.101	-48.682	103.987	48.782	117.166	172.597	100.947	-169.643	94.716	0.00079046	0.00048119	0.00018584	679.63	4.4651e-06	5.5682e-06	702.52	278.94	4.4036e-06	4.7734e-06	338.1	154.66	128.91	76.599	5.6077e-06	93.142	0.00042013	0.00019856	4.9239e-05	715.26	2.0527e-06	1.9175e-06	738.8	297.2	2.0589e-06	2.0161e-06	358	165.67	138.71	82.224	2.3354e-06	99.888	-135.700	-84.010	-87.875	-162.831	-15.467	-29.039	-163.584	-156.166	-21.937	-31.975	-158.289	-153.150	-150.869	-145.717	-42.758	-149.163	-8191	255	
1901.476	1	1	0	0	0.13766	0.1652	0.12027	0.22414	0.17795	0.16557	0.081809	0.26864	0.078334	0.30381	0.098314	0.29924	0.16962	0.19311	0.43706	0.32695	-3.0646	-2.8458	-3.2417	-3.45	-2.6771	-3.4479	-3.0542	-2.8396	-3.675	-2.7062	-3.1542	-3.3688	-2.5646	-3.5687	-3.0333	-3.0042	-98.854	-3.088	24.359	167.536	-138.756	60.966	151.062	148.237	114.888	163.358	-18.863	-163.886	-123.376	145.294	-154.573	120.496	0.00076642	0.00056328	0.00017788	679.24	3.8663e-06	5.0972e-06	701.99	279.71	4.9787e-06	6.4524e-06	340.53	154.85	129.74	76.816	5.3117e-06	93.88	0.00041594	0.0001894	4.8969e-05	715.77	2.0981e-06	1.862e-06	740.5	297.55	2.0165e-06	2.1086e-06	359.51	165.81	138.9	82.314	2.3649e-06	100.31	-134.269	-87.029	-89.930	-162.624	-22.406	-32.500	-163.775	-156.068	-33.278	-36.614	-158.123	-153.196	-150.937	-145.731	-43.150	-149.003	-8191	255	
1901.572	1	1	0	0	0.12138	0.053536	0.093808	0.13625	0.32998	0.17298	0.076961	0.13103	0.11019	0.11697	0.23249	0.093015	0.17402	0.28292	0.18247	0.12874	-3.0771	-2.8292	-2.8146	-3.4417	-2.6271	-3.3563	-3.2479	-3.0021	-3.5833	-2.8937	-3.0979	-3.525	-2.8417	-3.2917	-3.3396	-2.9292	70.812	-77.255	-9.165	57.477	36.952	-142.620	163.037	136.491	-26.858	164.579	-29.292	45.389	59.210	158.019	-51.598	183.402	0.00079054	0.0006059	0.00018635	685.54	4.1043e-06	6.3559e-06	707.26	280.63	4.5989e-06	6.2321e-06	340.6	155.53	129.45	76.85	5.839e-06	93.673	0.00041598	0.00019035	5.0942e-05	718.97	2.1312e-06	1.9042e-06	742.89	298.22	2.1333e-06	2.0619e-06	360.04	166.43	139.11	82.514	2.3886e-06	100.56	-134.502	-77.971	-93.791	-162.635	-27.591	-34.706	-163.916	-156.075	-29.961	-18.221	-158.060	-153.163	-150.906	-145.690	-38.240	-149.086	-8191	255	
1901.693	1	1	0	0	0.1173	0.22367	0.33698	0.29696	0.11175	0.23514	0.03664	0.073943	0.013485	0.035978	0.24896	0.16232	0.18061	0.15224	0.08825	0.1306	-3.2167	-2.8167	-2.8854	-3.5792	-2.7646	-3.1958	-3.2354	-2.7104	-3.4188	-3.1771	-2.8063	-3.6937	-2.7271	-3.3563	-3.3187	-2.8146	110.393	-15.702	52.086	178.113	-60.119	10.513	141.258	106.860	-2.662	5.959	141.968	117.287	161.329	-172.650	89.751	-152.858	0.000768	0.00069927	0.00018375	682.67	4.626e-06	4.6496e-06	706.19	280.77	4.7779e-06	5.8664e-06	338.29	154.58	129.85	76.589	4.511e-06	93.104	0.00041096	0.0001873	5.0365e-05	718.22	2.0225e-06	1.9209e-06	741.55	297.92	2.097e-06	2.042e-06	358.25	165.68	138.64	82.141	2.2731e-06	99.683	-134.969	-74.594	-86.372	-162.733	-17.053	-40.910	-163.830	-156.097	-17.738	-18.310	-158.184	-153.075	-150.947	-145.687	-33.991	-149.000	-8191	255	
1901.789	1	1	0	0	0.35717	0.19304	0.15564	0.24578	0.1227	0.11178	0.090424	0.26356	0.21727	0.18445	0.10241	0.11241	0.2594	0.14197	0.24085	0.22186	-3.3729	-2.9125	-2.9917	-3.4688	-2.8896	-3.0646	-3.425	-2.7313	-3.4479	-3.1688	-2.7646	-3.6562	-2.8937	-3.2583	-3.6167	-2.8542	-39.851	144.155	-71.009	131.800	37.241	-30.400	148.173	155.964	-107.724	-41.849	73.977	136.675	-121.552	69.505	33.780	105.959	0.00080489	0.00044056	0.00016216	681.9	3.3018e-06	6.1878e-06	703.91	279.31	4.49e-06	6.292e-06	339.6	154.68	129.61	76.484	4.952e-06	93.195	0.00041584	0.00018299	5.122e-05	716.2	2.1156e-06	1.9328e-06	739.87	297.68	1.9767e-06	1.9916e-06	358.25	165.33	138.68	82.029	2.2275e-06	99.629	-134.698	-75.350	-86.720	-162.631	-17.523	-26.493	-163.838	-156.132	-30.910	-34.829	-158.180	-153.128	-150.547	-145.648	-30.631	-148.996	-8191	255	
1901.885	1	1	0	0	0.023035	0.23874	0.1204	0.041602	0.24853	0.43495	0.22337	0.18698	0.12288	0.10971	0.088498	0.15046	0.15901	0.10908	0.26133	0.1474	-3.2208	-3.075	-2.7625	-3.7438	-2.8396	-3.1646	-3.2646	-2.9771	-3.3104	-3.1083	-2.9625	-3.4562	-2.9625	-3.3104	-3.5729	-2.8937	-64.641	-127.889	-154.746	-115.162	-137.182	-156.003	132.005	185.029	-136.785	-24.370	33.581	-164.614	-104.866	-168.490	160.691	112.490	0.00079452	0.00052391	0.00017621	683.81	4.0212e-06	5.999e-06	702.93	280.02	4.7568e-06	5.8234e-06	337.4	154.92	130.04	76.444	5.1625e-06	93.192	0.00041532	0.00017601	5.246e-05	718.01	2.0869e-06	1.8541e-06	741.01	298.38	2.0379e-06	1.9575e-06	357.99	165.92	138.88	82.178	2.1988e-06	99.88	-134.900	-89.174	-78.314	-162.684	-25.042	-27.303	-163.691	-155.985	-32.547	-18.973	-158.130	-152.934	-150.626	-145.637	-43.630	-149.087	-8191	255	
1901.981	1	1	0	0	0.14213	0.069032	0.19872	0.027593	0.13307	0.31118	0.13797	0.23408	0.086447	0.15199	0.22949	0.21748	0.24757	0.33238	0.114	0.075192	-2.9604	-3.2396	-2.6021	-3.4771	-3.0271	-2.9875	-3.6375	-2.7396	-3.3688	-3.225	-2.8937	-3.5542	-3.0667	-2.775	-3.4917	-2.8563	-44.786	180.608	-171.974	49.885	157.394	-49.828	67.447	140.188	-106.128	-36.613	114.188	-128.255	162.001	153.925	149.396	-145.971	0.00077969	0.0006288	0.00015608	685.32	3.1958e-06	5.0598e-06	704.91	281.88	4.7683e-06	5.8798e-06	339.74	155.29	130.06	76.732	5.6621e-06	93.835	0.00041812	0.00017909	5.3166e-05	719.19	1.9768e-06	1.932e-06	743	299.14	2.124e-06	1.8175e-06	360.19	166.34	139.17	82.377	2.2354e-06	100.36	-135.741	-80.248	-101.229	-162.547	-14.112	-31.739	-163.784	-155.967	-28.564	-19.318	-158.186	-153.038	-150.616	-145.554	-46.373	-148.899	-8191	255	
1902.075	1	1	0	0	0.057009	0.14185	0.073486	0.081604	0.060649	0.024738	0.41413	0.16742	0.19278	0.24424	0.29374	0.099214	0.2737	0.39042	0.11032	0.090591	-2.5958	-3.4208	-2.6667	-3.3896	-3.2521	-2.6167	-3.5812	-2.7708	-3.0667	-3.5958	-2.7396	-3.35	-3.1833	-2.8438	-3.6604	-2.8375	-116.233	-121.438	-108.908	175.764	-38.291	-57.425	-170.254	125.686	152.903	168.573	152.359	165.376	28.140	147.471	-148.164	76.850	0.00075577	0.00056181	0.00017704	685.3	3.9809e-06	5.1126e-06	708.23	281.62	4.3293e-06	6.1492e-06	340.77	155.9	130.5	76.829	5.334e-06	94.173	0.00040986	0.00017832	5.36e-05	720.15	1.9999e-06	1.9396e-06	744.22	299.02	2.0899e-06	1.9441e-06	360.47	167.06	139.71	82.534	2.2813e-06	100.84	-134.407	-90.580	-83.138	-162.747	-14.444	-23.393	-163.750	-156.070	-35.533	-27.041	-158.352	-152.989	-150.780	-145.569	-43.629	-148.811	-8191	255	
1902.173	1	1	0	0	0.21484	0.070631	0.029836	0.15378	0.049119	0.22561	0.0063823	0.15066	0.070078	0.17388	0.034417	0.068296	0.13909	0.21207	0.063235	0.15397	-2.5229	-3.4708	-2.7104	-3.3625	-3.2125	-2.7708	-3.6292	-2.9771	-2.9896	-3.5396	-2.8292	-3.6063	-3.3708	-2.825	-3.5708	-3.2417	113.469	-128.933	133.564	126.851	-6.345	-47.882	-140.647	101.651	-149.909	-89.717	97.260	129.221	-88.461	-172.716	85.085	122.397	0.00078828	0.00070498	0.00016566	686.12	3.6474e-06	5.0813e-06	706.67	281.76	5.2208e-06	5.7925e-06	340.02	154.97	129.23	76.672	5.498e-06	93.2	0.00041875	0.00017775	5.2425e-05	720.95	2.0182e-06	1.9676e-06	745.27	299.49	2.2014e-06	1.8744e-06	360.02	166.08	138.76	82.166	2.2469e-06	99.813	-135.207	-71.769	-86.257	-162.713	-13.818	-24.843	-163.538	-156.040	-35.920	-27.755	-158.266	-152.969	-150.522	-145.604	-44.914	-149.146	-8191	255	
1902.292	1	1	0	0	0.13652	0.24732	0.091161	0.16251	0.18412	0.094007	0.11027	0.24476	0.17684	0.20102	0.15929	0.24282	0.081463	0.21116	0.082072	0.14156	-2.5417	-3.6063	-2.6458	-3.2542	-3.3604	-2.6208	-3.7812	-3.1979	-2.6521	-3.4437	-2.8375	-3.2917	-3.4583	-2.7896	-3.4479	-3.4146	-86.729	0.258	11.247	102.001	51.018	102.044	-58.044	-25.886	-167.023	-19.441	140.128	182.298	108.498	18.743	-166.513	158.015	0.00079761	0.00060106	0.0001735	680.57	4.3125e-06	6.73e-06	702.71	280.13	5.4786e-06	5.7352e-06	338.35	154.12	129.16	76.04	6.4181e-06	92.752	0.00042436	0.00017406	5.194e-05	718.09	1.9662e-06	2.0331e-06	741.84	298.15	2.235e-06	1.8676e-06	358.44	165.14	138.25	81.728	2.2728e-06	99.351	-135.265	-84.473	-73.742	-162.720	-11.223	-32.875	-163.525	-156.183	-22.953	-16.929	-158.119	-153.055	-150.470	-145.522	-40.929	-149.052	-8191	255	
1902.388	1	1	0	0	0.24344	0.092815	0.18945	0.24744	0.14689	0.18389	0.13825	0.16338	0.081021	0.18819	0.32919	0.38659	0.3282	0.12318	0.19604	0.13893	-2.5042	-3.5583	-2.8063	-3.2729	-3.2604	-2.5542	-3.4771	-3.45	-2.8729	-3.6333	-3.0542	-3.2396	-3.5542	-2.7875	-3.3604	-3.5271	43.776	79.936	142.674	173.345	17.508	100.928	172.144	144.923	169.031	-140.669	85.394	132.802	115.370	129.897	-132.407	168.768	0.00078073	0.00053079	0.00015841	686.13	4.0598e-06	5.1117e-06	705.95	280.87	4.596e-06	6.9945e-06	338.92	154.67	129.4	76.253	4.4408e-06	93.169	0.00041492	0.0001824	5.2289e-05	720.63	1.9339e-06	2.0319e-06	743.98	298.3	2.1084e-06	1.8212e-06	358.16	165.26	138.43	81.767	2.34e-06	99.555	-134.252	-84.169	-81.058	-162.678	-22.000	-33.946	-163.776	-156.122	-26.081	-26.887	-158.149	-152.940	-150.691	-145.714	-41.306	-149.087	-8191	255	
1902.484	1	1	0	0	0.077769	0.21856	0.030645	0.18503	0.16733	0.013571	0.23683	0.20223	0.17033	0.16603	0.11543	0.15613	0.054968	0.052493	0.10493	0.24844	-2.2771	-3.3688	-2.9042	-2.8354	-3.5917	-2.6667	-3.4833	-3.225	-2.6813	-3.5479	-3.0667	-3.0396	-3.5187	-2.9021	-3.1937	-3.5187	90.120	-88.711	-18.568	5.586	-113.857	-112.076	50.898	-160.508	61.332	42.652	-47.215	122.149	157.987	-148.074	-173.411	102.226	0.00075725	0.00055698	0.0001546	683.94	4.0259e-06	6.148e-06	708.7	279.93	5.0603e-06	4.9019e-06	341.37	154.79	129.15	76.164	6.2013e-06	93.473	0.00041246	0.00017393	5.1277e-05	719.33	1.9561e-06	2.0569e-06	745.17	298.26	2.1913e-06	1.8673e-06	359.62	165.7	138.68	81.789	2.3031e-06	99.831	-135.998	-89.932	-92.673	-162.526	-29.492	-22.328	-163.674	-156.091	-33.329	-21.315	-158.250	-153.025	-150.689	-145.722	-46.394	-149.086	-8191	255	
1902.605	1	1	0	0	0.25276	0.078485	0.21248	0.088488	0.12551	0.19498	0.13207	0.181	0.27726	0.052205	0.17668	0.094564	0.25305	0.26958	0.098976	0.33897	-2.4604	-3.4458	-2.8917	-2.9271	-3.575	-2.7625	-3.3792	-3.6708	-2.6708	-3.6167	-3.2188	-2.9708	-3.6312	-2.6771	-3.0417	-3.6729	-70.353	-152.566	140.032	-125.571	-97.668	150.732	99.239	-143.893	-128.255	-111.302	-105.551	-157.187	150.359	144.337	12.547	169.787	0.00080407	0.00060643	0.000169	684.65	4.3935e-06	5.5351e-06	707.53	281.52	4.0949e-06	7.539e-06	340.14	155.6	129.66	76.42	5.6082e-06	93.58	0.00042541	0.00017377	5.0665e-05	720.63	1.9577e-06	1.9747e-06	745.64	299.4	2.2019e-06	1.8639e-06	360.3	166.32	138.74	81.93	2.3321e-06	100.06	-135.542	-86.426	-93.246	-162.595	-28.060	-39.592	-163.775	-155.948	-34.980	-21.245	-158.353	-152.957	-150.588	-145.640	-42.229	-148.983	-8191	255	
1902.677	1	1	0	0	0.29714	0.18425	0.14798	0.29298	0.16734	0.33686	0.16105	0.088815	0.4084	0.23586	0.12405	0.077935	0.12305	0.19126	0.11243	0.15108	-2.2333	-3.5542	-3.1896	-2.6958	-3.5333	-2.9292	-3.1	-3.5083	-2.6625	-3.2604	-3.1729	-2.7625	-3.5708	-3.0458	-2.975	-3.6729	93.862	-99.891	181.358	149.402	-112.621	40.522	-159.053	97.867	93.886	70.079	149.325	126.381	124.729	166.422	138.406	116.460	0.00076758	0.00062065	0.00018353	683.98	4.2467e-06	5.1063e-06	704.87	280.92	4.4864e-06	6.5676e-06	338.26	154.01	129.2	75.907	5.7933e-06	92.452	0.00041828	0.00017716	5.0308e-05	719.62	1.8781e-06	1.9478e-06	742.58	298.61	2.1905e-06	1.8955e-06	357.79	164.93	138.17	81.449	2.2414e-06	98.926	-135.157	-82.304	-80.760	-162.477	-23.661	-31.952	-163.575	-155.756	-33.191	-19.751	-158.158	-153.069	-150.684	-145.481	-37.216	-148.932	-8191	255	
1902.773	1	1	0	0	0.099709	0.18921	0.21744	0.072159	0.15118	0.071643	0.25565	0.060949	0.091592	0.11974	0.041902	0.31498	0.12262	0.33108	0.10667	0.13225	-2.2417	-3.1521	-3.2896	-2.9729	-3.4062	-3.0229	-2.7938	-3.6688	-2.8521	-3.4062	-3.3083	-2.6792	-3.6917	-3.1271	-2.75	-3.5979	101.971	-145.294	109.097	-154.837	-69.558	135.105	163.255	45.137	-75.222	-60.255	29.274	146.440	149.662	153.790	63.444	-153.598	0.00076313	0.00054927	0.00016175	684.25	3.3795e-06	5.5338e-06	700.56	280.33	5.2235e-06	6.2898e-06	337.92	153.59	128.6	75.507	4.4321e-06	92.142	0.00042195	0.00017642	4.8769e-05	718.82	1.8872e-06	1.9552e-06	740.01	297.79	2.2085e-06	1.9083e-06	357.39	164.18	137.64	81.174	2.3315e-06	98.608	-134.953	-87.854	-90.923	-162.591	-22.188	-32.200	-163.539	-156.056	-31.774	-23.151	-158.257	-153.074	-150.424	-145.723	-43.910	-148.896	-8191	255	
1902.869	1	1	0	0	0.082745	0.31018	0.059828	0.13744	0.035345	0.068117	0.18104	0.24198	0.12412	0.16217	0.17146	0.050568	0.074064	0.080775	0.12286	0.14687	-2.4813	-3.2812	-3.5167	-2.7229	-3.3	-3.3021	-3.0229	-3.7	-3.0479	-3.0542	-3.5917	-2.6479	-3.3792	-3.2167	-2.8542	-3.7667	102.954	-112.137	-63.982	48.506	-103.298	95.490	0.438	-110.018	-49.527	-95.189	157.022	-146.963	-90.254	157.770	-86.014	-135.359	0.00078808	0.00052317	0.00016918	680.13	3.7288e-06	4.9518e-06	700.78	279.24	4.4242e-06	6.0889e-06	337.72	153.79	128.69	75.777	4.7944e-06	92.736	0.00042164	0.0001767	4.8833e-05	715.84	1.9668e-06	1.9643e-06	738.66	297.04	2.2387e-06	1.9785e-06	356.65	164.5	137.82	81.334	2.3665e-06	99.073	-135.082	-89.132	-95.077	-162.442	-12.825	-32.184	-163.593	-155.962	-31.086	-29.883	-158.142	-153.047	-150.569	-145.641	-38.319	-148.849	-8191	255	
1902.988	1	1	0	0	0.025605	0.057846	0.072881	0.18324	0.15407	0.2227	0.07278	0.11225	0.09298	0.1355	0.068883	0.27512	0.088066	0.1013	0.16337	0.34431	-2.4854	-2.9562	-3.5042	-2.6708	-3.4167	-3.2021	-2.6917	-3.6458	-2.9125	-3.0042	-3.6875	-2.6458	-3.2062	-3.6583	-2.7771	-3.7104	45.410	2.001	22.767	136.824	17.937	66.720	-163.751	-165.182	35.700	-151.643	-18.364	172.774	-68.515	-97.290	36.042	173.259	0.00078841	0.00068132	0.00016433	679.63	3.7309e-06	5.8159e-06	703.56	279.17	3.9591e-06	5.9313e-06	338.88	154.49	129.06	76.399	5.5962e-06	92.973	0.00042432	0.00018514	4.8163e-05	715.63	1.9057e-06	1.8903e-06	739.93	297.26	2.1463e-06	2.0301e-06	358.46	165.21	138.33	81.787	2.3761e-06	99.729	-135.191	-84.930	-83.227	-162.561	-23.734	-26.005	-163.550	-155.778	-32.500	-23.244	-158.096	-152.932	-150.471	-145.567	-30.762	-148.991	-8191	255	
1903.084	1	1	0	0	0.13025	0.082594	0.094103	0.43228	0.32327	0.24116	0.22319	0.074885	0.074424	0.10922	0.22813	0.23907	0.10826	0.19421	0.10385	0.074368	-2.6146	-2.8	-3.3708	-2.9979	-3.1333	-3.4104	-2.9229	-3.5042	-3.1292	-2.8375	-3.6312	-2.8375	-3.15	-3.6479	-2.5979	-3.4813	180.356	29.094	-90.037	122.078	-88.243	-171.699	144.581	-94.072	-120.516	80.789	-142.839	-155.800	174.518	-166.998	5.255	-10.176	0.00080299	0.00058829	0.00017046	680.09	3.808e-06	5.7625e-06	703.39	279.64	4.2755e-06	6.276e-06	339.82	154.64	129.31	76.18	4.2468e-06	93.369	0.00042415	0.00018427	4.961e-05	716.62	2.0394e-06	1.9393e-06	742.67	297.1	2.1383e-06	2.0978e-06	359.1	165.66	138.44	81.845	2.3785e-06	99.92	-133.988	-82.090	-84.481	-162.586	-24.490	-28.042	-163.606	-155.978	-33.627	-16.686	-158.135	-153.000	-150.542	-145.598	-39.035	-148.817	-8191	255	
1903.180	1	1	0	0	0.20074	0.046464	0.21287	0.28446	0.21611	0.18292	0.036352	0.046516	0.13274	0.075154	0.1533	0.10316	0.099373	0.17711	0.30914	0.19365	-2.7792	-2.8354	-3.3292	-3.0438	-2.9917	-3.5333	-2.7167	-3.4583	-3.1708	-2.7646	-3.8063	-3.0896	-3.1646	-3.5438	-2.6604	-3.65	65.483	42.626	-113.745	180.446	61.603	-42.791	-46.389	-70.831	-51.378	83.914	95.545	140.744	184.011	-156.798	171.363	104.202	0.00078584	0.00056158	0.00018051	680.87	3.3142e-06	4.8313e-06	702.76	280.07	5.01e-06	5.9015e-06	338.13	154.38	129.15	76.057	5.861e-06	92.767	0.00041913	0.0001834	4.9083e-05	716.25	1.9925e-06	1.8351e-06	739.54	297.58	2.154e-06	1.9729e-06	357.83	164.85	138.17	81.724	2.3747e-06	99.447	-134.566	-86.930	-77.388	-162.680	-17.194	-34.807	-163.541	-155.911	-28.778	-29.695	-158.099	-153.125	-150.649	-145.532	-41.485	-148.952	-8191	255	
1903.254	1	1	0	0	0.11846	0.024329	0.22946	0.28542	0.24175	0.1515	0.37279	0.27139	0.25105	0.11194	0.10319	0.14399	0.10011	0.18067	0.11335	0.21538	-3.1083	-2.5542	-3.6021	-2.9813	-3.1	-3.6167	-2.8625	-3.3833	-3.1333	-2.6833	-3.75	-3.0938	-3.0167	-3.7083	-2.5521	-3.4562	126.771	183.016	90.390	138.719	13.834	-124.520	173.499	37.392	59.520	-124.773	-0.469	122.280	149.106	-163.368	3.348	22.456	0.00076537	0.00054317	0.00015859	680.78	5.2103e-06	5.7164e-06	700.17	279.55	4.7057e-06	4.7367e-06	338.13	153.89	128.93	76.173	4.668e-06	92.905	0.0004161	0.00018958	4.651e-05	713.59	2.0681e-06	1.7487e-06	736.49	296.97	2.0726e-06	1.9993e-06	357.01	164.7	138.27	81.77	2.3455e-06	99.496	-134.923	-92.172	-83.429	-162.503	-29.698	-39.148	-163.654	-155.741	-33.158	-32.047	-157.945	-153.106	-150.518	-145.630	-42.277	-148.874	-8191	255	
1903.373	1	1	0	0	0.38627	0.1285	0.12677	0.22436	0.16397	0.035632	0.21231	0.22229	0.13069	0.10573	0.33455	0.12511	0.11613	0.16114	0.051585	0.46655	-2.9229	-2.7875	-3.4229	-2.9188	-2.7646	-3.4708	-2.8979	-3.3958	-3.3917	-2.8312	-3.4896	-3.1917	-2.8292	-3.6521	-2.9604	-3.3937	-82.850	-105.305	93.963	-129.066	-23.539	-129.606	91.341	70.305	14.639	-90.718	-139.313	26.072	113.569	154.017	-48.103	117.958	0.00077469	0.00056631	0.00018347	678.47	4.8066e-06	4.3246e-06	700.93	278.73	4.4533e-06	6.3841e-06	337.45	154.25	128.6	76.126	5.3311e-06	92.983	0.00041127	0.00019318	4.8541e-05	712.67	2.1042e-06	1.8079e-06	736.86	296.58	2.1129e-06	2.019e-06	356.98	165.09	137.97	81.724	2.4031e-06	99.607	-135.058	-82.495	-89.089	-162.584	-22.794	-47.464	-163.624	-155.708	-29.536	-21.034	-158.105	-152.879	-150.354	-145.637	-31.133	-148.787	-8191	255	
1903.469	1	1	0	0	0.1141	0.21556	0.37775	0.39218	0.24524	0.053186	0.16961	0.43219	0.099448	0.21427	0.1144	0.025772	0.041759	0.20608	0.072484	0.055625	-3.0833	-2.7229	-3.3479	-3.4083	-2.6729	-3.7375	-3.0187	-3.0458	-3.5021	-2.8312	-3.5167	-3.4708	-2.7438	-3.7396	-2.95	-3.0938	-30.314	157.250	71.870	140.380	-68.392	-171.749	-134.829	147.068	4.217	-109.961	-157.752	-53.427	-4.761	185.198	-108.602	-147.413	0.00076208	0.00061753	0.00015064	677.95	3.7989e-06	4.1972e-06	697.64	277.88	4.5575e-06	6.3629e-06	335.35	154.58	129.74	76.318	4.8945e-06	93.305	0.00041049	0.00019387	4.7707e-05	709.49	2.0901e-06	1.7677e-06	732.76	294.53	2.1381e-06	2.0557e-06	356.07	165.18	138.35	81.88	2.3294e-06	99.798	-134.866	-92.598	-79.781	-162.617	-15.648	-22.421	-163.507	-155.795	-25.419	-8.993	-158.076	-153.015	-150.443	-145.450	-25.856	-148.827	-8191	255	
1903.565	1	1	0	0	0.25819	0.27165	0.072682	0.13939	0.11114	0.26243	0.35919	0.13209	0.17881	0.1054	0.041545	0.17626	0.35993	0.13319	0.18193	0.25817	-3.0854	-2.7521	-3.3375	-3.3854	-2.5167	-3.3708	-3.1896	-2.9583	-3.6229	-2.7646	-3.2042	-3.5958	-2.7917	-3.4625	-3.2521	-3.1896	53.354	66.814	-35.082	156.209	137.535	-90.051	181.853	-99.613	44.184	9.995	72.931	-115.040	87.840	-141.774	125.764	65.327	0.00078265	0.00053498	0.00018443	672.79	4.0301e-06	4.8374e-06	700.28	278.31	4.2822e-06	5.4451e-06	338.57	154.58	128.89	76.076	4.6814e-06	93.11	0.00041933	0.00019962	5.1933e-05	708.14	2.197e-06	1.8708e-06	735.67	295.17	2.039e-06	2.0363e-06	357.26	165.52	138.14	81.754	2.3539e-06	99.47	-134.864	-86.881	-82.240	-162.506	-28.978	-30.109	-163.504	-155.682	-34.356	-25.872	-157.844	-152.829	-150.456	-145.613	-38.723	-148.796	-8191	255	
1903.685	1	1	0	0	0.13307	0.1849	0.14742	0.074494	0.083694	0.22913	0.13433	0.14491	0.10922	0.34597	0.17241	0.19449	0.042148	0.088204	0.050355	0.13335	-3.0208	-2.7625	-2.8167	-3.6083	-2.775	-3.6708	-3.3167	-2.925	-3.5958	-2.875	-3.2979	-3.6542	-2.8542	-3.7479	-3.2604	-2.825	-131.098	-30.492	-155.958	-46.620	-32.673	49.019	29.296	116.539	-128.589	-149.704	-80.323	99.668	-84.199	109.903	168.929	131.667	0.0007927	0.0006692	0.00014607	675.86	4.6935e-06	4.9797e-06	697.83	277.88	5.2467e-06	6.8009e-06	335.93	153.44	128.47	75.754	5.7772e-06	92.333	0.00041843	0.00020359	4.9211e-05	711.25	2.1156e-06	1.8634e-06	733.89	295.22	2.1182e-06	2.0531e-06	355.28	163.93	137.62	81.335	2.3332e-06	98.782	-134.684	-85.857	-84.751	-162.605	-23.745	-30.382	-163.683	-155.947	-25.533	-17.274	-157.896	-153.001	-150.484	-145.502	-48.128	-148.790	-8191	255	
1903.782	1	1	0	0	0.1389	0.086148	0.21089	0.087488	0.16489	0.074742	0.12895	0.19299	0.13554	0.32344	0.061653	0.22692	0.33964	0.24768	0.19322	0.15417	-3.3083	-2.825	-2.8021	-3.5687	-2.6562	-3.2875	-3.2792	-2.8708	-3.3958	-2.9938	-3.0271	-3.6583	-2.7771	-3.3146	-3.3083	-2.8375	165.905	-120.654	165.135	64.808	-27.420	146.089	82.084	28.698	174.170	-44.673	-143.822	-154.047	140.668	136.586	-108.892	119.222	0.00077617	0.00065697	0.00013759	674.13	4.1962e-06	6.7353e-06	698.09	277.04	5.2009e-06	7.4026e-06	333.59	152.96	128.29	75.555	5.0323e-06	91.933	0.00040796	0.00019826	5.0878e-05	709.77	2.1355e-06	1.9645e-06	733.72	294.35	2.1407e-06	1.9729e-06	354.13	163.83	137.32	81.165	2.3056e-06	98.474	-135.265	-91.417	-91.346	-162.625	-23.336	-37.327	-163.519	-155.772	-29.282	-25.368	-157.827	-152.927	-150.589	-145.438	-40.336	-148.624	-8191	255	
1903.876	1	1	0	0	0.14953	0.037745	0.10136	0.043121	0.13902	0.069955	0.062036	0.15036	0.06476	0.041702	0.15106	0.17681	0.05068	0.1377	0.14184	0.25836	-3.0875	-3.05	-2.7979	-3.5417	-2.6854	-3.2792	-3.5083	-2.7104	-3.6146	-3.1229	-2.7667	-3.5896	-2.8021	-3.6208	-3.3063	-2.7104	2.224	-77.153	-29.307	-171.587	42.525	-169.678	126.176	60.552	18.574	149.334	86.896	119.057	-153.748	173.378	122.060	93.472	0.00075341	0.00065605	0.0001877	674.37	4.0671e-06	5.6751e-06	694.82	276.66	4.3878e-06	6.5367e-06	334.15	153.8	128.54	75.607	5.167e-06	92.42	0.00041267	0.00019099	5.452e-05	708.25	2.1644e-06	1.9334e-06	732.01	293.86	2.1201e-06	1.9663e-06	354.4	164.3	137.38	81.09	2.2507e-06	98.837	-134.854	-73.559	-83.016	-162.299	-27.884	-19.860	-163.606	-155.842	-27.932	-28.933	-157.790	-152.977	-150.065	-145.359	-36.835	-148.841	-8191	255	
1903.974	1	1	0	0	0.1289	0.049212	0.14779	0.09483	0.015971	0.28393	0.12746	0.15295	0.18709	0.059896	0.14685	0.29508	0.25595	0.38913	0.21039	0.097752	-3.0542	-3.1583	-2.8083	-3.6437	-2.7938	-2.8958	-3.4854	-2.8	-3.5917	-3.2667	-2.8271	-3.8583	-2.9313	-3.2687	-3.4583	-2.875	23.867	-148.794	-79.229	135.292	-98.088	-43.928	119.923	-120.708	168.549	157.528	177.085	83.028	-164.230	174.773	-130.951	179.031	0.00078303	0.000602	0.00017305	678.67	4.432e-06	6.1272e-06	700.65	277.66	4.7301e-06	5.6915e-06	337.68	154.23	128.32	75.985	4.4112e-06	93.039	0.00041172	0.00019156	5.246e-05	711.72	2.0949e-06	2.0481e-06	737.21	295.54	2.1235e-06	1.9231e-06	356.95	164.92	137.64	81.388	2.2376e-06	99.456	-134.253	-88.583	-84.757	-162.281	-20.835	-42.474	-163.578	-155.794	-30.094	-16.722	-157.911	-152.898	-150.435	-145.323	-39.698	-148.778	-8191	255	
1904.068	1	1	0	0	0.091089	0.073514	0.3932	0.074409	0.37609	0.23799	0.16645	0.31635	0.16481	0.093082	0.11005	0.14659	0.11463	0.18346	0.16363	0.084664	-3.0208	-3.0396	-2.6479	-3.7958	-2.85	-2.9521	-3.6688	-2.8	-3.2188	-3.3729	-2.9271	-3.4562	-2.9354	-2.95	-3.5333	-3.1063	-26.473	-173.399	108.032	-146.480	-170.146	14.749	95.101	-144.427	90.743	-109.955	12.629	62.198	117.956	-166.537	1.905	-75.444	0.00077932	0.00055354	0.00013914	679.87	3.8281e-06	5.7039e-06	700.67	277.53	4.6875e-06	5.4683e-06	337.79	154.17	128.2	75.665	5.1834e-06	92.688	0.00042259	0.00017739	5.4748e-05	713.12	2.1758e-06	2.0954e-06	738.11	295.25	2.1744e-06	1.9464e-06	356.81	164.9	137.52	81.211	2.2835e-06	98.953	-135.017	-79.276	-84.204	-162.471	-24.499	-35.071	-163.648	-155.500	-30.765	-26.079	-157.614	-152.555	-150.324	-145.178	-47.829	-148.557	-8191	255	
1904.164	1	1	0	0	0.3687	0.12901	0.08848	0.35618	0.085654	0.21298	0.041808	0.20731	0.2556	0.31792	0.20826	0.14142	0.18514	0.25015	0.19446	0.10046	-2.8396	-3.3312	-2.7396	-3.3	-3.1813	-2.8125	-3.625	-2.9021	-3.0875	-3.5146	-2.7833	-3.7271	-3.2208	-2.9333	-3.5854	-3.0938	-68.013	62.574	-137.501	102.363	-173.215	63.235	66.204	-14.197	-91.174	1.682	185.798	133.897	-128.182	-171.111	134.403	31.042	0.00079241	0.00060643	0.00017413	675.13	3.1221e-06	5.2764e-06	695.18	277.35	4.2312e-06	6.5458e-06	333.97	153.23	128.28	75.392	5.6474e-06	91.81	0.00041927	0.00018245	5.3372e-05	711.51	2.0243e-06	2.0563e-06	734.06	294.6	2.2054e-06	1.9384e-06	354.6	164.03	137.24	80.916	2.3108e-06	98.352	-134.585	-88.384	-74.418	-162.083	-29.429	-36.458	-163.285	-155.674	-24.922	-17.845	-157.816	-152.577	-150.144	-145.063	-44.194	-148.722	-8191	255	
1904.285	1	1	0	0	0.22112	0.27069	0.27193	0.089288	0.31992	0.19485	0.10097	0.2316	0.090313	0.23499	0.1914	0.075268	0.17817	0.33206	0.18343	0.14861	-2.7062	-3.4729	-2.5167	-3.45	-3.4333	-2.7354	-3.6	-2.975	-2.8812	-3.6208	-2.6333	-3.5583	-3.3646	-3.0021	-3.6417	-3.1667	26.679	113.080	-1.261	-51.109	22.808	-114.712	156.595	130.660	55.420	134.722	72.799	-130.977	149.685	163.170	-18.217	114.636	0.00079102	0.00056943	0.00015061	675.49	4.6079e-06	6.3908e-06	699.53	276.84	5.611e-06	6.613e-06	334.9	152.92	127.96	75.4	6.8217e-06	92.078	0.00042446	0.00018104	5.4178e-05	710.4	2.0869e-06	2.047e-06	735.5	294.69	2.2234e-06	1.8781e-06	354.9	163.79	137.19	80.961	2.3064e-06	98.461	-135.314	-85.928	-80.638	-162.132	-24.895	-23.583	-163.308	-155.555	-34.592	-21.098	-157.710	-152.515	-150.184	-145.148	-37.236	-148.361	-8191	255	
1904.381	1	1	0	0	0.074121	0.055736	0.2002	0.091412	0.14118	0.17318	0.20065	0.37629	0.12936	0.13498	0.23148	0.067506	0.084323	0.43154	0.11734	0.058012	-2.6437	-3.5292	-2.6375	-3.4146	-3.2896	-2.8208	-3.6708	-2.9854	-2.8083	-3.5792	-2.9542	-3.1688	-3.4396	-2.7833	-3.4646	-3.2979	-87.700	142.076	-130.568	149.765	171.507	119.442	67.627	155.604	91.221	153.116	164.779	-49.681	107.346	179.229	65.074	-68.508	0.00078078	0.00060395	0.00015667	674.68	4.0513e-06	6.2985e-06	698.17	277.58	4.6662e-06	6.0427e-06	337.79	153.74	127.63	75.356	6.8075e-06	92.668	0.00042015	0.00017611	5.3721e-05	710.55	2.0453e-06	2.0268e-06	736.04	294.89	2.2602e-06	1.8972e-06	356.42	164.28	137.21	81.006	2.3818e-06	98.957	-135.306	-79.381	-84.887	-162.114	-15.892	-26.026	-163.406	-155.829	-36.260	-18.056	-157.883	-152.633	-150.322	-145.162	-48.116	-148.475	-8191	255	
1904.477	1	1	0	0	0.18096	0.33655	0.11233	0.31107	0.18392	0.16558	0.087867	0.17638	0.19998	0.24019	0.12757	0.22494	0.22141	0.10134	0.054931	0.19561	-2.5479	-3.3708	-2.6479	-3.0792	-3.4583	-2.5646	-3.6292	-3.4146	-2.7021	-3.4854	-2.9125	-3.2729	-3.6167	-2.9375	-3.2708	-3.5292	-55.399	18.604	-40.239	133.587	-94.687	27.641	130.807	143.907	-70.939	116.031	-156.297	94.607	30.904	122.869	-151.142	72.719	0.00078833	0.00067348	0.00017206	676.98	4.5887e-06	5.1111e-06	702.14	277.13	4.5295e-06	6.1629e-06	337.57	153.92	128.29	75.955	5.244e-06	93.085	0.0004265	0.00017839	5.2966e-05	711.28	2.0506e-06	2.0402e-06	738.56	295.02	2.2454e-06	1.9285e-06	357.19	164.82	137.53	81.278	2.3162e-06	99.471	-134.749	-90.372	-83.552	-161.936	-26.699	-25.743	-163.011	-155.565	-23.466	-28.647	-157.609	-152.452	-150.032	-145.069	-48.993	-148.515	-8191	255	
1904.549	1	1	0	0	0.18941	0.20862	0.22972	0.13417	0.13176	0.10015	0.1785	0.14177	0.17352	0.16676	0.20653	0.11503	0.25878	0.30343	0.26354	0.032103	-2.3875	-3.3979	-2.9437	-2.9271	-3.6083	-2.8917	-3.3688	-3.4104	-2.7562	-3.4979	-3.15	-3.1354	-3.6333	-2.8146	-3.1042	-3.5687	120.312	-140.131	171.123	131.809	-42.916	-120.144	149.335	66.366	-93.028	-150.494	-142.025	71.770	171.494	173.313	120.910	42.931	0.00077489	0.00059767	0.00018112	676.04	4.2334e-06	4.538e-06	704.85	278.2	4.7993e-06	5.4796e-06	336.95	154.02	128.67	75.708	5.5067e-06	91.942	0.00042271	0.00018237	5.3351e-05	712.83	2.0105e-06	2.047e-06	740.28	295.79	2.2525e-06	1.8454e-06	357.19	164.66	137.35	81.132	2.255e-06	98.674	-133.367	-86.684	-93.256	-162.184	-32.470	-32.359	-163.281	-155.553	-28.085	-31.001	-157.582	-152.334	-150.354	-145.097	-32.118	-148.257	-8191	255	
1904.670	1	1	0	0	0.1226	0.023092	0.18367	0.11631	0.17591	0.28741	0.074638	0.17645	0.30669	0.26902	0.20873	0.18177	0.15107	0.35257	0.17429	0.12363	-2.5208	-3.2875	-3.0062	-2.7833	-3.5083	-2.6625	-3.4333	-3.5542	-2.6	-3.475	-3.2313	-2.8167	-3.6083	-3.075	-2.9188	-3.675	-93.179	-56.105	54.964	-147.192	-103.082	170.276	134.060	29.257	-115.621	9.643	-106.090	-74.470	22.129	159.230	39.818	79.107	0.00075415	0.00059373	0.0001814	675.16	4.5862e-06	4.3815e-06	701.92	277.67	4.6309e-06	7.4229e-06	334.48	153.16	127.77	75.561	5.5123e-06	91.8	0.00041719	0.00017606	5.3016e-05	711.9	1.9386e-06	2.0594e-06	737.01	295.1	2.275e-06	1.9455e-06	354.86	163.77	136.96	80.85	2.2955e-06	98.366	-135.888	-93.347	-84.940	-161.906	-28.893	-36.804	-163.146	-155.575	-34.061	-22.513	-157.675	-152.432	-149.945	-145.173	-41.938	-148.440	-8191	255	
1904.766	1	1	0	0	0.097943	0.071845	0.035759	0.11983	0.22429	0.17764	0.18448	0.082638	0.14272	0.071859	0.19672	0.15517	0.21933	0.21834	0.1221	0.11288	-2.4958	-3.3917	-3.1646	-3.0875	-3.4708	-2.975	-3.1958	-3.4854	-2.8042	-3.5167	-3.3708	-2.875	-3.5125	-3.1667	-3.0021	-3.625	-166.938	173.300	109.183	139.221	69.493	-74.507	90.753	-27.596	40.348	-51.456	100.274	166.771	-91.888	140.154	118.314	146.519	0.00077577	0.00060583	0.0001913	675.45	3.8482e-06	5.0232e-06	700.19	277.64	5.0321e-06	6.7304e-06	337.02	153.38	128.05	75.457	5.197e-06	92.369	0.00042373	0.00018607	5.0893e-05	710.94	1.9453e-06	1.9492e-06	737.33	294.97	2.3073e-06	1.9342e-06	355.84	164.06	137.09	80.912	2.4225e-06	98.739	-134.572	-93.095	-73.920	-162.017	-21.055	-28.022	-163.217	-155.267	-27.101	-15.472	-157.599	-152.370	-149.971	-144.970	-33.700	-148.325	-8191	255	
1904.862	1	1	0	0	0.069332	0.079135	0.048897	0.22218	0.10646	0.14479	0.11619	0.034848	0.35903	0.124	0.13207	0.074655	0.19654	0.19635	0.25423	0.16859	-2.3563	-3.1688	-3.3208	-2.7	-3.4625	-3.025	-3.0146	-3.7021	-2.8333	-3.225	-3.5792	-2.7458	-3.4292	-3.0083	-2.9208	-3.7562	134.448	-84.873	-113.234	160.402	-33.922	-9.096	-158.560	-129.705	178.863	-112.974	107.797	-168.298	-161.307	121.845	-67.656	186.101	0.00077768	0.00051908	0.00015471	679.12	3.8589e-06	5.5265e-06	701	278	4.8813e-06	6.4946e-06	338.12	153.84	128.58	75.502	5.4115e-06	93.035	0.00042138	0.00018409	5.0921e-05	712.18	2.0132e-06	2.0427e-06	737.41	295.35	2.2581e-06	1.9105e-06	357.01	164.55	137.3	81.115	2.4097e-06	99.283	-134.131	-78.729	-76.094	-161.777	-27.175	-36.586	-162.704	-155.303	-32.207	-34.005	-157.669	-152.362	-149.964	-144.874	-37.206	-148.165	-8191	255	
1904.958	1	1	0	0	0.077332	0.11183	0.10655	0.077846	0.088864	0.049241	0.14351	0.061015	0.20039	0.071058	0.21646	0.15683	0.036381	0.21914	0.23482	0.29947	-2.1917	-3.1583	-3.3438	-2.7062	-3.5729	-3.2062	-3.0146	-3.6042	-2.8625	-3.0625	-3.3854	-3.0208	-3.4958	-3.3104	-2.75	-3.5958	-155.661	110.936	-132.172	-104.948	47.269	164.905	-5.430	-98.695	-102.680	-138.573	119.126	126.048	-116.572	130.792	-167.956	74.320	0.0007759	0.0005585	0.00015522	677.01	3.9578e-06	5.6454e-06	702.59	279.11	5.21e-06	6.3578e-06	338.63	154.95	128.75	75.917	6.2577e-06	93.181	0.00042101	0.00018992	4.9232e-05	712.02	1.9617e-06	1.975e-06	738.66	296.27	2.3595e-06	2.0019e-06	358.06	165.35	137.79	81.313	2.4468e-06	99.756	-134.949	-86.678	-84.780	-161.709	-20.204	-37.928	-162.761	-155.068	-31.917	-26.382	-157.240	-152.085	-149.965	-144.715	-46.746	-147.908	-8191	255	
1905.054	1	1	0	0	0.1269	0.038299	0.10805	0.28706	0.13995	0.035841	0.045137	0.17389	0.11691	0.36452	0.069817	0.22539	0.28898	0.20833	0.057322	0.14423	-2.525	-3.0854	-3.475	-2.9313	-3.2458	-3.2875	-2.9708	-3.8042	-3.075	-2.9729	-3.5042	-2.7438	-3.2979	-3.3854	-2.6292	-3.6083	-169.825	-159.527	-131.392	-41.538	111.225	-133.237	156.141	61.690	-85.390	-162.167	-134.682	-171.136	133.299	156.036	-88.493	35.268	0.00076921	0.00064556	0.00019091	676.73	4.1343e-06	5.0033e-06	703.62	277.88	4.2869e-06	5.9317e-06	337.38	153.74	127.62	75.422	5.0661e-06	92.58	0.00041457	0.0001952	4.8598e-05	711.11	2.0015e-06	1.9441e-06	739.45	296.16	2.1153e-06	2.0249e-06	356.87	164.43	137.21	81.079	2.3788e-06	98.845	-133.916	-86.466	-83.984	-161.596	-26.395	-29.258	-162.850	-155.259	-25.365	-18.960	-157.603	-152.406	-149.944	-144.968	-26.552	-148.242	-8191	255	
1905.149	1	1	0	0	0.183	0.11953	0.28863	0.26802	0.28242	0.23063	0.3088	0.20729	0.042156	0.084921	0.12631	0.15744	0.10329	0.18046	0.19382	0.23537	-2.4729	-2.85	-3.4458	-2.9125	-3.0604	-3.4167	-2.6958	-3.6229	-3.05	-2.8542	-3.7938	-2.825	-3.2812	-3.6542	-2.6604	-3.6229	-81.858	84.071	-77.346	-121.010	60.518	110.274	-148.616	178.433	-167.102	-31.424	185.096	148.553	-130.315	101.204	-107.998	176.862	0.00077423	0.0005597	0.00017228	674.03	3.6888e-06	5.7737e-06	694.15	275.58	5.5382e-06	5.1877e-06	337.22	153.55	128.27	75.465	6.0839e-06	91.944	0.00041651	0.00019094	4.9225e-05	707.93	2.0564e-06	1.9059e-06	732.5	293.92	2.1744e-06	2.0062e-06	355.29	163.78	137.04	80.811	2.4102e-06	98.39	-134.655	-77.446	-80.116	-162.088	-15.386	-36.395	-163.008	-155.330	-22.086	-28.945	-157.534	-152.372	-149.743	-144.699	-37.079	-148.076	-8191	255	
1905.245	1	1	0	0	0.19758	0.2075	0.23143	0.10849	0.17991	0.30987	0.041022	0.23834	0.055513	0.30021	0.13438	0.030297	0.15982	0.1231	0.4743	0.17934	-2.7542	-2.7938	-3.4625	-2.9188	-3.1188	-3.425	-2.8063	-3.3896	-3.1021	-2.8104	-3.5938	-2.7792	-3.2708	-3.7104	-2.6542	-3.5583	33.375	-40.275	6.829	48.211	-83.904	-153.153	67.271	121.421	115.855	52.512	-170.488	22.451	96.532	135.055	127.513	136.184	0.00076483	0.00059638	0.00014378	675.11	4.9303e-06	5.7861e-06	700.3	277.5	4.6556e-06	7.2514e-06	335.87	153.42	128.62	75.577	6.0784e-06	92.313	0.00040774	0.00018968	5.07e-05	708.59	2.0416e-06	1.8881e-06	734.87	294.68	2.1701e-06	2.0645e-06	355.52	163.98	137.21	80.914	2.4253e-06	98.583	-134.484	-81.615	-80.561	-161.976	-17.846	-22.942	-162.968	-155.109	-23.495	-33.762	-157.350	-152.331	-149.623	-144.685	-38.149	-147.935	-8191	255	
1905.365	1	1	0	0	0.37062	0.28081	0.036862	0.17816	0.21728	0.10428	0.080952	0.061643	0.1373	0.20132	0.036002	0.28797	0.20526	0.19033	0.073201	0.21719	-2.9042	-2.6625	-3.3792	-2.8187	-2.8104	-3.2875	-2.8729	-3.5	-3.3646	-2.7083	-3.5438	-3.1437	-2.9313	-3.6437	-2.6458	-3.4729	72.508	-49.313	130.375	-44.583	-77.114	7.714	89.074	76.846	120.180	-54.022	-161.533	-43.785	-70.011	173.364	63.238	141.755	0.00077018	0.00054445	0.00018165	675.77	4.5175e-06	6.1023e-06	699	276.99	4.8105e-06	7.1416e-06	335.52	153.13	128.08	74.927	5.5473e-06	91.884	0.00041549	0.0001951	5.0878e-05	709.54	2.0532e-06	1.8977e-06	735.33	294.1	2.0922e-06	2.0397e-06	354.69	163.77	136.97	80.457	2.4283e-06	98.281	-135.194	-79.563	-86.090	-161.881	-30.726	-18.938	-163.026	-155.010	-22.834	-22.734	-157.184	-152.061	-149.741	-144.576	-36.949	-147.921	-8191	255	
1905.462	1	1	0	0	0.14151	0.11977	0.22884	0.061693	0.15197	0.12526	0.14421	0.16578	0.075966	0.40594	0.19884	0.30793	0.14212	0.28116	0.2112	0.084056	-2.95	-2.5563	-3.3187	-3.1979	-2.8688	-3.5542	-2.7687	-3.375	-3.4354	-2.8812	-3.5458	-3.25	-3.0583	-3.6937	-2.8563	-3.1417	-150.238	145.260	146.636	-58.423	24.325	130.658	144.263	134.443	153.607	2.642	36.344	-122.486	58.760	138.840	-54.847	-122.420	0.00077163	0.00054897	0.00016924	671.46	4.2305e-06	5.3342e-06	695.82	276.5	4.9221e-06	5.9338e-06	336.58	153.76	127.88	75.282	4.6912e-06	91.951	0.00041333	0.00019538	4.9909e-05	706.34	2.1297e-06	1.8447e-06	733.4	293.63	2.0575e-06	2.0298e-06	356.38	164.37	137.1	80.766	2.3411e-06	98.577	-134.942	-93.608	-88.271	-161.679	-31.546	-33.788	-162.634	-154.887	-24.828	-21.783	-157.137	-152.093	-149.727	-144.711	-51.419	-147.868	-8191	255	
1905.558	1	1	0	0	0.21256	0.21771	0.33028	0.14634	0.31495	0.13634	0.12349	0.11401	0.32184	0.28427	0.25854	0.24629	0.1846	0.15727	0.18104	0.12045	-3.1042	-2.5729	-3.5187	-3.2333	-2.8021	-3.6437	-3.0729	-3.0062	-3.3729	-2.5687	-3.4625	-3.425	-2.7792	-3.5021	-3.0458	-3.0271	-110.402	131.249	159.533	105.833	-82.266	59.955	151.210	115.913	138.386	-59.744	116.980	148.115	164.955	163.237	-62.968	149.280	0.00078614	0.00052283	0.00017086	675.07	4.115e-06	5.3077e-06	699.36	276.37	3.964e-06	6.9425e-06	336.33	152.85	127.92	75.107	4.8423e-06	91.491	0.0004143	0.00019251	4.9774e-05	708.17	2.1862e-06	1.8994e-06	734.9	293.97	2.145e-06	2.1049e-06	355.15	163.56	136.65	80.53	2.252e-06	97.929	-135.481	-87.055	-92.561	-161.841	-21.327	-29.925	-162.732	-154.842	-19.767	-33.184	-157.187	-152.294	-149.635	-144.524	-45.848	-147.901	-8191	255	
1905.654	1	1	0	0	0.1013	0.27248	0.10902	0.23566	0.11611	0.23041	0.19608	0.16115	0.27369	0.15493	0.11379	0.32345	0.1873	0.037969	0.12711	0.069034	-3.3458	-2.7125	-3.1771	-3.5021	-2.8104	-3.3229	-3.0812	-2.9958	-3.4979	-2.7792	-3.2354	-3.4188	-2.9813	-3.5833	-2.9354	-2.9938	83.748	-161.421	80.849	170.804	-143.706	115.072	72.743	-140.340	159.168	-41.528	170.139	97.723	-36.260	91.123	-117.729	82.637	0.0007584	0.00054107	0.00016751	672.1	4.2017e-06	5.8816e-06	694.95	276.37	5.1687e-06	6.3193e-06	333.88	152.33	127.67	75.095	4.7256e-06	91.108	0.00040974	0.0001981	5.1484e-05	706.93	2.1267e-06	1.8623e-06	732.28	293.85	2.1015e-06	2.0383e-06	353.82	163.15	136.66	80.484	2.287e-06	97.742	-134.290	-85.873	-84.672	-161.765	-16.380	-23.470	-162.700	-155.021	-26.827	-15.552	-157.207	-152.195	-149.651	-144.536	-44.157	-147.828	-8191	255	
1905.775	1	1	0	0	0.035422	0.22061	0.26744	0.1077	0.0099143	0.080856	0.22762	0.12948	0.037685	0.15277	0.068694	0.14757	0.17485	0.090743	0.21455	0.065423	-3.1146	-2.7521	-3.0729	-3.4771	-2.7125	-3.4667	-3.2521	-3.0208	-3.5396	-2.7854	-3.1167	-3.5792	-2.8667	-3.5521	-3.1083	-3.0812	113.572	40.842	-31.513	86.429	-73.350	-142.575	68.630	-167.177	-96.969	162.362	-130.228	-131.289	81.067	183.182	119.237	179.687	0.00076944	0.00057794	0.00016925	673.21	4.3297e-06	6.1536e-06	696.31	276.62	4.5913e-06	6.5638e-06	336.08	153.23	127.91	75.188	5.7394e-06	91.745	0.00040706	0.00018909	5.261e-05	707.22	2.1742e-06	1.9104e-06	732.77	293.73	2.0676e-06	2.0611e-06	355.14	163.57	136.85	80.549	2.2807e-06	98.098	-134.456	-100.419	-86.040	-161.833	-26.810	-36.026	-162.607	-154.987	-29.389	-17.586	-157.095	-152.291	-149.613	-144.709	-33.739	-147.923	-8191	255	
1905.846	1	1	0	0	0.060273	0.25778	0.20208	0.27592	0.069082	0.16066	0.057699	0.11692	0.15708	0.21385	0.35332	0.18908	0.068312	0.066984	0.1488	0.079801	-3.1417	-2.8937	-2.8021	-3.6188	-2.65	-3.2875	-3.3625	-2.6813	-3.3625	-2.9562	-2.9958	-3.6583	-2.725	-3.2896	-3.3083	-2.8417	-20.976	48.873	136.131	105.002	-20.360	58.663	10.021	185.116	-35.086	121.863	81.475	139.642	-133.620	-157.468	62.907	-24.897	0.00074334	0.0006217	0.00017499	675.89	3.8951e-06	6.2657e-06	700.32	277.28	5.0233e-06	6.7391e-06	337.04	153.29	127.98	75.162	6.4076e-06	92.01	0.00040187	0.00019043	5.2083e-05	709.26	2.1891e-06	1.971e-06	736.63	294.56	2.154e-06	2.0357e-06	356.26	164.07	136.85	80.639	2.255e-06	98.468	-135.626	-93.302	-76.124	-161.800	-15.899	-33.358	-162.752	-155.029	-23.733	-14.072	-157.481	-152.132	-149.872	-144.654	-40.935	-148.022	-8191	255	
1905.967	1	1	0	0	0.21065	0.12585	0.044348	0.18416	0.23525	0.051376	0.25385	0.16433	0.02794	0.15391	0.29884	0.1311	0.12263	0.002494	0.23368	0.23041	-3.1104	-2.975	-2.8333	-3.5125	-2.7188	-3.1792	-3.4313	-2.8417	-3.5458	-3.025	-2.9417	-3.4188	-2.7812	-3.2396	-3.3125	-2.7167	-50.976	-93.666	20.903	118.504	68.760	-106.235	101.706	156.105	175.744	113.281	90.992	92.696	-90.213	106.403	37.558	100.693	0.00075241	0.00061818	0.00017001	675.14	4.6835e-06	6.2048e-06	702.43	277.49	4.6441e-06	6.695e-06	337.05	154.03	127.44	75.253	4.4669e-06	92.136	0.00041236	0.00019338	5.2289e-05	709.79	2.1145e-06	1.943e-06	738.28	295.11	2.1341e-06	1.9381e-06	356.63	164.41	136.91	80.709	2.225e-06	98.338	-135.605	-81.649	-87.490	-161.665	-21.345	-23.150	-162.638	-154.877	-31.248	-25.866	-156.909	-152.152	-149.650	-144.387	-30.776	-147.932	-8191	255	
1906.061	1	1	0	0	0.099451	0.09508	0.16926	0.16513	0.033731	0.11899	0.076053	0.16647	0.16331	0.18958	0.099446	0.29335	0.13641	0.37452	0.16032	0.18315	-3.125	-3.0375	-2.7521	-3.5271	-2.7208	-3.1354	-3.5354	-2.5938	-3.375	-3.0375	-2.7687	-3.5667	-2.6937	-3.2938	-3.4792	-2.8708	-39.548	-95.167	95.324	113.121	-34.014	-5.044	138.547	117.229	-84.064	18.309	67.058	132.788	166.736	179.622	-1.041	-65.585	0.00074994	0.00065701	0.00015136	676.29	4.2732e-06	4.1815e-06	699.81	277.11	3.8065e-06	5.4501e-06	335.43	152.19	126.7	74.694	4.9323e-06	91.102	0.00041251	0.00018771	5.3037e-05	710.46	2.0795e-06	2.009e-06	736.56	294.14	2.1224e-06	1.941e-06	354.27	163.01	136.06	80.075	2.2392e-06	97.256	-134.915	-78.750	-88.892	-161.499	-19.498	-24.201	-162.613	-154.894	-32.459	-24.019	-157.142	-152.036	-149.580	-144.364	-34.914	-147.859	-8191	255	
1906.157	1	1	0	0	0.29373	0.065415	0.21471	0.20209	0.18813	0.25089	0.050372	0.35414	0.089177	0.21926	0.15913	0.1159	0.080547	0.39757	0.15189	0.18628	-2.8917	-3.2042	-2.6708	-3.5083	-2.975	-2.9562	-3.6	-2.7896	-3.1625	-3.2583	-2.7479	-3.5062	-3.175	-2.8812	-3.6917	-2.8812	-165.658	-37.400	-6.563	-125.950	-102.903	94.873	-91.812	143.423	-164.628	96.989	115.533	112.873	-92.068	137.066	162.965	113.890	0.00076487	0.00066489	0.00015264	675.27	3.7624e-06	5.679e-06	697.6	275.73	3.8677e-06	5.8855e-06	334.44	152.23	126.55	74.551	4.7445e-06	91.142	0.00041537	0.0001796	5.2646e-05	709.54	2.1058e-06	1.9835e-06	734.15	293.25	2.19e-06	1.9333e-06	353.62	162.36	135.7	79.859	2.2384e-06	96.966	-135.989	-83.100	-81.413	-161.420	-14.026	-29.409	-162.805	-154.989	-36.018	-28.496	-157.108	-151.882	-149.886	-144.480	-33.131	-147.952	-8191	255	
1906.254	1	1	0	0	0.25929	0.27083	0.25548	0.15302	0.22783	0.30628	0.090722	0.20851	0.152	0.11393	0.092458	0.26929	0.13314	0.068522	0.28757	0.16171	-2.7979	-3.2771	-2.8604	-3.4958	-3.1396	-2.8271	-3.5646	-2.9583	-2.9708	-3.4667	-2.7854	-3.4021	-3.2625	-2.725	-3.4938	-3.0167	-53.526	-34.281	-4.702	-111.889	78.824	26.684	-106.059	139.206	-39.582	-25.399	163.941	-4.679	-1.301	-35.769	108.481	168.766	0.00076181	0.0004614	0.00017997	675.53	4.8905e-06	5.122e-06	697.69	276.69	4.8134e-06	5.8056e-06	333.93	152.42	126.8	74.33	5.5964e-06	91.176	0.00041147	0.00018091	5.2667e-05	709.5	2.0692e-06	2.0461e-06	735.76	293.97	2.2276e-06	1.8983e-06	354.45	162.76	136	79.924	2.2362e-06	97.415	-135.840	-92.432	-89.112	-161.774	-15.068	-19.141	-162.872	-155.045	-30.680	-26.502	-157.288	-151.971	-149.493	-144.551	-39.496	-147.982	-8191	255	
1906.374	1	1	0	0	0.063856	0.16455	0.14561	0.11546	0.21071	0.19325	0.060537	0.22517	0.14714	0.067642	0.17317	0.06526	0.20416	0.11355	0.038563	0.23252	-2.5583	-3.3854	-2.5542	-3.3917	-3.1521	-2.7646	-3.6292	-3.1104	-2.9896	-3.4729	-2.7521	-3.4917	-3.3563	-2.7938	-3.6396	-3.0854	63.588	-166.191	-93.518	-43.188	-161.132	133.980	-18.451	108.326	121.120	-29.182	140.955	-150.647	124.563	167.022	4.765	168.225	0.00077035	0.00048506	0.00016483	679.63	4.6256e-06	5.1115e-06	701.05	277.8	5.0356e-06	6.0666e-06	338.03	153	127.2	74.506	5.2132e-06	91.386	0.00041651	0.00017601	5.4776e-05	711.61	1.9954e-06	2.0166e-06	739.11	294.95	2.2279e-06	1.9484e-06	356.6	163.28	136.02	79.964	2.3023e-06	97.62	-134.496	-87.551	-91.196	-161.694	-19.257	-21.129	-162.633	-154.967	-29.741	-24.760	-156.991	-152.011	-149.444	-144.157	-44.615	-147.628	-8191	255	
1906.446	1	1	0	0	0.25002	0.066319	0.11442	0.15849	0.24698	0.17753	0.19183	0.18614	0.1193	0.25445	0.034852	0.36948	0.12042	0.20243	0.27024	0.33976	-2.5292	-3.6167	-2.8937	-3.5146	-3.2979	-2.6167	-3.5104	-3.1625	-2.6875	-3.575	-2.9667	-3.2479	-3.5062	-2.9354	-3.5	-3.325	-135.284	9.584	108.929	182.698	152.299	0.115	125.888	-68.138	-109.373	71.174	109.165	156.268	-172.677	82.463	3.187	-169.794	0.00074728	0.00056031	0.00016986	679.15	4.835e-06	4.1749e-06	704.37	277.69	4.0638e-06	6.884e-06	336.7	152.28	126.48	74.602	4.4933e-06	90.944	0.00041409	0.00018134	5.2817e-05	714.09	1.9999e-06	2.0183e-06	740.92	294.85	2.2737e-06	1.7939e-06	355.87	162.96	135.76	79.803	2.2682e-06	97.309	-134.661	-81.405	-78.589	-161.310	-12.099	-36.556	-162.423	-154.837	-23.074	-16.846	-157.086	-151.866	-149.607	-144.433	-42.983	-148.014	-8191	255	
1906.542	1	1	0	0	0.03475	0.19676	0.14648	0.11642	0.26857	0.079036	0.32546	0.1018	0.12822	0.22361	0.22657	0.11696	0.048287	0.33977	0.2091	0.44044	-2.6354	-3.5333	-2.7375	-3.1729	-3.4542	-2.7021	-3.4125	-3.2479	-2.6333	-3.6562	-3.0292	-3.0583	-3.4917	-2.7729	-3.4313	-3.325	-39.210	17.381	153.810	-81.647	98.066	-44.696	142.298	161.080	105.387	-20.217	183.489	-159.610	-85.554	162.964	-40.621	143.945	0.00076347	0.00062585	0.00018994	677.36	3.6208e-06	5.4062e-06	699.56	276.41	3.7741e-06	5.4665e-06	333.96	151.27	126.26	74.259	4.7332e-06	90.452	0.00041805	0.00018181	5.1448e-05	711.42	1.8423e-06	2.0076e-06	735.4	293.71	2.2276e-06	1.9111e-06	352.92	161.77	135.37	79.505	2.24e-06	96.566	-134.043	-84.391	-93.759	-161.530	-13.681	-30.844	-162.423	-154.593	-40.032	-23.530	-156.988	-151.779	-149.412	-144.255	-43.641	-147.670	-8191	255	
1906.638	1	1	0	0	0.27188	0.037395	0.038806	0.037836	0.22479	0.11147	0.24527	0.1368	0.31036	0.17067	0.26448	0.099699	0.016597	0.3858	0.084087	0.34084	-2.3417	-3.4854	-2.7188	-3.1917	-3.5375	-2.6104	-3.375	-3.3042	-2.9354	-3.3729	-3.0583	-2.9667	-3.6021	-2.9729	-3.2208	-3.4292	-13.377	22.085	-65.928	-93.419	100.661	111.299	-150.678	-169.509	10.171	-92.861	121.407	-143.699	-79.896	185.020	-163.163	130.893	0.00075171	0.00062142	0.00016505	672.96	3.4402e-06	5.2224e-06	699.01	276.49	4.6596e-06	5.3351e-06	334.69	151.15	126.47	74.189	5.1671e-06	90.373	0.00041459	0.0001779	5.0565e-05	708.22	1.9389e-06	1.964e-06	735.69	293.87	2.1542e-06	1.8844e-06	353.39	161.5	135.37	79.542	2.3026e-06	96.627	-134.091	-83.602	-87.272	-161.439	-27.188	-25.027	-162.478	-154.737	-30.400	-25.261	-157.158	-151.852	-149.454	-144.297	-33.171	-147.744	-8191	255	
1906.734	1	1	0	0	0.25009	0.1889	0.13779	0.1228	0.15289	0.18957	0.2524	0.15779	0.058931	0.1931	0.077827	0.19647	0.11537	0.2099	0.18564	0.11224	-2.4458	-3.3	-2.9125	-2.9375	-3.5375	-2.8021	-3.1813	-3.3688	-2.7146	-3.45	-3.1104	-2.8458	-3.5812	-2.725	-3.0917	-3.675	-69.130	183.787	182.832	93.862	98.801	143.760	123.432	122.849	-132.859	-54.897	106.103	-169.568	171.520	171.206	70.626	34.608	0.00077538	0.00051648	0.00016196	675.48	3.7463e-06	6.5679e-06	701.58	275.58	4.3229e-06	6.799e-06	333.18	152.1	127.19	74.171	4.651e-06	90.68	0.00042198	0.00017685	4.9966e-05	709.8	2.0121e-06	2.0285e-06	735.95	293.02	2.2454e-06	2.0022e-06	353.52	162.18	135.77	79.662	2.3889e-06	96.966	-134.478	-78.534	-78.145	-161.510	-23.789	-32.310	-162.687	-154.846	-31.511	-20.585	-157.229	-151.915	-149.496	-144.578	-43.872	-147.857	-8191	255	
1906.853	1	1	0	0	0.22523	0.12402	0.031243	0.29855	0.085668	0.13751	0.14197	0.27975	0.092397	0.18614	0.19387	0.010955	0.13732	0.32134	0.10894	0.19105	-2.1375	-3.375	-3.2458	-2.6708	-3.4688	-3.0125	-3.1292	-3.5438	-2.7229	-3.4958	-3.3312	-2.8979	-3.6312	-3.0958	-3.0604	-3.7479	179.705	-56.428	-88.796	-150.932	-22.025	121.100	-96.063	133.447	130.654	-142.915	66.156	-24.976	132.817	125.839	1.146	129.939	0.00076997	0.00063014	0.00014458	673.15	4.0309e-06	6.0396e-06	699.35	276.93	4.4008e-06	6.9747e-06	334.24	152.84	126.62	74.435	4.4367e-06	91.224	0.00041149	0.00018047	4.8541e-05	708.97	1.9397e-06	1.9951e-06	737.34	293.99	2.2263e-06	2.0221e-06	353.93	162.7	135.69	79.809	2.3747e-06	97.423	-134.361	-85.207	-90.133	-161.732	-16.087	-19.027	-162.489	-155.062	-38.400	-19.620	-156.852	-151.932	-149.366	-144.269	-33.257	-148.076	-8191	255	
1906.949	1	1	0	0	0.032667	0.065259	0.14241	0.27095	0.25289	0.20676	0.22877	0.27401	0.34228	0.12432	0.12456	0.032016	0.17664	0.33286	0.2031	0.27413	-2.1979	-3.2771	-3.1042	-2.9313	-3.5146	-3.0521	-2.8396	-3.7625	-2.6125	-3.3229	-3.3521	-2.8542	-3.6437	-3.15	-2.7875	-3.8354	-168.486	180.872	-71.777	-159.345	-38.800	109.481	173.992	145.802	92.623	26.384	-167.851	35.226	-44.095	80.012	-152.263	104.306	0.00076346	0.00056576	0.00020931	674.96	4.4309e-06	4.4977e-06	703.78	277.39	3.9279e-06	5.9441e-06	333.79	151.55	126.37	74.127	4.6953e-06	90.746	0.00041437	0.00018268	5.1976e-05	710.91	2.0081e-06	2.0138e-06	738.93	294.06	2.1834e-06	1.9922e-06	354	162.32	135.55	79.644	2.3105e-06	96.855	-134.233	-81.463	-81.669	-161.360	-30.732	-26.794	-162.724	-154.894	-28.905	-20.152	-157.225	-151.906	-149.450	-144.350	-39.964	-147.579	-8191	255	
1907.047	1	1	0	0	0.14844	0.21023	0.12722	0.20959	0.25887	0.072011	0.29554	0.15369	0.4294	0.21997	0.23209	0.2293	0.17772	0.1218	0.15739	0.040478	-2.4208	-3.2104	-3.3104	-2.6542	-3.4167	-3.0021	-2.9521	-3.6312	-2.6521	-3.0938	-3.4208	-2.5583	-3.45	-3.2667	-2.7958	-3.575	107.707	1.487	-100.923	76.356	-108.384	77.208	-168.888	-89.260	-17.476	-170.242	55.947	15.226	177.508	-167.837	32.676	162.175	0.000742	0.00058757	0.00019343	676.17	4.4599e-06	4.5466e-06	697.04	276.51	4.7014e-06	5.3676e-06	332.99	151.51	126.48	74.34	5.56e-06	90.479	0.00040649	0.00018573	5.0586e-05	709.2	2.0264e-06	1.8861e-06	733.43	293.33	2.2062e-06	1.9731e-06	352.73	161.78	135.65	79.552	2.4053e-06	96.57	-134.538	-93.095	-86.534	-161.358	-17.376	-28.496	-162.379	-154.562	-27.025	-20.819	-157.236	-151.818	-149.447	-144.475	-38.046	-147.955	-8191	255	
1907.142	1	1	0	0	0.068539	0.12747	0.18043	0.12468	0.23626	0.071521	0.22702	0.096425	0.10337	0.42569	0.15452	0.26121	0.23317	0.098975	0.40101	0.206	-2.3833	-2.875	-3.5292	-2.6646	-3.425	-3.2104	-2.7938	-3.4833	-3.175	-2.9208	-3.525	-2.7042	-3.3438	-3.2708	-2.7104	-3.7313	-127.538	25.999	-10.831	109.062	-1.531	158.286	148.637	101.504	90.754	-71.420	-151.998	161.913	-162.351	128.151	43.218	181.666	0.00076724	0.00074192	0.00017203	675.46	3.9486e-06	6.104e-06	696.65	275.71	4.2682e-06	5.7446e-06	333.42	151.66	127.11	74.579	5.3363e-06	90.808	0.00041824	0.00019176	4.8976e-05	708.25	1.9721e-06	1.8252e-06	733.17	293.54	2.1553e-06	2.0719e-06	353.13	162.01	136	79.829	2.3214e-06	96.947	-135.128	-88.847	-82.412	-161.372	-17.439	-25.475	-162.459	-154.836	-20.139	-17.663	-157.106	-151.721	-149.452	-144.149	-34.571	-147.664	-8191	255	
1907.238	1	1	0	0	0.21874	0.19982	0.21348	0.089083	0.074532	0.12588	0.29602	0.14711	0.12868	0.25335	0.062191	0.23709	0.14311	0.25537	0.11394	0.3749	-2.5438	-2.8208	-3.4688	-2.7938	-3.1292	-3.4333	-2.7417	-3.5938	-3.1354	-2.6875	-3.6354	-2.7812	-3.2333	-3.5667	-2.6562	-3.5187	80.226	-38.095	-45.069	40.058	-126.006	13.703	-105.531	161.187	-48.885	2.313	147.063	61.316	-71.370	147.475	156.296	151.356	0.00073648	0.00061389	0.00017396	673.35	3.8738e-06	4.1893e-06	698.75	276.55	4.9275e-06	5.9411e-06	334.88	151.86	127.01	74.469	4.6318e-06	91.085	0.00040801	0.00019174	5.0665e-05	708.24	2.0264e-06	1.7776e-06	735.59	293.87	2.1254e-06	2.0192e-06	353.8	162.38	135.82	79.785	2.4168e-06	97.225	-134.267	-80.126	-78.398	-161.484	-33.076	-36.477	-162.276	-154.581	-26.312	-19.927	-156.984	-151.866	-149.393	-144.244	-43.812	-147.625	-8191	255	
1907.334	1	1	0	0	0.08229	0.27766	0.063978	0.3131	0.21076	0.15137	0.20046	0.15533	0.21569	0.11823	0.23544	0.098089	0.21758	0.077382	0.10573	0.08155	-2.7708	-2.5292	-3.4542	-3.0229	-2.9083	-3.4667	-2.6688	-3.2979	-2.9417	-2.8125	-3.5333	-2.9375	-3.0729	-3.4271	-2.7833	-3.5417	-55.588	7.840	61.370	155.588	43.338	-121.634	128.446	75.943	60.709	107.930	-162.807	48.980	179.664	88.139	-67.654	19.891	0.00074381	0.00064558	0.00014127	675.26	4.8757e-06	6.1323e-06	703.32	276.74	4.7616e-06	7.7949e-06	336.58	153.17	127.16	74.578	5.5702e-06	91.645	0.00040836	0.00019407	5.0472e-05	709.56	2.0795e-06	1.8425e-06	739.17	294.1	2.0658e-06	2.0372e-06	355.54	163.15	135.95	80.04	2.3676e-06	97.834	-135.290	-84.847	-76.191	-161.424	-13.961	-31.643	-162.784	-154.695	-32.006	-25.748	-157.305	-151.951	-149.534	-144.166	-41.451	-147.460	-8191	255	
1907.455	1	1	0	0	0.28066	0.22394	0.13104	0.087535	0.056769	0.085883	0.20803	0.14087	0.38138	0.18275	0.31794	0.26492	0.20902	0.22497	0.15038	0.23001	-2.6312	-2.7958	-3.3604	-2.9125	-2.9875	-3.5062	-2.8812	-3.4479	-3.225	-2.8208	-3.5771	-2.9813	-3.0438	-3.5792	-2.8396	-3.3396	-50.550	-31.943	34.763	137.855	-34.953	-5.464	137.207	142.023	37.247	-36.006	160.870	140.119	27.634	-137.867	93.574	-154.911	0.00076328	0.00063083	9.4296e-05	677.53	3.5634e-06	5.9229e-06	703.15	276.97	4.7083e-06	5.9181e-06	335.26	152.39	126.75	74.312	5.3961e-06	91.119	0.00040393	0.00019189	4.9788e-05	710.91	2.1193e-06	1.845e-06	738.11	293.89	2.1399e-06	1.9162e-06	354.32	162.38	135.83	79.786	2.3365e-06	97.028	-135.305	-79.950	-78.163	-161.482	-27.927	-31.534	-162.061	-154.613	-26.008	-21.925	-156.870	-151.691	-149.202	-144.068	-35.738	-147.551	-8191	255	
1907.551	1	1	0	0	0.013326	0.27512	0.31809	0.016589	0.15717	0.20829	0.19328	0.16761	0.10443	0.13709	0.12483	0.094567	0.21263	0.25537	0.20498	0.14068	-2.9292	-2.7062	-3.3917	-3.1292	-2.7812	-3.8458	-2.725	-3.2917	-3.3	-2.6042	-3.5146	-3.1937	-2.825	-3.5854	-2.8521	-3.2625	173.706	-117.879	-133.815	81.309	162.755	-70.648	121.955	178.727	41.406	-23.977	-97.641	96.378	116.934	83.487	-73.001	77.785	0.00075691	0.00047431	0.00016268	677.18	4.5215e-06	4.6202e-06	698.32	277.34	3.9424e-06	5.1872e-06	334.05	151.34	126.54	74.432	5.8023e-06	90.567	0.00040136	0.00019482	4.8577e-05	709.38	2.0524e-06	1.8456e-06	734.27	293.67	2.1023e-06	1.9481e-06	353.15	161.74	135.59	79.649	2.2594e-06	96.755	-134.898	-88.396	-79.099	-161.484	-26.842	-26.744	-162.215	-154.469	-26.455	-25.063	-156.497	-151.560	-149.344	-144.165	-33.325	-147.405	-8191	255	
1907.647	1	1	0	0	0.026487	0.018242	0.12297	0.20832	0.1155	0.22927	0.28371	0.056627	0.10036	0.1074	0.18145	0.3018	0.26663	0.30923	0.15131	0.22905	-3.2542	-2.6458	-3.4604	-3.2708	-2.8	-3.575	-2.9083	-3.2938	-3.3937	-2.7	-3.4896	-3.5458	-2.7917	-3.675	-2.9813	-3.0292	93.179	147.740	151.649	137.025	-103.623	-24.905	-125.189	86.808	15.670	78.711	123.796	180.838	-121.925	146.724	169.148	-68.428	0.00075398	0.00064464	0.00016511	676.52	4.348e-06	5.1583e-06	702.83	276.26	3.7141e-06	6.287e-06	332.48	150.66	126.15	74.035	4.681e-06	90.097	0.0004029	0.00019525	5.0436e-05	709.08	2.0864e-06	1.8368e-06	736.46	293.25	2.114e-06	2.0192e-06	352.57	161.37	135.18	79.412	2.3233e-06	96.423	-134.485	-92.564	-88.001	-161.257	-16.393	-27.430	-162.340	-154.502	-29.872	-31.097	-156.759	-151.634	-149.276	-144.030	-30.543	-147.272	-8191	255	
1907.743	1	1	0	0	0.21398	0.30275	0.06647	0.064752	0.14603	0.039614	0.36221	0.15514	0.06227	0.13869	0.058714	0.22524	0.245	0.23211	0.11663	0.32263	-3.0854	-2.6792	-3.4625	-3.3854	-2.7229	-3.5229	-3.0167	-3.0583	-3.5479	-2.8354	-3.4083	-3.3417	-2.85	-3.7083	-3.0687	-3.0479	56.425	51.940	147.088	-118.596	106.390	6.511	175.208	127.066	-120.606	85.359	-5.694	140.243	-133.846	-59.957	13.278	-143.447	0.00074226	0.00061974	0.00014668	672.7	4.5078e-06	5.6029e-06	698.55	275.04	4.5253e-06	6.0531e-06	333.75	151.55	125.98	73.984	5.3214e-06	90.219	0.00039678	0.00019687	4.8783e-05	708.39	2.1007e-06	1.964e-06	734.66	292.67	2.1219e-06	1.941e-06	353.11	161.59	135.06	79.417	2.3531e-06	96.475	-134.357	-75.026	-87.500	-161.697	-17.471	-34.079	-162.755	-154.906	-26.181	-38.721	-156.928	-152.061	-149.620	-144.482	-36.921	-147.849	-8191	255	
#DATA ENDS
