BOXY.EXE: ISS Imagent and Oximeter Data Acquisition Program Version 0.80
Ascii Record File

#ACQ INFORMATION
2  Detector Channels 
16  External MUX Channels 
1  Auxiliary Channels 
5000  Waveform (CCF) Frequency (Hz)
1  Waveforms Skipped 
30  Waveforms Averaged 
1  Cycles Averaged 
16  Acquisitions per Waveform 
10.0806  Updata Rate (Hz) 

#FILE INFORMATION
TRUE -- External MUX Channel results are PARSED.
FALSE -- AC DC and Phase are NOT grouped.
TRUE -- Companion Program Settings File CREATED.
FALSE -- AC data not excluded
FALSE -- DC data not excluded
FALSE -- Phase data not excluded
FALSE -- Auxillary Chn. data not excluded
Tab delimiters

#CALIBRATION STATE
TRUE -- Waveform Calibration Values APPLIED.


#AUX CALIBRATION VALUES
Val Type	aux-1	

Term	1.0000e+00	
Factor	0.0000e+00	


#WF CALIBRATION VALUES
A = Detector Channel
Val Type	A-AC1	A-AC2	A-AC3	A-AC4	A-AC5	A-AC6	A-AC7	A-AC8	A-AC9	A-AC10	A-AC11	A-AC12	A-AC13	A-AC14	A-AC15	A-AC16	A-DC1	A-DC2	A-DC3	A-DC4	A-DC5	A-DC6	A-DC7	A-DC8	A-DC9	A-DC10	A-DC11	A-DC12	A-DC13	A-DC14	A-DC15	A-DC16	A-Ph1	A-Ph2	A-Ph3	A-Ph4	A-Ph5	A-Ph6	A-Ph7	A-Ph8	A-Ph9	A-Ph10	A-Ph11	A-Ph12	A-Ph13	A-Ph14	A-Ph15	A-Ph16	

Term	0.00000e+00	0.00000e+00	0.00000e+00	0.00000e+00	0.00000e+00	0.00000e+00	0.00000e+00	0.00000e+00	0.00000e+00	0.00000e+00	0.00000e+00	0.00000e+00	0.00000e+00	0.00000e+00	0.00000e+00	0.00000e+00	0.00000e+00	0.00000e+00	0.00000e+00	0.00000e+00	0.00000e+00	0.00000e+00	0.00000e+00	0.00000e+00	0.00000e+00	0.00000e+00	0.00000e+00	0.00000e+00	0.00000e+00	0.00000e+00	0.00000e+00	0.00000e+00	0.00000e+00	0.00000e+00	0.00000e+00	0.00000e+00	0.00000e+00	0.00000e+00	0.00000e+00	0.00000e+00	0.00000e+00	0.00000e+00	0.00000e+00	0.00000e+00	0.00000e+00	0.00000e+00	0.00000e+00	0.00000e+00	
Factor	1.00000e+00	1.00000e+00	1.00000e+00	1.00000e+00	1.00000e+00	1.00000e+00	1.00000e+00	1.00000e+00	1.00000e+00	1.00000e+00	1.00000e+00	1.00000e+00	1.00000e+00	1.00000e+00	1.00000e+00	1.00000e+00	1.00000e+00	1.00000e+00	1.00000e+00	1.00000e+00	1.00000e+00	1.00000e+00	1.00000e+00	1.00000e+00	1.00000e+00	1.00000e+00	1.00000e+00	1.00000e+00	1.00000e+00	1.00000e+00	1.00000e+00	1.00000e+00	X	X	X	X	X	X	X	X	X	X	X	X	X	X	X	X	

B = Detector Channel
Val Type	B-AC1	B-AC2	B-AC3	B-AC4	B-AC5	B-AC6	B-AC7	B-AC8	B-AC9	B-AC10	B-AC11	B-AC12	B-AC13	B-AC14	B-AC15	B-AC16	B-DC1	B-DC2	B-DC3	B-DC4	B-DC5	B-DC6	B-DC7	B-DC8	B-DC9	B-DC10	B-DC11	B-DC12	B-DC13	B-DC14	B-DC15	B-DC16	B-Ph1	B-Ph2	B-Ph3	B-Ph4	B-Ph5	B-Ph6	B-Ph7	B-Ph8	B-Ph9	B-Ph10	B-Ph11	B-Ph12	B-Ph13	B-Ph14	B-Ph15	B-Ph16	

Term	0.00000e+00	0.00000e+00	0.00000e+00	0.00000e+00	0.00000e+00	0.00000e+00	0.00000e+00	0.00000e+00	0.00000e+00	0.00000e+00	0.00000e+00	0.00000e+00	0.00000e+00	0.00000e+00	0.00000e+00	0.00000e+00	0.00000e+00	0.00000e+00	0.00000e+00	0.00000e+00	0.00000e+00	0.00000e+00	0.00000e+00	0.00000e+00	0.00000e+00	0.00000e+00	0.00000e+00	0.00000e+00	0.00000e+00	0.00000e+00	0.00000e+00	0.00000e+00	-9.97839e+01	-1.27879e+02	-1.28521e+02	-1.82006e+02	-5.58992e+01	-7.33021e+01	-1.57810e+02	-1.62015e+02	-5.12818e+01	-6.74143e+01	-1.72403e+02	-1.70165e+02	-1.80574e+02	-1.76604e+02	-6.35904e+01	-1.48996e+02	
Factor	1.65874e-05	1.60630e-04	4.67225e-05	1.56642e-01	1.23825e-06	1.65992e-06	1.81458e-01	5.32774e-02	1.10927e-06	1.85625e-06	9.31568e-02	3.11199e-02	4.21576e-02	9.47623e-03	1.36244e-06	1.40405e-02	8.31017e-06	1.23189e-05	3.42039e-06	7.89887e-02	1.27350e-07	1.35954e-07	8.60234e-02	2.70087e-02	1.27156e-07	1.36589e-07	4.55214e-02	1.53836e-02	2.16466e-02	4.83925e-03	1.31139e-07	6.92868e-03	X	X	X	X	X	X	X	X	X	X	X	X	X	X	X	X	



#DISTANCE SETTINGS
A = Detector Channel
A-1	A-2	A-3	A-4	A-5	A-6	A-7	A-8	A-9	A-10	A-11	A-12	A-13	A-14	A-15	A-16	

2.5000e+00	3.0000e+00	2.5000e+00	3.0000e+00	2.0000e+00	3.0000e+00	1.5000e+00	3.0000e+00	3.0000e+00	3.0000e+00	3.0000e+00	3.0000e+00	3.0000e+00	3.0000e+00	1.5000e+00	3.0000e+00	

B = Detector Channel
B-1	B-2	B-3	B-4	B-5	B-6	B-7	B-8	B-9	B-10	B-11	B-12	B-13	B-14	B-15	B-16	

1.0000e+01	1.0000e+01	1.0000e+01	1.4400e+00	1.0000e+01	1.0000e+01	1.5100e+00	1.9400e+00	1.0000e+01	1.0000e+01	1.9900e+00	2.4900e+00	2.4100e+00	2.9000e+00	1.0000e+01	2.9800e+00	




#DATA BEGINS
time	group	step	mark	flag	A-AC1	A-AC2	A-AC3	A-AC4	A-AC5	A-AC6	A-AC7	A-AC8	A-AC9	A-AC10	A-AC11	A-AC12	A-AC13	A-AC14	A-AC15	A-AC16	A-DC1	A-DC2	A-DC3	A-DC4	A-DC5	A-DC6	A-DC7	A-DC8	A-DC9	A-DC10	A-DC11	A-DC12	A-DC13	A-DC14	A-DC15	A-DC16	A-Ph1	A-Ph2	A-Ph3	A-Ph4	A-Ph5	A-Ph6	A-Ph7	A-Ph8	A-Ph9	A-Ph10	A-Ph11	A-Ph12	A-Ph13	A-Ph14	A-Ph15	A-Ph16	B-AC1	B-AC2	B-AC3	B-AC4	B-AC5	B-AC6	B-AC7	B-AC8	B-AC9	B-AC10	B-AC11	B-AC12	B-AC13	B-AC14	B-AC15	B-AC16	B-DC1	B-DC2	B-DC3	B-DC4	B-DC5	B-DC6	B-DC7	B-DC8	B-DC9	B-DC10	B-DC11	B-DC12	B-DC13	B-DC14	B-DC15	B-DC16	B-Ph1	B-Ph2	B-Ph3	B-Ph4	B-Ph5	B-Ph6	B-Ph7	B-Ph8	B-Ph9	B-Ph10	B-Ph11	B-Ph12	B-Ph13	B-Ph14	B-Ph15	B-Ph16	aux-1	digaux	

2617.522	1	1	0	768	0.042506	0.15632	0.040127	0.24908	0.089737	0.15217	0.30571	0.1149	0.06864	0.017339	0.20883	0.18156	0.15012	0.17909	0.066316	0.2537	-2.1875	-3.5542	-3.0104	-2.8688	-3.7	-2.8563	-3.4875	-3.6437	-2.8208	-3.6375	-3.3312	-3.1	-3.7292	-2.9583	-3.1875	-3.5521	-105.238	-35.408	157.273	23.901	223.955	216.990	198.308	71.306	-73.590	72.072	184.110	-95.758	27.531	-5.323	67.155	142.871	0.00033955	0.00089946	0.00012034	636.96	6.8525e-06	2.2382e-06	1341.6	254.82	5.6704e-06	1.343e-05	587.15	164.98	75.597	27.046	6.0612e-06	82.783	0.0013602	0.0019247	0.00045542	503.85	1.9015e-05	1.7999e-05	1062.6	202.39	1.7909e-05	2.0624e-05	464.18	132.86	62.328	21.746	2.0992e-05	66.567	-120.065	6.070	83.593	-114.213	-63.358	66.424	-114.473	-108.090	65.459	41.692	-109.773	-103.724	-103.413	-97.324	-39.220	-98.709	-8191	255	
2617.618	1	1	0	0	0.19701	0.3093	0.27212	0.043675	0.057247	0.1086	0.41548	0.03554	0.05511	0.058605	0.086532	0.41772	0.049004	0.024736	0.25672	0.19134	-2.5479	-3.4417	-3.05	-2.9125	-3.7604	-3.0875	-3.4104	-3.4437	-3.0167	-3.5146	-3.5833	-2.9938	-3.6354	-3.2479	-2.9417	-3.7938	108.931	139.608	20.543	-119.386	-105.890	173.707	174.574	-112.091	-18.195	173.959	188.269	218.582	-68.267	196.972	156.138	-109.846	0.00034616	0.00048161	7.3875e-05	633.31	7.9832e-06	1.815e-06	1350.1	251.4	5.6276e-06	8.277e-06	581.03	162.6	74.118	26.364	9.1546e-06	80.646	0.0013071	0.0019197	0.00045577	500.33	1.9213e-05	1.7673e-05	1063.5	200.12	1.7522e-05	2.1447e-05	459.67	130.75	61.854	21.35	2.0587e-05	64.866	221.021	72.686	-101.760	-113.949	-3.464	59.700	-115.013	-108.871	-29.000	-26.979	-109.799	-104.415	-103.991	-97.329	27.511	-99.186	-8191	255	
2617.715	1	1	0	0	0.13449	0.079613	0.31994	0.017588	0.12763	0.14522	0.088305	0.34982	0.096322	0.20471	0.22962	0.35277	0.090952	0.10788	0.065523	0.28909	-2.4938	-3.4021	-3.4854	-2.8208	-3.6354	-3.1354	-3.2896	-3.8312	-3.0375	-3.5854	-3.6021	-2.9229	-3.4833	-3.2042	-3.0396	-3.7375	87.760	187.641	65.122	187.927	170.458	-4.176	110.376	183.480	149.100	-53.006	-121.203	224.050	-93.921	221.146	75.962	159.878	0.00030267	3.4395e-05	0.0002194	634.81	2.3868e-06	9.7196e-06	1352.1	252.88	3.8544e-06	1.0256e-05	578.67	160.84	73.856	26.466	5.8947e-06	80.787	0.0012618	0.0020176	0.00047255	502.42	1.9776e-05	1.7545e-05	1060.4	201.68	1.6479e-05	2.1409e-05	459.73	129.64	61.95	21.265	2.0113e-05	64.771	-124.907	-11.915	22.793	-114.154	87.605	1.296	-114.984	-108.891	-35.298	35.141	-109.361	-104.486	-102.633	-97.747	66.974	-99.255	-8191	255	
2617.811	1	1	0	0	0.079764	0.13383	0.27443	0.14306	0.15248	0.27264	0.16443	0.16173	0.26196	0.20495	0.13132	0.17424	0.23322	0.093148	0.19486	0.095813	-2.4146	-3.4729	-3.5312	-2.9313	-3.5875	-3.1896	-2.9667	-3.6771	-2.9813	-3.2062	-3.7292	-2.9188	-3.5792	-3.3979	-2.9958	-3.7333	-6.591	11.125	-5.684	73.277	-107.712	-104.557	-50.154	85.050	14.368	232.384	-45.207	171.259	-116.095	-111.336	-6.336	47.264	0.00026952	0.0012175	0.00018189	634.29	6.5504e-06	3.2471e-06	1336.8	251.61	3.6374e-06	7.3353e-06	583.01	161.75	73.978	26.257	6.2367e-06	80.566	0.0012133	0.0019658	0.00049447	500.11	2.0662e-05	1.8388e-05	1052.1	201.25	1.7281e-05	2.1686e-05	461.48	130.6	62.209	21.319	1.8585e-05	65.135	-118.109	-23.757	-2.703	-113.847	-70.914	54.329	-115.028	-108.363	-29.929	68.836	-109.534	-104.060	-103.663	-97.965	-33.549	-98.607	-8191	255	
2617.907	1	1	0	0	0.12245	0.16924	0.25364	0.1372	0.15013	0.30625	0.066566	0.11054	0.10853	0.16484	0.44522	0.33412	0.17948	0.12932	0.12999	0.13295	-2.5979	-3.1271	-3.425	-2.8563	-3.4625	-3.2146	-2.9562	-3.7833	-3.0792	-3.0417	-3.5646	-2.8917	-3.3625	-3.2604	-2.6083	-3.5771	-60.212	-111.008	96.253	150.897	202.182	101.007	94.895	199.921	7.478	-17.950	188.804	216.500	-89.094	214.053	-53.365	-49.475	0.00034157	0.000687	0.00014371	638.11	1.5957e-06	6.6213e-06	1358.4	252.69	1.8137e-06	4.4818e-06	583.34	162.45	74.384	27.046	5.0727e-06	82.605	0.0012213	0.0019896	0.00048162	501.7	1.9566e-05	1.9162e-05	1062.6	202.06	1.694e-05	2.1371e-05	463.55	130.98	62.072	21.77	1.8435e-05	66.183	-118.782	-51.686	-86.233	-114.252	121.200	-47.981	-115.003	-108.847	78.192	35.676	-109.278	-104.439	-103.111	-97.151	-3.843	-98.898	-8191	255	
2618.003	1	1	0	0	0.028125	0.10341	0.21621	0.14472	0.14888	0.22917	0.11957	0.12022	0.1482	0.22773	0.043525	0.30128	0.19684	0.051812	0.052044	0.262	-2.6771	-2.8917	-3.5438	-2.8958	-3.475	-3.4729	-2.8104	-3.4813	-3.2646	-2.8583	-3.6542	-3.0563	-3.3479	-3.4396	-2.6771	-3.7583	109.316	21.170	5.497	183.009	3.399	191.980	196.159	-8.919	210.689	-112.439	193.452	184.868	177.359	198.237	227.622	191.788	0.0003683	0.00093815	8.6888e-05	638.73	9.4536e-06	3.6039e-06	1351.1	255.09	7.4579e-06	5.1208e-06	587.28	163.74	75.499	26.676	5.7991e-06	83.537	0.0012505	0.0019118	0.00050565	502.33	2.0593e-05	1.9042e-05	1069.3	203.69	1.6976e-05	2.0785e-05	467.36	132.29	62.644	21.806	1.8649e-05	66.749	226.684	-38.075	-54.660	-113.889	59.221	-57.253	-114.991	-108.207	12.716	-10.604	-109.482	-103.992	-104.670	-97.693	-1.715	-98.667	-8191	255	
2618.124	1	1	0	0	0.07253	0.11199	0.11417	0.19118	0.18121	0.087491	0.27168	0.065125	0.11266	0.097131	0.14754	0.24721	0.13402	0.24404	0.072345	0.23763	-2.8729	-2.8458	-3.6104	-2.9062	-3.2562	-3.4375	-2.9854	-3.5458	-3.2667	-2.7583	-3.8354	-3.0458	-3.175	-3.5729	-2.7687	-3.6729	-7.995	218.299	139.575	-86.891	-28.427	119.687	174.851	-77.226	146.527	-124.040	141.967	131.306	189.975	201.533	54.461	189.197	0.00031802	0.0010684	0.00010133	633.03	1.8678e-06	1.298e-05	1350	259.51	6.7777e-06	8.1535e-06	591.49	162.77	74.709	26.331	7.137e-06	80.701	0.0012607	0.0018833	0.00051494	499.3	2.0379e-05	1.997e-05	1063.5	204.66	1.676e-05	1.9596e-05	468.44	130.73	62.37	21.341	1.7462e-05	65.029	217.260	-2.710	-117.715	-114.264	67.472	-7.213	-114.789	-107.984	14.143	35.743	-109.663	-104.671	-104.172	-96.945	-114.188	-98.837	-8191	255	
2618.218	1	1	0	0	0.11934	0.083637	0.23184	0.12688	0.12141	0.14767	0.28509	0.14585	0.1691	0.093828	0.2102	0.22079	0.027064	0.089287	0.27704	0.15882	-3.0729	-2.7313	-3.6729	-3.0187	-3.1813	-3.5458	-3.0062	-3.4375	-3.35	-2.9167	-3.6625	-3.1458	-3.0875	-3.5062	-2.7771	-3.3187	-44.302	-77.339	51.016	170.944	221.423	193.813	180.545	-125.270	98.045	-14.122	196.722	167.450	-45.813	179.658	-28.025	29.524	0.00028381	0.00043264	0.00010739	629.03	1.6393e-05	3.8313e-06	1353	255.55	1.6623e-06	4.6717e-06	583.85	162.77	74.824	26.121	1.5875e-05	80.552	0.0012907	0.0017835	0.00051648	495.93	1.9664e-05	2.023e-05	1061.7	203.34	1.7592e-05	1.9934e-05	463.92	130.91	61.892	21.376	1.709e-05	64.943	-118.464	38.930	-51.161	-114.156	9.467	44.843	-114.954	-107.985	-43.336	18.214	-109.360	-104.312	-103.035	-97.208	9.391	-98.774	-8191	255	
2618.314	1	1	0	0	0.10066	0.10163	0.19302	0.08154	0.25725	0.062884	0.071595	0.12227	0.12179	0.14604	0.20385	0.05387	0.29583	0.21359	0.20044	0.050913	-2.9104	-2.7771	-3.4229	-3.0771	-2.925	-3.7042	-3.1875	-3.2417	-3.65	-2.9771	-3.7	-3.1312	-2.9792	-3.6	-3.0042	-3.3542	140.750	73.358	184.468	-19.288	0.440	-41.428	180.888	157.621	-49.664	208.285	157.627	203.041	114.402	139.817	127.098	-95.658	0.00035895	0.00028541	8.7569e-05	626.7	2.4419e-06	2.937e-06	1343.6	255.09	6.4229e-06	1.6391e-05	580.66	161.86	76.495	26.238	5.5507e-06	81.437	0.0013351	0.0017066	0.00054372	496.06	1.8618e-05	2.0862e-05	1059.8	202.94	1.8973e-05	1.8411e-05	463.52	130.42	62.639	21.337	1.7755e-05	65.403	-115.999	33.339	159.645	-114.511	65.380	-64.346	-114.985	-108.607	204.893	-9.110	-109.698	-103.953	-103.636	-97.599	-3.952	-98.835	-8191	255	
2618.410	1	1	0	0	0.014284	0.25403	0.062826	0.1006	0.21266	0.22034	0.21142	0.34715	0.26454	0.11853	0.19546	0.094846	0.047631	0.27345	0.1557	0.15943	-3.075	-2.9146	-3.4896	-3.3333	-2.7812	-3.5271	-3.0938	-2.9688	-3.5354	-2.8458	-3.4	-3.2812	-2.7458	-3.5687	-3.1542	-3.0396	-84.254	-123.928	209.442	11.737	131.250	81.210	154.432	60.063	193.891	-79.017	220.476	119.057	13.843	-108.639	127.337	99.049	0.0003938	0.00059009	0.00022093	630.79	4.2306e-06	8.8927e-06	1347	255.83	4.1645e-06	9.0785e-06	587.13	162.9	74.34	25.94	2.7921e-07	81.737	0.0013819	0.0016871	0.00055251	497.93	1.8939e-05	2.0849e-05	1060.2	203.24	1.9921e-05	1.8502e-05	466.55	131.6	62.205	21.417	1.7536e-05	65.937	230.144	-42.261	25.300	-114.509	-49.251	85.423	-114.616	-107.817	106.412	4.801	-109.150	-104.511	-103.615	-97.253	183.043	-98.944	-8191	255	
2618.507	1	1	0	0	0.19062	0.12306	0.16368	0.14507	0.08675	0.12275	0.19383	0.35965	0.30658	0.12836	0.3495	0.20261	0.15174	0.12902	0.22804	0.27463	-3.1312	-2.7167	-3.2125	-3.3479	-2.7229	-3.575	-3.2521	-3.0187	-3.6646	-2.9292	-3.4125	-3.4479	-2.7812	-3.6312	-3.0333	-3.1792	58.755	-0.224	-87.038	220.691	140.987	84.838	186.616	193.737	-64.000	-112.858	158.718	-122.615	127.000	-27.544	-40.542	179.089	0.00023147	0.0010669	3.8033e-05	624.47	3.286e-06	5.4007e-06	1356.2	257.94	4.6448e-06	6.9731e-06	594.7	164.35	74.175	26.373	4.7957e-06	82.32	0.0013981	0.0016314	0.00056815	497.15	1.8984e-05	2.2557e-05	1067.2	205.22	1.9799e-05	1.8692e-05	472.67	133.02	62.119	21.71	1.8322e-05	66.189	230.533	-38.808	210.597	-114.210	72.657	200.820	-114.769	-108.216	27.169	11.407	-109.791	-104.207	-103.324	-97.455	83.939	-98.735	-8191	255	
2618.603	1	1	0	0	0.1001	0.033975	0.2078	0.18755	0.064503	0.17521	0.16197	0.11625	0.14047	0.18185	0.19414	0.0051542	0.16581	0.20621	0.052952	0.17232	-3.4188	-3.0125	-3.1771	-3.5187	-2.9542	-3.6458	-3.4396	-2.9896	-3.5438	-2.7896	-3.0333	-3.5375	-2.5646	-3.5083	-3.3333	-3.1063	149.735	14.792	211.998	102.913	-58.199	11.199	-119.485	222.154	-123.139	-3.348	180.464	15.349	29.726	215.260	-89.366	-65.881	0.00026979	0.00040533	0.00015666	632.08	5.4019e-06	2.9005e-06	1348.7	255.06	3.9114e-06	9.2615e-06	586	161.91	74.943	25.909	3.0802e-06	80.611	0.001459	0.0016157	0.00056927	499.99	1.7772e-05	2.2451e-05	1063.1	203.51	2.1056e-05	1.9408e-05	466.25	130.87	61.568	21.428	1.9393e-05	64.545	-109.543	146.494	-22.761	-114.103	18.305	52.117	-114.859	-108.303	-21.326	-37.821	-109.548	-104.297	-104.273	-97.068	33.809	-98.916	-8191	255	
2618.723	1	1	0	0	0.20054	0.21068	0.060444	0.18559	0.054413	0.14675	0.082104	0.098887	0.15985	0.032335	0.2168	0.049937	0.1321	0.26563	0.32176	0.32343	-3.3208	-2.9083	-2.9729	-3.5896	-2.7396	-3.4313	-3.3937	-2.9021	-3.4729	-3.0125	-2.9042	-3.6458	-2.9625	-3.3125	-3.4562	-2.7667	50.505	35.293	202.144	185.365	-12.874	182.687	74.054	127.390	3.253	144.920	-69.471	192.803	231.683	-42.312	-63.418	116.065	0.00025438	0.00082414	0.00014779	633.35	6.6677e-06	1.0752e-05	1343.9	255.86	3.6194e-06	5.0181e-06	586.58	162.65	74.844	25.83	8.1164e-06	80.571	0.0015181	0.0017267	0.0005507	501.2	1.6898e-05	2.2334e-05	1063	203.79	2.1375e-05	1.8248e-05	465.51	131.15	61.51	21.231	1.9423e-05	64.944	215.317	-51.276	-117.750	-113.664	142.095	-4.263	-114.970	-108.484	146.516	129.393	-109.346	-104.540	-103.987	-97.459	90.859	-98.699	-8191	255	
2618.819	1	1	0	0	0.31273	0.095777	0.070064	0.14666	0.13231	0.083719	0.063875	0.061292	0.092222	0.041186	0.19861	0.40243	0.20359	0.044736	0.19615	0.25463	-3.1729	-3.1021	-2.9313	-3.5417	-2.8625	-3.2542	-3.7021	-2.8563	-3.5979	-3.1521	-3.0125	-3.8542	-2.9021	-3.0208	-3.4167	-2.8229	-4.046	-60.181	34.825	-87.042	205.383	167.791	-106.090	-118.383	-103.710	143.102	190.020	-86.959	157.680	-32.205	50.311	142.186	0.00039931	0.00034881	0.0002202	627.9	2.5357e-06	5.1533e-06	1341.1	256.77	1.9918e-07	9.0424e-06	584.44	162.59	74.196	26.011	7.4203e-06	81.146	0.0014548	0.0016658	0.00051833	498.34	1.6569e-05	2.2267e-05	1059.6	203.36	2.096e-05	1.8988e-05	463.23	130.62	61.259	21.248	1.9578e-05	65.12	-122.014	58.144	-44.984	-114.428	-5.094	-52.680	-114.896	-108.451	-94.491	111.858	-109.464	-104.226	-103.147	-97.044	25.129	-98.431	-8191	255	
2618.916	1	1	0	0	0.27614	0.077814	0.14324	0.23124	0.19733	0.058615	0.32841	0.11722	0.22116	0.082879	0.16115	0.24797	0.18364	0.076916	0.15291	0.33533	-3.1979	-3.1896	-2.7562	-3.7583	-3.05	-3.1917	-3.7812	-2.7833	-3.2979	-3.4562	-2.9167	-3.6896	-2.975	-3.0687	-3.6396	-2.8312	-52.133	186.596	230.697	200.218	16.359	212.874	140.181	-0.387	32.148	136.292	-64.313	-15.433	-33.818	-95.201	-32.092	160.555	0.0003628	0.0005284	3.2012e-05	627.4	2.9518e-06	3.0252e-06	1336.1	253.29	6.4404e-06	3.7054e-06	588.3	163.86	73.656	26.302	8.2954e-06	81.399	0.0014935	0.0018189	0.00050724	498.28	1.7072e-05	2.2468e-05	1058.9	202.55	2.1377e-05	1.9904e-05	465.83	132.13	61.511	21.463	2.0806e-05	65.742	-117.194	224.442	210.733	-113.558	1.722	-72.678	-114.632	-108.390	71.379	113.410	-108.934	-104.326	-104.063	-96.864	15.180	-98.801	-8191	255	
2619.012	1	1	0	0	0.28821	0.074563	0.024322	0.21975	0.13166	0.22389	0.31043	0.21532	0.067891	0.19707	0.3115	0.06239	0.14917	0.12795	0.28942	0.34087	-2.875	-3.3625	-2.6917	-3.6583	-3.025	-2.9667	-3.7854	-2.8583	-3.3896	-3.4	-2.7708	-3.6542	-3.1354	-3.0083	-3.5604	-3.0396	18.062	14.923	126.641	159.198	197.374	188.486	128.629	173.747	-7.737	130.945	192.814	141.301	150.128	196.196	-25.999	144.010	0.00033214	0.001814	7.8552e-05	634.5	8.2885e-06	6.1409e-06	1349.8	257.64	3.1983e-06	1.2074e-05	589.85	164.66	74.559	26.247	5.8794e-06	82.385	0.0014874	0.0018742	0.00048921	500	1.7767e-05	2.1654e-05	1069.8	204.77	2.1102e-05	1.9144e-05	467.9	132.93	61.918	21.496	1.9334e-05	65.946	-120.585	-56.261	45.305	-114.259	-26.835	32.234	-114.844	-107.928	-59.073	71.245	-109.561	-103.857	-104.972	-97.382	82.074	-98.916	-8191	255	
2619.083	1	1	0	0	0.16864	0.15351	0.30474	0.21412	0.24027	0.12358	0.19742	0.24933	0.20463	0.089414	0.38665	0.17562	0.0086883	0.17016	0.14267	0.11142	-2.8292	-3.4333	-2.6312	-3.5771	-3.1729	-2.9229	-3.7875	-3.0542	-3.1979	-3.4833	-2.8167	-3.6375	-3.4271	-2.8583	-3.5625	-3.1833	94.836	-117.218	52.042	111.184	182.248	-111.601	130.157	211.079	-19.723	-52.346	208.156	32.299	109.170	130.544	-101.543	-74.919	0.00025548	0.0013444	6.8589e-05	620.53	2.4623e-06	5.6763e-06	1345	254.5	4.2288e-06	7.4074e-06	586.26	162.27	73.785	26.016	1.2941e-05	80.063	0.001492	0.0018438	0.00046115	496.38	1.7636e-05	2.0227e-05	1063.5	202.7	2.0673e-05	2.0491e-05	465.62	131.33	61.658	21.131	2.1766e-05	64.206	233.556	18.882	-112.330	-113.571	4.026	-35.950	-114.836	-107.909	4.971	172.747	-109.636	-104.413	-104.127	-97.831	-1.127	-98.710	-8191	255	
2619.202	1	1	0	0	0.077803	0.10661	0.089952	0.045312	0.25506	0.19923	0.2345	0.091705	0.038531	0.089524	0.3098	0.15183	0.047605	0.096376	0.12934	0.032503	-2.7042	-3.3021	-2.75	-3.4896	-3.3875	-2.8271	-3.8146	-3.0125	-3.0375	-3.4771	-2.9229	-3.3563	-3.325	-2.6896	-3.7271	-2.9979	1.292	128.647	173.428	71.666	-10.878	100.541	146.589	121.484	-96.040	96.860	172.372	-118.424	31.100	-40.521	-104.059	180.406	0.00038214	0.0014164	0.00021526	635.15	4.4939e-06	1.5185e-05	1348.1	254.29	7.4033e-07	1.1908e-05	580.44	161.83	74.451	26.485	4.4447e-06	80.315	0.0014582	0.0019593	0.00045991	500.25	1.9012e-05	2.0175e-05	1063.4	202.32	2.0814e-05	2.1217e-05	462.2	130.81	61.71	21.319	2.1247e-05	64.605	-117.905	-13.162	-65.920	-113.600	-30.996	25.191	-114.952	-108.486	-0.648	65.336	-109.250	-104.284	-104.039	-97.409	-29.490	-98.638	-8191	255	
2619.298	1	1	0	0	0.21926	0.064181	0.047419	0.1017	0.19268	0.24297	0.27869	0.0080756	0.10329	0.29001	0.1901	0.26682	0.10876	0.064001	0.19275	0.12715	-2.5	-3.4625	-2.7583	-3.4396	-3.5062	-2.8021	-3.7771	-3.0771	-2.8417	-3.6542	-2.9437	-3.325	-3.3812	-2.7583	-3.4729	-3.2354	87.000	109.216	-111.514	-117.574	45.659	9.448	215.294	92.995	-113.217	-113.565	183.052	208.809	-29.737	-84.064	46.273	-88.355	0.00030464	0.0018791	0.00029398	633.43	1.4776e-06	7.8121e-06	1337.3	251.51	1.5342e-06	6.5069e-06	581.77	162.24	72.911	26.244	5.5779e-06	81.337	0.0014457	0.0018826	0.00046219	499.65	1.8515e-05	1.9275e-05	1060.5	202.03	1.9776e-05	2.1203e-05	463.38	131.13	61.503	21.276	2.2476e-05	65.632	233.441	-30.141	-89.928	-113.921	110.134	-5.478	-114.185	-108.405	-78.795	63.614	-109.067	-103.579	-103.475	-97.690	-49.823	-98.809	-8191	255	
2619.395	1	1	0	0	0.20685	0.022784	0.077499	0.16163	0.16145	0.22076	0.15646	0.28277	0.16079	0.16329	0.18071	0.1228	0.042103	0.074103	0.17094	0.063198	-2.5104	-3.75	-2.7833	-3.225	-3.6521	-2.825	-3.5938	-3.2417	-2.725	-3.7375	-3.1917	-3.2188	-3.4521	-2.6937	-3.3792	-3.3708	158.323	2.571	197.440	115.004	-26.466	57.971	113.447	153.062	-117.662	-94.284	216.381	-5.944	231.981	-87.761	85.617	220.253	0.00020274	0.00072524	0.00018654	629.91	1.3225e-05	8.317e-06	1343	257.71	5.7819e-06	1.157e-05	590.17	163.11	74.104	26.199	2.2894e-06	81.41	0.0013921	0.0020019	0.00046078	499.06	1.9147e-05	1.8128e-05	1063.5	203.9	1.8554e-05	2.1995e-05	467.02	132.04	61.937	21.308	2.2195e-05	65.749	226.370	-42.617	-89.450	-114.109	27.767	55.448	-114.198	-108.048	17.095	28.016	-109.170	-103.881	-102.900	-98.184	-79.015	-98.937	-8191	255	
2619.515	1	1	0	0	0.22395	0.06916	0.075098	0.14918	0.049536	0.14793	0.12524	0.20649	0.10612	0.13077	0.22183	0.22197	0.19895	0.16721	0.1255	0.20722	-2.4188	-3.6312	-2.9	-3.2271	-3.5333	-2.7729	-3.6167	-3.5333	-2.8854	-3.4729	-3.2438	-3.1146	-3.6083	-2.7646	-3.4583	-3.5271	-108.041	45.038	35.969	205.915	67.000	145.918	182.532	126.852	117.903	-57.656	188.869	219.799	-45.502	229.080	134.327	186.614	0.000355	0.00099181	0.00010756	625.97	2.2272e-06	9.2818e-06	1349.4	255.4	5.2935e-06	1.2781e-05	588.27	164.33	73.717	26.313	4.6898e-06	81.512	0.0013134	0.0020166	0.00046424	500.23	2.0713e-05	1.8265e-05	1066.3	204.24	1.7489e-05	2.2203e-05	466.68	132.2	61.941	21.401	2.2521e-05	65.757	-108.050	-47.452	207.893	-113.914	-10.139	-15.429	-114.579	-108.174	79.296	-17.224	-109.267	-103.825	-103.750	-97.235	-86.201	-98.568	-8191	255	
2619.611	1	1	0	0	0.26497	0.12573	0.1036	0.13021	0.30047	0.078793	0.14042	0.33051	0.1424	0.06611	0.13985	0.14864	0.067487	0.15359	0.25845	0.17928	-2.2125	-3.4083	-3.2042	-3.0771	-3.35	-3.0042	-3.1708	-3.5021	-2.8125	-3.4354	-3.2208	-3.0187	-3.6042	-2.9104	-3.2562	-3.675	59.682	55.817	28.217	133.665	155.427	-98.193	185.948	-98.518	20.153	42.601	102.098	-101.494	-35.819	138.735	160.148	221.832	0.0003309	0.0012194	0.00021298	629.6	6.5351e-06	1.1618e-05	1345.4	255.18	9.3283e-06	2.1626e-05	578.45	159.78	73.043	25.69	5.2825e-06	80.14	0.001313	0.0021288	0.00049889	498.81	2.1266e-05	1.8789e-05	1065.2	203.48	1.8053e-05	2.4358e-05	461.51	130.04	61.462	21.145	2.1843e-05	64.81	-125.162	-50.577	-28.008	-113.990	-15.664	49.555	-114.575	-108.137	64.281	40.432	-109.026	-104.036	-103.135	-97.223	10.885	-98.495	-8191	255	
2619.683	1	1	0	0	0.075689	0.23167	0.20981	0.058099	0.17027	0.1807	0.092915	0.24313	0.19424	0.27304	0.18748	0.30032	0.070963	0.16728	0.11824	0.24	-2.5333	-3.3937	-3.0833	-2.8604	-3.5208	-3.0563	-3.2396	-3.4542	-2.6833	-3.5083	-3.4813	-2.9042	-3.4771	-3.0542	-2.9062	-3.7938	189.932	115.188	174.453	-100.541	-64.511	16.034	91.453	142.069	-27.433	81.863	157.755	160.257	147.558	149.752	-106.423	219.791	0.00040555	0.00079347	2.6799e-05	626.21	5.3892e-06	8.6492e-06	1340.4	255.99	9.55e-06	3.5195e-06	589.21	162.08	73.158	26.072	6.0334e-06	81.634	0.0012821	0.002159	0.00049863	494.24	2.1829e-05	1.8821e-05	1060.5	203.42	1.667e-05	2.316e-05	463.67	130.36	61.625	21.138	2.0895e-05	65.623	225.540	42.094	-13.326	-113.754	-20.999	63.852	-114.604	-108.225	-7.455	40.283	-109.762	-104.301	-103.990	-97.869	20.908	-99.056	-8191	255	
2619.804	1	1	0	0	0.17474	0.386	0.12492	0.037967	0.11287	0.1394	0.12943	0.25371	0.02864	0.074685	0.31235	0.17479	0.10298	0.10391	0.030898	0.16929	-2.4271	-3.2646	-3.425	-2.7875	-3.6021	-3.0604	-3.2938	-3.5771	-2.8271	-3.2354	-3.6417	-2.8917	-3.5917	-3.2062	-2.9375	-3.8	-119.475	203.243	20.169	193.710	-73.398	-107.590	128.718	185.468	-125.341	26.185	114.880	118.611	80.210	-82.633	-63.469	138.772	0.00035515	0.0013379	0.00012471	629.48	6.5918e-06	1.3351e-05	1353.8	256.8	7.3118e-06	3.7272e-06	587.18	162.16	74.309	26.186	1.5392e-06	82.441	0.001239	0.0020531	0.00053191	494.9	2.1839e-05	1.9245e-05	1064.8	204.31	1.8053e-05	2.3441e-05	463.69	130.72	62.086	21.331	2.0637e-05	66.442	-118.725	53.202	2.416	-114.169	-90.323	28.910	-114.803	-108.191	4.724	-84.857	-109.467	-104.036	-103.445	-97.834	-46.265	-99.244	-8191	255	
2619.900	1	1	0	0	0.20499	0.050325	0.18856	0.077059	0.14665	0.30808	0.51803	0.20773	0.15303	0.079722	0.17378	0.28925	0.1174	0.20731	0.13363	0.040692	-2.425	-3.175	-3.5146	-2.7229	-3.425	-3.3438	-3.0271	-3.5917	-2.9646	-3.0563	-3.7354	-2.9396	-3.2625	-3.3063	-2.8604	-3.6042	-15.581	132.686	209.827	6.542	-82.365	194.064	162.378	161.717	161.370	147.620	189.113	194.183	91.968	13.192	-22.713	28.642	0.00024142	0.001479	0.0003152	624.18	9.7458e-06	4.6729e-06	1359.1	259.28	5.6273e-06	1.3807e-05	584.77	163.78	73.726	26.061	7.5332e-06	82.819	0.0013005	0.0020533	0.00054838	493.56	2.1678e-05	2.0514e-05	1069.3	206.94	1.8191e-05	2.243e-05	466.06	131.88	62.186	21.344	1.9161e-05	66.717	-123.300	-19.174	-69.131	-114.123	82.417	55.707	-114.452	-108.244	-21.018	82.133	-109.297	-103.605	-103.724	-97.516	73.670	-99.268	-8191	255	
2619.996	1	1	0	0	0.16902	0.22315	0.19364	0.43132	0.23059	0.10789	0.072918	0.22632	0.14507	0.037339	0.038298	0.17212	0.15806	0.11161	0.28939	0.26499	-2.5646	-3.0583	-3.5583	-2.8271	-3.4625	-3.4625	-2.9458	-3.5833	-3.0771	-3.3646	-3.7	-2.9854	-3.4562	-3.4479	-2.8479	-3.7667	80.787	-118.319	11.699	-89.189	-95.337	183.823	149.119	166.513	22.423	141.914	112.895	-34.930	-16.547	192.492	-119.232	-100.712	0.00033844	0.0014432	0.00052831	625.1	1.9053e-06	5.1423e-06	1362.1	259.58	6.0851e-06	3.0178e-06	591.24	163.63	74.342	25.985	6.2733e-06	81.301	0.001356	0.001952	0.00055893	495.2	2.1852e-05	2.1274e-05	1071	207.54	1.9274e-05	2.2634e-05	469.17	131.9	62.062	21.308	1.8844e-05	65.654	231.249	-49.070	-13.856	-113.739	173.610	10.818	-114.699	-108.229	2.057	88.846	-109.649	-104.414	-103.788	-97.433	11.830	-98.704	-8191	255	
2620.115	1	1	0	0	0.013002	0.24627	0.11296	0.16806	0.051453	0.1043	0.18858	0.31672	0.15766	0.1046	0.19904	0.19073	0.079345	0.18128	0.1232	0.12128	-2.7562	-2.9583	-3.6458	-2.925	-3.2271	-3.4729	-2.875	-3.6167	-3.1063	-2.9271	-3.8125	-2.95	-3.2333	-3.5604	-2.875	-3.7167	124.152	112.747	-18.344	162.485	102.672	-92.378	164.090	204.015	32.262	118.661	-122.636	3.536	106.995	104.704	218.415	119.476	0.0003313	0.0011411	0.00028746	627.21	9.2463e-06	1.2102e-05	1361.7	259.92	3.7441e-06	9.2852e-06	585.65	161.04	72.845	25.518	1.0176e-05	80.528	0.0014169	0.0019632	0.00058223	493.94	2.2202e-05	2.282e-05	1067.4	208.16	2.0214e-05	2.1443e-05	465.94	130.35	61.545	20.996	1.9004e-05	65.096	232.064	-2.147	-12.980	-113.816	87.314	49.597	-114.861	-108.315	-52.246	79.176	-109.050	-104.298	-103.028	-97.037	9.535	-98.708	-8191	255	
2620.211	1	1	0	0	0.23256	0.35254	0.13321	0.14194	0.17722	0.028469	0.51822	0.23174	0.2384	0.038633	0.24705	0.17601	0.13653	0.22041	0.26804	0.072469	-2.8812	-2.9208	-3.4938	-3.1937	-3.2854	-3.5042	-2.9625	-3.4521	-3.3292	-2.9875	-3.7875	-2.8333	-3.0396	-3.6583	-2.7313	-3.6125	13.346	103.387	-103.540	183.135	173.609	101.073	202.718	230.095	68.440	-26.567	152.927	126.434	43.493	-117.910	212.930	159.365	0.00033066	0.0011568	0.00021741	618.15	9.0209e-06	6.1187e-06	1342.9	259.94	2.7412e-06	8.2355e-06	584.17	162.15	72.388	25.697	4.4954e-06	81.902	0.0014342	0.001871	0.00059502	490.38	2.0885e-05	2.3908e-05	1057.2	206.93	2.1889e-05	2.0338e-05	463.84	130.24	61.116	21.027	1.8221e-05	65.546	-108.606	-34.663	-30.721	-114.074	13.632	-119.746	-115.022	-107.809	182.621	-1.471	-109.523	-104.212	-104.021	-97.921	-29.796	-99.191	-8191	255	
2620.307	1	1	0	0	0.045439	0.11845	0.14548	0.10889	0.15261	0.054399	0.22277	0.18971	0.13154	0.22653	0.40766	0.20289	0.030578	0.13335	0.09131	0.15921	-2.8125	-2.6083	-3.7208	-3.1354	-3.2625	-3.6396	-2.9354	-3.4833	-3.2979	-2.8063	-3.7542	-3.3	-2.9167	-3.7313	-2.8729	-3.2333	-70.839	159.890	-125.322	98.885	119.543	-104.105	70.758	-95.541	-18.668	187.943	226.320	164.184	-19.980	195.590	89.392	209.328	0.0003069	0.00072692	0.00024865	625.33	6.1816e-06	7.8904e-06	1346.1	257.5	5.1129e-06	8.443e-06	584.91	162.74	73.274	25.884	2.1823e-06	83.228	0.0015233	0.0017737	0.00059374	493.99	1.9842e-05	2.4053e-05	1060.9	206.62	2.1628e-05	1.8915e-05	464.56	131.51	61.273	21.265	1.9294e-05	66.799	226.810	-78.038	-35.293	-114.086	123.993	-52.781	-114.806	-108.131	-85.900	-36.848	-109.074	-104.095	-103.239	-97.727	113.206	-98.693	-8191	255	
2620.379	1	1	0	0	0.22456	0.20924	0.12599	0.17786	0.23406	0.068687	0.21975	0.052399	0.15037	0.097324	0.28638	0.3984	0.1247	0.09082	0.10881	0.14437	-2.9313	-2.7479	-3.4313	-3.1333	-2.7229	-3.625	-2.9813	-3.3812	-3.5021	-2.9354	-3.7417	-3.2875	-3.0104	-3.5896	-2.9021	-3.1729	47.597	74.020	158.867	24.417	-76.006	14.295	186.518	157.080	-10.956	-69.822	174.818	209.742	13.679	148.418	51.148	104.467	0.00025766	0.00061909	0.00010946	623.93	4.2205e-06	1.3402e-05	1346.3	262.54	3.816e-06	8.5506e-06	589.5	163.65	73.392	25.745	8.6772e-06	82.56	0.0015616	0.0017362	0.00061397	492.78	1.9149e-05	2.5042e-05	1067.8	210.18	2.2675e-05	1.9395e-05	468.45	133.22	61.451	21.196	2.033e-05	66.706	-119.625	40.865	-98.196	-113.703	3.915	-15.150	-114.879	-108.316	48.080	-6.159	-109.209	-104.019	-104.047	-96.976	26.374	-98.917	-8191	255	
2620.499	1	1	0	0	0.18883	0.15258	0.09891	0.14914	0.21107	0.15016	0.081361	0.21922	0.037828	0.17296	0.19566	0.18046	0.2079	0.30767	0.11902	0.048437	-3.1208	-2.7917	-3.4	-3.4083	-2.7458	-3.6229	-3.1333	-3.1646	-3.4792	-2.9146	-3.4813	-3.2458	-2.7292	-3.4062	-2.9396	-3.1958	-64.667	-25.649	-56.221	-81.531	-103.748	137.480	202.455	221.315	101.133	87.859	204.371	192.517	155.632	98.708	-79.070	221.435	0.00038599	0.00095955	0.00035996	622.17	5.0837e-06	9.3968e-06	1352.5	267.36	3.1386e-06	2.6496e-06	592.46	164.48	73.422	25.483	1.9121e-06	82.333	0.00162	0.0017996	0.00059743	494.92	1.8448e-05	2.4784e-05	1068.5	211.32	2.3977e-05	1.9416e-05	471.58	133.1	60.94	21.076	2.1339e-05	66.389	230.115	-68.643	-11.019	-113.765	124.370	61.339	-114.991	-108.133	152.335	84.301	-109.202	-104.066	-102.799	-97.271	1.274	-98.848	-8191	255	
2620.596	1	1	0	0	0.16335	0.087392	0.16405	0.027048	0.20923	0.068845	0.26805	0.19482	0.090317	0.063009	0.074474	0.23498	0.24436	0.058748	0.06726	0.24634	-3.2979	-2.75	-3.2854	-3.3187	-2.5667	-3.6354	-3.1896	-2.9708	-3.4979	-2.9167	-3.4208	-3.4313	-2.6437	-3.6	-3.1979	-2.9833	-21.841	118.795	18.486	-24.160	-63.400	-105.085	65.424	-17.907	199.727	79.568	202.137	156.329	163.489	101.464	-121.383	200.134	0.0002084	0.0010817	0.00026478	617.62	8.5394e-06	2.7608e-06	1344.3	265.25	9.8486e-06	6.225e-06	587.48	162.34	71.385	25.262	8.5643e-06	81.156	0.001718	0.0019392	0.00060293	494	1.893e-05	2.5515e-05	1062.4	210.96	2.4117e-05	2.1693e-05	467.51	131.29	59.792	20.878	2.2023e-05	65.276	217.035	-90.893	-87.745	-113.917	30.320	31.932	-115.203	-108.046	25.911	-45.896	-109.042	-104.313	-103.136	-96.790	33.671	-98.838	-8191	255	
2620.692	1	1	0	0	0.3407	0.18832	0.38853	0.2424	0.16346	0.21609	0.31704	0.0954	0.23603	0.21383	0.11411	0.12568	0.12037	0.15851	0.12485	0.15452	-3.2292	-2.8896	-3.125	-3.4333	-2.9042	-3.5583	-3.1583	-2.8958	-3.6292	-2.9542	-3.4188	-3.5354	-2.6375	-3.4292	-3.2917	-2.8312	230.378	118.526	174.816	144.075	56.639	14.883	166.801	-80.245	114.169	107.570	26.959	164.102	-32.430	124.587	-123.107	217.672	0.00031704	0.0009223	0.00028094	613.45	2.8797e-06	7.5379e-06	1330.9	259.04	4.8179e-06	1.102e-05	579.91	160.31	70.658	24.92	9.4581e-06	81.477	0.0016507	0.0019544	0.00053072	487.28	1.8684e-05	2.2429e-05	1053.5	207.01	2.0779e-05	2.0972e-05	459.81	130.06	59.41	20.747	2.1969e-05	65.431	-124.927	204.964	-44.243	-113.796	-78.678	141.262	-115.394	-108.275	18.066	1.257	-109.001	-104.279	-103.561	-97.400	32.636	-98.451	-8191	255	
2620.788	1	1	0	0	0.083298	0.25802	0.16562	0.30842	0.1466	0.060302	0.16307	0.20558	0.10296	0.079471	0.029718	0.058738	0.26474	0.31706	0.32936	0.2047	-3.1937	-2.85	-2.975	-3.5125	-2.7583	-3.3604	-3.3583	-2.8958	-3.6437	-3.275	-2.9479	-3.8146	-2.7958	-3.2583	-3.4938	-2.8458	160.236	-42.900	-103.165	-3.822	-91.031	126.509	201.513	-102.828	206.294	-43.107	-12.869	140.451	101.133	154.915	0.888	183.317	0.00035051	0.00058532	0.00032177	608.85	2.9572e-06	9.3459e-06	1340.5	257.57	9.9589e-06	2.1522e-05	581.64	161.06	70.788	25.395	9.9026e-06	81.124	0.0015437	0.0019601	0.0005514	485.17	1.9502e-05	2.3407e-05	1058.2	206.88	2.2182e-05	2.2003e-05	462.85	130.55	59.541	20.849	2.2966e-05	65.383	230.173	-64.336	34.028	-113.632	-5.055	18.526	-114.927	-108.177	-7.437	25.092	-109.456	-103.802	-103.558	-97.539	36.162	-99.105	-8191	255	
2620.909	1	1	0	0	0.21856	0.061175	0.055435	0.071956	0.36635	0.12613	0.15249	0.10032	0.15109	0.13723	0.27264	0.14344	0.051433	0.11044	0.055036	0.24592	-3.1521	-3.0625	-2.7458	-3.5583	-2.7917	-3.3208	-3.6229	-2.9083	-3.5438	-3.0854	-2.9771	-3.6604	-2.9375	-3.3063	-3.5375	-2.9062	225.697	-47.200	48.590	196.504	127.864	148.298	168.770	4.693	152.551	106.439	182.423	174.217	183.657	208.700	-29.456	205.455	0.00034752	0.0010864	0.00019986	603.64	5.5868e-06	7.5213e-06	1347.2	262.11	7.977e-06	4.2765e-06	582.65	161.48	70.254	25.088	6.4666e-06	81.844	0.0016113	0.002069	0.00053839	482.07	2.0504e-05	2.2337e-05	1061.6	208.03	2.2213e-05	2.3614e-05	462.43	131.52	59.541	20.73	2.3937e-05	65.979	-125.272	-41.933	24.880	-113.889	-43.176	-49.366	-114.818	-108.643	53.502	-83.349	-109.076	-103.897	-103.358	-97.589	-81.421	-99.030	-8191	255	
2620.980	1	1	0	0	0.16922	0.092163	0.21692	0.11824	0.2861	0.16683	0.35171	0.20455	0.17135	0.23699	0.2409	0.13652	0.18389	0.24403	0.18844	0.19061	-3.1375	-3.2771	-2.825	-3.6875	-2.8646	-3.1292	-3.6417	-2.8688	-3.4229	-3.3937	-2.8708	-3.6958	-2.9104	-3.1437	-3.5687	-2.8875	-0.431	115.302	143.345	159.372	93.672	-63.947	185.103	79.985	169.220	-7.963	-80.639	138.350	80.759	-114.820	110.571	114.080	0.00035025	0.0009782	0.00029576	608.23	2.4772e-06	1.0171e-05	1340.4	260.73	7.5506e-06	1.616e-05	589.17	164.46	70.712	25.439	3.3835e-06	82.056	0.0016517	0.0021924	0.0005747	485.67	2.162e-05	2.3014e-05	1061.1	208.15	2.2966e-05	2.4895e-05	464.79	132.44	59.732	20.815	2.4574e-05	66.243	-112.382	-106.797	-64.959	-114.354	172.381	30.607	-115.879	-108.872	-48.208	11.540	-109.800	-104.133	-104.341	-97.919	-67.585	-99.615	-8191	255	
2621.076	1	1	0	0	0.049995	0.10411	0.048124	0.085599	0.047206	0.15206	0.12551	0.24823	0.1716	0.091374	0.23481	0.11559	0.10573	0.2646	0.24795	0.21933	-3.0875	-3.3625	-2.6958	-3.5583	-3.0125	-2.8375	-3.7646	-2.8021	-3.3396	-3.2875	-2.8625	-3.6437	-3.0896	-2.7979	-3.5625	-2.9625	-44.222	-73.279	186.181	76.218	189.536	78.087	-125.706	133.189	-45.141	-4.769	219.007	136.015	188.485	4.564	179.755	193.149	0.00034881	0.00097847	0.00023049	608.65	9.7287e-06	1.0963e-05	1340.8	258.52	7.115e-06	1.4315e-05	579.68	162.2	70.911	24.824	5.5298e-06	80.587	0.0015666	0.0022463	0.00054507	486.1	2.2398e-05	2.2938e-05	1064	206.13	2.2668e-05	2.6043e-05	458.73	130.85	59.624	20.595	2.5107e-05	64.93	-125.917	-51.262	3.870	-114.504	75.773	80.086	-115.242	-108.574	-16.987	78.825	-109.874	-104.241	-103.750	-98.333	-119.989	-99.373	-8191	255	
2621.197	1	1	0	0	0.059198	0.059057	0.15833	0.12806	0.12038	0.19082	0.038357	0.054486	0.23757	0.054579	0.42146	0.05099	0.202	0.24559	0.097355	0.1837	-2.7375	-3.4042	-2.6417	-3.5208	-3.2438	-2.8729	-3.6396	-2.8604	-3.2083	-3.5042	-2.9042	-3.5458	-3.2854	-2.9958	-3.7646	-3.2438	231.704	207.364	116.982	-4.668	167.481	-117.822	178.422	121.768	189.122	105.808	156.174	232.814	64.464	-83.069	-68.098	164.456	0.00025563	0.00067748	0.00052195	603.57	1.9242e-06	8.5993e-06	1339.5	255.1	8.8698e-07	2.2342e-05	577.14	161.38	69.666	24.831	1.2571e-05	80.441	0.0016356	0.0024446	0.00060974	481.67	2.4651e-05	2.4207e-05	1059.6	204.14	2.4155e-05	2.7893e-05	457.73	130.87	59.334	20.431	2.6549e-05	65.007	-124.503	-32.211	-52.424	-114.079	-107.051	11.911	-115.208	-108.698	-32.434	43.748	-109.972	-104.436	-104.397	-97.707	38.134	-99.484	-8191	255	
2621.291	1	1	0	0	0.33828	0.1583	0.077115	0.13932	0.22025	0.17172	0.13762	0.14238	0.090958	0.13913	0.26075	0.35753	0.28528	0.23902	0.076692	0.19997	-2.6271	-3.5729	-2.6354	-3.475	-3.4958	-2.7	-3.6937	-3.1729	-2.8958	-3.5479	-2.8896	-3.5396	-3.4292	-2.8854	-3.6042	-3.1562	227.509	44.070	93.452	196.010	141.439	138.222	176.524	42.167	155.298	47.258	129.367	178.947	15.858	132.357	89.336	160.890	0.00034521	0.00054966	4.3645e-05	603.87	4.6822e-06	6.1499e-06	1343	257.19	7.6725e-06	7.3536e-06	570.58	159.58	68.616	24.634	6.9534e-06	82.5	0.0017195	0.0024897	0.0006221	482.22	2.5679e-05	2.3894e-05	1062.2	204.89	2.4194e-05	2.7875e-05	457.85	129.65	58.924	20.312	2.63e-05	66.312	-109.580	-92.264	182.739	-113.702	-20.747	-103.650	-114.771	-108.956	11.741	62.698	-109.779	-103.816	-104.082	-97.401	186.680	-99.672	-8191	255	
2621.388	1	1	0	0	0.029068	0.24602	0.13575	0.17387	0.22767	0.14865	0.3524	0.26494	0.24664	0.14827	0.173	0.089341	0.19507	0.112	0.11006	0.14501	-2.5708	-3.4875	-2.6708	-3.3833	-3.4208	-2.7979	-3.7	-2.9896	-2.8896	-3.4417	-2.9958	-3.2167	-3.3833	-2.8083	-3.525	-3.4021	229.032	101.177	79.690	201.208	70.803	15.905	124.962	150.999	112.719	9.733	182.828	216.194	-117.037	-68.752	231.707	135.113	0.00037325	0.00032912	0.00047637	594.28	1.3361e-05	7.0182e-06	1345.9	252.95	8.9596e-06	8.5535e-06	575.79	159.54	66.527	26.349	1.3456e-05	84.344	0.0016497	0.0025239	0.00063536	477.65	2.5704e-05	2.437e-05	1068.5	203	2.4129e-05	2.8606e-05	457.33	128.51	57.308	21.616	2.5989e-05	68.275	216.285	94.763	-70.105	-114.019	27.682	198.267	-114.912	-109.147	-34.333	26.556	-109.804	-104.248	-102.663	-98.507	46.671	-100.158	-8191	255	
2621.484	1	1	0	0	0.21914	0.071023	0.22613	0.11378	0.097879	0.24138	0.047964	0.14987	0.046776	0.28307	0.40701	0.19816	0.11223	0.16348	0.081187	0.18841	-2.5729	-3.6333	-2.85	-3.3146	-3.65	-2.7417	-3.5583	-3.3479	-2.8021	-3.7188	-3.1063	-3.2521	-3.5563	-2.8458	-3.4104	-3.3708	-58.136	138.956	-49.932	138.251	29.609	27.461	92.540	76.043	160.988	-73.013	153.800	103.850	9.950	-97.070	-61.173	142.615	0.00021998	0.00073629	0.00025121	599.16	5.0054e-06	6.738e-06	1350.5	245.14	6.9188e-06	1.7013e-06	574.15	158.76	66.612	26.188	1.1868e-05	82.989	0.0017124	0.0025819	0.00068206	477.54	2.637e-05	2.5485e-05	1067.7	198.14	2.5275e-05	2.901e-05	458.02	128.78	57.415	21.571	2.8028e-05	67.381	232.107	32.299	-78.132	-113.944	-49.783	-75.367	-114.931	-109.021	-5.956	-88.576	-109.165	-103.866	-102.769	-98.498	5.992	-100.277	-8191	255	
2621.580	1	1	0	0	0.21629	0.33113	0.17739	0.073859	0.1099	0.054146	0.2899	0.3061	0.074972	0.043018	0.49686	0.080943	0.11675	0.17214	0.032721	0.24738	-2.4062	-3.4667	-3.025	-3.1479	-3.7083	-2.7771	-3.55	-3.4854	-2.6375	-3.5271	-3.1208	-3.0667	-3.5667	-2.8354	-3.2438	-3.3604	83.416	31.033	-66.204	-60.254	75.776	-111.153	-107.645	-103.029	169.124	48.040	178.506	86.992	227.846	194.544	91.824	133.377	0.00029615	0.00098898	0.00015191	626.17	1.1689e-06	1.0911e-05	1386.3	247.34	3.4359e-06	8.9772e-06	581.22	154.74	65.47	24.39	4.9071e-06	75.974	0.0018185	0.0027805	0.00076982	500.23	2.9109e-05	2.8532e-05	1097.9	199.57	2.5925e-05	3.062e-05	465.54	126.18	56.889	20.067	2.8204e-05	61.655	-118.089	-45.707	-80.131	-114.493	112.153	-9.458	-114.827	-108.715	-57.783	0.536	-109.867	-103.447	-102.128	-97.849	60.128	-99.924	-8191	255	
2621.676	1	1	0	0	0.3385	0.094823	0.33464	0.042221	0.21373	0.067284	0.12463	0.1176	0.36325	0.1332	0.16088	0.2001	0.092442	0.073233	0.04152	0.10427	-2.3333	-3.3917	-3.1417	-2.9667	-3.575	-2.8958	-3.2021	-3.4813	-2.5938	-3.5312	-3.3854	-2.8917	-3.5479	-2.8354	-3.0979	-3.6021	-19.401	85.134	-73.200	9.637	218.867	-62.630	205.271	143.866	70.194	188.883	132.158	96.069	212.674	-36.718	29.561	73.017	0.00031079	0.0012546	0.0004588	604.66	3.3658e-06	6.3068e-06	1359.2	241.97	4.5508e-06	7.1552e-06	559.83	151.61	63.883	23.721	1.1568e-05	76.34	0.0018401	0.0027863	0.00078648	480.46	2.9788e-05	2.9701e-05	1072.9	194.77	2.6154e-05	3.0136e-05	450.27	124.63	55.67	19.928	2.7742e-05	62.175	-100.521	29.573	-56.692	-113.581	70.628	77.866	-114.470	-108.195	75.710	20.221	-109.419	-103.448	-101.617	-97.316	-19.921	-99.821	-8191	255	
2621.797	1	1	0	0	0.14174	0.14393	0.053936	0.10057	0.32662	0.12867	0.23789	0.11994	0.028222	0.14006	0.44899	0.12311	0.068863	0.2109	0.11467	0.16045	-2.4521	-3.2979	-3.2896	-2.8104	-3.225	-2.9896	-3.1729	-3.4042	-2.8771	-3.3229	-3.3979	-2.7396	-3.6625	-3.1104	-2.9313	-3.7667	-77.980	-107.753	134.569	187.778	-58.058	105.886	166.160	208.698	129.752	-112.054	116.296	-30.506	218.316	-19.657	77.676	-112.476	0.00031383	0.00098708	0.00027621	570.9	1.2827e-05	6.3054e-06	1339.5	237.78	4.551e-06	4.825e-06	563.89	152.62	64.978	23.637	1.592e-05	75.184	0.0018084	0.0026776	0.00077062	461.42	2.8124e-05	2.9015e-05	1064.7	193.88	2.6076e-05	2.9654e-05	454.05	124.57	55.577	19.864	2.7343e-05	61.508	-125.688	-47.165	26.203	-113.417	13.821	105.177	-114.253	-108.754	13.377	-23.284	-109.673	-103.388	-102.103	-97.103	48.499	-100.062	-8191	255	
2621.893	1	1	0	0	0.22945	0.19561	0.09511	0.10027	0.093044	0.1532	0.29648	0.25794	0.14986	0.21367	0.18194	0.045852	0.075979	0.20025	0.14302	0.16991	-2.4875	-3.3208	-3.3583	-2.9125	-3.6562	-3.2417	-3.0312	-3.6167	-2.7188	-3.0667	-3.6875	-2.6917	-3.5479	-3.1604	-3.0458	-3.7875	-27.289	-29.643	173.308	76.935	221.880	130.451	170.470	212.402	-17.960	133.674	207.635	203.688	-105.979	229.775	-1.146	185.522	0.00035961	0.00031216	0.0002379	591.94	1.299e-05	2.6682e-06	1356.5	240.98	6.8813e-06	4.5576e-06	564.02	153.15	62.279	23.396	9.1569e-06	75.608	0.0018528	0.0026062	0.00072966	475.64	2.7983e-05	2.8064e-05	1080.3	194.88	2.5509e-05	2.8426e-05	455.57	124.64	54.913	19.65	2.6441e-05	61.333	-108.701	-120.034	-5.871	-113.919	-0.169	-9.232	-114.005	-108.493	30.284	-125.022	-109.070	-103.702	-102.380	-97.554	86.602	-100.387	-8191	255	
2621.989	1	1	0	0	0.26619	0.16822	0.23854	0.14209	0.18236	0.12317	0.26361	0.23314	0.15728	0.053083	0.11124	0.27074	0.21187	0.21502	0.17741	0.13257	-2.4188	-3.1083	-3.3563	-2.8708	-3.4958	-3.3354	-2.85	-3.5896	-2.9229	-3.15	-3.7458	-2.7146	-3.35	-3.1167	-2.7854	-3.775	-60.682	60.825	209.691	126.475	-2.906	34.392	191.305	113.331	12.684	199.037	-78.164	188.175	-38.460	117.174	128.181	69.038	0.00030884	0.00098851	0.00026265	584.77	5.5884e-06	9.5641e-06	1346.7	239.02	8.9522e-06	1.3875e-05	566.02	152.7	63.32	23.574	5.241e-06	76.367	0.0018267	0.0026002	0.00074347	469.44	3.1485e-05	3.5117e-05	1073.3	194.34	2.9445e-05	2.8866e-05	455.73	124.97	54.841	19.975	2.6929e-05	62.376	232.102	-8.550	-73.883	-113.751	4.405	6.481	-114.647	-108.757	-84.044	73.635	-109.322	-103.790	-101.414	-97.366	223.391	-99.684	-8191	255	
2622.083	1	1	0	0	0.11836	0.22552	0.12582	0.10287	0.1629	0.15868	0.063738	0.13426	0.04836	0.33855	0.063533	0.025766	0.28937	0.07969	0.094444	0.22968	-2.3875	-3.0375	-3.675	-2.9708	-3.3417	-3.2875	-2.8083	-3.4583	-3.0125	-2.9354	-3.7708	-2.9917	-3.3333	-3.5	-2.9729	-3.6958	149.138	12.412	198.863	186.171	154.123	-69.239	20.477	121.870	-11.709	86.831	175.294	196.512	-64.143	199.465	190.237	-126.121	0.00035793	0.00011146	0.00034455	580.13	6.5143e-06	2.3879e-06	1356.4	239.62	4.5176e-06	3.6961e-06	567.45	152.19	63.504	23.576	7.1948e-06	74.307	0.0021418	0.0025411	0.00081914	467.71	2.8603e-05	3.3172e-05	1073.3	193.65	2.9985e-05	2.7815e-05	454.8	124.67	54.932	19.652	2.7082e-05	60.422	-126.088	-93.750	-3.052	-113.670	38.850	142.095	-114.509	-108.191	33.439	-3.728	-109.420	-103.961	-102.034	-97.533	73.304	-99.632	-8191	255	
2622.204	1	1	0	0	0.013089	0.032825	0.10734	0.16343	0.11703	0.090153	0.2458	0.20744	0.1419	0.16845	0.016743	0.1394	0.24484	0.13818	0.15205	0.16412	-2.7708	-3.1625	-3.6771	-2.9542	-3.2396	-3.4083	-2.875	-3.6083	-3.2104	-3	-3.7771	-3.1208	-3.1792	-3.5687	-2.9646	-3.4562	97.195	38.283	217.953	164.924	10.456	153.242	135.175	129.475	57.774	24.486	162.014	-92.237	123.774	84.965	-37.706	212.756	0.00024156	0.00089344	0.00013497	584.5	7.8381e-06	1.2078e-05	1340	237.59	1.057e-05	6.8639e-06	559.71	150.13	62.439	23.328	5.2344e-06	73.832	0.0021589	0.0024138	0.00082398	470.75	2.6653e-05	3.3271e-05	1069.2	193.28	3.1006e-05	2.6998e-05	450.73	123.34	54.336	19.56	2.8255e-05	60.675	-105.008	45.616	-76.291	-113.452	52.421	-25.694	-113.968	-108.926	46.640	7.349	-109.134	-103.421	-101.695	-97.508	38.044	-99.440	-8191	255	
2622.276	1	1	0	0	0.028312	0.10324	0.11762	0.014423	0.065299	0.086633	0.28088	0.22653	0.095965	0.18315	0.062328	0.28244	0.21531	0.12097	0.27072	0.19341	-2.9583	-3.0563	-3.6479	-2.9917	-3.1792	-3.7125	-2.8563	-3.6479	-3.3271	-2.7896	-3.7979	-3.0708	-3.2229	-3.8125	-2.8625	-3.4479	113.049	-16.129	-119.886	212.930	215.215	231.623	210.199	190.427	158.410	0.400	4.313	225.847	211.603	29.986	-93.286	171.602	0.00025547	0.0010995	0.00025553	566.15	6.3023e-06	1.0332e-05	1327.9	237.54	8.9676e-06	7.7287e-06	557.15	151.01	61.972	23.312	8.6276e-06	74.572	0.0021548	0.0024353	0.00081326	459.79	2.6661e-05	3.2483e-05	1057.2	191.13	3.0887e-05	2.7769e-05	447.34	123.38	53.447	19.56	2.8788e-05	61.077	229.041	12.968	-104.449	-113.661	16.064	63.262	-114.264	-107.828	77.317	14.713	-109.315	-103.627	-101.668	-96.836	27.811	-99.487	-8191	255	
2622.372	1	1	0	0	0.27443	0.13259	0.03376	0.14717	0.1386	0.2638	0.3023	0.090437	0.17046	0.050816	0.14576	0.29568	0.2018	0.081457	0.11976	0.091127	-3.0625	-2.8417	-3.6146	-3.0396	-2.9542	-3.6708	-3.1396	-3.4792	-3.3979	-3.0312	-3.7583	-3.1542	-3.0104	-3.7229	-2.9333	-3.3833	115.984	66.750	-102.785	-96.757	220.167	171.402	93.859	117.324	116.206	40.794	4.602	-111.475	139.171	-19.990	90.346	-63.353	0.00026351	0.0014066	0.00019658	570.35	4.7621e-06	1.3635e-06	1332.2	235.33	5.6925e-06	1.2144e-05	557.77	149.98	60.849	23.452	3.0176e-06	75.086	0.0021668	0.0024615	0.00077708	458.56	2.6233e-05	3.2158e-05	1063.9	191.34	3.1104e-05	2.8337e-05	449.3	123.77	53.117	19.64	2.9377e-05	61.515	-111.199	-59.889	-78.094	-113.611	-14.395	18.134	-114.241	-107.915	6.607	39.085	-108.824	-103.732	-101.811	-96.231	-5.103	-99.306	-8191	255	
2622.468	1	1	0	0	0.081414	0.11502	0.28283	0.098999	0.10158	0.24505	0.29843	0.12627	0.16111	0.37709	0.19257	0.12512	0.015923	0.18375	0.29831	0.13474	-3.2083	-2.8479	-3.4458	-3.2229	-2.9667	-3.7729	-3.0583	-3.2042	-3.5729	-2.9333	-3.5583	-3.2833	-3.0396	-3.7333	-3.0333	-3.3	170.218	-84.629	-37.876	-58.661	163.090	-60.608	111.669	192.655	-109.611	100.542	82.761	-124.077	-58.671	-35.182	91.583	175.129	0.00030598	0.0011115	7.5611e-05	563.15	2.5004e-06	1.0363e-05	1332	237.26	6.2573e-06	2.5918e-06	560.2	151.07	61.368	23.505	6.2841e-06	76.252	0.0021054	0.0025688	0.00074255	458.65	2.5156e-05	3.1085e-05	1063.2	190.55	3.0356e-05	2.8731e-05	449.87	123.76	53.171	19.622	3.0161e-05	61.544	230.299	-93.041	113.634	-112.957	-71.115	6.643	-114.455	-107.723	58.408	-43.362	-109.033	-103.562	-101.931	-97.640	-3.786	-99.814	-8191	255	
2622.564	1	1	0	0	0.046896	0.11449	0.28613	0.27336	0.30054	0.27049	0.30116	0.32699	0.17962	0.13954	0.12972	0.26132	0.092395	0.22967	0.20363	0.17405	-3.1875	-2.7083	-3.4771	-3.2458	-2.9875	-3.5854	-3.2042	-3.0875	-3.4792	-2.975	-3.5292	-3.4354	-2.9104	-3.4833	-3.0563	-3.2729	-51.667	54.167	-107.055	212.647	-1.202	-16.879	149.558	214.625	185.238	17.672	58.622	174.729	179.874	174.254	-18.907	-57.275	0.00036694	0.00068064	0.00029512	568.39	7.1766e-06	2.1187e-05	1334.7	237.12	2.0652e-06	6.3313e-06	552.39	149.57	62.023	23.157	1.0731e-05	74.18	0.0020098	0.0026657	0.00071698	457.07	2.5925e-05	3.0719e-05	1061.5	190.87	2.9034e-05	2.9695e-05	443.71	122.51	53.473	19.321	3.066e-05	60.179	-101.722	32.773	-49.655	-113.943	-3.534	101.495	-114.085	-108.777	-13.491	31.800	-109.464	-103.677	-102.235	-96.741	92.918	-99.807	-8191	255	
2622.685	1	1	0	0	0.1936	0.038857	0.11061	0.3157	0.15351	0.097394	0.17982	0.32721	0.054167	0.25954	0.14969	0.079294	0.17199	0.11969	0.14092	0.16574	-3.3042	-2.8958	-3.2667	-3.3125	-2.6229	-3.5917	-3.2958	-2.9938	-3.6917	-2.9542	-3.4646	-3.5729	-3.0375	-3.5854	-3.0646	-2.9562	77.871	-56.509	103.101	107.803	38.091	119.050	209.197	196.659	3.936	231.222	121.952	51.767	101.847	-103.663	-17.957	180.997	0.00031917	0.0014278	0.00014594	561.94	2.7952e-06	5.6782e-06	1321.1	236	1.7617e-06	1.8564e-05	551.11	147.93	61.537	23.237	1.1522e-05	74.141	0.0020144	0.0027213	0.00071123	455.77	2.6324e-05	3.0308e-05	1056.3	190.26	2.9019e-05	3.0141e-05	445.62	122.19	53.623	19.256	3.1173e-05	60.045	-99.217	-87.475	-77.780	-113.600	5.480	3.601	-113.670	-107.838	-60.474	16.290	-108.813	-103.144	-102.898	-98.695	82.141	-101.119	-8191	255	
2622.781	1	1	0	0	0.23255	0.14827	0.20864	0.11685	0.10106	0.12633	0.25489	0.17697	0.26325	0.23606	0.021247	0.41712	0.11729	0.12968	0.24574	0.065667	-3.3125	-2.8729	-3.0521	-3.45	-2.7687	-3.4146	-3.4458	-2.8604	-3.6813	-2.8583	-3.2083	-3.4021	-2.7333	-3.4188	-3.1667	-2.7938	49.745	127.063	129.935	76.440	109.794	217.531	182.298	220.157	98.207	107.711	142.993	205.292	-14.889	152.027	153.786	-53.645	0.00029403	0.00048858	0.00034336	571.92	4.4388e-06	1.1769e-05	1330.7	235.04	8.3336e-06	1.3032e-05	558.58	151.21	60.756	22.921	4.1982e-06	75.255	0.0019733	0.0029115	0.00069121	459.78	2.7776e-05	2.8138e-05	1057.7	189.41	2.9034e-05	3.1493e-05	445.92	122.87	53.238	19.2	3.0843e-05	60.663	-101.472	-59.115	-81.914	-114.831	69.033	-29.040	-115.618	-109.507	221.884	123.232	-110.988	-105.074	-104.073	-98.484	175.182	-101.316	-8191	255	
2622.877	1	1	0	0	0.10953	0.12149	0.10749	0.29697	0.24456	0.24769	0.16261	0.089163	0.20009	0.032813	0.32517	0.11426	0.031351	0.12065	0.11242	0.26472	-3.0521	-2.9	-3.1417	-3.5167	-2.6792	-3.2333	-3.5354	-2.7708	-3.4604	-3.0729	-3.2438	-3.7479	-2.875	-3.3375	-3.5667	-2.6833	91.816	52.401	112.337	124.645	172.415	-26.219	198.035	-19.810	66.453	-44.029	202.888	115.926	-121.869	-47.946	49.703	213.962	0.00023972	0.00076437	0.00014603	558.4	4.4865e-06	1.5156e-05	1327.8	235.05	5.6758e-06	5.8355e-06	559.7	150.61	62.69	23.376	2.5326e-06	75.245	0.0019667	0.0028445	0.00066614	452.6	2.8596e-05	2.7825e-05	1056.5	189.93	2.6889e-05	3.1403e-05	445.38	122.93	53.905	19.389	2.9064e-05	61.502	-126.560	-62.956	-89.846	-114.447	16.020	90.578	-115.683	-109.783	133.075	139.764	-110.723	-105.138	-103.023	-98.297	-103.986	-100.946	-8191	255	
2622.973	1	1	0	0	0.1091	0.21568	0.27828	0.26472	0.28479	0.22928	0.1173	0.035195	0.10577	0.12932	0.27706	0.053646	0.19602	0.041379	0.1833	0.11698	-3.0812	-2.8979	-2.825	-3.6021	-2.8312	-3.1458	-3.6333	-2.9146	-3.4417	-3.1458	-2.9813	-3.7896	-2.9333	-3.2021	-3.4979	-2.8875	142.147	64.449	46.057	-88.668	-90.667	149.067	-102.330	48.115	91.134	90.429	213.804	142.289	189.469	50.305	-23.704	185.701	0.0003314	0.0010012	0.00038962	566.25	2.7409e-06	5.6371e-06	1335.6	237.87	2.7122e-06	1.1581e-05	559.89	152.45	61.127	23.736	5.2872e-06	76.195	0.0018658	0.002701	0.00063811	454.18	2.8273e-05	2.6578e-05	1058.8	191.29	2.5758e-05	3.1026e-05	446.03	123.81	53.685	19.537	3.0339e-05	61.34	230.420	198.140	-85.841	-114.727	11.926	27.978	-115.432	-109.785	67.648	15.037	-110.759	-104.735	-103.290	-98.973	-39.706	-101.085	-8191	255	
2623.069	1	1	0	0	0.31597	0.13918	0.1035	0.13063	0.0017467	0.096464	0.024807	0.25519	0.16993	0.33465	0.032766	0.066925	0.25787	0.11012	0.094884	0.12711	-3.2062	-3.1917	-2.7917	-3.475	-2.9271	-3.05	-3.4708	-2.7208	-3.3063	-3.2062	-2.7271	-3.5354	-2.8729	-2.9729	-3.5583	-2.9125	200.492	34.171	190.168	216.907	180.000	184.140	149.809	219.146	223.062	95.464	142.926	109.178	162.648	-80.674	-26.329	206.168	0.00022856	0.00097236	0.0003062	566.99	4.7256e-06	1.2664e-05	1331.4	237.73	8.3803e-06	8.3847e-06	559.02	148.77	61.632	22.991	2.6101e-06	74.253	0.0018535	0.0028625	0.00068235	455.09	2.8953e-05	2.6844e-05	1057.9	191.27	2.6671e-05	3.2531e-05	444.65	121.76	53.466	19.052	3.026e-05	60.211	225.900	8.308	-83.103	-115.013	75.838	97.674	-115.715	-109.959	63.230	33.732	-110.445	-104.981	-103.314	-99.330	154.307	-100.830	-8191	255	
2623.165	1	1	0	0	0.17917	0.098159	0.087699	0.17625	0.17584	0.086878	0.20805	0.12966	0.042817	0.019978	0.11122	0.17596	0.10713	0.10851	0.13786	0.062051	-2.9229	-3.3125	-2.7812	-3.6083	-3.0271	-2.9854	-3.7	-2.9229	-3.1917	-3.4708	-2.7854	-3.5667	-3.0958	-2.8688	-3.5563	-2.95	-123.463	160.739	52.915	182.423	81.745	113.636	132.928	126.053	9.395	154.025	6.387	195.991	69.769	121.352	31.300	148.817	0.00029897	0.00092861	0.0005232	559.49	6.0292e-06	8.8347e-06	1321.8	237.98	6.7055e-06	1.4683e-05	555.43	149.06	61.273	22.756	9.1556e-06	74.076	0.0017951	0.0028627	0.00071635	450.37	2.9465e-05	2.6939e-05	1054.4	191.5	2.5718e-05	3.1526e-05	443.98	121.68	53.812	19.061	2.9725e-05	60.197	-103.844	200.290	-86.778	-114.401	70.705	150.778	-115.703	-110.402	9.132	98.431	-110.989	-104.812	-103.578	-98.533	18.752	-101.320	-8191	255	
2623.284	1	1	0	0	0.23276	0.16958	0.07272	0.23392	0.090805	0.29718	0.03823	0.30197	0.17102	0.091763	0.10105	0.28906	0.068589	0.23973	0.19167	0.17121	-2.6083	-3.5062	-2.7396	-3.475	-3.2271	-2.8333	-3.7333	-2.9021	-3.0938	-3.4646	-2.7292	-3.5854	-3.2667	-2.7521	-3.5917	-3.0187	82.467	29.301	-125.184	-64.966	223.220	53.531	164.465	222.312	-21.208	-91.385	17.620	-70.991	211.651	77.124	169.356	162.410	0.00025053	0.0020959	0.00022632	560.93	4.4458e-06	1.35e-05	1318.9	235.85	3.1279e-06	8.8497e-06	556.9	151.04	62.289	22.94	1.1086e-05	74.593	0.001788	0.0028568	0.00073809	447.91	2.9446e-05	2.76e-05	1051.3	191.39	2.533e-05	3.18e-05	445.11	122.38	54.197	19.147	2.9602e-05	60.694	-121.209	-40.436	-59.690	-114.591	141.931	68.371	-115.483	-110.168	79.384	58.029	-110.965	-104.897	-103.813	-98.533	5.206	-101.018	-8191	255	
2623.380	1	1	0	0	0.12089	0.069694	0.101	0.070099	0.21172	0.27384	0.13753	0.42468	0.29441	0.27124	0.19393	0.050527	0.27975	0.081376	0.15809	0.23372	-2.6312	-3.4313	-2.7542	-3.3104	-3.3354	-2.8896	-3.7438	-2.9958	-2.9	-3.7396	-3.0125	-3.4583	-3.2646	-2.8667	-3.625	-3.3333	212.010	93.445	133.430	-2.907	122.672	96.215	177.964	185.099	15.374	14.931	-112.069	183.618	-118.112	-22.760	210.571	123.908	0.00025583	0.00065516	0.00026544	549.12	2.9365e-06	3.3272e-06	1323.9	238.27	4.4644e-06	1.0846e-05	562.33	151.82	61.447	23.329	6.4104e-06	75.424	0.0017587	0.0027816	0.00077706	445.02	3.0074e-05	2.8234e-05	1050.7	191.75	2.57e-05	3.1645e-05	447.05	122.88	53.999	19.381	2.7878e-05	61.266	-121.631	-13.861	-70.474	-114.447	105.142	77.743	-115.498	-109.904	10.571	40.990	-110.744	-104.788	-103.431	-98.064	25.840	-100.907	-8191	255	
2623.477	1	1	0	0	0.20455	0.012427	0.059787	0.16239	0.20238	0.090561	0.43554	0.19393	0.1681	0.14367	0.13946	0.18728	0.16832	0.12939	0.1598	0.085986	-2.6813	-3.4083	-2.9313	-3.3792	-3.4437	-2.8	-3.5979	-3.1333	-2.975	-3.8208	-2.85	-3.2292	-3.4729	-2.7021	-3.5062	-3.2396	65.360	188.853	62.526	195.490	99.869	34.372	174.510	213.519	57.966	-98.908	-67.912	206.920	34.887	-21.265	131.237	4.063	0.0003679	0.00036368	0.00059379	555.29	2.1907e-06	1.3673e-05	1324.8	238.72	7.9239e-06	1.6197e-05	561.85	152.05	62.198	23	9.8037e-06	75.166	0.0018103	0.0028521	0.00080451	446.23	3.0504e-05	2.9865e-05	1051.8	192.56	2.5404e-05	3.1564e-05	449.52	123.4	54.323	19.395	2.8012e-05	61.342	224.998	192.108	64.567	-114.299	-93.992	-36.591	-115.632	-109.900	-72.530	51.066	-110.840	-104.525	-102.952	-98.496	20.584	-100.755	-8191	255	
2623.573	1	1	0	0	0.037471	0.14084	0.17759	0.34632	0.12511	0.21342	0.13958	0.1428	0.14033	0.064257	0.13149	0.075162	0.21124	0.19468	0.40965	0.073793	-2.4208	-3.6104	-2.8812	-3.1604	-3.5146	-2.6896	-3.3917	-3.2812	-2.8521	-3.5646	-3.0292	-3.3333	-3.4917	-2.8271	-3.3771	-3.4062	-126.610	74.916	164.631	156.021	-15.633	54.617	207.598	70.381	149.726	201.350	223.354	-66.507	-40.662	-42.727	9.996	39.010	0.00030678	0.00091109	0.0007437	555.08	1.0154e-05	9.9296e-06	1318.7	238.38	1.5962e-06	1.5153e-05	552.31	150.28	61.781	22.763	6.2645e-06	74.007	0.0018699	0.0027629	0.00082941	445.92	3.1276e-05	3.0046e-05	1047.2	192.47	2.7061e-05	3.0805e-05	442.11	121.67	53.734	19.038	2.6842e-05	60.175	-106.673	-91.478	-25.761	-114.375	50.843	31.366	-115.265	-110.058	103.090	36.923	-111.077	-104.553	-103.250	-98.562	37.123	-101.175	-8191	255	
2623.669	1	1	0	0	0.056513	0.29444	0.09617	0.068512	0.42582	0.080567	0.22478	0.10654	0.12762	0.1996	0.2494	0.097428	0.13156	0.12292	0.10892	0.037375	-2.4292	-3.5146	-3.0354	-3.0083	-3.4854	-2.6646	-3.5104	-3.5042	-2.8812	-3.5	-3.1167	-3.0792	-3.4917	-2.8	-3.1646	-3.3937	64.088	131.590	-108.677	-40.633	24.225	222.554	188.183	145.300	70.227	230.838	148.838	142.153	8.302	-71.392	-67.963	-12.961	0.00027903	0.00076326	0.00027121	553.57	1.6475e-05	1.0873e-05	1308.9	234.71	3.4384e-06	1.3643e-05	552.62	148.16	62.131	22.63	8.463e-06	74.264	0.0019051	0.0027445	0.0008201	444.65	3.0519e-05	3.1048e-05	1036.7	189.58	2.7243e-05	2.8827e-05	444	120.47	53.618	19.008	2.6012e-05	60.289	221.142	83.252	-63.402	-114.560	38.797	58.407	-115.062	-109.488	-58.795	7.315	-110.651	-105.052	-103.923	-98.653	-29.613	-100.634	-8191	255	
2623.765	1	1	0	0	0.17372	0.26361	0.17368	0.12438	0.25476	0.12777	0.20023	0.095635	0.21893	0.16292	0.29231	0.32672	0.09098	0.069845	0.15734	0.2146	-2.3521	-3.5333	-3.0833	-2.6479	-3.4917	-2.925	-3.2479	-3.5312	-2.9458	-3.3937	-3.5083	-2.7458	-3.7292	-2.8667	-3.0812	-3.5646	37.346	-54.383	195.553	186.482	111.790	52.500	146.956	14.291	-30.542	-97.873	207.039	214.849	175.119	103.175	162.808	179.066	0.00036219	0.0017782	0.00042096	549.52	8.457e-06	8.6387e-06	1311.6	235.1	9.9054e-06	8.0582e-06	552.28	150.21	61.694	22.829	4.324e-06	75.112	0.0018603	0.0025867	0.00080503	443.35	2.8167e-05	3.0945e-05	1037.5	190.38	2.7635e-05	2.7711e-05	442.54	121.94	53.189	19.172	2.5196e-05	60.625	227.512	-5.384	-42.710	-114.282	81.435	-38.416	-115.218	-109.592	102.541	-100.475	-110.679	-104.618	-103.373	-98.405	20.343	-100.913	-8191	255	
2623.886	1	1	0	0	0.05234	0.017351	0.070507	0.12965	0.058282	0.14532	0.031271	0.085876	0.14306	0.19629	0.31699	0.15165	0.09174	0.11758	0.026273	0.26774	-2.2854	-3.4562	-3.0396	-2.875	-3.5083	-3.0187	-3.0438	-3.6979	-2.8667	-3.3667	-3.4229	-2.8458	-3.5438	-2.8625	-2.8854	-3.7958	-118.446	88.271	-24.266	182.007	-64.863	158.311	-70.221	203.969	9.158	3.914	219.326	-117.593	-15.091	101.691	26.317	107.794	0.00024337	0.0010954	0.00034529	545.56	7.3483e-06	2.5323e-06	1317.8	235.71	7.7933e-06	8.6645e-06	558.03	150.72	61.295	23.164	1.5655e-07	75.201	0.0019125	0.0024363	0.00081619	441.52	2.7499e-05	3.1374e-05	1039.6	190.7	2.8654e-05	2.6497e-05	445.05	122.02	53.174	19.339	2.6518e-05	60.982	231.435	-61.334	-68.011	-114.047	48.541	-115.926	-115.379	-109.447	53.611	51.305	-110.589	-104.951	-103.366	-98.294	-77.976	-100.713	-8191	255	
2623.980	1	1	0	0	0.066428	0.17224	0.20523	0.35071	0.22355	0.16826	0.15505	0.040743	0.023815	0.23782	0.0163	0.065025	0.13356	0.11017	0.083232	0.0753	-2.3958	-3.2604	-3.3646	-2.6437	-3.3438	-3.3271	-2.9542	-3.5812	-2.7771	-3.3646	-3.7479	-2.8187	-3.3625	-3.1604	-2.9646	-3.55	18.669	190.324	99.702	-113.846	101.901	74.277	211.611	221.707	217.291	-85.125	-31.498	49.621	-121.094	205.615	192.489	153.226	0.00034655	0.00095099	0.00020805	554.2	3.386e-06	6.3203e-06	1324.7	238.26	7.1658e-07	4.2702e-06	557.26	151.32	60.954	23.198	1.0513e-05	74.706	0.0020377	0.0024024	0.0007989	446.12	2.7002e-05	3.2397e-05	1044.5	191.95	2.8326e-05	2.5955e-05	445.95	123.07	53.027	19.424	2.5954e-05	60.619	221.562	-110.004	-86.632	-114.526	111.895	73.363	-115.338	-109.964	93.727	89.709	-110.680	-104.684	-103.185	-98.788	-4.021	-100.885	-8191	255	
2624.076	1	1	0	0	0.31126	0.098463	0.13145	0.27953	0.23566	0.055951	0.17094	0.070087	0.29333	0.19836	0.22252	0.41257	0.27632	0.038492	0.2121	0.32649	-2.425	-3.0104	-3.6729	-2.9062	-3.4188	-3.3854	-3.0396	-3.6188	-2.8771	-3.025	-3.6583	-2.9604	-3.4958	-3.2396	-2.8312	-3.6021	74.976	-94.334	88.134	172.913	-72.897	-71.269	-125.408	177.702	-19.463	-36.487	183.990	73.130	213.238	100.817	128.469	-104.972	0.00035718	0.00060767	0.00010215	549.98	5.5683e-06	7.3427e-06	1321.2	235.03	5.2073e-06	6.0742e-06	555.53	148.67	61.017	22.734	4.8924e-06	73.605	0.0020461	0.0023687	0.00076142	443.64	2.5182e-05	3.1514e-05	1041.7	190.22	3.0438e-05	2.6257e-05	444.63	121.79	53.057	19.07	2.6967e-05	59.829	220.887	-86.792	22.029	-113.986	36.456	-43.334	-115.219	-109.836	174.044	172.000	-110.710	-105.026	-103.107	-98.198	151.800	-100.431	-8191	255	
2624.150	1	1	0	0	0.19674	0.13442	0.2833	0.22686	0.15772	0.14641	0.2552	0.19267	0.14088	0.24582	0.11542	0.32577	0.20178	0.10614	0.39837	0.1083	-2.6833	-2.9479	-3.4458	-2.9208	-3.4333	-3.4896	-2.9146	-3.6562	-2.9729	-2.8771	-3.6854	-2.925	-3.2417	-3.4396	-2.8667	-3.5021	129.215	115.607	198.838	166.894	-6.827	-23.384	163.959	83.254	200.216	32.246	207.639	213.425	-45.862	201.347	144.516	194.623	0.00029821	0.0006808	0.00022968	548.42	9.2396e-06	9.2484e-06	1320	235.99	2.8439e-06	1.594e-05	552.46	148.61	62.527	22.776	3.4458e-06	73.599	0.002022	0.0024797	0.00076823	441.14	2.5326e-05	3.2558e-05	1041.8	189.44	3.0281e-05	2.6575e-05	442.21	121.36	53.387	19.182	2.8259e-05	59.606	-113.570	-104.558	-2.705	-114.573	-10.787	-41.728	-114.935	-109.733	181.801	26.129	-110.565	-105.175	-102.589	-98.383	-71.199	-100.693	-8191	255	
2624.270	1	1	0	0	0.16599	0.05658	0.070138	0.26754	0.072023	0.11291	0.13608	0.12349	0.049716	0.021669	0.23759	0.16098	0.22008	0.038556	0.023014	0.2342	-2.8708	-3.0042	-3.525	-2.8542	-3.2208	-3.6375	-2.7729	-3.5042	-3.3625	-2.9854	-3.75	-3.0125	-3.1688	-3.6937	-2.7771	-3.6312	13.078	-3.671	94.832	162.365	210.877	-101.796	153.131	106.881	190.639	-101.984	99.623	162.266	203.803	157.668	43.753	141.153	0.00032283	0.0011625	0.00042087	552.82	6.7839e-06	9.8698e-06	1315.7	233.8	9.7078e-06	6.5437e-06	555.09	149.06	61.116	22.709	5.3059e-06	72.336	0.0021251	0.0024155	0.00074671	446.24	2.4972e-05	3.2142e-05	1039.7	188.64	3.116e-05	2.7224e-05	444.53	121.75	53.178	18.976	2.9056e-05	58.689	214.391	-27.336	13.876	-114.239	-2.656	128.394	-115.218	-109.921	-6.566	-103.554	-110.659	-105.093	-103.797	-99.304	28.132	-100.940	-8191	255	
2624.365	1	1	0	0	0.1245	0.096019	0.23794	0.13112	0.094463	0.056795	0.2174	0.01599	0.20148	0.20335	0.076284	0.28663	0.15259	0.1849	0.13169	0.15948	-2.8312	-2.7292	-3.5271	-2.8812	-3.0458	-3.5021	-2.95	-3.4854	-3.2583	-2.7958	-3.8083	-2.9542	-3.0021	-3.5687	-2.8104	-3.3979	23.515	-31.943	-69.979	-94.744	-126.005	-50.952	166.684	84.687	-9.281	38.725	36.869	-107.097	165.328	209.379	187.484	155.744	0.00025858	0.00036029	0.00021848	558.04	4.7589e-06	1.2816e-05	1327.5	231.5	7.2816e-06	1.0634e-05	551.47	152.35	61.537	22.946	7.4906e-06	72.707	0.0021261	0.0025673	0.00073218	449.36	2.4414e-05	3.148e-05	1051.9	187	3.0575e-05	2.8462e-05	439.62	123.27	53.069	19.082	3.0738e-05	58.626	-112.861	-101.066	30.132	-114.405	69.178	58.569	-115.730	-110.172	42.375	-77.726	-110.765	-104.620	-103.769	-98.685	145.587	-100.318	-8191	255	
2624.461	1	1	0	0	0.20114	0.16468	0.1813	0.06381	0.041414	0.089929	0.26027	0.15225	0.17989	0.071875	0.2255	0.037732	0.12493	0.26772	0.24966	0.12266	-3.0167	-2.6729	-3.5229	-3.0812	-2.8937	-3.5062	-2.9958	-3.4083	-3.3167	-2.8458	-3.6688	-3.1729	-2.9375	-3.5271	-2.7146	-3.2167	-72.907	-66.873	210.615	-14.650	216.767	162.352	137.258	167.841	138.816	-13.334	128.976	-23.129	127.530	133.835	62.525	154.104	0.00026374	0.00057894	0.00035013	553.16	8.5611e-06	1.3475e-05	1322.1	228.04	2.3031e-06	6.0634e-06	543.85	149.98	61.301	22.566	1.2338e-05	69.302	0.0021754	0.0025626	0.00072618	447.83	2.5018e-05	3.0686e-05	1051.4	183.32	2.9888e-05	2.9336e-05	433.88	123.3	53.122	18.894	3.105e-05	56.459	213.560	-106.890	-47.477	-114.628	-77.537	72.572	-114.953	-109.978	48.439	-85.875	-110.884	-105.070	-103.617	-98.618	42.581	-100.685	-8191	255	
2624.557	1	1	0	0	0.21964	0.15027	0.20384	0.34943	0.12183	0.24351	0.23318	0.077394	0.15687	0.046349	0.33514	0.33092	0.062825	0.026586	0.11093	0.37623	-3.1104	-2.5521	-3.3521	-3.0021	-2.7687	-3.8187	-2.9792	-3.0396	-3.6312	-2.7771	-3.5375	-3.3146	-2.7167	-3.6708	-2.8458	-3.1333	-32.332	49.403	221.235	161.127	170.512	53.959	142.071	-3.010	125.596	116.588	128.978	-122.732	1.908	109.980	228.853	-121.518	0.00024271	0.0010802	0.00015967	552.62	8.6706e-06	1.2442e-05	1310.3	222.97	1.0986e-05	5.5606e-06	527.37	148.38	60.846	21.963	3.4543e-06	68.621	0.0020756	0.0027607	0.00071807	445.85	2.7013e-05	3.0433e-05	1041.7	179.6	2.9982e-05	3.1625e-05	422.45	121.44	52.976	18.511	3.1363e-05	55.743	228.784	-6.109	223.106	-114.939	-67.025	132.895	-115.364	-109.952	-3.339	-65.867	-110.488	-105.231	-102.135	-98.620	172.525	-100.755	-8191	255	
2624.678	1	1	0	0	0.24472	0.16988	0.027213	0.11657	0.10355	0.16227	0.11698	0.15366	0.1672	0.043922	0.20475	0.022015	0.1961	0.13218	0.19439	0.1759	-3.1229	-2.6854	-3.3333	-3.2438	-2.6937	-3.6229	-3.1146	-3.0333	-3.6333	-2.7708	-3.4583	-3.2417	-2.8104	-3.5521	-3.0417	-3.1458	63.649	130.496	172.350	157.686	104.696	130.773	228.107	198.396	169.820	187.137	148.249	-25.581	-38.206	212.846	42.760	165.175	0.00028722	0.00078675	0.00013197	552.25	8.0002e-06	4.0466e-06	1300.9	220.86	4.5095e-06	4.709e-06	530.82	146.34	60.069	22.045	2.8805e-06	69.102	0.0020457	0.0027973	0.00067217	444.78	2.6998e-05	2.8079e-05	1033.2	179.09	2.7017e-05	3.0583e-05	422.08	120.39	52.484	18.358	3.0838e-05	55.83	-100.086	1.679	-83.646	-114.571	19.198	145.167	-114.989	-109.525	82.953	29.626	-110.870	-105.050	-102.354	-98.907	202.363	-100.312	-8191	255	
2624.749	1	1	0	0	0.14385	0.0040743	0.027269	0.04785	0.16854	0.23091	0.25647	0.31282	0.19743	0.0092829	0.10862	0.14319	0.056221	0.2144	0.22593	0.20319	-3.1854	-2.7125	-3.3438	-3.3792	-2.7896	-3.5292	-3.1583	-2.8521	-3.4792	-2.8104	-3.2792	-3.5521	-2.5375	-3.4437	-3.2583	-3.0646	212.865	26.280	-96.540	11.819	-71.103	-114.652	192.480	230.099	-45.200	-91.804	172.747	-105.141	58.148	171.141	150.257	168.584	0.00032211	0.0016514	9.6108e-05	538.36	4.4084e-06	7.1603e-06	1303.4	221.74	2.0466e-06	4.9453e-06	529.11	148.87	59.961	22.497	1.5673e-06	70.155	0.0019016	0.002876	0.00064653	436.4	2.7741e-05	2.6047e-05	1029.7	179.16	2.5433e-05	2.8166e-05	420.78	120.58	52.075	18.502	2.6082e-05	56.811	230.332	-73.797	194.496	-114.751	56.008	64.479	-115.390	-110.029	97.685	102.583	-110.737	-104.943	-102.642	-97.893	-125.421	-100.441	-8191	255	
2624.845	1	1	0	0	0.13736	0.38051	0.2299	0.14634	0.19142	0.20237	0.066824	0.037994	0.083579	0.15666	0.21409	0.22913	0.097443	0.073959	0.34856	0.11544	-3.1167	-2.8042	-3.1417	-3.3396	-2.8167	-3.2875	-3.3583	-2.9	-3.5667	-2.9688	-3.2021	-3.7854	-2.7229	-3.2833	-3.3438	-2.9625	202.222	54.599	-98.859	154.782	59.324	-126.905	112.053	204.673	198.139	205.251	184.343	209.706	-125.161	224.538	171.599	196.888	0.00031696	0.00064662	0.00015943	539.61	5.8488e-06	6.1502e-06	1285.8	223.01	6.2177e-06	1.3476e-05	538.49	150.23	60.986	22.78	2.0333e-06	70.468	0.0017723	0.0024178	0.00064782	433.57	2.6125e-05	2.5417e-05	1025.3	180	2.4524e-05	2.7963e-05	425.97	121.28	52.232	18.703	2.6782e-05	57.124	-124.003	-73.085	-10.142	-114.715	-58.069	125.596	-115.741	-109.627	-51.074	34.087	-110.260	-104.577	-104.149	-98.904	17.307	-100.384	-8191	255	
2624.966	1	1	0	0	0.069604	0.095468	0.11472	0.17945	0.16032	0.15837	0.33612	0.29715	0.1263	0.21305	0.22083	0.17238	0.18684	0.15538	0.097931	0.22315	-3.2479	-2.9979	-2.9854	-3.3896	-2.9229	-3.3812	-3.475	-2.7167	-3.3187	-3.2146	-2.8708	-3.6958	-2.9375	-3.2	-3.3438	-2.6646	-20.427	186.689	-3.704	-84.416	91.191	214.788	127.277	143.221	-24.557	68.355	-90.694	66.543	-29.595	130.897	144.327	199.610	0.00024568	0.00011929	0.00030712	547.57	6.2647e-06	5.3873e-06	1310.8	224.46	1.0051e-05	1.1009e-05	532.57	147.66	58.902	21.959	1.4268e-05	68.241	0.001687	0.0025277	0.00063257	435.39	2.5196e-05	2.4173e-05	1032.1	180.99	2.4859e-05	2.7383e-05	426.69	120.36	51.81	18.247	2.7244e-05	55.292	230.551	-15.637	57.138	-114.476	68.164	96.897	-115.276	-109.828	41.526	52.785	-110.029	-104.645	-102.897	-98.605	17.059	-100.279	-8191	255	
2625.062	1	1	0	0	0.076858	0.12151	0.32513	0.059658	0.14666	0.12171	0.13639	0.097792	0.18181	0.30469	0.18671	0.17708	0.19204	0.090329	0.13046	0.22979	-3.1604	-3.0542	-2.6667	-3.6458	-2.9375	-3.2313	-3.4917	-2.8292	-3.5396	-3.1104	-2.9104	-3.6021	-2.9708	-3.1562	-3.6083	-2.8667	-120.929	52.804	141.769	2.243	188.266	41.473	177.209	205.809	99.219	157.135	95.498	158.540	-117.112	-22.053	-89.998	-105.775	0.00026714	0.0013325	0.00021633	554.37	1.2652e-06	1.4773e-06	1288.5	226.54	6.7477e-06	9.7235e-06	538.06	146.94	60.263	21.796	4.7418e-06	68.067	0.0017211	0.002586	0.00064653	440.74	2.586e-05	2.5349e-05	1025.5	181.55	2.4355e-05	2.8428e-05	429.06	119.68	52.031	18.247	2.8163e-05	54.914	-126.200	-52.866	40.327	-115.313	211.497	53.474	-115.438	-110.083	-52.213	120.086	-110.619	-104.932	-102.955	-98.277	-75.122	-100.692	-8191	255	
2625.157	1	1	0	0	0.23464	0.087941	0.16681	0.099614	0.090966	0.098067	0.2359	0.17269	0.085115	0.093432	0.37063	0.11936	0.079801	0.029742	0.17195	0.21823	-2.9188	-3.1937	-2.7417	-3.6542	-2.9938	-2.9771	-3.7479	-2.7604	-3.2917	-3.3729	-2.8583	-3.6833	-2.8958	-3.0396	-3.7104	-3.0375	-116.115	54.055	90.019	159.495	129.510	-56.858	113.323	188.319	82.019	-67.377	194.483	145.189	185.970	-34.982	-20.871	107.270	0.00021247	0.0012148	4.0079e-05	566.2	5.0423e-06	7.3456e-06	1320.7	225.07	1.0137e-05	5.8044e-06	537.93	146.35	60.54	21.889	5.6967e-06	63.952	0.0017232	0.0026472	0.00068573	452.11	2.7321e-05	2.5808e-05	1042.8	180.86	2.493e-05	2.7969e-05	427.87	119.22	52.482	18.225	2.6247e-05	52.192	-101.750	-20.634	-37.720	-114.787	19.175	25.476	-115.069	-110.153	-12.577	-8.678	-110.405	-104.608	-103.021	-98.502	-83.852	-100.385	-8191	255	
2625.277	1	1	0	0	0.23194	0.31096	0.13483	0.17899	0.36911	0.041818	0.19753	0.22861	0.23019	0.29383	0.2491	0.18917	0.10514	0.23553	0.20528	0.29181	-2.9521	-3.3458	-2.8771	-3.6063	-3.3271	-2.9521	-3.7438	-2.9604	-3.2708	-3.4021	-2.8542	-3.5292	-3.0667	-2.7062	-3.4833	-2.9	99.485	58.016	67.485	91.492	39.581	42.865	98.517	210.957	143.269	31.558	-125.163	151.262	-52.789	97.582	-104.197	225.091	0.00031025	0.00076642	0.00042933	564.66	2.4771e-06	8.9635e-07	1319.9	223.36	2.7234e-06	2.2129e-05	532.19	148.26	60.099	21.698	5.377e-06	63.266	0.0016534	0.0026379	0.0006952	452.5	2.7046e-05	2.5858e-05	1044.9	179.56	2.4565e-05	2.9964e-05	425.72	120.41	52.894	18.043	2.7168e-05	51.486	-111.853	-6.363	-75.658	-115.095	27.592	2.135	-115.579	-110.503	-12.364	38.624	-110.983	-104.364	-103.106	-98.461	70.951	-100.502	-8191	255	
2625.373	1	1	0	0	0.24511	0.15081	0.27125	0.12665	0.16141	0.28941	0.23145	0.3783	0.13776	0.15977	0.15198	0.15864	0.21151	0.046786	0.062211	0.32854	-2.7521	-3.5062	-2.7854	-3.5292	-3.3375	-2.9333	-3.5208	-3.0229	-3.0021	-3.5667	-2.8104	-3.3792	-3.1708	-2.8833	-3.8479	-3.0438	-84.486	58.818	-85.408	-12.328	217.001	193.627	208.295	137.756	-108.027	-104.957	-95.091	-8.532	9.918	-97.714	222.535	-97.534	0.00025746	0.0011556	0.00011103	557.06	2.1193e-06	3.1487e-06	1322.7	225.23	2.8163e-06	1.3993e-05	534.86	153.81	63.277	22.621	1.5347e-05	62.215	0.001769	0.0027011	0.00075695	445.53	2.9442e-05	3.0018e-05	1048.6	182.82	2.8887e-05	3.3079e-05	429.46	124.97	55.489	19.006	3.1061e-05	51.006	229.727	-12.009	204.224	-114.860	73.221	223.859	-115.537	-109.706	178.316	84.103	-110.486	-104.712	-103.115	-98.894	60.294	-99.977	-8191	255	
2625.445	1	1	0	0	0.088796	0.15146	0.097888	0.10109	0.15491	0.22659	0.017531	0.14262	0.09173	0.11147	0.062611	0.10708	0.26056	0.058228	0.1671	0.12609	-2.5896	-3.3646	-2.9188	-3.3375	-3.4271	-2.7583	-3.7562	-3.1979	-2.9958	-3.6375	-2.9688	-3.3021	-3.375	-2.6437	-3.675	-3.1646	220.994	-41.627	157.563	223.939	37.803	63.605	-92.265	217.602	-16.556	165.425	225.784	204.186	155.171	-99.894	104.556	134.573	0.00011441	0.00057919	0.00013732	574.79	6.3334e-06	2.026e-06	1348.9	229.01	3.366e-06	6.3254e-06	533.68	155.02	64.832	23.248	1.4445e-05	60.363	0.002106	0.0031737	0.00088966	465.3	3.4271e-05	3.4774e-05	1074.9	186	3.1049e-05	3.4739e-05	429.62	126.36	56.412	19.487	3.1212e-05	49.592	217.189	-103.286	37.078	-114.103	24.406	-65.545	-115.077	-109.440	-9.970	74.887	-110.566	-104.347	-102.837	-98.004	-70.439	-100.096	-8191	255	
2625.541	1	1	0	0	0.17698	0.11674	0.18164	0.26564	0.13916	0.24614	0.25354	0.10623	0.19525	0.17292	0.036338	0.084008	0.09402	0.12319	0.27903	0.17495	-2.6208	-3.5854	-2.85	-3.3917	-3.4042	-2.8229	-3.6708	-3.0479	-2.8979	-3.4667	-2.9917	-3.0938	-3.575	-2.7208	-3.4396	-3.1542	48.075	168.086	-3.980	193.542	85.258	-15.282	179.198	167.608	-114.182	197.152	14.635	189.397	138.813	220.514	208.244	-120.565	0.00038794	0.00082848	0.00031892	572.87	1.3523e-05	3.4546e-06	1347.3	227.38	1.3909e-05	9.4888e-06	535.17	152.63	63.255	23.105	4.2455e-06	60.303	0.0020917	0.0029989	0.00085776	461.87	3.2214e-05	3.4708e-05	1068.3	183.39	3.0851e-05	3.2613e-05	427.73	124.6	55.61	19.171	3.0813e-05	49.45	-94.603	42.314	23.377	-114.598	17.222	218.715	-115.324	-109.962	14.776	12.042	-111.137	-105.219	-102.880	-99.100	-56.560	-100.330	-8191	255	
2625.662	1	1	0	0	0.20293	0.19794	0.2437	0.12345	0.23227	0.18952	0.27463	0.15329	0.16604	0.19632	0.18144	0.1607	0.079722	0.11294	0.071646	0.021319	-2.6167	-3.6646	-2.8937	-3.3063	-3.5458	-2.4813	-3.7583	-3.3083	-2.7771	-3.5896	-3.1917	-3.0521	-3.5833	-2.6604	-3.2917	-3.2917	1.123	72.700	51.503	-5.042	196.211	178.999	142.434	207.258	45.802	170.152	-93.980	163.005	-55.498	123.374	30.951	197.488	0.00014758	0.0014861	0.00015161	566.93	1.108e-05	6.9042e-06	1343.2	223.01	7.5795e-06	1.0035e-05	529.68	151.47	62.666	22.387	8.1973e-06	60.709	0.0021584	0.0029781	0.00087624	455.29	3.2709e-05	3.4957e-05	1064.3	182.62	3.2035e-05	3.2377e-05	425.71	123.83	55.057	18.825	3.1009e-05	49.793	179.812	-41.642	-123.712	-114.609	94.422	229.950	-115.316	-109.903	33.718	-60.254	-111.032	-104.929	-103.623	-98.820	3.260	-100.476	-8191	255	
2625.758	1	1	0	0	0.18438	0.15509	0.090418	0.18083	0.0942	0.015546	0.13037	0.19352	0.19116	0.063046	0.072141	0.24394	0.090367	0.11627	0.15399	0.079787	-2.2875	-3.5333	-2.9292	-2.8812	-3.5521	-2.7708	-3.4271	-3.4333	-2.7667	-3.6604	-3.0479	-3.2083	-3.6	-2.9062	-3.2792	-3.4979	181.668	152.588	180.944	-98.917	196.792	103.671	-118.506	136.870	-120.721	-71.383	225.758	178.363	160.202	-83.936	-16.476	177.399	0.00025137	0.00092336	0.00026523	558.82	4.8764e-06	6.9094e-06	1333.1	219.36	5.5983e-06	2.2121e-05	517.1	148.38	61.352	21.311	5.6057e-06	61.02	0.0021973	0.0029163	0.00088488	451.76	3.0508e-05	3.419e-05	1059	177.94	3.0707e-05	3.0636e-05	418.16	121.9	53.93	17.945	3.0076e-05	49.891	203.266	-5.974	-40.501	-115.094	32.016	-99.666	-115.130	-109.813	227.631	39.602	-110.877	-104.512	-103.119	-98.849	120.156	-100.228	-8191	255	
2625.854	1	1	0	0	0.15116	0.23257	0.14838	0.058063	0.20134	0.30867	0.25638	0.18619	0.26629	0.16908	0.12371	0.15344	0.2976	0.21556	0.11426	0.077668	-2.5479	-3.6729	-3.0479	-2.8958	-3.6521	-2.6167	-3.2812	-3.6167	-2.6958	-3.4396	-3.2313	-2.9979	-3.6458	-3.0604	-2.825	-3.7771	70.119	185.268	-100.921	202.372	-126.016	-59.932	-118.011	126.555	-10.388	62.857	211.264	111.853	109.490	-50.086	113.558	79.642	0.00023648	0.00060643	7.2873e-05	559.86	1.0675e-05	4.3245e-07	1320.1	218.12	1.764e-06	1.6294e-05	522.21	149.12	60.854	21.159	7.7735e-06	60.483	0.0021241	0.0027452	0.00081826	450.14	2.8377e-05	3.3594e-05	1049.2	176.9	3.0444e-05	2.9885e-05	418.71	121.53	53.138	17.924	2.9391e-05	49.664	-127.251	-15.029	173.380	-115.004	23.303	-0.667	-115.084	-109.710	172.905	72.230	-110.717	-104.845	-102.381	-98.170	25.971	-100.052	-8191	255	
2625.950	1	1	0	0	0.18623	0.171	0.12196	0.31409	0.082246	0.22755	0.12578	0.21449	0.24085	0.086795	0.14653	0.18945	0.21956	0.11419	0.038852	0.29341	-2.45	-3.4229	-3.2167	-2.8958	-3.4958	-3.05	-3.1375	-3.3958	-2.7479	-3.2854	-3.5438	-2.8063	-3.6542	-3.0417	-2.8563	-3.6896	126.162	14.836	-109.237	195.239	85.442	29.981	109.380	176.941	28.494	206.762	147.606	-75.488	-115.640	133.063	-50.796	177.463	0.00033298	0.00059785	7.8582e-05	554.95	9.3281e-06	5.1848e-06	1311.7	217.78	6.7719e-06	1.212e-05	513.86	147.34	59.834	21.037	5.7642e-06	60.136	0.0020675	0.0025671	0.00082772	448.49	2.726e-05	3.0712e-05	1042	176.22	2.878e-05	2.8475e-05	412.29	119.12	51.76	17.65	2.8488e-05	49.054	230.642	191.825	131.705	-115.310	101.180	20.597	-115.058	-109.692	67.354	91.886	-110.221	-104.343	-103.833	-98.275	88.713	-100.241	-8191	255	
2626.046	1	1	0	0	0.14959	0.035507	0.029259	0.22879	0.12417	0.08648	0.20963	0.065407	0.19402	0.067155	0.27005	0.031366	0.088185	0.42479	0.17292	0.14962	-2.6937	-3.1208	-3.475	-2.8333	-3.625	-3.1896	-2.8792	-3.6333	-2.8563	-3.275	-3.4458	-2.7542	-3.5146	-3.1729	-2.8604	-3.7271	36.673	230.845	105.751	125.989	-71.441	-81.346	202.758	184.747	193.200	-107.525	160.731	183.214	-51.129	219.152	-76.472	110.303	0.00023536	0.0010187	0.00029398	555.64	7.473e-06	7.0341e-07	1305.1	216.88	7.2553e-06	4.671e-06	511.54	145.81	59.84	21.039	1.045e-05	60.157	0.0019607	0.00251	0.00075044	447.4	2.6567e-05	3.02e-05	1035.1	174.84	2.905e-05	2.8737e-05	409.63	118.67	51.332	17.511	2.947e-05	48.909	222.226	-4.097	31.492	-115.148	82.772	221.701	-115.011	-109.902	128.154	200.471	-110.797	-105.009	-102.281	-98.806	-58.492	-100.468	-8191	255	
2626.143	1	1	0	0	0.2258	0.084608	0.21231	0.25501	0.2998	0.071961	0.26364	0.034196	0.14646	0.11357	0.14616	0.11203	0.18804	0.20132	0.24156	0.18202	-2.5104	-3.0333	-3.6083	-3.025	-3.4792	-3.2021	-3.0771	-3.4917	-3.0167	-3.0812	-3.5583	-2.7687	-3.3729	-3.2792	-2.925	-3.5875	203.065	180.812	-5.679	226.544	15.674	168.659	167.061	54.685	151.873	-89.508	-53.993	196.829	-121.387	198.626	-48.431	204.468	0.00013247	0.00069021	9.0258e-05	550.9	4.5772e-06	8.5404e-06	1295.3	215.63	9.2026e-06	2.1185e-05	511.69	145.54	59.311	20.963	1.423e-05	60.442	0.0019679	0.0026099	0.0007693	445.24	2.557e-05	3.0611e-05	1029.6	174.29	2.8643e-05	2.9827e-05	409.42	118.69	51.25	17.46	2.8818e-05	49.226	-111.590	154.008	81.276	-114.867	-18.807	30.822	-115.152	-109.477	18.320	61.081	-110.481	-104.862	-102.820	-98.166	41.630	-99.923	-8191	255	
2626.239	1	1	0	0	0.26022	0.053937	0.10892	0.19263	0.15804	0.30251	0.24803	0.01754	0.29191	0.2863	0.070262	0.20316	0.12917	0.056929	0.071863	0.18736	-2.6646	-2.875	-3.4708	-2.7438	-3.4125	-3.3604	-3.0292	-3.6396	-2.9375	-2.875	-3.7521	-2.7771	-3.1521	-3.2917	-2.7833	-3.425	157.511	-97.939	94.590	-59.071	197.716	224.278	20.002	33.824	91.738	-66.158	41.512	226.356	-45.803	-50.657	167.171	-122.104	0.00012013	0.00043021	0.0002582	552.97	1.1661e-05	3.7089e-06	1307.6	218.64	7.6608e-06	1.0638e-05	517.89	146.39	59.606	21.103	9.4412e-06	60.781	0.00195	0.002573	0.00070347	445.74	2.5192e-05	2.9095e-05	1042	176.29	2.665e-05	2.8531e-05	413.71	118.97	51.349	17.667	2.6651e-05	49.734	221.539	-81.335	5.579	-115.122	65.963	64.223	-115.058	-109.930	34.663	-110.586	-110.864	-104.505	-102.726	-97.778	-21.045	-99.843	-8191	255	
2626.358	1	1	0	0	0.062087	0.13016	0.15519	0.094265	0.11065	0.14413	0.27506	0.064387	0.30047	0.054466	0.11869	0.15634	0.23457	0.21545	0.29578	0.1481	-2.6042	-2.8542	-3.4458	-2.875	-3.1833	-3.3583	-2.9	-3.6312	-3.3604	-2.9042	-3.7458	-2.825	-3.1896	-3.4562	-2.7458	-3.6	-83.803	-54.360	65.259	160.195	-99.382	-91.583	174.826	2.066	87.593	176.705	210.858	122.005	-92.799	192.064	-40.126	15.983	0.00023223	0.00074204	0.00021978	558.74	4.5933e-06	7.8294e-06	1324.4	218.9	7.8008e-06	1.5434e-05	520.51	146.03	60.305	21.054	5.8573e-06	61.378	0.0018087	0.0024827	0.0006666	449.36	2.4064e-05	2.7496e-05	1047.5	176.45	2.6063e-05	2.6343e-05	414.68	119.46	51.599	17.669	2.6426e-05	49.681	221.580	213.776	154.603	-115.121	65.384	184.548	-114.735	-110.106	50.280	35.162	-110.612	-104.053	-102.737	-98.329	95.065	-99.564	-8191	255	
2626.454	1	1	0	0	0.099868	0.099834	0.031855	0.20675	0.11903	0.060171	0.26811	0.049687	0.06014	0.11631	0.13373	0.13195	0.29804	0.25387	0.35355	0.43719	-3.0812	-2.8083	-3.5312	-2.925	-2.9792	-3.5917	-3.1042	-3.3979	-3.2938	-2.7	-3.6562	-3.0312	-3.0125	-3.6583	-2.7042	-3.3021	54.935	80.153	8.815	-107.853	-13.710	167.608	202.715	-112.486	-106.076	147.472	199.432	204.258	220.310	-6.311	154.167	175.286	0.00018013	0.00068343	0.00022431	550.39	8.4805e-06	3.4443e-06	1317.6	219.22	1.7504e-06	1.151e-05	516.98	145.67	59.452	20.941	5.7645e-06	60.043	0.0017988	0.0024279	0.0006458	443.89	2.5054e-05	2.632e-05	1046.9	176.26	2.6245e-05	2.809e-05	411.61	118.65	51.528	17.485	2.7953e-05	48.978	-122.147	117.529	90.442	-114.778	-76.588	180.822	-115.571	-109.601	20.739	38.787	-110.577	-104.623	-102.249	-98.150	16.589	-99.604	-8191	255	
2626.550	1	1	0	0	0.12548	0.25499	0.052141	0.20036	0.20756	0.11052	0.33812	0.076729	0.14816	0.32297	0.20205	0.048828	0.032797	0.058405	0.2016	0.17485	-2.9646	-2.5271	-3.4583	-3.1583	-2.8375	-3.6042	-2.8688	-3.4104	-3.5979	-2.7208	-3.6896	-3.2917	-2.7979	-3.5792	-2.8333	-3.4479	-50.346	73.323	-76.757	94.149	20.978	179.952	160.272	-107.231	79.884	100.318	186.383	-83.415	163.060	-77.735	42.375	-68.113	0.00014833	0.0013381	7.3031e-05	558.88	9.8374e-06	1.2669e-05	1317.7	221.77	1.1087e-05	1.1637e-05	514.77	144.39	59.418	21.27	3.1143e-06	60.377	0.0018312	0.0025813	0.00065659	447.29	2.6238e-05	2.6651e-05	1047.2	177.64	2.6176e-05	2.8366e-05	411.76	118.68	51.744	17.586	2.8888e-05	49.214	212.131	12.908	127.597	-115.058	-98.854	7.733	-115.352	-109.844	25.979	-5.974	-110.467	-104.786	-102.011	-98.337	-43.823	-100.041	-8191	255	
2626.646	1	1	0	0	0.18185	0.48643	0.14416	0.079881	0.19389	0.19658	0.18466	0.066452	0.23241	0.062343	0.22659	0.070242	0.057347	0.035713	0.26872	0.084378	-3.0292	-2.65	-3.4083	-3.3333	-2.6625	-3.7229	-2.9396	-3.1813	-3.5771	-2.8021	-3.6792	-3.4146	-2.775	-3.7292	-2.9	-2.9938	162.396	-31.775	-113.401	172.095	88.364	165.333	208.917	-83.638	-2.141	-23.886	-67.709	-92.882	-9.604	-116.066	65.784	-70.041	0.0002847	0.00038607	0.00035832	555.91	2.8908e-06	5.1646e-06	1337.9	220.78	9.0065e-07	4.9653e-06	528.53	146.76	60.602	21.316	9.0564e-06	61.328	0.0019022	0.0025941	0.00063825	447.53	2.6295e-05	2.5919e-05	1056.1	176.67	2.7143e-05	2.9349e-05	417.53	120.06	52.478	17.631	2.9837e-05	49.544	-108.890	18.624	-109.253	-114.865	-15.490	-108.064	-115.178	-109.153	225.672	-95.022	-110.302	-104.719	-102.956	-98.625	-17.863	-99.713	-8191	255	
2626.742	1	1	0	0	0.098195	0.036409	0.24307	0.18901	0.25933	0.1951	0.34596	0.204	0.26862	0.093708	0.26206	0.14478	0.023075	0.018849	0.15765	0.13655	-3.1708	-2.6063	-3.2687	-3.2646	-2.6708	-3.6458	-3.0083	-2.9	-3.5271	-2.8833	-3.3458	-3.4729	-2.6813	-3.5771	-3.0646	-2.9313	24.362	30.691	203.958	165.478	-104.484	130.029	197.782	139.944	127.775	23.722	188.131	147.184	46.732	166.883	-8.865	54.032	0.00018083	0.00060568	0.00027959	560.94	1.324e-05	5.983e-06	1350.6	221.41	6.8294e-06	5.4812e-06	525.54	149.11	60.864	21.622	4.4794e-06	60.571	0.001756	0.0026168	0.00063479	450.5	2.6077e-05	2.6405e-05	1066.2	177.7	2.5191e-05	2.9222e-05	419.17	120.98	53.069	17.897	3.0965e-05	49.668	210.533	-55.810	-35.240	-115.163	-46.271	-85.904	-115.133	-109.355	-92.475	96.345	-110.747	-104.073	-102.719	-98.398	100.663	-99.625	-8191	255	
2626.838	1	1	0	0	0.24271	0.24996	0.085809	0.1323	0.078255	0.059498	0.38749	0.15161	0.10474	0.034929	0.26967	0.082268	0.097725	0.12504	0.09728	0.2118	-3.3521	-2.7271	-3.2521	-3.4396	-2.6396	-3.525	-3.2729	-2.9083	-3.5812	-2.7771	-3.2417	-3.6042	-2.6458	-3.6125	-3.3104	-2.9167	195.773	180.472	-34.071	-75.475	-116.434	-68.729	82.993	-93.804	-27.510	169.598	-85.242	228.112	140.747	181.494	-30.185	214.046	0.0002874	0.0011341	8.3146e-05	563.56	7.9983e-06	1.2641e-05	1344.1	222.48	5.3966e-06	1.1476e-05	531.4	147.78	61.558	21.55	8.2709e-06	61.409	0.0017928	0.0027614	0.00067677	454.43	2.6764e-05	2.5043e-05	1063.8	179.34	2.5457e-05	3.0326e-05	422.91	121.23	53.442	17.959	2.7983e-05	50.123	-113.263	-70.453	-95.085	-114.955	-4.826	41.983	-115.107	-109.665	22.197	91.067	-110.652	-104.588	-101.817	-98.179	-24.506	-100.227	-8191	255	
2626.959	1	1	0	0	0.12222	0.082014	0.034018	0.26755	0.15449	0.06997	0.28198	0.082631	0.22428	0.16473	0.19225	0.29031	0.092279	0.20322	0.069178	0.23891	-3.2271	-2.9771	-3.0458	-3.6708	-2.8937	-3.4896	-3.3708	-2.8875	-3.5979	-2.9875	-3.3083	-3.5646	-2.6396	-3.4417	-3.2854	-2.7458	185.032	12.383	53.990	124.294	8.325	175.160	-107.310	188.322	90.836	180.702	166.427	182.256	12.959	-103.513	70.837	117.672	0.00030258	0.0003572	8.1552e-05	567.75	7.6054e-06	1.573e-05	1332.8	219.66	3.8853e-06	7.6662e-06	522.24	146.79	60.482	20.899	8.631e-06	60.294	0.0016836	0.0027141	0.00064926	452.82	2.6943e-05	2.5223e-05	1056.9	177.54	2.3655e-05	2.9676e-05	415.53	119.68	52.729	17.325	2.7978e-05	49.162	-107.630	-111.393	-4.329	-114.797	63.288	28.584	-114.789	-109.764	200.577	-31.766	-110.163	-104.647	-102.715	-98.776	12.801	-99.626	-8191	255	
2627.055	1	1	0	0	0.36797	0.079606	0.34562	0.042338	0.062189	0.17258	0.12986	0.096354	0.091925	0.13057	0.13522	0.26984	0.29946	0.11754	0.04322	0.35003	-3.35	-2.9771	-3.1063	-3.6625	-2.7687	-3.4688	-3.5708	-2.8667	-3.4042	-3.2083	-3.0021	-3.7708	-2.9042	-3.2479	-3.6375	-2.7792	113.990	-62.455	4.320	45.189	-29.935	138.697	221.776	9.665	21.317	-23.731	216.675	162.599	177.614	39.251	-116.600	216.721	0.00020973	0.00019141	0.00014611	555.9	5.5067e-06	1.4792e-05	1325.5	218.57	5.3557e-06	5.3946e-06	518.25	146.31	61.316	20.982	3.0601e-06	59.606	0.0016496	0.0029147	0.00068606	447.79	3.002e-05	2.5438e-05	1053	176.47	2.3613e-05	3.1519e-05	415.05	119.35	53.392	17.315	2.8196e-05	48.489	-104.189	30.234	20.970	-114.497	-25.282	75.952	-114.564	-109.874	89.215	-37.134	-110.637	-104.006	-101.838	-98.748	-55.649	-100.017	-8191	255	
2627.150	1	1	0	0	0.13644	0.037373	0.09072	0.12721	0.097068	0.15038	0.17618	0.083844	0.099663	0.28928	0.097949	0.21922	0.12573	0.25037	0.046039	0.34326	-3.1354	-3.1896	-2.7313	-3.6417	-2.9792	-3.3063	-3.4521	-2.8812	-3.3479	-3.3708	-3.0062	-3.6125	-3.0042	-3.0333	-3.5646	-2.7833	207.940	68.464	-103.572	157.342	-119.100	173.782	157.478	-79.899	215.976	163.056	-61.706	219.613	97.082	60.676	-87.619	139.126	0.00024661	0.00050243	0.00047091	564.35	3.6645e-06	3.0083e-06	1336.3	215.38	1.9003e-06	1.1056e-05	521.71	147.33	60.396	20.849	1.0091e-05	60.307	0.0016571	0.0029215	0.00071974	450.54	2.9892e-05	2.6274e-05	1059.5	175.21	2.3459e-05	3.0793e-05	416.17	119.49	53.102	17.293	2.5866e-05	49.107	-121.065	-50.007	-74.976	-114.744	-65.063	72.565	-115.031	-109.815	23.060	-85.006	-110.196	-104.245	-102.616	-97.785	18.830	-99.581	-8191	255	
2627.246	1	1	0	0	0.17062	0.18498	0.11634	0.12763	0.2844	0.29399	0.16963	0.19974	0.27759	0.15652	0.23717	0.060854	0.14593	0.15251	0.13966	0.13641	-2.9833	-3.2417	-2.7188	-3.5979	-2.9729	-2.9854	-3.6375	-2.7979	-3.4188	-3.3792	-2.7938	-3.7146	-3.1167	-2.9729	-3.5104	-2.8583	57.782	103.831	216.333	-21.865	3.404	121.718	174.413	232.235	7.301	11.804	91.154	61.120	122.784	125.966	150.414	89.468	0.00025843	0.00054497	0.00029865	560.93	1.051e-05	1.4355e-05	1346.5	219.52	1.5003e-06	2.0866e-05	524.52	146.94	59.445	21.126	7.3794e-06	61.089	0.0016073	0.0025766	0.00064958	446.59	2.6344e-05	2.4431e-05	1060.2	177.2	2.1487e-05	2.6075e-05	418.47	119.43	51.751	17.433	2.3114e-05	49.653	211.749	-72.804	-64.955	-114.078	218.935	42.281	-115.344	-109.437	-118.085	20.371	-110.168	-103.515	-102.568	-97.773	94.369	-99.725	-8191	255	
2627.342	1	1	0	0	0.02304	0.052502	0.17236	0.094918	0.22425	0.16832	0.18536	0.16334	0.16828	0.041153	0.098667	0.11274	0.17352	0.22724	0.049082	0.023191	-3.0729	-3.3771	-2.775	-3.7562	-3.0187	-2.85	-3.7396	-2.9375	-3.3	-3.5396	-2.7833	-3.5479	-3.0375	-2.9062	-3.6417	-2.95	182.525	31.093	90.260	28.902	-103.437	181.258	121.721	135.374	189.777	206.357	176.810	-111.450	-82.802	-78.227	-108.455	210.697	0.00035004	0.0012296	0.00011777	566.27	6.72e-06	2.6186e-06	1348	218.84	9.1507e-06	4.7711e-06	528.8	149.54	60.794	21.167	4.4278e-06	61.159	0.0015241	0.0023674	0.00066374	451.44	2.6707e-05	2.3913e-05	1064.3	176.44	2.2506e-05	2.7262e-05	422.37	121.59	52.797	17.54	2.302e-05	49.771	-119.063	-55.023	-112.291	-114.305	13.776	-114.519	-114.731	-109.526	74.789	84.386	-110.480	-103.974	-102.522	-97.703	-8.917	-99.712	-8191	255	
#DATA ENDS
