BOXY.EXE: ISS Imagent and Oximeter Data Acquisition Program Version 0.80
Ascii Record File

#ACQ INFORMATION
2  Detector Channels 
16  External MUX Channels 
1  Auxiliary Channels 
5000  Waveform (CCF) Frequency (Hz)
1  Waveforms Skipped 
30  Waveforms Averaged 
1  Cycles Averaged 
16  Acquisitions per Waveform 
10.0806  Updata Rate (Hz) 

#FILE INFORMATION
TRUE -- External MUX Channel results are PARSED.
FALSE -- AC DC and Phase are NOT grouped.
TRUE -- Companion Program Settings File CREATED.
FALSE -- AC data not excluded
FALSE -- DC data not excluded
FALSE -- Phase data not excluded
FALSE -- Auxillary Chn. data not excluded
Tab delimiters

#CALIBRATION STATE
TRUE -- Waveform Calibration Values APPLIED.


#AUX CALIBRATION VALUES
Val Type	aux-1	

Term	1.0000e+00	
Factor	0.0000e+00	


#WF CALIBRATION VALUES
A = Detector Channel
Val Type	A-AC1	A-AC2	A-AC3	A-AC4	A-AC5	A-AC6	A-AC7	A-AC8	A-AC9	A-AC10	A-AC11	A-AC12	A-AC13	A-AC14	A-AC15	A-AC16	A-DC1	A-DC2	A-DC3	A-DC4	A-DC5	A-DC6	A-DC7	A-DC8	A-DC9	A-DC10	A-DC11	A-DC12	A-DC13	A-DC14	A-DC15	A-DC16	A-Ph1	A-Ph2	A-Ph3	A-Ph4	A-Ph5	A-Ph6	A-Ph7	A-Ph8	A-Ph9	A-Ph10	A-Ph11	A-Ph12	A-Ph13	A-Ph14	A-Ph15	A-Ph16	

Term	0.00000e+00	0.00000e+00	0.00000e+00	0.00000e+00	0.00000e+00	0.00000e+00	0.00000e+00	0.00000e+00	0.00000e+00	0.00000e+00	0.00000e+00	0.00000e+00	0.00000e+00	0.00000e+00	0.00000e+00	0.00000e+00	0.00000e+00	0.00000e+00	0.00000e+00	0.00000e+00	0.00000e+00	0.00000e+00	0.00000e+00	0.00000e+00	0.00000e+00	0.00000e+00	0.00000e+00	0.00000e+00	0.00000e+00	0.00000e+00	0.00000e+00	0.00000e+00	0.00000e+00	0.00000e+00	0.00000e+00	0.00000e+00	0.00000e+00	0.00000e+00	0.00000e+00	0.00000e+00	0.00000e+00	0.00000e+00	0.00000e+00	0.00000e+00	0.00000e+00	0.00000e+00	0.00000e+00	0.00000e+00	
Factor	1.00000e+00	1.00000e+00	1.00000e+00	1.00000e+00	1.00000e+00	1.00000e+00	1.00000e+00	1.00000e+00	1.00000e+00	1.00000e+00	1.00000e+00	1.00000e+00	1.00000e+00	1.00000e+00	1.00000e+00	1.00000e+00	1.00000e+00	1.00000e+00	1.00000e+00	1.00000e+00	1.00000e+00	1.00000e+00	1.00000e+00	1.00000e+00	1.00000e+00	1.00000e+00	1.00000e+00	1.00000e+00	1.00000e+00	1.00000e+00	1.00000e+00	1.00000e+00	X	X	X	X	X	X	X	X	X	X	X	X	X	X	X	X	

B = Detector Channel
Val Type	B-AC1	B-AC2	B-AC3	B-AC4	B-AC5	B-AC6	B-AC7	B-AC8	B-AC9	B-AC10	B-AC11	B-AC12	B-AC13	B-AC14	B-AC15	B-AC16	B-DC1	B-DC2	B-DC3	B-DC4	B-DC5	B-DC6	B-DC7	B-DC8	B-DC9	B-DC10	B-DC11	B-DC12	B-DC13	B-DC14	B-DC15	B-DC16	B-Ph1	B-Ph2	B-Ph3	B-Ph4	B-Ph5	B-Ph6	B-Ph7	B-Ph8	B-Ph9	B-Ph10	B-Ph11	B-Ph12	B-Ph13	B-Ph14	B-Ph15	B-Ph16	

Term	0.00000e+00	0.00000e+00	0.00000e+00	0.00000e+00	0.00000e+00	0.00000e+00	0.00000e+00	0.00000e+00	0.00000e+00	0.00000e+00	0.00000e+00	0.00000e+00	0.00000e+00	0.00000e+00	0.00000e+00	0.00000e+00	0.00000e+00	0.00000e+00	0.00000e+00	0.00000e+00	0.00000e+00	0.00000e+00	0.00000e+00	0.00000e+00	0.00000e+00	0.00000e+00	0.00000e+00	0.00000e+00	0.00000e+00	0.00000e+00	0.00000e+00	0.00000e+00	-9.97839e+01	-1.27879e+02	-1.28521e+02	-1.82006e+02	-5.58992e+01	-7.33021e+01	-1.57810e+02	-1.62015e+02	-5.12818e+01	-6.74143e+01	-1.72403e+02	-1.70165e+02	-1.80574e+02	-1.76604e+02	-6.35904e+01	-1.48996e+02	
Factor	1.65874e-05	1.60630e-04	4.67225e-05	1.56642e-01	1.23825e-06	1.65992e-06	1.81458e-01	5.32774e-02	1.10927e-06	1.85625e-06	9.31568e-02	3.11199e-02	4.21576e-02	9.47623e-03	1.36244e-06	1.40405e-02	8.31017e-06	1.23189e-05	3.42039e-06	7.89887e-02	1.27350e-07	1.35954e-07	8.60234e-02	2.70087e-02	1.27156e-07	1.36589e-07	4.55214e-02	1.53836e-02	2.16466e-02	4.83925e-03	1.31139e-07	6.92868e-03	X	X	X	X	X	X	X	X	X	X	X	X	X	X	X	X	



#DISTANCE SETTINGS
A = Detector Channel
A-1	A-2	A-3	A-4	A-5	A-6	A-7	A-8	A-9	A-10	A-11	A-12	A-13	A-14	A-15	A-16	

2.5000e+00	3.0000e+00	2.5000e+00	3.0000e+00	2.0000e+00	3.0000e+00	1.5000e+00	3.0000e+00	3.0000e+00	3.0000e+00	3.0000e+00	3.0000e+00	3.0000e+00	3.0000e+00	1.5000e+00	3.0000e+00	

B = Detector Channel
B-1	B-2	B-3	B-4	B-5	B-6	B-7	B-8	B-9	B-10	B-11	B-12	B-13	B-14	B-15	B-16	

1.0000e+01	1.0000e+01	1.0000e+01	1.4400e+00	1.0000e+01	1.0000e+01	1.5100e+00	1.9400e+00	1.0000e+01	1.0000e+01	1.9900e+00	2.4900e+00	2.4100e+00	2.9000e+00	1.0000e+01	2.9800e+00	




#DATA BEGINS
time	group	step	mark	flag	A-AC1	A-AC2	A-AC3	A-AC4	A-AC5	A-AC6	A-AC7	A-AC8	A-AC9	A-AC10	A-AC11	A-AC12	A-AC13	A-AC14	A-AC15	A-AC16	A-DC1	A-DC2	A-DC3	A-DC4	A-DC5	A-DC6	A-DC7	A-DC8	A-DC9	A-DC10	A-DC11	A-DC12	A-DC13	A-DC14	A-DC15	A-DC16	A-Ph1	A-Ph2	A-Ph3	A-Ph4	A-Ph5	A-Ph6	A-Ph7	A-Ph8	A-Ph9	A-Ph10	A-Ph11	A-Ph12	A-Ph13	A-Ph14	A-Ph15	A-Ph16	B-AC1	B-AC2	B-AC3	B-AC4	B-AC5	B-AC6	B-AC7	B-AC8	B-AC9	B-AC10	B-AC11	B-AC12	B-AC13	B-AC14	B-AC15	B-AC16	B-DC1	B-DC2	B-DC3	B-DC4	B-DC5	B-DC6	B-DC7	B-DC8	B-DC9	B-DC10	B-DC11	B-DC12	B-DC13	B-DC14	B-DC15	B-DC16	B-Ph1	B-Ph2	B-Ph3	B-Ph4	B-Ph5	B-Ph6	B-Ph7	B-Ph8	B-Ph9	B-Ph10	B-Ph11	B-Ph12	B-Ph13	B-Ph14	B-Ph15	B-Ph16	aux-1	digaux	

3037.604	1	1	0	768	0.17832	0.21402	0.20815	0.26388	0.093622	0.053176	0.36356	0.10631	0.067525	0.26415	0.12243	0.19251	0.11222	0.36529	0.26657	0.1133	-2.5312	-3.2917	-2.5042	-3.2062	-3.0854	-2.6271	-3.5583	-2.6708	-2.7604	-3.4313	-2.7646	-3.4083	-3.0917	-2.4813	-3.2458	-2.9083	201.786	-130.331	-64.532	170.586	144.842	91.050	180.700	190.369	135.787	67.743	214.652	154.116	71.790	111.335	-126.669	146.071	0.0004297	0.00048309	0.00066213	945.21	2.3588e-06	3.165e-05	1546.7	197.02	1.0282e-05	1.8198e-05	489.64	210.9	91.201	23.183	8.0083e-06	80.574	0.0026186	0.0039547	0.0010235	717.07	3.9498e-05	3.97e-05	1181.8	154.23	3.9289e-05	4.3278e-05	377.13	164.47	76.009	18.937	4.1602e-05	62.76	-108.309	92.910	-12.353	-129.330	80.125	61.283	-130.038	-123.614	-96.312	-20.823	-125.939	-119.720	-119.414	-113.614	159.744	-115.889	-8191	255	
3037.701	1	1	0	0	0.15298	0.2529	0.19639	0.13755	0.26932	0.058905	0.12818	0.082432	0.21031	0.15325	0.29153	0.22154	0.1121	0.062585	0.10958	0.17911	-2.4292	-3.2479	-2.5875	-3.2125	-2.9062	-2.5375	-3.3896	-2.6	-2.6583	-3.325	-2.6604	-3.2333	-3.3083	-2.3271	-3.3271	-2.8771	31.723	-131.571	-61.966	215.348	60.468	184.321	83.913	72.318	-111.190	3.979	163.658	132.015	-109.404	154.916	-33.163	-102.557	0.00049021	0.0005661	0.00042214	938.37	1.159e-05	1.2991e-05	1558	194.9	9.3612e-06	2.4511e-05	485.78	210.63	91.364	23.033	1.0395e-05	80.383	0.0026732	0.0040166	0.0010371	717.38	4.1153e-05	4.2253e-05	1177.8	153.43	3.8933e-05	4.4125e-05	374.28	163.2	75.009	18.757	4.0642e-05	62.586	-115.738	100.521	35.208	-129.453	72.079	22.579	-129.770	-124.283	-25.823	52.092	-125.696	-119.528	-119.698	-112.807	73.146	-115.730	-8191	255	
3037.797	1	1	0	0	0.10904	0.12534	0.31438	0.22733	0.13853	0.19705	0.14579	0.12933	0.095407	0.19482	0.21412	0.060122	0.23821	0.14906	0.17988	0.078527	-2.3563	-3.3688	-2.4833	-3.1688	-3.1583	-2.5854	-3.5125	-2.9854	-2.5771	-3.3438	-2.5979	-3.1437	-3.3771	-2.4604	-3.3458	-3.0604	-135.107	209.285	-65.345	206.557	29.872	73.124	90.907	55.501	72.323	-46.029	183.715	73.900	-63.554	202.993	-65.480	75.680	0.00028319	0.00069139	5.6007e-05	932.62	2.2877e-06	1.491e-05	1539.8	198.52	8.8924e-06	2.3511e-05	480.65	210.73	91	23.546	1.4614e-05	80.244	0.0026306	0.0040075	0.0010335	716.52	4.1333e-05	4.1753e-05	1175.4	155.42	4.1592e-05	4.6139e-05	371.37	164.16	75.819	19.056	4.3357e-05	62.494	-84.594	108.472	94.083	-129.684	111.889	173.467	-129.727	-124.011	12.274	63.392	-124.964	-119.898	-118.938	-114.021	-29.196	-115.570	-8191	255	
3037.893	1	1	0	0	0.15969	0.12628	0.0068554	0.15168	0.16318	0.26752	0.3672	0.3106	0.24373	0.25497	0.24724	0.19187	0.2079	0.28446	0.10595	0.064705	-2.2458	-3.2125	-2.8833	-2.9396	-3.2375	-2.4854	-3.3396	-3.1229	-2.6188	-3.4604	-2.8563	-2.85	-3.2854	-2.6437	-3.2833	-3.2292	-46.798	-43.166	146.090	-124.634	115.462	28.354	137.834	184.227	216.580	-40.487	149.252	190.666	-112.080	-129.482	174.766	-139.481	0.00029319	0.00024526	0.00024296	931.39	1.6123e-05	1.2513e-05	1558.1	201.81	1.1599e-05	9.3211e-06	488.44	211.43	90.83	22.961	1.6759e-05	81.599	0.0028532	0.0041593	0.001095	715.82	4.2088e-05	4.2874e-05	1174.6	157.97	4.1981e-05	4.5331e-05	374.43	164.1	75.073	18.953	4.3631e-05	63.375	-118.337	-55.961	61.840	-129.696	-3.749	63.692	-130.151	-123.325	17.307	-15.328	-125.356	-119.433	-118.816	-112.553	-43.186	-115.250	-8191	255	
3037.989	1	1	0	0	0.15323	0.15914	0.07542	0.19139	0.17947	0.1551	0.3918	0.19748	0.023802	0.036655	0.17878	0.19182	0.23982	0.1368	0.12052	0.11497	-2.0812	-3.2375	-2.7667	-2.8083	-3.2375	-2.6375	-3.2979	-3.2896	-2.5354	-3.325	-2.9875	-2.5938	-3.4917	-2.5438	-2.9583	-3.3083	116.195	160.394	62.245	177.724	-108.639	-53.806	139.917	116.417	195.148	93.313	113.943	166.282	137.138	56.440	77.308	178.516	0.00039253	0.0011827	0.00017742	925.77	1.9514e-05	1.6432e-05	1566.4	197.92	6.3453e-06	7.1046e-06	488.09	212.01	91.891	23.511	1.4079e-05	81.657	0.0028388	0.004155	0.0011054	711.18	4.2639e-05	4.4663e-05	1179.6	155.98	3.9541e-05	4.4627e-05	376.48	164.17	76.024	19.127	4.2313e-05	63.623	-124.138	201.796	-71.876	-129.218	-47.454	-48.854	-129.796	-122.845	196.126	27.799	-125.650	-119.144	-118.841	-113.251	205.119	-115.428	-8191	255	
3038.085	1	1	0	0	0.13853	0.15902	0.069467	0.23923	0.11737	0.25887	0.27923	0.12968	0.16298	0.2365	0.047804	0.42114	0.082895	0.21601	0.094242	0.081833	-2.1604	-3.2021	-2.7313	-2.7396	-3.375	-2.6708	-3.0354	-3.2771	-2.5396	-3.2396	-3.0083	-2.7646	-3.3542	-2.7167	-2.8312	-3.4229	69.172	86.983	-74.919	198.314	100.163	-104.162	194.947	199.054	-133.590	-111.402	-37.476	191.299	210.585	172.069	-136.735	112.793	0.00045495	0.0011374	0.00071307	925.64	1.5551e-05	2.3424e-05	1557.1	198.65	3.0725e-06	1.2352e-05	472.49	209.16	90.531	23.416	1.2379e-05	79.459	0.0027583	0.0040487	0.0011007	708	4.3007e-05	4.4777e-05	1182.6	158.57	4.305e-05	4.7021e-05	369.12	162.84	75.766	19.107	4.4847e-05	62.12	-108.335	-55.235	-48.849	-129.156	57.183	14.240	-130.046	-124.120	84.536	88.178	-125.270	-119.759	-118.742	-112.299	101.115	-115.058	-8191	255	
3038.206	1	1	0	0	0.2076	0.19477	0.13408	0.24293	0.11926	0.18594	0.14283	0.11428	0.1425	0.12262	0.095356	0.37352	0.1234	0.24217	0.021285	0.23739	-2.1375	-3.1146	-3.0021	-2.7958	-3.4062	-2.7812	-3.0229	-3.3	-2.6042	-3.1646	-3.2583	-2.4958	-3.2854	-2.7854	-2.7771	-3.55	60.597	-39.024	-33.517	-109.588	-93.014	178.676	-140.440	139.970	191.857	43.789	-108.318	199.340	99.419	-92.431	-39.306	91.169	0.00027751	0.0013019	4.7157e-05	922.23	1.3097e-05	1.8251e-05	1542.7	203.93	1.7264e-05	8.4529e-06	473.29	209.38	90.466	22.94	8.5753e-06	79.467	0.0029509	0.0041809	0.0011795	701.26	4.3949e-05	4.7465e-05	1179.6	160.65	4.3048e-05	4.6648e-05	365.93	162.03	75.536	18.79	4.5615e-05	62.025	-98.837	203.793	215.851	-129.077	32.553	7.033	-129.937	-123.622	-36.070	-71.254	-125.654	-119.357	-118.956	-113.071	-118.265	-115.013	-8191	255	
3038.300	1	1	0	0	0.11658	0.064723	0.15976	0.032875	0.20547	0.050963	0.32325	0.070024	0.11237	0.11513	0.19818	0.19485	0.041925	0.13324	0.13304	0.29534	-2.1854	-3.1083	-3.0833	-2.5979	-3.2542	-2.8229	-2.7104	-3.4458	-2.6	-2.9854	-3.175	-2.5708	-3.3063	-2.7917	-2.6167	-3.3542	-136.079	-21.682	-85.651	204.579	24.919	-136.159	154.624	-34.222	177.747	-65.443	190.512	-46.290	48.609	-92.022	-25.133	185.416	0.00033734	0.00033916	0.00044184	913.97	9.2298e-06	2.1295e-05	1546.7	199.47	9.9094e-06	1.5293e-05	472.61	208.2	91.28	22.88	8.7336e-06	79.858	0.0030043	0.0042505	0.0012161	699.86	4.4647e-05	4.6118e-05	1176.8	158.11	4.2794e-05	4.6224e-05	367.64	162.08	75.235	18.99	4.4688e-05	62.232	-117.375	196.820	-53.027	-129.104	22.572	25.687	-129.644	-123.420	129.111	-6.424	-125.437	-119.341	-118.660	-112.959	91.661	-114.975	-8191	255	
3038.396	1	1	0	0	0.043453	0.062038	0.14501	0.27759	0.35346	0.45277	0.38672	0.19105	0.072779	0.30397	0.18836	0.36915	0.13559	0.096612	0.12131	0.20054	-2.25	-2.7938	-3.1771	-2.7062	-3.3458	-2.9667	-2.625	-3.475	-2.8771	-2.8	-3.0667	-2.7062	-3.0938	-3.0625	-2.5708	-3.5312	113.068	-67.425	150.225	-9.369	-135.458	-92.096	169.250	167.924	-73.482	152.489	145.250	122.206	-21.934	63.914	76.558	215.140	0.00039888	0.0021893	5.1812e-05	914.29	1.1111e-05	1.51e-06	1538.2	194.03	4.9427e-06	5.2096e-07	482.82	208.27	89.742	22.978	1.5504e-05	81.498	0.0028993	0.0040515	0.001172	702.39	4.2556e-05	4.5777e-05	1175.7	154.08	4.2131e-05	4.6521e-05	373.29	162.27	74.689	18.947	4.2173e-05	63.001	-100.080	157.858	189.158	-129.315	44.597	66.086	-130.016	-123.777	5.245	208.243	-125.617	-119.166	-117.979	-112.741	79.421	-115.490	-8191	255	
3038.493	1	1	0	0	0.062003	0.39419	0.2416	0.22692	0.044399	0.12347	0.37622	0.066351	0.2617	0.24102	0.20851	0.12074	0.12892	0.049876	0.25771	0.31814	-2.4458	-2.8563	-3.1813	-2.5083	-3.2083	-3.1125	-2.6937	-3.3333	-2.9062	-2.8458	-3.5104	-2.8208	-3.0167	-3.0833	-2.5583	-3.3688	-35.915	150.522	43.536	-128.604	186.988	52.083	184.736	196.499	120.147	22.524	78.688	-138.635	185.188	-41.251	-4.468	171.158	0.0005781	0.00042646	0.00040081	950.28	1.3581e-05	6.3846e-06	1546.9	190.15	1.3063e-05	9.8623e-06	500.11	209.75	89.627	24.009	3.6786e-06	82.185	0.0028192	0.0038421	0.0011364	719.67	4.0484e-05	4.4734e-05	1178.4	150.74	3.9419e-05	4.2756e-05	381.95	162.88	74.176	19.593	4.011e-05	64.098	-127.049	115.333	-51.793	-129.990	59.393	-30.489	-130.035	-123.619	-113.976	-108.448	-125.564	-119.085	-119.070	-113.328	-73.101	-115.235	-8191	255	
3038.589	1	1	0	0	0.13507	0.23157	0.14465	0.03172	0.17852	0.15988	0.13783	0.19451	0.14857	0.073871	0.24924	0.2875	0.15911	0.16791	0.10578	0.23587	-2.4146	-2.8167	-3.3167	-2.6917	-2.9667	-3.1521	-2.6896	-3.3625	-2.925	-2.6104	-3.4083	-2.8521	-2.9437	-3.2875	-2.6125	-3.3875	-79.736	-10.274	-28.190	169.664	171.397	106.176	186.548	150.645	50.717	-43.780	-125.146	158.694	185.571	156.487	-20.172	92.730	0.00034038	0.0012633	0.00022286	954.51	7.1921e-06	2.3512e-05	1539.5	189.85	1.4196e-05	5.4134e-06	483.24	207.61	88.03	23.502	6.297e-06	81.196	0.0027036	0.0037025	0.0010673	723.16	3.8544e-05	4.2082e-05	1169	149.83	3.949e-05	4.2907e-05	373.76	161.83	72.813	19.212	4.0439e-05	63.016	-124.742	1.257	193.949	-129.464	-71.187	-118.061	-129.792	-123.732	157.238	155.414	-125.487	-119.569	-118.727	-112.282	-48.166	-115.189	-8191	255	
3038.685	1	1	0	0	0.10803	0.3328	0.15101	0.073064	0.078452	0.21427	0.062196	0.2577	0.076665	0.14522	0.11737	0.082333	0.05607	0.25954	0.25919	0.2552	-2.725	-2.5146	-3.2854	-2.6813	-2.875	-3.4437	-2.7812	-3.3354	-3.0187	-2.55	-3.4396	-2.7021	-2.6479	-3.2896	-2.4062	-3.1604	-18.636	5.251	127.251	107.812	-30.073	21.107	-77.981	166.561	41.308	139.807	-141.389	87.333	127.278	82.163	34.372	177.728	0.0003016	0.00076099	0.00021336	948.99	1.1513e-05	8.7738e-06	1545.3	187.97	2.2146e-06	1.5674e-05	482.13	207.62	88.852	23.168	8.8239e-06	80.822	0.0027597	0.0038119	0.00111	723.46	4.2225e-05	4.5008e-05	1173.4	148.98	4.3586e-05	4.482e-05	370.35	160.61	73.337	19.093	4.2303e-05	62.794	-119.699	204.210	-130.628	-129.301	45.264	-129.256	-129.815	-124.025	5.018	-8.634	-125.329	-119.540	-118.844	-114.019	73.446	-115.647	-8191	255	
3038.805	1	1	0	0	0.10099	0.14413	0.096173	0.2644	0.016809	0.12493	0.44865	0.15569	0.16215	0.4639	0.078999	0.17278	0.20042	0.11941	0.046733	0.15523	-2.775	-2.4208	-3.4354	-3.0104	-2.7313	-3.4167	-2.7021	-3.0417	-3.1729	-2.5479	-3.4583	-2.9604	-2.5062	-3.3833	-2.5208	-2.8729	216.323	133.515	-74.504	156.229	218.104	125.086	161.753	-113.708	-127.062	19.823	154.513	-135.405	24.243	132.714	-93.637	178.510	0.00034487	0.0022161	0.00066979	945.44	8.0452e-06	7.8002e-06	1539.6	187.99	1.2353e-05	1.8535e-05	472.83	206.18	90.238	23.38	1.466e-05	80.833	0.0029494	0.004012	0.0011541	724.07	4.2046e-05	4.5495e-05	1166.6	148.89	4.4531e-05	4.4259e-05	366.14	161.14	74.072	19.14	4.268e-05	62.941	-133.630	26.294	-110.661	-129.409	7.220	-11.571	-129.825	-123.008	140.688	52.266	-125.248	-119.698	-119.270	-113.339	-31.245	-115.459	-8191	255	
3038.902	1	1	0	0	0.076232	0.39626	0.22886	0.22537	0.058074	0.07093	0.22775	0.05676	0.16285	0.20598	0.19308	0.11125	0.106	0.13986	0.040124	0.069864	-2.9875	-2.5812	-3.2938	-3.0458	-2.4688	-3.55	-2.8354	-2.8104	-3.2771	-2.3042	-3.375	-3.1333	-2.575	-3.4833	-2.7583	-2.9083	33.727	202.183	-59.835	159.197	154.074	-74.233	137.943	-79.808	78.059	-119.465	-63.727	138.234	-88.222	-44.729	-105.775	51.437	0.00045973	0.0010004	0.00053953	951.05	4.3247e-06	7.2895e-06	1522.4	187.43	1.2985e-05	1.8658e-05	477.26	207.68	89.199	23.497	1.8368e-05	82.412	0.0029522	0.0040693	0.0011465	727.61	4.1393e-05	4.5434e-05	1160	148.19	4.2971e-05	4.3802e-05	369.13	161.53	74.272	19.214	4.1346e-05	63.929	-124.425	-136.594	166.721	-129.546	136.346	27.266	-130.062	-124.066	17.970	80.782	-125.586	-119.801	-119.014	-113.067	-17.102	-115.484	-8191	255	
3038.998	1	1	0	0	0.10801	0.23189	0.14567	0.26002	0.28194	0.25877	0.22129	0.31445	0.11289	0.037067	0.1534	0.068258	0.2111	0.16565	0.19883	0.074456	-3.0021	-2.3479	-3	-3.1583	-2.4938	-3.4417	-2.8146	-2.8958	-3.4021	-2.4313	-3.2771	-3.2146	-2.5292	-3.3187	-2.7812	-2.6667	-95.487	56.646	-111.225	161.781	29.630	55.831	168.754	-127.936	-13.494	-79.741	174.180	18.550	79.394	74.161	6.639	204.922	0.00046732	0.00088214	0.00040139	941.97	4.0916e-06	1.2688e-05	1536.8	185.07	3.529e-06	7.722e-06	478.42	208.28	90.244	23.527	1.7126e-05	81.143	0.0028589	0.0040136	0.0010799	724.65	3.9419e-05	4.3236e-05	1162.6	145.97	4.1373e-05	4.2246e-05	369.98	162.97	74.406	19.379	4.1368e-05	63.661	-131.130	28.264	88.702	-129.388	-105.830	177.780	-129.798	-123.499	18.383	10.370	-125.302	-119.475	-118.336	-112.307	-69.650	-115.667	-8191	255	
3039.094	1	1	0	0	0.14123	0.2982	0.1835	0.34235	0.12566	0.061525	0.2669	0.045214	0.064435	0.22176	0.28274	0.17487	0.20455	0.35248	0.14428	0.17617	-2.9896	-2.4729	-3	-3.2208	-2.5229	-3.3563	-3.0167	-2.8792	-3.4604	-2.7271	-3.0354	-3.3625	-2.5854	-3.2938	-2.9958	-2.8	-69.610	74.782	110.644	118.260	157.833	38.356	162.147	142.232	-106.484	-61.836	183.705	175.125	26.796	-94.121	-39.167	-140.863	0.00047154	0.00061945	0.00066589	940.18	4.8592e-06	1.346e-05	1513.5	185.68	1.5393e-06	9.0141e-06	477.36	207.66	89.416	23.131	1.0967e-05	80.602	0.0026739	0.0039225	0.0010428	718.75	3.8442e-05	4.3939e-05	1150.6	146.25	4.1737e-05	4.2569e-05	368.29	161.08	74.323	18.988	4.3249e-05	62.667	-128.827	-9.019	-68.534	-129.282	-129.686	50.909	-130.559	-123.294	13.018	-47.774	-125.341	-119.397	-119.526	-112.949	-60.876	-115.161	-8191	255	
3039.166	1	1	0	0	0.27489	0.23955	0.11742	0.37702	0.074335	0.15015	0.12704	0.24056	0.14713	0.32429	0.24209	0.13407	0.070241	0.46716	0.29639	0.22139	-3.0333	-2.6375	-2.8333	-3.3542	-2.5104	-3.2771	-3.0854	-2.3896	-3.2542	-2.6625	-2.8563	-3.3521	-2.7542	-3.125	-3.1896	-2.6729	-99.811	138.227	20.273	212.942	202.033	159.491	93.480	-104.702	105.949	24.757	182.407	119.704	197.082	215.202	175.459	-96.125	0.00064302	0.0012397	0.00057814	947.51	1.403e-05	1.4402e-05	1533.1	184.92	5.5247e-06	1.72e-05	478.34	207.68	89.014	23.101	8.9926e-06	80.103	0.0028235	0.0039451	0.0010766	723.03	4.0426e-05	4.4931e-05	1160.7	147.61	4.3213e-05	4.3688e-05	368.78	161.85	74.539	19.143	4.4468e-05	62.421	-126.669	26.784	-77.279	-129.535	-36.456	49.049	-129.992	-123.833	26.458	128.551	-125.259	-119.286	-118.991	-112.864	-40.592	-115.403	-8191	255	
3039.286	1	1	0	0	0.16811	0.15153	0.15192	0.08999	0.10381	0.2534	0.13529	0.22527	0.23365	0.20441	0.19169	0.15239	0.17483	0.12629	0.22554	0.1832	-3.1354	-2.6437	-2.7854	-3.3312	-2.4896	-2.9854	-3.0792	-2.475	-3.3771	-2.8375	-2.7354	-3.4354	-2.6562	-2.8833	-3.0833	-2.5417	109.545	36.944	14.003	78.915	59.412	57.286	92.536	83.885	-35.567	-122.190	-138.976	202.340	166.382	213.988	-30.371	77.340	0.00040506	0.00049833	0.00038039	945.64	1.7127e-05	1.2346e-05	1527.6	186.25	8.1026e-06	6.5822e-06	470.86	206.9	89.562	22.99	5.1581e-06	80.359	0.0029676	0.0041765	0.0011201	724.37	4.105e-05	4.5516e-05	1162.9	147.74	4.3073e-05	4.4758e-05	366.97	160.83	74.403	18.965	4.4886e-05	62.705	-139.020	-126.975	-132.143	-129.459	62.519	200.032	-130.042	-123.719	179.768	1.751	-125.599	-119.276	-118.973	-113.968	-0.038	-115.617	-8191	255	
3039.381	1	1	0	0	0.050596	0.21369	0.13942	0.18264	0.10634	0.19304	0.38459	0.27747	0.14909	0.13376	0.37893	0.15053	0.16044	0.50148	0.18743	0.29455	-2.8604	-2.875	-2.5375	-3.3333	-2.7	-2.9458	-3.3875	-2.5333	-3.2458	-2.875	-2.6771	-3.5625	-2.5958	-2.8937	-3.3375	-2.4625	74.801	-19.813	-34.475	35.007	-0.322	22.230	170.131	163.024	-21.035	-126.033	-133.680	157.184	144.456	123.118	111.063	183.944	0.00042847	0.00051538	0.00018677	942.93	9.6001e-06	2.5474e-05	1533.3	186.14	1.9078e-05	1.5207e-05	475.41	207.19	89.93	23.526	9.4268e-06	80.56	0.0029032	0.0040677	0.0011289	720.42	4.085e-05	4.4716e-05	1164.7	148.06	4.2771e-05	4.8605e-05	367.42	161.52	74.888	19.269	4.8773e-05	63.19	-128.270	95.404	31.683	-129.876	-46.227	77.346	-130.115	-123.718	-112.847	175.860	-125.263	-119.440	-118.554	-113.704	35.044	-115.165	-8191	255	
3039.477	1	1	0	0	0.095822	0.2056	0.23002	0.19688	0.052078	0.14335	0.16434	0.077875	0.045846	0.14139	0.32592	0.18044	0.17649	0.25339	0.2304	0.068819	-2.6937	-3.05	-2.4167	-3.4729	-2.8521	-2.7646	-3.4708	-2.6229	-3.0771	-3.2875	-2.5667	-3.475	-2.7146	-2.6688	-3.4437	-2.6896	22.415	-94.056	208.307	-130.818	123.314	79.601	204.558	30.196	-16.375	38.597	207.927	156.208	121.377	176.691	151.450	12.119	0.00042545	0.0019926	0.00031613	950.94	1.4707e-05	7.4543e-06	1518.4	191.73	8.1012e-06	1.3025e-05	474.11	213.42	91.295	23.581	8.769e-06	80.35	0.0030801	0.004431	0.001187	727.29	4.3896e-05	4.7885e-05	1166	152.66	4.489e-05	5.1155e-05	370.13	165.12	76.638	19.54	5.2118e-05	62.931	-113.273	-84.078	-36.996	-129.447	-64.612	149.468	-129.937	-123.446	137.346	63.610	-125.298	-119.282	-119.272	-112.314	-2.771	-115.675	-8191	255	
3039.575	1	1	0	0	0.14313	0.15879	0.042036	0.22891	0.13306	0.34457	0.20886	0.15861	0.06772	0.088829	0.21871	0.15155	0.1174	0.070756	0.20819	0.30565	-2.7146	-3.1792	-2.5125	-3.2583	-2.9437	-2.4417	-3.5208	-2.6625	-3.0729	-3.3021	-2.7354	-3.2729	-3.0271	-2.5563	-3.2833	-2.8229	143.128	-60.101	-39.095	-119.043	101.988	116.073	183.027	-67.766	-1.400	40.491	19.453	108.198	-35.517	-135.033	-11.787	96.115	0.00030441	0.001083	0.00034907	959.61	1.0565e-05	2.2411e-05	1544.6	200.28	7.7124e-06	3.7627e-06	481.24	210.33	91.624	23.439	5.675e-06	78.267	0.0033037	0.00484	0.0013048	734.69	4.8888e-05	5.2027e-05	1178.7	158.83	4.7967e-05	5.4763e-05	371.29	164.71	76.995	19.468	5.0475e-05	61.501	-127.036	-26.869	-38.000	-129.184	-117.564	105.250	-130.044	-123.915	32.420	104.365	-125.882	-119.440	-119.488	-112.985	-18.663	-115.459	-8191	255	
3039.694	1	1	0	0	0.074563	0.1098	0.10417	0.45188	0.14538	0.056623	0.31643	0.13197	0.19995	0.24262	0.30606	0.23481	0.065857	0.12637	0.20433	0.071458	-2.3563	-3.1792	-2.5167	-3.3187	-3.2062	-2.5979	-3.5667	-2.7146	-2.8479	-3.3104	-2.6625	-3.2771	-3.2333	-2.5229	-3.275	-2.8917	5.794	-108.172	-23.113	211.732	88.317	-94.632	119.625	150.832	217.883	-32.180	193.165	216.810	73.426	-84.555	-23.459	119.648	0.00030143	0.0029361	0.00046108	938.45	9.2345e-06	2.7272e-05	1571.6	196.49	2.2881e-05	2.5105e-05	472.84	208.5	92.51	23.335	2.0539e-05	79.472	0.0033946	0.004962	0.001329	725.41	5.114e-05	5.449e-05	1194.1	158.76	4.9573e-05	5.6686e-05	369.73	163.04	77.585	19.382	5.399e-05	62.088	213.850	190.842	197.846	-128.888	68.647	-108.803	-130.309	-122.768	203.852	6.338	-125.309	-119.335	-118.615	-112.364	-5.618	-115.253	-8191	255	
3039.765	1	1	0	0	0.070778	0.11088	0.26631	0.12992	0.095807	0.10037	0.24162	0.14091	0.18265	0.32885	0.2959	0.22396	0.22166	0.08171	0.1127	0.17828	-2.4875	-3.3708	-2.6542	-3.1625	-3.2625	-2.5604	-3.3271	-2.7938	-2.7604	-3.275	-2.6188	-3.1271	-3.2146	-2.4854	-3.2729	-2.8937	149.351	-118.151	-65.342	138.456	187.740	-17.915	158.292	180.404	59.757	3.995	194.234	-125.816	-78.804	-72.850	45.933	192.357	0.00029042	0.0015632	0.00062609	944.45	1.365e-05	1.8919e-05	1595.4	199.93	9.4703e-06	3.5591e-05	483.37	212.87	92.82	23.333	1.9768e-05	79.882	0.0035551	0.0050619	0.0013756	731.33	5.4213e-05	5.4114e-05	1214.8	160.88	5.1391e-05	5.712e-05	375.84	166.24	78.757	19.566	5.4597e-05	62.818	-122.064	160.215	-58.965	-129.165	119.373	39.685	-129.879	-123.418	114.030	215.534	-125.806	-119.130	-119.305	-112.231	58.222	-115.461	-8191	255	
3039.886	1	1	0	0	0.36675	0.22092	0.095157	0.17236	0.044563	0.15343	0.44988	0.16069	0.10374	0.24215	0.20952	0.38763	0.15731	0.066623	0.14364	0.24647	-2.3563	-3.3729	-2.5333	-2.8875	-3.2479	-2.3792	-3.3125	-3.0229	-2.5792	-3.5312	-2.6146	-2.9646	-3.1083	-2.5625	-3.4042	-3.0521	158.946	91.232	59.101	-104.041	16.271	198.094	175.800	-106.562	216.309	21.010	76.999	175.091	-25.940	55.076	-69.846	189.038	0.00044721	0.0018017	0.00023624	946.06	1.4443e-05	1.9629e-05	1614	200.57	6.758e-06	1.5399e-05	484.62	215.17	93.178	23.716	6.4753e-06	80.411	0.0036365	0.0053507	0.0014885	733.36	5.7942e-05	5.8492e-05	1229.3	162.07	5.4438e-05	6.1832e-05	379.36	167.92	79.919	19.877	5.7069e-05	63.505	-121.596	-61.201	-74.864	-129.403	-39.468	-38.029	-130.505	-123.479	-66.230	24.925	-125.300	-119.782	-119.113	-113.562	32.543	-115.023	-8191	255	
3039.982	1	1	0	0	0.33813	0.23204	0.1729	0.093099	0.29102	0.12234	0.09927	0.20339	0.17775	0.25495	0.11171	0.2335	0.29315	0.11433	0.072348	0.20019	-2.1375	-3.1958	-2.5708	-2.8208	-3.275	-2.4979	-3.3063	-2.9688	-2.4813	-3.5021	-2.7625	-2.775	-3.3479	-2.5312	-3.1	-3.2021	-127.789	83.066	188.309	153.878	23.960	-138.485	15.037	172.944	-119.280	-7.348	112.842	193.104	193.122	-119.272	147.239	185.073	0.0003558	0.0035594	0.00054488	954.12	5.4421e-06	1.728e-05	1603.3	204.51	9.4147e-06	2.2273e-05	484.48	215.07	95.775	23.482	9.3442e-06	79.345	0.003772	0.0055048	0.0015703	737.23	5.9373e-05	6.0179e-05	1227.3	163.98	5.7761e-05	6.4046e-05	378.98	168.84	81.522	19.87	5.8676e-05	62.961	-131.091	-48.258	-72.358	-129.200	-138.908	56.463	-129.950	-123.413	-7.823	95.199	-125.304	-119.301	-119.119	-112.248	-41.806	-115.048	-8191	255	
3040.078	1	1	0	0	0.16901	0.22951	0.20325	0.26858	0.12447	0.17694	0.21014	0.23892	0.20695	0.044037	0.075256	0.054091	0.13534	0.11607	0.17764	0.3837	-2.1271	-3.1604	-2.7854	-2.7396	-3.3604	-2.475	-3.1188	-3.3208	-2.3563	-3.3875	-3.0125	-2.7833	-3.4146	-2.7521	-2.8542	-3.275	25.876	64.586	19.678	180.126	217.115	-110.739	156.552	167.552	164.349	26.190	150.315	159.789	-88.757	211.510	210.581	94.451	0.00043716	0.0013217	0.00030761	958.99	1.5119e-05	6.0691e-06	1597.2	205.72	8.7923e-06	2.1072e-05	484.34	214.41	93.927	22.837	1.4379e-05	77.662	0.0037655	0.0056879	0.0015962	741.99	5.9859e-05	6.0524e-05	1227.3	164.76	5.7808e-05	6.1787e-05	379.77	167.14	80.604	19.416	5.7705e-05	61.86	-112.134	-120.184	6.561	-128.655	163.235	-135.462	-129.779	-123.451	149.675	-49.703	-124.953	-119.960	-119.313	-112.600	-29.768	-115.459	-8191	255	
3040.174	1	1	0	0	0.18045	0.098799	0.080951	0.15631	0.079127	0.1411	0.12837	0.15435	0.183	0.13636	0.52285	0.10477	0.29199	0.14456	0.13676	0.082924	-2.0604	-3.2188	-2.8083	-2.6063	-3.2313	-2.8417	-3.0396	-3.3563	-2.5333	-3.2146	-3.0708	-2.6937	-3.3396	-2.85	-2.8	-3.4542	-140.902	109.567	-24.538	-103.385	-17.039	94.430	207.241	77.587	44.048	-74.739	139.666	168.730	168.735	150.218	181.378	195.909	0.00030846	0.0012141	0.00056055	962.38	2.1353e-05	5.5013e-06	1613.1	205.82	1.2643e-06	2.9924e-05	491.53	214.66	93.888	22.823	7.8278e-06	78.005	0.0039213	0.0056988	0.0015837	745.78	6.0151e-05	6.3636e-05	1234.3	165.2	6.0181e-05	6.3283e-05	386.73	167.92	80.779	19.406	5.9016e-05	61.933	-110.111	-75.432	4.175	-129.226	52.730	-133.185	-130.244	-124.037	123.576	-45.883	-125.284	-119.845	-119.954	-112.593	-58.733	-115.819	-8191	255	
3040.295	1	1	0	0	0.096453	0.078699	0.11953	0.21844	0.18999	0.084727	0.18856	0.11137	0.05305	0.19432	0.13374	0.24434	0.17038	0.21302	0.12586	0.17189	-2.375	-3.0979	-2.9	-2.6333	-3.35	-2.7625	-3.0667	-3.3708	-2.5771	-2.9938	-3.1542	-2.7021	-3.3458	-3.0271	-2.7542	-3.4833	146.336	11.592	81.237	127.933	-14.601	125.653	148.852	-40.009	-29.330	23.114	215.638	150.174	183.195	-136.982	186.216	-141.276	9.8126e-05	0.00077773	0.00048912	960.18	1.1186e-05	2.0585e-05	1627.6	207.32	9.8963e-06	1.8837e-05	495.68	213.35	94.134	23.145	1.3967e-05	78.568	0.0039505	0.0057798	0.0016555	747.31	6.1244e-05	6.3576e-05	1244.9	166.15	5.8594e-05	6.2182e-05	389.2	168.74	81.027	19.49	5.8776e-05	62.218	-103.680	99.775	21.699	-128.771	-24.880	-90.794	-130.182	-123.514	-51.601	63.529	-126.104	-120.013	-118.958	-113.043	132.293	-115.816	-8191	255	
3040.389	1	1	0	0	0.30472	0.18784	0.13982	0.21185	0.26345	0.13267	0.439	0.21348	0.1423	0.2956	0.16551	0.024751	0.11152	0.094967	0.13425	0.10193	-2.3479	-2.925	-3.0292	-2.4	-3.3167	-2.9646	-2.8146	-3.2313	-2.5021	-2.9229	-3.35	-2.7167	-3.2333	-3.0438	-2.4396	-3.4417	94.754	71.631	51.167	-88.818	128.948	-5.949	152.520	107.351	-131.116	8.925	190.768	80.550	39.710	-113.006	174.388	210.096	0.00041893	0.0027522	0.00067875	966.58	9.889e-06	2.3703e-06	1613.1	206.26	2.5397e-06	1.7876e-05	501.96	216.52	95.066	23.158	1.0249e-05	79.121	0.0039248	0.0055428	0.0016051	750.16	5.8436e-05	6.429e-05	1237.4	165.77	6.0451e-05	5.9589e-05	393.49	170.71	80.987	19.455	5.8163e-05	62.401	-139.161	-34.318	-39.590	-129.588	-18.783	133.190	-130.400	-123.285	-112.339	8.057	-125.759	-119.897	-119.634	-112.623	203.212	-115.584	-8191	255	
3040.463	1	1	0	0	0.20707	0.16229	0.18496	0.12839	0.1605	0.11098	0.19767	0.13622	0.15281	0.15336	0.2466	0.1526	0.24195	0.22279	0.22878	0.11311	-2.0271	-2.8937	-3.2167	-2.6375	-3.2042	-3.0854	-2.8563	-3.4104	-2.6646	-2.6958	-3.4208	-2.5833	-3.0229	-3.0208	-2.4271	-3.3563	75.254	-25.952	152.533	16.230	-90.033	64.967	176.766	-141.500	115.105	122.484	211.194	121.354	199.173	165.955	147.674	124.346	0.00041437	0.0019151	0.00045145	973.72	5.3125e-06	5.6431e-06	1629.6	208.28	2.1345e-05	1.5304e-05	498.68	214.16	93.347	22.126	2.0753e-05	76.486	0.0039225	0.0056192	0.0015724	750.84	5.6362e-05	6.334e-05	1247.6	166.45	5.8993e-05	5.9675e-05	394	168.42	79.485	18.955	5.8428e-05	60.696	-120.251	210.392	136.000	-129.148	68.285	-103.755	-129.927	-123.863	168.676	-62.569	-124.953	-119.878	-118.879	-113.016	-15.937	-115.415	-8191	255	
3040.582	1	1	0	0	0.21445	0.17243	0.05134	0.12584	0.080512	0.098775	0.16333	0.22976	0.2891	0.10095	0.10421	0.083468	0.048402	0.16751	0.08589	0.054922	-2.3021	-2.8021	-3.1437	-2.6667	-2.9854	-3.1437	-2.6271	-3.3292	-2.7583	-2.6417	-3.3896	-2.6854	-2.9917	-3.3354	-2.4313	-3.3646	48.636	11.807	59.187	198.309	86.444	190.129	154.119	-138.324	126.393	-116.675	195.291	-33.380	-21.845	167.499	-42.741	-26.417	0.00033167	0.0017286	0.00012767	960.95	2.4449e-06	2.4481e-05	1614.1	206.63	8.4322e-06	1.0076e-05	502	213.09	92.399	22.177	1.0184e-05	76.608	0.0039215	0.0054075	0.0015277	745.83	5.5188e-05	6.2487e-05	1228.9	165.72	5.696e-05	6.0278e-05	392.08	167.39	78.94	18.883	5.9166e-05	60.448	-136.867	-65.889	-82.168	-129.030	8.575	-48.020	-130.295	-123.637	83.526	-49.292	-125.404	-119.605	-119.438	-112.931	208.200	-115.308	-8191	255	
3040.678	1	1	0	0	0.20349	0.26187	0.095787	0.18754	0.19482	0.2788	0.22691	0.10687	0.040529	0.089573	0.1458	0.19305	0.17928	0.1264	0.091769	0.11484	-2.6521	-2.5479	-3.3104	-2.6833	-3.0375	-3.1813	-2.825	-3.2208	-2.9333	-2.4875	-3.3833	-2.7687	-2.8271	-3.2562	-2.55	-3.1979	114.550	218.885	-67.979	135.594	195.220	49.834	178.244	63.947	142.276	38.911	129.291	-110.295	201.086	112.487	-3.825	159.046	0.00037741	0.0014874	0.00013185	950.97	1.2063e-05	9.1921e-06	1622.2	207.11	1.4276e-05	1.3955e-05	495.04	213.95	93.736	22.338	1.3386e-05	77.105	0.0038662	0.005314	0.0016335	741.72	5.6246e-05	6.4941e-05	1238.7	165.69	5.9331e-05	6.256e-05	391.1	169.12	80.186	19.114	6.3577e-05	61.004	-122.945	190.188	-54.610	-129.237	20.666	137.210	-130.292	-122.879	-58.387	158.281	-125.195	-120.195	-119.026	-112.500	-2.686	-115.770	-8191	255	
3040.774	1	1	0	0	0.15947	0.074551	0.14225	0.16162	0.09251	0.24198	0.10962	0.24833	0.26851	0.22468	0.12	0.022938	0.1626	0.27146	0.17972	0.19386	-2.6146	-2.3458	-3.3083	-2.7875	-2.8354	-3.475	-2.8792	-3.1458	-3.1917	-2.6	-3.3083	-2.8854	-2.8083	-3.3792	-2.5271	-3.0563	66.180	115.600	47.182	164.629	103.124	-14.944	-109.192	-87.805	145.483	-28.783	187.319	134.515	93.480	-139.652	41.920	211.466	0.00063503	0.00028224	0.00049201	967.83	7.8277e-06	1.112e-05	1632.2	205.04	8.4854e-06	6.9564e-06	496.96	216.64	96.125	22.768	8.2037e-06	77.853	0.0042441	0.0058037	0.0016937	751.05	6.0106e-05	6.8282e-05	1255.7	166.49	6.2996e-05	6.7831e-05	391.71	171.06	83.131	19.488	6.5812e-05	61.771	217.785	104.953	-124.156	-129.330	-50.044	-30.022	-130.202	-123.577	75.523	9.265	-125.322	-120.189	-119.347	-112.383	-1.736	-115.504	-8191	255	
3040.870	1	1	0	0	0.092542	0.13098	0.070667	0.15011	0.077416	0.027941	0.26141	0.13636	0.13084	0.063278	0.080361	0.20393	0.25716	0.2128	0.1246	0.10177	-2.7146	-2.1292	-3.225	-3.0187	-2.6562	-3.2854	-2.7021	-2.8271	-3.3	-2.475	-3.2833	-2.9938	-2.6896	-3.4521	-2.6021	-3.1146	-70.874	171.264	-132.800	-101.046	135.775	101.284	177.377	-51.528	-4.459	161.551	192.335	-134.698	23.842	-88.039	-26.337	110.534	0.00040979	0.00040728	0.00045481	971.2	1.2334e-05	1.4266e-05	1600.3	209.14	8.1896e-06	1.7901e-05	493.34	217.2	97.608	22.968	1.0315e-05	78.13	0.0043491	0.0060488	0.001711	757.09	6.0628e-05	6.7675e-05	1233.4	167.86	6.0931e-05	6.6583e-05	388.06	170.83	82.692	19.565	6.373e-05	62.125	215.379	17.159	-22.643	-129.231	155.802	-111.753	-129.804	-123.911	-42.044	166.294	-125.266	-119.920	-118.960	-112.888	-69.156	-114.827	-8191	255	
3040.991	1	1	0	0	0.18181	0.078374	0.12554	0.12428	0.14908	0.073215	0.036919	0.25381	0.29398	0.075634	0.086216	0.049515	0.17847	0.18074	0.36459	0.23728	-2.9938	-2.4417	-3.025	-2.9167	-2.3896	-3.5521	-2.8458	-2.9437	-3.3854	-2.6208	-3.1437	-3.1854	-2.6813	-3.275	-2.7333	-2.8271	90.592	-80.121	-50.424	-34.866	-112.523	-139.947	193.809	79.173	45.159	-20.192	-135.434	115.233	-74.435	140.357	-39.551	159.071	0.00029927	0.0011988	0.00042185	960.39	7.196e-06	3.1998e-06	1600	206.66	1.0064e-05	8.2074e-06	493.52	214.43	94.934	22.618	1.9467e-06	77.098	0.0042519	0.0058475	0.0016604	749.97	5.9805e-05	6.5986e-05	1229.8	165.95	6.2714e-05	6.5053e-05	385.58	169.18	81.253	19.371	6.1155e-05	60.859	213.850	-97.836	14.661	-129.205	-112.262	21.019	-130.242	-123.401	-93.318	-43.076	-125.515	-119.698	-118.497	-113.192	-85.211	-114.671	-8191	255	
3041.062	1	1	0	0	0.18602	0.25835	0.18168	0.32369	0.19733	0.12244	0.33574	0.20041	0.11907	0.22962	0.083048	0.17037	0.14605	0.16316	0.073038	0.12751	-2.9479	-2.4021	-3.1542	-3.2167	-2.4667	-3.425	-3.025	-2.7083	-3.2792	-2.5563	-3.1042	-3.2062	-2.4042	-3.3083	-2.7208	-2.725	34.806	-71.253	73.072	177.199	-46.160	63.749	174.226	-118.838	-32.902	-52.724	-125.272	124.163	-61.408	-114.501	145.616	82.667	0.0001145	0.0021113	0.00042136	959.24	1.0814e-05	3.5075e-05	1580.1	203.96	9.3316e-06	1.4887e-05	488.57	213.52	93.858	22.355	1.7184e-05	76.806	0.0041156	0.0057787	0.0015806	745.95	5.9933e-05	6.3518e-05	1215.4	163.67	6.109e-05	6.5449e-05	382.79	167.58	80.693	19.157	6.2263e-05	60.884	-71.155	167.389	105.608	-129.359	-55.025	35.069	-129.935	-123.628	-7.788	20.061	-125.078	-119.654	-119.247	-112.423	-9.360	-114.997	-8191	255	
3041.159	1	1	0	0	0.040245	0.073577	0.12451	0.24814	0.1426	0.30366	0.25064	0.061948	0.17646	0.13023	0.1117	0.17732	0.12972	0.019366	0.19933	0.11469	-3.0292	-2.6458	-2.9604	-3.1188	-2.5771	-3.2521	-3.0938	-2.3812	-3.4333	-2.8271	-3	-3.3125	-2.4375	-3.3396	-2.9208	-2.5875	29.553	47.784	217.935	200.054	98.852	-48.804	81.652	111.857	-75.743	108.433	184.785	165.352	171.760	185.370	127.229	123.317	0.00052999	0.0016878	0.00049107	956.34	2.2374e-05	1.2129e-05	1595.5	205.41	7.3077e-06	2.7061e-05	485.12	214.82	96.002	22.973	5.4139e-06	78.404	0.0040938	0.0058613	0.0015855	748.15	6.1385e-05	6.3276e-05	1222.5	164.85	6.2955e-05	6.7564e-05	380.07	168.62	81.811	19.442	6.2428e-05	61.663	-128.217	108.655	-10.068	-128.922	213.699	2.539	-129.834	-123.910	-6.632	45.810	-124.863	-119.568	-119.434	-112.986	69.788	-114.929	-8191	255	
3041.255	1	1	0	0	0.058855	0.40395	0.049751	0.20228	0.27672	0.16602	0.18083	0.22373	0.10185	0.31219	0.11701	0.16929	0.21534	0.074951	0.15215	0.069289	-3.0167	-2.65	-2.8083	-3.3104	-2.4583	-3.2062	-3.1917	-2.6917	-3.3812	-2.6813	-2.7542	-3.3958	-2.4146	-3.1333	-3.0542	-2.5833	192.015	-80.987	47.598	138.714	213.714	50.687	146.454	-101.667	194.033	70.235	92.199	216.982	-94.579	180.535	125.467	80.366	0.00030749	0.00041101	0.00046773	966.05	1.9861e-05	1.3021e-05	1611.7	202.05	1.419e-05	2.066e-05	493.5	213.92	92.946	22.378	1.2192e-05	77.994	0.0040857	0.005771	0.0015401	748.34	5.9507e-05	6.017e-05	1232.9	162.27	5.8837e-05	6.225e-05	386.89	168.13	79.953	19.057	5.9155e-05	61.632	-123.240	165.768	-82.266	-129.405	-103.077	-89.367	-130.262	-123.430	80.443	-3.541	-125.358	-119.420	-119.459	-112.443	92.438	-115.144	-8191	255	
3041.374	1	1	0	0	0.17101	0.22188	0.12433	0.35983	0.22678	0.16806	0.25811	0.27273	0.11207	0.081003	0.13844	0.15168	0.18644	0.1702	0.044455	0.17375	-2.8854	-2.9646	-2.8792	-3.4771	-2.7687	-2.9771	-3.3312	-2.6688	-3.3625	-2.8458	-2.7938	-3.3688	-2.5479	-2.9104	-3.2625	-2.5771	132.543	123.458	151.246	133.692	-64.984	-130.857	195.562	203.124	-42.761	145.335	-91.463	89.414	-55.244	90.364	202.916	-82.727	0.00033267	0.0016216	0.00011791	960.97	8.7976e-06	7.4551e-06	1608.2	204.11	4.1606e-06	1.4044e-05	495.82	217.11	92.864	22.718	2.6035e-05	78.049	0.0039473	0.005758	0.0015472	745.99	5.998e-05	5.9868e-05	1237.1	163.67	5.8219e-05	6.2735e-05	389.37	169.15	79.925	19.292	6.2656e-05	61.986	-89.888	-33.282	-18.315	-129.176	-62.662	30.188	-129.918	-123.645	172.692	-42.148	-125.200	-119.978	-119.323	-112.929	50.946	-115.270	-8191	255	
3041.470	1	1	0	0	0.17111	0.23772	0.25976	0.26369	0.23934	0.21918	0.36093	0.1169	0.18251	0.19844	0.26037	0.099568	0.2752	0.036245	0.080013	0.19223	-2.975	-2.8521	-2.6063	-3.45	-2.7708	-2.8875	-3.4896	-2.5958	-3.1208	-3.1229	-2.6125	-3.3563	-2.6521	-2.9437	-3.4271	-2.6937	-41.890	-4.449	-6.562	155.184	197.894	-48.623	99.082	-41.679	101.917	97.990	157.408	-65.064	129.910	142.928	192.845	62.827	0.00034962	0.0017701	0.00027083	957.25	7.7029e-06	1.8895e-05	1624.9	207.16	8.7554e-06	4.2649e-06	488.87	213.53	94.21	22.222	2.0149e-05	76.743	0.003906	0.0057839	0.0016192	744.61	6.1725e-05	6.1321e-05	1241.6	165.24	5.9468e-05	6.5338e-05	384.86	168.59	81.033	18.999	6.2685e-05	61.036	-122.542	167.814	-125.057	-129.266	-63.020	22.060	-130.240	-123.703	92.652	144.614	-125.017	-119.859	-118.088	-113.140	-13.695	-115.561	-8191	255	
3041.566	1	1	0	0	0.1668	0.12734	0.28163	0.15021	0.14525	0.13261	0.30699	0.1884	0.1511	0.26459	0.28487	0.327	0.1047	0.1207	0.16559	0.18921	-2.7021	-3.0208	-2.3604	-3.3354	-2.8021	-2.825	-3.4896	-2.4729	-3.1417	-3.1125	-2.725	-3.2979	-2.8063	-2.7062	-3.3229	-2.6688	102.384	53.550	-139.081	178.703	212.763	-79.428	118.162	55.430	-47.060	-117.024	205.254	200.444	183.376	-128.381	21.821	184.791	0.00027982	0.00087405	0.00021162	963.03	2.5678e-05	2.446e-05	1599.7	202.31	1.0248e-05	1.0969e-05	489.38	210.19	93.343	22.381	1.6098e-05	76.8	0.0038888	0.0059907	0.001594	746.02	5.977e-05	6.1797e-05	1227.6	162.22	5.8114e-05	6.229e-05	382.99	166.2	80.007	18.986	6.2724e-05	60.612	-106.583	218.047	63.591	-129.038	-30.810	-62.729	-129.846	-123.460	61.939	33.965	-125.343	-119.577	-119.320	-111.997	124.230	-115.412	-8191	255	
3041.662	1	1	0	0	0.094378	0.24166	0.11148	0.20464	0.071386	0.22929	0.21923	0.092114	0.23649	0.121	0.25058	0.14904	0.31042	0.18159	0.20874	0.25115	-2.6708	-3.2292	-2.5625	-3.3375	-2.8625	-2.6188	-3.3812	-2.6042	-2.7542	-3.2667	-2.5187	-3.3375	-2.9833	-2.525	-3.4688	-2.8458	26.182	13.542	205.775	-126.037	169.857	-62.236	-139.746	-73.735	130.208	-10.417	205.290	-125.571	59.198	201.473	-112.793	208.619	0.00046664	0.0021578	0.0004801	957.35	4.2737e-06	2.6806e-05	1595	202.31	1.841e-06	1.0552e-05	480.92	209.7	90.565	22.192	1.3214e-05	76.803	0.003784	0.005765	0.0015718	743.72	6.0089e-05	6.2498e-05	1221.8	162.8	5.94e-05	6.5725e-05	379.16	165.66	79.369	19.023	6.286e-05	60.932	-132.315	-32.758	-26.837	-128.957	-7.656	-24.129	-130.314	-123.074	-105.063	73.867	-125.598	-119.344	-118.756	-112.613	16.121	-115.175	-8191	255	
3041.758	1	1	0	0	0.25258	0.14438	0.087755	0.1364	0.24132	0.14242	0.16645	0.1387	0.25996	0.24019	0.16263	0.25723	0.059762	0.14984	0.33086	0.066154	-2.4479	-3.2896	-2.5187	-3.2646	-2.9708	-2.5438	-3.5271	-2.8167	-2.7313	-3.4083	-2.6458	-3.2292	-2.9375	-2.4167	-3.2854	-2.9292	110.608	-102.296	-36.501	152.239	-16.216	-52.160	-118.666	16.605	-56.258	-27.655	48.347	-132.413	127.951	111.376	-136.025	80.160	0.00025324	0.0015836	0.0003734	944.24	1.8203e-05	1.9778e-05	1588.3	201.98	8.4258e-06	1.3317e-05	474.41	212.05	92.449	22.729	9.3185e-06	76.788	0.0039666	0.0061079	0.0016635	733.86	6.1276e-05	6.5774e-05	1223.2	163.33	6.1583e-05	6.8746e-05	375.06	165.61	80.575	19.233	6.3408e-05	61.058	-100.513	180.196	10.385	-128.823	46.299	-108.321	-130.266	-123.537	-57.597	-50.218	-124.964	-119.322	-119.541	-112.438	17.354	-115.403	-8191	255	
3041.854	1	1	0	0	0.27644	0.13507	0.15093	0.2176	0.040311	0.16141	0.1556	0.073372	0.089844	0.084329	0.097984	0.093828	0.38747	0.14451	0.33923	0.11229	-2.3229	-3.5125	-2.5854	-3.1271	-3.2646	-2.6312	-3.4229	-2.9458	-2.8937	-3.4292	-2.5917	-3.0812	-3.1958	-2.5667	-3.4125	-2.8896	123.094	38.033	21.378	99.585	-48.725	154.445	134.896	159.840	130.867	212.020	138.030	170.798	149.125	-2.027	106.564	114.721	0.00036759	0.00031258	0.00024252	929.13	5.2958e-06	1.0078e-05	1588.7	201.3	1.7994e-06	1.0888e-05	479.76	209.86	93.398	23.076	1.0189e-05	77.244	0.0040307	0.0060654	0.0016653	728.51	6.2012e-05	6.6678e-05	1219.6	163.66	6.0796e-05	6.6322e-05	377.24	166.06	81.493	19.708	6.2516e-05	61.379	-136.276	-79.778	-21.377	-128.692	-2.286	-17.104	-129.784	-123.820	-2.512	37.741	-124.418	-119.155	-119.226	-112.707	-9.009	-114.986	-8191	255	
3041.975	1	1	0	0	0.33123	0.066517	0.1484	0.12036	0.30682	0.15643	0.14591	0.017994	0.26113	0.15899	0.37542	0.42682	0.24045	0.04797	0.17985	0.10044	-2.225	-3.3917	-2.7854	-2.9854	-3.4542	-2.5542	-3.5042	-3.1125	-2.7125	-3.2687	-2.6979	-2.9146	-3.3312	-2.4562	-3.1188	-3.1875	-63.715	45.017	-131.354	137.694	126.633	-137.004	98.019	181.501	-100.662	63.090	-110.631	134.504	-101.924	117.523	171.997	129.968	0.00039521	0.0039625	0.00069191	949.42	1.8864e-05	1.503e-05	1588.4	202.06	2.2591e-05	7.8693e-06	471.87	209.61	91.509	22.497	7.539e-06	75.149	0.0041738	0.0059983	0.0016326	735.62	6.0902e-05	6.4375e-05	1219.3	162.87	5.8953e-05	6.3632e-05	372.17	164.43	79.668	19.26	5.7135e-05	60.004	-134.000	-81.098	25.717	-129.314	40.818	55.223	-129.839	-122.972	111.813	196.102	-125.304	-119.569	-118.294	-112.561	69.692	-115.311	-8191	255	
3042.071	1	1	0	0	0.31489	0.19475	0.12752	0.12018	0.19761	0.11263	0.25508	0.0727	0.39682	0.10904	0.22297	0.22949	0.30877	0.16679	0.20719	0.082659	-2.0229	-3.2542	-2.8125	-2.6479	-3.3271	-2.6417	-3.3792	-3.2562	-2.6521	-3.2938	-2.8812	-2.9229	-3.6188	-2.5271	-3.1104	-3.2792	152.468	103.776	51.028	-32.194	183.181	150.094	113.892	59.674	54.158	15.168	164.840	-78.551	101.569	99.646	-8.794	-123.945	0.00036142	0.00084356	0.00016141	952.01	2.2094e-06	1.9146e-05	1554.6	196.15	9.917e-06	8.6495e-06	476.62	205.5	91.776	22.444	5.9923e-06	76.757	0.0038146	0.0052928	0.0015217	735.25	5.6089e-05	5.8922e-05	1184.5	156.47	5.0883e-05	5.5631e-05	373.69	161.6	77.829	18.847	5.0853e-05	60.51	-116.642	-101.171	-14.146	-128.750	-88.967	144.249	-130.086	-123.534	-29.786	-38.973	-125.552	-119.507	-118.614	-112.737	77.615	-114.957	-8191	255	
3042.167	1	1	0	0	0.22401	0.032619	0.15538	0.13489	0.15869	0.26105	0.21535	0.065263	0.41361	0.14384	0.19609	0.50214	0.085289	0.19622	0.10763	0.14803	-2.1396	-3.3271	-2.8771	-2.6458	-3.5208	-2.6792	-3.0792	-3.4021	-2.6354	-3.1646	-3.0812	-2.7958	-3.4417	-2.7188	-2.9	-3.4521	148.667	-128.766	88.946	112.927	8.126	145.465	194.495	181.475	193.572	-137.597	-22.927	205.424	165.687	70.932	38.782	47.500	0.000305	0.0011871	0.00022842	957.91	1.8417e-05	1.3779e-05	1532.8	193.65	1.9596e-06	1.2914e-05	482.85	208.91	92.968	22.648	1.4554e-05	77.646	0.0035056	0.0048235	0.001365	737.63	4.9662e-05	5.3233e-05	1171.1	154.42	4.9826e-05	5.1801e-05	374.35	161.57	77.342	18.992	4.7873e-05	60.967	217.273	130.539	-22.048	-129.336	78.859	9.825	-129.585	-123.270	88.910	-20.394	-125.993	-119.540	-118.120	-112.314	-2.501	-115.274	-8191	255	
3042.288	1	1	0	0	0.24999	0.19679	0.26136	0.27766	0.077701	0.24998	0.14513	0.29725	0.12404	0.077708	0.24506	0.20631	0.1426	0.031804	0.32116	0.20728	-2.1521	-3.2438	-3.0812	-2.5854	-3.5479	-2.8708	-2.8521	-3.4938	-2.3563	-3.1792	-3.2271	-2.5708	-3.3667	-2.8042	-2.8917	-3.4104	205.850	204.689	-63.336	104.963	106.794	-35.729	46.809	116.595	-136.953	161.704	191.828	194.029	151.695	-130.528	2.515	198.084	0.00038711	0.002395	0.00010262	967.48	3.6135e-06	2.7122e-05	1552.4	195.06	4.1603e-06	1.5419e-05	495.36	209.49	93.219	22.896	4.3438e-06	78.949	0.0034766	0.0045668	0.0013362	741	4.9194e-05	5.3124e-05	1186.9	155.51	5.0586e-05	5.1614e-05	382.01	164.08	78.068	19.219	5.1362e-05	62.184	212.328	-25.471	47.608	-129.263	78.381	17.680	-130.190	-123.542	-80.298	-66.856	-125.709	-119.361	-118.429	-112.668	-36.312	-115.127	-8191	255	
3042.358	1	1	0	0	0.20532	0.23834	0.35952	0.32016	0.092811	0.034627	0.079241	0.097831	0.20435	0.19147	0.31926	0.38736	0.089612	0.20964	0.13879	0.31838	-2.2729	-3.0917	-2.9771	-2.5896	-3.2625	-2.9479	-2.9458	-3.4083	-2.5875	-3.1917	-3.2583	-2.6312	-3.2958	-2.7333	-2.6146	-3.4396	-0.169	82.809	140.637	200.885	152.661	35.407	45.275	133.789	122.396	190.911	140.879	140.400	20.716	112.951	24.576	206.082	0.0003994	0.00080285	0.00016267	952.43	1.7995e-05	2.0618e-05	1560.9	199.22	1.9531e-05	2.5971e-05	491.04	213.03	93.54	23.203	1.444e-05	79.636	0.0035777	0.004671	0.0013834	734.03	5.1952e-05	5.3999e-05	1192.9	157.82	5.2407e-05	5.321e-05	383.52	166.51	78.953	19.37	5.1748e-05	62.726	-131.947	215.429	-36.378	-129.582	56.751	-59.837	-129.705	-123.911	38.705	60.145	-125.761	-119.814	-118.233	-113.251	-24.216	-115.033	-8191	255	
3042.454	1	1	0	0	0.22438	0.39303	0.16217	0.031263	0.071186	0.19773	0.15025	0.074633	0.11845	0.13018	0.16618	0.21727	0.041526	0.050882	0.057306	0.12142	-2.2438	-3.1083	-3.2833	-2.5333	-3.2562	-2.95	-2.8208	-3.4125	-2.825	-2.9854	-3.4688	-2.625	-3.1312	-3.2021	-2.6521	-3.3125	92.005	-123.448	-60.556	165.162	-3.424	217.902	149.229	160.937	-20.727	28.766	181.648	94.681	12.824	63.659	47.932	166.897	0.0003479	0.00075302	0.00039563	957.25	1.4202e-05	1.2866e-05	1566.3	195.11	4.7847e-06	1.9418e-05	484.64	211.08	90.615	23.026	4.5027e-06	77.488	0.0035837	0.0047637	0.0013817	736.86	4.9798e-05	5.4995e-05	1191.3	156.65	5.3115e-05	5.5228e-05	377.45	164.24	77.205	19.108	5.3532e-05	61.019	-116.533	-92.360	-50.805	-129.201	-57.325	192.654	-130.152	-123.769	176.727	-37.183	-125.464	-119.374	-118.555	-112.030	78.174	-115.395	-8191	255	
3042.550	1	1	0	0	0.018619	0.18146	0.0897	0.23438	0.053303	0.15405	0.18851	0.05778	0.26218	0.10145	0.050303	0.24792	0.12796	0.17293	0.30463	0.10533	-2.3417	-2.9188	-3.4292	-2.6396	-3.0354	-3.1229	-2.6646	-3.3812	-2.8417	-2.7062	-3.2708	-2.6083	-3.1042	-3.1146	-2.4792	-3.4437	3.142	124.460	54.188	162.259	3.686	105.434	182.378	186.650	-114.215	-69.248	84.989	-74.603	179.197	46.661	201.272	109.403	0.00040708	0.0027455	0.00066933	958.41	6.6408e-06	6.2562e-06	1549.7	200.28	6.4053e-06	7.901e-06	474.7	210.5	93.97	22.964	7.3541e-06	77.621	0.0035181	0.0048289	0.0014526	737.99	5.1735e-05	5.6277e-05	1192.5	160.52	5.5058e-05	5.7025e-05	374.58	165.21	79.234	19.418	5.9514e-05	61.464	-122.235	119.966	-8.101	-129.061	-61.205	-17.192	-129.699	-123.619	31.129	30.076	-125.073	-119.474	-118.522	-111.764	180.415	-115.486	-8191	255	
3042.671	1	1	0	0	0.17007	0.062658	0.019449	0.25489	0.038273	0.16366	0.41213	0.16041	0.23177	0.12385	0.35434	0.44644	0.070875	0.17172	0.10309	0.23068	-2.5062	-2.6	-3.4021	-2.55	-2.9917	-3.1542	-2.5625	-3.2479	-2.9917	-2.5187	-3.625	-2.6896	-2.8438	-3.3229	-2.3937	-3.275	146.578	-130.781	0.306	194.994	49.469	-128.048	163.150	-98.116	135.242	-5.054	103.920	160.456	144.745	123.776	-82.882	166.127	0.00030538	0.00028583	0.00019864	952.45	5.3478e-06	1.0348e-05	1601.8	208.26	6.0827e-06	1.6164e-05	487.48	213.61	95.53	22.346	9.6138e-06	78.313	0.0038417	0.0055056	0.0015866	737.83	5.5698e-05	6.2614e-05	1229.2	166.41	6.0359e-05	6.2259e-05	382.45	168.79	81.311	19.502	6.311e-05	62.327	-123.379	-73.816	-124.396	-129.279	175.796	81.509	-129.890	-123.139	11.552	-125.587	-124.587	-119.629	-118.084	-113.059	79.382	-114.794	-8191	255	
3042.767	1	1	0	0	0.19504	0.10225	0.1204	0.38571	0.11558	0.079345	0.18275	0.21834	0.15853	0.23927	0.17733	0.094909	0.19478	0.08584	0.21533	0.22679	-2.6792	-2.5458	-3.2604	-2.7208	-2.8812	-3.1937	-2.5146	-3.1229	-3.1333	-2.475	-3.3875	-2.9854	-2.7833	-3.2271	-2.4875	-3.2458	-4.078	2.866	-14.824	156.789	94.829	-134.993	113.348	179.223	-140.037	-132.551	180.781	127.869	-133.093	-46.166	-25.962	214.872	0.00057551	0.00016263	0.00044948	947.9	1.1601e-05	7.2653e-06	1657.5	209.09	1.3432e-05	4.694e-06	498.73	219.19	94.703	23.128	5.9235e-06	78.966	0.0040932	0.0060448	0.0016711	741.1	6.0536e-05	6.7354e-05	1266.2	167.55	6.357e-05	6.7318e-05	391.81	172.59	82.482	19.78	6.62e-05	62.955	-122.227	53.331	16.571	-128.937	-15.657	82.506	-129.453	-122.989	21.401	-13.605	-125.192	-119.339	-118.927	-112.784	217.365	-115.214	-8191	255	
3042.863	1	1	0	0	0.19756	0.10272	0.16276	0.26318	0.084813	0.042196	0.18164	0.19036	0.12676	0.026698	0.14987	0.26027	0.14062	0.058701	0.044516	0.46344	-2.7854	-2.5438	-3.4604	-2.8312	-2.6688	-3.3208	-2.725	-3.1729	-3.1083	-2.5375	-3.3229	-2.9333	-2.6542	-3.4083	-2.5708	-3.0146	126.532	-127.302	13.617	61.101	130.441	24.932	167.808	181.303	176.375	-83.127	119.947	184.931	176.931	174.773	127.333	151.328	0.00039638	0.001923	0.00074826	955.27	7.8509e-06	5.4741e-06	1682.4	211.43	9.5733e-06	2.8015e-05	507.04	226.85	97.914	23.673	1.1756e-05	79.747	0.0043963	0.0063992	0.0017216	747.84	6.567e-05	7.213e-05	1293.6	169.93	6.8709e-05	7.3345e-05	401.44	177.4	85.102	20.424	7.2957e-05	63.449	-106.971	-23.415	58.528	-128.811	212.518	75.804	-130.381	-124.253	-56.076	166.096	-124.872	-119.889	-119.500	-112.605	-72.780	-115.089	-8191	255	
3042.935	1	1	0	0	0.36827	0.19547	0.039855	0.10804	0.36885	0.24471	0.093582	0.10474	0.19714	0.19737	0.20887	0.33352	0.16162	0.31009	0.45574	0.15088	-2.8708	-2.4729	-3.1208	-3.0667	-2.5333	-3.4	-2.6562	-2.6604	-3.1937	-2.55	-3.1896	-2.8917	-2.4792	-3.3271	-2.6542	-2.8312	90.091	89.063	120.657	-56.988	-23.405	85.353	183.871	131.798	-15.121	-13.955	165.535	168.609	78.526	-94.862	84.890	165.624	0.00028971	0.0011513	0.00041897	979.38	4.8134e-06	3.7647e-05	1692.2	212.26	1.181e-05	1.0245e-05	509.97	223.49	98.153	23.599	3.6813e-06	78.803	0.0046197	0.0069038	0.0017716	762.85	6.7661e-05	7.4052e-05	1306	172.03	7.0103e-05	7.6576e-05	403.25	176.97	86.119	20.294	7.4001e-05	62.402	-118.644	188.545	-7.010	-128.898	59.753	-3.394	-130.199	-123.663	8.468	-10.525	-124.810	-119.720	-119.477	-112.034	-49.183	-115.168	-8191	255	
3043.055	1	1	0	0	0.19744	0.23007	0.07432	0.25723	0.10057	0.15191	0.14438	0.22783	0.10999	0.17557	0.10536	0.13772	0.20291	0.1449	0.2783	0.30499	-3.0104	-2.475	-2.9292	-3.1354	-2.4125	-3.2104	-2.9604	-2.7729	-3.2375	-2.5646	-3.1042	-3.0833	-2.5417	-3.3104	-2.7021	-2.6521	-5.248	34.224	-58.407	179.427	-35.245	81.643	162.679	-49.224	-75.434	168.307	118.444	-31.554	-101.661	167.227	-8.358	106.507	0.00027356	0.0011243	0.00029761	965.12	5.0759e-06	2.8459e-06	1700.1	211.47	8.799e-06	1.6765e-05	507.44	221.49	96.629	23.416	1.5422e-05	77.786	0.0048072	0.007156	0.0017488	755.22	7.0488e-05	7.4515e-05	1305.2	171.97	7.1368e-05	7.6538e-05	401.35	175.82	86.139	20.413	7.3505e-05	62.823	-91.065	-109.811	47.264	-128.797	-26.728	128.057	-130.103	-123.303	76.093	-29.765	-124.927	-119.819	-119.118	-112.918	167.762	-115.121	-8191	255	
3043.151	1	1	0	0	0.17471	0.29472	0.091637	0.25054	0.28334	0.047958	0.11754	0.18855	0.089164	0.27784	0.17565	0.12911	0.22631	0.030773	0.17199	0.13457	-2.8917	-2.5187	-3.0083	-3.3229	-2.4875	-3.2146	-2.8812	-2.675	-3.3729	-2.7188	-3.1375	-3.2896	-2.3875	-3.3354	-2.9104	-2.6708	68.005	35.847	91.226	173.960	-123.803	7.653	113.909	117.084	-72.305	-20.695	111.274	2.633	-77.262	86.586	-130.489	177.764	0.00052183	0.0027011	0.00048156	961.96	4.715e-06	1.4038e-05	1686.7	212.59	1.2511e-05	2.7692e-05	506.01	225.86	99.54	23.778	8.2686e-07	78.427	0.0047968	0.0071425	0.00183	751.24	7.2169e-05	7.5432e-05	1300	172.63	6.9837e-05	7.6786e-05	401.3	178.54	86.847	20.367	7.133e-05	62.552	-121.749	-122.596	-75.342	-128.913	-109.403	-5.043	-130.520	-123.409	80.883	37.199	-124.930	-119.395	-119.060	-112.194	-102.866	-115.251	-8191	255	
3043.248	1	1	0	0	0.22887	0.089985	0.032422	0.11263	0.25784	0.22115	0.21985	0.4435	0.046391	0.12143	0.13841	0.10548	0.13044	0.13307	0.031179	0.25866	-3.1146	-2.3812	-2.9292	-3.4708	-2.4792	-3.1208	-3.225	-2.7729	-3.3771	-2.6542	-2.8896	-3.4917	-2.4229	-3.1042	-2.8542	-2.7042	5.349	-45.130	97.901	25.511	-8.725	-78.054	124.360	-118.463	128.102	161.904	185.699	95.570	-106.395	198.190	-139.026	122.359	0.00024719	0.0011797	0.00059254	956.33	1.4874e-05	2.1141e-05	1698.6	214.64	5.9139e-06	9.7764e-06	509.51	225.1	99.796	23.803	1.174e-05	79.285	0.0045666	0.0068436	0.0017929	749.55	6.9557e-05	7.1618e-05	1301.9	172.84	6.6378e-05	7.44e-05	402.57	178.02	86.765	20.332	7.0569e-05	63.245	-102.124	-85.025	-43.473	-129.002	-106.908	44.769	-130.262	-122.989	-30.893	178.998	-124.679	-119.769	-119.493	-112.656	90.368	-115.050	-8191	255	
3043.368	1	1	0	0	0.23403	0.060844	0.19932	0.036016	0.08615	0.051198	0.13276	0.094189	0.04877	0.040668	0.027505	0.18236	0.1782	0.22981	0.14893	0.078389	-2.9104	-2.8375	-2.5938	-3.5625	-2.4625	-3.275	-3.4062	-2.5771	-3.4646	-2.7812	-2.5917	-3.55	-2.6958	-3.1292	-3.2146	-2.5896	150.058	-24.915	-96.239	75.711	-48.955	-78.404	173.794	183.519	170.062	124.520	-67.690	153.589	195.116	99.284	72.152	211.117	0.0002029	0.00096198	0.00035009	969.28	1.4709e-05	1.4289e-05	1695.2	212.96	1.4314e-05	2.0217e-05	516.79	224.05	100.76	24.052	1.0707e-05	79.845	0.0045793	0.0065488	0.0017568	758.13	6.9201e-05	6.8774e-05	1298.9	174.45	6.4993e-05	7.1722e-05	404.7	177.39	87.076	20.456	7.1003e-05	63.555	-95.623	4.362	0.459	-129.109	21.223	-43.362	-129.926	-123.464	19.962	9.535	-124.750	-120.143	-119.030	-112.535	91.209	-114.925	-8191	255	
3043.463	1	1	0	0	0.12509	0.32624	0.07321	0.17213	0.15929	0.16577	0.22306	0.22811	0.19874	0.074653	0.17122	0.12222	0.14132	0.33743	0.25065	0.41803	-3.0833	-2.8937	-2.7687	-3.4437	-2.4458	-3.0646	-3.5396	-2.5604	-3.2167	-2.9417	-2.6646	-3.6042	-2.6521	-2.8396	-3.1771	-2.6083	105.109	-63.069	35.411	216.859	52.114	-71.033	158.456	208.097	-37.398	45.190	192.937	89.978	106.249	152.580	73.127	146.200	0.0004871	0.0016946	0.00040497	961.32	1.4117e-05	1.0877e-05	1707.7	214.56	2.6449e-05	2.9403e-05	513.34	223.17	99.464	23.887	2.4752e-05	78.666	0.0044808	0.0065122	0.0018351	755.25	6.9883e-05	7.0601e-05	1307.4	174.52	6.5729e-05	7.385e-05	404.28	175.86	86.372	20.179	6.9511e-05	62.674	-126.532	-20.385	-50.655	-129.130	169.200	-21.850	-130.047	-123.595	20.444	128.470	-125.787	-120.016	-119.452	-112.203	-80.217	-115.282	-8191	255	
3043.559	1	1	0	0	0.25432	0.18386	0.086362	0.21316	0.12389	0.12588	0.15168	0.12833	0.24836	0.16613	0.50563	0.13711	0.097221	0.14961	0.19461	0.2582	-3.025	-3.0354	-2.4708	-3.3438	-2.8229	-2.9833	-3.4125	-2.6063	-3.1771	-3.0604	-2.4708	-3.3833	-2.6562	-2.5896	-3.3521	-2.6333	71.544	196.016	-73.055	194.010	75.114	184.113	102.638	-125.231	-65.294	83.332	184.395	173.024	-36.335	133.829	163.524	141.450	0.00024418	0.0022138	0.00050392	984.81	2.6261e-05	9.1471e-06	1665	212.73	7.4544e-06	2.2138e-05	509.54	221.42	97.537	23.22	2.1127e-05	78.233	0.0043314	0.0064055	0.0017563	764.35	6.6661e-05	6.514e-05	1278.6	172.64	6.1681e-05	7.1592e-05	401.68	174.04	85.211	19.911	6.8487e-05	62.033	-105.178	106.707	-31.521	-129.025	-39.365	13.625	-130.304	-124.010	-121.234	48.679	-125.756	-119.569	-119.195	-112.794	55.980	-115.684	-8191	255	
3043.655	1	1	0	0	0.30097	0.11785	0.078297	0.21862	0.16352	0.21583	0.15253	0.079823	0.17397	0.23244	0.049247	0.15292	0.17621	0.034575	0.18398	0.13652	-2.6604	-2.9437	-2.5583	-3.5083	-2.8187	-2.6208	-3.5479	-2.7062	-2.9958	-3.2792	-2.6458	-3.6	-3.1625	-2.7646	-3.4313	-2.8271	-1.338	-78.297	179.814	178.248	-134.291	197.446	180.678	-75.251	149.445	127.741	-12.035	161.874	117.510	-63.867	-68.630	122.171	0.00047716	0.0014465	0.00053013	977.64	6.8462e-06	8.4368e-06	1672.5	210.94	8.2506e-06	1.3446e-05	514.62	220.7	100.11	23.53	7.8045e-06	78.388	0.0042539	0.006382	0.0017611	761.95	6.5829e-05	6.6887e-05	1284.7	170.18	6.1113e-05	6.8605e-05	403.5	174.11	85.556	20.077	6.6915e-05	62.515	-124.347	-53.779	-129.363	-129.539	-76.423	-36.140	-130.094	-123.779	64.773	48.628	-125.321	-119.255	-119.170	-112.631	116.722	-115.375	-8191	255	
3043.751	1	1	0	0	0.041065	0.095924	0.20642	0.11142	0.33087	0.18447	0.1965	0.21269	0.14595	0.068009	0.084188	0.30376	0.12897	0.37846	0.085401	0.12834	-2.6375	-3.2687	-2.4437	-3.5333	-2.9188	-2.6271	-3.5604	-2.7854	-2.8125	-3.225	-2.625	-3.3208	-3.0187	-2.7208	-3.3042	-2.8104	42.286	-106.916	-37.404	-68.050	-15.726	1.260	103.960	64.658	-98.715	110.311	-67.527	-121.681	-48.029	202.190	-108.769	-139.385	0.00026062	0.00079531	0.00065615	981.9	1.4984e-05	2.0639e-05	1675.5	212.82	4.5282e-06	1.5492e-05	514.64	224.79	100.45	23.121	1.5933e-05	80.133	0.0041394	0.006209	0.0018032	760.52	6.4765e-05	6.8177e-05	1283.3	171.67	5.9988e-05	6.7209e-05	403.76	176.04	85.051	19.997	6.1231e-05	63.165	-121.341	130.720	25.370	-128.963	197.701	101.026	-129.882	-123.385	-129.325	21.048	-125.586	-119.603	-118.611	-112.520	71.677	-115.255	-8191	255	
3043.847	1	1	0	0	0.048964	0.17041	0.33243	0.17313	0.15749	0.10479	0.22359	0.35487	0.047268	0.29812	0.17997	0.25815	0.15737	0.24671	0.10525	0.34075	-2.3312	-3.3187	-2.7875	-3.2396	-3.0958	-2.55	-3.5396	-2.7708	-2.6208	-3.2396	-2.8167	-3.1229	-3.1396	-2.5125	-3.2771	-2.925	190.756	63.367	6.026	155.506	138.842	79.541	186.395	135.303	41.952	-88.713	124.086	173.195	-88.270	186.701	42.994	113.648	0.00048088	0.0002745	0.00075096	972.73	1.059e-05	1.0746e-05	1670.1	214.38	4.971e-06	9.8405e-06	512.62	223.43	99.486	23.772	1.8305e-05	79.411	0.0041332	0.0060239	0.0017115	754.83	6.2632e-05	6.6474e-05	1283.2	172.61	6.133e-05	6.6772e-05	402.85	175.81	85.264	20.109	6.0084e-05	63.316	-93.028	171.920	209.708	-129.352	68.454	-141.137	-129.998	-123.433	6.414	-42.906	-125.172	-119.366	-118.485	-112.024	152.202	-114.919	-8191	255	
3043.968	1	1	0	0	0.12907	0.11904	0.12543	0.11732	0.21716	0.27672	0.11279	0.14595	0.22425	0.23085	0.12225	0.14195	0.10253	0.13614	0.17976	0.17425	-2.2313	-3.2208	-2.6854	-3.0312	-3.1417	-2.5938	-3.6083	-3.0542	-2.8146	-3.3	-2.8729	-3.0833	-3.3792	-2.4833	-3.2104	-3.1813	-18.161	102.861	-109.327	210.076	146.798	-99.725	70.725	-122.807	-25.535	92.521	143.795	207.923	194.712	42.075	94.808	158.641	0.00027779	0.00051232	0.00068619	977.56	2.583e-06	4.7469e-06	1662.6	212.96	9.3463e-06	1.9796e-05	512.66	222.73	95.607	23.245	2.3674e-05	77.613	0.0040591	0.0059484	0.0016683	760.39	6.238e-05	6.5814e-05	1280.4	169.78	6.266e-05	6.6001e-05	404.16	174.64	82.94	19.748	6.039e-05	61.94	-109.409	-7.569	-34.439	-128.744	-65.464	27.839	-130.134	-123.591	8.785	43.535	-125.393	-119.827	-119.217	-112.292	-44.558	-115.812	-8191	255	
3044.064	1	1	0	0	0.12618	0.06706	0.31232	0.16373	0.13579	0.050669	0.15674	0.11429	0.16429	0.19714	0.069976	0.10699	0.12571	0.18634	0.18867	0.27829	-2.225	-3.2771	-2.6125	-2.8979	-3.3521	-2.5625	-3.3875	-3.1312	-2.5146	-3.3458	-2.9479	-2.8979	-3.3417	-2.5375	-3.375	-3.1917	-131.708	157.957	-88.807	153.677	207.837	-53.938	196.829	104.185	78.288	-96.343	134.583	200.303	-75.949	192.808	-20.059	78.968	0.00033393	0.0024082	0.00040124	991.21	7.8297e-06	1.0529e-05	1656.8	203.28	1.7073e-06	1.3732e-05	512.36	221.09	96.642	22.913	6.3436e-06	78.512	0.0040492	0.0058149	0.0016558	765.44	6.2458e-05	6.5854e-05	1272.8	164.85	5.9764e-05	6.1769e-05	402.04	172.93	82.049	19.525	5.6901e-05	62.269	210.058	-60.755	-24.223	-129.316	-75.451	21.137	-130.033	-123.157	48.714	37.862	-125.639	-119.505	-119.127	-112.892	-51.152	-115.128	-8191	255	
3044.160	1	1	0	0	0.11837	0.083003	0.20901	0.41163	0.24878	0.2093	0.19808	0.15048	0.13799	0.047944	0.11539	0.30574	0.18638	0.057601	0.14767	0.19895	-2.2438	-3.3542	-2.8063	-2.8271	-3.3771	-2.6063	-3.1625	-3.3083	-2.4729	-3.2729	-2.9333	-2.7125	-3.4958	-2.4562	-2.9521	-3.4396	-98.581	140.780	26.486	174.824	157.845	71.394	181.219	161.901	-63.389	-141.023	30.336	130.225	212.951	115.406	92.849	203.225	0.00042085	0.00085026	0.00022333	987.87	8.9127e-06	1.1274e-06	1625.6	204.12	1.7199e-05	2.0563e-05	510.16	216.03	96.573	22.659	3.2752e-06	79.03	0.0039912	0.0056325	0.0015775	766.56	5.8117e-05	6.2497e-05	1244.1	164.86	5.9889e-05	5.9763e-05	400.52	171.15	82.159	19.338	5.9301e-05	62.663	-136.371	198.171	139.034	-129.198	137.077	62.089	-129.628	-123.514	51.241	-19.730	-125.415	-119.750	-118.968	-112.549	134.750	-115.474	-8191	255	
3044.232	1	1	0	0	0.19824	0.077745	0.39193	0.1426	0.18031	0.14775	0.16505	0.15485	0.11531	0.15597	0.33331	0.34177	0.12151	0.29936	0.31365	0.2901	-1.9833	-3.2354	-2.8375	-2.7354	-3.3479	-2.5292	-3.1063	-3.3417	-2.6646	-3.1896	-3.1188	-2.7667	-3.3937	-2.8521	-2.7396	-3.3063	-73.668	-93.349	202.487	199.088	85.888	-18.296	137.774	103.614	165.664	41.309	-108.428	166.096	-90.405	98.714	167.016	142.721	0.00037076	0.0015437	0.001013	988.58	9.5554e-06	1.0656e-05	1633.7	209.96	8.1418e-06	1.176e-05	512.53	220.26	94.731	22.762	3.1754e-05	80.081	0.0040836	0.0055629	0.0016088	766.76	5.8818e-05	6.3349e-05	1251.6	168.33	6.0674e-05	5.8919e-05	402.53	173.57	82.006	19.308	5.9904e-05	63.531	-111.534	-14.572	45.070	-129.118	-129.608	72.510	-130.194	-123.683	-105.321	100.522	-125.531	-118.866	-119.454	-113.156	18.985	-115.122	-8191	255	
3044.328	1	1	0	0	0.11227	0.17002	0.07149	0.26639	0.16237	0.15149	0.41039	0.24359	0.20753	0.032003	0.24276	0.059298	0.11651	0.17128	0.08062	0.16642	-2.2229	-3.1229	-3.1583	-2.6667	-3.3042	-2.8458	-2.8438	-3.5375	-2.6	-3.2458	-3.1813	-2.525	-3.3146	-2.7854	-2.7562	-3.4229	-85.028	-61.713	148.163	189.477	101.855	-74.975	168.276	152.199	214.835	186.172	196.302	113.536	183.124	121.505	114.176	130.071	0.00042971	0.00074643	0.00047178	993.03	1.6358e-05	1.1755e-05	1621.5	209.31	9.5346e-06	1.7761e-05	513.29	219.47	96.854	23.117	1.2562e-05	80.98	0.0040834	0.0055807	0.0015687	765.77	5.6638e-05	6.5176e-05	1248.4	168.7	6.0916e-05	5.9851e-05	401.1	173.58	83.597	19.695	6.2885e-05	63.742	-86.470	194.963	-116.844	-129.533	78.623	140.144	-129.906	-123.467	7.710	-49.551	-125.719	-119.156	-119.143	-112.821	191.177	-114.929	-8191	255	
3044.447	1	1	0	0	0.26404	0.27449	0.2403	0.02672	0.098261	0.13521	0.35326	0.24778	0.30343	0.054039	0.13298	0.23137	0.079141	0.11249	0.12827	0.29566	-2.2479	-2.9688	-3.1146	-2.5354	-3.3708	-3.0021	-2.8187	-3.3354	-2.8521	-2.8229	-3.2917	-2.6042	-3.5	-2.8979	-2.6792	-3.3125	199.957	134.400	-42.269	-62.824	-98.766	37.177	149.958	196.053	80.315	-123.306	100.193	202.241	181.859	-67.606	136.834	184.691	0.00030876	0.0026503	0.0003315	984.75	2.339e-05	1.0523e-05	1651.1	211.33	1.6045e-05	4.806e-06	496.4	219.73	97.941	23.429	6.6792e-06	78.639	0.0042698	0.0056938	0.0016297	763.7	5.8279e-05	6.6274e-05	1265.3	171.11	6.3111e-05	6.5034e-05	390.98	173.58	83.579	19.925	6.5122e-05	62.24	-121.874	-105.567	109.360	-128.821	26.758	-21.787	-129.908	-123.139	-2.526	154.666	-125.319	-119.184	-118.965	-112.163	-65.917	-114.563	-8191	255	
3044.543	1	1	0	0	0.24372	0.41497	0.16565	0.073369	0.19831	0.16019	0.28943	0.1355	0.10843	0.18949	0.18602	0.2361	0.28871	0.11472	0.036047	0.087393	-2.2646	-2.9396	-3.2354	-2.6354	-3.2583	-3.0583	-2.6792	-3.2417	-2.8792	-2.9125	-3.3229	-2.6125	-3.1833	-3.0479	-2.7042	-3.4688	91.922	30.198	114.042	193.872	-110.408	-12.640	142.100	133.192	-55.642	217.627	196.338	-84.518	53.608	-67.233	62.847	202.396	0.00028258	0.00072812	0.00036231	969.44	9.2827e-06	1.8418e-05	1657.9	212.28	2.1488e-05	6.5905e-06	497.05	216.98	96.603	23.572	9.5183e-06	78.986	0.0043521	0.0058712	0.0017032	756.53	6.0273e-05	6.996e-05	1278.8	170.24	6.4895e-05	6.7804e-05	392.91	172.88	83.225	19.976	6.7442e-05	62.455	-98.407	-54.757	-111.970	-128.939	-95.695	-76.736	-130.253	-123.399	124.932	-32.873	-125.555	-119.349	-119.621	-112.139	43.000	-114.764	-8191	255	
3044.639	1	1	0	0	0.16957	0.27951	0.071582	0.17875	0.10157	0.17274	0.27388	0.1834	0.2179	0.059554	0.2788	0.1129	0.22444	0.084703	0.10061	0.17926	-2.5042	-2.85	-3.4375	-2.8208	-3.1021	-3.3583	-2.7667	-3.4	-2.7833	-2.5729	-3.5646	-2.7458	-2.8	-3.2604	-2.475	-3.5771	-59.281	104.511	-107.651	185.027	76.850	-3.652	109.274	179.331	134.876	122.108	133.842	123.219	60.630	106.385	86.362	178.902	0.00037202	0.00093825	0.0004166	963.38	9.6223e-06	3.1475e-06	1665	207.34	6.9016e-06	1.9176e-05	500.87	218.73	96.35	23.014	8.8626e-06	79.11	0.004307	0.0058247	0.0016626	750.28	5.8463e-05	6.7015e-05	1273.2	168.24	5.8482e-05	6.2278e-05	395.93	172.12	82.384	19.551	6.1897e-05	62.163	-116.609	-118.887	47.344	-128.973	97.266	33.739	-130.074	-123.004	32.324	17.887	-125.313	-119.832	-118.954	-112.950	105.707	-115.172	-8191	255	
3044.735	1	1	0	0	0.16705	0.20528	0.16253	0.086709	0.056654	0.13964	0.36899	0.14912	0.16029	0.21688	0.2588	0.24044	0.014185	0.17414	0.20746	0.17321	-2.5604	-2.75	-3.4458	-2.7417	-3.0062	-3.2917	-2.6479	-3.2313	-2.9583	-2.6604	-3.5438	-2.8187	-3.0521	-3.2521	-2.6562	-3.2062	95.567	83.121	158.473	97.226	188.852	19.827	125.234	165.518	122.798	38.261	89.611	94.930	212.489	200.294	208.173	125.741	0.00041575	0.00087222	0.00062276	958.47	1.4077e-05	1.183e-05	1670.8	214.06	1.5643e-05	1.2818e-05	521.07	225.06	98.629	23.312	1.5462e-05	78.431	0.0039873	0.0055951	0.0015909	744.3	5.7457e-05	6.3639e-05	1269.7	169.79	5.7697e-05	6.4297e-05	403.94	175.59	84.067	19.601	5.9668e-05	62.073	218.035	112.353	-83.916	-129.185	19.507	187.525	-129.742	-123.420	130.556	146.748	-125.229	-119.734	-119.150	-112.140	177.973	-115.392	-8191	255	
3044.831	1	1	0	0	0.27704	0.152	0.14836	0.15375	0.25628	0.22566	0.33278	0.16875	0.072931	0.13506	0.13937	0.064248	0.053935	0.13777	0.10651	0.23124	-2.6979	-2.5271	-3.1958	-2.7438	-2.9792	-3.4792	-2.7583	-3.2521	-3.0896	-2.6396	-3.2792	-2.9104	-2.7375	-3.4292	-2.5375	-3.0708	152.216	40.433	50.685	-62.602	-5.981	192.585	180.692	15.923	77.581	202.567	-112.469	33.943	22.120	8.188	179.921	145.579	0.00046792	0.0013097	0.0010776	966.86	1.2356e-05	1.1317e-05	1662.4	212.14	6.5299e-06	2.1382e-05	530.11	226.13	100.79	22.901	7.9361e-06	78.52	0.0037606	0.0051826	0.001459	745.04	5.3048e-05	5.7812e-05	1264.9	168.93	5.4197e-05	6.1272e-05	411.86	176.91	84.314	19.412	6.0205e-05	61.685	-135.491	-0.470	-82.357	-128.814	-2.780	-82.246	-130.523	-123.549	20.775	106.161	-125.577	-119.430	-119.638	-112.610	181.107	-114.810	-8191	255	
3044.928	1	1	0	0	0.034716	0.20489	0.052567	0.049262	0.19761	0.14791	0.33317	0.16822	0.16624	0.063608	0.30697	0.14569	0.12795	0.20272	0.2512	0.20093	-2.7896	-2.3542	-3.3083	-2.9062	-2.5646	-3.2667	-2.7208	-2.9813	-3.2188	-2.3583	-3.3021	-3.0833	-2.6896	-3.525	-2.5104	-2.9083	36.849	155.252	-67.866	118.963	-91.088	-36.694	135.051	193.511	-130.618	26.647	201.014	-138.222	206.994	180.314	-112.450	179.809	0.00037757	0.0013512	0.00069094	963.65	1.0282e-05	2.2966e-05	1662.8	211.36	9.8464e-06	1.1692e-05	520.42	224.53	97.881	22.528	1.2306e-05	75.882	0.0038489	0.0055108	0.0014445	745.21	5.7122e-05	5.9208e-05	1266.1	169	5.6423e-05	6.4181e-05	406.99	175.72	82.999	19.094	6.0586e-05	60.132	-113.942	-30.238	-65.361	-128.504	-69.869	134.207	-129.613	-123.149	-16.597	0.460	-124.968	-119.598	-119.160	-112.704	-46.407	-114.889	-8191	255	
3045.048	1	1	0	0	0.29883	0.092073	0.1616	0.2659	0.21283	0.060072	0.41598	0.17821	0.39451	0.27437	0.22461	0.25252	0.43497	0.17826	0.14674	0.18547	-2.8563	-2.4396	-3.3229	-2.7979	-2.6312	-3.5312	-2.7604	-2.9271	-3.3792	-2.5938	-3.2625	-3.2167	-2.5812	-3.3583	-2.8583	-2.8479	204.907	143.223	139.085	125.056	25.710	162.985	168.705	172.997	-80.210	113.874	52.428	-100.815	192.246	-10.465	20.487	187.067	0.00037903	0.0015154	0.00021787	964.25	5.4929e-06	4.6689e-06	1627.1	207.34	1.1002e-05	1.7347e-05	513.02	223.31	96.93	22.599	1.9853e-05	75.45	0.0040576	0.0059906	0.0015876	746.15	6.5444e-05	6.6111e-05	1255.5	167.91	6.1831e-05	6.8432e-05	402.24	176.22	83.317	19.253	6.3016e-05	59.998	-110.659	-60.221	-30.459	-128.807	64.049	210.916	-130.066	-123.121	-105.744	-1.897	-125.733	-119.537	-118.973	-112.806	189.244	-114.967	-8191	255	
3045.144	1	1	0	0	0.26981	0.044869	0.10756	0.23706	0.080593	0.1307	0.30641	0.19941	0.12965	0.13996	0.087231	0.24887	0.32817	0.13016	0.066154	0.067918	-3.0104	-2.3833	-2.9646	-3.0521	-2.4813	-3.1937	-2.925	-2.7708	-3.2938	-2.6792	-3.1542	-3.3354	-2.4417	-3.3042	-2.8479	-2.5625	127.118	-139.989	55.534	190.852	-75.583	-136.938	209.133	-126.574	-57.852	56.361	18.836	-121.689	215.522	120.135	-37.489	10.628	0.00046	0.00067842	0.00051306	976.53	1.4858e-05	2.8117e-05	1607.2	201.27	2.0665e-05	1.4372e-05	506.26	220.59	96.245	22.311	1.363e-05	75.297	0.0040406	0.0059037	0.0015712	757.52	6.2432e-05	6.2001e-05	1234.8	162.21	6.0829e-05	6.5988e-05	401.83	174.87	83.115	18.988	6.2617e-05	59.895	-115.925	-38.081	153.412	-129.069	128.608	175.951	-129.963	-123.387	47.764	10.543	-125.007	-119.416	-118.872	-111.528	187.816	-114.995	-8191	255	
3045.241	1	1	0	0	0.35433	0.076797	0.1985	0.34776	0.1281	0.32456	0.13873	0.11716	0.16801	0.17892	0.086436	0.1446	0.1528	0.167	0.14437	0.047071	-3.0062	-2.3375	-3.0167	-3.3708	-2.4229	-3.3375	-2.9833	-2.55	-3.5396	-2.4813	-3.0042	-3.4979	-2.4667	-3.3187	-3.0062	-2.6562	-127.898	15.486	-110.313	198.591	150.316	-21.157	209.820	-115.393	-24.947	-103.343	-110.186	196.957	-53.295	-52.144	-97.325	2.965	0.00036365	0.0020615	0.00061252	968.86	2.0248e-05	4.1306e-06	1610.4	199.9	6.9889e-06	2.483e-05	514.49	222.29	97.007	22.727	8.6073e-06	76.503	0.0038982	0.0059328	0.0015045	753.16	6.167e-05	5.9393e-05	1231.1	161.48	5.8612e-05	6.4549e-05	403.43	175.45	83.015	19.269	5.9743e-05	60.788	217.172	-120.550	178.213	-129.444	-6.616	-17.956	-129.616	-123.013	8.879	68.902	-125.165	-119.832	-119.626	-112.159	0.640	-114.960	-8191	255	
3045.337	1	1	0	0	0.063967	0.069303	0.24868	0.14382	0.12904	0.085924	0.20285	0.36063	0.11691	0.23824	0.099192	0.37795	0.18688	0.22199	0.22214	0.071243	-3.1042	-2.7771	-2.8542	-3.4688	-2.4188	-3.1604	-3.2958	-2.525	-3.4271	-2.7708	-2.7833	-3.3312	-2.5792	-3.2458	-2.8646	-2.6333	-27.126	-102.876	106.748	157.145	54.906	-17.718	169.058	197.519	72.701	177.112	-125.109	-130.336	-135.394	-114.538	-141.343	44.166	0.00019192	0.00074254	0.00058719	977.64	1.8744e-05	1.15e-05	1596.7	199.35	1.1399e-05	6.1705e-06	508.68	225.59	99.409	22.72	6.9061e-06	77.353	0.0037646	0.0058514	0.001519	753.26	6.0513e-05	5.9534e-05	1224.3	160.48	5.8272e-05	6.2907e-05	399.21	176.88	84.291	19.202	6.0272e-05	61.228	-111.483	-27.787	107.389	-129.113	21.807	-41.229	-129.868	-123.760	13.362	9.630	-125.159	-119.683	-118.031	-112.342	-54.279	-114.724	-8191	255	
3045.456	1	1	0	0	0.3782	0.12258	0.16937	0.15206	0.33391	0.11413	0.15496	0.11177	0.15416	0.065493	0.1547	0.15922	0.10539	0.31264	0.2248	0.28605	-2.9417	-2.7583	-2.5708	-3.2458	-2.4333	-2.8083	-3.1771	-2.5396	-3.2354	-3.0479	-2.8083	-3.6458	-2.6688	-3.1042	-3.2521	-2.4813	4.772	105.442	-42.076	-46.017	-77.828	-117.012	202.001	89.465	28.253	-104.780	160.049	169.213	-44.632	-127.271	29.078	18.428	0.00033098	0.00084007	0.00091805	973.25	5.3349e-06	5.7942e-06	1590.6	194.94	7.1852e-06	1.8411e-05	508.02	223.44	97.959	22.262	1.4273e-05	73.821	0.0038291	0.0057914	0.0015852	750.79	6.1122e-05	6.276e-05	1224	159	5.8704e-05	6.5128e-05	401.04	175.71	83.815	18.876	6.077e-05	58.771	-133.184	-130.176	-76.642	-129.527	83.619	63.111	-130.024	-123.199	215.047	72.519	-125.299	-119.585	-119.030	-112.973	-1.409	-115.261	-8191	255	
3045.527	1	1	0	0	0.16024	0.16628	0.034152	0.16729	0.098418	0.085119	0.15558	0.086878	0.10927	0.26184	0.13734	0.24734	0.19756	0.059799	0.10072	0.2447	-2.8208	-3.1437	-2.6833	-3.4542	-2.7438	-2.6979	-3.4938	-2.5125	-3.2542	-2.9958	-2.6688	-3.5167	-2.8125	-2.9396	-3.4146	-2.6708	-38.906	-108.496	59.040	131.735	-15.465	-43.914	68.208	156.983	31.091	-32.337	199.035	181.487	87.626	200.903	3.484	119.120	0.00053871	0.0022194	0.0004633	959.28	1.7012e-05	2.1541e-05	1589.5	195.45	2.0816e-05	1.1505e-05	505.33	223.94	96.603	22.219	6.3125e-06	74.453	0.0038556	0.0059965	0.0015627	746.95	5.9209e-05	6.2313e-05	1216.6	159.26	5.841e-05	6.1858e-05	397.15	174.78	83.357	18.936	5.8858e-05	58.854	-120.947	-98.566	-15.647	-129.546	-123.897	11.959	-129.665	-122.998	75.612	36.440	-125.840	-119.851	-119.043	-112.431	195.721	-114.964	-8191	255	
3045.625	1	1	0	0	0.11538	0.16612	0.1405	0.18197	0.036836	0.25341	0.29084	0.11737	0.20799	0.16972	0.32296	0.18727	0.24116	0.17236	0.19278	0.10556	-2.8708	-3.0958	-2.6229	-3.5	-2.8708	-2.9062	-3.5938	-2.6521	-3.1833	-3.0271	-2.4208	-3.4042	-2.6708	-2.6188	-3.3375	-2.7833	119.557	67.673	-0.979	-130.841	37.870	-35.460	183.729	-100.295	193.921	172.109	143.830	213.177	89.076	206.577	176.886	151.171	0.00026849	0.0021455	0.00041722	960.93	1.5935e-05	1.3985e-05	1592.1	197.06	4.69e-06	7.7772e-06	506.86	221.3	97.998	22.558	1.4875e-05	74.172	0.0037164	0.0055653	0.0015153	744.87	5.7258e-05	6.1302e-05	1219.7	158.41	5.6476e-05	6.122e-05	399.41	174.36	83.04	19.009	5.9713e-05	59.058	200.731	-2.144	-8.442	-129.123	2.006	77.807	-129.820	-123.437	113.421	18.155	-125.575	-119.497	-119.534	-112.980	26.698	-114.814	-8191	255	
3045.744	1	1	0	0	0.17518	0.088903	0.083427	0.10139	0.061365	0.092306	0.090254	0.20482	0.016861	0.3873	0.15082	0.19785	0.10804	0.10503	0.11386	0.17197	-2.4813	-3.2979	-2.5187	-3.3812	-2.8458	-2.8125	-3.5625	-2.45	-3.0167	-3.2271	-2.45	-3.3542	-2.8979	-2.6021	-3.2313	-2.6937	-115.630	-101.199	-120.241	-1.494	80.458	45.919	-59.200	78.311	-96.532	185.732	141.896	186.444	49.699	-98.294	-81.499	182.075	0.00047362	0.0018943	9.3441e-05	963.56	7.9416e-06	8.5117e-06	1595	196.68	9.1212e-06	1.3953e-05	512.44	224.64	96.013	22.457	1.0675e-05	75.224	0.0037003	0.0054639	0.0015332	745.45	5.5665e-05	5.9587e-05	1221.5	159.05	5.4114e-05	5.9516e-05	400.81	175.22	81.929	19.047	5.5528e-05	59.3	-107.180	-38.313	-134.720	-129.176	103.156	175.741	-129.807	-123.314	49.603	126.546	-125.079	-119.841	-118.329	-112.730	91.303	-115.051	-8191	255	
3045.840	1	1	0	0	0.29641	0.14218	0.15162	0.18488	0.21619	0.16415	0.20395	0.18182	0.10524	0.15128	0.26543	0.3436	0.31004	0.12612	0.093346	0.21347	-2.475	-3.2271	-2.3083	-3.0917	-3.125	-2.5104	-3.5146	-2.7	-2.6396	-3.4188	-2.7375	-3.3042	-3.2333	-2.4896	-3.2479	-2.8292	-39.878	124.124	-64.116	-123.494	-20.423	-76.691	157.153	176.514	-135.417	98.300	160.561	-123.939	191.815	-127.253	32.745	203.305	0.00049323	0.0020566	0.00052176	965.94	1.9393e-05	1.7268e-05	1606.6	202.12	1.095e-05	7.7107e-06	510.29	225.52	95.52	22.59	1.6022e-05	74.758	0.0035894	0.0052802	0.0014528	742.66	5.3331e-05	5.9019e-05	1217.4	162.55	5.1822e-05	5.7842e-05	395.82	175.35	81.178	19.004	5.4766e-05	59.372	-117.075	7.768	-100.822	-128.987	-7.172	158.145	-129.611	-122.759	50.725	66.499	-125.410	-119.756	-118.978	-112.826	194.463	-114.889	-8191	255	
3045.936	1	1	0	0	0.17636	0.17322	0.096165	0.28846	0.23218	0.13474	0.1267	0.34575	0.30168	0.17693	0.0036951	0.21539	0.12436	0.12482	0.11244	0.13073	-2.5938	-3.2542	-2.6188	-3.1833	-3.1833	-2.6208	-3.3979	-2.9042	-2.425	-3.3521	-2.6354	-3.1917	-3.1896	-2.6354	-3.3542	-3.1729	-104.501	6.731	-24.976	146.386	34.879	15.298	27.281	-135.579	158.341	-56.196	-110.019	-135.394	192.861	-92.987	123.533	-131.596	0.00026701	0.0027177	0.00083347	959.2	1.1744e-05	1.1965e-05	1596.8	208.89	4.1901e-06	4.0443e-06	499.59	222.94	97.902	22.327	2.2515e-05	73.834	0.0036701	0.0052674	0.0014659	744.27	5.338e-05	5.8403e-05	1220.8	166.49	5.3867e-05	5.896e-05	393.1	173.99	81.641	18.954	5.3358e-05	58.427	-102.951	181.643	-58.146	-129.271	135.971	42.126	-129.573	-122.887	-54.225	-101.496	-124.761	-119.926	-120.189	-112.153	-1.840	-115.005	-8191	255	
3046.032	1	1	0	0	0.19479	0.18943	0.3133	0.17877	0.066511	0.06154	0.13168	0.23481	0.096334	0.1997	0.11682	0.077532	0.16796	0.24044	0.083347	0.094393	-2.2625	-3.4417	-2.4667	-3.0333	-3.2417	-2.6771	-3.3833	-3.1104	-2.7958	-3.3812	-2.7333	-2.9667	-3.3	-2.4854	-3.1271	-3.2438	-39.998	72.314	-1.885	112.038	60.124	171.916	166.714	138.230	-126.834	69.448	103.867	149.719	166.079	164.788	158.946	210.874	0.00030506	0.0018458	0.00042448	970.01	3.8415e-06	1.8193e-05	1601.7	204.09	6.465e-06	1.381e-05	506.88	220.72	95.875	22.238	9.0181e-06	74.361	0.0036901	0.0050371	0.0014083	746.35	5.2414e-05	5.6799e-05	1217	162.3	5.2497e-05	5.4635e-05	396.36	173.44	80.97	18.678	5.4423e-05	58.638	206.123	-29.419	-20.447	-129.354	63.337	108.381	-129.572	-123.158	-24.252	63.227	-125.347	-119.334	-117.646	-113.053	-124.940	-114.794	-8191	255	
3046.129	1	1	0	0	0.11967	0.18238	0.050296	0.17715	0.1513	0.14409	0.30315	0.18133	0.036956	0.10607	0.062713	0.10559	0.13633	0.044833	0.061549	0.11253	-2.2417	-3.35	-2.7396	-2.8604	-3.3125	-2.4708	-3.1708	-3.2167	-2.5563	-3.2938	-3.0229	-2.8417	-3.3333	-2.6021	-3.2667	-3.3021	10.699	175.941	115.007	-125.096	5.025	-18.614	99.993	142.391	173.188	172.680	147.076	-37.589	187.269	134.238	131.311	212.990	0.00044009	0.0014681	0.00045952	956.68	4.6955e-06	1.2923e-05	1591.3	201.56	7.5222e-06	1.391e-05	512.59	222.75	96.99	22.12	1.866e-05	74.959	0.0036829	0.004903	0.0014037	741.34	5.1145e-05	5.517e-05	1212.9	160.97	5.2386e-05	5.2732e-05	400.18	173.92	81.13	18.65	5.1637e-05	59.004	-132.016	-97.082	-103.761	-128.667	-52.044	40.920	-130.119	-123.455	202.115	-118.810	-125.463	-119.856	-118.813	-113.137	-47.509	-115.012	-8191	255	
3046.225	1	1	0	0	0.42417	0.078957	0.35605	0.19864	0.21593	0.42419	0.062975	0.015739	0.11488	0.12786	0.22411	0.20824	0.066003	0.21797	0.22995	0.094917	-2.1771	-3.3625	-2.7979	-2.6958	-3.4729	-2.6896	-3.2042	-3.2625	-2.5792	-3.35	-2.9146	-2.7479	-3.3333	-2.7917	-2.8438	-3.3333	-109.731	136.929	12.959	-138.968	179.797	21.886	27.653	0.697	-14.069	-11.754	163.556	201.110	-87.513	194.059	109.013	198.510	0.00036054	0.00018384	0.0001026	973.9	1.1419e-05	1.2839e-05	1612.7	206.6	8.2547e-06	2.1092e-05	513.64	223.74	97.62	22.341	1.295e-05	75.428	0.0034792	0.0046461	0.001336	748.35	4.9541e-05	5.5484e-05	1223	162.76	5.1741e-05	5.2487e-05	400.33	174.57	81.604	18.737	5.1778e-05	59.126	-118.455	143.670	-39.636	-128.751	8.368	-6.545	-129.864	-123.168	-43.612	-63.837	-125.623	-119.507	-119.861	-112.034	209.221	-115.051	-8191	255	
3046.321	1	1	0	0	0.086406	0.17811	0.075596	0.29982	0.15483	0.18169	0.30917	0.12567	0.23875	0.12389	0.21086	0.18176	0.068613	0.13674	0.23818	0.28072	-2.075	-3.15	-3.0083	-2.7208	-3.5104	-2.8208	-2.875	-3.3063	-2.6688	-3.1458	-3.1604	-2.6146	-3.3458	-2.6521	-2.7083	-3.4375	143.798	-41.999	-95.125	-126.394	-12.967	120.421	149.615	169.384	9.584	45.075	194.992	-15.150	26.211	160.984	167.872	156.703	0.00044965	0.00080087	0.00030034	974.23	1.4592e-05	2.1015e-05	1608.9	204.81	8.7983e-06	1.0692e-05	512.08	224.74	96.983	22.126	2.8117e-06	74.921	0.0034081	0.0047892	0.0013635	748.4	4.7567e-05	5.3609e-05	1225.1	162.34	5.0879e-05	5.2888e-05	400.39	175.2	80.725	18.487	5.1872e-05	58.86	-93.526	-0.927	40.998	-129.096	22.585	-114.228	-129.569	-123.483	-87.354	-92.792	-125.420	-119.714	-119.408	-112.771	-103.810	-115.306	-8191	255	
3046.417	1	1	0	0	0.24202	0.1205	0.32388	0.44699	0.039522	0.04622	0.29879	0.25288	0.12096	0.11157	0.26268	0.16457	0.2437	0.27477	0.19066	0.35112	-2.1667	-3.1146	-3.0042	-2.5646	-3.3063	-2.7417	-2.85	-3.4188	-2.6042	-3.1021	-3.4437	-2.5646	-3.3792	-3.0563	-2.7458	-3.3667	23.637	7.753	94.900	-125.283	133.792	-126.158	157.203	-94.819	103.157	-2.771	166.283	175.180	-47.970	159.226	148.409	210.591	0.00037747	0.0013202	0.00052935	959.25	7.9919e-06	1.1257e-05	1587.2	201.1	8.8073e-06	1.7255e-05	511.31	220.75	94.558	21.777	9.2108e-06	74.374	0.0034466	0.0046638	0.0013304	741.38	4.895e-05	5.2545e-05	1213.6	159.38	4.9826e-05	5.0847e-05	397.39	172.57	79.321	18.242	5.0062e-05	58.313	-120.231	-43.713	144.557	-129.269	-87.170	-32.107	-129.778	-123.193	-32.235	-49.239	-125.352	-119.271	-119.112	-112.040	3.009	-115.645	-8191	255	
3046.536	1	1	0	0	0.14472	0.25899	0.043385	0.14369	0.35609	0.12188	0.2306	0.31278	0.23604	0.15553	0.084951	0.19183	0.028845	0.1686	0.15839	0.084975	-2.2271	-2.9	-3.125	-2.5771	-3.1333	-2.9583	-2.6937	-3.4458	-2.6354	-2.6937	-3.3604	-2.4875	-3.5354	-3.1667	-2.6688	-3.5521	-10.519	212.448	160.249	-70.056	-35.449	146.599	81.167	131.919	-5.280	188.227	152.416	136.951	99.563	142.389	-89.854	62.392	0.00037052	0.00050422	0.00020207	964.66	1.1844e-05	1.7666e-06	1591.6	205.14	1.1313e-05	1.2392e-05	504.1	221.06	95.324	21.905	8.6691e-06	75.505	0.0033572	0.0048704	0.0012649	742.9	4.8693e-05	5.1833e-05	1215.5	163.49	5.0712e-05	5.3092e-05	394.69	172.35	80.515	18.307	5.278e-05	59.143	-130.648	-81.365	89.627	-129.370	-42.527	201.372	-129.594	-123.370	78.247	32.037	-125.338	-119.657	-118.964	-113.148	60.740	-115.183	-8191	255	
3046.632	1	1	0	0	0.24539	0.034931	0.05119	0.19359	0.32678	0.14299	0.15789	0.11458	0.21775	0.05014	0.23115	0.21635	0.028155	0.092347	0.19668	0.31118	-2.2708	-2.6979	-3.2438	-2.6771	-3.3604	-3.0958	-2.6771	-3.3396	-2.8542	-2.85	-3.3854	-2.475	-3.0708	-3.1562	-2.4375	-3.4083	-115.271	126.692	194.617	154.518	-131.768	90.602	131.200	178.754	68.628	77.215	176.022	205.029	-112.855	-38.203	-132.162	158.572	0.00042616	0.0017111	0.00048265	970.81	1.5032e-05	4.8735e-06	1609.4	213.39	1.5914e-05	1.7586e-05	507.9	222.91	96.626	22.312	2.6887e-06	75.953	0.0034195	0.0049504	0.0013702	746.28	5.1581e-05	5.4325e-05	1226.7	167.87	5.3418e-05	5.6443e-05	396.29	174.53	81.443	18.888	5.5645e-05	60.407	-136.498	-0.693	-99.937	-129.460	-123.455	201.199	-129.664	-123.417	-68.995	84.335	-125.553	-119.668	-119.339	-112.883	128.518	-114.790	-8191	255	
3046.728	1	1	0	0	0.17721	0.15128	0.11712	0.15623	0.066868	0.15874	0.43871	0.18613	0.15452	0.054743	0.11792	0.16736	0.10843	0.049136	0.20871	0.049465	-2.4333	-2.7292	-3.3833	-2.6063	-3.0083	-3.2938	-2.5958	-3.2708	-2.9104	-2.6125	-3.3438	-2.6417	-3.0146	-3.3021	-2.4375	-3.2979	205.547	98.451	159.417	179.643	-56.104	7.871	167.393	102.026	79.402	177.692	10.222	-115.334	200.980	4.702	-29.405	105.419	0.00044604	0.0021358	0.00047392	971.23	9.7171e-06	1.9185e-05	1621.5	212.01	7.8463e-06	8.9885e-06	512.5	225.94	97.052	22.952	9.3077e-06	78.206	0.0035422	0.0053411	0.0013964	747.67	5.3111e-05	5.6781e-05	1233.5	168.06	5.6071e-05	5.9456e-05	400.37	176.93	82.565	19.254	5.9251e-05	61.672	-125.177	184.124	-21.232	-129.287	200.396	-7.084	-130.025	-123.327	35.129	66.944	-125.105	-119.312	-118.977	-113.099	-117.654	-115.108	-8191	255	
3046.824	1	1	0	0	0.1757	0.11357	0.22674	0.23593	0.13424	0.19972	0.33757	0.17693	0.17623	0.34135	0.17399	0.30459	0.2867	0.25488	0.1898	0.24753	-2.5917	-2.6854	-3.2771	-2.6896	-2.9562	-3.2062	-2.7958	-3.3792	-3.1583	-2.5083	-3.4646	-2.7292	-2.9083	-3.3125	-2.6521	-3.3458	68.909	-113.614	141.541	206.535	171.210	-44.559	203.851	135.992	-121.150	84.152	68.186	173.598	178.642	198.049	45.624	129.080	0.00028605	0.00019383	0.00042609	976.64	1.7728e-05	9.6538e-06	1625.3	210.57	1.0019e-05	2.4739e-05	512.8	224.93	98.374	22.65	1.2834e-06	76.634	0.0036861	0.0055054	0.0014438	757.39	5.475e-05	5.9646e-05	1243.6	168.51	5.5608e-05	6.1184e-05	403.06	176.32	82.66	19.163	5.8831e-05	60.63	-110.706	29.842	217.253	-129.041	114.818	60.789	-130.091	-123.372	0.495	89.852	-125.498	-119.702	-119.683	-112.888	212.659	-114.864	-8191	255	
3046.921	1	1	0	0	0.12485	0.26498	0.066568	0.33316	0.17098	0.034837	0.15772	0.13895	0.12007	0.22224	0.21151	0.063474	0.066198	0.16299	0.028282	0.035053	-2.6479	-2.4667	-3.2	-2.7208	-2.625	-3.4479	-2.6375	-3.1625	-3.2396	-2.5458	-3.4521	-2.8604	-2.8479	-3.3063	-2.5771	-3.1625	187.436	193.171	-24.503	-98.439	142.107	116.570	152.098	-59.468	-83.973	16.764	182.885	187.005	71.745	-27.436	4.925	61.390	0.00043533	0.0029604	0.00025256	984.39	7.4025e-06	5.4656e-06	1617.3	206.53	9.9115e-06	1.5997e-05	516.08	225	95.773	22.522	3.7875e-06	76.259	0.0038049	0.0056397	0.0015087	758.75	5.6126e-05	5.878e-05	1240.5	165.72	5.6283e-05	6.0716e-05	402.83	175.68	82.258	19.079	5.8474e-05	60.13	-95.556	-108.672	198.671	-129.467	86.040	51.154	-129.558	-123.241	-9.482	-11.437	-125.056	-119.343	-119.642	-113.054	203.310	-115.277	-8191	255	
3047.017	1	1	0	0	0.076365	0.2237	0.21193	0.10062	0.083394	0.15119	0.17803	0.16224	0.12753	0.16034	0.21728	0.10916	0.15122	0.25284	0.1127	0.28265	-2.7021	-2.5625	-3.1542	-2.9479	-2.6458	-3.4417	-2.8771	-3.0438	-3.2604	-2.5604	-3.3208	-3.2167	-2.6271	-3.3625	-2.6333	-2.8979	106.474	23.375	-118.767	207.225	-35.348	-51.478	140.619	151.541	-116.671	8.752	182.969	181.378	136.890	-91.619	56.754	93.067	0.00036278	0.00052293	0.00032511	973.33	1.2745e-05	8.4972e-06	1624.8	202.32	1.2701e-05	1.8171e-05	521.71	224.49	97.876	22.268	8.4069e-06	75.989	0.0037573	0.0056221	0.0014959	755.23	5.7856e-05	6.0258e-05	1244.8	163.04	5.5097e-05	6.1374e-05	408.13	175.85	83.294	18.893	6.0199e-05	60.19	204.001	-102.316	165.194	-129.047	-65.425	11.497	-129.857	-123.195	-139.800	8.346	-125.757	-119.644	-118.722	-112.430	50.747	-114.794	-8191	255	
3047.137	1	1	0	0	0.097712	0.24966	0.22263	0.13629	0.127	0.11138	0.094111	0.13955	0.082312	0.29967	0.30927	0.35335	0.095385	0.23057	0.06115	0.20498	-2.8979	-2.3896	-3.0104	-3.1458	-2.6	-3.3396	-2.8854	-2.7188	-3.5667	-2.5771	-3.0229	-3.3083	-2.5375	-3.3187	-2.7958	-2.7687	-88.778	40.171	-48.173	-82.918	77.733	-18.114	50.523	182.463	57.652	43.505	152.729	159.959	39.471	-134.985	87.619	124.378	0.00030367	0.002071	0.00017456	969.17	8.7683e-06	1.395e-05	1628.9	203.67	9.1326e-06	1.6491e-05	519.74	226.82	99.557	22.412	3.3036e-05	75.952	0.0037779	0.0055905	0.0015158	748.55	5.8981e-05	5.8727e-05	1242.2	162.41	5.5771e-05	6.2122e-05	410.08	177.87	84.473	19.023	5.9044e-05	60.404	-141.157	88.083	-128.168	-130.033	145.837	-109.995	-129.720	-123.342	-11.915	67.363	-125.528	-119.441	-118.216	-112.451	78.923	-114.867	-8191	255	
3047.233	1	1	0	0	0.017785	0.20653	0.22596	0.26755	0.24168	0.1505	0.39647	0.18649	0.1082	0.2715	0.18567	0.30145	0.062294	0.19909	0.09021	0.33873	-3.1292	-2.5104	-3.0125	-3.2896	-2.4396	-3.2104	-2.9396	-2.6083	-3.3104	-2.5938	-3.0292	-3.4333	-2.4604	-3.2313	-2.8792	-2.625	19.830	-37.535	-18.664	205.649	140.214	113.388	156.805	215.636	117.962	21.206	-72.339	187.576	25.709	-128.292	157.884	143.109	0.00031853	0.0010663	0.00029588	975.6	1.3326e-05	1.2138e-05	1622.6	202.24	2.8823e-06	1.2213e-05	521.76	228.31	98.25	22.791	5.3744e-06	76.321	0.0037654	0.0057065	0.001568	749.14	5.8319e-05	6.1826e-05	1238.4	163.25	5.5316e-05	6.2542e-05	409.48	178.27	84.099	19.063	5.8768e-05	60.878	-127.988	144.097	-8.525	-129.657	-72.026	120.288	-129.997	-122.859	181.164	111.340	-125.455	-120.165	-119.332	-112.190	-12.603	-115.030	-8191	255	
3047.328	1	1	0	0	0.11729	0.13379	0.059906	0.18837	0.077657	0.028143	0.21264	0.15324	0.18605	0.2314	0.2135	0.16793	0.34566	0.087807	0.082336	0.16845	-2.8708	-2.6958	-2.9333	-3.2292	-2.5312	-3.2271	-3.2333	-2.6542	-3.475	-2.7625	-2.8854	-3.3729	-2.5312	-3.3354	-3.0104	-2.6208	-97.585	34.646	59.166	155.683	153.030	214.241	195.103	-17.430	76.106	70.658	133.507	-79.026	-55.899	-97.465	-53.744	192.756	0.00025021	0.0013182	0.0005189	969.71	9.1143e-06	1.6222e-06	1618.1	202.86	4.9039e-06	2.1391e-05	527.7	226.26	98.236	22.541	1.3005e-05	75.839	0.0037733	0.0054093	0.0015374	747.26	5.7769e-05	6.0048e-05	1238.6	162.33	5.3902e-05	6.1751e-05	409.43	176.95	83.744	19.157	5.6864e-05	60.114	213.539	-12.523	96.893	-128.864	53.034	22.180	-129.543	-123.310	214.057	213.513	-125.314	-119.778	-119.453	-112.140	-15.821	-115.336	-8191	255	
3047.424	1	1	0	0	0.20849	0.0050596	0.11428	0.22377	0.34479	0.11534	0.42404	0.13601	0.16514	0.095511	0.22203	0.14688	0.23389	0.16713	0.051348	0.17771	-3.2313	-2.6	-2.7146	-3.2958	-2.4146	-3.0521	-3.1875	-2.5833	-3.4125	-2.6896	-2.9146	-3.4583	-2.6937	-2.8792	-3.2458	-2.5896	154.053	35.600	10.507	100.962	50.994	-3.696	182.555	-116.859	99.154	-58.782	119.145	154.663	137.255	191.217	133.494	-133.169	0.00032209	0.0019843	0.00044125	963.71	1.4482e-05	3.6631e-05	1598.6	202.52	6.7165e-06	2.0236e-05	512.92	224.66	97.816	22.251	3.4145e-06	75.308	0.0036906	0.0053266	0.0015154	739.94	5.5806e-05	5.8864e-05	1217.1	161.94	5.3333e-05	5.9875e-05	401.22	175.6	83.031	18.69	5.4656e-05	59.479	-113.429	-10.727	-73.695	-129.276	61.485	23.844	-129.581	-123.502	12.706	77.524	-125.433	-119.681	-119.033	-112.589	-37.743	-115.372	-8191	255	
#DATA ENDS
