BOXY.EXE: ISS Imagent and Oximeter Data Acquisition Program Version 0.80
Ascii Record File

#ACQ INFORMATION
2  Detector Channels 
16  External MUX Channels 
1  Auxiliary Channels 
5000  Waveform (CCF) Frequency (Hz)
1  Waveforms Skipped 
30  Waveforms Averaged 
1  Cycles Averaged 
16  Acquisitions per Waveform 
10.0806  Updata Rate (Hz) 

#FILE INFORMATION
TRUE -- External MUX Channel results are PARSED.
FALSE -- AC DC and Phase are NOT grouped.
TRUE -- Companion Program Settings File CREATED.
FALSE -- AC data not excluded
FALSE -- DC data not excluded
FALSE -- Phase data not excluded
FALSE -- Auxillary Chn. data not excluded
Tab delimiters

#CALIBRATION STATE
TRUE -- Waveform Calibration Values APPLIED.


#AUX CALIBRATION VALUES
Val Type	aux-1	

Term	1.0000e+00	
Factor	0.0000e+00	


#WF CALIBRATION VALUES
A = Detector Channel
Val Type	A-AC1	A-AC2	A-AC3	A-AC4	A-AC5	A-AC6	A-AC7	A-AC8	A-AC9	A-AC10	A-AC11	A-AC12	A-AC13	A-AC14	A-AC15	A-AC16	A-DC1	A-DC2	A-DC3	A-DC4	A-DC5	A-DC6	A-DC7	A-DC8	A-DC9	A-DC10	A-DC11	A-DC12	A-DC13	A-DC14	A-DC15	A-DC16	A-Ph1	A-Ph2	A-Ph3	A-Ph4	A-Ph5	A-Ph6	A-Ph7	A-Ph8	A-Ph9	A-Ph10	A-Ph11	A-Ph12	A-Ph13	A-Ph14	A-Ph15	A-Ph16	

Term	0.00000e+00	0.00000e+00	0.00000e+00	0.00000e+00	0.00000e+00	0.00000e+00	0.00000e+00	0.00000e+00	0.00000e+00	0.00000e+00	0.00000e+00	0.00000e+00	0.00000e+00	0.00000e+00	0.00000e+00	0.00000e+00	0.00000e+00	0.00000e+00	0.00000e+00	0.00000e+00	0.00000e+00	0.00000e+00	0.00000e+00	0.00000e+00	0.00000e+00	0.00000e+00	0.00000e+00	0.00000e+00	0.00000e+00	0.00000e+00	0.00000e+00	0.00000e+00	0.00000e+00	0.00000e+00	0.00000e+00	0.00000e+00	0.00000e+00	0.00000e+00	0.00000e+00	0.00000e+00	0.00000e+00	0.00000e+00	0.00000e+00	0.00000e+00	0.00000e+00	0.00000e+00	0.00000e+00	0.00000e+00	
Factor	1.00000e+00	1.00000e+00	1.00000e+00	1.00000e+00	1.00000e+00	1.00000e+00	1.00000e+00	1.00000e+00	1.00000e+00	1.00000e+00	1.00000e+00	1.00000e+00	1.00000e+00	1.00000e+00	1.00000e+00	1.00000e+00	1.00000e+00	1.00000e+00	1.00000e+00	1.00000e+00	1.00000e+00	1.00000e+00	1.00000e+00	1.00000e+00	1.00000e+00	1.00000e+00	1.00000e+00	1.00000e+00	1.00000e+00	1.00000e+00	1.00000e+00	1.00000e+00	X	X	X	X	X	X	X	X	X	X	X	X	X	X	X	X	

B = Detector Channel
Val Type	B-AC1	B-AC2	B-AC3	B-AC4	B-AC5	B-AC6	B-AC7	B-AC8	B-AC9	B-AC10	B-AC11	B-AC12	B-AC13	B-AC14	B-AC15	B-AC16	B-DC1	B-DC2	B-DC3	B-DC4	B-DC5	B-DC6	B-DC7	B-DC8	B-DC9	B-DC10	B-DC11	B-DC12	B-DC13	B-DC14	B-DC15	B-DC16	B-Ph1	B-Ph2	B-Ph3	B-Ph4	B-Ph5	B-Ph6	B-Ph7	B-Ph8	B-Ph9	B-Ph10	B-Ph11	B-Ph12	B-Ph13	B-Ph14	B-Ph15	B-Ph16	

Term	0.00000e+00	0.00000e+00	0.00000e+00	0.00000e+00	0.00000e+00	0.00000e+00	0.00000e+00	0.00000e+00	0.00000e+00	0.00000e+00	0.00000e+00	0.00000e+00	0.00000e+00	0.00000e+00	0.00000e+00	0.00000e+00	0.00000e+00	0.00000e+00	0.00000e+00	0.00000e+00	0.00000e+00	0.00000e+00	0.00000e+00	0.00000e+00	0.00000e+00	0.00000e+00	0.00000e+00	0.00000e+00	0.00000e+00	0.00000e+00	0.00000e+00	0.00000e+00	-9.97839e+01	-1.27879e+02	-1.28521e+02	-1.82006e+02	-5.58992e+01	-7.33021e+01	-1.57810e+02	-1.62015e+02	-5.12818e+01	-6.74143e+01	-1.72403e+02	-1.70165e+02	-1.80574e+02	-1.76604e+02	-6.35904e+01	-1.48996e+02	
Factor	1.65874e-05	1.60630e-04	4.67225e-05	1.56642e-01	1.23825e-06	1.65992e-06	1.81458e-01	5.32774e-02	1.10927e-06	1.85625e-06	9.31568e-02	3.11199e-02	4.21576e-02	9.47623e-03	1.36244e-06	1.40405e-02	8.31017e-06	1.23189e-05	3.42039e-06	7.89887e-02	1.27350e-07	1.35954e-07	8.60234e-02	2.70087e-02	1.27156e-07	1.36589e-07	4.55214e-02	1.53836e-02	2.16466e-02	4.83925e-03	1.31139e-07	6.92868e-03	X	X	X	X	X	X	X	X	X	X	X	X	X	X	X	X	



#DISTANCE SETTINGS
A = Detector Channel
A-1	A-2	A-3	A-4	A-5	A-6	A-7	A-8	A-9	A-10	A-11	A-12	A-13	A-14	A-15	A-16	

2.5000e+00	3.0000e+00	2.5000e+00	3.0000e+00	2.0000e+00	3.0000e+00	1.5000e+00	3.0000e+00	3.0000e+00	3.0000e+00	3.0000e+00	3.0000e+00	3.0000e+00	3.0000e+00	1.5000e+00	3.0000e+00	

B = Detector Channel
B-1	B-2	B-3	B-4	B-5	B-6	B-7	B-8	B-9	B-10	B-11	B-12	B-13	B-14	B-15	B-16	

1.0000e+01	1.0000e+01	1.0000e+01	1.4400e+00	1.0000e+01	1.0000e+01	1.5100e+00	1.9400e+00	1.0000e+01	1.0000e+01	1.9900e+00	2.4900e+00	2.4100e+00	2.9000e+00	1.0000e+01	2.9800e+00	




#DATA BEGINS
time	group	step	mark	flag	A-AC1	A-AC2	A-AC3	A-AC4	A-AC5	A-AC6	A-AC7	A-AC8	A-AC9	A-AC10	A-AC11	A-AC12	A-AC13	A-AC14	A-AC15	A-AC16	A-DC1	A-DC2	A-DC3	A-DC4	A-DC5	A-DC6	A-DC7	A-DC8	A-DC9	A-DC10	A-DC11	A-DC12	A-DC13	A-DC14	A-DC15	A-DC16	A-Ph1	A-Ph2	A-Ph3	A-Ph4	A-Ph5	A-Ph6	A-Ph7	A-Ph8	A-Ph9	A-Ph10	A-Ph11	A-Ph12	A-Ph13	A-Ph14	A-Ph15	A-Ph16	B-AC1	B-AC2	B-AC3	B-AC4	B-AC5	B-AC6	B-AC7	B-AC8	B-AC9	B-AC10	B-AC11	B-AC12	B-AC13	B-AC14	B-AC15	B-AC16	B-DC1	B-DC2	B-DC3	B-DC4	B-DC5	B-DC6	B-DC7	B-DC8	B-DC9	B-DC10	B-DC11	B-DC12	B-DC13	B-DC14	B-DC15	B-DC16	B-Ph1	B-Ph2	B-Ph3	B-Ph4	B-Ph5	B-Ph6	B-Ph7	B-Ph8	B-Ph9	B-Ph10	B-Ph11	B-Ph12	B-Ph13	B-Ph14	B-Ph15	B-Ph16	aux-1	digaux	

3024.472	1	1	0	768	0.20324	0.19018	0.31408	0.10931	0.1497	0.15482	0.032934	0.17494	0.21331	0.22869	0.16965	0.11996	0.20367	0.24692	0.060373	0.28466	-2.7521	-2.4354	-3.2604	-2.9062	-2.6667	-3.3312	-2.7646	-3.0917	-3.25	-2.6	-3.2354	-2.9458	-2.6063	-3.3875	-2.7542	-2.9958	445.590	397.057	427.136	505.976	518.534	295.494	497.571	407.698	439.873	281.770	169.876	449.086	274.588	227.645	394.923	430.426	0.000579	0.00083248	0.00026565	892.66	1.7644e-05	4.5122e-06	1471.5	200.32	4.7477e-06	2.8759e-05	481.54	221.29	91.188	23.079	1.624e-05	76.418	0.0042776	0.0058844	0.0015619	701.92	5.9541e-05	6.0981e-05	1130.8	162	5.7334e-05	6.1544e-05	375.66	173.35	77.834	19.51	5.7238e-05	61.128	214.602	220.707	474.649	179.217	338.332	371.775	179.211	186.252	376.445	402.407	183.977	189.765	189.946	196.028	239.018	194.254	-8191	255	
3024.568	1	1	0	0	0.24197	0.048017	0.10598	0.20191	0.096442	0.046568	0.27018	0.11315	0.10424	0.060904	0.18924	0.19174	0.10287	0.22345	0.19079	0.1754	-2.8292	-2.5	-3.2521	-3.0958	-2.6333	-3.4708	-2.8312	-2.8708	-3.2646	-2.7521	-3.3396	-3.1562	-2.4458	-3.4542	-2.8167	-2.7833	515.761	333.128	321.332	199.039	313.905	473.842	449.466	396.436	478.451	190.136	507.941	495.626	483.324	517.680	292.970	198.750	0.00050682	0.0026155	0.0002845	896.53	6.4128e-06	1.7168e-05	1483.1	203.51	2.2012e-05	1.5603e-05	491.13	218.41	92.324	23.002	7.0256e-06	78.272	0.0038202	0.0052155	0.0014057	698.33	5.54e-05	5.6604e-05	1143.5	161.7	5.4457e-05	5.547e-05	381.58	172.8	78.012	19.314	5.4399e-05	62.118	237.122	290.780	385.862	180.230	413.150	391.859	178.427	185.045	344.892	276.692	184.017	189.494	190.093	196.306	209.610	193.772	-8191	255	
3024.664	1	1	0	0	0.20594	0.12514	0.11774	0.27183	0.22674	0.29586	0.38702	0.25567	0.13102	0.081202	0.071807	0.27409	0.25474	0.30399	0.18018	0.21606	-3.0146	-2.4792	-3.0583	-3.2687	-2.4792	-3.3583	-2.8771	-2.7812	-3.6021	-2.5187	-3.0458	-3.4354	-2.5542	-3.3063	-2.95	-2.8417	524.133	180.497	478.269	181.745	288.608	353.909	462.042	477.558	394.006	488.668	474.143	440.233	300.176	180.570	492.239	397.177	0.00054057	0.00043439	0.00026145	910.94	7.2398e-06	6.6455e-06	1492.4	204.83	1.0802e-05	5.9509e-06	492.68	221.4	92.119	22.665	6.276e-06	78.477	0.0037536	0.0053803	0.001425	707.71	5.7874e-05	5.784e-05	1147.9	163.78	5.7048e-05	6.0966e-05	385.98	173.6	78.824	19.312	5.8075e-05	62.397	233.783	330.967	471.289	179.560	334.453	403.055	178.838	185.872	367.005	197.907	183.471	189.195	190.526	196.438	349.341	194.055	-8191	255	
3024.761	1	1	0	0	0.18326	0.1716	0.10165	0.10999	0.30096	0.060743	0.40715	0.22794	0.072081	0.077066	0.02911	0.15797	0.10511	0.19217	0.19911	0.27209	-3.1479	-2.4917	-3.0375	-3.3208	-2.5333	-3.1979	-3.3063	-2.6625	-3.3375	-2.8292	-2.9229	-3.3604	-2.575	-3.2458	-3.0479	-2.7125	489.357	333.816	417.209	325.996	487.423	473.819	444.536	429.730	299.776	468.688	229.022	378.371	309.604	378.886	280.149	434.887	0.00071037	0.00063758	0.00037793	903.86	1.8328e-05	1.4655e-05	1487.7	203.89	7.5976e-06	1.2121e-05	482.45	225.78	94.115	22.843	7.9186e-06	78.22	0.0038836	0.0056923	0.0014703	702.57	5.7678e-05	5.8562e-05	1147.2	164.04	5.7508e-05	6.216e-05	378.92	176.64	79.942	19.427	5.8528e-05	62.383	227.834	272.322	169.131	179.338	284.156	374.353	179.017	185.289	229.483	248.833	183.789	188.983	190.755	196.467	260.021	194.257	-8191	255	
3024.857	1	1	0	0	0.12007	0.21976	0.090661	0.14595	0.1284	0.20075	0.24161	0.25902	0.059987	0.21043	0.12247	0.046377	0.18006	0.14128	0.1635	0.35767	-2.9354	-2.6458	-2.75	-3.4729	-2.6417	-3.3479	-3.3438	-2.5083	-3.3833	-2.8604	-2.9021	-3.5667	-2.7583	-3.1312	-3.3792	-2.7667	245.239	296.223	235.081	168.735	512.774	246.777	455.427	434.866	462.280	402.611	392.099	487.817	167.792	240.986	245.741	481.252	0.00052007	0.0024654	0.00027891	902.06	1.3308e-05	9.1006e-06	1470.5	206.01	5.6214e-06	6.5196e-06	466.83	227.03	95.387	22.897	2.0235e-05	76.516	0.0037944	0.0056651	0.0014559	704.04	5.5409e-05	5.4964e-05	1131.4	164.46	5.101e-05	5.6397e-05	369.55	178.05	79.855	19.338	5.5465e-05	61.01	219.733	284.814	232.295	179.482	182.726	329.093	178.831	185.510	431.345	231.338	183.944	189.355	189.469	195.601	253.227	194.531	-8191	255	
3024.953	1	1	0	0	0.26376	0.047804	0.29289	0.15085	0.24348	0.20658	0.28922	0.10076	0.22607	0.22829	0.032117	0.16727	0.044921	0.33159	0.12465	0.26051	-3.1375	-2.6625	-2.4938	-3.5208	-2.5729	-3.075	-3.3812	-2.6312	-3.2292	-2.95	-2.7875	-3.6042	-2.8	-3.2521	-3.3667	-2.6063	524.613	474.757	286.632	504.499	228.446	234.916	463.700	488.403	463.727	422.505	350.225	479.915	281.529	211.674	517.240	258.833	0.00076295	0.0024428	0.000106	915.22	8.1732e-06	2.7559e-05	1500.8	206.25	1.2371e-05	2.5599e-06	476.81	222.79	95.351	23.046	5.3614e-06	76.819	0.0035493	0.0052729	0.0014299	709.85	5.2894e-05	5.5342e-05	1147.1	164.69	5.263e-05	5.7776e-05	372.93	175.02	79.333	19.211	5.43e-05	60.68	233.360	217.954	196.362	179.698	336.031	299.341	179.052	185.613	519.554	441.207	184.023	189.052	189.599	197.467	291.736	193.914	-8191	255	
3025.073	1	1	0	0	0.14616	0.037267	0.25351	0.23258	0.2807	0.10713	0.21087	0.3231	0.1642	0.050127	0.10793	0.03968	0.1638	0.20347	0.1292	0.29151	-2.825	-3.15	-2.6479	-3.3271	-2.875	-2.8021	-3.5167	-2.6333	-3.1792	-3.1437	-2.5812	-3.5312	-2.8375	-2.8396	-3.3771	-2.5938	522.718	521.374	212.526	483.962	339.548	223.572	483.747	349.269	168.757	377.380	311.452	421.607	484.642	442.647	383.732	453.369	0.00062454	0.0010128	0.00063369	912.76	6.4613e-06	9.358e-06	1512.3	201.26	1.6394e-06	1.48e-05	497.99	217.25	94.472	22.649	7.537e-06	78.866	0.003332	0.0048876	0.0013402	711.4	4.8903e-05	5.1427e-05	1155.7	160.92	4.7176e-05	5.2353e-05	386.91	169.32	77.917	18.816	4.767e-05	61.657	226.292	173.108	239.883	179.865	249.073	350.949	178.924	186.002	458.489	374.605	183.322	189.350	189.430	196.403	349.776	194.425	-8191	255	
3025.168	1	1	0	0	0.20564	0.20706	0.18184	0.090961	0.18378	0.25771	0.13624	0.05255	0.21537	0.15253	0.1921	0.4411	0.28925	0.33828	0.11443	0.16275	-2.9396	-3.1937	-2.5333	-3.3604	-2.8375	-2.7667	-3.5104	-2.5	-3.1917	-3.3146	-2.5917	-3.4875	-2.8146	-2.4938	-3.5396	-2.675	349.169	282.818	478.945	449.303	420.330	442.488	524.666	453.205	317.086	361.975	433.004	167.768	226.653	500.862	374.012	484.596	0.00063076	0.0015631	0.00048396	936.02	1.1001e-05	5.2247e-06	1556.4	214.05	1.4176e-05	2.4848e-05	505.56	214.49	92.779	23.05	1.0668e-05	81.043	0.002994	0.004314	0.0011768	717.01	4.2128e-05	4.4993e-05	1182.4	167.78	3.9953e-05	4.5713e-05	392.07	166.82	76.561	18.851	4.0777e-05	63.106	223.152	420.154	238.223	180.304	330.948	371.160	178.409	185.510	321.078	278.724	183.897	189.540	189.590	195.900	489.771	194.000	-8191	255	
3025.264	1	1	0	0	0.062593	0.17308	0.2178	0.18707	0.4306	0.22092	0.31603	0.18629	0.061267	0.2594	0.38015	0.36675	0.2043	0.088644	0.12182	0.1362	-2.6396	-3.3792	-2.5646	-3.4875	-2.9458	-2.5687	-3.5667	-2.6208	-2.9146	-3.5083	-2.6979	-3.15	-3.1417	-2.6562	-3.4813	-2.8688	332.093	287.820	478.890	233.804	486.004	195.165	457.033	525.831	254.520	252.708	516.153	469.763	484.339	399.755	213.129	174.274	0.00067897	0.001187	0.00052713	959.12	6.7357e-06	2.4625e-05	1573.8	207.89	3.6973e-06	1.7203e-05	506.18	214.12	94.341	23.052	1.08e-05	81.583	0.0026205	0.0038869	0.0010281	731.77	3.8934e-05	4.0385e-05	1189.4	162.31	3.5391e-05	4.124e-05	395.15	166.04	76.579	18.859	3.8922e-05	63.581	208.688	237.549	447.203	179.539	271.088	336.838	179.439	185.049	174.459	514.358	183.335	189.045	188.830	196.046	293.473	193.580	-8191	255	
3025.360	1	1	0	0	0.19299	0.23149	0.20157	0.17645	0.19577	0.15684	0.23033	0.2822	0.14938	0.13244	0.10106	0.33802	0.16002	0.065311	0.18563	0.1975	-2.3854	-3.3375	-2.5667	-3.3063	-3.2104	-2.45	-3.4646	-2.6792	-2.6833	-3.2167	-2.75	-3.2479	-3.0792	-2.7396	-3.2854	-2.7417	317.346	295.130	472.231	479.124	469.595	464.346	429.583	255.114	252.877	364.924	324.739	173.604	523.185	304.947	305.347	477.341	0.00064802	0.00017105	0.00025377	969.04	3.0772e-06	1.8943e-05	1569.1	208.63	8.4926e-06	1.1198e-05	516.48	213.75	92.665	23.006	1.7587e-05	81.092	0.0025933	0.0036761	0.0010542	737.07	3.9313e-05	4.0864e-05	1193.4	162.34	3.5991e-05	3.9826e-05	398.06	164.95	75.572	18.723	3.7082e-05	63.205	221.706	314.912	217.436	179.519	419.157	346.477	178.573	185.455	398.440	288.456	183.171	189.266	189.064	196.354	286.365	193.822	-8191	255	
3025.456	1	1	0	0	0.18416	0.13295	0.077752	0.18985	0.18245	0.15554	0.5147	0.22174	0.05105	0.037644	0.19565	0.076971	0.2533	0.081042	0.18518	0.27445	-2.3833	-3.3688	-2.5042	-3.125	-3.1708	-2.6042	-3.4479	-2.8563	-2.6646	-3.4417	-2.7521	-2.925	-3.1875	-2.5333	-3.2167	-3.0271	453.545	458.139	269.234	488.768	391.766	500.424	461.803	518.989	386.758	264.452	211.051	358.518	288.767	515.221	204.653	484.491	0.00055409	0.0008847	0.00027493	992.49	5.8145e-06	7.5694e-06	1572.8	209.35	1.3875e-05	1.9122e-05	509.91	213.92	93.837	22.938	2.8695e-06	80.009	0.0026175	0.003528	0.0010102	754.71	3.8157e-05	4.0843e-05	1190	162.82	3.7483e-05	4.1285e-05	392.66	165.45	75.928	18.857	3.8262e-05	62.776	238.071	292.701	336.370	178.963	260.953	364.261	178.358	184.608	371.388	273.855	183.447	188.585	188.801	196.088	237.026	193.869	-8191	255	
3025.552	1	1	0	0	0.16018	0.24005	0.25348	0.16833	0.087218	0.20255	0.19469	0.29148	0.19509	0.13809	0.11714	0.089244	0.176	0.36568	0.0567	0.13357	-2.3	-3.3375	-2.6479	-3.0771	-3.3583	-2.6771	-3.3104	-3.1021	-2.7	-3.35	-2.9125	-2.8354	-3.2396	-2.3729	-3.2208	-3.1542	185.219	278.879	265.292	512.831	417.020	320.319	504.837	371.894	488.536	404.241	274.636	477.622	307.942	171.539	417.029	456.213	0.00065625	0.0016449	0.00039865	964.51	1.2046e-05	1.904e-05	1565.9	206.97	5.0696e-06	1.4291e-05	494.29	212.2	93.584	22.64	1.0488e-05	79.204	0.0027985	0.0035521	0.0010405	738.69	3.9928e-05	4.26e-05	1189	163.99	4.0909e-05	4.3753e-05	380.94	164.5	75.796	18.729	4.3225e-05	62.211	232.590	250.243	186.684	179.300	401.403	346.881	178.672	184.781	404.977	255.576	183.620	189.639	189.525	196.944	352.325	193.453	-8191	255	
3025.673	1	1	0	0	0.19633	0.16552	0.16454	0.28932	0.10276	0.094705	0.33119	0.30355	0.34944	0.21714	0.20618	0.20547	0.095871	0.17238	0.17853	0.14613	-2.3125	-3.4188	-2.7562	-2.9437	-3.4208	-2.6604	-3.3792	-3.2625	-2.5229	-3.4	-2.9625	-2.8542	-3.3208	-2.5125	-3.1396	-3.1917	248.443	207.802	370.685	450.917	325.263	217.622	448.857	323.199	209.785	413.476	521.133	479.565	316.328	356.604	259.476	514.647	0.00063838	0.00050637	0.00044961	939.88	1.1087e-05	2.3203e-05	1564.1	204.52	1.7586e-06	2.174e-05	480.77	216.6	92.419	21.504	1.708e-05	77.303	0.0031671	0.004037	0.0012142	721.43	4.4417e-05	4.7758e-05	1190.4	162.39	4.4634e-05	4.7807e-05	374.57	168.13	75.995	18.014	4.4095e-05	60.936	224.209	397.103	192.530	179.620	380.640	370.169	178.666	184.991	393.468	273.326	183.795	189.247	190.024	196.878	179.867	193.836	-8191	255	
3025.769	1	1	0	0	0.11185	0.15343	0.10047	0.082675	0.04999	0.15834	0.19612	0.13016	0.084546	0.099037	0.15165	0.31543	0.15189	0.088466	0.24999	0.18713	-2.0604	-3.2438	-2.8458	-2.7125	-3.4042	-2.7188	-2.9542	-3.2292	-2.4771	-3.2917	-3.0208	-2.6542	-3.3771	-2.8292	-2.9	-3.4625	373.152	280.584	319.160	460.489	463.846	251.773	418.668	370.426	443.206	253.571	188.188	169.528	522.979	344.221	325.087	483.281	0.00055429	0.00204	0.00013925	903.1	4.22e-06	1.3462e-05	1523.4	208.58	1.5261e-05	5.9152e-06	487.77	218.32	94.12	22.27	9.5215e-06	77.816	0.0033639	0.0042971	0.0012814	698.36	4.676e-05	4.9355e-05	1159.6	166.1	4.8813e-05	4.9311e-05	383.2	170.47	77.657	18.606	4.8331e-05	61.615	229.310	320.070	420.381	179.738	400.905	353.519	179.299	185.285	213.169	487.711	183.754	189.599	189.738	197.076	340.330	193.795	-8191	255	
3025.865	1	1	0	0	0.41546	0.44714	0.087875	0.14326	0.088217	0.079941	0.42021	0.17233	0.25261	0.17074	0.15229	0.19871	0.19188	0.36387	0.24676	0.076691	-2.1333	-3.2042	-3.0625	-2.6312	-3.5687	-2.85	-3.0062	-3.4833	-2.6292	-3.2229	-3.0521	-2.6333	-3.3979	-2.8167	-2.6292	-3.4875	172.217	281.462	283.212	307.287	286.203	286.533	519.348	386.257	174.011	431.539	330.592	527.190	402.851	206.145	278.113	263.085	0.00055523	0.0012801	0.00048021	910.82	5.106e-06	1.1857e-05	1508.3	202.46	9.0895e-06	1.6529e-05	494.13	215.98	93.027	21.931	4.8129e-06	76.4	0.0033337	0.0044858	0.0013288	699.91	4.7273e-05	4.8975e-05	1154.4	160.09	4.8571e-05	4.8893e-05	385.83	168.62	77.229	18.483	4.6786e-05	60.624	225.670	527.259	262.864	180.147	345.234	318.933	178.914	186.037	334.044	357.979	183.748	189.560	190.027	196.742	244.266	194.114	-8191	255	
3025.962	1	1	0	0	0.087742	0.18878	0.42852	0.10616	0.11768	0.056723	0.085425	0.24376	0.097599	0.20274	0.11486	0.17259	0.13049	0.21385	0.26665	0.30102	-2.2729	-2.7979	-3.0375	-2.5875	-3.3312	-2.8333	-2.7667	-3.3646	-2.6458	-2.8729	-3.1667	-2.6417	-3.4292	-2.95	-2.6521	-3.3812	363.951	268.890	246.194	486.401	462.711	221.495	473.227	379.725	251.979	180.925	418.437	500.268	199.197	258.604	288.556	520.767	0.00052043	0.0022136	0.00052575	914.2	1.3133e-05	1.2257e-05	1484.6	195.8	1.1876e-05	1.8361e-05	491.43	208.64	92.219	22.029	1.6526e-05	77.076	0.0031767	0.0042427	0.0012692	704.77	4.3393e-05	4.7768e-05	1140.7	154.68	4.5024e-05	4.5831e-05	380.38	162.48	76.006	18.449	4.6028e-05	61.041	222.154	220.352	294.265	179.195	346.077	505.168	179.024	184.875	434.571	343.047	183.446	189.053	189.426	196.083	244.734	193.180	-8191	255	
3026.033	1	1	0	0	0.012847	0.12294	0.13382	0.16633	0.022257	0.0687	0.3474	0.2079	0.12264	0.23855	0.18773	0.22231	0.056079	0.11077	0.24651	0.15241	-2.3667	-2.8063	-3.1937	-2.4375	-3.2438	-3.0979	-2.7583	-3.3563	-2.7542	-3.0229	-3.4229	-2.5958	-3.1771	-3.2333	-2.4042	-3.4729	487.043	483.250	341.230	220.191	221.044	332.789	486.580	471.986	428.370	196.275	202.399	437.625	470.191	411.725	317.765	492.347	0.00055113	0.00097999	0.00054813	929.83	2.2589e-05	1.0437e-05	1502.3	197.57	9.3641e-06	2.0556e-05	487.45	210.43	92.064	22.094	1.4884e-05	77.707	0.0031151	0.0044314	0.0012745	713.47	4.4213e-05	4.9525e-05	1148	156.55	4.6182e-05	4.7672e-05	382.54	163.81	76.552	18.509	4.6914e-05	61.325	226.828	316.471	277.061	179.804	328.462	192.530	178.919	185.357	304.590	231.439	183.652	189.359	190.255	196.247	350.640	193.063	-8191	255	
3026.152	1	1	0	0	0.22171	0.11512	0.17078	0.10296	0.34417	0.22001	0.3399	0.1776	0.096196	0.15926	0.14317	0.097032	0.055572	0.10798	0.24567	0.062672	-2.4646	-2.8833	-3.2375	-2.6333	-3.3771	-3.25	-2.7792	-3.5208	-2.9667	-2.7708	-3.4625	-2.8021	-3.0458	-3.2583	-2.5396	-3.4792	354.178	492.411	214.142	178.315	223.409	271.794	505.277	468.979	180.115	342.550	194.366	489.939	456.532	418.168	227.543	510.829	0.00044038	0.00025284	0.00028792	925.32	3.6054e-06	2.5234e-05	1510.1	197.13	1.1701e-05	1.2016e-05	491.87	207.76	92.64	22.4	1.487e-05	79.24	0.0031884	0.0045001	0.0012289	715.64	4.3214e-05	5.0022e-05	1155.3	155.91	4.5787e-05	4.8153e-05	382.83	162.9	76.606	18.559	4.6854e-05	61.661	234.233	357.100	266.062	179.759	198.623	362.252	178.921	185.654	393.043	441.791	183.488	189.240	190.021	195.659	478.202	193.808	-8191	255	
3026.250	1	1	0	0	0.16573	0.2142	0.20152	0.1701	0.24266	0.10111	0.13148	0.2082	0.37969	0.26057	0.25451	0.22334	0.33488	0.074531	0.25574	0.17797	-2.3896	-2.7562	-3.3625	-2.6625	-2.9917	-3.4458	-2.8083	-3.4458	-3.0458	-2.8896	-3.4208	-2.8438	-2.9542	-3.5375	-2.4833	-3.4479	521.143	351.834	398.838	430.356	390.020	283.904	471.339	514.754	403.775	243.290	417.025	454.726	274.276	301.324	325.871	489.979	0.00064365	0.0021288	0.00013297	924.47	1.2572e-05	9.7395e-06	1518.3	199.24	3.8193e-06	2.2046e-05	492.05	209.98	94.49	22.373	6.4373e-06	79.596	0.0032345	0.0044355	0.0011944	713.18	4.286e-05	5.0047e-05	1162.6	157.29	4.614e-05	4.8161e-05	383.5	163.59	77.74	18.58	4.724e-05	62.336	226.038	269.639	497.881	179.887	338.709	406.497	178.588	185.359	490.202	406.465	183.745	188.470	190.669	195.986	304.574	193.362	-8191	255	
3026.344	1	1	0	0	0.035701	0.12653	0.11728	0.38984	0.27372	0.24502	0.26979	0.12441	0.073739	0.10363	0.014104	0.26517	0.11144	0.09312	0.20227	0.16665	-2.7396	-2.6396	-3.2771	-2.7417	-2.9062	-3.4583	-2.825	-3.1875	-3.1146	-2.8104	-3.5917	-2.775	-2.9979	-3.2771	-2.6021	-3.2521	357.001	479.138	388.299	459.395	406.904	518.667	458.666	503.855	395.903	168.329	348.069	487.932	347.013	261.322	470.191	516.724	0.00057924	0.0019259	0.00035563	939.94	2.2041e-06	1.7664e-05	1524.3	198.75	9.9169e-06	2.4345e-05	486.62	207.77	93.798	22.34	1.0518e-05	77.506	0.003149	0.0044505	0.0011592	719.47	4.3589e-05	4.7308e-05	1161.7	158.19	4.5565e-05	4.6713e-05	378.33	162.16	77.101	18.507	4.602e-05	61.101	215.840	230.345	255.257	179.937	417.659	339.928	178.771	185.034	464.435	328.268	183.009	189.348	190.077	195.732	381.757	193.140	-8191	255	
3026.441	1	1	0	0	0.31608	0.044312	0.19984	0.064359	0.21304	0.19192	0.32541	0.14185	0.16454	0.13912	0.36457	0.49809	0.073054	0.086541	0.071809	0.32411	-2.7313	-2.4458	-3.4542	-2.8563	-2.6354	-3.3333	-2.8396	-3.05	-3.2125	-2.4917	-3.3312	-3.0062	-2.65	-3.2521	-2.5708	-3.1104	336.326	342.903	342.496	259.858	366.782	425.935	459.209	196.895	269.421	226.028	423.381	524.974	194.125	475.613	192.440	478.638	0.00070184	0.0016363	0.00033334	926.97	4.2634e-06	1.0744e-05	1524.2	203.85	7.0213e-06	8.9932e-06	476.03	208.35	93.041	22.292	1.9851e-05	77.908	0.0031534	0.0041835	0.0010858	718.72	4.2836e-05	4.6642e-05	1160.6	159.41	4.3641e-05	4.7571e-05	372.71	161.47	76.814	18.384	4.4859e-05	61.236	224.459	256.436	442.809	179.165	174.495	391.794	179.158	185.196	328.275	283.694	183.480	188.962	189.717	196.211	294.404	193.473	-8191	255	
3026.561	1	1	0	0	0.16571	0.20122	0.12977	0.25696	0.11725	0.15797	0.11907	0.15612	0.31544	0.14498	0.074585	0.37196	0.18608	0.13963	0.043461	0.14506	-2.8979	-2.4917	-3.1021	-2.9375	-2.6833	-3.45	-2.9167	-2.9688	-3.3208	-2.6104	-3.1854	-3.0646	-2.5792	-3.2771	-2.4583	-2.8417	498.143	355.680	168.677	171.638	446.384	364.930	368.778	305.902	419.544	507.460	170.042	502.205	501.235	171.485	472.785	464.796	0.00055883	0.0013046	0.00073895	927.46	1.8525e-05	2.3444e-06	1537.8	199.82	1.8026e-05	1.4604e-05	480.89	205.56	91.952	22.017	1.3504e-05	78.352	0.0030021	0.0041801	0.0010906	712.82	4.2694e-05	4.5203e-05	1162.8	158.63	4.3028e-05	4.746e-05	372.16	160.96	76.534	18.285	4.5624e-05	61.346	222.625	327.174	224.207	179.451	273.999	300.702	179.043	185.467	247.505	290.419	183.784	189.362	189.516	195.331	506.883	193.365	-8191	255	
3026.633	1	1	0	0	0.20948	0.24368	0.081321	0.21061	0.078089	0.25376	0.3495	0.20213	0.28453	0.19196	0.12644	0.29819	0.16003	0.11284	0.25116	0.26706	-3.0104	-2.5979	-3.1688	-3.1188	-2.6333	-3.275	-2.7188	-2.6875	-3.3896	-2.6562	-3.1771	-3.0625	-2.4688	-3.4708	-3.0833	-2.8125	384.482	456.995	434.838	521.156	174.800	337.005	506.023	513.943	434.658	214.181	480.199	180.118	335.078	183.890	238.346	470.894	0.00063892	0.0024203	0.00023673	928.6	1.1541e-05	1.7702e-05	1545.6	195.28	1.392e-05	9.7442e-06	484.74	207.68	89.627	21.782	1.455e-06	76.753	0.0030987	0.0042973	0.00113	712.97	4.5166e-05	4.6593e-05	1169.9	154.19	4.6016e-05	4.9992e-05	376.74	163.25	74.855	18.249	5.1269e-05	60.822	223.361	294.327	259.309	179.458	234.757	314.737	178.181	186.027	390.045	307.741	183.277	189.268	189.698	196.694	485.807	193.895	-8191	255	
3026.753	1	1	0	0	0.2886	0.14317	0.13602	0.21062	0.10825	0.099224	0.21357	0.27889	0.11016	0.185	0.19724	0.093703	0.16744	0.10863	0.45012	0.16666	-3.0771	-2.5104	-2.9417	-3.3083	-2.4271	-3.3563	-2.9958	-2.7625	-3.5146	-2.8625	-3.1146	-3.2646	-2.55	-3.2208	-2.8854	-2.8521	179.147	188.816	383.175	285.137	432.858	204.740	459.438	399.168	498.828	395.493	503.825	211.092	381.249	191.573	469.271	498.248	0.00046351	0.0012776	0.00026201	921.86	1.6668e-05	1.4311e-05	1508.9	202.68	1.6193e-06	4.8231e-06	488.64	214.29	90.126	21.964	1.1244e-05	76.893	0.0033584	0.0047244	0.0013037	711.89	5.1238e-05	5.0474e-05	1159.6	161.08	4.8709e-05	5.4163e-05	382.01	167.4	76.434	18.394	5.1818e-05	60.794	203.896	177.102	333.210	179.741	283.901	280.910	178.896	185.692	482.813	501.713	183.390	189.342	189.957	195.986	338.018	193.831	-8191	255	
3026.850	1	1	0	0	0.30482	0.28222	0.10192	0.11503	0.091652	0.081475	0.19565	0.1052	0.2256	0.12077	0.085202	0.2418	0.34636	0.079781	0.20467	0.015983	-2.9521	-2.6	-2.8458	-3.3292	-2.7375	-3.2625	-3.0062	-2.7729	-3.3625	-2.8771	-2.8479	-3.3812	-2.6479	-3.175	-3.0854	-2.6063	483.363	399.667	297.141	456.204	265.136	492.538	195.850	390.570	432.648	464.411	319.451	506.826	288.261	169.424	426.397	349.820	0.0004678	0.00069813	0.00048027	919.13	4.1419e-06	1.4838e-05	1512.4	202.55	7.8865e-06	1.0328e-05	482.95	211.26	92.538	21.975	1.2427e-05	75.257	0.0033859	0.0049134	0.0013425	712.07	5.1266e-05	5.2273e-05	1160.7	161.18	4.8882e-05	5.6967e-05	378.54	164.64	76.515	18.29	5.3058e-05	59.856	226.081	266.195	221.162	180.090	429.048	401.993	178.515	185.440	361.255	286.148	183.660	189.158	189.893	195.990	314.915	193.584	-8191	255	
3026.946	1	1	0	0	0.037226	0.096142	0.039442	0.08943	0.14568	0.26883	0.32321	0.19705	0.19114	0.14741	0.02342	0.30562	0.13545	0.07817	0.076876	0.13308	-2.9625	-2.8063	-2.7167	-3.425	-2.6146	-2.9625	-3.2458	-2.7333	-3.4042	-2.8979	-2.8896	-3.4146	-2.5896	-2.9583	-3.2042	-2.5333	385.183	417.090	278.366	434.423	216.561	487.612	499.822	382.142	167.800	507.493	315.971	466.335	521.320	389.986	380.422	472.344	0.00077916	0.0033535	0.00036417	919.32	1.1607e-05	1.5318e-05	1524.9	198.94	5.5747e-06	2.0162e-05	481.17	210.95	91.692	21.744	1.7353e-06	75.443	0.0033641	0.0046595	0.0013461	710.93	5.0424e-05	5.1013e-05	1169.3	158.68	4.6785e-05	5.5235e-05	378.49	164.75	76.247	18.43	5.2221e-05	59.817	247.579	251.568	238.129	179.592	292.522	396.119	178.530	185.091	355.247	407.357	184.047	188.706	189.712	196.480	348.888	193.986	-8191	255	
3027.042	1	1	0	0	0.13383	0.010298	0.15316	0.13948	0.131	0.20171	0.13355	0.28946	0.15143	0.2121	0.22335	0.051846	0.22344	0.14444	0.18796	0.073076	-2.8229	-2.7562	-2.7	-3.6021	-2.8021	-3.0312	-3.4854	-2.6063	-3.2021	-2.8542	-2.8187	-3.6667	-2.7917	-2.9646	-3.1208	-2.4667	389.575	430.099	175.968	471.734	272.272	326.520	426.890	500.831	261.184	500.465	198.286	425.284	496.648	502.967	174.801	267.338	0.00071533	0.0021132	0.00040629	928.15	8.7771e-06	1.6021e-05	1572.8	199.9	1.6688e-05	3.2569e-05	493.89	211.99	91.441	22.021	7.5073e-06	76.384	0.0033078	0.0050037	0.0013871	719.09	5.0706e-05	5.1428e-05	1196.6	158.95	4.7688e-05	5.5425e-05	384.81	165.67	77.029	18.569	5.2457e-05	60.508	225.882	283.911	321.560	179.627	365.820	218.040	178.750	184.849	407.321	379.301	184.020	189.148	189.502	196.249	258.369	193.528	-8191	255	
3027.163	1	1	0	0	0.19279	0.056675	0.22121	0.04365	0.07374	0.088272	0.21667	0.15898	0.17597	0.09104	0.064054	0.22589	0.16067	0.1525	0.13972	0.2764	-2.9813	-3.0458	-2.7521	-3.4854	-2.9	-2.8729	-3.5333	-2.7812	-3.2	-3.2708	-2.7729	-3.4354	-2.7646	-2.7292	-3.4667	-2.7562	309.092	215.174	171.244	508.332	238.058	220.527	453.123	513.940	507.697	287.001	495.784	443.299	520.970	522.368	198.527	453.785	0.00053792	0.0013029	0.00021519	929.02	1.0398e-05	5.8017e-06	1546.1	200.45	1.8852e-05	1.6839e-05	496.76	212.22	92.189	22.576	9.946e-06	77.396	0.0033891	0.0050382	0.0013941	719.21	5.1773e-05	5.3856e-05	1187.8	160.26	4.9629e-05	5.5432e-05	385.58	166.28	77.082	18.925	4.9158e-05	60.893	229.873	241.496	343.846	179.592	265.824	368.807	179.007	185.340	381.316	207.892	183.782	189.264	189.084	195.725	310.206	193.758	-8191	255	
3027.257	1	1	0	0	0.22682	0.16252	0.1998	0.11253	0.16181	0.33387	0.31905	0.23201	0.12682	0.15982	0.17906	0.21974	0.12113	0.054385	0.080867	0.14779	-2.8375	-3.1562	-2.6333	-3.4458	-2.9896	-2.8146	-3.6333	-2.5	-3.1958	-3.3104	-2.6458	-3.3958	-2.9313	-2.8917	-3.3979	-2.7479	456.077	214.431	477.786	428.419	522.442	247.508	450.237	408.950	168.233	356.532	233.606	171.205	461.029	455.732	386.827	502.006	0.00046976	0.0020938	0.00031977	934.98	1.0953e-05	1.121e-05	1545.5	200.93	1.0833e-05	1.7968e-05	492.94	213.52	91.593	22.663	1.0903e-05	77.763	0.0033609	0.0049005	0.0013677	718.71	5.2017e-05	5.4893e-05	1181.7	160.43	4.9539e-05	5.3958e-05	387.15	167.22	77.513	18.954	5.1311e-05	61.064	239.431	223.226	401.822	180.085	319.213	265.724	178.793	185.355	341.837	382.936	183.481	189.155	189.342	195.971	339.492	193.798	-8191	255	
3027.353	1	1	0	0	0.098354	0.11229	0.066636	0.070309	0.049527	0.40977	0.32297	0.29516	0.15854	0.12123	0.29001	0.15173	0.28663	0.085401	0.12298	0.29138	-2.6854	-3.3937	-2.4833	-3.3021	-3.0375	-2.7021	-3.5021	-2.7854	-2.9083	-3.3187	-2.5687	-3.1771	-3.0187	-2.625	-3.6125	-2.8604	191.403	466.831	294.879	474.763	174.086	494.954	433.238	339.385	482.869	435.168	491.002	354.215	171.176	446.856	450.722	468.225	0.00046355	0.00088614	0.00025604	928.98	9.0195e-06	3.2583e-06	1549.4	199.92	7.4834e-06	2.263e-05	487.53	209.98	92.691	22.422	1.5658e-05	76.557	0.0034783	0.0048423	0.0013877	718.87	5.011e-05	5.4395e-05	1182.9	159.55	4.9632e-05	5.3458e-05	382.98	164.9	77.641	18.871	4.9799e-05	60.395	237.442	304.668	494.047	180.242	442.822	486.296	178.493	185.638	380.643	399.891	184.003	188.695	189.662	196.379	376.443	193.486	-8191	255	
3027.449	1	1	0	0	0.19433	0.05124	0.15582	0.11248	0.037656	0.27571	0.029142	0.1964	0.17314	0.23518	0.22645	0.11977	0.2773	0.038586	0.070182	0.14502	-2.4313	-3.4104	-2.6875	-3.25	-3.1125	-2.5875	-3.6958	-2.7979	-2.7021	-3.4604	-2.6813	-3.0312	-3.2083	-2.4521	-3.2646	-2.8646	231.398	270.574	384.100	212.604	313.872	322.768	255.043	508.588	262.437	408.178	170.467	272.990	226.074	376.900	388.727	427.559	0.00065257	0.0010303	0.00024632	948.05	1.029e-05	1.505e-05	1579.4	202.51	8.1995e-06	3.1537e-05	490.09	210.12	94.294	22.283	6.5341e-06	77.088	0.0035241	0.0047612	0.0013465	728.67	4.999e-05	5.7051e-05	1203.1	161.05	5.0873e-05	5.1534e-05	383.14	164.31	78.171	18.785	4.8631e-05	60.629	227.105	398.063	278.515	179.690	318.319	318.646	178.352	185.354	379.488	250.816	182.863	189.096	189.616	196.421	285.845	193.586	-8191	255	
3027.545	1	1	0	0	0.012334	0.21138	0.16432	0.12587	0.22543	0.062192	0.34422	0.18556	0.0959	0.1907	0.24687	0.16027	0.08126	0.40748	0.21426	0.2792	-2.3438	-3.4042	-2.675	-3.1417	-3.1625	-2.5229	-3.3	-3.0833	-2.7729	-3.4458	-2.8396	-2.9896	-3.4708	-2.6104	-3.2333	-3.2062	244.686	453.650	255.808	397.093	430.494	170.525	444.969	440.153	190.327	277.800	455.918	394.684	268.643	500.489	354.246	400.312	0.00066144	0.0009034	8.5377e-05	930.09	8.573e-06	1.1955e-05	1583.4	205.37	1.7093e-05	1.9585e-05	491.69	209.48	94.844	22.491	7.3758e-06	77.534	0.0035612	0.0047094	0.0013297	718.28	4.9281e-05	5.3059e-05	1209.3	163.21	5.1793e-05	5.0574e-05	384.99	163.69	79.109	18.973	5.0006e-05	61.35	216.593	254.724	182.059	179.721	308.345	394.740	178.595	185.172	316.949	325.122	183.274	189.544	189.380	196.270	303.202	193.424	-8191	255	
3027.642	1	1	0	0	0.050279	0.19692	0.13291	0.042317	0.12495	0.23688	0.15793	0.37484	0.11428	0.094426	0.24341	0.20778	0.027126	0.27964	0.12505	0.29957	-2.175	-3.1688	-2.6813	-2.9	-3.2917	-2.4979	-3.3417	-3.1875	-2.6896	-3.3812	-2.8229	-2.8042	-3.4729	-2.5312	-3.1562	-3.3312	392.784	404.054	398.683	338.106	509.046	444.763	454.084	463.492	320.728	228.590	324.962	185.649	430.381	498.766	184.138	463.495	0.00063513	0.0022411	0.00019945	932.4	4.8397e-06	2.3831e-05	1598.8	205.58	3.7511e-06	1.0389e-05	494.98	208.76	95.172	22.633	2.1389e-05	77.597	0.0035216	0.0047471	0.0013741	720.56	4.998e-05	5.5487e-05	1223.3	164.28	5.1271e-05	4.9609e-05	386.32	164.51	79.396	19.039	5.158e-05	61.392	230.709	296.817	416.966	179.334	439.790	326.530	179.070	185.251	381.542	194.149	183.725	189.349	189.533	196.305	346.454	193.616	-8191	255	
3027.738	1	1	0	0	0.1589	0.16183	0.23248	0.15707	0.24528	0.10482	0.23431	0.10243	0.10876	0.29633	0.12109	0.1477	0.16457	0.091456	0.20624	0.079584	-2.0333	-3.425	-2.8542	-3.0333	-3.25	-2.4979	-3.2812	-3.1208	-2.5833	-3.3167	-2.9042	-2.7458	-3.4104	-2.7146	-3.0312	-3.3604	515.223	325.110	467.147	176.767	495.200	254.775	504.856	483.301	201.452	379.990	249.457	507.127	432.628	242.887	382.562	438.823	0.00043122	0.00023811	0.00073437	918.23	9.4192e-06	1.1325e-05	1603.6	207.44	6.5692e-06	1.1531e-05	489.22	209.41	94.745	22.323	6.9295e-06	77.075	0.0036414	0.0047426	0.0013399	716.44	4.8082e-05	5.4211e-05	1219.5	164.43	5.2204e-05	5.0142e-05	382.62	163.74	78.459	18.885	5.1412e-05	61.173	225.795	296.356	209.456	179.682	229.983	520.946	178.623	185.354	425.473	264.852	183.470	188.808	189.897	196.391	251.167	192.933	-8191	255	
3027.858	1	1	0	0	0.31025	0.26235	0.33197	0.23221	0.26692	0.0902	0.26527	0.15091	0.16314	0.080352	0.13207	0.34454	0.050904	0.23109	0.18444	0.28516	-2.2417	-3.2771	-2.9708	-2.4688	-3.4313	-2.4646	-3.0271	-3.3812	-2.5083	-3.1917	-3.0104	-2.6813	-3.4521	-2.6583	-2.9354	-3.4938	319.452	245.709	509.036	194.246	184.228	397.290	413.869	441.480	313.754	490.273	476.535	471.650	266.595	477.787	525.611	462.909	0.0005511	0.001051	0.00059101	924.05	1.2119e-05	3.6318e-06	1587.8	203.66	1.266e-05	3.2578e-06	480.19	207.12	93.894	22.399	2.2599e-05	75.863	0.0034449	0.0046676	0.0013213	718.26	4.7705e-05	5.3237e-05	1214.2	162.64	5.2655e-05	5.2342e-05	377.96	161.51	78.07	18.676	4.9989e-05	60.24	232.626	236.708	216.261	179.969	371.422	308.238	178.776	185.073	419.972	236.700	183.571	189.233	189.734	195.922	240.726	193.830	-8191	255	
3027.930	1	1	0	0	0.13814	0.15483	0.1297	0.092665	0.095049	0.2049	0.1708	0.14515	0.11114	0.16577	0.1437	0.15048	0.191	0.21753	0.16926	0.18208	-2.1312	-3.0146	-2.8979	-2.5062	-3.35	-2.8479	-3.0771	-3.3583	-2.6083	-3.1833	-3.2896	-2.5104	-3.3708	-2.8979	-2.7542	-3.4771	328.099	318.596	365.124	514.027	442.240	515.776	410.692	443.409	336.387	259.995	364.346	453.839	406.261	198.083	327.726	459.927	0.00060967	0.0025601	1.3059e-05	913.4	1.0477e-05	3.0103e-05	1573.7	201.65	8.2324e-06	2.5016e-05	471.99	205.16	92.48	22.541	6.6211e-06	75.705	0.0034622	0.0046117	0.0013556	709.71	4.7788e-05	5.2455e-05	1198.5	161.08	4.933e-05	5.2606e-05	371.22	160.96	77.172	18.773	5.2155e-05	59.952	216.925	340.793	452.518	179.766	248.727	323.588	179.089	185.200	219.836	219.346	183.835	189.362	189.634	195.925	372.939	193.734	-8191	255	
3028.026	1	1	0	0	0.073885	0.090643	0.20685	0.20585	0.13308	0.25338	0.039832	0.1593	0.095958	0.26268	0.19911	0.26893	0.19427	0.12251	0.18319	0.29637	-2.1396	-3.0312	-3.2375	-2.5271	-3.3021	-2.9354	-2.8646	-3.3667	-2.6312	-2.8312	-3.2917	-2.6125	-3.3312	-2.9854	-2.4708	-3.4896	188.012	299.433	475.882	270.878	265.004	469.435	461.365	468.043	459.865	269.679	192.782	424.311	252.869	479.706	206.876	456.637	0.00059308	0.0013497	0.00019103	916.06	1.2595e-05	1.3886e-05	1551.8	202.32	9.2831e-06	1.9753e-05	471.56	205.53	93.546	22.365	1.8552e-05	76.924	0.0034682	0.0047622	0.0013465	711.19	4.8627e-05	5.3293e-05	1192.6	160.91	4.8678e-05	5.378e-05	371.44	161.36	78.004	18.619	5.1697e-05	60.854	229.004	397.172	168.212	179.635	479.647	389.949	179.121	185.025	252.233	210.615	183.813	189.746	189.566	196.610	378.617	193.311	-8191	255	
3028.122	1	1	0	0	0.0586	0.19551	0.011943	0.17424	0.17483	0.031141	0.29516	0.13678	0.18751	0.14944	0.29324	0.35492	0.079096	0.083503	0.086164	0.32041	-2.2104	-2.6667	-3.3354	-2.5333	-3.0833	-3.225	-2.6042	-3.2104	-2.7521	-2.7812	-3.3375	-2.7104	-3.1792	-2.9833	-2.4542	-3.2958	490.166	181.037	208.901	506.618	283.697	213.346	470.758	479.572	176.203	279.524	489.415	491.838	355.045	419.818	301.824	359.063	0.00051332	0.00093103	0.00059526	915.87	9.7322e-06	8.2297e-06	1556.3	205.14	1.1286e-05	1.5474e-05	478.51	208.8	95.688	23.107	2.5746e-06	78.071	0.0033347	0.0047325	0.0013401	709.61	4.8223e-05	5.0855e-05	1192.9	162.41	4.6913e-05	5.2345e-05	373.98	162.69	78.528	19.035	5.0672e-05	61.521	240.387	294.222	239.865	179.774	399.761	340.231	179.340	185.324	267.274	282.601	183.011	188.927	189.489	195.962	250.736	193.289	-8191	255	
3028.241	1	1	0	0	0.23987	0.034637	0.12028	0.21042	0.061287	0.02788	0.15995	0.039849	0.17235	0.14174	0.1119	0.13187	0.14453	0.13949	0.1821	0.16256	-2.1917	-2.775	-3.2708	-2.7083	-3.1708	-3.0854	-2.6708	-3.4354	-2.6417	-2.7833	-3.4562	-2.5917	-3.1312	-3.2104	-2.3625	-3.3583	426.124	471.055	367.567	480.333	431.325	186.993	461.224	428.240	500.462	213.127	513.395	235.091	474.475	309.092	212.299	513.190	0.00054021	0.0018587	0.00049466	927.37	4.341e-06	9.181e-06	1596.2	206.97	1.0988e-06	1.4958e-05	485.3	210.64	93.742	22.718	2.0297e-05	78.433	0.0033057	0.0045757	0.0012593	719.51	4.7072e-05	5.0213e-05	1218.2	163.93	4.6956e-05	5.3022e-05	378.18	163.91	77.967	19.197	4.8593e-05	61.915	229.592	449.483	295.736	179.701	172.079	254.042	178.901	185.547	300.808	357.102	183.683	189.151	189.620	195.256	315.703	193.497	-8191	255	
3028.337	1	1	0	0	0.078784	0.16713	0.10978	0.37259	0.13493	0.098173	0.33163	0.065725	0.24941	0.18662	0.11656	0.10591	0.051647	0.078055	0.13838	0.11529	-2.5208	-2.6333	-3.3479	-2.625	-3	-3.1813	-2.6771	-3.175	-2.8979	-2.7604	-3.4104	-2.7125	-2.8229	-3.2583	-2.4396	-3.1854	313.747	415.536	243.666	517.841	488.761	224.629	456.816	279.180	394.187	390.638	297.643	505.261	517.501	430.636	449.944	519.309	0.00045063	0.00025377	0.00024402	925.47	3.5446e-06	1.5858e-05	1578.5	202.2	1.0857e-05	1.3386e-05	476.5	205.8	93.96	22.553	1.4301e-05	76.809	0.0032958	0.004722	0.0012763	715.57	4.9153e-05	4.9906e-05	1211	162.43	4.9489e-05	5.3483e-05	374.64	161.55	78.249	18.878	5.1275e-05	60.661	242.345	492.942	402.373	179.731	243.026	299.456	178.548	185.418	312.936	246.931	183.210	189.395	189.480	196.265	337.464	193.543	-8191	255	
3028.433	1	1	0	0	0.13433	0.097436	0.12047	0.12909	0.25079	0.3344	0.40041	0.092367	0.096444	0.16906	0.16596	0.25206	0.076762	0.19374	0.25604	0.025269	-2.7146	-2.6792	-3.3646	-2.7	-2.8021	-3.3208	-2.5875	-3.2354	-3.1771	-2.6729	-3.4396	-2.7792	-2.7812	-3.3396	-2.3875	-3.2292	421.348	427.290	330.072	213.261	204.070	453.325	503.999	220.154	353.714	343.895	474.487	526.477	252.767	485.058	174.226	195.930	0.00047949	0.0013013	0.00041003	927.33	1.1185e-05	5.182e-06	1579.8	205.08	3.3672e-06	1.5383e-05	481.15	207.1	92.171	23.264	6.0858e-06	78.071	0.0033427	0.0049169	0.0012533	718.71	5.0339e-05	5.0946e-05	1204	163.01	4.8193e-05	5.3294e-05	374.04	161.96	77.558	19.156	5.0112e-05	61.386	231.840	265.196	217.390	179.656	241.825	265.126	178.681	185.737	231.115	339.048	183.225	189.126	190.744	195.807	492.363	193.482	-8191	255	
3028.530	1	1	0	0	0.029709	0.080635	0.079006	0.16346	0.097664	0.22509	0.26196	0.15592	0.074015	0.13659	0.19781	0.017596	0.20021	0.30451	0.11303	0.26596	-2.8542	-2.5417	-3.225	-2.975	-2.7938	-3.3771	-2.8625	-2.9083	-3.3542	-2.6042	-3.45	-3.1375	-2.7104	-3.6333	-2.7833	-3	200.667	405.956	327.255	412.284	169.389	316.827	482.227	501.517	276.942	369.653	486.513	394.248	475.807	500.296	514.836	175.595	0.0005637	0.0012703	3.8019e-05	928.09	3.3484e-06	9.9299e-07	1577.3	203.97	8.4726e-06	2.4872e-05	484.95	208.04	96.003	22.682	1.4179e-05	78.142	0.0032871	0.0048294	0.0012856	715.46	5.069e-05	5.1412e-05	1207.2	162.53	5.0512e-05	5.4186e-05	375.35	162.61	80.143	19.115	5.2751e-05	61.52	218.415	245.670	503.514	179.735	523.116	422.029	179.022	185.994	300.644	401.393	182.874	188.950	189.800	196.090	296.776	193.610	-8191	255	
3028.626	1	1	0	0	0.085298	0.15938	0.16187	0.11588	0.17577	0.16059	0.22329	0.038951	0.28191	0.33452	0.10436	0.11229	0.31855	0.072573	0.31236	0.13089	-2.9688	-2.4688	-3.2333	-2.8833	-2.5542	-3.4875	-2.9813	-2.9083	-3.35	-2.5854	-3.3042	-3.1813	-2.5042	-3.475	-2.8083	-2.8563	290.517	433.492	402.806	468.151	286.173	356.857	430.527	509.887	330.083	265.311	215.244	469.591	337.917	441.827	512.510	179.778	0.00067118	0.00087902	0.00032612	935.31	1.2769e-05	1.9897e-05	1592.9	205.01	1.7614e-05	2.3577e-05	482.68	210.03	95.368	23.314	1.1901e-05	78.229	0.0034418	0.0050486	0.0013211	720.37	5.176e-05	5.1299e-05	1213.4	162.71	4.9441e-05	5.3659e-05	376.41	164.12	80.257	19.337	5.1834e-05	62.228	219.900	427.801	212.824	179.682	356.315	294.596	178.620	186.314	234.564	356.987	183.661	189.396	190.557	196.176	233.093	194.188	-8191	255	
3028.722	1	1	0	0	0.18183	0.07333	0.21465	0.076766	0.14873	0.16921	0.19367	0.17099	0.095615	0.21292	0.19679	0.15374	0.12471	0.2196	0.2103	0.12015	-2.9833	-2.5625	-3.1146	-2.9313	-2.6375	-3.3271	-2.9625	-2.8896	-3.2062	-2.5812	-3.1729	-3.3042	-2.3187	-3.2375	-2.8688	-2.8375	371.996	355.078	466.583	175.573	336.238	200.499	497.441	450.829	401.811	442.813	508.306	522.444	484.675	231.628	444.954	178.062	0.00068836	0.0013061	0.0003386	929.62	1.0069e-05	3.3217e-05	1561.6	205.61	3.3388e-06	9.3457e-06	483.92	211.36	96.825	23.116	9.0936e-06	78.771	0.0034376	0.0049002	0.0013318	721.49	5.3169e-05	5.4095e-05	1202.4	165.08	5.0988e-05	5.4632e-05	379.11	166	80.554	19.543	5.3579e-05	62.111	228.398	261.537	317.810	180.140	397.536	276.174	178.861	185.963	473.659	257.542	183.823	189.239	190.208	196.577	312.273	193.668	-8191	255	
3028.843	1	1	0	0	0.087683	0.10723	0.16162	0.25414	0.23843	0.27794	0.38076	0.16042	0.20747	0.072461	0.057351	0.04689	0.16859	0.21864	0.084651	0.035404	-2.9625	-2.4771	-3.1271	-3.2229	-2.5333	-3.2083	-3.0229	-2.6271	-3.3354	-2.5833	-2.9292	-3.4542	-2.3604	-3.2583	-3.0187	-2.5854	484.972	253.279	253.663	467.993	302.422	224.758	464.705	441.592	394.210	479.479	415.394	305.205	460.334	242.471	427.370	423.352	0.00061806	0.0018765	0.00075895	934.11	2.2066e-05	1.9948e-05	1571.7	205.56	6.0517e-06	1.5718e-05	480.48	210.32	95.466	23.282	1.1785e-05	77.779	0.0034816	0.0049698	0.0013552	722.87	5.1465e-05	5.3823e-05	1201.2	164.89	4.9931e-05	5.3974e-05	377.93	164.49	80.135	19.319	5.2489e-05	61.115	233.565	275.338	246.519	179.842	496.120	322.476	178.780	186.385	472.395	428.623	183.787	189.343	190.010	196.143	276.827	193.503	-8191	255	
3028.939	1	1	0	0	0.14332	0.21472	0.2207	0.14241	0.21491	0.20377	0.025643	0.054238	0.1793	0.10222	0.053729	0.15421	0.16683	0.096451	0.19237	0.031905	-3.0875	-2.5521	-2.7979	-3.3625	-2.4042	-3.2021	-3.1625	-2.3479	-3.3583	-2.7167	-2.8583	-3.3667	-2.5729	-3.1813	-3.1646	-2.5958	469.549	333.388	502.742	451.043	241.791	335.604	511.655	442.404	495.084	254.177	235.596	441.146	408.672	455.551	213.768	331.589	0.00060494	0.0011868	0.00031559	927.41	6.6287e-06	2.1282e-05	1568.2	207.59	2.9709e-06	2.1005e-05	480.9	208.84	93.73	23.191	1.6233e-05	78.064	0.0033394	0.0048561	0.0013145	718.86	4.8354e-05	4.9611e-05	1204	165.42	4.6241e-05	4.8951e-05	377.66	162.9	78.605	19.302	4.7824e-05	61.549	228.756	311.689	479.433	179.912	221.181	304.042	178.694	185.630	480.689	385.048	182.827	189.039	189.716	197.565	278.595	194.098	-8191	255	
3029.035	1	1	0	0	0.11019	0.07743	0.24934	0.11956	0.17407	0.089857	0.25095	0.22474	0.27863	0.29951	0.13149	0.36378	0.20174	0.20138	0.22274	0.29775	-2.8208	-2.8021	-2.6354	-3.4042	-2.4646	-3.15	-3.2687	-2.7	-3.3521	-2.7792	-2.925	-3.55	-2.5167	-2.9521	-3.2167	-2.5563	480.375	436.811	239.656	419.797	341.774	434.252	457.567	374.087	430.002	454.087	396.329	171.699	505.637	516.266	521.848	415.597	0.00062926	0.00054121	0.00046017	946.87	1.0761e-05	1.0575e-05	1572.3	203.51	1.2465e-05	2.2725e-05	490.67	208.34	93.783	23.036	1.04e-05	78.926	0.0030848	0.0043942	0.0012264	725.41	4.5293e-05	4.8702e-05	1200.4	163.88	4.2652e-05	4.7888e-05	381.36	162.76	78.056	19.145	4.4616e-05	62.008	230.845	192.129	197.420	179.692	238.092	347.342	178.749	185.191	329.449	241.245	183.109	189.479	189.323	196.219	361.444	193.527	-8191	255	
3029.154	1	1	0	0	0.088275	0.10727	0.087922	0.084091	0.059774	0.20673	0.13151	0.12684	0.1014	0.26513	0.19039	0.23721	0.055501	0.39284	0.1845	0.23159	-2.8729	-2.8875	-2.7417	-3.3688	-2.7875	-2.9354	-3.5958	-2.5958	-3.175	-2.95	-2.725	-3.3896	-2.7854	-2.9521	-3.2792	-2.6625	207.291	513.728	319.306	254.087	413.724	261.220	488.575	478.392	418.845	350.339	413.334	437.956	420.561	491.302	361.077	459.141	0.00068872	0.00016864	0.00020521	946.17	1.826e-05	7.7385e-06	1583.4	205.39	1.0475e-05	9.0023e-06	490	209.43	94.644	23.11	1.1364e-05	79.584	0.0029811	0.0041983	0.0012151	726.53	4.3132e-05	4.8231e-05	1210.4	162.96	4.3587e-05	4.8082e-05	378.92	162.97	78.654	19.115	4.4726e-05	62.11	234.561	471.609	495.546	179.738	291.674	264.987	178.861	185.266	385.435	412.084	183.584	189.008	189.987	196.147	401.219	193.644	-8191	255	
3029.225	1	1	0	0	0.2166	0.16572	0.15524	0.026814	0.10933	0.14692	0.17469	0.007965	0.063569	0.064321	0.26812	0.18332	0.18397	0.10808	0.14935	0.10543	-2.7833	-3.2396	-2.675	-3.45	-2.7208	-2.9625	-3.4208	-2.5458	-3.225	-3.0833	-2.7542	-3.4229	-2.7938	-2.65	-3.4333	-2.7854	361.177	362.801	406.246	516.435	391.281	393.329	353.584	264.692	220.926	451.243	488.260	496.995	453.148	494.297	448.510	502.635	0.00067304	0.0015888	0.00041463	938.46	3.7442e-06	2.1874e-05	1603.2	208.31	5.7606e-06	2.1335e-06	487.49	208.18	93.747	23.175	8.6494e-06	77.824	0.0030059	0.0042594	0.0012395	719.95	4.4425e-05	4.9258e-05	1218.6	164.81	4.1922e-05	4.6881e-05	379.07	162.66	77.384	19.088	4.2969e-05	61.35	224.863	252.261	477.516	179.804	390.771	315.429	178.874	185.796	502.532	323.197	183.595	189.181	189.689	196.905	371.273	193.832	-8191	255	
3029.322	1	1	0	0	0.21802	0.089224	0.082938	0.21098	0.23939	0.26892	0.1361	0.34509	0.046523	0.31791	0.21634	0.16068	0.10851	0.18244	0.26583	0.26281	-2.7438	-3.1479	-2.3563	-3.3604	-2.8708	-2.65	-3.525	-2.5542	-3.0208	-3.3375	-2.5792	-3.3187	-3.0854	-2.625	-3.2333	-2.9833	280.162	256.248	499.357	518.405	394.039	362.074	458.707	431.808	470.508	242.671	469.365	466.836	278.183	232.777	204.790	438.575	0.00053309	0.0017811	0.00021597	923.73	1.2043e-05	2.34e-05	1548.1	204.4	8.1254e-06	1.8748e-05	480.54	208.63	91.791	23.307	2.3809e-05	77.902	0.0029127	0.0039708	0.0011772	710.84	4.2022e-05	4.6002e-05	1185.9	162.12	4.0506e-05	4.5201e-05	372	161.21	76.338	19.078	4.0664e-05	60.885	219.544	492.058	174.650	179.841	523.149	183.025	178.754	185.115	215.591	392.109	183.426	189.566	189.845	195.960	244.034	193.518	-8191	255	
3029.418	1	1	0	0	0.11431	0.24789	0.19373	0.21659	0.32475	0.081419	0.083517	0.2239	0.070117	0.029347	0.13197	0.073988	0.22834	0.20569	0.18626	0.35939	-2.4271	-3.2854	-2.5812	-3.2062	-3.0062	-2.5979	-3.5938	-2.7271	-2.8271	-3.2062	-2.4688	-3.2292	-3.125	-2.4646	-3.4229	-2.8792	416.955	168.744	502.028	481.783	348.487	222.889	437.549	513.135	310.942	249.046	326.666	217.679	433.516	325.796	511.670	503.674	0.00063329	0.00061512	0.00025988	931.4	1.4378e-05	5.4511e-06	1538.1	205.73	9.2898e-06	2.3338e-05	487.57	204.97	92.94	23.533	1.3492e-05	79.005	0.0029244	0.0037911	0.001105	713.58	3.8795e-05	4.2224e-05	1172.9	160.12	3.8868e-05	4.0421e-05	375.82	159.02	75.617	19.157	3.7496e-05	61.521	247.012	253.775	185.307	179.750	364.627	369.708	178.651	184.815	270.825	337.601	183.123	189.331	189.759	195.607	475.664	193.085	-8191	255	
3029.538	1	1	0	0	0.10834	0.17326	0.10538	0.16764	0.12423	0.17839	0.26982	0.16444	0.19005	0.050713	0.23796	0.17843	0.17889	0.075256	0.066414	0.21728	-2.4417	-3.2438	-2.6042	-3.1292	-3.1542	-2.5729	-3.475	-2.7938	-2.7687	-3.4021	-2.7333	-3.0125	-3.1417	-2.6104	-3.3542	-2.8063	245.807	486.254	381.503	444.016	263.197	472.403	450.327	421.765	229.221	404.962	505.097	202.051	244.598	282.709	357.324	485.499	0.00064042	0.0013707	0.00047771	932.26	5.2086e-06	1.9128e-05	1540.5	201.63	1.7968e-06	1.54e-05	489.8	206.79	94.306	23.774	1.9001e-05	82.064	0.002729	0.0033811	0.0010117	713.87	3.6583e-05	3.8947e-05	1175.3	156.95	3.6949e-05	3.6756e-05	376.93	159.69	75.975	19.25	3.3444e-05	63.065	218.495	251.310	284.062	179.505	295.184	338.486	178.968	185.250	204.695	317.849	182.929	189.773	189.992	195.929	320.646	192.928	-8191	255	
3029.634	1	1	0	0	0.2284	0.1213	0.16732	0.12352	0.27085	0.14357	0.29687	0.29874	0.33586	0.16526	0.13974	0.092616	0.15919	0.13236	0.10361	0.18262	-2.2729	-3.2812	-2.5854	-3.0417	-3.1937	-2.5208	-3.3167	-2.8896	-2.7562	-3.3604	-2.6646	-3.0958	-3.325	-2.4667	-3.3667	-3	257.278	211.772	305.415	398.919	473.062	512.694	457.663	413.605	309.935	420.039	458.123	524.853	300.218	420.291	387.359	507.549	0.00070632	0.001716	0.00055161	958.79	1.3033e-05	3.9974e-06	1548.1	200.04	4.2789e-06	1.8683e-05	492.94	209.07	95.443	23.445	1.2596e-05	82.201	0.0024661	0.0032322	0.00094063	728.93	3.3963e-05	3.6998e-05	1179.5	155.79	3.6355e-05	3.6507e-05	378.63	161.82	76.224	19.339	3.5609e-05	63.764	228.735	311.169	198.083	179.005	286.780	238.818	179.034	185.905	356.915	290.166	183.219	189.531	188.964	196.081	269.513	193.362	-8191	255	
3029.731	1	1	0	0	0.11403	0.16938	0.30491	0.13865	0.23812	0.049398	0.25002	0.1557	0.29862	0.068836	0.19619	0.25917	0.13905	0.25603	0.062472	0.18681	-2.2438	-3.2958	-2.6521	-2.9437	-3.1688	-2.6229	-3.2104	-3.1083	-2.4896	-3.1521	-2.7646	-2.725	-3.2875	-2.5854	-2.9708	-3.1958	399.773	417.358	199.682	189.552	213.719	297.512	451.207	334.493	446.642	416.016	447.217	450.024	441.214	407.411	230.542	480.189	0.00063519	0.0018027	0.00026818	959.17	8.9289e-06	9.1051e-06	1573.9	207.11	7.2013e-06	1.1934e-05	496.33	209.46	96.134	23.813	6.3243e-06	80.542	0.0025847	0.003425	0.00094931	727.9	3.4326e-05	3.8977e-05	1196	161.08	3.836e-05	3.8126e-05	379.94	162.03	76.692	19.359	3.7052e-05	62.8	229.126	308.515	277.666	179.559	244.000	387.574	178.841	184.820	372.962	258.161	183.123	189.401	189.772	196.397	346.314	193.407	-8191	255	
3029.802	1	1	0	0	0.28752	0.057767	0.16654	0.12783	0.12856	0.21171	0.074432	0.031398	0.1091	0.26383	0.2832	0.040126	0.10315	0.0246	0.24744	0.081091	-2.0229	-3.2146	-2.9521	-2.7479	-3.4458	-2.5958	-3.1083	-3.2687	-2.3646	-3.2812	-2.8333	-2.7167	-3.3937	-2.6396	-3.0146	-3.3563	435.797	285.821	498.589	410.531	219.186	218.016	217.550	497.995	335.944	476.572	475.196	466.057	406.729	286.845	394.132	415.239	0.00066844	0.00018686	2.6004e-05	941.51	6.9313e-06	1.9191e-05	1556.3	203.84	4.7229e-06	1.1002e-05	479.84	206.96	92.766	23.056	6.8966e-06	80.223	0.0027667	0.00351	0.00096897	723.56	3.5571e-05	3.9323e-05	1180.4	159.14	3.811e-05	3.7359e-05	370.97	160.21	75.23	18.953	3.7504e-05	62.639	231.273	525.016	216.534	179.560	294.899	356.251	178.657	185.449	436.129	247.480	183.836	189.741	190.085	196.224	361.396	193.826	-8191	255	
3029.923	1	1	0	0	0.19239	0.17861	0.14417	0.36782	0.23572	0.17501	0.34842	0.14524	0.17002	0.07474	0.1661	0.33623	0.37307	0.15426	0.13721	0.12631	-2.1021	-3.2417	-2.8896	-2.6667	-3.3563	-2.4958	-3.125	-3.1854	-2.5	-3.1937	-3.0438	-2.7646	-3.35	-2.5563	-2.8479	-3.475	295.523	295.264	332.523	186.043	239.930	453.751	439.423	376.595	212.162	247.744	248.662	426.872	477.300	204.423	366.811	508.912	0.00045142	0.0022177	0.00016325	940.59	7.0361e-06	1.2432e-05	1547.1	202.98	1.1186e-05	1.3696e-05	483.5	204.1	92.032	23.361	2.1001e-06	80.968	0.0025664	0.0034116	0.00096206	719.76	3.5333e-05	3.9167e-05	1180	158.08	3.7015e-05	3.6775e-05	372.97	158.85	74.668	18.934	3.6242e-05	62.49	219.894	242.933	307.767	179.991	421.995	203.855	178.737	185.182	342.524	508.922	183.374	189.059	190.213	196.472	473.429	192.770	-8191	255	
3030.019	1	1	0	0	0.07049	0.12059	0.18727	0.18422	0.015221	0.21786	0.33415	0.32066	0.20715	0.23754	0.13387	0.031656	0.25751	0.23613	0.12426	0.1525	-2.1625	-3.0542	-2.9146	-2.5229	-3.4	-2.8187	-2.9292	-3.3521	-2.4604	-3.1063	-3.2375	-2.475	-3.2729	-2.9104	-2.6125	-3.2833	477.222	426.364	505.619	483.431	402.246	307.435	524.325	454.499	466.512	414.788	483.989	205.760	426.844	411.480	338.119	414.252	0.00046299	0.00071199	0.00019046	942.67	3.9196e-06	4.7709e-06	1543.7	197.54	1.1749e-05	1.265e-05	491.47	205.97	93.383	23.766	6.8489e-06	81.185	0.0024891	0.0033246	0.00092862	717.56	3.3515e-05	3.6779e-05	1174.7	153.93	3.4479e-05	3.5158e-05	376.19	160.42	75.172	19.115	3.4773e-05	63.227	237.311	320.439	249.568	180.055	369.337	442.581	178.719	185.212	317.863	286.304	182.907	189.549	189.977	196.294	346.771	193.570	-8191	255	
3030.115	1	1	0	0	0.084256	0.17306	0.11892	0.20025	0.080808	0.25287	0.29026	0.17916	0.20557	0.17041	0.21032	0.13754	0.090588	0.15051	0.23292	0.12606	-2.1979	-3.0729	-3.1396	-2.6896	-3.4104	-2.9479	-2.85	-3.4042	-2.4896	-2.9708	-3.325	-2.6833	-3.1083	-3.0021	-2.6375	-3.4208	459.707	337.490	350.480	466.475	416.146	174.758	498.075	409.900	429.539	453.519	433.106	300.539	319.505	498.659	175.230	522.956	0.00080862	0.00032002	0.00018317	940.31	1.0155e-06	2.3611e-05	1535.6	199.38	5.6116e-06	1.9566e-06	485.83	206.32	92.178	23.712	6.7439e-06	82.136	0.0024268	0.0033499	0.00088498	716.58	3.2855e-05	3.4613e-05	1169.8	155.55	3.3964e-05	3.5283e-05	373.82	160.29	75.089	19.106	3.5115e-05	63.63	211.662	353.317	335.235	179.692	507.404	332.995	179.136	185.130	294.968	343.614	183.602	189.661	190.459	196.377	274.863	193.729	-8191	255	
3030.236	1	1	0	0	0.072822	0.15897	0.18495	0.13596	0.1765	0.18707	0.15571	0.25395	0.1331	0.20719	0.087447	0.19211	0.29166	0.10482	0.14615	0.46338	-2.3583	-2.8167	-3.1854	-2.6542	-3.225	-3.1458	-2.8438	-3.2562	-2.5187	-2.75	-3.4292	-2.4062	-3.2167	-3.0021	-2.5521	-3.2625	345.191	304.187	345.762	391.626	405.575	500.855	391.266	421.184	243.852	480.877	493.153	452.285	507.830	295.668	349.619	481.037	0.00057249	0.00086289	0.00019893	932.47	1.0788e-05	4.5742e-06	1537.3	198.61	7.4906e-06	1.017e-05	481.57	206.36	92.863	23.309	7.1788e-06	80.982	0.002243	0.0031291	0.00083858	709.66	3.0235e-05	3.2949e-05	1171.6	154.77	3.0821e-05	3.4123e-05	369.99	158.94	74.654	18.861	3.2226e-05	62.655	225.734	218.687	334.286	179.498	312.030	262.689	179.389	185.564	390.935	253.576	183.692	189.395	189.867	196.325	367.257	193.513	-8191	255	
3030.330	1	1	0	0	0.38497	0.26057	0.19578	0.17419	0.24951	0.27263	0.26931	0.26673	0.074541	0.31245	0.27644	0.27039	0.057742	0.16395	0.066936	0.10986	-2.4854	-2.5875	-3.3125	-2.65	-3.1125	-3.025	-2.7	-3.4125	-2.8375	-2.6875	-3.4167	-2.6396	-2.9313	-3.3104	-2.3333	-3.2542	515.762	408.309	450.551	167.601	242.558	348.927	431.995	477.479	220.856	217.911	486.638	174.280	369.172	205.722	276.397	498.259	0.00050417	0.0016812	0.00037606	936.28	7.2902e-06	8.1313e-06	1528.1	195.38	3.2654e-06	1.6947e-05	481.04	204.5	94.932	23.328	7.9692e-06	80.649	0.0022337	0.0030214	0.00077325	713.3	2.9524e-05	3.1337e-05	1151.1	151.49	2.9731e-05	3.1217e-05	368.86	158.21	75.444	18.772	3.0852e-05	62.28	221.200	196.186	514.742	179.320	275.402	376.640	178.979	185.165	167.565	314.274	183.444	189.257	190.733	196.810	173.769	193.205	-8191	255	
3030.426	1	1	0	0	0.062873	0.10425	0.17027	0.21211	0.096294	0.20409	0.48355	0.20608	0.21351	0.052278	0.22977	0.2025	0.15673	0.054801	0.1681	0.15258	-2.4521	-2.7021	-3.4271	-2.4562	-2.9313	-3.2729	-2.5896	-3.1583	-2.9521	-2.6375	-3.3958	-2.7917	-2.7896	-3.2833	-2.6208	-3.2542	398.751	182.283	282.001	459.269	435.955	507.691	452.716	431.800	436.973	304.992	458.683	483.096	436.080	183.793	325.032	455.433	0.00062694	0.0014024	0.00039036	934.14	5.0705e-06	5.0646e-06	1524.8	195.09	9.0764e-06	1.5736e-05	481.56	206.83	94.082	24.077	1.0802e-05	81.802	0.0021926	0.0028492	0.00075881	712.36	3.0088e-05	3.1347e-05	1149.7	151.14	2.9134e-05	3.2265e-05	369.48	159.84	75.424	19.251	3.2476e-05	63.303	229.889	286.433	187.678	179.770	330.958	486.378	178.388	185.782	405.517	422.969	183.528	189.577	189.401	195.385	380.471	193.350	-8191	255	
3030.523	1	1	0	0	0.030897	0.17983	0.27735	0.25714	0.039929	0.19386	0.24028	0.081913	0.12717	0.077703	0.19128	0.15185	0.20883	0.20955	0.25537	0.24206	-2.6771	-2.425	-3.2708	-2.6896	-2.7313	-3.3292	-2.7375	-3.1542	-3.0979	-2.4792	-3.4625	-2.9021	-2.8104	-3.4813	-2.525	-3.2771	373.799	479.077	246.859	477.285	311.474	264.315	444.792	485.778	416.244	503.472	468.475	203.624	486.461	467.342	381.970	463.834	0.00069747	0.00058565	0.00046896	937.14	1.2662e-05	1.5948e-05	1536.1	198.68	9.121e-06	6.8873e-06	482.2	208.2	93.507	24.149	1.9653e-05	82.316	0.0020843	0.0030287	0.00083204	714.73	3.1573e-05	3.1866e-05	1159.5	153.38	2.9624e-05	3.5194e-05	369.94	160.71	75.534	19.292	3.2752e-05	63.677	226.210	291.722	233.203	179.346	346.256	383.832	178.739	185.005	297.808	276.468	183.785	189.866	189.821	195.823	294.019	193.547	-8191	255	
3030.619	1	1	0	0	0.20123	0.10981	0.036477	0.10552	0.12894	0.21523	0.1525	0.10044	0.16321	0.21439	0.16868	0.092971	0.10821	0.18825	0.25951	0.41312	-2.7875	-2.4167	-3.3583	-2.9083	-2.7271	-3.4583	-2.7687	-3.0896	-3.2313	-2.5479	-3.4854	-3.0438	-2.6104	-3.2771	-2.6042	-3.0021	391.993	247.707	198.355	216.804	180.940	470.412	452.654	408.219	409.567	496.064	524.324	260.539	439.044	463.186	312.051	187.622	0.00067928	0.0011439	0.00029685	945.07	1.312e-05	3.1543e-06	1532.8	194.7	9.039e-06	1.2618e-05	489.85	209.19	96.073	24.291	1.0588e-05	81.888	0.0022215	0.0029247	0.00080333	721.51	3.147e-05	3.2785e-05	1160.6	152.38	3.0486e-05	3.447e-05	373.32	161.42	76.934	19.372	3.2741e-05	64.012	217.899	174.642	270.942	179.230	364.323	281.581	179.045	185.517	290.427	281.639	183.861	189.550	190.667	195.740	387.874	193.657	-8191	255	
3030.715	1	1	0	0	0.15725	0.21227	0.068229	0.15156	0.013304	0.073148	0.22153	0.10463	0.24319	0.092855	0.32183	0.38477	0.11875	0.21588	0.082154	0.12216	-2.8292	-2.5062	-3.1813	-3.1708	-2.5417	-3.3563	-2.8354	-2.8063	-3.25	-2.7458	-3.2542	-3.1188	-2.5479	-3.2625	-2.9562	-2.7896	459.446	511.916	522.263	342.351	486.919	347.072	457.826	173.152	439.383	248.626	500.177	491.796	436.717	206.414	473.139	384.258	0.0005448	0.00047954	5.517e-05	942.89	1.9222e-05	2.2059e-05	1538	197.48	8.1607e-06	3.0923e-06	486.25	208.44	96.298	24.281	1.0718e-05	81.902	0.0022824	0.0031196	0.00086805	719.58	3.3665e-05	3.369e-05	1165.3	154.34	3.0742e-05	3.7438e-05	371.27	160.91	76.993	19.352	3.4122e-05	63.474	227.929	343.863	487.549	179.370	314.386	243.325	178.844	186.122	422.620	291.080	183.382	189.248	190.605	195.644	350.384	193.968	-8191	255	
3030.835	1	1	0	0	0.062331	0.1198	0.28281	0.23842	0.22871	0.17708	0.0058077	0.14379	0.088356	0.11099	0.26463	0.074107	0.1652	0.15928	0.13461	0.3436	-2.9417	-2.4917	-3.0438	-3.2938	-2.4271	-3.3125	-2.9688	-2.6458	-3.3458	-2.5417	-3.025	-3.1104	-2.4979	-3.0646	-2.8708	-2.7438	184.704	396.021	495.129	521.549	504.093	525.001	291.400	493.340	181.390	258.412	230.164	193.125	192.136	307.867	381.278	446.345	0.00071608	0.0013768	9.2366e-05	944.1	6.8339e-06	8.3697e-06	1531.1	197.79	6.5121e-06	1.5057e-05	471.99	204.98	93.045	23.927	1.3822e-05	80.215	0.0022766	0.0031856	0.00088625	717.97	3.4059e-05	3.3327e-05	1162.5	153.52	3.2149e-05	3.71e-05	365.52	159.49	75.994	19.294	3.3798e-05	62.676	220.845	480.955	410.153	179.709	271.461	228.393	178.988	185.728	209.373	323.772	183.598	189.687	190.163	196.080	199.704	193.772	-8191	255	
3030.932	1	1	0	0	0.31079	0.11629	0.14101	0.15413	0.21757	0.082934	0.32257	0.17738	0.088042	0.073666	0.097479	0.15167	0.2393	0.1476	0.16409	0.1774	-2.9458	-2.6667	-3.1583	-3.1708	-2.4646	-3.3479	-2.9375	-2.6729	-3.3812	-2.6542	-2.9333	-3.3521	-2.4625	-3.2188	-3.0563	-2.6562	475.923	210.946	201.882	497.920	253.219	226.314	494.334	265.883	458.849	428.567	167.564	512.485	210.215	411.663	311.906	412.271	0.00065641	0.00064288	0.00070211	942.44	7.1341e-06	1.0911e-05	1543.5	195.83	3.6815e-06	5.2168e-06	479.65	206.96	93.031	23.99	2.2082e-06	80.344	0.0024059	0.0031894	0.00092397	717.8	3.5131e-05	3.5151e-05	1174.1	154.6	3.2922e-05	3.5757e-05	366.89	159.52	76	19.291	3.1842e-05	62.732	233.294	205.550	266.119	179.601	331.984	468.031	178.760	185.287	254.508	295.301	183.275	189.063	190.198	196.791	279.825	193.347	-8191	255	
3031.028	1	1	0	0	0.1423	0.10677	0.17748	0.068054	0.049773	0.14769	0.11627	0.17897	0.12116	0.18154	0.12957	0.10368	0.30371	0.22152	0.10473	0.16921	-2.9437	-2.6625	-2.9125	-3.475	-2.55	-3.1896	-3.2687	-2.65	-3.3521	-2.6437	-2.8208	-3.4062	-2.4917	-3.05	-2.9437	-2.5125	188.468	222.191	455.466	403.521	345.957	451.746	494.809	255.759	403.681	466.863	421.739	181.703	474.697	194.559	475.915	169.188	0.00054863	0.0014262	0.00042145	932.95	7.5068e-06	1.4659e-05	1528.8	194.59	1.6779e-05	1.5415e-05	482.2	207.75	94.464	23.856	1.6011e-05	81.981	0.0023369	0.0032055	0.0009268	709.73	3.3446e-05	3.3926e-05	1159.3	153.09	3.292e-05	3.3983e-05	369.59	160.38	76.067	19.431	3.2784e-05	63.588	232.103	227.488	320.401	179.536	369.691	510.824	178.887	185.147	361.129	300.640	184.000	189.463	189.814	196.350	370.081	193.177	-8191	255	
3031.099	1	1	0	0	0.091964	0.22912	0.24838	0.084386	0.20261	0.11528	0.41066	0.15326	0.16062	0.067186	0.19366	0.32154	0.2287	0.15491	0.29417	0.15974	-3.0104	-2.7708	-2.4292	-3.35	-2.2958	-2.8937	-3.0854	-2.4917	-3.275	-2.8167	-2.5229	-3.2958	-2.5021	-3.0104	-3.3187	-2.6167	375.032	443.731	179.532	428.887	446.086	476.509	476.703	476.878	244.031	369.062	419.742	478.934	371.140	468.489	525.297	476.022	0.00059078	0.00041959	6.2626e-05	949.52	9.4343e-06	4.9523e-06	1555.1	197.65	8.7332e-06	1.1543e-05	480.26	209.33	95.066	24.375	5.0937e-06	82.06	0.0023662	0.0031414	0.00089822	725.48	3.3867e-05	3.6233e-05	1175.7	154.76	3.1158e-05	3.4719e-05	370.99	161.84	76.42	19.643	3.4007e-05	64.138	235.896	208.067	505.710	179.422	288.996	204.409	178.796	185.840	314.438	363.989	183.847	189.149	189.712	196.352	298.920	193.790	-8191	255	
3031.218	1	1	0	0	0.13151	0.10171	0.27095	0.29899	0.26825	0.13113	0.12805	0.19941	0.047587	0.036757	0.27722	0.26281	0.0084801	0.17156	0.17097	0.1753	-2.7333	-2.9333	-2.4333	-3.4688	-2.5604	-2.8229	-3.6208	-2.3438	-2.9708	-3.0146	-2.675	-3.4854	-2.7625	-2.6167	-3.2729	-2.6896	416.049	337.339	306.772	526.149	521.466	424.738	424.345	368.407	381.612	393.324	521.593	473.934	484.326	448.653	386.932	478.647	0.00069684	0.00049704	0.0004625	943.71	1.3638e-05	3.0509e-05	1553.8	201.13	1.7017e-06	1.2419e-05	482.16	209.05	94.787	24.235	1.0182e-05	81.929	0.0022994	0.0032921	0.00093263	722.1	3.4577e-05	3.7239e-05	1178.8	156.74	3.5572e-05	3.565e-05	373.04	161.59	76.367	19.5	3.4431e-05	63.533	223.235	224.696	200.384	179.218	256.651	415.010	178.681	185.717	228.716	286.839	183.242	189.329	189.618	196.538	393.831	194.034	-8191	255	
3031.314	1	1	0	0	0.11308	0.17336	0.19399	0.38556	0.06447	0.17355	0.26706	0.12969	0.10142	0.017197	0.16472	0.27312	0.077542	0.23869	0.16612	0.16108	-2.7229	-2.9396	-2.425	-3.3688	-2.8396	-2.6188	-3.5833	-2.5167	-3.0646	-3.0771	-2.5958	-3.4	-3.0271	-2.7333	-3.4042	-2.7396	414.188	495.994	361.995	463.075	337.350	361.913	496.155	331.688	169.998	235.109	515.753	196.223	484.146	403.645	490.230	483.804	0.00059791	0.0014045	0.00049118	952.48	5.5952e-06	2.0251e-05	1556.6	201.04	7.8575e-06	5.4806e-06	477.62	208.3	95.051	23.824	1.5351e-05	80.726	0.0023705	0.0033546	0.00095004	725.22	3.4009e-05	3.8707e-05	1183.1	156.78	3.5329e-05	3.6559e-05	369.85	160.53	76.047	19.317	3.4551e-05	62.91	232.232	356.753	180.698	179.360	238.269	381.073	178.926	185.507	318.135	352.581	183.759	189.571	189.687	195.800	265.781	193.262	-8191	255	
3031.411	1	1	0	0	0.060697	0.20085	0.18301	0.20994	0.20145	0.024827	0.16257	0.1358	0.12624	0.010795	0.075355	0.28505	0.15272	0.16045	0.15209	0.10204	-2.4062	-3.2188	-2.4958	-3.225	-2.8729	-2.6396	-3.475	-2.8021	-3.0542	-3.2833	-2.5292	-3.3312	-2.9188	-2.675	-3.275	-2.7104	422.018	352.544	219.162	514.390	237.613	480.029	375.442	426.654	472.093	171.713	501.756	450.333	431.750	200.632	244.821	523.871	0.00039483	0.00075758	0.00022832	944.83	6.3558e-06	1.445e-05	1555.4	198.15	1.2153e-05	2.6558e-05	481.4	204.75	92.816	23.911	1.5086e-05	81.107	0.0023503	0.0031421	0.00092299	720.73	3.1754e-05	3.6273e-05	1170.6	153.69	3.4221e-05	3.4501e-05	368.92	158.78	75.343	19.324	3.3152e-05	63.277	237.693	446.069	211.018	179.433	396.086	325.950	178.942	185.184	371.131	299.847	184.105	189.568	190.192	196.130	345.600	193.303	-8191	255	
3031.507	1	1	0	0	0.23254	0.26944	0.29356	0.074741	0.27629	0.13642	0.14505	0.12279	0.087108	0.14087	0.076479	0.23699	0.18766	0.21372	0.15765	0.027957	-2.5292	-3.2292	-2.5375	-3.2979	-3.0396	-2.65	-3.4562	-2.925	-2.7375	-3.3854	-2.6625	-3.3021	-3.1	-2.5583	-3.2354	-2.7979	443.775	188.445	444.971	523.634	440.718	522.354	229.606	456.505	167.611	203.646	411.225	195.889	524.810	526.449	310.486	361.769	0.00057011	0.0011695	0.00032926	944.97	3.6946e-06	1.356e-05	1523.2	193.89	2.2654e-06	1.1074e-05	475.7	205.15	96.4	23.603	1.6535e-05	81.787	0.0024236	0.0030876	0.00087273	719.09	3.1993e-05	3.6665e-05	1163.4	151.64	3.3715e-05	3.4364e-05	368.22	159.57	76.647	19.19	3.4305e-05	63.498	214.689	287.540	187.789	179.616	352.805	372.337	179.069	185.425	506.184	462.428	184.163	189.704	190.121	195.326	280.894	193.485	-8191	255	
3031.603	1	1	0	0	0.12875	0.12823	0.11864	0.26374	0.18932	0.14123	0.069612	0.27639	0.19496	0.10673	0.25737	0.31398	0.0024218	0.20719	0.21342	0.37346	-2.3688	-3.4062	-2.5646	-3.2333	-3.175	-2.4562	-3.4333	-2.7479	-2.3833	-3.4333	-2.6625	-3.0125	-3.2062	-2.4333	-3.3021	-3.0958	506.246	179.405	181.423	479.384	279.393	215.124	204.294	440.888	367.911	241.773	460.357	513.215	180.000	176.099	485.886	455.194	0.00044156	0.0012739	0.00024336	940.94	8.3361e-06	1.5975e-05	1544.5	198.49	4.4836e-06	1.5418e-05	480.95	209.59	94.411	24.724	1.6898e-05	83.568	0.0023461	0.0031442	0.00086589	715.03	3.2001e-05	3.6187e-05	1173.3	154.41	3.325e-05	3.4108e-05	371.18	160.94	75.981	19.706	3.3061e-05	64.694	224.652	297.313	337.548	179.891	335.102	205.930	179.093	185.652	393.277	196.194	183.460	189.971	190.145	196.456	311.503	193.109	-8191	255	
3031.699	1	1	0	0	0.27393	0.095928	0.14608	0.32642	0.10176	0.26454	0.17278	0.14952	0.18614	0.075371	0.3173	0.054602	0.096062	0.20223	0.066805	0.1544	-2.2104	-3.2062	-2.6562	-3.0146	-3.325	-2.5708	-3.4	-3.0083	-2.5229	-3.3438	-2.6979	-2.8604	-3.1958	-2.4625	-3.3937	-3.0417	406.698	328.367	185.798	451.112	404.282	519.012	357.811	254.853	232.402	451.144	486.652	514.978	460.833	499.852	184.267	464.333	0.00062407	0.0022046	0.00017235	938.92	1.2126e-05	8.4309e-06	1555.8	196.78	1.2049e-05	1.5941e-05	483.51	210	94.519	23.952	3.6606e-06	82.515	0.0023121	0.0029489	0.00085549	716.14	3.0949e-05	3.5282e-05	1178.1	154.31	3.3013e-05	3.4562e-05	371	161.85	76.449	19.42	3.5354e-05	63.783	227.023	243.224	256.363	179.653	357.489	389.698	179.109	185.327	390.570	475.835	183.421	190.063	189.886	196.315	271.046	194.014	-8191	255	
3031.795	1	1	0	0	0.22778	0.16564	0.23593	0.48832	0.12445	0.1717	0.34588	0.12568	0.10974	0.18685	0.27473	0.1677	0.26847	0.21	0.034867	0.2671	-1.9604	-3.2792	-2.5938	-2.7833	-3.2979	-2.5583	-3.1167	-3.3104	-2.3229	-3.2958	-2.9458	-2.8333	-3.3375	-2.5854	-3	-3.2167	346.754	393.865	316.554	505.569	281.600	197.507	463.084	364.957	213.761	404.768	416.462	215.245	497.350	499.415	524.124	525.459	0.00055816	0.0011319	0.00024197	950.35	8.5051e-06	2.3594e-05	1560.7	199.63	6.697e-06	9.0355e-06	473.9	206.43	92.941	24.006	7.8243e-06	81.398	0.0024574	0.0032033	0.00086914	722.25	3.3278e-05	3.5572e-05	1182	156.07	3.4231e-05	3.6683e-05	367.81	160	76.265	19.31	3.6075e-05	63.258	247.221	301.008	229.645	179.689	371.653	309.574	178.885	185.543	310.531	209.763	183.650	189.653	190.655	196.208	316.615	193.742	-8191	255	
3031.916	1	1	0	0	0.16809	0.30106	0.30741	0.044201	0.28591	0.23759	0.21578	0.19589	0.08671	0.28225	0.036708	0.19541	0.26579	0.11043	0.28931	0.18454	-2.1104	-3.3792	-2.8187	-2.5792	-3.4	-2.7458	-3.2562	-3.3333	-2.6667	-3.3542	-2.9437	-2.5729	-3.4333	-2.8125	-2.9271	-3.4562	205.097	482.319	230.337	183.206	242.470	328.932	508.800	417.850	179.505	460.842	460.542	464.361	169.551	329.061	390.745	441.866	0.0005486	0.00098651	0.00014656	945.12	9.1396e-06	7.6665e-06	1577.8	202.34	1.3648e-05	1.9056e-05	480.84	211.71	94.587	23.88	9.9858e-06	82.031	0.0025315	0.0034317	0.00094778	720.16	3.6837e-05	3.9449e-05	1200.3	160.23	3.7406e-05	4.1086e-05	371.56	164.88	77.481	19.483	3.9765e-05	63.522	209.789	194.789	173.350	179.621	402.398	335.376	178.643	185.912	368.646	312.938	183.598	189.982	190.493	195.956	450.132	194.123	-8191	255	
3032.012	1	1	0	0	0.3739	0.14155	0.13991	0.17994	0.2551	0.060453	0.16509	0.036371	0.19075	0.057253	0.21807	0.27415	0.24065	0.17182	0.15194	0.21108	-2.0958	-3.1375	-2.9479	-2.6458	-3.5812	-2.7854	-2.9583	-3.4833	-2.4875	-3.1792	-3.1917	-2.6437	-3.1771	-2.6021	-2.7333	-3.1688	415.633	222.893	475.568	254.317	342.749	422.239	441.226	265.428	489.162	241.128	483.022	468.704	260.147	410.755	307.477	490.505	0.0006166	0.0015942	0.00062785	936.29	1.092e-05	1.5702e-05	1589.8	209.83	2.4781e-05	1.4762e-05	479.88	210.82	97.232	23.615	8.0653e-06	82.198	0.0027385	0.0037443	0.0010252	718.96	4.0071e-05	4.0034e-05	1207.1	164.02	3.9688e-05	4.3163e-05	371.7	164.35	78.434	19.441	4.2863e-05	64.026	222.045	384.238	194.526	180.151	278.803	402.699	179.083	185.671	348.868	405.674	184.136	189.626	189.652	195.698	504.509	194.019	-8191	255	
3032.108	1	1	0	0	0.28435	0.10952	0.077318	0.2171	0.28244	0.19533	0.15895	0.12692	0.1765	0.18122	0.18715	0.23804	0.13465	0.24582	0.33705	0.22165	-2.0604	-2.8917	-3.1229	-2.3438	-3.2375	-2.8792	-2.8438	-3.3771	-2.6729	-3.1229	-3.2396	-2.7146	-3.2146	-2.775	-2.4854	-3.4792	170.806	231.873	462.335	483.076	467.886	476.560	183.292	348.307	248.672	221.260	433.834	433.227	349.495	510.272	441.339	407.282	0.0006813	0.0012767	0.00032326	943.47	8.8623e-06	9.3643e-06	1611.3	208.42	9.1873e-06	1.869e-05	482.43	211.63	94.037	23.378	9.8357e-06	81.219	0.0027612	0.0040364	0.0010926	720.58	4.1503e-05	4.2967e-05	1233.6	163.96	4.2187e-05	4.572e-05	372.83	165.67	77.456	19.467	4.5923e-05	64.019	220.755	264.067	181.887	180.306	330.321	209.332	179.378	185.901	255.498	180.211	183.896	189.773	189.294	196.345	339.301	194.145	-8191	255	
3032.204	1	1	0	0	0.096669	0.26907	0.14924	0.30033	0.053618	0.067507	0.30532	0.10265	0.15293	0.21004	0.10976	0.2955	0.16792	0.2603	0.15935	0.16323	-2.2542	-2.7646	-3.0083	-2.5104	-3.2708	-2.7354	-2.9562	-3.4479	-2.75	-2.9854	-3.3417	-2.7042	-3.3333	-3.0854	-2.5167	-3.5687	313.403	264.350	431.505	519.986	357.361	487.755	435.216	196.059	259.221	510.087	450.631	499.816	186.046	400.768	303.240	516.955	0.00045037	0.00098975	0.00024821	926.02	5.1291e-06	1.239e-05	1628.2	209.29	6.5996e-06	2.5388e-05	485.15	214.28	94.563	23.588	1.1722e-05	80.132	0.0030848	0.0042961	0.0011978	717.59	4.4725e-05	4.4086e-05	1241.6	164.56	4.3338e-05	4.8203e-05	375.49	165.92	78.205	19.292	4.6535e-05	63.123	229.485	359.283	327.026	180.484	423.057	397.357	179.340	186.275	305.542	417.156	184.156	189.626	189.391	196.383	304.120	193.868	-8191	255	
3032.323	1	1	0	0	0.13277	0.14292	0.10251	0.14412	0.11842	0.075599	0.22118	0.20271	0.10047	0.21693	0.17414	0.10753	0.16592	0.20635	0.27229	0.10499	-2.3937	-2.85	-3.2646	-2.5021	-3.0583	-3.0479	-2.5771	-3.4083	-2.7562	-2.7958	-3.4229	-2.7146	-3.0375	-3.1771	-2.6063	-3.3438	476.206	419.748	382.169	255.335	176.750	447.799	453.061	224.489	314.236	207.911	431.930	191.631	267.958	280.650	434.688	410.296	0.00066965	0.00082251	0.00047473	930.41	1.522e-05	1.3033e-05	1605.6	208.87	1.8662e-06	7.9348e-06	475.71	214.26	94.662	23.197	2.1575e-05	79.785	0.0029642	0.0042891	0.0011706	717.02	4.4685e-05	4.5027e-05	1229.6	164.38	4.3765e-05	4.732e-05	373.26	166.88	78.733	19.295	4.5704e-05	62.779	220.603	518.817	236.652	180.195	279.898	360.175	179.050	186.063	314.926	425.001	183.251	189.459	189.692	196.896	332.100	193.664	-8191	255	
3032.395	1	1	0	0	0.28282	0.14267	0.19981	0.070575	0.14532	0.14899	0.25428	0.037105	0.11788	0.14327	0.22715	0.22978	0.30575	0.26049	0.044134	0.045883	-2.5604	-2.675	-3.2042	-2.65	-3.0187	-3.3063	-2.6562	-3.1896	-2.9458	-2.5438	-3.4	-2.8167	-2.8354	-3.1167	-2.5875	-3.4083	358.963	477.447	388.644	526.804	266.789	515.356	489.422	474.903	315.781	273.060	458.308	446.148	469.334	426.598	207.373	504.873	0.00048315	0.00076137	0.00051584	931.71	5.7832e-06	3.5124e-06	1610.2	211.54	8.5069e-06	2.1901e-05	479.67	210.48	94.862	23.492	4.2475e-06	80.878	0.0029034	0.0043713	0.0011513	718.06	4.3839e-05	4.4428e-05	1230.8	166.22	4.208e-05	4.6371e-05	372.82	164.09	78.686	19.311	4.4387e-05	63.109	234.843	464.267	246.900	180.257	424.400	388.269	179.299	186.034	520.675	413.187	184.401	189.463	190.607	196.235	302.823	194.407	-8191	255	
3032.515	1	1	0	0	0.15237	0.18065	0.033393	0.16749	0.17232	0.080687	0.5193	0.29185	0.076728	0.022653	0.071911	0.1632	0.17105	0.11041	0.18685	0.079123	-2.4896	-2.5563	-3.3729	-2.7188	-2.8646	-3.2854	-2.4417	-3.2021	-3.0771	-2.5646	-3.6625	-2.7125	-2.7521	-3.2542	-2.4979	-3.0875	184.376	454.608	474.489	257.101	313.956	517.988	473.177	460.565	278.763	445.612	403.575	418.288	509.930	182.573	275.051	344.352	0.0006154	0.0011518	0.00018794	937.78	9.9453e-06	5.0233e-06	1619.5	213.38	7.6275e-06	4.3096e-06	487.32	212.83	94.39	23.73	1.1894e-05	82.078	0.0027639	0.0041094	0.0010849	720.78	4.2225e-05	4.3491e-05	1231.2	167.46	3.9359e-05	4.4009e-05	378.6	165.14	78.12	19.45	4.0288e-05	64.115	226.083	277.688	219.116	180.081	375.778	290.895	179.149	185.814	318.001	269.215	184.412	189.800	190.154	196.550	462.074	193.718	-8191	255	
3032.612	1	1	0	0	0.13193	0.29428	0.048512	0.14142	0.048997	0.2849	0.19707	0.14724	0.083701	0.18249	0.25501	0.28307	0.35611	0.092497	0.052705	0.15292	-2.8229	-2.5417	-3.1729	-2.75	-2.6458	-3.3229	-2.7125	-2.9729	-3.2917	-2.5042	-3.475	-2.9146	-2.6917	-3.3708	-2.6229	-3.1896	512.347	423.894	317.591	464.791	471.110	263.732	430.400	515.609	478.304	423.477	456.774	468.484	506.561	178.505	181.970	432.835	0.00048741	0.00095123	0.00030157	941.21	1.266e-05	1.7111e-06	1619.2	212.23	7.5386e-06	1.6481e-05	491.33	215.62	97.549	24.087	8.6516e-06	82.661	0.0026584	0.0039827	0.0010658	722.48	4.0822e-05	4.2925e-05	1229.9	167.49	3.8883e-05	4.3218e-05	380.93	166.58	79.31	19.59	4.052e-05	64.677	240.222	323.228	379.043	179.900	399.166	182.842	178.662	185.612	315.104	377.960	183.745	190.017	190.072	196.386	331.094	193.906	-8191	255	
3032.708	1	1	0	0	0.2261	0.13881	0.020512	0.19621	0.1175	0.082073	0.31422	0.22989	0.090807	0.14545	0.2354	0.12198	0.13719	0.0995	0.23374	0.076656	-2.7687	-2.3792	-3.1979	-3.0979	-2.7542	-3.3312	-2.7917	-2.9896	-3.3312	-2.6625	-3.1896	-3.1583	-2.7062	-3.5271	-2.6083	-2.9188	511.820	278.180	314.157	468.334	281.302	394.617	488.881	443.058	214.277	280.432	242.878	499.026	272.036	394.389	263.538	328.848	0.00061347	0.0015308	0.00044431	940.78	2.8661e-06	2.245e-05	1624.2	214.59	1.134e-05	1.3789e-05	491.92	213.29	94.891	24.217	1.2655e-05	81.601	0.0027444	0.0039869	0.0010995	725.14	4.1232e-05	4.3881e-05	1235.9	167.79	3.9813e-05	4.295e-05	381.38	165.6	78.806	19.614	4.0342e-05	63.795	237.935	189.452	172.875	180.107	268.438	371.936	179.364	185.733	354.630	293.313	184.008	189.206	190.546	195.995	359.893	194.025	-8191	255	
3032.804	1	1	0	0	0.043795	0.25854	0.23382	0.13414	0.10373	0.046117	0.36774	0.12473	0.10557	0.058253	0.38851	0.24321	0.32795	0.23053	0.19876	0.042737	-2.7562	-2.4646	-3.1063	-3.0896	-2.575	-3.3896	-2.8542	-2.8312	-3.3771	-2.4458	-3.2958	-3.1333	-2.6771	-3.4521	-2.6979	-2.9042	221.529	508.328	346.760	475.364	206.307	251.333	463.498	247.173	252.198	452.175	490.092	226.993	415.858	500.375	470.657	282.718	0.00063693	0.00067165	0.00049854	941.91	7.036e-06	1.7483e-05	1621.4	211.3	8.5592e-06	7.8576e-06	490.21	211.59	97.197	23.579	1.615e-05	80.766	0.0027741	0.0039067	0.001073	725.89	4.0935e-05	4.2811e-05	1230.1	166.54	4.0067e-05	4.3292e-05	380.13	164.52	78.879	19.403	4.2062e-05	63.298	234.166	207.974	271.524	180.417	312.744	264.723	178.962	185.196	342.758	175.873	184.245	189.575	189.891	196.728	358.069	194.058	-8191	255	
3032.925	1	1	0	0	0.14837	0.15571	0.083379	0.27384	0.043704	0.091814	0.061749	0.29233	0.13326	0.36025	0.23121	0.2692	0.29114	0.23481	0.03488	0.057788	-3.0667	-2.525	-2.925	-3.2917	-2.5396	-3.3438	-2.9917	-2.7229	-3.2562	-2.4792	-3.1583	-3.4313	-2.525	-3.1979	-2.8604	-2.6875	301.868	496.869	277.313	484.672	381.191	510.547	500.815	409.751	321.619	429.747	218.390	492.334	263.952	230.106	170.973	191.759	0.00050657	0.0024706	0.00048711	947.34	1.5477e-05	1.4498e-05	1639.5	212.14	7.2744e-06	2.6992e-05	488.57	211.31	96.388	23.534	3.5045e-06	81.43	0.0028805	0.003978	0.0011276	725.66	4.2867e-05	4.3688e-05	1243.1	167.74	4.1267e-05	4.2912e-05	379.32	164.32	79.313	19.406	4.1309e-05	63.53	225.950	400.581	323.753	179.987	384.636	356.524	178.927	185.822	360.226	479.666	184.073	190.090	189.762	195.620	409.232	193.833	-8191	255	
3032.996	1	1	0	0	0.14859	0.19956	0.39227	0.1774	0.13771	0.10689	0.34307	0.27403	0.29355	0.029491	0.24753	0.18446	0.21473	0.19993	0.15556	0.13426	-3.1312	-2.6458	-2.8563	-3.2271	-2.4938	-3.3021	-3.2167	-2.7125	-3.3542	-2.7938	-2.9125	-3.3458	-2.2792	-3.0958	-3.0417	-2.5479	388.987	439.870	408.770	413.101	266.553	181.470	453.019	350.751	495.764	443.378	476.574	319.071	392.878	209.888	429.122	201.303	0.00065987	0.00083792	0.00056158	933.31	1.1088e-05	1.9915e-05	1634.7	214.4	1.7606e-06	1.3058e-05	488.76	213.4	97.104	23.876	3.3702e-06	82.803	0.0029322	0.0038701	0.0011198	714.7	4.2142e-05	4.6559e-05	1233.8	168.27	4.1057e-05	4.2983e-05	379.14	166.23	79.51	19.594	4.1515e-05	64.388	228.688	184.040	326.784	180.119	265.400	296.458	179.068	185.894	524.532	238.409	183.682	189.476	190.233	197.085	289.773	193.649	-8191	255	
3033.092	1	1	0	0	0.14309	0.11189	0.10134	0.24914	0.2663	0.35145	0.14771	0.25068	0.050263	0.19893	0.26018	0.19465	0.36154	0.15908	0.19918	0.16814	-3.0208	-2.6729	-2.8104	-3.3979	-2.5458	-3.0521	-3.3917	-2.4021	-3.45	-2.6458	-2.8208	-3.4542	-2.6063	-2.8812	-3.125	-2.5583	436.654	336.171	181.919	436.837	357.656	222.570	430.993	512.940	316.634	318.968	525.500	521.358	497.547	227.574	463.349	391.403	0.00048442	0.0013137	0.00071562	937.55	4.286e-06	9.8388e-06	1621.6	215.64	3.2216e-06	9.8858e-06	491.44	214.29	96.617	23.808	1.1846e-05	82.662	0.0029282	0.0038013	0.0011078	719.56	4.067e-05	4.4341e-05	1233.3	168.99	3.9362e-05	4.2882e-05	380.92	166.43	78.576	19.539	4.209e-05	64.583	215.590	276.833	294.112	180.171	373.610	226.045	178.821	185.532	321.520	265.700	184.168	189.511	190.491	196.919	271.533	194.365	-8191	255	
3033.189	1	1	0	0	0.081988	0.14951	0.076319	0.069261	0.099884	0.15816	0.2735	0.19202	0.096243	0.21532	0.13154	0.14829	0.3324	0.097777	0.14423	0.3086	-2.9208	-2.6937	-2.5333	-3.3729	-2.5542	-2.9792	-3.2875	-2.4229	-3.1583	-2.8688	-2.6562	-3.3896	-2.6667	-3.0229	-3.3063	-2.4417	374.155	461.409	266.823	275.745	376.825	208.482	494.889	519.595	493.267	413.155	398.164	470.294	422.273	313.964	436.708	324.009	0.00051995	0.00028539	0.00067638	943.93	1.187e-05	7.2754e-06	1628.4	215.18	9.7598e-06	1.1772e-05	493.1	212.11	95.118	24.196	1.5153e-05	81.802	0.0028292	0.0036368	0.0011034	720.86	3.8273e-05	4.1508e-05	1233.5	167.45	3.843e-05	4.0464e-05	382.46	165.23	76.883	19.557	4.0256e-05	64.161	225.524	334.354	209.950	180.524	361.127	194.835	179.376	185.759	380.307	292.624	183.457	189.656	190.317	196.748	519.078	194.091	-8191	255	
3033.285	1	1	0	0	0.093365	0.11716	0.13958	0.21471	0.21242	0.21417	0.17128	0.095522	0.064325	0.18509	0.26689	0.32207	0.091807	0.22879	0.10701	0.29233	-2.8271	-2.9375	-2.5458	-3.3479	-2.6979	-2.7083	-3.4104	-2.6437	-3.2104	-3.125	-2.6708	-3.4104	-2.6813	-3.0062	-3.3521	-2.6833	360.445	344.223	322.180	449.753	416.426	202.526	413.495	300.680	399.327	486.486	183.386	508.551	200.062	221.213	389.343	193.750	0.00058935	0.00086322	0.00066992	944.56	5.7374e-06	1.2507e-05	1596.6	206.81	1.3222e-05	2.2051e-06	493.85	211.48	93.303	23.876	1.0797e-05	82.086	0.0027281	0.003628	0.0010773	723.37	3.7773e-05	4.1408e-05	1214.4	161.72	3.6786e-05	3.8392e-05	381.28	163.76	76.191	19.506	3.8235e-05	63.851	229.752	213.073	284.875	180.273	323.467	350.738	179.241	185.702	407.165	500.038	183.757	189.684	190.300	196.673	248.350	193.778	-8191	255	
3033.404	1	1	0	0	0.067772	0.18074	0.13529	0.25154	0.24269	0.094419	0.3437	0.14395	0.16059	0.26458	0.26784	0.15224	0.07205	0.25375	0.077207	0.36417	-2.8167	-3.2104	-2.4562	-3.4542	-2.8604	-2.675	-3.4625	-2.5333	-3.0625	-3.2021	-2.8583	-3.475	-2.9146	-2.5958	-3.3312	-2.6646	375.691	283.842	378.399	492.819	285.667	352.836	468.643	328.190	168.922	511.390	470.379	502.549	436.794	404.281	525.183	523.847	0.0005635	0.00044164	0.00036543	962.54	7.9756e-07	1.3092e-05	1597.3	199.76	1.8125e-05	1.4634e-06	496.37	212.14	94.849	23.692	1.1548e-05	82.943	0.0026621	0.0035482	0.0010006	735.7	3.5815e-05	3.9407e-05	1210.2	156.38	3.6789e-05	3.6785e-05	382.2	164.62	76.248	19.288	3.548e-05	64.603	231.538	221.793	183.913	180.212	252.976	482.544	179.184	186.034	319.409	303.629	183.776	189.951	190.499	195.921	386.067	194.085	-8191	255	
3033.500	1	1	0	0	0.11693	0.12518	0.12572	0.15855	0.25349	0.1986	0.18608	0.035623	0.14705	0.20416	0.053514	0.24696	0.062996	0.18022	0.15244	0.15389	-2.6146	-3.2104	-2.4271	-3.2354	-2.9375	-2.6333	-3.5604	-2.9271	-2.9813	-3.3167	-2.5146	-3.0833	-3.0604	-2.5729	-3.3187	-2.6771	413.894	287.005	334.648	182.864	185.624	171.452	457.598	503.069	370.334	448.110	451.842	183.088	243.407	197.324	272.662	527.477	0.00048829	0.0018409	0.00036526	972.48	1.0467e-05	1.4517e-05	1585.9	198.15	1.4384e-05	1.1084e-05	491.38	213.43	94.075	23.452	1.3081e-05	84.669	0.0025684	0.0034451	0.0009683	745.61	3.462e-05	3.8133e-05	1208.7	155.04	3.5325e-05	3.6427e-05	379.33	165.39	76.173	19.234	3.5761e-05	65.338	221.953	346.380	368.315	180.181	245.251	340.190	179.178	186.132	239.910	401.642	183.731	190.183	190.544	196.556	390.701	194.081	-8191	255	
3033.596	1	1	0	0	0.25848	0.23372	0.089728	0.25634	0.26805	0.080581	0.22623	0.2018	0.18084	0.27395	0.12854	0.12293	0.1192	0.30574	0.11065	0.22533	-2.5312	-3.3646	-2.6375	-3.175	-3.0583	-2.5354	-3.6083	-2.8375	-2.7333	-3.3896	-2.5125	-3.2854	-3.0417	-2.5479	-3.2583	-2.7375	511.910	390.255	436.181	504.335	494.566	440.252	425.837	408.072	290.566	316.440	469.282	195.789	205.193	270.768	335.781	409.483	0.00071436	0.00042711	0.00029138	984.64	4.8005e-06	1.2933e-05	1585	199.23	1.3962e-05	9.1078e-06	496.52	216.2	95.641	24.628	2.6036e-05	84.229	0.0024605	0.0033899	0.00094254	749.5	3.5421e-05	3.8245e-05	1207.3	155.6	3.717e-05	4.0151e-05	383.38	166.74	77.104	19.838	3.8335e-05	65.86	219.185	209.279	262.948	180.178	431.557	378.875	179.548	186.142	293.337	358.937	183.711	189.494	189.525	196.819	318.241	193.523	-8191	255	
3033.692	1	1	0	0	0.28228	0.18682	0.16669	0.20228	0.1988	0.13786	0.13729	0.22291	0.20796	0.33758	0.11626	0.1892	0.39299	0.21094	0.11548	0.14512	-2.4458	-3.4146	-2.4938	-3.1188	-3.2188	-2.6042	-3.5229	-2.8708	-2.7771	-3.4083	-2.8083	-2.9646	-3.3521	-2.5312	-3.2354	-3.1396	461.098	450.704	218.047	506.521	267.482	421.233	500.021	475.613	355.306	412.724	415.286	244.184	521.686	389.108	175.948	514.060	0.00063891	0.001146	0.00038762	988.34	9.9787e-06	3.684e-06	1589.6	201.25	8.2424e-06	2.5064e-05	498.63	213.42	95.345	24.18	1.5615e-05	83.816	0.0026993	0.0037132	0.00098388	754.61	3.8123e-05	3.9694e-05	1206.4	156.27	3.9023e-05	4.1804e-05	381.83	165.57	77.418	19.771	3.9317e-05	64.85	236.349	222.239	265.508	180.238	411.351	289.586	179.440	186.467	456.988	210.339	183.439	190.108	190.385	196.645	299.459	193.661	-8191	255	
3033.788	1	1	0	0	0.083644	0.12042	0.11653	0.12525	0.16113	0.30115	0.13009	0.18879	0.087338	0.095506	0.26165	0.22823	0.071468	0.13688	0.085551	0.23454	-2.4042	-3.4938	-2.6771	-3.0687	-3.2833	-2.5792	-3.3187	-3.0542	-2.4479	-3.4188	-2.8792	-2.8708	-3.3417	-2.6562	-3.3271	-3.2667	198.496	364.461	493.511	456.230	422.607	353.557	440.360	491.095	508.049	502.241	258.862	188.053	280.909	527.665	404.126	460.332	0.0004797	0.00093461	0.00053294	985.39	7.4854e-06	5.9589e-06	1574.6	202.52	1.179e-05	1.9926e-05	491.07	209.93	94.414	23.847	1.5583e-05	81.947	0.0027656	0.0037448	0.00099238	747.73	3.9031e-05	4.1281e-05	1198.7	156.62	3.9912e-05	4.0917e-05	377.31	163.11	76.699	19.541	3.8919e-05	63.963	246.917	275.636	405.568	180.264	263.963	278.954	179.952	185.880	358.332	235.391	184.201	190.202	190.401	196.041	248.908	194.103	-8191	255	
3033.884	1	1	0	0	0.14677	0.19078	0.19835	0.34167	0.14719	0.089363	0.15108	0.096006	0.036264	0.19698	0.37467	0.29694	0.13993	0.22626	0.085029	0.16984	-2.0792	-3.2104	-2.7771	-2.8438	-3.5479	-2.5479	-3.2083	-3.1813	-2.4688	-3.4396	-2.9125	-2.7938	-3.4208	-2.8021	-3.1021	-3.3021	212.673	336.558	387.300	476.795	193.803	334.908	421.842	256.767	327.350	323.901	509.650	446.826	277.070	450.543	474.289	422.040	0.00071398	0.00093496	0.00021428	970.76	1.3068e-05	1.6256e-05	1583.7	198.12	5.9342e-06	1.6268e-05	488.2	210.14	93.883	23.767	9.2376e-06	82.509	0.0027539	0.0037606	0.00098355	742.49	3.8082e-05	4.0552e-05	1204.5	154.63	3.9538e-05	4.1887e-05	375.67	163.4	76.976	19.378	4.0692e-05	64.364	250.587	436.157	305.459	180.462	385.870	258.508	179.318	185.358	408.024	313.581	183.921	190.123	190.680	195.931	276.772	193.892	-8191	255	
3034.005	1	1	0	0	0.16486	0.11327	0.32052	0.10465	0.09151	0.16757	0.30859	0.18285	0.14949	0.081377	0.18412	0.29654	0.20355	0.24224	0.060387	0.22049	-2.1333	-3.2229	-2.7792	-2.5833	-3.4396	-2.6042	-2.925	-3.1542	-2.6813	-3.2708	-3.1813	-2.7854	-3.2896	-2.6312	-2.9542	-3.4062	233.307	482.661	353.811	493.218	262.944	522.793	492.909	182.414	277.584	406.315	521.045	517.272	306.452	466.943	421.872	410.532	0.00069255	0.000765	2.1249e-05	963.8	1.609e-05	2.5991e-05	1600.2	200.08	1.1311e-05	9.0867e-06	490.26	211.91	95	24.166	7.316e-06	82.668	0.002741	0.0037836	0.0010199	740.86	3.9882e-05	4.1096e-05	1214.1	157.08	4.0193e-05	4.2362e-05	378.44	165.2	77.46	19.633	4.2057e-05	64.91	223.267	325.500	493.335	180.408	397.215	299.057	179.434	185.927	378.780	425.187	183.974	190.083	189.990	196.155	376.396	194.283	-8191	255	
3034.101	1	1	0	0	0.18631	0.045286	0.18833	0.20106	0.054632	0.098291	0.29778	0.16222	0.10353	0.1337	0.10355	0.055203	0.12717	0.34595	0.23999	0.085594	-2.0729	-3.1896	-3.2021	-2.7062	-3.1854	-2.6813	-2.9813	-3.1688	-2.6813	-3.0729	-3.2604	-2.6375	-3.2938	-2.9021	-2.6646	-3.4042	265.152	178.766	408.896	448.405	525.230	245.725	482.126	287.799	486.025	236.092	232.047	483.942	522.344	471.658	502.974	432.556	0.00062227	0.0012263	0.00016433	971.98	9.1876e-06	1.0772e-05	1588.4	200.79	1.0937e-05	1.1852e-05	491.54	213.61	94.866	24.27	7.3656e-06	84.538	0.0027164	0.0038063	0.0010256	745.85	3.9824e-05	3.935e-05	1212.9	156.69	3.7755e-05	4.1652e-05	381.5	166.2	78.34	19.649	4.204e-05	65.76	238.303	178.342	491.810	180.114	350.963	515.634	179.324	185.854	388.639	326.941	183.550	189.840	190.458	196.624	286.130	194.047	-8191	255	
3034.195	1	1	0	0	0.31226	0.12124	0.17482	0.26616	0.10089	0.25315	0.059584	0.099465	0.2366	0.26485	0.080839	0.089484	0.092608	0.20255	0.1355	0.21226	-2.1625	-3.1125	-3.075	-2.4125	-3.3292	-2.8458	-2.6458	-3.4375	-2.4833	-3.0271	-3.3312	-2.6354	-3.3021	-2.8854	-2.6937	-3.5729	376.246	509.289	425.860	185.458	191.408	219.673	170.532	371.162	282.788	252.626	203.156	411.462	496.290	503.012	240.556	185.922	0.00071756	0.0010542	0.00047945	991.68	5.2255e-06	4.9546e-06	1588.3	197.92	1.9991e-06	4.0887e-05	496.27	212.27	95.107	23.943	1.8492e-05	82.309	0.0027012	0.0038126	0.0010424	751.47	3.9001e-05	3.9745e-05	1211.5	156.08	3.7239e-05	4.1424e-05	381.73	164.25	77.27	19.484	4.0815e-05	64.22	235.795	229.821	253.540	180.053	174.034	414.860	179.449	186.670	354.471	230.257	184.037	190.034	190.754	196.253	256.862	193.931	-8191	255	
3034.292	1	1	0	0	0.16916	0.24772	0.066292	0.078529	0.20035	0.2928	0.3196	0.08228	0.062111	0.10371	0.27142	0.059487	0.19371	0.27985	0.19344	0.093559	-2.2167	-2.7229	-3.2542	-2.6583	-3.3083	-3.0479	-2.6792	-3.2833	-2.6292	-2.7604	-3.3604	-2.6208	-3.3375	-3.0354	-2.6188	-3.4208	218.419	435.037	506.175	196.685	503.761	298.539	455.228	511.739	403.402	323.465	480.583	339.128	486.619	192.101	435.920	237.348	0.00061524	0.00085621	0.00018904	968.93	2.6591e-06	1.7223e-05	1576.2	196.48	2.8404e-06	1.0765e-05	487.46	209.59	94.067	23.981	1.523e-05	82.529	0.0026458	0.0038999	0.0010527	738.92	3.9597e-05	4.1268e-05	1200.4	155.67	3.7694e-05	4.4668e-05	374.55	163.07	77.393	19.57	4.3204e-05	64.508	233.495	302.114	204.313	180.120	270.625	239.663	179.490	186.302	347.503	381.066	184.208	189.911	190.738	196.325	276.082	193.895	-8191	255	
#DATA ENDS
