BOXY.EXE: ISS Imagent and Oximeter Data Acquisition Program Version 0.80
Ascii Record File

#ACQ INFORMATION
2  Detector Channels 
16  External MUX Channels 
1  Auxiliary Channels 
5000  Waveform (CCF) Frequency (Hz)
1  Waveforms Skipped 
30  Waveforms Averaged 
1  Cycles Averaged 
16  Acquisitions per Waveform 
10.0806  Updata Rate (Hz) 

#FILE INFORMATION
TRUE -- External MUX Channel results are PARSED.
FALSE -- AC DC and Phase are NOT grouped.
TRUE -- Companion Program Settings File CREATED.
FALSE -- AC data not excluded
FALSE -- DC data not excluded
FALSE -- Phase data not excluded
FALSE -- Auxillary Chn. data not excluded
Tab delimiters

#CALIBRATION STATE
TRUE -- Waveform Calibration Values APPLIED.


#AUX CALIBRATION VALUES
Val Type	aux-1	

Term	1.0000e+00	
Factor	0.0000e+00	


#WF CALIBRATION VALUES
A = Detector Channel
Val Type	A-AC1	A-AC2	A-AC3	A-AC4	A-AC5	A-AC6	A-AC7	A-AC8	A-AC9	A-AC10	A-AC11	A-AC12	A-AC13	A-AC14	A-AC15	A-AC16	A-DC1	A-DC2	A-DC3	A-DC4	A-DC5	A-DC6	A-DC7	A-DC8	A-DC9	A-DC10	A-DC11	A-DC12	A-DC13	A-DC14	A-DC15	A-DC16	A-Ph1	A-Ph2	A-Ph3	A-Ph4	A-Ph5	A-Ph6	A-Ph7	A-Ph8	A-Ph9	A-Ph10	A-Ph11	A-Ph12	A-Ph13	A-Ph14	A-Ph15	A-Ph16	

Term	0.00000e+00	0.00000e+00	0.00000e+00	0.00000e+00	0.00000e+00	0.00000e+00	0.00000e+00	0.00000e+00	0.00000e+00	0.00000e+00	0.00000e+00	0.00000e+00	0.00000e+00	0.00000e+00	0.00000e+00	0.00000e+00	0.00000e+00	0.00000e+00	0.00000e+00	0.00000e+00	0.00000e+00	0.00000e+00	0.00000e+00	0.00000e+00	0.00000e+00	0.00000e+00	0.00000e+00	0.00000e+00	0.00000e+00	0.00000e+00	0.00000e+00	0.00000e+00	0.00000e+00	0.00000e+00	0.00000e+00	0.00000e+00	0.00000e+00	0.00000e+00	0.00000e+00	0.00000e+00	0.00000e+00	0.00000e+00	0.00000e+00	0.00000e+00	0.00000e+00	0.00000e+00	0.00000e+00	0.00000e+00	
Factor	1.00000e+00	1.00000e+00	1.00000e+00	1.00000e+00	1.00000e+00	1.00000e+00	1.00000e+00	1.00000e+00	1.00000e+00	1.00000e+00	1.00000e+00	1.00000e+00	1.00000e+00	1.00000e+00	1.00000e+00	1.00000e+00	1.00000e+00	1.00000e+00	1.00000e+00	1.00000e+00	1.00000e+00	1.00000e+00	1.00000e+00	1.00000e+00	1.00000e+00	1.00000e+00	1.00000e+00	1.00000e+00	1.00000e+00	1.00000e+00	1.00000e+00	1.00000e+00	X	X	X	X	X	X	X	X	X	X	X	X	X	X	X	X	

B = Detector Channel
Val Type	B-AC1	B-AC2	B-AC3	B-AC4	B-AC5	B-AC6	B-AC7	B-AC8	B-AC9	B-AC10	B-AC11	B-AC12	B-AC13	B-AC14	B-AC15	B-AC16	B-DC1	B-DC2	B-DC3	B-DC4	B-DC5	B-DC6	B-DC7	B-DC8	B-DC9	B-DC10	B-DC11	B-DC12	B-DC13	B-DC14	B-DC15	B-DC16	B-Ph1	B-Ph2	B-Ph3	B-Ph4	B-Ph5	B-Ph6	B-Ph7	B-Ph8	B-Ph9	B-Ph10	B-Ph11	B-Ph12	B-Ph13	B-Ph14	B-Ph15	B-Ph16	

Term	0.00000e+00	0.00000e+00	0.00000e+00	0.00000e+00	0.00000e+00	0.00000e+00	0.00000e+00	0.00000e+00	0.00000e+00	0.00000e+00	0.00000e+00	0.00000e+00	0.00000e+00	0.00000e+00	0.00000e+00	0.00000e+00	0.00000e+00	0.00000e+00	0.00000e+00	0.00000e+00	0.00000e+00	0.00000e+00	0.00000e+00	0.00000e+00	0.00000e+00	0.00000e+00	0.00000e+00	0.00000e+00	0.00000e+00	0.00000e+00	0.00000e+00	0.00000e+00	-9.97839e+01	-1.27879e+02	-1.28521e+02	-1.82006e+02	-5.58992e+01	-7.33021e+01	-1.57810e+02	-1.62015e+02	-5.12818e+01	-6.74143e+01	-1.72403e+02	-1.70165e+02	-1.80574e+02	-1.76604e+02	-6.35904e+01	-1.48996e+02	
Factor	1.65874e-05	1.60630e-04	4.67225e-05	1.56642e-01	1.23825e-06	1.65992e-06	1.81458e-01	5.32774e-02	1.10927e-06	1.85625e-06	9.31568e-02	3.11199e-02	4.21576e-02	9.47623e-03	1.36244e-06	1.40405e-02	8.31017e-06	1.23189e-05	3.42039e-06	7.89887e-02	1.27350e-07	1.35954e-07	8.60234e-02	2.70087e-02	1.27156e-07	1.36589e-07	4.55214e-02	1.53836e-02	2.16466e-02	4.83925e-03	1.31139e-07	6.92868e-03	X	X	X	X	X	X	X	X	X	X	X	X	X	X	X	X	



#DISTANCE SETTINGS
A = Detector Channel
A-1	A-2	A-3	A-4	A-5	A-6	A-7	A-8	A-9	A-10	A-11	A-12	A-13	A-14	A-15	A-16	

2.5000e+00	3.0000e+00	2.5000e+00	3.0000e+00	2.0000e+00	3.0000e+00	1.5000e+00	3.0000e+00	3.0000e+00	3.0000e+00	3.0000e+00	3.0000e+00	3.0000e+00	3.0000e+00	1.5000e+00	3.0000e+00	

B = Detector Channel
B-1	B-2	B-3	B-4	B-5	B-6	B-7	B-8	B-9	B-10	B-11	B-12	B-13	B-14	B-15	B-16	

1.0000e+01	1.0000e+01	1.0000e+01	1.4400e+00	1.0000e+01	1.0000e+01	1.5100e+00	1.9400e+00	1.0000e+01	1.0000e+01	1.9900e+00	2.4900e+00	2.4100e+00	2.9000e+00	1.0000e+01	2.9800e+00	




#DATA BEGINS
time	group	step	mark	flag	A-AC1	A-AC2	A-AC3	A-AC4	A-AC5	A-AC6	A-AC7	A-AC8	A-AC9	A-AC10	A-AC11	A-AC12	A-AC13	A-AC14	A-AC15	A-AC16	A-DC1	A-DC2	A-DC3	A-DC4	A-DC5	A-DC6	A-DC7	A-DC8	A-DC9	A-DC10	A-DC11	A-DC12	A-DC13	A-DC14	A-DC15	A-DC16	A-Ph1	A-Ph2	A-Ph3	A-Ph4	A-Ph5	A-Ph6	A-Ph7	A-Ph8	A-Ph9	A-Ph10	A-Ph11	A-Ph12	A-Ph13	A-Ph14	A-Ph15	A-Ph16	B-AC1	B-AC2	B-AC3	B-AC4	B-AC5	B-AC6	B-AC7	B-AC8	B-AC9	B-AC10	B-AC11	B-AC12	B-AC13	B-AC14	B-AC15	B-AC16	B-DC1	B-DC2	B-DC3	B-DC4	B-DC5	B-DC6	B-DC7	B-DC8	B-DC9	B-DC10	B-DC11	B-DC12	B-DC13	B-DC14	B-DC15	B-DC16	B-Ph1	B-Ph2	B-Ph3	B-Ph4	B-Ph5	B-Ph6	B-Ph7	B-Ph8	B-Ph9	B-Ph10	B-Ph11	B-Ph12	B-Ph13	B-Ph14	B-Ph15	B-Ph16	aux-1	digaux	

2553.102	1	1	0	256	0.083342	0.058295	0.084028	0.29905	0.078654	0.0062993	0.079915	0.21325	0.14962	0.089101	0.13039	0.18564	0.25538	0.068677	0.24743	0.11279	-2.7938	-3.2208	-2.6625	-3.3833	-2.9583	-2.7479	-3.4729	-2.6396	-3.0271	-3.4188	-2.5125	-3.1917	-3.0708	-2.7521	-3.3708	-2.75	142.337	108.465	-117.172	168.405	-117.118	154.550	190.855	141.914	10.733	-55.918	-72.448	80.027	132.940	-56.039	91.165	157.953	2.731e-05	0.00013169	1.0261e-05	45.192	4.9981e-07	1.0562e-06	93.15	11.76	1.4035e-08	4.7023e-07	28.29	10.154	4.2547	1.9407	4.7573e-07	4.7122	0.00016265	0.00016964	5.3173e-05	50.222	1.5659e-06	2.3327e-06	101.32	13.121	2.2777e-06	1.8633e-06	31.308	11.45	4.95	2.1863	2.0477e-06	5.2588	-115.410	-66.346	31.735	-117.456	-36.158	76.396	-118.170	-109.855	-38.919	141.994	-112.412	-109.035	-106.853	-100.317	210.351	-105.820	-8191	255	
2553.222	1	1	0	0	0.24604	0.15397	0.02802	0.070861	0.066502	0.11129	0.13982	0.17002	0.043291	0.17427	0.31779	0.08355	0.42342	0.066928	0.26913	0.29433	-2.6583	-3.1729	-2.4042	-3.0625	-3.1604	-2.6458	-3.4083	-2.6771	-2.85	-3.2417	-2.5417	-3.1188	-3.1396	-2.3208	-3.2833	-2.8083	20.654	-81.893	80.967	132.078	100.869	-92.991	-6.289	142.544	176.508	196.860	-83.053	199.313	-62.243	28.146	89.726	-10.940	3.0338e-05	0.00017016	3.8279e-06	45.251	3.8556e-07	6.856e-07	92.979	11.615	8.4986e-07	1.3589e-06	28.354	10.287	4.2664	1.9406	3.9042e-07	4.7425	0.00016025	0.00017141	4.9368e-05	49.751	1.5842e-06	2.2294e-06	101.47	13.046	2.1905e-06	1.8417e-06	31.445	11.501	4.9926	2.1824	2.1553e-06	5.277	-122.012	218.706	82.976	-117.526	-53.361	-18.276	-117.870	-110.695	2.184	105.390	-112.560	-109.202	-107.086	-101.239	22.024	-104.732	-8191	255	
2553.318	1	1	0	0	0.12075	0.080122	0.20055	0.15232	0.27498	0.13202	0.15179	0.26005	0.12997	0.2554	0.050251	0.16603	0.1316	0.18302	0.055962	0.38295	-2.3458	-3.3729	-2.5375	-2.9437	-3.1542	-2.7667	-3.3396	-2.9167	-2.9	-3.5354	-2.55	-3.1896	-3.3646	-2.5604	-3.3312	-2.975	44.071	-124.998	-61.053	55.451	112.955	65.112	19.871	65.198	51.238	-32.905	-34.200	117.469	18.762	14.997	225.547	189.174	2.7207e-05	1.4185e-05	2.486e-05	45.434	5.3093e-07	2.5032e-07	93.68	11.74	8.6334e-07	1.3666e-06	28.837	10.384	4.2925	1.9393	4.1656e-07	4.7429	0.00015569	0.00017747	4.4351e-05	49.878	1.5765e-06	1.9886e-06	101.81	13.092	2.0885e-06	1.9899e-06	31.525	11.631	5.0168	2.1902	2.1717e-06	5.2973	-125.834	160.364	-40.206	-116.907	-29.119	109.250	-117.648	-110.195	135.049	39.437	-112.890	-109.760	-107.384	-100.468	171.057	-105.290	-8191	255	
2553.415	1	1	0	0	0.064488	0.17516	0.11676	0.11579	0.33647	0.14416	0.25881	0.21469	0.11512	0.1928	0.25152	0.19846	0.20227	0.17521	0.22054	0.32682	-2.2458	-3.3583	-2.6917	-2.9708	-3.2562	-2.5875	-3.0667	-2.9688	-2.7271	-3.4521	-2.8563	-2.875	-3.4396	-2.6146	-3.2604	-3.1437	88.431	-21.935	-33.951	21.606	11.520	-50.118	126.273	34.730	108.979	-87.994	193.549	134.677	163.405	31.359	219.843	-104.172	2.8725e-05	7.3898e-05	1.9224e-05	45.734	5.3594e-07	6.6041e-07	93.532	11.787	1.019e-07	7.1358e-07	28.789	10.448	4.476	1.992	6.5885e-07	4.8779	0.00014697	0.00018414	4.0696e-05	50.662	1.6696e-06	1.8787e-06	102.13	13.107	1.986e-06	2.0816e-06	31.69	11.7	5.1153	2.2459	2.1919e-06	5.4126	218.320	-108.016	-37.131	-117.212	98.868	65.439	-118.228	-109.239	71.099	38.723	-112.545	-109.808	-108.453	-101.441	47.560	-105.285	-8191	255	
2553.511	1	1	0	0	0.2459	0.18637	0.1618	0.081416	0.073122	0.09822	0.15909	0.13286	0.23244	0.13865	0.23195	0.03307	0.20482	0.036677	0.094839	0.17203	-2.2562	-3.5458	-2.6688	-2.8563	-3.4688	-2.5167	-3.1583	-3.15	-2.5625	-3.4917	-2.8937	-2.5875	-3.4292	-2.5979	-3.15	-3.1917	181.707	-104.785	-64.939	44.185	194.055	-122.208	57.001	132.841	-112.424	-107.894	9.221	-79.940	85.009	-3.905	108.975	157.926	2.4916e-05	1.8021e-05	1.9162e-05	45.709	6.4424e-07	5.8354e-07	93.203	11.958	1.5657e-07	6.8261e-07	28.595	10.537	4.3704	1.9944	3.6878e-07	4.804	0.00014802	0.00019097	3.9042e-05	50.657	1.7802e-06	1.7756e-06	102.48	13.223	1.8721e-06	2.1655e-06	31.523	11.743	5.155	2.2452	2.2105e-06	5.3491	220.423	-26.317	-1.149	-116.901	46.131	16.059	-117.457	-110.195	-88.065	154.423	-112.631	-110.212	-107.850	-100.956	79.435	-105.350	-8191	255	
2553.630	1	1	0	0	0.07279	0.21308	0.23132	0.038013	0.11411	0.10568	0.16433	0.14832	0.14833	0.11963	0.1433	0.18906	0.17767	0.10691	0.032594	0.16136	-2.2854	-3.3542	-2.9146	-2.8104	-3.5563	-2.7708	-2.9062	-3.1896	-2.675	-3.3583	-3.0479	-2.6896	-3.5833	-2.8125	-3.0729	-3.4688	44.780	10.809	90.922	81.386	87.005	194.598	-64.004	15.702	31.615	28.346	-55.346	-16.014	-119.869	215.516	52.646	182.346	2.514e-05	7.8159e-05	1.1501e-05	45.967	5.2272e-07	6.2075e-07	92.538	11.645	2.3254e-07	7.3376e-07	28.486	10.34	4.3803	2	9.3926e-07	4.7352	0.00013255	0.00020054	3.8123e-05	50.473	1.8272e-06	1.547e-06	101.03	13.005	1.7447e-06	2.2147e-06	31.082	11.541	5.1704	2.2289	2.1682e-06	5.282	-125.737	65.955	-123.971	-117.222	-61.423	-49.977	-118.011	-110.962	126.002	97.182	-113.009	-108.975	-106.482	-101.000	-2.438	-105.798	-8191	255	
2553.726	1	1	0	0	0.29664	0.2568	0.038879	0.13538	0.030665	0.14165	0.14805	0.19126	0.2607	0.16967	0.19043	0.14994	0.25755	0.070086	0.20754	0.17937	-2.1667	-3.2646	-2.9646	-2.6875	-3.4479	-2.7354	-2.8792	-3.2667	-2.5	-3.2562	-3.1333	-2.7354	-3.3792	-2.7604	-2.7271	-3.4042	196.772	-127.272	73.102	150.118	12.318	-81.548	-27.530	75.777	42.212	-9.114	148.167	14.254	-124.790	37.681	113.765	146.590	3.0478e-05	4.2538e-05	2.7774e-05	45.648	6.7313e-07	4.6377e-07	92.653	11.834	4.7704e-07	5.5951e-07	28.628	10.312	4.4019	1.9843	2.611e-07	4.7754	0.00012675	0.00019356	3.7546e-05	50.226	1.8704e-06	1.5351e-06	100.99	13.122	1.6382e-06	2.0554e-06	31.273	11.545	5.1859	2.2336	2.1236e-06	5.3301	222.038	-32.740	-32.071	-116.778	70.692	23.051	-118.054	-110.588	109.489	54.099	-113.083	-109.127	-108.300	-100.898	97.875	-105.301	-8191	255	
2553.799	1	1	0	0	0.1444	0.07874	0.06618	0.16127	0.023049	0.10919	0.093947	0.28242	0.28009	0.25602	0.058944	0.10023	0.35742	0.15254	0.11427	0.18365	-2.25	-3.125	-3.2833	-2.5604	-3.3896	-2.8083	-2.9	-3.4313	-2.7938	-3.2167	-3.375	-2.5563	-3.3417	-3.0542	-2.5708	-3.4708	148.648	96.687	109.586	-62.425	122.761	0.991	-69.805	140.841	-24.185	38.936	-95.059	58.001	-9.138	25.568	-65.216	-44.943	3.4903e-05	8.3208e-05	1.7473e-05	45.493	5.9663e-07	8.6981e-07	92.656	11.722	6.3792e-07	3.4861e-07	28.731	10.459	4.4224	1.988	2.2448e-07	4.825	0.00011833	0.00019944	4.2206e-05	50.484	2.0416e-06	1.4895e-06	101.59	13.174	1.5865e-06	2.2489e-06	31.737	11.591	5.2086	2.2222	2.1455e-06	5.3642	220.026	2.131	25.537	-116.881	-42.900	106.145	-117.876	-110.544	61.374	94.937	-112.938	-109.383	-107.391	-101.198	49.923	-105.426	-8191	255	
2553.918	1	1	0	0	0.060528	0.089009	0.13978	0.33489	0.20954	0.24782	0.18127	0.13873	0.039681	0.16608	0.016015	0.076381	0.15573	0.15386	0.13236	0.03496	-2.2708	-2.9562	-3.3479	-2.5062	-3.0833	-3.0417	-2.6896	-3.4958	-2.8	-3.0125	-3.3729	-2.55	-3.3625	-3.1146	-2.7062	-3.4104	-3.895	-106.167	-126.383	-32.510	148.084	-39.713	219.066	-94.692	30.971	188.114	188.004	-29.461	214.820	172.897	-105.997	212.711	3.0408e-05	9.0835e-05	3.4244e-05	45.803	4.6162e-07	9.5233e-07	93.136	11.755	7.0681e-07	2.4605e-07	28.921	10.329	4.354	1.962	7.0343e-07	4.8425	0.00011307	0.00021176	4.4757e-05	50.412	2.0922e-06	1.619e-06	101.55	13.213	1.4594e-06	2.3055e-06	31.78	11.537	5.1295	2.2019	2.0007e-06	5.3992	-127.536	216.804	148.850	-117.003	-86.218	-117.345	-117.773	-110.158	25.511	-6.522	-112.819	-109.470	-107.516	-100.446	32.710	-105.539	-8191	255	
2554.014	1	1	0	0	0.28541	0.16525	0.12334	0.20996	0.20687	0.31626	0.13098	0.15179	0.098059	0.070979	0.084329	0.046515	0.31305	0.28559	0.32475	0.23777	-2.2812	-3.025	-3.3542	-2.4979	-3.2042	-3.2062	-2.6479	-3.2604	-2.8604	-2.8708	-3.4958	-2.6125	-3.0917	-3.3375	-2.6937	-3.3688	131.195	-97.659	206.029	108.047	165.174	139.902	128.337	127.549	20.554	-45.198	-98.629	89.788	2.111	49.732	192.473	55.486	2.7443e-05	0.00013871	2.1992e-05	45.798	5.9294e-07	1.2368e-06	93.287	11.817	3.5773e-07	5.6016e-07	28.485	10.301	4.2778	1.8948	3.9577e-07	4.7059	0.00011416	0.00019913	4.8491e-05	50.098	2.0076e-06	1.6833e-06	102.26	13.253	1.5055e-06	2.1114e-06	31.637	11.433	5.0286	2.1399	1.8234e-06	5.2933	230.183	54.748	83.175	-117.066	60.091	-30.378	-118.531	-110.985	71.705	72.224	-112.612	-109.831	-107.085	-100.188	-74.494	-105.243	-8191	255	
2554.110	1	1	0	0	0.11281	0.22353	0.057552	0.13425	0.081564	0.12813	0.18824	0.13743	0.33748	0.20619	0.084514	0.075873	0.14679	0.1799	0.17438	0.26627	-2.4938	-2.7375	-3.175	-2.5146	-2.9917	-3.2375	-2.5375	-3.3563	-3.0021	-2.5604	-3.5146	-2.6021	-2.9542	-3.4896	-2.5896	-3.3521	206.617	176.755	69.305	-71.641	124.031	59.901	64.969	-110.538	-58.272	123.301	-87.702	171.254	56.362	-89.940	-35.776	90.319	2.394e-05	0.0001145	2.1558e-05	44.989	1.3934e-07	7.8459e-07	92.014	11.667	1.2098e-07	4.1057e-07	28.05	10.023	4.2244	1.8323	8.4641e-07	4.6505	0.00011342	0.00016949	5.4512e-05	49.282	1.9487e-06	1.8756e-06	100.28	13.134	1.5712e-06	1.7862e-06	31.294	11.206	4.9723	2.0903	1.6048e-06	5.2118	224.830	-61.763	185.227	-118.172	-26.693	29.669	-117.882	-110.162	45.725	170.099	-113.028	-109.994	-107.380	-102.089	146.608	-105.395	-8191	255	
2554.207	1	1	0	0	0.33718	0.19043	0.25512	0.091551	0.11829	0.10238	0.24795	0.080085	0.2209	0.24214	0.10338	0.092317	0.16654	0.030265	0.29968	0.16045	-2.6854	-2.7229	-3.3708	-2.6521	-2.9458	-3.4458	-2.5896	-3.1688	-3.0417	-2.575	-3.4813	-2.7396	-2.7521	-3.1271	-2.6	-3.2125	-27.801	154.205	-56.667	117.198	45.504	-108.606	-11.867	10.152	-116.305	-29.479	13.269	0.274	138.547	216.952	99.257	-62.680	2.8888e-05	5.9574e-05	1.9711e-05	44.674	3.9037e-07	4.9024e-07	91.237	11.666	1.3794e-07	1.5825e-07	28.248	9.9319	4.3291	1.8345	5.0249e-07	4.6565	0.00011641	0.0001661	4.009e-05	48.918	1.6991e-06	1.4952e-06	100.34	12.956	1.4286e-06	1.8141e-06	31.098	11.176	4.9661	2.0586	1.5275e-06	5.2052	-111.143	17.089	-59.971	-117.261	65.258	114.570	-118.455	-110.760	231.032	130.884	-112.800	-110.054	-107.481	-100.719	55.713	-105.580	-8191	255	
2554.327	1	1	0	0	0.27777	0.18218	0.073702	0.093277	0.17313	0.095408	0.13645	0.18437	0.088493	0.069592	0.2622	0.095412	0.10476	0.044117	0.091103	0.26792	-2.8896	-2.4354	-3.4333	-2.775	-2.8063	-3.4146	-2.7125	-2.8729	-3.2458	-2.6354	-3.3229	-2.8063	-2.5938	-3.4188	-2.5521	-2.8812	45.668	-25.013	203.830	154.140	-71.646	181.156	145.858	71.610	-80.776	65.637	131.811	53.339	178.618	62.260	-29.763	221.580	2.3574e-05	2.3751e-06	3.3194e-05	45.174	7.2394e-07	8.9452e-07	92.198	11.884	8.8354e-08	1.6212e-06	28.551	10.244	4.2222	1.8597	1.4495e-07	4.6879	0.00010743	0.00016484	4.0674e-05	49.562	1.7022e-06	1.5046e-06	101.04	13.24	1.4313e-06	1.7461e-06	31.414	11.375	5.0074	2.0828	1.5371e-06	5.2278	-124.382	-120.721	-85.195	-117.411	140.497	23.703	-118.395	-110.877	214.653	66.180	-113.089	-110.398	-107.632	-100.975	-4.492	-105.886	-8191	255	
2554.399	1	1	0	0	0.24608	0.14723	0.081218	0.16873	0.17671	0.098089	0.1234	0.20069	0.23211	0.083574	0.34382	0.2334	0.05881	0.039128	0.040068	0.070449	-2.7229	-2.6792	-3.4229	-2.8979	-2.6146	-3.4479	-2.6646	-3.0771	-3.4792	-2.6896	-3.2458	-2.9604	-2.5271	-3.3063	-2.7938	-2.8958	115.258	94.626	-22.921	220.917	-118.134	9.809	-42.569	95.361	110.832	143.463	-95.804	97.989	-98.717	27.549	-125.525	67.329	2.317e-05	7.4423e-05	1.6128e-05	45.269	1.1697e-06	5.3295e-07	92.337	11.979	2.5149e-07	9.742e-07	28.939	10.207	4.2134	1.8092	5.991e-07	4.6752	0.00011369	0.0001594	4.4323e-05	49.779	1.7675e-06	1.6224e-06	101.04	13.429	1.4671e-06	1.6965e-06	31.839	11.376	4.9444	2.0637	1.4417e-06	5.2047	-121.326	5.578	-19.146	-117.542	35.762	4.777	-118.654	-110.408	-0.373	74.322	-112.858	-109.854	-107.681	-101.992	-2.945	-105.518	-8191	255	
2554.519	1	1	0	0	0.115	0.075841	0.22526	0.17222	0.2607	0.095414	0.095415	0.34613	0.14621	0.30902	0.11755	0.16983	0.22084	0.18211	0.013928	0.10034	-2.8521	-2.6479	-3.1875	-3.1396	-2.5375	-3.5062	-2.8167	-2.7271	-3.3104	-2.4437	-3.0333	-3.2167	-2.3979	-3.325	-2.9354	-2.8104	40.012	-108.830	208.957	-98.156	189.269	-35.775	132.718	-63.032	-50.451	-40.930	-44.491	227.608	-12.563	25.096	213.632	6.217	2.7548e-05	7.3229e-05	1.443e-05	46.04	5.2262e-07	6.7013e-07	91.949	12.161	1.5614e-07	9.7431e-07	28.648	10.289	4.241	1.7783	2.656e-07	4.549	0.00010898	0.00015152	4.3952e-05	50.438	1.7317e-06	1.6377e-06	100.07	13.565	1.5018e-06	1.6425e-06	31.274	11.447	4.8926	2.008	1.4261e-06	5.1048	227.789	-30.861	229.707	-117.525	39.112	153.115	-118.535	-111.369	69.259	164.893	-113.316	-110.018	-106.465	-101.074	-30.639	-105.345	-8191	255	
2554.616	1	1	0	0	0.18582	0.19042	0.07551	0.17576	0.16643	0.037195	0.24937	0.094209	0.082062	0.090139	0.12302	0.11515	0.15015	0.16711	0.023849	0.083613	-3	-2.6021	-3.0979	-3.0354	-2.4979	-3.2313	-2.9938	-2.7479	-3.4333	-2.9062	-3.0375	-3.1188	-2.6312	-3.1979	-3.0604	-2.6042	-85.614	97.644	192.899	117.005	88.565	106.013	123.295	157.827	-83.190	-76.797	182.455	19.358	40.060	-32.981	177.542	68.059	2.3163e-05	8.2983e-05	2.5199e-05	45.939	2.6389e-07	1.1269e-06	90.94	11.906	4.1628e-07	1.2247e-06	27.822	10.214	4.1376	1.78	4.973e-07	4.5227	0.00011124	0.00014736	4.3653e-05	50.13	1.6622e-06	1.6884e-06	99.343	13.33	1.5336e-06	1.5904e-06	30.717	11.348	4.8608	1.9899	1.4215e-06	5.0522	223.610	52.189	-86.782	-117.649	-21.071	1.110	-118.774	-110.595	10.099	47.322	-112.725	-109.773	-108.037	-101.617	-94.409	-105.473	-8191	255	
2554.710	1	1	0	0	0.14557	0.25799	0.22496	0.13218	0.42183	0.19081	0.065295	0.20035	0.11924	0.15956	0.30092	0.12017	0.047801	0.19834	0.24376	0.079763	-3.1625	-2.6083	-2.8521	-3.2792	-2.4979	-3.0708	-3.1917	-2.6229	-3.3937	-2.8875	-2.7208	-3.4417	-2.6896	-3.1562	-3.075	-2.7896	4.645	52.663	-68.363	-38.520	229.436	145.253	174.093	36.863	25.334	-115.736	-88.772	-75.884	50.127	-26.707	85.401	-12.687	2.5924e-05	0.00010823	1.8322e-05	45.791	5.3608e-07	4.2832e-07	90.76	11.875	8.1492e-07	1.2398e-06	27.587	10.216	4.1509	1.7879	5.9652e-07	4.6029	0.0001133	0.00014085	4.5356e-05	50.032	1.5444e-06	1.7408e-06	99.055	13.336	1.5166e-06	1.4939e-06	30.594	11.355	4.8424	1.9867	1.3368e-06	5.1024	-127.755	-22.408	109.540	-118.504	24.754	-51.986	-118.196	-110.850	27.188	46.211	-113.440	-109.967	-108.455	-101.031	60.740	-105.230	-8191	255	
2554.806	1	1	0	0	0.11248	0.22657	0.14805	0.030512	0.095623	0.11995	0.088982	0.16008	0.19994	0.18446	0.1112	0.10672	0.18647	0.23484	0.16372	0.056603	-2.9729	-2.8729	-2.9479	-3.3792	-2.6417	-3.3167	-3.1854	-2.6458	-3.475	-3.0958	-2.6437	-3.3417	-2.4917	-2.8792	-3.3063	-2.7125	104.359	-118.834	229.138	150.638	-63.353	-52.859	78.026	92.119	-89.061	23.065	-66.814	67.523	-103.791	182.424	11.542	49.324	1.8281e-05	8.0196e-06	1.0817e-05	45.848	5.2408e-07	8.9784e-07	92.415	12.065	1.4296e-07	8.7689e-07	28.085	10.245	4.1953	1.767	5.0818e-07	4.5957	0.00011058	0.00012712	4.5384e-05	50.179	1.4483e-06	1.7405e-06	100.26	13.442	1.5047e-06	1.4427e-06	31.096	11.464	4.8456	2.0024	1.4802e-06	5.1251	231.094	5.736	-68.304	-118.357	204.730	175.986	-118.584	-110.798	86.621	-60.252	-112.707	-110.256	-106.927	-101.094	173.891	-105.850	-8191	255	
2554.927	1	1	0	0	0.070148	0.070526	0.14829	0.050664	0.20025	0.16175	0.16088	0.1182	0.14789	0.21281	0.11721	0.061756	0.20958	0.089827	0.21626	0.059196	-3.0396	-2.8979	-2.7792	-3.4292	-2.6813	-2.925	-3.3292	-2.65	-3.3187	-3.1667	-2.525	-3.3625	-2.7833	-2.7687	-3.5708	-2.5687	186.250	125.541	175.694	171.791	66.271	-111.627	73.950	89.040	220.413	196.772	37.529	193.278	-17.064	57.267	125.300	128.423	2.1382e-05	9.7365e-05	2.9172e-05	46.533	4.9074e-07	6.6125e-07	91.924	12.15	2.7004e-07	8.6042e-07	28.241	10.358	4.1076	1.6854	9.6505e-07	4.4268	0.00011762	0.00013358	4.4187e-05	50.885	1.4332e-06	1.8294e-06	100.75	13.568	1.5457e-06	1.4979e-06	31.083	11.496	4.7735	1.9096	1.4824e-06	4.9255	227.602	-106.068	99.713	-117.964	59.194	-26.728	-117.993	-111.504	-95.262	58.538	-114.146	-109.858	-106.727	-101.000	-1.881	-105.342	-8191	255	
2554.998	1	1	0	0	0.18007	0.21857	0.15522	0.10575	0.16895	0.15829	0.14059	0.17654	0.14863	0.20635	0.067178	0.13586	0.16149	0.13994	0.29248	0.08042	-2.6917	-3.0479	-2.5958	-3.3521	-2.7438	-2.9083	-3.5125	-2.6854	-3.0583	-3.2	-2.4313	-3.2979	-3.0312	-2.8979	-3.3083	-2.6708	174.524	37.469	14.093	95.099	220.243	228.591	120.889	-102.486	-57.687	82.351	113.303	118.967	37.696	-53.105	108.105	186.760	2.4525e-05	1.8532e-05	2.0647e-05	46.388	5.4375e-07	2.2507e-06	94.276	12.138	8.2092e-08	3.2086e-07	27.994	10.434	4.0799	1.6611	5.051e-07	4.4167	0.00011774	0.00013279	4.475e-05	51.111	1.3136e-06	1.7654e-06	102.87	13.63	1.5741e-06	1.4467e-06	30.964	11.592	4.7668	1.8737	1.4393e-06	4.8479	-108.559	8.406	-92.726	-117.916	40.641	-33.738	-118.704	-111.600	-27.513	56.027	-112.830	-110.777	-107.833	-101.007	-26.726	-105.272	-8191	255	
2555.095	1	1	0	0	0.19433	0.23348	0.060729	0.013099	0.12919	0.38251	0.21792	0.13252	0.12143	0.07656	0.10741	0.25172	0.16282	0.091436	0.13264	0.23785	-2.6917	-3.1854	-2.4583	-3.3854	-2.9792	-2.5833	-3.3646	-2.5833	-2.7458	-3.2521	-2.4792	-3.3125	-2.9354	-2.6396	-3.4146	-2.675	115.778	184.616	-23.276	62.763	48.833	45.103	149.481	66.901	37.218	-13.672	225.483	132.421	87.123	104.650	26.517	97.929	2.4344e-05	9.4853e-05	5.774e-06	47.297	1.37e-07	3.3277e-07	94.071	12.201	4.7231e-07	4.6198e-07	27.882	10.436	4.15	1.7165	1.9741e-07	4.3894	0.00011376	0.00012932	3.8964e-05	51.62	1.3255e-06	1.679e-06	102.24	13.57	1.5815e-06	1.4256e-06	30.521	11.483	4.7895	1.929	1.4095e-06	4.8808	230.019	3.167	85.645	-117.491	198.776	-35.197	-118.831	-111.052	-115.068	69.849	-113.279	-109.908	-108.107	-100.991	138.116	-105.665	-8191	255	
2555.191	1	1	0	0	0.2081	0.11581	0.22495	0.11625	0.087982	0.11812	0.15013	0.23585	0.18503	0.11895	0.22331	0.12731	0.12617	0.13417	0.049926	0.15907	-2.5729	-3.2667	-2.4708	-3.1292	-3.0958	-2.6792	-3.4625	-2.6729	-2.6083	-3.4292	-2.6792	-3.0771	-3.3063	-2.6208	-3.4583	-2.9271	-99.654	142.096	134.158	144.170	88.855	179.466	-51.230	-36.978	172.175	143.704	201.615	152.091	-67.099	206.017	58.371	-13.040	3.2622e-05	5.9352e-05	9.4417e-06	46.984	2.2747e-07	4.8946e-07	91.99	12.185	8.5341e-07	1.0641e-06	27.473	10.178	4.1933	1.7162	6.3269e-07	4.3938	0.00011781	0.00013066	3.8201e-05	51.029	1.3547e-06	1.6972e-06	101.13	13.39	1.6652e-06	1.5059e-06	30.113	11.314	4.8057	1.9267	1.5491e-06	4.8811	218.009	-53.838	79.344	-117.682	39.028	4.743	-118.635	-111.620	8.876	37.427	-112.336	-110.063	-106.108	-101.555	78.616	-105.481	-8191	255	
2555.310	1	1	0	0	0.35661	0.10671	0.29835	0.12508	0.06767	0.17437	0.1284	0.15677	0.044908	0.22653	0.19447	0.20622	0.092509	0.19381	0.25635	0.091623	-2.4625	-3.5396	-2.5542	-3.1042	-3.2417	-2.4125	-3.3063	-2.8458	-2.7542	-3.5271	-2.7208	-3.0646	-3.2896	-2.6667	-3.2833	-3.0542	52.576	-44.157	75.907	19.033	-92.072	126.704	137.997	202.357	-33.175	196.940	152.666	6.360	205.136	-36.452	219.179	2.702	2.454e-05	4.6366e-05	1.9536e-05	45.83	3.0749e-07	5.3533e-07	92.722	12.155	5.3206e-07	1.1053e-06	27.465	10.105	4.0801	1.7063	1.0789e-06	4.4075	0.00011643	0.00013864	3.6477e-05	50.277	1.3584e-06	1.5615e-06	100.94	13.406	1.6173e-06	1.5699e-06	30.284	11.319	4.8152	1.9162	1.5259e-06	4.884	204.518	176.696	218.978	-117.997	20.168	-2.303	-118.006	-110.538	9.741	74.134	-112.545	-109.766	-106.776	-101.246	92.773	-105.457	-8191	255	
2555.406	1	1	0	0	0.18249	0.07475	0.25801	0.03778	0.20719	0.13058	0.50479	0.15922	0.22749	0.053565	0.14033	0.32369	0.14343	0.27556	0.14226	0.16352	-2.2917	-3.4437	-2.6833	-2.8292	-3.2729	-2.5625	-3.2271	-3.2021	-2.5958	-3.4542	-2.6458	-3.0375	-3.3479	-2.6104	-3.0896	-3.0542	81.230	-64.901	-119.822	35.584	174.512	-59.728	-69.243	120.223	-63.729	208.657	172.364	-25.982	227.640	178.889	169.573	32.856	2.5552e-05	0.00011952	6.5173e-06	45.414	6.4122e-07	1.2368e-06	93.373	12.258	4.9472e-07	7.576e-07	27.768	10.241	4.1608	1.6916	7.3154e-07	4.4619	0.00012048	0.0001389	3.5501e-05	49.752	1.4375e-06	1.5558e-06	101.73	13.521	1.5757e-06	1.5324e-06	30.47	11.392	4.844	1.9058	1.6278e-06	4.9183	-126.767	-40.139	223.946	-117.566	119.627	49.811	-118.340	-110.473	7.154	68.399	-113.580	-110.023	-107.048	-101.072	46.785	-105.998	-8191	255	
2555.502	1	1	0	0	0.1143	0.10467	0.13281	0.11309	0.19627	0.12901	0.19433	0.099293	0.20753	0.18286	0.029846	0.19206	0.20826	0.21501	0.20252	0.13506	-2.2438	-3.4583	-2.6958	-2.7458	-3.2792	-2.4771	-3.2083	-3.2146	-2.6375	-3.5292	-2.925	-2.6646	-3.2958	-2.5021	-3.1083	-3.1417	40.739	77.027	-85.486	149.453	127.741	209.543	-39.774	127.043	175.326	190.703	39.927	57.152	217.939	173.950	-3.123	-101.360	2.839e-05	7.2729e-06	2.669e-05	45.487	5.0282e-07	3.7939e-07	92.497	11.988	3.0407e-07	2.9588e-07	27.77	10.146	4.1495	1.7072	1.7131e-07	4.4048	0.00011305	0.00014375	3.4076e-05	49.813	1.3998e-06	1.4207e-06	101.4	13.408	1.4859e-06	1.5833e-06	30.401	11.416	4.813	1.8955	1.6062e-06	4.8381	230.865	-10.285	163.362	-117.894	-122.813	-127.440	-118.331	-110.606	45.491	118.312	-113.283	-110.161	-107.382	-101.627	39.563	-105.645	-8191	255	
2555.598	1	1	0	0	0.12501	0.071248	0.065802	0.13868	0.21585	0.13232	0.17407	0.40332	0.2136	0.16147	0.051747	0.33365	0.24155	0.17899	0.29762	0.22773	-2.0938	-3.4562	-2.875	-2.6312	-3.2792	-2.7438	-2.9604	-3.2062	-2.6667	-3.5979	-3.15	-2.6292	-3.4021	-2.5583	-2.9604	-3.4229	-18.222	44.779	-124.089	63.682	58.136	-3.476	227.603	135.417	48.945	13.226	-22.432	-40.065	-27.144	181.712	-85.824	203.254	2.9031e-05	6.9513e-05	1.0482e-05	45.386	4.9328e-07	5.7635e-08	93.59	12.167	3.5182e-07	6.2157e-07	27.7	10.019	4.1173	1.6777	1.7223e-07	4.2321	0.00010677	0.00014169	3.4019e-05	49.826	1.4213e-06	1.3519e-06	102.19	13.541	1.3873e-06	1.5662e-06	30.316	11.146	4.8045	1.8759	1.5805e-06	4.6953	-126.214	209.254	-34.194	-118.259	202.687	-113.428	-118.024	-111.586	222.276	48.248	-113.408	-109.571	-107.926	-100.906	34.609	-106.009	-8191	255	
2555.694	1	1	0	0	0.095587	0.032174	0.23028	0.1396	0.28642	0.38495	0.015361	0.083495	0.075609	0.091698	0.27846	0.16112	0.086706	0.30071	0.20002	0.13253	-2.2771	-3.1771	-2.9688	-2.6542	-3.4813	-2.8583	-2.9333	-3.2896	-2.5125	-3.1917	-3.1312	-2.6979	-3.4708	-2.8438	-2.8812	-3.5875	175.591	-107.851	88.807	-112.777	69.024	178.329	-113.990	-61.880	-127.570	-1.793	212.563	85.209	194.627	89.821	-48.134	175.997	2.913e-05	5.5374e-05	7.8794e-06	45.218	7.8715e-07	5.4562e-07	94.341	11.921	6.0901e-07	7.3034e-07	27.184	9.964	4.14	1.6414	3.6601e-07	4.3565	9.8181e-05	0.00014056	3.3734e-05	49.753	1.4107e-06	1.2819e-06	102.16	13.359	1.301e-06	1.5915e-06	29.915	11.04	4.7669	1.8643	1.5578e-06	4.7933	230.487	33.707	-12.635	-117.652	63.146	108.721	-118.378	-110.739	42.450	-6.269	-113.479	-110.077	-107.082	-102.392	-32.200	-105.615	-8191	255	
2555.790	1	1	0	0	0.2284	0.21296	0.14255	0.10078	0.097551	0.05394	0.13375	0.066328	0.12813	0.2365	0.19937	0.14066	0.23446	0.11028	0.039858	0.17452	-2.1833	-3.0271	-3.2146	-2.5333	-3.3604	-2.8958	-2.7958	-3.6188	-2.6917	-2.975	-3.2833	-2.5563	-3.3438	-2.9979	-2.7208	-3.4646	-76.799	-76.057	67.624	24.388	-80.274	115.450	-42.717	76.582	85.545	-85.561	6.428	75.114	17.902	4.191	76.893	-35.545	3.1472e-05	1.444e-05	1.5471e-05	45.442	4.6343e-07	9.8565e-07	94.516	11.952	1.6525e-07	5.8039e-07	27.563	10.152	4.1625	1.6801	8.4781e-07	4.3513	9.7922e-05	0.00014672	3.3377e-05	50.026	1.4457e-06	1.3188e-06	101.95	13.257	1.2917e-06	1.6613e-06	30.118	11.149	4.7877	1.8751	1.6387e-06	4.8106	222.662	-15.599	104.445	-117.693	7.710	-43.826	-118.546	-111.580	113.559	186.438	-113.313	-109.942	-107.919	-100.329	34.375	-105.580	-8191	255	
2555.887	1	1	0	0	0.099296	0.095464	0.11599	0.14016	0.14842	0.11964	0.024631	0.33091	0.14	0.24076	0.13511	0.071594	0.13578	0.011057	0.19923	0.1376	-2.425	-2.9771	-3.2875	-2.6271	-3.2917	-3.3312	-2.6542	-3.3083	-2.7313	-3.0146	-3.2271	-2.5687	-3.3979	-3.0167	-2.6188	-3.4313	112.199	-116.740	84.902	-30.084	19.613	204.856	11.366	45.348	218.438	226.691	1.134	100.869	-32.271	-120.561	156.188	106.819	3.5565e-05	1.8465e-05	1.6112e-05	45.66	2.6851e-07	9.4059e-07	95.343	12.078	2.3291e-07	4.1701e-07	28.049	10.13	3.9764	1.6699	8.4986e-07	4.3131	9.6156e-05	0.00015773	3.4631e-05	50.187	1.4727e-06	1.4077e-06	103.21	13.439	1.2835e-06	1.6482e-06	30.498	11.211	4.7813	1.882	1.5392e-06	4.8141	-126.259	-48.061	-76.351	-117.163	-52.827	-116.167	-118.846	-111.301	34.289	-71.313	-113.222	-110.328	-107.355	-100.849	119.969	-105.528	-8191	255	
2556.007	1	1	0	0	0.1952	0.26086	0.13858	0.15504	0.048434	0.31641	0.11184	0.086904	0.20962	0.28972	0.097976	0.11362	0.11795	0.094273	0.3018	0.12625	-2.4979	-2.8083	-3.2958	-2.5833	-3.3542	-3.0938	-2.5792	-3.2375	-2.9188	-2.8521	-3.475	-2.6292	-3.15	-3.0771	-2.6604	-3.3937	-31.539	226.682	78.652	128.173	-16.187	3.543	160.549	-42.621	-125.261	-124.153	78.775	220.248	-13.790	-2.285	-39.428	-40.655	2.0864e-05	9.1711e-05	1.5218e-05	46.778	3.2652e-07	4.5486e-07	94.869	12.14	2.2396e-07	4.1642e-07	27.845	10.057	4.1251	1.6867	6.1332e-07	4.3121	9.484e-05	0.00015452	3.6598e-05	50.852	1.5165e-06	1.3573e-06	103.35	13.494	1.2599e-06	1.6308e-06	30.5	11.205	4.8382	1.8784	1.4087e-06	4.7897	216.431	-61.760	-8.895	-118.232	-72.008	-50.949	-118.238	-110.802	39.793	47.170	-112.811	-109.838	-107.166	-100.716	40.756	-105.830	-8191	255	
2556.102	1	1	0	0	0.38476	0.26518	0.11884	0.19308	0.15118	0.045286	0.24867	0.11071	0.060339	0.10408	0.096473	0.10723	0.11919	0.11499	0.15035	0.17287	-2.5333	-2.7667	-3.425	-2.5458	-3.0125	-3.2646	-2.5458	-3.2458	-3.0312	-2.8417	-3.3229	-2.675	-3.0271	-3.2396	-2.7687	-3.3	110.535	-48.008	173.736	128.483	121.273	183.472	36.176	10.049	41.952	130.532	186.170	3.187	-32.372	194.852	-43.293	-46.215	2.4749e-05	0.00017774	2.2296e-05	45.846	1.0468e-06	6.3372e-07	93.426	11.953	5.4415e-07	1.6401e-06	27.109	9.8447	4.0805	1.647	2.4017e-07	4.2635	9.671e-05	0.00014908	3.7332e-05	50.222	1.4873e-06	1.4119e-06	102.09	13.266	1.2461e-06	1.616e-06	29.943	10.962	4.7334	1.8504	1.3655e-06	4.701	-117.487	-53.675	-55.480	-117.435	-15.139	-67.319	-118.911	-112.095	51.919	-19.381	-113.164	-109.759	-106.870	-101.444	116.428	-105.393	-8191	255	
2556.198	1	1	0	0	0.16382	0.188	0.31675	0.085039	0.11727	0.21045	0.080878	0.098154	0.24242	0.1547	0.35373	0.049395	0.12329	0.14564	0.15705	0.07726	-2.7792	-2.6125	-3.4417	-2.8479	-2.8396	-3.3292	-2.4917	-3.3583	-2.9708	-2.8438	-3.4313	-2.8417	-2.6917	-3.5854	-2.5125	-3.2396	174.283	-68.968	102.418	66.142	23.084	197.275	-3.974	-85.855	27.081	62.484	70.428	187.909	53.472	-69.788	56.547	-101.916	2.0134e-05	5.7387e-05	1.6771e-05	45.878	4.2064e-07	3.7536e-07	93.731	11.867	5.5601e-07	8.5592e-07	27.42	9.8528	4.0155	1.5988	5.941e-08	4.1803	9.8908e-05	0.00014146	3.8301e-05	49.976	1.4807e-06	1.4071e-06	101.91	13.201	1.3547e-06	1.542e-06	29.84	10.922	4.6687	1.8275	1.2745e-06	4.6617	-110.890	8.730	-24.351	-117.752	67.642	65.339	-118.743	-110.943	30.696	138.077	-113.270	-109.991	-106.243	-100.343	-57.587	-105.578	-8191	255	
2556.294	1	1	0	0	0.082002	0.29076	0.1487	0.15061	0.078689	0.067802	0.053345	0.15108	0.24177	0.13256	0.089697	0.14051	0.026342	0.21378	0.1952	0.083188	-2.7562	-2.5917	-3.4021	-2.8333	-2.7771	-3.3958	-2.5312	-3.0396	-3.2167	-2.4854	-3.2	-2.8312	-2.8187	-3.3292	-2.7021	-3.0146	79.200	171.412	73.402	3.716	181.894	200.691	150.069	-3.451	121.249	-63.154	108.026	29.830	108.893	21.416	-8.272	158.941	2.8699e-05	0.00013256	1.9449e-05	45.671	4.0431e-07	7.3499e-07	94.341	11.346	2.6215e-07	2.3984e-07	26.908	9.8103	3.9017	1.619	5.7946e-07	4.2153	0.0001009	0.00013774	3.9334e-05	49.767	1.5606e-06	1.4776e-06	101.51	12.925	1.3418e-06	1.447e-06	29.522	10.974	4.6247	1.822	1.266e-06	4.7123	-116.845	-63.157	34.923	-117.132	-69.381	71.157	-118.491	-110.767	215.170	3.587	-113.247	-108.846	-106.998	-101.160	169.748	-105.234	-8191	255	
2556.390	1	1	0	0	0.11946	0.26725	0.24879	0.045428	0.12587	0.11466	0.29022	0.33985	0.34738	0.35822	0.17927	0.18571	0.19922	0.13685	0.2321	0.088667	-2.7771	-2.75	-3.1542	-3.0062	-2.6417	-3.4271	-2.8688	-3.0563	-3.2854	-2.5875	-3.1979	-3.1604	-2.5896	-3.2938	-2.8187	-2.9208	55.446	30.679	41.322	-27.811	217.942	123.291	-87.229	181.457	214.308	-26.268	203.402	44.141	94.422	192.112	194.936	-96.251	3.5835e-05	0.00010937	1.5796e-05	45.615	7.9427e-07	8.6985e-07	94.076	11.718	2.3324e-07	1.0347e-06	26.865	10.033	4.0175	1.6167	9.6289e-07	4.2724	0.0001036	0.00013369	4.0624e-05	50.26	1.564e-06	1.523e-06	102.52	13.134	1.3788e-06	1.4643e-06	29.938	11.1	4.6843	1.8359	1.3275e-06	4.772	222.774	-53.513	-74.257	-118.538	8.023	74.749	-118.547	-111.047	-62.162	30.492	-113.722	-110.247	-106.403	-100.841	-43.305	-105.893	-8191	255	
2556.486	1	1	0	0	0.10258	0.21565	0.13902	0.16119	0.30308	0.13741	0.12424	0.36808	0.092953	0.15791	0.15918	0.23703	0.20459	0.27808	0.20372	0.21033	-2.9646	-2.4667	-3.2729	-2.9896	-2.5604	-3.4979	-3.0104	-2.7958	-3.4771	-2.5083	-3.1	-3.1	-2.5	-3.2396	-2.9021	-2.5521	46.493	-41.934	50.764	182.621	227.666	49.790	-80.212	174.906	95.710	162.798	12.821	-97.554	162.484	203.988	193.363	-99.214	2.138e-05	0.00010807	2.755e-05	46.062	6.9625e-07	4.2841e-07	93.621	11.553	6.7941e-07	1.5797e-06	26.994	9.8091	3.9257	1.615	3.0785e-07	4.2887	0.00010228	0.00013153	4.227e-05	50.109	1.4258e-06	1.5125e-06	101.48	12.77	1.4207e-06	1.3861e-06	29.678	10.872	4.5592	1.8307	1.3636e-06	4.7485	-106.655	14.797	19.005	-118.169	-50.234	29.476	-118.566	-111.194	99.588	7.737	-113.039	-110.168	-107.355	-101.046	41.090	-105.778	-8191	255	
2556.607	1	1	0	0	0.029237	0.15188	0.094415	0.082165	0.063728	0.073052	0.074717	0.29967	0.14793	0.26412	0.33997	0.11492	0.23312	0.15831	0.10732	0.17612	-3.175	-2.6479	-2.8563	-3.1437	-2.6437	-3.3229	-3.0479	-2.7313	-3.6021	-2.8479	-3.1708	-3.325	-2.625	-3.2375	-3.2521	-2.8208	-17.137	-0.545	-43.366	56.108	194.874	56.794	129.909	82.706	-100.079	-93.884	-81.997	-56.848	51.582	-15.541	192.348	-43.062	2.0929e-05	2.3752e-05	2.6001e-05	45.653	2.7049e-07	1.0435e-06	91.724	11.159	2.1506e-07	5.6885e-07	26.344	9.831	3.9595	1.5792	2.2143e-07	4.2775	0.00011096	0.00011824	4.2021e-05	50.069	1.3855e-06	1.5133e-06	99.548	12.484	1.4411e-06	1.3269e-06	28.873	10.812	4.5294	1.7928	1.3772e-06	4.739	223.905	-59.598	-63.172	-117.622	-104.217	-32.826	-118.166	-111.732	44.216	99.190	-113.680	-109.520	-107.041	-101.720	97.608	-105.097	-8191	255	
2556.703	1	1	0	0	0.24223	0.061645	0.15123	0.14381	0.24764	0.21545	0.2789	0.19624	0.081174	0.098917	0.13612	0.13424	0.056014	0.089933	0.38018	0.13955	-3.05	-2.7271	-2.8333	-3.3583	-2.6	-3.3083	-3.2687	-2.5542	-3.4708	-2.8667	-2.9688	-3.3646	-2.5458	-3.0333	-3.2125	-2.6104	-68.968	-35.062	166.972	157.970	-97.437	118.485	5.634	-105.100	166.449	-74.177	93.100	-119.544	127.892	-71.197	2.392	-33.303	2.9898e-05	2.7427e-05	2.7819e-05	46.112	7.2944e-07	8.1478e-07	91.74	10.903	2.6011e-07	1.1299e-06	25.8	9.6922	3.8655	1.56	5.4964e-07	4.1999	0.00011274	0.00012003	4.1586e-05	50.496	1.3207e-06	1.6722e-06	99.94	12.355	1.4991e-06	1.3255e-06	28.68	10.837	4.4651	1.7794	1.4065e-06	4.6763	225.226	6.597	180.328	-117.950	47.334	-40.822	-118.749	-112.021	81.096	-42.682	-113.299	-109.898	-107.361	-101.590	-20.140	-105.430	-8191	255	
2556.799	1	1	0	0	0.14739	0.037629	0.081709	0.08846	0.19054	0.30259	0.16195	0.11446	0.14934	0.054358	0.20024	0.0993	0.17552	0.28317	0.21177	0.071489	-3.025	-2.725	-2.6292	-3.5625	-2.3604	-3.1271	-3.3521	-2.5187	-3.3688	-2.9771	-2.7667	-3.4542	-2.6396	-3.0646	-3.3	-2.6042	16.085	-104.901	22.909	-92.899	181.611	124.890	179.268	-19.226	218.774	46.465	-64.253	187.679	42.102	-35.966	130.210	-39.017	2.3366e-05	8.504e-05	1.9935e-05	45.867	3.3639e-07	1.2267e-06	92.892	11.369	4.6425e-07	8.0172e-07	26.421	9.8241	3.9605	1.5783	4.645e-07	4.2659	0.00010862	0.00012619	4.175e-05	50.53	1.2586e-06	1.6966e-06	101.2	12.597	1.5283e-06	1.443e-06	28.956	11.007	4.5551	1.7893	1.4928e-06	4.7339	227.629	108.897	207.161	-118.452	95.604	-35.337	-118.723	-110.751	5.108	-49.689	-113.342	-109.530	-107.255	-100.728	98.051	-105.833	-8191	255	
2556.893	1	1	0	0	0.32735	0.17161	0.11634	0.13312	0.37944	0.15777	0.1738	0.15714	0.14943	0.21276	0.24149	0.12504	0.27455	0.1314	0.072323	0.096656	-3.1	-2.9417	-2.7938	-3.5187	-2.75	-3.0479	-3.4896	-2.5062	-3.2729	-2.9896	-2.6667	-3.4313	-2.7146	-2.8833	-3.4	-2.5938	-53.469	-15.126	137.944	149.685	-5.011	-120.289	37.799	213.234	130.438	-84.096	223.491	-126.439	111.779	-70.221	-7.281	-23.066	2.2098e-05	0.00013664	3.8945e-05	45.829	2.2223e-07	3.9818e-07	92.919	11.536	3.8957e-07	8.1208e-07	26.485	10.13	3.9455	1.5806	5.6335e-07	4.3089	0.00011525	0.00013222	4.1159e-05	50.24	1.2647e-06	1.7309e-06	101.68	12.768	1.5275e-06	1.4965e-06	29.131	11.186	4.5994	1.811	1.5084e-06	4.7952	-113.618	172.934	-16.770	-118.290	-45.225	38.280	-118.979	-111.105	54.577	229.409	-113.020	-109.746	-107.190	-100.921	-75.725	-105.909	-8191	255	
2556.991	1	1	0	0	0.11554	0.053484	0.085471	0.23307	0.32866	0.22815	0.11288	0.11052	0.34535	0.090947	0.13474	0.32965	0.061549	0.0383	0.19229	0.19812	-2.7729	-2.9938	-2.5708	-3.4292	-2.7271	-2.8792	-3.4729	-2.7583	-3.2417	-3.2292	-2.4396	-3.3396	-2.8563	-2.8312	-3.6667	-2.7083	197.497	-54.957	51.243	76.657	-6.586	163.685	-29.586	52.268	124.120	219.452	37.643	32.866	213.866	59.283	-99.914	181.065	1.9e-05	1.4244e-05	2.4832e-05	45.41	8.1481e-07	6.1946e-07	92.862	11.624	3.6737e-07	8.4161e-07	26.379	9.8682	3.949	1.5911	7.8649e-07	4.241	0.00011317	0.00013597	3.8764e-05	49.798	1.335e-06	1.7167e-06	100.87	12.874	1.5577e-06	1.525e-06	28.917	11.048	4.5899	1.7935	1.5376e-06	4.6916	-116.796	174.387	-57.656	-117.724	67.024	-27.156	-118.461	-111.113	-27.003	-63.644	-113.100	-109.922	-106.752	-102.135	76.974	-105.046	-8191	255	
2557.086	1	1	0	0	0.15295	0.026172	0.12237	0.13871	0.14645	0.22158	0.2647	0.14369	0.1836	0.20116	0.13533	0.022073	0.27391	0.32133	0.16497	0.022832	-2.7958	-3.2542	-2.6208	-3.3896	-2.9042	-2.7562	-3.4271	-2.7021	-3.1167	-3.3604	-2.7708	-3.3792	-3.0125	-2.7	-3.4333	-2.7896	-75.672	-14.601	129.858	143.815	-17.647	156.463	217.049	198.333	51.101	77.413	159.894	-48.276	-21.668	11.239	1.373	215.905	2.6023e-05	7.5564e-05	2.5379e-05	44.708	8.3472e-07	7.8542e-07	91.094	11.515	4.5158e-07	1.3039e-06	26.371	9.8217	4.0743	1.6315	2.3128e-07	4.2669	0.00011811	0.00014305	3.5615e-05	49.266	1.3725e-06	1.5683e-06	99.545	12.915	1.6297e-06	1.5725e-06	28.915	10.954	4.6698	1.8272	1.5005e-06	4.709	-129.490	-25.941	-58.271	-117.175	-23.288	88.876	-118.170	-112.154	-92.208	58.938	-113.594	-109.634	-106.344	-101.761	-122.791	-105.313	-8191	255	
2557.182	1	1	0	0	0.11441	0.095824	0.34161	0.16967	0.14751	0.22023	0.21347	0.24706	0.2722	0.12526	0.22268	0.12295	0.12563	0.08876	0.26591	0.086946	-2.5271	-3.3333	-2.4229	-3.3125	-3.075	-2.7625	-3.3875	-2.7833	-2.9021	-3.4688	-2.6625	-3.425	-3.1583	-2.5208	-3.4042	-2.9688	133.992	-3.761	-55.615	41.602	195.385	135.226	-23.713	-112.989	120.945	-28.899	174.508	-39.974	167.052	-33.962	-114.899	145.467	1.9772e-05	5.3357e-05	1.7972e-05	45.14	1.2713e-07	4.3954e-07	93.055	12.018	1.7801e-07	1.1396e-06	27.025	9.9054	4.0335	1.6413	7.1876e-07	4.3523	0.00011989	0.00013746	3.5259e-05	49.276	1.4245e-06	1.5538e-06	100.56	13.173	1.5712e-06	1.5864e-06	29.275	11.081	4.7221	1.8615	1.5996e-06	4.8188	-126.023	-102.100	-45.917	-117.441	-13.078	147.818	-118.195	-110.816	-7.739	-56.225	-113.264	-109.555	-107.229	-101.573	37.829	-105.310	-8191	255	
2557.278	1	1	0	0	0.20489	0.24704	0.19658	0.064375	0.21937	0.056448	0.168	0.17953	0.14828	0.10607	0.11517	0.029815	0.077963	0.19336	0.21604	0.028916	-2.5229	-3.3958	-2.6167	-3.2208	-3.3021	-2.3583	-3.2521	-2.8271	-2.7146	-3.4021	-2.5979	-3.1875	-3.2833	-2.5563	-3.2854	-3.0021	-128.575	-81.695	112.607	92.404	170.706	-124.380	-61.140	212.067	110.207	-82.005	-92.904	164.284	53.008	85.368	-111.866	-92.014	3.6211e-05	0.00015535	1.9056e-05	45.537	2.9158e-07	6.346e-07	92.992	11.935	4.0123e-07	2.0098e-07	26.573	10.018	4.0255	1.6661	2.1987e-07	4.4501	0.00011617	0.0001477	3.5166e-05	49.815	1.5208e-06	1.5822e-06	101.25	13.302	1.5759e-06	1.6189e-06	29.467	11.243	4.7452	1.8785	1.6758e-06	4.9375	-126.579	-95.612	36.342	-116.604	117.000	46.530	-118.423	-110.795	194.643	-120.987	-112.818	-109.931	-106.674	-101.659	168.898	-105.369	-8191	255	
2557.399	1	1	0	0	0.055869	0.16018	0.21242	0.062753	0.098889	0.17212	0.33603	0.092605	0.063341	0.17301	0.14656	0.040925	0.24543	0.10502	0.088329	0.11758	-2.4188	-3.3479	-2.7104	-3.0125	-3.2729	-2.5771	-3.3146	-3.0771	-2.8063	-3.4396	-2.7208	-2.8854	-3.2417	-2.5792	-3.2354	-3.0771	-118.743	93.649	111.639	-84.764	100.072	-27.342	-20.369	50.502	166.242	146.295	12.562	-86.735	-69.534	-51.990	129.234	-123.088	2.4733e-05	9.1922e-05	1.6506e-05	45.262	2.9109e-07	4.4475e-07	92.606	11.776	5.7952e-07	6.5545e-07	27.083	10.187	4.0404	1.6666	5.2196e-07	4.4257	0.00011373	0.00015319	3.6826e-05	49.899	1.5003e-06	1.5003e-06	100.77	13.176	1.5481e-06	1.6692e-06	29.671	11.366	4.7785	1.889	1.6983e-06	4.9226	226.250	15.530	-81.419	-117.469	167.416	-8.219	-118.950	-110.738	81.282	30.317	-112.742	-110.060	-107.022	-101.821	-118.693	-105.421	-8191	255	
2557.495	1	1	0	0	0.18592	0.083034	0.032103	0.036101	0.093323	0.23896	0.11928	0.13616	0.12093	0.13518	0.11023	0.18069	0.3875	0.12934	0.25628	0.062276	-2.1437	-3.4396	-3.0542	-2.8771	-3.4875	-2.5417	-3.2729	-3.2438	-2.7625	-3.4271	-3.025	-2.7792	-3.4208	-2.6271	-3.1833	-3.2188	-35.888	-34.375	44.975	157.720	217.389	-22.647	-60.954	129.995	-114.114	120.977	-92.945	108.217	47.685	-108.162	-61.204	137.584	2.972e-05	5.894e-05	5.5923e-06	46.09	3.2009e-07	7.6965e-07	94.155	12.068	6.8312e-07	9.7112e-07	26.751	9.9036	4.1714	1.7244	8.4754e-08	4.4746	0.00010937	0.00014672	3.6498e-05	49.951	1.551e-06	1.3408e-06	102.24	13.474	1.4541e-06	1.6351e-06	29.56	11.059	4.9433	1.9276	1.6444e-06	4.9396	-125.725	-47.941	201.106	-117.442	103.351	93.539	-118.406	-110.178	-74.622	-28.918	-112.980	-109.505	-107.873	-100.038	-54.219	-105.475	-8191	255	
2557.567	1	1	0	0	0.18241	0.20363	0.23286	0.26772	0.13111	0.35785	0.22107	0.14688	0.14025	0.1232	0.1328	0.371	0.030627	0.20841	0.064238	0.14942	-2.2604	-3.3375	-2.8833	-2.6729	-3.3542	-2.8083	-2.7854	-3.2271	-2.625	-3.3563	-3.0187	-2.7958	-3.1542	-2.6104	-2.9354	-3.2792	-102.708	-87.932	30.576	222.373	194.966	178.213	-92.716	-84.852	33.114	-76.686	159.390	147.165	143.754	34.477	-93.609	99.987	2.5958e-05	6.654e-05	1.0452e-05	45.529	5.5755e-07	7.884e-07	97.146	12.806	3.4727e-08	5.05e-07	28.552	9.6663	4.4335	1.859	8.7729e-07	4.4433	0.00010479	0.00015003	3.6933e-05	49.825	1.4876e-06	1.2961e-06	106.21	14.334	1.2739e-06	1.6169e-06	31.537	10.704	5.107	2.0804	1.4977e-06	4.9153	-127.335	-2.894	-26.577	-117.883	87.656	-117.487	-118.683	-111.302	-44.687	-115.283	-113.085	-109.905	-107.140	-100.863	0.901	-105.750	-8191	255	
2557.687	1	1	0	0	0.14796	0.096338	0.17055	0.035251	0.16818	0.34403	0.06431	0.069392	0.21129	0.17193	0.26854	0.34444	0.24904	0.23895	0.092581	0.22742	-2.2521	-3.2708	-3.025	-2.6	-3.4188	-2.7521	-2.9437	-3.3375	-2.7042	-3.1479	-3.1063	-2.6771	-3.3854	-2.8875	-2.7083	-3.4188	108.574	125.980	170.503	-82.892	59.151	-77.302	-23.825	130.554	218.494	152.104	219.613	30.665	-7.904	-102.884	26.804	-0.323	2.3777e-05	3.375e-05	3.1413e-05	46.48	5.0305e-07	5.523e-07	97.791	13.771	4.8479e-07	3.243e-07	29.341	9.6212	4.5294	1.9153	7.4304e-07	4.634	9.8199e-05	0.0001429	3.6527e-05	50.208	1.3857e-06	1.3108e-06	106.14	15.252	1.2498e-06	1.5995e-06	32.247	10.687	5.1441	2.1309	1.5488e-06	5.1182	225.147	-46.692	-55.959	-117.357	-77.437	109.567	-119.070	-112.147	-31.470	-36.638	-112.726	-109.860	-107.773	-100.744	-37.520	-105.575	-8191	255	
2557.783	1	1	0	0	0.15723	0.10643	0.12981	0.20269	0.13298	0.14889	0.15819	0.052069	0.11989	0.14211	0.15368	0.12499	0.15088	0.18191	0.16029	0.16791	-2.1458	-3.0833	-3.1854	-2.4938	-3.4271	-2.9562	-2.8563	-3.4167	-2.5854	-3.0271	-3.1875	-2.5583	-3.3917	-2.9167	-2.7188	-3.6292	84.233	-24.212	114.623	-119.890	-72.472	-114.353	-53.211	178.709	46.485	-76.027	54.558	20.639	229.572	-112.010	-64.141	26.627	2.5528e-05	3.379e-05	1.7476e-05	44.538	4.064e-07	6.991e-07	96.675	13.483	4.6852e-07	9.5426e-07	29.312	10.089	4.5199	1.8386	9.6315e-07	5.125	9.8597e-05	0.00014464	3.8016e-05	48.833	1.4982e-06	1.4088e-06	105.79	15.028	1.3068e-06	1.6792e-06	32.174	11.19	5.2923	2.0668	1.6786e-06	5.7046	228.021	-3.165	-82.496	-117.811	-120.847	39.333	-118.465	-111.968	55.984	47.924	-113.662	-109.235	-107.905	-101.651	-36.746	-105.890	-8191	255	
2557.879	1	1	0	0	0.35533	0.10653	0.165	0.22154	0.1273	0.18349	0.23234	0.21183	0.2057	0.22655	0.17349	0.20201	0.11807	0.046632	0.15446	0.052098	-2.3521	-2.9542	-3.3167	-2.4604	-3.3521	-3.0312	-2.5458	-3.3771	-2.8563	-2.925	-3.3563	-2.6063	-3.2708	-3.2167	-2.6667	-3.2229	163.054	34.414	93.325	-25.702	66.069	113.222	164.480	197.206	114.581	204.906	35.695	192.945	61.120	-1.995	-5.135	-32.941	3.2142e-05	6.4717e-05	1.0047e-05	46.727	3.101e-07	8.3555e-07	100.35	13.034	6.234e-07	4.7009e-07	29.071	10.158	4.5447	1.7561	5.5014e-07	5.3293	0.00010729	0.00016967	4.5206e-05	50.675	1.7309e-06	1.6728e-06	109.13	14.485	1.4663e-06	1.8718e-06	31.997	11.408	5.3496	1.9878	1.6846e-06	5.8829	216.871	46.129	-121.148	-117.123	157.624	93.613	-118.466	-110.266	45.461	-27.024	-113.161	-109.912	-107.815	-101.326	87.489	-106.094	-8191	255	
2557.998	1	1	0	0	0.16905	0.14524	0.036773	0.16038	0.078716	0.10088	0.34185	0.10978	0.13854	0.12979	0.094664	0.17596	0.040187	0.16359	0.12071	0.27857	-2.3937	-2.925	-3.2313	-2.4625	-3.1521	-3.2667	-2.5229	-3.3521	-3.0354	-2.8208	-3.5167	-2.6458	-3.1667	-3.1646	-2.575	-3.3833	38.250	-67.451	99.202	190.155	-14.467	2.454	95.653	89.954	109.278	-16.632	18.869	-67.178	15.257	225.997	166.920	54.780	3.4402e-05	4.4985e-05	2.2346e-05	46.549	2.0122e-07	8.4211e-07	100.79	12.822	9.2706e-08	1.4879e-06	29.28	10.123	4.671	1.7966	7.8531e-07	5.317	0.0001171	0.00017393	5.0322e-05	50.732	1.8108e-06	1.8657e-06	109.54	14.173	1.5691e-06	1.8553e-06	32.038	11.325	5.4297	2.0161	1.5731e-06	5.92	-127.463	-100.862	74.764	-117.269	-40.422	9.425	-118.493	-110.664	5.750	221.834	-112.904	-109.318	-108.135	-100.923	-94.157	-106.657	-8191	255	
2558.094	1	1	0	0	0.051042	0.15501	0.04127	0.058484	0.18234	0.061693	0.057322	0.087549	0.21792	0.082276	0.054909	0.15277	0.32143	0.2776	0.15746	0.19266	-2.4271	-2.6667	-3.3	-2.7042	-2.9333	-3.2812	-2.6146	-3.4188	-2.9167	-2.6437	-3.3833	-2.775	-3.0312	-3.2708	-2.6188	-3.2417	-28.180	95.361	180.838	-122.149	81.885	-109.244	138.511	-80.282	182.389	208.663	-48.043	229.435	121.594	147.518	95.710	-82.157	3.8256e-05	9.9371e-05	2.5296e-05	45.095	6.6857e-07	1.7825e-06	99.183	12.403	3.202e-07	1.3821e-06	28.609	10.08	4.572	1.7782	3.0761e-07	5.2806	0.00011979	0.00015789	4.6631e-05	49.414	1.7874e-06	1.8793e-06	107.76	13.778	1.5614e-06	1.725e-06	31.218	11.243	5.351	2.0054	1.4403e-06	5.8491	219.733	-49.028	-77.774	-117.263	-116.977	12.124	-118.579	-110.464	203.832	44.803	-112.785	-109.633	-106.583	-100.839	-113.081	-106.616	-8191	255	
2558.166	1	1	0	0	0.18421	0.11471	0.090881	0.25311	0.16512	0.1036	0.018727	0.088908	0.098627	0.23508	0.13186	0.077631	0.26955	0.21283	0.10245	0.21785	-2.7583	-2.5438	-3.4479	-2.65	-2.9437	-3.4521	-2.6625	-3.2708	-3.05	-2.8	-3.4521	-2.9146	-2.7229	-3.2479	-2.6667	-3.1208	98.250	-9.048	53.962	207.734	152.301	68.322	-82.216	87.781	59.658	-101.589	-90.759	83.486	23.419	-15.082	132.882	72.290	2.3539e-05	3.905e-05	2.1859e-05	45.067	4.0088e-07	3.9015e-07	97.902	12.675	7.6243e-07	5.7822e-07	29.343	10.065	4.7331	1.8817	4.2367e-07	5.2625	0.00012656	0.00015601	4.7372e-05	48.941	1.7802e-06	1.8555e-06	107.31	14.184	1.6944e-06	1.661e-06	32.122	11.144	5.4481	2.1151	1.5114e-06	5.8449	-116.755	1.000	-106.147	-117.271	-25.913	-1.509	-118.621	-109.666	62.745	9.236	-113.149	-110.548	-108.592	-101.855	6.578	-106.688	-8191	255	
2558.287	1	1	0	0	0.12341	0.13647	0.032809	0.18459	0.23805	0.061072	0.10992	0.089504	0.031623	0.18119	0.12904	0.071529	0.12985	0.17042	0.18803	0.12819	-2.8167	-2.5312	-3.4479	-2.9896	-2.7667	-3.5375	-2.6625	-3.1833	-3.1979	-2.5167	-3.4208	-2.9354	-2.7729	-3.5333	-2.6479	-3.2	39.266	194.883	96.629	-116.369	204.038	-96.633	180.856	136.053	231.466	54.317	226.098	155.682	-13.247	21.903	221.867	19.147	3.5129e-05	0.00013998	1.4891e-05	45.1	2.2e-07	1.1938e-06	99.295	13.146	3.4365e-07	5.5495e-07	30.066	10.052	4.7262	1.9929	2.8828e-07	5.3502	0.00013064	0.00015091	4.785e-05	49.588	1.7678e-06	1.8954e-06	108.04	14.58	1.8228e-06	1.5284e-06	32.934	11.259	5.4703	2.2336	1.5365e-06	5.9669	225.535	-59.586	-126.457	-117.270	-22.266	22.076	-118.161	-110.330	-88.242	-41.552	-113.455	-109.886	-107.925	-101.300	93.028	-105.790	-8191	255	
2558.383	1	1	0	0	0.12989	0.24573	0.36607	0.173	0.19835	0.10064	0.067635	0.06642	0.34069	0.075863	0.097873	0.058913	0.22467	0.14635	0.25245	0.15302	-3.0292	-2.725	-3.4083	-3.175	-2.7604	-3.4813	-2.6437	-3.0583	-3.3292	-2.7	-3.2521	-3.1229	-2.675	-3.4229	-2.8	-2.9667	164.424	68.553	51.771	30.628	61.032	147.066	48.080	163.611	93.524	-14.034	-36.709	-9.582	35.034	-29.804	-7.692	-126.311	3.3072e-05	1.6175e-05	1.4403e-05	45.223	6.6089e-07	3.0842e-07	100.36	13.095	4.3387e-07	1.6769e-06	30.086	10.32	4.8859	2.0339	6.1973e-07	5.597	0.00013272	0.00014375	4.941e-05	49.489	1.641e-06	1.9727e-06	109.17	14.687	1.8231e-06	1.5639e-06	33.084	11.577	5.6005	2.2832	1.6092e-06	6.1918	222.330	87.308	142.365	-117.769	78.624	15.110	-118.488	-111.417	175.378	-14.755	-112.324	-109.857	-108.999	-101.065	-26.068	-105.976	-8191	255	
2558.479	1	1	0	0	0.064062	0.23723	0.13166	0.23176	0.073085	0.081907	0.3206	0.026261	0.17597	0.13734	0.11025	0.082622	0.43031	0.17512	0.10388	0.2335	-3.1146	-2.6437	-3.1125	-3.1479	-2.8	-3.4833	-2.85	-2.8458	-3.5667	-2.5625	-3.1063	-3.1375	-2.5271	-3.3979	-2.9292	-2.8	204.977	36.873	-77.826	88.184	72.296	-70.217	33.879	-30.154	152.956	172.189	-100.058	30.990	178.041	83.591	-66.037	-21.373	2.766e-05	5.7166e-06	3.1169e-05	45.601	3.1465e-07	1.0451e-06	100.47	13.019	4.6881e-07	6.0596e-07	30.019	10.427	4.8131	1.9659	2.4572e-07	5.4706	0.00013712	0.00013877	5.1071e-05	50.16	1.5492e-06	1.9538e-06	109.13	14.493	1.834e-06	1.5298e-06	32.836	11.573	5.529	2.2438	1.7122e-06	6.0472	-116.702	224.005	188.142	-116.577	44.405	79.240	-119.072	-110.428	-33.818	19.639	-112.964	-110.045	-108.873	-101.195	-19.428	-106.022	-8191	255	
2558.575	1	1	0	0	0.14786	0.08629	0.10708	0.12226	0.21284	0.077136	0.17952	0.049298	0.17625	0.04595	0.21997	0.146	0.20528	0.1356	0.070027	0.30047	-3.0417	-2.6646	-3.15	-3.3771	-2.7125	-3.2438	-3.1125	-2.6396	-3.5104	-2.7	-3.1333	-3.2125	-2.6312	-3.3854	-3.1021	-2.7042	-68.120	-73.504	-70.116	-24.464	175.618	-126.577	-5.298	115.438	-38.059	138.121	-8.019	187.636	-85.218	214.761	150.640	50.824	4.0304e-05	7.506e-05	3.0233e-05	45.322	5.5774e-07	5.372e-07	98.124	12.772	3.8619e-07	4.4828e-07	28.926	10.333	4.8308	2.0301	2.1897e-07	5.413	0.00013603	0.00014231	4.9838e-05	49.923	1.4905e-06	2.0336e-06	107.64	14.164	1.8835e-06	1.626e-06	32.15	11.444	5.5128	2.2767	1.807e-06	6.0287	208.808	-79.367	-44.752	-117.392	11.919	-55.379	-118.883	-110.318	-39.258	123.141	-113.564	-110.410	-108.147	-101.069	76.107	-107.244	-8191	255	
2558.696	1	1	0	0	0.10075	0.32917	0.11251	0.27613	0.091029	0.24792	0.20021	0.13956	0.098883	0.25829	0.080362	0.17858	0.14113	0.19101	0.17936	0.17609	-3.0687	-2.725	-2.9562	-3.3479	-2.6063	-3.4375	-3.1875	-2.6354	-3.2583	-2.8292	-2.9521	-3.5354	-2.4625	-3.1583	-3.2646	-2.4938	57.872	113.330	10.869	144.907	3.489	23.112	38.992	129.535	-114.888	-40.984	216.205	127.200	-109.443	97.875	-13.839	-33.457	3.7484e-05	8.1799e-05	3.7127e-05	44.801	8.7479e-07	3.7519e-07	99.196	12.63	6.2092e-07	1.6667e-06	29.301	10.414	4.6821	1.9975	7.5171e-07	5.5772	0.00014181	0.0001516	4.8391e-05	49.46	1.4372e-06	2.0741e-06	108.33	13.94	2.0024e-06	1.7279e-06	32.168	11.622	5.4134	2.2554	1.8496e-06	6.1562	-112.410	-14.462	-113.611	-117.757	-23.320	122.925	-118.699	-110.173	-93.378	-3.531	-113.215	-109.391	-109.733	-101.195	-86.723	-106.482	-8191	255	
2558.790	1	1	0	0	0.13133	0.024948	0.17991	0.11639	0.1775	0.11558	0.08688	0.35304	0.16374	0.18022	0.080809	0.25954	0.11073	0.088122	0.072195	0.24003	-2.9354	-2.9042	-2.875	-3.4562	-2.675	-3.0833	-3.1396	-2.6833	-3.2167	-2.9917	-2.8479	-3.4542	-2.6396	-2.9146	-3.3104	-2.5958	-10.792	0.079	79.324	-54.134	42.963	-58.819	12.148	-95.781	218.731	-11.710	60.138	19.443	8.732	5.396	139.644	-60.280	2.831e-05	5.7296e-05	3.4402e-05	45.813	5.8095e-07	1.3503e-06	100.48	12.565	4.0536e-07	9.5452e-07	29.594	10.526	4.7404	1.9954	3.9343e-07	5.6607	0.00014797	0.00016718	4.7209e-05	50.094	1.6229e-06	2.0546e-06	109.72	13.95	2.0138e-06	1.8468e-06	32.616	11.718	5.458	2.2616	2.0165e-06	6.2255	-115.282	-69.432	4.685	-117.555	-73.043	41.183	-118.375	-110.205	196.288	-58.119	-113.095	-110.000	-109.016	-100.636	-50.137	-106.545	-8191	255	
2558.864	1	1	0	0	0.15567	0.1871	0.24997	0.12726	0.19573	0.23557	0.032573	0.1568	0.035439	0.11461	0.20579	0.26703	0.1659	0.016231	0.092359	0.063413	-2.9354	-2.9875	-2.6396	-3.3958	-2.8583	-3.1	-3.3896	-2.5458	-3.1917	-3.2562	-2.6625	-3.4729	-2.8042	-2.7417	-3.5312	-2.4375	147.185	222.754	26.353	209.910	40.251	136.051	-52.392	-52.370	201.714	-58.185	-45.936	206.231	6.994	57.867	20.810	-60.104	3.3953e-05	0.00012634	1.5202e-05	45.211	2.8752e-07	1.3908e-06	100.35	12.575	9.2634e-07	6.1205e-07	29.969	10.66	4.7994	2.0032	7.7314e-07	5.7217	0.00014846	0.0001748	4.6418e-05	50.142	1.6927e-06	1.9943e-06	110.04	13.944	2.0342e-06	1.97e-06	32.754	11.904	5.5375	2.2715	2.0674e-06	6.3496	222.046	17.171	-94.040	-117.749	-97.846	20.273	-118.029	-110.677	60.520	141.242	-113.594	-110.022	-107.680	-100.636	-79.619	-106.713	-8191	255	
2558.960	1	1	0	0	0.16501	0.061707	0.11192	0.16316	0.092907	0.14682	0.29972	0.2681	0.15233	0.19751	0.01344	0.20169	0.23778	0.2357	0.25855	0.084711	-2.7042	-3.1	-2.4396	-3.4625	-3	-2.8833	-3.6021	-2.6646	-3.0583	-3.4271	-2.6604	-3.5187	-2.9667	-2.7687	-3.4188	-2.6854	112.181	103.828	143.091	-25.635	228.015	166.435	-47.658	-54.701	194.780	178.233	20.283	-80.960	131.414	169.108	92.236	35.041	3.2447e-05	7.9702e-05	2.0306e-05	45.386	8.2058e-07	4.6338e-07	99.796	12.623	1.4729e-07	2.7674e-07	29.983	10.54	4.7538	2.0537	3.6306e-07	5.6267	0.00014856	0.00018612	4.1636e-05	50.391	1.7365e-06	1.8359e-06	109.79	14.095	1.9836e-06	2.0736e-06	32.762	11.742	5.5499	2.3041	2.1706e-06	6.2411	227.272	-88.112	96.605	-117.530	17.564	19.165	-118.855	-110.176	162.025	-11.238	-112.791	-109.884	-107.478	-101.214	61.985	-107.236	-8191	255	
2559.079	1	1	0	0	0.099029	0.066902	0.064267	0.26915	0.10466	0.21044	0.13592	0.18461	0.2312	0.21243	0.097872	0.1776	0.084657	0.22012	0.10886	0.099676	-2.6292	-3.4792	-2.4292	-3.4979	-3.0542	-2.65	-3.3417	-2.7812	-3.0229	-3.4313	-2.5875	-3.2521	-3.1583	-2.8063	-3.4854	-2.8771	38.126	193.180	-83.341	-43.929	140.554	16.479	91.959	149.208	-91.375	173.380	-105.579	90.284	-87.730	-93.406	15.754	-112.356	2.8856e-05	0.00011798	3.9112e-05	45.503	2.6575e-07	1.3781e-06	99.722	12.515	2.2658e-08	8.393e-07	29.483	10.429	4.8304	2.0852	6.5958e-07	5.7025	0.00014342	0.00018907	4.113e-05	50.238	1.8023e-06	1.8158e-06	108.29	13.997	1.87e-06	2.1416e-06	32.409	11.714	5.557	2.32	2.0092e-06	6.3017	208.870	164.301	3.265	-117.622	100.583	-22.999	-118.288	-109.928	23.929	211.460	-113.929	-109.858	-109.614	-100.688	214.069	-106.673	-8191	255	
2559.175	1	1	0	0	0.19489	0.14456	0.04734	0.043444	0.10769	0.08066	0.14937	0.31188	0.082109	0.2067	0.20802	0.017044	0.11573	0.31707	0.1071	0.1816	-2.4958	-3.2292	-2.6312	-3.3333	-3.1292	-2.7583	-3.5042	-2.7354	-2.8812	-3.3833	-2.675	-3.375	-3.1021	-2.7313	-3.3833	-2.9083	194.924	155.115	37.128	148.123	182.456	148.355	10.693	110.836	-10.768	-58.690	144.862	-71.138	218.802	206.829	-23.164	30.838	2.2013e-05	4.8225e-05	3.8398e-05	46.461	5.9858e-07	6.2751e-07	99.379	12.464	9.3921e-07	1.1618e-07	29.627	10.453	4.7872	2.0893	6.5317e-07	5.6968	0.00013648	0.00019035	3.9954e-05	50.706	1.8365e-06	1.6411e-06	108.79	14.02	1.7595e-06	2.0101e-06	32.637	11.753	5.5287	2.3225	2.1187e-06	6.3221	213.861	-98.474	47.425	-117.201	-121.186	46.717	-118.822	-109.587	23.236	-41.244	-113.425	-110.271	-108.208	-101.092	-28.747	-106.891	-8191	255	
2559.271	1	1	0	0	0.041182	0.16654	0.11976	0.040924	0.045169	0.083948	0.11323	0.085248	0.20857	0.16916	0.28129	0.14102	0.13387	0.13711	0.20535	0.19891	-2.2917	-3.3396	-2.7979	-3.0687	-3.3333	-2.6958	-3.3167	-2.9083	-2.7562	-3.4771	-2.725	-2.9875	-3.2417	-2.6125	-3.4	-3.1063	24.976	49.023	-3.008	116.350	-98.937	207.376	2.787	92.558	-107.805	86.088	-82.225	50.742	-72.570	-100.626	36.674	-84.231	2.6824e-05	8.8384e-05	2.9034e-05	46.346	1.2528e-06	4.343e-07	101.07	12.868	7.6832e-07	7.5928e-07	30.418	10.713	4.829	2.0973	7.0717e-08	5.6859	0.00013326	0.00019215	4.0703e-05	51.084	1.963e-06	1.5827e-06	110.19	14.276	1.6949e-06	2.1353e-06	33.291	11.888	5.6453	2.3562	2.1209e-06	6.3271	219.326	25.813	-107.659	-116.535	-4.841	51.012	-118.468	-109.602	91.724	60.959	-112.595	-109.887	-107.919	-101.064	189.964	-106.519	-8191	255	
2559.367	1	1	0	0	0.15573	0.078263	0.29937	0.18946	0.22977	0.13424	0.083159	0.20716	0.22696	0.20702	0.11796	0.19177	0.36595	0.31844	0.084105	0.21371	-2.4333	-3.3729	-2.7292	-3.0062	-3.3937	-2.7375	-3.3438	-2.9875	-2.8729	-3.5646	-2.7875	-2.9354	-3.3	-2.6125	-3.3167	-3.2646	-112.156	207.608	-54.341	-25.388	119.469	112.732	-93.844	144.148	-103.997	31.594	-112.963	-101.731	-118.354	62.363	128.252	183.841	3.3234e-05	4.6367e-05	2.3321e-05	47.414	2.2632e-07	9.0935e-07	101.3	13.017	1.1256e-06	8.5554e-07	30.458	10.619	4.9339	2.1046	3.3165e-07	5.719	0.00012493	0.00020041	4.3332e-05	51.27	2.031e-06	1.6303e-06	110.78	14.469	1.59e-06	2.2187e-06	33.449	11.862	5.7227	2.3577	2.0919e-06	6.3511	231.044	26.053	-28.032	-117.428	96.867	143.355	-118.060	-110.178	19.205	-74.337	-113.556	-110.082	-107.787	-100.857	82.014	-106.001	-8191	255	
2559.463	1	1	0	0	0.17649	0.22366	0.19434	0.14543	0.16555	0.052612	0.10414	0.14285	0.050349	0.35947	0.28173	0.066147	0.2181	0.12467	0.26086	0.13178	-2.2125	-3.3646	-2.7604	-2.8312	-3.5146	-2.6417	-3.1167	-3.1437	-2.6542	-3.3042	-3.1667	-2.8396	-3.3812	-2.5521	-3.075	-3.3479	40.822	-92.925	84.353	-57.062	-86.472	54.352	121.617	103.048	129.860	39.618	-6.605	-52.864	-47.529	130.298	-79.785	91.201	2.8884e-05	9.7615e-05	2.5992e-05	45.585	6.963e-07	8.54e-07	101.61	12.863	7.0012e-07	1.2508e-06	30.215	10.685	4.7952	2.0913	5.0718e-07	5.6738	0.00012143	0.00019531	4.5114e-05	50.608	2.0546e-06	1.6224e-06	110.69	14.431	1.5306e-06	2.2275e-06	33.192	11.854	5.6412	2.3443	1.9537e-06	6.2875	222.763	215.910	-32.191	-116.909	-42.770	28.461	-118.477	-109.737	-62.780	-14.730	-113.265	-109.588	-108.422	-101.139	25.565	-106.933	-8191	255	
2559.559	1	1	0	0	0.065532	0.13306	0.16748	0.203	0.011297	0.24956	0.26465	0.06713	0.10083	0.16629	0.17961	0.15667	0.15337	0.20009	0.21911	0.2771	-2.2646	-3.4042	-2.7854	-2.6333	-3.3875	-2.9	-2.9646	-3.2687	-2.6375	-3.3229	-3.0229	-2.7354	-3.35	-2.6771	-3.175	-3.3208	144.986	201.161	149.757	-61.052	210.219	-115.235	129.053	155.914	141.625	37.693	114.806	-85.078	24.231	-3.009	18.676	199.529	3.1716e-05	8.5309e-05	2.1345e-05	45.786	1.9129e-07	4.9011e-07	99.869	12.798	2.4075e-07	4.2043e-07	29.55	10.488	4.6978	2.0194	8.7609e-07	5.5893	0.00011797	0.00019323	4.7828e-05	50.018	2.0302e-06	1.6864e-06	108.66	14.282	1.4644e-06	2.1038e-06	32.561	11.604	5.5063	2.2947	1.8477e-06	6.175	-116.498	-111.120	223.935	-117.474	160.476	-7.671	-118.359	-109.831	204.467	-32.948	-113.965	-110.009	-108.904	-101.514	30.150	-106.988	-8191	255	
2559.680	1	1	0	0	0.27883	0.15791	0.072704	0.16319	0.12738	0.14415	0.26019	0.0072892	0.12724	0.19657	0.34309	0.195	0.31492	0.32784	0.21514	0.2905	-2.2542	-3.3354	-3.1396	-2.5896	-3.4917	-2.7479	-2.9583	-3.1458	-2.7125	-3.1917	-3.0292	-2.5542	-3.3104	-2.9688	-2.9125	-3.4521	-38.284	221.547	-91.081	37.869	137.934	216.455	179.692	-75.139	127.225	-3.618	-26.207	154.564	-0.037	200.716	230.807	196.963	3.9854e-05	8.6251e-05	2.7585e-05	44.949	2.4132e-07	9.1019e-07	99.857	12.77	6.8077e-07	1.1433e-06	29.679	10.513	4.6488	2.0459	1.5311e-06	5.5563	0.00011497	0.00018989	5.1007e-05	49.229	1.9978e-06	1.6972e-06	108.91	14.376	1.515e-06	1.9956e-06	32.716	11.612	5.535	2.3015	1.7608e-06	6.2127	230.164	217.746	-20.607	-117.382	72.701	24.770	-118.639	-109.928	-1.068	-13.750	-112.886	-110.027	-108.553	-101.687	26.049	-106.446	-8191	255	
2559.776	1	1	0	0	0.3269	0.17607	0.075651	0.10807	0.097033	0.13884	0.16376	0.1439	0.1745	0.19726	0.22264	0.089639	0.07482	0.25999	0.20361	0.17728	-2.1833	-3	-3.3125	-2.5687	-3.2875	-2.9229	-2.7625	-3.3333	-2.7604	-3.1437	-3.3667	-2.3958	-3.3083	-2.9708	-2.7062	-3.575	-40.151	-5.787	118.475	-16.578	-22.519	124.263	164.730	90.093	117.186	219.128	146.532	-76.469	88.933	114.692	150.363	-112.051	3.5004e-05	5.8055e-05	1.4265e-05	45.466	4.7674e-07	8.2507e-07	100.56	12.867	4.8439e-07	8.534e-07	30.164	10.471	4.6876	2.0532	4.0766e-07	5.6685	0.00011825	0.00018347	5.1327e-05	49.377	2.0774e-06	1.8558e-06	109.35	14.359	1.6154e-06	1.9788e-06	33.069	11.721	5.566	2.3313	1.6294e-06	6.2846	227.239	-39.913	14.424	-116.753	113.748	37.556	-118.343	-110.295	-5.931	-0.050	-112.987	-110.152	-107.770	-100.372	-25.223	-107.030	-8191	255	
2559.871	1	1	0	0	0.23187	0.13506	0.14568	0.085014	0.079829	0.10089	0.14597	0.16992	0.13612	0.18386	0.099745	0.19592	0.3041	0.20836	0.11199	0.035787	-2.2146	-2.9313	-3.3958	-2.5958	-3.3667	-3.2104	-2.6042	-3.5312	-2.8312	-3.0521	-3.4583	-2.6667	-3.2438	-3.1833	-2.7	-3.4521	189.394	39.028	-84.037	37.943	72.394	164.155	-20.649	-17.507	90.239	97.933	-69.853	92.953	-108.783	16.947	133.891	-105.937	2.9877e-05	7.8812e-05	2.0402e-05	45.373	6.3036e-07	8.3377e-08	101.38	12.96	4.4166e-07	1.4607e-07	30.838	10.811	4.8628	2.0811	6.4744e-07	5.88	0.00012351	0.00017867	5.4398e-05	49.921	2.0532e-06	2.0402e-06	110.51	14.634	1.7595e-06	1.9882e-06	33.926	11.964	5.647	2.3463	1.6114e-06	6.4622	227.100	-12.669	-13.073	-116.959	-108.735	-89.694	-118.578	-110.601	60.464	92.415	-113.434	-109.874	-108.353	-101.467	44.736	-106.407	-8191	255	
2559.969	1	1	0	0	0.20319	0.096649	0.13274	0.038485	0.11301	0.17811	0.12004	0.19567	0.013823	0.07776	0.053592	0.10231	0.10278	0.20602	0.25848	0.068735	-2.5521	-2.7917	-3.4375	-2.45	-3.1063	-3.2208	-2.7583	-3.4979	-2.9354	-2.7687	-3.7271	-2.75	-3.0521	-3.2938	-2.6688	-3.3625	30.660	180.681	6.062	-2.779	-48.852	-26.290	175.012	148.487	-46.001	-114.346	-57.350	69.341	221.165	160.189	-11.617	-57.792	3.5013e-05	7.083e-05	3.3345e-05	45.612	5.661e-07	1.2959e-07	101.51	12.999	2.0294e-07	3.8135e-07	30.782	10.817	4.7948	2.0716	4.8118e-07	5.7355	0.00013002	0.00017118	5.4199e-05	50.144	1.8925e-06	2.0444e-06	110.68	14.678	1.7471e-06	1.7355e-06	33.991	11.959	5.591	2.3317	1.5305e-06	6.3767	215.181	43.183	-105.209	-117.629	195.622	94.974	-118.377	-110.300	-31.302	-83.395	-114.264	-110.587	-108.107	-100.491	227.460	-106.086	-8191	255	
2560.087	1	1	0	0	0.098977	0.23692	0.14187	0.094357	0.10915	0.1681	0.061752	0.18416	0.25964	0.2163	0.38579	0.13577	0.13691	0.1131	0.18043	0.10808	-2.5708	-2.6271	-3.2958	-2.6542	-3.0146	-3.3583	-2.5229	-3.4021	-2.9958	-2.6521	-3.4458	-2.8125	-2.8271	-3.4375	-2.4792	-3.2979	224.213	159.345	1.319	46.771	212.240	-57.975	98.068	71.315	199.006	3.062	194.068	157.343	134.397	212.930	102.409	-81.242	3.9296e-05	0.00012393	4.2558e-05	45.558	4.852e-07	1.0577e-06	100.25	13.058	2.2213e-07	8.3507e-07	30.158	10.567	4.5468	2.212	6.4221e-07	5.7734	0.0001345	0.00015409	5.3458e-05	50.224	1.7702e-06	2.0838e-06	109.52	14.548	1.8803e-06	1.6613e-06	33.066	11.704	5.3841	2.4734	1.5892e-06	6.3999	220.218	-69.855	-87.480	-116.919	90.906	6.192	-118.240	-110.088	82.719	-18.512	-113.031	-109.598	-109.515	-100.836	71.966	-106.557	-8191	255	
2560.159	1	1	0	0	0.21871	0.16479	0.034192	0.11224	0.13813	0.088152	0.13996	0.30517	0.21224	0.092672	0.33785	0.12636	0.06547	0.1625	0.12181	0.11816	-2.6792	-2.5625	-3.4625	-2.9229	-2.9875	-3.4125	-2.5563	-3.2833	-3.2687	-2.7729	-3.4333	-2.9292	-2.8812	-3.5396	-2.8042	-3.2104	-115.207	-16.560	-1.767	117.305	-41.166	25.828	155.613	62.877	93.196	180.211	2.515	128.023	-95.668	-54.316	46.946	-37.474	3.4618e-05	0.00011179	3.007e-05	44.88	2.4687e-07	6.2971e-07	99.199	12.851	1.3067e-07	4.2687e-07	30.147	10.594	4.6019	2.2026	6.2317e-07	5.869	0.0001389	0.00014988	5.39e-05	48.997	1.7081e-06	1.9776e-06	107.81	14.363	1.8872e-06	1.5918e-06	33.023	11.894	5.4168	2.4909	1.5715e-06	6.4794	229.287	15.704	-54.414	-117.559	86.668	36.118	-118.461	-110.173	19.603	-2.021	-113.566	-109.417	-108.123	-100.377	184.616	-107.053	-8191	255	
2560.255	1	1	0	0	0.21812	0.17768	0.2302	0.10293	0.020682	0.082274	0.2321	0.15308	0.21457	0.12218	0.15336	0.11337	0.12763	0.050006	0.071849	0.020914	-2.7896	-2.6521	-3.3187	-2.9979	-2.7188	-3.3958	-2.6813	-3.2375	-3.3542	-2.6729	-3.2812	-2.8563	-2.8208	-3.3187	-2.7313	-2.9917	216.197	52.208	-52.629	-15.537	-40.366	143.959	116.861	-100.427	212.028	198.629	199.656	-37.544	218.104	-45.206	-122.082	-79.835	3.5624e-05	9.6184e-05	2.4474e-05	45.379	6.7491e-07	5.417e-07	100.76	13.138	5.0462e-07	2.8671e-07	30.209	10.812	4.8162	2.1945	3.867e-07	5.9448	0.00014112	0.00013643	5.142e-05	49.743	1.5717e-06	1.9895e-06	109.1	14.463	1.8761e-06	1.5454e-06	33.1	12.044	5.5332	2.5133	1.6873e-06	6.5918	223.582	-57.880	-43.071	-117.447	54.848	-34.015	-118.117	-109.732	120.147	149.287	-112.745	-109.750	-107.633	-101.189	14.837	-106.897	-8191	255	
2560.351	1	1	0	0	0.1014	0.084231	0.2519	0.31857	0.27501	0.095773	0.19238	0.21085	0.090527	0.14183	0.14121	0.19207	0.10006	0.096729	0.097682	0.18529	-2.8292	-2.5271	-3.275	-3.0604	-2.725	-3.4708	-2.8104	-3.0125	-3.4729	-2.7417	-3.1833	-3.0479	-2.5729	-3.4354	-2.8167	-2.8875	78.711	118.343	-105.183	158.130	146.317	-83.380	180.971	155.142	21.892	75.321	-110.386	78.158	186.427	34.531	-57.056	-8.746	3.9264e-05	5.9785e-06	9.7122e-06	46.008	7.0306e-07	2.3177e-06	100.95	12.905	3.1026e-07	4.4807e-07	30.208	10.948	4.8298	2.3215	6.1409e-07	6.1566	0.00014029	0.00014387	5.2417e-05	50.586	1.551e-06	2.0784e-06	109.93	14.494	1.9518e-06	1.6334e-06	33.408	12.128	5.5464	2.5996	1.798e-06	6.7694	228.187	-111.038	-60.617	-117.196	46.860	-1.037	-118.116	-110.975	142.120	101.044	-112.959	-110.146	-107.721	-101.902	219.222	-106.553	-8191	255	
2560.472	1	1	0	0	0.27537	0.062043	0.075533	0.28408	0.06928	0.13423	0.22431	0.36742	0.15152	0.094565	0.30344	0.11927	0.27816	0.052626	0.20581	0.11349	-3	-2.6333	-3.2958	-3.1354	-2.6167	-3.4479	-2.8417	-2.7562	-3.4333	-2.5312	-3.2146	-3.1667	-2.6667	-3.3375	-3.025	-2.7625	-3.915	184.490	-93.291	-23.888	94.208	-105.607	-50.011	-99.502	56.734	189.264	147.867	-35.385	180.774	116.021	-123.919	224.733	3.2466e-05	2.5136e-05	1.6463e-06	45.762	8.1698e-08	1.054e-06	99.833	12.912	1.3075e-07	5.0745e-07	30.049	10.885	4.7665	2.3063	3.0653e-07	6.1219	0.00014602	0.00015845	4.9318e-05	50.589	1.5027e-06	2.111e-06	109.22	14.299	1.9487e-06	1.7651e-06	33.079	12.149	5.4808	2.6032	1.9195e-06	6.7625	215.248	-82.956	128.746	-117.125	20.840	44.845	-118.085	-110.327	157.481	41.204	-112.157	-110.297	-108.343	-101.034	-19.345	-105.846	-8191	255	
2560.568	1	1	0	0	0.26597	0.080387	0.10816	0.2411	0.21461	0.087259	0.21321	0.35701	0.17278	0.09947	0.38522	0.15989	0.35384	0.037301	0.29198	0.11047	-3.1396	-2.6042	-3.0563	-3.3125	-2.8479	-3.4042	-2.9229	-2.5229	-3.4854	-2.8792	-3.0854	-3.1458	-2.6583	-3.3229	-3.0896	-2.6437	114.555	18.762	-94.383	168.975	-78.525	183.988	180.297	99.479	206.247	-93.004	13.678	55.593	20.968	2.179	164.756	6.706	3.107e-05	3.9738e-05	9.3642e-06	44.374	2.4022e-07	1.2526e-06	99.904	12.777	3.1639e-07	9.5879e-07	30.155	10.699	4.8926	2.3216	1.4305e-06	6.0543	0.00014834	0.00016438	4.8513e-05	49.159	1.5163e-06	2.0342e-06	108.7	14.1	1.9831e-06	1.7947e-06	33.12	12.001	5.5847	2.6018	1.9411e-06	6.6797	-126.612	103.370	1.208	-116.881	48.481	20.597	-118.571	-109.514	95.951	122.273	-113.231	-110.044	-108.542	-102.107	49.284	-106.765	-8191	255	
2560.664	1	1	0	0	0.068982	0.20867	0.068926	0.12955	0.25894	0.23521	0.24037	0.17924	0.052936	0.18383	0.18183	0.21583	0.14334	0.18843	0.16216	0.25487	-3.1229	-2.7896	-3.0417	-3.1708	-2.5896	-3.2	-3.2438	-2.5917	-3.3396	-3.0062	-2.6958	-3.3042	-2.6042	-3.3063	-3.3042	-2.425	108.318	201.202	123.610	-22.982	187.447	210.243	-107.159	136.601	-18.439	-105.438	-102.140	-64.858	6.598	-0.452	65.610	99.277	3.7724e-05	0.00012072	4.089e-05	46.051	2.9163e-07	4.531e-07	100.96	13.045	2.4703e-07	7.7228e-07	30.523	10.629	4.7721	2.2921	3.7582e-07	6.087	0.00014558	0.0001689	4.4087e-05	50.403	1.5627e-06	1.9407e-06	109.46	14.319	2.0117e-06	1.8494e-06	33.256	11.811	5.5275	2.6	1.9906e-06	6.7188	-125.717	-59.046	-13.559	-116.608	11.564	-79.231	-118.285	-109.863	-40.188	67.099	-113.065	-110.225	-109.272	-101.786	-26.068	-106.885	-8191	255	
2560.760	1	1	0	0	0.10071	0.24094	0.27527	0.031771	0.091949	0.13145	0.17498	0.10849	0.22152	0.13645	0.1577	0.020994	0.1708	0.25833	0.070154	0.062103	-2.9938	-2.8104	-2.7042	-3.4208	-2.7542	-3.1688	-3.4979	-2.6562	-3.2521	-3.0917	-2.6917	-3.6167	-2.6729	-2.9833	-3.2417	-2.6208	26.657	-62.564	-126.760	175.338	52.283	104.089	15.021	17.262	-125.101	-36.847	-41.028	183.823	110.831	13.503	-48.687	-102.183	2.9905e-05	6.2282e-05	8.3587e-06	45.831	4.8052e-07	8.4441e-07	100.86	13.027	9.4892e-07	1.1082e-06	30.816	10.708	4.8027	2.3222	4.0334e-07	6.1811	0.00014555	0.00017672	4.3147e-05	50.384	1.6937e-06	1.9515e-06	110.43	14.519	1.9754e-06	2.0192e-06	33.626	11.932	5.5833	2.6088	2.0444e-06	6.8248	-127.454	170.830	-46.759	-116.782	-72.493	79.013	-118.103	-110.214	-2.210	34.467	-112.803	-110.212	-107.780	-102.024	96.438	-107.061	-8191	255	
2560.857	1	1	0	0	0.23205	0.34178	0.14498	0.0921	0.058484	0.11321	0.20561	0.14771	0.12593	0.11245	0.036711	0.068122	0.2512	0.16412	0.04299	0.14832	-2.9292	-3.1	-2.7	-3.4458	-2.7396	-3.0396	-3.3771	-2.4917	-3.175	-3.0417	-2.5979	-3.5708	-2.7854	-2.9938	-3.3667	-2.6396	18.476	107.555	-77.465	27.852	15.151	143.285	163.438	180.973	217.391	95.068	-47.997	176.071	216.328	130.499	-105.128	218.419	3.0047e-05	0.00012564	1.9837e-05	45.971	8.3606e-07	5.329e-07	101.73	13.032	1.148e-06	1.3962e-06	30.632	10.83	4.8818	2.3591	7.0015e-07	6.1903	0.00014742	0.00018678	4.0496e-05	50.688	1.7755e-06	1.8263e-06	111.17	14.585	1.9243e-06	2.0656e-06	33.848	11.934	5.6258	2.6242	2.0597e-06	6.8461	230.062	219.056	-112.174	-116.705	41.167	58.112	-118.308	-110.314	83.717	-8.862	-112.793	-110.202	-108.542	-101.571	6.550	-106.873	-8191	255	
2560.953	1	1	0	0	0.18415	0.20006	0.27166	0.14835	0.12062	0.1689	0.17604	0.099836	0.066206	0.22828	0.15441	0.13177	0.1497	0.069072	0.12652	0.17745	-2.9458	-3.1771	-2.8375	-3.275	-2.8854	-2.9146	-3.5292	-2.4625	-3.0729	-3.2542	-2.6104	-3.3646	-2.875	-2.7625	-3.3292	-2.65	-30.478	40.137	-114.844	211.848	-73.192	-66.946	125.585	63.091	-30.404	148.765	-49.278	73.878	31.908	115.864	220.153	153.994	4.351e-05	8.7098e-05	1.6345e-06	45.788	4.2539e-07	5.3604e-07	102.79	13.384	5.4994e-07	3.37e-07	31.129	10.618	4.8545	2.3275	5.0348e-07	6.1851	0.00013604	0.00018735	3.9577e-05	50.471	1.845e-06	1.6128e-06	111.41	14.711	1.6575e-06	1.9817e-06	33.967	11.9	5.6344	2.6168	1.9193e-06	6.7689	221.583	51.044	-119.263	-116.196	7.873	5.597	-118.651	-110.550	-24.908	218.423	-113.258	-109.610	-107.403	-101.718	62.657	-106.570	-8191	255	
2561.049	1	1	0	0	0.2477	0.11998	0.34252	0.16247	0.16912	0.17748	0.12199	0.16268	0.26735	0.22408	0.13548	0.15427	0.081289	0.18195	0.34973	0.1976	-2.6292	-3.3167	-2.4542	-3.2208	-2.8187	-2.7708	-3.3979	-2.675	-2.9396	-3.2917	-2.5583	-3.2896	-3.0417	-2.6021	-3.3187	-2.8021	192.245	57.367	203.972	192.952	185.401	-100.628	172.936	95.181	139.536	144.777	8.575	-28.113	-67.699	109.102	-3.218	182.919	2.9087e-05	5.4778e-05	2.4973e-05	46.17	5.1085e-07	7.28e-07	102.52	13.306	5.9446e-07	4.9325e-07	30.783	10.482	4.8381	2.345	3.2507e-07	6.0673	0.00012348	0.00017721	4.0931e-05	50.586	1.8192e-06	1.566e-06	111.09	14.77	1.5187e-06	1.9103e-06	33.778	11.703	5.6522	2.6231	1.8624e-06	6.7441	-126.219	-91.520	-121.324	-116.510	99.399	-110.880	-118.634	-110.289	192.474	71.602	-113.160	-109.639	-108.981	-101.188	-17.112	-106.322	-8191	255	
2561.168	1	1	0	0	0.067348	0.095301	0.16983	0.067623	0.086902	0.036674	0.074759	0.22493	0.26787	0.054824	0.22835	0.17087	0.054259	0.13303	0.29203	0.095328	-2.5396	-3.45	-2.4604	-3.0792	-3.1104	-2.6875	-3.5521	-2.8229	-2.8521	-3.4667	-2.6854	-3.1333	-3.275	-2.5375	-3.4938	-2.9083	50.989	26.365	77.944	148.389	-85.109	121.686	165.961	130.443	-65.949	-112.521	34.047	-16.277	215.847	-124.176	57.939	162.078	3.6743e-05	0.00016702	2.1452e-05	46.769	4.4164e-07	8.178e-07	102.77	13.471	3.7247e-07	5.8421e-07	31.121	10.507	4.8936	2.4396	6.0382e-07	6.1873	0.00011884	0.00017839	4.2114e-05	50.816	1.824e-06	1.579e-06	111.93	15.094	1.5468e-06	1.877e-06	34.211	11.681	5.6958	2.7468	1.8278e-06	6.8771	220.584	-65.571	-93.808	-116.717	11.908	-10.941	-117.957	-110.524	-9.900	50.583	-113.304	-109.977	-108.604	-101.360	-33.718	-106.781	-8191	255	
2561.264	1	1	0	0	0.2478	0.25891	0.20461	0.17017	0.14092	0.32851	0.12295	0.066578	0.16603	0.075283	0.089543	0.27016	0.23458	0.12338	0.20637	0.11991	-2.3958	-3.5917	-2.6625	-3.0958	-3.1562	-2.6125	-3.2938	-2.9333	-2.55	-3.6146	-2.8021	-3.075	-3.4479	-2.5708	-3.3438	-2.9646	-75.424	-22.362	10.496	103.897	65.323	-32.342	49.030	-21.169	1.428	12.128	130.702	-87.468	84.705	223.154	119.543	-68.512	3.4705e-05	0.00011851	2.3288e-05	46.681	4.7599e-07	1.4109e-06	103.78	14.101	3.1234e-07	7.2227e-07	31.857	10.542	4.9829	2.5601	4.5883e-07	6.3005	0.00011631	0.00017665	4.4315e-05	51.407	1.9328e-06	1.5938e-06	113.96	15.612	1.4893e-06	1.9635e-06	35.111	11.696	5.7011	2.8797	1.7969e-06	6.9941	210.428	-21.721	-89.590	-116.643	38.112	10.680	-118.347	-110.362	17.883	-14.929	-114.141	-110.025	-108.516	-101.030	79.069	-106.780	-8191	255	
2561.360	1	1	0	0	0.10253	0.0891	0.063532	0.22971	0.1146	0.13159	0.30296	0.030348	0.15304	0.10475	0.20917	0.22081	0.06288	0.12603	0.18895	0.16347	-2.2167	-3.3729	-2.6708	-2.9021	-3.4771	-2.6292	-3.2479	-3.0375	-2.7313	-3.1875	-2.9167	-2.9229	-3.5375	-2.5167	-3.0417	-3.0771	-50.188	49.782	205.557	135.687	7.231	91.768	85.624	29.372	14.621	-98.399	22.692	125.421	-99.842	71.024	202.423	-126.920	4.3049e-05	0.00016578	4.8205e-05	48.324	1.2153e-06	2.5582e-07	107.29	14.395	4.1658e-07	3.4452e-07	32.334	10.475	5.0105	2.6197	5.5838e-07	6.4465	0.00011198	0.00017382	4.8085e-05	52.519	1.8646e-06	1.662e-06	116.43	16.15	1.5084e-06	1.9327e-06	35.648	11.691	5.782	2.9153	1.6756e-06	7.1164	-128.306	164.978	26.840	-116.446	86.025	6.247	-118.639	-110.668	57.669	60.229	-113.599	-110.034	-108.271	-102.481	59.745	-106.814	-8191	255	
2561.456	1	1	0	0	0.2487	0.031653	0.25017	0.10405	0.04562	0.12925	0.17138	0.089783	0.1287	0.072031	0.20879	0.076529	0.107	0.30302	0.22993	0.057547	-2.1896	-3.4938	-2.9208	-2.7	-3.4542	-2.6792	-3.1271	-3.1458	-2.5062	-3.3417	-2.8187	-2.7625	-3.5625	-2.4396	-3.0312	-3.1437	157.515	-95.291	-80.949	116.635	42.957	213.353	60.033	126.632	44.009	-56.155	178.421	132.534	-111.464	-123.277	-4.558	-52.491	3.8418e-05	4.1769e-05	2.7171e-05	47.756	1.2782e-07	6.7962e-07	106.52	14.717	1.0398e-07	9.6266e-07	32.827	10.544	4.9549	2.6063	7.1928e-07	6.4496	0.00011678	0.00016664	4.7501e-05	52.301	1.8689e-06	1.7139e-06	116.48	16.389	1.4432e-06	1.9043e-06	36.12	11.72	5.7542	2.9053	1.6144e-06	7.1211	219.483	138.702	14.420	-117.239	-64.312	18.779	-118.238	-110.585	168.005	-22.313	-114.038	-110.148	-109.393	-102.121	84.411	-107.261	-8191	255	
2561.552	1	1	0	0	0.40643	0.17854	0.12123	0.095786	0.048798	0.20988	0.14138	0.13298	0.13467	0.022586	0.18974	0.063588	0.087991	0.04522	0.094479	0.21511	-2.2354	-3.4083	-3.0521	-2.8979	-3.4104	-2.4833	-2.975	-3.2812	-2.7021	-3.2708	-2.8812	-2.6333	-3.3875	-2.7062	-2.7854	-3.5312	42.282	35.769	9.154	67.606	-35.016	117.385	-31.082	128.621	0.959	17.142	-123.264	58.317	54.786	140.434	0.625	-18.017	4.227e-05	5.9928e-05	8.5354e-06	47.614	3.9909e-07	1.3634e-06	104.61	14.851	6.02e-07	7.425e-07	32.199	10.192	4.8906	2.5444	6.0634e-07	6.1899	0.0001175	0.00016376	4.7779e-05	51.933	1.8007e-06	1.7886e-06	113.72	16.464	1.5426e-06	1.7489e-06	35.707	11.331	5.605	2.8603	1.5619e-06	6.8847	226.951	-73.729	133.693	-116.599	29.593	16.236	-118.303	-111.092	-47.583	-30.778	-114.209	-111.010	-108.635	-101.518	-48.358	-106.304	-8191	255	
2561.649	1	1	0	0	0.12368	0.070873	0.37551	0.2296	0.16434	0.16152	0.055083	0.14574	0.32599	0.23377	0.15276	0.12036	0.070976	0.1965	0.15765	0.12415	-2.2917	-3.2583	-3.0875	-2.7146	-3.3271	-2.8896	-2.7229	-3.2875	-2.4125	-3.0583	-3.3375	-2.4625	-3.4813	-2.8042	-2.8937	-3.3292	-38.864	68.941	169.653	195.479	162.489	-118.574	38.991	-88.471	142.948	73.562	122.997	177.765	67.359	88.231	69.810	124.866	4.3706e-05	7.2665e-05	1.7654e-06	47.322	6.2337e-07	1.2278e-06	103.84	14.875	8.1799e-07	1.6739e-07	32.324	10.222	4.7896	2.5652	4.372e-07	6.2509	0.00012199	0.00015537	4.8448e-05	51.455	1.737e-06	1.8037e-06	112.51	16.662	1.626e-06	1.69e-06	35.65	11.287	5.5767	2.8659	1.4898e-06	6.8554	229.350	-45.523	176.814	-116.630	191.497	-27.724	-118.452	-111.628	112.384	-23.970	-113.272	-110.177	-107.887	-102.268	153.977	-106.713	-8191	255	
2561.769	1	1	0	0	0.27563	0.16648	0.28379	0.32764	0.093978	0.2517	0.21249	0.095954	0.05271	0.31881	0.11504	0.25268	0.09869	0.11961	0.32796	0.14939	-2.1771	-3.0375	-3.1333	-2.4375	-3.3812	-2.9583	-2.7958	-3.4062	-2.4292	-2.8146	-3.2042	-2.5667	-3.3521	-3.0062	-2.5292	-3.525	-103.699	-35.765	-40.607	-23.540	-107.933	94.174	107.496	-95.234	78.853	-89.175	124.709	-41.774	212.734	148.150	32.288	13.152	4.0507e-05	7.0943e-05	2.1464e-05	47.414	1.9792e-07	4.5876e-07	102.51	15.106	4.1528e-07	2.7661e-07	32.764	10.253	4.8384	2.6036	3.8934e-07	6.2596	0.00012498	0.00014831	4.9168e-05	51.519	1.6226e-06	1.8875e-06	112.01	16.851	1.6965e-06	1.6385e-06	36.014	11.353	5.5948	2.9047	1.4966e-06	6.9032	225.304	-89.323	-67.983	-116.499	-102.191	24.291	-118.094	-111.160	89.850	26.155	-113.609	-109.656	-108.779	-101.894	32.234	-106.753	-8191	255	
2561.864	1	1	0	0	0.058073	0.045016	0.02679	0.15315	0.27054	0.11158	0.22772	0.099144	0.20978	0.30192	0.089261	0.05522	0.13244	0.10037	0.13484	0.10614	-2.4021	-2.8563	-3.1688	-2.5958	-3.1625	-3.1271	-2.7021	-3.2062	-2.6667	-2.7521	-3.2833	-2.6125	-3.1417	-3.1333	-2.625	-3.2958	94.795	-94.084	151.878	80.603	45.818	73.389	-103.879	-102.962	177.552	177.620	-28.849	122.272	-66.761	72.590	-51.904	-73.258	3.4091e-05	9.2178e-05	6.5559e-06	47.578	9.2004e-07	9.5352e-07	103.35	15.305	4.7783e-07	8.5816e-07	32.961	10.338	4.8684	2.6009	5.241e-07	6.322	0.0001303	0.00013938	4.7109e-05	51.961	1.6707e-06	1.9549e-06	112.54	17.005	1.781e-06	1.577e-06	36.197	11.466	5.6178	2.9253	1.4923e-06	6.9835	223.352	3.444	210.805	-116.291	64.217	-57.605	-118.232	-111.311	-80.330	-19.192	-113.245	-110.722	-108.603	-101.787	23.356	-106.850	-8191	255	
2561.960	1	1	0	0	0.20134	0.1485	0.24494	0.23679	0.26805	0.097542	0.1353	0.18919	0.10623	0.069796	0.072575	0.073606	0.25879	0.11989	0.30401	0.1897	-2.3417	-2.8229	-3.3771	-2.5875	-3.1625	-3.1708	-2.6479	-3.4667	-2.9125	-2.8417	-3.4333	-2.4708	-3.0146	-3.1646	-2.575	-3.3625	207.401	204.652	175.715	184.877	102.136	-59.559	142.989	-55.715	64.190	25.427	216.197	175.313	12.998	226.699	-80.616	195.918	3.511e-05	4.133e-05	7.1936e-06	47.532	9.9827e-07	5.4323e-07	104.01	15.393	3.0277e-07	3.3879e-07	33.389	10.306	4.9691	2.6303	3.0488e-07	6.3062	0.00013405	0.00013897	5.0636e-05	51.976	1.5616e-06	1.9317e-06	113.14	16.993	1.8151e-06	1.5167e-06	36.612	11.526	5.611	2.9313	1.5756e-06	6.9818	224.909	8.871	141.650	-116.998	149.649	-12.227	-118.561	-110.954	-62.240	-110.759	-112.795	-109.947	-107.696	-101.225	2.480	-106.481	-8191	255	
2562.033	1	1	0	0	0.062338	0.13121	0.058514	0.12063	0.26709	0.16833	0.09878	0.27544	0.10821	0.44227	0.18746	0.23068	0.29691	0.016085	0.16738	0.1474	-2.5083	-2.7042	-3.4542	-2.6208	-3.1708	-3.3187	-2.5167	-3.2875	-3.0187	-2.5521	-3.3708	-2.825	-2.9708	-3.2438	-2.5208	-3.4021	23.645	34.653	44.052	12.412	115.278	155.975	-50.708	-102.891	196.424	227.137	46.450	-74.384	-52.782	-97.387	161.225	-100.579	2.8282e-05	4.0338e-05	8.3969e-06	47.478	1.3971e-07	3.7354e-07	103.51	15.156	1.8754e-07	5.4891e-07	33.162	10.113	4.8334	2.5807	6.9623e-07	6.2017	0.00014081	0.00013961	4.7251e-05	52.257	1.529e-06	1.8541e-06	112.67	16.904	1.8165e-06	1.4672e-06	35.99	11.222	5.5166	2.8928	1.5253e-06	6.7763	224.186	196.535	-25.270	-116.971	21.435	58.535	-118.771	-111.132	-53.428	132.341	-113.687	-110.683	-109.508	-101.480	162.901	-106.769	-8191	255	
2562.152	1	1	0	0	0.25569	0.11702	0.2038	0.14381	0.15716	0.13923	0.051472	0.42035	0.20009	0.037851	0.09404	0.076607	0.064676	0.22075	0.13638	0.19993	-2.7771	-2.7583	-3.4979	-2.8	-2.7812	-3.4396	-2.5167	-3.1854	-3.3812	-2.5854	-3.4646	-2.7938	-2.8104	-3.2042	-2.525	-3.0625	30.403	12.962	172.374	-48.580	144.776	141.719	56.844	-116.669	192.049	109.145	-106.217	118.500	172.089	-72.328	-92.248	204.755	4.3112e-05	9.6289e-05	1.8558e-05	47.965	7.821e-07	3.1137e-07	101.87	14.662	4.0122e-07	9.3648e-07	32.658	9.9343	4.6757	2.5874	6.502e-07	6.1203	0.00013343	0.00013197	4.4301e-05	52.358	1.3772e-06	1.824e-06	111.01	16.217	1.7728e-06	1.4348e-06	35.827	11.042	5.411	2.8899	1.7002e-06	6.7764	211.153	57.074	-18.146	-116.940	-24.553	-10.188	-118.378	-110.350	224.105	47.389	-114.232	-109.832	-109.509	-101.641	-29.069	-107.073	-8191	255	
2562.248	1	1	0	0	0.16291	0.19341	0.18432	0.050908	0.18503	0.17745	0.17597	0.18521	0.12283	0.2551	0.23373	0.24157	0.059524	0.23622	0.037708	0.068361	-2.9083	-2.4146	-3.2979	-2.8729	-2.7229	-3.5604	-2.6437	-3.0563	-3.3479	-2.7146	-3.2917	-2.9125	-2.4271	-3.5458	-2.7583	-3.0854	-118.573	105.373	140.668	36.921	194.769	157.805	59.780	-62.346	66.920	114.251	-50.829	-20.675	-44.238	-6.348	4.716	128.081	3.69e-05	7.1687e-05	1.5864e-05	47.657	2.2291e-07	7.1961e-07	102.36	15.072	4.74e-07	3.575e-07	32.9	10.039	4.732	2.5635	4.3572e-08	6.1958	0.00012685	0.0001428	4.3475e-05	52.058	1.3549e-06	1.8317e-06	111.49	16.61	1.6607e-06	1.5247e-06	36.066	11.321	5.4556	2.9028	1.7023e-06	6.8643	228.943	172.396	32.732	-116.955	213.885	148.299	-118.223	-111.417	-40.996	-19.825	-113.713	-109.494	-108.855	-101.689	15.268	-107.045	-8191	255	
2562.344	1	1	0	0	0.16839	0.065641	0.26885	0.21785	0.04444	0.034765	0.28654	0.088122	0.070059	0.089023	0.1088	0.12566	0.19542	0.13376	0.30445	0.23785	-2.9542	-2.5875	-3.2625	-3.0292	-2.6063	-3.4146	-2.8708	-2.9521	-3.3187	-2.6104	-3.1667	-3.0625	-2.5771	-3.3292	-3.0771	-2.8208	-98.072	18.454	191.780	168.801	168.080	128.193	153.444	-37.739	115.661	-77.657	0.577	83.631	-122.061	40.455	-61.736	189.975	2.971e-05	4.5984e-05	1.0931e-05	49.134	5.3279e-07	7.5036e-07	104.73	15.589	4.3535e-07	1.2603e-06	33.716	10.179	4.7887	2.7813	7.537e-07	6.2797	0.0001308	0.00014577	4.2912e-05	53.413	1.4316e-06	1.7901e-06	114.51	17.24	1.7354e-06	1.7216e-06	37.032	11.363	5.5425	3.0926	1.7682e-06	6.9396	-117.033	162.670	-87.412	-116.895	-34.308	6.664	-118.830	-110.393	65.889	55.388	-114.155	-109.954	-107.725	-102.041	85.969	-106.923	-8191	255	
2562.440	1	1	0	0	0.071284	0.012785	0.11352	0.15161	0.081898	0.24236	0.10377	0.30349	0.28764	0.21358	0.18324	0.14911	0.15621	0.1897	0.20323	0.26636	-3.0396	-2.4562	-3.2167	-3.1771	-2.7208	-3.425	-2.9437	-2.8063	-3.3958	-2.9042	-3.0896	-3.2958	-2.5125	-3.3917	-3.0187	-2.6729	81.079	41.197	-77.979	65.192	-3.417	217.900	145.130	-85.277	185.248	0.712	181.591	189.533	-48.107	125.008	-1.398	121.358	3.1267e-05	2.8357e-05	6.4493e-06	48.182	6.5172e-07	6.3134e-07	106.36	16.333	4.6725e-07	2.1179e-07	36.128	9.7659	4.6296	3.0355	2.0497e-07	5.6339	0.00012754	0.00015414	3.8073e-05	52.813	1.4189e-06	1.6669e-06	115.58	18.105	1.7208e-06	1.737e-06	39.655	10.95	5.3162	3.3506	1.89e-06	6.225	-124.745	104.420	-29.065	-116.749	-2.077	-1.035	-118.452	-111.301	-123.887	72.535	-114.121	-110.211	-107.992	-103.287	80.828	-106.270	-8191	255	
2562.561	1	1	0	0	0.23783	0.07444	0.1082	0.2529	0.17175	0.080411	0.11786	0.34555	0.043748	0.038751	0.17011	0.21836	0.045896	0.21874	0.18846	0.27355	-3.1354	-2.7167	-2.9375	-3.3146	-2.5563	-3.0583	-2.9667	-2.4542	-3.45	-2.8917	-3.0604	-3.3354	-2.6229	-3.2292	-3.0604	-2.7667	135.356	-31.154	194.724	218.016	-20.812	22.430	-40.510	191.933	-82.443	-68.235	194.952	121.433	-56.942	159.555	110.697	146.635	3.6962e-05	0.00011762	1.7878e-05	47.603	1.0572e-06	2.6952e-07	105.89	17.287	2.8383e-07	3.2849e-07	36.887	9.1617	4.2078	2.9161	9.0756e-07	5.7785	0.00013229	0.00016476	3.8672e-05	51.834	1.5393e-06	1.7164e-06	114.31	19.036	1.7298e-06	1.8667e-06	40.343	10.199	4.9679	3.2329	1.9387e-06	6.3294	217.604	-129.387	202.619	-117.006	-1.174	-34.075	-118.591	-112.487	-33.141	-2.139	-114.306	-109.370	-108.893	-102.999	17.196	-106.537	-8191	255	
2562.633	1	1	0	0	0.26458	0.10675	0.022166	0.099823	0.1962	0.31819	0.19163	0.31582	0.17751	0.15355	0.06667	0.23173	0.041129	0.092051	0.08661	0.21384	-2.9771	-2.8	-2.8542	-3.4938	-2.5229	-3.3042	-3.2042	-2.5812	-3.4583	-2.8167	-2.7687	-3.4583	-2.575	-3.0667	-3.1292	-2.5333	-117.291	22.800	176.965	194.811	-105.311	-89.929	-31.125	156.321	54.931	-64.116	-32.230	-79.090	-122.874	-85.239	105.948	29.614	2.7365e-05	0.00013167	2.6064e-05	47.611	4.8435e-07	1.2434e-07	103.52	17.523	2.0692e-07	4.8024e-07	38.266	9.0748	4.2235	2.5388	5.4795e-07	5.938	0.00013485	0.0001787	3.9156e-05	52.605	1.6643e-06	1.6473e-06	112.92	19.309	1.7765e-06	1.9942e-06	41.318	10.13	4.988	2.8337	1.9165e-06	6.5601	229.082	-48.106	-100.505	-116.865	177.493	-100.539	-118.451	-112.400	-11.397	190.245	-114.030	-109.660	-108.255	-103.103	-25.022	-106.956	-8191	255	
2562.729	1	1	0	0	0.27249	0.085104	0.10002	0.14956	0.18252	0.17212	0.022954	0.18972	0.11391	0.15272	0.16607	0.29401	0.21569	0.19085	0.1365	0.22168	-3.0771	-2.8333	-2.6458	-3.5354	-2.7021	-3.1	-3.2687	-2.5625	-3.3167	-3.0542	-2.6354	-3.4625	-2.6562	-3.0333	-3.3812	-2.6271	-5.656	227.936	-78.145	203.791	-7.271	36.311	24.004	48.893	145.238	96.321	116.856	-52.038	196.806	-89.085	171.571	97.460	4.0508e-05	5.801e-05	1.9817e-06	48.375	4.2253e-07	5.84e-07	102.67	18.721	1.5579e-06	1.4496e-06	37.843	9.3438	4.4142	2.292	3.2207e-07	6.4342	0.00012444	0.00018396	3.843e-05	52.354	1.7901e-06	1.6164e-06	112.32	20.485	1.7264e-06	2.0059e-06	41.52	10.472	5.211	2.5657	1.9338e-06	7.0848	-121.570	-115.839	211.918	-116.558	0.487	39.753	-118.253	-112.928	3.275	-12.733	-115.269	-109.059	-107.964	-103.082	-85.367	-106.210	-8191	255	
2562.850	1	1	0	0	0.15207	0.14514	0.098245	0.27258	0.10429	0.18824	0.078477	0.095956	0.11969	0.082555	0.10768	0.301	0.17713	0.16042	0.22293	0.17333	-3.1208	-2.9125	-2.7021	-3.425	-2.8708	-3.1042	-3.4667	-2.6063	-3.1958	-3.2583	-2.5354	-3.3146	-2.925	-2.7708	-3.4188	-2.6	-7.911	144.192	80.542	-43.847	197.866	226.174	-89.090	24.414	27.607	14.926	6.321	176.064	-42.527	-37.298	119.261	7.651	3.8623e-05	6.9497e-05	1.6317e-05	49.692	5.9202e-07	6.358e-07	103.39	18.497	7.6007e-07	1.1432e-06	39.281	9.9943	4.6489	2.2983	4.6509e-07	6.814	0.00012869	0.00018781	4.2349e-05	54.641	1.8986e-06	1.5952e-06	113.09	20.518	1.6178e-06	2.001e-06	42.824	11.037	5.5254	2.5738	1.9023e-06	7.5352	-128.955	190.340	-24.120	-117.445	-66.656	-59.635	-118.044	-112.552	10.373	-117.189	-114.427	-109.170	-108.507	-102.686	-120.907	-106.844	-8191	255	
2562.944	1	1	0	0	0.23994	0.2219	0.2615	0.21926	0.31361	0.081295	0.060481	0.061914	0.10844	0.16944	0.12753	0.12626	0.10806	0.15519	0.16667	0.068684	-2.8229	-3.1792	-2.4771	-3.3083	-2.9104	-2.7771	-3.3187	-2.5021	-3.2042	-3.2208	-2.7146	-3.3979	-2.9521	-2.6292	-3.35	-2.7458	67.387	150.884	-99.914	-3.512	5.173	49.765	136.186	122.576	42.539	53.120	-72.169	-22.726	156.153	144.478	227.621	-80.921	4.6346e-05	4.1336e-05	1.9096e-05	49.207	7.1267e-07	6.0487e-07	105.13	18.619	2.9976e-08	1.5068e-06	39.007	9.9854	4.733	2.3328	9.957e-07	6.9846	0.0001242	0.00017657	4.2007e-05	53.666	1.9113e-06	1.5895e-06	115.28	20.585	1.5932e-06	1.9936e-06	42.257	11.123	5.5567	2.6157	1.8163e-06	7.7116	-122.926	6.728	-110.391	-116.837	-12.430	176.446	-118.453	-112.197	227.259	60.986	-114.474	-108.561	-107.568	-102.535	-48.419	-106.300	-8191	255	
#DATA ENDS
