BOXY.EXE: ISS Imagent and Oximeter Data Acquisition Program Version 0.80
Ascii Record File

#ACQ INFORMATION
2  Detector Channels 
16  External MUX Channels 
1  Auxiliary Channels 
5000  Waveform (CCF) Frequency (Hz)
1  Waveforms Skipped 
30  Waveforms Averaged 
1  Cycles Averaged 
16  Acquisitions per Waveform 
10.0806  Updata Rate (Hz) 

#FILE INFORMATION
TRUE -- External MUX Channel results are PARSED.
FALSE -- AC DC and Phase are NOT grouped.
TRUE -- Companion Program Settings File CREATED.
FALSE -- AC data not excluded
FALSE -- DC data not excluded
FALSE -- Phase data not excluded
FALSE -- Auxillary Chn. data not excluded
Tab delimiters

#CALIBRATION STATE
TRUE -- Waveform Calibration Values APPLIED.


#AUX CALIBRATION VALUES
Val Type	aux-1	

Term	1.0000e+00	
Factor	0.0000e+00	


#WF CALIBRATION VALUES
A = Detector Channel
Val Type	A-AC1	A-AC2	A-AC3	A-AC4	A-AC5	A-AC6	A-AC7	A-AC8	A-AC9	A-AC10	A-AC11	A-AC12	A-AC13	A-AC14	A-AC15	A-AC16	A-DC1	A-DC2	A-DC3	A-DC4	A-DC5	A-DC6	A-DC7	A-DC8	A-DC9	A-DC10	A-DC11	A-DC12	A-DC13	A-DC14	A-DC15	A-DC16	A-Ph1	A-Ph2	A-Ph3	A-Ph4	A-Ph5	A-Ph6	A-Ph7	A-Ph8	A-Ph9	A-Ph10	A-Ph11	A-Ph12	A-Ph13	A-Ph14	A-Ph15	A-Ph16	

Term	0.00000e+00	0.00000e+00	0.00000e+00	0.00000e+00	0.00000e+00	0.00000e+00	0.00000e+00	0.00000e+00	0.00000e+00	0.00000e+00	0.00000e+00	0.00000e+00	0.00000e+00	0.00000e+00	0.00000e+00	0.00000e+00	0.00000e+00	0.00000e+00	0.00000e+00	0.00000e+00	0.00000e+00	0.00000e+00	0.00000e+00	0.00000e+00	0.00000e+00	0.00000e+00	0.00000e+00	0.00000e+00	0.00000e+00	0.00000e+00	0.00000e+00	0.00000e+00	0.00000e+00	0.00000e+00	0.00000e+00	0.00000e+00	0.00000e+00	0.00000e+00	0.00000e+00	0.00000e+00	0.00000e+00	0.00000e+00	0.00000e+00	0.00000e+00	0.00000e+00	0.00000e+00	0.00000e+00	0.00000e+00	
Factor	1.00000e+00	1.00000e+00	1.00000e+00	1.00000e+00	1.00000e+00	1.00000e+00	1.00000e+00	1.00000e+00	1.00000e+00	1.00000e+00	1.00000e+00	1.00000e+00	1.00000e+00	1.00000e+00	1.00000e+00	1.00000e+00	1.00000e+00	1.00000e+00	1.00000e+00	1.00000e+00	1.00000e+00	1.00000e+00	1.00000e+00	1.00000e+00	1.00000e+00	1.00000e+00	1.00000e+00	1.00000e+00	1.00000e+00	1.00000e+00	1.00000e+00	1.00000e+00	X	X	X	X	X	X	X	X	X	X	X	X	X	X	X	X	

B = Detector Channel
Val Type	B-AC1	B-AC2	B-AC3	B-AC4	B-AC5	B-AC6	B-AC7	B-AC8	B-AC9	B-AC10	B-AC11	B-AC12	B-AC13	B-AC14	B-AC15	B-AC16	B-DC1	B-DC2	B-DC3	B-DC4	B-DC5	B-DC6	B-DC7	B-DC8	B-DC9	B-DC10	B-DC11	B-DC12	B-DC13	B-DC14	B-DC15	B-DC16	B-Ph1	B-Ph2	B-Ph3	B-Ph4	B-Ph5	B-Ph6	B-Ph7	B-Ph8	B-Ph9	B-Ph10	B-Ph11	B-Ph12	B-Ph13	B-Ph14	B-Ph15	B-Ph16	

Term	0.00000e+00	0.00000e+00	0.00000e+00	0.00000e+00	0.00000e+00	0.00000e+00	0.00000e+00	0.00000e+00	0.00000e+00	0.00000e+00	0.00000e+00	0.00000e+00	0.00000e+00	0.00000e+00	0.00000e+00	0.00000e+00	0.00000e+00	0.00000e+00	0.00000e+00	0.00000e+00	0.00000e+00	0.00000e+00	0.00000e+00	0.00000e+00	0.00000e+00	0.00000e+00	0.00000e+00	0.00000e+00	0.00000e+00	0.00000e+00	0.00000e+00	0.00000e+00	-9.97839e+01	-1.27879e+02	-1.28521e+02	-1.82006e+02	-5.58992e+01	-7.33021e+01	-1.57810e+02	-1.62015e+02	-5.12818e+01	-6.74143e+01	-1.72403e+02	-1.70165e+02	-1.80574e+02	-1.76604e+02	-6.35904e+01	-1.48996e+02	
Factor	1.65874e-05	1.60630e-04	4.67225e-05	1.56642e-01	1.23825e-06	1.65992e-06	1.81458e-01	5.32774e-02	1.10927e-06	1.85625e-06	9.31568e-02	3.11199e-02	4.21576e-02	9.47623e-03	1.36244e-06	1.40405e-02	8.31017e-06	1.23189e-05	3.42039e-06	7.89887e-02	1.27350e-07	1.35954e-07	8.60234e-02	2.70087e-02	1.27156e-07	1.36589e-07	4.55214e-02	1.53836e-02	2.16466e-02	4.83925e-03	1.31139e-07	6.92868e-03	X	X	X	X	X	X	X	X	X	X	X	X	X	X	X	X	



#DISTANCE SETTINGS
A = Detector Channel
A-1	A-2	A-3	A-4	A-5	A-6	A-7	A-8	A-9	A-10	A-11	A-12	A-13	A-14	A-15	A-16	

2.5000e+00	3.0000e+00	2.5000e+00	3.0000e+00	2.0000e+00	3.0000e+00	1.5000e+00	3.0000e+00	3.0000e+00	3.0000e+00	3.0000e+00	3.0000e+00	3.0000e+00	3.0000e+00	1.5000e+00	3.0000e+00	

B = Detector Channel
B-1	B-2	B-3	B-4	B-5	B-6	B-7	B-8	B-9	B-10	B-11	B-12	B-13	B-14	B-15	B-16	

1.0000e+01	1.0000e+01	1.0000e+01	1.4400e+00	1.0000e+01	1.0000e+01	1.5100e+00	1.9400e+00	1.0000e+01	1.0000e+01	1.9900e+00	2.4900e+00	2.4100e+00	2.9000e+00	1.0000e+01	2.9800e+00	




#DATA BEGINS
time	group	step	mark	flag	A-AC1	A-AC2	A-AC3	A-AC4	A-AC5	A-AC6	A-AC7	A-AC8	A-AC9	A-AC10	A-AC11	A-AC12	A-AC13	A-AC14	A-AC15	A-AC16	A-DC1	A-DC2	A-DC3	A-DC4	A-DC5	A-DC6	A-DC7	A-DC8	A-DC9	A-DC10	A-DC11	A-DC12	A-DC13	A-DC14	A-DC15	A-DC16	A-Ph1	A-Ph2	A-Ph3	A-Ph4	A-Ph5	A-Ph6	A-Ph7	A-Ph8	A-Ph9	A-Ph10	A-Ph11	A-Ph12	A-Ph13	A-Ph14	A-Ph15	A-Ph16	B-AC1	B-AC2	B-AC3	B-AC4	B-AC5	B-AC6	B-AC7	B-AC8	B-AC9	B-AC10	B-AC11	B-AC12	B-AC13	B-AC14	B-AC15	B-AC16	B-DC1	B-DC2	B-DC3	B-DC4	B-DC5	B-DC6	B-DC7	B-DC8	B-DC9	B-DC10	B-DC11	B-DC12	B-DC13	B-DC14	B-DC15	B-DC16	B-Ph1	B-Ph2	B-Ph3	B-Ph4	B-Ph5	B-Ph6	B-Ph7	B-Ph8	B-Ph9	B-Ph10	B-Ph11	B-Ph12	B-Ph13	B-Ph14	B-Ph15	B-Ph16	aux-1	digaux	

898.143	1	1	0	768	0.13647	0.12821	0.18155	0.35189	0.18761	0.13626	0.20552	0.24559	0.15952	0.15359	0.17845	0.21074	0.1121	0.33881	0.035488	0.36011	-2.7604	-3.8354	-2.9813	-3.5646	-3.5187	-2.9292	-3.75	-3.4417	-3.1083	-3.7562	-3.1354	-3.4208	-3.7188	-2.8042	-3.5062	-3.3937	418.345	351.073	447.586	507.722	215.596	364.658	400.824	459.474	284.777	533.561	510.215	504.594	264.825	504.470	263.698	426.061	0.00042959	0.00059572	0.00015407	1369.4	3.4883e-06	4.3499e-06	1361.7	367.93	6.075e-06	7.6627e-06	418.47	139.25	121.04	41.848	6.0754e-06	51.706	0.00053189	0.00054088	0.0001461	1382.8	5.9523e-06	5.8746e-06	1379.5	374.09	6.0481e-06	5.7168e-06	426.98	143.09	124.43	42.889	5.9371e-06	53.173	225.718	268.177	289.856	187.931	315.952	316.457	187.770	192.233	328.499	318.809	191.451	195.833	196.286	201.221	293.130	200.465	-8191	255	
898.239	1	1	0	0	0.24338	0.041076	0.073956	0.19804	0.17181	0.12426	0.24801	0.17648	0.11413	0.060955	0.036447	0.12359	0.16539	0.10897	0.26025	0.19061	-2.6688	-3.6771	-3.2104	-3.4104	-3.7542	-2.9458	-3.5646	-3.6312	-2.9479	-3.9104	-3.4313	-3.2792	-3.6958	-3.1229	-3.3521	-3.7479	506.147	304.118	228.978	469.645	258.263	349.310	185.826	466.800	380.036	366.915	514.675	364.988	463.173	464.773	365.580	490.063	0.00043917	0.00045136	9.3398e-05	1365.6	6.4501e-06	5.2942e-06	1360.8	367.75	4.6154e-06	6.4083e-06	419.54	139.51	120.84	41.841	4.3695e-06	51.987	0.00053175	0.00052668	0.00014925	1382.2	5.9501e-06	5.8171e-06	1379.4	374.05	6.0847e-06	5.8824e-06	427.02	143.21	124.62	42.901	5.8674e-06	53.167	227.653	257.945	261.821	187.882	304.898	330.013	187.560	192.027	323.937	309.984	191.853	195.807	196.622	201.183	323.311	200.446	-8191	255	
898.335	1	1	0	0	0.027734	0.062538	0.30641	0.24482	0.084271	0.050304	0.21158	0.28994	0.15273	0.23024	0.053132	0.16429	0.1926	0.30312	0.089117	0.33008	-2.5833	-3.5458	-3.2479	-3.2917	-3.75	-2.9042	-3.5625	-3.775	-2.9896	-3.7875	-3.35	-2.9771	-3.7583	-3.1958	-3.1979	-3.6375	275.883	233.554	393.132	474.111	318.608	266.359	175.200	508.897	285.592	419.133	479.130	213.247	178.036	192.531	289.814	201.198	0.00047121	0.00052036	0.00017376	1368.9	4.3739e-06	5.4188e-06	1357.3	367.98	5.8101e-06	6.0325e-06	419.82	139.9	121.71	41.923	2.9541e-06	51.897	0.00052735	0.00052617	0.00015011	1381.9	5.9417e-06	5.9587e-06	1380.1	373.81	5.9133e-06	5.953e-06	427.08	143.34	124.6	42.973	6.0687e-06	53.159	228.070	245.480	262.297	187.891	340.047	325.296	187.402	191.978	311.470	346.278	191.810	196.085	196.250	201.487	321.866	200.617	-8191	255	
898.431	1	1	0	0	0.30099	0.14318	0.19272	0.29194	0.12565	0.20269	0.084876	0.2249	0.20666	0.096355	0.18521	0.19429	0.20343	0.11181	0.12466	0.099306	-2.5792	-3.7646	-3.3812	-3.15	-3.6479	-3.1854	-3.5208	-3.9083	-3.0833	-3.7708	-3.6479	-3.1729	-3.7146	-3.2646	-3.1417	-3.9	363.744	340.407	380.834	496.808	442.071	402.271	526.617	494.319	244.521	277.741	393.917	502.583	500.554	518.795	181.926	530.275	0.00045147	0.0003996	9.6115e-05	1366.6	4.0542e-06	5.2256e-06	1361.1	367.35	5.3241e-06	6.3979e-06	420.81	139.58	121.63	41.975	2.4447e-06	51.827	0.00052456	0.00054198	0.00015508	1381.6	5.8899e-06	5.9834e-06	1381.3	374.1	5.8937e-06	6.0583e-06	427.35	143.18	124.59	42.926	6.1242e-06	53.154	227.798	263.563	259.463	188.000	332.025	330.307	187.137	191.865	326.746	314.587	191.645	196.022	196.639	201.046	327.564	200.848	-8191	255	
898.527	1	1	0	0	0.091685	0.19837	0.18239	0.086388	0.27619	0.1191	0.23446	0.17805	0.29393	0.14899	0.21817	0.18785	0.32137	0.235	0.11626	0.17148	-2.5604	-3.3479	-3.5687	-3.0104	-3.8021	-3.3042	-3.2667	-3.8167	-3.175	-3.4708	-3.5625	-3.0771	-3.6521	-3.2229	-3.1188	-3.8292	187.412	228.048	524.661	350.386	458.070	365.977	510.172	472.133	491.146	472.961	324.539	507.852	472.766	520.199	219.029	399.761	0.00042336	0.00051196	0.00016475	1367.8	3.188e-06	3.5161e-06	1362.2	368.57	6.7353e-06	4.3561e-06	420.77	139.94	121.49	41.977	5.0231e-06	51.948	0.0005353	0.00054801	0.00015555	1383.2	5.9353e-06	5.997e-06	1380.5	374.7	6.0362e-06	5.9502e-06	427.46	143.14	124.57	42.987	6.0939e-06	53.154	225.055	265.338	264.849	187.648	313.367	336.138	187.302	192.020	324.470	303.367	191.599	195.824	196.258	201.232	321.061	200.353	-8191	255	
898.624	1	1	0	0	0.061638	0.2257	0.19262	0.31866	0.26641	0.12393	0.17053	0.19868	0.18107	0.11717	0.07038	0.10989	0.2299	0.098772	0.20137	0.1319	-2.6562	-3.3125	-3.5896	-3.3167	-3.8438	-3.4958	-3.3292	-3.9521	-3.2687	-3.3354	-3.9167	-3.0938	-3.6521	-3.4938	-2.9938	-3.7729	510.501	349.733	416.601	506.220	176.535	442.336	521.568	174.519	469.095	448.995	508.259	428.521	477.915	356.461	469.685	419.309	0.00042957	0.00024259	0.00017471	1364.6	2.9586e-06	6.1806e-06	1362.3	369.26	4.1127e-06	6.2156e-06	421.54	139.85	121.73	41.865	5.1746e-06	51.625	0.00053144	0.00054534	0.00015239	1380.9	5.8777e-06	6.0998e-06	1382.3	374.63	6.0786e-06	6.0344e-06	428.05	143.22	124.69	42.955	6.072e-06	53.126	225.855	236.577	270.292	187.541	318.663	307.808	187.589	191.962	327.187	323.630	191.824	195.842	196.293	201.132	301.145	200.673	-8191	255	
898.744	1	1	0	0	0.1229	0.082521	0.18016	0.099668	0.22154	0.12809	0.11865	0.16295	0.18383	0.039263	0.15934	0.16163	0.25698	0.20395	0.12547	0.14217	-2.5438	-3.3312	-3.6896	-3.2062	-3.6083	-3.4167	-3.0958	-4.0583	-3.1229	-3.4479	-3.8875	-3.1708	-3.4813	-3.6792	-2.8771	-3.7521	318.276	413.651	490.226	256.863	414.007	189.263	499.636	400.419	269.525	323.545	439.099	406.596	522.088	498.863	445.070	490.601	0.00045168	0.00045464	0.00017612	1364.4	4.1092e-06	5.2772e-06	1361.1	367.74	4.1309e-06	5.4857e-06	421.49	139.94	121.13	41.937	5.168e-06	51.617	0.00054035	0.00054573	0.00015643	1381.1	5.9931e-06	5.9721e-06	1379.9	374.19	5.9986e-06	6.2108e-06	427.99	143.31	124.48	42.981	5.9646e-06	53.058	229.048	265.521	269.317	187.926	312.237	316.262	187.824	192.436	320.874	340.595	191.853	195.801	196.623	201.261	312.573	200.835	-8191	255	
898.839	1	1	0	0	0.27181	0.14396	0.11245	0.42291	0.13318	0.1669	0.075007	0.14651	0.06145	0.15466	0.091028	0.10622	0.3054	0.031826	0.1647	0.047844	-2.8625	-3.0604	-3.7333	-3.1562	-3.5312	-3.7583	-3.0604	-3.8292	-3.4708	-2.9521	-3.8542	-3.0229	-3.3833	-3.8271	-2.9583	-3.8125	447.108	182.668	289.016	458.737	360.291	449.103	450.291	446.110	384.950	460.589	323.383	243.155	387.924	468.976	332.079	483.675	0.00046455	0.00035625	0.0001541	1363.4	4.6808e-06	5.2952e-06	1361.6	367.77	4.8442e-06	5.4882e-06	421.23	139.69	122.08	41.891	5.2929e-06	51.764	0.00053928	0.00054593	0.00015258	1381	6.0348e-06	5.9437e-06	1380.2	374.19	6.1835e-06	6.1576e-06	427.53	143.07	124.61	42.984	6.0447e-06	53.204	226.567	284.123	261.339	188.006	331.173	320.711	187.526	192.314	304.132	337.579	191.793	195.793	196.298	201.268	327.349	200.469	-8191	255	
898.935	1	1	0	0	0.22517	0.088577	0.11949	0.21836	0.11823	0.066692	0.071444	0.11378	0.2128	0.16962	0.30046	0.33536	0.011136	0.040489	0.088056	0.064207	-3.0625	-3.0292	-3.8479	-3.3208	-3.1813	-3.75	-3.0354	-3.7708	-3.4542	-3.0458	-3.8604	-3.1333	-3.0604	-3.8458	-3.0563	-3.6667	494.874	203.351	263.964	450.573	418.802	237.279	493.441	219.523	317.541	336.007	182.115	402.813	202.368	216.111	178.916	339.054	0.00043643	0.00053199	0.00014558	1370.3	3.4613e-06	4.3399e-06	1363	367.68	5.0043e-06	4.0503e-06	421.5	140.08	121.63	42.006	5.1864e-06	52.128	0.00054077	0.00054501	0.00014951	1382.5	5.9825e-06	5.9908e-06	1380.9	374.53	6.015e-06	6.0961e-06	428.19	143.33	124.49	42.953	6.0881e-06	53.248	226.481	263.198	266.491	187.796	304.836	338.013	187.400	192.542	307.537	299.701	191.876	196.100	196.822	201.206	316.471	200.565	-8191	255	
899.031	1	1	0	0	0.19365	0.072003	0.041802	0.24398	0.080465	0.11287	0.21018	0.11289	0.24968	0.14369	0.12915	0.10404	0.12067	0.20468	0.14417	0.25332	-3.05	-2.8458	-3.6771	-3.3458	-2.9604	-3.8417	-3.1813	-3.4458	-3.4583	-3.0438	-3.9125	-3.2667	-3.0958	-3.85	-2.8792	-3.5729	402.462	527.080	514.306	484.346	459.978	517.551	478.617	258.103	374.839	215.532	189.160	187.515	314.602	468.605	210.321	282.587	0.00045219	0.00057006	0.00019494	1362.7	3.6456e-06	3.1349e-06	1364.4	367.75	3.8531e-06	5.8674e-06	420.17	139.51	121.56	42.085	5.1682e-06	51.921	0.00054679	0.0005593	0.00015096	1380.6	6.1887e-06	6.1225e-06	1380.5	374.48	6.1493e-06	6.0899e-06	427.33	143	124.59	42.952	6.1594e-06	53.295	223.515	254.845	278.745	187.740	343.195	321.002	187.519	192.347	319.449	311.812	191.955	196.110	196.390	201.001	325.187	200.738	-8191	255	
899.127	1	1	0	0	0.36666	0.16588	0.22684	0.097138	0.16725	0.085181	0.36441	0.34124	0.19406	0.24856	0.15016	0.065049	0.10929	0.3394	0.1458	0.091438	-3.1833	-3.0792	-3.4333	-3.4021	-3.0396	-3.7521	-3.0583	-3.6771	-3.6417	-2.9979	-3.7708	-3.4771	-2.9958	-3.9229	-3.2583	-3.2521	439.460	242.760	322.170	468.414	293.735	352.025	506.171	457.084	525.285	420.083	343.010	210.785	484.940	503.731	202.736	206.904	0.00045922	0.00044374	8.4836e-05	1368.7	2.392e-06	4.1345e-06	1361.9	368.98	4.3757e-06	5.4854e-06	422.28	139.73	121.76	42.009	5.7328e-06	51.814	0.00054345	0.00056513	0.00015329	1383.6	6.1868e-06	5.9528e-06	1380.1	375.24	6.229e-06	6.1368e-06	428.5	143.18	124.77	42.991	6.0835e-06	53.187	226.870	250.644	282.426	187.730	310.381	324.509	187.767	192.442	310.393	301.865	191.961	196.178	196.978	201.425	320.798	200.648	-8191	255	
899.223	1	1	0	0	0.20381	0.142	0.24373	0.17865	0.1085	0.12082	0.21194	0.1795	0.042552	0.13965	0.010768	0.14746	0.098967	0.19343	0.14939	0.27546	-3.4146	-3.0646	-3.6354	-3.6958	-2.9208	-3.6958	-3.3396	-3.3333	-3.7875	-2.7521	-3.6833	-3.6875	-3.0125	-3.9354	-3.1646	-3.1562	420.408	194.920	514.079	454.821	418.185	503.156	524.919	467.827	365.786	439.922	407.065	336.578	497.560	436.474	289.640	179.515	0.00044648	0.00031717	0.00014694	1373.3	5.5865e-06	5.8502e-06	1363	369.15	5.4424e-06	4.8055e-06	422.38	139.18	121.73	41.937	4.2338e-06	51.691	0.00055394	0.00054768	0.00015276	1384.5	6.2868e-06	5.9596e-06	1380.3	375.01	6.0714e-06	6.1314e-06	428.24	143.17	124.72	42.937	6.1717e-06	53.211	226.217	266.217	268.701	188.039	323.595	296.845	187.915	192.645	305.745	334.502	192.792	197.457	197.910	202.615	334.120	200.787	-8191	255	
899.344	1	1	0	0	0.23579	0.20784	0.1186	0.22988	0.03373	0.17539	0.31946	0.22065	0.26407	0.20167	0.13091	0.22244	0.14889	0.048751	0.20823	0.1024	-3.4375	-2.9958	-3.375	-3.6854	-2.9188	-3.8042	-3.4021	-3.2271	-3.7958	-3.0042	-3.6042	-3.7833	-2.8792	-3.8354	-3.2562	-3.0458	372.220	398.593	472.037	488.888	320.872	330.349	440.556	520.740	427.588	277.929	465.744	212.690	486.400	358.855	273.509	419.259	0.00043357	0.0004906	0.00018197	1369.1	4.6621e-06	4.7464e-06	1363.3	368.64	3.7335e-06	2.6531e-06	422.77	139.72	121.49	42.053	4.3541e-06	51.927	0.00053713	0.00055496	0.00015275	1382.2	6.0876e-06	6.0174e-06	1380.4	374.42	6.1633e-06	6.0822e-06	427.89	143.36	124.66	42.993	6.21e-06	53.329	228.026	262.351	269.872	187.793	310.821	317.306	187.535	192.492	305.975	326.344	191.913	195.913	196.329	200.890	327.548	199.912	-8191	255	
899.440	1	1	0	0	0.10306	0.046988	0.20981	0.19781	0.22306	0.1696	0.11197	0.14145	0.13463	0.048732	0.14888	0.059463	0.18574	0.1944	0.16819	0.13177	-3.4125	-2.9646	-3.3771	-3.8354	-2.95	-3.4958	-3.4792	-3.0896	-3.5146	-3.2021	-3.2917	-3.7167	-2.8479	-3.6063	-3.4667	-3.0292	506.063	394.856	328.519	206.594	480.291	205.392	438.441	277.278	491.140	207.889	212.602	340.803	216.232	472.884	360.504	532.979	0.00044047	0.00039877	0.00014224	1364.2	4.4444e-06	6.2094e-06	1359.1	367.58	4.2064e-06	5.6726e-06	419.56	139.93	121.45	41.845	5.1054e-06	51.958	0.00053382	0.00055538	0.00015313	1382.2	6.1486e-06	5.9698e-06	1380.7	374.08	6.0677e-06	6.3155e-06	427.71	143.33	124.58	42.926	6.1862e-06	53.257	225.047	258.441	235.392	187.091	309.259	321.954	187.078	191.601	314.095	314.235	191.454	195.725	196.048	200.941	316.103	200.244	-8191	255	
899.536	1	1	0	0	0.063171	0.18752	0.072291	0.28114	0.1545	0.24031	0.26786	0.061638	0.097909	0.26326	0.15193	0.15218	0.27063	0.1922	0.11487	0.25036	-3.5312	-3.0979	-3.3208	-3.9292	-2.825	-3.4688	-3.7438	-3.1146	-3.75	-3.125	-3.2833	-3.7812	-2.9083	-3.7792	-3.5563	-2.8812	240.052	506.531	348.787	511.352	260.796	262.305	473.658	189.095	187.268	349.067	449.564	226.079	198.007	187.620	268.676	486.704	0.00043356	0.00041441	0.00018615	1365.8	4.489e-06	4.9306e-06	1364.6	368.46	4.8566e-06	6.0239e-06	420.44	139.64	121.99	41.983	3.7743e-06	51.945	0.00053057	0.00055892	0.00015784	1382.3	6.026e-06	6.0043e-06	1381.9	375.04	6.0815e-06	6.1539e-06	427.77	143.25	124.65	42.979	6.2247e-06	53.274	223.255	292.318	256.063	187.302	307.333	309.836	186.914	191.781	309.714	327.940	191.403	195.312	195.865	200.587	331.724	200.297	-8191	255	
899.632	1	1	0	0	0.20805	0.093484	0.094412	0.32356	0.3057	0.04767	0.088482	0.22867	0.093446	0.22949	0.49812	0.15862	0.20164	0.024945	0.21411	0.13174	-3.4479	-3.2604	-3.0708	-3.9313	-3.0458	-3.4875	-3.7521	-3.0229	-3.625	-3.3458	-3.0021	-3.7917	-2.9562	-3.4833	-3.6917	-3.275	430.239	368.017	192.125	491.032	467.292	512.584	331.404	504.146	200.667	406.903	509.450	215.817	502.847	479.718	490.996	506.504	0.00044815	0.00041034	0.00018144	1360.9	4.8932e-06	4.6994e-06	1363.1	368.67	4.0465e-06	7.5522e-06	420.21	139.34	121.45	41.882	4.8501e-06	51.789	0.00053911	0.00057324	0.0001566	1380.8	6.0783e-06	6.0324e-06	1380.9	374.38	5.9867e-06	6.239e-06	427.74	143.23	124.6	42.919	6.1122e-06	53.262	225.220	276.707	271.108	187.474	329.118	298.702	186.908	192.027	303.185	321.349	191.538	195.334	196.233	201.077	314.536	200.186	-8191	255	
899.704	1	1	0	0	0.12348	0.094738	0.18198	0.15687	0.11934	0.12191	0.25049	0.36208	0.20508	0.23358	0.15826	0.13941	0.53421	0.16973	0.21288	0.15926	-3.475	-3.2333	-3.05	-3.9562	-3.0833	-3.2062	-3.9354	-2.9	-3.3896	-3.3646	-3.0812	-3.775	-3.1542	-3.1146	-3.675	-3.0625	493.820	510.222	270.204	192.088	530.369	478.673	443.692	461.838	432.193	385.264	526.211	520.188	516.050	258.870	258.507	513.091	0.00045596	0.00046843	0.00014998	1368.4	3.3697e-06	5.1661e-06	1357.5	368.29	5.8005e-06	7.6912e-06	421	139.8	120.96	42.033	3.576e-06	51.765	0.00054369	0.00057573	0.00015601	1382.3	6.0756e-06	6.1732e-06	1380.3	374.4	6.1777e-06	6.2102e-06	427.94	143.51	124.49	43.004	6.2837e-06	53.242	224.423	254.937	253.863	187.437	316.277	306.424	187.295	191.865	321.052	334.799	191.627	195.738	196.235	201.249	314.406	200.293	-8191	255	
899.823	1	1	0	0	0.19361	0.098115	0.076068	0.32884	0.097652	0.19302	0.17578	0.21193	0.14353	0.16384	0.25507	0.20142	0.24316	0.043813	0.12783	0.13269	-3.0979	-3.5854	-2.9562	-3.9375	-3.1521	-3.275	-3.8021	-3.1625	-3.2979	-3.6083	-2.8042	-3.7812	-3.2396	-3.1083	-3.6813	-3.05	334.515	486.790	368.906	522.011	423.858	245.809	377.311	436.916	273.331	220.468	518.042	265.954	508.212	477.393	217.920	476.285	0.00045922	0.00024038	0.0001741	1365.9	4.3664e-06	5.9276e-06	1364.6	367.88	4.7501e-06	3.4557e-06	419.89	140.12	121.24	42.073	4.0666e-06	52.05	0.00054778	0.00058594	0.00015945	1384.8	6.2754e-06	6.2171e-06	1382	374.63	6.3377e-06	6.3249e-06	428.14	143.54	124.63	43.039	6.2466e-06	53.273	226.816	244.029	271.704	187.298	314.320	303.835	186.968	191.701	324.214	350.622	191.459	195.641	196.034	201.088	296.719	200.220	-8191	255	
899.919	1	1	0	0	0.15207	0.053808	0.11962	0.10859	0.15435	0.094372	0.13904	0.47717	0.11295	0.062728	0.40063	0.2298	0.054061	0.24412	0.14328	0.16191	-2.9062	-3.5021	-2.8438	-3.6917	-3.1208	-3.1729	-3.8604	-3.1208	-3.3583	-3.8229	-3.0438	-3.7812	-3.3063	-2.9792	-3.7125	-3.2771	238.840	323.306	488.825	500.218	213.683	394.639	478.605	471.755	380.527	212.906	458.990	475.708	346.574	461.145	203.608	503.008	0.00047636	0.0005323	9.8268e-05	1372.1	3.5087e-06	2.7962e-06	1358.5	368.93	3.2105e-06	6.7168e-06	419.81	140.58	121.28	42.039	5.4298e-06	51.788	0.00055869	0.0005824	0.00015916	1386.3	6.3791e-06	6.3068e-06	1381.6	374.96	6.3745e-06	6.5728e-06	427.71	143.55	124.8	43.057	6.2622e-06	53.295	223.170	273.943	256.579	187.478	321.074	326.964	187.343	191.941	314.025	339.919	191.405	195.505	195.979	200.884	309.589	200.450	-8191	255	
900.015	1	1	0	0	0.169	0.08309	0.10097	0.19803	0.11112	0.18696	0.20873	0.093892	0.21628	0.070658	0.15051	0.065552	0.18435	0.068889	0.19185	0.18937	-2.7208	-3.5896	-2.85	-3.6437	-3.4583	-2.9708	-4.0146	-3.1771	-3.2604	-3.8146	-3.0708	-3.4354	-3.6063	-3.0812	-3.55	-3.3354	310.928	207.457	530.289	231.206	337.721	329.951	383.652	363.021	418.544	438.832	383.049	494.859	335.640	426.409	322.065	529.587	0.00045355	0.00064033	0.00010793	1370.8	2.3351e-06	7.0344e-06	1366.5	370.04	4.8355e-06	5.5037e-06	420.64	139.93	121.57	42.13	5.6184e-06	51.981	0.00055772	0.0005871	0.00016156	1386	6.61e-06	6.3819e-06	1384.4	375.74	6.4034e-06	6.4319e-06	428.28	143.56	124.92	43.089	6.3206e-06	53.265	224.421	245.163	279.869	187.441	323.697	315.790	187.283	191.933	313.455	331.403	191.229	195.659	196.199	200.896	313.663	200.188	-8191	255	
900.136	1	1	0	0	0.14501	0.16395	0.11028	0.14891	0.1717	0.22545	0.24464	0.39001	0.1933	0.048626	0.10946	0.26943	0.19422	0.04625	0.13511	0.30302	-2.6708	-3.5812	-2.7854	-3.4688	-3.3896	-2.7583	-3.8542	-3.3812	-2.9896	-3.775	-3.2167	-3.4333	-3.5583	-2.925	-3.6417	-3.2896	467.646	240.618	418.333	453.618	206.467	232.261	491.841	451.227	264.495	280.085	403.751	515.852	179.669	328.464	423.743	486.984	0.00045846	0.00043713	0.00014741	1370.2	4.5246e-06	3.3035e-06	1364	369.37	5.803e-06	5.583e-06	421.33	140.02	121.11	42.015	3.3955e-06	51.779	0.00056791	0.00058918	0.00016161	1386.2	6.4683e-06	6.4703e-06	1384.5	375.38	6.4826e-06	6.3175e-06	428.44	143.58	124.73	43.084	6.3551e-06	53.305	225.082	258.180	243.112	187.484	319.719	267.728	187.421	191.962	313.466	332.455	191.364	195.636	196.033	200.771	301.303	200.251	-8191	255	
900.232	1	1	0	0	0.096582	0.18597	0.062368	0.31362	0.20878	0.10098	0.15246	0.069709	0.11771	0.22941	0.25945	0.11765	0.10873	0.060841	0.1261	0.058717	-2.5583	-3.6479	-2.9062	-3.3083	-3.625	-2.8438	-3.6396	-3.4458	-2.9271	-3.6708	-3.2292	-3.1583	-3.5167	-2.8833	-3.4479	-3.5104	467.766	307.631	307.430	483.045	481.667	485.901	499.014	518.548	495.921	250.782	500.187	517.772	218.240	193.821	411.536	413.410	0.00043541	0.00063767	9.6637e-05	1368.8	3.3216e-06	4.9313e-06	1366.4	368.87	5.8231e-06	5.0023e-06	421.35	140.5	121.99	42.144	3.704e-06	51.792	0.00056805	0.0005825	0.00016404	1385.4	6.4272e-06	6.496e-06	1383.3	375.43	6.4487e-06	6.3352e-06	428.64	143.62	125.07	43.102	6.3266e-06	53.364	223.971	262.494	270.842	187.488	327.759	306.306	187.043	191.751	311.028	338.726	191.412	195.796	196.292	201.030	337.820	200.588	-8191	255	
900.304	1	1	0	0	0.11217	0.22147	0.21031	0.018857	0.049266	0.098351	0.10466	0.33198	0.22049	0.106	0.039893	0.12731	0.19857	0.11593	0.0755	0.18214	-2.3875	-3.5021	-3.175	-3.2	-3.7146	-3.0042	-3.6604	-3.6833	-2.9062	-3.7208	-3.3438	-3.1021	-3.8458	-3.1937	-3.2208	-3.6021	511.319	519.926	514.545	283.323	498.628	385.068	490.929	468.211	512.203	489.909	384.540	282.751	209.318	530.494	203.155	493.481	0.00045975	0.00046168	0.00010935	1373.3	4.4831e-06	3.7818e-06	1363.1	368.76	5.0865e-06	4.0435e-06	423.26	140.03	122.19	41.934	3.8923e-06	51.685	0.00057366	0.0005766	0.00016593	1386.8	6.3746e-06	6.4218e-06	1384	375.3	6.4449e-06	6.3599e-06	429.26	143.63	125.07	43.072	6.5523e-06	53.242	223.100	257.830	279.212	187.580	314.967	308.987	187.346	191.970	321.258	329.871	191.514	195.642	196.459	201.197	284.224	200.266	-8191	255	
900.424	1	1	0	0	0.10894	0.28778	0.19474	0.40907	0.060065	0.19763	0.37242	0.12895	0.079794	0.098702	0.20232	0.12163	0.073517	0.084522	0.095133	0.11394	-2.4583	-3.5333	-3.2646	-3.1396	-3.8521	-3.1437	-3.4062	-3.6125	-2.8375	-3.7479	-3.3708	-3.0479	-3.7458	-2.9979	-3.0729	-3.7833	513.637	398.332	437.418	520.342	299.897	383.043	466.427	194.459	384.044	300.569	519.354	497.718	205.820	181.133	346.669	189.040	0.00042353	0.00051227	0.00014294	1368	2.6626e-06	4.5114e-06	1364.9	369.58	4.0481e-06	5.0112e-06	420.81	140.18	121.78	41.931	4.5435e-06	51.93	0.0005643	0.00058689	0.00016875	1384.9	6.4423e-06	6.5997e-06	1385.3	375.26	6.5128e-06	6.5477e-06	428.79	143.43	125.11	43.064	6.5518e-06	53.449	225.757	263.234	265.546	187.724	308.367	327.536	187.415	191.976	317.090	328.864	191.748	195.696	196.695	201.424	302.460	200.502	-8191	255	
900.520	1	1	0	0	0.18969	0.15843	0.37846	0.18288	0.23098	0.087401	0.24799	0.095837	0.10441	0.12338	0.14553	0.11001	0.212	0.17852	0.18569	0.14596	-2.5646	-3.5917	-3.4104	-3.1167	-3.6063	-3.0542	-3.1667	-3.7812	-2.9667	-3.4583	-3.6271	-3.075	-3.6792	-3.3667	-3.0417	-3.6792	486.668	473.498	323.129	466.591	241.088	361.892	485.888	326.645	529.351	290.223	209.100	531.157	201.630	211.968	482.611	527.476	0.00047235	0.00041764	0.00011476	1373.1	2.4511e-06	4.6362e-06	1368.8	369.93	3.728e-06	5.8546e-06	421.91	140.07	121.54	42.105	5.431e-06	51.816	0.00056954	0.00058381	0.0001662	1387.3	6.4134e-06	6.6193e-06	1387	375.78	6.4288e-06	6.3813e-06	428.99	143.51	124.96	43.121	6.5616e-06	53.353	225.803	294.425	285.284	187.642	318.489	321.718	187.514	192.251	343.677	313.116	191.767	195.896	196.153	201.143	318.394	200.581	-8191	255	
900.617	1	1	0	0	0.17359	0.10956	0.069232	0.43527	0.17951	0.077393	0.22403	0.2029	0.066132	0.15349	0.051062	0.29007	0.072048	0.13937	0.12926	0.20421	-2.6958	-3.2812	-3.4792	-3.2125	-3.7625	-3.1792	-3.1271	-3.8542	-3.0083	-3.325	-3.7958	-2.9542	-3.6896	-3.425	-2.8896	-3.8583	215.891	288.117	238.871	499.684	321.909	332.471	485.571	448.429	444.414	387.379	314.752	498.390	349.424	501.783	529.988	204.039	0.0004753	0.00051786	0.00012569	1372.9	3.6664e-06	3.3711e-06	1360.3	370.2	5.7017e-06	7.1599e-06	420.27	139.92	121.68	41.957	5.8078e-06	52.047	0.00057283	0.00058702	0.00016501	1386.4	6.3661e-06	6.5312e-06	1383.5	375.89	6.4688e-06	6.525e-06	428.26	143.63	125.16	43.148	6.5113e-06	53.366	226.739	259.295	288.350	187.727	332.827	298.456	187.593	192.255	298.016	305.971	191.658	196.017	196.658	201.115	327.271	200.678	-8191	255	
900.737	1	1	0	0	0.25033	0.2013	0.011403	0.2484	0.072789	0.073198	0.2531	0.10057	0.11279	0.1482	0.1078	0.16888	0.020892	0.45484	0.15229	0.052091	-2.7562	-3.225	-3.4229	-2.9646	-3.5042	-3.3125	-2.9813	-3.8208	-3.1208	-3.1979	-3.8792	-2.9667	-3.5521	-3.4458	-2.8812	-3.725	475.554	299.412	405.835	181.922	360.364	256.767	408.760	528.495	437.210	451.498	462.893	287.545	399.713	522.266	335.299	330.482	0.00046663	0.00033866	0.00018999	1368.9	3.5542e-06	5.2583e-06	1368.1	369.32	4.6674e-06	3.8286e-06	420.66	139.95	122.7	42.193	4.4625e-06	51.831	0.00056793	0.00060604	0.00016506	1385.6	6.3046e-06	6.4233e-06	1385.4	375.91	6.4084e-06	6.4982e-06	428.62	143.58	125.28	43.185	6.4881e-06	53.297	226.718	266.981	263.153	187.718	335.570	322.569	187.568	192.271	309.946	302.290	191.541	196.134	196.551	201.272	308.310	201.009	-8191	255	
900.832	1	1	0	0	0.314	0.078552	0.11005	0.17425	0.13052	0.16306	0.19257	0.11637	0.41691	0.1673	0.11211	0.098485	0.31844	0.022767	0.10997	0.092949	-2.7917	-3.1104	-3.65	-3.1354	-3.5854	-3.5417	-3.0458	-3.9479	-3.2271	-3.1583	-3.8229	-3.2292	-3.4958	-3.6937	-2.65	-3.6125	438.360	221.469	381.235	396.057	355.078	397.092	513.765	405.652	238.803	425.987	243.299	502.910	294.001	437.176	290.947	430.249	0.00046662	0.00028677	0.00017161	1370.6	3.9712e-06	3.2067e-06	1368.9	369.04	3.6461e-06	5.861e-06	423.17	140.81	121.55	41.959	4.3347e-06	51.95	0.00056703	0.00059672	0.00016652	1386.8	6.4784e-06	6.5802e-06	1386.9	376.13	6.4232e-06	6.4533e-06	429.57	143.85	124.92	43.122	6.4753e-06	53.328	227.382	261.840	263.977	187.757	316.381	302.029	187.670	192.348	311.486	314.884	191.714	196.115	196.530	201.308	318.815	200.532	-8191	255	
900.928	1	1	0	0	0.3006	0.076306	0.084103	0.10728	0.18452	0.37428	0.20872	0.2744	0.10543	0.07913	0.20995	0.15812	0.1342	0.095782	0.055987	0.15174	-2.7833	-3.1813	-3.7333	-3.2354	-3.1937	-3.8083	-3.0792	-3.8792	-3.3729	-2.8104	-3.725	-3.1813	-3.0708	-3.6688	-2.8667	-3.6708	281.039	339.090	215.054	507.335	440.214	281.012	187.689	462.810	308.920	468.769	200.907	508.907	365.212	512.639	312.084	216.820	0.00044778	0.00054833	8.3824e-05	1372.8	4.1234e-06	6.8075e-06	1366.5	369.1	3.9691e-06	5.0989e-06	421.66	140.24	122.59	42.012	3.7729e-06	52.157	0.00056412	0.00059575	0.00016332	1387.5	6.6094e-06	6.4657e-06	1386.8	375.94	6.3888e-06	6.5546e-06	428.88	143.67	125.3	43.139	6.3837e-06	53.419	224.478	291.764	272.765	187.939	311.785	306.871	187.925	192.417	318.941	334.271	192.143	196.083	196.831	201.372	303.419	200.714	-8191	255	
900.999	1	1	0	0	0.12478	0.20562	0.048581	0.31562	0.25538	0.22337	0.072324	0.20354	0.064608	0.026187	0.28518	0.1802	0.3155	0.22066	0.27047	0.17125	-3.1292	-3.0187	-3.65	-3.3812	-3.1854	-3.7062	-2.9771	-3.6771	-3.6083	-2.8729	-3.7167	-3.4292	-3.0458	-3.8583	-2.9854	-3.6375	527.869	220.456	313.774	490.758	428.650	369.224	448.365	533.684	310.388	379.605	202.852	495.955	485.572	494.986	406.960	422.039	0.0004403	0.00068867	0.00021285	1372.4	4.0059e-06	5.0774e-06	1368.9	368.45	4.4243e-06	6.3113e-06	421.73	140.4	121.58	42.012	3.7181e-06	51.942	0.00056816	0.00059918	0.0001606	1387.2	6.3972e-06	6.6108e-06	1385.7	375.46	6.6089e-06	6.5762e-06	428.76	143.68	124.95	43.163	6.4816e-06	53.311	227.211	263.482	262.827	187.783	325.417	349.688	187.731	192.499	292.946	314.085	192.106	196.010	196.151	201.326	307.648	200.698	-8191	255	
901.120	1	1	0	0	0.17311	0.22442	0.1534	0.22979	0.19225	0.077603	0.086063	0.3409	0.18875	0.049838	0.18829	0.20344	0.044147	0.20082	0.046638	0.19395	-3.1521	-2.7708	-3.5875	-3.3083	-2.9479	-3.8812	-3.2146	-3.6	-3.6229	-2.8896	-3.7042	-3.4333	-3.0979	-3.825	-3.1396	-3.3875	274.773	254.969	456.074	501.783	353.515	245.960	523.818	475.157	494.985	291.062	200.631	475.512	369.327	519.467	294.393	477.114	0.00045544	0.00046474	0.00012503	1371.2	4.827e-06	4.8873e-06	1364.9	370.06	4.9056e-06	5.7763e-06	420.68	140.04	122.37	42.035	4.5792e-06	51.878	0.00056861	0.00059285	0.00015795	1386.2	6.4969e-06	6.3677e-06	1385.5	376.02	6.5549e-06	6.6459e-06	429.33	143.68	125.32	43.128	6.6376e-06	53.325	228.576	248.663	266.904	187.772	331.357	324.929	187.540	192.522	315.119	319.930	192.037	196.118	196.762	201.558	314.420	200.860	-8191	255	
901.216	1	1	0	0	0.18593	0.1105	0.15029	0.31838	0.25054	0.11071	0.082867	0.084363	0.13423	0.089583	0.37981	0.17232	0.2675	0.2164	0.17345	0.1603	-3.3042	-2.9646	-3.6521	-3.525	-3.0333	-3.7333	-3.2083	-3.3896	-3.5042	-2.8438	-3.6354	-3.675	-2.9854	-3.9333	-3.1104	-3.2167	225.425	392.421	228.432	495.955	345.131	327.897	223.519	349.791	429.704	265.542	490.439	486.809	226.462	178.729	418.379	387.777	0.00043749	0.00036115	9.1511e-05	1370.9	4.134e-06	3.6935e-06	1365.8	369.86	4.455e-06	4.8536e-06	423.27	141.01	122.09	42.184	5.3381e-06	52.078	0.00057946	0.00060432	0.00016438	1386.7	6.705e-06	6.4742e-06	1385.4	376.5	6.6518e-06	6.5728e-06	429.29	144.15	125.26	43.174	6.672e-06	53.393	227.363	249.694	265.549	188.073	297.717	332.412	187.721	192.469	311.125	333.884	192.144	196.181	196.834	201.621	312.681	200.891	-8191	255	
901.312	1	1	0	0	0.022041	0.1004	0.074859	0.13635	0.16246	0.1805	0.22431	0.23882	0.21237	0.042212	0.30292	0.092285	0.047133	0.25199	0.030066	0.19883	-3.4062	-2.9562	-3.3958	-3.5417	-2.9062	-3.5979	-3.475	-3.3729	-3.725	-2.9354	-3.5187	-3.6792	-2.9833	-3.875	-3.4167	-3.1542	528.817	458.573	422.103	233.981	328.236	367.889	456.948	453.784	430.430	272.407	352.428	513.538	330.876	450.426	507.911	451.545	0.00047465	0.00054882	0.00017849	1374.1	3.1957e-06	6.6476e-06	1368.7	369.52	4.8962e-06	6.3069e-06	423.23	140.23	122.04	42.276	4.6482e-06	52.021	0.0005864	0.00062061	0.00016999	1388.7	6.8169e-06	6.5606e-06	1387.6	376.2	6.7257e-06	6.5477e-06	429.52	144.12	125.21	43.23	6.7392e-06	53.454	225.083	250.184	242.576	188.020	302.290	310.984	187.586	192.712	305.951	316.297	192.093	196.339	196.439	201.495	320.069	200.836	-8191	255	
901.408	1	1	0	0	0.068011	0.1402	0.093776	0.099465	0.21778	0.13122	0.10623	0.33286	0.18873	0.036399	0.10064	0.075872	0.12358	0.14184	0.20082	0.08041	-3.5542	-3.0292	-3.4396	-3.6958	-2.8958	-3.7271	-3.4813	-3.1375	-3.7771	-3.3292	-3.5542	-3.8937	-2.9562	-3.6229	-3.3646	-3.0083	441.509	297.773	344.651	182.281	439.127	279.902	524.637	456.845	344.163	441.478	194.976	428.540	349.433	344.499	400.697	416.798	0.00046225	0.00056633	0.00019583	1372.1	2.5871e-06	2.7014e-06	1369.3	369.78	3.1774e-06	6.17e-06	424.66	141	122.02	42.362	5.4553e-06	51.782	0.00056653	0.00061843	0.00016781	1389	6.5585e-06	6.5201e-06	1387.1	376.17	6.5869e-06	6.7782e-06	430.57	144.16	125.38	43.259	6.8362e-06	53.412	225.335	280.942	275.062	188.068	306.523	308.062	187.644	192.279	343.431	335.283	191.574	195.640	196.275	201.030	304.585	200.322	-8191	255	
901.529	1	1	0	0	0.22908	0.1204	0.14419	0.22768	0.20182	0.28406	0.25033	0.16283	0.14016	0.06987	0.049364	0.10541	0.23497	0.23566	0.1815	0.21225	-3.5354	-3.2167	-3.3708	-3.9958	-3.0875	-3.5458	-3.8458	-3.0292	-3.6646	-3.1417	-3.4583	-3.9604	-3.1083	-3.6312	-3.4813	-3.0521	480.479	486.573	248.639	476.833	243.711	245.099	179.513	503.927	296.390	319.723	253.047	281.533	486.402	196.654	197.586	522.132	0.00046762	0.0007794	0.00018604	1372.6	5.5556e-06	4.1455e-06	1367.4	368.11	4.7335e-06	4.6023e-06	421.66	140.33	122.1	42.17	5.0709e-06	51.717	0.00057536	0.00062154	0.00017072	1388.1	6.7983e-06	6.4037e-06	1387.7	375.93	6.6206e-06	6.7185e-06	429.43	144.04	125.34	43.191	6.808e-06	53.35	227.322	267.987	281.576	187.611	317.929	351.608	187.495	192.142	316.930	338.051	191.562	195.705	196.555	201.185	318.941	200.481	-8191	255	
901.601	1	1	0	0	0.038819	0.02825	0.052431	0.18898	0.20378	0.14517	0.17827	0.23433	0.16203	0.098629	0.083676	0.17535	0.12001	0.04733	0.098006	0.18086	-3.5271	-3.2896	-3.1063	-4.1396	-2.8812	-3.3917	-3.7458	-3.0021	-3.7229	-3.3875	-3.1083	-3.9458	-3.0146	-3.3375	-3.5563	-3	430.553	220.737	391.054	187.397	229.476	190.758	443.437	515.317	389.385	527.049	402.502	430.523	182.797	507.885	430.218	492.872	0.00044379	0.00027938	0.00014814	1373.8	4.7088e-06	5.7253e-06	1363	369.97	5.0929e-06	3.6334e-06	421.94	140.25	122.38	42.048	3.0638e-06	52.153	0.00056568	0.00061784	0.0001715	1389.3	6.6851e-06	6.668e-06	1386.1	376.63	6.6179e-06	6.6672e-06	429.59	143.99	125.32	43.184	6.6717e-06	53.439	223.747	268.395	268.127	187.961	326.671	298.085	187.435	192.278	329.777	327.523	191.680	195.680	196.255	201.277	319.315	200.710	-8191	255	
901.697	1	1	0	0	0.032801	0.10229	0.31207	0.13917	0.097075	0.035833	0.23047	0.073975	0.11864	0.16866	0.20083	0.059367	0.13791	0.21603	0.26914	0.12411	-3.4458	-3.2396	-3.1521	-3.9396	-3.0708	-3.2458	-3.9042	-3.0438	-3.6958	-3.3854	-3.1771	-3.8292	-3.0875	-3.2083	-3.7146	-2.9583	243.055	197.486	368.537	522.202	309.246	372.000	399.807	458.645	490.417	421.799	524.763	273.290	470.418	446.051	430.585	467.544	0.00046639	0.00050358	0.00014313	1374.3	2.5473e-06	3.8716e-06	1369.4	371.01	4.4297e-06	6.7371e-06	423.51	141	122.99	42.204	3.966e-06	52.078	0.00057558	0.00061427	0.0001775	1390.2	6.5946e-06	6.8243e-06	1387.2	376.7	6.5832e-06	6.7259e-06	430.12	144.17	125.69	43.283	6.908e-06	53.362	227.904	250.069	255.372	187.786	292.515	324.808	187.403	192.148	312.330	324.945	191.939	195.976	196.299	201.234	318.955	200.624	-8191	255	
901.818	1	1	0	0	0.1986	0.17923	0.27621	0.077952	0.23081	0.023541	0.32241	0.010883	0.1105	0.056094	0.16675	0.11064	0.24338	0.045325	0.2129	0.091638	-3.2979	-3.3333	-2.7313	-3.7812	-3.1292	-3.2458	-3.8083	-3.2104	-3.4979	-3.45	-2.9875	-3.8771	-3.3229	-3.1583	-3.9458	-3.0625	520.041	264.358	517.780	372.778	428.124	261.131	450.718	371.402	402.112	279.999	517.394	458.742	361.402	436.454	269.489	487.520	0.00046533	0.00031779	0.0001536	1373	6.4406e-06	6.5288e-06	1365.4	370.11	5.5818e-06	5.277e-06	423.16	140.52	122.43	42.158	3.4777e-06	52.079	0.00058358	0.00062942	0.00017002	1390.6	6.6442e-06	6.6816e-06	1387.9	376.5	6.5422e-06	6.9214e-06	430.47	144.02	125.43	43.214	6.7889e-06	53.437	226.241	274.347	245.757	187.799	311.317	304.930	187.426	192.193	323.608	296.990	191.853	196.029	196.248	201.271	340.933	200.521	-8191	255	
901.912	1	1	0	0	0.17202	0.24061	0.18752	0.16638	0.31668	0.28434	0.34385	0.27448	0.25755	0.19788	0.042998	0.20273	0.24187	0.065967	0.18944	0.069305	-2.9813	-3.6125	-3.0229	-3.8229	-3.3458	-2.8771	-3.9188	-3.1958	-3.4792	-3.6562	-3.1167	-3.8208	-3.3896	-3.1604	-3.7792	-3.2396	381.145	447.405	343.613	515.414	185.617	295.824	458.623	510.500	453.390	425.868	190.976	256.314	449.358	459.649	297.790	367.199	0.00046732	0.00056001	0.00012636	1374.8	2.4728e-06	4.431e-06	1372.4	370.67	5.3722e-06	5.0027e-06	422.49	140.78	122.77	42.359	4.208e-06	52.267	0.00058382	0.00062041	0.00017574	1390.9	6.6965e-06	6.7665e-06	1388.5	377.15	6.5994e-06	6.8975e-06	430.11	144.32	125.47	43.318	6.6231e-06	53.514	225.644	284.348	264.801	187.807	310.091	331.356	187.637	192.076	306.903	326.054	192.087	195.993	196.489	201.463	325.471	200.691	-8191	255	
902.008	1	1	0	0	0.10817	0.11572	0.1171	0.070873	0.039507	0.093247	0.18233	0.29917	0.17869	0.083576	0.12688	0.20644	0.22564	0.28036	0.10425	0.25602	-2.8917	-3.6292	-2.8979	-3.8958	-3.5	-3.1063	-4.0188	-3.2771	-3.275	-3.9229	-3.1667	-3.6875	-3.6562	-3.0479	-3.8458	-3.4271	290.022	181.978	360.182	212.587	204.047	305.438	204.251	514.197	518.638	369.494	512.639	215.072	478.592	463.181	230.241	478.223	0.00043789	0.00063379	0.00017852	1372	3.5804e-06	4.6895e-06	1371.3	370.74	4.0873e-06	6.2818e-06	423.18	141.03	122.34	42.332	3.7864e-06	52.026	0.00057487	0.00061137	0.00017272	1390	6.5683e-06	6.7634e-06	1389.6	376.89	6.7467e-06	6.6428e-06	430.4	144.14	125.66	43.254	6.625e-06	53.46	226.806	278.747	290.152	187.801	311.506	348.981	187.753	192.291	328.355	325.373	191.949	195.926	196.471	201.315	334.766	200.503	-8191	255	
902.104	1	1	0	0	0.24796	0.13853	0.14024	0.17734	0.027005	0.0083949	0.11583	0.15807	0.11286	0.34636	0.12694	0.13363	0.26689	0.15231	0.21536	0.17828	-2.8542	-3.9167	-2.9125	-3.5438	-3.6042	-3.0896	-3.9833	-3.6271	-3.0187	-3.9271	-3.2062	-3.6688	-3.6813	-3.1521	-3.7812	-3.3896	259.618	254.565	215.712	529.045	482.777	427.497	406.384	465.200	442.966	197.794	485.373	532.273	506.014	514.319	427.880	440.589	0.00045678	0.0005419	9.3556e-05	1374.4	3.7812e-06	4.0765e-06	1364.8	370.15	3.9051e-06	7.9455e-06	423.83	141.04	122.2	42.257	3.9144e-06	51.941	0.0005849	0.00061895	0.00017147	1390.8	6.8814e-06	6.8787e-06	1387	376.53	6.8587e-06	6.8249e-06	430.36	144.08	125.47	43.222	6.549e-06	53.46	227.084	273.812	261.792	187.874	322.798	304.616	187.655	192.395	313.159	312.133	191.927	196.103	196.829	201.590	314.242	201.009	-8191	255	
902.200	1	1	0	0	0.25186	0.14756	0.12232	0.26526	0.11877	0.14886	0.31968	0.196	0.18119	0.18726	0.30497	0.19604	0.11543	0.17754	0.041868	0.302	-2.7104	-3.7604	-3.0833	-3.3667	-3.8083	-3.0312	-3.75	-3.4125	-3.2812	-3.8146	-3.3125	-3.3417	-3.8104	-3.0458	-3.6188	-3.5417	484.380	282.307	202.369	472.009	361.537	261.423	488.721	499.479	477.129	452.276	504.739	503.654	307.088	356.091	410.643	473.617	0.00045789	0.00048771	0.00014088	1373.9	4.9976e-06	3.1e-06	1369.3	370.7	7.2413e-06	5.8458e-06	422.7	140.18	122.51	42.246	5.2824e-06	52.302	0.00058897	0.00061576	0.00017225	1391.3	6.6973e-06	6.6736e-06	1388.7	376.78	6.9332e-06	6.7022e-06	430.2	144.14	125.62	43.25	6.4553e-06	53.498	227.812	276.554	260.357	187.923	327.696	324.755	187.816	192.374	311.781	347.561	192.175	196.273	196.619	201.453	328.899	200.920	-8191	255	
902.297	1	1	0	0	0.08478	0.094953	0.18212	0.10056	0.070617	0.17655	0.25147	0.34493	0.19664	0.091465	0.26594	0.25905	0.12303	0.061256	0.20041	0.35193	-2.6229	-3.8458	-3.2083	-3.2333	-3.6625	-3.0146	-3.7687	-3.575	-2.9104	-3.7687	-3.1771	-3.3542	-3.8042	-3.1771	-3.4417	-3.6167	369.147	213.052	320.041	524.711	399.510	177.188	492.762	474.972	320.769	393.354	195.426	488.114	302.481	534.582	287.931	469.585	0.00043131	0.00049442	0.00016982	1377	3.377e-06	6.7256e-06	1370.7	370.1	4.074e-06	3.8682e-06	422.21	140.93	122.11	42.212	3.2147e-06	51.946	0.00058706	0.00060437	0.000172	1392.6	6.7365e-06	6.9045e-06	1389.5	376.94	6.819e-06	6.5742e-06	430.26	144.15	125.42	43.263	6.7149e-06	53.466	225.187	275.235	260.429	187.944	326.636	321.457	187.788	192.592	298.959	334.930	192.058	196.442	196.623	201.666	320.526	200.639	-8191	255	
902.417	1	1	0	0	0.22388	0.066108	0.105	0.10757	0.24785	0.14219	0.38609	0.15822	0.1513	0.12162	0.2043	0.043152	0.26141	0.15946	0.20853	0.1765	-2.4625	-3.6479	-3.3563	-3.3229	-3.6146	-3.0438	-3.7375	-3.7062	-3.0083	-3.6229	-3.2729	-3.0917	-3.8583	-3.2229	-3.45	-4.0333	238.106	427.174	416.943	505.244	264.682	442.905	471.218	504.967	510.342	238.453	193.098	298.401	239.765	449.328	333.158	230.603	0.00046434	0.00055229	0.00016791	1374.4	3.9874e-06	5.2281e-06	1369.8	371.28	5.2825e-06	5.3783e-06	422.7	140.83	122.06	42.183	3.2896e-06	51.917	0.00059364	0.0006074	0.00017039	1391.5	6.8265e-06	6.7229e-06	1390.1	377.42	6.8714e-06	6.5201e-06	430.07	144.2	125.6	43.213	6.6788e-06	53.42	226.527	247.818	282.107	187.999	311.352	312.239	188.012	192.476	333.051	341.758	192.106	196.179	196.953	201.369	337.465	200.895	-8191	255	
902.513	1	1	0	0	0.06156	0.18763	0.095673	0.044996	0.33601	0.11547	0.1964	0.22244	0.36436	0.16002	0.12561	0.18775	0.07005	0.15547	0.19218	0.11532	-2.4042	-3.7438	-3.3646	-3.3021	-3.8438	-3.1375	-3.4708	-3.9792	-2.975	-3.6271	-3.4458	-2.9875	-3.8187	-3.2646	-3.1396	-3.8333	217.658	298.427	249.273	495.260	178.123	208.803	186.017	386.937	453.696	320.691	346.771	481.036	411.399	477.522	518.300	345.107	0.00046144	0.00043436	9.8895e-05	1379.5	4.7002e-06	4.1431e-06	1373.4	371.04	4.6147e-06	5.8404e-06	423.46	140.82	122.56	42.157	3.4465e-06	52.232	0.00059423	0.00060637	0.00017287	1392	6.6506e-06	6.7507e-06	1391.6	377.32	6.8352e-06	6.6027e-06	431.05	144.15	125.63	43.198	6.9539e-06	53.489	226.071	293.504	280.767	188.133	317.964	362.680	187.799	192.587	319.658	320.296	192.024	196.331	196.825	201.561	293.383	200.876	-8191	255	
902.609	1	1	0	0	0.2052	0.063273	0.22148	0.07869	0.17922	0.075189	0.17863	0.091347	0.26782	0.17116	0.016876	0.36977	0.1022	0.25319	0.071512	0.31413	-2.6229	-3.675	-3.4562	-3.0167	-3.7125	-3.0521	-3.2333	-3.9542	-3.1396	-3.6396	-3.7354	-3.2042	-3.7438	-3.3354	-2.9354	-3.8646	424.106	184.874	303.972	425.762	351.408	522.209	449.158	459.158	210.848	214.069	532.297	485.648	179.551	512.019	476.855	403.558	0.00047508	0.00051141	0.00012789	1376.8	4.1219e-06	4.4354e-06	1366.8	370.85	5.7337e-06	5.8611e-06	422.11	140.94	122.17	42.176	5.0231e-06	52.077	0.0006002	0.00062528	0.0001813	1393.3	6.5489e-06	6.8954e-06	1390.1	376.53	6.7986e-06	6.6875e-06	430.22	144.2	125.49	43.242	6.775e-06	53.515	224.013	272.890	225.909	188.152	301.001	307.772	188.040	192.507	320.738	326.630	192.117	196.029	196.786	201.721	320.545	201.037	-8191	255	
902.704	1	1	0	0	0.13264	0.19908	0.14005	0.1809	0.068499	0.2997	0.23001	0.18698	0.22851	0.054906	0.21726	0.031124	0.2207	0.15192	0.054628	0.39291	-2.7	-3.425	-3.4292	-3.1208	-3.6437	-3.5083	-3.2062	-3.9708	-3.0938	-3.3229	-3.7896	-3.0354	-3.775	-3.4521	-3	-3.6937	507.532	420.625	328.899	489.297	301.773	423.717	490.475	226.937	229.995	460.444	331.192	453.039	444.361	194.525	371.115	221.574	0.0004591	0.00043886	0.00012076	1376.9	2.946e-06	2.9091e-06	1371.9	370.06	2.7563e-06	4.4715e-06	422.84	140.87	122.17	42.14	3.7367e-06	52.079	0.00058393	0.00060832	0.00017477	1391.1	6.5818e-06	6.9045e-06	1390.7	376.84	6.8352e-06	6.9242e-06	430.81	144.23	125.47	43.253	6.958e-06	53.517	227.003	261.871	285.558	188.158	332.815	330.296	187.978	192.619	299.217	329.793	192.044	196.295	196.848	201.619	327.905	201.028	-8191	255	
902.824	1	1	0	0	0.062055	0.056108	0.19324	0.25816	0.16994	0.15308	0.090926	0.31238	0.17077	0.27358	0.087693	0.19534	0.23985	0.22692	0.20044	0.04951	-2.7708	-3.3604	-3.7021	-2.9667	-3.5396	-3.6229	-2.9688	-3.9938	-2.9958	-3.3292	-3.8	-3.0729	-3.4521	-3.5812	-2.9542	-3.7021	257.439	258.990	475.587	489.348	361.740	297.187	264.623	447.228	367.563	235.083	185.468	190.687	176.678	512.027	474.252	446.931	0.00045434	0.00027285	0.00014677	1373.2	5.1899e-06	3.6061e-06	1371.9	371.04	4.8981e-06	3.6747e-06	423.2	140.48	122.22	42.427	6.2987e-06	51.931	0.00059722	0.00062174	0.00017385	1391	6.5837e-06	6.86e-06	1390.4	377.22	6.7634e-06	6.797e-06	430.99	144.43	125.61	43.307	6.8621e-06	53.469	224.944	239.569	252.333	188.142	324.336	329.057	188.148	192.671	312.361	351.284	192.142	196.301	196.583	201.444	323.741	201.092	-8191	255	
902.896	1	1	0	0	0.13108	0.1039	0.11549	0.33462	0.13541	0.15227	0.071535	0.14863	0.17705	0.15002	0.073591	0.13089	0.13068	0.049645	0.24063	0.22646	-2.8229	-3.0229	-3.7812	-3.0062	-3.6354	-3.6188	-3.0312	-3.8854	-3.2771	-3	-3.9271	-3.0521	-3.4271	-3.7167	-2.9854	-3.5958	176.271	325.977	524.792	499.557	292.055	280.117	489.130	191.471	532.730	381.476	313.841	463.643	308.079	465.048	434.573	494.945	0.00048514	0.00046222	0.00012976	1376.8	4.7706e-06	4.604e-06	1370.9	371.57	5.7066e-06	5.4158e-06	423.03	140.73	122.41	42.286	4.5451e-06	52.195	0.00058725	0.00062731	0.0001713	1390.9	6.6336e-06	6.7031e-06	1390	377.03	6.9941e-06	6.8804e-06	431.09	144.01	125.66	43.229	6.6709e-06	53.462	226.208	262.783	256.997	188.235	317.034	294.978	188.138	192.667	310.572	331.432	192.146	196.329	197.030	201.634	356.015	201.213	-8191	255	
902.992	1	1	0	0	0.14399	0.14452	0.20314	0.27176	0.12159	0.17075	0.13484	0.056297	0.13307	0.23456	0.2675	0.35628	0.026107	0.12712	0.08396	0.16489	-3.0146	-2.8833	-3.7562	-3.25	-3.2354	-3.6167	-3.3271	-3.7438	-3.3729	-2.9708	-3.7896	-3.1646	-3.2521	-3.8688	-2.8542	-3.6604	461.944	246.809	375.918	487.393	377.367	294.944	423.647	215.718	213.826	499.523	494.511	467.874	318.753	408.328	507.519	239.827	0.00046602	0.00030829	0.0001509	1374.2	3.9996e-06	6.9566e-06	1367.1	371.02	4.315e-06	8.5118e-06	423.83	140.77	122.52	42.277	4.4196e-06	52.133	0.00058476	0.00062323	0.00016629	1389.7	6.7784e-06	6.7872e-06	1389.4	376.92	6.7885e-06	6.9532e-06	430.46	144.09	125.77	43.283	6.8195e-06	53.545	227.387	238.222	286.468	188.260	291.271	292.329	188.081	192.824	322.659	314.354	192.491	196.485	196.896	201.886	290.631	201.046	-8191	255	
903.088	1	1	0	0	0.11272	0.065327	0.2025	0.074232	0.11993	0.18306	0.12063	0.44036	0.12474	0.11872	0.18097	0.10606	0.035107	0.061109	0.15403	0.048577	-3.075	-3.0354	-3.7875	-3.4375	-3.15	-3.7708	-3.2979	-3.6667	-3.4917	-2.9021	-3.8771	-3.3354	-3.25	-3.8729	-3.0938	-3.5854	450.980	283.364	334.082	495.608	265.925	362.643	520.262	484.268	458.088	371.779	505.198	223.091	528.523	495.982	242.769	400.956	0.00045591	0.00051715	0.00016606	1370.4	5.4742e-06	5.7866e-06	1368.8	371.78	4.141e-06	4.3301e-06	423.31	141.33	122.62	42.207	5.7501e-06	51.999	0.00057392	0.00062097	0.00016595	1388.4	6.7357e-06	6.8331e-06	1388.1	377.62	6.6352e-06	6.7603e-06	430.51	144.25	125.55	43.243	6.7498e-06	53.481	226.231	276.039	253.808	188.227	303.474	317.762	188.103	192.796	329.825	329.730	192.184	196.141	196.818	201.870	331.578	201.311	-8191	255	
903.185	1	1	0	0	0.17565	0.14803	0.075057	0.3466	0.11115	0.23405	0.12684	0.20296	0.30343	0.23754	0.256	0.10725	0.11312	0.14246	0.045553	0.090033	-3.0896	-2.9354	-3.6167	-3.5104	-3.0875	-3.775	-3.2208	-3.4604	-3.6021	-3.025	-3.8292	-3.4	-3.1542	-3.9729	-3.2417	-3.3333	465.105	410.975	217.834	509.671	454.607	490.434	236.295	456.129	491.034	530.806	213.322	513.649	235.200	208.868	279.345	534.416	0.00045896	0.0002799	0.0001415	1377.4	4.5203e-06	3.2107e-06	1365.9	370.61	5.5123e-06	2.5828e-06	423.34	140.69	122.02	42.201	5.345e-06	52.047	0.00058706	0.00064102	0.00016667	1391.2	6.7644e-06	6.5946e-06	1389	377.05	6.6418e-06	6.8659e-06	430.55	144.26	125.68	43.303	6.7288e-06	53.537	228.098	264.680	274.093	188.196	319.292	309.231	188.192	192.832	307.480	303.189	192.511	196.531	197.084	201.843	316.525	201.139	-8191	255	
903.305	1	1	0	0	0.21402	0.19733	0.24165	0.52056	0.14146	0.20169	0.14792	0.26532	0.17295	0.072405	0.18376	0.20862	0.099462	0.26048	0.079807	0.1835	-3.2104	-2.8875	-3.5563	-3.5917	-2.8667	-3.9062	-3.3	-3.2938	-3.7208	-2.8979	-3.825	-3.6146	-2.9896	-3.8125	-3.0583	-3.2687	512.850	316.153	299.972	508.973	268.066	259.175	447.810	472.419	285.691	338.335	372.916	375.854	445.220	439.428	473.160	467.164	0.00043356	0.00061253	0.00010442	1375.9	3.3755e-06	4.4471e-06	1367	371.38	4.3091e-06	5.4787e-06	424.45	140.92	122.92	42.273	5.1305e-06	52.279	0.00057558	0.00062069	0.00016745	1390.7	6.8864e-06	6.6462e-06	1388	377.58	6.5965e-06	6.7859e-06	430.7	144.07	125.63	43.2	6.716e-06	53.487	224.473	254.521	233.261	188.358	304.647	343.463	188.126	192.811	323.108	343.003	192.384	196.522	196.707	202.080	282.839	201.243	-8191	255	
903.401	1	1	0	0	0.12796	0.083043	0.0625	0.45981	0.14154	0.23094	0.24169	0.082103	0.08492	0.13556	0.038151	0.20546	0.22529	0.2707	0.40025	0.05222	-3.5146	-2.9021	-3.3812	-3.7542	-2.9167	-3.575	-3.4833	-3.3083	-3.8021	-2.9562	-3.5042	-3.7125	-2.8375	-3.4583	-3.3021	-3.2479	406.676	390.982	268.336	529.327	391.441	412.870	496.625	448.203	179.907	320.599	485.611	186.457	512.059	534.464	417.668	392.401	0.00045402	0.0005187	0.00013261	1378.8	4.5666e-06	4.1275e-06	1368	371.09	5.6332e-06	7.2555e-06	423.94	140.83	122.4	42.214	2.7607e-06	52.049	0.00058118	0.00063229	0.00016822	1392.8	6.8618e-06	6.3811e-06	1387.6	376.85	6.5459e-06	6.6687e-06	430.29	144.05	125.55	43.264	6.7728e-06	53.393	227.419	250.941	262.210	188.336	324.893	325.297	187.951	192.892	310.720	312.178	192.406	196.417	196.865	202.190	312.183	201.396	-8191	255	
903.498	1	1	0	0	0.10425	0.061997	0.086486	0.16134	0.14464	0.15905	0.071249	0.56138	0.30909	0.10192	0.16815	0.091051	0.18877	0.26534	0.21971	0.12212	-3.4083	-2.8063	-3.2396	-3.9292	-2.9938	-3.5938	-3.4667	-2.9667	-3.7792	-3.0833	-3.2812	-3.6604	-2.7667	-3.6771	-3.3521	-3.1146	462.734	287.202	360.764	525.540	341.408	491.350	418.413	507.496	275.253	277.709	261.623	230.854	507.714	255.267	178.895	480.313	0.00044247	0.00052712	0.0001277	1373.4	5.7416e-06	4.3993e-06	1367.7	370.72	4.4347e-06	7.1004e-06	422.75	141.16	121.28	42.169	3.6623e-06	52.16	0.00057404	0.00060994	0.00016969	1389.8	6.7548e-06	6.568e-06	1386.9	376.97	6.6185e-06	6.8801e-06	430.61	144.34	125.14	43.279	6.7485e-06	53.452	228.532	248.339	259.403	188.438	315.455	329.320	187.918	192.622	304.727	316.224	192.423	196.319	197.146	201.667	365.715	201.244	-8191	255	
903.594	1	1	0	0	0.2342	0.01524	0.089929	0.38573	0.34998	0.15382	0.2656	0.14514	0.070203	0.084419	0.2376	0.14507	0.088038	0.21665	0.13192	0.19328	-3.2896	-3.0208	-3.2562	-3.8396	-2.9708	-3.5021	-3.7812	-3.0417	-3.7625	-3.2708	-3.1688	-3.725	-2.9625	-3.2667	-3.5083	-2.8771	416.539	176.818	469.907	512.412	224.463	369.775	500.214	367.173	422.102	243.788	211.559	480.717	455.580	357.220	514.825	437.107	0.00043566	0.0005028	0.0001049	1372.6	3.9576e-06	5.0317e-06	1374.4	370.75	4.7424e-06	5.042e-06	422.54	140.96	122.59	42.307	5.2283e-06	51.956	0.00057837	0.00061661	0.00016711	1391.3	6.7628e-06	6.4952e-06	1390.7	377.39	6.5901e-06	6.7742e-06	430.37	144.21	125.56	43.241	6.802e-06	53.466	223.251	271.982	290.772	188.222	329.510	339.846	187.862	192.597	315.786	349.281	192.204	196.250	196.906	201.988	328.042	201.252	-8191	255	
903.690	1	1	0	0	0.041453	0.13037	0.21985	0.23719	0.13938	0.091822	0.35757	0.23244	0.10211	0.10936	0.20608	0.16744	0.21644	0.16257	0.095521	0.13009	-3.4771	-3.1708	-2.9688	-4.0292	-2.9938	-3.3042	-3.8083	-3.0312	-3.6417	-3.4542	-3.2021	-3.8771	-3.2938	-3.4104	-3.7687	-2.9062	484.614	240.757	304.364	486.571	264.952	189.664	493.511	512.422	248.545	438.840	177.270	496.667	403.316	185.799	488.692	515.117	0.00043406	0.00064292	0.00014103	1379.9	6.1386e-06	4.1694e-06	1370.4	371.13	5.4586e-06	3.8812e-06	425.27	140.41	122.39	42.365	4.4221e-06	51.929	0.00056123	0.00061394	0.00017153	1392.7	6.667e-06	6.6685e-06	1388.6	376.95	6.5705e-06	6.7577e-06	430.2	143.93	125.38	43.267	6.8381e-06	53.388	228.241	263.829	305.813	188.339	321.279	356.269	188.127	192.826	342.504	282.370	192.455	196.861	197.345	202.192	311.353	201.322	-8191	255	
903.786	1	1	0	0	0.26822	0.11059	0.070866	0.2178	0.25529	0.15269	0.18641	0.2234	0.14965	0.23893	0.10806	0.1038	0.14751	0.17478	0.043987	0.20062	-3.3083	-3.4875	-2.9896	-3.7958	-3.0979	-3.3271	-4	-3.0417	-3.7292	-3.5604	-3.2146	-3.7646	-3.1167	-3.1896	-3.7458	-2.9917	471.530	324.656	478.429	533.122	443.718	512.484	238.179	446.684	453.220	515.750	483.804	477.053	365.998	222.277	410.744	258.008	0.00044143	0.00042211	0.00024077	1373.6	3.9569e-06	6.1193e-06	1369.9	370.23	4.3812e-06	6.1593e-06	423.07	140.72	122.35	42.157	7.0371e-06	52.163	0.00057157	0.00062141	0.00017526	1390	6.767e-06	6.7623e-06	1389.3	377.05	6.6023e-06	6.7848e-06	430.31	144.21	125.44	43.274	6.7034e-06	53.516	224.691	252.878	261.286	188.513	304.062	337.534	188.468	193.161	345.022	327.592	192.754	196.757	196.907	202.177	303.791	201.293	-8191	255	
903.905	1	1	0	0	0.066195	0.11541	0.21241	0.26293	0.12764	0.24381	0.30485	0.32835	0.24087	0.24654	0.25221	0.036027	0.41532	0.10065	0.21692	0.098978	-3.1625	-3.4896	-2.8896	-3.75	-3.3104	-3.2229	-3.9417	-3.1854	-3.4854	-3.4333	-2.9792	-3.8167	-3.2438	-3.0167	-3.6917	-2.9875	486.000	326.452	275.423	506.351	425.624	259.809	434.755	179.315	229.895	411.958	493.006	497.449	491.120	513.266	514.889	474.552	0.00045695	0.00069163	0.00018905	1373.8	4.4616e-06	4.6155e-06	1368.9	371.26	4.3844e-06	6.2646e-06	424.12	141.06	122.19	42.305	3.886e-06	52.32	0.00058045	0.00062854	0.00017365	1390.1	6.87e-06	6.8141e-06	1389.4	377.02	6.7273e-06	6.8983e-06	430.37	143.92	125.27	43.299	6.7621e-06	53.492	224.837	262.992	267.580	188.437	301.356	327.182	188.237	192.829	338.115	308.297	192.525	196.664	197.014	202.016	322.517	201.305	-8191	255	
904.001	1	1	0	0	0.17654	0.13187	0.064762	0.25008	0.10219	0.029732	0.25129	0.091916	0.20138	0.23871	0.26836	0.18503	0.22522	0.12119	0.14403	0.11587	-3.0938	-3.5375	-2.9583	-3.7958	-3.325	-2.8937	-3.9458	-3.2396	-3.4417	-3.8229	-3.0563	-3.7062	-3.4521	-2.8917	-3.6437	-3.2687	212.260	355.789	524.017	500.746	208.308	407.603	500.387	177.445	451.486	487.075	277.476	238.480	445.812	526.033	459.647	495.617	0.00047808	0.00043527	0.00020359	1378.9	3.7212e-06	5.3018e-06	1369.3	371.24	5.5512e-06	4.674e-06	422.57	140.55	121.93	42.198	4.3594e-06	51.862	0.0005893	0.00063701	0.00017676	1391.9	6.7461e-06	7.0013e-06	1389.6	377.52	6.805e-06	6.8858e-06	430.5	143.99	125.35	43.237	6.6578e-06	53.374	226.153	266.232	279.020	188.574	308.732	306.918	187.876	192.729	332.281	340.234	192.568	196.653	197.262	201.816	325.382	201.372	-8191	255	
904.097	1	1	0	0	0.11119	0.15262	0.098056	0.46076	0.2264	0.14575	0.016881	0.30578	0.15686	0.21143	0.056716	0.18981	0.14969	0.13202	0.11884	0.10635	-2.9938	-3.7104	-2.9354	-3.7729	-3.2208	-3.0687	-3.8104	-3.275	-3.1562	-3.7958	-3.0771	-3.6542	-3.5812	-2.7938	-3.725	-3.2167	425.647	520.301	511.623	487.165	509.415	416.062	482.762	504.986	389.248	228.044	270.844	525.171	443.420	498.555	291.453	185.105	0.00046534	0.00051181	0.00016754	1376.8	2.8205e-06	4.6942e-06	1368.9	369.49	5.5263e-06	5.4765e-06	419.98	140.65	122.66	42.318	4.4642e-06	52.277	0.00059359	0.00062298	0.00017461	1392.1	6.7047e-06	7.0223e-06	1387.8	376.56	6.9703e-06	6.7617e-06	429.89	143.86	125.66	43.263	6.6127e-06	53.471	224.157	259.820	251.465	188.488	296.156	314.805	188.277	192.880	313.709	346.732	192.701	196.650	197.067	201.908	315.836	201.172	-8191	255	
904.193	1	1	0	0	0.19471	0.15237	0.1032	0.30799	0.19927	0.11703	0.23162	0.090221	0.15582	0.17107	0.093371	0.19098	0.22834	0.14144	0.16493	0.047446	-2.7583	-3.9	-2.825	-3.7083	-3.65	-2.9688	-3.7938	-3.3583	-3.0208	-3.7604	-3.0396	-3.3792	-3.6813	-2.9188	-3.6729	-3.5354	456.500	457.264	472.668	477.313	445.082	364.897	469.380	208.245	268.451	417.370	325.717	231.673	398.122	437.312	385.227	234.340	0.00046788	0.0004129	8.6327e-05	1378.6	2.7558e-06	5.1969e-06	1367.6	369.73	4.2922e-06	5.6119e-06	422.28	141.11	122.18	42.176	4.791e-06	52.142	0.00059366	0.00061361	0.00017717	1392.3	6.8533e-06	6.7773e-06	1388.2	376.54	6.8858e-06	6.5611e-06	430.04	144.12	125.28	43.249	6.5955e-06	53.407	224.670	255.826	252.214	188.404	331.580	333.236	188.220	192.942	309.620	329.933	192.670	196.679	197.328	202.058	325.084	201.382	-8191	255	
904.289	1	1	0	0	0.1661	0.053875	0.1653	0.14225	0.15913	0.26938	0.19006	0.22422	0.1747	0.22161	0.27335	0.21668	0.19755	0.060709	0.10063	0.052311	-2.4896	-3.8063	-3.05	-3.5	-3.8479	-2.9833	-3.8646	-3.3438	-2.9458	-3.8729	-3.2167	-3.3563	-3.7271	-3.0479	-3.5708	-3.5854	279.095	529.591	279.633	513.499	252.208	325.974	221.880	423.634	496.580	528.979	192.178	491.535	358.017	429.740	278.959	472.954	0.00045312	0.00034345	0.00021927	1376.3	4.5959e-06	4.4972e-06	1368.4	370.64	3.8673e-06	4.4933e-06	423.13	140.84	122.5	42.21	4.1055e-06	51.868	0.0005872	0.00060624	0.00017324	1390.1	6.7721e-06	6.7685e-06	1387.7	377.34	6.8767e-06	6.5975e-06	430.41	144.3	125.45	43.234	6.722e-06	53.36	224.810	263.765	248.595	188.593	312.217	302.578	188.374	193.253	322.564	319.278	192.365	196.912	197.000	201.691	300.557	201.464	-8191	255	
904.386	1	1	0	0	0.19741	0.24585	0.091292	0.012984	0.10367	0.11503	0.096249	0.51756	0.15904	0.27061	0.10121	0.17973	0.23502	0.060602	0.17981	0.39824	-2.6208	-3.8792	-3.1667	-3.2146	-3.6979	-2.95	-3.6667	-3.6396	-3.0396	-3.7396	-3.3354	-3.1583	-3.9375	-3.1021	-3.3417	-3.6437	473.603	204.642	272.378	184.797	199.199	311.976	518.949	175.835	242.753	233.892	386.918	473.688	422.038	225.969	225.882	489.504	0.00045211	0.00039651	0.00013882	1377.4	3.7593e-06	3.1669e-06	1368.9	370.43	4.6882e-06	5.7789e-06	422.6	140.2	122.18	42.298	5.3018e-06	52.139	0.00059044	0.00061148	0.00017322	1392.4	6.6665e-06	6.7682e-06	1388	376.99	6.9186e-06	6.6175e-06	429.69	144.11	125.48	43.252	6.7539e-06	53.489	226.037	253.420	267.164	188.731	322.901	319.449	188.169	193.008	328.409	314.166	192.200	196.539	196.513	201.644	297.766	200.947	-8191	255	
904.506	1	1	0	0	0.23361	0.24399	0.073328	0.13962	0.20815	0.080993	0.2819	0.25347	0.19556	0.066515	0.30017	0.14632	0.035144	0.27894	0.21772	0.10284	-2.4625	-3.7125	-3.1937	-3.3812	-3.8104	-3.0833	-3.5396	-3.5625	-2.8812	-3.6625	-3.5583	-2.9792	-3.7708	-3.1583	-3.2479	-3.7667	358.275	302.339	503.150	381.578	407.201	378.082	473.166	468.208	391.373	240.969	512.762	310.159	446.877	380.068	533.922	468.095	0.0004474	0.00040717	0.00014551	1373.2	4.8472e-06	6.015e-06	1370.1	370.84	4.9682e-06	5.5303e-06	423.5	140.21	122.35	42.29	3.0104e-06	52.108	0.00060048	0.00059428	0.00016981	1390.4	6.6458e-06	6.7495e-06	1387.9	377.03	6.9295e-06	6.6436e-06	430.27	144.02	125.51	43.247	6.8222e-06	53.402	222.217	262.743	290.534	188.311	320.845	311.784	188.107	192.476	326.502	299.070	192.124	196.612	196.682	201.591	342.353	200.971	-8191	255	
904.602	1	1	0	0	0.11258	0.15546	0.10002	0.18305	0.11071	0.13346	0.13982	0.37077	0.19174	0.085033	0.18897	0.080678	0.15442	0.069306	0.034912	0.19132	-2.525	-3.5167	-3.45	-3.1396	-3.7479	-3.175	-3.2188	-3.9229	-2.9167	-3.5729	-3.6104	-3.0375	-3.5854	-3.3771	-3.275	-3.7833	364.714	362.246	236.135	235.365	349.813	292.995	328.418	466.595	361.426	429.067	513.565	430.603	193.375	409.572	260.276	200.304	0.00048266	0.00043118	0.00015543	1373.6	5.4222e-06	4.0507e-06	1368.9	370.34	4.9215e-06	7.5273e-06	423.36	140.12	122.39	42.277	2.9716e-06	51.9	0.00059567	0.00059811	0.0001712	1389.7	6.4855e-06	6.5932e-06	1388.6	377.02	6.7369e-06	6.49e-06	430.44	143.81	125.38	43.242	6.8613e-06	53.422	225.737	259.475	251.063	188.160	317.520	318.164	188.158	192.728	312.293	315.502	192.285	196.501	196.777	201.545	313.964	200.940	-8191	255	
904.697	1	1	0	0	0.23522	0.2654	0.14546	0.33843	0.10321	0.13465	0.28064	0.20417	0.04685	0.22195	0.21483	0.17051	0.22277	0.15528	0.24704	0.22515	-2.4646	-3.4396	-3.4896	-3.0604	-3.6437	-3.3729	-3.3146	-3.8625	-3.0563	-3.3604	-3.5729	-3.0396	-3.6729	-3.5229	-2.7396	-3.8708	461.324	332.189	433.415	489.963	320.072	475.375	495.442	179.746	419.045	417.747	478.502	505.785	208.366	466.974	458.283	462.228	0.00045159	0.00037006	8.2446e-05	1372.6	4.3015e-06	4.0923e-06	1366.9	370.4	5.3354e-06	7.4586e-06	424.68	140.73	121.89	42.259	5.1252e-06	52.246	0.00057951	0.00060706	0.00017178	1389.4	6.4166e-06	6.5819e-06	1388	376.86	6.6259e-06	6.5409e-06	430.86	144.2	125.24	43.221	6.7255e-06	53.528	224.601	252.785	246.514	188.195	309.529	321.318	187.921	192.320	315.653	308.681	192.057	196.041	196.827	201.439	295.112	200.894	-8191	255	
904.770	1	1	0	0	0.20138	0.33285	0.10573	0.14366	0.13094	0.10433	0.34885	0.25095	0.3254	0.14959	0.21611	0.22833	0.13113	0.22922	0.05453	0.14266	-2.8542	-3.3625	-3.525	-2.9542	-3.6479	-3.3104	-3.25	-3.8396	-3.0042	-3.2229	-3.8208	-3.2167	-3.6208	-3.5167	-2.8875	-3.7125	196.742	314.017	312.628	225.258	321.329	280.509	508.839	424.236	244.397	426.433	489.763	199.268	190.702	517.255	374.398	502.349	0.00045458	0.00052876	0.00014967	1375	4.2218e-06	3.7383e-06	1366.5	369.17	4.2422e-06	5.9162e-06	424.59	139.95	122.51	42.2	4.1338e-06	52.005	0.00057352	0.00060586	0.00016728	1389.6	6.4134e-06	6.5479e-06	1388.4	376.62	6.6246e-06	6.6513e-06	430.2	143.85	125.4	43.205	6.7318e-06	53.391	226.868	244.367	271.302	188.034	321.416	294.082	187.865	192.747	327.145	338.337	191.881	196.191	196.774	201.526	298.995	201.218	-8191	255	
904.866	1	1	0	0	0.097155	0.13209	0.17862	0.091077	0.14276	0.1925	0.1306	0.038214	0.043788	0.22703	0.31413	0.18865	0.26017	0.18746	0.058164	0.045908	-2.7958	-3.0271	-3.6708	-3.175	-3.575	-3.6021	-3.2708	-3.8396	-3.0917	-3.0417	-3.7896	-2.9667	-3.575	-3.5333	-2.8354	-3.8771	263.306	524.227	357.163	487.463	463.198	401.853	390.809	404.888	217.724	288.596	428.050	411.088	501.729	488.787	350.657	378.224	0.00045874	0.00053132	0.00015176	1376.8	3.6173e-06	3.7663e-06	1370.6	371.12	5.2243e-06	5.0631e-06	421.82	140.08	122.41	42.061	3.9862e-06	52.068	0.00057527	0.00060324	0.00016379	1390.9	6.3876e-06	6.5079e-06	1389	376.78	6.4783e-06	6.5386e-06	429.45	143.96	125.22	43.188	6.6698e-06	53.38	225.442	257.804	270.563	187.900	325.965	327.514	187.830	192.584	312.842	300.838	192.037	196.256	196.789	201.320	340.818	201.093	-8191	255	
904.985	1	1	0	0	0.1133	0.091337	0.059162	0.33036	0.22721	0.10757	0.18911	0.13684	0.14456	0.099674	0.023387	0.14673	0.039644	0.063199	0.25945	0.064607	-2.9375	-3.05	-3.7417	-3.0646	-3.2979	-3.6208	-3.0062	-3.9458	-3.2396	-3.0729	-3.7438	-3.1875	-3.5354	-3.7479	-2.6312	-3.7958	457.210	339.499	290.321	498.956	331.877	317.706	478.334	494.860	284.083	359.728	311.670	530.284	201.238	367.440	519.579	393.175	0.00049888	0.00047985	0.0001873	1372.3	4.7375e-06	4.5143e-06	1367.7	371.31	5.2729e-06	5.0309e-06	423.42	140.5	122.65	41.982	3.3114e-06	51.964	0.00057323	0.0006135	0.00016299	1389.1	6.4813e-06	6.5473e-06	1387	376.98	6.5671e-06	6.542e-06	429.85	143.89	125.48	43.12	6.6837e-06	53.459	227.484	268.157	256.717	187.939	302.362	306.381	187.870	192.461	329.508	318.207	191.930	196.058	196.864	201.446	306.186	201.244	-8191	255	
905.081	1	1	0	0	0.25379	0.22809	0.19183	0.40889	0.078315	0.11415	0.14255	0.28474	0.19423	0.12554	0.14747	0.33877	0.10651	0.14211	0.32089	0.21174	-3.1729	-2.9292	-3.6542	-3.1833	-3.2583	-3.6042	-2.9146	-3.725	-3.4396	-3.0146	-3.8312	-3.1312	-3.1729	-3.65	-2.8729	-3.5042	243.234	372.704	185.132	468.070	297.138	440.165	229.276	518.538	462.031	220.562	459.827	201.190	495.141	265.359	260.382	451.612	0.0004741	0.00044486	0.00018025	1373.3	6.766e-06	7.0893e-06	1370.4	370.59	4.5329e-06	4.6745e-06	423.1	140.64	122.48	42.16	4.8643e-06	52.059	0.00057544	0.00060863	0.00016337	1390.1	6.5145e-06	6.6105e-06	1387.9	377.02	6.6246e-06	6.6143e-06	429.61	144.02	125.44	43.274	6.6471e-06	53.478	225.672	256.950	263.003	187.891	315.574	307.894	187.859	192.542	316.749	306.287	192.241	196.190	197.069	201.636	301.233	201.228	-8191	255	
905.178	1	1	0	0	0.14836	0.082419	0.091329	0.29491	0.094529	0.22148	0.26861	0.15789	0.048378	0.10395	0.17055	0.33753	0.049483	0.17361	0.12272	0.3104	-3.3063	-2.7	-3.6542	-3.3271	-3.1063	-3.8042	-2.9229	-3.5708	-3.5896	-2.9271	-3.9271	-3.3396	-3.0729	-3.8792	-2.9271	-3.3958	526.548	481.376	509.394	503.265	242.719	296.668	481.100	509.897	469.751	369.022	232.702	523.541	309.808	447.652	314.885	319.554	0.00044826	0.0004122	0.00016831	1376.7	2.6664e-06	4.6969e-06	1368.5	370.51	4.0941e-06	5.1147e-06	422.71	140.71	122.19	42.041	5.924e-06	52.045	0.00057567	0.00061959	0.00016057	1389.9	6.8235e-06	6.4765e-06	1387.9	377.14	6.5684e-06	6.7051e-06	429.79	144.02	125.43	43.134	6.6203e-06	53.472	228.421	262.640	271.994	188.184	323.112	306.241	187.857	192.959	296.586	316.538	192.476	196.382	196.917	201.729	288.911	201.115	-8191	255	
905.298	1	1	0	0	0.09614	0.071264	0.075684	0.23119	0.21314	0.15553	0.051072	0.45631	0.022487	0.32702	0.10245	0.080814	0.021931	0.14124	0.22981	0.1365	-3.1292	-2.7812	-3.7104	-3.425	-2.9146	-3.6375	-3.2562	-3.1063	-3.65	-2.7979	-3.7	-3.4021	-2.9437	-3.6667	-2.8979	-3.3312	465.076	260.724	509.005	505.237	273.148	373.056	447.489	497.485	432.340	423.937	492.574	221.690	366.323	500.751	343.918	513.098	0.00043442	0.00056842	0.00017831	1374	4.9497e-06	7.5503e-06	1374.5	371.42	5.5588e-06	2.9866e-06	422.97	140.56	122.3	42.216	5.5034e-06	52.07	0.00057299	0.00061574	0.00016132	1390.5	6.6864e-06	6.4632e-06	1389.1	377.25	6.5906e-06	6.7327e-06	430.23	143.85	125.27	43.207	6.4878e-06	53.416	227.916	272.236	258.749	188.270	321.671	299.357	188.164	192.882	298.957	304.288	192.472	196.482	197.204	201.979	319.083	201.320	-8191	255	
905.370	1	1	0	0	0.20901	0.17926	0.14247	0.39649	0.19996	0.063033	0.083026	0.29731	0.067679	0.025614	0.14731	0.091346	0.47249	0.19905	0.13865	0.2041	-3.3854	-2.7583	-3.6312	-3.4646	-2.9229	-3.7667	-3.2896	-2.9042	-3.6167	-2.9375	-3.4229	-3.4854	-2.9604	-3.7729	-3.1937	-3.1375	494.803	202.800	421.274	465.169	458.018	257.799	523.771	484.348	212.224	189.882	508.711	178.007	182.598	211.748	492.933	500.908	0.00044301	0.00039824	0.00012692	1373.7	2.6323e-06	3.8408e-06	1368.4	372.38	2.9963e-06	5.7613e-06	425.57	140.41	122.05	42.149	5.0742e-06	52.161	0.00056916	0.00061225	0.00016347	1390.1	6.6675e-06	6.4091e-06	1387.9	377.49	6.6436e-06	6.6445e-06	431.43	144.09	125.37	43.212	6.528e-06	53.446	228.833	248.723	266.740	187.875	309.106	333.624	187.559	192.231	333.968	315.165	191.746	195.965	196.244	201.286	331.621	200.581	-8191	255	
905.466	1	1	0	0	0.12545	0.034987	0.1296	0.1299	0.071885	0.037307	0.12715	0.05555	0.14525	0.1512	0.079969	0.19469	0.089671	0.12278	0.11424	0.15976	-3.4625	-2.8333	-3.3042	-3.6042	-2.8729	-3.6917	-3.4896	-3.2062	-3.6542	-3.1042	-3.6292	-3.7583	-2.8208	-3.7417	-3.4396	-2.9958	506.516	474.125	413.537	495.011	240.878	324.935	476.646	403.270	345.414	514.078	517.545	211.384	175.810	415.002	199.623	199.645	0.00046253	0.00074677	0.00011104	1375.6	4.7925e-06	6.8391e-06	1366.7	370.58	5.7674e-06	2.7933e-06	423.02	140.73	122.07	42.215	3.6436e-06	51.995	0.00056919	0.00060144	0.00016337	1391.6	6.7185e-06	6.3306e-06	1387.7	376.75	6.5061e-06	6.5864e-06	429.92	143.99	125.1	43.176	6.3939e-06	53.39	227.125	274.831	215.912	187.719	314.110	300.565	187.524	192.239	306.671	329.323	191.820	195.738	196.507	201.434	313.828	200.697	-8191	255	
905.587	1	1	0	0	0.26835	0.18927	0.1437	0.025694	0.21292	0.14627	0.2983	0.065952	0.12958	0.085909	0.15519	0.16106	0.29746	0.16014	0.13162	0.051905	-3.5021	-2.9	-3.2729	-3.7417	-2.9375	-3.5062	-3.5125	-3.1896	-3.8583	-3.2292	-3.125	-3.9062	-3.0083	-3.2667	-3.5062	-3.0521	193.111	487.173	300.227	463.932	260.996	223.173	462.396	456.791	239.567	328.305	194.251	306.875	481.492	405.048	235.780	510.496	0.00044511	0.00053942	0.00018701	1377	3.1291e-06	4.9232e-06	1372.7	369.87	3.8643e-06	6.9656e-06	423.08	140.54	122.07	42.099	5.5469e-06	52.009	0.00056426	0.00058592	0.00016598	1391.2	6.597e-06	6.3417e-06	1389.2	376.95	6.3345e-06	6.6601e-06	430.08	143.94	125.4	43.211	6.5198e-06	53.456	225.248	279.814	277.372	187.736	306.578	330.727	187.415	192.089	318.627	310.859	191.895	195.973	196.350	201.508	336.355	200.837	-8191	255	
905.683	1	1	0	0	0.22683	0.19462	0.26662	0.37759	0.18873	0.090275	0.025459	0.22662	0.10549	0.16326	0.15363	0.44052	0.19002	0.25349	0.21781	0.28888	-3.3042	-2.9979	-3.0417	-3.8875	-2.8833	-3.3438	-3.7167	-2.9271	-3.7	-3.0875	-3.1604	-3.9125	-3.1792	-3.5104	-3.5583	-3.0729	422.336	427.291	227.572	196.630	356.709	268.874	511.573	389.047	343.612	433.121	436.168	526.338	375.811	494.628	206.386	513.819	0.00044244	0.00048024	0.00014304	1376.3	3.4005e-06	4.6475e-06	1367.3	370.53	4.1728e-06	4.3112e-06	423.71	139.92	122.39	42.051	2.6784e-06	51.99	0.00056807	0.00060237	0.00016591	1391.5	6.5405e-06	6.4887e-06	1387.5	377.13	6.2616e-06	6.4638e-06	430.74	143.86	125.28	43.164	6.4799e-06	53.402	225.481	265.587	271.632	187.699	288.335	325.743	187.459	192.315	310.958	314.962	191.878	195.952	196.322	201.454	319.778	200.716	-8191	255	
905.779	1	1	0	0	0.20512	0.089083	0.14204	0.10473	0.17823	0.15589	0.061086	0.074039	0.087431	0.21987	0.18073	0.29137	0.19809	0.23164	0.129	0.062417	-3.3958	-3.2729	-2.8458	-3.9792	-3.0062	-3.2	-3.7875	-3.1042	-3.4833	-3.3708	-3.1854	-3.8042	-3.0542	-3.6542	-3.6708	-2.8854	522.201	358.572	466.367	495.986	281.297	462.871	414.030	194.372	190.887	306.455	176.089	469.243	196.847	487.577	497.166	509.141	0.00046676	0.00050229	9.7181e-05	1379.3	3.9387e-06	4.9963e-06	1366.6	369.36	5.1539e-06	6.9674e-06	422.62	140.72	121.77	42.158	5.0758e-06	51.91	0.00056324	0.00060001	0.00016949	1391.2	6.5049e-06	6.5569e-06	1388.3	376.78	6.3109e-06	6.6024e-06	430.56	143.96	125.3	43.274	6.5438e-06	53.431	223.701	266.617	274.947	187.673	325.493	317.638	187.720	192.310	312.406	315.871	191.956	195.919	196.763	201.617	330.412	200.614	-8191	255	
905.898	1	1	0	0	0.30585	0.030624	0.24313	0.2275	0.12364	0.10769	0.088637	0.20059	0.25438	0.1709	0.25705	0.033057	0.23272	0.38233	0.3042	0.083143	-2.9833	-3.525	-3.1042	-3.7458	-3.0771	-3.1667	-3.9292	-3.1417	-3.5292	-3.3875	-3.0167	-3.7208	-2.9958	-2.9979	-3.7333	-2.8667	429.883	382.781	253.668	513.837	516.067	505.311	452.640	199.446	241.196	493.589	482.678	333.587	502.456	508.803	280.946	392.412	0.00046037	0.00081673	8.22e-05	1378.5	3.7448e-06	4.4432e-06	1368.9	369.57	5.4163e-06	5.3316e-06	421.81	140.49	121.98	42.036	3.2728e-06	51.99	0.00055872	0.00058394	0.00017153	1392	6.4932e-06	6.6379e-06	1389.2	376.73	6.4039e-06	6.4194e-06	430.15	143.99	125.07	43.191	6.2821e-06	53.475	227.897	236.823	255.919	187.743	330.493	312.979	187.625	192.315	319.203	321.902	191.848	196.167	196.223	201.586	321.363	200.679	-8191	255	
905.994	1	1	0	0	0.10576	0.013294	0.14413	0.03806	0.12584	0.35549	0.12697	0.27384	0.11853	0.09166	0.14158	0.15669	0.356	0.16446	0.18911	0.2884	-3.1208	-3.3625	-2.9125	-3.8792	-3.1937	-3.0854	-4.0208	-3.1437	-3.3354	-3.5	-2.9562	-3.725	-3.3187	-3.0167	-3.5771	-3.1292	369.179	257.659	446.248	251.978	333.365	237.848	437.014	399.265	439.684	453.549	223.036	492.037	422.439	484.935	259.595	531.138	0.0004608	0.00053813	0.00018285	1376.3	3.6314e-06	4.5238e-06	1365	370.48	3.8358e-06	5.2878e-06	422.45	140.19	122.23	42.212	4.318e-06	51.81	0.00055633	0.00059123	0.00016473	1391.8	6.3717e-06	6.5691e-06	1387.1	376.48	6.2977e-06	6.4319e-06	429.62	143.9	125.24	43.229	6.3436e-06	53.365	226.657	240.758	278.769	187.900	309.147	302.382	187.593	192.317	302.725	304.698	191.941	196.179	196.329	201.707	328.142	200.680	-8191	255	
906.066	1	1	0	0	0.22407	0.11999	0.14997	0.2188	0.26199	0.092577	0.22917	0.20822	0.13803	0.16643	0.097533	0.23083	0.038604	0.30714	0.24826	0.16632	-3.0104	-3.6146	-2.7625	-3.8146	-3.4271	-3.0271	-3.9	-3.1125	-3.2313	-3.7146	-2.9979	-3.5583	-3.6146	-2.9146	-3.5917	-3.2354	294.401	175.273	490.576	511.922	511.384	288.626	492.049	201.897	293.716	339.325	473.332	494.494	499.207	425.213	315.953	416.262	0.00044785	0.00056862	0.00013111	1375.9	4.5485e-06	2.7885e-06	1368	370.2	4.0534e-06	1.3953e-06	422.81	140.83	122.04	42.044	4.5621e-06	51.964	0.00057401	0.00057988	0.00016466	1392	6.4826e-06	6.5722e-06	1387.5	376.45	6.5204e-06	6.3061e-06	430.45	144.03	125.19	43.142	6.2471e-06	53.383	226.025	250.927	254.040	187.772	340.192	333.465	187.786	192.278	324.538	306.007	191.934	196.030	196.608	201.406	330.247	200.546	-8191	255	
906.186	1	1	0	0	0.17135	0.057546	0.17401	0.17732	0.049811	0.05622	0.3004	0.11891	0.24874	0.2198	0.038841	0.21625	0.12245	0.21869	0.052208	0.30792	-2.7438	-3.6813	-2.6562	-3.6458	-3.3354	-2.9188	-3.8458	-3.4167	-3.1354	-3.7042	-3.1083	-3.4604	-3.4792	-3.0521	-3.6521	-3.2979	366.023	188.882	366.112	498.761	449.137	533.485	176.551	459.980	446.256	441.544	395.675	341.252	454.353	189.524	234.432	457.456	0.00044577	0.00055089	0.00013515	1374.5	4.3628e-06	5.8797e-06	1369	370.56	4.0774e-06	4.2752e-06	422.07	140.32	121.98	42.072	4.7392e-06	51.898	0.00056682	0.00058338	0.00016577	1391.7	6.4662e-06	6.6147e-06	1388.5	376.76	6.602e-06	6.2845e-06	429.93	143.81	125.27	43.161	6.2553e-06	53.34	224.794	264.154	260.960	187.718	294.274	324.359	187.686	192.316	300.916	318.810	192.010	196.179	196.502	201.445	300.087	200.616	-8191	255	
906.282	1	1	0	0	0.15891	0.12126	0.15377	0.10638	0.11157	0.17567	0.41166	0.21826	0.12767	0.12801	0.086271	0.15962	0.068169	0.086614	0.11042	0.27166	-2.6375	-3.6063	-3	-3.6167	-3.7062	-2.9854	-3.8875	-3.325	-3.075	-3.7875	-2.9833	-3.3979	-3.6979	-2.8354	-3.5563	-3.4521	322.623	518.451	314.203	474.634	205.805	189.470	499.801	458.319	199.984	416.730	396.713	489.014	231.818	459.868	376.570	227.046	0.00042958	0.00036173	0.0001158	1374.6	3.1685e-06	4.6284e-06	1370.2	370.65	4.5295e-06	3.9241e-06	422.65	140.53	122.58	42.257	4.6176e-06	51.989	0.00056873	0.00058769	0.00016252	1390.6	6.493e-06	6.6261e-06	1388.4	376.65	6.7056e-06	6.4094e-06	429.8	144.17	125.29	43.214	6.3583e-06	53.424	226.063	269.615	240.331	187.717	328.376	326.647	187.766	192.260	309.630	338.084	191.873	196.089	196.416	201.262	294.642	200.537	-8191	255	
906.379	1	1	0	0	0.081357	0.25485	0.34849	0.043897	0.14657	0.13386	0.45172	0.25802	0.27825	0.28376	0.16452	0.066417	0.19819	0.12383	0.35777	0.20902	-2.7833	-3.7062	-3.1312	-3.3771	-3.6271	-3.0042	-3.7938	-3.6479	-2.8063	-3.6021	-3.2417	-3.3417	-3.8	-3.0208	-3.475	-3.4917	258.321	501.526	206.321	284.502	284.575	312.021	442.028	253.408	288.289	278.776	501.978	347.090	474.645	234.233	226.181	381.935	0.0004636	0.00065362	0.00016903	1375.1	3.2342e-06	4.7622e-06	1370	371.12	6.1555e-06	4.647e-06	421.99	140.38	122.09	42.14	5.0427e-06	52.021	0.0005782	0.00057734	0.0001626	1390.8	6.3152e-06	6.4567e-06	1388.3	376.91	6.7236e-06	6.2959e-06	430.01	143.83	125.13	43.161	6.3969e-06	53.33	227.928	269.918	248.237	187.855	311.899	331.091	187.706	192.251	303.295	319.813	191.900	196.008	196.374	201.374	305.494	200.576	-8191	255	
906.475	1	1	0	0	0.088716	0.084247	0.2576	0.21552	0.2082	0.11991	0.15043	0.15915	0.34563	0.1233	0.18395	0.3548	0.15228	0.23235	0.056691	0.18987	-2.5312	-3.6771	-3.1958	-3.3083	-3.8271	-2.9958	-3.6604	-3.7708	-2.9229	-3.6292	-3.2771	-3.0958	-3.7812	-2.9938	-3.3021	-3.8312	529.128	179.458	445.905	501.911	183.016	412.138	177.974	450.546	468.165	488.623	481.837	515.118	477.234	367.754	411.654	258.463	0.00044945	0.00044552	0.0001437	1373.9	4.9462e-06	4.458e-06	1370	369.27	3.9568e-06	4.7289e-06	421.2	139.95	121.95	41.927	4.0906e-06	51.763	0.00058111	0.00057904	0.00016112	1388.7	6.537e-06	6.5895e-06	1389.2	376.08	6.5265e-06	6.1738e-06	428.82	143.42	124.96	43.074	6.3406e-06	53.203	223.619	250.409	274.795	187.847	310.183	302.876	187.663	192.404	328.857	313.493	192.024	196.010	196.823	201.355	323.230	200.742	-8191	255	
906.571	1	1	0	0	0.14496	0.15677	0.13067	0.13571	0.21129	0.14412	0.22834	0.15362	0.21615	0.18266	0.31775	0.09978	0.20434	0.065746	0.10586	0.2516	-2.5333	-3.6458	-3.2979	-3.1688	-3.7438	-3.0021	-3.3292	-3.825	-3.0229	-3.6771	-3.425	-3.0229	-3.7125	-3.0229	-3.0875	-3.6458	319.229	348.382	469.642	438.874	297.026	433.009	523.309	481.870	483.826	421.865	515.068	187.734	226.912	486.699	215.848	323.855	0.00044211	0.00050073	0.00013969	1369	4.2623e-06	3.5002e-06	1369.3	371.04	5.1505e-06	6.0311e-06	421.88	140.06	122.11	41.999	4.3552e-06	52.021	0.00054719	0.00055325	0.00016022	1388.1	6.2361e-06	6.3547e-06	1387.1	376.44	6.4113e-06	6.1456e-06	429.52	143.69	125.04	43.007	6.4408e-06	53.267	231.015	256.491	254.458	187.891	335.780	284.058	187.826	192.169	321.533	296.033	191.809	195.943	196.487	201.142	328.321	200.437	-8191	255	
906.667	1	1	0	0	0.09526	0.13429	0.15074	0.42452	0.083602	0.11752	0.26183	0.27253	0.27359	0.20211	0.30695	0.1074	0.22623	0.19147	0.062971	0.084651	-2.5563	-3.5875	-3.3417	-3.1	-3.5812	-3.1354	-3.3667	-3.8208	-2.8771	-3.3396	-3.6292	-2.9208	-3.7083	-3.2812	-3.1292	-3.8208	184.513	481.774	227.127	492.725	341.669	279.858	437.969	475.808	506.960	235.792	182.519	466.213	198.283	508.946	234.384	174.999	0.00046941	0.0006374	0.00018726	1373.5	4.075e-06	5.3798e-06	1364.3	367.99	5.5702e-06	5.8463e-06	421.87	140.5	121.84	42.01	3.3054e-06	51.873	0.00056933	0.00057039	0.00016235	1388.3	6.2107e-06	6.3012e-06	1385.7	375.43	6.4129e-06	6.1966e-06	429.6	143.6	124.77	43.055	6.6132e-06	53.308	225.803	278.068	253.222	187.879	312.488	297.738	187.587	192.077	310.622	367.877	191.989	195.987	196.418	201.188	322.106	200.740	-8191	255	
906.763	1	1	0	0	0.048599	0.10413	0.067893	0.20952	0.064864	0.085919	0.20795	0.22684	0.13166	0.14939	0.033448	0.1251	0.10505	0.15725	0.33924	0.16471	-2.6167	-3.3146	-3.6292	-3.1375	-3.6792	-3.2521	-3.0896	-3.9479	-2.9667	-3.2354	-3.7562	-2.9542	-3.6146	-3.4667	-2.9833	-3.8146	180.490	503.569	373.329	470.595	444.398	273.328	427.629	432.203	394.619	460.856	326.974	505.678	419.684	481.977	182.216	460.552	0.00046397	0.00059593	0.00013394	1370.6	4.1745e-06	2.9466e-06	1365.8	369.83	4.7972e-06	3.1488e-06	423.8	139.55	122.12	42.051	3.7683e-06	51.84	0.00055472	0.00057752	0.00015643	1387.3	6.1237e-06	6.1038e-06	1385.3	375.98	6.0987e-06	6.2942e-06	429.89	143.4	125.23	43.002	6.2903e-06	53.178	226.160	267.941	258.920	187.671	312.267	291.777	187.676	192.209	309.372	316.372	191.930	195.963	196.461	201.760	315.592	200.723	-8191	255	
906.859	1	1	0	0	0.17188	0.11698	0.23182	0.27106	0.029649	0.21621	0.11132	0.10759	0.019101	0.23182	0.07125	0.084901	0.24045	0.173	0.12521	0.04504	-2.6896	-3.1708	-3.7458	-2.8604	-3.6083	-3.5438	-3.05	-3.7979	-3.2313	-3.1667	-3.7646	-3.075	-3.5187	-3.5458	-2.8438	-3.7167	422.691	275.095	247.504	505.164	426.538	268.095	487.736	497.839	278.652	484.186	273.097	308.525	532.786	484.693	212.690	204.644	0.00044115	0.00026017	0.00018895	1371	2.2733e-06	5.3701e-06	1366.6	370.73	4.5634e-06	5.2768e-06	421.71	139.88	122.06	42.07	2.7635e-06	51.913	0.0005395	0.00056474	0.00015437	1387.4	5.8658e-06	5.9655e-06	1384.8	375.94	6.0561e-06	6.1653e-06	428.51	143.48	124.84	43.058	6.1952e-06	53.246	226.241	278.495	233.064	187.878	308.082	314.144	187.586	192.490	318.869	322.424	192.291	196.253	196.981	201.681	324.201	200.957	-8191	255	
906.978	1	1	0	0	0.16973	0.28591	0.12563	0.32156	0.16993	0.10762	0.20706	0.10088	0.036715	0.12434	0.31817	0.1619	0.021806	0.19472	0.04924	0.0635	-2.8563	-3.0646	-3.6813	-3.1562	-3.3563	-3.4396	-3	-3.8854	-3.1667	-3.1604	-3.7875	-3.025	-3.4604	-3.525	-2.9583	-3.6917	520.979	509.640	366.851	179.175	327.479	434.157	487.859	462.839	346.344	190.858	253.849	211.114	487.156	370.244	177.738	517.873	0.00042916	0.00038674	7.996e-05	1370.4	4.5821e-06	5.5567e-06	1362.6	370.58	4.8692e-06	2.9704e-06	421.44	139.74	121.84	41.991	6.3022e-06	51.961	0.00053126	0.00057185	0.00015045	1385.1	6.022e-06	6.0378e-06	1383.4	375.74	6.1331e-06	6.1977e-06	428.36	143.57	124.94	43.011	6.2747e-06	53.315	225.118	262.956	237.103	187.929	318.578	339.945	187.764	192.492	319.679	333.656	192.249	196.253	196.990	201.269	302.962	200.912	-8191	255	
907.074	1	1	0	0	0.26749	0.31174	0.14585	0.29558	0.192	0.21843	0.24011	0.21731	0.14726	0.17865	0.13407	0.28606	0.33676	0.033742	0.2029	0.24836	-2.9417	-2.875	-3.5583	-3.225	-3.2562	-3.6104	-3.1312	-3.6625	-3.4146	-3.0958	-3.9271	-2.9938	-3.2854	-3.7271	-2.7208	-3.8479	206.416	213.757	215.150	195.075	467.080	389.156	458.933	500.321	522.478	258.620	269.021	408.182	446.036	481.491	253.178	479.086	0.00045246	0.00048855	0.00016937	1369.5	3.0388e-06	5.6889e-06	1366	369.32	5.1118e-06	4.633e-06	422.81	140.09	121.68	42.017	4.2589e-06	51.763	0.00055025	0.00057809	0.00015776	1385.5	6.1566e-06	6.1817e-06	1383	375.93	6.317e-06	6.342e-06	429.55	143.49	125.04	43.045	6.3682e-06	53.342	225.719	250.474	282.037	187.999	330.478	327.637	187.784	192.611	308.738	290.126	191.986	196.160	196.729	201.471	326.644	200.867	-8191	255	
907.170	1	1	0	0	0.031388	0.12108	0.15325	0.26228	0.13936	0.10594	0.28216	0.25314	0.071659	0.22588	0.45738	0.1376	0.16161	0.11215	0.051621	0.18466	-3.1646	-2.9958	-3.6396	-3.2333	-3.1083	-3.6146	-3.0687	-3.6771	-3.4521	-2.8187	-3.8688	-3.1729	-3.2646	-3.8521	-2.95	-3.5604	357.467	353.265	293.214	482.554	214.384	439.078	493.960	466.789	189.278	203.459	470.746	445.199	531.829	355.183	396.296	439.746	0.00045163	0.00048292	0.00010742	1367.7	4.1024e-06	3.4177e-06	1362.2	369.63	4.7232e-06	2.7344e-06	421.89	139.75	121.74	41.952	3.793e-06	51.872	0.00055486	0.00059723	0.00015811	1385.1	6.4943e-06	6.3414e-06	1382.8	376.04	6.3083e-06	6.3639e-06	428.9	143.4	124.95	43.009	6.3775e-06	53.339	224.320	273.375	251.335	187.975	315.828	335.535	188.029	192.590	301.228	289.374	192.051	196.043	196.587	201.505	329.187	200.925	-8191	255	
907.267	1	1	0	0	0.050706	0.13841	0.16174	0.4308	0.12011	0.20158	0.18711	0.21207	0.058409	0.081842	0.059635	0.35059	0.12711	0.10897	0.28652	0.13092	-3.2375	-2.6542	-3.6354	-3.3063	-3.0042	-3.5938	-3.0729	-3.3625	-3.7208	-2.9083	-3.6937	-3.5	-3.0354	-3.8063	-3.075	-3.5187	338.360	487.266	341.325	500.087	236.433	335.062	176.804	189.618	525.110	376.336	315.941	482.190	430.775	495.393	339.473	411.546	0.00047327	0.00049862	9.0249e-05	1371.4	2.9466e-06	4.818e-06	1361.4	369.32	6.4001e-06	7.0296e-06	421.82	140.04	122.42	42.064	3.9888e-06	51.853	0.00056146	0.00060108	0.00015633	1386.5	6.4224e-06	6.3471e-06	1380.7	375.56	6.4238e-06	6.3665e-06	429.42	143.53	124.94	43.104	6.3657e-06	53.321	226.565	247.722	260.874	187.947	351.077	309.254	187.818	192.428	318.190	331.790	192.018	196.285	196.669	201.486	327.236	200.946	-8191	255	
907.363	1	1	0	0	0.19242	0.1375	0.17501	0.29623	0.058805	0.09556	0.33753	0.22981	0.061795	0.12542	0.25521	0.093467	0.075188	0.10796	0.05797	0.1191	-3.1292	-2.8792	-3.5375	-3.5021	-2.9958	-3.7188	-3.3542	-3.3667	-3.6979	-2.9688	-3.7875	-3.3417	-2.8229	-3.8792	-3.1833	-3.2875	260.124	215.278	375.724	482.742	489.217	364.950	451.429	369.703	313.811	235.436	485.156	407.217	251.811	219.460	305.178	501.704	0.00046187	0.00064219	0.00011436	1374.6	3.2093e-06	3.3288e-06	1360.1	369.78	5.1585e-06	3.6731e-06	422.34	139.78	122.17	42.112	5.1437e-06	51.777	0.00055922	0.00060019	0.0001594	1387.1	6.5211e-06	6.3372e-06	1382.9	376.1	6.2396e-06	6.4339e-06	428.79	143.31	124.99	43.075	6.2725e-06	53.324	224.560	296.267	239.413	187.975	288.679	299.729	187.416	192.652	326.637	298.460	191.841	196.103	196.546	201.613	300.563	201.052	-8191	255	
907.459	1	1	0	0	0.13199	0.39854	0.023703	0.10999	0.15798	0.039212	0.45886	0.085158	0.082937	0.055404	0.45636	0.11049	0.21915	0.14506	0.16225	0.071084	-3.45	-2.9188	-3.4833	-3.7438	-2.8583	-3.7229	-3.3917	-3.1917	-3.8	-3.0062	-3.4479	-3.6562	-2.8771	-3.8458	-3.3542	-3.05	339.832	433.572	292.820	218.385	319.258	328.504	468.161	421.260	515.281	256.960	450.814	287.734	265.747	512.834	530.153	507.272	0.00045474	0.0004661	0.00016092	1370.9	3.1723e-06	4.5925e-06	1363.7	369.79	5.0823e-06	6.4902e-06	420.18	139.84	121.6	41.942	4.6785e-06	51.988	0.00056459	0.00057593	0.00016181	1386	6.3932e-06	6.2499e-06	1382.6	376.08	6.1679e-06	6.2578e-06	428.57	143.32	124.81	43.078	6.3553e-06	53.312	227.035	256.159	247.857	187.983	325.194	328.748	187.801	192.590	311.013	341.541	192.113	196.248	196.722	201.598	319.924	200.920	-8191	255	
907.580	1	1	0	0	0.10815	0.19419	0.025821	0.11983	0.1169	0.1849	0.34724	0.20193	0.068613	0.21476	0.10257	0.12494	0.19607	0.18944	0.18605	0.089309	-3.4208	-2.8917	-3.4042	-3.7646	-2.8042	-3.6042	-3.4354	-3.3042	-3.8354	-2.9938	-3.4562	-3.7479	-2.8375	-3.5042	-3.3417	-2.9917	379.759	473.252	237.776	470.636	507.004	208.144	522.581	405.272	312.696	339.707	324.477	524.241	444.398	462.561	528.493	514.946	0.0004538	0.00038728	0.00020179	1370.4	2.8694e-06	3.8413e-06	1362.6	368.83	4.5207e-06	5.2605e-06	420.57	140.22	121.94	42.043	5.4638e-06	51.824	0.00056677	0.00059313	0.00016555	1384.6	6.5572e-06	6.3196e-06	1382.9	375.35	6.3345e-06	6.4945e-06	428.66	143.37	124.9	43.018	6.3223e-06	53.254	225.543	242.709	263.309	187.910	299.187	319.604	187.784	192.612	305.242	292.750	192.269	196.290	196.747	201.621	318.806	200.987	-8191	255	
907.676	1	1	0	0	0.15674	0.19255	0.18022	0.14483	0.051795	0.083796	0.18956	0.10806	0.20163	0.18052	0.17638	0.12261	0.078347	0.098489	0.15696	0.40441	-3.5062	-3.1875	-3.0312	-3.8563	-2.9583	-3.6583	-3.6042	-3.1292	-3.8042	-3.1417	-3.1688	-3.8833	-2.9083	-3.5229	-3.5917	-3.0771	207.793	409.740	249.667	479.374	179.534	529.882	523.557	519.629	408.240	504.830	232.672	443.002	525.049	466.655	432.500	435.594	0.00044358	0.00032006	0.00016352	1372.4	2.6106e-06	4.4162e-06	1364.7	368.69	4.8163e-06	5.3592e-06	422.23	139.6	121.85	42.08	5.9392e-06	51.94	0.00056293	0.00058199	0.00016637	1385.7	6.6041e-06	6.2995e-06	1382.3	374.94	6.3679e-06	6.4794e-06	429.07	143.17	124.88	43.049	6.5285e-06	53.196	223.509	261.058	247.576	187.949	314.593	294.787	187.984	192.506	312.882	321.258	192.255	196.431	196.809	201.534	293.165	200.998	-8191	255	
907.770	1	1	0	0	0.090969	0.11868	0.16004	0.18471	0.06405	0.14818	0.22774	0.451	0.21633	0.16788	0.17988	0.010171	0.38171	0.3348	0.07156	0.21934	-3.2958	-3.0729	-3.0625	-3.9646	-3.1125	-3.3646	-3.8667	-2.8875	-3.7687	-3.4146	-3.0292	-3.9729	-2.9354	-3.3375	-3.8063	-2.8208	475.027	506.902	496.987	512.036	316.442	228.305	408.965	180.032	388.340	430.035	524.318	533.421	499.267	512.325	402.940	526.113	0.00045756	0.00083746	0.00014468	1373.2	3.6421e-06	5.5806e-06	1359.3	368.62	4.6366e-06	4.2462e-06	421.9	140.19	122.16	41.861	5.0896e-06	51.76	0.00056973	0.00059921	0.00016668	1385.6	6.5975e-06	6.5467e-06	1381.8	375.26	6.3808e-06	6.4359e-06	429.07	143.61	124.97	43.01	6.4408e-06	53.211	228.242	253.411	277.589	188.004	303.935	326.135	187.937	192.587	309.961	321.563	192.122	196.320	196.518	201.731	303.838	201.053	-8191	255	
907.866	1	1	0	0	0.061152	0.23561	0.1978	0.13372	0.087592	0.09058	0.14604	0.24166	0.17239	0.1841	0.17992	0.19976	0.2746	0.25284	0.11486	0.29135	-3.3375	-3.4208	-2.8667	-3.8583	-3.0875	-3.2042	-3.8583	-2.9562	-3.5292	-3.6125	-3.0812	-3.8812	-2.9813	-3.1312	-3.4625	-2.8563	197.416	338.599	356.460	516.993	196.754	383.401	524.052	498.987	256.625	198.523	527.440	483.013	513.079	458.909	466.433	511.671	0.00044432	0.00049181	0.00013575	1371.7	4.1929e-06	4.8095e-06	1365.4	369.44	5.7745e-06	4.1851e-06	422.87	140.03	122.02	42.18	6.6232e-06	51.795	0.00056481	0.00058245	0.00017218	1386.4	6.5423e-06	6.5496e-06	1384	375.33	6.5109e-06	6.4857e-06	429.06	143.47	124.83	43.099	6.4594e-06	53.263	225.819	284.543	256.116	188.313	315.064	299.201	187.867	192.857	316.010	356.649	192.223	196.135	196.761	201.704	315.561	200.712	-8191	255	
907.962	1	1	0	0	0.1372	0.047558	0.26129	0.21049	0.41982	0.12919	0.17109	0.14795	0.094609	0.071901	0.11582	0.015624	0.31469	0.099803	0.15064	0.33282	-3.275	-3.5125	-2.8646	-3.7812	-3.1354	-3.1396	-3.8479	-3.0854	-3.3729	-3.325	-2.9375	-3.7792	-3.3521	-3.1063	-3.6604	-2.9771	504.283	472.775	440.892	505.781	354.179	240.929	477.807	200.297	292.096	292.722	516.286	393.674	416.779	530.247	238.580	429.721	0.00046262	0.00034301	0.00012926	1370.8	4.0752e-06	3.4797e-06	1364.4	368.09	4.1649e-06	4.2331e-06	421.45	140.4	122.01	42.111	4.3464e-06	51.994	0.00055034	0.00058551	0.00016486	1385.8	6.3383e-06	6.4819e-06	1382.8	375.14	6.3877e-06	6.4271e-06	428.88	143.64	125.01	43.074	6.204e-06	53.313	225.159	271.157	250.587	188.145	302.435	275.274	187.877	192.543	331.249	326.334	192.403	196.188	196.780	201.965	316.286	201.049	-8191	255	
#DATA ENDS
