BOXY.EXE: ISS Imagent and Oximeter Data Acquisition Program Version 0.80
Ascii Record File

#ACQ INFORMATION
2  Detector Channels 
16  External MUX Channels 
1  Auxiliary Channels 
5000  Waveform (CCF) Frequency (Hz)
1  Waveforms Skipped 
30  Waveforms Averaged 
1  Cycles Averaged 
16  Acquisitions per Waveform 
10.0806  Updata Rate (Hz) 

#FILE INFORMATION
TRUE -- External MUX Channel results are PARSED.
FALSE -- AC DC and Phase are NOT grouped.
TRUE -- Companion Program Settings File CREATED.
FALSE -- AC data not excluded
FALSE -- DC data not excluded
FALSE -- Phase data not excluded
FALSE -- Auxillary Chn. data not excluded
Tab delimiters

#CALIBRATION STATE
TRUE -- Waveform Calibration Values APPLIED.


#AUX CALIBRATION VALUES
Val Type	aux-1	

Term	1.0000e+00	
Factor	0.0000e+00	


#WF CALIBRATION VALUES
A = Detector Channel
Val Type	A-AC1	A-AC2	A-AC3	A-AC4	A-AC5	A-AC6	A-AC7	A-AC8	A-AC9	A-AC10	A-AC11	A-AC12	A-AC13	A-AC14	A-AC15	A-AC16	A-DC1	A-DC2	A-DC3	A-DC4	A-DC5	A-DC6	A-DC7	A-DC8	A-DC9	A-DC10	A-DC11	A-DC12	A-DC13	A-DC14	A-DC15	A-DC16	A-Ph1	A-Ph2	A-Ph3	A-Ph4	A-Ph5	A-Ph6	A-Ph7	A-Ph8	A-Ph9	A-Ph10	A-Ph11	A-Ph12	A-Ph13	A-Ph14	A-Ph15	A-Ph16	

Term	0.00000e+00	0.00000e+00	0.00000e+00	0.00000e+00	0.00000e+00	0.00000e+00	0.00000e+00	0.00000e+00	0.00000e+00	0.00000e+00	0.00000e+00	0.00000e+00	0.00000e+00	0.00000e+00	0.00000e+00	0.00000e+00	0.00000e+00	0.00000e+00	0.00000e+00	0.00000e+00	0.00000e+00	0.00000e+00	0.00000e+00	0.00000e+00	0.00000e+00	0.00000e+00	0.00000e+00	0.00000e+00	0.00000e+00	0.00000e+00	0.00000e+00	0.00000e+00	0.00000e+00	0.00000e+00	0.00000e+00	0.00000e+00	0.00000e+00	0.00000e+00	0.00000e+00	0.00000e+00	0.00000e+00	0.00000e+00	0.00000e+00	0.00000e+00	0.00000e+00	0.00000e+00	0.00000e+00	0.00000e+00	
Factor	1.00000e+00	1.00000e+00	1.00000e+00	1.00000e+00	1.00000e+00	1.00000e+00	1.00000e+00	1.00000e+00	1.00000e+00	1.00000e+00	1.00000e+00	1.00000e+00	1.00000e+00	1.00000e+00	1.00000e+00	1.00000e+00	1.00000e+00	1.00000e+00	1.00000e+00	1.00000e+00	1.00000e+00	1.00000e+00	1.00000e+00	1.00000e+00	1.00000e+00	1.00000e+00	1.00000e+00	1.00000e+00	1.00000e+00	1.00000e+00	1.00000e+00	1.00000e+00	X	X	X	X	X	X	X	X	X	X	X	X	X	X	X	X	

B = Detector Channel
Val Type	B-AC1	B-AC2	B-AC3	B-AC4	B-AC5	B-AC6	B-AC7	B-AC8	B-AC9	B-AC10	B-AC11	B-AC12	B-AC13	B-AC14	B-AC15	B-AC16	B-DC1	B-DC2	B-DC3	B-DC4	B-DC5	B-DC6	B-DC7	B-DC8	B-DC9	B-DC10	B-DC11	B-DC12	B-DC13	B-DC14	B-DC15	B-DC16	B-Ph1	B-Ph2	B-Ph3	B-Ph4	B-Ph5	B-Ph6	B-Ph7	B-Ph8	B-Ph9	B-Ph10	B-Ph11	B-Ph12	B-Ph13	B-Ph14	B-Ph15	B-Ph16	

Term	0.00000e+00	0.00000e+00	0.00000e+00	0.00000e+00	0.00000e+00	0.00000e+00	0.00000e+00	0.00000e+00	0.00000e+00	0.00000e+00	0.00000e+00	0.00000e+00	0.00000e+00	0.00000e+00	0.00000e+00	0.00000e+00	0.00000e+00	0.00000e+00	0.00000e+00	0.00000e+00	0.00000e+00	0.00000e+00	0.00000e+00	0.00000e+00	0.00000e+00	0.00000e+00	0.00000e+00	0.00000e+00	0.00000e+00	0.00000e+00	0.00000e+00	0.00000e+00	-9.97839e+01	-1.27879e+02	-1.28521e+02	-1.82006e+02	-5.58992e+01	-7.33021e+01	-1.57810e+02	-1.62015e+02	-5.12818e+01	-6.74143e+01	-1.72403e+02	-1.70165e+02	-1.80574e+02	-1.76604e+02	-6.35904e+01	-1.48996e+02	
Factor	1.65874e-05	1.60630e-04	4.67225e-05	1.56642e-01	1.23825e-06	1.65992e-06	1.81458e-01	5.32774e-02	1.10927e-06	1.85625e-06	9.31568e-02	3.11199e-02	4.21576e-02	9.47623e-03	1.36244e-06	1.40405e-02	8.31017e-06	1.23189e-05	3.42039e-06	7.89887e-02	1.27350e-07	1.35954e-07	8.60234e-02	2.70087e-02	1.27156e-07	1.36589e-07	4.55214e-02	1.53836e-02	2.16466e-02	4.83925e-03	1.31139e-07	6.92868e-03	X	X	X	X	X	X	X	X	X	X	X	X	X	X	X	X	



#DISTANCE SETTINGS
A = Detector Channel
A-1	A-2	A-3	A-4	A-5	A-6	A-7	A-8	A-9	A-10	A-11	A-12	A-13	A-14	A-15	A-16	

2.5000e+00	3.0000e+00	2.5000e+00	3.0000e+00	2.0000e+00	3.0000e+00	1.5000e+00	3.0000e+00	3.0000e+00	3.0000e+00	3.0000e+00	3.0000e+00	3.0000e+00	3.0000e+00	1.5000e+00	3.0000e+00	

B = Detector Channel
B-1	B-2	B-3	B-4	B-5	B-6	B-7	B-8	B-9	B-10	B-11	B-12	B-13	B-14	B-15	B-16	

1.0000e+01	1.0000e+01	1.0000e+01	1.4400e+00	1.0000e+01	1.0000e+01	1.5100e+00	1.9400e+00	1.0000e+01	1.0000e+01	1.9900e+00	2.4900e+00	2.4100e+00	2.9000e+00	1.0000e+01	2.9800e+00	




#DATA BEGINS
time	group	step	mark	flag	A-AC1	A-AC2	A-AC3	A-AC4	A-AC5	A-AC6	A-AC7	A-AC8	A-AC9	A-AC10	A-AC11	A-AC12	A-AC13	A-AC14	A-AC15	A-AC16	A-DC1	A-DC2	A-DC3	A-DC4	A-DC5	A-DC6	A-DC7	A-DC8	A-DC9	A-DC10	A-DC11	A-DC12	A-DC13	A-DC14	A-DC15	A-DC16	A-Ph1	A-Ph2	A-Ph3	A-Ph4	A-Ph5	A-Ph6	A-Ph7	A-Ph8	A-Ph9	A-Ph10	A-Ph11	A-Ph12	A-Ph13	A-Ph14	A-Ph15	A-Ph16	B-AC1	B-AC2	B-AC3	B-AC4	B-AC5	B-AC6	B-AC7	B-AC8	B-AC9	B-AC10	B-AC11	B-AC12	B-AC13	B-AC14	B-AC15	B-AC16	B-DC1	B-DC2	B-DC3	B-DC4	B-DC5	B-DC6	B-DC7	B-DC8	B-DC9	B-DC10	B-DC11	B-DC12	B-DC13	B-DC14	B-DC15	B-DC16	B-Ph1	B-Ph2	B-Ph3	B-Ph4	B-Ph5	B-Ph6	B-Ph7	B-Ph8	B-Ph9	B-Ph10	B-Ph11	B-Ph12	B-Ph13	B-Ph14	B-Ph15	B-Ph16	aux-1	digaux	

1860.337	1	1	0	768	0.27255	0.16616	0.076659	0.2931	0.11324	0.10402	0.24058	0.1622	0.040314	0.05563	0.045896	0.10999	0.14469	0.19938	0.15262	0.14709	-2.7687	-2.9271	-3.5333	-3.0021	-3.1771	-3.4833	-2.9313	-3.5438	-3.15	-2.8354	-3.8208	-2.7771	-3.2125	-3.5896	-2.7479	-3.6188	83.786	-61.683	146.706	148.015	-26.185	-75.453	181.424	86.998	-128.268	59.993	6.079	118.545	-90.295	143.636	149.388	142.568	0.00064996	0.00062359	0.00017596	660.51	4.991e-06	6.6595e-06	658.57	274.02	3.7315e-06	6.0073e-06	324.04	151.22	130.54	78.831	4.9039e-06	92.528	0.00043409	0.00025716	6.5964e-05	692.3	2.7306e-06	2.6171e-06	693.62	291.58	2.7074e-06	2.8453e-06	341.83	161.85	140.33	84.471	3.1424e-06	98.801	-133.892	-69.762	-62.643	-141.627	-1.113	-18.122	-142.741	-134.889	-31.173	-4.050	-136.905	-132.191	-129.856	-125.139	-23.345	-128.352	-8191	255	
1860.434	1	1	0	0	0.16402	0.22	0.24627	0.14451	0.26706	0.104	0.19205	0.14276	0.14816	0.16592	0.15602	0.15784	0.14581	0.26838	0.1491	0.13584	-2.825	-2.8375	-3.6104	-3.1688	-2.9437	-3.6021	-2.75	-3.5625	-3.2917	-2.7833	-3.6729	-3.1333	-3.0438	-3.7417	-2.6958	-3.375	2.963	-122.590	-140.427	-65.457	195.762	110.332	84.440	199.816	148.787	-134.909	181.374	126.788	95.372	-149.559	92.953	105.459	0.00067817	0.00059062	0.0002048	658.87	4.1825e-06	4.9122e-06	654.33	274.25	4.3101e-06	4.7701e-06	321.18	149.9	130.39	78.651	4.8938e-06	91.931	0.00043177	0.00026075	6.8016e-05	691.12	2.7449e-06	2.6556e-06	689.61	290.94	2.7611e-06	2.7574e-06	338.76	160.36	139.88	84.209	3.1665e-06	97.942	-131.309	-72.940	-61.400	-141.605	3.903	-3.051	-142.594	-134.679	-6.415	-5.595	-137.108	-132.282	-129.771	-125.118	-25.637	-128.166	-8191	255	
1860.530	1	1	0	0	0.29107	0.066324	0.18748	0.23713	0.29547	0.14275	0.18625	0.10909	0.14015	0.015293	0.24751	0.12577	0.25634	0.3559	0.033772	0.039353	-3.0438	-2.6875	-3.5125	-3.0042	-3.0854	-3.6292	-2.775	-3.375	-3.3875	-2.7792	-3.6271	-3.3104	-2.7083	-3.7188	-2.7167	-3.1875	-11.992	-91.253	35.516	176.511	-26.762	-58.502	-72.153	161.148	-148.196	-19.636	111.493	-70.259	7.750	197.912	26.466	-77.594	0.0006581	0.00051492	0.00016954	655.67	3.3723e-06	6.181e-06	651.76	272.42	4.595e-06	5.1226e-06	319.34	150	129.62	78.366	4.4714e-06	91.484	0.00043196	0.00025731	7.0068e-05	687.36	2.7699e-06	2.597e-06	686.04	290.12	2.7211e-06	2.7656e-06	337.76	160.29	139.57	84.076	3.0681e-06	97.876	-132.648	-44.312	-57.832	-141.714	26.042	1.630	-142.760	-135.011	-5.805	-6.541	-136.942	-132.138	-129.451	-124.937	-12.939	-128.167	-8191	255	
1860.626	1	1	0	0	0.25495	0.24297	0.060543	0.19195	0.038835	0.13723	0.16631	0.10347	0.18375	0.14337	0.17949	0.12174	0.24231	0.2274	0.19243	0.1262	-2.9229	-2.6083	-3.3104	-3.2542	-2.8	-3.7208	-3.0958	-3.2562	-3.5208	-2.8104	-3.4229	-3.3896	-2.8063	-3.8042	-3.0208	-3.1146	2.844	-83.973	103.776	97.069	68.067	81.990	79.829	200.042	109.974	167.555	-87.828	-136.675	-68.387	112.270	200.035	-53.056	0.00067362	0.00055055	0.00014621	653.05	4.3536e-06	4.8082e-06	653.24	273.17	2.799e-06	7.0367e-06	322.08	150.19	129.92	78.585	5.6537e-06	91.978	0.00043183	0.00025423	6.9598e-05	686.67	2.7622e-06	2.665e-06	687.74	290.44	2.6711e-06	2.8948e-06	339.35	160.67	139.65	84.15	3.1173e-06	98.179	-132.929	-49.553	-77.858	-141.540	8.703	-4.774	-142.557	-134.591	-30.253	7.066	-137.048	-132.079	-129.657	-125.114	-30.293	-128.058	-8191	255	
1860.720	1	1	0	0	0.16182	0.23011	0.14414	0.088116	0.10206	0.2192	0.27001	0.33597	0.20334	0.20989	0.15397	0.24556	0.12555	0.21737	0.14211	0.17066	-3.1833	-2.7917	-3.3583	-3.2979	-2.7625	-3.5104	-2.9333	-3.0354	-3.475	-2.7729	-3.3396	-3.5896	-2.7438	-3.9125	-3.1562	-3.0208	199.599	31.789	89.752	202.185	77.803	207.185	98.319	171.941	118.829	71.316	134.836	138.730	134.941	63.221	80.360	186.393	0.00066889	0.00057337	0.00016671	655.09	4.5227e-06	5.2573e-06	656.49	273.73	3.5739e-06	7.1712e-06	321.34	151.4	130.39	78.841	4.2142e-06	91.823	0.00043242	0.00025492	7.2348e-05	687.33	2.7879e-06	2.6871e-06	688.73	290.34	2.785e-06	2.7762e-06	339.79	161.58	139.92	84.229	3.0725e-06	98.342	-131.656	-56.941	-58.502	-141.427	-14.802	-2.717	-142.450	-134.705	-10.210	-7.944	-136.798	-131.961	-129.652	-124.949	-21.260	-128.050	-8191	255	
1860.818	1	1	0	0	0.19815	0.10933	0.10915	0.10291	0.064652	0.024595	0.26442	0.1309	0.27077	0.16056	0.1229	0.38415	0.12551	0.33567	0.19855	0.15354	-3.0938	-2.7167	-3.2125	-3.3583	-2.7979	-3.5229	-3.2146	-2.9271	-3.6271	-2.9208	-3.1104	-3.6146	-2.7646	-3.5438	-3.1917	-2.9313	29.329	-42.565	199.093	-97.356	54.630	185.731	53.346	-89.042	184.617	67.893	158.119	-142.544	138.744	172.933	-115.349	106.971	0.00067653	0.00055903	0.00016986	657.27	5.0547e-06	5.0245e-06	656.86	273.91	4.0221e-06	5.3144e-06	322.5	150.76	129.96	78.527	5.6332e-06	91.636	0.00043641	0.0002558	7.289e-05	688.94	2.7863e-06	2.6675e-06	692.73	290.92	2.8488e-06	2.7392e-06	340.33	161.2	139.42	83.982	3.005e-06	97.918	-132.439	-59.755	-63.943	-141.500	-2.858	-13.585	-142.517	-134.786	-7.464	7.891	-136.861	-132.044	-129.734	-124.762	-28.553	-128.157	-8191	255	
1860.937	1	1	0	0	0.13346	0.2129	0.25462	0.06003	0.1059	0.15646	0.060351	0.014453	0.11683	0.20731	0.056371	0.15147	0.13691	0.031971	0.15429	0.05441	-3.3875	-2.7854	-2.9792	-3.6354	-2.8396	-3.3187	-3.5125	-2.7604	-3.6271	-3.3333	-3.1688	-3.525	-2.8208	-3.5042	-3.3917	-3.0312	-39.683	76.024	69.875	-135.101	88.888	151.921	-67.199	68.193	-34.039	70.750	174.872	176.129	107.339	154.875	59.118	101.205	0.00065368	0.00062631	0.0001854	654.95	3.2395e-06	4.8516e-06	649.14	272.19	4.074e-06	6.7369e-06	319.66	149.38	129.75	77.993	5.0914e-06	90.987	0.0004323	0.00025546	7.1985e-05	687.55	2.7492e-06	2.6488e-06	686.04	289.53	2.7696e-06	2.7608e-06	337.11	159.73	138.93	83.575	2.9293e-06	97.035	-133.223	-69.343	-68.398	-141.384	2.970	-1.496	-142.890	-134.710	-9.912	-2.509	-136.956	-131.895	-129.635	-124.928	-26.232	-128.292	-8191	255	
1861.033	1	1	0	0	0.10697	0.30109	0.19536	0.23563	0.21641	0.099163	0.23308	0.2485	0.18292	0.064727	0.065806	0.084691	0.20692	0.31058	0.17846	0.028495	-3.3083	-2.9562	-2.9604	-3.6708	-2.7396	-3.3396	-3.65	-2.7542	-3.4646	-3.0646	-3.0542	-3.65	-2.9083	-3.4896	-3.4417	-2.8458	6.407	50.902	116.860	199.308	64.672	197.973	-128.544	-132.157	-121.939	-119.148	204.603	168.597	81.250	171.685	-65.280	-45.480	0.00063902	0.00060022	0.00018982	656.14	3.3739e-06	5.8075e-06	653.66	272.38	4.0499e-06	6.3892e-06	319.84	149.53	129.43	78.231	4.644e-06	91.108	0.00043132	0.00024586	7.0859e-05	687.95	2.7701e-06	2.7194e-06	687.17	289.21	2.7935e-06	2.6919e-06	337.58	159.86	138.85	83.678	2.9077e-06	97.414	-130.655	-53.401	-57.353	-141.366	0.825	-6.811	-142.464	-134.841	-14.721	-2.638	-137.103	-132.172	-129.748	-124.781	-18.549	-128.126	-8191	255	
1861.129	1	1	0	0	0.25296	0.093124	0.20285	0.18248	0.30468	0.10627	0.11004	0.30946	0.038554	0.15846	0.099712	0.17317	0.26944	0.11703	0.15628	0.25966	-3.0625	-3.1188	-2.9833	-3.7313	-2.7396	-3.1583	-3.5312	-2.8104	-3.4021	-3.2979	-3.0938	-3.7708	-3.0396	-3.1688	-3.5625	-2.9042	-58.846	-126.608	170.640	126.563	176.688	-31.344	61.695	91.107	81.333	201.839	188.715	197.799	-152.434	-97.123	-89.779	-125.915	0.00065069	0.00062814	0.00016875	655.55	3.8779e-06	5.2944e-06	653.96	272.47	5.2362e-06	5.5992e-06	320.6	150.19	129.35	78.111	5.1618e-06	91.741	0.00042697	0.00024525	7.3082e-05	688.2	2.7685e-06	2.6369e-06	688.79	289.51	2.9479e-06	2.606e-06	338.85	160.61	138.79	83.653	2.9389e-06	97.876	-135.079	-59.414	-54.928	-141.517	9.922	-17.504	-142.748	-134.755	-3.030	-18.337	-136.711	-131.999	-129.545	-124.939	-26.951	-128.092	-8191	255	
1861.226	1	1	0	0	0.022287	0.17202	0.057927	0.30966	0.18555	0.26223	0.15226	0.057683	0.16736	0.039609	0.1636	0.14846	0.28211	0.46406	0.10809	0.13853	-3.0125	-3.1604	-2.6833	-3.7875	-2.9896	-3.1229	-3.7	-2.8771	-3.2562	-3.3646	-2.9417	-3.5854	-3.2979	-3.125	-3.4458	-2.9313	39.934	-99.971	125.481	145.864	104.030	53.104	118.041	77.811	-26.612	165.117	15.517	129.638	-133.692	-110.445	-24.800	93.817	0.00067282	0.00063339	0.00018552	657.58	4.4938e-06	4.3602e-06	656.54	272.65	3.6941e-06	5.8696e-06	321.41	151.11	129.77	78.016	4.7406e-06	91.945	0.00043327	0.00024515	7.2591e-05	687.56	2.7163e-06	2.7344e-06	689.99	289.71	2.8512e-06	2.5756e-06	340.18	161.28	139.05	83.799	3.0618e-06	98.322	-133.354	-70.102	-59.360	-141.370	-4.017	-21.984	-142.491	-134.826	-1.699	3.373	-136.926	-131.820	-129.691	-124.691	-30.333	-128.094	-8191	255	
1861.322	1	1	0	0	0.18032	0.23282	0.25129	0.16462	0.28513	0.34696	0.24523	0.061377	0.16388	0.24703	0.21127	0.17758	0.22323	0.18682	0.10569	0.34951	-3	-3.3208	-2.7	-3.5479	-3.0146	-2.8979	-3.5563	-2.9729	-3.1396	-3.3458	-2.8812	-3.3563	-3.2646	-2.9146	-3.5563	-3.0854	-120.606	92.191	169.948	166.036	184.212	-119.439	183.931	87.628	196.562	175.377	129.442	135.856	125.459	189.559	193.097	82.440	0.00068081	0.00053657	0.0001306	652.75	3.9176e-06	5.4906e-06	653.35	272.41	3.3929e-06	5.5419e-06	318.67	150.22	129.23	78.187	4.8113e-06	91.204	0.00043947	0.00025151	7.2106e-05	685.93	2.6945e-06	2.7372e-06	687.95	289.33	2.968e-06	2.647e-06	337.76	160.27	138.66	83.589	3.0099e-06	97.39	-133.397	-62.748	-75.573	-141.636	18.374	-9.163	-142.590	-134.736	-17.819	3.646	-136.894	-131.721	-129.530	-124.738	-26.789	-128.077	-8191	255	
1861.418	1	1	0	0	0.070822	0.11981	0.14713	0.21273	0.021449	0.37726	0.21107	0.36461	0.22638	0.056644	0.06042	0.17662	0.054915	0.12615	0.23795	0.047278	-2.7458	-3.4125	-2.5458	-3.5542	-3.1479	-2.7188	-3.5812	-2.9875	-3.0542	-3.5187	-2.7833	-3.3604	-3.3208	-2.9417	-3.5729	-3.1167	13.005	120.760	195.463	64.695	25.341	-122.032	122.832	175.602	-102.117	141.274	190.312	-147.924	-11.955	-143.118	12.373	-89.326	0.00063378	0.00053527	0.00016052	652.2	3.7151e-06	5.3576e-06	650.27	269.82	3.3211e-06	4.5587e-06	317.28	148.56	128.88	77.677	5.0754e-06	90.696	0.00043329	0.00025066	7.2377e-05	683.53	2.7462e-06	2.9001e-06	682.73	287.5	2.9903e-06	2.6071e-06	335.77	159.05	138.34	83.255	3.0637e-06	96.768	-131.795	-67.634	-82.508	-141.225	9.460	-22.385	-142.478	-134.531	-16.190	7.748	-136.843	-131.823	-129.473	-124.648	-27.367	-128.260	-8191	255	
1861.538	1	1	0	0	0.16602	0.28438	0.059774	0.21176	0.014041	0.22404	0.3941	0.27202	0.17768	0.12204	0.12029	0.14298	0.13443	0.38073	0.42006	0.3004	-2.3875	-3.65	-2.7729	-3.3521	-3.5229	-2.8125	-3.6375	-3.1458	-2.7729	-3.6437	-2.7917	-3.2875	-3.4271	-2.7812	-3.4104	-3.2208	165.966	162.563	174.753	189.390	-48.803	-113.233	183.260	114.433	25.615	-19.157	202.733	202.929	49.028	161.772	161.472	154.576	0.00066192	0.00058085	0.00016196	650.12	3.1444e-06	5.3424e-06	648.03	270.14	4.4326e-06	5.4079e-06	317.79	148.89	128.5	77.66	4.4715e-06	90.969	0.00043777	0.00025279	7.1629e-05	682.45	2.6608e-06	2.846e-06	682.24	287.32	3.0075e-06	2.6641e-06	335.86	159.36	138.08	83.221	3.1886e-06	97.113	-131.455	-69.886	-63.557	-141.141	-10.910	-5.779	-142.106	-134.704	0.099	5.628	-136.930	-131.910	-129.548	-124.794	-29.990	-128.129	-8191	255	
1861.633	1	1	0	0	0.18046	0.066104	0.16504	0.21498	0.090099	0.099601	0.20856	0.15969	0.082227	0.17401	0.17645	0.12175	0.20638	0.27322	0.062029	0.30073	-2.4542	-3.4854	-2.8604	-3.3229	-3.4875	-2.8292	-3.525	-3.1979	-2.8375	-3.525	-3.1583	-3.3063	-3.6125	-2.9604	-3.3146	-3.3063	-150.711	31.742	-128.776	197.384	-12.981	86.552	194.339	137.469	48.738	-127.451	123.746	-40.942	184.043	185.000	-129.562	174.926	0.00067492	0.00055636	0.00023186	650.36	4.4342e-06	6.6869e-06	648.83	271.05	5.0315e-06	7.4755e-06	319.24	149.98	129.3	77.771	4.9082e-06	91.577	0.0004469	0.00025885	7.2726e-05	681.93	2.695e-06	2.8168e-06	683.88	287.67	2.9974e-06	2.6734e-06	337.74	160.47	138.57	83.316	3.105e-06	97.732	-132.258	-67.198	-64.651	-141.425	-4.034	-6.457	-142.151	-134.639	-10.216	-14.094	-136.645	-131.698	-129.238	-124.798	-27.452	-127.896	-8191	255	
1861.729	1	1	0	0	0.18589	0.049784	0.19157	0.21409	0.20015	0.33361	0.28304	0.11618	0.14087	0.078141	0.2152	0.034092	0.043447	0.17909	0.048656	0.19689	-2.4354	-3.2792	-2.8958	-3.0979	-3.3688	-2.6167	-3.2479	-3.3458	-2.6146	-3.3625	-3.1854	-2.9562	-3.7167	-2.9958	-3.1437	-3.4437	24.537	200.449	115.698	-88.311	39.805	82.049	139.462	161.704	-139.005	-101.663	101.196	-25.705	203.088	192.242	28.603	144.787	0.00066373	0.00054971	0.00015091	649.18	3.9821e-06	4.2643e-06	651.22	271.3	3.577e-06	5.8736e-06	319.74	150.41	129.48	77.561	4.4873e-06	91.247	0.00044349	0.00025138	7.1493e-05	682	2.673e-06	2.8216e-06	687.04	288.09	2.9426e-06	2.7352e-06	338.96	160.96	138.75	83.341	3.2563e-06	97.596	-133.753	-57.384	-60.856	-141.334	1.409	-3.987	-142.296	-134.574	-1.238	8.721	-136.655	-131.675	-129.569	-124.683	-21.951	-128.013	-8191	255	
1861.825	1	1	0	0	0.2673	0.063688	0.39481	0.070642	0.053641	0.05985	0.3075	0.43226	0.055634	0.1667	0.080133	0.070982	0.32929	0.14719	0.10642	0.15249	-2.1708	-3.5083	-3.0125	-2.8375	-3.6479	-2.9313	-3.1271	-3.5354	-2.7167	-3.4958	-3.1375	-2.9625	-3.5438	-2.9188	-3.1604	-3.6479	-110.159	-39.965	-141.915	-118.318	-34.262	-47.239	-80.028	199.055	-54.409	-119.648	-145.618	81.639	127.425	131.385	92.536	105.549	0.00064986	0.00066217	0.00013935	647.03	3.2593e-06	4.6364e-06	650.68	269.9	3.5631e-06	5.3074e-06	318.67	149.33	128.62	77.2	3.7595e-06	90.5	0.00044594	0.00025839	6.9128e-05	680.13	2.6401e-06	2.8222e-06	683.41	287.24	2.9278e-06	2.7767e-06	336.41	159.42	138.1	82.859	3.2301e-06	96.634	-132.174	-56.512	-73.707	-141.300	-2.822	-0.830	-142.429	-134.447	-9.690	1.402	-136.824	-131.646	-129.445	-124.812	-13.528	-127.941	-8191	255	
1861.899	1	1	0	0	0.21332	0.12733	0.15393	0.05197	0.11135	0.046562	0.2964	0.12616	0.26363	0.23358	0.20251	0.15986	0.067469	0.19041	0.092551	0.062519	-2.2146	-3.1521	-3.2313	-2.8875	-3.3958	-2.775	-3.0875	-3.5312	-2.6104	-3.3646	-3.3833	-2.8583	-3.7333	-3.0646	-2.9792	-3.4583	59.070	146.644	-32.961	9.480	-34.810	47.757	187.792	168.743	100.961	2.409	201.298	188.089	94.743	-128.230	24.480	-113.686	0.00065872	0.00056626	0.00018798	647.62	3.0422e-06	5.4146e-06	646.23	269.85	3.9288e-06	6.842e-06	316.82	149	128.22	77.377	3.9487e-06	90.546	0.00044388	0.00025898	6.9569e-05	679.35	2.7165e-06	2.7851e-06	679.92	286.6	2.8886e-06	2.7722e-06	335.14	158.86	137.87	82.917	3.1558e-06	96.603	-132.574	-65.006	-67.048	-141.479	4.494	-18.293	-142.294	-134.583	-14.184	-1.611	-136.647	-131.753	-129.301	-124.714	-25.995	-127.935	-8191	255	
1862.017	1	1	0	0	0.13024	0.17438	0.063692	0.10914	0.11743	0.32517	0.23221	0.1109	0.048773	0.14131	0.21978	0.36851	0.12329	0.09323	0.25999	0.084103	-2.3792	-3.1646	-3.2042	-2.7479	-3.3708	-2.925	-2.9583	-3.6688	-2.8208	-3.2083	-3.55	-2.9021	-3.3875	-3.4396	-2.7854	-3.6375	-75.691	120.520	80.164	65.918	22.403	-22.737	147.235	-36.557	-19.110	-39.659	202.742	193.355	191.065	157.151	-59.433	26.169	0.00064469	0.00048145	0.00016934	645.9	5.0716e-06	6.0765e-06	645.56	269.77	4.4679e-06	6.5107e-06	316.85	148.36	128.63	77.542	4.3733e-06	91.073	0.00043743	0.00025903	7.0688e-05	678.15	2.8028e-06	2.7111e-06	680.62	286.92	2.9516e-06	2.8689e-06	335.3	159.02	137.9	83.139	3.2561e-06	97.271	-131.962	-70.513	-59.666	-141.161	4.453	-8.004	-142.341	-134.702	-10.568	-3.039	-136.903	-131.724	-129.330	-124.676	-18.374	-127.884	-8191	255	
1862.114	1	1	0	0	0.20065	0.014643	0.080534	0.30159	0.15457	0.10399	0.15411	0.22229	0.079422	0.25645	0.17345	0.19485	0.22274	0.24258	0.12213	0.26913	-2.4396	-3.0208	-3.4479	-2.8438	-3.4708	-3.1375	-2.8104	-3.7583	-2.85	-3.2333	-3.4333	-3.0104	-3.3792	-3.4917	-2.7062	-3.7188	184.139	115.983	-40.771	167.861	-4.786	187.718	-141.748	-145.634	67.280	161.616	203.999	145.000	179.158	173.816	-60.659	92.543	0.00066067	0.00064894	0.00021903	648.2	4.3135e-06	6.1318e-06	649.44	270.36	4.2252e-06	4.5827e-06	317.72	149.65	127.98	77.785	4.046e-06	91.706	0.00043938	0.00025913	6.8914e-05	680.06	2.8091e-06	2.6684e-06	684.61	286.85	2.8244e-06	2.7995e-06	337.29	160.26	137.88	83.341	3.1957e-06	97.928	-132.617	-79.415	-66.061	-141.217	8.205	-1.107	-142.223	-134.309	-5.799	-16.972	-136.550	-131.588	-129.240	-124.743	-18.034	-127.837	-8191	255	
1862.210	1	1	0	0	0.07705	0.046698	0.21947	0.25612	0.097306	0.071624	0.30634	0.096754	0.1415	0.12452	0.12054	0.058736	0.23523	0.37938	0.053614	0.083689	-2.6104	-3.0229	-3.5312	-2.7708	-3.3229	-3.4521	-2.8604	-3.725	-2.9854	-2.8708	-3.6458	-2.8021	-3.175	-3.5062	-2.6354	-3.625	-3.555	192.592	-88.252	100.924	193.557	-88.971	128.995	117.162	66.563	-51.957	142.086	194.101	-98.402	152.728	-108.551	-69.253	0.00066666	0.00056314	0.00016691	650.97	4.8826e-06	5.2224e-06	656.33	270.6	3.7555e-06	5.7559e-06	318.87	149.68	128.73	77.919	5.035e-06	91.512	0.00044023	0.00025995	6.9819e-05	683.41	2.8619e-06	2.6287e-06	688.52	287.49	2.9135e-06	2.7551e-06	338.15	160.11	138.08	83.257	3.1943e-06	97.642	-131.962	-70.986	-69.712	-141.315	-9.360	-10.318	-142.173	-134.553	-29.786	1.593	-136.660	-131.828	-129.256	-124.748	-17.784	-127.870	-8191	255	
1862.306	1	1	0	0	0.12592	0.20254	0.12896	0.077845	0.19196	0.088221	0.27174	0.16701	0.19604	0.037424	0.10669	0.14935	0.10876	0.19426	0.13982	0.15643	-2.5667	-2.6958	-3.5	-2.7313	-3.1583	-3.6083	-2.7854	-3.6479	-3.1688	-2.7292	-3.7167	-2.9188	-3.05	-3.6604	-2.7896	-3.5792	13.003	-7.839	186.736	180.108	-3.430	-21.820	113.117	111.326	-93.315	191.025	-52.737	146.367	-72.527	-133.771	-97.917	165.608	0.00064936	0.00062839	0.00014761	646.47	3.6936e-06	6.2585e-06	649.16	269.32	3.4963e-06	7.0544e-06	317.99	148.65	128.34	77.588	4.7118e-06	90.885	0.0004296	0.00026329	7.1679e-05	679.57	2.7484e-06	2.5251e-06	682.76	286.68	2.8496e-06	2.812e-06	335.5	158.83	137.7	83.079	3.134e-06	96.963	-132.713	-59.847	-66.482	-141.220	6.196	-4.504	-142.548	-134.609	-17.783	-7.087	-136.755	-131.745	-129.248	-124.594	-16.682	-127.773	-8191	255	
1862.427	1	1	0	0	0.093063	0.24602	0.20369	0.23331	0.11952	0.46246	0.042438	0.047319	0.015676	0.20353	0.12783	0.097378	0.21389	0.10208	0.23929	0.067873	-2.7708	-2.7333	-3.6375	-2.9125	-3.1729	-3.5417	-2.8146	-3.5771	-3.2333	-2.7313	-3.6646	-3.0625	-2.9708	-3.6354	-2.7125	-3.5521	97.782	0.256	135.144	160.293	139.793	154.086	-62.060	50.230	6.548	103.323	153.934	-27.986	182.994	100.225	78.508	125.763	0.0006751	0.00057997	0.00020638	651.18	4.3667e-06	4.7095e-06	647.38	269.16	3.2708e-06	6.3943e-06	317.74	148.55	128.41	77.693	4.9333e-06	91.375	0.0004381	0.00025577	7.0453e-05	681.12	2.7733e-06	2.6978e-06	681.34	286.21	2.825e-06	2.7981e-06	336.07	158.97	137.84	83.2	3.1115e-06	97.496	-133.723	-65.543	-62.413	-141.365	9.091	-5.823	-142.526	-134.523	-18.064	-12.520	-136.481	-131.790	-129.317	-124.473	-17.402	-127.765	-8191	255	
1862.498	1	1	0	0	0.12826	0.21728	0.25795	0.1414	0.050839	0.14914	0.10748	0.018745	0.16441	0.22384	0.20464	0.3686	0.27388	0.12811	0.26904	0.027531	-2.9208	-2.8187	-3.4958	-3.0604	-2.9896	-3.8187	-2.8958	-3.3	-3.3729	-2.6708	-3.6417	-3.3083	-3.0604	-3.6625	-2.8417	-3.3229	-114.516	134.057	55.952	85.840	-89.508	11.837	-99.106	52.080	153.157	193.029	143.672	193.162	175.940	-100.786	129.193	-49.451	0.0006584	0.00066503	0.00015502	649.32	3.4631e-06	5.8466e-06	650.32	270.64	3.9085e-06	6.8889e-06	320.3	149.91	129.48	78.523	5.1227e-06	92.303	0.00043007	0.00026196	7.0261e-05	680.56	2.9044e-06	2.6432e-06	685.07	287.2	2.786e-06	2.818e-06	337.84	160.57	138.77	83.92	3.1206e-06	98.455	-133.544	-72.012	-70.309	-141.162	-6.035	-1.868	-142.294	-134.254	-17.601	-6.415	-136.692	-131.817	-129.255	-124.559	-29.277	-127.628	-8191	255	
1862.619	1	1	0	0	0.05606	0.031341	0.17273	0.03425	0.21006	0.11905	0.23063	0.088939	0.08162	0.26515	0.18047	0.20103	0.13815	0.18046	0.13635	0.20834	-3.0146	-2.6167	-3.5417	-3.1562	-2.8937	-3.5438	-3.0396	-3.2625	-3.6417	-2.7479	-3.7083	-3.2729	-2.7896	-3.7	-2.9417	-3.2313	179.867	200.345	3.482	106.051	-147.922	-113.393	80.159	-98.302	-3.499	-11.576	-66.616	-66.658	129.341	-147.430	62.170	117.066	0.00064589	0.00055911	0.00016193	654.83	4.0902e-06	6.8582e-06	658.27	272.13	4.7859e-06	5.3262e-06	320.89	151.24	129.91	78.52	4.3615e-06	93.003	0.00043106	0.00026701	7.1629e-05	685.99	2.8914e-06	2.6916e-06	691.16	288.77	2.8915e-06	2.7526e-06	339.27	161.56	139.23	84.075	3.061e-06	99.285	-132.901	-54.671	-64.233	-141.134	3.358	-21.196	-142.304	-134.415	-11.413	-2.012	-136.351	-131.399	-129.095	-124.416	-24.981	-127.541	-8191	255	
1862.713	1	1	0	0	0.19818	0.10016	0.21992	0.26493	0.072872	0.16254	0.12109	0.17892	0.18607	0.069574	0.13799	0.21336	0.080162	0.2532	0.18127	0.15731	-3.1625	-2.7062	-3.2458	-3.3208	-2.7875	-3.6813	-3.0396	-3.0958	-3.6896	-2.7062	-3.4396	-3.4604	-2.7979	-3.7083	-3.1104	-3.0417	-109.277	-25.963	21.733	204.029	-132.976	-2.564	140.175	142.274	29.844	-105.512	187.990	193.057	48.231	-148.738	165.823	120.668	0.00066376	0.00058311	0.00018441	655.92	4.0623e-06	5.5099e-06	658.69	272.45	3.6074e-06	7.5395e-06	321.18	150.7	129.56	78.579	3.9781e-06	92.531	0.00043675	0.00026421	6.974e-05	687.83	2.7937e-06	2.6443e-06	693.35	289.8	2.8864e-06	2.7662e-06	340.21	161.09	138.99	84.002	3.0157e-06	98.661	-132.865	-67.112	-60.899	-141.182	-0.945	-22.365	-142.361	-134.426	-1.205	9.779	-136.499	-131.429	-129.424	-124.363	-15.778	-127.625	-8191	255	
1862.809	1	1	0	0	0.094656	0.17177	0.072445	0.18249	0.081943	0.23322	0.21352	0.22631	0.1225	0.11581	0.39815	0.1067	0.20955	0.29337	0.22809	0.1747	-3.2958	-2.6542	-3.2938	-3.4938	-2.6854	-3.6042	-3.1104	-2.9979	-3.6854	-2.7833	-3.3458	-3.5646	-2.7729	-3.7208	-2.9604	-3.0354	160.631	200.600	122.296	152.372	-138.247	-135.944	178.258	197.348	-31.080	95.468	-143.080	-115.979	193.547	203.481	190.537	112.115	0.00066185	0.0006535	0.00015535	655.67	4.2974e-06	6.0797e-06	655.48	272.12	3.8332e-06	5.8133e-06	320.6	150.22	129.36	78.125	5.0795e-06	91.858	0.00043417	0.00025898	7.2619e-05	687.41	2.7664e-06	2.7987e-06	689.68	289.3	2.8711e-06	2.7469e-06	339.07	160.26	138.72	83.671	3.1263e-06	98.189	-133.700	-66.831	-68.187	-141.186	3.994	-13.559	-142.557	-134.492	-8.640	11.199	-136.396	-131.496	-129.198	-124.428	-27.254	-127.553	-8191	255	
1862.906	1	1	0	0	0.2395	0.13796	0.080486	0.16392	0.086435	0.10151	0.057933	0.25539	0.30001	0.12031	0.052139	0.3021	0.20513	0.33731	0.19966	0.50824	-3.1792	-2.9271	-3.0646	-3.55	-2.7875	-3.3833	-3.2792	-2.8771	-3.5958	-2.9292	-3.1458	-3.5604	-2.7812	-3.3104	-3.1729	-2.825	89.312	138.163	-33.159	-98.244	28.596	53.009	22.752	138.257	-90.434	175.833	131.344	159.014	-135.760	199.994	-32.106	142.289	0.00066912	0.00058878	0.00016865	652.35	4.1097e-06	5.9167e-06	655.33	272.73	4.1452e-06	5.3108e-06	319.34	149.74	129.16	78.27	4.6299e-06	92.02	0.0004326	0.00026183	7.1857e-05	687.25	2.7789e-06	2.7845e-06	690.05	289.11	2.8292e-06	2.707e-06	338.42	160.32	138.68	83.747	3.129e-06	98.492	-132.821	-66.467	-71.017	-141.170	-0.020	-20.348	-142.323	-134.252	-12.107	0.922	-136.475	-131.676	-129.122	-124.300	-21.090	-127.672	-8191	255	
1863.026	1	1	0	0	0.19859	0.2717	0.11469	0.19518	0.18425	0.20925	0.2598	0.036082	0.11958	0.13433	0.091458	0.27161	0.20391	0.24341	0.17589	0.22907	-3.2562	-2.9042	-2.9958	-3.5854	-2.7167	-3.4521	-3.3	-2.7854	-3.4083	-3.0958	-3.0875	-3.5312	-2.7687	-3.2979	-3.3292	-2.8271	51.000	52.057	-116.297	163.559	-10.779	37.311	113.942	191.378	11.394	159.940	76.077	191.118	160.122	-124.589	113.336	184.914	0.00067473	0.00061872	0.0001792	653.85	4.1402e-06	7.2854e-06	655.44	271.27	4.3637e-06	5.3658e-06	322.25	150.38	129.23	78.111	4.8758e-06	92.579	0.00044423	0.00025762	7.4009e-05	687.06	2.7807e-06	2.8431e-06	691.49	288.76	2.8788e-06	2.8109e-06	339.53	161	138.62	83.681	3.0471e-06	98.876	-131.071	-54.227	-70.794	-141.389	-6.499	-10.838	-142.414	-134.435	-6.928	-7.157	-136.573	-131.793	-129.161	-124.496	-27.893	-127.785	-8191	255	
1863.122	1	1	0	0	0.36975	0.24346	0.171	0.076806	0.060556	0.26074	0.20047	0.12654	0.039286	0.30482	0.048726	0.31608	0.097716	0.24436	0.15635	0.16536	-3.0333	-3.0146	-2.8833	-3.5604	-2.825	-3.2854	-3.7125	-2.9625	-3.4854	-3.4333	-2.9208	-3.5917	-2.9958	-3.3396	-3.4354	-2.8667	69.328	77.735	29.474	190.021	-128.551	-108.347	119.766	122.573	174.564	133.959	-75.117	203.572	179.439	-146.349	178.737	138.698	0.00066532	0.00045839	0.00019562	655.56	4.5566e-06	6.1338e-06	660.47	272.85	4.87e-06	5.7903e-06	322.42	151.22	129.1	77.941	4.3772e-06	92.214	0.00044747	0.0002618	7.5648e-05	688.28	2.7879e-06	2.8397e-06	693.37	289.45	2.9545e-06	2.7924e-06	340.44	161.5	138.53	83.575	2.9889e-06	98.782	-132.498	-67.757	-77.631	-141.549	8.366	-1.162	-142.714	-134.733	-9.669	2.345	-136.690	-131.825	-129.372	-124.642	-20.559	-127.713	-8191	255	
1863.194	1	1	0	0	0.0507	0.15269	0.22058	0.16372	0.10162	0.10472	0.17989	0.14764	0.10224	0.09461	0.189	0.27907	0.22265	0.11788	0.11184	0.14202	-3.1333	-3.3875	-2.8292	-3.6562	-3.1646	-3.0958	-3.6583	-2.9083	-3.65	-3.1167	-2.9229	-3.6625	-3.1021	-3.2271	-3.6875	-3.0792	80.460	-41.730	9.517	-139.949	-61.333	121.675	176.302	-14.368	198.663	-38.636	73.278	-152.537	-148.565	23.178	-23.655	143.540	0.0006636	0.00046562	0.00015263	654.05	3.3622e-06	3.3936e-06	658.05	271.07	3.4914e-06	5.4467e-06	320.3	150.1	128.66	77.792	5.2528e-06	91.88	0.00044993	0.00025677	7.2619e-05	688.17	2.7056e-06	2.8417e-06	692.42	288.53	2.887e-06	2.719e-06	338.26	160.3	138.18	83.151	3.0643e-06	97.954	-131.468	-66.814	-70.133	-141.447	-14.869	0.352	-142.425	-134.752	-4.869	-7.212	-136.644	-131.938	-129.344	-124.656	-21.316	-127.953	-8191	255	
1863.315	1	1	0	0	0.15765	0.3298	0.19854	0.097493	0.19508	0.11773	0.20008	0.17286	0.057546	0.063854	0.083352	0.31184	0.03719	0.12343	0.084923	0.11998	-3.0917	-3.2896	-2.7167	-3.7729	-3.075	-3.0521	-3.6542	-2.85	-3.3125	-3.6458	-2.7354	-3.8187	-3.2271	-3.1	-3.7583	-3.0042	-70.250	172.877	-122.272	-87.518	159.190	-86.871	148.039	76.121	21.495	-125.557	-70.475	59.146	185.742	-141.333	-93.105	30.768	0.00067981	0.00055198	0.00016189	654.35	3.4662e-06	6.5706e-06	653.96	272.15	3.6535e-06	5.9804e-06	319.67	150.13	128.73	78.242	5.0184e-06	91.922	0.00044259	0.00025598	7.361e-05	687	2.7454e-06	2.9406e-06	690.17	288.69	2.8549e-06	2.6495e-06	338	160.27	138.22	83.413	3.0378e-06	98.351	-131.987	-50.418	-81.755	-141.466	-14.768	-3.587	-142.544	-134.825	-22.305	-7.682	-136.630	-131.719	-129.456	-124.594	-21.429	-128.012	-8191	255	
1863.411	1	1	0	0	0.053402	0.064783	0.070949	0.16254	0.11647	0.19064	0.14273	0.074124	0.13485	0.14794	0.072121	0.24372	0.19276	0.21177	0.024143	0.063884	-2.8833	-3.4375	-2.6354	-3.4646	-3.1771	-2.8021	-3.6479	-3.025	-3.0521	-3.5938	-2.7979	-3.5792	-3.4313	-2.9875	-3.3667	-3.0375	-103.893	-99.502	-58.173	126.374	-23.682	190.283	-128.731	-30.137	96.955	46.128	203.107	162.540	64.152	-152.319	-59.394	166.804	0.00066421	0.00049679	0.00015129	655.35	4.7914e-06	4.4361e-06	658.65	272.37	4.7054e-06	5.1705e-06	321.59	150.18	129.16	78.093	5.2881e-06	92.355	0.00043969	0.00025061	7.212e-05	687.82	2.7388e-06	2.7811e-06	692.72	288.82	2.8894e-06	2.6905e-06	339.16	160.62	138.43	83.543	3.1635e-06	98.75	-131.646	-76.433	-62.560	-141.659	-5.731	-8.219	-142.586	-134.753	-9.140	8.969	-136.908	-131.679	-129.462	-124.649	-5.703	-128.058	-8191	255	
1863.507	1	1	0	0	0.099624	0.058103	0.24664	0.10037	0.17195	0.085719	0.1457	0.031021	0.044462	0.21172	0.13152	0.17491	0.26496	0.10095	0.24107	0.3171	-2.5917	-3.55	-2.675	-3.4458	-3.2375	-2.5938	-3.6479	-3.0021	-3.05	-3.7625	-3.1479	-3.5187	-3.3104	-2.875	-3.6833	-3.2062	95.028	109.688	148.355	111.270	61.028	-52.692	116.463	-26.968	176.289	-10.530	-94.618	-88.416	128.607	154.395	-18.368	149.107	0.00064683	0.00050663	0.00015814	657.88	3.73e-06	5.6452e-06	663.23	271.87	4.407e-06	5.7e-06	321.74	151.08	129.82	78.161	4.5495e-06	92.977	0.0004453	0.00023968	7.2092e-05	688.74	2.7696e-06	2.7647e-06	694.8	289.24	2.9882e-06	2.8052e-06	340.4	161.8	138.99	83.651	3.082e-06	99.42	-131.918	-62.488	-66.170	-141.323	-2.327	-3.605	-142.839	-134.839	-16.887	-11.458	-136.858	-131.930	-129.605	-124.701	-25.815	-127.901	-8191	255	
1863.626	1	1	0	0	0.17872	0.071509	0.20126	0.091991	0.15779	0.24171	0.20286	0.1069	0.20482	0.33486	0.14884	0.17306	0.17666	0.26352	0.092707	0.17915	-2.4417	-3.55	-2.8688	-3.3146	-3.4062	-2.7646	-3.5542	-3.2854	-2.9042	-3.6229	-2.8354	-3.2625	-3.4021	-2.9521	-3.5646	-3.2313	43.849	8.880	-138.699	-108.933	58.832	157.302	190.642	-64.686	-51.295	142.548	149.091	72.951	66.691	148.682	-59.224	119.437	0.00067511	0.00048307	0.0001463	656.1	4.6489e-06	5.3688e-06	661.62	272.46	5.4194e-06	6.1559e-06	321.76	150.77	129.39	78.28	4.9923e-06	92.908	0.0004461	0.00024987	7.2256e-05	689.02	2.6937e-06	2.84e-06	696.9	289.72	3.0173e-06	2.7201e-06	340.92	161.65	138.81	83.688	3.1523e-06	99.104	-132.541	-59.294	-50.334	-141.501	5.581	-6.943	-142.336	-134.730	-5.314	-15.751	-136.714	-131.909	-129.643	-124.563	-31.009	-127.903	-8191	255	
1863.722	1	1	0	0	0.23219	0.064489	0.11089	0.14709	0.015806	0.070727	0.23207	0.30669	0.049379	0.21605	0.038377	0.063795	0.17657	0.20482	0.17987	0.20695	-2.4	-3.7271	-2.8563	-3.1771	-3.4854	-2.7542	-3.475	-3.3063	-2.7917	-3.6646	-3.0375	-3.2979	-3.7812	-2.8333	-3.4271	-3.4646	185.003	188.167	-152.004	-55.054	37.659	118.980	194.270	128.081	95.562	-145.940	-114.580	143.501	89.051	-111.196	185.778	147.559	0.00069155	0.00057563	0.00019067	652.57	2.6755e-06	5.3321e-06	656.82	272.09	4.2563e-06	7.0101e-06	318.55	149.81	128.83	77.725	4.6135e-06	92.235	0.00045576	0.00026393	7.1864e-05	685.46	2.8051e-06	2.7735e-06	691.62	288.52	3.0411e-06	2.8217e-06	337.78	160.37	138.3	83.331	3.1014e-06	98.571	-132.225	-64.950	-65.275	-141.258	-10.457	-16.190	-142.272	-134.712	-6.506	-12.571	-136.838	-131.742	-129.579	-124.607	-16.515	-128.015	-8191	255	
1863.794	1	1	0	0	0.32056	0.050537	0.11561	0.12994	0.082364	0.16974	0.22095	0.11385	0.27323	0.033276	0.34107	0.28011	0.34409	0.20918	0.14688	0.12	-2.3583	-3.3604	-3.1542	-3.1833	-3.3937	-2.9479	-3.4021	-3.3667	-2.8729	-3.625	-3.0979	-3.0625	-3.6646	-2.8375	-3.2604	-3.5563	106.373	-7.000	36.697	100.282	135.462	-138.934	162.696	-127.964	170.215	177.754	204.443	182.082	165.169	60.623	41.750	89.793	0.00067178	0.00062052	0.00018642	649.89	4.284e-06	5.7393e-06	653.92	270.22	4.4865e-06	5.2833e-06	319.4	150.54	129.4	78.118	4.6771e-06	92.656	0.00043966	0.00026031	7.1337e-05	684.27	2.747e-06	2.7423e-06	689.85	288.31	2.9219e-06	2.7733e-06	338.69	160.76	138.66	83.511	3.1353e-06	98.948	-133.555	-59.767	-59.067	-141.443	6.403	-7.092	-142.430	-134.699	-9.779	19.261	-136.832	-131.651	-129.435	-124.798	-27.717	-128.016	-8191	255	
1863.890	1	1	0	0	0.0074818	0.042224	0.15297	0.12235	0.089733	0.054551	0.27867	0.15615	0.2137	0.17269	0.13738	0.036895	0.21528	0.26621	0.13162	0.1195	-2.4333	-3.6792	-3.2208	-3.0938	-3.5958	-2.9792	-3.2292	-3.5563	-2.8104	-3.5833	-3.2979	-3.1125	-3.8375	-3.1125	-2.9708	-3.5458	101.346	34.059	-131.745	142.653	-1.266	-9.247	60.358	174.976	15.599	-73.700	-151.178	176.038	-144.855	166.195	133.812	117.586	0.00067057	0.00051335	0.00017737	654.32	3.4264e-06	5.0863e-06	658.09	272.18	4.5011e-06	6.4044e-06	322.73	150.87	129.46	78.169	4.605e-06	93.168	0.00044255	0.00025926	7.0617e-05	684.7	2.7409e-06	2.6752e-06	692.55	289.08	2.9246e-06	2.736e-06	340.22	161.52	139.03	83.684	3.1686e-06	99.538	-131.788	-77.604	-62.976	-141.413	-4.571	-12.293	-142.521	-134.780	-17.938	6.402	-136.980	-131.674	-129.282	-124.634	-21.970	-127.854	-8191	255	
1863.986	1	1	0	0	0.36497	0.044569	0.1175	0.027502	0.15093	0.18871	0.082363	0.098142	0.16402	0.12133	0.064072	0.08202	0.20425	0.21415	0.25844	0.2565	-2.2938	-3.1125	-3.1188	-2.9521	-3.4375	-2.825	-3.1937	-3.4521	-2.6	-3.2562	-3.5292	-2.7021	-3.6104	-3.3542	-2.9479	-3.7438	180.414	-146.909	85.082	-42.980	-51.483	-88.202	7.080	146.137	-84.365	-59.619	42.577	137.112	-63.721	191.450	165.061	177.279	0.0006813	0.00068821	0.00015716	653.97	4.299e-06	4.842e-06	661.24	272.38	4.0026e-06	4.8865e-06	323.99	151.98	129.63	78.316	4.692e-06	93.622	0.0004412	0.00027204	6.9177e-05	686.4	2.7529e-06	2.7313e-06	694.69	289.67	2.9487e-06	2.8029e-06	342.08	162.48	139.38	83.883	3.1722e-06	99.971	-132.420	-63.227	-60.674	-141.542	-2.531	-19.907	-142.354	-134.665	-11.430	7.649	-136.860	-131.686	-129.385	-124.622	-33.715	-127.849	-8191	255	
1864.107	1	1	0	0	0.1325	0.10015	0.2949	0.070761	0.074118	0.15969	0.13458	0.069758	0.18149	0.022311	0.074031	0.23937	0.12053	0.37504	0.10609	0.17299	-2.5792	-3.3625	-3.3917	-3.0083	-3.5479	-3.1771	-2.975	-3.7812	-2.6604	-3.375	-3.4542	-2.7875	-3.6292	-3.3187	-2.9375	-3.8063	123.843	-139.020	117.029	-134.898	50.015	-63.061	2.257	139.871	77.135	9.913	-96.381	196.324	-107.246	198.268	180.032	191.173	0.00069737	0.00057748	0.00013514	653.74	5.0826e-06	5.7673e-06	662.49	272.31	3.8329e-06	5.2563e-06	323.17	151.57	129.73	78.179	4.6244e-06	93.129	0.00044958	0.00026342	6.9512e-05	685.6	2.8264e-06	2.7055e-06	695.46	289.7	2.9527e-06	2.7984e-06	341.11	162.14	139.09	83.779	3.1834e-06	99.394	-134.011	-65.004	-72.632	-141.338	-10.293	-20.006	-142.230	-134.564	-12.615	-18.892	-136.810	-131.693	-129.356	-124.577	-16.100	-127.939	-8191	255	
1864.203	1	1	0	0	0.044456	0.1698	0.30244	0.38328	0.25679	0.11513	0.30415	0.1415	0.26784	0.10909	0.30079	0.24446	0.19691	0.46072	0.1856	0.24603	-2.4375	-3.1646	-3.3167	-2.8542	-3.3396	-3.3646	-2.9083	-3.7562	-2.8833	-3.3125	-3.7104	-2.9125	-3.3042	-3.5708	-2.8021	-3.6896	121.569	113.631	22.409	161.786	174.848	-18.258	131.577	189.494	-71.644	-105.537	147.502	52.217	-117.254	169.577	-101.034	114.034	0.00066001	0.00061381	0.00017751	651.14	4.1339e-06	6.3727e-06	655.1	271.15	4.4822e-06	4.7451e-06	318.93	150.72	129.55	78.192	4.5468e-06	92.541	0.00043879	0.00026468	7.0823e-05	683.39	2.7794e-06	2.7332e-06	690.8	288.46	2.9045e-06	2.7372e-06	337.95	161.02	139	83.564	3.1621e-06	99.027	-133.882	-67.337	-71.081	-141.203	-8.070	-8.451	-142.256	-134.432	-11.141	-3.810	-136.535	-131.753	-129.305	-124.656	-33.805	-127.813	-8191	255	
1864.299	1	1	0	0	0.30032	0.23288	0.097518	0.085293	0.31147	0.21658	0.29954	0.19138	0.10797	0.13834	0.15151	0.1771	0.30912	0.1515	0.12379	0.073158	-2.6333	-2.9771	-3.45	-2.6937	-3.3979	-3.2438	-3.0812	-3.5438	-3.1417	-3.1104	-3.7479	-2.8187	-3.3563	-3.3937	-2.7667	-3.5729	191.976	-71.047	77.815	-129.638	149.830	77.410	169.771	-120.200	81.508	-79.839	154.451	18.993	-105.432	158.581	-96.906	-145.626	0.00067176	0.00068458	0.00016003	651.33	3.4494e-06	6.1848e-06	656.06	271.32	4.9154e-06	5.0992e-06	322.13	150.78	129.65	78.102	4.7074e-06	93.085	0.00044203	0.00026781	6.818e-05	683.3	2.7653e-06	2.7723e-06	691.79	288.72	2.9545e-06	2.8749e-06	339.76	161.34	138.96	83.595	3.2176e-06	99.448	-133.462	-67.375	-63.536	-141.404	-7.626	-7.290	-142.586	-134.728	-20.285	-2.154	-136.685	-131.707	-129.381	-124.764	-33.661	-127.909	-8191	255	
1864.395	1	1	0	0	0.077741	0.10568	0.16812	0.19975	0.13733	0.21381	0.13121	0.21114	0.27219	0.15733	0.32473	0.075366	0.17397	0.29983	0.076938	0.47129	-2.7354	-2.9458	-3.5812	-2.9813	-3.2542	-3.5812	-2.7958	-3.6958	-3.2375	-2.7896	-3.8458	-2.9542	-3.2938	-3.6583	-2.6917	-3.7771	60.849	179.762	103.309	-115.047	-35.960	58.178	180.112	172.280	116.325	15.522	175.814	139.394	-68.341	-151.668	32.958	92.415	0.00068287	0.00058279	0.00014585	651.34	3.9932e-06	5.1964e-06	657.92	272.72	4.6143e-06	6.2259e-06	322.95	152	129.27	78.247	4.8213e-06	93.632	0.00044371	0.00026814	6.942e-05	683.44	2.7075e-06	2.6837e-06	694.15	289.18	2.8316e-06	2.8365e-06	341.3	162.12	139.04	83.819	3.1517e-06	100.07	-133.401	-77.015	-69.006	-141.298	-11.135	-0.944	-142.193	-134.571	0.362	-16.216	-136.850	-131.873	-129.251	-124.585	-31.079	-127.737	-8191	255	
1864.491	1	1	0	0	0.25424	0.23179	0.16137	0.20614	0.1833	0.13648	0.07717	0.2217	0.14528	0.11152	0.31138	0.19876	0.04033	0.43929	0.023957	0.13482	-2.9437	-2.7917	-3.6562	-3.0979	-2.9771	-3.7583	-2.8417	-3.5833	-3.5604	-2.9208	-3.8167	-2.9917	-3.0458	-3.8937	-2.8271	-3.65	31.671	-10.886	-13.225	-100.131	-72.411	2.577	-42.774	143.495	125.837	-30.253	-131.525	189.061	-63.398	198.981	15.468	133.461	0.0007004	0.00057515	0.00017298	651.5	4.4655e-06	5.8419e-06	659.46	272.09	3.9046e-06	6.269e-06	325.13	152.62	130.67	78.659	4.2304e-06	94.201	0.0004488	0.00026583	7.1408e-05	684.66	2.8181e-06	2.665e-06	695.99	289.68	2.8655e-06	2.8334e-06	343.32	163.23	139.57	84.227	3.1228e-06	100.61	-133.681	-64.846	-61.919	-141.386	-6.813	-2.467	-142.412	-134.613	-19.631	-2.382	-136.673	-131.728	-128.997	-124.611	-33.956	-127.681	-8191	255	
1864.587	1	1	0	0	0.087821	0.24656	0.063819	0.063884	0.34742	0.1733	0.16578	0.26772	0.17895	0.38496	0.16542	0.23543	0.25479	0.1582	0.27596	0.17572	-3.0646	-2.9062	-3.725	-3.2229	-3.0938	-3.6229	-3.0062	-3.5854	-3.4062	-2.8771	-3.6708	-3.2604	-3.0542	-3.6937	-2.8396	-3.525	52.537	174.152	-0.134	185.414	14.830	-66.423	-81.725	200.512	130.812	-143.874	-15.783	147.704	156.351	-83.399	18.733	153.651	0.00070479	0.00057351	0.00011448	653.85	3.0343e-06	5.4398e-06	660.65	271.74	3.9789e-06	4.5513e-06	323.43	151.84	129	78.421	4.6618e-06	93.579	0.00045266	0.00024899	6.9192e-05	685.96	2.8577e-06	2.7542e-06	695.18	288.58	2.8051e-06	2.8311e-06	341.34	162.38	138.89	83.829	3.1042e-06	99.828	-133.616	-59.243	-59.903	-141.276	-4.713	-17.399	-142.335	-134.447	-20.554	8.632	-136.502	-131.913	-129.580	-124.534	-18.816	-127.792	-8191	255	
1864.706	1	1	0	0	0.043186	0.19659	0.16384	0.037853	0.14844	0.089231	0.27429	0.21572	0.16421	0.39505	0.24761	0.18278	0.059738	0.12527	0.065059	0.20747	-3.1167	-2.6125	-3.4917	-3.1208	-2.8854	-3.7562	-3.0625	-3.2	-3.6208	-2.8396	-3.5167	-3.5333	-2.7687	-3.7812	-2.8833	-3.2438	18.214	130.858	140.169	6.643	-103.957	25.008	203.980	158.360	-98.149	70.678	198.922	1.396	-39.823	-144.702	184.592	167.543	0.00067624	0.000487	0.00013233	649.49	4.9144e-06	5.8423e-06	656.83	271.74	4.5236e-06	6.3312e-06	322.2	151.29	129.58	78.594	4.374e-06	93.516	0.00043641	0.00025133	6.9726e-05	682.6	2.8248e-06	2.663e-06	691.48	288.54	2.8377e-06	2.7531e-06	340.67	161.69	138.76	83.957	3.0504e-06	99.783	-133.203	-68.862	-65.786	-141.578	-1.975	-16.033	-142.248	-134.439	-15.474	-2.509	-136.435	-131.844	-129.385	-124.724	-27.460	-127.803	-8191	255	
1864.802	1	1	0	0	0.10533	0.20494	0.30214	0.23097	0.16143	0.15623	0.098685	0.15273	0.1204	0.27356	0.10911	0.19341	0.40463	0.38216	0.11414	0.38696	-3.2125	-2.7125	-3.25	-3.4229	-2.6854	-3.6208	-3.0146	-3.0646	-3.6104	-2.8271	-3.4625	-3.3979	-2.7938	-3.9146	-3.0583	-3.0438	103.182	-50.062	-99.739	111.687	43.157	27.190	192.585	-119.977	54.719	-102.279	6.491	155.851	143.320	-133.916	124.855	140.646	0.00070008	0.00056722	0.00015339	652.48	4.937e-06	5.5291e-06	658.16	272.46	3.6289e-06	5.7208e-06	325.47	151.6	129.59	78.619	4.5965e-06	93.705	0.00044968	0.00024751	7.1215e-05	684.6	2.8524e-06	2.6882e-06	693.49	289.08	2.7858e-06	2.771e-06	342.28	162.38	139.16	84.129	3.1034e-06	100.08	-134.270	-54.061	-55.524	-141.280	4.350	-19.807	-142.364	-134.637	-12.756	-11.490	-136.313	-131.688	-129.220	-124.488	-20.170	-127.596	-8191	255	
1864.898	1	1	0	0	0.17468	0.24349	0.15766	0.12158	0.17646	0.15247	0.12521	0.12992	0.048163	0.34583	0.063273	0.05095	0.18865	0.30083	0.12569	0.20368	-3.3542	-2.7375	-3.3438	-3.7479	-2.8729	-3.6562	-3.1917	-3.0312	-3.5062	-2.8688	-3.4521	-3.5375	-2.8542	-3.7104	-3.1333	-3.1167	77.139	86.497	-146.160	-128.995	-1.223	128.819	2.581	106.911	159.521	-127.082	190.106	-87.523	182.898	185.940	-12.421	165.385	0.00066903	0.00049434	0.0001718	651.55	4.445e-06	6.2184e-06	660.78	272.87	3.9049e-06	6.6919e-06	323.69	152.51	129.93	78.693	3.4387e-06	94.07	0.00043717	0.00025921	7.0952e-05	684.28	2.7688e-06	2.6437e-06	694.99	289.63	2.8928e-06	2.7696e-06	342.83	163.07	139.21	84.129	3.0304e-06	100.49	-132.713	-64.001	-70.770	-141.436	-16.349	-6.544	-142.556	-134.635	-13.810	4.762	-136.765	-131.820	-129.566	-124.730	-17.559	-127.690	-8191	255	
1865.019	1	1	0	0	0.33884	0.040347	0.079116	0.34584	0.21347	0.17175	0.14007	0.18937	0.060678	0.049303	0.21168	0.12643	0.29634	0.1923	0.16923	0.2771	-3.3896	-2.875	-3.2542	-3.5062	-2.7812	-3.425	-3.4229	-3.0042	-3.6458	-2.9062	-3.1917	-3.775	-2.9667	-3.4375	-3.3458	-2.8646	40.035	-105.636	38.390	-148.222	203.420	197.186	172.444	122.568	-29.346	-86.140	127.816	141.825	192.736	197.656	97.011	142.824	0.00067762	0.0006303	0.00018394	652.38	4.4304e-06	5.5326e-06	662.3	272.63	3.777e-06	6.4316e-06	324.78	153.11	130.29	78.605	4.6154e-06	94.299	0.0004398	0.0002539	7.5163e-05	684.84	2.7481e-06	2.6503e-06	697.48	289.6	2.8446e-06	2.7195e-06	344.1	163.65	139.5	84.173	3.0192e-06	100.7	-131.896	-51.172	-70.999	-141.400	2.941	-10.238	-142.266	-134.466	-8.523	-4.440	-136.576	-131.835	-129.464	-124.537	-23.729	-127.804	-8191	255	
1865.091	1	1	0	0	0.11828	0.22875	0.14354	0.18688	0.13781	0.3897	0.12311	0.10447	0.014476	0.12949	0.16683	0.1032	0.18328	0.28201	0.19413	0.2964	-3.1813	-2.8208	-3.0667	-3.6312	-2.9	-3.3333	-3.675	-2.8646	-3.3937	-3.2062	-3.0354	-3.7208	-2.8812	-3.4604	-3.3354	-2.9771	144.554	63.902	-51.182	129.166	36.629	-123.978	108.574	-29.894	197.654	109.746	-137.436	-75.335	-126.373	-126.428	40.844	-47.653	0.00067921	0.00064064	0.00017702	653.28	4.0676e-06	5.9093e-06	661.37	271.62	2.6818e-06	5.1933e-06	323.07	151.73	129.47	78.443	5.4147e-06	93.238	0.00044035	0.00025308	7.4108e-05	685.29	2.7619e-06	2.7208e-06	696.51	288.83	2.8724e-06	2.6808e-06	341.69	162.2	138.89	83.868	3.0241e-06	99.675	-132.939	-62.758	-62.482	-141.210	8.355	-18.795	-142.261	-134.576	-8.001	0.540	-136.528	-131.889	-129.388	-124.681	-27.794	-127.858	-8191	255	
1865.187	1	1	0	0	0.09705	0.13053	0.039012	0.10071	0.29722	0.073306	0.20915	0.22623	0.18431	0.095549	0.053502	0.083942	0.020558	0.31502	0.12899	0.14329	-3.2271	-3.0667	-2.6813	-3.7458	-2.9479	-3.3542	-3.8396	-2.8937	-3.5875	-3.2708	-2.9	-3.6958	-3	-3.3625	-3.6521	-2.9104	162.853	24.656	-128.332	192.306	120.259	80.289	42.265	103.356	37.206	-2.424	180.475	146.599	-10.835	-147.445	-91.666	-121.341	0.00068354	0.00067921	0.00015665	653.84	5.1867e-06	6.3288e-06	659.25	272.39	3.6887e-06	6.7435e-06	324.09	152.05	129.23	78.095	5.3015e-06	93.581	0.00043319	0.00025587	6.8964e-05	684.69	2.7667e-06	2.6568e-06	694.1	288.82	2.8652e-06	2.6191e-06	341.53	162.3	138.68	83.717	3.0014e-06	99.806	-131.358	-65.076	-63.004	-141.206	-9.985	-8.424	-142.533	-134.567	-13.742	4.123	-136.742	-131.827	-129.521	-124.584	-23.660	-127.914	-8191	255	
1865.283	1	1	0	0	0.074933	0.082394	0.16819	0.28082	0.13621	0.018445	0.12103	0.25281	0.12522	0.07123	0.15289	0.074905	0.23726	0.12372	0.063655	0.32084	-3.2521	-3.3021	-2.7417	-3.6188	-2.8875	-3.2021	-3.5875	-2.9625	-3.3833	-3.3021	-3.1188	-3.6479	-3.0875	-3.225	-3.5563	-2.95	112.756	-54.755	130.680	159.619	-73.103	-110.307	132.181	152.317	101.229	-56.762	-116.705	12.526	36.444	-102.897	-111.063	116.624	0.00065804	0.00065107	0.00016624	651.84	3.8209e-06	5.7906e-06	658.49	272.45	3.6866e-06	6.7778e-06	325.67	151.64	129.56	78.294	5.2545e-06	93.722	0.00044132	0.00025895	6.9263e-05	684.91	2.7696e-06	2.7995e-06	696.11	289.12	2.8984e-06	2.6999e-06	342.86	162.5	138.86	83.942	3.0665e-06	100.14	-131.977	-66.155	-50.462	-141.216	6.144	-12.795	-142.698	-134.645	-14.115	0.705	-136.630	-131.735	-129.738	-124.630	-25.545	-127.921	-8191	255	
1865.404	1	1	0	0	0.078497	0.03482	0.17257	0.19908	0.22575	0.053625	0.14076	0.12688	0.10498	0.099077	0.12982	0.02281	0.10871	0.40128	0.31362	0.13109	-2.9354	-3.3521	-2.5187	-3.6125	-3.0458	-2.9542	-3.7271	-2.8812	-3.2292	-3.5333	-2.9104	-3.4729	-3.1021	-3.0187	-3.5875	-3.1312	-23.777	24.881	116.476	163.575	-77.343	142.567	158.642	-79.286	-17.887	42.244	67.122	-99.606	128.720	-136.924	-96.923	123.879	0.00068063	0.00047818	0.00018906	649.19	2.8729e-06	5.4157e-06	661.91	273.28	3.9253e-06	6.3619e-06	324.44	151.92	129.39	78.198	4.9421e-06	93.598	0.00044401	0.00025898	6.999e-05	684.45	2.7404e-06	2.8168e-06	697.03	289.54	2.967e-06	2.7634e-06	343.19	162.79	138.77	83.735	3.1189e-06	100.05	-132.393	-74.118	-75.319	-141.403	-1.530	-0.838	-142.610	-134.653	-19.724	-2.732	-136.806	-131.592	-129.244	-124.625	-17.753	-127.701	-8191	255	
1865.500	1	1	0	0	0.074039	0.13258	0.17523	0.27793	0.21196	0.092255	0.19765	0.24276	0.24368	0.0058592	0.12986	0.25265	0.32054	0.083004	0.035223	0.19086	-2.7167	-3.4	-2.7729	-3.4792	-3.325	-2.7958	-3.5917	-2.9938	-3.2167	-3.7062	-2.675	-3.4062	-3.3646	-2.9938	-3.7208	-3.0792	-88.085	151.085	-9.628	170.863	63.140	197.124	103.757	75.463	-5.655	-107.988	-69.067	-146.757	179.530	199.483	70.630	91.707	0.00066632	0.00067025	0.00019837	650.5	4.3823e-06	6.1788e-06	663.95	271.93	4.4439e-06	6.5661e-06	324.23	152.25	129.74	78.19	3.7655e-06	93.414	0.00044688	0.00026773	7.2334e-05	684.04	2.7717e-06	2.8457e-06	697.61	288.62	3.0441e-06	2.6862e-06	342.92	162.86	139.05	83.573	3.1206e-06	99.699	-133.319	-49.608	-56.232	-141.325	-1.525	-13.684	-142.344	-134.795	-3.125	0.104	-136.537	-131.580	-129.339	-124.664	0.055	-127.911	-8191	255	
1865.594	1	1	0	0	0.069272	0.12138	0.15538	0.42711	0.12616	0.084957	0.14732	0.069234	0.080665	0.1577	0.18407	0.17828	0.16093	0.2072	0.15042	0.25901	-2.6688	-3.4938	-2.6854	-3.5	-3.4062	-2.6708	-3.8104	-3.0625	-2.9396	-3.5979	-2.8063	-3.4292	-3.4167	-2.7417	-3.5646	-3.2979	-33.210	6.045	62.141	197.621	-117.055	-53.254	77.030	-54.959	-129.219	47.778	-18.709	75.197	-64.779	193.836	156.163	116.753	0.00067999	0.00059369	0.00018434	648.5	3.5805e-06	5.3689e-06	658.83	271.18	3.9333e-06	6.6648e-06	320.99	151.28	129.82	77.848	4.7376e-06	92.723	0.00044354	0.00026262	7.1515e-05	682.66	2.7733e-06	2.8259e-06	694.78	287.82	2.9564e-06	2.7432e-06	340.4	161.79	138.68	83.282	3.1107e-06	98.96	-133.602	-62.380	-64.539	-141.295	-4.964	-23.488	-142.374	-134.669	-11.103	-12.130	-136.494	-131.699	-129.493	-124.600	-13.523	-127.841	-8191	255	
1865.668	1	1	0	0	0.12519	0.1042	0.18202	0.14641	0.14289	0.17576	0.12752	0.14792	0.11752	0.12401	0.1536	0.28804	0.018537	0.13747	0.17936	0.24652	-2.4437	-3.5521	-2.7646	-3.1708	-3.5396	-2.625	-3.6	-3.3375	-2.9375	-3.6604	-2.8937	-3.4188	-3.5083	-2.9083	-3.3021	-3.3229	-102.388	43.359	157.406	88.785	71.844	-6.927	106.109	115.017	118.569	12.305	-110.121	109.719	82.843	-115.544	-18.753	131.663	0.00067091	0.00067242	0.00020191	649.5	3.7865e-06	6.5533e-06	658.34	270.49	3.8187e-06	6.1659e-06	321.77	151.09	129.2	77.762	3.8329e-06	92.819	0.00044835	0.00025616	7.2348e-05	681.31	2.7258e-06	2.8216e-06	694.3	287.73	2.9381e-06	2.7491e-06	340.52	161.84	138.49	83.335	3.2227e-06	99.221	-131.851	-65.730	-65.325	-141.101	-5.470	-3.691	-142.271	-134.613	-5.674	-2.893	-136.902	-131.711	-129.677	-124.650	-23.524	-127.900	-8191	255	
1865.787	1	1	0	0	0.025491	0.15919	0.17601	0.26391	0.19739	0.13899	0.08607	0.17572	0.18291	0.14289	0.18286	0.12311	0.24537	0.24834	0.16137	0.058449	-2.4688	-3.6063	-3	-3.2271	-3.5167	-2.6542	-3.525	-3.3604	-2.7979	-3.5312	-2.9167	-3.0896	-3.5312	-2.8312	-3.3104	-3.3583	38.580	-37.298	173.057	109.140	-59.651	142.434	-122.061	130.254	-8.178	4.962	57.951	-45.246	86.534	200.510	-105.563	120.379	0.00065821	0.00045171	0.0001625	650.02	3.6442e-06	4.6461e-06	662.36	270.1	4.3857e-06	6.6014e-06	322.86	151.74	129.41	77.846	5.8617e-06	93.681	0.00043762	0.00026	7.2434e-05	683.37	2.7677e-06	2.8066e-06	695.91	287.91	2.9776e-06	2.8544e-06	342.29	162.39	138.74	83.45	3.3044e-06	99.699	-132.402	-47.595	-54.463	-141.381	-1.445	4.256	-142.405	-134.775	-3.557	-7.482	-136.949	-131.713	-129.679	-124.768	-29.015	-128.060	-8191	255	
1865.883	1	1	0	0	0.17517	0.1902	0.11905	0.23928	0.1229	0.078164	0.17087	0.10856	0.17603	0.249	0.12051	0.21747	0.06317	0.20597	0.18555	0.04737	-2.4938	-3.5333	-2.9229	-2.8688	-3.5438	-2.9458	-3.35	-3.4792	-2.5687	-3.6188	-3.2188	-3.1042	-3.7188	-2.8688	-3.1583	-3.5896	173.434	44.216	120.384	195.572	-13.593	-11.018	-67.759	127.136	116.427	103.489	-51.335	-95.383	-119.224	178.176	179.127	68.925	0.0006541	0.00057177	0.00013836	649.77	3.6623e-06	5.6368e-06	664.29	271.68	3.8957e-06	6.5152e-06	325.38	152.75	129.38	78.089	5.2068e-06	93.817	0.00045159	0.00025423	7.418e-05	683.01	2.7744e-06	2.8426e-06	698.69	288.73	2.8981e-06	2.775e-06	343.89	163.07	138.98	83.585	3.1651e-06	100.25	-133.874	-56.284	-61.575	-141.482	9.736	-12.892	-142.522	-134.696	-10.023	-0.434	-136.636	-131.455	-129.548	-124.659	-32.961	-128.082	-8191	255	
1865.979	1	1	0	0	0.2899	0.14364	0.063393	0.21038	0.1435	0.15036	0.1458	0.30549	0.065983	0.056439	0.083662	0.17076	0.13725	0.2142	0.21341	0.2092	-2.2438	-3.4813	-2.9208	-2.8563	-3.7021	-2.8229	-3.1833	-3.6479	-2.7479	-3.4604	-3.3583	-2.8125	-3.7042	-3.1437	-3.1333	-3.7792	107.460	110.137	121.388	112.044	179.502	-90.612	33.087	87.096	174.849	132.788	-32.088	157.123	160.981	150.913	-141.067	161.010	0.00067718	0.00059743	0.00021376	653.95	3.9476e-06	5.6886e-06	665.02	271.44	4.1252e-06	6.4053e-06	324.99	152.06	129.63	77.917	3.955e-06	92.955	0.00044716	0.00025631	7.3852e-05	685.13	2.8309e-06	2.7882e-06	699.98	288.66	2.9418e-06	2.7821e-06	343.12	162.69	138.93	83.383	3.1561e-06	99.496	-132.076	-62.583	-61.395	-141.585	-4.623	5.069	-142.436	-134.778	-9.072	4.488	-136.678	-131.825	-129.354	-124.628	-19.482	-127.926	-8191	255	
1866.099	1	1	0	0	0.15457	0.14473	0.16727	0.10555	0.23583	0.17268	0.31042	0.30554	0.08286	0.14209	0.28316	0.13618	0.18876	0.12318	0.14791	0.20599	-2.3688	-3.3646	-3.2729	-2.9458	-3.475	-3.0667	-3.1854	-3.6813	-2.7521	-3.3	-3.5604	-2.8875	-3.5312	-3.2	-2.7979	-3.6813	161.874	65.744	-147.763	166.407	80.876	111.837	-80.394	179.311	75.479	-40.094	-146.873	-135.569	-125.546	196.375	101.411	178.326	0.00068197	0.0006896	0.0001649	652.65	4.5271e-06	5.9417e-06	660.82	271.2	4.3115e-06	5.3727e-06	321.4	151.02	129.27	77.737	4.988e-06	92.597	0.00045287	0.00025793	7.3025e-05	683.72	2.7916e-06	2.7927e-06	696.5	287.91	2.8448e-06	2.7773e-06	340.51	161.51	138.63	83.157	3.1023e-06	98.969	-132.775	-65.154	-66.799	-141.317	-3.066	3.265	-142.249	-134.471	-24.206	-7.495	-136.769	-131.702	-129.554	-124.889	-24.184	-128.050	-8191	255	
1866.196	1	1	0	0	0.29152	0.27428	0.29093	0.1374	0.11368	0.18414	0.19814	0.055466	0.14779	0.21261	0.21172	0.26197	0.27062	0.23185	0.12074	0.14513	-2.4229	-3.3563	-3.2188	-2.8396	-3.6375	-3.1354	-2.8875	-3.7625	-2.8125	-3.3083	-3.5187	-2.9271	-3.525	-3.3375	-2.7333	-3.7875	-132.132	-150.837	-0.398	-99.808	95.076	115.894	121.717	114.118	38.512	52.959	186.567	134.874	67.571	201.935	-39.246	71.366	0.00067892	0.00062089	0.00019783	649.3	4.3492e-06	4.4642e-06	663.34	271.03	3.9625e-06	6.8793e-06	323.18	151.83	129.45	77.701	5.3108e-06	92.872	0.00044579	0.00025305	7.3937e-05	681.7	2.8065e-06	2.8072e-06	696.74	287.8	2.9911e-06	2.746e-06	341.52	161.99	138.71	83.26	3.0695e-06	99.216	-133.094	-63.764	-59.343	-141.405	-1.568	9.426	-142.491	-134.767	-8.324	3.044	-136.687	-131.804	-129.393	-124.749	-22.095	-127.891	-8191	255	
1866.292	1	1	0	0	0.37018	0.14167	0.16656	0.23805	0.061267	0.16951	0.19446	0.16001	0.30266	0.033375	0.16385	0.35556	0.050007	0.22847	0.16866	0.11635	-2.6292	-3.075	-3.4833	-2.775	-3.4208	-3.2917	-2.9292	-3.5604	-2.9875	-3.1521	-3.6833	-3.0208	-3.6771	-3.4771	-2.675	-3.65	-37.006	-43.535	-47.414	-151.126	-52.287	108.839	-102.428	97.491	-32.629	-25.743	-127.564	202.200	90.809	-126.295	135.351	140.132	0.00066149	0.00061823	0.00019253	649.35	3.1105e-06	5.9614e-06	662.4	271.74	3.3328e-06	6.9653e-06	323.54	152.01	129	77.72	5.3816e-06	93.289	0.00043978	0.00026324	7.2184e-05	682.25	2.8338e-06	2.7352e-06	697.63	288.26	3.0245e-06	2.8487e-06	342.03	162.54	138.6	83.38	3.1334e-06	99.589	-131.447	-75.259	-64.299	-141.354	11.270	-11.383	-142.626	-134.476	-12.490	-0.731	-136.700	-131.749	-129.393	-124.696	-28.977	-127.629	-8191	255	
1866.388	1	1	0	0	0.079329	0.16945	0.094132	0.27915	0.17892	0.2148	0.13947	0.13258	0.079683	0.30594	0.1684	0.31675	0.09749	0.16734	0.16791	0.2248	-2.6146	-2.9583	-3.5396	-2.7958	-3.45	-3.4417	-2.725	-3.6354	-2.9854	-3.0292	-3.6667	-2.95	-3.2604	-3.6958	-2.7375	-3.7708	143.567	-3.015	144.981	188.531	133.267	14.230	-129.818	-81.086	-16.191	-20.789	131.244	162.114	27.718	-127.026	142.781	166.403	0.00067621	0.00068351	0.00016458	650.93	3.9813e-06	5.7276e-06	666.48	271.93	4.6878e-06	5.7274e-06	324.86	152.51	129.52	78.171	4.7035e-06	93.432	0.00044987	0.00026935	6.8835e-05	682.73	2.8139e-06	2.8049e-06	699.83	288.78	2.994e-06	2.738e-06	343.79	163.04	138.98	83.528	3.1809e-06	100.18	-132.409	-67.244	-67.098	-141.429	-3.525	-8.434	-142.442	-134.448	-6.429	-8.949	-136.700	-131.577	-129.487	-124.566	-8.363	-127.832	-8191	255	
1866.484	1	1	0	0	0.17424	0.21408	0.06894	0.29267	0.13513	0.14385	0.31299	0.14173	0.15193	0.11618	0.22857	0.11333	0.25783	0.13663	0.22397	0.11501	-2.8271	-2.7729	-3.6083	-2.9875	-2.9208	-3.5604	-2.8438	-3.6813	-3.1229	-2.6021	-3.8	-3.0542	-3.0979	-3.7604	-2.7292	-3.4667	-13.608	-41.767	-6.337	203.903	-12.245	-19.539	144.522	194.615	50.961	-21.330	143.321	182.092	-83.780	194.479	14.961	75.191	0.00068474	0.00072613	0.00016846	651.2	4.5279e-06	4.9332e-06	667.43	272.23	4.2891e-06	6.4644e-06	323.49	151.94	129.37	77.76	3.4623e-06	93.02	0.00044189	0.00026072	7.0681e-05	684.25	2.8012e-06	2.6511e-06	701.08	289.02	2.8933e-06	2.7463e-06	342.86	162.37	138.47	83.218	3.0596e-06	99.418	-133.186	-66.819	-53.965	-141.364	-3.507	-11.555	-142.414	-134.409	-6.996	-8.589	-136.710	-131.690	-129.386	-124.602	-26.740	-127.847	-8191	255	
1866.580	1	1	0	0	0.17028	0.23226	0.014393	0.25351	0.24673	0.15784	0.12499	0.28848	0.20072	0.21427	0.13391	0.056017	0.1218	0.23707	0.11311	0.20016	-2.8104	-2.6833	-3.675	-2.9729	-3.0271	-3.6167	-2.8396	-3.5875	-3.1813	-2.675	-3.5833	-3.0667	-3.0896	-3.6562	-2.8583	-3.3417	60.344	-45.128	-30.034	165.197	168.662	-18.361	-44.964	-1.968	25.294	94.566	177.521	-86.423	76.747	206.436	150.012	100.868	0.00066654	0.00068563	0.00015715	652.84	4.7641e-06	4.4217e-06	661.27	271.11	4.2928e-06	4.1241e-06	322.09	150.69	128.31	77.612	5.2801e-06	92.902	0.00043445	0.00025906	6.8885e-05	684.42	2.8126e-06	2.6528e-06	698.41	288.21	2.7927e-06	2.6817e-06	341.53	161.23	138.04	83.015	3.0465e-06	99.02	-133.385	-72.135	-68.815	-141.488	4.527	-8.608	-142.316	-134.580	-11.792	17.568	-136.742	-131.795	-129.282	-124.758	-25.443	-127.920	-8191	255	
1866.699	1	1	0	0	0.18379	0.086528	0.15952	0.34245	0.030071	0.20844	0.14892	0.16711	0.13102	0.17578	0.079447	0.17938	0.2552	0.097918	0.085751	0.21919	-3.0104	-2.7833	-3.3646	-3.0875	-2.9896	-3.6917	-2.8688	-3.2792	-3.4208	-2.7896	-3.5312	-3.2875	-3.0208	-3.5958	-2.8792	-3.3292	4.051	182.257	-148.557	121.356	84.160	193.852	-5.682	-33.389	29.602	59.433	83.584	-137.438	148.404	117.387	136.216	116.622	0.00067921	0.00067362	0.00018988	651.73	4.0219e-06	5.4753e-06	666.16	270.93	4.0095e-06	5.5993e-06	323.12	151.13	128.71	77.704	4.8085e-06	93.004	0.00044321	0.00025621	7.0745e-05	684.28	2.7547e-06	2.6089e-06	699.42	288.43	2.8308e-06	2.608e-06	342.56	161.79	138.23	83.135	3.108e-06	99.439	-131.907	-71.279	-59.641	-141.558	-5.916	-9.836	-142.381	-134.526	7.818	-14.849	-136.607	-131.860	-129.233	-124.442	-19.229	-127.705	-8191	255	
1866.795	1	1	0	0	0.21164	0.26295	0.092399	0.22001	0.21745	0.22865	0.12813	0.27698	0.10083	0.066625	0.0836	0.20303	0.32645	0.15863	0.11875	0.35164	-3.1417	-2.8979	-3.5438	-3.225	-2.8333	-3.5687	-2.9542	-3.1896	-3.5167	-2.75	-3.4021	-3.35	-2.7604	-3.7438	-2.8896	-3.2	19.986	104.194	-9.136	197.247	62.609	156.540	10.671	171.924	-149.335	21.852	-119.623	-109.701	-105.992	22.658	-90.463	171.725	0.000675	0.00060717	0.00017498	653.81	4.3231e-06	4.7261e-06	664.65	271.12	3.3283e-06	5.8884e-06	325.03	152.38	129.01	77.82	4.8355e-06	93.482	0.00043729	0.0002569	6.8265e-05	686.6	2.7635e-06	2.6823e-06	701.39	288.62	2.8041e-06	2.7133e-06	343.64	162.73	138.24	83.311	3.0987e-06	99.953	-132.101	-49.894	-60.631	-141.408	-3.574	-9.833	-142.419	-134.690	2.309	-6.948	-136.619	-131.841	-129.511	-124.590	-39.848	-127.706	-8191	255	
1866.891	1	1	0	0	0.08398	0.22002	0.094844	0.095939	0.14707	0.10035	0.2438	0.26921	0.27794	0.19469	0.066225	0.29133	0.17232	0.067999	0.10493	0.1538	-3.1542	-2.6917	-3.3896	-3.4583	-2.6854	-3.6	-3.0938	-3.0479	-3.7	-2.7583	-3.3604	-3.4792	-2.6271	-3.7833	-3.025	-3.1708	-60.318	191.861	-79.614	135.898	-35.180	111.887	-101.285	-109.333	-53.628	148.187	-15.145	155.865	205.729	128.039	117.460	-86.460	0.0006632	0.0004214	0.00018622	656.31	4.481e-06	6.2656e-06	667.89	272.05	4.5283e-06	5.9496e-06	326.17	152.28	129.08	78.159	5.0502e-06	94.315	0.00044124	0.00025346	6.8215e-05	688.04	2.6677e-06	2.6794e-06	703.4	289.01	2.8795e-06	2.8174e-06	344.74	162.98	138.39	83.481	3.1476e-06	100.33	-132.249	-47.971	-59.180	-141.457	-6.795	-16.556	-142.352	-134.294	-14.361	-6.696	-136.656	-131.579	-129.351	-124.372	-24.205	-127.716	-8191	255	
1866.963	1	1	0	0	0.15098	0.22389	0.18446	0.10459	0.10724	0.16562	0.12838	0.1883	0.40723	0.18083	0.079242	0.14204	0.27989	0.30974	0.18995	0.16918	-3.2625	-2.7833	-3.1458	-3.675	-2.8021	-3.6021	-3.3083	-2.9875	-3.5854	-2.7917	-3.1771	-3.5604	-2.8125	-3.5812	-3.2521	-3.0438	67.375	-15.132	-15.598	200.174	198.231	-85.831	44.166	183.592	-131.753	-149.864	-128.658	-45.217	-148.151	-106.926	-105.090	148.565	0.00067544	0.0005927	0.00014001	655.06	3.8957e-06	5.169e-06	666.64	271.99	4.3464e-06	5.1379e-06	322.72	151.05	128.44	77.638	4.8719e-06	92.7	0.00044335	0.00025639	6.8515e-05	687.1	2.7155e-06	2.7174e-06	702.46	288.52	2.8237e-06	2.7139e-06	342.06	161.43	137.81	82.95	3.0411e-06	99.026	-132.918	-54.352	-58.805	-141.227	-3.843	8.856	-142.453	-134.479	-8.630	-12.727	-136.527	-131.423	-129.194	-124.493	-28.452	-127.517	-8191	255	
1867.084	1	1	0	0	0.19026	0.15356	0.18833	0.14687	0.14146	0.2562	0.090876	0.20004	0.10601	0.10113	0.058384	0.06501	0.43511	0.2441	0.11537	0.17259	-3.2438	-2.8208	-3.0521	-3.5958	-2.825	-3.5	-3.4313	-2.9917	-3.4958	-3.0708	-3.2188	-3.6979	-2.6458	-3.4062	-3.2792	-2.8563	80.595	-142.463	156.367	124.167	109.937	-1.340	-123.867	118.248	43.809	-147.558	178.340	132.023	162.100	-136.960	96.318	-148.154	0.00065851	0.00057533	0.00017939	653.45	4.511e-06	4.9453e-06	664.41	271.39	3.6506e-06	6.6877e-06	323.45	149.87	128	77.562	5.5301e-06	92.736	0.00044167	0.00025092	6.9512e-05	684.18	2.7301e-06	2.6837e-06	698.11	288.01	2.7874e-06	2.7756e-06	341.02	160.67	137.57	82.959	3.0938e-06	99.134	-132.868	-71.563	-74.173	-141.141	3.214	-7.965	-142.342	-134.499	-19.104	-4.623	-136.604	-131.719	-129.495	-124.703	-8.654	-127.928	-8191	255	
1867.180	1	1	0	0	0.06749	0.072566	0.081593	0.2735	0.21536	0.13473	0.11888	0.2842	0.10362	0.096553	0.073114	0.10024	0.36183	0.4498	0.07841	0.1661	-3.2313	-3.2479	-2.875	-3.7062	-2.9271	-3.3479	-3.7271	-2.8375	-3.5875	-3.075	-3.0375	-3.775	-2.7917	-3.4354	-3.4021	-2.9479	64.358	-104.135	-64.177	155.978	132.559	70.821	195.261	165.199	-132.829	36.872	113.662	180.525	187.480	198.015	56.034	174.914	0.00066274	0.00056057	0.00014036	650.48	3.4146e-06	5.1952e-06	663.06	271.67	4.199e-06	5.6297e-06	323.03	150.79	128.48	77.715	4.9881e-06	92.902	0.0004354	0.00024499	6.9512e-05	685.29	2.6653e-06	2.6961e-06	698.32	287.94	2.7746e-06	2.7039e-06	341.66	161.2	137.73	83.041	2.9443e-06	99.284	-132.305	-70.311	-67.880	-141.262	9.093	-7.557	-142.373	-134.356	0.550	-8.952	-136.579	-131.650	-129.097	-124.312	-14.026	-127.760	-8191	255	
1867.276	1	1	0	0	0.14048	0.2003	0.15758	0.04901	0.16128	0.1888	0.24986	0.20357	0.17724	0.2354	0.45321	0.16064	0.45453	0.15522	0.10786	0.30826	-3.0646	-3.0042	-2.8333	-3.6104	-2.8688	-3.1729	-3.6208	-3.0167	-3.5729	-3.2396	-2.9104	-3.6167	-3.0771	-3.5	-3.4271	-2.9729	158.402	184.691	87.483	-18.559	33.659	23.141	171.567	121.533	105.145	-57.531	-119.453	116.661	-76.935	182.864	141.169	190.384	0.00066607	0.00047628	0.00018358	651.32	4.111e-06	5.9526e-06	663.5	269.53	3.8862e-06	5.9606e-06	324.01	151.84	128.95	77.673	4.715e-06	93.358	0.00043585	0.00025166	7.0196e-05	684.28	2.8006e-06	2.6582e-06	699.07	287.33	2.7913e-06	2.6407e-06	343.03	161.99	138.03	83.185	3.0353e-06	99.958	-131.661	-64.942	-60.914	-141.199	4.717	-13.508	-142.125	-134.433	-11.805	-10.520	-136.506	-131.524	-129.538	-124.494	1.390	-127.659	-8191	255	
1867.372	1	1	0	0	0.017129	0.073855	0.076167	0.13812	0.026776	0.26369	0.30956	0.093619	0.012585	0.13948	0.18337	0.075049	0.1629	0.11417	0.29971	0.193	-3.0042	-3.2875	-2.7854	-3.7292	-3.0854	-3.0354	-3.6063	-2.9062	-3.2188	-3.4646	-2.8604	-3.725	-3.0375	-3.0625	-3.5583	-3.1021	85.130	57.617	-138.678	-118.963	-40.706	103.075	186.730	-81.507	-80.109	88.037	-125.263	91.524	65.767	-42.314	71.190	115.091	0.00065906	0.00058859	0.0001946	652.21	4.7984e-06	5.3165e-06	667.83	270.99	3.3377e-06	6.8631e-06	326.08	152.28	128.31	77.852	4.7201e-06	93.257	0.0004346	0.00024661	6.9861e-05	685.87	2.7839e-06	2.6505e-06	702.65	288.19	2.807e-06	2.7346e-06	344.3	162.55	137.75	83.202	2.9703e-06	99.708	-133.335	-68.079	-65.764	-140.951	0.648	-4.854	-141.853	-134.376	-9.491	2.940	-136.237	-131.382	-128.862	-124.253	-22.814	-127.690	-8191	255	
1867.468	1	1	0	0	0.20368	0.021028	0.046842	0.14728	0.12174	0.23561	0.21426	0.072483	0.11407	0.17792	0.17247	0.044416	0.20972	0.56709	0.053282	0.17401	-2.9354	-3.4125	-2.8458	-3.6354	-3.0208	-3.0521	-3.7479	-2.925	-3.1375	-3.4292	-2.9375	-3.6604	-3.2167	-3.0833	-3.6604	-3.0771	-23.929	-121.768	-68.102	-129.743	-98.297	-101.422	120.394	-94.784	114.600	167.882	176.957	108.453	165.909	181.483	119.333	121.831	0.00069049	0.00054123	0.00018296	653.07	3.7984e-06	5.946e-06	659.45	270.54	4.0059e-06	7.3392e-06	323.74	150.63	128.46	77.383	4.4813e-06	92.326	0.00043999	0.00024992	6.9284e-05	684.99	2.6828e-06	2.6885e-06	697.2	287.4	2.8093e-06	2.6088e-06	340.91	161.08	137.47	82.797	2.9717e-06	98.646	-132.982	-63.144	-68.283	-141.217	-7.164	-12.248	-142.428	-134.309	-9.910	-1.327	-136.537	-131.724	-129.238	-124.360	-27.359	-127.778	-8191	255	
1867.564	1	1	0	0	0.09078	0.24457	0.19273	0.015863	0.24069	0.17569	0.064122	0.073771	0.12836	0.18678	0.13037	0.22236	0.23278	0.24607	0.21228	0.14476	-2.7687	-3.4979	-2.9188	-3.4979	-3.2667	-3.0125	-3.6771	-3.0458	-2.95	-3.6292	-2.7604	-3.4271	-3.4667	-2.7646	-3.5812	-3.1667	153.682	146.353	59.882	56.966	119.077	152.392	29.291	81.793	17.069	88.757	37.880	203.056	-31.801	147.470	-53.814	207.565	0.0006772	0.00059974	0.00017223	651.07	4.1957e-06	4.7384e-06	662.43	270.78	4.1561e-06	6.8023e-06	321.1	150.38	128.13	77.433	4.8465e-06	92.645	0.00043566	0.00024635	6.8679e-05	682.69	2.7749e-06	2.5877e-06	696.92	287.23	2.8292e-06	2.6433e-06	340.45	160.93	137.51	82.837	2.9107e-06	98.882	-133.177	-62.581	-66.523	-141.060	8.802	-11.175	-142.207	-134.445	-24.311	-9.080	-136.568	-131.512	-129.156	-124.383	-16.838	-127.699	-8191	255	
1867.661	1	1	0	0	0.30131	0.34881	0.15998	0.086657	0.14736	0.28599	0.13928	0.3245	0.092957	0.043347	0.32847	0.32409	0.10293	0.24696	0.08934	0.29196	-2.5708	-3.3396	-2.8229	-3.3042	-3.3854	-2.7729	-3.7125	-3.2062	-2.8563	-3.6958	-2.7583	-3.2771	-3.3771	-3.0208	-3.4146	-3.3729	-79.754	40.452	38.522	-67.787	4.223	42.894	159.896	201.971	166.377	201.570	-83.962	-151.759	-74.437	-107.779	176.401	67.737	0.00067256	0.00056938	0.00015489	650.4	3.5791e-06	5.4125e-06	663.72	270.56	3.045e-06	6.4951e-06	323.46	150.68	128.41	77.42	3.8892e-06	92.818	0.00042669	0.00024733	7.1415e-05	682.75	2.6921e-06	2.6126e-06	697.57	287.01	2.8499e-06	2.6069e-06	341.08	161.29	137.63	82.846	3.0326e-06	99.129	-132.388	-60.629	-62.158	-141.234	-1.539	-4.271	-142.302	-134.335	-19.057	-12.963	-136.567	-131.333	-129.334	-124.436	-21.644	-127.718	-8191	255	
1867.779	1	1	0	0	0.11501	0.2483	0.15401	0.13413	0.15184	0.15187	0.036878	0.17606	0.16169	0.14622	0.16118	0.26071	0.21136	0.086547	0.15809	0.16736	-2.3979	-3.5521	-2.6813	-3.1063	-3.5812	-2.8292	-3.6875	-3.1937	-2.8125	-3.5125	-3.0833	-3.2083	-3.5792	-2.9125	-3.4979	-3.4333	-27.377	-71.608	-130.236	54.783	-147.513	-66.590	10.597	181.981	95.877	168.012	195.982	196.766	148.140	-88.607	-85.343	-108.453	0.00065208	0.00050581	0.00014894	653.56	3.9355e-06	4.784e-06	665.3	270.27	3.4117e-06	5.6965e-06	325.53	151.85	128.32	77.422	4.3295e-06	93.276	0.00043348	0.00024371	7.0082e-05	684.24	2.6513e-06	2.6726e-06	699.55	287.44	2.8576e-06	2.5223e-06	343.27	162.13	137.88	82.914	3.0154e-06	99.668	-133.758	-58.117	-63.006	-141.140	-0.382	0.824	-142.211	-134.436	-27.735	5.933	-136.478	-131.386	-129.174	-124.268	-39.054	-127.738	-8191	255	
1867.876	1	1	0	0	0.052472	0.33439	0.22549	0.21691	0.060628	0.1642	0.059638	0.18094	0.14971	0.20849	0.041897	0.19373	0.057943	0.24139	0.068346	0.20371	-2.2333	-3.6333	-2.8896	-3.0792	-3.5062	-3.0208	-3.5125	-3.3146	-2.7521	-3.5667	-2.9688	-3.1792	-3.8438	-3.0458	-3.3563	-3.4125	2.491	-142.563	63.944	180.447	173.229	-57.385	-57.600	201.128	-138.977	38.231	138.637	-147.660	95.783	-150.259	-67.880	165.116	0.00065203	0.00064279	0.00015905	654.61	4.9609e-06	5.0855e-06	670.25	271.32	3.8592e-06	6.5543e-06	324.03	151.27	128.48	77.472	4.634e-06	92.889	0.00043329	0.00024889	6.8401e-05	686.46	2.7314e-06	2.6774e-06	702.91	288.43	2.8925e-06	2.5218e-06	343.03	161.93	137.72	83.008	2.9851e-06	99.369	-131.829	-62.298	-55.929	-141.007	-7.597	-23.356	-142.288	-134.495	-24.462	-4.319	-136.636	-131.509	-129.208	-124.413	-11.542	-127.438	-8191	255	
1867.972	1	1	0	0	0.22013	0.04409	0.17452	0.33641	0.053706	0.33557	0.087975	0.081882	0.43645	0.2063	0.048127	0.31975	0.053234	0.26404	0.17931	0.1886	-2.2958	-3.4146	-3.1125	-2.8875	-3.3979	-2.8312	-3.425	-3.6	-2.8708	-3.4938	-3.2917	-3.0375	-3.8083	-3.0417	-3.1437	-3.7625	36.169	179.952	207.150	159.296	-142.592	-139.805	-2.288	162.409	-56.913	-133.551	158.638	160.282	-151.881	142.535	71.558	165.584	0.00066811	0.00058233	0.00016733	649.58	4.6337e-06	6.3402e-06	663.04	271.27	3.856e-06	6.0823e-06	322.13	150.23	128.13	77.395	5.0324e-06	92.591	0.00043613	0.00024574	6.9413e-05	683.76	2.5698e-06	2.8026e-06	697.32	287.59	2.9365e-06	2.5477e-06	340.74	160.65	137.54	82.837	2.9987e-06	98.803	-132.118	-50.435	-69.346	-140.821	-1.700	-14.424	-141.956	-134.251	-5.578	1.313	-136.422	-131.392	-128.959	-124.481	-27.169	-127.654	-8191	255	
1868.068	1	1	0	0	0.16106	0.26412	0.15566	0.002856	0.17518	0.24379	0.2166	0.29943	0.21017	0.1351	0.2248	0.16113	0.028978	0.18863	0.23304	0.1203	-2.4542	-3.5146	-3.1792	-2.8854	-3.6521	-2.9854	-3.2042	-3.5104	-2.8375	-3.3479	-3.4125	-2.9229	-3.9125	-2.9958	-3.1792	-3.7792	29.901	67.815	114.530	-75.930	143.745	176.621	-15.954	139.644	181.461	-54.896	134.143	87.098	119.584	190.478	83.868	151.132	0.00066087	0.0005941	0.00019141	650.23	4.5291e-06	4.8549e-06	660.82	270.42	3.4098e-06	7.0503e-06	321.95	150.69	128.19	77.243	4.4148e-06	92.81	0.00043341	0.00024335	6.865e-05	682.37	2.6239e-06	2.716e-06	695.95	287.18	2.777e-06	2.6071e-06	340.7	160.84	137.55	82.78	3.1006e-06	98.94	-131.692	-64.306	-68.897	-140.964	5.551	-8.789	-142.183	-134.323	-4.386	-12.552	-136.507	-131.527	-129.065	-124.421	-26.586	-127.884	-8191	255	
1868.189	1	1	0	0	0.16228	0.28049	0.13879	0.093501	0.11598	0.081447	0.062981	0.065714	0.29886	0.19912	0.2585	0.055046	0.11553	0.2016	0.14105	0.15236	-2.3604	-3.3271	-3.1479	-2.9771	-3.6104	-3.025	-3.0375	-3.7729	-2.8063	-3.3563	-3.3708	-2.7521	-3.6604	-3.275	-2.9229	-3.6708	29.355	-18.789	194.391	47.620	-37.728	62.128	-4.635	-112.019	-14.191	39.529	165.318	-40.315	-83.526	168.596	138.675	127.655	0.00067537	0.00052719	0.00014753	651.36	3.4657e-06	6.6803e-06	663.34	269.86	4.9187e-06	6.39e-06	321.65	150.49	128.19	77.448	5.4886e-06	92.64	0.00044099	0.00024851	6.5736e-05	683.46	2.5839e-06	2.6483e-06	698.51	286.86	2.8441e-06	2.6296e-06	340.86	160.91	137.48	82.748	3.1001e-06	98.913	-133.109	-72.851	-66.843	-141.114	6.432	-19.350	-142.419	-134.584	-5.243	-6.018	-136.897	-131.799	-129.377	-124.793	-28.383	-127.857	-8191	255	
1868.260	1	1	0	0	0.1241	0.11531	0.19526	0.10052	0.11438	0.20222	0.17389	0.18892	0.090137	0.20349	0.35658	0.062865	0.22172	0.089081	0.20502	0.086587	-2.3896	-3.3479	-3.4042	-2.8958	-3.6021	-3.2875	-2.9479	-3.6958	-2.8708	-3.2021	-3.55	-2.9146	-3.6	-3.3792	-2.925	-3.6958	184.610	-58.276	54.741	-36.296	4.429	187.915	40.056	-99.462	205.457	-28.093	162.437	180.068	-111.299	63.423	-65.376	98.523	0.000666	0.00052123	0.00017478	650.69	3.9011e-06	5.1911e-06	662.56	269.65	3.8804e-06	5.7271e-06	322.44	150.53	127.83	76.941	4.6891e-06	92.651	0.00043893	0.00025164	6.8251e-05	682.22	2.6767e-06	2.7247e-06	697.78	286.77	2.847e-06	2.7073e-06	341.74	161.03	137.35	82.692	3.0881e-06	99.148	-132.104	-62.110	-55.916	-141.387	3.075	-15.458	-142.605	-134.793	-8.927	-5.766	-136.846	-131.861	-129.300	-124.732	-15.515	-127.921	-8191	255	
1868.381	1	1	0	0	0.1581	0.082268	0.14484	0.13943	0.0098321	0.087662	0.21625	0.16876	0.16465	0.32535	0.15616	0.05222	0.28495	0.26132	0.1812	0.12158	-2.6	-3.2083	-3.5979	-2.9542	-3.5062	-3.4625	-2.8542	-3.5	-3.0187	-3.1146	-3.725	-2.9375	-3.4875	-3.7208	-2.7562	-3.7562	-136.793	-65.769	-40.079	160.296	43.587	108.696	171.123	180.608	17.629	-144.582	-59.648	121.659	-27.219	-144.797	-8.883	-147.035	0.00065911	0.00051959	0.00017097	646.13	4.0323e-06	5.8797e-06	660.47	269.67	4.3673e-06	7.8735e-06	321.97	150.11	128.22	76.968	4.2839e-06	92.281	0.00043945	0.00024989	6.9655e-05	680.49	2.6643e-06	2.7111e-06	695.57	286.63	2.878e-06	2.8334e-06	340.65	160.67	137.45	82.606	3.0654e-06	98.679	-133.142	-67.836	-64.148	-141.352	0.911	12.145	-142.476	-134.677	-12.283	-2.988	-136.895	-131.845	-129.355	-124.712	-29.813	-127.835	-8191	255	
1868.477	1	1	0	0	0.13235	0.07748	0.11651	0.12297	0.11523	0.13937	0.36827	0.13425	0.13305	0.13323	0.050632	0.32166	0.02753	0.097613	0.10426	0.13744	-2.5146	-3.0438	-3.5229	-2.8458	-3.4979	-3.5687	-2.8417	-3.6604	-3.1562	-2.9646	-3.6354	-3.0729	-3.2208	-3.5208	-2.9104	-3.6896	158.702	-78.471	38.891	-81.908	135.053	94.845	108.290	47.771	205.648	-14.134	160.090	-117.892	117.970	-124.650	183.294	70.318	0.0006625	0.00059604	0.00018096	647.77	4.0486e-06	5.1257e-06	657.93	269.17	3.7872e-06	6.2433e-06	320.73	149.07	127.4	77.025	4.4667e-06	92.324	0.00044291	0.00024502	6.7645e-05	680.7	2.6953e-06	2.6723e-06	693.48	286.08	2.7511e-06	2.6959e-06	338.83	159.77	136.91	82.433	3.014e-06	98.322	-132.060	-63.857	-56.794	-141.546	3.751	-0.225	-142.505	-134.698	-15.725	-3.486	-136.918	-132.140	-129.444	-124.749	-7.335	-127.940	-8191	255	
1868.573	1	1	0	0	0.18008	0.070501	0.22727	0.22753	0.33074	0.12537	0.15835	0.29098	0.16094	0.095161	0.22069	0.034535	0.28607	0.19437	0.13598	0.29608	-2.7896	-2.9	-3.6667	-3.0479	-3.0938	-3.4167	-2.8583	-3.6208	-3.1708	-2.9313	-3.6937	-3.0875	-3.0917	-3.675	-3.075	-3.5146	-22.186	44.345	-5.238	123.277	204.529	-101.955	-24.568	114.226	104.781	-151.593	59.074	141.028	188.896	188.752	50.006	95.215	0.00065579	0.00060938	0.0001437	650.22	4.6358e-06	5.9147e-06	658.88	268.56	3.4983e-06	6.0311e-06	320.85	149.34	127.53	77.281	3.7028e-06	92.313	0.00043241	0.00024935	6.8586e-05	680.05	2.7659e-06	2.6386e-06	693.69	286.16	2.7365e-06	2.7207e-06	339.64	160.26	137.09	82.69	3.0167e-06	98.612	-133.006	-68.925	-58.654	-141.505	5.788	-12.821	-142.561	-134.776	-21.086	-5.285	-136.979	-131.889	-129.560	-124.674	-19.785	-127.870	-8191	255	
1868.668	1	1	0	0	0.29287	0.19427	0.18668	0.21053	0.21969	0.094489	0.021088	0.1005	0.28972	0.34956	0.016411	0.17557	0.27357	0.09418	0.081031	0.22532	-3.0729	-2.8375	-3.5062	-3	-2.8958	-3.5604	-2.7229	-3.5458	-3.3	-2.7396	-3.7354	-3.1896	-2.9188	-3.7021	-2.8729	-3.3854	97.556	-45.403	-151.393	183.828	20.922	84.197	-145.016	26.529	-43.803	187.203	-43.007	173.469	163.490	172.123	11.973	-105.221	0.00065862	0.00061169	0.00016602	647.1	3.7723e-06	6.2218e-06	658.65	270.06	3.9541e-06	6.5753e-06	322.82	150.82	128.66	77.544	4.4721e-06	92.888	0.00043544	0.00024959	7.0146e-05	680.01	2.7441e-06	2.52e-06	694.98	286.59	2.8671e-06	2.8169e-06	340.68	161.23	137.68	82.911	3.0345e-06	99.193	-133.777	-61.990	-70.169	-141.626	-8.946	-6.092	-142.776	-134.778	-7.033	3.144	-136.961	-131.839	-129.653	-124.662	-23.344	-127.859	-8191	255	
1868.788	1	1	0	0	0.18106	0.28346	0.152	0.28492	0.060837	0.1282	0.087908	0.33634	0.1562	0.028245	0.069547	0.16721	0.16153	0.28658	0.067412	0.16118	-3.0104	-2.6437	-3.5062	-3.2771	-3.0312	-3.575	-2.7729	-3.1875	-3.4708	-2.7979	-3.5375	-3.4729	-2.8896	-3.7396	-2.9562	-3.4667	163.735	180.308	197.924	146.275	46.080	102.248	58.651	133.514	-114.701	-49.897	163.389	-75.967	121.119	134.509	167.904	66.567	0.00068532	0.00049993	0.00014443	651	3.798e-06	6.0352e-06	663.9	269.32	4.526e-06	5.3682e-06	322.76	151.49	128.19	77.679	4.0443e-06	93.344	0.00043824	0.00025723	6.9783e-05	681.12	2.8123e-06	2.582e-06	698.03	287.15	2.8523e-06	2.7116e-06	341.97	161.52	137.76	83.056	3.1615e-06	99.635	-131.362	-60.518	-62.358	-141.407	3.049	-19.964	-142.430	-134.680	-10.928	-8.923	-136.795	-131.881	-129.436	-124.661	-16.421	-127.971	-8191	255	
1868.860	1	1	0	0	0.09997	0.35366	0.35673	0.13171	0.044899	0.04909	0.28576	0.16165	0.10989	0.08029	0.32253	0.18442	0.3605	0.13769	0.10968	0.31971	-3.1146	-2.7083	-3.3063	-3.2271	-2.9562	-3.5375	-2.8021	-3.2833	-3.5104	-2.6625	-3.3229	-3.2146	-3.0479	-3.6437	-2.975	-3.2521	-70.303	107.947	-94.259	69.427	18.173	-74.308	58.816	181.725	138.764	196.880	165.918	144.516	-141.362	-115.817	-117.699	97.337	0.00065817	0.00055669	0.00016979	650.16	3.5323e-06	5.3998e-06	664.07	271.19	3.4785e-06	5.8467e-06	323.62	150.37	127.44	77.453	4.147e-06	91.888	0.00043504	0.00025713	6.907e-05	683.78	2.7064e-06	2.5908e-06	698.83	287.75	2.8072e-06	2.7139e-06	341.52	160.69	137.18	82.75	3.0583e-06	98.453	-133.114	-69.377	-71.747	-141.620	5.261	-10.288	-142.809	-134.671	-4.586	1.696	-136.789	-131.869	-129.269	-124.580	-23.814	-127.872	-8191	255	
1868.956	1	1	0	0	0.15955	0.14077	0.22859	0.16698	0.19231	0.13914	0.38545	0.18563	0.21142	0.15442	0.12552	0.14102	0.23823	0.27244	0.16139	0.20545	-3.2062	-2.6667	-3.3292	-3.4896	-2.7958	-3.8333	-3.1771	-3.0563	-3.6771	-2.7	-3.3312	-3.5792	-2.8854	-3.6771	-3.1833	-3.0917	194.959	172.934	-123.325	162.924	135.873	-3.454	45.759	172.952	-26.863	59.205	-119.186	-127.043	-9.111	192.124	-39.395	137.420	0.00066619	0.00058241	0.00016441	651.41	3.4613e-06	5.8162e-06	658.9	270.17	3.9474e-06	7.6747e-06	321.92	149.76	127.88	77.492	4.718e-06	92.099	0.00042789	0.00025431	6.9705e-05	683.92	2.6987e-06	2.6242e-06	695.52	287.33	2.7821e-06	2.7619e-06	339.88	160.14	137.22	82.797	3.0129e-06	98.352	-133.310	-66.028	-65.437	-141.544	4.356	-21.623	-142.522	-134.790	-18.032	-16.629	-136.908	-131.881	-129.346	-124.618	-21.227	-127.836	-8191	255	
1869.052	1	1	0	0	0.24563	0.17907	0.22993	0.46406	0.12538	0.18768	0.22912	0.28602	0.26584	0.19239	0.25651	0.18445	0.29211	0.35649	0.14986	0.1397	-3.4688	-2.8771	-3.1583	-3.6125	-2.9062	-3.3583	-3.2792	-3.0042	-3.6375	-2.6979	-3.2896	-3.6271	-2.6646	-3.7146	-3.3146	-2.9542	90.779	17.497	-23.754	128.011	206.847	-84.512	117.402	-140.397	-32.371	-133.325	105.304	155.771	-115.751	187.692	56.270	-43.177	0.00066401	0.00039691	0.00017395	652.38	3.879e-06	5.2744e-06	663.43	270.65	4.2956e-06	5.6389e-06	324.69	150.14	128.35	77.417	5.1761e-06	92.229	0.000426	0.00024871	6.6477e-05	684.94	2.6706e-06	2.5245e-06	698.2	288.07	2.803e-06	2.7227e-06	342.24	160.75	137.63	82.862	2.9801e-06	98.71	-132.692	-73.511	-62.314	-141.520	-0.272	-1.973	-142.847	-134.645	-11.444	-11.463	-136.614	-131.910	-129.607	-124.475	-23.536	-127.718	-8191	255	
1869.148	1	1	0	0	0.086429	0.057595	0.22801	0.073151	0.30507	0.17193	0.19443	0.10739	0.23145	0.097767	0.23152	0.33959	0.13794	0.030118	0.082027	0.39653	-3.2	-2.75	-2.9979	-3.6312	-2.8604	-3.3688	-3.5042	-2.8708	-3.5479	-2.9917	-3.0104	-3.6	-2.7521	-3.475	-3.575	-2.925	-114.809	151.138	-24.599	-137.395	173.634	-136.283	176.849	130.990	-102.223	2.819	42.964	180.559	93.328	-29.646	-54.791	165.916	0.00067404	0.00055698	0.00017636	654.54	3.736e-06	4.489e-06	662.23	271.32	3.3361e-06	5.5728e-06	324.2	150.43	128.59	77.355	4.1659e-06	92.784	0.00042964	0.00025174	6.5992e-05	685.62	2.6467e-06	2.5616e-06	699.75	288.78	2.6679e-06	2.6333e-06	343.08	161.2	137.9	82.932	2.9875e-06	99.203	-133.703	-63.932	-57.367	-141.332	0.234	-10.168	-142.593	-134.745	-26.633	-23.829	-136.754	-131.708	-129.555	-124.460	-25.413	-127.880	-8191	255	
1869.269	1	1	0	0	0.18575	0.029051	0.17462	0.25387	0.27284	0.28409	0.26854	0.16672	0.067639	0.16723	0.22397	0.25824	0.27885	0.21139	0.086252	0.25698	-3.1396	-2.9417	-2.9313	-3.5229	-2.925	-3.1542	-3.6063	-2.9625	-3.4083	-3.2771	-3.0563	-3.5917	-2.9167	-3.2771	-3.3771	-2.9542	77.772	-125.900	66.468	175.163	151.400	-63.842	135.917	153.940	-136.928	180.669	-144.993	144.762	86.072	133.264	-104.871	112.673	0.00067602	0.00058659	0.00014934	654.69	3.7356e-06	4.3421e-06	664.61	272.31	3.8298e-06	6.2728e-06	325.36	151.38	128.21	77.788	4.7448e-06	93.303	0.00043081	0.00025341	6.7175e-05	687.65	2.6887e-06	2.6755e-06	702.08	289.06	2.8003e-06	2.6683e-06	343.92	162.06	137.91	83.302	3.0252e-06	99.668	-133.151	-67.774	-56.193	-141.379	-6.941	-19.056	-142.681	-134.586	-13.149	-8.044	-136.456	-131.537	-129.444	-124.540	-12.346	-127.880	-8191	255	
1869.365	1	1	0	0	0.18202	0.17388	0.12101	0.20466	0.16793	0.091903	0.28816	0.23445	0.29257	0.085556	0.18634	0.17054	0.30218	0.26118	0.25816	0.19459	-3.0521	-3.1562	-2.8625	-3.6125	-2.8958	-3.0021	-3.6375	-2.8021	-3.5104	-3.3187	-2.8854	-3.6854	-3	-3.0667	-3.6625	-2.9333	133.823	66.028	-26.635	148.533	-25.094	84.897	116.266	143.548	-29.698	168.589	198.513	123.575	172.948	182.772	-50.928	-139.997	0.00068489	0.00067687	0.00013943	655.16	4.3799e-06	6.5722e-06	665.62	270.6	4.4601e-06	6.3223e-06	323.47	150.51	128.01	77.338	5.0022e-06	92.464	0.0004386	0.00026501	6.622e-05	685.96	2.7075e-06	2.6627e-06	699.72	288.33	2.7844e-06	2.6165e-06	342.17	160.75	137.51	82.919	2.926e-06	98.788	-132.799	-64.255	-61.480	-141.453	8.755	-17.397	-142.449	-134.567	-5.999	-17.626	-136.624	-131.806	-129.323	-124.438	-11.584	-127.775	-8191	255	
1869.461	1	1	0	0	0.29405	0.16351	0.16434	0.25772	0.080644	0.050698	0.058131	0.068932	0.11894	0.1037	0.12536	0.19247	0.19203	0.11788	0.13089	0.087247	-3.0021	-3.2042	-2.6042	-3.7	-2.925	-2.9542	-3.7104	-2.8833	-3.2708	-3.1854	-2.75	-3.5854	-2.9771	-2.9854	-3.5833	-2.8812	196.171	126.194	147.841	140.796	176.812	-45.897	34.605	-139.988	203.812	116.322	94.225	196.857	182.300	-57.077	-19.556	179.120	0.00068279	0.00059776	0.00018134	652.78	4.0663e-06	6.0456e-06	660.31	272.13	3.5191e-06	4.7148e-06	321.99	150.32	128.58	77.636	4.3698e-06	92.442	0.00043968	0.00025336	6.6854e-05	684.36	2.6393e-06	2.5885e-06	696.89	288.45	2.732e-06	2.6128e-06	341.1	160.64	137.67	83.05	3.0036e-06	98.836	-132.596	-67.037	-55.757	-141.439	1.269	-17.810	-142.629	-134.628	-14.022	-7.366	-136.887	-131.927	-129.283	-124.609	-4.583	-127.949	-8191	255	
1869.557	1	1	0	0	0.08528	0.052164	0.18621	0.27896	0.26601	0.063805	0.13593	0.31522	0.30591	0.2805	0.099576	0.18512	0.032283	0.19943	0.15739	0.077886	-2.8396	-3.4167	-2.5729	-3.4729	-2.9104	-2.9021	-3.5896	-2.8896	-3.1937	-3.4146	-2.9375	-3.5021	-3.2917	-2.9167	-3.6437	-3.0583	151.393	-8.974	73.719	114.296	106.793	-46.028	207.082	151.162	84.784	117.273	75.568	187.154	57.203	-146.570	-70.494	165.335	0.00066457	0.00048177	0.00017926	649.68	3.9678e-06	6.09e-06	667.13	271.28	4.0271e-06	5.881e-06	324.71	150.53	128.63	77.749	4.8432e-06	92.944	0.00042659	0.00024781	6.9291e-05	684.52	2.6796e-06	2.6828e-06	699.24	288.83	2.7837e-06	2.5556e-06	342.1	161.1	137.59	83.233	3.0536e-06	99.274	-133.023	-84.797	-61.398	-141.384	8.121	-3.203	-142.426	-134.584	-15.015	-9.247	-137.042	-131.496	-129.332	-124.430	-24.643	-127.871	-8191	255	
1869.654	1	1	0	0	0.23343	0.14273	0.20369	0.10381	0.024259	0.21976	0.097095	0.26226	0.13916	0.14629	0.10582	0.25273	0.080918	0.11803	0.05035	0.2429	-2.8688	-3.5167	-2.9396	-3.4042	-3.1479	-2.8396	-3.5646	-2.9667	-2.9167	-3.4354	-2.7333	-3.4333	-3.4625	-2.8417	-3.4917	-3.2125	-62.287	147.319	-55.530	-136.895	118.801	-49.530	-131.439	176.528	-119.299	-11.961	-118.680	172.156	-113.074	118.357	146.158	169.279	0.00067911	0.00052318	0.00015398	651.79	3.6413e-06	4.8821e-06	663.98	271.79	3.384e-06	6.2313e-06	325.01	151.25	128.61	77.934	4.096e-06	93.55	0.00043618	0.00024171	7.0211e-05	684.8	2.6507e-06	2.75e-06	699.5	288.75	2.7855e-06	2.6584e-06	343.24	161.98	138.18	83.482	3.0061e-06	99.858	-133.200	-65.264	-68.384	-141.328	5.210	-14.381	-142.361	-134.836	-15.077	-6.535	-136.918	-131.524	-129.523	-124.439	-24.753	-127.690	-8191	255	
1869.750	1	1	0	0	0.11944	0.13742	0.11492	0.16155	0.054082	0.1698	0.11025	0.07876	0.11125	0.072694	0.14087	0.247	0.13766	0.096906	0.20024	0.098572	-2.475	-3.35	-2.825	-3.2313	-3.2875	-2.8583	-3.7354	-3.1167	-3.0333	-3.6146	-2.8792	-3.3625	-3.3542	-2.925	-3.5542	-3.4271	-110.422	168.298	-0.087	81.207	-119.940	21.920	-69.971	183.090	41.280	-112.454	90.393	-127.863	-68.986	-115.998	-98.470	-101.210	0.00065399	0.00066598	0.00016612	649.95	4.6522e-06	6.9551e-06	665.36	271.76	4.5472e-06	6.7504e-06	325.72	152.37	128.07	78.199	4.5142e-06	93.727	0.00043258	0.00024484	6.9192e-05	684.08	2.8012e-06	2.7689e-06	701.57	289.08	2.7927e-06	2.6214e-06	344.65	162.75	138.3	83.676	2.9367e-06	100	-132.814	-52.063	-60.574	-141.521	3.878	-13.559	-142.227	-134.795	-21.520	-2.505	-136.650	-131.633	-129.512	-124.452	-16.540	-127.795	-8191	255	
1869.869	1	1	0	0	0.13254	0.3898	0.13637	0.058972	0.20216	0.10918	0.071848	0.22413	0.19855	0.18948	0.12318	0.2379	0.23273	0.12243	0.2533	0.21111	-2.5896	-3.7083	-2.8521	-3.1979	-3.5312	-2.8292	-3.6208	-3.3333	-2.9021	-3.4979	-2.7792	-3.3104	-3.6417	-2.7708	-3.4583	-3.5021	189.862	-8.388	141.190	146.181	31.690	-64.082	26.923	-146.244	86.872	99.346	-32.261	162.367	14.215	-131.084	195.783	163.115	0.00068356	0.00065218	0.00016427	653.36	4.2024e-06	5.664e-06	662.69	271.38	4.1505e-06	6.8134e-06	323.23	150.53	128.09	77.962	4.5756e-06	92.719	0.00044255	0.00024222	7.1401e-05	685.3	2.6995e-06	2.6902e-06	697.2	288.43	2.8451e-06	2.6487e-06	341.9	161.04	137.86	83.419	2.9282e-06	99.095	-132.446	-59.892	-81.763	-141.244	-1.956	-23.501	-142.493	-134.765	-13.502	2.994	-136.923	-131.814	-129.601	-124.516	-22.081	-127.980	-8191	255	
1869.965	1	1	0	0	0.15966	0.017054	0.12723	0.092661	0.10451	0.13153	0.107	0.13055	0.10025	0.060999	0.21676	0.18712	0.057495	0.19706	0.098516	0.18408	-2.4313	-3.5021	-2.9583	-2.9542	-3.5583	-2.8312	-3.25	-3.3854	-2.6521	-3.6	-3.0417	-2.8833	-3.6708	-2.8688	-3.2208	-3.5167	-123.688	82.211	169.794	137.998	109.235	41.007	-35.149	155.022	147.414	-122.392	-148.990	97.547	17.629	167.147	115.423	190.063	0.00067503	0.00053156	0.00016464	647.18	4.3061e-06	5.7506e-06	659.23	271.36	3.4355e-06	6.3292e-06	323.31	150.99	127.79	77.965	5.5774e-06	93.216	0.00043852	0.00023432	7.2477e-05	681.64	2.6428e-06	2.6287e-06	695.4	288.2	2.7699e-06	2.6117e-06	341.42	161.2	137.99	83.576	2.92e-06	99.538	-132.472	-76.746	-69.717	-141.201	4.218	-8.586	-142.414	-134.674	2.578	-2.684	-136.684	-131.728	-129.583	-124.587	-23.040	-127.721	-8191	255	
1870.061	1	1	0	0	0.078822	0.25282	0.2406	0.10051	0.18475	0.16266	0.1162	0.12823	0.12452	0.031305	0.053721	0.21765	0.060114	0.26159	0.28281	0.23947	-2.4667	-3.4938	-3.1729	-2.8875	-3.4958	-2.7979	-3.2646	-3.6854	-2.625	-3.5104	-3.1188	-2.8063	-3.5812	-3.2438	-3.1854	-3.5167	158.754	131.696	-150.913	-69.837	-20.103	162.195	85.566	191.112	122.319	-60.670	-56.669	-145.515	42.799	100.293	-91.749	-141.378	0.00066251	0.00065252	0.00020103	654.81	4.1907e-06	4.7893e-06	666.6	272.91	5.0885e-06	7.0571e-06	324.32	151.61	129.04	78.412	4.5847e-06	93.723	0.00043836	0.00024032	7.098e-05	684.56	2.6664e-06	2.6777e-06	699.32	289.04	2.8652e-06	2.6211e-06	342.79	162.13	138.31	83.878	3.0353e-06	100.03	-133.857	-55.908	-68.855	-141.318	-1.644	-0.692	-142.494	-134.892	-21.084	-0.942	-136.652	-131.659	-129.468	-124.631	-16.290	-127.830	-8191	255	
1870.157	1	1	0	0	0.051072	0.18464	0.2191	0.23818	0.29684	0.13513	0.02961	0.19523	0.18409	0.17401	0.1594	0.077224	0.074393	0.24133	0.058258	0.30408	-2.3792	-3.325	-3.0687	-2.9458	-3.5583	-2.9313	-3.2021	-3.5792	-2.5625	-3.4042	-3.4188	-2.7229	-3.6437	-3.0583	-2.6979	-3.7167	-104.807	-99.167	206.097	174.847	-113.922	123.053	177.845	189.405	172.484	1.077	162.622	34.835	89.022	156.313	22.184	79.385	0.00068325	0.00055863	0.00015722	651.95	3.9509e-06	5.885e-06	667.1	272.75	3.5889e-06	5.2729e-06	325.31	152.06	129.42	78.447	4.2955e-06	94.218	0.00044499	0.00024302	7.0631e-05	684.71	2.6314e-06	2.7027e-06	699.46	289.31	2.7707e-06	2.6273e-06	343.79	162.42	138.73	83.919	2.9255e-06	100.53	-134.278	-73.567	-67.277	-141.421	-1.819	-3.849	-142.519	-134.755	-12.849	8.290	-136.747	-131.700	-129.241	-124.592	-23.538	-128.055	-8191	255	
#DATA ENDS
