BOXY.EXE: ISS Imagent and Oximeter Data Acquisition Program Version 0.80
Ascii Record File

#ACQ INFORMATION
2  Detector Channels 
16  External MUX Channels 
1  Auxiliary Channels 
5000  Waveform (CCF) Frequency (Hz)
1  Waveforms Skipped 
30  Waveforms Averaged 
1  Cycles Averaged 
16  Acquisitions per Waveform 
10.0806  Updata Rate (Hz) 

#FILE INFORMATION
TRUE -- External MUX Channel results are PARSED.
FALSE -- AC DC and Phase are NOT grouped.
TRUE -- Companion Program Settings File CREATED.
FALSE -- AC data not excluded
FALSE -- DC data not excluded
FALSE -- Phase data not excluded
FALSE -- Auxillary Chn. data not excluded
Tab delimiters

#CALIBRATION STATE
TRUE -- Waveform Calibration Values APPLIED.


#AUX CALIBRATION VALUES
Val Type	aux-1	

Term	1.0000e+00	
Factor	0.0000e+00	


#WF CALIBRATION VALUES
A = Detector Channel
Val Type	A-AC1	A-AC2	A-AC3	A-AC4	A-AC5	A-AC6	A-AC7	A-AC8	A-AC9	A-AC10	A-AC11	A-AC12	A-AC13	A-AC14	A-AC15	A-AC16	A-DC1	A-DC2	A-DC3	A-DC4	A-DC5	A-DC6	A-DC7	A-DC8	A-DC9	A-DC10	A-DC11	A-DC12	A-DC13	A-DC14	A-DC15	A-DC16	A-Ph1	A-Ph2	A-Ph3	A-Ph4	A-Ph5	A-Ph6	A-Ph7	A-Ph8	A-Ph9	A-Ph10	A-Ph11	A-Ph12	A-Ph13	A-Ph14	A-Ph15	A-Ph16	

Term	0.00000e+00	0.00000e+00	0.00000e+00	0.00000e+00	0.00000e+00	0.00000e+00	0.00000e+00	0.00000e+00	0.00000e+00	0.00000e+00	0.00000e+00	0.00000e+00	0.00000e+00	0.00000e+00	0.00000e+00	0.00000e+00	0.00000e+00	0.00000e+00	0.00000e+00	0.00000e+00	0.00000e+00	0.00000e+00	0.00000e+00	0.00000e+00	0.00000e+00	0.00000e+00	0.00000e+00	0.00000e+00	0.00000e+00	0.00000e+00	0.00000e+00	0.00000e+00	0.00000e+00	0.00000e+00	0.00000e+00	0.00000e+00	0.00000e+00	0.00000e+00	0.00000e+00	0.00000e+00	0.00000e+00	0.00000e+00	0.00000e+00	0.00000e+00	0.00000e+00	0.00000e+00	0.00000e+00	0.00000e+00	
Factor	1.00000e+00	1.00000e+00	1.00000e+00	1.00000e+00	1.00000e+00	1.00000e+00	1.00000e+00	1.00000e+00	1.00000e+00	1.00000e+00	1.00000e+00	1.00000e+00	1.00000e+00	1.00000e+00	1.00000e+00	1.00000e+00	1.00000e+00	1.00000e+00	1.00000e+00	1.00000e+00	1.00000e+00	1.00000e+00	1.00000e+00	1.00000e+00	1.00000e+00	1.00000e+00	1.00000e+00	1.00000e+00	1.00000e+00	1.00000e+00	1.00000e+00	1.00000e+00	X	X	X	X	X	X	X	X	X	X	X	X	X	X	X	X	

B = Detector Channel
Val Type	B-AC1	B-AC2	B-AC3	B-AC4	B-AC5	B-AC6	B-AC7	B-AC8	B-AC9	B-AC10	B-AC11	B-AC12	B-AC13	B-AC14	B-AC15	B-AC16	B-DC1	B-DC2	B-DC3	B-DC4	B-DC5	B-DC6	B-DC7	B-DC8	B-DC9	B-DC10	B-DC11	B-DC12	B-DC13	B-DC14	B-DC15	B-DC16	B-Ph1	B-Ph2	B-Ph3	B-Ph4	B-Ph5	B-Ph6	B-Ph7	B-Ph8	B-Ph9	B-Ph10	B-Ph11	B-Ph12	B-Ph13	B-Ph14	B-Ph15	B-Ph16	

Term	0.00000e+00	0.00000e+00	0.00000e+00	0.00000e+00	0.00000e+00	0.00000e+00	0.00000e+00	0.00000e+00	0.00000e+00	0.00000e+00	0.00000e+00	0.00000e+00	0.00000e+00	0.00000e+00	0.00000e+00	0.00000e+00	0.00000e+00	0.00000e+00	0.00000e+00	0.00000e+00	0.00000e+00	0.00000e+00	0.00000e+00	0.00000e+00	0.00000e+00	0.00000e+00	0.00000e+00	0.00000e+00	0.00000e+00	0.00000e+00	0.00000e+00	0.00000e+00	-3.28693e+01	-1.32896e+02	-1.28227e+02	-1.84331e+02	-5.50572e+01	-6.76425e+01	-1.55816e+02	-1.62015e+02	-2.49983e+01	-7.00590e+01	-1.85569e+02	-1.70510e+02	-1.86375e+02	-1.76893e+02	-4.33464e+01	-1.49751e+02	
Factor	2.47962e-05	2.18224e-04	5.54421e-05	2.29676e-01	2.20983e-06	2.16624e-06	1.69630e-01	5.37163e-02	1.72526e-06	2.07229e-06	2.26844e-01	3.20966e-02	6.82822e-02	9.64419e-03	2.46265e-06	1.39987e-02	1.08586e-05	1.59674e-05	4.46559e-06	1.17077e-01	1.66956e-07	1.78009e-07	8.13498e-02	2.74856e-02	1.61655e-07	1.76989e-07	1.11723e-01	1.59859e-02	3.49321e-02	4.98455e-03	1.69818e-07	7.00431e-03	X	X	X	X	X	X	X	X	X	X	X	X	X	X	X	X	



#DISTANCE SETTINGS
A = Detector Channel
A-1	A-2	A-3	A-4	A-5	A-6	A-7	A-8	A-9	A-10	A-11	A-12	A-13	A-14	A-15	A-16	

2.5000e+00	3.0000e+00	2.5000e+00	3.0000e+00	2.0000e+00	3.0000e+00	1.5000e+00	3.0000e+00	3.0000e+00	3.0000e+00	3.0000e+00	3.0000e+00	3.0000e+00	3.0000e+00	1.5000e+00	3.0000e+00	

B = Detector Channel
B-1	B-2	B-3	B-4	B-5	B-6	B-7	B-8	B-9	B-10	B-11	B-12	B-13	B-14	B-15	B-16	

1.0000e+01	1.0000e+01	1.0000e+01	1.4400e+00	1.0000e+01	1.0000e+01	1.5100e+00	1.9400e+00	1.0000e+01	1.0000e+01	1.9900e+00	2.4900e+00	2.4100e+00	2.9000e+00	1.0000e+01	2.9800e+00	




#DATA BEGINS
time	group	step	mark	flag	A-AC1	A-AC2	A-AC3	A-AC4	A-AC5	A-AC6	A-AC7	A-AC8	A-AC9	A-AC10	A-AC11	A-AC12	A-AC13	A-AC14	A-AC15	A-AC16	A-DC1	A-DC2	A-DC3	A-DC4	A-DC5	A-DC6	A-DC7	A-DC8	A-DC9	A-DC10	A-DC11	A-DC12	A-DC13	A-DC14	A-DC15	A-DC16	A-Ph1	A-Ph2	A-Ph3	A-Ph4	A-Ph5	A-Ph6	A-Ph7	A-Ph8	A-Ph9	A-Ph10	A-Ph11	A-Ph12	A-Ph13	A-Ph14	A-Ph15	A-Ph16	B-AC1	B-AC2	B-AC3	B-AC4	B-AC5	B-AC6	B-AC7	B-AC8	B-AC9	B-AC10	B-AC11	B-AC12	B-AC13	B-AC14	B-AC15	B-AC16	B-DC1	B-DC2	B-DC3	B-DC4	B-DC5	B-DC6	B-DC7	B-DC8	B-DC9	B-DC10	B-DC11	B-DC12	B-DC13	B-DC14	B-DC15	B-DC16	B-Ph1	B-Ph2	B-Ph3	B-Ph4	B-Ph5	B-Ph6	B-Ph7	B-Ph8	B-Ph9	B-Ph10	B-Ph11	B-Ph12	B-Ph13	B-Ph14	B-Ph15	B-Ph16	aux-1	digaux	

41379.785	1	1	0	256	0.2342	0.16993	0.13854	0.26144	0.068932	0.22228	0.029992	0.30045	0.24837	0.28371	0.088114	0.1434	0.075924	0.12406	0.24455	0.029655	-1.1292	-1.3563	-1.8917	-1.4354	-1.7854	-1.8833	-1.4438	-1.8854	-1.7292	-1.5417	-2.0042	-1.6604	-1.7104	-1.9729	-1.4604	-1.9188	108.438	67.578	233.609	253.673	172.258	-42.290	235.394	191.396	135.560	204.733	171.752	262.877	-28.515	100.875	128.271	35.654	0.00037685	0.00054383	0.00012098	428.36	4.8795e-06	5.4329e-06	539.59	185.92	2.6915e-06	5.5137e-06	238.52	125.1	87.692	42.017	5.0662e-06	71.926	0.00028296	0.00012761	3.1408e-05	436.31	1.3217e-06	1.2798e-06	551.03	190.89	1.4882e-06	1.3477e-06	242.31	129.06	91.032	43.827	1.6016e-06	74.397	-73.833	-27.837	-6.818	-83.279	55.906	56.614	-83.632	-77.637	96.932	53.798	-79.758	-75.845	-73.809	-69.946	79.976	-72.471	-8191	255	
41379.883	1	1	0	0	0.2101	0.1353	0.21119	0.11866	0.21112	0.084004	0.075113	0.03764	0.17658	0.21887	0.043182	0.038665	0.11804	0.15544	0.31981	0.17658	-1.2229	-1.4438	-1.8312	-1.7062	-1.6	-1.7938	-1.5063	-1.95	-1.9667	-1.3354	-1.9896	-1.7625	-1.6021	-1.9396	-1.4021	-1.8813	-35.431	-23.754	239.664	191.903	230.292	106.181	191.098	194.376	9.091	-55.131	52.736	194.663	-37.872	177.349	126.454	228.520	0.00038563	0.00060997	0.00017063	427.65	3.6526e-06	4.6903e-06	542.85	186.14	2.795e-06	3.9628e-06	236.91	125.56	88.675	42.557	4.9658e-06	72.627	0.00027703	0.00012837	3.2562e-05	439.06	1.3478e-06	1.2746e-06	553.84	191.69	1.3845e-06	1.3138e-06	242.72	129.49	91.369	44.201	1.5807e-06	75.152	-73.591	-11.716	-3.245	-83.207	72.804	62.093	-83.661	-77.565	67.153	42.859	-79.638	-75.786	-73.891	-70.028	70.469	-72.349	-8191	255	
41379.977	1	1	0	0	0.065192	0.11809	0.14299	0.2157	0.061186	0.27396	0.16955	0.10967	0.091041	0.35213	0.23392	0.25187	0.19219	0.30464	0.34804	0.28794	-1.4312	-1.5229	-1.8375	-1.8062	-1.6104	-2.1021	-1.7	-1.9771	-1.9354	-1.4438	-1.8937	-1.9229	-1.5	-2.1479	-1.6	-1.8813	77.252	-87.348	40.127	-82.270	-70.175	-19.866	-32.819	-70.791	158.979	34.277	73.503	38.530	109.003	233.508	140.549	218.618	0.00039526	0.00061037	0.00012615	433.51	3.5904e-06	4.9559e-06	545.78	186.14	2.1516e-06	4.9922e-06	236.19	125.34	88.298	42.504	3.4342e-06	72.864	0.00028094	0.00012667	3.3427e-05	440.66	1.2988e-06	1.2375e-06	554.71	192.08	1.399e-06	1.2695e-06	242.65	129.07	91.527	44.282	1.4944e-06	75.109	-74.699	-9.562	-21.208	-83.238	61.459	55.698	-83.938	-77.756	84.956	58.953	-79.654	-75.733	-73.907	-70.215	47.761	-72.541	-8191	255	
41380.074	1	1	0	0	0.2401	0.09473	0.13374	0.38243	0.09212	0.27309	0.19973	0.11704	0.15998	0.13995	0.2164	0.1104	0.10651	0.17746	0.13629	0.28625	-1.4875	-1.4562	-1.8229	-1.625	-1.5479	-2.0479	-1.775	-1.8	-1.8292	-1.525	-1.9104	-1.9125	-1.4792	-2.0938	-1.6896	-1.7833	216.283	10.032	51.908	-29.285	184.467	-25.862	189.623	-3.739	66.403	193.428	-87.792	-45.067	5.856	193.642	126.807	209.227	0.00037435	0.00033666	0.00011699	433.21	4.036e-06	5.2263e-06	543.73	186.35	3.6024e-06	5.1543e-06	237.89	125.25	87.724	42.703	3.6343e-06	72.646	0.00026925	0.00011124	3.0487e-05	441.75	1.3276e-06	1.2105e-06	554.47	191.8	1.404e-06	1.2839e-06	242.63	128.95	91.291	44.377	1.4831e-06	75.235	-75.969	-28.304	-0.686	-83.234	66.431	52.998	-83.572	-77.784	75.327	63.160	-79.300	-76.028	-74.332	-70.035	63.326	-72.640	-8191	255	
41380.168	1	1	0	0	0.19876	0.12661	0.13595	0.098271	0.069461	0.14035	0.058832	0.1952	0.049337	0.15743	0.12701	0.051102	0.14045	0.042035	0.066675	0.075208	-1.4937	-1.5208	-1.8646	-1.7917	-1.6875	-2.2188	-1.8167	-1.7729	-1.9875	-1.7062	-1.9917	-1.9104	-1.5917	-2.0396	-1.8188	-1.7167	31.579	157.660	207.411	244.818	-35.014	255.733	253.917	174.161	194.127	143.635	-66.912	257.775	122.399	142.371	178.704	237.834	0.00038804	0.00066506	0.00011848	434.68	5.4829e-06	4.8279e-06	544.9	187.68	2.9628e-06	4.5894e-06	238.83	125.58	88.05	42.68	3.1761e-06	72.886	0.00027122	0.00012707	3.285e-05	442.62	1.3169e-06	1.0569e-06	555.1	192.32	1.3838e-06	1.2983e-06	243.34	129.35	91.388	44.411	1.4689e-06	75.467	-73.278	-9.968	-20.397	-83.448	75.289	49.948	-83.657	-77.692	81.632	35.496	-79.862	-75.902	-73.715	-70.384	67.325	-72.511	-8191	255	
41380.289	1	1	0	0	0.046183	0.096442	0.14927	0.18544	0.19231	0.30662	0.31893	0.038022	0.15308	0.1476	0.051371	0.13765	0.3652	0.1932	0.11084	0.33556	-1.625	-1.5604	-1.4229	-1.9937	-1.5375	-1.8917	-1.8687	-1.475	-2.0104	-1.6979	-2.0521	-2.0521	-1.4729	-1.9833	-1.8292	-1.6417	69.973	81.292	20.713	230.669	196.334	180.960	200.579	222.070	126.488	-89.323	163.222	212.603	240.083	-85.129	-4.292	203.400	0.00038231	0.00052335	0.0001137	434.79	3.4605e-06	4.7032e-06	544.89	187.24	2.9769e-06	4.3887e-06	238.1	125.3	88.903	42.517	3.7507e-06	72.973	0.00027101	0.00012368	3.0989e-05	443.15	1.3489e-06	1.189e-06	556.65	192.47	1.3899e-06	1.2684e-06	242.59	129.42	91.287	44.28	1.476e-06	75.478	-75.570	-12.500	-10.055	-83.267	51.985	36.725	-83.701	-77.842	93.965	55.303	-79.744	-76.005	-73.510	-70.438	75.779	-72.373	-8191	255	
41380.387	1	1	0	0	0.2656	0.4379	0.34446	0.23077	0.25947	0.36749	0.1421	0.25011	0.15552	0.03535	0.10418	0.076497	0.014568	0.22181	0.13231	0.10185	-1.5812	-1.7354	-1.6437	-1.9271	-1.4792	-2.0312	-1.9792	-1.725	-1.9917	-1.5542	-1.6583	-2.1188	-1.4937	-1.8438	-1.8167	-1.4854	29.809	90.560	35.417	-36.616	77.323	18.657	125.789	210.871	-46.215	-93.020	181.412	89.256	254.578	-73.438	69.179	-84.774	0.00038832	0.00059142	0.00010712	433.75	5.4403e-06	2.8376e-06	545.98	186.93	3.2301e-06	4.1367e-06	237.01	125.46	88.285	42.535	3.068e-06	73.295	0.00027705	0.00011716	3.3873e-05	442.27	1.3503e-06	1.1348e-06	557.64	192.04	1.3411e-06	1.2194e-06	243.23	129.4	91.318	44.287	1.4028e-06	75.644	-74.768	-23.842	-10.762	-83.254	60.511	66.601	-83.626	-77.574	93.368	48.487	-79.804	-75.750	-73.566	-70.500	70.217	-72.449	-8191	255	
41380.480	1	1	0	0	0.29083	0.12752	0.15846	0.11124	0.21446	0.13502	0.2696	0.070789	0.17656	0.31734	0.038881	0.10397	0.08824	0.1093	0.041843	0.11587	-1.6313	-1.8667	-1.5583	-2.0208	-1.3792	-1.7708	-2.0583	-1.5979	-1.925	-1.9	-1.7542	-2.3458	-1.6042	-1.7604	-2.0083	-1.8	155.256	147.153	146.016	20.394	188.861	-74.816	247.738	169.280	109.557	47.765	-90.571	234.666	72.177	113.434	95.399	-78.084	0.00038807	0.00055603	8.4882e-05	432.34	5.0933e-06	4.8959e-06	541.86	185.86	3.2317e-06	4.0378e-06	237.46	125.29	87.968	42.507	4.5434e-06	72.902	0.0002721	0.00011656	3.2124e-05	441.27	1.3186e-06	1.2327e-06	554.11	191.42	1.3027e-06	1.3009e-06	242.56	129.27	91.249	44.256	1.4562e-06	75.377	-74.633	-4.182	-9.599	-83.257	64.253	45.080	-83.555	-77.499	77.928	50.807	-79.672	-75.955	-74.193	-70.355	85.873	-72.519	-8191	255	
41380.551	1	1	0	0	0.41536	0.33264	0.23102	0.049359	0.11676	0.082129	0.16306	0.20951	0.096067	0.21437	0.18011	0.2548	0.047657	0.21642	0.19331	0.23101	-1.4854	-1.6104	-1.7417	-2.0375	-1.7188	-1.8563	-2.3187	-1.4813	-1.9604	-1.9042	-1.5333	-1.875	-1.7167	-1.7646	-1.9479	-1.7208	25.207	-15.859	105.967	168.337	138.915	254.909	238.160	157.507	-1.612	-19.441	179.034	263.890	138.019	-72.074	-63.199	169.085	0.00038688	0.000556	0.00011304	433.15	3.4765e-06	4.754e-06	545.09	186.68	3.5957e-06	5.0061e-06	238.21	125.72	87.944	42.515	4.712e-06	72.589	0.00026961	0.00011842	2.9836e-05	440.91	1.2654e-06	1.1674e-06	555.77	191.65	1.3003e-06	1.1877e-06	243.7	129.6	90.975	44.187	1.3946e-06	75.477	-76.308	-7.042	-13.339	-83.118	58.472	49.849	-83.621	-77.848	83.179	59.890	-79.813	-75.896	-73.480	-70.090	79.121	-72.173	-8191	255	
41380.672	1	1	0	0	0.16599	0.12717	0.12687	0.12048	0.13528	0.26124	0.18553	0.2276	0.13034	0.33056	0.1505	0.26459	0.050361	0.45005	0.077979	0.068365	-1.4188	-1.9875	-1.5021	-2.0958	-1.6625	-1.7375	-2.1875	-1.5417	-1.7354	-2.2042	-1.6958	-1.9833	-1.675	-1.7313	-2.05	-1.6354	174.959	210.768	173.414	186.710	6.540	60.049	-34.477	246.772	124.842	-8.431	77.972	-75.905	47.674	241.797	201.377	227.992	0.00038606	0.00040856	0.00010876	429.3	4.1511e-06	5.1908e-06	545.25	188.24	3.1456e-06	4.3156e-06	241.77	125.92	88.238	42.541	3.9059e-06	73.469	0.00027312	0.00011184	3.1092e-05	440.96	1.2591e-06	1.2579e-06	556.93	192.2	1.4017e-06	1.195e-06	244.91	130	91.316	44.263	1.3621e-06	75.899	-76.000	-17.792	12.508	-82.830	58.151	56.738	-83.914	-77.633	88.975	32.484	-80.020	-75.967	-73.953	-70.006	74.337	-72.307	-8191	255	
41380.770	1	1	0	0	0.019827	0.27796	0.094987	0.21764	0.089454	0.2987	0.24626	0.1126	0.059924	0.1712	0.13509	0.14249	0.078631	0.23498	0.13391	0.28866	-1.5187	-1.8958	-1.4688	-2.0854	-1.5896	-1.7042	-2.2125	-1.6917	-1.7729	-2.0187	-1.5396	-2.1188	-1.7104	-1.4625	-2.1125	-1.6958	218.780	236.529	145.007	-71.164	92.793	201.347	117.643	-43.856	-57.212	212.421	115.504	147.494	28.050	77.558	15.543	256.364	0.00039012	0.00046784	0.00013137	433.79	5.1624e-06	4.5482e-06	545.76	186.99	3.2127e-06	3.55e-06	241.08	126.53	87.471	42.515	4.6293e-06	73.206	0.00027235	0.0001142	3.2896e-05	440.95	1.3075e-06	1.2034e-06	558.17	191.87	1.3852e-06	1.2006e-06	245.47	130.3	91.007	44.289	1.3904e-06	75.992	-75.133	-14.479	-9.449	-82.971	75.806	56.602	-83.689	-77.793	81.426	69.400	-79.915	-75.820	-74.015	-70.394	63.963	-72.622	-8191	255	
41380.863	1	1	0	0	0.36576	0.011544	0.051386	0.17156	0.25483	0.19579	0.2341	0.25915	0.20773	0.40087	0.12057	0.23199	0.4053	0.11648	0.24883	0.34052	-1.4479	-1.9333	-1.5958	-1.8521	-1.7896	-1.6896	-1.9188	-1.5479	-1.7458	-1.8229	-1.4708	-2.0333	-1.875	-1.5187	-1.7958	-1.9062	249.709	246.334	-13.416	-92.534	-11.625	-21.660	-92.825	245.719	-47.826	180.693	61.481	262.337	-86.927	225.505	207.577	239.546	0.00039629	0.00055093	0.00012528	435.18	3.6131e-06	5.22e-06	548.01	186.18	3.3221e-06	4.9493e-06	238.19	125.74	87.225	42.261	3.6928e-06	73.171	0.00027601	0.00011284	3.2878e-05	442.92	1.3238e-06	1.1997e-06	557.52	191.52	1.2966e-06	1.1866e-06	242.74	129.84	90.982	44.098	1.4367e-06	75.578	-74.458	-20.456	-22.530	-83.286	60.785	48.375	-83.826	-77.764	81.218	43.124	-80.189	-75.651	-73.924	-70.259	73.050	-72.421	-8191	255	
41380.961	1	1	0	0	0.083344	0.23634	0.10385	0.16492	0.18134	0.25502	0.14254	0.13306	0.012864	0.14345	0.16155	0.20533	0.2312	0.16338	0.27308	0.30651	-1.0979	-1.9917	-1.5292	-1.7729	-1.9083	-1.4562	-2.0021	-1.7917	-1.5583	-2.0812	-1.6417	-1.8937	-1.9167	-1.675	-1.8188	-1.7917	214.322	-33.767	249.831	250.082	-83.630	215.517	203.004	223.138	55.352	105.916	22.180	255.996	-71.447	-53.793	171.134	209.235	0.00038878	0.0004814	0.00011157	430.04	5.3044e-06	5.5233e-06	545.79	186.13	2.7512e-06	3.5345e-06	239.02	125.84	87.777	42.484	3.9115e-06	73.357	0.00027717	0.00011087	3.232e-05	440.45	1.2383e-06	1.2249e-06	556.36	191.05	1.334e-06	1.1608e-06	243.18	129.85	90.98	44.055	1.3904e-06	75.805	-74.360	-7.951	-10.938	-83.218	61.801	63.551	-83.694	-77.638	85.249	66.720	-79.681	-75.687	-73.935	-69.954	62.004	-72.802	-8191	255	
41381.078	1	1	0	0	0.12669	0.23835	0.17955	0.18808	0.21603	0.11297	0.13374	0.25434	0.15199	0.29898	0.30337	0.061795	0.25539	0.30724	0.35931	0.3073	-1.0583	-2.0292	-1.5	-1.8354	-2.1104	-1.4688	-2.0604	-1.8	-1.6083	-1.8979	-1.7479	-1.7333	-1.8208	-1.5792	-1.7458	-1.7896	118.618	66.324	249.705	218.972	249.029	-30.601	245.551	219.710	-3.934	186.222	202.389	204.209	-93.260	247.068	6.643	-89.472	0.00038223	0.00042159	9.4219e-05	433.53	4.1307e-06	5.7004e-06	546.5	185.77	3.3042e-06	4.4443e-06	237.11	126	87.887	42.3	3.3413e-06	73.571	0.00028045	0.00010505	3.1827e-05	440.65	1.2932e-06	1.3577e-06	557.27	191.35	1.3626e-06	1.0892e-06	243.29	130.06	90.958	44.122	1.4148e-06	76.021	-73.811	-12.357	-20.484	-83.390	73.121	47.767	-83.192	-77.670	64.874	35.485	-79.446	-75.983	-74.143	-70.307	66.223	-72.370	-8191	255	
41381.152	1	1	0	0	0.14823	0.12065	0.26391	0.20868	0.14686	0.11589	0.28479	0.27481	0.13125	0.23997	0.083637	0.1334	0.16838	0.13374	0.18011	0.21808	-0.94792	-1.8417	-1.7083	-1.7125	-2.0354	-1.6104	-1.9646	-1.9562	-1.4333	-1.9021	-1.6063	-1.7625	-1.975	-1.575	-1.7875	-2.0312	209.022	36.640	187.960	-94.265	196.041	116.766	215.362	-67.835	-75.349	-44.856	111.530	-52.766	51.737	190.198	243.441	251.258	0.00038672	0.0004895	8.8452e-05	435.88	5.0117e-06	3.1032e-06	546.5	186.02	2.8832e-06	5.1362e-06	236.51	126.4	87.038	42.275	5.2426e-06	73.616	0.00027834	0.00010964	3.1482e-05	440.2	1.2063e-06	1.1374e-06	557.91	191.11	1.3468e-06	1.1184e-06	243.3	130.35	90.641	44.073	1.4604e-06	76.141	-74.092	-7.734	-8.401	-83.341	66.637	34.801	-83.618	-77.654	84.938	43.630	-79.834	-75.940	-73.906	-70.350	63.571	-72.466	-8191	255	
41381.250	1	1	0	0	0.34488	0.11606	0.25892	0.1181	0.24009	0.23276	0.076995	0.14113	0.13812	0.14138	0.26144	0.091599	0.37496	0.25247	0.4237	0.18418	-1.0896	-1.8583	-1.7667	-1.6479	-1.9417	-1.3708	-1.7896	-2.0021	-1.4604	-2.0833	-1.7229	-1.4896	-2.1021	-1.6542	-1.6292	-2.1333	54.323	155.664	137.324	254.579	49.190	233.859	-21.627	178.994	57.737	219.778	-38.438	30.748	-77.605	262.985	-50.777	188.568	0.00040114	0.00055834	0.00013754	431.91	5.8525e-06	5.9544e-06	544.57	186.3	2.466e-06	5.4425e-06	237.57	126.25	87.835	42.168	3.4597e-06	73.068	0.0002833	0.00011164	3.1687e-05	440.45	1.2636e-06	1.2735e-06	556.95	190.82	1.3525e-06	1.1324e-06	242.86	130.15	90.855	43.941	1.4562e-06	75.813	-75.083	-25.195	-6.934	-83.047	67.791	54.250	-83.880	-77.797	95.028	44.718	-80.116	-75.872	-74.167	-70.233	88.497	-72.449	-8191	255	
41381.367	1	1	0	0	0.20909	0.13498	0.2182	0.17282	0.20789	0.058778	0.2071	0.099924	0.094698	0.088773	0.29139	0.24609	0.13367	0.16065	0.058596	0.3445	-1.0042	-2.0771	-1.6375	-1.725	-1.95	-1.6063	-1.7563	-2.0604	-1.6625	-1.8021	-1.7896	-1.6938	-2.1208	-1.6125	-1.6021	-2.025	70.928	257.241	-14.020	-76.266	204.948	181.325	168.194	97.225	-29.802	74.033	-53.665	-68.828	229.610	112.627	-47.895	-88.337	0.00039885	0.00054058	0.000138	430.81	4.7715e-06	4.5985e-06	546.52	185.7	2.497e-06	5.1626e-06	236.21	125.92	87.741	42.372	4.068e-06	73.214	0.00028015	0.00010934	3.3148e-05	439.4	1.1934e-06	1.2398e-06	556.56	190.79	1.3828e-06	1.1482e-06	242.54	129.77	90.804	43.994	1.4275e-06	75.851	-74.242	-15.834	-3.168	-83.169	83.541	42.991	-83.687	-77.724	74.576	65.489	-79.828	-75.685	-73.804	-70.400	50.888	-72.543	-8191	255	
41381.465	1	1	0	0	0.068925	0.12919	0.090177	0.15211	0.20532	0.28184	0.19386	0.19309	0.12937	0.061027	0.055277	0.16123	0.26953	0.36658	0.21461	0.15845	-1.0583	-1.8979	-1.9354	-1.3521	-2.0958	-1.6521	-1.8333	-2.0271	-1.5521	-1.9458	-1.8875	-1.5708	-1.8146	-1.875	-1.5417	-2.3083	57.061	87.859	10.905	3.632	93.876	104.220	135.188	207.658	258.948	104.939	-91.162	254.229	-72.320	242.687	180.325	-84.662	0.00039369	0.00052771	0.00013705	429.96	4.3234e-06	4.1737e-06	546.41	185.24	2.6799e-06	5.463e-06	235.92	126.31	86.852	42.292	3.6717e-06	73.692	0.00027542	0.00010725	3.1817e-05	439.27	1.2195e-06	1.2513e-06	557.31	190.44	1.3145e-06	1.1287e-06	241.95	130.03	90.429	44.005	1.4187e-06	75.992	-74.982	-18.754	-13.692	-83.416	54.865	60.969	-83.733	-77.636	73.423	55.179	-79.540	-75.845	-73.733	-70.348	63.045	-72.349	-8191	255	
41381.562	1	1	0	0	0.19054	0.22364	0.19544	0.21708	0.3942	0.12482	0.23643	0.081946	0.21668	0.15409	0.24094	0.24993	0.29565	0.051146	0.11555	0.10822	-1.1458	-1.8875	-1.8667	-1.4958	-2.0062	-1.7583	-1.5021	-1.9312	-1.7083	-1.7313	-2.0833	-1.5187	-1.7917	-1.8396	-1.3792	-1.9521	138.643	96.778	70.393	66.580	-41.865	148.553	99.809	68.412	105.698	90.829	215.468	191.505	197.180	10.533	201.408	152.404	0.00040028	0.00056986	0.00012763	430.28	6.3513e-06	3.7812e-06	545.44	185.32	2.6143e-06	4.1518e-06	239.93	125.78	87.702	42.45	3.9985e-06	73.442	0.00028088	0.00011134	3.0199e-05	438.79	1.24e-06	1.2019e-06	556.15	190.15	1.3862e-06	1.1335e-06	243.61	130.43	90.609	43.989	1.3539e-06	76.203	-74.366	-14.678	-8.680	-83.666	53.892	51.204	-83.621	-77.846	77.719	47.098	-79.848	-75.865	-74.194	-70.171	53.888	-72.347	-8191	255	
41381.684	1	1	0	0	0.053769	0.16991	0.1114	0.25949	0.18937	0.11532	0.24907	0.25839	0.26398	0.08229	0.027817	0.17874	0.12095	0.11576	0.14498	0.21596	-0.96042	-1.4458	-1.9312	-1.5542	-1.8771	-1.7521	-1.6521	-1.9667	-1.5646	-1.5562	-2.0792	-1.5083	-1.9229	-1.8792	-1.3458	-2.225	24.155	175.153	246.531	66.430	149.167	-86.767	228.032	224.318	180.347	261.828	-31.143	178.335	220.321	187.154	15.478	200.020	0.00041414	0.00051418	0.00011512	429.03	5.3543e-06	4.5513e-06	547.5	184.34	3.4955e-06	4.8195e-06	238.83	126.15	87.542	42.218	5.1487e-06	73.36	0.00028698	0.00011267	3.1036e-05	439.36	1.2344e-06	1.2401e-06	558.38	190.03	1.3933e-06	1.1279e-06	243.24	130.41	90.62	43.888	1.4665e-06	76.092	-77.210	-17.659	-10.947	-83.338	67.318	60.858	-83.697	-77.828	65.583	48.857	-79.806	-75.719	-73.825	-70.195	70.352	-72.606	-8191	255	
41381.777	1	1	0	0	0.09578	0.24395	0.1904	0.18408	0.06516	0.055511	0.13033	0.063525	0.1364	0.051411	0.094289	0.094738	0.2589	0.04318	0.13036	0.13366	-1.275	-1.5042	-1.9646	-1.4062	-1.925	-1.9417	-1.6667	-1.875	-1.7313	-1.6146	-2.0354	-1.6792	-1.6729	-1.9583	-1.6104	-1.8792	208.492	260.340	-60.030	-14.675	237.135	150.808	219.799	60.215	-35.006	-45.532	255.603	99.899	207.717	-14.077	122.971	240.571	0.00037935	0.00056092	0.00014066	429.81	3.3782e-06	4.2942e-06	545.63	185.09	2.9868e-06	4.0887e-06	237.81	126.24	87.082	42.163	3.7943e-06	73.285	0.00027339	0.00011157	3.1724e-05	438.01	1.159e-06	1.1756e-06	557.72	189.86	1.363e-06	1.156e-06	242.86	130.29	90.554	43.901	1.47e-06	75.948	-74.974	-10.286	-17.899	-83.136	70.664	55.983	-83.878	-77.878	95.686	51.779	-79.810	-76.120	-74.244	-70.332	54.447	-72.467	-8191	255	
41381.852	1	1	0	0	0.059045	0.21152	0.054301	0.2187	0.13474	0.25255	0.10745	0.090454	0.040488	0.25895	0.26364	0.21899	0.14046	0.13208	0.16868	0.15586	-1.3604	-1.5208	-2.0271	-1.7396	-1.8083	-1.9	-1.5562	-2.0792	-1.7458	-1.4833	-2.075	-1.7583	-1.6292	-2.1604	-1.4375	-1.9792	57.916	-63.341	39.722	72.390	175.803	236.020	165.099	135.501	235.082	21.269	83.571	151.052	143.458	139.164	14.704	-77.984	0.00039028	0.00054495	0.00014323	428.27	4.5869e-06	5.3018e-06	544.86	184.88	3.478e-06	4.8223e-06	238.09	126.7	87.559	42.076	4.0096e-06	73.337	0.00027151	0.00011939	3.098e-05	438.41	1.1756e-06	1.1059e-06	557.17	189.77	1.3589e-06	1.2293e-06	243.05	130.48	90.45	43.76	1.5142e-06	75.995	-74.861	-10.942	-9.659	-82.986	48.568	52.858	-83.748	-77.826	89.607	46.464	-79.551	-75.653	-74.140	-70.313	72.850	-72.472	-8191	255	
41381.969	1	1	0	0	0.24601	0.28093	0.055037	0.1638	0.15068	0.014111	0.19742	0.24061	0.16961	0.099258	0.070974	0.099307	0.02489	0.084354	0.11362	0.21716	-1.3937	-1.4458	-2.0104	-1.65	-1.7687	-1.9396	-1.7021	-1.925	-1.7958	-1.4312	-2.0479	-1.7229	-1.6333	-2.1333	-1.5583	-1.7792	203.398	255.396	233.361	211.276	126.629	-39.772	-95.247	136.863	-53.494	-19.467	-72.166	233.635	259.672	192.731	195.337	163.725	0.00041691	0.00043599	0.00011345	431.83	5.0812e-06	4.472e-06	544.42	184.43	3.0395e-06	4.8868e-06	237.24	126.37	86.994	42.1	3.3143e-06	73.664	0.00027909	0.00012029	2.9138e-05	438.03	1.2741e-06	1.1741e-06	556.79	189.64	1.339e-06	1.2072e-06	243.4	130.57	90.317	43.789	1.3975e-06	76.234	-75.487	-20.799	-4.539	-83.043	55.057	52.751	-83.793	-77.686	65.548	47.856	-80.105	-75.874	-74.063	-70.385	59.199	-72.501	-8191	255	
41382.066	1	1	0	0	0.22565	0.1551	0.17315	0.0779	0.08779	0.24026	0.29527	0.17419	0.1227	0.12957	0.13467	0.28219	0.26494	0.097461	0.27431	0.12034	-1.2833	-1.45	-2.1604	-1.7104	-1.5354	-1.9833	-1.6042	-1.7333	-1.9146	-1.3854	-2.0354	-1.8333	-1.4229	-2.075	-1.4583	-1.8375	-50.654	2.059	-58.968	7.579	19.144	120.497	180.482	218.133	113.007	-95.567	122.636	-21.726	-69.979	-1.154	166.864	198.185	0.00039453	0.00061972	0.00011466	433.63	4.4273e-06	4.271e-06	549.83	185.27	3.0983e-06	4.0026e-06	238.19	126.28	87.016	41.786	4.2692e-06	73.147	0.00027762	0.0001304	3.152e-05	439.7	1.2501e-06	1.1775e-06	560.51	190.47	1.3464e-06	1.2603e-06	244.15	130.61	90.309	43.568	1.5273e-06	75.968	-75.994	-13.066	-5.925	-83.017	60.461	52.082	-83.681	-77.793	66.769	35.355	-79.686	-75.863	-73.977	-70.146	63.978	-72.295	-8191	255	
41382.160	1	1	0	0	0.12587	0.29312	0.16286	0.056662	0.10731	0.18299	0.16974	0.41431	0.28553	0.26597	0.16018	0.23066	0.12661	0.044986	0.17136	0.11267	-1.2917	-1.5688	-1.9771	-1.5667	-1.4375	-1.9854	-1.65	-1.6396	-1.9167	-1.6	-1.8479	-2.0354	-1.5292	-2.0646	-1.5542	-1.7729	212.000	-92.311	247.782	18.193	205.432	-32.857	162.564	212.617	262.394	112.284	130.054	227.750	209.964	249.139	-15.634	-65.544	0.00041038	0.00053188	0.00015123	429.45	4.813e-06	4.563e-06	547.55	184.75	3.4769e-06	3.939e-06	238.41	126.14	86.303	41.768	4.5875e-06	72.886	0.00027248	0.00012172	3.1734e-05	437.47	1.2553e-06	1.1419e-06	558.46	189.58	1.3252e-06	1.2566e-06	243.44	130.05	89.703	43.313	1.4268e-06	75.371	-74.726	-24.681	-1.980	-83.184	75.269	57.552	-83.578	-77.761	73.182	34.679	-79.607	-75.783	-74.005	-70.434	70.779	-72.412	-8191	255	
41382.258	1	1	0	0	0.071926	0.13288	0.14288	0.27017	0.26022	0.051024	0.3753	0.2745	0.28665	0.17349	0.22	0.30035	0.12887	0.30038	0.13754	0.19036	-1.5125	-1.525	-1.8042	-1.7667	-1.5604	-2.0229	-1.7792	-1.4792	-2.0833	-1.5688	-1.7854	-1.9146	-1.4188	-1.9146	-1.7812	-1.6729	-5.547	26.984	88.870	-88.291	224.187	224.429	126.836	204.545	176.056	85.623	234.631	181.651	-78.382	224.866	139.799	247.027	0.00037122	0.00062494	0.00011284	429.41	5.111e-06	5.188e-06	545.33	184.04	2.5676e-06	4.6573e-06	236.54	125.67	86.912	41.489	4.3853e-06	73.089	0.00027409	0.00012348	3.1464e-05	437.55	1.3224e-06	1.1708e-06	558.07	189.3	1.2899e-06	1.2629e-06	241.91	129.95	89.918	43.167	1.4353e-06	75.342	-74.903	-16.343	-10.820	-82.974	75.960	47.072	-83.576	-77.851	97.671	40.134	-78.772	-75.756	-73.757	-70.222	73.089	-72.368	-8191	255	
41382.379	1	1	0	0	0.10524	0.25966	0.098079	0.12291	0.14474	0.10855	0.26128	0.066487	0.24372	0.14942	0.099977	0.13029	0.17718	0.25701	0.13943	0.19166	-1.6042	-1.4083	-1.6688	-1.9625	-1.3667	-1.9688	-1.8	-1.6333	-2.0062	-1.5042	-1.8417	-1.9542	-1.3729	-1.9208	-1.8271	-1.6708	150.626	84.378	244.988	217.923	-24.795	246.229	208.629	177.858	96.321	-42.807	-24.140	175.309	83.814	179.127	-58.987	216.727	0.00038592	0.00052838	0.00011042	429.49	3.7846e-06	4.6421e-06	548.85	184.42	2.5156e-06	3.6687e-06	237.69	126.44	86.673	41.492	4.7726e-06	72.625	0.00026522	0.00011823	3.1278e-05	437.45	1.2296e-06	1.1085e-06	557.78	189.3	1.3188e-06	1.2415e-06	243.51	130.16	89.856	43.109	1.3624e-06	75.318	-73.109	-17.983	-18.030	-83.099	75.056	57.512	-83.674	-77.964	83.163	56.751	-79.782	-75.877	-73.817	-70.395	73.336	-72.429	-8191	255	
41382.449	1	1	0	0	0.061661	0.12958	0.38791	0.085113	0.12175	0.11337	0.1735	0.092604	0.076547	0.34439	0.22008	0.071001	0.15805	0.10585	0.15739	0.15963	-1.5896	-1.6396	-1.5521	-1.8667	-1.5938	-1.8687	-1.7854	-1.45	-1.9354	-1.65	-1.5958	-2.1208	-1.5896	-1.7521	-1.7375	-1.5292	50.150	73.465	-20.972	60.849	50.825	32.396	26.452	260.211	6.547	110.762	93.520	-7.183	247.529	209.482	15.077	213.072	0.00039089	0.00056123	0.00015595	427.18	3.9578e-06	4.7099e-06	548.02	183.82	3.5913e-06	4.0961e-06	238.54	126.83	86.789	41.177	5.34e-06	73.244	0.00027133	0.00012288	3.3604e-05	435.32	1.2789e-06	1.097e-06	558.71	189.23	1.3528e-06	1.1737e-06	244.02	130.87	89.848	43.051	1.4357e-06	75.756	-75.624	-10.774	-17.825	-83.163	69.949	53.088	-83.807	-77.975	86.881	62.854	-79.756	-75.718	-73.936	-70.364	68.648	-72.369	-8191	255	
41382.547	1	1	0	0	0.28675	0.20021	0.14129	0.15132	0.25747	0.22641	0.21144	0.34911	0.054296	0.11908	0.049001	0.32819	0.17778	0.10686	0.14924	0.29528	-1.3708	-1.6667	-1.5375	-2.1813	-1.575	-1.7667	-1.9375	-1.5938	-1.8167	-1.7729	-1.4292	-1.9375	-1.4312	-1.6521	-1.8833	-1.6958	212.765	71.367	-81.262	-87.970	177.499	215.678	163.366	251.021	26.123	99.946	38.865	-43.202	193.467	105.706	126.373	165.986	0.00038173	0.00049221	0.0001318	428.62	5.1837e-06	4.0163e-06	547.92	183.54	2.7834e-06	4.889e-06	238.94	126.69	86.412	41.329	4.1448e-06	72.691	0.00027198	0.00011327	3.085e-05	437.25	1.2894e-06	1.1304e-06	558.87	189	1.2784e-06	1.2629e-06	243.76	130.42	89.796	43.027	1.4166e-06	75.416	-75.152	-5.538	-16.311	-83.035	57.656	40.936	-83.900	-77.768	71.251	49.311	-79.439	-75.830	-73.868	-70.427	56.632	-72.325	-8191	255	
41382.641	1	1	0	0	0.18503	0.2399	0.17727	0.15415	0.11759	0.29297	0.13975	0.32148	0.081437	0.12227	0.24685	0.26046	0.13155	0.10936	0.10907	0.12762	-1.3125	-1.6271	-1.5646	-1.9729	-1.6083	-1.7771	-2.0229	-1.6458	-1.8563	-1.7667	-1.5292	-1.9396	-1.5146	-1.9042	-1.9354	-1.7354	216.226	-61.345	241.541	28.979	189.630	-25.398	238.231	240.000	56.469	165.619	110.783	121.608	-44.157	51.036	102.901	181.038	0.00040073	0.00047807	0.00015438	426.48	5.273e-06	4.7066e-06	550.14	184.08	2.3344e-06	4.3036e-06	236.85	126.17	85.907	41.157	5.2894e-06	72.099	0.00026898	0.00011018	3.152e-05	436.08	1.2351e-06	1.1452e-06	559.72	188.69	1.3209e-06	1.1139e-06	242.79	129.92	89.456	42.815	1.4378e-06	75.03	-74.058	-2.227	-16.019	-83.071	62.634	57.473	-83.539	-77.800	82.937	40.043	-79.996	-75.580	-74.461	-70.356	71.930	-72.528	-8191	255	
41382.762	1	1	0	0	0.26254	0.029334	0.30144	0.069375	0.062097	0.14569	0.11204	0.20777	0.25885	0.1418	0.12092	0.396	0.10877	0.48435	0.19978	0.098916	-1.5604	-1.8458	-1.5854	-2.0083	-1.8042	-1.6604	-2.2479	-1.4958	-1.7563	-1.9333	-1.4292	-1.9125	-1.7771	-1.8333	-2.0083	-1.5438	116.150	-74.184	-55.657	35.623	10.560	149.575	51.940	-65.920	137.722	114.499	244.413	259.646	91.268	111.776	240.951	-2.897	0.00037452	0.00050236	9.1274e-05	426.26	4.2793e-06	3.9218e-06	546.65	183.33	2.7273e-06	4.3869e-06	237.27	125.71	86.297	41.005	3.7413e-06	72.608	0.00027232	0.00011171	3.2785e-05	436.15	1.1756e-06	1.1511e-06	557.23	188.23	1.3165e-06	1.0896e-06	242.74	129.99	89.235	42.714	1.3525e-06	75.231	-75.479	-10.642	-14.033	-83.118	80.943	56.090	-83.503	-77.647	69.224	42.725	-79.551	-75.956	-74.188	-70.310	72.682	-72.319	-8191	255	
41382.859	1	1	0	0	0.16564	0.24565	0.16987	0.2156	0.15225	0.14641	0.19509	0.018494	0.070307	0.17305	0.33108	0.15366	0.20392	0.19202	0.19958	0.11759	-1.2833	-1.7188	-1.4021	-1.7854	-1.8146	-1.7521	-1.9479	-1.6812	-1.7625	-1.7896	-1.5688	-1.8667	-1.6354	-1.4729	-1.9708	-1.6333	-54.297	179.278	154.191	229.266	-57.089	251.685	24.755	-94.649	44.051	127.748	-71.921	-51.598	178.445	131.735	162.190	-63.850	0.0004084	0.00050964	0.00014118	426.21	4.0215e-06	4.0177e-06	547.87	182.73	2.0537e-06	3.9439e-06	236.41	126.2	85.47	40.753	3.7883e-06	72.573	0.00027812	0.00010578	3.0468e-05	434.76	1.256e-06	1.2116e-06	557.14	187.37	1.3387e-06	1.1722e-06	242.31	130.15	88.886	42.534	1.4162e-06	75.211	-75.428	-11.435	-19.034	-83.251	63.162	48.703	-83.718	-77.796	94.787	51.702	-79.807	-75.818	-73.677	-70.134	76.362	-72.357	-8191	255	
41382.953	1	1	0	0	0.19576	0.23648	0.16934	0.12864	0.26848	0.20121	0.27421	0.22022	0.17776	0.23517	0.18818	0.27388	0.12601	0.30571	0.13349	0.20026	-1.2417	-1.9771	-1.6292	-2.0312	-1.7229	-1.5583	-2.0271	-1.5625	-1.6229	-1.9083	-1.5542	-1.9438	-2.0458	-1.5625	-2.0896	-1.75	186.337	128.737	-22.632	61.669	226.394	208.865	181.497	-70.133	28.587	118.596	19.398	210.484	85.169	191.437	134.270	179.228	0.00039841	0.00051838	0.00013119	423.42	3.2691e-06	4.3809e-06	543.86	181.42	3.4254e-06	4.7489e-06	237.5	125.97	85.996	40.72	3.7318e-06	72.347	0.00026735	0.00011643	3.3827e-05	432.49	1.2174e-06	1.2513e-06	555.66	186.54	1.3316e-06	1.1007e-06	241.88	130.32	88.961	42.485	1.3458e-06	75.067	-73.759	-11.232	-10.259	-83.024	70.224	55.501	-83.636	-77.697	72.094	37.652	-79.545	-75.898	-73.873	-70.269	86.221	-72.437	-8191	255	
41383.051	1	1	0	0	0.25274	0.05103	0.11	0.22208	0.31655	0.061487	0.040569	0.19642	0.20958	0.15248	0.092402	0.0849	0.083851	0.24891	0.053212	0.19753	-1.0083	-2.0479	-1.475	-1.8104	-1.8583	-1.5854	-2.25	-1.725	-1.6729	-2.0479	-1.9104	-1.9021	-1.9771	-1.625	-2.1271	-2.0104	170.080	46.142	-11.284	-58.426	177.016	-24.624	159.138	216.583	-22.208	32.158	12.886	177.416	232.746	-17.675	-9.526	15.626	0.00038461	0.00048646	0.00014405	419.78	3.6604e-06	4.0208e-06	542.13	181.94	2.598e-06	4.4688e-06	237.27	125.53	85.752	40.673	4.2763e-06	72.304	0.00028316	0.00011663	3.3669e-05	431.66	1.1228e-06	1.1667e-06	553.83	186.73	1.3175e-06	1.1088e-06	242.15	129.7	88.599	42.383	1.4123e-06	74.777	-75.603	-2.911	-13.234	-83.188	55.172	62.535	-83.766	-77.679	57.539	37.279	-79.914	-75.668	-74.115	-70.086	74.304	-72.346	-8191	255	
41383.145	1	1	0	0	0.09086	0.19003	0.18416	0.13389	0.091384	0.1667	0.11414	0.069647	0.019819	0.35978	0.075217	0.28348	0.13994	0.064139	0.24214	0.21539	-1.1667	-2.0708	-1.5417	-1.7208	-2.0854	-1.6604	-2.0354	-1.8333	-1.6125	-2.0938	-1.7333	-1.8521	-2.0542	-1.7896	-1.7979	-1.9875	-25.011	236.150	147.907	-82.214	149.373	-31.793	243.412	140.807	8.678	235.596	212.309	152.624	160.855	158.227	53.352	199.202	0.00038229	0.00053286	0.00012162	424.17	3.9172e-06	3.8883e-06	545.01	182.08	2.8824e-06	4.6193e-06	237.28	126.42	85.601	40.652	3.7585e-06	72.441	0.00026708	0.00010761	3.2962e-05	433.26	1.2003e-06	1.2127e-06	556.4	187.12	1.3404e-06	1.0785e-06	242.68	130.29	88.812	42.348	1.2963e-06	75.068	-73.882	-19.455	-13.375	-83.107	67.786	57.260	-83.759	-77.606	87.211	39.343	-79.908	-75.773	-73.871	-70.175	79.415	-72.349	-8191	255	
41383.242	1	1	0	0	0.081444	0.18026	0.014784	0.14975	0.15983	0.4159	0.077589	0.091069	0.16102	0.046982	0.24575	0.15818	0.11046	0.23948	0.31988	0.11965	-1.1542	-1.7875	-1.7563	-1.6917	-2.1417	-1.5896	-1.8792	-1.9625	-1.55	-2.0917	-2.025	-1.8083	-2.0479	-1.6854	-1.8104	-2.0312	2.546	-3.091	11.529	248.396	36.705	59.978	158.446	-19.034	213.197	-21.169	218.954	-82.507	132.780	178.285	-58.521	184.452	0.00039389	0.00048339	0.00015141	426.54	4.0409e-06	4.5562e-06	550.7	182.97	2.6368e-06	4.4783e-06	240.75	126.48	85.779	40.699	4.2662e-06	72.928	0.0002761	0.00010961	3.272e-05	434.46	1.1346e-06	1.2605e-06	559.18	187.72	1.3451e-06	1.1198e-06	243.73	130.47	88.761	42.429	1.3861e-06	75.353	-74.184	-8.907	-1.200	-82.723	61.869	45.418	-83.630	-77.550	69.116	41.724	-79.941	-75.632	-74.107	-70.525	56.127	-72.387	-8191	255	
41383.363	1	1	0	0	0.34868	0.15492	0.078106	0.16814	0.087498	0.11494	0.31254	0.14776	0.24917	0.14272	0.34013	0.43412	0.087675	0.3507	0.16671	0.17362	-1.0208	-1.9354	-1.7604	-1.5542	-2.1271	-1.275	-1.8271	-1.8458	-1.4813	-2.05	-1.8937	-1.6125	-2.175	-1.5562	-1.6562	-2.2958	2.113	97.396	92.981	89.199	140.344	208.108	196.389	251.143	225.725	25.115	65.791	-21.993	114.045	216.523	81.313	224.589	0.00039413	0.00050363	0.00011952	424.98	5.3131e-06	5.1009e-06	551.15	182.79	3.4624e-06	4.8409e-06	238.45	126.46	86.026	40.707	3.2269e-06	72.976	0.0002742	0.00010685	3.1613e-05	433.53	1.273e-06	1.2616e-06	560.42	188.22	1.4131e-06	1.1792e-06	244.12	131.18	89.316	42.431	1.4442e-06	75.706	-73.770	-12.821	-5.994	-83.239	71.252	45.556	-83.417	-78.012	82.154	48.677	-79.112	-75.861	-73.965	-70.085	67.903	-72.289	-8191	255	
41383.457	1	1	0	0	0.2307	0.16513	0.069595	0.10507	0.27131	0.2323	0.14226	0.17289	0.08343	0.13624	0.23967	0.041057	0.14158	0.28584	0.16595	0.036541	-1.1479	-1.8521	-2.0458	-1.4813	-2.0042	-1.8083	-1.8479	-1.975	-1.4188	-1.85	-1.8792	-1.7271	-2.025	-1.7625	-1.5979	-2.2333	2.275	146.572	175.850	59.255	218.371	-41.307	249.535	131.636	191.642	-49.719	78.836	181.479	158.098	244.707	-27.253	-5.294	0.00038979	0.00055685	0.00010767	428.21	4.5133e-06	4.4078e-06	552.42	183.79	2.089e-06	5.0952e-06	240.86	127.27	86.409	40.636	4.3672e-06	72.824	0.00027153	0.0001144	3.0626e-05	436.25	1.1861e-06	1.2383e-06	563.11	189.06	1.3293e-06	1.1582e-06	245.74	131.19	89.04	42.301	1.4074e-06	75.377	-76.455	-12.603	-13.404	-83.399	48.971	44.809	-83.850	-77.727	54.646	43.471	-79.350	-75.671	-73.713	-70.321	67.060	-72.532	-8191	255	
41383.555	1	1	0	0	0.18909	0.090805	0.30467	0.08966	0.16534	0.37492	0.0040698	0.14298	0.096706	0.1219	0.071899	0.22456	0.070735	0.1404	0.14191	0.15544	-1.1208	-1.7646	-1.8563	-1.4813	-1.9479	-1.8563	-1.725	-2.0708	-1.3854	-1.7938	-1.8021	-1.6354	-1.9354	-1.9583	-1.5479	-2.0229	118.192	45.883	-47.825	-3.759	141.693	36.039	105.926	-55.562	153.506	40.223	134.700	107.339	-38.086	35.618	-92.289	12.522	0.0004086	0.0004173	0.00011699	429.28	4.7492e-06	3.5625e-06	550.02	183.41	2.68e-06	3.6126e-06	239.08	127.09	86.063	40.724	3.8366e-06	72.886	0.00027386	0.00010312	3.1101e-05	435.36	1.1443e-06	1.163e-06	561.29	188.65	1.3987e-06	1.1202e-06	244.4	131.26	89.455	42.49	1.4304e-06	75.557	-72.162	-4.448	2.264	-83.133	70.025	38.514	-83.623	-78.009	54.302	56.790	-79.990	-75.960	-73.765	-70.481	49.324	-72.227	-8191	255	
41383.648	1	1	0	0	0.21662	0.165	0.24848	0.061735	0.19976	0.14868	0.31873	0.26601	0.26547	0.20308	0.056199	0.15814	0.16156	0.14702	0.1879	0.4663	-1.2521	-1.9042	-1.9208	-1.5187	-1.9458	-1.9208	-1.5875	-2.0708	-1.5562	-1.7458	-2.0021	-1.5187	-1.9708	-1.8917	-1.3792	-2.2625	25.709	145.710	-62.712	-44.419	134.315	148.613	-60.762	251.525	244.748	11.157	73.613	-51.623	259.321	182.062	105.650	228.096	0.00038607	0.00053365	0.00011638	430.83	5.8348e-06	4.3564e-06	549.12	184.17	3.2157e-06	4.029e-06	240.26	127.68	85.775	40.861	3.8175e-06	73.313	0.000273	0.00010781	3.0096e-05	437.16	1.2035e-06	1.1875e-06	562.53	188.91	1.3899e-06	1.1121e-06	246.11	131.73	89.234	42.493	1.4562e-06	75.842	-73.657	4.955	-8.765	-83.179	72.609	53.429	-83.631	-78.115	87.766	36.117	-79.408	-75.719	-73.933	-70.150	61.794	-72.467	-8191	255	
41383.746	1	1	0	0	0.18603	0.2735	0.10146	0.11533	0.18932	0.30469	0.12353	0.24756	0.19823	0.11636	0.29221	0.052375	0.28946	0.043568	0.1205	0.35914	-1.3417	-1.7125	-2.0521	-1.5021	-2	-1.8875	-1.5708	-2.0708	-1.6583	-1.7521	-2.1583	-1.7979	-1.7188	-2.0708	-1.3438	-2.1833	101.079	261.248	12.098	195.666	93.485	13.341	197.759	203.110	211.930	-0.349	144.828	255.103	-84.856	80.695	32.861	263.792	0.00040277	0.00054466	0.00010494	428.79	2.3593e-06	5.0992e-06	551.37	184.12	3.9843e-06	4.9378e-06	240	128.52	86.404	40.997	5.0069e-06	73.817	0.00027581	0.00011121	3.0478e-05	437.41	1.1892e-06	1.1704e-06	562.72	189.09	1.3316e-06	1.1652e-06	244.86	132.32	89.644	42.714	1.4711e-06	76.351	-74.896	-22.579	3.392	-83.076	57.471	49.607	-83.728	-77.906	97.946	40.584	-79.997	-75.847	-74.032	-70.276	81.449	-72.455	-8191	255	
41383.844	1	1	0	0	0.098798	0.14785	0.14511	0.30543	0.40933	0.19008	0.094997	0.267	0.029367	0.09484	0.091155	0.22093	0.21801	0.21676	0.13609	0.018129	-1.3771	-1.4875	-1.9562	-1.6375	-1.8625	-1.9292	-1.6917	-1.9979	-1.5896	-1.6021	-1.9917	-1.6229	-1.7104	-2.0271	-1.5187	-2.1146	161.113	-74.096	-75.670	-44.163	-47.472	205.973	112.151	248.392	-55.104	179.469	-34.259	177.723	83.614	210.887	52.240	254.598	0.00041882	0.00050804	0.00015481	429.11	4.1897e-06	4.8099e-06	552.32	184.67	2.2955e-06	3.8063e-06	240.42	129.05	87.032	41.442	3.3803e-06	74.322	0.00027737	0.00011796	3.0961e-05	436.82	1.2056e-06	1.2016e-06	563.76	189.4	1.3889e-06	1.0936e-06	246.39	133.42	90.47	43.143	1.4788e-06	76.876	-76.722	-11.189	-1.235	-83.246	80.863	48.615	-84.016	-77.583	85.164	64.686	-79.738	-75.857	-73.934	-70.607	70.415	-72.581	-8191	255	
41383.938	1	1	0	0	0.26892	0.12222	0.2193	0.22908	0.16872	0.0692	0.15675	0.19272	0.20666	0.1648	0.13697	0.24262	0.17693	0.27393	0.14219	0.10659	-1.2417	-1.4792	-1.9729	-1.6063	-1.7625	-1.8542	-1.7333	-1.9042	-1.8458	-1.5562	-1.8833	-1.8833	-1.7375	-1.9583	-1.4542	-1.9146	35.690	72.879	-42.516	257.223	77.958	24.227	187.057	-43.832	92.658	32.693	77.178	249.550	222.998	209.946	89.650	-13.717	0.00041264	0.00055376	0.00013587	429.32	5.2508e-06	4.7337e-06	550.83	185.37	3.4718e-06	4.6321e-06	240.79	129.41	88.127	42.101	4.7985e-06	75.002	0.0002726	0.00011117	3.0133e-05	438.47	1.1843e-06	1.1274e-06	563.64	189.76	1.3421e-06	1.1578e-06	246.01	133.78	91.097	43.813	1.487e-06	77.691	-73.655	-12.348	-8.972	-83.316	75.018	53.595	-83.504	-78.003	81.702	29.929	-79.594	-76.036	-74.277	-70.630	71.414	-72.552	-8191	255	
41384.059	1	1	0	0	0.13931	0.070688	0.14452	0.10872	0.1928	0.33422	0.27262	0.20891	0.26192	0.29512	0.11265	0.18847	0.13866	0.27359	0.10526	0.1009	-1.475	-1.4562	-1.7583	-1.8521	-1.8458	-1.8833	-1.5083	-1.9042	-1.9542	-1.3167	-1.9104	-2.125	-1.7042	-2.1479	-1.5458	-1.9208	248.225	119.406	19.306	99.593	-14.982	-7.751	213.158	185.472	113.745	-88.521	99.436	101.056	263.595	-85.375	-68.919	197.641	0.00040285	0.00040091	0.00010229	432.48	4.2486e-06	5.3926e-06	552.21	183.96	3.7164e-06	3.7494e-06	240.59	129.95	88.01	42.279	4.0912e-06	74.632	0.00028189	0.00010878	2.9343e-05	440.72	1.1882e-06	1.1148e-06	563.97	189.46	1.338e-06	1.1596e-06	244.92	134.01	91.243	43.929	1.4845e-06	77.609	-75.358	-26.347	-16.355	-83.376	70.830	52.948	-83.547	-78.184	80.858	41.866	-79.737	-76.010	-74.071	-70.556	68.789	-72.773	-8191	255	
41384.152	1	1	0	0	0.028391	0.066928	0.079976	0.22923	0.16658	0.19864	0.2762	0.20503	0.12808	0.30367	0.24703	0.33664	0.15816	0.25058	0.14815	0.17613	-1.6	-1.4562	-1.9042	-1.7208	-1.775	-2.0062	-1.7021	-1.9104	-2.0354	-1.5187	-1.8937	-1.7792	-1.525	-2.1021	-1.7792	-1.7896	-67.227	-6.109	54.522	152.395	208.001	125.857	224.631	229.508	-20.164	40.559	-81.860	249.336	127.723	228.892	37.221	-83.178	0.00040448	0.00052077	0.00014535	432.43	3.9988e-06	5.705e-06	552.71	184.28	3.0964e-06	5.0595e-06	239.84	129.24	87.351	42.127	4.6455e-06	75.103	0.00027687	0.00011763	3.0422e-05	439.66	1.2449e-06	1.1537e-06	563.08	189.74	1.3333e-06	1.2599e-06	245.31	133.67	90.938	43.854	1.4746e-06	77.64	-75.271	-24.426	-9.254	-83.424	71.160	52.221	-83.841	-77.866	76.098	51.669	-79.729	-75.883	-74.704	-70.625	77.301	-72.671	-8191	255	
41384.250	1	1	0	0	0.38943	0.38465	0.13994	0.098916	0.17049	0.15173	0.070809	0.2541	0.16835	0.58144	0.10102	0.30068	0.21756	0.23008	0.14076	0.22279	-1.3458	-1.55	-1.8021	-2.0979	-1.6583	-1.9125	-1.5854	-1.6604	-2	-1.4229	-2.05	-2.0042	-1.4854	-2.0875	-1.8813	-1.7083	96.062	3.117	-16.907	242.435	61.687	36.579	184.756	212.017	217.551	65.811	157.397	237.867	256.400	230.828	258.973	152.673	0.00040815	0.00054567	0.0001285	433	3.0921e-06	4.3269e-06	550.8	184.61	3.3556e-06	4.7093e-06	241.82	129.2	87.487	41.861	4.4069e-06	74.569	0.00027925	0.00012152	3.0989e-05	442.01	1.2543e-06	1.0985e-06	563.92	189.39	1.3663e-06	1.208e-06	246.09	133.42	90.548	43.528	1.4385e-06	77.27	-73.047	-16.179	7.985	-83.395	83.229	47.137	-83.490	-77.706	72.188	33.297	-79.746	-75.749	-73.877	-70.819	66.343	-72.490	-8191	255	
41384.324	1	1	0	0	0.28304	0.18667	0.15121	0.08232	0.26447	0.10805	0.09708	0.16683	0.15202	0.25502	0.30028	0.096429	0.33937	0.31293	0.13668	0.12011	-1.5125	-1.4958	-1.925	-1.7917	-1.6354	-2.0771	-1.8417	-1.6458	-2.0521	-1.6771	-1.8521	-2.1229	-1.6333	-2.0583	-1.7104	-1.6729	-85.500	154.862	223.089	-7.157	-13.731	241.437	165.248	243.404	78.928	243.889	207.978	232.844	-59.836	-94.406	-63.529	52.677	0.00040845	0.00046736	0.00014594	430.68	4.3135e-06	5.1839e-06	552.42	182.45	2.5795e-06	3.7535e-06	237.16	127.67	85.943	41.504	4.4975e-06	73.871	0.00027956	0.00011616	2.925e-05	438.82	1.3614e-06	1.1463e-06	561.42	187.28	1.2161e-06	1.1574e-06	242.53	132.04	89.771	43.19	1.4951e-06	76.465	-73.846	-32.000	-7.205	-83.241	68.660	36.183	-83.733	-77.863	75.846	46.866	-79.701	-75.926	-73.853	-70.509	64.749	-72.656	-8191	255	
41384.441	1	1	0	0	0.31799	0.17952	0.26706	0.16973	0.16975	0.15195	0.14207	0.12207	0.11809	0.15518	0.025702	0.082446	0.071402	0.084757	0.10896	0.25795	-1.425	-1.8667	-1.6854	-2.1333	-1.625	-1.875	-2.0083	-1.6229	-2.0854	-1.7542	-1.8417	-1.9917	-1.4667	-1.9104	-1.8438	-1.5542	256.666	-14.056	15.374	8.961	56.006	126.781	251.855	58.706	228.599	-13.371	231.159	159.407	74.471	186.217	-20.474	263.313	0.00039323	0.00060433	0.00011889	423.52	4.6494e-06	4.2118e-06	546.97	180.87	3.0097e-06	5.6305e-06	235.59	126.4	85.196	40.908	3.0893e-06	72.62	0.00027117	0.00011334	3.0533e-05	434.78	1.2379e-06	1.143e-06	556.15	185.64	1.332e-06	1.2024e-06	241.25	130.24	88.181	42.447	1.43e-06	75.235	-71.762	-9.519	-15.265	-83.451	62.178	53.799	-83.731	-77.579	80.789	47.070	-79.355	-76.054	-74.063	-70.612	67.886	-72.565	-8191	255	
41384.539	1	1	0	0	0.31405	0.22349	0.065156	0.3029	0.19166	0.12797	0.19015	0.17402	0.14422	0.13423	0.13717	0.091879	0.12884	0.44087	0.27386	0.41613	-1.5375	-1.5625	-1.7521	-2.0625	-1.6562	-1.9604	-2.0396	-1.5625	-1.8458	-1.7625	-1.7	-2.0979	-1.5458	-1.9896	-1.875	-1.8292	47.946	214.332	242.381	-55.919	63.026	198.753	129.251	182.887	-95.414	225.199	136.658	18.856	256.946	241.574	-20.710	206.000	0.0003962	0.00049157	0.00012793	419.67	4.4138e-06	3.7312e-06	538.66	177.29	4.0643e-06	3.1975e-06	230.12	123.39	82.451	39.515	4.5706e-06	70.443	0.00027585	0.00012358	3.1361e-05	429.14	1.3026e-06	1.1815e-06	548.22	181.57	1.3148e-06	1.2791e-06	236.25	127.52	85.818	41.057	1.5071e-06	73.182	-75.554	-8.788	-2.708	-82.944	42.025	57.628	-83.924	-77.715	80.667	48.431	-79.677	-75.523	-73.974	-70.418	73.646	-72.409	-8191	255	
41384.633	1	1	0	0	0.19787	0.19599	0.053861	0.10357	0.13357	0.13451	0.21145	0.10428	0.11801	0.011436	0.17778	0.25634	0.083459	0.3386	0.33248	0.43655	-1.4958	-1.7729	-1.5854	-2.05	-1.5375	-1.7771	-2.1125	-1.5792	-1.8	-1.7458	-1.6167	-2.0208	-1.6313	-1.7625	-1.9625	-1.6292	211.032	52.999	-30.775	15.776	184.203	164.150	226.727	194.643	94.619	257.296	-39.202	220.625	150.486	230.029	37.791	194.672	0.00037335	0.00056955	0.00013649	410.15	5.1229e-06	4.2119e-06	526.39	173.54	2.65e-06	5.5093e-06	226.43	123.49	81.209	39.004	4.5582e-06	70.339	0.00026409	0.00012564	3.4264e-05	420.96	1.3572e-06	1.2665e-06	540.82	178.32	1.3569e-06	1.3307e-06	234.05	126.77	84.823	40.572	1.4399e-06	72.815	-76.654	-26.921	-9.620	-83.285	65.125	60.024	-83.714	-77.717	74.039	52.487	-79.453	-75.839	-73.773	-70.217	77.498	-72.568	-8191	255	
41384.730	1	1	0	0	0.19603	0.20838	0.39618	0.10844	0.033727	0.041526	0.3359	0.11151	0.24594	0.048471	0.11062	0.39579	0.088272	0.21893	0.062916	0.23823	-1.4021	-1.7417	-1.3708	-1.9813	-1.8104	-1.7708	-2.0229	-1.7938	-1.7833	-1.8625	-1.5187	-2.1667	-1.6688	-1.7208	-2.0396	-1.3625	31.982	28.480	200.907	99.208	-17.565	-1.116	158.855	69.337	143.913	200.429	83.787	186.519	229.408	56.269	185.602	221.643	0.00037148	0.00048334	0.0001271	411.46	4.9919e-06	4.7661e-06	530.18	172.71	2.5531e-06	4.5057e-06	230.86	122.22	81.569	38.839	3.3887e-06	69.999	0.00026818	0.00012485	3.4171e-05	420.61	1.3162e-06	1.2742e-06	540.87	177.69	1.3495e-06	1.2437e-06	234.57	126.02	84.992	40.432	1.5032e-06	72.303	-75.694	-6.216	-11.842	-83.035	68.450	47.072	-83.531	-77.646	94.464	44.430	-79.660	-75.627	-73.901	-70.437	75.442	-72.661	-8191	255	
41384.852	1	1	0	0	0.23272	0.068061	0.16326	0.054927	0.19938	0.30066	0.12656	0.22058	0.17757	0.088109	0.12899	0.20039	0.19425	0.40449	0.1856	0.076137	-1.4792	-1.7875	-1.4708	-1.8625	-1.7542	-1.7229	-2.0104	-1.5479	-1.9	-1.8458	-1.525	-2.1958	-1.8042	-1.6792	-2.1833	-1.7854	126.682	46.635	45.212	224.115	175.520	32.123	-59.044	211.404	258.664	261.487	61.344	259.697	124.408	-64.119	231.919	-23.683	0.00036545	0.00038801	8.9669e-05	410.49	4.3715e-06	4.1914e-06	526.23	172.77	3.0298e-06	3.4192e-06	226.72	122.21	82.001	38.935	2.7266e-06	70.126	0.00027056	0.00011783	3.2971e-05	419.46	1.3054e-06	1.3317e-06	536.98	176.81	1.3471e-06	1.3322e-06	232.23	125.95	84.902	40.583	1.4573e-06	72.42	-77.537	-17.590	-12.576	-83.156	69.702	52.569	-83.787	-77.856	81.228	46.083	-79.709	-75.731	-73.834	-70.266	114.189	-72.443	-8191	255	
41384.945	1	1	0	0	0.099794	0.10359	0.23935	0.17065	0.34434	0.15088	0.31371	0.13779	0.2634	0.061984	0.17695	0.15424	0.23833	0.23178	0.062996	0.16628	-1.5167	-2.0479	-1.5104	-2.0062	-1.7229	-1.5583	-2.0312	-1.7667	-1.8521	-1.9979	-1.6958	-1.9729	-1.725	-1.5271	-2.0187	-1.9396	-59.750	97.442	114.940	109.149	155.712	-10.057	221.743	210.560	47.851	247.640	-8.018	155.663	-92.875	162.607	-13.657	70.836	0.00038592	0.0004205	0.00014858	411.64	4.8849e-06	4.8954e-06	532.17	173.37	2.0471e-06	4.4728e-06	230.12	123.6	83.382	39.668	3.8797e-06	71.187	0.00026999	0.00011796	3.4608e-05	420.99	1.2703e-06	1.3121e-06	541.78	178.67	1.3555e-06	1.1593e-06	235.35	127.71	86.501	41.3	1.3996e-06	73.558	-74.767	-16.285	-15.915	-83.281	81.329	51.836	-84.159	-77.666	100.899	48.065	-79.991	-76.045	-73.783	-70.432	53.522	-72.454	-8191	255	
41385.043	1	1	0	0	0.06174	0.26018	0.20337	0.17494	0.2725	0.26988	0.1918	0.256	0.081465	0.26085	0.21727	0.15766	0.11554	0.10337	0.085523	0.1337	-1.2188	-2.0146	-1.6396	-1.9021	-1.8687	-1.5375	-1.9667	-1.7229	-1.6729	-2.1229	-1.7375	-1.8854	-1.9667	-1.7521	-1.9833	-1.8958	147.929	-18.984	182.422	259.185	47.814	-20.608	31.761	145.586	166.183	-73.584	228.430	-92.551	35.462	213.473	41.919	-35.726	0.0003837	0.00053474	0.00011248	418.83	3.7777e-06	4.7959e-06	537.66	176.12	3.3924e-06	4.5654e-06	232.85	125.66	85.29	40.372	3.8772e-06	72.517	0.00026986	0.00011137	3.1957e-05	426.09	1.2755e-06	1.278e-06	546.81	180.82	1.3801e-06	1.2065e-06	236.71	129.45	88.017	42.107	1.4198e-06	74.929	-74.671	-12.342	-6.043	-82.992	64.482	41.705	-83.886	-77.775	95.786	60.254	-80.533	-75.825	-73.911	-70.444	63.594	-72.634	-8191	255	
41385.141	1	1	0	0	0.18907	0.2089	0.20193	0.091696	0.21411	0.12757	0.18765	0.02536	0.15736	0.29483	0.17497	0.1935	0.14992	0.17755	0.03401	0.13511	-1.1417	-1.7458	-1.5708	-1.6354	-1.9042	-1.5125	-2.0229	-1.7687	-1.5646	-2.1021	-1.6583	-1.7771	-1.9146	-1.4271	-1.8333	-1.8271	220.010	28.725	10.016	219.001	170.410	244.702	29.670	22.778	86.674	104.958	219.673	200.090	245.834	209.135	179.579	61.181	0.00039831	0.00037199	0.00012648	425.69	5.2126e-06	3.8804e-06	539.65	176.88	2.4133e-06	3.8023e-06	231.56	126.01	84.734	40.793	4.3914e-06	72.747	0.00027628	0.00011314	3.3492e-05	433.18	1.3165e-06	1.3488e-06	550.65	181.9	1.4259e-06	1.1925e-06	237.19	130.32	88.298	42.427	1.36e-06	75.209	-72.007	-17.048	-16.660	-83.162	68.316	61.801	-83.757	-77.716	91.708	45.665	-80.082	-75.664	-74.292	-70.462	60.885	-72.735	-8191	255	
41385.234	1	1	0	0	0.11431	0.072319	0.11982	0.10496	0.16134	0.097461	0.10513	0.10962	0.086418	0.30719	0.17498	0.077871	0.26454	0.16302	0.28048	0.32651	-0.95417	-1.85	-1.4979	-1.6688	-2.0271	-1.3896	-2.0167	-1.8104	-1.3896	-2.0354	-1.5542	-1.6479	-1.9458	-1.6333	-1.8062	-1.8917	2.145	197.118	142.303	167.036	157.374	67.522	-79.824	197.334	-71.902	191.871	-57.849	172.483	258.948	-82.727	25.379	18.445	0.00041614	0.00052738	0.00017111	423.65	3.5959e-06	4.1901e-06	535.93	176.3	2.5486e-06	4.3682e-06	229.66	125.57	86.548	40.732	4.5944e-06	72.767	0.00027952	0.00012125	3.3715e-05	433.23	1.3016e-06	1.2958e-06	547.59	181.33	1.3906e-06	1.153e-06	235.03	129.58	88.865	42.571	1.4307e-06	75.062	-72.631	-5.742	0.279	-83.406	72.310	57.896	-83.681	-77.901	74.740	44.651	-80.146	-75.883	-74.140	-70.733	65.664	-72.971	-8191	255	
41385.332	1	1	0	0	0.18237	0.067783	0.11147	0.15749	0.15309	0.1478	0.19349	0.22637	0.035935	0.15565	0.096417	0.43482	0.16408	0.078785	0.050348	0.22428	-1.3146	-1.8687	-1.6146	-1.6792	-2.1813	-1.5583	-1.8917	-2.1063	-1.2917	-1.925	-1.8104	-1.4104	-2.0563	-1.775	-1.925	-2.0354	-16.950	92.175	244.833	243.452	41.154	160.475	221.829	107.490	56.987	171.644	105.134	212.560	-93.574	-42.851	131.635	-91.250	0.00037651	0.00043304	0.0001361	423.58	4.5963e-06	4.6525e-06	535.98	176.78	2.7075e-06	5.2839e-06	232.01	126.82	86.279	41.361	4.9816e-06	73.318	0.00028262	0.00011826	3.4459e-05	433.39	1.3332e-06	1.2627e-06	547.49	182.22	1.464e-06	1.2131e-06	237.16	130.74	89.382	42.985	1.4399e-06	75.848	-72.834	-10.800	-8.363	-83.225	57.844	50.454	-83.683	-78.135	70.244	44.372	-80.020	-76.252	-74.150	-70.735	70.175	-72.840	-8191	255	
41385.449	1	1	0	0	0.35369	0.18807	0.30192	0.14057	0.061591	0.053054	0.40782	0.036041	0.2759	0.19648	0.29042	0.32129	0.12926	0.21134	0.23132	0.29164	-1.1271	-1.8333	-1.8167	-1.5042	-1.9708	-1.3604	-1.8104	-1.9333	-1.2792	-1.7979	-1.5812	-1.5438	-2.1479	-1.6958	-1.8521	-1.8563	-1.683	-34.257	-51.636	-8.048	107.303	0.779	178.767	-86.384	100.732	14.429	56.405	-68.592	152.994	175.614	184.121	188.842	0.00039884	0.00048172	0.00012213	427.78	4.4246e-06	5.2366e-06	539.73	179.55	3.5401e-06	3.7762e-06	235.52	128.03	87.521	41.779	5.2062e-06	74.203	0.0002835	0.00011234	3.2878e-05	436.09	1.2755e-06	1.2791e-06	552.87	184.35	1.4849e-06	1.1987e-06	240	132.11	90.605	43.483	1.5676e-06	76.804	-75.847	-7.728	-4.371	-83.198	65.233	44.234	-83.631	-78.046	76.893	62.727	-80.332	-76.117	-74.451	-70.738	59.666	-72.808	-8191	255	
41385.547	1	1	0	0	0.12771	0.16473	0.21412	0.16197	0.15851	0.13168	0.21593	0.28545	0.22455	0.12859	0.099735	0.15352	0.11196	0.17726	0.15273	0.062784	-1.0896	-1.7875	-1.6792	-1.5458	-2.075	-1.6354	-1.75	-1.9771	-1.5854	-1.6688	-1.8104	-1.6688	-2.0208	-1.825	-1.7062	-2.0812	180.194	-4.099	-60.506	20.386	221.122	217.585	-51.921	-82.538	195.360	109.980	132.357	45.232	233.510	230.490	182.292	220.501	0.00040566	0.00052606	0.00011728	432.26	3.8813e-06	4.1659e-06	549.53	181.14	3.4181e-06	4.8842e-06	233.49	129.05	87.58	41.853	3.4043e-06	74.728	0.00028088	0.00011167	3.1166e-05	440.76	1.0835e-06	1.1355e-06	559.74	185.89	1.4397e-06	1.1962e-06	240.9	133.12	90.775	43.646	1.4544e-06	77.353	-75.490	-12.740	-7.458	-83.219	62.137	50.533	-83.872	-77.841	89.024	37.387	-80.228	-76.148	-74.065	-70.819	79.455	-72.588	-8191	255	
41385.617	1	1	0	0	0.083556	0.13944	0.12479	0.18655	0.12511	0.13912	0.12786	0.092528	0.30777	0.20322	0.12535	0.14437	0.34565	0.34989	0.16671	0.14564	-1.0958	-1.7542	-1.9125	-1.5021	-1.8667	-1.8896	-1.4833	-1.9937	-1.7792	-1.7021	-2.0167	-1.5771	-1.8542	-1.7583	-1.4625	-2.1813	117.018	26.225	-61.722	99.627	28.949	23.112	158.498	-13.748	52.758	112.273	87.056	-76.809	-29.103	241.580	114.961	179.184	0.00039245	0.00037742	0.00010552	431.92	3.8896e-06	3.5776e-06	546.52	180.64	2.44e-06	4.1871e-06	236.99	127.94	86.551	41.768	4.8663e-06	73.644	0.0002882	0.00010485	3.1017e-05	440.24	1.1457e-06	1.2034e-06	558.72	185.61	1.3316e-06	1.1814e-06	240.25	132.05	89.998	43.474	1.4081e-06	76.47	-74.455	-5.906	-18.887	-83.321	64.087	49.994	-84.239	-77.860	75.064	42.308	-79.957	-75.982	-74.175	-70.864	81.702	-72.785	-8191	255	
41385.715	1	1	0	0	0.28997	0.38602	0.32305	0.13315	0.012832	0.1403	0.20328	0.2497	0.052439	0.063334	0.10963	0.34781	0.16166	0.16786	0.19034	0.062475	-1.1	-1.5417	-1.8937	-1.4458	-1.7708	-1.9188	-1.6896	-1.9667	-1.9146	-1.7542	-2.1104	-1.4833	-1.8521	-1.9125	-1.5375	-2.1458	32.013	-52.220	86.681	-16.759	178.200	142.595	129.569	241.097	33.181	69.794	124.178	170.550	-27.529	-30.062	47.810	-37.727	0.00037632	0.000482	0.00016097	425.72	4.4156e-06	3.6011e-06	539.73	179.46	3.7199e-06	4.8721e-06	232.95	126.59	86.394	41.599	3.072e-06	73.861	0.00027083	0.00011114	3.138e-05	436.66	1.2275e-06	1.1337e-06	552.9	184.38	1.3603e-06	1.2076e-06	238.9	131.16	89.766	43.343	1.4346e-06	76.452	-74.123	2.523	-5.481	-83.457	53.291	49.404	-83.735	-78.087	89.522	59.427	-79.424	-75.912	-74.474	-70.657	78.714	-72.736	-8191	255	
41385.836	1	1	0	0	0.23055	0.086708	0.14946	0.14323	0.10114	0.19795	0.10175	0.17558	0.17368	0.06441	0.2251	0.24294	0.20486	0.2846	0.25152	0.18631	-1.1083	-1.6604	-1.7375	-1.6042	-1.9062	-1.8708	-1.7167	-1.9896	-1.8792	-1.6583	-2.2438	-1.7437	-1.9208	-1.9917	-1.4708	-2.0917	256.886	173.542	219.029	54.059	1.128	43.734	86.783	80.891	192.883	58.953	192.275	137.944	-75.812	219.230	-57.314	130.500	0.00041078	0.00066181	0.00013956	425.59	5.2526e-06	4.374e-06	539.61	179.72	2.9097e-06	4.3843e-06	233.19	127.45	85.549	41.507	3.7854e-06	74.045	0.00027637	0.00011743	3.1203e-05	435.9	1.2042e-06	1.1838e-06	551.76	184.06	1.3956e-06	1.2275e-06	238.4	131.47	89.37	43.208	1.3777e-06	76.544	-74.349	-0.437	11.002	-83.325	61.035	37.331	-84.030	-78.106	93.306	53.204	-79.693	-76.104	-74.406	-70.688	71.019	-72.898	-8191	255	
41385.934	1	1	0	0	0.1754	0.13031	0.17647	0.055314	0.16573	0.14361	0.16415	0.1714	0.19885	0.056868	0.10383	0.072082	0.26066	0.36573	0.06191	0.27524	-1.3896	-1.7313	-2.0917	-1.5833	-1.8188	-1.9292	-1.6896	-2.0583	-1.95	-1.7104	-2.0687	-1.9312	-1.6354	-2.025	-1.5812	-2.0292	199.500	-53.091	-38.188	26.167	226.604	146.178	3.071	99.636	213.956	109.763	11.873	167.483	184.933	237.037	20.250	161.142	0.00041547	0.00047226	0.00015142	425.59	4.9449e-06	5.9238e-06	542.41	179.59	2.894e-06	4.1362e-06	234.62	127.21	87.208	41.496	4.696e-06	74.24	0.00028219	0.00011387	3.0766e-05	434.62	1.1878e-06	1.16e-06	552.1	184.37	1.3488e-06	1.1464e-06	239.57	131.96	89.69	43.329	1.4318e-06	77.088	-74.418	-6.337	-15.494	-83.660	67.882	60.667	-83.868	-77.885	86.138	31.550	-79.890	-76.086	-74.340	-70.754	53.471	-72.861	-8191	255	
41386.027	1	1	0	0	0.095264	0.12649	0.21408	0.031933	0.05339	0.18679	0.052901	0.058162	0.29293	0.055726	0.2784	0.089978	0.1059	0.37065	0.25968	0.28054	-1.5375	-1.2625	-1.9438	-1.5667	-1.9438	-1.9688	-1.4708	-1.8792	-1.6812	-1.3792	-2.0542	-1.7542	-1.75	-2.0979	-1.7583	-1.9792	75.241	-2.858	242.561	-11.822	182.959	138.399	97.796	250.332	240.234	-67.678	121.589	-43.267	32.758	206.717	247.652	4.599	0.00039516	0.00047479	0.00014834	423.31	4.8892e-06	5.164e-06	540.73	178.63	2.3914e-06	4.0794e-06	236.46	128.14	86.107	41.706	4.7504e-06	74.144	0.0002828	0.00011679	2.8068e-05	433.33	1.199e-06	1.1945e-06	553.29	184.22	1.2973e-06	1.146e-06	240.41	131.96	89.623	43.2	1.481e-06	76.719	-72.145	-6.756	3.474	-83.176	58.106	34.042	-83.610	-77.901	90.394	40.879	-79.836	-75.999	-74.354	-70.525	57.580	-72.859	-8191	255	
41386.125	1	1	0	0	0.12202	0.078003	0.21827	0.2197	0.15617	0.10041	0.14658	0.15753	0.21929	0.072567	0.050953	0.15942	0.27269	0.17393	0.12715	0.029181	-1.4479	-1.6271	-2.0938	-1.6104	-1.5292	-1.85	-1.5646	-1.6896	-1.7521	-1.5375	-2.0312	-1.8625	-1.7125	-1.9354	-1.5312	-1.9021	160.729	-49.752	53.656	107.040	91.516	148.835	135.369	229.463	-4.247	22.659	199.170	247.730	27.089	-14.764	260.622	123.194	0.00037742	0.00050918	0.00010851	422.33	3.6746e-06	5.1004e-06	536.67	178.3	3.8727e-06	5.2242e-06	232.52	126.47	85.284	41.326	4.3786e-06	73.69	0.00027545	0.00011487	2.7863e-05	431.81	1.1969e-06	1.0543e-06	549.2	183.16	1.3145e-06	1.1508e-06	238.47	130.95	88.789	43.027	1.4576e-06	76.23	-75.723	-15.041	-7.386	-83.557	63.297	47.056	-83.593	-77.988	85.430	63.859	-79.746	-76.048	-74.668	-70.633	61.050	-72.773	-8191	255	
41386.219	1	1	0	0	0.13392	0.24822	0.18623	0.19754	0.13456	0.23437	0.1959	0.2302	0.13155	0.25763	0.16141	0.047751	0.16809	0.24945	0.10726	0.33486	-1.5	-1.3646	-1.8875	-2.0479	-1.6313	-2.2167	-1.8771	-2.0042	-2.0604	-1.4438	-1.8958	-1.7729	-1.5812	-1.9708	-1.675	-1.8021	0.553	112.701	11.875	-30.607	147.082	207.939	136.274	262.388	140.076	135.347	258.395	-59.607	87.365	-3.179	-43.784	185.089	0.00041465	0.00054626	0.00013803	422.33	2.9014e-06	3.152e-06	535.59	177.86	2.8335e-06	4.4548e-06	233.09	126.26	86.302	41.102	4.461e-06	73.86	0.00026778	0.00011823	3.0143e-05	430.59	1.1311e-06	1.0488e-06	548.73	182.82	1.274e-06	1.1903e-06	238.96	131.17	88.875	42.87	1.4509e-06	76.413	-77.171	-10.323	-10.423	-83.246	66.040	60.293	-83.712	-78.165	97.918	47.134	-79.389	-75.924	-74.379	-70.725	98.867	-72.850	-8191	255	
41386.312	1	1	0	0	0.10792	0.1382	0.17325	0.063128	0.2122	0.31245	0.10702	0.20798	0.04659	0.33948	0.032228	0.33339	0.08613	0.061629	0.098716	0.21368	-1.6104	-1.4312	-1.7	-2.1354	-1.475	-2.1312	-1.8708	-1.625	-1.9688	-1.6521	-1.7958	-1.9562	-1.5667	-1.9458	-1.5917	-1.7875	55.926	237.195	-33.517	4.595	152.026	93.387	-22.917	200.564	10.250	208.654	56.818	198.640	8.772	119.543	6.452	-49.601	0.00040602	0.00053405	0.00013069	419.91	4.6135e-06	4.8495e-06	535.18	178.24	3.4661e-06	4.3514e-06	233.1	126.79	85.093	41.2	3.3414e-06	74	0.00027336	0.00011204	2.9836e-05	429.37	1.233e-06	1.0228e-06	548.68	182.77	1.2626e-06	1.1954e-06	239.79	131.19	88.338	42.903	1.3922e-06	76.669	-73.479	-9.749	-20.635	-83.340	63.316	55.290	-83.645	-78.022	83.792	51.245	-79.543	-75.875	-74.338	-70.625	87.174	-72.709	-8191	255	
41386.410	1	1	0	0	0.15896	0.32275	0.043855	0.16763	0.18293	0.34655	0.36754	0.16416	0.056108	0.097465	0.065462	0.16009	0.27055	0.039642	0.15347	0.18814	-1.5375	-1.5146	-1.8125	-1.7667	-1.4188	-1.8438	-1.675	-1.5667	-2.1354	-1.8875	-1.7292	-2.0104	-1.3792	-1.8792	-1.6437	-1.8979	93.781	65.572	33.143	70.896	245.144	208.230	210.986	135.752	187.898	118.152	165.993	201.280	209.796	63.008	82.184	244.787	0.00041298	0.0005501	0.00012212	420.53	4.2546e-06	3.7803e-06	538.18	178.34	3.1307e-06	3.564e-06	235.86	127.15	85.901	41.238	6.1834e-06	74.43	0.00027124	0.00010974	2.9147e-05	429.11	1.2202e-06	1.1496e-06	549.9	183.12	1.2569e-06	1.1405e-06	240.4	131.52	88.658	42.923	1.3539e-06	76.94	-73.384	-6.093	-8.765	-83.433	60.754	58.491	-83.576	-78.018	86.685	34.634	-80.099	-76.052	-74.654	-70.512	70.878	-72.812	-8191	255	
41386.531	1	1	0	0	0.075696	0.089219	0.27707	0.22654	0.41719	0.14617	0.20414	0.097997	0.23509	0.13952	0.090692	0.16231	0.12351	0.32095	0.20732	0.33371	-1.3917	-1.5354	-1.6271	-1.9479	-1.5	-1.9146	-1.9417	-1.6667	-1.8687	-1.6542	-1.6708	-2.1	-1.5417	-1.9688	-1.875	-1.5688	139.671	161.371	132.462	56.959	228.157	190.706	132.779	233.727	230.369	-35.223	247.916	158.802	-45.960	221.200	-93.127	186.064	0.0004163	0.00057997	0.0001453	420.54	5.5973e-06	5.1829e-06	535.14	178.32	3.1371e-06	5.554e-06	234.15	127.3	85.528	40.907	3.8517e-06	73.693	0.00027592	0.00010658	3.1185e-05	429.4	1.2282e-06	1.1348e-06	548.16	182.86	1.3326e-06	1.1298e-06	239.15	131.2	88.328	42.717	1.4031e-06	76.208	-74.969	-9.381	-10.949	-83.231	66.758	66.013	-83.938	-78.167	84.841	46.349	-79.721	-76.213	-74.423	-70.856	71.000	-72.880	-8191	255	
41386.629	1	1	0	0	0.089134	0.14469	0.22077	0.36314	0.20034	0.090353	0.25272	0.16418	0.18273	0.3519	0.16746	0.25416	0.24646	0.25106	0.24532	0.29768	-1.4875	-1.4708	-1.5438	-1.9042	-1.5146	-1.7687	-2.1229	-1.5333	-1.8458	-1.6625	-1.6292	-2.1479	-1.5292	-1.7354	-2.0833	-1.575	122.758	51.250	230.158	47.314	-24.197	198.959	148.760	239.210	164.694	217.719	32.491	203.821	56.862	250.962	205.030	184.636	0.00039643	0.00041323	0.00013113	422.95	3.8892e-06	3.5629e-06	535.13	177.25	3.1991e-06	5.5069e-06	234.12	127.05	84.904	41.026	4.119e-06	73.447	0.00027185	0.00010868	2.7938e-05	429.12	1.201e-06	1.0877e-06	547.43	181.92	1.2855e-06	1.2098e-06	238.46	131	88.341	42.692	1.3865e-06	76.222	-73.855	-20.145	-0.891	-82.910	64.452	52.577	-83.884	-78.073	79.706	54.398	-79.480	-76.489	-74.782	-70.812	80.397	-72.886	-8191	255	
41386.723	1	1	0	0	0.35449	0.091952	0.33183	0.18852	0.15666	0.25165	0.092678	0.15119	0.16019	0.051784	0.2161	0.35164	0.119	0.27916	0.11952	0.25321	-1.5479	-1.8125	-1.5833	-2.0708	-1.5688	-1.85	-1.8771	-1.3667	-1.8875	-1.7771	-1.4792	-1.9458	-1.6146	-1.7313	-1.8604	-1.8271	-37.449	113.760	-1.022	-83.954	-45.286	122.436	137.407	86.543	74.014	79.628	223.237	207.692	-90.197	233.813	103.637	232.509	0.00039193	0.00047124	0.00014077	416.1	4.9576e-06	4.3002e-06	536.2	177.54	3.1625e-06	3.7696e-06	233.56	127.46	85.65	41.075	3.5596e-06	73.673	0.00026943	0.00010375	3.0412e-05	427.18	1.2146e-06	1.1522e-06	547.28	182.29	1.2309e-06	1.1486e-06	239.03	131.56	88.54	42.73	1.3288e-06	76.524	-73.632	-10.807	-9.395	-82.936	57.334	51.802	-83.789	-77.940	81.608	58.484	-79.993	-75.921	-74.724	-70.710	61.705	-72.908	-8191	255	
41386.844	1	1	0	0	0.24308	0.061455	0.17495	0.24385	0.040903	0.043543	0.31977	0.33993	0.017025	0.29841	0.15161	0.31592	0.28659	0.5726	0.28882	0.28939	-1.45	-1.8208	-1.2396	-2.0021	-1.7354	-1.6292	-2.1	-1.6333	-1.8833	-1.9688	-1.2979	-2.2062	-2.0104	-1.7354	-2.0438	-1.7292	-49.559	35.689	129.272	169.966	65.026	256.399	186.724	253.910	-42.940	133.592	138.211	192.409	233.314	222.254	173.512	182.071	0.0003767	0.00055225	0.0001249	421.38	4.1999e-06	4.4335e-06	537.02	176.6	3.4765e-06	4.1092e-06	234.21	127.4	84.823	40.912	4.2163e-06	74.012	0.00027325	0.00010392	3.2245e-05	429.21	1.3134e-06	1.2086e-06	549.68	182.09	1.2767e-06	1.1301e-06	239.56	131.62	88.158	42.725	1.3808e-06	76.831	-75.165	-14.772	-22.694	-83.238	66.402	47.933	-83.734	-78.091	75.969	52.846	-80.115	-75.942	-74.306	-70.711	92.665	-72.807	-8191	255	
41386.914	1	1	0	0	0.17355	0.15847	0.30055	0.25349	0.050375	0.098719	0.093736	0.28027	0.12616	0.19216	0.13531	0.15114	0.095266	0.22148	0.24313	0.10557	-1.4312	-1.7729	-1.4542	-1.95	-1.7375	-1.6437	-2.2104	-1.7042	-1.8188	-1.9708	-1.5812	-1.9042	-1.8208	-1.5208	-1.9229	-1.7833	-64.407	214.456	86.855	211.393	-63.631	-84.256	221.843	198.784	-37.153	-64.173	204.627	-4.072	93.689	242.778	74.310	140.751	0.00039258	0.00060059	0.0001034	420.98	4.9664e-06	5.0437e-06	538.99	177.61	3.8021e-06	4.4964e-06	232.09	127	85.366	40.719	4.4307e-06	73.855	0.00027162	0.00011018	3.1929e-05	429.58	1.2174e-06	1.173e-06	550.57	182.22	1.302e-06	1.1353e-06	238.33	131.04	88.082	42.459	1.3133e-06	76.093	-75.328	-21.884	-13.326	-83.532	65.070	49.396	-83.414	-78.126	75.590	45.220	-79.639	-76.140	-74.956	-70.830	99.647	-72.989	-8191	255	
41387.012	1	1	0	0	0.10377	0.27998	0.31613	0.12139	0.17605	0.1582	0.20182	0.071696	0.12474	0.040139	0.29225	0.11571	0.20337	0.18087	0.102	0.19557	-1.2062	-1.8438	-1.5583	-1.6729	-1.9917	-1.6083	-2.0438	-1.6958	-1.6812	-2.0771	-1.7604	-1.8458	-1.9417	-1.75	-2.0354	-1.825	-34.617	38.404	88.640	239.750	27.621	-11.728	165.866	171.194	147.793	103.855	-76.235	-56.588	245.296	131.879	143.021	170.384	0.00039127	0.00054057	0.00013182	418.55	2.8113e-06	4.9778e-06	531.9	175.98	2.7985e-06	5.0411e-06	230.37	126.18	83.8	40.827	5.0191e-06	73.026	0.00027929	0.0001123	3.0599e-05	427.19	1.208e-06	1.193e-06	543.14	180.57	1.2862e-06	1.1866e-06	236.54	130.34	87.62	42.375	1.4074e-06	75.653	-74.448	-15.452	-16.142	-83.464	54.048	55.250	-83.856	-78.006	69.540	47.011	-79.618	-76.274	-74.701	-70.776	64.636	-72.927	-8191	255	
41387.133	1	1	0	0	0.1468	0.24006	0.13904	0.23339	0.16299	0.25493	0.33186	0.094143	0.087732	0.13997	0.15336	0.10396	0.18636	0.2288	0.30821	0.43653	-1.4458	-1.9688	-1.4625	-1.7292	-1.9729	-1.4667	-2.1771	-1.5812	-1.5	-2.1417	-1.5292	-1.9	-1.9646	-1.5917	-1.9396	-1.8479	202.168	230.519	-24.468	13.901	160.923	-9.838	-92.438	169.991	-38.945	92.018	-63.379	-31.679	234.400	230.382	214.966	192.184	0.0004057	0.00052549	0.00016349	413.43	4.4101e-06	4.6302e-06	532.52	174.86	2.3728e-06	4.252e-06	231.86	127.22	84.843	40.797	4.1091e-06	73.65	0.00027612	0.00011463	3.3073e-05	424.32	1.2247e-06	1.1752e-06	543.31	180.23	1.2801e-06	1.0995e-06	237.13	130.99	87.635	42.482	1.3483e-06	76.094	-75.710	-19.146	-14.729	-82.996	64.257	36.113	-83.728	-78.087	80.004	55.509	-79.681	-75.822	-74.181	-70.869	75.003	-72.978	-8191	255	
41387.227	1	1	0	0	0.14045	0.14877	0.15195	0.21872	0.10264	0.21978	0.19092	0.10122	0.047817	0.064871	0.28138	0.13138	0.14399	0.10322	0.098319	0.10854	-1.1521	-1.7854	-1.4229	-1.7396	-1.7979	-1.4937	-1.9125	-1.8354	-1.7458	-1.8917	-1.55	-1.7896	-1.9708	-1.4625	-1.8729	-1.6729	-24.097	205.843	75.132	225.379	226.232	191.637	-54.134	257.307	209.728	105.385	-79.612	206.891	-94.285	237.266	136.466	149.453	0.00040543	0.00041779	0.00013686	417.75	5.4376e-06	5.0663e-06	533.42	176.14	2.6518e-06	4.0125e-06	232.96	127.1	84.74	40.872	4.0021e-06	74.291	0.00027208	0.00010845	3.1855e-05	426.14	1.2396e-06	1.1897e-06	544.34	180.8	1.4017e-06	1.0339e-06	237.96	131.42	87.782	42.64	1.3642e-06	76.716	-72.845	-18.291	-19.621	-83.066	54.334	55.269	-83.983	-77.853	93.722	46.596	-79.778	-76.038	-74.601	-70.553	70.385	-72.820	-8191	255	
41387.324	1	1	0	0	0.087132	0.064939	0.083586	0.24637	0.20921	0.27774	0.095785	0.13648	0.12491	0.057442	0.25515	0.42989	0.17282	0.22773	0.11966	0.24314	-1.0812	-2.0521	-1.6979	-1.6542	-1.8417	-1.5542	-2.0104	-1.8833	-1.4917	-1.9958	-1.6542	-1.8833	-1.8708	-1.7646	-1.8708	-2.05	171.940	196.817	54.983	-95.777	51.865	225.660	-83.510	170.632	-61.387	153.775	136.166	253.116	52.309	-40.355	138.802	151.025	0.00040762	0.00057924	0.00011217	417.61	5.3668e-06	5.1761e-06	535.57	175.53	2.8064e-06	5.0849e-06	232.66	127.67	85.515	41.06	4.3083e-06	74.464	0.00028108	0.00010359	3.0003e-05	424.64	1.167e-06	1.2735e-06	545.55	180.37	1.3505e-06	1.0852e-06	237.97	131.87	88.145	42.746	1.3656e-06	76.86	-74.130	-10.632	-9.621	-83.301	60.085	48.713	-83.840	-77.867	65.516	58.574	-79.877	-75.934	-74.170	-71.023	83.440	-72.870	-8191	255	
41387.418	1	1	0	0	0.22505	0.13974	0.096624	0.32151	0.16964	0.1167	0.28377	0.21965	0.10498	0.084018	0.23796	0.17186	0.16313	0.30935	0.14186	0.099528	-0.97292	-1.9417	-1.6896	-1.7146	-1.8521	-1.5083	-1.9104	-2.0292	-1.4188	-2.0583	-1.725	-1.8062	-1.8708	-1.6333	-1.9562	-2.1375	-61.764	74.370	68.013	251.722	-62.622	242.874	176.729	-0.050	222.566	27.500	257.595	102.553	-20.917	223.830	147.440	207.159	0.00038397	0.00050532	0.0001248	410.41	3.9843e-06	5.3823e-06	531.89	174.92	4.1402e-06	4.242e-06	230.2	126.54	84.15	40.846	4.8557e-06	73.576	0.00027298	0.00010053	2.9464e-05	422.66	1.1423e-06	1.2045e-06	542.26	179.79	1.4094e-06	1.1231e-06	236.86	130.96	87.798	42.502	1.3476e-06	76.09	-73.156	-2.307	-2.940	-83.525	69.668	47.953	-83.717	-78.238	93.558	51.519	-79.928	-76.277	-74.722	-71.012	67.602	-73.010	-8191	255	
41387.516	1	1	0	0	0.10513	0.16371	0.21561	0.062987	0.14219	0.1716	0.035596	0.14058	0.12155	0.094571	0.054519	0.080284	0.17928	0.027415	0.077237	0.1714	-1.1354	-1.9292	-1.6854	-1.6313	-1.8729	-1.6583	-1.8042	-1.9958	-1.5312	-1.8229	-2.0979	-1.8229	-2.1	-1.7417	-1.7437	-2.2229	-66.140	78.447	84.075	193.569	2.375	122.511	125.547	56.065	-38.769	64.246	-75.610	64.328	185.070	37.286	-65.634	109.984	0.00041154	0.00052968	0.00015846	414.7	4.7165e-06	3.183e-06	530.62	174.89	2.5211e-06	5.3294e-06	230.75	127.11	85.188	40.674	4.2356e-06	73.773	0.00028051	0.00010558	3.1687e-05	423.21	1.1054e-06	1.1496e-06	541.68	179.96	1.366e-06	1.0689e-06	236.54	131.23	87.696	42.438	1.3808e-06	76.27	-71.855	-4.788	0.723	-83.517	60.465	53.018	-83.759	-78.147	95.784	49.500	-79.626	-76.094	-74.488	-70.989	75.014	-72.913	-8191	255	
41387.613	1	1	0	0	0.25292	0.19514	0.32634	0.16451	0.096751	0.16504	0.26478	0.22568	0.19277	0.24178	0.13907	0.24362	0.33885	0.077479	0.28486	0.15021	-1.0667	-1.9	-1.9292	-1.4813	-2.075	-1.7271	-1.8167	-2.2333	-1.5979	-1.9667	-1.9042	-1.6521	-2.025	-1.8792	-1.5208	-2.1208	-17.976	159.017	205.271	-62.856	54.894	241.242	-57.040	111.277	12.187	12.044	-80.730	157.043	-79.066	-28.428	141.571	258.238	0.00039375	0.00051647	0.00012663	414.54	3.8394e-06	3.4622e-06	529.41	175.31	4.0765e-06	4.6513e-06	232.24	126.97	83.888	40.731	5.6342e-06	73.628	0.00027579	0.00010845	3.1222e-05	423.42	1.1217e-06	1.1433e-06	543.18	180.06	1.3202e-06	1.0785e-06	237.98	131.34	87.434	42.441	1.4183e-06	76.4	-76.495	-17.728	-8.873	-83.127	56.599	43.795	-83.754	-77.852	84.462	51.302	-79.735	-76.248	-74.505	-70.833	75.494	-73.069	-8191	255	
41387.707	1	1	0	0	0.40295	0.11138	0.023135	0.2068	0.19068	0.21243	0.16475	0.16695	0.14468	0.076834	0.06725	0.027489	0.17303	0.12232	0.17352	0.23605	-1.3646	-1.8583	-1.9083	-1.7458	-2.0875	-1.9667	-1.7771	-2.0708	-1.5583	-1.6604	-2.0667	-1.6375	-1.9354	-1.9417	-1.45	-2.0521	45.479	-33.417	48.165	227.024	78.518	-85.311	-37.659	-18.027	115.328	151.370	182.571	172.711	237.933	184.165	195.868	137.804	0.00040172	0.00050115	0.00013261	415.62	5.2893e-06	4.5854e-06	535.18	176.23	3.3648e-06	4.7084e-06	235.38	128.24	84.838	40.714	5.3483e-06	74.239	0.0002687	0.00010625	2.8226e-05	424.3	1.1527e-06	1.0773e-06	545.39	180.77	1.2579e-06	1.1316e-06	240.42	131.89	87.806	42.402	1.3646e-06	76.662	-74.213	-2.193	-3.196	-82.985	48.305	71.410	-83.645	-77.915	69.965	55.901	-79.969	-75.792	-74.342	-70.879	67.014	-73.007	-8191	255	
41387.805	1	1	0	0	0.11575	0.28085	0.19053	0.1606	0.22276	0.11333	0.1827	0.28615	0.043416	0.084954	0.16606	0.21221	0.039162	0.13127	0.098281	0.1559	-1.2292	-1.5354	-1.9104	-1.425	-1.9188	-1.7583	-1.7396	-1.9417	-1.7437	-1.7437	-1.9062	-1.5208	-1.9354	-1.925	-1.6083	-2.1854	-75.796	108.962	97.898	51.254	124.647	220.390	-53.138	185.150	214.372	-75.304	4.206	195.459	123.131	-67.980	235.065	210.905	0.00038399	0.00040419	0.00013342	418.4	4.0331e-06	4.1629e-06	538.36	176.96	3.2592e-06	5.4158e-06	234.75	126.96	84.091	40.572	4.9845e-06	73.138	0.00027133	0.00011107	3.1027e-05	426.02	1.1416e-06	1.1307e-06	549.67	181.67	1.3569e-06	1.1762e-06	240.54	130.94	87.609	42.219	1.39e-06	75.738	-74.668	-1.027	-9.159	-82.961	63.893	46.327	-83.837	-77.851	79.147	54.870	-79.572	-76.114	-73.947	-70.772	72.828	-73.012	-8191	255	
41387.926	1	1	0	0	0.19528	0.081873	0.051871	0.22221	0.24973	0.25175	0.094949	0.29053	0.081321	0.1013	0.20715	0.32738	0.061172	0.076228	0.2281	0.22987	-1.5021	-1.6167	-2.1708	-1.5771	-1.7521	-1.9062	-1.6292	-2	-1.6271	-1.7167	-2.0625	-1.6708	-1.7896	-2.0771	-1.5521	-2.1167	203.010	-95.293	50.176	139.022	70.802	238.941	61.935	-60.471	91.787	172.431	181.310	233.310	45.625	186.684	97.618	131.914	0.00038757	0.00039703	0.00013828	420.49	4.5927e-06	5.8097e-06	537.74	176.24	2.3731e-06	3.8673e-06	233.13	125.91	84.047	39.918	4.7725e-06	72.111	0.00026913	0.00011034	2.8784e-05	427.85	1.1155e-06	1.1341e-06	548.14	181.33	1.3609e-06	1.1851e-06	239.28	129.69	87.327	41.661	1.442e-06	74.664	-73.882	-17.930	-15.114	-83.454	54.750	58.292	-83.800	-78.022	82.191	55.490	-80.144	-76.150	-74.178	-70.538	66.775	-72.883	-8191	255	
41388.020	1	1	0	0	0.28585	0.14066	0.17555	0.29008	0.25619	0.15487	0.20345	0.080211	0.056665	0.19603	0.15218	0.12614	0.1681	0.26304	0.19223	0.2593	-1.1583	-1.5375	-2.1333	-1.6938	-1.7104	-1.9125	-1.5917	-1.8917	-1.8292	-1.5708	-1.9937	-1.6042	-1.5667	-2	-1.6542	-1.9562	16.977	69.073	174.929	164.063	229.312	110.648	146.651	176.518	61.105	210.829	143.393	245.153	232.450	176.061	253.303	216.980	0.00038177	0.00056269	0.0001517	417.4	5.3255e-06	2.8504e-06	534.28	172.67	3.6083e-06	5.5337e-06	228.59	122.36	81.594	39.146	3.9745e-06	70.732	0.00026916	0.00011912	2.9184e-05	425.53	1.2236e-06	1.222e-06	546.6	177.59	1.3235e-06	1.2529e-06	234.9	127.05	84.866	40.734	1.4774e-06	73.19	-74.741	-19.196	-17.962	-83.278	63.490	55.655	-83.661	-78.166	77.178	49.513	-80.170	-76.014	-73.917	-70.534	87.465	-72.508	-8191	255	
41388.113	1	1	0	0	0.12968	0.14718	0.2352	0.2133	0.16854	0.096864	0.10988	0.1805	0.28249	0.11192	0.12815	0.1511	0.13041	0.23197	0.10266	0.23863	-1.4312	-1.3979	-2.0792	-1.7771	-1.6583	-1.95	-1.7917	-2.0958	-1.8125	-1.6917	-1.8937	-2.0375	-1.5146	-2.2104	-1.4708	-2.0583	17.957	81.315	217.779	-92.112	223.347	50.251	189.809	258.730	25.136	22.519	147.207	206.027	161.259	252.412	143.655	161.753	0.00039002	0.00048424	0.00015106	412.18	2.7006e-06	5.5581e-06	530.52	169.11	2.253e-06	4.429e-06	225.53	121.2	80.454	37.767	4.75e-06	68.433	0.00026889	0.00011563	3.0803e-05	421.21	1.2633e-06	1.2409e-06	542.41	173.35	1.3313e-06	1.2105e-06	230.73	125.17	83.284	39.314	1.5029e-06	71.063	-73.137	-24.173	-4.666	-83.182	46.238	51.816	-83.762	-77.791	100.808	37.370	-79.575	-75.823	-74.285	-70.361	59.241	-72.639	-8191	255	
41388.215	1	1	0	0	0.13154	0.25712	0.16885	0.21233	0.22779	0.43922	0.16982	0.22474	0.13097	0.070617	0.2926	0.16982	0.19189	0.11584	0.084699	0.077562	-1.425	-1.3583	-1.9167	-1.9604	-1.3521	-2.0875	-1.6167	-1.8167	-1.9354	-1.5396	-1.8979	-2.0062	-1.5021	-2.1542	-1.6396	-2.0729	160.428	149.557	-50.250	227.195	142.639	115.689	180.820	215.209	-81.517	214.455	-94.604	187.936	-23.842	18.146	227.448	-17.340	0.00035795	0.00047762	0.00012123	405.35	3.2531e-06	4.828e-06	525.55	163.71	2.8151e-06	4.7524e-06	219.01	118.53	77.828	36.507	3.0878e-06	65.24	0.0002654	0.00012361	3.0347e-05	416.05	1.3068e-06	1.1964e-06	535.44	168.43	1.4343e-06	1.372e-06	225.21	121.98	80.985	38.038	1.5075e-06	67.757	-74.137	-5.500	-11.136	-83.390	72.715	75.466	-83.866	-77.440	70.197	42.956	-79.429	-75.864	-74.181	-70.024	62.682	-72.356	-8191	255	
41388.309	1	1	0	0	0.31759	0.035398	0.16694	0.089003	0.16884	0.1295	0.15303	0.47494	0.12072	0.20862	0.2666	0.16682	0.1094	0.24459	0.032523	0.10796	-1.5104	-1.4688	-1.7521	-1.9042	-1.5688	-1.9042	-1.5542	-1.6125	-1.9354	-1.4458	-2.0667	-1.6875	-1.425	-2.0958	-1.675	-1.6479	56.464	48.205	-88.765	218.362	59.577	-91.073	35.361	143.110	24.578	-62.693	197.299	34.611	166.783	189.882	251.531	157.236	0.00033999	0.00055866	0.00012214	398.28	4.2112e-06	3.6907e-06	512.31	158.09	3.0501e-06	3.925e-06	212.19	114.85	75.805	35.68	4.4274e-06	63.64	0.0002652	0.00012807	3.2171e-05	408.68	1.4153e-06	1.2705e-06	524.03	162.47	1.4798e-06	1.3813e-06	217.98	118.63	78.997	37.219	1.5492e-06	65.87	-74.029	-14.623	-7.689	-82.975	70.015	51.595	-83.426	-77.784	76.438	64.363	-79.564	-75.681	-73.534	-69.994	84.160	-72.076	-8191	255	
41388.406	1	1	0	0	0.10649	0.36031	0.043665	0.059814	0.1677	0.23949	0.10396	0.12458	0.10273	0.13582	0.088843	0.14136	0.22527	0.062622	0.2973	0.27053	-1.5938	-1.6187	-1.7208	-1.7271	-1.5583	-1.7396	-1.9396	-1.6917	-1.9208	-1.7271	-1.8146	-1.8729	-1.5417	-2.1	-1.5958	-1.8312	-67.543	60.848	134.242	29.191	174.229	95.920	210.466	134.174	-17.786	-72.542	42.835	219.341	-77.110	215.946	-73.921	214.767	0.00034711	0.00045925	0.00010814	398.55	2.9305e-06	3.7007e-06	514.18	158.12	2.9454e-06	3.7778e-06	211.26	116.58	77.587	36.899	3.4375e-06	64.008	0.00025916	0.00013246	3.5548e-05	408.47	1.4654e-06	1.3384e-06	525.83	162.75	1.5559e-06	1.3824e-06	218.28	120.28	80.394	38.499	1.6426e-06	66.283	-76.585	-7.782	10.648	-82.892	57.783	31.799	-83.821	-77.703	90.394	42.357	-79.512	-75.503	-73.829	-69.719	52.649	-72.110	-8191	255	
41388.523	1	1	0	0	0.1121	0.27677	0.20682	0.035956	0.25487	0.24431	0.08528	0.095524	0.17453	0.12397	0.2089	0.15565	0.27353	0.21806	0.16659	0.21302	-1.5521	-1.5458	-1.8854	-2.0333	-1.4688	-1.9083	-1.9354	-1.5979	-2.0667	-1.7437	-1.8208	-2.0292	-1.55	-2.0104	-1.9292	-1.6104	15.633	58.631	9.094	182.063	-25.459	163.570	259.568	99.970	35.567	22.316	164.412	-73.691	127.103	2.278	70.907	194.463	0.00037028	0.00050908	0.0001034	405.32	4.2105e-06	3.9406e-06	511.82	156.43	2.9995e-06	3.4977e-06	211.33	117.52	77.734	38.609	5.7421e-06	66.063	0.00026255	0.00014105	3.512e-05	412	1.5242e-06	1.3866e-06	525.62	161.46	1.4296e-06	1.4771e-06	217.49	121.51	81.087	40.276	1.7329e-06	68.542	-75.459	-9.537	0.446	-83.081	69.057	53.457	-83.628	-77.627	66.852	45.084	-79.437	-75.416	-73.518	-69.749	77.144	-72.264	-8191	255	
41388.621	1	1	0	0	0.083477	0.26971	0.17418	0.24338	0.30494	0.22044	0.30407	0.21395	0.029045	0.11849	0.18485	0.13784	0.077302	0.25973	0.17227	0.28776	-1.6292	-1.7667	-1.75	-2.0146	-1.6667	-1.7667	-1.9354	-1.4833	-2.0417	-1.8208	-1.6229	-2.1562	-1.7083	-1.8396	-1.8833	-1.7875	31.192	201.712	214.977	103.697	-5.198	109.365	184.161	-52.933	147.779	-13.720	116.757	212.083	-46.542	248.627	75.767	162.512	0.00035173	0.00043125	0.00010306	402.23	4.1924e-06	4.3104e-06	517.06	158.81	3.2871e-06	4.2918e-06	215.2	122.6	80.448	40.265	2.7664e-06	67.968	0.00026839	0.00014574	3.9018e-05	412.79	1.5833e-06	1.423e-06	529.83	162.99	1.5691e-06	1.5664e-06	220.4	126.5	83.756	42.008	1.8542e-06	70.421	-75.574	-12.203	-18.511	-82.989	56.670	54.193	-83.805	-77.538	86.513	49.846	-79.312	-75.646	-73.458	-69.830	57.728	-72.384	-8191	255	
41388.715	1	1	0	0	0.33448	0.21348	0.14962	0.13109	0.14854	0.26436	0.36637	0.19489	0.14713	0.15154	0.18156	0.093028	0.15733	0.54229	0.19695	0.24113	-1.5708	-1.8042	-1.8042	-2.1271	-1.5688	-1.7979	-2.0229	-1.4729	-1.9521	-1.8271	-1.5646	-2.2083	-1.7167	-1.8396	-2.0083	-1.6354	54.525	-53.556	117.079	239.499	250.427	82.878	-3.908	192.615	-5.538	188.695	-94.003	139.749	110.190	206.340	-63.418	-51.860	0.00038709	0.00042888	0.00014106	405.82	3.8013e-06	3.8057e-06	523.31	164.02	2.6842e-06	5.4275e-06	222.6	126.97	84.513	42.357	5.694e-06	70.292	0.00028938	0.0001629	4.393e-05	414.51	1.8104e-06	1.7315e-06	536.01	169.37	1.8594e-06	1.9627e-06	229.05	131.16	87.977	44.252	2.6446e-06	72.957	-74.143	11.302	-8.502	-83.566	76.436	51.445	-83.452	-77.634	82.975	30.488	-79.607	-76.124	-73.832	-70.694	71.192	-72.413	-8191	255	
41388.812	1	1	0	0	0.15426	0.24678	0.071687	0.12891	0.1006	0.1693	0.39383	0.2087	0.098041	0.18667	0.18406	0.38038	0.23736	0.10456	0.12062	0.16251	-1.5792	-1.8229	-1.5354	-2.2562	-1.7083	-1.5854	-2.2396	-1.5896	-2.0542	-1.9667	-1.5729	-2.075	-1.7896	-1.6	-2.3125	-1.9438	189.798	192.090	130.512	235.514	80.861	216.438	164.050	203.946	233.094	126.545	179.290	209.962	52.630	-6.020	137.728	134.043	0.00034988	0.00042977	0.0001032	450.39	4.8259e-06	5.7472e-06	568.64	178.29	3.3667e-06	5.7756e-06	234.8	137.74	93.357	45.449	4.2093e-06	73.99	0.00036093	0.00028069	8.3646e-05	463.55	3.6949e-06	3.9485e-06	582.04	183.78	4.2448e-06	4.6312e-06	242.83	142.64	97.933	47.438	5.0832e-06	76.64	-73.355	-4.370	9.485	-83.015	50.749	73.485	-83.799	-77.700	72.334	60.516	-79.416	-76.325	-74.100	-70.956	96.104	-72.801	-8191	255	
41388.910	1	1	0	0	0.11375	0.15337	0.13075	0.16073	0.19416	0.21195	0.30463	0.25435	0.33261	0.1605	0.16989	0.2237	0.078952	0.26922	0.1931	0.25612	-1.6562	-1.8083	-1.4583	-2.0104	-1.7938	-1.5667	-2.2042	-1.9104	-1.9708	-2.1625	-1.7146	-1.9208	-1.6833	-1.6042	-2.0729	-1.8833	126.681	54.670	178.906	-29.856	253.262	241.504	184.683	145.696	145.637	121.503	181.571	-75.400	3.776	211.148	-24.461	182.812	0.00041006	0.00044253	0.00015023	460.33	4.8857e-06	4.2651e-06	570.2	180.33	3.2204e-06	5.4534e-06	235.74	141.36	95.841	46.339	3.382e-06	73.96	0.00053691	0.00051199	0.00014414	474.03	6.0956e-06	6.2718e-06	585.58	186.31	6.4443e-06	7.0984e-06	244.81	146.39	100.45	48.267	7.5438e-06	76.882	-72.586	19.277	-31.942	-82.959	79.388	50.760	-83.759	-77.687	45.800	42.331	-79.795	-76.543	-74.644	-70.868	58.949	-72.850	-8191	255	
41389.004	1	1	0	0	0.18409	0.11457	0.16197	0.20512	0.12434	0.25192	0.072285	0.18895	0.29598	0.21643	0.17636	0.12374	0.38531	0.18423	0.28043	0.030198	-1.1125	-1.7646	-1.4562	-1.8896	-1.7	-1.6896	-2	-1.6833	-1.6958	-2.0438	-1.7146	-2.1708	-2.0146	-1.7917	-2.1271	-1.8188	184.739	215.062	219.540	160.808	-4.557	-83.948	150.755	110.670	-81.205	-52.551	203.431	-80.532	-19.271	234.986	-0.487	48.150	0.00041242	0.00052884	0.00013732	449.32	4.1217e-06	3.4982e-06	555.99	171.69	2.3781e-06	5.1301e-06	225.87	138.93	92.62	44.696	3.5851e-06	71.433	0.00066043	0.00072755	0.0002019	465.2	7.6292e-06	7.9474e-06	570.11	178.23	7.59e-06	8.4523e-06	236.47	143.56	97.943	46.781	9.0333e-06	74.569	-70.359	-34.466	-4.733	-83.248	90.024	17.515	-83.797	-77.513	87.027	65.566	-79.001	-76.396	-74.404	-70.665	77.573	-72.487	-8191	255	
41389.102	1	1	0	0	0.11036	0.19893	0.063934	0.088669	0.16086	0.039819	0.20546	0.20409	0.1603	0.059992	0.23895	0.041413	0.21628	0.11677	0.18252	0.24016	-1.3438	-2.1021	-1.575	-2.0208	-2.0542	-1.5896	-2.1083	-1.6521	-1.8875	-1.9854	-1.7938	-1.9083	-1.9813	-1.6313	-1.9917	-1.9667	201.580	-52.941	195.798	-92.352	-44.661	96.526	-74.262	27.343	-83.179	150.278	214.032	61.057	-77.142	-94.271	59.333	69.610	0.00033908	0.00052299	0.00013267	444.11	4.7529e-06	2.4637e-06	547.26	170.14	4.197e-06	5.8076e-06	223.82	138.62	94.249	46.197	5.3388e-06	73.39	0.00077162	0.00087558	0.00024818	458.96	9.4685e-06	9.8498e-06	564.39	175.81	9.349e-06	1.0196e-05	235.7	144.23	99.696	48.301	9.201e-06	76.347	-77.027	3.679	-28.421	-82.801	59.771	52.014	-83.533	-77.532	101.087	42.981	-79.875	-76.296	-74.114	-70.730	101.423	-72.529	-8191	255	
41389.219	1	1	0	0	0.17716	0.25434	0.093416	0.057695	0.27336	0.039313	0.050797	0.18901	0.05156	0.08056	0.17215	0.24171	0.32892	0.15677	0.29762	0.20506	-1.3438	-1.9833	-1.5312	-1.9438	-1.9021	-1.6208	-1.9875	-2.0458	-1.7125	-2.0563	-1.4667	-1.8083	-1.85	-1.5958	-2.0729	-1.825	89.579	132.165	-85.772	159.465	-23.772	-78.180	198.794	181.170	-42.823	-27.752	73.287	222.726	-85.415	250.097	-8.746	126.418	0.00038689	0.00070445	0.00014376	449.47	6.0875e-06	2.0378e-06	552.89	173.58	1.7138e-06	5.3227e-06	226.15	140.73	94.905	46.015	1.4636e-06	71.906	0.00080039	0.0009451	0.00027328	465.83	1.0851e-05	1.1295e-05	569.06	180.21	9.9923e-06	1.0269e-05	238.48	145.59	100.28	48.018	8.2839e-06	74.843	-71.371	-6.134	-14.984	-82.859	61.598	77.210	-83.444	-77.535	43.256	39.035	-79.465	-76.517	-74.006	-70.560	66.343	-72.227	-8191	255	
41389.316	1	1	0	0	0.27508	0.16087	0.19129	0.19483	0.19391	0.21189	0.21555	0.067223	0.074322	0.10795	0.16032	0.21685	0.10776	0.090616	0.21195	0.26019	-1.2125	-1.9271	-1.675	-1.9375	-1.9771	-1.5979	-2.0812	-1.9312	-1.5458	-1.8458	-1.6083	-1.7458	-2.0271	-1.6083	-1.7708	-1.8333	247.341	52.824	-21.732	-93.568	154.120	227.987	141.692	172.556	-47.632	254.519	225.489	220.402	66.106	-90.005	151.389	76.361	0.00037266	0.00068871	0.0001212	449.49	8.4269e-06	4.2304e-06	545.78	167.73	2.9937e-06	2.864e-06	216.56	130.32	87.612	41.655	7.0456e-06	64.902	0.00069574	0.00071201	0.00020139	462.94	7.3161e-06	7.3521e-06	561.53	173.16	6.5359e-06	6.5114e-06	224.65	135.13	91.841	43.462	6.3551e-06	67.423	-70.983	-12.650	-9.991	-82.871	67.409	28.022	-83.545	-77.332	64.343	57.921	-79.752	-76.052	-73.672	-69.874	64.052	-71.576	-8191	255	
41389.387	1	1	0	0	0.30536	0.27745	0.12589	0.21025	0.22598	0.24401	0.17993	0.098723	0.20547	0.13929	0.28413	0.17689	0.10711	0.21501	0.16883	0.22262	-1.0625	-1.9708	-1.6229	-1.7729	-2.1125	-1.6521	-1.9875	-1.8042	-1.6646	-2.0417	-1.6146	-1.7146	-1.9937	-1.7062	-1.8833	-2.2208	105.837	67.232	142.219	48.359	146.287	-37.840	120.578	237.820	-59.112	-1.583	258.127	258.484	194.899	165.750	172.790	-25.376	0.00036878	0.00029169	0.00015047	443.23	4.1047e-06	4.2811e-06	540.72	164.97	5.0148e-06	4.8306e-06	217.62	127.24	86.672	42.751	4.997e-06	69.327	0.00053508	0.00052227	0.00014664	454.25	5.0153e-06	5.0184e-06	554.49	170.6	4.4438e-06	4.3569e-06	225.07	131.75	90.412	44.771	4.1128e-06	72.066	-74.313	-0.686	-8.391	-82.970	116.096	51.793	-83.573	-77.433	66.874	13.824	-79.907	-76.060	-73.933	-69.780	91.136	-72.014	-8191	255	
41389.484	1	1	0	0	0.15356	0.020208	0.10763	0.39094	0.21446	0.22804	0.032547	0.25433	0.3017	0.098213	0.35557	0.15472	0.19348	0.088543	0.072152	0.025992	-1.0292	-2.0021	-1.725	-1.7229	-2.2125	-1.6854	-1.9042	-1.7792	-1.4396	-2.0563	-1.7375	-1.4729	-2.075	-1.5292	-1.7417	-2.125	153.154	4.287	-57.220	-70.765	62.413	7.486	195.840	109.316	53.734	229.203	189.434	252.717	241.384	146.871	248.046	125.216	0.00035828	0.00053764	0.00012533	447.64	6.0234e-06	6.4603e-06	544.47	170.57	2.8056e-06	3.5141e-06	224.88	127.72	86.836	43.333	2.1113e-06	70.182	0.00043674	0.00034097	9.6717e-05	457.34	3.5064e-06	3.6603e-06	557	175.45	3.5406e-06	3.5217e-06	229.77	132.2	90.926	45.334	3.8535e-06	72.896	-75.769	-33.273	0.412	-83.637	67.092	49.582	-83.711	-77.800	99.922	54.483	-79.743	-76.264	-73.826	-69.857	67.524	-72.207	-8191	255	
41389.605	1	1	0	0	0.15409	0.20095	0.14558	0.11776	0.16936	0.11318	0.4245	0.20385	0.045996	0.31148	0.15861	0.22646	0.17358	0.16593	0.33274	0.25588	-1.0875	-1.8229	-1.8333	-1.5438	-1.8729	-1.6417	-1.6583	-2.0563	-1.6146	-1.9417	-1.8	-1.7188	-1.9875	-2.0104	-1.6688	-2.0958	183.620	192.751	2.981	-56.733	3.609	40.590	192.272	244.241	-76.411	-18.693	-77.000	228.859	61.818	-60.898	-52.488	184.841	0.00040739	0.00042794	0.00011997	446.54	4.4953e-06	3.5859e-06	546.06	171.86	2.3218e-06	4.0169e-06	221.23	126.56	86.205	42.78	6.7532e-06	69.145	0.00045133	0.00036502	0.00010573	460.22	3.9589e-06	4.2837e-06	557.26	177.47	4.1882e-06	3.9996e-06	228.58	130.48	90.086	44.839	4.4393e-06	71.797	-75.439	-47.959	-19.902	-83.416	65.948	60.423	-83.877	-77.713	78.034	66.113	-79.940	-76.043	-73.817	-69.948	69.489	-72.196	-8191	255	
#DATA ENDS
