BOXY.EXE: ISS Imagent and Oximeter Data Acquisition Program Version 0.80
Ascii Record File

#ACQ INFORMATION
2  Detector Channels 
16  External MUX Channels 
1  Auxiliary Channels 
5000  Waveform (CCF) Frequency (Hz)
1  Waveforms Skipped 
30  Waveforms Averaged 
1  Cycles Averaged 
16  Acquisitions per Waveform 
10.0806  Updata Rate (Hz) 

#FILE INFORMATION
TRUE -- External MUX Channel results are PARSED.
FALSE -- AC DC and Phase are NOT grouped.
TRUE -- Companion Program Settings File CREATED.
FALSE -- AC data not excluded
FALSE -- DC data not excluded
FALSE -- Phase data not excluded
FALSE -- Auxillary Chn. data not excluded
Tab delimiters

#CALIBRATION STATE
TRUE -- Waveform Calibration Values APPLIED.


#AUX CALIBRATION VALUES
Val Type	aux-1	

Term	1.0000e+00	
Factor	0.0000e+00	


#WF CALIBRATION VALUES
A = Detector Channel
Val Type	A-AC1	A-AC2	A-AC3	A-AC4	A-AC5	A-AC6	A-AC7	A-AC8	A-AC9	A-AC10	A-AC11	A-AC12	A-AC13	A-AC14	A-AC15	A-AC16	A-DC1	A-DC2	A-DC3	A-DC4	A-DC5	A-DC6	A-DC7	A-DC8	A-DC9	A-DC10	A-DC11	A-DC12	A-DC13	A-DC14	A-DC15	A-DC16	A-Ph1	A-Ph2	A-Ph3	A-Ph4	A-Ph5	A-Ph6	A-Ph7	A-Ph8	A-Ph9	A-Ph10	A-Ph11	A-Ph12	A-Ph13	A-Ph14	A-Ph15	A-Ph16	

Term	0.00000e+00	0.00000e+00	0.00000e+00	0.00000e+00	0.00000e+00	0.00000e+00	0.00000e+00	0.00000e+00	0.00000e+00	0.00000e+00	0.00000e+00	0.00000e+00	0.00000e+00	0.00000e+00	0.00000e+00	0.00000e+00	0.00000e+00	0.00000e+00	0.00000e+00	0.00000e+00	0.00000e+00	0.00000e+00	0.00000e+00	0.00000e+00	0.00000e+00	0.00000e+00	0.00000e+00	0.00000e+00	0.00000e+00	0.00000e+00	0.00000e+00	0.00000e+00	0.00000e+00	0.00000e+00	0.00000e+00	0.00000e+00	0.00000e+00	0.00000e+00	0.00000e+00	0.00000e+00	0.00000e+00	0.00000e+00	0.00000e+00	0.00000e+00	0.00000e+00	0.00000e+00	0.00000e+00	0.00000e+00	
Factor	1.00000e+00	1.00000e+00	1.00000e+00	1.00000e+00	1.00000e+00	1.00000e+00	1.00000e+00	1.00000e+00	1.00000e+00	1.00000e+00	1.00000e+00	1.00000e+00	1.00000e+00	1.00000e+00	1.00000e+00	1.00000e+00	1.00000e+00	1.00000e+00	1.00000e+00	1.00000e+00	1.00000e+00	1.00000e+00	1.00000e+00	1.00000e+00	1.00000e+00	1.00000e+00	1.00000e+00	1.00000e+00	1.00000e+00	1.00000e+00	1.00000e+00	1.00000e+00	X	X	X	X	X	X	X	X	X	X	X	X	X	X	X	X	

B = Detector Channel
Val Type	B-AC1	B-AC2	B-AC3	B-AC4	B-AC5	B-AC6	B-AC7	B-AC8	B-AC9	B-AC10	B-AC11	B-AC12	B-AC13	B-AC14	B-AC15	B-AC16	B-DC1	B-DC2	B-DC3	B-DC4	B-DC5	B-DC6	B-DC7	B-DC8	B-DC9	B-DC10	B-DC11	B-DC12	B-DC13	B-DC14	B-DC15	B-DC16	B-Ph1	B-Ph2	B-Ph3	B-Ph4	B-Ph5	B-Ph6	B-Ph7	B-Ph8	B-Ph9	B-Ph10	B-Ph11	B-Ph12	B-Ph13	B-Ph14	B-Ph15	B-Ph16	

Term	0.00000e+00	0.00000e+00	0.00000e+00	0.00000e+00	0.00000e+00	0.00000e+00	0.00000e+00	0.00000e+00	0.00000e+00	0.00000e+00	0.00000e+00	0.00000e+00	0.00000e+00	0.00000e+00	0.00000e+00	0.00000e+00	0.00000e+00	0.00000e+00	0.00000e+00	0.00000e+00	0.00000e+00	0.00000e+00	0.00000e+00	0.00000e+00	0.00000e+00	0.00000e+00	0.00000e+00	0.00000e+00	0.00000e+00	0.00000e+00	0.00000e+00	0.00000e+00	-3.28693e+01	-1.32896e+02	-1.28227e+02	-1.84331e+02	-5.50572e+01	-6.76425e+01	-1.55816e+02	-1.62015e+02	-2.49983e+01	-7.00590e+01	-1.85569e+02	-1.70510e+02	-1.86375e+02	-1.76893e+02	-4.33464e+01	-1.49751e+02	
Factor	2.47962e-05	2.18224e-04	5.54421e-05	2.29676e-01	2.20983e-06	2.16624e-06	1.69630e-01	5.37163e-02	1.72526e-06	2.07229e-06	2.26844e-01	3.20966e-02	6.82822e-02	9.64419e-03	2.46265e-06	1.39987e-02	1.08586e-05	1.59674e-05	4.46559e-06	1.17077e-01	1.66956e-07	1.78009e-07	8.13498e-02	2.74856e-02	1.61655e-07	1.76989e-07	1.11723e-01	1.59859e-02	3.49321e-02	4.98455e-03	1.69818e-07	7.00431e-03	X	X	X	X	X	X	X	X	X	X	X	X	X	X	X	X	



#DISTANCE SETTINGS
A = Detector Channel
A-1	A-2	A-3	A-4	A-5	A-6	A-7	A-8	A-9	A-10	A-11	A-12	A-13	A-14	A-15	A-16	

2.5000e+00	3.0000e+00	2.5000e+00	3.0000e+00	2.0000e+00	3.0000e+00	1.5000e+00	3.0000e+00	3.0000e+00	3.0000e+00	3.0000e+00	3.0000e+00	3.0000e+00	3.0000e+00	1.5000e+00	3.0000e+00	

B = Detector Channel
B-1	B-2	B-3	B-4	B-5	B-6	B-7	B-8	B-9	B-10	B-11	B-12	B-13	B-14	B-15	B-16	

1.0000e+01	1.0000e+01	1.0000e+01	1.4400e+00	1.0000e+01	1.0000e+01	1.5100e+00	1.9400e+00	1.0000e+01	1.0000e+01	1.9900e+00	2.4900e+00	2.4100e+00	2.9000e+00	1.0000e+01	2.9800e+00	




#DATA BEGINS
time	group	step	mark	flag	A-AC1	A-AC2	A-AC3	A-AC4	A-AC5	A-AC6	A-AC7	A-AC8	A-AC9	A-AC10	A-AC11	A-AC12	A-AC13	A-AC14	A-AC15	A-AC16	A-DC1	A-DC2	A-DC3	A-DC4	A-DC5	A-DC6	A-DC7	A-DC8	A-DC9	A-DC10	A-DC11	A-DC12	A-DC13	A-DC14	A-DC15	A-DC16	A-Ph1	A-Ph2	A-Ph3	A-Ph4	A-Ph5	A-Ph6	A-Ph7	A-Ph8	A-Ph9	A-Ph10	A-Ph11	A-Ph12	A-Ph13	A-Ph14	A-Ph15	A-Ph16	B-AC1	B-AC2	B-AC3	B-AC4	B-AC5	B-AC6	B-AC7	B-AC8	B-AC9	B-AC10	B-AC11	B-AC12	B-AC13	B-AC14	B-AC15	B-AC16	B-DC1	B-DC2	B-DC3	B-DC4	B-DC5	B-DC6	B-DC7	B-DC8	B-DC9	B-DC10	B-DC11	B-DC12	B-DC13	B-DC14	B-DC15	B-DC16	B-Ph1	B-Ph2	B-Ph3	B-Ph4	B-Ph5	B-Ph6	B-Ph7	B-Ph8	B-Ph9	B-Ph10	B-Ph11	B-Ph12	B-Ph13	B-Ph14	B-Ph15	B-Ph16	aux-1	digaux	

41051.492	1	1	0	768	0.031959	0.049395	0.073144	0.24862	0.21532	0.12902	0.31669	0.2244	0.14865	0.13616	0.12053	0.064075	0.23336	0.52318	0.05202	0.23926	-1.3271	-2.3396	-2.025	-1.7917	-2.2896	-1.8729	-2.4354	-2.2479	-1.7104	-2.1729	-1.9771	-1.9417	-2.4146	-1.9854	-2.0458	-2.4167	-5.531	188.598	23.988	-73.420	85.581	159.138	176.410	254.780	-12.777	24.616	-88.564	143.372	161.023	253.211	84.924	188.138	0.0003299	0.00046844	0.00018853	1304.1	1.4822e-05	1.2696e-05	1507.7	389.42	1.148e-05	1.9796e-05	555.34	228.37	145.22	72.576	7.8935e-06	123.02	0.0060965	0.0084609	0.0024471	1219.3	8.9949e-05	9.544e-05	1383.3	364.76	8.55e-05	9.2542e-05	555.44	214.55	150.15	68.585	8.8976e-05	115.23	-67.112	-18.386	-25.311	-84.187	44.779	-11.727	-83.898	-78.031	201.255	39.244	-78.865	-73.800	-72.096	-67.736	59.537	-70.059	-8191	255	
41051.586	1	1	0	0	0.20281	0.12909	0.11472	0.36252	0.28756	0.07343	0.20036	0.14574	0.20572	0.11356	0.25517	0.19807	0.18776	0.39918	0.17521	0.17713	-1.3125	-2.1729	-2.1667	-1.85	-2.325	-1.6562	-2.2667	-2.2021	-1.8062	-2.3271	-1.9875	-1.9979	-2.2687	-2.0396	-2.0083	-2.4271	34.718	-67.344	-10.698	246.592	-51.068	33.703	-70.788	231.609	145.668	-11.703	156.719	249.945	30.893	234.442	176.056	247.769	0.00054832	0.0018334	0.00017707	1286.5	2.6593e-05	3.0179e-05	1492.9	388.89	9.4225e-06	2.0496e-05	552.11	227.74	146.84	72.925	3.2439e-06	123.23	0.0061785	0.008462	0.0024523	1213.3	8.9925e-05	9.7804e-05	1376.7	363.63	8.7323e-05	9.1769e-05	555.01	214.19	150.57	68.64	8.9167e-05	115.33	-64.248	-21.895	46.449	-83.995	86.891	-7.615	-84.033	-78.011	207.102	90.219	-78.711	-73.650	-72.421	-67.601	196.616	-69.786	-8191	255	
41051.684	1	1	0	0	0.25037	0.073639	0.27132	0.023243	0.18154	0.29384	0.1673	0.15923	0.17827	0.16813	0.25094	0.11603	0.071062	0.16148	0.18255	0.18672	-1.3833	-2.1833	-2.0667	-2.0438	-2.0687	-1.9396	-2.3	-2.4104	-1.7042	-2.05	-2.0396	-2.0333	-2.1854	-2.0417	-2.0167	-2.3729	-0.773	190.233	1.137	15.435	166.048	47.026	211.863	181.181	31.559	177.639	158.896	252.108	-32.852	208.156	135.748	199.329	0.00060811	0.00070792	0.00047433	1289.1	1.0603e-05	2.1949e-05	1501.9	389.32	1.0353e-05	2.6107e-05	554.39	228.12	144.67	72.151	1.6199e-05	123.4	0.0060748	0.0084203	0.0024668	1211	8.8702e-05	9.6882e-05	1379.8	363.73	8.6596e-05	9.127e-05	554.01	213.99	148.94	68.203	8.8618e-05	115.31	-81.471	-1.018	-29.442	-84.214	-1.984	61.131	-83.718	-78.101	157.455	41.116	-78.636	-73.370	-71.862	-68.085	231.539	-69.727	-8191	255	
41051.781	1	1	0	0	0.31507	0.41414	0.2838	0.15962	0.2214	0.06901	0.13718	0.088309	0.35371	0.14986	0.20295	0.34192	0.16987	0.053223	0.38316	0.29304	-1.6021	-1.95	-2.0292	-1.8312	-2.2375	-1.9771	-2.1229	-2.3333	-1.825	-2.1396	-2.2208	-1.8937	-1.9188	-2.2854	-1.7271	-2.4708	-13.391	7.695	95.840	-64.582	141.844	251.669	202.007	234.022	18.331	-70.835	-54.124	241.752	224.458	176.598	144.726	202.365	0.00049029	0.00073015	0.00032906	1295.6	2.1145e-05	6.8293e-06	1503.6	390.13	2.1447e-06	1.9573e-05	560.5	229.17	145.3	72.509	1.8615e-05	124.49	0.0060885	0.0082972	0.0024279	1215.5	8.8121e-05	9.6867e-05	1385.9	364.03	8.8027e-05	9.2557e-05	559.62	215.64	149.49	68.583	9.1412e-05	116.19	-61.076	-14.840	3.350	-83.943	26.226	245.079	-83.726	-77.986	1.489	27.456	-78.852	-73.466	-71.975	-67.883	97.201	-69.718	-8191	255	
41051.875	1	1	0	0	0.19988	0.049087	0.052323	0.20775	0.19779	0.2569	0.42745	0.20554	0.099077	0.17345	0.28949	0.24484	0.09088	0.17691	0.18005	0.37246	-1.4771	-1.8937	-2.1188	-1.8167	-2.1792	-2.0854	-2.1375	-2.2896	-1.975	-1.8771	-2.3229	-1.7604	-2.2354	-2.2083	-1.6938	-2.3583	192.982	52.857	162.645	238.825	-27.725	-12.470	218.277	219.416	96.482	73.020	186.157	204.774	78.890	263.947	99.344	167.303	0.0005818	0.00074594	0.0004315	1302.2	1.1229e-05	3.2733e-06	1510.7	388.99	2.0568e-06	1.7547e-05	553.21	228.32	144.16	72.263	2.5105e-05	123.73	0.0062988	0.0084669	0.0025156	1218.8	8.9952e-05	9.9488e-05	1389.1	363.42	8.8106e-05	9.4304e-05	556.36	214.62	148.46	68.426	9.062e-05	115.59	-77.765	20.492	-16.949	-84.063	131.048	90.018	-83.849	-77.968	254.097	97.379	-78.624	-73.558	-71.745	-67.814	100.481	-69.921	-8191	255	
41051.973	1	1	0	0	0.18576	0.062211	0.051182	0.33237	0.2165	0.07517	0.28645	0.11048	0.16558	0.068943	0.2137	0.40024	0.17804	0.22441	0.11683	0.11964	-1.4208	-1.875	-2.0958	-1.8312	-2.1083	-2.0771	-1.8687	-2.3333	-1.9646	-2.0062	-2.1271	-1.9813	-2.1437	-2.3563	-1.9438	-2.4708	160.658	-1.543	-29.342	138.912	206.577	89.762	235.525	-72.805	188.609	30.799	-79.224	-87.818	30.574	-63.192	127.334	-92.758	0.000714	0.0012429	0.00025588	1289	2.7972e-05	2.7723e-06	1500.6	388.06	1.4394e-05	2.3185e-05	549.68	227.46	145.77	72.798	1.4042e-05	122.66	0.0061176	0.0082913	0.0024042	1214.5	8.682e-05	9.7187e-05	1379.9	362.92	8.8539e-05	9.4139e-05	553.92	214.2	149.15	68.42	9.1092e-05	115.13	-86.712	-8.178	-37.054	-84.199	65.102	250.581	-83.950	-77.705	11.359	16.595	-78.673	-73.454	-72.443	-67.905	138.063	-69.470	-8191	255	
41052.094	1	1	0	0	0.063402	0.1415	0.044048	0.16439	0.14818	0.089257	0.042775	0.33224	0.20627	0.18042	0.13568	0.18205	0.32189	0.34523	0.29866	0.3001	-1.6229	-1.875	-2.2	-2.0604	-2.0875	-2.0896	-1.9646	-2.1937	-2.0375	-1.8354	-2.4521	-1.9896	-2.1458	-2.3875	-1.8188	-2.2333	-7.363	-88.269	98.089	259.585	-75.432	6.154	180.436	219.158	30.273	253.351	-35.376	227.747	-63.245	246.464	203.230	-90.302	0.00064563	0.00024932	0.00047163	1292.8	1.8658e-05	1.3324e-05	1504.4	389.78	1.0313e-05	2.4282e-05	554.03	229.11	145.8	72.753	8.7295e-06	124.13	0.0062715	0.0084122	0.0024135	1214.4	8.6007e-05	9.654e-05	1384.1	363.43	8.6416e-05	9.2103e-05	554.47	215.24	149.62	68.826	8.9783e-05	115.99	-62.405	-69.552	17.433	-83.699	117.672	36.984	-83.722	-78.049	131.041	83.936	-78.969	-73.486	-71.777	-68.107	94.800	-69.809	-8191	255	
41052.188	1	1	0	0	0.11078	0.056425	0.1508	0.12231	0.078926	0.18216	0.038903	0.23982	0.1855	0.059315	0.17229	0.26474	0.043942	0.18217	0.010352	0.19602	-1.6125	-1.6604	-2.2354	-2.0021	-1.9771	-2.2438	-2.0396	-2.3208	-2.1813	-1.8438	-2.3312	-2.0625	-1.9792	-2.3812	-1.6854	-2.35	251.878	-26.032	186.116	25.322	259.036	163.367	112.694	199.756	173.464	250.966	262.016	263.525	-75.736	219.900	220.302	152.739	0.00051227	0.00077223	0.00011023	1301.5	2.3098e-05	1.3451e-05	1501.1	390.63	1.3911e-05	3.5116e-06	563.13	231.34	146.97	73.169	1.4715e-05	126.1	0.0061185	0.0084685	0.0023899	1218.2	8.6766e-05	9.7373e-05	1385.7	364.71	8.8426e-05	9.3384e-05	557.9	217.34	150.17	69.083	9.0971e-05	117.71	-55.104	-75.693	263.063	-84.243	78.066	56.976	-83.775	-78.301	-35.531	130.873	-78.871	-73.381	-71.940	-67.843	165.021	-69.627	-8191	255	
41052.285	1	1	0	0	0.24774	0.064271	0.03033	0.1866	0.048161	0.31375	0.3581	0.17871	0.13857	0.10929	0.10032	0.15393	0.23706	0.06938	0.072267	0.20644	-1.9271	-1.8792	-2.1542	-2.1958	-2.0438	-2.3479	-2.0812	-2.3021	-2.1833	-1.6875	-2.1854	-2.35	-1.8771	-2.4104	-1.7375	-2.1896	3.270	-32.908	144.960	-79.524	15.503	74.539	197.846	124.906	-76.696	199.512	251.494	256.192	-69.864	181.864	-56.393	215.613	0.00054898	0.0011842	0.00021374	1302.4	1.8745e-05	6.2345e-06	1510.3	393.6	3.09e-06	1.4222e-05	566.62	233.91	148.11	74.411	6.3047e-06	126.78	0.006072	0.0083875	0.0023233	1222	8.5092e-05	9.4726e-05	1393.9	366.44	8.4202e-05	8.9547e-05	561.99	219.82	151.13	69.819	8.5448e-05	118.27	-65.728	-63.956	-56.202	-84.193	72.744	74.913	-83.454	-77.752	95.539	33.719	-78.500	-73.742	-72.308	-67.606	-29.048	-69.565	-8191	255	
41052.383	1	1	0	0	0.090011	0.027738	0.348	0.045069	0.11747	0.19919	0.22572	0.21647	0.14006	0.3764	0.27314	0.01798	0.12165	0.12284	0.21276	0.37217	-1.5917	-1.6854	-2.1604	-2.1042	-1.9312	-2.1146	-2.2083	-2.2229	-2.0812	-1.9479	-2.0875	-2.0479	-1.8188	-2.375	-1.8687	-2.2687	-48.486	38.416	242.139	-9.433	-86.298	82.347	181.933	208.210	162.265	150.122	-5.323	-51.935	188.279	187.685	212.605	174.845	0.00040607	0.0012648	0.00068315	1306.4	3.475e-05	1.5115e-05	1519.7	393.52	1.3661e-06	1.2117e-05	563.18	231.87	146.92	73.478	2.9918e-05	124.56	0.0058719	0.0079528	0.0021673	1222.8	8.2539e-05	9.0601e-05	1397.8	366.17	8.4301e-05	8.953e-05	556.15	217.5	150.14	69.133	8.9965e-05	116.66	-55.059	-18.618	16.943	-84.576	51.526	53.925	-83.641	-77.896	68.953	-17.827	-79.298	-73.434	-72.148	-67.889	87.622	-69.483	-8191	255	
41052.477	1	1	0	0	0.17817	0.13768	0.061557	0.34101	0.026698	0.026868	0.072639	0.041111	0.032102	0.12173	0.19256	0.30225	0.22609	0.18834	0.12791	0.15014	-1.7021	-1.8208	-2.3	-2.0917	-1.5729	-2.2687	-2.025	-2.1354	-2.3042	-1.6333	-2.1771	-2.3292	-1.7625	-2.3083	-1.9396	-2.125	-69.028	100.191	37.629	225.651	57.581	-18.932	149.036	255.045	183.077	-75.508	-42.671	245.480	166.126	258.660	-72.152	161.093	0.00061626	0.0011913	0.00010092	1301.1	1.3714e-05	1.1435e-05	1514.5	391.86	2.0002e-05	7.4521e-06	561.05	231.87	148.55	73.014	8.2047e-06	124.82	0.0060453	0.0084233	0.0022679	1219.5	8.646e-05	9.4013e-05	1393.2	365.53	8.6816e-05	9.311e-05	555.58	217.08	151.1	68.987	9.1783e-05	116.34	-77.442	-15.999	102.060	-84.312	53.908	49.720	-83.270	-77.936	114.955	66.672	-78.954	-73.350	-72.219	-67.823	243.824	-69.664	-8191	255	
41052.570	1	1	0	0	0.21503	0.30708	0.12989	0.39818	0.10917	0.1179	0.36504	0.34221	0.22418	0.12688	0.33662	0.1043	0.23969	0.19061	0.097672	0.29343	-1.9125	-1.6708	-1.8875	-2.1688	-1.9292	-2.2917	-2.1458	-2.0229	-2.1396	-1.7938	-2.1479	-2.2896	-1.7583	-2.3312	-2.0812	-2.0104	183.933	109.025	72.582	-75.207	109.302	163.296	229.027	207.330	125.942	200.629	208.171	199.042	-59.729	235.134	-6.251	233.867	0.00052415	0.0010729	0.00041521	1301.8	7.3793e-06	8.035e-06	1508.9	390.02	9.448e-06	1.6095e-05	561.58	231.27	145.95	73.52	2.1859e-05	125.99	0.0060065	0.008473	0.0022756	1223.9	8.5799e-05	9.0834e-05	1390.7	364.61	8.3362e-05	9.2457e-05	554.96	216.96	150.31	69.128	8.9414e-05	117.61	-87.227	34.505	0.559	-84.005	191.330	72.628	-83.723	-77.843	116.742	17.865	-78.468	-73.630	-71.895	-67.746	20.118	-69.611	-8191	255	
41052.668	1	1	0	0	0.11003	0.056469	0.1469	0.22775	0.16433	0.10034	0.41872	0.31408	0.1222	0.31888	0.22136	0.36357	0.18531	0.24372	0.12749	0.33517	-1.8208	-1.8229	-1.8604	-2.1521	-1.6667	-2.2104	-2.2313	-1.8792	-2.2708	-1.8354	-2.1208	-2.2333	-1.8729	-2.1646	-1.975	-1.8208	152.705	-95.130	5.295	216.881	15.283	-89.214	224.482	210.499	27.215	227.057	214.057	253.196	249.271	232.971	-17.343	203.534	0.00076284	0.00097916	0.00034593	1307.2	1.4142e-05	2.6253e-05	1524.8	395.12	7.5279e-06	2.0745e-05	562.17	233.21	148.46	73.939	2.833e-06	127.02	0.0058389	0.0082738	0.0022505	1226	8.5854e-05	8.9281e-05	1397.4	367.37	8.335e-05	9.1453e-05	558.53	218.88	151.5	69.62	9.0586e-05	118.77	-64.851	16.152	-4.677	-83.789	76.290	86.427	-83.844	-78.034	38.188	42.796	-78.838	-73.617	-72.350	-67.710	36.779	-69.501	-8191	255	
41052.789	1	1	0	0	0.035099	0.076886	0.16898	0.19896	0.071399	0.14914	0.07459	0.26162	0.13403	0.22576	0.23196	0.14352	0.15651	0.3221	0.14199	0.19601	-1.6896	-1.8375	-1.7563	-2.1688	-1.6396	-2.0083	-2.3292	-1.7979	-2.0438	-1.9604	-1.9521	-2.2687	-1.8	-2.3479	-2.0208	-2.0229	-67.479	-18.164	70.048	-9.833	-40.729	-30.114	205.545	245.814	84.836	6.914	210.885	176.706	-38.679	231.528	-52.343	168.911	0.00068647	0.00031709	0.00022919	1308.5	2.0011e-05	1.7949e-05	1528	395.63	1.6707e-05	2.5223e-05	567.15	234.58	149.06	74.398	6.3611e-06	127.33	0.0057756	0.0083582	0.0021973	1222.5	8.5224e-05	8.7646e-05	1400.9	367.38	8.0993e-05	9.0613e-05	560.44	220.33	152.04	69.938	8.6895e-05	118.91	-77.878	12.113	-23.808	-84.313	19.799	94.961	-83.631	-78.026	56.665	63.492	-78.350	-73.455	-71.853	-67.643	13.513	-69.688	-8191	255	
41052.887	1	1	0	0	0.1528	0.24282	0.16297	0.11556	0.10455	0.3692	0.26732	0.47808	0.16963	0.24487	0.060486	0.18933	0.26444	0.22196	0.16369	0.36369	-1.7729	-1.7979	-1.7958	-2.3521	-1.8625	-1.9813	-2.5125	-2.0167	-2.0271	-2.3187	-2.0479	-2.5438	-1.8979	-2.0979	-2.3187	-2.0438	260.513	44.330	100.906	226.421	76.683	124.607	166.087	229.409	211.903	-20.120	20.134	-81.383	253.116	224.606	199.571	225.900	0.00064205	0.00031475	0.00017696	1301.9	4.6169e-06	1.5658e-05	1522.8	395.07	1.1611e-05	2.1044e-05	569.8	232.99	149.34	74.558	1.6895e-05	126.87	0.0055667	0.0080625	0.0021903	1216.4	8.3634e-05	8.449e-05	1394.9	367.07	7.6485e-05	8.7867e-05	558.28	219.42	151.14	70.089	8.5377e-05	118.87	-77.731	-27.165	-38.934	-84.311	233.757	51.097	-83.872	-78.096	167.498	65.611	-78.651	-73.492	-72.109	-67.924	68.247	-69.584	-8191	255	
41052.980	1	1	0	0	0.233	0.14188	0.034938	0.17202	0.1875	0.17329	0.20973	0.43798	0.096358	0.14756	0.24596	0.2269	0.16845	0.4535	0.22899	0.30826	-1.7	-2.1354	-1.6292	-2.3979	-2.0125	-1.9188	-2.3229	-1.9417	-2.1208	-2.1354	-1.775	-2.3125	-1.9708	-1.9521	-2.2417	-2.0646	-28.313	251.989	136.363	130.218	119.220	141.824	220.408	226.224	-31.419	134.812	46.457	166.775	-23.582	253.657	-93.669	232.986	0.00057071	0.0012862	0.00015283	1294.1	7.6212e-06	1.482e-05	1527.8	394.36	2.4448e-06	1.6994e-05	570.32	237.93	151.26	75.746	4.4951e-06	130.38	0.0054402	0.0079671	0.0021885	1213.3	8.2815e-05	8.6338e-05	1399.3	367.91	7.8016e-05	8.9628e-05	561.79	222.95	153.59	71.23	8.5957e-05	121.58	-63.376	-35.085	22.565	-84.196	-34.921	42.406	-83.567	-78.015	117.652	-53.223	-78.435	-73.565	-72.538	-67.662	37.826	-69.786	-8191	255	
41053.051	1	1	0	0	0.052825	0.36828	0.19428	0.12308	0.28356	0.2402	0.29381	0.18658	0.11372	0.12731	0.15007	0.13078	0.20135	0.14983	0.099272	0.46734	-1.7437	-2.2875	-1.6812	-2.4792	-2.0687	-1.9729	-2.4188	-1.9729	-2.0104	-2.1854	-1.8438	-2.2771	-1.9042	-1.9375	-2.15	-2.075	261.502	232.918	-73.821	118.431	57.007	22.095	124.114	114.781	190.617	67.323	148.213	257.165	227.191	201.869	-19.414	224.905	0.00047901	0.0023388	0.00038804	1304.7	6.5733e-07	5.119e-06	1526.9	401.77	1.3434e-05	1.9996e-05	578.96	244.93	155.11	77.987	1.2522e-05	133.06	0.0054236	0.0079316	0.0021543	1219.8	8.2311e-05	8.4274e-05	1405.3	372.61	7.4727e-05	8.6584e-05	568.3	228.04	156	73.082	8.0118e-05	124.07	-69.474	-5.261	-48.414	-84.215	141.751	134.844	-83.475	-78.047	122.547	36.477	-78.500	-73.781	-72.400	-67.699	80.354	-69.685	-8191	255	
41053.172	1	1	0	0	0.31179	0.15814	0.18025	0.17631	0.14372	0.10469	0.1821	0.2317	0.14691	0.047968	0.11787	0.10731	0.2096	0.18717	0.22804	0.48406	-1.4417	-2.025	-1.5833	-2.2062	-1.9125	-1.725	-2.5312	-2.0687	-2.1792	-1.9646	-1.8292	-2.0771	-2.0687	-1.8833	-2.0667	-1.9625	254.530	12.503	-8.104	262.438	28.622	166.945	224.111	-87.441	158.497	168.164	231.578	62.092	19.860	253.251	55.074	207.309	0.0006929	0.0019806	0.00031469	1323.4	6.7779e-06	9.814e-07	1539.5	404.25	8.4337e-06	1.8695e-05	581.32	246.43	154.73	79.045	1.8099e-05	136.22	0.005216	0.007713	0.0021124	1228.4	8.129e-05	8.2794e-05	1414.4	376.16	7.6966e-05	8.7573e-05	574.79	230.43	157.1	73.982	8.1644e-05	126.49	-86.406	-10.252	39.104	-84.033	-15.360	25.613	-83.491	-77.928	86.911	8.159	-78.479	-73.355	-71.844	-67.793	50.593	-69.640	-8191	255	
41053.270	1	1	0	0	0.23078	0.17737	0.19633	0.25078	0.095454	0.24689	0.18436	0.38045	0.19829	0.26094	0.2159	0.28877	0.32269	0.13749	0.13566	0.42638	-1.3854	-2.2729	-1.7938	-2.3208	-2.1167	-1.8104	-2.5458	-1.9562	-1.7687	-2.3396	-1.6958	-2.1792	-2.3896	-1.8771	-2.3021	-2.2313	64.247	49.205	-30.594	-85.394	176.240	112.039	174.409	250.119	179.407	16.443	-79.741	227.343	-55.636	255.068	89.492	211.768	0.00059591	0.00059042	0.00017583	1316	8.8177e-06	5.394e-06	1546.3	401.26	8.4736e-06	6.4659e-06	579.98	245.15	153.3	80.791	4.3878e-06	138.65	0.005373	0.0078868	0.0021406	1229.5	8.1537e-05	8.4222e-05	1420.3	374.51	7.3013e-05	8.4206e-05	568.95	229.22	155.24	75.248	7.258e-05	128.89	-89.374	-20.614	-49.477	-84.346	70.458	105.670	-83.667	-78.241	204.138	115.277	-78.812	-73.402	-71.740	-67.892	127.605	-69.433	-8191	255	
41053.363	1	1	0	0	0.13291	0.098737	0.29864	0.17433	0.3828	0.08887	0.32825	0.19074	0.049823	0.1896	0.32588	0.21558	0.12998	0.13761	0.1609	0.35114	-1.35	-2.1583	-1.6979	-2.1063	-2.0438	-1.65	-2.2979	-2.0938	-1.7958	-2.1604	-1.7354	-2.0563	-2.2854	-1.7542	-2.1937	-2.3208	-14.583	51.370	-51.493	244.956	154.270	197.768	225.891	244.455	72.283	141.934	-62.503	102.607	109.718	-9.459	-34.184	234.543	0.00053961	0.0027524	5.4669e-05	1402	2.2585e-05	1.7475e-05	1660.7	422.35	5.2638e-06	6.7684e-06	583.83	247.55	152.85	86.195	1.8823e-05	147.33	0.0047851	0.0064563	0.0017018	1292.5	6.0079e-05	5.7729e-05	1504.4	386.6	4.6385e-05	5.1334e-05	557.1	227.75	147.08	79.583	4.8246e-05	135.21	-64.768	-8.123	-76.860	-83.950	87.121	75.212	-83.890	-78.170	60.233	73.011	-78.993	-73.378	-72.173	-67.854	33.660	-69.743	-8191	255	
41053.461	1	1	0	0	0.16966	0.057529	0.12152	0.21344	0.17567	0.15188	0.11854	0.14677	0.22491	0.058505	0.19183	0.33009	0.24175	0.43948	0.12735	0.34291	-1.4375	-2.1375	-1.7521	-2.15	-2.2979	-1.825	-2.4333	-2.1125	-1.5667	-2.2625	-1.8083	-1.9667	-2.0333	-1.9583	-2.1229	-2.3375	-77.791	-53.244	-86.565	249.262	112.175	28.721	232.428	164.752	242.048	243.255	-94.242	184.139	-33.754	228.550	246.545	249.974	0.00059544	0.0010686	0.00032592	1462.3	1.4059e-05	1.5202e-05	1736.2	427.38	1.1056e-05	9.248e-06	592.16	236.35	148.66	80.539	3.9098e-06	142.3	0.0032712	0.0040818	0.0010996	1322.3	3.771e-05	3.6715e-05	1559.7	387.06	3.0234e-05	3.0903e-05	547.83	215.89	139.71	73.919	2.583e-05	129.76	-59.953	-36.409	6.026	-83.724	52.495	11.792	-83.644	-78.617	81.847	89.174	-79.236	-73.842	-72.792	-67.987	4.220	-69.755	-8191	255	
41053.578	1	1	0	0	0.18599	0.19391	0.19941	0.027346	0.21789	0.071764	0.19778	0.15365	0.10914	0.18513	0.15045	0.24132	0.14632	0.1125	0.16309	0.31134	-1.3708	-2.3583	-1.9646	-1.9688	-2.0729	-1.7292	-2.3583	-2.2562	-1.7333	-2.2021	-2.0042	-1.9792	-2.3229	-2.0208	-2.2104	-2.3875	15.931	24.316	129.894	104.990	116.893	247.812	181.785	142.336	60.181	100.504	100.857	228.374	-29.343	249.829	3.355	-82.956	0.00066258	0.00093506	0.00023736	1475.3	8.7815e-06	1.0726e-05	1759.8	450.76	4.4051e-06	6.2416e-06	600.69	228.68	146.51	71.414	1.2624e-05	124.6	0.0019134	0.0022759	0.00064333	1327.4	2.3203e-05	2.3911e-05	1580.4	406.14	2.2355e-05	2.3485e-05	548.04	208.49	135.72	65.377	2.1445e-05	113.77	-75.023	-15.736	-3.137	-83.649	109.830	53.771	-83.810	-79.066	88.524	37.508	-79.654	-74.288	-73.753	-68.049	43.392	-69.938	-8191	255	
41053.652	1	1	0	131072	0.23195	0.12328	0.095305	0.27655	0.20958	0.33787	0.26396	0.14979	0.23946	0.11132	0.254	0.25755	0.18977	0.17834	0.022578	0.21645	-1.3	-2.1021	-1.9792	-1.8792	-2.3083	-2.0521	-2.2354	-2.3333	-1.6292	-2.2167	-1.7854	-1.9062	-2.3021	-1.9854	-2.0917	-2.3208	53.196	171.973	209.097	260.406	201.866	177.746	215.741	185.023	204.208	-26.905	-80.621	246.801	-30.944	223.093	28.425	219.305	0.00054814	0.00077853	0.00023016	1601	3.9391e-06	6.6722e-06	1908.8	502.66	1.8642e-06	1.0943e-05	724.75	274.8	213.49	78.062	1.2241e-05	142.1	0.0016212	0.0019903	0.00059075	1434.9	2.207e-05	2.3689e-05	1728.4	452.66	2.3542e-05	2.5716e-05	662.27	249.3	197.89	71.851	3.4577e-05	130.1	-81.191	55.828	-8.456	-84.462	77.835	91.059	-84.415	-80.270	-25.530	73.070	-81.000	-77.595	-78.060	-73.381	0.023	-75.402	-8191	255	
41053.773	1	1	0	131072	0.1394	0.21366	0.16522	0.17067	0.19179	0.11255	0.4359	0.26866	0.038417	0.13654	0.08348	0.096599	0.21255	0.21754	0.27167	0.26724	-1.325	-2.0771	-1.9021	-1.8771	-2.4229	-1.8458	-2.0771	-2.1958	-1.7875	-2.0917	-2.0583	-1.9438	-2.1312	-2.1354	-1.7583	-2.5563	123.257	-26.981	47.409	-90.010	253.845	-6.624	192.155	222.937	169.716	-28.134	221.342	175.805	140.751	207.368	31.401	188.305	0.00057107	0.0015805	0.00057676	2030.8	1.388e-05	1.1021e-05	1766.4	610.34	3.1434e-06	2.1344e-05	1023.8	305.48	416.34	46.708	3.5503e-05	84.408	0.0029794	0.004232	0.0013305	1845.3	5.6867e-05	6.5878e-05	2012.9	641.2	6.932e-05	7.8793e-05	968.18	415.39	395.34	149.23	0.0001123	203.76	-65.223	-10.742	-19.112	-84.910	25.342	11.673	-84.245	-82.024	61.614	99.631	-82.708	-80.035	-81.242	-78.104	73.486	-78.644	-8191	255	
41053.867	1	1	0	131072	0.34023	0.20821	0.10109	0.18969	0.13532	0.072065	0.35968	0.22551	0.16765	0.13564	0.29651	0.39055	0.087241	0.27628	0.14706	0.5148	-1.4479	-2.0458	-1.9708	-1.6875	-2.1063	-1.7833	-2.0771	-2.2667	-1.8396	-1.8958	-2.0792	-1.7229	-2.0979	-2.2417	-1.7229	-2.3688	56.524	205.220	55.803	-98.452	249.278	246.006	227.914	175.856	68.389	248.032	-57.033	244.794	138.842	215.721	132.948	227.937	0.001433	0.0035504	0.00075357	2101.2	1.4064e-05	1.1192e-05	1817.4	620.27	1.1655e-05	1.3788e-05	792.23	356.29	239.42	108.44	5.2567e-06	134.81	0.0080712	0.01111	0.0031318	1948	0.00010617	0.0001101	1952.5	611.21	8.0057e-05	7.9294e-05	756.27	329.37	229.21	116.97	6.1496e-05	125.74	-77.068	-10.883	-22.138	-84.852	35.663	59.353	-84.770	-82.753	116.617	-10.592	-83.321	-81.204	-81.501	-82.518	-7.454	-78.658	-8191	255	
41053.965	1	1	0	0	0.31681	0.1901	0.25894	0.23522	0.14785	0.40838	0.3387	0.19583	0.18254	0.11928	0.25583	0.52402	0.092753	0.22548	0.07727	0.4448	-1.275	-1.8229	-1.9854	-1.6958	-2.0833	-1.9688	-1.8917	-2.3229	-1.7	-1.7771	-2.2438	-1.8687	-2.0708	-2.2917	-1.6583	-2.3479	188.429	2.851	227.889	240.760	145.065	56.527	219.981	125.049	-84.484	232.928	165.292	175.542	85.502	-78.554	42.357	193.069	0.00066968	0.00075544	0.00016515	1425	9.4929e-06	1.3839e-05	1642.6	449.39	1.1597e-05	1.5985e-05	627.97	268.17	190.51	73.215	1.9445e-05	106.81	0.0043617	0.0061493	0.0018581	1318.8	7.3454e-05	8.316e-05	1502.2	417.78	8.3675e-05	9.3247e-05	622.31	252.14	193.68	69.941	0.00010065	101.83	-72.678	7.948	23.418	-84.574	110.071	88.318	-84.697	-81.205	112.627	-72.186	-82.496	-80.289	-80.233	-76.707	34.793	-74.932	-8191	255	
41054.062	1	1	0	0	0.33853	0.067027	0.40917	0.2591	0.26739	0.15368	0.31131	0.38856	0.082931	0.13657	0.19052	0.28643	0.032304	0.29554	0.25187	0.3259	-1.4208	-1.9583	-2.0062	-1.7083	-1.9958	-2.0708	-1.9792	-2.1667	-1.9167	-1.7687	-2.2979	-2.0292	-2.0333	-2.0979	-1.6	-2.3208	197.781	-17.804	-17.075	177.141	94.926	-96.683	197.142	233.857	173.747	-4.464	214.531	171.840	61.267	196.953	99.518	183.138	0.00040382	0.0018425	0.00025476	1413	9.217e-06	1.9781e-06	1642.2	450.57	1.0384e-05	2.7274e-05	627.1	260.97	190.82	67.575	3.2758e-05	104.84	0.0069234	0.0097833	0.002836	1334	0.00010647	0.00011866	1518.9	422.27	0.00011067	0.00011927	634.85	247.06	196.04	65.587	0.00012535	100.75	-64.498	-23.867	-84.200	-84.449	-68.392	13.542	-84.547	-80.929	103.617	104.107	-81.606	-79.806	-80.249	-74.986	152.993	-73.589	-8191	255	
41054.184	1	1	0	0	0.39901	0.064652	0.15757	0.25269	0.397	0.17567	0.22619	0.096136	0.16205	0.14779	0.07852	0.35559	0.059447	0.31222	0.05115	0.10091	-1.3875	-1.775	-2.1479	-1.8042	-2.1729	-1.8833	-1.9646	-2.3229	-1.9729	-1.9708	-2.1312	-1.7333	-1.8479	-2.3021	-1.5063	-2.2458	10.582	-83.976	119.979	214.981	88.670	249.374	153.125	-61.168	132.706	-41.448	28.514	162.911	-92.670	177.846	217.231	-76.415	0.00046068	0.0022319	0.00055378	1402.2	9.7692e-06	2.3974e-05	1641.2	427.46	1.2037e-05	3.2958e-05	572.19	209.74	140.17	64.568	2.1645e-05	115.98	0.0085875	0.012286	0.0034696	1342.6	0.00012708	0.00013817	1529.7	405.4	0.00012773	0.00013901	601.78	203.44	155.73	62.81	0.00014399	111.45	-67.158	22.903	-41.500	-84.183	64.908	31.345	-84.278	-79.944	157.740	33.804	-80.257	-75.503	-74.202	-68.662	139.623	-69.553	-8191	255	
41054.277	1	1	0	131072	0.27561	0.12847	0.13917	0.36964	0.31043	0.28828	0.32746	0.2088	0.064002	0.1294	0.13983	0.23704	0.056839	0.14814	0.098416	0.35031	-1.5417	-1.5333	-1.9979	-1.8438	-1.8438	-2.1813	-1.8563	-2.1771	-1.9292	-1.7146	-2.1937	-1.9562	-1.925	-2.4646	-1.7083	-2.3542	-74.196	112.067	-80.989	229.447	117.454	93.615	221.495	175.954	227.743	-10.465	-88.194	183.276	176.262	237.892	139.539	192.331	0.00053503	0.00083555	0.00045581	1284.7	2.3276e-05	1.5835e-05	1618.6	425.38	6.9176e-06	1.0173e-05	600.29	246.97	162.18	94.421	4.6279e-06	155.07	0.0099215	0.014328	0.0041267	1252.5	0.00015787	0.00017285	1524.1	408.45	0.0001682	0.00018737	656.1	241.03	185.77	91.751	0.00020997	156.18	-54.661	-21.402	-28.576	-82.957	44.167	83.522	-83.305	-78.027	24.352	-32.110	-79.198	-73.513	-72.286	-67.889	-32.289	-69.780	-8191	255	
41054.352	1	1	0	131072	0.13771	0.12431	0.19551	0.090863	0.28263	0.33081	0.45345	0.45771	0.13294	0.30773	0.21091	0.24933	0.27879	0.59723	0.20754	0.27437	-1.7188	-1.6208	-1.9458	-2.0167	-1.8521	-2.1396	-1.85	-2.2292	-2.1479	-1.6	-2.0667	-2.2208	-2.075	-2.0625	-1.8125	-2.2021	199.494	-20.109	-13.831	82.899	-48.130	9.567	227.399	214.043	236.369	63.074	198.966	180.589	76.370	253.747	141.392	220.731	0.00076641	0.0030125	0.0006316	1320.7	9.0127e-06	1.8204e-05	1583.1	442.61	1.0155e-05	1.3023e-05	629.99	271.54	173.13	101.18	2.9296e-05	148.45	0.015827	0.023553	0.0067314	1363.4	0.00026423	0.00029159	1549.5	445.4	0.00027931	0.00030966	760.47	276.94	224.63	102.43	0.00035894	164.54	-84.750	0.248	91.059	-82.977	-53.256	-32.264	-83.221	-77.190	52.929	-68.212	-78.357	-73.314	-71.393	-67.635	212.140	-69.451	-8191	255	
41054.469	1	1	0	131072	0.11017	0.077426	0.13978	0.31726	0.17899	0.07807	0.28262	0.20895	0.044302	0.085198	0.35848	0.24711	0.17114	0.31873	0.1174	0.40009	-1.4937	-1.8083	-2.1937	-1.8458	-1.8354	-2.2708	-2.1	-2.2542	-2.1042	-1.6187	-2.1646	-2.0229	-1.6313	-2.4083	-1.8667	-2.0271	74.360	96.298	253.923	213.192	191.002	27.639	193.957	220.267	60.186	19.407	238.403	210.897	-47.139	230.105	95.783	244.730	0.00073953	0.00096216	0.00042652	1266.1	1.8667e-05	4.5401e-05	1549.8	438.56	2.0451e-05	2.9819e-05	622.46	267.37	169.42	98.989	2.8004e-05	145.39	0.024857	0.036479	0.010211	1406.3	0.00039124	0.00042376	1579.8	459.77	0.00039663	0.00043928	836.51	284.63	244.32	103.58	0.00044939	166.46	-85.841	-36.716	-91.258	-82.823	42.528	114.168	-82.860	-76.893	-38.903	35.005	-77.980	-72.838	-71.753	-67.358	-3.632	-69.043	-8191	255	
41054.566	1	1	0	131072	0.23462	0.15524	0.11831	0.12984	0.11074	0.1256	0.22074	0.40275	0.15469	0.32439	0.054795	0.26959	0.055191	0.43317	0.14591	0.25234	-1.7167	-1.3458	-2.0125	-2.1208	-1.7292	-2.1979	-1.9771	-1.9167	-2.1854	-1.7625	-2.2062	-2.1583	-1.9333	-2.4229	-1.7896	-1.9479	-56.722	231.385	17.203	145.139	-52.088	165.313	208.704	250.781	-89.013	37.510	129.536	223.026	120.790	264.727	257.881	190.665	0.00072886	0.0012399	0.0002357	1239	3.55e-05	4.6777e-05	1527.8	427.88	1.279e-05	2.1387e-05	615.06	264.48	166.47	97.543	3.758e-05	147.28	0.029864	0.043421	0.012057	1427.3	0.00044812	0.00047804	1593.6	459.42	0.00042704	0.00046047	839.49	282.09	239.05	101.42	0.00042354	164.07	-60.799	11.943	263.782	-82.865	83.771	48.085	-82.565	-76.665	-39.173	27.237	-78.510	-72.903	-71.321	-67.120	127.973	-68.859	-8191	255	
41054.660	1	1	0	131072	0.34647	0.091788	0.1672	0.042987	0.35383	0.11754	0.11414	0.49516	0.15146	0.048539	0.33446	0.27762	0.23733	0.32485	0.17923	0.50166	-1.8563	-1.4604	-1.9646	-2.1688	-1.6396	-2.1562	-2.2125	-2.0104	-2.0125	-1.7687	-1.8604	-2.3563	-1.7354	-2.2396	-1.9208	-2.0958	170.019	61.922	75.025	154.357	-9.367	8.794	-11.562	157.445	-45.890	-49.659	186.823	199.146	72.491	207.484	256.324	207.880	0.00021845	0.0022605	0.00079358	1240.4	3.4783e-05	3.6057e-05	1540.2	428.74	8.6751e-06	1.1674e-05	604.64	259.29	163.24	95.707	1.6599e-05	150.87	0.026955	0.038596	0.010604	1386.6	0.00039184	0.00040828	1570.3	447.7	0.00036337	0.00039542	792.24	271.15	222.73	97.871	0.00036335	160.51	-57.457	-27.810	76.184	-82.408	-56.892	46.363	-82.697	-76.683	101.365	125.946	-77.761	-72.709	-71.208	-66.881	242.935	-68.559	-8191	255	
41054.758	1	1	0	131072	0.29067	0.077634	0.17213	0.26746	0.072872	0.141	0.23734	0.15667	0.2261	0.06025	0.15065	0.21858	0.14058	0.13479	0.25047	0.23251	-1.7375	-1.7854	-2.1375	-2.2562	-1.7375	-2.2104	-2.2229	-1.9312	-2.2271	-1.7938	-2.1271	-2.3812	-1.6812	-2.2146	-1.9813	-1.9875	-66.692	86.509	73.261	251.773	21.231	225.169	225.447	242.890	11.635	-45.631	197.049	178.747	114.924	263.125	155.609	247.675	0.00055662	0.0033374	0.00093411	1228.5	8.0839e-06	3.2457e-05	1558.6	429.66	3.3091e-05	7.7847e-06	608.71	257.37	161.51	94.036	2.0433e-05	152.8	0.022913	0.033142	0.0090223	1347.5	0.00033208	0.00034298	1558.5	438.2	0.0003022	0.00033025	748.65	263.19	208.57	94.485	0.00030066	157.16	-63.295	93.767	-89.994	-82.298	-35.366	-2.312	-82.535	-76.410	107.425	-75.424	-78.012	-72.647	-70.756	-66.954	56.124	-68.826	-8191	255	
41054.879	1	1	0	131072	0.23526	0.059375	0.22342	0.32277	0.24863	0.17879	0.46483	0.42469	0.25892	0.32751	0.19378	0.13371	0.23432	0.45574	0.23719	0.34458	-1.7833	-1.8854	-1.8625	-2.1813	-1.6167	-2.0312	-2.2542	-1.8125	-2.1896	-1.8917	-1.9625	-2.3583	-1.8125	-2.1667	-2.0812	-1.8167	112.122	184.998	111.018	172.742	-31.663	233.523	153.181	207.409	233.875	162.619	160.978	189.938	225.918	242.176	235.823	191.224	0.00068901	0.0010963	0.00035872	1232.5	3.7655e-05	1.7867e-05	1582.7	432.17	1.4506e-05	8.3436e-06	619.1	257.41	160.85	93.273	1.7452e-05	153.54	0.018466	0.026858	0.0072548	1300.2	0.00026655	0.00027761	1546.4	430.15	0.00024433	0.0002718	717.76	258.09	199.13	92.358	0.00026275	156.02	-86.411	1.379	11.134	-81.933	-6.700	248.628	-82.220	-76.619	130.362	-20.084	-77.901	-72.469	-71.159	-66.644	52.357	-68.574	-8191	255	
41054.949	1	1	0	131072	0.04665	0.2115	0.18641	0.12746	0.048061	0.13113	0.36497	0.13296	0.13422	0.20097	0.24139	0.3573	0.24452	0.37428	0.40288	0.38	-1.8646	-2.0021	-1.8312	-2.2854	-1.7396	-1.9917	-2.3104	-1.7583	-2.0167	-1.9208	-1.7812	-2.3292	-1.6854	-2.0625	-2.0417	-1.7958	11.933	-80.105	-2.821	216.592	265.469	-93.827	214.952	198.829	-80.951	135.932	242.427	-81.973	263.828	238.255	144.055	192.663	0.00088486	0.0018443	7.7794e-05	1249.5	2.294e-05	1.4052e-05	1583.5	433.2	1.4669e-05	2.5885e-05	609.99	262.81	164.32	95.18	7.3247e-06	153.58	0.016744	0.024728	0.0067783	1292.1	0.00025438	0.00026675	1546.2	431.3	0.00024118	0.00026865	717.34	262.19	201.05	94.347	0.00025818	158.16	-74.771	-14.208	206.452	-81.735	97.391	58.183	-82.397	-76.539	-75.090	98.494	-77.813	-72.405	-70.934	-66.629	10.181	-68.749	-8191	255	
41055.047	1	1	0	131072	0.35107	0.23875	0.26736	0.371	0.31299	0.30628	0.17383	0.048896	0.39419	0.15	0.10506	0.22134	0.17518	0.42805	0.073102	0.37269	-1.6958	-2.0083	-1.7917	-2.3125	-1.9312	-1.8687	-2.1875	-1.7521	-1.9979	-1.8333	-1.875	-2.4521	-1.7812	-2.1292	-2.2188	-1.8521	124.711	-76.729	116.829	178.476	35.022	116.738	186.486	-32.259	-80.532	40.548	130.323	204.695	227.654	224.859	236.629	161.861	0.00088738	0.0030853	0.0010481	1219.2	1.7066e-05	5.2833e-05	1552.3	429.07	2.8245e-05	2.5441e-05	611	263.83	163.07	96.787	3.894e-05	153.06	0.016496	0.024549	0.0067319	1266.2	0.00025352	0.00026698	1510.3	426.01	0.00024111	0.00027166	716.64	263.85	201.26	95.776	0.00025931	159.35	-83.655	166.564	-10.562	-82.164	106.837	65.540	-82.514	-76.385	154.293	-58.142	-77.875	-72.585	-71.233	-66.839	119.080	-68.581	-8191	255	
41055.141	1	1	0	131072	0.18839	0.21247	0.2033	0.10457	0.21111	0.34981	0.22355	0.1071	0.15086	0.33963	0.24913	0.097663	0.31678	0.44385	0.11812	0.27545	-1.6104	-2.0458	-1.7104	-2.1458	-1.8937	-1.6812	-2.3917	-1.7667	-1.9021	-2	-1.6771	-2.2479	-1.775	-1.9875	-2.4125	-2.0042	3.262	-42.439	124.739	148.544	-68.218	252.339	179.548	-81.584	12.000	261.837	176.147	-75.873	143.963	227.922	190.365	184.025	0.0006333	0.00095883	0.00031372	1208.9	2.3767e-05	4.0596e-05	1514	425.72	6.6412e-06	5.2513e-06	616.46	267.02	164.33	97.721	2.3378e-05	152.62	0.016753	0.025028	0.0068781	1255.8	0.00026128	0.00027779	1489.6	425.52	0.00025091	0.00028167	726.51	266.96	204.6	97.419	0.00027047	160.73	-80.532	42.063	146.309	-81.921	109.286	8.313	-82.255	-76.126	-10.617	174.085	-77.674	-72.116	-70.349	-66.888	-27.597	-68.915	-8191	255	
41055.262	1	1	0	131072	0.035333	0.303	0.22705	0.12031	0.17954	0.10924	0.37072	0.07248	0.019247	0.16655	0.15646	0.50557	0.13279	0.35603	0.3941	0.12719	-1.4729	-1.9167	-1.5792	-1.9771	-1.9562	-1.6646	-2.35	-2.0104	-1.8292	-2.0271	-1.4771	-2.0687	-1.8521	-1.8813	-1.9375	-2.025	-18.005	-15.552	194.431	144.936	-81.474	-77.976	200.102	237.399	185.778	214.400	238.370	216.067	-56.915	-78.538	172.994	102.725	0.00070134	0.0023523	0.00038959	1196.9	1.3598e-05	8.1442e-06	1524.1	426.36	2.2408e-05	2.2614e-05	625.28	268.49	168.75	91.931	5.7976e-06	150.29	0.017296	0.025756	0.0071032	1253	0.00026793	0.00028494	1493.4	428.17	0.00025546	0.00028591	734.16	269.89	211.75	92.863	0.00024994	150.26	-79.526	212.696	176.187	-82.251	120.192	225.775	-82.432	-76.148	74.361	75.329	-78.184	-72.451	-58.292	-59.600	230.511	-67.219	-8191	255	
41055.359	1	1	0	131072	0.073253	0.17781	0.11065	0.29021	0.29166	0.038505	0.24608	0.056201	0.15278	0.13349	0.028464	0.21546	0.090366	0.42486	0.21035	0.31339	-1.3937	-2.0625	-1.7354	-2.0354	-1.9167	-1.4813	-2.3146	-1.9562	-1.7021	-2.0396	-1.4917	-2.0375	-1.8604	-1.825	-2.15	-2.0792	194.851	26.441	59.309	191.689	104.715	175.570	237.765	254.642	219.343	228.073	97.858	239.899	95.222	243.005	-51.064	265.593	0.00069505	0.0012557	0.00044761	1066.8	1.639e-05	2.9603e-05	1356.9	381.67	1.6303e-05	3.4464e-05	549.71	241.76	149.43	88.86	1.5135e-05	150.52	0.016005	0.023628	0.0065611	1136.6	0.00024859	0.00026178	1353.2	389.94	0.00023698	0.00026627	670.55	247.46	189.6	89.76	0.00025361	151.53	-83.246	-34.426	14.462	-80.301	37.649	85.034	-80.942	-74.709	191.562	67.708	-75.706	-71.036	-68.941	-65.536	46.038	-67.505	-8191	255	
41055.453	1	1	0	131072	0.29282	0.17603	0.035444	0.13042	0.20888	0.243	0.16628	0.36956	0.1523	0.20392	0.22014	0.18614	0.12825	0.59253	0.13497	0.28568	-1.425	-2.1208	-1.725	-1.9417	-1.925	-1.5792	-2.2417	-1.9833	-1.6396	-2.0938	-1.6812	-2.0667	-2.0687	-1.6521	-1.9083	-1.8979	213.132	-45.013	-8.344	265.846	49.128	66.350	201.286	-70.294	-15.761	98.898	82.461	254.163	108.448	233.197	238.372	136.959	0.00097661	0.0011831	0.0003654	1071.3	1.5657e-05	2.4144e-05	1362.6	383.06	3.2041e-06	1.7071e-05	554.94	244.62	149.89	89.495	1.4214e-05	150.72	0.01655	0.024132	0.006796	1149.3	0.00025845	0.00026897	1364.4	392.39	0.0002448	0.00027224	679.98	250.22	192.65	90.473	0.00025953	152.43	-79.356	120.966	-12.129	-80.569	89.507	34.754	-80.560	-74.823	7.288	6.231	-75.348	-71.027	-69.354	-65.549	-34.047	-67.295	-8191	255	
41055.551	1	1	0	131072	0.10785	0.32622	0.24765	0.16697	0.1089	0.20312	0.083902	0.16694	0.12525	0.14104	0.13072	0.26014	0.08759	0.1865	0.17716	0.44612	-1.2417	-2.0229	-1.6479	-1.8312	-2.0458	-1.7083	-2.2562	-1.8917	-1.7333	-2.2438	-1.7875	-2.0396	-2.1542	-1.7563	-1.7958	-2.1292	139.543	34.691	-81.429	-23.481	250.422	151.399	-59.862	253.145	106.318	14.694	221.699	265.739	163.563	161.474	78.798	200.879	0.00089038	0.0013388	0.00067542	1071	1.6227e-05	2.8057e-05	1369.4	384.27	2.7796e-05	1.12e-05	553.7	244.76	149.62	88.771	3.5994e-06	150.35	0.016956	0.024529	0.0068986	1152.3	0.00025943	0.00027456	1370.2	394	0.00024903	0.00027331	682.2	249.98	192.66	90.247	0.0002619	151.6	-90.488	-20.414	159.470	-80.430	249.829	16.732	-81.035	-74.795	162.843	1.213	-76.724	-70.974	-69.248	-65.179	53.463	-67.492	-8191	255	
41055.645	1	1	0	131072	0.22718	0.051888	0.14648	0.097094	0.039552	0.12088	0.24999	0.15801	0.23402	0.16646	0.43928	0.36187	0.40467	0.076752	0.050611	0.10841	-1.3312	-1.9146	-1.6313	-1.9979	-2.1646	-1.8542	-2.1604	-2.1771	-1.7896	-2.1125	-1.8312	-2.1146	-2.2354	-1.7896	-1.8563	-2.2083	8.741	29.958	213.901	-13.482	210.824	-7.149	214.185	-68.847	17.140	143.888	260.348	-87.760	-78.758	222.248	184.003	213.146	0.00060091	0.001713	0.00010416	1081.3	2.673e-05	1.9027e-05	1374.2	385.54	4.3775e-06	2.8884e-05	556.52	244.77	149.14	89.451	2.5044e-05	150.7	0.017179	0.024713	0.0070613	1166.2	0.00026461	0.00028305	1381.1	396.88	0.0002548	0.00028266	689.83	251.78	195.19	90.952	0.000273	153.18	-89.828	161.392	243.343	-80.563	80.986	12.384	-80.705	-74.873	-82.083	113.771	-76.701	-70.856	-69.388	-65.353	69.231	-67.381	-8191	255	
41055.742	1	1	0	131072	0.10022	0.27005	0.16848	0.094059	0.10909	0.20515	0.48309	0.1941	0.18944	0.22087	0.39467	0.36526	0.046184	0.26109	0.096797	0.39667	-1.1146	-2.0208	-1.8896	-1.6854	-2.1604	-1.7354	-2.0312	-2.0167	-1.6896	-1.8417	-1.7563	-1.9375	-2.1208	-1.8583	-1.7479	-2.2354	48.469	145.722	30.224	266.061	52.104	160.490	203.912	232.011	138.166	1.836	207.795	226.620	255.163	237.188	-29.446	206.587	0.00061835	0.0051455	0.00022708	1098.5	1.1655e-05	1.1713e-05	1394.5	388.56	9.5182e-06	9.1805e-06	565.62	248.14	153.35	89.6	3.0272e-05	150.6	0.018128	0.026237	0.0075679	1191.1	0.00028126	0.00029917	1404.1	401.78	0.00026444	0.00028572	696.08	254.34	196.03	90.916	0.00025997	152.34	-70.773	-62.914	31.967	-80.603	178.804	132.418	-80.869	-75.028	-41.633	237.344	-76.192	-71.136	-69.170	-65.356	-77.057	-67.431	-8191	255	
41055.863	1	1	0	131072	0.061544	0.12167	0.23735	0.26293	0.13732	0.14339	0.39603	0.1375	0.10055	0.16633	0.25552	0.502	0.17851	0.60807	0.19983	0.24068	-1.2958	-1.7938	-1.9042	-1.6417	-2.0771	-1.7958	-1.9646	-2.2729	-1.6604	-2.025	-1.7875	-1.7437	-2.0708	-1.9208	-1.8396	-2.2167	-16.958	183.233	241.105	208.367	87.146	82.909	213.550	248.690	237.958	-19.671	-58.956	237.855	237.664	-73.457	-45.094	231.670	0.00071325	0.0018463	0.00054358	1133.9	2.8312e-05	8.8937e-06	1453.1	402.4	1.2214e-05	6.8218e-06	581.4	253.4	158.58	88.838	5.1362e-06	150.71	0.01694	0.024062	0.0068255	1202	0.00024794	0.00026801	1444.7	409.73	0.00023833	0.00026074	699.1	257.11	196.77	89.791	0.00025034	152.51	-82.112	237.028	-24.069	-80.749	-3.076	91.272	-81.071	-74.957	200.837	-0.283	-76.793	-71.295	-69.644	-65.726	110.850	-67.776	-8191	255	
41055.957	1	1	0	0	0.095503	0.11157	0.15261	0.28618	0.135	0.18758	0.30122	0.23422	0.055427	0.15745	0.032352	0.31247	0.071015	0.056863	0.14421	0.24318	-1.225	-2.0042	-2.0083	-1.6354	-1.9438	-1.8458	-1.9396	-1.3875	-1.1875	-1.6562	-1.3042	-1.1187	-1.5042	-1.2313	-1.2208	-1.8354	180.659	135.708	236.884	281.702	186.213	154.981	262.438	-25.823	116.081	311.018	145.769	253.739	43.326	255.914	139.587	150.673	0.00085474	0.0014961	0.00044831	1217.2	2.2654e-05	2.6236e-05	1532.9	46.048	7.6825e-07	4.1712e-07	0.16256	0.031959	0.002883	0.0011273	3.7417e-07	0.00092007	0.01671	0.02362	0.0068474	1281.1	0.00024763	0.00026802	1528.3	67.036	-5.2524e-06	-8.536e-06	-4.1025	-0.48024	-0.94528	-0.11126	-3.2156e-06	-0.11891	276.810	295.149	153.966	279.338	124.185	53.856	280.640	-21.130	308.080	117.137	302.475	316.064	35.657	77.861	191.260	246.169	-8191	255	
41056.055	1	1	0	0	0.40097	0.063193	0.065173	0.35724	0.28253	0.16611	0.098841	0.091786	0.14789	0.30292	0.11131	0.18704	0.14778	0.10256	0.051534	0.1736	-0.83958	-1.4646	-1.6917	-1.1375	-1.5354	-1.6417	-1.2062	-1.8229	-1.2167	-1.4021	-1.7437	-1.0625	-1.4083	-1.3458	-1.1333	-1.6167	375.504	339.540	182.388	352.194	261.790	266.796	313.676	384.538	333.304	197.878	202.992	354.434	231.037	378.343	96.895	387.440	6.756e-06	4.7644e-06	1.6897e-05	0.048498	3.5061e-07	1.6644e-07	0.026308	0.0052412	1.6799e-07	1.2419e-07	0.0033067	0.0040034	0.0071608	0.0017802	3.2304e-07	0.0021114	-0.00015322	-0.00020621	-5.2768e-05	-1.1978	-1.6456e-06	-1.6024e-06	-0.653	-0.21788	-1.1622e-06	-1.1917e-06	-0.71363	-0.092818	-0.20806	-0.027727	-8.7138e-07	-0.037896	383.605	272.721	321.962	223.033	94.842	49.794	237.346	53.162	51.142	91.848	260.293	105.375	216.505	167.574	374.250	278.761	-8191	255	
41056.176	1	1	0	0	0.038655	0.060424	0.061911	0.10119	0.1309	0.063192	0.21449	0.19897	0.1929	0.22383	0.011237	0.19497	0.095437	0.042537	0.19712	0.26949	-0.80833	-1.3208	-1.7812	-1.2979	-1.4813	-1.6146	-1.175	-1.5229	-1.2271	-1.3438	-1.5146	-1.0896	-1.4312	-1.4292	-1.3208	-1.5875	5.727	8.932	255.993	88.898	160.165	254.246	155.896	213.364	237.548	336.638	158.208	180.796	46.749	213.915	129.726	280.078	1.8107e-06	5.9843e-06	1.9965e-05	0.027289	1.496e-07	2.7845e-07	0.01383	0.007214	2.1305e-07	3.8016e-07	0.045295	0.0096619	0.011357	0.001993	7.4927e-07	0.00079856	-4.7665e-05	-7.3616e-05	-2.1463e-05	-0.49416	-7.0713e-07	-7.4393e-07	-0.30066	-0.11189	-5.7017e-07	-6.1725e-07	-0.41035	-0.048557	-0.11593	-0.016376	-5.0521e-07	-0.023669	42.368	49.730	-0.446	164.924	128.672	318.385	18.614	-5.352	-22.133	55.486	68.251	41.515	174.956	232.011	79.392	118.638	-8191	255	
41056.246	1	1	0	0	0.12743	0.075228	0.21463	0.22965	0.13961	0.13762	0.084232	0.027832	0.056433	0.12993	0.067827	0.071494	0.032829	0.12669	0.11918	0.12213	-0.75833	-1.2229	-1.6542	-1.1562	-1.3979	-1.6771	-1.1208	-1.6375	-1.3042	-1.2917	-1.5938	-0.975	-1.4125	-1.5812	-0.90417	-1.6396	101.405	210.574	174.527	84.041	-19.053	155.351	207.147	161.826	253.500	182.990	106.329	328.540	-25.191	265.904	156.759	-4.566	5.642e-06	3.6117e-05	9.4344e-06	0.043515	3.8622e-07	3.7609e-07	0.035648	0.015248	2.1257e-07	7.6879e-08	0.05371	0.0040684	0.007851	0.0012984	6.7865e-07	0.0039171	-2.6807e-05	-4.4809e-05	-1.4206e-05	-0.30757	-4.5426e-07	-5.344e-07	-0.18405	-0.081082	-4.2064e-07	-4.2994e-07	-0.30677	-0.035502	-0.092934	-0.014133	-3.3681e-07	-0.019101	20.354	25.762	260.397	212.387	178.621	38.781	73.993	-10.751	224.439	320.283	137.004	186.829	319.808	265.803	226.463	2.561	-8191	255	
41056.344	1	1	0	0	0.085971	0.12481	0.21296	0.12097	0.030269	0.054996	0.12466	0.37418	0.27929	0.21905	0.014175	0.30735	0.10455	0.024816	0.11144	0.17	-0.90417	-1.2125	-1.5688	-1.1875	-1.4354	-1.7479	-1.125	-1.4417	-1.4875	-1.1792	-1.5479	-1.2042	-1.3896	-1.4396	-1.2208	-1.4958	130.791	218.083	211.561	286.643	189.235	242.324	277.189	231.987	210.607	136.706	72.171	374.481	149.135	227.667	61.145	55.289	2.5386e-06	6.5478e-05	1.182e-05	0.015411	1.7241e-07	3.924e-07	0.020092	0.017499	3.5106e-07	1.8432e-07	0.038422	0.0020277	0.011673	7.0337e-05	5.2342e-07	0.0041385	-2.2351e-05	-3.2068e-05	-1.149e-05	-0.25635	-4.0348e-07	-4.6134e-07	-0.13796	-0.066194	-3.6979e-07	-3.407e-07	-0.29211	-0.032871	-0.073503	-0.012918	-3.0567e-07	-0.015088	31.988	210.183	266.764	116.395	106.765	358.732	327.909	46.619	247.660	160.752	367.902	266.198	40.374	219.654	276.655	150.382	-8191	255	
41056.438	1	1	0	0	0.18596	0.1451	0.31922	0.44741	0.11	0.2079	0.28206	0.19969	0.27229	0.10733	0.18998	0.286	0.22104	0.22987	0.18584	0.13993	-1.1104	-1.1167	-1.5	-1.3146	-1.2542	-1.6583	-1.2479	-1.4917	-1.6208	-1.3188	-1.5562	-1.4396	-1.0646	-1.5125	-1.3729	-1.5854	335.167	123.825	455.103	146.116	265.380	428.110	350.392	223.350	146.875	353.819	229.468	182.091	447.282	179.956	371.225	425.274	5.6801e-06	5.507e-05	1.3237e-05	0.037477	2.4894e-07	5.5893e-07	0.0073715	0.0059222	3.5975e-07	4.637e-07	0.062668	0.0034886	0.0098257	0.0012972	8.5472e-07	0.0036092	-1.8754e-05	-2.9007e-05	-1.0503e-05	-0.22928	-3.0713e-07	-4.1795e-07	-0.14677	-0.058521	-3.6372e-07	-2.8245e-07	-0.26208	-0.031772	-0.060258	-0.011101	-2.8763e-07	-0.014534	270.136	218.736	411.196	249.834	286.333	284.854	96.771	113.957	433.805	405.462	255.871	345.982	228.750	221.402	185.320	379.948	-8191	255	
41056.559	1	1	0	0	0.16976	0.25028	0.23938	0.27008	0.1229	0.1464	0.11205	0.24905	0.20284	0.48985	0.46028	0.19678	0.18975	0.11647	0.19755	0.067544	-1.0187	-1.1104	-1.6771	-1.2687	-1.3396	-1.6021	-1.3875	-1.3896	-1.6458	-1.2021	-1.6229	-1.4125	-1.0125	-1.6604	-1.3229	-1.4292	57.544	44.466	285.099	323.682	136.250	324.866	188.549	211.081	374.507	400.544	280.200	321.173	79.465	306.504	330.434	377.096	1.0322e-06	8.8372e-05	9.4018e-06	0.032715	3.4743e-07	3.561e-07	0.033954	0.013514	2.5268e-07	1.8419e-07	0.018215	0.0052372	0.0094265	0.00037836	2.1585e-07	0.00030837	-1.8935e-05	-2.6745e-05	-9.6661e-06	-0.22976	-2.9078e-07	-4.1572e-07	-0.1327	-0.050104	-3.4722e-07	-2.618e-07	-0.24137	-0.028542	-0.053344	-0.010488	-2.894e-07	-0.012228	180.006	247.851	197.584	359.683	132.187	244.202	167.774	62.251	276.866	172.277	75.912	262.008	108.920	222.802	83.999	62.783	-8191	255	
41056.652	1	1	0	0	0.29245	0.034489	0.15052	0.30646	0.33347	0.17993	0.22767	0.17658	0.091654	0.1086	0.26247	0.092382	0.39133	0.022637	0.17639	0.15933	-1.2167	-1.15	-1.5417	-1.4125	-1.2271	-1.675	-1.1792	-1.1042	-1.5042	-1.0396	-1.5354	-1.5979	-1.1167	-1.675	-1.2604	-1.3687	127.918	32.656	-0.739	154.409	-51.805	0.644	-56.804	44.871	117.447	-17.857	30.058	8.516	-31.485	176.931	223.159	240.006	2.7559e-06	4.5133e-05	7.2212e-06	0.046279	4.1494e-07	7.3969e-07	0.02211	0.010715	5.0252e-07	2.1549e-07	0.058781	0.0040832	0.0068386	0.0013959	1.1953e-07	0.0039542	-1.9478e-05	-2.5115e-05	-9.0335e-06	-0.22928	-2.8522e-07	-3.4415e-07	-0.14575	-0.040198	-3.4992e-07	-2.3746e-07	-0.21623	-0.03377	-0.05036	-0.010229	-3.1982e-07	-0.011411	-45.384	-11.076	147.781	269.380	47.215	34.033	200.818	-46.253	22.831	112.223	139.848	-58.598	173.123	191.610	76.745	60.872	-8191	255	
41056.750	1	1	0	0	0.20143	0.21487	0.17523	0.25447	0.10839	0.20734	0.12447	0.11588	0.041249	0.24021	0.25234	0.084086	0.3287	0.21243	0.14845	0.093183	-1.1979	-1.075	-1.4708	-1.4208	-1.0792	-1.575	-1.1562	-1.3729	-1.6375	-1.2833	-1.5021	-1.4333	-1.0604	-1.5208	-1.5	-1.1729	38.837	169.085	65.442	45.130	-17.547	-2.433	102.719	64.976	101.518	259.666	-61.141	2.984	203.744	3.439	100.397	-47.105	1.8717e-06	3.0357e-05	2.7271e-06	0.011536	2.564e-07	2.5339e-07	0.0067167	0.0095724	3.7559e-07	6.7405e-07	0.039284	0.00266	0.016965	0.00069068	1.0662e-07	0.0012441	-1.9817e-05	-2.455e-05	-8.159e-06	-0.2044	-2.4174e-07	-3.5342e-07	-0.15033	-0.041572	-3.1725e-07	-2.9129e-07	-0.21949	-0.027409	-0.053053	-0.0091695	-3.1523e-07	-0.010652	268.886	154.178	128.762	70.188	186.089	-25.771	-1.000	-47.975	49.223	192.797	229.693	197.941	133.145	124.063	17.664	162.936	-8191	255	
41056.824	1	1	0	0	0.086103	0.21225	0.42567	0.2037	0.18731	0.21944	0.21688	0.32741	0.12961	0.24437	0.26251	0.26149	0.12062	0.12109	0.12885	0.072149	-1.2333	-1.2542	-1.3687	-1.6146	-1.1146	-1.5708	-1.4604	-1.2542	-1.4979	-1.2062	-1.35	-1.4708	-1.025	-1.4688	-1.4479	-1.0583	265.380	220.726	231.312	353.364	399.058	168.016	447.425	264.136	210.049	256.354	242.706	350.897	187.007	361.619	266.684	414.568	3.0778e-06	1.5255e-05	9.7652e-06	0.017914	5.5337e-07	2.5962e-07	0.0057448	0.0090517	3.8997e-07	4.6809e-07	0.037892	0.0042817	0.0017423	0.0015654	3.9707e-07	0.0023416	-1.674e-05	-2.6579e-05	-7.9357e-06	-0.23001	-2.1252e-07	-3.6306e-07	-0.12897	-0.042832	-3.1792e-07	-2.6917e-07	-0.19039	-0.027942	-0.048323	-0.010239	-3.0143e-07	-0.010171	408.125	262.544	150.472	325.459	424.662	157.362	266.909	108.978	265.956	281.361	156.324	194.694	164.269	369.327	425.862	370.578	-8191	255	
41056.941	1	1	0	0	0.20262	0.20287	0.14472	0.17545	0.048687	0.2009	0.24364	0.304	0.17456	0.20422	0.17978	0.10265	0.26685	0.12262	0.26955	0.14784	-1.175	-1.2104	-1.2854	-1.6812	-1.0208	-1.4667	-1.5625	-1.0417	-1.5542	-1.2208	-1.2792	-1.6271	-1.0625	-1.3771	-1.4083	-1.05	176.869	-138.743	212.548	-21.288	108.238	81.448	-40.590	208.033	-64.700	12.326	129.466	42.678	-12.244	-12.654	-93.777	136.547	3.1105e-06	2.8217e-05	1.1929e-06	0.0050049	1.1915e-07	5.541e-07	0.034341	0.0080884	2.174e-07	2.1865e-07	0.039944	0.0018025	0.019291	0.0018217	4.2009e-07	0.0031792	-1.665e-05	-2.4982e-05	-7.2659e-06	-0.20464	-2.2539e-07	-3.2264e-07	-0.1588	-0.036991	-3.3442e-07	-2.7581e-07	-0.18807	-0.03357	-0.048832	-0.0085049	-3.177e-07	-0.010346	186.363	24.783	31.266	200.391	66.803	159.598	13.151	-121.769	56.161	6.182	92.191	16.038	169.700	195.727	173.811	199.089	-8191	255	
41057.039	1	1	0	0	0.21547	0.28828	0.15777	0.12785	0.21401	0.15847	0.23517	0.22562	0.13354	0.13507	0.30351	0.30318	0.23341	0.15092	0.1381	0.18787	-0.98542	-1.1979	-1.1396	-1.4937	-1.2188	-1.5083	-1.5021	-1.2542	-1.5438	-1.4354	-1.1458	-1.6542	-1.2375	-1.3771	-1.6	-1.0958	284.456	127.585	95.234	373.067	192.370	195.422	146.012	376.734	118.548	64.268	342.988	238.997	150.755	169.847	189.495	328.046	2.0397e-06	5.3783e-05	1.9128e-05	0.05257	2.6154e-07	4.8854e-07	0.053469	0.0033675	4.4121e-07	1.911e-07	0.074528	0.0086017	0.016982	0.0013692	2.5707e-07	0.0018939	-1.6288e-05	-2.791e-05	-6.4565e-06	-0.21391	-2.1774e-07	-2.9149e-07	-0.14101	-0.035159	-2.8424e-07	-3.0088e-07	-0.16479	-0.031639	-0.049414	-0.0074768	-3.1664e-07	-0.0097769	159.647	114.816	342.643	355.010	212.133	141.453	201.902	42.358	228.435	186.004	365.562	378.494	292.649	370.366	189.031	318.000	-8191	255	
41057.133	1	1	0	0	0.13093	0.17945	0.21288	0.18391	0.18856	0.06268	0.097068	0.22761	0.14066	0.080003	0.19557	0.1135	0.15944	0.20717	0.18904	0.41291	-1.1	-1.5521	-1.1917	-1.8563	-1.2229	-1.4104	-1.6708	-1.0458	-1.5333	-1.6729	-1.1125	-1.6333	-1.3104	-1.3729	-1.6	-1.1313	196.585	146.112	166.890	87.068	-25.745	163.019	183.859	-55.252	213.162	192.141	170.361	141.432	32.560	122.212	101.871	127.393	4.5878e-06	2.4348e-05	1.6596e-05	0.03123	2.2877e-07	3.1439e-07	0.043086	0.0028078	1.5725e-07	2.1582e-07	0.082752	0.011289	0.006898	0.00012694	6.3006e-07	0.0039583	-1.674e-05	-2.455e-05	-5.5169e-06	-0.23928	-2.3652e-07	-2.6775e-07	-0.15524	-0.031437	-2.8424e-07	-3.0088e-07	-0.14221	-0.031039	-0.053271	-0.0072691	-3.4034e-07	-0.010361	32.947	284.895	103.478	-0.359	133.659	13.613	-30.250	-41.381	73.793	-36.737	224.584	171.259	45.686	156.789	63.823	217.537	-8191	255	
41057.254	1	1	0	0	0.2561	0.2948	0.3485	0.09301	0.21762	0.1952	0.11739	0.042776	0.19839	0.0069266	0.038974	0.13398	0.056931	0.2169	0.13165	0.2528	-0.89167	-1.5208	-1.1542	-1.6021	-1.3521	-1.325	-1.8708	-1.1125	-1.6083	-1.3583	-1.1	-1.55	-1.2938	-1.0896	-1.7437	-1.1354	77.611	51.660	155.705	130.466	233.872	169.820	84.285	153.801	101.774	85.363	142.914	136.341	79.377	90.055	256.751	-0.156	2.829e-06	1.9288e-05	2.1265e-05	0.047764	6.1498e-07	3.6531e-07	0.014436	0.013098	1.5635e-07	5.7798e-07	0.05085	0.0075703	0.0067761	0.0035141	3.3633e-07	0.002686	-1.4365e-05	-2.924e-05	-5.889e-06	-0.21367	-2.5843e-07	-2.7999e-07	-0.16185	-0.036018	-2.7953e-07	-3.2006e-07	-0.14757	-0.031739	-0.054436	-0.0064799	-3.4317e-07	-0.0089889	176.786	84.004	-0.090	53.987	-15.885	13.917	44.887	-62.172	54.262	191.342	208.947	107.554	230.765	231.643	25.597	-29.442	-8191	255	
41057.352	1	1	0	0	0.12209	0.032709	0.11565	0.23289	0.15934	0.2673	0.2895	0.20993	0.088406	0.23958	0.10848	0.15916	0.20079	0.24841	0.10036	0.094239	-1.0854	-1.5896	-1.1104	-1.4667	-1.4562	-1.2208	-1.7812	-1.075	-1.3417	-1.6146	-1.1042	-1.6542	-1.4958	-1.3208	-1.7208	-1.3396	-17.352	37.409	249.805	276.751	102.112	308.059	128.365	50.325	52.850	102.387	265.904	219.743	207.085	105.307	106.820	169.184	2.5847e-06	5.1126e-05	6.9185e-06	0.027252	3.0193e-07	1.8207e-07	0.045015	0.01012	3.7529e-07	2.4751e-07	0.030952	0.004891	0.0073637	0.0021007	3.947e-07	0.0023092	-1.2623e-05	-2.8741e-05	-5.0424e-06	-0.21098	-2.5356e-07	-2.3104e-07	-0.15185	-0.031093	-2.4821e-07	-3.1452e-07	-0.13965	-0.03034	-0.061058	-0.0055868	-3.3398e-07	-0.01055	-21.538	276.321	41.329	113.590	209.034	305.956	315.253	-4.121	158.855	283.463	16.265	128.156	-13.331	298.932	274.880	35.858	-8191	255	
41057.445	1	1	0	0	0.098957	0.081798	0.46561	0.25203	0.24331	0.064913	0.08439	0.22964	0.10973	0.3075	0.25587	0.2998	0.29864	0.050926	0.08043	0.1473	-1.0854	-1.6646	-1.1708	-1.5917	-1.5354	-1.2333	-1.6583	-1.1396	-1.4125	-1.7646	-0.98333	-1.4417	-1.5229	-1.1146	-1.7958	-1.5375	293.958	258.288	290.878	342.944	314.373	304.849	249.028	440.169	259.686	402.603	274.787	156.139	425.049	393.727	333.816	438.707	3.7688e-06	4.7411e-05	1.1179e-05	0.018354	2.8908e-07	4.8852e-07	0.032901	0.01906	3.2466e-07	3.2734e-07	0.002135	0.0059352	0.016708	0.0012015	1.7343e-07	0.0023968	-1.07e-05	-3.1403e-05	-5.6471e-06	-0.19001	-2.8487e-07	-2.1769e-07	-0.14728	-0.039625	-2.5056e-07	-3.2743e-07	-0.12615	-0.027842	-0.058293	-0.0061684	-3.1841e-07	-0.011761	152.625	386.932	302.285	271.086	130.579	247.589	357.018	141.177	403.905	208.490	298.066	453.677	474.811	371.080	357.158	307.411	-8191	255	
41057.543	1	1	0	0	0.25069	0.13431	0.19735	0.046018	0.19057	0.33598	0.088635	0.19671	0.098867	0.23179	0.17139	0.2126	0.13938	0.21864	0.12462	0.23433	-0.88333	-1.6708	-1.1875	-1.5063	-1.7458	-1.1646	-1.5812	-1.2938	-1.3771	-1.6729	-1.325	-1.3708	-1.5312	-1.1187	-1.6292	-1.4396	20.657	241.856	198.607	36.461	333.420	-1.245	305.565	313.524	59.013	103.913	-4.331	318.024	49.453	191.484	129.028	197.935	3.4002e-06	3.7004e-05	1.0421e-05	0.028906	1.4133e-07	1.9532e-07	0.019264	0.0083715	3.4134e-07	5.3898e-07	0.020296	0.0015913	0.01868	0.0013536	5.0437e-07	0.0016724	-9.818e-06	-2.6912e-05	-4.9214e-06	-0.18147	-3.0156e-07	-2.1546e-07	-0.14287	-0.043118	-2.3238e-07	-3.2153e-07	-0.15152	-0.024512	-0.064188	-0.0071341	-3.0638e-07	-0.01144	222.168	284.523	21.293	27.979	326.933	127.627	36.119	5.352	63.108	257.553	155.643	61.504	308.855	268.774	198.431	266.015	-8191	255	
41057.637	1	1	0	0	0.27558	0.011354	0.10722	0.18945	0.086281	0.22402	0.044041	0.075316	0.19939	0.1959	0.072477	0.13545	0.17571	0.15688	0.046253	0.11315	-0.86042	-1.7521	-1.2958	-1.3396	-1.7542	-1.1021	-1.6271	-1.5167	-1.2417	-1.7125	-1.2708	-1.3708	-1.5958	-1.1792	-1.7104	-1.525	199.774	22.569	306.694	2.781	25.612	199.177	213.861	12.843	85.469	246.839	120.462	8.602	169.112	142.485	23.985	201.862	1.2863e-06	1.7168e-05	1.5523e-05	0.029609	2.9868e-07	2.0238e-07	0.026362	0.0030178	1.0244e-07	3.3671e-07	0.018226	0.0054603	0.0093485	0.0015904	2.5532e-07	0.0013907	-1.0225e-05	-3.0504e-05	-6.4844e-06	-0.1961	-3.0122e-07	-2.214e-07	-0.13152	-0.042832	-2.1386e-07	-3.4882e-07	-0.13756	-0.024345	-0.067317	-0.0054622	-2.8904e-07	-0.011601	312.149	96.825	85.566	27.308	174.270	131.648	315.301	4.281	16.971	57.373	108.617	85.589	125.095	249.867	123.102	213.852	-8191	255	
41057.734	1	1	0	0	0.1179	0.25129	0.1256	0.33376	0.099314	0.13394	0.16413	0.046563	0.18599	0.1708	0.27652	0.05418	0.065815	0.31451	0.17068	0.2353	-0.84375	-1.7833	-1.2729	-1.3333	-1.5979	-1.1708	-1.4958	-1.5417	-1.3292	-1.6667	-1.3833	-1.4688	-1.8208	-1.2875	-1.5083	-1.4542	120.497	112.622	-17.622	89.224	112.355	82.057	58.108	284.891	16.787	100.142	262.021	251.178	190.036	7.377	114.129	40.251	2.2377e-06	5.3132e-05	8.8341e-06	0.023306	4.8024e-07	2.1505e-07	0.025796	0.0092167	2.2141e-07	6.8588e-07	0.01018	0.0044081	0.019503	0.0025447	9.2117e-08	0.0015057	-8.4833e-06	-2.9773e-05	-5.8518e-06	-0.15318	-3.113e-07	-2.0063e-07	-0.13236	-0.043003	-1.8388e-07	-2.8908e-07	-0.17876	-0.020682	-0.061859	-0.0061476	-2.9011e-07	-0.011367	166.887	179.414	-51.801	273.430	-7.996	200.406	163.824	-41.722	297.144	42.407	12.182	-31.010	35.605	218.070	169.285	266.042	-8191	255	
41057.855	1	1	0	0	0.12339	0.065639	0.17853	0.11599	0.020296	0.08681	0.068948	0.15193	0.098887	0.20962	0.052605	0.08478	0.22769	0.1094	0.11997	0.077658	-0.85208	-1.3854	-1.4937	-1.2521	-1.7479	-1.3375	-1.4854	-1.6125	-1.1417	-1.8604	-1.3146	-1.0812	-1.6104	-1.1479	-1.6479	-1.7729	114.817	18.719	201.301	75.584	58.663	98.654	253.922	323.708	142.563	225.541	207.446	137.849	240.386	247.160	138.456	331.290	4.1461e-06	5.7189e-05	5.3922e-06	0.014665	3.7886e-07	5.4134e-07	0.013158	0.0074987	2.2897e-08	9.4681e-08	0.027687	0.0076539	0.010398	0.0023159	3.5679e-07	0.0012231	-7.3522e-06	-2.6712e-05	-7.1356e-06	-0.13269	-2.9496e-07	-2.1027e-07	-0.12999	-0.04621	-1.8523e-07	-3.1194e-07	-0.14594	-0.018517	-0.067244	-0.0065318	-2.7065e-07	-0.012929	94.236	105.350	240.304	169.889	266.280	97.789	334.254	-2.729	-7.665	6.758	44.183	-6.050	127.361	151.770	234.739	319.386	-8191	255	
41057.949	1	1	0	0	0.091376	0.35402	0.18459	0.082953	0.33391	0.16365	0.15098	0.18059	0.061237	0.16888	0.38988	0.14224	0.10293	0.029834	0.29979	0.10621	-0.70625	-1.5875	-1.525	-1.1042	-1.6646	-1.3125	-1.2375	-1.5938	-1.2437	-1.6375	-1.3979	-1.1479	-1.675	-1.4312	-1.5312	-1.6708	127.357	183.406	317.451	252.527	124.325	39.532	98.012	18.908	18.474	131.094	303.602	292.230	34.120	273.884	15.622	58.624	6.5164e-07	3.2552e-05	1.5482e-05	0.032897	2.0864e-07	2.4124e-07	0.01039	0.010691	5.4336e-07	2.2005e-07	0.032712	0.0083696	0.0016644	0.0030952	4.475e-07	0.0036112	-9.5013e-06	-2.7677e-05	-6.5774e-06	-0.14439	-3.3878e-07	-2.2511e-07	-0.10796	-0.045065	-2.1689e-07	-3.0568e-07	-0.15897	-0.019516	-0.068263	-0.0067084	-2.6251e-07	-0.012462	311.258	209.677	156.759	276.531	48.970	77.089	-7.937	-10.864	53.855	85.759	154.404	15.049	189.812	172.396	51.410	289.428	-8191	255	
41058.047	1	1	0	0	0.18075	0.1012	0.15878	0.16931	0.21904	0.14075	0.23515	0.16612	0.24861	0.18068	0.17066	0.21987	0.073999	0.021979	0.36218	0.23192	-0.77083	-1.4979	-1.6271	-0.98125	-1.6833	-1.4333	-1.4542	-1.8813	-1.1729	-1.35	-1.3854	-1.2188	-1.5979	-1.5125	-1.3708	-1.8979	-5.226	48.912	-16.869	285.776	176.594	315.867	217.474	216.017	119.137	230.764	21.558	198.519	-21.450	104.675	287.618	15.161	6.4567e-06	2.0222e-05	6.5366e-06	0.044661	1.2575e-07	6.669e-07	0.0276	0.01174	2.0683e-07	3.3636e-07	0.035235	0.0019004	0.015323	0.0021609	7.0142e-08	0.0011932	-7.8951e-06	-2.5747e-05	-7.3589e-06	-0.13805	-3.0887e-07	-2.4068e-07	-0.10694	-0.052681	-2.1352e-07	-2.8318e-07	-0.17317	-0.01865	-0.056401	-0.0071445	-2.2501e-07	-0.013133	115.998	214.259	206.022	222.616	177.008	169.544	251.198	-7.942	172.354	181.500	279.258	108.249	326.808	115.807	302.461	266.236	-8191	255	
41058.117	1	1	0	0	0.37219	0.12444	0.16282	0.11098	0.1579	0.27574	0.36172	0.11908	0.1395	0.2393	0.21786	0.19481	0.10026	0.37996	0.2229	0.15988	-0.72708	-1.5125	-1.5167	-1.1979	-1.6271	-1.2563	-1.0917	-1.8062	-1.4271	-1.5104	-1.5375	-1.2167	-1.5917	-1.5229	-1.3417	-1.775	-1.639	-96.559	77.845	-107.659	156.854	75.821	130.781	94.755	-110.300	12.216	19.403	95.933	83.404	134.105	177.399	-68.720	3.7624e-06	1.3706e-05	9.4229e-06	0.033215	1.2532e-07	6.8284e-07	0.017737	0.012624	4.8938e-07	2.3991e-07	0.050188	0.0074493	0.0097925	0.00059999	5.9003e-07	0.00095377	-1.0067e-05	-2.3951e-05	-7.7869e-06	-0.13074	-2.7513e-07	-2.6627e-07	-0.098128	-0.054742	-2.2059e-07	-2.8724e-07	-0.18946	-0.017185	-0.057129	-0.0084218	-2.2041e-07	-0.012214	152.532	-22.938	-148.229	-42.924	145.063	-9.460	135.264	-139.618	89.349	-133.307	175.526	-53.307	149.122	-137.993	98.439	83.005	-8191	255	
41058.238	1	1	0	0	0.18998	0.22563	0.2513	0.30601	0.10336	0.058439	0.32709	0.099829	0.076058	0.10155	0.29517	0.10963	0.13992	0.2051	0.14586	0.23228	-0.79167	-1.3479	-1.6417	-1.2042	-1.6729	-1.5083	-1.2062	-1.6771	-1.3854	-1.5396	-1.7083	-1.1521	-1.5792	-1.4562	-1.1812	-1.7104	389.617	165.438	246.249	404.478	154.697	151.436	473.949	283.309	438.152	496.428	172.913	394.045	212.537	217.650	432.507	304.843	1.3895e-06	3.2954e-05	9.3004e-06	0.017773	5.4252e-07	1.8909e-07	0.021934	0.010475	4.6388e-07	2.8783e-07	0.017212	0.0041191	0.010676	0.00057102	2.1754e-08	0.00045751	-8.5285e-06	-2.4783e-05	-8.0288e-06	-0.15561	-2.8626e-07	-3.0818e-07	-0.090841	-0.049989	-2.0813e-07	-2.8023e-07	-0.2011	-0.020782	-0.057856	-0.0086918	-1.7053e-07	-0.012301	315.661	485.870	251.745	186.895	464.499	225.619	461.887	163.618	321.384	312.650	409.018	364.022	482.495	149.770	429.846	171.767	-8191	255	
41058.336	1	1	0	0	0.28714	0.308	0.16109	0.24697	0.19292	0.18946	0.097815	0.11838	0.35982	0.15895	0.41254	0.035901	0.27688	0.090874	0.15698	0.064437	-1.1146	-1.4417	-1.7208	-1.2667	-1.4333	-1.7292	-1.1625	-1.6542	-1.4125	-1.5271	-1.775	-1.1938	-1.3958	-1.55	-1.0083	-1.4542	197.847	241.581	432.545	236.630	411.374	82.136	179.695	315.255	88.277	438.155	334.888	222.707	151.322	85.968	104.168	167.027	6.6743e-06	4.871e-05	4.1929e-06	0.016864	5.1685e-07	4.1936e-07	0.010314	0.0073758	2.7012e-09	4.4571e-07	0.027658	0.0056417	0.020672	0.0022944	1.1546e-07	0.0035722	-1.0972e-05	-2.3186e-05	-8.3916e-06	-0.13366	-2.873e-07	-3.1077e-07	-0.10525	-0.049818	-2.4652e-07	-2.5258e-07	-0.19156	-0.021947	-0.05611	-0.0086918	-1.9706e-07	-0.012462	247.478	81.619	148.961	134.580	144.537	372.415	429.841	98.600	155.002	106.974	328.969	280.413	329.670	387.498	417.894	161.553	-8191	255	
41058.434	1	1	0	0	0.093133	0.17939	0.24273	0.18431	0.13295	0.089624	0.24713	0.23266	0.17903	0.11083	0.19052	0.11643	0.16832	0.36013	0.095427	0.18302	-1.0458	-1.2625	-1.7521	-1.2437	-1.2458	-1.5771	-1.1104	-1.5521	-1.4229	-1.1562	-1.85	-1.3167	-1.4479	-1.6146	-1.1958	-1.8021	165.183	60.285	-134.372	32.255	-117.293	93.975	28.695	-106.800	78.419	197.458	-148.707	-103.825	19.072	-71.059	27.689	95.012	6.5479e-06	7.2859e-05	3.242e-06	0.033745	5.8167e-07	5.4453e-07	0.032396	0.0010987	1.5276e-07	4.6953e-07	0.069366	0.0074402	0.020373	0.0030306	7.7344e-07	0.0025519	-1.2781e-05	-2.0259e-05	-7.945e-06	-0.14244	-2.5009e-07	-3.0447e-07	-0.084739	-0.044836	-2.7313e-07	-2.1017e-07	-0.20296	-0.02228	-0.051816	-0.0095849	-2.0661e-07	-0.011659	-115.181	109.898	-7.247	127.696	-37.321	-54.917	7.546	-143.968	-112.326	134.223	86.622	-12.689	122.760	78.580	169.837	-52.019	-8191	255	
41058.527	1	1	0	0	0.049513	0.10304	0.28262	0.1632	0.29125	0.20071	0.15573	0.18723	0.22031	0.056272	0.28169	0.092546	0.23906	0.23049	0.18603	0.1852	-1.1812	-1.0812	-1.7229	-1.2521	-1.4083	-1.6604	-1.3583	-1.7375	-1.4937	-1.1104	-1.5812	-1.1729	-1.2271	-1.5625	-1.3292	-1.5417	57.153	192.453	287.348	143.603	178.228	133.391	257.768	176.813	177.947	361.190	126.934	205.697	235.986	178.231	216.890	380.584	6.687e-06	6.8454e-05	6.0068e-06	0.040503	3.8969e-07	1.7865e-07	0.0088474	0.0066433	2.937e-07	3.3286e-07	0.034338	0.0076267	0.014237	0.00047077	5.5107e-07	0.0017652	-1.2261e-05	-1.7098e-05	-7.9078e-06	-0.14366	-2.3443e-07	-3.308e-07	-0.085417	-0.042545	-2.8828e-07	-1.8989e-07	-0.19412	-0.021947	-0.047959	-0.0085257	-2.0909e-07	-0.011513	152.319	69.143	99.430	132.495	336.094	292.664	307.216	42.801	268.854	381.492	27.228	70.993	318.643	60.302	177.622	93.997	-8191	255	
41058.625	1	1	0	0	0.15294	0.18196	0.19133	0.23392	0.10015	0.27365	0.10797	0.25988	0.14642	0.19895	0.32997	0.018872	0.25281	0.083998	0.14938	0.058161	-1.1354	-1.2333	-1.5417	-1.3917	-1.2458	-1.8625	-1.0854	-1.4917	-1.5812	-1.1417	-1.6437	-1.3646	-1.2604	-1.8188	-1.4021	-1.5438	305.093	416.061	401.031	199.077	199.053	314.362	200.329	407.992	365.295	408.168	289.669	407.632	369.580	212.292	267.013	242.799	4.2431e-06	2.0894e-05	2.6752e-05	0.07777	4.3424e-07	5.2022e-08	0.022995	0.0088276	3.2931e-07	2.3072e-07	0.04035	0.0072026	0.0083998	0.0014288	3.2661e-07	0.00059626	-1.6197e-05	-1.8762e-05	-7.6659e-06	-0.16098	-2.0661e-07	-3.4007e-07	-0.099145	-0.042259	-2.6437e-07	-1.8916e-07	-0.19761	-0.024145	-0.038935	-0.0091695	-2.1758e-07	-0.0096747	303.135	148.883	190.174	334.750	204.867	120.856	425.734	91.540	257.304	300.098	135.202	371.788	394.844	184.172	173.353	84.413	-8191	255	
41058.719	1	1	0	0	0.068354	0.088179	0.36376	0.11906	0.18955	0.22396	0.1441	0.15026	0.25253	0.036284	0.20466	0.13527	0.29944	0.14788	0.17923	0.38182	-1.2896	-1.3188	-1.625	-1.4146	-1.5042	-1.7812	-1.4167	-1.5729	-1.6313	-1.2062	-1.5875	-1.3333	-1.3833	-1.6354	-1.3958	-1.3542	150.894	377.428	280.527	47.790	99.839	306.579	293.019	375.345	330.872	380.495	241.934	112.232	357.349	277.295	72.960	319.658	5.3976e-06	3.6108e-05	1.2047e-05	0.035713	4.3516e-07	2.3483e-07	0.024665	0.017668	1.6364e-07	5.666e-07	0.012778	0.005866	0.012502	0.001302	5.5297e-07	0.0037256	-1.4953e-05	-1.9261e-05	-7.5729e-06	-0.19147	-2.2504e-07	-3.3525e-07	-0.10965	-0.044034	-2.637e-07	-1.9358e-07	-0.19156	-0.024945	-0.041918	-0.0098549	-2.0697e-07	-0.0092369	182.692	379.854	71.504	151.526	277.348	212.886	94.260	41.611	144.694	157.543	139.804	315.591	355.234	90.757	161.360	288.263	-8191	255	
41058.816	1	1	0	0	0.10345	0.20766	0.32735	0.17133	0.11879	0.26668	0.073501	0.11592	0.034482	0.096998	0.14081	0.31173	0.080509	0.10717	0.21785	0.091418	-1.1292	-1.2979	-1.5417	-1.6562	-1.2792	-1.6437	-1.3458	-1.3625	-1.8104	-1.3271	-1.5688	-1.5229	-1.2625	-1.6896	-1.4604	-1.1958	224.688	412.172	335.150	370.112	437.556	224.834	367.544	394.080	361.354	464.673	216.530	261.803	257.271	273.716	373.087	260.011	2.3913e-06	3.9797e-05	6.2298e-06	0.021559	5.3764e-07	2.8567e-07	0.033801	0.003697	2.5033e-07	4.7296e-07	0.092442	0.0089977	0.015029	0.001143	6.9873e-07	0.0046158	-1.3347e-05	-1.7697e-05	-7.2008e-06	-0.17781	-2.1148e-07	-2.7072e-07	-0.11948	-0.032238	-2.9839e-07	-2.3525e-07	-0.1734	-0.026377	-0.043883	-0.0090033	-2.3951e-07	-0.0096163	296.241	266.854	374.107	222.618	357.513	159.736	249.411	160.223	382.053	189.515	264.223	485.141	148.186	252.957	255.930	377.025	-8191	255	
41058.934	1	1	0	0	0.13419	0.24252	0.13337	0.25979	0.16335	0.2398	0.15188	0.2215	0.17154	0.15094	0.1263	0.070665	0.26795	0.20417	0.076617	0.24663	-1.2062	-1.3229	-1.3667	-1.6667	-1.3125	-1.6354	-1.5646	-1.4417	-1.6021	-1.3438	-1.5146	-1.5771	-1.0771	-1.6562	-1.4562	-1.1146	438.161	182.309	279.801	338.665	192.104	109.492	415.050	401.844	179.596	329.869	192.024	349.243	412.248	383.644	328.788	274.649	5.5504e-06	4.7702e-05	1.4243e-05	0.020986	3.3799e-07	2.1633e-07	0.009276	0.009382	1.4869e-07	4.25e-07	0.035923	0.0083717	0.012769	0.0018301	3.58e-07	0.0038909	-1.6107e-05	-2.1789e-05	-6.2611e-06	-0.20903	-1.8156e-07	-3.2412e-07	-0.12897	-0.034529	-2.9401e-07	-2.4004e-07	-0.18551	-0.027642	-0.041264	-0.0088476	-2.7029e-07	-0.0081571	425.090	307.354	330.462	289.804	415.682	330.454	161.864	104.020	272.395	430.968	106.260	408.943	186.063	142.954	211.505	288.246	-8191	255	
41059.031	1	1	0	0	0.44042	0.096628	0.19228	0.10375	0.39192	0.078043	0.052488	0.19322	0.19774	0.16643	0.18328	0.055387	0.12572	0.17607	0.25593	0.031143	-1.3521	-1.3479	-1.4562	-1.7146	-1.1333	-1.5583	-1.6187	-1.1333	-1.7542	-1.4271	-1.5063	-1.7396	-1.1562	-1.5187	-1.4896	-1.25	426.620	364.222	287.375	246.070	192.585	345.270	128.659	174.519	133.547	124.515	294.313	300.763	239.612	225.687	282.711	437.467	6.2021e-06	3.4339e-05	1.1549e-05	0.034407	2.697e-07	5.424e-07	0.034008	0.015715	2.8962e-07	1.2533e-07	0.016664	0.0035925	0.012045	0.0030666	2.4147e-07	0.0044516	-1.7057e-05	-2.5115e-05	-6.103e-06	-0.21879	-1.9443e-07	-3.0595e-07	-0.13982	-0.031837	-2.7347e-07	-2.3857e-07	-0.17108	-0.026677	-0.038498	-0.0081207	-2.7878e-07	-0.0086824	201.745	342.785	216.140	441.275	180.996	214.155	264.599	99.884	403.581	102.633	118.910	170.668	355.565	84.730	264.429	108.007	-8191	255	
41059.129	1	1	0	0	0.38697	0.15051	0.18901	0.35444	0.13932	0.18214	0.039664	0.21061	0.20327	0.21232	0.065025	0.036298	0.037025	0.22421	0.30486	0.25895	-1.3417	-1.2792	-1.3771	-1.7125	-1.0104	-1.7417	-1.7146	-1.2146	-1.6083	-1.5562	-1.6125	-1.6833	-1.3104	-1.4646	-1.7083	-1.1521	219.279	208.239	-43.768	218.771	168.903	75.433	40.333	92.073	258.756	196.670	62.923	-29.830	-20.025	284.884	65.828	91.164	5.5718e-06	2.7728e-05	1.1891e-05	0.044704	2.1545e-07	1.9092e-07	0.018997	0.0070014	2.0349e-07	2.5087e-07	0.025117	0.0019609	0.016303	0.0011249	4.7941e-07	0.0006088	-1.7215e-05	-2.1656e-05	-6.1495e-06	-0.19415	-1.7669e-07	-2.7146e-07	-0.15016	-0.031093	-3.0108e-07	-2.9756e-07	-0.15734	-0.028941	-0.050579	-0.0072795	-2.9011e-07	-0.0089013	15.690	103.572	-56.162	39.551	88.773	98.332	86.709	-38.940	221.646	42.997	245.215	235.193	201.769	158.047	231.099	72.528	-8191	255	
41059.223	1	1	0	0	0.21344	0.15805	0.25962	0.020666	0.066881	0.1006	0.02177	0.14619	0.14109	0.11445	0.47266	0.081637	0.31286	0.17315	0.1437	0.10924	-1.275	-1.6104	-1.2542	-1.6333	-1.2167	-1.3979	-1.7958	-1.3125	-1.5812	-1.6083	-1.2458	-1.8042	-1.3833	-1.3354	-1.7563	-1.2125	499.144	286.627	337.817	216.970	298.930	202.195	387.971	295.935	245.403	397.262	480.667	211.565	464.635	228.495	492.300	193.588	4.0221e-06	3.9886e-05	6.5795e-06	0.035807	4.0747e-08	2.2552e-07	0.013487	0.016602	2.1317e-07	4.7907e-07	0.042464	0.0062255	0.0029104	0.0011076	5.4513e-07	0.0042512	-1.2442e-05	-2.8575e-05	-6.0006e-06	-0.20049	-2.5635e-07	-2.4217e-07	-0.15541	-0.028516	-2.9334e-07	-2.7728e-07	-0.12895	-0.026577	-0.042428	-0.0065215	-2.9541e-07	-0.0095142	312.972	533.158	431.868	458.512	415.388	270.598	249.865	193.915	524.143	277.103	455.535	306.019	194.250	497.931	393.080	416.711	-8191	255	
41059.344	1	1	0	0	0.33677	0.29192	0.27579	0.12797	0.038958	0.081079	0.23635	0.1371	0.032824	0.098528	0.32873	0.12001	0.13554	0.21145	0.15991	0.085941	-1.1979	-1.4937	-1.2	-1.7042	-1.4292	-1.6104	-1.6396	-1.2437	-1.5958	-1.5521	-1.2708	-1.6333	-1.2188	-1.3604	-1.7417	-1.3396	101.877	59.524	18.859	-148.494	73.538	-85.182	41.097	-159.581	76.117	20.431	-11.885	45.509	-96.395	73.365	-131.414	-77.952	3.5789e-06	1.5961e-05	6.5107e-06	0.010673	1.1608e-07	2.8146e-07	0.032872	0.0048824	3.6759e-07	2.5034e-07	0.066224	0.0027079	0.0080745	0.0015222	3.717e-07	0.0015202	-1.3166e-05	-2.5515e-05	-5.154e-06	-0.18391	-2.6191e-07	-2.3178e-07	-0.15151	-0.035617	-2.6505e-07	-2.9129e-07	-0.12522	-0.028575	-0.048323	-0.0070407	-2.9188e-07	-0.0075588	89.989	122.091	-176.282	-35.902	169.809	-163.689	143.550	-161.259	-30.995	22.635	174.800	14.746	-174.828	-151.784	-65.247	-178.537	-8191	255	
41059.414	1	1	0	0	0.18381	0.058054	0.087984	0.12423	0.14347	0.095027	0.20916	0.071689	0.084924	0.11006	0.083549	0.1847	0.13968	0.11096	0.31728	0.21258	-1.1063	-1.6792	-1.2042	-1.7208	-1.4667	-1.2375	-1.7042	-1.1688	-1.5125	-1.4729	-1.1833	-1.5021	-1.3979	-1.3042	-1.6333	-1.2563	219.544	2.464	270.645	24.240	171.936	160.626	4.495	63.517	37.300	-52.705	162.626	201.852	-84.782	142.402	148.319	186.714	1.4189e-06	4.1112e-05	4.971e-06	0.083954	1.4758e-07	5.1987e-07	0.016776	0.0031653	3.8458e-07	4.7228e-07	0.043378	0.0024181	0.013572	0.00077355	3.5787e-07	0.002571	-1.2012e-05	-2.5648e-05	-4.7726e-06	-0.17244	-2.0939e-07	-2.5589e-07	-0.1527	-0.028115	-2.408e-07	-2.8429e-07	-0.14408	-0.026277	-0.052034	-0.0061684	-3.0709e-07	-0.0081571	118.614	135.756	184.981	236.072	-16.295	44.815	-59.365	-70.702	-85.111	155.284	172.300	222.317	234.196	176.690	174.782	-63.915	-8191	255	
41059.512	1	1	0	0	0.061077	0.10066	0.18945	0.15675	0.28592	0.35196	0.17686	0.13784	0.041117	0.057455	0.032002	0.1366	0.053349	0.29723	0.065697	0.17945	-0.8875	-1.6583	-1.0375	-1.5438	-1.5979	-1.1146	-1.4375	-1.25	-1.2812	-1.525	-1.1313	-1.4979	-1.325	-0.99375	-1.7458	-1.3854	205.610	65.175	187.127	71.705	-3.266	76.717	227.940	34.007	26.434	208.354	124.924	268.994	130.672	219.573	35.501	179.044	6.3414e-06	6.9542e-05	3.4387e-06	0.022324	6.3349e-07	1.734e-07	0.034996	0.010392	2.974e-07	3.5866e-07	0.033312	0.0067852	0.010328	0.003719	3.2699e-07	0.0016714	-1.018e-05	-2.8176e-05	-4.9214e-06	-0.17366	-2.6191e-07	-1.8617e-07	-0.13355	-0.033326	-2.4484e-07	-2.8834e-07	-0.11196	-0.024245	-0.047522	-0.0052545	-2.9046e-07	-0.0092223	4.859	162.417	165.441	40.548	-17.144	-1.764	-27.257	-50.712	-37.210	59.758	211.313	45.835	159.994	276.288	204.049	87.294	-8191	255	
41059.633	1	1	0	0	0.18279	0.28913	0.054915	0.31123	0.16943	0.08512	0.21182	0.057608	0.2349	0.10974	0.23686	0.032044	0.089283	0.031185	0.19368	0.30995	-1.0708	-1.6583	-1.15	-1.5125	-1.5438	-1.2542	-1.5875	-1.3354	-1.3229	-1.6854	-1.1604	-1.425	-1.4521	-1.1396	-1.5521	-1.3375	115.881	49.538	177.466	112.657	-21.645	-133.868	184.872	154.606	64.187	-141.739	172.647	-39.044	-124.978	-65.989	145.515	115.697	1.5628e-06	7.7372e-05	3.6718e-06	0.0080002	5.7915e-08	4.55e-07	0.016645	0.0017184	1.4422e-07	2.4775e-07	0.046874	0.0014194	0.0082184	0.0014098	7.0255e-07	0.0012127	-1.0632e-05	-2.8109e-05	-4.9401e-06	-0.20659	-2.7443e-07	-1.9878e-07	-0.13287	-0.043347	-1.9432e-07	-3.5066e-07	-0.13616	-0.027476	-0.061786	-0.0056076	-2.7525e-07	-0.010302	135.675	-59.470	-129.539	210.947	-137.512	18.024	27.942	-124.701	-57.476	47.780	126.706	-137.516	54.110	-16.359	-79.376	201.448	-8191	255	
41059.727	1	1	0	0	0.33419	0.11919	0.15424	0.20782	0.20427	0.095867	0.031432	0.083887	0.14784	0.25277	0.18225	0.18753	0.19883	0.22099	0.083724	0.16662	-0.74167	-1.4583	-1.3083	-1.4042	-1.6479	-1.3479	-1.7062	-1.3833	-1.3417	-1.6604	-1.4583	-1.2917	-1.55	-1.0896	-1.3771	-1.4729	-28.711	69.690	79.646	227.288	202.649	86.943	177.161	69.910	247.726	-17.802	251.795	120.546	36.629	84.214	126.651	165.673	2.318e-06	1.2007e-05	4.8405e-06	0.023324	5.204e-07	8.5791e-07	0.035334	0.0099382	2.8262e-07	8.5969e-07	0.035874	0.010573	0.013609	0.0011365	3.831e-07	0.0011534	-7.42e-06	-2.791e-05	-4.233e-06	-0.15635	-2.8209e-07	-1.8802e-07	-0.14253	-0.043805	-1.9028e-07	-3.2669e-07	-0.16014	-0.022147	-0.05742	-0.0055557	-2.7985e-07	-0.011791	187.457	-27.038	-86.141	189.871	-75.457	89.412	28.142	-70.061	-73.526	127.686	-54.998	212.437	243.735	255.964	249.867	183.243	-8191	255	
41059.824	1	1	0	0	0.070865	0.27581	0.14501	0.16768	0.31743	0.093543	0.057668	0.11528	0.058415	0.10152	0.019322	0.2436	0.064712	0.17891	0.13406	0.14335	-0.85208	-1.5604	-1.3333	-1.4688	-1.7646	-1.0521	-1.6833	-1.6896	-1.1562	-1.7792	-1.5	-1.3875	-1.5708	-1.2208	-1.5854	-1.4542	164.849	435.489	239.305	286.354	94.584	97.168	142.186	138.741	216.286	304.326	355.005	296.334	164.696	411.769	299.643	317.766	2.3997e-06	1.5006e-05	1.0542e-05	0.031173	2.8448e-07	3.9972e-07	0.040148	0.0098993	1.6825e-07	8.0968e-08	0.019534	0.0083966	0.012935	0.00031978	1.131e-06	0.0021403	-6.2663e-06	-2.8442e-05	-6.2611e-06	-0.17001	-2.9739e-07	-1.9915e-07	-0.12592	-0.044034	-1.8085e-07	-3.1489e-07	-0.1741	-0.021048	-0.058657	-0.006428	-2.6605e-07	-0.01147	159.121	363.253	160.493	320.702	362.452	375.589	425.171	104.813	211.566	291.147	431.505	265.110	168.408	420.487	130.233	196.264	-8191	255	
41059.945	1	1	0	0	0.10252	0.18064	0.10134	0.093408	0.095447	0.24481	0.21885	0.16824	0.35532	0.37878	0.16491	0.10324	0.18236	0.043639	0.17454	0.23789	-0.70625	-1.5521	-1.4104	-1.2479	-1.8396	-1.0854	-1.6375	-1.3896	-1.0812	-1.7167	-1.4042	-1.1833	-1.6938	-1.3771	-1.5875	-1.7292	340.706	508.712	403.507	295.339	451.776	214.905	437.689	437.664	193.818	457.068	285.635	283.308	357.632	465.743	344.861	152.084	5.6181e-06	1.3715e-05	6.2135e-06	0.061963	2.6412e-07	4.2754e-07	0.035147	0.0060788	2.0733e-07	7.1345e-08	0.034585	0.003135	0.011981	0.0017454	1.353e-07	0.0018211	-7.5105e-06	-2.6646e-05	-6.103e-06	-0.17001	-2.9565e-07	-1.8802e-07	-0.13067	-0.044378	-1.9432e-07	-3.2743e-07	-0.1599	-0.022713	-0.065498	-0.0060853	-2.5402e-07	-0.011966	309.179	500.072	352.190	429.054	358.754	464.737	205.135	168.915	275.982	287.676	509.091	462.205	288.198	323.410	418.703	305.804	-8191	255	
41060.016	1	1	0	0	0.10784	0.18948	0.23529	0.13737	0.06612	0.11903	0.1619	0.14922	0.30499	0.33385	0.19328	0.17508	0.063345	0.28024	0.1178	0.10197	-0.70417	-1.5354	-1.625	-1.1333	-1.775	-1.3208	-1.4917	-1.7667	-1.1167	-1.6292	-1.5292	-1.3646	-1.925	-1.3333	-1.4062	-1.8125	105.627	212.660	196.588	280.606	214.201	185.696	145.219	75.731	71.532	41.813	-37.973	173.911	-0.643	139.168	68.114	123.188	5.3389e-06	4.7113e-05	7.5576e-06	0.014695	3.5186e-07	1.9897e-07	0.029911	0.014358	2.9046e-07	8.4102e-08	0.040847	0.0019032	0.022942	0.0023131	5.5709e-07	0.003067	-8.2797e-06	-2.9174e-05	-6.0285e-06	-0.13318	-3.0574e-07	-2.4291e-07	-0.12016	-0.047642	-2.2093e-07	-2.9793e-07	-0.18155	-0.019849	-0.067899	-0.0073522	-2.4553e-07	-0.012039	104.370	213.589	-28.626	148.977	-67.491	-18.122	92.050	-52.644	48.334	106.980	227.267	247.765	61.187	8.235	195.693	129.219	-8191	255	
41060.113	1	1	0	0	0.13997	0.08475	0.20569	0.032785	0.21646	0.16109	0.13951	0.058948	0.2213	0.038215	0.15334	0.16165	0.18234	0.40404	0.13906	0.025008	-0.71042	-1.5521	-1.4604	-1.3208	-1.6771	-1.5042	-1.3563	-1.5812	-1.3	-1.4708	-1.8167	-1.1063	-1.675	-1.4479	-1.2375	-1.525	199.590	241.611	122.848	133.733	280.521	113.595	138.351	206.585	129.064	173.197	123.814	197.621	425.148	392.998	158.315	216.433	2.0287e-06	4.74e-05	1.9764e-05	0.046525	5.3665e-08	1.5415e-07	0.064288	0.0097013	2.7497e-07	3.1573e-07	0.03177	0.0069131	0.015741	0.0028407	4.884e-07	0.0025611	-9.5013e-06	-2.5548e-05	-7.4799e-06	-0.13464	-3.1304e-07	-2.4921e-07	-0.10575	-0.050104	-2.1217e-07	-2.8724e-07	-0.19482	-0.019916	-0.062659	-0.0080272	-2.1227e-07	-0.011134	153.568	304.397	163.433	210.745	165.355	443.796	211.080	126.753	116.500	415.216	306.676	191.676	146.922	127.837	245.775	260.743	-8191	255	
41060.207	1	1	0	0	0.20061	0.19867	0.090081	0.09348	0.074075	0.2005	0.14805	0.19763	0.014937	0.28383	0.21911	0.23136	0.088899	0.33363	0.080013	0.056308	-0.63333	-1.6021	-1.4729	-1.2667	-1.6458	-1.475	-1.2396	-1.8167	-1.2604	-1.5583	-1.7521	-1.1333	-1.6521	-1.6063	-1.2771	-1.7979	24.189	111.888	191.942	-3.081	93.109	188.973	-13.337	39.839	85.429	266.715	38.232	178.539	293.465	7.692	74.960	24.382	2.6115e-06	3.8342e-05	8.6769e-06	0.016065	4.8317e-07	4.7341e-07	0.021358	0.002411	3.5347e-07	2.7397e-07	0.023079	0.010971	0.0068098	0.0021496	4.9904e-07	0.001453	-9.2524e-06	-2.1689e-05	-7.7497e-06	-0.12098	-2.8487e-07	-2.8259e-07	-0.10559	-0.047642	-2.2362e-07	-2.7212e-07	-0.17014	-0.01935	-0.058511	-0.0078818	-1.8963e-07	-0.012725	116.370	285.350	-18.122	112.048	52.145	97.608	139.079	-2.066	223.931	96.690	77.327	9.678	47.623	73.110	227.597	58.734	-8191	255	
41060.305	1	1	0	0	0.12885	0.040269	0.17495	0.28195	0.074809	0.17974	0.41782	0.20789	0.28157	0.12579	0.2166	0.10384	0.27939	0.092516	0.084334	0.20567	-0.77708	-1.3813	-1.7354	-1.2292	-1.5854	-1.6021	-1.2792	-1.4875	-1.3104	-1.2938	-1.5688	-1.2146	-1.6938	-1.5792	-1.2604	-1.7458	169.680	74.868	112.640	138.175	78.730	191.185	34.667	42.730	34.424	144.080	85.355	149.758	-120.165	138.176	181.124	17.164	2.0345e-06	2.96e-05	3.4717e-06	0.017659	2.0269e-07	3.2893e-07	0.015889	0.01351	1.8494e-07	3.0898e-07	0.04391	0.0011347	0.013986	0.0028908	8.6521e-07	0.0038094	-1.0926e-05	-2.2853e-05	-7.9264e-06	-0.15122	-2.6782e-07	-2.9186e-07	-0.10575	-0.047699	-2.1857e-07	-2.2197e-07	-0.20762	-0.017018	-0.056546	-0.0082037	-2.1086e-07	-0.01217	-97.550	-6.136	20.744	32.069	166.822	-13.932	87.300	-104.724	-39.756	73.831	-105.381	-88.923	-48.432	160.002	31.192	-98.621	-8191	255	
41060.426	1	1	0	0	0.012803	0.14309	0.10696	0.15514	0.1132	0.11441	0.13174	0.088986	0.13622	0.37604	0.13551	0.055237	0.076729	0.098074	0.16151	0.29491	-0.9625	-1.1833	-1.7396	-1.1958	-1.6042	-1.4979	-1.0479	-1.5667	-1.3792	-1.3312	-1.6854	-1.2208	-1.3813	-1.7146	-1.3062	-1.7167	168.306	231.814	214.616	79.547	51.835	66.549	262.942	317.248	176.372	230.685	238.173	7.974	46.654	63.396	245.956	279.071	4.6122e-06	2.8948e-05	8.8154e-06	0.044472	1.1149e-07	3.8392e-07	0.055386	0.008134	3.6551e-07	1.298e-07	0.040626	0.0050763	0.014263	0.00076607	1.0254e-07	0.003975	-8.9583e-06	-2.109e-05	-8.6707e-06	-0.12074	-2.4765e-07	-3.13e-07	-0.082367	-0.046038	-2.3305e-07	-2.5922e-07	-0.19784	-0.020515	-0.054072	-0.0087749	-1.9741e-07	-0.011674	229.898	202.684	186.799	227.588	93.531	296.141	29.446	6.260	334.358	144.124	136.505	54.292	235.525	338.908	325.033	96.265	-8191	255	
41060.520	1	1	0	0	0.15944	0.2784	0.14715	0.13221	0.24591	0.26992	0.022843	0.12613	0.23523	0.18515	0.26932	0.099226	0.13234	0.2129	0.28748	0.16197	-1.0063	-1.0917	-1.5896	-1.2208	-1.6396	-1.5583	-1.3188	-1.6604	-1.575	-1.3479	-1.8125	-1.4854	-1.4229	-1.8667	-1.1729	-1.6437	170.929	301.445	286.036	396.303	287.647	130.860	416.645	300.195	301.388	303.061	298.010	263.296	257.564	262.893	93.943	319.903	8.2777e-07	2.4254e-05	1.0848e-05	0.048435	4.4394e-07	3.7165e-07	0.054001	0.014024	3.3635e-07	1.8418e-07	0.0137	0.0032204	0.013113	0.0021062	7.9755e-08	0.00050483	-1.0361e-05	-1.8861e-05	-8.2799e-06	-0.15171	-2.6678e-07	-3.1003e-07	-0.086943	-0.042774	-2.4787e-07	-2.264e-07	-0.20948	-0.021448	-0.047377	-0.0086399	-2.0024e-07	-0.010769	261.104	389.685	97.715	261.245	174.371	268.785	332.857	78.486	106.185	61.510	136.913	256.039	160.804	72.027	342.493	95.845	-8191	255	
41060.617	1	1	0	0	0.253	0.087499	0.22382	0.22672	0.24368	0.06982	0.15638	0.3188	0.14865	0.24149	0.21743	0.2168	0.3292	0.24527	0.51188	0.084074	-1.1063	-1.1542	-1.8813	-1.4479	-1.2771	-1.8021	-1.3604	-1.5479	-1.5479	-1.3	-1.7354	-1.4312	-1.4562	-1.7687	-1.0812	-1.5938	184.732	365.853	307.697	508.295	285.780	239.200	440.954	515.941	211.596	276.515	339.924	497.898	305.072	476.479	414.404	181.000	3.714e-06	4.1913e-06	1.3706e-05	0.034734	3.5734e-07	5.667e-07	0.036176	0.0061846	4.0982e-07	2.6096e-07	0.068483	0.0038162	0.012381	0.00090623	6.9696e-07	0.0021058	-1.3279e-05	-1.8861e-05	-8.1032e-06	-0.15366	-2.7026e-07	-3.0299e-07	-0.099484	-0.044435	-2.6101e-07	-2.4557e-07	-0.19389	-0.023979	-0.049924	-0.0097926	-2.0555e-07	-0.011221	402.905	421.974	456.185	362.708	459.562	309.374	258.502	187.667	292.342	279.259	307.357	337.031	519.929	510.121	300.894	415.046	-8191	255	
41060.711	1	1	0	0	0.13983	0.1611	0.27707	0.3133	0.23176	0.13048	0.19325	0.20503	0.11552	0.34366	0.15182	0.093934	0.15519	0.15555	0.16555	0.16116	-1.0646	-1.2604	-1.6167	-1.3771	-1.1229	-1.8021	-1.3354	-1.6375	-1.6958	-1.1938	-1.5958	-1.3438	-1.2396	-1.8396	-1.4354	-1.4521	242.232	140.301	142.593	59.504	149.507	124.929	-4.791	258.475	105.019	-12.544	13.822	49.132	83.746	77.368	150.835	-32.140	6.9604e-06	2.7303e-05	2.5708e-06	0.026598	7.1291e-07	1.1876e-07	0.034252	0.010457	3.3513e-07	1.7081e-07	0.050929	0.0046255	0.009556	0.0015912	4.0124e-07	0.004237	-1.3777e-05	-1.7464e-05	-8.1125e-06	-0.16757	-2.1322e-07	-3.2969e-07	-0.093044	-0.043175	-2.9098e-07	-2.0317e-07	-0.17759	-0.024612	-0.037843	-0.0096056	-2.3987e-07	-0.009879	144.231	92.148	216.965	-55.658	197.598	84.003	-18.071	-59.104	142.779	126.131	209.133	153.983	188.676	101.055	239.051	-4.505	-8191	255	
41060.809	1	1	0	0	0.27332	0.064541	0.1508	0.18748	0.08314	0.23845	0.21054	0.23857	0.083503	0.21077	0.28117	0.094282	0.31165	0.079436	0.072952	0.14435	-1.3667	-0.96875	-1.825	-1.5625	-1.0896	-1.875	-1.3271	-1.4646	-1.65	-1.1854	-1.6396	-1.4646	-1.1708	-1.8854	-1.2542	-1.3833	192.497	269.418	176.434	-57.324	121.427	-18.199	168.856	28.942	87.155	-33.885	-33.608	213.820	-42.140	285.628	175.861	222.150	4.733e-06	3.1838e-05	1.4873e-05	0.035835	5.4807e-07	4.3927e-07	0.017497	0.0074225	1.2254e-07	2.0374e-07	0.039655	0.0025944	0.0047098	0.001029	2.5875e-07	0.0010325	-1.4229e-05	-1.9693e-05	-7.5822e-06	-0.18952	-2.0522e-07	-3.3302e-07	-0.11457	-0.034357	-3.1119e-07	-2.4189e-07	-0.18946	-0.025244	-0.045848	-0.0094395	-2.5897e-07	-0.0097914	289.413	164.425	249.402	218.974	51.787	62.115	154.941	-52.196	36.733	79.866	75.422	-48.074	160.912	153.088	216.013	-20.016	-8191	255	
41060.902	1	1	0	0	0.17907	0.20577	0.065815	0.10973	0.057604	0.090064	0.25233	0.17333	0.046791	0.25332	0.29008	0.11704	0.24791	0.28573	0.17991	0.050423	-1.2958	-1.1167	-1.5354	-1.4521	-1.3375	-1.7437	-1.3604	-1.4062	-1.7313	-1.3104	-1.6313	-1.6333	-1.3104	-1.5812	-1.4667	-1.3563	116.517	266.743	220.385	25.750	230.923	284.182	60.767	231.988	43.747	310.008	8.369	79.760	147.408	-4.071	-3.518	-9.820	5.3864e-06	3.194e-05	1.5924e-06	0.046804	4.6035e-07	3.2728e-07	0.01574	0.0059989	3.7677e-07	4.7461e-07	0.041442	0.0097201	0.022165	0.0027573	6.5793e-07	0.0017085	-1.5066e-05	-1.6866e-05	-6.7635e-06	-0.19001	-1.9339e-07	-3.3747e-07	-0.10643	-0.034013	-2.9637e-07	-2.2345e-07	-0.19482	-0.025877	-0.040609	-0.0088787	-2.5933e-07	-0.0085073	99.347	229.429	175.149	308.653	158.025	-40.930	253.658	-29.654	265.525	6.613	127.759	16.791	267.452	168.004	173.214	275.979	-8191	255	
41061.023	1	1	0	0	0.24447	0.50742	0.23211	0.13908	0.13479	0.033297	0.18244	0.10387	0.11874	0.16908	0.10022	0.29798	0.219	0.069214	0.16471	0.18208	-1.3583	-1.1542	-1.4708	-1.7208	-1.2083	-1.5625	-1.6125	-1.2375	-1.75	-1.475	-1.5583	-1.7229	-1.2771	-1.6792	-1.6604	-1.2021	204.203	33.291	88.193	-13.251	235.613	182.081	262.774	-26.463	-15.988	-37.082	207.386	107.571	54.828	122.188	233.265	218.966	7.4185e-06	4.1201e-06	7.4738e-06	0.037888	9.7012e-08	5.2904e-07	0.034859	0.018638	2.2432e-07	6.202e-07	0.052597	0.0058077	0.0083882	0.001606	6.2395e-08	0.0026397	-1.5677e-05	-2.119e-05	-6.9217e-06	-0.23074	-1.9617e-07	-3.3599e-07	-0.13033	-0.038594	-2.8997e-07	-2.6954e-07	-0.16246	-0.029441	-0.043665	-0.008941	-2.4341e-07	-0.0082447	72.505	-20.985	232.313	216.150	68.857	253.143	189.831	-33.093	68.177	276.419	109.004	242.314	-28.907	2.658	171.743	219.913	-8191	255	
41061.121	1	1	0	0	0.28084	0.17093	0.32263	0.29546	0.15739	0.22024	0.21886	0.045061	0.2634	0.268	0.061672	0.15954	0.12079	0.17814	0.0098771	0.056491	-1.3771	-1.6063	-1.4354	-1.8125	-1.4667	-1.6271	-1.4458	-1.2563	-2.0083	-1.3104	-1.4979	-1.7375	-1.2687	-1.6917	-1.7792	-1.3021	259.507	338.724	159.213	107.543	0.951	120.510	-7.749	183.634	193.705	25.215	39.296	204.106	11.628	280.305	57.616	310.887	5.379e-06	3.1412e-05	4.8511e-06	0.023579	1.469e-07	3.5133e-07	0.066145	0.012521	1.2938e-07	6.6444e-07	0.045009	0.000593	0.01074	0.0020335	6.4955e-07	0.0029075	-1.5473e-05	-2.2321e-05	-6.81e-06	-0.20976	-1.8991e-07	-3.1856e-07	-0.13135	-0.039052	-3.0883e-07	-2.4631e-07	-0.14454	-0.026643	-0.041409	-0.0085464	-2.6746e-07	-0.0089159	159.414	39.171	221.755	160.819	57.001	171.889	69.969	-0.527	168.599	149.292	196.947	63.663	79.755	131.747	287.104	221.669	-8191	255	
41061.215	1	1	0	0	0.14281	0.2885	0.095674	0.071625	0.068336	0.11273	0.067702	0.051745	0.095937	0.17592	0.22433	0.084017	0.28429	0.10342	0.18401	0.38353	-1.4792	-1.3625	-1.4604	-1.8062	-1.3792	-1.825	-1.5938	-1.1208	-1.9042	-1.2979	-1.3146	-1.8083	-1.3021	-1.4625	-1.6104	-1.2896	163.572	132.113	319.664	34.880	219.227	90.581	100.872	266.138	200.163	38.232	185.459	303.948	239.765	-15.412	-6.675	263.153	6.0213e-06	1.2098e-05	5.5541e-06	0.024207	8.264e-08	5.1434e-07	0.0079089	0.0097855	4.2397e-07	3.7053e-07	0.039871	0.004189	0.01323	0.0012977	5.2812e-07	0.0014932	-1.4953e-05	-2.5947e-05	-5.4796e-06	-0.22489	-2.2469e-07	-2.8259e-07	-0.14745	-0.030406	-2.9738e-07	-2.7028e-07	-0.14268	-0.030273	-0.045848	-0.0079026	-3.0709e-07	-0.0077923	198.388	76.205	145.682	259.212	145.212	41.079	108.675	-21.056	75.775	151.531	70.889	86.433	54.825	36.440	56.326	222.807	-8191	255	
41061.312	1	1	0	0	0.21421	0.21405	0.11918	0.1686	0.14441	0.15079	0.12471	0.11585	0.086897	0.1595	0.14476	0.14457	0.211	0.32221	0.11318	0.12846	-1.3188	-1.3646	-1.3312	-1.7354	-1.3771	-1.5229	-1.6917	-1.325	-1.8021	-1.6875	-1.2208	-1.5146	-1.4083	-1.6187	-1.7708	-1.1625	311.980	280.588	190.181	238.197	147.275	359.320	66.012	179.809	380.709	341.695	223.192	150.872	297.028	228.437	80.538	166.692	2.8552e-06	4.7092e-05	7.0333e-06	0.055737	4.3469e-07	1.0564e-06	0.026522	0.0037995	2.9356e-07	5.6654e-07	0.029985	0.0068291	0.0070313	0.0017751	2.7554e-07	0.0034882	-1.5632e-05	-2.3452e-05	-5.4517e-06	-0.21708	-2.1356e-07	-2.6034e-07	-0.14626	-0.035674	-3.0176e-07	-2.9793e-07	-0.12522	-0.032971	-0.047522	-0.0074457	-2.9081e-07	-0.0078215	120.122	350.740	194.670	256.686	289.640	235.355	251.053	71.987	65.630	77.471	370.232	239.493	391.167	297.237	176.744	290.458	-8191	255	
#DATA ENDS
