BOXY.EXE: ISS Imagent and Oximeter Data Acquisition Program Version 0.80
Ascii Record File

#ACQ INFORMATION
2  Detector Channels 
16  External MUX Channels 
1  Auxiliary Channels 
5000  Waveform (CCF) Frequency (Hz)
1  Waveforms Skipped 
30  Waveforms Averaged 
1  Cycles Averaged 
16  Acquisitions per Waveform 
10.0806  Updata Rate (Hz) 

#FILE INFORMATION
TRUE -- External MUX Channel results are PARSED.
FALSE -- AC DC and Phase are NOT grouped.
TRUE -- Companion Program Settings File CREATED.
FALSE -- AC data not excluded
FALSE -- DC data not excluded
FALSE -- Phase data not excluded
FALSE -- Auxillary Chn. data not excluded
Tab delimiters

#CALIBRATION STATE
TRUE -- Waveform Calibration Values APPLIED.


#AUX CALIBRATION VALUES
Val Type	aux-1	

Term	1.0000e+00	
Factor	0.0000e+00	


#WF CALIBRATION VALUES
A = Detector Channel
Val Type	A-AC1	A-AC2	A-AC3	A-AC4	A-AC5	A-AC6	A-AC7	A-AC8	A-AC9	A-AC10	A-AC11	A-AC12	A-AC13	A-AC14	A-AC15	A-AC16	A-DC1	A-DC2	A-DC3	A-DC4	A-DC5	A-DC6	A-DC7	A-DC8	A-DC9	A-DC10	A-DC11	A-DC12	A-DC13	A-DC14	A-DC15	A-DC16	A-Ph1	A-Ph2	A-Ph3	A-Ph4	A-Ph5	A-Ph6	A-Ph7	A-Ph8	A-Ph9	A-Ph10	A-Ph11	A-Ph12	A-Ph13	A-Ph14	A-Ph15	A-Ph16	

Term	0.00000e+00	0.00000e+00	0.00000e+00	0.00000e+00	0.00000e+00	0.00000e+00	0.00000e+00	0.00000e+00	0.00000e+00	0.00000e+00	0.00000e+00	0.00000e+00	0.00000e+00	0.00000e+00	0.00000e+00	0.00000e+00	0.00000e+00	0.00000e+00	0.00000e+00	0.00000e+00	0.00000e+00	0.00000e+00	0.00000e+00	0.00000e+00	0.00000e+00	0.00000e+00	0.00000e+00	0.00000e+00	0.00000e+00	0.00000e+00	0.00000e+00	0.00000e+00	0.00000e+00	0.00000e+00	0.00000e+00	0.00000e+00	0.00000e+00	0.00000e+00	0.00000e+00	0.00000e+00	0.00000e+00	0.00000e+00	0.00000e+00	0.00000e+00	0.00000e+00	0.00000e+00	0.00000e+00	0.00000e+00	
Factor	1.00000e+00	1.00000e+00	1.00000e+00	1.00000e+00	1.00000e+00	1.00000e+00	1.00000e+00	1.00000e+00	1.00000e+00	1.00000e+00	1.00000e+00	1.00000e+00	1.00000e+00	1.00000e+00	1.00000e+00	1.00000e+00	1.00000e+00	1.00000e+00	1.00000e+00	1.00000e+00	1.00000e+00	1.00000e+00	1.00000e+00	1.00000e+00	1.00000e+00	1.00000e+00	1.00000e+00	1.00000e+00	1.00000e+00	1.00000e+00	1.00000e+00	1.00000e+00	X	X	X	X	X	X	X	X	X	X	X	X	X	X	X	X	

B = Detector Channel
Val Type	B-AC1	B-AC2	B-AC3	B-AC4	B-AC5	B-AC6	B-AC7	B-AC8	B-AC9	B-AC10	B-AC11	B-AC12	B-AC13	B-AC14	B-AC15	B-AC16	B-DC1	B-DC2	B-DC3	B-DC4	B-DC5	B-DC6	B-DC7	B-DC8	B-DC9	B-DC10	B-DC11	B-DC12	B-DC13	B-DC14	B-DC15	B-DC16	B-Ph1	B-Ph2	B-Ph3	B-Ph4	B-Ph5	B-Ph6	B-Ph7	B-Ph8	B-Ph9	B-Ph10	B-Ph11	B-Ph12	B-Ph13	B-Ph14	B-Ph15	B-Ph16	

Term	0.00000e+00	0.00000e+00	0.00000e+00	0.00000e+00	0.00000e+00	0.00000e+00	0.00000e+00	0.00000e+00	0.00000e+00	0.00000e+00	0.00000e+00	0.00000e+00	0.00000e+00	0.00000e+00	0.00000e+00	0.00000e+00	0.00000e+00	0.00000e+00	0.00000e+00	0.00000e+00	0.00000e+00	0.00000e+00	0.00000e+00	0.00000e+00	0.00000e+00	0.00000e+00	0.00000e+00	0.00000e+00	0.00000e+00	0.00000e+00	0.00000e+00	0.00000e+00	-6.59245e+01	-1.24734e+02	-1.31290e+02	-1.83070e+02	-4.71720e+01	-6.49150e+01	-1.56663e+02	-1.62015e+02	-3.94459e+01	-6.42214e+01	-1.71114e+02	-1.71480e+02	-1.80686e+02	-1.76770e+02	-5.03157e+01	-1.49850e+02	
Factor	1.94318e-05	1.90944e-04	4.49887e-05	1.63081e-01	1.59961e-06	1.69595e-06	1.94177e-01	5.42487e-02	1.28390e-06	1.65075e-06	1.08414e-01	3.13847e-02	2.95052e-02	9.61121e-03	1.53840e-06	1.41149e-02	5.54059e-06	6.76180e-06	1.88700e-06	8.26207e-02	7.18682e-08	7.45135e-08	9.21061e-02	2.75920e-02	7.18242e-08	7.41166e-08	5.30887e-02	1.54427e-02	1.51454e-02	4.92050e-03	7.23774e-08	6.95805e-03	X	X	X	X	X	X	X	X	X	X	X	X	X	X	X	X	



#DISTANCE SETTINGS
A = Detector Channel
A-1	A-2	A-3	A-4	A-5	A-6	A-7	A-8	A-9	A-10	A-11	A-12	A-13	A-14	A-15	A-16	

2.5000e+00	3.0000e+00	2.5000e+00	3.0000e+00	2.0000e+00	3.0000e+00	1.5000e+00	3.0000e+00	3.0000e+00	3.0000e+00	3.0000e+00	3.0000e+00	3.0000e+00	3.0000e+00	1.5000e+00	3.0000e+00	

B = Detector Channel
B-1	B-2	B-3	B-4	B-5	B-6	B-7	B-8	B-9	B-10	B-11	B-12	B-13	B-14	B-15	B-16	

1.0000e+01	1.0000e+01	1.0000e+01	1.4400e+00	1.0000e+01	1.0000e+01	1.5100e+00	1.9400e+00	1.0000e+01	1.0000e+01	1.9900e+00	2.4900e+00	2.4100e+00	2.9000e+00	1.0000e+01	2.9800e+00	




#DATA BEGINS
time	group	step	mark	flag	A-AC1	A-AC2	A-AC3	A-AC4	A-AC5	A-AC6	A-AC7	A-AC8	A-AC9	A-AC10	A-AC11	A-AC12	A-AC13	A-AC14	A-AC15	A-AC16	A-DC1	A-DC2	A-DC3	A-DC4	A-DC5	A-DC6	A-DC7	A-DC8	A-DC9	A-DC10	A-DC11	A-DC12	A-DC13	A-DC14	A-DC15	A-DC16	A-Ph1	A-Ph2	A-Ph3	A-Ph4	A-Ph5	A-Ph6	A-Ph7	A-Ph8	A-Ph9	A-Ph10	A-Ph11	A-Ph12	A-Ph13	A-Ph14	A-Ph15	A-Ph16	B-AC1	B-AC2	B-AC3	B-AC4	B-AC5	B-AC6	B-AC7	B-AC8	B-AC9	B-AC10	B-AC11	B-AC12	B-AC13	B-AC14	B-AC15	B-AC16	B-DC1	B-DC2	B-DC3	B-DC4	B-DC5	B-DC6	B-DC7	B-DC8	B-DC9	B-DC10	B-DC11	B-DC12	B-DC13	B-DC14	B-DC15	B-DC16	B-Ph1	B-Ph2	B-Ph3	B-Ph4	B-Ph5	B-Ph6	B-Ph7	B-Ph8	B-Ph9	B-Ph10	B-Ph11	B-Ph12	B-Ph13	B-Ph14	B-Ph15	B-Ph16	aux-1	digaux	

1531.630	1	1	0	256	0.31945	0.14496	0.058725	0.19824	0.21273	0.33217	0.16323	0.13647	0.16229	0.40187	0.1325	0.12681	0.064232	0.26569	0.13733	0.31458	-2.0292	-1.9833	-2.1667	-2.1167	-1.9292	-2.3708	-2.1708	-2.0625	-2.2104	-2.0396	-2.3083	-2.3396	-1.9083	-2.4542	-2.0938	-1.9458	337.883	242.779	223.082	435.542	271.556	441.567	451.530	260.997	426.742	196.226	225.185	504.514	324.034	421.885	196.235	231.772	0.00035124	0.00021864	0.00010116	172.11	2.1274e-06	3.3316e-06	518.61	91.714	2.164e-06	3.3258e-06	224.04	70.034	25.428	12.103	4.1347e-06	36.051	0.00034541	0.00035363	9.5954e-05	162.47	3.6794e-06	3.6006e-06	484.59	86.564	3.6322e-06	3.7492e-06	211.4	65.979	24.396	11.636	3.8331e-06	34.292	260.690	294.612	205.155	169.680	299.380	381.930	168.621	173.485	314.088	246.179	172.658	177.823	178.861	181.894	271.127	181.014	-8191	255	
1531.703	1	1	0	0	0.20835	0.32776	0.17308	0.1362	0.24734	0.067661	0.18055	0.08998	0.083345	0.31798	0.26643	0.15084	0.15825	0.090084	0.026177	0.2022	-1.9792	-1.9813	-2.0833	-2.2188	-1.7958	-2.2833	-2.0917	-2.1958	-2.5208	-2.0062	-1.9604	-2.2104	-2.0521	-2.2792	-2.2042	-1.7896	449.077	504.615	340.247	486.335	464.618	262.464	411.516	324.575	300.471	371.507	213.890	424.827	451.305	451.009	184.331	488.743	0.00037601	0.00016666	8.091e-05	173.98	4.4548e-06	7.1664e-07	521.5	91.819	4.0852e-06	2.0959e-06	222.85	69.359	25.154	11.976	3.5032e-06	35.697	0.00035131	0.00033999	9.4971e-05	164.63	3.6843e-06	3.8174e-06	485.55	86.637	3.6765e-06	3.7958e-06	209.63	65.189	24.122	11.5	3.6153e-06	33.989	263.150	260.277	254.692	168.997	267.320	509.530	168.916	173.419	322.787	287.462	172.489	177.753	178.443	182.089	314.817	180.782	-8191	255	
1531.822	1	1	0	0	0.30861	0.087727	0.29473	0.081463	0.16735	0.059558	0.050799	0.1315	0.024952	0.049203	0.089727	0.21902	0.1583	0.25847	0.36865	0.13564	-2.0854	-1.8417	-2.1083	-2.2375	-1.9896	-2.2792	-2.2229	-2.1042	-2.6167	-2.0417	-2.2729	-2.3125	-1.9646	-2.3667	-2.2417	-1.9438	347.218	314.044	249.513	408.896	439.880	479.859	303.320	365.934	491.790	475.566	449.612	164.056	218.033	204.989	391.435	316.097	0.00032119	0.00044167	2.7171e-05	170.99	1.1308e-06	4.2644e-06	515.23	90.732	2.5462e-06	2.6571e-06	221.33	68.579	25.214	11.923	3.581e-06	35.879	0.0003478	0.00035461	9.47e-05	162.19	3.6795e-06	3.7463e-06	481.12	85.675	3.7109e-06	3.7268e-06	207.62	64.736	24.063	11.517	3.6246e-06	33.946	260.803	243.608	245.113	169.677	256.674	293.893	168.381	173.321	315.175	269.263	172.217	178.025	178.228	181.862	321.310	180.712	-8191	255	
1531.918	1	1	0	0	0.15798	0.15923	0.16388	0.09702	0.15875	0.045521	0.15514	0.14714	0.13918	0.1988	0.15575	0.18731	0.081511	0.12811	0.30629	0.25512	-1.8813	-1.9	-2.1229	-2.4542	-2.0292	-2.3292	-2.1937	-1.9792	-2.3187	-2.1146	-1.9667	-2.35	-1.9813	-2.1771	-2.3917	-1.9396	191.956	346.269	399.904	173.727	234.064	343.269	450.498	275.277	357.780	193.139	462.606	404.231	505.962	320.540	313.034	362.813	0.00035347	0.00031302	0.00010634	172.72	2.5345e-06	1.4675e-06	511.79	90.977	2.5011e-06	3.076e-06	223.57	68.901	25.506	12.071	4.096e-06	35.835	0.000359	0.00033534	9.4263e-05	162.22	3.7515e-06	3.8312e-06	479.91	85.911	3.7583e-06	3.7977e-06	210.55	65.275	24.225	11.498	3.6335e-06	33.865	255.536	277.330	272.533	170.096	415.024	345.765	168.967	173.270	316.742	317.733	172.088	178.195	178.668	181.707	307.547	180.992	-8191	255	
1532.014	1	1	0	0	0.066149	0.2196	0.24106	0.23	0.12133	0.10095	0.1204	0.13874	0.088336	0.11685	0.052823	0.030242	0.087477	0.10989	0.07363	0.17388	-1.8	-2.0229	-1.8813	-2.2875	-2.2625	-2	-2.45	-1.9042	-2.2875	-2.3458	-1.9625	-2.3896	-1.8333	-2.2271	-2.4917	-2.0958	426.362	203.773	218.527	448.419	276.185	500.412	466.051	189.120	375.511	158.114	295.651	514.445	206.270	282.256	243.389	431.285	0.00034685	0.00073256	0.00010036	171.29	5.3686e-06	5.6359e-06	515.34	93.207	2.7523e-06	3.8965e-06	227.1	69.325	25.336	12.122	3.5826e-06	35.95	0.00036306	0.00034639	9.8006e-05	163.97	3.7144e-06	3.7542e-06	483.7	87.53	3.7729e-06	3.7769e-06	212.41	65.712	24.312	11.59	3.7805e-06	34.124	254.211	279.563	304.885	169.908	277.566	288.462	168.754	172.956	336.354	290.849	172.363	178.284	177.851	182.099	351.238	181.226	-8191	255	
1532.110	1	1	0	0	0.12411	0.097449	0.06425	0.35914	0.077864	0.22715	0.1738	0.24148	0.027496	0.18007	0.15499	0.2043	0.18555	0.2326	0.16569	0.34793	-1.8104	-2.3604	-2.0625	-2.3229	-2.1708	-2.1188	-2.5521	-1.9792	-2.4646	-2.2958	-2.1667	-2.3833	-1.8917	-2.0667	-2.4875	-1.8833	477.432	169.910	186.644	496.389	174.677	191.626	470.923	498.655	287.081	305.783	249.524	431.600	495.640	321.819	411.117	472.697	0.00035024	0.00073288	0.00013268	171.06	4.6611e-06	1.05e-06	516.67	92.82	3.5624e-06	2.8755e-06	227.33	69.106	25.163	11.954	2.3883e-06	35.521	0.00036377	0.00034689	0.00010052	162.53	3.7523e-06	3.9624e-06	481.72	87.574	3.9454e-06	3.9317e-06	211.58	65.032	24.078	11.494	3.8784e-06	33.593	258.340	213.442	236.394	169.509	360.730	371.780	168.291	173.465	289.060	302.624	171.977	177.987	178.329	181.946	405.292	181.004	-8191	255	
1532.231	1	1	0	0	0.077647	0.19564	0.14199	0.11589	0.30934	0.18262	0.32738	0.18818	0.38925	0.31264	0.071184	0.26469	0.18374	0.16784	0.079876	0.047441	-1.75	-2.1771	-1.8875	-2.2833	-2.15	-2.175	-2.5458	-2.0208	-2.2687	-2.2396	-1.9833	-2.2792	-2.2104	-2.1333	-2.4417	-2.1604	488.519	246.667	164.722	482.272	302.893	364.633	512.494	471.675	193.010	499.175	436.720	377.767	252.825	294.151	432.534	468.556	0.00034526	0.00025055	5.7681e-05	171.33	3.9798e-06	2.3123e-06	513.07	93.292	2.5179e-06	2.7688e-06	224.03	68.347	24.959	11.853	1.874e-06	35.159	0.00035889	0.00035685	0.00010011	162.37	3.8568e-06	4.0656e-06	479.74	87.894	3.8213e-06	3.9251e-06	210.67	64.642	24.111	11.424	3.9786e-06	33.43	259.122	260.657	300.555	169.293	250.735	274.534	168.920	172.779	274.245	239.036	171.836	177.993	178.196	181.689	232.304	180.970	-8191	255	
1532.303	1	1	0	0	0.10873	0.11288	0.11136	0.15221	0.39242	0.13459	0.11531	0.013056	0.18657	0.1738	0.10916	0.21869	0.042395	0.15062	0.065829	0.21882	-1.7667	-2.1188	-2.0021	-2.3583	-2.3583	-1.9667	-2.3771	-2.1396	-2.3	-2.4167	-2.0312	-2.2646	-2.1188	-2.1708	-2.3833	-2.1396	317.029	219.162	324.044	308.051	237.714	347.632	268.739	227.018	220.454	471.234	513.374	464.891	495.158	373.444	493.562	445.744	0.00035176	6.6128e-05	8.7642e-05	171	4.149e-06	5.4793e-06	513.61	92.472	2.804e-06	4.0266e-06	226.08	69.568	25.195	12.058	3.9067e-06	35.91	0.00036636	0.00035354	0.00010284	163.18	3.7803e-06	3.9557e-06	480.78	87.458	3.8387e-06	3.9118e-06	212.06	65.523	24.279	11.642	3.8108e-06	34.181	259.600	340.454	205.627	170.281	332.643	316.125	168.663	172.835	348.675	286.920	171.904	177.987	178.579	181.941	368.596	181.000	-8191	255	
1532.423	1	1	0	0	0.17591	0.35379	0.15808	0.29948	0.22427	0.28649	0.47461	0.066107	0.098828	0.20825	0.20626	0.062141	0.068351	0.23834	0.18296	0.38088	-1.6375	-2.4521	-1.8375	-2.4271	-2.0792	-2.1625	-2.5208	-2.1792	-2.2812	-2.2979	-2.0354	-2.1083	-2.2292	-1.8729	-2.4646	-2.2708	495.658	179.429	426.341	425.955	331.177	469.313	192.947	411.037	228.118	485.144	438.097	293.754	325.793	296.413	186.314	454.774	0.00032302	0.00023573	8.5877e-05	172.58	4.0077e-06	3.0683e-06	520.39	92.79	4.0771e-06	1.723e-06	227.04	70.375	25.468	12.162	4.0608e-06	36.133	0.00036959	0.00034954	9.961e-05	163.43	3.71e-06	3.8997e-06	485.9	87.71	3.6846e-06	3.8246e-06	212.83	66.117	24.511	11.775	3.7648e-06	34.323	254.161	438.291	267.649	169.589	387.210	310.765	168.928	173.605	323.380	336.303	172.269	178.325	178.261	181.953	274.955	181.055	-8191	255	
1532.519	1	1	0	0	0.1457	0.1073	0.22699	0.21858	0.11158	0.11054	0.17988	0.18575	0.22625	0.082318	0.22127	0.21148	0.12477	0.21502	0.20988	0.21131	-1.4813	-2.3167	-1.9167	-2.2229	-2.3812	-2.1042	-2.4208	-2.0979	-1.9917	-2.3729	-2.2625	-2.0854	-2.1854	-2.1125	-2.2438	-2.3563	278.567	251.206	265.336	491.676	406.944	232.576	275.763	193.819	399.816	321.791	206.280	413.178	296.548	195.415	290.265	504.093	0.00032259	0.00035555	7.4811e-05	171.16	2.1234e-06	2.0134e-06	513.66	92.167	1.2384e-06	4.0893e-06	224.86	68.993	25.436	12.221	1.6243e-06	36.146	0.00036291	0.00033168	0.00010053	163.09	3.5946e-06	3.785e-06	480.64	87.174	3.6986e-06	3.7071e-06	210.25	65.247	24.328	11.689	3.7288e-06	34.009	264.372	255.897	305.217	169.724	315.374	268.382	168.846	173.434	331.725	300.785	172.793	177.856	178.270	181.980	326.829	181.054	-8191	255	
1532.614	1	1	0	0	0.12419	0.013218	0.3238	0.071046	0.14002	0.16184	0.089644	0.19234	0.20388	0.25438	0.11035	0.073414	0.11708	0.35262	0.10885	0.21838	-1.6292	-2.2604	-1.9333	-2.1833	-2.4521	-2.0396	-2.4146	-2.1646	-2.0208	-2.3375	-1.9854	-1.9	-2.4	-1.9042	-2.2938	-2.3104	207.352	466.592	176.342	383.781	394.165	221.010	300.625	462.814	318.327	432.817	398.040	505.590	419.255	369.647	278.495	361.360	0.00029364	0.00019537	5.0731e-05	170.31	8.6148e-07	9.2974e-07	513.73	92.647	7.5665e-08	1.577e-06	223.95	68.455	25.54	12.002	4.0136e-06	35.821	0.0003508	0.00033979	9.4692e-05	161.82	3.6975e-06	3.7814e-06	479.35	87.175	3.767e-06	3.7969e-06	210.43	64.833	24.35	11.621	3.6725e-06	33.897	258.037	504.520	232.075	169.681	460.891	285.397	168.722	174.039	295.065	278.030	172.153	178.086	179.281	182.218	371.840	180.451	-8191	255	
1532.712	1	1	0	0	0.28578	0.12019	0.25476	0.11958	0.29686	0.081267	0.05227	0.090255	0.20322	0.22404	0.12969	0.13877	0.02284	0.063262	0.35998	0.026838	-1.3729	-2.2333	-2.0083	-2.05	-2.3563	-2.2104	-2.3958	-2.2313	-2.0187	-2.3667	-2.0729	-1.9354	-2.3917	-1.9104	-2.1146	-2.3375	183.129	418.018	165.775	235.372	321.293	437.116	379.464	302.703	280.294	197.219	424.968	294.300	438.570	452.657	173.053	439.656	0.00036358	0.00051131	3.6552e-05	171.81	4.2646e-06	6.978e-07	513.17	92.052	1.2764e-06	3.2648e-06	222.53	68.996	25.237	12.118	2.4405e-06	35.753	0.00035881	0.00033813	9.7208e-05	162.53	3.7523e-06	3.9303e-06	479.01	86.967	3.6967e-06	3.8528e-06	209.88	65.144	24.292	11.724	3.7478e-06	34.104	257.259	270.489	358.612	169.285	293.581	243.409	169.011	173.272	461.508	291.306	172.442	178.010	178.238	182.290	365.239	180.733	-8191	255	
1532.831	1	1	0	0	0.33077	0.11297	0.13669	0.052301	0.15392	0.16965	0.11052	0.024337	0.28644	0.20809	0.20805	0.17798	0.11598	0.22756	0.086519	0.06345	-1.25	-2.25	-2.0687	-1.9	-2.3167	-2.125	-2.1688	-2.3208	-2.0521	-2.5229	-1.9875	-2.0271	-2.2583	-2.1854	-2.0042	-2.3354	461.365	361.400	265.028	411.574	409.186	170.366	439.894	252.409	496.505	283.371	158.697	510.460	230.633	329.308	493.530	412.728	0.00037145	0.0003808	0.00011364	171.77	2.4331e-06	3.4493e-06	515.01	93.012	2.5526e-06	2.2854e-06	225.08	68.775	25.133	11.967	4.9407e-06	35.72	0.00036741	0.00033881	9.7853e-05	163	3.7216e-06	3.9776e-06	481.86	87.801	3.8056e-06	3.8304e-06	210.99	65.035	24.115	11.591	3.8413e-06	33.68	257.932	200.811	314.230	169.194	317.244	331.174	169.238	173.078	296.851	323.709	171.746	178.285	179.144	181.715	362.558	181.017	-8191	255	
1532.927	1	1	0	0	0.37241	0.20884	0.23273	0.14098	0.30099	0.11429	0.26111	0.12193	0.15585	0.31927	0.28599	0.22433	0.11521	0.18867	0.29728	0.22415	-1.4854	-2.0292	-2.0625	-1.8729	-2.2812	-2.0938	-2.1583	-2.4354	-1.9979	-2.2979	-2.2042	-2.0104	-2.1583	-2.0021	-1.9646	-2.3875	403.000	276.798	169.197	356.699	341.636	156.925	288.186	424.325	386.636	271.949	511.471	174.357	212.283	457.351	242.969	483.170	0.00029876	0.00033077	5.6565e-05	169.09	2.2502e-06	3.2422e-06	505.95	92.304	1.5504e-06	5.0157e-06	222.05	68.109	25.138	11.856	4.2145e-06	34.752	0.00036151	0.00035514	9.6559e-05	161.54	3.6347e-06	4.0231e-06	473.76	87.236	3.7654e-06	3.7864e-06	208.14	64.072	24.121	11.464	3.8312e-06	33.16	250.268	313.213	263.401	169.986	280.978	255.595	168.904	173.557	323.602	291.761	172.051	178.110	178.194	182.657	334.766	180.652	-8191	255	
1532.998	1	1	0	0	0.23381	0.084244	0.30495	0.19686	0.17106	0.15473	0.20402	0.1046	0.037991	0.27804	0.21468	0.13276	0.19131	0.38266	0.21441	0.14405	-1.4833	-2.1292	-2.1125	-1.8854	-2.3833	-2.0521	-1.9813	-2.5354	-1.975	-2.5521	-2.2354	-2	-2.375	-2.2042	-2.1396	-2.4667	195.189	216.627	397.763	188.542	183.499	233.151	328.493	359.047	166.409	319.301	445.131	156.299	221.948	310.922	233.071	505.827	0.00039097	0.00037692	9.3909e-05	168.68	3.0815e-06	4.0892e-06	505.75	92.141	1.7603e-06	3.3509e-06	223.32	68.014	25.08	11.95	4.08e-06	35.411	0.00036509	0.00034995	9.5572e-05	160.97	3.8262e-06	3.8238e-06	473.19	87.381	4.0437e-06	3.7546e-06	209.13	64.43	24.149	11.453	3.8309e-06	33.45	253.681	235.163	273.772	169.852	303.302	253.394	169.050	173.663	256.936	246.119	172.474	177.783	178.276	182.384	283.648	181.233	-8191	255	
1533.119	1	1	0	0	0.14824	0.43025	0.061414	0.21526	0.21408	0.27939	0.12997	0.14407	0.25173	0.056578	0.23122	0.23004	0.27698	0.12892	0.31969	0.20142	-1.5375	-2.225	-2.2792	-1.9521	-2.5833	-2.2771	-1.9958	-2.4	-2.125	-2.2812	-2.5708	-2.0021	-2.2771	-2.275	-2.0521	-2.5104	461.634	390.870	319.672	443.848	465.363	263.346	335.647	170.060	474.972	234.035	454.744	379.355	412.641	416.173	504.071	409.324	0.0003831	0.00049261	6.5129e-05	168.1	2.9022e-06	1.9028e-06	512.36	93.532	3.8544e-06	3.9664e-06	223.65	69.098	25.189	11.99	2.0367e-06	35.878	0.00036536	0.00036319	9.8828e-05	160.78	3.8346e-06	3.8235e-06	478.8	87.839	3.8646e-06	3.9936e-06	210.56	65.218	24.286	11.534	3.8716e-06	33.907	251.657	292.119	166.068	170.060	348.682	245.208	168.786	173.649	386.637	339.434	172.311	177.539	178.553	181.658	322.435	181.406	-8191	255	
1533.215	1	1	0	0	0.066773	0.095925	0.12361	0.26267	0.25754	0.25243	0.19307	0.18417	0.070363	0.085752	0.30256	0.08208	0.052404	0.013497	0.17156	0.41708	-1.6063	-1.9646	-2.4813	-2.0062	-2.2708	-2.4979	-1.9042	-2.3542	-2.3333	-2.1333	-2.35	-2.1354	-2.3146	-2.225	-1.9458	-2.4271	323.899	391.788	181.310	419.017	202.025	179.241	201.228	387.623	445.259	170.072	237.339	298.914	200.115	340.544	364.061	445.442	0.00034361	0.00027958	0.00011556	170.95	4.0857e-06	2.6092e-06	511.6	91.754	4.4168e-06	2.2755e-06	220.89	68.16	24.844	11.925	1.4068e-06	35.145	0.00036372	0.00035211	9.6465e-05	162.52	3.8755e-06	3.7864e-06	477.36	86.926	3.8163e-06	3.8332e-06	207.58	64.416	23.984	11.488	3.853e-06	33.371	257.067	509.062	164.233	169.495	328.917	306.712	168.853	172.919	319.451	395.540	172.156	177.675	178.404	182.153	231.317	181.022	-8191	255	
1533.311	1	1	0	0	0.25733	0.053222	0.072063	0.18248	0.13458	0.089317	0.13293	0.056759	0.28783	0.06427	0.1981	0.12204	0.06182	0.19971	0.084512	0.032886	-1.5875	-2.1271	-2.4562	-2.0125	-2.2729	-2.3021	-1.8854	-2.2	-2.35	-1.9542	-2.6104	-2.1417	-1.9271	-2.3771	-2.1271	-2.4042	178.252	489.968	467.634	318.529	389.506	347.794	245.901	331.876	393.378	250.086	292.755	173.991	437.558	428.060	511.349	467.974	0.00035077	0.00045899	7.736e-05	169.93	2.4502e-06	3.3533e-06	507.74	91.461	1.8026e-06	1.0885e-06	220.02	67.777	25.023	11.967	2.3759e-06	35.181	0.00035264	0.00034706	9.8568e-05	161.29	3.8072e-06	3.7367e-06	472.45	86.19	3.6889e-06	3.9257e-06	206.52	64.083	23.873	11.438	3.8564e-06	33.208	259.409	198.203	253.023	169.913	366.402	272.033	168.847	173.581	361.698	382.768	172.154	177.575	178.684	181.955	345.419	180.861	-8191	255	
1533.407	1	1	0	0	0.10312	0.12079	0.13651	0.079192	0.17603	0.24474	0.17478	0.26986	0.093872	0.084354	0.14341	0.12537	0.2563	0.1596	0.09976	0.21551	-1.8708	-1.9646	-2.4854	-2.0771	-2.1375	-2.5021	-2.0187	-2.2583	-2.3667	-2.0021	-2.4021	-2.1396	-2.1833	-2.4938	-2.0521	-2.4458	421.178	492.799	502.682	249.749	450.021	350.445	157.062	174.142	477.560	254.207	169.028	263.065	387.096	452.872	177.294	410.764	0.0003341	0.00031961	7.3311e-05	170.12	2.0783e-06	3.1905e-06	507.62	91.205	1.1551e-06	1.1303e-06	220.96	67.757	24.627	11.92	4.3679e-06	35.182	0.00034741	0.00034959	9.5494e-05	161.48	3.6898e-06	3.8704e-06	475.41	86.443	3.6804e-06	3.7753e-06	206.82	64.109	23.75	11.465	3.8877e-06	33.388	254.393	231.253	308.896	170.082	314.758	304.747	168.762	173.274	344.341	472.417	172.264	177.959	178.430	181.964	313.668	181.208	-8191	255	
1533.526	1	1	0	0	0.12478	0.14479	0.17949	0.078308	0.14821	0.037493	0.1847	0.076153	0.17153	0.24698	0.40837	0.11346	0.10225	0.071891	0.13217	0.22502	-1.8521	-2.0625	-2.3958	-2.3312	-2.1292	-2.6479	-2.0646	-2.4271	-2.2792	-1.9917	-2.5625	-2.1437	-2.0479	-2.3833	-2.0146	-2.3167	460.948	432.618	345.392	341.116	402.693	238.859	502.573	347.913	484.608	245.844	436.710	472.701	195.403	442.816	435.298	323.713	0.00039088	0.00016535	3.6516e-05	171.02	3.1766e-06	1.8443e-06	510.35	92.741	3.583e-06	5.1495e-06	222.81	68.284	25.16	11.867	4.6369e-06	34.882	0.00035462	0.00035883	9.7259e-05	161.34	3.8963e-06	3.9388e-06	475.81	87.15	3.9309e-06	3.9127e-06	208.76	64.812	24.037	11.469	3.9378e-06	33.319	251.053	217.251	292.797	169.523	322.538	288.520	168.556	173.435	318.614	303.805	172.456	177.742	178.377	182.660	367.180	180.975	-8191	255	
1533.600	1	1	0	0	0.095893	0.1337	0.11938	0.13067	0.20458	0.1984	0.13493	0.34292	0.33381	0.13235	0.28947	0.35149	0.15373	0.11338	0.15668	0.18758	-1.7229	-1.7437	-2.325	-2.1771	-2.1375	-2.5479	-2.2708	-2.2417	-2.3187	-1.9896	-2.4104	-2.1708	-2.0604	-2.3979	-2.1792	-2.2188	311.102	454.871	270.801	511.708	280.020	492.818	434.064	506.577	315.329	456.795	494.797	320.174	455.226	325.576	261.146	439.498	0.00034477	0.00034893	5.3296e-05	171.42	2.1793e-06	6.1044e-06	504.96	92.462	1.8931e-06	7.7166e-07	220.46	67.503	25.024	11.849	1.9905e-06	34.773	0.00035474	0.00036645	0.00010092	162.28	3.9375e-06	4.0278e-06	471.74	86.905	3.7422e-06	3.9659e-06	207.56	63.763	23.858	11.368	3.9402e-06	32.863	255.456	242.821	237.132	169.624	406.158	342.649	168.898	172.750	323.683	301.898	172.317	177.649	178.095	182.803	301.821	180.755	-8191	255	
1533.694	1	1	0	0	0.11403	0.17562	0.12067	0.11531	0.091057	0.19114	0.11417	0.18475	0.2023	0.1799	0.10964	0.42449	0.28219	0.3082	0.12612	0.43524	-2.0625	-2.0729	-2.3354	-2.4083	-2.0875	-2.2313	-2.3021	-2.2396	-2.4083	-1.8896	-2.4667	-2.5125	-1.9896	-2.4604	-2.0625	-2.1667	466.945	290.377	161.400	391.225	282.327	495.743	479.900	421.704	252.836	164.486	374.640	246.629	289.697	287.656	459.283	494.146	0.00033445	0.00017553	7.6373e-05	169.54	6.082e-06	1.879e-06	503.77	90.649	3.2738e-06	3.5206e-06	220.31	67.452	24.171	11.603	5.0213e-07	34.641	0.00035786	0.00035583	0.000102	161.12	3.874e-06	4.0351e-06	470.83	86.015	3.8234e-06	4.0248e-06	206.57	63.529	23.477	11.211	3.8428e-06	32.874	254.707	273.142	215.575	169.919	282.144	367.624	168.731	173.257	336.827	372.757	172.431	177.977	179.040	182.050	397.439	181.088	-8191	255	
1533.792	1	1	0	0	0.10556	0.37602	0.20977	0.23494	0.31263	0.25953	0.099975	0.17511	0.12535	0.26598	0.15456	0.23181	0.18262	0.25756	0.23596	0.219	-2.125	-1.9417	-2.3833	-2.4042	-2.1937	-2.45	-2.2521	-2.1396	-2.4354	-2.1604	-2.2	-2.4125	-1.95	-2.2896	-2.2042	-2.1229	314.621	474.023	250.862	467.875	431.045	287.945	233.925	253.913	385.076	432.450	370.543	388.447	507.025	348.909	255.385	391.423	0.00035045	0.00048287	4.3592e-05	171.3	4.4794e-06	4.0026e-06	507.36	90.635	2.7858e-06	1.3375e-06	221.49	67.608	24.65	11.723	1.5982e-06	35.05	0.0003595	0.00036145	0.00010215	161.86	3.8816e-06	3.97e-06	474.76	86.265	3.8813e-06	3.9523e-06	208.19	64.232	23.782	11.339	3.7621e-06	33.234	259.160	269.681	222.789	169.877	329.515	279.126	168.876	173.103	321.569	273.336	172.459	177.892	178.903	182.028	235.550	181.049	-8191	255	
1533.911	1	1	0	0	0.24944	0.033947	0.14419	0.099091	0.21379	0.2602	0.1418	0.17844	0.016326	0.13236	0.095919	0.12254	0.18439	0.25071	0.13791	0.20384	-1.9958	-2.125	-1.9708	-2.425	-1.9875	-2.4083	-2.5042	-1.8917	-2.5417	-2.1937	-2.3792	-2.4667	-1.7708	-2.3542	-2.4188	-2.1375	425.084	305.372	369.560	505.320	361.112	195.565	429.265	351.815	353.938	434.858	261.975	315.790	468.652	508.017	346.695	351.118	0.00041189	0.00028611	0.00014327	170.18	2.6893e-06	1.5372e-06	511.01	91.424	9.8133e-07	4.0624e-06	221.92	68.717	24.441	11.714	1.7742e-06	35.117	0.00036613	0.00036114	0.00010292	162.25	3.8186e-06	4.0458e-06	478	86.155	3.9463e-06	3.8497e-06	208.34	64.707	23.506	11.345	3.8048e-06	33.255	251.755	188.950	294.395	169.517	310.939	236.307	169.360	173.865	321.634	320.077	172.182	177.483	178.555	182.532	313.706	181.128	-8191	255	
1534.007	1	1	0	0	0.28574	0.17142	0.064208	0.045138	0.17682	0.19691	0.19977	0.080711	0.14051	0.23202	0.030174	0.062822	0.054662	0.038578	0.13307	0.073945	-1.9792	-2.3083	-2.0229	-2.5146	-2.2542	-2.3	-2.4229	-2.0542	-2.4958	-2.1854	-2.1271	-2.6021	-1.9792	-2.2583	-2.4833	-2.2062	298.783	172.059	340.357	460.594	413.481	511.943	484.141	307.145	437.972	342.823	280.641	314.226	483.738	253.912	221.343	399.491	0.00032682	0.00031128	0.00011303	168.32	2.5627e-06	3.5667e-06	505.7	90.38	1.9923e-06	5.0311e-06	217.89	67.455	23.967	11.529	3.5328e-06	34.4	0.00036443	0.00035683	0.00010385	160.59	3.8008e-06	3.8643e-06	472.35	85.29	3.965e-06	3.8706e-06	205.27	63.529	23.333	11.154	3.7387e-06	32.758	262.613	282.068	228.884	170.127	354.327	353.305	168.510	173.862	271.905	301.052	172.088	177.882	179.138	181.959	318.182	181.183	-8191	255	
1534.103	1	1	0	0	0.15459	0.17085	0.090524	0.24852	0.093635	0.17336	0.26203	0.19022	0.3387	0.083142	0.16889	0.14733	0.20563	0.093866	0.15189	0.206	-1.9396	-2.3083	-2.2729	-2.5542	-2.1271	-2.3021	-2.5812	-2.0563	-2.4437	-2.2729	-2.1021	-2.4188	-1.9792	-2.2521	-2.5375	-1.8833	391.850	410.133	276.603	173.514	287.224	186.029	463.127	202.488	233.649	158.246	173.947	350.481	451.991	303.245	271.323	386.242	0.0003553	0.0001584	4.6256e-05	167.82	1.7783e-06	2.7717e-06	502.12	90.199	2.9352e-06	2.418e-06	218.11	66.987	23.977	11.56	3.9934e-06	34.438	0.00036344	0.00034408	0.00010122	160.21	3.7848e-06	3.9557e-06	470.07	84.746	3.7648e-06	3.9816e-06	205.42	63.609	23.288	11.122	3.8117e-06	32.851	253.652	440.307	188.630	169.875	452.978	341.566	168.806	172.682	336.047	244.953	172.199	178.313	178.531	182.528	304.378	180.827	-8191	255	
1534.199	1	1	0	0	0.053197	0.080217	0.28843	0.15119	0.068701	0.17405	0.15343	0.14855	0.17988	0.046789	0.29472	0.047244	0.19308	0.16961	0.23792	0.16091	-1.85	-2.3208	-1.9979	-2.5417	-2.1875	-2.1667	-2.4646	-1.9292	-2.2542	-2.1875	-2	-2.2833	-2.1667	-2.1146	-2.4771	-2.2104	193.449	218.875	509.810	276.971	391.020	333.263	388.192	188.165	416.864	297.052	414.663	237.915	453.187	185.477	326.237	159.562	0.00031502	0.00040171	5.7767e-05	170.09	1.0921e-06	3.6903e-06	506.99	90.075	1.5273e-06	2.7655e-06	219.94	67.199	24.31	11.731	2.6195e-06	35.127	0.00036811	0.00035609	0.00010015	161.69	3.8512e-06	3.986e-06	474.26	85.114	3.9906e-06	3.8964e-06	207.53	64.104	23.405	11.264	3.8781e-06	33.223	258.915	254.610	221.360	169.165	313.925	456.890	168.798	173.518	458.975	470.012	172.427	177.687	177.655	182.193	210.815	181.135	-8191	255	
1534.296	1	1	0	0	0.1673	0.064456	0.23597	0.15431	0.28338	0.11138	0.25288	0.026799	0.14362	0.12564	0.12619	0.070719	0.31008	0.12824	0.10392	0.087336	-1.7313	-2.4354	-1.9312	-2.4688	-2.0625	-2.2042	-2.4417	-1.9042	-2.2438	-2.4062	-2.025	-2.3375	-2.0979	-2.1063	-2.7354	-2.1042	256.262	413.590	485.923	323.868	182.941	204.726	342.361	359.446	191.930	372.225	512.205	418.156	159.507	242.229	441.209	242.619	0.00034562	0.00070241	0.00013868	169.5	7.8531e-07	2.0061e-06	508.09	90.358	5.0988e-06	1.5389e-07	219.72	67.494	24.277	11.76	2.1986e-06	34.812	0.00037379	0.00036404	0.00010502	161.67	3.8256e-06	4.1057e-06	476.27	85.385	3.8582e-06	3.89e-06	207.5	63.929	23.418	11.215	3.9578e-06	32.887	260.585	163.024	248.662	170.236	185.978	317.227	169.001	173.724	333.162	355.416	172.384	177.746	178.974	182.072	448.044	181.221	-8191	255	
1534.392	1	1	0	0	0.13771	0.23974	0.32438	0.11876	0.014493	0.063209	0.10133	0.25025	0.07901	0.26958	0.13569	0.3596	0.12956	0.11785	0.12346	0.27017	-1.7354	-2.2479	-2.0396	-2.4271	-2.3333	-2.0229	-2.5396	-2.1437	-1.9958	-2.3896	-2.2729	-2.4646	-2.3521	-1.9854	-2.3583	-2.2708	477.022	255.456	310.815	331.389	391.537	356.833	240.284	483.173	175.301	488.291	210.808	383.031	173.798	502.898	295.065	474.970	0.0002953	0.00040939	0.00015087	168.65	3.3475e-06	3.0049e-06	502.48	90.287	3.7479e-06	5.1276e-07	219.33	66.546	24.294	11.555	3.0177e-06	34.537	0.00036279	0.00035392	0.00010335	160.66	3.8084e-06	3.999e-06	471.46	84.93	3.9963e-06	3.9467e-06	206.34	63.657	23.238	11.163	3.9512e-06	32.857	254.974	266.132	271.818	169.569	350.456	310.576	169.210	173.787	362.311	244.210	172.764	178.223	178.500	182.086	289.445	181.172	-8191	255	
1534.512	1	1	0	0	0.27447	0.17271	0.17084	0.090815	0.13408	0.18023	0.20193	0.22506	0.33601	0.059607	0.27904	0.18621	0.031274	0.23941	0.092121	0.053635	-1.6208	-2.3271	-2.0021	-2.3187	-2.1917	-2.1063	-2.3167	-2.2417	-2.2354	-2.4354	-2.0146	-2.3125	-2.4958	-1.9417	-2.4417	-2.4437	471.893	415.449	315.305	226.847	307.422	216.503	341.389	411.776	361.851	350.058	166.094	384.187	307.649	386.977	315.705	248.534	0.00034066	0.00056487	4.4632e-05	171.25	3.1247e-06	4.4879e-06	507.08	91.433	1.6512e-06	6.2695e-06	221.03	67.77	24.59	11.613	4.6702e-07	34.902	0.00036541	0.00035499	0.00010134	161.6	3.8198e-06	3.9711e-06	474.36	86.037	3.9267e-06	3.8553e-06	208.04	64.253	23.442	11.263	3.8723e-06	33.233	256.143	287.253	322.490	169.990	393.953	296.708	168.833	173.174	315.626	272.909	172.355	178.282	178.835	182.488	240.429	181.194	-8191	255	
1534.607	1	1	0	0	0.023234	0.066096	0.18646	0.01695	0.31366	0.42788	0.11182	0.26902	0.139	0.22268	0.18428	0.2746	0.030031	0.23886	0.18872	0.072097	-1.7313	-2.3167	-2.1271	-2.3104	-2.4854	-2.1104	-2.4333	-2.1792	-2.0146	-2.5458	-1.9021	-2.1542	-2.3521	-2.0167	-2.4771	-2.2938	488.292	353.236	307.739	442.573	259.550	484.768	438.334	177.923	224.445	164.394	329.956	511.104	429.644	156.424	358.707	343.948	0.00037705	0.00029757	7.913e-05	170.71	2.2179e-06	3.0607e-06	512.19	91.147	4.0311e-06	4.3245e-06	223.77	68.959	24.409	11.966	5.2946e-06	36.085	0.00037804	0.00037259	0.00010315	161.93	3.8352e-06	4.0663e-06	479.32	86.127	3.9602e-06	3.9743e-06	210.6	65.299	23.645	11.489	3.9927e-06	34.12	254.633	246.790	241.089	170.022	290.142	279.967	168.690	173.719	314.951	281.255	172.448	178.167	178.509	182.909	342.422	181.049	-8191	255	
1534.703	1	1	0	0	0.12141	0.089247	0.10126	0.2413	0.082487	0.085046	0.1345	0.1985	0.049303	0.18264	0.15579	0.17659	0.20527	0.13406	0.21712	0.16993	-1.6229	-2.5438	-2.1854	-2.2354	-2.3438	-2.1125	-2.5062	-2.4521	-1.9896	-2.6208	-2.2417	-2.2875	-2.4167	-1.95	-2.4125	-2.2042	446.141	433.985	416.758	167.323	311.739	214.767	367.651	416.972	443.183	288.202	164.966	403.502	317.230	237.697	457.808	507.852	0.0003859	1.9372e-05	7.1784e-05	171.6	2.3793e-06	3.0136e-06	512.28	90.899	1.9404e-06	1.4957e-06	223.31	68.313	24.421	11.76	4.3699e-06	35.662	0.00037317	0.00037489	9.871e-05	164.03	3.7924e-06	3.9641e-06	480.58	85.951	3.7715e-06	3.8196e-06	209.18	64.573	23.308	11.348	3.7448e-06	33.588	252.977	385.076	258.385	169.995	311.700	321.247	169.041	173.636	309.914	385.445	172.511	178.069	178.480	182.496	334.923	180.861	-8191	255	
1534.799	1	1	0	0	0.12861	0.041341	0.14895	0.20046	0.087448	0.15158	0.40348	0.29849	0.048568	0.31597	0.11791	0.16653	0.2201	0.12375	0.15781	0.099267	-1.4604	-2.375	-2.0729	-2.1333	-2.4917	-2.0458	-2.3521	-2.3271	-2.0438	-2.6	-2.05	-1.9771	-2.4625	-2.0729	-2.2708	-2.4729	497.546	344.916	506.225	482.164	365.482	203.146	450.604	190.359	201.594	316.644	504.333	193.336	226.542	316.923	319.269	488.743	0.00031787	0.00038279	2.8272e-05	172.8	3.1352e-06	2.8022e-06	504.28	89.035	1.6261e-06	3.6015e-06	222.69	68.152	23.842	11.552	9.4197e-07	35.21	0.00034939	0.00034677	9.7165e-05	162.88	3.6148e-06	3.7125e-06	473.12	84.052	3.6743e-06	3.9328e-06	207.99	63.915	22.968	11.16	3.7808e-06	33.428	256.036	263.737	336.236	169.059	303.695	331.999	169.202	173.671	370.421	376.393	172.142	177.748	178.228	182.097	301.343	181.018	-8191	255	
1534.895	1	1	0	0	0.021461	0.11197	0.38739	0.18262	0.1073	0.22117	0.23935	0.23008	0.28477	0.15763	0.26715	0.30057	0.13058	0.065418	0.12586	0.18774	-1.5521	-2.6896	-2.275	-2.0208	-2.5708	-2.025	-2.125	-2.1688	-2.0229	-2.4208	-2.2854	-2.2021	-2.275	-2.0146	-2.2625	-2.5	338.378	382.998	162.638	500.785	460.699	473.008	487.334	469.196	458.391	281.860	420.950	498.107	494.185	416.618	255.047	495.155	0.00040484	0.00033953	4.6939e-05	173.41	1.702e-06	4.3372e-06	508.4	88.797	4.0101e-06	1.785e-06	223.2	68.546	24.03	11.615	1.8533e-06	35.761	0.00035889	0.0003604	9.466e-05	163.28	3.7273e-06	3.7129e-06	475.25	84.183	3.7971e-06	3.937e-06	208.83	64.526	23.158	11.259	3.7659e-06	33.841	250.595	324.662	200.296	170.050	300.538	392.384	168.851	173.572	371.288	272.885	172.147	178.180	178.898	183.192	337.568	180.962	-8191	255	
1534.991	1	1	0	0	0.06549	0.28103	0.16852	0.07031	0.1487	0.14539	0.1183	0.17156	0.17336	0.13614	0.15132	0.20043	0.14624	0.19696	0.06291	0.064028	-1.5688	-2.4313	-2.3667	-1.9292	-2.3563	-2.1437	-2.2333	-2.4896	-2.0479	-2.1667	-2.4958	-1.9875	-2.2146	-2.3667	-2.0292	-2.5833	175.883	224.396	422.845	346.512	428.397	314.055	309.897	503.122	310.693	330.558	413.608	311.537	270.161	424.892	463.983	379.703	0.00029714	0.00043707	4.6289e-05	172.54	1.6368e-06	1.8718e-06	510.18	88.572	3.3837e-06	2.3032e-06	223.58	67.801	23.798	11.581	1.4881e-06	35.615	0.00034838	0.00034691	9.3988e-05	163.67	3.7219e-06	3.6821e-06	478.48	83.748	3.7396e-06	3.8289e-06	209.32	64.171	22.931	11.144	3.7482e-06	33.584	258.675	239.491	302.172	170.029	173.923	285.617	168.497	174.084	296.790	282.124	172.125	178.105	178.417	182.624	432.452	181.079	-8191	255	
1535.086	1	1	0	0	0.15394	0.14376	0.13416	0.091311	0.22058	0.068742	0.069496	0.085945	0.15439	0.070322	0.18722	0.17617	0.15549	0.14623	0.13233	0.050346	-1.6	-2.2313	-2.1896	-2.0146	-2.4354	-2.0604	-2.1083	-2.3667	-2.2708	-2.2812	-2.3646	-2.1021	-2.3792	-2.2854	-2.0896	-2.5583	213.920	303.178	333.638	449.881	417.952	418.356	346.399	457.127	381.607	400.832	494.412	426.120	399.387	460.428	296.941	353.377	0.00032441	0.00052915	5.2186e-05	173.47	2.8058e-06	2.9079e-06	510.23	87.872	2.2616e-06	2.7708e-06	220.28	66.425	23.126	11.288	5.0974e-06	34.628	0.00035806	0.00034295	9.4204e-05	164.99	3.7048e-06	3.6252e-06	477.64	82.89	3.6547e-06	3.6828e-06	206.18	62.757	22.393	10.896	3.5819e-06	32.782	254.982	265.893	280.057	169.846	332.623	328.392	168.739	173.935	350.887	386.547	172.497	178.253	179.203	182.298	330.681	181.230	-8191	255	
1535.206	1	1	0	0	0.084005	0.13971	0.18145	0.29882	0.058624	0.091348	0.15431	0.11493	0.17556	0.21206	0.28176	0.27829	0.17842	0.081384	0.174	0.3035	-1.6063	-2.1083	-2.2021	-1.975	-2.4354	-2.2604	-2.1792	-2.3792	-2.3583	-2.225	-2.55	-1.9896	-2.2771	-2.4417	-2.1396	-2.3563	331.635	446.150	278.946	475.326	453.171	279.761	196.605	371.551	241.560	373.079	393.432	446.125	179.544	407.728	341.713	322.649	0.00032918	0.00011416	9.0577e-05	173.92	2.7321e-06	2.6398e-06	503.46	87.378	2.8152e-06	1.7116e-06	218.31	66.522	23.522	11.307	2.6248e-06	34.29	0.00034473	0.00033431	9.2946e-05	165.18	3.6058e-06	3.6544e-06	473.13	82.524	3.6771e-06	3.7284e-06	205.09	62.725	22.623	10.895	3.8253e-06	32.629	253.689	235.538	308.055	169.577	342.839	379.699	168.960	173.953	314.448	317.456	172.875	178.375	178.505	181.982	321.238	180.989	-8191	255	
1535.302	1	1	0	0	0.24379	0.20447	0.147	0.25466	0.095001	0.16438	0.18054	0.10276	0.095497	0.1023	0.10275	0.105	0.083993	0.24348	0.20372	0.066909	-1.7146	-2.0729	-2.4938	-2.0958	-2.1937	-2.5333	-2.0375	-2.5021	-2.2812	-2.2313	-2.4521	-2.1583	-2.3458	-2.4958	-1.9354	-2.45	222.938	443.968	178.212	280.003	185.517	348.138	492.782	192.596	156.651	324.489	224.050	357.864	417.334	311.897	222.257	204.967	0.00035194	0.00035108	2.7163e-05	173.07	4.1006e-06	2.6725e-06	512.35	87.836	2.2771e-06	3.6902e-06	219.41	67.257	23.396	11.291	3.4755e-06	34.462	0.0003461	0.0003421	9.398e-05	164.86	3.6883e-06	3.7038e-06	478.87	82.939	3.6201e-06	3.6266e-06	206.19	63.51	22.529	10.884	3.8491e-06	32.583	256.569	164.697	263.517	169.269	368.207	409.475	168.878	173.581	289.441	278.337	172.672	178.248	178.514	182.515	355.467	181.665	-8191	255	
1535.399	1	1	0	0	0.1579	0.10023	0.18405	0.19746	0.19474	0.091238	0.1368	0.19241	0.1465	0.096596	0.075034	0.092346	0.22332	0.10417	0.11177	0.23859	-1.6292	-2.1688	-2.2396	-2.0104	-2.3063	-2.5167	-2.0021	-2.5292	-2.2687	-1.8792	-2.4979	-2.0958	-2.2104	-2.25	-2.0417	-2.2458	254.748	246.387	451.485	457.805	259.070	218.120	466.723	411.740	344.408	310.185	272.427	330.701	172.264	266.220	514.992	500.505	0.00041826	0.00070979	0.00010193	174.71	4.0733e-06	2.7532e-06	505.23	84.291	3.3951e-06	1.6456e-07	216.04	67.813	23.288	11.034	1.3346e-06	33.361	0.00035515	0.00034802	9.6575e-05	167.64	3.6805e-06	3.9138e-06	472.54	79.537	3.7253e-06	3.9621e-06	202.02	63.797	22.626	10.702	3.8987e-06	31.723	260.746	257.617	159.057	169.441	340.246	245.005	169.146	174.200	333.295	345.343	172.456	178.713	179.219	182.604	270.947	181.813	-8191	255	
1535.470	1	1	0	0	0.13343	0.31028	0.040126	0.081061	0.10072	0.28314	0.18143	0.15053	0.1801	0.11739	0.17627	0.11965	0.13214	0.17331	0.13091	0.14809	-1.8021	-1.8646	-2.5625	-2.05	-2.1292	-2.5646	-2.0292	-2.3063	-2.3792	-2.2083	-2.475	-2.3438	-2.1583	-2.4479	-2.1125	-2.3063	439.508	332.539	294.757	378.041	486.726	504.751	417.540	501.494	497.643	389.420	496.934	353.442	207.747	276.234	165.730	400.731	0.00034004	0.00055951	1.5393e-05	173.6	2.5386e-06	3.8188e-06	494.99	83.397	2.7175e-06	2.3005e-06	216.5	67.542	24.375	11.124	2.8861e-06	32.911	0.00035304	0.00037031	9.981e-05	166.25	3.8749e-06	4.1249e-06	461.4	79.157	3.934e-06	4.0168e-06	204.64	63.535	23.178	10.709	3.9868e-06	31.272	252.564	252.785	317.478	169.588	307.360	343.268	169.097	173.680	294.568	305.074	172.586	178.116	179.448	183.203	278.896	181.213	-8191	255	
1535.591	1	1	0	0	0.27936	0.362	0.11176	0.056014	0.12433	0.097436	0.16056	0.11241	0.18108	0.082947	0.1648	0.10289	0.02214	0.11591	0.13159	0.092808	-1.8625	-2.0229	-2.4354	-2.2625	-2.2687	-2.4771	-2.1167	-2.4125	-2.3229	-2.15	-2.3417	-2.3125	-2.0792	-2.6229	-2.1417	-2.1625	456.276	409.060	434.063	415.657	312.933	158.978	387.306	483.320	261.357	265.297	384.779	443.613	174.706	254.080	368.136	271.356	0.00032054	0.00036621	2.314e-05	176.17	1.8286e-06	5.8646e-06	489.24	85.211	3.8e-06	2.3217e-06	224.63	68.179	24.5	11.088	4.929e-06	33.148	0.00036336	0.00037767	0.00010486	167.67	4.0176e-06	4.1159e-06	457.7	81.25	4.0154e-06	4.0733e-06	210.86	64.441	23.658	10.83	4.0224e-06	31.448	258.152	503.975	272.645	169.860	376.115	340.953	169.478	173.474	296.235	269.296	172.299	178.289	178.595	182.990	311.340	181.559	-8191	255	
1535.687	1	1	0	0	0.10712	0.089414	0.083957	0.1184	0.053989	0.10893	0.13038	0.10692	0.22275	0.11991	0.28019	0.11018	0.088402	0.11526	0.3111	0.30762	-1.9	-1.8979	-2.4021	-2.3729	-2.0375	-2.4896	-2.2979	-2.1271	-2.4062	-2.0604	-2.3812	-2.3458	-2.1021	-2.4729	-2.0729	-1.975	232.154	452.913	464.278	178.326	389.230	420.080	450.886	208.923	225.497	398.891	440.988	398.507	218.455	506.424	444.285	498.236	0.00033586	0.00013409	0.0001002	175.11	3.5878e-06	1.5105e-06	490.45	88.39	2.0669e-06	1.6697e-06	228.54	69.202	25.312	11.465	1.0976e-06	33.54	0.00037464	0.00037097	0.00010656	167.59	4.0361e-06	4.2466e-06	458.95	83.553	3.9393e-06	4.1843e-06	214.6	65.817	24.315	11.051	4.0602e-06	31.866	252.658	217.410	208.045	169.031	183.809	208.240	169.345	173.905	231.748	338.851	172.810	178.358	178.608	182.556	302.189	181.251	-8191	255	
1535.783	1	1	0	0	0.22565	0.081648	0.092716	0.22998	0.1722	0.33976	0.18315	0.18823	0.14092	0.18959	0.096835	0.043861	0.098291	0.061553	0.18411	0.15929	-1.9646	-2.0667	-2.3375	-2.3104	-2.1458	-2.5521	-2.1979	-2.0396	-2.4708	-1.9917	-2.3563	-2.6167	-1.8417	-2.2812	-2.2104	-2.1542	429.007	410.049	468.910	222.117	226.144	195.905	473.620	245.286	409.065	303.936	173.346	338.304	393.776	362.692	282.380	365.520	0.00031921	0.00012111	6.6902e-05	177.9	1.0515e-06	2.7512e-06	493.81	90.487	3.9078e-06	2.9105e-06	232.25	70.468	25.427	11.236	2.2341e-06	33.148	0.00037574	0.00037855	0.00011011	169.32	4.2444e-06	4.2661e-06	462.78	85.87	4.1648e-06	4.2842e-06	218	66.495	24.548	10.984	4.2265e-06	31.641	259.275	420.710	210.016	169.840	328.877	216.374	168.943	173.803	263.788	355.496	171.813	177.997	178.412	182.684	273.398	181.659	-8191	255	
1535.904	1	1	0	0	0.14618	0.19662	0.17823	0.38918	0.23172	0.23914	0.12369	0.12183	0.12409	0.40902	0.10669	0.12281	0.20007	0.2376	0.26456	0.16922	-1.8583	-1.9833	-2.1542	-2.4104	-2.1667	-2.3042	-2.1771	-2.0292	-2.5083	-2.1646	-2.3125	-2.4771	-2.0083	-2.4208	-2.3563	-2.0812	407.018	187.467	190.217	489.954	251.510	299.199	417.348	405.705	423.155	325.139	471.702	475.234	498.326	456.499	201.127	213.406	0.00032927	0.00042192	0.00010068	176.89	4.7028e-06	3.4021e-06	486.27	90.187	3.2488e-06	2.2528e-06	229.59	69.145	25.159	11.302	3.8281e-06	33.104	0.00038483	0.00039154	0.00010675	168.36	4.1525e-06	4.4492e-06	456.65	85.203	4.1145e-06	4.2722e-06	216.02	65.279	24.232	10.98	4.1136e-06	31.503	256.143	316.378	281.450	169.195	385.007	262.085	169.191	173.720	326.838	357.648	172.600	178.078	178.205	182.260	286.199	181.491	-8191	255	
1535.998	1	1	0	0	0.1646	0.23583	0.21666	0.20643	0.066049	0.13098	0.30101	0.34157	0.090441	0.025904	0.26215	0.22229	0.11196	0.14556	0.092139	0.15823	-2.0604	-2.0771	-2.3146	-2.5229	-2.0583	-2.3521	-2.2667	-2.0792	-2.6229	-2.2313	-2.1646	-2.4792	-1.9833	-2.2146	-2.4688	-2.2188	228.893	162.395	193.538	209.715	163.873	418.214	505.261	194.614	488.920	200.575	503.053	175.191	425.257	204.784	461.713	431.521	0.00037503	0.00024648	3.1071e-05	177.27	6.7989e-07	2.7288e-06	486.17	88.948	1.6528e-06	8.8234e-07	228.83	69.092	25.161	11.621	2.8719e-06	33.551	0.00038277	0.00039072	0.00010574	168.89	3.9424e-06	4.2702e-06	455.58	84.659	4.0813e-06	4.0514e-06	214.76	65.404	24.295	11.137	3.9961e-06	31.831	263.569	246.078	199.537	169.304	218.162	325.308	168.841	173.903	276.776	295.148	172.840	177.988	178.345	182.189	417.837	180.936	-8191	255	
1536.094	1	1	0	0	0.19238	0.029436	0.074898	0.15273	0.16397	0.22888	0.082599	0.22361	0.30909	0.035561	0.25439	0.2926	0.13128	0.24237	0.17662	0.15391	-2.1458	-2.1	-2.125	-2.4437	-2.1979	-2.2229	-2.3229	-2.0708	-2.2625	-2.2333	-2.125	-2.5812	-2.0896	-2.2375	-2.4417	-1.9229	256.293	164.326	499.311	296.409	158.245	233.499	394.548	468.172	373.880	310.640	422.693	481.423	457.271	429.254	486.552	240.660	0.00034094	0.00021345	3.6001e-05	177.06	1.6562e-06	7.8374e-07	485.85	89.113	3.0872e-07	1.6835e-06	226.46	69.009	25.124	11.655	1.6087e-06	33.977	0.00037795	0.00037249	0.00010604	168.77	4.0561e-06	4.224e-06	455.22	84.208	4.1116e-06	3.9594e-06	212.85	65.497	24.269	11.239	3.9802e-06	32.335	255.771	250.116	233.972	169.590	267.687	392.705	168.817	173.763	246.776	204.888	172.298	178.111	178.609	182.179	421.683	181.629	-8191	255	
1536.191	1	1	0	0	0.16156	0.10809	0.32616	0.14278	0.21347	0.15579	0.23239	0.17764	0.072125	0.10441	0.16945	0.054307	0.091852	0.17522	0.14054	0.37791	-1.8687	-2.1375	-2.1042	-2.5312	-2.1792	-2.2	-2.4375	-1.9854	-2.25	-2.3063	-2.0292	-2.4896	-2.2125	-2.1292	-2.4354	-2.1583	311.773	237.285	457.244	479.002	214.760	218.467	423.082	439.166	473.900	413.928	451.735	227.188	223.123	216.812	191.363	484.948	0.00035968	0.00028297	1.592e-05	174.83	3.9575e-06	1.3781e-06	484.13	88.067	2.2738e-06	2.2321e-06	223.42	69.54	25.317	11.828	4.9308e-06	34.505	0.000369	0.00037124	0.00010652	167.35	3.996e-06	4.1279e-06	453.94	83.199	4.0548e-06	3.929e-06	211.25	65.849	24.36	11.457	3.8369e-06	32.784	254.817	236.143	466.264	170.244	343.974	482.377	168.855	173.998	345.021	373.824	172.384	178.211	178.211	182.426	303.342	181.097	-8191	255	
1536.287	1	1	0	0	0.16687	0.068436	0.15661	0.057167	0.22417	0.092511	0.16687	0.05223	0.096648	0.12461	0.31022	0.21656	0.089142	0.095696	0.090791	0.22506	-1.7625	-2.4146	-2.0354	-2.4229	-2.1771	-2.2708	-2.5208	-1.9312	-2.0646	-2.4292	-2.1792	-2.4	-2.2458	-2.1479	-2.5417	-2.0417	287.025	324.362	401.067	188.279	480.940	216.820	458.774	182.072	387.361	272.582	189.556	311.850	411.582	256.074	256.325	483.178	0.00034058	0.00051076	6.2118e-05	177.96	3.8968e-06	3.6493e-06	492.01	91.524	6.4195e-07	2.7474e-06	234.29	72.467	27.83	12.64	6.7812e-06	36.596	0.00036793	0.00035312	0.00010374	168.74	3.8533e-06	4.1113e-06	459.34	86.459	3.9871e-06	3.8763e-06	220.6	68.708	26.351	12.243	3.9568e-06	34.499	259.518	239.107	177.480	170.046	339.823	328.109	168.855	173.424	376.119	254.720	172.357	177.838	178.152	181.931	279.841	180.902	-8191	255	
1536.383	1	1	0	0	0.095867	0.136	0.083007	0.11883	0.19195	0.15529	0.27539	0.10357	0.072091	0.21792	0.11665	0.27102	0.049227	0.15127	0.23367	0.18492	-1.8229	-2.3292	-2	-2.2771	-2.1625	-2.3083	-2.3333	-2.0146	-2.4333	-2.5208	-2.0917	-2.3854	-2.3563	-1.9813	-2.55	-2.1375	158.144	511.231	419.907	402.732	315.672	237.607	274.808	363.098	231.868	241.217	207.364	234.018	398.317	199.193	386.620	368.437	0.00036082	0.00033069	3.4192e-05	184.07	3.3695e-06	4.9576e-06	497.9	102.04	3.9772e-06	3.3596e-06	251.79	77.534	30.284	13.844	3.7028e-06	38.166	0.00038131	0.00036204	0.0001057	175.69	4.0638e-06	4.2824e-06	468.47	96.051	4.1633e-06	4.1459e-06	236.63	73.115	29.13	13.215	4.1925e-06	36.169	248.847	226.252	176.415	169.595	343.678	295.817	169.053	173.246	346.363	371.370	171.700	177.616	177.517	180.908	204.119	180.540	-8191	255	
1536.479	1	1	0	0	0.067154	0.22298	0.13546	0.31232	0.096196	0.24549	0.29802	0.22662	0.13253	0.25692	0.092509	0.28269	0.077723	0.056825	0.16573	0.29051	-1.7687	-2.3771	-1.8333	-2.575	-2.3458	-2.0229	-2.3375	-1.9917	-2.1521	-2.3479	-2.0792	-2.3333	-2.2313	-1.925	-2.4771	-2.2542	194.457	184.033	386.736	187.381	185.439	398.720	420.620	370.103	448.219	490.674	455.848	464.777	340.075	490.757	404.598	324.728	0.00041865	0.00036576	0.00013827	194.62	1.179e-06	3.2252e-06	522.41	110.3	1.9849e-06	3.0431e-06	264.06	80.246	32.011	14.069	4.1063e-06	39.145	0.00039458	0.00038989	0.00011088	184.67	4.1428e-06	4.5469e-06	486.87	103.7	4.28e-06	4.3652e-06	247.1	75.332	30.427	13.52	4.4508e-06	37.003	259.569	251.819	285.948	169.278	237.389	321.024	168.877	172.764	226.065	298.364	171.611	177.129	176.854	181.226	284.113	180.022	-8191	255	
1536.600	1	1	0	0	0.27888	0.15056	0.098341	0.27753	0.16986	0.19377	0.068028	0.05452	0.29705	0.18518	0.18503	0.030773	0.12703	0.2069	0.35292	0.21432	-1.4937	-2.3438	-2.1146	-2.25	-2.3083	-1.9729	-2.4437	-2.1271	-2.0187	-2.3583	-1.9979	-2.3563	-2.4104	-1.9146	-2.4667	-2.1875	195.125	169.795	502.742	319.405	189.622	225.413	382.052	356.158	241.650	330.324	331.369	287.394	504.614	192.296	381.430	478.828	0.00040755	0.00016144	4.2472e-05	201.35	6.5829e-06	4.5187e-06	529.15	113.98	3.664e-06	4.7945e-06	274.95	79.705	32.203	14.265	2.5957e-06	38.245	0.00041533	0.00040099	0.0001131	192.25	4.1993e-06	4.667e-06	496.89	106.89	4.4136e-06	4.4907e-06	256.37	75.453	30.77	13.625	4.4685e-06	36.628	259.469	231.178	186.626	170.086	291.158	241.214	169.033	172.731	325.791	309.108	171.221	177.225	177.469	181.063	305.478	180.280	-8191	255	
1536.696	1	1	0	0	0.12649	0.12093	0.10847	0.26537	0.23131	0.32099	0.15113	0.17149	0.22392	0.12755	0.19257	0.16595	0.11247	0.24517	0.32959	0.23076	-1.5229	-2.3438	-1.9208	-2.3542	-2.3021	-2.0062	-2.4062	-2.0167	-1.9396	-2.5125	-2.2729	-2.1708	-2.6083	-1.9	-2.3812	-2.3333	502.898	363.133	327.434	485.647	423.517	444.083	326.691	335.967	246.222	375.839	440.794	299.165	380.159	190.371	270.031	426.682	0.0003825	0.00049591	0.00012832	212.68	2.3939e-06	4.3596e-06	527.69	121.84	1.3872e-06	2.7826e-06	277.17	79.015	31.962	14.125	3.2381e-06	38.879	0.00041601	0.00042389	0.00011377	200.06	4.3634e-06	4.6953e-06	493.16	114.61	4.631e-06	4.5975e-06	260.41	74.379	30.626	13.6	4.6803e-06	36.883	252.659	238.851	227.840	169.340	480.263	313.216	168.622	172.172	310.119	274.794	170.974	177.136	177.220	180.924	274.420	180.290	-8191	255	
1536.767	1	1	0	0	0.079362	0.13536	0.36324	0.09937	0.20167	0.14886	0.44606	0.32871	0.19322	0.22838	0.11555	0.36234	0.08608	0.1374	0.25914	0.050895	-1.5875	-2.4479	-2.2104	-2.3	-2.4958	-1.9021	-2.3292	-2.3292	-2.2292	-2.3292	-2.0521	-2.1312	-2.6458	-2.0146	-2.3438	-2.4833	256.601	289.107	422.477	428.399	392.948	266.715	475.564	353.635	493.492	337.244	186.987	494.916	356.517	419.454	286.140	202.421	0.00034819	0.00047767	6.5253e-05	215.72	4.3322e-06	1.9779e-06	531.9	121.43	3.3329e-06	4.0197e-06	276.45	78.603	32.005	14.34	3.5552e-06	39.467	0.00043384	0.00042334	0.00012012	204.05	4.6937e-06	4.7207e-06	496.59	114.25	4.8427e-06	4.9601e-06	260.22	74.622	30.618	13.788	4.8855e-06	37.362	260.637	219.600	219.843	169.632	246.634	374.814	168.903	172.690	336.967	280.093	171.155	177.054	177.536	180.593	406.224	179.906	-8191	255	
1536.864	1	1	0	0	0.10577	0.20313	0.27214	0.10073	0.18719	0.15701	0.20918	0.13043	0.33902	0.1694	0.18879	0.14592	0.22314	0.10427	0.15247	0.12704	-1.4646	-2.2583	-2.1083	-2.1417	-2.4375	-2.1063	-2.4792	-2.3771	-2.0375	-2.3396	-2.075	-2.0583	-2.5354	-2.1708	-2.4729	-2.3438	337.441	254.921	271.215	255.277	156.608	452.251	410.646	443.158	392.846	388.233	289.339	371.111	159.959	495.132	487.864	178.351	0.00035873	0.00050192	0.00014244	217.47	1.5133e-06	3.4147e-06	529.08	118.16	2.4073e-06	3.905e-06	275.21	79.755	31.506	14.932	3.943e-06	40.792	0.000436	0.00043708	0.00012277	206.98	4.7155e-06	4.9524e-06	494.41	111.45	4.8254e-06	4.8898e-06	256.53	75.342	30.446	14.265	4.7134e-06	38.566	256.518	289.599	219.192	169.223	310.929	235.432	169.248	172.545	212.844	293.304	171.187	176.758	177.417	181.312	336.198	179.961	-8191	255	
1536.982	1	1	0	0	0.24582	0.3364	0.228	0.17646	0.12799	0.1066	0.14397	0.067899	0.26186	0.1241	0.31621	0.28877	0.094181	0.16491	0.30738	0.26387	-1.3771	-2.4813	-2.2917	-2.2792	-2.5417	-2.1146	-2.2271	-2.6167	-1.9667	-2.4083	-2.4188	-2.0729	-2.5833	-2.2625	-2.2521	-2.4708	354.227	243.545	468.905	178.755	457.238	470.685	201.019	301.331	174.782	195.788	178.722	484.435	394.502	276.652	243.187	490.289	0.00041127	0.00018622	6.8212e-05	215.51	1.2831e-06	4.4843e-06	518.54	114.83	2.6205e-06	4.2529e-06	258.65	78.363	30.458	14.853	4.6177e-06	40.305	0.00043656	0.00043125	0.00012317	203.66	4.6422e-06	4.8269e-06	487.34	108.13	4.7384e-06	4.7169e-06	244.12	73.531	29.262	14.267	4.5418e-06	38.373	250.571	161.316	246.890	169.590	386.318	303.344	169.093	172.578	256.893	356.860	171.195	177.564	177.692	181.702	340.857	180.346	-8191	255	
1537.079	1	1	0	0	0.15774	0.088688	0.14716	0.15258	0.20508	0.10812	0.15667	0.046421	0.10182	0.10033	0.087541	0.15661	0.23857	0.18745	0.092512	0.14215	-1.5896	-2.2375	-2.2896	-2.0354	-2.5792	-2.3021	-2.3937	-2.5521	-2.0854	-2.3042	-2.2625	-2.0583	-2.4854	-2.3771	-2.1937	-2.6854	305.181	214.022	455.710	384.606	372.521	494.719	161.000	211.758	506.218	470.608	388.007	197.754	252.535	449.381	209.255	493.824	0.00040822	0.00051303	4.9769e-05	202.76	2.8853e-06	4.1388e-06	509.04	108.9	1.3118e-06	3.492e-06	246.34	76.365	29.932	14.869	1.6853e-06	41.265	0.00042403	0.0004191	0.00011692	192.49	4.4813e-06	4.5064e-06	478.9	102.62	4.4676e-06	4.5069e-06	233.62	72.221	28.468	14.219	4.3607e-06	38.925	253.700	246.822	362.579	169.909	325.853	288.130	168.730	172.758	362.651	271.957	172.154	177.109	178.407	181.379	408.362	180.753	-8191	255	
1537.175	1	1	0	0	0.19019	0.097995	0.25193	0.17081	0.28391	0.10147	0.11907	0.29537	0.051059	0.034192	0.24156	0.2618	0.26367	0.031116	0.17567	0.15727	-1.7437	-2.4167	-2.3812	-2.0583	-2.5125	-2.3604	-2.2812	-2.1188	-1.9375	-2.1188	-1.925	-1.8312	-2.0917	-2.0021	-1.8083	-2.15	129.528	166.406	-78.721	1.272	-84.959	-159.330	102.834	-81.243	-140.786	-157.046	-50.670	-109.018	-127.191	91.833	15.149	67.667	0.00041846	0.00055675	9.521e-05	200.63	2.2965e-06	3.2788e-06	515.79	13.533	3.2844e-07	1.157e-06	0.1238	0.016813	0.010083	0.0038195	6.9944e-08	0.00079219	0.0004241	0.00041339	0.0001123	189.76	4.3369e-06	4.3306e-06	483.32	14.438	-4.9075e-06	-3.9134e-06	-2.027	-0.49758	-0.41533	-0.11207	-1.4147e-06	-0.12198	-103.087	-85.084	-110.353	169.676	-25.479	32.694	170.031	-147.167	19.997	5.430	-135.667	174.641	-109.055	-75.824	-45.053	62.543	-8191	255	
1537.271	1	1	0	0	0.26575	0.23233	0.16204	0.27037	0.15948	0.28139	0.19003	0.15491	0.11539	0.1028	0.19506	0.07052	0.1236	0.20384	0.16952	0.061079	-1.4167	-1.7854	-2.0042	-1.75	-2.1063	-2.1312	-1.6854	-2.2333	-2.1	-1.7625	-2.1021	-1.7521	-1.9542	-1.8937	-1.8021	-1.9875	339.016	326.330	460.226	440.343	175.234	347.530	255.706	364.801	248.184	118.567	412.596	460.737	441.675	123.692	409.501	276.974	1.8661e-06	6.9422e-06	2.2571e-06	0.019927	2.0157e-07	1.0977e-07	0.032104	0.0049714	2.1894e-07	3.0949e-07	0.0040243	0.0041754	0.0061123	0.00053354	2.1376e-07	0.0030842	-8.0777e-05	-9.0524e-05	-2.3564e-05	-0.91571	-7.5222e-07	-7.234e-07	-0.80075	-0.24091	-5.701e-07	-5.6452e-07	-0.3996	-0.10247	-0.097909	-0.030425	-4.1738e-07	-0.04069	293.461	175.071	389.675	467.673	225.708	350.819	191.329	132.438	145.102	166.408	244.267	149.359	331.486	426.420	286.502	127.177	-8191	255	
1537.367	1	1	0	0	0.068378	0.089689	0.20133	0.13251	0.25337	0.27014	0.01648	0.21234	0.047136	0.11735	0.12872	0.044256	0.26402	0.047611	0.11395	0.23036	-1.4875	-1.7479	-2.2917	-1.8542	-2.0062	-2.1354	-1.6833	-2.1375	-1.9354	-1.8563	-2.2167	-1.6708	-1.95	-2.1437	-1.5708	-2.1937	423.100	267.608	191.496	458.053	384.131	245.513	298.506	237.194	245.636	426.498	444.042	335.503	196.463	342.037	362.178	121.680	3.8098e-06	1.3944e-05	8.3525e-06	0.029374	8.4857e-08	9.7252e-08	0.038862	0.00045761	7.5042e-08	3.154e-07	0.0078338	0.0061578	0.005684	0.0021644	2.4589e-07	0.0035698	-2.7957e-05	-3.4823e-05	-1.0209e-05	-0.39572	-3.4766e-07	-3.5704e-07	-0.39299	-0.12382	-3.0346e-07	-2.8983e-07	-0.22784	-0.056237	-0.055375	-0.019682	-2.5453e-07	-0.025078	204.708	314.120	263.046	104.719	403.999	107.357	387.505	119.912	432.864	210.833	203.243	362.756	131.817	324.300	115.358	420.336	-8191	255	
1537.463	1	1	0	0	0.12083	0.13722	0.019201	0.1291	0.11824	0.22783	0.13319	0.36418	0.17664	0.20028	0.12271	0.075021	0.24708	0.32362	0.20171	0.181	-1.5771	-1.8125	-2.1708	-1.7229	-2.0104	-2.2479	-1.6458	-1.9875	-2.0021	-1.8188	-2.0312	-1.8458	-1.5917	-2.1375	-1.8167	-1.9438	165.701	-52.169	128.652	57.437	-107.423	110.756	-151.469	-31.881	-91.556	-66.771	50.749	30.812	76.919	48.035	49.192	-77.595	1.4498e-06	3.4185e-05	4.4331e-06	0.0053711	1.0966e-07	7.4638e-08	0.015854	0.0052522	1.2028e-07	9.4668e-08	0.035097	0.0061474	0.005107	0.003133	2.2403e-07	0.001729	-1.7291e-05	-2.2807e-05	-6.7342e-06	-0.27248	-2.3372e-07	-2.608e-07	-0.27824	-0.090191	-2.3627e-07	-2.0336e-07	-0.17243	-0.047647	-0.043511	-0.015366	-1.8501e-07	-0.020657	67.793	-51.115	-136.607	-49.469	9.679	-58.364	7.599	-139.129	83.656	-108.102	-28.440	177.642	52.761	-55.990	-12.863	-118.982	-8191	255	
1537.584	1	1	0	0	0.46852	0.020331	0.086194	0.10658	0.42919	0.15386	0.064294	0.14784	0.028741	0.054786	0.058965	0.29504	0.31904	0.16761	0.076943	0.23658	-1.6271	-1.7313	-2.3229	-1.6875	-1.8583	-2.3333	-1.8646	-2.0292	-2.1937	-1.8417	-2.1833	-2.0312	-1.9771	-2.1312	-1.8771	-2.0042	399.195	397.329	203.821	288.253	457.033	399.092	179.821	390.966	458.912	394.610	355.354	196.208	411.738	280.779	334.291	393.866	4.374e-06	4.1802e-05	5.0134e-06	0.01367	2.9071e-07	2.1446e-07	0.04029	0.020025	1.1421e-07	3.7732e-08	0.0090295	0.0039372	0.0030931	0.0038516	1.1106e-07	0.0016918	-1.4694e-05	-1.7144e-05	-5.5942e-06	-0.22015	-1.7548e-07	-2.2183e-07	-0.25233	-0.075418	-1.9153e-07	-1.7201e-07	-0.1575	-0.042274	-0.035655	-0.014136	-1.7582e-07	-0.017931	393.253	212.071	193.088	302.044	162.969	131.564	389.022	130.204	413.035	290.268	395.798	377.562	259.768	305.759	135.208	159.578	-8191	255	
1537.680	1	1	0	0	0.0070883	0.29977	0.050918	0.036484	0.1966	0.076602	0.047952	0.032897	0.15363	0.28691	0.18153	0.152	0.19955	0.15992	0.21197	0.33569	-1.8167	-1.5792	-1.9562	-2.1375	-1.7625	-2.15	-1.9771	-1.775	-2.1458	-1.7604	-2.1917	-1.8458	-1.6083	-2.0396	-1.7229	-1.9	197.891	139.975	214.839	245.417	115.933	-78.288	128.995	155.866	-27.147	250.946	69.274	270.209	-51.981	27.114	3.936	23.388	6.3673e-06	2.9897e-05	3.049e-06	0.021662	2.9924e-07	3.2277e-07	0.012648	0.013649	2.078e-07	2.1839e-07	0.024941	0.0010828	0.0041645	0.0013963	2.7885e-07	0.0044493	-1.242e-05	-1.5327e-05	-5.087e-06	-0.19915	-1.4314e-07	-2.1655e-07	-0.20187	-0.065474	-1.8644e-07	-1.5827e-07	-0.12067	-0.039218	-0.028713	-0.012998	-1.4792e-07	-0.01425	-82.445	210.901	-56.266	-34.022	51.082	104.573	14.370	-70.289	265.234	70.200	106.721	175.499	199.675	220.684	-56.301	183.200	-8191	255	
1537.776	1	1	0	0	0.26786	0.17411	0.18434	0.042364	0.25955	0.034032	0.32215	0.078755	0.19507	0.11696	0.26169	0.12036	0.15549	0.18353	0.050903	0.14966	-1.4521	-1.8104	-2.0646	-1.9562	-1.8021	-2.1583	-1.7313	-1.7833	-2.1354	-1.7313	-1.8333	-2.1458	-1.7021	-2.0083	-1.8729	-1.8167	184.941	211.954	336.524	153.577	294.348	179.815	417.275	163.899	188.520	101.924	401.537	318.387	394.319	374.575	282.548	359.334	1.1495e-06	3.5888e-05	1.7379e-05	0.0052852	1.8589e-07	5.2074e-07	0.031143	0.011187	2.6877e-07	3.427e-07	0.040064	0.0016244	0.0096858	0.0019556	3.2194e-07	0.002293	-1.2178e-05	-1.3777e-05	-4.2418e-06	-0.17987	-1.4044e-07	-1.8427e-07	-0.19246	-0.056334	-1.842e-07	-1.4159e-07	-0.12421	-0.034617	-0.029691	-0.011163	-1.5606e-07	-0.015119	266.038	294.220	172.820	326.918	351.455	205.945	341.135	119.488	456.183	412.945	411.966	330.480	125.147	107.324	119.436	347.490	-8191	255	
1537.872	1	1	0	0	0.017309	0.064833	0.10013	0.067913	0.03385	0.17383	0.020401	0.11966	0.13091	0.21742	0.085016	0.24242	0.15268	0.02408	0.16696	0.29207	-1.5729	-1.7417	-2.0854	-2.0646	-1.6729	-2.3396	-1.9396	-1.7146	-1.9146	-1.9708	-2.0521	-2.1354	-1.7917	-2.1542	-2.0625	-1.7146	323.586	176.421	303.785	83.981	231.434	107.163	245.481	163.519	23.784	200.211	332.313	103.083	271.314	313.502	308.131	174.993	5.4749e-06	5.1677e-05	7.3297e-06	0.041397	2.452e-07	1.5762e-07	0.069197	0.0063606	1.6402e-07	1.54e-07	0.010632	0.011288	0.0048164	0.0010191	2.2262e-07	0.0023712	-1.2155e-05	-1.365e-05	-4.458e-06	-0.18452	-1.3146e-07	-1.807e-07	-0.21165	-0.052885	-1.9632e-07	-1.6537e-07	-0.12078	-0.037191	-0.030543	-0.012014	-1.6752e-07	-0.012322	201.132	33.924	115.464	266.457	343.191	179.184	59.331	14.492	242.597	195.652	263.839	304.699	304.705	134.697	221.946	27.767	-8191	255	
1537.991	1	1	0	0	0.12537	0.12396	0.10616	0.1752	0.20435	0.079088	0.17119	0.10131	0.14438	0.11297	0.21837	0.26445	0.19878	0.15589	0.14158	0.14173	-1.6437	-1.8958	-1.925	-2.1833	-1.6917	-2.0396	-2.0438	-1.8083	-2.3833	-1.7458	-1.9479	-2.1604	-1.5562	-2.075	-2.0187	-1.8458	260.481	239.048	298.079	372.327	324.175	311.995	422.657	287.834	235.044	105.013	295.727	131.721	221.649	158.270	110.032	359.420	1.6259e-06	4.0284e-05	1.1294e-05	0.012174	1.0042e-07	7.8179e-08	0.028627	0.0081232	1.9695e-07	9.1327e-08	0.017853	0.0065849	0.0076991	0.0019203	2.6403e-07	0.0035162	-1.0423e-05	-1.3805e-05	-3.9666e-06	-0.1871	-1.3101e-07	-1.5989e-07	-0.20148	-0.049838	-1.8974e-07	-1.3928e-07	-0.11569	-0.035969	-0.025242	-0.011061	-1.5908e-07	-0.012104	365.669	106.210	126.137	101.143	427.431	142.488	362.350	102.345	393.581	410.042	95.875	168.286	425.491	253.237	281.298	179.116	-8191	255	
1538.065	1	1	0	0	0.16749	0.10816	0.12379	0.18985	0.26939	0.1069	0.29534	0.16085	0.18018	0.37803	0.12588	0.055465	0.085106	0.086665	0.076618	0.13332	-1.9	-1.9229	-1.8937	-2.0792	-1.7792	-2.3063	-2.0854	-1.5958	-2.0938	-1.9125	-1.8083	-2.1521	-1.8771	-1.7958	-2.1	-1.7542	141.044	433.444	222.444	390.127	286.374	313.500	126.481	199.461	345.073	421.226	353.736	108.552	257.177	359.966	260.902	459.677	2.8621e-06	2.3689e-05	1.1442e-05	0.01703	3.8586e-07	8.5807e-08	0.047835	0.0094987	2.1939e-07	3.4358e-07	0.019565	0.0030278	0.0084037	0.0013627	3.7169e-07	0.0019831	-1.0827e-05	-1.3031e-05	-3.8762e-06	-0.20414	-1.3026e-07	-1.5524e-07	-0.2057	-0.044895	-1.6684e-07	-1.4823e-07	-0.10308	-0.036097	-0.029313	-0.0098512	-1.6089e-07	-0.01193	146.525	135.925	141.315	274.023	404.696	233.984	351.401	125.245	193.937	445.653	452.104	420.307	438.689	453.848	243.294	439.118	-8191	255	
1538.159	1	1	0	0	0.12772	0.052764	0.29419	0.34508	0.11701	0.11601	0.2396	0.19712	0.31363	0.10222	0.11554	0.041432	0.22701	0.14589	0.294	0.26606	-1.5604	-2.0125	-1.8438	-2.0458	-1.8583	-2.1	-2.0229	-1.6604	-2.1958	-1.9312	-1.8104	-2.1208	-1.9729	-1.9917	-2.1771	-1.8271	79.329	57.075	-47.543	-50.833	-31.466	-42.040	43.972	77.351	116.488	229.187	63.698	163.698	-57.423	17.671	175.197	241.523	6.1776e-06	1.8164e-05	1.3506e-06	0.04249	3.4451e-07	4.3769e-08	0.071237	0.0041418	2.2233e-07	2.1526e-07	0.005354	0.0047565	0.0081324	0.00043076	4.6558e-07	0.0046655	-1.1243e-05	-1.3608e-05	-3.318e-06	-0.17815	-1.346e-07	-1.5617e-07	-0.20244	-0.044492	-1.5188e-07	-1.575e-07	-0.087928	-0.033523	-0.028303	-0.010015	-1.5652e-07	-0.011887	106.028	25.229	50.465	37.734	-110.050	-30.122	-19.287	-97.591	109.341	66.018	128.287	57.577	-103.553	122.224	123.706	194.550	-8191	255	
1538.280	1	1	0	0	0.42007	0.15986	0.17433	0.087121	0.047142	0.34441	0.1287	0.16728	0.082051	0.23744	0.18885	0.07855	0.076901	0.11736	0.12927	0.17385	-1.5938	-1.9875	-1.6313	-2.1708	-1.7938	-1.9792	-2.0917	-1.7083	-2.2667	-2.1813	-1.6667	-2.0667	-1.8146	-1.9479	-2.2229	-1.7104	228.059	87.184	52.294	142.246	6.059	22.684	280.996	86.262	248.261	18.223	22.839	238.941	164.015	179.768	163.920	315.834	2.3826e-06	1.1723e-05	4.2322e-06	0.051709	1.206e-07	1.5089e-07	0.033533	0.0061406	2.3496e-07	1.8984e-07	0.03718	0.0045321	0.0058738	0.0032882	1.8106e-07	0.0019173	-9.4421e-06	-1.3848e-05	-3.3337e-06	-0.18435	-1.4029e-07	-1.3583e-07	-0.20897	-0.050643	-1.435e-07	-1.6167e-07	-0.09202	-0.035679	-0.031048	-0.0087236	-1.7401e-07	-0.012785	273.133	309.863	256.390	315.032	213.986	54.136	186.647	9.092	341.288	326.407	13.816	164.108	226.930	140.918	347.441	237.308	-8191	255	
1538.376	1	1	0	0	0.22353	0.059195	0.16121	0.23808	0.1075	0.26704	0.057962	0.040838	0.22749	0.11632	0.21121	0.23872	0.08296	0.12273	0.17891	0.28487	-1.6229	-2.0062	-1.7062	-1.8833	-1.7	-1.9833	-2.2188	-1.7646	-2.1458	-2.0229	-1.8104	-2.2104	-1.9729	-1.7938	-2.3271	-1.7146	429.918	369.635	166.125	148.754	182.942	410.846	300.579	496.597	317.892	341.791	463.841	405.062	289.987	210.920	395.844	180.841	9.8949e-07	1.72e-05	1.0154e-05	0.0038692	7.9497e-08	2.7012e-07	0.028518	0.014456	2.2116e-07	2.2467e-07	0.023916	0.0075098	0.00092209	0.00057853	2.1458e-07	0.0024666	-8.9457e-06	-1.4087e-05	-3.3376e-06	-0.18693	-1.2966e-07	-1.4266e-07	-0.21108	-0.048918	-1.3362e-07	-1.5148e-07	-0.079523	-0.033041	-0.028682	-0.0082008	-1.5637e-07	-0.013046	438.162	231.126	311.460	504.981	505.836	397.508	494.941	164.860	477.242	429.920	359.270	473.279	259.010	454.197	164.841	466.440	-8191	255	
1538.472	1	1	0	0	0.31274	0.2294	0.087787	0.075336	0.16773	0.18852	0.13748	0.25161	0.07073	0.094565	0.077536	0.10644	0.19031	0.17226	0.061109	0.25121	-1.3979	-2.1	-1.375	-2.075	-2.025	-1.8521	-2.1958	-1.7542	-1.95	-2.1958	-1.775	-1.975	-1.9083	-1.6812	-2.1708	-2.0021	-97.891	95.798	13.525	-77.730	75.606	-100.635	70.415	-9.489	107.957	118.402	224.621	-24.690	169.133	-87.313	-1.147	101.817	1.1092e-06	1.6148e-05	1.3757e-05	0.033421	3.0913e-07	3.1752e-07	0.0054941	0.010535	2.3969e-07	3.0616e-07	0.0087245	0.0010974	0.0050536	0.0010246	1.9367e-07	0.0037367	-6.7757e-06	-1.4707e-05	-3.3022e-06	-0.1649	-1.4973e-07	-1.2574e-07	-0.19553	-0.054667	-1.4335e-07	-1.5842e-07	-0.081292	-0.03259	-0.029186	-0.0074833	-1.6511e-07	-0.013713	-72.103	39.642	28.232	-104.325	130.304	-21.246	73.480	-101.887	-118.777	170.382	107.441	89.462	85.618	184.726	128.093	-6.468	-8191	255	
1538.568	1	1	0	0	0.045615	0.36962	0.18502	0.24292	0.16733	0.28979	0.090819	0.13909	0.22819	0.046188	0.17063	0.12752	0.18709	0.11734	0.23138	0.021888	-1.3375	-2.0229	-1.3625	-2.0458	-2.0396	-1.5417	-2.0667	-1.8229	-1.8563	-2.1271	-1.7771	-1.9792	-2.0875	-1.6333	-2.0438	-1.9625	129.749	60.572	109.557	269.995	149.508	307.603	100.536	214.248	79.338	304.050	98.801	346.697	260.716	211.564	158.864	49.715	1.4225e-06	3.9594e-05	4.4616e-06	0.012609	6.4559e-08	1.9633e-07	0.034378	0.010243	8.4112e-08	1.8652e-07	0.0171	0.0012455	0.0041869	0.0021025	4.1199e-07	0.0010266	-6.995e-06	-1.4003e-05	-2.9642e-06	-0.14648	-1.4374e-07	-1.2512e-07	-0.19131	-0.050815	-1.1462e-07	-1.5966e-07	-0.086159	-0.032912	-0.030165	-0.0075653	-1.529e-07	-0.013902	198.444	-8.204	118.338	254.540	48.878	290.428	337.093	6.630	237.117	152.410	246.371	23.739	152.629	154.108	24.596	294.615	-8191	255	
1538.664	1	1	0	0	0.17873	0.13989	0.21063	0.21135	0.1464	0.14373	0.12086	0.14969	0.2531	0.069179	0.15634	0.2406	0.067517	0.089748	0.16621	0.23971	-1.2812	-2.2875	-1.7854	-2	-2.1146	-1.725	-2.2375	-1.9229	-1.7042	-2.3438	-1.8083	-1.9188	-2.1958	-1.7021	-2.0208	-1.8625	66.755	2.216	201.531	273.169	256.461	116.797	23.970	-42.376	131.056	205.954	44.531	172.060	158.375	-8.800	90.748	64.761	2.2192e-06	1.5596e-05	9.7097e-06	0.021007	1.7524e-07	1.7187e-07	0.0055105	0.010681	6.9681e-08	4.1329e-07	0.0068437	0.0056582	0.0093677	0.0012405	1.2478e-07	0.0013744	-6.2447e-06	-1.4524e-05	-3.0624e-06	-0.13443	-1.4269e-07	-1.2077e-07	-0.19074	-0.055127	-1.2554e-07	-1.6753e-07	-0.096223	-0.026253	-0.030101	-0.0069912	-1.5848e-07	-0.012481	206.846	167.388	234.425	45.866	-11.197	258.711	90.866	-60.123	152.453	124.239	30.204	259.776	-19.729	271.964	-60.782	226.135	-8191	255	
1538.760	1	1	0	0	0.32498	0.28121	0.45412	0.16296	0.15347	0.05049	0.058346	0.092094	0.21343	0.21327	0.24653	0.039576	0.19423	0.2762	0.13735	0.068306	-1.3125	-2.0479	-1.8833	-2.1396	-2.0958	-1.7146	-1.9958	-2.0208	-1.65	-2.2417	-1.9167	-1.825	-2.2313	-1.9458	-2.0812	-2.0917	142.964	144.211	391.496	479.208	405.212	371.436	310.769	396.379	187.066	332.225	136.826	374.753	185.058	194.545	406.741	331.550	2.6459e-06	1.888e-05	4.3005e-06	0.0089613	2.8979e-07	2.5617e-07	0.040385	0.0095024	4.7957e-07	2.7799e-07	0.021166	0.0049291	0.0062788	0.0020975	1.4043e-07	0.0055486	-6.0716e-06	-1.4482e-05	-3.3298e-06	-0.14166	-1.4673e-07	-1.155e-07	-0.18344	-0.053862	-1.1402e-07	-1.6784e-07	-0.098878	-0.023872	-0.033383	-0.00776	-1.2968e-07	-0.014047	393.223	412.761	262.884	286.561	429.360	322.286	400.315	144.273	423.956	129.342	379.467	298.696	395.668	341.663	461.903	186.931	-8191	255	
1538.857	1	1	0	0	0.28085	0.24604	0.26536	0.1785	0.2487	0.14389	0.22408	0.13114	0.22946	0.12707	0.030919	0.17083	0.20904	0.089408	0.076153	0.046974	-1.2687	-2.2562	-1.775	-1.6833	-2.1063	-1.7896	-1.9312	-1.9271	-1.6917	-1.9167	-1.9229	-1.7104	-2.0875	-1.6354	-1.8792	-1.9646	21.212	3.477	251.944	52.912	80.886	45.654	163.497	60.424	270.413	126.005	-10.655	-25.305	114.364	-30.016	302.007	-27.795	8.2013e-06	2.8213e-05	1.2716e-05	0.061829	3.7973e-07	1.0807e-07	0.030541	0.010577	4.0036e-07	1.1737e-07	0.017502	0.00071702	0.0011662	0.00053248	3.9844e-07	0.0042261	-6.1293e-06	-1.358e-05	-3.2393e-06	-0.11567	-1.4389e-07	-1.2046e-07	-0.16886	-0.056966	-1.0923e-07	-1.487e-07	-0.092795	-0.024676	-0.030007	-0.0085084	-1.2184e-07	-0.014336	234.693	264.900	135.535	184.316	65.872	-17.298	132.530	-28.206	-26.044	38.296	-27.464	-44.298	288.915	18.736	-21.173	221.059	-8191	255	
1538.953	1	1	0	0	0.034485	0.11463	0.24388	0.08039	0.13059	0.30914	0.31961	0.083916	0.15112	0.02091	0.24909	0.23438	0.23459	0.19223	0.040891	0.17984	-1.2896	-2.0479	-1.9562	-1.7771	-2.1229	-1.725	-2.0021	-2.0292	-1.5896	-2.1937	-1.7146	-1.8271	-1.9917	-1.5604	-2.125	-2.0417	112.768	-36.110	152.932	-83.059	32.583	-86.325	109.911	78.177	-94.541	-86.135	-53.610	226.618	191.419	187.441	80.825	19.973	3.3923e-06	1.5147e-05	8.2082e-06	0.025133	2.313e-07	2.4845e-07	0.018986	0.010256	1.1561e-07	3.582e-07	0.014108	0.0050101	0.0047218	0.0029442	1.2374e-07	0.00026085	-5.0789e-06	-1.3904e-05	-3.4398e-06	-0.12858	-1.4778e-07	-1.1705e-07	-0.15984	-0.055069	-9.9506e-08	-1.487e-07	-0.10142	-0.025448	-0.031584	-0.0081803	-1.3088e-07	-0.015003	57.876	155.574	207.151	96.245	-104.983	124.927	-15.882	-92.815	-40.334	23.799	55.806	51.337	90.670	-15.430	15.569	143.427	-8191	255	
1539.072	1	1	0	0	0.21877	0.12534	0.023716	0.10463	0.22618	0.19367	0.2722	0.23401	0.20442	0.075962	0.25451	0.085153	0.16247	0.093976	0.13725	0.06125	-1.2896	-2.0854	-1.9188	-1.5667	-2.0625	-1.9333	-2.0021	-2.1562	-1.7938	-2.1125	-2.0438	-1.6688	-2.2125	-2.0604	-1.8563	-2.2458	414.729	444.716	395.355	294.268	462.512	357.637	303.573	423.676	377.263	403.128	191.809	251.396	294.581	340.469	315.244	203.270	6.5966e-06	2.2063e-05	8.3821e-06	0.0081323	2.6186e-07	1.9572e-07	0.024092	0.015716	2.8139e-07	2.6202e-07	0.021814	0.0093666	0.0038046	0.001391	3.9642e-07	0.0030559	-5.3097e-06	-1.2129e-05	-3.5932e-06	-0.12341	-1.5407e-07	-1.3086e-07	-0.15716	-0.054379	-1.0729e-07	-1.3588e-07	-0.10828	-0.024773	-0.028082	-0.0085904	-1.1384e-07	-0.015685	377.665	134.357	293.517	393.711	308.067	400.084	368.740	141.350	141.013	216.629	258.189	474.317	165.448	369.205	468.380	271.007	-8191	255	
1539.168	1	1	0	0	0.087829	0.13101	0.19261	0.22494	0.020092	0.1563	0.1354	0.029532	0.1343	0.1682	0.21657	0.12587	0.19316	0.23873	0.17296	0.097357	-1.1542	-1.9396	-2.0458	-1.6958	-2.2042	-1.925	-1.8667	-2.2771	-1.9292	-1.9229	-1.8854	-1.7792	-2.2292	-1.7708	-1.7354	-2.3646	-36.265	4.584	-99.779	179.400	-19.663	88.786	-71.550	-157.779	166.808	-112.403	5.117	140.172	11.743	61.260	164.735	-101.912	3.9815e-06	1.5e-05	9.6103e-06	0.014308	2.2731e-07	9.0277e-07	0.038415	0.0044707	3.7062e-07	3.5849e-07	0.020963	0.010303	0.00045726	0.0012232	3.3777e-07	0.0018849	-6.0947e-06	-1.2876e-05	-3.5342e-06	-0.11877	-1.388e-07	-1.4297e-07	-0.14603	-0.056161	-1.0908e-07	-1.3789e-07	-0.097329	-0.023293	-0.029817	-0.0092362	-1.0223e-07	-0.014829	-57.575	-75.365	-106.788	27.554	27.907	31.046	170.591	-141.665	-48.407	14.840	-150.550	111.499	-92.753	-154.740	-105.765	-61.795	-8191	255	
1539.264	1	1	0	0	0.14555	0.17957	0.15306	0.37858	0.063016	0.28523	0.22134	0.22479	0.19149	0.081544	0.19822	0.22084	0.18896	0.19474	0.39085	0.14035	-1.225	-1.9604	-2.0375	-1.6708	-1.9792	-1.9604	-1.9333	-1.9958	-1.9292	-1.9833	-2.3333	-1.7104	-2.0292	-2.0312	-1.5021	-2.1708	378.245	369.957	253.422	248.517	491.878	281.868	446.661	379.062	245.738	337.934	307.591	411.857	175.794	173.835	451.763	281.043	3.8677e-06	3.1305e-05	9.555e-06	0.056316	3.245e-07	3.0767e-07	0.016124	0.0099102	7.5151e-08	1.1401e-07	0.02343	0.0088713	0.0038552	0.0014382	2.6855e-07	0.0037333	-5.2405e-06	-1.1241e-05	-3.7229e-06	-0.10569	-1.3296e-07	-1.363e-07	-0.14986	-0.058748	-1.1731e-07	-1.2538e-07	-0.11436	-0.022585	-0.027672	-0.0090517	-1.1083e-07	-0.013916	502.124	165.925	250.797	417.460	281.436	276.976	447.322	182.684	257.026	169.200	404.247	255.828	349.464	297.048	278.307	448.634	-8191	255	
1539.360	1	1	0	0	0.19021	0.067724	0.026226	0.13603	0.089022	0.22042	0.11071	0.0655	0.091103	0.1898	0.090915	0.10949	0.14528	0.22397	0.14765	0.17738	-1.3896	-1.8687	-2.2229	-1.6854	-2.0646	-2.3146	-1.6542	-2.2208	-1.8229	-1.8813	-2.1542	-1.6021	-1.9688	-1.9667	-1.9188	-2.0292	-38.343	120.052	139.927	-141.915	57.529	-14.964	-59.832	100.511	-62.253	46.232	93.194	-40.975	68.756	-16.887	5.111	-62.266	3.1748e-06	2.108e-05	1.1119e-05	0.013966	1.9234e-07	2.2867e-07	0.062409	0.0045823	1.9415e-07	5.2549e-07	0.016506	0.0026458	0.0046246	0.0014543	2.256e-07	0.0042182	-7.6991e-06	-1.1453e-05	-3.9352e-06	-0.11446	-1.388e-07	-1.3971e-07	-0.14219	-0.053747	-1.1477e-07	-1.2245e-07	-0.11049	-0.025995	-0.02622	-0.009595	-1.0193e-07	-0.014713	-96.549	-81.710	-0.869	-142.781	109.350	-23.820	195.221	-142.474	186.853	-86.532	6.852	-111.097	190.223	-50.818	-29.826	99.327	-8191	255	
1539.456	1	1	0	0	0.12366	0.22492	0.34637	0.28314	0.12541	0.1502	0.15404	0.13095	0.02469	0.21436	0.18199	0.086853	0.052077	0.2054	0.085457	0.26201	-1.4104	-1.8083	-2.1354	-1.7333	-1.95	-2.1896	-1.6771	-2.0646	-2.1208	-1.7771	-2.1854	-1.8292	-1.7313	-2.0875	-1.7938	-1.9854	468.400	255.869	439.289	511.958	416.419	502.849	317.373	401.765	332.586	508.531	292.253	526.347	346.033	489.493	354.924	486.514	3.0845e-06	3.7488e-05	5.1228e-06	0.045502	1.3954e-07	2.0184e-07	0.038674	0.0045195	9.2457e-08	2.7129e-08	0.028753	0.0062614	0.010661	0.00085145	4.5653e-07	0.0023827	-7.4567e-06	-9.8046e-06	-3.8408e-06	-0.11946	-1.1424e-07	-1.5229e-07	-0.13375	-0.051907	-1.3287e-07	-9.9749e-08	-0.10341	-0.027346	-0.02398	-0.010528	-1.06e-07	-0.013583	295.428	315.144	286.896	286.115	291.180	285.514	178.121	192.959	192.211	522.440	523.178	258.464	465.159	379.020	235.117	182.769	-8191	255	
1539.552	1	1	0	0	0.18111	0.18436	0.18378	0.15976	0.12006	0.056218	0.32378	0.11575	0.28413	0.13837	0.21591	0.18941	0.030512	0.093558	0.013751	0.14976	-1.6417	-1.7021	-2.2896	-1.8958	-1.9479	-2.1	-1.675	-2.1562	-2.0896	-1.65	-2.1646	-1.9542	-2.0458	-2.125	-1.8771	-1.9542	255.673	202.152	420.668	67.545	146.987	366.213	370.137	365.105	245.430	307.906	285.206	368.110	327.512	350.936	316.508	266.011	2.2443e-06	3.2689e-05	7.9644e-06	0.043098	1.6149e-07	3.3814e-07	0.064878	0.0075157	1.0979e-07	2.3405e-07	0.016038	0.0033205	0.0055891	0.0009867	8.5789e-08	0.0027543	-7.2836e-06	-8.9171e-06	-3.9784e-06	-0.13959	-1.2397e-07	-1.6346e-07	-0.13375	-0.051218	-1.3512e-07	-1.1519e-07	-0.11547	-0.025673	-0.025053	-0.010026	-1.2003e-07	-0.013206	165.356	275.959	202.711	296.019	115.626	294.401	382.925	85.246	242.115	225.166	177.441	341.700	105.670	147.051	198.254	181.821	-8191	255	
1539.673	1	1	0	0	0.15122	0.096728	0.21835	0.14769	0.065153	0.1283	0.17495	0.39802	0.12173	0.21766	0.17308	0.089916	0.22367	0.033343	0.196	0.039715	-1.6688	-1.7354	-2.2083	-1.8708	-1.8	-2.2375	-1.8354	-1.8687	-2.0708	-1.8354	-1.9146	-2.0938	-1.7771	-2.2229	-1.8771	-1.9875	251.274	330.955	452.657	469.082	356.347	410.282	201.528	416.221	411.628	283.226	370.379	286.439	506.132	478.340	367.609	388.898	7.1788e-06	5.38e-06	7.8614e-06	0.024668	2.7625e-07	1.6387e-07	0.049292	0.000899	1.1763e-07	2.7632e-07	0.02581	0.0062031	0.0043448	0.0017681	1.6353e-07	0.00068319	-8.2532e-06	-9.0298e-06	-3.7779e-06	-0.14596	-1.1783e-07	-1.6548e-07	-0.15159	-0.051505	-1.3168e-07	-9.9285e-08	-0.10164	-0.025834	-0.02417	-0.010026	-1.1384e-07	-0.011394	435.008	354.551	348.806	475.681	176.335	260.825	357.497	178.706	306.241	474.639	362.710	212.402	175.592	464.900	511.853	409.992	-8191	255	
1539.769	1	1	0	0	0.1808	0.17956	0.1608	0.34933	0.1273	0.13272	0.32218	0.1784	0.093759	0.10178	0.25535	0.30434	0.12335	0.10383	0.18455	0.11129	-1.4646	-1.8021	-2.0938	-2.0479	-1.8	-2.0729	-1.8188	-1.875	-2.1437	-1.9708	-2.2521	-2.1125	-1.6854	-2.2604	-1.875	-1.9688	264.710	166.262	515.901	390.453	490.086	184.402	273.018	462.676	467.429	439.970	455.513	251.735	218.881	226.931	237.210	298.186	2.6718e-06	5.5419e-05	9.7981e-06	0.025735	2.0731e-07	5.6974e-07	0.038907	0.012541	1.5186e-07	5.0168e-07	0.014141	0.0028	0.0035728	0.00074301	1.9939e-07	0.0023848	-8.3455e-06	-1.0368e-05	-3.5067e-06	-0.14786	-1.1005e-07	-1.5663e-07	-0.13701	-0.046849	-1.5532e-07	-1.067e-07	-0.10474	-0.030017	-0.023791	-0.01021	-1.2093e-07	-0.011887	163.931	343.633	372.444	317.873	506.579	454.787	227.471	179.272	451.480	488.935	215.232	428.587	457.793	190.411	245.139	452.316	-8191	255	
1539.865	1	1	0	0	0.064936	0.089429	0.24704	0.049362	0.045704	0.17687	0.13992	0.17906	0.1317	0.15709	0.13949	0.12955	0.15383	0.08667	0.035997	0.16243	-1.6771	-1.8062	-2.0812	-1.7625	-1.8396	-2.1875	-1.8271	-1.7646	-2.1771	-1.7854	-2.1354	-2.1958	-1.8729	-2.3438	-2.1729	-1.8958	-141.348	99.710	-155.452	39.680	1.053	188.422	140.047	13.267	-11.379	178.464	-104.776	-108.462	77.782	79.778	-92.489	138.186	1.5854e-06	1.9571e-05	1.0443e-05	0.035492	4.543e-07	6.0702e-07	0.044484	0.0082722	2.2225e-07	3.2422e-07	0.010294	0.006415	0.0043741	0.00057109	3.9663e-07	0.0037503	-8.6918e-06	-8.8889e-06	-3.6128e-06	-0.15612	-1.0645e-07	-1.5136e-07	-0.15562	-0.045757	-1.5697e-07	-1.1874e-07	-0.10065	-0.029277	-0.02174	-0.0097897	-1.2606e-07	-0.0118	140.520	-9.458	0.672	-69.980	-71.988	-4.043	142.276	-145.690	-73.370	28.803	-53.577	21.103	80.673	-29.146	-108.833	-138.546	-8191	255	
1539.960	1	1	0	0	0.22839	0.28398	0.1073	0.1443	0.071935	0.20841	0.12567	0.15177	0.16071	0.28928	0.12371	0.21885	0.34412	0.22672	0.166	0.067462	-1.7479	-1.6625	-2.0479	-2.1521	-1.7437	-2.2083	-1.9792	-1.7771	-2.1542	-1.8292	-2.0208	-2.0229	-1.7208	-2.0042	-1.9125	-1.7375	277.685	67.085	9.083	209.682	110.367	95.078	-69.324	-14.664	200.580	-68.614	236.842	-72.555	268.354	68.324	139.179	94.256	3.1308e-06	1.4147e-05	4.6138e-06	0.038544	2.485e-07	3.7556e-07	0.027339	0.010399	5.2869e-08	1.9761e-07	0.014375	0.0096941	0.0073742	0.00073881	6.9614e-08	0.0011691	-8.2993e-06	-1.0988e-05	-3.2905e-06	-0.16421	-1.0825e-07	-1.4592e-07	-0.1608	-0.038859	-1.4006e-07	-1.2229e-07	-0.089698	-0.03066	-0.021677	-0.0094925	-1.2018e-07	-0.010278	280.048	277.132	125.795	17.105	96.213	-53.091	235.787	-56.013	62.848	261.077	160.585	176.625	168.200	277.619	172.007	241.873	-8191	255	
1540.056	1	1	0	0	0.06516	0.15649	0.072294	0.4023	0.3595	0.10686	0.1021	0.23658	0.062462	0.2422	0.36097	0.19811	0.089735	0.023165	0.2776	0.37303	-1.7271	-1.7979	-1.9479	-2.2333	-1.7125	-2.225	-2.0604	-2.0062	-2.1896	-2.1521	-1.9521	-2.3	-1.7917	-2.0896	-2.1021	-1.7417	171.365	7.854	148.954	94.994	-18.321	183.508	84.912	97.107	186.911	-7.491	-33.049	-18.237	184.624	139.429	135.838	189.845	3.1554e-06	2.1781e-05	1.0713e-05	0.024799	2.2789e-07	3.2148e-07	0.014058	0.0079434	3.7591e-07	3.1023e-07	0.020556	0.007802	0.0047848	0.0012554	2.7894e-07	0.0029371	-8.7033e-06	-1.0692e-05	-3.428e-06	-0.18073	-1.0406e-07	-1.4095e-07	-0.16157	-0.044262	-1.5547e-07	-1.1812e-07	-0.078195	-0.030789	-0.023254	-0.0086826	-1.3661e-07	-0.0096543	22.377	-72.203	254.008	60.268	42.811	167.768	228.534	-80.319	193.217	84.364	230.042	137.794	-38.771	-27.977	-61.840	101.489	-8191	255	
1540.152	1	1	0	0	0.20016	0.20272	0.2792	0.14001	0.011452	0.09322	0.17266	0.1452	0.21656	0.29437	0.18296	0.14498	0.047609	0.29737	0.083784	0.31588	-1.7042	-1.7875	-1.8521	-2.2271	-1.8021	-2.0021	-1.8687	-1.6479	-2.0833	-1.8875	-1.6604	-2.3021	-1.8813	-1.9	-2.1667	-1.8396	273.138	150.768	192.308	150.895	309.123	285.909	356.924	387.073	264.242	294.116	151.475	279.210	369.380	319.992	235.518	101.143	2.7997e-06	2.437e-05	3.2829e-06	0.029751	4.1586e-07	2.7008e-07	0.018465	0.0067235	1.3295e-07	1.4763e-07	0.015906	0.0032298	0.0030594	0.0019086	3.5281e-07	0.0034576	-9.2343e-06	-1.2059e-05	-3.0585e-06	-0.17247	-1.0121e-07	-1.4282e-07	-0.19361	-0.036272	-1.4125e-07	-1.2553e-07	-0.082177	-0.028923	-0.022971	-0.0086211	-1.4144e-07	-0.010234	114.533	383.005	279.541	347.592	326.670	71.779	371.424	85.269	158.986	396.331	300.431	227.793	418.670	394.232	77.838	92.812	-8191	255	
1540.248	1	1	0	0	0.14947	0.17224	0.046404	0.071745	0.15461	0.18892	0.2321	0.26761	0.039316	0.13821	0.13293	0.16213	0.19655	0.21175	0.25082	0.19041	-1.7771	-1.8813	-1.8312	-2.2271	-1.9646	-1.8375	-2.0479	-1.6187	-2.1458	-1.9354	-1.5458	-2.1	-1.8354	-1.9729	-2.1271	-1.6417	67.497	91.543	311.780	301.577	146.467	209.335	241.883	6.329	302.227	97.713	17.798	234.187	70.280	-11.081	187.768	108.917	2.1133e-06	6.2703e-05	1.1013e-06	0.060656	6.8979e-08	3.0833e-07	0.038623	0.0033912	4.8116e-07	3.6952e-07	0.022822	0.0064473	0.0029776	0.0017684	6.7087e-07	0.0036789	-8.2185e-06	-1.2213e-05	-2.5514e-06	-0.1785	-1.1679e-07	-1.3475e-07	-0.18843	-0.038629	-1.2674e-07	-1.1673e-07	-0.077974	-0.031625	-0.024927	-0.0076473	-1.3103e-07	-0.010249	44.150	-14.434	194.522	170.453	-25.397	220.946	278.789	-18.065	238.232	4.490	222.672	126.914	292.378	105.915	108.555	194.318	-8191	255	
1540.369	1	1	0	0	0.19202	0.0076078	0.11699	0.19717	0.18689	0.16273	0.127	0.043259	0.075973	0.27728	0.2101	0.17171	0.10887	0.14526	0.19302	0.32046	-1.575	-1.9292	-1.6542	-2.1937	-1.7333	-1.8333	-2.1417	-1.7729	-2.1354	-2.1312	-1.7792	-2.0833	-1.9875	-1.8	-2.075	-1.6854	173.807	345.912	356.761	201.117	281.780	181.649	523.228	368.001	447.015	268.340	453.142	215.875	197.433	318.456	185.846	360.950	4.0486e-06	4.3325e-05	3.1794e-06	0.018636	2.9143e-07	2.9924e-07	0.043781	0.0015492	1.9539e-07	5.8042e-07	0.013062	0.010373	0.0033639	0.0010972	3.6855e-07	0.0022922	-7.9877e-06	-1.1636e-05	-2.5632e-06	-0.14975	-1.2218e-07	-1.2434e-07	-0.17251	-0.038859	-1.2509e-07	-1.3418e-07	-0.067135	-0.027346	-0.025274	-0.0068067	-1.5516e-07	-0.010002	200.091	318.791	445.100	322.365	417.234	203.776	168.826	186.396	505.540	301.363	467.762	432.546	466.592	419.854	459.691	335.426	-8191	255	
1540.465	1	1	0	0	0.095904	0.2178	0.042256	0.18959	0.12329	0.14068	0.11068	0.066177	0.038138	0.19086	0.27751	0.18058	0.1771	0.24038	0.19293	0.29505	-1.2792	-2.1417	-1.6	-2.3167	-1.8646	-1.8875	-2.2042	-1.7104	-1.8854	-1.85	-1.6375	-2.0583	-1.9229	-1.8229	-2.0917	-1.9375	4.234	-170.596	56.481	-23.828	117.711	98.690	-93.469	-95.770	60.069	-169.563	-156.409	80.937	140.899	19.629	-149.072	13.952	2.2145e-06	5.287e-05	1.0942e-05	0.044764	4.7036e-07	2.1044e-07	0.041778	0.012926	2.8539e-07	3.5881e-07	0.015542	0.0021886	0.010327	0.00021627	1.7089e-07	0.0020045	-6.8911e-06	-1.2368e-05	-2.7479e-06	-0.15354	-1.1783e-07	-1.037e-07	-0.175	-0.039664	-1.1073e-07	-1.4067e-07	-0.073439	-0.02651	-0.024264	-0.0066529	-1.4129e-07	-0.0099442	-175.457	-176.656	-13.670	-162.490	80.156	20.228	15.566	-161.147	-163.882	176.703	105.385	30.755	-171.842	-126.320	-71.052	-124.275	-8191	255	
1540.537	1	1	0	0	0.23195	0.11732	0.1804	0.12275	0.14071	0.25252	0.13448	0.20298	0.29717	0.031058	0.098903	0.15977	0.13417	0.31617	0.11446	0.1641	-1.5688	-2.275	-1.7708	-2.1063	-1.9729	-1.7354	-2.0292	-1.7563	-1.9688	-2.2208	-1.7167	-2.0438	-1.9562	-1.8896	-2.1	-1.8729	197.431	166.675	368.548	377.149	314.039	84.958	377.416	314.800	220.789	220.028	371.800	191.888	413.162	266.327	277.899	134.225	1.3731e-06	2.5035e-05	1.1427e-05	0.030097	1.7797e-07	1.9289e-07	0.026379	0.0047142	1.7604e-07	3.6064e-07	0.01806	0.0053375	0.0059394	0.00092724	2.5992e-07	0.0014585	-6.4871e-06	-1.3495e-05	-2.8541e-06	-0.15491	-1.3206e-07	-1.0541e-07	-0.17769	-0.041905	-1.1956e-07	-1.4885e-07	-0.068462	-0.026381	-0.026536	-0.007186	-1.3857e-07	-0.011568	412.722	85.821	419.066	250.941	127.070	134.929	69.494	81.743	301.293	373.977	280.167	231.407	196.630	337.616	344.631	285.951	-8191	255	
1540.633	1	1	0	0	0.13096	0.17518	0.16222	0.15356	0.17531	0.19752	0.24703	0.048725	0.17881	0.17542	0.12841	0.26408	0.11827	0.23205	0.24653	0.13072	-1.2833	-2.2188	-1.7167	-2.0208	-1.8708	-1.7896	-2.2521	-1.9042	-1.8167	-2.2208	-1.9542	-2.2125	-2.0833	-1.5979	-2.175	-1.925	161.848	121.473	297.496	270.316	128.486	200.933	-45.018	260.788	199.124	247.260	176.934	211.862	-25.220	286.133	0.423	190.505	2.6466e-06	3.1126e-05	2.5903e-06	0.040633	1.7494e-07	3.7491e-07	0.0018464	0.0045538	1.7231e-07	5.1882e-07	0.030537	0.010319	0.0062686	0.00086518	3.6529e-07	0.0016696	-4.9519e-06	-1.3284e-05	-2.8148e-06	-0.15044	-1.5227e-07	-9.6091e-08	-0.17577	-0.046332	-1.2674e-07	-1.5225e-07	-0.080297	-0.027379	-0.029218	-0.0067964	-1.4626e-07	-0.012235	12.063	166.222	123.197	254.563	167.261	58.568	281.388	-29.084	300.686	59.465	18.010	261.876	273.442	52.263	211.546	299.292	-8191	255	
1540.753	1	1	0	0	0.19462	0.11488	0.14417	0.16701	0.23491	0.11215	0.1476	0.2858	0.21951	0.1012	0.076513	0.18434	0.18171	0.16478	0.21841	0.034766	-1.3625	-2.125	-1.8521	-1.9958	-2.2604	-1.7	-2.0375	-1.9688	-1.9542	-2.2	-1.8687	-1.9396	-2.2729	-1.7708	-2.0542	-1.9833	226.692	-44.737	158.179	216.541	127.222	20.330	-33.769	286.800	-53.551	245.797	137.778	178.726	234.316	92.171	9.607	7.079	2.8466e-06	9.0611e-06	1.8579e-05	0.045023	3.1666e-07	3.7239e-07	0.0066382	0.01119	9.8125e-08	2.4555e-07	0.034218	0.013433	0.0020611	0.002419	1.2173e-07	0.00094695	-5.0558e-06	-1.42e-05	-2.7519e-06	-0.13185	-1.4808e-07	-1.0308e-07	-0.18997	-0.05093	-9.7262e-08	-1.6105e-07	-0.087486	-0.026542	-0.027798	-0.0064684	-1.351e-07	-0.012075	187.329	110.662	-17.432	272.495	93.443	305.433	304.998	-36.064	104.252	185.898	58.569	104.999	131.267	101.769	-44.675	73.651	-8191	255	
1540.849	1	1	0	0	0.37074	0.12921	0.10602	0.24775	0.26958	0.32006	0.13517	0.035248	0.19662	0.16721	0.23739	0.10122	0.13807	0.043051	0.071282	0.095816	-1.2104	-2.1771	-1.9521	-1.8167	-2.15	-1.8458	-2.0812	-1.8896	-1.7917	-2.1708	-1.8062	-1.75	-2.0563	-1.6688	-1.7708	-1.7812	379.267	294.236	209.617	382.565	201.241	395.300	311.537	510.363	270.198	234.082	390.186	515.172	389.669	213.994	493.041	224.004	2.4982e-06	5.5207e-05	7.1049e-06	0.026472	2.7839e-07	7.6029e-08	0.016016	0.0081095	8.7501e-08	4.1683e-07	0.015868	0.0035919	0.004155	0.0013949	2.4797e-07	0.0032021	-5.4021e-06	-1.2735e-05	-3.1214e-06	-0.12066	-1.3655e-07	-1.1612e-07	-0.1821	-0.051965	-1.0594e-07	-1.4406e-07	-0.090914	-0.02474	-0.031616	-0.0062224	-1.2319e-07	-0.011814	421.335	428.184	434.597	327.682	432.964	513.577	451.456	197.324	192.254	196.169	519.229	390.475	302.862	289.197	481.332	343.299	-8191	255	
1540.946	1	1	0	0	0.16302	0.37868	0.22311	0.066264	0.095544	0.31271	0.20017	0.021141	0.15214	0.11401	0.11937	0.11206	0.22087	0.10548	0.08026	0.04005	-1.2104	-2.1646	-1.8729	-1.8042	-1.9792	-1.7417	-1.8729	-2.0563	-1.75	-2.1437	-1.9562	-1.8271	-2.3333	-1.8958	-2.0229	-2.2771	-65.874	185.621	-41.263	47.468	24.973	76.412	183.467	39.383	157.938	213.055	-41.248	-56.368	177.975	81.370	213.373	-97.499	2.4106e-06	3.705e-05	1.4027e-05	0.0523	3.6316e-07	1.7358e-07	0.045594	0.012702	1.04e-08	5.4086e-08	0.0024345	0.0053963	0.0026139	0.0016314	2.3881e-07	0.0012922	-5.4252e-06	-1.2312e-05	-3.1804e-06	-0.1155	-1.4044e-07	-1.0929e-07	-0.14833	-0.051678	-1.028e-07	-1.4005e-07	-0.089808	-0.022199	-0.028019	-0.0069605	-1.1972e-07	-0.012843	-49.879	-5.272	160.036	80.986	221.389	12.917	193.977	-82.884	-57.188	-15.611	161.188	-32.359	180.579	129.976	230.811	212.714	-8191	255	
1541.064	1	1	0	0	0.26894	0.074849	0.11929	0.13282	0.16257	0.20863	0.14051	0.079934	0.15901	0.020638	0.12272	0.3392	0.13211	0.34026	0.14605	0.14992	-1.3	-2.0708	-1.9417	-1.6167	-2.3604	-1.8417	-1.7292	-2.2854	-1.4813	-2.0375	-1.9188	-1.5583	-2.1646	-1.8792	-1.8458	-2.1	145.012	156.506	51.702	154.270	-36.051	72.230	87.360	-60.037	91.293	170.320	54.423	-49.501	189.725	124.705	234.688	-97.080	4.6422e-06	1.6021e-05	7.8487e-06	0.021241	1.2343e-07	3.6891e-07	0.058124	0.0067677	4.902e-07	2.0396e-07	0.0049266	0.0063438	0.001469	0.0030626	1.1906e-07	0.00090063	-4.5825e-06	-1.1777e-05	-3.1253e-06	-0.10947	-1.4194e-07	-1.1627e-07	-0.14276	-0.051735	-9.6214e-08	-1.3109e-07	-0.084168	-0.019593	-0.026662	-0.0072885	-1.2289e-07	-0.012814	-92.392	129.386	152.544	11.266	-48.137	228.675	167.951	-102.163	159.914	195.912	208.178	-99.547	26.285	208.565	157.967	90.068	-8191	255	
1541.161	1	1	0	0	0.15018	0.044535	0.063029	0.11585	0.18698	0.070947	0.2172	0.34008	0.15246	0.16541	0.092061	0.1008	0.15239	0.077538	0.23067	0.11072	-1.1187	-2.0021	-2.025	-1.7292	-2.2062	-1.7521	-1.9208	-2.1229	-1.8062	-2.05	-1.8417	-1.7458	-2.225	-1.775	-1.9271	-1.9792	-104.148	-19.889	-133.051	137.248	-122.875	-5.534	115.748	-72.502	-125.578	87.498	189.102	108.446	-80.145	-142.536	-129.345	161.671	3.8795e-06	4.5814e-05	5.1565e-06	0.041002	2.4427e-07	2.7972e-07	0.038572	0.0099496	1.9894e-07	1.3804e-08	0.025577	0.0048993	0.003142	0.00072273	3.5076e-08	0.00095554	-4.6749e-06	-1.1002e-05	-3.7504e-06	-0.10964	-1.388e-07	-1.2233e-07	-0.12242	-0.051218	-1.2031e-07	-1.3356e-07	-0.10131	-0.019561	-0.025873	-0.0081393	-9.8011e-08	-0.012901	47.064	129.016	35.841	89.918	-61.789	-126.338	125.545	-151.525	169.649	131.079	-17.235	103.665	180.250	-83.911	-161.594	69.332	-8191	255	
1541.232	1	1	0	0	0.13339	0.35333	0.14292	0.21141	0.093805	0.097465	0.10375	0.12593	0.20481	0.16522	0.17426	0.20761	0.18764	0.25529	0.067605	0.1969	-1.0958	-2.0062	-1.9729	-1.7125	-2.1354	-2.0083	-1.6604	-2.225	-1.9833	-1.9062	-2.0708	-1.7375	-2.1688	-1.9937	-1.6042	-2.0854	483.808	343.317	230.051	289.490	272.873	523.898	234.975	500.273	337.129	386.076	516.215	275.173	510.546	476.823	408.042	294.978	6.6976e-06	3.6715e-05	3.452e-06	0.037886	1.9147e-07	2.7436e-07	0.04027	0.01421	4.3531e-07	1.9592e-07	0.014631	0.0071807	0.0057088	0.0023634	1.4668e-07	0.0010739	-5.0789e-06	-1.1185e-05	-3.4909e-06	-0.09794	-1.355e-07	-1.2326e-07	-0.13298	-0.05231	-9.3671e-08	-1.172e-07	-0.09379	-0.019078	-0.025369	-0.0072577	-8.625e-08	-0.013626	513.665	202.242	528.915	507.660	507.574	369.373	513.988	187.643	394.158	503.787	246.668	487.523	440.560	200.750	258.692	347.495	-8191	255	
1541.353	1	1	0	0	0.13727	0.065058	0.25717	0.32134	0.033082	0.11053	0.031303	0.16222	0.12878	0.054344	0.1248	0.21599	0.11715	0.17038	0.30643	0.26666	-1.5417	-1.8042	-2.1896	-1.6313	-2.0521	-2.0312	-1.7271	-2.1354	-1.9042	-1.8417	-2.0521	-1.7125	-2.1042	-1.9813	-1.8458	-2.1604	181.317	246.537	524.182	433.622	329.928	329.095	245.359	469.650	338.615	441.472	469.211	285.244	451.199	222.398	342.161	173.274	2.4088e-06	5.0271e-05	3.6205e-06	0.028339	2.7656e-07	1.0385e-07	0.028515	0.016528	1.4717e-07	3.4467e-07	0.028253	0.0055895	0.0029903	0.0010851	1.8872e-07	0.0025272	-5.5175e-06	-1.2509e-05	-3.4909e-06	-0.10775	-1.355e-07	-1.3397e-07	-0.12722	-0.054494	-1.0998e-07	-1.1982e-07	-0.099541	-0.021459	-0.028492	-0.0084161	-9.8765e-08	-0.013974	186.429	521.893	340.055	414.415	337.152	305.912	398.270	184.898	362.156	216.799	367.483	457.537	358.552	193.523	339.411	287.109	-8191	255	
1541.449	1	1	0	0	0.1369	0.10905	0.15013	0.11079	0.1812	0.16163	0.1183	0.24627	0.17045	0.23173	0.32763	0.094196	0.054877	0.16586	0.12529	0.17718	-1.3625	-1.7479	-2.1354	-1.8083	-2.0354	-2.0271	-1.7979	-2.0583	-1.9396	-1.9104	-2.1188	-1.6208	-2.0208	-2.0771	-1.775	-1.9375	-42.514	163.155	121.234	120.961	-69.798	102.286	-47.799	-95.810	-46.413	70.395	-20.762	-85.796	-108.314	-15.445	134.436	22.849	3.1146e-06	8.4111e-06	2.314e-06	0.019195	6.9892e-08	3.0456e-07	0.027797	0.012195	1.8647e-07	1.5193e-07	0.010322	0.0076843	0.005538	0.0028721	1.2097e-07	0.0016246	-6.464e-06	-9.1425e-06	-3.6482e-06	-0.1186	-1.0795e-07	-1.3614e-07	-0.11225	-0.050988	-1.2689e-07	-1.1056e-07	-0.10562	-0.022134	-0.023633	-0.0091747	-8.8964e-08	-0.013583	147.966	122.883	-80.089	186.188	-161.750	-113.966	-138.451	-145.620	122.474	-24.521	78.260	-113.398	186.448	174.916	173.186	149.183	-8191	255	
#DATA ENDS
