BOXY.EXE: ISS Imagent and Oximeter Data Acquisition Program Version 0.80
Ascii Record File

#ACQ INFORMATION
2  Detector Channels 
16  External MUX Channels 
1  Auxiliary Channels 
5000  Waveform (CCF) Frequency (Hz)
1  Waveforms Skipped 
30  Waveforms Averaged 
1  Cycles Averaged 
16  Acquisitions per Waveform 
10.0806  Updata Rate (Hz) 

#FILE INFORMATION
TRUE -- External MUX Channel results are PARSED.
FALSE -- AC DC and Phase are NOT grouped.
TRUE -- Companion Program Settings File CREATED.
FALSE -- AC data not excluded
FALSE -- DC data not excluded
FALSE -- Phase data not excluded
FALSE -- Auxillary Chn. data not excluded
Tab delimiters

#CALIBRATION STATE
TRUE -- Waveform Calibration Values APPLIED.


#AUX CALIBRATION VALUES
Val Type	aux-1	

Term	1.0000e+00	
Factor	0.0000e+00	


#WF CALIBRATION VALUES
A = Detector Channel
Val Type	A-AC1	A-AC2	A-AC3	A-AC4	A-AC5	A-AC6	A-AC7	A-AC8	A-AC9	A-AC10	A-AC11	A-AC12	A-AC13	A-AC14	A-AC15	A-AC16	A-DC1	A-DC2	A-DC3	A-DC4	A-DC5	A-DC6	A-DC7	A-DC8	A-DC9	A-DC10	A-DC11	A-DC12	A-DC13	A-DC14	A-DC15	A-DC16	A-Ph1	A-Ph2	A-Ph3	A-Ph4	A-Ph5	A-Ph6	A-Ph7	A-Ph8	A-Ph9	A-Ph10	A-Ph11	A-Ph12	A-Ph13	A-Ph14	A-Ph15	A-Ph16	

Term	0.00000e+00	0.00000e+00	0.00000e+00	0.00000e+00	0.00000e+00	0.00000e+00	0.00000e+00	0.00000e+00	0.00000e+00	0.00000e+00	0.00000e+00	0.00000e+00	0.00000e+00	0.00000e+00	0.00000e+00	0.00000e+00	0.00000e+00	0.00000e+00	0.00000e+00	0.00000e+00	0.00000e+00	0.00000e+00	0.00000e+00	0.00000e+00	0.00000e+00	0.00000e+00	0.00000e+00	0.00000e+00	0.00000e+00	0.00000e+00	0.00000e+00	0.00000e+00	0.00000e+00	0.00000e+00	0.00000e+00	0.00000e+00	0.00000e+00	0.00000e+00	0.00000e+00	0.00000e+00	0.00000e+00	0.00000e+00	0.00000e+00	0.00000e+00	0.00000e+00	0.00000e+00	0.00000e+00	0.00000e+00	
Factor	1.00000e+00	1.00000e+00	1.00000e+00	1.00000e+00	1.00000e+00	1.00000e+00	1.00000e+00	1.00000e+00	1.00000e+00	1.00000e+00	1.00000e+00	1.00000e+00	1.00000e+00	1.00000e+00	1.00000e+00	1.00000e+00	1.00000e+00	1.00000e+00	1.00000e+00	1.00000e+00	1.00000e+00	1.00000e+00	1.00000e+00	1.00000e+00	1.00000e+00	1.00000e+00	1.00000e+00	1.00000e+00	1.00000e+00	1.00000e+00	1.00000e+00	1.00000e+00	X	X	X	X	X	X	X	X	X	X	X	X	X	X	X	X	

B = Detector Channel
Val Type	B-AC1	B-AC2	B-AC3	B-AC4	B-AC5	B-AC6	B-AC7	B-AC8	B-AC9	B-AC10	B-AC11	B-AC12	B-AC13	B-AC14	B-AC15	B-AC16	B-DC1	B-DC2	B-DC3	B-DC4	B-DC5	B-DC6	B-DC7	B-DC8	B-DC9	B-DC10	B-DC11	B-DC12	B-DC13	B-DC14	B-DC15	B-DC16	B-Ph1	B-Ph2	B-Ph3	B-Ph4	B-Ph5	B-Ph6	B-Ph7	B-Ph8	B-Ph9	B-Ph10	B-Ph11	B-Ph12	B-Ph13	B-Ph14	B-Ph15	B-Ph16	

Term	0.00000e+00	0.00000e+00	0.00000e+00	0.00000e+00	0.00000e+00	0.00000e+00	0.00000e+00	0.00000e+00	0.00000e+00	0.00000e+00	0.00000e+00	0.00000e+00	0.00000e+00	0.00000e+00	0.00000e+00	0.00000e+00	0.00000e+00	0.00000e+00	0.00000e+00	0.00000e+00	0.00000e+00	0.00000e+00	0.00000e+00	0.00000e+00	0.00000e+00	0.00000e+00	0.00000e+00	0.00000e+00	0.00000e+00	0.00000e+00	0.00000e+00	0.00000e+00	5.32887e+00	-1.29929e+02	-1.28731e+02	-1.84746e+02	-7.04180e+01	-6.91937e+01	-1.57922e+02	-1.62015e+02	-2.77445e+01	-6.81129e+01	-1.79083e+02	-1.70094e+02	-1.79662e+02	-1.77090e+02	-5.99893e+01	-1.50031e+02	
Factor	3.72528e-05	1.74124e-04	4.89623e-05	5.67296e-01	1.96177e-06	1.72426e-06	1.76438e-01	6.39805e-02	2.34682e-06	1.97558e-06	1.09870e-01	2.83453e-02	2.58785e-02	9.19466e-03	2.23646e-06	1.37262e-02	1.53627e-05	2.58478e-05	7.28226e-06	2.83297e-01	2.78559e-07	2.92575e-07	8.32134e-02	3.23121e-02	2.55711e-07	2.93603e-07	5.34728e-02	1.39108e-02	1.31685e-02	4.70685e-03	2.66657e-07	6.77598e-03	X	X	X	X	X	X	X	X	X	X	X	X	X	X	X	X	



#DISTANCE SETTINGS
A = Detector Channel
A-1	A-2	A-3	A-4	A-5	A-6	A-7	A-8	A-9	A-10	A-11	A-12	A-13	A-14	A-15	A-16	

2.5000e+00	3.0000e+00	2.5000e+00	3.0000e+00	2.0000e+00	3.0000e+00	1.5000e+00	3.0000e+00	3.0000e+00	3.0000e+00	3.0000e+00	3.0000e+00	3.0000e+00	3.0000e+00	1.5000e+00	3.0000e+00	

B = Detector Channel
B-1	B-2	B-3	B-4	B-5	B-6	B-7	B-8	B-9	B-10	B-11	B-12	B-13	B-14	B-15	B-16	

1.0000e+01	1.0000e+01	1.0000e+01	1.4400e+00	1.0000e+01	1.0000e+01	1.5100e+00	1.9400e+00	1.0000e+01	1.0000e+01	1.9900e+00	2.4900e+00	2.4100e+00	2.9000e+00	1.0000e+01	2.9800e+00	




#DATA BEGINS
time	group	step	mark	flag	A-AC1	A-AC2	A-AC3	A-AC4	A-AC5	A-AC6	A-AC7	A-AC8	A-AC9	A-AC10	A-AC11	A-AC12	A-AC13	A-AC14	A-AC15	A-AC16	A-DC1	A-DC2	A-DC3	A-DC4	A-DC5	A-DC6	A-DC7	A-DC8	A-DC9	A-DC10	A-DC11	A-DC12	A-DC13	A-DC14	A-DC15	A-DC16	A-Ph1	A-Ph2	A-Ph3	A-Ph4	A-Ph5	A-Ph6	A-Ph7	A-Ph8	A-Ph9	A-Ph10	A-Ph11	A-Ph12	A-Ph13	A-Ph14	A-Ph15	A-Ph16	B-AC1	B-AC2	B-AC3	B-AC4	B-AC5	B-AC6	B-AC7	B-AC8	B-AC9	B-AC10	B-AC11	B-AC12	B-AC13	B-AC14	B-AC15	B-AC16	B-DC1	B-DC2	B-DC3	B-DC4	B-DC5	B-DC6	B-DC7	B-DC8	B-DC9	B-DC10	B-DC11	B-DC12	B-DC13	B-DC14	B-DC15	B-DC16	B-Ph1	B-Ph2	B-Ph3	B-Ph4	B-Ph5	B-Ph6	B-Ph7	B-Ph8	B-Ph9	B-Ph10	B-Ph11	B-Ph12	B-Ph13	B-Ph14	B-Ph15	B-Ph16	aux-1	digaux	

1370.237	1	1	0	256	0.24163	0.085982	0.054009	0.1716	0.15153	0.045886	0.18144	0.090677	0.17274	0.20943	0.13136	0.19455	0.16357	0.13417	0.2232	0.1173	-2.5896	-3.1458	-3.5125	-3.0396	-3.3167	-3.55	-3.1937	-3.4521	-3.2021	-3.3146	-3.5521	-3.0792	-3.4083	-3.1833	-3.0438	-3.2979	90.527	-104.271	99.787	-22.576	163.633	224.104	157.734	75.080	145.879	-81.214	73.780	-117.652	-93.356	-66.593	72.479	-66.217	0.0004011	0.0014763	0.00075586	520.61	2.0187e-05	4.805e-06	565.45	188.77	2.2065e-06	8.3849e-06	209.4	68.376	69.841	29.667	1.477e-05	27.833	0.018904	0.031432	0.0088702	809.23	0.00034016	0.0003551	601.26	207.41	0.00031089	0.00035603	252.75	78.1	78.115	32.463	0.00032394	33.093	-19.892	120.201	157.380	-117.734	-14.437	113.699	-119.435	-112.717	-54.849	137.761	-115.151	-111.704	-109.188	-103.628	94.049	-108.152	-8191	255	
1370.356	1	1	0	0	0.030578	0.15207	0.11416	0.15282	0.10734	0.064984	0.086777	0.17398	0.10721	0.25452	0.10076	0.29464	0.33345	0.13137	0.21772	0.1781	-2.9271	-3.0083	-3.2646	-2.9458	-3.4062	-3.4646	-3.1271	-3.5438	-3.1271	-3.0792	-3.65	-3.0958	-3.3708	-3.3729	-2.8854	-3.4813	-36.067	-6.268	131.963	-93.633	195.488	207.322	0.029	-61.667	176.854	-11.462	60.893	99.255	206.239	-83.028	-79.321	-124.683	0.00036237	0.0012269	0.00058189	541.71	1.2029e-05	1.2864e-05	566.42	191.78	1.1262e-05	1.8493e-05	214.76	68.718	71.024	30.148	3.0168e-05	27.883	0.018546	0.031186	0.0088363	814.27	0.00033347	0.00034861	601.49	209.6	0.00030067	0.00034884	253.97	78.15	78.936	32.697	0.00031631	32.95	-54.667	125.130	84.105	-117.302	-48.693	45.314	-119.088	-112.883	93.310	-80.280	-115.541	-111.517	-109.428	-103.610	-102.971	-107.813	-8191	255	
1370.452	1	1	0	0	0.22522	0.10536	0.12489	0.16382	0.11239	0.15011	0.044706	0.17443	0.22107	0.082089	0.034786	0.046578	0.16362	0.1625	0.22465	0.22761	-2.6854	-3.1021	-3.5521	-2.9146	-3.1625	-3.4521	-3.0646	-3.5271	-3.3625	-3.2812	-3.5083	-3.0479	-3.2417	-3.3979	-2.8167	-3.3771	-78.915	-113.953	2.714	-26.952	79.603	-60.850	66.534	59.220	34.254	52.830	-98.736	190.835	175.684	154.423	203.375	210.306	0.00014903	0.0023827	0.00051819	536.44	1.5568e-05	1.9994e-05	569.53	193.22	3.4316e-05	3.201e-05	213.63	68.723	70.605	30.411	1.8635e-05	27.855	0.018199	0.030488	0.0086187	810.17	0.00032541	0.00034753	604.3	209.99	0.00030348	0.00035057	254.37	78.171	79.009	32.899	0.00031538	33.144	122.558	-44.199	134.132	-117.534	0.666	-53.796	-119.001	-112.596	99.508	143.650	-115.173	-111.321	-109.420	-103.622	-59.540	-107.806	-8191	255	
1370.548	1	1	0	0	0.15454	0.12422	0.13789	0.29449	0.13427	0.3158	0.11716	0.067925	0.072603	0.14513	0.23233	0.1369	0.22408	0.075879	0.025016	0.10337	-2.8771	-2.9771	-3.3896	-3.25	-3.1063	-3.5229	-3.25	-3.6146	-3.4792	-3.0375	-3.5958	-3.1312	-3.2917	-3.525	-3.125	-3.3354	-120.075	-115.002	112.648	-120.496	79.928	-128.866	-111.618	128.659	124.840	192.406	-95.705	79.859	150.949	199.969	210.105	78.772	0.00039698	0.0013076	0.00053807	544.75	1.5593e-05	1.2956e-05	567.65	194.8	2.7692e-05	4.7722e-06	214.85	69.795	71.414	30.372	7.5556e-06	28.564	0.018173	0.03061	0.008712	808.21	0.0003281	0.00034656	605.79	211.06	0.00029961	0.00034931	255.1	78.473	79.37	33.135	0.0003148	33.4	-14.928	-88.353	11.079	-118.508	-43.824	-101.907	-119.227	-113.311	77.925	64.345	-115.367	-112.127	-108.981	-104.219	-130.639	-107.962	-8191	255	
1370.644	1	1	0	0	0.24784	0.3005	0.21197	0.090754	0.057149	0.26281	0.060912	0.097185	0.22572	0.13998	0.034858	0.1094	0.18991	0.22738	0.22514	0.21042	-3.15	-3.0521	-3.5938	-3.3833	-3.0333	-3.4604	-3.1688	-3.2938	-3.5271	-3.0563	-3.5312	-3.3208	-3.1458	-3.725	-3.0917	-3.2458	-7.420	158.959	4.459	-83.037	49.239	122.374	134.093	216.061	-3.484	120.132	147.031	94.094	174.821	206.746	204.678	209.723	0.00013519	0.0008201	0.00039136	527.42	2.3758e-05	2.0666e-05	573.79	194.64	2.4681e-05	9.0093e-06	217.9	69.947	71.567	30.291	8.8968e-06	28.257	0.018267	0.030689	0.0086215	808.13	0.00033076	0.00034463	609.99	211.42	0.00030423	0.00035374	256.64	79.366	79.993	33.219	0.00031587	33.471	-18.303	219.862	-105.848	-117.624	-37.317	41.581	-119.137	-112.815	-127.234	-114.946	-115.811	-111.535	-108.995	-103.790	17.170	-108.492	-8191	255	
1370.740	1	1	0	0	0.19584	0.17278	0.22298	0.088663	0.10446	0.13402	0.2568	0.10093	0.12306	0.12991	0.20999	0.072906	0.099996	0.12113	0.38182	0.30713	-3.1188	-2.8104	-3.5083	-3.2167	-3.2354	-3.4896	-3.2687	-3.5	-3.35	-2.9521	-3.4604	-3.3208	-2.8833	-3.5542	-3.0687	-3.2229	33.108	-71.883	56.322	107.881	35.260	10.402	120.511	211.750	-25.851	93.887	110.139	-80.471	-11.937	-94.032	-63.700	4.937	0.00070218	0.00138	0.0002541	537.43	1.4891e-05	5.4e-06	577.45	195.37	1.3201e-05	5.6446e-06	215.97	69.002	71.726	30.414	1.5941e-05	28.657	0.018607	0.030868	0.0086576	811.73	0.00033678	0.0003508	612.44	212.29	0.00030633	0.00035337	256.12	78.459	79.917	33.018	0.00031765	33.421	-27.074	151.857	114.973	-118.496	9.888	-43.428	-119.204	-112.571	32.799	-44.224	-115.628	-111.316	-109.142	-103.501	27.612	-107.333	-8191	255	
1370.837	1	1	0	0	0.19136	0.21485	0.12951	0.12693	0.05615	0.12519	0.16062	0.056861	0.054409	0.11249	0.049294	0.19462	0.18109	0.079638	0.12729	0.13245	-3.0896	-2.9229	-3.2354	-3.2083	-3.0875	-3.425	-3.4104	-3.0833	-3.3708	-2.9958	-3.3667	-3.5542	-2.9333	-3.5042	-3.2896	-3.175	-96.451	-61.195	191.582	-95.111	-69.840	116.255	210.567	131.823	-12.539	-45.194	181.699	22.393	95.320	-61.503	161.884	92.993	0.00040786	0.0014593	0.00033285	546.07	7.1827e-06	2.1717e-06	580.31	194.9	2.1072e-05	7.5209e-06	217.53	69.451	71.525	30.227	1.9584e-05	28.266	0.018675	0.03112	0.0086625	821.73	0.00033506	0.00035265	613.36	212.64	0.00031109	0.00035231	255.62	78.559	79.54	33.009	0.00031475	33.428	-48.846	-126.820	38.072	-118.568	225.960	27.261	-119.200	-112.607	183.114	-12.290	-115.607	-111.409	-109.038	-103.681	-20.786	-107.649	-8191	255	
1370.957	1	1	0	0	0.21745	0.091789	0.19186	0.17541	0.09386	0.11285	0.06535	0.19458	0.065466	0.092885	0.27241	0.32632	0.14874	0.038361	0.12852	0.22784	-3.2333	-3.0583	-3.2	-3.4292	-3.075	-3.4896	-3.3208	-3.15	-3.5771	-3.0812	-3.3229	-3.4583	-3.0104	-3.4562	-3.1979	-3.1333	178.531	150.780	-60.722	158.940	76.460	170.561	192.939	-42.801	1.455	21.670	156.001	163.113	125.306	50.001	72.005	153.676	0.00027986	0.00039462	0.0005264	544.33	1.7621e-05	1.7459e-05	580.76	195.41	7.4089e-06	2.4056e-05	214.89	68.986	70.414	30.209	2.0198e-05	27.833	0.018605	0.030841	0.0086357	821.06	0.00033387	0.00034904	614.12	212.85	0.00030508	0.00034974	254.06	78.043	78.796	32.755	0.00031336	33.062	-54.611	-64.174	-32.527	-117.539	24.962	1.529	-119.249	-112.697	144.526	27.179	-116.207	-111.078	-108.871	-103.426	132.575	-108.211	-8191	255	
1371.052	1	1	0	0	0.055331	0.11444	0.16765	0.021178	0.31338	0.31266	0.19392	0.36619	0.30254	0.21881	0.21568	0.089963	0.33702	0.13039	0.012559	0.085153	-3.3542	-3.1729	-3.2646	-3.3625	-3.0042	-3.4958	-3.3958	-2.8667	-3.3312	-3.2042	-3.1167	-3.7	-2.8958	-3.35	-3.2479	-3.0938	26.036	100.545	98.546	156.947	64.884	129.608	179.101	-128.992	100.539	168.052	148.653	206.130	153.154	-26.960	217.397	12.173	0.00031786	0.0012533	0.00015068	543.17	2.8102e-05	1.2522e-05	582.87	193.84	1.1821e-05	1.3867e-05	210.31	66.388	68.412	29.975	1.0006e-05	27.016	0.018259	0.030163	0.0085699	822.22	0.00032872	0.0003428	614.16	211.04	0.00030202	0.00033946	250.89	75.896	77.05	32.235	0.00031082	32.238	-64.244	132.033	-13.846	-117.279	-65.215	8.135	-119.261	-112.797	-18.582	151.354	-115.821	-110.961	-109.493	-103.640	-125.840	-107.873	-8191	255	
1371.148	1	1	0	0	0.12208	0.17067	0.16657	0.14547	0.18735	0.18251	0.085612	0.061753	0.05172	0.31305	0.073657	0.055973	0.17857	0.20613	0.15725	0.1545	-3.3292	-3.1104	-3.0833	-3.5208	-3.0292	-3.4	-3.4042	-2.9021	-3.4792	-3.1458	-3.2208	-3.5146	-3.075	-3.3104	-3.3187	-3.0812	40.250	207.702	104.524	-79.993	-26.786	153.775	195.314	168.992	79.644	96.555	185.772	-33.427	219.918	-115.759	137.941	157.302	0.00035953	0.00098459	0.00023531	561.43	1.0771e-05	5.8572e-06	580.85	192.16	3.5781e-05	3.0956e-05	205.9	63.973	67.721	28.711	2.1872e-05	25.218	0.018305	0.029965	0.0085037	825.5	0.00032501	0.0003381	613.05	208.72	0.00029389	0.00033431	243.7	73.056	75.226	31.225	0.000302	30.413	7.421	-75.085	224.784	-117.093	168.223	84.326	-118.988	-112.528	80.259	79.216	-116.004	-111.420	-108.980	-103.878	-59.371	-108.053	-8191	255	
1371.268	1	1	0	0	0.05289	0.1464	0.022801	0.142	0.30211	0.20897	0.14213	0.28359	0.21074	0.14729	0.14037	0.052547	0.17494	0.077335	0.12915	0.15132	-3.0167	-3.1396	-3.0417	-3.5583	-3.1521	-3.3083	-3.4875	-2.9958	-3.3958	-3.3583	-3.1271	-3.4562	-3.2979	-3.225	-3.4521	-3.0958	122.705	148.175	211.695	-25.890	-117.108	-125.654	-15.392	172.052	225.605	-111.843	-102.876	-117.572	76.956	216.305	-32.417	66.913	0.00023185	0.0011851	0.0001633	553.32	9.5463e-06	1.3141e-05	571.11	191.4	3.0024e-05	2.2934e-05	203.18	63.495	68.378	29.235	1.1509e-05	25.987	0.017081	0.028918	0.0081275	803.01	0.00030571	0.00032255	600.06	205.73	0.00027916	0.00031762	239.67	71.789	75.055	31.404	0.00029255	30.584	23.132	-1.375	-118.350	-118.036	38.254	105.269	-119.145	-112.527	15.096	-26.702	-116.230	-110.886	-109.533	-103.337	-120.601	-108.380	-8191	255	
1371.340	1	1	0	0	0.27845	0.11439	0.12752	0.28688	0.18758	0.16893	0.033086	0.19732	0.16957	0.076759	0.16574	0.095987	0.13023	0.29825	0.03801	0.06978	-2.9458	-3.2	-3.0187	-3.4021	-3.1354	-3.0396	-3.6271	-3	-3.3896	-3.4313	-2.9854	-3.5271	-3.1896	-3.1729	-3.5667	-3.1854	169.153	-51.610	166.530	-36.387	-36.969	-106.592	-74.116	-12.291	137.003	-63.800	69.568	13.885	61.415	190.602	-38.483	43.439	0.00027821	0.00093545	0.00020064	553.58	2.9969e-05	2.8716e-06	576.28	193.12	8.2672e-06	2.4003e-05	203.89	63.475	67.489	29.095	1.9986e-05	25.413	0.016702	0.028155	0.0079871	803.3	0.00030006	0.00031937	597.78	207.79	0.00027588	0.0003246	239.62	71.837	74.748	31.341	0.00029209	30.163	-32.278	37.409	132.776	-117.798	51.057	-71.492	-119.437	-112.826	123.421	83.996	-115.725	-111.963	-109.087	-103.544	21.333	-107.335	-8191	255	
1371.436	1	1	0	0	0.10923	0.16646	0.11976	0.22902	0.016627	0.1084	0.21013	0.17121	0.056274	0.11879	0.020271	0.14383	0.21447	0.047472	0.041928	0.31535	-2.8563	-3.5812	-3.0771	-3.3875	-3.4917	-3.1833	-3.6292	-3.1458	-3.325	-3.5625	-3.0396	-3.4479	-3.1604	-3.1375	-3.5583	-3.1	25.366	-21.597	93.185	86.070	-15.729	105.192	115.824	-87.362	191.600	-94.085	87.660	-110.597	51.145	-21.402	140.083	-49.748	0.00046556	0.0016162	0.00027243	553.03	6.04e-06	2.2719e-05	568.1	190.15	7.6877e-06	1.448e-05	201.54	62.789	67.704	28.594	1.7729e-05	25.593	0.01688	0.028353	0.0080153	795.97	0.00030328	0.00032258	597.68	205.13	0.00027955	0.00032728	238.83	71.551	74.899	31.251	0.00029457	30.252	-23.858	-106.250	128.597	-118.314	194.520	98.639	-119.411	-112.952	22.893	-48.099	-116.094	-111.311	-108.889	-103.857	29.231	-108.449	-8191	255	
1371.532	1	1	0	0	0.1275	0.1225	0.079498	0.17278	0.1519	0.12029	0.17328	0.13078	0.26298	0.13197	0.27589	0.15705	0.058128	0.16164	0.14906	0.07421	-3.0062	-3.4104	-2.9875	-3.4375	-3.2458	-3.1229	-3.5979	-3.1833	-3.1646	-3.5021	-3.1375	-3.3083	-3.2833	-3.0187	-3.5854	-3.225	-127.689	-48.081	-11.547	185.417	216.582	162.644	149.535	203.974	12.698	50.091	34.275	-12.881	-75.941	138.400	117.785	-125.578	0.00033381	0.00043829	0.00019998	551.33	2.1823e-05	9.8843e-06	573.59	192.43	6.1315e-06	1.4231e-05	205.02	63.827	68.92	28.952	1.6483e-05	25.1	0.016936	0.028622	0.008033	799.19	0.00030163	0.00032236	597.66	206.8	0.00027773	0.00032147	240.18	72.128	75.682	31.262	0.00029198	29.902	-59.521	-64.424	-115.341	-118.069	138.234	-57.746	-119.525	-112.604	-37.388	85.850	-116.349	-111.111	-109.535	-103.370	196.131	-107.647	-8191	255	
1371.653	1	1	0	0	0.045559	0.079388	0.37732	0.29588	0.12648	0.061777	0.22203	0.18159	0.25142	0.11847	0.080874	0.12679	0.19343	0.33363	0.23416	0.296	-2.6833	-3.4042	-2.9979	-3.2792	-3.2583	-3.0271	-3.5312	-3.1479	-3.1792	-3.5458	-2.9646	-3.3542	-3.5604	-3.0042	-3.65	-3.2083	198.112	151.563	-56.991	40.858	117.014	6.174	139.974	-127.726	-65.492	-73.053	134.334	104.198	-114.362	188.243	219.125	-109.499	0.00010897	0.0015589	0.00015884	546.32	1.1549e-05	1.9998e-05	562.93	193.78	1.2937e-05	6.4286e-06	203.34	64.924	69.42	29.1	2.8955e-05	25.271	0.016935	0.028357	0.0079429	791.82	0.00030405	0.0003196	590.26	207.19	0.00027748	0.00031568	239.11	72.612	76.187	31.335	0.00028509	29.908	-23.198	144.079	-68.468	-118.023	17.974	51.541	-119.242	-112.442	-102.083	-42.767	-115.780	-111.602	-108.980	-104.391	-16.551	-108.427	-8191	255	
1371.749	1	1	0	0	0.059937	0.030948	0.050764	0.20239	0.38486	0.10973	0.060128	0.34236	0.17891	0.23037	0.21379	0.085839	0.12208	0.24434	0.106	0.3707	-2.7104	-3.4562	-3.1521	-3.5312	-3.375	-3.0708	-3.4042	-3.2938	-3.0062	-3.5479	-3.1146	-3.2833	-3.5583	-3.0375	-3.3812	-3.3917	-13.768	-49.639	100.966	178.075	225.163	206.834	71.833	224.834	-105.204	94.308	-128.874	22.302	125.483	19.629	97.200	-44.585	0.00055774	0.00058694	0.00045002	551.49	2.4506e-05	8.3161e-06	568.48	191.77	1.421e-05	1.685e-05	205.22	63.926	67.839	28.722	1.3799e-05	24.716	0.016691	0.027757	0.0077462	784.95	0.00030008	0.00031261	588.14	205.5	0.00027644	0.00031421	239.15	72.209	74.947	30.865	0.00028223	29.581	-27.364	46.483	53.019	-118.410	14.370	35.035	-119.353	-112.804	191.785	116.055	-115.553	-111.906	-109.257	-103.955	-97.748	-108.161	-8191	255	
1371.845	1	1	0	0	0.32396	0.1089	0.24802	0.13538	0.17312	0.15724	0.2847	0.27925	0.1739	0.18931	0.18924	0.13354	0.080112	0.18552	0.11713	0.20087	-2.6292	-3.2771	-3.1188	-3.2583	-3.5396	-3.0604	-3.4229	-3.3563	-3.0646	-3.4646	-3.1646	-3.0167	-3.3958	-3.0187	-3.4229	-3.4896	195.159	201.531	94.995	170.736	-33.094	74.572	208.361	198.546	211.234	122.100	205.265	124.967	220.410	126.091	-91.213	141.994	0.00080875	0.00092468	0.00032598	545.41	1.3324e-05	1.0614e-05	566.74	190.96	3.4991e-06	6.229e-06	204.1	64.787	68.84	28.596	2.9662e-06	25.458	0.016588	0.027637	0.0076343	786.26	0.00029865	0.00030772	590.67	205.59	0.00027149	0.00030843	238.65	72.401	75.377	30.841	0.00027764	29.814	-42.225	-86.569	-116.035	-118.750	45.690	-79.068	-119.209	-113.231	215.177	77.206	-116.127	-111.739	-109.202	-104.006	-72.173	-108.137	-8191	255	
1371.917	1	1	0	0	0.35174	0.21175	0.045848	0.067389	0.13554	0.096757	0.1995	0.50682	0.16821	0.21342	0.070037	0.11317	0.30488	0.14775	0.10752	0.13985	-2.6458	-3.4854	-3.2479	-3.2292	-3.4958	-3.2271	-3.575	-3.4292	-2.9833	-3.4333	-3.1875	-3.1875	-3.5396	-3.1625	-3.3438	-3.4979	-93.273	34.478	204.818	209.401	142.646	69.939	-28.686	181.241	24.994	144.985	-56.051	7.658	137.979	188.290	-89.039	-75.359	0.00032547	0.0004944	0.00024514	553.72	4.6457e-06	9.6071e-06	575.58	195.81	3.0752e-06	3.1301e-05	207.45	64.816	68.965	28.927	2.0148e-05	24.905	0.016485	0.026862	0.007581	788.68	0.00029287	0.00030279	597.06	208.33	0.00026648	0.00030349	240.24	72.467	75.364	30.863	0.00027782	29.444	-14.025	183.528	-50.666	-117.400	25.949	0.490	-119.559	-112.692	-112.697	8.163	-115.432	-111.467	-109.365	-104.274	-50.419	-107.644	-8191	255	
1372.038	1	1	0	0	0.28616	0.29057	0.041541	0.12047	0.21468	0.33002	0.12705	0.13585	0.11235	0.10057	0.24127	0.071375	0.06222	0.096984	0.21792	0.072312	-2.7146	-3.2979	-3.3917	-2.9625	-3.5396	-3.175	-3.3396	-3.5521	-2.9333	-3.6208	-3.2812	-3.0958	-3.5021	-3.1396	-3.4208	-3.3771	158.695	-87.770	-92.306	93.193	103.567	-9.207	-39.427	141.930	35.942	143.307	198.747	65.253	-29.283	-90.825	169.662	124.307	0.00012336	0.0019457	0.00040802	553.43	7.523e-06	1.5245e-05	571.56	193.71	1.2391e-05	1.5585e-05	203.26	64.265	68.847	28.543	6.2247e-06	24.806	0.01629	0.026763	0.0076072	788.33	0.0002918	0.00030228	594.22	205.8	0.00026654	0.00030233	237.76	71.878	75.046	30.612	0.00027718	29.422	20.607	-125.085	28.521	-117.964	192.287	6.608	-119.240	-112.890	1.351	158.244	-115.823	-111.133	-109.726	-103.919	16.635	-107.915	-8191	255	
1372.132	1	1	0	0	0.16135	0.23369	0.1287	0.17664	0.10858	0.09444	0.03276	0.085	0.26048	0.17889	0.10806	0.13578	0.15093	0.26105	0.23603	0.20961	-2.6625	-3.3312	-3.3187	-3.1271	-3.5646	-3.1833	-3.1437	-3.6437	-3.0229	-3.3229	-3.3563	-3.0271	-3.4625	-3.1083	-3.0812	-3.725	183.089	2.892	-70.850	66.011	220.151	-60.772	147.607	126.386	-76.371	-55.349	127.173	20.225	97.535	38.077	-12.426	-69.951	4.4152e-05	0.00090656	6.1685e-05	548.28	8.1864e-06	2.3367e-05	568.52	193.93	1.3008e-05	9.4477e-06	207.36	64.625	68.977	28.744	4.5925e-06	24.91	0.016052	0.026454	0.0075796	786.77	0.00028619	0.00030397	592.86	206.81	0.00026417	0.00030462	239.77	72.089	75.284	30.725	0.00027947	29.518	102.582	-8.766	40.014	-118.370	-5.382	53.126	-119.391	-112.923	46.557	-29.991	-115.929	-111.496	-109.454	-103.941	-56.728	-108.123	-8191	255	
1372.230	1	1	0	0	0.0090547	0.13716	0.16169	0.17116	0.083017	0.058462	0.13807	0.057331	0.13642	0.03737	0.039352	0.026165	0.24393	0.085658	0.2972	0.13818	-2.6979	-3.2771	-3.3333	-2.9333	-3.5271	-3.2042	-2.9854	-3.4958	-3.0917	-3.1083	-3.4437	-3.1188	-3.5333	-3.2188	-3.1875	-3.5771	-16.652	121.067	166.742	204.805	7.802	-52.520	40.286	-33.706	147.237	-89.142	51.214	-55.188	85.287	219.858	7.965	75.591	0.00055307	0.00074	0.00035769	559.24	1.0171e-05	2.7187e-06	578.46	196.62	2.0745e-05	2.1527e-05	210.06	65.742	70.234	29.589	5.8119e-06	25.285	0.015859	0.026648	0.0075977	788.31	0.00028351	0.00030134	599.11	208.55	0.00025986	0.000301	241.68	72.745	76.005	31.371	0.00027577	29.902	5.114	15.191	-10.407	-117.984	-71.055	34.151	-118.876	-112.740	228.020	-114.968	-115.770	-111.496	-109.495	-103.727	-104.822	-107.813	-8191	255	
1372.349	1	1	0	0	0.051624	0.29355	0.11106	0.10305	0.22485	0.16397	0.069678	0.14978	0.16986	0.090547	0.21008	0.17538	0.093009	0.27833	0.26161	0.19397	-2.7562	-3.1542	-3.5583	-3.0208	-3.2875	-3.2417	-3.0208	-3.5292	-3.2104	-3.2583	-3.6333	-3.1083	-3.2771	-3.4771	-3.0563	-3.55	147.828	205.093	171.399	208.605	-55.375	-57.173	149.266	-125.407	124.728	61.896	129.610	18.160	-130.468	169.972	-52.355	-51.789	0.00033614	0.0014739	0.00034422	566.84	1.1683e-05	2.0785e-05	590.58	202.48	6.9762e-06	2.184e-05	217.93	68.305	72.786	30.661	8.8405e-06	26.831	0.015873	0.026628	0.0074998	788.53	0.00028504	0.00030176	610.32	213.51	0.00025789	0.0003029	247.76	75.216	78.738	32.463	0.00027353	30.879	-23.420	217.289	-31.796	-116.805	-94.736	-11.871	-119.105	-112.824	36.461	179.440	-115.244	-111.106	-109.613	-104.333	-76.481	-107.844	-8191	255	
1372.445	1	1	0	0	0.1794	0.117	0.11271	0.02922	0.20055	0.28641	0.076956	0.12174	0.10972	0.17163	0.17904	0.22863	0.068005	0.094899	0.11448	0.14614	-2.7833	-3.0021	-3.3292	-3.0438	-3.2021	-3.375	-3.0208	-3.5042	-3.1542	-3.2958	-3.3167	-3.1021	-3.3354	-3.375	-3.1104	-3.4771	214.941	-123.960	-10.787	22.475	122.931	99.242	107.636	47.192	-40.379	-90.891	212.200	109.824	180.358	97.657	49.695	172.845	0.00047839	0.0012371	0.00026205	567.68	1.185e-05	2.3721e-05	600.14	209.73	2.2472e-05	1.0821e-05	222.46	70.336	75.901	31.162	5.0289e-06	26.896	0.015785	0.026529	0.0074538	787.83	0.00028183	0.00029954	618.25	218.47	0.00025776	0.00029965	251.42	76.857	80.738	33.029	0.00027031	31.102	-25.467	107.303	-10.395	-118.209	6.887	-8.801	-118.860	-112.829	-17.680	-82.770	-116.186	-110.982	-109.523	-103.948	-103.443	-108.633	-8191	255	
1372.517	1	1	0	0	0.14236	0.21816	0.092693	0.13017	0.091571	0.10909	0.30695	0.15449	0.21235	0.032115	0.22412	0.2845	0.21801	0.10061	0.24124	0.18118	-2.9146	-3.15	-3.4104	-3.1104	-3.2771	-3.5146	-3.05	-3.6	-3.4292	-3.2771	-3.6271	-3.4083	-3.3479	-3.6021	-3.0729	-3.5042	36.355	153.722	-22.288	-120.723	204.236	162.288	186.202	-88.871	-125.983	149.769	88.234	189.075	201.643	-117.811	-39.684	213.336	0.00046944	0.00098828	0.00023058	578.25	8.0103e-06	5.6176e-06	600.09	211.62	1.9132e-05	1.1381e-05	224.52	71.223	77.223	31.562	6.6684e-06	27.401	0.015652	0.026458	0.0073539	797.04	0.0002829	0.00029904	618.39	220.45	0.00026069	0.0002991	254.19	77.856	82.235	33.382	0.00026786	31.414	1.004	-27.226	-104.873	-118.384	132.803	39.183	-119.089	-113.049	114.508	64.079	-116.438	-111.038	-108.815	-104.118	8.646	-107.814	-8191	255	
1372.637	1	1	0	0	0.054842	0.12693	0.081384	0.13414	0.16375	0.141	0.079772	0.26476	0.059527	0.22002	0.12701	0.29611	0.065812	0.12769	0.10047	0.061588	-3.0979	-3.1542	-3.4354	-3.0646	-3.1875	-3.5271	-3.0521	-3.4813	-3.4188	-3.1479	-3.6708	-3.1583	-3.2687	-3.6083	-2.9021	-3.3104	107.090	182.090	169.157	209.591	205.027	-88.323	26.340	212.271	-0.109	85.172	-72.128	163.508	216.418	78.452	-123.333	160.740	0.00028179	0.0013515	0.00019316	577.06	1.7546e-05	1.1447e-05	600.52	212.37	8.0058e-06	8.9512e-06	228.1	71.468	76.539	31.622	1.1135e-05	27.129	0.015685	0.026228	0.0073198	794.8	0.00028173	0.00029751	617.72	221.34	0.00026128	0.00029972	255.83	78.115	82.019	33.304	0.00026607	31.233	-43.390	-8.226	-121.375	-117.778	-99.293	144.483	-119.395	-112.898	-7.208	194.258	-115.341	-111.845	-109.085	-104.462	-24.492	-108.199	-8191	255	
1372.733	1	1	0	0	0.16624	0.19453	0.03209	0.12728	0.072619	0.18866	0.11185	0.059942	0.072511	0.13184	0.083752	0.036399	0.065422	0.13991	0.074978	0.11268	-3	-2.9375	-3.5229	-3.325	-3.0104	-3.6021	-3.0896	-3.4458	-3.5979	-2.8812	-3.5187	-3.1021	-3.1625	-3.5125	-3.2062	-3.3187	125.785	13.564	69.873	45.373	-96.613	212.413	91.642	-71.872	-50.157	213.535	-81.516	-52.554	-32.868	-71.993	104.183	55.526	0.00038808	0.0010421	0.00054108	579.11	1.4824e-05	1.7111e-05	599.22	212.24	7.1359e-06	4.9807e-06	225.03	70.703	75.727	31.473	9.875e-06	26.882	0.015768	0.02633	0.007313	794.75	0.00028382	0.00029698	613.97	220.92	0.00025873	0.00029349	253.19	77.516	81.145	32.929	0.00026517	30.827	-44.009	-130.210	-10.147	-117.076	142.646	-100.741	-119.358	-113.410	-103.972	-89.995	-115.855	-111.521	-109.123	-104.083	-94.471	-107.635	-8191	255	
1372.830	1	1	0	0	0.20164	0.24086	0.2643	0.016669	0.064419	0.012561	0.23979	0.28329	0.14108	0.03382	0.16594	0.13716	0.1319	0.096708	0.21464	0.10736	-2.9167	-2.7875	-3.3875	-3.3979	-3.0563	-3.6896	-3.2375	-3.2458	-3.4896	-2.925	-3.4354	-3.2479	-2.9667	-3.5729	-3.2438	-3.1958	12.646	-92.155	-99.297	-95.494	-105.772	225.535	222.206	186.729	77.329	-24.368	55.671	175.525	-67.107	-84.742	-108.483	196.364	0.00058581	0.0010931	0.00025332	569.25	6.1434e-06	9.8951e-06	594.66	211.56	1.1072e-05	1.6956e-05	224.39	71.121	76.447	31.315	1.4634e-05	26.737	0.015653	0.025887	0.0072835	792.55	0.00028174	0.00029304	611.88	220.25	0.00025786	0.000295	252.91	77.682	81.617	32.952	0.00026704	30.835	-35.889	23.248	156.220	-118.630	-77.218	38.869	-119.217	-112.859	179.068	4.370	-116.249	-111.369	-109.032	-103.873	53.827	-108.404	-8191	255	
1372.950	1	1	0	0	0.22952	0.090564	0.3865	0.12746	0.19221	0.15588	0.087704	0.077107	0.022283	0.19329	0.17294	0.066548	0.33159	0.13125	0.045234	0.09163	-3.2917	-2.8	-3.3667	-3.4521	-3.1229	-3.4583	-3.2417	-3.2687	-3.4938	-3.0417	-3.3625	-3.4833	-2.8625	-3.375	-3.3083	-3.1042	167.101	69.584	46.958	173.630	91.019	7.602	102.928	69.336	223.062	161.126	185.795	133.358	156.354	-114.609	43.723	188.247	0.00012708	0.00012596	0.00030326	574.5	7.9098e-06	1.554e-05	599.8	210.4	2.588e-05	9.6043e-06	227.21	71.658	76.93	31.505	1.2436e-05	27.123	0.015665	0.025509	0.0072479	790.07	0.00027941	0.00028594	612.6	220.45	0.00025504	0.00028509	254.07	78.018	81.634	33.065	0.00026337	31.027	-26.774	195.590	-101.696	-117.069	184.321	130.606	-119.062	-113.305	-100.739	-0.242	-115.805	-111.026	-109.754	-104.231	5.139	-107.379	-8191	255	
1373.046	1	1	0	0	0.12971	0.3101	0.11838	0.21161	0.090407	0.25235	0.15866	0.036661	0.13754	0.10981	0.1996	0.10582	0.12846	0.13238	0.13381	0.13659	-3.1729	-3.1542	-3.3438	-3.3271	-2.9958	-3.5104	-3.3688	-3.0875	-3.6167	-3.1063	-3.4313	-3.5917	-2.9479	-3.3563	-3.2146	-3.1437	-91.623	3.919	-92.704	144.135	-46.736	-4.625	14.947	-87.829	227.978	-81.019	-65.166	143.740	187.685	211.021	167.028	155.042	0.00035145	0.0014393	0.00031683	579.22	5.0983e-06	1.6717e-05	603.25	211.92	2.3818e-05	2.1067e-05	227.12	73.12	77.907	31.787	2.7087e-05	27.404	0.015316	0.025468	0.0072229	791.58	0.00027512	0.00028808	618.22	221.42	0.00025211	0.00028956	256.03	78.962	82.363	33.397	0.00026355	31.344	5.627	-35.241	85.909	-117.692	120.680	-120.741	-119.538	-113.231	37.813	87.338	-115.805	-111.533	-109.315	-104.192	210.739	-109.075	-8191	255	
1373.141	1	1	0	0	0.34832	0.084798	0.18543	0.11029	0.063586	0.3009	0.10591	0.066547	0.066169	0.17955	0.091282	0.15313	0.093313	0.39401	0.079096	0.082162	-3.2375	-3.1125	-3.3563	-3.475	-3.1479	-3.3667	-3.3917	-3.0583	-3.6167	-3.3229	-3.1167	-3.4542	-3.1333	-3.3875	-3.2687	-3.0187	57.724	220.048	83.589	94.410	6.054	33.092	119.119	-92.851	-118.238	25.440	158.040	227.242	8.339	-126.023	119.183	-61.052	0.00054747	0.00016068	0.00049643	590.61	1.3214e-05	5.891e-06	608.47	215.18	1.6814e-05	6.1139e-06	229.47	72.634	77.986	32.049	2.7994e-06	26.973	0.015166	0.02531	0.007213	792.41	0.00027229	0.00028567	622.3	223.64	0.00024924	0.00028624	255.74	78.933	82.385	33.312	0.00025978	30.866	-5.012	110.635	42.451	-118.487	-61.428	133.561	-119.008	-112.924	71.487	139.603	-115.890	-111.241	-109.379	-103.644	72.577	-108.753	-8191	255	
1373.212	1	1	0	0	0.10076	0.13672	0.15637	0.13457	0.19565	0.22892	0.21989	0.21207	0.088713	0.27653	0.078411	0.1742	0.10813	0.40398	0.084526	0.24425	-2.9958	-3.1875	-3.0354	-3.2333	-3.0375	-3.3917	-3.5187	-3.0146	-3.4354	-3.0646	-3.2354	-3.6396	-3.1646	-3.3333	-3.3667	-3.0333	74.048	19.398	213.443	-38.215	-47.496	-38.734	179.608	134.364	65.865	110.645	-20.664	191.337	61.355	-66.410	45.352	72.513	0.00050789	0.00094188	0.00056864	576.47	2.3002e-05	7.7188e-06	599.82	215.12	2.3807e-06	4.9442e-06	224.9	71.183	76.252	30.957	3.2441e-05	25.781	0.01473	0.02489	0.0070357	784.02	0.00026637	0.00027993	616.74	222.19	0.00024057	0.00028036	250.87	76.403	80.561	32.407	0.00025362	29.529	6.919	109.627	184.573	-117.784	28.175	82.558	-119.064	-112.993	140.929	-83.327	-116.300	-111.562	-109.986	-104.219	12.790	-108.492	-8191	255	
1373.310	1	1	0	0	0.29341	0.080815	0.29499	0.14606	0.066573	0.081561	0.14946	0.3018	0.085886	0.16956	0.21776	0.31515	0.14794	0.16588	0.077362	0.055042	-3.0542	-3.1833	-2.9333	-3.5812	-3.1	-3.3146	-3.5187	-3.0542	-3.3542	-3.4208	-3.2146	-3.6917	-3.2708	-3.4271	-3.7396	-3.175	99.235	72.328	-111.311	-89.471	114.184	139.224	91.530	212.332	-26.357	56.195	143.346	177.561	39.213	-40.837	-129.248	181.604	0.00020488	0.0017098	0.00027643	588.97	1.8608e-06	4.7981e-07	594.09	208.74	9.594e-06	1.8473e-05	213.88	67.763	73.627	29.507	5.3926e-06	24.181	0.014432	0.024549	0.0068518	776.21	0.0002616	0.00027565	604.15	215.89	0.00023624	0.00027276	240.65	72.789	77.74	31.054	0.00024687	27.885	14.013	-91.399	-86.227	-117.578	-72.729	172.672	-118.973	-112.828	7.073	19.213	-115.911	-111.380	-109.736	-104.258	-130.292	-107.737	-8191	255	
1373.429	1	1	0	0	0.18233	0.16803	0.098178	0.091283	0.16918	0.11475	0.090111	0.23986	0.1732	0.10605	0.12742	0.097729	0.21766	0.21596	0.25649	0.15648	-3.0771	-3.2354	-3.0417	-3.6	-3.2292	-3.2958	-3.6417	-3.0958	-3.3958	-3.4062	-2.9667	-3.5375	-3.3458	-3.0521	-3.4562	-2.9417	221.771	-117.604	58.120	-33.912	-99.488	-62.209	170.910	67.381	-38.661	133.912	206.309	206.109	-127.211	-93.135	-45.411	58.666	0.00047906	0.0010734	0.00040641	562.86	6.3247e-06	7.5344e-06	572.99	195.04	1.2187e-05	9.6432e-06	196.8	60.491	66.815	26.833	9.849e-06	21.835	0.01423	0.02396	0.0066924	757.21	0.00025602	0.00027191	581.67	203.42	0.00023487	0.00026968	223.91	66.549	71.55	28.547	0.00024139	25.657	-24.634	-128.710	-45.168	-117.930	121.936	32.778	-119.507	-112.720	94.774	-78.592	-115.969	-111.624	-109.285	-104.183	219.350	-107.491	-8191	255	
1373.525	1	1	0	0	0.06772	0.16792	0.099741	0.12229	0.13306	0.14076	0.27277	0.20534	0.16392	0.095074	0.16359	0.045471	0.24234	0.15185	0.073355	0.29241	-2.9375	-3.25	-3.175	-3.3375	-3.2542	-2.9583	-3.7125	-3.0229	-3.1917	-3.5792	-2.9167	-3.5042	-3.2229	-3.075	-3.2646	-3.2354	-111.406	102.719	4.030	217.375	224.780	98.259	128.600	153.691	-39.600	-31.347	-85.538	117.587	-94.442	184.385	114.291	-111.179	0.00043278	0.00021966	0.00036297	541.61	7.0151e-07	5.1406e-06	543.64	179.15	2.332e-05	2.0412e-05	178.6	54.84	60.637	24.623	6.0195e-06	19.406	0.013969	0.023496	0.0064906	733.24	0.00025097	0.00026337	553.5	188.35	0.00022823	0.00026079	204.31	60.852	65.831	26.325	0.0002291	23.46	-32.672	218.327	51.361	-118.760	70.380	-36.025	-119.360	-113.251	28.067	187.805	-115.010	-111.328	-109.233	-103.620	-15.232	-107.996	-8191	255	
1373.621	1	1	0	0	0.054306	0.14101	0.31981	0.12321	0.26131	0.21928	0.15624	0.039438	0.12378	0.1102	0.1494	0.1568	0.26487	0.058909	0.050523	0.16192	-2.7562	-3.6021	-2.9958	-3.4792	-3.2896	-3.0625	-3.6	-3.2125	-3.2521	-3.4854	-2.9667	-3.2125	-3.4125	-3.1083	-3.55	-3.1167	199.441	-64.629	217.743	111.099	224.835	-123.505	-27.791	-123.235	122.184	59.622	217.326	221.249	178.378	218.196	-108.119	226.444	0.00019041	0.00082946	0.00030239	531.9	1.0614e-05	5.6245e-06	507.55	169.05	1.2009e-05	1.7343e-05	163.89	51.073	58.118	23.32	1.2388e-05	18.472	0.013141	0.021825	0.0059755	699.26	0.00022758	0.00023544	521.27	176.48	0.00020334	0.00023119	187.47	56.268	62.074	24.719	0.00020678	21.899	71.740	-86.281	153.716	-117.291	187.461	21.904	-119.559	-113.090	133.916	172.750	-115.413	-110.972	-109.109	-103.536	52.842	-108.106	-8191	255	
1373.742	1	1	0	0	0.23546	0.15671	0.058488	0.19323	0.23813	0.069513	0.153	0.23562	0.18003	0.076057	0.25738	0.13449	0.11256	0.1867	0.088676	0.046589	-2.7521	-3.3375	-3.0062	-3.2604	-3.3333	-3.0583	-3.3542	-3.1063	-3.1208	-3.65	-3.1437	-3.3458	-3.3708	-2.9833	-3.4437	-3.2562	-50.450	207.790	200.705	67.763	186.450	-128.092	170.950	-124.792	-39.788	-107.652	-107.556	53.604	-74.268	198.033	-19.100	8.428	0.00020292	0.00095493	0.0002774	505.06	8.2587e-06	1.7884e-05	498.93	165.92	2.52e-05	1.9566e-05	163.32	50.656	59.641	24.097	9.6502e-06	19.099	0.01204	0.019885	0.0055363	674.3	0.00021388	0.00022169	503.9	172.78	0.00019234	0.00022096	184.17	55.727	63.004	25.369	0.00019654	22.284	217.330	84.907	7.731	-118.329	-108.335	14.327	-119.532	-112.528	106.218	54.471	-116.028	-111.052	-109.014	-104.578	-106.643	-107.856	-8191	255	
1373.814	1	1	0	0	0.096873	0.13433	0.17396	0.067039	0.1181	0.15875	0.078697	0.24921	0.11159	0.073463	0.075584	0.17529	0.1536	0.2271	0.075551	0.1863	-2.6896	-3.4813	-3.1562	-3.3542	-3.3917	-3.0792	-3.3042	-3.3812	-3.0771	-3.3937	-3.0896	-3.2188	-3.5625	-3.1271	-3.425	-3.4542	10.538	-23.176	142.703	111.602	-112.201	-34.908	193.782	167.696	-65.763	159.590	211.105	55.644	126.130	178.786	25.429	138.900	0.00034836	0.0011735	0.00015688	529.78	1.4841e-05	1.0251e-05	515.08	174.8	7.7682e-06	4.2946e-06	168.77	53.288	62.108	25.178	5.399e-06	19.392	0.011545	0.018922	0.0053702	678.87	0.00020655	0.00021472	514.9	178.45	0.00018742	0.00021061	188.62	57.636	64.795	26.041	0.00019309	22.596	-96.128	-68.940	-99.936	-118.077	93.130	-74.320	-119.932	-113.068	210.919	12.670	-115.519	-111.035	-109.302	-104.127	-119.835	-108.546	-8191	255	
1373.910	1	1	0	0	0.10347	0.21236	0.032974	0.22659	0.27262	0.23533	0.12677	0.19774	0.19222	0.12833	0.096191	0.033059	0.14034	0.04615	0.058816	0.11741	-2.8604	-3.4375	-3.1625	-3.0771	-3.3375	-3.2854	-3.45	-3.4146	-2.9646	-3.6396	-3.0958	-3.2271	-3.5	-3.0125	-3.5354	-3.4625	204.120	-83.904	130.880	-65.806	-61.012	-30.353	96.976	-128.571	-56.370	153.033	14.475	-40.771	197.607	68.467	63.940	159.459	0.00013897	0.0016086	0.00016278	541.83	1.0066e-05	9.7313e-06	515.35	174.15	1.6376e-05	4.6712e-06	169.1	53.599	62.596	25.225	8.7759e-06	19.636	0.011128	0.018468	0.0052997	680.52	0.00019972	0.00020915	517.27	178.57	0.0001826	0.00020882	189.28	57.867	65.278	26.265	0.00019491	22.685	-90.652	-99.132	208.748	-117.742	-6.819	165.770	-119.807	-112.755	-26.066	-37.016	-115.520	-111.036	-109.188	-103.938	38.838	-108.249	-8191	255	
1374.031	1	1	0	0	0.1657	0.080276	0.13122	0.087797	0.078751	0.14065	0.15289	0.17211	0.087022	0.1253	0.11953	0.10063	0.15023	0.1155	0.13367	0.13579	-2.7625	-3.4375	-3.0771	-3.1542	-3.4708	-3.1083	-3.2625	-3.4542	-2.9854	-3.3396	-3.1396	-2.9417	-3.5438	-3.2313	-3.1125	-3.2646	92.370	-48.000	89.228	149.998	166.905	10.758	28.602	19.729	-36.758	-113.739	-106.734	23.649	103.977	-99.638	81.110	17.672	0.00025338	0.0011455	0.00061521	525.16	1.6018e-05	1.1551e-05	519.34	174.43	8.1356e-06	1.2127e-05	169.53	53.323	62.321	25.043	6.2646e-06	19.659	0.011291	0.019059	0.0053892	682.96	0.00020485	0.00021579	521.77	179.55	0.00018948	0.00021989	191.83	58.139	65.13	26.106	0.0002012	22.619	-74.524	-79.592	-59.111	-118.437	-118.651	-19.927	-119.173	-113.077	44.299	-37.934	-115.483	-111.442	-109.272	-103.692	70.501	-107.986	-8191	255	
1374.127	1	1	0	0	0.1951	0.23237	0.12843	0.27031	0.071314	0.053578	0.17245	0.075526	0.30348	0.26017	0.1805	0.20997	0.034876	0.090582	0.13936	0.061096	-2.4938	-3.4688	-3.1063	-2.9354	-3.4917	-3.1667	-3.4021	-3.6083	-2.9521	-3.4813	-3.3771	-3.1667	-3.5375	-3.3688	-3.2896	-3.4625	92.461	-107.778	210.499	-84.380	-22.253	-69.517	98.914	15.107	75.839	-36.120	180.115	136.065	164.225	159.008	-33.722	67.057	0.00031815	0.00074617	0.00034029	530.52	1.6874e-05	1.7135e-05	518.16	175.05	1.6682e-05	8.5899e-06	171.34	53.771	62.932	25.534	2.1024e-05	20.149	0.011556	0.019296	0.0055062	680.37	0.00020717	0.00021951	520.21	180.78	0.00018762	0.00021736	193.31	58.422	65.591	26.419	0.00019843	23.022	-23.941	-93.851	64.910	-118.325	59.031	212.093	-119.510	-113.073	48.187	135.287	-116.209	-111.621	-108.998	-104.385	-97.923	-108.257	-8191	255	
1374.221	1	1	0	0	0.13619	0.11342	0.2745	0.24885	0.090552	0.27739	0.074503	0.024036	0.062868	0.11302	0.11578	0.15543	0.25392	0.23786	0.2145	0.10598	-2.5729	-3.3271	-3.4313	-3.0625	-3.7042	-3.0896	-3.25	-3.6521	-2.925	-3.375	-3.3875	-2.9646	-3.525	-3.4896	-3.0312	-3.6312	180.196	-124.699	175.388	133.030	-43.836	162.780	167.487	18.830	-128.166	93.557	42.845	101.389	226.876	-27.791	71.451	141.892	0.00032808	0.00096086	0.000293	539.17	3.7745e-06	2.8936e-06	533.13	183.61	2.2954e-05	1.0493e-05	182.51	57.175	65.724	26.68	4.8452e-06	21.076	0.011361	0.019306	0.0054238	683.44	0.00020845	0.00021958	534.84	187.08	0.00019212	0.00021977	202.46	61.04	68.269	27.548	0.00020236	23.954	-30.087	76.699	-97.098	-118.030	92.574	-69.244	-119.550	-112.884	-14.986	-71.940	-115.588	-111.091	-109.388	-104.523	110.357	-108.268	-8191	255	
1374.317	1	1	0	0	0.1112	0.28775	0.083314	0.074981	0.060806	0.11047	0.3876	0.13145	0.072778	0.2153	0.20405	0.12544	0.16839	0.10303	0.070947	0.039125	-2.7167	-3.2021	-3.3438	-2.9938	-3.3792	-3.2333	-3.0896	-3.675	-3.1188	-3.3438	-3.5271	-3.0563	-3.4958	-3.3792	-3.0917	-3.4458	40.837	-23.242	9.095	-22.455	42.987	13.733	116.495	145.290	5.126	-37.198	-53.167	110.720	149.247	78.520	225.967	134.573	0.00035231	0.0018259	0.00018012	546.14	1.5884e-05	1.6136e-05	545.98	188.35	4.9844e-06	5.419e-06	188.2	58.708	67.437	27.14	7.4195e-06	21.789	0.011635	0.019477	0.0054839	697.98	0.00021211	0.00022298	548.48	191.27	0.00019675	0.00022771	208.34	63.07	69.767	28.146	0.00020754	24.674	15.840	-43.818	2.213	-118.386	-32.303	99.233	-119.602	-112.832	-42.748	-46.435	-116.202	-111.279	-109.361	-104.594	54.282	-108.661	-8191	255	
1374.438	1	1	0	0	0.2227	0.25638	0.15612	0.030241	0.099404	0.16811	0.14653	0.10932	0.067022	0.27631	0.16762	0.27572	0.23248	0.10682	0.067062	0.13316	-2.7583	-3.2	-3.4146	-3.05	-3.3667	-3.3479	-3.0417	-3.5187	-3.2417	-3.2792	-3.5062	-3.1937	-3.3708	-3.4437	-3.0583	-3.4854	140.307	14.717	6.368	125.698	198.294	-35.683	-115.934	101.172	-33.501	41.400	149.766	198.527	221.313	97.530	53.425	226.401	3.5808e-05	0.001441	0.00016423	552.33	1.4339e-05	1.2542e-05	563.68	194.46	2.3337e-06	1.8982e-05	195.05	60.932	68.441	27.849	1.1223e-05	22.502	0.012007	0.020095	0.0055814	706.51	0.00021554	0.00022462	560.82	197.31	0.00019869	0.0002259	214.66	65.28	71.683	28.796	0.00020549	25.341	147.014	126.066	156.555	-117.893	-3.226	70.549	-119.148	-112.844	50.475	145.502	-115.900	-111.342	-108.903	-104.317	31.131	-108.086	-8191	255	
1374.510	1	1	0	0	0.076775	0.24148	0.22054	0.11171	0.21395	0.057865	0.078366	0.2354	0.17778	0.2117	0.074104	0.2102	0.075961	0.066595	0.21767	0.2143	-2.8063	-3.0646	-3.5062	-2.9375	-3.3563	-3.4417	-3.0729	-3.4125	-3.3146	-3.0167	-3.5187	-3.1271	-3.3417	-3.3708	-3.0042	-3.5208	-80.053	139.703	144.424	121.648	216.516	-122.706	-72.394	134.475	150.465	-89.856	66.812	144.818	-43.039	-119.688	224.783	160.683	0.0002589	0.0016693	0.00014057	558.31	6.4986e-06	1.8911e-05	573.25	199.6	1.155e-05	9.5604e-06	202.65	62.227	69.835	27.935	1.1222e-05	22.349	0.012009	0.020036	0.0055976	715.78	0.00021686	0.00022778	570.43	201.78	0.00019968	0.00022944	220.96	66.349	72.341	28.889	0.00020567	25.46	-9.486	-117.048	101.981	-118.340	-100.756	43.976	-119.292	-113.295	4.939	-18.816	-116.469	-111.662	-108.940	-104.489	10.244	-108.592	-8191	255	
1374.606	1	1	0	0	0.03432	0.11233	0.061303	0.2303	0.32526	0.079312	0.15908	0.13712	0.027673	0.083151	0.10008	0.021724	0.040944	0.071646	0.12214	0.084077	-2.9688	-3.1979	-3.6208	-3.3979	-3.225	-3.5479	-3.1125	-3.2729	-3.4542	-3.0417	-3.5958	-3.2104	-3.3542	-3.7021	-3.1979	-3.4208	121.891	224.101	-90.954	210.128	28.093	-108.252	-127.019	101.586	-46.532	215.612	176.907	155.679	-13.954	11.052	28.198	118.055	0.00042709	0.0016318	0.00046532	566.56	4.581e-06	9.5413e-06	577.71	196.7	1.3825e-05	3.6071e-06	198.89	61.576	68.728	27.377	1.5968e-06	22.126	0.012001	0.019868	0.0056518	715.05	0.00021737	0.00022689	573.24	200.97	0.00019856	0.00022691	218.78	65.474	71.567	28.338	0.00020423	25	-23.141	-76.710	-51.598	-117.372	213.780	228.584	-119.107	-112.942	-43.436	-103.661	-116.340	-112.166	-109.737	-104.429	-111.566	-108.413	-8191	255	
1374.726	1	1	0	0	0.12969	0.072418	0.024574	0.091985	0.05988	0.13276	0.21775	0.11614	0.17399	0.068255	0.10994	0.18312	0.11165	0.043069	0.17497	0.094511	-3.1833	-3.2604	-3.4917	-3.3896	-3.2562	-3.6833	-3.1292	-3.3229	-3.3958	-2.9938	-3.6125	-3.2542	-3.3604	-3.8312	-3.0958	-3.3292	8.080	-7.793	-6.762	105.091	37.731	-114.105	68.578	-29.094	-118.279	-99.228	-63.270	192.376	-104.628	100.702	-81.659	-82.378	0.00032937	0.00081912	0.00031782	564.12	1.5553e-05	5.1185e-06	570.05	195.25	6.1886e-06	8.1542e-06	194.58	60.425	67.926	27.049	9.592e-06	21.843	0.012031	0.020079	0.0055939	719.22	0.00021492	0.00022335	569.99	198.38	0.00019715	0.00022378	216.36	64.976	70.493	28.062	0.00020419	24.904	-9.412	-38.840	37.824	-118.598	136.451	20.852	-119.126	-113.197	1.296	41.631	-115.701	-111.497	-109.762	-104.469	60.108	-108.062	-8191	255	
1374.822	1	1	0	0	0.17264	0.25824	0.34527	0.10109	0.27803	0.06594	0.21268	0.17274	0.22085	0.035773	0.21789	0.094182	0.19143	0.23274	0.16784	0.20962	-3.1562	-2.9813	-3.5896	-3.2562	-3.0438	-3.5187	-3.1854	-3.2021	-3.4896	-3.0604	-3.3917	-3.2292	-2.9688	-3.5521	-3.2167	-3.2958	153.000	228.070	152.580	225.338	195.427	-16.845	207.937	223.392	-102.069	28.710	-103.249	205.452	212.025	59.905	33.691	82.890	0.00022077	0.0012662	0.00013537	557.95	6.6567e-06	1.6031e-05	572.2	192.49	1.9214e-05	1.1816e-05	194.94	60.516	67.701	27.358	1.6181e-05	22.169	0.011854	0.019823	0.0055618	714.72	0.000217	0.00022346	568.84	196.74	0.00019787	0.00022404	214.85	64.622	70.496	28.062	0.00020262	25.087	8.203	-116.201	92.605	-118.489	212.968	139.142	-118.982	-113.370	-21.551	-30.352	-116.248	-111.763	-109.351	-104.731	152.894	-108.589	-8191	255	
1374.919	1	1	0	0	0.015808	0.243	0.093438	0.074689	0.16666	0.18591	0.27306	0.16563	0.10353	0.27819	0.13473	0.031707	0.15268	0.10976	0.1577	0.15713	-3.0479	-2.9688	-3.3625	-3.2583	-2.9646	-3.575	-3.2542	-3.3	-3.5708	-2.9417	-3.2812	-3.3583	-3.0458	-3.4188	-3.1167	-3.0104	81.160	213.381	-119.373	192.029	-83.680	6.719	173.704	136.167	-16.426	8.520	-10.839	-72.372	-74.341	119.437	-90.293	182.116	0.00027655	0.00048731	0.00019891	569.03	2.1781e-05	2.0973e-05	578.11	197.33	7.7627e-06	1.2893e-05	200.82	62.05	69.127	28.185	3.3742e-05	22.638	0.011728	0.019445	0.0054751	713.48	0.0002086	0.00021827	576	200.41	0.00019071	0.0002195	219.17	65.921	71.691	28.8	0.00020292	25.359	-82.814	-42.200	80.829	-118.148	94.528	66.467	-119.198	-113.236	38.754	119.808	-115.823	-111.192	-109.629	-104.122	8.897	-108.341	-8191	255	
1375.015	1	1	0	0	0.20388	0.059626	0.076928	0.16159	0.07293	0.079052	0.28234	0.052886	0.0061318	0.3064	0.054332	0.24577	0.18463	0.055547	0.072052	0.14983	-3.0646	-3.0938	-3.2771	-3.1562	-3.1792	-3.4875	-3.2313	-3.2042	-3.5875	-3.2125	-3.3271	-3.4021	-3.0687	-3.3229	-3.1417	-3.0771	100.769	-59.391	95.672	16.075	-125.119	219.073	190.453	20.452	-105.602	110.847	14.400	164.435	120.720	-25.832	73.052	7.177	0.00036252	0.0014082	7.5202e-05	570.49	3.2047e-05	1.4478e-05	577.65	200.57	2.7742e-05	8.9964e-06	203.33	62.832	69.793	28.005	9.9531e-06	23.069	0.011629	0.01972	0.0055518	722.33	0.00020903	0.00022202	577.3	201.56	0.00019199	0.00022346	220.76	66.275	72.412	28.926	0.00020297	25.628	-2.734	124.684	131.728	-118.081	-39.902	43.423	-119.600	-113.091	104.020	-8.505	-115.946	-111.503	-109.138	-104.633	89.605	-108.470	-8191	255	
1375.109	1	1	0	0	0.084459	0.29036	0.088286	0.24454	0.23124	0.030038	0.11079	0.22693	0.2166	0.14995	0.29018	0.035162	0.091369	0.12542	0.059147	0.033253	-3.0979	-2.9813	-3.2458	-3.4708	-2.9792	-3.4188	-3.3021	-3.1583	-3.5521	-3.0833	-3.3458	-3.4021	-3.1646	-3.1771	-3.2125	-3.0646	-124.297	-19.052	88.748	-64.160	-99.695	104.466	156.886	-120.359	153.843	-114.390	-124.489	-124.433	25.060	125.519	-64.908	-75.006	0.00049427	0.00024017	0.00011901	577.69	3.7037e-06	4.3678e-06	585.26	201.18	9.0419e-06	6.7585e-06	205.75	65.065	71.926	29.109	1.3154e-05	24.073	0.011613	0.019769	0.0055376	725.64	0.00020944	0.00022196	585.2	203.67	0.00019275	0.00022264	224.15	68.089	73.874	29.73	0.00020094	26.405	-32.624	92.725	83.277	-118.288	151.313	13.066	-119.153	-112.838	-103.059	105.914	-115.946	-111.305	-109.446	-104.597	174.922	-108.816	-8191	255	
1375.205	1	1	0	0	0.12418	0.17774	0.046834	0.084392	0.29402	0.079902	0.20172	0.422	0.20848	0.22048	0.11496	0.26557	0.072399	0.22625	0.11536	0.16481	-3.1646	-3.2083	-3.1167	-3.5687	-3.0396	-3.2708	-3.4292	-2.9042	-3.2979	-3.1729	-3.1875	-3.4604	-3.1937	-3.4333	-3.1875	-3.0354	-1.574	-18.796	218.730	-31.783	-4.093	215.502	197.254	176.145	-103.871	-23.280	60.620	193.005	-83.988	4.186	134.411	-125.697	0.00044192	0.00058478	9.7473e-05	576.8	3.3241e-06	6.1741e-06	595.85	207.36	6.2761e-06	2.1992e-05	213.5	66.399	72.957	29.757	1.1056e-05	23.845	0.011587	0.019477	0.0054817	730.62	0.0002078	0.00022086	592.16	208.24	0.00019111	0.00022032	228.14	69.479	75.193	30.187	0.00020029	26.569	-34.129	58.539	-118.555	-117.454	80.368	165.072	-119.387	-113.082	-95.876	-61.856	-116.464	-111.564	-109.262	-104.327	-118.474	-108.294	-8191	255	
1375.301	1	1	0	0	0.21155	0.22555	0.1914	0.052798	0.049178	0.12861	0.27942	0.18428	0.057189	0.17954	0.14893	0.083765	0.11402	0.1628	0.20201	0.15616	-2.8875	-3.1521	-2.9208	-3.4479	-2.9729	-3.2583	-3.4313	-3.1854	-3.475	-3.2208	-3.275	-3.5646	-3.1917	-3.3333	-3.3563	-3.1042	-35.146	81.152	-101.026	46.502	32.554	-21.097	-106.722	32.355	147.215	54.937	170.519	71.092	100.133	-91.963	177.596	65.866	0.00036575	0.0010571	0.00024523	586.64	2.2357e-05	9.5043e-07	597.3	205.6	1.8273e-05	9.5917e-06	210.42	65.07	72.231	29.046	1.3644e-05	23.789	0.011673	0.019356	0.0054883	727.75	0.00021083	0.00021915	591.23	207.47	0.00019516	0.00022212	225.35	68.467	74.616	29.784	0.00020028	26.342	-3.901	-67.115	-39.100	-118.031	-38.215	199.091	-119.413	-113.028	162.492	20.912	-116.140	-111.597	-109.439	-104.567	-84.280	-108.359	-8191	255	
1375.398	1	1	0	0	0.09915	0.31079	0.26234	0.1939	0.22291	0.13227	0.025496	0.35693	0.14018	0.091187	0.030959	0.25509	0.078321	0.10907	0.1617	0.2522	-3.0542	-3.2396	-2.9083	-3.4229	-3.1375	-3.2271	-3.5646	-3.0271	-3.4833	-3.4604	-2.9292	-3.6063	-3.1479	-3.3187	-3.6104	-3.2062	113.952	198.157	44.184	165.507	203.740	140.712	53.864	-120.167	-49.474	94.925	-54.013	68.089	112.743	-109.791	-98.058	167.247	0.00022894	0.00089716	0.00065127	583.78	1.0318e-05	1.6135e-05	590.28	205.11	2.2062e-05	2.6019e-07	209.59	65.772	73.049	29.781	5.6755e-06	24.217	0.011898	0.019635	0.0055082	728.53	0.00021054	0.0002227	587.41	206.85	0.00019305	0.00022151	226.07	69.081	75.05	30.235	0.00019776	26.617	-15.468	29.823	-104.776	-118.001	120.948	-6.922	-119.119	-113.370	90.446	10.120	-116.079	-111.462	-108.881	-104.347	-92.910	-108.575	-8191	255	
1375.518	1	1	0	0	0.28313	0.46884	0.10654	0.16184	0.11441	0.20276	0.3106	0.26095	0.19111	0.24037	0.044037	0.13338	0.30455	0.26813	0.061897	0.16163	-2.9562	-3.3729	-2.9062	-3.2875	-3.1437	-3.2458	-3.55	-3.0042	-3.5479	-3.4229	-3.1479	-3.5604	-3.3438	-3.0812	-3.5396	-3.2792	134.943	171.866	136.391	164.070	-81.377	-129.399	112.062	-128.008	71.939	-94.424	63.564	192.891	195.496	-72.047	29.690	-107.613	0.00029502	0.0019985	0.00030766	581.39	1.7426e-05	5.9266e-06	596.95	208.21	8.7023e-07	1.8656e-05	209.6	65.807	73.219	29.789	7.1674e-06	23.925	0.011521	0.019173	0.0054106	726.37	0.00020578	0.00021731	592.81	208.28	0.00018977	0.00021547	226.5	69.043	75.243	30.287	0.0001974	26.615	-35.211	-26.206	-74.906	-117.833	-47.781	189.343	-119.580	-112.970	89.352	-75.627	-116.273	-111.477	-109.457	-104.912	62.030	-108.248	-8191	255	
1375.614	1	1	0	0	0.19049	0.095693	0.038684	0.1546	0.18057	0.0081603	0.23736	0.027329	0.22001	0.41995	0.34105	0.20541	0.16733	0.20588	0.096162	0.027095	-3.1063	-3.3208	-2.8792	-3.4688	-3.1688	-3.2333	-3.6813	-3.1521	-3.1708	-3.5208	-3.1312	-3.3937	-3.4458	-2.925	-3.4292	-3.0646	55.073	205.588	-2.998	101.749	-30.519	100.784	170.368	-83.745	-59.622	48.451	-36.169	-113.503	139.694	171.772	24.702	154.935	0.00050091	0.00092401	0.00021913	590.42	8.026e-06	1.4754e-05	595.64	206.3	1.3157e-05	2.7913e-05	211.21	66.715	73.543	29.648	1.6382e-05	24.199	0.011483	0.018974	0.0053393	731.76	0.00020795	0.00021637	591.38	208.32	0.00019089	0.00021917	227.63	69.706	75.329	30.234	0.00019641	26.704	-17.810	228.107	167.214	-118.007	90.747	25.510	-119.266	-112.865	47.133	-13.831	-115.724	-111.603	-109.607	-104.125	-77.054	-107.964	-8191	255	
1375.711	1	1	0	0	0.053774	0.038853	0.21493	0.1398	0.24207	0.17237	0.083682	0.084337	0.24458	0.044824	0.20413	0.091786	0.24539	0.3044	0.16505	0.042198	-2.8479	-3.5104	-3.0708	-3.5875	-3.3208	-3.0729	-3.6312	-3.3917	-3.1562	-3.5125	-3.1167	-3.5083	-3.6042	-3.0583	-3.5187	-3.3812	57.018	91.692	-25.274	-11.365	111.704	-32.569	-56.679	142.248	178.682	-95.215	174.002	-106.436	181.325	151.026	1.253	-128.246	0.00022157	0.00070605	0.00022946	577.32	1.7144e-05	4.166e-06	598.49	207.46	1.4599e-05	2.2278e-05	211.97	65.842	73.686	29.656	2.2792e-06	23.847	0.011574	0.019119	0.0054109	729.49	0.00020608	0.00021607	592.32	208.5	0.00018516	0.00021309	226.96	69.155	75.615	30.166	0.0001933	26.324	14.549	-87.219	150.808	-118.183	-6.525	220.717	-119.126	-112.946	82.108	-24.542	-115.967	-111.452	-108.904	-104.175	-44.030	-109.083	-8191	255	
1375.807	1	1	0	0	0.2236	0.084296	0.059908	0.17365	0.048277	0.11709	0.13238	0.26853	0.088297	0.084084	0.18489	0.10047	0.048227	0.19726	0.15553	0.14003	-2.8646	-3.4625	-3.2042	-3.3458	-3.4083	-3.0646	-3.5646	-3.3187	-3.1542	-3.5292	-3.1792	-3.5146	-3.4792	-3.0354	-3.3812	-3.1896	149.557	-5.568	-73.041	47.963	52.281	172.818	27.178	-59.486	0.940	138.953	-13.511	67.510	130.412	-52.124	66.746	209.028	0.00029011	0.00085143	0.00022558	587.19	3.7299e-06	6.5339e-06	599.34	208.82	2.3558e-05	7.871e-06	209.65	66.523	74.39	30.091	1.8188e-05	24.046	0.011241	0.01859	0.0052822	726.94	0.00020082	0.00021038	591.79	208.97	0.00018294	0.00021138	227.01	69.384	76.025	30.388	0.0001928	26.518	-20.526	26.566	71.709	-118.563	51.269	-80.574	-119.083	-113.302	85.783	-97.789	-115.932	-111.052	-109.594	-104.319	110.944	-108.384	-8191	255	
1375.903	1	1	0	0	0.30138	0.11279	0.13646	0.10558	0.18143	0.10656	0.1485	0.23697	0.3418	0.24934	0.19915	0.12258	0.024833	0.045256	0.20502	0.24003	-2.7896	-3.4062	-2.8896	-3.1396	-3.3667	-3.0292	-3.5208	-3.2062	-2.9854	-3.4437	-3.2167	-3.1813	-3.4896	-3.0146	-3.3083	-3.2104	126.056	-20.947	-18.290	-83.550	178.116	-49.658	216.255	113.095	224.069	49.026	-128.210	37.471	-22.857	174.680	157.663	143.084	0.00027	0.00058626	0.00043061	592.88	1.078e-05	8.0862e-06	605.11	209.33	1.4571e-05	2.1123e-06	209.71	66.958	73.768	29.678	1.5487e-05	24.38	0.011192	0.018869	0.0053415	726.63	0.00020236	0.00021384	593.17	209.57	0.00018553	0.00021527	228.01	69.812	75.905	30.298	0.00019863	26.787	-99.588	194.145	180.049	-118.234	-87.569	97.730	-119.599	-113.209	223.374	85.663	-115.757	-112.057	-108.825	-104.651	209.309	-108.378	-8191	255	
1375.999	1	1	0	0	0.13135	0.13553	0.030918	0.23686	0.23005	0.22641	0.12369	0.18124	0.17052	0.11597	0.12637	0.11833	0.081806	0.17622	0.3046	0.21969	-2.4458	-3.55	-3.1875	-3.0417	-3.3812	-3.0729	-3.2479	-3.325	-3.0854	-3.6	-3.2313	-3.1875	-3.7042	-3.1833	-3.425	-3.3667	-108.364	-98.341	-21.602	190.663	49.522	48.678	38.916	-112.692	-61.990	-28.101	137.902	165.593	124.460	-123.657	225.574	96.822	0.00025271	0.00016929	0.00042957	584.99	6.2536e-06	8.3592e-06	608.24	209.34	1.0631e-05	8.3244e-06	215.87	67.579	74.065	30.217	1.8648e-05	24.752	0.011488	0.019211	0.005423	730.32	0.00020633	0.00021929	598.61	210.66	0.00019074	0.00022064	231.92	70.884	76.257	30.673	0.00019955	27.215	7.817	88.586	-106.300	-118.053	26.843	-35.073	-119.108	-112.895	-7.103	-46.188	-115.880	-111.364	-109.321	-103.877	-11.881	-108.625	-8191	255	
1376.120	1	1	0	0	0.17627	0.074529	0.12393	0.20394	0.17667	0.10493	0.19088	0.12483	0.086992	0.24115	0.098189	0.065403	0.17441	0.23315	0.22464	0.012914	-2.6333	-3.375	-3.0875	-3.1292	-3.6937	-3.0604	-3.3229	-3.4271	-3.0771	-3.4646	-3.3729	-2.9688	-3.5354	-3.1583	-3.2583	-3.5938	5.910	-53.494	127.874	175.121	-93.124	120.585	137.864	120.942	-6.240	178.920	202.553	-4.637	-90.665	-22.116	121.813	-91.492	0.00029613	0.00079756	5.9137e-05	589.17	5.3967e-06	1.9771e-05	607.6	213.69	1.7567e-05	1.3871e-05	217.61	68.213	75.926	30.274	6.9368e-06	24.449	0.011635	0.019464	0.0054768	735.17	0.00020726	0.00022014	600.32	214.27	0.00019158	0.00021833	233.49	71.093	77.777	30.834	0.00019691	27.063	-39.176	-54.397	76.661	-117.896	31.514	-33.581	-119.211	-112.960	-3.725	53.018	-116.142	-111.518	-109.366	-104.283	183.843	-107.826	-8191	255	
1376.214	1	1	0	0	0.1134	0.23601	0.1059	0.27465	0.034065	0.098203	0.027106	0.034552	0.25659	0.018566	0.12484	0.25934	0.2284	0.25797	0.072006	0.094744	-2.6312	-3.3542	-3.2146	-2.9562	-3.375	-3.0875	-3.3458	-3.4354	-3	-3.475	-3.4625	-3.0687	-3.5938	-3.2083	-3.1854	-3.5292	-93.085	113.260	162.722	129.728	-59.611	186.998	-81.546	-66.539	-80.479	22.827	-14.961	-10.276	170.268	-119.237	54.462	17.071	0.00031509	0.001482	0.00012961	591.32	5.1514e-06	3.7174e-06	612.36	215.87	1.6304e-05	8.8052e-06	220.61	69.283	76.597	30.767	7.2119e-06	24.346	0.011281	0.01902	0.0053413	731.08	0.00020449	0.00021535	602.35	216.25	0.00018627	0.00021266	234.28	71.675	78.252	31.09	0.00019281	26.993	-53.391	-80.467	207.232	-117.808	-20.250	179.428	-118.911	-113.481	190.047	-68.306	-115.849	-111.374	-109.627	-104.190	120.385	-108.333	-8191	255	
1376.310	1	1	0	0	0.257	0.12348	0.092321	0.05441	0.054557	0.055991	0.14617	0.13422	0.26922	0.056845	0.081568	0.26547	0.024073	0.27372	0.2195	0.22219	-2.575	-3.3688	-3.3812	-2.8896	-3.5625	-3.1188	-3.2208	-3.425	-3.0812	-3.3063	-3.5021	-3.0312	-3.4146	-3.1458	-3.0104	-3.4375	88.087	-26.759	43.885	200.960	210.505	78.244	188.118	162.318	134.268	119.394	164.074	-2.205	-98.874	-41.541	-108.751	179.589	0.00042809	0.00086808	0.00080058	593.57	5.0127e-06	1.3751e-05	613.11	215.6	2.0031e-05	6.6135e-06	223.36	69.393	76.482	30.603	1.1066e-05	24.924	0.011239	0.018937	0.0052494	734.54	0.00020425	0.00021546	602.12	216.15	0.00018935	0.00021659	237	71.921	77.88	31.088	0.00019849	27.435	-6.301	-89.166	24.352	-117.821	-72.390	-34.271	-119.074	-112.962	-14.284	-100.204	-116.317	-112.208	-109.302	-104.442	11.621	-109.300	-8191	255	
1376.406	1	1	0	0	0.25861	0.15965	0.24337	0.20806	0.068921	0.15545	0.21555	0.19168	0.032734	0.080251	0.10109	0.25565	0.05868	0.29964	0.17698	0.2244	-2.9521	-3.1396	-3.3812	-3.0875	-3.5458	-3.2687	-3.1063	-3.5854	-3.1458	-3.2458	-3.3937	-2.9396	-3.3688	-3.4479	-3.0583	-3.4708	-32.951	27.930	195.514	118.091	32.782	187.015	-127.929	76.233	166.389	205.246	190.501	176.508	-72.083	156.231	-16.422	10.502	0.00063057	0.00077592	0.00045992	589.95	5.0232e-06	1.0175e-05	615.23	215.98	1.7548e-05	6.3134e-06	223.63	70.679	77.138	31.043	2.26e-05	25.161	0.01155	0.01907	0.0053639	737.05	0.00020677	0.00021487	607.57	217.24	0.00018802	0.00021711	239.44	72.95	78.704	31.42	0.00019594	27.864	21.333	150.131	75.540	-118.287	176.426	31.993	-119.416	-113.206	225.953	167.860	-116.294	-111.385	-108.898	-104.529	-24.630	-108.302	-8191	255	
1376.502	1	1	0	0	0.15485	0.20053	0.021767	0.47056	0.15515	0.2386	0.15133	0.069797	0.24362	0.0892	0.12241	0.081927	0.15387	0.14296	0.18297	0.1806	-2.7708	-2.9208	-3.4958	-3.0312	-3.4542	-3.2375	-3.0271	-3.4875	-3.0958	-3.0375	-3.5375	-2.9917	-3.2708	-3.3	-2.7729	-3.3146	193.458	-73.354	53.549	224.280	-79.205	93.260	204.916	174.010	-41.299	87.682	-115.264	167.164	90.214	153.501	60.483	62.643	0.00019171	0.0010163	0.00035566	598.56	2.1235e-05	6.1087e-06	621.52	218.9	2.1733e-05	2.5424e-05	224.22	70.557	77.186	30.624	1.4164e-05	25.182	0.01147	0.019162	0.0054234	742.89	0.000209	0.00021559	612.35	218.84	0.00018821	0.00021943	239.82	73.207	78.746	31.178	0.00020052	27.523	-72.295	220.121	175.848	-117.924	24.193	221.301	-119.155	-113.019	-26.860	-27.003	-115.532	-110.876	-109.258	-104.344	223.378	-108.573	-8191	255	
1376.599	1	1	0	0	0.30155	0.10518	0.15359	0.45695	0.34935	0.12206	0.17686	0.11988	0.26397	0.2955	0.11593	0.1536	0.45819	0.12504	0.13335	0.13358	-3.0333	-3.0271	-3.4875	-3.1312	-3.2958	-3.4188	-3.1188	-3.4729	-3.2375	-3.0125	-3.5062	-3.0771	-3.2479	-3.4437	-2.9188	-3.6167	32.445	205.873	146.647	127.818	71.769	-12.545	141.431	-128.883	-67.498	29.155	135.254	-125.904	-101.756	-102.496	146.088	195.809	0.00040536	0.0004922	5.5982e-05	596.85	2.7731e-06	7.6694e-06	618.2	215.59	7.08e-06	1.4569e-05	222.58	70.405	76.826	30.649	9.7243e-06	25.056	0.011689	0.01929	0.0054995	739.79	0.00020921	0.00021886	607.78	216.6	0.00019174	0.00021928	238.43	72.852	78.625	31.143	0.00020118	27.628	5.993	135.350	-97.705	-118.319	110.005	88.189	-119.538	-113.359	204.100	-25.545	-115.536	-112.110	-109.078	-104.042	-93.830	-108.061	-8191	255	
1376.695	1	1	0	0	0.21703	0.22477	0.11816	0.28663	0.16952	0.15989	0.16127	0.1271	0.34528	0.13552	0.21879	0.34218	0.092138	0.36207	0.14257	0.1186	-2.8458	-2.9896	-3.6958	-3.1229	-3.2188	-3.5146	-3.1229	-3.2958	-3.3417	-3.0521	-3.5687	-3.2708	-3.1562	-3.5583	-2.9542	-3.5646	212.419	-12.391	-3.908	198.456	152.268	62.367	211.126	-3.973	123.842	11.380	149.989	-89.757	145.253	217.396	-71.186	100.060	0.00019373	0.0011891	0.00012805	597.33	3.2726e-06	9.1076e-06	612.51	219.23	1.5243e-05	1.5724e-05	226.56	71.083	77.637	30.953	7.0665e-06	25.629	0.0116	0.019312	0.0055155	741.78	0.00020858	0.00022053	610.11	218.5	0.00019181	0.00021857	241.93	73.798	79.23	31.544	0.00019977	28.018	-113.244	71.786	-32.175	-118.264	-24.052	39.347	-119.634	-112.626	118.392	174.610	-115.836	-111.373	-109.498	-104.658	108.299	-108.887	-8191	255	
1376.815	1	1	0	0	0.15141	0.20047	0.24278	0.11506	0.052485	0.083897	0.22168	0.27044	0.091727	0.043519	0.19305	0.3068	0.24334	0.116	0.25318	0.041284	-3.1167	-2.8292	-3.4417	-3.2646	-3.0792	-3.6229	-3.1604	-3.5792	-3.5208	-3.0312	-3.4125	-3.1229	-3.3292	-3.5312	-3.0583	-3.375	76.787	-3.713	197.028	140.646	221.484	86.443	71.027	149.358	7.266	70.583	212.178	135.773	188.563	139.696	37.206	152.117	0.00024675	0.0030031	0.00025663	602.84	1.2935e-05	3.8435e-06	621.9	218.14	2.5932e-05	2.1124e-06	228.49	71.696	78.378	31.684	1.4491e-05	25.821	0.011581	0.019693	0.0054958	745.37	0.00020805	0.00022263	614.04	219.72	0.00019359	0.00022325	244.46	74.824	80.061	31.888	0.0002031	28.49	-75.457	-6.558	206.874	-117.565	117.781	-50.295	-119.435	-113.121	113.439	-72.417	-116.039	-111.307	-109.242	-104.390	-1.916	-108.069	-8191	255	
1376.912	1	1	0	0	0.096302	0.22319	0.11037	0.060369	0.095336	0.2782	0.26803	0.10899	0.13792	0.29023	0.21854	0.10576	0.096985	0.13944	0.17427	0.039687	-3.1104	-3.0312	-3.4604	-3.3896	-3.0417	-3.6271	-3.3063	-3.3208	-3.6521	-3.0042	-3.3146	-3.2229	-3.1458	-3.5896	-3.2229	-3.1792	113.117	76.303	51.685	30.103	186.584	-47.067	99.752	-10.524	72.617	-85.536	115.972	114.179	87.592	161.599	186.693	11.411	0.00058433	0.0011972	0.00036592	605.32	3.54e-06	5.3345e-06	626.55	221.74	2.6803e-07	5.3775e-06	230.94	73.543	78.852	31.629	8.5535e-06	26.155	0.011695	0.019826	0.0055488	749.35	0.00021251	0.00022364	619.78	221.66	0.00019264	0.00022446	245.85	75.503	80.75	32.17	0.00020182	28.597	-3.548	-73.047	3.858	-117.610	182.343	-83.126	-119.170	-113.565	55.046	159.942	-116.056	-111.472	-109.418	-104.083	211.060	-108.261	-8191	255	
1376.983	1	1	0	0	0.24518	0.2586	0.014561	0.1889	0.19009	0.14596	0.1449	0.39334	0.067727	0.23107	0.15639	0.069371	0.23005	0.1022	0.14867	0.044468	-2.9583	-2.8375	-3.2625	-3.4458	-3.0438	-3.7229	-3.3042	-3.2542	-3.5854	-3.1521	-3.3937	-3.4625	-3.1229	-3.4271	-3.3187	-2.8187	227.027	24.295	121.352	155.755	207.607	37.130	124.360	205.059	217.047	216.984	150.173	109.801	-88.736	-105.830	211.594	126.627	0.0001983	0.0016573	0.00032064	592.86	5.8262e-06	1.1848e-05	620.56	219.53	1.8861e-05	2.1724e-05	228.91	72.181	78.095	31.79	7.5922e-06	25.764	0.011623	0.019436	0.0054456	744.6	0.00021058	0.00022076	616.16	220.14	0.00019271	0.00022176	243.47	74.733	80.147	31.996	0.00020021	28.247	-49.920	-74.299	179.770	-118.033	-58.865	183.631	-119.124	-113.001	26.894	-87.954	-115.757	-111.300	-108.864	-104.136	8.198	-108.626	-8191	255	
1377.079	1	1	0	0	0.19298	0.0398	0.16103	0.2507	0.21555	0.09732	0.15995	0.058095	0.2314	0.11683	0.24942	0.15824	0.094685	0.13538	0.28297	0.052075	-3.3146	-3.0479	-3.4042	-3.3	-3.0625	-3.4375	-3.0875	-2.9646	-3.4813	-3.0229	-3.2708	-3.4479	-3.1125	-3.4458	-3.2583	-3.025	-57.281	79.653	214.746	-80.976	174.606	165.237	154.846	-41.066	-55.786	123.047	209.034	2.078	180.252	-17.460	63.858	-53.035	0.00040291	0.0010484	0.00038383	605.6	7.2158e-06	8.849e-06	627.49	220.12	1.6046e-05	1.1767e-05	229.35	72.284	78.625	31.488	1.2189e-05	25.601	0.011715	0.019488	0.0054729	749.02	0.00021186	0.00022081	615.32	220.5	0.00019311	0.0002196	242.72	75.051	80.18	31.95	0.00020036	28.346	-29.547	-125.716	-93.072	-117.856	-27.713	93.947	-119.172	-112.611	128.980	32.017	-116.289	-111.963	-109.554	-104.186	156.846	-108.069	-8191	255	
1377.198	1	1	0	0	0.13228	0.16293	0.23201	0.216	0.12799	0.088781	0.19895	0.20674	0.095848	0.20463	0.0435	0.13325	0.14184	0.087068	0.04629	0.13863	-3.2625	-3.0229	-3.0958	-3.2396	-3.0458	-3.4	-3.5604	-3.1375	-3.5229	-3.0771	-3.1042	-3.4375	-3.05	-3.2188	-3.4896	-3.125	-79.122	153.933	-36.809	206.863	-90.888	114.298	-101.177	-20.590	-58.998	3.303	-78.938	187.716	-53.997	142.146	69.657	84.476	9.7494e-05	0.00057816	0.00038783	599.85	1.0021e-05	1.0356e-05	615.67	220.15	1.8806e-05	1.0246e-05	228.86	71.874	77.902	31.545	9.9902e-06	25.87	0.011671	0.01954	0.0055047	745.69	0.00021314	0.00022247	612.63	219.76	0.00019495	0.00022197	244.57	75.001	80.122	31.876	0.00020246	28.601	-94.269	51.560	18.636	-117.657	207.585	34.893	-119.441	-113.178	-1.559	8.248	-115.990	-110.934	-109.453	-104.368	79.335	-108.801	-8191	255	
1377.294	1	1	0	0	0.13983	0.030754	0.20006	0.19709	0.29184	0.13495	0.28481	0.11517	0.21754	0.11854	0.16986	0.27186	0.066429	0.095565	0.12293	0.096014	-2.8354	-3.1917	-3.05	-3.5417	-3.1458	-3.3792	-3.4729	-2.975	-3.5854	-3.0812	-3.0542	-3.45	-3.0021	-3.2938	-3.5521	-3.0312	206.916	217.690	74.720	-61.823	-36.370	210.547	215.326	-97.449	140.187	-75.367	55.501	95.129	105.171	208.257	132.102	-98.581	0.00045869	0.00034421	0.00037782	600.54	1.1156e-05	1.8996e-05	623.68	218.93	1.3718e-05	1.129e-05	232.04	73.151	78.686	31.52	9.9256e-06	26.078	0.011884	0.019986	0.0056383	749.81	0.00021697	0.00022403	616.89	220.24	0.00019887	0.00022672	246.19	75.947	80.33	31.967	0.00020401	28.698	-9.001	-1.320	-45.293	-117.818	2.472	194.734	-119.457	-112.886	18.752	-3.798	-116.571	-111.673	-109.151	-104.314	75.240	-107.891	-8191	255	
1377.391	1	1	0	0	0.012835	0.2171	0.084829	0.15336	0.1697	0.12346	0.051329	0.16896	0.12386	0.094081	0.21274	0.27047	0.22159	0.082661	0.31532	0.12349	-3.0292	-3.1375	-3.0542	-3.5312	-3.1458	-3.2771	-3.5042	-3.0604	-3.5292	-3.1104	-3.2146	-3.3771	-3.0854	-3.0979	-3.4625	-3.0354	12.776	52.151	-49.389	-105.489	4.151	-40.918	160.032	157.921	-111.652	150.444	175.985	65.904	98.097	-98.939	111.942	-53.259	9.8765e-05	0.0015425	0.0001948	597.36	1.5687e-05	1.1499e-05	622.24	219.26	4.3642e-06	4.4512e-06	230.45	72.755	78.785	31.234	1.3838e-05	25.623	0.011804	0.019728	0.0056403	748.01	0.00021255	0.00022222	615.4	220.56	0.00019639	0.00022312	246.09	75.236	80.409	31.749	0.00020368	28.316	-51.634	8.744	48.283	-118.063	-64.048	-84.786	-119.105	-113.141	65.903	-106.867	-116.378	-111.466	-109.444	-104.042	53.879	-108.465	-8191	255	
1377.511	1	1	0	0	0.2581	0.20258	0.062172	0.055257	0.26193	0.21303	0.14842	0.19548	0.35458	0.16855	0.2217	0.2939	0.22487	0.1538	0.14417	0.20217	-2.9125	-3.1854	-3.0021	-3.3083	-3.1875	-3.1188	-3.4167	-3.0708	-3.2771	-3.3125	-2.9875	-3.475	-3.2062	-2.9417	-3.6208	-3.1042	39.916	5.643	169.362	110.135	-114.473	-70.136	-54.528	221.453	-5.676	82.088	-86.486	139.835	160.039	-70.308	46.101	-125.612	0.00068277	0.0010107	0.00036728	599.51	1.5539e-05	5.3781e-06	616.06	218.21	1.8956e-05	2.5706e-05	226.71	71.96	78.509	31.091	2.2827e-05	25.304	0.011657	0.019537	0.0055182	739.56	0.00021105	0.00021832	608.27	219.19	0.00019127	0.00022052	243.03	74.649	79.726	31.466	0.00020419	28.117	-74.919	-64.467	-123.257	-117.569	47.121	29.698	-119.460	-113.244	86.052	-46.941	-116.056	-111.818	-109.371	-104.353	-0.167	-108.117	-8191	255	
1377.607	1	1	0	0	0.16928	0.049307	0.26111	0.21475	0.08145	0.048609	0.33469	0.21627	0.29564	0.25391	0.061563	0.25761	0.1399	0.12043	0.1001	0.17121	-2.9313	-3.2521	-2.9917	-3.2583	-3.1021	-3.0583	-3.6208	-2.9083	-3.3458	-3.4125	-3.0917	-3.4125	-3.2792	-3.1458	-3.4833	-3.2	118.006	220.361	122.849	202.351	107.642	56.543	133.328	140.449	120.836	12.607	87.163	-116.116	-84.411	-82.872	96.541	58.124	0.00022807	0.00014726	0.00028137	589.46	2.5168e-06	1.4026e-05	615.04	215.43	1.7658e-05	9.7515e-06	225.08	70.923	76.84	30.297	2.0522e-05	24.97	0.011686	0.019622	0.0055863	736.66	0.0002112	0.00022571	609.19	216.94	0.00019508	0.00022486	241.62	73.828	78.728	31.021	0.00020313	27.589	-60.448	-120.386	181.384	-117.725	32.346	68.016	-119.807	-113.356	63.277	14.797	-116.531	-111.598	-109.591	-104.215	65.434	-107.960	-8191	255	
1377.679	1	1	0	0	0.24762	0.131	0.16958	0.18813	0.17682	0.092123	0.041875	0.13549	0.049368	0.17879	0.23862	0.25006	0.1451	0.35192	0.26279	0.11991	-2.8833	-3.3063	-3.0312	-3.4042	-3.25	-2.9729	-3.3375	-3.1979	-3.1292	-3.4813	-2.9562	-3.3625	-3.3229	-3.1312	-3.4542	-3.1	178.876	102.916	-65.839	52.989	170.083	-127.958	111.134	1.631	79.531	-126.587	160.738	-119.907	157.234	-92.554	133.016	93.807	0.00033668	0.00096733	0.00014468	589.96	8.8886e-06	3.7828e-06	612.95	216.72	2.3023e-05	7.779e-06	226.99	71.435	77.98	30.376	1.215e-05	25.246	0.011796	0.019623	0.0055456	733.77	0.00020738	0.0002207	607.4	216.82	0.00018734	0.0002192	241.45	73.814	79.104	31.086	0.0001999	27.551	-52.969	-38.139	166.200	-118.038	-69.300	-25.251	-119.033	-113.148	-20.988	31.594	-115.454	-111.445	-109.313	-103.952	122.015	-108.383	-8191	255	
1377.800	1	1	0	0	0.13538	0.1562	0.28289	0.28659	0.13285	0.19364	0.10067	0.40156	0.093976	0.25632	0.087089	0.31852	0.13401	0.14012	0.15655	0.17951	-2.6771	-3.2917	-3.2188	-3.3979	-3.525	-2.9062	-3.5875	-3.1896	-3.075	-3.5687	-2.9625	-3.4167	-3.5438	-2.9437	-3.4208	-3.15	223.472	-19.271	104.178	225.705	-88.827	108.423	5.144	75.676	-15.249	-62.033	94.574	74.457	114.691	-0.285	-70.096	201.013	0.00042758	0.00064276	0.00012139	596.43	1.3802e-05	2.3195e-05	611.06	216.01	1.8048e-05	6.7875e-06	220.92	69.347	76.324	29.808	1.5068e-05	23.71	0.011509	0.019365	0.0054475	732.98	0.00020845	0.00022293	604.68	216.14	0.00019007	0.00021881	237.05	71.988	77.543	30.407	0.00019975	26.569	-47.220	-33.124	-97.642	-117.703	198.075	37.240	-119.271	-112.962	4.919	35.546	-116.288	-111.919	-109.431	-104.385	8.000	-108.554	-8191	255	
1377.896	1	1	0	0	0.18703	0.075062	0.18267	0.24125	0.076783	0.090765	0.11518	0.040356	0.048594	0.10115	0.1021	0.20321	0.13726	0.073426	0.23343	0.078881	-2.6833	-3.5042	-2.8229	-3.2146	-3.2958	-2.9646	-3.4667	-3.3104	-3.1354	-3.4479	-3.0333	-3.2667	-3.6146	-3.0125	-3.3688	-3.2458	176.061	79.428	-23.790	225.821	81.448	205.307	205.517	-5.042	-20.066	188.749	32.732	96.852	-100.237	-15.434	-74.754	-68.750	0.00036435	0.00069755	0.00041061	589.48	1.1711e-05	1.4645e-05	603.64	213.55	9.0517e-06	2.6377e-05	218.31	67.857	75.656	29.757	1.0217e-06	24.32	0.011619	0.019214	0.0054253	728.13	0.00020778	0.0002211	594.63	213.15	0.0001913	0.00021851	234.97	71.029	77.219	30.277	0.00020003	26.755	-6.013	209.504	-66.057	-117.187	-68.124	214.426	-119.652	-112.790	-68.374	70.482	-115.605	-111.796	-109.435	-104.460	-68.297	-108.413	-8191	255	
1377.992	1	1	0	0	0.1068	0.19832	0.10395	0.16219	0.20835	0.22466	0.28094	0.25769	0.20753	0.18558	0.20717	0.33134	0.19048	0.045712	0.188	0.079664	-2.6312	-3.4354	-3.1562	-3.1208	-3.4125	-3.1375	-3.4021	-3.3563	-3.0563	-3.5104	-3.1021	-3.125	-3.5396	-3.0542	-3.2833	-3.4	-21.060	-123.989	94.466	-111.599	-93.804	8.117	164.931	-108.952	196.557	-89.091	98.249	159.068	94.849	12.931	-32.087	42.607	0.00040849	0.0016012	0.0002017	580.32	1.8061e-05	1.0504e-05	600.36	212.26	5.4977e-06	1.8395e-05	216.27	67.32	74.192	29.442	1.3902e-05	24.442	0.011697	0.019465	0.005416	728.98	0.00021162	0.00022051	597.71	212.85	0.00019259	0.00022224	233.4	70.897	76.199	30.081	0.00019835	26.668	-26.688	133.336	94.844	-118.015	0.698	-32.947	-119.110	-112.864	31.276	64.944	-115.567	-111.456	-109.430	-103.841	218.304	-107.812	-8191	255	
1378.111	1	1	0	0	0.26983	0.12239	0.14457	0.13198	0.13925	0.15079	0.13908	0.18881	0.11943	0.1204	0.097586	0.038252	0.053157	0.21482	0.19765	0.11287	-2.4688	-3.4542	-3.1875	-3.0917	-3.3417	-3.0667	-3.3729	-3.5042	-2.9083	-3.2812	-3.1958	-3.1042	-3.5667	-3.1688	-3.1875	-3.4146	-22.634	213.530	-130.606	218.027	-127.951	108.042	96.905	-121.491	-71.035	197.144	194.159	67.390	73.171	115.899	-32.435	-49.300	0.0004098	0.00074811	0.00041218	585.36	1.6145e-05	1.1688e-05	605.86	210.01	1.5512e-05	1.099e-05	219.71	68.854	75.322	29.768	7.3636e-06	24.421	0.011758	0.019418	0.0054556	730.35	0.00020992	0.00021887	599.13	211.51	0.00019242	0.00021887	234.56	71.57	77.278	30.428	0.00019661	26.984	-20.100	-83.325	-94.877	-117.795	34.223	52.694	-119.388	-113.097	184.327	5.664	-116.070	-111.288	-109.433	-104.311	114.303	-108.253	-8191	255	
1378.207	1	1	0	0	0.074676	0.075847	0.1686	0.14139	0.051005	0.18214	0.22563	0.095497	0.32646	0.12953	0.12183	0.30383	0.12846	0.16304	0.22237	0.1296	-2.7104	-3.1146	-3.1729	-2.9042	-3.4354	-3.3063	-3.3854	-3.4104	-2.8896	-3.5646	-3.4229	-2.8	-3.5708	-3.3292	-3.1063	-3.5312	50.380	80.607	149.118	99.581	-128.509	-130.404	130.928	123.410	-94.696	211.582	162.103	-80.861	-113.746	6.829	6.035	42.854	0.00018471	0.00036092	0.00027344	589.26	1.3145e-05	4.5139e-06	612.29	213.84	1.6411e-05	1.0168e-05	222.72	67.688	76.159	29.601	2.0506e-05	24.465	0.011636	0.019176	0.005406	734.84	0.0002091	0.00021654	603.11	214.56	0.00019239	0.00021779	236.45	71.56	77.472	30.291	0.00019822	27.136	51.903	-125.873	-105.273	-118.348	-129.232	-117.523	-119.149	-113.386	-43.269	-73.797	-116.653	-111.386	-109.426	-104.168	-40.139	-108.185	-8191	255	
1378.279	1	1	0	0	0.24916	0.06897	0.1419	0.43028	0.22336	0.14844	0.08686	0.12981	0.0806	0.090451	0.24576	0.19208	0.082734	0.080375	0.14504	0.16191	-2.6792	-3.2687	-3.3792	-3.0583	-3.3708	-3.1854	-3.3375	-3.6667	-3.0146	-3.3187	-3.3854	-2.9833	-3.4625	-3.3271	-3.1229	-3.4521	89.710	-22.242	90.489	67.934	193.250	190.803	29.085	167.069	189.981	-75.337	86.567	65.548	66.013	98.831	68.898	-98.964	0.00035893	0.00080164	0.00056965	592.82	1.223e-05	1.0189e-05	614.78	219.14	6.6233e-06	2.0015e-05	226.83	71.766	79.002	30.91	5.6575e-06	25.607	0.011663	0.019301	0.005466	738.89	0.00020991	0.00021751	609.68	219.24	0.00019105	0.00021725	243.11	74.855	80.148	31.399	0.00020254	28.039	-65.827	46.538	-11.659	-118.281	56.716	90.046	-119.409	-112.914	17.182	-23.122	-116.095	-111.991	-109.480	-104.290	1.732	-108.910	-8191	255	
1378.375	1	1	0	0	0.20919	0.24654	0.11512	0.078786	0.049996	0.079826	0.16789	0.27877	0.10869	0.091881	0.083024	0.10174	0.1072	0.36604	0.14914	0.22285	-2.5396	-3.175	-3.4667	-2.7854	-3.4646	-3.1312	-3.1188	-3.4188	-3.0604	-3.3375	-3.4458	-2.9896	-3.3625	-3.0542	-2.8792	-3.5917	213.471	58.785	201.176	0.548	-65.625	-8.149	164.290	188.147	79.760	-113.173	177.255	-54.892	-68.334	159.582	130.231	217.823	0.00014328	0.00093944	5.4435e-05	595.67	1.4483e-05	1.0422e-05	623.63	221.99	1.3741e-05	1.9609e-05	236.73	73.561	80.939	31.072	1.2432e-05	26.057	0.011813	0.019594	0.0055893	744.26	0.00021395	0.00022355	617.48	223.91	0.00019815	0.00022673	252.48	77.023	82.048	31.801	0.00020991	28.731	-19.362	136.264	-126.494	-117.950	222.420	-90.053	-119.199	-113.111	133.047	11.063	-116.328	-111.486	-109.575	-104.583	-128.697	-108.529	-8191	255	
1378.495	1	1	0	0	0.23123	0.2488	0.14692	0.2597	0.054637	0.1306	0.15014	0.32648	0.26426	0.15359	0.26422	0.25444	0.19396	0.2433	0.034902	0.11288	-2.8021	-3.0771	-3.3375	-3.0354	-3.3292	-3.3438	-3.125	-3.5917	-3.1063	-3.1729	-3.4083	-3.0042	-3.3271	-3.4896	-3.1229	-3.5146	126.990	27.291	-40.103	200.765	2.633	-26.936	-17.636	161.760	43.151	-77.129	201.974	73.521	-130.660	185.710	-2.043	71.942	0.00044871	0.00053013	0.00031218	591.81	3.6984e-06	1.4597e-05	628.28	227.94	2.2713e-05	4.3313e-06	244.84	77.161	82.987	32.08	8.4654e-06	27.035	0.012242	0.020506	0.0058028	750.89	0.00021976	0.00022997	625.16	228.77	0.00019911	0.00023222	259.51	80.154	84.234	32.534	0.00021161	29.448	22.835	-81.708	-106.289	-118.403	222.637	-4.364	-118.905	-113.530	192.601	157.530	-116.107	-111.621	-109.292	-104.160	140.133	-108.288	-8191	255	
1378.592	1	1	0	0	0.043718	0.15819	0.099175	0.012339	0.072506	0.11144	0.19038	0.19167	0.11276	0.16481	0.14783	0.13538	0.056734	0.008498	0.15658	0.081996	-2.7729	-2.9646	-3.3917	-2.7792	-3.2521	-3.3958	-2.9458	-3.4188	-3.3646	-3.1604	-3.6583	-3.0021	-3.0292	-3.5729	-3.0354	-3.2771	-111.334	1.966	134.300	2.730	-115.602	51.136	170.955	193.194	99.428	-32.121	9.887	-0.518	172.371	-61.703	66.324	82.177	0.00028523	0.0010425	0.00064733	590.9	1.0665e-05	8.8805e-06	630.92	226.62	1.3367e-05	1.1047e-05	240.5	76.948	81.465	31.607	9.0662e-06	26.456	0.012089	0.020515	0.0057556	748.18	0.00021835	0.00023004	628.31	226.97	0.00020183	0.00023269	256.35	79.237	82.978	32.261	0.00020982	29	-30.851	-41.145	93.612	-116.815	5.576	-101.842	-119.423	-112.973	26.475	-121.927	-115.486	-111.293	-109.748	-104.010	125.109	-108.515	-8191	255	
1378.688	1	1	0	0	0.22642	0.18829	0.34408	0.036276	0.30407	0.17593	0.11906	0.1889	0.26825	0.29129	0.12223	0.14985	0.078904	0.048358	0.16659	0.15103	-2.8125	-3.0854	-3.3542	-3.125	-3.2104	-3.4854	-2.9354	-3.4062	-3.3521	-2.95	-3.4979	-3.3292	-3.1437	-3.7333	-3.2062	-3.3854	80.188	154.931	-37.388	50.895	-22.003	97.645	192.434	115.751	134.169	195.083	69.942	118.947	182.774	182.182	162.558	62.656	0.00034914	0.00056238	0.00060777	597.09	1.0106e-06	3.2648e-05	626.45	222.68	8.2703e-06	6.1244e-06	237.14	74.821	80.223	31.4	1.5827e-05	26.629	0.012074	0.020466	0.0056524	745.21	0.00021446	0.00023002	620.96	223.95	0.00019924	0.00022984	253.27	77.958	81.785	32	0.00021094	29.101	-95.585	160.197	36.029	-117.994	-24.375	-55.981	-119.497	-113.235	202.609	27.611	-115.603	-111.900	-109.528	-103.893	64.732	-108.742	-8191	255	
1378.784	1	1	0	0	0.23234	0.13	0.071667	0.10134	0.071122	0.11078	0.039122	0.077164	0.15828	0.20639	0.15299	0.34938	0.078469	0.14604	0.29582	0.19018	-2.7313	-2.9938	-3.4062	-3.1021	-3.1125	-3.1813	-3.1729	-3.3333	-3.3167	-3.0542	-3.5146	-2.9396	-3.0479	-3.6021	-2.9458	-3.3312	152.488	80.124	189.773	47.486	-88.983	132.571	142.335	117.572	-108.850	203.599	17.631	-118.394	151.709	-125.833	62.840	158.420	0.00042642	0.0010813	0.00035115	590.09	1.2279e-05	4.0127e-06	629.85	220.14	1.0266e-05	8.1697e-06	234.34	73.911	79.535	31.711	1.8719e-05	26.83	0.012136	0.020313	0.0057107	743.39	0.00021662	0.00023062	622.25	221.54	0.00020099	0.00023025	250.14	77.13	81.351	32.341	0.00020958	29.362	-35.923	-71.236	-124.334	-118.148	158.329	-38.135	-119.371	-113.074	-19.305	72.418	-116.348	-112.328	-109.835	-104.341	202.348	-108.068	-8191	255	
1378.880	1	1	0	0	0.037522	0.15695	0.15335	0.028631	0.037744	0.23049	0.16579	0.26727	0.10715	0.096249	0.27305	0.041714	0.054112	0.32724	0.099338	0.29078	-3.2229	-2.775	-3.2333	-3.1292	-2.9938	-3.3354	-3.0375	-3.3542	-3.3958	-3.0187	-3.4833	-3.2354	-3.1	-3.6188	-3.0708	-3.05	59.126	152.382	-79.524	-45.298	225.514	62.224	226.885	129.766	55.972	67.608	-102.222	32.786	212.208	185.029	15.721	-77.508	0.0002619	0.00027193	0.00014375	601.75	2.8597e-05	1.5354e-05	632.29	223.71	2.0728e-05	9.6879e-06	237.31	76.403	82.037	33.047	1.0117e-05	27.981	0.012373	0.020526	0.0056831	753.52	0.00022024	0.00022987	627.79	224.37	0.00020195	0.00022904	253.21	78.92	83.349	33.468	0.00020838	30.423	-115.710	36.306	213.813	-117.967	42.650	-4.974	-119.313	-113.104	170.753	61.063	-115.258	-111.365	-109.305	-104.361	-21.147	-108.300	-8191	255	
1378.976	1	1	0	0	0.048343	0.24633	0.26994	0.064888	0.14359	0.10997	0.43304	0.18872	0.11625	0.091795	0.10956	0.17295	0.10299	0.27742	0.38113	0.23211	-3.0542	-3.0042	-3.3667	-3.2229	-3.0417	-3.4979	-3.2188	-3.1792	-3.5833	-2.925	-3.2833	-3.4583	-2.8833	-3.6188	-3.1896	-3.1063	-71.217	81.528	-66.153	203.725	16.186	-45.072	-14.060	186.634	50.983	107.184	81.145	207.400	-52.378	225.281	203.343	141.798	0.00022604	0.001042	0.00020789	613.33	6.9356e-06	1.2509e-05	652.55	230.63	7.0985e-06	2.8303e-06	243.34	77.842	84.656	34.137	2.0325e-05	28.1	0.012366	0.020271	0.0056161	766.19	0.00021818	0.0002279	642.09	230.76	0.00020066	0.00022615	258.61	80.378	85.538	34.323	0.00020268	30.485	-32.216	202.266	1.366	-117.361	85.100	-6.019	-119.487	-112.793	171.565	-40.815	-115.612	-111.491	-108.879	-104.218	-19.571	-108.237	-8191	255	
1379.072	1	1	0	0	0.36312	0.32205	0.073722	0.2735	0.15397	0.18079	0.077674	0.14505	0.023081	0.12461	0.11786	0.19586	0.099687	0.39486	0.21538	0.2652	-3.1333	-3.1063	-3.2604	-3.3625	-2.9542	-3.5208	-3.3792	-3.0062	-3.4354	-3.0583	-3.5292	-3.325	-2.8937	-3.2729	-3.2396	-2.925	227.781	130.141	58.892	89.956	101.281	185.273	-1.561	217.512	45.639	-95.063	108.003	181.381	-94.234	222.220	-93.560	207.620	0.00046853	0.0004011	0.00032617	629.07	6.4904e-06	1.5217e-05	655.7	233.86	6.933e-06	4.225e-05	246.22	78.617	85.604	34.183	1.9433e-05	28.007	0.01182	0.019575	0.005538	769.73	0.00021397	0.00022206	641.2	233.22	0.00019656	0.00022257	259.1	81.018	86.477	34.341	0.00020201	30.534	-33.659	-2.985	12.089	-118.456	194.111	65.940	-119.073	-113.032	-65.379	31.082	-116.162	-111.386	-109.184	-104.324	1.490	-108.832	-8191	255	
1379.191	1	1	0	0	0.18782	0.36388	0.13578	0.16223	0.23973	0.14365	0.13615	0.15844	0.072979	0.33545	0.32412	0.21692	0.142	0.033126	0.22699	0.060067	-3.1396	-3.0667	-3.0917	-3.3167	-2.9813	-3.3563	-3.2375	-3.0333	-3.3917	-3.025	-3.1354	-3.25	-2.9458	-3.4688	-3.1708	-2.9875	-89.152	-123.545	30.775	-11.773	65.555	18.911	-56.577	224.236	167.233	88.240	31.558	127.362	192.422	81.310	-29.399	20.016	0.00044578	0.0011112	0.0002012	620.88	1.8642e-05	7.8622e-06	650.61	235.96	8.1459e-06	1.0366e-05	249.6	81.261	86.415	34.289	9.579e-06	28.779	0.011936	0.019683	0.0055475	765	0.00021476	0.00022344	642.13	235.58	0.00019751	0.00022533	264.42	83.09	87.33	34.586	0.00020721	31.141	6.416	-84.875	-106.662	-117.616	-112.480	36.435	-119.089	-112.678	40.766	173.534	-116.730	-111.216	-109.665	-104.606	133.370	-108.020	-8191	255	
1379.287	1	1	0	0	0.21387	0.22865	0.16248	0.073039	0.073275	0.059075	0.10391	0.16207	0.094531	0.1345	0.072218	0.15635	0.22132	0.21315	0.089338	0.14596	-3.1896	-3.0125	-3.0333	-3.4542	-3.0333	-3.4125	-3.3375	-3.0187	-3.4792	-3.1167	-3.4396	-3.5042	-3.1292	-3.425	-3.1771	-3.0375	-130.992	102.245	-4.555	-35.792	18.629	197.350	-125.448	142.707	200.425	63.568	55.367	186.144	215.422	195.939	220.919	-127.234	0.00025311	0.0010202	0.00026537	615.47	2.2484e-05	1.349e-05	655.05	239.36	6.9713e-06	1.9237e-05	253.85	83.402	88.258	34.593	1.6384e-05	29.153	0.012113	0.019809	0.0056842	766.17	0.00021519	0.00022593	646.66	238.28	0.00019787	0.0002245	269.69	84.987	89.036	34.906	0.00020961	31.505	-69.197	173.471	104.896	-118.147	31.822	19.293	-119.278	-113.302	-44.105	-25.014	-115.758	-111.383	-109.267	-104.485	-4.611	-107.941	-8191	255	
1379.384	1	1	0	0	0.23908	0.086625	0.10554	0.043127	0.070531	0.041993	0.27038	0.25309	0.17443	0.049326	0.22533	0.12845	0.093345	0.17773	0.27332	0.36969	-2.9708	-3.1854	-2.9771	-3.5458	-2.9958	-3.2917	-3.3479	-3.2	-3.3187	-3.3312	-3.1271	-3.5438	-3.2146	-3.4688	-3.2771	-3.0208	-67.326	-42.368	-68.258	-4.694	165.790	-97.424	31.066	-85.154	-4.832	63.618	-49.587	57.777	83.695	185.915	5.469	170.589	0.00015871	0.0010324	0.00014878	616.09	8.2056e-06	1.3249e-05	660.64	240.92	9.3482e-06	1.1306e-05	256.28	83.528	88.182	34.351	2.1907e-05	28.823	0.012067	0.020123	0.0056639	762.95	0.0002131	0.00022691	647.74	239.52	0.00019425	0.00022344	270.72	85.422	88.628	34.636	0.00020586	31.037	-106.286	220.278	158.356	-117.741	55.777	-107.290	-119.255	-113.076	23.742	-54.704	-115.673	-111.585	-109.781	-104.501	-68.521	-108.480	-8191	255	
1379.480	1	1	0	0	0.12263	0.090219	0.11866	0.061806	0.3836	0.28537	0.30833	0.039814	0.066479	0.16756	0.26364	0.15095	0.12052	0.088242	0.22126	0.090517	-3.1437	-3.1354	-2.9583	-3.3833	-3.0354	-3.2333	-3.4	-3.0896	-3.4437	-3.2375	-2.9604	-3.4708	-3.3542	-2.9813	-3.4188	-3.2271	-81.004	180.486	54.741	113.920	-103.561	3.846	168.748	-114.492	2.825	100.424	-14.159	131.392	153.499	-99.815	200.687	-62.127	0.00039639	0.0018213	0.00034359	608.71	1.2569e-05	8.2501e-06	647.94	234.55	9.7695e-06	1.249e-05	251.77	80.616	85.587	33.411	1.5184e-05	27.709	0.011859	0.019833	0.0056846	753.43	0.00021326	0.00022478	637.04	235.02	0.00019411	0.00022678	264.72	82.677	86.474	33.706	0.00020706	29.937	-55.135	2.745	26.564	-117.661	-43.324	39.807	-119.326	-113.258	-10.941	19.478	-115.710	-111.435	-109.676	-104.193	71.651	-108.808	-8191	255	
1379.574	1	1	0	0	0.25646	0.098785	0.17241	0.24089	0.17899	0.20975	0.090568	0.30964	0.14032	0.19331	0.039016	0.050196	0.041194	0.2562	0.2257	0.038802	-2.8667	-3.2896	-2.8833	-3.5312	-3.1937	-3.1958	-3.6958	-2.9562	-3.1854	-3.4437	-3.0542	-3.3354	-3.3396	-2.9437	-3.375	-3.2021	-53.461	-71.512	142.929	152.915	214.657	191.067	-21.812	139.594	-83.269	155.452	197.034	205.952	227.644	160.695	88.073	21.489	0.00040996	0.0007542	0.00045998	608.34	9.2533e-06	6.2226e-06	642.58	232.7	6.1376e-06	2.4722e-06	249.47	80.174	85.894	33.199	1.5297e-05	27.41	0.011995	0.019924	0.0056685	752.09	0.00021335	0.00022624	631.95	232.98	0.00019595	0.00022759	262.73	82.132	86.599	33.493	0.00020333	29.834	15.238	-60.299	-100.413	-118.496	-103.198	-79.056	-119.286	-113.101	-7.216	3.511	-116.424	-111.495	-109.548	-104.331	-90.285	-108.724	-8191	255	
1379.670	1	1	0	0	0.10337	0.25272	0.065713	0.24494	0.21146	0.15941	0.13793	0.15939	0.087386	0.080235	0.21621	0.034822	0.24074	0.19582	0.10409	0.23345	-2.8042	-3.5938	-2.8833	-3.3375	-3.2958	-2.9625	-3.5687	-3.0646	-3.3417	-3.4021	-2.8833	-3.4667	-3.2708	-2.9688	-3.4396	-3.0771	-14.628	-81.127	10.758	123.167	4.736	195.828	118.185	187.040	111.318	-43.195	-83.319	176.834	183.906	167.990	206.898	159.236	0.00031091	0.0010288	0.00010651	604.69	2.7772e-06	9.1749e-06	649	234.58	1.9681e-05	1.0119e-05	251.24	80.183	86.046	33.444	1.3345e-05	27.754	0.011787	0.01976	0.0055126	747.11	0.00020864	0.00022149	638.79	234.45	0.00019236	0.00022126	264	81.856	86.853	33.655	0.00019856	29.86	-29.944	-105.706	27.766	-117.521	135.473	-128.786	-119.099	-113.069	10.225	14.149	-115.687	-112.005	-109.125	-104.391	-65.062	-108.371	-8191	255	
1379.791	1	1	0	0	0.20822	0.23267	0.21462	0.2788	0.22218	0.070522	0.20221	0.17688	0.068073	0.31704	0.25383	0.11265	0.093999	0.29092	0.043601	0.074458	-2.7958	-3.5125	-3.0521	-3.3438	-3.1042	-2.9958	-3.5938	-3.1688	-3	-3.5896	-2.9875	-3.2729	-3.5042	-2.9583	-3.4667	-3.2917	-8.032	222.860	105.808	73.757	24.299	84.025	-105.230	46.504	65.378	117.902	22.177	-116.558	16.715	-127.801	-102.044	38.890	0.00032369	0.0019126	0.0002571	614.62	1.0867e-05	1.1937e-05	654.9	238.19	2.5689e-05	3.2023e-06	251.89	80.025	86.636	33.31	1.9435e-05	27.377	0.011717	0.0196	0.005457	753.18	0.00020937	0.00022224	640.1	234.99	0.00019273	0.00022272	263.66	81.659	86.739	33.61	0.00019946	29.586	-42.821	6.662	226.542	-117.991	25.412	169.707	-119.093	-112.549	86.047	-21.383	-115.990	-111.328	-109.346	-104.405	-4.688	-108.151	-8191	255	
1379.887	1	1	0	0	0.037538	0.2436	0.14785	0.1457	0.085505	0.20217	0.041294	0.045924	0.15206	0.16405	0.25484	0.25845	0.17695	0.20502	0.032218	0.19554	-2.5833	-3.2479	-2.9875	-3.1521	-3.2604	-2.8729	-3.5312	-3.2521	-3.1708	-3.3833	-3.0375	-3.2167	-3.4521	-2.7583	-3.1896	-3.2958	52.014	115.267	20.806	180.145	7.472	152.198	93.804	-52.963	177.775	-27.079	174.456	-129.559	-100.472	182.723	134.790	180.081	0.000545	0.0013054	0.00023776	616.6	4.8381e-06	1.6748e-05	647.84	234.45	1.0763e-05	1.5449e-05	249.07	79.67	85.023	33.07	3.5734e-06	27.257	0.01178	0.019498	0.0054777	754.03	0.00021164	0.00022085	636.3	233.75	0.00019354	0.0002208	261.17	81.284	86.139	33.416	0.00019698	29.423	-39.759	70.065	-70.944	-118.403	-9.597	-9.296	-119.443	-112.817	27.237	8.299	-115.969	-111.978	-109.349	-104.360	-89.094	-108.343	-8191	255	
1379.983	1	1	0	0	0.17562	0.1977	0.046609	0.083191	0.17783	0.10761	0.15746	0.17787	0.12565	0.073552	0.15061	0.20149	0.22341	0.13982	0.1098	0.10268	-2.5542	-3.4958	-2.9917	-3.3167	-3.4833	-3.1104	-3.3812	-3.2875	-3.0812	-3.5083	-3.2375	-3.2188	-3.4	-3.1083	-3.3708	-3.5208	-49.260	-20.931	160.898	-77.152	-94.569	135.178	-105.756	208.894	-65.368	4.013	-1.707	203.511	190.147	210.377	64.039	-45.225	0.0005427	0.001126	0.00027722	610.39	1.0322e-05	8.2501e-06	646.39	235.25	1.0176e-05	1.4438e-05	247.78	79.137	85.485	32.911	8.7682e-06	27.121	0.011711	0.019278	0.0053647	752.7	0.00020863	0.00022058	635.36	234.06	0.00019569	0.0002192	262.03	81.603	86.543	33.356	0.00020177	29.667	-2.100	-96.754	80.335	-117.629	13.660	-56.836	-119.366	-112.684	-56.910	75.918	-115.973	-111.636	-109.877	-104.493	191.215	-108.434	-8191	255	
1380.079	1	1	0	0	0.45739	0.14409	0.12193	0.077724	0.068224	0.28088	0.1974	0.1074	0.10348	0.12165	0.21942	0.062401	0.13881	0.27407	0.059637	0.30727	-2.6188	-3.425	-3.0396	-3.1208	-3.4375	-3.0979	-3.4479	-3.4354	-3.1188	-3.4854	-3.3271	-3.1792	-3.3312	-3.3167	-3.4354	-3.3854	132.798	224.658	207.251	69.400	34.769	81.876	139.015	-38.988	52.557	-96.251	11.262	153.474	206.192	193.804	201.530	-71.857	0.00031677	0.0004351	0.00026607	604.16	1.3138e-05	1.1087e-05	640.21	233.92	4.3588e-06	1.4365e-05	247.61	79.962	86.182	33.261	5.5692e-06	27.277	0.011847	0.019567	0.0054719	749.22	0.00021331	0.00022221	631.12	233.87	0.00019491	0.0002224	263.67	82.111	86.289	33.47	0.00020289	29.905	-22.213	51.993	-48.872	-118.235	-13.587	-102.238	-119.105	-113.255	30.429	222.494	-115.805	-111.631	-109.823	-104.433	-41.780	-108.161	-8191	255	
#DATA ENDS
