BOXY.EXE: ISS Imagent and Oximeter Data Acquisition Program Version 0.80
Ascii Record File

#ACQ INFORMATION
2  Detector Channels 
16  External MUX Channels 
1  Auxiliary Channels 
5000  Waveform (CCF) Frequency (Hz)
1  Waveforms Skipped 
30  Waveforms Averaged 
1  Cycles Averaged 
16  Acquisitions per Waveform 
10.0806  Updata Rate (Hz) 

#FILE INFORMATION
TRUE -- External MUX Channel results are PARSED.
FALSE -- AC DC and Phase are NOT grouped.
TRUE -- Companion Program Settings File CREATED.
FALSE -- AC data not excluded
FALSE -- DC data not excluded
FALSE -- Phase data not excluded
FALSE -- Auxillary Chn. data not excluded
Tab delimiters

#CALIBRATION STATE
TRUE -- Waveform Calibration Values APPLIED.


#AUX CALIBRATION VALUES
Val Type	aux-1	

Term	1.0000e+00	
Factor	0.0000e+00	


#WF CALIBRATION VALUES
A = Detector Channel
Val Type	A-AC1	A-AC2	A-AC3	A-AC4	A-AC5	A-AC6	A-AC7	A-AC8	A-AC9	A-AC10	A-AC11	A-AC12	A-AC13	A-AC14	A-AC15	A-AC16	A-DC1	A-DC2	A-DC3	A-DC4	A-DC5	A-DC6	A-DC7	A-DC8	A-DC9	A-DC10	A-DC11	A-DC12	A-DC13	A-DC14	A-DC15	A-DC16	A-Ph1	A-Ph2	A-Ph3	A-Ph4	A-Ph5	A-Ph6	A-Ph7	A-Ph8	A-Ph9	A-Ph10	A-Ph11	A-Ph12	A-Ph13	A-Ph14	A-Ph15	A-Ph16	

Term	0.00000e+00	0.00000e+00	0.00000e+00	0.00000e+00	0.00000e+00	0.00000e+00	0.00000e+00	0.00000e+00	0.00000e+00	0.00000e+00	0.00000e+00	0.00000e+00	0.00000e+00	0.00000e+00	0.00000e+00	0.00000e+00	0.00000e+00	0.00000e+00	0.00000e+00	0.00000e+00	0.00000e+00	0.00000e+00	0.00000e+00	0.00000e+00	0.00000e+00	0.00000e+00	0.00000e+00	0.00000e+00	0.00000e+00	0.00000e+00	0.00000e+00	0.00000e+00	0.00000e+00	0.00000e+00	0.00000e+00	0.00000e+00	0.00000e+00	0.00000e+00	0.00000e+00	0.00000e+00	0.00000e+00	0.00000e+00	0.00000e+00	0.00000e+00	0.00000e+00	0.00000e+00	0.00000e+00	0.00000e+00	
Factor	1.00000e+00	1.00000e+00	1.00000e+00	1.00000e+00	1.00000e+00	1.00000e+00	1.00000e+00	1.00000e+00	1.00000e+00	1.00000e+00	1.00000e+00	1.00000e+00	1.00000e+00	1.00000e+00	1.00000e+00	1.00000e+00	1.00000e+00	1.00000e+00	1.00000e+00	1.00000e+00	1.00000e+00	1.00000e+00	1.00000e+00	1.00000e+00	1.00000e+00	1.00000e+00	1.00000e+00	1.00000e+00	1.00000e+00	1.00000e+00	1.00000e+00	1.00000e+00	X	X	X	X	X	X	X	X	X	X	X	X	X	X	X	X	

B = Detector Channel
Val Type	B-AC1	B-AC2	B-AC3	B-AC4	B-AC5	B-AC6	B-AC7	B-AC8	B-AC9	B-AC10	B-AC11	B-AC12	B-AC13	B-AC14	B-AC15	B-AC16	B-DC1	B-DC2	B-DC3	B-DC4	B-DC5	B-DC6	B-DC7	B-DC8	B-DC9	B-DC10	B-DC11	B-DC12	B-DC13	B-DC14	B-DC15	B-DC16	B-Ph1	B-Ph2	B-Ph3	B-Ph4	B-Ph5	B-Ph6	B-Ph7	B-Ph8	B-Ph9	B-Ph10	B-Ph11	B-Ph12	B-Ph13	B-Ph14	B-Ph15	B-Ph16	

Term	0.00000e+00	0.00000e+00	0.00000e+00	0.00000e+00	0.00000e+00	0.00000e+00	0.00000e+00	0.00000e+00	0.00000e+00	0.00000e+00	0.00000e+00	0.00000e+00	0.00000e+00	0.00000e+00	0.00000e+00	0.00000e+00	0.00000e+00	0.00000e+00	0.00000e+00	0.00000e+00	0.00000e+00	0.00000e+00	0.00000e+00	0.00000e+00	0.00000e+00	0.00000e+00	0.00000e+00	0.00000e+00	0.00000e+00	0.00000e+00	0.00000e+00	0.00000e+00	5.32887e+00	-1.29929e+02	-1.28731e+02	-1.84746e+02	-7.04180e+01	-6.91937e+01	-1.57922e+02	-1.62015e+02	-2.77445e+01	-6.81129e+01	-1.79083e+02	-1.70094e+02	-1.79662e+02	-1.77090e+02	-5.99893e+01	-1.50031e+02	
Factor	3.72528e-05	1.74124e-04	4.89623e-05	5.67296e-01	1.96177e-06	1.72426e-06	1.76438e-01	6.39805e-02	2.34682e-06	1.97558e-06	1.09870e-01	2.83453e-02	2.58785e-02	9.19466e-03	2.23646e-06	1.37262e-02	1.53627e-05	2.58478e-05	7.28226e-06	2.83297e-01	2.78559e-07	2.92575e-07	8.32134e-02	3.23121e-02	2.55711e-07	2.93603e-07	5.34728e-02	1.39108e-02	1.31685e-02	4.70685e-03	2.66657e-07	6.77598e-03	X	X	X	X	X	X	X	X	X	X	X	X	X	X	X	X	



#DISTANCE SETTINGS
A = Detector Channel
A-1	A-2	A-3	A-4	A-5	A-6	A-7	A-8	A-9	A-10	A-11	A-12	A-13	A-14	A-15	A-16	

2.5000e+00	3.0000e+00	2.5000e+00	3.0000e+00	2.0000e+00	3.0000e+00	1.5000e+00	3.0000e+00	3.0000e+00	3.0000e+00	3.0000e+00	3.0000e+00	3.0000e+00	3.0000e+00	1.5000e+00	3.0000e+00	

B = Detector Channel
B-1	B-2	B-3	B-4	B-5	B-6	B-7	B-8	B-9	B-10	B-11	B-12	B-13	B-14	B-15	B-16	

1.0000e+01	1.0000e+01	1.0000e+01	1.4400e+00	1.0000e+01	1.0000e+01	1.5100e+00	1.9400e+00	1.0000e+01	1.0000e+01	1.9900e+00	2.4900e+00	2.4100e+00	2.9000e+00	1.0000e+01	2.9800e+00	




#DATA BEGINS
time	group	step	mark	flag	A-AC1	A-AC2	A-AC3	A-AC4	A-AC5	A-AC6	A-AC7	A-AC8	A-AC9	A-AC10	A-AC11	A-AC12	A-AC13	A-AC14	A-AC15	A-AC16	A-DC1	A-DC2	A-DC3	A-DC4	A-DC5	A-DC6	A-DC7	A-DC8	A-DC9	A-DC10	A-DC11	A-DC12	A-DC13	A-DC14	A-DC15	A-DC16	A-Ph1	A-Ph2	A-Ph3	A-Ph4	A-Ph5	A-Ph6	A-Ph7	A-Ph8	A-Ph9	A-Ph10	A-Ph11	A-Ph12	A-Ph13	A-Ph14	A-Ph15	A-Ph16	B-AC1	B-AC2	B-AC3	B-AC4	B-AC5	B-AC6	B-AC7	B-AC8	B-AC9	B-AC10	B-AC11	B-AC12	B-AC13	B-AC14	B-AC15	B-AC16	B-DC1	B-DC2	B-DC3	B-DC4	B-DC5	B-DC6	B-DC7	B-DC8	B-DC9	B-DC10	B-DC11	B-DC12	B-DC13	B-DC14	B-DC15	B-DC16	B-Ph1	B-Ph2	B-Ph3	B-Ph4	B-Ph5	B-Ph6	B-Ph7	B-Ph8	B-Ph9	B-Ph10	B-Ph11	B-Ph12	B-Ph13	B-Ph14	B-Ph15	B-Ph16	aux-1	digaux	

1028.523	1	1	0	256	0.073039	0.12597	0.074908	0.26127	0.216	0.088436	0.19344	0.10948	0.071246	0.10721	0.1334	0.20752	0.15331	0.098028	0.18204	0.27053	-3.0875	-3.3333	-3.5271	-3.2458	-3.7021	-3.5438	-3.3625	-3.7208	-3.1083	-3.45	-3.5187	-3.2625	-3.7417	-3.3854	-3.2458	-3.8979	-36.667	111.614	258.394	-59.056	66.368	73.169	191.690	276.722	34.288	204.350	97.222	250.224	232.213	202.265	170.441	166.972	0.00032706	0.002041	0.00071703	908.08	7.3021e-06	2.5974e-05	884.53	261.95	2.8034e-05	1.6116e-05	276.06	98.012	98.056	40.263	2.3357e-05	41.721	0.049847	0.08404	0.023475	1760	0.00089286	0.000933	1079	344.49	0.00082135	0.00092466	424.8	135.3	132.59	53.046	0.00083623	60.281	241.273	110.710	-35.365	-59.211	115.057	179.389	-60.582	-54.947	-33.890	123.330	-58.152	-54.653	-52.384	-48.101	-6.769	-50.377	-8191	255	
1028.619	1	1	0	0	0.10138	0.044655	0.086288	0.15321	0.10271	0.087583	0.20027	0.18559	0.19553	0.033437	0.054435	0.14418	0.23049	0.17668	0.11535	0.28861	-2.9062	-3.5438	-3.5771	-3.0458	-3.6521	-3.4479	-3.3917	-3.7292	-3.3854	-3.3667	-3.6813	-3.2062	-3.5	-3.5292	-3.275	-3.7167	121.197	-68.529	-61.036	17.534	54.858	52.285	209.375	209.651	249.213	-31.275	141.786	260.309	240.240	-19.083	33.470	91.667	0.00035961	0.0021996	0.0008805	890.67	5.598e-06	1.4948e-05	890.57	266.37	1.3401e-05	2.8085e-05	281.57	102.64	101.78	42.094	2.752e-05	42.425	0.048309	0.081358	0.02289	1735.4	0.00087708	0.00092104	1078	348.71	0.00082793	0.00092874	431.39	140	137.6	54.861	0.00086811	62.002	12.424	19.294	18.955	-59.394	-66.425	-66.280	-60.811	-54.981	213.580	6.194	-58.123	-55.479	-53.023	-48.843	-66.844	-51.209	-8191	255	
1028.715	1	1	0	0	0.20499	0.23886	0.17193	0.19197	0.21478	0.23456	0.11379	0.15252	0.044681	0.18384	0.25162	0.052784	0.29827	0.14178	0.25766	0.21463	-2.8104	-3.3312	-3.7667	-3.2375	-3.4333	-3.6479	-3.2917	-3.7979	-3.425	-3.4	-3.8042	-3.4042	-3.4813	-3.7083	-3.2375	-3.8625	-20.283	85.688	155.891	189.399	-26.628	-16.574	106.552	253.472	117.317	214.865	-62.873	187.880	253.494	-7.730	216.484	126.654	0.00043323	0.00067723	0.0010439	909.12	2.3838e-05	2.4845e-05	893.91	275.02	3.6976e-05	1.4708e-05	291.22	108.48	106.43	43.877	3.8144e-05	43.484	0.050666	0.084687	0.023949	1796.7	0.00092232	0.00096772	1100.4	363.1	0.00087081	0.00099206	452.47	148.57	145.15	57.565	0.00093218	64.397	-65.609	224.170	-57.875	-59.528	33.921	121.445	-61.089	-55.009	-37.573	216.304	-58.408	-55.505	-53.385	-49.566	155.147	-51.963	-8191	255	
1028.834	1	1	0	0	0.17433	0.24961	0.094022	0.14807	0.1611	0.19148	0.23598	0.30558	0.11626	0.09683	0.24867	0.21265	0.3029	0.14518	0.15863	0.16039	-3.1688	-3.2062	-3.6375	-3.3083	-3.5542	-3.5354	-3.2646	-3.6125	-3.625	-3.2271	-3.9271	-3.5771	-3.7104	-3.7	-3.2333	-3.5625	28.835	200.309	-25.596	215.441	-53.361	30.702	189.436	226.073	202.862	-10.894	239.467	-69.918	267.175	-70.642	257.570	48.096	0.00078218	0.0033468	0.00023707	921.39	1.8027e-05	7.4741e-06	898.86	273.63	4.5773e-05	3.5201e-05	290.32	105.3	105.68	42.697	1.1884e-05	43.9	0.052872	0.088718	0.025146	1838.2	0.00095363	0.0010014	1113.3	366.44	0.00089385	0.0010129	453.91	147.04	144.15	56.689	0.00094695	64.265	13.536	50.394	13.003	-59.350	25.571	254.903	-60.501	-55.351	255.203	190.056	-58.050	-55.216	-53.064	-49.257	68.817	-51.831	-8191	255	
1028.905	1	1	0	0	0.11457	0.094721	0.096898	0.14804	0.027536	0.059761	0.15656	0.13266	0.14704	0.21424	0.14865	0.097452	0.2976	0.15191	0.13472	0.29225	-3.0438	-3.1354	-3.675	-3.25	-3.2646	-3.75	-3.2896	-3.7375	-3.3521	-3.3688	-3.8438	-3.4167	-3.3729	-3.6542	-3.0708	-3.5792	252.260	159.734	-21.074	276.314	215.462	183.398	107.400	117.835	-11.929	-54.936	278.424	183.677	166.555	-72.220	89.974	200.567	0.00036191	0.0024229	0.00028193	924.76	4.0634e-05	1.5211e-05	894.45	273.35	2.9079e-05	2.9067e-05	293.13	104.69	103.55	41.637	1.9391e-05	42.364	0.05377	0.089881	0.025402	1846.5	0.00095796	0.0010045	1110.7	363.91	0.00087426	0.0010057	450.59	144.75	141.35	55.284	0.00093255	62.989	-43.623	282.757	-42.817	-59.368	35.582	41.675	-61.070	-55.282	102.907	219.329	-58.190	-55.448	-53.213	-48.144	54.247	-51.174	-8191	255	
1029.002	1	1	0	0	0.15607	0.14504	0.11358	0.071772	0.061306	0.11875	0.18979	0.21191	0.15007	0.15029	0.27076	0.08368	0.16034	0.33719	0.20886	0.097099	-3.0521	-2.9729	-3.6458	-3.425	-3.3271	-3.6958	-3.3833	-3.6542	-3.5833	-3.2354	-3.6458	-3.5875	-3.3854	-3.8583	-3.3021	-3.5479	126.932	87.882	265.349	137.980	79.689	95.167	180.317	285.896	240.331	12.205	13.175	147.703	-33.563	249.692	160.613	59.072	0.00017632	0.0035515	4.4374e-05	928.28	2.5561e-05	1.3184e-05	899.8	275.86	3.5214e-05	2.6679e-05	289.36	105.08	104.4	42.077	5.8934e-05	42.253	0.052921	0.08886	0.025327	1845.7	0.00096183	0.0010192	1120.4	369.55	0.0008893	0.0010435	455.94	146.59	143.23	56.146	0.00094432	63.398	264.831	10.042	101.522	-59.557	-47.832	-52.543	-61.234	-55.264	-10.316	181.992	-57.746	-55.343	-52.878	-48.948	38.631	-51.162	-8191	255	
1029.122	1	1	0	0	0.21346	0.12302	0.26607	0.14457	0.1099	0.063279	0.20537	0.11148	0.16961	0.211	0.12651	0.20077	0.095319	0.17795	0.22029	0.067164	-3.1792	-3.125	-3.6208	-3.5271	-3.2958	-3.7562	-3.4104	-3.55	-3.6437	-3.3021	-3.6021	-3.5521	-3.3771	-3.9771	-3.4125	-3.3396	29.874	2.028	129.261	164.488	209.807	53.878	153.278	133.329	206.150	231.466	214.427	224.521	-4.952	-66.418	24.184	188.980	0.00011464	0.0017651	0.00047505	927.24	1.1266e-05	1.0682e-05	889.7	273.37	2.1154e-05	3.0836e-05	284.38	102.25	101.76	40.864	2.0387e-05	40.903	0.053831	0.090397	0.025391	1849.6	0.00095953	0.0010058	1107.3	363.72	0.00086205	0.0010034	443.92	141.51	138.68	53.701	0.00088778	60.186	242.637	-9.007	134.151	-58.616	-44.218	-49.227	-60.913	-54.988	62.188	82.355	-57.903	-55.185	-52.741	-48.256	61.032	-51.153	-8191	255	
1029.218	1	1	0	0	0.1993	0.091984	0.17902	0.12449	0.22533	0.15452	0.25021	0.097082	0.064741	0.053391	0.072019	0.26289	0.23188	0.22239	0.18481	0.0027257	-3.4458	-3.4167	-3.6521	-3.5583	-3.425	-3.7667	-3.4667	-3.4458	-3.7146	-3.3979	-3.5417	-3.7521	-3.3875	-3.7271	-3.5896	-3.4458	-20.336	113.517	193.696	32.958	174.705	14.282	219.837	259.900	237.911	183.283	238.272	207.543	-53.470	133.174	129.100	230.907	0.00039011	0.00032162	9.9748e-05	920.46	1.5341e-05	5.7086e-06	895.91	272.96	4.0536e-05	1.9459e-05	283.25	100.16	100.6	39.145	1.4393e-05	39.898	0.049508	0.082946	0.023183	1743.3	0.00088144	0.00091496	1083.9	353.49	0.00079077	0.00092441	427.38	135.21	132.88	50.947	0.00080135	57.074	279.028	-64.372	203.524	-59.922	133.390	59.326	-60.848	-54.752	105.710	-7.115	-57.639	-54.677	-52.008	-47.351	43.144	-50.142	-8191	255	
1029.314	1	1	0	0	0.15763	0.10511	0.21651	0.22818	0.22873	0.08746	0.25777	0.098927	0.15183	0.025671	0.26604	0.29167	0.10369	0.22486	0.069948	0.19327	-3.2958	-3.1771	-3.6437	-3.6271	-3.4583	-3.8333	-3.6979	-3.3917	-3.8	-3.2958	-3.5771	-3.6354	-3.2771	-3.7833	-3.5938	-3.3812	9.294	264.639	111.977	-4.503	67.636	40.658	173.308	263.794	143.342	197.013	-67.536	125.727	277.512	263.452	-55.146	276.910	0.0002597	0.003278	0.0006873	915.05	1.8933e-05	2.2504e-05	894.37	270.68	2.8707e-05	3.4367e-05	284.75	97.42	97.792	38.12	1.4839e-05	39.523	0.044954	0.074824	0.020785	1652.9	0.00080625	0.00082742	1059.1	340.44	0.00071686	0.00083277	411.81	129.72	127.67	48.924	0.00075287	55.629	260.688	129.304	65.316	-59.388	250.795	144.815	-60.772	-54.990	200.958	169.021	-58.006	-54.217	-51.884	-46.650	56.267	-50.290	-8191	255	
1029.435	1	1	0	0	0.26252	0.19766	0.11462	0.13016	0.20242	0.066117	0.065531	0.081871	0.27871	0.07183	0.19516	0.01736	0.27102	0.25107	0.13137	0.10848	-3.325	-3.3125	-3.5792	-3.7229	-3.2125	-3.6583	-3.675	-3.3812	-3.7271	-3.1917	-3.4354	-3.7021	-3.2562	-3.6979	-3.4458	-3.325	-50.414	152.876	235.916	-72.513	34.028	-11.370	216.349	187.182	-38.387	124.239	268.719	179.734	225.142	285.684	282.779	102.475	0.00033341	0.0015801	0.00017075	927.77	1.8987e-05	1.7737e-05	903.4	270.53	2.8256e-05	2.3516e-06	285.04	96.704	97.243	37.919	2.9766e-05	39.204	0.042503	0.071017	0.019848	1626.7	0.00077324	0.00079439	1061.8	338.85	0.00069159	0.00081498	406.86	127.69	125.68	48.163	0.00072359	55.024	194.005	281.513	-13.380	-59.325	74.055	32.847	-60.913	-54.936	186.856	-62.848	-58.103	-54.058	-51.787	-46.498	34.738	-50.061	-8191	255	
1029.531	1	1	0	0	0.20232	0.064788	0.19033	0.13833	0.30089	0.066569	0.19024	0.3484	0.072636	0.035476	0.12509	0.076546	0.26056	0.29446	0.19351	0.14709	-3.3063	-3.3063	-3.3542	-3.7771	-3.2792	-3.5646	-3.825	-3.3083	-3.6083	-3.4958	-3.375	-3.7125	-3.3083	-3.6521	-3.5938	-3.2812	66.208	135.855	-36.081	-54.702	-30.997	54.759	277.957	188.180	158.583	-42.899	185.656	232.835	7.739	230.704	80.086	82.898	0.00033411	0.0023752	0.00062107	934.57	3.9365e-05	1.0017e-05	906.04	268.43	4.3151e-05	2.1409e-05	280.8	93.408	93.987	36.884	2.3859e-05	38.426	0.041392	0.069298	0.01939	1610.3	0.00075831	0.00076837	1050.4	332.65	0.00065455	0.00075642	393.3	121.96	120.48	46.336	0.00065509	53.035	4.792	36.628	-52.884	-59.411	42.240	229.069	-60.508	-54.756	-42.420	-62.740	-57.266	-53.589	-51.630	-45.950	14.787	-50.092	-8191	255	
1029.603	1	1	0	0	0.1376	0.19681	0.042384	0.042045	0.27077	0.16879	0.18263	0.17446	0.18607	0.19248	0.041101	0.31011	0.14936	0.30455	0.027416	0.059257	-3.3646	-3.3229	-3.2854	-3.7875	-3.3167	-3.4062	-3.7167	-3.2604	-3.6646	-3.4	-3.3542	-3.8833	-3.3396	-3.6583	-3.6479	-3.3958	227.126	212.979	76.927	-40.539	-22.520	115.481	-66.378	-39.572	142.571	101.718	59.875	212.975	269.505	280.175	227.336	-9.137	0.00090666	0.00072422	0.00063555	921.34	1.1271e-05	1.01e-05	913.85	270.24	1.5332e-05	1.8602e-05	283.54	94.385	94.225	37.1	1.7064e-05	38.979	0.037769	0.063398	0.01794	1556.2	0.00070218	0.00071757	1045.7	329.56	0.00062662	0.00074058	392.54	121.74	119.88	46.31	0.00064078	52.875	269.508	-36.376	-72.098	-59.479	205.768	66.649	-60.927	-54.803	-65.781	-22.495	-57.943	-53.622	-51.564	-45.887	111.636	-49.361	-8191	255	
1029.724	1	1	0	0	0.33029	0.006091	0.069625	0.1246	0.022741	0.031525	0.0098014	0.078094	0.2801	0.1657	0.084956	0.019361	0.2583	0.29677	0.22982	0.13911	-3.3354	-3.4562	-3.1417	-3.8312	-3.4188	-3.3521	-3.8396	-3.4313	-3.5479	-3.4708	-3.2833	-3.8667	-3.6042	-3.3417	-3.7333	-3.4729	202.310	-54.746	249.411	93.391	204.572	121.439	-61.174	99.558	77.354	61.468	137.584	61.488	-22.302	256.626	16.683	205.912	0.00018456	0.00058919	0.00069209	932.35	1.2573e-05	1.4129e-05	921.34	270.16	2.4212e-05	2.1121e-05	282.76	95.229	93.838	37.597	1.7851e-05	39.306	0.036667	0.061348	0.017349	1533.2	0.00068199	0.00069329	1041.1	326.62	0.00059931	0.00069683	389.36	120.89	118.55	46.293	0.00062704	53.252	231.159	268.270	162.241	-59.518	191.352	237.188	-60.712	-54.288	59.820	150.492	-57.209	-53.464	-50.822	-45.822	285.977	-48.524	-8191	255	
1029.818	1	1	0	0	0.35978	0.07184	0.15938	0.25035	0.27644	0.077561	0.24594	0.042742	0.11057	0.19045	0.017357	0.17468	0.37584	0.25144	0.18541	0.15075	-2.9896	-3.5479	-3.3042	-3.7583	-3.3958	-3.3375	-3.9021	-3.425	-3.4667	-3.5792	-3.4	-3.8292	-3.3708	-3.4188	-3.8708	-3.3771	18.477	-11.771	-48.895	216.604	63.558	69.139	218.648	233.660	47.546	241.027	105.483	270.594	-71.896	45.419	123.740	258.487	0.00043203	0.0018535	0.00010638	939.55	1.626e-05	1.2613e-05	927.6	272.64	2.7219e-05	9.6902e-06	287.44	95.603	94.649	37.937	1.8567e-05	39.91	0.036084	0.060665	0.017316	1536.4	0.00067249	0.0006945	1051.6	329.35	0.00060739	0.00070143	397.31	122.41	119.78	46.89	0.00063895	53.774	212.774	-14.111	109.746	-59.559	166.128	189.881	-60.829	-54.666	226.551	240.225	-57.247	-53.471	-51.022	-45.706	59.690	-49.506	-8191	255	
1029.914	1	1	0	0	0.083181	0.10879	0.18586	0.16907	0.19967	0.07508	0.1049	0.21614	0.21975	0.068236	0.30817	0.15338	0.17927	0.29704	0.1179	0.31048	-3.0292	-3.5604	-3.2208	-3.5958	-3.4083	-3.5646	-3.8792	-3.45	-3.2729	-3.5521	-3.1125	-3.8354	-3.5187	-3.3146	-3.5167	-3.55	-21.938	226.199	285.481	251.231	74.088	39.433	194.003	7.330	249.876	-13.913	279.185	-68.157	-10.932	256.937	68.734	125.960	0.00016584	0.0019062	0.00078745	932.65	2.1462e-05	7.2668e-06	923.44	269.17	1.6872e-05	1.5186e-05	279.11	93.575	92.343	37.472	2.1068e-05	39.056	0.036882	0.062314	0.017625	1537.3	0.00068687	0.00070264	1044.7	326.71	0.00060193	0.00068869	386.1	118.33	115.67	45.642	0.00058913	51.611	-31.170	258.620	55.190	-59.365	181.298	11.334	-60.697	-54.340	-39.240	-61.311	-57.329	-53.467	-50.292	-44.972	78.597	-49.010	-8191	255	
1030.010	1	1	0	0	0.26427	0.041698	0.13762	0.093785	0.23508	0.098665	0.21273	0.17346	0.17514	0.1742	0.15343	0.26349	0.13563	0.28116	0.093901	0.037165	-2.9667	-3.775	-3.2854	-3.5875	-3.6667	-3.2125	-3.8875	-3.5896	-3.3104	-3.6583	-3.3583	-3.5167	-3.7062	-3.3563	-3.7729	-3.5417	8.423	130.814	155.434	-25.616	54.261	117.964	7.057	-12.645	264.267	106.252	159.587	228.654	-57.922	285.663	137.309	-22.053	0.00034548	0.0024654	0.00060604	933.17	3.1292e-05	5.8344e-06	908.87	261.66	1.6943e-05	5.2229e-06	271.35	88.555	87.986	37.284	5.5133e-06	39.035	0.03332	0.055345	0.015353	1443.3	0.00058111	0.00060922	1005.2	308.38	0.00052224	0.00059768	363.95	110.87	108.56	44.302	0.00053551	50.316	120.759	66.287	7.273	-58.910	24.642	242.142	-60.590	-53.879	188.762	238.407	-57.016	-52.566	-50.196	-44.387	-62.782	-48.607	-8191	255	
1030.131	1	1	0	0	0.17862	0.18824	0.06182	0.30948	0.13132	0.15448	0.22112	0.10271	0.33131	0.15811	0.26901	0.098194	0.081697	0.26455	0.083874	0.063831	-2.9875	-3.6333	-3.1917	-3.6229	-3.6542	-3.2667	-3.875	-3.4667	-3.3354	-3.9083	-3.4875	-3.5438	-3.7625	-3.4437	-3.6792	-3.4979	174.663	164.538	54.192	234.029	162.771	-66.614	256.573	-6.453	135.485	150.055	-57.538	143.419	-58.466	78.785	230.274	-1.394	0.00031154	0.0019417	0.00025544	929.05	3.6884e-05	3.1772e-05	911	260.2	1.3056e-05	1.0963e-05	273.88	88.802	86.577	37.306	7.2174e-06	39.439	0.03085	0.051438	0.014366	1401.6	0.00054307	0.00059326	996.43	302.86	0.00048403	0.00055055	354.85	107.92	105.45	43.741	0.00049324	49.93	244.899	161.112	2.911	-59.027	133.753	193.714	-60.773	-53.897	99.710	53.526	-57.340	-52.503	-49.321	-44.198	62.371	-48.673	-8191	255	
1030.203	1	1	0	0	0.091009	0.16149	0.071672	0.28753	0.11497	0.20049	0.25037	0.18091	0.18632	0.2582	0.25843	0.23423	0.17601	0.16032	0.072025	0.1518	-2.8937	-3.6688	-3.3833	-3.4125	-3.7125	-3.2229	-3.7	-3.5167	-3.2479	-3.8812	-3.4521	-3.3771	-3.8896	-3.3271	-3.6875	-3.6417	259.718	277.752	269.561	144.301	274.456	279.305	163.437	-35.224	181.282	-29.596	115.396	181.896	40.681	37.291	139.292	-19.527	0.00016971	0.0021181	0.00069421	934.21	9.6571e-06	1.3838e-05	920.81	261.7	1.8259e-05	7.403e-06	273.44	88.03	86.698	37.404	1.0753e-05	40.368	0.028871	0.048188	0.013496	1370.7	0.00051298	0.00055039	996.59	300.57	0.00046694	0.00053664	355.12	107.26	105.34	43.84	0.00050005	50.102	250.092	75.534	253.047	-59.010	117.495	218.505	-60.508	-53.713	282.023	224.919	-57.258	-52.416	-49.587	-44.188	112.117	-48.863	-8191	255	
1030.299	1	1	0	0	0.17556	0.11736	0.19967	0.24892	0.1466	0.12282	0.11043	0.16015	0.11973	0.21637	0.14445	0.29301	0.069669	0.055019	0.22121	0.02612	-2.7896	-3.9354	-3.4625	-3.4271	-3.8854	-3.425	-3.6646	-3.8479	-3.2792	-3.7667	-3.4229	-3.5208	-3.9792	-3.3896	-3.7021	-3.7938	184.875	3.313	14.588	181.199	193.361	202.381	160.218	161.449	32.527	73.694	164.736	264.219	-40.385	199.259	123.204	242.486	0.00012408	0.0019124	0.00055179	928.69	9.1223e-06	2.2098e-05	919.18	261.62	1.5701e-05	2.1183e-05	270.05	87.025	86.561	36.657	2.0056e-05	38.411	0.030147	0.050284	0.014284	1416.1	0.00055335	0.00061157	1009.5	307.44	0.00052304	0.0006046	363.12	109.21	107.71	44.098	0.00054852	49.978	214.918	183.602	-25.685	-59.620	102.415	179.011	-60.806	-53.951	79.450	41.224	-56.553	-52.390	-49.822	-44.460	246.139	-48.356	-8191	255	
1030.395	1	1	0	0	0.13615	0.18296	0.18923	0.13109	0.17803	0.18892	0.10411	0.15699	0.052796	0.23367	0.16612	0.097267	0.086793	0.18393	0.017474	0.096828	-2.8292	-3.6792	-3.4333	-3.2667	-3.8458	-3.3187	-3.475	-3.6042	-3.2333	-3.6396	-3.4667	-3.3125	-3.725	-3.4292	-3.5979	-3.7896	164.724	43.437	-11.227	255.745	118.543	-60.113	176.943	162.477	-12.809	198.186	256.943	276.388	55.091	252.812	6.715	36.256	0.00043623	0.0035707	0.00024278	932.45	2.9532e-05	2.3519e-05	907.43	257.49	2.1526e-05	1.8944e-05	265.61	84.902	85.158	36.452	1.4922e-05	38.746	0.032926	0.052309	0.014688	1428.2	0.00055652	0.00059611	999.62	302.35	0.00050871	0.00058129	357.07	106.62	105.56	43.67	0.00053487	49.668	243.946	13.986	49.556	-59.234	-39.000	214.293	-60.732	-53.708	50.562	61.855	-56.820	-52.418	-49.361	-44.144	-65.002	-48.577	-8191	255	
1030.515	1	1	0	0	0.18929	0.17292	0.17837	0.07865	0.18642	0.11137	0.26444	0.14291	0.056618	0.13538	0.040324	0.16844	0.305	0.27791	0.0484	0.15184	-2.8563	-3.7917	-3.5771	-3.3104	-3.9396	-3.4458	-3.4292	-3.9	-3.3979	-3.6042	-3.7104	-3.2188	-3.7708	-3.4875	-3.3625	-3.5958	-70.983	56.197	139.158	69.399	-60.645	213.684	112.738	-62.051	101.331	206.214	20.421	212.280	276.134	263.523	21.556	186.893	0.00021897	0.0020826	0.00016639	940.41	1.9372e-05	5.9771e-06	923.25	257.73	5.7059e-05	2.8801e-05	266.42	84.705	85.219	36.295	1.4057e-05	38.601	0.032207	0.052696	0.015002	1443	0.00057034	0.0006162	1015.1	304.23	0.00051593	0.00058801	354.82	107.3	105.66	43.581	0.00054047	49.925	235.976	198.276	70.472	-59.272	118.613	226.148	-60.499	-54.060	239.369	9.555	-56.635	-52.595	-49.377	-44.117	32.082	-47.827	-8191	255	
1030.612	1	1	0	0	0.28149	0.094951	0.075495	0.16211	0.31935	0.20154	0.18965	0.10281	0.22213	0.20156	0.094766	0.086235	0.17383	0.32713	0.070571	0.30949	-2.9292	-3.3979	-3.8167	-3.3125	-3.5604	-3.4958	-3.4667	-3.8292	-3.4646	-3.4521	-3.7458	-3.15	-3.65	-3.6271	-3.4229	-3.8146	239.710	103.822	43.953	-48.851	62.231	150.539	260.263	-26.317	115.694	250.588	157.561	186.577	-39.703	164.007	24.134	32.174	0.00058697	0.0023452	0.00016038	956.5	1.5945e-05	1.4487e-05	928.7	260	3.9287e-05	2.5282e-05	270.84	85.649	85.443	36.516	1.6291e-05	39.224	0.032449	0.052379	0.014987	1460.1	0.00057146	0.00061281	1025.7	306.07	0.00051644	0.0005898	356.87	108.29	105.52	43.58	0.00052753	49.911	215.395	-27.962	131.123	-59.456	106.276	69.568	-60.273	-54.352	121.710	-52.024	-56.874	-52.254	-49.742	-44.688	11.398	-48.169	-8191	255	
1030.706	1	1	0	0	0.11352	0.17328	0.22581	0.0198	0.19041	0.12639	0.20422	0.1099	0.28161	0.030841	0.068508	0.3195	0.098431	0.1125	0.28428	0.13389	-3.1083	-3.3937	-3.7354	-3.3417	-3.7458	-3.5542	-3.4625	-3.7771	-3.4146	-3.5167	-3.8021	-3.3167	-3.675	-3.6583	-3.1063	-3.6896	80.074	197.488	-13.694	-42.827	-61.613	7.080	182.100	187.731	33.679	278.506	12.870	278.007	-21.095	8.435	268.224	158.732	0.0003509	0.0037858	0.00081662	956.64	9.7512e-06	1.6049e-05	929.68	257.48	7.0765e-06	2.0901e-05	266.71	84.757	85.282	36.229	1.9362e-05	38.857	0.031242	0.051248	0.014559	1447.5	0.00055998	0.00060987	1020.7	304.12	0.00051605	0.00059295	354.94	107.84	105.73	43.436	0.00053164	49.607	175.134	37.011	-12.977	-59.409	-4.832	137.154	-60.539	-54.177	-21.072	53.331	-57.068	-52.650	-49.873	-44.380	-50.188	-48.445	-8191	255	
1030.804	1	1	0	0	0.15013	0.099647	0.11529	0.24993	0.25581	0.14397	0.24089	0.11926	0.093029	0.14768	0.068833	0.10455	0.069345	0.19319	0.24837	0.19847	-2.9104	-3.4542	-3.7021	-3.1188	-3.5979	-3.4437	-3.4146	-3.8792	-3.4979	-3.3167	-3.7208	-3.3708	-3.5125	-3.7667	-3.2958	-3.8146	70.962	156.793	-67.603	-57.149	63.735	-71.819	226.796	-52.522	40.755	236.402	43.890	219.137	273.843	-40.110	-14.130	141.158	0.0004214	0.0015711	0.00064018	956.22	6.1468e-06	3.2718e-05	923.15	255.7	2.0188e-05	3.4725e-05	263.08	84.784	85.628	36.369	3.7129e-05	39.123	0.031582	0.051173	0.014434	1434.4	0.00054863	0.00058345	1011.9	301.07	0.00050265	0.00057788	349.45	107.13	105.31	43.416	0.00052524	49.695	-12.925	149.267	78.884	-60.190	141.896	49.873	-60.577	-53.879	203.493	255.902	-56.765	-52.106	-49.180	-44.663	161.283	-48.419	-8191	255	
1030.898	1	1	0	0	0.21831	0.089036	0.25422	0.13961	0.1979	0.10003	0.047699	0.20548	0.16884	0.052337	0.26107	0.095363	0.097891	0.16699	0.10218	0.15409	-3.2167	-3.4	-3.6583	-3.3458	-3.4896	-3.55	-3.2979	-3.7896	-3.6958	-3.3333	-3.9292	-3.4813	-3.4062	-3.7646	-3.1917	-3.4875	-39.010	141.012	-25.790	153.289	-66.011	174.183	92.591	191.206	216.120	70.902	284.088	108.901	245.712	-59.405	122.911	201.001	0.00034316	0.00064979	0.00039487	945.02	1.4596e-05	5.5404e-06	921.29	257.4	1.6209e-05	1.2872e-05	269.92	86.096	85.952	36.658	4.5937e-05	39.556	0.031274	0.051903	0.014686	1442.1	0.00056291	0.0005939	1023.9	302.92	0.00051583	0.00059721	354.29	108.37	106.53	43.902	0.00053912	50.223	-45.307	72.966	-17.401	-59.316	153.000	-19.670	-60.887	-54.028	-58.235	-63.958	-56.627	-52.591	-49.260	-44.436	261.405	-48.553	-8191	255	
1030.994	1	1	0	0	0.15889	0.056744	0.14794	0.069087	0.14406	0.022662	0.089189	0.012706	0.27561	0.14595	0.17652	0.11764	0.18446	0.23933	0.24217	0.10599	-3.0479	-3.3792	-3.8	-3.625	-3.5312	-3.775	-3.3167	-3.6792	-3.4833	-3.1708	-3.8	-3.4083	-3.5271	-3.7292	-3.2146	-3.775	85.231	217.650	4.085	29.065	285.545	21.739	264.476	159.647	155.882	69.340	236.208	138.776	284.261	163.236	-17.473	234.660	0.00028863	0.00090499	0.00045369	962.23	1.9119e-05	8.6656e-06	928.22	257.42	2.7984e-05	1.4284e-05	269.14	86.599	86.177	37.199	1.672e-05	40.152	0.032003	0.052293	0.014645	1441.5	0.00056028	0.00059103	1025.6	303.97	0.00051291	0.00058995	355.88	109.02	106.67	44.279	0.00053087	50.788	245.297	72.061	66.226	-59.274	122.590	250.081	-60.755	-54.201	144.849	231.961	-56.356	-52.887	-49.802	-44.319	50.011	-48.327	-8191	255	
1031.115	1	1	0	0	0.17641	0.09026	0.25061	0.27869	0.1247	0.19239	0.15225	0.25057	0.076603	0.1735	0.12365	0.27763	0.23933	0.093021	0.10494	0.077999	-3.2438	-3.1354	-3.6875	-3.4813	-3.4208	-3.8896	-3.4292	-3.6521	-3.6958	-3.3083	-3.8354	-3.5854	-3.3792	-3.8396	-3.3208	-3.6083	277.212	49.205	134.839	-70.646	226.867	247.355	67.763	-23.120	-8.943	58.051	67.837	184.187	21.249	48.599	263.073	204.524	0.00035627	0.0025038	7.0554e-05	951.61	2.4532e-05	2.3446e-05	922.69	260.49	2.7026e-05	1.7447e-05	266.94	87.264	86.091	37.049	7.3366e-06	39.514	0.031205	0.053139	0.014706	1447.5	0.00056698	0.00060103	1030.5	306.91	0.00053003	0.00061481	359.86	110.45	108.04	44.63	0.00056232	51.206	47.108	85.394	7.222	-59.023	84.498	79.316	-60.464	-54.052	175.818	48.828	-56.831	-52.167	-49.727	-44.516	-43.972	-48.195	-8191	255	
1031.211	1	1	0	0	0.15111	0.092877	0.13924	0.17901	0.051475	0.075303	0.18775	0.11044	0.45642	0.117	0.19941	0.11737	0.071836	0.18748	0.27149	0.025991	-3.275	-3.2812	-3.5646	-3.5646	-3.3146	-3.7229	-3.4792	-3.5958	-3.8396	-3.2521	-3.7021	-3.6625	-3.3771	-3.7458	-3.2667	-3.4792	112.118	-44.112	-56.223	61.003	-71.571	-49.222	179.965	280.980	80.642	14.488	254.600	30.601	-36.265	263.578	144.002	231.575	0.00025732	0.00054691	0.00062972	952.41	2.2797e-05	2.3639e-05	918.8	257.41	2.4756e-05	2.1687e-06	267.73	85.637	85.872	36.826	4.3698e-06	39.087	0.03284	0.057186	0.015367	1469.3	0.00059441	0.0006253	1026.2	308.32	0.00054676	0.00062756	360.44	110.04	108.34	44.582	0.00056349	51.005	29.631	271.633	-23.377	-59.151	137.600	185.558	-60.721	-53.982	195.618	239.608	-56.454	-52.554	-49.807	-44.500	151.710	-48.533	-8191	255	
1031.307	1	1	0	0	0.098605	0.49434	0.094717	0.079752	0.13831	0.096801	0.15889	0.1382	0.2045	0.053704	0.013537	0.079265	0.21318	0.24124	0.28542	0.061656	-3.4167	-3.1854	-3.5667	-3.6333	-3.275	-3.725	-3.4917	-3.3958	-3.675	-3.1958	-3.5958	-3.6271	-3.3083	-3.7771	-3.4458	-3.6562	43.486	286.636	170.865	224.186	-13.390	6.527	233.198	228.797	99.325	48.929	244.955	112.243	-24.494	255.911	4.441	-3.149	0.00035684	0.001736	0.00027714	944.65	3.0322e-05	1.7653e-05	918.43	258.26	3.5479e-05	7.7663e-06	267.35	86.763	85.501	37.369	1.4955e-05	39.779	0.032756	0.056139	0.015434	1475.1	0.00059364	0.00062118	1027.2	308.5	0.00054214	0.00062388	360.94	109.77	108.85	45.077	0.0005659	51.658	75.924	103.078	115.057	-59.472	26.949	118.553	-60.339	-53.990	284.990	4.228	-56.624	-52.846	-49.827	-44.445	48.033	-48.514	-8191	255	
1031.404	1	1	0	0	0.22328	0.076708	0.12391	0.26231	0.10614	0.061308	0.091369	0.1063	0.040384	0.01941	0.17847	0.1966	0.1163	0.038556	0.057145	0.15987	-3.3271	-3.1688	-3.4958	-3.6813	-3.15	-3.7208	-3.5208	-3.3479	-3.7625	-3.2667	-3.5875	-3.6583	-3.35	-3.7958	-3.4521	-3.3979	190.423	168.266	-38.142	260.756	-69.124	209.013	174.473	261.582	112.874	106.455	-15.912	-48.830	-3.134	158.416	150.686	286.642	0.00027518	0.0017747	0.00081852	947.27	4.7507e-05	1.7629e-05	922.03	260.73	1.7035e-05	1.7898e-05	271.47	87.16	87.68	37.917	2.6239e-05	40.195	0.033196	0.057523	0.015664	1482.2	0.00060167	0.0006309	1032.7	311.49	0.00055765	0.0006389	367.7	111.92	111.72	45.716	0.00058927	52.567	-54.309	14.287	-59.564	-59.237	58.257	198.265	-60.755	-53.535	169.706	46.504	-56.900	-52.454	-49.485	-44.255	172.648	-48.651	-8191	255	
1031.500	1	1	0	0	0.039404	0.20867	0.15013	0.10127	0.14812	0.23071	0.17265	0.31255	0.19986	0.11744	0.053499	0.10751	0.13621	0.1111	0.16115	0.14083	-3.3375	-3.2188	-3.4917	-3.5729	-3.2438	-3.6875	-3.7062	-3.2354	-3.9021	-3.4729	-3.6646	-3.7542	-3.2979	-3.6104	-3.6146	-3.3521	217.918	-5.181	119.140	175.906	11.136	118.506	127.554	231.085	245.228	210.245	273.152	82.178	219.865	59.840	76.877	224.013	0.00047261	0.0020243	0.00051241	954.21	1.9421e-05	6.133e-06	932.03	261.51	1.0669e-05	1.8389e-06	272.46	87.389	87.367	37.734	1.3527e-05	39.754	0.03423	0.058892	0.016282	1507.3	0.00062755	0.00065439	1047.3	315.41	0.00056957	0.00065267	371.11	112.48	111.55	45.887	0.0006026	52.375	-12.481	172.554	53.261	-59.417	6.189	182.263	-60.683	-53.871	-51.721	-21.551	-56.750	-52.034	-49.739	-44.440	67.699	-48.544	-8191	255	
1031.596	1	1	0	0	0.19805	0.081315	0.21212	0.019271	0.12455	0.075849	0.20111	0.41642	0.18787	0.19886	0.089902	0.17528	0.078583	0.056528	0.1547	0.28253	-3.5542	-3.1958	-3.4208	-3.8333	-3.2188	-3.5229	-3.8146	-3.3063	-3.8104	-3.4208	-3.4875	-3.9375	-3.3146	-3.7083	-3.7062	-3.3563	76.274	187.741	264.507	39.976	217.816	-28.615	20.853	252.303	182.353	133.136	274.623	-32.305	129.250	178.030	133.417	189.074	0.00025208	0.00070403	0.00028396	939.24	1.5998e-05	1.2595e-05	908.07	259.21	2.3537e-05	3.1188e-05	267.37	85.711	85.936	37.27	5.868e-06	39.403	0.034617	0.059979	0.016473	1500.3	0.00062549	0.00065581	1023.7	313.74	0.00056629	0.00065261	366.45	110.33	110.01	45.447	0.00058248	51.293	45.850	124.811	-63.564	-59.343	158.775	21.192	-60.617	-54.261	218.222	171.379	-56.449	-52.001	-49.828	-44.464	125.833	-48.443	-8191	255	
1031.692	1	1	0	0	0.31265	0.19939	0.2648	0.13228	0.19127	0.056686	0.22819	0.40736	0.1129	0.076687	0.21129	0.047599	0.17763	0.23574	0.19141	0.064262	-3.1312	-3.4813	-3.2687	-3.9167	-3.3208	-3.5187	-3.7583	-3.4167	-3.6896	-3.5354	-3.2896	-3.75	-3.3812	-3.5375	-3.6979	-3.3271	143.337	24.402	192.703	103.639	-26.450	251.455	229.971	170.138	-26.213	162.458	246.327	232.112	17.492	1.699	118.763	78.151	0.00025971	0.0017481	0.00068569	934.96	1.2099e-05	1.0465e-05	900.42	256.56	2.8868e-05	1.7438e-05	265.17	85.514	85.303	37.564	1.9941e-05	39.837	0.033305	0.056958	0.015687	1459.6	0.0005915	0.00062046	1006	307.24	0.00053671	0.00062047	358.39	108.86	108.12	45.294	0.00057156	51.361	49.228	95.489	4.819	-59.042	128.477	150.540	-60.440	-53.987	39.084	156.693	-56.987	-51.911	-49.277	-44.169	113.860	-47.802	-8191	255	
1031.811	1	1	0	0	0.047754	0.092963	0.13736	0.13118	0.20832	0.22928	0.17041	0.10077	0.11362	0.19963	0.070672	0.040648	0.057533	0.30638	0.15209	0.16337	-3.3375	-3.2479	-3.3417	-3.7333	-3.3646	-3.4729	-3.7833	-3.2812	-3.8208	-3.5083	-3.2	-3.9083	-3.4813	-3.5938	-3.6708	-3.3167	213.280	150.693	-64.313	47.544	32.575	68.670	142.331	224.898	275.703	-1.248	-57.134	200.328	270.051	246.794	209.642	245.903	0.0001272	0.0012237	0.00012586	919.65	3.7005e-06	2.3643e-05	905.83	254.43	2.2359e-05	1.8188e-05	264.36	85.454	83.78	37.565	2.8829e-05	39.86	0.032682	0.056782	0.01559	1446.6	0.00058848	0.00062217	1007.9	305.91	0.00053503	0.00061819	355.92	107.98	106.91	45.142	0.00055794	51.151	-22.061	41.005	67.177	-58.965	-43.864	-56.734	-60.718	-54.035	96.989	65.361	-56.771	-51.998	-49.150	-44.231	148.964	-48.577	-8191	255	
1031.907	1	1	0	0	0.14482	0.079103	0.075608	0.11113	0.12973	0.068084	0.06248	0.30634	0.20142	0.10608	0.29712	0.054502	0.071208	0.13793	0.08639	0.23759	-3.1771	-3.6167	-3.1583	-3.6437	-3.3792	-3.4354	-3.8375	-3.3354	-3.4062	-3.6937	-3.1729	-3.6417	-3.4875	-3.3563	-3.8521	-3.3417	160.355	-21.118	259.038	228.547	-41.732	170.560	279.622	-46.251	211.895	-31.202	161.959	201.678	-9.213	209.233	261.616	6.928	0.00034783	0.00035334	0.00041222	910.35	3.9184e-06	1.7389e-05	904.72	253.92	2.1532e-05	6.8227e-06	262.38	85.799	85.582	37.788	2.8303e-05	40.094	0.03229	0.05434	0.015604	1438.7	0.00058756	0.00061858	1008.2	306.62	0.00053735	0.00061741	356.52	108.49	106.99	45.194	0.00054857	51.257	252.997	8.456	127.328	-59.492	30.748	-43.205	-60.333	-53.858	255.531	68.636	-56.916	-52.137	-49.470	-44.191	188.404	-48.489	-8191	255	
1032.003	1	1	0	0	0.15858	0.15158	0.3885	0.12216	0.20713	0.029731	0.065182	0.099982	0.070959	0.15463	0.10151	0.098488	0.16912	0.10428	0.16673	0.083212	-3.1833	-3.6437	-3.1708	-3.5396	-3.5125	-3.2625	-3.7396	-3.3917	-3.4604	-3.7208	-3.2083	-3.7375	-3.575	-3.2833	-3.7687	-3.5479	-41.342	52.142	112.445	72.133	26.393	113.350	222.710	283.308	264.738	245.580	60.568	287.646	234.947	206.122	242.312	283.674	0.00053921	0.0042509	0.00032704	924.1	1.9491e-05	1.726e-05	901.59	252.57	3.4227e-06	9.8578e-06	261.69	83.72	84.129	37.191	1.4831e-05	39.422	0.031783	0.053211	0.015536	1426	0.00057607	0.00060497	996.98	302.05	0.00053001	0.00060926	352.44	107.05	106.43	44.774	0.00055537	50.759	-59.974	37.734	106.928	-59.252	5.055	-33.717	-60.248	-53.926	32.320	4.729	-56.393	-52.012	-49.682	-44.283	14.936	-48.701	-8191	255	
1032.077	1	1	0	0	0.21217	0.098727	0.056894	0.14973	0.41141	0.16948	0.24539	0.13003	0.21196	0.12215	0.027779	0.14199	0.10243	0.099753	0.084566	0.21991	-3.1396	-3.6667	-3.3104	-3.5958	-3.5812	-3.1542	-3.7604	-3.5333	-3.4021	-3.8604	-3.3604	-3.6771	-3.6958	-3.3354	-3.6562	-3.4062	-30.707	54.642	15.060	25.624	218.958	-43.235	239.618	214.832	227.993	76.671	-23.360	128.757	266.060	24.807	83.108	232.611	0.00073327	0.0025759	0.00070438	918.76	1.002e-05	1.1319e-05	896.5	252.15	5.1923e-06	1.4139e-05	263.01	84.402	84.569	37.197	2.4649e-05	39.43	0.032415	0.054836	0.015826	1446.3	0.00059929	0.00063175	1005.3	307.34	0.00055788	0.00064141	359.6	108.91	107.63	45.266	0.00058393	51.549	250.218	-36.473	194.103	-58.875	17.906	149.895	-60.523	-53.673	157.609	-56.263	-56.478	-52.367	-50.018	-44.251	82.749	-47.759	-8191	255	
1032.195	1	1	0	0	0.19112	0.10046	0.14497	0.15309	0.11979	0.28922	0.12554	0.082545	0.12277	0.15793	0.26815	0.12777	0.27865	0.13954	0.13165	0.14016	-2.9896	-3.6667	-3.2917	-3.4938	-3.6771	-3.2292	-3.7396	-3.4917	-3.175	-3.6229	-3.4146	-3.5833	-3.5958	-3.1708	-3.5771	-3.6125	249.814	157.904	232.433	59.430	41.018	196.275	287.241	-34.659	-5.925	109.914	215.834	129.953	163.444	259.726	-34.820	250.069	0.0004041	0.0021966	0.00072032	924.21	6.7646e-06	1.3249e-05	908.74	256.27	1.4613e-05	1.0356e-05	268.49	86.533	85.751	37.045	1.0116e-05	39.338	0.034381	0.057851	0.016804	1487.1	0.00063234	0.00066531	1022.7	314.39	0.00059643	0.00068653	373.66	113.14	111.77	46.281	0.00063349	52.659	-9.479	72.410	151.917	-58.960	240.888	-60.927	-60.604	-54.195	282.284	33.336	-56.845	-52.648	-49.897	-44.812	135.182	-48.977	-8191	255	
1032.292	1	1	0	0	0.076634	0.18784	0.19183	0.21534	0.22102	0.13026	0.11036	0.20124	0.29671	0.13889	0.24025	0.099275	0.011608	0.2158	0.16646	0.22759	-2.8187	-3.6917	-3.0875	-3.4833	-3.65	-3.2125	-3.6896	-3.6167	-3.2771	-3.8063	-3.4667	-3.2938	-3.7021	-3.1833	-3.5271	-3.6188	2.693	-7.088	190.504	257.949	-56.518	236.127	24.031	176.937	69.342	-40.769	218.239	16.447	-15.506	256.514	-34.289	190.402	0.00023805	0.0016654	0.00027253	940.69	1.8774e-05	2.1772e-05	910.61	258.29	3.9403e-05	2.0674e-05	272.05	87.877	87.567	37.33	1.0365e-05	39.797	0.036705	0.060866	0.017614	1522.4	0.0006578	0.00068744	1033.4	318.27	0.00061253	0.00069735	377.82	115.13	113.37	46.712	0.00065527	53.756	104.231	32.635	108.458	-59.408	106.137	145.326	-60.670	-54.163	240.623	175.700	-57.155	-52.349	-50.250	-44.863	70.479	-48.758	-8191	255	
1032.388	1	1	0	0	0.30213	0.084219	0.12108	0.058757	0.13332	0.35387	0.22053	0.1575	0.081194	0.095535	0.10371	0.17773	0.14418	0.06133	0.064093	0.35302	-2.8042	-3.7229	-3.225	-3.3021	-3.8229	-3.175	-3.6229	-3.55	-3.1958	-3.8104	-3.4208	-3.3729	-3.7062	-3.0563	-3.4146	-3.4208	122.585	283.774	18.353	101.916	139.563	273.654	75.713	212.150	216.256	231.146	62.199	138.926	245.156	-15.307	268.958	274.994	0.0003393	0.0024105	0.00054866	933.63	9.9376e-06	1.4224e-05	911.13	261.93	1.1198e-05	1.1448e-05	272.59	87.03	87.822	36.54	2.4516e-05	38.378	0.038583	0.064258	0.018803	1567.6	0.00069572	0.0007223	1044.8	321.85	0.00063554	0.00071337	379.65	114.39	113.18	46.161	0.00064067	52.473	182.008	21.559	184.517	-59.081	-9.988	-43.171	-60.786	-54.279	-6.413	155.069	-56.731	-52.553	-50.313	-44.670	183.786	-48.935	-8191	255	
1032.484	1	1	0	0	0.082906	0.22554	0.077937	0.1394	0.2024	0.23734	0.21239	0.09476	0.13895	0.216	0.15794	0.095078	0.18118	0.1017	0.025781	0.020853	-2.6229	-3.4896	-3.4208	-3.2646	-3.7875	-3.3896	-3.4417	-3.6333	-3.0771	-3.5333	-3.4396	-3.1562	-3.7125	-3.2396	-3.3937	-3.6854	63.223	202.574	-66.456	277.602	193.893	89.586	176.033	167.805	63.596	267.621	171.783	124.475	181.460	-67.115	230.841	169.386	0.00055853	0.0015277	0.00041129	935.59	5.9077e-06	2.2799e-05	908.93	259.27	2.1663e-05	9.5997e-06	271.49	86.183	86.688	36.812	1.0126e-05	38.65	0.037227	0.062347	0.017978	1548.1	0.00067036	0.00070011	1036.3	318.51	0.00062112	0.00069303	375.98	113.25	111.64	45.535	0.000626	52.039	-71.525	66.125	202.417	-58.738	171.557	94.044	-60.428	-54.350	17.860	229.636	-57.774	-52.522	-49.839	-44.812	161.118	-48.730	-8191	255	
1032.605	1	1	0	0	0.10648	0.11427	0.0085383	0.065406	0.17096	0.06329	0.19006	0.11474	0.39936	0.15906	0.26993	0.13687	0.014293	0.12841	0.1043	0.20618	-2.775	-3.3021	-3.3937	-3.1271	-3.8312	-3.3208	-3.5833	-3.7354	-3.3625	-3.5646	-3.5167	-3.35	-3.5708	-3.375	-3.1604	-3.7083	-39.162	267.545	-30.277	-23.299	57.350	119.880	230.587	81.007	13.193	259.566	235.710	165.531	94.542	221.245	164.300	-60.806	0.00025565	0.0022632	0.00021364	941.39	2.2332e-05	1.3356e-05	921.03	265.75	5.0116e-05	2.5954e-05	276.38	88.399	88.828	36.654	1.8334e-05	38.659	0.036359	0.061556	0.017735	1547.2	0.00066775	0.00070726	1048.7	323.96	0.00062692	0.0007054	384.39	115.75	114.61	46.141	0.00063765	52.315	-65.041	-60.284	245.952	-58.527	142.600	-3.299	-60.362	-54.388	84.942	13.525	-56.820	-52.690	-49.996	-45.103	248.299	-48.838	-8191	255	
1032.699	1	1	0	0	0.051085	0.1625	0.11523	0.1482	0.069054	0.13956	0.073469	0.092364	0.24577	0.082399	0.052244	0.22167	0.085586	0.13166	0.067198	0.15437	-2.5917	-3.6125	-3.5333	-3.0417	-3.5438	-3.4917	-3.4375	-3.7354	-3.4813	-3.5146	-3.7521	-3.3875	-3.7687	-3.4771	-3.1521	-3.8688	277.669	47.029	240.114	-4.600	91.383	10.069	242.231	92.974	-7.605	36.472	-68.216	226.373	101.278	214.488	40.376	5.230	0.00038549	0.00095701	0.00051313	938	1.2534e-05	4.8942e-06	935.47	270.17	1.0862e-05	1.5843e-05	282.81	89.684	91.954	37.171	5.9647e-06	39.439	0.036614	0.06156	0.017461	1559.5	0.00065941	0.00069869	1058.7	326.7	0.00063107	0.00070613	390.1	118.48	117.38	46.61	0.00064444	53.122	283.378	141.406	80.158	-58.553	148.439	139.120	-60.182	-54.025	68.723	21.847	-56.959	-52.950	-50.226	-44.855	46.303	-49.353	-8191	255	
1032.797	1	1	0	0	0.11946	0.15054	0.018017	0.097458	0.26597	0.06176	0.15937	0.22541	0.12193	0.22095	0.13446	0.24003	0.089015	0.2592	0.12872	0.21212	-2.7542	-3.4479	-3.4854	-3.1583	-3.5938	-3.5938	-3.1208	-3.775	-3.3229	-3.3667	-3.7042	-3.3	-3.6771	-3.6271	-3.1208	-3.7458	81.307	-48.352	94.528	101.959	101.279	161.807	197.302	221.364	4.284	253.042	180.269	-65.445	251.103	-54.075	-34.314	60.100	0.00032318	0.0018922	0.00070749	951.71	2.144e-05	3.5266e-05	937.91	270.91	2.3298e-05	8.5761e-06	283.28	92.23	92.87	37.29	9.0386e-06	38.831	0.037471	0.062777	0.017806	1590.1	0.00067858	0.0007203	1067.5	331.14	0.00064447	0.0007376	395.55	121.1	120.27	47.116	0.00068553	53.497	279.117	86.382	-7.267	-59.566	-54.137	64.336	-60.865	-54.449	22.002	229.545	-57.120	-53.057	-50.653	-45.272	5.586	-48.989	-8191	255	
1032.891	1	1	0	0	0.22003	0.077061	0.1934	0.1073	0.17769	0.26297	0.22379	0.20249	0.16552	0.088122	0.26798	0.26227	0.19569	0.057478	0.054559	0.082788	-2.975	-3.3083	-3.5625	-3.1208	-3.675	-3.7125	-3.4729	-3.8063	-3.3937	-3.3625	-3.8187	-3.2729	-3.675	-3.7062	-3.0854	-3.6813	247.878	123.298	26.166	261.027	259.549	169.892	169.328	258.866	-67.474	116.851	284.506	-72.381	-63.221	57.200	69.924	168.422	0.00038887	0.0007195	0.00032111	947.79	2.1381e-05	7.0342e-06	934.72	271.89	1.0783e-05	2.0595e-05	280.59	92.696	92.961	36.918	2.3266e-05	38.784	0.039576	0.066249	0.018492	1611.5	0.00070573	0.00074369	1070.3	334.59	0.00066584	0.0007422	394.56	120.91	120.49	46.705	0.00068773	53.134	-17.392	23.482	-50.798	-59.124	169.538	98.109	-60.646	-54.397	-6.077	-50.132	-57.383	-52.922	-50.427	-45.447	101.348	-49.555	-8191	255	
1032.987	1	1	0	0	0.20978	0.1671	0.1306	0.067208	0.32158	0.084487	0.20263	0.18124	0.040115	0.182	0.1336	0.30515	0.172	0.12254	0.28175	0.065366	-3.0729	-3.2125	-3.7667	-3.2417	-3.5167	-3.5687	-3.3833	-3.8167	-3.3667	-3.3917	-3.6417	-3.3937	-3.6437	-3.7604	-3.1437	-3.6667	40.227	204.755	167.846	257.334	198.415	175.790	279.399	-67.991	40.450	133.136	179.872	-67.965	210.908	177.157	202.268	203.165	0.00031963	0.0022114	0.00024586	968.98	2.8012e-05	9.901e-06	944.3	277.85	4.936e-05	2.2799e-05	285.52	92.764	93.624	37.012	2.6306e-05	38.414	0.039484	0.066085	0.018615	1632	0.00071729	0.0007507	1081.8	339.35	0.00067017	0.00075633	400.76	122.18	121.64	46.975	0.0007062	53.554	-12.800	5.748	73.212	-60.188	-38.594	19.174	-60.338	-54.460	1.173	-24.661	-57.155	-53.267	-50.431	-45.608	172.132	-49.039	-8191	255	
1033.084	1	1	0	0	0.19342	0.10456	0.10518	0.45959	0.11758	0.20204	0.12396	0.15783	0.08529	0.082362	0.16658	0.10571	0.25979	0.22537	0.11914	0.12368	-3.0375	-3.15	-3.7146	-3.375	-3.2583	-3.6625	-3.3979	-3.6729	-3.4625	-3.2021	-3.8563	-3.3667	-3.3292	-3.6917	-3.1562	-3.7396	96.907	79.219	34.984	-72.149	267.106	206.191	20.110	282.809	234.027	88.151	249.782	-6.421	270.508	9.382	257.538	227.407	0.00031189	0.0017198	0.00037133	976.7	7.1906e-06	3.112e-05	953.51	279.69	2.8424e-05	2.945e-05	287.75	94.492	96.237	37.575	1.0143e-05	39.398	0.03989	0.066884	0.018765	1643.7	0.00072308	0.00075491	1091.5	342.57	0.0006734	0.00077106	407.21	124.56	124.04	47.745	0.00071348	54.668	162.074	179.230	83.352	-59.574	177.512	138.210	-60.875	-54.373	147.296	202.974	-57.486	-53.652	-50.673	-45.305	176.699	-49.213	-8191	255	
1033.204	1	1	0	0	0.033003	0.1581	0.21231	0.11511	0.23686	0.10424	0.057955	0.23652	0.28477	0.017449	0.10525	0.15928	0.16059	0.27036	0.040234	0.14921	-3.2625	-3.1896	-3.775	-3.4	-3.475	-3.85	-3.5292	-3.7146	-3.2771	-3.2146	-3.7083	-3.5	-3.4646	-3.8688	-3.1688	-3.5333	-43.780	214.303	-64.425	79.796	-32.450	35.802	-68.478	249.592	47.928	-7.727	-23.412	112.769	-53.669	204.827	143.067	-66.842	0.0003133	0.00096518	0.00052047	984.81	1.0728e-05	7.3078e-06	962.06	281.78	2.8874e-05	2.135e-05	290.48	95.157	96.506	37.634	9.844e-06	39.273	0.040881	0.068607	0.019127	1680.4	0.00073808	0.00076867	1105	346.48	0.00067025	0.00078176	410.53	125.18	124.52	47.672	0.00071397	54.337	-22.614	166.932	-65.706	-59.586	279.747	194.321	-60.806	-54.100	9.288	4.885	-57.257	-53.362	-50.555	-45.337	208.466	-48.989	-8191	255	
1033.300	1	1	0	0	0.16875	0.23281	0.11533	0.16965	0.28258	0.19453	0.25845	0.26186	0.16166	0.1275	0.13263	0.019727	0.090706	0.15414	0.068537	0.23228	-3.1188	-3.1688	-3.5875	-3.6167	-3.225	-3.5646	-3.3333	-3.55	-3.7271	-3.2229	-3.5667	-3.4042	-3.2354	-3.875	-3.4437	-3.3771	17.398	35.247	281.968	-15.490	71.315	-39.923	192.827	-48.716	112.898	171.008	-37.254	23.352	249.608	-14.179	67.440	251.446	0.00081459	0.0038094	0.00014811	978.91	9.4084e-06	1.7656e-05	961.04	280.19	1.437e-05	3.1644e-05	290.19	94.033	93.868	37.047	3.4077e-05	38.703	0.040372	0.067263	0.018947	1655.6	0.00072103	0.00074726	1093.7	343.03	0.00064712	0.00075982	401.27	122.12	120.95	46.535	0.00067427	52.892	225.145	252.713	209.619	-60.351	162.829	199.696	-61.011	-54.106	166.346	36.057	-57.456	-53.598	-50.632	-44.973	139.540	-48.664	-8191	255	
1033.372	1	1	0	0	0.062748	0.10642	0.011676	0.10107	0.19962	0.15698	0.20022	0.17007	0.1399	0.12787	0.17551	0.060625	0.067628	0.10325	0.18692	0.26825	-3.2104	-3.2313	-3.5104	-3.3854	-3.2042	-3.6125	-3.3771	-3.3708	-3.7521	-3.1292	-3.6875	-3.6792	-3.1688	-3.6729	-3.4208	-3.4188	144.862	132.537	217.658	241.255	-71.978	45.204	264.124	-63.545	-54.632	77.661	-63.233	-67.539	133.230	-58.780	7.748	184.066	3.0411e-05	0.0025616	0.00042873	997.26	3.864e-05	2.9062e-05	963.98	282.03	3.7572e-05	2.1598e-05	291.03	94.543	96.355	37.053	2.427e-05	39.169	0.038055	0.063923	0.018047	1621.8	0.00069455	0.00072346	1093.7	341.96	0.00063534	0.00074411	405.03	123.09	122.6	47.008	0.00070472	54.061	-68.010	70.182	9.568	-59.615	222.354	153.250	-60.729	-54.260	107.015	43.101	-56.987	-53.395	-50.715	-44.817	120.785	-49.091	-8191	255	
1033.468	1	1	0	0	0.076369	0.14793	0.044478	0.086723	0.17838	0.1926	0.12082	0.064396	0.18118	0.26302	0.21332	0.21198	0.075608	0.18223	0.18421	0.18566	-3.2625	-3.2083	-3.575	-3.6708	-3.1125	-3.7729	-3.5333	-3.2708	-3.6771	-3.2604	-3.5104	-3.775	-3.1667	-3.6521	-3.5521	-3.2771	-21.745	-68.052	-53.628	138.181	-7.546	-11.360	234.221	29.153	11.630	131.395	238.693	203.062	32.839	-34.085	6.889	230.981	0.00010474	0.001929	0.00043145	1006.5	3.8534e-05	2.1435e-05	976.03	286.45	3.2932e-05	2.1353e-05	295.29	96.142	96.491	37.871	2.0577e-05	39.222	0.040228	0.067783	0.019264	1671.3	0.00074785	0.00077607	1120.3	351.05	0.00067046	0.00079553	415.33	125.83	124.67	47.741	0.00071103	54.596	73.072	72.800	83.553	-59.684	250.044	70.722	-60.596	-54.477	261.777	89.101	-57.446	-53.089	-50.365	-45.455	-33.273	-49.390	-8191	255	
1033.589	1	1	0	0	0.24953	0.079952	0.23287	0.18566	0.15087	0.069851	0.071118	0.10064	0.12226	0.10147	0.13522	0.082556	0.17912	0.12849	0.12182	0.19287	-3.2313	-3.2292	-3.3688	-3.6	-3.3438	-3.8354	-3.5375	-3.5229	-3.7958	-3.4458	-3.4729	-3.6958	-3.0896	-3.7646	-3.6604	-3.3792	-53.333	154.635	18.535	-38.826	95.632	23.635	147.353	258.969	126.467	123.743	230.481	263.206	-49.375	-44.912	8.806	199.332	0.00061294	0.00048549	0.00045465	1012.9	1.9123e-05	1.5661e-05	983.32	290.16	1.2373e-05	2.0814e-05	299.05	96.212	96.916	37.763	2.3066e-05	39.458	0.040166	0.067884	0.019242	1677.1	0.00074916	0.00076861	1127	353.05	0.00066708	0.0007861	416.7	125.82	124.64	47.764	0.00070581	54.752	-58.836	-32.341	28.884	-59.503	283.220	-3.770	-60.570	-54.530	250.207	103.583	-56.805	-53.727	-50.767	-45.213	142.953	-48.906	-8191	255	
1033.685	1	1	0	0	0.36456	0.05625	0.034134	0.16554	0.22585	0.19127	0.16209	0.030881	0.13266	0.081878	0.18219	0.33536	0.14715	0.078132	0.17019	0.12115	-3.4042	-3.3229	-3.3125	-3.7292	-3.2042	-3.625	-3.6292	-3.2917	-3.5687	-3.4875	-3.275	-3.6917	-3.3312	-3.6229	-3.5479	-3.1417	285.337	245.847	264.235	-6.772	210.927	270.468	143.312	259.996	234.537	194.422	-24.695	250.289	214.235	-28.106	185.300	127.373	0.00044797	0.001982	0.00024719	1014	5.6969e-06	1.6565e-05	978.28	287.12	2.3875e-05	2.5484e-05	297.89	94.994	96.609	37.557	8.5778e-06	38.62	0.040667	0.068598	0.019382	1677.1	0.00075546	0.00078725	1120	353.84	0.00068563	0.00080948	418.78	126.3	125.43	47.975	0.00071625	54.722	278.533	110.751	169.478	-59.143	210.143	67.313	-60.776	-54.365	41.098	71.476	-57.371	-53.443	-50.633	-44.478	65.633	-49.244	-8191	255	
1033.779	1	1	0	0	0.054504	0.13468	0.11575	0.10038	0.19653	0.10312	0.19874	0.20056	0.16945	0.11621	0.18192	0.13142	0.16876	0.38252	0.16673	0.26303	-3.1917	-3.4521	-3.1833	-3.5875	-3.3937	-3.6333	-3.6625	-3.3417	-3.5375	-3.4	-3.2438	-3.6562	-3.2208	-3.5938	-3.7833	-3.1188	94.552	107.624	-61.291	81.957	258.298	-62.215	217.666	263.385	94.896	237.443	-69.540	-16.332	286.081	-62.563	133.236	223.608	0.00030984	0.0033426	0.0002365	996.06	3.8627e-05	2.8704e-05	977.12	288.14	2.854e-06	2.1353e-05	295.8	95.199	96.999	37.846	1.6084e-05	39.019	0.041462	0.069333	0.019579	1682	0.00077021	0.00079313	1123.5	354.15	0.00068436	0.00080457	416.88	126.1	125.77	48.074	0.00071332	55.165	171.009	-8.813	43.055	-59.503	-22.128	134.714	-60.739	-54.501	-9.860	90.843	-57.321	-53.587	-50.738	-45.048	62.943	-49.194	-8191	255	
1033.877	1	1	0	0	0.13297	0.20213	0.062672	0.12434	0.13907	0.1617	0.24392	0.20157	0.18277	0.27697	0.10311	0.28539	0.092147	0.033599	0.36333	0.19585	-3.3542	-3.5396	-3.1604	-3.7229	-3.2771	-3.4229	-3.775	-3.15	-3.3583	-3.4292	-3.2771	-3.8167	-3.4208	-3.4313	-3.5854	-3.2729	62.869	87.104	124.365	234.277	80.365	222.362	175.667	102.985	61.289	40.078	40.861	262.066	179.444	123.642	102.790	42.665	0.00032938	0.00094493	0.00040205	1017.3	2.8331e-05	1.8981e-05	987.63	290.03	1.7628e-05	4.0351e-05	300.84	97.64	97.891	38.294	1.564e-05	39.626	0.041427	0.069837	0.019573	1691.3	0.0007655	0.00078906	1128.8	355.48	0.00068403	0.00079433	421.81	127.62	126.87	48.466	0.00071113	55.819	-8.468	116.680	-62.346	-59.076	162.797	53.331	-60.651	-54.511	-46.001	39.447	-57.994	-53.711	-50.970	-45.363	-30.633	-49.012	-8191	255	
1033.972	1	1	0	0	0.11554	0.20553	0.13579	0.11482	0.11954	0.21523	0.02612	0.13695	0.12741	0.13258	0.12911	0.051782	0.19201	0.09905	0.1101	0.13435	-3.1813	-3.7042	-3.2687	-3.8083	-3.3375	-3.4104	-3.7958	-3.1667	-3.5042	-3.4958	-3.2708	-3.8688	-3.5458	-3.4875	-3.7375	-3.3146	261.770	47.938	95.514	220.250	116.714	156.702	124.349	256.496	171.180	212.867	86.200	93.646	20.019	158.570	-51.719	-33.842	0.00050798	0.0014254	0.00091684	1028.9	1.7372e-05	1.0767e-05	991.7	296.2	1.6562e-05	1.6374e-05	305.47	97.41	98.871	38.25	2.7933e-05	39.472	0.041613	0.069658	0.0198	1702.3	0.00077926	0.00079546	1140.3	361.22	0.00068703	0.00078856	426.82	128.49	127.35	48.412	0.00070773	55.621	-67.602	-62.373	100.271	-59.856	-59.059	50.751	-60.992	-54.310	80.282	128.061	-57.010	-53.045	-50.881	-44.933	2.232	-49.652	-8191	255	
1034.068	1	1	0	0	0.18434	0.17735	0.30691	0.16508	0.19654	0.26762	0.08236	0.061242	0.21598	0.21506	0.19784	0.079062	0.19628	0.30833	0.12279	0.079748	-3.0854	-3.5667	-3.1646	-3.675	-3.4271	-3.2854	-3.7938	-3.2958	-3.4333	-3.5458	-3.2521	-3.6146	-3.6104	-3.3688	-3.7479	-3.575	221.546	255.278	9.764	128.979	155.617	126.724	240.535	22.146	238.954	-67.879	-28.768	96.561	199.939	141.928	267.573	68.291	0.00053997	0.0020252	0.00023328	1013.2	7.6352e-06	2.5845e-05	983.33	291.76	2.2871e-05	1.3965e-05	299.89	96.722	96.486	37.97	1.4073e-05	39.213	0.04129	0.069089	0.019467	1688.5	0.00076251	0.00078202	1121.5	356.89	0.00068009	0.0007762	421.62	126.55	125.13	47.853	0.00069934	54.707	-61.633	98.948	171.179	-59.658	79.422	286.526	-61.137	-54.457	155.976	112.283	-57.488	-53.244	-50.858	-45.479	-71.440	-48.654	-8191	255	
1034.164	1	1	0	0	0.14424	0.33394	0.085469	0.047183	0.17345	0.12407	0.019215	0.27029	0.273	0.062903	0.13311	0.064577	0.02761	0.1919	0.14561	0.23878	-2.9188	-3.5625	-3.0604	-3.575	-3.4938	-3.2083	-3.6792	-3.3312	-3.4667	-3.875	-3.0271	-3.6021	-3.7208	-3.2375	-3.6521	-3.4208	-62.181	50.765	92.110	-11.999	225.616	246.605	-48.951	262.642	273.278	264.631	174.805	162.621	6.388	251.310	255.569	185.572	0.0002855	0.0017611	0.00028631	1000.9	2.8375e-05	6.3988e-06	974.77	291.63	8.4958e-06	2.9766e-05	300.03	96.196	97.299	37.878	9.552e-06	39	0.040475	0.067354	0.019017	1660.6	0.00073068	0.00076624	1116	353.59	0.0006644	0.0007579	417.63	125.18	124.05	47.431	0.00067909	54.396	-48.376	264.664	275.151	-59.709	28.021	90.403	-60.500	-54.470	48.981	160.838	-56.860	-53.222	-50.397	-44.533	214.971	-48.752	-8191	255	
1034.285	1	1	0	0	0.11857	0.15566	0.088595	0.18767	0.17664	0.21996	0.1619	0.1616	0.15178	0.16565	0.13222	0.16622	0.18074	0.2079	0.14728	0.080693	-2.8583	-3.6625	-3.1771	-3.5458	-3.6937	-3.0917	-3.7229	-3.4021	-3.2604	-3.7417	-3.2896	-3.3812	-3.6833	-3.1396	-3.8042	-3.5104	14.037	63.429	140.008	244.204	62.851	53.405	283.119	-32.957	93.730	-14.680	-33.077	-18.402	161.630	272.070	28.433	-2.310	0.00021581	0.00049184	0.000234	1002.7	3.3415e-05	2.5116e-05	983.52	291.47	2.0503e-05	1.095e-05	299.29	95.982	96.385	37.89	2.2777e-05	39.532	0.039078	0.065477	0.018462	1639.1	0.00069434	0.00074112	1112.2	351.06	0.00062774	0.00071893	411.22	122.81	121.41	46.822	0.00063743	53.246	-49.027	77.551	110.335	-59.355	277.744	-31.384	-60.772	-54.430	188.353	129.643	-56.763	-52.829	-50.684	-44.588	106.926	-48.867	-8191	255	
1034.381	1	1	0	0	0.22972	0.15502	0.1597	0.22013	0.068345	0.1276	0.11838	0.088774	0.24462	0.16098	0.23817	0.19558	0.083406	0.12035	0.18628	0.11173	-2.8458	-3.6208	-3.2729	-3.4062	-3.6417	-3.3125	-3.7896	-3.7604	-3.3	-3.7667	-3.2833	-3.3604	-3.7854	-3.2354	-3.6146	-3.55	125.255	72.993	64.661	5.677	225.919	267.401	-21.991	-60.446	138.293	85.097	-50.582	250.087	-49.232	140.517	171.303	77.563	0.00017528	0.00067523	0.00027404	1004.8	3.1272e-05	5.7049e-06	996.77	294.3	2.0713e-05	3.2192e-05	299.88	95.39	94.502	37.675	1.5633e-05	39.597	0.036538	0.061037	0.017207	1592.1	0.0006543	0.00070364	1111.1	347.39	0.0005938	0.0006767	405.12	120.39	118.39	46.16	0.000607	52.352	-49.569	76.835	248.809	-58.976	128.581	53.870	-60.902	-54.295	213.397	39.796	-56.904	-52.699	-50.451	-44.245	-60.535	-48.687	-8191	255	
1034.477	1	1	0	0	0.35673	0.16294	0.15421	0.21371	0.027941	0.076548	0.1756	0.26648	0.067413	0.20552	0.24318	0.09869	0.17617	0.26507	0.058816	0.22234	-2.9292	-3.6917	-3.3375	-3.4458	-3.5208	-3.1688	-3.5812	-3.5979	-3.1667	-3.6521	-3.4229	-3.25	-3.7354	-3.35	-3.4229	-3.6125	70.428	135.987	-7.780	200.439	172.723	229.731	207.065	-11.612	255.159	144.391	202.921	239.317	-32.803	6.065	129.280	-39.214	0.0005689	0.0022243	9.6e-05	1005.9	2.115e-05	1.484e-05	986.28	289.23	1.3811e-05	6.1114e-06	293.34	91.957	92.914	37.292	3.6856e-05	38.878	0.035671	0.059033	0.016651	1571.9	0.00063121	0.00068124	1097.1	340.8	0.00057453	0.00066132	396.51	116.75	115.82	45.455	0.00059013	51.139	287.436	10.059	134.769	-59.429	208.244	33.285	-61.045	-54.148	200.693	96.583	-56.834	-52.732	-50.210	-44.673	112.998	-48.338	-8191	255	
1034.598	1	1	0	0	0.23844	0.11831	0.22042	0.12319	0.24349	0.22444	0.095689	0.36281	0.11384	0.051442	0.15412	0.31266	0.18158	0.1232	0.2322	0.25762	-2.775	-3.6667	-3.6396	-3.3312	-3.925	-3.2583	-3.5312	-3.8	-3.225	-3.6646	-3.3729	-3.2792	-3.7208	-3.375	-3.375	-3.6396	142.304	-20.754	190.671	187.086	216.853	209.010	267.372	184.021	99.841	162.593	24.099	201.111	-7.774	-43.480	92.863	111.071	0.00027226	0.0016273	0.00040858	996.07	5.0132e-06	2.2684e-05	983.08	291.19	9.5918e-06	2.5737e-05	297.35	91.755	92.345	37.371	1.1763e-05	39.167	0.03487	0.057338	0.016113	1543.9	0.00061522	0.00066453	1086	338.82	0.00055945	0.00064387	392.48	115.59	114.85	45.085	0.00057802	50.858	113.876	145.356	198.949	-59.308	89.195	69.654	-60.708	-54.420	182.999	194.686	-57.266	-52.757	-49.980	-43.970	45.398	-48.918	-8191	255	
1034.669	1	1	0	0	0.069463	0.17182	0.16854	0.30169	0.25038	0.21559	0.22872	0.2817	0.27377	0.059093	0.047729	0.085675	0.26307	0.32902	0.093541	0.032658	-2.8125	-3.6625	-3.4292	-3.0854	-3.6917	-3.2083	-3.3729	-3.6208	-3.1083	-3.5896	-3.5167	-3.0938	-3.7021	-3.5104	-3.2625	-3.6937	3.350	136.170	243.457	285.558	-28.318	-35.203	242.306	222.963	45.255	-7.188	161.115	176.040	221.812	9.648	108.916	-60.723	0.00055564	0.00090915	0.00059635	1017.7	2.4415e-05	1.1377e-05	987.97	289.8	2.6617e-05	7.5233e-06	295.8	92.764	92.776	37.469	3.4794e-05	39.224	0.034433	0.056034	0.015717	1545.5	0.00060506	0.00065574	1092.2	338.59	0.00056618	0.000651	393.2	117.63	115.94	45.573	0.00059177	51.575	-64.283	-71.315	146.957	-59.632	-12.375	50.368	-60.876	-54.248	50.751	48.108	-57.146	-52.606	-50.452	-44.753	85.807	-48.826	-8191	255	
1034.765	1	1	0	0	0.19146	0.025079	0.16696	0.1636	0.1106	0.23152	0.12787	0.21114	0.090931	0.096092	0.042572	0.1204	0.036835	0.36898	0.15452	0.15828	-2.65	-3.3812	-3.5396	-3.2833	-3.6188	-3.2771	-3.3875	-3.7146	-3.1604	-3.2458	-3.6146	-3.1312	-3.7562	-3.3792	-3.3792	-3.8083	145.253	25.036	75.032	262.798	265.763	26.031	157.607	197.450	-39.318	236.732	-21.499	15.345	250.092	190.513	285.490	-71.620	0.00032776	0.00102	0.0005377	1039.6	1.2424e-05	3.9175e-05	999.04	290.01	1.6748e-05	1.2229e-05	299.1	93.644	92.851	37.307	1.2282e-05	39.477	0.034961	0.057094	0.015976	1557.6	0.00061475	0.00066051	1097.6	339.59	0.00055785	0.00064074	393.15	117.77	115.95	45.445	0.00057214	51.367	-25.907	27.926	286.940	-59.295	109.209	35.235	-60.766	-54.097	152.469	195.632	-56.838	-53.079	-50.050	-44.577	195.542	-48.275	-8191	255	
1034.884	1	1	0	0	0.11616	0.12736	0.07975	0.11446	0.084387	0.050388	0.28477	0.38846	0.16097	0.25075	0.16173	0.16663	0.27018	0.35886	0.10072	0.18037	-2.8875	-3.35	-3.7375	-3.1896	-3.5187	-3.5771	-3.3896	-3.7125	-3.1562	-3.3187	-3.4729	-3.2229	-3.7562	-3.4729	-3.175	-3.7625	266.593	90.414	-2.349	-47.218	48.228	136.858	184.861	-56.111	185.436	-41.974	177.534	-61.162	282.934	220.468	100.966	218.664	0.00044757	0.0018324	0.00030101	1017.1	1.6648e-05	3.6983e-05	993.66	289.15	1.8475e-05	2.6498e-05	294.11	91.612	91.96	37.289	2.2744e-05	38.625	0.034151	0.055295	0.015368	1536	0.00058567	0.00062621	1087	334.11	0.00053431	0.00061175	383.13	115.33	113.23	44.655	0.00055131	50.27	271.122	16.849	26.285	-59.344	67.085	98.047	-60.622	-54.433	70.378	138.119	-57.163	-52.371	-49.896	-43.951	130.055	-48.378	-8191	255	
1034.980	1	1	0	0	0.23563	0.061846	0.1056	0.14525	0.10163	0.23195	0.20308	0.097209	0.21651	0.16245	0.12059	0.077252	0.13992	0.19337	0.17701	0.064481	-2.7542	-3.2854	-3.5938	-2.9333	-3.5312	-3.6	-3.5417	-3.7667	-3.2125	-3.2854	-3.7229	-3.1625	-3.5417	-3.5896	-3.1333	-3.6813	182.009	139.617	11.091	194.919	127.717	136.669	47.781	249.946	249.105	223.125	175.857	119.908	259.171	46.914	19.259	3.394	0.00051499	0.0018887	0.00040812	1008.8	1.3932e-05	1.1609e-05	980.48	286.71	1.3585e-05	1.5047e-05	294.29	91.419	92.521	37.288	2.1321e-05	38.82	0.032649	0.053234	0.014988	1512.2	0.00057451	0.00060215	1076.6	332.73	0.00052306	0.00060004	380.66	114.25	113.06	44.571	0.00054984	50.335	48.785	33.061	32.877	-58.814	11.361	84.614	-60.748	-54.312	183.344	73.770	-57.504	-52.533	-50.011	-44.261	204.075	-48.717	-8191	255	
1035.077	1	1	0	0	0.094587	0.27527	0.14029	0.1005	0.048909	0.10148	0.068781	0.15011	0.22651	0.094908	0.20357	0.18274	0.076311	0.10546	0.065304	0.10174	-2.9813	-3.2938	-3.6333	-3.275	-3.4188	-3.6562	-3.3958	-3.6146	-3.375	-3.2438	-3.8104	-3.3458	-3.5625	-3.6521	-3.0667	-3.5625	161.797	-8.907	258.490	155.158	-30.986	196.161	-34.792	251.286	84.061	145.113	182.936	276.760	-51.772	280.182	-25.043	-36.502	0.00091068	0.0012176	0.00020584	1010.6	1.429e-05	7.665e-06	990.66	290.02	9.5467e-06	3.2175e-06	294.89	92.644	92.66	37.366	2.3823e-05	39.593	0.032983	0.053677	0.015169	1520.1	0.00057665	0.00060507	1086.5	334.67	0.00052695	0.00060238	382.74	115.62	113.6	44.9	0.00054549	50.621	-23.399	41.930	8.546	-58.508	193.947	95.976	-60.730	-54.527	-34.738	-47.801	-57.196	-52.666	-50.164	-44.505	-36.575	-48.272	-8191	255	
1035.173	1	1	0	0	0.24075	0.12662	0.12186	0.19628	0.10446	0.11797	0.26544	0.28472	0.11096	0.117	0.15442	0.16585	0.17576	0.113	0.037802	0.054671	-3.0958	-3.2792	-3.6104	-3.4042	-3.3729	-3.5521	-3.3771	-3.5521	-3.5646	-3.1562	-3.4417	-3.3104	-3.4437	-3.7521	-3.3	-3.6854	-18.598	48.005	-43.620	189.381	100.847	267.241	243.109	283.153	53.556	-39.900	113.204	93.711	253.228	226.730	87.848	-43.367	0.00075397	0.0032805	0.00033796	1027.5	1.5212e-05	1.7843e-05	998.29	292.6	1.9806e-05	1.2531e-05	302.18	94.39	94.634	38.203	4.8813e-06	40.072	0.032136	0.052807	0.014879	1517.4	0.00056834	0.0005976	1093.9	336.36	0.00051974	0.00060157	388.02	117.16	115.1	45.497	0.00054646	51.213	-23.991	240.745	41.178	-59.672	33.538	161.286	-60.640	-54.205	158.626	66.552	-57.413	-52.726	-50.263	-44.459	217.506	-48.316	-8191	255	
1035.269	1	1	0	0	0.17756	0.13628	0.13615	0.053621	0.085144	0.030129	0.23067	0.26187	0.036752	0.20174	0.13426	0.04828	0.15186	0.041965	0.22332	0.093467	-3.1375	-3.0542	-3.7771	-3.4146	-3.3125	-3.7458	-3.3854	-3.6667	-3.7396	-3.2729	-3.9062	-3.3021	-3.2333	-3.6188	-3.25	-3.5667	136.398	149.207	163.485	41.384	51.480	137.774	253.668	198.803	112.351	21.570	127.943	267.112	-36.690	234.072	12.902	224.872	0.00022154	0.00072258	0.00060195	1015.5	2.3024e-05	2.4808e-05	996.3	292.74	2.952e-05	3.389e-05	299.18	94.318	94.444	38.027	1.2742e-05	39.445	0.031843	0.054303	0.01508	1520.7	0.00057168	0.00060361	1090.9	338.03	0.0005279	0.00060553	386.81	117.66	115.22	45.417	0.00055729	50.865	48.004	169.873	281.141	-59.357	135.293	77.973	-60.735	-54.316	129.304	263.804	-57.207	-52.556	-50.266	-44.388	287.597	-48.139	-8191	255	
1035.365	1	1	0	0	0.092915	0.17655	0.18244	0.19341	0.25508	0.29041	0.29789	0.10564	0.23699	0.043761	0.14801	0.26209	0.089433	0.078018	0.15866	0.069298	-3.3583	-2.9625	-3.5958	-3.3979	-3.2188	-3.7729	-3.3937	-3.5729	-3.6417	-3.2375	-3.5938	-3.5125	-3.2188	-3.7354	-3.2958	-3.4917	86.214	69.444	-65.654	83.306	188.793	61.611	199.976	83.462	194.110	-29.938	175.219	260.532	247.865	-24.283	34.596	116.348	0.00016873	0.0014275	0.0008026	1011.7	2.1371e-05	2.2437e-05	983.12	289.29	2.4842e-05	3.4319e-05	293.77	92.02	92.912	37.343	2.2172e-05	39.06	0.032064	0.054982	0.015138	1511.7	0.00057215	0.00060113	1080.8	333.67	0.00051748	0.00059733	380.47	114.31	113.48	44.747	0.00053894	50.078	-65.709	252.234	15.083	-58.891	167.238	171.473	-60.753	-54.368	157.435	10.075	-57.378	-53.069	-50.174	-44.287	79.954	-48.787	-8191	255	
1035.461	1	1	0	0	0.075237	0.17045	0.049938	0.027634	0.11886	0.13237	0.20071	0.30196	0.068402	0.074818	0.1143	0.21456	0.068208	0.23168	0.11518	0.15176	-3.2292	-3.2104	-3.5938	-3.5042	-3.0229	-3.5333	-3.2271	-3.6312	-3.6771	-3.3917	-3.6562	-3.6	-3.2938	-3.8167	-3.2771	-3.3438	223.573	117.916	61.530	17.147	139.436	92.537	201.863	226.547	133.207	130.060	255.613	265.949	-39.599	283.722	123.297	197.471	0.00015817	0.0013175	8.517e-05	1025.6	2.129e-05	5.0775e-06	991.98	288.91	1.1181e-05	1.344e-05	297.2	93.089	93.022	37.426	2.8106e-05	39.236	0.031181	0.054216	0.014805	1506.2	0.00056678	0.00059066	1085	333.27	0.00051905	0.00060019	382.62	114.78	114.56	44.949	0.00054943	50.574	206.023	-30.434	-27.895	-58.924	57.240	175.684	-60.892	-54.305	103.053	-14.877	-56.996	-53.199	-50.048	-44.489	-24.616	-48.506	-8191	255	
1035.557	1	1	0	0	0.0964	0.1735	0.23707	0.13169	0.22307	0.21698	0.072388	0.34778	0.11233	0.13883	0.22208	0.19286	0.31974	0.15396	0.31448	0.20425	-3.2625	-3.2562	-3.4271	-3.6875	-3.2979	-3.6354	-3.5333	-3.4813	-3.7729	-3.2812	-3.5563	-3.6437	-3.3375	-3.8229	-3.3875	-3.4646	137.907	163.898	186.973	200.386	-72.081	210.355	168.839	201.386	111.787	123.511	189.167	143.397	268.147	-58.394	3.921	114.893	0.00039296	0.00085753	2.2641e-05	1031.3	1.3612e-05	2.4724e-05	999.14	292.91	4.3014e-06	1.497e-05	300.13	92.267	92.543	37.504	1.2934e-05	39.647	0.031937	0.05524	0.015232	1531.9	0.00058882	0.00061644	1102.3	339.25	0.00053889	0.00062278	388.43	115.25	115.37	45.188	0.00056095	50.965	259.309	-54.682	49.100	-58.799	101.828	215.419	-60.564	-54.232	182.040	116.505	-56.792	-52.178	-49.833	-44.375	-7.030	-48.136	-8191	255	
1035.676	1	1	0	0	0.19827	0.1299	0.04629	0.28075	0.085798	0.050588	0.27925	0.015492	0.18087	0.11681	0.27217	0.24596	0.16684	0.25474	0.23706	0.19736	-3.3354	-3.4333	-3.375	-3.6625	-3.1521	-3.6188	-3.7083	-3.3583	-3.8625	-3.3979	-3.4354	-3.8917	-3.2875	-3.7396	-3.3083	-3.4875	120.852	74.971	29.548	110.621	176.715	-25.774	223.638	-11.179	-8.497	221.020	-25.206	-32.046	-36.648	267.682	221.235	226.796	0.00041997	0.0022339	0.0003808	1025	1.3396e-05	1.154e-05	1004.9	291.58	5.3429e-06	1.0911e-05	298.05	93.352	94.236	37.534	2.9438e-05	38.728	0.032886	0.057098	0.015602	1553.1	0.00059987	0.0006349	1107.1	340.72	0.00056114	0.00064727	393.44	117.29	117.66	45.593	0.00058826	51.455	65.030	265.301	219.211	-59.132	-6.040	45.357	-60.730	-53.924	75.553	86.216	-57.477	-52.889	-50.322	-44.718	117.691	-48.296	-8191	255	
1035.772	1	1	0	0	0.1508	0.077224	0.10148	0.080618	0.12577	0.37973	0.14849	0.24721	0.13867	0.24354	0.12516	0.17644	0.057086	0.085815	0.20473	0.091235	-3.5208	-3.3583	-3.4208	-3.6063	-3.3229	-3.6063	-3.7333	-3.2625	-3.8	-3.2625	-3.6083	-3.7771	-3.2521	-3.6896	-3.6875	-3.3	270.203	79.125	20.649	145.203	259.898	-43.085	255.910	271.754	-60.297	17.452	230.530	281.176	-22.102	268.077	210.997	245.861	0.00036927	0.0006939	0.00025936	1016.3	3.6064e-05	1.2704e-05	994.42	291.68	4.0321e-05	4.4274e-05	295.7	94.366	95.251	37.295	2.7756e-05	38.746	0.034434	0.059069	0.016364	1576.9	0.00063214	0.00066463	1102.4	345.59	0.00058701	0.00067285	395.34	119.21	119.83	45.916	0.0006113	51.86	247.241	-31.097	174.420	-59.483	22.561	54.866	-60.700	-54.056	55.908	146.170	-57.267	-52.928	-50.228	-44.519	-13.057	-48.928	-8191	255	
1035.868	1	1	0	0	0.14945	0.097631	0.17092	0.15716	0.038681	0.16393	0.21504	0.19001	0.2085	0.29881	0.14659	0.053755	0.10499	0.20564	0.061521	0.16159	-3.3021	-3.4562	-3.2521	-3.7354	-3.1792	-3.4125	-3.7062	-3.3729	-3.6167	-3.6354	-3.4146	-3.8292	-3.5167	-3.5417	-3.6354	-3.3479	1.103	-65.027	226.256	109.545	81.087	-21.148	234.058	204.025	-13.543	249.068	184.127	52.539	212.898	253.623	15.958	248.469	0.00032404	0.0024921	0.00022608	1029.2	1.0776e-05	2.1302e-05	993.54	292.48	1.8721e-05	1.1126e-05	299.56	94.305	95.661	37.669	1.1684e-05	38.996	0.035562	0.061362	0.016685	1593	0.00064001	0.00066586	1102.8	346.87	0.00058215	0.00066351	398.5	119.68	120.57	46.159	0.000612	52.156	268.642	-49.343	221.192	-59.220	-68.894	45.632	-60.800	-54.285	160.821	90.066	-57.017	-53.328	-50.387	-44.709	45.264	-48.526	-8191	255	
1035.965	1	1	0	0	0.20017	0.26166	0.13336	0.094572	0.073169	0.26723	0.14835	0.082182	0.19067	0.093195	0.17469	0.2282	0.27007	0.15218	0.16165	0.098089	-3.2542	-3.5042	-3.3563	-3.7521	-3.1708	-3.4521	-3.7625	-3.225	-3.5417	-3.5354	-3.3125	-3.8354	-3.5292	-3.5875	-3.7979	-3.4542	-35.043	-61.492	248.819	177.910	-7.354	161.319	119.049	-60.190	98.463	-71.464	-26.696	175.313	-21.658	246.804	83.897	174.163	0.00018029	0.0013294	0.00057506	1028.1	1.1443e-05	2.0064e-05	997.18	298.71	2.6209e-05	2.3748e-05	300.61	96.719	97.608	37.857	1.6601e-05	39.757	0.03565	0.060685	0.017054	1610.5	0.00064988	0.00068551	1113.7	352.08	0.00059431	0.00068107	404.07	121.79	121.81	46.607	0.00061755	52.666	217.312	261.236	-59.864	-59.289	37.624	42.438	-60.912	-54.315	72.189	209.413	-57.058	-53.168	-50.500	-44.695	78.122	-48.572	-8191	255	
1036.061	1	1	0	0	0.14818	0.06942	0.17234	0.24479	0.08276	0.19719	0.32448	0.23288	0.32285	0.20827	0.13251	0.12439	0.15042	0.11648	0.12471	0.34411	-2.9688	-3.3833	-3.2375	-3.7229	-3.1937	-3.4271	-3.9417	-3.3021	-3.4104	-3.7542	-3.3542	-3.8792	-3.5854	-3.4188	-3.7083	-3.2313	144.388	126.714	-35.236	258.021	117.045	68.089	207.715	-41.939	71.373	185.898	170.369	154.037	286.783	160.849	50.516	214.176	5.9848e-05	0.0015228	0.00022155	1037.2	1.1864e-05	9.7599e-06	1006.6	297.13	1.9636e-05	3.0551e-05	303.79	96.192	98.719	38.005	2.7052e-05	39.57	0.035838	0.060103	0.017372	1619.4	0.00065329	0.00069172	1125.3	353.68	0.00060621	0.00069959	408.64	122.91	123.97	47.093	0.00064754	53.095	13.400	-69.081	172.612	-59.492	79.968	-39.017	-60.888	-54.517	19.148	-68.732	-56.993	-53.264	-50.631	-44.906	164.790	-49.110	-8191	255	
1036.157	1	1	0	0	0.057392	0.01356	0.10026	0.26074	0.28141	0.10968	0.25086	0.25667	0.29145	0.20351	0.12999	0.22672	0.10438	0.19169	0.129	0.20412	-3.1375	-3.55	-3.1354	-3.8396	-3.4146	-3.3458	-3.8229	-3.4417	-3.4979	-3.7792	-3.3458	-3.7438	-3.6396	-3.2875	-3.7938	-3.4104	270.747	192.998	181.898	178.245	-48.709	-72.076	200.709	168.950	-40.660	10.581	-35.648	163.740	1.013	-7.684	117.598	2.566	0.00032108	0.0005168	0.00036897	1026.2	2.7849e-05	2.5316e-05	989.11	293.64	2.3728e-05	1.208e-05	297.94	95.076	97.321	37.675	1.3531e-05	38.6	0.037286	0.062474	0.018132	1636.8	0.00067524	0.00071524	1114.5	353.44	0.00062025	0.00071813	406.39	122.66	122.69	46.999	0.00065044	52.603	-17.336	6.329	177.863	-59.353	213.771	37.255	-60.857	-54.178	102.576	5.758	-57.210	-53.470	-50.687	-44.807	220.884	-48.966	-8191	255	
1036.278	1	1	0	0	0.19449	0.053229	0.23269	0.1344	0.22002	0.10595	0.061336	0.26079	0.039109	0.10758	0.17148	0.058407	0.10686	0.29209	0.026999	0.14302	-3.175	-3.7687	-3.1688	-3.5687	-3.5375	-3.2229	-3.7313	-3.5125	-3.3812	-3.7021	-3.2229	-3.5021	-3.6729	-3.225	-3.7042	-3.575	-36.417	99.141	266.758	78.510	230.545	280.723	162.327	239.667	197.458	225.259	178.187	163.007	-13.046	-22.888	35.871	264.722	0.00037087	0.0011927	0.00037935	1027.8	1.8733e-05	5.1516e-06	992.89	295.44	2.9536e-05	2.9975e-05	301.9	97.157	98.819	38.006	1.871e-05	39.15	0.037682	0.063684	0.018414	1639.4	0.00068321	0.00072461	1117.9	356.07	0.00063937	0.00074551	415.23	125.64	126.1	48.218	0.00068412	53.997	27.467	0.673	200.843	-59.272	-15.898	-2.900	-60.553	-54.502	141.554	169.180	-57.431	-53.508	-50.877	-45.108	-17.320	-49.270	-8191	255	
1036.374	1	1	0	0	0.21461	0.12235	0.29779	0.17787	0.18408	0.11852	0.13186	0.33855	0.11574	0.27304	0.12065	0.1166	0.26717	0.35305	0.14083	0.10774	-3.0062	-3.7083	-3.2562	-3.725	-3.7208	-3.125	-3.8229	-3.6646	-3.3646	-3.8187	-3.3479	-3.6771	-3.5292	-3.0833	-3.5875	-3.6146	112.447	-61.287	-55.818	262.568	-72.119	93.116	117.816	241.218	-23.394	174.852	173.890	18.144	-28.175	-70.450	-30.227	204.828	0.00070577	0.0010823	0.00057042	1031.2	3.0894e-05	2.2265e-05	995.44	296.09	2.4257e-05	1.8214e-05	299.34	98.347	98.961	38.16	2.4867e-05	39.689	0.039652	0.066542	0.019061	1672.9	0.0007176	0.00075488	1128.8	359.59	0.00065884	0.00076108	417.77	127.16	127.24	48.533	0.00069605	54.521	274.595	240.284	-68.961	-59.505	-43.731	63.829	-60.855	-54.197	248.715	81.877	-57.092	-53.672	-50.867	-45.470	47.146	-49.371	-8191	255	
1036.470	1	1	0	0	0.21815	0.11985	0.12881	0.10359	0.16725	0.046221	0.33071	0.20628	0.38587	0.26877	0.13254	0.15353	0.1835	0.18825	0.070459	0.10581	-2.8708	-3.6979	-3.2625	-3.4	-3.4917	-3.2313	-3.7375	-3.7396	-3.2354	-3.6562	-3.4708	-3.5521	-3.8604	-3.2417	-3.7417	-3.6646	282.550	-11.466	152.283	141.891	-12.646	-57.974	201.337	108.405	122.661	236.015	262.885	266.834	252.255	269.277	178.189	143.049	0.00061996	0.0021399	0.0006601	1037.1	2.3507e-05	8.5512e-06	1000.5	298.48	3.2399e-05	4.8817e-06	305.64	97.943	100.23	38.481	3.5115e-05	39.391	0.040462	0.06816	0.01964	1698.4	0.00073384	0.00076906	1143.5	361.83	0.00067074	0.00077007	420.56	127.56	127.86	48.708	0.00069449	54.665	-23.345	133.887	-10.574	-59.122	227.230	259.224	-61.116	-54.558	205.566	235.958	-57.642	-53.702	-50.988	-45.364	109.947	-49.288	-8191	255	
1036.566	1	1	0	0	0.089842	0.11056	0.059944	0.21113	0.10406	0.20075	0.13477	0.29241	0.21675	0.27497	0.46731	0.14307	0.11466	0.18892	0.11309	0.030495	-2.7938	-3.8125	-3.35	-3.4521	-3.8146	-3.2667	-3.6979	-3.7896	-3.2396	-3.6542	-3.6833	-3.4625	-3.5854	-3.3271	-3.3917	-3.6229	129.702	234.285	134.524	45.647	99.004	183.840	244.722	166.243	-56.171	59.403	202.804	276.295	12.977	274.011	-67.228	107.193	0.00080453	0.002305	0.0004195	1045.6	2.9903e-05	1.8107e-05	1001.7	299.1	5.0221e-05	1.2767e-05	303.98	98.96	101.03	38.164	3.4708e-05	39.21	0.040928	0.068929	0.019737	1710.4	0.00074899	0.0007843	1141.2	363.16	0.00070246	0.00078992	422.51	129.21	129.16	48.827	0.00070659	54.436	281.981	-43.151	-13.400	-59.295	-53.836	104.617	-61.017	-54.717	167.330	53.081	-57.717	-53.474	-51.031	-45.807	129.975	-49.431	-8191	255	
1036.662	1	1	0	0	0.16007	0.26628	0.11108	0.032978	0.16794	0.20764	0.2	0.2505	0.2071	0.10949	0.16021	0.14836	0.19127	0.10882	0.22947	0.049693	-3.0042	-3.8229	-3.4646	-3.2146	-3.7708	-3.2625	-3.4938	-3.7521	-3.0521	-3.6708	-3.6083	-3.3688	-3.7708	-3.2771	-3.5667	-3.7938	-13.722	133.139	126.823	136.269	-1.848	-71.615	39.214	236.244	287.367	-0.574	256.773	260.282	186.807	196.526	186.486	210.564	0.00029036	0.0025061	0.00072843	1023.6	3.1377e-05	3.3409e-06	1000.8	300.13	1.9726e-05	2.8438e-06	301.27	99.583	102.21	38.543	3.6603e-05	39.329	0.040899	0.067893	0.019425	1696.3	0.00073063	0.00076155	1138	360.78	0.00066959	0.00075532	417.24	128.32	128.26	48.4	0.0006725	53.702	-28.337	274.348	245.930	-59.250	30.776	-31.668	-60.905	-54.594	125.048	42.456	-57.799	-53.635	-51.057	-45.918	92.306	-49.513	-8191	255	
1036.758	1	1	0	0	0.22833	0.20981	0.089267	0.26173	0.14558	0.37633	0.1777	0.25559	0.16321	0.056421	0.059909	0.21693	0.081683	0.089379	0.088995	0.29454	-2.8583	-3.4813	-3.4542	-3.3104	-3.7458	-3.3292	-3.5333	-3.7979	-3.2167	-3.8208	-3.6813	-3.2958	-3.7562	-3.5104	-3.4271	-4.025	207.404	83.676	205.993	147.913	-3.268	222.211	277.989	197.091	55.726	41.956	101.064	244.207	-4.612	83.116	185.305	230.134	0.00026091	0.0023547	0.00033882	1063.8	8.0632e-06	2.9018e-05	1022.7	302.73	3.8235e-05	4.0154e-05	307.57	100.67	103.13	38.581	4.5154e-05	39.706	0.038998	0.064588	0.018307	1684.7	0.00068895	0.00071571	1142	359.96	0.00063672	0.00070819	413.86	126.96	127.18	47.636	0.0006329	53.042	-46.917	34.772	-32.375	-59.576	50.032	-32.551	-60.957	-54.778	231.519	237.987	-57.840	-54.020	-51.566	-46.157	173.918	-49.615	-8191	255	
1036.853	1	1	0	0	0.078327	0.12486	0.15925	0.051955	0.1555	0.23086	0.10343	0.2037	0.051516	0.21185	0.22016	0.087475	0.16674	0.12794	0.068323	0.083644	-2.8	-3.675	-3.5938	-3.2375	-3.575	-3.3625	-3.3854	-3.7854	-3.05	-3.6417	-3.8125	-3.2792	-3.8583	-3.6771	-3.3042	-3.825	82.716	87.519	276.116	183.629	-9.199	93.571	-54.981	269.268	135.899	218.157	199.789	264.118	-36.435	221.291	5.301	203.329	0.00018535	0.0017558	4.6861e-05	1077.2	1.6667e-05	2.8315e-05	1046.2	308.47	1.4442e-05	1.1715e-05	316.31	103.69	105.73	39.572	3.9959e-05	40.347	0.036616	0.06111	0.017308	1684.5	0.00066162	0.00068956	1155.6	362.52	0.0006105	0.00068723	419.97	129.46	129.38	48.511	0.00062703	53.522	127.051	12.809	70.533	-59.797	121.886	97.675	-61.124	-55.277	153.848	-13.452	-57.057	-54.409	-51.506	-46.505	142.491	-50.345	-8191	255	
1036.973	1	1	0	0	0.20661	0.27216	0.18048	0.26105	0.25127	0.095066	0.19974	0.098471	0.063032	0.080606	0.15105	0.16469	0.075217	0.16965	0.16538	0.1018	-2.9146	-3.575	-3.7229	-3.2125	-3.6	-3.6813	-3.3312	-3.8604	-3.4479	-3.5208	-3.6312	-3.2146	-3.6813	-3.6688	-3.2458	-3.7562	-18.565	217.276	-39.204	146.498	122.773	-14.994	213.390	189.784	149.067	-12.090	206.823	80.627	192.208	198.875	222.885	264.468	0.0006309	0.0012305	0.00014436	1090.4	1.2875e-05	2.3133e-05	1034.7	307.6	2.1728e-05	1.9608e-05	310.94	102.97	104.17	39.023	1.8829e-06	39.899	0.036119	0.06045	0.017102	1673.3	0.00064918	0.00068215	1146	360.14	0.00060834	0.00067816	411.13	127.47	127.39	47.602	0.00062144	52.762	-68.545	131.811	170.069	-59.337	165.912	38.952	-60.905	-54.961	214.070	97.442	-57.829	-53.988	-51.222	-46.630	-67.826	-49.984	-8191	255	
1037.069	1	1	0	0	0.20971	0.064228	0.16324	0.19295	0.032129	0.173	0.19298	0.30473	0.067908	0.10129	0.2639	0.13518	0.028865	0.31937	0.11895	0.047066	-2.8625	-3.4729	-3.7646	-3.2604	-3.65	-3.6188	-3.4271	-3.7979	-3.4167	-3.5542	-3.5625	-3.1958	-3.6937	-3.7417	-3.2542	-3.85	-58.617	7.568	-67.431	-35.456	98.246	184.796	177.536	281.450	-72.437	124.063	271.432	223.566	285.474	-64.388	-7.398	202.544	0.00016676	0.00038465	0.00031157	1080.8	2.2711e-05	2.1551e-05	1018.5	307.75	7.7254e-06	9.9475e-06	312.73	102.87	104.64	39.369	1.1433e-05	39.456	0.035858	0.060598	0.017319	1687	0.00066716	0.00070422	1144.4	363.33	0.0006278	0.00071828	420.4	129.45	129.85	48.44	0.00067062	53.4	246.928	4.934	195.129	-60.490	110.414	56.909	-61.021	-55.269	55.066	149.218	-57.389	-54.204	-51.824	-46.219	210.549	-50.164	-8191	255	
1037.141	1	1	0	0	0.075388	0.20659	0.015674	0.058066	0.095874	0.15852	0.060711	0.15567	0.068431	0.13289	0.1515	0.29451	0.26187	0.06739	0.17704	0.2871	-3.0604	-3.3021	-3.6146	-3.3896	-3.4938	-3.6833	-3.3646	-3.825	-3.4771	-3.5438	-3.8354	-3.3708	-3.6188	-3.5292	-3.3021	-3.5896	25.524	199.961	51.724	191.396	49.306	208.789	213.820	246.749	47.349	-59.460	185.360	-12.632	146.267	77.056	198.034	-38.190	0.00016507	0.0022189	0.00062215	1070.3	1.1421e-05	1.21e-05	1025.4	309.3	2.6674e-05	1.594e-05	314.03	104.09	105.94	39.468	2.4079e-05	39.574	0.037559	0.063767	0.017974	1686.4	0.00067937	0.00071648	1148.3	363.9	0.00063778	0.00071883	420.65	130.2	130.49	48.482	0.00065765	53.45	247.752	222.752	7.092	-59.699	232.190	178.948	-61.086	-54.525	215.511	148.112	-58.076	-54.605	-51.644	-46.899	-16.606	-50.812	-8191	255	
1037.237	1	1	0	0	0.08681	0.032112	0.094535	0.16921	0.12481	0.25499	0.12765	0.054414	0.096393	0.12351	0.025998	0.18192	0.10236	0.10521	0.067832	0.098399	-3.0875	-3.1125	-3.6854	-3.3771	-3.3063	-3.7146	-3.2729	-3.7229	-3.5021	-3.2208	-3.8292	-3.4542	-3.5104	-3.8854	-3.4208	-3.6229	157.714	38.991	191.434	4.367	90.842	196.584	72.814	167.792	20.777	33.985	263.600	223.556	-60.210	268.939	237.592	194.933	0.00085591	0.0017311	0.00057761	1067.8	2.6563e-05	2.8495e-05	1022.1	303.69	3.7526e-05	2.1121e-05	307.8	100.83	103.33	38.853	2.9269e-05	39.177	0.037658	0.063882	0.018112	1702.7	0.00068681	0.00072412	1140	360.61	0.00062779	0.00072857	417.88	128.73	129.32	48.382	0.00069605	53.848	-35.210	-26.320	65.645	-60.229	-12.631	-6.116	-61.100	-54.856	24.520	191.545	-58.301	-54.204	-51.000	-46.312	-18.757	-50.090	-8191	255	
1037.358	1	1	0	0	0.025298	0.12194	0.061427	0.088256	0.13974	0.074802	0.17098	0.28496	0.080392	0.28937	0.2604	0.17825	0.098712	0.11713	0.23786	0.11447	-3.2208	-3.0833	-3.7958	-3.4479	-3.425	-3.7833	-3.3896	-3.7083	-3.5167	-3.2729	-3.7938	-3.4208	-3.2979	-3.7188	-3.2771	-3.6167	73.050	27.504	-47.795	241.904	55.892	-32.083	286.248	196.859	-72.525	185.890	256.465	233.407	273.134	187.591	277.960	55.437	0.00029235	0.00098547	7.6562e-05	1080.3	8.8884e-06	2.705e-05	1006.4	301.17	2.9742e-05	1.4766e-05	306.45	99.582	102.62	38.437	2.3067e-05	38.257	0.039616	0.066721	0.018844	1722.2	0.00072175	0.00076439	1142.3	363.62	0.00067047	0.00079762	422.66	129.48	130.54	48.81	0.00072929	54.095	267.279	275.228	151.002	-59.845	-9.300	103.042	-61.034	-54.877	142.014	28.609	-58.083	-54.484	-51.410	-46.020	-10.521	-50.386	-8191	255	
1037.454	1	1	0	0	0.17105	0.16056	0.060197	0.032544	0.17594	0.075571	0.14145	0.10807	0.29365	0.30532	0.15165	0.1085	0.24072	0.20106	0.16629	0.072737	-3.2062	-3.1813	-3.6333	-3.5021	-3.1937	-3.6667	-3.2479	-3.6458	-3.7271	-3.3	-3.6979	-3.475	-3.3417	-3.7521	-3.3396	-3.5687	124.564	-58.626	148.952	-18.536	135.150	165.647	256.445	233.905	12.285	78.893	240.930	-19.473	-30.669	260.450	-19.559	-46.551	0.0004543	0.0019564	0.00043888	1035.4	4.1687e-05	2.1503e-05	988.71	297.93	3.0487e-05	1.9962e-05	296.45	97.054	100.2	37.867	6.904e-06	37.83	0.04219	0.071093	0.01983	1750.3	0.00076221	0.00079895	1130.6	363.9	0.00070041	0.0008172	421.68	128.43	130.41	48.713	0.00076107	54.282	47.922	-35.958	268.791	-60.103	267.687	38.636	-61.003	-54.641	213.796	72.838	-57.532	-53.769	-51.362	-46.558	113.886	-50.092	-8191	255	
1037.550	1	1	0	0	0.076652	0.092926	0.15105	0.14082	0.13852	0.046081	0.23302	0.19968	0.056671	0.26613	0.10792	0.16507	0.029884	0.22	0.15652	0.23451	-3.3208	-3.2167	-3.5458	-3.4875	-3.3063	-3.65	-3.4167	-3.3729	-3.6792	-3.2292	-3.625	-3.5417	-3.3958	-3.7625	-3.4208	-3.4333	275.819	219.075	147.655	157.096	137.679	230.624	246.347	39.347	237.711	101.063	146.500	227.949	245.946	279.985	158.207	-50.837	0.00041205	0.0023678	0.00070443	1034.3	1.0081e-05	2.0056e-05	978.72	296.08	1.5122e-05	2.0976e-05	294.7	95.648	98.986	37.636	2.2078e-05	37.543	0.043609	0.07306	0.020543	1760.5	0.00079419	0.00082414	1136	365.47	0.00072212	0.0008391	422.29	128.26	129.37	48.45	0.00075891	54.17	-49.786	148.572	32.489	-60.051	11.489	-44.728	-60.968	-54.858	-60.948	242.375	-57.795	-54.105	-51.251	-46.160	47.969	-50.300	-8191	255	
1037.646	1	1	0	0	0.33871	0.12716	0.23248	0.16901	0.076706	0.11588	0.21936	0.23522	0.1447	0.29094	0.16621	0.11285	0.23595	0.18463	0.2831	0.27614	-3.2167	-3.075	-3.4667	-3.6208	-3.1208	-3.625	-3.475	-3.4396	-3.7083	-3.2354	-3.5438	-3.7146	-3.2979	-3.6063	-3.5375	-3.4229	261.742	169.155	239.468	250.936	150.237	263.757	227.186	194.905	75.888	183.777	201.173	84.926	218.886	258.414	90.961	242.161	0.00052382	0.0015059	0.00014399	1027.2	1.9738e-05	1.8378e-05	980.01	296.36	1.5084e-05	5.3336e-05	295.71	95.737	99.252	37.554	1.8143e-05	37.7	0.043693	0.073872	0.020735	1766.8	0.00081576	0.00083855	1136	367.36	0.00073283	0.00084071	425.9	128.92	129.79	48.575	0.00077017	54.499	131.122	-2.347	103.292	-59.439	167.896	73.554	-60.590	-54.988	62.655	75.273	-57.729	-53.925	-51.242	-45.545	8.725	-49.927	-8191	255	
1037.767	1	1	0	0	0.098626	0.090488	0.14503	0.10253	0.12362	0.041151	0.16477	0.10585	0.25131	0.16259	0.082909	0.22705	0.32825	0.13953	0.080462	0.052434	-3.5667	-3.4021	-3.4583	-3.75	-3.5042	-3.7104	-3.5979	-3.3937	-3.8	-3.2854	-3.6188	-3.7875	-3.4146	-3.7042	-3.4833	-3.35	145.563	83.193	279.770	247.822	-50.874	-15.813	220.176	-55.209	284.718	-64.322	104.412	-32.013	192.472	-33.710	-69.194	-20.365	0.000173	0.0014005	0.00068735	1032.1	3.1646e-05	2.3644e-05	966.07	295.88	3.782e-05	8.1241e-06	294.94	96.574	98.947	37.748	3.3598e-05	36.961	0.043899	0.073394	0.020844	1762.3	0.00081511	0.00084424	1132.2	368.07	0.0007401	0.00086101	426.54	129.32	129.96	48.516	0.00075952	53.87	248.930	78.696	48.343	-59.805	122.346	-12.486	-61.107	-54.633	250.314	47.467	-57.241	-53.576	-51.477	-46.117	166.286	-49.830	-8191	255	
1037.839	1	1	0	0	0.22144	0.21073	0.18892	0.22645	0.17583	0.20644	0.23488	0.14366	0.015237	0.19116	0.14894	0.16025	0.098497	0.1824	0.20529	0.15727	-3.2729	-3.3667	-3.3438	-3.6792	-3.3958	-3.65	-3.6688	-3.0458	-3.7729	-3.4125	-3.2521	-3.8438	-3.2812	-3.6521	-3.7625	-3.2792	122.561	-32.432	284.745	133.348	245.895	84.515	-36.002	168.003	8.988	209.299	269.378	-7.286	-59.976	171.928	214.665	246.094	0.00037795	0.0011194	0.00058818	1010.6	2.3334e-05	2.6835e-05	956.45	291.2	2.0519e-05	2.09e-05	291.14	94.376	97.085	36.938	2.6439e-05	36.33	0.043376	0.072787	0.020509	1719.8	0.00079683	0.00081611	1107.4	360.95	0.00071284	0.00082295	415.54	125.58	126.15	47.422	0.00071962	52.548	-50.475	58.456	253.010	-59.736	117.669	235.197	-60.915	-54.430	110.256	129.772	-57.421	-53.962	-50.993	-45.363	12.858	-49.761	-8191	255	
1037.958	1	1	0	0	0.075249	0.11036	0.15458	0.11126	0.1802	0.066812	0.15733	0.25519	0.10941	0.24254	0.19895	0.24669	0.14753	0.15524	0.1171	0.14006	-3.375	-3.3771	-3.1458	-3.6479	-3.4667	-3.7313	-3.7792	-3.4375	-3.6271	-3.4625	-3.3792	-3.8417	-3.4646	-3.5687	-3.5854	-3.125	-27.825	179.799	229.955	169.324	78.181	202.115	-39.385	264.481	255.788	-69.675	-59.157	180.369	283.118	-16.071	136.289	88.983	0.00024933	0.0018402	0.00022929	990.49	2.9288e-05	7.3208e-06	940.16	292.9	3.9823e-05	1.337e-05	289.89	92.995	95.842	36.685	3.4045e-05	36.526	0.04073	0.06832	0.01921	1658.4	0.00073625	0.00076126	1083.4	353.25	0.0006577	0.00077696	404.65	121.83	123.16	46.571	0.00067502	51.272	33.502	24.342	8.501	-59.570	176.117	272.874	-60.941	-54.627	258.803	118.248	-57.569	-53.823	-50.699	-45.174	275.800	-49.075	-8191	255	
1038.054	1	1	0	0	0.135	0.27021	0.29453	0.050129	0.026487	0.046231	0.19161	0.4086	0.28413	0.25645	0.17904	0.1375	0.10717	0.009022	0.27821	0.29831	-3.2229	-3.3312	-3.3021	-3.8	-3.4292	-3.5958	-3.8875	-3.3292	-3.6708	-3.6979	-3.3958	-3.9625	-3.5417	-3.5521	-3.9021	-3.2438	20.095	89.718	107.860	234.829	249.670	59.825	184.746	210.436	-4.305	151.336	283.320	30.423	-6.464	74.446	-28.332	241.638	0.00054092	0.00035604	0.00052211	1000.8	5.7531e-06	4.9818e-06	946.72	291.78	7.4784e-06	1.1895e-05	291.27	92.266	95.392	37.046	1.8712e-05	36.924	0.038392	0.064476	0.018211	1609.2	0.00070279	0.00071959	1076.4	347.92	0.00062199	0.0007219	400.22	119.62	120.73	46.149	0.00064848	51.087	-21.759	-53.166	-21.840	-59.871	1.070	110.940	-60.748	-54.635	218.073	225.643	-57.506	-53.716	-50.457	-44.964	221.099	-49.045	-8191	255	
1038.150	1	1	0	0	0.24445	0.1376	0.12804	0.1591	0.2076	0.099531	0.22501	0.14655	0.22708	0.095108	0.28415	0.13073	0.062123	0.22744	0.13795	0.2162	-3.2708	-3.6312	-3.2687	-3.9854	-3.45	-3.3812	-3.8167	-3.4146	-3.65	-3.6333	-3.3104	-3.6667	-3.5896	-3.6042	-3.8729	-3.3604	158.503	97.665	125.790	-3.752	-15.382	12.864	116.860	238.843	144.419	108.787	74.812	163.844	224.028	249.012	269.511	164.353	0.00033512	0.0019205	0.0002528	1003.2	2.1626e-05	1.4444e-05	938.36	288.56	1.3255e-06	3.463e-05	285.65	90.603	93.916	36.51	7.0828e-06	36.517	0.037396	0.062481	0.017746	1599.2	0.00068284	0.00070622	1066.8	343.88	0.00060265	0.00069889	394.29	117.37	119.2	45.637	0.00063115	50.244	269.781	-47.807	-63.166	-59.770	127.078	235.229	-61.019	-54.894	-70.213	80.579	-57.411	-53.200	-50.763	-44.881	63.258	-49.380	-8191	255	
1038.246	1	1	0	0	0.30251	0.036199	0.22389	0.031454	0.18076	0.093945	0.22595	0.042233	0.035714	0.12231	0.10782	0.14365	0.105	0.20551	0.10293	0.30403	-3.3	-3.6146	-3.2313	-3.8229	-3.375	-3.2938	-3.8563	-3.4875	-3.5875	-3.7062	-3.4792	-3.6104	-3.4771	-3.2354	-3.7958	-3.3729	239.871	91.877	236.742	279.952	127.334	84.370	286.324	100.806	119.953	196.635	195.378	97.359	100.299	-12.538	256.329	121.947	0.00057152	0.0013058	9.5134e-05	983.1	1.4698e-05	2.7411e-05	930.08	287.95	7.9548e-07	1.8622e-05	284.91	89.509	93.307	36.577	1.4768e-05	36.489	0.036396	0.061319	0.017303	1563.8	0.00067386	0.00069002	1045	339.88	0.00058834	0.00067615	385.02	114.52	116.47	44.839	0.00059766	49.369	-26.923	85.175	8.722	-59.367	86.821	2.715	-60.608	-54.420	221.294	146.940	-57.698	-53.342	-50.261	-44.946	66.564	-49.057	-8191	255	
1038.367	1	1	0	0	0.087095	0.26862	0.16116	0.14988	0.19971	0.097323	0.16112	0.22059	0.10859	0.13821	0.19761	0.15505	0.17233	0.086993	0.15002	0.31512	-3.0667	-3.625	-3.2812	-3.6854	-3.6208	-3.2917	-3.8604	-3.2917	-3.4	-3.775	-3.4479	-3.7562	-3.7583	-3.3	-3.7583	-3.55	265.048	-13.112	252.070	226.523	125.590	-58.668	196.893	231.597	75.339	237.395	250.445	214.100	267.836	253.225	224.865	-63.665	0.00030382	0.0010785	0.00042153	974.36	3.9973e-05	1.4682e-05	933.5	288.89	1.5512e-05	3.2902e-06	284.81	90.99	94.928	36.72	2.0444e-05	37.018	0.0345	0.058143	0.016298	1530.7	0.00063185	0.00067196	1046.5	340.96	0.00058062	0.00066703	388.98	115.88	117.92	45.152	0.00059339	49.702	40.448	130.566	157.963	-59.561	66.907	3.279	-60.396	-54.089	275.569	7.916	-57.558	-53.579	-50.724	-44.656	202.175	-49.130	-8191	255	
#DATA ENDS
