BOXY.EXE: ISS Imagent and Oximeter Data Acquisition Program Version 0.80
Ascii Record File

#ACQ INFORMATION
2  Detector Channels 
16  External MUX Channels 
1  Auxiliary Channels 
5000  Waveform (CCF) Frequency (Hz)
1  Waveforms Skipped 
30  Waveforms Averaged 
1  Cycles Averaged 
16  Acquisitions per Waveform 
10.0806  Updata Rate (Hz) 

#FILE INFORMATION
TRUE -- External MUX Channel results are PARSED.
FALSE -- AC DC and Phase are NOT grouped.
TRUE -- Companion Program Settings File CREATED.
FALSE -- AC data not excluded
FALSE -- DC data not excluded
FALSE -- Phase data not excluded
FALSE -- Auxillary Chn. data not excluded
Tab delimiters

#CALIBRATION STATE
TRUE -- Waveform Calibration Values APPLIED.


#AUX CALIBRATION VALUES
Val Type	aux-1	

Term	1.0000e+00	
Factor	0.0000e+00	


#WF CALIBRATION VALUES
A = Detector Channel
Val Type	A-AC1	A-AC2	A-AC3	A-AC4	A-AC5	A-AC6	A-AC7	A-AC8	A-AC9	A-AC10	A-AC11	A-AC12	A-AC13	A-AC14	A-AC15	A-AC16	A-DC1	A-DC2	A-DC3	A-DC4	A-DC5	A-DC6	A-DC7	A-DC8	A-DC9	A-DC10	A-DC11	A-DC12	A-DC13	A-DC14	A-DC15	A-DC16	A-Ph1	A-Ph2	A-Ph3	A-Ph4	A-Ph5	A-Ph6	A-Ph7	A-Ph8	A-Ph9	A-Ph10	A-Ph11	A-Ph12	A-Ph13	A-Ph14	A-Ph15	A-Ph16	

Term	0.00000e+00	0.00000e+00	0.00000e+00	0.00000e+00	0.00000e+00	0.00000e+00	0.00000e+00	0.00000e+00	0.00000e+00	0.00000e+00	0.00000e+00	0.00000e+00	0.00000e+00	0.00000e+00	0.00000e+00	0.00000e+00	0.00000e+00	0.00000e+00	0.00000e+00	0.00000e+00	0.00000e+00	0.00000e+00	0.00000e+00	0.00000e+00	0.00000e+00	0.00000e+00	0.00000e+00	0.00000e+00	0.00000e+00	0.00000e+00	0.00000e+00	0.00000e+00	0.00000e+00	0.00000e+00	0.00000e+00	0.00000e+00	0.00000e+00	0.00000e+00	0.00000e+00	0.00000e+00	0.00000e+00	0.00000e+00	0.00000e+00	0.00000e+00	0.00000e+00	0.00000e+00	0.00000e+00	0.00000e+00	
Factor	1.00000e+00	1.00000e+00	1.00000e+00	1.00000e+00	1.00000e+00	1.00000e+00	1.00000e+00	1.00000e+00	1.00000e+00	1.00000e+00	1.00000e+00	1.00000e+00	1.00000e+00	1.00000e+00	1.00000e+00	1.00000e+00	1.00000e+00	1.00000e+00	1.00000e+00	1.00000e+00	1.00000e+00	1.00000e+00	1.00000e+00	1.00000e+00	1.00000e+00	1.00000e+00	1.00000e+00	1.00000e+00	1.00000e+00	1.00000e+00	1.00000e+00	1.00000e+00	X	X	X	X	X	X	X	X	X	X	X	X	X	X	X	X	

B = Detector Channel
Val Type	B-AC1	B-AC2	B-AC3	B-AC4	B-AC5	B-AC6	B-AC7	B-AC8	B-AC9	B-AC10	B-AC11	B-AC12	B-AC13	B-AC14	B-AC15	B-AC16	B-DC1	B-DC2	B-DC3	B-DC4	B-DC5	B-DC6	B-DC7	B-DC8	B-DC9	B-DC10	B-DC11	B-DC12	B-DC13	B-DC14	B-DC15	B-DC16	B-Ph1	B-Ph2	B-Ph3	B-Ph4	B-Ph5	B-Ph6	B-Ph7	B-Ph8	B-Ph9	B-Ph10	B-Ph11	B-Ph12	B-Ph13	B-Ph14	B-Ph15	B-Ph16	

Term	0.00000e+00	0.00000e+00	0.00000e+00	0.00000e+00	0.00000e+00	0.00000e+00	0.00000e+00	0.00000e+00	0.00000e+00	0.00000e+00	0.00000e+00	0.00000e+00	0.00000e+00	0.00000e+00	0.00000e+00	0.00000e+00	0.00000e+00	0.00000e+00	0.00000e+00	0.00000e+00	0.00000e+00	0.00000e+00	0.00000e+00	0.00000e+00	0.00000e+00	0.00000e+00	0.00000e+00	0.00000e+00	0.00000e+00	0.00000e+00	0.00000e+00	0.00000e+00	5.32887e+00	-1.29929e+02	-1.28731e+02	-1.84746e+02	-7.04180e+01	-6.91937e+01	-1.57922e+02	-1.62015e+02	-2.77445e+01	-6.81129e+01	-1.79083e+02	-1.70094e+02	-1.79662e+02	-1.77090e+02	-5.99893e+01	-1.50031e+02	
Factor	3.72528e-05	1.74124e-04	4.89623e-05	5.67296e-01	1.96177e-06	1.72426e-06	1.76438e-01	6.39805e-02	2.34682e-06	1.97558e-06	1.09870e-01	2.83453e-02	2.58785e-02	9.19466e-03	2.23646e-06	1.37262e-02	1.53627e-05	2.58478e-05	7.28226e-06	2.83297e-01	2.78559e-07	2.92575e-07	8.32134e-02	3.23121e-02	2.55711e-07	2.93603e-07	5.34728e-02	1.39108e-02	1.31685e-02	4.70685e-03	2.66657e-07	6.77598e-03	X	X	X	X	X	X	X	X	X	X	X	X	X	X	X	X	



#DISTANCE SETTINGS
A = Detector Channel
A-1	A-2	A-3	A-4	A-5	A-6	A-7	A-8	A-9	A-10	A-11	A-12	A-13	A-14	A-15	A-16	

2.5000e+00	3.0000e+00	2.5000e+00	3.0000e+00	2.0000e+00	3.0000e+00	1.5000e+00	3.0000e+00	3.0000e+00	3.0000e+00	3.0000e+00	3.0000e+00	3.0000e+00	3.0000e+00	1.5000e+00	3.0000e+00	

B = Detector Channel
B-1	B-2	B-3	B-4	B-5	B-6	B-7	B-8	B-9	B-10	B-11	B-12	B-13	B-14	B-15	B-16	

1.0000e+01	1.0000e+01	1.0000e+01	1.4400e+00	1.0000e+01	1.0000e+01	1.5100e+00	1.9400e+00	1.0000e+01	1.0000e+01	1.9900e+00	2.4900e+00	2.4100e+00	2.9000e+00	1.0000e+01	2.9800e+00	




#DATA BEGINS
time	group	step	mark	flag	A-AC1	A-AC2	A-AC3	A-AC4	A-AC5	A-AC6	A-AC7	A-AC8	A-AC9	A-AC10	A-AC11	A-AC12	A-AC13	A-AC14	A-AC15	A-AC16	A-DC1	A-DC2	A-DC3	A-DC4	A-DC5	A-DC6	A-DC7	A-DC8	A-DC9	A-DC10	A-DC11	A-DC12	A-DC13	A-DC14	A-DC15	A-DC16	A-Ph1	A-Ph2	A-Ph3	A-Ph4	A-Ph5	A-Ph6	A-Ph7	A-Ph8	A-Ph9	A-Ph10	A-Ph11	A-Ph12	A-Ph13	A-Ph14	A-Ph15	A-Ph16	B-AC1	B-AC2	B-AC3	B-AC4	B-AC5	B-AC6	B-AC7	B-AC8	B-AC9	B-AC10	B-AC11	B-AC12	B-AC13	B-AC14	B-AC15	B-AC16	B-DC1	B-DC2	B-DC3	B-DC4	B-DC5	B-DC6	B-DC7	B-DC8	B-DC9	B-DC10	B-DC11	B-DC12	B-DC13	B-DC14	B-DC15	B-DC16	B-Ph1	B-Ph2	B-Ph3	B-Ph4	B-Ph5	B-Ph6	B-Ph7	B-Ph8	B-Ph9	B-Ph10	B-Ph11	B-Ph12	B-Ph13	B-Ph14	B-Ph15	B-Ph16	aux-1	digaux	

1011.740	1	1	0	512	0.054843	0.20479	0.047165	0.15451	0.19801	0.10338	0.041429	0.0079471	0.029782	0.15302	0.17035	0.054815	0.3845	0.071938	0.24816	0.19357	-2.7708	-3.3479	-3.5563	-3.1417	-3.7562	-3.5646	-3.0812	-3.7146	-3.3438	-3.2958	-3.6729	-3.1229	-3.6479	-3.6667	-3.2479	-3.7313	126.135	106.568	146.684	-59.911	-31.088	179.457	-32.428	139.998	133.900	42.728	277.349	2.659	262.882	-54.013	33.772	247.571	0.000231	0.00050861	0.00022022	442.4	8.2859e-06	5.5178e-06	427.92	134.88	1.6338e-05	5.3327e-06	157.18	61.532	51.386	20.202	3.4157e-06	24.585	0.0057239	0.009546	0.0027921	511.36	0.00010426	0.00010952	424.27	137.13	9.891e-05	0.00011197	164.92	62.331	52.901	20.731	0.0001084	25.553	257.375	81.392	33.538	-60.781	277.081	184.300	-62.462	-54.468	12.365	145.615	-57.081	-53.536	-50.854	-47.619	210.085	-50.962	-8191	255	
1011.836	1	1	0	0	0.11488	0.22245	0.18595	0.083076	0.019108	0.12752	0.16896	0.20031	0.088302	0.10842	0.067408	0.060534	0.048445	0.064581	0.21791	0.17997	-3.0771	-3.2896	-3.6188	-3.1854	-3.4833	-3.5833	-3.0396	-3.625	-3.475	-3.2979	-3.8187	-3.2104	-3.4708	-3.6604	-3.1125	-3.6667	29.854	-45.295	14.667	277.696	80.055	199.402	162.368	243.003	182.951	42.935	249.281	205.679	154.834	237.235	24.708	33.217	0.00026171	0.0010063	0.00010244	444.95	1.3552e-05	4.6918e-06	427.98	138.67	1.1403e-05	6.8756e-06	158.93	61.796	52.502	20.21	9.0573e-06	24.565	0.0063015	0.010562	0.0030531	526.1	0.00011538	0.00012114	426.27	140.74	0.00010565	0.00011942	168.18	63.465	53.809	20.886	0.00011205	25.612	33.144	58.822	232.142	-59.939	73.252	125.856	-62.149	-54.174	52.072	52.074	-57.457	-53.442	-50.933	-46.823	123.427	-50.104	-8191	255	
1011.957	1	1	0	0	0.17356	0.12843	0.026406	0.03457	0.12497	0.17406	0.050103	0.14663	0.14291	0.055714	0.12955	0.14483	0.06257	0.25888	0.16524	0.026094	-3.2687	-3.175	-3.8104	-3.3125	-3.2604	-3.7708	-3.1188	-3.4813	-3.3979	-3.175	-3.7625	-3.475	-3.3312	-3.7271	-3.3396	-3.65	88.108	96.474	6.996	152.749	-61.623	235.849	234.518	262.972	233.704	42.362	-53.125	64.261	259.806	29.078	-12.381	-65.667	0.00030029	0.0015465	0.00024434	442.02	5.3923e-06	3.7077e-06	430.43	137.59	1.5408e-05	6.1765e-06	159.57	62.584	51.733	20.078	3.8516e-06	24.269	0.0064071	0.01076	0.0030308	524.24	0.00011415	0.00012099	429.03	140.92	0.00010667	0.00012217	168.92	63.837	53.658	20.855	0.00011112	25.361	16.473	283.922	70.495	-60.052	40.468	50.357	-62.311	-53.907	139.052	51.503	-57.282	-53.615	-50.834	-47.160	227.989	-51.125	-8191	255	
1012.053	1	1	0	0	0.29546	0.10569	0.29736	0.16216	0.17309	0.15109	0.15671	0.089581	0.21001	0.19963	0.22468	0.20066	0.13421	0.14601	0.02301	0.15662	-2.9792	-3.2438	-3.7292	-3.3688	-3.3833	-3.7	-3.3312	-3.475	-3.575	-3.3521	-3.8104	-3.325	-3.2833	-3.6417	-3.3292	-3.4979	131.004	23.286	-16.516	133.345	55.488	170.738	235.531	286.154	15.119	262.791	141.769	132.885	256.755	228.516	266.162	256.593	0.00010713	0.00072648	0.00021952	439.58	6.3073e-06	5.3576e-06	431.44	136.12	5.5575e-06	4.884e-06	159.9	61.824	51.84	19.826	1.0446e-05	23.952	0.0064141	0.010681	0.0029996	524.49	0.00011392	0.000121	426.77	139.29	0.00010627	0.00012042	167.07	62.706	53.322	20.465	0.00010852	24.975	206.342	71.179	-9.446	-59.813	210.789	208.047	-62.118	-53.699	183.681	117.806	-57.570	-53.528	-50.995	-46.886	49.241	-50.809	-8191	255	
1012.149	1	1	0	0	0.044056	0.26705	0.10578	0.084482	0.086554	0.071347	0.043951	0.11582	0.13547	0.13124	0.12279	0.11264	0.16288	0.081969	0.10075	0.23205	-3.2354	-3.1542	-3.5938	-3.5292	-3.2979	-3.7083	-3.2667	-3.4813	-3.6875	-3.3104	-3.5458	-3.4479	-3.1917	-3.7604	-3.2417	-3.3229	284.751	163.737	-11.946	236.387	147.596	22.868	186.229	-28.910	94.971	100.898	93.500	51.576	228.326	237.739	54.502	123.600	4.0724e-05	0.00084656	0.00025788	437.53	6.1537e-06	4.9128e-06	420.43	135.4	3.8958e-06	1.2629e-05	157.73	61.379	50.642	19.409	6.236e-06	23.942	0.0062456	0.010347	0.0028568	514.13	0.00010952	0.00011641	418.24	137.67	0.00010472	0.00011749	165.99	62.174	52.367	20.092	0.00010773	24.688	242.477	67.905	-32.481	-59.928	42.478	173.286	-62.013	-54.172	-70.867	61.638	-57.127	-53.408	-51.067	-46.525	-4.964	-50.465	-8191	255	
1012.268	1	1	0	0	0.091518	0.19892	0.19205	0.13189	0.10537	0.16763	0.16188	0.1213	0.15974	0.084577	0.10233	0.17407	0.084027	0.15739	0.21236	0.25968	-3.2417	-3.2938	-3.5833	-3.4188	-3.2375	-3.7083	-3.4771	-3.4437	-3.7125	-3.1813	-3.6021	-3.5938	-3.1917	-3.7875	-3.4854	-3.4042	254.864	243.226	-48.934	215.380	272.847	274.527	254.677	251.680	118.799	217.356	66.909	46.254	117.158	-0.173	174.450	-22.820	6.1402e-05	0.00099002	0.00010078	434.82	5.1241e-06	3.1198e-07	421.83	134.92	1.2746e-05	7.123e-06	155.62	60.185	49.881	18.864	1.1109e-05	23.309	0.0060869	0.01012	0.0027739	509.8	0.00010589	0.00010982	418.3	136.22	9.6859e-05	0.00010775	162.54	60.663	50.977	19.293	9.8987e-05	24.186	261.409	81.026	-42.459	-60.570	42.609	-2.040	-62.238	-54.454	203.915	274.873	-57.353	-53.953	-50.628	-46.656	-34.277	-49.719	-8191	255	
1012.364	1	1	0	0	0.307	0.23029	0.062886	0.06709	0.12831	0.073554	0.27604	0.039252	0.042424	0.052018	0.20445	0.11115	0.057456	0.10608	0.035476	0.078699	-3.3375	-3.1979	-3.3667	-3.7083	-3.1521	-3.7021	-3.275	-3.3417	-3.6083	-3.1917	-3.5625	-3.6104	-3.2854	-3.7188	-3.3396	-3.3396	126.350	94.764	101.383	-31.886	230.839	18.972	108.250	59.360	58.278	25.716	165.128	255.322	277.030	20.527	-30.612	137.663	0.00022951	0.00081661	0.0003231	433.33	1.0377e-05	5.077e-06	427.62	134.76	6.8898e-06	6.5745e-06	153.96	59.321	48.733	18.446	1.4405e-05	22.906	0.0057455	0.0093127	0.002654	511.13	0.00010074	0.0001044	422.39	135.45	9.0808e-05	0.00010392	161	59.807	50.029	18.872	9.4084e-05	23.64	285.382	118.322	21.897	-60.307	195.250	135.304	-62.455	-54.105	-8.692	182.579	-57.465	-53.893	-51.029	-46.204	107.962	-50.226	-8191	255	
1012.436	1	1	0	0	0.20109	0.30128	0.044149	0.090228	0.15693	0.085887	0.051424	0.031029	0.17362	0.27464	0.16801	0.25789	0.12685	0.15903	0.18198	0.081351	-3.4625	-3.1125	-3.5187	-3.6021	-3.3083	-3.7167	-3.4042	-3.1958	-3.6458	-3.4479	-3.3292	-3.7333	-3.3042	-3.6083	-3.5104	-3.2208	162.542	48.282	33.329	249.119	204.296	-63.423	64.590	210.490	167.626	166.852	224.867	174.285	251.307	247.842	-32.418	223.888	0.00012139	0.0010159	0.00012921	435.95	5.1082e-06	3.6108e-06	417.17	131.61	7.0042e-06	4.6142e-06	152.02	57.689	48.33	18.141	1.3169e-05	22.559	0.005477	0.0090248	0.0025444	500.63	9.7442e-05	0.00010083	412.4	132.76	8.9471e-05	0.00010473	158.47	58.635	49.446	18.674	9.6142e-05	23.325	-6.531	-57.799	65.413	-60.155	54.564	145.188	-62.210	-54.361	163.230	-16.582	-57.207	-53.498	-50.769	-46.055	282.063	-49.084	-8191	255	
1012.532	1	1	0	0	0.081218	0.10646	0.039081	0.034417	0.16792	0.08045	0.18671	0.064714	0.13387	0.13183	0.029271	0.10852	0.21542	0.12125	0.050013	0.10577	-3.3854	-3.3167	-3.3042	-3.6042	-3.1	-3.6937	-3.4792	-3.2188	-3.8438	-3.3875	-3.2667	-3.4458	-3.1625	-3.2812	-3.6292	-3.1437	94.157	198.397	90.362	109.955	170.570	273.792	-55.952	242.483	152.570	-40.456	58.845	21.616	46.523	228.123	264.149	-5.794	0.00011621	0.00047249	0.000141	425.65	9.7012e-06	1.6881e-05	408.99	129.45	3.0852e-06	5.0347e-06	149.75	57.344	47.089	17.999	7.7544e-06	22.14	0.005592	0.0090473	0.0025777	489.68	9.8114e-05	0.00010213	402.82	131.35	9.04e-05	0.00010464	157.01	57.897	48.648	18.435	9.5481e-05	23.218	235.138	156.221	24.840	-59.857	116.939	141.386	-62.213	-54.173	261.971	25.738	-56.906	-53.525	-50.764	-45.766	14.717	-49.691	-8191	255	
1012.653	1	1	0	0	0.10844	0.13421	0.13921	0.16978	0.28132	0.32576	0.08447	0.13957	0.12291	0.080647	0.093344	0.12747	0.17626	0.04823	0.30972	0.048189	-3.1917	-3.3708	-3.2646	-3.7042	-3.3479	-3.5583	-3.7333	-3.1667	-3.7146	-3.4188	-3.2729	-3.6771	-3.2	-3.4562	-3.6729	-3.2167	168.028	200.429	243.990	125.728	-57.981	13.275	117.403	103.016	160.411	-31.824	161.722	190.389	14.577	277.995	64.995	27.554	0.00022312	0.0007498	7.8999e-05	427.56	1.8776e-06	2.8315e-06	408.02	131.63	4.124e-06	6.8964e-06	152.7	58.226	47.733	18.115	1.1069e-05	22.7	0.0055231	0.0091544	0.0025977	491.82	0.00010109	0.00010436	405.06	133.3	9.3091e-05	0.00010998	160.48	58.772	49.351	18.725	0.00010502	23.727	-68.258	142.587	266.521	-60.375	163.955	43.345	-61.736	-54.155	267.399	191.093	-57.172	-53.426	-50.368	-45.137	52.870	-48.569	-8191	255	
1012.749	1	1	0	0	0.23715	0.22252	0.17754	0.11624	0.26966	0.13085	0.15171	0.36201	0.013407	0.11519	0.21712	0.38976	0.070194	0.060261	0.14675	0.26458	-3.2646	-3.3479	-3.1937	-3.5854	-3.1063	-3.4333	-3.6271	-3.1771	-3.5854	-3.4729	-3.2417	-3.7417	-3.3958	-3.2833	-3.7188	-3.1167	40.073	180.791	91.377	106.740	176.057	189.951	91.205	33.690	55.318	-32.051	238.030	280.367	269.508	-66.678	161.364	-53.749	5.9544e-05	0.00085801	9.4939e-05	418.54	3.5702e-06	3.2375e-06	399.19	131.86	1.0127e-05	9.957e-06	153.33	57.474	48.005	18.422	1.5001e-06	22.938	0.0059148	0.0099705	0.0028417	490.99	0.0001079	0.00011248	398.35	134.71	9.8976e-05	0.00011819	162.22	59.071	49.672	19.062	0.00011046	24.033	-15.052	53.094	-33.314	-59.900	47.529	99.791	-61.430	-53.743	235.851	29.346	-56.847	-52.643	-50.708	-45.029	70.779	-48.915	-8191	255	
1012.845	1	1	0	0	0.19064	0.13343	0.19855	0.040555	0.01503	0.1678	0.29183	0.043487	0.13203	0.14006	0.067515	0.20087	0.13679	0.26753	0.045201	0.12141	-3.1896	-3.5229	-3.0792	-3.7042	-3.2771	-3.3708	-3.7646	-3.2875	-3.5938	-3.5479	-3.0625	-3.6771	-3.2333	-3.3292	-3.6979	-3.2708	206.415	-62.523	-31.328	22.269	35.236	259.140	286.454	12.126	135.694	168.680	270.040	201.126	76.654	264.924	9.193	162.331	0.00020387	0.00084534	0.00030001	414.62	7.0424e-06	2.1037e-06	389.02	131.15	3.0442e-06	3.9715e-06	149.82	56.681	47.35	18.173	8.7729e-06	22.63	0.0062704	0.010771	0.0031035	496.42	0.00011967	0.000126	390.78	134.7	0.00010996	0.00013028	161.65	58.56	49.695	19.109	0.00011715	23.855	272.602	69.089	164.181	-60.397	-22.313	20.309	-61.460	-53.633	-15.710	41.592	-56.960	-53.023	-49.931	-44.762	-17.672	-49.463	-8191	255	
1012.941	1	1	0	0	0.16311	0.040364	0.30098	0.087144	0.097383	0.3063	0.18688	0.2419	0.27673	0.051911	0.16309	0.136	0.04067	0.10066	0.19367	0.28533	-3.1104	-3.5479	-3.0271	-3.7354	-3.4479	-3.1958	-3.7042	-3.1125	-3.5479	-3.6583	-3.2375	-3.6917	-3.4208	-3.3729	-3.7	-3.4417	32.540	70.658	22.627	242.824	274.102	-46.124	167.105	273.095	152.589	-7.690	181.782	278.230	-55.093	13.768	266.541	204.001	0.00022692	0.0015211	8.6409e-05	397.08	5.9776e-06	9.3447e-06	382.3	130.84	8.6364e-06	4.9441e-06	150.77	56.911	47.872	18.327	4.9331e-06	22.992	0.0066937	0.011216	0.0031629	488.52	0.00012438	0.00013004	384.49	134.86	0.00011401	0.00013438	162.63	58.774	50.059	19.264	0.00011828	24.222	284.872	1.966	169.425	-59.355	64.712	191.764	-61.560	-53.888	-55.427	-41.971	-56.119	-52.774	-49.971	-44.711	62.773	-49.151	-8191	255	
1013.037	1	1	0	0	0.37801	0.18768	0.2457	0.12911	0.082891	0.051368	0.19934	0.18305	0.22034	0.021825	0.11039	0.21916	0.14737	0.28562	0.20809	0.15211	-2.9875	-3.6396	-3.0146	-3.5812	-3.5396	-3.2771	-3.7646	-3.3917	-3.3021	-3.8167	-3.1625	-3.55	-3.6208	-3.2521	-3.7875	-3.2812	281.607	229.659	68.815	-67.090	9.689	175.955	233.025	249.831	242.942	182.862	93.210	264.011	225.327	219.887	283.442	133.681	8.6015e-05	0.00061267	7.58e-05	400.36	5.4489e-06	1.311e-05	375.79	132.23	1.0359e-05	7.5574e-06	151.68	57.225	47.788	18.472	1.477e-05	22.719	0.0068876	0.011496	0.0032104	489.4	0.00012594	0.00013026	381.07	135.62	0.00011318	0.00013246	163.64	58.795	49.865	19.263	0.00011837	24.224	127.059	231.121	23.066	-60.033	176.251	67.018	-61.026	-53.572	-3.189	101.082	-56.468	-52.734	-49.713	-45.100	139.628	-48.797	-8191	255	
1013.133	1	1	0	0	0.19807	0.19571	0.23008	0.033461	0.099985	0.27075	0.27571	0.10419	0.066602	0.12016	0.016816	0.050928	0.15625	0.1162	0.32722	0.38128	-3.0521	-3.7021	-3.0771	-3.3146	-3.5354	-3.1979	-3.6542	-3.2458	-3.3396	-3.8417	-3.2687	-3.3354	-3.4354	-3.1854	-3.7042	-3.4229	126.834	-69.180	242.946	268.257	145.496	61.513	45.597	209.126	92.547	65.343	176.130	5.004	108.481	266.644	-29.320	64.019	5.2988e-05	0.00034102	0.00037806	396.31	7.8024e-06	6.3633e-06	375.84	131.74	4.6529e-06	1.2076e-05	152.14	56.832	47.938	18.386	8.3598e-06	23.078	0.0068985	0.011424	0.0032174	486.8	0.00012534	0.00012933	379.83	135.39	0.00011268	0.00012704	163.09	58.593	49.95	19.177	0.00011414	24.148	-27.089	-47.802	-21.644	-59.159	212.617	36.486	-61.387	-53.435	161.902	64.026	-56.224	-52.795	-49.744	-44.831	171.261	-48.625	-8191	255	
1013.229	1	1	0	0	0.17988	0.15347	0.19358	0.096637	0.097926	0.15986	0.22151	0.11162	0.058564	0.070528	0.10237	0.050656	0.17527	0.21858	0.37011	0.062733	-2.8229	-3.6229	-3.3208	-3.5875	-3.6646	-3.2875	-3.7167	-3.2562	-3.3625	-3.6646	-3.1688	-3.5083	-3.5083	-3.0875	-3.5875	-3.5792	67.537	21.522	271.592	8.749	60.732	4.682	199.587	227.726	234.495	15.727	265.774	215.375	182.716	263.703	139.415	76.797	0.00025778	0.0012966	0.00014406	397.32	4.3537e-06	6.4645e-06	376.08	130.58	7.7169e-06	4.8709e-06	150.83	56.525	47.14	18.136	1.5883e-05	22.35	0.0067218	0.011003	0.0030937	487.01	0.00012072	0.00012503	381.26	133.89	0.00010877	0.00012431	160.46	57.802	49.154	18.868	0.00011105	23.776	6.679	42.487	-33.533	-59.087	250.409	278.417	-61.296	-54.101	260.030	120.466	-56.406	-53.432	-49.715	-44.447	-4.478	-48.994	-8191	255	
1013.348	1	1	0	0	0.11536	0.051719	0.043076	0.26246	0.14011	0.13031	0.17788	0.19307	0.1121	0.10902	0.14547	0.094456	0.07563	0.2391	0.21988	0.10171	-2.6625	-3.725	-3.1854	-3.3542	-3.6875	-3.2958	-3.4958	-3.4646	-3.375	-3.5875	-3.425	-3.2104	-3.6917	-3.3521	-3.475	-3.5604	143.449	-24.373	221.040	246.236	253.322	1.063	253.914	234.535	171.601	-71.519	143.299	69.782	-65.769	212.796	136.235	105.301	0.00021416	0.00051926	0.00015696	407.99	1.3366e-06	5.7869e-06	381.94	131.12	4.4564e-06	1.1648e-05	150.29	56.747	48.005	18.374	7.4067e-06	22.531	0.006587	0.010915	0.003099	491.98	0.00011969	0.00012383	382.18	134.09	0.00010764	0.00012508	161.12	58.663	50.11	19.215	0.00011584	24.072	-42.784	231.813	30.004	-59.914	-6.162	16.629	-61.627	-53.926	-44.851	6.771	-57.077	-53.070	-49.724	-44.837	53.432	-49.095	-8191	255	
1013.444	1	1	0	0	0.13604	0.071809	0.35651	0.34729	0.18075	0.24495	0.12002	0.39004	0.2115	0.11689	0.17737	0.10717	0.21491	0.18386	0.069571	0.10556	-2.7438	-3.6917	-3.4188	-3.4	-3.6042	-3.3458	-3.5187	-3.6667	-3.0479	-3.7	-3.5187	-3.1813	-3.6292	-3.2812	-3.4021	-3.4062	100.663	267.102	105.733	259.208	21.751	228.475	87.992	212.586	276.851	201.314	37.807	93.676	-51.716	-31.802	268.445	-66.433	0.00024488	0.001259	0.00014254	404.38	1.3034e-05	2.5581e-06	380.15	131.5	4.575e-06	5.7633e-06	152.84	57.806	48.337	18.423	5.9106e-06	23.095	0.0067738	0.011211	0.0031798	494.97	0.00012306	0.00012933	383.95	135.93	0.00011205	0.00012729	163.02	59.32	50.318	19.344	0.00011431	24.385	280.934	15.490	1.942	-58.210	142.361	164.301	-61.010	-53.753	141.714	96.455	-56.648	-52.704	-49.318	-45.033	75.911	-49.474	-8191	255	
1013.541	1	1	0	0	0.033232	0.016799	0.12992	0.15886	0.037623	0.16848	0.35558	0.1677	0.37023	0.20289	0.15486	0.10569	0.071291	0.13812	0.20294	0.0798	-2.675	-3.6188	-3.4958	-3.1375	-3.7042	-3.3667	-3.5396	-3.8292	-3.0854	-3.7562	-3.4417	-3.2167	-3.6625	-3.2896	-3.4167	-3.6917	20.479	48.868	265.273	-19.643	18.264	104.727	104.115	4.395	222.962	123.161	176.575	-5.493	181.121	243.154	200.284	154.575	0.00025704	0.00020336	0.00015673	400.48	7.6846e-06	6.4255e-06	381.9	132.99	9.9671e-06	3.603e-06	152.87	58.613	48.933	18.749	1.6495e-06	23.218	0.0068027	0.011212	0.0031962	492.35	0.00012217	0.00013106	386.11	136.98	0.00011349	0.00012975	165.55	60.303	51.052	19.59	0.000117	24.576	-28.229	82.365	84.179	-59.250	120.763	65.967	-61.468	-53.521	144.075	83.301	-57.139	-52.603	-49.389	-45.134	209.345	-49.568	-8191	255	
1013.637	1	1	0	0	0.10352	0.15971	0.28407	0.21508	0.24235	0.083623	0.13097	0.092755	0.18567	0.19124	0.13207	0.060272	0.13075	0.045705	0.16216	0.13303	-2.8917	-3.4104	-3.6479	-3.2438	-3.775	-3.2938	-3.4333	-3.8438	-3.2896	-3.4896	-3.6896	-3.0896	-3.7292	-3.3917	-3.3417	-3.8312	184.331	58.281	222.431	281.218	-16.132	264.306	219.080	177.704	16.378	51.133	119.727	283.996	-53.984	-62.854	32.958	107.503	5.4961e-05	0.00047285	0.00017802	401.38	3.7248e-06	4.3384e-06	381.72	132.91	8.7775e-06	1.0383e-06	152.68	57.314	48.508	18.778	6.6139e-06	22.938	0.0068138	0.011114	0.0031675	494.99	0.00011992	0.00013154	387.39	136.54	0.00011186	0.00012882	164.22	59.561	50.808	19.617	0.00011741	24.349	-49.060	72.000	51.309	-59.558	160.007	244.864	-61.103	-53.687	135.307	149.473	-56.864	-52.757	-49.753	-44.933	106.634	-49.285	-8191	255	
1013.733	1	1	0	0	0.12835	0.13054	0.31064	0.17828	0.29474	0.19995	0.10712	0.27948	0.36155	0.039501	0.23407	0.11874	0.21042	0.15976	0.054995	0.12218	-2.7958	-3.5854	-3.7042	-3.1146	-3.6417	-3.4354	-3.3458	-3.8667	-3.3937	-3.3208	-3.7167	-3.2271	-3.6917	-3.3063	-3.3542	-3.6813	34.898	7.442	23.052	-5.761	92.176	276.263	287.018	-62.983	-46.834	26.170	-34.634	173.072	-54.348	171.091	87.175	48.171	0.00022126	0.00055548	0.00015259	406.2	7.1568e-06	8.5421e-06	385.64	131.95	6.2187e-06	1.7749e-05	152.25	57.936	48.852	18.824	6.5288e-06	23.02	0.0069657	0.011487	0.0032227	497.21	0.0001224	0.00013113	387.99	136.79	0.00011329	0.00013075	164.6	59.784	51.2	19.716	0.00012017	24.325	9.778	248.206	126.019	-60.510	-57.139	-40.734	-61.661	-53.838	78.258	-9.260	-56.901	-52.732	-50.099	-45.555	195.902	-49.586	-8191	255	
1013.829	1	1	0	0	0.15559	0.11087	0.15011	0.38915	0.15196	0.028413	0.15631	0.21141	0.15276	0.10125	0.15522	0.16621	0.060553	0.04459	0.06266	0.11304	-2.9125	-3.4396	-3.7521	-3.05	-3.5979	-3.5333	-3.2104	-3.7938	-3.3688	-3.4271	-3.5333	-3.3375	-3.6354	-3.4	-3.2354	-3.8333	166.724	9.635	25.013	199.839	97.598	206.529	166.724	221.827	233.502	221.649	231.157	-58.321	263.002	-23.665	55.869	94.759	0.00020327	0.00094731	0.00012932	409.26	1.1633e-05	1.2072e-05	379.33	133.93	2.0305e-06	8.2819e-06	153.59	58.184	49.392	18.747	1.2767e-05	23.153	0.0069774	0.011672	0.0032733	494.42	0.00012243	0.0001339	384.33	137.25	0.00011375	0.00013034	165.35	59.878	51.301	19.674	0.0001185	24.517	286.024	137.042	-7.084	-58.560	226.565	33.565	-61.408	-53.307	185.072	27.395	-56.339	-52.607	-49.839	-45.348	145.816	-49.333	-8191	255	
1013.950	1	1	0	0	0.27557	0.11492	0.11624	0.3498	0.14477	0.16574	0.30985	0.065647	0.094463	0.17155	0.052982	0.21379	0.25236	0.13453	0.052819	0.3042	-3.0917	-3.2042	-3.65	-3.1729	-3.5479	-3.6792	-3.2271	-3.6146	-3.3958	-3.3375	-3.8333	-3.2229	-3.4771	-3.5938	-3.1729	-3.7625	205.465	205.362	35.397	-3.916	113.884	261.156	216.272	-46.337	184.338	238.252	26.891	209.210	129.203	140.536	230.060	52.442	0.00012476	0.00042854	0.00019758	399.24	1.6248e-06	1.8068e-06	382.4	134.52	9.4013e-06	5.8898e-06	155.29	58.747	49.174	18.768	6.4005e-06	23.221	0.00707	0.011589	0.0032606	495.18	0.00012217	0.00013188	387.09	137.82	0.00011457	0.00013104	165.86	60.479	51.482	19.784	0.0001184	24.567	161.428	257.436	283.739	-59.892	158.810	227.777	-60.947	-53.202	100.696	-6.086	-56.502	-53.353	-50.058	-45.137	127.586	-49.038	-8191	255	
1014.046	1	1	0	0	0.27939	0.092738	0.052652	0.15262	0.14764	0.1974	0.17613	0.094617	0.13142	0.18071	0.13245	0.21897	0.11701	0.089122	0.098401	0.089164	-3.0208	-3.1688	-3.7646	-3.2375	-3.4958	-3.6271	-3.1875	-3.6604	-3.4813	-3.2292	-3.6854	-3.4917	-3.3354	-3.5479	-3.2313	-3.7167	14.214	-56.713	191.390	213.600	35.294	263.759	-29.913	115.780	206.352	88.895	-7.091	55.587	280.483	106.568	55.211	69.141	2.8815e-05	0.0011924	0.00042389	400.76	7.9175e-06	1.238e-05	380.19	133.57	3.4985e-06	1.4264e-05	151.68	57.213	47.431	18.275	9.3826e-06	22.336	0.0070121	0.011479	0.0031626	494.39	0.00012086	0.00012997	383.38	136.64	0.00011531	0.00013102	163.01	59.127	50.021	19.214	0.00011757	23.948	230.126	20.595	29.691	-60.383	77.333	-12.072	-60.697	-53.677	203.665	78.490	-57.098	-52.468	-49.511	-44.962	113.124	-48.838	-8191	255	
1014.140	1	1	0	0	0.062945	0.07521	0.095875	0.099826	0.18328	0.057821	0.077764	0.14628	0.25578	0.072217	0.18395	0.20396	0.07143	0.12445	0.2825	0.038879	-3.1979	-3.1167	-3.6479	-3.3271	-3.5083	-3.7125	-3.3063	-3.5667	-3.5396	-3.1562	-3.7313	-3.4104	-3.4479	-3.7042	-3.2167	-3.5167	94.803	-34.748	200.578	-2.081	-53.046	111.587	17.968	113.448	168.631	287.766	125.654	238.649	256.139	-49.380	25.733	247.630	0.00010923	0.0011331	0.00014271	395.25	5.3719e-06	8.8748e-06	369.89	130.41	5.304e-06	3.1947e-06	149.18	56.237	47.504	18.301	3.5113e-06	22.744	0.0070599	0.011411	0.0032166	486.54	0.00012237	0.00012993	376.02	134.34	0.00011411	0.00012969	161.09	58.594	49.796	19.22	0.00012084	24.221	123.911	95.663	78.373	-58.407	231.751	259.072	-61.217	-53.288	141.913	173.910	-57.020	-52.649	-49.706	-44.534	30.625	-48.619	-8191	255	
1014.236	1	1	0	0	0.12247	0.14849	0.09653	0.05688	0.33374	0.10743	0.25044	0.15678	0.1937	0.11208	0.13993	0.25185	0.044232	0.033889	0.28187	0.22468	-3.2667	-3.1396	-3.7375	-3.3896	-3.4625	-3.5354	-3.2521	-3.6146	-3.6354	-3.1188	-3.6333	-3.35	-3.25	-3.7687	-3.4146	-3.4521	-66.177	88.836	-65.895	-45.512	241.286	185.765	248.839	217.712	-61.226	-37.404	-6.049	163.265	79.487	114.663	-17.977	216.378	0.00021951	0.0012981	9.3467e-05	403.31	6.2516e-06	7.4338e-07	378.21	131.59	5.6876e-06	1.0721e-05	151.84	57.46	48.531	18.524	2.6872e-06	22.983	0.0073749	0.012011	0.0033496	498.72	0.00013106	0.00013625	386.15	136.91	0.00011925	0.00013498	164.4	59.731	50.954	19.605	0.00012481	24.545	276.101	55.663	182.234	-59.670	214.848	-44.807	-61.670	-53.039	102.039	225.857	-56.679	-52.456	-49.294	-44.827	-67.992	-49.127	-8191	255	
1014.333	1	1	0	0	0.026379	0.08955	0.14047	0.10504	0.18232	0.044558	0.25118	0.19334	0.098677	0.11128	0.0057858	0.29193	0.19928	0.20335	0.13594	0.31116	-3.0958	-3.2146	-3.5479	-3.475	-3.1458	-3.7167	-3.4771	-3.4708	-3.7479	-3.2583	-3.6	-3.4604	-3.1792	-3.7562	-3.4813	-3.4396	223.866	-48.596	-1.198	34.805	-8.937	114.908	-59.650	-48.209	55.024	-13.036	24.885	210.790	-9.524	-67.129	69.007	268.551	0.00015956	0.00015062	0.00029	400.22	7.8027e-06	6.2646e-06	383.89	134.72	5.4505e-06	1.4114e-05	155.3	59.412	49.964	19.347	7.9609e-06	23.777	0.0075198	0.012372	0.0034647	504.17	0.00013473	0.00014043	393.4	140.17	0.00012701	0.00014466	170.58	62.136	52.973	20.471	0.00013566	25.649	-26.391	269.323	179.765	-60.442	36.906	279.655	-61.206	-53.594	-60.229	150.527	-56.808	-52.576	-49.888	-45.180	261.219	-48.993	-8191	255	
1014.429	1	1	0	0	0.1473	0.18448	0.12143	0.14271	0.067969	0.16678	0.24852	0.19259	0.20831	0.097353	0.044635	0.015031	0.14401	0.17401	0.11851	0.29789	-3.3438	-3.0625	-3.6167	-3.5167	-3.2062	-3.7875	-3.3104	-3.2771	-3.6875	-3.0729	-3.4625	-3.6292	-3.2167	-3.7562	-3.3438	-3.3229	82.305	84.343	70.442	6.150	215.920	215.272	42.685	183.729	-47.976	86.340	150.357	94.747	-9.571	-58.403	-21.361	194.991	8.8392e-05	0.00041831	0.00012848	416.12	7.2779e-06	1.4957e-05	397.01	137.2	3.7553e-06	3.7266e-06	156.7	60.3	50.406	19.432	2.624e-06	23.657	0.0080358	0.013252	0.0037361	527.01	0.0001427	0.00014917	407.12	143.09	0.00013054	0.00014908	172.78	63.035	53.542	20.505	0.00013577	25.491	81.058	95.029	111.142	-59.405	-4.328	47.642	-61.190	-53.567	202.842	1.334	-56.900	-53.053	-49.349	-45.759	175.065	-48.860	-8191	255	
1014.525	1	1	0	0	0.1393	0.17583	0.38459	0.055906	0.25854	0.060804	0.13487	0.054194	0.15482	0.16826	0.068164	0.062218	0.16205	0.15	0.066892	0.10874	-3.2833	-3.1917	-3.4688	-3.4625	-3.2292	-3.5833	-3.4333	-3.4021	-3.7625	-3.4667	-3.4771	-3.6875	-3.2667	-3.6437	-3.5396	-3.2438	73.515	110.332	221.172	108.033	74.578	159.213	31.622	284.158	4.146	30.773	-17.427	253.721	284.930	242.872	-39.728	167.139	0.00015848	0.00094085	0.000247	418.7	1.4065e-05	5.2424e-06	401.54	136.71	9.8307e-06	1.0749e-05	157.77	60.77	50.939	19.564	3.0021e-06	23.735	0.0077954	0.01307	0.0037267	529.2	0.00014162	0.00014944	409.78	142.84	0.00013178	0.0001519	173.42	63.499	54.257	20.924	0.00013888	25.729	281.838	46.424	215.801	-59.822	-48.459	61.783	-61.957	-53.404	144.080	25.454	-56.827	-52.738	-49.880	-45.609	17.767	-50.186	-8191	255	
1014.621	1	1	0	0	0.096692	0.14246	0.15699	0.080114	0.092369	0.11136	0.1018	0.15439	0.096355	0.20263	0.08954	0.14402	0.022717	0.11387	0.087489	0.12556	-3.4521	-3.2271	-3.4104	-3.7083	-3.3521	-3.5896	-3.5458	-3.2333	-3.7313	-3.2833	-3.3438	-3.5771	-3.2562	-3.6083	-3.4875	-3.2188	-12.643	-21.555	240.645	153.433	270.112	251.029	97.665	-26.279	88.798	-5.259	175.468	188.974	259.502	180.796	144.282	178.144	0.00014546	0.00034644	0.00046736	416.82	9.0297e-06	9.5033e-06	403.29	136.03	9.9994e-06	4.1866e-06	157.3	61.192	51.718	19.955	5.8164e-06	23.777	0.0078824	0.013359	0.0036804	526.44	0.00013878	0.00014569	409.1	142.2	0.0001275	0.00014949	172.62	63.59	54.6	21.101	0.00013998	25.833	242.644	106.598	146.522	-59.906	276.138	79.217	-61.611	-54.300	169.074	-10.974	-56.836	-52.683	-50.333	-45.829	156.414	-50.363	-8191	255	
1014.742	1	1	0	0	0.29684	0.17329	0.24081	0.15103	0.061566	0.029991	0.16	0.15719	0.082618	0.29974	0.12768	0.069701	0.21326	0.13714	0.041533	0.22065	-3.3833	-3.3771	-3.3208	-3.6625	-3.2812	-3.6146	-3.5229	-3.2792	-3.8042	-3.4813	-3.3667	-3.9167	-3.35	-3.45	-3.75	-3.1375	22.269	210.029	-70.408	-25.436	242.134	-70.713	-4.066	140.231	274.109	42.655	258.541	227.555	170.436	-28.719	259.329	63.724	7.0596e-05	0.00039421	8.7235e-05	430.82	9.6965e-06	7.7548e-06	406.15	138.19	2.1343e-05	8.994e-06	160.14	61.9	51.529	19.989	2.6286e-06	24.573	0.0080362	0.013997	0.0038396	537.58	0.00014543	0.00015335	414.48	144.27	0.0001339	0.00015539	175.7	64.558	55.157	21.317	0.0001434	26.478	228.894	118.503	256.029	-60.419	266.894	152.879	-61.627	-53.654	83.114	281.882	-56.679	-53.227	-50.176	-46.180	268.802	-49.749	-8191	255	
1014.838	1	1	0	0	0.1762	0.28196	0.16657	0.15251	0.28463	0.13024	0.073799	0.089501	0.21153	0.11849	0.10401	0.13961	0.16773	0.14459	0.20815	0.12257	-3.2354	-3.4979	-3.2458	-3.9375	-3.15	-3.5583	-3.7375	-3.0792	-3.5646	-3.5083	-3.2792	-3.7896	-3.2167	-3.4521	-3.8812	-3.1521	128.103	-8.339	203.089	140.342	-45.499	-5.531	-36.908	124.743	60.988	199.481	-37.613	-10.863	218.152	240.809	14.658	147.364	7.5896e-05	0.00022028	3.7131e-05	437.56	7.9495e-06	1.7475e-06	416.25	142.28	1.483e-05	1.347e-05	161.4	63.479	53.316	20.758	9.4345e-06	25.309	0.0083998	0.014386	0.0040175	553.62	0.00015431	0.0001637	429.16	148.45	0.00014215	0.00016305	179.64	66.62	56.965	22.027	0.00014867	27.188	59.598	43.152	83.127	-60.266	94.002	151.782	-61.421	-53.718	-21.397	-17.125	-56.985	-53.404	-50.173	-46.719	74.721	-50.718	-8191	255	
1014.909	1	1	0	0	0.22623	0.082742	0.033306	0.17925	0.15823	0.28858	0.080542	0.3123	0.15868	0.14127	0.27367	0.24242	0.27744	0.068453	0.2116	0.14313	-3.2917	-3.3729	-3.0583	-3.6896	-3.3458	-3.4437	-3.7125	-3.2	-3.6292	-3.4125	-3.2562	-3.5792	-3.3542	-3.3187	-3.7917	-3.3167	114.750	-22.735	-20.780	264.167	200.795	280.425	23.751	246.576	200.854	158.372	287.047	22.107	278.862	-65.980	90.508	-34.548	0.00027959	0.00040094	0.000289	445.47	3.2231e-06	1.3893e-05	425.56	143.16	5.8342e-06	1.3037e-05	160.48	64.086	53.57	20.85	1.309e-05	25.095	0.0088362	0.014909	0.0041834	571.28	0.00016333	0.00017173	439.65	149.86	0.00014811	0.00017058	180.34	67.122	57.543	22.292	0.00014883	27.119	161.820	29.348	40.821	-59.645	220.802	158.628	-61.800	-53.420	59.816	10.663	-57.292	-53.067	-50.573	-47.148	67.033	-51.134	-8191	255	
1015.030	1	1	0	0	0.14465	0.056242	0.18015	0.04456	0.28812	0.15992	0.14	0.10513	0.19599	0.097188	0.12003	0.11722	0.16867	0.24589	0.23817	0.22514	-3.325	-3.5812	-3.1625	-3.5771	-3.4458	-3.2583	-3.7833	-3.2188	-3.5021	-3.6708	-3.1125	-3.6667	-3.5542	-3.3438	-3.8542	-3.2542	205.507	49.907	262.946	-64.719	143.290	53.389	52.948	159.229	-70.403	244.823	179.717	-63.844	111.035	41.056	255.144	-47.785	2.3428e-05	0.00024324	6.2384e-05	444.95	1.296e-05	2.1259e-06	428.38	140.51	1.0448e-05	1.3227e-05	162.7	63.925	53.151	20.703	1.7943e-06	24.99	0.0087045	0.014679	0.0040362	563.62	0.00015541	0.00016162	436.78	147.98	0.00014061	0.00015985	178.25	66.447	56.853	21.997	0.00014529	26.946	-8.755	144.092	202.907	-60.033	153.166	176.435	-61.607	-53.756	89.879	56.155	-56.798	-53.167	-50.762	-46.682	147.568	-51.278	-8191	255	
1015.126	1	1	0	0	0.12829	0.27083	0.015888	0.048884	0.071995	0.18508	0.1831	0.38793	0.099362	0.15327	0.25336	0.13855	0.081842	0.32507	0.3976	0.18327	-3.2417	-3.6813	-3.2833	-3.7417	-3.4313	-3.3708	-3.8792	-3.25	-3.2854	-3.8063	-3.0854	-3.5208	-3.4667	-3.1813	-3.7354	-3.3104	262.049	6.361	142.770	109.589	-30.359	-57.403	83.570	271.714	274.494	11.129	90.324	223.005	210.033	-67.184	66.064	214.257	0.00016824	0.0010785	0.00027442	452.1	1.2168e-05	1.324e-05	432.56	141.9	3.9679e-06	9.4038e-06	163.16	64.115	53.714	20.848	9.3661e-06	25.436	0.0084314	0.014347	0.0039479	564.54	0.00015291	0.00015852	441.09	148.4	0.00014009	0.00016041	180.5	66.969	57.42	22.177	0.00014658	27.347	-55.394	22.194	155.179	-60.497	-29.707	63.535	-61.874	-54.208	247.261	173.672	-57.161	-53.853	-50.707	-47.004	120.949	-50.935	-8191	255	
1015.222	1	1	0	0	0.041934	0.14076	0.20423	0.1436	0.15967	0.13514	0.1528	0.028974	0.089793	0.10693	0.084799	0.25013	0.22873	0.24803	0.11598	0.25176	-3.0312	-3.5896	-3.2146	-3.7146	-3.5833	-3.3063	-3.7833	-3.3208	-3.2292	-3.6979	-3.2333	-3.5542	-3.5583	-3.2687	-3.8458	-3.4646	246.847	211.794	101.755	204.106	75.419	82.700	-62.770	164.620	129.538	267.974	119.547	41.663	-48.739	168.222	141.377	197.038	0.00021409	0.00080753	0.00026201	452.56	4.5136e-06	4.5043e-06	437.06	144.09	1.6665e-05	4.6091e-06	166.03	66.106	55.272	21.346	1.5054e-05	26.145	0.0085983	0.014485	0.0040468	569.89	0.00015366	0.00016103	447.7	150.62	0.00014329	0.00016215	183.15	68.56	58.42	22.717	0.00014931	28.101	269.352	20.353	111.187	-60.395	92.387	243.205	-61.945	-54.010	144.410	130.638	-57.123	-53.494	-50.865	-47.275	105.244	-50.544	-8191	255	
1015.319	1	1	0	0	0.12968	0.15447	0.24289	0.14132	0.13625	0.2559	0.081322	0.052248	0.18905	0.13789	0.1579	0.23838	0.12025	0.37515	0.094499	0.21237	-2.9396	-3.7625	-3.2542	-3.525	-3.6083	-3.2375	-3.7667	-3.4625	-3.4146	-3.8125	-3.1688	-3.5	-3.7896	-3.225	-3.6375	-3.5979	237.296	23.275	286.787	226.700	-31.488	15.777	213.310	80.748	35.330	226.998	-55.259	252.109	-46.328	-66.083	-70.815	-17.686	8.5968e-05	0.00059154	0.00032857	464.68	7.6581e-06	1.0607e-06	449.84	145.03	6.6624e-06	1.5636e-05	167.14	65.931	55.464	21.545	2.8482e-05	25.785	0.0088696	0.014657	0.0042356	585.36	0.0001596	0.00016594	458.05	151.79	0.00014288	0.00016263	183.46	68.68	58.592	22.779	0.00014869	27.837	107.651	57.201	63.964	-59.709	-3.461	173.541	-62.156	-54.614	-1.082	148.040	-57.629	-53.307	-50.660	-47.873	131.756	-50.888	-8191	255	
1015.437	1	1	0	0	0.28426	0.25294	0.061538	0.29094	0.14873	0.19477	0.10145	0.06812	0.11691	0.085799	0.14802	0.16746	0.2656	0.16851	0.036545	0.22535	-2.8729	-3.8146	-3.2625	-3.4104	-3.7854	-3.1375	-3.6792	-3.5333	-3.1958	-3.6562	-3.3458	-3.3479	-3.7708	-3.1625	-3.5104	-3.5917	-51.250	259.300	119.514	188.418	209.144	-65.238	-3.941	33.872	106.015	100.261	65.273	213.342	215.430	-51.785	29.534	-23.351	9.9282e-05	0.0013412	7.7518e-05	467.87	3.2787e-06	1.0583e-05	451.25	144.68	6.4647e-06	1.1385e-05	167.44	65.877	54.929	21.51	9.3825e-06	25.95	0.0086027	0.01444	0.0041895	586.42	0.00015681	0.00016604	459.88	151.71	0.00014352	0.00016241	183.35	68.465	58.162	22.767	0.00014423	27.712	-38.083	253.085	75.370	-59.353	265.406	26.156	-62.055	-54.390	150.116	41.711	-57.498	-54.030	-50.741	-47.381	49.723	-50.471	-8191	255	
1015.534	1	1	0	0	0.16779	0.1038	0.12323	0.079654	0.075032	0.10435	0.14246	0.13573	0.13918	0.13663	0.026589	0.037963	0.22558	0.13287	0.060919	0.10002	-2.8667	-3.7438	-3.3812	-3.3354	-3.6083	-3.2104	-3.6521	-3.6104	-3.3104	-3.8167	-3.5958	-3.5146	-3.8417	-3.2979	-3.4313	-3.7229	39.738	68.745	109.793	-8.069	204.791	-30.385	-8.990	114.727	142.098	34.401	116.068	27.613	274.946	164.801	-20.468	138.649	9.9318e-05	0.00094205	0.00044966	468.87	1.8349e-05	4.1125e-06	450.84	143.83	1.982e-05	1.0223e-05	168.05	65.256	54.904	21.117	1.6361e-05	25.78	0.0083851	0.013876	0.0039942	575.45	0.00014801	0.00015769	454.93	149.53	0.000134	0.00015307	181.36	67.654	57.403	22.266	0.00013636	27.38	1.509	24.468	42.610	-59.917	244.012	194.909	-61.888	-54.147	24.763	34.000	-57.286	-53.452	-51.589	-46.988	270.847	-50.935	-8191	255	
1015.630	1	1	0	0	0.14906	0.13421	0.36323	0.08054	0.11257	0.15578	0.034909	0.048251	0.1133	0.23385	0.19314	0.22424	0.20639	0.16149	0.076094	0.039989	-2.8812	-3.6688	-3.5563	-3.3063	-3.675	-3.3292	-3.4875	-3.4938	-3.2708	-3.5271	-3.3875	-3.1917	-3.8187	-3.4521	-3.4708	-3.6083	-53.887	128.352	-35.484	64.756	102.350	72.192	37.831	280.040	107.300	264.367	284.998	94.875	250.858	-32.874	112.637	70.085	0.00015974	0.00040161	0.00039557	457.66	6.7759e-06	1.2189e-06	454.27	144.74	1.199e-05	7.5723e-06	168.83	66.336	55.575	21.599	1.4595e-06	26.26	0.0078974	0.013293	0.0038088	569.6	0.00014364	0.0001527	459.04	150.44	0.00013292	0.00015369	183.08	68.68	57.988	22.737	0.00013981	27.934	169.520	3.468	248.381	-59.748	161.772	108.955	-62.115	-54.158	128.647	41.367	-57.385	-53.852	-50.770	-47.226	257.095	-51.256	-8191	255	
1015.726	1	1	0	0	0.24649	0.14171	0.0424	0.3736	0.10251	0.19751	0.11239	0.074703	0.061863	0.077238	0.10313	0.27594	0.038998	0.13633	0.11187	0.15469	-2.8333	-3.5021	-3.6292	-3.3583	-3.7062	-3.4625	-3.475	-3.5729	-3.0917	-3.7104	-3.6292	-3.2958	-3.9083	-3.5229	-3.3167	-3.7229	114.513	-57.128	-14.361	-43.793	124.869	189.027	19.802	174.777	87.203	61.303	-10.933	268.227	-28.682	41.752	-10.430	99.295	0.00014058	0.0006227	0.00020551	472.77	1.3897e-05	5.8334e-06	455.95	145	2.3071e-05	1.8868e-05	166.75	66.275	54.899	21.611	1.6055e-05	26.173	0.0082375	0.013728	0.0039704	578.94	0.00015059	0.00015936	463.29	151.45	0.00014246	0.00016361	184.2	69.259	58.737	23.188	0.00015607	28.325	37.116	243.544	-63.782	-59.512	14.379	58.473	-61.696	-54.311	192.290	4.445	-58.225	-53.639	-51.430	-47.651	165.622	-51.356	-8191	255	
1015.822	1	1	0	0	0.1722	0.15232	0.21082	0.33729	0.25141	0.22644	0.18138	0.29874	0.21444	0.049007	0.21777	0.091736	0.26622	0.40643	0.16771	0.22915	-3	-3.6396	-3.5125	-3.125	-3.6375	-3.3896	-3.2833	-3.5438	-3.2375	-3.5625	-3.5271	-3.3104	-3.6771	-3.375	-3.3729	-3.6792	68.829	256.927	139.054	204.854	-48.682	272.951	25.218	272.362	45.514	117.621	81.418	237.855	99.418	-36.188	68.567	243.226	0.00018499	0.00026461	0.00026492	464.59	2.8753e-07	1.797e-05	458.18	143.95	1.1951e-05	2.2963e-06	168.5	65.835	55.831	22.117	6.6794e-06	26.562	0.0094204	0.015988	0.004636	612.32	0.00018253	0.00019433	476.82	155.59	0.00018283	0.00020995	194.28	72.073	61.868	24.456	0.00020976	30.138	35.708	257.113	237.653	-59.868	265.763	73.708	-62.395	-54.332	137.894	231.276	-57.185	-54.136	-51.249	-48.054	21.596	-51.180	-8191	255	
1015.918	1	1	0	0	0.13192	0.06627	0.088827	0.15193	0.096266	0.1646	0.28569	0.29071	0.2032	0.117	0.065458	0.16635	0.035073	0.14013	0.028778	0.10881	-2.8375	-3.4479	-3.6521	-3.4021	-3.5625	-3.4292	-3.1667	-3.8146	-3.4708	-3.5875	-3.6729	-3.2396	-3.6646	-3.5854	-3.2938	-3.5958	186.638	11.991	245.988	176.465	-49.679	-19.127	-22.866	276.713	212.912	231.588	189.897	-12.741	35.716	105.482	93.138	-30.798	0.00033256	0.0011284	0.00028244	480.97	8.8492e-06	1.3994e-05	460.79	144.68	1.2828e-05	8.4009e-06	170.51	67.019	56.049	22.119	6.1211e-06	26.84	0.01271	0.021389	0.0061668	675.8	0.0002382	0.00025423	497.36	162.79	0.00023232	0.000265	205.18	74.994	64.077	25.204	0.00024455	31.163	-8.277	6.580	266.321	-60.209	-57.999	150.085	-62.306	-54.519	61.437	-37.480	-57.683	-54.223	-50.815	-48.602	110.603	-52.077	-8191	255	
1016.039	1	1	0	0	0.081888	0.052942	0.11277	0.14227	0.15915	0.17666	0.31131	0.28125	0.23993	0.28043	0.075876	0.28159	0.37366	0.13911	0.082234	0.21367	-2.9313	-3.4271	-3.5812	-3.1479	-3.6813	-3.4875	-3.4354	-3.5958	-3.3458	-3.3042	-3.7042	-3.2812	-3.5792	-3.5438	-3.1604	-3.7375	123.919	71.696	277.705	258.873	272.229	253.228	27.819	163.931	-10.633	226.309	167.799	199.800	274.889	257.391	26.185	244.129	0.00053353	0.0013288	0.0003232	471.7	7.2882e-06	7.8826e-06	459.57	145.23	1.2958e-05	6.882e-06	170.46	66.693	55.876	22.153	8.8886e-06	26.975	0.014235	0.023749	0.0067146	695.64	0.0002585	0.00027058	498.86	163.97	0.00023953	0.0002709	205.92	75.027	64.061	25.245	0.0002495	31.414	259.989	257.472	30.232	-61.056	148.986	243.240	-61.959	-54.236	263.782	76.595	-57.306	-53.429	-51.514	-48.150	276.358	-51.564	-8191	255	
1016.133	1	1	0	0	0.066763	0.17099	0.20775	0.050414	0.085211	0.072374	0.18661	0.10106	0.13928	0.12082	0.095368	0.098522	0.14255	0.24319	0.10524	0.33035	-2.9333	-3.3292	-3.5917	-3.2438	-3.575	-3.5563	-3.4167	-3.6375	-3.5125	-3.4208	-3.75	-3.1042	-3.6021	-3.6396	-3.1083	-3.6771	151.249	136.346	37.904	190.112	187.949	-47.519	29.961	96.790	-17.377	-31.345	-23.418	69.655	181.003	232.308	-57.940	-36.819	0.00024292	0.00081528	0.00026834	475.03	1.6657e-05	1.3889e-05	467.28	148.4	2.1562e-05	2.31e-05	171.93	67.539	56.47	22.512	8.8017e-06	26.553	0.0145	0.024375	0.0068332	705.92	0.00026352	0.00027668	506.2	165.99	0.00024422	0.00027813	207.07	75.606	64.692	25.506	0.00025227	31.4	-72.217	233.048	274.635	-60.495	16.060	241.012	-61.856	-54.686	82.304	163.134	-58.399	-54.346	-51.089	-48.570	81.525	-51.407	-8191	255	
1016.207	1	1	0	0	0.14356	0.11641	0.10929	0.13679	0.16394	0.21198	0.26947	0.13457	0.1614	0.064835	0.13425	0.29068	0.13504	0.057014	0.11238	0.25063	-3.1417	-3.1208	-3.7938	-3.2979	-3.425	-3.7	-3.1729	-3.6396	-3.3688	-3.2062	-3.6792	-3.4167	-3.4813	-3.8229	-3.2708	-3.6271	147.600	24.641	131.150	228.406	241.874	148.126	199.875	211.413	191.840	-50.910	278.326	-29.080	245.436	209.591	-57.893	275.209	0.00038518	0.00060855	0.00057847	491.98	1.436e-05	5.4746e-06	480.97	146.82	2.1482e-05	5.5916e-06	171.54	68.187	58.102	22.542	1.9102e-05	27.202	0.014483	0.024204	0.0069341	717.18	0.00026142	0.00027413	515.44	165.74	0.00023703	0.00027049	206.19	75.946	65.342	25.567	0.00024763	31.575	31.875	-70.717	-25.657	-59.905	201.808	182.759	-62.381	-54.830	131.080	96.594	-58.294	-54.713	-51.956	-48.639	199.696	-51.779	-8191	255	
1016.303	1	1	0	0	0.060057	0.3711	0.054133	0.20244	0.083929	0.10563	0.18737	0.24052	0.047064	0.11632	0.067127	0.059197	0.043676	0.094133	0.16464	0.20139	-3.2021	-3.2146	-3.7438	-3.3104	-3.325	-3.8292	-3.3104	-3.4854	-3.5563	-3.3167	-3.7188	-3.3521	-3.2396	-3.7875	-3.1292	-3.5708	135.600	-35.653	-72.591	257.184	-44.023	267.886	242.045	-5.715	17.800	260.815	53.733	195.728	172.551	112.873	-15.528	208.394	0.00031308	0.00058067	0.00021691	495.19	7.4333e-06	1.946e-05	493.36	150.47	1.0629e-05	7.5842e-06	176.05	70.467	58.391	23.222	5.0423e-06	27.649	0.014305	0.02396	0.0067346	722.42	0.00025858	0.00027005	532.78	168.27	0.00023886	0.00027122	210.39	78.1	66.468	26.104	0.00024536	31.896	-34.107	149.818	59.592	-60.428	167.602	215.679	-62.291	-55.027	95.596	39.533	-57.089	-54.274	-52.375	-49.703	17.368	-52.325	-8191	255	
1016.422	1	1	0	0	0.23519	0.1537	0.11981	0.061036	0.090239	0.24764	0.16472	0.26825	0.19295	0.072656	0.019788	0.073463	0.13893	0.21974	0.2872	0.24209	-3.1771	-3.1667	-3.6021	-3.5479	-3.4917	-3.725	-3.25	-3.5042	-3.5083	-3.2229	-3.6854	-3.4271	-3.1979	-3.7708	-3.275	-3.5083	12.601	46.603	120.934	-68.780	-4.721	205.250	222.586	174.980	272.680	241.681	44.272	229.849	279.402	280.786	25.363	226.172	8.186e-05	0.001388	0.00018484	511.56	5.6532e-06	9.1869e-06	512.33	150.55	6.1285e-06	9.1955e-06	175.73	70.558	57.98	23.041	1.3728e-05	27.804	0.013997	0.023442	0.0065522	727.4	0.00025131	0.00026295	542.38	167.52	0.00023112	0.00026065	209.3	77.284	65.518	25.768	0.00023311	31.625	235.936	253.266	73.504	-61.325	48.087	102.217	-62.846	-54.563	32.890	247.827	-57.511	-54.666	-51.861	-49.011	88.798	-52.493	-8191	255	
1016.518	1	1	0	0	0.18719	0.15132	0.38028	0.030652	0.28225	0.03421	0.17735	0.1563	0.21884	0.10199	0.092764	0.15408	0.21303	0.13952	0.30722	0.0098828	-3.2333	-3.1229	-3.4083	-3.525	-3.1896	-3.775	-3.3708	-3.5521	-3.7292	-3.1958	-3.6333	-3.6375	-3.2042	-3.8708	-3.3917	-3.4208	97.718	144.209	-62.727	171.522	257.435	132.648	27.488	255.042	-72.241	-20.074	-25.751	-10.269	27.268	-34.880	205.106	-35.374	0.00020438	0.00015635	0.00013126	512	6.6002e-06	1.4089e-05	526.94	151.13	7.4553e-06	1.4732e-05	173.31	70.019	57.164	22.527	7.0632e-06	27.165	0.013341	0.022214	0.0062835	717.13	0.00023764	0.00024722	550.32	165.32	0.00021153	0.00024165	204.1	75.816	64.069	24.982	0.00021762	30.753	-37.869	121.842	177.473	-60.744	25.187	71.218	-63.248	-55.065	143.239	70.023	-57.848	-54.675	-51.836	-49.007	231.293	-52.085	-8191	255	
1016.614	1	1	0	0	0.098366	0.03351	0.17368	0.10955	0.18362	0.053783	0.37165	0.12375	0.19733	0.14329	0.15953	0.13382	0.17946	0.014277	0.11769	0.15484	-3.2083	-3.2562	-3.5146	-3.4938	-3.2292	-3.6917	-3.4396	-3.3708	-3.7604	-3.1771	-3.7375	-3.6875	-3.1104	-3.7917	-3.4604	-3.3396	270.242	162.872	158.805	9.816	87.892	283.833	258.227	236.464	123.398	140.352	198.978	177.783	278.376	152.497	256.242	12.635	0.00026775	0.00094626	0.00030122	526.99	3.8267e-06	7.422e-06	532.19	147.95	4.1836e-06	1.7777e-05	173.25	68.784	57.054	22.31	2.0284e-05	26.844	0.012476	0.020796	0.0058478	708.78	0.00022426	0.00023465	551.21	162.75	0.00020281	0.00023616	201.03	74.686	63.154	24.658	0.00020987	30.168	-19.351	232.886	-70.532	-60.515	-26.225	88.026	-63.057	-55.179	191.013	14.407	-58.141	-55.412	-52.475	-49.205	-41.918	-52.857	-8191	255	
1016.710	1	1	0	0	0.26636	0.22574	0.088286	0.16126	0.21886	0.20406	0.077415	0.042855	0.062579	0.20021	0.16172	0.10623	0.10712	0.15123	0.19404	0.23612	-3.3104	-3.1583	-3.425	-3.6958	-3.2042	-3.7167	-3.6063	-3.3333	-3.7687	-3.3958	-3.5229	-3.7583	-3.2938	-3.6958	-3.5521	-3.4729	48.384	197.901	84.337	280.597	92.368	51.337	-71.721	220.922	46.845	-23.819	27.841	269.112	178.686	98.434	-47.751	174.451	6.2977e-05	0.00068487	0.0002459	526.8	8.1813e-06	9.1834e-06	532.46	147.88	1.3405e-05	1.6226e-05	173.46	69.428	56.893	22.905	3.4415e-06	27.416	0.012057	0.020167	0.0056864	704.43	0.00021682	0.00022729	552.71	162.37	0.00019965	0.00023145	201.34	75.135	63.512	25.024	0.00020763	30.664	210.612	55.113	106.288	-60.709	124.484	-43.686	-62.620	-55.156	16.296	-7.863	-58.635	-55.319	-52.108	-49.290	254.215	-51.764	-8191	255	
1016.831	1	1	0	0	0.25609	0.19727	0.076	0.072362	0.17886	0.24688	0.17144	0.14482	0.16976	0.076463	0.22708	0.057682	0.19081	0.033414	0.063264	0.15084	-3.4271	-3.3708	-3.5625	-3.725	-3.3187	-3.5729	-3.5521	-3.2708	-3.7708	-3.3563	-3.1042	-3.8187	-3.1688	-3.5021	-3.7208	-3.3646	-44.052	224.020	181.435	-50.359	134.162	-30.239	173.281	208.487	192.563	-67.442	225.023	6.571	191.751	-7.862	265.658	123.786	0.00028835	0.0013046	0.00031784	529.85	1.0251e-05	4.7485e-06	534.76	150.73	1.6749e-05	1.5086e-05	177	71.049	58.637	23.531	5.1226e-06	27.906	0.011863	0.019752	0.0055569	701.19	0.00021395	0.00022152	553.91	162.71	0.00019341	0.00022435	202.34	76.364	64.397	25.538	0.00019966	31.151	279.053	-64.848	279.393	-60.995	38.888	-25.465	-62.673	-55.461	285.131	156.004	-58.554	-54.690	-52.801	-49.788	-0.361	-53.073	-8191	255	
1016.902	1	1	0	0	0.079439	0.30052	0.12218	0.20642	0.18761	0.11145	0.13297	0.097256	0.18049	0.27005	0.087121	0.29369	0.11901	0.12311	0.079803	0.17945	-3.3167	-3.3042	-3.3229	-3.7542	-3.3312	-3.6458	-3.5646	-3.175	-3.7604	-3.4813	-3.1458	-3.6354	-3.4896	-3.675	-3.6312	-3.1771	5.273	116.330	-27.668	-31.675	36.455	130.898	236.732	-51.019	98.835	116.358	245.472	-64.208	-16.369	47.417	16.467	0.116	0.00036534	0.00077185	0.00034132	541.32	5.4042e-06	1.7883e-05	548.97	152.9	4.932e-06	6.3389e-06	180.3	73.61	60.199	23.669	4.432e-06	29.014	0.011351	0.018837	0.0052317	697.29	0.00019631	0.00019819	560.6	162.46	0.00017007	0.00019392	200.58	77.048	64.362	25.218	0.00016915	31.117	-13.372	233.912	-60.890	-60.176	56.778	32.266	-62.843	-55.335	-55.966	128.266	-58.023	-55.209	-52.820	-50.723	22.867	-53.285	-8191	255	
1016.999	1	1	0	0	0.186	0.12971	0.0517	0.069962	0.10379	0.14219	0.18521	0.013834	0.079765	0.073468	0.23813	0.076697	0.35493	0.22267	0.089576	0.094876	-3.2854	-3.5354	-3.2479	-3.6688	-3.5229	-3.4208	-3.8187	-3.2687	-3.6	-3.5771	-3.4938	-3.7167	-3.5187	-3.4021	-3.8187	-3.1771	21.354	136.481	63.225	227.664	56.246	208.158	0.675	-32.124	8.236	34.883	182.127	71.474	266.992	69.958	272.851	-72.339	0.00021704	0.00087934	0.000184	556.96	9.0012e-06	9.0138e-06	566.91	156.23	1.8164e-05	2.121e-05	184.02	76.336	61.647	24.451	2.9335e-06	29.129	0.0095099	0.015808	0.004407	675.26	0.00016372	0.00016535	567.31	161.54	0.00013408	0.00015231	196.09	77.396	63.502	25.182	0.00012339	30.317	-64.306	277.934	85.355	-60.198	131.145	38.144	-62.814	-56.098	120.445	2.368	-58.504	-56.363	-53.136	-51.506	41.587	-53.817	-8191	255	
1017.119	1	1	0	0	0.20438	0.14136	0.41043	0.061299	0.030279	0.10686	0.016766	0.067819	0.071383	0.26735	0.25123	0.3233	0.13355	0.17977	0.13731	0.20995	-3.0854	-3.5187	-3.1375	-3.8729	-3.3812	-3.425	-3.7896	-3.2812	-3.7062	-3.5062	-3.1271	-3.7667	-3.525	-3.3104	-3.9667	-3.2833	271.377	-43.169	-60.862	198.249	251.099	-73.775	282.254	95.784	-29.135	183.730	169.464	253.454	-38.728	282.122	-21.650	-53.802	0.00022312	0.0006048	0.00021519	556.52	1.5886e-06	2.4379e-06	559.37	154.47	7.3177e-06	7.2313e-06	178.88	73.37	58.764	22.655	7.8067e-06	27.189	0.0071394	0.011619	0.0032854	628.31	0.00012573	0.00012844	548.69	156.65	0.00010938	0.00012624	187.4	73.476	60.035	23.131	0.00010445	27.991	226.966	236.472	281.370	-60.538	132.923	255.668	-62.881	-55.861	154.143	99.632	-58.467	-55.607	-53.271	-50.368	-47.961	-53.255	-8191	255	
1017.214	1	1	0	0	0.10132	0.16589	0.038683	0.13213	0.17992	0.11799	0.27091	0.23009	0.027772	0.19666	0.10324	0.19149	0.19312	0.13458	0.31313	0.29004	-3.075	-3.5771	-3.175	-3.7625	-3.4958	-3.3937	-3.8667	-3.2896	-3.6542	-3.6937	-3.3146	-3.8042	-3.4313	-3.3063	-3.6813	-3.2667	-50.508	42.575	194.016	237.298	279.483	-35.482	107.205	109.594	-29.171	-2.121	-37.197	180.361	200.705	109.342	165.493	261.130	8.1521e-05	0.00063343	0.00023417	528.99	7.74e-06	8.6129e-06	541.48	152.1	4.387e-06	9.7493e-06	176.69	72.248	58.049	21.892	1.8066e-05	25.915	0.0058616	0.0097042	0.002744	586.62	0.00010368	0.00010538	526.1	150.58	8.8454e-05	0.00010229	180.62	71.413	57.999	21.828	8.1126e-05	26.291	108.278	183.527	176.322	-60.406	-52.302	56.547	-62.887	-55.526	252.195	108.003	-58.858	-55.563	-53.646	-50.279	138.175	-52.866	-8191	255	
1017.311	1	1	0	0	0.078966	0.067485	0.11089	0.10795	0.19643	0.25289	0.27433	0.066587	0.13541	0.22823	0.082361	0.045685	0.11886	0.11072	0.089004	0.3568	-3.0417	-3.6042	-3.1437	-3.6688	-3.4771	-3.2917	-3.8063	-3.2104	-3.4021	-3.8333	-3.2375	-3.6042	-3.5167	-3.2854	-3.8396	-3.2896	-1.824	39.508	24.675	101.866	172.347	278.890	217.634	113.764	123.153	86.836	-59.726	-43.346	138.404	5.505	229.742	170.943	0.0001785	0.00057436	9.6689e-05	523.6	4.8322e-06	5.5982e-06	542.67	150.17	8.2158e-06	7.0704e-06	174.63	71.319	56.678	20.75	4.4203e-06	25.461	0.0045267	0.0073085	0.0020181	557.49	7.6723e-05	7.7906e-05	517.18	146.29	6.5003e-05	7.5549e-05	175.53	69.402	55.941	20.605	6.3042e-05	25.236	-30.877	-0.031	276.554	-59.875	143.265	148.178	-62.897	-55.533	70.534	64.050	-58.431	-55.936	-53.318	-49.900	262.488	-53.002	-8191	255	
1017.430	1	1	0	0	0.22476	0.18597	0.13295	0.18963	0.11014	0.13461	0.044021	0.10579	0.030564	0.24869	0.11429	0.27808	0.12406	0.023053	0.13098	0.083273	-2.9979	-3.5792	-3.1688	-3.5875	-3.775	-3.275	-3.8292	-3.3104	-3.4208	-3.7646	-3.3312	-3.6104	-3.7792	-3.3354	-3.6771	-3.4875	33.673	220.662	276.330	20.228	77.752	30.752	209.250	-24.327	246.776	106.924	15.611	-0.523	242.097	109.280	-18.712	33.180	0.00013445	0.00031643	0.00016244	538.7	4.1992e-06	6.5305e-06	555.08	147.3	1.149e-05	5.726e-06	171.68	69.326	54.79	20.229	1.0472e-05	24.774	0.0036019	0.0058621	0.001649	553.16	6.3225e-05	6.4425e-05	525.27	141.77	5.4235e-05	6.1835e-05	169.89	66.846	53.773	19.812	5.4789e-05	24.555	-55.740	242.519	253.153	-60.981	28.709	67.239	-62.792	-56.455	37.330	38.211	-59.361	-56.251	-53.369	-50.240	157.226	-53.021	-8191	255	
1017.502	1	1	0	0	0.083727	0.12649	0.22643	0.089739	0.14222	0.1627	0.0959	0.16152	0.17519	0.095932	0.16309	0.095992	0.010599	0.1641	0.14417	0.23847	-2.9583	-3.6042	-3.1396	-3.65	-3.725	-3.3146	-3.6792	-3.575	-3.2354	-3.875	-3.2208	-3.3312	-3.7604	-2.9896	-3.5417	-3.5333	285.099	178.234	204.921	-27.600	89.893	-16.434	148.644	277.411	-29.608	188.876	219.838	257.465	106.925	5.424	0.609	64.446	9.5152e-05	0.00074946	0.00020878	544.26	3.8463e-06	1.9535e-06	569.43	147.41	1.1901e-05	5.058e-06	172.15	69.537	55.164	20.088	1.0826e-05	24.57	0.003367	0.0055714	0.0015919	560.29	6.3698e-05	6.7438e-05	540.23	141.97	5.8514e-05	6.8172e-05	170.82	67.101	54.072	19.91	5.9408e-05	24.457	240.300	-26.130	81.298	-61.520	56.346	141.916	-63.283	-56.082	50.235	114.532	-58.558	-56.342	-53.941	-50.112	-54.612	-53.190	-8191	255	
1017.598	1	1	0	0	0.18944	0.19555	0.11972	0.19763	0.24146	0.26143	0.10215	0.04957	0.21467	0.2035	0.15231	0.22227	0.21157	0.18879	0.25516	0.084641	-2.8083	-3.6188	-3.2521	-3.2583	-3.7042	-3.325	-3.5854	-3.5042	-3.2229	-3.8083	-3.2667	-3.2583	-3.6958	-3.2542	-3.45	-3.5792	-5.752	-28.437	169.565	229.907	143.190	-52.064	48.795	224.925	284.042	72.524	7.728	-27.138	131.710	25.654	211.146	250.244	0.00013744	0.00057194	0.00011937	545.02	7.3237e-06	5.8814e-06	572.8	145.29	6.8884e-06	3.4911e-06	174.33	70.281	56.245	19.847	1.0174e-05	24.836	0.003538	0.0057082	0.0016181	565.48	6.2013e-05	6.6848e-05	542.14	141.42	5.728e-05	6.4718e-05	172.06	67.777	54.609	19.594	5.7174e-05	24.389	23.309	39.210	-39.366	-60.731	-4.364	39.832	-63.462	-56.209	39.056	237.807	-58.894	-56.108	-53.995	-49.894	-19.841	-52.650	-8191	255	
1017.719	1	1	0	0	0.098891	0.048854	0.18509	0.15878	0.2505	0.20351	0.17272	0.20571	0.13994	0.18503	0.10753	0.16102	0.15531	0.048809	0.14478	0.2672	-2.7646	-3.7	-3.2417	-3.1625	-3.7167	-3.2458	-3.6667	-3.6583	-3.1354	-3.6771	-3.3354	-3.3604	-3.7083	-3.3667	-3.5187	-3.8354	106.716	-37.692	141.521	-47.468	229.958	86.253	282.630	-28.454	3.447	230.808	94.889	231.950	176.830	178.294	-1.998	-66.326	0.00016498	0.0006527	3.4223e-05	554.38	6.297e-06	4.3226e-06	571.09	147.05	1.4339e-06	4.4098e-06	174.68	70.692	55.925	20.417	1.0526e-05	25.802	0.0033802	0.0054777	0.0015363	562.19	5.8947e-05	6.3456e-05	541.58	141.84	5.5556e-05	6.517e-05	172.43	68.264	54.894	20.024	6.2359e-05	25.546	-26.905	12.142	255.129	-60.669	-23.341	133.468	-62.940	-55.562	223.687	11.977	-59.347	-56.003	-53.626	-50.493	135.343	-53.418	-8191	255	
1017.815	1	1	0	0	0.41933	0.10027	0.092487	0.20908	0.12658	0.22094	0.11465	0.10471	0.19639	0.18648	0.14948	0.14848	0.065056	0.04593	0.21191	0.17529	-2.7708	-3.7229	-3.5167	-3.2667	-3.7792	-3.3479	-3.4354	-3.7188	-3.3396	-3.675	-3.45	-3.2021	-3.8479	-3.4729	-3.5146	-3.7604	30.854	143.888	227.640	86.239	27.287	189.810	-26.909	-66.309	-63.338	203.623	164.537	115.812	189.295	181.266	227.222	-26.136	0.00021719	0.0010515	0.000125	564.68	7.8901e-06	1.9142e-06	597.38	152.8	2.8457e-06	2.5633e-06	177.19	72.034	57.074	21.056	1.0477e-05	25.652	0.003796	0.0062501	0.0017616	584.81	6.5838e-05	6.8529e-05	566.2	147.49	5.7124e-05	6.4382e-05	176.04	69.639	55.215	20.711	5.2083e-05	25.115	-47.910	39.724	-0.354	-61.704	45.395	249.275	-63.159	-56.352	258.496	279.818	-58.969	-56.758	-53.822	-50.890	147.239	-54.073	-8191	255	
1017.911	1	1	0	0	0.16184	0.14176	0.17877	0.17699	0.17426	0.24768	0.11201	0.04446	0.039127	0.17722	0.071189	0.22625	0.25189	0.096667	0.10995	0.039361	-2.675	-3.5958	-3.4188	-3.2188	-3.775	-3.5354	-3.4375	-3.7021	-3.3646	-3.475	-3.5417	-3.2646	-3.5979	-3.3458	-3.3563	-3.85	165.691	-10.220	126.123	103.869	226.847	82.793	181.952	137.282	59.045	263.246	151.708	-51.827	224.123	177.999	-23.892	85.171	0.00013409	0.00044903	0.00010855	538.69	2.469e-06	5.3885e-06	567.06	145.68	1.6704e-06	5.7454e-06	171.58	69.47	55.036	20.8	1.0875e-05	25.758	0.0030094	0.0047152	0.0013229	543.67	5.0527e-05	5.4591e-05	532.24	140.09	4.7384e-05	5.426e-05	168.91	67.05	53.593	20.373	5.0625e-05	25.203	280.640	-10.592	24.499	-61.021	188.416	28.501	-63.217	-56.207	204.507	54.453	-58.572	-56.818	-53.745	-51.502	74.000	-54.100	-8191	255	
1018.007	1	1	0	0	0.083642	0.17162	0.095829	0.10185	0.078929	0.15172	0.064508	0.23573	0.13423	0.2164	0.20197	0.17917	0.22191	0.17561	0.23574	0.24998	-2.9396	-3.5271	-3.5896	-3.2083	-3.6437	-3.2229	-3.4208	-3.6813	-3.2833	-3.5583	-3.6542	-3.2812	-3.7104	-3.5146	-3.3208	-3.7146	36.612	214.989	245.800	-51.277	-50.956	40.360	263.103	222.424	-10.787	-4.973	-52.067	71.866	165.180	222.252	19.600	38.071	0.00013896	0.00050725	0.00017332	542.87	2.3617e-06	5.8326e-06	569.67	144.96	3.7836e-06	6.6678e-06	169.96	67.7	53.567	19.546	7.6544e-06	23.929	0.0030857	0.0047871	0.0013786	551.71	5.2261e-05	5.535e-05	535.13	138.92	4.6171e-05	5.1986e-05	165.59	65.219	51.799	19.018	4.3134e-05	23.321	269.668	9.861	-11.716	-60.458	202.834	59.076	-63.179	-56.160	161.841	9.260	-58.991	-56.036	-53.262	-50.482	-7.737	-52.924	-8191	255	
1018.103	1	1	0	0	0.10857	0.27872	0.06854	0.086253	0.077238	0.099436	0.079309	0.10982	0.090979	0.070129	0.14948	0.16427	0.4067	0.23871	0.31533	0.1688	-3.0729	-3.4292	-3.8125	-3.2479	-3.5917	-3.5062	-3.2229	-3.6771	-3.2729	-3.5354	-3.6833	-3.2687	-3.5521	-3.5083	-3.2646	-3.775	-67.893	-52.923	85.419	276.355	82.060	284.588	106.890	124.308	223.109	-35.268	223.064	-20.953	285.287	112.084	85.560	280.911	5.0164e-05	0.00029609	0.00020124	532.05	2.0057e-06	5.068e-06	550.42	142.43	1.1739e-06	1.2923e-05	167.15	66.776	52.436	18.756	3.6318e-06	23.785	0.0025567	0.0041261	0.0011446	528.43	4.2893e-05	4.7732e-05	517.57	136.22	4.0465e-05	4.4913e-05	161.39	63.692	50.734	18.29	4.1273e-05	23.083	114.775	207.632	17.657	-60.345	136.802	164.623	-63.023	-56.014	143.095	73.417	-58.858	-56.526	-53.507	-50.180	-64.061	-53.104	-8191	255	
1018.200	1	1	0	0	0.22921	0.28013	0.24453	0.20005	0.10211	0.086643	0.046849	0.076132	0.077701	0.19541	0.071504	0.1131	0.26022	0.11273	0.13435	0.020727	-2.9792	-3.5125	-4.0125	-3.2104	-3.4833	-3.6021	-3.2458	-3.6708	-3.4062	-3.1958	-3.7125	-3.4417	-3.5062	-3.7917	-3.3229	-3.7708	254.991	65.419	228.897	276.048	-58.928	-18.065	190.754	120.223	-36.099	101.904	100.487	89.836	267.964	127.935	223.722	150.917	9.8931e-05	0.0012232	0.00010488	533.3	2.1043e-06	7.8e-06	558.03	142.48	4.0566e-06	3.3822e-06	169.46	66.852	52.137	18.661	3.5413e-06	23.129	0.0025843	0.0041087	0.0011709	533.61	4.5533e-05	4.8466e-05	525.52	136.77	4.112e-05	4.7438e-05	163.24	63.618	50.271	18.204	3.8933e-05	22.46	-38.081	46.341	-36.744	-60.850	82.047	87.701	-62.687	-56.147	163.909	169.162	-58.363	-56.121	-53.430	-49.798	20.610	-52.952	-8191	255	
1018.294	1	1	0	0	0.12504	0.11519	0.052626	0.034727	0.24585	0.20548	0.12018	0.21142	0.12808	0.055224	0.096185	0.074409	0.061772	0.068244	0.1326	0.11818	-3.1167	-3.2396	-3.7417	-3.3208	-3.3917	-3.7792	-3.3292	-3.6833	-3.6292	-3.4292	-3.6792	-3.2417	-3.5479	-3.6333	-3.4	-3.7292	-48.569	240.481	75.955	84.020	247.787	-12.085	164.541	265.485	-40.241	241.182	30.744	-17.965	113.339	256.775	79.310	-39.075	0.0001352	0.001438	1.4944e-05	519.38	4.6045e-06	1.0261e-05	542.56	139.4	3.9076e-06	3.9531e-06	165.03	64.929	51.126	18.536	3.0784e-06	22.677	0.0023783	0.003739	0.0010397	514.67	3.9754e-05	4.4159e-05	507.04	133.3	3.775e-05	4.2959e-05	158.62	61.754	49.419	17.971	3.7728e-05	22.059	3.705	-2.410	38.494	-61.102	-5.970	101.253	-63.252	-55.563	102.119	155.696	-58.671	-55.912	-53.356	-49.485	157.661	-52.304	-8191	255	
1018.392	1	1	0	0	0.12707	0.18933	0.022965	0.24207	0.16606	0.29648	0.15444	0.17515	0.10656	0.15996	0.17686	0.1464	0.24289	0.27939	0.047675	0.095825	-3.05	-3.3312	-3.7354	-3.3583	-3.4167	-3.7062	-3.1667	-3.5729	-3.6792	-3.2604	-3.7396	-3.4917	-3.3833	-3.6437	-3.3312	-3.4125	-32.883	176.547	259.570	277.788	70.830	-8.405	-3.211	88.080	-61.676	81.593	276.070	269.374	182.221	263.038	67.400	-8.446	9.6481e-05	0.00070085	9.791e-05	509.04	1.3805e-06	4.4553e-06	517.06	134.78	7.6804e-06	3.9637e-06	158.66	60.722	48.673	16.834	2.4071e-06	21.012	0.0022587	0.0034811	0.00094433	501.5	3.4509e-05	3.6009e-05	485.31	127.23	2.9735e-05	3.3353e-05	150.49	57.874	46.382	16.2	2.7911e-05	20.157	257.573	81.816	75.640	-60.341	240.243	218.604	-62.650	-56.074	9.695	92.294	-58.286	-55.510	-52.264	-48.470	36.993	-52.034	-8191	255	
1018.511	1	1	0	0	0.11664	0.053993	0.048373	0.12883	0.1317	0.076715	0.14461	0.15724	0.15225	0.084627	0.47036	0.013432	0.048689	0.19875	0.10202	0.12912	-3.0979	-3.1437	-3.8521	-3.4083	-3.3187	-3.6708	-3.3125	-3.6146	-3.5687	-3.2896	-3.5958	-3.3312	-3.35	-3.6292	-3.2521	-3.5833	88.527	67.626	-38.228	-32.759	274.843	168.504	92.442	-22.014	63.772	52.371	181.405	-32.906	234.818	127.373	120.467	263.194	0.00012369	0.00056772	0.00010012	486.54	3.6184e-06	2.169e-06	494.46	130.79	1.3444e-06	1.6615e-06	152.09	58.159	46.306	15.412	1.5159e-06	19.852	0.001719	0.0026033	0.00070122	473.54	2.5941e-05	2.6402e-05	458.3	123.53	2.2344e-05	2.4425e-05	144.88	54.836	43.935	14.817	2.142e-05	18.953	-54.714	44.865	80.053	-60.898	79.695	-11.167	-62.556	-55.764	70.808	-54.668	-58.235	-54.222	-52.644	-47.275	152.042	-51.568	-8191	255	
1018.607	1	1	0	0	0.050276	0.27202	0.085878	0.28355	0.05612	0.2348	0.2265	0.093627	0.21493	0.32022	0.22941	0.068878	0.23266	0.20273	0.19182	0.12606	-3.275	-3.2625	-3.5271	-3.6167	-3.2271	-3.8083	-3.4271	-3.4938	-3.7313	-3.225	-3.75	-3.5625	-3.1479	-3.7646	-3.1958	-3.3875	179.967	250.830	119.600	35.782	7.612	28.181	251.183	-48.392	197.836	215.973	237.998	-32.199	0.402	28.873	113.943	-67.484	4.9999e-05	0.00037771	1.8758e-05	480.87	8.3689e-06	2.2565e-06	482.64	128.5	1.4456e-06	6.6413e-07	150.23	55.622	44.694	14.738	6.2598e-06	19.387	0.0013813	0.002067	0.00056151	460.37	2.1451e-05	2.2253e-05	447.49	120.6	1.9466e-05	2.1923e-05	142	52.299	42.197	14.157	1.879e-05	18.403	277.932	17.478	32.823	-60.683	64.138	238.325	-62.076	-55.548	84.045	-43.946	-57.776	-54.611	-51.984	-47.159	172.557	-50.819	-8191	255	
1018.703	1	1	0	0	0.14804	0.17003	0.057229	0.17198	0.12043	0.028845	0.072746	0.18295	0.2569	0.066754	0.086821	0.079808	0.06496	0.052046	0.24842	0.23565	-3.4083	-3.2188	-3.6167	-3.4271	-3.2792	-3.8771	-3.3354	-3.3187	-3.7042	-3.2917	-3.5812	-3.5458	-3.0875	-3.7729	-3.4313	-3.2188	55.233	35.142	37.403	85.633	-35.665	173.541	174.844	-10.717	270.931	169.895	259.774	185.546	-61.345	196.393	84.046	169.241	0.00013754	0.00049679	4.3607e-05	470.81	2.5342e-06	2.2739e-06	474.76	124.81	4.7537e-06	2.9367e-06	144.14	53.738	42.959	14.388	7.2608e-06	18.497	0.001139	0.001975	0.0004847	451.58	1.9406e-05	2.0007e-05	439.58	117.17	1.7333e-05	1.9471e-05	136.39	50.617	40.742	13.82	1.7192e-05	17.63	-46.767	41.292	90.167	-60.637	38.634	166.293	-62.501	-54.835	175.599	118.734	-57.513	-54.273	-51.614	-47.009	35.622	-49.812	-8191	255	
1018.799	1	1	0	0	0.16239	0.25141	0.15875	0.26778	0.19731	0.29936	0.19114	0.17693	0.075085	0.1905	0.20624	0.25807	0.21422	0.12525	0.12096	0.13051	-3.3896	-3.1958	-3.3604	-3.5375	-3.2708	-3.6458	-3.6271	-3.4354	-3.7792	-3.3854	-3.625	-3.6979	-3.225	-3.6	-3.6083	-3.2313	92.528	263.104	20.260	178.639	47.509	15.327	238.550	199.034	44.367	150.518	132.786	217.169	-27.045	-56.792	16.441	210.728	0.00010071	0.00049039	4.2032e-05	463.87	4.688e-06	7.7695e-07	458.51	121.67	3.8066e-06	4.7956e-06	141.49	52.597	41.953	14.31	5.2139e-06	18.728	0.0010078	0.0017638	0.00045417	438.72	1.7113e-05	1.8037e-05	424.22	113.48	1.5703e-05	1.847e-05	133.76	49.494	39.856	13.681	1.681e-05	17.682	282.405	20.118	25.144	-60.477	41.142	63.107	-62.258	-54.975	31.606	43.819	-58.205	-54.360	-51.116	-46.802	171.192	-50.099	-8191	255	
1018.895	1	1	0	0	0.082469	0.11313	0.074187	0.042055	0.13189	0.17882	0.25204	0.16297	0.17319	0.30317	0.20241	0.097625	0.080564	0.28104	0.14104	0.022633	-3.4313	-3.1896	-3.2771	-3.5708	-3.1437	-3.7667	-3.6	-3.3688	-3.7729	-3.3187	-3.4792	-3.6146	-3.2687	-3.4354	-3.6417	-3.3229	207.917	176.351	177.423	148.901	241.312	253.550	190.689	10.363	-52.083	60.433	-17.241	265.785	-4.873	107.625	36.356	82.680	5.1265e-05	0.00014218	3.759e-05	463.37	2.4931e-06	1.261e-06	463.14	121.18	2.0491e-06	1.6172e-06	142.47	52.348	41.731	14.179	4.5751e-06	18.217	0.0010164	0.0017061	0.00045152	442.23	1.7134e-05	1.765e-05	428.43	113.84	1.5363e-05	1.729e-05	134.04	49.174	39.593	13.525	1.6186e-05	17.438	-44.688	78.750	230.704	-61.109	233.739	248.023	-62.560	-54.892	45.506	247.633	-57.519	-54.222	-51.338	-46.481	151.011	-50.478	-8191	255	
1018.991	1	1	0	0	0.21396	0.23528	0.32857	0.11184	0.28639	0.14037	0.19702	0.093746	0.18948	0.18699	0.20854	0.15709	0.1118	0.22909	0.14771	0.24905	-3.3542	-3.2917	-3.1104	-3.7479	-3.1854	-3.7667	-3.6813	-3.2229	-3.75	-3.4333	-3.2562	-3.6958	-3.275	-3.4125	-3.6312	-3.2146	20.890	-29.152	202.250	147.545	64.461	13.972	195.294	-40.571	41.123	244.846	107.997	21.947	126.375	-65.515	241.846	279.930	0.00011462	0.00040158	0.00010158	457.31	5.9919e-07	1.8354e-06	459.73	120.94	8.4667e-06	7.2753e-06	141.39	52.573	41.92	14.339	4.3435e-06	18.351	0.00098347	0.0017207	0.00043783	436.93	1.661e-05	1.7606e-05	423.93	113.29	1.5234e-05	1.7627e-05	133.36	49.019	39.613	13.621	1.7319e-05	17.598	273.157	58.937	-37.641	-60.051	39.096	168.885	-61.997	-55.310	127.652	76.114	-58.263	-54.277	-51.641	-47.161	79.142	-50.781	-8191	255	
1019.112	1	1	0	0	0.050913	0.13825	0.34311	0.18963	0.1072	0.053783	0.28798	0.22419	0.11241	0.022841	0.033336	0.16961	0.20332	0.25679	0.12708	0.25977	-3.2896	-3.5187	-3.1333	-3.7771	-3.3083	-3.5583	-3.7042	-3.2188	-3.6792	-3.6437	-3.4062	-3.7583	-3.3583	-3.4229	-3.6375	-3.325	95.610	142.067	-41.327	78.109	-72.045	218.785	147.145	184.923	40.078	-27.331	227.894	-9.940	-34.541	225.188	251.170	113.975	8.3117e-05	0.00033846	0.00012397	464.94	5.3713e-06	2.8141e-06	459.46	120.35	5.489e-06	4.3446e-06	144.19	52.447	42.247	14.151	1.9482e-06	18.537	0.0010148	0.0017658	0.00046411	439.21	1.7322e-05	1.8201e-05	424.61	113.36	1.5972e-05	1.889e-05	134.59	49.145	39.832	13.54	1.7214e-05	17.538	-48.670	-19.313	26.435	-60.601	63.349	-63.476	-62.124	-55.294	191.158	87.159	-57.479	-54.254	-51.673	-46.587	124.707	-50.831	-8191	255	
1019.208	1	1	0	0	0.078738	0.1129	0.040533	0.16008	0.2371	0.070274	0.027632	0.19553	0.032628	0.21299	0.29839	0.11341	0.13959	0.10692	0.043784	0.18082	-3.3021	-3.5458	-3.2062	-3.6917	-3.3167	-3.5479	-3.7854	-3.2479	-3.6167	-3.5479	-3.0875	-3.7812	-3.4521	-3.3063	-3.7625	-3.2604	234.043	12.933	18.554	-16.663	-68.481	102.520	31.915	177.045	219.504	57.608	267.660	213.355	79.315	-3.181	35.425	51.833	0.00010841	0.00019588	2.3486e-05	464.39	6.9615e-06	1.0824e-06	458.04	121.66	5.4845e-06	3.3195e-06	142.17	52.938	42.498	14.268	1.2596e-06	18.263	0.0010362	0.0018324	0.00045683	439.05	1.7747e-05	1.8438e-05	426.43	114.26	1.6439e-05	1.9062e-05	134.22	49.425	39.935	13.551	1.7e-05	17.46	266.207	64.719	169.837	-60.282	91.392	147.746	-62.355	-55.412	155.373	94.132	-57.752	-54.497	-52.041	-46.209	128.480	-50.849	-8191	255	
1019.303	1	1	0	0	0.15758	0.16103	0.37696	0.078279	0.14359	0.19135	0.031645	0.18275	0.035543	0.12539	0.12007	0.039154	0.10895	0.13329	0.093978	0.085348	-3.1	-3.6146	-3.1813	-3.7333	-3.275	-3.1833	-3.75	-3.3458	-3.5104	-3.5812	-3.225	-3.8458	-3.4521	-3.1375	-3.5729	-3.3271	269.730	15.060	276.294	-63.237	219.997	126.753	-69.308	-70.570	98.233	56.930	277.206	271.675	-38.519	280.137	170.268	94.609	9.6005e-05	0.0007159	0.00014808	466.63	4.6975e-06	1.3371e-06	463.9	122.94	6.3016e-06	6.5612e-06	143.27	52.409	41.752	14.087	5.8491e-06	18.489	0.0010391	0.001752	0.00044715	440.8	1.7452e-05	1.8512e-05	429.16	114.37	1.637e-05	1.8453e-05	134.86	49.408	39.757	13.529	1.6248e-05	17.621	-61.789	-30.195	109.595	-60.514	46.196	131.988	-62.254	-54.760	-21.111	145.712	-58.016	-54.396	-51.263	-46.640	81.344	-50.168	-8191	255	
1019.399	1	1	0	0	0.45157	0.043249	0.26922	0.10275	0.06403	0.11994	0.069767	0.075974	0.16766	0.21596	0.12509	0.17161	0.094627	0.16749	0.10347	0.30826	-3.0875	-3.5271	-3.0438	-3.6208	-3.3812	-3.3167	-3.7792	-3.2438	-3.5167	-3.7687	-3.3229	-3.5104	-3.6458	-3.3125	-3.6771	-3.4771	258.495	166.212	-27.531	-42.788	215.545	-33.961	175.102	236.823	38.405	240.589	-1.725	274.016	201.194	-65.814	-23.863	280.481	0.00013279	0.00021238	5.2243e-05	459.8	4.3308e-06	3.6667e-07	465.84	122.63	7.8299e-06	1.8117e-06	144.14	53.241	42.064	14.518	4.2428e-06	18.695	0.0010287	0.0017139	0.00047843	438.64	1.8163e-05	1.8959e-05	430.54	115.08	1.7613e-05	1.991e-05	135.61	49.883	40.098	13.828	1.8072e-05	17.843	-72.970	23.323	16.735	-60.253	96.923	143.642	-62.194	-55.222	74.751	69.349	-58.168	-54.363	-52.341	-46.534	218.169	-50.540	-8191	255	
1019.495	1	1	0	0	0.12905	0.079033	0.03295	0.20927	0.029085	0.19588	0.22357	0.12774	0.12354	0.10754	0.1705	0.053875	0.20114	0.18278	0.14009	0.27375	-3.0479	-3.6437	-3.1417	-3.4083	-3.3396	-3.3521	-3.6958	-3.3083	-3.2896	-3.8833	-3.2083	-3.5396	-3.6042	-3.275	-3.6125	-3.4188	16.154	97.304	8.967	32.464	97.603	84.853	213.498	165.978	250.907	80.707	-34.362	218.475	49.233	46.693	120.454	266.475	3.3194e-05	0.00019589	6.0496e-05	458.79	3.1886e-06	6.5058e-07	465.21	121.22	4.1961e-06	2.6344e-06	141.93	52.586	42.121	14.412	2.6315e-06	18.509	0.0011417	0.0017627	0.00053746	441.07	2.0058e-05	2.0901e-05	432.06	113.95	1.9553e-05	2.07e-05	133.78	49.561	40.055	13.851	1.9143e-05	17.717	216.892	-26.261	-29.486	-59.995	95.184	114.677	-62.271	-55.176	139.883	173.661	-58.068	-54.130	-51.990	-46.741	7.368	-51.071	-8191	255	
1019.591	1	1	0	0	0.21804	0.25675	0.15992	0.18751	0.2485	0.21745	0.093409	0.056958	0.045825	0.073632	0.18089	0.095038	0.056325	0.039786	0.17729	0.17691	-2.8583	-3.5875	-3.1708	-3.575	-3.5812	-3.0854	-3.6146	-3.4521	-3.2417	-3.8458	-3.2604	-3.3812	-3.6437	-3.0979	-3.6792	-3.3	-7.628	-60.306	-45.002	176.746	268.708	-70.126	189.883	-39.136	264.178	72.384	136.006	215.585	68.375	56.647	76.945	212.115	0.00022288	8.8224e-05	7.9603e-05	464.51	4.4057e-06	4.4562e-06	468.1	120.89	5.1661e-06	1.6045e-06	140.86	51.895	41.801	14.237	5.1616e-06	18.578	0.0011482	0.0018731	0.00056198	442.81	2.0347e-05	2.1324e-05	431.82	113.23	1.9569e-05	2.0906e-05	132.98	48.981	39.706	13.676	1.8862e-05	17.582	-46.780	180.973	207.195	-60.216	91.937	47.333	-62.695	-55.676	265.130	217.298	-57.850	-54.309	-51.926	-46.522	214.000	-50.414	-8191	255	
1019.687	1	1	0	0	0.11685	0.19209	0.058219	0.15866	0.10799	0.11536	0.22869	0.065432	0.1427	0.16667	0.16852	0.10599	0.18617	0.033804	0.13926	0.11429	-2.9583	-3.6688	-3.3375	-3.4354	-3.6833	-3.2771	-3.6521	-3.5812	-3.1396	-3.8333	-3.3875	-3.4854	-3.6417	-3.0438	-3.6854	-3.6063	38.256	194.194	16.827	140.261	133.362	41.180	274.833	174.753	237.438	20.413	-67.917	209.104	282.277	109.672	110.763	247.587	0.00011233	0.00030316	6.6969e-05	461.87	2.4924e-06	3.9247e-06	459.48	117.47	4.9919e-06	4.0499e-06	139.62	52.009	41.648	14.469	5.8817e-06	18.56	0.0011675	0.0018311	0.00055486	438.03	2.0722e-05	2.126e-05	427.49	111.88	1.9162e-05	2.2028e-05	132.66	49.038	39.614	13.844	2.0714e-05	17.779	-51.667	7.903	16.993	-60.548	146.478	16.211	-62.555	-55.272	180.023	88.128	-58.015	-54.407	-52.111	-46.993	123.347	-49.920	-8191	255	
1019.783	1	1	0	0	0.16108	0.18378	0.11914	0.16383	0.13546	0.20241	0.075617	0.10158	0.28393	0.1733	0.11014	0.06593	0.071337	0.11697	0.16959	0.069864	-2.8375	-3.8521	-3.2938	-3.5104	-3.6875	-3.1792	-3.5396	-3.6604	-3.1396	-3.6771	-3.4708	-3.2646	-3.7958	-3.2271	-3.3563	-3.6833	74.548	146.734	0.529	101.956	62.237	0.208	74.755	265.989	132.070	46.514	88.947	221.004	194.875	34.622	-61.532	41.806	0.0001271	0.00023387	0.00011593	457.18	2.8358e-06	4.9698e-06	460.27	117.82	1.4721e-06	8.3787e-06	140.95	51.832	41.507	14.34	7.0881e-07	18.673	0.0012584	0.0019932	0.00059848	439.55	2.1158e-05	2.2728e-05	430.88	111.71	2.0581e-05	2.3078e-05	133.32	48.988	39.503	13.795	2.1878e-05	17.839	-37.910	30.240	33.817	-60.413	10.348	185.827	-62.496	-55.684	74.979	107.080	-58.208	-54.554	-51.846	-46.580	175.604	-50.681	-8191	255	
1019.904	1	1	0	0	0.12505	0.19982	0.23071	0.19228	0.18943	0.18348	0.10705	0.093401	0.33735	0.13168	0.084947	0.089177	0.11578	0.14929	0.12927	0.1479	-2.6583	-3.6417	-3.3896	-3.1667	-3.6958	-3.2958	-3.4875	-3.6646	-3.0583	-3.5042	-3.5542	-3.2604	-3.9167	-3.4104	-3.5354	-3.6104	-59.672	189.681	14.623	-71.439	227.602	50.586	200.935	239.113	-67.772	42.785	125.048	170.222	-56.067	10.836	184.453	83.375	0.00011251	0.00038657	4.5935e-05	465.11	3.2067e-06	6.2304e-06	474.86	119.43	2.2521e-06	8.8558e-06	138.53	52.013	41.912	14.374	1.1037e-06	18.505	0.0013011	0.0020671	0.00063429	448.41	2.2964e-05	2.4448e-05	439.96	112.58	2.3032e-05	2.5081e-05	132.06	48.984	39.547	13.805	2.2679e-05	17.745	-14.543	-59.814	79.462	-60.132	187.845	134.215	-62.975	-55.039	-50.678	91.714	-58.274	-54.221	-52.043	-46.809	0.155	-50.533	-8191	255	
1020.000	1	1	0	0	0.18017	0.068083	0.16543	0.2799	0.26741	0.16461	0.17974	0.070508	0.20636	0.15626	0.049625	0.23082	0.13711	0.1104	0.15122	0.15544	-2.5646	-3.5438	-3.4104	-3.2167	-3.7521	-3.225	-3.4708	-3.6354	-3.0979	-3.5563	-3.6125	-3.2625	-3.725	-3.1021	-3.375	-3.6937	63.430	110.001	53.680	221.310	51.551	218.157	204.139	32.233	-9.202	-1.246	106.422	244.599	-72.838	13.841	166.666	158.874	5.6414e-05	0.00053424	0.00021429	467.38	8.1756e-06	5.028e-06	474.79	119.24	1.2594e-06	2.4108e-06	139.07	52.522	42.335	14.556	5.0478e-06	19.033	0.0013943	0.0022338	0.00067173	447.69	2.3758e-05	2.4993e-05	441.09	112.1	2.433e-05	2.7153e-05	133.24	50.03	40.389	14.19	2.7373e-05	18.316	-67.757	196.176	41.348	-59.859	61.913	46.185	-63.014	-55.183	50.429	236.489	-58.469	-54.809	-52.477	-47.416	239.096	-51.164	-8191	255	
1020.072	1	1	0	0	0.19443	0.11664	0.10176	0.18743	0.14197	0.15974	0.26533	0.09021	0.24055	0.22127	0.12824	0.15431	0.1958	0.12781	0.26158	0.10482	-2.8396	-3.45	-3.5729	-3.1458	-3.7854	-3.4646	-3.3771	-3.7104	-3.1521	-3.6104	-3.55	-3.0771	-3.5979	-3.4917	-3.15	-3.9958	-33.492	241.459	115.387	-32.738	79.441	-18.138	195.562	264.910	-51.487	195.773	246.487	265.934	-40.561	161.740	48.908	146.121	0.00010092	0.00059483	0.00010718	476.55	4.8699e-06	4.5479e-06	483.4	119.69	8.4149e-06	6.376e-06	141.7	52.795	42.256	14.842	3.9648e-06	19.336	0.0015986	0.0026328	0.00077594	462.35	2.8272e-05	2.9238e-05	450.05	113.14	2.7746e-05	2.971e-05	134.83	50.166	40.652	14.357	2.9526e-05	18.517	16.079	-31.159	69.912	-59.899	46.165	12.762	-63.220	-55.407	188.228	99.732	-58.455	-54.823	-52.339	-46.888	25.858	-50.237	-8191	255	
1020.192	1	1	0	0	0.21368	0.057474	0.02235	0.19089	0.05534	0.20932	0.14673	0.15359	0.079758	0.1727	0.09939	0.091202	0.1971	0.075977	0.16771	0.22996	-3.0021	-3.4333	-3.6333	-3.35	-3.7625	-3.5271	-3.3292	-3.7313	-3.2896	-3.4771	-3.7208	-3.2271	-3.4688	-3.5521	-3.3354	-3.5854	17.371	-22.750	70.603	30.386	143.675	199.948	-72.186	3.108	203.338	270.809	-73.282	218.624	202.001	30.420	-20.223	190.571	0.00013886	0.00063446	0.00016673	477.69	4.6236e-06	1.7591e-06	490.95	119.63	5.7857e-06	4.6397e-06	142.95	53.295	43.095	14.871	4.7556e-06	19.54	0.001737	0.0028663	0.00084051	470.41	3.1137e-05	3.3047e-05	459.48	114.29	3.0798e-05	3.3589e-05	137	50.768	41.077	14.472	3.1441e-05	18.854	267.110	45.462	-2.642	-61.498	113.697	111.249	-62.566	-55.947	121.794	65.831	-58.308	-54.799	-52.036	-47.594	104.017	-50.743	-8191	255	
1020.287	1	1	0	0	0.21308	0.14941	0.24457	0.11338	0.26934	0.14937	0.15136	0.151	0.089409	0.117	0.23066	0.076527	0.13484	0.055235	0.12429	0.11892	-3.0187	-3.4083	-3.6896	-3.2958	-3.6625	-3.5354	-3.1896	-3.8063	-3.3833	-3.4292	-3.8104	-3.2896	-3.7562	-3.6312	-3.1708	-3.6646	253.079	86.581	115.644	19.646	-10.447	-40.722	167.348	192.854	191.435	86.487	36.681	-7.561	-54.871	212.162	264.425	231.547	9.9705e-05	0.00071367	0.00015775	483.06	4.8668e-06	2.6891e-06	498.99	120.93	6.2583e-06	7.8832e-06	140.86	52.114	42.273	14.881	4.1958e-06	19.097	0.0019074	0.003147	0.00089162	475	3.3993e-05	3.5553e-05	463.24	114.58	3.2708e-05	3.6437e-05	136.44	50.328	40.711	14.47	3.3758e-05	18.596	-2.925	95.530	2.731	-60.549	93.986	11.229	-62.881	-55.462	185.257	58.749	-58.550	-54.890	-51.784	-47.289	76.758	-50.948	-8191	255	
1020.383	1	1	0	0	0.11844	0.051487	0.054515	0.16015	0.18627	0.25435	0.17215	0.23755	0.24685	0.056616	0.16612	0.20917	0.12343	0.1651	0.24939	0.13514	-3.1521	-3.1437	-3.7146	-3.1583	-3.4562	-3.6937	-3.225	-3.7812	-3.4188	-3.3354	-3.7042	-3.0583	-3.5146	-3.6958	-3.1104	-3.4917	138.410	8.640	-53.771	88.458	-55.912	132.010	220.019	224.085	43.379	158.270	259.281	-11.897	259.732	-60.240	-12.242	235.077	0.00010149	0.00035227	0.00020449	469.97	8.4222e-06	7.4488e-06	486.74	118.19	2.8068e-06	4.074e-06	137.21	51.633	41.42	14.591	1.3003e-05	18.947	0.0019891	0.0033063	0.00090142	467.63	3.4797e-05	3.5641e-05	452.41	112.24	3.2344e-05	3.6197e-05	133.27	49.452	40.104	14.265	3.587e-05	18.527	230.820	76.114	29.005	-60.754	16.158	60.332	-63.089	-55.398	279.646	91.353	-57.568	-54.681	-52.100	-46.691	62.832	-50.432	-8191	255	
1020.481	1	1	0	0	0.19595	0.087664	0.23883	0.32634	0.050598	0.2099	0.081598	0.12569	0.055473	0.15792	0.17773	0.35088	0.057052	0.10973	0.1144	0.11248	-3.1771	-3.1437	-3.7854	-3.3521	-3.4188	-3.6813	-3.1729	-3.8208	-3.4375	-3.2396	-3.5521	-3.4042	-3.2	-3.6521	-3.1604	-3.6792	-63.917	-72.157	-17.428	245.382	132.529	101.818	51.832	123.560	109.700	-55.591	55.248	234.938	23.292	-69.494	135.525	134.362	0.00019299	0.00050508	7.9287e-05	468.67	3.5151e-06	3.5335e-06	487.38	119.22	4.1615e-06	6.2615e-06	141.03	53.32	42.623	15.239	3.1974e-06	19.783	0.0020879	0.0032834	0.00094844	466.35	3.7148e-05	3.7951e-05	454.63	113.5	3.6529e-05	4.0175e-05	136.61	50.958	41.377	14.899	4.1224e-05	19.287	-63.768	279.212	-32.736	-61.317	281.432	284.938	-62.679	-55.786	-73.148	100.873	-58.501	-54.555	-52.294	-47.280	16.604	-50.910	-8191	255	
1020.600	1	1	0	0	0.055372	0.10781	0.22445	0.19523	0.13478	0.14146	0.24145	0.23278	0.25066	0.25011	0.16491	0.1794	0.11151	0.14608	0.14607	0.2029	-3.1646	-2.9875	-3.7958	-3.3104	-3.5667	-3.7646	-3.1542	-3.4771	-3.35	-3.1458	-3.6521	-3.3729	-3.2458	-3.8208	-3.3063	-3.6771	-3.806	65.926	245.889	-15.600	159.138	86.715	-36.153	131.797	-70.002	15.394	170.986	247.236	231.749	99.532	67.850	34.283	0.00015383	0.00065096	0.00017626	477.32	4.544e-06	5.6551e-06	497.27	121.5	4.2944e-06	3.3872e-06	144.79	54.432	43.565	15.837	1.7501e-06	20.523	0.002445	0.0039965	0.0011272	485	4.4881e-05	4.6677e-05	468.65	117.29	4.656e-05	5.2521e-05	142.66	52.737	42.931	15.667	5.1983e-05	20.2	-57.404	268.308	-23.688	-61.443	75.906	195.034	-63.088	-55.324	79.961	139.726	-58.394	-54.745	-52.487	-47.459	101.221	-50.685	-8191	255	
1020.671	1	1	0	0	0.16958	0.075749	0.035797	0.25919	0.14083	0.24724	0.39255	0.1326	0.15454	0.27713	0.20404	0.20933	0.10053	0.13997	0.13306	0.071007	-3.2646	-3.0771	-3.7833	-3.5854	-3.2458	-3.8167	-3.3292	-3.4292	-3.5646	-3.0917	-3.7104	-3.4188	-3.0542	-3.7104	-3.3146	-3.4083	15.471	50.728	-21.748	-51.933	91.539	85.664	184.677	282.803	144.632	239.777	166.241	264.022	193.164	194.344	73.056	190.059	1.3435e-05	0.00044675	0.00014735	482.55	2.6382e-06	4.3511e-06	497.7	121.49	5.4805e-06	3.1042e-06	141.87	52.487	42.601	15.182	5.7752e-06	19.414	0.0029943	0.00491	0.0013876	497.84	5.342e-05	5.5143e-05	471.34	117.55	4.7858e-05	5.6432e-05	140.43	51.317	41.609	15.075	5.0876e-05	19.261	86.940	134.482	-45.914	-61.051	116.253	108.648	-62.786	-54.932	-8.650	165.498	-58.382	-54.771	-52.266	-47.045	37.308	-51.225	-8191	255	
1020.792	1	1	0	0	0.14321	0.099044	0.24162	0.071499	0.25235	0.23777	0.21032	0.066234	0.077549	0.19853	0.041697	0.15633	0.25453	0.14315	0.16711	0.12082	-3.3208	-3.2438	-3.5625	-3.4938	-3.3104	-3.8042	-3.4625	-3.3021	-3.6667	-3.1458	-3.6979	-3.4813	-3.2771	-3.6229	-3.4396	-3.3521	41.207	243.390	107.205	125.500	93.839	-23.835	179.202	92.185	205.477	-9.216	-65.896	173.226	59.242	163.233	33.422	225.312	0.00011658	0.00091493	0.00015771	460.83	2.0799e-06	1.6317e-06	477.85	116.02	3.9592e-06	4.433e-06	137.53	50.647	41.541	14.805	6.2418e-06	19.269	0.0028342	0.0047467	0.0013352	477.51	5.0663e-05	5.4015e-05	451.88	113.09	4.7674e-05	5.7339e-05	137.18	50.047	41.088	14.908	5.679e-05	19.299	-17.381	26.139	-56.461	-60.253	-21.843	-37.188	-62.938	-55.559	99.465	117.187	-58.244	-54.609	-51.595	-46.909	259.498	-50.519	-8191	255	
1020.888	1	1	0	0	0.34826	0.14832	0.080613	0.11009	0.21617	0.23056	0.23462	0.13843	0.17642	0.49069	0.067824	0.085489	0.040247	0.21507	0.14895	0.20738	-3.3937	-3.2146	-3.6083	-3.4896	-3.1	-3.6979	-3.4625	-3.3729	-3.8875	-3.1833	-3.5271	-3.4646	-3.1292	-3.7062	-3.4417	-3.0896	-29.948	83.482	178.694	206.110	164.818	199.346	77.224	-66.282	49.787	14.893	-33.416	234.431	281.669	-59.238	20.090	3.842	0.00015052	0.00067374	0.00014586	463.71	4.3938e-06	4.0785e-06	479.04	118.01	1.2746e-05	4.5714e-06	140.4	51.97	42.356	15.189	8.4612e-06	19.639	0.0033676	0.0054975	0.0015321	483.28	5.8653e-05	6.0296e-05	454.45	115.15	5.4734e-05	6.4673e-05	139.85	51.037	41.745	15.227	5.9488e-05	19.656	-65.356	0.486	43.615	-60.949	42.981	94.119	-62.898	-55.747	13.276	69.437	-57.900	-54.425	-51.714	-46.321	52.018	-50.830	-8191	255	
1020.984	1	1	0	0	0.027688	0.16314	0.07006	0.083099	0.46755	0.11691	0.1572	0.084584	0.32204	0.098953	0.14981	0.071244	0.16048	0.036885	0.20414	0.051516	-3.3292	-3.325	-3.3583	-3.5833	-3.3438	-3.8083	-3.4813	-3.2771	-3.7229	-3.3646	-3.4729	-3.6833	-3.2167	-3.5146	-3.5625	-3.2	184.594	234.591	-22.257	185.191	3.978	-13.265	115.808	131.258	-14.938	130.202	170.352	48.623	254.030	254.914	269.930	250.887	9.0359e-05	0.00075238	0.00024467	471.07	7.3349e-06	5.2087e-06	476.26	119.55	8.3497e-06	7.1551e-06	143.14	53.56	42.8	15.676	5.3855e-06	20.099	0.0033927	0.0056306	0.0015705	486.23	6.1873e-05	6.4437e-05	454.49	117.73	5.6885e-05	6.7539e-05	142.63	52.684	42.847	15.763	6.1341e-05	20.291	215.344	54.333	-61.102	-60.466	145.676	273.050	-62.865	-55.294	170.539	-17.830	-58.585	-54.261	-51.641	-47.517	144.333	-50.792	-8191	255	
1021.081	1	1	0	0	0.084324	0.094376	0.12835	0.054524	0.19422	0.25368	0.14834	0.085099	0.20176	0.31442	0.060801	0.14301	0.16269	0.16034	0.07524	0.072497	-3.2667	-3.3812	-3.3104	-3.7313	-3.3812	-3.425	-3.6583	-3.3063	-3.6063	-3.4938	-3.4917	-3.6375	-2.9792	-3.5979	-3.5833	-3.1188	220.934	206.550	16.279	44.132	-11.540	255.554	-39.587	-52.563	28.632	3.183	-27.742	250.626	25.942	-26.463	94.123	233.436	7.0802e-05	0.00048803	0.00023469	459.11	9.6303e-06	3.0422e-06	473.79	118.29	4.5313e-06	6.3451e-06	139.59	53.09	42.556	15.453	2.1388e-06	19.932	0.0034444	0.0056657	0.0015862	482.8	6.0007e-05	6.2719e-05	451.42	116.28	5.354e-05	6.3656e-05	140.9	51.865	42.228	15.465	6.0402e-05	20.025	218.846	-10.464	-53.438	-61.405	163.842	18.354	-63.185	-55.672	144.720	-31.345	-58.654	-54.352	-51.889	-47.010	41.437	-50.835	-8191	255	
1021.201	1	1	0	0	0.058285	0.034758	0.025499	0.30331	0.15348	0.23401	0.13329	0.11116	0.04859	0.20757	0.24577	0.042988	0.18261	0.12184	0.033328	0.12878	-3.3604	-3.4229	-3.3667	-3.7125	-3.3229	-3.4042	-3.7687	-3.3333	-3.6562	-3.4646	-3.3729	-3.7833	-3.2479	-3.4292	-3.7438	-3.1396	-15.250	115.610	235.373	236.277	233.710	220.283	278.833	233.161	131.264	111.082	204.423	148.889	111.168	139.186	152.114	278.237	0.00030496	0.00039912	3.7882e-05	465.05	6.3642e-06	4.1178e-06	477.33	118.34	4.0424e-06	5.6813e-06	140.88	52.751	42.767	15.418	3.8465e-06	19.834	0.0034361	0.0056916	0.0015889	484.11	6.2249e-05	6.2594e-05	454	116.12	5.4942e-05	6.5308e-05	140.91	51.94	42.494	15.458	5.9762e-05	20.023	-18.553	-20.566	98.489	-59.944	70.300	39.327	-62.823	-55.452	29.498	-33.002	-58.580	-55.101	-52.164	-47.689	171.867	-51.075	-8191	255	
1021.273	1	1	0	0	0.13639	0.30738	0.097785	0.15676	0.14544	0.17975	0.085067	0.09844	0.121	0.22474	0.22741	0.088056	0.15442	0.25011	0.22752	0.31938	-3.2729	-3.3833	-3.3563	-3.6958	-3.4562	-3.5354	-3.7271	-3.1896	-3.5458	-3.5125	-3.2833	-3.7229	-3.5625	-3.3958	-3.8312	-3.4604	15.120	112.704	193.813	98.058	-64.203	42.495	203.304	254.963	-4.851	238.169	197.089	27.062	119.175	240.582	214.471	187.434	0.00012968	0.00040568	0.00026354	464.05	4.6385e-06	3.0891e-06	478.57	120.96	9.2048e-06	3.7746e-06	143.84	54.199	44.41	15.983	4.2513e-06	20.446	0.0036189	0.0059868	0.0017038	492.14	6.7558e-05	7.012e-05	460.13	119.25	6.3524e-05	7.4641e-05	145.31	53.881	44.245	16.075	6.8314e-05	20.773	5.578	271.932	176.709	-60.303	176.313	57.411	-63.236	-55.131	105.342	127.336	-58.150	-54.641	-52.020	-47.204	38.377	-51.222	-8191	255	
1021.367	1	1	0	0	0.16036	0.20305	0.14772	0.51067	0.20372	0.16592	0.16479	0.061872	0.16905	0.12437	0.19853	0.25298	0.21053	0.18618	0.16539	0.020858	-3.4	-3.5229	-3.2375	-3.5833	-3.4167	-3.4021	-3.7021	-3.2188	-3.4479	-3.5875	-3.3375	-3.6958	-3.4292	-3.3042	-3.8125	-3.1292	116.879	-9.148	91.796	217.952	122.372	171.452	110.866	-47.550	257.111	192.890	5.142	277.330	261.722	185.078	172.369	224.807	8.3969e-05	0.00069864	0.00010103	467.28	1.2472e-06	3.2281e-06	481.33	124.32	4.9834e-06	8.7454e-06	146.96	56.758	45.474	16.773	5.1219e-06	21.382	0.0040557	0.0069649	0.0019531	504	7.9562e-05	8.087e-05	464.06	123.33	7.401e-05	8.7807e-05	152.37	56.676	46.411	17.15	8.3852e-05	22.17	-67.733	226.369	261.039	-61.172	-26.192	71.271	-63.025	-55.357	84.431	17.263	-57.626	-54.444	-52.210	-47.615	-63.480	-50.911	-8191	255	
1021.463	1	1	0	0	0.10696	0.067192	0.16865	0.15576	0.072636	0.31953	0.17789	0.056489	0.022571	0.12472	0.28097	0.0070323	0.13647	0.25505	0.050549	0.11566	-3.1562	-3.4583	-3.1375	-3.4667	-3.2417	-3.2667	-3.7917	-3.4292	-3.4646	-3.8229	-3.2938	-3.8729	-3.3021	-3.2771	-3.675	-3.2812	178.248	142.884	226.678	46.911	225.966	244.693	250.480	272.169	152.646	-7.673	-66.356	84.432	185.055	-11.245	16.579	-63.159	0.0001168	0.00040529	8.788e-05	473.8	7.6453e-06	3.2798e-06	488.7	127.73	9.9563e-07	5.9336e-06	151.93	59.203	47.509	17.822	1.5915e-05	22.713	0.0051282	0.00859	0.0024383	528.31	9.7216e-05	0.00010294	477.1	129.07	9.6333e-05	0.00011021	160.62	60.034	49.069	18.471	0.00010738	23.747	-17.440	61.544	68.716	-60.988	25.688	261.133	-62.819	-55.103	95.305	183.366	-58.026	-54.473	-51.929	-48.535	6.077	-51.494	-8191	255	
1021.582	1	1	0	0	0.070179	0.29385	0.11913	0.16198	0.27038	0.0017537	0.13205	0.097845	0.14957	0.19679	0.18148	0.39296	0.17916	0.10463	0.202	0.088353	-2.9979	-3.6188	-3.1333	-3.6854	-3.5208	-3.4437	-3.8021	-3.5479	-3.2729	-3.6125	-3.3896	-3.5187	-3.4333	-3.0687	-3.8625	-3.4208	22.359	56.179	69.771	280.519	241.845	180.000	279.675	279.019	207.011	210.144	186.596	-35.316	176.137	232.484	-22.967	150.575	0.00031895	0.00064684	0.00021358	485.5	1.0388e-05	7.7738e-06	491.57	127.38	1.542e-05	2.0236e-05	152.4	59.335	47.47	18.309	1.8917e-05	23.027	0.0062688	0.010364	0.0029259	555.93	0.00011514	0.00011874	484.7	131.36	0.00010719	0.00012289	163.21	61.182	50.218	19.225	0.00011967	24.561	268.176	-13.601	1.402	-60.354	97.421	202.322	-62.796	-55.428	-70.419	54.170	-57.730	-54.562	-52.288	-48.155	101.858	-51.626	-8191	255	
#DATA ENDS
