BOXY.EXE: ISS Imagent and Oximeter Data Acquisition Program Version 0.80
Ascii Record File

#ACQ INFORMATION
2  Detector Channels 
16  External MUX Channels 
1  Auxiliary Channels 
5000  Waveform (CCF) Frequency (Hz)
1  Waveforms Skipped 
30  Waveforms Averaged 
1  Cycles Averaged 
16  Acquisitions per Waveform 
10.0806  Updata Rate (Hz) 

#FILE INFORMATION
TRUE -- External MUX Channel results are PARSED.
FALSE -- AC DC and Phase are NOT grouped.
TRUE -- Companion Program Settings File CREATED.
FALSE -- AC data not excluded
FALSE -- DC data not excluded
FALSE -- Phase data not excluded
FALSE -- Auxillary Chn. data not excluded
Tab delimiters

#CALIBRATION STATE
TRUE -- Waveform Calibration Values APPLIED.


#AUX CALIBRATION VALUES
Val Type	aux-1	

Term	1.0000e+00	
Factor	0.0000e+00	


#WF CALIBRATION VALUES
A = Detector Channel
Val Type	A-AC1	A-AC2	A-AC3	A-AC4	A-AC5	A-AC6	A-AC7	A-AC8	A-AC9	A-AC10	A-AC11	A-AC12	A-AC13	A-AC14	A-AC15	A-AC16	A-DC1	A-DC2	A-DC3	A-DC4	A-DC5	A-DC6	A-DC7	A-DC8	A-DC9	A-DC10	A-DC11	A-DC12	A-DC13	A-DC14	A-DC15	A-DC16	A-Ph1	A-Ph2	A-Ph3	A-Ph4	A-Ph5	A-Ph6	A-Ph7	A-Ph8	A-Ph9	A-Ph10	A-Ph11	A-Ph12	A-Ph13	A-Ph14	A-Ph15	A-Ph16	

Term	0.00000e+00	0.00000e+00	0.00000e+00	0.00000e+00	0.00000e+00	0.00000e+00	0.00000e+00	0.00000e+00	0.00000e+00	0.00000e+00	0.00000e+00	0.00000e+00	0.00000e+00	0.00000e+00	0.00000e+00	0.00000e+00	0.00000e+00	0.00000e+00	0.00000e+00	0.00000e+00	0.00000e+00	0.00000e+00	0.00000e+00	0.00000e+00	0.00000e+00	0.00000e+00	0.00000e+00	0.00000e+00	0.00000e+00	0.00000e+00	0.00000e+00	0.00000e+00	0.00000e+00	0.00000e+00	0.00000e+00	0.00000e+00	0.00000e+00	0.00000e+00	0.00000e+00	0.00000e+00	0.00000e+00	0.00000e+00	0.00000e+00	0.00000e+00	0.00000e+00	0.00000e+00	0.00000e+00	0.00000e+00	
Factor	1.00000e+00	1.00000e+00	1.00000e+00	1.00000e+00	1.00000e+00	1.00000e+00	1.00000e+00	1.00000e+00	1.00000e+00	1.00000e+00	1.00000e+00	1.00000e+00	1.00000e+00	1.00000e+00	1.00000e+00	1.00000e+00	1.00000e+00	1.00000e+00	1.00000e+00	1.00000e+00	1.00000e+00	1.00000e+00	1.00000e+00	1.00000e+00	1.00000e+00	1.00000e+00	1.00000e+00	1.00000e+00	1.00000e+00	1.00000e+00	1.00000e+00	1.00000e+00	X	X	X	X	X	X	X	X	X	X	X	X	X	X	X	X	

B = Detector Channel
Val Type	B-AC1	B-AC2	B-AC3	B-AC4	B-AC5	B-AC6	B-AC7	B-AC8	B-AC9	B-AC10	B-AC11	B-AC12	B-AC13	B-AC14	B-AC15	B-AC16	B-DC1	B-DC2	B-DC3	B-DC4	B-DC5	B-DC6	B-DC7	B-DC8	B-DC9	B-DC10	B-DC11	B-DC12	B-DC13	B-DC14	B-DC15	B-DC16	B-Ph1	B-Ph2	B-Ph3	B-Ph4	B-Ph5	B-Ph6	B-Ph7	B-Ph8	B-Ph9	B-Ph10	B-Ph11	B-Ph12	B-Ph13	B-Ph14	B-Ph15	B-Ph16	

Term	0.00000e+00	0.00000e+00	0.00000e+00	0.00000e+00	0.00000e+00	0.00000e+00	0.00000e+00	0.00000e+00	0.00000e+00	0.00000e+00	0.00000e+00	0.00000e+00	0.00000e+00	0.00000e+00	0.00000e+00	0.00000e+00	0.00000e+00	0.00000e+00	0.00000e+00	0.00000e+00	0.00000e+00	0.00000e+00	0.00000e+00	0.00000e+00	0.00000e+00	0.00000e+00	0.00000e+00	0.00000e+00	0.00000e+00	0.00000e+00	0.00000e+00	0.00000e+00	5.32887e+00	-1.29929e+02	-1.28731e+02	-1.84746e+02	-7.04180e+01	-6.91937e+01	-1.57922e+02	-1.62015e+02	-2.77445e+01	-6.81129e+01	-1.79083e+02	-1.70094e+02	-1.79662e+02	-1.77090e+02	-5.99893e+01	-1.50031e+02	
Factor	3.72528e-05	1.74124e-04	4.89623e-05	5.67296e-01	1.96177e-06	1.72426e-06	1.76438e-01	6.39805e-02	2.34682e-06	1.97558e-06	1.09870e-01	2.83453e-02	2.58785e-02	9.19466e-03	2.23646e-06	1.37262e-02	1.53627e-05	2.58478e-05	7.28226e-06	2.83297e-01	2.78559e-07	2.92575e-07	8.32134e-02	3.23121e-02	2.55711e-07	2.93603e-07	5.34728e-02	1.39108e-02	1.31685e-02	4.70685e-03	2.66657e-07	6.77598e-03	X	X	X	X	X	X	X	X	X	X	X	X	X	X	X	X	



#DISTANCE SETTINGS
A = Detector Channel
A-1	A-2	A-3	A-4	A-5	A-6	A-7	A-8	A-9	A-10	A-11	A-12	A-13	A-14	A-15	A-16	

2.5000e+00	3.0000e+00	2.5000e+00	3.0000e+00	2.0000e+00	3.0000e+00	1.5000e+00	3.0000e+00	3.0000e+00	3.0000e+00	3.0000e+00	3.0000e+00	3.0000e+00	3.0000e+00	1.5000e+00	3.0000e+00	

B = Detector Channel
B-1	B-2	B-3	B-4	B-5	B-6	B-7	B-8	B-9	B-10	B-11	B-12	B-13	B-14	B-15	B-16	

1.0000e+01	1.0000e+01	1.0000e+01	1.4400e+00	1.0000e+01	1.0000e+01	1.5100e+00	1.9400e+00	1.0000e+01	1.0000e+01	1.9900e+00	2.4900e+00	2.4100e+00	2.9000e+00	1.0000e+01	2.9800e+00	




#DATA BEGINS
time	group	step	mark	flag	A-AC1	A-AC2	A-AC3	A-AC4	A-AC5	A-AC6	A-AC7	A-AC8	A-AC9	A-AC10	A-AC11	A-AC12	A-AC13	A-AC14	A-AC15	A-AC16	A-DC1	A-DC2	A-DC3	A-DC4	A-DC5	A-DC6	A-DC7	A-DC8	A-DC9	A-DC10	A-DC11	A-DC12	A-DC13	A-DC14	A-DC15	A-DC16	A-Ph1	A-Ph2	A-Ph3	A-Ph4	A-Ph5	A-Ph6	A-Ph7	A-Ph8	A-Ph9	A-Ph10	A-Ph11	A-Ph12	A-Ph13	A-Ph14	A-Ph15	A-Ph16	B-AC1	B-AC2	B-AC3	B-AC4	B-AC5	B-AC6	B-AC7	B-AC8	B-AC9	B-AC10	B-AC11	B-AC12	B-AC13	B-AC14	B-AC15	B-AC16	B-DC1	B-DC2	B-DC3	B-DC4	B-DC5	B-DC6	B-DC7	B-DC8	B-DC9	B-DC10	B-DC11	B-DC12	B-DC13	B-DC14	B-DC15	B-DC16	B-Ph1	B-Ph2	B-Ph3	B-Ph4	B-Ph5	B-Ph6	B-Ph7	B-Ph8	B-Ph9	B-Ph10	B-Ph11	B-Ph12	B-Ph13	B-Ph14	B-Ph15	B-Ph16	aux-1	digaux	

1387.138	1	1	0	256	0.038332	0.028053	0.15253	0.11306	0.071682	0.12984	0.098936	0.13787	0.25561	0.29795	0.31946	0.076156	0.13218	0.12283	0.191	0.097407	-3.2125	-3.3021	-3.4021	-3.2771	-2.95	-3.4854	-3.1229	-3.0729	-3.3771	-3.0187	-3.2313	-3.4771	-2.9833	-3.2687	-3.1437	-3.1625	47.284	-105.358	157.617	185.396	219.501	109.694	212.943	-127.970	-69.723	19.058	160.253	-72.031	-7.120	100.523	81.115	219.068	0.0002871	0.00070749	0.00053903	489.57	3.5897e-05	2.7608e-05	491.65	130.5	1.241e-05	2.6482e-05	144.42	47.788	54.307	27.711	1.2178e-05	24.602	0.03086	0.051379	0.014344	1003.2	0.00055205	0.00057266	596.34	179.98	0.0004962	0.00056233	229.24	69.225	73.544	33.889	0.00049703	34.901	-51.681	-74.577	222.762	-118.348	-13.095	49.729	-119.147	-112.182	18.083	-25.243	-114.352	-111.545	-109.182	-103.538	-61.602	-107.715	-8191	255	
1387.210	1	1	0	0	0.10019	0.078498	0.11756	0.075592	0.077621	0.069535	0.26701	0.23525	0.29245	0.12742	0.091307	0.048061	0.31571	0.15901	0.12088	0.13903	-3.1854	-3.0625	-3.3208	-3.4583	-3.0833	-3.6729	-3.2125	-3.075	-3.5042	-3.0854	-3.45	-3.4208	-2.9917	-3.4667	-3.2125	-3.1458	9.700	52.566	-73.404	142.460	157.586	128.388	185.591	-92.104	48.609	-61.264	82.076	-37.293	-94.323	-106.189	151.087	-25.758	0.0005642	0.0017169	0.00059331	517.66	2.2829e-05	8.6743e-06	503.83	138.84	5.2228e-06	3.0359e-05	148.41	49.569	56.839	28.99	3.731e-05	25.638	0.028898	0.04773	0.013456	986.52	0.00052224	0.00054005	602.46	183.49	0.00048074	0.00054867	233.75	70.814	75.698	35.126	0.0005065	35.962	-20.268	-73.007	-26.363	-118.252	204.861	196.069	-119.272	-112.336	-79.705	159.053	-115.331	-110.381	-108.708	-103.684	-31.811	-108.112	-8191	255	
1387.306	1	1	0	0	0.13961	0.19262	0.29052	0.21747	0.14651	0.043243	0.18062	0.13115	0.059519	0.046626	0.16208	0.11519	0.021907	0.26103	0.26448	0.018853	-3.1208	-3.2604	-3.4042	-3.6917	-2.8542	-3.2917	-3.3604	-3.125	-3.4604	-3.0875	-3.1146	-3.5771	-2.9958	-3.5375	-3.4375	-3.0021	134.468	-32.071	-62.599	-59.725	-101.122	96.053	134.291	142.402	-128.985	87.977	-30.057	133.818	-17.990	-107.113	168.215	53.230	0.00023734	0.00077239	0.00020463	518.07	1.4364e-05	1.7226e-05	504.1	138.74	2.42e-05	2.2403e-05	150.3	50.157	56.414	29.332	2.5474e-05	25.319	0.029697	0.050047	0.01419	1022.4	0.00055497	0.00058445	616.77	190.16	0.00053049	0.00060876	245.43	74.706	78.898	36.74	0.00058595	38.026	55.044	64.636	86.918	-117.600	47.688	34.129	-118.870	-112.291	-99.965	-119.948	-115.796	-111.158	-108.746	-103.608	-14.696	-107.678	-8191	255	
1387.402	1	1	0	0	0.10849	0.1425	0.15805	0.15935	0.14085	0.11898	0.19305	0.18511	0.046113	0.32166	0.40064	0.1487	0.13071	0.16922	0.2508	0.095442	-3.0125	-3.1458	-3.1979	-3.5521	-3.1354	-3.2792	-3.2708	-3.1688	-3.6083	-3.0021	-3.1625	-3.7354	-3.0583	-3.4708	-3.4854	-3.0458	-92.769	-123.392	-92.189	112.949	-126.995	154.211	193.188	-34.328	-103.133	4.492	-120.900	-59.865	32.710	141.050	131.929	44.022	0.00045477	0.00033882	0.00068695	508.94	9.4886e-06	2.7559e-05	501.51	137.67	2.9234e-05	1.8147e-05	147.64	50.465	57.99	29.836	1.8148e-05	26.454	0.034471	0.058359	0.016672	1102.6	0.00063619	0.00066797	636.79	196.8	0.00058859	0.00067144	255.48	77.638	82.06	37.976	0.00061457	39.036	-75.956	24.130	127.024	-117.825	-57.649	105.326	-119.218	-111.992	-20.515	95.824	-115.042	-110.699	-108.196	-103.823	51.282	-108.036	-8191	255	
1387.521	1	1	0	0	0.18098	0.20704	0.19726	0.35054	0.11717	0.14819	0.11454	0.10889	0.11841	0.17316	0.18703	0.074755	0.17237	0.01839	0.18855	0.11958	-3.1063	-3.1896	-3.0479	-3.5312	-3.2167	-3.3896	-3.4688	-3.1	-3.4458	-3.3396	-3.1562	-3.5396	-3.2687	-3.3354	-3.575	-3.2271	135.210	95.256	-10.220	-8.218	-110.392	-6.512	42.747	144.295	-56.436	-35.349	6.741	-53.633	-58.325	-77.944	29.742	179.644	0.00016834	0.00096446	0.00090531	527.44	1.8876e-05	2.8348e-05	514.83	140.55	1.151e-05	1.3914e-05	154.62	53.444	59.646	31.073	2.0932e-05	27.372	0.034737	0.058052	0.016387	1089	0.00061386	0.00064502	641.39	196.07	0.00055972	0.00064191	254.38	77.731	82.364	38.254	0.00058201	39.212	-120.975	123.877	137.547	-117.399	-40.926	-21.397	-119.042	-111.430	142.087	-60.017	-114.405	-110.954	-108.605	-103.980	5.155	-108.315	-8191	255	
1387.617	1	1	0	0	0.083579	0.10285	0.29146	0.19848	0.18895	0.16086	0.045478	0.13137	0.028314	0.24571	0.026203	0.127	0.16371	0.13458	0.081376	0.15485	-3.1708	-3.1437	-3.0646	-3.6167	-3.2729	-3.2583	-3.2938	-3.1188	-3.2438	-3.4188	-2.8458	-3.5563	-3.1875	-3.1417	-3.5583	-3.1604	186.320	24.837	83.653	56.464	-80.988	25.419	116.635	101.738	42.246	-69.065	219.852	-46.639	-112.222	91.895	136.099	172.958	0.00045295	0.0003576	0.00082139	522.09	8.6236e-06	2.1787e-05	525.18	140.69	5.7854e-05	5.0438e-06	156.45	54.059	60.495	31.52	2.8559e-05	27.149	0.032915	0.055986	0.015826	1079.4	0.0005996	0.00063469	646.63	196.19	0.0005444	0.00062891	253.92	78.102	82.634	38.542	0.0005783	39.162	33.766	-5.541	229.586	-117.544	-88.412	224.490	-118.912	-111.710	69.006	80.107	-114.908	-111.155	-108.034	-103.870	67.696	-108.347	-8191	255	
1387.715	1	1	0	0	0.14598	0.22744	0.25368	0.10674	0.045442	0.087419	0.10792	0.096907	0.20419	0.031574	0.03165	0.20967	0.2375	0.049993	0.054111	0.39945	-2.7896	-3.35	-2.8229	-3.4854	-3.1562	-3.0833	-3.5083	-3.1604	-3.4	-3.2708	-2.9854	-3.3937	-3.3667	-2.9542	-3.65	-3.2021	164.550	190.115	-119.356	172.379	-81.073	-129.784	74.137	-76.055	-84.228	-23.793	-55.019	151.515	193.702	192.565	153.327	153.333	0.00063799	0.0025006	0.00057893	526.4	1.6142e-05	1.1657e-05	525.77	143.38	7.2455e-06	1.751e-05	159	54.557	62.197	31.712	1.3052e-05	27.995	0.033163	0.056673	0.01585	1081.9	0.00060177	0.00063478	644.79	196.92	0.00054266	0.00062576	254.86	78.186	83.29	38.853	0.00056643	39.436	-71.132	-64.675	8.464	-117.657	-1.262	120.791	-119.162	-111.851	-14.458	-125.763	-115.335	-111.035	-108.272	-103.567	146.246	-107.752	-8191	255	
1387.810	1	1	0	0	0.16649	0.085521	0.11677	0.046123	0.41235	0.073161	0.097395	0.242	0.14808	0.13289	0.18904	0.078732	0.18845	0.082582	0.22041	0.35247	-2.7354	-3.4021	-3.0958	-3.4896	-3.225	-3.1354	-3.4833	-3.1229	-3.2271	-3.4521	-2.9208	-3.4979	-3.3083	-3.0604	-3.6437	-2.9833	-104.407	181.217	47.109	216.013	64.047	93.202	-105.105	-124.942	26.441	-56.294	141.291	38.307	157.336	174.671	48.534	-90.329	0.00071369	0.0017816	0.0002194	543.8	9.1169e-06	1.5657e-05	529.62	148.58	7.9443e-06	3.7096e-05	160.18	55.784	63.871	32.862	1.4065e-05	28.768	0.032695	0.054977	0.01544	1076.8	0.00059642	0.00062913	648	199.04	0.00053889	0.00061247	253.81	78.52	84.03	39.412	0.00053853	39.511	-41.806	57.142	208.242	-117.694	-56.081	72.308	-118.901	-111.925	33.963	185.840	-114.889	-111.515	-108.379	-103.255	-34.013	-107.875	-8191	255	
1387.906	1	1	0	0	0.069102	0.14226	0.15831	0.12807	0.10213	0.21368	0.11862	0.20515	0.20879	0.12148	0.22446	0.04435	0.1509	0.14729	0.19105	0.35574	-2.6979	-3.6917	-3.0167	-3.4146	-3.2438	-3.1083	-3.5062	-3.1604	-3.0604	-3.6146	-3.0083	-3.4229	-3.5	-2.9125	-3.4917	-3.1104	-91.176	164.717	69.887	123.088	-19.328	9.779	-4.968	169.509	36.385	68.381	171.665	67.366	211.677	172.271	-69.541	55.862	0.00047024	0.0020946	0.00033716	557.22	1.0971e-05	1.8162e-05	546.01	152.01	2.8588e-05	6.8275e-06	168.41	58.17	64.916	33.671	2.7383e-05	29.783	0.031406	0.052763	0.01465	1056	0.00056305	0.00059206	651.65	199.02	0.00051606	0.00058669	254.94	79.911	84.636	39.875	0.00052281	40.199	44.486	205.724	111.162	-117.468	-101.077	148.751	-119.207	-112.282	27.229	198.998	-115.084	-110.782	-108.520	-103.685	37.338	-108.172	-8191	255	
1388.002	1	1	0	0	0.13773	0.087672	0.37831	0.11958	0.35141	0.056216	0.095052	0.3156	0.23948	0.09588	0.14414	0.15004	0.18839	0.1318	0.29383	0.2674	-2.6896	-3.4562	-2.9708	-3.2062	-3.3833	-2.9771	-3.4771	-3.1979	-3.1958	-3.4688	-3.1333	-3.3896	-3.3792	-3.2062	-3.3729	-3.1958	-56.784	206.286	34.644	82.962	147.715	66.711	212.364	-124.838	-59.046	106.899	-110.770	146.155	214.078	-65.579	202.677	-51.442	0.00052663	0.00061061	8.7967e-05	563.13	2.0751e-05	1.3777e-05	559	154.61	1.668e-05	2.1049e-05	171.81	59.951	66.664	34.156	1.3503e-05	30.228	0.030391	0.050947	0.014285	1057.1	0.00055521	0.00058347	659.62	202.18	0.00051414	0.00058706	258.44	81.402	86.406	40.199	0.00052163	40.45	-96.349	218.908	146.734	-117.549	132.440	-94.737	-118.857	-111.875	53.650	111.487	-114.885	-111.085	-109.303	-104.127	72.316	-108.035	-8191	255	
1388.123	1	1	0	0	0.31191	0.22845	0.058107	0.19686	0.05072	0.2138	0.12233	0.10288	0.064023	0.3567	0.18077	0.094268	0.20135	0.021343	0.21594	0.32908	-2.7375	-3.4396	-3.0896	-3.3021	-3.4646	-3.05	-3.4979	-3.25	-3.0333	-3.5333	-3.2313	-2.9771	-3.5792	-3.0625	-3.3688	-3.5854	-99.258	-103.638	196.474	-55.090	79.008	3.807	168.843	1.156	49.545	-41.432	47.606	167.996	-9.459	30.094	146.861	113.287	0.00052265	0.00057721	0.00054554	566.6	1.8838e-05	1.5447e-05	568.33	157.29	1.8655e-05	5.5412e-06	173.24	62	68.398	35.09	1.3832e-05	30.762	0.030627	0.050458	0.014164	1056.3	0.00054858	0.00057352	664.71	204.33	0.00050078	0.00056749	258.51	82.095	86.679	40.69	0.0005116	40.703	-9.807	-11.308	103.195	-116.485	65.733	31.445	-118.849	-111.919	16.907	-46.482	-115.042	-110.849	-108.245	-103.824	7.692	-108.000	-8191	255	
1388.219	1	1	0	0	0.075479	0.02997	0.1603	0.15404	0.30879	0.095831	0.20822	0.17277	0.15634	0.24025	0.1269	0.15549	0.15311	0.139	0.13121	0.12462	-2.7333	-3.4729	-3.2542	-3.2271	-3.4417	-3.0292	-3.4521	-3.4646	-2.9167	-3.3854	-3.1896	-3.2396	-3.6542	-3.1458	-3.1979	-3.5312	171.008	83.972	183.815	-62.768	24.054	198.143	203.919	163.095	61.265	48.185	170.988	-124.108	60.982	204.541	27.680	-35.031	0.00039013	0.00097138	0.00038192	572.19	1.6034e-05	3.7319e-05	573.39	162.19	3.0694e-05	1.4293e-05	175.25	63.151	69.211	35.427	3.4954e-05	30.979	0.029564	0.049081	0.013873	1053.6	0.00053888	0.00056176	672.14	206.36	0.00049957	0.00057479	262.49	83.377	87.864	41.273	0.00052537	41.474	-32.114	-0.526	69.841	-117.784	-60.328	-51.189	-119.191	-111.707	199.672	-101.945	-114.848	-111.186	-108.703	-103.991	221.339	-108.039	-8191	255	
1388.315	1	1	0	0	0.12999	0.21211	0.19429	0.134	0.22826	0.20422	0.19315	0.18972	0.12291	0.13997	0.16045	0.19012	0.24994	0.13523	0.303	0.085613	-2.5938	-3.2188	-3.1271	-2.975	-3.4188	-3.1708	-3.2833	-3.3146	-2.9229	-3.3937	-3.3521	-3.0521	-3.3479	-3.275	-3.2562	-3.3667	-63.967	-114.721	30.980	215.571	159.097	214.648	188.732	-89.352	64.936	94.908	125.149	-77.338	72.964	-127.563	-117.794	113.199	0.00048092	0.00099124	0.00054431	572.33	3.6222e-06	2.7224e-05	579.22	161.55	4.3577e-05	2.279e-05	177.99	62.94	69.179	35.441	2.3395e-05	31.514	0.030612	0.051167	0.014543	1076.4	0.00055241	0.00058202	684.21	208.33	0.00051005	0.00058953	268.38	84.874	89.21	41.793	0.00056256	42.707	-103.035	-87.659	-128.744	-117.396	68.748	199.233	-119.205	-112.270	-61.000	176.872	-115.133	-111.196	-108.447	-103.985	161.995	-107.510	-8191	255	
1388.411	1	1	0	0	0.08549	0.086412	0.14967	0.10602	0.15277	0.22721	0.10561	0.13217	0.027753	0.23745	0.077031	0.20275	0.044468	0.24968	0.23538	0.19076	-2.4708	-3.2729	-3.3438	-2.7667	-3.5208	-3.1208	-3.1937	-3.5312	-3.0729	-3.4417	-3.2521	-3.1688	-3.3833	-3.2562	-3.0771	-3.8083	45.291	-0.480	29.394	169.556	126.084	-8.511	185.335	-108.808	64.712	138.131	84.185	131.296	111.309	195.361	97.293	-22.411	0.00013608	0.002033	0.00065317	578.4	1.3634e-05	2.0414e-05	592.32	161.06	3.2852e-05	2.0708e-05	178.96	64.09	69.435	35.758	3.5779e-06	31.759	0.032475	0.055293	0.015865	1136.3	0.0006114	0.0006474	711.36	217.05	0.00058521	0.00068463	287.02	90.315	94.086	43.71	0.0006529	45.117	-46.065	120.551	58.347	-118.655	-120.833	-86.465	-118.700	-111.764	40.811	-94.138	-115.845	-111.028	-108.954	-103.995	178.345	-108.198	-8191	255	
1388.506	1	1	0	0	0.24684	0.094579	0.088522	0.077318	0.1739	0.073094	0.11568	0.12794	0.098913	0.097198	0.037621	0.16185	0.11814	0.11648	0.16645	0.15726	-2.4729	-3.3875	-3.3583	-3.05	-3.3979	-3.3896	-3.2042	-3.5917	-3.0812	-3.3292	-3.2938	-3.3042	-3.3187	-3.2958	-2.8875	-3.7083	120.388	-6.608	107.642	62.602	96.442	-11.544	-90.018	-7.052	173.600	18.703	-9.491	-50.596	78.979	186.515	-30.835	-108.407	0.00039708	0.00326	0.0001708	586	6.4716e-06	1.5039e-05	587.45	159.99	1.6206e-05	1.4976e-05	176.34	63.289	68.768	35.079	1.8576e-06	31.106	0.037372	0.06354	0.018041	1227.1	0.00070073	0.00074887	738.42	227.22	0.00066558	0.00077399	297.52	92.503	95.797	43.928	0.00068895	45.125	-57.057	-22.405	-77.429	-119.010	-102.092	41.901	-118.523	-111.930	-14.612	-69.296	-114.729	-111.183	-108.880	-103.675	134.219	-107.478	-8191	255	
1388.603	1	1	0	0	0.10511	0.22861	0.072114	0.102	0.13404	0.14964	0.043857	0.1957	0.044725	0.16141	0.06146	0.1478	0.19455	0.033904	0.15783	0.255	-2.4375	-3.25	-3.5021	-3.1104	-3.4521	-3.3375	-3.125	-3.5542	-3.2104	-3.1083	-3.4542	-3.075	-3.4208	-3.3208	-3.0667	-3.3729	-81.336	103.885	37.087	13.977	152.096	-37.713	-84.411	100.957	72.944	19.286	156.423	210.826	135.403	121.551	32.941	191.716	0.0003993	0.0048573	0.0013724	580.53	5.2962e-06	3.0989e-05	581.64	158.47	3.102e-05	1.4296e-05	176.37	62.305	68.521	34.499	4.1201e-05	30.591	0.03907	0.066159	0.018401	1219.1	0.0006906	0.00072586	723.62	220.28	0.00061991	0.00071854	286.59	88.825	92.442	42.493	0.00062084	43.235	-75.170	56.287	71.211	-117.435	158.636	-122.489	-119.309	-112.325	-73.239	-25.026	-114.947	-110.930	-108.817	-104.161	-29.788	-107.436	-8191	255	
1388.698	1	1	0	0	0.1636	0.18002	0.13756	0.27908	0.17557	0.17137	0.056932	0.32223	0.1507	0.077826	0.249	0.033383	0.33254	0.085101	0.17681	0.076525	-2.8625	-3.1625	-3.4875	-3.0938	-3.3229	-3.425	-3.1396	-3.5062	-3.4188	-2.9604	-3.4958	-3.2188	-3.2	-3.6167	-3.075	-3.4708	74.164	-80.169	-31.617	68.816	-115.277	2.856	-42.753	-6.798	35.075	196.671	-10.648	15.210	94.032	174.668	-61.938	-55.515	0.00040729	0.0014744	0.00025867	587.02	1.8263e-05	8.6468e-06	586.86	159.52	2.7625e-05	1.7525e-05	180.2	62.421	68.367	34.8	2.9277e-05	31.279	0.034853	0.057817	0.01585	1116	0.00058216	0.00060542	689.83	206.49	0.00050525	0.00057852	264.38	82.93	86.641	40.598	0.00051759	40.998	-71.589	47.282	196.291	-118.474	-78.923	-107.219	-119.118	-111.582	105.216	165.829	-114.969	-110.943	-108.503	-103.916	209.383	-107.730	-8191	255	
1388.818	1	1	0	0	0.16038	0.095322	0.24442	0.18219	0.08357	0.16551	0.33204	0.15088	0.093464	0.12551	0.030821	0.06746	0.14697	0.053941	0.13975	0.2732	-2.8771	-3.1354	-3.4958	-3.2438	-3.2438	-3.475	-3.0583	-3.4813	-3.325	-2.9792	-3.5062	-3.2125	-3.2313	-3.4958	-2.9979	-3.3292	180.426	121.430	41.749	207.440	77.148	-114.529	114.237	213.042	208.521	-91.754	0.015	177.411	124.469	-66.215	-127.957	179.290	0.00054397	0.0012176	0.00034971	589.27	2.2708e-05	1.6524e-05	598.98	162.38	9.8131e-06	4.2943e-05	182.87	63.828	68.852	34.966	1.4938e-05	30.925	0.029802	0.049947	0.013943	1054.5	0.00053557	0.00056151	688.94	206.49	0.00049139	0.00056634	265.21	83.022	86.847	40.472	0.00050379	40.751	-114.521	17.272	73.828	-117.463	201.249	1.699	-118.314	-111.376	-79.764	66.879	-115.359	-111.164	-109.402	-103.930	45.531	-107.499	-8191	255	
1388.915	1	1	0	0	0.23867	0.27495	0.025757	0.11135	0.039604	0.12615	0.20697	0.30646	0.17718	0.19409	0.10949	0.23289	0.17078	0.13326	0.10617	0.19744	-2.8187	-2.9562	-3.4792	-3.0229	-3.2542	-3.5292	-2.9792	-3.1771	-3.4292	-3.0146	-3.5229	-3.4354	-3.1729	-3.5917	-3.1146	-3.3104	176.078	5.459	70.238	-102.089	206.467	63.008	158.121	134.488	138.590	32.568	182.012	-88.170	226.600	-112.535	16.103	71.600	0.00031431	0.00050781	0.00016835	590.74	4.8486e-06	1.2226e-05	594.31	162.17	4.2693e-05	7.6839e-06	180.18	61.891	66.245	33.924	1.7736e-05	30.047	0.029406	0.049213	0.013723	1059.5	0.00053044	0.0005569	687.09	205.93	0.00048895	0.00055723	261.49	82.428	85.437	39.757	0.00051493	40.467	-114.611	-105.074	64.827	-116.901	223.005	-86.989	-119.292	-112.188	92.479	23.787	-115.556	-111.065	-108.619	-103.390	-23.136	-107.864	-8191	255	
1389.011	1	1	0	0	0.13591	0.11877	0.36432	0.13031	0.064555	0.1932	0.30527	0.11992	0.25334	0.17027	0.25709	0.30149	0.2311	0.28998	0.17772	0.16574	-2.9417	-3.0021	-3.5708	-3.1917	-3.1396	-3.5729	-3.1729	-3.2438	-3.4167	-2.9854	-3.4104	-3.2583	-3.0458	-3.6604	-3.0479	-3.175	68.137	-117.151	195.242	153.957	186.285	-55.646	226.250	-97.146	123.511	-16.472	136.254	63.169	102.765	-93.144	121.793	181.709	0.00011129	0.003549	0.00034523	577.57	3.073e-05	1.4989e-05	590.8	161	2.2007e-05	2.6866e-05	178.01	62.562	67.58	34.033	1.1856e-05	30.178	0.030276	0.050849	0.014139	1066.6	0.00054448	0.00056919	688.1	206.89	0.00049946	0.00057448	264.82	83.304	86.411	40.029	0.00052762	40.721	175.824	140.454	-28.108	-118.532	7.272	-32.872	-119.267	-112.628	-42.985	30.551	-114.743	-110.956	-108.153	-103.875	209.249	-107.491	-8191	255	
1389.082	1	1	0	0	0.20181	0.14976	0.10686	0.1038	0.19586	0.021575	0.23937	0.16593	0.29491	0.29507	0.28639	0.11921	0.05404	0.12677	0.18229	0.15012	-2.8771	-2.8146	-3.3146	-3.3375	-2.7708	-3.5083	-2.9396	-3.2	-3.5542	-2.9688	-3.5875	-3.3083	-3	-3.4271	-3.3563	-3.3104	8.293	38.323	27.129	42.269	92.472	224.953	208.928	-17.917	-63.168	-21.513	-113.778	-97.944	34.605	-101.359	86.868	39.993	0.00069836	0.001971	0.00050748	576.55	2.7689e-05	5.8072e-06	589.88	161.14	4.33e-05	9.8963e-06	182.37	63.554	68.065	34.782	1.7451e-05	31.346	0.030594	0.050497	0.01423	1068.9	0.00053903	0.00055753	681.77	204.66	0.00048448	0.00054575	260.39	82.459	85.439	40.07	0.00049212	40.641	-90.765	97.341	-30.930	-118.181	-13.293	194.936	-119.126	-112.495	109.535	154.434	-114.780	-111.080	-108.818	-103.528	14.669	-107.702	-8191	255	
1389.203	1	1	0	0	0.086409	0.20981	0.19141	0.06139	0.15797	0.10544	0.18476	0.050461	0.10124	0.28473	0.2216	0.16315	0.042406	0.25729	0.11993	0.14476	-3.1312	-2.95	-3.3312	-3.3958	-3.0604	-3.5417	-3.1333	-3.1458	-3.5125	-2.9	-3.3917	-3.3688	-2.9958	-3.4646	-3.175	-3.0021	-1.558	-79.208	114.739	140.788	-77.812	-48.341	-5.654	188.867	162.706	195.905	187.149	129.066	-77.618	-48.148	-83.989	137.376	0.00032087	0.0010212	0.00030697	592.22	1.958e-05	8.4174e-06	602.35	162.24	1.4892e-05	1.6351e-05	184.19	64.087	68.985	35.006	5.5496e-06	31.19	0.028382	0.047046	0.013259	1039.7	0.00050288	0.00052415	681.56	202.6	0.00045635	0.00052622	259.68	82.449	85.532	40.127	0.00048589	40.608	226.824	149.212	-51.019	-118.217	-49.771	170.758	-119.301	-112.273	122.567	66.510	-115.635	-111.118	-108.729	-103.860	33.046	-107.186	-8191	255	
1389.299	1	1	0	0	0.19096	0.085565	0.15431	0.15856	0.050615	0.20481	0.13274	0.1818	0.16944	0.087547	0.16734	0.083471	0.18927	0.094011	0.18534	0.14247	-3.0833	-3.0729	-3.1188	-3.5187	-2.975	-3.4375	-3.4896	-3.0375	-3.5563	-3.0187	-3.3771	-3.5521	-3.1604	-3.4479	-3.3708	-3.0458	-36.118	-102.796	-54.082	171.427	118.044	38.841	148.246	-37.948	92.263	29.511	-114.549	-114.692	-68.047	-67.462	-87.643	9.852	0.00024693	0.0018249	0.00061294	593.89	1.8861e-05	5.4804e-06	599.94	162.46	1.7581e-05	1.365e-05	181.05	63.662	69.478	35.06	3.3175e-05	31.178	0.028043	0.046883	0.013524	1045.4	0.00051049	0.0005363	686.87	203.26	0.00045992	0.00053033	257.6	82.197	85.38	40.042	0.00047509	40.179	-75.161	72.931	-118.390	-116.754	10.280	-98.659	-119.558	-112.166	-60.947	-1.063	-114.762	-110.769	-108.121	-103.736	90.986	-108.631	-8191	255	
1389.395	1	1	0	0	0.24572	0.18489	0.14389	0.022193	0.11821	0.15766	0.063257	0.10275	0.15947	0.14444	0.10106	0.072199	0.089072	0.19249	0.16762	0.17435	-3.0875	-3.1542	-3.1292	-3.3688	-2.9542	-3.3042	-3.4437	-3.0083	-3.3854	-3.1125	-3.0312	-3.4688	-3.0917	-3.3771	-3.4708	-2.975	103.391	45.840	-55.060	15.551	171.380	137.911	36.061	86.858	-115.404	148.933	110.865	-79.116	-99.548	202.778	-76.831	47.236	0.00043335	0.0012616	0.00054429	604.22	1.8017e-05	9.2999e-06	598.2	161.7	1.9642e-05	7.6134e-06	178.13	64.923	70.356	36.412	1.2832e-05	32.141	0.026923	0.04502	0.012789	1017.8	0.00047666	0.00050103	677.58	199.64	0.00043567	0.00050717	253.62	82.277	85.556	40.573	0.00045806	40.493	-39.173	174.019	-115.906	-118.040	64.010	-12.854	-118.902	-111.922	34.283	-32.944	-115.466	-110.532	-108.306	-103.791	160.080	-107.419	-8191	255	
1389.516	1	1	0	0	0.15256	0.15829	0.18071	0.35885	0.054296	0.21163	0.017196	0.11032	0.29188	0.1413	0.13264	0.17071	0.21806	0.15116	0.16437	0.072645	-3.1625	-3.1771	-3.0563	-3.8458	-3.0625	-3.3104	-3.4813	-3.0938	-3.3187	-3.4188	-2.9854	-3.5396	-3.1312	-3.4479	-3.2958	-2.9958	125.809	127.833	169.334	118.319	-111.210	92.097	-17.784	100.198	-68.671	159.306	46.676	11.553	175.087	215.630	-30.308	38.832	0.00045078	0.0014604	0.00045013	586.93	9.5966e-06	7.7353e-06	600.12	164.62	1.9688e-05	2.4948e-05	181.48	66.294	71.52	36.229	2.0815e-05	32.383	0.026342	0.04414	0.012507	1003	0.00047618	0.00050185	673.11	200.85	0.00043192	0.0005044	254.7	82.74	86.424	40.917	0.00046206	40.813	-78.354	8.880	192.735	-117.573	116.956	172.791	-118.965	-111.822	196.896	227.794	-114.926	-110.748	-108.511	-104.447	10.492	-107.912	-8191	255	
1389.610	1	1	0	0	0.11056	0.053589	0.36552	0.38203	0.18038	0.1155	0.20584	0.060774	0.23699	0.14193	0.1141	0.11891	0.23658	0.063881	0.071888	0.29959	-3.0438	-3.2292	-3.075	-3.5625	-3.0458	-3.1937	-3.5438	-2.9062	-3.3812	-3.3937	-3.0375	-3.5083	-3.3646	-3.2875	-3.3438	-2.9062	192.565	-66.760	-64.428	144.197	22.839	-3.254	181.531	211.284	117.457	-29.883	208.446	-17.441	100.052	-83.682	-113.697	-100.357	0.00034313	0.0011642	0.00020049	603.29	1.9023e-05	2.5337e-05	601.19	164.56	9.425e-06	4.4078e-06	183.86	66.653	71.639	36.483	1.0222e-05	33.077	0.026736	0.04527	0.012702	1021	0.00048383	0.00051313	680.46	202.35	0.00044177	0.00051635	257.78	84.145	87.424	41.546	0.00047288	41.536	-22.570	213.206	-64.511	-118.249	5.249	27.747	-118.632	-111.937	71.747	-29.557	-115.133	-111.127	-108.367	-104.086	-123.331	-107.873	-8191	255	
1389.684	1	1	0	0	0.077864	0.15567	0.16004	0.019057	0.16282	0.1035	0.19237	0.22528	0.12024	0.12847	0.06093	0.046194	0.12236	0.2508	0.24478	0.14505	-3.1146	-3.1917	-2.7979	-3.4396	-2.9562	-3.3125	-3.725	-2.8375	-3.4083	-3.3937	-2.85	-3.6188	-3.3042	-3.1417	-3.4729	-2.9688	176.621	-12.205	79.244	-100.182	-72.344	110.421	152.615	144.352	195.152	55.079	-16.511	-98.104	10.860	208.882	218.296	89.344	0.00022525	0.0031296	0.00026728	597.92	3.0497e-06	1.331e-05	602.17	167.04	2.2687e-05	1.141e-05	184.8	66.372	72.067	36.53	1.4335e-05	32.308	0.02732	0.046282	0.012835	1026.4	0.00049305	0.00051459	683.2	204.24	0.00044953	0.00051761	258.08	83.875	87.858	41.238	0.00047084	41.187	41.937	48.966	27.755	-116.924	207.983	27.225	-119.268	-112.461	215.858	186.595	-114.740	-110.961	-108.626	-104.037	-85.687	-107.370	-8191	255	
1389.803	1	1	0	0	0.14154	0.1454	0.064156	0.13082	0.20539	0.16306	0.15097	0.17458	0.13178	0.15495	0.069189	0.0059576	0.21316	0.22393	0.10845	0.051794	-2.7167	-3.2042	-2.7167	-3.4417	-3.2521	-3.2313	-3.5333	-2.9146	-3.3167	-3.5521	-3.0646	-3.4333	-3.2812	-3.0917	-3.4292	-3.3083	-41.269	208.368	-124.743	-39.903	151.421	-113.492	183.716	80.464	130.249	21.293	15.666	-99.508	-85.570	199.527	-30.121	-88.637	0.00064416	0.0025395	0.00059029	597.06	1.1379e-05	2.1038e-05	605.43	164.66	3.0581e-05	2.1689e-05	185.78	67.126	72.111	36.723	1.5803e-05	32.51	0.027451	0.046012	0.012932	1031.6	0.00049276	0.0005156	685.15	204.11	0.00044768	0.00051343	256.47	83.761	87.336	41.224	0.0004651	41.067	-38.912	-75.133	81.499	-117.360	36.890	-12.291	-119.124	-111.830	25.363	-32.686	-114.960	-111.561	-108.725	-103.736	43.552	-107.935	-8191	255	
1389.899	1	1	0	0	0.13029	0.21627	0.21903	0.3034	0.23091	0.19101	0.1714	0.14515	0.29973	0.11314	0.093419	0.057483	0.13688	0.3068	0.033291	0.030327	-2.7083	-3.4688	-3.0521	-3.425	-3.3438	-3.1542	-3.7833	-3.2729	-3.0979	-3.5479	-3.1479	-3.4979	-3.3167	-3.1021	-3.3896	-3.2208	-102.827	25.234	191.028	223.204	-24.121	5.350	124.186	85.806	8.727	7.159	18.308	-53.857	214.729	207.968	-20.032	24.389	0.0006459	0.0027604	0.00038563	599.32	2.9552e-05	1.3421e-05	607.95	167.1	1.7125e-05	1.8557e-05	185.69	67.453	73.493	36.632	2.308e-05	33.237	0.027319	0.045526	0.012776	1029.8	0.0004928	0.00051036	685.29	205.17	0.00044445	0.00050577	258.27	84.106	87.878	41.287	0.00044886	41.143	-31.435	90.606	-48.862	-117.624	-121.503	145.404	-118.698	-111.896	17.857	-27.290	-114.693	-111.027	-108.645	-103.962	162.471	-107.823	-8191	255	
1389.995	1	1	0	0	0.1661	0.11912	0.18258	0.11868	0.15372	0.21557	0.13402	0.027231	0.25712	0.13234	0.059003	0.1648	0.14532	0.18937	0.1499	0.3398	-2.6833	-3.4062	-2.9083	-3.3542	-3.2896	-2.9688	-3.5312	-3.0771	-3.2396	-3.5312	-3.1146	-3.2667	-3.5104	-3.0583	-3.3104	-3.2104	31.525	26.238	42.528	155.578	26.037	18.803	25.082	39.857	-106.348	212.177	-88.175	-106.271	196.508	-81.727	193.198	-85.703	0.00031938	0.00084019	0.00049508	608.89	2.1527e-05	2.1653e-05	618.89	171.51	1.7852e-05	8.5693e-06	194.53	69.283	74.167	37.52	6.0186e-06	33.731	0.026057	0.042986	0.011983	1007.9	0.00045937	0.00047452	684.04	204.89	0.00040752	0.00046503	256.61	83.611	87.013	41.116	0.00041047	40.851	-20.240	-9.430	192.843	-117.565	121.575	-110.239	-118.857	-111.842	48.509	-45.332	-115.399	-110.442	-108.908	-104.006	95.104	-107.925	-8191	255	
1390.116	1	1	0	0	0.32809	0.080571	0.15065	0.030028	0.052874	0.20094	0.1341	0.2715	0.14773	0.14421	0.057261	0.38281	0.26622	0.26195	0.023959	0.15375	-2.6208	-3.4979	-3.0896	-3.1875	-3.4667	-2.9979	-3.3625	-3.3375	-3.0104	-3.5896	-3.0875	-3.2542	-3.6937	-3.0792	-3.2354	-3.3854	153.233	178.230	-85.462	-112.797	209.976	-5.177	42.692	212.161	219.991	-87.057	-45.371	0.497	137.364	-46.759	187.607	101.944	0.00088909	0.0007963	0.0002995	603.94	9.0981e-06	1.1548e-05	623.92	176.66	2.8472e-05	1.6986e-05	198.62	69.498	74.43	37.169	2.9197e-05	33.266	0.023387	0.039063	0.011049	966.35	0.00041563	0.0004313	679.94	204.29	0.00037588	0.00042652	255.1	82.463	85.592	40.285	0.00037985	39.713	-22.068	-116.302	-101.998	-117.908	51.130	-16.765	-118.702	-111.897	11.000	81.370	-115.533	-111.219	-108.903	-104.005	14.996	-107.949	-8191	255	
1390.212	1	1	0	0	0.29442	0.19439	0.0524	0.050665	0.24296	0.15868	0.1219	0.22519	0.21529	0.053621	0.17683	0.080844	0.24831	0.081043	0.098155	0.20256	-2.4396	-3.3854	-3.2	-3.2125	-3.6146	-3.0167	-3.6042	-3.4625	-3.0708	-3.4646	-3.0917	-3.0042	-3.4792	-3.0062	-3.2104	-3.4333	139.381	47.901	-1.571	168.414	213.672	208.164	208.266	-130.230	-96.162	66.315	71.700	93.551	-102.259	84.724	170.854	73.876	0.00056671	0.0018693	0.00072549	614.08	1.6274e-05	1.2483e-05	630.54	183.14	2.0614e-05	2.2985e-05	206.52	69.995	74.167	36.68	1.9637e-05	32.71	0.02179	0.035873	0.010087	934.15	0.00038185	0.00039944	671.96	206.16	0.00034261	0.00039148	254.96	81.099	83.916	39.38	0.00035364	38.412	-28.891	-19.812	-119.051	-118.541	-99.978	106.660	-118.814	-112.669	-53.037	52.573	-114.782	-111.087	-108.569	-103.809	41.132	-107.880	-8191	255	
1390.308	1	1	0	0	0.22145	0.23615	0.20141	0.28968	0.33674	0.28002	0.34154	0.083598	0.13821	0.089085	0.035637	0.092669	0.23949	0.27257	0.078301	0.21619	-2.3563	-3.2542	-3.2812	-3.0729	-3.5812	-3.0875	-3.3187	-3.2583	-2.9125	-3.4854	-3.3896	-3.1583	-3.3167	-3.0792	-3.2875	-3.5563	106.362	-115.927	-35.365	193.724	127.759	97.254	160.020	151.920	-73.705	210.623	132.742	204.732	-6.537	190.905	-116.458	107.658	0.00088156	0.0021691	0.00067613	616.59	1.3379e-06	1.1374e-05	631.46	185.77	1.9197e-05	1.2372e-05	211.37	69.253	73.851	36.231	1.2322e-05	32.648	0.020331	0.034018	0.0096419	916.29	0.00036597	0.00038607	670.88	208.32	0.00033404	0.00038393	256.72	80.183	83.257	38.758	0.00034892	37.961	-47.286	3.013	61.682	-118.177	158.115	-69.055	-118.603	-112.608	108.610	-88.974	-115.648	-111.335	-108.965	-103.827	105.492	-107.993	-8191	255	
1390.380	1	1	0	0	0.20272	0.052524	0.025312	0.11619	0.18015	0.09722	0.085851	0.15207	0.29893	0.025907	0.11659	0.11157	0.26381	0.060192	0.18547	0.13875	-2.4417	-3.3833	-3.3958	-3.2104	-3.4833	-3.2646	-3.2042	-3.4667	-3.1104	-3.3958	-3.4604	-2.9583	-3.4313	-3.5	-3.2167	-3.5312	138.405	137.590	140.393	-108.072	106.170	-99.814	207.334	97.734	-95.267	-96.900	212.195	167.311	-120.032	-96.908	-27.330	52.280	0.00047573	0.0021515	0.00041559	619.88	2.1261e-05	3.1706e-06	638.65	193.24	1.8301e-05	5.4375e-06	213.53	70.896	74.844	36.611	2.615e-05	33.127	0.020077	0.033717	0.0095408	915.92	0.00035897	0.00037708	671.97	212.47	0.00032564	0.00037948	258.22	80.776	83.834	39.04	0.00033467	38.208	-61.020	134.777	-66.496	-118.715	107.609	66.107	-119.228	-112.448	-78.536	94.091	-115.932	-111.154	-108.383	-103.809	215.424	-107.791	-8191	255	
1390.500	1	1	0	0	0.14117	0.030337	0.08943	0.14816	0.024206	0.10291	0.18888	0.090363	0.15896	0.030442	0.10801	0.038936	0.15138	0.22972	0.044746	0.40636	-2.5521	-3.3021	-3.4167	-2.9437	-3.6229	-3.1417	-3.0979	-3.575	-3.0208	-3.3125	-3.4688	-3.0604	-3.3979	-3.2938	-3.1104	-3.5625	63.047	-120.827	-115.379	60.862	119.402	108.181	171.976	-45.293	137.655	148.407	-43.956	127.476	174.612	218.080	-51.991	166.616	0.00021037	0.0011367	0.00054919	619.93	3.2209e-06	1.4758e-05	649.09	199.6	1.0746e-06	8.4799e-06	222.39	72.929	77.998	37.696	2.2513e-05	33.797	0.019083	0.032023	0.0089983	904.84	0.00033863	0.00035558	676.36	217.29	0.00030878	0.00035486	261.44	81.199	85.489	39.833	0.00031767	38.383	-14.584	-8.037	8.389	-117.085	18.866	69.287	-119.176	-112.278	146.787	-28.467	-115.852	-111.217	-109.389	-104.005	15.375	-107.887	-8191	255	
1390.595	1	1	0	0	0.036403	0.061766	0.24727	0.1246	0.17937	0.008058	0.15799	0.083657	0.065277	0.13882	0.034395	0.079582	0.19318	0.29106	0.13208	0.07394	-2.7146	-3.1875	-3.2792	-3.0792	-3.5354	-3.2479	-3.2438	-3.3417	-2.9604	-3.0563	-3.6312	-2.9646	-3.375	-3.2313	-3.0208	-3.3646	120.312	199.953	90.884	36.584	159.669	-79.452	155.872	-47.912	113.791	109.464	22.014	37.741	-88.255	220.158	38.905	-59.464	0.00025891	0.0018579	0.00016629	654.16	1.1063e-05	5.0355e-06	658.77	206.05	1.3109e-05	5.5922e-06	223.76	73.071	80.449	39.214	2.7036e-05	34.401	0.0185	0.030793	0.0086582	908.66	0.00033005	0.00034496	683.61	222.11	0.00029957	0.00034294	261.39	81.299	87.199	40.904	0.00030321	38.762	0.056	-55.997	-59.697	-118.143	-108.500	-94.303	-119.011	-112.213	41.064	-68.471	-115.890	-111.596	-108.721	-103.978	31.490	-107.926	-8191	255	
1390.691	1	1	0	0	0.115	0.15395	0.38396	0.092841	0.30827	0.27656	0.076234	0.11251	0.19087	0.14862	0.14182	0.55704	0.26335	0.094936	0.17798	0.29962	-2.6771	-3.125	-3.2104	-2.9375	-3.1458	-3.3667	-2.8896	-3.4583	-3.1979	-3.1646	-3.4979	-3.2375	-3.3688	-3.3042	-2.8771	-3.4104	44.139	130.142	-94.732	136.231	-89.181	-115.430	79.712	-96.949	113.126	146.647	34.489	169.158	96.696	-126.345	-32.252	-129.125	0.00041915	0.00092327	0.00030383	664.27	5.8366e-06	1.217e-05	668.86	213.69	2.5345e-05	2.0627e-05	232.11	74.325	82.945	40.725	2.3402e-05	35.394	0.017657	0.029242	0.0081878	905.37	0.00031184	0.00032838	687.46	226.41	0.00028396	0.00032473	264.25	81.843	88.502	42.039	0.00028845	39.344	-96.061	-107.442	21.292	-117.294	-0.350	48.032	-118.817	-112.501	60.650	61.300	-115.524	-111.019	-108.879	-104.076	42.494	-108.252	-8191	255	
1390.787	1	1	0	0	0.20034	0.21707	0.051701	0.15701	0.12015	0.15504	0.040942	0.15208	0.10951	0.14084	0.23171	0.24224	0.3728	0.2631	0.23972	0.046849	-2.7646	-3.0667	-3.4313	-3.0208	-3.2042	-3.45	-3.2208	-3.6229	-3.4417	-3.0625	-3.4313	-3.1292	-3.2833	-3.4479	-2.9	-3.4375	151.208	-0.272	211.598	178.035	-91.387	129.644	-117.755	143.363	205.007	4.684	222.810	142.191	217.630	208.108	166.861	171.356	0.00027767	0.0016174	0.00022494	674.85	1.5747e-05	8.16e-06	676.95	215.61	2.1272e-05	2.9312e-05	228.31	73.453	82.686	40.998	2.06e-05	35.338	0.016823	0.027888	0.0078494	905.78	0.00030031	0.00031674	688.85	226.79	0.00027495	0.00031784	260.11	80.72	87.894	42.058	0.0002854	38.957	-9.897	-21.956	-114.680	-117.927	10.432	64.574	-119.066	-112.601	34.385	26.640	-115.447	-111.187	-108.746	-104.081	50.454	-107.650	-8191	255	
1390.883	1	1	0	0	0.15253	0.13922	0.15635	0.089225	0.22287	0.17665	0.12153	0.09647	0.13833	0.21245	0.1127	0.066173	0.17408	0.021062	0.10859	0.096074	-2.7938	-2.9458	-3.5062	-3.2812	-3.2458	-3.3354	-3.0375	-3.2667	-3.0854	-3.1	-3.5583	-3.1729	-2.9729	-3.5479	-2.9771	-3.1937	83.662	-76.673	25.552	-53.189	88.215	91.547	161.994	135.175	-107.489	-2.230	171.476	-27.742	108.065	181.160	178.764	145.643	0.00041622	0.00034793	0.00021851	681.76	2.7527e-05	1.1745e-05	677.39	212.07	2.0945e-05	1.2148e-05	220.07	70.453	79.889	39.236	8.8762e-06	33.635	0.0167	0.027611	0.0077871	908.88	0.00029867	0.00031272	687.62	223.98	0.00027532	0.00031804	255.41	78.209	85.658	40.734	0.0002895	37.733	-60.801	34.889	186.815	-118.223	-36.799	-38.707	-119.011	-112.656	76.187	65.170	-115.483	-110.570	-108.774	-104.231	60.036	-107.899	-8191	255	
1390.979	1	1	0	0	0.16585	0.11198	0.15134	0.082349	0.08661	0.093298	0.09703	0.093819	0.09148	0.18269	0.14902	0.086847	0.14567	0.17641	0.26086	0.16696	-2.8917	-2.9333	-3.4208	-3.3771	-3.0646	-3.4562	-3.1271	-3.4229	-3.35	-2.9646	-3.6125	-3.3271	-2.9437	-3.5229	-3.2354	-3.2104	178.589	79.791	209.786	175.432	18.140	-58.452	-43.576	-117.612	-72.248	-8.335	-110.776	75.088	-44.679	218.127	-107.838	200.428	0.00020472	0.0010228	0.00060363	676.11	2.448e-05	1.293e-05	662.84	210.39	1.318e-05	4.3891e-05	215.8	69.02	78.885	38.937	1.0783e-05	33.259	0.017053	0.028251	0.0079433	906.9	0.00030512	0.0003191	679.01	220.87	0.00027888	0.00031999	250.73	76.705	84.988	40.435	0.00029496	37.582	-61.202	3.984	-42.496	-117.455	15.504	1.245	-118.537	-112.779	47.324	11.918	-115.737	-111.062	-109.050	-104.110	221.371	-107.945	-8191	255	
1391.075	1	1	0	0	0.16737	0.19135	0.059036	0.18485	0.21187	0.069348	0.16962	0.18396	0.25574	0.19258	0.072381	0.1137	0.039457	0.17504	0.11289	0.22912	-3.1063	-2.8937	-3.4062	-3.2417	-3.1021	-3.5563	-3.1042	-3.1083	-3.3	-3.0604	-3.375	-3.2313	-3.1063	-3.4458	-2.8667	-3.0979	-60.589	143.764	104.869	159.649	198.363	221.189	179.363	108.463	227.113	147.452	-86.583	150.211	220.713	171.484	-79.154	-62.050	0.00094058	0.0013898	0.00030646	684.21	3.7673e-06	1.7251e-05	659.62	208.07	1.9189e-05	1.1545e-05	220.84	70.128	79.807	40.085	1.0789e-05	34.145	0.017019	0.028432	0.0080687	909.56	0.00030541	0.00032234	676.72	221.41	0.00027755	0.00032078	252.69	77.826	85.8	41.148	0.00029213	38.07	-24.612	77.573	28.946	-118.151	-102.329	-11.355	-118.981	-112.579	224.282	105.954	-115.139	-110.634	-108.725	-103.918	31.622	-108.127	-8191	255	
1391.196	1	1	0	0	0.17286	0.08848	0.10052	0.28779	0.10567	0.17148	0.15749	0.13932	0.12621	0.20585	0.15115	0.065948	0.067687	0.094116	0.13395	0.16768	-3.0708	-2.9354	-3.3792	-3.4125	-2.875	-3.6167	-3.0896	-3.1417	-3.3854	-2.8958	-3.2812	-3.3333	-3.0792	-3.4083	-3.1813	-3.0792	151.489	7.815	-7.632	-51.476	-73.544	-85.063	156.076	172.486	13.318	79.199	193.688	-81.536	99.655	126.256	83.401	179.126	0.0003898	0.0013652	0.00024169	677.76	1.6161e-05	5.9326e-06	659.97	207.55	3.0662e-05	1.3993e-05	216.26	69.252	79.65	39.456	8.1016e-06	34.164	0.016713	0.028423	0.007979	900.61	0.00030198	0.00031789	677.11	219.83	0.00027792	0.00032304	250.59	76.941	85.606	40.784	0.00029754	37.87	-16.891	-90.800	47.843	-118.994	-6.438	-76.962	-119.277	-112.850	49.238	-31.325	-115.241	-111.225	-109.304	-103.925	216.083	-108.295	-8191	255	
1391.292	1	1	0	0	0.09081	0.081546	0.15088	0.057935	0.26321	0.044371	0.03331	0.29744	0.30093	0.18263	0.11424	0.012763	0.28108	0.11217	0.25482	0.22396	-3.1896	-2.9021	-3.1625	-3.3396	-3.0354	-3.5771	-3.3208	-3.0958	-3.6125	-3.1542	-3.3354	-3.2646	-2.9896	-3.2792	-3.3208	-3.2313	-65.256	-63.883	-23.609	-88.998	-35.693	97.222	-86.945	199.418	26.141	184.313	-97.962	161.867	10.776	153.283	169.635	101.905	0.00047507	0.00096982	0.00050202	669.37	3.6997e-06	1.3248e-05	653.01	205.35	2.2324e-05	1.453e-05	214.6	68.776	79.372	39.133	9.5362e-06	33.785	0.017062	0.028875	0.0080648	900.4	0.00030699	0.00031999	671.83	218.34	0.00027534	0.00031727	248.72	76.525	84.723	40.507	0.00028172	37.585	-54.284	-33.019	-13.378	-117.646	150.405	161.761	-119.246	-112.230	80.927	-8.246	-115.378	-111.249	-108.773	-104.172	142.627	-108.283	-8191	255	
1391.388	1	1	0	0	0.11816	0.11851	0.16161	0.093273	0.32343	0.22932	0.084352	0.33197	0.13811	0.05308	0.25149	0.26263	0.10024	0.29912	0.33889	0.18064	-3.1813	-3.1104	-3.225	-3.3688	-2.8937	-3.3333	-3.45	-2.9958	-3.5167	-3.1458	-3.3021	-3.5229	-2.925	-3.5312	-3.5021	-3.0917	204.389	206.834	98.102	56.250	-48.086	172.512	129.905	195.818	86.006	-41.553	144.977	-62.761	-88.480	-114.232	77.291	159.964	0.00051029	0.0014412	0.00031016	667.29	2.8566e-05	1.6756e-05	652.04	203.89	1.9173e-05	2.1591e-05	215.32	67.214	77.227	38.464	1.368e-05	32.532	0.016544	0.027653	0.0077674	890.41	0.00029631	0.00030982	666.6	215.7	0.00026745	0.00030714	244.78	74.363	83.143	39.621	0.00027908	36.467	-40.643	-74.803	-44.806	-117.516	-68.021	57.048	-119.327	-112.402	93.348	120.907	-115.539	-111.397	-108.998	-104.312	174.050	-108.473	-8191	255	
1391.484	1	1	0	0	0.08128	0.24942	0.25654	0.25065	0.078601	0.095553	0.085819	0.072576	0.071636	0.086414	0.24062	0.064223	0.2062	0.13541	0.14546	0.16344	-3.125	-3.1208	-3.0729	-3.3333	-3.0146	-3.2708	-3.4208	-3.0146	-3.4271	-3.1979	-3.2229	-3.575	-3.2083	-3.2875	-3.3604	-3.0583	-84.388	185.343	-70.711	-39.349	58.125	128.952	159.689	147.610	191.407	229.294	-67.732	160.549	109.940	-104.144	42.018	225.329	0.00048798	0.0011051	0.00033629	651.35	1.0329e-05	1.9361e-05	637.91	196.55	1.6642e-05	1.8978e-05	205.96	64.347	74.845	36.668	8.7982e-06	30.925	0.016302	0.02741	0.007721	874.68	0.00029637	0.00031439	654.08	210.74	0.00027591	0.00031214	240.5	72.568	80.543	38.02	0.00028507	35.341	-22.401	104.336	8.041	-117.725	93.187	70.205	-118.684	-112.145	126.098	150.093	-115.759	-110.808	-109.051	-104.086	55.748	-107.961	-8191	255	
1391.581	1	1	0	0	0.12718	0.2402	0.17307	0.27963	0.061285	0.1533	0.30458	0.10756	0.10811	0.24304	0.17082	0.24061	0.14027	0.03661	0.42015	0.20456	-2.9708	-2.9813	-3.05	-3.5938	-3.1063	-3.1479	-3.375	-3.15	-3.2917	-3.3167	-3.0812	-3.5958	-3.1063	-3.2729	-3.4271	-3.2021	128.055	47.625	12.443	66.314	-21.890	-125.158	151.129	-9.361	-116.001	19.809	-8.305	205.415	165.923	134.873	67.341	203.224	0.00034243	0.00086021	0.00048262	643.86	1.1563e-05	2.4335e-05	620.66	192.62	2.2686e-05	6.1774e-06	200.57	62.157	71.943	35.513	2.2658e-05	30.089	0.016717	0.028087	0.0079497	873.61	0.00030545	0.00032018	642.8	207.35	0.00028143	0.00032022	235.84	70.509	78.683	36.96	0.00029074	34.5	-21.159	116.714	7.468	-117.364	106.845	-47.554	-118.670	-112.373	-85.568	44.359	-115.708	-111.170	-109.073	-104.184	-1.617	-108.773	-8191	255	
1391.675	1	1	0	0	0.10252	0.098955	0.22004	0.079092	0.17203	0.14574	0.17966	0.12656	0.30466	0.059898	0.15652	0.22994	0.069618	0.20563	0.17081	0.30712	-3.0729	-3.2188	-3.175	-3.475	-3.1354	-3.2667	-3.6437	-3.0833	-3.4167	-3.3208	-3.0667	-3.6646	-3.3354	-3.1604	-3.3479	-2.9979	-129.259	12.400	-61.482	151.671	5.462	-128.562	117.439	73.914	-14.955	6.834	81.669	168.668	198.032	124.888	193.718	209.223	6.3283e-05	0.0015981	4.0592e-05	624.29	1.5862e-05	1.3526e-05	615.81	190.04	2.1918e-05	1.1116e-06	197.23	60.771	69.316	33.728	7.4188e-06	28.998	0.01668	0.027904	0.0078285	861.59	0.00030129	0.00031561	634.18	202.93	0.00027531	0.00031762	232.55	69.076	76.071	35.581	0.00028288	33.392	5.246	-63.094	218.661	-118.476	-21.269	47.399	-119.107	-112.895	20.714	-23.208	-116.048	-110.996	-109.036	-104.550	40.563	-107.570	-8191	255	
1391.796	1	1	0	0	0.046216	0.24465	0.1152	0.27734	0.21017	0.21727	0.25997	0.10704	0.026659	0.12605	0.19389	0.22075	0.20984	0.045732	0.40475	0.24416	-2.9583	-3.4021	-3.0438	-3.6667	-3.2625	-3.1271	-3.4125	-3.0354	-3.3458	-3.3521	-2.9708	-3.4375	-3.1729	-3.2021	-3.425	-3.2417	224.849	100.388	-116.235	-113.455	84.019	135.306	193.393	-21.278	217.725	82.999	-119.402	160.624	188.052	225.105	-3.412	213.944	0.00016328	0.0026285	0.000317	618.71	2.268e-05	1.8314e-05	605.17	185.46	2.163e-05	1.2524e-05	192.85	57.985	67.151	32.326	5.2531e-06	28.053	0.016436	0.02737	0.0076683	844.98	0.0002914	0.00030544	624.54	198.12	0.00026994	0.00030772	227.47	66.596	73.938	34.056	0.0002817	32.226	-96.800	-108.683	117.190	-118.584	-27.822	12.574	-119.082	-112.794	35.370	-78.321	-115.953	-111.706	-109.433	-104.432	-7.938	-108.125	-8191	255	
1391.892	1	1	0	0	0.13999	0.14753	0.059283	0.19387	0.15315	0.14049	0.10395	0.32624	0.11246	0.044134	0.078117	0.1796	0.092302	0.1706	0.065938	0.14856	-2.8979	-3.2292	-3.1458	-3.3583	-3.3417	-3.0625	-3.5125	-3.1333	-3.15	-3.5062	-2.8708	-3.3312	-3.4396	-3.0479	-3.5271	-3.2958	205.655	38.422	30.260	-124.092	153.020	-58.031	-130.653	170.568	120.500	-62.093	-60.726	21.447	177.450	-84.109	-28.291	96.556	0.00025317	0.00059466	0.00035466	603.17	9.5481e-06	1.3527e-05	589.89	178.76	1.8047e-05	3.185e-06	190.42	57.368	65.538	31.619	1.0623e-05	27.792	0.016618	0.027763	0.0078567	839.34	0.00030451	0.00031808	616.11	194.55	0.00028049	0.00032421	227.05	66.378	73.333	33.767	0.00029768	32.348	-8.065	-84.871	-124.041	-118.186	30.073	-19.504	-119.044	-112.853	-53.785	124.749	-116.499	-110.819	-108.951	-103.700	29.272	-107.490	-8191	255	
1391.988	1	1	0	0	0.17465	0.10999	0.26029	0.14553	0.060118	0.10138	0.18447	0.22971	0.16052	0.12414	0.12989	0.1039	0.19316	0.21246	0.18726	0.11005	-2.8229	-3.5438	-2.9917	-3.4625	-3.2271	-3.0417	-3.5833	-3.25	-3.3458	-3.4625	-3.0812	-3.4562	-3.3688	-2.8563	-3.4458	-3.2687	-89.040	162.698	48.089	-40.547	13.552	-34.873	-24.725	25.748	-90.000	87.501	163.323	-57.143	192.659	-109.463	221.393	118.423	0.00052788	0.0031767	0.00052737	601.92	1.2477e-05	1.1173e-05	587.3	177.86	4.3412e-05	1.2283e-05	188.94	57.518	66.102	31.474	4.9601e-06	27.283	0.017252	0.028758	0.008218	843.77	0.00031449	0.000329	615.34	195.56	0.0002929	0.00033634	230.16	67.446	74.065	33.76	0.00030792	32.439	-82.277	-27.207	3.085	-117.876	-82.089	-30.907	-119.290	-113.198	77.951	59.480	-115.706	-111.482	-109.225	-103.702	-73.658	-107.898	-8191	255	
1392.084	1	1	0	0	0.17351	0.25069	0.13611	0.098646	0.058538	0.086161	0.24196	0.1382	0.088142	0.065626	0.14753	0.20426	0.1558	0.13036	0.17154	0.13763	-2.5833	-3.2667	-3.0187	-3.1292	-3.3583	-3.0125	-3.4562	-3.2562	-3.125	-3.4771	-3.2479	-3.2146	-3.5208	-2.95	-3.4	-3.1667	-60.678	211.857	-93.879	208.570	83.882	46.802	186.426	43.852	212.535	-122.646	-90.005	-20.696	-107.098	95.555	84.225	121.445	0.00029659	0.0016011	0.00040564	584.9	5.0994e-06	1.3722e-06	585.04	178.81	1.4715e-05	7.9837e-06	190.86	57.238	64.672	30.797	2.2878e-05	26.677	0.017962	0.030452	0.0085886	852.18	0.00032976	0.00034837	618.92	196.59	0.00030567	0.00035333	232.82	67.614	73.731	33.376	0.00031905	32.137	-45.836	-118.045	-103.334	-117.865	15.851	72.032	-119.095	-112.640	98.020	35.038	-115.154	-111.834	-109.595	-103.972	-49.117	-108.042	-8191	255	
1392.205	1	1	0	0	0.03728	0.21015	0.067872	0.25286	0.057451	0.13567	0.12047	0.1059	0.067493	0.10696	0.17948	0.032152	0.16994	0.16285	0.065732	0.13198	-2.7229	-3.2875	-3.0125	-3.1542	-3.4604	-2.9938	-3.4688	-3.2417	-2.8458	-3.3417	-3.1354	-3.0375	-3.5104	-3.0979	-3.4688	-3.2917	201.673	124.397	202.395	-69.847	-60.065	-27.908	214.293	81.467	188.208	145.830	127.158	219.131	93.125	226.155	-99.567	183.729	0.00065455	0.00087218	0.00051111	578.34	1.9323e-05	1.0548e-05	577.67	170.58	2.4996e-05	1.4343e-05	183.52	55.238	62.083	28.956	8.9641e-06	25.626	0.018623	0.031089	0.0087647	850.74	0.00033576	0.00035252	613.84	192.03	0.00030799	0.00035793	228.12	66.132	71.576	32.047	0.0003226	31.251	-6.359	139.191	0.381	-118.236	196.994	-83.423	-119.574	-112.319	-7.937	-38.718	-116.175	-111.529	-108.853	-103.813	196.176	-108.317	-8191	255	
1392.276	1	1	0	0	0.35054	0.35597	0.15359	0.2528	0.093858	0.35144	0.14928	0.090052	0.023076	0.20898	0.16429	0.06546	0.19219	0.093455	0.2004	0.1591	-2.3917	-3.2917	-2.9813	-3.1312	-3.4104	-2.9917	-3.4396	-3.3042	-2.8563	-3.3958	-3.3854	-3.2479	-3.4875	-3.025	-3.3896	-3.3375	-85.904	209.949	4.137	31.538	150.485	123.969	196.241	39.037	-114.970	-73.045	-69.789	222.078	-116.064	-27.327	-32.621	-50.439	0.00069351	0.001737	0.00025111	558.62	1.3902e-05	9.0117e-06	569.5	167.9	3.4594e-05	9.5351e-06	178.69	55.075	61.911	28.799	2.0655e-05	25.196	0.01883	0.03148	0.0088117	846.6	0.00034227	0.00035915	607.5	189.1	0.00031568	0.00036551	227.44	66.384	71.306	31.753	0.0003308	31.311	-58.708	-10.298	40.575	-118.292	-80.455	-37.377	-119.577	-112.344	109.999	201.018	-115.263	-111.489	-108.910	-103.797	-62.344	-107.679	-8191	255	
1392.373	1	1	0	0	0.15337	0.10871	0.032304	0.15149	0.21906	0.16813	0.13397	0.093516	0.044196	0.12143	0.20139	0.038712	0.17064	0.14533	0.055926	0.15533	-2.5917	-3.3417	-3.3396	-2.7021	-3.3187	-3.025	-3.2938	-3.5896	-3.0854	-3.3979	-3.3333	-2.9875	-3.4521	-3.1583	-3.2562	-3.4208	165.195	9.416	51.374	168.166	62.367	156.521	108.658	-47.768	-77.825	22.201	-89.760	106.162	-107.056	177.603	-60.372	-5.926	0.00052241	0.00076271	0.00028329	558.3	1.9764e-05	8.4998e-06	567.29	162.6	2.3138e-05	2.7269e-05	177.32	54.841	60.207	28.135	2.4748e-05	25.035	0.019369	0.032941	0.0092252	855.46	0.00035612	0.00037206	607.29	186.88	0.00032817	0.00037459	227	66.604	70.508	31.331	0.00033907	31.049	-39.753	54.642	-108.865	-118.482	-99.768	-0.505	-118.539	-112.137	82.247	-61.316	-115.849	-111.121	-109.097	-104.026	31.689	-107.605	-8191	255	
1392.469	1	1	0	0	0.074548	0.10607	0.076702	0.20388	0.19214	0.11916	0.048586	0.14426	0.20378	0.090447	0.12061	0.19553	0.32351	0.11766	0.19566	0.19172	-2.4271	-3.2542	-3.2708	-2.9437	-3.4813	-3.2833	-3.1979	-3.5	-2.9646	-3.4333	-3.6583	-3.0604	-3.4938	-3.3312	-3.1646	-3.4875	96.330	167.089	-38.615	203.114	-11.716	124.996	-6.639	212.110	203.369	217.728	157.265	182.759	168.095	112.706	71.977	188.491	0.00071308	0.00057692	0.00020224	557.51	8.3071e-06	1.3548e-05	560.58	156.48	1.6613e-05	1.9945e-05	173.31	53.191	57.412	26.692	6.579e-06	24.272	0.019924	0.033303	0.0093863	860.24	0.0003654	0.00038432	607.17	183.51	0.00034094	0.00039178	225.95	66.148	69.118	30.362	0.00035695	30.669	-50.849	225.008	-30.830	-117.305	-24.471	47.313	-119.373	-112.241	36.491	139.174	-116.018	-111.490	-109.102	-103.593	97.777	-108.323	-8191	255	
1392.565	1	1	0	0	0.071939	0.36039	0.12249	0.20301	0.034583	0.13041	0.28408	0.13359	0.1788	0.2003	0.12269	0.064519	0.050969	0.1025	0.071415	0.20649	-2.5458	-3.3312	-3.3396	-2.7792	-3.4229	-3.35	-3.2104	-3.7167	-3.1896	-3.4396	-3.5667	-3.0667	-3.6458	-3.3187	-3.125	-3.6333	186.491	-13.049	185.514	208.669	159.251	-68.982	181.109	-56.137	150.827	211.978	-113.396	171.950	7.132	129.114	27.238	-116.922	0.00019919	0.00097786	0.00010036	544.15	1.4763e-05	1.3155e-05	544.32	151.74	1.0897e-05	5.4334e-06	165.98	50.835	54.856	25.193	1.1387e-05	22.394	0.02111	0.035116	0.0098665	863.76	0.00038189	0.00039667	598.31	179.14	0.00034754	0.00039716	221.23	64.485	66.76	29.013	0.00036118	29.24	179.668	32.839	156.223	-117.993	59.680	-39.914	-118.795	-112.225	82.718	-104.529	-115.528	-110.952	-108.828	-103.600	-116.552	-107.111	-8191	255	
1392.684	1	1	0	0	0.22696	0.14157	0.097496	0.22225	0.076426	0.25004	0.076953	0.016114	0.30418	0.14295	0.13352	0.31687	0.09885	0.10991	0.047142	0.083659	-2.725	-3.2333	-3.4292	-3.0167	-3.4292	-3.3021	-3.0917	-3.4771	-3.2021	-3.1458	-3.5958	-3.0021	-3.3667	-3.5438	-3.2188	-3.5438	-21.059	-126.896	-67.368	-56.426	208.928	-100.822	196.945	-115.728	177.203	-63.056	163.682	168.727	50.734	224.787	50.953	-21.695	0.00057899	0.0012228	0.00052843	534.41	1.5087e-05	9.386e-06	537.69	146.5	2.1816e-05	1.0044e-05	162.5	49.468	53.605	24.716	3.949e-05	22.238	0.020678	0.034661	0.0097468	852.78	0.0003735	0.00038729	590.29	174.07	0.00033759	0.0003897	216.86	62.642	65.472	28.499	0.00035474	29.018	-14.559	52.569	116.813	-117.076	-88.119	-9.462	-119.151	-112.225	206.331	21.428	-115.280	-110.558	-108.971	-103.408	-53.260	-107.638	-8191	255	
1392.780	1	1	0	0	0.059332	0.097468	0.067383	0.21224	0.14117	0.1262	0.13949	0.019411	0.05956	0.11623	0.073742	0.14127	0.3143	0.14092	0.19221	0.062338	-2.8271	-3.0854	-3.3333	-2.9333	-3.3167	-3.3292	-3.175	-3.5042	-3.0042	-3.2542	-3.6688	-3.0229	-3.3104	-3.3042	-2.8729	-3.575	150.384	-77.364	-37.165	84.229	95.438	4.459	-116.945	221.464	-127.844	31.218	82.005	-64.464	-39.960	80.098	138.271	195.468	0.00020891	0.0018073	0.00036936	525.35	2.7997e-05	2.266e-05	538.71	143.31	1.9192e-05	2.0724e-05	161.23	50.004	53.915	24.827	1.5996e-05	22.445	0.020242	0.034201	0.009648	844.71	0.00036807	0.00038658	587.77	172.19	0.00033632	0.00038945	215.87	63.05	65.441	28.65	0.00035894	29.312	-118.587	-55.238	-86.672	-117.226	96.949	-8.269	-119.038	-112.750	-122.808	-26.306	-114.713	-112.189	-108.826	-103.600	-85.144	-107.251	-8191	255	
1392.876	1	1	0	0	0.12727	0.12794	0.19753	0.19222	0.33051	0.10684	0.058961	0.11803	0.22139	0.22724	0.2199	0.075482	0.20715	0.21595	0.23207	0.086154	-3.0062	-2.9875	-3.4	-2.9729	-3.1396	-3.3563	-3.0187	-3.4437	-3.35	-3.0708	-3.6437	-3.175	-3.2604	-3.4667	-3.075	-3.3167	203.001	190.040	30.072	60.911	-123.939	110.850	210.402	-88.777	140.319	147.792	208.485	69.167	71.741	147.550	84.756	105.171	0.00064823	0.0016597	0.00055454	525.94	9.8386e-06	1.6516e-05	535.9	146.23	2.6818e-05	2.3584e-05	165.04	51.716	54.997	25.616	3.2015e-05	23.553	0.020534	0.034604	0.0098118	845.57	0.00037479	0.00039544	589.79	174.42	0.00034518	0.00039865	218.9	64.803	66.951	29.546	0.00035931	30.251	-103.838	-89.594	-42.424	-118.740	193.415	-55.689	-119.270	-111.814	-62.706	-49.757	-115.935	-111.593	-109.366	-103.725	77.920	-107.365	-8191	255	
1392.972	1	1	0	0	0.22175	0.043723	0.29372	0.12581	0.11671	0.22313	0.18616	0.28104	0.1104	0.096711	0.21921	0.23807	0.089794	0.10954	0.097853	0.24054	-2.9229	-3.0396	-3.5271	-3.0792	-3.0833	-3.35	-3.0833	-3.3729	-3.1979	-3.1188	-3.4208	-3.1229	-3.1625	-3.5021	-3.1354	-3.3438	8.293	171.316	-39.870	-88.461	219.731	-66.995	83.667	60.276	-14.793	220.107	-112.713	-109.809	-7.331	175.026	215.863	156.406	0.00030379	0.0017847	0.00072704	525.44	2.0035e-05	1.164e-05	546.94	154.72	1.3422e-05	1.4732e-05	174.08	55.632	60.125	28.57	7.4288e-06	25.822	0.020663	0.03456	0.0098083	844.88	0.00036674	0.00038256	595.35	178.26	0.00032562	0.00037066	221.36	66.575	69.563	31.585	0.0003279	31.541	28.712	32.132	205.019	-117.842	-2.984	31.364	-118.852	-112.272	135.313	-49.891	-115.461	-111.602	-108.881	-103.757	132.060	-108.149	-8191	255	
1393.068	1	1	0	0	0.24361	0.20133	0.27261	0.11292	0.17858	0.17139	0.13776	0.19734	0.041975	0.074174	0.29106	0.24826	0.1982	0.25756	0.01163	0.0586	-2.9479	-2.9	-3.25	-3.2062	-2.9875	-3.4771	-3.0938	-3.1521	-3.2583	-2.9021	-3.4604	-3.2229	-2.9083	-3.5625	-2.9938	-3.1792	7.782	206.688	-72.400	-42.933	160.536	220.073	137.208	206.544	13.721	-125.981	-94.779	6.623	224.945	-112.258	-114.150	-32.797	0.00056148	0.00094802	0.00037697	544.68	2.3193e-05	7.25e-06	561.78	163.09	5.933e-06	1.0348e-05	182.72	59.241	64.542	31.65	1.2675e-05	28.283	0.018776	0.031756	0.0088765	816.66	0.00033105	0.00034715	592.17	183.01	0.00029385	0.00033704	223	68.275	72.441	33.815	0.00029098	32.927	-54.427	-113.462	179.229	-116.854	161.028	47.445	-119.581	-111.803	-28.053	-68.579	-115.737	-111.563	-108.461	-104.100	-34.204	-107.924	-8191	255	
1393.164	1	1	0	0	0.1844	0.22124	0.035021	0.13742	0.050651	0.1693	0.22174	0.15062	0.13644	0.040712	0.26545	0.19291	0.13855	0.36592	0.12772	0.12527	-2.9792	-2.9292	-3.35	-3.2229	-2.9188	-3.4396	-3.2188	-3.2583	-3.5229	-2.9437	-3.4104	-3.3417	-3.0292	-3.4833	-3.0438	-2.9313	186.279	175.416	-74.751	-2.307	20.830	33.687	115.913	73.859	113.844	-25.906	-106.456	-0.738	2.040	-123.321	166.683	37.681	0.00015217	0.0015913	0.00036385	550.82	1.0121e-05	6.4682e-06	576.66	176.05	1.5848e-05	5.1507e-06	193.01	64.062	70.13	34.789	2.9953e-06	31.027	0.016557	0.027333	0.0076469	781.33	0.00028709	0.00030372	595.99	189	0.00025509	0.00029487	225.71	70.679	75.263	36.02	0.00025918	34.164	29.752	-68.335	-123.980	-117.988	26.677	226.117	-119.173	-112.404	115.401	108.292	-115.422	-111.537	-109.326	-104.401	27.589	-108.078	-8191	255	
1393.285	1	1	0	0	0.35281	0.086589	0.19652	0.23038	0.32668	0.15294	0.17562	0.23591	0.11537	0.061563	0.016928	0.27286	0.11075	0.15881	0.018935	0.11371	-3.2479	-3.1396	-3.3146	-3.2583	-2.9708	-3.4958	-3.0542	-3.1521	-3.2625	-2.9604	-3.4333	-3.45	-2.9813	-3.5396	-3.0896	-3.2417	24.653	103.364	-96.888	-93.867	27.630	183.478	-114.483	101.480	-106.288	132.695	182.895	220.763	174.085	220.874	0.490	174.055	0.00071274	0.00088824	0.00025927	557.44	3.1215e-05	2.7404e-06	591.32	179.82	2.0475e-05	1.0088e-05	199.5	64.857	72.382	36.274	1.2525e-05	31.842	0.01487	0.024684	0.0068684	764.44	0.00026492	0.00027499	599.37	190.23	0.0002399	0.00027364	226.88	71.083	76.975	37.084	0.00024795	34.746	-47.427	182.427	214.996	-118.196	-15.072	-105.090	-118.654	-112.281	-40.561	-58.864	-115.742	-111.831	-109.260	-104.283	101.054	-108.239	-8191	255	
1393.381	1	1	0	0	0.17605	0.28871	0.17219	0.22965	0.07195	0.20166	0.1593	0.17702	0.16672	0.17923	0.14828	0.22312	0.2997	0.31655	0.052104	0.16834	-3.2625	-3.0417	-3.2167	-3.3958	-2.8312	-3.3167	-3.1354	-3.0646	-3.4708	-3.1333	-3.3979	-3.5125	-2.9021	-3.4167	-3.2188	-3.0125	39.566	150.589	-75.980	-108.299	189.073	-104.472	162.510	207.852	69.691	-78.593	-98.966	41.479	144.483	-101.518	87.092	-102.467	0.00066474	0.0017912	0.00012615	556.1	1.3243e-05	1.5033e-05	582.02	178.17	2.0293e-05	1.6133e-05	191.3	62.372	69.482	34.941	9.218e-06	30.038	0.014711	0.024295	0.0068532	766.04	0.00026342	0.00027571	591.89	188.77	0.00024605	0.00028172	222.6	69.579	75.255	36.182	0.00026615	33.723	-61.800	46.583	-14.140	-117.161	28.353	-76.273	-119.219	-112.329	83.994	76.589	-115.292	-111.850	-109.050	-104.581	98.113	-108.896	-8191	255	
1393.477	1	1	0	0	0.091345	0.27391	0.096751	0.11734	0.16242	0.13162	0.15371	0.036958	0.1317	0.11813	0.21698	0.083147	0.074675	0.060578	0.22147	0.10424	-3.0083	-3.0438	-3.1063	-3.4375	-3.0062	-3.275	-3.25	-3	-3.4958	-3.0875	-3.075	-3.5333	-3.0438	-3.25	-3.2917	-2.7438	-34.162	151.532	-71.126	0.447	98.831	89.557	118.660	-83.728	55.166	100.628	52.089	135.007	-68.694	89.896	-44.912	21.261	0.00031763	0.0012595	0.00018894	548.1	1.0732e-05	2.0834e-06	552.48	167.99	2.6814e-05	8.8647e-06	181.91	60.413	67.994	34.092	1.7673e-05	29.614	0.015549	0.026016	0.0073496	767.58	0.00028343	0.00029707	573.27	183.18	0.00026481	0.00029999	217.6	68.474	74.706	35.904	0.00028342	33.868	-6.884	-65.528	23.854	-118.690	-40.843	61.169	-119.046	-112.536	72.552	-67.986	-115.993	-111.701	-109.238	-104.563	-86.224	-108.573	-8191	255	
1393.574	1	1	0	0	0.027757	0.29607	0.16823	0.050976	0.074692	0.036395	0.1147	0.21604	0.2245	0.10617	0.20738	0.042564	0.13976	0.32472	0.058756	0.073051	-2.9188	-3.0167	-3.0958	-3.4542	-3.0625	-3.4396	-3.4333	-2.8	-3.4708	-3.1042	-3.0542	-3.4688	-3.1063	-3.1667	-3.3771	-2.8917	-65.563	-111.175	34.297	-30.055	160.302	85.272	135.939	-31.912	155.059	-111.717	127.509	141.925	229.158	116.414	52.823	-100.311	0.00055487	0.0009344	0.00012592	533.71	7.0795e-06	9.2384e-06	524.34	164.09	1.1938e-05	1.9584e-05	175.84	60.246	68.714	34.961	2.0528e-05	30.298	0.016449	0.027519	0.0078074	775.92	0.00029879	0.00031154	558.39	180.54	0.0002763	0.00031772	215.73	69.011	75.425	36.681	0.00029134	34.559	-14.156	96.241	144.881	-117.220	92.951	-118.465	-119.466	-112.448	222.064	-93.233	-115.446	-111.462	-109.369	-104.214	-5.995	-108.659	-8191	255	
1393.670	1	1	0	0	0.072181	0.21202	0.10899	0.19194	0.12156	0.26342	0.2566	0.17005	0.24359	0.21388	0.14162	0.24844	0.24324	0.25599	0.32092	0.28857	-2.8104	-3.2583	-3.2833	-3.5375	-3.15	-3.3604	-3.5979	-2.9521	-3.3187	-3.4813	-3.0271	-3.4792	-3.2042	-3.3854	-3.3771	-3.2104	21.849	112.203	50.086	149.491	73.076	-14.061	85.533	-92.568	-52.518	68.015	150.115	215.302	171.115	144.061	98.343	71.825	0.0004882	0.0017515	0.00044336	536.35	8.383e-06	9.4518e-06	522.49	160.53	1.3556e-05	8.9143e-06	175.65	62.161	71.149	35.874	1.73e-05	31.503	0.017009	0.02833	0.0079961	783.46	0.00030969	0.00032571	557.13	180.8	0.00028927	0.00033119	218.25	71.257	78.363	37.967	0.00030083	35.907	-32.224	-51.140	-9.690	-118.261	165.251	-5.121	-118.979	-112.253	171.272	163.200	-115.485	-111.462	-108.920	-104.704	46.368	-108.019	-8191	255	
1393.764	1	1	0	0	0.12078	0.028978	0.060479	0.11978	0.10321	0.29551	0.029275	0.042613	0.14317	0.12647	0.12248	0.055592	0.082507	0.16269	0.20644	0.084938	-3.0833	-3.1958	-3.1312	-3.5438	-3.1688	-3.1771	-3.4813	-3.05	-3.3208	-3.2292	-3.1896	-3.4167	-3.225	-3.1667	-3.5083	-2.9021	175.509	146.626	17.064	-22.851	25.055	91.668	86.412	119.020	-74.859	68.788	154.907	16.835	54.247	90.823	-5.672	-5.306	0.0003334	0.0022278	0.00024463	541	1.4327e-05	1.3593e-05	532.32	165.73	2.4897e-05	2.0529e-05	177.11	63.928	73.446	36.841	1.8089e-05	31.205	0.017145	0.028909	0.0082331	798.51	0.00031448	0.00033439	568.88	185.24	0.00029901	0.00035332	223.53	74.159	82.005	39.033	0.00033596	36.69	84.535	76.835	16.443	-117.255	83.964	156.804	-118.680	-111.809	-37.300	-10.453	-114.849	-111.770	-109.371	-104.478	203.124	-108.498	-8191	255	
1393.860	1	1	0	0	0.22527	0.11343	0.10561	0.088871	0.14708	0.32512	0.044515	0.080396	0.11582	0.16805	0.096517	0.14783	0.14993	0.17486	0.26315	0.16627	-2.8083	-3.3937	-2.9583	-3.3479	-3.2083	-3.1625	-3.4417	-3.0292	-3.2771	-3.4125	-3.0646	-3.3708	-3.4	-2.9667	-3.3958	-3.2062	12.815	86.821	92.643	227.356	97.975	61.922	-101.159	-67.025	-126.789	16.286	114.998	142.855	32.391	221.549	41.964	173.607	0.00013473	0.0004787	0.0004288	538.04	1.4529e-05	5.6535e-06	528.7	165.31	2.9679e-05	2.8968e-05	179.89	63.952	75.607	37.726	2.0526e-05	32.189	0.019295	0.032344	0.0091514	825.96	0.00034307	0.00036012	570.07	186.72	0.0003164	0.00037033	225.47	74.944	83.762	39.973	0.00033275	37.131	-29.766	-49.829	-118.741	-119.072	-33.078	148.595	-118.790	-112.567	30.832	145.526	-114.933	-111.996	-108.994	-104.711	227.013	-107.927	-8191	255	
1393.981	1	1	0	0	0.084164	0.094351	0.14717	0.096242	0.2247	0.10548	0.063551	0.082629	0.19831	0.23052	0.16073	0.26649	0.060864	0.11109	0.12814	0.20253	-2.8979	-3.4625	-3.1917	-3.3292	-3.3312	-3.1104	-3.6208	-3.2521	-3.0875	-3.5417	-3.0812	-3.5292	-3.2687	-3.1083	-3.5438	-3.1625	48.126	124.885	193.966	-120.978	28.853	150.791	-121.355	227.345	71.401	197.306	119.631	91.371	201.928	-90.366	229.721	176.300	0.00036669	0.00057734	0.0002812	548.91	1.0987e-05	1.0407e-05	541.51	169.4	8.7091e-06	1.4802e-05	185.81	66.483	76.677	38.554	1.2947e-05	32.967	0.018958	0.031784	0.0089092	826.21	0.00033461	0.00035531	578.32	189.11	0.00030182	0.00034783	226.7	75.939	84.464	40.501	0.00031195	37.622	-12.217	71.557	57.468	-117.856	44.988	-108.680	-119.345	-112.257	-41.974	-125.875	-115.859	-111.930	-108.975	-104.301	93.322	-108.613	-8191	255	
1394.077	1	1	0	0	0.091641	0.35118	0.31542	0.2176	0.068185	0.2071	0.07981	0.085864	0.17094	0.24817	0.21319	0.22062	0.14685	0.35504	0.10866	0.082853	-2.7687	-3.4625	-3.1	-3.3458	-3.4188	-2.9479	-3.4583	-3.1958	-2.9979	-3.4229	-3.125	-3.2458	-3.4	-3.1417	-3.475	-3.3333	77.002	56.823	-96.996	-10.840	-45.523	-107.823	79.267	121.812	196.363	49.134	79.417	109.055	-10.941	-127.990	102.325	-61.796	0.00026463	0.00095074	0.00069707	570.48	1.2059e-05	1.4146e-05	561.1	175.62	1.8534e-05	1.9602e-05	192.7	69.649	81.238	40.373	2.729e-05	34.74	0.018026	0.030717	0.0085444	835.46	0.00032547	0.00034272	594.91	195.19	0.00029812	0.00033961	233.48	77.895	87.329	41.845	0.00029495	38.703	1.736	72.558	-100.546	-118.258	69.553	167.864	-118.975	-112.334	-68.947	194.838	-115.660	-111.509	-109.132	-104.010	-88.389	-108.287	-8191	255	
1394.149	1	1	0	0	0.026759	0.13986	0.05548	0.09127	0.15111	0.31428	0.28317	0.24591	0.0507	0.062766	0.13568	0.05536	0.17026	0.20107	0.24552	0.20806	-2.6208	-3.6188	-2.9542	-3.1562	-3.4333	-3.0417	-3.3896	-3.2146	-2.95	-3.6292	-3.2583	-3.325	-3.5042	-3.0646	-3.4521	-3.5812	-105.117	43.335	210.275	50.919	-37.690	-0.009	164.696	85.907	105.193	-37.505	-104.076	172.742	-117.086	139.244	183.291	75.199	0.00053423	0.0010535	0.00025194	583.61	1.4986e-05	1.146e-05	584.26	182.83	2.9161e-05	1.8475e-05	197.28	70.856	80.329	40.503	1.0207e-05	34.296	0.017172	0.028781	0.0080556	839.75	0.00031586	0.00033301	612.7	199.47	0.00029174	0.00033011	235.13	78.782	87.261	41.623	0.00029055	38.233	-22.150	79.395	137.414	-118.364	79.824	-26.220	-118.794	-112.105	73.964	196.031	-115.584	-111.639	-109.301	-104.394	-109.700	-108.171	-8191	255	
1394.245	1	1	0	0	0.16168	0.22149	0.1344	0.091402	0.14399	0.1657	0.016285	0.24491	0.13597	0.22342	0.12728	0.16523	0.17133	0.23257	0.11124	0.10168	-2.7292	-3.3917	-2.9646	-3.0604	-3.4292	-3.175	-3.1875	-3.2833	-3.0438	-3.4104	-3.2625	-3.2188	-3.5417	-3.1229	-3.3021	-3.3958	-14.455	198.159	49.063	28.217	-85.543	182.778	52.764	209.680	179.577	-61.943	21.468	64.310	81.753	214.487	-60.773	-23.377	0.00090498	0.001179	0.00038451	598.31	1.4736e-06	9.0844e-06	583.55	183.48	1.7537e-05	1.3653e-05	195.9	71.036	81.971	40.42	1.0466e-05	34.16	0.017168	0.028145	0.0078421	836.15	0.00030717	0.00031884	609.42	198.2	0.0002814	0.00032336	233.24	78.559	87.263	41.559	0.0002894	38.335	-25.745	-53.986	14.488	-117.363	224.934	213.661	-118.887	-112.339	-48.251	73.067	-115.225	-111.381	-108.963	-104.477	208.579	-108.812	-8191	255	
1394.365	1	1	0	0	0.15281	0.20283	0.12169	0.12242	0.10654	0.088099	0.17093	0.10519	0.07184	0.037795	0.13345	0.036155	0.15441	0.2057	0.090717	0.24892	-2.5104	-3.3021	-3.2729	-3.0917	-3.35	-3.1333	-3.2792	-3.4396	-3.1937	-3.4958	-3.3229	-3.1125	-3.7	-3.2333	-3.2	-3.3792	74.252	17.520	207.542	111.344	-84.294	-22.511	62.164	129.959	19.595	-123.315	181.510	154.301	155.464	-126.608	68.112	123.252	0.00067182	0.00078166	0.00032568	589.62	1.9982e-05	1.2835e-05	579.57	181.58	1.4722e-05	4.8169e-06	195.63	70.1	80.313	40.059	5.7212e-06	34.274	0.016939	0.028153	0.0078739	829.09	0.00030408	0.00031748	603.55	196.05	0.00027727	0.0003147	231	77.585	86.176	41.173	0.0002882	38.324	-19.645	-44.869	-47.360	-118.134	215.658	-1.018	-118.727	-112.009	51.893	54.285	-115.808	-111.183	-109.117	-104.112	3.258	-108.153	-8191	255	
1394.462	1	1	0	0	0.089459	0.092822	0.17729	0.18203	0.055368	0.29717	0.1171	0.28532	0.11084	0.16294	0.026137	0.22156	0.14218	0.18131	0.30738	0.039593	-2.6354	-3.2604	-3.1688	-2.8396	-3.225	-3.0854	-3.0708	-3.4688	-3.025	-3.4667	-3.3729	-2.9917	-3.4292	-3.0979	-2.9708	-3.7229	21.532	-37.860	-104.763	177.766	187.594	147.047	-78.393	227.487	-39.398	-15.059	-117.528	222.381	-53.448	186.018	-77.868	-71.280	0.00031124	0.0013988	7.4388e-05	590.29	8.275e-06	1.4363e-05	575.71	178.55	2.1245e-05	1.1674e-05	194.3	69.616	79.476	39.553	1.6614e-05	34.304	0.016741	0.027922	0.0079413	826.87	0.00030222	0.00031352	603.87	194.31	0.00027311	0.00031409	230.47	76.923	84.949	40.825	0.00028365	38.062	-32.809	-33.169	-12.201	-118.093	-13.372	132.565	-118.735	-112.148	-3.438	192.306	-115.503	-111.428	-109.048	-104.413	-103.985	-107.715	-8191	255	
1394.558	1	1	0	0	0.045084	0.21805	0.066081	0.18622	0.10611	0.18347	0.1105	0.054642	0.21594	0.090298	0.15311	0.11745	0.11549	0.023222	0.043822	0.17936	-2.5958	-3.1354	-3.3917	-3.0292	-3.4854	-3.1646	-3.1875	-3.5521	-3.0792	-3.375	-3.2292	-2.9813	-3.4583	-3.1771	-3.2354	-3.4708	-40.663	11.239	109.594	215.132	221.180	174.002	210.676	89.005	27.740	48.953	164.963	-117.287	219.925	-64.378	156.546	72.231	0.00055298	0.00085497	0.00024446	583.97	4.1435e-06	6.6894e-06	578.87	177.48	2.0656e-05	3.1102e-06	195	67.984	77.625	38.861	2.811e-05	33.159	0.016289	0.026854	0.007642	818.36	0.00028941	0.00030209	600.13	192.11	0.00025824	0.00029798	226.1	74.738	82.329	39.698	0.00026607	36.579	-33.816	55.708	173.406	-117.386	201.129	136.229	-118.842	-112.045	129.023	-99.824	-116.159	-111.237	-108.778	-104.210	-41.631	-107.898	-8191	255	
1394.677	1	1	0	0	0.0074452	0.14554	0.3358	0.34715	0.046411	0.22712	0.17686	0.32074	0.21062	0.15961	0.033656	0.16776	0.080146	0.14058	0.048835	0.032795	-2.4458	-3.2896	-3.3333	-2.9646	-3.5479	-3.2438	-3.0542	-3.4	-3.0938	-3.3042	-3.4875	-2.9875	-3.3167	-3.4542	-3.0417	-3.4938	-14.240	-40.853	171.187	37.739	-95.917	-80.237	161.440	188.911	-67.166	13.600	-16.580	140.489	174.050	171.743	-93.370	176.372	0.00029237	0.0022922	0.00051702	582.13	1.444e-05	2.0057e-05	560.17	173.01	1.3047e-05	1.8884e-05	182.84	62.621	71.275	35.692	9.0789e-06	30.445	0.015198	0.025461	0.0071165	791.29	0.00027241	0.00028697	581.34	186.05	0.00025279	0.00029073	216.98	69.8	76.942	36.85	0.00026551	33.97	-22.091	24.272	53.960	-117.132	77.943	26.128	-119.062	-112.464	7.071	140.301	-115.736	-111.232	-109.262	-104.256	67.829	-108.217	-8191	255	
1394.748	1	1	0	0	0.1799	0.10666	0.15912	0.23748	0.17117	0.14232	0.20404	0.13278	0.19431	0.11637	0.14308	0.017809	0.065541	0.0274	0.1195	0.03922	-2.6521	-3.2313	-3.4188	-3.0583	-3.3667	-3.3688	-3.0312	-3.5854	-3.2708	-3.1063	-3.3625	-2.8875	-3.2417	-3.4271	-3.0083	-3.4479	-62.543	-66.603	-39.760	19.197	-4.177	178.983	213.722	210.994	-85.067	68.577	215.734	161.693	100.827	212.047	-90.691	57.049	0.00025489	0.00076295	0.00020348	545.45	1.9774e-05	7.857e-06	546.27	161.81	3.1935e-05	1.2759e-05	175.19	56.773	64.714	32.218	2.2051e-05	27.82	0.015135	0.025604	0.0072498	766.84	0.00027374	0.00028929	563.2	177.34	0.00025629	0.00029791	210.02	65.154	71.577	34.043	0.00027828	31.894	-48.420	-68.832	-125.225	-117.334	-48.671	-76.024	-119.135	-112.466	100.867	-85.269	-116.530	-111.765	-109.216	-104.057	31.015	-108.143	-8191	255	
1394.846	1	1	0	0	0.1155	0.18298	0.27018	0.23355	0.42955	0.11543	0.068492	0.19636	0.30781	0.042629	0.14511	0.16286	0.15904	0.064641	0.10318	0.23121	-2.8042	-3.0729	-3.2021	-2.9792	-3.2417	-3.5417	-2.9688	-3.4958	-3.2396	-3.1188	-3.475	-3	-3.2125	-3.3708	-2.8833	-3.3167	103.265	217.039	-91.805	37.277	6.294	195.628	226.629	211.903	-30.987	-77.282	155.104	123.109	110.710	-107.872	67.913	-69.170	0.00045058	0.0013781	0.00076216	532.65	2.1313e-05	2.0183e-05	517.57	150.87	3.5655e-06	3.9717e-05	162.78	50.567	58.357	28.611	1.498e-05	25.252	0.016189	0.02698	0.0077113	762.7	0.00029335	0.00031633	548.83	168.91	0.00027872	0.00032441	202.87	60.969	66.354	31.275	0.00029957	30.166	5.785	8.838	48.797	-118.146	17.720	32.098	-118.902	-112.088	208.973	31.758	-115.088	-111.379	-108.815	-103.568	112.151	-107.229	-8191	255	
1394.965	1	1	0	0	0.036312	0.19574	0.12468	0.15291	0.29566	0.14485	0.11071	0.2057	0.11358	0.073772	0.34156	0.31823	0.095216	0.17992	0.14633	0.04596	-2.7896	-2.9167	-3.3896	-3.1271	-3.1458	-3.3792	-3.0292	-3.5208	-3.2438	-3.0687	-3.6125	-3.0167	-3.1542	-3.2833	-2.9188	-3.4188	170.801	71.618	39.317	152.148	-80.095	127.864	170.857	112.502	-47.045	148.254	123.029	95.142	171.350	78.566	12.911	-7.172	0.0003489	0.0016222	0.00018091	512.07	2.3258e-05	1.6462e-05	513.45	143.8	1.0574e-05	1.3103e-05	156.07	48.699	54.16	27.227	2.0629e-05	23.989	0.017476	0.029352	0.0082967	776.76	0.00032104	0.00033677	548.43	164.34	0.00029699	0.0003459	200.41	59.847	64.325	30.105	0.00031269	29.441	-22.183	28.302	27.943	-117.910	0.396	-32.977	-119.005	-112.459	-87.388	-36.310	-115.492	-111.188	-108.848	-103.613	107.095	-108.022	-8191	255	
1395.061	1	1	0	0	0.055457	0.15882	0.27295	0.099464	0.26507	0.058211	0.15871	0.1882	0.1496	0.14906	0.072895	0.091442	0.18065	0.12015	0.14068	0.17449	-2.9146	-2.8896	-3.4292	-3.0354	-3.2229	-3.45	-2.9229	-3.3354	-3.45	-2.9313	-3.5021	-3.0375	-3.2354	-3.525	-2.925	-3.2958	-117.734	45.698	-21.643	201.678	-97.331	74.284	210.447	-117.984	1.724	113.211	-52.495	-21.314	219.575	-106.888	94.539	214.499	0.00015421	0.00056815	0.00053699	507.26	2.3872e-05	1.8505e-05	507.07	139.82	3.0195e-05	2.5105e-05	151.45	47.648	52.835	26.585	1.8883e-05	23.274	0.018116	0.030435	0.0084615	775.34	0.0003271	0.00034145	546.75	161.08	0.00030032	0.00034423	197.53	59.002	62.941	29.359	0.00030994	28.997	66.232	178.193	-9.237	-117.874	9.539	26.536	-119.278	-112.490	-46.527	131.075	-115.624	-111.095	-108.952	-103.568	55.030	-108.069	-8191	255	
1395.157	1	1	0	0	0.18487	0.16687	0.080328	0.21852	0.11558	0.099568	0.058129	0.13785	0.13751	0.26288	0.20679	0.071748	0.077448	0.26366	0.12859	0.14129	-2.9188	-2.8958	-3.3729	-3.1583	-3.0875	-3.4875	-3.0604	-3.4062	-3.4625	-2.8	-3.4229	-3.2667	-2.9062	-3.4333	-3.0229	-3.2687	25.592	45.043	-20.218	9.705	15.912	12.818	188.735	153.710	-51.199	33.332	37.585	25.973	-15.460	-96.986	124.027	-13.891	0.00023285	0.00084472	0.00044686	502.03	7.4004e-06	1.088e-05	503.02	136.17	4.3078e-05	2.6664e-05	152.06	47.231	53.401	26.291	2.1239e-05	23.279	0.018122	0.030412	0.0085518	774.07	0.0003314	0.00034943	544.62	159.79	0.00030376	0.00034625	197.19	58.477	62.86	29.319	0.00031194	28.961	93.523	48.682	10.203	-117.771	-123.662	45.179	-119.198	-111.877	-94.028	18.682	-115.058	-111.406	-108.843	-103.637	112.578	-107.689	-8191	255	
1395.278	1	1	0	0	0.13988	0.17729	0.15484	0.14061	0.17328	0.19077	0.13442	0.1602	0.16456	0.14581	0.057115	0.29131	0.15359	0.24913	0.052227	0.092251	-3.1312	-3.0208	-3.2854	-3.2062	-3.0479	-3.4792	-2.9667	-3.0917	-3.4333	-3.1375	-3.3771	-3.2687	-2.8417	-3.3354	-3.0917	-3.2062	180.795	72.941	121.068	-39.428	-98.707	177.363	-46.646	128.575	-20.615	3.872	9.426	174.470	170.023	188.836	-26.070	27.047	0.0004075	0.0009932	0.00052281	493.3	9.467e-06	5.0413e-06	505.31	136.49	2.2426e-05	1.3903e-05	152.25	47.742	52.641	26.222	2.1869e-05	23.169	0.018481	0.030733	0.0086112	782.04	0.00033426	0.00034837	545.31	160.66	0.00030266	0.00034402	197.38	58.74	62.696	29.112	0.00030952	28.838	-62.751	-88.858	95.069	-117.557	133.560	-110.414	-119.311	-112.343	74.028	16.113	-115.809	-111.593	-108.478	-103.790	-32.026	-107.647	-8191	255	
1395.374	1	1	0	0	0.086731	0.19184	0.11628	0.19033	0.18555	0.2307	0.046154	0.1201	0.27776	0.085043	0.19577	0.09303	0.060155	0.11738	0.24777	0.081727	-3.1125	-2.9062	-3.4042	-3.4562	-2.8563	-3.3646	-3.2938	-2.9458	-3.4708	-3.0646	-3.2958	-3.2021	-2.9896	-3.4229	-3.1937	-3.0229	-73.522	-9.659	-70.127	83.125	189.257	56.755	210.399	-111.990	-50.586	222.483	91.246	35.353	-103.241	180.474	174.192	-96.477	0.00066699	0.001258	0.00016208	501.14	8.1768e-06	5.6551e-06	510.44	137.11	8.8328e-06	2.4232e-05	153.94	47.76	51.821	25.572	1.2036e-05	22.723	0.018082	0.03018	0.0085157	780.55	0.00032712	0.00033896	546.8	160.2	0.00029742	0.00033865	196.78	58.964	61.552	28.465	0.00030843	28.392	-56.256	46.376	59.123	-118.172	-121.394	-50.544	-119.259	-112.127	-15.452	29.031	-115.713	-111.346	-108.511	-103.757	167.788	-107.699	-8191	255	
1395.446	1	1	0	0	0.2183	0.021129	0.16157	0.19862	0.2276	0.47573	0.094048	0.13722	0.21361	0.092944	0.15636	0.2095	0.27652	0.21875	0.047138	0.32958	-3.1542	-3.0563	-3.1208	-3.3667	-2.9979	-3.4271	-3.3396	-2.9771	-3.4396	-3.2938	-3.3521	-3.6354	-2.9167	-3.2417	-3.4646	-3.1958	84.741	109.074	-125.994	-124.636	92.396	134.935	124.751	88.498	138.845	25.807	177.242	149.698	46.083	171.396	-19.262	203.736	0.00015775	0.00096434	0.0006656	502.58	1.177e-05	5.2604e-06	502.52	134.61	1.0592e-05	1.7457e-05	148.21	45.945	50.195	23.999	1.8261e-05	21.493	0.017948	0.03018	0.0085175	779.59	0.00033	0.00034841	547.45	158.87	0.00030701	0.0003532	197.43	58.066	60.656	27.447	0.0003266	27.528	63.033	125.702	128.380	-118.410	-72.205	224.056	-119.053	-111.709	-11.550	84.752	-114.887	-110.980	-108.919	-103.502	205.868	-107.427	-8191	255	
1395.542	1	1	0	0	0.019689	0.11286	0.07307	0.027274	0.23495	0.11259	0.20096	0.020007	0.076707	0.096526	0.18443	0.045511	0.03492	0.27328	0.15312	0.11471	-3.1479	-3.2	-3.1729	-3.5563	-2.9062	-3.2	-3.4875	-2.9813	-3.5667	-3.1979	-3.0812	-3.5667	-2.9062	-3.2854	-3.2458	-3.0062	-46.702	160.482	219.450	-46.337	-77.490	-63.142	220.705	20.146	-30.636	1.282	33.873	31.783	85.004	227.180	148.224	186.476	0.00034983	0.0006308	0.00030189	496.43	2.0259e-05	5.1756e-06	503.93	132.6	1.5656e-05	1.2693e-05	149.14	46.022	49.271	23.718	2.0585e-05	21.01	0.018788	0.031645	0.0089521	781.32	0.00033715	0.00035718	547.11	157.41	0.00031028	0.00035719	196.64	57.9	60.224	27.219	0.00033186	27.253	-43.032	136.672	110.661	-117.782	141.385	175.975	-118.957	-112.014	49.351	-12.058	-115.273	-111.139	-108.836	-103.208	159.013	-106.918	-8191	255	
1395.661	1	1	0	0	0.091918	0.24672	0.095713	0.17646	0.24995	0.24312	0.051785	0.15129	0.24301	0.22247	0.19207	0.14358	0.069335	0.14289	0.14608	0.16739	-3.1458	-3.1063	-3.1	-3.6479	-2.8375	-3.3	-3.4646	-2.8292	-3.3354	-3.2292	-3.0083	-3.6771	-3.0042	-3.1042	-3.5167	-2.9896	38.683	83.890	-103.484	-113.540	-97.559	98.186	-116.596	176.527	64.341	-114.582	-82.238	148.032	201.558	9.426	142.619	111.915	0.00045562	0.0023218	0.00030477	494.23	1.4768e-05	1.323e-05	500.28	132.54	2.492e-05	1.4894e-05	147.54	45.709	49.044	22.992	8.8415e-06	20.635	0.018858	0.031916	0.0090103	782.21	0.00034048	0.00036113	547.86	157.5	0.00030929	0.0003564	196.88	58.36	59.796	26.703	0.00032869	26.849	-33.557	-37.177	114.607	-118.433	226.525	-124.372	-119.396	-112.210	73.378	-46.318	-114.772	-110.697	-108.212	-103.027	123.306	-107.555	-8191	255	
1395.757	1	1	0	0	0.12545	0.075999	0.17762	0.28166	0.34203	0.20225	0.42945	0.05957	0.12681	0.051647	0.089673	0.19206	0.1791	0.23588	0.25692	0.097917	-2.9458	-3.2083	-3.0438	-3.6063	-2.9625	-3.2375	-3.4042	-2.9938	-3.2833	-3.1437	-2.8208	-3.4813	-3.1208	-3.1354	-3.3229	-3.0646	-34.125	-66.264	73.030	169.615	87.683	-17.395	188.221	-97.023	203.219	-29.207	219.665	115.098	124.108	169.002	39.190	-127.071	0.00021191	0.00059257	0.00039186	486.15	2.1405e-05	5.9961e-06	498.3	128.44	1.7512e-06	6.8486e-06	146.54	45.666	48.047	22.588	2.1544e-05	20.46	0.018817	0.032074	0.0091101	780.45	0.00034759	0.00036587	547.53	155.23	0.0003186	0.00036799	197.21	58.243	59.109	26.27	0.00033756	26.768	-73.916	117.848	198.624	-117.413	68.274	85.685	-119.251	-111.641	-74.883	-116.798	-115.111	-111.361	-108.281	-103.095	204.904	-107.137	-8191	255	
1395.853	1	1	0	0	0.1096	0.13236	0.062175	0.039625	0.12982	0.2477	0.14832	0.12266	0.3153	0.24741	0.10662	0.20055	0.22807	0.099888	0.060025	0.085867	-2.7167	-3.2	-2.7833	-3.5229	-3.1042	-3.1	-3.5187	-2.9896	-3.1688	-3.3187	-2.9771	-3.35	-3.2708	-3.0375	-3.675	-3.1	-101.663	-124.417	137.253	180.392	92.466	-57.224	16.488	126.032	-84.643	221.276	-110.141	170.479	134.644	-26.794	221.676	226.718	0.00040946	0.00090425	0.00017038	487.39	1.1909e-05	1.4261e-05	490.77	127.24	1.3599e-05	1.9155e-05	144.62	45.395	46.762	21.865	2.9971e-05	19.799	0.019285	0.032754	0.0092798	784.13	0.00035194	0.00037204	544.33	154.08	0.00032158	0.00036997	195.07	57.341	58.324	25.709	0.00033487	26.298	-128.101	56.337	158.287	-116.601	-94.269	-128.678	-119.158	-112.247	75.129	-11.649	-115.410	-110.891	-108.591	-103.240	149.314	-107.252	-8191	255	
1395.949	1	1	0	0	0.18631	0.25484	0.051	0.23889	0.04816	0.074232	0.286	0.16736	0.13022	0.28311	0.18078	0.092381	0.14915	0.15524	0.10236	0.12134	-2.8854	-3.2083	-2.9354	-3.2979	-3.1167	-3.0625	-3.4688	-3.2104	-3.1958	-3.4417	-3.0062	-3.3187	-3.1646	-2.7958	-3.4792	-3.0771	176.448	21.399	-116.553	-115.258	105.258	-47.105	224.650	169.970	64.434	-45.412	122.888	45.281	165.504	118.156	56.333	-77.203	0.00026708	0.0015325	0.00037195	485.4	2.211e-05	8.6933e-06	498.87	128.07	1.4219e-05	2.5047e-05	146.26	45.516	48.059	22.337	2.4753e-05	20.121	0.019355	0.032435	0.0090705	780.7	0.00034568	0.00036337	544.39	153.43	0.00031523	0.00036298	194.67	57.713	58.883	25.922	0.00032089	26.219	209.182	186.249	-74.898	-118.085	-58.885	195.639	-118.732	-111.875	38.568	13.621	-115.272	-111.069	-108.644	-103.771	125.048	-107.139	-8191	255	
1396.045	1	1	0	0	0.15005	0.18829	0.10024	0.22128	0.1	0.032113	0.070392	0.36614	0.13697	0.077481	0.19482	0.301	0.036311	0.20804	0.038531	0.16111	-2.7125	-3.5	-3.0521	-3.3875	-3.275	-3.0604	-3.5438	-3.3312	-3.2854	-3.5479	-3.1208	-3.2	-3.4521	-2.9458	-3.4146	-3.1625	102.657	126.370	102.255	49.707	176.135	18.858	-89.853	58.789	-72.699	230.030	199.118	176.330	124.254	-58.595	160.657	-43.522	0.00042048	0.0012084	0.00012538	477.91	1.0313e-05	6.9241e-06	499.16	130.38	1.3929e-05	1.7594e-05	146.97	46.071	48.175	22.497	1.7364e-05	20.307	0.018842	0.031405	0.0088015	766.71	0.00033982	0.00035684	546.21	154.99	0.00031145	0.00035567	195.25	58.21	59.036	25.989	0.00031865	26.455	-100.154	-121.918	134.312	-118.375	58.541	50.204	-119.493	-111.955	-117.386	86.196	-114.690	-111.235	-108.947	-103.287	56.299	-107.102	-8191	255	
1396.142	1	1	0	0	0.043103	0.040908	0.085182	0.050505	0.26682	0.13155	0.24203	0.11848	0.10658	0.087475	0.11384	0.12893	0.13899	0.16587	0.21145	0.21797	-2.6729	-3.4229	-2.975	-3.0729	-3.4229	-3.1562	-3.6521	-3.4375	-2.9646	-3.4875	-3.2062	-3.1042	-3.3104	-2.9562	-3.3875	-3.3375	82.020	115.395	-48.720	17.614	164.389	153.219	219.023	-110.767	169.561	111.299	223.657	-94.874	225.574	115.633	78.435	36.354	0.00025952	0.00084416	0.00011247	492.13	1.6228e-05	1.3798e-05	506.3	132.58	2.0055e-05	1.7257e-05	149.48	47.585	50.066	22.917	1.2645e-05	21.061	0.018771	0.030843	0.0086872	770.42	0.00033641	0.00035103	546.97	157.12	0.0003069	0.00034954	197.76	59.17	60.161	26.23	0.00031961	26.795	-5.821	26.777	64.924	-118.003	-29.766	35.720	-119.807	-112.342	-19.730	-116.054	-114.945	-110.856	-108.798	-103.489	-93.434	-108.045	-8191	255	
1396.238	1	1	0	0	0.28386	0.044296	0.30803	0.076362	0.097748	0.10356	0.38092	0.31859	0.17258	0.055097	0.11122	0.19028	0.3491	0.12463	0.33935	0.24984	-2.7938	-3.4688	-2.9292	-3.1375	-3.3604	-2.7854	-3.25	-3.3833	-2.8688	-3.4604	-3.1521	-3.1521	-3.3875	-2.9125	-3.3208	-3.3125	66.256	-6.861	118.471	-5.129	-17.724	-17.584	212.833	129.653	58.832	100.503	153.635	17.124	194.818	-61.170	141.444	171.826	0.00042847	0.00084236	0.00022263	486.88	2.9417e-05	8.2892e-06	507.42	134.23	2.0345e-05	5.5091e-06	150.23	48.203	50.111	23.179	2.7286e-05	21.153	0.018764	0.031196	0.0086984	772.64	0.00033714	0.0003487	551.33	159.14	0.00030743	0.00034933	198.26	59.751	60.401	26.444	0.00031737	27.056	-54.128	20.628	-99.498	-118.527	18.772	82.760	-118.687	-112.152	122.841	87.687	-115.137	-111.087	-108.789	-103.463	156.581	-107.208	-8191	255	
1396.358	1	1	0	0	0.19408	0.050038	0.056661	0.018756	0.28466	0.22004	0.2119	0.25458	0.018129	0.098541	0.090648	0.28498	0.06194	0.20598	0.14714	0.12822	-2.3708	-3.3688	-3.2021	-2.9104	-3.3896	-3.1104	-3.2562	-3.4104	-2.8833	-3.3646	-3.2667	-3.0854	-3.3833	-2.9229	-3.0917	-3.2875	211.799	169.775	-5.948	159.559	-47.446	72.780	-122.816	-36.839	-93.818	179.738	-45.940	206.943	-120.808	178.208	-47.679	187.827	0.00021565	0.00048302	0.00013466	497.51	1.0124e-05	3.202e-06	516.08	137.3	1.3454e-05	1.13e-05	156.98	49.969	52.662	24.292	2.3292e-05	22.234	0.01836	0.030691	0.0086756	775.59	0.00033176	0.00034622	555.12	161.19	0.000302	0.00034303	202.82	61.189	62.037	27.38	0.00030959	27.849	15.139	77.649	9.068	-118.990	-93.071	56.694	-119.039	-111.759	-96.214	2.897	-115.163	-111.339	-109.082	-103.578	14.172	-107.834	-8191	255	
1396.455	1	1	0	0	0.1624	0.14244	0.14447	0.24913	0.26763	0.035266	0.2915	0.16112	0.070321	0.20895	0.26197	0.18081	0.25911	0.29223	0.052583	0.23081	-2.625	-3.35	-3.025	-3.0042	-3.4167	-3.1604	-3.1875	-3.5271	-3.1688	-3.4583	-3.3229	-2.9958	-3.3979	-2.9208	-3.1792	-3.4813	-82.384	1.316	-37.787	177.490	-66.420	-118.462	102.777	-106.192	74.179	51.939	-26.035	226.890	-15.981	145.996	-7.566	190.429	0.00058385	0.0013582	0.00021506	507.1	1.773e-05	1.469e-05	526.27	148.43	1.2038e-05	2.7808e-05	167.54	54.041	56.611	26.055	9.5358e-06	23.907	0.01789	0.029924	0.008464	772.84	0.0003206	0.00033256	565.01	168.43	0.00028871	0.00033064	211.05	63.947	64.866	28.805	0.00029915	29.203	21.022	86.045	158.619	-118.038	208.607	-61.816	-119.145	-112.893	-107.519	-29.561	-115.046	-111.371	-109.020	-103.769	41.517	-107.656	-8191	255	
1396.549	1	1	0	0	0.29582	0.2103	0.21072	0.096833	0.28109	0.12496	0.15956	0.16974	0.060613	0.11519	0.040682	0.28174	0.019817	0.037543	0.27095	0.074636	-2.5771	-3.2708	-3.2521	-2.8958	-3.4771	-3.0792	-3.1354	-3.5896	-3.1125	-3.2542	-3.1396	-2.9229	-3.3521	-3.1021	-3.0708	-3.4854	-105.424	109.983	-27.151	171.179	-47.651	62.424	-80.746	50.700	-18.883	202.221	185.115	-78.631	70.899	208.020	-114.950	-90.121	0.00019677	0.0014669	0.00022862	514.72	4.8215e-06	1.5299e-05	544.67	154.34	3.1149e-05	2.0107e-05	176.42	57.381	58.114	27.12	1.1473e-05	25.447	0.01716	0.028582	0.0081307	769.12	0.00030655	0.00032314	575.95	174.13	0.00027836	0.00032289	217.05	66.622	66.947	29.821	0.00029358	30.157	-46.746	7.025	-48.919	-117.105	188.412	104.723	-119.022	-112.182	-43.740	38.426	-115.435	-111.517	-108.844	-103.891	-3.869	-108.156	-8191	255	
1396.647	1	1	0	0	0.13315	0.052108	0.11269	0.24849	0.077605	0.10231	0.247	0.09473	0.06574	0.19787	0.010954	0.11727	0.11392	0.11998	0.34529	0.14999	-2.7104	-3.1937	-3.325	-2.9208	-3.4188	-3.1521	-3.2167	-3.4146	-3.1188	-3.3854	-3.3875	-2.8312	-3.3479	-3.2042	-3.1167	-3.4583	155.554	134.294	-92.449	95.596	18.918	167.364	99.009	-75.306	-36.661	-116.940	9.236	-69.211	10.263	-70.806	97.432	181.076	0.0001343	0.00098605	0.00018413	528.28	1.3608e-05	1.7913e-05	548.97	156.96	2.0497e-05	1.1728e-05	181.41	57.806	59.32	27.767	1.2045e-05	25.109	0.01676	0.028452	0.0080641	775.32	0.00030999	0.00032427	582.53	176.55	0.00028363	0.00032802	220.35	67.348	67.421	29.999	0.00029662	30.204	-57.945	83.287	-76.686	-118.072	-10.286	-57.356	-118.824	-112.306	132.896	59.129	-115.261	-111.452	-109.264	-103.366	54.704	-107.716	-8191	255	
1396.741	1	1	0	0	0.043014	0.38039	0.17926	0.20369	0.086516	0.081413	0.021067	0.15594	0.15649	0.13151	0.34699	0.2662	0.071633	0.21798	0.11667	0.11802	-2.7188	-3.15	-3.4375	-3.0625	-3.325	-3.2687	-3.1417	-3.4333	-3.1479	-3.1229	-3.3104	-2.9333	-3.2354	-3.1708	-3.0042	-3.4646	88.468	152.709	-24.571	151.716	-34.299	142.424	-6.158	223.346	176.634	-120.982	84.940	71.836	66.571	42.303	-42.655	176.238	0.00055621	0.0017218	0.00026775	532.88	8.5209e-06	1.6861e-05	553.59	158.37	8.4063e-06	1.1852e-05	181.77	57.895	59.437	27.571	1.4934e-05	25.458	0.016965	0.028687	0.0081642	775.57	0.00030726	0.00032408	582.57	177.01	0.00027925	0.00032427	219.63	67.051	67.579	29.989	0.00029018	30.244	-22.459	66.552	90.720	-118.157	-99.738	-21.518	-119.001	-112.431	161.847	-108.636	-115.211	-111.268	-108.815	-103.431	47.462	-107.002	-8191	255	
1396.837	1	1	0	0	0.23186	0.052312	0.16875	0.41056	0.1479	0.12863	0.26389	0.28286	0.097857	0.15149	0.085226	0.19263	0.19087	0.099749	0.092222	0.16919	-2.6521	-2.9875	-3.4792	-2.9437	-3.1292	-3.1813	-3.1	-3.425	-3.0625	-3.1937	-3.4062	-2.9979	-3.2313	-3.3396	-2.975	-3.4813	-108.566	198.451	168.537	-86.594	228.230	91.343	100.979	185.954	204.522	153.476	203.656	189.512	192.306	174.404	-6.526	165.731	0.00036755	0.0013018	0.00022469	522.46	3.1151e-06	1.2218e-05	555.47	159.82	1.2427e-05	2.0087e-05	181.69	58.983	59.607	27.307	2.5977e-05	25.264	0.016797	0.02836	0.0079482	765.28	0.00030119	0.00031976	583.53	177.07	0.00027438	0.00031694	220.26	67.149	67.458	29.823	0.00028102	30.031	-43.733	72.749	149.058	-117.951	52.186	201.351	-119.114	-112.608	-107.967	-6.236	-115.082	-111.422	-108.916	-103.022	-129.336	-107.287	-8191	255	
1396.958	1	1	0	0	0.19621	0.29729	0.29369	0.24988	0.097153	0.032068	0.061071	0.12401	0.12817	0.2359	0.11771	0.15286	0.098304	0.21309	0.28277	0.22571	-2.7479	-3.1021	-3.6021	-3.0646	-3.1958	-3.3688	-3.0958	-3.325	-3.1729	-3.0563	-3.5625	-3.0958	-3.2188	-3.4437	-2.9167	-3.3937	207.488	-106.892	-109.187	185.261	-117.808	75.930	-128.188	-3.515	44.834	98.015	84.049	184.823	32.266	-77.289	92.565	-109.280	0.00021493	0.0015609	0.0004502	531.45	1.2964e-05	8.7079e-06	560.24	161.56	1.9236e-05	2.1756e-05	184.93	59.011	59.864	27.432	8.1717e-06	25.751	0.016456	0.027414	0.0076302	762.75	0.0002941	0.00030683	585.93	178.18	0.00026629	0.00030452	220.03	66.95	67.286	29.629	0.0002748	30.053	-7.263	123.129	-31.876	-117.864	-75.084	-102.085	-119.275	-112.848	67.037	-56.255	-115.517	-111.416	-108.851	-102.791	-28.276	-107.242	-8191	255	
#DATA ENDS
