BOXY.EXE: ISS Imagent and Oximeter Data Acquisition Program Version 0.80
Ascii Record File

#ACQ INFORMATION
2  Detector Channels 
16  External MUX Channels 
1  Auxiliary Channels 
5000  Waveform (CCF) Frequency (Hz)
1  Waveforms Skipped 
30  Waveforms Averaged 
1  Cycles Averaged 
16  Acquisitions per Waveform 
10.0806  Updata Rate (Hz) 

#FILE INFORMATION
TRUE -- External MUX Channel results are PARSED.
FALSE -- AC DC and Phase are NOT grouped.
TRUE -- Companion Program Settings File CREATED.
FALSE -- AC data not excluded
FALSE -- DC data not excluded
FALSE -- Phase data not excluded
FALSE -- Auxillary Chn. data not excluded
Tab delimiters

#CALIBRATION STATE
TRUE -- Waveform Calibration Values APPLIED.


#AUX CALIBRATION VALUES
Val Type	aux-1	

Term	1.0000e+00	
Factor	0.0000e+00	


#WF CALIBRATION VALUES
A = Detector Channel
Val Type	A-AC1	A-AC2	A-AC3	A-AC4	A-AC5	A-AC6	A-AC7	A-AC8	A-AC9	A-AC10	A-AC11	A-AC12	A-AC13	A-AC14	A-AC15	A-AC16	A-DC1	A-DC2	A-DC3	A-DC4	A-DC5	A-DC6	A-DC7	A-DC8	A-DC9	A-DC10	A-DC11	A-DC12	A-DC13	A-DC14	A-DC15	A-DC16	A-Ph1	A-Ph2	A-Ph3	A-Ph4	A-Ph5	A-Ph6	A-Ph7	A-Ph8	A-Ph9	A-Ph10	A-Ph11	A-Ph12	A-Ph13	A-Ph14	A-Ph15	A-Ph16	

Term	0.00000e+00	0.00000e+00	0.00000e+00	0.00000e+00	0.00000e+00	0.00000e+00	0.00000e+00	0.00000e+00	0.00000e+00	0.00000e+00	0.00000e+00	0.00000e+00	0.00000e+00	0.00000e+00	0.00000e+00	0.00000e+00	0.00000e+00	0.00000e+00	0.00000e+00	0.00000e+00	0.00000e+00	0.00000e+00	0.00000e+00	0.00000e+00	0.00000e+00	0.00000e+00	0.00000e+00	0.00000e+00	0.00000e+00	0.00000e+00	0.00000e+00	0.00000e+00	0.00000e+00	0.00000e+00	0.00000e+00	0.00000e+00	0.00000e+00	0.00000e+00	0.00000e+00	0.00000e+00	0.00000e+00	0.00000e+00	0.00000e+00	0.00000e+00	0.00000e+00	0.00000e+00	0.00000e+00	0.00000e+00	
Factor	1.00000e+00	1.00000e+00	1.00000e+00	1.00000e+00	1.00000e+00	1.00000e+00	1.00000e+00	1.00000e+00	1.00000e+00	1.00000e+00	1.00000e+00	1.00000e+00	1.00000e+00	1.00000e+00	1.00000e+00	1.00000e+00	1.00000e+00	1.00000e+00	1.00000e+00	1.00000e+00	1.00000e+00	1.00000e+00	1.00000e+00	1.00000e+00	1.00000e+00	1.00000e+00	1.00000e+00	1.00000e+00	1.00000e+00	1.00000e+00	1.00000e+00	1.00000e+00	X	X	X	X	X	X	X	X	X	X	X	X	X	X	X	X	

B = Detector Channel
Val Type	B-AC1	B-AC2	B-AC3	B-AC4	B-AC5	B-AC6	B-AC7	B-AC8	B-AC9	B-AC10	B-AC11	B-AC12	B-AC13	B-AC14	B-AC15	B-AC16	B-DC1	B-DC2	B-DC3	B-DC4	B-DC5	B-DC6	B-DC7	B-DC8	B-DC9	B-DC10	B-DC11	B-DC12	B-DC13	B-DC14	B-DC15	B-DC16	B-Ph1	B-Ph2	B-Ph3	B-Ph4	B-Ph5	B-Ph6	B-Ph7	B-Ph8	B-Ph9	B-Ph10	B-Ph11	B-Ph12	B-Ph13	B-Ph14	B-Ph15	B-Ph16	

Term	0.00000e+00	0.00000e+00	0.00000e+00	0.00000e+00	0.00000e+00	0.00000e+00	0.00000e+00	0.00000e+00	0.00000e+00	0.00000e+00	0.00000e+00	0.00000e+00	0.00000e+00	0.00000e+00	0.00000e+00	0.00000e+00	0.00000e+00	0.00000e+00	0.00000e+00	0.00000e+00	0.00000e+00	0.00000e+00	0.00000e+00	0.00000e+00	0.00000e+00	0.00000e+00	0.00000e+00	0.00000e+00	0.00000e+00	0.00000e+00	0.00000e+00	0.00000e+00	5.32887e+00	-1.29929e+02	-1.28731e+02	-1.84746e+02	-7.04180e+01	-6.91937e+01	-1.57922e+02	-1.62015e+02	-2.77445e+01	-6.81129e+01	-1.79083e+02	-1.70094e+02	-1.79662e+02	-1.77090e+02	-5.99893e+01	-1.50031e+02	
Factor	3.72528e-05	1.74124e-04	4.89623e-05	5.67296e-01	1.96177e-06	1.72426e-06	1.76438e-01	6.39805e-02	2.34682e-06	1.97558e-06	1.09870e-01	2.83453e-02	2.58785e-02	9.19466e-03	2.23646e-06	1.37262e-02	1.53627e-05	2.58478e-05	7.28226e-06	2.83297e-01	2.78559e-07	2.92575e-07	8.32134e-02	3.23121e-02	2.55711e-07	2.93603e-07	5.34728e-02	1.39108e-02	1.31685e-02	4.70685e-03	2.66657e-07	6.77598e-03	X	X	X	X	X	X	X	X	X	X	X	X	X	X	X	X	



#DISTANCE SETTINGS
A = Detector Channel
A-1	A-2	A-3	A-4	A-5	A-6	A-7	A-8	A-9	A-10	A-11	A-12	A-13	A-14	A-15	A-16	

2.5000e+00	3.0000e+00	2.5000e+00	3.0000e+00	2.0000e+00	3.0000e+00	1.5000e+00	3.0000e+00	3.0000e+00	3.0000e+00	3.0000e+00	3.0000e+00	3.0000e+00	3.0000e+00	1.5000e+00	3.0000e+00	

B = Detector Channel
B-1	B-2	B-3	B-4	B-5	B-6	B-7	B-8	B-9	B-10	B-11	B-12	B-13	B-14	B-15	B-16	

1.0000e+01	1.0000e+01	1.0000e+01	1.4400e+00	1.0000e+01	1.0000e+01	1.5100e+00	1.9400e+00	1.0000e+01	1.0000e+01	1.9900e+00	2.4900e+00	2.4100e+00	2.9000e+00	1.0000e+01	2.9800e+00	




#DATA BEGINS
time	group	step	mark	flag	A-AC1	A-AC2	A-AC3	A-AC4	A-AC5	A-AC6	A-AC7	A-AC8	A-AC9	A-AC10	A-AC11	A-AC12	A-AC13	A-AC14	A-AC15	A-AC16	A-DC1	A-DC2	A-DC3	A-DC4	A-DC5	A-DC6	A-DC7	A-DC8	A-DC9	A-DC10	A-DC11	A-DC12	A-DC13	A-DC14	A-DC15	A-DC16	A-Ph1	A-Ph2	A-Ph3	A-Ph4	A-Ph5	A-Ph6	A-Ph7	A-Ph8	A-Ph9	A-Ph10	A-Ph11	A-Ph12	A-Ph13	A-Ph14	A-Ph15	A-Ph16	B-AC1	B-AC2	B-AC3	B-AC4	B-AC5	B-AC6	B-AC7	B-AC8	B-AC9	B-AC10	B-AC11	B-AC12	B-AC13	B-AC14	B-AC15	B-AC16	B-DC1	B-DC2	B-DC3	B-DC4	B-DC5	B-DC6	B-DC7	B-DC8	B-DC9	B-DC10	B-DC11	B-DC12	B-DC13	B-DC14	B-DC15	B-DC16	B-Ph1	B-Ph2	B-Ph3	B-Ph4	B-Ph5	B-Ph6	B-Ph7	B-Ph8	B-Ph9	B-Ph10	B-Ph11	B-Ph12	B-Ph13	B-Ph14	B-Ph15	B-Ph16	aux-1	digaux	

1354.175	1	1	0	256	0.10118	0.21493	0.081148	0.11288	0.26678	0.18723	0.1969	0.16527	0.31742	0.30802	0.1468	0.19777	0.11782	0.19886	0.06825	0.066838	-2.8542	-3.075	-3.4625	-3.1312	-3.0792	-3.5396	-2.9479	-3.4854	-3.2021	-2.9375	-3.4417	-3.1688	-3.1188	-3.5083	-2.9604	-3.2438	-50.881	-3.476	200.757	191.323	176.374	128.417	107.625	-82.726	14.383	-102.412	116.284	150.183	9.305	-125.756	59.467	121.332	0.00045981	0.001743	0.00049792	545.17	1.5878e-05	1.099e-05	541.05	176.77	1.3911e-05	1.5361e-05	189.04	62.592	64.853	29.371	3.453e-05	29.639	0.019271	0.032211	0.0091366	832.86	0.00034987	0.00036919	588.73	198	0.00032261	0.00037628	236.43	73.832	75.102	32.729	0.00034079	35.163	56.537	227.853	-97.794	-117.909	-83.672	-102.812	-118.551	-112.344	69.399	66.404	-115.714	-110.850	-108.965	-103.544	-44.820	-107.755	-8191	255	
1354.271	1	1	0	0	0.18684	0.23107	0.14189	0.34836	0.17603	0.16948	0.24962	0.046194	0.16211	0.15099	0.066928	0.090002	0.13545	0.076098	0.25909	0.14942	-2.8521	-2.85	-3.3521	-3.2062	-3.1771	-3.5708	-3.1479	-3.3229	-3.2979	-3.0146	-3.45	-3.1854	-3.1562	-3.5958	-3.175	-3.3917	116.143	-92.266	-65.368	194.512	-117.987	188.328	68.032	117.613	34.486	20.161	-17.647	-14.980	186.711	213.169	-105.860	-77.753	0.00016424	0.0012383	0.00026244	541.22	1.8747e-05	1.7781e-05	545.74	177.69	1.3633e-05	1.3378e-06	189.65	63.768	65.538	29.822	1.8897e-06	29.035	0.019858	0.033279	0.0093623	844.04	0.0003582	0.00037628	594.07	200.23	0.00032921	0.0003792	238.17	74.395	75.933	32.908	0.00034509	34.894	-17.288	-4.552	98.680	-118.334	-57.936	12.680	-118.945	-112.481	193.061	18.615	-115.273	-111.320	-108.417	-103.701	86.971	-107.256	-8191	255	
1354.367	1	1	0	0	0.16341	0.20363	0.084162	0.2648	0.13659	0.04921	0.16206	0.31457	0.24667	0.1787	0.21691	0.30665	0.11145	0.25579	0.22979	0.34982	-2.7917	-2.9854	-3.3521	-2.95	-2.9896	-3.4667	-3.1437	-3.1583	-3.0979	-2.9229	-3.3854	-3.2604	-2.9437	-3.5042	-3.075	-3.1771	119.263	-19.877	18.464	-76.699	203.617	196.323	60.755	51.908	110.792	25.580	-104.784	221.162	-115.457	188.498	58.049	173.282	0.00030187	0.0012837	0.00051529	557.29	2.321e-05	1.8142e-05	556.75	184.67	1.4103e-05	9.4695e-06	196.38	65.322	68.45	30.904	2.2898e-05	30.097	0.020045	0.033705	0.0095154	856.25	0.00036319	0.00038164	603.21	206.51	0.00032859	0.00037921	242.8	76.234	78.04	33.956	0.00034349	35.874	-6.653	225.710	36.290	-117.905	-66.999	132.902	-118.933	-112.400	225.882	-13.213	-114.845	-111.553	-108.778	-103.301	-34.972	-108.306	-8191	255	
1354.486	1	1	0	0	0.17418	0.037245	0.24063	0.028871	0.16951	0.066233	0.16762	0.20525	0.13741	0.26334	0.055407	0.11925	0.35265	0.13748	0.17947	0.20344	-3.0312	-2.9583	-3.1396	-3.2687	-3.0292	-3.5521	-3.1625	-3.1479	-3.6312	-2.9813	-3.3667	-3.3896	-2.8958	-3.5	-3.125	-3.075	-63.803	190.959	159.571	50.526	154.858	-108.204	-84.909	-110.059	41.846	189.356	22.002	-126.073	150.696	2.083	-33.398	207.735	0.00030728	0.0011173	0.00038256	559.69	7.976e-06	2.3928e-05	566.72	188.54	1.9879e-05	2.4949e-05	195.89	66.762	68.479	31.144	1.5464e-05	30.71	0.020145	0.033631	0.0093888	855.25	0.00036338	0.00038096	609.07	208.39	0.0003333	0.00038203	245.06	77.695	78.744	34.339	0.00034995	36.388	-13.757	26.490	4.792	-117.910	51.829	135.855	-119.215	-112.447	229.334	-49.791	-115.668	-111.336	-108.909	-103.476	166.867	-108.091	-8191	255	
1354.582	1	1	0	0	0.27682	0.11829	0.27714	0.23678	0.069638	0.077862	0.16039	0.15042	0.096281	0.1206	0.14557	0.17528	0.10449	0.13524	0.2245	0.049056	-3.1208	-2.9313	-3.2083	-3.1979	-3.125	-3.3625	-3.3021	-3.0833	-3.575	-3.1583	-3.3021	-3.3937	-3.0979	-3.3625	-3.3229	-3.1417	-3.555	-26.665	187.805	126.989	-31.639	109.371	228.984	164.977	144.698	-124.416	-126.183	-62.072	199.674	224.577	207.499	-25.819	0.00068473	0.00022338	0.00044478	553.35	9.9762e-06	1.7786e-05	561.04	182.28	1.2545e-05	1.0534e-05	193.03	65.97	67.296	30.666	2.8469e-06	30.411	0.020547	0.034597	0.0097168	872.09	0.00037543	0.00039621	609.62	206.48	0.0003514	0.00040433	247.15	78.385	78.626	34.123	0.00036986	36.746	-47.332	200.090	56.657	-117.530	-84.094	36.741	-118.904	-112.644	60.218	90.418	-115.260	-110.983	-108.656	-103.739	210.219	-107.955	-8191	255	
1354.678	1	1	0	0	0.19515	0.11623	0.20599	0.12672	0.20363	0.23358	0.044954	0.19316	0.18764	0.18883	0.24241	0.099375	0.12284	0.21732	0.23024	0.2575	-3.1854	-3.2542	-3.2021	-3.3833	-2.9521	-3.4833	-3.5812	-3.1396	-3.5083	-3.1271	-3.0479	-3.3917	-3.0396	-3.3021	-3.3812	-2.9583	42.753	80.901	151.214	-19.069	-117.296	-123.818	-124.684	153.264	15.189	-63.736	172.742	-129.747	159.744	219.457	65.151	-80.778	0.00052242	0.0011105	0.00023233	550.39	2.3625e-05	3.098e-06	555.22	176.34	1.1365e-05	2.321e-05	191.4	64.248	66.099	29.896	2.2371e-05	29.457	0.021786	0.035987	0.010188	883.1	0.00039146	0.00040994	609.03	203.38	0.00035831	0.0004121	244.6	77.25	77.624	33.579	0.0003745	35.903	-14.466	136.328	128.059	-117.603	-49.678	-11.496	-118.822	-112.634	-71.209	100.377	-115.776	-111.125	-108.947	-103.897	48.267	-107.578	-8191	255	
1354.752	1	1	0	0	0.15045	0.24104	0.028296	0.10426	0.076293	0.12146	0.20569	0.19482	0.068519	0.18142	0.2478	0.21008	0.11831	0.14341	0.29263	0.26653	-3.0833	-3.225	-2.8875	-3.6208	-3.0229	-3.3292	-3.4688	-3.1333	-3.5104	-3.2875	-3.0167	-3.3104	-3.1229	-3.1542	-3.3479	-3.0708	-59.398	-63.069	-6.358	91.775	-127.041	219.649	-14.038	-25.594	116.352	42.858	122.352	217.854	-33.023	161.836	114.975	68.407	0.00012584	0.00090629	0.00035886	543.69	8.0064e-06	7.497e-06	549.55	174.38	1.1156e-05	1.5347e-05	187.2	64.039	66.671	29.911	1.0221e-05	29.225	0.021785	0.036351	0.010281	879.39	0.0003916	0.00041034	604.22	202.1	0.00035732	0.00040787	243.76	77.03	77.615	33.619	0.00037895	36.014	-79.048	193.546	-96.308	-116.996	105.366	156.057	-119.315	-112.270	175.594	148.217	-114.914	-111.582	-108.703	-103.873	-5.981	-107.643	-8191	255	
1354.870	1	1	0	0	0.14007	0.1148	0.12035	0.2372	0.29615	0.053326	0.11017	0.081127	0.26121	0.15547	0.14997	0.19168	0.2014	0.29378	0.27055	0.05474	-3.1792	-3.1833	-3.175	-3.5104	-3.1667	-3.2875	-3.4813	-3.0729	-3.5083	-3.3833	-3.2229	-3.6208	-3.0729	-3.2646	-3.4292	-2.9938	133.648	5.598	179.861	186.783	26.177	4.933	-97.772	11.375	17.221	165.912	85.849	35.933	122.611	-103.803	32.059	176.840	9.1737e-05	0.0014585	0.00030038	539.6	2.1293e-05	1.5763e-05	551.06	175.01	1.2036e-05	4.2483e-06	191.4	65.831	66.562	30.337	2.6034e-05	29.91	0.022003	0.0363	0.01032	877.96	0.00039377	0.00041329	604.58	202.26	0.00035989	0.00041327	245.96	78.056	78.291	34.028	0.00038167	36.49	75.859	-89.618	163.201	-117.919	-88.279	-36.527	-119.047	-112.211	110.207	-120.938	-115.525	-111.132	-109.093	-103.635	59.309	-107.539	-8191	255	
1354.967	1	1	0	0	0.079028	0.23281	0.16119	0.13504	0.3102	0.3398	0.086667	0.13276	0.13804	0.091617	0.13687	0.13733	0.25993	0.14556	0.13816	0.084968	-2.9625	-3.4083	-2.9542	-3.5104	-3.2229	-3.2417	-3.3229	-3.1333	-3.2479	-3.3583	-2.9917	-3.6792	-3.1667	-3.1813	-3.4083	-2.9854	116.150	-74.031	46.782	-127.674	104.748	111.884	37.644	-127.589	79.596	-11.037	192.465	107.708	116.169	-121.035	-9.941	225.180	0.00037303	0.001119	0.00041506	539.98	1.2172e-05	1.388e-05	552.26	178	2.2974e-05	2.7183e-05	192.52	67.072	67.904	31.045	1.0165e-05	30.61	0.021904	0.036638	0.010401	882.24	0.00039578	0.00041398	610.9	204.95	0.00035872	0.00041124	248.68	78.973	79.37	34.677	0.00037094	37.047	-17.010	180.832	-41.421	-117.974	127.168	-90.488	-119.124	-112.017	94.120	42.660	-115.235	-111.127	-109.295	-103.495	114.033	-108.361	-8191	255	
1355.063	1	1	0	0	0.041634	0.20875	0.029531	0.092715	0.078031	0.17196	0.14642	0.20828	0.11976	0.20676	0.21026	0.18994	0.13642	0.29247	0.068937	0.091353	-3.0083	-3.3542	-3.0833	-3.425	-3.2292	-3.125	-3.5292	-3.1917	-3.2292	-3.4104	-3.0708	-3.5854	-3.25	-3.0854	-3.475	-3.1917	52.360	23.040	226.211	-106.854	149.271	194.685	128.404	159.775	52.467	-32.310	41.473	62.714	166.836	167.623	-127.213	20.688	0.00076515	0.00058388	0.00057443	548.74	1.8513e-05	6.2531e-06	557.4	180.32	2.2214e-05	1.0423e-05	195.49	66.3	67.863	31.143	1.515e-05	30.261	0.021344	0.035663	0.010129	876.34	0.00038117	0.00040111	608.08	204.79	0.00034676	0.00040374	247.13	78.103	78.731	34.499	0.0003607	36.257	-49.126	18.991	-37.698	-117.804	211.439	28.782	-119.077	-112.430	109.747	85.818	-115.505	-111.277	-109.264	-104.049	-111.104	-108.135	-8191	255	
1355.159	1	1	0	0	0.26376	0.077963	0.28362	0.19118	0.29938	0.10339	0.12159	0.20133	0.11622	0.17493	0.096867	0.063405	0.14413	0.16884	0.13884	0.11787	-2.7708	-3.3104	-2.9875	-3.4958	-3.3583	-2.9875	-3.6312	-3.1292	-3.2458	-3.375	-3.0875	-3.3979	-3.2521	-2.9646	-3.4938	-3.0417	54.732	-125.649	47.394	25.355	110.635	174.172	161.565	-96.493	-97.967	-68.377	-80.167	205.501	161.636	137.193	-53.662	122.444	0.00054403	0.0024282	0.00048172	549.51	1.5391e-05	2.3334e-05	550.32	179.05	3.178e-05	2.55e-05	198.09	66.184	68.034	31.023	8.5206e-07	30.218	0.02071	0.035028	0.0098377	861.77	0.00037148	0.0003923	604	203.99	0.00033898	0.00039645	245.51	77.387	78.524	34.427	0.00035323	36.222	-27.993	123.243	176.959	-117.713	193.999	201.756	-118.764	-112.585	53.764	-37.029	-115.126	-111.582	-108.940	-103.653	39.035	-108.207	-8191	255	
1355.280	1	1	0	0	0.24417	0.19443	0.13125	0.17278	0.058996	0.17418	0.14742	0.2916	0.046196	0.0072766	0.2469	0.23204	0.13353	0.1594	0.13339	0.24673	-2.8563	-3.4208	-3.0458	-3.2396	-3.1896	-2.95	-3.5479	-3.2562	-3.1854	-3.6229	-3.1646	-3.2396	-3.3354	-2.9083	-3.4771	-3.1354	-47.495	4.376	-93.781	-122.230	154.884	-34.024	182.171	79.875	4.610	226.725	190.404	74.016	148.347	62.683	192.387	-96.633	5.1815e-05	0.00042908	0.00020138	534.95	1.2895e-05	1.1841e-05	550.35	181.54	5.6419e-06	6.2598e-06	197.32	67.583	69.113	31.728	1.643e-05	31.084	0.020378	0.034647	0.0095888	850.69	0.00036598	0.00038812	602.41	204	0.00033901	0.00038901	246.58	78.196	79.303	34.868	0.0003513	36.679	-39.504	-81.599	22.601	-117.969	74.786	145.648	-119.283	-113.016	123.729	67.951	-115.376	-110.952	-109.144	-103.919	-108.075	-108.528	-8191	255	
1355.376	1	1	0	0	0.23471	0.17389	0.24519	0.22883	0.091388	0.21716	0.18613	0.19394	0.11307	0.04556	0.061853	0.080823	0.19424	0.25553	0.16009	0.28103	-2.3625	-3.5104	-2.9583	-3.2062	-3.3688	-3.0021	-3.4562	-3.1688	-3.2354	-3.6583	-3.1042	-3.125	-3.3312	-3.0521	-3.3812	-3.1958	-18.771	67.351	-54.575	224.454	-16.018	-22.349	189.011	-15.908	146.100	223.384	145.414	-14.996	59.197	164.326	-67.845	130.703	0.0002178	0.0016197	0.00054742	546.87	2.0608e-06	1.8989e-05	558.81	182.91	1.8756e-05	6.718e-06	197.57	68.882	70.065	32.207	1.0162e-05	31.571	0.020581	0.034472	0.0096567	857.23	0.00036899	0.0003903	605.58	205.4	0.00033641	0.00038765	247.61	79.697	80.113	35.197	0.00035108	37.204	-109.215	181.797	-93.712	-117.814	79.158	203.491	-118.931	-112.606	154.677	-31.481	-115.268	-111.209	-108.987	-103.648	-127.613	-108.205	-8191	255	
1355.472	1	1	0	0	0.11861	0.11767	0.095322	0.099723	0.334	0.16228	0.16405	0.1001	0.15169	0.042693	0.070086	0.055904	0.096389	0.23614	0.28142	0.27375	-2.6437	-3.6146	-3.0604	-3.1708	-3.5479	-3.0521	-3.5312	-3.4437	-3.2875	-3.8958	-3.2313	-3.1354	-3.5354	-3.1167	-3.2896	-3.4708	48.041	71.504	223.391	113.633	28.416	-39.453	60.502	101.300	-59.653	2.084	-90.990	181.067	92.539	72.884	-65.605	172.595	0.00038973	0.00082246	0.0002423	551.65	4.4703e-06	3.5438e-05	564.42	183.64	4.4494e-06	1.9853e-05	196.53	68.161	69.673	31.559	1.2955e-05	31.24	0.020636	0.034535	0.0097374	864.33	0.00037547	0.00039207	610.66	206.84	0.00034473	0.00039286	247.84	79.397	80.107	34.835	0.0003551	37.045	-10.395	52.448	-56.792	-118.062	34.040	13.180	-118.706	-111.957	-40.663	-72.034	-115.354	-111.348	-109.051	-103.484	201.713	-107.677	-8191	255	
1355.566	1	1	0	0	0.22616	0.035709	0.1644	0.19831	0.14291	0.11231	0.093943	0.12907	0.32523	0.23189	0.14666	0.23474	0.11857	0.15327	0.20153	0.19954	-2.6813	-3.4458	-3.075	-3.0687	-3.4396	-3.1125	-3.4375	-3.3729	-3.0292	-3.4667	-3.1937	-3.1437	-3.5938	-3.1229	-3.4875	-3.4521	-82.840	96.609	127.052	-90.199	90.844	199.729	44.264	13.711	74.821	-48.822	102.815	76.457	-34.121	-96.809	105.280	-59.760	0.00065826	0.0029326	9.7192e-05	542.98	2.131e-05	2.4703e-05	563.93	183.88	2.523e-05	2.01e-05	199.66	68.071	69.134	32.006	1.4198e-05	31.491	0.020952	0.034871	0.0097485	867.69	0.00037534	0.00039366	611.19	207.26	0.00034429	0.0003914	248.04	79.333	80.088	35.111	0.0003522	37.273	-54.568	31.707	37.132	-117.747	135.865	-8.982	-118.912	-112.858	63.464	72.538	-115.429	-111.800	-108.768	-103.632	79.836	-108.199	-8191	255	
1355.662	1	1	0	0	0.20268	0.1772	0.16052	0.22137	0.24055	0.13117	0.13791	0.23486	0.15781	0.061329	0.15376	0.13376	0.23482	0.38039	0.075341	0.13898	-2.5375	-3.4854	-3.0625	-3.0938	-3.7062	-3.2125	-3.2104	-3.4021	-3.1104	-3.625	-3.2292	-3.0958	-3.5375	-3.1562	-3.3375	-3.5458	74.983	201.324	-41.781	1.448	210.329	116.729	84.146	189.990	-106.043	58.025	88.094	0.541	209.809	117.540	139.317	69.723	9.982e-05	0.00069072	0.00069886	559.98	2.2921e-05	1.2374e-05	562.53	188.07	3.3997e-05	1.294e-05	199.41	69.456	70.931	32.409	2.4681e-05	32.216	0.020528	0.034221	0.0096115	865.71	0.0003727	0.0003879	612.51	210	0.00034218	0.0003879	248.8	80.203	80.65	35.317	0.00035043	37.579	187.354	17.309	-36.054	-118.192	-17.882	16.374	-119.505	-112.763	22.007	38.660	-114.822	-110.933	-109.008	-103.922	-4.057	-107.992	-8191	255	
1355.759	1	1	0	0	0.16421	0.12033	0.088752	0.13498	0.26428	0.19223	0.23598	0.21215	0.33951	0.10641	0.10752	0.13762	0.14109	0.067933	0.11062	0.11238	-2.6813	-3.3542	-3.2542	-2.8333	-3.4208	-3.2583	-3.3271	-3.5812	-3.0812	-3.3104	-3.5375	-3.1729	-3.4521	-3.15	-3.1417	-3.6354	45.181	-66.263	226.312	224.802	-9.213	145.730	-122.191	192.722	172.332	127.931	147.040	87.815	188.593	149.278	-126.709	-29.776	0.00036696	0.00099013	0.00033765	548.37	1.1556e-05	1.1831e-05	564.01	187.11	2.0032e-05	1.1714e-05	203.46	69.98	70.87	32.409	1.1337e-05	32.232	0.020532	0.033976	0.0095798	862.39	0.000367	0.00038691	613.34	208.92	0.00033988	0.00038921	250.8	80.799	81.153	35.461	0.00035833	37.939	-39.636	166.100	159.182	-117.856	167.765	116.556	-118.969	-112.739	171.667	130.316	-115.581	-110.897	-108.858	-103.372	-56.102	-108.208	-8191	255	
1355.879	1	1	0	0	0.28844	0.1083	0.15873	0.11573	0.15309	0.28509	0.33097	0.1637	0.16188	0.16463	0.27745	0.10702	0.10195	0.2807	0.13208	0.097451	-2.8333	-3.3125	-3.3375	-2.9229	-3.4271	-3.25	-3.2417	-3.4667	-2.9938	-3.0875	-3.5708	-2.9833	-3.6479	-3.325	-2.9521	-3.5458	50.283	177.353	94.793	-107.627	3.799	-5.381	-121.006	-114.893	227.941	154.192	80.857	-108.041	-56.761	-25.111	179.744	115.148	0.00014752	0.00077387	0.0006511	548.44	1.7802e-05	4.9042e-06	570.92	185.57	5.3505e-06	1.8613e-05	203.41	70.125	71.738	32.665	2.0179e-05	32.074	0.020723	0.034572	0.0098081	870.4	0.00037102	0.00038798	616.94	208.64	0.00033905	0.00038778	251.31	81.14	80.959	35.624	0.0003526	37.663	-26.686	146.880	221.675	-118.586	24.792	83.593	-119.121	-112.721	-91.755	119.773	-114.789	-111.333	-108.767	-103.589	-31.054	-107.857	-8191	255	
1355.975	1	1	0	0	0.047433	0.19187	0.11391	0.094938	0.08361	0.17755	0.072215	0.075307	0.33848	0.20018	0.090602	0.1671	0.28242	0.19645	0.07299	0.10002	-2.7771	-3.2313	-3.4292	-2.9583	-3.5958	-3.3896	-3.3021	-3.5604	-3.2292	-3.1458	-3.2812	-3.125	-3.6312	-3.3104	-2.9813	-3.5062	170.998	-126.807	139.926	-83.039	156.172	-50.281	-84.964	18.837	96.528	-69.096	188.464	215.452	-84.058	118.730	43.602	222.498	0.00030174	0.0015238	0.00061612	549.38	5.1547e-06	2.7761e-05	565.2	184.96	2.8917e-05	2.2325e-05	202.88	69.298	71.014	32.541	4.3598e-06	31.838	0.02013	0.033731	0.0095315	857.36	0.00036077	0.00038069	613.34	208.04	0.00032886	0.00038093	249.94	80.101	80.424	35.393	0.0003462	37.428	37.630	-39.582	-31.211	-117.324	221.704	33.525	-119.115	-112.682	34.996	-11.251	-114.491	-111.315	-108.910	-104.099	69.772	-107.820	-8191	255	
1356.047	1	1	0	0	0.32641	0.25991	0.15101	0.058738	0.19977	0.10812	0.36453	0.068954	0.1297	0.14543	0.23161	0.086161	0.031177	0.17847	0.22667	0.16009	-2.5104	-3.05	-3.5938	-3.0292	-3.4021	-3.4917	-3.0458	-3.6479	-3.3292	-3.1896	-3.5333	-3.1708	-3.2167	-3.5271	-2.9646	-3.4771	16.903	67.837	-55.252	186.517	20.349	149.690	61.483	118.304	85.161	-101.841	217.110	-77.232	-78.209	-107.782	-2.120	-126.971	0.00040525	0.0022303	0.00038966	558.33	1.6336e-05	1.6283e-05	568.63	187.29	1.2021e-05	8.3594e-06	199.7	69.258	70.22	32.172	1.5436e-05	31.253	0.01985	0.033639	0.0094883	857.67	0.00035969	0.00038135	613.48	208.68	0.00033286	0.00038492	249.19	79.896	79.993	35.115	0.00034684	37.011	-44.001	-39.224	217.338	-118.148	165.813	61.271	-118.772	-112.428	-26.181	-88.205	-114.755	-110.716	-108.791	-103.693	-37.755	-107.617	-8191	255	
1356.143	1	1	0	0	0.12309	0.13272	0.15787	0.074701	0.090477	0.1505	0.2367	0.11285	0.19138	0.15906	0.11511	0.19177	0.14589	0.051302	0.26937	0.20012	-2.7562	-2.9688	-3.6708	-3.0458	-3.0917	-3.4292	-3.1125	-3.4354	-3.4583	-3.1271	-3.6146	-3.175	-3.1833	-3.4125	-2.8688	-3.3729	147.629	226.069	32.295	107.145	13.835	33.256	80.738	-84.032	-3.057	-15.139	-57.463	5.684	-119.273	215.390	165.191	137.996	0.00019067	0.0025123	0.00023362	552.95	1.7792e-05	2.0785e-05	565.12	184.1	1.4063e-05	1.415e-05	200.41	68.85	68.876	31.453	1.9844e-05	31.205	0.019952	0.033959	0.0095189	851.45	0.00036313	0.00038205	610.31	206.09	0.00033412	0.00038557	247.38	79.246	79.087	34.662	0.00034847	36.941	-112.629	116.562	178.208	-118.339	-2.569	-32.914	-119.006	-112.153	87.078	-68.425	-115.141	-110.719	-108.989	-103.787	-43.012	-107.922	-8191	255	
1356.264	1	1	0	0	0.30498	0.23911	0.36266	0.073084	0.14775	0.17759	0.11691	0.13726	0.20445	0.10237	0.17369	0.09585	0.074226	0.14143	0.13743	0.057854	-2.9146	-3.0187	-3.4083	-3.0729	-3.0979	-3.4188	-3.1604	-3.4146	-3.3479	-3.0687	-3.4625	-3.0854	-3.1604	-3.5479	-3.1479	-3.3583	39.068	139.080	-23.055	-68.030	158.045	201.611	159.572	-89.164	17.516	-64.242	155.312	71.398	78.036	224.647	177.299	-75.407	0.00028971	0.0010912	0.00035227	546.38	4.3648e-06	2.4036e-05	559.63	182.51	3.4384e-06	5.9891e-06	199.28	68.172	68.601	31.158	1.6189e-05	30.547	0.020336	0.034099	0.0095294	855.02	0.00036816	0.00038876	607.94	205.08	0.00033645	0.00038509	246.22	78.372	78.424	34.234	0.00034723	36.396	44.507	77.192	137.948	-117.993	155.775	58.886	-118.547	-112.981	184.844	1.856	-116.002	-111.056	-108.911	-103.281	-34.027	-108.601	-8191	255	
1356.360	1	1	0	0	0.2774	0.049303	0.03513	0.090998	0.17843	0.14767	0.22842	0.19768	0.053217	0.15099	0.063566	0.057083	0.17552	0.14591	0.035444	0.16253	-2.9729	-2.9458	-3.3688	-3.1188	-3.0042	-3.5542	-3.1458	-3.4938	-3.4208	-3.0146	-3.6271	-3.0896	-3.0208	-3.6521	-3.0646	-3.2417	71.140	-47.812	173.904	194.696	203.122	177.312	221.250	143.675	-58.303	-81.141	72.478	187.983	-36.154	-108.752	-51.256	-13.762	0.00056886	0.0013478	0.00014132	543.67	1.6247e-05	8.7836e-06	558.57	183.29	9.9094e-06	3.3947e-05	195.78	66.984	68.514	31.071	9.4796e-06	30.223	0.020474	0.03421	0.0094709	850.91	0.00036352	0.00038455	605.33	204.84	0.00033273	0.00038162	244.83	77.528	78.283	34.141	0.00034202	36.151	-32.679	-25.921	62.738	-117.292	122.196	106.156	-119.384	-112.202	156.320	29.196	-115.650	-110.797	-109.038	-103.280	15.932	-107.448	-8191	255	
1356.456	1	1	0	0	0.17811	0.079825	0.18326	0.24415	0.16385	0.16086	0.053766	0.26887	0.43313	0.20885	0.092457	0.13394	0.35671	0.17433	0.045989	0.24017	-3.0167	-2.9188	-3.4375	-3.1917	-3.1083	-3.6813	-3.2	-3.2708	-3.525	-3.1958	-3.5563	-3.2938	-2.9625	-3.5062	-3.1792	-3.3771	206.369	104.604	79.870	192.462	-98.644	-48.174	176.828	-66.973	100.107	-82.795	159.619	41.072	148.101	180.120	91.589	185.531	0.00023929	0.0010424	0.00029366	547.53	5.534e-06	1.4214e-05	557.86	182.66	3.0204e-05	3.0571e-05	198.75	66.537	68.522	31.276	2.6051e-05	30.453	0.020272	0.033583	0.009353	852.47	0.00036456	0.00038652	603.93	205.16	0.00033667	0.00038156	245.08	77.854	78.646	34.462	0.0003438	36.411	3.603	127.150	214.558	-117.532	93.725	55.141	-119.019	-112.756	-12.029	39.119	-115.751	-110.787	-109.338	-103.356	-90.176	-108.498	-8191	255	
1356.552	1	1	0	0	0.16176	0.12175	0.22461	0.15123	0.12397	0.056231	0.051852	0.11801	0.13103	0.19955	0.1985	0.21346	0.22419	0.22557	0.14328	0.11355	-3.1125	-2.9396	-3.2	-3.2958	-2.9354	-3.6417	-3.3083	-3.2438	-3.4104	-3.0062	-3.3146	-3.6312	-2.9083	-3.3229	-3.325	-3.2687	201.122	129.835	-120.549	-61.355	-106.848	80.385	-37.083	-116.249	42.933	-49.934	115.455	85.924	180.666	219.557	122.559	117.574	0.00033483	0.00067224	0.00056045	544.26	2.1778e-05	1.2056e-05	566.78	184.54	9.6069e-06	1.8807e-05	199.01	67.861	70.24	32.217	6.8644e-06	31.581	0.020313	0.033769	0.0094449	858.28	0.00036656	0.00038158	607.08	206.56	0.00033513	0.00037763	246.7	78.612	79.605	34.9	0.0003396	37.031	31.503	173.584	-59.802	-118.001	140.347	205.151	-119.422	-112.722	68.798	8.991	-115.576	-111.056	-109.133	-103.777	-124.082	-107.912	-8191	255	
1356.647	1	1	0	0	0.152	0.13731	0.050723	0.11133	0.16622	0.11974	0.1585	0.10861	0.061274	0.1595	0.16474	0.15749	0.084865	0.21283	0.088881	0.15637	-3.0938	-3.1208	-3.3438	-3.3125	-2.8792	-3.3333	-3.3979	-2.9917	-3.5271	-3.125	-3.2562	-3.6625	-2.9771	-3.4813	-3.2125	-3.0312	-68.312	31.324	103.151	-1.760	-122.619	-74.083	217.393	-130.836	-21.554	-83.391	139.225	201.680	-4.801	146.158	24.122	146.343	0.0002248	0.00021993	0.00040453	551.97	1.693e-05	1.6863e-05	567.71	189.86	1.7124e-05	1.972e-05	205.4	69.097	70.669	32.832	2.2684e-05	31.786	0.019902	0.032848	0.0091862	856.52	0.00035603	0.00036688	610.03	209.64	0.00032246	0.00036976	248.48	79.515	80.151	35.46	0.00033896	37.183	-127.961	2.773	-85.930	-118.619	118.432	60.014	-118.874	-113.081	94.016	31.160	-115.474	-111.637	-109.225	-104.136	37.770	-107.910	-8191	255	
1356.743	1	1	0	0	0.22516	0.11011	0.11174	0.12094	0.088379	0.23221	0.15298	0.08536	0.15218	0.096164	0.083499	0.1292	0.066565	0.29981	0.21398	0.11225	-3.1021	-3.1	-3.1792	-3.4604	-2.8688	-3.475	-3.2562	-3.1417	-3.4938	-3.3167	-3.1417	-3.4271	-3.25	-3.3	-3.2521	-3.0208	-14.569	86.120	147.184	39.719	53.457	-59.694	-90.585	69.826	19.853	-43.858	171.095	-105.740	-128.309	-104.818	111.816	209.769	0.00035026	0.0013248	0.00014196	559.76	1.1683e-05	2.2668e-05	566.77	188.25	1.6966e-05	1.766e-05	199.96	67.196	70.25	31.959	2.1414e-05	31.162	0.019626	0.032417	0.0093005	854.27	0.00035401	0.00037042	609.19	208.86	0.00032532	0.00037363	247.02	78.037	79.257	34.962	0.00034199	36.527	-28.143	-97.460	47.111	-116.455	-81.392	149.883	-118.784	-112.614	155.933	-35.887	-115.416	-111.233	-108.866	-103.778	12.369	-108.290	-8191	255	
1356.839	1	1	0	0	0.24031	0.069697	0.1524	0.068244	0.31395	0.040042	0.099529	0.12271	0.11956	0.14928	0.070838	0.19289	0.17136	0.34653	0.10349	0.057259	-3.0187	-3.3458	-3.0375	-3.4229	-3.0333	-3.6083	-3.55	-2.9354	-3.425	-3.4125	-3.1583	-3.5938	-3.0687	-3.1729	-3.3187	-2.9688	-42.718	-87.643	109.432	-44.530	-110.487	218.088	76.061	97.235	215.467	119.831	193.589	109.547	8.274	-81.048	76.409	-30.792	0.00031194	0.0013248	0.00030712	553.22	6.5008e-06	4.3466e-06	560.98	185.03	2.0622e-05	4.675e-06	198.6	66.209	68.982	31.67	5.5882e-06	30.607	0.019668	0.033099	0.0094173	852.56	0.00035578	0.0003778	608.09	207.64	0.00032838	0.00038031	246.75	77.597	78.814	34.814	0.00035198	36.438	84.201	-73.161	56.266	-117.138	118.838	117.637	-118.928	-112.185	-20.920	31.298	-115.039	-111.378	-108.966	-103.942	-46.754	-107.582	-8191	255	
1356.960	1	1	0	0	0.13481	0.024342	0.033407	0.036852	0.095983	0.17204	0.087149	0.10963	0.12136	0.18244	0.47395	0.15231	0.24751	0.40896	0.15278	0.069657	-2.9604	-3.3	-2.9437	-3.4083	-3.0104	-3.25	-3.5042	-2.9917	-3.5646	-3.4646	-3.0396	-3.5438	-3.1	-3.3812	-3.3812	-2.9042	-65.605	98.016	161.574	179.283	77.804	5.652	186.220	-103.688	159.059	71.156	-35.699	33.804	209.435	167.026	-20.338	108.716	0.00069346	5.8281e-05	0.00027627	548.36	3.0375e-05	2.1554e-05	563.17	184.98	1.4425e-05	1.1993e-05	198.53	67.391	69.394	32.004	1.3166e-05	31.22	0.019962	0.033517	0.0095634	854.23	0.0003574	0.0003823	607.57	206.78	0.00032548	0.00038253	246.75	78.153	79.262	35.104	0.00034598	36.916	-6.310	104.109	9.774	-117.791	-7.158	164.686	-119.482	-112.428	-85.315	23.805	-115.331	-111.286	-108.962	-103.792	-117.051	-108.501	-8191	255	
1357.056	1	1	0	0	0.14111	0.18339	0.1609	0.068445	0.26138	0.1391	0.21379	0.22212	0.32628	0.1221	0.17562	0.11085	0.049485	0.14824	0.11399	0.19634	-3.0729	-3.3167	-3.0021	-3.5833	-3.1625	-3.2417	-3.5083	-3.1167	-3.3958	-3.4	-2.9646	-3.4979	-3.4	-3.2354	-3.6104	-3.1104	-11.455	-58.469	98.325	-13.300	23.779	-51.632	-73.903	202.489	88.396	-20.230	-104.639	-25.842	-105.009	-59.223	56.503	-76.505	0.00035909	0.00073321	0.00071956	554.71	1.7678e-05	8.3323e-06	565.28	187.23	5.2199e-06	2.9271e-05	198.2	68.683	69.847	32.591	3.4417e-05	31.856	0.019914	0.033553	0.0094234	850.17	0.00035877	0.00038222	609.66	208.25	0.00033072	0.00038316	248.17	79.303	80.091	35.505	0.00035216	37.295	-90.895	-59.802	-18.018	-118.193	194.717	-114.824	-118.839	-112.433	109.094	23.022	-115.095	-111.470	-109.050	-103.741	195.397	-108.008	-8191	255	
1357.152	1	1	0	0	0.12144	0.12778	0.20225	0.17537	0.24494	0.08874	0.11315	0.1082	0.13625	0.038976	0.29436	0.08158	0.18003	0.2858	0.076271	0.13857	-2.8729	-3.45	-3.0187	-3.3229	-3.2438	-3.0312	-3.5729	-3.2938	-3.3146	-3.5708	-3.0479	-3.4479	-3.3917	-2.9	-3.6229	-3.0521	-70.604	38.400	145.918	51.049	160.685	75.006	73.426	186.479	18.723	119.232	-36.637	23.672	90.337	215.794	-61.349	-122.184	0.00027187	0.0013797	0.00039716	542.98	1.8979e-05	8.0275e-06	570.44	188.55	2.394e-05	6.9323e-06	201.09	68.265	71.161	32.708	1.7989e-05	31.759	0.020176	0.0339	0.0094681	856.7	0.00036138	0.00038343	613.19	209.06	0.0003301	0.00038289	247.8	78.841	80.36	35.598	0.00033876	36.926	-7.114	17.627	190.963	-117.576	218.016	189.862	-118.956	-112.041	28.250	195.575	-115.845	-111.517	-108.807	-103.415	-58.849	-107.705	-8191	255	
1357.272	1	1	0	0	0.18802	0.08427	0.077932	0.33356	0.10265	0.21688	0.12393	0.17999	0.1522	0.16143	0.1769	0.27511	0.066046	0.28854	0.14208	0.12978	-2.7771	-3.3417	-3.0083	-3.4437	-3.4125	-3.0229	-3.5187	-3.2354	-3.1729	-3.4833	-3.1667	-3.3667	-3.3667	-3.0729	-3.3875	-3.1229	36.998	-106.778	-113.646	212.861	179.319	61.345	224.090	125.850	-38.185	136.196	229.476	219.325	-55.775	167.745	7.633	8.015	0.00098891	0.0014646	0.00073207	550.23	2.0438e-05	1.567e-05	565.65	186.86	9.8037e-06	1.3736e-05	200.21	67.727	70.818	33.02	1.0476e-05	31.798	0.019774	0.03312	0.0092426	847.07	0.00035672	0.00037418	608.71	207.05	0.00032868	0.00037462	245.89	78.284	79.943	35.697	0.00033534	37.142	-19.263	36.029	-42.470	-117.062	63.817	47.806	-118.935	-112.507	-79.843	170.719	-115.359	-110.759	-108.941	-103.907	102.885	-107.808	-8191	255	
1357.344	1	1	0	0	0.11759	0.14742	0.085422	0.060652	0.07521	0.33149	0.22583	0.073656	0.072155	0.056562	0.21671	0.14853	0.045548	0.16172	0.20359	0.043512	-2.7021	-3.5438	-2.9521	-3.4333	-3.3438	-2.9021	-3.4938	-3.2167	-3.1896	-3.5563	-2.9792	-3.2458	-3.6417	-3.1625	-3.5146	-3.4479	162.675	-78.696	50.787	35.876	161.854	49.041	192.701	122.379	16.206	3.004	150.181	34.606	100.177	-48.459	223.336	-126.322	0.00050163	0.00090428	0.00029943	551.49	2.5237e-05	1.8576e-05	562.58	186.92	3.86e-05	9.8234e-06	199.5	67.219	69.681	32.444	1.559e-05	31.564	0.01962	0.032566	0.0091323	844.2	0.00035082	0.00037001	604.72	205.99	0.00032713	0.00037167	244.79	78.117	79.438	35.456	0.00033811	37.248	-50.978	-105.399	106.164	-118.202	9.516	81.895	-118.662	-112.681	50.575	32.910	-115.531	-111.069	-108.629	-103.852	210.078	-107.889	-8191	255	
1357.440	1	1	0	0	0.043722	0.14667	0.14044	0.064648	0.18437	0.18539	0.36247	0.17097	0.18576	0.1781	0.080805	0.057598	0.23751	0.099952	0.11527	0.080798	-2.7687	-3.4917	-3.1208	-3.2104	-3.375	-2.9271	-3.6292	-3.1188	-3.1125	-3.5333	-2.9542	-3.2542	-3.4958	-3.0083	-3.3854	-3.3771	-107.156	78.495	58.716	-45.933	122.614	118.018	176.659	158.559	26.117	-50.837	54.198	206.548	54.414	-99.104	-17.071	189.218	0.00045689	0.0023056	0.00036332	556.85	7.5504e-06	1.7075e-05	562.86	181.69	1.1738e-05	1.9541e-05	198.01	67.663	69.585	32.491	1.6881e-05	31.663	0.019855	0.033051	0.0093508	855.97	0.00036216	0.0003813	606.49	204.34	0.00033619	0.00038343	244.98	78.827	79.588	35.585	0.00035051	37.606	-28.412	-49.925	-79.372	-117.941	-22.848	-0.518	-118.992	-112.506	74.290	169.894	-114.492	-111.409	-109.042	-103.628	-26.253	-108.441	-8191	255	
1357.561	1	1	0	0	0.062922	0.11632	0.23505	0.13	0.10885	0.098821	0.084801	0.20608	0.060155	0.20899	0.19113	0.092201	0.098174	0.099514	0.23056	0.26243	-2.5729	-3.4958	-3.1646	-3.1	-3.5958	-2.9958	-3.35	-3.2917	-3.0083	-3.5417	-3.0583	-3.1604	-3.5333	-3.0229	-3.4229	-3.5958	51.286	40.200	-65.906	8.460	87.926	63.405	-117.442	199.810	-94.117	136.550	144.541	184.905	-11.206	220.704	81.982	40.700	0.00045315	0.00030224	0.00040754	555.48	2.429e-05	7.3158e-06	562.24	182.11	2.0901e-05	1.4838e-06	198.56	66.402	70.156	32.476	3.1167e-05	32.103	0.020733	0.033854	0.0096164	863.76	0.00037077	0.00038411	607.47	205.62	0.00033926	0.00038563	245.59	78.749	79.821	35.481	0.0003481	37.52	-26.758	-82.541	91.605	-118.225	190.972	76.719	-118.668	-112.498	19.334	-110.985	-115.045	-110.997	-108.288	-103.593	-17.079	-108.042	-8191	255	
1357.655	1	1	0	0	0.14835	0.095921	0.33271	0.20886	0.086266	0.050469	0.18978	0.18996	0.11783	0.31201	0.11166	0.13555	0.34338	0.065666	0.18466	0.27835	-2.6813	-3.5708	-3.0812	-3.2625	-3.55	-3.2625	-3.3917	-3.4667	-3.1312	-3.5958	-3.3	-3.0812	-3.5292	-3.0542	-3.375	-3.4771	67.178	16.759	132.532	111.815	-77.815	100.354	187.543	9.802	64.994	140.233	-1.232	152.352	202.686	44.580	121.697	-117.331	0.00042484	0.0016134	0.00043776	556.01	1.0497e-05	9.3968e-06	566.89	183.62	2.097e-05	1.4772e-05	198.61	67.143	71.034	32.911	6.1315e-06	32.336	0.02033	0.03361	0.0095347	861.07	0.00036697	0.00037905	609.63	206.84	0.00033563	0.00037896	246.8	78.763	80.186	35.761	0.00034672	37.735	-52.395	41.919	-15.345	-116.516	173.217	196.091	-118.821	-112.431	-30.680	40.743	-115.311	-111.489	-108.669	-103.524	159.775	-107.457	-8191	255	
1357.751	1	1	0	0	0.1238	0.17809	0.1543	0.0945	0.21076	0.12619	0.25615	0.16306	0.28446	0.083058	0.035639	0.19328	0.10375	0.093757	0.14872	0.25205	-2.5917	-3.4042	-3.1188	-3.0667	-3.6396	-3.3937	-3.4042	-3.5625	-3.1708	-3.2687	-3.3958	-3.1271	-3.5833	-3.0854	-3.0271	-3.5708	13.151	-47.804	53.643	196.388	12.481	30.998	154.349	133.431	38.709	79.323	-123.424	146.690	196.529	19.729	142.003	89.293	0.00024927	0.0014853	0.00057179	550.92	3.3116e-05	9.6034e-06	570.42	185.48	1.6531e-05	8.7006e-06	200.39	69.309	71.901	33.422	2.2028e-05	32.828	0.019887	0.033243	0.0094804	853.46	0.00036124	0.00037817	613.08	208.17	0.00033175	0.00038086	249.08	79.916	81.192	36.275	0.0003488	38.247	-55.943	-15.305	138.287	-117.001	36.495	-62.853	-118.973	-112.175	57.654	-1.117	-115.372	-110.947	-109.251	-103.484	-2.811	-107.996	-8191	255	
1357.848	1	1	0	0	0.14049	0.18883	0.0035355	0.16962	0.043361	0.23756	0.16911	0.21361	0.12001	0.2272	0.095914	0.28835	0.22716	0.15661	0.079549	0.19771	-2.5187	-3.1	-3.2562	-2.7958	-3.5687	-3.1417	-3.1542	-3.4938	-2.9896	-3.4083	-3.3271	-2.9562	-3.2771	-3.225	-3.0021	-3.6063	77.465	86.434	65.526	121.507	133.031	78.053	107.305	147.322	-98.219	176.900	66.937	-66.433	-126.015	218.702	-94.356	-76.885	0.00056343	0.00061214	0.0001782	554.65	1.0674e-05	1.2567e-05	572.23	190.28	1.9818e-05	1.5752e-05	204.65	70.747	73.743	34.26	2.1162e-05	33.094	0.019835	0.033319	0.0095146	857.62	0.00035684	0.00037822	615.63	210.88	0.00032736	0.00038134	251.56	81.248	82.564	36.977	0.00034687	38.623	-18.127	-85.879	-82.746	-118.060	-0.968	-47.373	-119.073	-112.433	-19.524	163.487	-115.737	-111.162	-108.892	-103.629	112.030	-107.706	-8191	255	
1357.944	1	1	0	0	0.31488	0.17501	0.22135	0.14134	0.025156	0.055541	0.044782	0.068845	0.16935	0.17124	0.043984	0.2612	0.16353	0.091318	0.20038	0.11864	-2.6	-3.1583	-3.4125	-3.0167	-3.3792	-3.2792	-2.925	-3.5333	-2.9938	-3.0875	-3.5667	-3.1896	-3.4167	-3.2771	-3.1167	-3.4583	139.018	-122.596	-15.958	-108.937	-95.097	206.421	48.262	130.400	6.262	-73.458	-83.435	201.850	154.235	25.958	44.311	126.989	0.00082219	0.0012033	0.00054631	550.97	1.2272e-05	8.4388e-06	577.29	191.86	1.3578e-05	2.2642e-05	208.61	71.87	74.054	34.476	4.2355e-06	33.034	0.019786	0.033025	0.0094302	857.05	0.00035376	0.00037625	618.91	212.29	0.00032429	0.0003754	252.78	81.602	82.608	37.061	0.00033713	38.409	-33.550	39.719	203.457	-117.455	-108.416	195.887	-118.615	-112.420	-101.749	-43.088	-115.546	-111.222	-109.036	-103.755	56.441	-107.964	-8191	255	
1358.040	1	1	0	0	0.10205	0.15604	0.14177	0.21847	0.037887	0.054932	0.14991	0.1843	0.10415	0.099136	0.20535	0.1463	0.031941	0.063676	0.22639	0.20271	-2.7042	-3.275	-3.5958	-2.8792	-3.1854	-3.3875	-3.1688	-3.5521	-3.0896	-3.0667	-3.3667	-3.1188	-3.3937	-3.3708	-3.0417	-3.5854	229.494	109.640	29.875	119.631	134.437	-106.299	-68.546	130.774	199.486	220.656	139.005	38.317	219.645	31.556	-102.310	135.756	0.0003367	0.0018935	0.00041912	566.75	1.5809e-05	1.3084e-05	575.53	191.38	1.3108e-05	7.2394e-06	205.92	71.255	74.206	34.184	5.589e-06	33.007	0.019532	0.033015	0.0092216	849.28	0.00035168	0.00037245	616.4	211.72	0.00032123	0.00037247	250.88	80.932	83.028	37.008	0.00033889	38.229	-51.838	90.455	172.392	-119.338	54.426	221.286	-118.866	-112.343	-96.073	107.168	-115.094	-111.194	-108.595	-103.314	180.158	-107.916	-8191	255	
1358.136	1	1	0	0	0.13133	0.066899	0.11962	0.19251	0.10537	0.14536	0.096465	0.023603	0.13609	0.078805	0.067918	0.10129	0.11423	0.19631	0.34036	0.16676	-2.6229	-3.0604	-3.4708	-3.0625	-3.2583	-3.5125	-2.9521	-3.425	-3.3708	-3.1688	-3.5792	-3.0292	-3.3958	-3.4771	-3.0479	-3.4875	-116.967	-49.988	90.581	-77.695	181.704	-39.089	70.481	-14.856	227.307	165.561	-99.341	-19.654	174.036	148.626	50.445	-64.781	0.00026242	0.0025143	0.00011859	552.23	2.5457e-05	1.4992e-05	575.72	191.52	1.5253e-05	5.9976e-06	207.49	71.279	73.059	34.256	2.8125e-05	33.459	0.019598	0.03288	0.0092052	847.3	0.00035423	0.0003744	613.91	211.17	0.0003241	0.00037533	250.38	81.072	82.703	37.195	0.00033659	38.601	215.929	-59.555	-95.353	-117.781	95.908	-20.904	-118.869	-112.094	-63.529	52.857	-115.122	-111.213	-108.473	-104.144	-5.333	-108.264	-8191	255	
1358.232	1	1	0	0	0.17983	0.054004	0.13088	0.11251	0.063383	0.39987	0.25242	0.16179	0.16559	0.039796	0.087043	0.2615	0.1006	0.13573	0.20536	0.36916	-2.8417	-2.8917	-3.4417	-3.1708	-3.2083	-3.3708	-3.0479	-3.2438	-3.1937	-2.9688	-3.6146	-3.2854	-3.2083	-3.5292	-2.9479	-3.4688	-21.958	11.889	127.582	109.166	39.594	74.254	116.369	-55.966	106.407	213.604	219.146	52.365	61.859	-27.351	-128.430	117.963	0.00033309	0.0011475	0.00033671	563.72	6.4141e-06	6.7855e-06	575.75	192.11	7.7584e-06	2.657e-05	207.21	71.673	74.471	34.673	2.5689e-05	33.831	0.019617	0.032826	0.0091717	851.19	0.00035396	0.00037153	615.45	212	0.00032497	0.00037002	250.11	81.442	83.148	37.344	0.00033301	38.888	4.781	150.210	191.082	-118.001	-122.142	-20.675	-118.772	-112.294	-8.302	-32.050	-115.366	-111.644	-108.600	-103.503	177.954	-108.032	-8191	255	
1358.353	1	1	0	0	0.14382	0.2461	0.16006	0.21941	0.035714	0.26203	0.0091398	0.18178	0.15899	0.099457	0.20532	0.14271	0.09213	0.20466	0.28863	0.14823	-2.8375	-2.7771	-3.1792	-3.1292	-3.0938	-3.6729	-2.8937	-3.3271	-3.2854	-3.1271	-3.5104	-2.9354	-3.0979	-3.4625	-2.9958	-3.4042	-107.351	34.265	53.074	226.969	36.366	200.928	140.249	159.035	196.405	-127.920	215.302	208.189	144.518	223.814	28.674	162.259	0.00035587	0.0021861	0.00033464	565.02	3.1368e-06	1.0944e-05	575.62	193.95	1.6527e-05	1.4326e-05	205.98	70.709	73.712	34.427	1.1601e-05	32.853	0.019624	0.032826	0.0091825	853.19	0.00035668	0.00037077	614.55	212.5	0.00032361	0.00036796	249	80.642	82.469	36.984	0.00033316	38.255	46.663	124.619	198.197	-117.759	51.564	101.695	-119.201	-112.430	-38.475	80.558	-115.325	-110.728	-108.706	-103.479	156.240	-107.867	-8191	255	
1358.449	1	1	0	0	0.15948	0.24893	0.25768	0.21959	0.14843	0.077658	0.13656	0.23092	0.23961	0.20465	0.10904	0.18728	0.11828	0.33224	0.15731	0.41778	-3.1229	-2.85	-3.3604	-3.3042	-3.1	-3.5021	-3.275	-3.4667	-3.5062	-2.9646	-3.4021	-3.2667	-3.0375	-3.5896	-3.1479	-3.1729	24.489	-51.486	39.076	-128.743	170.589	-2.348	2.984	54.279	113.866	99.652	-54.803	144.321	13.547	-129.182	12.716	-124.933	0.00053894	0.00118	0.0005889	552.38	2.3665e-05	5.1205e-06	571.04	190.82	2.0496e-06	1.4629e-05	202.74	69.856	72.711	34.296	1.5651e-05	32.435	0.019568	0.032777	0.0092195	860.25	0.00035472	0.00037089	611.56	211.25	0.00032822	0.00037305	248.54	80.109	82.154	36.968	0.00033704	38.085	-13.306	15.967	81.159	-117.042	130.336	59.677	-118.376	-112.462	95.739	5.899	-115.542	-111.164	-108.854	-103.967	60.699	-107.498	-8191	255	
1358.543	1	1	0	0	0.22559	0.14001	0.22079	0.088309	0.15285	0.1714	0.15244	0.18031	0.11669	0.17489	0.17091	0.33017	0.21613	0.28971	0.10027	0.11405	-3.1958	-3.1125	-3.3438	-3.2417	-2.8333	-3.4292	-3.0646	-3.3208	-3.5021	-3.2521	-3.4625	-3.4667	-3.0521	-3.5458	-3.1354	-3.0771	16.573	94.124	-65.649	-89.661	65.562	120.386	172.270	-125.365	73.231	50.722	-119.093	191.056	87.633	-129.492	-20.912	153.320	0.00041638	0.0020416	0.00065109	544.54	1.1724e-05	1.1365e-05	572.96	188.9	3.6836e-05	3.0718e-05	203.38	70.208	72.696	34.4	8.6046e-06	33.192	0.01977	0.032625	0.0092634	850.8	0.0003568	0.00037018	613.62	210.57	0.0003285	0.00037094	248.82	80.625	81.948	36.945	0.00033755	38.325	23.309	-58.004	51.414	-117.690	11.040	24.043	-118.901	-112.666	60.152	-35.226	-115.019	-110.988	-108.922	-103.078	-11.400	-107.396	-8191	255	
1358.641	1	1	0	0	0.15806	0.069346	0.20169	0.1786	0.24675	0.16538	0.31492	0.04748	0.15426	0.18573	0.075536	0.062257	0.057153	0.10993	0.19675	0.28668	-3.1854	-3.0458	-3.1813	-3.2062	-2.8417	-3.4042	-3.1146	-2.975	-3.5187	-3.0333	-3.2208	-3.3854	-2.9417	-3.4271	-3.2667	-3.1271	193.312	-84.387	-128.462	126.916	72.339	-93.615	-20.072	153.139	121.359	-15.916	46.134	-122.340	141.157	172.903	195.039	145.444	0.00032386	0.0012608	0.00069166	554.87	1.849e-05	1.2964e-05	573.17	189.97	2.3457e-05	7.9963e-06	205.81	71.994	73.099	34.476	2.4698e-05	33.504	0.01947	0.032155	0.0092414	848.74	0.00034802	0.00036503	611.84	210.94	0.00032101	0.00036768	251	81.163	81.955	36.93	0.00033907	38.675	-41.508	-75.658	128.187	-116.946	-12.087	60.406	-118.814	-112.234	25.934	60.079	-115.317	-111.360	-108.809	-103.991	-21.455	-107.569	-8191	255	
1358.736	1	1	0	0	0.066412	0.2248	0.22569	0.21561	0.18627	0.055877	0.070564	0.10106	0.2063	0.21636	0.21344	0.13937	0.022804	0.25145	0.092075	0.24981	-3.0687	-2.9958	-2.9604	-3.5229	-2.8083	-3.2833	-3.4646	-2.9854	-3.4917	-3.0708	-3.175	-3.3583	-3.075	-3.4896	-3.2562	-2.9875	211.490	212.613	-86.485	35.779	-30.962	-13.025	218.531	120.881	-45.571	-42.118	43.658	-15.621	112.743	46.403	-33.694	142.097	0.00041239	0.00071968	3.1544e-05	566.08	1.0552e-05	1.1549e-05	572.4	191.38	2.3476e-05	1.7075e-05	207.49	70.664	73.363	34.178	2.0208e-05	32.992	0.019354	0.03266	0.009217	853.18	0.00035083	0.00036858	615.31	210.78	0.00032172	0.00036805	251.4	80.877	82.188	36.8	0.00033731	38.351	-36.582	122.803	-24.714	-117.883	-72.084	60.411	-118.613	-112.362	-40.712	36.132	-114.984	-111.380	-109.034	-103.782	-37.534	-107.705	-8191	255	
1358.832	1	1	0	0	0.23071	0.076752	0.039915	0.088983	0.23972	0.028074	0.17695	0.04657	0.29106	0.018516	0.049403	0.15215	0.040395	0.17163	0.077554	0.35051	-3.1146	-3.1958	-3.1042	-3.5167	-2.8146	-3.4437	-3.5333	-3.0583	-3.4042	-3.1979	-3.0375	-3.475	-3.0792	-3.6625	-3.4167	-2.9958	215.537	63.110	141.109	144.725	110.063	59.028	57.723	28.686	46.436	-101.814	-18.934	-57.783	143.147	190.172	94.980	122.257	0.0002578	0.0018846	0.00068561	553.9	1.2759e-05	1.1818e-05	572.36	189.66	1.5702e-05	1.3569e-05	205.85	70.626	74.003	34.171	1.2509e-05	33.138	0.019308	0.032688	0.0092312	850.44	0.00035011	0.00037018	613.9	210.47	0.00032139	0.00037313	250.58	80.546	82.364	36.79	0.00033927	38.225	-27.979	52.644	-67.659	-116.519	-77.838	-39.149	-119.635	-112.624	-124.281	-5.572	-115.088	-110.615	-109.210	-103.828	-105.456	-107.884	-8191	255	
1358.952	1	1	0	0	0.084017	0.15518	0.19656	0.18101	0.1221	0.079752	0.091207	0.18439	0.13533	0.11063	0.10208	0.1123	0.15805	0.075538	0.12323	0.23043	-3.1333	-3.1292	-3.1354	-3.5104	-3.0854	-3.1937	-3.4562	-2.8208	-3.4104	-3.3604	-3.1708	-3.5292	-3.1937	-3.1979	-3.475	-3.2333	129.443	130.385	135.603	176.536	-68.685	-129.964	136.003	214.426	-118.212	90.602	63.249	-68.673	176.375	112.877	216.070	110.591	0.00047635	0.0022514	0.00010312	559.33	9.0618e-06	4.1964e-06	568.48	192.28	1.456e-06	1.7948e-05	205.17	72.013	73.883	34.315	1.5788e-05	33.328	0.019343	0.032526	0.0091955	845.55	0.00034773	0.00036825	613.77	211.17	0.0003209	0.00037235	250.93	81.317	82.493	36.971	0.00033727	38.543	-38.442	-21.446	59.503	-116.679	98.988	197.270	-118.630	-112.690	215.893	109.731	-115.383	-111.358	-108.554	-103.591	140.734	-107.804	-8191	255	
1359.049	1	1	0	0	0.16578	0.071806	0.21294	0.050671	0.38289	0.10025	0.14345	0.22099	0.16127	0.18873	0.10964	0.063228	0.1075	0.22655	0.16594	0.10468	-2.9021	-3.1833	-3.0479	-3.5167	-2.8833	-3.2292	-3.5104	-3.0771	-3.3812	-3.1063	-3.0833	-3.4188	-3.2417	-3.0812	-3.2979	-2.8854	215.192	153.542	224.349	-4.351	-75.649	11.341	127.219	168.363	138.719	-103.870	-76.170	167.580	-75.655	-94.139	-52.895	145.332	0.00039443	0.0010855	0.0002705	552.24	1.5237e-05	1.0042e-05	581.07	193.21	8.5163e-06	4.2635e-06	206.49	71.9	74.498	34.714	2.5008e-05	34.083	0.019425	0.032599	0.0091639	840.16	0.00034818	0.00036867	615.02	211.94	0.00031722	0.00036751	251.36	81.767	83.032	37.422	0.00033138	39.053	-18.780	-79.102	-122.650	-118.249	-7.211	-31.278	-119.124	-112.233	123.384	20.486	-115.055	-111.056	-108.663	-103.183	-67.340	-108.253	-8191	255	
1359.145	1	1	0	0	0.090477	0.162	0.14235	0.085533	0.16109	0.050442	0.2918	0.056087	0.22407	0.039125	0.43863	0.19567	0.2026	0.15834	0.18964	0.065041	-3.0042	-3.3625	-2.9521	-3.5104	-3.1688	-3.1458	-3.6146	-3.0771	-3.4271	-3.4083	-3.0062	-3.5333	-3.2313	-3.1	-3.5833	-3.0854	65.497	-39.573	162.602	150.757	-54.033	101.888	169.352	82.649	36.998	-100.966	139.079	182.923	214.827	228.608	11.175	204.567	0.00050712	0.0018072	0.00030543	562.46	8.7847e-06	1.4795e-05	585.97	195.44	1.5031e-06	1.438e-05	207.04	71.681	74.537	34.624	1.9699e-05	33.558	0.019365	0.032545	0.0090829	849.32	0.0003527	0.0003706	622.13	213.87	0.00032383	0.00037177	253.35	81.611	83.232	37.142	0.00033218	38.808	-60.547	129.573	-69.857	-117.816	13.835	-9.049	-119.244	-112.702	77.152	-36.407	-115.257	-110.844	-108.992	-103.473	-49.119	-108.084	-8191	255	
1359.241	1	1	0	0	0.28627	0.22176	0.27252	0.34562	0.19412	0.12562	0.1376	0.20554	0.43479	0.066932	0.11384	0.35871	0.18675	0.082943	0.25965	0.27291	-2.9125	-3.3042	-2.8542	-3.2583	-3.0792	-2.9562	-3.5708	-3.0771	-3.2604	-3.55	-2.9875	-3.3583	-3.325	-2.9604	-3.4604	-3.1063	206.272	85.054	106.322	186.080	214.836	95.661	158.877	172.418	138.423	15.762	-79.719	152.527	205.226	-14.743	116.506	123.259	0.00020236	0.0012048	0.0002585	565.36	7.8714e-06	9.3766e-06	578.46	193.12	3.0961e-05	4.7537e-06	210.88	72.308	75.308	34.997	1.8956e-05	33.74	0.019528	0.032407	0.0090998	852.17	0.00035074	0.00036689	616.86	212.94	0.00032224	0.00036558	253.46	81.782	83.164	37.29	0.00033028	38.688	0.448	-55.689	-80.467	-117.235	-53.382	21.509	-119.063	-112.441	78.320	-37.527	-114.836	-111.424	-108.808	-103.309	190.999	-107.847	-8191	255	
1359.337	1	1	0	0	0.13805	0.10993	0.18492	0.25973	0.21172	0.12084	0.07213	0.13094	0.24148	0.18752	0.13663	0.080219	0.24672	0.15871	0.14184	0.155	-2.675	-3.2646	-2.9208	-3.3729	-3.4208	-3.0667	-3.7438	-3.2354	-3.1063	-3.4938	-3.1417	-3.4333	-3.3187	-3.0125	-3.4437	-3.1271	-88.526	-107.653	-59.244	163.901	199.856	-12.423	168.647	73.684	38.300	-113.679	174.032	-80.652	105.255	113.837	186.137	170.895	0.0004478	0.0027604	0.00018748	573.55	1.5892e-05	9.0436e-06	584.85	195.51	1.0297e-05	7.7587e-06	209.84	71.868	75.489	34.453	3.0964e-05	33.939	0.019368	0.032061	0.0090048	851.03	0.00034934	0.00036176	618.34	214.26	0.00031997	0.00036335	252.58	81.429	83.475	37.228	0.00032959	38.846	-39.952	-71.373	-74.824	-116.916	166.747	-28.965	-119.272	-112.033	-99.901	139.277	-115.982	-111.230	-109.031	-103.907	28.093	-107.440	-8191	255	
1359.433	1	1	0	0	0.043183	0.124	0.19291	0.15	0.10605	0.13153	0.13801	0.1379	0.053994	0.19564	0.22954	0.018644	0.17088	0.30961	0.089711	0.13306	-2.7042	-3.5187	-3.1208	-3.1937	-3.3438	-2.8917	-3.3542	-3.2333	-2.9813	-3.5521	-3.1271	-3.2458	-3.3792	-3.0812	-3.4646	-3.3958	-79.213	115.520	195.246	37.201	-121.164	19.765	-100.692	148.451	61.740	5.210	-78.146	180.929	91.476	49.794	-64.975	-68.430	0.00023957	0.001612	6.2325e-05	547.88	1.223e-05	2.57e-05	578.15	192.74	1.5966e-05	6.6088e-06	203.54	70.765	74.246	34.326	1.2099e-05	33.188	0.019322	0.032143	0.009062	848.84	0.00034677	0.00036352	615.89	212.28	0.00032332	0.00036721	250.54	80.556	82.526	36.827	0.00033496	38.325	9.329	5.892	156.894	-117.523	-46.400	41.490	-118.496	-112.949	73.548	5.082	-115.555	-111.536	-108.390	-103.751	-112.318	-107.933	-8191	255	
1359.529	1	1	0	0	0.28698	0.23591	0.141	0.013388	0.091717	0.14656	0.1933	0.062583	0.13246	0.12454	0.15315	0.083395	0.13605	0.24798	0.15288	0.20115	-2.5833	-3.55	-3.3375	-3.1937	-3.2396	-3.0312	-3.6146	-3.2854	-3.1063	-3.4813	-3.2417	-3.3125	-3.5458	-3.1292	-3.4125	-3.5583	21.167	41.640	-19.610	198.119	-55.898	164.508	162.638	-33.868	223.538	175.358	69.990	-124.612	-102.455	-103.067	47.860	88.591	0.00034807	0.00075275	0.00027006	564.1	7.1693e-06	2.4714e-05	572.36	191.73	2.2549e-05	1.7775e-05	205.44	70.005	73.13	34.161	1.2605e-05	33.027	0.019302	0.032145	0.0090754	850.09	0.00034628	0.00036314	614.28	211.46	0.00031805	0.00036359	249.77	80.21	82.012	36.802	0.00033105	38.198	-36.621	47.030	26.931	-117.398	184.678	-32.575	-118.875	-112.359	80.621	-39.436	-115.152	-110.747	-108.873	-103.406	-12.291	-107.400	-8191	255	
1359.624	1	1	0	0	0.036297	0.23616	0.18556	0.054563	0.10736	0.15651	0.081608	0.28826	0.033589	0.048184	0.039163	0.16211	0.092534	0.026969	0.15969	0.15379	-2.7958	-3.4208	-2.9333	-3.0104	-3.4708	-3.0208	-3.3771	-3.4083	-3.05	-3.5208	-3.2875	-2.9667	-3.6562	-3.2104	-3.4771	-3.6708	-17.910	132.420	41.550	161.412	182.452	-4.680	185.601	23.210	33.573	-92.950	90.513	-94.129	126.997	212.914	83.346	141.089	0.00035596	0.001656	0.00028866	548.88	2.2467e-05	3.2425e-06	569.9	192.05	3.0475e-05	1.8875e-05	205.07	71	74.069	34.789	2.0914e-05	33.699	0.019152	0.032004	0.0090826	843.38	0.00034509	0.00036247	612.06	211.2	0.0003138	0.00036091	250.18	80.737	82.575	37.163	0.00032914	38.6	-32.726	51.152	107.416	-116.885	0.447	225.792	-119.034	-112.379	25.996	-93.160	-115.496	-111.127	-108.555	-103.795	-106.640	-107.932	-8191	255	
1359.744	1	1	0	0	0.12241	0.080113	0.099498	0.15336	0.089956	0.2207	0.1811	0.37141	0.19495	0.13194	0.092679	0.20226	0.22952	0.090428	0.051867	0.098867	-2.6646	-3.3438	-3.1479	-2.9979	-3.5229	-3.0583	-3.3417	-3.45	-3.0687	-3.6292	-3.4646	-2.8333	-3.5812	-3.2146	-3.3479	-3.6188	-119.632	155.366	-12.992	39.139	175.344	-14.308	-58.112	200.939	-31.712	-27.478	47.309	160.395	-83.504	-47.585	174.342	227.998	0.00046952	0.00067489	0.00034291	552.28	1.759e-05	1.9846e-05	576.47	192.94	1.214e-05	4.5542e-06	207.59	72.39	75.183	34.852	9.2622e-06	34.078	0.019083	0.032056	0.0090661	843.6	0.00034306	0.00036223	615.02	212.39	0.00031501	0.00036339	252.52	81.513	83.334	37.331	0.00033293	38.99	-64.632	128.116	8.896	-117.216	-39.313	-8.932	-119.033	-112.677	-39.439	198.498	-116.144	-111.042	-108.647	-103.475	42.374	-107.959	-8191	255	
1359.816	1	1	0	0	0.22389	0.16113	0.10461	0.18204	0.19769	0.1743	0.18651	0.20214	0.14794	0.13863	0.096727	0.16031	0.13162	0.27123	0.209	0.0465	-2.6396	-3.2833	-3.1813	-3.0104	-3.5646	-3.2354	-3.2333	-3.3229	-3.2208	-3.1271	-3.4458	-2.9083	-3.5729	-3.2146	-3.3104	-3.6104	78.315	1.712	6.595	-86.151	-108.822	-53.792	105.255	195.965	-54.608	191.684	46.584	-128.035	-92.181	-103.355	213.738	-22.599	0.00058746	0.0025829	0.00019356	565.33	1.779e-05	6.8132e-06	576.62	194.53	2.0632e-05	1.907e-05	207.57	71.376	74.787	34.78	1.517e-05	34.092	0.019234	0.03258	0.0092263	851.16	0.00034668	0.00036874	617.79	213.75	0.00032029	0.00037323	252.88	81.66	83.221	37.419	0.00033503	39.165	11.567	216.366	111.714	-116.937	184.665	186.465	-118.383	-112.416	-89.016	201.145	-115.877	-111.296	-108.931	-103.422	-43.628	-107.573	-8191	255	
1359.914	1	1	0	0	0.22763	0.10179	0.10024	0.24199	0.04589	0.19396	0.19701	0.10802	0.1828	0.14723	0.34071	0.26932	0.034386	0.15099	0.12772	0.047897	-2.5792	-3.4042	-3.2625	-3.2	-3.5042	-3.3812	-3.1583	-3.6125	-3.1437	-3.2958	-3.3875	-2.8937	-3.3021	-3.2417	-3.0542	-3.6104	-6.460	94.751	213.011	31.984	157.883	144.235	125.425	-128.717	194.176	-99.610	136.447	147.747	-76.907	81.251	194.092	-96.021	0.00028892	0.0012561	0.00014653	561.66	1.3692e-05	1.0509e-05	580.1	192.86	1.5825e-05	2.8167e-05	209.6	71.679	75.221	34.828	2.0096e-06	33.764	0.019273	0.032471	0.0091075	847.45	0.00034794	0.00036394	617	212.23	0.00031649	0.00036487	252.67	81.349	83.156	37.366	0.00032758	38.542	-28.279	32.071	39.355	-118.166	68.966	23.421	-118.980	-112.275	-22.581	96.351	-115.143	-110.779	-108.604	-103.991	11.712	-107.811	-8191	255	
1360.033	1	1	0	0	0.079196	0.28536	0.14008	0.40471	0.041047	0.12609	0.15335	0.13433	0.21444	0.11418	0.093446	0.056425	0.2415	0.23184	0.15231	0.1903	-2.7604	-3.1813	-3.5062	-2.8625	-3.2771	-3.5021	-3.2021	-3.5875	-3.2188	-3.1	-3.5021	-3.0708	-3.2375	-3.4771	-2.9583	-3.5021	48.328	-51.008	-86.778	-85.710	-29.233	121.938	-119.760	-105.634	-28.430	-38.636	99.623	-78.832	39.740	211.238	-128.741	224.419	0.00066514	0.0010262	0.00052245	562.97	1.3327e-05	7.5027e-06	575.57	193.24	1.0618e-05	1.9892e-05	207.78	71.344	73.552	34.949	1.1504e-05	33.09	0.018992	0.031839	0.0088776	840.38	0.00034004	0.00035498	613.68	212.5	0.00031149	0.00035776	249.3	80.495	82.559	37.287	0.00032519	38.354	-53.535	-3.565	-46.614	-117.657	-28.626	22.295	-118.863	-112.227	-85.229	41.965	-115.417	-111.487	-108.532	-103.542	52.441	-107.481	-8191	255	
1360.129	1	1	0	0	0.27177	0.15036	0.3048	0.12451	0.18656	0.24282	0.22243	0.059881	0.028216	0.1228	0.14694	0.3764	0.18916	0.13438	0.16342	0.096261	-2.7438	-3.1625	-3.5792	-3.0125	-3.3417	-3.5062	-3.0646	-3.5646	-3.1146	-3.0563	-3.4167	-3.1229	-3.2542	-3.4625	-3.0417	-3.6417	176.072	-25.351	133.977	-112.896	-119.532	166.336	219.498	-16.407	93.114	-1.502	143.721	75.219	190.979	147.227	201.898	117.966	0.00027493	0.00094264	0.00037304	554.28	2.4482e-05	2.219e-05	571.15	190.73	8.9979e-06	5.3842e-06	204.59	70	72.912	34.077	3.6742e-06	32.768	0.019287	0.032254	0.0090015	843.95	0.00035111	0.00036771	612.92	211.24	0.00032238	0.00037	249.16	80.302	82.135	36.666	0.000336	38.104	-3.718	4.073	-48.126	-117.580	38.918	83.150	-118.813	-112.389	-20.737	169.471	-114.792	-110.227	-108.938	-103.378	56.548	-108.384	-8191	255	
1360.225	1	1	0	0	0.067037	0.29075	0.04257	0.18876	0.093309	0.28012	0.24924	0.15333	0.085637	0.16391	0.073257	0.20946	0.080647	0.15385	0.22403	0.097708	-2.9292	-3.0167	-3.4792	-3.1083	-3.3083	-3.4313	-3.025	-3.3146	-3.2958	-3	-3.6333	-3.0854	-3.2562	-3.4979	-3	-3.3458	-33.374	-110.885	119.413	80.929	-99.156	75.500	203.688	155.095	141.911	82.889	82.736	146.224	2.640	211.699	6.172	201.688	0.00045323	0.0014791	0.00047905	554.79	1.6883e-05	2.0978e-05	568.76	188.74	1.2846e-05	1.3433e-05	205.06	69.57	72.586	33.847	9.8168e-06	33.354	0.019679	0.032731	0.0091746	848.34	0.00035221	0.00036828	611.34	209.84	0.00032678	0.00037414	249.49	80.179	81.613	36.379	0.00033945	38.326	2.513	-30.373	-72.661	-116.695	30.249	7.863	-118.741	-112.370	-91.088	-32.787	-115.433	-110.721	-108.608	-103.653	-13.229	-107.825	-8191	255	
1360.321	1	1	0	0	0.13524	0.15028	0.16323	0.10734	0.19672	0.063177	0.19298	0.095145	0.14385	0.12053	0.22919	0.17085	0.22596	0.11154	0.1116	0.12041	-2.9396	-2.9854	-3.5542	-3.0583	-3.2479	-3.4229	-3.1333	-3.4271	-3.1542	-3.1396	-3.5667	-3.2188	-3.1667	-3.5083	-2.9146	-3.4167	10.823	186.644	33.458	-68.829	179.786	-100.562	54.206	115.575	174.837	-46.120	-115.513	156.980	-62.462	10.476	49.398	172.178	0.00086434	0.0016447	0.00019551	556.99	3.2902e-06	1.0832e-05	571.29	188.72	2.5449e-05	1.99e-05	202.62	69.623	71.969	33.564	1.1166e-05	32.789	0.019755	0.032874	0.0092373	846.94	0.00035362	0.00037031	612.36	209.54	0.00032524	0.00037335	249.03	79.898	81.243	36.276	0.00033721	37.883	-24.319	45.810	33.664	-117.302	229.059	-101.602	-118.882	-112.442	146.323	78.151	-115.120	-111.414	-109.005	-103.816	-103.036	-107.975	-8191	255	
1360.442	1	1	0	0	0.25107	0.30749	0.023351	0.12485	0.14156	0.14017	0.034248	0.40529	0.18739	0.34494	0.21886	0.23788	0.1552	0.21763	0.16832	0.10875	-2.9083	-2.9313	-3.4542	-3.0458	-3.1521	-3.4958	-3.0563	-3.1063	-3.3792	-2.85	-3.4688	-3.3	-3.0021	-3.5479	-3.1813	-3.3063	181.860	165.918	-95.435	-30.217	-95.424	223.616	227.252	173.004	-118.159	120.004	-129.312	-118.811	-28.732	91.516	155.947	19.243	0.00024427	0.00094162	0.00015256	543.99	1.4131e-05	1.3765e-05	569.14	189.49	1.7605e-05	1.0713e-05	202.74	69.111	72.255	33.225	1.3348e-05	32.282	0.019594	0.032508	0.0091956	844.73	0.00035244	0.00036788	610.82	209.71	0.00032282	0.00037095	247.83	79.356	81.583	36.233	0.00033894	37.721	-100.775	200.270	-106.324	-118.481	-83.881	-45.073	-119.132	-112.515	125.793	8.717	-115.016	-111.271	-109.134	-103.822	-94.829	-107.782	-8191	255	
1360.514	1	1	0	0	0.17187	0.073846	0.1424	0.17275	0.071119	0.20914	0.052904	0.23381	0.039444	0.11788	0.13377	0.23248	0.12546	0.26067	0.13114	0.14729	-3.1063	-2.8917	-3.3333	-3.3063	-3.0812	-3.525	-3.1417	-3.2875	-3.2708	-3.0792	-3.4708	-3.4021	-3.075	-3.5146	-2.9917	-3.2438	-76.969	6.674	-11.617	114.022	-102.032	182.054	185.721	26.187	42.235	-76.378	-62.535	175.591	78.669	-98.719	110.133	97.309	0.0004619	0.0021256	4.4368e-05	551.08	1.4296e-05	8.1438e-06	573.98	189.16	1.4642e-05	2.4432e-05	205.75	69.832	73.247	33.802	1.2764e-05	33.152	0.019505	0.032704	0.0092544	849.1	0.00034942	0.00036949	612.34	210.34	0.0003202	0.00036991	249.44	79.937	81.771	36.537	0.00033416	38.162	-54.919	-25.267	103.273	-117.739	-69.680	171.716	-118.940	-112.509	-18.008	-12.185	-115.901	-111.319	-108.970	-103.898	-13.035	-107.915	-8191	255	
1360.634	1	1	0	0	0.21664	0.17132	0.052392	0.28363	0.23666	0.089928	0.18155	0.23622	0.12082	0.2254	0.030296	0.1492	0.21954	0.043766	0.23412	0.10564	-3.2542	-3.1146	-3.3688	-3.3792	-2.9896	-3.6167	-3.3958	-3.2583	-3.4083	-3.0875	-3.3208	-3.4875	-2.8521	-3.5563	-3.15	-3.1104	146.499	155.813	63.881	202.404	222.582	-3.919	-106.294	114.820	49.658	3.425	118.470	144.755	148.118	129.474	148.644	224.953	0.0003185	0.00076616	0.00057907	551.74	1.1658e-05	2.0804e-05	578.09	193.02	3.0764e-05	1.287e-05	208.12	70.848	73.975	34.338	1.6517e-05	33.693	0.019254	0.032244	0.0090869	840.42	0.00034681	0.00036525	615.31	211.39	0.00031873	0.00036538	251.98	80.837	82.578	37.037	0.00033467	38.605	-8.653	10.960	185.126	-117.773	170.753	154.335	-118.800	-112.308	31.971	93.185	-115.373	-111.425	-108.519	-103.752	-73.790	-107.958	-8191	255	
1360.729	1	1	0	0	0.11305	0.30468	0.063885	0.28711	0.094638	0.38614	0.25972	0.28036	0.26036	0.20059	0.053523	0.17977	0.26072	0.15626	0.034028	0.17152	-3.1167	-3.1146	-3.3	-3.4792	-3.2125	-3.4375	-3.4313	-3.1917	-3.3458	-3.1729	-3.3187	-3.5375	-2.8771	-3.4896	-3.275	-3.0646	-9.952	131.334	-54.576	176.143	199.694	50.812	133.985	180.530	133.271	111.420	151.224	149.805	-77.711	227.960	-38.716	-115.379	0.00035821	0.00087325	0.00032975	557.35	1.7913e-05	2.5728e-05	578.35	192.49	2.3156e-05	1.9704e-05	206.59	71.453	74.31	34.176	1.6348e-05	33.367	0.01936	0.032585	0.0091803	850.36	0.00034999	0.00037139	618.36	212.65	0.00032457	0.00037291	253.31	81.757	82.983	36.975	0.00033951	38.406	-30.844	80.196	-6.318	-117.927	16.016	-77.171	-119.320	-112.836	7.202	14.650	-115.374	-110.937	-109.083	-103.644	-47.046	-107.432	-8191	255	
1360.825	1	1	0	0	0.13835	0.092956	0.10647	0.12872	0.088759	0.1905	0.31824	0.26522	0.22332	0.19773	0.21033	0.073397	0.15978	0.064084	0.23135	0.19159	-3.0792	-3.0896	-3.2208	-3.4167	-3.0563	-3.3083	-3.2667	-3.1979	-3.5104	-3.1604	-3.1646	-3.5521	-3.1562	-3.2354	-3.5417	-3.2125	32.423	180.966	85.144	75.335	4.722	-62.393	155.873	190.222	188.925	189.087	-25.502	218.945	86.341	-88.060	27.628	-127.863	0.00031969	0.00069543	0.00040949	557.9	7.8704e-06	2.5851e-05	575.78	191.61	1.4585e-05	1.6036e-05	206.59	70.787	73.061	33.804	1.8589e-05	32.928	0.01949	0.032718	0.009139	850.19	0.00035176	0.00036857	616.1	211.46	0.00032295	0.00037225	251.68	80.853	82.149	36.516	0.00033787	38.29	-39.845	-53.142	-115.509	-117.178	-80.479	-26.434	-118.994	-112.368	60.400	27.272	-115.541	-111.453	-108.436	-103.456	53.441	-107.882	-8191	255	
1360.921	1	1	0	0	0.17815	0.29398	0.015581	0.25898	0.10193	0.07594	0.168	0.075399	0.08079	0.077499	0.31268	0.23397	0.1529	0.12327	0.13593	0.216	-3.3438	-3.1437	-3.0979	-3.4604	-3.2229	-3.2354	-3.4417	-3.0542	-3.5812	-3.2833	-3.0958	-3.4688	-3.1229	-3.3812	-3.4542	-3.1188	165.058	-4.733	-33.131	-3.505	36.893	155.377	157.335	161.755	-15.814	28.950	168.346	14.256	-129.844	155.211	141.683	-23.597	0.00023804	0.00094704	0.00047532	552.65	1.923e-05	2.128e-05	570.9	191.02	3.0875e-05	8.5194e-06	206.97	70.602	72.669	33.549	1.8333e-05	32.831	0.019826	0.033011	0.0092185	848.48	0.00035661	0.0003737	614.13	210.75	0.00032708	0.00037798	251.45	81.236	81.794	36.376	0.00034272	38.332	0.139	-23.859	5.129	-116.642	-90.177	-33.453	-118.891	-112.625	17.138	-52.194	-114.738	-111.124	-108.588	-103.648	-92.675	-107.911	-8191	255	
1361.042	1	1	0	0	0.034112	0.14731	0.059209	0.18012	0.13199	0.12986	0.40054	0.18055	0.1361	0.043554	0.17874	0.1986	0.31606	0.021366	0.13059	0.072477	-2.9354	-3.1979	-3.0542	-3.4583	-3.2458	-3.2042	-3.5687	-3.0563	-3.4	-3.3479	-3.1604	-3.6625	-3.1375	-3.2667	-3.5812	-3.1	-99.435	118.353	-57.114	102.281	150.297	-53.070	203.829	85.988	135.573	39.559	-53.132	40.522	167.128	199.804	-32.839	-121.098	0.0006685	0.0015381	0.00037071	558.48	1.9371e-05	3.7699e-06	576.64	189.21	2.755e-05	1.0456e-05	205.4	71.264	73.218	33.7	2.7314e-05	33.494	0.020017	0.032919	0.0093021	853.09	0.0003589	0.00037224	617.5	210.8	0.00032583	0.00037083	251.46	81.432	82.206	36.504	0.00033701	38.674	-25.261	41.773	-106.517	-117.915	216.536	114.423	-118.916	-112.100	10.734	113.566	-115.388	-110.637	-108.843	-103.479	-129.488	-107.441	-8191	255	
1361.113	1	1	0	0	0.22041	0.18743	0.14536	0.30137	0.15339	0.14195	0.14639	0.24329	0.26211	0.37655	0.14797	0.14117	0.1985	0.1193	0.017746	0.17938	-3.0833	-3.3146	-3.0458	-3.5292	-3.3125	-3.2958	-3.5208	-3.0896	-3.3	-3.4229	-2.9688	-3.3937	-3.2125	-3.05	-3.4562	-3.1937	50.617	-25.967	217.708	82.148	-69.962	-40.566	118.386	43.767	-76.807	26.051	-28.846	166.237	206.961	-126.674	-37.008	121.709	0.00046271	0.00056723	0.00028365	554.26	7.9854e-06	1.9316e-05	576.71	190.55	1.7884e-05	9.5212e-06	207.34	72.07	73.345	34.044	2.0288e-05	33.507	0.019677	0.032617	0.0092262	849.49	0.00035453	0.00037337	618.83	211.19	0.00032691	0.0003728	252.97	81.927	82.398	36.589	0.00033933	38.805	16.961	15.125	171.901	-117.517	161.692	44.003	-118.680	-112.713	65.589	-33.063	-115.477	-110.287	-108.667	-103.601	-3.743	-107.274	-8191	255	
1361.209	1	1	0	0	0.1071	0.060758	0.25015	0.19091	0.14566	0.21243	0.17249	0.30697	0.25886	0.085744	0.044405	0.16079	0.073245	0.027833	0.048757	0.11759	-2.9458	-3.2333	-2.8917	-3.5271	-3.2167	-3.0583	-3.5708	-3.0875	-3.2833	-3.4833	-2.9125	-3.5667	-3.3396	-3.1333	-3.5479	-3.2083	51.230	54.009	65.406	174.979	216.448	-25.539	-54.884	164.345	150.908	146.345	44.167	134.275	36.637	140.370	52.717	-27.142	0.00068245	0.00083291	0.00045223	548.97	1.0883e-05	8.0052e-06	573.9	188.27	5.0792e-06	1.5114e-05	205.91	70.309	72.876	33.897	3.4303e-05	32.989	0.01967	0.032805	0.0092629	850.6	0.0003548	0.00037286	617.34	209.41	0.00032338	0.00036994	250.41	80.359	81.492	36.296	0.00033367	38.061	-37.710	158.475	-11.030	-116.696	80.483	195.029	-119.185	-112.456	64.255	88.079	-115.192	-110.911	-108.652	-103.382	170.168	-107.694	-8191	255	
1361.306	1	1	0	0	0.11581	0.18915	0.27928	0.14226	0.15782	0.38428	0.10502	0.13756	0.06845	0.16181	0.36258	0.055626	0.33561	0.14218	0.25828	0.19489	-2.8646	-3.3979	-3.0125	-3.5542	-3.2938	-3.0729	-3.6979	-3.075	-3.1396	-3.5375	-3.1604	-3.3312	-3.2438	-3.1354	-3.4708	-3.3542	175.586	-48.576	-59.913	224.414	229.205	23.465	-36.999	189.372	47.882	-94.009	-105.614	-80.822	189.184	219.371	-103.415	91.661	0.00096088	0.00083826	0.0001927	556.81	1.3922e-05	2.0887e-05	577.06	189.85	4.3391e-07	7.1891e-06	205.31	71.167	73.175	34.052	7.8772e-07	33.18	0.019367	0.032123	0.0090838	842.24	0.0003473	0.0003616	617	209.67	0.00031329	0.00036112	250.06	80.671	81.652	36.557	0.00033054	38.239	-24.370	159.658	208.835	-117.617	13.855	228.145	-118.619	-112.270	-7.945	153.222	-115.456	-110.965	-108.623	-103.331	-107.147	-107.730	-8191	255	
1361.426	1	1	0	0	0.50269	0.32465	0.17735	0.30146	0.10329	0.20541	0.18615	0.23712	0.32398	0.17004	0.20548	0.14397	0.054783	0.27508	0.23946	0.27458	-2.6771	-3.4125	-2.8875	-3.4396	-3.6375	-2.9229	-3.5938	-3.1125	-3.125	-3.5604	-3.0708	-3.3729	-3.4104	-3.1625	-3.6021	-3.1979	63.056	192.513	-22.225	45.434	-93.548	199.466	182.650	-115.716	141.692	11.164	56.564	44.724	-33.309	214.592	82.805	70.877	0.00060336	0.0016008	0.00034327	553.12	1.3947e-05	8.8364e-06	575.3	189.6	1.8123e-05	1.4825e-05	207.84	70.985	72.595	34.097	6.589e-06	33.276	0.019038	0.031815	0.0089785	837.56	0.00033912	0.00036143	614.69	209.45	0.00031497	0.00036051	250.47	80.739	81.308	36.514	0.00033181	38.346	-41.502	-1.960	146.271	-118.641	115.611	-20.468	-118.730	-112.457	3.304	6.042	-115.125	-110.867	-108.493	-103.549	-24.526	-107.752	-8191	255	
1361.521	1	1	0	0	0.13617	0.073907	0.075177	0.1498	0.085076	0.057968	0.10222	0.16933	0.23734	0.20905	0.26402	0.051551	0.23589	0.030213	0.2936	0.070307	-2.6063	-3.5104	-3.0854	-3.0375	-3.4437	-3.0458	-3.4667	-3.1583	-3.0542	-3.3771	-3.1375	-3.1146	-3.5187	-2.9708	-3.3542	-3.2375	168.113	-106.230	-72.176	219.104	-60.498	192.464	-120.599	119.062	188.910	222.238	-118.683	163.740	110.598	-22.644	206.377	179.115	0.00035035	0.0012051	0.00071163	543.18	1.9336e-06	5.6822e-06	572.52	188.1	7.0475e-06	1.2684e-05	207.95	69.734	72.105	33.785	1.5446e-05	33.245	0.019146	0.032181	0.0091013	834.75	0.00034612	0.00036597	613.95	208.75	0.00032164	0.00036924	250.75	80.814	81.455	36.498	0.00033618	38.352	-67.086	31.832	107.200	-118.744	-82.070	-92.962	-118.775	-112.569	164.072	35.568	-115.369	-110.932	-108.819	-103.620	-31.674	-108.023	-8191	255	
1361.617	1	1	0	0	0.072711	0.11889	0.25265	0.17959	0.14045	0.13235	0.060071	0.12828	0.3533	0.18445	0.035582	0.24459	0.21327	0.11979	0.020091	0.078058	-2.5042	-3.4437	-3.1542	-3.2417	-3.4396	-2.9167	-3.3875	-3.4375	-3.0229	-3.3312	-3.2021	-3.1708	-3.5104	-2.9688	-3.3187	-3.3958	-3.480	-12.293	202.754	191.274	182.718	206.821	222.725	89.037	93.248	7.157	200.993	184.247	-111.106	-99.950	134.558	-22.594	0.00027489	0.0032547	0.00027532	552.56	9.93e-06	1.9447e-05	569.74	187.77	2.2346e-05	1.4782e-05	207.23	69.5	71.491	33.49	2.4031e-05	32.368	0.019527	0.032474	0.0092287	844.37	0.00035087	0.00037018	613.67	207.69	0.0003204	0.00037172	249.43	79.416	80.63	36.144	0.00033516	37.701	-42.254	225.895	-43.727	-117.376	7.288	-41.547	-118.795	-112.537	91.718	-37.289	-115.423	-110.788	-108.725	-103.350	-29.057	-107.938	-8191	255	
1361.715	1	1	0	0	0.34845	0.13649	0.049655	0.042378	0.094133	0.1916	0.15773	0.26599	0.19323	0.12777	0.081131	0.25265	0.31511	0.15108	0.10231	0.14525	-2.5479	-3.5042	-3.1604	-3.1479	-3.4604	-3.0333	-3.3125	-3.4417	-2.7958	-3.5187	-3.125	-3.0583	-3.4062	-3.0958	-3.3021	-3.4625	70.738	-34.968	15.206	44.586	165.152	162.352	176.569	31.805	50.505	105.003	56.825	-61.168	190.577	185.507	135.455	59.378	0.00043181	0.00079352	5.4979e-05	536.75	2.7214e-05	1.324e-05	567.36	187.36	1.8604e-05	1.3041e-05	203.26	69.215	71.174	33.079	1.5617e-05	32.354	0.019633	0.032697	0.0091343	835.87	0.00035071	0.0003708	607.37	206.64	0.00032347	0.00037259	246.94	79.446	80.486	35.889	0.00033714	37.631	-14.225	-52.905	-125.803	-118.487	126.000	-125.440	-118.853	-112.487	11.606	111.179	-114.797	-111.696	-108.843	-103.733	79.341	-107.959	-8191	255	
1361.809	1	1	0	0	0.26363	0.073693	0.1549	0.097097	0.0565	0.18211	0.21465	0.32127	0.15774	0.08202	0.10708	0.14977	0.17768	0.11043	0.044355	0.1545	-2.55	-3.4458	-3.1854	-3.2188	-3.6125	-3.125	-3.1375	-3.5021	-3.0271	-3.5021	-3.3646	-3.0542	-3.5146	-3.1979	-3.1354	-3.6146	185.561	177.696	158.319	-90.284	70.113	3.663	145.390	128.124	203.872	74.377	-61.064	129.827	-41.568	159.942	159.273	219.058	0.00023663	0.00041142	0.00019292	544.25	7.925e-06	7.7666e-06	567.98	185.02	1.4053e-06	3.1458e-05	201.47	67.97	70.483	32.968	1.7947e-05	32.5	0.019706	0.032914	0.0091666	841.92	0.00035547	0.00037285	609.05	205.6	0.00032712	0.00037297	246.66	78.814	80.056	35.856	0.00034074	37.723	25.275	-62.533	220.122	-116.597	45.213	98.806	-118.903	-112.350	178.845	59.258	-115.212	-111.100	-109.069	-103.701	-20.295	-108.180	-8191	255	
1361.905	1	1	0	0	0.20289	0.20163	0.1028	0.055095	0.039213	0.21663	0.25806	0.15085	0.082748	0.079908	0.25082	0.19252	0.16796	0.30356	0.15352	0.25204	-2.55	-3.3896	-3.3729	-2.8729	-3.525	-3.1042	-3.0875	-3.4542	-2.975	-3.3125	-3.4021	-2.8583	-3.3187	-3.4021	-3.0896	-3.5062	83.532	66.879	141.850	102.468	-114.355	224.011	160.086	-117.793	3.641	173.033	208.505	207.385	-69.066	175.644	200.617	97.698	0.00021433	0.00045138	0.00025756	545.94	1.0283e-05	1.7806e-05	567.9	186.05	2.4378e-06	1.1285e-05	202.42	69.885	71.805	33.838	1.2286e-05	33.014	0.019826	0.033099	0.0092874	847.61	0.00035586	0.00037371	610.97	207.2	0.00032111	0.00037132	246.66	79.589	80.779	36.458	0.00033242	38.314	-115.969	83.522	-77.153	-117.100	167.981	-105.092	-119.134	-112.566	-5.067	55.159	-115.680	-110.944	-108.376	-103.582	76.374	-107.865	-8191	255	
1362.026	1	1	0	0	0.068761	0.18085	0.20993	0.23102	0.16492	0.21429	0.15599	0.11293	0.11153	0.27694	0.087889	0.30996	0.065855	0.08628	0.0083717	0.093599	-2.6458	-3.2938	-3.3583	-2.8583	-3.425	-3.2917	-3.1021	-3.3458	-3.0187	-3.3104	-3.5333	-3.2104	-3.55	-3.2854	-3.0312	-3.5667	164.207	53.232	-10.310	122.873	175.736	-64.734	78.178	-65.966	-76.202	-25.259	70.222	90.101	85.517	184.193	-126.792	58.457	0.0003609	0.00054498	0.00041448	548.01	1.914e-05	2.2332e-06	574.38	190.85	2.085e-05	2.7324e-05	205.91	69.228	72.076	34.011	6.9925e-06	32.67	0.019336	0.032071	0.0090744	842.33	0.00034592	0.00036241	613.01	209.22	0.00031683	0.00036391	247.42	79.256	80.838	36.402	0.000331	37.9	5.112	28.448	144.296	-117.036	-29.999	195.561	-119.192	-112.584	208.138	-31.913	-115.096	-111.371	-108.356	-103.767	42.932	-107.626	-8191	255	
1362.120	1	1	0	0	0.29517	0.064965	0.038301	0.11491	0.12379	0.090659	0.045008	0.18732	0.050184	0.10144	0.19545	0.0468	0.18377	0.16278	0.17277	0.0068269	-2.9375	-3.0771	-3.4958	-3.0771	-3.4417	-3.2979	-3.2125	-3.5042	-3.0792	-3.275	-3.5563	-3.1396	-3.4458	-3.325	-2.8812	-3.4813	-47.727	-122.003	31.697	58.144	136.390	-69.745	135.306	184.327	-39.536	-104.038	182.570	-48.971	-125.042	145.623	200.809	-100.464	0.00062596	0.00093516	0.00032881	547.36	1.2262e-05	1.7466e-05	570.16	186.91	8.7814e-06	1.0896e-06	203.78	67.832	71.49	33.43	1.5414e-05	32.259	0.019247	0.031976	0.0089971	839.68	0.00034416	0.00036325	609.66	207.4	0.00031946	0.00036666	246.73	78.392	80.22	36.118	0.00033493	37.604	-13.051	16.651	-75.888	-118.145	128.810	9.420	-118.565	-112.805	83.921	5.200	-115.247	-111.302	-108.652	-103.303	-21.865	-107.954	-8191	255	
1362.216	1	1	0	0	0.22431	0.14107	0.23319	0.26528	0.079643	0.17213	0.11086	0.24995	0.15788	0.17361	0.19092	0.17603	0.063786	0.22197	0.28462	0.28798	-2.7292	-3.1	-3.4771	-3.1521	-3.2833	-3.275	-3.1312	-3.5729	-3.275	-3.1063	-3.5187	-3.0125	-3.3646	-3.3667	-2.925	-3.4625	222.790	-95.025	161.088	36.941	-105.467	5.851	46.675	224.466	-69.149	-113.284	-87.088	160.482	93.414	205.789	185.865	222.790	0.00091732	0.0017803	0.00024527	544.76	2.8043e-05	2.049e-05	561.11	184.45	2.4065e-05	1.8758e-05	198.73	67.333	70.482	33.071	2.9034e-05	32.343	0.019349	0.032667	0.0092794	844.79	0.00035227	0.00037449	607.41	206.23	0.00032676	0.00037558	245.25	77.884	79.724	35.783	0.0003398	37.638	6.553	165.854	-113.811	-117.877	96.327	18.098	-118.558	-112.529	19.660	84.910	-115.535	-110.791	-108.643	-103.851	64.542	-107.846	-8191	255	
1362.312	1	1	0	0	0.26525	0.030853	0.16945	0.14551	0.14543	0.061381	0.12393	0.1411	0.12239	0.098355	0.13085	0.24149	0.1581	0.021917	0.20845	0.23483	-2.6312	-2.9917	-3.5146	-2.9167	-3.1437	-3.4542	-3.0021	-3.5354	-3.1667	-3.0604	-3.3896	-3.075	-3.1458	-3.525	-2.9542	-3.2125	86.555	-55.677	144.494	94.414	-100.265	26.864	214.523	203.610	-13.488	95.670	5.029	97.624	186.858	200.677	-121.855	-104.007	0.00015563	0.0018459	0.00028716	545.44	2.6493e-05	1.8202e-05	568.92	183.88	3.5562e-05	2.372e-05	200.37	68.127	70.668	33.364	1.4406e-05	32.506	0.019595	0.032956	0.0093646	843.63	0.00035535	0.00037765	611.17	206.07	0.00032685	0.0003793	246.12	78.503	80.177	36.221	0.00034136	37.88	100.203	70.977	-104.100	-118.373	212.584	-22.218	-119.068	-112.197	-17.027	67.412	-115.438	-110.794	-108.809	-103.512	-17.017	-107.794	-8191	255	
1362.409	1	1	0	0	0.1217	0.32173	0.30678	0.093269	0.16609	0.27002	0.11127	0.14092	0.19653	0.075759	0.10352	0.15382	0.051298	0.2644	0.13478	0.071664	-2.8583	-2.8896	-3.4292	-3.1688	-3.1854	-3.3896	-3.0229	-3.3125	-3.3333	-2.9875	-3.3208	-3.0708	-2.9688	-3.3896	-2.7979	-3.4	166.691	-38.646	217.009	157.434	140.092	-41.079	99.914	45.172	135.577	-9.605	27.779	134.221	142.409	160.813	127.553	-38.511	0.0003453	0.00050656	0.00035233	545.36	1.3955e-05	1.3177e-05	562.65	185.03	7.4114e-06	5.6758e-06	196.28	67.078	70.165	33.034	1.7634e-05	31.795	0.019845	0.033189	0.0092922	845.99	0.00035502	0.00037912	607.45	206.43	0.00032652	0.00037623	244.62	77.584	79.573	35.796	0.00034119	37.235	32.012	28.836	-123.615	-118.357	47.246	-95.070	-118.636	-112.388	66.415	174.562	-115.402	-111.213	-108.977	-103.963	57.871	-107.867	-8191	255	
1362.505	1	1	0	0	0.17281	0.17768	0.11303	0.12167	0.19722	0.12201	0.2883	0.19719	0.11258	0.01914	0.11243	0.20423	0.10333	0.21478	0.19166	0.15088	-3.0146	-3.0417	-3.4271	-3.3063	-3.0208	-3.5333	-3.0729	-3.1292	-3.4583	-3.0667	-3.3812	-3.2792	-3.0521	-3.5375	-3.0958	-3.2292	119.997	72.480	-48.109	193.827	143.981	-81.799	111.214	179.314	-88.561	18.334	186.480	177.843	127.673	88.201	211.129	-90.107	0.00043223	0.00063199	0.00023486	544.88	2.2119e-05	1.1858e-05	552.81	183.48	2.1876e-05	2.8973e-05	195.53	65.84	69.853	32.723	1.7904e-05	31.849	0.02001	0.033571	0.0094302	847.47	0.00036185	0.00038213	602.23	205.9	0.00033519	0.00038468	242.91	76.819	79.393	35.625	0.00034288	37.124	-76.083	-4.554	55.345	-117.722	61.987	-116.159	-118.733	-112.779	-71.709	12.660	-115.397	-111.389	-108.807	-103.589	72.102	-108.056	-8191	255	
1362.601	1	1	0	0	0.1217	0.10509	0.16525	0.12343	0.1926	0.15703	0.055985	0.11832	0.067906	0.29608	0.037074	0.065596	0.16696	0.097832	0.12394	0.14673	-2.7604	-2.9083	-3.3271	-3.2438	-3.0646	-3.4833	-3.2354	-3.3458	-3.4604	-2.8854	-3.4833	-3.2292	-3.2333	-3.5312	-3.1167	-3.3479	-49.436	-58.468	28.551	87.166	4.335	8.371	24.933	101.288	15.174	-81.931	226.373	213.871	-129.835	154.384	90.281	-70.044	0.0001078	0.00060195	0.00055844	540.04	1.8051e-05	7.4332e-06	555.55	185.82	3.0724e-05	1.8619e-05	196.65	66.689	71.222	33.461	1.7131e-05	32.351	0.020092	0.033381	0.009496	848.43	0.00036098	0.00037575	601.59	207.09	0.00033203	0.00037582	243.5	77.407	80.265	36.16	0.00033422	37.546	-60.106	203.466	30.036	-117.398	13.043	197.538	-118.953	-112.204	53.769	175.310	-115.280	-110.521	-108.759	-103.964	75.813	-107.249	-8191	255	
1362.722	1	1	0	0	0.035091	0.12248	0.048449	0.053494	0.3485	0.076117	0.096217	0.30645	0.12011	0.20558	0.16806	0.11124	0.18276	0.075065	0.086167	0.13591	-3.1375	-3.1292	-3.3312	-3.4208	-2.9625	-3.3729	-3.2104	-3.0604	-3.4979	-3.1375	-3.3771	-3.5042	-2.9333	-3.475	-3.1688	-2.9208	-54.872	99.469	-81.625	132.502	170.086	-24.612	23.084	-14.078	-120.394	64.331	68.344	-71.083	9.244	-96.027	106.284	187.430	0.00043479	0.0016594	0.00050105	537.93	8.6828e-06	6.5084e-06	562.13	189.95	1.5468e-05	7.419e-06	201.67	68.389	71.534	33.916	1.4116e-05	32.687	0.019353	0.032318	0.0090219	833.75	0.00034873	0.00036603	606.35	208.74	0.0003239	0.0003673	245.73	78.35	80.493	36.531	0.00033202	38.062	-60.486	-128.217	-74.060	-117.931	50.560	115.907	-119.252	-112.547	143.398	-36.797	-115.345	-111.087	-108.926	-103.379	23.057	-107.736	-8191	255	
1362.818	1	1	0	0	0.18747	0.27932	0.22634	0.31148	0.072759	0.050236	0.081234	0.15781	0.19971	0.028374	0.12609	0.163	0.02277	0.087013	0.22936	0.41098	-3.1729	-3.0208	-3.2375	-3.3854	-3	-3.2521	-3.2833	-2.9792	-3.3688	-3.1833	-3.3083	-3.4875	-3.0646	-3.2958	-3.1917	-2.8729	-95.712	-111.689	150.667	-112.437	111.795	105.732	167.314	27.121	101.516	140.251	-129.173	-66.720	180.585	-83.446	-41.669	85.549	0.0004533	0.0021732	0.00014856	548.98	1.3361e-05	2.2758e-05	562.1	187.62	1.1138e-05	8.436e-06	200.21	66.782	70.533	33.37	1.5482e-05	32.033	0.019381	0.032182	0.00907	845.44	0.00034846	0.00036598	604.3	208.24	0.00032356	0.00037262	245.34	77.872	80.091	36.081	0.00034025	37.543	25.727	1.501	-32.160	-118.056	219.164	-118.609	-119.124	-111.999	163.485	-110.967	-115.878	-111.251	-108.482	-103.870	-62.014	-108.089	-8191	255	
1362.914	1	1	0	0	0.1296	0.13914	0.10589	0.17767	0.092774	0.1442	0.19587	0.18592	0.162	0.019792	0.13743	0.21126	0.032494	0.069527	0.16026	0.17609	-3.2042	-3.0438	-3.1854	-3.4646	-2.9	-3.3458	-3.3208	-2.8937	-3.4042	-3.0938	-3.0833	-3.5896	-3.0854	-3.3708	-3.1875	-2.8708	51.014	117.467	74.391	7.303	185.623	95.436	193.133	-86.345	212.933	198.663	218.210	97.545	-10.276	-113.361	-96.695	85.334	0.00065672	0.0017238	4.5309e-05	537.19	2.7898e-06	5.5517e-06	554.81	183.61	3.0165e-05	2.33e-05	196.78	65.564	69.171	32.45	1.8589e-05	31.77	0.019747	0.032789	0.0092357	840.96	0.00035625	0.00037028	600.07	206.03	0.00032917	0.00037425	242.64	76.734	79.193	35.496	0.00034442	37.236	-53.353	-32.989	-24.807	-118.021	-105.476	-43.522	-119.012	-112.660	78.825	32.299	-115.734	-110.973	-109.285	-103.739	-3.118	-107.762	-8191	255	
1362.986	1	1	0	0	0.16101	0.037845	0.09808	0.17456	0.17817	0.22326	0.13931	0.20441	0.16566	0.055242	0.23125	0.34516	0.075594	0.31338	0.19726	0.14005	-3.0833	-3.0604	-2.9667	-3.5312	-3.0333	-3.2229	-3.5896	-3.0917	-3.4458	-3.2396	-3.0542	-3.4833	-3.2417	-3.2208	-3.4292	-3.025	42.695	45.955	-94.702	134.724	197.500	-119.298	-126.102	128.005	-76.280	119.785	-20.009	207.869	-110.034	175.566	-23.758	12.778	0.00065104	0.00059784	0.00045646	534.51	1.6076e-05	9.9923e-06	557.1	181.33	8.411e-06	2.4087e-05	196.61	66.242	69.247	32.755	1.7738e-05	31.782	0.019856	0.032847	0.0093872	838.44	0.00035724	0.00037043	598.71	203.86	0.00032382	0.00037239	243.39	77.052	78.681	35.565	0.0003438	37.495	1.559	-79.079	18.891	-117.532	-50.572	78.720	-118.857	-112.635	-11.020	164.049	-114.929	-110.974	-108.771	-103.558	-28.713	-107.504	-8191	255	
1363.104	1	1	0	0	0.14958	0.15908	0.079294	0.095904	0.075611	0.19672	0.10401	0.26775	0.094757	0.042081	0.13612	0.19618	0.10104	0.0426	0.24364	0.19097	-2.8333	-3.1813	-2.9042	-3.35	-3.1292	-3.125	-3.6	-2.9375	-3.25	-3.3563	-3.1458	-3.4437	-3.1792	-3.2625	-3.35	-3.1958	-91.224	41.803	60.952	-30.101	227.611	79.005	68.878	138.202	-92.064	5.171	-41.532	209.865	130.354	-73.658	-82.559	-124.261	0.00043998	0.0020146	0.00039908	537.27	1.252e-05	1.5227e-05	559.18	182.41	2.7747e-05	1.867e-05	198.11	66.632	69.515	33.074	2.2879e-05	32.176	0.019731	0.032871	0.0093758	836.24	0.00035568	0.00037302	600.83	203.15	0.00032504	0.00037178	242.14	76.653	79.006	35.758	0.00034057	37.658	-7.244	46.174	21.751	-117.779	163.805	-81.140	-119.196	-111.823	-78.071	160.011	-114.948	-111.390	-108.462	-103.103	-73.914	-108.169	-8191	255	
1363.201	1	1	0	0	0.15292	0.21869	0.090817	0.073307	0.32521	0.19275	0.2256	0.035591	0.11417	0.10734	0.13407	0.022848	0.19654	0.097739	0.16523	0.084818	-2.95	-3.3979	-3.0958	-3.5833	-3.1125	-3.1542	-3.6396	-3.0771	-3.1396	-3.3271	-2.9667	-3.4062	-3.2021	-3.1208	-3.3125	-3.0021	-76.922	214.965	168.760	125.595	140.655	135.417	-112.523	204.094	96.320	101.733	47.761	64.077	-35.586	144.073	-24.795	190.662	0.00052149	0.00090373	0.00043912	538.98	9.8137e-06	3.0183e-05	560	182.28	5.4474e-06	2.7963e-05	198.28	67.332	70.026	33.421	2.2331e-05	32.808	0.019618	0.033005	0.0092856	830.71	0.00035087	0.00036873	601.48	204.14	0.00032165	0.00037153	244.13	77.704	79.19	36.214	0.00033782	37.849	-40.236	93.736	-42.342	-118.048	155.134	145.464	-118.871	-112.629	192.169	-52.688	-115.572	-110.992	-108.680	-103.404	215.590	-107.894	-8191	255	
1363.297	1	1	0	0	0.079053	0.015989	0.14222	0.059488	0.047454	0.092266	0.2241	0.081066	0.20782	0.13245	0.095696	0.25446	0.19607	0.035882	0.1055	0.24507	-2.8375	-3.5479	-3.0042	-3.3896	-3.2021	-3.0687	-3.4792	-3.0646	-3.1583	-3.5833	-2.9833	-3.5	-3.3125	-2.9604	-3.4813	-3.1396	-111.864	-85.465	-79.087	180.303	-8.242	101.864	100.611	190.763	20.913	38.045	-102.662	156.602	-96.818	-1.905	63.645	36.290	0.00018414	0.0011914	0.00029546	542.56	1.8821e-05	1.5483e-05	553.54	183.14	3.5392e-05	1.6261e-05	196.65	66.634	69.103	32.984	2.2397e-05	31.575	0.01952	0.032577	0.0092554	836.1	0.00035013	0.00037493	598.59	204.03	0.00032431	0.00037897	244.54	77.516	79.25	35.861	0.00035059	37.471	-49.401	-7.695	-36.986	-117.661	54.683	-78.536	-118.961	-112.658	69.890	-7.018	-115.103	-111.134	-108.710	-103.255	-12.279	-107.845	-8191	255	
1363.393	1	1	0	0	0.10474	0.17064	0.22422	0.20477	0.035008	0.35257	0.069178	0.052756	0.12792	0.23036	0.031165	0.18657	0.18431	0.32344	0.29168	0.12281	-2.8812	-3.2292	-3.0021	-3.4396	-3.2583	-2.9083	-3.5021	-3.0771	-3.0229	-3.4396	-3.1854	-3.2042	-3.5208	-3.0479	-3.2854	-3.2938	167.839	-32.643	-17.337	39.891	-12.413	151.600	118.018	-111.318	89.391	174.800	151.521	-27.411	-27.191	219.883	2.312	133.610	1.0651e-05	0.00069983	0.00030718	533.45	1.1685e-05	1.0506e-05	556.76	181.66	1.2554e-05	2.1771e-05	197.38	67.453	69.744	32.954	1.2615e-05	32.201	0.020325	0.034481	0.0096415	847.62	0.00036632	0.00038913	603.5	204.62	0.00033603	0.00038823	245.18	78.327	79.934	35.806	0.00034604	37.677	175.124	-7.740	-63.295	-117.555	48.027	-116.527	-118.693	-112.582	63.488	12.343	-114.650	-110.589	-108.739	-103.580	-40.687	-108.004	-8191	255	
1363.513	1	1	0	0	0.065185	0.25418	0.23443	0.10714	0.24326	0.014054	0.21358	0.2344	0.18481	0.081884	0.12474	0.23889	0.29685	0.18243	0.13135	0.08882	-2.5146	-3.3021	-3.0979	-3.2292	-3.3937	-2.95	-3.5312	-3.1854	-3.05	-3.4813	-2.9833	-3.3792	-3.5042	-3.0646	-3.4417	-3.3146	124.119	-97.363	49.604	173.843	-88.925	90.749	32.508	-103.126	-27.590	-18.933	12.236	85.850	155.672	208.699	185.689	-17.651	0.00036998	0.0020788	0.00011626	545.76	1.8301e-05	1.4049e-05	557.6	182.55	2.4331e-05	2.1854e-05	198.8	68.187	70.469	33.056	2.8755e-05	32.414	0.020296	0.033575	0.0094058	843.22	0.00036452	0.00038233	604.48	204.33	0.00033252	0.00038301	245.45	78.688	80.018	36.023	0.00033954	37.849	-67.093	199.753	194.262	-117.997	-8.452	147.121	-119.479	-112.535	-107.161	13.243	-115.596	-111.188	-108.872	-103.275	144.488	-107.415	-8191	255	
1363.610	1	1	0	0	0.17078	0.088969	0.27481	0.3454	0.1115	0.32237	0.22807	0.092652	0.052371	0.034806	0.18558	0.1181	0.20598	0.14451	0.12113	0.030789	-2.6333	-3.5396	-3.0833	-3.2792	-3.4125	-3.0229	-3.375	-3.2	-2.9125	-3.4958	-3.1688	-3.2646	-3.4333	-3.1125	-3.4208	-3.4542	146.065	173.521	156.898	-112.490	-130.339	71.731	166.947	96.647	173.853	-114.028	150.340	91.387	-90.941	-81.106	179.477	91.035	0.00021879	0.0016	0.00029548	543.56	2.0576e-05	2.1322e-05	567.98	184.41	2.329e-05	1.3086e-05	202.87	68.654	71.642	33.485	1.268e-05	32.86	0.019846	0.033053	0.0091699	834.18	0.0003521	0.00036912	604.18	205.41	0.00032244	0.00036571	245.36	78.915	80.515	36.043	0.00033325	38.03	177.199	-101.444	-50.936	-118.725	-29.014	110.594	-119.002	-112.469	15.404	127.535	-114.715	-110.981	-108.425	-102.863	190.663	-107.970	-8191	255	
1363.706	1	1	0	0	0.13479	0.13246	0.29277	0.22114	0.2354	0.25133	0.096334	0.2357	0.15774	0.24119	0.11719	0.20683	0.09627	0.038236	0.2148	0.18119	-2.5542	-3.3646	-2.9792	-3.2229	-3.2854	-2.9708	-3.3937	-3.4521	-3.0083	-3.5229	-3.0979	-3.1333	-3.5583	-3.0729	-3.2604	-3.5542	83.627	77.591	-86.894	-121.983	61.826	-18.341	-39.606	214.013	207.616	129.838	224.644	190.251	70.493	11.277	-92.243	-86.364	0.00016041	0.0016748	0.00034362	531.09	2.237e-05	8.2059e-06	565.91	182.78	2.6442e-05	3.604e-06	199.17	67.955	70.234	32.649	2.3032e-05	32.088	0.019752	0.0327	0.009126	836.18	0.00035456	0.0003694	605.06	203.99	0.00032807	0.00037002	244.79	77.949	79.552	35.434	0.00033426	37.377	-2.925	-41.489	174.828	-117.163	64.573	7.469	-119.029	-112.535	57.198	-111.181	-114.835	-111.033	-108.761	-103.617	-106.176	-108.155	-8191	255	
1363.802	1	1	0	0	0.25027	0.054022	0.097614	0.073563	0.10696	0.25718	0.15385	0.067002	0.17809	0.18208	0.15605	0.14841	0.011126	0.2086	0.1745	0.16889	-2.5208	-3.3604	-3.2375	-2.9375	-3.5	-2.9062	-3.2542	-3.4062	-2.8812	-3.4125	-3.4167	-3.1958	-3.6604	-3.0438	-3.175	-3.3958	-67.425	17.434	194.413	147.421	-40.926	89.670	36.842	111.537	74.648	-80.818	189.194	213.563	199.143	203.903	22.217	-58.953	0.00025654	4.1678e-05	0.00059054	536.76	7.4988e-06	4.2456e-06	554.05	180.99	1.9558e-05	5.3334e-06	197.45	66.463	69.175	32.691	8.6044e-06	31.711	0.019748	0.032677	0.0091719	836.21	0.00035481	0.00036927	601.08	203.43	0.00032447	0.00037257	243.38	77.414	78.579	35.37	0.00033763	37.26	16.579	44.158	226.867	-117.541	116.452	-108.584	-119.206	-112.221	23.021	-48.339	-115.412	-111.188	-109.190	-103.956	83.599	-107.667	-8191	255	
1363.898	1	1	0	0	0.1223	0.056751	0.10388	0.15737	0.091726	0.12714	0.10462	0.3481	0.11432	0.19007	0.14559	0.3233	0.17175	0.31314	0.073132	0.21645	-2.4833	-3.2771	-3.3083	-3.0208	-3.5917	-3.2396	-3.3125	-3.2042	-3.0271	-3.5396	-3.4313	-3.1875	-3.5	-3.2687	-3.2062	-3.575	157.645	3.945	-111.875	-79.194	-91.215	-127.948	-27.490	-120.439	140.416	8.235	143.237	221.228	-20.642	189.324	93.089	148.241	0.00056195	0.0020446	0.0005062	527.23	2.4156e-05	1.5202e-05	554.16	180.21	1.5754e-05	2.2107e-05	196.91	67.079	69.097	32.909	2.3532e-05	32.155	0.019492	0.032344	0.0091126	828.46	0.00034973	0.00036283	598.74	201.36	0.00031872	0.00036489	241.8	77.295	78.44	35.569	0.00033633	37.641	18.613	-82.697	143.547	-117.020	24.869	61.801	-118.652	-112.357	25.360	45.438	-115.145	-110.555	-108.433	-103.702	-6.026	-107.733	-8191	255	
1363.994	1	1	0	0	0.076891	0.26925	0.11589	0.082222	0.18449	0.11271	0.17419	0.092824	0.13927	0.1078	0.11958	0.068018	0.16013	0.15978	0.017918	0.20826	-2.8729	-3.0375	-3.35	-3.1354	-3.5604	-3.2687	-3.2625	-3.5083	-2.8646	-3.2583	-3.4437	-3.1188	-3.375	-3.375	-3.0563	-3.4854	126.146	86.620	-121.124	182.452	49.428	171.745	122.670	160.568	-21.684	37.699	161.282	228.248	-103.446	-80.654	-114.251	193.852	0.00045492	0.00085976	0.0001157	533.91	1.507e-05	6.5964e-06	556.53	183.1	8.7779e-06	1.494e-05	195.67	67.875	70.122	33.207	1.4511e-05	32.292	0.019129	0.032093	0.0092169	833.21	0.00034423	0.00036194	600.53	201.7	0.00031517	0.00036348	242.2	77.653	79.119	35.753	0.00033159	37.708	-33.344	48.001	-14.681	-117.437	161.282	67.703	-118.851	-112.103	168.198	-105.016	-115.295	-111.289	-108.411	-103.640	109.135	-107.842	-8191	255	
#DATA ENDS
