BOXY.EXE: ISS Imagent and Oximeter Data Acquisition Program Version 0.80
Ascii Record File

#ACQ INFORMATION
2  Detector Channels 
16  External MUX Channels 
1  Auxiliary Channels 
5000  Waveform (CCF) Frequency (Hz)
1  Waveforms Skipped 
30  Waveforms Averaged 
1  Cycles Averaged 
16  Acquisitions per Waveform 
10.0806  Updata Rate (Hz) 

#FILE INFORMATION
TRUE -- External MUX Channel results are PARSED.
FALSE -- AC DC and Phase are NOT grouped.
TRUE -- Companion Program Settings File CREATED.
FALSE -- AC data not excluded
FALSE -- DC data not excluded
FALSE -- Phase data not excluded
FALSE -- Auxillary Chn. data not excluded
Tab delimiters

#CALIBRATION STATE
TRUE -- Waveform Calibration Values APPLIED.


#AUX CALIBRATION VALUES
Val Type	aux-1	

Term	1.0000e+00	
Factor	0.0000e+00	


#WF CALIBRATION VALUES
A = Detector Channel
Val Type	A-AC1	A-AC2	A-AC3	A-AC4	A-AC5	A-AC6	A-AC7	A-AC8	A-AC9	A-AC10	A-AC11	A-AC12	A-AC13	A-AC14	A-AC15	A-AC16	A-DC1	A-DC2	A-DC3	A-DC4	A-DC5	A-DC6	A-DC7	A-DC8	A-DC9	A-DC10	A-DC11	A-DC12	A-DC13	A-DC14	A-DC15	A-DC16	A-Ph1	A-Ph2	A-Ph3	A-Ph4	A-Ph5	A-Ph6	A-Ph7	A-Ph8	A-Ph9	A-Ph10	A-Ph11	A-Ph12	A-Ph13	A-Ph14	A-Ph15	A-Ph16	

Term	0.00000e+00	0.00000e+00	0.00000e+00	0.00000e+00	0.00000e+00	0.00000e+00	0.00000e+00	0.00000e+00	0.00000e+00	0.00000e+00	0.00000e+00	0.00000e+00	0.00000e+00	0.00000e+00	0.00000e+00	0.00000e+00	0.00000e+00	0.00000e+00	0.00000e+00	0.00000e+00	0.00000e+00	0.00000e+00	0.00000e+00	0.00000e+00	0.00000e+00	0.00000e+00	0.00000e+00	0.00000e+00	0.00000e+00	0.00000e+00	0.00000e+00	0.00000e+00	0.00000e+00	0.00000e+00	0.00000e+00	0.00000e+00	0.00000e+00	0.00000e+00	0.00000e+00	0.00000e+00	0.00000e+00	0.00000e+00	0.00000e+00	0.00000e+00	0.00000e+00	0.00000e+00	0.00000e+00	0.00000e+00	
Factor	1.00000e+00	1.00000e+00	1.00000e+00	1.00000e+00	1.00000e+00	1.00000e+00	1.00000e+00	1.00000e+00	1.00000e+00	1.00000e+00	1.00000e+00	1.00000e+00	1.00000e+00	1.00000e+00	1.00000e+00	1.00000e+00	1.00000e+00	1.00000e+00	1.00000e+00	1.00000e+00	1.00000e+00	1.00000e+00	1.00000e+00	1.00000e+00	1.00000e+00	1.00000e+00	1.00000e+00	1.00000e+00	1.00000e+00	1.00000e+00	1.00000e+00	1.00000e+00	X	X	X	X	X	X	X	X	X	X	X	X	X	X	X	X	

B = Detector Channel
Val Type	B-AC1	B-AC2	B-AC3	B-AC4	B-AC5	B-AC6	B-AC7	B-AC8	B-AC9	B-AC10	B-AC11	B-AC12	B-AC13	B-AC14	B-AC15	B-AC16	B-DC1	B-DC2	B-DC3	B-DC4	B-DC5	B-DC6	B-DC7	B-DC8	B-DC9	B-DC10	B-DC11	B-DC12	B-DC13	B-DC14	B-DC15	B-DC16	B-Ph1	B-Ph2	B-Ph3	B-Ph4	B-Ph5	B-Ph6	B-Ph7	B-Ph8	B-Ph9	B-Ph10	B-Ph11	B-Ph12	B-Ph13	B-Ph14	B-Ph15	B-Ph16	

Term	0.00000e+00	0.00000e+00	0.00000e+00	0.00000e+00	0.00000e+00	0.00000e+00	0.00000e+00	0.00000e+00	0.00000e+00	0.00000e+00	0.00000e+00	0.00000e+00	0.00000e+00	0.00000e+00	0.00000e+00	0.00000e+00	0.00000e+00	0.00000e+00	0.00000e+00	0.00000e+00	0.00000e+00	0.00000e+00	0.00000e+00	0.00000e+00	0.00000e+00	0.00000e+00	0.00000e+00	0.00000e+00	0.00000e+00	0.00000e+00	0.00000e+00	0.00000e+00	5.32887e+00	-1.29929e+02	-1.28731e+02	-1.84746e+02	-7.04180e+01	-6.91937e+01	-1.57922e+02	-1.62015e+02	-2.77445e+01	-6.81129e+01	-1.79083e+02	-1.70094e+02	-1.79662e+02	-1.77090e+02	-5.99893e+01	-1.50031e+02	
Factor	3.72528e-05	1.74124e-04	4.89623e-05	5.67296e-01	1.96177e-06	1.72426e-06	1.76438e-01	6.39805e-02	2.34682e-06	1.97558e-06	1.09870e-01	2.83453e-02	2.58785e-02	9.19466e-03	2.23646e-06	1.37262e-02	1.53627e-05	2.58478e-05	7.28226e-06	2.83297e-01	2.78559e-07	2.92575e-07	8.32134e-02	3.23121e-02	2.55711e-07	2.93603e-07	5.34728e-02	1.39108e-02	1.31685e-02	4.70685e-03	2.66657e-07	6.77598e-03	X	X	X	X	X	X	X	X	X	X	X	X	X	X	X	X	



#DISTANCE SETTINGS
A = Detector Channel
A-1	A-2	A-3	A-4	A-5	A-6	A-7	A-8	A-9	A-10	A-11	A-12	A-13	A-14	A-15	A-16	

2.5000e+00	3.0000e+00	2.5000e+00	3.0000e+00	2.0000e+00	3.0000e+00	1.5000e+00	3.0000e+00	3.0000e+00	3.0000e+00	3.0000e+00	3.0000e+00	3.0000e+00	3.0000e+00	1.5000e+00	3.0000e+00	

B = Detector Channel
B-1	B-2	B-3	B-4	B-5	B-6	B-7	B-8	B-9	B-10	B-11	B-12	B-13	B-14	B-15	B-16	

1.0000e+01	1.0000e+01	1.0000e+01	1.4400e+00	1.0000e+01	1.0000e+01	1.5100e+00	1.9400e+00	1.0000e+01	1.0000e+01	1.9900e+00	2.4900e+00	2.4100e+00	2.9000e+00	1.0000e+01	2.9800e+00	




#DATA BEGINS
time	group	step	mark	flag	A-AC1	A-AC2	A-AC3	A-AC4	A-AC5	A-AC6	A-AC7	A-AC8	A-AC9	A-AC10	A-AC11	A-AC12	A-AC13	A-AC14	A-AC15	A-AC16	A-DC1	A-DC2	A-DC3	A-DC4	A-DC5	A-DC6	A-DC7	A-DC8	A-DC9	A-DC10	A-DC11	A-DC12	A-DC13	A-DC14	A-DC15	A-DC16	A-Ph1	A-Ph2	A-Ph3	A-Ph4	A-Ph5	A-Ph6	A-Ph7	A-Ph8	A-Ph9	A-Ph10	A-Ph11	A-Ph12	A-Ph13	A-Ph14	A-Ph15	A-Ph16	B-AC1	B-AC2	B-AC3	B-AC4	B-AC5	B-AC6	B-AC7	B-AC8	B-AC9	B-AC10	B-AC11	B-AC12	B-AC13	B-AC14	B-AC15	B-AC16	B-DC1	B-DC2	B-DC3	B-DC4	B-DC5	B-DC6	B-DC7	B-DC8	B-DC9	B-DC10	B-DC11	B-DC12	B-DC13	B-DC14	B-DC15	B-DC16	B-Ph1	B-Ph2	B-Ph3	B-Ph4	B-Ph5	B-Ph6	B-Ph7	B-Ph8	B-Ph9	B-Ph10	B-Ph11	B-Ph12	B-Ph13	B-Ph14	B-Ph15	B-Ph16	aux-1	digaux	

704.580	1	1	0	256	0.17573	0.027893	0.19521	0.070616	0.14779	0.17323	0.1237	0.083574	0.084903	0.057232	0.26118	0.32489	0.25146	0.18361	0.12345	0.23692	-3.2229	-3.2812	-3.4917	-3.7917	-3.2083	-3.6375	-3.5646	-3.3896	-3.7333	-3.3292	-3.4396	-3.5833	-3.3563	-3.4521	-3.5854	-3.3354	473.386	219.841	439.397	442.392	461.925	183.848	482.453	193.705	351.420	230.036	340.945	457.264	239.609	433.589	303.710	332.635	0.00066717	0.0002465	8.269e-05	1219.9	4.625e-06	2.1309e-06	1283.4	260.05	4.1901e-06	3.8249e-06	320.87	89.981	70.668	20.48	4.1981e-06	28.747	0.00046741	0.00047862	0.00013122	1210.7	5.2259e-06	4.9799e-06	1274.5	258.86	4.9906e-06	5.3974e-06	322.33	90.109	70.647	20.892	4.7848e-06	29.48	322.330	235.628	202.345	144.231	265.126	290.545	144.238	151.885	338.909	290.105	151.302	157.617	158.077	164.724	278.706	164.038	-8191	255	
704.676	1	1	0	0	0.12357	0.17629	0.25903	0.13494	0.015281	0.43082	0.10747	0.21951	0.18645	0.10776	0.19588	0.23289	0.092963	0.10799	0.13408	0.31319	-3.4167	-3.4062	-3.3438	-3.6562	-3.2917	-3.5563	-3.7521	-3.1979	-3.6146	-3.3083	-3.5187	-3.7354	-3.3458	-3.5625	-3.5958	-3.1333	329.795	155.800	429.935	138.619	167.654	389.523	374.322	451.832	209.585	191.963	451.772	143.812	303.509	250.960	352.259	361.230	0.00063733	0.00036679	6.9614e-05	1217.2	3.4467e-06	3.1544e-06	1290.6	260.03	6.6287e-06	3.0955e-06	321.02	89.928	71.13	20.613	2.4609e-06	29.048	0.00045934	0.0004567	0.00013507	1208.1	5.2236e-06	5.1591e-06	1277.3	259.05	4.7402e-06	5.3344e-06	322.89	90.325	70.989	20.977	5.2798e-06	29.58	321.644	229.194	249.764	144.265	287.764	242.978	144.170	151.518	319.914	300.617	151.178	157.663	157.789	164.844	280.566	164.178	-8191	255	
704.772	1	1	0	0	0.12433	0.1234	0.34728	0.20074	0.023559	0.31648	0.22939	0.19603	0.021939	0.21298	0.10082	0.15164	0.14142	0.10165	0.12685	0.25651	-3.2646	-3.4938	-3.35	-3.7479	-3.3125	-3.4938	-3.7917	-3.5458	-3.5583	-3.4604	-3.3125	-3.8833	-3.2333	-3.475	-3.6979	-3.2792	147.478	416.946	178.502	394.990	308.564	489.010	408.431	398.690	380.731	473.040	485.149	471.979	472.429	134.644	394.596	413.469	0.00070956	0.00032064	9.084e-05	1233.1	4.696e-06	4.0996e-06	1304.6	261.63	6.2735e-06	1.9792e-06	324.54	90.764	71.48	20.828	6.4151e-06	29.054	0.0004951	0.000528	0.00015434	1225.2	6.0372e-06	6.1739e-06	1291.4	261.68	5.7998e-06	6.003e-06	325.85	91.005	71.503	21.236	5.6787e-06	29.817	321.450	241.148	232.480	144.188	285.345	273.188	144.416	151.686	317.792	234.773	151.087	157.669	157.813	164.654	294.269	164.260	-8191	255	
704.893	1	1	0	0	0.11996	0.33661	0.38401	0.086954	0.13422	0.046267	0.09983	0.26462	0.14982	0.19536	0.19299	0.22501	0.22028	0.27089	0.17719	0.11675	-3.3438	-3.5042	-3.1708	-3.775	-3.3271	-3.3417	-3.875	-3.2625	-3.6771	-3.5875	-3.2354	-3.7125	-3.475	-3.4625	-3.6125	-3.3521	379.385	487.352	439.034	325.783	227.607	157.771	477.128	399.807	297.855	152.840	462.937	401.536	486.649	484.365	420.764	479.015	0.00064081	0.00033099	6.7465e-05	1240.3	3.9392e-06	4.2413e-06	1305.2	263.2	6.3375e-06	3.8711e-06	322.77	90.965	71.153	20.834	3.256e-06	29.199	0.00050879	0.00051809	0.00015071	1229.7	5.9153e-06	5.6022e-06	1293.9	262.11	5.4285e-06	5.3515e-06	325.22	91.151	71.527	21.21	4.9287e-06	29.725	322.290	215.348	238.262	144.676	289.995	282.841	144.456	151.809	309.953	282.729	151.139	158.043	158.156	164.986	299.318	163.960	-8191	255	
704.989	1	1	0	0	0.072842	0.099119	0.10596	0.17456	0.19131	0.10277	0.18309	0.15972	0.31964	0.13757	0.19537	0.10271	0.25188	0.20664	0.090802	0.24979	-3.2083	-3.6271	-3.1312	-3.6167	-3.2792	-3.1688	-3.8729	-3.3208	-3.6625	-3.6958	-3.2313	-3.9	-3.3063	-3.2667	-3.6979	-3.1667	377.235	220.751	279.854	409.206	416.448	349.567	465.013	162.073	233.349	207.773	447.051	370.059	412.906	329.135	480.722	289.083	0.00066354	0.00051842	7.43e-05	1224.6	4.6004e-06	4.0137e-06	1302.7	263.19	7.9397e-06	2.558e-06	324.58	90.659	70.895	20.798	5.1463e-06	29.073	0.00047599	0.00047797	0.00013496	1226.5	5.1795e-06	5.3212e-06	1291.5	262.01	4.7498e-06	4.7656e-06	325.2	90.84	71.267	21.17	3.9432e-06	29.728	319.791	227.698	216.143	144.224	291.883	286.981	144.148	151.898	306.659	256.253	150.980	157.657	158.272	164.780	300.262	164.381	-8191	255	
705.084	1	1	0	0	0.14207	0.2556	0.12305	0.084232	0.083335	0.34196	0.42733	0.20266	0.17558	0.19192	0.067286	0.035263	0.2412	0.06002	0.12106	0.24981	-3.0833	-3.5625	-3.3417	-3.7042	-3.425	-3.3042	-3.7646	-3.4104	-3.4667	-3.7729	-3.0583	-3.6562	-3.5104	-3.4042	-3.6021	-3.3646	462.174	207.753	213.868	468.386	151.756	151.731	395.560	256.330	314.199	377.715	156.575	472.260	218.707	229.305	170.097	371.404	0.00062294	0.00035032	9.2202e-05	1237.3	3.1583e-06	2.2652e-06	1303.9	262.21	4.2831e-06	3.2043e-06	326.13	90.647	71.624	20.783	3.526e-06	29.199	0.00040359	0.00033785	9.8826e-05	1226.7	3.9109e-06	4.1119e-06	1293.4	261.49	4.7072e-06	4.927e-06	325.86	91.353	71.857	21.29	5.5004e-06	29.936	321.401	213.779	227.494	144.514	263.775	305.721	144.224	151.671	312.120	275.824	150.952	157.812	158.263	164.935	313.872	164.010	-8191	255	
705.157	1	1	0	0	0.09537	0.072298	0.20326	0.2598	0.12143	0.10667	0.38941	0.20969	0.082745	0.16865	0.07912	0.079557	0.078776	0.12463	0.018526	0.20492	-3.0271	-3.6646	-3.2188	-3.6958	-3.5021	-3.2687	-3.9313	-3.2687	-3.25	-3.45	-3.3063	-3.4688	-3.6729	-3.1813	-3.575	-3.4458	219.501	174.961	217.247	437.395	173.472	462.782	423.802	156.182	316.770	299.866	264.257	447.064	278.342	215.897	185.650	440.560	0.00065737	0.0002794	8.7804e-05	1244.5	2.8802e-06	2.3409e-06	1307.7	263.12	6.2229e-06	4.0246e-06	325.39	90.714	71.636	20.805	6.2741e-06	29.272	0.00050579	0.00051593	0.0001513	1234.6	5.9693e-06	6.1617e-06	1298.5	262.84	5.8259e-06	5.8763e-06	326.77	91.303	71.72	21.294	5.6859e-06	29.94	323.146	239.625	245.066	144.389	271.327	288.255	144.370	151.734	313.775	302.533	151.305	157.520	157.744	164.739	279.092	164.355	-8191	255	
705.276	1	1	0	0	0.3462	0.10354	0.36839	0.036964	0.08166	0.10537	0.17735	0.096897	0.1672	0.18932	0.20673	0.30234	0.063018	0.23247	0.064368	0.046238	-3.0042	-3.6854	-3.3104	-3.5458	-3.5438	-3.2708	-3.9083	-3.4646	-3.2104	-3.7917	-3.3417	-3.5	-3.6458	-3.2208	-3.6208	-3.4646	407.476	238.442	457.053	405.592	436.347	172.679	360.364	447.411	320.294	139.495	174.236	453.734	261.010	247.575	218.276	406.520	0.00063142	0.00023141	8.6817e-05	1238.1	4.0852e-06	2.2382e-06	1309.8	261.34	6.1854e-06	3.431e-06	326.1	90.109	71.388	20.88	5.4639e-06	29.192	0.00049753	0.00051723	0.00015467	1230.6	5.9287e-06	6.0094e-06	1296	262.2	5.9064e-06	5.7822e-06	326.61	91.148	71.622	21.286	5.5204e-06	29.861	320.725	265.227	242.560	144.356	251.936	315.470	144.420	151.725	317.149	254.980	151.220	157.804	157.867	164.815	263.622	164.176	-8191	255	
705.372	1	1	0	0	0.15732	0.1402	0.20919	0.12423	0.15473	0.052788	0.17452	0.31387	0.16008	0.14039	0.18319	0.12725	0.18817	0.1231	0.26652	0.15423	-2.7417	-3.7083	-3.2167	-3.5354	-3.7479	-3.2354	-3.6979	-3.5438	-3.2938	-3.7812	-3.2604	-3.4	-3.6375	-3.2271	-3.5958	-3.3625	176.504	290.112	389.250	256.710	162.309	411.120	453.883	487.739	172.879	306.208	492.844	136.891	175.785	402.835	466.716	370.922	0.00065324	0.00033336	7.7002e-05	1233.1	4.7386e-06	2.351e-06	1306.3	262.07	7.6381e-06	3.9332e-06	324.69	90.936	71.375	20.759	6.7335e-06	29.229	0.00050028	0.00050161	0.0001449	1228.8	5.4394e-06	5.9332e-06	1293.9	261.44	5.3167e-06	5.2457e-06	325.12	91.225	71.536	21.242	5.0193e-06	29.885	320.733	206.530	235.611	144.610	272.806	313.328	144.359	151.705	342.239	281.231	151.450	157.832	158.156	164.493	290.571	164.423	-8191	255	
705.468	1	1	0	0	0.10905	0.11965	0.053624	0.13824	0.072173	0.030197	0.21725	0.2492	0.13508	0.20007	0.27713	0.36073	0.10402	0.043321	0.23314	0.12595	-2.7833	-3.7021	-3.3979	-3.2375	-3.6104	-3.3292	-3.6813	-3.6583	-3.3312	-3.8104	-3.5458	-3.2917	-3.5979	-3.1333	-3.5979	-3.7792	439.912	378.760	146.318	412.461	152.078	213.335	453.320	141.616	424.382	394.466	137.496	454.334	455.376	438.957	456.692	451.313	0.00071259	0.00022103	9.604e-05	1240.8	4.3085e-06	2.4376e-06	1306.9	262.89	8.177e-06	4.0264e-06	324.79	90.773	71.261	20.796	3.7946e-06	29.047	0.00048722	0.00046849	0.0001349	1230.7	5.1179e-06	5.2773e-06	1296.5	262.01	4.7434e-06	4.2102e-06	325.77	91.422	71.663	21.287	3.6215e-06	29.795	321.685	215.788	233.458	144.431	270.467	278.728	144.294	151.625	311.217	267.748	151.313	157.544	157.773	164.725	298.658	164.113	-8191	255	
705.564	1	1	0	0	0.16203	0.16316	0.18191	0.15136	0.21876	0.044486	0.31144	0.24857	0.12689	0.036488	0.13535	0.11786	0.14193	0.093552	0.34764	0.28117	-2.7667	-3.6104	-3.4458	-3.1521	-3.675	-3.2812	-3.7125	-3.7125	-3.0854	-3.6021	-3.3375	-3.1813	-3.7458	-3.3792	-3.4521	-3.7146	409.247	251.017	157.836	136.815	361.011	450.242	401.845	145.686	418.497	374.656	347.483	396.731	172.472	190.788	320.064	270.381	0.00064388	0.00044752	8.5199e-05	1243.7	2.3057e-06	3.3583e-06	1309.6	263.65	5.8058e-06	3.0521e-06	326.27	91.474	71.595	20.922	3.5279e-06	29.153	0.00038704	0.00029542	8.7402e-05	1231.3	3.2168e-06	3.1842e-06	1296.5	261.68	3.3472e-06	3.0706e-06	325.46	91.511	71.732	21.29	2.5516e-06	29.816	319.728	224.715	218.107	144.369	284.824	281.807	144.347	151.545	311.046	285.069	151.096	157.704	158.051	164.693	279.516	164.184	-8191	255	
705.685	1	1	0	0	0.12706	0.098132	0.076322	0.28177	0.17757	0.10848	0.25507	0.171	0.051989	0.20963	0.2535	0.26359	0.21677	0.19222	0.13605	0.24761	-2.7021	-3.5167	-3.4917	-3.1208	-3.7396	-3.3708	-3.5	-3.6312	-3.3688	-3.4021	-3.7313	-3.2458	-3.7812	-3.2583	-3.2792	-3.675	398.828	281.916	259.831	297.068	467.829	419.629	421.412	220.170	245.361	471.646	462.582	332.134	270.275	372.942	210.563	466.090	0.00069589	0.00037567	9.09e-05	1232.4	4.3028e-06	1.8805e-06	1308.2	262.4	7.2459e-06	4.0314e-06	325.48	91.092	71.549	20.695	5.7063e-06	29.083	0.00034905	0.00024625	6.7042e-05	1224.5	2.7003e-06	2.61e-06	1294.3	261.33	2.8283e-06	2.4913e-06	324.77	91.17	71.47	21.134	2.6082e-06	29.709	319.573	210.112	207.052	144.391	277.781	316.395	144.114	151.755	311.634	294.504	151.125	157.869	157.930	164.592	290.363	164.227	-8191	255	
705.781	1	1	0	0	0.16896	0.30747	0.24251	0.10588	0.091556	0.10846	0.24909	0.27295	0.2318	0.16529	0.013524	0.14888	0.31137	0.26201	0.1871	0.18009	-2.8563	-3.4354	-3.6	-3.2188	-3.7521	-3.5042	-3.5521	-3.7542	-3.2646	-3.4604	-3.6208	-3.2958	-3.8312	-3.5021	-3.2208	-3.9021	297.143	213.729	460.087	447.732	153.466	402.720	156.960	411.060	260.943	196.611	265.062	382.182	454.639	466.748	189.867	148.968	0.00066433	0.00019859	5.1509e-05	1233.3	3.0184e-06	2.3744e-06	1304.7	261.91	6.7959e-06	2.2833e-06	321.03	91.029	71.433	20.748	4.0801e-06	29.258	0.0003368	0.00023592	5.9821e-05	1224.5	2.4548e-06	2.3595e-06	1291.8	260.51	2.8869e-06	2.3825e-06	323.62	91.018	71.297	21.12	2.3327e-06	29.707	323.873	216.777	209.970	144.264	300.355	258.834	144.331	151.702	317.547	287.451	151.373	157.584	157.964	164.990	299.979	164.129	-8191	255	
705.853	1	1	0	0	0.21537	0.11327	0.061524	0.067434	0.16332	0.10586	0.19036	0.13362	0.12748	0.13578	0.22838	0.045083	0.21733	0.15965	0.087358	0.20059	-2.9354	-3.5771	-3.6375	-3.1833	-3.7646	-3.4125	-3.3083	-3.9313	-3.3708	-3.2771	-3.8042	-3.2833	-3.6208	-3.5979	-3.3688	-4.0083	250.292	203.938	164.231	357.793	383.704	255.097	409.428	314.351	454.095	256.565	409.453	147.962	443.922	191.575	467.435	424.680	0.00066002	0.00024335	5.2597e-05	1225.4	3.7449e-06	3.4642e-06	1303	262.29	6.385e-06	2.2356e-06	322.19	90.668	70.771	20.763	4.7513e-06	28.897	0.00032854	0.00023085	5.6347e-05	1217.1	2.3997e-06	2.3558e-06	1291.2	260.42	2.7111e-06	2.4479e-06	323.26	90.778	71.077	21.168	2.6527e-06	29.596	322.511	229.570	228.128	144.465	252.379	308.182	144.296	151.696	316.517	266.966	151.124	157.623	158.136	164.896	282.978	164.098	-8191	255	
705.973	1	1	0	0	0.14944	0.12502	0.1134	0.06529	0.21885	0.047407	0.15582	0.1911	0.14335	0.22294	0.066054	0.18439	0.0099503	0.23269	0.046004	0.21577	-2.9688	-3.4417	-3.6479	-3.4646	-3.5938	-3.5729	-3.4208	-3.7062	-3.2396	-3.375	-3.7771	-3.225	-3.4417	-3.6896	-3.0687	-3.5938	489.406	224.225	482.702	397.287	146.818	311.167	429.605	459.295	376.429	326.261	413.928	155.049	372.128	460.999	193.339	467.570	0.00067069	0.00034084	9.1908e-05	1237.6	3.5927e-06	2.2436e-06	1302.7	261.57	5.1585e-06	2.8523e-06	323.97	90.571	71.423	20.666	4.8568e-06	29.077	0.00033151	0.00022159	6.5222e-05	1226.2	2.5413e-06	2.5521e-06	1292.6	260.7	2.7681e-06	2.6589e-06	324.85	91.011	71.399	21.142	2.7077e-06	29.679	322.378	242.970	241.924	144.415	267.368	265.933	144.295	151.762	314.760	259.348	151.251	157.791	158.277	164.817	286.905	164.421	-8191	255	
706.070	1	1	0	0	0.13131	0.085829	0.16824	0.12613	0.12006	0.041093	0.15123	0.23853	0.070444	0.1488	0.19213	0.090893	0.080536	0.21686	0.0078397	0.29701	-2.9562	-3.2708	-3.65	-3.3917	-3.4667	-3.4729	-3.325	-3.8063	-3.3937	-3.2562	-3.8688	-3.3042	-3.525	-3.7729	-3.2292	-3.8312	475.035	448.518	433.651	268.579	386.792	476.292	471.277	427.015	481.106	431.213	395.303	434.292	419.734	397.641	382.628	231.651	0.00064973	0.00020794	0.00011424	1234.5	3.4244e-06	2.3167e-06	1305.4	262.18	6.6578e-06	2.0508e-06	324.44	90.811	71.249	20.764	4.4316e-06	28.924	0.00034582	0.00024405	7.0941e-05	1226.3	2.8053e-06	2.5472e-06	1295.9	260.89	2.8602e-06	2.8663e-06	323.88	91.042	71.314	21.122	2.7171e-06	29.68	322.312	214.934	225.515	144.315	285.164	292.709	144.301	151.580	315.430	290.013	151.020	157.608	157.863	165.096	292.655	164.269	-8191	255	
706.166	1	1	0	0	0.042684	0.10841	0.09237	0.043094	0.060991	0.06343	0.36776	0.2205	0.23357	0.23538	0.27166	0.32649	0.22305	0.2353	0.14488	0.28528	-3.175	-3.3229	-3.7062	-3.2833	-3.3646	-3.6917	-3.45	-3.7896	-3.6292	-3.2521	-3.6917	-3.3479	-3.3937	-3.6875	-3.2062	-3.5271	265.375	363.877	157.311	412.465	241.376	341.386	422.522	451.178	268.206	285.595	444.606	142.592	396.621	241.404	484.446	462.603	0.00063429	0.00023398	5.9592e-05	1241.6	3.3653e-06	3.4247e-06	1308.9	260.99	4.7604e-06	1.6968e-06	321.01	90.871	71.335	20.791	3.6341e-06	29.019	0.00034534	0.00025751	6.5161e-05	1227.7	2.9347e-06	2.6588e-06	1294.8	260.89	2.7452e-06	2.6767e-06	323.45	91.006	71.376	21.177	2.8188e-06	29.612	321.981	253.277	253.730	144.146	264.958	288.711	144.366	151.515	307.802	269.586	150.922	157.764	158.436	164.620	305.229	163.877	-8191	255	
706.285	1	1	0	0	0.25821	0.28166	0.10034	0.055121	0.20935	0.17096	0.59577	0.19515	0.16831	0.093821	0.1004	0.094569	0.096629	0.070644	0.31209	0.17603	-3.2646	-3.1688	-3.8479	-3.4083	-3.3604	-3.9083	-3.325	-3.5583	-3.4833	-3.2125	-3.6583	-3.3271	-3.4396	-3.8625	-3.1917	-3.5812	201.179	366.864	471.374	483.778	184.875	358.168	428.687	173.778	485.516	390.632	359.602	206.081	253.175	403.470	474.622	460.913	0.00068247	0.00037643	0.00010051	1239.9	4.4842e-06	2.4001e-06	1308.2	262.28	6.0628e-06	4.2949e-06	322.59	90.542	71.345	20.777	6.2809e-06	29.338	0.00033926	0.00024868	6.6966e-05	1228.1	2.8071e-06	2.5503e-06	1293.2	260.71	2.7478e-06	2.5543e-06	323.68	91	71.483	21.174	2.721e-06	29.775	323.216	225.081	222.867	144.109	267.336	300.527	144.335	151.665	309.973	301.137	151.080	157.941	158.133	164.949	290.157	164.277	-8191	255	
706.381	1	1	0	0	0.10091	0.11072	0.16338	0.045078	0.15215	0.11487	0.17643	0.24668	0.070007	0.26448	0.082503	0.035501	0.14964	0.23277	0.12882	0.25358	-3.2479	-3.0458	-3.5625	-3.4792	-3.1875	-3.7083	-3.2958	-3.5563	-3.8271	-3.1521	-3.7271	-3.6125	-3.1917	-3.6625	-3.2562	-3.4146	306.864	253.196	421.457	438.543	213.463	413.542	442.078	432.953	144.746	351.388	151.163	383.992	479.505	156.460	381.904	381.023	0.00067991	0.00023914	9.6017e-05	1234.6	3.1129e-06	2.4964e-06	1307.8	261.69	6.5629e-06	3.5186e-06	322.19	90.254	71.173	20.798	4.6118e-06	28.907	0.00033744	0.000256	6.8878e-05	1229.2	2.8483e-06	2.4308e-06	1294.5	260.81	2.6557e-06	2.7837e-06	323.68	90.709	71.25	21.14	2.6382e-06	29.602	323.101	234.631	248.294	144.562	295.103	296.548	144.398	152.008	320.333	289.937	151.169	157.686	158.141	165.043	289.496	164.419	-8191	255	
706.452	1	1	0	0	0.11616	0.12355	0.19207	0.053436	0.12709	0.30276	0.12967	0.092553	0.080657	0.20142	0.2465	0.31629	0.15388	0.21052	0.11839	0.23059	-3.1417	-3.1896	-3.5083	-3.3458	-3.1771	-3.6042	-3.6333	-3.4938	-3.7	-3.2604	-3.6646	-3.6625	-3.2417	-3.7562	-3.2854	-3.3771	163.606	371.019	174.590	197.495	440.553	226.830	148.924	476.852	148.389	162.033	166.406	157.568	168.122	182.225	479.657	237.131	0.00064982	0.0003639	8.9512e-05	1240.8	3.9488e-06	3.3151e-06	1304.4	260.7	5.4519e-06	3.1083e-06	321.56	90.492	71.126	20.738	3.9601e-06	29.014	0.00033075	0.00026736	6.7862e-05	1223.6	2.8988e-06	2.6277e-06	1290.8	260	2.7915e-06	2.7146e-06	322.77	90.765	71.257	21.13	2.6432e-06	29.563	322.446	222.624	204.399	144.589	286.762	292.000	144.267	151.990	320.630	301.138	151.336	157.710	157.983	164.712	270.995	164.067	-8191	255	
706.573	1	1	0	0	0.12133	0.060928	0.27623	0.11555	0.12465	0.070011	0.26008	0.061852	0.054506	0.036418	0.13751	0.22406	0.1532	0.2578	0.21214	0.1485	-3.2917	-3.1917	-3.6021	-3.7625	-3.2271	-3.6396	-3.4875	-3.2667	-3.7583	-3.3021	-3.5458	-3.7146	-3.0771	-3.7062	-3.5146	-3.45	156.627	138.405	394.599	357.669	460.447	340.746	486.707	157.104	272.164	314.761	232.735	338.764	260.430	372.970	373.069	138.946	0.00069842	0.00023306	7.4332e-05	1230.7	2.9031e-06	2.3549e-06	1306.3	260.63	8.8935e-06	3.6578e-06	323.87	90.361	71.195	20.677	4.4908e-06	29.239	0.00033664	0.00024712	6.548e-05	1221.4	2.8117e-06	2.4716e-06	1290.6	259.41	2.7313e-06	2.7189e-06	323.95	90.654	71.184	21.117	2.536e-06	29.715	320.738	186.129	247.999	144.354	292.104	296.664	144.525	151.792	329.118	298.446	151.177	157.838	158.018	164.732	291.902	164.394	-8191	255	
706.669	1	1	0	0	0.25148	0.19692	0.10073	0.07851	0.20871	0.15754	0.16755	0.052493	0.23171	0.23324	0.2661	0.24964	0.20859	0.18254	0.21791	0.19319	-3.3208	-3.2896	-3.4875	-3.6792	-3.0229	-3.6042	-3.6688	-3.2771	-3.6917	-3.3083	-3.5125	-3.625	-3.4688	-3.5771	-3.4729	-3.1167	281.071	376.038	320.141	204.738	466.201	436.889	426.952	336.056	166.918	154.511	474.271	486.988	491.480	354.632	135.611	275.175	0.00067733	0.00020885	8.5971e-05	1236.8	5.7567e-06	3.2091e-06	1302.4	260.97	7.4501e-06	2.7578e-06	324.91	90.596	71.19	20.729	5.94e-06	28.867	0.00034252	0.00024787	6.2248e-05	1222.9	2.8529e-06	2.7898e-06	1291.9	259.88	2.7489e-06	2.6467e-06	323.93	90.575	71.072	21.146	2.7732e-06	29.587	318.653	199.688	243.135	144.007	274.653	285.821	144.304	151.692	300.531	312.892	151.421	157.772	158.049	165.112	280.212	164.203	-8191	255	
706.765	1	1	0	0	0.090319	0.070903	0.16541	0.17685	0.1883	0.09976	0.11499	0.15031	0.15768	0.11447	0.22009	0.32484	0.20518	0.2889	0.066089	0.10877	-3.1792	-3.4042	-3.4437	-3.6625	-3.175	-3.5708	-3.6604	-3.1521	-3.6	-3.3458	-3.3937	-3.7438	-3.1813	-3.4188	-3.5687	-3.2333	303.200	423.122	411.687	319.997	411.643	164.985	367.772	435.945	428.160	196.984	185.890	415.744	374.107	229.421	141.099	274.039	0.00067043	0.00032515	0.00010615	1229.4	3.8458e-06	3.7596e-06	1303.6	260.99	5.9154e-06	3.9415e-06	322.58	90.276	71.289	20.74	4.551e-06	29.052	0.00033497	0.00024205	7.0168e-05	1224.2	2.7183e-06	2.5107e-06	1291.9	259.81	2.8277e-06	2.733e-06	323.43	90.545	71.154	21.104	2.5338e-06	29.646	322.327	216.877	235.809	144.358	306.119	268.794	144.377	151.717	320.200	264.687	151.233	157.547	157.894	164.973	292.691	164.194	-8191	255	
706.862	1	1	0	0	0.099211	0.27291	0.20049	0.16983	0.14994	0.13222	0.15954	0.19865	0.17698	0.2571	0.1793	0.15924	0.25373	0.17592	0.35176	0.05775	-3.2313	-3.3104	-3.2146	-3.7938	-3.4354	-3.5125	-3.8333	-3.1646	-3.7958	-3.3688	-3.3854	-3.7062	-3.2208	-3.4729	-3.7167	-3.2396	310.709	183.069	436.979	410.201	467.064	329.345	395.542	469.237	415.003	383.770	480.149	234.551	471.205	486.607	360.335	192.384	0.00068862	0.00032212	7.5408e-05	1230.3	4.1176e-06	2.0587e-06	1301.7	260.77	6.0329e-06	4.1345e-06	321.41	90.384	71.286	20.872	3.7779e-06	29.054	0.00033984	0.00023974	6.8059e-05	1222.9	2.7566e-06	2.5631e-06	1290.4	259.83	2.6663e-06	2.495e-06	323.13	90.594	71.139	21.145	2.6471e-06	29.662	322.102	240.754	220.840	144.584	281.486	283.305	144.387	151.649	299.960	284.282	151.274	157.843	157.908	164.746	280.202	164.333	-8191	255	
706.982	1	1	0	0	0.066989	0.23286	0.15519	0.21935	0.14925	0.16027	0.1527	0.13	0.2179	0.15206	0.30445	0.14772	0.32993	0.2898	0.11706	0.17734	-3.3438	-3.6688	-3.1604	-3.7229	-3.1771	-3.3563	-3.8063	-3.1479	-3.6312	-3.4646	-3.2875	-3.7521	-3.3292	-3.1125	-3.7229	-3.1708	328.342	403.736	482.309	156.405	348.547	489.524	420.056	226.154	326.752	426.875	416.959	204.976	476.037	417.289	249.307	328.929	0.00067245	0.00024925	7.6703e-05	1239.2	4.961e-06	3.1654e-06	1312.2	260.41	7.3037e-06	2.1035e-06	321.89	90.795	71.607	20.607	3.823e-06	28.869	0.00033164	0.00024502	6.8726e-05	1227.2	2.7537e-06	2.624e-06	1295.4	259.82	2.8821e-06	2.4369e-06	323.42	90.614	71.291	21.069	2.6777e-06	29.554	321.813	229.765	239.363	144.554	269.523	283.408	144.168	151.713	308.942	298.027	151.293	158.041	158.173	165.202	273.234	164.766	-8191	255	
707.054	1	1	0	0	0.082437	0.32688	0.27437	0.25856	0.15145	0.11813	0.25112	0.21266	0.12945	0.15129	0.11457	0.23004	0.089892	0.12534	0.059254	0.22487	-3.2125	-3.5167	-3.0396	-3.5604	-3.3042	-3.3229	-3.9104	-3.3792	-3.4813	-3.5979	-3.1896	-3.7479	-3.3917	-3.1375	-3.8167	-3.3167	145.937	181.609	301.828	287.567	245.051	321.620	424.871	368.169	237.361	384.311	160.723	264.371	478.021	183.244	276.138	437.717	0.00066115	0.0002168	9.0543e-05	1234.6	3.5427e-06	3.178e-06	1310.8	259.77	6.1134e-06	4.3952e-06	321.21	90.324	71.449	20.69	4.2837e-06	28.949	0.00033263	0.00024496	7.0941e-05	1226.5	2.8877e-06	2.7941e-06	1292.6	259.51	2.9188e-06	2.4901e-06	322.75	90.467	71.18	21.106	2.651e-06	29.61	321.722	215.924	244.259	144.381	273.801	288.532	144.317	151.567	317.909	291.146	151.273	157.778	158.013	165.318	280.481	164.336	-8191	255	
707.150	1	1	0	0	0.094343	0.1169	0.18813	0.044691	0.17669	0.23231	0.25546	0.21697	0.12169	0.063094	0.19389	0.26118	0.16221	0.16911	0.25651	0.27905	-3.0917	-3.5625	-3.15	-3.7271	-3.3333	-3.1667	-3.9042	-3.3167	-3.5563	-3.6625	-3.1208	-3.5396	-3.5062	-3.2646	-3.5708	-3.2229	243.677	347.352	229.200	319.088	180.350	306.476	468.995	459.370	250.010	292.374	453.879	150.824	135.836	409.877	217.181	297.869	0.00068159	0.00022194	7.2929e-05	1240.4	4.2814e-06	3.8127e-06	1306.7	261.03	6.328e-06	3.3965e-06	321.75	90.517	71.043	20.579	3.6178e-06	28.949	0.00034771	0.00027269	6.953e-05	1225	3.1129e-06	2.9611e-06	1295.2	260.04	2.8895e-06	2.7599e-06	322.83	90.589	71.11	21.044	2.5566e-06	29.567	322.975	225.792	242.158	144.400	264.758	277.794	144.396	151.823	313.315	293.695	151.244	157.797	158.298	165.088	291.290	164.309	-8191	255	
707.246	1	1	0	0	0.054214	0.16571	0.14878	0.15576	0.19029	0.16286	0.13512	0.075006	0.058418	0.11152	0.21961	0.13875	0.14492	0.25617	0.11342	0.17318	-2.8396	-3.5438	-3.1458	-3.5438	-3.5125	-3.2229	-3.9083	-3.4333	-3.4	-3.7188	-3.3187	-3.5479	-3.6396	-3.0229	-3.6792	-3.5271	468.285	237.947	272.839	368.330	367.195	425.753	450.436	418.794	136.915	481.340	434.792	409.572	163.664	293.070	416.663	366.672	0.00067779	0.00027225	0.00010908	1227.6	4.0835e-06	3.1799e-06	1298.2	257.92	5.3097e-06	3.0669e-06	318.58	90.346	70.849	20.561	4.695e-06	28.803	0.0003454	0.00022913	6.3705e-05	1219.2	2.7595e-06	2.7075e-06	1286.7	258.11	2.9625e-06	2.5189e-06	320.89	90.208	70.719	21.001	2.7049e-06	29.44	323.388	205.845	245.731	144.728	293.888	285.417	144.666	151.552	320.774	276.779	151.208	157.662	158.010	164.423	289.215	164.331	-8191	255	
707.365	1	1	0	0	0.21589	0.19685	0.072289	0.21467	0.13699	0.16734	0.15158	0.1686	0.10462	0.1437	0.032067	0.12679	0.13793	0.14488	0.24007	0.12934	-3.0167	-3.6521	-3.1937	-3.475	-3.6125	-3.0062	-3.8625	-3.4062	-3.3438	-3.9271	-3.3146	-3.6146	-3.6417	-3.2396	-3.6771	-3.5375	334.002	203.999	406.238	461.511	183.044	326.591	427.651	442.617	420.410	214.308	163.876	265.050	427.761	460.974	462.752	196.799	0.00063471	0.00035514	8.1507e-05	1228	4.3496e-06	1.5844e-06	1299.7	259.93	5.4585e-06	3.6762e-06	319.81	90.185	71.024	20.613	3.7344e-06	29.107	0.0003431	0.00026241	7.1958e-05	1220.6	2.7397e-06	2.8849e-06	1288.6	258.68	2.9742e-06	2.5305e-06	322.01	90.221	70.794	20.967	2.5366e-06	29.566	322.431	224.082	234.914	144.565	311.856	255.777	144.426	151.866	319.783	282.312	151.530	157.699	158.189	164.976	276.731	164.128	-8191	255	
707.461	1	1	0	0	0.043803	0.16422	0.23635	0.091804	0.10152	0.093924	0.02654	0.21867	0.048794	0.22831	0.20537	0.18104	0.15599	0.17542	0.09887	0.19014	-2.7917	-3.5542	-3.1437	-3.3833	-3.65	-3.1521	-3.7375	-3.575	-3.3354	-3.8271	-3.5042	-3.3875	-3.7062	-3.2375	-3.5687	-3.5687	285.983	372.692	479.985	430.901	389.515	442.608	321.850	395.729	475.859	177.520	427.129	378.177	145.964	482.179	490.518	327.825	0.00066461	0.00031242	7.9148e-05	1229.7	3.7664e-06	2.2429e-06	1293.8	260.28	5.6245e-06	2.4085e-06	320.4	90.186	70.603	20.679	4.501e-06	28.693	0.00032895	0.00022988	6.4903e-05	1217.5	2.5343e-06	2.6082e-06	1284.9	258.46	2.873e-06	2.4608e-06	321.23	90.238	70.777	20.96	2.5471e-06	29.449	321.946	253.054	250.957	144.422	258.943	246.314	144.498	151.724	305.320	281.009	151.186	158.070	157.982	164.684	273.950	164.257	-8191	255	
707.557	1	1	0	0	0.23197	0.16886	0.16364	0.097114	0.22726	0.25584	0.18785	0.13818	0.10511	0.044072	0.19912	0.095984	0.22202	0.13055	0.21324	0.10497	-2.8979	-3.6875	-3.2854	-3.3354	-3.7146	-3.225	-3.6208	-3.5812	-3.1688	-3.7875	-3.5021	-3.3187	-3.8521	-3.1292	-3.4104	-3.5875	253.053	469.330	338.515	390.829	455.564	303.221	360.203	478.048	406.283	361.906	487.346	158.906	396.944	329.230	139.133	255.641	0.00069069	0.00036897	0.00011196	1229.5	2.8125e-06	2.7832e-06	1294.1	259.09	8.3919e-06	3.5033e-06	319.12	90.213	70.831	20.586	5.0812e-06	28.984	0.00035261	0.00024243	6.815e-05	1218.5	2.9429e-06	2.7362e-06	1284.4	258.27	3.133e-06	2.6693e-06	321.19	90.267	70.747	20.948	2.7649e-06	29.491	320.090	221.935	245.187	144.482	280.076	277.564	144.517	151.497	322.804	287.871	151.271	157.656	158.001	165.005	300.137	164.440	-8191	255	
707.653	1	1	0	0	0.11454	0.0067423	0.1926	0.35616	0.32868	0.22543	0.14653	0.10335	0.32007	0.11724	0.27879	0.21547	0.12427	0.2078	0.12392	0.2705	-2.8104	-3.6583	-3.3354	-3.2083	-3.7375	-3.3979	-3.6458	-3.6312	-3.2771	-3.65	-3.4625	-3.1771	-3.8229	-3.3667	-3.6188	-3.7042	169.951	383.678	291.538	341.638	387.526	423.099	174.404	390.262	254.161	169.886	460.692	463.814	281.451	194.536	418.164	137.091	0.00062895	0.00027491	8.9157e-05	1233.6	4.7423e-06	2.6478e-06	1297.1	259.38	6.4423e-06	3.6367e-06	319.95	89.779	70.556	20.564	5.4411e-06	28.761	0.00034339	0.00023694	7.4431e-05	1221.2	2.897e-06	2.6941e-06	1285.5	258.03	3.0467e-06	2.6571e-06	321.1	90.124	70.691	20.958	2.9666e-06	29.48	321.507	231.371	233.659	144.206	288.331	285.098	144.431	151.871	315.883	300.280	151.366	158.128	158.320	164.828	277.466	164.214	-8191	255	
707.750	1	1	0	0	0.21313	0.087187	0.067073	0.3158	0.31407	0.13411	0.27891	0.069814	0.32689	0.24878	0.22424	0.19357	0.0881	0.19625	0.10778	0.053128	-2.7083	-3.6354	-3.275	-3.1896	-3.7	-3.4729	-3.4583	-3.7521	-3.0896	-3.4562	-3.5479	-3.175	-3.6271	-3.3208	-3.2375	-3.7854	157.268	307.392	454.013	239.774	316.448	185.046	448.303	356.388	393.301	300.684	402.471	208.111	151.547	145.566	483.121	155.835	0.00063101	0.00027481	0.00011022	1225.8	3.1091e-06	2.2215e-06	1293	259.7	3.9417e-06	2.9361e-06	322.13	90.047	70.56	20.503	3.7784e-06	28.996	0.00034749	0.00024765	7.3536e-05	1219.5	2.9138e-06	2.8788e-06	1282.5	258.15	3.0275e-06	2.6559e-06	322.17	89.982	70.584	20.971	2.8177e-06	29.485	322.687	226.374	238.536	144.397	299.206	287.481	144.394	151.794	314.707	310.596	151.149	158.012	158.498	165.417	295.001	164.279	-8191	255	
707.846	1	1	0	0	0.21953	0.14711	0.082063	0.047543	0.086048	0.14666	0.22546	0.18409	0.13618	0.035211	0.061478	0.079172	0.19244	0.22474	0.02969	0.18664	-3.0771	-3.6146	-3.5875	-3.1188	-3.8333	-3.4688	-3.5708	-3.7979	-3.15	-3.7896	-3.6813	-3.0792	-3.7521	-3.6125	-3.1667	-3.8917	402.291	463.308	255.481	434.195	301.065	450.160	350.993	455.355	150.099	413.772	458.636	329.021	140.665	416.247	467.336	252.764	0.00062457	0.00037936	9.4817e-05	1232.8	3.9342e-06	2.2264e-06	1295.2	259.05	6.4491e-06	2.7968e-06	319.99	89.465	70.302	20.456	3.5748e-06	28.703	0.000339	0.00026004	7.4491e-05	1219.8	2.8744e-06	2.6265e-06	1284.3	257.9	3.0334e-06	2.7617e-06	321.29	89.975	70.481	20.903	2.8388e-06	29.38	322.121	230.995	221.142	144.470	285.438	258.432	144.405	151.794	312.026	286.066	151.200	157.706	158.030	164.610	308.457	164.776	-8191	255	
707.966	1	1	0	0	0.21466	0.12219	0.18761	0.05621	0.31654	0.03326	0.16319	0.28489	0.11365	0.20245	0.22602	0.21572	0.11717	0.14907	0.13646	0.24761	-2.7958	-3.3375	-3.525	-3.0708	-3.5563	-3.3812	-3.475	-3.7896	-3.3333	-3.4646	-3.6937	-3.2042	-3.6979	-3.5292	-3.3292	-3.6833	150.428	472.904	410.626	393.333	301.081	190.031	441.755	146.006	137.058	325.122	473.343	421.857	472.115	475.575	291.281	398.132	0.00064145	0.00038848	0.00011769	1227.4	3.7666e-06	3.0142e-06	1298.5	258.14	7.5029e-06	3.3994e-06	320.81	89.69	70.541	20.535	5.1935e-06	28.917	0.00034829	0.00025568	7.4567e-05	1217.9	2.9075e-06	2.7459e-06	1284	257.8	2.9876e-06	2.8571e-06	320.93	90.035	70.562	20.896	3.0393e-06	29.483	318.946	207.972	232.226	144.466	267.485	279.826	144.586	151.624	313.327	280.677	151.292	157.868	158.186	164.666	280.897	164.214	-8191	255	
708.063	1	1	0	0	0.33998	0.04129	0.15543	0.21601	0.32357	0.10201	0.31228	0.27038	0.11307	0.064899	0.043383	0.14358	0.21342	0.16675	0.13231	0.20033	-2.8625	-3.3542	-3.5979	-3.3229	-3.6312	-3.5333	-3.3417	-3.65	-3.3875	-3.3646	-3.7479	-3.2542	-3.5438	-3.6667	-3.1229	-3.5521	433.586	342.833	349.354	377.349	238.297	431.778	311.444	436.151	177.909	302.145	357.400	449.095	396.170	230.193	339.838	469.703	0.00064045	0.00038556	8.5795e-05	1221.8	4.0043e-06	2.3215e-06	1294.3	258.7	5.713e-06	1.7116e-06	320.12	89.556	70.537	20.559	3.9952e-06	28.907	0.00034252	0.00025584	6.7179e-05	1215.4	2.8407e-06	2.7063e-06	1282	257.94	2.9231e-06	2.8204e-06	321.16	89.931	70.615	20.888	2.7977e-06	29.453	324.729	205.396	238.625	144.512	260.722	260.535	144.373	151.811	302.335	324.588	151.629	157.741	158.391	165.069	275.850	164.068	-8191	255	
708.157	1	1	0	0	0.089802	0.038576	0.11678	0.25614	0.225	0.15656	0.16122	0.20946	0.1867	0.087912	0.11699	0.086359	0.14308	0.065875	0.011403	0.18674	-3.0542	-3.2417	-3.8187	-3.3208	-3.3875	-3.5792	-3.4396	-3.6146	-3.4354	-3.3583	-3.8417	-3.1917	-3.475	-3.6896	-3.2	-3.6167	213.788	165.044	411.541	184.306	186.839	279.164	491.516	467.693	282.132	445.044	272.275	459.905	135.633	378.206	460.460	367.090	0.00064517	0.00031208	9.5484e-05	1229.9	2.6327e-06	3.6472e-06	1299.9	259.81	5.9414e-06	3.1194e-06	322.59	89.758	70.568	20.585	5.8355e-06	28.729	0.00032879	0.00024313	6.422e-05	1219.6	2.6776e-06	2.4339e-06	1286.3	258.43	2.8576e-06	2.796e-06	321.55	90.078	70.583	20.903	2.7632e-06	29.397	322.366	231.396	236.635	144.230	284.339	275.508	144.568	151.680	324.408	252.959	151.243	157.702	158.540	164.882	285.085	164.348	-8191	255	
708.255	1	1	0	0	0.165	0.16452	0.14035	0.088501	0.11724	0.21159	0.15213	0.21562	0.27513	0.21345	0.076363	0.23739	0.10889	0.12344	0.063017	0.15101	-2.9271	-3.1729	-3.8708	-3.3625	-3.4625	-3.675	-3.3208	-3.55	-3.6042	-3.175	-3.7333	-3.2792	-3.2875	-3.8438	-3.0542	-3.5771	303.062	405.971	315.747	370.945	466.707	422.176	461.801	481.485	372.764	373.992	157.781	466.688	275.854	326.197	361.245	421.170	0.00064752	0.00033543	8.3844e-05	1230.5	4.274e-06	3.5902e-06	1291.5	259.64	7.1927e-06	1.9663e-06	318.96	89.512	70.495	20.657	2.4549e-06	28.873	0.00033782	0.00024625	6.1065e-05	1217.8	2.756e-06	2.6131e-06	1283.2	258.04	2.8842e-06	2.7293e-06	320.43	89.889	70.583	20.953	2.7521e-06	29.444	323.329	225.688	239.865	144.408	283.440	290.023	144.327	151.625	307.309	273.611	151.180	157.844	158.068	165.074	289.863	164.221	-8191	255	
708.349	1	1	0	0	0.20263	0.18661	0.076714	0.22101	0.10681	0.10351	0.36759	0.11426	0.15594	0.35689	0.044997	0.1219	0.16459	0.14995	0.23058	0.11343	-3.2396	-3.3229	-3.6458	-3.4854	-3.4229	-3.6042	-3.4979	-3.7167	-3.4188	-3.3146	-3.7104	-3.4896	-3.3667	-3.8479	-3.2812	-3.5875	288.997	346.714	234.248	219.194	173.541	397.729	421.314	167.062	389.816	220.776	464.475	156.938	429.281	232.148	318.624	475.873	0.00064174	0.0003795	9.1679e-05	1226.2	3.594e-06	2.7792e-06	1290.5	258.71	6.6272e-06	4.0221e-06	321	89.721	70.594	20.494	6.2414e-06	28.754	0.00034179	0.00024706	6.6329e-05	1215.3	2.8471e-06	2.5808e-06	1282.7	257.5	2.7611e-06	2.8516e-06	320.86	90.004	70.579	20.92	2.7499e-06	29.368	319.228	203.878	225.597	144.441	294.556	303.053	144.460	151.831	305.381	282.088	151.487	157.903	158.085	164.970	299.947	164.242	-8191	255	
708.445	1	1	0	0	0.13016	0.19817	0.21482	0.25056	0.056093	0.11092	0.24374	0.1949	0.11657	0.044914	0.10704	0.18833	0.21833	0.12705	0.20888	0.060218	-3.2375	-3.2604	-3.6583	-3.4313	-3.25	-3.7042	-3.2875	-3.4938	-3.5187	-3.0771	-3.5896	-3.5708	-3.2417	-3.7313	-3.375	-3.5333	288.275	396.051	296.755	403.030	150.039	443.590	407.567	339.523	360.846	378.157	411.383	361.576	205.331	446.355	438.328	141.799	0.00065046	0.00030663	6.9783e-05	1227.3	2.9906e-06	4.6213e-06	1294.5	258.83	6.316e-06	2.6565e-06	319.8	89.749	70.334	20.572	4.9878e-06	28.969	0.00032953	0.00024959	6.8438e-05	1216.4	2.6945e-06	2.429e-06	1283.6	257.73	2.7814e-06	2.7366e-06	321.17	89.897	70.561	20.933	2.7243e-06	29.514	319.485	259.454	238.481	144.389	283.991	287.912	144.342	151.841	309.286	282.118	151.246	157.821	158.328	164.810	279.177	164.178	-8191	255	
708.542	1	1	0	0	0.10643	0.21966	0.018811	0.14234	0.31043	0.20011	0.17271	0.38728	0.20651	0.13592	0.22979	0.3251	0.18486	0.21614	0.098917	0.13705	-3.15	-3.0854	-3.5292	-3.4125	-3.1646	-3.8563	-3.4938	-3.4167	-3.8333	-3.2542	-3.7104	-3.7104	-3.0521	-3.8271	-3.4021	-3.4	276.027	258.127	297.155	451.082	440.887	269.579	403.629	408.133	212.154	230.068	477.924	134.850	363.115	460.979	294.203	429.206	0.00061325	0.00029073	0.00010154	1234.1	3.4699e-06	2.7327e-06	1295.7	260.2	6.9799e-06	4.9325e-06	318.37	89.757	70.03	20.545	3.9262e-06	28.948	0.00032723	0.00026634	6.7892e-05	1217.9	2.857e-06	2.6588e-06	1283.2	257.95	2.759e-06	3.0131e-06	321.03	90.033	70.321	20.941	2.6899e-06	29.516	320.581	220.958	229.821	144.449	274.030	292.819	144.419	151.923	319.871	300.114	151.196	158.015	158.048	165.091	294.477	164.153	-8191	255	
708.662	1	1	0	0	0.24444	0.031766	0.13291	0.18095	0.25296	0.17599	0.19065	0.023809	0.048924	0.17555	0.14422	0.16958	0.10254	0.11274	0.048282	0.096588	-3.2208	-3.2958	-3.5062	-3.5458	-3.2646	-3.5604	-3.6562	-3.3354	-3.5312	-3.1375	-3.6167	-3.6771	-3.2375	-3.6937	-3.3979	-3.3146	276.777	490.556	340.837	410.223	439.290	432.869	412.171	230.974	229.455	326.511	314.759	237.098	263.278	189.593	316.152	441.606	0.00064981	0.00028062	9.2126e-05	1230.7	3.6463e-06	2.7615e-06	1293.9	260.32	8.3644e-06	3.3076e-06	319.91	89.375	70.445	20.545	4.2666e-06	29.056	0.000327	0.00024534	6.2461e-05	1219.5	2.7455e-06	2.5923e-06	1284.3	258.6	2.7446e-06	2.7972e-06	321.05	90.127	70.637	20.938	2.4927e-06	29.558	321.358	219.970	220.107	144.427	285.023	276.297	144.295	151.971	311.015	288.461	151.060	158.033	157.976	164.634	278.735	164.769	-8191	255	
708.758	1	1	0	0	0.1533	0.085705	0.13155	0.11793	0.45171	0.11731	0.20145	0.091461	0.22264	0.035496	0.18712	0.2908	0.066719	0.10288	0.24764	0.069934	-3.2854	-3.1562	-3.4938	-3.6667	-2.9792	-3.5167	-3.6542	-3.4521	-3.7479	-3.5104	-3.4833	-3.6188	-3.2938	-3.7062	-3.4917	-3.2021	342.944	392.638	417.057	387.416	202.500	139.755	419.301	362.871	399.197	482.351	407.063	177.232	206.817	247.146	347.816	386.548	0.00068384	0.00030998	0.00010592	1233.7	4.1742e-06	2.8605e-06	1295.6	258.45	6.5759e-06	4.4614e-06	320.57	89.168	70.813	20.594	4.9966e-06	28.785	0.0003423	0.00024141	6.5904e-05	1216.6	2.8953e-06	2.5552e-06	1284.3	257.85	2.6743e-06	2.6394e-06	320.78	89.781	70.71	20.954	2.5771e-06	29.492	321.630	244.057	228.901	144.274	275.953	279.660	144.499	151.874	312.315	283.989	151.311	157.999	158.054	164.694	294.515	164.248	-8191	255	
708.854	1	1	0	0	0.060282	0.079602	0.11903	0.20305	0.076051	0.043138	0.21893	0.26377	0.034126	0.14652	0.11384	0.089607	0.12161	0.2263	0.1562	0.13723	-3.4208	-3.3563	-3.4667	-3.6375	-3.2062	-3.4646	-3.6646	-3.2458	-3.5833	-3.3083	-3.5458	-3.8312	-3.2354	-3.5521	-3.6021	-3.2896	481.870	153.612	458.245	347.502	258.001	229.119	436.075	184.864	362.328	372.541	411.319	134.924	430.456	426.015	466.662	440.084	0.00067451	0.00034899	0.00012297	1231.1	4.9325e-06	4.0557e-06	1298.6	259.54	7.2078e-06	3.3896e-06	319.81	89.897	70.476	20.519	6.598e-06	28.843	0.00032806	0.00024275	6.6253e-05	1217.8	2.7914e-06	2.407e-06	1285	258.15	2.6658e-06	2.7574e-06	321.04	89.918	70.487	20.898	2.6716e-06	29.47	324.949	218.896	220.824	144.177	272.959	274.863	144.351	151.606	314.624	297.091	151.420	157.709	158.207	164.953	297.735	164.689	-8191	255	
708.951	1	1	0	0	0.15909	0.10709	0.082559	0.22125	0.12604	0.029443	0.029763	0.29818	0.19207	0.17541	0.036751	0.033854	0.13801	0.30571	0.25798	0.095977	-3.3833	-3.5542	-3.2812	-3.7583	-3.2875	-3.5083	-3.6688	-3.3812	-3.7479	-3.5042	-3.3	-3.7708	-3.3646	-3.5083	-3.6792	-3.2792	272.686	202.181	464.901	334.544	183.231	271.690	220.157	444.560	143.241	337.335	178.845	450.662	215.645	456.536	484.588	198.931	0.00063033	0.00030246	8.913e-05	1226	3.5603e-06	4.5946e-06	1292.5	258.18	5.442e-06	2.4092e-06	319.7	89.711	70.712	20.397	4.0902e-06	28.755	0.00032425	0.00022665	6.5844e-05	1215.8	2.6602e-06	2.5789e-06	1279.8	257.55	2.7473e-06	2.5427e-06	320.31	89.872	70.637	20.881	2.6132e-06	29.437	323.530	227.626	248.585	144.592	281.218	276.601	144.408	151.944	317.411	285.480	151.270	157.462	157.973	165.160	305.687	164.315	-8191	255	
709.047	1	1	0	0	0.04442	0.077407	0.1853	0.20422	0.086462	0.079233	0.37393	0.21621	0.03872	0.28306	0.11502	0.13078	0.18068	0.083315	0.13358	0.088548	-3.3563	-3.3937	-3.2229	-3.7417	-3.4896	-3.3771	-3.7729	-3.3917	-3.6354	-3.5646	-3.3354	-3.7708	-3.4333	-3.3708	-3.9229	-3.3812	480.088	366.485	342.201	422.060	348.431	135.679	412.250	155.608	407.359	344.003	485.514	342.736	389.859	398.972	338.408	198.973	0.00062781	0.00034213	6.5449e-05	1226.2	1.7018e-06	3.102e-06	1293.3	259.84	6.6487e-06	1.9614e-06	319.43	89.654	70.828	20.535	5.9293e-06	28.746	0.00031462	0.00023198	6.859e-05	1218.2	2.6301e-06	2.6771e-06	1280.1	257.91	2.6413e-06	2.5751e-06	320.76	89.792	70.317	20.937	2.5432e-06	29.46	322.324	222.732	252.470	144.268	270.690	288.881	144.296	151.844	326.831	274.123	151.486	157.625	157.986	164.941	300.050	164.092	-8191	255	
709.143	1	1	0	0	0.082556	0.051626	0.12895	0.23797	0.24174	0.11246	0.27664	0.1011	0.17908	0.21597	0.15458	0.13432	0.1004	0.061281	0.074687	0.02937	-3.2729	-3.4729	-3.2417	-3.7771	-3.5312	-3.4625	-3.9521	-3.3271	-3.5687	-3.6229	-3.3542	-3.8333	-3.5563	-3.2604	-3.8292	-3.2333	280.098	297.257	198.647	418.812	142.163	220.163	440.838	431.335	197.416	159.893	384.837	414.707	424.762	261.142	195.660	396.532	0.00061736	0.00025406	3.7503e-05	1219.6	3.0344e-06	3.8306e-06	1290.3	259.12	6.2826e-06	4.2849e-06	321.64	89.556	70.127	20.52	6.4388e-06	28.824	0.00032473	0.00023392	6.953e-05	1212.5	2.8906e-06	2.7734e-06	1281.2	257.72	2.9258e-06	2.4993e-06	320.95	89.706	70.346	20.853	2.5893e-06	29.404	323.248	240.686	263.030	144.312	278.466	292.627	144.473	151.734	321.861	287.441	151.241	157.832	157.954	165.061	286.674	164.176	-8191	255	
709.239	1	1	0	0	0.42995	0.15774	0.15814	0.2691	0.19202	0.14848	0.14193	0.095679	0.25785	0.24252	0.30297	0.094253	0.13687	0.25594	0.1154	0.10099	-3.2687	-3.7917	-3.2042	-3.6917	-3.3875	-3.1688	-3.9354	-3.4813	-3.5042	-3.6292	-3.2646	-3.7542	-3.4938	-3.2375	-3.7521	-3.4021	330.764	340.217	241.922	457.666	402.872	405.322	357.903	207.731	391.624	434.951	139.790	493.315	331.512	136.172	211.949	230.795	0.00067114	0.00032312	9.5326e-05	1231.7	4.2277e-06	3.974e-06	1292.1	258.73	6.2274e-06	3.7458e-06	320.29	89.629	70.667	20.522	3.3546e-06	28.87	0.00033958	0.00024012	7.2838e-05	1215.7	2.8471e-06	2.7734e-06	1281.2	258	3.0227e-06	2.7207e-06	321.09	89.801	70.5	20.903	2.6571e-06	29.433	322.403	197.978	214.930	144.482	260.540	273.467	144.428	151.933	311.603	274.997	151.376	157.785	158.258	164.936	305.423	164.276	-8191	255	
709.335	1	1	0	0	0.067868	0.16999	0.15437	0.18403	0.15647	0.19367	0.15093	0.1675	0.28335	0.038982	0.081216	0.11835	0.1534	0.1907	0.048703	0.21236	-3.1813	-3.6271	-3.1083	-3.8125	-3.5938	-3.3208	-3.9104	-3.5917	-3.4042	-3.85	-3.4729	-3.6021	-3.5729	-3.2313	-3.8146	-3.6063	468.358	364.154	159.129	240.156	171.553	260.730	409.092	440.335	279.620	455.110	489.860	441.779	164.552	462.764	180.094	491.663	0.00066569	0.00025561	9.7359e-05	1219	3.9165e-06	3.0541e-06	1294	259.37	5.8064e-06	2.8064e-06	319.64	89.352	70.391	20.547	5.0354e-06	28.711	0.00034524	0.00025126	7.3172e-05	1217.1	2.785e-06	2.6905e-06	1282.4	258.2	2.9087e-06	2.5403e-06	320.51	89.86	70.475	20.913	2.6166e-06	29.446	320.911	209.812	220.962	144.441	275.347	317.426	144.215	151.572	317.253	276.218	151.434	157.822	158.032	164.941	299.021	164.432	-8191	255	
709.454	1	1	0	0	0.049007	0.094968	0.076327	0.25036	0.18922	0.21405	0.11306	0.072827	0.06023	0.29966	0.16051	0.20556	0.1315	0.14323	0.14441	0.10058	-2.8063	-3.6271	-3.2875	-3.5833	-3.6771	-3.1854	-3.8312	-3.3833	-3.3396	-3.7313	-3.2812	-3.5771	-3.5375	-3.3833	-3.4354	-3.4062	209.392	139.090	316.577	431.764	492.633	407.191	341.133	266.705	372.320	290.537	238.487	412.363	482.928	394.913	310.905	471.626	0.00064572	0.00031195	9.4983e-05	1230.9	2.9562e-06	2.8565e-06	1294.2	259.25	5.8941e-06	4.4556e-06	321.22	89.915	70.702	20.431	6.9205e-06	28.848	0.00034704	0.00023705	7.0775e-05	1219.4	2.6724e-06	2.7679e-06	1281.8	258.14	2.9939e-06	2.5452e-06	321.27	89.928	70.685	20.862	2.681e-06	29.435	322.590	226.744	261.847	144.559	270.137	303.207	144.236	151.643	315.514	280.435	151.184	157.902	158.244	164.845	293.970	164.337	-8191	255	
709.550	1	1	0	0	0.10379	0.065649	0.077555	0.02745	0.2803	0.30228	0.13334	0.43738	0.21799	0.15683	0.15376	0.37102	0.06997	0.2361	0.18446	0.29456	-2.8563	-3.5854	-3.2375	-3.4583	-3.5042	-3.0625	-3.8396	-3.6312	-3.1583	-3.6833	-3.25	-3.6375	-3.6437	-3.2604	-3.6417	-3.6417	135.862	214.288	438.970	459.039	425.636	156.043	191.104	440.413	315.626	137.340	491.441	427.144	484.605	225.102	258.221	396.275	0.00067994	0.00036069	0.00010158	1227.4	3.2966e-06	1.1877e-06	1298.6	260.45	6.3715e-06	3.5743e-06	319.65	90.032	70.459	20.588	3.3228e-06	28.826	0.00035347	0.00023204	6.8514e-05	1215.8	2.6144e-06	2.543e-06	1283.2	258.01	2.8032e-06	2.5984e-06	320.82	89.771	70.492	20.891	2.5577e-06	29.405	324.640	223.383	243.575	144.928	277.537	274.387	144.277	151.859	306.750	278.415	151.339	157.727	157.889	164.923	270.965	163.897	-8191	255	
709.646	1	1	0	0	0.054594	0.12178	0.039415	0.18572	0.056394	0.32748	0.14438	0.18079	0.13446	0.18251	0.070884	0.28837	0.054011	0.30607	0.25245	0.10012	-2.6979	-3.6271	-3.3125	-3.3396	-3.6833	-3.2771	-3.6917	-3.5604	-3.1917	-3.7271	-3.4313	-3.3604	-3.5396	-3.2208	-3.4667	-3.6396	491.718	296.577	198.873	217.076	443.905	367.338	480.511	161.248	179.852	333.942	179.474	136.526	454.331	416.030	404.978	138.007	0.00064258	0.00028773	8.4545e-05	1226.7	3.3905e-06	2.6548e-06	1285.9	258.68	6.1732e-06	2.6456e-06	320.46	89.579	70.578	20.472	3.9632e-06	28.926	0.00033651	0.00023037	7.1048e-05	1217.6	2.6846e-06	2.5405e-06	1279.1	258.09	2.8879e-06	2.3886e-06	320.21	89.892	70.522	20.907	2.5488e-06	29.47	321.410	222.512	222.526	144.594	272.718	289.415	144.386	151.516	320.079	306.784	151.152	157.607	157.972	164.763	277.199	164.382	-8191	255	
709.743	1	1	0	0	0.20061	0.14207	0.14987	0.16848	0.25078	0.10624	0.26423	0.1293	0.28119	0.31506	0.24219	0.17873	0.20194	0.18975	0.15626	0.18214	-2.8333	-3.6562	-3.3125	-3.25	-3.7146	-3.3542	-3.7833	-3.6333	-3.1583	-3.6583	-3.6146	-3.2083	-3.7125	-3.2958	-3.4896	-3.7708	216.447	221.523	250.515	473.127	281.311	432.081	442.106	286.636	469.427	434.694	419.020	367.786	359.601	480.851	303.053	296.550	0.00066891	0.00026964	0.0001033	1225.7	4.0548e-06	2.3453e-06	1298.4	258.73	6.4539e-06	2.4421e-06	318.72	89.643	70.883	20.664	4.3319e-06	28.709	0.00034508	0.00023775	6.73e-05	1215.5	2.7879e-06	2.7234e-06	1284.3	258.08	2.8592e-06	2.5892e-06	320.5	89.975	70.584	20.955	2.7516e-06	29.389	322.295	217.566	211.968	144.193	290.499	258.423	144.556	151.888	322.560	275.024	150.979	157.680	157.989	165.107	291.820	164.190	-8191	255	
709.839	1	1	0	0	0.1424	0.27047	0.13441	0.21726	0.085859	0.3124	0.26563	0.14689	0.12779	0.13195	0.21429	0.089715	0.17431	0.26086	0.23094	0.13817	-2.8563	-3.6021	-3.5312	-3.2479	-3.6	-3.4521	-3.5146	-3.85	-3.2562	-3.4062	-3.6167	-3.3812	-3.8021	-3.2938	-3.2938	-3.7708	191.868	318.395	492.647	345.186	355.689	197.659	388.245	276.226	407.604	142.109	479.801	400.307	489.989	175.834	395.198	419.947	0.00064056	0.00037792	9.2661e-05	1225.5	3.4918e-06	2.1089e-06	1296.4	258.11	5.7094e-06	2.9068e-06	319.39	89.67	70.482	20.562	4.7613e-06	28.906	0.00033417	0.00024243	6.7285e-05	1218.9	2.6504e-06	2.4723e-06	1283.2	257.98	2.8581e-06	2.5262e-06	320.13	89.942	70.54	20.936	2.7427e-06	29.404	320.026	206.968	228.335	144.583	275.193	265.889	144.562	151.780	312.993	291.295	151.391	157.913	158.201	164.886	288.346	164.378	-8191	255	
709.935	1	1	0	0	0.048667	0.1376	0.16329	0.053926	0.032513	0.0074483	0.046883	0.34294	0.1261	0.13658	0.37267	0.12062	0.12355	0.27536	0.2611	0.10531	-2.9708	-3.4	-3.4333	-3.1937	-3.6625	-3.4083	-3.45	-3.7854	-3.2687	-3.6229	-3.8229	-3.4333	-3.8396	-3.2417	-3.1875	-3.9542	479.317	478.833	200.699	185.992	171.277	237.845	148.006	454.008	437.025	426.758	136.010	418.569	458.855	214.046	167.418	353.695	0.00067533	0.00040885	0.00010408	1230.8	3.3185e-06	3.2784e-06	1292.4	259.34	6.3536e-06	3.2024e-06	319	89.869	70.317	20.466	4.8343e-06	28.859	0.00034502	0.00024712	6.7118e-05	1216.2	2.7601e-06	2.6149e-06	1282.1	257.99	2.7361e-06	2.61e-06	320.41	89.764	70.445	20.95	2.7832e-06	29.387	322.242	230.673	237.745	144.498	281.548	277.543	144.505	151.762	303.959	286.971	151.250	157.984	158.167	164.669	298.114	164.551	-8191	255	
710.055	1	1	0	0	0.067343	0.082846	0.058361	0.16017	0.099625	0.21194	0.19669	0.070659	0.064792	0.11771	0.16533	0.067816	0.20604	0.17361	0.1296	0.17388	-2.8792	-3.3667	-3.5646	-3.1562	-3.65	-3.4042	-3.4354	-3.825	-3.4688	-3.5146	-3.6917	-3.3292	-3.825	-3.5521	-3.3688	-3.9042	266.655	254.227	389.338	355.880	431.783	393.445	429.171	409.399	264.920	426.971	489.269	174.118	145.194	399.026	391.632	203.043	0.00065746	0.00025251	9.0788e-05	1230.9	4.1917e-06	2.8415e-06	1293.1	259.38	5.5003e-06	3.2107e-06	319.44	89.242	70.789	20.571	6.5208e-06	28.806	0.00033744	0.00024318	7.1048e-05	1217.8	2.7844e-06	2.5923e-06	1283.6	258.3	2.93e-06	2.8565e-06	320.86	89.827	70.597	20.947	2.7993e-06	29.454	325.004	216.445	235.483	144.133	280.919	266.909	144.364	151.761	316.388	283.260	151.379	157.906	158.155	164.924	287.922	164.568	-8191	255	
710.150	1	1	0	0	0.15745	0.053084	0.16976	0.16225	0.13325	0.055456	0.32149	0.18907	0.10602	0.045452	0.067599	0.32017	0.13244	0.34677	0.29925	0.16971	-2.8875	-3.4792	-3.7375	-3.1875	-3.5687	-3.4104	-3.5021	-3.7604	-3.3812	-3.3896	-3.8	-3.3021	-3.6979	-3.775	-3.1646	-3.6583	325.735	175.374	160.979	162.202	256.376	166.547	417.819	446.627	253.666	452.005	458.246	467.582	177.932	150.197	183.856	490.908	0.0006659	0.00037997	0.00012074	1233	3.6627e-06	2.7587e-06	1294.5	259.63	5.2062e-06	2.4826e-06	322.75	90.176	70.475	20.567	3.3454e-06	28.955	0.00034156	0.00026677	6.8286e-05	1218.8	2.9875e-06	2.7392e-06	1285	258.86	3.011e-06	2.8749e-06	322.16	90.309	70.63	21.01	2.8593e-06	29.519	323.653	213.428	241.950	144.525	266.291	292.707	144.433	151.763	302.097	272.137	151.315	157.958	158.328	164.712	288.470	164.274	-8191	255	
710.223	1	1	0	0	0.17964	0.086726	0.13692	0.13586	0.1175	0.41582	0.4768	0.02889	0.33565	0.21357	0.27467	0.21422	0.1148	0.22326	0.22171	0.09342	-3.0187	-3.4688	-3.7521	-3.5167	-3.6333	-3.5792	-3.45	-3.8896	-3.5146	-3.3563	-3.7708	-3.3792	-3.5812	-3.6333	-3.0667	-3.8354	169.653	393.790	389.352	167.159	473.359	347.747	422.518	426.806	278.426	422.077	147.551	436.037	238.150	196.420	326.284	491.305	0.00068075	0.00022529	8.8304e-05	1228.8	3.6171e-06	2.684e-06	1300	261.05	6.5532e-06	2.792e-06	321.18	89.717	70.971	20.695	4.5808e-06	29.081	0.00035725	0.00026672	6.3598e-05	1218.8	2.9498e-06	2.6667e-06	1288.1	259.13	2.9311e-06	2.8094e-06	322.44	90.184	70.932	21.038	2.8816e-06	29.581	324.424	226.109	236.251	144.562	282.069	289.956	144.272	151.701	321.536	286.458	151.586	158.110	158.016	165.239	282.173	164.415	-8191	255	
710.342	1	1	0	0	0.18841	0.1078	0.094929	0.077905	0.13749	0.081137	0.33466	0.078252	0.1941	0.11009	0.11164	0.17794	0.18547	0.093846	0.19297	0.25959	-3.0542	-3.3042	-3.7313	-3.2167	-3.4667	-3.7375	-3.4208	-3.8646	-3.5708	-3.2	-3.8229	-3.4646	-3.3708	-3.6542	-3.2604	-3.6479	433.343	303.387	269.550	361.728	367.465	172.672	388.051	304.461	458.239	463.071	349.671	473.234	162.378	218.232	379.173	143.391	0.00065029	0.00040975	6.8623e-05	1232.9	2.0406e-06	4.2029e-06	1293	259.23	6.9392e-06	1.8138e-06	319.92	89.555	70.804	20.595	4.5948e-06	29.002	0.00033827	0.00026343	6.5798e-05	1218.8	3.0084e-06	2.6508e-06	1284.9	258.82	2.8384e-06	2.7892e-06	321.58	90.105	70.726	21.012	2.8055e-06	29.555	320.412	231.816	241.081	144.451	283.158	299.091	144.422	151.764	322.926	280.936	151.414	157.907	158.036	165.104	311.622	164.407	-8191	255	
710.438	1	1	0	0	0.17966	0.27923	0.17965	0.15655	0.0089296	0.24748	0.11434	0.21453	0.13219	0.22583	0.19449	0.17887	0.14098	0.071666	0.079524	0.1058	-3.1708	-3.1625	-3.6625	-3.1646	-3.3521	-3.7875	-3.4583	-3.5896	-3.5792	-3.2292	-3.7979	-3.5208	-3.5375	-3.7313	-3.3354	-3.6312	427.316	396.769	241.667	250.890	193.728	469.162	177.859	432.524	357.972	228.232	199.811	216.531	364.534	335.476	435.181	428.678	0.00063085	0.00034641	6.783e-05	1235.8	2.0033e-06	2.7273e-06	1296.3	260.29	6.5692e-06	2.9708e-06	320.55	89.497	70.938	20.596	5.3783e-06	29.077	0.00032415	0.00025401	6.9257e-05	1221.4	2.9011e-06	2.6021e-06	1283.2	259.15	3.0446e-06	2.8541e-06	321.49	90.047	70.886	21.033	2.9143e-06	29.581	322.192	228.152	230.359	144.592	275.524	303.769	144.472	151.921	311.255	279.153	151.387	157.698	157.842	164.901	305.908	164.448	-8191	255	
710.535	1	1	0	0	0.20788	0.14728	0.048146	0.093199	0.08685	0.23621	0.26848	0.053284	0.079989	0.15749	0.18872	0.41011	0.23585	0.17695	0.1097	0.048654	-3.2354	-3.2396	-3.7417	-3.5167	-3.3146	-3.7604	-3.4188	-3.6063	-3.6063	-3.1604	-3.7917	-3.6958	-3.3417	-3.7021	-3.4208	-3.4667	452.373	161.415	227.639	408.824	450.231	483.031	376.924	431.581	188.075	465.262	422.471	484.221	481.553	332.478	192.915	493.317	0.00067839	0.0001593	0.00013084	1230.6	3.8984e-06	2.6951e-06	1292.5	259.37	7.3864e-06	3.5559e-06	319.24	89.839	70.926	20.541	5.0446e-06	28.875	0.00033206	0.00023726	6.6891e-05	1219.2	2.8024e-06	2.34e-06	1281.6	258.47	2.9876e-06	2.7519e-06	320.57	90.016	70.69	20.961	2.6988e-06	29.512	320.227	187.173	222.273	144.393	278.709	294.286	144.569	151.822	324.144	281.686	151.365	158.036	158.157	165.334	282.277	164.787	-8191	255	
710.631	1	1	0	0	0.29749	0.21318	0.099725	0.13872	0.052747	0.09501	0.25225	0.16349	0.17749	0.089972	0.23249	0.037738	0.15023	0.18497	0.19531	0.15039	-3.3875	-3.1813	-3.5417	-3.5687	-3.3208	-3.8187	-3.5292	-3.5521	-3.7062	-3.2896	-3.7687	-3.75	-3.2438	-3.775	-3.5521	-3.4125	451.209	356.738	197.287	201.594	249.320	294.627	457.670	423.128	352.521	182.136	436.626	392.518	153.804	335.221	307.769	167.007	0.00064225	0.00039261	8.6769e-05	1235.1	4.9394e-06	2.1292e-06	1288.5	258.95	6.8608e-06	3.5312e-06	321.19	90.023	70.714	20.561	3.4385e-06	28.826	0.00032431	0.00025702	6.3219e-05	1217.1	2.8552e-06	2.6667e-06	1279.3	258.29	2.7745e-06	2.7617e-06	321.35	90.037	70.584	20.964	2.726e-06	29.414	321.964	215.155	230.108	144.629	257.573	274.630	144.317	151.606	312.324	290.741	151.069	157.950	158.045	165.127	303.208	164.240	-8191	255	
710.727	1	1	0	0	0.076174	0.18887	0.15823	0.067372	0.13419	0.099252	0.22776	0.023724	0.01972	0.28352	0.065586	0.33624	0.33035	0.065108	0.14974	0.19067	-3.35	-3.3042	-3.6937	-3.8833	-3.2062	-3.7729	-3.6583	-3.5792	-3.9667	-3.2896	-3.7083	-3.5396	-3.0354	-3.6188	-3.4062	-3.2625	451.944	441.602	234.697	381.224	212.629	183.029	436.271	430.477	144.305	478.443	284.320	440.401	485.601	339.271	254.473	454.476	0.00067861	0.00023786	7.1535e-05	1226.3	4.7799e-06	2.2486e-06	1296	258.95	6.0463e-06	3.9209e-06	321.53	89.935	70.193	20.542	3.437e-06	28.7	0.00034259	0.00024232	6.1884e-05	1211.8	2.8605e-06	2.393e-06	1280.1	258.13	2.6541e-06	2.5831e-06	320.87	89.78	70.348	20.891	2.5738e-06	29.381	323.481	213.934	254.941	144.541	274.104	287.075	144.380	151.757	319.153	299.369	151.339	157.892	158.286	164.992	295.355	164.414	-8191	255	
710.847	1	1	0	0	0.15196	0.037366	0.12793	0.10414	0.065067	0.14765	0.13347	0.10742	0.047147	0.22006	0.17123	0.23629	0.23614	0.16071	0.15782	0.1215	-3.4333	-3.2958	-3.3354	-3.5104	-3.1979	-3.6604	-3.4938	-3.2062	-3.6833	-3.2646	-3.5354	-3.7042	-3.1312	-3.6937	-3.6312	-3.2167	386.572	237.100	354.032	358.903	240.474	484.466	460.737	150.306	328.125	144.054	247.510	467.225	449.918	429.649	471.272	326.949	0.00065348	0.00034116	7.4296e-05	1220.5	2.6712e-06	3.9282e-06	1285.9	256.86	6.4634e-06	3.2264e-06	317.55	89.128	69.861	20.411	7.084e-06	28.576	0.00033043	0.00024927	6.554e-05	1211.5	2.7334e-06	2.4954e-06	1275.3	256.57	2.8783e-06	2.788e-06	319.41	89.29	70.089	20.801	2.7516e-06	29.243	321.820	216.054	239.661	144.488	281.247	274.557	144.401	151.554	318.755	294.440	151.466	157.815	157.955	165.214	302.865	164.248	-8191	255	
710.919	1	1	0	0	0.085171	0.043404	0.27323	0.21572	0.26423	0.33371	0.14613	0.15778	0.020139	0.16336	0.145	0.10155	0.16427	0.31329	0.11798	0.085831	-3.2792	-3.2833	-3.3667	-3.7521	-3.1021	-3.7458	-3.7125	-3.3333	-3.7417	-3.3688	-3.3729	-3.7812	-3.3292	-3.7	-3.6813	-3.1396	271.339	258.554	301.492	449.605	266.604	488.627	466.236	157.752	474.471	202.582	461.224	305.981	418.017	493.198	250.238	431.758	0.00068637	0.00043003	9.2411e-05	1221.5	3.4226e-06	2.8095e-06	1285.7	256.58	6.6887e-06	3.0357e-06	318.1	88.658	69.621	20.378	3.6896e-06	28.322	0.00034563	0.00024965	6.8969e-05	1209.5	2.8959e-06	2.6417e-06	1274.3	256.18	2.9844e-06	2.7495e-06	318.73	89.067	69.801	20.755	2.676e-06	29.164	322.596	221.635	237.417	144.568	275.886	274.404	144.312	152.064	327.754	258.253	151.282	157.631	158.296	164.835	282.349	164.474	-8191	255	
711.015	1	1	0	0	0.091463	0.2849	0.11699	0.21927	0.305	0.10782	0.2572	0.074228	0.21078	0.11266	0.15467	0.2672	0.16194	0.13774	0.066153	0.14768	-3.35	-3.325	-3.3187	-3.6125	-3.2625	-3.4833	-3.8979	-3.1729	-3.5375	-3.4021	-3.3417	-3.9396	-3.4083	-3.4396	-3.6042	-3.4146	485.182	238.059	286.215	230.963	180.680	344.295	490.214	344.132	273.747	299.131	465.927	430.193	280.878	213.063	461.961	300.001	0.00060267	0.00019014	9.8104e-05	1221.5	2.9743e-06	3.3718e-06	1282.9	257.16	4.5524e-06	3.7207e-06	318.88	88.746	70.206	20.38	5.1431e-06	28.51	0.00032322	0.00024421	7.0562e-05	1208.5	2.8384e-06	2.5673e-06	1272.5	255.49	2.8192e-06	2.7268e-06	318.95	89.09	69.981	20.725	2.6182e-06	29.238	320.197	222.825	232.224	144.467	258.254	272.984	144.356	151.814	317.553	286.033	151.538	158.107	158.335	164.919	286.796	164.441	-8191	255	
711.136	1	1	0	0	0.15333	0.079728	0.29875	0.13012	0.17511	0.05735	0.17213	0.3441	0.023286	0.053536	0.029237	0.2146	0.17666	0.15643	0.11832	0.21832	-3.2771	-3.3833	-3.2271	-3.7604	-3.4333	-3.375	-3.6583	-3.4083	-3.6667	-3.5125	-3.4208	-3.7938	-3.2438	-3.5062	-3.5708	-3.3167	462.170	446.810	468.318	471.194	401.364	365.384	419.004	414.257	184.927	145.352	291.567	397.245	439.244	361.466	385.354	439.556	0.00066736	0.00037081	6.7282e-05	1212.4	3.1528e-06	3.4766e-06	1280.5	256.1	6.6385e-06	2.5571e-06	318.01	89.04	69.792	20.357	2.9315e-06	28.604	0.00032345	0.00023796	6.8135e-05	1203	2.6364e-06	2.5265e-06	1269.4	255.12	2.6743e-06	2.4932e-06	317.89	89.013	69.607	20.69	2.3716e-06	29.139	322.688	224.498	233.313	144.443	264.463	287.572	144.414	151.947	305.305	317.608	150.963	157.902	158.462	165.304	280.932	164.403	-8191	255	
711.230	1	1	0	0	0.11665	0.20901	0.10671	0.014961	0.059191	0.14716	0.18697	0.20713	0.099207	0.072128	0.23201	0.080424	0.30529	0.049268	0.12876	0.16829	-3.2833	-3.6417	-3.2083	-3.7875	-3.3458	-3.4167	-3.8042	-3.4104	-3.7104	-3.7188	-3.3125	-3.725	-3.3625	-3.3521	-3.8688	-3.3417	293.648	419.369	218.391	351.354	344.335	439.859	443.457	148.839	487.086	293.186	402.174	463.834	475.879	196.874	155.856	412.427	0.00063522	0.00030018	4.9404e-05	1217.3	3.2544e-06	2.5446e-06	1277	255.56	4.6002e-06	2.6911e-06	316.92	88.299	69.767	20.367	2.8823e-06	28.612	0.00033273	0.00021734	6.6329e-05	1204.2	2.601e-06	2.5692e-06	1265.6	254.41	2.4942e-06	2.3299e-06	317.73	88.384	69.543	20.643	2.481e-06	29.097	321.823	220.085	212.607	144.648	274.827	281.701	144.448	151.820	321.848	290.883	151.345	157.887	158.200	165.304	296.240	164.097	-8191	255	
711.328	1	1	0	0	0.2256	0.047923	0.28387	0.095945	0.056622	0.16619	0.072291	0.09722	0.054836	0.19666	0.11472	0.10433	0.13939	0.12197	0.21303	0.13235	-3.1937	-3.6771	-3.3146	-3.7229	-3.3729	-3.2646	-3.8583	-3.3042	-3.5354	-3.6562	-3.0854	-3.8104	-3.425	-3.1604	-3.6813	-3.3521	286.599	476.581	359.104	219.354	262.523	168.726	329.898	476.536	133.980	321.920	436.185	145.993	300.730	276.029	422.950	195.857	0.00065229	0.00029571	0.00010788	1208.6	4.7971e-06	4.1906e-06	1279.2	254.44	6.6437e-06	4.0566e-06	316.02	88.304	69.946	20.311	3.9829e-06	28.554	0.00032431	0.00022245	6.6481e-05	1199.5	2.6388e-06	2.5887e-06	1264.9	254.02	2.6951e-06	2.4534e-06	317.28	88.593	69.661	20.641	2.4016e-06	29.068	323.883	197.621	221.091	144.478	273.365	271.463	144.295	151.918	312.296	269.186	151.485	157.736	157.911	164.733	291.916	164.403	-8191	255	
711.447	1	1	0	0	0.089232	0.11422	0.26761	0.176	0.15356	0.070257	0.12504	0.26354	0.061467	0.16653	0.096781	0.093289	0.18608	0.042144	0.086782	0.20004	-2.9458	-3.525	-3.1417	-3.6646	-3.3875	-3.1833	-3.9562	-3.4333	-3.4229	-3.7833	-3.2625	-3.6958	-3.7104	-3.2313	-3.8083	-3.3688	469.960	256.110	264.329	384.840	301.105	376.795	314.010	474.013	420.681	433.647	337.228	392.034	431.501	313.640	378.991	408.600	0.00065731	0.00031006	3.1465e-05	1216.8	3.2054e-06	3.4913e-06	1278.9	254.91	7.2889e-06	3.6952e-06	316.93	88.344	69.42	20.299	3.8341e-06	28.488	0.00032255	0.00022041	6.3614e-05	1201.7	2.4879e-06	2.5509e-06	1266.2	253.99	2.6679e-06	2.3782e-06	317.37	88.632	69.511	20.636	2.3394e-06	29.088	322.513	226.971	225.029	144.597	276.599	292.464	144.366	151.755	313.281	290.155	151.489	158.230	158.527	165.218	296.269	164.382	-8191	255	
711.519	1	1	0	0	0.09116	0.2288	0.10749	0.18063	0.19931	0.20016	0.294	0.031863	0.059759	0.15098	0.039031	0.19947	0.17864	0.21376	0.10389	0.28604	-2.9458	-3.6583	-3.2208	-3.4729	-3.5708	-3.1979	-3.7479	-3.4583	-3.3042	-3.7438	-3.2854	-3.4813	-3.7958	-3.3396	-3.5229	-3.5396	179.857	406.891	357.718	473.741	400.005	206.483	376.668	312.118	281.783	194.705	270.157	234.481	323.413	154.058	367.884	178.828	0.0006373	0.00034459	5.2474e-05	1206.9	3.9481e-06	2.2909e-06	1273.4	254.51	7.3403e-06	2.5518e-06	315.83	88.025	69.558	20.124	5.9194e-06	28.562	0.00032598	0.00018987	6.5677e-05	1199.6	2.4188e-06	2.429e-06	1262.7	254.18	2.4889e-06	2.4406e-06	316.57	88.49	69.441	20.585	2.4721e-06	29.041	322.730	223.210	219.225	144.621	286.415	285.651	144.354	151.766	316.336	285.280	151.091	158.068	157.984	165.426	287.538	164.758	-8191	255	
711.615	1	1	0	0	0.24643	0.074102	0.19436	0.12649	0.14945	0.043853	0.1914	0.39197	0.27136	0.17091	0.045222	0.18639	0.23821	0.13497	0.29418	0.093376	-2.8292	-3.825	-3.2062	-3.4792	-3.5896	-3.1146	-3.8271	-3.6333	-3.2417	-3.7021	-3.4562	-3.4813	-3.6	-3.2062	-3.5146	-3.7062	341.352	187.655	375.880	290.618	352.633	353.217	361.313	383.808	298.722	398.465	285.625	449.033	411.691	258.511	472.343	401.689	0.00060162	0.00027185	8.7235e-05	1203.1	3.0951e-06	3.5081e-06	1269.8	254.55	5.5414e-06	3.168e-06	315.91	88.31	69.267	20.225	3.57e-06	28.299	0.00031826	0.00021588	6.1793e-05	1196.6	2.5006e-06	2.5527e-06	1260.9	253.45	2.6407e-06	2.4271e-06	317.21	88.443	69.314	20.545	2.4399e-06	28.944	320.184	228.709	242.278	144.609	292.229	278.802	144.481	151.912	331.165	293.103	151.588	157.768	158.483	165.271	293.258	164.235	-8191	255	
711.736	1	1	0	0	0.18474	0.1766	0.10677	0.18423	0.020895	0.12311	0.23419	0.23043	0.069976	0.12997	0.015691	0.19612	0.11507	0.16941	0.09963	0.2004	-2.8604	-3.7646	-3.3354	-3.3833	-3.7396	-3.3708	-3.6646	-3.8375	-3.3521	-3.7979	-3.4958	-3.4229	-3.6854	-3.2542	-3.7271	-3.7333	477.383	279.500	162.240	273.167	201.881	357.044	369.839	407.905	328.919	327.113	207.956	134.804	429.390	290.886	294.797	401.257	0.00060828	0.00021604	7.8238e-05	1203.3	3.6128e-06	3.5345e-06	1273.5	256.01	5.2022e-06	3.7644e-06	316.13	88.03	69.031	19.983	5.3894e-06	28.324	0.00032371	0.0002105	6.3432e-05	1195.8	2.5018e-06	2.7039e-06	1259.3	253.8	2.6759e-06	2.402e-06	315.97	88.396	69.321	20.446	2.4549e-06	28.885	321.970	214.456	247.433	144.591	276.336	292.554	144.281	151.782	306.728	290.248	151.303	157.902	158.314	165.300	281.746	164.172	-8191	255	
711.832	1	1	0	0	0.085213	0.11566	0.17241	0.35052	0.206	0.21822	0.21038	0.085371	0.083879	0.14388	0.14156	0.087428	0.2916	0.28331	0.23099	0.16356	-2.7771	-3.7792	-3.3271	-3.2438	-3.7271	-3.225	-3.7021	-3.7687	-3.0187	-3.7	-3.6	-3.3396	-3.6958	-3.4313	-3.4313	-3.7542	404.558	335.529	398.866	442.313	229.180	447.039	146.793	491.724	491.325	213.979	481.154	381.162	491.087	216.542	301.723	324.787	0.00063669	0.0003585	0.00012099	1207.9	3.0463e-06	3.2881e-06	1266.8	254.74	6.4528e-06	3.9531e-06	317.36	88.108	69.281	20.204	4.7235e-06	28.336	0.00032751	0.00020501	6.2294e-05	1196.8	2.3666e-06	2.6094e-06	1258.1	252.61	2.8762e-06	2.4094e-06	316.82	88.204	69.141	20.521	2.4777e-06	28.965	323.073	220.469	230.913	144.542	280.901	277.882	144.500	151.866	309.224	290.989	151.296	157.934	158.130	165.427	293.340	164.226	-8191	255	
711.928	1	1	0	0	0.1859	0.12152	0.071492	0.47745	0.13674	0.069566	0.079636	0.094411	0.14604	0.13844	0.2677	0.14313	0.076364	0.18841	0.14105	0.068278	-2.7792	-3.6667	-3.6896	-3.1146	-3.8708	-3.4021	-3.4479	-3.6562	-3.1917	-3.8417	-3.5729	-3.2979	-3.725	-3.4729	-3.5292	-3.8604	324.024	134.546	373.531	414.681	369.226	339.674	266.255	206.101	450.389	227.279	427.901	298.877	213.636	139.433	193.594	255.348	0.00061925	0.00027311	9.1312e-05	1203.1	3.4082e-06	2.6246e-06	1270.9	254.91	6.5405e-06	1.6626e-06	315.92	88.318	69.27	20.11	4.6274e-06	28.34	0.00032268	0.00022773	6.2961e-05	1194.6	2.4647e-06	2.3686e-06	1259.2	253.19	2.8315e-06	2.4608e-06	315.83	88.387	69.322	20.507	2.571e-06	28.975	321.213	231.592	226.030	144.549	276.503	283.230	144.580	151.814	317.356	284.016	151.281	158.070	158.179	165.359	294.922	164.690	-8191	255	
712.024	1	1	0	0	0.1646	0.16826	0.072744	0.071855	0.25824	0.11688	0.23752	0.25712	0.16575	0.18186	0.38084	0.15633	0.31806	0.15573	0.22904	0.033721	-2.9396	-3.6042	-3.5312	-3.0792	-3.7125	-3.5521	-3.5146	-3.7146	-3.2687	-3.5396	-3.725	-3.0542	-3.5896	-3.6104	-3.1979	-3.7583	488.902	223.345	477.379	145.140	312.421	209.354	411.137	424.773	197.005	478.879	157.059	465.578	475.567	368.369	154.709	404.417	0.00063644	0.00030925	9.3772e-05	1203.6	2.1569e-06	2.3877e-06	1269.7	253.48	5.2195e-06	2.9587e-06	317.38	88.281	69.474	20.089	3.1638e-06	28.491	0.00033167	0.00021965	6.4418e-05	1193.9	2.4606e-06	2.4625e-06	1259.3	253.01	2.6567e-06	2.5788e-06	316.15	88.351	69.287	20.487	2.3677e-06	28.973	321.006	208.873	225.505	144.654	261.116	318.793	144.462	151.863	317.109	290.840	151.445	157.776	158.069	165.447	269.128	164.371	-8191	255	
712.145	1	1	0	0	0.21598	0.12642	0.28832	0.081438	0.19879	0.091466	0.33294	0.075682	0.22592	0.16849	0.082209	0.20967	0.18183	0.082322	0.33216	0.26181	-2.9062	-3.5229	-3.7083	-3.15	-3.5354	-3.45	-3.6333	-3.825	-3.3688	-3.625	-3.7896	-3.3312	-3.7125	-3.6396	-3.2438	-3.7188	461.562	408.395	329.435	281.806	279.396	409.269	379.426	191.202	272.270	269.870	427.834	380.568	184.322	466.085	255.060	436.496	0.00066277	0.00029404	7.049e-05	1203.9	3.5842e-06	2.4534e-06	1268.8	255.07	6.3174e-06	2.0899e-06	315.6	88.11	69.338	20.062	5.7286e-06	28.356	0.00033407	0.00022881	5.8713e-05	1195.6	2.4681e-06	2.4582e-06	1259.6	253.45	2.8565e-06	2.4057e-06	315.73	88.32	69.312	20.513	2.5116e-06	28.979	322.901	233.809	241.754	144.559	284.952	253.625	144.745	151.797	320.213	264.860	151.490	157.925	158.340	165.504	314.531	164.533	-8191	255	
712.216	1	1	0	0	0.16002	0.050524	0.1117	0.10799	0.21959	0.15055	0.20139	0.10881	0.10702	0.25725	0.0083201	0.21946	0.038425	0.24435	0.11275	0.14389	-2.8875	-3.3167	-3.6188	-3.3021	-3.6271	-3.45	-3.4062	-3.7521	-3.3208	-3.4208	-3.7583	-3.4146	-3.7354	-3.5812	-3.2771	-3.8104	357.727	363.774	171.014	325.661	301.877	481.398	421.525	203.965	459.645	414.931	461.325	447.112	159.622	200.104	167.322	402.619	0.00063833	0.00026084	8.8534e-05	1209.2	4.057e-06	1.9206e-06	1270.5	254.38	6.173e-06	3.0543e-06	315.11	87.911	69.219	20.036	3.5367e-06	28.635	0.00032108	0.00021901	6.2263e-05	1197.7	2.5668e-06	2.4991e-06	1259.7	252.77	2.7958e-06	2.5923e-06	315.81	88.246	69.297	20.461	2.631e-06	29.018	322.742	230.031	209.405	144.239	268.054	290.225	144.618	151.668	317.762	277.803	151.237	157.766	158.470	165.103	289.362	164.605	-8191	255	
712.311	1	1	0	0	0.032921	0.21988	0.19228	0.14112	0.1609	0.12752	0.16752	0.24136	0.15672	0.04156	0.18119	0.080734	0.10073	0.16525	0.25056	0.11867	-3.0854	-3.3125	-3.6354	-3.2396	-3.425	-3.5583	-3.4979	-3.7812	-3.45	-3.2208	-3.9375	-3.2833	-3.5812	-3.7104	-3.1562	-3.7917	376.974	382.573	198.118	339.838	388.036	202.033	319.471	456.266	168.312	450.658	372.965	411.589	285.770	461.824	419.829	136.846	0.00062372	0.00033004	8.7327e-05	1203.4	3.4373e-06	2.6698e-06	1268.9	254.68	6.087e-06	3.5198e-06	313.92	87.859	69.205	20.083	4.4121e-06	28.263	0.00030745	0.00022881	6.0761e-05	1194.8	2.4298e-06	2.457e-06	1258.8	252.97	2.5912e-06	2.6645e-06	314.77	88.411	69.196	20.491	2.6982e-06	28.875	322.940	230.913	234.848	144.490	247.631	302.888	144.379	152.005	324.267	293.850	151.540	158.035	158.067	164.950	282.886	164.451	-8191	255	
712.409	1	1	0	0	0.20467	0.19374	0.14776	0.23557	0.12446	0.06411	0.19592	0.27228	0.13695	0.22439	0.32512	0.10401	0.094482	0.19948	0.21466	0.069653	-3.0771	-3.1646	-3.7583	-3.2479	-3.4083	-3.5458	-3.3875	-3.7417	-3.4813	-3.2438	-3.8021	-3.225	-3.3271	-3.6292	-3.1979	-3.6333	136.463	452.534	283.117	371.413	296.847	441.542	474.592	451.662	323.073	295.548	454.419	475.168	333.633	193.226	436.115	282.717	0.00061578	0.00027338	9.3171e-05	1198.8	4.0973e-06	2.6808e-06	1271.3	254.21	5.8798e-06	3.7544e-06	314.32	88.095	68.892	20.209	4.8201e-06	28.301	0.00031919	0.0002518	5.9715e-05	1192.2	2.4925e-06	2.3357e-06	1258.5	252.8	2.6993e-06	2.6804e-06	314.67	88.271	68.971	20.526	2.7277e-06	28.89	322.429	230.372	224.313	144.512	282.243	281.531	144.319	151.837	317.928	255.974	151.399	157.778	158.458	165.053	297.419	164.591	-8191	255	
712.527	1	1	0	0	0.029265	0.022044	0.10418	0.16915	0.23012	0.34699	0.25929	0.26536	0.03175	0.28646	0.22618	0.095572	0.23991	0.28119	0.11987	0.18013	-3.1125	-3.1521	-3.6458	-3.4042	-3.3708	-3.7292	-3.4313	-3.5417	-3.6833	-3.3083	-3.7438	-3.4188	-3.2667	-3.7771	-3.1271	-3.6854	192.045	488.810	187.948	480.888	442.640	196.842	447.695	476.284	180.805	488.265	295.696	433.299	184.057	151.560	486.195	158.195	0.00059601	0.00026662	8.9916e-05	1207.4	4.0664e-06	2.5968e-06	1266.7	254.79	6.1328e-06	2.8237e-06	314.58	87.711	69.074	20.054	4.3889e-06	28.311	0.00031388	0.00022111	6.504e-05	1193	2.6823e-06	2.3796e-06	1256.6	252.94	2.7761e-06	2.5862e-06	314.9	88.155	69.06	20.469	2.6643e-06	28.908	322.400	196.583	219.706	144.321	272.944	296.762	144.445	151.863	323.776	285.149	151.465	157.931	158.359	165.253	296.359	164.151	-8191	255	
712.624	1	1	0	0	0.14294	0.24001	0.082996	0.1064	0.20726	0.11346	0.34364	0.15827	0.30303	0.22373	0.19877	0.20554	0.052417	0.04741	0.26833	0.12404	-3.1375	-3.0521	-3.6458	-3.475	-3.4396	-3.8	-3.2625	-3.3896	-3.4083	-3.2687	-3.7896	-3.475	-3.4625	-3.5771	-3.3729	-3.575	257.908	408.976	374.990	435.529	272.382	144.524	475.763	358.579	459.391	452.040	136.734	489.642	218.396	277.330	158.484	185.520	0.0006563	0.00029957	6.5357e-05	1194.6	3.9422e-06	3.601e-06	1270.9	252.62	6.0533e-06	2.5772e-06	313.66	88.304	69.176	20.176	5.8002e-06	28.394	0.00031711	0.00023053	6.3007e-05	1190.5	2.6765e-06	2.5235e-06	1258.1	252.32	2.5219e-06	2.6326e-06	314.41	88.25	69.17	20.504	2.6099e-06	28.883	321.756	226.086	219.366	144.067	268.454	279.294	144.581	151.858	318.601	285.211	151.109	158.055	158.351	165.231	298.081	164.225	-8191	255	
712.720	1	1	0	0	0.30908	0.11933	0.24935	0.054198	0.16966	0.13326	0.16503	0.047583	0.22756	0.29732	0.19276	0.1121	0.24922	0.098483	0.052046	0.10112	-3.3354	-3.2083	-3.7625	-3.6333	-3.3458	-3.7583	-3.4521	-3.5583	-3.7208	-3.1958	-3.7229	-3.5021	-3.2083	-3.7167	-3.2542	-3.3271	470.090	475.020	257.172	298.716	454.350	356.266	400.845	353.386	151.167	352.483	322.189	423.774	446.665	368.428	447.733	424.806	0.00061386	0.00030058	7.8439e-05	1202.9	3.3165e-06	2.9767e-06	1273.2	253.66	7.3942e-06	4.3431e-06	313.22	88.339	69.615	20.094	4.2209e-06	28.419	0.00031574	0.00022929	6.466e-05	1191.7	2.6364e-06	2.4723e-06	1258.7	252.49	2.6045e-06	2.5073e-06	314.5	88.47	69.28	20.538	2.5482e-06	29.001	323.053	226.287	240.949	144.638	278.159	301.013	144.379	151.673	320.147	290.338	151.850	157.953	158.059	165.549	278.768	164.684	-8191	255	
712.816	1	1	0	0	0.23885	0.14402	0.25791	0.096426	0.15532	0.12896	0.12901	0.36603	0.10434	0.13935	0.042059	0.18627	0.11244	0.045943	0.013609	0.070201	-3.3417	-3.2958	-3.4729	-3.6521	-3.2562	-3.6667	-3.6042	-3.425	-3.7375	-3.1625	-3.7875	-3.7083	-3.2271	-3.6833	-3.4354	-3.4375	157.271	401.648	139.914	423.883	445.431	282.440	387.191	377.334	280.406	276.862	240.648	434.716	418.302	291.737	408.778	149.220	0.00063217	0.00030478	6.7949e-05	1201.8	2.7658e-06	1.729e-06	1269.9	254.11	4.9012e-06	2.835e-06	313.1	88.405	69.592	20.085	4.9849e-06	28.349	0.00032294	0.0002427	5.9047e-05	1193.8	2.68e-06	2.3345e-06	1257.6	253.21	2.5321e-06	2.5543e-06	315.3	88.611	69.442	20.562	2.4138e-06	28.948	321.346	233.991	230.250	144.441	273.254	288.401	144.397	152.049	305.190	286.537	151.214	157.735	157.899	165.132	310.001	164.138	-8191	255	
712.912	1	1	0	0	0.0065028	0.12081	0.12916	0.24526	0.14364	0.084039	0.18971	0.2554	0.092735	0.094908	0.06045	0.12594	0.26764	0.23741	0.15354	0.054497	-3.475	-3.2479	-3.2875	-3.7354	-3.1458	-3.6271	-3.6	-3.45	-3.7104	-3.3583	-3.575	-3.5604	-3.25	-3.8458	-3.6604	-3.3063	314.510	238.792	312.902	367.596	249.748	328.294	482.242	352.606	208.476	380.010	317.406	344.340	163.741	421.904	187.643	173.460	0.00066	0.00022642	0.00010482	1213.5	2.9431e-06	1.7741e-06	1273.8	254.29	7.0333e-06	4.0436e-06	315.87	88.528	69.358	20.388	4.8354e-06	28.405	0.00032761	0.00021841	6.1171e-05	1197.2	2.8715e-06	2.2979e-06	1260.7	253.51	2.6828e-06	2.6424e-06	316.53	88.682	69.482	20.617	2.4538e-06	29.112	324.045	247.578	238.891	144.451	265.500	306.978	144.452	151.760	319.534	288.684	151.463	158.029	158.311	165.193	279.564	164.237	-8191	255	
713.008	1	1	0	0	0.15261	0.17251	0.089137	0.20352	0.17351	0.13801	0.39781	0.15955	0.25969	0.043638	0.28756	0.059228	0.070018	0.25669	0.20471	0.081393	-3.3937	-3.3167	-3.3708	-3.7208	-3.0958	-3.6229	-3.6042	-3.3042	-3.6521	-3.4479	-3.4125	-3.7792	-3.2542	-3.5833	-3.575	-3.2938	406.516	388.530	223.691	201.656	458.718	166.134	405.483	483.091	431.384	224.312	203.108	171.376	245.008	421.742	179.815	251.952	0.0006551	0.00038834	7.4882e-05	1207.6	3.9812e-06	3.0133e-06	1271.8	254.66	5.9698e-06	4.2031e-06	314.38	88.444	69.359	20.087	2.5924e-06	28.544	0.00032665	0.0002196	6.3477e-05	1196.9	2.6829e-06	2.3357e-06	1260.1	253.23	2.6045e-06	2.5739e-06	315.92	88.594	69.436	20.586	2.4144e-06	29.078	320.351	218.184	227.375	144.607	244.291	288.683	144.325	151.673	314.034	279.143	151.536	157.844	158.209	165.204	286.628	164.692	-8191	255	
713.129	1	1	0	0	0.14404	0.077014	0.25404	0.16336	0.11556	0.33401	0.25048	0.1336	0.10083	0.1202	0.15345	0.21059	0.10798	0.08289	0.15086	0.052144	-3.3187	-3.4125	-3.3417	-3.95	-3.2896	-3.6208	-3.7375	-3.3042	-3.625	-3.5521	-3.3271	-3.8542	-3.3771	-3.5583	-3.7313	-3.2875	492.625	469.489	359.476	165.218	244.747	241.289	447.299	245.024	247.880	354.887	467.446	486.032	143.394	314.900	491.948	171.887	0.00066848	0.00045651	7.6769e-05	1209.2	3.0441e-06	2.2174e-06	1275.3	254.66	5.8871e-06	4.2204e-06	317.07	88.578	69.414	20.13	3.7698e-06	28.529	0.00032201	0.00024259	6.8499e-05	1196.6	2.5906e-06	2.6295e-06	1262.3	253.35	2.6392e-06	2.3048e-06	316.15	88.73	69.487	20.589	2.4916e-06	29.111	322.388	224.751	229.064	144.461	266.397	290.646	144.615	151.880	315.564	293.514	151.215	158.114	158.127	165.229	289.520	164.116	-8191	255	
713.225	1	1	0	0	0.022736	0.16818	0.18945	0.051591	0.15041	0.14405	0.15983	0.42196	0.13684	0.035391	0.21149	0.12326	0.057803	0.066683	0.12573	0.21421	-3.2354	-3.3937	-3.2229	-3.7958	-3.3979	-3.5	-3.7833	-3.1917	-3.7479	-3.5187	-3.4313	-3.7542	-3.2104	-3.5042	-3.8667	-3.3458	144.853	482.423	458.295	381.272	478.711	264.308	474.248	404.245	247.961	428.298	178.633	365.215	247.157	251.547	233.809	429.902	0.00063649	0.00035836	7.6682e-05	1202.5	3.2575e-06	3.4615e-06	1274.3	254.76	8.1253e-06	2.7623e-06	316.11	88.216	69.31	20.276	3.7938e-06	28.5	0.00031282	0.00022278	6.4008e-05	1194.2	2.691e-06	2.4357e-06	1260.2	253.8	2.6567e-06	2.4785e-06	315.15	88.667	69.343	20.6	2.3505e-06	29.039	321.915	235.450	222.978	144.228	270.814	278.578	144.460	151.885	321.387	298.791	150.973	157.931	157.876	165.383	292.936	164.321	-8191	255	
713.319	1	1	0	0	0.26846	0.1593	0.071482	0.27661	0.15167	0.15629	0.17928	0.15408	0.23032	0.15328	0.21416	0.15376	0.054186	0.11358	0.31772	0.065348	-3.1667	-3.6125	-3.2896	-3.7792	-3.4417	-3.4896	-3.9	-3.3083	-3.7313	-3.6688	-3.2854	-3.8979	-3.4042	-3.2042	-3.775	-3.2667	413.586	324.747	340.104	452.930	489.785	460.380	447.152	154.992	421.516	283.244	327.467	487.183	349.538	395.043	293.477	387.920	0.00066455	0.0002308	0.00011222	1206.1	4.2671e-06	3.367e-06	1273.3	255.07	6.9195e-06	3.3181e-06	316.41	88.741	69.433	20.266	3.5951e-06	28.419	0.00032809	0.00023333	6.3735e-05	1195.4	2.579e-06	2.5088e-06	1258.1	253.54	2.5933e-06	2.3207e-06	316.47	88.884	69.519	20.625	2.4599e-06	29.033	321.796	205.390	233.286	144.380	286.709	277.040	144.427	151.602	308.444	287.551	151.498	158.006	158.251	165.338	301.388	164.460	-8191	255	
713.416	1	1	0	0	0.052284	0.20647	0.19031	0.15894	0.15141	0.086022	0.25129	0.21092	0.18535	0.23361	0.061986	0.25565	0.31586	0.26043	0.17852	0.15531	-3.1312	-3.625	-3.1104	-3.6833	-3.3625	-3.325	-3.8583	-3.2729	-3.3063	-3.7188	-3.2812	-3.5979	-3.5062	-3.2188	-3.7687	-3.4208	230.439	427.118	235.094	143.984	314.490	405.386	462.224	199.302	169.404	407.849	421.474	350.497	426.949	211.243	415.199	332.500	0.00061841	0.00034388	7.3442e-05	1209.3	3.4631e-06	2.2061e-06	1272.7	254.24	5.0814e-06	2.3916e-06	314.81	88.427	69.546	20.197	3.1166e-06	28.405	0.00031775	0.00021847	6.2445e-05	1195	2.5076e-06	2.4436e-06	1260.8	253.44	2.7137e-06	2.221e-06	315.94	88.856	69.518	20.654	2.2766e-06	29.051	320.517	225.641	241.761	144.542	283.031	277.931	144.472	151.687	313.808	289.008	151.417	158.030	158.271	165.096	277.925	164.131	-8191	255	
713.512	1	1	0	0	0.21569	0.16285	0.19439	0.068228	0.04124	0.20044	0.27701	0.23015	0.30081	0.018081	0.22758	0.11592	0.22575	0.092648	0.10124	0.22041	-3.15	-3.5021	-3.2625	-3.7083	-3.5479	-3.3125	-3.8125	-3.4188	-3.4938	-3.5667	-3.3708	-3.6917	-3.6917	-3.1729	-3.7146	-3.3292	461.007	374.946	360.304	472.722	211.190	153.672	441.159	435.068	368.187	445.458	387.214	444.789	458.593	222.942	444.257	438.429	0.00060959	0.00034003	9.0293e-05	1201.6	2.859e-06	2.9956e-06	1272.3	253.27	7.1481e-06	2.6389e-06	316.26	88.177	69.502	20.217	4.9555e-06	28.402	0.00032268	0.00020915	6.9197e-05	1193.1	2.3828e-06	2.4625e-06	1261.1	252.85	2.6312e-06	2.4314e-06	315.91	88.549	69.447	20.601	2.4866e-06	29.026	321.412	221.826	193.682	144.577	253.947	289.821	144.701	151.991	315.336	294.488	151.449	158.071	158.406	164.903	279.586	164.471	-8191	255	
713.608	1	1	0	0	0.30631	0.076618	0.040692	0.097979	0.053672	0.14815	0.16525	0.15321	0.16226	0.21245	0.10149	0.077547	0.25682	0.15521	0.16806	0.1927	-2.8812	-3.6979	-3.0438	-3.6437	-3.6646	-3.1021	-3.9917	-3.4979	-3.4458	-3.7333	-3.4104	-3.5271	-3.6771	-3.1729	-3.6562	-3.6833	394.599	213.773	305.759	165.034	222.976	197.035	428.496	403.836	346.125	462.485	466.261	478.974	459.552	203.896	361.711	238.649	0.00063557	0.00028471	9.7447e-05	1201.8	2.4509e-06	2.5696e-06	1271.6	254.36	8.3014e-06	2.9568e-06	315.67	88.277	69.369	20.248	4.365e-06	28.347	0.00032956	0.00023209	5.9988e-05	1193.8	2.4629e-06	2.4339e-06	1260	253.36	2.8459e-06	2.4039e-06	316.44	88.621	69.456	20.63	2.3782e-06	29.004	322.663	251.648	236.962	144.768	265.882	293.788	144.515	151.931	310.728	286.090	151.338	157.986	158.463	165.181	297.938	164.318	-8191	255	
713.704	1	1	0	0	0.23719	0.097528	0.10391	0.083135	0.10536	0.20878	0.1432	0.35489	0.055215	0.19154	0.31785	0.16144	0.13201	0.099063	0.17889	0.18623	-3.0792	-3.7896	-3.0729	-3.5208	-3.6437	-3.2625	-3.7583	-3.4938	-3.2708	-3.7729	-3.2125	-3.4562	-3.6667	-3.2521	-3.7188	-3.5917	290.159	169.594	271.943	360.030	153.286	227.821	142.140	403.257	217.295	311.326	452.930	172.277	349.723	382.503	344.849	423.204	0.00061459	0.00033556	0.0001036	1208.3	2.8223e-06	1.6732e-06	1272.1	254.8	6.9423e-06	4.0077e-06	313.06	88.81	69.279	20.266	5.7838e-06	28.425	0.000307	0.00022789	6.4387e-05	1194.7	2.2099e-06	2.5094e-06	1259.4	253.36	2.6413e-06	2.4057e-06	315.16	88.908	69.323	20.607	2.4427e-06	29.004	321.294	218.532	230.610	144.776	279.526	293.831	144.396	152.114	320.752	281.867	151.546	157.834	158.340	165.139	297.777	164.277	-8191	255	
713.825	1	1	0	0	0.07668	0.14108	0.053345	0.13789	0.062721	0.10832	0.24788	0.2787	0.048637	0.055116	0.06315	0.14043	0.073045	0.15979	0.30476	0.28001	-2.9688	-3.7896	-3.3396	-3.3729	-3.6042	-3.1625	-3.6479	-3.6271	-3.2958	-3.5958	-3.4271	-3.55	-3.7833	-3.3	-3.5792	-3.5875	239.250	188.836	327.676	169.840	216.607	203.353	426.175	444.646	461.459	353.964	483.063	161.177	404.772	493.786	370.241	217.584	0.00061306	0.00037959	7.1521e-05	1206.8	4.0913e-06	2.0541e-06	1273	253.72	4.6321e-06	2.5637e-06	314.23	88.776	69.753	20.338	4.8056e-06	28.379	0.00031273	0.00021222	6.0807e-05	1196.4	2.4658e-06	2.4784e-06	1260.9	253.4	2.6455e-06	2.4296e-06	315.62	88.979	69.632	20.619	2.3321e-06	29	321.526	243.149	213.294	144.530	287.524	296.886	144.546	151.849	302.022	274.000	151.612	158.057	158.165	165.113	290.755	164.591	-8191	255	
713.921	1	1	0	0	0.2453	0.1877	0.32459	0.041928	0.1104	0.20437	0.11415	0.13461	0.16547	0.14707	0.057732	0.08907	0.0901	0.079161	0.23351	0.23608	-2.5438	-3.7125	-3.3875	-3.3292	-3.7458	-3.3312	-3.8438	-3.8271	-3.2458	-3.6458	-3.6042	-3.3167	-3.8333	-3.3875	-3.5896	-3.6917	426.335	155.442	270.098	362.596	165.555	229.383	398.266	157.482	323.701	486.660	475.942	177.594	139.727	195.809	308.119	405.601	0.00063797	0.00028562	0.00011656	1216.9	3.2695e-06	2.8159e-06	1269	253.9	6.8627e-06	1.8969e-06	315.58	88.478	69.569	20.203	3.5945e-06	28.413	0.0003142	0.00021093	6.2354e-05	1198.4	2.319e-06	2.5113e-06	1259.2	253.39	2.816e-06	2.465e-06	315.72	88.753	69.479	20.624	2.4866e-06	29.037	321.735	246.977	233.129	144.563	305.268	277.834	144.641	151.954	321.159	267.615	151.353	157.668	158.051	165.045	304.935	164.369	-8191	255	
714.017	1	1	0	0	0.053442	0.10078	0.13833	0.36719	0.18872	0.1208	0.19515	0.22872	0.20575	0.21881	0.13181	0.10078	0.061235	0.05931	0.17905	0.055928	-2.8042	-3.6937	-3.3563	-3.1667	-3.5792	-3.1729	-3.5625	-3.7	-3.2958	-3.7083	-3.5417	-3.3167	-3.7146	-3.2458	-3.3083	-3.875	452.872	366.568	482.843	479.944	481.786	397.191	431.314	136.600	220.247	143.031	215.130	188.882	249.524	197.204	150.794	467.365	0.0006094	0.00016594	6.9543e-05	1207.1	3.0866e-06	2.2447e-06	1273.9	254.75	6.1206e-06	3.5653e-06	315.06	88.441	69.323	20.255	2.6698e-06	28.627	0.00032166	0.00020689	5.9775e-05	1196.6	2.3399e-06	2.5655e-06	1260.4	253.51	2.7324e-06	2.2699e-06	315.98	88.721	69.426	20.591	2.356e-06	29.065	324.004	236.679	241.614	144.567	285.046	316.530	144.512	151.955	316.192	290.166	151.413	157.940	158.098	165.167	276.602	164.194	-8191	255	
714.089	1	1	0	0	0.27877	0.2056	0.17306	0.19223	0.096368	0.058578	0.16859	0.14532	0.18322	0.18666	0.084302	0.21209	0.031143	0.063276	0.052119	0.11663	-2.9458	-3.4333	-3.525	-3.4271	-3.7313	-3.4104	-3.5542	-3.7583	-3.2479	-3.4792	-3.7104	-3.1708	-3.7021	-3.475	-3.4688	-3.8292	156.719	264.786	463.526	193.811	302.533	188.930	396.009	412.249	472.506	367.874	444.850	198.144	307.467	301.279	232.177	366.466	0.00063165	0.00014471	0.00010406	1202.3	3.4611e-06	3.7241e-06	1274.4	256.19	5.1976e-06	4.3713e-06	316.49	88.67	69.476	20.134	4.5132e-06	28.368	0.00031794	0.00021152	6.2506e-05	1195.7	2.312e-06	2.3985e-06	1258.5	253.84	2.6487e-06	2.2766e-06	316.51	88.689	69.49	20.6	2.5149e-06	29.013	320.627	227.829	243.625	144.553	286.473	278.436	144.491	152.000	325.636	323.900	151.439	158.079	158.307	164.939	289.140	164.496	-8191	255	
714.207	1	1	0	0	0.15602	0.1022	0.14392	0.017247	0.10551	0.1426	0.30196	0.29065	0.2968	0.24998	0.10222	0.21581	0.26093	0.14346	0.13494	0.21049	-2.9313	-3.4625	-3.725	-3.1021	-3.5771	-3.5062	-3.4021	-3.9354	-3.225	-3.3833	-3.7354	-3.2583	-3.7687	-3.5042	-3.2542	-3.7458	143.893	340.426	249.141	395.374	263.075	391.956	467.853	383.751	166.766	326.897	430.578	194.023	357.140	343.992	325.383	187.108	0.00063514	0.00031231	0.00010464	1208.1	3.5735e-06	3.7217e-06	1275.3	255.25	5.3571e-06	3.7973e-06	315.26	87.897	69.641	20.17	4.7093e-06	28.39	0.00032268	0.00022698	5.9062e-05	1195.2	2.5616e-06	2.3449e-06	1260.8	253.56	2.8038e-06	2.254e-06	316.11	88.475	69.462	20.607	2.5288e-06	28.953	321.381	250.731	224.480	145.124	278.950	289.390	144.579	151.863	312.065	300.078	151.661	158.029	158.319	165.263	285.253	164.884	-8191	255	
714.304	1	1	0	0	0.060627	0.16194	0.16222	0.11652	0.092058	0.15309	0.25358	0.26823	0.22327	0.22051	0.2635	0.11712	0.038619	0.18629	0.11069	0.13662	-2.7083	-3.4083	-3.6333	-3.2729	-3.5146	-3.5521	-3.4271	-3.8083	-3.2188	-3.4083	-3.6479	-3.4479	-3.7521	-3.575	-3.4333	-3.8375	170.584	456.105	367.543	451.840	293.393	139.442	475.983	410.047	241.726	317.886	475.414	391.264	250.469	285.148	235.599	384.094	0.0006447	0.00034553	9.2379e-05	1205.6	2.6945e-06	3.3036e-06	1273.1	255.53	7.3143e-06	3.247e-06	314.04	88.297	69.682	20.317	3.6128e-06	28.496	0.00033071	0.0002294	5.8546e-05	1195.2	2.3225e-06	2.3772e-06	1261.2	253.92	2.7835e-06	2.4669e-06	316.45	88.772	69.555	20.632	2.4971e-06	29.028	321.469	213.988	217.542	144.790	278.803	278.378	144.668	151.763	315.439	283.552	151.507	157.963	158.249	165.396	283.853	164.610	-8191	255	
714.400	1	1	0	0	0.21529	0.32079	0.12887	0.027873	0.07341	0.22159	0.21679	0.10848	0.25578	0.19396	0.20698	0.10526	0.17463	0.07762	0.20811	0.092781	-2.9188	-3.2979	-3.7292	-3.1521	-3.6521	-3.7417	-3.2583	-3.9375	-3.2146	-3.2854	-3.8542	-3.4417	-3.5792	-3.6937	-3.1854	-3.7125	375.978	248.206	259.392	352.879	291.563	204.598	418.480	409.666	294.558	173.690	482.484	376.449	149.321	487.135	309.395	226.787	0.00063618	0.00022573	8.6996e-05	1207.2	3.4168e-06	2.8074e-06	1268.1	254.46	6.56e-06	4.4298e-06	315.89	88.331	69.59	20.278	4.1343e-06	28.476	0.00030633	0.00021174	5.486e-05	1194	2.413e-06	2.2644e-06	1258.7	253.52	2.6056e-06	2.6027e-06	315.85	88.56	69.552	20.619	2.4788e-06	29.047	320.901	248.659	203.456	144.448	268.523	291.903	144.584	151.935	309.327	286.341	151.343	157.815	158.329	165.536	292.934	164.158	-8191	255	
#DATA ENDS
