BOXY.EXE: ISS Imagent and Oximeter Data Acquisition Program Version 0.80
Ascii Record File

#ACQ INFORMATION
2  Detector Channels 
16  External MUX Channels 
1  Auxiliary Channels 
5000  Waveform (CCF) Frequency (Hz)
1  Waveforms Skipped 
30  Waveforms Averaged 
1  Cycles Averaged 
16  Acquisitions per Waveform 
10.0806  Updata Rate (Hz) 

#FILE INFORMATION
TRUE -- External MUX Channel results are PARSED.
FALSE -- AC DC and Phase are NOT grouped.
TRUE -- Companion Program Settings File CREATED.
FALSE -- AC data not excluded
FALSE -- DC data not excluded
FALSE -- Phase data not excluded
FALSE -- Auxillary Chn. data not excluded
Tab delimiters

#CALIBRATION STATE
TRUE -- Waveform Calibration Values APPLIED.


#AUX CALIBRATION VALUES
Val Type	aux-1	

Term	1.0000e+00	
Factor	0.0000e+00	


#WF CALIBRATION VALUES
A = Detector Channel
Val Type	A-AC1	A-AC2	A-AC3	A-AC4	A-AC5	A-AC6	A-AC7	A-AC8	A-AC9	A-AC10	A-AC11	A-AC12	A-AC13	A-AC14	A-AC15	A-AC16	A-DC1	A-DC2	A-DC3	A-DC4	A-DC5	A-DC6	A-DC7	A-DC8	A-DC9	A-DC10	A-DC11	A-DC12	A-DC13	A-DC14	A-DC15	A-DC16	A-Ph1	A-Ph2	A-Ph3	A-Ph4	A-Ph5	A-Ph6	A-Ph7	A-Ph8	A-Ph9	A-Ph10	A-Ph11	A-Ph12	A-Ph13	A-Ph14	A-Ph15	A-Ph16	

Term	0.00000e+00	0.00000e+00	0.00000e+00	0.00000e+00	0.00000e+00	0.00000e+00	0.00000e+00	0.00000e+00	0.00000e+00	0.00000e+00	0.00000e+00	0.00000e+00	0.00000e+00	0.00000e+00	0.00000e+00	0.00000e+00	0.00000e+00	0.00000e+00	0.00000e+00	0.00000e+00	0.00000e+00	0.00000e+00	0.00000e+00	0.00000e+00	0.00000e+00	0.00000e+00	0.00000e+00	0.00000e+00	0.00000e+00	0.00000e+00	0.00000e+00	0.00000e+00	0.00000e+00	0.00000e+00	0.00000e+00	0.00000e+00	0.00000e+00	0.00000e+00	0.00000e+00	0.00000e+00	0.00000e+00	0.00000e+00	0.00000e+00	0.00000e+00	0.00000e+00	0.00000e+00	0.00000e+00	0.00000e+00	
Factor	1.00000e+00	1.00000e+00	1.00000e+00	1.00000e+00	1.00000e+00	1.00000e+00	1.00000e+00	1.00000e+00	1.00000e+00	1.00000e+00	1.00000e+00	1.00000e+00	1.00000e+00	1.00000e+00	1.00000e+00	1.00000e+00	1.00000e+00	1.00000e+00	1.00000e+00	1.00000e+00	1.00000e+00	1.00000e+00	1.00000e+00	1.00000e+00	1.00000e+00	1.00000e+00	1.00000e+00	1.00000e+00	1.00000e+00	1.00000e+00	1.00000e+00	1.00000e+00	X	X	X	X	X	X	X	X	X	X	X	X	X	X	X	X	

B = Detector Channel
Val Type	B-AC1	B-AC2	B-AC3	B-AC4	B-AC5	B-AC6	B-AC7	B-AC8	B-AC9	B-AC10	B-AC11	B-AC12	B-AC13	B-AC14	B-AC15	B-AC16	B-DC1	B-DC2	B-DC3	B-DC4	B-DC5	B-DC6	B-DC7	B-DC8	B-DC9	B-DC10	B-DC11	B-DC12	B-DC13	B-DC14	B-DC15	B-DC16	B-Ph1	B-Ph2	B-Ph3	B-Ph4	B-Ph5	B-Ph6	B-Ph7	B-Ph8	B-Ph9	B-Ph10	B-Ph11	B-Ph12	B-Ph13	B-Ph14	B-Ph15	B-Ph16	

Term	0.00000e+00	0.00000e+00	0.00000e+00	0.00000e+00	0.00000e+00	0.00000e+00	0.00000e+00	0.00000e+00	0.00000e+00	0.00000e+00	0.00000e+00	0.00000e+00	0.00000e+00	0.00000e+00	0.00000e+00	0.00000e+00	0.00000e+00	0.00000e+00	0.00000e+00	0.00000e+00	0.00000e+00	0.00000e+00	0.00000e+00	0.00000e+00	0.00000e+00	0.00000e+00	0.00000e+00	0.00000e+00	0.00000e+00	0.00000e+00	0.00000e+00	0.00000e+00	5.32887e+00	-1.29929e+02	-1.28731e+02	-1.84746e+02	-7.04180e+01	-6.91937e+01	-1.57922e+02	-1.62015e+02	-2.77445e+01	-6.81129e+01	-1.79083e+02	-1.70094e+02	-1.79662e+02	-1.77090e+02	-5.99893e+01	-1.50031e+02	
Factor	3.72528e-05	1.74124e-04	4.89623e-05	5.67296e-01	1.96177e-06	1.72426e-06	1.76438e-01	6.39805e-02	2.34682e-06	1.97558e-06	1.09870e-01	2.83453e-02	2.58785e-02	9.19466e-03	2.23646e-06	1.37262e-02	1.53627e-05	2.58478e-05	7.28226e-06	2.83297e-01	2.78559e-07	2.92575e-07	8.32134e-02	3.23121e-02	2.55711e-07	2.93603e-07	5.34728e-02	1.39108e-02	1.31685e-02	4.70685e-03	2.66657e-07	6.77598e-03	X	X	X	X	X	X	X	X	X	X	X	X	X	X	X	X	



#DISTANCE SETTINGS
A = Detector Channel
A-1	A-2	A-3	A-4	A-5	A-6	A-7	A-8	A-9	A-10	A-11	A-12	A-13	A-14	A-15	A-16	

2.5000e+00	3.0000e+00	2.5000e+00	3.0000e+00	2.0000e+00	3.0000e+00	1.5000e+00	3.0000e+00	3.0000e+00	3.0000e+00	3.0000e+00	3.0000e+00	3.0000e+00	3.0000e+00	1.5000e+00	3.0000e+00	

B = Detector Channel
B-1	B-2	B-3	B-4	B-5	B-6	B-7	B-8	B-9	B-10	B-11	B-12	B-13	B-14	B-15	B-16	

1.0000e+01	1.0000e+01	1.0000e+01	1.4400e+00	1.0000e+01	1.0000e+01	1.5100e+00	1.9400e+00	1.0000e+01	1.0000e+01	1.9900e+00	2.4900e+00	2.4100e+00	2.9000e+00	1.0000e+01	2.9800e+00	




#DATA BEGINS
time	group	step	mark	flag	A-AC1	A-AC2	A-AC3	A-AC4	A-AC5	A-AC6	A-AC7	A-AC8	A-AC9	A-AC10	A-AC11	A-AC12	A-AC13	A-AC14	A-AC15	A-AC16	A-DC1	A-DC2	A-DC3	A-DC4	A-DC5	A-DC6	A-DC7	A-DC8	A-DC9	A-DC10	A-DC11	A-DC12	A-DC13	A-DC14	A-DC15	A-DC16	A-Ph1	A-Ph2	A-Ph3	A-Ph4	A-Ph5	A-Ph6	A-Ph7	A-Ph8	A-Ph9	A-Ph10	A-Ph11	A-Ph12	A-Ph13	A-Ph14	A-Ph15	A-Ph16	B-AC1	B-AC2	B-AC3	B-AC4	B-AC5	B-AC6	B-AC7	B-AC8	B-AC9	B-AC10	B-AC11	B-AC12	B-AC13	B-AC14	B-AC15	B-AC16	B-DC1	B-DC2	B-DC3	B-DC4	B-DC5	B-DC6	B-DC7	B-DC8	B-DC9	B-DC10	B-DC11	B-DC12	B-DC13	B-DC14	B-DC15	B-DC16	B-Ph1	B-Ph2	B-Ph3	B-Ph4	B-Ph5	B-Ph6	B-Ph7	B-Ph8	B-Ph9	B-Ph10	B-Ph11	B-Ph12	B-Ph13	B-Ph14	B-Ph15	B-Ph16	aux-1	digaux	

1331.558	1	1	0	512	0.15503	0.19387	0.16229	0.21982	0.11383	0.060844	0.074471	0.061099	0.086184	0.11175	0.11763	0.16671	0.23208	0.022438	0.071156	0.15073	-2.8167	-2.9896	-3.6354	-3.0563	-3.2687	-3.4333	-3.1312	-3.4292	-3.3521	-3.2208	-3.6708	-3.2229	-3.2292	-3.4	-2.9062	-3.3396	210.878	-24.543	-111.729	104.533	211.864	-73.658	-60.347	109.669	-109.922	-27.524	153.323	-126.034	223.076	23.651	122.884	54.965	0.00052019	0.0024711	0.00057489	430.73	1.8271e-05	6.1272e-06	504.75	180.33	1.3804e-05	1.132e-05	205.84	79.863	67.698	34.914	1.1189e-05	31.303	0.010101	0.016811	0.004735	568.17	0.00017832	0.00018811	501.85	181.98	0.00016355	0.00018914	218.01	79.85	69.307	34.609	0.00017259	32.463	-5.215	22.943	-29.218	-117.055	11.921	167.314	-118.795	-112.052	-4.995	213.454	-115.460	-111.651	-108.369	-104.261	-50.624	-108.721	-8191	255	
1331.655	1	1	0	0	0.19838	0.13826	0.080457	0.095065	0.13498	0.095241	0.096395	0.080731	0.16969	0.12773	0.086242	0.20875	0.17078	0.34773	0.076471	0.26203	-2.9188	-2.9229	-3.4458	-3.0167	-3.2333	-3.425	-3.1104	-3.3208	-3.3625	-3.1312	-3.25	-3.2188	-3.1937	-3.5854	-3.0667	-3.4271	125.417	-4.707	140.564	224.216	84.707	-18.360	-77.884	76.730	133.442	104.579	-37.956	223.771	31.819	160.016	219.632	54.552	0.00035678	0.0013625	0.00038848	437.9	1.2437e-05	1.1962e-05	511.4	184.3	9.4108e-06	1.3408e-05	209.7	80.816	68.645	35.004	2.3597e-05	31.547	0.01005	0.016587	0.0047107	565.76	0.00017841	0.00018736	504.67	183.27	0.00016254	0.00018563	220.83	81.153	70.199	34.812	0.00016961	32.758	0.139	53.330	-118.183	-117.642	-0.428	-61.652	-118.663	-111.760	213.080	-69.288	-115.061	-111.689	-108.416	-104.033	182.946	-107.691	-8191	255	
1331.751	1	1	0	0	0.28654	0.26971	0.094673	0.12935	0.16047	0.34184	0.099	0.093068	0.11251	0.1943	0.19047	0.3881	0.11755	0.2842	0.25856	0.14298	-3.1583	-3.0979	-3.3312	-3.1417	-3.2146	-3.6312	-3.0687	-3.325	-3.3187	-3.1437	-3.5208	-3.1625	-3.1562	-3.6021	-3.0563	-3.2417	147.588	67.232	182.466	-70.628	-56.822	-60.089	144.701	51.041	137.244	39.504	127.452	163.931	-126.492	149.405	87.012	-34.666	0.00051231	0.00036694	0.00028062	434.89	1.4429e-05	8.9287e-06	514.12	182.57	8.0161e-06	1.2872e-05	212.14	81.815	69.212	35.464	1.9944e-05	32.487	0.0098794	0.016338	0.0046485	567.26	0.00017747	0.00018796	509.33	184.33	0.00016352	0.00018719	223.34	81.954	70.51	35.104	0.00016914	33.08	-15.312	2.599	-81.153	-117.243	5.234	18.947	-119.031	-111.904	60.771	1.739	-115.665	-111.461	-108.128	-104.258	65.049	-107.694	-8191	255	
1331.871	1	1	0	0	0.14196	0.086644	0.14853	0.085466	0.32579	0.17946	0.20855	0.19427	0.2378	0.19424	0.043163	0.069459	0.10147	0.1597	0.29917	0.14152	-3.0125	-2.8	-3.4854	-3.3229	-3.1792	-3.6021	-3.2479	-3.1354	-3.3542	-3.0396	-3.525	-3.3729	-3.1	-3.6104	-3.1875	-3.1667	-30.164	-100.327	63.107	-96.469	-78.034	-88.457	158.327	177.965	41.485	-83.045	-83.056	179.859	-127.182	117.759	-16.779	-46.026	0.00044629	0.0012339	0.00025411	442.81	6.3426e-06	5.1193e-06	521.28	183.97	1.7005e-05	2.0001e-05	213.74	81.246	69.709	35.693	1.6517e-05	31.95	0.0098592	0.016571	0.0047106	569.2	0.00017914	0.00018723	514.2	185.17	0.00016558	0.00019083	224.33	81.902	70.72	35.229	0.00017202	33.079	-14.751	50.148	-36.110	-117.260	103.403	157.422	-119.223	-112.135	-15.210	-11.177	-115.328	-111.530	-108.281	-103.932	81.328	-107.828	-8191	255	
1331.943	1	1	0	0	0.074339	0.16266	0.047459	0.062141	0.14422	0.19984	0.18071	0.15089	0.21174	0.045363	0.29274	0.04605	0.18431	0.072498	0.061747	0.039296	-3.0938	-2.9604	-3.3479	-3.4208	-3.0187	-3.6042	-3.35	-3.3458	-3.2687	-3.0812	-3.4125	-3.5042	-2.8646	-3.5667	-3.0312	-3.1771	225.755	226.415	-97.844	107.165	41.516	45.901	158.674	-15.111	63.181	179.181	213.782	35.903	92.569	-99.329	192.382	-25.832	0.00015762	0.0017837	0.00020256	440.62	8.4945e-06	6.0775e-06	514.98	182.77	2.2892e-06	8.0318e-06	208.75	80.973	69.687	35.921	6.483e-06	31.694	0.010067	0.016567	0.004673	568.25	0.00017766	0.00018794	509.97	183.8	0.00016464	0.00018646	221.36	81.136	70.453	35.277	0.00017055	32.831	-41.806	28.881	-14.009	-116.816	156.692	-115.787	-118.734	-112.041	117.963	-9.306	-114.802	-111.634	-108.533	-104.417	-64.513	-107.880	-8191	255	
1332.037	1	1	0	0	0.033005	0.18201	0.18498	0.26003	0.064328	0.23063	0.23609	0.060419	0.11515	0.13549	0.15736	0.18117	0.24767	0.35641	0.24688	0.069145	-3.0542	-2.9375	-3.2792	-3.4854	-3.0833	-3.55	-3.2792	-2.9208	-3.4271	-3.1917	-3.2375	-3.5229	-3.0625	-3.3792	-3.2917	-2.9667	48.117	-2.072	-13.386	99.487	17.141	86.373	60.267	193.974	-18.784	129.326	-30.702	201.743	77.996	-106.475	-74.461	189.178	0.00046876	0.0009286	0.00028312	438.77	4.5998e-07	7.7036e-06	513.77	183.62	1.6261e-05	5.842e-06	211.5	81.038	69.312	36.023	1.3669e-05	32.14	0.0099682	0.016718	0.0045917	569.71	0.00017692	0.00018657	507.82	184.56	0.00016261	0.00018599	221.63	81.438	70.511	35.41	0.000168	33.216	-30.337	-41.830	106.267	-117.728	188.067	-0.284	-118.869	-112.129	74.497	-50.370	-115.066	-111.663	-108.912	-103.839	-3.266	-108.646	-8191	255	
1332.134	1	1	0	0	0.073525	0.11929	0.14892	0.14976	0.034103	0.19613	0.2197	0.31708	0.10609	0.1637	0.1667	0.12345	0.036202	0.17085	0.18149	0.36708	-3.2729	-3.0021	-3.4292	-3.4688	-3.075	-3.2604	-3.2917	-2.8917	-3.4958	-3.2354	-3.0646	-3.4625	-2.9792	-3.5	-3.4125	-3.0896	-36.905	34.205	-82.737	52.100	25.423	139.963	205.023	119.838	9.693	105.886	59.783	-91.758	88.491	166.304	2.970	83.542	0.00028771	0.00066901	0.00018666	439.46	1.3513e-05	6.3331e-06	516.5	185.22	3.8262e-06	2.3074e-05	212.09	81.457	69.837	36.131	3.3502e-06	32.387	0.0098924	0.016317	0.0046086	571.2	0.00017889	0.00018458	510.49	185.21	0.00016309	0.00018411	223.2	81.645	70.736	35.659	0.00016861	33.516	-12.389	25.190	-97.153	-117.763	185.564	104.523	-119.102	-112.184	224.061	-41.844	-115.212	-111.859	-108.700	-103.913	96.385	-108.369	-8191	255	
1332.254	1	1	0	0	0.086985	0.24319	0.31405	0.12364	0.030697	0.05202	0.05444	0.030095	0.076446	0.10867	0.084239	0.12795	0.062065	0.16748	0.083391	0.18049	-3.1333	-3.175	-3.1375	-3.5812	-3.0938	-3.4354	-3.4708	-2.9437	-3.3354	-3.2625	-3.1625	-3.4125	-3.0958	-3.3771	-3.3979	-2.9583	201.696	-112.725	-110.088	-23.787	144.169	180.352	-78.717	-84.546	-87.638	-23.698	138.281	161.375	198.481	-105.011	167.849	-85.089	0.0004111	0.0018039	0.00032055	433.92	7.2013e-06	4.0739e-06	517.19	183.39	1.9889e-05	1.9031e-05	210.16	79.797	68.508	36.087	1.2894e-05	32.22	0.0099205	0.016634	0.0046325	569.3	0.00017947	0.00018787	510.74	185.17	0.00016472	0.00018645	221.37	80.593	69.921	35.632	0.00017092	33.539	-27.725	112.013	-12.484	-117.286	-92.586	29.483	-118.535	-112.058	99.481	36.402	-114.879	-111.509	-108.374	-104.137	-3.072	-107.640	-8191	255	
1332.350	1	1	0	0	0.21041	0.11617	0.016247	0.21809	0.22078	0.21372	0.114	0.20339	0.12015	0.18148	0.18603	0.31948	0.13377	0.20902	0.027332	0.33234	-2.8812	-3.2438	-2.8646	-3.5479	-3.0021	-3.35	-3.3792	-3.1667	-3.1917	-3.2313	-3.0563	-3.5042	-3.1417	-3.1813	-3.4042	-3.1104	-50.766	-126.038	104.424	213.586	2.603	-121.580	-7.543	146.540	211.521	70.415	182.876	214.502	150.675	188.830	43.422	111.283	0.00023081	0.00089969	0.00025175	445.89	8.6503e-06	1.7307e-05	510.47	179.52	2.0642e-05	4.4285e-06	207.01	78.6	67.377	35.621	1.3255e-05	32.034	0.0099488	0.016529	0.0046848	568.41	0.00017829	0.00018528	504.76	181.98	0.0001642	0.00018752	217.82	79.097	69.084	35.249	0.00016904	32.919	-10.482	188.856	-130.095	-116.480	-51.810	-3.157	-118.775	-112.237	19.632	167.173	-115.483	-111.367	-108.747	-103.770	103.819	-108.092	-8191	255	
1332.446	1	1	0	0	0.069446	0.2254	0.16793	0.22314	0.047834	0.0098686	0.11157	0.054402	0.13252	0.2861	0.18197	0.22136	0.11361	0.14688	0.12955	0.24805	-3.0333	-3.3146	-3.075	-3.4417	-3.2583	-3.2458	-3.7271	-3.1708	-3.3083	-3.3063	-3.0354	-3.3396	-3.1833	-3.2667	-3.3792	-2.9042	117.668	80.865	-110.533	191.703	153.376	12.436	1.761	203.558	224.970	-48.553	78.626	-100.271	226.732	-107.424	-17.058	120.647	0.00037601	0.00098873	0.00032758	437.48	1.5866e-05	2.4911e-06	507.98	181.37	5.2999e-06	9.6624e-06	206.9	78.153	67.297	35.745	9.7669e-06	31.73	0.0098799	0.016433	0.0046475	565.66	0.00017721	0.00018629	501.19	182.42	0.00016415	0.00018772	218.48	78.987	68.963	35.31	0.00017096	32.792	1.795	-23.904	159.974	-116.967	30.864	-89.644	-118.542	-111.995	-88.869	144.334	-114.645	-112.061	-108.576	-104.039	-70.037	-108.609	-8191	255	
1332.543	1	1	0	0	0.24688	0.37568	0.17012	0.13997	0.092285	0.21167	0.12706	0.16475	0.14371	0.23273	0.17013	0.15697	0.019639	0.16465	0.19601	0.32795	-2.9354	-3.5229	-2.8563	-3.3375	-3.25	-3.1312	-3.6937	-3.0563	-3.275	-3.2979	-3.0104	-3.5	-3.0938	-3.1688	-3.7854	-3.0271	225.609	-61.975	101.885	-12.889	192.870	186.534	215.550	-118.369	59.960	154.818	51.396	179.280	-21.893	193.142	214.718	226.600	0.00066672	0.0010758	0.00018801	450.99	6.4201e-06	1.9826e-06	506.13	182.85	9.5709e-06	1.5165e-05	209.03	79.718	69.011	36.033	8.4758e-06	32.095	0.0098282	0.016459	0.0046554	566.51	0.00017597	0.00018384	501.16	183.37	0.00015905	0.0001842	219.67	79.681	69.809	35.545	0.00016514	33.246	-13.367	-51.382	38.419	-117.327	-0.846	57.962	-119.006	-112.438	-100.988	7.261	-115.101	-112.304	-108.560	-104.032	60.517	-107.914	-8191	255	
1332.639	1	1	0	0	0.092017	0.22717	0.20959	0.099306	0.071083	0.14832	0.23958	0.10768	0.22715	0.1402	0.10302	0.16109	0.15029	0.11055	0.11373	0.19537	-2.8292	-3.4646	-2.9271	-3.3667	-3.425	-3.1437	-3.3729	-3.3	-3.2333	-3.4646	-2.9958	-3.1333	-3.5958	-3.2417	-3.2875	-3.15	127.784	-84.906	195.167	9.342	-46.918	63.364	147.133	-85.217	159.781	94.927	45.809	35.216	-71.860	120.536	-99.969	113.624	0.00012601	0.00054484	0.00048394	433.65	1.0088e-05	9.6472e-06	510.98	184.97	5.1834e-06	1.6889e-05	213.78	80.045	69.355	36.454	1.6994e-05	32.457	0.0095578	0.015952	0.0045407	559.66	0.00017178	0.00018031	505.57	185.52	0.00015623	0.00018099	221.96	80.071	70.005	35.894	0.00016237	33.346	95.261	-2.068	21.430	-116.907	97.823	-70.228	-118.555	-112.634	-57.967	15.797	-114.940	-112.158	-108.923	-104.410	21.884	-108.577	-8191	255	
1332.735	1	1	0	0	0.15389	0.28235	0.29331	0.057802	0.16454	0.27463	0.054147	0.24093	0.19262	0.18077	0.15314	0.050199	0.15295	0.1729	0.045355	0.30389	-2.6937	-3.4854	-2.9396	-3.3958	-3.3479	-2.9625	-3.5583	-3.2833	-3.175	-3.525	-3.0375	-3.4062	-3.4542	-3.1646	-3.4146	-3.2729	-20.279	-33.184	-118.040	-17.983	-20.079	172.941	7.762	118.412	84.946	130.206	89.130	163.746	102.124	94.559	-44.155	152.040	0.0001368	0.00062487	0.00033128	439.13	1.0357e-05	1.7971e-05	504.83	182.54	7.8946e-06	1.6509e-05	203.5	77.181	66.769	35.905	1.4074e-05	31.6	0.0095881	0.016122	0.0044757	563.03	0.00017149	0.00018306	502.08	183.25	0.00015897	0.00018359	215.63	77.75	68.539	35.347	0.00016718	32.513	-51.445	156.036	-85.769	-116.438	5.840	-12.680	-118.731	-112.099	35.406	-60.690	-114.742	-111.615	-108.736	-104.226	-115.862	-108.274	-8191	255	
1332.831	1	1	0	0	0.13053	0.0088174	0.23695	0.33956	0.20706	0.39478	0.024235	0.20825	0.1004	0.12762	0.20392	0.07022	0.32606	0.11963	0.19721	0.038718	-2.6667	-3.55	-2.9875	-3.3396	-3.375	-3.2188	-3.4646	-3.2938	-3.0729	-3.5375	-3.0271	-3.2271	-3.5792	-3.1458	-3.3354	-3.4521	-24.764	-11.297	-32.930	-27.671	-120.872	2.091	19.835	210.943	200.983	-97.590	199.033	24.345	206.072	-68.993	50.207	68.331	0.0003012	0.001573	0.00030331	440.41	5.9812e-06	4.9224e-06	499.19	183.59	7.0782e-06	5.8418e-06	202.67	76.87	66.903	35.713	1.0953e-05	31.752	0.0096564	0.016236	0.0045409	561.39	0.00017292	0.00018224	495.28	182.33	0.00016089	0.00018273	213.64	77.262	68.526	35.136	0.00016474	32.757	-56.250	-23.063	-71.856	-117.800	217.094	52.762	-118.665	-112.082	-69.934	155.454	-115.337	-111.944	-108.665	-104.057	47.276	-107.954	-8191	255	
1332.952	1	1	0	0	0.11986	0.19582	0.15628	0.13833	0.15802	0.02356	0.27179	0.26098	0.18278	0.043853	0.2905	0.19497	0.053321	0.10781	0.47462	0.19215	-2.7167	-3.3958	-3.2479	-3.1333	-3.5021	-3.0271	-3.5938	-3.3937	-2.9938	-3.4354	-3.3063	-3.2	-3.6646	-3.175	-3.4188	-3.4792	-8.345	119.783	220.976	-105.495	78.357	88.410	78.505	88.549	158.412	63.554	-23.769	-76.543	146.308	-84.352	17.598	168.880	0.00035624	0.0010275	0.00035189	435.94	1.1711e-05	2.1073e-05	501.49	180.39	9.8732e-06	1.3039e-05	203	76.775	67.246	35.914	4.32e-06	32.014	0.009679	0.015986	0.0044917	559.04	0.00017194	0.00018108	495.75	181.22	0.00015984	0.00018172	214.64	76.925	68.36	35.408	0.00016322	32.908	-10.595	-113.833	43.101	-116.684	113.923	-27.164	-118.637	-111.974	104.667	-74.621	-114.433	-111.524	-108.674	-103.989	166.078	-108.348	-8191	255	
1333.046	1	1	0	0	0.12004	0.19154	0.12197	0.20048	0.17726	0.11925	0.28706	0.19179	0.14249	0.1093	0.13163	0.14526	0.10751	0.17895	0.13921	0.1607	-2.7375	-3.3396	-3.1458	-3.1021	-3.6458	-3.1	-3.1833	-3.3104	-2.9688	-3.3604	-3.3875	-3.1146	-3.6771	-3.2333	-3.2979	-3.5229	221.168	-98.438	-62.152	172.075	65.723	-28.642	-48.150	129.563	37.344	70.183	167.885	196.052	26.010	90.438	225.497	139.911	0.00059452	0.0020515	0.00011705	432.95	1.1445e-05	8.9754e-06	502.98	180.55	1.3651e-05	1.338e-05	204.98	76.493	67.097	36.049	6.9434e-06	32.131	0.0097728	0.016079	0.0045355	561.33	0.00017568	0.00018545	497.7	181.87	0.00016278	0.00018247	215.84	77.544	68.432	35.515	0.00016838	33.041	-1.228	-41.131	88.523	-117.683	164.267	-77.009	-118.851	-112.123	38.068	32.484	-114.580	-111.612	-108.746	-104.262	51.010	-108.303	-8191	255	
1333.142	1	1	0	0	0.10753	0.29788	0.18964	0.022093	0.096731	0.22748	0.11597	0.052996	0.12041	0.13013	0.027695	0.23459	0.10914	0.19481	0.066213	0.023435	-2.6833	-3.3417	-3.2833	-3.0062	-3.4292	-3.2271	-3.2812	-3.5187	-2.8438	-3.4583	-3.4021	-3.0396	-3.7333	-3.0812	-3.1771	-3.5708	201.604	1.887	127.993	98.478	203.866	0.917	79.966	-7.322	-106.858	88.975	-19.577	-81.696	-115.816	206.411	-52.592	129.665	0.00058961	0.0015149	0.00029332	435.5	4.2799e-06	1.4194e-05	499.81	179.81	6.2859e-06	1.4052e-05	201.55	75.247	66.05	35.038	7.4413e-06	30.923	0.0099217	0.016303	0.0046061	563.1	0.00017629	0.0001839	494.85	180.67	0.00016409	0.00018676	213.05	76.326	67.554	34.768	0.00017062	32.157	-24.881	-71.810	135.905	-116.977	129.800	-37.723	-118.772	-112.162	-58.855	64.948	-115.001	-111.746	-108.752	-104.278	-1.525	-108.981	-8191	255	
1333.238	1	1	0	0	0.15293	0.01498	0.40251	0.17267	0.21994	0.22267	0.13886	0.13842	0.18789	0.24211	0.041782	0.13734	0.21023	0.25845	0.12471	0.076557	-2.7396	-3.225	-3.275	-3.0708	-3.4	-3.1229	-3.2062	-3.4729	-3.1188	-3.425	-3.4958	-3.0958	-3.5625	-3.1792	-3.2021	-3.5312	188.527	183.222	228.227	-21.971	196.455	86.723	91.366	65.452	202.846	217.146	109.815	217.917	-107.256	226.201	-101.473	134.874	0.00024061	0.00062873	0.00026854	432.44	7.6815e-07	5.5002e-06	490.77	177.4	1.7583e-05	9.3184e-06	198.14	74.934	65.455	35.173	1.1084e-05	31.141	0.0099475	0.016492	0.0047075	563.4	0.00017898	0.00018645	490.24	179.02	0.00016403	0.00018698	210.82	75.456	67.186	34.758	0.00016996	32.343	-49.808	-14.338	35.608	-117.080	177.768	-51.753	-118.451	-112.142	-47.360	-42.179	-115.214	-111.651	-108.353	-104.255	66.897	-108.224	-8191	255	
1333.335	1	1	0	0	0.36125	0.25011	0.084662	0.16483	0.24067	0.073543	0.37062	0.18127	0.21532	0.22633	0.21602	0.21038	0.17034	0.0881	0.015093	0.18063	-2.7083	-3.2667	-3.2438	-2.9583	-3.5812	-3.2438	-2.8896	-3.5708	-2.9729	-3.3	-3.5354	-3.0062	-3.4979	-3.4292	-3.0458	-3.5812	109.361	-49.390	116.911	-109.894	-74.931	4.057	199.120	109.601	156.915	85.994	84.080	-77.598	-48.621	85.825	150.550	-107.198	0.00034808	0.0011557	0.00045192	433.22	5.5824e-06	3.0764e-06	492.06	177.54	2.0179e-05	1.2633e-05	200.17	75.577	66.299	35.676	6.6292e-06	31.474	0.0097854	0.016239	0.0046788	559.99	0.00017609	0.00018388	490.28	180.11	0.00015807	0.00018401	213.15	76.064	67.837	35.211	0.00016869	32.725	-35.625	-56.829	-11.609	-117.703	6.768	227.526	-119.025	-111.963	-22.984	49.516	-115.144	-112.097	-108.495	-104.590	141.600	-108.422	-8191	255	
1333.431	1	1	0	0	0.10641	0.090249	0.21793	0.24648	0.098592	0.12725	0.2974	0.10196	0.14293	0.067585	0.16089	0.1556	0.18636	0.16662	0.15476	0.38514	-2.7167	-3.1208	-3.3937	-3.0854	-3.2438	-3.3354	-3.2167	-3.4708	-3.1167	-3.2104	-3.5625	-2.9896	-3.3417	-3.2583	-3.0375	-3.4083	-53.921	211.880	202.311	181.592	-36.275	168.902	-98.363	147.242	67.141	75.912	-119.364	101.335	167.927	168.823	-85.704	-117.797	0.00024197	0.0010302	0.00010998	436.48	2.5208e-06	8.5067e-06	504.68	180.51	1.0698e-05	5.1043e-06	203.47	76.297	67.747	36.052	1.1487e-05	31.94	0.0096229	0.016125	0.004582	562.14	0.00017458	0.00018351	497.07	181.65	0.0001588	0.0001832	215.11	76.895	68.629	35.54	0.00016769	33.061	-27.937	-11.934	-76.009	-116.440	-66.941	-74.153	-118.422	-112.400	40.231	57.890	-115.087	-111.687	-108.465	-104.380	47.006	-108.423	-8191	255	
1333.527	1	1	0	0	0.11408	0.11299	0.25337	0.26836	0.41781	0.17479	0.13473	0.076601	0.28273	0.052419	0.064089	0.24818	0.11438	0.13698	0.15914	0.057739	-2.6979	-2.9813	-3.4562	-3.0604	-3.2979	-3.525	-2.8917	-3.4729	-3.2625	-3.0812	-3.4437	-3.1271	-3.1562	-3.5312	-3.0667	-3.4708	89.920	21.925	183.070	-59.678	-73.726	135.536	57.215	214.772	31.840	-102.763	103.882	179.764	124.420	-88.932	-90.993	219.424	0.000231	0.00068377	0.00027183	432.35	1.4891e-05	8.452e-06	501.37	179.46	1.7622e-05	9.6102e-06	201.3	74.553	65.631	35.173	4.8965e-06	30.953	0.0096855	0.016229	0.0046063	560.25	0.00017409	0.00018453	496.6	180.54	0.00016022	0.00018975	212.88	75.881	67.491	34.88	0.00017446	32.274	-22.141	98.536	97.784	-116.153	74.495	-48.218	-118.811	-112.073	-53.201	23.925	-114.326	-111.511	-108.373	-104.238	-110.119	-108.477	-8191	255	
1333.647	1	1	0	0	0.11231	0.11566	0.19384	0.16375	0.16776	0.028516	0.17937	0.069787	0.24829	0.42364	0.41584	0.08904	0.23598	0.11175	0.15091	0.11375	-3.075	-3.1083	-3.4542	-3.0792	-3.1875	-3.5062	-2.9646	-3.3646	-3.1604	-2.9417	-3.6479	-3.2729	-3.1917	-3.5458	-3.025	-3.2854	41.103	-82.551	126.444	-99.394	119.401	194.678	38.276	120.164	27.694	227.565	-119.439	157.228	-5.490	130.046	43.029	-115.438	0.00049331	0.0010372	0.00018637	423.55	9.6769e-06	1.3067e-05	487.85	175.85	2.5043e-05	9.9131e-06	197.64	74.641	65.111	34.971	1.4984e-05	30.825	0.0099972	0.016973	0.0047611	560.87	0.00017809	0.0001907	490.65	177.51	0.00016542	0.00018967	210.37	75.387	67.058	34.609	0.00017367	32.011	-32.570	154.914	80.779	-116.993	228.645	-13.367	-118.560	-112.046	-22.515	-24.805	-114.738	-112.041	-108.314	-103.798	144.150	-108.545	-8191	255	
1333.744	1	1	0	0	0.21776	0.070002	0.16399	0.30093	0.089853	0.26678	0.05086	0.28166	0.27036	0.21918	0.13365	0.13905	0.11959	0.15577	0.12354	0.1431	-3.0646	-3.0042	-3.4542	-3.0542	-3.2042	-3.4542	-2.9854	-3.4583	-3.3354	-2.9833	-3.5396	-3.1396	-3.0938	-3.4667	-2.8292	-3.1479	19.330	132.296	-56.360	218.220	92.255	-52.879	16.420	-32.891	71.767	-62.266	132.403	138.296	-51.665	-114.964	125.966	-96.913	0.00084081	0.00035124	0.00010278	426.68	8.7117e-06	6.6531e-06	493.6	176.93	2.5633e-05	1.8387e-05	198.75	75.272	65.406	34.828	1.7501e-05	30.869	0.010254	0.017118	0.0047321	560.13	0.00018178	0.00019313	490.02	177.66	0.00016643	0.00019117	212.09	76.456	67.057	34.536	0.00017451	32.144	-47.485	-21.821	-35.242	-117.635	-3.930	98.347	-118.852	-112.179	-3.734	-116.232	-114.478	-111.569	-108.143	-104.105	35.919	-107.888	-8191	255	
1333.815	1	1	0	0	0.13363	0.13715	0.10026	0.099489	0.040911	0.19212	0.14823	0.16012	0.11369	0.11309	0.089687	0.23923	0.058843	0.10797	0.16028	0.10003	-3.0229	-2.9917	-3.6271	-3.4313	-3.0854	-3.5833	-3.075	-3.2167	-3.4437	-2.8917	-3.4333	-3.2	-3.0042	-3.4688	-3.1896	-3.2687	195.260	115.001	211.661	41.741	24.606	-69.495	126.279	195.747	-12.075	44.586	-52.578	164.177	65.747	-90.266	5.112	76.683	0.00040065	0.00081546	9.5475e-05	431.23	1.3661e-05	1.3064e-05	494.03	175.04	2.1624e-05	7.6019e-06	198.79	74.265	64.743	34.662	6.5161e-06	31.149	0.010206	0.017374	0.0047621	565.72	0.00018592	0.0001963	493.37	177.47	0.00017276	0.00019731	212.64	75.983	66.666	34.503	0.00017521	32.448	-33.335	9.759	2.266	-116.940	12.873	-66.920	-118.732	-111.984	113.805	67.335	-115.053	-111.476	-108.570	-104.110	173.449	-108.210	-8191	255	
1333.911	1	1	0	0	0.093632	0.13554	0.10896	0.112	0.031651	0.14993	0.080421	0.16987	0.1984	0.065759	0.08263	0.097554	0.28697	0.32788	0.18479	0.15373	-3.0708	-2.9479	-3.4396	-3.2208	-3.0625	-3.3875	-3.2354	-3.2083	-3.5854	-3.1271	-3.3438	-3.3667	-2.9417	-3.3937	-3.0458	-3.2708	-5.754	228.281	-41.432	105.587	182.296	133.625	8.149	184.339	74.363	-123.109	82.045	-45.883	216.458	-95.011	-19.356	-93.661	0.00042558	0.00077721	0.00022793	425.13	6.3125e-06	1.0474e-05	494.1	173.86	8.0755e-06	9.3249e-06	199.24	74.031	64.01	34.681	1.1076e-05	30.708	0.010451	0.017259	0.0048316	568.19	0.00018702	0.00019528	493.04	176.78	0.00017068	0.00019303	211.13	75.513	66.147	34.45	0.00017334	32.225	-13.902	-39.149	-6.574	-117.192	-88.609	43.552	-118.640	-112.387	125.980	42.525	-114.946	-111.410	-108.877	-104.294	115.975	-108.580	-8191	255	
1334.030	1	1	0	0	0.18175	0.19024	0.33721	0.018837	0.11936	0.17264	0.17693	0.12721	0.044913	0.050188	0.18199	0.19837	0.12159	0.043838	0.1711	0.11463	-3.1583	-3.1	-3.3979	-3.4083	-3.0583	-3.4875	-3.3229	-3.2271	-3.5521	-3.2	-3.3083	-3.4708	-2.95	-3.4708	-3.3083	-3.1083	144.091	216.162	39.559	-107.967	105.767	-6.249	165.122	-73.482	62.724	57.029	74.022	-85.334	71.308	52.776	90.344	202.713	0.00070353	0.00035866	4.5424e-05	431.06	1.592e-05	5.8475e-06	489.55	172.88	1.4112e-05	1.2597e-05	193.81	73.254	63.545	34.585	1.5972e-05	30.786	0.010197	0.01681	0.0047235	565.51	0.00018189	0.00018987	489.26	175.62	0.00016625	0.00019034	208.46	74.758	65.763	34.358	0.00017145	32.109	-59.107	227.660	216.683	-117.075	-17.399	23.743	-118.527	-112.091	-46.162	71.592	-114.795	-111.290	-108.248	-104.075	16.557	-108.797	-8191	255	
1334.126	1	1	0	0	0.088812	0.10197	0.23731	0.23536	0.19573	0.33324	0.19482	0.07469	0.45006	0.11472	0.068505	0.15916	0.16874	0.079485	0.011882	0.22006	-3.0542	-3.0604	-3.1937	-3.3375	-3.0375	-3.5375	-3.3521	-3.1229	-3.5667	-3.0938	-3.3854	-3.5771	-2.975	-3.2854	-3.3271	-3.0062	-80.622	106.687	102.873	145.976	136.943	131.292	56.050	219.997	78.131	8.376	-23.720	113.455	-18.455	176.443	-27.402	-74.006	0.00054366	0.0012627	0.00025538	424.33	1.3826e-05	1.125e-05	488.86	172.97	1.5164e-05	8.2133e-06	195.45	73.72	64.922	34.883	1.3062e-05	31.139	0.010213	0.01676	0.0046978	562.52	0.00018148	0.0001885	486.91	175.2	0.0001634	0.00018689	208.75	74.909	66.08	34.488	0.00017137	32.355	-24.408	54.816	224.808	-117.803	5.984	56.762	-118.663	-111.978	36.559	-38.291	-114.958	-112.121	-108.297	-104.171	121.393	-108.505	-8191	255	
1334.223	1	1	0	0	0.16357	0.03089	0.086242	0.093846	0.080034	0.17591	0.06465	0.1617	0.13423	0.17201	0.13439	0.11749	0.079403	0.089451	0.1126	0.083712	-3.1562	-3.05	-3.0938	-3.3833	-3.0396	-3.2833	-3.4646	-3.1562	-3.5208	-3.0625	-3.0438	-3.5187	-3.1646	-3.5021	-3.2583	-3.1	149.822	-3.376	-113.529	193.467	153.709	191.848	201.433	61.974	-122.660	171.101	143.283	-95.270	-19.416	177.077	-57.578	-112.903	0.00037563	0.001853	0.00016144	429.38	6.4421e-06	5.9811e-07	494.14	173.15	6.1942e-06	5.9692e-06	199.09	74.92	64.695	35.492	5.6362e-06	31.483	0.009984	0.016395	0.0046692	561.91	0.00017967	0.00018536	490.94	176.02	0.00016194	0.00018619	210.36	75.613	66.017	34.946	0.00016975	32.669	-3.811	1.754	60.339	-117.534	-35.181	-28.305	-119.069	-112.141	188.066	-66.801	-115.017	-111.632	-108.251	-104.061	20.131	-107.913	-8191	255	
1334.343	1	1	0	0	0.023071	0.086839	0.18498	0.071534	0.22588	0.12037	0.13864	0.25668	0.16428	0.13697	0.12014	0.21043	0.16859	0.0073568	0.0083249	0.26115	-2.9375	-3.1583	-3.1021	-3.5563	-2.9	-3.375	-3.5396	-2.9958	-3.4437	-3.3187	-3.05	-3.4417	-2.9938	-3.2542	-3.425	-2.9021	210.720	131.281	46.581	-35.962	65.685	161.418	-45.704	161.994	226.762	-117.283	201.112	-67.924	-30.110	-76.298	-91.895	202.358	0.00043429	0.0010119	0.00032585	422.19	1.149e-05	9.1469e-06	497	175.79	4.0485e-06	1.4369e-05	197.84	73.994	64.64	35.282	1.7586e-05	31.198	0.0098406	0.016288	0.00467	558.6	0.00017467	0.00018454	493.8	176.92	0.00016087	0.00018379	210.15	74.775	65.811	34.818	0.00016786	32.325	-17.899	-92.610	62.647	-116.818	-30.274	-70.789	-118.716	-112.282	135.636	-21.063	-115.330	-112.240	-108.339	-104.593	64.297	-108.604	-8191	255	
1334.415	1	1	0	0	0.14115	0.28069	0.12734	0.26878	0.20857	0.1044	0.022357	0.13712	0.14112	0.21694	0.1784	0.22006	0.17529	0.12911	0.10095	0.070863	-2.8396	-3.2875	-2.7833	-3.4417	-3.0875	-3.2125	-3.4229	-2.9229	-3.175	-3.2729	-3.0792	-3.4333	-3.1333	-3.2188	-3.2812	-3.2042	-2.586	55.908	16.038	-119.463	-38.753	79.354	120.040	136.671	9.192	221.893	18.158	2.353	185.856	-51.914	-64.006	-37.620	0.00034292	0.00057222	0.00023521	424.66	1.0434e-05	4.3936e-06	485.28	174.15	2.3058e-05	7.9514e-06	192.71	72.751	63.916	34.857	1.8151e-05	30.779	0.0096949	0.016362	0.0046663	557.92	0.00017277	0.00018654	484.7	174.98	0.00016015	0.00018537	206.38	73.882	65.531	34.493	0.00016746	32.01	40.800	205.074	189.754	-117.526	73.536	113.672	-118.375	-112.264	78.657	200.506	-114.576	-111.687	-108.669	-104.038	124.219	-108.034	-8191	255	
1334.511	1	1	0	0	0.19439	0.032411	0.11689	0.15546	0.091383	0.29262	0.28015	0.14882	0.16644	0.084872	0.068336	0.097508	0.12008	0.2214	0.10262	0.19501	-2.9146	-3.2062	-2.9667	-3.2792	-2.7979	-3.2042	-3.4271	-2.9042	-3.2521	-3.2	-2.9979	-3.5104	-3.1104	-2.9917	-3.5	-3.1771	126.670	118.760	202.245	-97.249	65.423	-31.401	194.769	-99.009	161.154	222.693	8.858	183.525	126.966	200.848	208.393	63.854	0.00023303	0.0010312	0.00023516	431.25	7.2055e-06	4.3445e-06	486.09	174.17	4.1506e-06	2.6946e-06	191.69	72.858	64.018	34.71	8.3865e-06	30.995	0.0097511	0.016495	0.0046099	553.13	0.00017682	0.00018483	483.61	174.72	0.00015996	0.0001844	205.72	73.64	65.541	34.514	0.00016571	32.004	-10.796	166.099	-6.673	-117.240	-107.209	210.702	-118.782	-111.807	-85.299	152.745	-114.858	-111.339	-108.614	-104.023	-108.672	-108.495	-8191	255	
1334.632	1	1	0	0	0.39693	0.17252	0.1145	0.14032	0.10698	0.35402	0.21767	0.17786	0.1871	0.076586	0.20004	0.063943	0.016785	0.33488	0.054429	0.12572	-2.6833	-3.3542	-3.0479	-3.3708	-3.2042	-3.125	-3.4813	-3.025	-3.1958	-3.325	-2.9375	-3.3375	-3.2875	-3.0625	-3.4417	-3.1208	136.605	140.596	-67.843	193.843	-45.205	27.582	-61.275	150.221	127.930	162.609	205.515	169.072	-105.637	197.849	-127.831	104.769	0.00022753	0.00066138	0.00036889	431.57	1.3673e-05	1.2371e-05	488.23	174.69	3.6719e-06	5.4563e-06	194.31	73.667	64.42	34.998	2.0098e-06	31.256	0.009555	0.016226	0.004551	551.21	0.00017426	0.00018428	487.13	175.43	0.00015911	0.00018451	206.83	74.266	65.874	34.625	0.00016505	32.224	-26.166	132.131	-75.035	-116.775	200.076	46.654	-118.608	-111.780	64.213	198.854	-114.930	-111.842	-108.038	-103.580	15.955	-108.359	-8191	255	
1334.728	1	1	0	0	0.13877	0.16799	0.058321	0.080448	0.11342	0.19309	0.14877	0.13546	0.048622	0.12224	0.22096	0.17301	0.16223	0.23097	0.18295	0.15542	-2.7146	-3.4604	-2.9354	-3.4188	-3.4188	-2.9542	-3.5042	-3.2062	-3.1896	-3.5062	-3.0417	-3.35	-3.5354	-3.1979	-3.3417	-3.0271	-112.847	-62.808	52.315	-123.891	-55.656	102.065	-96.923	175.105	208.599	166.305	8.877	19.244	190.751	-124.063	144.674	186.543	0.00022416	0.00054283	0.00012975	426.73	8.7589e-06	1.0352e-05	492.72	174.02	3.8459e-06	1.237e-05	194.55	72.725	63.891	34.644	1.3136e-05	30.586	0.0097707	0.016268	0.0045306	551.69	0.0001757	0.00018254	487.13	174.84	0.00016095	0.00018525	206.82	74.117	65.627	34.464	0.00016637	31.904	-23.049	11.974	-30.398	-117.416	42.101	127.561	-118.829	-112.309	60.156	-48.172	-115.100	-111.927	-108.400	-104.002	-19.386	-108.128	-8191	255	
1334.824	1	1	0	0	0.15738	0.11434	0.09658	0.17261	0.08731	0.22564	0.10091	0.4449	0.12862	0.20926	0.28924	0.18261	0.2024	0.071411	0.25922	0.11807	-2.8187	-3.3146	-3.0187	-3.125	-3.4042	-3.1042	-3.4292	-3.1437	-3.2313	-3.4583	-3.2	-3.3771	-3.525	-3.0375	-3.4021	-3.3375	-101.393	166.883	103.480	-89.429	-74.625	170.366	-12.798	183.636	208.162	26.434	112.417	27.490	-86.228	208.431	-3.187	-67.033	0.00021949	0.00087561	0.00036814	421.9	9.4972e-06	1.1145e-05	481.28	168.72	2.7271e-05	3.8021e-06	188.03	71.094	62.31	34.34	1.626e-05	30.144	0.0098303	0.016644	0.0045656	553.4	0.00018017	0.00018914	479.12	171.32	0.00016591	0.00018769	201.64	72.484	64.48	34.092	0.0001725	31.598	-65.746	15.307	-69.036	-117.340	49.704	94.170	-118.780	-112.304	150.086	68.046	-114.574	-111.770	-108.254	-104.179	-8.737	-108.611	-8191	255	
1334.945	1	1	0	0	0.27792	0.14451	0.27986	0.09122	0.20267	0.15098	0.10798	0.14212	0.26203	0.20636	0.23613	0.073082	0.056435	0.099921	0.16437	0.21907	-2.8208	-3.6542	-3.0125	-3.3083	-3.4667	-3.0021	-3.325	-3.4688	-3.0771	-3.3958	-3.1417	-3.1896	-3.7021	-3.1583	-3.5229	-3.2562	-66.825	-109.311	110.381	41.474	193.382	27.295	-33.382	119.302	-42.715	129.361	165.587	122.983	136.317	161.670	-61.841	218.815	0.00027393	0.00061051	0.00083789	421.96	4.5959e-06	3.6087e-06	480.44	167.53	1.6183e-05	1.4555e-05	186.54	71.043	62.399	34.399	1.9388e-05	30.541	0.010339	0.016975	0.0047315	557.02	0.00018633	0.00019073	478.02	170.88	0.00016947	0.00019153	201.94	72.307	64.477	34.159	0.00017493	31.841	8.774	-124.974	-11.384	-118.278	4.872	135.671	-118.887	-112.113	-7.084	18.442	-114.745	-111.315	-108.382	-103.960	-12.989	-108.155	-8191	255	
1335.039	1	1	0	0	0.21044	0.12201	0.086722	0.18393	0.20938	0.063163	0.10491	0.28624	0.24882	0.18614	0.15589	0.17824	0.097271	0.28932	0.10782	0.1259	-2.6083	-3.4125	-3.2354	-3.0979	-3.5729	-2.9667	-3.3646	-3.4604	-2.7667	-3.4771	-3.1271	-3.0042	-3.5875	-3.0687	-3.0896	-3.5042	23.207	-114.606	174.238	198.306	-79.855	193.896	160.717	125.740	15.206	32.631	207.153	-47.404	-35.000	198.970	181.547	107.611	0.00052495	0.00068124	0.00017808	417.41	5.9122e-06	1.3705e-05	476.88	166.39	1.1877e-06	1.0946e-05	186.22	71.138	63.073	34.61	1.7121e-05	30.646	0.01046	0.017127	0.0048737	562.44	0.00018893	0.00019482	478.29	170.67	0.00017252	0.00019572	202.85	73.01	64.897	34.442	0.00018063	32.111	3.354	209.232	-75.875	-116.427	-37.991	38.443	-118.307	-111.811	76.392	230.035	-114.740	-111.575	-108.466	-104.174	171.620	-107.822	-8191	255	
1335.111	1	1	0	0	0.035395	0.1896	0.22681	0.087828	0.19567	0.06566	0.29031	0.20386	0.14593	0.28348	0.17758	0.14595	0.20656	0.3911	0.15116	0.2144	-2.5062	-3.2354	-3.2833	-3.0917	-3.4062	-3.0958	-3.2417	-3.3063	-3.0146	-3.3937	-3.3438	-3.2083	-3.5354	-3.1104	-3.2771	-3.6312	-56.998	16.346	228.753	5.642	66.848	130.749	217.028	147.168	191.714	120.510	119.110	116.313	17.788	105.773	-84.245	-103.201	0.00026981	0.00070455	0.00054952	421.66	4.4676e-06	1.6077e-05	479.31	167.98	1.8161e-05	1.3543e-05	185.68	70.877	62.164	34.427	8.1356e-06	30.154	0.010523	0.017479	0.0049443	567.05	0.00018985	0.00020094	481.93	172.42	0.0001749	0.00020104	203.89	73.187	64.74	34.284	0.00018427	32.032	2.597	-112.776	-24.942	-118.185	132.470	-8.304	-118.446	-111.968	-68.312	-17.919	-115.579	-112.055	-108.413	-103.794	214.537	-107.728	-8191	255	
1335.231	1	1	0	0	0.25004	0.187	0.031732	0.055881	0.17638	0.13404	0.3176	0.11218	0.076624	0.077993	0.11766	0.05459	0.044138	0.11269	0.33914	0.13809	-2.4396	-3.2458	-3.2729	-2.9104	-3.4396	-3.2104	-3.1146	-3.4854	-2.9	-3.4271	-3.4188	-2.9583	-3.6667	-3.2917	-3.2083	-3.5563	143.199	196.256	190.677	227.514	60.451	-56.787	198.833	50.295	155.715	150.088	143.834	160.725	-28.989	218.750	217.799	24.624	0.0002526	0.0015356	0.00051873	422.89	4.9013e-06	4.5629e-06	469.07	166.31	5.7322e-06	9.0973e-06	184.34	69.848	60.919	33.895	3.1925e-06	30.003	0.010664	0.017685	0.0050558	566.4	0.00019179	0.00020184	478.18	170.04	0.00017674	0.00020397	202.03	72.102	63.719	33.956	0.00018846	31.749	7.011	-27.189	-32.249	-116.441	-116.385	-76.067	-118.961	-111.771	77.422	48.827	-114.694	-111.726	-108.417	-103.874	-45.424	-108.085	-8191	255	
1335.327	1	1	0	0	0.19018	0.23725	0.14925	0.23638	0.11768	0.074618	0.28586	0.056062	0.043309	0.054257	0.19789	0.12151	0.098782	0.21334	0.26763	0.071709	-2.4625	-3.2729	-3.2792	-2.8458	-3.5083	-3.0625	-3.1312	-3.6208	-2.9896	-3.2333	-3.3917	-3.1292	-3.4437	-3.2521	-3.1667	-3.5542	-67.320	61.024	-63.337	-58.797	55.635	-69.154	110.675	-123.916	75.788	158.943	99.062	175.570	-19.763	166.247	-102.006	83.984	0.00023435	0.00059191	9.1963e-05	411.68	1.2338e-05	1.3843e-05	468.45	164.71	1.8242e-05	8.8661e-06	184.44	69.621	60.825	34.149	1.222e-05	30.34	0.010719	0.01775	0.0051393	564.85	0.00019205	0.00020426	475.28	169.4	0.00017582	0.00020454	201.05	71.757	63.66	34.107	0.00018724	31.831	17.429	-83.858	17.417	-116.937	-14.124	91.633	-118.626	-111.947	111.990	-94.546	-114.824	-111.443	-108.252	-103.954	96.558	-107.874	-8191	255	
1335.424	1	1	0	0	0.066537	0.066937	0.13714	0.10046	0.077873	0.31359	0.14328	0.18532	0.073752	0.17413	0.1971	0.22558	0.080701	0.017372	0.11633	0.061122	-2.7104	-3.1188	-3.225	-2.9396	-3.4479	-3.2458	-2.9604	-3.6229	-3.1917	-3.4167	-3.5938	-3.05	-3.5375	-3.4688	-3.0458	-3.5271	187.076	-70.098	168.021	-99.202	195.366	87.352	43.561	152.682	-107.088	-115.260	120.775	36.805	-96.669	183.020	192.008	26.654	0.00034148	0.0018035	0.00014194	416.27	7.1224e-06	1.3338e-05	472.55	164.7	2.388e-05	1.2046e-05	186.81	70.814	61.144	34.49	4.0637e-06	30.489	0.010697	0.017902	0.0051249	562.39	0.000191	0.000204	475.43	169.51	0.00017553	0.0002068	202.2	72.214	64.042	34.362	0.00018626	32.09	-2.831	178.695	94.820	-116.725	18.304	-58.147	-119.039	-112.152	62.986	-108.165	-115.249	-111.656	-108.294	-104.147	190.880	-108.227	-8191	255	
1335.520	1	1	0	0	0.21736	0.12664	0.069502	0.19265	0.081347	0.30463	0.099329	0.10689	0.30874	0.10115	0.47171	0.14592	0.25514	0.17002	0.14104	0.18035	-2.7229	-3.1958	-3.375	-2.9979	-3.3021	-3.2729	-3.1292	-3.6083	-3.1979	-3.1	-3.5604	-3.0812	-3.3354	-3.3375	-2.9562	-3.55	37.311	-65.234	-7.188	71.948	-0.674	217.077	82.108	-35.753	140.265	-30.616	-119.558	-112.054	178.881	-109.704	-30.847	192.139	0.00028646	0.0003881	0.00011414	417.39	1.4278e-05	6.266e-06	470.16	163.93	1.6348e-05	1.1052e-05	184.89	69.466	60.453	33.838	9.4599e-06	29.727	0.010874	0.018181	0.0051007	564.88	0.00019585	0.00020757	477.16	169.26	0.0001807	0.00020883	201.71	71.858	63.694	34.076	0.00019018	31.695	-45.442	224.835	-27.786	-117.040	88.953	14.000	-118.627	-112.025	-104.487	-73.912	-114.802	-111.939	-108.181	-104.417	-26.705	-108.093	-8191	255	
1335.616	1	1	0	0	0.098119	0.047785	0.068004	0.16888	0.21848	0.088438	0.29395	0.20663	0.062026	0.064252	0.084043	0.29589	0.13266	0.2224	0.12991	0.21738	-2.6896	-2.9354	-3.2958	-2.9813	-3.1896	-3.4833	-2.9917	-3.45	-3.2708	-3.0354	-3.4688	-3.1813	-3.2812	-3.5312	-2.9042	-3.4688	2.767	209.194	43.598	-41.647	102.683	44.975	168.105	131.843	105.623	-24.211	132.918	217.972	181.563	142.757	181.088	68.947	0.00035427	0.0015348	0.00026705	411.14	9.0636e-06	2.7314e-06	469.41	162.45	1.1463e-05	2.0582e-06	178.37	68.305	60.31	33.552	3.0115e-06	29.805	0.011171	0.018616	0.0051656	564.75	0.00019989	0.00020852	472.41	167.08	0.00018248	0.00020866	197.85	70.782	63.295	33.745	0.00018741	31.401	7.049	31.213	-68.298	-116.446	-14.423	-62.831	-118.788	-111.619	3.404	-85.277	-115.204	-111.061	-107.987	-104.138	179.548	-107.725	-8191	255	
1335.712	1	1	0	0	0.05708	0.21837	0.081352	0.24889	0.051522	0.11872	0.068944	0.23551	0.16683	0.074194	0.063119	0.11998	0.24437	0.17465	0.16318	0.091539	-2.6562	-2.8417	-3.2354	-2.8896	-3.1854	-3.4708	-3.0521	-3.2625	-3.3417	-2.8854	-3.5687	-3.275	-3.2917	-3.4917	-3.0458	-3.4333	-54.083	171.040	16.186	225.468	-1.381	222.877	141.745	196.524	48.538	-41.746	49.627	-102.755	-43.988	-115.235	-116.187	79.466	0.00040039	0.000459	0.00012715	415.33	6.9498e-06	1.7152e-05	462.21	161.43	2.0999e-05	1.4709e-05	178.76	68.113	60.421	33.507	6.58e-06	29.549	0.011032	0.018206	0.0051181	560.51	0.00019904	0.00020643	467.74	166.84	0.00018102	0.00020641	197.22	70.875	63.277	33.719	0.00018647	31.461	-61.605	158.633	171.697	-116.523	195.398	-32.265	-118.814	-111.495	153.161	-37.419	-114.503	-111.681	-108.434	-103.940	135.966	-108.013	-8191	255	
1335.808	1	1	0	0	0.20477	0.11449	0.11535	0.16639	0.21647	0.21104	0.11745	0.10689	0.14999	0.10052	0.17254	0.090437	0.11856	0.34157	0.13442	0.036732	-2.9458	-2.8792	-3.3312	-3.1167	-3.1896	-3.5104	-3.1146	-3.3229	-3.2	-3.0729	-3.5917	-3.2417	-3.1854	-3.6292	-3.0479	-3.3021	6.453	12.479	61.670	72.990	165.320	64.737	122.669	-11.230	-15.127	78.255	-112.068	-103.205	189.832	174.636	109.408	101.853	0.00023255	0.00047296	0.00024162	399.49	1.8389e-05	1.5047e-05	461.48	161.56	6.4926e-06	8.3359e-06	181.37	68.247	60.214	33.73	3.8208e-06	29.852	0.011034	0.018295	0.0051217	560.31	0.0001974	0.00020583	469.99	167.64	0.00018372	0.00020922	198.38	70.922	63.175	33.905	0.00018931	31.734	-17.592	64.358	40.426	-117.300	96.159	-19.826	-118.638	-111.836	-99.918	62.134	-114.905	-111.705	-108.174	-104.022	56.952	-108.333	-8191	255	
1335.904	1	1	0	0	0.22325	0.13295	0.24679	0.15638	0.21363	0.064191	0.37	0.084094	0.012292	0.12573	0.32903	0.18792	0.072619	0.17483	0.22975	0.059766	-3.05	-2.9	-3.4083	-3.2313	-3.1708	-3.3312	-3.2062	-3.2646	-3.4646	-3.0354	-3.4938	-3.2208	-2.8833	-3.5875	-3.2875	-3.3083	175.032	229.516	182.221	170.246	-115.762	172.275	190.615	-17.583	-24.679	192.773	165.702	155.079	48.600	-48.932	-73.452	121.244	0.000455	0.00089059	0.00022059	412.18	1.0117e-05	6.4289e-07	464.04	160.03	8.992e-06	1.4105e-06	178.91	68.108	59.229	33.883	8.899e-06	29.836	0.011223	0.018231	0.0051711	566.45	0.00020162	0.00020627	469.11	166.47	0.00018335	0.00020909	197.69	70.711	62.625	33.881	0.00019146	31.65	-24.655	-105.998	-93.180	-117.817	-107.971	107.654	-118.713	-111.775	44.425	42.429	-114.713	-111.573	-107.873	-104.192	222.504	-107.744	-8191	255	
1336.025	1	1	0	0	0.19154	0.12977	0.20155	0.14544	0.075083	0.12006	0.14527	0.10154	0.036648	0.30591	0.16582	0.031723	0.24602	0.1324	0.19776	0.17666	-3.0083	-2.9104	-3.2917	-3.4125	-3.125	-3.6125	-3.2042	-3.3937	-3.4896	-3.1333	-3.475	-3.525	-3.0208	-3.5333	-3.175	-3.05	154.313	129.030	122.328	-126.884	69.519	93.681	123.248	130.458	-11.121	76.341	39.151	74.562	199.303	161.561	18.525	206.118	0.00042744	0.00069213	0.00018066	403.25	8.5924e-06	7.3767e-06	455.54	158.59	1.6266e-05	1.0533e-05	173.48	66.661	59.209	33.066	7.516e-06	29.248	0.011274	0.018581	0.0052673	562.84	0.00020064	0.00020683	464.3	164.73	0.00018245	0.00020886	194.07	69.648	62.026	33.434	0.00019011	31.126	-7.689	-57.582	-103.903	-116.964	-24.630	203.226	-118.685	-112.021	-71.841	102.741	-115.315	-111.303	-108.218	-104.069	-46.909	-108.190	-8191	255	
1336.119	1	1	0	0	0.073474	0.11725	0.091359	0.1143	0.12641	0.13585	0.057392	0.041711	0.11353	0.16168	0.074074	0.134	0.36317	0.20276	0.1077	0.3384	-3.0021	-2.9958	-3.2375	-3.4125	-3.0979	-3.4208	-3.3979	-3.1708	-3.5312	-3.2708	-3.2479	-3.4562	-3.0271	-3.5729	-3.1958	-3.05	102.756	59.140	-79.415	103.076	111.047	-5.295	-54.236	-126.578	14.661	218.836	29.249	56.455	198.658	189.545	-110.716	-26.491	0.00032647	0.0013717	0.00027275	415.59	1.8781e-05	1.2217e-05	453.43	159.3	1.3947e-05	2.3734e-05	175.75	67.151	59.138	33.177	7.3084e-06	29.344	0.010993	0.018319	0.0052166	563.54	0.00020035	0.0002065	462.01	164.81	0.00017906	0.00020736	195.2	69.707	61.88	33.411	0.0001899	31.235	-25.878	-8.098	2.372	-117.822	11.813	42.008	-119.069	-111.546	144.426	12.893	-114.742	-111.060	-107.834	-104.565	6.337	-108.366	-8191	255	
1336.216	1	1	0	0	0.25379	0.17862	0.077892	0.18358	0.10708	0.11568	0.14054	0.20928	0.11252	0.091552	0.11988	0.25873	0.086582	0.09285	0.10891	0.21842	-3.1792	-3.1354	-3.3104	-3.4208	-3.0042	-3.3542	-3.4062	-3.0917	-3.3604	-3.1458	-3.2062	-3.5104	-2.9688	-3.4938	-3.1	-3.0271	53.001	89.747	128.828	74.831	-107.050	-79.913	-61.886	68.497	22.644	135.403	-80.456	152.421	-11.864	198.859	101.749	131.914	0.00044632	0.0015038	0.00014647	400.01	1.616e-05	4.619e-06	455.2	160.12	8.2928e-06	1.3693e-05	178.14	67.066	59.52	33.7	1.5777e-05	30.112	0.010964	0.018485	0.0051641	557.26	0.00019627	0.00020542	462.79	164.51	0.00017839	0.00020527	195.24	69.552	62.28	33.746	0.00018564	31.553	-19.056	42.053	182.825	-117.210	76.764	-121.968	-118.853	-111.960	135.680	69.869	-114.694	-111.185	-108.524	-104.351	0.461	-107.913	-8191	255	
1336.312	1	1	0	0	0.05738	0.088561	0.097037	0.071942	0.29366	0.13933	0.17995	0.25844	0.039152	0.1497	0.088706	0.12626	0.11675	0.18948	0.083494	0.029697	-3.0375	-3.1167	-3.1333	-3.4271	-2.9938	-3.1271	-3.3563	-2.8292	-3.4875	-2.9917	-3.0479	-3.4167	-2.925	-3.3042	-3.3958	-2.9917	44.915	-116.779	-127.338	-98.659	227.131	141.198	39.967	177.054	-93.928	54.485	55.085	-63.325	198.720	-11.867	-113.404	167.280	0.00049522	0.00054258	0.00036089	408.43	4.7586e-06	3.2727e-06	460.84	163.1	1.5018e-05	9.1337e-06	180.33	68.286	60.767	34.253	2.2391e-05	30.332	0.010511	0.017531	0.0049596	551.22	0.00018441	0.00019865	464.88	166.76	0.00016798	0.00019493	196.63	70.469	62.868	34.19	0.00017672	31.716	-28.909	183.631	-22.920	-117.233	58.239	-123.252	-118.941	-111.893	57.336	171.140	-115.679	-111.489	-108.462	-104.041	-7.781	-108.564	-8191	255	
1336.408	1	1	0	0	0.057749	0.25609	0.10814	0.053311	0.18808	0.13102	0.19808	0.1948	0.076006	0.068271	0.092467	0.10479	0.14457	0.15839	0.022455	0.16559	-3.0146	-3.0438	-3.0604	-3.5292	-3.0687	-3.1437	-3.675	-2.9979	-3.5042	-3.3208	-2.8563	-3.4375	-3.0125	-3.1937	-3.5438	-2.9104	-20.529	-1.577	-38.791	112.983	214.596	-88.808	190.222	44.611	-24.174	51.746	8.070	170.908	-118.898	170.000	-16.231	169.696	0.00058474	0.00031005	0.00021571	405.68	8.6761e-06	1.8187e-05	460.44	161.54	1.5799e-05	5.4006e-06	178.13	67.602	58.756	33.765	1.1907e-05	29.335	0.010289	0.017235	0.004847	547.11	0.00018716	0.00019765	466.41	165.26	0.00017079	0.0002004	194.92	69.402	61.86	33.639	0.00018006	31.133	4.793	-111.919	115.485	-116.821	204.725	-105.011	-118.212	-112.091	1.451	73.770	-114.855	-111.442	-107.935	-104.324	42.052	-107.729	-8191	255	
1336.504	1	1	0	0	0.048209	0.11984	0.1247	0.15608	0.13735	0.22845	0.19772	0.15575	0.13437	0.14607	0.072771	0.062443	0.14665	0.15122	0.10693	0.037433	-2.875	-3.2458	-3.0042	-3.4354	-3.0979	-3.1271	-3.5042	-2.8792	-3.2229	-3.3292	-2.9125	-3.4146	-3.2875	-3.0271	-3.5854	-3.075	32.772	227.434	-84.585	-99.175	-86.935	191.930	187.501	31.741	10.763	79.582	125.933	205.041	-10.067	168.512	-41.027	126.414	0.00030684	0.00095137	0.00039104	412.37	1.5069e-05	4.5556e-06	456.54	156.47	1.3435e-05	1.1905e-05	173.06	65.037	56.787	33.138	6.7899e-06	29.144	0.010636	0.017835	0.0050315	549.94	0.00019505	0.00020391	460.67	162.21	0.00018033	0.00020583	191.22	67.94	60.571	33.216	0.00018859	31.104	-0.583	56.493	-9.970	-117.604	8.920	195.000	-118.718	-112.023	28.141	-16.059	-115.144	-111.609	-108.050	-103.738	74.643	-108.380	-8191	255	
1336.625	1	1	0	0	0.27683	0.21044	0.11228	0.14206	0.075741	0.13758	0.21485	0.11928	0.15371	0.1707	0.048113	0.22257	0.15605	0.27393	0.15171	0.1562	-2.8625	-3.3417	-3.1083	-3.3917	-3.3333	-3.2083	-3.5375	-2.8292	-3.1688	-3.3958	-3.0333	-3.4083	-3.0938	-2.9083	-3.6875	-2.9646	-37.129	123.910	132.375	10.747	146.614	183.020	-118.023	65.943	-119.851	145.875	-106.186	156.723	122.986	218.781	76.683	187.770	0.00026983	0.00083751	0.00050212	397.83	1.4622e-05	1.6511e-05	446.62	153.92	1.0752e-05	1.4545e-05	169.69	65.296	56.778	33.158	2.1965e-05	29.547	0.010966	0.018502	0.0051672	556.49	0.0002028	0.00021225	458.01	160.9	0.00018624	0.00021252	189.89	67.863	60.461	33.361	0.00019132	31.347	-52.960	171.441	9.435	-117.520	32.020	225.333	-118.423	-112.156	93.999	-31.094	-114.240	-111.504	-108.067	-104.296	9.484	-107.920	-8191	255	
1336.721	1	1	0	0	0.025333	0.14065	0.057778	0.12299	0.25895	0.26601	0.17306	0.25923	0.24468	0.18921	0.20689	0.33703	0.1707	0.14516	0.069974	0.34285	-2.8958	-3.4792	-2.9417	-3.3604	-3.1729	-3.0479	-3.5396	-3.1771	-3.3375	-3.4708	-3.2188	-3.5708	-3.3104	-3.1688	-3.6042	-3.2583	16.146	-115.274	-122.927	210.493	-20.996	154.928	-128.121	226.829	-17.813	-17.340	-36.181	137.098	86.596	-62.432	-26.107	196.875	0.00033554	0.00094153	0.00021622	398.51	1.4074e-05	8.0004e-06	452.2	156.03	1.111e-05	8.6694e-06	173.45	65.964	57.501	33.528	1.3585e-05	29.793	0.011361	0.018697	0.005257	563.23	0.00020111	0.00021234	459.47	161.54	0.00018392	0.00020929	192.38	68.752	61.011	33.649	0.00018773	31.65	-25.362	190.610	100.967	-116.238	-11.174	113.709	-118.287	-111.594	-127.183	-51.721	-115.193	-111.379	-108.276	-103.982	188.046	-107.850	-8191	255	
1336.817	1	1	0	0	0.11274	0.14287	0.31691	0.084753	0.13325	0.070577	0.18751	0.18366	0.18464	0.17593	0.18313	0.15332	0.15908	0.28798	0.050326	0.17849	-2.6417	-3.1875	-3.025	-3.2188	-3.25	-2.9875	-3.5375	-3.0875	-3.0521	-3.4354	-3.0771	-3.2313	-3.525	-3.1604	-3.2375	-3.3187	122.461	-100.000	-1.968	121.117	128.665	192.753	228.674	-62.288	41.109	46.801	-77.235	-106.244	26.733	207.511	-127.207	-51.896	0.0005952	0.0019009	0.00022633	398.78	1.3497e-05	2.2796e-05	457.37	155.67	6.4212e-06	1.7654e-06	175.87	66.254	57.781	33.29	2.3489e-05	29.341	0.011049	0.018238	0.0051054	555.34	0.00019613	0.00020331	462.93	162.27	0.00017719	0.00020278	193.16	68.767	61.133	33.307	0.00018469	31.06	-21.159	206.844	-85.639	-118.289	61.236	182.165	-118.757	-111.796	-113.847	162.044	-115.280	-111.535	-108.225	-104.318	-81.034	-108.310	-8191	255	
1336.913	1	1	0	0	0.12404	0.041974	0.24256	0.13695	0.18969	0.066282	0.34686	0.23828	0.18538	0.13879	0.20094	0.11663	0.13031	0.078134	0.18335	0.25153	-2.6104	-3.375	-2.9771	-3.3458	-3.275	-3.1312	-3.4458	-3.3563	-3.0333	-3.5333	-3.0229	-3.2396	-3.3625	-2.9667	-3.4479	-3.3375	-1.751	223.851	-31.043	-76.949	147.193	146.106	202.789	190.344	57.126	138.450	176.420	225.612	4.329	-106.721	212.937	161.408	0.00029163	0.0017761	0.00025569	391.91	8.3928e-06	6.8842e-06	453.88	157.05	1.4337e-05	8.0375e-06	175.03	66.395	58.362	33.371	1.9697e-05	29.5	0.010784	0.017604	0.0050289	552.99	0.00019203	0.0001987	460.38	161.93	0.00017279	0.00019613	191.84	69.053	61.017	33.281	0.00017882	31.131	-63.084	175.116	146.673	-116.500	-126.739	62.414	-118.429	-111.697	-70.175	-31.149	-114.594	-111.359	-107.831	-103.700	-19.528	-107.811	-8191	255	
1337.007	1	1	0	0	0.069716	0.11171	0.20826	0.058248	0.13284	0.020029	0.1629	0.15271	0.20393	0.16152	0.16925	0.16741	0.11701	0.25028	0.24527	0.25099	-2.7229	-3.4875	-3.1833	-3.1167	-3.3187	-3.05	-3.3354	-3.3667	-3.0479	-3.7396	-3.2708	-3.1979	-3.5875	-3.0687	-3.3208	-3.4646	185.921	40.105	-6.577	-110.466	64.298	-47.419	198.786	198.481	88.091	33.887	155.392	79.953	46.986	-46.060	-36.148	154.589	0.00029278	0.00038428	0.00016051	404.74	9.5978e-06	8.3356e-06	456.49	158.59	1.6102e-05	1.1219e-05	177.64	66.426	58.701	33.502	1.4165e-05	29.503	0.010486	0.017193	0.0048736	548.22	0.00018712	0.00019298	462.44	163.21	0.00017108	0.00019612	193.99	69.134	61.151	33.394	0.00018146	31.238	-11.160	-74.030	-125.416	-117.601	70.388	78.127	-118.716	-112.055	97.315	28.759	-114.459	-111.327	-107.672	-104.362	10.999	-108.661	-8191	255	
1337.104	1	1	0	0	0.17453	0.13992	0.055031	0.040857	0.20613	0.19759	0.20532	0.25253	0.24266	0.33513	0.27982	0.096146	0.13585	0.13452	0.076118	0.14538	-2.5375	-3.525	-3.1333	-2.8646	-3.4521	-3.0729	-3.4042	-3.4521	-3.0417	-3.3396	-3.2292	-3.0292	-3.5458	-3.325	-3.4479	-3.5125	-65.389	-99.694	-71.747	94.512	20.099	-93.498	42.800	178.348	-101.822	-100.064	167.402	194.018	115.227	-112.441	164.706	-52.886	0.00011518	0.00030119	0.00023949	407.9	1.5277e-05	1.0572e-05	457.83	158.66	7.1938e-06	1.5374e-05	177.78	67.481	58.294	33.588	1.0283e-05	29.751	0.010551	0.017451	0.0049519	553.22	0.00018773	0.00019722	466.2	163.64	0.00017187	0.00020111	195.22	69.361	61.152	33.601	0.00018358	31.452	-29.017	8.604	136.442	-117.375	107.695	36.166	-118.371	-111.813	-98.511	-86.372	-114.551	-111.479	-107.812	-104.287	-10.037	-108.378	-8191	255	
1337.200	1	1	0	0	0.077859	0.07795	0.030974	0.21169	0.19009	0.19677	0.092252	0.17598	0.076661	0.12694	0.11844	0.25572	0.26007	0.31715	0.11082	0.084351	-2.4938	-3.3583	-3.2667	-2.875	-3.4979	-3.0125	-3.3625	-3.5167	-3.0229	-3.2646	-3.3083	-2.9771	-3.5292	-3.1979	-3.3312	-3.3896	-19.113	-37.019	-34.909	224.343	-91.038	157.939	160.440	142.382	-8.687	186.348	160.294	-49.312	168.520	-114.608	26.084	78.715	0.00042408	0.00046601	1.8305e-05	403.82	1.418e-05	1.2705e-05	455.77	156.81	1.0145e-05	2.1458e-05	175.41	66.078	57.912	32.983	1.6049e-05	29.516	0.010583	0.017774	0.0050032	553.84	0.00018926	0.00020084	464.55	162.2	0.00017409	0.00020021	193.18	68.52	60.675	33.269	0.00018053	30.954	-11.631	-24.877	105.935	-116.519	119.449	67.896	-118.357	-112.034	40.622	32.056	-115.064	-111.167	-108.287	-104.228	74.504	-108.141	-8191	255	
1337.296	1	1	0	0	0.24877	0.1851	0.18123	0.26634	0.15002	0.2567	0.072969	0.079767	0.32332	0.22042	0.12585	0.041184	0.087832	0.25991	0.3373	0.21973	-2.5917	-3.3812	-3.325	-2.95	-3.5604	-3.2833	-3.1188	-3.5896	-3.0458	-3.5563	-3.4792	-3.0083	-3.5958	-3.1562	-3.0667	-3.5083	29.634	-9.208	-70.643	220.395	-127.768	10.086	76.953	80.891	148.255	103.019	-112.031	149.124	138.746	202.247	117.753	224.338	0.00031634	0.00041604	0.00015259	402.97	3.6439e-06	8.461e-06	455.09	157.47	1.326e-05	7.6194e-06	174.67	65.812	58.451	33.448	2.0459e-05	29.629	0.01045	0.017452	0.0049498	543.99	0.00018475	0.0001952	460.74	162.24	0.00016931	0.00019675	191.55	68.11	60.95	33.366	0.00017571	30.915	-73.936	-39.304	-83.858	-117.083	-25.014	-10.411	-118.403	-112.066	101.119	117.701	-114.834	-111.202	-108.137	-104.145	61.267	-108.298	-8191	255	
1337.417	1	1	0	0	0.23381	0.054332	0.042527	0.20236	0.15079	0.047711	0.12394	0.10594	0.026526	0.19169	0.15998	0.16323	0.16608	0.15589	0.11742	0.22313	-2.7208	-3.4792	-3.4958	-3.0687	-3.4708	-3.0563	-3.1125	-3.6542	-3.0208	-3.5521	-3.5104	-3.1417	-3.4813	-3.1229	-2.8312	-3.6458	26.403	166.966	22.026	189.729	153.750	-66.221	184.778	105.722	-84.971	53.539	-21.764	176.563	10.927	227.694	-99.824	33.179	0.00053737	0.001403	9.055e-05	404.12	1.2988e-05	8.9844e-06	461.28	159.91	1.4468e-05	7.8682e-06	178.19	66.79	57.809	32.929	1.332e-05	29.288	0.010133	0.017046	0.0047644	539.5	0.00018311	0.00019434	462.88	163.19	0.00016834	0.00019455	193.21	68.588	60.862	32.951	0.00017479	30.651	-37.584	-94.610	-122.855	-116.992	-18.684	77.767	-118.986	-112.406	0.601	175.451	-114.983	-111.370	-108.238	-104.143	-88.052	-108.193	-8191	255	
1337.513	1	1	0	0	0.086437	0.19719	0.15903	0.11123	0.024267	0.15433	0.087831	0.14122	0.1002	0.17999	0.1471	0.20121	0.24567	0.17476	0.19187	0.18376	-2.6542	-3.0479	-3.5062	-2.8729	-3.4313	-3.3292	-3.1854	-3.4521	-3.1688	-3.3479	-3.6312	-3.0646	-3.3896	-3.4313	-3.0708	-3.5875	105.577	-59.646	120.271	191.593	15.932	115.440	-70.344	66.272	210.075	208.331	-92.250	-18.452	58.284	-23.209	-30.113	95.529	0.00016932	0.00028902	0.00032027	404.17	1.4303e-05	1.1675e-05	466.75	158.97	2.8042e-05	4.9883e-06	179.66	66.321	57.725	32.93	1.5313e-05	28.956	0.01036	0.01713	0.0048101	544.22	0.0001841	0.00019635	467.93	163.26	0.00017214	0.00020024	195.42	69.21	60.581	32.868	0.0001808	30.681	21.190	-64.833	13.869	-117.480	9.880	66.821	-118.820	-111.817	16.196	-41.141	-114.851	-111.535	-108.405	-104.429	122.978	-108.269	-8191	255	
1337.584	1	1	0	0	0.1849	0.1144	0.11999	0.11174	0.14187	0.12404	0.070929	0.22886	0.052325	0.13076	0.061875	0.16168	0.28412	0.0498	0.1679	0.12869	-2.8771	-3.0833	-3.6271	-3.1979	-3.4313	-3.4333	-3.1	-3.3625	-3.3896	-3.125	-3.5271	-3.2	-3.2125	-3.575	-2.8563	-3.4854	103.249	82.705	92.899	-11.647	178.212	-66.660	60.073	88.698	165.764	-29.846	-18.948	-12.662	-82.363	152.364	-69.590	208.467	0.00030473	0.0011044	0.00024387	400.85	3.5825e-06	2.2215e-06	463.61	157.34	1.3194e-05	9.314e-06	178.1	66.225	57.088	32.71	6.5334e-06	28.764	0.010586	0.017587	0.0049318	551.39	0.00018871	0.00019922	468.74	162.18	0.00017489	0.0001993	194	68.489	60.264	32.688	0.00017947	30.337	-44.722	-46.715	-6.245	-117.171	220.866	139.083	-118.683	-112.042	159.902	138.442	-115.668	-111.854	-108.472	-104.282	-98.620	-108.302	-8191	255	
1337.705	1	1	0	0	0.18289	0.15674	0.18101	0.21399	0.05888	0.28414	0.21402	0.13785	0.080281	0.070158	0.18545	0.042713	0.050988	0.099157	0.22402	0.19011	-2.9604	-3.1813	-3.5	-3.2375	-3.2979	-3.4417	-3.0583	-3.4604	-3.3208	-3.1813	-3.5812	-3.2646	-3.3542	-3.4938	-3.05	-3.4562	-122.382	44.776	28.534	64.714	93.273	171.190	89.825	174.329	208.080	63.445	199.372	220.558	140.246	28.635	86.251	209.992	0.00033394	0.00072315	0.00049924	402.61	1.0309e-05	4.1594e-06	458.31	157.5	5.4121e-06	1.0424e-05	175.19	65.884	57.606	32.851	2.2417e-05	28.853	0.010444	0.017195	0.0048993	549.11	0.00018791	0.00019506	462.8	162.08	0.00016976	0.00019117	191.24	68.016	60.419	32.672	0.00017528	30.319	-6.936	214.043	0.039	-117.589	-34.193	-124.069	-118.608	-112.462	30.533	25.408	-115.076	-111.875	-108.540	-104.348	149.843	-108.418	-8191	255	
1337.801	1	1	0	0	0.28692	0.13039	0.070358	0.034986	0.077474	0.091884	0.19584	0.205	0.15829	0.15005	0.22045	0.052683	0.39592	0.043177	0.12699	0.099946	-2.9917	-2.9125	-3.5979	-3.2313	-3.1771	-3.4771	-3.0771	-3.3479	-3.3187	-2.9875	-3.6042	-3.1167	-3.1042	-3.4625	-3.0771	-3.3104	83.714	181.289	-10.553	50.555	12.328	25.144	-25.617	208.379	-17.346	-68.615	120.999	152.988	-117.150	-116.310	-65.063	123.375	0.00056945	0.00076933	0.00021711	405.2	3.6226e-06	6.6424e-06	459.04	159.16	9.4599e-06	7.2341e-06	176.13	66.94	58.26	32.943	1.8378e-05	28.966	0.010197	0.016796	0.0047121	545.02	0.00018261	0.00019075	463.51	163.25	0.00016834	0.00019248	192.73	68.652	60.81	32.984	0.00017652	30.542	-11.837	209.076	175.671	-117.202	7.116	187.278	-118.678	-112.004	7.918	-49.797	-115.059	-111.738	-107.995	-104.316	-42.392	-107.798	-8191	255	
1337.897	1	1	0	0	0.11811	0.12895	0.067554	0.068847	0.1975	0.20296	0.051113	0.015069	0.080065	0.16206	0.2544	0.15066	0.036532	0.14149	0.25091	0.18382	-2.9229	-2.8604	-3.4354	-3.2438	-2.9938	-3.5042	-2.9833	-3.2812	-3.2521	-3.0708	-3.5417	-3.2792	-3.0687	-3.575	-3.1208	-3.2667	48.300	27.600	116.889	49.309	208.788	-13.994	191.351	13.639	175.097	-123.817	187.567	-117.460	26.632	162.561	-91.391	158.492	0.00031757	0.00040512	0.00023321	415.46	1.6882e-05	5.4813e-06	466.84	161.02	4.1151e-06	1.2478e-05	181.17	68.251	60.047	33.694	1.4737e-05	29.865	0.010192	0.016874	0.0047553	545.81	0.00018102	0.00018888	466.52	165.24	0.00016464	0.00018792	195.9	69.606	61.889	33.468	0.00016993	31.12	-27.108	189.670	217.221	-117.687	-24.263	58.209	-119.141	-112.223	3.497	-8.728	-114.635	-111.286	-108.289	-104.648	-119.946	-108.430	-8191	255	
1337.993	1	1	0	0	0.1325	0.16639	0.17273	0.24012	0.18868	0.13736	0.25065	0.11829	0.16071	0.18471	0.041123	0.22036	0.28129	0.22307	0.076653	0.059922	-2.9542	-2.925	-3.5479	-3.3917	-2.8063	-3.6417	-3.0708	-3.2958	-3.7062	-3.0687	-3.3	-3.3146	-3.1188	-3.5458	-2.975	-3.2167	-11.204	15.870	212.588	21.082	166.714	-104.926	137.226	150.391	9.791	-94.621	123.489	219.021	186.302	190.357	-4.408	-74.116	0.00033098	0.00027377	0.00011824	408.91	1.7685e-05	6.031e-06	478.79	165.5	3.9245e-06	4.9805e-06	183.21	68.619	60.048	33.816	1.2176e-05	29.66	0.0098856	0.016499	0.0046438	544.22	0.00017732	0.00018541	475.1	167.3	0.00016246	0.00018877	197.26	70.138	62.349	33.527	0.0001704	31.002	-29.677	-69.721	-32.855	-117.041	1.686	26.950	-118.766	-112.213	-17.699	30.155	-114.627	-111.928	-108.551	-104.394	-60.795	-108.507	-8191	255	
1338.112	1	1	0	0	0.048879	0.041669	0.1379	0.11983	0.12094	0.083552	0.10679	0.29429	0.10202	0.10769	0.15961	0.11678	0.17025	0.12204	0.061843	0.18339	-2.8688	-2.8312	-3.2021	-3.3708	-2.9583	-3.5542	-3.1604	-3.0375	-3.4521	-3.1042	-3.3229	-3.2833	-2.9146	-3.4542	-3.2417	-3.1083	184.375	141.359	-60.488	202.504	163.744	-17.658	215.090	-79.079	-68.687	121.072	209.425	-44.489	187.362	202.678	220.385	-34.116	0.0002149	0.0012594	0.00042678	407.15	6.3119e-06	1.0201e-05	466.82	163.66	1.5186e-05	1.5057e-05	176.54	66.682	58.785	33.401	4.0418e-06	29.033	0.0099309	0.016527	0.0046531	541.52	0.00017663	0.0001887	469.8	165.76	0.00016325	0.00019048	192.93	68.681	61.251	33.197	0.000173	30.534	-71.961	-103.337	146.032	-117.523	16.882	215.734	-119.378	-111.198	4.527	113.310	-114.697	-111.623	-108.143	-104.020	-31.941	-108.188	-8191	255	
1338.208	1	1	0	0	0.20096	0.11514	0.22145	0.17603	0.022174	0.21697	0.22974	0.14946	0.20829	0.13358	0.083769	0.36682	0.16186	0.082953	0.099006	0.13916	-3.0062	-2.9146	-3.1646	-3.4625	-2.9875	-3.3563	-3.0396	-3.0521	-3.6771	-3.125	-3.3292	-3.3667	-2.9333	-3.3229	-3.1813	-3.1896	-49.234	180.490	37.232	211.937	10.719	28.664	154.649	-52.625	121.895	73.190	172.351	74.695	71.214	-8.635	-111.240	69.906	0.00021652	0.00051464	0.00016821	408.69	7.8211e-06	4.7883e-06	466.49	160.68	3.891e-06	5.5472e-06	180.1	66.495	58.794	33.466	9.2685e-06	29.301	0.010082	0.016797	0.0047264	544.44	0.00018046	0.00018956	465.98	164.41	0.00016327	0.000187	193.91	68.231	61.209	33.262	0.00016965	30.698	14.198	72.565	196.179	-117.092	-25.854	40.312	-118.778	-112.006	49.777	102.853	-114.618	-111.434	-108.113	-104.290	119.242	-108.543	-8191	255	
1338.305	1	1	0	0	0.14965	0.12998	0.067735	0.23065	0.091928	0.076568	0.18296	0.21134	0.3518	0.32334	0.12385	0.15299	0.22812	0.087037	0.23475	0.32528	-3.1979	-2.9875	-3.1583	-3.3937	-3.2146	-3.2417	-3.4021	-2.8917	-3.3667	-3.0729	-3.1167	-3.625	-3.1042	-3.4062	-3.3979	-3.0312	-31.713	70.428	23.179	167.333	-76.109	189.663	168.407	-70.392	-19.876	-8.146	30.529	228.384	-121.158	18.166	91.622	169.061	0.00043912	0.0011766	0.00029643	416.16	2.6377e-05	7.0966e-06	471.85	161.35	1.3127e-05	3.9208e-06	180.06	68.292	59.878	34.267	5.4649e-06	29.955	0.0098236	0.01644	0.0046144	541.07	0.00017644	0.00018388	468.27	164.86	0.00016268	0.00018511	194.65	69.286	61.68	33.766	0.00016462	31.257	-29.335	-15.373	58.208	-117.554	0.579	57.277	-118.746	-111.590	36.334	227.608	-114.697	-111.296	-108.789	-103.947	186.549	-108.369	-8191	255	
1338.401	1	1	0	0	0.1648	0.08086	0.277	0.16925	0.26781	0.080867	0.23967	0.1124	0.32701	0.20999	0.041028	0.29431	0.20666	0.19206	0.13156	0.067666	-2.9542	-3	-2.9375	-3.3896	-3.2	-3.3271	-3.4062	-3.0167	-3.3208	-3.3312	-3.0958	-3.5729	-3.2313	-3.4479	-3.6146	-2.9875	66.128	209.069	121.521	-98.735	-115.785	-10.505	44.428	193.941	159.036	13.109	31.751	154.515	7.426	150.449	210.513	4.690	0.00039515	0.00094572	0.00013411	411.29	1.7388e-05	6.5167e-06	476.05	165.27	5.3194e-06	6.9806e-06	185.61	69.605	61.101	34.732	1.3826e-06	30.818	0.0095835	0.015805	0.0043909	535.49	0.00016835	0.00017536	473.38	166.31	0.00014626	0.00016885	195.53	70.073	61.993	34.141	0.00014594	31.519	1.219	107.696	-58.091	-115.671	-46.651	-67.204	-118.428	-112.060	-77.786	128.434	-115.659	-111.795	-108.172	-104.461	-94.192	-108.261	-8191	255	
1338.497	1	1	0	0	0.14682	0.10303	0.047118	0.060047	0.039922	0.19562	0.1373	0.050485	0.046821	0.35757	0.1709	0.049283	0.075033	0.20389	0.13752	0.13302	-3.0375	-3.1729	-3.0271	-3.4437	-3.1562	-3.1708	-3.5792	-2.9417	-3.4875	-3.2458	-2.9333	-3.4854	-3.1	-3.3292	-3.4583	-2.9479	66.770	0.232	204.725	-81.216	37.089	-17.669	-127.972	202.044	23.644	101.243	-95.874	211.889	212.169	-54.067	-49.303	205.270	0.00040641	0.0015451	0.00013906	416.18	2.0109e-05	7.413e-06	477.77	162.7	6.8122e-06	5.9815e-06	181.39	67.425	58.884	34.424	1.842e-05	30.139	0.0087578	0.014456	0.0040782	527.71	0.00015643	0.00016575	472.93	163.75	0.00014627	0.00016811	192.21	68.192	60.548	33.829	0.00015081	31.094	-33.719	62.510	-100.895	-116.805	-78.070	-47.829	-119.042	-112.318	35.827	135.884	-114.986	-111.914	-108.419	-104.258	-31.750	-108.159	-8191	255	
1338.593	1	1	0	0	0.01524	0.20118	0.16784	0.15112	0.16887	0.17921	0.17036	0.10254	0.24533	0.1101	0.18284	0.12935	0.086262	0.21451	0.112	0.17434	-2.8375	-3.2833	-2.875	-3.3521	-3.1604	-3.2917	-3.7792	-3.0208	-3.5542	-3.4875	-2.9896	-3.65	-3.2125	-3.1813	-3.5083	-3.1021	-120.972	131.203	187.983	-78.303	107.395	-21.071	23.446	108.289	14.399	-106.755	98.136	4.694	14.835	-103.004	199.862	154.763	0.0004107	0.0011176	0.0003371	418.22	4.1438e-06	5.6463e-06	478.19	163.13	1.0833e-05	1.1068e-05	179.31	66.708	58.893	34.518	9.8074e-06	30.566	0.0088676	0.01486	0.0041827	533.79	0.00016119	0.00016925	470.86	163.43	0.0001507	0.00017069	190.29	67.89	60.442	33.89	0.00015381	31.369	4.024	-37.827	-128.149	-117.373	107.862	161.908	-118.479	-111.958	30.002	-118.372	-115.083	-111.632	-108.431	-103.758	-108.089	-107.976	-8191	255	
1338.714	1	1	0	0	0.16807	0.11179	0.32196	0.18018	0.080313	0.183	0.17695	0.1659	0.055912	0.13552	0.064267	0.12924	0.23129	0.12097	0.057386	0.014044	-2.8667	-3.5354	-2.9875	-3.3187	-3.4	-3.0187	-3.5396	-3.1292	-3.1979	-3.4188	-3.2354	-3.3667	-3.2375	-3.0708	-3.5062	-3.1354	99.530	141.979	101.503	96.322	210.532	-57.602	-25.731	138.576	108.891	-110.909	39.368	-48.814	203.614	129.566	24.482	176.038	9.0781e-05	0.00021598	0.0005108	420	1.0082e-05	8.5763e-06	476.43	162.84	5.5741e-06	1.8543e-05	179.12	67.939	60.219	35.101	1.569e-05	31.206	0.0090742	0.014981	0.0042473	534.29	0.00016138	0.00016854	472.68	163.78	0.00014865	0.00017083	192.2	68.69	61.417	34.497	0.00015554	32.125	-76.889	-15.229	-28.671	-117.770	-55.578	6.936	-118.960	-111.884	-55.894	129.160	-114.419	-111.470	-108.454	-104.231	52.465	-107.759	-8191	255	
1338.808	1	1	0	0	0.10044	0.072432	0.074083	0.076886	0.050734	0.15035	0.10473	0.068799	0.031842	0.038151	0.11052	0.16946	0.21918	0.035003	0.2261	0.06073	-2.8187	-3.2854	-2.8958	-3.3083	-3.35	-2.9875	-3.5979	-3.1833	-3.1521	-3.4729	-3.0625	-3.2104	-3.2042	-3.0667	-3.3875	-3.2771	-54.613	-46.267	135.630	-16.059	102.087	-91.281	82.923	221.671	17.244	-124.199	161.978	74.684	125.656	98.640	95.513	184.200	0.0003433	0.00022372	0.00026521	422.06	3.6455e-06	7.1701e-06	481.36	164.14	1.437e-05	1.371e-05	182.76	68.807	60.483	35.238	1.2862e-05	31.328	0.0089889	0.014967	0.004241	536.49	0.00016221	0.00016905	475.1	164.9	0.00014783	0.00017025	194.05	69.486	61.84	34.666	0.00015416	32.236	-17.574	170.132	-116.843	-117.860	124.800	-88.114	-118.922	-111.863	19.955	-22.843	-114.712	-111.681	-108.179	-103.985	-92.554	-108.291	-8191	255	
1338.882	1	1	0	0	0.19182	0.16834	0.3242	0.057604	0.14633	0.095159	0.35644	0.11022	0.11938	0.078397	0.27841	0.19953	0.28916	0.16754	0.27121	0.24905	-2.7438	-3.4958	-3.0125	-3.3688	-3.3	-2.8833	-3.4771	-3.2958	-3.1146	-3.5312	-3.0542	-3.3583	-3.3417	-3.2271	-3.5812	-3.5042	71.192	213.854	217.030	-26.126	-92.842	96.705	190.494	-91.774	-95.283	95.889	-81.517	136.921	67.026	132.563	12.700	208.193	0.00044672	0.00039325	0.00022515	414.67	8.2174e-06	1.0015e-05	476.72	162.32	1.0247e-06	1.5306e-05	183.56	68.943	60.25	35.231	7.2055e-06	31.022	0.0090181	0.015058	0.0042459	536.36	0.00016208	0.00017036	472.96	164.49	0.00014804	0.00017055	193.7	69.536	62.001	34.588	0.00015635	31.861	-25.345	-14.177	19.247	-116.718	-91.845	-119.417	-118.752	-111.948	-81.551	166.170	-115.354	-111.048	-108.168	-104.254	108.405	-108.296	-8191	255	
1338.978	1	1	0	0	0.30255	0.087489	0.0581	0.16246	0.2449	0.14936	0.25622	0.16091	0.12266	0.26854	0.10025	0.2398	0.067205	0.19373	0.2616	0.22637	-2.5375	-3.3583	-3.0083	-3.3354	-3.4771	-2.9208	-3.6625	-3.2854	-3.0292	-3.4938	-3.2812	-3.2646	-3.475	-2.9542	-3.3854	-3.3063	-30.176	127.110	-53.000	201.869	-53.254	120.735	103.998	-34.651	-64.633	152.988	-83.139	99.218	-80.574	74.734	-101.527	-96.796	0.00050016	0.0019679	0.00027036	420.66	1.3095e-05	4.5468e-06	480	165.01	9.5151e-06	1.1625e-05	181.22	69.335	61.187	35.132	6.9265e-06	31.14	0.0090383	0.01496	0.0042297	537.66	0.00016225	0.00017202	473.07	165.51	0.00015028	0.00017278	194.1	70.028	62.453	34.69	0.00015848	32.022	40.248	-39.015	61.417	-117.397	-78.939	-14.889	-118.374	-112.226	45.467	-65.797	-115.686	-111.290	-108.049	-104.361	58.119	-108.074	-8191	255	
1339.074	1	1	0	0	0.16307	0.12907	0.11919	0.083469	0.077841	0.25058	0.20331	0.20905	0.13731	0.13391	0.029949	0.10667	0.24866	0.051486	0.24244	0.15211	-2.8208	-3.4292	-3.2687	-3.1229	-3.55	-2.9333	-3.4333	-3.3896	-3.0312	-3.525	-3.25	-3.1646	-3.4958	-3.1063	-3.3125	-3.3958	100.753	76.483	-84.937	101.734	-89.266	82.534	-10.661	206.153	58.353	-32.263	149.400	-55.779	-16.689	-118.264	22.566	-24.633	0.00036381	0.00057751	0.00040942	423.1	1.9427e-06	7.5175e-06	476.28	166.44	9.3179e-06	6.3524e-06	184.83	69.644	61.466	35.399	6.6207e-06	31.495	0.0093085	0.01546	0.0043069	539.36	0.00016181	0.00017345	474.38	166.45	0.00015114	0.00017444	195.6	70.576	62.923	34.839	0.00015925	32.174	27.474	-52.038	-111.250	-116.887	13.634	111.678	-118.773	-112.250	-33.192	-72.177	-114.868	-111.469	-108.156	-104.059	129.199	-108.352	-8191	255	
1339.193	1	1	0	0	0.084026	0.093583	0.17959	0.17845	0.26398	0.24107	0.13753	0.11905	0.060979	0.14182	0.12411	0.25119	0.0080032	0.14258	0.15157	0.05001	-2.6208	-3.3083	-2.975	-3.0458	-3.4104	-3.0542	-3.2313	-3.2833	-3.0125	-3.4271	-3.2125	-3.15	-3.3979	-2.9354	-3.2562	-3.5625	112.071	-30.515	-95.764	-111.555	107.269	18.525	147.893	105.588	117.091	-9.248	151.903	-40.171	201.295	-79.630	130.745	62.785	0.00023526	0.00028212	3.8638e-05	426.38	1.2821e-05	1.1372e-05	481.34	163.15	1.2379e-05	1.2818e-05	184.28	69.767	61.267	35.592	1.9173e-05	31.363	0.0092355	0.015301	0.0043421	543.34	0.00016791	0.0001767	475.27	165.68	0.00015547	0.000178	196.18	70.895	62.969	34.973	0.00016032	32.378	-64.441	46.497	-110.898	-117.863	-106.925	59.853	-118.630	-111.869	-2.688	-105.330	-114.944	-111.977	-108.273	-104.269	44.661	-108.371	-8191	255	
1339.289	1	1	0	0	0.14376	0.077337	0.15905	0.10504	0.060844	0.044705	0.091263	0.023268	0.16654	0.13887	0.17525	0.090285	0.27656	0.27951	0.036809	0.073866	-2.4958	-3.3729	-3.2792	-3.025	-3.3021	-3.075	-3.3958	-3.6042	-2.9292	-3.3771	-3.3771	-2.9458	-3.4042	-3.1896	-3.1167	-3.55	59.982	-86.325	88.914	-117.040	107.270	75.083	35.850	9.884	35.265	25.846	-87.559	166.056	199.997	214.719	160.330	14.083	0.00037196	0.00093897	0.00040246	416.94	5.5547e-06	6.3883e-06	475.26	166.58	2.9463e-05	4.7717e-06	180.3	70.001	61.575	35.552	1.0246e-05	31.088	0.0094751	0.015666	0.0043931	543.11	0.00016767	0.0001767	473.9	166.57	0.00015449	0.00017569	192.56	70.285	62.811	34.859	0.00015777	32.076	-7.408	65.855	2.191	-117.449	205.104	87.125	-118.522	-111.941	131.067	158.984	-115.424	-111.559	-108.109	-103.620	-85.318	-108.228	-8191	255	
1339.385	1	1	0	0	0.2411	0.2751	0.22618	0.19285	0.096927	0.11099	0.065595	0.27095	0.052127	0.2784	0.15655	0.20046	0.033644	0.16255	0.24557	0.1349	-2.5021	-3.3083	-3.3292	-3.1896	-3.3896	-3.0333	-3.1708	-3.5438	-3.0458	-3.3229	-3.4771	-3.1667	-3.6208	-3.375	-2.9854	-3.4313	161.483	161.754	-49.199	-115.373	34.389	208.792	39.806	46.255	-123.793	21.878	96.058	100.883	201.078	198.846	19.295	-56.243	0.00048019	0.00057404	0.00019514	421.68	1.4379e-05	3.3535e-06	480.17	163.18	4.532e-06	2.0296e-05	181.56	69.84	61.473	35.381	7.7894e-06	31.166	0.009307	0.015392	0.0042946	539.01	0.00016554	0.00017452	472.5	166.24	0.0001525	0.00017586	193.42	70.579	63.078	34.873	0.00016061	32.169	-14.708	181.808	90.509	-116.467	33.782	38.133	-118.983	-112.203	49.334	16.821	-115.521	-111.174	-108.365	-103.912	56.888	-107.779	-8191	255	
1339.506	1	1	0	0	0.1259	0.071689	0.19026	0.30936	0.030319	0.17853	0.26272	0.0892	0.14683	0.1762	0.070602	0.37985	0.056662	0.20032	0.24773	0.095648	-2.7875	-3.2479	-3.275	-2.9021	-3.5833	-3.3833	-3.0917	-3.6104	-3.0312	-3.2896	-3.4396	-3.0667	-3.3958	-3.2792	-3.0187	-3.6604	-35.719	0.252	-68.501	-4.112	20.051	-101.900	-45.555	32.428	-93.391	-36.306	11.184	-97.750	-99.374	210.158	4.916	-63.323	0.00044736	0.0014669	0.00027375	414.24	2.5e-05	5.8189e-06	477.77	164.8	1.0978e-05	1.9756e-05	181.46	70.242	62.099	35.566	1.0876e-05	31.587	0.0094458	0.015445	0.004398	541.04	0.00016793	0.0001739	473.51	166.28	0.00015202	0.00017362	194.61	71.201	63.208	35.037	0.00016022	32.451	-25.673	-11.707	-74.203	-117.757	63.718	86.393	-118.799	-112.126	52.996	-99.125	-115.211	-111.388	-108.164	-104.076	166.285	-108.262	-8191	255	
1339.577	1	1	0	0	0.066554	0.15875	0.13281	0.050918	0.061104	0.352	0.20142	0.099833	0.11818	0.050011	0.15128	0.19711	0.10266	0.21162	0.12288	0.2969	-2.7458	-3.1146	-3.375	-2.9896	-3.4437	-3.1896	-3.0687	-3.4813	-3.125	-3.1688	-3.6542	-2.9146	-3.3063	-3.4083	-3.0312	-3.5042	-82.745	164.032	100.107	81.683	29.965	176.678	224.655	100.704	95.083	26.115	212.654	156.865	212.134	-100.099	62.658	151.633	0.00032824	0.00054964	0.00048481	415.29	5.8925e-06	9.7007e-06	484.2	164.17	2.3685e-05	2.0791e-05	184.68	70.9	62.158	36.135	1.3108e-05	31.919	0.0093965	0.015498	0.0043967	544.2	0.00016572	0.00017617	478.29	166.76	0.00015383	0.00017705	196.74	71.753	63.597	35.411	0.00015996	32.909	-21.594	-65.366	0.656	-117.618	110.228	-39.985	-118.371	-111.850	52.915	65.540	-114.851	-111.363	-108.191	-103.956	-22.442	-108.324	-8191	255	
1339.673	1	1	0	0	0.0052121	0.12546	0.24971	0.095342	0.05914	0.11009	0.090226	0.055305	0.090225	0.22423	0.20252	0.29946	0.15238	0.15386	0.42537	0.065187	-2.7	-3.0812	-3.4021	-3.0042	-3.3958	-3.4333	-3.0104	-3.4813	-3.2104	-3.0375	-3.5875	-3.2375	-3.2062	-3.4604	-3.0438	-3.5979	63.143	35.205	-102.933	28.809	195.568	74.925	62.491	14.372	9.620	102.875	182.546	184.390	-46.538	-9.815	28.141	11.825	0.0003198	0.00086598	0.00020874	424.28	2.4733e-05	7.3943e-07	482.76	165.32	1.1889e-05	6.2274e-06	184.13	70.154	61.953	35.786	1.5237e-05	31.686	0.0093722	0.015561	0.0043835	545.29	0.00016554	0.00017538	479.44	166.87	0.00015113	0.00017614	195.63	71.095	63.166	35.162	0.00016023	32.468	19.827	-115.325	-5.593	-118.295	-37.136	33.026	-119.151	-112.620	16.423	115.100	-115.096	-110.964	-108.241	-103.840	-54.154	-107.843	-8191	255	
1339.794	1	1	0	0	0.13155	0.19968	0.022417	0.20027	0.15283	0.099716	0.12574	0.22557	0.12706	0.12332	0.16162	0.15601	0.1255	0.30213	0.19303	0.12978	-2.9729	-2.925	-3.6229	-3.2167	-3.3229	-3.4875	-3.0875	-3.3792	-3.4583	-3.1167	-3.5875	-3.1479	-3.2	-3.4688	-2.8979	-3.3396	50.062	154.644	-27.962	133.294	159.841	7.737	175.495	82.096	157.889	123.083	-109.776	61.033	-88.512	-95.180	-47.541	155.230	0.00052666	0.00090059	0.00031417	433.93	1.1036e-05	4.898e-06	474.3	164.95	1.6017e-05	1.2961e-05	182.14	69.41	61.649	35.412	2.3047e-05	31.34	0.0093132	0.015686	0.0043926	547.11	0.00016662	0.00017634	473.48	166.04	0.00015411	0.00017725	194.28	70.435	62.698	34.905	0.00016033	32.298	-46.258	117.856	-10.676	-116.286	-85.695	-69.092	-118.829	-111.972	-99.123	98.165	-114.436	-111.457	-108.074	-104.081	21.208	-107.722	-8191	255	
1339.890	1	1	0	0	0.13034	0.21888	0.12725	0.19752	0.08252	0.14587	0.11037	0.069194	0.093987	0.1389	0.2167	0.053132	0.16246	0.17972	0.10971	0.19481	-2.7104	-2.9896	-3.3688	-3.1958	-3.2062	-3.4146	-3.0938	-3.3146	-3.4729	-2.9292	-3.4875	-3.0729	-3.0792	-3.6833	-3.0833	-3.3625	106.856	61.888	92.581	4.041	-45.723	-36.536	168.026	219.490	-51.061	124.876	-111.784	92.648	-49.570	1.798	42.729	-41.604	0.00037787	0.00086298	0.00040289	420.32	1.2817e-05	3.1962e-06	473.66	164.58	1.521e-05	7.6881e-06	182.5	69.482	61.232	35.486	1.7779e-05	31.833	0.0092727	0.015721	0.0043863	542.17	0.00016721	0.00017764	473.18	165.47	0.00015623	0.00017763	193.95	70.454	62.773	34.989	0.00016097	32.513	-13.540	-119.038	-6.138	-117.792	60.406	-122.701	-118.647	-111.955	68.870	25.364	-114.997	-111.411	-108.106	-103.826	-110.126	-108.072	-8191	255	
1339.986	1	1	0	0	0.1628	0.018037	0.15099	0.14982	0.14174	0.20438	0.054532	0.11951	0.12471	0.057264	0.078706	0.11668	0.012053	0.15377	0.31082	0.13811	-2.9375	-3.0062	-3.3479	-3.2042	-2.9854	-3.6146	-3.0146	-3.3354	-3.4667	-3.0396	-3.6063	-3.3979	-3.1333	-3.5417	-3.1083	-3.2521	-71.554	137.075	19.884	198.848	-63.902	228.943	-56.483	-19.962	-71.447	-24.906	5.752	30.569	44.767	169.868	176.456	178.079	0.00062944	0.00078212	0.00033423	422.76	9.0282e-06	1.448e-05	477.15	164.33	2.1329e-05	4.6073e-06	182.83	69.898	61.366	35.907	1.9662e-06	32.071	0.0094278	0.015714	0.0044464	546.28	0.00017005	0.00017917	475.64	165.84	0.00015651	0.00018073	195.13	70.825	62.878	35.204	0.00016246	32.762	-22.836	183.901	-112.100	-118.244	227.725	-65.967	-118.050	-111.978	89.082	92.568	-114.943	-111.361	-108.433	-104.220	-28.403	-108.001	-8191	255	
1340.105	1	1	0	0	0.040628	0.11563	0.16408	0.1218	0.14116	0.057425	0.13355	0.084639	0.078394	0.10244	0.17122	0.26399	0.11629	0.16697	0.17075	0.15666	-3.0896	-2.8958	-3.4271	-3.1312	-3.1562	-3.6021	-3.2271	-3.2667	-3.5021	-3.2104	-3.3625	-3.4437	-2.975	-3.4729	-2.9917	-3.1875	4.056	-40.404	-7.528	30.956	-19.934	83.565	59.011	-64.465	154.378	35.947	33.287	197.903	38.190	184.943	-14.860	119.161	0.00040586	0.001248	0.00013766	423.28	2.5071e-06	1.0243e-05	477.72	164.33	1.3628e-05	1.4292e-05	180.54	68.889	60.504	35.578	1.569e-05	31.675	0.0094837	0.015942	0.0044663	546	0.00017085	0.00018008	475.54	165.73	0.00015689	0.00017917	193.79	70.311	62.626	34.942	0.00016343	32.382	-62.492	76.706	118.748	-117.210	13.812	125.452	-118.286	-112.065	-66.795	-0.345	-114.651	-111.539	-108.085	-104.462	-14.541	-108.622	-8191	255	
1340.177	1	1	0	0	0.10421	0.10933	0.23367	0.020227	0.14859	0.075349	0.047183	0.1408	0.052916	0.051544	0.12363	0.067931	0.12649	0.32376	0.1714	0.12581	-3.2646	-2.9667	-3.1833	-3.3917	-3.1562	-3.6437	-3.2667	-3.175	-3.525	-3.05	-3.3187	-3.4646	-3.1958	-3.4104	-3.2292	-3.1729	4.341	83.339	25.838	-81.630	183.824	57.608	21.381	119.977	223.218	-97.146	133.061	-63.055	219.299	158.242	-71.368	-90.173	0.00048937	0.00083131	0.00026919	421.19	1.3738e-05	9.9235e-06	476.42	163.86	1.4501e-05	8.3279e-06	179.46	68.472	60.122	35.272	1.5598e-05	30.86	0.0095707	0.015677	0.0043797	542.3	0.00017045	0.00017816	470.96	165.24	0.000158	0.00018011	192.55	69.808	62.24	34.64	0.00016269	31.925	-43.801	-25.030	92.469	-117.772	36.243	113.837	-119.165	-111.837	-13.810	170.885	-114.321	-111.671	-108.422	-104.211	164.948	-108.561	-8191	255	
1340.273	1	1	0	0	0.18432	0.053464	0.21731	0.22762	0.096616	0.034822	0.054803	0.13874	0.14483	0.21963	0.19788	0.16819	0.13266	0.060645	0.2296	0.078403	-2.8958	-3.0354	-3.1021	-3.275	-2.9167	-3.4417	-3.5208	-3.0438	-3.7188	-2.9938	-3.1729	-3.4146	-3.0875	-3.3979	-3.2062	-3.0396	198.977	104.022	212.786	38.792	104.901	217.515	2.920	33.639	-118.593	29.721	196.883	146.848	-62.543	-36.848	227.463	5.450	0.00058632	0.00055892	0.00014678	420.99	1.0733e-05	4.8967e-06	470.07	159.88	1.4726e-05	4.4258e-06	178.13	67.873	59.289	34.645	9.4917e-06	30.856	0.0096155	0.01593	0.0044605	544.95	0.00017522	0.00018348	468.93	163.73	0.00016028	0.00018232	192.72	69.691	61.719	34.357	0.00016548	32.004	-18.924	-26.518	60.632	-117.791	124.003	69.086	-118.655	-112.463	-106.126	52.954	-115.032	-111.518	-108.013	-104.307	199.102	-107.786	-8191	255	
1340.394	1	1	0	0	0.082077	0.13877	0.12488	0.029624	0.10771	0.17118	0.054453	0.16469	0.15527	0.068694	0.13457	0.11892	0.22488	0.11333	0.18881	0.27499	-2.9688	-2.9521	-3.2979	-3.4188	-3.0875	-3.3688	-3.1708	-2.9417	-3.3875	-3.1542	-3.0021	-3.6312	-3.1854	-3.3417	-3.1958	-2.9667	-114.767	26.866	-4.722	84.633	84.072	117.200	-17.084	-86.658	76.557	175.757	-19.534	-128.398	176.871	-95.446	-112.180	153.056	0.00026422	0.00073471	3.0628e-05	413.48	1.0348e-05	1.1574e-06	475.3	162.76	1.4938e-05	2.5571e-06	184.45	70.255	60.888	34.938	1.7844e-05	31.48	0.0097721	0.016334	0.0046259	549.09	0.00017578	0.00018298	473.5	165.71	0.00015993	0.00018278	196.57	71.321	62.618	34.626	0.00016613	32.451	-17.273	214.107	183.526	-117.374	41.603	146.735	-118.637	-111.475	51.596	-50.158	-114.785	-111.370	-107.996	-103.987	19.079	-107.640	-8191	255	
1340.490	1	1	0	0	0.21782	0.21798	0.35957	0.1315	0.13589	0.11506	0.082196	0.12933	0.14579	0.016686	0.084407	0.13052	0.10502	0.47352	0.27013	0.4399	-2.9625	-3.1688	-2.8833	-3.3979	-2.9604	-3.2604	-3.4938	-3.0083	-3.3625	-3.2271	-3.1292	-3.5187	-3.0646	-3.2917	-3.3937	-2.9729	109.834	-34.916	115.269	62.168	-81.389	-37.642	-127.258	176.346	65.427	-70.032	-14.333	-77.542	227.571	225.570	-60.279	179.966	0.00033252	0.00063692	0.00019174	424.56	4.9479e-06	5.1778e-06	474.99	164.54	1.0337e-05	1.0302e-05	182.66	70.748	61.395	35.107	5.2358e-06	31.018	0.0096408	0.015979	0.0045386	555.61	0.00017263	0.00018125	476.48	167.21	0.00015819	0.00018098	195.69	71.12	62.733	34.693	0.00016401	32.156	-11.242	-83.241	64.292	-117.800	-75.014	-60.394	-118.740	-112.048	87.482	228.082	-114.856	-111.855	-108.122	-104.266	92.638	-108.317	-8191	255	
1340.586	1	1	0	0	0.2343	0.090355	0.43206	0.20961	0.25464	0.051507	0.12702	0.25042	0.31721	0.10267	0.26659	0.13048	0.097694	0.21663	0.096877	0.11705	-3.0729	-3.2104	-2.8792	-3.4375	-3.125	-3.2313	-3.3854	-3.0438	-3.3208	-3.4708	-3.0917	-3.5625	-3.2083	-3.2896	-3.4104	-3.0271	224.289	212.514	75.586	90.326	22.960	195.429	22.223	-91.597	78.284	-28.118	-127.848	30.323	-26.383	-101.515	-107.643	181.718	0.00039257	0.0011974	0.00026057	418.79	1.2314e-05	1.5635e-06	476.93	163.67	1.0793e-05	1.7176e-05	182.61	69.492	61.46	35.463	5.263e-06	31.347	0.0094751	0.015603	0.0044606	543.98	0.00016768	0.00017754	473.68	166.32	0.0001542	0.00017717	194.59	71.013	62.964	34.813	0.00016154	32.193	-46.957	-22.202	-62.723	-116.530	76.277	-64.632	-118.741	-111.855	155.912	186.176	-114.565	-111.281	-108.797	-104.052	-59.423	-108.092	-8191	255	
1340.682	1	1	0	0	0.29595	0.17837	0.1564	0.19515	0.015453	0.11885	0.054412	0.21094	0.12144	0.1993	0.16841	0.16823	0.18775	0.069537	0.19795	0.11725	-2.8479	-3.3021	-2.9208	-3.3521	-3.1792	-3.0125	-3.4271	-2.9667	-3.2896	-3.3396	-3.0354	-3.5938	-3.2583	-3.1104	-3.5542	-3.0625	29.808	101.006	120.946	-31.979	-100.605	10.493	38.777	208.878	-92.976	-70.130	47.840	145.554	-89.124	-57.740	108.294	118.059	0.00017368	0.0015726	8.2143e-05	423.83	4.3791e-06	3.6012e-06	475.36	165.14	1.35e-05	9.034e-06	183.51	69.895	61.674	35.466	2.0527e-05	31.293	0.0093107	0.015531	0.0044796	544.61	0.00016708	0.0001759	473.22	166.55	0.00015392	0.0001777	194.87	71.003	63.112	34.963	0.00016206	32.158	17.956	-4.409	25.602	-117.697	-95.416	74.630	-118.583	-112.151	-40.175	147.255	-115.617	-111.772	-108.190	-104.084	-13.090	-108.441	-8191	255	
1340.754	1	1	0	0	0.099863	0.077724	0.1431	0.14188	0.034883	0.10438	0.24887	0.19532	0.25478	0.24689	0.127	0.1032	0.18011	0.070885	0.093122	0.099685	-2.9021	-3.2438	-2.9021	-3.5438	-3.2146	-3.1083	-3.5687	-3.05	-3.2646	-3.5771	-3.1917	-3.6063	-3.4	-3.0708	-3.3854	-3.2917	214.120	-128.928	149.770	81.661	-110.526	190.543	113.475	214.733	67.704	61.610	151.167	156.445	163.632	34.520	147.606	-96.976	0.0003221	0.00053544	0.00029221	422.42	8.4032e-06	1.5444e-05	477.05	162.6	1.083e-05	1.0767e-05	182.2	69.372	60.092	35.077	8.3886e-06	31.733	0.0094867	0.015927	0.004491	541.65	0.00017009	0.00018154	474.22	165.19	0.00015779	0.00018467	194.88	70.949	62.449	34.763	0.00016869	32.492	-13.610	-38.617	50.444	-117.549	-30.059	-32.643	-118.811	-111.938	-14.660	-50.517	-115.056	-111.798	-108.061	-103.428	-101.008	-108.143	-8191	255	
1340.874	1	1	0	0	0.34686	0.0959	0.078096	0.14645	0.305	0.13908	0.29731	0.11596	0.10237	0.16537	0.15991	0.20102	0.11864	0.17307	0.2081	0.17808	-2.7438	-3.3792	-2.8958	-3.425	-3.3229	-3.0687	-3.5667	-3.2021	-3.1604	-3.5479	-2.8583	-3.5312	-3.375	-3.0271	-3.4833	-3.3167	-110.104	-47.712	97.398	202.425	62.738	30.952	192.236	67.411	98.032	53.568	-36.989	16.763	185.995	206.112	183.678	213.490	0.0003373	0.00077888	8.4708e-05	406.48	1.0064e-05	2.2466e-06	473.6	163.02	2.0163e-05	1.2278e-05	180.2	69.401	60.305	35.187	1.8217e-05	30.785	0.0097922	0.016323	0.0045321	545.28	0.0001753	0.0001843	473.64	165.14	0.00016081	0.00018517	193.47	70.522	62.441	34.722	0.00016432	31.987	-25.089	-77.274	-76.150	-118.347	-126.010	105.185	-118.754	-112.140	108.863	113.173	-115.284	-111.609	-108.495	-104.287	140.827	-107.916	-8191	255	
1340.971	1	1	0	0	0.069342	0.15742	0.011949	0.15773	0.10696	0.19322	0.039649	0.33306	0.11713	0.25685	0.36542	0.17199	0.12087	0.21286	0.13225	0.17679	-2.6042	-3.5354	-3.1875	-3.275	-3.4375	-2.9417	-3.5854	-3.1271	-3.1312	-3.4688	-3.2292	-3.2313	-3.3979	-3.1375	-3.4813	-3.4292	99.895	149.146	59.273	35.742	-49.146	147.119	100.232	155.586	-107.687	58.273	220.399	216.059	193.039	124.491	-76.656	6.688	0.00023674	0.00029756	0.00014155	422.5	2.8615e-06	5.5973e-06	467.7	161.29	1.6231e-05	1.741e-05	178.1	68.448	60.685	35.187	2.077e-05	30.65	0.0096992	0.015978	0.0044489	543.55	0.00017468	0.00018072	468.48	162.94	0.00015883	0.00018072	190.62	69.991	62.577	34.61	0.00016392	31.888	-111.799	-116.288	227.166	-117.641	141.564	-78.330	-118.787	-111.992	-108.630	-10.951	-114.988	-111.064	-108.274	-104.223	153.787	-107.550	-8191	255	
1341.067	1	1	0	0	0.21012	0.12834	0.01542	0.033641	0.088185	0.2149	0.12565	0.1712	0.29869	0.041191	0.2606	0.060196	0.10132	0.018784	0.093642	0.13479	-2.6458	-3.6875	-2.9188	-3.3063	-3.5375	-3.1437	-3.6208	-3.4875	-3.1229	-3.5563	-3.1771	-3.1896	-3.5521	-3.1562	-3.4229	-3.4583	-17.452	1.987	132.517	-24.203	207.496	4.354	-88.844	165.671	215.018	109.533	-104.508	-109.166	6.191	102.662	18.077	-80.251	0.00065022	0.0013355	0.00015705	423.45	1.1106e-05	9.9567e-06	464.86	159.87	1.597e-05	5.7075e-06	173.61	69.573	60.943	35.229	1.2789e-05	31.041	0.0098266	0.016233	0.0045069	548.54	0.00017582	0.00018552	465.98	163.07	0.00016239	0.00018581	189.6	71.091	63.484	34.896	0.00017099	32.251	-14.728	-101.226	30.500	-116.489	-72.572	-43.439	-118.390	-112.073	-7.473	146.022	-115.060	-111.350	-108.267	-104.309	75.721	-108.397	-8191	255	
1341.186	1	1	0	0	0.19899	0.14161	0.10607	0.15357	0.069055	0.1341	0.058984	0.061498	0.071449	0.13484	0.1923	0.30799	0.32077	0.2211	0.25917	0.19851	-2.6479	-3.4625	-3.0229	-3.0167	-3.6042	-3.2271	-3.3	-3.5271	-2.9688	-3.3375	-3.1854	-3.0958	-3.4917	-3.1354	-3.3292	-3.3958	73.384	180.957	115.006	-25.926	-70.117	143.312	-114.031	196.368	3.609	-103.485	-0.497	151.739	182.042	194.231	21.085	152.955	0.00038776	0.00044643	0.00030593	417.65	1.5548e-05	7.3687e-06	462.54	160.14	6.7013e-06	1.8231e-06	173.65	69.782	60.926	35.076	1.345e-05	31.276	0.010138	0.016699	0.0047232	553.63	0.00018179	0.00019006	465.05	164.06	0.00016812	0.00019004	190.19	71.607	63.4	34.873	0.00017153	32.487	-25.399	26.637	80.879	-116.463	158.671	88.025	-118.498	-111.757	-68.557	109.737	-114.991	-111.710	-108.163	-104.166	52.772	-107.866	-8191	255	
1341.282	1	1	0	0	0.10659	0.14785	0.15232	0.12988	0.16242	0.16002	0.078659	0.27955	0.069858	0.17821	0.17653	0.12411	0.069015	0.093057	0.11816	0.11262	-2.6979	-3.3729	-3.1771	-2.9521	-3.5104	-3.0958	-3.3063	-3.2708	-3	-3.4562	-3.2146	-3.0042	-3.6542	-3.2062	-3.4125	-3.6167	39.116	186.049	142.757	171.979	28.827	152.535	28.196	166.067	-34.711	145.413	24.514	177.500	55.385	-87.095	39.986	157.264	0.0002017	0.00032213	7.9382e-05	417.73	5.3037e-06	6.4988e-06	467.44	161.08	2.4822e-06	5.2384e-06	176.38	70.666	62.39	35.405	1.277e-05	31.487	0.010105	0.016511	0.004631	551.15	0.00017778	0.00018568	466.66	164.82	0.00016238	0.00018329	191.25	71.719	63.905	35.091	0.00016451	32.538	1.875	12.715	-119.389	-117.828	-64.546	-95.594	-118.480	-111.932	-11.432	-36.824	-114.443	-111.530	-108.610	-104.157	20.883	-108.381	-8191	255	
1341.378	1	1	0	0	0.31877	0.054541	0.29018	0.23414	0.049297	0.098585	0.22191	0.30492	0.053471	0.13359	0.15658	0.090039	0.19064	0.075224	0.042587	0.19248	-2.6458	-3.1854	-3.1146	-2.8979	-3.4833	-3.0438	-3.2292	-3.3625	-2.9729	-3.2042	-3.4583	-2.9229	-3.5292	-3.3729	-3.1271	-3.6063	-76.652	-40.159	-94.512	22.866	-113.838	83.465	202.956	89.576	97.145	-99.863	-79.965	128.349	160.902	136.585	-102.834	-20.680	0.00058075	0.00048207	0.00036298	415.89	1.1676e-05	4.7392e-07	468.18	160.7	6.6368e-06	8.8067e-06	174.86	70.288	62.586	35.446	9.2186e-06	31.566	0.0096896	0.015884	0.0044961	547.51	0.00017289	0.00018059	466.4	163.79	0.00015899	0.00018055	188.96	71.575	63.964	35.003	0.00016552	32.365	-50.268	165.605	228.546	-116.707	-112.747	87.056	-118.583	-112.196	157.475	140.893	-115.205	-111.318	-108.219	-104.453	170.734	-108.440	-8191	255	
#DATA ENDS
