BOXY.EXE: ISS Imagent and Oximeter Data Acquisition Program Version 0.80
Ascii Record File

#ACQ INFORMATION
2  Detector Channels 
16  External MUX Channels 
1  Auxiliary Channels 
5000  Waveform (CCF) Frequency (Hz)
1  Waveforms Skipped 
30  Waveforms Averaged 
1  Cycles Averaged 
16  Acquisitions per Waveform 
10.0806  Updata Rate (Hz) 

#FILE INFORMATION
TRUE -- External MUX Channel results are PARSED.
FALSE -- AC DC and Phase are NOT grouped.
TRUE -- Companion Program Settings File CREATED.
FALSE -- AC data not excluded
FALSE -- DC data not excluded
FALSE -- Phase data not excluded
FALSE -- Auxillary Chn. data not excluded
Tab delimiters

#CALIBRATION STATE
TRUE -- Waveform Calibration Values APPLIED.


#AUX CALIBRATION VALUES
Val Type	aux-1	

Term	1.0000e+00	
Factor	0.0000e+00	


#WF CALIBRATION VALUES
A = Detector Channel
Val Type	A-AC1	A-AC2	A-AC3	A-AC4	A-AC5	A-AC6	A-AC7	A-AC8	A-AC9	A-AC10	A-AC11	A-AC12	A-AC13	A-AC14	A-AC15	A-AC16	A-DC1	A-DC2	A-DC3	A-DC4	A-DC5	A-DC6	A-DC7	A-DC8	A-DC9	A-DC10	A-DC11	A-DC12	A-DC13	A-DC14	A-DC15	A-DC16	A-Ph1	A-Ph2	A-Ph3	A-Ph4	A-Ph5	A-Ph6	A-Ph7	A-Ph8	A-Ph9	A-Ph10	A-Ph11	A-Ph12	A-Ph13	A-Ph14	A-Ph15	A-Ph16	

Term	0.00000e+00	0.00000e+00	0.00000e+00	0.00000e+00	0.00000e+00	0.00000e+00	0.00000e+00	0.00000e+00	0.00000e+00	0.00000e+00	0.00000e+00	0.00000e+00	0.00000e+00	0.00000e+00	0.00000e+00	0.00000e+00	0.00000e+00	0.00000e+00	0.00000e+00	0.00000e+00	0.00000e+00	0.00000e+00	0.00000e+00	0.00000e+00	0.00000e+00	0.00000e+00	0.00000e+00	0.00000e+00	0.00000e+00	0.00000e+00	0.00000e+00	0.00000e+00	0.00000e+00	0.00000e+00	0.00000e+00	0.00000e+00	0.00000e+00	0.00000e+00	0.00000e+00	0.00000e+00	0.00000e+00	0.00000e+00	0.00000e+00	0.00000e+00	0.00000e+00	0.00000e+00	0.00000e+00	0.00000e+00	
Factor	1.00000e+00	1.00000e+00	1.00000e+00	1.00000e+00	1.00000e+00	1.00000e+00	1.00000e+00	1.00000e+00	1.00000e+00	1.00000e+00	1.00000e+00	1.00000e+00	1.00000e+00	1.00000e+00	1.00000e+00	1.00000e+00	1.00000e+00	1.00000e+00	1.00000e+00	1.00000e+00	1.00000e+00	1.00000e+00	1.00000e+00	1.00000e+00	1.00000e+00	1.00000e+00	1.00000e+00	1.00000e+00	1.00000e+00	1.00000e+00	1.00000e+00	1.00000e+00	X	X	X	X	X	X	X	X	X	X	X	X	X	X	X	X	

B = Detector Channel
Val Type	B-AC1	B-AC2	B-AC3	B-AC4	B-AC5	B-AC6	B-AC7	B-AC8	B-AC9	B-AC10	B-AC11	B-AC12	B-AC13	B-AC14	B-AC15	B-AC16	B-DC1	B-DC2	B-DC3	B-DC4	B-DC5	B-DC6	B-DC7	B-DC8	B-DC9	B-DC10	B-DC11	B-DC12	B-DC13	B-DC14	B-DC15	B-DC16	B-Ph1	B-Ph2	B-Ph3	B-Ph4	B-Ph5	B-Ph6	B-Ph7	B-Ph8	B-Ph9	B-Ph10	B-Ph11	B-Ph12	B-Ph13	B-Ph14	B-Ph15	B-Ph16	

Term	0.00000e+00	0.00000e+00	0.00000e+00	0.00000e+00	0.00000e+00	0.00000e+00	0.00000e+00	0.00000e+00	0.00000e+00	0.00000e+00	0.00000e+00	0.00000e+00	0.00000e+00	0.00000e+00	0.00000e+00	0.00000e+00	0.00000e+00	0.00000e+00	0.00000e+00	0.00000e+00	0.00000e+00	0.00000e+00	0.00000e+00	0.00000e+00	0.00000e+00	0.00000e+00	0.00000e+00	0.00000e+00	0.00000e+00	0.00000e+00	0.00000e+00	0.00000e+00	5.32887e+00	-1.29929e+02	-1.28731e+02	-1.84746e+02	-7.04180e+01	-6.91937e+01	-1.57922e+02	-1.62015e+02	-2.77445e+01	-6.81129e+01	-1.79083e+02	-1.70094e+02	-1.79662e+02	-1.77090e+02	-5.99893e+01	-1.50031e+02	
Factor	3.72528e-05	1.74124e-04	4.89623e-05	5.67296e-01	1.96177e-06	1.72426e-06	1.76438e-01	6.39805e-02	2.34682e-06	1.97558e-06	1.09870e-01	2.83453e-02	2.58785e-02	9.19466e-03	2.23646e-06	1.37262e-02	1.53627e-05	2.58478e-05	7.28226e-06	2.83297e-01	2.78559e-07	2.92575e-07	8.32134e-02	3.23121e-02	2.55711e-07	2.93603e-07	5.34728e-02	1.39108e-02	1.31685e-02	4.70685e-03	2.66657e-07	6.77598e-03	X	X	X	X	X	X	X	X	X	X	X	X	X	X	X	X	



#DISTANCE SETTINGS
A = Detector Channel
A-1	A-2	A-3	A-4	A-5	A-6	A-7	A-8	A-9	A-10	A-11	A-12	A-13	A-14	A-15	A-16	

2.5000e+00	3.0000e+00	2.5000e+00	3.0000e+00	2.0000e+00	3.0000e+00	1.5000e+00	3.0000e+00	3.0000e+00	3.0000e+00	3.0000e+00	3.0000e+00	3.0000e+00	3.0000e+00	1.5000e+00	3.0000e+00	

B = Detector Channel
B-1	B-2	B-3	B-4	B-5	B-6	B-7	B-8	B-9	B-10	B-11	B-12	B-13	B-14	B-15	B-16	

1.0000e+01	1.0000e+01	1.0000e+01	1.4400e+00	1.0000e+01	1.0000e+01	1.5100e+00	1.9400e+00	1.0000e+01	1.0000e+01	1.9900e+00	2.4900e+00	2.4100e+00	2.9000e+00	1.0000e+01	2.9800e+00	




#DATA BEGINS
time	group	step	mark	flag	A-AC1	A-AC2	A-AC3	A-AC4	A-AC5	A-AC6	A-AC7	A-AC8	A-AC9	A-AC10	A-AC11	A-AC12	A-AC13	A-AC14	A-AC15	A-AC16	A-DC1	A-DC2	A-DC3	A-DC4	A-DC5	A-DC6	A-DC7	A-DC8	A-DC9	A-DC10	A-DC11	A-DC12	A-DC13	A-DC14	A-DC15	A-DC16	A-Ph1	A-Ph2	A-Ph3	A-Ph4	A-Ph5	A-Ph6	A-Ph7	A-Ph8	A-Ph9	A-Ph10	A-Ph11	A-Ph12	A-Ph13	A-Ph14	A-Ph15	A-Ph16	B-AC1	B-AC2	B-AC3	B-AC4	B-AC5	B-AC6	B-AC7	B-AC8	B-AC9	B-AC10	B-AC11	B-AC12	B-AC13	B-AC14	B-AC15	B-AC16	B-DC1	B-DC2	B-DC3	B-DC4	B-DC5	B-DC6	B-DC7	B-DC8	B-DC9	B-DC10	B-DC11	B-DC12	B-DC13	B-DC14	B-DC15	B-DC16	B-Ph1	B-Ph2	B-Ph3	B-Ph4	B-Ph5	B-Ph6	B-Ph7	B-Ph8	B-Ph9	B-Ph10	B-Ph11	B-Ph12	B-Ph13	B-Ph14	B-Ph15	B-Ph16	aux-1	digaux	

1419.165	1	1	0	256	0.18776	0.35904	0.10053	0.14022	0.11752	0.20705	0.28939	0.2429	0.13939	0.089082	0.065428	0.1237	0.088913	0.037143	0.2751	0.07939	-2.5438	-3.3	-3.1917	-3.0792	-3.4104	-3.0479	-3.2146	-3.3458	-2.8771	-3.3688	-3.5417	-3.0917	-3.5375	-3.1708	-3.0563	-3.5354	-92.786	130.931	167.547	154.183	16.492	-4.029	-129.621	177.115	2.136	-17.165	228.390	150.030	-67.656	149.998	-83.001	200.982	0.00048333	0.0010309	0.00045382	762.84	2.0949e-05	2.4572e-05	775.17	278.74	2.4537e-06	1.3187e-05	288.26	95.694	101.67	47.602	2.0195e-05	46.182	0.0066266	0.010721	0.0030348	791.47	0.00011319	0.00012136	722.22	262.67	0.00010559	0.00012122	279.06	90.541	96.005	44.795	0.00011101	44.088	-26.944	14.427	-94.268	-117.507	-2.401	15.472	-119.040	-112.495	-124.819	0.536	-115.514	-110.839	-108.990	-104.296	-98.059	-108.344	-8191	255	
1419.286	1	1	0	0	0.1689	0.16585	0.25492	0.19323	0.18441	0.073536	0.22383	0.22497	0.13266	0.20093	0.17732	0.10222	0.04987	0.27822	0.10821	0.1516	-2.5333	-3.1375	-3.3896	-3.025	-3.2458	-3.1604	-2.8854	-3.5187	-3.0104	-3.3417	-3.4604	-3.0667	-3.3917	-3.3187	-2.8917	-3.5958	200.773	-0.517	14.704	168.243	225.679	-127.032	-68.413	223.982	67.358	-127.777	192.978	-104.685	143.853	144.009	15.956	114.777	0.00055097	0.0012256	0.00027203	758.52	6.8979e-06	3.8626e-06	761.38	276.92	9.537e-06	8.6915e-06	278.61	90.388	98.998	46.003	1.6856e-05	44.016	0.0064575	0.010677	0.0030022	789.21	0.00011321	0.00011991	710.75	259.39	0.00010457	0.00012023	271.33	86.918	93.579	43.314	0.00010981	42.227	13.695	-71.986	220.514	-117.584	-67.249	111.758	-118.955	-112.364	-2.223	141.632	-115.597	-111.124	-108.509	-104.006	54.298	-108.198	-8191	255	
1419.382	1	1	0	0	0.14396	0.042408	0.085245	0.18783	0.14196	0.18215	0.1021	0.063693	0.24802	0.19952	0.1759	0.13498	0.048264	0.11973	0.098578	0.2599	-2.625	-3.0979	-3.275	-2.8396	-3.2958	-3.2479	-3.2	-3.4688	-3.0229	-3.2562	-3.3521	-3.1	-3.4688	-3.3729	-2.8583	-3.4146	159.440	185.050	-35.465	179.266	54.528	-8.986	-59.775	193.935	72.636	-20.407	-9.260	190.033	37.183	76.099	80.409	196.833	0.0004022	0.001463	0.00010997	747.92	9.9798e-06	6.1326e-06	754.7	272.61	4.4977e-06	1.0886e-05	276.29	89.212	96.801	44.651	4.4898e-06	43.183	0.0065234	0.010675	0.0029797	780.02	0.00011466	0.00012315	702.95	255.28	0.00010498	0.00012193	268.72	85.764	91.96	42.295	0.00010822	41.556	-9.941	-17.568	48.737	-117.217	-22.377	142.757	-118.953	-112.537	-7.890	-21.924	-115.302	-110.958	-108.585	-104.152	-98.351	-108.016	-8191	255	
1419.478	1	1	0	0	0.14462	0.097771	0.25365	0.25911	0.12993	0.35473	0.21372	0.10044	0.13747	0.030688	0.24658	0.087313	0.41141	0.16563	0.04438	0.19887	-2.6813	-3.0771	-3.2875	-3.0563	-3.0646	-3.2771	-2.9729	-3.3208	-3.1583	-3.0542	-3.2	-2.9333	-3.2479	-3.3292	-2.8333	-3.3417	-108.707	153.573	-101.677	-63.400	-80.652	49.320	201.889	183.154	14.088	-61.164	-125.563	215.619	-103.452	-122.127	109.089	168.375	0.00056556	0.0013944	0.00028602	750.46	3.1137e-06	8.1432e-06	754.51	268.88	1.2986e-05	5.3816e-06	274.41	89.558	96.135	44.83	5.0205e-06	43.784	0.0065047	0.010624	0.0029433	775.48	0.00011254	0.00012029	701.73	252.3	0.00010326	0.00011925	267.38	85.534	91.343	42.377	0.00010737	42.126	-29.916	-59.237	20.689	-117.385	174.685	-103.549	-118.908	-112.555	115.450	-22.684	-115.585	-111.028	-108.724	-104.070	162.148	-108.566	-8191	255	
1419.550	1	1	0	0	0.18654	0.22938	0.0077598	0.2759	0.065835	0.041396	0.1614	0.048271	0.11706	0.26378	0.31784	0.13293	0.15195	0.34512	0.18104	0.15134	-2.85	-2.8563	-3.5396	-2.9875	-3.0833	-3.3021	-3.0729	-3.525	-3.2854	-2.875	-3.4208	-3.1125	-3.2104	-3.5354	-3.0062	-3.5375	-116.703	211.157	109.641	17.625	-38.222	16.056	220.706	-103.469	180.637	229.499	213.752	138.001	-87.279	223.788	25.113	220.732	0.00050513	0.00072141	0.00014515	744.53	1.8868e-05	1.2789e-05	750.49	266.58	1.1366e-05	8.093e-06	276.87	90.439	96.467	45.847	7.4941e-06	45.015	0.0063164	0.010314	0.002916	770.79	0.00011121	0.00011545	701.07	250.1	0.00010121	0.00011517	266.38	85.855	91.132	42.959	0.00010254	42.973	-31.585	-17.425	-59.968	-117.299	-15.601	9.016	-118.930	-112.375	34.091	38.219	-115.495	-110.907	-108.786	-104.067	-79.877	-108.159	-8191	255	
1419.669	1	1	0	0	0.0034675	0.21377	0.45009	0.083846	0.26745	0.099666	0.18521	0.06587	0.22331	0.15617	0.184	0.096844	0.11741	0.21798	0.11542	0.1923	-2.8021	-2.8125	-3.3292	-3.1021	-3.2458	-3.3312	-3.0104	-3.3937	-3.1813	-3.05	-3.3	-3.1104	-3.0604	-3.4958	-2.9562	-3.0563	77.809	79.987	78.892	10.653	-14.014	-20.439	123.229	146.901	68.053	143.369	181.968	138.463	53.211	217.099	116.163	-100.321	0.00022209	0.00037585	0.00017918	737.85	1.4916e-05	1.2665e-05	750.48	268.73	6.8449e-06	7.482e-06	277.17	90.665	97.464	46.265	1.0189e-05	45.528	0.0060824	0.0099214	0.0027655	766.36	0.00010541	0.00010975	699.72	250.86	9.6399e-05	0.00010767	266.84	86.457	91.847	43.329	9.8962e-05	43.069	-54.338	-59.388	9.586	-117.253	-39.876	-39.006	-118.751	-112.457	220.742	-52.307	-115.852	-110.890	-108.807	-103.871	-66.987	-108.314	-8191	255	
1419.765	1	1	0	0	0.12401	0.16971	0.29253	0.20747	0.12046	0.19087	0.047272	0.28849	0.065156	0.12737	0.18726	0.15438	0.15475	0.039194	0.070447	0.1525	-2.7812	-2.6125	-3.3604	-3.2458	-3.0958	-3.4792	-3.1646	-3.3292	-3.5333	-2.8854	-3.3812	-3.1729	-3.1417	-3.4437	-2.8354	-3.2875	8.491	-77.349	-83.463	152.095	153.900	222.015	60.884	210.882	-49.170	161.919	104.275	186.674	-88.457	40.882	61.705	150.236	0.00032369	0.0013036	0.00025103	738.59	5.2557e-06	8.8662e-06	754.38	270.22	6.9569e-06	9.5195e-06	277.73	91.736	97.085	45.989	1.7623e-06	44.941	0.0059062	0.0096071	0.0026496	763.1	0.00010325	0.00010785	701.63	252.5	9.55e-05	0.0001096	267.34	86.764	91.451	43.217	9.9289e-05	42.815	-11.336	-18.283	56.330	-117.279	-24.944	100.816	-119.017	-112.852	33.153	17.191	-115.111	-110.991	-108.907	-103.894	211.485	-108.012	-8191	255	
1419.861	1	1	0	0	0.037449	0.045727	0.10279	0.10541	0.15375	0.21857	0.025019	0.14652	0.117	0.18832	0.12344	0.25531	0.12876	0.16801	0.35713	0.23618	-2.8542	-2.85	-3.1854	-3.1646	-2.9833	-3.5292	-3.2042	-3.2542	-3.6375	-3.0979	-3.3583	-3.3312	-3.0542	-3.4958	-3.175	-3.1771	-68.516	211.513	39.489	-31.459	81.611	-117.686	144.439	59.460	187.061	145.179	77.791	209.688	-121.148	205.564	8.968	146.978	0.00021321	0.00078227	0.00024445	743.19	8.1559e-06	1.0762e-05	755.7	265.79	5.7891e-06	4.594e-06	275.16	89.658	96.029	45.508	1.415e-05	44.756	0.0058073	0.0095707	0.0026612	763.01	0.00010151	0.00010573	696.43	248.79	9.3167e-05	0.00010539	263.92	85.204	90.142	42.73	9.7029e-05	42.584	-19.842	5.749	-117.529	-117.455	-1.797	-24.811	-119.025	-112.761	-96.204	-38.005	-115.448	-111.005	-108.806	-103.986	158.630	-108.125	-8191	255	
1419.957	1	1	0	0	0.29476	0.061015	0.10971	0.020101	0.39247	0.18159	0.22677	0.20559	0.12936	0.10795	0.25753	0.071066	0.36721	0.14649	0.33068	0.33196	-3.2229	-3.1104	-3.4458	-3.1708	-3.0125	-3.6375	-3.3896	-3.0729	-3.6021	-3.1292	-3.2	-3.3729	-3.1146	-3.6083	-3.2667	-3.1896	-91.138	131.605	140.021	68.415	-126.111	193.009	170.863	132.714	-126.960	56.766	-104.435	216.697	151.725	224.970	164.223	87.668	0.00055685	0.0010492	0.00033938	734.6	1.0166e-05	1.0447e-05	741.4	260.14	2.0971e-05	8.2493e-06	269.89	88.658	93.609	44.941	1.1675e-05	44.616	0.0057646	0.0092213	0.0026769	753.41	0.00010097	0.00010433	689.26	243.65	9.2143e-05	0.0001037	259.73	84.219	88.558	42.226	9.5343e-05	42.393	-8.533	17.252	-111.100	-117.791	-1.719	0.343	-118.983	-112.349	44.940	211.545	-115.417	-111.197	-108.379	-103.814	-0.623	-108.775	-8191	255	
1420.078	1	1	0	0	0.23021	0.38738	0.099336	0.18887	0.13931	0.033184	0.066872	0.22718	0.17575	0.13161	0.062965	0.30514	0.065601	0.17217	0.073451	0.30401	-3.0833	-2.9813	-3.1188	-3.2375	-3	-3.4583	-3.2	-3.0083	-3.4917	-3.0333	-3.225	-3.2062	-3.0125	-3.4771	-3.3458	-3.0521	158.653	200.399	203.111	126.735	165.260	87.462	135.040	185.225	-60.715	101.582	195.566	167.537	-69.374	115.909	22.871	15.035	0.00055018	0.00094656	0.00023462	732.13	8.0394e-06	3.3748e-06	741.55	261.47	9.9789e-06	1.6552e-05	268.25	87.702	93.677	44.669	5.5252e-06	43.755	0.0055456	0.0091296	0.0025765	742.2	9.7541e-05	0.00010202	686.43	243.17	8.7872e-05	0.00010212	257.61	83.267	88.029	41.772	9.1308e-05	41.311	-20.329	86.224	-27.691	-117.052	45.537	8.551	-118.828	-112.760	78.472	66.625	-115.055	-110.850	-108.785	-104.376	-129.342	-108.366	-8191	255	
1420.149	1	1	0	0	0.31715	0.097655	0.12768	0.07754	0.047912	0.26149	0.025601	0.21173	0.093675	0.24559	0.14145	0.089953	0.24367	0.11692	0.25474	0.42452	-3.0229	-2.8708	-3.1375	-3.3187	-2.9146	-3.2396	-3.4188	-2.9875	-3.4813	-3.0292	-3.1271	-3.3667	-2.9521	-3.2875	-3.4146	-3	204.370	123.762	145.289	146.835	227.996	140.391	61.629	174.495	-124.140	220.295	138.344	125.994	156.236	172.004	-90.070	-59.143	0.00044342	0.00074228	0.00010568	729.67	4.2008e-06	9.4803e-06	734.83	260.12	1.3932e-05	1.2139e-05	264.51	87.336	93.761	44.188	6.0883e-06	43.386	0.0053909	0.00876	0.0024836	736.7	9.2652e-05	9.8835e-05	677.69	241.08	8.4826e-05	9.7019e-05	252.4	82.531	87.886	41.61	8.8976e-05	40.988	-5.355	-92.506	173.332	-117.614	-40.101	-49.696	-119.043	-112.600	0.399	79.055	-115.394	-111.352	-108.840	-103.532	184.631	-108.033	-8191	255	
1420.246	1	1	0	0	0.08446	0.11516	0.13506	0.23634	0.20762	0.41192	0.12492	0.14181	0.11143	0.024433	0.12715	0.26112	0.13877	0.20535	0.1327	0.032863	-2.9417	-3.1292	-3.0083	-3.3604	-2.95	-3.35	-3.4333	-2.9646	-3.375	-3.2104	-3.0854	-3.5542	-3.25	-3.3708	-3.4333	-2.8979	108.970	76.162	0.296	-94.598	194.578	179.952	40.068	201.807	109.609	-9.936	199.172	-46.287	133.431	65.736	-47.265	143.455	0.00050945	0.0017379	0.00018623	719.41	7.7199e-06	9.1408e-06	730.02	257.14	4.9973e-06	1.2442e-05	264.51	86.593	92.978	44.12	1.34e-05	43.119	0.0052081	0.0085388	0.0024209	729.77	9.0495e-05	9.7807e-05	675.23	239.6	8.5323e-05	9.7246e-05	253.96	81.85	87.328	41.124	8.6265e-05	40.931	0.304	-21.152	-64.143	-118.275	69.254	-9.889	-118.668	-112.692	-98.365	190.306	-114.985	-111.115	-108.895	-104.077	2.913	-107.999	-8191	255	
1420.366	1	1	0	0	0.034721	0.21084	0.10313	0.090062	0.088855	0.21726	0.21655	0.13291	0.076496	0.21294	0.37258	0.12655	0.24615	0.051919	0.15596	0.23727	-3.025	-3.1208	-3.0604	-3.4979	-3.1104	-3.2271	-3.3042	-2.9708	-3.3625	-3.3063	-3.0771	-3.5125	-3.2979	-3.1021	-3.575	-2.9938	113.524	87.759	47.178	-69.949	18.964	-76.298	224.323	223.691	140.249	145.297	175.391	-114.687	-75.631	147.557	17.023	152.913	0.00052063	0.00055644	0.00015593	722.45	1.3215e-05	5.0052e-06	731.98	257.12	2.0858e-05	7.5056e-06	265.87	86.652	92.994	43.598	1.3734e-05	43.245	0.0052436	0.0085316	0.0024142	731.28	9.1963e-05	9.7175e-05	678.97	239.43	8.5171e-05	9.5956e-05	255.51	81.964	87.107	40.846	8.6443e-05	40.964	-31.216	-113.280	-6.003	-118.021	-8.777	0.118	-118.956	-112.796	31.006	199.549	-115.745	-110.852	-109.163	-103.956	19.891	-108.612	-8191	255	
1420.462	1	1	0	0	0.24839	0.21499	0.2444	0.23685	0.16607	0.20191	0.13181	0.1404	0.10999	0.24779	0.16066	0.078572	0.060326	0.097482	0.054741	0.1138	-2.9833	-3.3229	-2.9208	-3.3896	-3.0292	-3.1146	-3.6542	-3.0875	-3.3958	-3.2208	-2.9437	-3.4375	-3.1271	-3.1292	-3.4938	-3.1833	121.870	43.960	-35.918	15.541	22.547	-57.992	98.233	151.688	110.376	-26.713	179.241	158.100	-74.320	145.467	78.573	-30.768	0.00048465	0.0005193	0.00033534	724.16	4.9068e-06	6.1545e-06	735.3	257.54	1.1064e-05	8.9843e-06	269.84	86.849	92.415	42.982	5.5631e-06	42.138	0.0052039	0.0083719	0.002351	727.69	9.0505e-05	9.433e-05	680.2	240.1	8.1501e-05	9.3466e-05	256.13	81.934	86.645	40.359	8.4452e-05	40.138	-35.268	129.277	-12.213	-118.000	-7.594	78.584	-119.330	-112.368	5.188	54.309	-115.544	-110.663	-109.087	-103.920	-39.499	-108.605	-8191	255	
1420.559	1	1	0	0	0.018806	0.24993	0.16431	0.14588	0.073601	0.1175	0.057321	0.10426	0.30521	0.10382	0.15264	0.10374	0.25227	0.098516	0.14388	0.066315	-2.8271	-3.3458	-2.9917	-3.4	-3.05	-3.1396	-3.5583	-3.075	-3.3438	-3.3896	-3.0771	-3.3812	-3.3604	-2.9208	-3.3458	-2.9271	160.833	103.092	-46.092	218.106	40.460	-66.467	77.257	-81.745	-53.624	149.214	133.404	-23.189	182.628	-59.731	126.309	-114.562	0.00039584	0.0011638	0.00010364	726.62	9.1955e-06	2.7953e-06	729.07	256.69	1.038e-05	6.0076e-06	266.2	85.423	92.669	42.727	1.7961e-05	41.422	0.0050599	0.0081776	0.0023057	724.19	8.6281e-05	9.0157e-05	672.68	239.14	7.8475e-05	9.0145e-05	252.69	80.358	86.677	39.917	8.0914e-05	39.278	-36.144	0.427	224.811	-117.091	100.983	139.454	-119.171	-112.422	-27.833	-32.494	-115.600	-111.362	-109.166	-104.272	27.812	-108.684	-8191	255	
1420.677	1	1	0	0	0.10722	0.17996	0.097702	0.1809	0.033539	0.16043	0.07943	0.20389	0.058714	0.36523	0.12286	0.11293	0.1071	0.1887	0.096552	0.13269	-2.7667	-3.3937	-3.0042	-3.2938	-3.2562	-3.0875	-3.4854	-3.1979	-3.1458	-3.3604	-3.1104	-3.2604	-3.2229	-2.9083	-3.3979	-3.1854	-97.798	178.328	162.609	-28.427	176.593	-96.475	-129.105	203.545	125.236	-66.068	-39.481	-101.487	133.845	-126.378	39.920	-19.190	0.00073189	0.00064119	0.00015614	723.17	1.2656e-06	4.3308e-06	739.51	260.02	1.1362e-05	1.0144e-05	268.17	86.256	93.359	43.022	5.0114e-06	41.461	0.0048267	0.0078467	0.0021711	725.78	8.3403e-05	8.6828e-05	676.1	241.43	7.5365e-05	8.4185e-05	253.47	80.632	87.024	40.169	7.7235e-05	39.368	-29.692	-111.362	-4.829	-117.310	152.922	9.627	-119.298	-113.041	63.232	-71.338	-115.440	-111.263	-108.955	-104.093	110.283	-108.588	-8191	255	
1420.774	1	1	0	0	0.25153	0.19042	0.1691	0.13134	0.072927	0.17061	0.066479	0.25519	0.22954	0.20251	0.13167	0.17812	0.29336	0.10021	0.086031	0.12165	-2.6854	-3.4021	-3.0104	-3.1208	-3.2625	-2.8917	-3.4688	-3.2313	-2.8729	-3.3	-2.9875	-3.2792	-3.3625	-2.8833	-3.4313	-3.0896	-9.311	176.369	134.256	86.992	158.103	-35.187	116.949	172.089	76.575	89.165	203.076	60.448	-54.270	-127.844	43.755	113.074	0.000309	0.00033258	0.00022221	726.26	7.6108e-06	4.8285e-06	729.42	259.1	8.7331e-06	1.1644e-05	263.47	85.874	95.066	43.693	9.4126e-06	42.08	0.0045519	0.0072891	0.002026	722.24	7.7837e-05	8.0811e-05	666.7	240.11	6.9592e-05	7.9913e-05	249.38	80.543	88.608	40.684	7.0265e-05	39.58	-42.961	-81.311	-2.835	-117.308	-76.837	1.366	-119.327	-112.689	84.632	-26.353	-115.501	-110.874	-109.257	-104.448	51.212	-108.683	-8191	255	
1420.845	1	1	0	0	0.12565	0.11621	0.33192	0.076889	0.17236	0.12424	0.14863	0.12199	0.082051	0.070633	0.11103	0.19147	0.07831	0.23458	0.053503	0.22411	-2.6562	-3.3187	-2.8937	-3.1979	-3.4917	-2.9417	-3.3958	-3.1625	-3.0333	-3.4146	-3.2208	-3.1854	-3.2958	-2.8646	-3.1625	-3.2354	70.376	15.661	-104.515	-30.816	118.160	62.128	228.154	164.343	172.661	177.032	51.503	166.975	144.199	205.316	150.668	228.193	0.0002639	0.00054157	0.00018084	726.17	1.5657e-05	7.1416e-06	710.74	263.11	4.7578e-06	6.3988e-06	262.66	86.148	98.027	43.963	5.1168e-06	41.21	0.0041941	0.0067084	0.0018579	713.71	7.1521e-05	7.4017e-05	654	242.4	6.2451e-05	7.1203e-05	247.52	80.488	90.49	40.859	6.393e-05	38.575	-24.942	-27.077	-86.450	-117.734	46.937	-31.474	-119.317	-112.305	-129.498	6.815	-115.073	-110.821	-109.037	-104.387	227.932	-108.907	-8191	255	
1420.966	1	1	0	0	0.17792	0.35845	0.12863	0.081812	0.075611	0.25801	0.051881	0.16068	0.42019	0.17631	0.10313	0.19983	0.11942	0.10648	0.2755	0.28797	-2.5146	-3.3688	-3.0896	-3.0979	-3.3667	-2.9833	-3.4583	-3.4667	-3.0271	-3.4396	-3.0396	-3.1479	-3.5875	-2.9958	-3.1458	-3.2438	-89.843	71.153	-107.329	-98.018	1.371	126.024	24.069	170.924	-2.605	38.133	179.976	121.046	-110.569	-121.667	51.438	192.596	0.00062251	0.00077334	3.0518e-05	725.51	1.4247e-06	5.392e-06	694.24	266.67	3.9036e-06	1.0181e-05	262.52	85.006	99.926	44.619	2.8838e-06	40.494	0.0037477	0.0060548	0.0017096	705.87	6.4572e-05	6.6812e-05	636.24	245.08	5.774e-05	6.618e-05	245.36	78.632	92.377	41.172	5.8053e-05	37.868	-18.275	-27.964	-87.618	-117.740	182.410	59.238	-119.210	-112.614	-21.286	59.334	-115.239	-111.806	-109.259	-104.543	151.700	-109.267	-8191	255	
1421.062	1	1	0	0	0.11836	0.030733	0.28929	0.17612	0.11863	0.29225	0.26539	0.12838	0.075107	0.1299	0.046742	0.13243	0.16251	0.33712	0.18903	0.19097	-2.3792	-3.1562	-3.0187	-2.9458	-3.3729	-2.9229	-3.3104	-3.1354	-2.8104	-3.4208	-3.3896	-2.8688	-3.5354	-2.8292	-3.1833	-3.3417	-33.271	189.520	71.964	131.312	190.622	150.402	167.774	93.848	144.350	-47.514	124.052	96.538	171.743	215.103	83.838	-91.775	0.00051487	0.00082522	0.00019158	723.64	3.8934e-06	8.2082e-06	691.26	273.38	1.5052e-05	8.953e-06	263.7	82.794	100.03	44.269	3.2557e-06	40.032	0.0035162	0.0055475	0.0015317	701.25	5.9382e-05	6.2001e-05	629.47	249.62	5.3847e-05	6.1487e-05	245.9	76.758	92.136	40.977	5.5169e-05	37.513	-19.910	-83.535	93.282	-117.252	42.176	65.544	-119.094	-112.770	33.420	133.328	-115.215	-111.652	-109.300	-104.453	209.311	-108.784	-8191	255	
1421.158	1	1	0	0	0.18017	0.11541	0.10909	0.12297	0.20275	0.36163	0.16408	0.16616	0.067459	0.088404	0.18894	0.18769	0.15138	0.12239	0.13839	0.16326	-2.4396	-3.25	-3.1625	-2.8771	-3.5896	-3.075	-3.2396	-3.5417	-3.0708	-3.1875	-3.3146	-2.9604	-3.2958	-3.1042	-3.1333	-3.4979	129.169	159.667	-13.655	135.736	62.303	102.323	210.029	196.770	204.967	-22.176	-65.559	150.820	155.899	175.523	-61.909	205.533	0.00052704	0.00085905	0.00016715	733.92	7.6247e-06	9.7669e-06	684.14	270.76	1.1017e-05	7.8453e-06	255.22	78.223	95.132	41.807	4.3422e-06	37.931	0.0034074	0.0054237	0.001528	705.49	5.7458e-05	6.0686e-05	623.43	248.69	5.3417e-05	6.1029e-05	237.86	72.534	87.983	38.667	5.5091e-05	35.275	-14.324	-12.864	-105.497	-117.734	-70.685	-17.176	-119.083	-112.894	11.947	-0.656	-115.466	-111.913	-109.011	-104.427	-89.933	-108.755	-8191	255	
1421.279	1	1	0	0	0.19055	0.051441	0.2714	0.24719	0.171	0.29864	0.072142	0.11083	0.1029	0.17955	0.17971	0.12695	0.11243	0.1512	0.1375	0.13902	-2.4271	-3.1813	-3.25	-2.7375	-3.4083	-3.1604	-3.0833	-3.2313	-2.9938	-3.2417	-3.3125	-2.9021	-3.4146	-3.0917	-3.0375	-3.5667	-129.251	211.943	-125.402	-59.882	95.908	-127.374	-119.591	160.819	-54.833	-106.030	116.373	216.911	121.851	119.288	111.189	-124.476	0.00049615	0.00059526	0.00025404	712.67	4.0492e-06	4.7974e-06	658.05	265.01	8.6192e-06	2.7812e-06	250.97	77.394	94.085	41.343	1.0965e-05	37.376	0.0033034	0.0052326	0.0014625	683.98	5.6495e-05	5.8648e-05	603.21	241.12	5.109e-05	5.858e-05	234	71.677	86.889	38.237	5.4058e-05	35.094	-20.397	10.265	22.639	-117.594	55.063	-21.713	-119.083	-112.717	1.965	141.470	-115.402	-111.167	-109.432	-104.695	-3.253	-109.036	-8191	255	
1421.375	1	1	0	0	0.1968	0.088465	0.072743	0.15329	0.046784	0.17449	0.2728	0.1243	0.18696	0.01691	0.15186	0.28738	0.27196	0.19568	0.19981	0.22474	-2.6375	-3.2917	-3.1937	-3.0979	-3.2375	-3.0208	-3.0271	-3.5771	-3.0146	-3.0687	-3.3542	-3.0125	-3.4188	-3.2708	-3.0625	-3.3229	207.512	148.893	22.183	186.708	167.412	-59.221	151.970	-28.031	62.114	177.035	159.026	161.572	-127.887	145.137	77.197	118.433	0.00037155	0.00060204	0.00015068	701.49	5.3311e-06	8.3469e-06	674.22	262.48	1.1093e-05	8.4072e-06	253.93	79.075	95.679	41.583	8.6859e-06	37.805	0.0032515	0.0052765	0.0014837	685.62	5.7425e-05	5.8223e-05	612.31	240.23	5.141e-05	5.9725e-05	235.43	73.238	87.894	38.506	5.5469e-05	35.293	-3.728	183.018	-103.381	-117.270	78.790	56.135	-119.193	-112.358	34.368	1.165	-115.176	-111.698	-108.853	-104.340	6.389	-109.518	-8191	255	
1421.447	1	1	0	0	0.14549	0.27097	0.25794	0.33872	0.15992	0.15192	0.33321	0.16398	0.23457	0.18689	0.14274	0.14363	0.26866	0.23263	0.17566	0.22882	-2.7875	-3.2271	-3.3792	-2.8479	-3.3667	-3.2438	-3.0167	-3.4437	-2.8854	-3.1458	-3.375	-2.8917	-3.4146	-3.3521	-2.8292	-3.4333	-80.585	-86.157	-88.877	163.960	152.046	145.564	181.190	200.545	69.751	-128.348	198.033	95.441	-81.019	-83.145	50.351	115.041	0.00042086	0.00074788	3.6546e-05	717.59	1.4435e-06	7.8164e-06	686.28	263.51	1.934e-05	4.7075e-06	260.04	80.671	95.866	41.902	1.2775e-05	38.432	0.0033122	0.0052969	0.0014927	693.39	5.7121e-05	6.0017e-05	626.88	240.93	5.3096e-05	6.0414e-05	240.27	74.355	88.218	38.679	5.508e-05	35.859	-28.230	24.771	48.125	-117.250	-100.973	101.577	-119.062	-112.603	20.104	-43.354	-115.028	-111.170	-109.061	-104.289	2.152	-108.731	-8191	255	
1421.543	1	1	0	0	0.18099	0.041421	0.064051	0.18433	0.23857	0.13484	0.18182	0.27208	0.15689	0.056041	0.1146	0.15702	0.20356	0.043333	0.090605	0.10349	-2.6188	-2.9417	-3.4375	-2.8083	-3.2438	-3.3354	-2.9562	-3.4354	-3.1437	-3.0229	-3.3917	-3.05	-3.4271	-3.4021	-2.95	-3.3979	26.358	216.551	49.320	201.799	53.149	-76.345	168.999	-111.799	168.051	39.397	-85.936	185.031	140.477	-119.863	13.293	199.102	0.00031866	0.001318	0.00033611	739.99	1.5714e-05	4.2243e-06	724	271.01	6.4226e-06	7.4605e-06	272.75	83.391	99.672	44.048	8.2238e-06	40.695	0.0033908	0.005434	0.0015461	711.88	5.8834e-05	6.2276e-05	657.47	248.76	5.6032e-05	6.3507e-05	253.26	77.885	91.616	40.546	5.8536e-05	37.99	-19.723	-21.778	-87.050	-117.651	23.479	-114.422	-119.197	-112.944	27.409	138.978	-115.258	-110.976	-108.853	-104.655	44.566	-108.746	-8191	255	
1421.639	1	1	0	0	0.22955	0.20871	0.088221	0.1529	0.18416	0.27902	0.29475	0.24485	0.1889	0.25115	0.18651	0.067264	0.29746	0.031462	0.087598	0.15714	-2.7604	-2.9833	-3.4958	-3.1333	-3.2583	-3.3312	-3.0333	-3.3458	-3.275	-2.875	-3.5396	-3.0542	-3.1271	-3.4542	-2.8833	-3.2792	172.926	-9.648	159.799	123.862	-106.827	-125.379	-81.946	147.782	1.756	48.026	-30.254	89.487	-51.427	-11.534	13.521	-43.989	0.00038287	0.00041775	0.00015281	765.98	9.8188e-06	6.7509e-06	757.65	282.72	4.3767e-06	2.4075e-06	287.32	87.978	102.16	44.924	1.1768e-05	41.795	0.0036088	0.0058016	0.0016097	739.07	6.2599e-05	6.645e-05	690.99	259.14	5.7787e-05	6.5239e-05	265.16	81.822	94.05	41.521	6.0478e-05	39.035	-28.501	-4.729	-98.437	-117.962	35.971	-23.738	-119.241	-112.863	28.274	-26.042	-115.317	-111.129	-109.049	-104.108	-27.297	-108.806	-8191	255	
1421.758	1	1	0	0	0.13324	0.021537	0.060666	0.017156	0.14717	0.14183	0.21729	0.010706	0.14786	0.2477	0.024528	0.09354	0.07478	0.15732	0.041326	0.016391	-2.8604	-3.05	-3.3583	-2.9979	-3.0146	-3.3479	-2.9542	-3.325	-3.3625	-2.9417	-3.3021	-3.2625	-3.0083	-3.4375	-2.8438	-3.3854	186.906	-8.424	63.339	33.015	-94.307	79.722	87.844	57.110	-40.536	223.638	179.516	122.977	-96.544	-81.609	-32.618	45.426	0.00046226	0.00080983	0.00014712	777.79	5.242e-06	5.723e-06	759.04	283.18	5.4188e-06	4.3608e-06	283.66	88.333	103.29	45.205	3.3155e-06	41.115	0.0035742	0.005808	0.0016438	746.75	6.244e-05	6.5525e-05	689.18	259.26	5.6145e-05	6.5615e-05	262.16	81.703	94.56	41.625	6.0114e-05	38.388	-27.991	8.825	190.195	-117.209	219.039	81.239	-119.114	-112.779	227.548	7.709	-115.278	-111.668	-108.847	-104.447	-74.820	-108.647	-8191	255	
1421.854	1	1	0	0	0.33866	0.32407	0.22912	0.09556	0.089274	0.065364	0.24529	0.22695	0.19219	0.2774	0.17946	0.22366	0.14563	0.20091	0.072097	0.12782	-2.9542	-3.0208	-3.4229	-3.0854	-3.15	-3.4542	-2.9896	-3.4167	-3.3146	-3.0062	-3.2208	-3.1979	-3.0771	-3.5854	-3.0875	-3.1833	-86.404	-58.037	-66.208	-75.831	-37.154	79.446	207.943	112.024	-104.720	197.781	228.107	192.809	-127.154	158.230	-72.460	82.477	0.00050909	0.00040163	6.6115e-05	759.52	6.4699e-06	1.0684e-06	721.91	273.26	1.2325e-05	1.9194e-06	265.24	83.615	97.502	42.826	9.911e-06	39.309	0.0035359	0.0057595	0.0016174	729.8	6.2035e-05	6.4488e-05	658.17	250.57	5.7193e-05	6.3917e-05	247.73	77.543	90.273	39.717	5.9344e-05	36.683	-10.337	223.103	-53.330	-117.055	101.652	-120.743	-119.153	-112.811	79.664	139.975	-115.132	-111.751	-109.021	-104.629	-30.527	-108.849	-8191	255	
1421.950	1	1	0	0	0.33277	0.15844	0.12638	0.087302	0.23571	0.048325	0.17629	0.21079	0.10027	0.047703	0.23505	0.28823	0.21957	0.16967	0.15152	0.17906	-2.9792	-2.9708	-3.0563	-3.3417	-3.1	-3.5229	-3.3083	-3.1667	-3.5312	-3.0292	-3.4313	-3.2875	-3.0625	-3.3792	-3.1625	-3.0979	-21.420	-62.596	39.638	75.460	20.836	-26.631	168.434	116.339	43.189	-34.958	-112.086	141.108	40.501	226.511	91.461	153.315	0.0005322	0.0010742	7.9761e-05	719.82	6.2971e-06	3.4425e-06	677.35	260.82	9.9607e-06	4.75e-06	258.19	81.461	96.504	42.301	8.6967e-07	39.395	0.0035319	0.0058517	0.0016092	700.42	6.2219e-05	6.4518e-05	620.28	240.11	5.729e-05	6.4825e-05	239.65	75.731	89.156	39.266	5.9238e-05	36.686	-10.300	-15.940	159.133	-116.841	77.686	153.357	-119.344	-112.719	50.208	21.805	-115.165	-111.181	-109.295	-104.334	-33.996	-108.767	-8191	255	
1422.046	1	1	0	0	0.24983	0.16472	0.15081	0.12595	0.10079	0.15676	0.071229	0.17295	0.062851	0.13627	0.29354	0.11453	0.34609	0.20413	0.27071	0.041731	-3.1562	-2.9146	-3.2188	-3.3833	-2.9583	-3.425	-3.2542	-3.1667	-3.5729	-3.0042	-3.3458	-3.4208	-3.0583	-3.5583	-3.3375	-3.0062	181.700	165.564	57.752	-91.056	-110.611	8.768	81.143	182.347	-76.091	122.853	-104.548	-94.389	200.636	-125.746	193.017	199.362	0.00047643	0.00035119	8.4002e-05	721.57	8.1906e-06	1.436e-05	686.53	266.79	1.7368e-05	1.4772e-06	264.27	84.286	99.401	43.496	6.4418e-06	40.493	0.003579	0.0059235	0.0016085	701.11	6.2606e-05	6.5456e-05	629.02	244.5	5.7343e-05	6.626e-05	247.12	78.53	91.542	40.408	6.0157e-05	37.953	-18.423	-49.440	-123.597	-117.528	-36.662	-24.891	-119.059	-112.227	-11.303	218.567	-115.311	-111.620	-109.145	-104.425	127.653	-108.354	-8191	255	
1422.142	1	1	0	0	0.060515	0.21756	0.17216	0.090733	0.25969	0.079229	0.18439	0.10771	0.042041	0.022225	0.29472	0.21963	0.28692	0.17154	0.19146	0.24312	-3.1583	-2.9104	-3.2604	-3.4188	-2.9083	-3.3875	-3.3979	-3.0958	-3.35	-3.1208	-3.2083	-3.35	-2.9375	-3.4792	-3.1958	-2.9646	-33.901	-113.512	-33.636	-118.519	-69.933	140.838	104.018	21.564	-104.573	74.521	188.592	-35.966	185.969	-99.736	175.912	-124.899	0.00045369	0.0010101	0.00026326	723.26	1.9454e-06	3.8215e-06	694.42	263.76	1.2616e-05	6.4153e-06	259.99	82.802	97.75	42.86	6.3391e-06	39.545	0.0037024	0.0059903	0.0016878	708.88	6.5707e-05	6.8261e-05	632.74	243.02	6.0528e-05	6.9749e-05	244.51	77.499	90.409	39.731	6.5033e-05	37.088	-29.231	-50.812	30.956	-117.867	-55.917	26.881	-119.362	-112.664	61.755	-9.271	-115.144	-111.586	-108.874	-104.345	143.073	-108.862	-8191	255	
1422.239	1	1	0	0	0.12656	0.11126	0.11713	0.18622	0.1026	0.13259	0.14664	0.057029	0.15204	0.23771	0.16154	0.068945	0.071055	0.12151	0.24255	0.16489	-3.1104	-2.8958	-3.1729	-3.5542	-3.0083	-3.2792	-3.5021	-2.9083	-3.3958	-2.8917	-3.1813	-3.5979	-3.1354	-3.3708	-3.2646	-3.0771	168.860	186.700	-21.407	115.923	-84.459	89.598	129.292	127.342	70.727	-82.237	-35.328	211.783	-56.761	108.145	56.138	-85.795	0.00050868	0.00015269	0.00023044	726.03	1.5024e-05	7.9747e-06	697.22	266.77	5.2419e-06	6.9697e-06	261.04	83.641	98.504	43.152	7.2804e-06	39.842	0.0038499	0.0062902	0.0017727	714.75	6.7561e-05	7.2764e-05	637.05	245.93	6.4642e-05	7.3861e-05	246.77	78.204	91.234	40.082	6.7355e-05	37.525	11.730	-70.886	196.242	-117.478	51.350	-1.590	-118.829	-112.395	30.924	17.587	-115.484	-110.796	-108.972	-104.541	-49.778	-108.551	-8191	255	
1422.359	1	1	0	0	0.17898	0.036069	0.19097	0.073164	0.2365	0.14442	0.077169	0.24263	0.12338	0.12591	0.29413	0.23271	0.10401	0.2551	0.075155	0.23959	-3.0375	-3.1604	-2.9896	-3.2292	-2.8604	-3.2875	-3.6	-2.8688	-3.3771	-3.2771	-2.9583	-3.5062	-3.1562	-3.4354	-3.325	-3.0542	-31.089	141.179	-118.484	76.525	121.128	-70.458	-100.724	194.984	186.895	133.086	-18.314	-104.634	132.000	-122.865	70.939	97.801	0.00055053	0.0013867	0.0003508	751.6	1.021e-05	8.4147e-06	708.72	269.85	7.2236e-06	7.595e-06	269.45	86.409	100.34	44.053	6.0842e-06	41.798	0.0040515	0.0065672	0.0018558	728.06	7.3287e-05	7.6868e-05	653.2	250.42	6.8936e-05	7.8543e-05	254.11	80.665	93.321	41.096	7.3874e-05	39.065	-17.978	-17.455	-26.657	-117.201	-58.205	28.194	-119.039	-112.251	28.919	-17.959	-115.385	-111.348	-108.692	-104.366	67.995	-108.527	-8191	255	
1422.455	1	1	0	0	0.14145	0.17033	0.19534	0.17759	0.19104	0.17771	0.11565	0.18518	0.096277	0.14022	0.22602	0.1181	0.30014	0.14889	0.019713	0.072477	-2.9167	-3.2812	-3.0312	-3.45	-3.1937	-3.275	-3.4979	-2.9375	-3.4479	-3.2979	-3.1188	-3.5542	-3.2354	-3.0646	-3.525	-3.2146	-8.411	77.201	-98.765	204.017	-104.228	-101.365	-125.038	-60.267	34.353	-101.915	110.546	148.035	201.051	147.120	54.114	-124.672	0.00052789	0.00047035	0.00022981	754.96	4.3292e-06	1.024e-05	737.35	275.73	8.7879e-06	1.405e-05	277.57	88.054	101.63	44.99	8.6074e-06	42.122	0.0044829	0.0072575	0.0020654	745.36	7.9423e-05	8.3786e-05	674.48	255.82	7.3189e-05	8.5627e-05	261.57	82.888	94.353	41.989	7.947e-05	39.999	-15.972	-8.722	-72.914	-117.896	95.863	-71.907	-118.943	-112.553	103.771	69.293	-115.083	-111.298	-108.750	-103.863	-9.482	-108.751	-8191	255	
1422.550	1	1	0	0	0.063843	0.23832	0.11217	0.10653	0.30407	0.11942	0.30431	0.15676	0.086668	0.16613	0.041515	0.035757	0.19434	0.34398	0.14881	0.24558	-3.0146	-3.1979	-2.8958	-3.4875	-3.0333	-3.1625	-3.575	-3.1833	-3.1604	-3.2625	-2.8708	-3.5708	-3.0958	-3.1188	-3.3771	-2.9396	-27.170	159.358	-18.846	-33.956	-64.700	226.943	175.777	47.065	-83.103	73.724	137.088	122.316	120.685	226.076	218.666	91.016	0.00070851	0.00014727	5.6411e-05	757.13	7.406e-06	5.3704e-06	736.77	279.53	9.7263e-06	1.1244e-05	275.37	88.265	101.51	45.189	5.268e-06	41.658	0.004734	0.0077597	0.0021858	755.76	8.3935e-05	8.8038e-05	680.38	257.85	7.7313e-05	8.7297e-05	260.89	82.56	94.417	41.977	8.1925e-05	39.532	-16.623	-106.059	-57.822	-117.037	-100.652	25.725	-118.695	-112.458	40.709	-37.779	-115.494	-111.189	-108.554	-104.623	226.780	-108.527	-8191	255	
1422.648	1	1	0	0	0.38032	0.14981	0.10723	0.096751	0.16969	0.11018	0.24359	0.206	0.13604	0.019258	0.18253	0.062316	0.21868	0.097932	0.11233	0.13318	-2.8896	-3.5125	-2.9042	-3.4958	-3.1875	-2.9813	-3.4917	-3.1896	-3.1562	-3.4854	-2.9104	-3.4437	-3.4437	-2.9979	-3.4521	-3.2146	-104.054	-89.697	160.447	119.436	-46.658	26.458	130.372	217.324	96.641	208.230	218.458	159.641	160.956	-121.896	-33.835	122.362	0.00054114	0.00051391	0.00041171	770.24	1.1107e-05	4.0682e-06	739.76	283.63	1.6319e-05	7.7619e-06	280.43	89.603	103.49	45.611	1.3709e-06	42.485	0.004764	0.0079626	0.0022341	763.46	8.473e-05	8.9654e-05	686.45	261.45	7.8145e-05	9.014e-05	264.98	84.049	96.043	42.633	8.2699e-05	40.181	-17.987	5.150	-22.328	-117.306	-94.227	44.350	-119.213	-112.155	-37.698	175.606	-115.285	-111.302	-108.685	-104.341	15.107	-108.642	-8191	255	
1422.742	1	1	0	0	0.17145	0.21833	0.011941	0.17056	0.29984	0.037877	0.21721	0.32944	0.32729	0.20699	0.28019	0.16174	0.040883	0.21514	0.14826	0.10897	-2.8167	-3.3812	-2.7583	-3.1708	-3.3354	-2.9396	-3.4833	-3.075	-3.0583	-3.6	-3.1458	-3.4271	-3.3167	-2.9396	-3.4396	-3.1688	103.753	-5.322	-90.271	25.529	-64.168	204.316	120.940	-129.170	167.619	98.883	205.851	192.774	31.150	-77.794	70.303	183.771	0.00049869	0.00023107	0.00023198	767.19	4.0862e-06	5.3398e-06	754.57	284.67	5.2076e-06	4.8e-06	283.91	91.185	103.83	46.04	1.7114e-06	43.529	0.0049965	0.0082132	0.0023228	769.07	8.7403e-05	9.334e-05	693.98	263.35	8.0986e-05	9.3972e-05	269.48	85.418	96.659	43.073	8.639e-05	41.269	-14.308	-37.645	-59.246	-117.356	196.096	209.671	-118.754	-112.371	56.864	-122.127	-115.563	-111.513	-108.917	-104.539	-32.960	-108.475	-8191	255	
1422.838	1	1	0	0	0.28231	0.2494	0.1756	0.13102	0.1925	0.14064	0.11832	0.099607	0.12173	0.25689	0.1237	0.21836	0.087394	0.17198	0.14489	0.17059	-2.7812	-3.3104	-2.9021	-3.2167	-3.2479	-3.0438	-3.5167	-3.1521	-3.0479	-3.4313	-3.1833	-3.2396	-3.4	-2.9188	-3.5375	-3.2292	-9.616	83.084	25.217	171.024	-26.959	49.819	127.082	9.135	-45.154	79.148	87.813	135.376	-11.809	176.588	200.562	62.462	0.00055583	0.0010647	0.0002737	767.3	3.1993e-06	5.1717e-06	758.32	285.98	1.001e-05	1.3715e-05	288.72	93.356	104.5	46.805	6.1575e-06	44.295	0.0051165	0.008388	0.0023618	772.55	9.1199e-05	9.6662e-05	702.48	265.16	8.4515e-05	9.724e-05	273.86	87.493	98.005	43.775	8.9488e-05	42.193	-29.711	-57.636	-12.958	-116.951	-87.217	171.669	-118.832	-112.759	-95.842	-35.468	-115.551	-111.327	-108.947	-104.262	38.374	-108.370	-8191	255	
1422.934	1	1	0	0	0.12812	0.029263	0.10949	0.10105	0.10082	0.049455	0.11656	0.21873	0.14281	0.049565	0.059786	0.02292	0.31189	0.15366	0.28097	0.12722	-2.6167	-3.3979	-2.9604	-3.0563	-3.2812	-2.8083	-3.5542	-3.3	-2.8896	-3.4167	-3.0771	-3.3792	-3.475	-3.1	-3.3375	-3.3854	210.098	153.552	133.721	-128.647	117.712	-97.844	-92.396	207.973	178.909	48.434	26.197	161.962	-99.992	120.880	-13.123	-83.380	0.00050378	0.00055573	4.9154e-05	769.68	1.3151e-05	4.4395e-06	770.89	290.46	9.4949e-06	1.0631e-05	290.74	94.024	105.69	47.21	8.9534e-06	44.446	0.0053107	0.0086026	0.0024358	778.06	9.2578e-05	9.8897e-05	714.53	268.56	8.5935e-05	9.8077e-05	277.47	88.704	98.675	44.146	9.0618e-05	42.25	-15.091	12.683	-102.232	-116.759	7.065	-26.408	-119.091	-112.577	84.972	3.577	-116.160	-111.149	-108.669	-104.205	-18.543	-108.804	-8191	255	
1423.055	1	1	0	0	0.30355	0.15066	0.16964	0.10483	0.079524	0.057798	0.17872	0.16164	0.052402	0.085094	0.2713	0.14155	0.0026492	0.057391	0.38148	0.11359	-2.5563	-3.5229	-3.2438	-3.3521	-3.4458	-3.1292	-3.3104	-3.4208	-3.0812	-3.5042	-3.2583	-3.2313	-3.4771	-3.0604	-3.2667	-3.4979	201.624	190.064	160.071	30.649	34.086	197.520	184.793	47.496	195.038	146.582	-128.605	207.071	-32.872	217.125	166.653	-85.817	0.00042082	0.00050535	0.0002697	767.41	2.7375e-06	1.1268e-05	762.98	288.1	6.8021e-06	1.2703e-05	288.75	93.01	104.78	46.86	1.2334e-05	44.041	0.0052973	0.0088065	0.0024426	777.45	9.3049e-05	9.735e-05	707.07	266.34	8.5927e-05	9.993e-05	273.72	87.82	97.857	43.799	9.0842e-05	41.878	-28.593	123.541	229.090	-117.692	122.522	-85.594	-118.837	-112.648	23.843	23.532	-114.811	-110.962	-108.426	-104.301	98.337	-108.379	-8191	255	
1423.151	1	1	0	0	0.065117	0.050358	0.12357	0.24593	0.29494	0.22303	0.076904	0.12022	0.37371	0.061627	0.23031	0.10442	0.062818	0.21982	0.098243	0.044186	-2.6	-3.2979	-3.0042	-2.8875	-3.4688	-2.9792	-3.3521	-3.3063	-2.9646	-3.4313	-3.1354	-3.025	-3.5687	-3.1979	-3.1292	-3.4062	50.850	222.258	196.077	25.725	72.991	136.108	-40.126	-49.864	118.806	224.654	173.249	143.291	16.190	205.769	-117.216	157.357	0.00060387	0.00076646	0.00014844	771.05	6.4181e-06	4.6448e-06	768.15	283.68	9.0354e-06	8.392e-06	290.01	93.832	104.78	47.002	7.7118e-06	44.869	0.005453	0.0087835	0.0024834	780.94	9.6243e-05	0.00010043	708.12	264.71	8.766e-05	9.9724e-05	274.67	88.307	98.15	44.173	9.1094e-05	42.521	-35.634	-60.410	-116.511	-118.103	121.664	-119.515	-119.148	-112.646	68.671	43.395	-115.342	-111.494	-108.956	-103.929	39.436	-108.624	-8191	255	
1423.247	1	1	0	0	0.19377	0.21722	0.19515	0.27018	0.13216	0.18491	0.10376	0.040081	0.2006	0.26702	0.053762	0.20238	0.11324	0.1079	0.23316	0.26158	-2.5333	-3.3479	-3.0417	-3.0187	-3.4979	-3.0521	-3.0958	-3.5187	-2.9938	-3.1604	-3.2896	-2.9167	-3.5271	-2.9917	-2.975	-3.5667	144.401	-14.722	119.421	157.813	-121.734	126.230	78.973	68.386	-117.672	-123.933	-1.867	135.609	-58.073	-122.897	118.561	183.109	0.00053989	0.0005029	0.00025733	767.74	3.1232e-06	1.1595e-06	779.57	288.1	1.9901e-05	1.1619e-05	291.85	94.917	106.14	48.134	6.2927e-06	45.855	0.0054859	0.0088975	0.002528	781.41	9.5526e-05	0.00010027	718.5	267.74	8.8698e-05	9.8863e-05	279.01	89.885	99.315	44.925	9.0806e-05	43.535	-4.787	130.178	106.531	-117.429	129.520	-54.333	-119.188	-112.594	55.374	59.126	-114.938	-111.733	-108.956	-104.203	37.786	-108.135	-8191	255	
1423.319	1	1	0	0	0.045376	0.057973	0.17993	0.20716	0.041345	0.3666	0.069387	0.14638	0.27233	0.18624	0.26388	0.082188	0.2033	0.1344	0.27456	0.11381	-2.5396	-3.4604	-3.3104	-2.9104	-3.6021	-3.1667	-3.1188	-3.3917	-3.1	-3.2875	-3.4062	-3.1562	-3.5208	-3.0938	-3.1437	-3.4771	228.212	218.719	189.410	-83.921	172.323	58.317	169.092	207.499	-67.326	127.673	-118.206	-108.766	84.642	-29.069	148.933	-76.984	0.00055227	0.00064156	0.00025353	775.18	6.6454e-06	1.0808e-05	785.76	292.13	5.8269e-06	5.9156e-06	293.32	95.743	106.67	47.726	9.6011e-06	45.544	0.0054392	0.008907	0.0024896	787.02	9.5283e-05	9.9491e-05	723.24	270.79	8.8332e-05	0.00010155	280.04	90.174	99.428	44.693	9.3499e-05	43.13	-19.951	161.572	-28.644	-117.345	79.318	147.523	-118.970	-112.327	-5.829	158.838	-115.527	-111.275	-109.086	-104.117	14.576	-108.690	-8191	255	
1423.440	1	1	0	0	0.2403	0.02296	0.14418	0.30272	0.2157	0.081406	0.071799	0.12014	0.1762	0.076635	0.27506	0.17418	0.082084	0.13805	0.13955	0.086404	-2.525	-3.1896	-3.3917	-3.1042	-3.3438	-3.1833	-3.1271	-3.5396	-2.9833	-3.1333	-3.4437	-2.9833	-3.4	-3.2354	-3.0271	-3.5146	95.006	54.186	111.556	-11.290	75.215	114.221	-92.153	23.641	80.198	9.843	107.003	167.283	-44.578	168.116	-116.507	-44.822	0.00067449	0.0010357	0.00032307	788.25	3.712e-06	9.28e-06	779.53	290.52	5.9149e-06	9.8783e-06	291.68	94.47	105.55	47.371	1.366e-05	44.895	0.0055463	0.0089453	0.00256	791.75	9.6817e-05	0.00010257	720.65	270.6	9.0957e-05	0.00010478	279.57	89.282	98.921	44.298	9.4936e-05	42.79	-32.756	82.414	-77.416	-116.787	31.457	-113.982	-119.127	-112.545	-74.586	5.464	-115.570	-111.428	-108.895	-104.052	-46.156	-108.422	-8191	255	
1423.536	1	1	0	0	0.23137	0.19381	0.13237	0.22183	0.079446	0.13337	0.11239	0.37919	0.041612	0.11574	0.090137	0.25911	0.33804	0.17707	0.035079	0.18597	-2.6875	-3.225	-3.2958	-3.0542	-3.3167	-3.4146	-3.1375	-3.6125	-2.8958	-3.2438	-3.5375	-3.1875	-3.5062	-3.5875	-2.85	-3.5521	23.960	49.169	-7.940	61.248	-59.541	208.163	207.500	204.360	153.654	22.125	201.806	156.255	-107.385	207.153	175.923	216.376	0.00048527	0.00055995	0.00021632	785.35	1.4931e-05	1.5835e-05	783.43	290.47	9.3757e-06	5.9958e-06	294.74	94.471	106.05	47.195	1.8535e-05	45.228	0.0055629	0.0090896	0.002585	789.32	9.777e-05	0.00010331	725.47	270.8	9.1484e-05	0.00010468	282.39	89.636	99.321	44.368	9.5936e-05	43.045	-3.318	44.499	-70.016	-117.675	-15.847	24.711	-118.989	-112.472	59.294	187.270	-115.602	-111.346	-109.002	-104.174	-25.861	-108.301	-8191	255	
1423.632	1	1	0	0	0.023512	0.15497	0.12954	0.26965	0.12548	0.12633	0.25274	0.16703	0.22156	0.045031	0.024261	0.12056	0.13679	0.19935	0.1789	0.096205	-2.7938	-3.1083	-3.5229	-3.0375	-3.2687	-3.1896	-3.0625	-3.4938	-3.0646	-3.0646	-3.5604	-3.0042	-3.3458	-3.3521	-2.9188	-3.4521	113.143	-117.336	12.333	-26.916	19.044	-25.340	104.744	210.793	-18.139	101.158	-111.965	116.787	199.758	164.690	-110.605	80.998	0.0006135	0.00072078	9.4661e-05	791.01	1.1287e-05	9.7898e-06	787.26	290.05	6.6057e-06	7.0075e-06	299.13	95.306	105.82	47.394	1.1154e-05	45.957	0.0056793	0.0094344	0.0026307	797.19	0.00010155	0.00010848	729.65	270.78	9.2874e-05	0.00010984	283.77	90.359	99.242	44.602	9.917e-05	43.638	-0.900	9.356	-12.703	-117.648	-27.614	90.175	-118.728	-113.035	-12.821	-34.825	-115.543	-111.083	-108.996	-103.966	-42.145	-107.874	-8191	255	
1423.728	1	1	0	0	0.17103	0.24732	0.023189	0.28888	0.13532	0.082848	0.19578	0.20306	0.22395	0.10399	0.14005	0.1057	0.17951	0.29259	0.10787	0.14172	-2.7375	-2.9313	-3.4125	-2.9771	-3.275	-3.2896	-3.1	-3.4375	-3.325	-3.0938	-3.6562	-3.0271	-3.1063	-3.5104	-2.9375	-3.1708	89.469	226.267	221.604	65.485	-103.905	206.270	171.748	209.382	131.644	96.599	-99.973	101.335	-92.027	145.751	-97.827	220.548	0.00062806	0.0015172	0.00015695	778.41	2.4779e-06	8.907e-06	786.29	288.47	1.7091e-05	1.1187e-05	297.44	96.275	104.75	47.582	1.2087e-05	45.941	0.0059838	0.0097235	0.0027131	793.95	0.0001037	0.00010992	730.44	269.56	9.5175e-05	0.00010987	284.63	91.011	99.069	44.637	0.00010159	43.693	-18.438	76.397	191.500	-116.921	-114.337	149.762	-119.057	-112.907	-51.758	49.709	-114.950	-111.466	-108.552	-104.221	9.497	-108.285	-8191	255	
1423.847	1	1	0	0	0.25776	0.1087	0.18557	0.19522	0.22379	0.33101	0.244	0.11027	0.14415	0.23219	0.015087	0.16072	0.23305	0.2164	0.051717	0.41046	-2.8583	-3.15	-3.3625	-3.1188	-3.1479	-3.45	-3	-3.1312	-3.4562	-3.0438	-3.4292	-3.3229	-2.9708	-3.6146	-3.0417	-3.2042	-81.405	129.209	129.396	133.576	192.271	160.232	-58.818	107.049	145.799	97.012	132.997	-17.927	206.215	217.085	-4.957	119.501	0.00063392	0.00023843	0.00039091	784.1	1.2777e-05	3.3796e-06	792.2	291.13	4.4701e-06	8.4228e-06	297.23	95.474	105.49	47.187	7.0714e-06	45.389	0.0059406	0.0098823	0.002754	798.9	0.00010612	0.00011134	732.47	272.03	9.7016e-05	0.00011155	285.26	90.407	99.35	44.503	9.8501e-05	43.267	-13.635	53.704	-48.348	-117.651	35.249	-119.147	-119.146	-112.580	219.249	-20.760	-115.254	-110.887	-108.849	-104.187	-32.994	-108.395	-8191	255	
1423.943	1	1	0	0	0.084013	0.22871	0.15925	0.24362	0.1068	0.15069	0.14595	0.19692	0.1755	0.2047	0.10604	0.03277	0.20193	0.072386	0.13253	0.19407	-3.1208	-3.125	-3.4062	-3.1708	-3.0125	-3.3708	-2.9979	-3.3312	-3.3021	-2.9521	-3.3063	-3.2771	-3.2021	-3.575	-3.2542	-3.3229	-116.471	-34.568	-1.667	-112.232	212.115	-17.476	137.737	216.716	220.025	142.002	202.858	-0.191	-35.909	-35.967	43.374	117.228	0.00053186	0.00090868	0.00016851	779.88	5.9587e-06	4.0968e-06	795.69	294.42	1.2574e-05	1.2915e-05	297.97	94.709	105.74	47.232	1.5396e-05	45.809	0.0059728	0.0097536	0.0027112	795.88	0.0001035	0.00011128	734.6	273.01	9.654e-05	0.00011028	284.86	90.095	99.519	44.367	9.9479e-05	43.215	-18.923	-15.895	-40.153	-117.868	37.706	35.564	-118.687	-112.617	176.266	-35.236	-115.160	-111.294	-108.668	-104.404	11.814	-108.384	-8191	255	
1424.039	1	1	0	0	0.080044	0.082702	0.12795	0.15534	0.16941	0.28641	0.25759	0.253	0.18161	0.045986	0.15691	0.23174	0.12829	0.14928	0.1099	0.27679	-2.8563	-2.9625	-3.1604	-3.2479	-2.9979	-3.4542	-3.1437	-3.1875	-3.5104	-2.9688	-3.475	-3.4479	-2.9021	-3.4646	-3.0979	-3.2812	-42.457	41.110	15.661	68.436	-96.099	49.724	131.217	130.910	24.364	42.679	224.136	-32.006	141.390	-83.574	28.749	103.194	0.00048618	0.0003069	0.00020551	787.12	4.0084e-06	1.9948e-06	795.58	292.33	3.4073e-06	7.9649e-06	295.71	95.124	104.96	47.278	1.1318e-05	45.376	0.0059402	0.0096441	0.0026966	797.94	0.00010531	0.00010951	732.87	271.88	9.615e-05	0.00010938	283.31	90.425	99.071	44.462	0.00010016	43.379	-21.762	25.428	-39.657	-117.753	-8.472	102.060	-118.965	-112.566	-101.714	58.113	-115.337	-111.602	-108.974	-103.735	79.864	-108.660	-8191	255	
1424.135	1	1	0	0	0.13107	0.073278	0.11662	0.19393	0.17634	0.11729	0.21301	0.19909	0.0026487	0.025901	0.19117	0.24163	0.12416	0.31145	0.192	0.16093	-3.0292	-3.0042	-3.5333	-3.4479	-2.9813	-3.3771	-3.3563	-3.2438	-3.4729	-2.9083	-3.3292	-3.3771	-2.9688	-3.3812	-3.15	-3.0396	-122.058	-3.420	-82.863	64.236	-78.451	-10.968	195.779	185.181	32.670	220.383	129.310	110.414	214.048	-102.617	-75.163	180.112	0.00081052	0.0014831	0.00035864	775.32	6.1332e-06	1.2456e-05	789.83	289.44	1.5536e-05	1.4125e-05	294.93	95.546	105.56	47.587	2.3812e-06	45.505	0.00599	0.0096607	0.0027039	796.53	0.00010497	0.00010892	729.29	269.74	9.6188e-05	0.00010957	281.71	90.755	99.266	44.606	9.9442e-05	43.505	-8.544	-41.740	-59.844	-117.495	-55.262	25.608	-118.765	-112.636	15.606	143.269	-115.312	-111.287	-108.714	-104.182	137.380	-108.382	-8191	255	
1424.231	1	1	0	0	0.065652	0.25591	0.12482	0.24479	0.28584	0.078439	0.4068	0.34423	0.16799	0.084294	0.019711	0.23829	0.15747	0.036915	0.045542	0.19392	-2.9958	-3.2208	-3.1417	-3.3083	-3	-3.4042	-3.3021	-2.9729	-3.4542	-3.1021	-3.3458	-3.4	-2.9646	-3.575	-3.1854	-2.9542	137.705	218.182	-105.298	-42.345	-62.019	53.393	208.860	116.786	32.277	-14.118	79.550	228.466	154.715	164.944	84.317	165.667	0.00069644	0.00056655	0.00020349	780.29	5.5041e-06	8.8611e-06	786.67	288.02	5.9779e-06	5.3368e-06	289.95	93.454	103.45	45.808	7.2711e-06	43.963	0.0060377	0.0098769	0.0027636	798.01	0.0001077	0.00011021	726.39	267.83	9.6861e-05	0.0001125	278.61	88.914	97.295	43.286	0.00010305	42.144	-28.991	-29.003	29.736	-117.626	47.979	3.828	-118.902	-112.600	-46.214	-56.453	-115.318	-110.992	-108.662	-103.945	25.509	-108.717	-8191	255	
1424.328	1	1	0	0	0.22218	0.12457	0.2806	0.2242	0.14966	0.21766	0.11149	0.28496	0.093168	0.1707	0.065014	0.073282	0.17549	0.13921	0.19221	0.045408	-3.1292	-3.1583	-3.0333	-3.5792	-2.9125	-3.2896	-3.2938	-2.8646	-3.4833	-3.1958	-3.0771	-3.5021	-3.1	-3.375	-3.1375	-3.1271	-121.729	83.557	-78.870	210.858	193.479	-24.178	-97.963	110.311	-89.747	70.908	128.145	5.469	204.080	166.389	-4.127	-89.210	0.00036672	0.00028996	0.00042029	765.62	2.8576e-06	1.0736e-05	764.39	276.88	6.429e-06	1.9701e-05	281.78	90.751	97.421	43.77	3.0978e-06	42.064	0.0060545	0.0099001	0.0028231	783.76	0.00010844	0.00011103	711.93	259.46	9.9678e-05	0.00011332	270.77	85.562	92.711	41.286	0.00010631	40.299	11.977	220.981	-52.086	-116.727	62.537	0.683	-118.942	-112.223	-67.750	30.593	-115.011	-111.167	-108.824	-103.855	-1.606	-108.104	-8191	255	
1424.448	1	1	0	0	0.14054	0.2038	0.1722	0.30978	0.14985	0.056326	0.28437	0.22976	0.2715	0.17477	0.22894	0.28327	0.11827	0.085689	0.11966	0.13933	-2.9646	-3.3771	-3.0812	-3.4458	-3.0438	-3.3521	-3.6521	-2.8604	-3.3917	-3.1312	-3.1729	-3.5625	-3.0625	-3.2687	-3.1771	-3.1208	211.521	166.624	-46.372	36.740	-109.295	-41.755	143.646	192.589	-32.147	-58.704	-73.917	-58.718	183.064	51.891	71.205	130.817	0.00060403	0.0011063	0.00012931	755.67	6.1292e-06	2.0839e-06	757.13	267.57	1.8047e-05	1.0561e-05	274.92	86.645	94.752	41.921	3.9687e-06	40.643	0.0061322	0.010191	0.0028892	775.94	0.00011109	0.00011644	702.32	251.62	0.00010115	0.00011689	263.98	82.735	89.558	39.728	0.00010568	39.29	-9.404	113.422	51.371	-117.230	84.831	214.219	-119.207	-112.787	12.796	58.431	-115.680	-111.157	-108.636	-103.700	78.383	-108.355	-8191	255	
1424.543	1	1	0	0	0.17422	0.32044	0.069923	0.32013	0.2403	0.1487	0.1404	0.0955	0.24628	0.10762	0.049826	0.17614	0.197	0.18803	0.12378	0.016734	-2.875	-3.1854	-2.9417	-3.4792	-3.0333	-3.2375	-3.4458	-2.9333	-3.3292	-3.2583	-2.975	-3.5125	-3.1458	-3.2958	-3.375	-3.0938	180.625	5.554	203.927	-124.357	64.313	31.133	71.331	140.350	-0.145	169.667	8.150	-123.631	194.254	144.947	-18.883	170.693	0.00046459	0.0004779	5.6603e-05	748.79	9.1362e-06	5.7055e-06	755.64	266.06	5.6105e-06	1.8086e-05	275.08	87.72	95.493	43.125	6.3679e-06	41.795	0.0062927	0.01031	0.002922	770.88	0.00011279	0.0001178	699.82	250.94	0.00010291	0.00011902	265.82	84.129	90.966	40.642	0.00010808	40.155	-40.535	192.308	-122.914	-117.900	105.542	201.156	-119.082	-112.489	163.187	87.738	-115.157	-111.198	-108.526	-103.869	-16.777	-108.257	-8191	255	
1424.616	1	1	0	0	0.20923	0.034723	0.14227	0.085744	0.095263	0.14825	0.13382	0.30696	0.19122	0.086587	0.31075	0.2606	0.12202	0.21992	0.078478	0.24087	-2.8729	-3.3146	-3.0021	-3.4437	-3.0833	-3.1417	-3.4875	-3.1521	-3.3917	-3.2687	-2.9854	-3.2354	-3.1229	-3.0521	-3.3063	-3.0583	-41.046	225.594	136.170	6.446	138.913	126.331	159.211	89.099	99.443	143.171	184.070	140.599	145.419	52.403	192.897	180.174	0.00064208	0.00019372	0.00019432	743.18	3.2336e-06	1.4652e-05	738.24	263.85	7.2728e-06	1.0083e-05	265.15	85.002	94.703	41.607	2.3018e-06	39.75	0.0063636	0.010648	0.0030109	773.9	0.00011349	0.00011978	690.56	248.37	0.00010556	0.00011825	258.28	81.232	89.332	39.427	0.00010647	38.402	-25.979	-38.463	-61.427	-116.955	-38.804	205.883	-118.961	-112.400	2.989	-26.819	-115.296	-110.926	-108.850	-104.166	56.971	-108.359	-8191	255	
1424.735	1	1	0	0	0.27657	0.11895	0.26785	0.24701	0.17581	0.050699	0.20387	0.16526	0.2229	0.071515	0.15047	0.34314	0.18835	0.11933	0.034229	0.20235	-2.6813	-3.2729	-2.8438	-3.1437	-3.1604	-3.0958	-3.4229	-3.0667	-3.075	-3.3896	-2.9437	-3.4062	-3.0771	-3.0854	-3.5542	-3.2396	120.951	55.067	-32.782	94.209	206.722	-23.325	-93.647	127.001	133.230	99.484	164.344	119.550	-64.819	187.374	203.196	-94.537	0.0007239	0.00091516	6.2531e-05	739.87	1.2204e-05	2.2476e-06	720.4	258.24	5.6463e-06	9.3026e-06	259.91	83.651	92.911	41.386	1.2692e-05	39.587	0.0063213	0.01041	0.0028905	761.21	0.00011135	0.00011679	673.84	244.35	0.00010084	0.00011617	252.47	79.442	88.008	39.094	0.0001041	37.954	-36.052	-19.298	-44.787	-117.598	-59.723	122.600	-118.959	-112.299	213.053	191.789	-115.201	-111.161	-108.709	-103.864	-121.617	-108.128	-8191	255	
1424.831	1	1	0	0	0.21295	0.10952	0.17512	0.17554	0.14181	0.2426	0.15411	0.33141	0.2186	0.18848	0.11856	0.11864	0.15588	0.21303	0.19086	0.076474	-2.6896	-3.4375	-2.7771	-3.1354	-3.2458	-2.925	-3.3271	-3.1562	-3.1167	-3.3271	-2.9354	-3.2479	-3.4	-2.9667	-3.3917	-3.2417	180.774	159.761	16.918	-58.033	79.859	-9.463	160.123	189.404	-10.175	-129.853	-104.346	-53.991	180.671	-28.306	160.299	64.186	0.00041537	0.00062836	3.0278e-05	735.82	6.2774e-06	4.9927e-06	727.41	262.5	8.8184e-06	6.018e-06	264.3	83.83	95.174	41.921	1.4067e-05	40.553	0.0062019	0.010273	0.002849	760.48	0.00010952	0.00011447	675.36	246.25	0.00010078	0.0001158	255.86	80.313	89.833	39.856	0.00010503	38.894	-40.672	55.297	152.261	-117.544	-93.220	118.241	-119.120	-112.588	48.422	75.231	-115.101	-111.822	-108.964	-103.994	67.150	-108.772	-8191	255	
1424.927	1	1	0	0	0.23602	0.29078	0.11536	0.26922	0.19326	0.27087	0.043868	0.27924	0.19191	0.12214	0.072406	0.23865	0.12082	0.26305	0.20565	0.091777	-2.7229	-3.5104	-2.9167	-3.1312	-3.2	-2.9042	-3.4833	-3.3125	-3.1063	-3.4479	-3.1042	-3.3479	-3.2208	-2.7562	-3.3146	-3.1792	99.769	-68.825	36.451	224.176	163.729	5.291	-67.237	145.900	-101.884	-46.238	49.268	225.862	-75.725	144.115	110.917	124.583	0.00052457	8.3061e-05	6.1442e-05	745.47	1.1494e-05	1.4859e-05	732.99	266.92	1.0231e-05	9.6327e-06	270.06	85.815	97.244	43.446	1.7463e-06	41.119	0.0062551	0.010359	0.002916	771	0.0001122	0.00011619	682.57	251.59	0.00010393	0.00011726	261.06	82.429	92.21	41.058	0.00010797	39.91	-25.311	-28.181	123.815	-117.088	-0.272	-36.400	-118.723	-112.397	-15.836	111.396	-115.721	-111.597	-108.327	-104.139	-54.613	-108.499	-8191	255	
1425.023	1	1	0	0	0.10095	0.23421	0.22206	0.042425	0.094518	0.18856	0.059434	0.13542	0.11603	0.30575	0.097222	0.10263	0.19106	0.025672	0.20007	0.154	-2.5104	-3.5271	-2.9854	-3.1042	-3.3708	-2.9958	-3.3063	-3.2896	-3.1083	-3.6312	-3.1771	-3.0396	-3.3854	-3.0208	-3.2188	-3.375	110.543	124.518	65.733	39.871	125.031	123.626	-65.557	-14.644	223.360	51.756	-26.921	202.000	182.444	57.444	50.629	-93.330	0.00041021	0.00051363	0.00018773	756.7	4.6484e-06	1.2768e-05	739.08	271.84	1.7896e-05	7.0595e-06	272.9	86.249	98.247	43.726	1.6735e-05	41.447	0.0064431	0.010484	0.0029162	780.15	0.00011175	0.00011738	690.82	255.06	0.00010467	0.00011861	263.42	82.996	93.157	41.243	0.00010606	39.961	-4.006	197.970	-42.081	-117.434	-44.561	-7.056	-119.113	-112.497	-4.532	-6.632	-115.057	-111.351	-109.025	-103.960	115.945	-108.338	-8191	255	
1425.144	1	1	0	0	0.19983	0.19104	0.20452	0.22938	0.19648	0.2237	0.23447	0.11232	0.21784	0.036355	0.15516	0.19591	0.11278	0.3992	0.36726	0.084011	-2.5521	-3.3521	-3.2083	-2.9646	-3.4833	-3.1542	-3.3208	-3.3625	-2.9396	-3.4271	-3.1437	-3.15	-3.4396	-3.1188	-3.2125	-3.5583	102.879	56.481	-103.051	27.472	-50.874	163.256	220.319	155.690	139.287	15.835	-21.911	206.345	208.422	194.495	-51.026	7.433	0.00036908	0.00052316	0.00024935	753.32	6.6877e-06	1.2765e-05	739.95	275.74	2.5106e-05	1.3486e-05	274.31	87.31	100.38	44.713	1.3817e-05	41.922	0.0062366	0.01024	0.0028386	775.84	0.00010935	0.00011606	687.95	258.42	0.00010063	0.00011324	264.93	83.604	94.755	42.136	0.00010352	40.316	-51.235	69.259	104.501	-118.050	-52.974	28.076	-119.122	-112.739	65.215	177.714	-115.359	-111.076	-109.226	-104.127	-7.194	-108.672	-8191	255	
1425.240	1	1	0	0	0.22415	0.19402	0.1204	0.13482	0.049001	0.17516	0.14228	0.17877	0.11543	0.27044	0.17163	0.25769	0.14875	0.088796	0.26251	0.33766	-2.5125	-3.4375	-3.1771	-3.1333	-3.2979	-3.1437	-3.1958	-3.4938	-3.0104	-3.3604	-3.2083	-3.05	-3.6667	-2.975	-3.1042	-3.2313	-2.964	-122.588	191.838	177.217	-19.872	128.090	-128.013	168.961	88.946	-54.590	42.664	98.223	168.051	-122.109	-44.293	207.481	0.00063701	0.00041751	0.00051603	761.73	1.4668e-05	4.4565e-06	742.93	281.28	1.4883e-05	3.5822e-06	277.98	88.84	101.42	45.668	9.4484e-06	42.729	0.0061376	0.0099868	0.0028044	782.77	0.00010796	0.00011161	691.58	261.19	9.8492e-05	0.0001115	267.4	84.914	95.833	42.942	0.00010347	41.089	-20.160	-74.031	-94.004	-117.075	64.744	24.844	-118.803	-112.628	-128.146	39.610	-115.182	-110.962	-108.946	-104.298	-12.318	-108.217	-8191	255	
1425.312	1	1	0	0	0.096637	0.063324	0.18084	0.29326	0.1217	0.039018	0.16108	0.074471	0.29675	0.21348	0.13273	0.20688	0.099046	0.34702	0.34162	0.25377	-2.5	-3.3458	-3.1813	-2.7687	-3.3458	-2.9813	-3.1771	-3.4146	-2.8542	-3.2958	-3.2021	-3.1188	-3.5187	-3.1688	-2.9604	-3.5708	-43.842	152.579	-126.504	-121.740	133.826	180.001	180.078	-46.975	-129.021	-64.282	193.355	-2.663	138.021	174.889	108.583	73.264	0.00063776	0.0011538	0.0002756	770.42	7.1298e-06	1.0122e-05	752.47	283.05	1.1812e-05	1.1614e-05	280.72	91.159	103.67	46.31	7.5734e-06	44.024	0.0060379	0.0099358	0.0028231	787	0.00010806	0.00011272	699.45	264.51	0.00010007	0.00011371	271.02	86.784	97.677	43.726	0.00010493	42.102	-15.871	-86.482	59.652	-116.967	31.195	191.836	-119.043	-112.094	-92.694	85.668	-115.100	-111.229	-108.715	-104.524	-30.700	-108.769	-8191	255	
1425.408	1	1	0	0	0.073906	0.11385	0.32358	0.083432	0.10165	0.15569	0.039699	0.10351	0.14884	0.13849	0.030885	0.1384	0.15696	0.1254	0.21657	0.10259	-2.6042	-3.0687	-3.1979	-3.0625	-3.2687	-3.1354	-3.2729	-3.5687	-3.0458	-3.1854	-3.3354	-2.8896	-3.3292	-3.0896	-2.8771	-3.4542	189.308	88.060	-90.742	-7.165	-34.786	121.958	9.890	145.391	201.440	-124.522	217.142	61.926	161.330	-68.632	99.230	71.857	0.00033622	0.0014749	0.00019133	768.4	8.2205e-06	4.4568e-06	751.98	285.72	5.1233e-06	9.2749e-06	286.88	91.058	104.14	46.476	1.4871e-06	43.415	0.0061074	0.010054	0.0028381	792.46	0.000109	0.00011342	701.08	267.46	9.9177e-05	0.00011438	274.65	86.829	98.642	43.904	0.00010732	41.753	-20.923	-36.567	-73.619	-117.864	-88.738	194.437	-118.656	-112.971	96.729	119.411	-115.421	-111.054	-108.472	-104.339	5.891	-108.520	-8191	255	
1425.529	1	1	0	0	0.14244	0.18397	0.0050805	0.09973	0.058622	0.25736	0.10267	0.056957	0.12479	0.12193	0.081531	0.094917	0.53916	0.26686	0.21985	0.048576	-2.6937	-3.1667	-3.3208	-2.9896	-3.3667	-3.2188	-3.0667	-3.4917	-3.0667	-3.1	-3.3063	-2.8375	-3.4104	-3.4188	-2.9292	-3.4417	-81.836	54.847	67.647	225.472	155.741	-114.340	220.835	19.737	-67.954	-91.261	-101.826	52.285	-70.523	202.550	-37.919	156.938	0.00049419	0.0010387	0.00017672	764.88	6.4755e-06	2.7447e-06	739.59	283.84	1.7862e-05	9.7558e-06	282.88	89.867	105.24	46.928	4.5761e-06	43.534	0.0061782	0.010301	0.0028613	789.81	0.00010985	0.00011437	694.33	266.37	9.9651e-05	0.00011681	271.74	86.14	98.589	43.84	0.0001084	41.758	-21.128	-113.437	17.309	-117.694	99.084	9.220	-119.157	-112.287	62.336	92.620	-114.661	-111.255	-108.855	-104.521	-31.592	-108.356	-8191	255	
1425.623	1	1	0	0	0.13871	0.060457	0.12676	0.26758	0.075031	0.20032	0.28282	0.11468	0.1953	0.22126	0.14827	0.20631	0.17735	0.2464	0.12062	0.27726	-2.8187	-3.1167	-3.4062	-3.1104	-3.3854	-3.325	-3.0104	-3.4542	-3.1562	-3.3292	-3.5646	-3.1875	-3.4062	-3.0938	-2.8271	-3.4792	212.088	-47.699	16.731	109.942	7.846	80.138	218.500	-60.845	-63.967	-75.801	145.527	195.793	188.594	154.530	-121.932	139.417	0.00045067	0.0011484	0.00040019	763.59	1.6779e-05	1.1184e-05	747.16	285.38	3.72e-06	6.2776e-06	284.55	91.159	105.26	46.93	2.1371e-05	44.037	0.0061471	0.010199	0.0028604	789.19	0.00011015	0.00011819	694.86	266.94	0.00010201	0.00011911	273.22	87.052	99.244	44.159	0.00010835	42.317	-25.395	82.957	-10.380	-118.354	-36.338	60.619	-119.329	-112.216	144.857	66.400	-114.795	-110.727	-108.608	-104.400	24.853	-108.568	-8191	255	
1425.721	1	1	0	0	0.099374	0.065314	0.15153	0.026411	0.093428	0.24875	0.17565	0.1447	0.046668	0.40931	0.27423	0.080787	0.18441	0.18507	0.13772	0.17658	-2.6896	-2.9292	-3.4042	-3.05	-3.2938	-3.2521	-2.9333	-3.4896	-3.2375	-3.0583	-3.45	-2.9188	-3.2521	-3.4333	-3.0312	-3.3771	85.361	-32.905	185.263	-67.306	46.649	46.858	151.581	154.511	144.127	158.039	-119.965	72.107	-111.491	188.445	-102.887	205.131	0.00056113	0.00082352	5.1975e-05	777.34	1.0177e-05	6.6741e-06	749.01	286.95	1.507e-05	8.5798e-06	287.09	93.806	105.85	47.376	1.0749e-05	44.982	0.0063919	0.010518	0.002948	797.44	0.00011309	0.00011752	701.13	269.14	0.00010237	0.00011749	276.09	88.921	99.972	44.884	0.00010713	42.976	-7.144	112.773	62.624	-117.866	76.767	-9.518	-118.836	-112.438	47.253	87.654	-115.248	-111.680	-108.725	-104.197	-52.886	-108.532	-8191	255	
1425.840	1	1	0	0	0.35131	0.01374	0.12313	0.063207	0.079136	0.052375	0.20866	0.19339	0.18943	0.24392	0.14191	0.1162	0.036865	0.15309	0.23989	0.039383	-2.7812	-2.9875	-3.4917	-3.1708	-3.1833	-3.4333	-3.0604	-3.4771	-3.2375	-2.9146	-3.5708	-2.9938	-3.1688	-3.4667	-3.0438	-3.375	79.841	-85.419	159.715	-86.542	112.616	125.981	182.465	153.411	-90.447	51.162	186.896	51.162	-32.507	-104.413	58.687	-37.713	0.00052269	0.00023219	7.7261e-05	769.44	5.9416e-06	1.3117e-05	745.8	286.51	1.099e-05	4.6074e-06	282.21	93.26	104.93	47.08	6.6223e-06	44.482	0.0063768	0.010561	0.002923	791.42	0.00011241	0.00011723	701.36	267.6	0.00010286	0.00011807	273.23	88.503	99.218	44.412	0.00010597	42.515	-16.812	-12.210	115.199	-117.083	-50.848	-34.690	-118.814	-112.447	93.008	38.982	-115.018	-111.114	-108.866	-104.454	51.671	-108.127	-8191	255	
1425.911	1	1	0	0	0.21252	0.15796	0.10582	0.17845	0.22016	0.14198	0.27525	0.069216	0.25576	0.1834	0.30765	0.053353	0.23434	0.16418	0.12356	0.27571	-2.7708	-2.7792	-3.3125	-3.1583	-3.2146	-3.5479	-2.9833	-3.2625	-3.425	-3.0583	-3.5542	-3.0458	-3.0687	-3.4688	-3.0208	-3.2938	-76.787	213.926	-91.487	-41.896	-108.499	18.233	126.314	27.870	17.443	135.394	-33.889	-2.773	142.677	148.976	10.695	209.011	0.00038016	0.0011938	0.00027667	771.41	2.5226e-05	9.6756e-06	749.15	285.02	5.6813e-06	1.2451e-05	281.94	92.674	105.05	47.052	1.7376e-05	44.574	0.0063443	0.010311	0.0028838	790.37	0.00011079	0.00011644	692.42	265.42	0.00010285	0.00011576	272.1	88.186	98.834	44.398	0.0001038	42.527	-1.443	-82.458	-93.629	-117.696	-0.629	70.843	-118.967	-112.276	118.958	151.432	-114.851	-110.988	-108.729	-104.116	-69.212	-108.612	-8191	255	
1426.008	1	1	0	0	0.092033	0.092986	0.11352	0.027678	0.038231	0.12706	0.30798	0.20531	0.052552	0.11633	0.023989	0.17537	0.20259	0.15777	0.20737	0.22592	-3.0187	-2.7854	-3.1896	-3.1667	-3.0417	-3.4521	-3.1437	-3.2604	-3.2896	-2.9062	-3.4104	-3.2521	-2.9	-3.2792	-3.0583	-3.0375	193.910	115.715	73.095	-125.573	-77.480	198.031	186.561	99.882	183.733	130.533	-127.020	-33.587	146.672	-105.113	-119.020	86.372	0.00048	0.00048436	0.00052637	764.9	5.1242e-06	6.5503e-06	746.77	285.67	1.457e-05	8.8879e-06	282.93	93.54	106.07	47.697	4.7104e-07	45.367	0.0062062	0.010284	0.0029087	788.95	0.00011145	0.00011699	695.6	267.31	0.00010251	0.0001148	273.98	88.935	99.782	44.779	0.00010202	43.135	-2.769	107.862	69.483	-117.437	-26.003	-19.471	-118.875	-112.279	119.203	133.672	-114.927	-111.191	-108.824	-104.508	-51.959	-108.640	-8191	255	
1426.128	1	1	0	0	0.063343	0.16974	0.23089	0.16397	0.12261	0.16116	0.13306	0.25414	0.13725	0.16535	0.099877	0.083151	0.097589	0.25635	0.16943	0.012129	-3.0187	-2.8729	-3.1292	-3.1625	-2.7687	-3.4854	-3.0312	-3.1708	-3.4979	-3.1229	-3.375	-3.3958	-3.15	-3.5208	-3.1125	-3.2854	133.473	-89.194	167.247	-46.785	146.911	-84.046	191.091	153.919	56.888	-66.599	7.929	-35.307	-86.675	-118.638	200.018	57.234	0.00051491	0.0012022	0.00050878	760.15	2.9801e-06	5.0135e-06	742.87	285.14	1.1062e-05	5.5508e-06	287.43	95.746	106.65	48.265	6.5067e-06	45.578	0.0060571	0.0096908	0.0027409	782.83	0.00010548	0.00010853	693.54	267.14	9.768e-05	0.00011056	275.51	90.098	100.35	45.271	0.00010206	43.627	-50.340	86.214	-42.953	-117.215	-22.618	145.559	-118.846	-112.359	-12.206	55.589	-114.958	-111.499	-108.669	-104.207	116.848	-108.485	-8191	255	
1426.224	1	1	0	0	0.15157	0.22157	0.18986	0.23159	0.092291	0.30742	0.10229	0.25778	0.14171	0.1598	0.39863	0.080227	0.23905	0.3006	0.089944	0.18367	-2.9958	-3.0021	-3.1813	-3.3021	-2.9604	-3.4396	-3.3771	-3.1458	-3.4083	-2.95	-3.3208	-3.6188	-3.1	-3.4521	-3.2812	-3.0604	-62.339	111.934	-41.015	39.451	-110.508	169.907	5.024	198.304	109.766	184.254	-4.558	-123.819	-79.029	171.480	-72.634	131.947	0.00065362	0.00084871	9.3163e-05	767.67	4.2017e-06	7.0827e-06	750.18	286.84	7.5592e-06	3.5179e-06	290.31	96.157	107.49	48.734	4.545e-06	46.481	0.0060284	0.0097521	0.0027545	784.22	0.00010425	0.00010884	696.18	266.31	9.4327e-05	0.00010822	276.42	90.882	101.19	45.768	0.0001006	44.101	-34.228	-21.259	107.501	-118.029	210.543	20.214	-118.960	-112.385	-7.864	78.992	-115.372	-111.622	-108.957	-104.463	-49.415	-108.651	-8191	255	
1426.321	1	1	0	0	0.1488	0.10912	0.11576	0.13873	0.16159	0.14341	0.024054	0.030498	0.19786	0.13359	0.054695	0.13239	0.040812	0.19903	0.24701	0.20498	-3.1396	-2.9104	-3.2625	-3.3167	-2.875	-3.2521	-3.2812	-3.125	-3.4562	-3.1208	-3.3125	-3.4146	-3.0125	-3.55	-3.3542	-3.2146	115.468	-58.526	-27.352	114.582	153.794	193.630	218.656	208.070	195.903	-123.956	-58.386	105.933	224.641	-130.557	212.065	-78.474	0.0004456	0.00053628	0.00020563	774.41	5.5092e-06	1.4366e-05	751.11	288.94	3.5269e-06	4.4469e-06	288.27	96.235	108.36	48.943	1.3154e-05	46.761	0.0058559	0.0095767	0.0027319	785.44	0.0001018	0.00010591	697.6	269.97	9.3425e-05	0.00010623	277.21	91.167	101.8	46.056	9.7696e-05	44.147	-39.126	-32.512	150.512	-117.093	-61.958	-9.551	-119.015	-112.589	68.951	-48.506	-115.164	-111.159	-108.981	-104.329	123.186	-108.364	-8191	255	
1426.417	1	1	0	0	0.2217	0.038885	0.28109	0.073155	0.13763	0.15552	0.074916	0.17483	0.080365	0.23332	0.11633	0.1632	0.1784	0.077964	0.13084	0.27946	-3.1021	-3.2292	-3.125	-3.6229	-2.9938	-3.2875	-3.3812	-3.0146	-3.3854	-3.2271	-3.2062	-3.4104	-2.8417	-3.2062	-3.3187	-2.9896	20.896	-51.947	-109.993	169.622	132.216	-12.804	185.392	92.130	-32.879	1.516	-102.999	162.935	102.124	29.169	221.213	-67.040	0.00049091	0.00073127	0.00019339	772.22	1.8632e-06	1.1218e-05	759.65	292.39	1.7515e-05	8.2764e-06	292.41	97.775	108.59	49.393	1.0123e-05	46.625	0.0056926	0.0093875	0.0026779	787.51	0.0001018	0.00010703	702.7	271.5	9.3371e-05	0.00010765	279.73	92.051	102.31	46.282	9.8761e-05	44.377	-23.118	21.986	105.574	-117.974	24.335	57.394	-118.605	-112.447	82.481	96.047	-115.212	-111.434	-108.728	-104.430	-13.206	-108.494	-8191	255	
1426.513	1	1	0	0	0.11626	0.093499	0.15242	0.2136	0.16985	0.2089	0.17508	0.22917	0.23974	0.075419	0.15799	0.011908	0.11328	0.23672	0.12468	0.15718	-2.8458	-2.9	-2.8875	-3.4125	-3.0354	-3.2188	-3.4208	-2.9958	-3.3021	-3.1813	-2.9646	-3.5646	-3.1813	-3.3542	-3.4813	-3.0604	39.547	163.039	-86.094	161.113	-7.811	-26.162	-121.930	-106.615	-92.565	219.731	3.235	149.957	196.911	141.127	-33.946	210.334	0.0005016	0.0011776	0.00046149	778.12	3.2002e-06	9.7512e-06	767.57	293.17	8.578e-06	2.1862e-06	293.99	98.566	109.78	49.859	1.0362e-05	47.672	0.0058678	0.0094823	0.0027086	790.85	0.0001036	0.00010809	711.91	273.17	9.543e-05	0.00010959	282.99	93.186	102.81	46.82	0.00010221	45.433	-14.056	66.304	-45.316	-117.003	180.227	55.414	-118.993	-112.312	-111.704	18.273	-115.085	-111.190	-108.847	-104.360	21.880	-108.270	-8191	255	
1426.609	1	1	0	0	0.3424	0.11106	0.13398	0.022486	0.15405	0.11466	0.31526	0.17934	0.12471	0.25051	0.32576	0.14202	0.13548	0.29284	0.09058	0.14173	-3.0542	-3.2104	-3.075	-3.5062	-3.05	-3.2083	-3.5917	-2.9792	-3.4542	-3.1729	-2.8604	-3.55	-3.0563	-3.2938	-3.4271	-2.9792	40.073	27.130	-27.736	19.479	-64.998	59.561	181.330	113.100	32.308	-71.181	221.582	223.753	-81.474	225.745	172.398	-58.516	0.00071795	0.0010203	0.00013091	782.33	1.2512e-05	1.1991e-05	777.48	296.25	9.6401e-06	1.4541e-05	300.05	100.07	110.02	50.216	1.5475e-05	48.355	0.0060211	0.0098748	0.0028176	800.93	0.00010687	0.00011325	720.8	275.87	9.9395e-05	0.00011339	287.93	94.727	103.82	47.178	0.00010564	45.787	-40.491	-35.201	-4.440	-117.768	-44.033	7.298	-118.980	-112.517	-92.567	3.392	-114.912	-110.923	-108.810	-104.189	56.793	-108.441	-8191	255	
1426.705	1	1	0	0	0.12609	0.20117	0.15979	0.26419	0.10252	0.084396	0.107	0.15142	0.20462	0.14985	0.27915	0.10629	0.16819	0.1285	0.087366	0.12635	-2.8438	-3.2562	-2.8312	-3.2771	-3.0021	-3.0833	-3.5375	-3.1771	-3.1063	-3.2938	-3.0604	-3.4729	-3.2771	-3.0854	-3.6208	-3.2583	-127.118	85.323	19.355	-128.508	-5.356	162.055	186.900	-27.477	-130.085	173.749	190.904	-98.360	201.582	-116.019	-26.488	189.079	0.00043392	0.00015586	0.00018322	787.75	4.9203e-06	2.9619e-06	780.83	293.02	4.4077e-06	1.1427e-05	297.17	98.015	109.42	49.129	8.8984e-06	46.909	0.0062675	0.010341	0.002894	809.36	0.0001123	0.00011886	724.42	275.78	0.00010277	0.00011925	285.99	93.173	102.78	46.254	0.00010657	44.635	-22.411	30.446	16.942	-117.775	-67.354	153.646	-118.731	-112.470	106.879	126.081	-115.089	-110.863	-108.744	-104.326	0.056	-108.918	-8191	255	
1426.801	1	1	0	0	0.054815	0.18156	0.072697	0.25951	0.016569	0.063311	0.040305	0.12612	0.11736	0.1336	0.096475	0.17106	0.015793	0.23266	0.16342	0.14809	-2.7417	-3.325	-2.8354	-3.4417	-3.1729	-3.0479	-3.6125	-3.0125	-3.2542	-3.4417	-3.1229	-3.4833	-3.4958	-3.2062	-3.4417	-3.1854	65.966	97.588	168.412	184.508	43.880	62.811	-4.374	135.014	40.399	-66.837	47.505	214.529	-79.571	207.813	180.912	56.761	0.00066541	0.00059024	0.00044423	771.96	1.5393e-05	1.7635e-05	770.64	290.7	1.3435e-05	9.7668e-06	294.97	96.848	107.91	48.768	3.9936e-06	46.686	0.0063633	0.010371	0.0029421	802.17	0.0001142	0.00012032	717.27	273.42	0.00010731	0.00012151	284.91	92.472	101.97	45.928	0.0001106	44.467	-55.217	22.474	-104.698	-117.411	209.532	34.297	-118.805	-112.624	22.655	153.690	-115.430	-110.656	-109.057	-104.088	190.725	-108.873	-8191	255	
1426.920	1	1	0	0	0.20273	0.074261	0.21053	0.20361	0.11096	0.079004	0.35823	0.33346	0.037247	0.16161	0.11377	0.28279	0.10704	0.19965	0.26322	0.14313	-2.7958	-3.4333	-2.7938	-3.2104	-3.4125	-2.9313	-3.5167	-3.2542	-3.0792	-3.3875	-2.9437	-3.3646	-3.3708	-3.0792	-3.5292	-3.4188	21.449	210.582	16.494	155.341	-47.570	-9.410	185.312	151.503	-70.663	67.501	228.115	125.572	-119.233	196.519	16.252	96.727	0.0005961	0.00054971	0.00024534	776.21	1.1677e-05	1.2885e-05	777.89	292.39	1.3567e-05	9.1587e-06	298.25	97.679	108.37	49.206	2.1387e-05	47.182	0.0065335	0.010567	0.0029914	807.52	0.00011579	0.00012195	724.09	274.11	0.00010761	0.00012123	286.72	93.158	102.5	46.362	0.00010898	45.126	-20.118	-110.409	101.573	-117.232	4.028	50.681	-118.946	-112.646	184.862	-45.299	-115.220	-111.227	-108.999	-103.980	18.109	-108.392	-8191	255	
1427.016	1	1	0	0	0.11537	0.10975	0.20098	0.0386	0.096048	0.18195	0.099987	0.097996	0.15484	0.058442	0.085808	0.2285	0.12812	0.091624	0.22415	0.14078	-2.6458	-3.4521	-2.9417	-3.325	-3.3354	-2.8917	-3.5458	-3.25	-3.1146	-3.5729	-3.1583	-3.1688	-3.3708	-3.1604	-3.5083	-3.3875	190.190	159.124	28.118	83.037	-96.870	-69.083	-37.100	-39.161	146.844	-60.905	89.228	212.481	162.881	107.212	108.739	144.200	0.00044849	0.00077888	0.00021547	785.15	1.0681e-05	8.2407e-06	778.42	293.58	8.332e-06	2.8051e-06	297.09	98.178	108.3	49.269	1.4006e-05	46.994	0.0065372	0.01052	0.0029941	810.21	0.00011618	0.00012164	726.45	275.16	0.00010611	0.00012365	287.96	93.89	102.74	46.373	0.00011436	45.146	-8.132	-19.841	-40.832	-117.361	-82.718	179.332	-118.590	-112.457	103.702	39.467	-114.883	-111.519	-108.511	-104.315	-67.662	-108.620	-8191	255	
1427.112	1	1	0	0	0.070396	0.02691	0.16341	0.22977	0.10099	0.30449	0.2291	0.3258	0.15002	0.26866	0.086698	0.25132	0.21725	0.16253	0.057425	0.080099	-2.5917	-3.5479	-3.1229	-3.1479	-3.4625	-2.9167	-3.4437	-3.2333	-3.0812	-3.4042	-3.2333	-3.1521	-3.4229	-3.0083	-3.4562	-3.25	193.359	87.514	110.290	205.857	62.187	125.325	176.831	85.527	-84.611	3.649	-113.079	-20.289	206.523	121.157	-69.841	225.363	0.00063008	0.00056122	0.00034109	785.99	4.7761e-06	1.3581e-05	765.66	287.33	1.3013e-05	3.9382e-06	289.71	96.032	105.98	47.957	6.7574e-06	45.576	0.0068106	0.011024	0.0031263	813.53	0.00011979	0.00012427	718.85	271.63	0.00011163	0.00012723	283.04	91.93	101.01	45.309	0.00011659	43.972	-37.360	47.915	-40.494	-116.721	143.536	113.961	-119.027	-112.702	-13.545	213.280	-115.049	-111.067	-108.555	-104.075	-12.430	-108.382	-8191	255	
1427.209	1	1	0	0	0.20567	0.11341	0.052355	0.17198	0.092942	0.22733	0.19019	0.11935	0.085962	0.11239	0.2162	0.15256	0.20608	0.11438	0.14878	0.19389	-2.5	-3.4125	-3	-2.9979	-3.3771	-3.0042	-3.2167	-3.2417	-3.0375	-3.5125	-3.3354	-3.0583	-3.4479	-3.0604	-3.1771	-3.5021	175.133	4.383	107.129	59.535	-55.053	104.807	145.494	-32.225	-48.245	196.183	-116.149	136.774	-111.162	204.689	-125.853	225.719	0.00046853	0.0011913	0.00031047	774.13	2.9145e-06	9.2474e-06	767.65	290.62	7.3361e-06	1.6964e-05	293	96.612	106.22	47.974	1.0326e-05	45.302	0.0069186	0.011288	0.0032009	810.63	0.00012193	0.00012872	717.2	272.5	0.00011166	0.00012924	283.87	91.843	100.79	45.215	0.00012108	43.89	-6.418	-105.491	-3.850	-117.710	138.479	-129.995	-118.779	-112.662	1.968	159.347	-115.011	-111.281	-108.517	-104.186	112.283	-108.356	-8191	255	
1427.305	1	1	0	0	0.083715	0.17759	0.078199	0.078868	0.16827	0.13628	0.19295	0.19954	0.13287	0.15034	0.07889	0.078272	0.18075	0.29714	0.10115	0.33908	-2.6042	-3.2917	-3.1604	-3.0625	-3.4042	-3.0062	-3.2833	-3.6229	-2.8854	-3.3646	-3.2354	-3.0125	-3.5542	-3.1083	-3.2438	-3.3521	172.313	-107.886	139.533	106.780	133.293	65.241	223.455	163.912	189.083	-107.614	197.457	214.040	-113.259	218.674	-2.671	204.856	0.00041721	0.00018886	0.00022405	777.86	3.9356e-06	3.73e-06	761.12	284.58	1.6884e-05	5.567e-06	287.94	94.514	103.88	46.616	1.3698e-05	44.21	0.007042	0.011646	0.0033207	812.86	0.00012687	0.00013445	714.43	269.07	0.00011811	0.00013704	280.88	90.224	99.073	44.202	0.00012504	43.014	-12.485	-106.598	-47.395	-117.675	-13.472	21.441	-119.237	-112.194	111.801	-100.760	-115.244	-111.279	-108.911	-103.777	-54.952	-108.076	-8191	255	
1427.401	1	1	0	0	0.12026	0.21382	0.25251	0.16908	0.18677	0.074183	0.27205	0.093862	0.30126	0.18362	0.2022	0.27594	0.055915	0.28189	0.12541	0.11038	-2.7396	-3.3146	-3.3688	-3.1104	-3.6521	-3.0729	-3.1688	-3.5354	-3.0146	-3.3729	-3.1646	-3.1417	-3.4958	-3.2083	-3.1771	-3.5396	120.749	36.925	94.948	225.966	-47.939	123.253	101.461	221.994	166.921	-12.943	-26.109	166.813	139.629	215.086	-92.198	161.171	0.00060934	0.000729	0.00021433	764.54	1.0946e-05	3.4813e-06	741.49	281.39	2.0167e-05	1.3481e-05	282.49	92.247	102.92	46.246	6.235e-06	44.815	0.0073968	0.012348	0.0034419	808.1	0.00013174	0.00014071	702.92	264.75	0.00012575	0.00014282	275.64	89.286	98.482	43.982	0.00012874	43.299	-36.877	-89.264	-21.691	-118.031	81.009	87.653	-118.843	-111.985	17.360	49.373	-114.957	-111.001	-108.657	-104.107	-15.280	-108.470	-8191	255	
1427.522	1	1	0	0	0.10293	0.064442	0.21634	0.10427	0.23517	0.091914	0.053451	0.34839	0.038104	0.21415	0.097876	0.26005	0.08945	0.050661	0.16214	0.11034	-2.6458	-3.4042	-3.4417	-3.0479	-3.2792	-3.2458	-3.1562	-3.4146	-3.0229	-3.3729	-3.4688	-2.8958	-3.4562	-3.2167	-3.0396	-3.5708	98.932	114.374	144.622	150.429	-44.454	-7.957	-83.108	170.667	-87.621	175.228	-41.315	197.646	-114.395	35.628	-77.613	-14.885	0.00046412	0.00068109	8.4684e-05	763.56	1.0505e-05	2.3321e-06	753.27	283.64	1.6596e-05	1.4639e-05	284.23	94.156	105.29	47.045	8.4522e-06	45.686	0.0075544	0.012462	0.0034666	811.11	0.00013195	0.00013892	709.76	268.78	0.00012168	0.00013885	280.44	90.885	100.22	44.952	0.0001237	43.989	-9.324	-61.969	-55.359	-117.332	-46.284	47.316	-119.061	-112.559	89.522	6.427	-114.879	-111.065	-108.531	-104.130	97.478	-108.462	-8191	255	
1427.616	1	1	0	0	0.17742	0.086543	0.044293	0.1165	0.034448	0.25511	0.22469	0.34972	0.15784	0.15653	0.027682	0.099714	0.21257	0.19863	0.18238	0.036414	-2.4938	-3.2042	-3.4375	-3.1021	-3.4104	-3.125	-3.1021	-3.3958	-3.1813	-3.1167	-3.5938	-3.0979	-3.3792	-3.4604	-3.0812	-3.55	-72.734	108.942	-73.745	113.572	17.047	-40.290	16.216	169.823	-9.958	-28.732	160.279	177.424	116.090	-80.801	69.367	50.764	0.00047704	0.0010887	0.00010071	767.33	1.8703e-05	3.5542e-06	766.19	286.53	1.3202e-05	7.8597e-06	289.8	96.96	106.43	47.986	8.0133e-06	46.096	0.0072196	0.012031	0.0032888	810.92	0.0001276	0.00013282	714.03	271.06	0.00011539	0.00013141	281.69	92.187	101.08	45.499	0.00011841	44.377	-19.856	-86.336	-48.001	-117.633	-47.960	55.039	-118.909	-112.364	1.227	8.132	-115.267	-110.894	-108.662	-104.139	188.657	-108.563	-8191	255	
1427.712	1	1	0	0	0.053293	0.05244	0.09627	0.19637	0.11556	0.073126	0.10497	0.23438	0.10981	0.23278	0.075922	0.24229	0.20923	0.13777	0.039927	0.10411	-2.7979	-2.9646	-3.3667	-2.8583	-3.3333	-3.3271	-3.0167	-3.55	-3.2396	-3.1542	-3.4479	-3.0333	-3.5083	-3.5333	-2.9021	-3.4271	89.391	-10.987	-40.904	205.213	208.085	189.387	20.602	131.642	118.900	42.344	-65.784	154.045	187.135	163.072	175.823	-21.086	0.00058514	0.0015714	0.00032843	770	1.4487e-05	6.0017e-06	769	287.41	1.4674e-05	1.4532e-05	289.05	95.691	105.74	47.961	5.0758e-06	45.876	0.0070391	0.011562	0.0032406	806.86	0.0001238	0.00012943	713.56	269.27	0.00011365	0.00012906	280.33	91.86	100.04	45.29	0.00011781	44.376	-37.796	-101.411	-87.192	-117.253	-43.711	31.623	-119.102	-112.647	2.244	18.914	-114.865	-110.723	-108.740	-104.155	59.438	-108.224	-8191	255	
1427.808	1	1	0	0	0.23961	0.080595	0.099494	0.23147	0.14966	0.075228	0.17573	0.24275	0.2117	0.11186	0.13926	0.10712	0.079875	0.10632	0.17003	0.055576	-2.7208	-3.0187	-3.2833	-3.0458	-3.2542	-3.2771	-3.0917	-3.3479	-3.3312	-2.8979	-3.4542	-3.0958	-3.3375	-3.4562	-2.9188	-3.6042	222.317	106.720	-57.534	76.425	-44.585	172.657	157.328	130.806	-82.202	158.575	-23.615	213.985	146.626	126.870	-101.901	134.561	0.00059037	0.00067189	0.00045139	759.16	1.2563e-05	5.2756e-06	757.26	280.99	1.8354e-05	6.0488e-06	289.52	96.854	105.59	48.394	4.7079e-06	46.69	0.007002	0.011389	0.0031973	802.85	0.00012272	0.00012983	708.22	266.05	0.00011251	0.00012896	279.46	92.393	100.3	45.8	0.0001189	45.091	-30.277	227.297	-82.359	-117.240	23.020	-36.710	-119.063	-112.581	91.199	196.918	-114.939	-111.411	-108.497	-104.326	7.920	-108.401	-8191	255	
1427.904	1	1	0	0	0.15732	0.31428	0.24008	0.22803	0.049659	0.21498	0.1943	0.088931	0.27354	0.30585	0.12314	0.12761	0.19385	0.079284	0.059456	0.096479	-2.8479	-2.9542	-3.3979	-3.0125	-3.1625	-3.4958	-3.0229	-3.5604	-3.4042	-2.9958	-3.5396	-3.125	-3.1917	-3.5187	-2.8667	-3.4646	22.503	-55.587	22.994	108.405	26.610	-13.644	175.421	175.700	150.394	104.856	46.646	131.956	-90.222	76.789	-82.817	-67.292	0.0007256	0.00041361	0.00013958	765.12	1.3671e-05	2.7931e-06	760.8	285.85	1.8219e-05	1.1507e-05	289.76	96.777	106	48.655	1.0102e-05	46.71	0.0070293	0.011526	0.0032204	804.48	0.0001236	0.00013037	712.02	268.16	0.00011353	0.00012952	281.07	93.119	100.66	46.11	0.00012082	45.031	-10.813	-87.588	-95.441	-117.710	107.763	-28.156	-118.890	-112.324	31.762	36.524	-115.056	-111.131	-108.871	-104.248	-6.264	-108.407	-8191	255	
1428.001	1	1	0	0	0.11997	0.18768	0.34235	0.261	0.29541	0.076831	0.10799	0.035452	0.15366	0.24521	0.18978	0.2247	0.083462	0.11901	0.092115	0.017318	-2.9375	-2.9333	-3.4521	-3.3417	-3.2	-3.3667	-3.1813	-3.475	-3.3229	-3.1396	-3.4354	-3.2	-2.9188	-3.6896	-3.2083	-3.3563	41.757	-122.855	-71.754	109.017	-53.108	56.709	115.692	188.686	-95.492	-53.711	153.278	-128.536	-35.099	199.121	-3.312	61.023	0.00068999	0.00036778	0.00018769	754.44	1.4192e-05	9.4561e-06	757.37	281.15	2.1589e-05	1.4671e-05	285.78	95.392	105.75	48.321	1.0829e-05	46.283	0.007136	0.011595	0.0032981	799	0.0001259	0.00013138	707.64	266.05	0.00011556	0.00013327	278.48	91.661	100.17	45.735	0.00012116	44.774	-14.493	67.439	186.163	-117.445	14.608	65.358	-119.127	-112.412	114.462	83.181	-115.324	-111.025	-108.546	-104.300	-4.854	-108.231	-8191	255	
1428.097	1	1	0	0	0.14852	0.282	0.32885	0.40375	0.17237	0.13709	0.15192	0.21307	0.076015	0.15314	0.19133	0.18389	0.12967	0.063323	0.17553	0.053177	-2.9958	-2.8667	-3.3979	-3.0042	-2.9875	-3.7083	-3.2021	-3.125	-3.6188	-3.1063	-3.5146	-3.3667	-3.0604	-3.6146	-3.0792	-3.2875	56.819	-18.162	27.220	9.172	65.038	229.120	216.859	-108.949	-1.320	26.937	-54.226	26.688	81.895	148.641	0.758	95.225	0.00068203	0.00027776	0.00031028	764.71	5.2105e-06	5.3871e-06	758.44	283.99	9.7598e-06	3.3385e-06	290.18	97.491	106.33	48.811	2.4986e-05	47.204	0.0071458	0.011771	0.0033657	804.15	0.00012542	0.00013204	710.83	268.87	0.00011496	0.0001328	283.17	93.281	101.1	46.195	0.00012095	45.293	-43.861	149.538	-70.349	-117.105	-31.236	-85.072	-118.838	-112.359	101.564	220.888	-114.609	-111.501	-109.025	-104.300	-9.565	-108.792	-8191	255	
1428.217	1	1	0	0	0.046825	0.24716	0.10744	0.12524	0.31815	0.19593	0.078002	0.20418	0.10729	0.13346	0.077253	0.34898	0.28058	0.11662	0.040585	0.37637	-2.9958	-3.0396	-3.175	-3.3333	-2.9688	-3.5396	-3.1896	-3.1917	-3.3271	-3.1542	-3.3438	-3.3708	-2.925	-3.5271	-3.2625	-3.2521	114.182	112.993	110.890	-43.669	23.142	22.106	124.630	-58.367	86.200	-16.034	-29.004	-96.483	153.912	119.027	160.983	196.797	0.00041198	0.00026141	7.5998e-05	780.28	8.7278e-06	6.7678e-06	768.7	288.85	6.1326e-06	1.7988e-05	297.71	99.47	107.57	49.35	3.7041e-06	47.669	0.0072021	0.01158	0.003254	812.42	0.00012669	0.00013055	722.05	272.08	0.00011536	0.00013312	287.69	94.676	101.78	46.661	0.00012159	45.938	-50.876	-127.707	-78.866	-117.137	58.378	-118.477	-119.008	-112.395	63.955	-21.354	-114.876	-110.983	-108.452	-103.906	98.140	-108.557	-8191	255	
1428.313	1	1	0	0	0.15188	0.16735	0.10082	0.029527	0.10024	0.1487	0.19117	0.24491	0.21815	0.24118	0.28453	0.13229	0.39242	0.267	0.069229	0.04179	-2.9667	-2.9417	-3.2125	-3.4542	-2.9271	-3.5187	-3.1958	-3.1479	-3.5687	-3.0062	-3.3	-3.1375	-3.0646	-3.3854	-3.0167	-3.1708	229.089	-82.528	-50.207	-41.517	-44.813	-4.005	-127.222	204.950	182.928	31.568	-118.628	70.635	189.901	-81.235	65.767	128.180	0.00052102	0.0016315	0.00041457	754.97	2.3882e-06	1.0014e-05	769.7	285.84	4.2515e-06	1.2002e-05	292.63	97.882	105.55	48.805	3.7072e-06	47.051	0.0072895	0.011886	0.0033975	809.04	0.00012719	0.00013472	724.4	270.28	0.00011848	0.00013687	286.02	93.773	100.69	46.213	0.00012482	45.477	-16.368	-101.718	48.417	-117.410	12.887	128.393	-118.927	-112.559	65.900	12.981	-115.370	-110.955	-108.872	-103.953	136.775	-108.049	-8191	255	
1428.410	1	1	0	0	0.10993	0.1017	0.15638	0.094279	0.052919	0.17181	0.28909	0.091519	0.10527	0.10728	0.16065	0.16127	0.24905	0.16673	0.22071	0.096143	-3.0896	-2.9375	-3.1	-3.4979	-3.05	-3.3854	-3.3979	-3.2313	-3.4875	-2.9875	-3.2083	-3.4167	-2.8417	-3.2729	-3.2729	-3.05	183.865	-91.644	-18.118	160.264	46.761	72.050	200.587	215.032	219.228	-63.095	-109.854	-124.827	204.714	128.317	130.107	130.916	0.00047392	0.0013769	7.9033e-05	777.12	1.3464e-05	1.4856e-05	762.72	282.74	6.2225e-06	4.2009e-06	288.62	96.907	105.88	48.466	2.4213e-05	46.738	0.0074066	0.012352	0.0034566	808.65	0.00013038	0.00013649	715.37	267.72	0.00012134	0.00013946	282.58	92.744	100.34	45.817	0.00012575	45.037	-28.170	-111.480	-27.156	-117.454	144.632	9.857	-118.699	-112.655	28.612	36.227	-115.256	-110.774	-109.022	-103.861	-23.887	-108.201	-8191	255	
1428.481	1	1	0	0	0.085967	0.16813	0.024537	0.056909	0.18565	0.23686	0.015162	0.12991	0.075395	0.05748	0.32147	0.1044	0.12347	0.15034	0.11281	0.25448	-2.9938	-3.075	-3.0792	-3.4271	-3.0625	-3.4396	-3.3521	-2.9979	-3.2646	-3.0604	-3.2625	-3.4208	-3.0938	-3.3521	-3.3521	-3.1854	172.246	200.958	-126.714	-23.303	75.582	11.134	-102.840	223.645	29.812	-58.057	169.802	61.370	-11.925	182.766	31.264	117.620	0.00046648	0.00081452	0.00035021	767.14	6.2678e-06	1.2537e-05	766.4	285.53	1.3362e-05	2.2729e-05	292.43	97.251	105.94	48.235	1.797e-05	46.949	0.0075258	0.012194	0.0034113	811.18	0.00013082	0.00013894	716.94	269.71	0.00012232	0.00014028	285	93.377	100.82	45.964	0.00012805	45.182	-0.175	4.896	56.831	-118.158	194.448	1.543	-119.089	-112.413	-4.811	-28.831	-114.791	-110.770	-109.028	-104.165	-85.350	-108.707	-8191	255	
1428.602	1	1	0	0	0.16472	0.2293	0.10621	0.22028	0.024141	0.057913	0.20402	0.14031	0.21855	0.12424	0.038651	0.088986	0.055668	0.11538	0.12016	0.33658	-2.9625	-3.1125	-3.0208	-3.4292	-3.1896	-3.1396	-3.325	-2.9083	-3.3167	-3.1896	-3.225	-3.4979	-2.9313	-3.15	-3.4979	-2.9833	143.213	141.414	95.982	194.394	85.242	201.812	208.066	213.569	-55.044	-1.169	67.623	59.577	-87.063	157.989	169.699	174.941	0.0005375	0.0008858	0.00031385	763.29	6.7647e-06	6.1889e-06	754.43	281.19	1.6439e-05	1.2182e-05	282.57	92.732	102.91	46.149	4.3577e-06	42.808	0.0076029	0.012444	0.0034648	814.62	0.00013478	0.00013933	711.42	267.58	0.00012009	0.00013822	276.19	89.874	97.828	43.734	0.00012515	41.964	-20.082	-96.339	-87.764	-117.803	-33.133	-22.953	-118.781	-112.259	28.392	-117.393	-115.162	-111.182	-108.423	-104.207	60.640	-108.389	-8191	255	
1428.696	1	1	0	0	0.12705	0.28654	0.065989	0.11161	0.077088	0.076523	0.040877	0.026234	0.17806	0.074205	0.1838	0.1402	0.031696	0.086311	0.066015	0.22189	-2.8146	-3.0521	-2.9229	-3.35	-3.0021	-3.2125	-3.3583	-3.0667	-3.2708	-3.2958	-2.9354	-3.4229	-3.225	-3.2708	-3.525	-2.9875	-42.184	-34.513	-22.195	85.185	84.023	30.191	-84.798	11.095	-43.531	182.184	117.685	-125.516	76.117	-123.206	-56.353	225.221	0.0004091	0.00049443	0.00035057	731.84	2.8181e-05	8.6125e-06	696.97	258.47	1.5954e-05	2.4685e-06	252.51	81.892	91.78	40.201	6.8319e-06	38.122	0.0074232	0.01205	0.0033808	777.57	0.00012665	0.00013293	654.93	243.84	0.00011691	0.00013392	248.71	79.553	88.024	38.451	0.00012274	37.308	0.593	190.067	-67.042	-118.338	10.048	-108.308	-118.708	-112.248	65.874	77.851	-114.611	-111.030	-108.585	-104.168	-70.622	-108.276	-8191	255	
1428.792	1	1	0	0	0.11446	0.28236	0.26357	0.041079	0.15741	0.13776	0.21421	0.27076	0.12933	0.14586	0.078184	0.19681	0.096086	0.23914	0.11806	0.059306	-2.8667	-3.2604	-2.9042	-3.6208	-3.1521	-3.1937	-3.6229	-3.0438	-3.2438	-3.3021	-2.9125	-3.4333	-3.1104	-3.0708	-3.4375	-3.2104	106.401	62.953	-107.819	43.601	-42.193	229.353	182.447	221.924	-69.598	-49.797	44.891	-128.924	74.983	224.103	-117.888	139.135	0.00045347	0.00079833	0.00014267	697.56	1.3083e-05	4.7194e-06	638.58	236.56	2.0174e-05	1.1134e-05	226.1	71.817	82.401	36.344	1.2357e-05	34.814	0.0071582	0.011842	0.0033358	739.67	0.00012577	0.00013149	604.42	225.47	0.00011619	0.00013201	225.22	70.537	79.525	34.951	0.00011838	33.971	8.086	-39.663	208.473	-117.484	-60.989	-98.457	-118.600	-112.430	69.666	40.271	-114.525	-110.987	-108.862	-103.792	109.941	-108.296	-8191	255	
1428.890	1	1	0	0	0.12323	0.24743	0.14362	0.12987	0.074514	0.066194	0.11293	0.11498	0.19066	0.15199	0.16327	0.25825	0.033427	0.32425	0.18317	0.14436	-2.8625	-3.1292	-2.9583	-3.4396	-3.35	-3.1125	-3.6521	-3.1604	-3.1292	-3.4271	-3.0021	-3.4437	-3.2875	-2.9313	-3.4104	-3.1771	-109.198	-37.322	-29.980	-56.105	161.537	-124.206	-60.117	145.383	-91.116	72.399	-70.290	211.457	21.124	225.820	69.975	72.232	0.00031302	0.001142	0.00010375	665.54	1.2837e-05	1.9243e-06	610.61	236.39	4.0692e-06	5.7679e-06	231.17	76.128	88.674	39.436	1.1023e-05	38.2	0.00691	0.011398	0.0032391	709.01	0.00012073	0.00012681	580.57	223.25	0.00010829	0.00012177	228.59	73.339	84.236	37.504	0.00010855	36.967	-36.941	-60.192	-112.057	-117.370	90.569	-99.133	-118.843	-112.320	155.062	147.254	-115.388	-110.882	-109.064	-103.992	-39.017	-108.351	-8191	255	
1429.009	1	1	0	0	0.10281	0.19956	0.29209	0.15687	0.23811	0.15422	0.22103	0.10032	0.11441	0.15223	0.0956	0.18464	0.23192	0.29927	0.19602	0.10145	-2.7438	-3.325	-2.9	-3.4062	-3.3271	-3.1292	-3.4813	-3.1979	-3.0792	-3.4313	-2.8792	-3.4125	-3.5208	-2.9479	-3.2917	-3.2229	-96.541	110.756	42.244	-72.781	0.263	170.562	88.646	-13.308	-86.131	229.596	11.771	133.264	56.444	184.818	98.518	-80.180	0.00032384	0.00028815	9.2863e-05	686.9	6.1243e-06	3.2551e-06	657.77	255.83	1.0653e-05	5.6895e-06	256.26	83.756	97.356	43.318	7.4783e-06	41.532	0.0063607	0.010501	0.002943	724.66	0.00011145	0.00011712	620.05	240.74	0.00010146	0.00011637	248.31	80.386	91.767	40.975	0.00010159	39.667	-53.285	38.928	217.689	-118.131	64.857	154.074	-118.913	-112.328	-45.452	175.351	-114.604	-111.188	-108.657	-104.176	191.206	-108.305	-8191	255	
#DATA ENDS
