BOXY.EXE: ISS Imagent and Oximeter Data Acquisition Program Version 0.80
Ascii Record File

#ACQ INFORMATION
2  Detector Channels 
16  External MUX Channels 
1  Auxiliary Channels 
5000  Waveform (CCF) Frequency (Hz)
1  Waveforms Skipped 
30  Waveforms Averaged 
1  Cycles Averaged 
16  Acquisitions per Waveform 
10.0806  Updata Rate (Hz) 

#FILE INFORMATION
TRUE -- External MUX Channel results are PARSED.
FALSE -- AC DC and Phase are NOT grouped.
TRUE -- Companion Program Settings File CREATED.
FALSE -- AC data not excluded
FALSE -- DC data not excluded
FALSE -- Phase data not excluded
FALSE -- Auxillary Chn. data not excluded
Tab delimiters

#CALIBRATION STATE
TRUE -- Waveform Calibration Values APPLIED.


#AUX CALIBRATION VALUES
Val Type	aux-1	

Term	1.0000e+00	
Factor	0.0000e+00	


#WF CALIBRATION VALUES
A = Detector Channel
Val Type	A-AC1	A-AC2	A-AC3	A-AC4	A-AC5	A-AC6	A-AC7	A-AC8	A-AC9	A-AC10	A-AC11	A-AC12	A-AC13	A-AC14	A-AC15	A-AC16	A-DC1	A-DC2	A-DC3	A-DC4	A-DC5	A-DC6	A-DC7	A-DC8	A-DC9	A-DC10	A-DC11	A-DC12	A-DC13	A-DC14	A-DC15	A-DC16	A-Ph1	A-Ph2	A-Ph3	A-Ph4	A-Ph5	A-Ph6	A-Ph7	A-Ph8	A-Ph9	A-Ph10	A-Ph11	A-Ph12	A-Ph13	A-Ph14	A-Ph15	A-Ph16	

Term	0.00000e+00	0.00000e+00	0.00000e+00	0.00000e+00	0.00000e+00	0.00000e+00	0.00000e+00	0.00000e+00	0.00000e+00	0.00000e+00	0.00000e+00	0.00000e+00	0.00000e+00	0.00000e+00	0.00000e+00	0.00000e+00	0.00000e+00	0.00000e+00	0.00000e+00	0.00000e+00	0.00000e+00	0.00000e+00	0.00000e+00	0.00000e+00	0.00000e+00	0.00000e+00	0.00000e+00	0.00000e+00	0.00000e+00	0.00000e+00	0.00000e+00	0.00000e+00	0.00000e+00	0.00000e+00	0.00000e+00	0.00000e+00	0.00000e+00	0.00000e+00	0.00000e+00	0.00000e+00	0.00000e+00	0.00000e+00	0.00000e+00	0.00000e+00	0.00000e+00	0.00000e+00	0.00000e+00	0.00000e+00	
Factor	1.00000e+00	1.00000e+00	1.00000e+00	1.00000e+00	1.00000e+00	1.00000e+00	1.00000e+00	1.00000e+00	1.00000e+00	1.00000e+00	1.00000e+00	1.00000e+00	1.00000e+00	1.00000e+00	1.00000e+00	1.00000e+00	1.00000e+00	1.00000e+00	1.00000e+00	1.00000e+00	1.00000e+00	1.00000e+00	1.00000e+00	1.00000e+00	1.00000e+00	1.00000e+00	1.00000e+00	1.00000e+00	1.00000e+00	1.00000e+00	1.00000e+00	1.00000e+00	X	X	X	X	X	X	X	X	X	X	X	X	X	X	X	X	

B = Detector Channel
Val Type	B-AC1	B-AC2	B-AC3	B-AC4	B-AC5	B-AC6	B-AC7	B-AC8	B-AC9	B-AC10	B-AC11	B-AC12	B-AC13	B-AC14	B-AC15	B-AC16	B-DC1	B-DC2	B-DC3	B-DC4	B-DC5	B-DC6	B-DC7	B-DC8	B-DC9	B-DC10	B-DC11	B-DC12	B-DC13	B-DC14	B-DC15	B-DC16	B-Ph1	B-Ph2	B-Ph3	B-Ph4	B-Ph5	B-Ph6	B-Ph7	B-Ph8	B-Ph9	B-Ph10	B-Ph11	B-Ph12	B-Ph13	B-Ph14	B-Ph15	B-Ph16	

Term	0.00000e+00	0.00000e+00	0.00000e+00	0.00000e+00	0.00000e+00	0.00000e+00	0.00000e+00	0.00000e+00	0.00000e+00	0.00000e+00	0.00000e+00	0.00000e+00	0.00000e+00	0.00000e+00	0.00000e+00	0.00000e+00	0.00000e+00	0.00000e+00	0.00000e+00	0.00000e+00	0.00000e+00	0.00000e+00	0.00000e+00	0.00000e+00	0.00000e+00	0.00000e+00	0.00000e+00	0.00000e+00	0.00000e+00	0.00000e+00	0.00000e+00	0.00000e+00	5.32887e+00	-1.29929e+02	-1.28731e+02	-1.84746e+02	-7.04180e+01	-6.91937e+01	-1.57922e+02	-1.62015e+02	-2.77445e+01	-6.81129e+01	-1.79083e+02	-1.70094e+02	-1.79662e+02	-1.77090e+02	-5.99893e+01	-1.50031e+02	
Factor	3.72528e-05	1.74124e-04	4.89623e-05	5.67296e-01	1.96177e-06	1.72426e-06	1.76438e-01	6.39805e-02	2.34682e-06	1.97558e-06	1.09870e-01	2.83453e-02	2.58785e-02	9.19466e-03	2.23646e-06	1.37262e-02	1.53627e-05	2.58478e-05	7.28226e-06	2.83297e-01	2.78559e-07	2.92575e-07	8.32134e-02	3.23121e-02	2.55711e-07	2.93603e-07	5.34728e-02	1.39108e-02	1.31685e-02	4.70685e-03	2.66657e-07	6.77598e-03	X	X	X	X	X	X	X	X	X	X	X	X	X	X	X	X	



#DISTANCE SETTINGS
A = Detector Channel
A-1	A-2	A-3	A-4	A-5	A-6	A-7	A-8	A-9	A-10	A-11	A-12	A-13	A-14	A-15	A-16	

2.5000e+00	3.0000e+00	2.5000e+00	3.0000e+00	2.0000e+00	3.0000e+00	1.5000e+00	3.0000e+00	3.0000e+00	3.0000e+00	3.0000e+00	3.0000e+00	3.0000e+00	3.0000e+00	1.5000e+00	3.0000e+00	

B = Detector Channel
B-1	B-2	B-3	B-4	B-5	B-6	B-7	B-8	B-9	B-10	B-11	B-12	B-13	B-14	B-15	B-16	

1.0000e+01	1.0000e+01	1.0000e+01	1.4400e+00	1.0000e+01	1.0000e+01	1.5100e+00	1.9400e+00	1.0000e+01	1.0000e+01	1.9900e+00	2.4900e+00	2.4100e+00	2.9000e+00	1.0000e+01	2.9800e+00	




#DATA BEGINS
time	group	step	mark	flag	A-AC1	A-AC2	A-AC3	A-AC4	A-AC5	A-AC6	A-AC7	A-AC8	A-AC9	A-AC10	A-AC11	A-AC12	A-AC13	A-AC14	A-AC15	A-AC16	A-DC1	A-DC2	A-DC3	A-DC4	A-DC5	A-DC6	A-DC7	A-DC8	A-DC9	A-DC10	A-DC11	A-DC12	A-DC13	A-DC14	A-DC15	A-DC16	A-Ph1	A-Ph2	A-Ph3	A-Ph4	A-Ph5	A-Ph6	A-Ph7	A-Ph8	A-Ph9	A-Ph10	A-Ph11	A-Ph12	A-Ph13	A-Ph14	A-Ph15	A-Ph16	B-AC1	B-AC2	B-AC3	B-AC4	B-AC5	B-AC6	B-AC7	B-AC8	B-AC9	B-AC10	B-AC11	B-AC12	B-AC13	B-AC14	B-AC15	B-AC16	B-DC1	B-DC2	B-DC3	B-DC4	B-DC5	B-DC6	B-DC7	B-DC8	B-DC9	B-DC10	B-DC11	B-DC12	B-DC13	B-DC14	B-DC15	B-DC16	B-Ph1	B-Ph2	B-Ph3	B-Ph4	B-Ph5	B-Ph6	B-Ph7	B-Ph8	B-Ph9	B-Ph10	B-Ph11	B-Ph12	B-Ph13	B-Ph14	B-Ph15	B-Ph16	aux-1	digaux	

653.274	1	1	0	256	0.01604	0.18356	0.17642	0.17267	0.10122	0.13333	0.30402	0.18953	0.17657	0.10229	0.24367	0.14233	0.15798	0.11915	0.17512	0.068268	-3.4917	-3.4125	-3.4667	-3.7458	-3.3875	-3.6896	-3.8854	-3.4188	-3.7333	-3.4854	-3.6958	-3.975	-3.2687	-3.6562	-3.5979	-3.2167	346.574	371.349	463.260	172.636	491.811	284.176	420.744	480.660	268.403	487.594	449.901	434.277	135.647	492.182	381.618	164.273	0.00067574	0.00023698	8.2109e-05	1208.1	4.3665e-06	3.4109e-06	1275.9	254.58	6.9513e-06	2.2136e-06	314.2	87.718	68.648	19.615	4.515e-06	27.81	0.00039351	0.00034561	0.00010361	1194.3	4.082e-06	4.1338e-06	1259.8	252.74	4.1169e-06	4.2432e-06	314.95	87.666	68.649	19.955	4.111e-06	28.422	322.209	243.208	201.761	143.908	300.473	286.860	143.709	151.134	303.836	290.306	150.841	157.394	157.743	164.698	298.374	163.826	-8191	255	
653.371	1	1	0	0	0.044895	0.17304	0.17316	0.099966	0.14753	0.23053	0.29074	0.11024	0.12564	0.1335	0.17538	0.1541	0.081798	0.16005	0.15757	0.22379	-3.2896	-3.4	-3.4729	-3.9188	-3.1937	-3.5354	-3.9667	-3.2729	-3.6833	-3.7	-3.2708	-3.9625	-3.3937	-3.5896	-3.7354	-3.3042	217.353	145.701	337.245	329.055	151.804	268.918	403.623	243.190	156.847	484.780	416.956	296.098	200.810	462.018	407.055	395.155	0.0006521	0.00030109	9.7022e-05	1207.5	3.211e-06	2.9986e-06	1276.9	253.98	5.125e-06	3.8403e-06	313.37	87.787	68.535	19.556	3.5584e-06	27.787	0.00040871	0.00040296	0.00010952	1200.9	4.3095e-06	4.093e-06	1267.9	253.56	4.0072e-06	3.9857e-06	315.34	87.981	68.854	20.024	3.6765e-06	28.456	323.850	218.978	230.734	144.121	257.158	301.815	143.976	151.046	298.898	286.278	150.608	157.310	157.454	165.116	294.888	164.158	-8191	255	
653.491	1	1	0	0	0.26457	0.1158	0.27381	0.20289	0.14654	0.040403	0.4609	0.11016	0.24719	0.15377	0.13597	0.085016	0.040092	0.09091	0.11781	0.036456	-3.2417	-3.5229	-3.3396	-3.7417	-3.5125	-3.5604	-3.7521	-3.4229	-3.6146	-3.7396	-3.2313	-3.8792	-3.3479	-3.5604	-3.825	-3.3542	488.998	201.820	303.599	397.580	348.709	307.404	436.849	451.457	155.552	138.890	489.974	484.608	420.170	270.626	274.381	434.125	0.00067511	0.00031737	8.1824e-05	1203.7	3.3101e-06	2.5618e-06	1276.2	255.03	7.2969e-06	1.8949e-06	314.62	87.496	69.333	19.781	2.2982e-06	27.951	0.0004105	0.00037549	0.00010277	1200.2	4.0867e-06	4.0643e-06	1263.7	253.92	4.2283e-06	4.1374e-06	316.09	87.995	69.112	20.085	3.8004e-06	28.513	323.047	252.771	228.272	143.967	280.529	296.636	143.969	151.282	313.495	277.948	150.816	157.305	157.693	164.662	311.738	164.213	-8191	255	
653.586	1	1	0	0	0.029318	0.098314	0.17358	0.21713	0.25216	0.20069	0.20911	0.15753	0.22804	0.10152	0.15165	0.035954	0.033708	0.17319	0.064446	0.23452	-3.4062	-3.6437	-3.0938	-3.825	-3.4	-3.4	-4.0104	-3.3583	-3.6063	-3.6125	-3.4229	-3.8187	-3.6312	-3.2521	-3.75	-3.2708	187.950	453.082	343.436	446.654	169.985	253.309	408.834	425.970	298.240	375.842	462.487	306.691	324.040	214.514	409.857	488.584	0.00066272	0.00021391	4.9994e-05	1210.4	2.5012e-06	1.3573e-06	1283.4	257.12	5.1953e-06	4.4086e-06	318.05	88.846	69.78	20.105	2.7417e-06	28.344	0.00041614	0.00036602	0.00010335	1205.5	4.2643e-06	4.3959e-06	1273.1	255.82	4.639e-06	4.7564e-06	318.76	89.046	70.013	20.458	4.7293e-06	28.947	317.077	206.615	225.513	143.768	303.559	230.455	143.886	151.001	322.101	274.659	150.726	157.346	157.769	164.603	267.500	163.815	-8191	255	
653.682	1	1	0	0	0.065461	0.20111	0.28334	0.24518	0.083008	0.14276	0.16817	0.30074	0.13096	0.12216	0.26504	0.14348	0.17442	0.20608	0.25301	0.18414	-3.2583	-3.8229	-3.1354	-3.7021	-3.6979	-3.3208	-4.0188	-3.4208	-3.6021	-3.7208	-3.3125	-3.8125	-3.6771	-3.0833	-3.8271	-3.4792	407.680	445.317	492.212	189.841	424.025	409.045	351.654	417.820	491.606	234.801	410.609	420.620	445.806	386.639	412.177	185.836	0.00064607	0.00021491	0.00011194	1238.7	3.6852e-06	2.758e-06	1306.2	259.59	8.5894e-06	3.6471e-06	323.53	89.99	70.722	20.187	4.5411e-06	28.705	0.00046411	0.00045487	0.00013537	1226.3	5.328e-06	5.2493e-06	1293.9	259.57	4.8969e-06	4.9711e-06	323.67	90.024	70.898	20.608	4.4682e-06	29.2	321.559	234.066	214.963	143.828	256.439	281.646	143.699	151.300	338.513	300.567	150.466	157.300	157.377	164.546	308.759	163.800	-8191	255	
653.755	1	1	0	0	0.05584	0.12942	0.1186	0.11793	0.24276	0.092776	0.10176	0.19235	0.10367	0.1095	0.31625	0.32152	0.10708	0.14379	0.038294	0.34633	-3.1021	-3.7083	-3.25	-3.7604	-3.6542	-3.2771	-3.7625	-3.4104	-3.3479	-3.7438	-3.4	-3.5979	-3.725	-3.3042	-3.6937	-3.5438	334.299	412.072	234.314	169.286	427.115	462.091	462.988	488.490	334.692	231.221	438.563	462.751	164.428	401.348	200.316	335.723	0.00064313	0.00019726	9.8836e-05	1239.1	4.123e-06	2.1755e-06	1311.7	260.42	5.8709e-06	3.0797e-06	320.96	89.571	70.497	20.099	5.9893e-06	28.497	0.00043396	0.00040317	0.00010936	1231.9	4.5161e-06	4.4258e-06	1295.8	259.34	4.3402e-06	4.4383e-06	322.85	89.89	70.647	20.613	4.0065e-06	29.242	320.517	205.679	257.132	143.976	284.385	296.661	143.743	151.364	306.217	290.347	150.814	157.494	157.610	164.925	292.396	164.057	-8191	255	
653.874	1	1	0	0	0.35347	0.27821	0.041255	0.17523	0.076304	0.082103	0.29	0.060095	0.042515	0.13194	0.2683	0.18493	0.20149	0.21396	0.13889	0.13423	-3.0229	-3.8729	-3.2021	-3.5208	-3.6792	-3.3167	-3.9271	-3.7542	-3.4042	-3.8187	-3.5646	-3.5708	-3.7562	-3.1271	-3.8312	-3.5646	429.399	474.724	204.095	456.572	487.163	319.209	449.961	386.010	356.308	212.083	458.186	369.772	147.149	463.418	226.146	174.585	0.00064588	0.00032671	0.00010051	1237.1	2.7524e-06	3.1669e-06	1306.6	261.18	8.6093e-06	4.6092e-06	323.17	89.52	70.933	20.326	3.6704e-06	28.651	0.000409	0.00034798	0.00010869	1229.1	3.8795e-06	3.9997e-06	1296.3	260.57	4.0338e-06	3.5606e-06	322.75	90.156	70.933	20.717	3.4954e-06	29.279	320.313	240.886	209.903	144.028	267.429	303.997	143.797	151.121	319.310	297.241	150.561	157.237	157.542	164.628	291.610	163.884	-8191	255	
653.970	1	1	0	0	0.10801	0.11125	0.16174	0.14807	0.18448	0.1407	0.45604	0.21618	0.26088	0.11555	0.254	0.14995	0.17714	0.083902	0.14263	0.28421	-3.1021	-3.8604	-3.1854	-3.5563	-3.7313	-3.2771	-3.7479	-3.6021	-3.2021	-3.8708	-3.5	-3.3354	-3.8146	-3.1583	-3.5917	-3.7	455.421	420.850	391.782	375.769	153.281	175.664	473.060	189.018	179.027	263.847	486.658	490.758	455.321	251.299	435.008	409.547	0.00063639	0.00036167	7.6765e-05	1232.7	3.7883e-06	1.9276e-06	1300.2	259.53	5.7423e-06	3.3701e-06	322.28	89.739	70.464	20.177	4.5553e-06	28.263	0.00036893	0.00030834	8.8571e-05	1226	3.4448e-06	3.6322e-06	1288.6	258.73	3.5656e-06	3.2957e-06	322.32	89.854	70.457	20.596	3.2227e-06	29.05	323.071	214.636	244.582	143.874	279.926	299.436	143.780	150.973	301.796	301.578	150.606	157.332	157.422	165.003	293.137	164.003	-8191	255	
654.066	1	1	0	0	0.09042	0.26983	0.19281	0.17532	0.13566	0.18179	0.26328	0.088671	0.079139	0.32189	0.30286	0.050737	0.28386	0.2489	0.14874	0.16146	-2.7292	-3.625	-3.4875	-3.4917	-3.9792	-3.4062	-3.6458	-3.6417	-3.1583	-3.7313	-3.6125	-3.3604	-3.8563	-3.3896	-3.6521	-3.8833	468.201	248.726	486.169	454.757	216.560	208.569	419.347	163.140	406.671	329.234	471.166	308.953	144.117	429.996	161.403	453.932	0.00060302	0.00021488	8.529e-05	1229.1	4.4121e-06	3.5548e-06	1289.8	258.4	5.8407e-06	4.5864e-06	320.6	89.04	70.231	20.13	4.0569e-06	28.396	0.00037063	0.00029256	8.6902e-05	1221.1	3.3363e-06	3.4243e-06	1283.3	258.02	3.5331e-06	3.3257e-06	321.21	89.114	70.032	20.41	3.4554e-06	28.894	321.965	243.198	238.275	143.719	256.711	298.306	143.866	151.173	310.404	265.318	150.368	157.618	157.623	164.591	286.019	164.114	-8191	255	
654.162	1	1	0	0	0.12641	0.21392	0.15876	0.11822	0.11564	0.094053	0.30437	0.19715	0.13317	0.12172	0.26356	0.094112	0.095239	0.088598	0.054506	0.12803	-2.8187	-3.5854	-3.3917	-3.325	-3.8167	-3.4167	-3.6604	-3.8063	-3.2229	-3.6583	-3.4771	-3.2979	-3.8438	-3.4271	-3.4396	-3.6771	408.134	402.080	461.366	155.661	381.680	440.186	176.771	188.236	402.385	285.402	405.758	488.370	302.718	451.764	219.101	375.828	0.00065475	0.00026552	0.00010235	1226.2	4.5279e-06	2.2722e-06	1288.7	257.32	4.6648e-06	2.5125e-06	318.52	88.282	69.686	19.785	4.7445e-06	28.008	0.00037053	0.00030527	8.675e-05	1214.3	3.4576e-06	3.4067e-06	1276.9	256.13	3.808e-06	3.4254e-06	318.36	88.665	69.474	20.226	3.4738e-06	28.587	319.592	242.616	231.524	143.908	267.581	258.611	143.839	151.095	300.839	285.784	150.621	157.201	157.657	164.674	315.368	164.058	-8191	255	
654.283	1	1	0	0	0.134	0.088034	0.21103	0.089712	0.16751	0.052533	0.16574	0.24204	0.094871	0.1893	0.15833	0.11354	0.16874	0.11492	0.38705	0.2199	-2.8604	-3.6292	-3.6521	-3.1896	-3.7479	-3.4146	-3.5021	-3.6854	-3.375	-3.6771	-3.7708	-3.2875	-3.9146	-3.4688	-3.3312	-3.7917	446.950	266.723	476.357	438.965	244.536	278.902	433.959	445.109	345.651	334.583	156.746	161.398	376.124	362.657	472.455	456.676	0.00066732	0.00029061	5.4336e-05	1210.9	3.8419e-06	2.2065e-06	1266.3	255.03	5.391e-06	2.5897e-06	316.5	87.906	69.015	19.679	4.4291e-06	28.076	0.00038493	0.00030926	8.5202e-05	1198.6	3.4866e-06	3.4506e-06	1261.9	253.7	3.6503e-06	3.3899e-06	316.43	87.991	68.922	20.025	3.4449e-06	28.524	321.138	228.313	261.747	143.736	265.710	324.678	143.990	150.955	323.136	293.321	150.921	157.465	157.918	164.777	293.137	163.646	-8191	255	
654.355	1	1	0	0	0.10854	0.090786	0.043654	0.11067	0.2343	0.033732	0.20327	0.15369	0.16566	0.086066	0.30994	0.096204	0.24405	0.17021	0.24602	0.21871	-2.7146	-3.5438	-3.6333	-3.1604	-3.8187	-3.4396	-3.4167	-3.9479	-3.3396	-3.6375	-3.875	-3.2646	-3.5875	-3.5042	-3.4021	-3.95	274.239	206.440	372.458	306.005	342.539	341.935	460.324	429.124	479.114	365.832	414.844	250.528	354.613	430.420	456.620	347.129	0.00064268	0.00021759	9.0397e-05	1210.9	4.4063e-06	3.5504e-06	1269.7	254.11	4.7601e-06	3.1111e-06	315.08	87.291	68.632	19.634	5.0079e-06	27.812	0.00038663	0.00034028	8.2775e-05	1195.2	3.6189e-06	3.8352e-06	1256.2	252.77	3.7584e-06	3.9147e-06	315.01	87.565	68.722	20.022	3.7749e-06	28.487	323.776	227.050	215.880	144.087	285.425	275.730	143.874	151.362	326.531	296.437	150.649	157.266	157.930	164.872	293.753	164.124	-8191	255	
654.451	1	1	0	0	0.14639	0.080056	0.10719	0.13713	0.13039	0.18135	0.1305	0.13039	0.1319	0.22094	0.10704	0.12453	0.082316	0.25169	0.089738	0.14955	-2.9354	-3.4979	-3.7042	-3.2854	-3.7729	-3.6979	-3.4854	-3.7833	-3.3833	-3.5438	-3.8146	-3.1979	-3.5333	-3.7313	-3.4583	-3.8333	292.472	363.721	490.917	249.664	345.313	436.127	451.799	393.104	297.696	375.506	488.429	357.811	307.415	411.540	393.687	410.912	0.00060727	0.0001998	0.00011306	1202.3	5.3031e-06	3.493e-06	1268.1	255.04	6.6319e-06	3.0344e-06	313.81	87.769	69.151	19.631	3.7055e-06	28.11	0.00039297	0.00033608	9.2576e-05	1191.7	3.7861e-06	4.107e-06	1256.3	253.01	3.7893e-06	3.8254e-06	315.18	87.888	68.972	20.061	3.7565e-06	28.567	321.622	204.398	213.670	144.050	268.649	301.312	144.008	151.290	328.390	306.267	150.898	157.431	157.903	164.941	261.255	164.160	-8191	255	
654.572	1	1	0	0	0.12932	0.16983	0.061724	0.25413	0.31447	0.29092	0.17631	0.21885	0.12216	0.24057	0.088761	0.0861	0.056588	0.12383	0.040029	0.11971	-3.1708	-3.4854	-3.7146	-3.2896	-3.7021	-3.6396	-3.3271	-3.8521	-3.5146	-3.45	-3.9979	-3.3604	-3.8458	-3.7979	-3.3771	-3.8812	186.792	421.593	265.154	423.941	337.785	386.420	418.688	399.964	239.624	403.639	254.028	210.644	471.491	430.484	154.004	458.585	0.00067413	0.00037009	8.5243e-05	1206	4.0392e-06	2.9224e-06	1272	252.61	5.9422e-06	3.0879e-06	317.1	87.404	68.853	19.8	4.8788e-06	28.189	0.00038503	0.00034464	9.3501e-05	1197.4	3.8923e-06	3.6511e-06	1263.1	253.13	3.947e-06	3.7863e-06	316.59	87.931	68.788	20.149	3.851e-06	28.711	320.732	215.591	232.851	144.350	293.600	306.492	143.967	151.248	324.375	302.725	150.668	157.364	157.653	164.698	270.679	163.893	-8191	255	
654.666	1	1	0	0	0.19649	0.1406	0.059284	0.079354	0.13841	0.071757	0.38677	0.17215	0.23624	0.10076	0.10992	0.22108	0.073408	0.14854	0.18911	0.18461	-3.2562	-3.4125	-3.6188	-3.5604	-3.5667	-3.7479	-3.4771	-3.7792	-3.6167	-3.2521	-3.9125	-3.5167	-3.5083	-3.7229	-3.2646	-3.7417	241.784	304.569	437.997	302.122	310.910	348.852	399.724	334.934	315.933	287.341	274.385	447.931	391.173	236.948	275.445	449.735	0.00059629	0.00048076	7.9695e-05	1201.7	4.5927e-06	3.5369e-06	1273	256.08	6.4086e-06	3.7064e-06	316.01	87.311	68.944	19.87	4.2938e-06	28.108	0.0003848	0.00035605	9.1453e-05	1197.3	3.8313e-06	3.6285e-06	1263.6	254.24	3.8128e-06	4.1019e-06	317.13	88.054	69.209	20.217	3.9137e-06	28.671	324.427	202.504	221.090	143.689	264.343	271.900	143.885	150.931	312.666	279.742	150.305	157.445	157.806	164.985	270.356	164.229	-8191	255	
654.764	1	1	0	0	0.094847	0.14753	0.11103	0.091345	0.157	0.21772	0.12081	0.12392	0.05254	0.24086	0.14172	0.11308	0.096695	0.070834	0.14071	0.16016	-3.2333	-3.3375	-3.7729	-3.45	-3.5604	-3.7646	-3.475	-3.7313	-3.5833	-3.3708	-3.8937	-3.5938	-3.5687	-3.8979	-3.2958	-3.6708	363.307	184.263	354.896	433.622	243.459	163.261	402.485	427.791	140.457	418.018	194.025	431.035	460.208	159.077	420.603	188.765	0.00067138	0.00042865	6.5361e-05	1217.8	4.2373e-06	1.6368e-06	1281.3	256.17	6.0803e-06	3.6332e-06	316.34	88.293	69.121	19.87	3.7798e-06	28.089	0.00039418	0.00036618	9.3107e-05	1204.5	3.9904e-06	3.8004e-06	1269	254.99	3.995e-06	3.9539e-06	316.94	88.458	69.354	20.291	4.0671e-06	28.761	323.275	225.580	245.279	144.019	296.101	308.400	143.993	151.391	340.063	298.128	150.496	157.288	157.757	164.687	261.329	163.899	-8191	255	
654.883	1	1	0	0	0.10507	0.11416	0.11185	0.061357	0.24085	0.084941	0.18118	0.030538	0.24244	0.065675	0.3324	0.077171	0.079124	0.24888	0.11489	0.24165	-3.3417	-3.3	-3.7542	-3.5938	-3.5896	-3.8333	-3.4354	-3.675	-3.55	-3.2792	-3.8187	-3.7146	-3.4146	-3.9333	-3.4417	-3.6042	323.489	211.893	226.404	207.705	152.014	254.242	436.071	226.557	346.833	274.653	209.158	247.935	213.460	336.484	289.911	369.553	0.00062701	0.00029218	7.6451e-05	1211.4	4.145e-06	2.1225e-06	1286.1	257.02	5.5012e-06	3.6321e-06	319.86	88.419	69.308	19.923	1.9594e-06	28.058	0.00039901	0.00038115	0.00010347	1207.9	4.2457e-06	4.029e-06	1277.2	255.63	4.0845e-06	4.2878e-06	319.12	88.791	69.684	20.298	4.186e-06	28.785	322.802	224.046	217.996	143.604	274.588	300.640	143.705	151.462	316.265	280.718	150.679	157.450	157.723	164.687	284.045	164.234	-8191	255	
654.979	1	1	0	0	0.14013	0.24497	0.1213	0.27704	0.13371	0.20282	0.26609	0.1413	0.20251	0.11995	0.10549	0.28754	0.22637	0.17969	0.20088	0.071559	-3.4417	-3.4437	-3.7313	-3.675	-3.3333	-3.7313	-3.6188	-3.7917	-3.8563	-3.3292	-3.6937	-3.9646	-3.4771	-3.9583	-3.4646	-3.5062	386.899	436.174	155.858	425.311	454.243	413.471	473.478	172.912	433.188	185.365	467.355	371.202	197.546	182.547	204.804	164.360	0.00061163	0.00037884	9.2422e-05	1228.7	2.3143e-06	1.9203e-06	1293.5	258.67	6.7348e-06	2.6164e-06	319.05	88.7	69.892	20.003	3.458e-06	28.344	0.00042363	0.00041976	0.00011013	1215.5	4.5196e-06	4.3917e-06	1283.5	257.58	4.2368e-06	4.6151e-06	319.65	89.243	69.933	20.453	4.3776e-06	28.937	320.806	236.083	226.897	143.622	243.976	305.798	143.929	151.299	318.930	311.111	150.646	157.402	157.052	164.088	297.408	164.174	-8191	255	
655.051	1	1	0	0	0.26399	0.087302	0.24422	0.17486	0.040319	0.046906	0.28973	0.090092	0.30121	0.17205	0.11372	0.28958	0.24111	0.34671	0.18294	0.12973	-3.5583	-3.2396	-3.5312	-3.6271	-3.3521	-3.9562	-3.7479	-3.6542	-3.85	-3.2917	-3.8875	-3.7167	-3.3354	-3.7667	-3.4792	-3.5354	360.488	350.688	422.507	389.631	393.018	194.297	381.566	384.757	142.122	270.594	489.561	173.936	192.751	134.997	280.355	135.684	0.00064318	0.00020788	6.5344e-05	1228.6	5.4914e-06	4.1129e-06	1300.5	259.83	6.4647e-06	4.807e-06	319.7	89.226	70.763	20.296	4.2689e-06	28.374	0.00043953	0.00042191	0.0001168	1221.3	4.9241e-06	4.7574e-06	1290.1	258.7	4.5847e-06	4.8255e-06	321.58	89.696	70.625	20.613	4.8554e-06	29.101	324.816	214.678	204.360	143.947	280.279	231.157	143.902	151.386	325.837	284.602	150.714	157.333	157.828	164.433	293.706	163.980	-8191	255	
655.171	1	1	0	0	0.084378	0.15815	0.21556	0.1382	0.12557	0.15633	0.23941	0.2009	0.044343	0.078717	0.12826	0.19795	0.14438	0.20972	0.2098	0.10713	-3.5687	-3.4625	-3.4167	-3.925	-3.3771	-3.6875	-3.7687	-3.4625	-3.85	-3.2583	-3.5354	-3.7	-3.2375	-3.7812	-3.5208	-3.4188	421.103	412.508	393.710	450.056	216.739	487.334	422.940	427.844	219.310	268.869	246.288	430.093	218.823	171.510	179.487	365.863	0.0006541	0.00029553	0.00010254	1243	2.9822e-06	4.51e-06	1308	260.96	7.5942e-06	4.9079e-06	322.9	89.543	70.655	20.308	5.1857e-06	28.552	0.00045323	0.00045659	0.00011861	1230.6	5.0564e-06	5.0689e-06	1295.7	259.94	4.9118e-06	5.2194e-06	323.5	90.111	70.886	20.691	4.9781e-06	29.24	321.857	218.396	221.532	143.857	283.359	289.158	143.898	151.279	341.205	261.549	150.728	157.042	157.505	165.034	306.782	163.610	-8191	255	
655.267	1	1	0	0	0.10696	0.2308	0.26069	0.16616	0.28741	0.20566	0.24157	0.18083	0.11463	0.23188	0.14078	0.22182	0.21336	0.23337	0.01518	0.048074	-3.4604	-3.3104	-3.5042	-3.7208	-3.2875	-3.7438	-3.8083	-3.4813	-3.9479	-3.4542	-3.725	-3.8271	-3.4813	-3.8021	-3.7833	-3.4813	461.005	184.575	252.820	134.655	209.577	255.993	433.841	341.271	261.285	295.862	275.745	249.181	454.664	360.394	355.878	239.287	0.00064945	0.00028231	9.3251e-05	1242.4	4.2776e-06	3.2962e-06	1310	261.39	5.215e-06	3.8508e-06	323.26	90.28	71.27	20.438	3.1154e-06	28.764	0.00045605	0.0004469	0.00012248	1235	5.2532e-06	4.9451e-06	1298.6	260.76	4.9214e-06	5.272e-06	323.95	90.379	71.147	20.742	4.9776e-06	29.293	322.671	201.469	206.031	143.487	264.460	263.288	144.014	151.129	319.059	257.502	150.711	157.129	157.748	164.526	302.600	164.174	-8191	255	
655.363	1	1	0	0	0.18732	0.28754	0.07728	0.072353	0.093174	0.19843	0.19428	0.10552	0.072924	0.10433	0.024276	0.14089	0.14289	0.21291	0.1251	0.076225	-3.3812	-3.5	-3.4583	-3.9062	-3.5208	-3.7583	-3.8646	-3.3271	-3.7938	-3.55	-3.675	-3.9813	-3.3917	-3.7146	-3.8542	-3.4792	300.478	340.685	348.014	282.842	147.561	273.610	435.904	139.836	379.036	425.621	407.815	404.215	166.067	488.710	390.027	431.245	0.00063008	0.0004265	8.3851e-05	1250.6	3.9651e-06	4.7091e-06	1311.9	262.25	6.0468e-06	2.5835e-06	321.49	89.336	70.917	20.449	4.9705e-06	28.59	0.00044411	0.00045077	0.00013135	1236.4	5.1069e-06	5.3596e-06	1298.7	261.04	5.0471e-06	5.1399e-06	324.43	90.202	71.196	20.815	4.9515e-06	29.389	320.040	228.077	254.068	144.197	269.455	262.819	143.794	151.178	299.040	280.115	150.520	157.410	157.675	164.463	279.387	163.745	-8191	255	
655.460	1	1	0	0	0.23962	0.070254	0.096597	0.20106	0.060432	0.15668	0.19003	0.27752	0.12986	0.18218	0.1924	0.14413	0.14816	0.24125	0.15239	0.22408	-3.4958	-3.7313	-3.6021	-3.8521	-3.5292	-3.5875	-3.9167	-3.5958	-3.8542	-3.6896	-3.4729	-3.8688	-3.45	-3.525	-3.9125	-3.25	468.709	146.782	310.973	242.084	399.065	350.792	439.752	469.672	460.057	176.827	204.959	440.279	466.714	157.265	412.846	174.430	0.00063357	0.00015655	0.00012016	1244.2	3.9545e-06	2.1526e-06	1315.2	263.33	6.9829e-06	4.9797e-06	322.67	90.414	71.566	20.589	2.4432e-06	28.674	0.0004781	0.00048174	0.00013463	1240.4	5.5131e-06	5.498e-06	1304.8	262.21	5.5052e-06	5.5522e-06	325.56	90.798	71.555	21.018	5.6831e-06	29.464	321.778	265.039	205.292	144.054	307.650	321.216	144.057	151.014	311.948	278.876	150.521	157.298	157.376	164.483	273.187	163.701	-8191	255	
655.556	1	1	0	0	0.26189	0.043287	0.26346	0.16465	0.26477	0.17671	0.051054	0.16939	0.16779	0.14365	0.26973	0.040903	0.084701	0.20806	0.079236	0.054136	-3.2979	-3.7438	-3.4896	-3.8833	-3.6437	-3.5687	-3.9833	-3.3417	-3.5083	-3.775	-3.5208	-4.075	-3.6188	-3.3021	-3.9062	-3.5938	469.197	483.138	212.253	484.130	398.418	361.875	144.277	438.697	363.416	200.080	155.941	343.671	431.387	393.260	376.225	329.594	0.00065801	0.00039662	0.00010006	1258.1	2.9674e-06	1.511e-06	1323.6	265.72	6.3179e-06	4.5156e-06	327.93	90.735	72.225	20.701	5.5768e-06	29.144	0.00050799	0.00052051	0.00015311	1249.2	5.9565e-06	5.9191e-06	1311.6	264.61	5.6342e-06	5.9222e-06	328.74	91.503	72.286	21.172	5.6787e-06	29.802	323.065	212.772	248.344	144.048	311.867	308.339	143.830	150.974	311.055	288.541	150.242	157.120	157.463	164.017	298.462	163.947	-8191	255	
655.652	1	1	0	0	0.16575	0.11135	0.019286	0.19546	0.045812	0.1941	0.22649	0.2834	0.10644	0.17468	0.35043	0.14752	0.25936	0.10081	0.26396	0.20451	-3.2	-3.7687	-3.2854	-3.7729	-3.525	-3.4604	-4.1479	-3.7104	-3.4771	-3.6292	-3.4708	-4.0292	-3.5521	-3.4292	-3.7042	-3.5729	361.365	243.134	384.107	202.083	448.949	179.221	418.481	434.602	390.434	401.930	388.815	450.835	397.279	232.387	136.198	404.063	0.0006695	0.00023687	7.4559e-05	1264.5	4.8975e-06	2.4684e-06	1329	264.4	6.5209e-06	4.7201e-06	327.37	91.729	72.196	20.801	5.6903e-06	29.141	0.00050643	0.00052762	0.00015	1254.1	5.6118e-06	5.8363e-06	1316.9	264.79	5.4632e-06	5.6109e-06	328.76	92	72.467	21.216	5.0148e-06	29.822	320.024	246.511	228.577	143.904	280.546	306.885	143.966	150.853	306.752	299.605	150.828	157.340	157.327	163.929	282.359	163.486	-8191	255	
655.746	1	1	0	0	0.23733	0.12769	0.079211	0.097687	0.089153	0.13213	0.18674	0.13681	0.12573	0.13685	0.043552	0.23446	0.11812	0.11698	0.21977	0.32147	-3.1063	-3.8375	-3.4917	-3.8167	-3.6083	-3.5021	-4.1687	-3.6521	-3.6021	-3.9708	-3.4271	-3.9062	-3.925	-3.3458	-3.8521	-3.5854	266.552	359.198	489.525	145.124	326.647	474.886	466.946	441.491	451.898	399.492	313.553	168.748	176.127	488.027	445.883	361.929	0.00064789	0.00037318	5.5766e-05	1256.7	4.2706e-06	2.0622e-06	1327.9	266.69	5.32e-06	2.8752e-06	329.29	92.17	72.373	20.888	5.4938e-06	29.149	0.00047976	0.00049256	0.00013899	1251.9	5.2682e-06	5.2407e-06	1318.2	265.68	4.8766e-06	5.1436e-06	330.1	92.058	72.403	21.247	4.9815e-06	29.854	321.698	226.002	266.731	144.071	264.152	270.457	144.008	151.315	301.351	278.840	150.576	157.108	157.570	164.349	282.521	163.732	-8191	255	
655.844	1	1	0	0	0.1346	0.067261	0.12554	0.30018	0.15077	0.07758	0.21571	0.13004	0.20447	0.05147	0.19579	0.060752	0.11743	0.084862	0.13553	0.22947	-3.0208	-3.8771	-3.2458	-3.6937	-3.5417	-3.3979	-3.9667	-3.6854	-3.4083	-3.9458	-3.3396	-3.625	-3.7958	-3.4188	-3.6854	-3.5333	263.213	427.157	154.983	156.151	296.422	232.495	376.317	466.445	467.019	257.740	202.458	413.175	490.948	424.556	381.489	264.852	0.00062992	0.00037218	9.7631e-05	1254	3.6838e-06	3.04e-06	1325.8	265.72	6.9251e-06	3.2119e-06	326.91	91.471	72.367	20.793	3.2587e-06	29.388	0.00046504	0.00044297	0.00012931	1252.7	4.8643e-06	5.0561e-06	1316.4	265.41	5.0284e-06	4.9454e-06	328.93	91.823	72.405	21.239	4.7393e-06	29.892	319.568	213.629	223.779	143.907	250.894	291.942	143.562	150.996	314.907	265.025	150.710	157.111	157.680	164.055	266.305	163.723	-8191	255	
655.963	1	1	0	0	0.037496	0.21512	0.13061	0.26506	0.16647	0.18192	0.2742	0.2105	0.10808	0.16937	0.16192	0.067883	0.18046	0.10338	0.23695	0.11511	-3.025	-3.8396	-3.3708	-3.6896	-3.8125	-3.3771	-4.0312	-3.5792	-3.2812	-4.0021	-3.4604	-3.6188	-3.8229	-3.3958	-3.8875	-3.725	219.268	158.739	342.843	140.182	299.908	234.731	445.317	469.136	320.863	322.134	438.434	207.087	166.847	142.187	217.884	188.319	0.00064986	0.00034086	8.8798e-05	1257.7	2.7449e-06	1.7711e-06	1325.3	266.34	6.7062e-06	5.2034e-06	327.92	92.126	72.171	20.749	3.5695e-06	29.253	0.00045733	0.00044641	0.00012996	1250	5.057e-06	5.2255e-06	1315.4	265.18	5.0205e-06	5.1124e-06	328.93	92.217	72.448	21.219	4.7932e-06	29.909	321.160	245.807	222.083	144.201	299.140	271.556	143.714	151.250	329.019	283.267	150.483	157.265	157.561	163.816	307.873	163.841	-8191	255	
656.059	1	1	0	0	0.11498	0.23302	0.26457	0.19903	0.19115	0.16711	0.085611	0.082954	0.16555	0.1545	0.25969	0.19809	0.15355	0.17202	0.090059	0.29117	-3.1437	-3.7479	-3.5042	-3.5354	-3.8292	-3.5187	-3.9833	-3.8563	-3.3271	-3.9542	-3.5896	-3.5021	-3.8104	-3.3063	-3.7833	-3.6979	420.213	263.938	172.570	407.531	234.891	248.590	317.103	158.427	440.696	253.736	485.195	143.064	393.886	247.526	275.377	383.471	0.00063476	0.00024172	6.4722e-05	1258.4	3.2004e-06	4.1254e-06	1332.7	267.65	4.8489e-06	2.7192e-06	328.03	91.596	72.575	20.76	3.8509e-06	29.254	0.00046392	0.00046106	0.00012711	1250.2	5.0907e-06	5.3139e-06	1319.7	265.79	5.2112e-06	5.0708e-06	328.84	91.995	72.555	21.21	5.0537e-06	29.81	325.043	202.833	260.961	143.952	304.073	266.619	143.832	151.129	289.497	291.726	150.548	157.336	157.761	164.056	280.430	163.610	-8191	255	
656.155	1	1	0	0	0.12935	0.27838	0.13256	0.2034	0.19007	0.10835	0.24354	0.20587	0.22374	0.32054	0.16629	0.25674	0.066954	0.061984	0.25478	0.039834	-2.9542	-3.7687	-3.6042	-3.4854	-4.025	-3.4896	-3.5917	-3.9354	-3.4875	-3.7917	-3.6354	-3.3667	-3.8688	-3.4313	-3.6063	-3.7729	278.076	184.833	255.395	191.987	210.720	419.047	460.382	209.153	405.017	185.788	454.137	163.222	183.729	399.755	378.832	299.715	0.00068297	0.00039539	9.4082e-05	1262.9	5.6044e-06	3.0235e-06	1331.2	266.56	5.1098e-06	3.1599e-06	324.95	91.438	72.462	20.809	4.3634e-06	29.062	0.00048239	0.00045384	0.00013216	1254.2	5.3007e-06	5.2353e-06	1317.8	265.31	5.2421e-06	5.2549e-06	327.41	91.807	72.248	21.171	5.1348e-06	29.745	323.797	200.065	245.006	143.914	272.290	295.299	143.770	151.142	320.079	303.335	150.642	157.329	157.538	164.327	318.226	163.842	-8191	255	
656.252	1	1	0	0	0.22926	0.13565	0.10672	0.14169	0.19017	0.15087	0.14076	0.13153	0.096765	0.18112	0.14307	0.16873	0.16733	0.066739	0.064659	0.065924	-2.9313	-3.5521	-3.5521	-3.3625	-3.7812	-3.4271	-3.5917	-3.7354	-3.3063	-3.7104	-3.65	-3.4813	-3.7042	-3.4313	-3.4813	-3.9271	392.011	441.458	380.533	414.476	280.160	464.681	432.492	273.067	230.795	431.329	376.300	382.785	136.900	283.248	318.212	224.553	0.00063626	0.00032316	7.8662e-05	1260	5.4714e-06	1.9027e-06	1326.7	265.61	5.0899e-06	2.6868e-06	329.24	91.429	71.859	20.723	6.0321e-06	28.902	0.00049462	0.00048567	0.00013844	1252.9	5.4952e-06	5.4059e-06	1317	264.97	5.4195e-06	5.5662e-06	328.38	91.74	72.251	21.135	5.4104e-06	29.637	323.119	207.063	230.140	143.976	266.988	289.092	143.908	151.121	314.088	304.728	150.506	157.339	157.805	164.076	298.055	163.622	-8191	255	
656.348	1	1	0	0	0.23728	0.093837	0.30183	0.17644	0.051548	0.13286	0.069215	0.22091	0.18996	0.054803	0.17714	0.34907	0.22357	0.16369	0.12234	0.3615	-2.8667	-3.6146	-3.75	-3.3563	-3.7292	-3.4333	-3.4271	-3.825	-3.15	-3.7188	-3.8146	-3.2583	-3.8875	-3.4562	-3.3312	-3.7917	435.385	219.099	459.646	170.492	280.000	452.090	398.651	441.879	192.885	417.989	401.111	440.567	206.245	433.549	154.578	407.814	0.00070044	0.00017805	5.2941e-05	1267.8	4.5438e-06	2.764e-06	1328.6	266.51	6.217e-06	2.0903e-06	326.48	91.103	71.852	20.716	2.9383e-06	29.037	0.00049932	0.00050118	0.00013539	1253.4	5.3628e-06	5.3943e-06	1317.2	265.02	5.1856e-06	5.4158e-06	327.53	91.617	72.029	21.083	5.1298e-06	29.714	325.389	211.857	212.554	143.779	291.425	272.739	144.036	151.266	307.300	282.301	150.724	156.892	157.447	164.104	268.233	163.720	-8191	255	
656.444	1	1	0	0	0.084511	0.10533	0.087236	0.13811	0.038431	0.2015	0.20024	0.028571	0.1266	0.11522	0.16758	0.07406	0.2281	0.18018	0.057454	0.16346	-3.1104	-3.5458	-3.6771	-3.4188	-3.7229	-3.5292	-3.6708	-3.8292	-3.4729	-3.6542	-3.7479	-3.3688	-3.7833	-3.7208	-3.3438	-3.8688	374.575	356.645	455.157	285.192	440.431	300.418	418.235	334.306	446.084	376.188	156.467	337.936	380.598	451.849	433.001	380.873	0.00065001	0.00023324	0.00011688	1261	2.7413e-06	3.002e-06	1330.6	265.55	7.1245e-06	4.5404e-06	327.54	91.478	71.779	20.724	5.6037e-06	28.884	0.0004797	0.00048308	0.00013164	1251.9	5.1063e-06	5.2566e-06	1316.9	265.19	5.078e-06	5.001e-06	328.31	91.52	71.999	21.093	5.1798e-06	29.659	323.767	221.189	224.372	143.975	288.918	321.072	143.921	151.180	320.635	290.179	150.838	157.317	157.202	164.228	281.536	163.803	-8191	255	
656.564	1	1	0	0	0.12599	0.21243	0.14885	0.3678	0.13822	0.30667	0.27697	0.19993	0.20398	0.40869	0.13849	0.12759	0.19825	0.073213	0.10221	0.048158	-3.0792	-3.5542	-3.8292	-3.2438	-3.7146	-3.6271	-3.5312	-4.0167	-3.5521	-3.4875	-3.9354	-3.4188	-3.7062	-3.6063	-3.2604	-3.9292	153.756	182.874	314.429	428.632	322.283	274.745	477.116	465.243	286.976	399.463	313.145	186.605	491.305	323.403	231.989	480.349	0.00066857	0.00035895	6.2275e-05	1256.1	4.6247e-06	4.9968e-06	1325.1	265.72	6.0908e-06	3.5278e-06	328.08	90.306	72.062	20.659	3.646e-06	28.804	0.00047192	0.00047361	0.00012777	1249.1	5.1174e-06	5.0469e-06	1314.6	264.81	4.916e-06	5.1393e-06	327.77	91.214	71.99	21.052	4.8843e-06	29.628	320.818	253.412	238.411	144.078	293.888	277.385	143.949	151.041	330.935	287.149	150.589	157.280	157.527	164.278	297.403	163.520	-8191	255	
656.659	1	1	0	0	0.099992	0.074242	0.15133	0.09372	0.23409	0.085063	0.23348	0.20164	0.10797	0.10888	0.23535	0.22711	0.12651	0.30056	0.03837	0.071517	-3.3438	-3.5354	-3.9875	-3.3812	-3.5396	-3.6729	-3.5021	-4.0188	-3.7	-3.4479	-3.9354	-3.4271	-3.5438	-3.8812	-3.2625	-3.8646	187.433	381.502	292.873	294.594	276.892	178.333	471.620	184.273	345.916	401.529	167.816	361.842	459.311	423.341	351.994	298.305	0.00063483	0.00014217	9.9802e-05	1258.6	3.4322e-06	3.538e-06	1322.9	264.71	8.0952e-06	3.3499e-06	324.63	90.827	71.5	20.547	3.5434e-06	28.871	0.00044949	0.00044054	0.0001234	1246.5	4.8022e-06	4.8305e-06	1310.7	263.79	4.7291e-06	4.9998e-06	326.16	91.055	71.548	20.957	4.732e-06	29.593	323.847	201.653	240.231	144.258	287.189	295.153	143.789	151.477	305.510	306.570	150.731	157.143	157.395	164.650	289.373	163.749	-8191	255	
656.755	1	1	0	0	0.19324	0.24289	0.072569	0.22655	0.24999	0.062263	0.11948	0.24796	0.032596	0.13493	0.12825	0.12994	0.28457	0.15563	0.11047	0.018414	-3.3187	-3.3875	-3.9375	-3.5229	-3.7396	-3.75	-3.6271	-3.8688	-3.5708	-3.3187	-4.1833	-3.6	-3.5729	-3.9917	-3.6042	-3.7917	143.948	313.717	135.783	258.612	356.032	429.929	162.892	299.136	295.607	173.866	430.699	459.538	453.563	403.541	168.050	187.880	0.00062318	0.00041585	5.6201e-05	1252	3.7068e-06	3.9954e-06	1319.8	261.97	5.5552e-06	3.228e-06	326.8	90.138	71.541	20.408	5.2241e-06	28.672	0.00042987	0.00041367	0.00011307	1239.9	4.6885e-06	4.5349e-06	1305.5	261.92	4.4339e-06	4.4065e-06	325.79	90.461	71.303	20.847	4.2282e-06	29.413	320.470	206.481	215.006	143.713	280.514	307.072	143.767	151.137	329.657	270.476	150.853	157.341	157.707	164.519	290.308	164.065	-8191	255	
656.851	1	1	0	0	0.27776	0.066729	0.19494	0.061448	0.1018	0.19386	0.20368	0.10027	0.20342	0.089411	0.16969	0.073662	0.095269	0.28929	0.19254	0.16728	-3.2896	-3.4	-3.8521	-3.5583	-3.6458	-3.875	-3.5479	-3.8458	-3.825	-3.3708	-3.9708	-3.7583	-3.3896	-3.8688	-3.3729	-3.7104	387.703	388.878	489.892	396.962	156.293	399.015	421.325	144.657	207.538	189.383	479.481	434.629	446.951	383.391	403.967	439.818	0.0006806	0.00025799	9.1824e-05	1244.7	6.1842e-06	2.5013e-06	1303.9	260.97	7.8693e-06	4.1312e-06	321.84	90.232	70.725	20.297	3.9898e-06	28.675	0.0004362	0.00041055	0.00011022	1232.4	4.6345e-06	4.5831e-06	1295.1	260.45	4.3567e-06	4.5423e-06	322.76	90.412	70.897	20.671	4.4998e-06	29.232	323.610	219.855	213.684	144.087	288.153	312.059	143.806	151.176	330.451	287.420	150.997	157.402	157.754	164.713	276.475	164.263	-8191	255	
656.947	1	1	0	0	0.13574	0.15478	0.17041	0.059994	0.39159	0.077619	0.083846	0.22134	0.11992	0.11823	0.21135	0.24066	0.081479	0.23054	0.08275	0.1583	-3.3479	-3.2917	-3.7938	-3.6604	-3.3438	-3.9479	-3.6	-3.7146	-3.8396	-3.3729	-3.9396	-3.7917	-3.5104	-3.8583	-3.5604	-3.6813	352.126	404.390	273.096	289.649	178.735	439.195	254.081	464.961	388.611	354.041	427.880	157.903	296.223	489.060	158.162	334.004	0.0006151	0.00038171	8.2854e-05	1236.2	4.9835e-06	3.2155e-06	1304.4	260.53	6.8378e-06	3.2191e-06	321.61	90.088	71.221	20.36	5.3727e-06	28.636	0.00042007	0.00040592	0.00011064	1228.9	4.6043e-06	4.4544e-06	1291.7	259.68	4.281e-06	4.9668e-06	322.21	89.898	70.779	20.681	4.4282e-06	29.173	320.480	216.167	223.569	144.104	270.502	288.083	143.880	151.195	327.734	281.600	150.852	157.457	157.681	164.399	293.265	163.809	-8191	255	
657.044	1	1	0	0	0.111	0.20594	0.37637	0.10706	0.086112	0.13059	0.26583	0.2527	0.036999	0.13393	0.10125	0.18066	0.2551	0.36012	0.17313	0.12781	-3.3458	-3.3563	-3.675	-3.55	-3.2687	-3.8542	-3.6937	-3.5958	-3.8896	-3.4188	-3.9479	-3.8396	-3.4083	-4.0354	-3.5896	-3.6542	449.997	361.643	242.076	175.305	307.724	365.342	428.328	492.840	351.289	146.925	290.451	338.926	134.031	164.305	220.647	172.767	0.0006386	0.0004433	8.7473e-05	1231.2	4.0243e-06	2.9208e-06	1304.5	259.62	6.6113e-06	3.1789e-06	321.68	89.079	70.69	20.292	4.7833e-06	28.573	0.00043227	0.00040791	0.00010995	1224.2	4.3438e-06	4.5136e-06	1290.1	259.23	4.0525e-06	4.4536e-06	321.6	89.57	70.683	20.591	4.3437e-06	29.15	320.082	215.790	239.947	143.756	278.782	278.028	143.774	151.338	311.703	311.412	150.730	157.054	157.656	164.531	277.081	164.164	-8191	255	
657.140	1	1	0	0	0.20859	0.048732	0.078609	0.13874	0.3282	0.044692	0.16117	0.15926	0.065158	0.029671	0.35475	0.15884	0.039752	0.11086	0.3448	0.14286	-3.7208	-3.4354	-3.4479	-3.7167	-3.4479	-3.8771	-3.7771	-3.4313	-4.0833	-3.525	-3.725	-3.9083	-3.4729	-3.9646	-3.6979	-3.5292	436.988	406.563	487.568	406.193	364.693	150.725	365.609	485.645	394.419	259.048	449.070	165.559	280.734	161.518	442.256	148.098	0.00065505	0.00023188	8.2699e-05	1235.8	3.3201e-06	3.3498e-06	1298	259.45	8.2987e-06	2.3789e-06	319.57	89.186	70.338	20.153	2.9648e-06	28.508	0.00042718	0.00040753	0.00011196	1223.9	4.6833e-06	4.2826e-06	1287.7	259.11	4.3652e-06	4.2028e-06	321.66	89.529	70.366	20.545	4.1976e-06	29.07	321.442	201.605	197.617	143.813	275.047	265.904	143.782	151.154	318.394	284.074	151.020	157.333	157.459	164.434	292.402	163.874	-8191	255	
657.236	1	1	0	0	0.10313	0.084248	0.13515	0.22577	0.34306	0.14703	0.27634	0.14471	0.32504	0.10358	0.081248	0.16131	0.3055	0.21854	0.11735	0.075544	-3.4188	-3.3563	-3.5354	-3.7396	-3.4271	-3.8875	-3.9938	-3.4854	-3.9938	-3.6021	-3.6833	-3.9	-3.3354	-3.9792	-3.7125	-3.6188	349.235	431.419	320.258	135.501	491.905	349.283	425.034	430.236	419.409	211.556	294.834	183.694	388.456	451.724	247.332	185.994	0.00061258	0.00021824	4.9108e-05	1225.5	6.0278e-06	4.2401e-06	1296.9	259.57	5.7382e-06	2.1778e-06	319.66	89.74	70.09	20.22	5.3845e-06	28.439	0.00040292	0.0003952	0.00011046	1218.9	4.4285e-06	3.9699e-06	1285.5	258.58	4.1409e-06	4.1777e-06	321.29	89.738	70.181	20.534	3.7754e-06	29.09	323.612	237.167	233.559	143.835	265.440	289.951	143.771	151.335	330.092	307.419	150.555	157.363	157.786	164.809	294.608	163.941	-8191	255	
657.356	1	1	0	0	0.17805	0.28716	0.11566	0.11719	0.20333	0.21256	0.10667	0.10996	0.074038	0.20416	0.15173	0.16761	0.19389	0.093868	0.12325	0.072637	-3.4562	-3.5771	-3.575	-3.9813	-3.4562	-3.8458	-3.7083	-3.4875	-3.8104	-3.7021	-3.775	-4.0375	-3.4333	-3.8667	-3.9333	-3.5833	328.499	467.052	373.744	457.566	467.766	150.106	323.503	306.769	275.348	350.490	462.466	350.460	409.930	156.873	474.410	391.400	0.00065603	0.00041436	8.8862e-05	1227.6	4.5872e-06	3.474e-06	1290.3	258.25	8.0583e-06	8.9696e-07	320.27	89.498	69.904	20.223	3.1313e-06	28.447	0.00040164	0.00036133	0.00010263	1217.8	4.3084e-06	3.8949e-06	1282.2	257.75	4.191e-06	4.1692e-06	320.42	89.539	70.249	20.58	3.8737e-06	29.127	323.453	227.488	218.553	143.888	256.735	298.206	143.874	151.335	313.419	302.921	150.846	157.351	157.639	164.975	284.323	164.054	-8191	255	
657.453	1	1	0	0	0.1942	0.24771	0.085027	0.12214	0.1512	0.22346	0.13051	0.28645	0.070623	0.19324	0.13216	0.10147	0.14022	0.12865	0.21934	0.2464	-3.6083	-3.725	-3.45	-4.05	-3.5271	-3.7562	-3.9	-3.5458	-3.8917	-3.625	-3.4833	-3.9042	-3.4813	-3.675	-3.8563	-3.2896	262.486	474.062	320.003	184.075	346.003	329.951	416.825	451.606	141.999	236.129	436.381	414.058	439.698	423.477	286.658	177.045	0.00062835	0.00025997	7.9497e-05	1224.3	4.1103e-06	3.6078e-06	1297.1	259.26	7.9359e-06	3.4073e-06	318.52	89.128	70.416	20.088	5.2878e-06	28.132	0.0003905	0.00035514	0.00010729	1217.3	4.2643e-06	4.2545e-06	1284.4	258.16	4.0493e-06	4.2897e-06	320.88	89.563	70.397	20.5	3.9371e-06	29.037	317.959	209.279	247.400	143.793	308.762	304.422	143.783	151.204	322.987	282.619	150.695	157.485	157.850	164.661	299.684	163.833	-8191	255	
657.524	1	1	0	0	0.27045	0.012799	0.08445	0.14114	0.16248	0.019153	0.093867	0.11426	0.10977	0.25105	0.048156	0.078746	0.16264	0.068942	0.062958	0.20499	-3.425	-3.725	-3.3104	-3.8125	-3.5708	-3.5271	-4.1771	-3.4458	-3.9146	-3.6625	-3.4813	-3.9271	-3.4562	-3.5354	-3.8542	-3.4333	201.538	402.472	133.521	489.986	368.001	328.699	252.195	411.631	379.936	331.432	425.761	255.657	385.833	346.922	428.434	482.628	0.00065589	0.00020094	8.2803e-05	1220.4	1.84e-06	1.8776e-06	1293.1	259	6.6448e-06	1.6059e-06	318.91	89.56	70.097	20.12	4.1256e-06	28.29	0.00040644	0.00037727	0.00010669	1217.4	4.2875e-06	4.1887e-06	1282.8	257.92	4.0663e-06	4.1857e-06	320.51	89.465	70.208	20.526	4.0326e-06	29.039	319.307	213.566	248.234	144.225	272.869	253.566	143.951	151.341	312.739	271.157	150.756	157.014	157.979	164.663	282.363	164.059	-8191	255	
657.645	1	1	0	0	0.076602	0.068772	0.15289	0.16613	0.21791	0.089874	0.063895	0.19421	0.19047	0.074785	0.25105	0.091308	0.25008	0.20891	0.26228	0.27465	-3.1937	-3.7396	-3.1437	-3.9625	-3.6646	-3.4813	-3.9854	-3.5458	-3.6813	-3.7833	-3.4271	-3.8688	-3.6479	-3.5833	-4.0646	-3.45	405.981	348.866	251.621	421.387	173.264	459.720	433.393	164.676	470.437	449.140	150.128	187.027	476.679	135.555	405.348	442.002	0.00064957	0.0004124	8.9343e-05	1228.2	3.1234e-06	3.5774e-06	1297	259.18	5.0349e-06	4.011e-06	319.17	89.176	70.14	20.131	3.9041e-06	28.542	0.00039985	0.00036095	0.00011204	1218.5	4.118e-06	4.4471e-06	1282.7	258.43	4.2421e-06	4.1582e-06	320.38	89.503	70.175	20.522	3.986e-06	29.017	320.634	235.767	238.618	143.865	260.140	289.189	143.919	151.143	330.503	291.689	150.978	157.496	157.456	164.610	280.836	163.761	-8191	255	
657.739	1	1	0	0	0.14044	0.23066	0.19775	0.27703	0.061582	0.14788	0.25358	0.39711	0.17888	0.048896	0.25958	0.16068	0.046882	0.24441	0.0056384	0.11017	-3.4	-3.8792	-3.35	-3.7229	-3.6063	-3.5917	-4.0646	-3.5667	-3.6458	-3.7917	-3.55	-3.7917	-3.6562	-3.4604	-3.9625	-3.4833	477.754	468.193	444.814	453.081	458.973	345.283	423.317	173.455	378.561	445.871	422.073	485.131	232.770	144.871	308.002	482.429	0.00065469	0.00044272	7.4044e-05	1220.7	3.4362e-06	3.207e-06	1296	259.77	3.9773e-06	3.258e-06	319.37	88.742	70.383	20.123	4.9792e-06	28.507	0.00042324	0.00038115	0.00011162	1216.5	4.3449e-06	4.399e-06	1283	257.72	4.3236e-06	4.1826e-06	320.69	89.358	70.336	20.542	4.1076e-06	29.067	324.888	224.536	223.921	143.923	299.579	301.019	143.896	151.355	326.276	260.870	150.405	157.403	157.791	164.660	296.701	163.901	-8191	255	
657.835	1	1	0	0	0.071541	0.12703	0.12231	0.11425	0.41766	0.067774	0.074603	0.2441	0.080691	0.088046	0.032341	0.16712	0.18474	0.21232	0.14302	0.16264	-3.0625	-3.8479	-3.2667	-3.7667	-3.75	-3.3312	-3.8583	-3.4396	-3.5458	-3.8396	-3.3542	-3.7771	-3.775	-3.3771	-3.7125	-3.5542	248.876	337.875	176.125	178.857	186.526	280.908	466.370	451.363	253.040	468.299	386.454	206.993	415.850	467.846	195.028	231.733	0.00063283	0.00021148	0.00012654	1226.8	5.9362e-06	3.6875e-06	1292.9	260.41	4.2314e-06	3.5082e-06	320.6	89.379	70.161	20.072	4.8449e-06	28.507	0.00040836	0.00037264	0.00010813	1216.6	4.2109e-06	3.9833e-06	1282	258.23	4.1921e-06	4.067e-06	320.87	89.583	70.411	20.544	4.0682e-06	29.091	320.745	208.217	222.672	144.064	285.774	297.354	143.820	151.060	315.504	274.806	150.719	157.446	157.538	164.860	302.607	164.128	-8191	255	
657.932	1	1	0	0	0.055221	0.14587	0.16979	0.22379	0.25055	0.15433	0.11673	0.15134	0.11857	0.32043	0.11633	0.079622	0.050633	0.088194	0.14676	0.030446	-3.1271	-3.85	-3.5312	-3.7375	-3.7583	-3.2896	-4.0042	-3.6083	-3.4604	-3.7792	-3.3812	-3.7313	-3.8167	-3.35	-3.6375	-3.6583	192.108	455.024	492.331	459.641	182.438	467.995	482.979	382.549	135.135	184.942	173.240	206.412	302.447	149.678	258.780	390.950	0.00061421	0.00019215	7.2717e-05	1231.8	3.8718e-06	3.8994e-06	1290.8	259.09	6.6316e-06	3.15e-06	320.4	89.27	70.283	20.236	4.7501e-06	28.417	0.00042468	0.00036413	0.00010524	1219	4.2231e-06	4.3655e-06	1281.6	258.02	4.3577e-06	4.1857e-06	321.01	89.537	70.372	20.587	4.0071e-06	29.028	324.123	223.362	248.458	144.106	264.475	285.380	143.920	151.114	318.224	261.805	150.613	157.444	157.814	164.279	275.889	164.067	-8191	255	
658.052	1	1	0	0	0.050448	0.15093	0.18151	0.10587	0.22943	0.24934	0.15543	0.06179	0.15038	0.1189	0.17251	0.2329	0.10391	0.12084	0.23768	0.21091	-3.1562	-3.8333	-3.5521	-3.5021	-3.8771	-3.2729	-3.8479	-3.7271	-3.3167	-3.8583	-3.5396	-3.5271	-3.8625	-3.3396	-3.6917	-3.7812	339.809	254.221	340.633	133.953	364.334	210.815	458.588	430.864	412.394	242.381	367.517	483.120	180.792	168.673	232.305	392.018	0.0005986	0.00038343	8.139e-05	1220.7	3.5023e-06	3.0822e-06	1296.5	259.12	6.2348e-06	2.5174e-06	320.41	88.864	69.837	20.082	5.1405e-06	28.487	0.00040295	0.0003539	0.00010526	1214.3	3.9828e-06	4.321e-06	1282.2	258.06	4.2714e-06	4.0737e-06	320.54	89.35	70.361	20.515	4.0771e-06	29.044	319.348	227.115	236.784	143.880	258.852	293.049	143.971	151.121	329.654	308.086	150.952	157.459	157.666	164.734	273.048	164.215	-8191	255	
658.148	1	1	0	0	0.057276	0.16368	0.12036	0.17876	0.13198	0.17298	0.22925	0.04441	0.143	0.035725	0.1388	0.23529	0.23473	0.10257	0.0853	0.1444	-2.9437	-3.6688	-3.3625	-3.5542	-3.95	-3.3771	-4.025	-3.7458	-3.3583	-3.8271	-3.6229	-3.425	-3.6854	-3.3312	-3.6729	-3.7625	415.915	216.074	197.463	458.590	159.331	185.034	413.681	235.272	347.845	168.076	333.947	484.679	430.899	325.057	358.100	364.776	0.00058341	0.00036243	6.496e-05	1222.7	3.3742e-06	4.783e-06	1296.5	259.49	6.3865e-06	2.3835e-06	320.29	89.36	70.672	20.121	5.5514e-06	28.502	0.00042798	0.00036596	0.00010244	1218	4.0281e-06	4.3155e-06	1284.3	258.12	4.1281e-06	4.0835e-06	321.31	89.772	70.525	20.602	3.9932e-06	29.187	323.577	208.064	216.464	144.343	272.409	299.973	143.923	151.390	313.707	269.342	150.733	157.340	157.815	164.201	297.916	163.910	-8191	255	
658.245	1	1	0	0	0.14666	0.12474	0.19418	0.0098601	0.14899	0.11807	0.18584	0.021814	0.14468	0.093349	0.095526	0.23879	0.13229	0.20722	0.2073	0.18852	-2.9354	-3.75	-3.7271	-3.4604	-3.9396	-3.3896	-3.7313	-3.9188	-3.3208	-3.8438	-3.8417	-3.4896	-3.8479	-3.5708	-3.7354	-3.8812	373.483	203.182	150.733	242.062	395.210	143.407	405.622	275.792	432.575	152.327	492.517	464.005	290.698	258.750	270.512	476.912	0.0006576	0.00025695	9.8985e-05	1222.8	3.2678e-06	1.7457e-06	1295	259.9	6.0436e-06	3.0927e-06	321.45	89.686	70.211	20.11	5.7487e-06	28.545	0.00041579	0.00033936	0.00010694	1217.9	4.0182e-06	4.1448e-06	1284.2	258.82	4.2278e-06	4.1153e-06	321.14	89.829	70.456	20.593	4.2176e-06	29.171	321.107	234.923	230.807	144.045	263.979	303.852	144.034	151.076	331.440	288.598	150.700	157.288	157.497	164.489	286.886	164.000	-8191	255	
658.341	1	1	0	0	0.11788	0.30156	0.14403	0.079315	0.10304	0.19231	0.093887	0.14291	0.063561	0.13392	0.070819	0.023835	0.078769	0.19611	0.12671	0.26332	-2.9375	-3.5854	-3.6292	-3.3146	-3.9188	-3.625	-3.6542	-3.9167	-3.3583	-3.9	-3.8	-3.3917	-3.9	-3.5687	-3.4479	-3.9229	160.882	292.232	378.073	340.834	435.964	146.526	394.199	479.024	212.294	231.399	481.686	191.680	147.552	392.805	456.690	256.322	0.00063122	0.00023357	6.5665e-05	1227.8	3.9868e-06	2.0677e-06	1296.6	258.91	4.876e-06	3.623e-06	320.5	89.205	70.52	20.341	3.1759e-06	28.633	0.0004107	0.0003728	0.00010072	1220.1	4.0112e-06	4.0138e-06	1285.9	258.22	4.2752e-06	4.119e-06	322.38	89.904	70.659	20.692	4.0837e-06	29.218	323.233	232.380	204.820	144.028	272.475	308.903	143.912	151.115	326.517	280.373	150.529	157.339	157.736	164.563	269.221	163.665	-8191	255	
658.437	1	1	0	0	0.041722	0.039353	0.21908	0.18302	0.13632	0.18354	0.2056	0.32951	0.19504	0.3375	0.14781	0.16981	0.19484	0.15379	0.18322	0.14555	-3.1542	-3.6854	-3.7979	-3.5875	-3.7562	-3.525	-3.7146	-4.0396	-3.4521	-3.85	-3.8021	-3.3521	-3.9417	-3.5667	-3.5458	-3.9688	192.014	175.955	449.590	134.971	357.921	291.028	476.093	380.898	405.477	422.668	460.036	176.978	476.558	143.079	412.894	428.193	0.00062911	0.00029635	0.0001043	1229.8	5.6177e-06	2.2717e-06	1302.5	260.36	4.4332e-06	3.092e-06	321.45	89.652	70.482	20.235	5.516e-06	28.47	0.00040628	0.00035686	0.00010553	1222.3	3.847e-06	4.0003e-06	1287.2	258.85	4.0845e-06	4.1172e-06	321.59	89.871	70.471	20.67	4.0626e-06	29.155	322.382	213.824	217.080	143.772	290.103	296.555	143.934	151.077	330.079	304.821	150.836	157.417	157.785	164.770	292.470	164.112	-8191	255	
658.533	1	1	0	0	0.041131	0.024395	0.27923	0.18648	0.35893	0.34491	0.010846	0.22034	0.031688	0.28136	0.28156	0.30816	0.095315	0.04367	0.19691	0.071829	-3.3167	-3.6208	-3.8542	-3.4271	-3.7104	-3.5708	-3.5979	-3.8208	-3.6479	-3.4896	-3.9271	-3.4604	-3.875	-3.5896	-3.4625	-4.0125	161.626	284.408	483.847	482.271	337.645	211.888	467.923	385.603	307.985	246.119	169.279	460.191	468.794	471.387	387.614	482.997	0.00063071	0.00035763	8.8573e-05	1227.8	2.2088e-06	1.333e-06	1294	259.2	4.6621e-06	2.3569e-06	319.1	89.963	70.458	20.286	5.1204e-06	28.623	0.00040727	0.00037221	0.00010584	1218.7	4.1761e-06	3.9485e-06	1284.5	258.77	4.0221e-06	4.1429e-06	321.24	90.124	70.556	20.65	3.9771e-06	29.259	319.320	207.293	232.832	144.042	277.168	229.379	143.862	151.448	317.606	297.237	150.861	157.384	157.849	164.600	291.843	163.982	-8191	255	
658.654	1	1	0	0	0.17061	0.17058	0.064144	0.13255	0.20964	0.096246	0.14944	0.067819	0.16878	0.23063	0.23271	0.041347	0.214	0.052075	0.23917	0.08309	-3.2729	-3.5271	-3.7667	-3.6479	-3.65	-3.9104	-3.6104	-3.9562	-3.4896	-3.4062	-4.0979	-3.5646	-3.7812	-3.9708	-3.3625	-3.7979	195.843	441.808	200.251	296.715	287.740	417.900	450.923	144.747	211.880	481.332	414.178	359.443	426.591	268.391	286.755	204.080	0.0006353	0.00027549	9.3053e-05	1232.5	4.5357e-06	3.2882e-06	1295.9	261	6.8201e-06	4.6671e-06	320.46	90.066	70.533	20.469	4.5556e-06	28.626	0.00038932	0.00036483	9.5549e-05	1219.4	4.096e-06	3.8419e-06	1285.6	259.04	4.1345e-06	4.1019e-06	321.63	90.026	70.672	20.741	3.9132e-06	29.241	320.800	203.560	223.570	143.730	279.632	283.691	143.871	151.162	306.840	302.974	151.060	157.137	157.565	164.520	312.828	164.074	-8191	255	
658.748	1	1	0	0	0.2114	0.22129	0.066398	0.055306	0.29631	0.11275	0.074655	0.035288	0.1473	0.098527	0.22448	0.219	0.079787	0.10187	0.16696	0.026067	-3.2313	-3.5708	-3.8333	-3.4313	-3.625	-4.0062	-3.4854	-4.1458	-3.75	-3.6146	-4.0271	-3.5979	-3.7667	-3.8604	-3.5	-3.7812	194.105	145.369	451.707	160.155	351.186	435.179	457.685	333.639	307.028	205.548	465.281	434.065	397.340	374.220	209.931	371.468	0.00066588	0.0002827	7.1501e-05	1228.6	4.7272e-06	2.9632e-06	1298.5	260.02	6.293e-06	9.8494e-07	319.91	89.795	70.253	20.309	3.4702e-06	28.732	0.00040045	0.00036645	9.8235e-05	1219.5	3.9637e-06	4.207e-06	1286.3	259.06	3.8959e-06	3.9832e-06	321.18	89.96	70.562	20.704	4.0654e-06	29.249	322.618	230.488	200.066	143.962	256.641	285.043	143.866	151.443	315.814	260.706	150.746	157.473	157.707	164.675	284.585	163.977	-8191	255	
658.820	1	1	0	0	0.13283	0.1489	0.082409	0.20021	0.30384	0.15388	0.12659	0.15414	0.21546	0.24947	0.040933	0.14746	0.024923	0.036276	0.23261	0.080081	-3.3104	-3.5583	-4.0229	-3.6125	-3.7417	-4.0167	-3.5875	-3.8521	-3.8646	-3.4646	-3.9958	-3.6854	-3.6333	-3.9938	-3.3875	-3.7375	236.060	340.347	330.580	423.215	291.494	161.086	403.335	181.147	176.258	492.460	425.420	139.788	185.971	430.259	155.237	136.016	0.00061785	0.00045071	8.6618e-05	1230.8	3.2208e-06	3.0361e-06	1299.1	260.79	7.3351e-06	3.5965e-06	319.36	89.451	70.683	20.333	6.5611e-06	28.573	0.00040455	0.00037786	0.00010291	1220.2	4.0171e-06	4.1552e-06	1284.8	259.29	4.1745e-06	4.119e-06	321.24	89.717	70.677	20.656	4.0349e-06	29.194	321.833	210.929	220.093	143.771	255.203	279.014	143.923	151.101	298.852	296.220	150.651	157.653	157.798	164.090	265.385	163.834	-8191	255	
658.916	1	1	0	0	0.12951	0.11146	0.053245	0.19871	0.011189	0.17703	0.23083	0.079394	0.078226	0.059584	0.24803	0.33915	0.0086967	0.18208	0.029061	0.22699	-3.4521	-3.225	-3.7792	-3.5729	-3.4833	-3.8875	-3.6312	-3.8729	-3.8187	-3.2979	-3.8542	-3.65	-3.5771	-3.8979	-3.4792	-3.7979	482.720	229.169	157.845	369.006	242.773	325.105	391.502	248.064	430.682	433.182	215.381	305.488	263.096	283.709	464.147	461.701	0.00065916	0.00020136	7.1038e-05	1227.7	3.618e-06	2.4401e-06	1295.8	259.44	6.1878e-06	3.5621e-06	319.33	89.854	70.667	20.285	4.3334e-06	28.679	0.0004033	0.00037926	9.8629e-05	1218.6	4.0275e-06	3.9644e-06	1285.8	258.72	3.8943e-06	4.1166e-06	321.6	89.895	70.688	20.634	3.8604e-06	29.235	323.149	221.592	251.691	144.138	287.871	291.415	143.871	151.108	318.824	294.482	150.909	157.107	157.513	164.510	268.872	163.900	-8191	255	
659.036	1	1	0	0	0.08223	0.14185	0.24675	0.053324	0.25113	0.067377	0.12892	0.15425	0.2076	0.13591	0.30801	0.26343	0.096706	0.039639	0.21678	0.3197	-3.3875	-3.5333	-3.8458	-3.8083	-3.2146	-3.9562	-3.5938	-3.6417	-3.8979	-3.4437	-3.85	-3.7167	-3.4875	-3.8688	-3.5312	-3.5604	249.788	186.291	417.364	465.481	322.192	212.386	452.429	425.340	260.371	489.042	248.101	377.440	140.941	178.758	374.530	146.969	0.00062812	0.00031967	0.00010336	1230	4.3867e-06	3.3157e-06	1300.1	259.99	3.7391e-06	3.7865e-06	321.07	89.618	70.634	20.29	3.1388e-06	28.517	0.00039831	0.00035837	0.00010227	1216.6	4.3055e-06	3.6645e-06	1285.4	258.75	4.0019e-06	4.0016e-06	321.86	89.883	70.679	20.675	3.8971e-06	29.162	321.345	222.456	243.981	143.725	276.944	247.898	143.873	151.054	313.215	284.436	150.933	157.427	157.654	164.773	271.358	163.757	-8191	255	
659.133	1	1	0	0	0.14716	0.14602	0.1718	0.055001	0.23477	0.22365	0.15798	0.19205	0.19988	0.16178	0.21686	0.12841	0.06948	0.14797	0.04153	0.15469	-3.3896	-3.3521	-3.9083	-3.7417	-3.3604	-4.0333	-3.7792	-3.5979	-3.8917	-3.4562	-3.8146	-3.8771	-3.4292	-3.8583	-3.675	-3.7958	490.534	453.247	242.726	338.858	139.089	211.880	487.456	330.857	298.370	230.984	195.199	193.633	175.318	175.949	215.321	419.426	0.00062925	0.00033403	8.6087e-05	1224.1	1.7097e-06	3.2085e-06	1296.4	259.18	7.6747e-06	2.6695e-06	319.99	89.181	70.659	20.272	5.2343e-06	28.487	0.00040289	0.00037797	9.8751e-05	1217.3	4.085e-06	4.0515e-06	1283.9	258.5	3.9081e-06	3.9747e-06	321.59	89.78	70.514	20.644	3.9082e-06	29.137	324.720	222.576	214.930	143.877	352.530	306.107	143.909	151.302	323.190	295.595	150.645	157.347	157.591	164.475	277.022	164.045	-8191	255	
659.229	1	1	0	0	0.075706	0.11585	0.087173	0.10433	0.084844	0.12558	0.064644	0.16931	0.076142	0.057994	0.21839	0.20479	0.22141	0.16081	0.1717	0.15177	-3.4167	-3.3146	-3.6979	-3.7646	-3.5667	-3.9625	-3.7271	-3.5458	-3.7687	-3.4271	-3.5687	-3.8917	-3.1729	-3.8792	-3.85	-3.6271	337.714	300.342	228.255	462.350	349.006	183.945	137.456	411.004	442.960	448.835	407.227	383.809	380.230	329.597	162.108	326.603	0.00064334	0.00018174	2.4081e-05	1229.7	4.1595e-06	2.8163e-06	1297.7	258.43	6.0825e-06	2.5854e-06	316.93	89.753	70.31	20.234	4.7603e-06	28.485	0.0003946	0.00035735	0.00010256	1217.6	4.3235e-06	4.0674e-06	1283.8	258.41	3.8762e-06	4.2175e-06	320.51	89.825	70.399	20.587	3.9993e-06	29.083	322.576	222.911	242.523	143.971	288.104	288.852	143.813	151.154	318.052	307.039	150.643	157.705	157.995	164.597	280.195	163.970	-8191	255	
659.325	1	1	0	0	0.12617	0.088635	0.07992	0.13582	0.26896	0.2122	0.17295	0.1559	0.051853	0.11553	0.17401	0.27908	0.027372	0.045848	0.18775	0.13868	-3.5271	-3.55	-3.7396	-3.8438	-3.4708	-3.9146	-3.9458	-3.5542	-3.9646	-3.5396	-3.6104	-3.8438	-3.5667	-3.9146	-3.8417	-3.5729	246.347	157.593	182.206	163.634	353.860	340.257	413.467	441.240	163.322	474.051	460.407	486.784	172.740	300.391	465.966	447.223	0.00065178	0.00034843	6.814e-05	1232.3	2.5114e-06	2.885e-06	1296.4	259.23	4.9993e-06	1.6607e-06	319.16	89.927	70.502	20.218	5.8856e-06	28.421	0.00040298	0.00036865	0.00010034	1217.3	4.0768e-06	3.9571e-06	1282.4	258.03	4.0472e-06	4.0187e-06	321.09	89.886	70.405	20.579	3.6999e-06	29.153	322.209	212.377	218.808	143.921	274.023	281.298	143.815	151.409	322.000	244.900	151.001	157.405	157.635	164.764	277.142	163.845	-8191	255	
659.421	1	1	0	0	0.091567	0.232	0.0086938	0.2353	0.095248	0.024878	0.19038	0.33317	0.099921	0.18961	0.18339	0.099133	0.22398	0.0088553	0.11268	0.061614	-3.5812	-3.3875	-3.5312	-4.0021	-3.6208	-3.6208	-3.9833	-3.4583	-3.7729	-3.5917	-3.5563	-3.9854	-3.575	-3.6604	-3.7542	-3.5125	298.745	394.503	209.023	435.997	458.435	216.812	421.408	417.870	390.430	395.305	480.081	154.882	437.930	389.176	228.510	394.354	0.00071674	0.00023019	9.2689e-05	1231.7	3.2592e-06	4.5535e-06	1294.8	258.91	8.155e-06	4.0037e-06	320.71	89.577	70.696	20.289	3.307e-06	28.557	0.0004018	0.00036812	0.00010212	1217.1	4.0455e-06	4.1149e-06	1282.8	258.03	4.029e-06	4.0438e-06	321.64	89.702	70.453	20.598	3.9121e-06	29.17	320.576	212.073	237.139	144.030	304.085	302.856	143.971	151.173	315.334	280.506	151.149	157.261	157.693	164.504	293.512	164.126	-8191	255	
659.517	1	1	0	0	0.099879	0.16948	0.18337	0.39749	0.18462	0.11076	0.25024	0.1814	0.17582	0.17663	0.073923	0.065859	0.06916	0.27405	0.33658	0.17351	-3.4	-3.7542	-3.5875	-3.8667	-3.4604	-3.6937	-4.0062	-3.4188	-3.7542	-3.7042	-3.6958	-4.0146	-3.5833	-3.775	-3.85	-3.4938	455.869	477.896	424.131	401.016	381.515	479.660	467.119	457.141	181.445	176.260	206.221	432.215	392.975	346.359	199.633	384.856	0.00068852	0.000241	9.0045e-05	1226.6	2.9221e-06	3.9582e-06	1286.3	259.55	8.2913e-06	3.198e-06	316.66	89.331	70.647	20.272	4.0953e-06	28.555	0.00040647	0.00037065	0.000101	1213.6	3.7925e-06	4.1899e-06	1279.3	258.18	4.0173e-06	3.8028e-06	320.4	89.695	70.485	20.648	3.8776e-06	29.156	321.139	219.158	214.089	144.139	271.703	281.817	143.859	151.253	325.309	296.391	150.952	157.540	157.578	164.697	272.071	164.041	-8191	255	
659.613	1	1	0	0	0.18548	0.23897	0.067821	0.17189	0.068543	0.10583	0.11351	0.25345	0.080369	0.2471	0.068337	0.27017	0.12952	0.17039	0.078693	0.1575	-3.2208	-3.8146	-3.3646	-3.95	-3.475	-3.575	-3.9938	-3.2875	-3.6917	-3.8854	-3.4062	-3.9167	-3.4896	-3.4708	-3.8042	-3.5604	260.566	252.191	320.277	469.388	335.151	286.562	141.850	267.524	437.563	202.808	409.688	394.307	272.388	271.201	140.584	479.053	0.00064764	0.00039808	0.00011308	1224.3	3.1379e-06	2.47e-06	1288.9	259.57	8.2998e-06	3.5124e-06	319.9	89.17	70.195	20.163	3.8161e-06	28.451	0.00039681	0.00035514	0.0001021	1212.5	4.0281e-06	4.0814e-06	1280.5	258.38	3.9784e-06	3.8101e-06	320.91	89.74	70.431	20.623	3.8215e-06	29.123	322.369	234.628	234.312	144.104	278.827	300.269	143.910	151.240	305.800	291.931	151.010	157.548	157.806	164.559	319.828	164.085	-8191	255	
659.734	1	1	0	0	0.22523	0.092803	0.071822	0.25023	0.19127	0.20939	0.24634	0.030751	0.15307	0.12568	0.15624	0.1098	0.087788	0.10181	0.24095	0.19936	-3.5187	-3.8563	-3.4667	-3.9021	-3.6771	-3.3729	-4.0188	-3.5104	-3.7562	-3.9021	-3.6125	-4.0854	-3.7229	-3.5833	-3.8479	-3.5021	338.468	174.493	200.824	135.181	371.966	337.828	191.765	278.663	445.617	487.538	429.613	233.637	397.201	361.455	144.526	338.916	0.00063079	0.0002411	0.00011177	1226.8	2.6789e-06	1.7633e-06	1290.9	259.35	6.5537e-06	2.1786e-06	320.11	89.659	70.211	20.136	4.3937e-06	28.576	0.0004034	0.00035966	9.8675e-05	1217.3	3.9109e-06	3.7474e-06	1279.1	258.25	3.8708e-06	3.8089e-06	319.84	89.712	70.299	20.547	3.7226e-06	29.148	325.456	229.586	201.524	143.751	278.897	267.157	143.847	151.080	314.990	296.468	151.000	157.258	157.995	164.856	299.917	163.629	-8191	255	
659.828	1	1	0	0	0.076964	0.14677	0.24723	0.12629	0.11717	0.21223	0.19134	0.26798	0.083933	0.047062	0.18183	0.15255	0.23742	0.037771	0.17099	0.06921	-3.2625	-3.825	-3.3146	-3.6813	-3.6583	-3.4417	-4.0042	-3.6063	-3.6458	-3.8812	-3.5146	-3.8208	-3.7438	-3.3563	-3.9146	-3.5375	385.223	356.066	175.369	438.326	268.695	431.959	142.595	164.317	374.114	229.883	170.902	171.641	405.125	216.967	370.423	437.866	0.00063544	0.00037891	0.00010473	1212.1	5.2342e-06	2.6783e-06	1287.9	259.18	3.7189e-06	3.5764e-06	318.95	89.04	70.155	20.016	5.182e-06	28.334	0.00038285	0.00034302	0.00010069	1209	3.8952e-06	4.0083e-06	1275.3	257.51	3.7962e-06	3.8444e-06	320.24	89.414	70.167	20.497	3.671e-06	29.012	324.467	210.038	242.781	144.192	267.286	279.521	143.789	151.206	307.646	317.457	150.703	157.464	157.505	164.857	299.300	163.874	-8191	255	
659.925	1	1	0	0	0.36619	0.13178	0.15003	0.31126	0.28282	0.20716	0.37383	0.12101	0.085754	0.21755	0.070978	0.2329	0.12425	0.241	0.15948	0.14506	-3.0083	-3.7354	-3.2583	-3.5938	-3.7562	-3.4229	-4.0042	-3.5312	-3.35	-3.9875	-3.5208	-3.7604	-3.9062	-3.3604	-3.8458	-3.6396	240.907	379.531	225.566	474.156	270.973	176.901	407.014	480.305	205.304	242.116	401.927	420.101	435.997	464.599	325.486	400.599	0.00069352	0.00031305	0.00011971	1211.5	2.5359e-06	1.2591e-06	1288.5	258.1	5.7677e-06	4.387e-06	318.72	88.979	70.118	20.016	4.8149e-06	28.554	0.00041217	0.00035395	0.00010019	1207.8	3.8325e-06	3.8431e-06	1274.2	257.15	4.0567e-06	3.7844e-06	319.47	89.382	70.234	20.504	3.6832e-06	29.03	323.935	218.956	231.949	143.780	282.613	299.154	143.818	151.232	310.592	283.446	150.628	157.531	157.759	164.729	290.730	164.126	-8191	255	
660.045	1	1	0	0	0.25516	0.16498	0.34343	0.19849	0.30911	0.10571	0.11682	0.1999	0.21613	0.16613	0.12727	0.12381	0.0051714	0.22524	0.19607	0.18193	-3.1104	-3.8937	-3.5083	-3.6771	-3.6979	-3.2896	-3.9271	-3.5792	-3.3312	-3.7354	-3.6437	-3.8354	-3.7396	-3.3875	-3.6542	-3.5292	282.353	157.159	384.758	331.722	149.881	352.979	386.517	457.894	330.107	428.484	417.869	303.452	345.705	415.015	457.498	314.423	0.00062136	0.00043992	7.6651e-05	1211.3	3.7576e-06	1.7571e-06	1283	257.04	7.215e-06	2.6564e-06	317.4	88.718	70.04	20.06	2.4937e-06	28.384	0.00039697	0.00033979	9.8386e-05	1206.9	3.6863e-06	3.8291e-06	1271	256.62	3.8282e-06	3.6003e-06	319.08	89.276	69.968	20.448	3.6804e-06	29.043	321.475	238.677	237.077	143.963	274.635	310.172	143.981	151.206	314.627	244.453	150.414	157.261	157.820	165.040	290.575	163.965	-8191	255	
660.117	1	1	0	0	0.20236	0.14028	0.1566	0.32452	0.057766	0.22523	0.11561	0.03407	0.066028	0.024999	0.211	0.18074	0.18688	0.25342	0.1335	0.23663	-2.9521	-3.9104	-3.4292	-3.5521	-3.9146	-3.5396	-3.9521	-3.8	-3.2625	-3.8937	-3.5208	-3.6	-3.7042	-3.375	-3.7104	-3.8854	322.022	135.099	253.337	187.187	489.635	450.968	367.590	353.312	147.642	201.646	360.224	257.115	271.788	488.365	301.658	188.823	0.0006712	0.00030694	9.1536e-05	1205.5	4.5381e-06	2.365e-06	1278.4	257.11	6.1741e-06	4.6337e-06	317.34	88.677	69.537	19.866	6.3946e-06	28.221	0.00038999	0.00033403	9.9949e-05	1202.8	3.6288e-06	3.9034e-06	1268.3	256	3.7898e-06	3.6627e-06	318.3	88.874	69.704	20.364	3.6238e-06	28.875	323.501	181.283	222.029	144.330	284.604	294.575	143.853	151.409	315.748	291.236	150.915	157.299	157.637	164.627	269.514	163.951	-8191	255	
660.213	1	1	0	0	0.065452	0.025329	0.29648	0.031551	0.31887	0.090457	0.19436	0.06133	0.18188	0.080631	0.32873	0.18081	0.17634	0.087798	0.048485	0.20756	-3.0687	-3.75	-3.7896	-3.6667	-4.0563	-3.4229	-3.8563	-3.775	-3.2604	-3.7771	-3.6792	-3.3875	-3.9604	-3.4979	-3.4604	-3.7417	383.539	183.452	283.773	440.065	393.708	276.505	340.584	229.427	324.716	240.389	445.049	377.169	404.828	485.186	420.468	399.492	0.00060607	0.00039951	3.2473e-05	1207.6	3.4177e-06	2.1729e-06	1274.6	255.73	5.4636e-06	5.299e-06	315.56	87.943	69.719	20.038	3.7009e-06	28.274	0.00039245	0.00033634	9.9843e-05	1201.5	3.6335e-06	3.8346e-06	1263.8	255.12	3.9832e-06	3.8878e-06	317.23	88.68	69.704	20.369	3.6493e-06	28.855	321.496	229.393	231.188	144.179	280.910	257.599	144.078	151.424	329.672	295.979	150.749	157.317	157.787	165.065	278.959	164.184	-8191	255	
660.334	1	1	0	0	0.25176	0.16543	0.25909	0.1873	0.12342	0.25745	0.24252	0.068555	0.031578	0.13499	0.18212	0.029195	0.13649	0.092471	0.19475	0.16757	-2.95	-3.7458	-3.5979	-3.4146	-3.7125	-3.5042	-3.8646	-3.9979	-3.4604	-3.7229	-3.6271	-3.6437	-3.9583	-3.5375	-3.4979	-3.8125	225.709	278.984	158.292	447.516	453.487	321.414	452.419	159.550	310.730	291.701	461.438	422.946	172.572	442.612	446.862	196.092	0.00064008	0.00034035	7.2789e-05	1200.5	3.5437e-06	3.0478e-06	1274.9	256.25	8.0826e-06	3.806e-06	316.27	88.057	69.594	19.921	5.1669e-06	28.245	0.00039482	0.00033704	9.5261e-05	1195.2	3.7234e-06	3.9607e-06	1263.9	255.25	3.8437e-06	3.7856e-06	317.67	88.6	69.683	20.32	3.756e-06	28.828	320.078	198.908	243.580	144.254	277.543	297.348	143.852	151.467	307.189	305.155	150.509	157.367	157.455	164.961	283.009	163.988	-8191	255	
660.430	1	1	0	0	0.16794	0.25992	0.18662	0.090971	0.11195	0.20967	0.13954	0.19164	0.1882	0.14371	0.2261	0.13282	0.096451	0.12052	0.27555	0.068122	-3.0604	-3.6333	-3.7438	-3.4667	-3.8021	-3.7375	-3.5542	-4.0875	-3.4729	-3.7229	-3.7271	-3.4917	-3.9938	-3.8	-3.5312	-4.0292	405.875	166.151	163.249	296.520	461.011	149.502	402.020	271.557	372.538	203.010	430.447	483.721	431.114	411.708	249.574	205.926	0.00062928	0.00036621	4.8378e-05	1213.4	3.3099e-06	2.488e-06	1278.3	255.94	7.5012e-06	1.5178e-06	317.38	88.537	69.213	19.888	4.0634e-06	28.218	0.00038928	0.0003301	9.7264e-05	1198.7	3.6155e-06	3.7504e-06	1264.9	254.84	4.012e-06	3.7912e-06	317.7	88.77	69.524	20.312	3.7749e-06	28.816	323.107	234.210	197.310	144.400	252.860	293.922	143.919	151.158	322.982	245.242	150.555	157.631	158.053	164.649	280.889	164.312	-8191	255	
660.526	1	1	0	0	0.054166	0.18356	0.053992	0.081964	0.1492	0.13748	0.20341	0.087637	0.034956	0.041575	0.2165	0.037401	0.095486	0.23473	0.11171	0.19325	-3.2042	-3.7125	-3.7479	-3.2562	-3.7896	-3.75	-3.6625	-4.0521	-3.3271	-3.675	-3.9354	-3.4292	-4.0125	-3.7396	-3.3604	-4.0083	301.621	275.722	207.123	462.043	343.106	437.012	406.029	397.641	230.589	413.785	377.548	358.265	353.357	363.575	483.089	381.214	0.00062984	0.00032598	9.8036e-05	1202.4	3.0877e-06	3.0614e-06	1274.9	257.41	6.8955e-06	3.0018e-06	316.2	88.418	69.658	19.94	4.9363e-06	28.319	0.00040093	0.00034927	9.6536e-05	1199.1	3.67e-06	3.7504e-06	1262.2	255.46	3.8426e-06	3.8309e-06	317.71	88.782	69.706	20.342	3.7587e-06	28.888	321.857	238.650	217.839	144.284	268.954	278.563	143.883	151.059	307.682	286.540	150.738	157.286	157.922	164.956	306.953	164.060	-8191	255	
660.622	1	1	0	0	0.27817	0.11441	0.098608	0.1692	0.13553	0.18815	0.17182	0.17327	0.061942	0.084015	0.11245	0.19678	0.071701	0.1873	0.1651	0.25251	-3.1979	-3.5687	-3.7396	-3.4604	-3.8958	-3.675	-3.4875	-3.8417	-3.475	-3.6125	-3.8333	-3.5542	-3.7604	-3.6771	-3.4833	-3.8542	248.513	273.000	456.475	150.626	378.766	475.782	391.919	418.895	326.694	223.845	363.978	480.976	435.857	482.886	164.643	422.741	0.00069803	0.0001644	7.6949e-05	1204.2	5.2542e-06	3.0999e-06	1277.4	255.85	6.2845e-06	3.9853e-06	315.96	88.615	69.916	20.028	5.7978e-06	28.323	0.00040622	0.00035121	9.4427e-05	1195.8	3.8261e-06	3.7279e-06	1263.6	255.02	3.7771e-06	3.7343e-06	317.54	88.806	69.677	20.357	3.776e-06	28.882	322.760	202.902	207.524	144.110	288.873	298.974	144.003	151.183	316.565	289.008	150.496	157.672	158.045	164.832	303.610	163.991	-8191	255	
660.716	1	1	0	0	0.041368	0.094325	0.09364	0.1922	0.037624	0.15634	0.2783	0.16998	0.22947	0.11272	0.24947	0.23359	0.21337	0.059458	0.19769	0.075956	-3.2292	-3.4854	-3.8417	-3.4729	-3.8396	-3.7417	-3.4813	-3.9688	-3.7229	-3.6229	-4.0479	-3.4542	-3.6042	-3.8625	-3.4625	-4.0563	345.232	467.706	268.436	244.027	438.506	487.530	445.093	432.948	465.252	361.776	404.892	459.336	459.837	160.451	381.554	360.999	0.00064692	0.00033208	8.9249e-05	1207.6	3.3857e-06	2.4815e-06	1272.9	256.57	3.7478e-06	3.6238e-06	316.01	88.567	69.86	19.985	3.7917e-06	28.138	0.000393	0.00034889	9.6809e-05	1198.2	3.7118e-06	3.559e-06	1262.1	255.74	3.8841e-06	3.7801e-06	317.6	88.859	69.712	20.408	3.8237e-06	28.869	325.590	224.382	224.366	144.251	280.229	302.548	143.857	151.434	316.536	291.466	151.042	157.593	157.528	164.815	288.758	163.807	-8191	255	
660.813	1	1	0	0	0.33467	0.097522	0.048458	0.13282	0.068645	0.17561	0.12654	0.21969	0.22851	0.05973	0.34044	0.044784	0.26582	0.16121	0.17923	0.16162	-3.2271	-3.4792	-3.9292	-3.5271	-3.6208	-4.025	-3.6979	-4.0417	-3.55	-3.5542	-4.1188	-3.7125	-3.5021	-3.9854	-3.4437	-3.8979	255.266	415.674	223.194	158.832	225.587	391.900	380.963	409.964	376.723	370.449	136.496	309.860	458.354	148.987	188.850	393.769	0.00059747	0.00033625	6.4315e-05	1208.9	3.2555e-06	3.4814e-06	1279.3	255.92	6.0238e-06	3.1085e-06	316.77	88.065	69.513	20.01	6.3101e-06	28.082	0.00038272	0.00033031	9.3076e-05	1201.3	3.7077e-06	3.6407e-06	1264.6	255.35	3.931e-06	3.8609e-06	316.91	88.557	69.578	20.36	3.8521e-06	28.882	321.619	230.969	228.900	144.118	272.746	303.991	143.939	151.676	326.505	277.247	150.620	157.597	158.080	164.743	276.114	164.045	-8191	255	
660.909	1	1	0	0	0.15855	0.21911	0.19356	0.005681	0.23744	0.20828	0.30749	0.017533	0.087263	0.16107	0.061553	0.40262	0.086039	0.16818	0.22794	0.08542	-3.3583	-3.2562	-3.9562	-3.6417	-3.5958	-4.0938	-3.65	-3.8042	-3.8208	-3.3333	-3.9125	-3.5708	-3.6167	-3.9667	-3.3917	-3.7271	167.987	383.654	165.639	396.336	160.335	479.879	394.579	196.468	459.224	264.917	420.881	475.336	187.330	453.323	316.440	477.031	0.00062525	0.00044356	6.9855e-05	1202.2	2.338e-06	2.3827e-06	1270.5	256.38	6.0654e-06	3.4728e-06	316.02	88.573	69.386	19.983	4.266e-06	28.391	0.00038919	0.0003441	9.4063e-05	1197.5	3.8047e-06	3.8364e-06	1262.7	255.48	3.7467e-06	3.8603e-06	317.92	88.79	69.529	20.375	3.7515e-06	28.902	319.210	230.175	214.283	144.381	288.738	317.146	144.128	151.477	302.589	326.866	150.668	157.176	157.917	164.519	273.955	164.131	-8191	255	
661.005	1	1	0	0	0.073987	0.10974	0.058353	0.14533	0.030161	0.32373	0.039858	0.17376	0.1126	0.27171	0.16353	0.034823	0.083411	0.13181	0.19799	0.12331	-3.3417	-3.3417	-3.8208	-3.7542	-3.3812	-3.8937	-3.6521	-3.7583	-3.7396	-3.2938	-4.2	-3.8354	-3.3937	-4.0312	-3.4979	-3.6292	157.306	461.669	305.154	256.542	149.440	187.024	409.362	395.848	278.529	394.472	377.012	466.657	248.671	364.890	398.831	189.220	0.00062124	0.00030512	8.8864e-05	1210.1	3.9776e-06	3.4401e-06	1276.4	255.47	7.082e-06	3.1793e-06	317.21	88.171	69.808	19.905	5.1265e-06	28.141	0.00038682	0.00033371	9.3092e-05	1201.2	3.977e-06	3.6614e-06	1263.9	255.32	3.8809e-06	3.8872e-06	317.86	88.477	69.691	20.335	3.8965e-06	28.818	323.035	206.808	195.590	143.970	300.091	284.613	144.097	151.146	319.415	276.953	150.972	157.634	157.789	164.567	310.085	164.110	-8191	255	
661.126	1	1	0	0	0.12581	0.073682	0.18495	0.19549	0.13908	0.27827	0.13215	0.079855	0.23676	0.08534	0.30999	0.23348	0.37118	0.011476	0.031708	0.19327	-3.7479	-3.2854	-3.7771	-3.8375	-3.4771	-3.9604	-3.7687	-3.7313	-3.775	-3.5021	-3.8542	-3.7167	-3.4667	-3.9708	-3.4833	-3.65	483.452	319.817	293.341	481.386	445.669	355.770	142.781	182.430	408.599	197.256	471.791	355.551	418.890	169.801	207.864	369.705	0.00062107	0.00022528	6.5136e-05	1198.2	4.8245e-06	2.2239e-06	1269.4	256.32	4.9923e-06	2.1008e-06	318.73	88.732	69.551	20.076	5.0677e-06	28.25	0.00039341	0.00035088	9.6035e-05	1193.4	3.9695e-06	3.6816e-06	1262	254.93	3.7712e-06	3.7697e-06	317.58	88.751	69.582	20.361	3.7587e-06	28.839	320.482	252.084	236.862	143.966	272.005	283.226	143.995	151.464	327.859	259.828	150.938	157.488	157.828	164.801	284.079	164.045	-8191	255	
661.222	1	1	0	0	0.1819	0.28577	0.22461	0.10987	0.1167	0.40801	0.2004	0.30337	0.024658	0.10406	0.10023	0.1977	0.14831	0.12607	0.17207	0.030931	-3.6271	-3.5021	-3.8438	-3.8417	-3.3271	-3.9188	-3.8396	-3.6917	-3.9125	-3.45	-3.7333	-3.7958	-3.4083	-3.8708	-3.6292	-3.6479	206.042	213.014	209.545	409.255	428.389	290.853	423.659	168.854	407.727	161.027	237.626	224.837	398.686	148.253	164.643	390.766	0.0006464	0.00031989	9.0362e-05	1196.4	5.5677e-06	2.5678e-06	1275.1	255.58	8.5342e-06	1.9512e-06	317.22	88.616	69.252	19.987	4.5807e-06	28.382	0.00038823	0.00033866	9.2561e-05	1198.3	4.0461e-06	3.7206e-06	1263.9	254.75	3.8559e-06	3.8309e-06	317.26	88.756	69.438	20.373	3.5776e-06	28.898	319.724	205.923	250.900	143.992	273.842	257.064	143.931	151.228	315.772	287.243	150.784	157.284	158.036	164.814	284.988	164.034	-8191	255	
661.318	1	1	0	0	0.19018	0.0906	0.094223	0.24322	0.1294	0.14226	0.12388	0.091103	0.15139	0.10149	0.025333	0.070355	0.18096	0.15028	0.15599	0.007815	-3.6521	-3.4333	-3.5854	-3.8646	-3.4021	-3.7396	-3.8646	-3.4771	-3.9625	-3.575	-3.5958	-3.9646	-3.2896	-3.7979	-3.7729	-3.425	134.569	315.828	215.850	474.317	291.182	439.524	422.184	300.538	148.338	417.967	459.627	348.507	152.322	478.076	344.125	219.856	0.0006163	0.0002849	9.3481e-05	1209.6	1.6592e-06	2.0344e-06	1272.6	254.88	6.1092e-06	3.0841e-06	316.94	88.732	69.452	20.078	3.8691e-06	28.24	0.00038368	0.0003476	9.6505e-05	1195.6	3.9973e-06	3.6206e-06	1262.1	254.94	3.686e-06	3.763e-06	317.84	88.761	69.542	20.381	3.7404e-06	28.808	320.394	238.723	223.819	144.059	289.672	264.016	143.874	151.399	309.528	286.183	150.900	157.472	157.713	164.614	289.161	164.544	-8191	255	
661.414	1	1	0	0	0.3186	0.24915	0.20903	0.20852	0.31688	0.074296	0.1697	0.20694	0.036002	0.21737	0.23143	0.27572	0.078286	0.09862	0.26848	0.23636	-3.5771	-3.3104	-3.5625	-3.9375	-3.1542	-3.7687	-4.0062	-3.4083	-4.1188	-3.4896	-3.5833	-3.8542	-3.3646	-3.675	-3.6979	-3.5271	346.688	434.373	234.732	445.558	405.989	358.346	403.596	466.367	171.988	225.578	383.119	258.265	172.445	472.439	210.846	238.301	0.00061768	0.00039917	7.6057e-05	1214.7	4.0312e-06	2.3079e-06	1270.5	257.99	8.1222e-06	2.4756e-06	316.05	88.593	69.421	19.921	1.5315e-06	28.279	0.00038951	0.00036505	9.8462e-05	1201.9	3.8319e-06	3.709e-06	1263.6	255.88	3.7275e-06	3.8676e-06	317.73	88.76	69.695	20.363	3.7476e-06	28.857	321.743	229.527	237.054	144.019	292.094	248.951	144.046	151.250	304.862	290.684	150.831	157.397	157.529	164.706	311.781	163.868	-8191	255	
661.510	1	1	0	0	0.10336	0.13978	0.16256	0.12367	0.090541	0.31493	0.18628	0.23155	0.20714	0.090743	0.13671	0.11046	0.23479	0.222	0.2379	0.18615	-3.4104	-3.5583	-3.5729	-3.8104	-3.2604	-3.5229	-3.8812	-3.5312	-3.9479	-3.6625	-3.4146	-3.8979	-3.4688	-3.7021	-4.0417	-3.4208	167.525	467.875	378.590	148.870	267.974	232.010	417.418	431.055	472.236	237.312	401.627	361.344	136.321	455.519	481.730	448.396	0.00064271	0.00017228	0.00013048	1203.3	4.2204e-06	3.3528e-06	1277.5	257.45	5.8539e-06	3.4631e-06	319.09	88.239	69.874	20.01	5.2664e-06	28.209	0.00039709	0.00033984	0.00010198	1198.7	3.9637e-06	3.6919e-06	1263.5	255.59	3.9518e-06	3.8211e-06	318.22	88.823	69.851	20.436	3.6293e-06	28.841	318.070	219.360	245.407	144.414	307.866	268.959	143.788	151.645	312.569	280.136	150.893	157.566	157.777	164.723	291.577	164.211	-8191	255	
661.606	1	1	0	0	0.032712	0.095715	0.12815	0.1359	0.080534	0.038258	0.18068	0.23208	0.10041	0.040605	0.099105	0.12222	0.10645	0.0087445	0.065053	0.41161	-3.5812	-3.6208	-3.4042	-4.0104	-3.3812	-3.675	-4.05	-3.4562	-3.8812	-3.6937	-3.5687	-3.7771	-3.5396	-3.7271	-3.9021	-3.5104	283.392	298.979	436.793	156.942	421.291	184.589	265.631	434.749	490.969	472.439	266.095	454.377	421.675	425.609	218.737	415.314	0.00060427	0.00034552	7.0354e-05	1208	3.6602e-06	2.6008e-06	1285	256.92	6.8912e-06	2.0112e-06	318.68	88.488	69.694	20.033	2.8629e-06	28.329	0.00037607	0.00034178	9.7112e-05	1199.2	3.8766e-06	3.9095e-06	1267.8	255.63	3.7206e-06	3.8279e-06	318.4	88.901	69.867	20.421	3.6332e-06	28.924	323.771	228.995	239.424	143.791	283.527	275.190	143.947	151.318	318.145	306.215	150.969	157.688	157.769	164.540	289.817	163.912	-8191	255	
661.725	1	1	0	0	0.03891	0.12872	0.10106	0.1198	0.28942	0.085421	0.18766	0.16436	0.12818	0.07359	0.31019	0.23267	0.19702	0.12085	0.22374	0.097743	-3.3937	-3.6042	-3.2333	-3.9917	-3.6292	-3.5812	-4.175	-3.5271	-3.9625	-3.8833	-3.4542	-3.7854	-3.6271	-3.5396	-3.9792	-3.3854	356.896	357.470	145.307	142.387	296.932	178.097	476.885	491.848	377.766	174.733	461.496	449.725	357.166	349.973	469.713	144.266	0.00064525	0.00043585	0.00012129	1212.8	4.1534e-06	2.4243e-06	1271.8	256.55	5.3634e-06	4.3748e-06	316.76	89.154	69.933	20.088	5.1033e-06	28.205	0.00039613	0.00032315	9.8265e-05	1201	3.9172e-06	3.8407e-06	1267.3	255.65	3.8042e-06	3.93e-06	318.35	88.944	69.701	20.449	3.5415e-06	28.908	322.417	216.027	212.797	144.190	281.906	279.704	144.016	151.230	296.560	296.716	150.969	157.484	157.437	164.803	287.811	163.873	-8191	255	
661.821	1	1	0	0	0.0082074	0.14363	0.21027	0.12757	0.16284	0.10289	0.13202	0.34454	0.026324	0.24996	0.12295	0.17635	0.17808	0.41655	0.086972	0.092915	-3.3187	-3.6208	-3.2542	-3.8542	-3.7396	-3.5542	-3.8292	-3.4146	-3.6312	-3.7208	-3.3625	-3.7021	-3.6792	-3.4437	-3.85	-3.4833	461.225	353.262	214.109	411.473	141.518	419.059	477.451	433.747	225.950	478.566	357.541	467.063	178.179	399.893	266.613	462.427	0.00069965	0.00044224	6.7824e-05	1207.9	5.1055e-06	2.7307e-06	1279.8	257.75	5.9834e-06	3.3534e-06	317.4	88.867	69.76	20.105	2.7591e-06	28.367	0.00040654	0.00034911	0.00010253	1201.7	4.0623e-06	3.8175e-06	1267.7	255.76	3.7696e-06	3.7875e-06	318.51	89.038	69.784	20.453	3.6043e-06	28.964	319.826	226.612	212.965	143.963	274.882	262.382	143.827	151.068	322.493	297.131	150.932	157.579	157.927	164.638	306.525	163.882	-8191	255	
661.917	1	1	0	0	0.037355	0.2205	0.11937	0.1768	0.21171	0.07929	0.35071	0.18727	0.14356	0.07219	0.23008	0.1479	0.18646	0.10441	0.21176	0.096152	-3.2021	-3.8438	-3.3958	-3.8354	-3.6729	-3.4979	-4.1312	-3.6604	-3.4792	-3.7896	-3.525	-3.9313	-3.9042	-3.5	-3.9708	-3.7583	296.827	296.674	198.701	206.534	407.579	416.723	461.638	168.301	388.836	287.614	401.866	460.564	137.911	387.929	416.884	334.607	0.00065392	0.00039693	5.573e-05	1209.8	4.728e-06	2.3005e-06	1281.3	257.81	6.2123e-06	2.6198e-06	318.85	89.096	69.897	19.95	3.3258e-06	28.31	0.0004027	0.00033543	9.7719e-05	1202	3.8395e-06	3.8705e-06	1267.9	256.1	3.9012e-06	3.719e-06	318.63	89.15	69.864	20.36	3.736e-06	28.874	323.183	232.843	232.833	144.126	291.068	278.134	144.134	151.141	324.220	293.736	150.850	157.558	158.157	164.600	273.776	163.856	-8191	255	
662.014	1	1	0	0	0.092618	0.084539	0.21108	0.19169	0.096316	0.077446	0.11787	0.17192	0.054174	0.058414	0.19419	0.044824	0.21596	0.30175	0.075582	0.16288	-3.1771	-3.8583	-3.4208	-3.6479	-3.8312	-3.4375	-3.95	-3.7729	-3.4479	-3.8604	-3.5083	-3.7062	-3.7708	-3.3333	-3.7792	-3.7479	279.739	167.812	320.045	431.458	485.729	329.034	426.311	481.501	248.400	356.425	151.598	431.643	445.615	322.060	439.788	465.090	0.00064321	0.00024628	6.3918e-05	1215.5	3.2782e-06	1.8483e-06	1277.6	256.94	4.1762e-06	4.9344e-06	318.76	88.334	70.05	19.944	6.4647e-06	28.099	0.00039655	0.000335	9.2606e-05	1203	3.7176e-06	3.9943e-06	1267.8	255.51	3.963e-06	3.7808e-06	318.1	88.924	69.843	20.371	3.6993e-06	28.896	320.856	234.557	244.740	144.056	330.141	282.247	144.032	151.226	308.296	276.541	150.750	157.409	157.605	165.052	294.225	164.123	-8191	255	
662.110	1	1	0	0	0.14393	0.1405	0.20577	0.034516	0.0864	0.2113	0.20007	0.18007	0.19312	0.13355	0.17057	0.29316	0.10773	0.068654	0.17677	0.23065	-3.0958	-3.9917	-3.3833	-3.6437	-3.9229	-3.3125	-3.8833	-3.9417	-3.3646	-4.1167	-3.5375	-3.7792	-3.9146	-3.4208	-3.8	-3.8167	283.732	462.816	475.266	275.236	155.980	453.447	439.341	458.557	215.415	296.059	376.634	392.453	309.041	424.296	187.054	226.605	0.00062183	0.00030147	0.00010759	1216.9	4.4097e-06	2.6744e-06	1281.7	255.93	6.8051e-06	4.4619e-06	316.11	88.756	69.52	20.021	5.0924e-06	28.217	0.00039927	0.00032536	0.00010345	1202.3	3.7135e-06	3.8163e-06	1268.6	255.15	3.9875e-06	3.875e-06	317.91	89.017	69.586	20.444	3.6721e-06	28.869	322.133	216.889	218.989	144.373	259.623	306.940	143.950	151.211	322.277	287.522	150.909	157.511	157.773	164.286	287.913	164.085	-8191	255	
662.206	1	1	0	0	0.088656	0.05974	0.22712	0.11154	0.092395	0.1773	0.31949	0.059019	0.20384	0.093571	0.096961	0.20078	0.18948	0.10694	0.061162	0.18922	-3.1396	-3.8667	-3.5667	-3.5146	-3.9208	-3.4958	-4.0125	-4.0062	-3.3875	-3.8875	-3.7375	-3.6146	-4.0208	-3.5667	-3.8104	-3.9917	203.988	474.528	308.360	249.927	180.251	220.233	455.580	225.522	481.556	280.814	385.217	402.983	383.120	359.318	425.377	409.940	0.00062825	0.00027606	6.7081e-05	1211.2	3.6783e-06	2.7025e-06	1275.8	256.3	4.976e-06	2.1701e-06	317.01	88.573	69.279	20.122	4.8762e-06	28.363	0.00039975	0.00032854	9.5049e-05	1203.4	3.7309e-06	3.8407e-06	1265.2	255.21	3.7733e-06	3.607e-06	318.25	88.9	69.662	20.445	3.5893e-06	28.904	317.357	238.613	216.023	144.127	256.961	285.922	143.889	151.278	304.976	305.519	150.970	157.356	157.754	164.479	302.897	164.342	-8191	255	
662.302	1	1	0	0	0.046228	0.050928	0.07565	0.054337	0.033456	0.13506	0.23729	0.30322	0.20577	0.22044	0.098475	0.0070193	0.037338	0.048189	0.083308	0.21351	-3.0229	-3.8	-3.5875	-3.3937	-3.8438	-3.425	-3.8396	-3.9292	-3.4229	-3.8396	-3.8	-3.5458	-4.025	-3.5687	-3.8146	-3.7604	385.790	309.121	220.527	230.199	321.825	426.048	177.702	371.112	272.942	376.230	248.778	348.503	461.607	392.415	398.190	382.061	0.000595	0.00048732	6.2023e-05	1209.9	4.3466e-06	2.4041e-06	1275.8	256.4	4.1288e-06	2.3487e-06	318.02	89.127	69.511	20.017	4.8712e-06	28.191	0.00038029	0.00033117	9.0042e-05	1201.1	3.5853e-06	3.6566e-06	1266	255.58	3.7627e-06	3.6211e-06	318.14	89.045	69.769	20.36	3.7371e-06	28.923	321.684	220.053	280.732	143.777	280.622	284.004	144.151	151.128	306.419	300.060	150.726	157.259	157.664	164.397	292.434	164.086	-8191	255	
662.423	1	1	0	0	0.080471	0.12006	0.16674	0.082984	0.1195	0.18241	0.47162	0.33665	0.16183	0.11556	0.18755	0.15606	0.23363	0.16176	0.14205	0.041593	-3.1292	-3.6771	-3.7583	-3.5375	-3.9313	-3.6979	-3.8417	-3.9854	-3.5583	-3.7062	-3.8563	-3.3771	-3.8792	-3.5812	-3.6	-3.9896	147.780	491.254	434.318	182.659	437.256	336.713	446.711	415.708	189.523	314.694	458.662	411.867	478.624	391.974	380.716	461.291	0.00063654	0.00033888	4.9685e-05	1205.9	3.2916e-06	3.3096e-06	1272.8	257.57	5.6447e-06	3.3072e-06	316.49	88.67	69.62	20.077	5.1972e-06	28.235	0.0003994	0.00031437	9.2196e-05	1199.7	3.6747e-06	3.6694e-06	1264.2	255.66	3.873e-06	3.7288e-06	318.27	89.018	69.826	20.411	3.6843e-06	28.815	321.425	239.287	224.301	144.209	250.514	264.318	144.092	151.382	316.266	275.058	150.973	157.218	157.770	164.456	295.928	163.922	-8191	255	
662.519	1	1	0	0	0.050524	0.15624	0.15569	0.11422	0.072753	0.037767	0.25678	0.12803	0.1382	0.013949	0.31007	0.082089	0.038432	0.19905	0.069602	0.083448	-3.0104	-3.8	-3.8271	-3.5792	-3.9771	-3.5625	-3.7417	-4.2	-3.6104	-3.6188	-3.8688	-3.5708	-4.0021	-3.6604	-3.4688	-4.1542	357.081	366.004	255.770	134.184	287.887	436.393	472.898	230.153	403.241	483.910	170.301	159.078	237.499	487.423	436.024	390.794	0.00060213	0.00034547	8.6139e-05	1211.7	3.286e-06	1.5717e-06	1275.3	257.75	6.6639e-06	2.5493e-06	317.37	88.564	69.541	20.024	4.7698e-06	28.251	0.00038186	0.00032579	9.2515e-05	1200.8	3.6079e-06	3.5944e-06	1266.2	255.79	3.8149e-06	3.7257e-06	318.14	88.932	69.889	20.45	3.6532e-06	28.866	324.913	237.286	213.516	143.888	280.880	275.393	144.064	151.240	319.680	270.913	150.821	157.353	158.006	164.736	250.415	164.109	-8191	255	
662.590	1	1	0	0	0.20093	0.059201	0.11021	0.13446	0.052438	0.029724	0.36818	0.19113	0.089983	0.14114	0.17516	0.087043	0.01683	0.19197	0.33024	0.13004	-3.0146	-3.5625	-3.9479	-3.4542	-3.8708	-3.7667	-3.5354	-4.0792	-3.6521	-3.7333	-4.025	-3.5312	-4.0208	-3.7792	-3.4896	-3.9396	215.640	346.092	168.554	135.973	248.123	441.059	398.839	456.119	440.780	288.406	172.950	406.652	390.968	463.474	322.674	134.419	0.00061417	0.00022695	6.739e-05	1211.8	3.4375e-06	2.3918e-06	1276.2	255.48	6.5846e-06	4.4753e-06	317.23	88.406	69.644	19.995	3.585e-06	28.304	0.00039572	0.00033834	9.5413e-05	1200.1	3.5998e-06	3.7949e-06	1266.1	255.14	3.8309e-06	3.8144e-06	317.51	88.814	69.709	20.391	3.7388e-06	28.93	322.588	265.822	247.348	143.982	274.666	298.277	144.110	151.325	313.207	269.729	150.923	157.228	158.076	164.775	279.571	163.902	-8191	255	
662.687	1	1	0	0	0.043032	0.39508	0.16023	0.033583	0.14738	0.10659	0.33845	0.33401	0.073118	0.2518	0.16653	0.093094	0.014721	0.19987	0.24757	0.21482	-3.2521	-3.5375	-3.9375	-3.3187	-3.8083	-3.8104	-3.5854	-4.1104	-3.55	-3.5021	-3.8583	-3.4583	-3.6479	-3.65	-3.4229	-3.9562	198.260	366.452	230.196	193.382	162.595	487.691	458.989	454.351	489.841	337.325	329.067	445.560	346.093	418.357	453.205	463.161	0.00065666	0.0003522	8.4988e-05	1212.7	2.9891e-06	2.433e-06	1272.4	256.84	6.9961e-06	2.7558e-06	317.41	88.534	69.69	20.05	4.7696e-06	28.487	0.00039556	0.00032606	8.8297e-05	1200.8	3.6863e-06	3.6419e-06	1264.1	255.37	3.7744e-06	3.826e-06	317.96	88.964	69.8	20.426	3.6526e-06	28.887	323.532	198.691	235.379	143.979	293.849	286.761	144.088	151.230	328.973	265.836	151.091	157.490	157.601	164.850	262.493	164.013	-8191	255	
662.806	1	1	0	0	0.055087	0.23896	0.10986	0.137	0.12346	0.16371	0.10877	0.40601	0.059251	0.12281	0.22471	0.20087	0.27891	0.16184	0.062644	0.11784	-3.1229	-3.4771	-3.9542	-3.3771	-3.7208	-3.6917	-3.6271	-3.8812	-3.4833	-3.4562	-3.8729	-3.5687	-3.7354	-3.8625	-3.3875	-3.9167	201.735	174.139	346.951	467.221	182.509	399.035	150.837	459.911	409.215	483.652	192.697	153.321	492.382	473.707	391.363	148.627	0.00064475	0.00019813	9.4376e-05	1210.1	2.3681e-06	2.5423e-06	1274.8	256.55	6.937e-06	2.6909e-06	316.77	88.848	69.61	19.949	4.7404e-06	28.352	0.00039476	0.00032805	8.989e-05	1197.7	3.9294e-06	3.8157e-06	1264.6	255.54	3.7536e-06	3.6621e-06	317.9	88.986	69.728	20.41	3.9237e-06	28.94	321.302	235.656	220.090	143.977	250.462	270.124	144.051	151.347	314.381	283.192	150.820	157.294	157.813	164.602	289.803	164.200	-8191	255	
662.902	1	1	0	0	0.24471	0.24692	0.17848	0.14457	0.11411	0.064505	0.11628	0.16268	0.095067	0.12036	0.2391	0.15613	0.081694	0.11381	0.087596	0.13149	-3.3937	-3.3937	-3.8521	-3.5167	-3.5646	-3.9042	-3.4875	-3.9833	-3.7104	-3.4917	-3.9604	-3.5833	-3.7104	-4.1271	-3.4604	-3.8792	401.012	298.721	317.689	183.050	294.331	227.289	383.997	467.114	284.225	283.441	465.147	451.056	206.711	181.800	233.546	257.288	0.0005878	0.00016027	9.1278e-05	1208.2	2.7899e-06	3.4586e-06	1280.4	257.14	7.0324e-06	4.7647e-06	317.35	89.175	69.605	20.08	5.9183e-06	28.323	0.00037699	0.0003525	9.159e-05	1200.8	3.894e-06	3.5578e-06	1265.5	255.68	3.622e-06	3.6523e-06	318.01	88.967	69.685	20.494	3.7576e-06	28.93	326.868	190.015	211.647	144.263	267.572	290.873	144.193	151.115	307.697	294.520	150.943	157.292	157.733	164.286	310.207	163.952	-8191	255	
662.998	1	1	0	0	0.19669	0.10912	0.1204	0.21117	0.081169	0.13971	0.050932	0.096968	0.077327	0.097102	0.24212	0.11569	0.074084	0.11772	0.20814	0.15775	-3.4083	-3.3792	-3.8375	-3.7479	-3.5917	-3.9083	-3.5521	-3.95	-3.9062	-3.4437	-4.0062	-3.7104	-3.7521	-4.0917	-3.4521	-3.7208	490.149	331.363	272.251	236.208	431.276	490.315	427.299	379.988	139.580	419.785	292.774	218.755	412.577	197.001	275.223	213.182	0.00063226	0.0003223	7.4248e-05	1209.5	4.1998e-06	4.2662e-06	1272.4	256.05	5.4057e-06	2.0248e-06	317.94	88.173	69.483	20.004	5.6756e-06	28.471	0.00037415	0.00032541	9.7719e-05	1199.3	3.7518e-06	3.5377e-06	1264	255.19	3.6647e-06	3.7869e-06	318.72	88.839	69.758	20.391	3.6354e-06	28.956	323.880	216.275	227.083	144.443	301.900	292.363	144.055	151.395	317.661	270.972	151.052	157.604	157.717	164.582	269.649	164.395	-8191	255	
663.094	1	1	0	0	0.16718	0.14442	0.11809	0.10685	0.038049	0.069405	0.086098	0.29331	0.067806	0.048507	0.13121	0.12213	0.13018	0.10652	0.24671	0.065372	-3.4979	-3.3667	-3.7438	-3.7125	-3.3479	-4.0271	-3.6125	-3.7167	-3.8271	-3.3563	-4.1146	-3.6854	-3.5812	-4.0667	-3.4542	-3.6646	381.077	255.097	400.757	286.099	382.966	464.403	268.339	424.223	364.797	416.060	154.748	296.515	466.978	218.490	246.469	182.597	0.0005818	0.00027638	0.00010978	1213.6	3.1203e-06	2.1561e-06	1268.6	257.42	5.4854e-06	2.9636e-06	317.57	88.558	69.546	19.977	4.1744e-06	28.209	0.00038202	0.00033936	9.5413e-05	1201.5	3.482e-06	3.6816e-06	1263.4	255.97	3.6055e-06	3.8028e-06	317.78	88.89	69.678	20.359	3.671e-06	28.88	323.116	227.859	228.002	144.098	271.439	284.846	143.845	151.403	306.481	273.336	151.262	157.200	157.631	164.541	274.884	163.813	-8191	255	
#DATA ENDS
