BOXY.EXE: ISS Imagent and Oximeter Data Acquisition Program Version 0.80
Ascii Record File

#ACQ INFORMATION
2  Detector Channels 
16  External MUX Channels 
1  Auxiliary Channels 
5000  Waveform (CCF) Frequency (Hz)
1  Waveforms Skipped 
30  Waveforms Averaged 
1  Cycles Averaged 
16  Acquisitions per Waveform 
10.0806  Updata Rate (Hz) 

#FILE INFORMATION
TRUE -- External MUX Channel results are PARSED.
FALSE -- AC DC and Phase are NOT grouped.
TRUE -- Companion Program Settings File CREATED.
FALSE -- AC data not excluded
FALSE -- DC data not excluded
FALSE -- Phase data not excluded
FALSE -- Auxillary Chn. data not excluded
Tab delimiters

#CALIBRATION STATE
TRUE -- Waveform Calibration Values APPLIED.


#AUX CALIBRATION VALUES
Val Type	aux-1	

Term	1.0000e+00	
Factor	0.0000e+00	


#WF CALIBRATION VALUES
A = Detector Channel
Val Type	A-AC1	A-AC2	A-AC3	A-AC4	A-AC5	A-AC6	A-AC7	A-AC8	A-AC9	A-AC10	A-AC11	A-AC12	A-AC13	A-AC14	A-AC15	A-AC16	A-DC1	A-DC2	A-DC3	A-DC4	A-DC5	A-DC6	A-DC7	A-DC8	A-DC9	A-DC10	A-DC11	A-DC12	A-DC13	A-DC14	A-DC15	A-DC16	A-Ph1	A-Ph2	A-Ph3	A-Ph4	A-Ph5	A-Ph6	A-Ph7	A-Ph8	A-Ph9	A-Ph10	A-Ph11	A-Ph12	A-Ph13	A-Ph14	A-Ph15	A-Ph16	

Term	0.00000e+00	0.00000e+00	0.00000e+00	0.00000e+00	0.00000e+00	0.00000e+00	0.00000e+00	0.00000e+00	0.00000e+00	0.00000e+00	0.00000e+00	0.00000e+00	0.00000e+00	0.00000e+00	0.00000e+00	0.00000e+00	0.00000e+00	0.00000e+00	0.00000e+00	0.00000e+00	0.00000e+00	0.00000e+00	0.00000e+00	0.00000e+00	0.00000e+00	0.00000e+00	0.00000e+00	0.00000e+00	0.00000e+00	0.00000e+00	0.00000e+00	0.00000e+00	0.00000e+00	0.00000e+00	0.00000e+00	0.00000e+00	0.00000e+00	0.00000e+00	0.00000e+00	0.00000e+00	0.00000e+00	0.00000e+00	0.00000e+00	0.00000e+00	0.00000e+00	0.00000e+00	0.00000e+00	0.00000e+00	
Factor	1.00000e+00	1.00000e+00	1.00000e+00	1.00000e+00	1.00000e+00	1.00000e+00	1.00000e+00	1.00000e+00	1.00000e+00	1.00000e+00	1.00000e+00	1.00000e+00	1.00000e+00	1.00000e+00	1.00000e+00	1.00000e+00	1.00000e+00	1.00000e+00	1.00000e+00	1.00000e+00	1.00000e+00	1.00000e+00	1.00000e+00	1.00000e+00	1.00000e+00	1.00000e+00	1.00000e+00	1.00000e+00	1.00000e+00	1.00000e+00	1.00000e+00	1.00000e+00	X	X	X	X	X	X	X	X	X	X	X	X	X	X	X	X	

B = Detector Channel
Val Type	B-AC1	B-AC2	B-AC3	B-AC4	B-AC5	B-AC6	B-AC7	B-AC8	B-AC9	B-AC10	B-AC11	B-AC12	B-AC13	B-AC14	B-AC15	B-AC16	B-DC1	B-DC2	B-DC3	B-DC4	B-DC5	B-DC6	B-DC7	B-DC8	B-DC9	B-DC10	B-DC11	B-DC12	B-DC13	B-DC14	B-DC15	B-DC16	B-Ph1	B-Ph2	B-Ph3	B-Ph4	B-Ph5	B-Ph6	B-Ph7	B-Ph8	B-Ph9	B-Ph10	B-Ph11	B-Ph12	B-Ph13	B-Ph14	B-Ph15	B-Ph16	

Term	0.00000e+00	0.00000e+00	0.00000e+00	0.00000e+00	0.00000e+00	0.00000e+00	0.00000e+00	0.00000e+00	0.00000e+00	0.00000e+00	0.00000e+00	0.00000e+00	0.00000e+00	0.00000e+00	0.00000e+00	0.00000e+00	0.00000e+00	0.00000e+00	0.00000e+00	0.00000e+00	0.00000e+00	0.00000e+00	0.00000e+00	0.00000e+00	0.00000e+00	0.00000e+00	0.00000e+00	0.00000e+00	0.00000e+00	0.00000e+00	0.00000e+00	0.00000e+00	5.32887e+00	-1.29929e+02	-1.28731e+02	-1.84746e+02	-7.04180e+01	-6.91937e+01	-1.57922e+02	-1.62015e+02	-2.77445e+01	-6.81129e+01	-1.79083e+02	-1.70094e+02	-1.79662e+02	-1.77090e+02	-5.99893e+01	-1.50031e+02	
Factor	3.72528e-05	1.74124e-04	4.89623e-05	5.67296e-01	1.96177e-06	1.72426e-06	1.76438e-01	6.39805e-02	2.34682e-06	1.97558e-06	1.09870e-01	2.83453e-02	2.58785e-02	9.19466e-03	2.23646e-06	1.37262e-02	1.53627e-05	2.58478e-05	7.28226e-06	2.83297e-01	2.78559e-07	2.92575e-07	8.32134e-02	3.23121e-02	2.55711e-07	2.93603e-07	5.34728e-02	1.39108e-02	1.31685e-02	4.70685e-03	2.66657e-07	6.77598e-03	X	X	X	X	X	X	X	X	X	X	X	X	X	X	X	X	



#DISTANCE SETTINGS
A = Detector Channel
A-1	A-2	A-3	A-4	A-5	A-6	A-7	A-8	A-9	A-10	A-11	A-12	A-13	A-14	A-15	A-16	

2.5000e+00	3.0000e+00	2.5000e+00	3.0000e+00	2.0000e+00	3.0000e+00	1.5000e+00	3.0000e+00	3.0000e+00	3.0000e+00	3.0000e+00	3.0000e+00	3.0000e+00	3.0000e+00	1.5000e+00	3.0000e+00	

B = Detector Channel
B-1	B-2	B-3	B-4	B-5	B-6	B-7	B-8	B-9	B-10	B-11	B-12	B-13	B-14	B-15	B-16	

1.0000e+01	1.0000e+01	1.0000e+01	1.4400e+00	1.0000e+01	1.0000e+01	1.5100e+00	1.9400e+00	1.0000e+01	1.0000e+01	1.9900e+00	2.4900e+00	2.4100e+00	2.9000e+00	1.0000e+01	2.9800e+00	




#DATA BEGINS
time	group	step	mark	flag	A-AC1	A-AC2	A-AC3	A-AC4	A-AC5	A-AC6	A-AC7	A-AC8	A-AC9	A-AC10	A-AC11	A-AC12	A-AC13	A-AC14	A-AC15	A-AC16	A-DC1	A-DC2	A-DC3	A-DC4	A-DC5	A-DC6	A-DC7	A-DC8	A-DC9	A-DC10	A-DC11	A-DC12	A-DC13	A-DC14	A-DC15	A-DC16	A-Ph1	A-Ph2	A-Ph3	A-Ph4	A-Ph5	A-Ph6	A-Ph7	A-Ph8	A-Ph9	A-Ph10	A-Ph11	A-Ph12	A-Ph13	A-Ph14	A-Ph15	A-Ph16	B-AC1	B-AC2	B-AC3	B-AC4	B-AC5	B-AC6	B-AC7	B-AC8	B-AC9	B-AC10	B-AC11	B-AC12	B-AC13	B-AC14	B-AC15	B-AC16	B-DC1	B-DC2	B-DC3	B-DC4	B-DC5	B-DC6	B-DC7	B-DC8	B-DC9	B-DC10	B-DC11	B-DC12	B-DC13	B-DC14	B-DC15	B-DC16	B-Ph1	B-Ph2	B-Ph3	B-Ph4	B-Ph5	B-Ph6	B-Ph7	B-Ph8	B-Ph9	B-Ph10	B-Ph11	B-Ph12	B-Ph13	B-Ph14	B-Ph15	B-Ph16	aux-1	digaux	

755.190	1	1	0	256	0.13896	0.071538	0.091793	0.17167	0.12953	0.16441	0.37449	0.13539	0.23309	0.10009	0.11263	0.35582	0.27167	0.18212	0.28032	0.25141	-3.2667	-3.4688	-3.9083	-3.5312	-3.675	-3.9146	-3.625	-3.8646	-3.6896	-3.3312	-4.0125	-3.5687	-3.6146	-3.9646	-3.4062	-3.7542	225.390	450.313	147.384	205.393	236.585	447.243	402.367	150.654	387.602	450.332	330.687	355.259	440.935	147.017	263.017	416.702	0.00063723	0.00015535	8.1809e-05	1175.1	2.6708e-06	2.297e-06	1245.4	251.77	5.1931e-06	1.7757e-06	311.64	87.36	68.578	19.956	5.2512e-06	28.034	0.00047954	0.00049116	0.00013997	1173.8	5.3704e-06	5.5723e-06	1237.1	250.74	5.3316e-06	5.9938e-06	312.31	87.687	68.668	20.338	6.0009e-06	28.638	323.145	267.571	219.960	145.132	258.666	302.275	144.965	152.512	317.327	292.978	151.663	158.504	158.974	165.656	310.264	164.680	-8191	255	
755.311	1	1	0	0	0.06101	0.15911	0.22526	0.15761	0.24183	0.095257	0.079329	0.19293	0.10606	0.19982	0.2274	0.28655	0.021172	0.16545	0.064815	0.18757	-3.3625	-3.4875	-3.8875	-3.4958	-3.5458	-3.8104	-3.6271	-3.8187	-3.8104	-3.4813	-3.9354	-3.7792	-3.6437	-3.9583	-3.2854	-3.8896	215.981	177.085	422.204	384.184	403.512	394.473	257.300	360.292	274.554	195.915	196.734	399.319	302.745	335.417	271.906	447.266	0.00066446	0.00024805	7.4404e-05	1182.7	3.548e-06	3.3473e-06	1249.1	251.14	7.0969e-06	2.3068e-06	312.28	86.97	68.593	19.987	4.8844e-06	27.904	0.00052556	0.00056429	0.00016253	1178.4	6.5287e-06	6.5427e-06	1239.2	250.5	6.3139e-06	6.7553e-06	313.08	87.588	68.824	20.334	6.7498e-06	28.65	322.600	209.359	212.838	144.656	288.534	300.534	144.817	152.523	314.965	275.848	151.926	158.591	158.632	165.741	300.134	165.047	-8191	255	
755.382	1	1	0	0	0.2305	0.22561	0.062921	0.23221	0.18017	0.15297	0.2602	0.068144	0.076733	0.090699	0.25796	0.2328	0.1417	0.015395	0.12364	0.11616	-3.3792	-3.225	-3.9917	-3.5563	-3.5667	-3.8563	-3.6771	-3.9021	-3.6875	-3.3083	-3.9021	-3.7062	-3.4688	-4.0042	-3.4896	-3.875	433.791	383.851	463.577	364.324	352.081	280.095	392.686	256.206	227.091	448.783	149.668	147.079	140.421	388.607	331.410	135.910	0.00063093	0.00023612	9.7378e-05	1192.7	4.0261e-06	3.2873e-06	1259.6	252.69	6.038e-06	2.3871e-06	314.06	87.234	68.789	19.983	4.3299e-06	28.072	0.00054992	0.00065373	0.00017518	1185.2	7.087e-06	7.2107e-06	1245.9	251.93	6.828e-06	7.4214e-06	314.02	88.081	69.11	20.461	6.6631e-06	28.729	323.752	241.686	218.804	145.047	292.743	270.832	145.009	152.292	304.625	283.962	151.927	158.442	158.614	165.241	310.289	164.799	-8191	255	
755.479	1	1	0	0	0.19765	0.13797	0.19472	0.093372	0.23734	0.19629	0.26794	0.1784	0.060796	0.10135	0.029717	0.14434	0.044837	0.26556	0.28655	0.094736	-3.4958	-3.2417	-3.7521	-3.55	-3.475	-4.0167	-3.7562	-3.775	-3.7333	-3.4271	-3.8208	-3.725	-3.3688	-3.8563	-3.525	-3.5917	419.690	362.697	321.852	159.477	262.192	448.874	491.702	421.341	456.229	171.084	142.163	407.192	170.322	213.114	378.123	230.397	0.0006079	0.00038008	0.00012184	1192.1	3.8434e-06	3.4357e-06	1260	254.02	5.2527e-06	4.1475e-06	315.03	88.657	69.239	20.205	5.1334e-06	28.464	0.00055328	0.00062859	0.0001644	1187.1	6.6059e-06	6.4848e-06	1251.4	253.17	6.1733e-06	6.4782e-06	315.08	88.746	69.535	20.663	6.2914e-06	29.019	316.450	201.153	216.021	145.223	278.400	286.949	145.099	152.190	297.015	308.837	151.633	158.098	158.282	165.730	302.129	164.622	-8191	255	
755.575	1	1	0	0	0.23636	0.052856	0.073937	0.24466	0.21808	0.33401	0.21575	0.15612	0.13621	0.043587	0.074425	0.0039676	0.28003	0.076961	0.36856	0.1376	-3.4208	-3.2896	-3.7125	-3.7896	-3.5833	-4.0271	-3.6146	-3.6646	-3.9667	-3.425	-3.825	-3.7958	-3.3	-3.8917	-3.6396	-3.5938	157.966	395.676	159.214	435.104	411.531	153.056	384.075	379.062	137.476	456.889	429.021	314.474	388.982	467.856	206.650	354.859	0.00065749	0.00029571	6.2303e-05	1196.1	5.5425e-06	3.114e-06	1269.7	254.78	5.1279e-06	1.4896e-06	313.19	89.038	69.265	20.305	4.083e-06	28.321	0.00053747	0.0005532	0.00015522	1192.8	6.2177e-06	5.9874e-06	1258.2	254.05	5.8126e-06	6.3632e-06	316.44	89.214	69.583	20.705	6.0659e-06	28.999	323.951	235.451	225.680	144.835	267.663	274.274	144.956	152.399	318.540	286.881	151.761	158.674	158.986	165.694	286.577	165.173	-8191	255	
755.694	1	1	0	0	0.13565	0.099062	0.037718	0.13094	0.1299	0.062006	0.11705	0.33952	0.20514	0.2185	0.17265	0.082366	0.42446	0.23149	0.042963	0.12523	-3.5687	-3.3479	-3.7604	-3.8125	-3.35	-3.7417	-3.9167	-3.4417	-3.9729	-3.6104	-3.8812	-3.9188	-3.4625	-4.0146	-3.6854	-3.5208	429.271	453.201	272.855	134.935	481.398	274.683	287.056	394.505	353.415	420.594	218.290	157.439	441.202	149.746	484.897	163.913	0.00065162	0.00025339	8.4856e-05	1202	5.007e-06	2.5922e-06	1264.6	255.52	6.8224e-06	2.2832e-06	315.17	88.271	69.369	20.077	4.2208e-06	28.124	0.00053782	0.00060764	0.00016992	1195.8	6.7997e-06	6.5969e-06	1255.4	254.27	6.7827e-06	7.2312e-06	316.33	88.652	69.441	20.535	6.6348e-06	28.869	325.038	234.910	218.536	144.992	286.911	299.014	144.884	152.346	312.565	355.112	151.997	158.299	158.904	165.827	279.936	164.855	-8191	255	
755.790	1	1	0	0	0.29252	0.25342	0.26568	0.17558	0.13347	0.18526	0.13148	0.13124	0.1965	0.097974	0.16991	0.1832	0.1458	0.13788	0.07848	0.30318	-3.5354	-3.5875	-3.5979	-3.8312	-3.4833	-3.8438	-3.975	-3.6229	-3.9417	-3.5458	-3.6875	-3.9479	-3.4021	-3.7188	-3.7188	-3.5875	361.111	284.514	161.749	195.632	141.562	361.875	465.908	357.164	247.879	452.153	166.458	169.586	493.136	238.663	393.169	413.313	0.00063351	0.00043281	0.00014209	1196.1	2.9371e-06	2.9118e-06	1264.1	253.3	5.779e-06	2.9207e-06	314.11	88.06	69.131	20.061	3.9558e-06	28.089	0.00056778	0.00059563	0.00017176	1192.9	6.8096e-06	6.5963e-06	1254.2	253.42	6.3038e-06	7.2178e-06	315.28	88.378	69.294	20.519	6.2514e-06	28.807	322.619	202.461	224.092	145.038	293.386	318.815	144.866	152.439	308.386	266.735	151.543	158.537	158.740	165.679	296.374	164.679	-8191	255	
755.886	1	1	0	0	0.31944	0.10055	0.26598	0.19006	0.17485	0.1477	0.19618	0.047904	0.081898	0.24616	0.096733	0.13367	0.29443	0.11723	0.12142	0.26454	-3.6042	-3.6562	-3.6875	-3.7188	-3.5021	-3.8937	-4.0354	-3.5563	-4	-3.6458	-3.7792	-4.0625	-3.4875	-3.8625	-3.8063	-3.5521	178.983	355.539	285.863	140.415	393.086	276.073	409.772	153.129	146.527	340.854	376.388	227.404	417.842	478.204	379.167	429.896	0.00064733	0.00055382	9.014e-05	1199.8	3.0273e-06	1.9647e-06	1261.3	252.9	5.078e-06	4.6511e-06	313.29	87.335	68.611	19.883	3.7796e-06	28.192	0.00052544	0.00058384	0.00016347	1189.4	6.314e-06	6.3196e-06	1250	252.43	5.8206e-06	6.0017e-06	314.97	87.724	68.865	20.352	5.3137e-06	28.758	320.228	245.720	214.889	144.991	264.513	249.110	144.907	152.144	309.787	290.045	151.753	158.912	158.929	165.311	302.391	164.752	-8191	255	
755.982	1	1	0	0	0.2595	0.073504	0.067754	0.16338	0.17881	0.28354	0.055912	0.14021	0.29811	0.065461	0.18399	0.13508	0.15963	0.054897	0.22007	0.042538	-3.7125	-3.7708	-3.5187	-4.0271	-3.6083	-3.7021	-3.8896	-3.3375	-3.8083	-3.9417	-3.5458	-4.1729	-3.7792	-3.8354	-3.9375	-3.4792	318.222	333.281	443.606	175.477	215.891	351.945	444.383	242.498	150.978	389.454	134.432	376.326	225.543	418.343	149.054	290.886	0.00063859	0.00029171	0.00010021	1188.8	5.0318e-06	3.4873e-06	1254.4	252.46	5.8943e-06	4.5555e-06	311.2	87.477	68.285	19.926	5.6444e-06	27.899	0.00048226	0.00051394	0.00013962	1182.8	5.5927e-06	5.4852e-06	1245.2	250.66	5.152e-06	5.4035e-06	312.83	87.659	68.591	20.314	4.8959e-06	28.589	324.182	253.987	203.644	145.187	282.251	273.130	144.812	152.337	318.048	265.033	152.092	158.450	158.735	165.502	276.673	165.146	-8191	255	
756.078	1	1	0	0	0.11019	0.095941	0.19275	0.063967	0.11122	0.060087	0.2148	0.14775	0.14657	0.12957	0.058648	0.17276	0.3041	0.12233	0.13907	0.26093	-3.4083	-3.7479	-3.4958	-3.9292	-3.5417	-3.6375	-3.975	-3.3833	-3.8063	-3.8958	-3.3812	-4.1021	-3.7833	-3.7583	-4.0771	-3.5438	484.836	361.362	389.845	267.486	370.621	418.372	272.865	273.022	212.860	476.523	287.594	429.949	423.142	139.165	172.870	374.001	0.0006486	0.00025596	8.8434e-05	1191.3	3.6398e-06	2.7605e-06	1254.4	251.12	4.2841e-06	2.7853e-06	313.41	87.092	68.521	19.94	3.0874e-06	27.997	0.00046939	0.00048933	0.00013936	1181	5.0831e-06	5.2773e-06	1242.5	250.34	4.8985e-06	5.3784e-06	312.68	87.374	68.53	20.292	4.9704e-06	28.602	320.745	243.954	259.966	144.918	283.825	294.268	145.016	152.323	318.226	278.564	151.926	158.515	159.023	166.016	295.683	164.809	-8191	255	
756.174	1	1	0	0	0.1763	0.20852	0.23308	0.14192	0.092058	0.18465	0.30039	0.22611	0.089242	0.21858	0.18581	0.16745	0.11714	0.1105	0.12811	0.28519	-3.475	-3.8833	-3.6167	-3.75	-3.5542	-3.5917	-3.9958	-3.5062	-3.8104	-3.7896	-3.4	-3.7833	-3.7021	-3.6021	-4.0167	-3.6354	480.203	187.484	207.577	370.153	277.076	405.633	450.199	420.300	413.835	308.565	485.103	344.358	366.680	334.997	459.205	461.225	0.00060507	0.00033244	8.2197e-05	1193.5	4.1096e-06	2.957e-06	1250.2	250.09	6.1523e-06	2.2782e-06	309.3	87.171	68.15	19.767	3.5366e-06	27.775	0.00046738	0.00047528	0.00013468	1180.8	5.0495e-06	5.2962e-06	1237.8	249.49	5.1984e-06	4.9711e-06	311.55	87.343	68.222	20.156	4.872e-06	28.466	319.906	246.206	217.582	145.082	262.480	282.782	144.998	152.687	308.248	339.333	152.184	158.379	158.978	165.578	291.692	164.999	-8191	255	
756.295	1	1	0	0	0.15418	0.087154	0.2298	0.1243	0.19816	0.072651	0.21665	0.11138	0.079929	0.30019	0.12251	0.092207	0.25499	0.26197	0.09768	0.15277	-3.375	-3.8229	-3.3563	-3.95	-3.8063	-3.5458	-4.0604	-3.6625	-3.6583	-3.8979	-3.4333	-3.9688	-3.7667	-3.5708	-3.9437	-3.625	272.051	379.655	267.317	137.706	358.270	290.390	413.469	325.361	200.192	466.083	478.642	157.083	411.982	447.190	222.966	414.348	0.00060691	0.00047402	0.00010232	1182.6	3.7179e-06	1.166e-06	1242.9	248.91	6.5819e-06	1.8378e-06	309.31	86.836	67.836	19.694	4.0933e-06	27.699	0.00046575	0.00045341	0.00012612	1170.9	5.2009e-06	5.0768e-06	1232.7	248.4	5.1915e-06	5.0702e-06	309.67	86.808	68.053	20.027	4.9943e-06	28.343	323.351	219.546	227.028	144.868	265.936	293.474	145.099	152.480	313.263	323.212	151.992	158.441	159.169	165.853	295.497	165.195	-8191	255	
756.391	1	1	0	0	0.24917	0.091843	0.14711	0.018922	0.069226	0.11645	0.18219	0.17021	0.25993	0.069199	0.067918	0.08089	0.12785	0.19259	0.089079	0.12065	-3.2375	-4	-3.5146	-3.9333	-3.6396	-3.3896	-4.1	-3.6396	-3.6208	-4.0729	-3.5125	-3.7562	-3.8917	-3.4	-3.9938	-3.6	289.525	359.337	468.367	196.947	236.009	280.571	389.809	366.330	145.869	169.681	347.187	403.257	454.239	362.176	231.366	424.779	0.00059164	0.00031029	3.9086e-05	1174.7	3.2918e-06	3.1234e-06	1245.3	248.62	6.6928e-06	3.9917e-06	309.25	86.269	67.989	19.568	4e-06	27.591	0.00045742	0.00048136	0.00013941	1171.7	5.2491e-06	5.6095e-06	1230.7	247.82	5.5457e-06	5.4702e-06	309.59	86.611	67.791	19.949	5.2809e-06	28.289	321.669	234.987	201.167	144.836	286.872	297.097	145.154	152.445	321.184	290.535	151.639	158.434	158.782	165.692	272.231	165.193	-8191	255	
756.487	1	1	0	0	0.069496	0.17233	0.15525	0.34365	0.10275	0.085345	0.068522	0.043216	0.30296	0.043195	0.15481	0.23793	0.35842	0.23619	0.14251	0.18678	-3.3042	-3.8438	-3.4979	-3.7396	-3.95	-3.6833	-4.0917	-3.7583	-3.5979	-4.025	-3.6437	-3.6854	-4.0312	-3.4542	-3.8021	-3.8375	232.110	213.283	235.956	152.349	369.420	451.521	479.376	206.406	371.415	246.900	458.921	387.044	147.458	455.153	173.494	451.039	0.00058453	0.00030218	2.927e-05	1181.2	4.0206e-06	2.2353e-06	1240.4	248.12	7.2548e-06	3.1076e-06	310.38	85.781	67.936	19.587	5.17e-06	27.6	0.00047535	0.00050419	0.0001412	1169.8	5.3628e-06	5.7509e-06	1231.5	247.47	5.5559e-06	5.3491e-06	310.09	86.404	67.848	19.988	5.2293e-06	28.245	321.038	266.143	231.477	145.328	261.799	332.019	145.086	152.566	334.566	269.009	152.084	158.593	158.809	165.923	320.753	165.149	-8191	255	
756.583	1	1	0	0	0.24536	0.12665	0.098833	0.19777	0.14051	0.068127	0.14485	0.083028	0.44504	0.12185	0.17623	0.25459	0.1125	0.14179	0.17886	0.1296	-3.1458	-3.9938	-3.5	-3.6104	-3.8937	-3.375	-4.0708	-3.9813	-3.4938	-3.9958	-3.7271	-3.625	-3.7875	-3.5187	-3.8479	-3.7979	451.492	326.783	168.932	334.845	236.347	350.580	408.862	486.177	228.997	237.957	163.512	181.772	454.479	168.489	226.295	457.074	0.00060919	0.00037712	0.00012305	1178.7	3.9883e-06	2.6086e-06	1243.9	248.67	7.7615e-06	2.4063e-06	306.31	85.751	67.526	19.46	4.7214e-06	27.655	0.00047778	0.00049488	0.00013674	1175	5.469e-06	5.5199e-06	1231.6	246.94	5.2916e-06	5.4873e-06	308.62	86.431	67.669	19.949	5.1698e-06	28.241	320.136	210.411	204.154	144.805	291.603	293.146	145.172	152.594	304.950	319.568	151.688	158.533	158.808	165.605	271.690	165.257	-8191	255	
756.680	1	1	0	0	0.22405	0.12245	0.090748	0.25643	0.48791	0.17682	0.28947	0.13475	0.26345	0.15874	0.18908	0.07626	0.074438	0.15248	0.094437	0.099709	-2.9875	-4.0542	-3.5542	-3.5896	-4.0104	-3.5333	-3.7708	-3.9479	-3.5146	-3.9104	-3.8375	-3.6417	-4.0083	-3.5167	-3.775	-4.0167	455.800	355.680	311.915	138.759	331.939	487.275	179.923	490.231	181.057	342.205	442.087	415.062	431.039	428.781	433.508	314.615	0.0006332	0.00025	7.0369e-05	1176.2	5.4092e-06	2.1764e-06	1244.2	248.03	7.4127e-06	3.9495e-06	308.4	85.727	67.368	19.455	1.3574e-06	27.576	0.00047896	0.00050059	0.00013915	1169.1	5.324e-06	5.3121e-06	1229.8	247.23	5.338e-06	5.2683e-06	308.11	86.298	67.498	19.903	5.1987e-06	28.199	322.574	238.892	222.411	145.006	265.490	284.652	145.032	152.400	302.948	322.002	152.148	158.654	158.882	166.068	262.927	165.128	-8191	255	
756.774	1	1	0	0	0.22215	0.035064	0.13891	0.25466	0.19852	0.1687	0.28466	0.098654	0.11678	0.084223	0.19255	0.058283	0.11817	0.036172	0.25463	0.22132	-3.1292	-3.8979	-3.6813	-3.5312	-4.125	-3.3729	-3.7708	-3.9333	-3.4271	-3.8854	-3.6208	-3.5479	-4.1375	-3.5708	-3.6021	-3.8438	309.660	177.971	252.774	189.615	352.020	354.043	363.255	436.173	382.939	187.561	352.470	252.239	222.630	162.363	162.211	351.421	0.0005785	0.00027248	0.00011072	1175.9	5.4301e-06	2.5937e-06	1235.6	246.18	6.1348e-06	3.5482e-06	308.55	85.883	67.583	19.485	6.0729e-06	27.429	0.00048866	0.00051346	0.00014593	1167.3	5.6495e-06	5.7058e-06	1226.3	246.54	5.461e-06	5.6042e-06	307.97	86.134	67.686	19.886	5.4781e-06	28.129	323.948	238.897	248.073	144.922	298.008	288.506	145.269	152.613	311.107	285.404	151.967	158.723	159.053	165.634	313.754	165.229	-8191	255	
756.870	1	1	0	0	0.27849	0.067793	0.14134	0.21655	0.14706	0.09982	0.18033	0.19753	0.21629	0.16445	0.16699	0.33014	0.26646	0.11039	0.064541	0.2466	-3.0125	-3.8854	-3.7812	-3.5042	-4.05	-3.4771	-3.7292	-4.0625	-3.4708	-3.8063	-4.025	-3.3521	-3.9771	-3.5979	-3.6521	-4.1104	163.498	241.826	341.341	352.812	260.021	285.519	412.793	407.990	270.240	365.116	406.608	457.361	403.748	473.674	185.157	421.835	0.0006335	0.00028684	0.0001019	1176.8	3.0388e-06	2.3832e-06	1237.7	246.77	7.5755e-06	2.834e-06	307.16	85.938	67.421	19.488	3.9776e-06	27.448	0.00047	0.00050872	0.0001376	1170.8	5.2764e-06	5.3297e-06	1226.3	245.94	5.1654e-06	5.1723e-06	307.3	86.205	67.395	19.83	5.1865e-06	28.15	322.869	218.759	236.171	145.370	259.159	257.620	145.240	152.939	322.712	257.320	151.738	158.390	158.937	165.663	274.359	164.987	-8191	255	
756.991	1	1	0	0	0.3677	0.22711	0.15124	0.32595	0.2297	0.063061	0.12273	0.12791	0.16439	0.18981	0.20688	0.23031	0.1524	0.14169	0.11234	0.34845	-3.0917	-3.9167	-3.8104	-3.4708	-3.925	-3.8271	-3.5	-3.9146	-3.475	-3.8271	-3.9417	-3.6375	-3.9542	-3.8542	-3.5625	-3.8979	343.838	413.646	447.657	219.404	250.947	194.655	472.565	454.854	146.103	494.219	478.576	466.425	435.338	432.411	374.445	456.823	0.00057085	0.00027527	0.00011554	1174.9	2.946e-06	1.8284e-06	1235.6	246.38	5.6832e-06	4.17e-06	304.6	85.538	67.227	19.494	4.2707e-06	27.522	0.00047029	0.00046758	0.00012978	1165.7	5.0651e-06	5.256e-06	1225.9	245.39	5.119e-06	5.2953e-06	307.05	86.019	67.515	19.875	5.0859e-06	28.079	324.042	221.561	228.218	144.878	284.401	270.720	145.209	152.613	313.182	325.542	152.020	158.629	158.929	166.495	268.142	165.100	-8191	255	
757.087	1	1	0	0	0.11254	0.24569	0.10797	0.16424	0.25123	0.047979	0.20123	0.28895	0.04622	0.20923	0.088954	0.031983	0.15909	0.13427	0.069056	0.1106	-3.2271	-3.6375	-3.8833	-3.3833	-4.0042	-3.9104	-3.5396	-4.0521	-3.5583	-3.6604	-4.0646	-3.4396	-3.8458	-3.7604	-3.5625	-3.9938	286.329	410.937	246.307	480.657	168.432	363.377	356.925	408.002	408.075	368.319	136.302	489.091	449.425	482.568	311.258	373.721	0.00065541	0.00029187	8.3127e-05	1175.6	4.9578e-06	4.1238e-06	1232.3	246.71	5.1362e-06	3.8231e-06	305.98	85.491	67.083	19.462	4.1228e-06	27.627	0.00046315	0.00047926	0.00012557	1166.7	5.2189e-06	5.1243e-06	1223.5	245.35	5.1046e-06	5.1827e-06	307.17	86.013	67.335	19.867	4.9482e-06	28.161	325.173	222.570	249.363	145.216	274.631	250.765	145.093	152.536	301.574	283.886	152.227	158.650	159.168	165.867	276.488	165.042	-8191	255	
757.183	1	1	0	0	0.13801	0.14921	0.17218	0.098017	0.23192	0.20239	0.35176	0.20266	0.08702	0.099233	0.11839	0.08527	0.10178	0.19061	0.36983	0.16183	-3.2062	-3.5271	-3.8708	-3.4813	-3.7708	-3.85	-3.7646	-3.9688	-3.5917	-3.7146	-4.0083	-3.6271	-3.6937	-3.8354	-3.45	-3.9271	479.765	443.349	451.857	436.904	369.112	397.171	453.493	167.016	391.473	350.612	156.756	338.454	159.303	152.978	335.746	382.212	0.00059121	0.00047621	7.2241e-05	1171.4	2.882e-06	2.9678e-06	1236.2	246.06	6.3971e-06	4.596e-06	303.25	85.867	67.249	19.389	3.9275e-06	27.418	0.00043787	0.00045261	0.00012019	1165.5	5.0187e-06	5.1237e-06	1224.7	245.58	5.0418e-06	5.1374e-06	306.72	86.088	67.363	19.868	5.0043e-06	28.126	321.218	196.778	218.530	145.428	260.402	284.848	145.073	152.437	307.272	262.929	152.006	158.389	158.793	165.800	302.244	164.900	-8191	255	
757.255	1	1	0	0	0.10635	0.034453	0.1999	0.15686	0.090802	0.080405	0.14421	0.1776	0.031516	0.21861	0.10642	0.20093	0.17928	0.41421	0.066424	0.19536	-3.2125	-3.4313	-3.9562	-3.5146	-3.8021	-3.8354	-3.6021	-3.9417	-3.675	-3.5146	-4.0958	-3.5979	-3.825	-3.8458	-3.3958	-3.9938	417.106	320.917	482.311	469.796	298.318	244.381	404.775	459.853	206.130	238.880	165.074	426.979	199.866	359.865	314.044	349.436	0.00059616	0.00017388	4.7682e-05	1174.3	3.8194e-06	4.0155e-06	1230.1	246.92	6.0033e-06	3.798e-06	304.08	85.131	67.204	19.489	4.2261e-06	27.382	0.00046456	0.00046709	0.00012412	1167.4	4.7634e-06	5.042e-06	1221.9	245.76	4.9677e-06	5.0524e-06	306.67	85.899	67.281	19.877	4.9115e-06	28.149	320.768	237.041	228.053	145.084	303.061	299.630	145.000	152.411	322.392	312.586	151.887	158.462	158.806	165.433	274.298	165.561	-8191	255	
757.375	1	1	0	0	0.1755	0.10384	0.2442	0.12437	0.25047	0.082059	0.2547	0.051803	0.22301	0.1319	0.087815	0.059533	0.31659	0.16354	0.11121	0.13378	-3.3937	-3.5542	-3.8792	-3.4437	-3.5292	-4.0354	-3.7708	-3.8479	-3.8604	-3.5375	-4.2625	-3.6167	-3.7104	-4.1833	-3.3854	-3.9604	457.643	463.666	217.969	326.803	171.220	393.601	464.013	165.628	206.014	262.795	475.391	435.916	442.090	173.082	396.961	440.688	0.00065537	0.0002798	8.2455e-05	1174.7	2.4621e-06	3.6065e-06	1236.3	246.58	5.4213e-06	4.3314e-06	305.02	85.287	67.066	19.49	5.192e-06	27.647	0.0004613	0.00045804	0.0001234	1166.2	5.0204e-06	4.9409e-06	1225.2	245.74	4.9469e-06	5.0855e-06	306.17	85.914	67.386	19.855	5.142e-06	28.194	319.505	208.014	242.192	145.380	287.560	299.121	144.928	152.585	314.316	288.205	151.611	158.443	159.269	166.083	299.591	165.345	-8191	255	
757.472	1	1	0	0	0.14679	0.053529	0.044385	0.11446	0.045513	0.1889	0.29331	0.071595	0.11675	0.21848	0.055923	0.028836	0.081574	0.035539	0.26236	0.17153	-3.4896	-3.4417	-3.9792	-3.7333	-3.5229	-3.9333	-3.6896	-3.8063	-3.8896	-3.4333	-3.9917	-3.8479	-3.4771	-3.8875	-3.4583	-3.675	393.638	453.590	246.222	446.067	163.661	368.010	449.303	408.282	273.262	352.783	326.150	172.275	475.314	287.232	182.849	451.517	0.00063707	0.00035554	0.00011241	1169.2	3.3614e-06	1.3677e-06	1236	245.01	6.5629e-06	1.676e-06	304.57	85.716	67.569	19.452	6.9338e-06	27.511	0.00046162	0.00047592	0.00012841	1162.2	5.0616e-06	4.8781e-06	1224.7	244.99	5.103e-06	5.3301e-06	306.51	85.679	67.411	19.829	4.9931e-06	28.15	322.833	237.167	210.633	144.880	275.012	292.667	144.917	152.678	317.403	299.736	152.256	158.516	159.099	165.653	291.303	165.301	-8191	255	
757.568	1	1	0	0	0.11697	0.087916	0.047848	0.35514	0.27877	0.1337	0.33424	0.24994	0.12758	0.18975	0.14688	0.19672	0.11962	0.053708	0.10034	0.13975	-3.5833	-3.4333	-3.8667	-3.6083	-3.55	-4.0833	-3.6562	-3.7729	-3.8563	-3.4688	-3.8896	-3.6458	-3.4313	-4.0042	-3.6479	-3.8792	270.449	429.766	204.804	445.553	177.483	210.166	444.935	492.024	339.352	204.093	442.739	144.564	392.978	492.056	426.367	353.409	0.00059944	0.00038105	0.00010778	1166.9	5.266e-06	2.912e-06	1233.8	245.85	5.6361e-06	9.6874e-07	305.75	85.448	67.241	19.394	2.6616e-06	27.482	0.00045077	0.00048152	0.00013135	1164.1	5.1301e-06	5.178e-06	1225.4	245.15	5.176e-06	5.2274e-06	306.63	85.94	67.275	19.833	4.982e-06	28.06	320.692	194.490	250.746	145.053	283.846	273.049	145.036	152.659	309.151	308.016	152.135	158.651	158.588	165.656	277.450	165.220	-8191	255	
757.664	1	1	0	0	0.21229	0.10637	0.14997	0.17025	0.13481	0.028883	0.1549	0.18635	0.19757	0.047566	0.1786	0.2058	0.13304	0.1743	0.074185	0.10022	-3.7	-3.5812	-3.7812	-3.7729	-3.5729	-4.0563	-3.8333	-3.7479	-3.9854	-3.5	-3.9771	-3.8667	-3.3937	-4.0146	-3.7104	-3.7292	261.066	487.149	278.874	426.154	275.895	412.776	377.135	409.845	322.017	412.242	441.864	203.069	481.498	157.463	199.927	198.856	0.00062315	0.00020523	9.4888e-05	1172.4	3.6415e-06	2.2774e-06	1239.6	245.65	7.0658e-06	3.5539e-06	305.96	85.291	66.98	19.437	3.3126e-06	27.545	0.00045432	0.00047172	0.00012935	1165.1	5.1011e-06	5.209e-06	1225	245.18	5.0897e-06	5.2298e-06	306.64	85.801	67.401	19.822	5.0087e-06	28.074	321.651	204.767	236.447	145.251	237.887	315.043	145.081	152.624	303.093	283.235	151.924	158.588	159.037	165.822	286.894	165.330	-8191	255	
757.784	1	1	0	0	0.25082	0.15393	0.10812	0.15225	0.097295	0.14226	0.16762	0.30176	0.066375	0.027869	0.067812	0.12781	0.15764	0.35581	0.18709	0.30567	-3.6333	-3.3688	-3.6875	-3.7854	-3.4688	-3.8375	-3.6521	-3.7562	-4.0146	-3.5938	-3.7687	-3.9	-3.4417	-3.9083	-3.6146	-3.5187	145.696	242.584	190.205	140.386	142.124	232.272	440.587	452.473	297.382	155.403	358.421	135.990	460.082	355.965	415.230	432.076	0.0006129	0.00032476	8.6275e-05	1180.6	3.8253e-06	2.6054e-06	1237.1	247.03	6.0231e-06	4.8429e-06	305.92	85.759	67.061	19.542	6.5875e-06	27.401	0.00045115	0.00048389	0.0001339	1166.4	5.5317e-06	5.4931e-06	1225.8	245.57	5.4653e-06	5.9442e-06	306.79	85.866	67.364	19.873	5.4926e-06	28.081	325.398	246.680	218.814	145.514	278.324	252.229	145.041	152.437	320.688	286.557	152.049	158.775	159.026	165.832	277.334	164.913	-8191	255	
757.856	1	1	0	0	0.25076	0.1904	0.13193	0.16826	0.17948	0.17334	0.1611	0.019028	0.099769	0.11726	0.08065	0.22494	0.060422	0.070588	0.26828	0.12626	-3.6667	-3.5646	-3.6771	-3.8312	-3.4479	-4.0729	-3.7833	-3.5208	-3.9688	-3.6375	-3.8271	-3.9	-3.5271	-3.8583	-3.8896	-3.5104	186.108	139.428	432.198	192.443	401.738	178.045	405.156	183.858	410.012	196.252	398.673	368.856	229.430	421.632	202.353	393.536	0.00062874	0.00041265	9.0968e-05	1170.1	4.5502e-06	4.2645e-06	1235.9	246.19	5.001e-06	3.3077e-06	306.34	85.4	67.321	19.346	3.7864e-06	27.387	0.00048748	0.0005343	0.00014798	1167.4	5.855e-06	5.8046e-06	1226.6	245.63	5.3683e-06	6.006e-06	307.48	85.823	67.425	19.797	5.2892e-06	28.095	322.555	247.024	256.074	145.191	296.933	323.121	144.957	152.613	315.350	305.086	151.782	158.792	158.903	165.953	276.516	164.775	-8191	255	
757.975	1	1	0	0	0.070992	0.25407	0.098146	0.14804	0.1284	0.20136	0.127	0.36421	0.2377	0.11216	0.26094	0.1331	0.22323	0.29647	0.1467	0.26055	-3.5625	-3.6083	-3.4146	-3.8833	-3.3896	-3.9146	-3.7771	-3.6542	-4.025	-3.7583	-3.6063	-4.1292	-3.5229	-3.8729	-3.9125	-3.4521	323.838	376.416	312.989	226.378	243.575	364.994	418.240	417.367	334.193	179.190	428.385	149.923	141.286	283.155	264.599	205.450	0.00065372	0.00023858	9.9658e-05	1176.2	3.8198e-06	3.2355e-06	1239.9	245.71	7.3414e-06	2.9189e-06	305.04	84.961	67.428	19.472	4.325e-06	27.473	0.00048277	0.0005022	0.00014185	1167.7	5.8788e-06	5.5297e-06	1227.1	245.16	5.4594e-06	5.5197e-06	307.13	85.808	67.472	19.885	5.2887e-06	28.149	323.111	265.279	211.772	145.078	258.670	272.356	145.000	152.592	334.813	278.647	152.311	158.471	158.879	166.048	288.345	164.937	-8191	255	
758.071	1	1	0	0	0.051554	0.17047	0.23852	0.14881	0.033103	0.031733	0.28976	0.13895	0.052037	0.12625	0.26271	0.15028	0.063339	0.1705	0.1501	0.179	-3.3875	-3.6125	-3.3833	-4.0792	-3.6333	-3.8937	-4.1312	-3.5542	-3.9396	-3.6125	-3.5854	-4.025	-3.6813	-3.6479	-3.9479	-3.5667	484.996	264.933	311.677	227.985	247.737	389.675	464.715	396.646	450.119	364.121	403.937	448.905	277.971	393.285	307.822	271.487	0.00053822	0.00034849	7.188e-05	1176.2	2.1265e-06	2.5749e-06	1235.9	247.49	5.6364e-06	4.5573e-06	306.33	86.005	67.582	19.396	4.5331e-06	27.534	0.00046712	0.00051195	0.00014249	1164.7	5.6217e-06	5.9076e-06	1226.4	245.76	5.6736e-06	5.7669e-06	306.75	86.158	67.415	19.903	5.3281e-06	28.117	321.187	235.810	210.659	144.956	292.324	304.955	145.169	152.609	289.221	318.909	151.938	158.680	158.782	165.805	277.341	165.302	-8191	255	
758.167	1	1	0	0	0.29983	0.12128	0.23043	0.26737	0.038988	0.068953	0.29518	0.19961	0.17527	0.16396	0.1177	0.074322	0.0756	0.13705	0.12039	0.08109	-3.4813	-3.7729	-3.5125	-3.9792	-3.5479	-3.6125	-4.0563	-3.525	-3.9062	-3.7833	-3.6292	-3.9729	-3.6146	-3.6813	-3.9417	-3.5	326.648	220.982	288.675	292.063	163.740	414.924	448.789	295.535	280.689	324.146	176.338	280.363	479.965	458.942	483.470	304.211	0.00059443	0.00024725	3.7503e-05	1176	4.6689e-06	2.7463e-06	1235.4	246.57	7.1517e-06	2.3792e-06	305.55	85.643	67.056	19.505	5.2271e-06	27.371	0.000487	0.00050915	0.00014188	1165.4	5.7116e-06	5.6083e-06	1225.6	246.05	5.2586e-06	5.6647e-06	307.61	85.819	67.437	19.878	5.2431e-06	28.103	324.044	223.039	492.075	145.059	282.390	275.458	145.038	152.473	329.753	305.710	151.825	158.605	159.126	165.928	291.288	165.155	-8191	255	
758.263	1	1	0	0	0.21719	0.12927	0.13429	0.20363	0.020168	0.22125	0.24853	0.058022	0.16279	0.09251	0.22252	0.015581	0.17266	0.067559	0.10036	0.26457	-3.4375	-3.7938	-3.4083	-3.9875	-3.6292	-3.5771	-4.0792	-3.6813	-3.9021	-3.7604	-3.3292	-4.0083	-3.5917	-3.5833	-3.9875	-3.4313	390.795	249.583	384.022	410.019	202.312	234.675	398.402	403.836	418.567	229.743	219.120	447.623	341.929	307.950	256.637	400.472	0.00062071	0.0002459	7.1505e-05	1177	3.8152e-06	1.7897e-06	1233.9	246.39	5.5944e-06	3.1814e-06	306.07	85.027	67.13	19.592	5.0126e-06	27.572	0.00048258	0.00048858	0.00014533	1169.2	5.7337e-06	5.6863e-06	1227.3	245.82	5.1579e-06	5.5503e-06	307.98	85.705	67.509	19.904	5.0987e-06	28.155	324.318	228.313	231.361	145.034	260.507	247.897	145.162	152.606	296.110	267.036	151.907	158.729	158.982	165.869	279.602	165.207	-8191	255	
758.384	1	1	0	0	0.13419	0.093517	0.14488	0.11034	0.22706	0.095199	0.17886	0.084677	0.12369	0.059671	0.28876	0.21003	0.073403	0.2151	0.24787	0.12319	-3.2104	-3.8083	-3.3875	-3.8583	-3.7083	-3.5542	-4.1375	-3.6667	-3.7313	-3.8854	-3.5167	-3.9625	-3.7313	-3.3583	-4.0542	-3.5854	382.969	335.823	292.901	303.041	434.128	270.707	425.239	424.076	339.196	354.764	444.746	478.571	468.354	375.116	251.132	164.355	0.00061425	0.00020667	5.9207e-05	1169.6	4.2039e-06	1.3033e-06	1235.8	246.64	4.8484e-06	3.4929e-06	306.56	85.482	66.955	19.541	4.2824e-06	27.488	0.00047944	0.00047506	0.00013407	1166.6	5.1295e-06	5.4358e-06	1226.1	246.03	5.2128e-06	5.1197e-06	307.82	85.937	67.334	19.913	4.9043e-06	28.117	322.265	222.265	212.659	144.953	281.378	259.052	144.881	152.450	308.660	336.691	151.977	158.621	158.869	165.733	294.410	164.649	-8191	255	
758.480	1	1	0	0	0.047925	0.22199	0.1647	0.14047	0.19322	0.14204	0.31364	0.084863	0.12461	0.17009	0.049695	0.10049	0.24587	0.28001	0.27861	0.17017	-3.3312	-3.8979	-3.4792	-3.7562	-3.8792	-3.45	-4.2167	-3.6833	-3.6604	-3.875	-3.6292	-3.85	-3.7833	-3.5521	-3.8021	-3.7042	330.885	404.382	490.828	295.518	176.211	217.008	457.441	394.900	228.427	314.982	143.061	273.773	407.689	441.198	175.138	473.625	0.00061447	0.00026663	0.00012156	1172	5.9577e-06	2.889e-06	1237	245.73	5.3006e-06	2.3098e-06	304.49	85.331	67.16	19.43	5.9363e-06	27.496	0.00045928	0.00043187	0.00012982	1165.6	4.8823e-06	4.9153e-06	1224.4	245.1	4.7951e-06	4.3784e-06	305.94	85.8	67.199	19.846	4.4137e-06	28.082	322.905	199.226	216.050	145.273	280.694	267.576	145.196	152.813	304.396	283.405	152.066	158.354	158.649	165.671	288.925	165.298	-8191	255	
758.552	1	1	0	0	0.028289	0.2178	0.11887	0.16113	0.041636	0.17238	0.10526	0.05188	0.23895	0.064655	0.12355	0.23158	0.10044	0.13414	0.1262	0.19322	-3.1542	-3.8083	-3.5333	-3.8354	-3.8625	-3.4792	-4.0354	-3.7812	-3.5854	-3.9542	-3.6042	-3.8333	-3.8375	-3.5687	-3.9437	-3.7687	165.282	413.450	308.749	481.453	136.247	411.960	452.019	340.040	411.809	356.956	224.177	354.283	454.186	400.864	301.586	184.234	0.000614	0.00022749	9.8192e-05	1170.9	4.2986e-06	4.0773e-06	1231.8	244.33	7.1024e-06	2.7887e-06	305.22	85.408	67.384	19.41	4.995e-06	27.482	0.000425	0.00040495	0.00011907	1159.9	4.721e-06	4.6135e-06	1219.8	244.28	4.565e-06	4.3239e-06	305.38	85.629	67.209	19.798	4.2315e-06	28.106	320.127	214.572	221.635	145.244	271.656	275.321	145.090	152.660	315.604	304.718	151.926	158.706	159.077	165.868	291.371	165.086	-8191	255	
758.648	1	1	0	0	0.12565	0.14274	0.17073	0.095609	0.23705	0.11791	0.2368	0.19067	0.18699	0.20488	0.1622	0.15714	0.1808	0.17975	0.11322	0.15597	-3.1146	-3.9396	-3.5083	-3.8083	-4.0875	-3.4854	-4.15	-3.8187	-3.4625	-4.1021	-3.6583	-3.8312	-3.9479	-3.5042	-3.8604	-3.8292	493.238	428.355	449.749	428.526	392.092	185.890	389.894	278.047	198.448	384.933	144.961	427.157	379.260	458.633	466.757	452.633	0.00057505	0.00035367	8.9351e-05	1169.5	3.6958e-06	2.1373e-06	1229.2	244.88	7.3908e-06	2.2064e-06	303.69	85.231	67.007	19.448	5.6233e-06	27.44	0.00041441	0.00041577	0.00011787	1157.4	4.7593e-06	4.591e-06	1217.3	244.35	4.5485e-06	4.5594e-06	304.95	85.631	67.214	19.855	4.4632e-06	28.083	318.679	242.112	216.430	145.002	250.570	304.598	145.078	152.644	308.767	299.383	152.236	158.672	158.723	166.056	304.303	164.981	-8191	255	
758.767	1	1	0	0	0.09851	0.17213	0.014507	0.21345	0.16342	0.081761	0.16488	0.035937	0.16364	0.21757	0.11658	0.015754	0.21211	0.17024	0.12714	0.2192	-2.9625	-3.9708	-3.5938	-3.7292	-4.0729	-3.5771	-4.0792	-3.9521	-3.3729	-3.9667	-3.7042	-3.6333	-3.9	-3.6063	-3.7396	-3.9313	265.777	460.548	294.127	334.791	197.632	185.588	438.267	373.938	253.531	462.082	145.983	159.820	479.233	187.576	326.243	229.765	0.00059878	0.0003102	8.7004e-05	1168.1	1.9154e-06	4.0908e-06	1226.2	245.73	4.7696e-06	2.8908e-06	303.21	85.193	66.743	19.546	4.5431e-06	27.56	0.00041118	0.00039208	0.00011782	1156.6	4.3658e-06	4.6184e-06	1217.6	244.31	4.4094e-06	4.3906e-06	305.19	85.77	67.074	19.903	4.5332e-06	28.107	324.335	219.853	226.234	145.303	297.796	282.137	145.084	152.304	330.937	285.509	152.058	158.381	158.836	166.093	299.770	165.087	-8191	255	
758.863	1	1	0	0	0.1965	0.26766	0.14791	0.12323	0.12649	0.12978	0.082792	0.13713	0.2289	0.26986	0.015174	0.26706	0.15335	0.20167	0.074094	0.099574	-2.9542	-4.0188	-3.6333	-3.5687	-3.9771	-3.5229	-3.9313	-3.9813	-3.4771	-3.9271	-3.8542	-3.65	-4.0167	-3.6521	-3.8083	-3.9104	206.832	358.014	303.928	232.143	273.444	476.814	173.006	310.221	190.386	411.308	182.996	477.723	174.319	458.861	219.509	439.394	0.00061243	0.00023507	0.00011072	1162.9	4.3427e-06	2.4762e-06	1225.3	244.5	5.1059e-06	2.7517e-06	305.94	85.084	67.128	19.468	5.1679e-06	27.579	0.00043739	0.00039935	0.00011611	1155.5	4.5167e-06	4.4051e-06	1216.3	244.07	4.5868e-06	4.2676e-06	305.1	85.627	67.162	19.822	4.3532e-06	28.072	321.209	217.529	210.670	145.082	259.277	291.869	145.073	152.643	313.783	269.780	151.993	158.633	159.140	165.838	317.294	165.543	-8191	255	
758.959	1	1	0	0	0.22742	0.22032	0.48999	0.068283	0.073511	0.15899	0.16552	0.15554	0.064094	0.16527	0.060241	0.095313	0.30235	0.1116	0.19946	0.082633	-2.9417	-3.9167	-3.7021	-3.45	-4.0062	-3.4979	-3.7792	-3.9792	-3.4813	-3.85	-3.8542	-3.5708	-4.0625	-3.7708	-3.7458	-3.9729	425.232	451.715	268.245	305.450	170.066	466.954	136.867	446.537	170.744	201.800	285.427	330.116	240.899	204.527	182.293	243.531	0.00062123	0.00027657	8.3418e-05	1171.6	3.2369e-06	3.2938e-06	1223	245.52	4.6617e-06	8.8163e-07	303.4	85.674	66.828	19.504	3.3206e-06	27.313	0.00043105	0.0003966	0.00011507	1160.2	4.5231e-06	4.6294e-06	1215.7	244.71	4.639e-06	4.4077e-06	304.69	85.859	67.044	19.853	4.4443e-06	28.041	324.954	206.014	226.171	145.051	286.727	252.631	145.121	152.444	313.697	296.290	152.198	158.672	158.732	165.851	297.670	165.426	-8191	255	
759.055	1	1	0	0	0.22101	0.092919	0.11907	0.1361	0.20618	0.070115	0.27109	0.084566	0.17451	0.19861	0.23093	0.0072979	0.16953	0.051118	0.27821	0.12026	-3.1813	-3.9375	-3.8521	-3.4771	-3.9708	-3.6042	-3.7646	-4.0833	-3.5375	-3.775	-3.8583	-3.4396	-3.9729	-3.8021	-3.5292	-3.9833	489.771	191.514	346.902	426.084	278.238	423.141	475.550	166.568	230.641	334.330	206.126	380.616	183.500	259.098	321.940	405.302	0.00063791	0.00029309	0.00010209	1164.2	3.9196e-06	1.6579e-06	1229.6	244.7	7.15e-06	4.1861e-06	302.89	85.675	67.391	19.408	5.7237e-06	27.387	0.0004388	0.00040996	0.00011819	1158.2	4.5167e-06	4.5885e-06	1219	244.3	4.7056e-06	4.5631e-06	304.79	85.746	67.151	19.831	4.4071e-06	28.065	320.295	235.734	220.707	144.940	267.995	335.171	145.105	152.430	330.801	283.322	151.757	158.584	158.786	165.650	306.302	164.813	-8191	255	
759.152	1	1	0	0	0.10169	0.16719	0.089583	0.10311	0.09858	0.1627	0.16911	0.13507	0.12298	0.31743	0.087553	0.40698	0.19889	0.060528	0.20493	0.058014	-3.0167	-3.5792	-3.8542	-3.5146	-3.8167	-3.8771	-3.7521	-3.9938	-3.5687	-3.8896	-4.0875	-3.475	-3.8688	-3.8667	-3.4479	-3.975	154.849	256.866	456.423	204.862	173.269	171.638	430.226	191.111	224.758	166.930	361.732	456.834	137.656	479.489	392.600	417.403	0.00066194	0.00046211	7.2896e-05	1160.3	2.6596e-06	3.3395e-06	1229.2	245.52	6.3692e-06	2.9517e-06	304.54	85.485	66.848	19.413	4.079e-06	27.364	0.00043886	0.00041114	0.00011708	1157.1	4.7518e-06	4.3776e-06	1217.3	244.66	4.5538e-06	4.4297e-06	305.49	85.734	67.077	19.797	4.4559e-06	28.077	323.992	222.370	226.857	145.446	291.757	271.976	145.148	152.571	305.684	328.060	152.056	158.580	159.102	165.888	276.934	164.973	-8191	255	
759.248	1	1	0	0	0.093387	0.13575	0.077296	0.053919	0.094073	0.28777	0.14287	0.29863	0.24383	0.24105	0.13464	0.364	0.2245	0.10356	0.19197	0.22818	-3.3125	-3.6937	-3.7938	-3.4875	-3.9479	-3.8	-3.7333	-3.8729	-3.6354	-3.8167	-3.9354	-3.6042	-4.0083	-4.025	-3.3063	-3.9417	260.467	445.493	271.024	188.312	397.670	171.037	219.201	491.705	493.342	149.923	163.928	455.596	456.124	411.746	240.720	393.380	0.00061196	0.00032776	9.7553e-05	1168	4.0805e-06	3.4873e-06	1228.9	246.57	8.7839e-06	2.1136e-06	303.26	85.011	66.968	19.402	2.8384e-06	27.546	0.00043009	0.00040441	0.00011741	1157	4.4111e-06	4.3819e-06	1217.2	244.68	4.6268e-06	4.7821e-06	304.87	85.839	67.188	19.829	4.4687e-06	28.028	318.752	227.456	209.433	145.077	262.070	276.563	145.143	152.566	324.667	299.079	152.091	158.454	158.850	165.843	326.266	165.074	-8191	255	
759.344	1	1	0	0	0.091969	0.225	0.14179	0.013931	0.27054	0.040148	0.13801	0.14934	0.069743	0.14615	0.10339	0.15775	0.1582	0.14893	0.36505	0.13398	-3.2917	-3.5542	-4.0021	-3.5479	-3.7833	-3.8104	-3.6292	-3.9437	-3.6958	-3.75	-4.0104	-3.5792	-3.8521	-3.9708	-3.4229	-3.9542	494.430	242.691	347.051	376.482	141.929	369.003	166.665	139.451	420.955	426.404	407.506	383.717	401.561	216.371	228.667	225.683	0.00059435	0.00037111	7.4063e-05	1168.9	6.0873e-06	2.2612e-06	1228.4	245.54	6.8192e-06	4.5951e-06	302.89	85.646	67.261	19.321	5.0462e-06	27.383	0.00042686	0.00042073	0.00011102	1159.6	4.486e-06	4.6592e-06	1215.4	244.22	4.3828e-06	4.6365e-06	305.67	85.928	67.295	19.83	4.2871e-06	27.991	324.894	219.397	188.230	145.054	272.164	298.482	145.059	152.606	320.457	285.692	151.925	158.727	158.814	165.604	267.301	165.376	-8191	255	
759.464	1	1	0	0	0.14456	0.090452	0.10402	0.053687	0.12729	0.11642	0.12396	0.046784	0.2063	0.19842	0.1603	0.21817	0.091448	0.094351	0.10276	0.23226	-3.3271	-3.5312	-3.8646	-3.3792	-3.5812	-3.9188	-3.6271	-3.9562	-3.7562	-3.3979	-4.1562	-3.675	-3.6917	-3.825	-3.3563	-3.8021	427.808	236.064	464.551	360.538	151.709	339.839	339.597	361.883	193.979	221.554	423.791	447.127	325.566	466.656	470.473	444.508	0.00062879	0.00033523	9.1534e-05	1162.3	4.9546e-06	3.0591e-06	1229.9	245.3	3.891e-06	2.0788e-06	303.89	84.832	67.027	19.508	5.1353e-06	27.422	0.00041566	0.00041486	0.00011391	1156.8	4.4656e-06	4.4892e-06	1217.2	244.5	4.2816e-06	4.7197e-06	305.5	85.682	67.219	19.867	4.4915e-06	28.093	322.265	210.314	233.076	145.175	295.605	264.228	145.209	152.407	304.671	302.935	152.060	158.402	158.705	165.896	285.609	164.834	-8191	255	
759.561	1	1	0	0	0.16624	0.12364	0.31983	0.12627	0.20206	0.12653	0.24142	0.2398	0.19502	0.17569	0.051197	0.16443	0.16316	0.069301	0.22765	0.056625	-3.4979	-3.3937	-3.8438	-3.6042	-3.6729	-4.0875	-3.6917	-3.9167	-3.8479	-3.5583	-3.9813	-3.8833	-3.7292	-4.0542	-3.475	-3.6167	287.197	430.715	404.517	395.233	298.421	288.099	475.881	305.520	193.627	232.712	293.613	389.500	419.310	151.942	222.149	202.208	0.00062974	0.00015493	9.1314e-05	1166.5	4.1929e-06	3.4047e-06	1229	245.78	5.6139e-06	1.4527e-06	302.34	85.885	66.885	19.597	4.0418e-06	27.4	0.00042817	0.00040576	0.00011635	1159.4	4.6572e-06	4.4337e-06	1218.4	244.56	4.4664e-06	4.5924e-06	305.02	85.976	67.224	19.907	4.6187e-06	28.098	321.656	266.161	214.296	145.122	268.505	297.629	145.122	152.517	305.534	302.719	152.155	158.586	158.832	166.079	293.269	164.925	-8191	255	
759.657	1	1	0	0	0.12668	0.13079	0.1472	0.33203	0.063935	0.22853	0.56805	0.247	0.070988	0.15166	0.14977	0.3706	0.2945	0.23041	0.15264	0.202	-3.5104	-3.4104	-3.8208	-3.6333	-3.5625	-4.0437	-3.6729	-3.75	-3.8542	-3.5458	-3.8729	-3.8438	-3.6854	-3.9688	-3.5417	-3.85	387.811	276.859	155.027	453.189	299.192	429.026	446.696	404.406	367.803	218.743	466.427	453.318	407.417	145.504	473.306	472.456	0.00058905	0.0001748	0.00011461	1161.3	5.0652e-06	2.2288e-06	1229.6	245	5.7819e-06	3.5063e-06	305.46	85.423	67.257	19.488	5.9776e-06	27.575	0.00042747	0.00042358	0.00011817	1158.7	4.7222e-06	4.6148e-06	1217.8	244.63	4.5985e-06	4.957e-06	305.92	85.764	67.346	19.881	4.6654e-06	28.128	323.796	185.570	234.353	144.993	287.762	295.541	145.160	152.561	314.045	286.716	152.068	158.631	158.866	165.800	278.983	165.164	-8191	255	
759.776	1	1	0	0	0.054209	0.12665	0.19334	0.095504	0.14048	0.084142	0.01194	0.061238	0.10729	0.10651	0.20449	0.07663	0.11521	0.14216	0.10989	0.10927	-3.6229	-3.2625	-3.6875	-3.6896	-3.6333	-4.0792	-3.6292	-3.7812	-3.9229	-3.4562	-3.8333	-3.8104	-3.5104	-4.0604	-3.4979	-3.5563	144.275	462.380	278.354	284.154	353.857	156.215	333.903	489.119	166.160	413.924	443.188	459.469	163.120	171.517	331.538	194.590	0.00066936	0.00013568	8.5202e-05	1168.4	4.2358e-06	1.7476e-06	1226	245.2	7.0348e-06	8.5437e-07	305.02	85.103	67.409	19.338	3.7877e-06	27.305	0.000438	0.00044194	0.00011485	1156.4	4.7117e-06	4.5995e-06	1217.2	244.74	4.638e-06	4.8781e-06	305.31	85.773	67.293	19.865	4.712e-06	28.075	322.892	222.461	210.981	144.787	266.295	293.451	145.066	152.737	302.904	314.327	152.275	158.748	159.026	165.644	280.027	165.146	-8191	255	
759.847	1	1	0	0	0.079779	0.12352	0.15905	0.19666	0.051872	0.24662	0.24173	0.34162	0.18753	0.038961	0.22562	0.23065	0.075188	0.20717	0.069199	0.077989	-3.7458	-3.4604	-3.7729	-4.0083	-3.5854	-3.975	-3.7458	-3.7042	-3.8875	-3.4896	-3.6646	-4.0125	-3.4479	-4.0583	-3.6646	-3.6646	289.803	472.021	225.150	147.806	366.632	143.092	364.455	401.401	263.047	344.438	394.476	250.631	453.214	465.904	372.444	476.001	0.00059098	0.00032585	0.00010875	1159.6	4.2189e-06	2.7842e-06	1229.2	245.5	6.7174e-06	4.518e-06	302.48	85.063	67.266	19.34	3.5324e-06	27.668	0.00042491	0.00042477	0.0001182	1158.4	4.8667e-06	4.5044e-06	1218.4	244.58	4.4915e-06	4.8977e-06	305.06	85.803	67.273	19.818	4.4571e-06	28.124	321.993	193.846	215.068	145.288	276.234	280.473	145.227	152.694	322.351	253.168	151.806	158.604	159.442	166.196	329.979	165.041	-8191	255	
759.943	1	1	0	0	0.087441	0.1479	0.14976	0.27346	0.094867	0.22194	0.12498	0.24351	0.13612	0.13741	0.24448	0.16721	0.18639	0.065988	0.059959	0.37959	-3.7125	-3.6208	-3.7979	-3.9333	-3.4917	-3.8396	-3.9042	-3.6104	-3.8146	-3.5542	-3.7938	-4.0354	-3.4313	-3.8438	-3.6396	-3.5604	215.615	274.062	191.020	137.272	428.809	370.285	413.152	307.914	485.497	171.505	480.776	353.665	339.986	401.265	147.269	212.582	0.00058821	0.00037394	6.6948e-05	1162.5	2.3478e-06	1.9979e-06	1231.8	246.32	5.1477e-06	3.4649e-06	304.57	85.55	67.435	19.589	5.7521e-06	27.476	0.00044097	0.0004309	0.00012166	1156.6	4.6862e-06	4.6489e-06	1219.4	245.04	4.5943e-06	4.557e-06	304.99	85.925	67.304	19.873	4.4671e-06	28.127	323.333	218.378	227.856	145.139	288.744	297.936	145.074	152.770	287.138	326.071	151.741	158.572	158.680	165.739	265.842	165.107	-8191	255	
760.064	1	1	0	0	0.3093	0.00457	0.14013	0.20873	0.17653	0.21049	0.31834	0.25045	0.13479	0.08005	0.25688	0.1004	0.21023	0.11888	0.10161	0.13812	-3.625	-3.6562	-3.7042	-4.05	-3.4542	-3.9271	-3.975	-3.6021	-3.7979	-3.5812	-3.7333	-4.0167	-3.525	-3.8063	-3.7375	-3.5187	488.809	370.629	490.308	374.066	210.725	441.349	374.483	414.700	291.263	426.670	347.473	259.008	443.776	322.567	458.873	373.666	0.00064173	0.00028491	0.00010414	1163.5	3.7409e-06	1.978e-06	1221	247.34	5.7216e-06	4.2424e-06	305.58	84.986	67.138	19.53	5.3278e-06	27.52	0.00044155	0.0004169	0.00011368	1157.3	4.6943e-06	4.4928e-06	1217.2	245.03	4.4424e-06	4.809e-06	306.2	85.891	67.372	19.889	4.3176e-06	28.067	323.058	240.204	239.502	145.195	273.669	253.495	144.981	152.601	315.654	300.679	152.012	158.686	159.174	165.737	286.552	165.211	-8191	255	
760.160	1	1	0	0	0.14397	0.063301	0.16447	0.099191	0.041369	0.022098	0.10555	0.10185	0.12538	0.174	0.19601	0.25251	0.18787	0.24498	0.14029	0.23378	-3.6083	-3.6229	-3.6375	-4.0208	-3.3729	-3.8979	-3.9813	-3.4146	-4.0104	-3.5875	-3.6583	-3.9021	-3.6458	-3.7208	-3.7833	-3.45	190.637	170.708	290.709	288.960	235.492	396.641	434.430	170.089	436.559	268.508	140.346	239.423	153.387	409.963	194.354	438.727	0.00062992	0.00026718	7.3894e-05	1155.1	3.3675e-06	9.2152e-07	1233.3	245.94	4.5282e-06	1.6545e-06	305.96	85.384	67.023	19.489	4.8118e-06	27.563	0.00043806	0.0004057	0.00011759	1154.5	4.7489e-06	4.6324e-06	1219.3	244.83	4.4856e-06	4.4842e-06	306.27	85.862	67.251	19.884	4.5682e-06	28.107	323.094	230.818	226.480	144.820	293.294	361.283	144.972	152.385	325.552	292.494	152.271	158.417	158.830	165.686	280.875	165.230	-8191	255	
760.256	1	1	0	0	0.26013	0.14805	0.22713	0.14627	0.027655	0.11055	0.26924	0.021978	0.051217	0.19926	0.14241	0.23289	0.26193	0.18666	0.10847	0.31506	-3.5938	-3.6292	-3.5021	-4.0062	-3.5083	-3.6458	-3.9208	-3.3833	-3.7708	-3.8625	-3.4229	-4.1604	-3.5479	-3.6833	-3.7438	-3.4562	201.996	138.331	415.655	318.538	492.755	334.407	384.297	481.116	382.291	338.259	138.343	432.345	314.452	412.342	433.953	494.103	0.00065188	0.00024765	0.00011212	1167.7	2.2141e-06	2.8351e-06	1225.3	245.56	7.2269e-06	3.6214e-06	304.85	85.644	66.673	19.496	4.5714e-06	27.382	0.00044107	0.00042924	0.00012377	1157.6	4.6119e-06	4.5349e-06	1218.4	244.43	4.5431e-06	4.7025e-06	305.47	86.026	67.192	19.842	4.3332e-06	28.132	320.970	215.721	220.886	145.046	243.861	295.240	145.218	152.539	338.919	275.317	152.194	158.667	158.725	166.057	276.657	165.112	-8191	255	
760.353	1	1	0	0	0.14222	0.18818	0.26801	0.06239	0.15085	0.12157	0.15044	0.17992	0.076289	0.074789	0.16965	0.23369	0.12055	0.32727	0.21924	0.18429	-3.5062	-3.675	-3.4833	-3.8708	-3.7208	-3.7	-3.9708	-3.5479	-3.8479	-3.85	-3.5312	-4.1167	-3.5875	-3.5625	-3.8438	-3.35	420.083	168.455	357.913	382.049	359.000	321.704	393.110	336.902	492.919	413.959	485.334	455.218	185.667	224.474	440.025	162.764	0.00060871	0.00034458	6.5425e-05	1164.6	4.7919e-06	2.4616e-06	1232.5	246.3	6.1671e-06	2.3326e-06	303.95	85.232	67.247	19.442	5.5072e-06	27.633	0.00042772	0.0004252	0.00012169	1158.1	4.6258e-06	4.7361e-06	1219.5	244.94	4.6374e-06	4.7142e-06	305.99	85.997	67.27	19.849	4.4543e-06	28.097	324.413	233.209	229.154	145.073	275.270	290.716	145.215	152.616	307.989	265.359	151.883	158.574	158.706	165.989	273.306	164.930	-8191	255	
760.449	1	1	0	0	0.18227	0.21575	0.33368	0.12725	0.13647	0.077553	0.21005	0.085709	0.2403	0.080805	0.33778	0.19168	0.053351	0.15472	0.17298	0.23024	-3.575	-3.9604	-3.3937	-3.9792	-3.5667	-3.5167	-4.2729	-3.6125	-3.7521	-3.8396	-3.5729	-4.0146	-3.8979	-3.5563	-4.1104	-3.4792	419.265	184.006	299.852	192.475	206.652	350.337	445.879	330.099	363.189	480.612	381.818	417.192	479.904	465.656	269.561	399.953	0.00064584	0.00022457	0.00010374	1169.6	3.9758e-06	2.3236e-06	1231.4	246.05	4.5811e-06	3.1531e-06	304.27	85.549	67.276	19.455	4.3674e-06	27.378	0.00043003	0.00042218	0.00012028	1157.4	4.8359e-06	4.808e-06	1218.4	244.96	4.7562e-06	4.557e-06	305.91	85.966	67.368	19.904	4.5509e-06	28.071	322.941	236.804	231.977	144.973	275.247	295.118	145.100	152.416	316.630	289.855	151.941	158.600	158.699	166.141	277.285	165.055	-8191	255	
760.545	1	1	0	0	0.15523	0.2331	0.051108	0.30976	0.12311	0.049745	0.028706	0.11791	0.11891	0.14536	0.074746	0.13295	0.22104	0.065331	0.16029	0.095188	-3.3771	-3.8646	-3.4771	-3.8292	-3.7208	-3.5312	-4.1542	-3.5812	-3.75	-3.9437	-3.5812	-3.9021	-3.7771	-3.5354	-3.95	-3.8521	191.613	172.932	289.187	479.519	469.234	357.055	452.629	346.249	244.268	412.505	323.435	142.926	469.917	265.047	469.883	403.768	0.00064529	0.00039914	6.7911e-05	1165.7	2.9993e-06	2.2103e-06	1231.3	245.71	4.8616e-06	5.2143e-06	305.01	85.954	67.439	19.571	4.2756e-06	27.474	0.00043076	0.00039579	0.00011668	1158.5	4.7146e-06	4.8007e-06	1218.8	245.19	4.737e-06	4.5557e-06	306.27	86.184	67.339	19.926	4.5087e-06	28.125	321.688	221.644	215.281	145.101	299.465	235.053	144.929	152.599	323.833	314.575	151.834	158.573	158.750	165.822	277.156	164.970	-8191	255	
760.641	1	1	0	0	0.18266	0.26738	0.16813	0.14228	0.30707	0.12217	0.12756	0.081062	0.10959	0.13603	0.14541	0.30439	0.075999	0.079752	0.058932	0.18	-3.2229	-4.0104	-3.5208	-4.0292	-3.8104	-3.2625	-3.9792	-3.9125	-3.6188	-3.9917	-3.4771	-3.7562	-3.875	-3.2958	-3.9125	-3.7604	363.596	365.565	438.537	203.162	195.670	311.184	371.327	148.148	232.888	471.923	445.280	141.509	433.574	429.202	456.809	209.386	0.00063252	0.00037496	0.00010921	1157.5	6.2652e-06	1.7275e-06	1228.5	245.6	5.7243e-06	3.2775e-06	305.08	85.881	67.305	19.505	4.7194e-06	27.575	0.00042776	0.00040269	0.00011691	1156.8	4.7181e-06	4.5568e-06	1219.4	244.79	4.7408e-06	4.4138e-06	305.82	86.149	67.33	19.936	4.251e-06	28.166	323.343	238.147	203.924	145.141	261.016	280.811	145.179	152.526	344.190	304.190	151.927	158.616	158.668	166.068	285.752	165.101	-8191	255	
760.737	1	1	0	0	0.10676	0.11269	0.18521	0.28611	0.087825	0.20749	0.024987	0.13584	0.1609	0.051209	0.16529	0.16055	0.16967	0.12428	0.18448	0.055831	-3.0625	-3.8667	-3.5708	-3.7438	-3.7167	-3.4792	-4.1771	-3.8458	-3.4229	-4.0563	-3.5667	-3.7188	-3.8958	-3.3042	-3.9271	-3.7896	493.512	412.016	171.660	426.454	303.237	441.249	298.774	452.826	187.497	380.148	243.258	217.662	178.055	437.710	194.114	278.338	0.00060984	0.00026957	7.1292e-05	1173.6	3.3436e-06	3.142e-06	1225.3	246.05	5.7337e-06	3.5484e-06	306.43	86.013	67.276	19.639	3.1112e-06	27.681	0.0004339	0.00041486	0.00011705	1159.6	4.519e-06	4.6148e-06	1218	245.26	4.3892e-06	4.3765e-06	306.27	86.178	67.582	19.968	4.3926e-06	28.222	322.021	235.692	221.031	145.335	267.249	288.317	145.268	152.351	306.793	280.669	151.883	158.725	158.886	166.017	288.272	164.828	-8191	255	
760.856	1	1	0	0	0.1879	0.12325	0.04663	0.29036	0.15834	0.46285	0.1986	0.12276	0.13318	0.18215	0.3131	0.18804	0.21233	0.20007	0.23396	0.097037	-3.2083	-3.9521	-3.5521	-3.6083	-3.8542	-3.4625	-4.1062	-3.8542	-3.4479	-3.9375	-3.6521	-3.675	-3.9813	-3.4688	-3.7854	-3.75	199.613	454.473	482.947	353.260	327.465	318.893	432.088	473.438	337.421	146.822	406.904	353.117	452.898	482.165	228.098	445.998	0.00060009	0.00024022	9.1982e-05	1168.5	2.6938e-06	4.1223e-06	1227.6	246.47	4.8251e-06	2.0362e-06	303.97	86.305	67.802	19.522	3.19e-06	27.633	0.00041956	0.00039649	0.00010829	1159.4	4.432e-06	4.4569e-06	1219.5	245.56	4.5644e-06	4.3435e-06	306.15	86.377	67.609	19.98	4.4243e-06	28.199	323.965	210.538	206.723	144.915	293.064	282.369	145.177	152.500	344.863	294.542	151.838	158.863	158.874	165.662	278.649	164.945	-8191	255	
760.952	1	1	0	0	0.18118	0.1137	0.06876	0.29271	0.20803	0.30367	0.33147	0.019402	0.18997	0.057044	0.10453	0.053358	0.18225	0.24883	0.1459	0.11218	-3.1042	-4.0188	-3.5521	-3.6458	-4.0042	-3.6771	-3.8958	-3.8958	-3.5062	-3.975	-3.6688	-3.7146	-4.2208	-3.5271	-3.8375	-3.8979	451.326	358.817	387.912	152.017	257.094	176.436	404.562	187.694	373.162	415.013	230.894	165.039	360.612	419.501	438.569	281.274	0.00061624	0.0002244	8.8202e-05	1169.6	2.9793e-06	2.9238e-06	1227.7	246.31	5.552e-06	3.3034e-06	304.66	86.144	67.14	19.541	2.6347e-06	27.639	0.00043179	0.00039273	0.00010989	1160.2	4.4964e-06	4.6001e-06	1220.8	245.94	4.7376e-06	4.4304e-06	306.69	86.27	67.396	19.964	4.4065e-06	28.176	320.101	247.909	219.422	145.479	278.687	256.407	145.204	152.390	299.736	256.947	151.600	158.624	158.928	165.751	259.789	164.844	-8191	255	
761.026	1	1	0	0	0.4017	0.14839	0.081006	0.12692	0.086477	0.1507	0.10123	0.077693	0.16707	0.21283	0.19203	0.12357	0.26444	0.11055	0.13386	0.3169	-3.0167	-3.7604	-3.6521	-3.2958	-3.9562	-3.6458	-3.9167	-4.0188	-3.3833	-4.0042	-3.7417	-3.5917	-3.9708	-3.7167	-3.7375	-3.9354	180.098	309.589	135.600	177.854	433.650	215.836	168.072	321.714	442.029	232.559	437.538	196.559	403.748	280.809	403.398	471.867	0.00061585	0.00037369	8.3736e-05	1174.8	4.8378e-06	3.4225e-06	1226.5	246.87	3.6625e-06	3.4514e-06	305.04	86.08	67.579	19.535	3.8693e-06	27.394	0.00043368	0.00040791	0.00011345	1162.8	4.5417e-06	4.5367e-06	1219.8	245.59	4.4073e-06	4.4187e-06	306.25	86.31	67.621	20.003	4.4054e-06	28.224	318.126	214.353	214.794	145.417	296.818	299.431	145.322	152.405	317.265	321.859	151.883	158.620	158.955	165.987	296.328	165.139	-8191	255	
761.144	1	1	0	0	0.20179	0.05136	0.082985	0.12334	0.25477	0.11895	0.18528	0.10611	0.19742	0.16805	0.12125	0.20745	0.068839	0.14395	0.32873	0.075007	-3.1979	-3.8563	-3.7313	-3.4271	-3.8521	-3.6646	-3.7646	-4.0188	-3.575	-3.7188	-4.1146	-3.5479	-3.9833	-3.5833	-3.6292	-3.9417	209.473	223.584	298.326	441.213	307.729	452.195	251.219	145.303	340.926	416.520	368.529	332.243	362.721	390.860	210.526	249.061	0.00064187	0.00014247	6.519e-05	1165.5	3.1378e-06	2.803e-06	1234.1	247.07	5.4435e-06	3.161e-06	305.97	85.768	67.481	19.624	4.0726e-06	27.638	0.00042606	0.00040005	0.00011178	1159.4	4.2672e-06	4.5788e-06	1222.7	245.76	4.4467e-06	4.557e-06	306.84	86.2	67.636	20.003	4.4032e-06	28.194	321.459	204.242	208.272	145.552	276.694	303.130	145.100	152.473	332.620	289.084	151.573	158.552	158.685	166.107	288.362	165.578	-8191	255	
761.241	1	1	0	0	0.19002	0.20116	0.023361	0.10488	0.19487	0.058784	0.37958	0.13762	0.21864	0.15581	0.1655	0.13804	0.13126	0.13034	0.18994	0.092353	-2.8729	-3.7146	-3.7812	-3.5125	-3.9	-3.6604	-3.6562	-4.0854	-3.5	-3.7979	-3.9292	-3.4437	-3.9958	-3.6729	-3.4896	-3.85	458.075	324.353	232.603	216.290	341.784	362.178	409.251	155.677	195.142	248.603	317.410	143.949	322.992	326.479	421.851	370.085	0.00063182	0.0002262	7.4433e-05	1172	4.902e-06	2.6391e-06	1230.7	246.98	6.3335e-06	3.3645e-06	306.47	86.167	67.18	19.628	4.7481e-06	27.636	0.00043268	0.0004134	0.00011706	1161	4.4378e-06	4.3423e-06	1220.6	245.62	4.6103e-06	4.6756e-06	306.84	86.302	67.508	20.01	4.6065e-06	28.224	323.126	163.069	208.490	145.113	306.044	285.616	145.206	152.471	323.675	260.716	151.818	158.552	158.544	165.597	304.022	165.009	-8191	255	
761.337	1	1	0	0	0.13477	0.10748	0.17849	0.21406	0.26217	0.19019	0.16358	0.28168	0.13524	0.25722	0.18145	0.14001	0.14485	0.22701	0.09821	0.33005	-3.0667	-3.7938	-3.9062	-3.2458	-3.9	-3.7438	-3.5417	-4.0312	-3.5208	-3.7729	-3.9333	-3.5167	-3.8917	-3.7375	-3.3521	-4.0687	424.234	290.332	277.927	217.611	143.519	457.512	435.830	366.952	285.348	392.187	250.785	333.585	404.126	439.531	345.854	478.201	0.00064421	0.00034667	8.9927e-05	1163.7	3.5984e-06	2.0501e-06	1226	247.24	5.8395e-06	3.191e-06	306.04	85.776	67.323	19.539	3.8724e-06	27.473	0.00042286	0.00038939	0.00011467	1157.8	4.5127e-06	4.6172e-06	1218	246.06	4.4888e-06	4.5221e-06	306.7	86.234	67.536	19.974	4.4282e-06	28.138	325.609	225.804	221.637	145.266	293.676	283.363	145.125	152.337	320.434	306.454	152.035	158.646	158.905	165.715	286.114	165.232	-8191	255	
761.457	1	1	0	0	0.073542	0.20471	0.075484	0.062497	0.086463	0.134	0.22025	0.25043	0.10783	0.060912	0.024075	0.20142	0.051134	0.25804	0.22052	0.27391	-3.2687	-3.5438	-3.8792	-3.5167	-3.7833	-3.9062	-3.5104	-4.0813	-3.6896	-3.5708	-4.1458	-3.6083	-3.8271	-3.9083	-3.3646	-4.0042	204.383	339.473	480.656	340.809	392.291	183.779	431.830	396.208	203.369	303.991	319.286	382.119	370.030	437.637	258.557	134.717	0.00064921	0.00033612	7.0688e-05	1164.7	3.8025e-06	3.4181e-06	1229.5	247	6.0804e-06	4.4919e-06	307.04	85.572	67.192	19.436	4.9649e-06	27.483	0.0004291	0.000419	0.00010826	1159	4.5922e-06	4.2874e-06	1218.9	245.74	4.3828e-06	4.6053e-06	306.58	86.06	67.54	19.896	4.4815e-06	28.181	322.621	205.676	217.582	145.363	287.075	272.935	145.243	152.264	315.128	284.256	151.890	158.389	158.827	166.018	284.670	164.845	-8191	255	
761.554	1	1	0	0	0.10224	0.11953	0.20176	0.049973	0.064032	0.15615	0.308	0.18566	0.27003	0.10269	0.16958	0.22528	0.23126	0.15095	0.10159	0.15469	-3.1771	-3.5875	-3.8312	-3.5687	-3.6542	-4.0021	-3.6458	-4.1104	-3.7375	-3.6333	-4.0896	-3.7979	-3.7542	-3.9542	-3.4562	-3.8958	443.431	453.179	247.762	462.907	249.697	291.131	396.671	415.791	296.514	450.895	485.222	171.348	395.889	262.798	175.967	386.487	0.00063556	0.00028487	9.6241e-05	1168.3	3.6767e-06	2.2232e-06	1229.4	246.08	3.7091e-06	2.6465e-06	304.51	86.451	67.694	19.647	2.4904e-06	27.516	0.00042334	0.00039795	0.00011342	1158	4.7744e-06	4.7111e-06	1217.9	245.46	4.4286e-06	4.7961e-06	306.39	86.308	67.535	19.967	4.3682e-06	28.188	325.143	222.637	228.514	145.195	249.943	236.267	145.178	152.654	300.494	281.973	151.902	158.483	159.024	166.168	292.817	164.980	-8191	255	
761.650	1	1	0	0	0.35243	0.15464	0.32888	0.26578	0.17813	0.14861	0.34215	0.22394	0.1148	0.030992	0.24159	0.059562	0.1121	0.15857	0.14786	0.30874	-3.4646	-3.3583	-3.9917	-3.4375	-3.7208	-3.9188	-3.7188	-3.9917	-3.6854	-3.4833	-3.8646	-3.5646	-3.6667	-3.8667	-3.4625	-3.8542	318.430	329.837	347.185	414.315	465.532	224.190	384.744	483.362	257.785	449.113	470.481	203.543	258.077	366.500	363.411	355.503	0.00065692	0.00029411	0.00010682	1157	3.8362e-06	3.0071e-06	1224.7	246.82	6.2877e-06	2.6056e-06	305.17	85.454	67.099	19.565	3.7833e-06	27.478	0.00043867	0.00041707	0.00011233	1154.4	4.4517e-06	4.3789e-06	1217.1	245.29	4.5277e-06	4.6726e-06	306.32	86.115	67.429	19.952	4.3004e-06	28.116	324.654	226.269	230.507	145.207	278.168	259.758	145.191	152.391	325.786	292.347	151.896	158.681	159.211	165.748	287.393	164.918	-8191	255	
761.746	1	1	0	0	0.13985	0.14327	0.19189	0.10108	0.15543	0.32504	0.22779	0.21372	0.13435	0.38963	0.11433	0.16796	0.06243	0.24238	0.063438	0.19033	-3.4958	-3.3896	-3.8979	-3.6771	-3.6437	-3.9521	-3.6937	-3.8521	-3.7979	-3.4167	-3.9646	-3.6937	-3.5479	-4.1292	-3.3958	-3.8	444.726	200.715	305.908	486.140	143.887	420.386	334.758	164.698	412.753	345.215	181.023	213.126	403.028	394.447	438.545	397.489	0.00058657	0.00027779	7.9848e-05	1168.7	3.0021e-06	3.2299e-06	1226.8	245.31	3.0563e-06	1.0283e-06	305.6	85.498	67.215	19.657	3.714e-06	27.627	0.00042721	0.00041308	0.00010823	1160.4	4.7906e-06	4.4307e-06	1216.9	245.36	4.2757e-06	4.5288e-06	306.72	86.239	67.406	19.982	4.662e-06	28.189	326.248	237.743	215.696	145.286	295.968	292.040	144.972	152.458	301.200	292.471	151.923	158.387	158.910	165.770	320.053	165.129	-8191	255	
761.840	1	1	0	0	0.24618	0.12073	0.13395	0.12874	0.27933	0.13682	0.18355	0.080898	0.2924	0.25558	0.11637	0.074234	0.1338	0.10957	0.17383	0.15785	-3.4938	-3.55	-3.8125	-3.7021	-3.5229	-3.9188	-3.7375	-3.7083	-3.9896	-3.4125	-3.9917	-3.7021	-3.5875	-4.0708	-3.3854	-3.6104	436.481	364.426	432.185	253.654	298.227	189.639	419.118	276.949	475.960	420.686	180.544	185.245	440.331	427.900	248.243	323.668	0.00059793	0.00012235	8.1237e-05	1166.2	4.1789e-06	3.0374e-06	1227.4	245.9	6.0093e-06	3.6136e-06	305.27	85.656	67.131	19.595	4.1573e-06	27.527	0.00041598	0.00042202	0.00011119	1159.4	4.6403e-06	4.2454e-06	1215.7	245.49	4.3204e-06	4.5729e-06	306.34	86.158	67.404	19.966	4.3659e-06	28.243	321.422	283.946	182.861	144.900	271.977	300.497	145.193	152.583	312.450	294.401	152.097	158.487	158.997	165.633	288.359	165.006	-8191	255	
761.936	1	1	0	0	0.21784	0.33685	0.17855	0.26049	0.076107	0.12311	0.22924	0.021945	0.11186	0.1781	0.35034	0.060977	0.12591	0.086277	0.074862	0.083167	-3.5875	-3.3625	-3.7875	-3.8312	-3.4542	-3.9854	-3.6958	-3.7333	-3.8812	-3.6104	-3.8333	-3.8438	-3.5187	-4.1167	-3.6646	-3.5312	332.273	262.546	255.991	463.137	244.756	410.226	438.062	341.935	194.815	356.086	153.082	414.023	149.842	166.477	422.152	281.219	0.00059495	0.00051133	7.8915e-05	1164.6	2.8201e-06	2.4603e-06	1228.2	245.61	5.0849e-06	4.3262e-06	304.82	85.948	67.457	19.576	5.1552e-06	27.544	0.00041655	0.00041028	0.00011042	1157	4.6583e-06	4.3844e-06	1216.6	244.99	4.3556e-06	4.2848e-06	306.79	86.15	67.455	19.987	4.3454e-06	28.177	322.061	237.675	246.834	145.330	280.425	296.790	145.317	152.793	327.611	263.714	152.094	158.935	159.216	165.810	289.880	165.272	-8191	255	
762.033	1	1	0	0	0.24751	0.079857	0.077865	0.26688	0.16059	0.2295	0.2172	0.051652	0.14914	0.11761	0.099624	0.23831	0.20947	0.11292	0.10223	0.11785	-3.6937	-3.5146	-3.8208	-3.9271	-3.3875	-4.0208	-3.8688	-3.5542	-4.1042	-3.4813	-3.7708	-3.9708	-3.4333	-3.9208	-3.6937	-3.6063	415.782	438.268	258.334	136.614	432.929	336.590	292.645	345.606	157.447	448.124	411.926	425.868	443.249	458.376	378.711	268.954	0.00060977	0.00013088	7.8216e-05	1166.2	1.4936e-06	2.6325e-06	1224.3	245.87	5.4302e-06	4.9312e-06	305.03	86.1	67.542	19.649	4.0774e-06	27.421	0.00040721	0.00040775	0.00010899	1155.8	4.2335e-06	4.3466e-06	1214.8	245.69	4.0887e-06	4.4187e-06	306.64	86.086	67.454	20.041	4.0221e-06	28.234	324.168	222.651	227.376	145.201	324.859	270.992	145.002	152.650	302.856	289.089	152.098	158.616	158.981	165.442	307.828	165.387	-8191	255	
762.153	1	1	0	0	0.29737	0.027907	0.2008	0.04437	0.31371	0.24508	0.12253	0.095732	0.082071	0.081397	0.18926	0.15159	0.22309	0.17044	0.17565	0.071909	-3.7708	-3.5312	-3.6437	-4.0083	-3.4917	-3.8312	-3.9771	-3.5396	-3.9771	-3.5646	-3.7125	-4.0479	-3.4625	-3.9604	-3.975	-3.6271	298.077	319.173	190.268	136.520	243.725	298.651	257.888	223.008	272.992	170.236	135.316	134.854	371.490	354.098	472.645	176.854	0.00058879	0.00024277	7.4293e-05	1163.7	3.9273e-06	3.2003e-06	1223.8	246.68	4.6728e-06	4.0072e-06	305.15	85.963	67.533	19.772	5.8281e-06	27.399	0.0003896	0.00037167	0.00010279	1152.9	4.331e-06	4.3191e-06	1214.4	245.83	4.1127e-06	4.36e-06	306.04	86.278	67.751	20.072	4.0704e-06	28.208	320.730	216.889	205.094	145.246	265.564	291.120	145.083	152.619	328.412	294.539	152.098	158.701	159.101	165.949	301.693	164.787	-8191	255	
762.249	1	1	0	0	0.22627	0.19579	0.099331	0.040541	0.090409	0.25785	0.24972	0.12763	0.039893	0.084335	0.057028	0.21994	0.11152	0.088943	0.13571	0.26694	-3.8229	-3.5417	-3.6333	-4.0813	-3.4104	-3.7521	-3.9854	-3.5375	-4.0021	-3.7375	-3.55	-4.1458	-3.5646	-3.825	-3.9437	-3.4917	378.862	404.280	212.779	493.589	260.830	266.495	420.510	337.868	340.594	240.271	433.903	387.274	305.304	442.753	223.320	457.585	0.00059993	0.000273	7.259e-05	1161.4	3.5812e-06	3.4206e-06	1222	247.38	4.452e-06	2.0957e-06	304.1	86.556	67.778	19.616	4.443e-06	27.617	0.00039088	0.00037119	0.00010483	1153.9	4.4941e-06	4.1558e-06	1214.3	245.17	3.9843e-06	4.2193e-06	306.18	86.381	67.63	20.057	4.0237e-06	28.232	321.862	206.436	212.547	145.272	284.535	297.618	145.229	152.418	303.833	281.610	151.947	158.588	158.558	166.001	277.958	165.273	-8191	255	
762.321	1	1	0	0	0.229	0.21221	0.15067	0.25013	0.15569	0.24873	0.096476	0.1582	0.082113	0.034148	0.18054	0.049892	0.25812	0.18044	0.083461	0.30069	-3.7646	-3.6125	-3.5563	-3.8063	-3.6021	-3.7812	-4.1	-3.4437	-3.8875	-3.8625	-3.4979	-3.8042	-3.5771	-3.7687	-3.7771	-3.5021	257.588	253.234	222.913	425.916	231.751	231.947	451.210	488.915	373.808	382.310	449.308	180.446	433.757	465.053	160.355	376.386	0.00061455	0.00024356	0.00010272	1157.7	3.5549e-06	2.5252e-06	1227.1	247.33	6.3598e-06	2.5227e-06	305.03	86.041	67.718	19.625	2.6527e-06	27.681	0.00040337	0.00038438	0.00010932	1153.3	4.3536e-06	4.4093e-06	1216.4	245.83	4.1622e-06	4.1227e-06	305.94	86.214	67.568	20.004	3.9032e-06	28.268	324.014	222.966	215.845	145.389	268.594	264.083	145.099	152.421	320.411	291.188	151.980	158.422	158.989	165.991	274.139	165.033	-8191	255	
762.417	1	1	0	0	0.14845	0.095561	0.072266	0.041592	0.22063	0.016887	0.29229	0.39369	0.10924	0.18723	0.17022	0.10402	0.13567	0.10782	0.20708	0.12754	-3.5333	-3.7188	-3.35	-4.0125	-3.6479	-3.6	-4.1229	-3.5667	-3.7938	-3.9396	-3.5583	-3.875	-3.5854	-3.5583	-3.9542	-3.5708	206.296	362.037	341.110	429.799	491.465	259.327	417.146	463.750	394.377	264.193	387.318	480.002	172.536	442.412	147.886	417.575	0.00061375	0.00020811	0.00014027	1168	3.6651e-06	2.353e-06	1226.2	246.86	6.838e-06	3.8665e-06	303.93	85.572	67.793	19.678	2.3152e-06	27.596	0.00040641	0.00038556	0.00011145	1156.3	4.3943e-06	4.2301e-06	1214.4	245.94	4.1958e-06	4.138e-06	306.24	86.212	67.706	20.058	3.8565e-06	28.284	323.178	218.791	213.263	145.402	293.812	283.114	145.040	152.463	295.819	285.101	151.639	158.550	159.015	165.817	287.209	165.245	-8191	255	
762.538	1	1	0	0	0.057982	0.28164	0.14411	0.10277	0.16454	0.1551	0.24102	0.084199	0.064438	0.16769	0.094087	0.18828	0.26684	0.10855	0.14816	0.089883	-3.4583	-3.7354	-3.3854	-3.8604	-3.5792	-3.4667	-4.05	-3.5729	-3.8125	-3.9354	-3.4708	-3.925	-3.8104	-3.5875	-4.0271	-3.4562	421.701	180.809	189.240	216.381	299.509	262.746	464.504	224.468	472.348	134.603	158.849	426.548	491.666	254.959	300.888	450.250	0.00064111	0.0004323	8.4632e-05	1152.9	4.8188e-06	3.0283e-06	1223.7	246.76	4.1997e-06	3.3866e-06	306.03	86.357	67.139	19.655	4.8909e-06	27.733	0.00040068	0.0003812	0.00010814	1150.4	4.3217e-06	4.299e-06	1215.4	245.93	4.2272e-06	4.0401e-06	306.86	86.403	67.567	20.056	3.8771e-06	28.284	323.011	235.402	226.303	145.455	268.671	269.099	144.909	152.425	297.146	296.475	152.144	158.816	158.785	166.064	294.328	165.087	-8191	255	
762.634	1	1	0	0	0.19881	0.21559	0.055158	0.093388	0.033836	0.087994	0.10748	0.13709	0.29573	0.11595	0.25021	0.1766	0.12651	0.1701	0.251	0.095821	-3.3729	-3.8771	-3.3438	-4.1167	-3.7062	-3.5687	-4.2	-3.6375	-3.6375	-3.8563	-3.4604	-3.8021	-3.7292	-3.475	-4	-3.7146	324.367	486.141	424.922	442.717	267.916	317.916	430.299	169.811	137.660	255.131	467.109	335.807	260.546	302.725	278.776	300.161	0.00062534	0.00035554	9.2577e-05	1161.6	2.7938e-06	3.6177e-06	1221.5	247.35	6.9478e-06	3.6776e-06	304.67	86.3	67.434	19.635	3.071e-06	27.576	0.00040967	0.00038072	0.00010543	1153.8	4.165e-06	4.2618e-06	1215.3	245.89	4.3119e-06	4.0982e-06	306.03	86.347	67.538	20.042	3.8132e-06	28.191	321.808	225.219	214.134	145.490	293.572	272.898	145.069	152.770	314.532	298.774	151.829	158.693	158.806	165.854	285.253	165.332	-8191	255	
762.730	1	1	0	0	0.1566	0.35642	0.11724	0.21441	0.1849	0.13048	0.19039	0.060014	0.07355	0.18871	0.21227	0.24336	0.022326	0.023476	0.27991	0.19415	-3.3354	-3.8917	-3.4375	-3.9458	-3.7625	-3.5062	-4.0917	-3.4938	-3.6583	-4.0437	-3.6375	-3.8583	-3.7896	-3.4875	-3.9708	-3.6292	477.905	367.967	282.945	466.069	469.898	209.265	446.733	459.758	230.773	392.873	275.557	444.367	444.369	367.282	234.413	338.271	0.0005989	0.00018917	4.8086e-05	1156.5	2.5162e-06	3.7214e-06	1228.5	247.99	4.5216e-06	3.4019e-06	305.57	85.982	67.911	19.643	4.6757e-06	27.72	0.00040826	0.00036138	0.00010914	1152.4	4.3554e-06	4.146e-06	1217.5	246.58	4.2059e-06	3.9924e-06	307.02	86.292	67.682	20.089	3.9793e-06	28.276	324.050	223.043	262.376	145.114	282.953	273.462	145.185	152.355	305.972	318.428	151.943	159.006	158.857	165.882	269.191	165.197	-8191	255	
762.826	1	1	0	0	0.071334	0.061719	0.046283	0.099715	0.17428	0.18449	0.28163	0.14689	0.26534	0.16289	0.099554	0.31465	0.047446	0.33624	0.11354	0.24324	-3.1729	-3.9667	-3.5083	-3.7458	-3.8729	-3.5208	-4.0333	-3.5583	-3.6063	-3.9667	-3.5687	-3.6771	-3.8833	-3.5229	-3.9021	-3.725	460.225	434.268	485.525	170.480	210.545	204.137	139.709	378.662	189.449	381.030	335.943	145.169	204.803	405.078	356.006	415.685	0.0006347	0.00042642	0.00013421	1161.1	5.1629e-06	2.0288e-06	1227.1	246.48	6.059e-06	3.9001e-06	305.46	86.078	67.522	19.629	4.7065e-06	27.56	0.00041697	0.00035336	0.00010814	1153.1	4.3177e-06	4.1113e-06	1217.2	246.2	4.1745e-06	3.9704e-06	306.5	86.436	67.788	20.073	4.0204e-06	28.291	321.364	237.189	241.205	145.129	284.519	307.819	144.901	152.460	317.333	290.485	152.120	158.612	158.890	166.229	293.226	164.943	-8191	255	
762.945	1	1	0	0	0.32718	0.090521	0.12103	0.20604	0.15854	0.070418	0.10917	0.11351	0.061438	0.22845	0.21596	0.34652	0.1632	0.15279	0.053409	0.11272	-2.9667	-3.9083	-3.5333	-3.6813	-3.7438	-3.5229	-4.1021	-3.8417	-3.5667	-3.9917	-3.5979	-3.6854	-3.9646	-3.4083	-3.7687	-3.8292	235.877	424.419	170.509	218.347	427.195	456.324	450.287	490.969	320.478	391.522	480.129	299.340	311.581	267.713	146.056	146.693	0.00059994	0.00033569	7.3812e-05	1161.3	3.8472e-06	3.6961e-06	1224.9	246.51	7.1487e-06	3.8199e-06	305.24	86.101	67.622	19.513	5.5186e-06	27.642	0.00041611	0.00037027	0.00010694	1156.5	4.0867e-06	4.0839e-06	1214.3	246.06	4.2278e-06	3.9857e-06	306.57	86.324	67.64	19.998	4.1098e-06	28.266	322.889	211.568	238.207	145.634	288.628	255.224	145.376	152.568	309.651	275.549	152.140	158.984	158.698	165.699	305.852	165.172	-8191	255	
763.019	1	1	0	0	0.040597	0.092333	0.058648	0.29699	0.40788	0.18374	0.028709	0.13369	0.057796	0.13627	0.040538	0.20107	0.10309	0.1482	0.051423	0.13423	-3.0458	-4	-3.5375	-3.6708	-4.0208	-3.8229	-4.0125	-3.9896	-3.4646	-3.9437	-3.8312	-3.7521	-4.0896	-3.6625	-3.8458	-3.875	412.036	460.063	270.783	464.027	138.640	331.690	196.330	466.018	155.244	158.482	457.596	167.695	140.284	375.259	165.233	239.811	0.00067398	0.00029639	9.73e-05	1158.5	2.1299e-06	3.145e-06	1226.9	246.55	6.4533e-06	3.2489e-06	303.89	86.001	67.673	19.731	5.6532e-06	27.685	0.00041297	0.00034717	0.00010788	1152.1	3.8511e-06	4.1357e-06	1214	245.48	4.1127e-06	4.0505e-06	306.37	86.343	67.654	20.052	4.051e-06	28.247	320.522	244.976	231.688	144.954	293.335	273.896	145.236	152.715	321.683	291.322	151.834	158.691	158.704	165.771	291.854	165.048	-8191	255	
763.137	1	1	0	0	0.2005	0.18008	0.061032	0.092042	0.33779	0.23249	0.3184	0.3048	0.16657	0.095563	0.2576	0.27947	0.17837	0.19359	0.060657	0.26116	-3.0854	-3.9313	-3.5792	-3.6562	-3.9083	-3.3312	-3.8896	-3.85	-3.3875	-3.8979	-3.675	-3.6437	-4.0354	-3.7083	-3.4042	-3.8417	274.659	346.641	403.230	192.123	404.738	193.065	381.242	445.953	161.501	437.280	488.234	369.240	468.934	142.989	339.338	152.130	0.00063355	0.0002392	0.00010138	1164.9	5.2146e-06	1.957e-06	1223.5	245.85	4.4153e-06	1.8083e-06	304.09	86.077	67.661	19.624	4.7474e-06	27.705	0.00040606	0.00037501	9.7506e-05	1154.1	3.9114e-06	4.0272e-06	1213.5	245.65	3.9832e-06	4.2102e-06	306.49	86.283	67.707	20.015	4.0743e-06	28.314	322.634	222.814	235.625	144.963	301.531	320.693	145.217	152.567	329.496	302.791	152.131	158.926	158.945	165.627	290.137	165.337	-8191	255	
763.234	1	1	0	0	0.080528	0.20545	0.22022	0.10774	0.25071	0.074345	0.13372	0.13864	0.086901	0.1757	0.15952	0.12307	0.094153	0.14964	0.34244	0.26858	-2.9708	-3.8979	-3.5729	-3.4854	-4.0583	-3.5667	-3.8417	-4.0208	-3.5333	-3.9479	-3.6979	-3.5729	-4.0521	-3.7375	-3.6042	-4.1583	312.552	395.146	384.321	140.886	429.309	260.143	444.051	338.179	440.879	482.589	207.430	268.454	453.382	166.096	178.810	144.637	0.00063351	0.0002648	5.8309e-05	1159.2	2.8578e-06	3.348e-06	1226.4	246.34	6.2933e-06	3.5342e-06	306.9	86.226	67.464	19.535	3.7182e-06	27.706	0.00041447	0.00036187	0.00010229	1153.5	3.9062e-06	4.1728e-06	1215.7	246.08	4.1841e-06	4.149e-06	307.2	86.39	67.702	20.02	4.1726e-06	28.247	322.653	228.225	214.731	145.225	295.561	257.627	145.181	152.806	341.317	304.942	152.368	158.686	159.156	165.896	276.825	164.922	-8191	255	
763.330	1	1	0	0	0.32276	0.23327	0.13007	0.13645	0.27896	0.15924	0.1298	0.20725	0.18842	0.18876	0.082093	0.094976	0.17539	0.08865	0.18985	0.21691	-3.1437	-3.8042	-3.7687	-3.3438	-4.0687	-3.7792	-4.0292	-4.3104	-3.7396	-4.0104	-4.0729	-3.6521	-4.1792	-3.7792	-3.7417	-4.0917	375.913	401.270	340.407	204.497	314.841	388.510	373.936	465.113	156.587	322.502	263.053	233.313	416.900	160.378	471.984	430.303	0.00066375	0.00034112	7.4212e-05	1159.9	4.3545e-06	2.0487e-06	1225.2	245.14	6.5547e-06	1.6933e-06	304.39	85.899	67.294	19.636	3.1847e-06	27.594	0.00041265	0.00037619	0.0001033	1151.2	4.1134e-06	4.168e-06	1213.7	245.31	4.0903e-06	4.012e-06	306.01	86.39	67.42	20.063	4.1498e-06	28.242	325.104	213.065	248.667	145.280	277.140	285.656	145.178	152.521	316.552	291.332	152.202	158.928	159.473	165.476	287.481	165.099	-8191	255	
763.426	1	1	0	0	0.13085	0.28584	0.12636	0.22473	0.25943	0.15546	0.15488	0.17594	0.27468	0.18946	0.23981	0.057289	0.21164	0.040097	0.042794	0.24195	-3.2125	-3.8979	-3.975	-3.6479	-3.8771	-3.9125	-3.825	-4.1708	-3.5729	-3.8104	-3.9917	-3.6292	-4.0479	-3.7396	-3.5187	-4.1042	309.696	268.444	190.824	387.232	311.863	144.920	419.489	153.840	364.050	375.267	449.389	440.041	437.834	421.699	379.729	361.560	0.00061753	0.00025212	7.1952e-05	1161.4	4.6302e-06	2.5239e-06	1220.7	246.34	5.2104e-06	2.8973e-06	305.92	85.764	67.602	19.623	3.0798e-06	27.573	0.00041841	0.00038077	0.00010283	1154	4.165e-06	4.285e-06	1213.3	245.4	4.2896e-06	4.1264e-06	306.29	86.241	67.615	20.037	4.0826e-06	28.232	321.293	212.858	248.867	145.095	260.257	321.978	145.129	152.609	333.663	286.587	152.307	158.597	158.662	165.680	296.018	164.964	-8191	255	
763.546	1	1	0	0	0.052234	0.12333	0.1413	0.079002	0.077726	0.28667	0.42562	0.27146	0.15974	0.065276	0.093027	0.069259	0.43977	0.19154	0.21985	0.23069	-3.0458	-3.6333	-3.8854	-3.5375	-3.9062	-3.8625	-3.5333	-4.1229	-3.7687	-3.6354	-4	-3.6125	-3.8646	-3.9	-3.4479	-4.1312	429.009	229.785	199.601	192.530	237.912	376.024	422.221	135.506	167.289	394.556	388.279	384.440	491.307	479.722	261.160	472.307	0.00064968	0.00027833	8.0919e-05	1162.2	2.9708e-06	2.6278e-06	1223.2	246.8	5.8624e-06	4.3052e-06	304.65	85.631	67.395	19.515	4.1663e-06	27.414	0.00042785	0.00039402	0.00010198	1152.6	4.255e-06	4.0839e-06	1213.9	245.97	4.1558e-06	3.9789e-06	306.32	86.174	67.485	19.942	4.1426e-06	28.174	319.571	212.226	188.880	145.110	287.254	292.446	145.097	152.539	298.399	298.630	151.909	158.765	158.994	165.900	272.729	165.005	-8191	255	
763.618	1	1	0	0	0.059154	0.060998	0.11695	0.099203	0.019996	0.20497	0.29567	0.1649	0.11792	0.18705	0.12	0.13421	0.15839	0.053677	0.20332	0.25892	-3.3229	-3.5958	-4	-3.4792	-3.6667	-3.7896	-3.6021	-4.0062	-3.7438	-3.5417	-3.9979	-3.5979	-3.9417	-3.8979	-3.5563	-4.0458	343.063	168.224	457.948	250.315	309.139	421.854	389.810	479.409	376.404	301.708	469.863	395.565	406.226	331.544	405.936	359.134	0.00060986	0.00011702	0.000127	1159.1	3.4547e-06	3.1265e-06	1220.1	247.23	5.8966e-06	4.7741e-06	303.47	85.921	67.252	19.49	3.2538e-06	27.492	0.00041153	0.00037102	0.00010106	1150.7	4.2422e-06	4.1747e-06	1211.9	245.61	4.1052e-06	4.275e-06	305.74	86.12	67.379	19.946	4.181e-06	28.219	323.833	247.516	225.695	145.210	266.504	269.235	145.083	152.505	328.903	304.404	152.156	158.649	159.072	166.036	284.666	165.251	-8191	255	
763.714	1	1	0	0	0.33776	0.13429	0.079371	0.13392	0.19395	0.15724	0.15264	0.19232	0.10852	0.30262	0.17185	0.018632	0.078058	0.18292	0.13394	0.071637	-3.4708	-3.4729	-3.9042	-3.5667	-3.6458	-3.8542	-3.5917	-3.8875	-3.6333	-3.5771	-3.95	-3.7104	-3.7542	-3.925	-3.4875	-3.8917	293.401	319.554	265.980	456.796	483.470	160.205	406.802	199.693	430.035	338.465	378.837	462.056	159.627	376.055	479.627	332.662	0.0006545	0.00035955	6.1051e-05	1164.5	2.7219e-06	2.1268e-06	1223	245.79	6.8191e-06	2.9228e-06	306.2	86.293	67.426	19.59	6.1919e-06	27.584	0.00041127	0.0003777	9.8766e-05	1151.5	4.0762e-06	4.0211e-06	1214.4	245.26	4.1281e-06	4.3863e-06	306.69	86.174	67.485	19.971	3.9521e-06	28.23	326.270	209.924	236.839	145.077	268.502	288.424	145.174	152.603	321.897	265.153	152.158	158.557	158.640	165.644	284.301	165.048	-8191	255	
763.835	1	1	0	0	0.05782	0.039676	0.17703	0.086639	0.049829	0.14377	0.39471	0.15977	0.1562	0.1282	0.17195	0.27965	0.033514	0.055216	0.1077	0.19565	-3.3875	-3.4479	-3.975	-3.6437	-3.65	-3.8979	-3.6917	-3.8792	-3.8104	-3.4708	-4.125	-3.775	-3.4667	-3.8958	-3.4625	-3.9771	392.678	458.192	476.913	208.792	485.016	207.044	437.175	418.638	467.030	424.760	390.230	447.752	250.822	229.685	361.510	198.126	0.00064977	0.00024187	0.00010049	1160.9	3.2162e-06	2.6457e-06	1226.9	246.62	6.1348e-06	4.6847e-06	306.04	85.48	67.808	19.565	3.1132e-06	27.642	0.00040436	0.00038206	0.00010526	1151.4	4.0925e-06	3.7834e-06	1214.3	245.38	3.9342e-06	4.2676e-06	305.86	86.036	67.641	19.968	4.1615e-06	28.198	323.100	210.707	226.714	145.263	274.887	320.956	145.111	152.778	315.442	308.025	152.042	158.743	158.920	165.718	261.064	165.019	-8191	255	
763.929	1	1	0	0	0.20194	0.10986	0.056565	0.36735	0.082064	0.16694	0.21199	0.099224	0.091758	0.23107	0.1869	0.072184	0.046451	0.089785	0.10637	0.25375	-3.5729	-3.5021	-3.9917	-3.6021	-3.4417	-4.0458	-3.6979	-3.7146	-3.9125	-3.3271	-3.9083	-3.7021	-3.6083	-4.0437	-3.4792	-3.8167	157.263	143.913	490.438	135.796	383.366	184.155	153.764	348.570	158.457	249.783	256.865	187.340	198.486	199.326	260.978	235.265	0.00061465	0.00033989	7.045e-05	1164.5	4.1077e-06	2.8239e-06	1223.2	245.74	6.6815e-06	2.553e-06	304.81	85.398	67.191	19.584	3.8412e-06	27.779	0.000409	0.00038169	0.00010239	1152.7	3.9909e-06	3.7858e-06	1210.9	245.11	4.0045e-06	3.9893e-06	306.02	85.982	67.461	19.951	3.9182e-06	28.163	321.622	228.116	239.719	145.104	304.097	262.272	145.144	152.577	305.793	278.656	152.091	158.667	158.911	165.735	301.842	165.023	-8191	255	
764.025	1	1	0	0	0.1325	0.22345	0.086208	0.15454	0.19271	0.15992	0.23867	0.17057	0.0545	0.13873	0.11437	0.16886	0.30136	0.13414	0.22877	0.13389	-3.6	-3.3688	-3.8937	-3.7042	-3.6958	-3.9146	-3.8146	-3.725	-3.8375	-3.5208	-3.8812	-3.9458	-3.4229	-4.2292	-3.775	-3.7021	410.217	306.412	251.412	486.996	487.521	246.469	406.522	410.651	241.690	490.970	336.955	174.047	136.152	427.242	421.449	452.088	0.00063101	0.00027545	7.6642e-05	1154.6	2.9654e-06	3.2581e-06	1216.1	246.1	6.3556e-06	2.2876e-06	307.44	85.509	67.705	19.486	3.8147e-06	27.482	0.00038948	0.00037598	9.9191e-05	1148.7	3.9596e-06	3.9449e-06	1210	244.84	3.8783e-06	4.0107e-06	306.26	85.927	67.57	19.93	3.8493e-06	28.087	322.279	212.765	230.080	145.363	287.879	281.481	145.178	152.441	318.318	311.633	152.041	158.542	159.074	166.110	305.128	164.832	-8191	255	
764.122	1	1	0	0	0.12344	0.10904	0.093536	0.046208	0.23781	0.2213	0.24608	0.20462	0.30467	0.18063	0.078004	0.22372	0.38927	0.071784	0.17026	0.33062	-3.5687	-3.425	-4.0125	-3.7833	-3.4479	-4.05	-3.8354	-3.5958	-3.9271	-3.3771	-3.9042	-3.9083	-3.6125	-3.9833	-3.5938	-3.6813	341.625	212.226	438.023	185.029	333.524	238.277	294.662	447.396	392.039	375.383	456.216	347.480	153.162	427.428	419.118	414.840	0.00062306	0.00042925	0.00011435	1159.8	3.3828e-06	3.0484e-06	1220.6	245.02	6.3881e-06	4.0448e-06	303.67	86.189	67.237	19.576	6.0422e-06	27.551	0.00039226	0.0003763	0.00010113	1146.9	4.1337e-06	3.8467e-06	1210	244.55	3.9395e-06	4.0774e-06	305.86	86.088	67.351	19.915	3.7354e-06	28.192	320.289	235.105	235.980	145.279	260.712	258.080	145.354	152.736	318.256	299.208	152.174	158.358	158.953	165.854	311.194	164.664	-8191	255	
764.218	1	1	0	0	0.097522	0.14828	0.15402	0.18717	0.10084	0.12236	0.10596	0.060839	0.10252	0.090992	0.24608	0.10684	0.15327	0.096828	0.12902	0.15416	-3.6979	-3.3375	-3.6042	-4.0104	-3.5667	-3.9333	-3.8354	-3.5	-4.0188	-3.5042	-3.7958	-4.0229	-3.45	-3.6833	-3.6312	-3.5833	448.841	260.233	284.826	408.443	330.846	297.737	301.371	274.803	398.042	183.049	474.726	145.248	397.256	228.606	403.460	208.840	0.00061585	0.00027122	0.0001113	1158.2	2.6513e-06	3.0688e-06	1218	244.74	4.741e-06	3.1111e-06	304.81	85.077	67.541	19.546	4.1427e-06	27.483	0.00038138	0.00036822	9.8796e-05	1147.4	4.1691e-06	3.7858e-06	1207.1	244.43	3.914e-06	3.982e-06	305.77	85.882	67.302	19.956	3.8304e-06	28.118	317.847	228.702	197.722	145.134	291.022	282.741	144.955	152.742	311.238	273.727	151.825	158.437	159.117	165.764	293.544	164.969	-8191	255	
764.314	1	1	0	0	0.037752	0.17779	0.20145	0.22561	0.074433	0.12477	0.1403	0.16963	0.16051	0.17399	0.068323	0.086109	0.069336	0.069191	0.12602	0.10236	-3.5146	-3.5396	-3.6813	-4.0958	-3.65	-3.9	-3.8917	-3.4875	-3.8542	-3.7313	-3.5875	-4.0646	-3.7083	-3.9313	-3.7458	-3.4979	252.484	250.553	334.121	471.458	159.563	449.629	438.262	435.879	297.788	453.958	440.848	188.521	355.382	251.223	274.365	372.052	0.00064317	0.00032255	3.9508e-05	1163.3	3.5358e-06	2.4114e-06	1218	245.01	7.1727e-06	3.5604e-06	305.64	85.678	67.631	19.66	3.9562e-06	27.649	0.00039841	0.00035428	9.825e-05	1150.9	3.9538e-06	3.8431e-06	1208	244.45	3.8644e-06	3.9814e-06	305.86	86.05	67.352	20.035	3.7115e-06	28.202	323.527	227.458	193.154	145.577	266.489	304.359	145.102	152.559	298.303	246.615	152.127	158.882	158.986	165.878	290.507	165.208	-8191	255	
764.410	1	1	0	0	0.25468	0.083295	0.10821	0.11189	0.19841	0.03253	0.18641	0.08374	0.11703	0.18826	0.22307	0.10569	0.17859	0.12954	0.17201	0.16699	-3.7354	-3.6292	-3.6063	-4.0625	-3.4479	-3.8187	-4.0875	-3.5104	-3.8292	-3.7604	-3.575	-4.2354	-3.5646	-3.8375	-3.9333	-3.6021	212.096	411.757	228.523	182.553	237.307	426.198	174.925	430.190	412.514	340.185	255.505	151.923	216.360	396.405	153.336	412.597	0.00064683	0.00028374	8.3763e-05	1164.8	2.9791e-06	1.7727e-06	1219.6	245.02	5.228e-06	2.6379e-06	303.89	85.671	67.619	19.636	3.5232e-06	27.531	0.00038935	0.0003721	9.8568e-05	1150.9	3.8685e-06	3.7907e-06	1208.5	244.74	3.8644e-06	4.034e-06	305.47	86.008	67.42	19.972	3.8121e-06	28.162	324.204	217.537	210.486	145.320	270.443	289.683	145.080	152.891	306.853	273.560	152.173	158.771	159.183	165.464	305.638	165.359	-8191	255	
764.506	1	1	0	0	0.1321	0.35373	0.21919	0.071615	0.26811	0.16755	0.36048	0.19521	0.019848	0.1768	0.16225	0.20278	0.098455	0.094667	0.21454	0.33749	-3.4833	-3.8625	-3.6083	-3.9479	-3.4437	-3.7292	-4.025	-3.5292	-3.8	-3.8937	-3.7104	-4.025	-3.6125	-3.7104	-3.9854	-3.4875	339.060	481.922	471.556	445.888	162.900	467.707	338.317	429.441	409.653	295.281	153.457	259.944	313.221	310.592	375.878	346.001	0.00060539	0.00024855	0.00016389	1157.3	2.5559e-06	2.9742e-06	1218.9	246.15	6.1078e-06	2.2242e-06	303.69	86.142	66.933	19.522	3.6859e-06	27.697	0.00038855	0.0003357	0.0001001	1147.6	4.147e-06	4.0138e-06	1208.8	245.16	3.8447e-06	3.7942e-06	305.18	86.264	67.248	19.946	3.5582e-06	28.225	320.683	212.111	231.340	145.321	271.407	266.822	145.115	152.698	319.818	258.461	151.794	159.008	159.052	165.602	289.474	165.132	-8191	255	
764.627	1	1	0	0	0.049861	0.1224	0.12817	0.25493	0.20324	0.01376	0.11562	0.31789	0.12389	0.1453	0.074275	0.19535	0.026077	0.32303	0.2211	0.10094	-3.5521	-3.8542	-3.575	-3.8812	-3.6375	-3.6771	-4.1687	-3.6354	-3.6625	-3.8604	-3.5146	-3.9771	-3.7458	-3.5792	-4.0021	-3.575	440.655	477.320	366.309	152.195	376.653	300.545	491.605	468.433	145.540	278.279	382.524	145.037	347.054	459.148	434.389	364.315	0.0006235	0.00016789	8.7851e-05	1148.5	6.0354e-06	2.7104e-06	1218	245.17	7.4342e-06	2.439e-06	304.12	85.845	67.188	19.539	4.7651e-06	27.761	0.00037728	0.00032417	9.8174e-05	1142.2	4.0414e-06	3.681e-06	1207.6	244.82	4.0738e-06	3.9349e-06	305.44	86.047	67.369	19.969	4.001e-06	28.223	318.126	232.167	224.938	145.317	294.217	318.821	144.984	152.320	310.778	274.669	151.815	159.354	159.179	166.036	288.269	165.307	-8191	255	
764.721	1	1	0	0	0.1247	0.13802	0.37483	0.18311	0.20852	0.16732	0.079004	0.20365	0.11423	0.10022	0.094289	0.10081	0.17546	0.10839	0.13608	0.32804	-3.3688	-3.8708	-3.5271	-3.9708	-3.6896	-3.5458	-4.1042	-3.625	-3.925	-3.8937	-3.4417	-3.8854	-3.7854	-3.5729	-3.95	-3.4875	331.411	386.109	239.284	222.725	386.617	388.216	419.176	138.418	400.213	385.274	443.797	250.242	213.035	195.256	226.505	170.171	0.00063377	0.0003328	0.0001129	1158.1	3.7332e-06	3.5626e-06	1220.9	245.78	5.5797e-06	2.9949e-06	304.25	85.693	67.332	19.638	5.7897e-06	27.592	0.00039354	0.00035535	9.7233e-05	1146.6	3.811e-06	4.0662e-06	1209.3	244.77	3.8746e-06	3.7863e-06	306.15	86.051	67.407	20.014	3.6804e-06	28.182	319.651	203.451	210.851	145.157	271.444	302.918	145.206	152.930	317.658	277.857	151.939	158.496	158.813	165.780	293.056	165.682	-8191	255	
764.819	1	1	0	0	0.14071	0.14778	0.1999	0.19665	0.24952	0.1043	0.20118	0.1539	0.17695	0.12198	0.17725	0.19465	0.22116	0.10921	0.090161	0.10827	-3.3333	-3.8688	-3.3771	-3.8792	-3.7521	-3.5875	-4.1917	-3.7146	-3.675	-3.9708	-3.4875	-3.8792	-3.9729	-3.4542	-3.8229	-3.5187	361.652	156.870	161.052	425.007	172.677	342.894	389.878	370.452	274.580	200.831	383.915	486.414	348.323	487.858	316.449	222.030	0.00059903	0.0002393	0.00011848	1161.6	3.8204e-06	3.1126e-06	1221.3	245.73	4.8139e-06	4.0885e-06	304.96	85.779	67.6	19.57	5.3932e-06	27.612	0.00038541	0.00034367	9.9813e-05	1150	4.0426e-06	4.0826e-06	1211.2	244.96	4.094e-06	3.9649e-06	305.65	86.156	67.443	20.004	3.8554e-06	28.267	322.322	244.992	228.560	145.416	279.574	260.587	145.332	152.432	290.930	264.663	152.084	158.659	158.955	165.498	304.500	165.134	-8191	255	
764.914	1	1	0	0	0.032945	0.11241	0.10808	0.029519	0.13505	0.075765	0.41347	0.15721	0.25518	0.20242	0.17832	0.12442	0.054416	0.10322	0.28047	0.15671	-3.2875	-3.9083	-3.6208	-3.7729	-3.7479	-3.5167	-4.0125	-3.7042	-3.7	-3.9333	-3.6146	-3.8875	-3.9292	-3.4375	-3.8438	-3.8208	453.976	372.411	149.910	434.616	164.621	308.585	443.975	380.285	255.330	153.943	160.853	330.012	352.886	337.705	347.531	342.541	0.0006246	0.00039277	7.1011e-05	1157.8	4.2772e-06	2.6503e-06	1218	246	4.8487e-06	3.281e-06	305.6	85.88	67.637	19.66	3.2608e-06	27.555	0.00039863	0.00037016	0.00010514	1148.8	3.9364e-06	4.029e-06	1210.1	245.38	3.9918e-06	3.8499e-06	305.83	86.187	67.519	19.94	3.7471e-06	28.223	323.716	207.347	253.967	145.292	270.353	283.526	145.064	152.581	311.124	265.385	152.007	158.914	159.261	165.749	299.944	165.023	-8191	255	
765.010	1	1	0	0	0.19136	0.077719	0.10416	0.19099	0.10018	0.13124	0.038353	0.057321	0.023443	0.10069	0.10202	0.15662	0.13548	0.098747	0.02485	0.17582	-3.2	-3.9854	-3.4458	-3.5938	-3.8042	-3.5083	-3.9958	-3.8583	-3.425	-3.9021	-3.4896	-3.8167	-4.0042	-3.5083	-3.7687	-3.8042	167.601	272.892	179.893	150.512	472.173	240.629	196.836	458.910	255.256	225.303	338.396	224.075	441.238	268.643	278.481	372.786	0.000562	0.00042515	8.386e-05	1154.6	2.347e-06	2.913e-06	1223.3	246.6	7.2887e-06	4.7713e-06	303.53	85.69	67.562	19.602	3.8643e-06	27.596	0.00038772	0.00034668	9.9054e-05	1146.3	3.9642e-06	3.8602e-06	1210.5	245.04	3.955e-06	3.8841e-06	305.75	86.134	67.464	20.043	3.7276e-06	28.236	323.329	211.315	205.367	145.216	287.684	272.486	145.148	152.482	301.282	280.702	152.108	158.370	158.799	165.815	283.925	165.026	-8191	255	
#DATA ENDS
