BOXY.EXE: ISS Imagent and Oximeter Data Acquisition Program Version 0.80
Ascii Record File

#ACQ INFORMATION
2  Detector Channels 
16  External MUX Channels 
1  Auxiliary Channels 
5000  Waveform (CCF) Frequency (Hz)
1  Waveforms Skipped 
30  Waveforms Averaged 
1  Cycles Averaged 
16  Acquisitions per Waveform 
10.0806  Updata Rate (Hz) 

#FILE INFORMATION
TRUE -- External MUX Channel results are PARSED.
FALSE -- AC DC and Phase are NOT grouped.
TRUE -- Companion Program Settings File CREATED.
FALSE -- AC data not excluded
FALSE -- DC data not excluded
FALSE -- Phase data not excluded
FALSE -- Auxillary Chn. data not excluded
Tab delimiters

#CALIBRATION STATE
TRUE -- Waveform Calibration Values APPLIED.


#AUX CALIBRATION VALUES
Val Type	aux-1	

Term	1.0000e+00	
Factor	0.0000e+00	


#WF CALIBRATION VALUES
A = Detector Channel
Val Type	A-AC1	A-AC2	A-AC3	A-AC4	A-AC5	A-AC6	A-AC7	A-AC8	A-AC9	A-AC10	A-AC11	A-AC12	A-AC13	A-AC14	A-AC15	A-AC16	A-DC1	A-DC2	A-DC3	A-DC4	A-DC5	A-DC6	A-DC7	A-DC8	A-DC9	A-DC10	A-DC11	A-DC12	A-DC13	A-DC14	A-DC15	A-DC16	A-Ph1	A-Ph2	A-Ph3	A-Ph4	A-Ph5	A-Ph6	A-Ph7	A-Ph8	A-Ph9	A-Ph10	A-Ph11	A-Ph12	A-Ph13	A-Ph14	A-Ph15	A-Ph16	

Term	0.00000e+00	0.00000e+00	0.00000e+00	0.00000e+00	0.00000e+00	0.00000e+00	0.00000e+00	0.00000e+00	0.00000e+00	0.00000e+00	0.00000e+00	0.00000e+00	0.00000e+00	0.00000e+00	0.00000e+00	0.00000e+00	0.00000e+00	0.00000e+00	0.00000e+00	0.00000e+00	0.00000e+00	0.00000e+00	0.00000e+00	0.00000e+00	0.00000e+00	0.00000e+00	0.00000e+00	0.00000e+00	0.00000e+00	0.00000e+00	0.00000e+00	0.00000e+00	0.00000e+00	0.00000e+00	0.00000e+00	0.00000e+00	0.00000e+00	0.00000e+00	0.00000e+00	0.00000e+00	0.00000e+00	0.00000e+00	0.00000e+00	0.00000e+00	0.00000e+00	0.00000e+00	0.00000e+00	0.00000e+00	
Factor	1.00000e+00	1.00000e+00	1.00000e+00	1.00000e+00	1.00000e+00	1.00000e+00	1.00000e+00	1.00000e+00	1.00000e+00	1.00000e+00	1.00000e+00	1.00000e+00	1.00000e+00	1.00000e+00	1.00000e+00	1.00000e+00	1.00000e+00	1.00000e+00	1.00000e+00	1.00000e+00	1.00000e+00	1.00000e+00	1.00000e+00	1.00000e+00	1.00000e+00	1.00000e+00	1.00000e+00	1.00000e+00	1.00000e+00	1.00000e+00	1.00000e+00	1.00000e+00	X	X	X	X	X	X	X	X	X	X	X	X	X	X	X	X	

B = Detector Channel
Val Type	B-AC1	B-AC2	B-AC3	B-AC4	B-AC5	B-AC6	B-AC7	B-AC8	B-AC9	B-AC10	B-AC11	B-AC12	B-AC13	B-AC14	B-AC15	B-AC16	B-DC1	B-DC2	B-DC3	B-DC4	B-DC5	B-DC6	B-DC7	B-DC8	B-DC9	B-DC10	B-DC11	B-DC12	B-DC13	B-DC14	B-DC15	B-DC16	B-Ph1	B-Ph2	B-Ph3	B-Ph4	B-Ph5	B-Ph6	B-Ph7	B-Ph8	B-Ph9	B-Ph10	B-Ph11	B-Ph12	B-Ph13	B-Ph14	B-Ph15	B-Ph16	

Term	0.00000e+00	0.00000e+00	0.00000e+00	0.00000e+00	0.00000e+00	0.00000e+00	0.00000e+00	0.00000e+00	0.00000e+00	0.00000e+00	0.00000e+00	0.00000e+00	0.00000e+00	0.00000e+00	0.00000e+00	0.00000e+00	0.00000e+00	0.00000e+00	0.00000e+00	0.00000e+00	0.00000e+00	0.00000e+00	0.00000e+00	0.00000e+00	0.00000e+00	0.00000e+00	0.00000e+00	0.00000e+00	0.00000e+00	0.00000e+00	0.00000e+00	0.00000e+00	-1.16366e+02	-1.34525e+02	-1.24640e+02	-1.81440e+02	-6.20949e+01	-6.64202e+01	-1.56427e+02	-1.62015e+02	-6.69733e+01	-6.15982e+01	-1.71980e+02	-1.69516e+02	-1.84939e+02	-1.76465e+02	-6.54987e+01	-1.48787e+02	
Factor	1.61643e-05	1.38122e-04	4.24785e-05	1.47321e-01	1.18619e-06	1.52504e-06	1.65925e-01	4.94256e-02	1.07980e-06	1.67298e-06	8.54847e-02	2.70576e-02	2.30815e-02	8.67598e-03	1.25400e-06	1.23377e-02	1.12576e-05	2.02003e-05	5.73018e-06	7.73108e-02	2.02464e-07	2.30455e-07	8.19583e-02	2.61172e-02	2.05112e-07	2.28814e-07	4.35796e-02	1.39337e-02	1.23178e-02	4.61571e-03	2.14390e-07	6.36437e-03	X	X	X	X	X	X	X	X	X	X	X	X	X	X	X	X	



#DISTANCE SETTINGS
A = Detector Channel
A-1	A-2	A-3	A-4	A-5	A-6	A-7	A-8	A-9	A-10	A-11	A-12	A-13	A-14	A-15	A-16	

2.5000e+00	3.0000e+00	2.5000e+00	3.0000e+00	2.0000e+00	3.0000e+00	1.5000e+00	3.0000e+00	3.0000e+00	3.0000e+00	3.0000e+00	3.0000e+00	3.0000e+00	3.0000e+00	1.5000e+00	3.0000e+00	

B = Detector Channel
B-1	B-2	B-3	B-4	B-5	B-6	B-7	B-8	B-9	B-10	B-11	B-12	B-13	B-14	B-15	B-16	

1.0000e+01	1.0000e+01	1.0000e+01	1.4400e+00	1.0000e+01	1.0000e+01	1.5100e+00	1.9400e+00	1.0000e+01	1.0000e+01	1.9900e+00	2.4900e+00	2.4100e+00	2.9000e+00	1.0000e+01	2.9800e+00	




#DATA BEGINS
time	group	step	mark	flag	A-AC1	A-AC2	A-AC3	A-AC4	A-AC5	A-AC6	A-AC7	A-AC8	A-AC9	A-AC10	A-AC11	A-AC12	A-AC13	A-AC14	A-AC15	A-AC16	A-DC1	A-DC2	A-DC3	A-DC4	A-DC5	A-DC6	A-DC7	A-DC8	A-DC9	A-DC10	A-DC11	A-DC12	A-DC13	A-DC14	A-DC15	A-DC16	A-Ph1	A-Ph2	A-Ph3	A-Ph4	A-Ph5	A-Ph6	A-Ph7	A-Ph8	A-Ph9	A-Ph10	A-Ph11	A-Ph12	A-Ph13	A-Ph14	A-Ph15	A-Ph16	B-AC1	B-AC2	B-AC3	B-AC4	B-AC5	B-AC6	B-AC7	B-AC8	B-AC9	B-AC10	B-AC11	B-AC12	B-AC13	B-AC14	B-AC15	B-AC16	B-DC1	B-DC2	B-DC3	B-DC4	B-DC5	B-DC6	B-DC7	B-DC8	B-DC9	B-DC10	B-DC11	B-DC12	B-DC13	B-DC14	B-DC15	B-DC16	B-Ph1	B-Ph2	B-Ph3	B-Ph4	B-Ph5	B-Ph6	B-Ph7	B-Ph8	B-Ph9	B-Ph10	B-Ph11	B-Ph12	B-Ph13	B-Ph14	B-Ph15	B-Ph16	aux-1	digaux	

28288.113	1	1	0	256	0.32773	0.14169	0.17581	0.2096	0.10566	0.066971	0.022514	0.23378	0.10869	0.056989	0.20408	0.23713	0.024899	0.21932	0.03493	0.21008	-0.1125	-1.0187	-0.0625	-1.1083	-0.8625	-0.28333	-1.1812	-0.50625	-0.58958	-1.0688	-0.33542	-0.80208	-0.83542	-0.10833	-1.0312	-0.45	89.066	167.021	27.362	-100.146	-13.644	-57.075	165.121	215.431	-105.144	36.446	52.977	231.650	17.933	224.374	148.633	-22.926	0.00011279	0.00018083	0.00011866	1053.3	2.5501e-06	3.6677e-06	1155.5	219.58	1.9853e-06	2.6833e-06	279.37	77.698	59.512	17.755	2.8187e-06	24.945	0.000458	0.00066434	0.00019301	1035.5	7.2529e-06	7.6886e-06	1134.5	217.1	7.1315e-06	7.7549e-06	277.49	78.129	60.21	17.85	7.2281e-06	25.101	215.357	-64.542	-30.959	-109.166	68.316	31.976	-109.250	-102.031	43.027	41.582	-102.387	-95.720	-95.298	-87.596	61.110	-88.384	-8191	255	
28288.186	1	1	0	0	0.32544	0.2295	0.15872	0.38649	0.26872	0.35152	0.32758	0.34146	0.40187	0.19535	0.2425	0.20121	0.09381	0.13634	0.29188	0.11486	0.016667	-1.0604	-0.00625	-0.80625	-0.93958	-0.0375	-1.0396	-0.64792	-0.41667	-1.0688	-0.32083	-0.6875	-0.90833	-0.17083	-1.1313	-0.74792	-94.380	-66.203	93.087	219.891	-78.014	149.340	-119.101	204.995	-109.775	83.322	180.793	-53.464	205.665	12.436	79.194	-34.493	8.7148e-05	0.00023703	0.00013556	1054.9	1.7698e-06	3.3879e-06	1152.1	218.22	2.0729e-06	3.0193e-06	279.02	77.566	59.945	17.592	2.5197e-06	24.741	0.00045938	0.00071509	0.00018969	1035.8	7.2739e-06	7.9862e-06	1135.1	216.33	7.3768e-06	7.5728e-06	277.45	77.975	60.272	17.76	7.4157e-06	25.147	224.675	-43.383	-20.925	-109.209	-16.539	50.645	-108.814	-102.281	10.469	13.586	-102.057	-95.743	-95.279	-87.722	21.527	-88.423	-8191	255	
28288.307	1	1	0	0	0.12727	0.18782	0.25666	0.15534	0.24011	0.14381	0.05295	0.037785	0.096359	0.20632	0.031696	0.2338	0.19734	0.14552	0.18816	0.25209	0.21458	-1.125	-0.4125	-0.87917	-0.91458	-0.39375	-1.0771	-0.65833	-0.23542	-1.0292	-0.46458	-0.39792	-0.94167	-0.16042	-0.91875	-0.68333	76.634	-86.107	79.019	172.176	101.507	-111.537	-96.701	137.255	-106.060	57.081	44.508	97.902	212.423	-16.279	73.488	28.471	0.00012944	0.00032286	8.1237e-05	1060.7	6.7644e-07	3.6883e-06	1149.8	218.53	2.612e-06	1.676e-06	279.67	77.017	59.757	17.703	3.622e-06	24.704	0.00045516	0.00065154	0.00019247	1036	7.3541e-06	7.6506e-06	1134	216.42	7.3503e-06	7.4574e-06	277.87	77.802	59.999	17.787	7.1298e-06	25.136	218.809	-45.860	-10.696	-109.371	69.262	61.533	-109.117	-101.931	-3.014	63.501	-102.227	-95.767	-95.741	-87.878	38.451	-88.602	-8191	255	
28288.400	1	1	0	0	0.11855	0.27966	0.28946	0.13782	0.1173	0.12786	0.27644	0.20053	0.029378	0.22254	0.090929	0.26766	0.1105	0.1807	0.13029	0.19125	0.37292	-0.92292	-0.32708	-0.53125	-0.89167	-0.15208	-0.96875	-1.0229	-0.14792	-0.93958	-0.52917	-0.36458	-1.2375	-0.18333	-0.70833	-0.975	196.587	8.810	47.165	-107.341	184.342	176.372	-96.940	-116.093	205.004	123.079	94.467	233.424	-22.203	-52.095	26.598	150.143	0.00012104	0.00033963	5.6954e-05	1058	1.7918e-06	1.8239e-06	1149.1	217.22	6.8978e-07	1.4128e-06	279.11	77.097	60.043	17.652	7.8258e-07	24.507	0.00046335	0.0006693	0.00018928	1036	7.1879e-06	7.5637e-06	1132.7	216.18	7.1969e-06	7.4898e-06	276.86	77.871	60.287	17.752	7.0298e-06	24.974	218.047	-50.430	-8.093	-109.181	7.243	29.207	-109.328	-101.973	-68.793	2.610	-102.116	-95.586	-95.256	-87.670	20.822	-88.206	-8191	255	
28288.498	1	1	0	0	0.14629	0.1632	0.096962	0.25897	0.34565	0.092036	0.39866	0.362	0.38061	0.26471	0.169	0.14055	0.1065	0.16761	0.14454	0.06026	0.1	-1.0042	-0.59792	-0.55833	-1.0146	-0.1875	-1.0417	-0.83333	-0.091667	-0.81667	-0.56458	-0.22917	-1.2646	-0.26458	-0.42292	-1.1021	-95.555	-91.947	168.268	198.689	3.454	235.812	212.646	191.189	150.125	157.054	209.343	86.585	9.204	215.608	228.673	197.635	0.00013996	0.0003449	0.00013093	1058.2	1.0746e-06	2.4957e-06	1152.5	217.35	2.757e-06	2.1707e-06	278.3	77.262	59.471	17.487	3.7629e-06	24.726	0.00048785	0.00065857	0.00019404	1036.6	6.9783e-06	7.7702e-06	1135.3	216.21	7.2964e-06	7.8536e-06	277.21	77.857	60.081	17.716	7.25e-06	25.133	223.148	-36.549	-8.693	-109.272	-20.932	2.865	-109.298	-102.185	-6.025	44.132	-102.321	-95.607	-95.305	-88.290	27.624	-88.482	-8191	255	
28288.617	1	1	0	0	0.39813	0.26337	0.26889	0.36047	0.12564	0.1255	0.075703	0.31499	0.14635	0.28285	0.068583	0.20208	0.27858	0.24979	0.039337	0.20192	0.24583	-0.76875	-0.83542	-0.2875	-1.1375	-0.37917	-0.89792	-1.1583	-0.16458	-0.68958	-0.73125	-0.24583	-1.1396	-0.35833	-0.41875	-0.97917	136.201	11.994	154.900	178.108	-82.164	155.008	203.525	-102.427	52.764	-71.057	216.617	209.434	-112.627	192.747	-69.926	-106.073	0.00012481	0.00019128	0.00012755	1055.6	2.3378e-06	1.4218e-06	1152	218.42	1.0645e-06	9.6147e-07	278.64	77.177	59.847	17.548	2.6426e-06	24.93	0.00047341	0.00067911	0.00019764	1035	7.1782e-06	7.7106e-06	1135.9	216.39	7.2469e-06	7.3063e-06	277.66	77.98	60.193	17.785	7.1897e-06	25.195	210.581	-37.699	-34.458	-109.205	-5.882	47.101	-109.062	-102.098	-28.847	53.816	-102.357	-95.781	-95.271	-87.767	31.713	-88.175	-8191	255	
28288.715	1	1	0	0	0.27953	0.15874	0.18891	0.27982	0.2251	0.24854	0.02523	0.2202	0.11138	0.37555	0.24143	0.21394	0.22557	0.1348	0.13396	0.19652	0.18125	-0.78125	-0.70417	-0.066667	-1.0771	-0.44167	-0.43542	-1.3854	-0.2	-0.875	-1.0542	-0.085417	-1.0458	-0.6	-0.35	-1.1833	137.440	145.351	-114.467	204.377	90.855	64.248	186.412	127.519	-19.561	-51.581	209.278	149.324	177.996	-75.459	-3.590	199.851	9.1664e-05	0.00025543	2.3853e-05	1058.7	2.1095e-06	1.9948e-06	1152.4	218.49	1.6769e-06	3.0867e-06	279.32	77.154	59.836	17.589	1.4397e-06	24.83	0.00046438	0.00066261	0.00018873	1037.2	7.1191e-06	7.5498e-06	1135.4	216.23	7.2409e-06	7.8035e-06	277.16	77.96	60.36	17.761	7.2459e-06	25.146	210.216	-1.517	9.929	-109.479	25.764	43.368	-109.050	-102.112	-72.868	27.688	-102.298	-95.294	-95.069	-87.838	50.405	-88.371	-8191	255	
28288.785	1	1	0	0	0.050005	0.21351	0.027218	0.13785	0.2241	0.094846	0.23315	0.13782	0.32188	0.064511	0.12728	0.17027	0.13729	0.087538	0.18126	0.064665	0.13125	-0.65417	-0.93958	-0.22083	-0.82917	-0.69167	-0.37292	-1.1979	-0.20833	-0.69167	-1.2313	-0.23333	-0.98542	-0.64167	-0.44375	-1.1375	230.313	127.810	-99.671	194.211	223.618	5.024	217.974	226.204	219.415	-119.949	127.895	118.213	-81.469	211.535	-16.152	-117.690	0.00011038	0.00033807	4.6722e-05	1058.4	3.2294e-06	2.4454e-06	1151.2	218.04	2.1739e-06	3.2564e-06	281.14	77.181	59.744	17.632	1.7146e-06	24.646	0.00045293	0.00065912	0.00018714	1038.6	7.0563e-06	7.4082e-06	1135.2	216.27	7.0118e-06	7.4789e-06	277.78	77.863	60.287	17.788	7.4139e-06	25.06	219.168	-14.246	-33.128	-109.242	22.230	7.464	-109.235	-102.078	-40.273	39.863	-102.701	-96.114	-95.298	-87.768	-17.705	-88.206	-8191	255	
28288.906	1	1	0	0	0.23793	0.11822	0.21506	0.24	0.42423	0.29548	0.23379	0.096061	0.081242	0.15021	0.18948	0.2479	0.1066	0.13784	0.027387	0.24147	-0.035417	-0.35208	-0.95208	-0.25417	-0.8125	-0.725	-0.25	-1.0521	-0.36667	-0.6625	-1.1063	-0.35833	-0.74792	-0.84583	-0.12083	-1.1625	165.935	-29.805	-83.302	-23.208	-22.564	64.236	176.793	-25.186	168.165	4.978	133.030	210.008	235.517	206.741	-32.362	-94.590	0.00013817	0.00017449	3.6639e-05	1056.8	8.6614e-07	4.3742e-06	1148.6	217.87	2.3057e-06	3.7289e-06	279.27	76.824	59.872	17.649	6.7105e-07	24.829	0.00046557	0.00065407	0.00018659	1035.9	6.9934e-06	7.7841e-06	1133.9	216.38	7.0503e-06	7.6162e-06	276.92	77.686	60.308	17.704	7.2209e-06	25.11	218.298	-44.568	-8.687	-109.373	28.218	60.382	-109.207	-102.302	2.247	46.294	-102.515	-95.858	-95.541	-88.061	-105.507	-88.263	-8191	255	
28289.002	1	1	0	0	0.16003	0.33183	0.12809	0.10014	0.11844	0.13294	0.37937	0.027886	0.093434	0.30697	0.36336	0.15324	0.16347	0.1913	0.13669	0.23555	-0.1875	-0.33125	-1.0417	-0.27708	-0.575	-0.9	-0.09375	-1.0208	-0.46875	-0.32292	-1.1771	-0.23542	-0.76667	-1.0312	-0.14167	-1.0146	-39.253	-75.297	-2.874	190.485	96.308	108.242	129.107	4.331	144.099	-51.609	164.785	202.024	163.473	204.920	-92.404	151.033	9.1238e-05	0.00013625	8.1022e-05	1050	2.9366e-06	1.4085e-06	1147.6	217.42	1.4264e-06	2.8866e-06	278.95	76.584	59.579	17.509	8.7787e-07	24.787	0.0004523	0.0006733	0.00018448	1033.7	7.1879e-06	7.1095e-06	1132.6	215.86	7.1571e-06	7.4698e-06	277.21	77.809	60.122	17.688	6.8909e-06	25.156	215.644	-34.842	-5.317	-109.338	-16.542	41.267	-109.004	-102.086	6.595	67.954	-102.173	-95.610	-95.358	-87.856	2.901	-87.914	-8191	255	
28289.098	1	1	0	0	0.2193	0.072357	0.13166	0.15152	0.24168	0.20914	0.34941	0.25028	0.034873	0.15794	0.12103	0.081921	0.034821	0.12155	0.19475	0.13418	-0.04375	-0.20833	-0.92083	-0.44375	-0.50208	-0.95625	-0.2375	-0.96667	-0.67917	-0.23125	-1.1562	-0.63125	-0.59583	-1.1688	-0.15833	-0.8	-27.002	50.766	-57.736	164.194	58.554	5.099	119.518	175.613	171.072	159.480	168.717	-94.598	211.645	41.255	-9.881	108.543	0.00010099	0.0003338	9.9174e-05	1053.5	1.9832e-07	6.1479e-07	1144.4	218.04	2.6756e-06	3.2326e-06	279.5	77.239	59.547	17.576	1.7252e-06	24.706	0.00044165	0.000681	0.00018442	1033.1	7.2448e-06	7.2017e-06	1129.1	216.03	6.7542e-06	7.6052e-06	276.94	77.939	60.031	17.738	6.7059e-06	25.04	222.708	-30.211	15.177	-109.502	192.688	-2.385	-109.150	-102.218	-6.001	-9.775	-102.052	-95.634	-95.538	-87.785	45.321	-88.465	-8191	255	
28289.219	1	1	0	0	0.07786	0.20308	0.13607	0.33052	0.18183	0.042759	0.20983	0.17675	0.12934	0.1294	0.19551	0.17833	0.19761	0.083406	0.029442	0.099884	-0.38333	-0.20833	-1.0812	-0.475	-0.3375	-1.0354	-0.29167	-0.87083	-0.90833	0.03125	-1.15	-0.61667	-0.5375	-1.0667	-0.19792	-0.81042	181.081	66.575	15.129	-102.907	161.355	197.860	114.347	199.557	56.179	32.954	84.453	8.217	203.670	42.056	-77.851	238.655	0.00011929	0.0002916	0.00012408	1051.9	1.2236e-06	2.1047e-06	1145.9	218.06	2.5323e-06	2.2253e-06	280.15	77.081	60.283	17.571	1.3004e-06	24.731	0.00043262	0.00064948	0.00017944	1032.1	6.8656e-06	7.5901e-06	1128.6	216.06	6.6132e-06	7.4765e-06	277.52	77.798	60.365	17.692	6.8176e-06	25.099	206.343	-28.356	-11.866	-109.497	13.088	49.679	-109.238	-102.034	6.168	59.442	-102.202	-95.343	-95.000	-87.692	41.677	-87.864	-8191	255	
28289.312	1	1	0	0	0.20082	0.20874	0.10995	0.31145	0.12361	0.24243	0.028314	0.14824	0.075068	0.25624	0.13922	0.115	0.21588	0.038199	0.19516	0.24651	-0.45208	-0.066667	-0.95208	-0.69792	-0.26667	-1.0229	-0.27083	-0.64792	-1.0583	-0.22917	-1.175	-0.63542	-0.31042	-0.94792	-0.35417	-0.78958	54.158	194.489	25.958	223.045	144.210	-99.925	-53.879	-18.264	-32.672	-91.870	149.291	-109.320	120.707	195.617	-34.635	-83.709	0.00012203	6.7276e-05	5.0884e-05	1053.7	1.6457e-06	3.9881e-06	1145.5	218.14	2.2568e-06	1.8801e-06	279.19	76.918	59.264	17.516	2.8526e-06	24.78	0.00042882	0.0006595	0.00018302	1032.6	6.8268e-06	7.1153e-06	1128.9	215.86	6.8614e-06	7.3692e-06	277.03	77.577	59.968	17.713	7.0208e-06	25.036	210.886	-44.325	-21.460	-109.546	10.322	10.206	-109.280	-101.803	1.166	11.657	-102.231	-95.868	-95.186	-87.881	14.519	-88.517	-8191	255	
28289.387	1	1	0	0	0.32745	0.30863	0.12673	0.26404	0.20183	0.19449	0.13159	0.21452	0.10077	0.18931	0.14734	0.046349	0.11437	0.28846	0.38786	0.22485	-0.78125	-0.0625	-0.94167	-0.86667	-0.23125	-0.96667	-0.46458	-0.60417	-1.0708	-0.21042	-0.96875	-0.76458	-0.054167	-1.0479	-0.32083	-0.54167	222.303	238.389	226.102	120.706	-119.031	182.546	93.372	192.368	185.894	204.522	-108.986	73.852	10.555	-12.540	-50.636	-52.136	0.00011288	0.00026154	7.4802e-05	1050.2	1.2635e-06	3.0892e-06	1145	217.36	8.9649e-07	1.5151e-06	279.42	76.76	59.58	17.484	2.6805e-06	24.551	0.00043405	0.00065142	0.00017992	1030.3	6.9538e-06	7.2353e-06	1127.7	215.78	6.7243e-06	7.5995e-06	276.83	77.642	60.007	17.713	6.9641e-06	24.947	211.426	-47.731	-43.709	-109.410	85.803	51.043	-109.518	-102.034	-36.405	-42.731	-102.197	-95.627	-94.826	-87.837	60.707	-88.095	-8191	255	
28289.482	1	1	0	0	0.23394	0.29554	0.09528	0.15014	0.097182	0.06496	0.091874	0.11333	0.15616	0.16449	0.19586	0.16711	0.1179	0.22451	0.2059	0.27413	-0.73333	-0.28125	-0.71667	-0.94375	-0.26667	-1.0354	-0.525	-0.48333	-1.0729	-0.19375	-0.80833	-1.0729	-0.22708	-0.84583	-0.54792	-0.40208	11.897	-67.214	-114.958	-115.638	175.095	211.258	32.131	192.609	-103.551	41.307	238.759	67.866	-73.446	-83.317	121.460	201.341	0.00010409	0.00020836	9.8752e-05	1051.9	5.7425e-07	3.8321e-06	1147.6	216.83	1.7654e-06	4.1433e-06	279.77	77.271	59.597	17.499	1.9694e-06	24.455	0.00042969	0.0006568	0.00018203	1030.9	6.7518e-06	7.0788e-06	1128.8	215.55	6.6841e-06	7.3721e-06	276.25	77.761	59.931	17.724	6.982e-06	24.904	223.515	-19.584	-39.412	-109.352	-68.750	19.308	-109.255	-102.128	-102.767	47.830	-102.093	-95.679	-95.225	-87.659	122.333	-88.082	-8191	255	
28289.602	1	1	0	0	0.094739	0.31021	0.26036	0.36156	0.11938	0.42524	0.14716	0.13657	0.2598	0.13424	0.3059	0.22589	0.17185	0.1773	0.03167	0.061326	-0.775	-0.091667	-0.65833	-1.0917	-0.16458	-1.0396	-0.79583	-0.32292	-1.0438	-0.2875	-0.55417	-1.1646	-0.12708	-0.94583	-0.5875	-0.17917	-17.371	52.194	94.925	143.160	-70.453	150.482	229.874	32.461	-99.745	103.779	-81.925	172.568	233.605	66.022	-90.799	-95.851	0.00011201	0.00020708	7.7916e-05	1047.8	1.5161e-06	3.0608e-06	1141.7	215.98	2.6277e-06	2.123e-06	278.1	77.172	59.306	17.499	2.3485e-06	24.469	0.00043675	0.00064818	0.00018013	1029.4	6.9496e-06	7.1273e-06	1125	215.36	6.6845e-06	7.0751e-06	276.18	77.624	59.816	17.646	6.9914e-06	24.937	204.718	-51.114	-23.186	-109.464	20.504	42.502	-109.403	-102.125	1.310	43.276	-102.102	-95.668	-95.241	-88.094	48.684	-88.337	-8191	255	
28289.697	1	1	0	0	0.088015	0.19571	0.16821	0.092979	0.088982	0.14846	0.16167	0.10278	0.29601	0.11716	0.17451	0.16795	0.069466	0.28125	0.23467	0.015477	-0.65625	-0.37917	-0.375	-1.2417	-0.24583	-0.98958	-1.0104	-0.28333	-0.98958	-0.43125	-0.55625	-1.0417	-0.15625	-0.9875	-0.89167	-0.16875	16.762	166.627	-77.722	195.826	94.176	-64.028	-101.165	-39.093	-7.852	-44.882	152.028	222.632	-35.384	149.150	73.192	24.248	0.00011036	0.00037852	3.3874e-05	1046.4	3.0053e-06	1.4923e-06	1146.1	215.1	1.8087e-06	3.1234e-06	277.74	76.312	59.476	17.513	1.5983e-06	24.664	0.00043853	0.00065121	0.00018196	1029.1	6.8956e-06	7.4111e-06	1126.5	214.92	6.417e-06	7.2872e-06	276.18	77.52	59.874	17.679	6.9154e-06	25.125	213.130	-54.061	-48.313	-109.342	17.144	27.101	-109.234	-102.104	3.819	46.922	-101.843	-95.814	-95.190	-87.544	18.677	-88.661	-8191	255	
28289.795	1	1	0	0	0.14605	0.0479	0.1179	0.22651	0.21309	0.3832	0.31452	0.2249	0.18394	0.047525	0.18574	0.23331	0.31708	0.0097225	0.17046	0.04521	-0.75625	-0.45625	-0.3375	-1.2062	-0.26875	-0.625	-1.15	-0.3	-0.76667	-0.675	-0.36667	-1.2104	-0.29583	-0.62708	-0.78542	-0.083333	153.609	-58.045	60.580	-86.312	-58.732	211.549	184.863	158.630	-119.216	69.400	216.301	97.870	143.118	78.804	52.784	58.058	0.00011457	0.00037437	0.00010149	1052.2	2.4509e-06	3.8196e-06	1141.1	216.49	1.5531e-07	3.8355e-06	278.68	76.728	59.276	17.461	2.7268e-06	24.66	0.00043994	0.00064005	0.00018544	1031.6	6.9576e-06	7.0745e-06	1125	215.11	6.7452e-06	7.3278e-06	275.81	77.474	59.922	17.692	6.8556e-06	25.018	224.397	-66.374	-34.065	-109.233	56.432	25.109	-109.084	-102.214	54.560	20.274	-102.203	-95.593	-95.241	-87.809	12.752	-87.799	-8191	255	
28289.891	1	1	0	0	0.30527	0.25173	0.14734	0.22578	0.14523	0.30411	0.37242	0.36959	0.12635	0.27563	0.053871	0.21793	0.15378	0.14703	0.15827	0.16087	-0.62292	-0.69792	-0.19583	-1.0396	-0.36667	-0.46458	-1.2333	-0.40625	-0.8375	-0.82917	-0.38333	-1.0771	-0.48333	-0.36458	-1.0688	-0.32917	-40.370	-51.646	126.838	133.075	-44.281	-19.816	191.994	210.314	103.223	131.579	114.779	180.100	193.227	167.174	-38.596	56.015	0.00011107	0.00039755	1.8935e-05	1049.3	1.0969e-06	2.3059e-06	1144	216.41	2.3125e-06	4.68e-06	278.21	77.021	59.145	17.61	3.9787e-06	24.533	0.00043476	0.00063328	0.00017865	1028.9	7.0993e-06	7.4048e-06	1124.6	214.98	6.7401e-06	6.9817e-06	276.25	77.595	59.762	17.724	6.9056e-06	24.945	224.612	-36.465	-34.707	-109.203	16.188	51.131	-109.353	-101.966	8.616	63.116	-102.018	-95.554	-94.998	-87.700	32.558	-88.006	-8191	255	
28290.012	1	1	0	0	0.17051	0.41727	0.13087	0.30663	0.26214	0.1944	0.21974	0.23666	0.17169	0.23432	0.11082	0.31925	0.063238	0.076619	0.25407	0.21582	-0.33125	-0.70208	-0.19792	-1.1854	-0.1875	-0.3625	-1.0583	-0.21667	-0.67292	-0.87917	-0.13333	-0.92708	-0.52083	-0.4125	-0.875	-0.13125	29.587	131.372	116.275	198.949	169.790	43.755	215.560	57.703	51.992	-71.969	-116.842	-35.210	-18.042	201.529	182.666	108.795	0.00012828	0.00023059	4.4344e-05	1050.3	3.8667e-07	1.002e-06	1141	217.03	1.4581e-06	2.6625e-06	276.7	76.896	59.391	17.619	5.9214e-07	24.566	0.00044343	0.0006236	0.00018158	1030.2	6.8699e-06	7.1047e-06	1125.2	215.19	6.7794e-06	7.252e-06	275.94	77.471	59.846	17.693	6.5385e-06	24.907	224.649	-51.515	4.945	-109.269	8.061	-9.290	-109.245	-101.691	-38.279	29.443	-102.342	-95.458	-95.128	-87.678	33.070	-88.345	-8191	255	
28290.082	1	1	0	0	0.20557	0.070254	0.13967	0.36	0.27967	0.037834	0.38279	0.062396	0.055089	0.19064	0.10865	0.20504	0.38951	0.36972	0.28512	0.1432	-0.3625	-0.78542	-0.12917	-1.1146	-0.43958	-0.37708	-1.3208	-0.36042	-0.65208	-0.93958	-0.28125	-0.84375	-0.83125	-0.41875	-1.3292	-0.26875	228.750	152.559	-96.567	191.855	49.996	8.461	186.376	174.362	136.676	147.572	202.574	-83.828	-89.647	-100.659	114.043	-98.678	0.0001038	0.00038488	0.00011687	1049.4	2.6509e-06	3.0376e-06	1139.9	217.08	2.0298e-06	2.514e-06	275.25	76.293	58.939	17.482	1.2447e-06	24.494	0.0004284	0.00062768	0.00018107	1029.3	6.7754e-06	7.3203e-06	1125	215.42	6.6721e-06	7.0251e-06	275.86	77.447	59.714	17.639	6.5385e-06	24.904	220.196	-46.259	-32.860	-109.301	-23.363	34.343	-109.236	-101.970	-7.027	49.169	-102.123	-95.561	-95.107	-87.757	63.872	-88.169	-8191	255	
28290.180	1	1	0	0	0.26516	0.29422	0.27537	0.10894	0.1186	0.13288	0.20046	0.065412	0.116	0.05993	0.17445	0.14277	0.3521	0.12513	0.27918	0.15803	-0.26875	-1.0771	-0.0875	-1.1021	-0.66667	-0.16667	-1.2229	-0.54375	-0.51875	-1.1771	-0.2375	-0.64583	-0.91458	-0.14583	-1.125	-0.5	-42.536	67.092	61.831	139.768	-102.662	-99.476	193.088	14.838	-66.619	-66.187	157.013	-2.543	235.716	168.146	109.010	192.680	8.5033e-05	0.00042324	0.00013713	1052.4	1.9057e-06	1.3162e-06	1142.8	216.51	3.126e-06	7.2544e-07	277.64	76.412	59.315	17.476	1.2021e-06	24.781	0.00042817	0.00061034	0.00018086	1028.3	6.5746e-06	7.1456e-06	1123.5	214.42	6.7439e-06	6.8024e-06	275.74	77.476	59.82	17.652	6.5246e-06	24.992	218.862	-38.225	-7.786	-109.316	26.637	-11.491	-109.329	-102.041	27.941	49.107	-102.174	-95.521	-94.970	-87.657	42.437	-87.970	-8191	255	
28290.299	1	1	0	0	0.075874	0.14536	0.30817	0.050456	0.1631	0.028747	0.072803	0.075802	0.10143	0.24754	0.13227	0.14768	0.055031	0.17134	0.12064	0.34467	0.16042	-0.95833	-0.0875	-0.72708	-0.76667	0.060417	-1.0646	-0.61875	-0.26875	-1.2188	-0.33542	-0.825	-0.95417	-0.13958	-0.99792	-0.825	142.892	204.169	101.098	235.533	16.660	129.215	-64.673	-103.060	164.563	127.176	-15.263	137.393	113.253	7.723	201.125	44.172	0.00010615	0.00015923	0.00011227	1052.8	8.6491e-07	4.1269e-06	1141.7	215.06	3.096e-06	1.7895e-06	277.88	76.492	59.289	17.528	1.7723e-06	24.75	0.00043581	0.0006058	0.00018401	1028.9	6.877e-06	7.5234e-06	1125.2	214.38	6.9435e-06	7.0274e-06	275.58	77.341	59.753	17.607	6.6389e-06	24.982	223.654	-4.074	-27.277	-109.280	-18.201	14.110	-109.068	-102.011	38.692	28.379	-101.973	-95.459	-95.146	-87.586	17.401	-87.974	-8191	255	
28290.395	1	1	0	0	0.45377	0.25511	0.15033	0.21398	0.14287	0.054257	0.31202	0.17663	0.18012	0.22288	0.022212	0.192	0.14546	0.14851	0.058786	0.21163	0.0020833	-1.1333	-0.18958	-0.7625	-0.925	-0.23125	-1.1917	-0.675	-0.27292	-1.0333	-0.37917	-0.42292	-1.0979	-0.32708	-0.82708	-0.62292	-82.177	83.188	-27.420	-76.323	-11.297	83.806	123.647	180.221	-75.639	53.170	127.918	-10.660	-29.680	199.319	-47.849	-21.293	9.1925e-05	0.00038617	5.4195e-06	1048	8.765e-07	2.8225e-06	1141.3	215.46	1.0186e-06	4.4653e-06	277.8	76.673	59.077	17.481	1.4778e-06	24.584	0.00043499	0.00062852	0.00017999	1026.9	6.5742e-06	7.3808e-06	1122.7	214.12	7.143e-06	7.067e-06	275.83	77.462	59.734	17.609	7.0342e-06	24.908	214.146	-38.776	232.208	-109.363	0.455	12.380	-108.997	-101.950	-24.361	34.256	-102.313	-96.092	-95.499	-88.216	18.228	-88.559	-8191	255	
28290.490	1	1	0	0	0.02183	0.090271	0.13587	0.17647	0.26666	0.027624	0.23393	0.2232	0.024478	0.021868	0.23513	0.23495	0.13954	0.14689	0.17758	0.055749	0.22917	-1.0479	-0.38542	-0.60625	-1.0375	-0.16042	-1.2188	-0.89792	-0.22708	-1.0479	-0.45833	-0.5375	-1.0229	-0.2375	-0.72292	-0.9	46.538	223.867	53.596	232.950	238.312	-34.401	220.957	-117.626	-83.955	106.740	-107.030	-102.525	215.657	212.074	207.045	156.337	9.9511e-05	0.00044304	5.6245e-05	1048.7	1.078e-06	1.3638e-06	1136.4	215.7	7.7779e-07	2.3688e-06	276.13	76.637	58.841	17.479	2.373e-06	24.463	0.00044167	0.00063096	0.00018801	1027.9	6.9036e-06	7.5993e-06	1120.6	214.35	6.955e-06	7.1695e-06	274.07	77.433	59.531	17.593	7.0874e-06	24.865	211.280	-70.751	6.437	-109.563	-70.478	-24.856	-109.564	-102.244	83.735	2.101	-102.631	-96.137	-95.567	-88.307	-18.672	-88.848	-8191	255	
28290.588	1	1	0	0	0.1435	0.2356	0.15585	0.13263	0.30863	0.15732	0.2637	0.35081	0.11073	0.20714	0.15507	0.19667	0.10491	0.11408	0.29512	0.030371	0.16042	-1.025	-0.38958	-0.48542	-1.0875	-0.26875	-0.8875	-0.98542	-0.12292	-0.95417	-0.64375	-0.36042	-1.1333	-0.30208	-0.48958	-0.96667	64.532	170.500	46.223	-71.142	208.383	-93.030	207.628	197.228	171.979	214.854	217.905	147.087	213.264	60.747	-91.198	31.884	0.00011226	0.00041495	0.00011307	1043	2.6938e-06	2.432e-06	1136.3	215.23	2.8035e-06	2.8238e-06	275.38	76.092	59.126	17.541	1.5136e-06	24.816	0.00043729	0.00064822	0.00019255	1025.5	6.864e-06	7.7202e-06	1122.3	214.44	7.1191e-06	7.3788e-06	274.73	77.07	59.686	17.666	6.9556e-06	24.934	214.816	-40.764	-10.558	-109.829	33.247	19.205	-109.693	-102.677	-21.218	62.203	-102.552	-95.774	-95.875	-88.051	59.562	-88.466	-8191	255	
28290.682	1	1	0	0	0.10081	0.093085	0.1486	0.28064	0.24666	0.093769	0.32352	0.034677	0.075156	0.12311	0.062069	0.083749	0.17857	0.085577	0.13097	0.08894	0.2875	-1.0312	-0.6	-0.325	-1.0125	-0.26042	-0.77708	-1.2792	-0.15	-0.79375	-0.775	-0.13125	-1.2083	-0.32708	-0.475	-1.2875	30.347	38.249	-109.313	238.581	-118.293	-99.205	202.191	-43.422	8.531	116.128	-5.268	162.031	192.486	194.742	218.506	35.405	0.00011203	0.00036256	0.0001253	1044.5	3.0443e-06	2.4278e-06	1138.6	215.6	4.642e-07	8.7084e-07	277.41	76.754	59.081	17.307	1.9541e-06	24.326	0.00044766	0.00063925	0.00018483	1024.6	6.8289e-06	7.3837e-06	1122.5	214.27	6.9251e-06	7.2134e-06	275.49	77.2	59.527	17.57	7.07e-06	24.873	221.699	-73.891	-65.515	-109.742	-20.192	14.125	-109.650	-102.648	27.825	74.005	-102.842	-96.302	-95.871	-88.576	-11.366	-88.823	-8191	255	
28290.777	1	1	0	0	0.1635	0.35465	0.076335	0.22305	0.025682	0.086192	0.44428	0.067115	0.083162	0.1604	0.12705	0.27857	0.18427	0.29135	0.12706	0.11695	-0.025	-0.78333	-0.78542	-0.2625	-0.88333	-0.58542	-0.69167	-1.1667	-0.4	-0.86458	-1.1833	-0.21875	-1.2208	-0.65417	-0.38333	-1.1708	-80.167	145.387	87.801	206.340	-29.864	166.498	218.780	127.204	-114.058	-84.893	96.323	114.984	176.740	-16.014	31.510	70.752	0.00010088	0.00046376	0.00010177	1040.6	3.032e-06	5.6511e-06	1138.5	215.26	2.2783e-06	3.7155e-06	277.35	76.566	59.113	17.5	3.1523e-06	24.662	0.00044836	0.00064414	0.0001869	1024.2	7.0069e-06	7.5786e-06	1121.2	214.07	6.9332e-06	7.3854e-06	275.18	77.237	59.778	17.588	7.1312e-06	24.99	228.873	-72.948	-67.076	-109.629	52.869	-6.567	-109.660	-102.648	25.747	44.539	-102.863	-96.327	-95.547	-88.368	79.529	-88.992	-8191	255	
28290.898	1	1	0	0	0.3951	0.1763	0.23969	0.14969	0.26631	0.29663	0.13296	0.35556	0.14148	0.090658	0.32513	0.15751	0.12316	0.13457	0.1871	0.054718	0.0125	-0.56875	-1.0938	-0.19792	-1.0167	-0.72292	-0.275	-1.0792	-0.34583	-0.7875	-1.1437	-0.16875	-0.88542	-0.81042	-0.10417	-1.1812	-2.050	24.200	144.202	180.987	71.345	-96.330	164.509	169.666	-4.799	140.139	-67.717	-0.106	171.734	-98.448	6.917	-83.156	8.9581e-05	0.00024204	4.527e-05	1046.3	1.5162e-06	3.0546e-06	1137.6	216.25	1.9041e-06	2.3258e-06	274.79	75.763	59.026	17.482	3.0176e-06	24.483	0.00044646	0.0006225	0.0001799	1025.9	7.0179e-06	7.0894e-06	1122	214.49	6.7948e-06	7.3955e-06	273.81	76.908	59.67	17.621	6.9681e-06	24.827	206.953	-73.727	5.287	-110.016	49.401	33.058	-109.796	-102.690	7.761	39.681	-103.055	-96.377	-95.769	-88.217	21.726	-88.716	-8191	255	
28290.994	1	1	0	0	0.26678	0.12996	0.095454	0.091645	0.1905	0.10597	0.21477	0.33172	0.22264	0.214	0.14928	0.079626	0.062773	0.13978	0.18066	0.0088368	-0.020833	-0.43333	-1.1562	-0.25833	-1.1688	-0.73125	-0.30208	-1.2604	-0.5	-0.39583	-1.1479	-0.30833	-0.93125	-0.77083	-0.29167	-1.2021	67.652	30.720	102.005	237.321	101.467	-81.568	87.524	204.549	119.743	42.903	-48.673	81.713	172.110	-33.375	-20.074	-7.433	0.00010737	0.0003428	8.721e-05	1044	1.5504e-06	2.8008e-06	1129	214.42	1.4335e-06	4.3131e-06	276.09	75.901	59.072	17.437	1.2808e-06	24.523	0.00045117	0.00068306	0.00018766	1024.1	7.0955e-06	7.6045e-06	1118.8	213.72	7.2939e-06	7.599e-06	274.87	76.987	59.711	17.562	7.195e-06	24.937	223.274	-15.044	-2.350	-109.881	18.270	60.301	-109.617	-102.509	-50.687	46.367	-102.816	-96.064	-95.899	-88.629	-10.719	-88.745	-8191	255	
28291.092	1	1	0	0	0.35607	0.27987	0.16234	0.079128	0.076886	0.29919	0.14538	0.067214	0.1728	0.28601	0.20561	0.22202	0.25368	0.038221	0.12967	0.039269	0.035417	-0.32917	-1.1167	-0.41875	-0.6375	-0.8875	-0.1625	-1.1812	-0.60417	-0.3125	-1.2625	-0.18333	-0.68125	-0.78542	-0.12083	-0.9875	25.209	145.046	12.420	181.958	-116.808	192.654	197.622	219.938	-42.231	228.719	212.081	-85.849	154.625	96.868	178.400	-112.870	9.0317e-05	0.00021723	0.00010099	1046.5	1.3265e-06	1.7402e-06	1138	214.81	2.152e-06	3.7884e-06	276.44	76.206	59.268	17.343	3.1908e-06	24.446	0.00045873	0.00066089	0.0001901	1025.6	7.4072e-06	7.4711e-06	1121.6	214.15	7.2422e-06	7.7563e-06	275.02	77.07	59.603	17.529	7.3129e-06	24.848	225.034	-25.815	-6.376	-109.976	55.757	-18.347	-109.914	-102.602	-17.110	45.284	-102.652	-96.386	-95.852	-88.170	-9.677	-88.513	-8191	255	
28291.188	1	1	0	0	0.10052	0.39876	0.28072	0.20103	0.22737	0.10886	0.15163	0.21209	0.16702	0.14267	0.20448	0.12653	0.14829	0.096178	0.133	0.010019	-0.039583	-0.29583	-1.0063	-0.47292	-0.60833	-1.0708	-0.39792	-0.80625	-0.64583	-0.31667	-0.9375	-0.30208	-0.375	-1.0521	-0.09375	-0.84792	-32.073	-71.037	57.959	-110.815	57.795	-14.083	112.064	79.152	195.118	167.732	-85.454	89.765	-100.545	180.423	154.138	-95.243	0.00011128	0.00041922	0.00010901	1044.4	2.4534e-06	1.56e-06	1137.1	215.4	1.4525e-06	2.3673e-06	277.09	76.323	59.265	17.4	2.7138e-06	24.45	0.00045619	0.00068134	0.00018649	1024.2	7.0546e-06	7.4432e-06	1120.5	214.47	7.0251e-06	7.1695e-06	275	76.975	59.686	17.63	6.9445e-06	24.876	219.797	-28.937	-20.651	-109.959	27.412	-26.712	-109.812	-102.420	6.063	46.483	-102.793	-96.424	-95.685	-88.281	26.127	-88.556	-8191	255	
28291.309	1	1	0	0	0.1545	0.22242	0.16542	0.29486	0.041072	0.1292	0.19046	0.24225	0.11523	0.18299	0.39921	0.2073	0.065838	0.14301	0.30008	0.082031	-0.30417	-0.26667	-1.0604	-0.55417	-0.175	-1.2021	-0.42708	-0.88125	-0.76667	-0.066667	-1.1521	-0.5625	-0.25417	-1.1187	-0.35417	-0.77083	111.193	41.023	52.260	101.319	157.121	210.910	198.228	-101.885	-104.615	125.173	-115.476	156.837	198.842	32.138	29.418	174.306	9.468e-05	0.0003497	3.1955e-05	1041.2	2.7706e-06	1.9767e-06	1132	215.91	1.7659e-06	1.5805e-06	276.32	76.049	59.487	17.317	3.1147e-06	24.506	0.00043912	0.00065213	0.0001731	1024.2	6.9323e-06	6.9847e-06	1118.4	214.27	6.8747e-06	7.517e-06	274.78	76.805	59.596	17.55	7.1195e-06	24.813	223.429	-6.828	-82.536	-109.942	14.416	44.818	-109.947	-102.370	-54.447	23.454	-102.686	-96.553	-95.848	-87.990	41.394	-88.737	-8191	255	
28291.381	1	1	0	0	0.36669	0.093356	0.35522	0.27167	0.27544	0.1098	0.18371	0.26697	0.32966	0.24419	0.095134	0.15339	0.24525	0.31956	0.16324	0.090531	-0.68542	-0.0625	-1.0771	-0.77292	-0.34167	-1.1146	-0.64167	-0.83542	-1.0979	-0.16667	-0.93958	-0.58125	-0.55625	-0.97292	-0.39375	-0.475	-99.417	223.605	-0.480	167.424	210.263	-53.035	234.808	237.892	7.663	-83.969	207.424	125.231	206.652	156.284	203.947	11.702	0.00010258	0.0002801	4.8768e-05	1043.6	1.3093e-06	3.0648e-06	1133.4	216.03	4.1032e-07	3.0627e-06	276.26	76.261	59.196	17.309	4.6511e-06	24.462	0.00045056	0.00064653	0.00018054	1021.1	7.093e-06	7.0899e-06	1118.2	214.09	7.055e-06	7.4984e-06	274.41	77.086	59.399	17.573	7.2049e-06	24.883	223.086	-70.829	-42.089	-110.010	18.211	35.088	-109.608	-102.092	-26.493	32.074	-102.784	-96.727	-95.859	-88.180	32.529	-88.545	-8191	255	
28291.475	1	1	0	0	0.19976	0.21252	0.10121	0.13457	0.24142	0.30415	0.22787	0.25538	0.070356	0.10676	0.36526	0.2507	0.18772	0.032527	0.086809	0.086199	-0.50625	-0.11458	-0.77917	-0.95417	-0.25208	-1.1542	-0.54375	-0.67917	-1.1042	-0.21667	-0.76667	-0.75625	-0.2625	-1.1896	-0.54167	-0.33958	-25.657	-76.650	163.823	84.130	173.900	-119.953	119.203	173.611	132.655	66.450	-120.210	212.363	-60.171	7.657	161.313	-18.208	9.4719e-05	0.0002771	1.6678e-05	1040.8	8.2819e-07	3.3376e-06	1134	215.28	2.3956e-06	2.4168e-06	277.77	76.651	59.07	17.374	1.8924e-06	24.513	0.0004299	0.00066867	0.00018438	1021.1	6.8652e-06	7.3846e-06	1120.8	213.8	6.7174e-06	7.1819e-06	274.56	77.07	59.418	17.557	6.973e-06	24.884	218.462	-38.141	19.123	-109.818	-9.236	27.760	-109.855	-102.643	36.667	13.865	-102.850	-96.446	-95.887	-87.896	55.511	-88.735	-8191	255	
28291.570	1	1	0	0	0.20625	0.26797	0.036664	0.27346	0.073167	0.36649	0.18619	0.15522	0.12092	0.23419	0.14114	0.44813	0.022164	0.32123	0.21543	0.064727	-0.9	-0.0875	-0.69167	-0.84583	0.14792	-1.1729	-0.45	-0.34167	-0.77083	-0.035417	-0.76875	-0.83958	-0.16042	-0.9625	-0.6625	-0.21875	192.171	117.605	18.485	220.731	198.137	164.412	141.062	182.100	111.925	72.463	-59.895	207.687	-6.536	223.656	122.431	-27.286	0.00010592	0.00026044	0.00010142	1042.7	1.4545e-06	4.395e-06	1136.3	215.08	1.4623e-06	3.7307e-06	275.89	75.892	58.944	17.35	3.9527e-06	24.536	0.00043853	0.00066514	0.00018497	1021.3	6.934e-06	7.3794e-06	1118.5	213.77	6.9858e-06	7.2987e-06	274.4	76.825	59.339	17.537	6.9922e-06	24.849	231.203	2.911	-16.769	-109.820	23.495	18.182	-109.845	-102.288	10.090	20.759	-102.565	-96.431	-96.033	-88.092	69.015	-88.224	-8191	255	
28291.691	1	1	0	0	0.19145	0.010703	0.21456	0.39204	0.2184	0.14524	0.050654	0.10901	0.14621	0.20203	0.095037	0.083774	0.17929	0.49002	0.089356	0.11389	-0.67083	-0.2	-0.49375	-1.1646	-0.1625	-0.98542	-0.82917	-0.38542	-0.95625	-0.51042	-0.49375	-1.0646	-0.16458	-0.80208	-0.7	-0.36667	-32.217	8.446	-78.346	172.941	-17.908	97.340	218.117	192.704	164.251	213.311	193.256	71.881	-112.465	-50.217	47.796	-115.870	0.00010023	0.00027196	6.0016e-05	1039	2.4521e-06	2.4144e-06	1131.4	214.92	1.7355e-06	1.7366e-06	274.61	75.822	58.723	17.29	2.883e-06	24.473	0.0004311	0.00067031	0.00018072	1018.7	6.9951e-06	7.1782e-06	1115.7	213.69	6.7956e-06	7.1233e-06	273.76	76.772	59.292	17.553	6.6474e-06	24.798	216.207	-20.389	-63.837	-109.857	75.844	9.443	-109.670	-102.829	-31.061	51.718	-102.648	-96.377	-95.655	-88.465	43.799	-88.832	-8191	255	
28291.787	1	1	0	0	0.077362	0.22554	0.080554	0.20467	0.22578	0.20814	0.12572	0.091474	0.18092	0.089878	0.22237	0.075703	0.17061	0.11969	0.21963	0.063044	-0.59167	-0.4125	-0.29792	-1.3583	-0.23125	-0.875	-1.0333	-0.20833	-1.0938	-0.37292	-0.37292	-1	-0.16667	-0.69792	-0.91042	-0.10833	183.948	5.368	80.010	216.998	121.044	0.934	140.013	197.905	-90.641	81.319	193.365	-41.067	61.921	180.404	31.668	-113.407	0.00010062	0.00015884	0.00013175	1037.9	4.3371e-07	3.2726e-06	1131.9	213.98	2.2914e-06	1.7319e-06	275.27	76.153	58.684	17.417	2.114e-06	24.552	0.00041843	0.0006191	0.00018024	1021.1	6.7712e-06	6.9943e-06	1114.3	213.26	6.6059e-06	7.2329e-06	273.96	76.922	59.427	17.532	6.8873e-06	24.815	206.128	-63.673	-38.367	-109.925	19.064	42.011	-109.798	-102.368	27.876	-5.847	-102.717	-96.009	-95.717	-88.561	60.949	-88.334	-8191	255	
28291.883	1	1	0	0	0.093816	0.31779	0.18448	0.061214	0.16471	0.19869	0.13268	0.07362	0.17539	0.39786	0.13614	0.49966	0.20849	0.27022	0.23362	0.17234	-0.49167	-0.76667	-0.3125	-1.2104	-0.22083	-0.59167	-0.99167	-0.22708	-1.0521	-0.72292	-0.32083	-0.92708	-0.28542	-0.63958	-1.0438	-0.225	-3.399	-25.615	24.427	189.066	33.455	195.442	-111.480	113.680	-7.987	171.942	32.651	-18.139	68.824	-104.283	-34.208	158.254	0.00010335	0.00030988	7.5486e-05	1035.2	2.6741e-06	3.1253e-06	1128.2	215.22	2.1728e-06	1.7405e-06	274.99	76.011	58.742	17.501	2.7795e-06	24.472	0.00042355	0.00065424	0.00018007	1017.7	7.0221e-06	7.2598e-06	1112.4	213.04	6.767e-06	7.0313e-06	273.78	76.765	59.314	17.554	6.7327e-06	24.782	212.023	-33.408	-12.270	-109.874	40.406	23.982	-109.793	-102.714	-7.942	36.612	-102.704	-96.194	-95.387	-88.405	-5.258	-88.934	-8191	255	
28291.979	1	1	0	0	0.51565	0.33771	0.20672	0.15794	0.077495	0.19665	0.39873	0.20619	0.43005	0.20542	0.093894	0.20224	0.15233	0.13418	0.26198	0.057771	-0.73333	-0.58333	-0.09375	-1.2771	-0.21458	-0.63125	-1.3583	-0.12083	-0.80208	-0.95833	-0.0375	-1.1437	-0.425	-0.41458	-1.0396	-0.32083	-65.354	-22.636	67.612	136.291	178.513	-105.559	156.841	81.979	71.144	-12.469	114.194	-110.042	183.694	-76.963	8.637	199.886	0.00010397	0.00019734	6.395e-05	1040.4	1.3858e-06	4.0544e-06	1130.9	214.02	6.7329e-07	3.8565e-06	274.16	75.794	58.729	17.249	2.364e-06	24.314	0.00042488	0.000635	0.0001887	1020.1	6.9584e-06	7.0951e-06	1115.8	212.9	6.6832e-06	7.3254e-06	273.38	76.716	59.145	17.508	6.7792e-06	24.753	204.805	-23.199	-21.892	-109.730	-12.016	26.679	-110.029	-102.487	-10.313	54.860	-102.443	-96.178	-95.707	-88.246	16.807	-88.771	-8191	255	
28292.074	1	1	0	0	0.25644	0.20093	0.049127	0.16262	0.096861	0.13285	0.34514	0.17381	0.26163	0.10463	0.25907	0.10583	0.15793	0.11156	0.13563	0.23614	-0.42083	-0.7125	-0.039583	-1.2396	-0.41875	-0.34167	-1.0667	-0.23542	-0.71667	-1.0646	-0.22083	-1.0063	-0.56875	-0.2	-1.0917	-0.22708	224.457	91.672	-110.455	-118.058	-14.992	188.088	137.109	145.355	-115.481	214.122	-108.513	184.613	136.054	151.643	108.090	83.042	0.00011354	0.00024826	5.9634e-05	1037.3	1.7725e-06	3.3595e-06	1129.7	214.59	2.9593e-06	4.5245e-06	275.83	75.976	58.797	17.406	5.362e-07	24.349	0.00044444	0.00064839	0.00018276	1019.7	6.9171e-06	7.2929e-06	1117	213.41	7.0029e-06	7.4007e-06	273.11	76.79	59.41	17.549	7.0704e-06	24.762	212.456	-40.980	26.913	-109.838	0.672	102.514	-109.788	-102.965	-18.737	35.507	-103.015	-96.803	-96.101	-88.094	34.934	-88.792	-8191	255	
28292.172	1	1	0	0	0.056398	0.16401	0.23683	0.27753	0.35447	0.15117	0.14642	0.25102	0.15865	0.33734	0.2362	0.15141	0.15045	0.11369	0.12743	0.20957	-0.28542	-0.84375	0.066667	-1.0667	-0.50625	-0.077083	-1.2792	-0.36875	-0.57083	-0.9	-0.20417	-0.82292	-0.70625	-0.11667	-1.1125	-0.25625	-40.525	-20.740	38.762	184.812	235.090	-48.080	120.920	-8.006	-69.571	88.796	-87.648	-117.106	54.736	108.002	-15.990	203.962	0.0001049	0.00038172	9.6816e-05	1039.3	1.7961e-06	9.6575e-07	1136.9	214.15	1.1804e-06	3.3132e-06	275.62	75.659	58.72	17.333	1.9409e-06	24.355	0.00044221	0.00064712	0.0001846	1020.4	6.9386e-06	7.2056e-06	1117.9	213.13	7.0503e-06	7.3783e-06	273.47	76.601	59.314	17.52	6.7863e-06	24.712	203.212	-28.970	-48.778	-109.914	-5.658	-39.625	-109.943	-102.935	-22.427	21.736	-102.739	-96.431	-95.908	-88.535	38.593	-88.818	-8191	255	
28292.268	1	1	0	0	0.19485	0.33536	0.18865	0.30408	0.046152	0.18546	0.14207	0.16249	0.068271	0.13888	0.27881	0.25033	0.051943	0.19168	0.19936	0.19892	-0.064583	-0.95833	-0.3	-0.93542	-0.7875	-0.22083	-1.2208	-0.35208	-0.22083	-1.0438	-0.11458	-0.97708	-0.92917	-0.097917	-1.1042	-0.41875	175.485	122.895	48.154	237.488	110.274	54.101	94.411	232.934	31.557	64.744	205.658	200.072	36.637	-78.200	205.427	149.401	9.361e-05	0.00035518	7.4852e-05	1040	2.1369e-06	3.067e-06	1132.2	214.12	4.856e-07	1.8638e-06	275.86	76.479	58.634	17.37	1.7637e-06	24.456	0.00043708	0.00064186	0.00018879	1020.7	7.0588e-06	7.4111e-06	1115.6	212.73	6.7743e-06	7.1929e-06	273.89	76.849	59.231	17.535	7.1973e-06	24.777	219.651	-60.744	-4.710	-110.031	39.523	28.375	-109.992	-102.606	42.059	-27.418	-103.190	-96.238	-96.045	-88.009	58.447	-88.848	-8191	255	
28292.389	1	1	0	0	0.094219	0.10242	0.12139	0.16253	0.34701	0.23368	0.40376	0.21756	0.09694	0.14323	0.24998	0.14256	0.13581	0.17446	0.33255	0.32054	0.1625	-1.05	-0.066667	-0.84583	-0.71667	-0.14792	-1.2708	-0.64792	-0.24167	-1.0979	-0.29167	-0.70417	-0.98542	-0.11667	-0.97083	-0.54375	125.455	-66.502	94.978	-86.788	163.496	-102.485	150.155	178.655	-49.496	-10.664	-104.234	-78.978	3.295	-119.261	-52.565	129.832	8.5736e-05	0.00047614	6.6287e-05	1042.2	1.5568e-06	2.0837e-06	1135.1	214.31	8.7973e-07	2.6632e-06	275.74	75.806	58.953	17.312	2.7915e-06	24.354	0.00045631	0.00062856	0.00018787	1022.1	6.7809e-06	7.5493e-06	1116.9	212.99	6.9396e-06	7.2486e-06	273.64	76.777	59.425	17.483	7.103e-06	24.765	232.443	-35.917	-25.599	-109.705	37.093	-13.780	-109.684	-102.449	2.245	-22.198	-102.719	-96.104	-96.152	-88.432	48.627	-89.062	-8191	255	
28292.482	1	1	0	0	0.19887	0.061862	0.12333	0.18509	0.17697	0.017164	0.19156	0.18139	0.0422	0.061519	0.055953	0.20589	0.3982	0.059856	0.24821	0.19644	0.079167	-0.875	-0.4	-0.575	-1.0958	-0.2	-1.1292	-0.59583	-0.26875	-1.0417	-0.48958	-0.56458	-0.86042	-0.25625	-0.92292	-1.0187	-13.184	-111.165	222.909	156.810	58.772	-77.606	107.173	152.952	86.386	14.829	231.580	-99.006	-111.040	-110.058	-40.143	124.398	0.00013549	0.00034683	6.5919e-05	1038.5	1.5327e-06	1.6694e-06	1129.7	214.69	1.2938e-06	5.0363e-06	275.58	76.135	59.202	17.298	2.2322e-06	24.344	0.00043729	0.0006611	0.00019682	1021	6.8332e-06	7.5157e-06	1118.1	213.37	7.0836e-06	7.2343e-06	273.69	76.94	59.46	17.53	6.7104e-06	24.821	218.948	-31.341	-32.621	-109.718	-45.330	42.285	-109.823	-102.488	13.560	43.603	-103.157	-95.920	-95.771	-88.218	25.740	-88.907	-8191	255	
28292.578	1	1	0	0	0.075017	0.15602	0.21788	0.35841	0.16515	0.12312	0.41234	0.18134	0.13512	0.23757	0.21083	0.094829	0.18007	0.2056	0.12001	0.053991	0.24792	-1.0875	-0.45833	-0.54375	-1.0229	-0.18125	-0.91042	-0.9125	0.016667	-1.0938	-0.4125	-0.23125	-0.99167	-0.36042	-0.67708	-0.75625	208.620	71.727	121.235	-95.229	73.012	173.663	207.593	160.180	200.721	28.103	187.933	190.981	174.972	-114.362	119.058	-6.098	0.00011956	0.00012335	0.00013392	1037.2	4.5826e-07	3.1919e-06	1132.6	214.84	1.9953e-06	3.4031e-06	274.35	76.641	59.153	17.474	4.5745e-06	24.599	0.00042591	0.00062579	0.00016693	1018.8	6.4835e-06	6.9199e-06	1114.5	213.18	6.3153e-06	6.4173e-06	273.02	77.12	59.656	17.64	6.5536e-06	24.748	205.704	35.780	3.157	-109.783	228.733	14.160	-109.660	-102.669	-41.337	65.770	-102.619	-95.957	-95.881	-88.270	19.619	-88.767	-8191	255	
28292.676	1	1	0	0	0.15567	0.17583	0.24129	0.1875	0.1358	0.11992	0.22376	0.20421	0.086992	0.088526	0.22055	0.2321	0.32327	0.14282	0.12335	0.075478	0.1125	-0.86667	-0.55833	-0.46458	-1.2042	-0.18958	-0.77708	-0.77917	-0.091667	-1.1	-0.70208	-0.3125	-1.0396	-0.3625	-0.4	-0.80208	191.219	122.990	187.025	-17.240	208.968	-23.250	166.573	216.713	51.123	223.623	165.175	-53.113	238.472	141.492	-118.428	123.092	9.3059e-05	0.00023451	9.6052e-05	1036.3	1.7499e-06	4.1313e-06	1130.3	212.98	1.5594e-06	3.2088e-06	273.99	75.505	58.82	17.183	2.8034e-06	24.391	0.00042734	0.00060866	0.00018203	1014.9	6.9285e-06	7.4288e-06	1111.5	212.49	7.5297e-06	7.8674e-06	271.82	76.647	59.133	17.429	7.7306e-06	24.722	216.252	-48.558	-3.944	-109.975	6.714	16.554	-109.765	-102.670	-23.001	50.708	-102.733	-96.297	-96.062	-88.111	76.158	-88.563	-8191	255	
28292.771	1	1	0	0	0.094735	0.16047	0.1562	0.18718	0.3332	0.068267	0.062099	0.11065	0.050321	0.17796	0.20508	0.3075	0.17309	0.18073	0.089292	0.23246	0.11458	-0.97708	-0.64167	-0.47708	-1.0479	-0.31875	-0.70625	-1.1729	-0.26667	-0.89167	-0.80833	-0.15625	-0.875	-0.48542	-0.33125	-1.2333	139.437	73.222	105.273	192.044	168.133	75.022	214.901	121.708	101.007	174.305	-115.521	232.267	-40.034	217.408	124.614	172.285	9.555e-05	0.00033603	7.342e-05	1038.1	8.7812e-07	3.3645e-06	1134.8	214.49	2.3018e-06	2.7714e-06	274.66	76.112	58.725	17.254	3.6647e-06	24.333	0.00046623	0.00070819	0.00019465	1020.7	7.1149e-06	7.7707e-06	1118.1	212.55	7.1153e-06	7.1852e-06	273.51	76.921	59.242	17.492	6.9989e-06	24.752	220.659	-8.057	-36.482	-109.824	-54.918	31.045	-109.664	-102.738	-18.974	68.667	-102.909	-96.250	-95.915	-88.452	35.126	-88.349	-8191	255	
28292.867	1	1	0	0	0.081179	0.12025	0.24387	0.33614	0.16734	0.3177	0.24246	0.15073	0.15339	0.2994	0.1666	0.22913	0.12384	0.29923	0.2144	0.068669	0.17292	-0.72292	-0.7	-0.30833	-0.97292	-0.33333	-0.49583	-1.1667	-0.070833	-0.87083	-0.86458	-0.027083	-1.0521	-0.65417	-0.23125	-1.3292	-51.609	-7.944	-110.375	237.644	216.901	-118.998	116.611	-78.809	118.862	103.398	218.988	-86.399	238.829	-101.388	-74.619	176.513	0.00011396	0.00025251	3.1587e-05	1033.8	2.7004e-06	2.9589e-06	1123.4	213.47	1.4447e-06	3.2638e-06	274.36	75.692	58.555	17.259	1.8375e-06	24.117	0.00044451	0.00065865	0.00017857	1016.6	6.9306e-06	7.3592e-06	1111.6	212.55	6.9161e-06	7.6276e-06	272.86	76.558	59.073	17.441	7.2281e-06	24.697	215.209	-17.246	96.049	-109.799	33.983	-4.561	-109.812	-102.279	51.833	50.897	-102.850	-96.488	-95.782	-87.971	57.974	-88.540	-8191	255	
28292.988	1	1	0	0	0.075205	0.21316	0.26704	0.090242	0.042158	0.17749	0.38782	0.16167	0.39648	0.23176	0.23745	0.32994	0.081281	0.078318	0.06995	0.11067	0.13333	-0.52292	-0.9125	-0.17917	-0.89583	-0.60833	-0.5375	-1.1396	-0.24583	-0.52292	-1.1229	-0.23958	-1.0312	-0.89167	-0.15	-1.1396	-103.549	-31.003	-11.016	187.457	218.473	-102.078	158.522	171.437	-78.806	-63.639	152.673	216.015	229.433	164.702	82.450	206.089	9.3674e-05	0.00037768	9.2378e-05	1035.6	1.0717e-06	4.6525e-06	1130.3	213.73	5.5571e-07	2.6956e-06	274.99	75.731	58.671	17.299	1.6669e-06	24.371	0.00046304	0.00067717	0.00019385	1015.6	6.8564e-06	7.7577e-06	1113.5	212.55	7.3336e-06	7.5418e-06	272.76	76.526	59.327	17.443	7.0923e-06	24.736	212.100	-49.082	-9.854	-109.846	22.154	53.892	-109.831	-102.684	55.501	39.333	-102.615	-96.206	-95.758	-88.719	68.688	-89.161	-8191	255	
28293.084	1	1	0	0	0.050858	0.11295	0.2801	0.38375	0.18566	0.045291	0.25745	0.24868	0.083984	0.14932	0.12828	0.45611	0.13686	0.065292	0.33899	0.13176	0	-0.50208	-0.84583	-0.21875	-0.85833	-0.80208	-0.50417	-1.0375	-0.44167	-0.6	-1.175	-0.10208	-0.68333	-0.74583	-0.20208	-1.2583	140.876	31.480	228.121	129.751	146.407	-103.470	58.529	199.985	209.801	-31.895	183.237	117.921	-64.056	-40.408	172.235	203.871	9.5925e-05	0.00047616	6.0093e-05	1037.6	1.9791e-06	2.7175e-06	1129.5	213.7	8.8259e-07	3.1141e-06	276.85	75.823	59.032	17.336	2.575e-06	24.325	0.00045598	0.00066257	0.00019006	1018.8	6.8686e-06	7.4207e-06	1115.3	212.59	6.9764e-06	7.6724e-06	273.34	76.681	59.356	17.468	7.3844e-06	24.72	221.156	-11.105	-14.956	-109.891	-26.061	71.206	-109.631	-102.608	-34.130	51.699	-102.553	-96.153	-95.669	-88.296	120.013	-88.615	-8191	255	
28293.180	1	1	0	0	0.028288	0.077217	0.071595	0.41785	0.12064	0.19574	0.39024	0.28337	0.11475	0.086204	0.079491	0.2476	0.073461	0.046028	0.17045	0.049158	0.0375	-0.40417	-1.2604	-0.27292	-0.54375	-0.89167	-0.41458	-1.1792	-0.52708	-0.095833	-1.1063	-0.49375	-0.8625	-0.99375	-0.072917	-1.0042	106.020	119.422	132.573	-115.606	-98.318	162.656	173.442	-23.431	84.952	219.582	-26.882	55.025	-96.271	44.704	112.636	45.139	9.8563e-05	0.00026348	5.4081e-05	1035.9	3.817e-06	1.8518e-06	1127.8	213.37	2.1871e-06	2.4381e-06	275.15	75.247	59.065	17.262	1.251e-06	24.293	0.0004496	0.00067536	0.00018183	1018.8	7.2752e-06	7.6357e-06	1115	212.74	7.1106e-06	7.6839e-06	273.24	76.625	59.435	17.485	7.3933e-06	24.731	210.991	1.857	-19.767	-109.750	-13.344	42.245	-109.861	-102.405	33.685	5.690	-102.782	-96.727	-95.391	-88.676	38.117	-88.765	-8191	255	
28293.252	1	1	0	0	0.1077	0.10142	0.24351	0.15974	0.12847	0.201	0.16373	0.15144	0.086143	0.2246	0.11856	0.088712	0.11426	0.12608	0.27097	0.10683	-0.18958	-0.29167	-1.1583	-0.35625	-0.31042	-1.0917	-0.2875	-0.90833	-0.69583	-0.035417	-1.1479	-0.39167	-0.46667	-0.92917	-0.25417	-0.99583	151.210	64.955	-109.311	-107.236	1.004	220.879	154.361	136.746	72.002	-110.136	205.699	212.692	-99.584	202.580	96.644	165.993	7.9225e-05	0.00020374	5.3201e-05	1042.3	3.078e-06	1.9808e-06	1135.9	212.9	1.4413e-06	3.2868e-06	277.37	75.87	59.165	17.406	2.9011e-06	24.216	0.00046996	0.00069459	0.00018248	1022.9	7.077e-06	7.5546e-06	1118.3	212.63	7.2105e-06	7.7349e-06	274.25	76.665	59.364	17.489	7.3272e-06	24.752	215.798	-18.140	-60.258	-109.872	23.218	62.462	-109.856	-102.766	16.802	-3.779	-102.789	-96.444	-95.702	-88.229	38.005	-88.573	-8191	255	
28293.348	1	1	0	0	0.13779	0.097206	0.18857	0.17666	0.26676	0.22099	0.35868	0.17094	0.13419	0.099848	0.251	0.25047	0.1413	0.14712	0.15208	0.093294	-0.39167	-0.11667	-0.95208	-0.6875	-0.23958	-1.0625	-0.28542	-0.77917	-0.86458	-0.079167	-1.1042	-0.48125	-0.38333	-1.1104	-0.30417	-0.54167	-31.128	86.052	51.149	95.561	-95.752	7.425	191.709	216.981	-12.879	-92.496	198.260	-31.073	198.516	-95.355	-86.392	156.997	0.00011694	0.00019563	9.8259e-05	1041.3	1.156e-06	3.7478e-06	1133.5	214.22	1.5358e-06	3.1882e-06	275.72	76.31	59.108	17.287	1.2298e-06	24.552	0.00045727	0.00066623	0.00019037	1022.7	7.0786e-06	7.2238e-06	1117.2	213.12	6.8871e-06	7.6038e-06	274.27	76.948	59.49	17.498	7.1365e-06	24.804	216.103	-30.178	-22.415	-110.010	-12.185	36.380	-109.919	-102.519	2.014	10.447	-103.138	-96.049	-95.766	-88.287	27.061	-88.785	-8191	255	
28293.467	1	1	0	0	0.083763	0.12816	0.24541	0.042381	0.064458	0.14884	0.20693	0.19563	0.28199	0.14061	0.094115	0.33943	0.11175	0.17356	0.2232	0.061358	-0.57292	-0.14167	-0.91042	-0.58542	-0.17917	-1.2938	-0.34375	-0.62708	-0.90833	-0.11667	-0.99583	-0.70833	-0.49167	-1.2375	-0.49167	-0.57917	63.849	75.718	92.760	150.853	154.599	174.324	-16.835	221.019	186.354	17.165	225.931	235.871	119.420	223.438	30.032	-6.817	0.00010578	0.00047234	0.00010154	1044.1	1.211e-06	2.5827e-06	1138	214.19	1.0823e-06	2.9853e-06	276.85	76.268	58.783	17.443	1.7818e-06	24.513	0.00044644	0.00067389	0.00018785	1022.9	7.1676e-06	7.3597e-06	1118.8	212.88	7.008e-06	7.7678e-06	273.66	77.04	59.439	17.535	7.2129e-06	24.792	227.640	-35.958	-20.998	-109.906	60.478	9.061	-109.932	-102.468	-66.732	38.333	-102.978	-96.308	-95.919	-88.643	26.075	-88.808	-8191	255	
28293.562	1	1	0	0	0.13158	0.037708	0.12517	0.058649	0.08569	0.19343	0.3087	0.24854	0.031882	0.10111	0.29125	0.25299	0.025291	0.29951	0.29946	0.18111	-0.88958	-0.079167	-0.75625	-1.0208	-0.17708	-1.125	-0.57292	-0.58542	-1.0271	-0.27708	-1.0146	-0.88333	-0.2375	-1.2396	-0.45417	-0.46875	85.986	162.591	184.263	-58.910	127.497	218.990	201.707	-107.819	-104.910	-96.165	132.254	216.151	227.785	227.394	-39.622	92.905	0.00010463	0.00026132	8.3947e-05	1044.8	9.7763e-07	1.3869e-06	1137.8	214.38	2.4135e-06	3.4098e-06	276.19	75.727	58.584	17.371	2.2658e-06	24.329	0.00043928	0.00069169	0.00018419	1022.9	6.8597e-06	7.2382e-06	1119.9	213.27	6.8443e-06	7.404e-06	274.08	76.767	59.383	17.537	7.2214e-06	24.75	215.083	-43.622	-50.618	-110.124	42.755	72.363	-109.810	-102.465	14.158	12.792	-102.948	-96.126	-95.930	-88.542	35.202	-88.618	-8191	255	
28293.660	1	1	0	0	0.19781	0.14517	0.10671	0.30668	0.090788	0.2437	0.19287	0.039058	0.20789	0.30004	0.19113	0.28855	0.083211	0.38496	0.20272	0.12741	-0.64167	-0.1125	-0.71667	-1.1729	-0.2	-0.94167	-0.76875	-0.43542	-1.0708	-0.125	-0.50417	-0.95417	-0.34167	-1.0917	-0.57708	-0.22292	169.752	78.806	68.869	238.012	131.089	224.103	196.800	-73.392	114.486	171.366	-47.481	105.415	-65.512	228.344	-71.738	5.542	9.9707e-05	0.00030752	7.367e-05	1039.7	1.189e-06	2.9332e-06	1130.4	213.3	7.7633e-07	2.7128e-06	275.8	75.921	59.028	17.273	2.1175e-06	24.41	0.0004398	0.00066661	0.00019009	1019.7	7.0795e-06	7.4135e-06	1113.5	212.68	7.0144e-06	7.5237e-06	273.73	76.963	59.482	17.527	6.9963e-06	24.795	223.578	-29.490	-56.508	-109.836	89.279	43.418	-109.864	-102.244	-62.760	32.376	-102.817	-96.318	-95.561	-87.873	14.897	-89.065	-8191	255	
28293.779	1	1	0	0	0.12747	0.17991	0.060366	0.3376	0.15326	0.042892	0.34773	0.2986	0.10839	0.1473	0.15978	0.12759	0.20446	0.28361	0.20735	0.037762	-0.75	-0.33958	-0.525	-1.025	-0.058333	-1.1042	-0.80417	-0.18542	-1.1167	-0.40417	-0.55208	-1.0021	-0.24375	-0.85417	-0.92292	-0.38333	-65.833	77.132	138.085	182.053	232.657	171.061	144.633	-87.245	5.559	-59.471	-98.775	119.682	-73.143	-90.851	-119.661	-3.946	9.7998e-05	0.00027049	0.00014469	1040.1	2.4726e-06	2.4698e-06	1134.5	213.69	3.1909e-06	3.0984e-06	276.21	75.914	59.253	17.388	8.5842e-07	24.486	0.00044315	0.00067052	0.00018709	1020.4	7.1158e-06	7.0524e-06	1115.6	212.98	6.7777e-06	7.64e-06	274.21	76.894	59.501	17.551	6.8475e-06	24.776	220.992	-20.104	15.187	-109.860	45.519	25.503	-109.977	-102.775	7.860	42.631	-102.769	-96.260	-95.907	-88.453	70.811	-88.758	-8191	255	
28293.852	1	1	0	0	0.082828	0.016327	0.049354	0.19646	0.26845	0.16849	0.10057	0.14666	0.10161	0.16534	0.30603	0.17191	0.18495	0.060507	0.062191	0.022982	-0.69375	-0.44792	-0.53958	-1.0896	-0.36875	-0.88125	-1.0792	-0.28333	-1.2563	-0.45833	-0.45208	-1.1104	-0.27292	-0.85625	-0.79792	-0.085417	0.482	-38.727	-104.733	130.814	53.354	214.310	126.668	-16.792	46.467	16.974	170.257	-53.197	62.534	145.428	75.549	-86.097	0.00011565	0.00011471	4.7666e-05	1042.6	3.1521e-06	2.2846e-06	1134.5	215.68	1.7994e-06	3.6595e-06	276.3	76.097	58.683	17.375	3.2653e-06	24.458	0.00043431	0.00065786	0.0001829	1021.1	6.9918e-06	7.3285e-06	1116.6	213.59	6.9507e-06	7.374e-06	274.17	77.012	59.359	17.521	6.9342e-06	24.789	210.640	-6.576	-31.386	-109.976	45.686	29.957	-109.917	-102.436	7.084	27.730	-102.741	-96.497	-95.642	-88.494	45.446	-88.778	-8191	255	
28293.947	1	1	0	0	0.10509	0.27723	0.24216	0.11811	0.30197	0.37287	0.17256	0.29692	0.19918	0.14921	0.074223	0.084364	0.16806	0.059836	0.07815	0.10691	-0.43125	-0.57083	-0.17292	-1.1667	-0.21875	-0.55833	-1.0354	-0.24167	-0.91875	-0.58333	-0.41042	-1.0292	-0.24167	-0.62083	-1.0667	-0.175	43.257	-43.599	205.621	-37.260	53.908	149.472	209.782	201.904	93.322	-24.468	-102.961	229.232	49.631	225.913	87.685	-7.351	9.6859e-05	0.00035332	0.00014509	1039	1.8471e-06	4.982e-06	1131.7	215.22	1.0742e-06	3.2822e-06	274.22	76.039	58.819	17.415	1.5164e-06	24.305	0.00041749	0.0006289	0.00018	1019	6.7593e-06	7.2397e-06	1116.4	213.18	6.858e-06	7.1328e-06	272.79	76.895	59.463	17.512	6.777e-06	24.727	207.278	-44.773	-40.888	-109.943	43.253	23.358	-109.779	-102.577	27.831	56.201	-103.132	-96.075	-95.635	-88.500	61.403	-88.922	-8191	255	
28294.068	1	1	0	0	0.17358	0.21551	0.20869	0.25866	0.20822	0.29365	0.27548	0.26535	0.16368	0.14847	0.085457	0.07808	0.16896	0.28312	0.27071	0.11455	-0.55833	-0.77708	-0.38958	-0.98333	-0.475	-0.40833	-1.0688	-0.34167	-0.86667	-0.81667	-0.32083	-0.97917	-0.56042	-0.54375	-1.05	-0.3625	-95.233	18.370	-6.363	222.276	204.162	78.533	128.575	82.471	180.328	115.743	210.836	198.043	121.351	-87.523	162.844	152.294	9.4683e-05	0.00026103	7.2408e-05	1038	1.0748e-06	1.4864e-06	1129.7	214.04	1.8483e-06	2.4371e-06	275.49	75.856	58.729	17.513	1.3026e-06	24.412	0.00043975	0.00066741	0.00018271	1019.7	7.1643e-06	7.2334e-06	1115.8	212.82	6.7123e-06	7.2815e-06	273.12	76.784	59.255	17.567	6.8828e-06	24.72	205.054	-7.365	-1.554	-109.847	-81.039	51.875	-110.054	-102.828	43.547	-0.917	-102.718	-96.002	-96.035	-88.426	-48.524	-88.804	-8191	255	
28294.164	1	1	0	0	0.034924	0.16033	0.13718	0.28887	0.046643	0.20829	0.1483	0.29362	0.20619	0.24303	0.11885	0.33745	0.18292	0.13774	0.2837	0.219	-0.30208	-0.58542	-0.014583	-1.0938	-0.32708	-0.23125	-1.1104	-0.27083	-0.73542	-0.90208	-0.16875	-1.0021	-0.48125	-0.29375	-0.9875	-0.40208	-64.943	-118.615	103.140	229.861	54.779	110.032	-36.473	-56.504	212.013	-74.329	138.145	-111.587	203.625	82.055	-22.265	99.036	0.00010513	0.00025079	9.5049e-05	1039.8	1.6547e-06	2.4144e-06	1131.5	213.37	1.3648e-06	4.1687e-06	274.3	76.107	58.46	17.224	3.0593e-06	24.289	0.00043269	0.00064544	0.00018766	1020.8	7.0491e-06	7.4821e-06	1116.1	212.7	6.7888e-06	7.0622e-06	272.73	76.857	59.168	17.505	6.5349e-06	24.741	225.568	-31.212	-33.894	-109.798	-29.505	1.944	-109.944	-102.966	-56.517	40.527	-103.041	-96.167	-96.123	-88.417	57.003	-88.931	-8191	255	
28294.262	1	1	0	0	0.1697	0.25244	0.21451	0.27363	0.26078	0.27489	0.11616	0.097268	0.24157	0.14223	0.13331	0.19502	0.22076	0.19261	0.19393	0.077093	-0.32292	-0.92708	-0.22292	-1.0729	-0.71042	-0.13333	-1.2	-0.23125	-0.5375	-1.0312	-0.18542	-1.0271	-0.58958	-0.25	-1.0833	-0.41458	-15.013	76.178	131.350	238.831	224.257	138.583	124.178	101.531	-63.868	-51.710	129.063	78.668	217.519	23.617	21.643	176.718	0.00010339	0.00044649	9.1989e-05	1039.5	3.1355e-06	2.3249e-06	1128.2	213.06	1.1975e-06	2.9075e-06	274.57	76.009	58.672	17.304	1.8229e-06	24.375	0.00043694	0.00062869	0.00018593	1020.2	6.9416e-06	7.1446e-06	1116	212.57	6.8619e-06	7.0827e-06	272.86	76.716	59.202	17.462	6.8239e-06	24.741	218.155	-24.063	-41.152	-109.836	2.716	62.464	-109.918	-102.566	-59.453	43.377	-102.547	-96.642	-96.033	-88.487	64.692	-89.017	-8191	255	
28294.381	1	1	0	0	0.18428	0.30653	0.22359	0.21597	0.0526	0.068648	0.054873	0.079117	0.14152	0.050472	0.21728	0.29405	0.071679	0.13188	0.14892	0.030584	-0.010417	-1.0021	-0.17708	-0.96667	-0.74792	-0.1375	-1.1229	-0.50417	-0.48958	-0.94167	-0.1	-0.7375	-0.86667	0.095833	-1.0063	-0.52292	-57.862	113.464	167.054	155.630	143.838	231.544	111.395	197.485	132.335	-81.145	223.197	148.624	186.973	193.471	154.880	209.257	0.00011858	0.00032566	7.6909e-05	1034.4	1.2731e-06	1.6961e-06	1132.7	213.16	1.7542e-06	1.2182e-06	273.34	75.82	58.855	17.351	2.0984e-06	24.254	0.00043396	0.00061952	0.0001826	1018.7	6.5459e-06	7.6194e-06	1115.6	212.6	6.7375e-06	6.9197e-06	272.53	76.695	59.285	17.521	6.7555e-06	24.691	223.173	-35.791	-27.723	-109.983	70.497	27.592	-109.849	-102.765	-11.741	59.555	-102.622	-96.126	-96.094	-88.394	16.523	-89.127	-8191	255	
28294.477	1	1	0	0	0.3024	0.23855	0.20652	0.41232	0.129	0.11576	0.38784	0.069516	0.16918	0.14594	0.27159	0.36667	0.073587	0.26563	0.30254	0.16138	0.22917	-1.1938	-0.29375	-0.86042	-0.86875	-0.089583	-1.1792	-0.61458	-0.20417	-1.175	-0.27917	-0.68542	-0.91875	-0.1625	-0.94167	-0.67708	170.843	79.589	218.202	234.001	9.572	209.515	121.236	87.764	-71.927	-17.707	158.094	56.232	45.340	-109.674	-80.642	20.324	9.4025e-05	0.00023944	5.2819e-05	1043.5	9.9884e-07	3.9336e-06	1128.1	214.11	2.7861e-06	4.6274e-06	273.6	76.338	58.86	17.345	2.2279e-06	24.116	0.00043222	0.00062755	0.00018333	1020.9	6.7847e-06	7.3827e-06	1113.1	212.43	6.6815e-06	7.0413e-06	272.5	76.827	59.352	17.487	6.5818e-06	24.664	217.505	-46.234	-37.872	-109.859	25.672	4.559	-109.789	-102.678	42.125	29.474	-103.006	-96.241	-96.008	-88.274	86.230	-89.324	-8191	255	
28294.547	1	1	0	0	0.24902	0.089811	0.038221	0.22667	0.16375	0.03163	0.25081	0.17892	0.33762	0.11395	0.2206	0.10444	0.36104	0.3566	0.18065	0.29348	0.22083	-1.1375	-0.31042	-0.68125	-1.15	-0.11875	-1.0104	-0.75417	-0.12292	-0.83542	-0.36042	-0.4625	-1.1021	-0.047917	-0.85417	-0.68333	-72.425	47.040	198.015	192.893	59.868	88.751	224.364	182.146	-64.854	28.403	36.135	126.115	213.190	215.605	1.152	117.426	0.00011431	0.00027394	9.695e-05	1044.1	1.1508e-06	2.7372e-06	1130	213.91	2.2115e-06	9.9441e-07	275.46	75.987	58.818	17.427	2.3714e-06	24.462	0.00043562	0.00061821	0.00018029	1021.8	6.5581e-06	7.3899e-06	1114.7	212.77	6.6482e-06	7.2372e-06	272.8	76.762	59.273	17.525	6.6783e-06	24.796	215.819	-22.970	9.572	-109.913	48.230	-46.980	-109.672	-102.863	5.413	44.286	-102.494	-96.561	-95.799	-88.140	9.977	-89.038	-8191	255	
28294.645	1	1	0	0	0.059926	0.11538	0.24486	0.32265	0.25496	0.068507	0.07454	0.14084	0.22352	0.20821	0.057794	0.069746	0.24431	0.17609	0.050266	0.15465	0.23542	-0.92917	-0.32292	-0.44375	-1.0875	-0.10208	-0.74375	-0.75625	0.070833	-0.85625	-0.6625	-0.15833	-1.0333	-0.14375	-0.7375	-0.84792	-10.430	126.694	104.121	231.400	91.092	-51.152	225.799	168.508	202.557	122.755	-53.211	95.674	-71.483	-76.065	100.321	74.987	8.938e-05	0.00043707	7.0507e-05	1038.6	9.7177e-07	2.0396e-06	1135.4	214.71	2.6613e-06	1.801e-06	275.79	75.578	58.954	17.293	1.8236e-06	24.153	0.0004307	0.00063597	0.00017438	1019.9	6.5873e-06	7.2094e-06	1116.8	212.97	6.9849e-06	7.1032e-06	272.96	76.682	59.283	17.432	6.563e-06	24.716	205.490	-20.478	-68.603	-109.977	-22.286	76.510	-110.112	-102.475	-3.575	94.415	-102.663	-95.702	-96.067	-88.144	5.625	-88.933	-8191	255	
28294.764	1	1	0	0	0.10847	0.035898	0.1651	0.15357	0.19453	0.21193	0.10303	0.32668	0.14347	0.20814	0.11523	0.055442	0.10481	0.11975	0.069588	0.2022	0.50208	-0.90417	-0.40417	-0.35625	-0.9125	-0.19792	-0.69167	-1.0479	-0.064583	-0.79375	-0.69167	-0.37083	-0.95	-0.22083	-0.56667	-1.0229	42.737	119.978	56.692	69.394	-47.241	77.826	42.364	142.458	182.148	45.976	221.481	220.803	160.220	214.839	21.236	165.564	0.00011878	0.00030305	2.1504e-05	1045.3	2.0613e-06	3.1326e-06	1127.7	214.31	1.0671e-06	3.6539e-06	274.3	75.441	58.792	17.284	3.296e-06	24.177	0.000433	0.00063441	0.00018242	1021.7	6.7319e-06	7.0995e-06	1113.2	212.14	6.8247e-06	6.8077e-06	272.7	76.467	59.187	17.492	7.0494e-06	24.638	210.106	-6.387	-102.759	-109.753	43.687	45.725	-109.642	-102.356	37.812	21.928	-103.072	-96.116	-95.612	-88.316	-4.249	-89.001	-8191	255	
28294.859	1	1	0	0	0.10191	0.21973	0.21994	0.11207	0.26403	0.16127	0.39984	0.18528	0.17653	0.19791	0.20793	0.074486	0.11453	0.065302	0.13849	0.047307	0.26042	-0.83958	-0.58125	-0.25625	-0.90417	-0.26042	-0.47292	-1.0625	-0.14583	-0.7625	-0.92917	-0.21458	-1.1208	-0.40833	-0.14792	-0.92708	101.826	-68.756	-60.663	226.445	-100.580	56.843	128.978	201.162	133.476	-44.213	174.278	169.736	-104.185	117.468	139.128	189.596	0.0001063	0.00035819	8.5472e-05	1042.3	1.6243e-06	1.65e-06	1124.1	214.27	3.9029e-07	4.1169e-06	274.3	75.327	58.642	17.341	1.4785e-06	24.454	0.00042615	0.0006228	0.00017941	1019.4	6.7973e-06	7.1191e-06	1113	212.69	6.8358e-06	6.9393e-06	272.02	76.54	59.149	17.453	6.7971e-06	24.78	224.539	3.832	-54.450	-109.995	-108.747	45.268	-109.685	-102.492	52.359	23.255	-102.868	-96.665	-96.059	-88.241	27.438	-88.803	-8191	255	
28294.955	1	1	0	0	0.20213	0.17759	0.17779	0.18974	0.080511	0.22913	0.39673	0.045166	0.11649	0.29668	0.26508	0.14013	0.25119	0.21796	0.22451	0.18462	0.275	-0.71042	-0.87292	-0.4375	-1.1333	-0.4125	-0.42292	-1.3646	-0.22083	-0.76667	-1.0833	-0.18125	-0.90208	-0.59792	-0.58333	-1.2542	124.751	-103.546	-81.622	196.914	-64.444	-24.361	125.213	183.432	-51.268	18.256	218.822	123.346	209.421	132.834	65.454	75.900	9.0225e-05	0.00032429	7.2675e-05	1038.5	1.7119e-06	3.4637e-06	1133.4	213.85	1.5789e-06	3.219e-06	273.64	75.502	58.317	17.081	1.9048e-06	24.234	0.00043145	0.00063197	0.00018264	1017.7	6.8125e-06	7.4144e-06	1113.7	212.01	6.7114e-06	7.0117e-06	272.3	76.388	59.006	17.378	6.9462e-06	24.577	227.663	-59.224	-58.932	-109.779	38.078	60.420	-109.656	-102.857	-21.996	-4.531	-103.133	-96.198	-95.988	-88.371	20.756	-88.893	-8191	255	
28295.076	1	1	0	0	0.15094	0.22019	0.02896	0.42185	0.10983	0.15947	0.21811	0.32207	0.11963	0.073105	0.17465	0.06231	0.13341	0.19192	0.067184	0.27115	0.24167	-0.4875	-0.91042	-0.22917	-0.76667	-0.53333	-0.36875	-0.9375	-0.20625	-0.57917	-0.98542	-0.17917	-1.0146	-0.83333	-0.075	-1.0375	230.393	196.557	-68.892	206.310	4.146	210.801	184.237	170.165	-71.412	-118.694	-117.181	135.803	199.806	69.957	170.539	-72.208	9.9895e-05	0.00028942	9.747e-05	1032.6	1.0408e-06	5.3668e-07	1128.1	212.87	1.5078e-06	2.2784e-06	275.66	75.365	58.433	17.268	1.1407e-06	24.324	0.00043044	0.00065032	0.00017783	1017	6.7513e-06	7.1974e-06	1111.4	212.03	6.8106e-06	7.1409e-06	272.66	76.33	59.037	17.37	6.5653e-06	24.717	220.391	-28.516	-20.178	-110.054	101.234	43.757	-109.705	-102.551	5.708	56.691	-102.582	-96.537	-95.979	-88.460	49.095	-88.556	-8191	255	
28295.148	1	1	0	0	0.11959	0.15247	0.26234	0.11183	0.055462	0.17066	0.069896	0.24689	0.071792	0.15058	0.19375	0.057002	0.27899	0.29871	0.20294	0.11723	-0.0041667	-0.25833	-1	-0.27917	-0.67292	-0.9	-0.28958	-1.2917	-0.35	-0.37708	-1.3271	-0.10833	-0.6625	-0.7	-0.022917	-1.1854	-25.799	84.287	215.567	238.213	-116.674	-82.936	-97.912	66.734	27.969	-80.914	11.724	207.300	-72.083	56.073	161.941	-49.158	6.9879e-05	5.6726e-05	4.5854e-05	1038.5	1.1388e-06	3.6781e-06	1127	212.75	8.3773e-07	3.9008e-06	274.55	75.733	58.084	17.239	1.2895e-06	24.379	0.00044226	0.00063433	0.00017453	1016.2	6.8108e-06	7.0726e-06	1111.7	211.88	6.6567e-06	7.2701e-06	272.58	76.362	58.838	17.418	6.9315e-06	24.682	228.147	-11.077	18.911	-109.872	20.850	80.217	-109.448	-102.452	110.671	39.927	-102.546	-96.194	-96.009	-88.697	-26.104	-88.525	-8191	255	
28295.244	1	1	0	0	0.33159	0.10677	0.15506	0.16363	0.20574	0.22812	0.3904	0.20538	0.29775	0.16556	0.33471	0.1638	0.36614	0.10398	0.34734	0.38406	0.045833	-0.14167	-0.96458	-0.275	-0.6375	-0.76667	-0.38958	-1.0688	-0.61042	-0.28958	-1.1938	-0.27083	-0.65208	-0.92708	-0.0083333	-0.8625	-113.749	97.555	-47.696	202.181	209.809	-111.384	181.005	206.249	100.285	-94.857	-112.953	-83.621	-119.867	204.111	-27.974	237.350	9.8575e-05	0.000317	0.0001089	1032.8	1.9136e-06	1.6567e-06	1127.5	211.87	1.7495e-06	2.1235e-06	272.68	75.544	58.541	17.242	3.5884e-06	24.219	0.00043316	0.00065457	0.00018191	1013.8	6.9137e-06	7.4999e-06	1111.2	211.44	7.0486e-06	7.3287e-06	271.4	76.327	58.963	17.414	7.1597e-06	24.587	209.884	-15.068	-20.088	-109.991	6.794	-16.946	-109.628	-102.650	31.092	132.368	-103.024	-96.312	-95.417	-88.530	40.887	-88.975	-8191	255	
28295.342	1	1	0	0	0.20996	0.2976	0.28596	0.17476	0.33671	0.14813	0.33838	0.27711	0.3534	0.23044	0.35928	0.040628	0.18894	0.217	0.16727	0.095232	-0.23333	-0.15833	-1.0688	-0.31875	-0.30208	-1.1146	-0.22083	-1.0229	-0.53125	-0.020833	-1.0792	-0.32917	-0.43542	-1.1167	-0.24583	-0.675	27.355	71.302	238.301	203.603	196.059	204.449	145.024	229.916	188.859	-3.640	226.000	61.161	73.636	-22.698	-108.553	218.977	8.3991e-05	0.00039209	0.00011444	1031.4	1.1148e-06	2.6085e-06	1128	213.41	2.446e-06	2.2043e-06	275.57	75.473	58.416	17.25	1.3397e-06	24.355	0.00044289	0.0006515	0.00017827	1014.1	6.8597e-06	6.9674e-06	1111.2	211.62	6.7264e-06	7.1643e-06	271.54	76.39	58.883	17.357	7.1017e-06	24.647	225.191	-12.657	-41.849	-110.122	81.370	60.258	-110.025	-102.781	36.242	18.269	-102.857	-96.241	-96.053	-88.423	41.448	-88.837	-8191	255	
28295.461	1	1	0	0	0.11885	0.029748	0.02383	0.29367	0.20863	0.028311	0.32808	0.2005	0.087259	0.19551	0.14344	0.28443	0.13072	0.071761	0.13048	0.12108	-0.47083	0	-0.975	-0.64583	-0.48125	-0.94792	-0.46875	-0.69792	-0.74375	-0.16875	-0.93542	-0.65625	-0.33958	-1.2479	-0.31042	-0.8	118.824	-69.882	89.615	169.154	73.099	-12.107	171.120	-107.251	-41.263	-99.574	219.573	152.403	48.422	19.321	94.779	99.531	8.5921e-05	0.00032245	3.9782e-05	1034	1.0095e-06	3.0483e-06	1122.3	211.77	9.6059e-07	2.1805e-06	273.8	75.358	58.725	17.321	1.9464e-06	24.301	0.00042493	0.00064241	0.00016857	1012.9	6.4337e-06	7.0394e-06	1108	210.72	6.323e-06	7.0851e-06	271.64	76.326	58.989	17.404	6.7555e-06	24.685	221.146	0.986	-10.722	-109.926	85.284	62.912	-109.924	-102.485	33.695	43.010	-102.571	-96.304	-95.580	-88.437	45.878	-88.781	-8191	255	
28295.557	1	1	0	0	0.28148	0.38488	0.14215	0.2089	0.17251	0.063111	0.51119	0.24801	0.048132	0.35409	0.26118	0.11323	0.21163	0.2478	0.3454	0.18433	-0.60625	-0.095833	-0.86875	-0.8	-0.083333	-0.94583	-0.50208	-0.61667	-0.88125	-0.15625	-1.0187	-0.6375	-0.26875	-1.1063	-0.275	-0.44792	-17.318	190.687	-3.574	225.687	-54.672	231.958	176.793	73.232	69.190	-100.006	137.377	109.515	231.421	154.540	-115.976	158.705	9.1829e-05	0.00032343	7.1825e-05	1034.6	1.5839e-06	2.063e-06	1121.2	213.16	3.011e-06	2.1946e-06	272.57	75.65	58.293	17.149	3.2032e-06	24.212	0.00041885	0.00061788	0.00016884	1013.9	6.648e-06	6.8373e-06	1107.7	211.36	6.526e-06	6.8024e-06	271.48	76.255	58.881	17.358	6.6331e-06	24.587	229.462	9.536	-24.224	-110.044	64.091	-0.261	-110.065	-102.364	-33.678	3.791	-102.702	-96.415	-96.008	-88.365	20.069	-89.074	-8191	255	
28295.652	1	1	0	0	0.17493	0.1002	0.16801	0.10654	0.11077	0.41988	0.25173	0.28015	0.1173	0.2098	0.17825	0.16624	0.15416	0.20787	0.29675	0.16	-0.625	-0.20417	-0.70417	-0.9875	-0.072917	-0.92292	-0.55417	-0.53125	-1.1604	-0.18333	-0.90625	-0.71042	-0.014583	-1.0271	-0.42917	-0.34375	-5.254	56.812	-59.835	-79.663	41.302	-81.674	219.785	53.283	9.899	238.949	-65.861	28.571	134.663	-16.964	45.008	27.177	0.00011259	0.00028299	6.2607e-05	1031	8.1698e-07	1.1467e-06	1127.7	212.65	8.389e-07	3.4452e-06	273.74	75.021	58.16	17.267	3.07e-06	24.253	0.00042467	0.00061977	0.0001684	1013.9	6.4662e-06	6.9732e-06	1106.5	211.35	6.3888e-06	6.9588e-06	271.07	76.008	58.874	17.396	6.5795e-06	24.558	202.462	-11.150	-32.457	-110.005	-94.243	-2.671	-109.898	-102.399	-21.893	51.602	-102.316	-96.419	-95.665	-88.296	-6.157	-88.802	-8191	255	
28295.748	1	1	0	0	0.12516	0.22862	0.11926	0.30556	0.13686	0.027529	0.17184	0.1304	0.37044	0.13665	0.15652	0.2522	0.2663	0.19619	0.32735	0.16504	-0.675	-0.089583	-0.72708	-1.0187	-0.1	-0.95208	-0.67083	-0.35208	-0.90833	-0.34792	-0.58333	-0.91458	-0.25417	-1.0146	-0.73333	-0.21458	102.769	153.667	-105.642	208.640	84.236	-100.838	-69.993	168.878	-47.484	-105.202	-100.475	188.022	120.423	-107.050	14.328	164.315	9.9297e-05	0.000224	3.3295e-05	1026.6	1.4979e-06	3.1015e-06	1119.8	212.49	8.4693e-07	3.7233e-06	273.41	75.285	58.171	17.197	3.4997e-06	24.575	0.00039944	0.00061341	0.0001668	1010.1	6.3456e-06	6.265e-06	1105.5	210.58	5.8743e-06	6.7162e-06	271.37	76.109	58.874	17.404	5.9355e-06	24.688	227.360	-35.591	-42.824	-109.670	37.399	59.581	-109.976	-102.412	36.404	33.208	-102.400	-95.993	-95.757	-87.487	-0.440	-88.688	-8191	255	
28295.846	1	1	0	0	0.17412	0.25704	0.12507	0.27247	0.074371	0.088893	0.24032	0.19094	0.21276	0.12108	0.072237	0.25093	0.20226	0.27479	0.13936	0.2129	-0.63125	-0.36667	-0.32083	-1.0271	-0.22292	-1.0396	-0.74583	-0.34583	-0.92917	-0.425	-0.79167	-0.91667	-0.027083	-1.0583	-0.74583	-0.16042	3.425	208.720	-33.066	-96.848	-50.119	-89.939	196.728	186.460	1.025	106.761	33.725	174.942	89.618	-12.829	130.142	77.767	6.8025e-05	0.00023124	7.9728e-05	1026.9	1.2496e-06	3.1737e-06	1120.2	213.94	1.6048e-06	4.7718e-06	270.71	75.453	58.312	17.176	1.1568e-06	24.294	0.00037326	0.00055143	0.00015796	1007.6	6.1591e-06	6.011e-06	1102	210.89	5.8453e-06	6.2681e-06	270.07	76.151	58.707	17.324	5.9073e-06	24.596	232.107	-56.823	-17.058	-109.860	31.390	44.388	-109.655	-102.608	-31.776	79.905	-102.862	-96.177	-96.016	-88.072	-2.348	-88.559	-8191	255	
28295.941	1	1	0	0	0.20063	0.084475	0.04895	0.28502	0.084926	0.084659	0.24697	0.091375	0.10969	0.14774	0.28402	0.061623	0.13856	0.20404	0.10022	0.2773	-0.45625	-0.25417	-0.25	-1.2292	0.052083	-0.77292	-0.92917	-0.16458	-1.0562	-0.33333	-0.71042	-1.1187	-0.18958	-0.66875	-0.94167	-0.30208	-70.884	230.891	97.704	220.756	-99.339	73.821	194.897	-95.295	194.767	-37.109	209.731	-107.643	213.282	27.286	91.555	213.015	7.6176e-05	0.00012431	8.4774e-05	1024.1	1.7832e-06	4.0649e-06	1115	211.62	1.3428e-06	4.6331e-06	274.13	75.589	58.27	17.263	2.4379e-06	24.388	0.00038794	0.0005792	0.00015705	1002.9	6.3257e-06	6.3092e-06	1097.4	210.18	5.8978e-06	6.3653e-06	270.78	76.11	58.774	17.379	5.9319e-06	24.648	218.166	-29.651	-45.763	-110.089	5.227	39.627	-109.665	-102.453	2.376	36.964	-102.531	-96.445	-95.606	-88.141	9.069	-88.395	-8191	255	
28296.061	1	1	0	0	0.14461	0.31704	0.21169	0.11594	0.18377	0.29003	0.18236	0.065191	0.12055	0.23389	0.062304	0.17484	0.25714	0.19257	0.18457	0.082676	-0.4875	-0.46875	-0.1875	-1.2354	-0.1875	-0.68542	-0.9875	-0.18542	-0.87292	-0.6	-0.20833	-1.0688	-0.45417	-0.53333	-1.1771	-0.34167	176.235	120.280	23.620	160.339	37.083	210.382	82.126	202.231	230.643	39.099	-60.905	-79.384	236.895	-48.976	3.951	223.531	0.00012415	0.00026125	6.8773e-05	1021.2	1.9052e-06	1.6581e-06	1114.2	211.77	8.2858e-07	1.7684e-06	273.44	75.569	58.401	17.229	1.8783e-06	24.145	0.000386	0.00055126	0.00015565	1002.5	5.6905e-06	6.0648e-06	1096.8	210.46	5.7342e-06	6.0926e-06	270.48	75.931	58.711	17.429	5.6117e-06	24.589	219.501	-42.316	-5.015	-109.665	26.426	60.423	-109.711	-102.444	197.494	106.251	-102.395	-96.146	-95.531	-88.094	-3.797	-88.349	-8191	255	
28296.156	1	1	0	0	0.24861	0.051352	0.37655	0.10558	0.19169	0.058541	0.33536	0.055578	0.17949	0.12941	0.33777	0.027831	0.12538	0.022678	0.12703	0.085677	-0.55625	-0.58125	-0.091667	-1.1583	-0.26875	-0.69583	-1.2646	-0.23958	-0.75833	-0.65833	-0.20208	-1.2396	-0.5125	-0.3625	-0.94792	-0.35208	133.554	209.475	-61.804	-61.140	-86.585	-92.759	179.153	130.177	105.577	-1.054	200.558	58.844	-91.440	39.512	127.575	159.903	9.4146e-05	0.00030937	5.3264e-05	1021.5	8.9571e-07	2.0833e-06	1113.7	211.52	1.9959e-06	4.8496e-07	272.28	75.623	58.217	17.158	3.2165e-06	24.202	0.00038848	0.0005476	0.00015973	1002.5	5.885e-06	6.1215e-06	1098.7	210.37	5.9025e-06	6.0259e-06	270.02	76.029	58.737	17.313	6.0203e-06	24.52	212.510	-49.692	-0.084	-110.020	16.583	-0.747	-109.565	-102.410	4.673	38.473	-102.533	-95.935	-95.683	-88.042	40.057	-88.886	-8191	255	
28296.254	1	1	0	0	0.026278	0.1489	0.22443	0.067433	0.050653	0.085692	0.23363	0.19618	0.17265	0.19355	0.12104	0.30198	0.26629	0.15357	0.2203	0.025954	-0.41042	-0.84792	-0.24167	-1.0729	-0.32917	-0.35417	-1.2271	-0.26667	-0.525	-0.81458	-0.091667	-1.2667	-0.74375	-0.42917	-1.0208	-0.32708	204.180	134.285	-7.064	-94.734	102.454	-65.309	56.001	-103.244	48.082	220.280	56.460	236.465	189.365	178.682	7.899	124.034	0.00011526	0.00024644	0.00011942	1018.4	1.082e-06	2.7679e-06	1107	210.73	1.6474e-06	2.3587e-06	271.69	75.045	58.114	17.078	1.2679e-06	24.242	0.00039965	0.00056754	0.00016717	998.53	6.1047e-06	6.3802e-06	1091	209.4	6.2384e-06	6.4444e-06	269.57	75.853	58.486	17.222	6.0422e-06	24.441	220.479	-10.227	-39.700	-109.800	56.316	51.212	-109.648	-102.533	-36.681	6.580	-102.942	-96.263	-95.603	-87.877	30.421	-88.677	-8191	255	
28296.350	1	1	0	0	0.14034	0.085431	0.39724	0.34732	0.27456	0.11959	0.32815	0.17404	0.10342	0.071086	0.12433	0.10192	0.24263	0.12897	0.16675	0.10949	-0.28333	-0.9	-0.18125	-0.9375	-0.67083	-0.38958	-1.1375	-0.52917	-0.44792	-1.0417	-0.18542	-0.84167	-0.8125	-0.4625	-0.92292	-0.36667	196.886	139.990	64.948	230.966	118.968	-11.014	144.456	195.519	151.346	216.715	-112.595	-54.562	-113.327	-90.237	120.005	-30.159	8.4191e-05	0.00013444	0.00011525	1022.9	1.3218e-06	1.7289e-06	1109	211.03	1.5699e-06	2.2238e-06	271.62	75.136	57.896	17.205	2.2213e-06	24.18	0.00039674	0.00057663	0.00017031	1000.2	6.2532e-06	6.6808e-06	1094.1	209.4	6.147e-06	6.2876e-06	269.28	75.669	58.527	17.259	5.9176e-06	24.455	224.284	-80.325	-44.457	-109.942	97.004	47.703	-109.580	-102.299	48.452	51.742	-102.849	-95.998	-95.573	-88.064	40.883	-88.792	-8191	255	
28296.443	1	1	0	0	0.067567	0.13872	0.14304	0.12273	0.11054	0.21479	0.25844	0.37223	0.14373	0.05235	0.18231	0.24364	0.072553	0.070035	0.20199	0.14474	0.0083333	-1.0625	-0.10833	-0.94583	-0.84792	-0.275	-1.1562	-0.575	-0.37083	-1.3042	-0.28125	-0.93333	-0.84792	-0.16458	-0.9125	-0.4875	-16.098	-51.697	-96.463	-35.325	-108.806	190.264	180.594	220.052	140.319	103.049	224.317	-109.423	50.405	171.825	-9.902	232.560	0.00010949	0.00038349	5.0655e-05	1018.1	1.5041e-06	2.8072e-06	1106.5	210.71	1.329e-06	2.0829e-06	270.1	75.354	58.042	16.957	1.5845e-06	24	0.00038607	0.00054667	0.00016158	999.89	6.1511e-06	6.4782e-06	1092.8	209.54	6.0162e-06	6.2581e-06	269.29	75.805	58.484	17.242	6.0248e-06	24.433	219.828	-22.365	-83.315	-109.641	27.492	48.303	-109.682	-102.438	24.716	47.024	-103.046	-96.192	-95.699	-88.334	9.997	-88.400	-8191	255	
28296.539	1	1	0	0	0.062129	0.31187	0.10091	0.25506	0.25233	0.24259	0.25847	0.062099	0.0844	0.26197	0.064305	0.17135	0.1742	0.25333	0.32832	0.22885	0.19167	-1.2875	-0.32708	-0.63125	-0.87292	-0.16458	-1.075	-0.73333	-0.45625	-1.075	-0.42708	-0.66042	-1.0187	0.00625	-0.81875	-0.62083	-49.626	-24.621	-13.060	-112.672	116.862	85.736	-38.863	-105.302	163.453	166.544	71.104	79.198	214.431	204.869	185.130	-39.395	0.00011841	0.00027291	8.4992e-05	1023.8	1.5264e-06	2.9393e-06	1107.7	210.18	1.0846e-06	2.9559e-06	271.67	75.487	57.962	17.011	1.652e-06	24.143	0.00039188	0.00056102	0.00016418	1000.8	6.1958e-06	6.4479e-06	1094.9	209.15	6.0388e-06	6.0516e-06	269.29	75.818	58.456	17.27	6.2539e-06	24.51	221.185	-51.980	-19.478	-109.720	32.248	3.987	-109.428	-102.340	-29.183	42.963	-102.742	-96.071	-95.761	-88.013	8.899	-88.374	-8191	255	
28296.637	1	1	0	0	0.17889	0.12694	0.18723	0.34879	0.069268	0.15535	0.47003	0.25523	0.38166	0.11037	0.13891	0.26337	0.16216	0.057862	0.038022	0.27838	0.17083	-1.0354	-0.33125	-0.72083	-1.0854	-0.0125	-1.0021	-0.73125	-0.08125	-1.1875	-0.49375	-0.525	-0.98542	-0.18958	-0.61667	-1.0167	227.668	-73.110	-49.563	191.371	234.984	67.005	153.546	184.936	99.574	121.637	32.552	-114.906	36.909	193.646	-22.587	49.015	7.3427e-05	0.00044143	6.7019e-05	1018.7	8.1933e-07	1.2539e-06	1103.5	211.29	5.9243e-07	2.3904e-06	272.37	74.771	58.023	17.149	1.9203e-06	24.167	0.00039822	0.00055782	0.00016054	995.95	6.0339e-06	6.6112e-06	1090.9	209.24	6.0841e-06	6.4073e-06	269.41	75.646	58.483	17.27	6.2204e-06	24.467	217.860	-27.381	-23.599	-109.900	46.123	-2.430	-109.560	-102.601	-32.397	45.838	-102.776	-95.799	-95.675	-88.247	-19.701	-88.429	-8191	255	
28296.732	1	1	0	0	0.12377	0.090107	0.11884	0.1165	0.13842	0.32617	0.29598	0.10657	0.073445	0.1263	0.25984	0.13033	0.26697	0.027319	0.18602	0.12482	0.058333	-0.82917	-0.41667	-0.65417	-1.2875	-0.22292	-0.99792	-0.93958	-0.0083333	-1.0292	-0.56667	-0.34792	-1.0104	-0.3125	-0.74583	-1.0438	-14.002	-43.266	161.118	197.329	116.313	92.084	197.964	199.771	44.987	220.637	-17.525	64.957	230.285	198.296	-31.604	-78.353	0.00012169	0.00026783	8.71e-05	1020	2.8679e-06	3.2845e-06	1110.2	212.12	1.6025e-06	1.2183e-06	271.62	74.899	57.888	17.21	8.6463e-07	24.242	0.00039608	0.00057167	0.00016539	999.07	6.2059e-06	6.5104e-06	1094.4	209.6	6.1038e-06	6.6132e-06	268.98	75.82	58.465	17.233	6.2423e-06	24.474	225.343	-38.279	-39.076	-109.562	-10.835	19.879	-109.658	-102.426	-24.563	62.832	-102.870	-95.772	-95.845	-88.679	-7.528	-88.550	-8191	255	
28296.854	1	1	0	0	0.23883	0.1677	0.26186	0.22248	0.20929	0.22221	0.26323	0.093105	0.30878	0.053027	0.22357	0.073587	0.13681	0.28361	0.16091	0.18913	0.12708	-0.875	-0.8	-0.4125	-1.1479	-0.5375	-0.87292	-1.0854	-0.16458	-0.9125	-0.81042	-0.35625	-1.1083	-0.43542	-0.4	-1.1938	200.221	156.142	196.521	224.287	77.541	171.693	194.194	220.092	-84.904	45.456	-108.886	-93.366	234.276	-71.933	-116.279	53.322	0.00010957	0.00014108	0.00011225	1019	7.6259e-07	1.7974e-06	1107.9	209.85	2.3787e-06	3.0989e-06	270.61	74.748	57.983	17.144	2.7737e-06	24.182	0.00040155	0.00057453	0.00016438	999.12	6.1937e-06	6.6165e-06	1093.7	209.21	6.2982e-06	6.7657e-06	268.83	75.651	58.418	17.262	6.0512e-06	24.457	217.485	-40.321	-47.312	-109.829	39.929	58.283	-109.748	-102.719	1.512	28.828	-102.390	-95.682	-95.701	-88.565	40.682	-88.534	-8191	255	
28296.949	1	1	0	0	0.10691	0.36998	0.15749	0.30061	0.10629	0.28265	0.33374	0.060531	0.20527	0.35284	0.17438	0.37394	0.1817	0.046884	0.12905	0.17504	0.10417	-1.0021	-0.62292	-0.29375	-1.1083	-0.49792	-0.71875	-1.0729	-0.17083	-0.80417	-0.99583	-0.29375	-1.2521	-0.50625	-0.54583	-1.3188	-112.085	162.352	-62.342	-109.607	143.164	-34.095	190.521	107.600	79.351	-79.660	89.164	-104.607	-90.041	-9.449	-105.144	148.029	0.00010229	0.00032118	6.4403e-05	1018.8	1.5024e-06	2.559e-06	1112.3	210.73	1.3164e-06	3.1772e-06	268.97	74.82	57.848	17.194	1.7445e-06	24.027	0.00040253	0.00057617	0.00016698	998.89	6.3008e-06	6.6515e-06	1094.7	209.33	6.5256e-06	6.7557e-06	267.85	75.607	58.495	17.282	6.438e-06	24.406	219.883	-39.143	8.116	-109.707	-3.144	28.845	-109.698	-102.248	81.385	30.528	-102.648	-96.032	-95.579	-87.902	39.315	-88.717	-8191	255	
28297.021	1	1	0	0	0.16893	0.086597	0.052415	0.054511	0.082037	0.14924	0.42822	0.14189	0.18727	0.12094	0.3782	0.30868	0.072911	0.06582	0.16152	0.35232	0.025	-0.81875	-0.75833	-0.24792	-0.95208	-0.71458	-0.41667	-1.1708	-0.20625	-0.75208	-1.0688	-0.3125	-1.1333	-0.75	-0.18125	-1.2875	190.920	88.999	-117.187	-108.379	-98.625	152.414	124.690	158.066	12.506	124.809	227.761	-48.778	-109.191	-94.034	154.296	235.866	8.8387e-05	0.00019928	9.8534e-05	1024.2	1.5987e-06	2.4055e-06	1113.8	210.34	1.3118e-06	3.3754e-06	271.07	74.864	58.336	17.312	1.8772e-06	24.059	0.00041271	0.00060992	0.00016577	1000.7	6.3502e-06	6.844e-06	1095.5	209.06	6.3508e-06	6.6694e-06	269.51	75.739	58.543	17.34	6.5331e-06	24.479	217.348	-89.699	-33.559	-109.647	28.349	32.077	-109.481	-102.224	-6.804	11.009	-102.908	-96.066	-95.756	-88.169	40.982	-88.255	-8191	255	
28297.143	1	1	0	0	0.16026	0.20426	0.21254	0.2675	0.10465	0.19092	0.43707	0.2366	0.066835	0.24872	0.41374	0.1054	0.19079	0.12629	0.12828	0.089341	0.11875	-0.575	-0.79583	-0.35417	-0.9	-0.7875	-0.41667	-1.175	-0.175	-0.59583	-1.1063	-0.020833	-0.80208	-0.73958	-0.20833	-1.1667	169.939	-24.682	221.428	191.635	16.102	158.250	153.340	224.562	224.420	-108.689	137.868	210.799	-104.677	-116.979	51.737	43.567	0.00010346	0.00028938	0.00010138	1021.2	1.996e-06	1.6181e-06	1110.5	211.51	1.6181e-06	2.1088e-06	270.48	74.724	58.145	17.177	2.8704e-06	24.199	0.00042059	0.00057996	0.00016449	999.1	6.1916e-06	6.7485e-06	1096.3	209.97	6.3837e-06	6.6194e-06	268.63	75.718	58.54	17.326	6.35e-06	24.469	218.817	-47.016	-36.791	-109.744	-82.941	-14.641	-109.441	-102.384	-4.311	23.204	-102.646	-95.980	-95.453	-88.183	8.301	-88.498	-8191	255	
28297.238	1	1	0	0	0.13673	0.079756	0.16777	0.19552	0.1728	0.3032	0.32138	0.12092	0.19044	0.25035	0.32407	0.10325	0.21916	0.13634	0.22672	0.03464	-0.0083333	-0.30417	-0.96875	-0.31042	-0.85	-0.99792	-0.38125	-1.175	-0.47083	-0.48333	-1.0583	-0.20625	-0.75208	-1.0229	-0.19792	-1.1396	224.254	-73.266	117.943	-118.537	-117.336	12.074	185.775	-93.152	-52.676	143.003	104.746	130.420	-73.475	-4.332	95.533	79.583	0.0001078	0.0001304	7.4541e-05	1019.6	1.6498e-06	3.787e-06	1111.5	210.99	2.5902e-06	3.2403e-06	271.92	75.047	58.066	16.965	3.0231e-06	24.172	0.00040635	0.00059721	0.00016994	1000.1	6.3017e-06	6.6496e-06	1095.5	209.48	6.4486e-06	6.7729e-06	269.87	75.776	58.61	17.225	6.4478e-06	24.5	216.361	-52.270	40.885	-109.949	22.056	66.547	-109.599	-102.187	30.279	59.326	-102.689	-95.954	-95.452	-88.037	23.927	-88.620	-8191	255	
28297.334	1	1	0	0	0.066905	0.31997	0.014325	0.31965	0.043052	0.060339	0.18985	0.24759	0.084075	0.098435	0.16124	0.34707	0.24553	0.020963	0.015077	0.1954	-0.041667	-0.31875	-1.0458	-0.55833	-0.74167	-0.97083	-0.34167	-1.2354	-0.67292	-0.32917	-0.96458	-0.54792	-0.77292	-1.1667	-0.08125	-0.99583	208.291	64.702	-100.166	184.277	227.076	34.743	159.899	200.099	212.336	-59.153	-91.281	208.335	181.856	-108.232	-12.179	83.284	7.1313e-05	0.00028311	0.00010566	1016	1.2133e-06	1.8012e-06	1107.5	211.43	2.1883e-06	4.5689e-07	271.69	74.831	58.255	17.081	2.4282e-06	24.206	0.00041095	0.000597	0.00017219	995.61	6.3599e-06	6.7571e-06	1092.5	209.71	6.2931e-06	6.6647e-06	269.15	75.717	58.464	17.237	6.5242e-06	24.499	220.067	-54.478	-15.101	-109.613	49.211	35.993	-109.617	-102.284	0.423	161.654	-102.740	-96.179	-95.926	-88.208	30.083	-88.444	-8191	255	
28297.430	1	1	0	0	0.28927	0.23649	0.10629	0.18187	0.32199	0.17578	0.3392	0.095392	0.19305	0.22539	0.049165	0.22905	0.23224	0.40503	0.19749	0.28063	-0.40208	-0.1875	-1.0479	-0.6125	-0.59375	-1.1417	-0.41667	-1.225	-0.925	-0.32292	-1.2437	-0.51042	-0.51042	-0.97708	-0.175	-0.97292	53.498	124.059	171.286	71.753	214.929	-80.362	112.741	213.448	-4.903	-108.958	-8.628	216.242	-73.219	201.200	227.872	200.666	0.00010469	0.00017608	0.00010545	1014.8	8.8814e-07	2.895e-06	1105.8	212	2.28e-06	3.3489e-06	270.5	75.045	58.135	17.078	2.1637e-06	23.885	0.00040309	0.0006116	0.00016735	999.03	6.3654e-06	6.6299e-06	1093.7	209.85	6.1893e-06	6.7281e-06	268.96	75.63	58.53	17.255	6.4518e-06	24.417	206.491	-35.145	-45.364	-109.918	51.702	20.631	-109.555	-101.963	33.495	72.276	-102.318	-96.311	-95.567	-88.325	83.398	-88.153	-8191	255	
28297.549	1	1	0	0	0.11666	0.12535	0.12267	0.056616	0.091564	0.23798	0.070496	0.056331	0.28985	0.082588	0.18344	0.29358	0.24022	0.081338	0.15108	0.17554	-0.47917	-0.14583	-1.1958	-0.63125	-0.39792	-1.2146	-0.54167	-0.56458	-1.0083	-0.18333	-1.0958	-0.61042	-0.35625	-1.1979	-0.17708	-0.67708	25.227	226.657	9.075	-44.443	20.804	164.145	139.918	155.612	34.547	222.127	120.617	237.360	224.246	55.707	-60.162	-67.990	8.5256e-05	0.00022295	9.7691e-05	1015.1	1.0349e-06	1.7305e-06	1106.8	211.88	2.393e-06	2.0649e-06	272.52	75.088	57.911	17.195	2.083e-06	24.406	0.00039383	0.00059885	0.0001672	997.08	6.2591e-06	6.5512e-06	1092.3	209.87	6.1636e-06	6.606e-06	269.63	75.758	58.529	17.261	6.5e-06	24.54	220.894	-13.154	-17.168	-109.806	43.807	68.165	-109.642	-102.040	-27.660	36.846	-102.366	-95.606	-95.707	-88.314	-26.492	-88.632	-8191	255	
28297.645	1	1	0	0	0.29791	0.2503	0.33866	0.27326	0.13205	0.28817	0.083425	0.082613	0.13813	0.17979	0.12491	0.062299	0.2012	0.41408	0.034456	0.073561	-0.63333	-0.16875	-0.89583	-0.79167	-0.1375	-1.1146	-0.5125	-0.63333	-1.0833	-0.29583	-1.2271	-0.81042	-0.21667	-1.1208	-0.47292	-0.6	38.863	-4.160	58.140	220.206	-4.302	53.801	216.597	-106.774	-89.396	-45.109	-68.303	-8.576	169.088	181.400	91.824	-119.038	9.5545e-05	0.00018209	5.5103e-05	1018.7	2.4102e-06	3.7109e-06	1107.5	210.51	2.5821e-06	2.9052e-06	270.81	75.1	58.009	16.997	2.0742e-06	23.857	0.00040459	0.00058917	0.00016579	998.17	6.3764e-06	6.4782e-06	1092.8	209.62	6.2636e-06	6.8077e-06	268.39	75.456	58.453	17.224	6.5827e-06	24.389	217.656	-42.698	0.209	-109.750	-28.905	50.503	-109.692	-102.151	-30.993	40.482	-102.791	-96.100	-96.009	-87.805	51.894	-88.336	-8191	255	
28297.740	1	1	0	0	0.075529	0.19611	0.1224	0.21917	0.26215	0.11594	0.27088	0.078291	0.15436	0.28358	0.19162	0.22048	0.069354	0.19673	0.1625	0.053956	-0.75625	-0.35208	-0.9	-1.0479	-0.39375	-1.2083	-0.44167	-0.49167	-1	-0.35208	-0.88958	-0.95	-0.33333	-1.0875	-0.55417	-0.35417	-92.788	19.171	109.703	192.555	-107.436	-43.177	175.834	123.527	-36.287	-34.725	108.654	155.533	85.006	173.645	141.069	208.903	0.00010591	0.00019434	5.058e-05	1018.5	1.5053e-06	3.0073e-06	1107.1	210.33	9.5159e-07	1.8863e-06	272.81	74.758	57.75	17.151	3.8727e-06	24.092	0.00039995	0.00059932	0.00016717	996.48	6.1941e-06	6.6832e-06	1090.9	209.17	6.2944e-06	6.6818e-06	269.19	75.358	58.312	17.225	6.2794e-06	24.411	227.711	69.098	-14.670	-109.770	29.404	68.696	-109.452	-102.129	1.054	100.240	-102.331	-96.067	-95.472	-88.249	13.726	-88.926	-8191	255	
28297.838	1	1	0	0	0.059774	0.091657	0.091469	0.23705	0.31179	0.32534	0.1534	0.016198	0.18409	0.1233	0.22527	0.20333	0.26114	0.028797	0.14388	0.05509	-0.76042	-0.24583	-0.73958	-1.1229	-0.21875	-0.925	-0.95625	-0.46458	-1.1354	-0.29583	-0.7875	-1.2625	-0.19583	-0.96458	-0.68125	-0.27917	-0.213	8.079	50.225	232.308	-114.132	200.941	179.025	-61.077	5.013	-81.513	218.413	-84.770	216.454	-60.068	-80.898	82.140	0.00011318	0.00038017	9.8151e-05	1015.1	2.1531e-06	4.3831e-06	1109	210.44	1.1877e-06	2.0524e-06	270.9	74.079	58.356	16.981	9.1918e-07	24.164	0.0003977	0.00058787	0.00016197	998.05	6.424e-06	6.5329e-06	1094.9	208.91	6.0256e-06	6.4754e-06	268.7	75.284	58.494	17.196	6.207e-06	24.435	220.591	-0.176	-36.358	-109.771	74.875	32.218	-109.615	-102.185	20.472	15.785	-102.457	-95.687	-95.903	-88.069	51.063	-88.416	-8191	255	
28297.934	1	1	0	0	0.27948	0.18231	0.2684	0.28884	0.16778	0.085974	0.23677	0.19755	0.18369	0.26433	0.18616	0.14997	0.1638	0.26439	0.028728	0.087279	-0.75208	-0.54167	-0.6375	-1.2021	-0.18125	-0.97083	-1.1729	-0.325	-1.2542	-0.525	-0.39792	-1.225	-0.18125	-0.86667	-0.94583	-0.27083	-85.851	36.709	13.804	89.907	-57.720	-97.058	175.092	227.164	202.712	92.911	-99.067	229.659	2.954	-109.757	52.923	-109.439	8.5521e-05	0.00023608	9.9057e-05	1020.7	2.9334e-06	4.0065e-06	1107.4	210.83	2.2777e-06	2.919e-06	271.77	74.76	57.82	17.23	8.7172e-07	23.992	0.00040302	0.00058682	0.00016141	997.14	6.2793e-06	6.8378e-06	1092.2	209.21	5.9812e-06	6.5712e-06	268.81	75.486	58.446	17.315	6.2566e-06	24.431	219.443	-42.745	-37.632	-109.778	10.417	54.743	-109.854	-102.176	8.717	25.066	-102.275	-96.305	-96.085	-87.856	32.628	-88.785	-8191	255	
#DATA ENDS
