BOXY.EXE: ISS Imagent and Oximeter Data Acquisition Program Version 0.80
Ascii Record File

#ACQ INFORMATION
2  Detector Channels 
16  External MUX Channels 
1  Auxiliary Channels 
5000  Waveform (CCF) Frequency (Hz)
1  Waveforms Skipped 
30  Waveforms Averaged 
1  Cycles Averaged 
16  Acquisitions per Waveform 
10.0806  Updata Rate (Hz) 

#FILE INFORMATION
TRUE -- External MUX Channel results are PARSED.
FALSE -- AC DC and Phase are NOT grouped.
TRUE -- Companion Program Settings File CREATED.
FALSE -- AC data not excluded
FALSE -- DC data not excluded
FALSE -- Phase data not excluded
FALSE -- Auxillary Chn. data not excluded
Tab delimiters

#CALIBRATION STATE
TRUE -- Waveform Calibration Values APPLIED.


#AUX CALIBRATION VALUES
Val Type	aux-1	

Term	1.0000e+00	
Factor	0.0000e+00	


#WF CALIBRATION VALUES
A = Detector Channel
Val Type	A-AC1	A-AC2	A-AC3	A-AC4	A-AC5	A-AC6	A-AC7	A-AC8	A-AC9	A-AC10	A-AC11	A-AC12	A-AC13	A-AC14	A-AC15	A-AC16	A-DC1	A-DC2	A-DC3	A-DC4	A-DC5	A-DC6	A-DC7	A-DC8	A-DC9	A-DC10	A-DC11	A-DC12	A-DC13	A-DC14	A-DC15	A-DC16	A-Ph1	A-Ph2	A-Ph3	A-Ph4	A-Ph5	A-Ph6	A-Ph7	A-Ph8	A-Ph9	A-Ph10	A-Ph11	A-Ph12	A-Ph13	A-Ph14	A-Ph15	A-Ph16	

Term	0.00000e+00	0.00000e+00	0.00000e+00	0.00000e+00	0.00000e+00	0.00000e+00	0.00000e+00	0.00000e+00	0.00000e+00	0.00000e+00	0.00000e+00	0.00000e+00	0.00000e+00	0.00000e+00	0.00000e+00	0.00000e+00	0.00000e+00	0.00000e+00	0.00000e+00	0.00000e+00	0.00000e+00	0.00000e+00	0.00000e+00	0.00000e+00	0.00000e+00	0.00000e+00	0.00000e+00	0.00000e+00	0.00000e+00	0.00000e+00	0.00000e+00	0.00000e+00	0.00000e+00	0.00000e+00	0.00000e+00	0.00000e+00	0.00000e+00	0.00000e+00	0.00000e+00	0.00000e+00	0.00000e+00	0.00000e+00	0.00000e+00	0.00000e+00	0.00000e+00	0.00000e+00	0.00000e+00	0.00000e+00	
Factor	1.00000e+00	1.00000e+00	1.00000e+00	1.00000e+00	1.00000e+00	1.00000e+00	1.00000e+00	1.00000e+00	1.00000e+00	1.00000e+00	1.00000e+00	1.00000e+00	1.00000e+00	1.00000e+00	1.00000e+00	1.00000e+00	1.00000e+00	1.00000e+00	1.00000e+00	1.00000e+00	1.00000e+00	1.00000e+00	1.00000e+00	1.00000e+00	1.00000e+00	1.00000e+00	1.00000e+00	1.00000e+00	1.00000e+00	1.00000e+00	1.00000e+00	1.00000e+00	X	X	X	X	X	X	X	X	X	X	X	X	X	X	X	X	

B = Detector Channel
Val Type	B-AC1	B-AC2	B-AC3	B-AC4	B-AC5	B-AC6	B-AC7	B-AC8	B-AC9	B-AC10	B-AC11	B-AC12	B-AC13	B-AC14	B-AC15	B-AC16	B-DC1	B-DC2	B-DC3	B-DC4	B-DC5	B-DC6	B-DC7	B-DC8	B-DC9	B-DC10	B-DC11	B-DC12	B-DC13	B-DC14	B-DC15	B-DC16	B-Ph1	B-Ph2	B-Ph3	B-Ph4	B-Ph5	B-Ph6	B-Ph7	B-Ph8	B-Ph9	B-Ph10	B-Ph11	B-Ph12	B-Ph13	B-Ph14	B-Ph15	B-Ph16	

Term	0.00000e+00	0.00000e+00	0.00000e+00	0.00000e+00	0.00000e+00	0.00000e+00	0.00000e+00	0.00000e+00	0.00000e+00	0.00000e+00	0.00000e+00	0.00000e+00	0.00000e+00	0.00000e+00	0.00000e+00	0.00000e+00	0.00000e+00	0.00000e+00	0.00000e+00	0.00000e+00	0.00000e+00	0.00000e+00	0.00000e+00	0.00000e+00	0.00000e+00	0.00000e+00	0.00000e+00	0.00000e+00	0.00000e+00	0.00000e+00	0.00000e+00	0.00000e+00	-1.59263e+02	-1.35366e+02	-1.22785e+02	-1.81606e+02	-7.89346e+01	-5.72216e+01	-1.56575e+02	-1.62015e+02	-7.73410e+01	-6.58398e+01	-1.71773e+02	-1.69662e+02	-1.85582e+02	-1.76518e+02	-7.73154e+01	-1.48785e+02	
Factor	2.57673e-05	1.35732e-04	4.29484e-05	1.60521e-01	1.34668e-06	1.50830e-06	1.73562e-01	5.04505e-02	1.28541e-06	1.76270e-06	8.78298e-02	2.84354e-02	2.48919e-02	9.05555e-03	1.36247e-06	1.28161e-02	7.70257e-06	9.89319e-06	2.77655e-06	8.54020e-02	1.04570e-07	1.10558e-07	8.68692e-02	2.69635e-02	1.04314e-07	1.10505e-07	4.53325e-02	1.47671e-02	1.33880e-02	4.87488e-03	1.06932e-07	6.69256e-03	X	X	X	X	X	X	X	X	X	X	X	X	X	X	X	X	



#DISTANCE SETTINGS
A = Detector Channel
A-1	A-2	A-3	A-4	A-5	A-6	A-7	A-8	A-9	A-10	A-11	A-12	A-13	A-14	A-15	A-16	

2.5000e+00	3.0000e+00	2.5000e+00	3.0000e+00	2.0000e+00	3.0000e+00	1.5000e+00	3.0000e+00	3.0000e+00	3.0000e+00	3.0000e+00	3.0000e+00	3.0000e+00	3.0000e+00	1.5000e+00	3.0000e+00	

B = Detector Channel
B-1	B-2	B-3	B-4	B-5	B-6	B-7	B-8	B-9	B-10	B-11	B-12	B-13	B-14	B-15	B-16	

1.0000e+01	1.0000e+01	1.0000e+01	1.4400e+00	1.0000e+01	1.0000e+01	1.5100e+00	1.9400e+00	1.0000e+01	1.0000e+01	1.9900e+00	2.4900e+00	2.4100e+00	2.9000e+00	1.0000e+01	2.9800e+00	




#DATA BEGINS
time	group	step	mark	flag	A-AC1	A-AC2	A-AC3	A-AC4	A-AC5	A-AC6	A-AC7	A-AC8	A-AC9	A-AC10	A-AC11	A-AC12	A-AC13	A-AC14	A-AC15	A-AC16	A-DC1	A-DC2	A-DC3	A-DC4	A-DC5	A-DC6	A-DC7	A-DC8	A-DC9	A-DC10	A-DC11	A-DC12	A-DC13	A-DC14	A-DC15	A-DC16	A-Ph1	A-Ph2	A-Ph3	A-Ph4	A-Ph5	A-Ph6	A-Ph7	A-Ph8	A-Ph9	A-Ph10	A-Ph11	A-Ph12	A-Ph13	A-Ph14	A-Ph15	A-Ph16	B-AC1	B-AC2	B-AC3	B-AC4	B-AC5	B-AC6	B-AC7	B-AC8	B-AC9	B-AC10	B-AC11	B-AC12	B-AC13	B-AC14	B-AC15	B-AC16	B-DC1	B-DC2	B-DC3	B-DC4	B-DC5	B-DC6	B-DC7	B-DC8	B-DC9	B-DC10	B-DC11	B-DC12	B-DC13	B-DC14	B-DC15	B-DC16	B-Ph1	B-Ph2	B-Ph3	B-Ph4	B-Ph5	B-Ph6	B-Ph7	B-Ph8	B-Ph9	B-Ph10	B-Ph11	B-Ph12	B-Ph13	B-Ph14	B-Ph15	B-Ph16	aux-1	digaux	

7257.729	1	1	0	256	0.25001	0.090367	0.23796	0.26751	0.14213	0.29762	0.35483	0.18317	0.24858	0.14206	0.33336	0.32118	0.30232	0.11746	0.086597	0.35955	-0.76667	0.1375	-0.63333	-0.88958	-0.26042	-0.81875	-0.26875	-0.37708	-1.0063	-0.31875	-0.88125	-0.92917	-0.0083333	-1.1021	-0.35625	-0.20208	312.370	273.122	474.193	457.764	363.019	266.952	278.810	218.947	272.606	292.249	510.905	511.305	329.061	490.107	226.615	496.807	0.00019724	0.001311	0.0002002	993.52	1.0975e-06	1.5777e-05	600.02	260.57	2.1403e-05	1.5204e-05	175.12	64.131	98.441	41.743	1.0103e-05	27.53	0.032441	0.041725	0.011756	1305.5	0.00044147	0.00046864	939.98	363.97	0.0004428	0.00047008	359.43	124.33	151.6	61.182	0.00045598	55.003	509.843	464.470	414.599	184.338	276.813	299.742	182.640	189.765	348.919	290.760	186.501	190.353	193.685	198.274	258.703	194.192	-8191	255	
7257.825	1	1	0	0	0.011536	0.19034	0.15503	0.08557	0.091742	0.17539	0.2866	0.06092	0.04358	0.13817	0.12879	0.19127	0.27338	0.14685	0.13445	0.28128	-0.58333	-0.1125	-0.83958	-0.88958	-0.2625	-0.96042	-0.62708	-0.4125	-0.87917	-0.47292	-0.71458	-0.97708	-0.22292	-0.95417	-0.35625	-0.27292	253.651	429.235	201.669	487.585	310.611	288.225	478.778	393.094	420.310	222.827	392.044	490.760	499.816	236.657	190.426	508.569	0.000829	0.0010475	0.0010471	1007.3	6.6955e-06	1.7441e-05	607.74	263.48	8.6787e-06	1.3126e-05	177.91	65.275	99.826	42.042	2.2645e-05	28.228	0.03306	0.042418	0.011946	1322.1	0.00044824	0.00047584	955.86	367.57	0.00044886	0.00047675	365.32	126.47	153.14	61.869	0.00046329	56.143	526.470	201.712	175.434	184.288	220.527	247.358	182.691	189.105	247.255	233.992	186.715	190.933	193.883	198.432	323.951	194.048	-8191	255	
7257.921	1	1	0	0	0.12523	0.3063	0.14338	0.16683	0.17101	0.10892	0.11713	0.56793	0.16536	0.25284	0.16041	0.12935	0.15782	0.19708	0.12661	0.27967	-0.82917	-0.31458	-0.55625	-1.0167	-0.070833	-0.72083	-0.70833	-0.21042	-0.89583	-0.19167	-0.6375	-1.1396	-0.36458	-1.0458	-1	-0.29375	377.422	367.574	482.694	213.899	207.462	174.579	307.355	507.888	232.527	479.988	432.556	498.204	411.043	419.333	193.631	394.811	0.00027274	0.0024798	0.00031318	1009.8	4.0748e-05	1.3938e-05	629.99	266.49	1.5404e-05	2.4871e-05	184.82	67.292	100.98	42.853	2.7336e-05	28.716	0.033528	0.043036	0.012124	1334.5	0.00045505	0.00048292	978.57	372.61	0.00045691	0.00048518	373.42	129.51	155.65	62.698	0.00046966	57.11	208.157	208.760	337.382	184.377	298.169	274.518	181.837	189.478	397.414	452.168	187.310	190.044	193.351	198.682	294.505	194.499	-8191	255	
7258.042	1	1	0	0	0.29919	0.09279	0.30706	0.3117	0.24866	0.16643	0.36321	0.30188	0.1882	0.12935	0.19391	0.11262	0.27957	0.14558	0.28372	0.19661	-0.7875	-0.29583	-0.50833	-1.2396	-0.22917	-0.8	-1.1187	-0.27708	-1.0438	-0.78542	-0.47292	-1.0875	-0.325	-0.8875	-0.94792	-0.175	409.795	247.525	435.798	459.393	222.452	426.995	483.836	488.875	493.127	206.097	373.266	403.878	171.983	529.955	481.371	319.019	0.0001247	0.0021345	0.00049508	1028.3	4.7618e-06	1.9572e-05	650.6	269.11	1.2134e-05	5.0219e-06	184.04	67.804	101.02	42.807	2.4325e-05	28.413	0.033972	0.043425	0.012263	1355.5	0.00046045	0.00048716	1001	376.09	0.00045988	0.00048817	376.58	129.81	155.62	62.687	0.00047121	56.786	461.626	528.089	491.422	184.224	418.434	391.728	182.549	189.314	225.676	364.919	187.069	190.552	194.016	198.382	321.356	194.659	-8191	255	
7258.138	1	1	0	0	0.17853	0.15276	0.15275	0.36492	0.14091	0.23152	0.24418	0.19583	0.080358	0.14953	0.26699	0.16871	0.3078	0.12311	0.13181	0.12177	-0.66042	-0.42917	-0.22083	-1.0021	-0.27708	-0.53333	-1.0083	-0.34375	-1.0833	-0.56458	-0.23542	-0.95	-0.46042	-0.74375	-1.1125	0.0125	390.194	310.788	235.207	485.121	429.553	212.773	402.982	424.010	504.735	513.433	497.658	459.833	502.142	217.523	186.158	518.129	0.00062708	0.0011031	0.00043456	1009.3	1.2029e-05	2.9679e-05	620.94	263.58	1.5814e-05	2.6242e-05	176.06	64.564	98.972	42.182	1.0273e-05	27.511	0.033987	0.043519	0.012217	1337.7	0.00045749	0.0004839	964.24	368.62	0.00045357	0.0004786	364.85	126.12	152.69	61.797	0.00046213	55.334	178.607	507.048	501.083	184.557	180.523	227.657	182.904	189.733	219.681	426.315	186.199	190.086	193.723	198.636	336.782	193.750	-8191	255	
7258.210	1	1	0	0	0.25905	0.10771	0.13334	0.029541	0.33391	0.16685	0.10354	0.071423	0.07877	0.037013	0.2271	0.18479	0.14131	0.32551	0.15637	0.032054	-0.57708	-0.63333	-0.16667	-1.2208	-0.37708	-0.27292	-1.1167	-0.31042	-0.77083	-0.75833	-0.3125	-1.1104	-0.44375	-0.41458	-1.0229	-0.29167	504.524	453.483	357.370	468.106	437.274	176.153	376.551	431.028	515.732	424.754	279.900	439.121	186.417	187.930	480.944	179.705	0.00053807	0.0021898	0.00037242	989.54	1.029e-05	1.465e-05	605.41	263.73	2.4045e-05	2.8233e-05	174.48	65.603	99.59	42.843	1.3122e-06	28.243	0.033412	0.042864	0.012002	1320.5	0.00045193	0.00047947	954.21	368.95	0.00045192	0.00047853	364.43	126.94	153.64	62.233	0.00046251	56.263	182.847	289.079	426.087	184.627	216.988	382.441	182.792	189.603	236.459	477.461	186.813	190.403	193.784	198.531	232.704	194.135	-8191	255	
7258.306	1	1	0	0	0.20203	0.1552	0.14302	0.34678	0.16806	0.054724	0.27158	0.12815	0.11058	0.12961	0.13341	0.087406	0.16846	0.087399	0.26511	0.34881	-0.25833	-0.88958	-0.30833	-1.2896	-0.65208	-0.34792	-1.1604	-0.29375	-0.87083	-0.95417	-0.058333	-0.91875	-0.78125	-0.325	-1.1542	-0.3125	521.175	265.408	420.751	211.184	304.883	231.725	299.960	482.321	201.502	214.961	201.506	382.291	495.790	235.455	222.750	462.913	0.00048303	0.0011965	0.00035418	1006.7	1.1754e-05	3.3354e-05	618.13	265.94	2.3735e-05	2.6169e-05	179.08	67.319	99.983	42.843	9.0469e-06	29.196	0.033589	0.043117	0.012067	1328.8	0.00045563	0.00048218	969.25	370.99	0.00045657	0.00048407	371.27	128.69	154.73	62.799	0.00046886	57.255	501.552	392.508	220.457	184.199	234.075	241.345	182.877	189.614	292.866	370.994	186.451	190.600	194.227	198.506	448.694	194.415	-8191	255	
7258.402	1	1	0	0	0.12418	0.083305	0.12001	0.3593	0.10431	0.17808	0.24626	0.085143	0.090322	0.074565	0.11423	0.10833	0.21463	0.058913	0.24994	0.05128	-0.18958	-0.87708	-0.089583	-1.0438	-0.85	-0.1625	-1.2354	-0.55833	-0.52708	-1.0104	-0.20208	-0.98333	-0.77292	-0.32708	-0.96458	-0.44375	278.045	211.529	219.724	493.668	441.705	280.495	276.845	425.244	409.619	414.544	444.821	231.906	456.741	359.340	387.391	260.572	0.00017678	0.0019837	8.9265e-05	1020.4	1.1726e-05	2.8066e-05	644.28	267.66	2.8766e-05	3.3167e-05	186.62	69.616	102.57	43.891	1.29e-05	29.621	0.034021	0.043591	0.012212	1351.6	0.00045901	0.00048707	997.17	375.44	0.00045782	0.00048561	376.61	130.97	157.03	63.879	0.00047062	58.069	471.044	356.625	384.812	184.612	377.399	506.937	182.907	189.573	363.541	202.222	186.632	190.907	193.798	198.216	477.836	194.132	-8191	255	
7258.523	1	1	0	0	0.073222	0.12256	0.2249	0.16534	0.19326	0.12909	0.13473	0.076578	0.17167	0.045024	0.15289	0.25066	0.076229	0.24484	0.31892	0.26713	-0.0875	-0.97292	-0.36042	-0.82083	-0.87292	-0.24375	-1.1833	-0.56875	-0.20417	-1.1417	-0.125	-0.71667	-0.97292	-0.33542	-1.0542	-0.59792	269.351	479.418	430.620	497.964	378.788	188.518	173.538	475.971	450.289	312.027	405.016	179.007	518.938	506.792	408.841	478.433	0.00042555	0.00016959	0.00032479	1023.6	2.3592e-05	3.2978e-05	646.2	270.01	1.4374e-05	3.1445e-05	185.64	68.694	101.42	43.561	1.6948e-05	28.951	0.033964	0.043701	0.012223	1356.3	0.00046082	0.00048612	1000.9	377.35	0.00045837	0.00048583	376.1	131.23	156.32	63.397	0.00046931	57.184	493.531	431.678	186.791	184.651	323.580	322.388	182.321	189.414	521.094	177.166	186.673	190.138	193.645	198.480	515.333	194.245	-8191	255	
7258.619	1	1	0	0	0.17822	0.28857	0.084909	0.14116	0.19669	0.16272	0.094964	0.39077	0.1629	0.17788	0.1173	0.066261	0.14976	0.29651	0.095235	0.12642	-0.070833	-1.2208	-0.30625	-0.73542	-1.0771	0.06875	-1.0104	-0.7375	-0.29792	-0.99375	-0.38125	-0.6125	-1.0646	-0.21458	-0.99792	-0.50417	366.306	525.222	205.628	464.708	491.393	336.335	413.641	478.412	414.000	300.828	182.958	499.845	244.428	477.590	443.256	430.580	0.00078559	0.0010042	0.0010386	1018.2	1.9747e-05	8.3631e-06	627.25	265.87	1.6721e-05	1.4958e-05	179.46	66.248	100.88	43.021	2.2195e-05	28.79	0.03392	0.043432	0.012159	1342.5	0.00045656	0.0004837	976.83	371.29	0.00045365	0.00048186	369.87	128	154.84	62.811	0.00046505	56.705	522.241	195.096	530.736	184.452	249.625	271.211	182.248	189.654	270.916	211.791	186.421	190.336	193.497	197.914	176.105	193.649	-8191	255	
7258.715	1	1	0	0	0.12636	0.023035	0.14889	0.27186	0.24074	0.15322	0.37489	0.22963	0.10123	0.22456	0.065813	0.37738	0.19824	0.38669	0.058574	0.28403	0.15208	-1.0208	-0.21875	-0.725	-1.1604	-0.077083	-0.93125	-0.77917	-0.18333	-1.2167	-0.59375	-0.50208	-1.2437	-0.24375	-0.6625	-0.82917	471.903	516.799	376.700	406.105	291.674	393.999	229.511	487.974	441.508	300.297	414.298	451.745	236.666	487.724	411.753	458.578	0.00053188	0.0029813	0.00014471	1012.6	2.149e-05	4.2463e-06	632.63	265.78	2.1256e-05	7.8087e-06	181.52	68.009	100.29	42.976	4.3437e-05	28.912	0.033643	0.043033	0.012137	1338.7	0.00045501	0.00047961	979.35	373.31	0.00045308	0.00048088	372.47	129.47	155.29	62.979	0.00046669	57.142	197.141	530.660	189.858	184.326	463.327	305.255	182.166	189.256	217.607	282.133	186.799	190.957	193.795	198.195	309.177	193.557	-8191	255	
7258.836	1	1	0	0	0.090068	0.18046	0.094608	0.39149	0.06731	0.12835	0.22611	0.17377	0.21702	0.23413	0.25183	0.11687	0.27822	0.2963	0.13095	0.39782	0.225	-1.1187	-0.2625	-0.65	-1.1896	-0.083333	-0.83125	-1.1437	0.13333	-1.0396	-0.45208	-0.23125	-1.2958	-0.31875	-0.51458	-0.89167	478.287	355.384	256.595	183.729	172.035	281.071	498.678	439.473	191.009	417.978	302.309	458.066	484.951	441.691	325.683	467.271	0.00045761	0.001409	0.00070205	1022.5	1.6155e-05	2.8951e-05	640.35	268.59	2.956e-05	4.2104e-05	181.58	69.095	101.26	43.512	2.3108e-05	29.935	0.033824	0.043305	0.012208	1350.2	0.00045771	0.00048523	993.03	375.34	0.0004576	0.00048753	375.72	131.02	156.53	63.353	0.00047164	57.844	174.270	176.972	351.271	184.285	180.409	178.349	182.606	189.687	360.491	472.435	186.965	190.474	193.429	198.018	277.934	193.479	-8191	255	
7258.906	1	1	0	0	0.066618	0.023511	0.20758	0.13978	0.30108	0.068497	0.26273	0.10382	0.10439	0.044771	0.18734	0.15528	0.11785	0.28438	0.010386	0.071348	0.24167	-0.92917	-0.63125	-0.42917	-1.1583	-0.35417	-0.76042	-1.1167	-0.35208	-0.88958	-0.61042	-0.28333	-1.0625	-0.5	-0.30208	-1.1375	255.362	461.418	411.167	173.571	437.944	489.318	502.283	391.266	349.680	523.899	225.141	525.010	206.465	181.703	502.903	260.318	0.00046276	0.0017264	0.00062002	1028.7	1.6664e-05	7.2254e-06	654.94	269.43	1.351e-05	5.3727e-05	186.73	69.731	100.86	43.088	1.863e-05	29.786	0.034058	0.043926	0.01227	1360.8	0.00046284	0.00049047	1010	377.69	0.0004636	0.00049487	381.26	132.01	156.83	63.456	0.00047798	58.33	477.342	414.607	191.423	184.040	465.587	212.438	182.454	189.622	206.536	287.156	186.451	190.535	193.922	198.282	391.119	193.480	-8191	255	
7259.004	1	1	0	0	0.13224	0.067801	0.31298	0.075678	0.094558	0.17862	0.072076	0.09502	0.10292	0.087366	0.10772	0.33963	0.095347	0.098417	0.13465	0.31416	0.22292	-0.73958	-0.96042	-0.27917	-1.0688	-0.32708	-0.42292	-0.98333	-0.125	-0.78125	-0.81667	-0.26042	-1.2604	-0.72083	-0.37083	-1.2062	435.850	497.709	405.306	452.070	333.953	316.468	202.155	524.334	267.800	336.146	228.129	480.830	450.322	457.830	501.875	296.762	9.7848e-05	0.00062903	0.00017658	1027	5.6881e-06	2.196e-05	642.23	266.15	7.0556e-06	1.9134e-05	180.05	66.155	99.138	41.946	9.838e-06	27.662	0.034591	0.04445	0.012363	1362.7	0.00046563	0.00049285	1002.7	373.76	0.0004639	0.00049149	374.1	129.05	154.69	61.934	0.00047241	56.389	495.913	451.069	238.889	184.347	292.354	507.752	182.611	189.374	427.743	470.370	186.184	189.929	193.842	198.509	196.781	194.404	-8191	255	
7259.122	1	1	0	0	0.30376	0.2042	0.039195	0.13032	0.11472	0.038119	0.17911	0.15348	0.31662	0.042935	0.10299	0.097226	0.20441	0.24196	0.15594	0.012828	-0.00625	-0.59375	-0.91458	-0.17083	-1.0688	-0.5625	-0.3875	-1.2333	-0.28125	-0.65625	-0.9	-0.13542	-1.1896	-0.70833	-0.00625	-1.2021	296.211	302.928	385.830	507.570	211.246	213.733	472.801	374.067	442.895	253.295	395.135	208.079	245.372	196.901	333.433	518.230	0.00089907	0.00067218	0.00091109	1007.2	2.844e-05	2.8943e-05	613.39	262.5	8.5612e-06	6.0034e-06	176.07	65.701	98.676	41.85	2.0818e-05	27.84	0.034263	0.043886	0.012326	1338.5	0.00045931	0.00048907	972.06	370.29	0.00045985	0.0004915	369.5	128.33	154.16	62.065	0.00047321	56.602	503.342	341.081	516.647	184.152	314.938	419.813	182.234	189.415	293.350	352.943	187.030	190.792	193.820	198.367	313.675	194.742	-8191	255	
7259.219	1	1	0	0	0.19143	0.20701	0.19922	0.077401	0.10989	0.1006	0.30039	0.14802	0.068693	0.16201	0.097998	0.14386	0.18112	0.08059	0.22753	0.17257	0.04375	-0.58958	-1.0292	-0.33958	-0.875	-0.8875	-0.35	-1.1833	-0.5125	-0.48333	-1.0792	-0.22917	-0.69167	-0.86667	-0.17917	-1.0104	267.217	480.651	446.767	255.721	470.703	371.739	216.334	527.898	239.108	215.320	171.928	279.476	194.921	393.227	305.408	524.411	0.00034696	0.00091278	0.0013298	1005.5	1.4735e-05	6.1814e-06	627.35	263.52	5.903e-06	1.1667e-05	179.32	67.193	99.206	42.501	3.0105e-06	28.584	0.034312	0.044168	0.012378	1342.2	0.00046641	0.00049302	984.04	372.14	0.00046448	0.00049508	374.8	129.88	155.69	62.7	0.00047782	57.541	222.350	481.849	452.995	184.604	509.540	317.203	182.506	189.735	446.871	321.382	186.617	189.702	194.220	198.392	414.122	194.050	-8191	255	
7259.315	1	1	0	0	0.15918	0.22714	0.17635	0.20127	0.21665	0.22717	0.19945	0.25393	0.11918	0.15867	0.13908	0.026634	0.28744	0.21917	0.17354	0.13342	-0.21667	-0.51458	-1.1958	-0.20208	-0.72708	-0.97083	-0.24792	-1.2646	-0.625	-0.37083	-1.1667	-0.44167	-0.67083	-1.0417	-0.19583	-0.96667	307.381	432.217	283.190	411.815	395.718	378.868	234.585	479.889	185.186	452.378	202.098	434.492	235.157	377.331	445.587	314.318	0.00044449	0.00057917	0.0011406	1019.3	1.6357e-05	1.8502e-05	636.38	267.17	2.0928e-05	3.0728e-05	182.32	68.128	100.77	42.495	1.0704e-05	29.075	0.034729	0.044635	0.012549	1353.9	0.00047096	0.00049868	999.48	376.61	0.00046943	0.00050092	379.75	131.96	157.48	63.084	0.00048401	58.281	190.114	376.743	386.612	184.527	336.475	311.547	182.703	189.661	370.584	185.628	186.730	190.383	193.552	198.276	311.882	194.018	-8191	255	
7259.435	1	1	0	0	0.2369	0.028247	0.090438	0.20856	0.19951	0.20268	0.10209	0.31226	0.13456	0.13365	0.23846	0.069197	0.20866	0.10824	0.1014	0.11312	-0.083333	-0.21042	-0.93333	-0.475	-0.53958	-1.125	-0.35	-1.1417	-0.55208	-0.30417	-0.90208	-0.275	-0.45833	-1.0958	-0.33333	-1.025	243.508	464.454	236.267	174.693	359.277	481.179	225.177	192.358	499.041	508.482	391.956	435.111	424.859	450.134	329.394	493.450	0.00041009	0.00032913	0.00043619	1023.5	1.518e-05	1.4575e-05	651.91	266.61	1.7941e-05	3.5491e-05	182.44	68.453	101.36	42.991	6.3002e-06	28.732	0.0351	0.044964	0.012643	1367	0.00047505	0.00050435	1014.8	378.82	0.0004764	0.00050482	383.95	132.9	158.39	63.654	0.00048635	58.233	207.302	226.145	235.119	184.023	443.661	275.483	182.636	190.107	415.884	355.900	187.122	190.442	194.140	198.423	222.322	193.561	-8191	255	
7259.507	1	1	0	0	0.10665	0.15422	0.08091	0.29839	0.20701	0.25815	0.19947	0.17914	0.018819	0.26344	0.062686	0.20236	0.14177	0.16183	0.10087	0.14451	-0.53125	-0.26875	-1.1688	-0.54375	-0.46875	-1.1	-0.12917	-0.75	-0.875	-0.27292	-1.1437	-0.57708	-0.33542	-1.0479	-0.18333	-0.81042	391.079	317.082	256.396	453.304	517.510	361.054	518.329	531.260	511.567	422.489	431.206	451.973	202.825	469.216	393.563	230.931	0.00050309	0.00023743	0.00062112	1005.7	8.4981e-06	7.2002e-06	614.78	264.44	1.2943e-05	1.0972e-05	175.07	64.733	98.074	41.716	3.3414e-05	27.528	0.035222	0.045205	0.012607	1350.7	0.00047512	0.00050042	982.67	373.72	0.00047239	0.00050105	373.23	129.11	154.92	62.288	0.00048363	56.792	472.599	347.759	264.025	184.538	206.862	393.325	182.592	189.774	519.643	391.470	186.951	191.003	194.039	198.648	409.195	194.297	-8191	255	
7259.603	1	1	0	0	0.2292	0.20968	0.20772	0.31231	0.3343	0.043556	0.20775	0.21081	0.034449	0.097965	0.022762	0.12348	0.15041	0.2875	0.17544	0.11501	-0.58958	-0.39167	-1.0854	-0.79583	-0.20417	-1.1625	-0.27708	-0.85	-0.8625	-0.13958	-1.0604	-0.61042	-0.27292	-1.2062	-0.40208	-0.88125	365.128	254.660	203.540	422.754	432.974	391.589	525.825	207.122	247.313	245.991	192.004	302.683	472.332	189.798	202.478	272.666	0.0007947	0.0036075	0.00059443	995.21	1.1679e-05	1.5519e-05	609.38	259.76	1.5212e-05	1.6048e-05	175.26	65.495	98.794	42.074	1.1774e-05	28.023	0.035058	0.044858	0.012625	1333.9	0.00047427	0.00050221	974.45	372.01	0.00047289	0.00050145	373.68	129.35	155.4	62.638	0.00048408	57.374	531.734	272.189	262.897	184.526	484.268	237.697	182.731	189.937	379.266	439.974	186.106	191.193	194.164	198.692	234.505	194.373	-8191	255	
7259.699	1	1	0	0	0.07692	0.044044	0.24507	0.30573	0.17216	0.34747	0.28655	0.10081	0.019873	0.26015	0.14669	0.075457	0.14979	0.5042	0.32827	0.25196	-0.72292	-0.17292	-0.90625	-1.0083	-0.13125	-0.86875	-0.60208	-0.53958	-0.98125	-0.26875	-0.97292	-0.8125	-0.32708	-1.2146	-0.45625	-0.4875	295.315	382.627	468.142	456.646	264.573	210.318	236.755	499.392	207.598	429.016	493.970	237.606	463.908	515.703	268.164	446.823	0.00031876	0.001062	0.0008542	1001	1.6324e-05	2.8499e-05	623.14	262.38	1.5958e-05	4.5098e-06	180.33	65.58	99.08	42.664	1.6725e-05	28.38	0.035129	0.045021	0.012665	1342.9	0.000477	0.0005047	987.19	373.67	0.00047587	0.0005055	380.24	131.22	156.63	63.128	0.00048959	58.078	443.980	463.364	283.935	184.323	390.909	216.024	182.251	189.521	218.158	233.658	187.328	190.433	193.728	198.472	336.071	193.674	-8191	255	
7259.818	1	1	0	0	0.081152	0.1455	0.11783	0.1628	0.20216	0.20943	0.31297	0.16686	0.080208	0.10554	0.14041	0.16158	0.058052	0.22802	0.12181	0.12753	-0.61458	-0.27917	-0.79583	-1.0646	-0.2875	-1.0833	-0.7625	-0.53542	-1.2479	-0.29375	-0.89375	-0.90208	-0.32083	-1.1771	-0.51042	-0.4125	274.172	499.333	323.442	378.555	522.792	224.813	406.138	242.540	390.747	246.488	434.101	277.185	330.092	176.850	182.515	474.048	0.00045859	0.005083	0.00033165	1014.1	1.9272e-05	2.4694e-05	643.62	264.45	9.1154e-06	3.6955e-05	183.47	67.322	99.628	42.097	3.1181e-05	28.71	0.035357	0.045478	0.012747	1359.5	0.00047879	0.00050721	1010.5	377.22	0.00047765	0.00050841	384.32	132.73	157.31	63.168	0.0004947	58.747	237.249	449.252	207.568	184.091	455.907	207.607	182.220	189.506	316.415	236.606	186.984	190.297	194.155	198.191	358.349	193.945	-8191	255	
7259.914	1	1	0	0	0.20298	0.13619	0.20428	0.21915	0.2622	0.39028	0.19854	0.25315	0.13534	0.031467	0.049121	0.0662	0.11658	0.03462	0.12504	0.25113	-0.70417	-0.27917	-0.56458	-0.95	-0.30417	-1.1104	-0.68542	-0.42917	-1.2667	-0.36875	-0.83333	-1.1083	-0.15417	-1.0354	-0.76458	-0.47708	323.630	531.238	257.992	460.934	324.660	371.535	483.380	455.093	492.268	406.707	365.962	472.646	475.823	470.292	213.064	499.774	0.00020169	0.0015874	0.00066297	1036.7	3.2831e-05	1.7976e-05	658.9	267.61	3.3798e-05	1.9091e-05	184.44	67.851	100.54	42.414	1.2983e-05	28.974	0.035609	0.045737	0.012796	1378.2	0.00048109	0.00051052	1030.9	380.91	0.00047853	0.00050972	386.88	133.3	157.6	63.447	0.00049191	58.463	332.171	288.829	301.110	184.250	199.530	179.671	182.538	189.300	456.549	191.478	185.958	189.694	194.042	198.326	345.527	194.520	-8191	255	
7260.011	1	1	0	0	0.35733	0.10002	0.037621	0.15524	0.12694	0.26143	0.19244	0.076865	0.090259	0.21941	0.13368	0.33031	0.061016	0.23969	0.095078	0.043249	-0.82292	-0.34167	-0.33542	-1.0812	-0.22292	-0.77083	-0.95	-0.3	-1.0771	-0.31875	-0.43958	-1.0229	-0.21042	-0.90625	-0.99375	-0.11667	481.947	385.064	269.591	508.221	335.579	314.361	439.232	194.712	294.440	336.447	184.478	488.272	227.995	517.262	493.070	521.933	0.00029727	0.0020217	0.00047516	1021.1	1.3088e-05	1.3418e-05	637.22	264.98	1.2386e-05	2.7643e-05	178.38	66.075	97.957	41.587	2.4764e-05	27.803	0.035572	0.045556	0.012797	1368.4	0.00048036	0.00050939	1006.5	376.12	0.00048007	0.00050671	380.66	130.69	155.51	62.526	0.00049149	57.579	514.417	291.664	194.921	184.290	382.546	360.269	182.148	189.941	266.541	320.102	186.875	190.514	193.691	198.835	312.064	194.145	-8191	255	
7260.107	1	1	0	0	0.10376	0.18379	0.22925	0.14889	0.19063	0.1705	0.27508	0.31908	0.22241	0.35653	0.32766	0.22569	0.17415	0.10144	0.19922	0.05741	-0.75833	-0.48542	-0.23125	-1.2563	-0.25	-0.81667	-0.92292	-0.26458	-1.0833	-0.5875	-0.39792	-1.1542	-0.42708	-0.7	-0.96042	-0.3875	508.153	400.278	246.448	467.424	365.697	497.485	503.817	466.141	401.307	188.929	232.256	447.607	487.920	438.047	350.586	312.104	0.0002068	0.0021729	0.00062669	1018.7	1.0894e-05	2.1914e-05	644.42	265.38	2.799e-05	9.0638e-06	182.05	67.063	99.031	42.309	1.6946e-05	28.043	0.035404	0.04552	0.012749	1365.2	0.00047856	0.00050565	1011.7	377.66	0.00047582	0.00050295	380.87	131.56	155.85	62.636	0.00048329	57.267	187.497	373.259	354.579	184.608	474.395	254.183	182.710	189.499	207.634	467.726	187.109	190.312	193.846	198.566	487.876	194.596	-8191	255	
7260.203	1	1	0	0	0.11304	0.12902	0.24202	0.11055	0.15461	0.061362	0.086181	0.16553	0.22629	0.17428	0.16544	0.12151	0.39787	0.2744	0.092446	0.16952	-0.49583	-0.75625	-0.47917	-1.1396	-0.53333	-0.62083	-1.1125	-0.32708	-0.83542	-0.96042	-0.33125	-1.25	-0.58542	-0.50833	-0.98125	-0.19792	223.059	238.071	512.249	316.025	384.063	289.917	522.980	506.869	297.295	436.216	399.165	358.617	477.422	466.658	404.859	227.885	0.00049315	0.0038633	0.00066265	1033.2	1.9252e-05	3.7761e-05	660.1	266.72	2.8744e-05	3.6933e-05	185.54	67.867	100.4	42.471	1.394e-05	28.595	0.034872	0.044276	0.012388	1365.4	0.00046201	0.00048846	1007.7	373.66	0.00045436	0.00047748	373.07	128.53	153.31	61.579	0.00045138	55.82	451.743	235.530	344.254	184.229	204.187	430.329	182.261	189.527	220.117	216.745	186.510	190.415	193.856	198.464	280.147	194.689	-8191	255	
7260.299	1	1	0	0	0.091643	0.23632	0.08266	0.21882	0.174	0.085492	0.13429	0.30789	0.32901	0.10576	0.14046	0.28276	0.35629	0.13028	0.099612	0.026815	-0.46458	-0.8375	-0.27083	-1.25	-0.49167	-0.53958	-1.2042	-0.55625	-1.0125	-0.80208	-0.225	-1.225	-0.725	-0.30208	-1.15	-0.40625	370.804	371.263	360.547	183.976	347.930	230.122	306.088	449.103	395.780	456.137	210.732	179.345	219.219	477.410	390.306	180.026	0.00050168	0.0030194	0.00095259	1049.1	3.8701e-05	1.2153e-05	669.21	271.52	3.3023e-05	1.0029e-05	189.6	69.555	100.92	42.928	1.5078e-05	29.644	0.03239	0.041612	0.01162	1354.2	0.00043428	0.00045992	997.58	371.36	0.00043245	0.00045971	369.64	128.42	153.32	61.868	0.00044555	56.583	467.996	363.274	295.462	184.419	361.373	350.600	182.822	189.690	202.165	226.282	187.089	191.236	193.397	198.453	401.432	194.278	-8191	255	
7260.395	1	1	0	0	0.25055	0.27128	0.22059	0.3881	0.24302	0.046105	0.13488	0.14562	0.13427	0.19858	0.13823	0.16686	0.29941	0.13495	0.056389	0.13051	-0.36667	-0.90208	-0.20417	-1.1437	-0.575	-0.27083	-1.2354	-0.45208	-0.72292	-0.83958	-0.17292	-1.1458	-0.79167	-0.31667	-1.1271	-0.45	383.078	465.182	336.257	507.173	257.451	445.278	315.451	463.124	201.513	201.546	386.932	449.075	459.798	471.806	336.361	510.578	0.00061101	0.00069788	0.00046835	1047.6	2.0264e-05	1.2184e-05	679.08	273.28	1.5328e-05	1.2939e-05	191.56	69.278	101.61	43.048	1.5539e-05	29.039	0.032403	0.041404	0.011636	1360.6	0.00043767	0.00046486	1013.6	374.33	0.00043721	0.00046812	372.93	129.14	154.45	62.262	0.00045649	56.656	521.641	410.014	189.311	184.356	462.364	450.841	182.626	189.603	234.586	267.632	186.738	190.611	194.004	198.755	268.425	194.381	-8191	255	
7260.516	1	1	0	0	0.32015	0.25925	0.089544	0.16049	0.24125	0.14157	0.26138	0.34447	0.11653	0.11128	0.203	0.17985	0.33723	0.26194	0.17776	0.40229	-0.38333	-1	-0.33542	-1.05	-1.0417	-0.1	-1.2313	-0.36458	-0.46667	-1.2625	-0.43542	-0.98958	-0.95833	-0.19792	-1.2771	-0.625	309.308	219.922	254.213	192.890	211.512	305.988	184.853	178.793	330.520	257.851	295.089	183.362	193.405	421.718	526.920	455.318	0.00037728	0.00092015	7.507e-05	1044.1	1.3101e-05	1.1436e-05	662.38	269.33	3.1096e-05	2.9525e-05	186.05	68.076	100.87	42.902	1.5475e-05	29.254	0.033095	0.042419	0.011933	1358.3	0.00044714	0.0004734	997.26	373.76	0.00044612	0.00047333	370.84	128.6	154.01	62.199	0.00045754	56.634	520.602	400.622	519.572	184.504	206.777	336.053	182.883	189.905	501.007	409.206	187.564	190.711	193.613	198.566	527.090	194.559	-8191	255	
7260.612	1	1	0	0	0.24488	0.14104	0.19748	0.24112	0.089049	0.015309	0.068048	0.34723	0.033714	0.13363	0.35559	0.16387	0.12287	0.17588	0.16048	0.054931	0.025	-1.2854	-0.38125	-0.92292	-1.1479	-0.2	-1.3417	-0.98333	-0.40625	-1.075	-0.45625	-0.68333	-1.0333	-0.20625	-1.0083	-0.74792	356.839	311.331	173.639	281.267	483.402	420.775	360.770	506.789	489.902	316.596	300.643	420.841	464.506	228.220	371.244	303.002	0.0011349	0.0008103	0.00032877	1040.6	2.3409e-05	2.2392e-05	665.87	271.91	4.1168e-05	5.0414e-06	188.19	70.023	101.21	43.319	3.5423e-05	29.363	0.032875	0.042201	0.01185	1359.6	0.00044465	0.0004716	1006.4	374.53	0.00044424	0.00047385	375.03	129.88	155.39	62.82	0.00046275	57.433	530.202	253.142	439.007	184.607	344.581	391.367	182.521	189.553	181.755	177.508	187.423	190.496	194.251	198.613	415.630	194.336	-8191	255	
7260.708	1	1	0	0	0.045351	0.3284	0.2218	0.20555	0.21049	0.22784	0.12126	0.18277	0.35092	0.24126	0.22872	0.071788	0.10605	0.18278	0.17035	0.2091	0.19167	-1.1063	-0.37083	-0.5125	-0.85208	-0.12708	-1.1333	-0.875	-0.16458	-1.1333	-0.575	-0.71458	-1.1208	-0.29167	-0.84792	-0.91042	421.730	339.367	424.087	227.729	431.214	413.215	473.844	190.571	291.378	292.582	277.967	232.174	193.560	483.016	303.829	184.392	0.00047128	0.0018061	0.00014278	1051.6	1.2815e-05	2.7445e-05	675.57	272.9	2.3539e-05	3.103e-05	192.08	70.702	102.24	43.764	1.594e-05	30.03	0.033692	0.0432	0.012174	1375.7	0.000458	0.00048672	1021.9	379.58	0.00045718	0.00048501	382.69	132.29	157.11	63.662	0.00047553	58.931	525.134	483.047	351.382	184.345	193.912	249.278	182.706	189.418	252.239	350.952	187.031	190.516	194.247	198.369	223.498	194.492	-8191	255	
7260.804	1	1	0	0	0.23715	0.15681	0.07109	0.12643	0.10381	0.1791	0.15166	0.091195	0.37089	0.21535	0.15284	0.083129	0.23404	0.3124	0.1604	0.083799	0.29583	-1.0938	-0.5125	-0.64583	-1.1625	-0.23542	-0.875	-0.71042	-0.23958	-0.83333	-0.59792	-0.575	-1.2104	-0.3	-0.84167	-0.93542	391.089	254.438	421.604	442.745	310.301	445.698	483.081	455.886	394.532	501.069	370.175	196.263	199.726	436.080	507.543	259.359	0.00050494	0.00086559	0.00044236	1058.3	2.3449e-05	1.2256e-05	691.14	274.14	9.8848e-06	8.1513e-06	195.62	71.37	104	44.177	9.6992e-06	30.66	0.034565	0.044484	0.012508	1397.2	0.00047288	0.00050048	1050.2	384.69	0.00047335	0.00050065	392.78	135.64	160.56	64.839	0.00048765	60.057	464.033	458.976	454.597	184.445	221.033	235.829	182.783	189.659	230.877	524.360	187.048	190.424	194.008	198.579	241.516	194.978	-8191	255	
7260.899	1	1	0	0	0.15047	0.19388	0.30892	0.0052826	0.33094	0.31769	0.30623	0.13177	0.28557	0.072685	0.18807	0.29251	0.21534	0.21614	0.25819	0.18981	0.077083	-1.1146	-0.5875	-0.61667	-1.05	-0.51042	-0.81042	-1.2333	-0.2125	-0.94583	-0.78125	-0.37917	-1.1688	-0.54375	-0.49583	-1.0521	197.165	447.764	407.221	411.722	204.228	370.146	421.863	405.013	271.713	259.689	427.189	503.391	530.335	178.222	438.039	294.099	0.00051415	0.0029266	0.00024413	1072.3	1.6381e-05	2.98e-05	687.2	274.61	1.0362e-05	3.845e-05	191.88	69.519	102.36	43.994	6.9794e-06	29.858	0.035148	0.04503	0.01266	1410.1	0.00047651	0.00050419	1052.7	386.93	0.00047375	0.00050194	389.36	134.53	159.41	64.734	0.00048596	59.149	464.659	294.060	308.390	184.520	525.679	344.729	182.924	189.501	268.908	290.517	186.562	190.801	194.254	198.469	281.807	194.399	-8191	255	
7260.995	1	1	0	0	0.11615	0.067532	0.18672	0.20516	0.16481	0.21281	0.32848	0.07808	0.084179	0.32277	0.30525	0.061967	0.062766	0.17868	0.075436	0.10964	-0.033333	-0.88125	-0.70625	-0.41042	-1.1458	-0.6	-0.73958	-1.2563	-0.12083	-1.0271	-0.96875	-0.31875	-1.2354	-0.49167	-0.42292	-1.1938	247.725	337.386	296.750	457.968	360.353	346.502	292.365	388.607	184.929	480.327	180.990	321.500	404.238	503.232	245.264	501.756	0.00054739	0.0018341	0.0004477	1051.1	2.6984e-05	2.5115e-05	656.46	274.41	3.4104e-05	8.9307e-06	190.1	68.854	103.02	44.111	2.1185e-05	29.556	0.035186	0.045247	0.012672	1393.5	0.00047739	0.00050596	1026.3	385.87	0.00047887	0.00050646	388.3	134.26	160.33	65.003	0.00049227	59.3	490.057	185.298	246.239	184.544	286.111	292.314	182.995	189.654	220.510	184.102	187.031	190.887	194.160	198.313	401.879	194.222	-8191	255	
7261.115	1	1	0	0	0.11895	0.049209	0.20122	0.18284	0.075606	0.12654	0.15129	0.22424	0.23072	0.1689	0.29335	0.092275	0.42757	0.23854	0.013908	0.17856	-0.05625	-0.71458	-0.96458	-0.325	-1.0833	-0.59583	-0.51875	-1.4438	-0.2875	-0.8	-1.075	-0.44375	-1.075	-1.0354	-0.10417	-1.4042	200.517	368.117	266.063	493.033	280.697	431.691	198.947	179.450	472.692	379.960	442.071	273.950	417.538	522.696	257.966	215.175	0.00057696	0.0018776	0.00021018	1053.3	1.5009e-05	1.0957e-05	669.26	273.95	2.0411e-05	9.6135e-06	189.98	70.235	103.45	44.339	2.809e-05	29.917	0.035531	0.045754	0.012812	1400.5	0.00048129	0.00051095	1039.3	386.92	0.00048121	0.00051345	391.79	135.58	161.18	65.22	0.00049819	60.087	178.112	233.779	237.059	184.377	327.183	328.252	182.739	189.562	381.764	216.394	187.197	190.618	194.039	198.398	381.162	194.009	-8191	255	
7261.212	1	1	0	0	0.4399	0.010918	0.22277	0.034824	0.082883	0.1045	0.093197	0.10844	0.072903	0.15998	0.13041	0.13893	0.30495	0.25795	0.34462	0.22981	0.077083	-0.55833	-0.97708	-0.30208	-0.93542	-0.8875	-0.3125	-1.3583	-0.55833	-0.5125	-1.0646	-0.27292	-1.1	-1.0625	-0.34375	-1.0562	288.999	422.880	443.025	503.066	414.325	233.088	368.025	348.468	406.561	329.832	335.632	208.877	243.855	450.104	254.240	435.945	0.00069236	0.00034611	0.00022313	1056.9	2.4255e-05	1.7454e-05	685.2	275.24	2.0038e-05	4.0537e-05	191.7	70.961	104.04	43.888	2.0459e-05	30.609	0.035881	0.046292	0.01297	1410	0.00048853	0.00051715	1058.9	389.4	0.00048984	0.00051978	397.81	137.31	162.53	65.54	0.00050463	60.998	529.195	472.543	317.543	184.397	400.085	443.078	182.502	189.692	463.360	316.248	187.381	189.937	194.049	198.948	392.334	194.749	-8191	255	
7261.308	1	1	0	0	0.12358	0.072654	0.24236	0.15201	0.068664	0.10425	0.17305	0.28665	0.16211	0.12309	0.13378	0.070301	0.2308	0.34094	0.18891	0.21928	-0.19167	-0.5375	-1.2	-0.52083	-0.9625	-0.94167	-0.43333	-1.15	-0.35	-0.26667	-1.0104	-0.29375	-0.89167	-0.91667	-0.40208	-1.2146	342.665	339.797	202.406	325.327	283.519	182.265	211.502	442.274	482.277	264.886	471.760	219.030	510.668	495.994	474.475	419.597	0.00026928	0.0012185	0.00063729	1068.2	6.3842e-06	2.9114e-05	688.21	275.79	1.7554e-05	2.2025e-05	191.17	70.298	102.81	43.316	2.944e-05	29.528	0.036444	0.046778	0.013156	1423.6	0.00049571	0.00052455	1070	392.33	0.00049759	0.00052744	400.68	137.92	162.55	65.131	0.00051019	60.558	497.990	302.878	516.453	184.308	311.434	528.595	182.626	189.836	417.907	252.054	186.655	190.580	194.043	198.398	229.117	194.550	-8191	255	
7261.379	1	1	0	0	0.19944	0.23045	0.19362	0.23974	0.059602	0.26108	0.28672	0.21484	0.28275	0.098618	0.41893	0.047291	0.28019	0.28475	0.16758	0.117	-0.20208	-0.40208	-1.0229	-0.44583	-0.82917	-1.0833	-0.30833	-1.1979	-0.73125	-0.57292	-1.4354	-0.53125	-0.825	-1.2333	-0.21042	-1.025	386.486	494.779	347.945	516.243	401.090	412.508	446.911	198.741	213.548	528.160	473.264	174.397	487.220	471.805	502.609	299.211	4.5547e-05	0.0021308	0.00038787	1048.5	1.3135e-05	1.6888e-05	661.33	269.73	7.7375e-06	1.6135e-05	181.04	66.772	99.483	42.07	5.1409e-07	27.796	0.036986	0.047635	0.013362	1413.3	0.00050287	0.00053342	1045.9	387.41	0.00050329	0.00053258	392.25	135.3	160.55	64.204	0.00051729	59.276	507.196	347.675	293.410	184.492	284.375	350.382	182.650	189.604	286.439	349.969	187.189	190.313	194.228	198.757	192.680	194.779	-8191	255	
7261.500	1	1	0	0	0.10703	0.19362	0.17064	0.13464	0.090216	0.24652	0.39701	0.1056	0.11828	0.14861	0.23495	0.25509	0.47766	0.27095	0.083544	0.12788	-0.25625	-0.28958	-1.1479	-0.58958	-0.57292	-1.2125	-0.30417	-1.2125	-0.83333	-0.28958	-1.2396	-0.59167	-0.48958	-1.1021	-0.3625	-0.93958	521.265	256.748	264.307	497.309	355.846	461.513	483.067	180.514	293.706	174.405	483.606	508.066	189.809	441.299	346.118	480.531	0.00027304	0.0030691	0.0011114	1033.6	7.381e-06	3.2623e-05	644.49	266.64	1.0174e-05	1.3175e-05	181.11	65.954	99.548	42.03	3.9312e-05	28.176	0.037571	0.048452	0.013582	1404.8	0.00051093	0.00054131	1042.4	388.3	0.00051392	0.00054543	398.85	136.67	162.2	64.926	0.00053269	60.832	420.052	331.650	408.485	184.195	198.890	381.856	182.558	189.793	298.774	529.949	186.967	190.806	194.233	198.524	376.687	194.072	-8191	255	
7261.596	1	1	0	0	0.34099	0.36842	0.33594	0.2368	0.24258	0.25932	0.17768	0.26727	0.22812	0.30355	0.066219	0.19143	0.046588	0.27333	0.28696	0.19058	-0.54583	-0.13542	-1.1396	-0.74167	-0.47083	-1.3708	-0.52292	-1.0708	-1.0833	-0.10625	-1.2396	-0.64167	-0.32917	-1.3333	-0.35833	-0.78958	183.334	461.439	409.117	182.294	511.907	216.252	520.776	506.815	404.177	521.697	293.628	531.481	265.168	180.871	457.275	524.170	0.00040331	0.0025716	0.00051061	1040.4	1.6359e-05	1.1774e-05	660.88	269.04	1.9889e-05	2.6444e-05	188.61	67.611	100.35	42.464	7.9954e-06	28.958	0.038661	0.049763	0.013987	1423.8	0.00052957	0.00056265	1069.6	394.59	0.00053214	0.00056672	410.53	140.81	165.41	66.117	0.00055385	62.554	175.436	245.425	404.676	184.457	403.034	355.213	182.508	189.794	367.445	191.295	187.093	190.502	193.989	198.693	197.654	194.646	-8191	255	
7261.692	1	1	0	0	0.35342	0.068385	0.30797	0.18722	0.1918	0.088583	0.28811	0.2184	0.069948	0.097859	0.10501	0.45139	0.14803	0.32335	0.062791	0.03218	-0.84583	-0.21042	-0.90417	-0.68125	-0.41667	-1.0688	-0.64583	-0.68333	-1.1354	-0.34375	-1.0708	-0.65417	-0.32917	-1.075	-0.60625	-0.49583	367.468	481.804	529.810	482.998	184.426	493.036	365.685	444.121	263.680	364.160	389.962	236.833	439.421	174.845	345.529	192.557	0.00037204	0.00059596	0.00047883	1046.7	3.6883e-05	5.3142e-06	666.84	268.78	2.5375e-05	3.2595e-05	191.1	68.634	100.69	42.27	7.722e-06	28.741	0.040215	0.051718	0.014583	1446.4	0.00054742	0.00058241	1097	400.72	0.00055048	0.00058457	421.15	143.66	167.41	66.825	0.00056825	63.677	528.486	511.213	239.698	184.221	494.857	376.754	182.187	189.532	371.111	338.386	186.522	190.601	194.011	198.239	422.036	193.984	-8191	255	
7261.788	1	1	0	0	0.35405	0.44498	0.19484	0.15047	0.1773	0.18833	0.09082	0.16831	0.13947	0.099424	0.026286	0.14418	0.30069	0.31715	0.14816	0.16817	-0.76667	-0.40417	-0.84792	-0.99375	-0.13542	-1.1229	-0.69375	-0.59792	-1.225	-0.39792	-0.66875	-0.86667	-0.39167	-1.1875	-0.70208	-0.44167	382.975	513.239	375.582	175.601	398.971	445.175	438.723	517.667	502.215	381.879	200.440	456.945	181.036	302.030	330.391	480.286	0.00014846	0.0013189	0.00041428	1061.1	2.0134e-05	1.7059e-05	676.86	269.73	4.0482e-05	1.8667e-05	185.82	66.983	99.309	41.747	2.4339e-05	28.144	0.041155	0.05303	0.014867	1466.1	0.00055661	0.00059089	1109.6	403.05	0.00055971	0.00059139	421.59	143.53	167.46	66.423	0.00056882	62.705	526.075	505.341	221.959	184.266	224.660	482.260	182.311	189.523	250.852	298.133	187.157	189.771	194.054	198.529	234.865	194.064	-8191	255	
7261.907	1	1	0	0	0.064455	0.26784	0.094241	0.2313	0.1563	0.16077	0.14293	0.17596	0.059823	0.29926	0.2406	0.24809	0.35296	0.51256	0.19389	0.16751	-0.70208	-0.35	-0.74792	-1.0083	-0.25208	-1.2042	-0.73958	-0.45208	-1.0688	-0.375	-0.77292	-0.92917	-0.2875	-1.2167	-0.68958	-0.27292	472.689	491.088	482.688	483.654	465.923	271.458	525.175	391.445	445.512	461.650	498.157	431.636	221.325	185.108	317.359	528.236	0.00026572	0.0049967	0.00069279	1026.2	1.3375e-05	2.7815e-05	640.57	265.1	7.9408e-06	2.9228e-05	176.45	64.962	98.387	41.59	1.9135e-05	27.624	0.041097	0.052642	0.014825	1435.8	0.00055719	0.00058866	1068.1	396.44	0.00055586	0.00058791	410.89	140.99	165.75	66.052	0.00056919	62.14	514.311	290.982	246.596	184.299	299.467	437.030	182.460	189.869	208.972	409.336	186.934	189.892	194.245	198.178	233.512	193.562	-8191	255	
7262.003	1	1	0	0	0.17228	0.293	0.073859	0.18646	0.094814	0.13775	0.12626	0.20873	0.13688	0.14897	0.12608	0.21416	0.11553	0.27709	0.14919	0.20892	-0.72083	-0.24167	-0.55625	-1.1792	-0.16875	-0.98542	-0.85417	-0.20625	-1.3125	-0.40833	-0.38333	-1.1938	-0.40417	-0.97292	-0.93958	-0.25208	507.074	461.999	478.785	528.842	213.517	239.433	250.897	237.223	354.341	208.027	241.407	213.399	201.382	445.685	180.532	442.432	0.00046082	0.00058511	0.00039148	1019	2.9517e-05	1.6936e-05	635.35	264.84	2.1632e-05	3.1287e-05	181.55	66.333	99.217	41.534	8.7056e-06	27.8	0.04116	0.052911	0.014871	1432	0.00056033	0.00059396	1076.4	398.87	0.00056026	0.00059504	418.45	143.07	167.3	66.324	0.00057836	63.209	494.462	244.549	509.829	184.190	374.613	391.989	182.326	189.722	437.560	376.411	186.785	190.422	194.302	198.539	370.117	193.818	-8191	255	
7262.077	1	1	0	0	0.052146	0.14927	0.2365	0.26607	0.10943	0.06851	0.42381	0.1955	0.028458	0.16263	0.29523	0.26341	0.13131	0.17737	0.052067	0.20492	-0.68958	-0.5	-0.51458	-1.1979	-0.30625	-0.75833	-0.94167	-0.35833	-1.1333	-0.58333	-0.47083	-1.2854	-0.36875	-0.61875	-0.93125	-0.35417	305.818	221.771	513.686	529.734	514.216	218.596	457.821	522.259	260.707	292.960	301.589	193.510	303.743	501.362	215.686	415.246	0.00066485	0.0020138	0.00033024	1038.1	3.5437e-05	1.5721e-06	659.93	265.17	4.8192e-06	2.9009e-05	182.76	66.81	99.151	41.693	1.7749e-05	28.368	0.041809	0.053683	0.015045	1450.6	0.00056669	0.00060242	1098	401.7	0.00056606	0.00060339	423.26	145.03	167.86	66.692	0.00058081	63.734	200.247	438.658	324.247	184.187	291.944	462.176	182.703	189.421	518.672	471.379	185.838	190.601	193.644	198.286	351.280	193.923	-8191	255	
7262.196	1	1	0	0	0.17084	0.077204	0.065605	0.12142	0.062287	0.07482	0.1927	0.1729	0.30053	0.20576	0.29103	0.21934	0.14074	0.065991	0.26481	0.2259	-0.47083	-0.5875	-0.24375	-1.2333	-0.42917	-0.72292	-1.15	-0.48958	-1.0354	-0.69583	-0.53958	-0.96042	-0.4375	-0.58333	-1.1021	-0.30417	406.197	448.562	236.779	485.670	484.862	191.664	457.240	372.223	205.148	279.375	176.012	494.924	497.655	366.085	397.163	464.159	0.00043673	0.00047302	0.00035597	1038.4	2.5627e-05	5.6673e-05	665.52	267.73	1.6154e-05	5.2439e-05	187.38	68.41	99.863	41.475	5.0969e-05	28.473	0.042188	0.053815	0.015197	1460.9	0.00056957	0.00060419	1113	404.85	0.00057206	0.00060848	428.85	146.35	169.23	67.106	0.00058693	64.278	210.172	376.250	197.461	183.965	359.621	291.834	182.814	189.814	502.266	406.027	186.802	190.828	193.641	198.431	499.956	194.526	-8191	255	
7262.292	1	1	0	0	0.13174	0.13114	0.12944	0.093627	0.17618	0.25628	0.28593	0.22625	0.1169	0.23424	0.31996	0.099362	0.17859	0.17486	0.28426	0.30377	-0.58333	-0.79375	-0.39583	-1.3229	-0.39792	-0.43333	-1.2375	-0.425	-0.91042	-0.89583	-0.27917	-0.92917	-0.7875	-0.51875	-1.1917	-0.30625	278.143	442.420	264.311	523.912	410.781	247.333	325.860	340.113	439.549	472.042	489.776	237.245	338.845	277.522	358.787	200.076	1.978e-05	0.0019427	0.0010025	1036.5	2.0097e-05	3.7256e-05	655.42	265.22	2.4551e-05	1.5153e-05	182	65.655	97.612	40.901	1.5282e-05	26.922	0.042489	0.054383	0.01533	1461	0.00057262	0.00060797	1104.4	401.7	0.00056984	0.00060506	421.22	143.74	166.85	66.137	0.00058244	62.381	398.543	269.492	410.559	184.499	203.299	405.218	182.435	189.454	193.889	277.721	186.086	190.125	193.584	198.333	274.831	193.881	-8191	255	
7262.388	1	1	0	0	0.09284	0.24124	0.065046	0.15475	0.14998	0.18876	0.1082	0.17147	0.19045	0.17988	0.23543	0.093227	0.1665	0.19428	0.12023	0.033965	-0.13542	-0.92917	-0.089583	-1.0396	-0.61042	-0.27917	-1.1562	-0.3125	-0.84583	-1.0125	-0.34792	-1.1896	-0.57708	-0.35417	-1.0312	-0.30417	468.932	442.536	287.692	455.569	259.867	473.537	263.932	182.825	375.433	310.436	491.731	332.931	236.879	322.229	402.048	238.680	0.00033265	0.0019401	0.00047405	1014	5.0279e-06	3.1303e-05	627.61	259.68	1.5966e-05	1.9684e-05	177.65	64.058	97.472	40.433	2.5176e-05	27.066	0.042105	0.05385	0.015133	1433.1	0.00056774	0.0006018	1070.3	395.81	0.00056764	0.0006035	415.54	141.84	165.77	65.592	0.00058403	62.41	487.512	481.582	476.534	184.440	479.702	384.087	182.577	189.434	243.852	409.428	186.249	190.273	194.520	198.530	516.118	193.925	-8191	255	
7262.484	1	1	0	0	0.12562	0.29453	0.18857	0.17271	0.14376	0.12713	0.092445	0.10197	0.33332	0.20523	0.2831	0.13815	0.17975	0.15384	0.030738	0.31058	-0.10625	-1.2563	-0.17708	-1.0667	-0.70417	-0.41458	-1.3146	-0.5125	-0.3625	-1.1417	-0.25208	-1.0812	-1.0771	-0.28333	-1.0917	-0.45	508.264	178.426	306.790	508.571	308.941	374.861	178.284	393.007	259.873	460.310	347.178	433.994	223.528	432.463	461.137	523.888	0.00088613	0.00077273	0.00091437	1021.5	9.9331e-06	2.1553e-05	640.98	261.7	3.7595e-06	8.5667e-06	181.03	64.934	97.126	41.051	6.0995e-05	27.424	0.042184	0.05426	0.015207	1442.3	0.00057243	0.00060587	1089.1	398.76	0.00057273	0.00060781	422.01	143.71	167.01	66.186	0.00058701	63.308	520.988	529.962	354.490	184.313	477.910	471.944	182.680	189.369	481.016	228.471	186.749	190.749	194.206	198.559	291.866	194.085	-8191	255	
7262.605	1	1	0	0	0.31155	0.23266	0.12557	0.1665	0.17515	0.29516	0.30709	0.14215	0.2015	0.05027	0.20165	0.12726	0.17983	0.30045	0.22969	0.18519	-0.1625	-1.075	-0.077083	-0.86042	-0.83125	-0.30208	-1.2687	-0.46042	-0.28542	-1.1479	-0.17708	-0.70625	-1.0896	-0.41875	-1.0604	-0.63125	274.151	484.599	194.220	500.932	271.730	305.828	510.344	486.172	254.285	274.246	191.750	190.368	477.600	485.423	239.501	388.461	0.00050314	0.0012689	0.00056732	1025	1.0361e-05	1.7126e-05	651.54	263.79	5.6155e-06	1.5718e-05	184.27	68.034	97.544	40.692	3.1939e-05	27.889	0.042488	0.054534	0.015324	1449.2	0.00057606	0.00061138	1102.9	401.71	0.00057641	0.00061297	425.8	145.55	168.11	66.529	0.00059189	64.278	522.749	376.751	398.251	184.561	506.255	338.765	182.299	189.344	495.442	317.558	187.082	190.330	193.977	198.081	282.892	194.249	-8191	255	
7262.677	1	1	0	0	0.20971	0.13781	0.19978	0.34547	0.095321	0.17752	0.22343	0.23064	0.11541	0.30972	0.061079	0.14826	0.35241	0.22813	0.13661	0.23648	-0.05	-1.1792	-0.26458	-0.82083	-1.0104	-0.1125	-1.0208	-0.85	-0.10417	-1.1729	-0.47292	-0.425	-1.2333	-0.38958	-1.0625	-0.9125	509.770	175.601	327.933	194.081	292.311	346.255	471.689	507.286	419.179	254.524	242.764	409.052	475.258	175.402	525.007	385.043	0.00043661	0.00068337	0.00091444	1033.2	4.0739e-05	2.8659e-05	666.48	266.45	2.0215e-05	2.8021e-05	184.7	67.926	98.68	41.358	8.345e-06	28.264	0.04286	0.054974	0.015461	1466.1	0.00058193	0.00061855	1119.9	405.77	0.00058143	0.00061712	430.5	146.76	169.52	66.986	0.00059275	64.387	528.152	320.811	290.835	184.479	234.667	447.446	182.804	189.242	220.170	496.038	186.812	190.792	194.338	198.745	365.925	194.769	-8191	255	
7262.797	1	1	0	0	0.095242	0.15752	0.16491	0.060437	0.081841	0.052605	0.33309	0.048376	0.14686	0.2934	0.10552	0.22672	0.10514	0.1194	0.11732	0.053922	0.12917	-1.2104	-0.38125	-0.65	-1.1437	-0.34583	-0.95	-0.90417	-0.15625	-1.0458	-0.53333	-0.45208	-1.1771	-0.38125	-0.79375	-1.1021	240.717	407.390	479.078	333.617	315.088	454.202	483.225	403.070	381.848	183.404	518.991	178.825	183.615	211.300	298.158	285.610	0.00029017	0.00036641	0.00064027	1031.4	1.3694e-05	1.3294e-05	647.25	264.81	1.3608e-05	1.9092e-05	181.04	65.155	96.798	40.452	8.2435e-06	27.065	0.042914	0.054952	0.015427	1459.7	0.0005783	0.00061306	1102.7	401.69	0.00057476	0.000612	421.37	143.82	167.3	66.162	0.00058799	62.964	193.731	317.595	320.251	184.778	183.408	503.226	182.563	189.743	325.612	496.061	187.066	190.418	194.095	198.603	490.313	193.856	-8191	255	
7262.892	1	1	0	0	0.35705	0.0915	0.039524	0.21159	0.25782	0.17017	0.2383	0.25407	0.31608	0.26239	0.098425	0.036267	0.20335	0.25162	0.14901	0.076103	0.21875	-0.89167	-0.71042	-0.57292	-1.1542	-0.24375	-0.87917	-1.1208	-0.17708	-1.1667	-0.85833	-0.29583	-1.1292	-0.58542	-0.70833	-1.1333	186.601	297.231	501.947	482.385	232.785	223.363	499.711	351.748	483.876	236.755	402.815	463.478	440.853	241.306	390.768	347.667	0.00050137	0.001337	0.00016999	1016.4	1.3837e-05	1.818e-05	629.12	263.3	2.1909e-05	1.4026e-05	178.03	65.21	97.785	40.821	1.9739e-05	27.287	0.042507	0.054593	0.015259	1437.1	0.00057389	0.00061	1081.2	399.47	0.000573	0.00060895	419.86	143.33	167.65	66.418	0.00058678	63.091	485.644	411.323	229.215	184.757	314.038	490.126	182.878	189.698	515.456	176.849	186.753	190.688	194.161	198.240	471.340	193.604	-8191	255	
7262.988	1	1	0	0	0.18158	0.057417	0.085127	0.2528	0.31794	0.25182	0.19604	0.41291	0.085774	0.24538	0.33701	0.060326	0.11681	0.23637	0.17465	0.57414	0.08125	-1.1146	-0.74583	-0.44167	-1.2208	-0.28333	-0.68333	-1.0896	-0.35833	-0.975	-1.0854	-0.30208	-1.2292	-0.57708	-0.61458	-1.1229	372.788	206.632	270.787	447.199	513.132	297.419	424.790	174.600	465.447	279.883	490.735	438.369	452.312	450.433	309.823	486.583	0.00094528	0.003466	0.00060046	1014.5	3.4752e-05	9.2081e-06	643.56	262.1	1.0168e-05	3.8904e-05	182.61	66.981	98.665	41.451	2.6269e-06	27.725	0.042464	0.05447	0.015283	1443.5	0.00057504	0.00061178	1092.8	400.97	0.00057276	0.0006101	423.96	145.52	168.45	66.774	0.00059083	64.235	187.240	261.087	527.997	184.137	215.397	202.282	182.679	189.407	360.993	347.632	186.485	190.043	193.448	198.672	279.043	194.146	-8191	255	
7263.084	1	1	0	0	0.04214	0.36433	0.22594	0.15604	0.19725	0.26946	0.21169	0.34116	0.17352	0.034852	0.10868	0.18783	0.097813	0.2704	0.22415	0.12061	0.15833	-0.9125	-0.76875	-0.45417	-1.2042	-0.71458	-0.39375	-1.3042	-0.31042	-0.83958	-1.0938	-0.275	-1.1187	-0.81458	-0.45417	-1.0771	317.182	248.676	414.713	189.565	466.728	341.878	502.004	511.203	202.058	506.897	342.102	288.561	254.521	185.361	498.920	475.108	0.00054752	0.0013568	0.00031436	1028.1	1.696e-05	3.7677e-05	664.24	268.23	2.3257e-05	2.4116e-05	187.5	68.167	99.6	42.266	1.5013e-05	28.917	0.042637	0.054779	0.015354	1456.8	0.00057923	0.0006135	1114.8	405.52	0.00057707	0.00061468	430.78	147.57	170.09	67.772	0.00059412	65.282	407.639	343.844	235.584	184.071	241.032	311.559	182.369	189.363	341.434	321.475	187.186	190.448	193.863	198.206	486.714	194.157	-8191	255	
7263.204	1	1	0	0	0.058037	0.12051	0.32226	0.14977	0.19371	0.11277	0.11942	0.14427	0.24291	0.2761	0.16626	0.21732	0.1497	0.34884	0.15428	0.18007	0.10625	-0.62917	-0.95417	-0.45	-0.89792	-0.68958	-0.31875	-1.1688	-0.22917	-0.61875	-1.2042	-0.28958	-1.0417	-0.78958	-0.30208	-1.0792	312.681	215.172	470.945	503.763	248.123	414.814	484.568	367.920	177.249	219.268	465.929	442.621	425.193	196.791	290.055	414.411	0.00094054	0.0026472	0.00085716	1047.1	1.6425e-05	1.7794e-05	679.77	268.8	2.0486e-05	2.4014e-05	189.25	67.917	100.29	41.951	1.2457e-05	28.807	0.042969	0.05521	0.015463	1472.6	0.00058316	0.00061799	1135	408.93	0.00058188	0.00061949	435.4	148.84	171.09	67.986	0.00059969	65.257	177.766	379.915	345.195	184.300	243.943	469.785	182.483	189.794	312.103	317.197	187.754	190.551	193.733	197.998	251.646	194.082	-8191	255	
7263.301	1	1	0	0	0.37357	0.15335	0.037968	0.21768	0.27276	0.22548	0.17905	0.066783	0.15562	0.06562	0.14132	0.1295	0.21726	0.11746	0.36181	0.095002	0.0083333	-0.55417	-1.0208	-0.25417	-0.93958	-0.7125	-0.25417	-1.0917	-0.525	-0.525	-1.1375	-0.38958	-0.86875	-1.0312	-0.41875	-0.98958	369.110	472.239	222.256	413.629	424.801	190.918	522.778	358.211	407.998	187.923	181.366	468.093	464.580	320.045	390.617	354.365	5.8991e-05	0.0024924	0.00093407	1031.1	2.5054e-05	6.0102e-06	666.08	269.57	4.0999e-05	1.1707e-05	184.56	67.112	98.461	41.41	3.0111e-05	27.878	0.043301	0.055599	0.015634	1473.2	0.00058811	0.00062208	1127.7	407.7	0.00058604	0.00062381	430.97	147.27	170.48	67.782	0.00060246	64.819	189.722	293.894	455.875	184.592	319.537	202.554	182.190	189.803	234.937	519.020	186.909	190.516	194.005	198.913	242.406	194.270	-8191	255	
7263.372	1	1	0	0	0.087038	0.24713	0.29307	0.16543	0.077362	0.15081	0.11254	0.090758	0.16628	0.10955	0.043149	0.10346	0.095901	0.33582	0.083739	0.1128	-0.11458	-0.28542	-0.96458	-0.64375	-0.74583	-1.0562	-0.045833	-1.0208	-0.51875	-0.24583	-1.2542	-0.31042	-0.67708	-1.0646	-0.1125	-0.99792	312.882	311.682	526.042	293.435	514.021	361.768	491.139	465.017	470.925	344.353	460.789	397.736	176.376	481.818	250.047	324.029	0.00074369	0.00244	0.00026088	1036.9	1.3269e-05	2.2419e-05	656.65	266.3	1.5143e-05	6.3209e-05	185.26	67.331	99.581	41.649	1.9061e-05	28.604	0.043441	0.055772	0.01567	1468	0.00059002	0.00062333	1122.7	407.22	0.00058765	0.00062578	433.11	148.43	171.74	67.997	0.00060601	65.487	511.569	189.772	229.179	184.351	324.582	284.088	182.704	189.648	519.145	357.789	186.167	190.394	193.864	198.588	197.642	194.113	-8191	255	
7263.468	1	1	0	0	0.25426	0.13011	0.16249	0.034881	0.22412	0.10676	0.079147	0.40639	0.12216	0.063787	0.36638	0.072438	0.23256	0.23988	0.18385	0.19874	-0.16875	-0.20625	-1.3146	-0.52917	-0.7125	-1.0458	-0.075	-1.0771	-0.61458	-0.36458	-1.1271	-0.47917	-0.52708	-1.1021	-0.19792	-0.98333	305.857	319.446	216.241	482.116	430.367	459.491	401.327	516.493	206.306	453.628	212.296	416.859	506.626	460.006	319.445	277.475	0.00080226	0.001124	0.00045317	1036.4	3.2162e-05	3.8932e-05	672.18	265.8	1.4005e-05	2.2837e-05	187.2	67.351	99.332	42.326	3.8975e-05	29.015	0.043881	0.056059	0.015762	1474.2	0.00059264	0.00062691	1130.3	408.73	0.00059225	0.00062578	436.76	149.32	172.11	68.51	0.0006052	65.909	478.364	271.282	491.492	184.248	374.411	279.484	182.697	189.683	337.402	349.887	187.602	190.412	194.115	199.056	327.508	194.039	-8191	255	
7263.565	1	1	0	0	0.092526	0.16971	0.09732	0.26806	0.14242	0.067969	0.20326	0.30412	0.27062	0.068394	0.29292	0.18838	0.15267	0.21833	0.30196	0.36286	-0.51458	-0.15208	-0.86875	-0.67917	-0.4125	-1.2125	-0.69375	-0.93125	-0.75833	-0.23958	-1.2313	-0.77292	-0.37917	-1.2437	-0.31667	-0.81042	498.093	467.225	505.635	512.396	215.506	471.650	260.055	466.209	511.604	398.392	497.530	465.908	172.805	530.542	368.135	519.429	0.00030339	0.0031006	0.00061768	1043.1	1.6221e-05	3.3001e-05	680.61	267.52	1.1715e-05	1.8667e-05	190.12	68.955	101.15	42.823	1.6567e-05	29.393	0.043855	0.056236	0.015748	1479.4	0.00059107	0.00062658	1139.3	409.57	0.00058665	0.00062433	436.63	149.53	172.23	68.706	0.00060001	66.143	245.174	236.285	474.605	183.856	477.778	387.798	182.469	189.598	315.872	342.756	186.423	189.959	194.298	198.362	465.543	194.340	-8191	255	
7263.685	1	1	0	0	0.12686	0.1253	0.27187	0.20862	0.21357	0.10768	0.28306	0.37906	0.38785	0.26501	0.20439	0.13164	0.12992	0.24808	0.046487	0.075052	-0.65208	-0.020833	-0.95833	-0.8875	-0.51875	-1.0229	-0.46042	-0.76875	-1.0938	-0.17708	-1.1021	-0.85208	-0.37083	-1.2521	-0.25833	-0.5875	265.217	524.455	297.950	511.213	259.421	292.500	447.013	514.982	236.935	182.710	379.375	531.195	427.301	498.154	208.332	249.513	0.00056427	0.00236	0.00093462	1039	2.2663e-05	1.9534e-05	680.18	269.12	2.7144e-05	5.6642e-05	188.07	67.869	100.61	42.354	2.0873e-05	28.343	0.043473	0.055661	0.015624	1474.7	0.00058588	0.00062001	1137.7	409.63	0.00058314	0.00061648	431.77	147.42	170.73	67.849	0.0005909	64.306	215.937	189.748	350.486	184.269	361.983	345.070	182.284	189.873	295.849	486.296	186.384	190.704	194.244	198.711	327.807	194.321	-8191	255	
7263.781	1	1	0	0	0.27626	0.21576	0.2148	0.21137	0.020675	0.055407	0.31217	0.22842	0.14093	0.21574	0.079381	0.1448	0.071801	0.31626	0.17159	0.044744	-0.67292	-0.25625	-0.825	-0.85833	-0.22917	-1.0125	-0.55833	-0.48542	-1.0833	-0.38125	-0.91042	-0.94583	-0.1875	-1.2521	-0.31875	-0.43542	450.429	507.009	198.791	449.277	467.780	417.087	476.512	232.489	407.699	211.779	523.818	455.176	245.802	179.504	313.119	510.608	0.00034663	0.0016415	0.0001897	1029.6	4.724e-06	1.8771e-05	655.58	265.59	1.9058e-05	8.1974e-06	184.4	67.936	99.895	42.283	2.3307e-05	28.287	0.042528	0.054504	0.015242	1454.5	0.0005748	0.00060755	1103.3	402.46	0.00057135	0.00060579	424.28	145.25	169.28	67.409	0.00058398	64.095	513.043	212.737	496.720	184.227	242.643	257.321	182.346	190.102	327.088	418.528	187.002	190.551	194.307	198.604	255.722	194.128	-8191	255	
7263.878	1	1	0	0	0.066742	0.28228	0.19251	0.15817	0.13566	0.21861	0.26416	0.14334	0.43709	0.029947	0.13373	0.14371	0.063417	0.14783	0.25416	0.19148	-0.68125	-0.28333	-0.84792	-0.91667	-0.14792	-1.0792	-0.63333	-0.47917	-1.1125	-0.28125	-0.86667	-0.87917	-0.37708	-1.1021	-0.65417	-0.41042	527.285	263.125	410.358	232.956	339.145	361.825	484.961	218.141	462.477	328.678	334.815	193.002	201.756	363.081	425.443	468.628	0.00081636	0.0013602	0.0017189	1029.5	1.7747e-05	1.7137e-05	661.43	264.97	9.2354e-06	1.601e-05	186.17	67.408	100.23	42.065	3.2823e-05	28.277	0.042399	0.054369	0.015226	1449.1	0.00057536	0.00060689	1108.6	403.25	0.00057334	0.00060737	426.08	145.95	169.36	67.377	0.00058683	64.019	491.885	244.676	523.558	184.655	323.985	394.490	182.955	189.644	200.993	521.718	186.903	189.993	193.893	198.641	321.724	194.177	-8191	255	
7263.972	1	1	0	0	0.17501	0.10604	0.068874	0.29356	0.14529	0.12714	0.15727	0.046975	0.33873	0.5241	0.055324	0.13799	0.011069	0.010693	0.067431	0.13048	-0.69583	-0.1875	-0.67083	-1.2271	-0.10417	-0.87292	-0.84167	-0.49375	-1.2021	-0.41042	-0.77917	-1.1604	-0.225	-0.85208	-0.65208	-0.17083	490.588	386.036	481.040	474.723	335.422	444.907	412.735	220.093	482.387	519.156	422.091	326.112	454.325	348.963	250.159	406.280	0.00034698	0.00096439	0.00035354	1034	1.1221e-05	2.5512e-05	672.15	267.53	2.2373e-05	2.3671e-05	186.89	68.678	100.29	42.541	3.1773e-05	28.901	0.042293	0.054296	0.01523	1454.1	0.00057156	0.00060452	1114.6	403.4	0.00056904	0.00060605	427.01	146.56	169.57	67.486	0.00058433	64.707	201.295	324.755	334.320	184.401	527.020	472.062	182.531	189.662	179.837	360.309	187.271	190.438	194.153	198.779	250.983	194.741	-8191	255	
7264.068	1	1	0	0	0.28342	0.12196	0.21985	0.18677	0.13696	0.20994	0.2357	0.22391	0.14218	0.029139	0.32362	0.36561	0.38419	0.11923	0.11957	0.11509	-0.66667	-0.53125	-0.51875	-1.0063	-0.325	-0.88333	-0.87708	-0.46458	-1.0187	-0.53333	-0.325	-1.1708	-0.27083	-0.89167	-0.93958	-0.12292	355.867	269.982	353.646	492.623	475.800	490.683	481.670	451.878	519.205	264.347	468.277	517.780	483.103	444.541	457.210	407.518	0.00055681	0.00076788	0.00066252	1041.5	1.6576e-05	1.2121e-05	679.64	267.89	2.8079e-05	2.8748e-05	190.84	69.651	101.74	42.244	2.1393e-05	29.493	0.042337	0.054106	0.015239	1461.1	0.00057201	0.00060723	1126.7	406.23	0.00057226	0.0006083	431.69	148.42	171.42	68.086	0.00058954	65.182	478.400	459.451	409.050	184.604	358.566	241.128	182.667	189.856	276.639	407.552	186.861	191.053	194.085	198.630	478.767	193.921	-8191	255	
7264.164	1	1	0	0	0.25509	0.11861	0.35735	0.099483	0.10776	0.27291	0.386	0.12079	0.16379	0.083266	0.19489	0.26684	0.18028	0.064716	0.15055	0.17101	-0.67083	-0.64375	-0.23542	-1.1083	-0.3875	-0.63333	-1.0917	-0.35625	-1.1354	-0.61042	-0.45833	-1.0667	-0.58958	-0.64375	-0.86042	-0.39583	505.209	204.780	203.326	260.721	451.151	390.206	401.783	207.178	392.216	178.598	449.411	448.841	411.929	504.754	251.347	508.408	0.00095502	0.0046403	0.00035656	1039.7	1.4833e-05	1.7235e-05	672.84	266.76	1.7421e-05	1.4632e-05	186.65	68.425	99.599	41.836	1.1477e-05	28.48	0.042654	0.054821	0.015378	1466.5	0.00057671	0.00061281	1120.9	404.46	0.00057551	0.00060904	427.79	146.51	169.35	67.556	0.00058948	64.145	506.223	408.258	328.737	184.235	332.609	431.155	182.289	189.716	377.060	374.664	186.655	190.620	194.065	198.476	331.431	193.774	-8191	255	
7264.285	1	1	0	0	0.065827	0.11933	0.093067	0.31087	0.23326	0.17853	0.26094	0.20766	0.44355	0.076313	0.20085	0.14202	0.21681	0.053096	0.11254	0.15062	-0.36042	-0.6625	0.03125	-1.15	-0.32917	-0.62917	-1.3417	-0.21875	-1.0333	-0.84583	-0.27708	-1.0208	-0.61458	-0.59792	-1.0625	-0.33542	504.503	308.392	219.229	402.672	315.323	346.327	334.190	363.720	410.082	504.335	427.659	470.159	487.999	408.878	396.366	483.167	0.00072127	0.0011878	0.00044897	1031.4	1.1717e-05	2.2676e-05	651.35	267.31	3.7985e-05	2.3503e-05	185.26	67.882	100.33	42.216	1.6981e-05	28.44	0.042416	0.054392	0.015303	1453.5	0.00057541	0.00061001	1103.2	402.88	0.0005736	0.0006075	425.42	145.9	169.51	67.803	0.00058961	64.342	221.981	518.395	509.231	184.721	378.693	269.995	182.772	190.359	305.569	453.295	187.056	190.262	194.473	199.175	420.738	194.967	-8191	255	
7264.381	1	1	0	0	0.37512	0.16276	0.050839	0.28948	0.26038	0.098175	0.29295	0.093759	0.11359	0.11619	0.021653	0.32364	0.2313	0.14071	0.091289	0.12581	-0.4	-0.83542	-0.1875	-1.2479	-0.69583	-0.25417	-1.0104	-0.56667	-0.70625	-1.0042	-0.25208	-0.96667	-0.73125	-0.33542	-0.98958	-0.37708	398.493	245.787	202.640	246.598	341.839	238.521	462.432	215.700	175.081	258.254	198.502	416.742	524.819	495.839	454.292	300.704	0.00049226	0.0051729	0.00029518	1031.9	3.6096e-05	3.8235e-05	660.12	265.58	3.1379e-05	1.9706e-05	184.13	68.134	100.22	42.397	1.3003e-05	29.278	0.042592	0.054648	0.015391	1454.9	0.00057647	0.00061283	1111	404.98	0.0005785	0.00061552	429.68	147.28	171.05	68.409	0.00059583	65.201	526.873	413.943	491.788	184.665	339.815	349.220	182.625	189.998	438.894	281.606	186.728	190.879	193.795	198.591	528.903	194.371	-8191	255	
7264.477	1	1	0	0	0.081253	0.41282	0.13625	0.15924	0.33307	0.25569	0.092458	0.35407	0.17489	0.27251	0.27857	0.066536	0.11806	0.28809	0.10234	0.12291	-0.25833	-0.91458	0.00625	-0.975	-0.65	-0.2625	-1.1083	-0.475	-0.72917	-1.1479	-0.48333	-0.91042	-0.8875	-0.3875	-1.0021	-0.55833	530.824	404.155	348.694	363.798	310.406	380.688	322.372	192.468	504.498	385.302	359.058	361.373	503.626	237.622	189.641	513.596	0.00037594	0.0029936	0.00072199	1028.6	2.0241e-05	3.0525e-05	664.56	267.19	1.0073e-05	2.5358e-05	192.71	70.148	101.09	42.89	3.0219e-05	29.54	0.042981	0.055379	0.015498	1465.2	0.00058346	0.00061709	1120.8	407.34	0.00058395	0.00061957	434.89	149.36	172.25	69.033	0.00060229	66.061	203.056	475.906	491.186	184.291	401.710	252.910	182.975	189.810	270.561	424.951	186.767	190.463	194.721	198.527	304.153	194.769	-8191	255	
7264.573	1	1	0	0	0.20219	0.21864	0.096731	0.059153	0.25997	0.124	0.11562	0.13305	0.14846	0.22717	0.24969	0.11795	0.17763	0.099671	0.19351	0.14503	-0.25417	-0.98333	-0.24375	-1.1125	-0.8875	-0.18542	-1.3458	-0.45625	-0.51042	-1.2437	-0.1625	-0.78542	-1.0063	-0.25625	-1.1167	-0.625	301.415	422.478	200.406	224.220	366.846	297.512	527.287	445.050	246.813	493.967	521.990	244.035	322.903	491.875	256.852	402.669	0.00039286	0.0027061	0.00051749	1036.2	1.3488e-05	4.8079e-06	687.48	270.16	3.9154e-05	4.5769e-05	190.72	69.727	101.4	42.959	2.1861e-05	29.291	0.04347	0.055864	0.015694	1475.2	0.00058873	0.00062412	1141.1	411.15	0.00058697	0.00062351	437.74	149.96	173.2	69.087	0.00060149	66.134	480.710	514.541	244.845	184.725	257.894	423.090	182.737	189.808	183.573	506.099	187.212	190.959	193.581	198.864	306.342	194.176	-8191	255	
7264.669	1	1	0	0	0.22702	0.069428	0.17082	0.2544	0.12701	0.1842	0.049693	0.25617	0.15485	0.10974	0.14817	0.24357	0.3201	0.22835	0.28203	0.38021	-0.15625	-1.1625	-0.21667	-0.96458	-1.1	-0.0875	-1.1375	-0.91042	-0.39375	-1.3458	-0.46042	-0.78542	-0.90833	-0.44167	-0.8375	-0.76875	311.363	474.282	410.172	484.967	361.444	355.577	289.849	446.184	263.178	333.357	402.889	477.630	510.837	497.431	430.305	215.087	0.00081166	0.0014219	0.00071098	1034.2	1.2706e-05	1.2198e-05	665.76	267.27	1.77e-05	2.993e-05	184.42	67.167	99.516	42.6	2.4597e-05	28.52	0.043646	0.055929	0.015774	1472.8	0.00059089	0.00062537	1125.3	409.56	0.00059079	0.00062501	433.34	148.43	171.71	68.593	0.00060442	65.463	203.003	209.783	482.277	184.693	312.918	331.941	182.735	189.893	190.820	206.438	186.791	191.243	194.629	198.280	229.736	194.424	-8191	255	
7264.766	1	1	0	0	0.18967	0.054954	0.068358	0.25689	0.17481	0.25634	0.11002	0.05007	0.062132	0.14495	0.2409	0.12056	0.47249	0.14899	0.028468	0.18261	-0.039583	-1.1667	-0.37917	-0.7375	-0.92917	-0.12083	-1.025	-0.72708	-0.26042	-1.0938	-0.75	-0.41458	-1.2646	-0.64792	-0.77083	-0.71667	419.728	205.054	220.080	527.506	427.442	300.109	259.502	519.662	388.732	263.618	325.167	220.232	192.484	371.482	400.857	384.872	4.6084e-05	0.0027193	0.00067369	1028.4	2.2394e-05	7.4734e-06	657.11	267.93	2.5231e-05	3.8735e-05	183.83	67.55	100.32	42.506	3.1891e-05	28.288	0.04375	0.055956	0.01571	1464	0.00059169	0.00062743	1123.9	408.7	0.00059304	0.00063098	434.12	148.61	172.18	68.761	0.00060968	65.753	421.498	324.267	293.955	184.506	466.405	234.210	183.123	189.739	382.717	316.352	187.128	190.464	193.710	198.977	369.271	195.177	-8191	255	
7264.862	1	1	0	0	0.10207	0.081056	0.26879	0.033322	0.18507	0.37314	0.1501	0.32547	0.1959	0.26719	0.3768	0.21759	0.1521	0.14353	0.092857	0.31453	0.2125	-1.0479	-0.475	-0.5625	-1.0688	-0.2625	-0.81875	-0.91458	-0.1375	-1.1208	-0.64792	-0.375	-1.1437	-0.37917	-0.5375	-1.1542	413.377	443.536	315.648	434.959	229.399	182.796	429.624	466.072	225.287	249.127	429.600	517.738	384.144	280.592	500.113	448.005	0.00034151	0.0019354	0.00097479	1033.7	2.6431e-05	3.3786e-05	663.09	266.4	7.4489e-06	3.7942e-05	184.33	68.78	100.66	42.434	1.6962e-05	29.357	0.044104	0.056605	0.015891	1475	0.00059815	0.00063214	1130.2	410.21	0.00059334	0.00063292	436.01	149.98	172.83	69.1	0.00060993	66.287	456.527	260.833	399.875	184.725	232.263	525.537	182.898	190.031	445.989	390.989	186.828	190.824	194.164	198.891	201.548	193.383	-8191	255	
7264.981	1	1	0	0	0.21107	0.23092	0.056358	0.21575	0.03704	0.33135	0.12368	0.3251	0.080861	0.21879	0.2293	0.032539	0.21896	0.11169	0.11985	0.3262	0.39375	-1.0438	-0.63333	-0.50625	-1.0208	-0.31042	-0.84583	-1.1979	0.010417	-0.99375	-0.84167	-0.11458	-1.1875	-0.47917	-0.50208	-1.0146	224.667	289.577	251.365	528.483	209.836	217.228	531.239	456.753	211.243	245.967	447.392	530.262	451.468	435.480	506.770	186.141	0.00069942	0.0019919	0.00060827	1032	3.6882e-05	5.5128e-05	668.44	267.96	1.1123e-05	7.2908e-06	188.65	70.086	101.76	43.626	6.161e-06	29.885	0.04406	0.056835	0.015929	1474.8	0.00059894	0.00063333	1137.2	412.54	0.00059891	0.00063497	440.48	151.99	174.65	69.832	0.00061562	67.213	459.248	474.881	211.577	184.628	342.923	384.639	182.720	190.384	212.346	312.080	187.015	190.196	194.366	199.025	244.054	194.631	-8191	255	
7265.077	1	1	0	0	0.19432	0.19333	0.18925	0.2582	0.34354	0.11644	0.094315	0.18957	0.13551	0.10347	0.21834	0.11321	0.19719	0.079939	0.22272	0.17972	0.18333	-0.77917	-0.82292	-0.25417	-1.1833	-0.58333	-0.66458	-1.2229	-0.31042	-0.92708	-0.98542	-0.19792	-1.2208	-0.59792	-0.33542	-1.1313	220.770	395.393	522.357	517.510	314.338	223.949	235.245	439.286	347.843	336.183	339.926	301.073	300.744	180.165	376.417	336.689	0.00049093	0.0018297	0.00056795	1031.8	1.9413e-05	1.3311e-05	675.7	269.85	3.8388e-05	1.9107e-05	188.61	69.251	101.22	42.923	1.6255e-05	28.685	0.044592	0.057096	0.016029	1484.4	0.00060357	0.00064109	1147.7	414.08	0.00060249	0.00063928	442.12	151.67	174.85	69.656	0.00061716	66.629	214.504	246.113	344.867	184.634	384.439	248.182	182.761	189.847	186.161	292.886	187.421	191.245	194.412	198.698	321.261	194.933	-8191	255	
7265.173	1	1	0	0	0.16843	0.058698	0.18391	0.2844	0.18346	0.089004	0.27271	0.15834	0.093226	0.29762	0.070568	0.15706	0.27228	0.28739	0.23345	0.20206	0.21458	-0.69583	-0.87292	-0.39375	-1.0312	-0.79375	-0.46667	-1.3021	-0.3	-0.66458	-1.1792	-0.13125	-0.96042	-0.83333	-0.41458	-1.0271	521.225	342.488	263.323	493.110	484.574	429.804	531.692	391.576	312.106	410.053	247.532	453.422	492.725	464.509	173.504	272.573	0.00046101	0.0014315	0.00042316	1018.6	2.1238e-05	4.4929e-05	651.34	266.62	1.7569e-05	1.7299e-05	182.46	67.808	100.48	42.852	1.935e-05	28.542	0.044441	0.057206	0.016032	1470.8	0.00060329	0.00063639	1124.5	409.86	0.000598	0.00063311	436.07	149.34	173.47	69.247	0.00061048	65.985	496.457	528.996	243.367	184.672	460.252	410.363	183.097	189.791	498.602	486.162	187.127	191.338	194.381	198.814	223.205	194.234	-8191	255	
7265.245	1	1	0	0	0.31048	0.086629	0.081458	0.13855	0.14437	0.19341	0.066021	0.10956	0.091727	0.045394	0.18253	0.17559	0.34966	0.16113	0.28834	0.21079	-0.05	-0.6375	-0.85	-0.4125	-0.84792	-0.76458	-0.40208	-1.3542	-0.54167	-0.65833	-1.1042	-0.40208	-0.91875	-0.9875	-0.1375	-1.1812	196.677	371.632	455.170	479.484	454.613	356.430	361.185	472.807	317.814	462.512	502.816	477.109	193.665	353.395	281.396	195.745	0.00026562	0.0022307	0.00058342	1023.2	3.8479e-05	3.5321e-05	654.51	264.83	1.4374e-05	1.2995e-05	183.44	68.066	101.02	43.415	1.7074e-05	28.961	0.044033	0.056759	0.015862	1463	0.00059586	0.00063103	1116.8	409.64	0.00059434	0.00062986	436.44	149.57	173.38	69.457	0.00060992	66.31	234.247	191.176	388.749	184.647	223.763	270.301	183.214	190.424	492.236	456.983	187.500	191.196	194.488	198.797	420.895	194.399	-8191	255	
7265.365	1	1	0	0	0.11398	0.076849	0.11683	0.39639	0.16853	0.15673	0.2269	0.14287	0.29095	0.28789	0.021847	0.085718	0.29902	0.18819	0.19262	0.063047	-0.0125	-0.47083	-1.0917	-0.50208	-0.75208	-0.87708	-0.325	-1.3104	-0.66667	-0.53958	-1.1625	-0.37083	-0.86458	-0.92083	-0.36042	-1.1646	353.074	302.475	328.285	499.908	404.944	192.058	432.013	275.706	454.246	458.364	372.453	203.599	178.893	193.861	378.954	471.143	0.00029582	0.00049687	0.00044428	1024.5	2.1716e-05	1.9814e-05	658.56	267.57	2.7876e-05	3.436e-05	188.09	69.355	102.21	43.57	3.2994e-05	29.567	0.04411	0.056527	0.01579	1464.9	0.00059373	0.00062763	1125.9	409.3	0.0005887	0.00062581	436.43	150.01	173.41	69.656	0.0006042	66.534	418.114	200.244	301.903	184.755	286.667	282.962	183.200	190.796	306.906	282.050	188.118	191.026	195.047	199.244	369.698	196.038	-8191	255	
7265.461	1	1	0	0	0.014271	0.13588	0.14624	0.18151	0.064222	0.1166	0.18674	0.1325	0.2482	0.086677	0.20039	0.30974	0.14699	0.23149	0.20773	0.23865	-0.24583	-0.19167	-1.1063	-0.41042	-0.55417	-1.0271	-0.083333	-1.1333	-0.84167	-0.33542	-1.3312	-0.50417	-0.45625	-1.2146	-0.25208	-1.0521	359.919	259.942	477.342	383.778	358.706	374.833	464.362	175.463	222.818	515.850	205.529	483.059	511.927	524.209	202.060	181.078	0.0010331	0.00082405	0.00071059	1031	4.3899e-06	2.0092e-05	676.92	270.87	1.4874e-05	2.0129e-05	190.26	71.379	103.15	43.877	2.6247e-05	30.195	0.043716	0.056061	0.015676	1468.3	0.00059078	0.00062242	1134.3	410.87	0.00058732	0.00062244	437.54	150.72	173.76	69.985	0.00059945	66.592	192.743	340.464	486.883	184.691	527.593	243.835	182.471	189.770	389.911	329.933	187.732	190.799	194.586	199.067	193.619	194.728	-8191	255	
7265.558	1	1	0	0	0.050041	0.11693	0.16495	0.21132	0.22593	0.39611	0.15132	0.2681	0.1172	0.12107	0.18881	0.11816	0.23244	0.25128	0.13366	0.40016	-0.28958	-0.13333	-1.1771	-0.68958	-0.45	-1.1479	-0.29375	-0.96875	-1	-0.15	-1.0812	-0.67708	-0.41667	-1.1125	-0.33125	-0.86875	186.319	319.305	465.238	532.495	266.063	291.057	182.692	494.728	227.497	519.839	291.783	440.488	223.019	236.203	303.241	487.919	0.00039845	0.00054203	0.0013951	1038.2	2.0192e-05	3.5216e-05	674	273.73	1.9092e-05	9.1356e-06	187.59	69.929	101.64	43.655	7.4013e-06	29.075	0.043103	0.055419	0.015513	1468.9	0.00058265	0.00061892	1127.6	410.51	0.00058027	0.00061447	432.42	148.43	172.17	69.171	0.00058825	65.144	465.774	349.960	178.731	184.914	290.615	486.095	183.525	191.070	372.302	383.865	187.753	191.971	194.548	199.621	469.799	195.794	-8191	255	
7265.678	1	1	0	0	0.12011	0.11662	0.059337	0.34715	0.23625	0.21984	0.038427	0.40963	0.14204	0.08259	0.095428	0.11674	0.26317	0.066604	0.27074	0.23944	-0.69167	-0.24792	-0.88958	-0.51667	-0.26875	-1.0792	-0.45	-0.85	-1.0583	-0.020833	-1.1208	-0.64167	-0.39792	-1.2083	-0.36667	-0.57917	387.531	487.237	214.226	515.467	409.697	489.580	422.255	474.220	496.518	263.184	308.843	318.993	220.896	464.168	395.717	398.986	0.00085169	0.0010994	0.00018818	1026	2.0335e-05	2.1442e-05	658.77	271.25	4.8844e-05	3.6996e-05	183.38	68.511	101.62	43.054	5.0213e-06	29.158	0.042402	0.054339	0.01527	1448.7	0.00057222	0.00060522	1102.2	405.47	0.000572	0.00060471	426.01	146.39	170.92	68.596	0.00058539	64.816	481.826	432.786	262.644	184.789	529.260	503.605	183.272	190.493	190.682	475.754	186.842	191.367	194.648	198.868	251.700	194.637	-8191	255	
7265.773	1	1	0	0	0.23075	0.27496	0.041758	0.3659	0.055231	0.11571	0.11397	0.15327	0.19949	0.37725	0.41746	0.25051	0.079539	0.11379	0.36837	0.26173	-0.60833	-0.18333	-0.77083	-0.80625	-0.36667	-1.2083	-0.51875	-0.46458	-1.0625	-0.43958	-1.075	-0.86458	-0.40833	-1.0625	-0.56875	-0.45	420.579	275.232	355.894	499.274	475.623	433.414	516.686	529.547	310.137	392.197	259.559	386.226	335.278	513.301	290.208	213.302	0.00094375	0.002162	0.00037105	1027.3	1.1445e-05	9.5621e-06	663.01	268.78	1.0368e-05	4.0327e-05	186.77	69.389	101.6	43.65	9.681e-06	29.603	0.04238	0.054357	0.015244	1451.6	0.00057231	0.00060561	1107.1	405.57	0.00057168	0.000607	426.96	146.93	170.33	68.72	0.00058385	65.065	530.363	202.388	457.331	185.502	479.064	457.559	183.470	191.195	375.094	451.871	188.522	192.022	195.499	200.044	220.378	194.378	-8191	255	
7265.846	1	1	0	0	0.26046	0.35629	0.10705	0.31325	0.26653	0.25188	0.29004	0.034307	0.17732	0.29881	0.033064	0.016454	0.1219	0.20948	0.067298	0.19501	-0.6375	-0.21458	-0.93125	-0.91875	-0.24375	-1.0792	-0.77708	-0.44583	-1.3604	-0.41667	-0.81042	-0.97917	-0.36667	-1.4229	-0.63958	-0.57292	514.194	485.690	257.583	445.493	488.919	271.973	462.839	322.120	267.124	344.046	205.944	278.444	470.718	180.077	212.801	315.591	0.00057606	0.00097364	0.00035506	1033.4	1.4183e-05	5.4028e-06	663.88	268.84	2.8484e-05	2.782e-05	188.01	69.404	101.63	43.455	1.5672e-05	29.783	0.042215	0.054072	0.015136	1452.6	0.00057321	0.0006072	1113.3	405.6	0.00057136	0.00060892	428.86	148.17	171.7	68.939	0.00059048	65.607	199.127	465.485	424.410	184.313	192.750	268.775	182.057	189.744	324.480	265.703	186.631	190.521	194.035	198.119	388.414	194.119	-8191	255	
7265.967	1	1	0	0	0.17836	0.26805	0.12382	0.090375	0.23652	0.17408	0.11725	0.20953	0.074327	0.20906	0.28914	0.13513	0.16322	0.39855	0.14289	0.24943	-0.72917	-0.39375	-0.8125	-1.0854	-0.26458	-1.0708	-0.69583	-0.54583	-1.2229	-0.36458	-0.47083	-1.1458	-0.22708	-0.87292	-0.7625	-0.36667	319.583	410.086	418.128	402.678	311.630	417.895	470.694	198.436	381.843	456.872	294.067	252.951	272.036	172.861	498.028	289.930	0.00088851	0.0015247	0.00029642	1032.5	2.8995e-06	6.7536e-06	678.01	269.51	1.1158e-05	1.6924e-05	190	69.424	102.33	43.051	1.8763e-05	29.068	0.042763	0.054961	0.015454	1463.6	0.00058121	0.00061664	1126.1	409.09	0.00058034	0.00061663	434.77	149.24	172.87	69.3	0.0005973	65.717	495.027	176.416	297.571	184.390	460.683	241.059	182.420	189.807	517.283	300.159	187.022	189.783	193.750	198.301	424.302	193.924	-8191	255	
7266.061	1	1	0	0	0.095464	0.23645	0.22096	0.36062	0.26885	0.17188	0.17773	0.26833	0.36018	0.26581	0.209	0.076197	0.17084	0.19437	0.26464	0.12932	-0.90625	-0.35625	-0.41667	-1.2146	-0.19583	-0.9125	-0.92708	-0.1625	-1.1854	-0.61458	-0.52708	-0.97917	-0.37708	-0.89375	-0.99375	-0.13542	195.109	457.678	362.059	458.505	290.101	333.377	259.742	453.235	511.060	484.660	469.372	271.317	200.932	492.038	217.978	269.763	0.00080021	0.0051808	0.00059322	1031.1	1.3156e-05	1.4345e-05	655.88	267	2.061e-05	3.4896e-05	185.15	67.87	100.33	42.975	2.5903e-05	27.915	0.043118	0.055451	0.015554	1462.1	0.00058584	0.00062016	1112.7	407.21	0.00058315	0.00061804	428.71	147.3	171.43	68.607	0.00059838	64.736	500.744	262.996	308.610	184.304	410.670	203.012	181.967	189.259	479.370	222.186	186.015	190.139	193.490	198.360	309.310	193.932	-8191	255	
7266.157	1	1	0	0	0.20112	0.037906	0.095855	0.16825	0.32684	0.24044	0.16425	0.21917	0.22793	0.24306	0.13377	0.34546	0.041602	0.11609	0.22192	0.18644	-0.82083	-0.61667	-0.425	-1.2062	-0.31042	-0.84583	-1.0521	-0.29792	-1.0167	-0.67917	-0.54375	-1.1875	-0.35417	-0.74792	-0.89792	-0.20208	471.324	258.032	209.079	523.819	424.874	197.409	514.107	488.665	396.914	246.199	468.879	435.521	287.649	391.001	296.062	393.664	0.00044489	0.0022239	0.00023377	1004.1	4.8115e-05	1.8317e-05	636.32	262.74	1.3062e-05	1.267e-05	180.38	66.372	99.589	42.62	2.3491e-05	28.324	0.043218	0.055538	0.015543	1444	0.00058604	0.0006174	1097.3	404.05	0.00058372	0.00062115	427.28	146.97	170.93	68.488	0.00060344	64.997	184.424	469.217	345.985	183.880	481.323	288.769	182.104	189.681	430.600	185.090	187.045	189.592	193.749	198.049	283.558	193.575	-8191	255	
7266.278	1	1	0	0	0.010812	0.067147	0.22736	0.045374	0.33322	0.20318	0.089378	0.0067909	0.25728	0.1584	0.42777	0.11525	0.072334	0.20525	0.23629	0.12266	-0.75208	-0.55417	-0.40833	-1.3375	-0.40625	-0.71042	-1.1646	-0.34167	-0.92708	-0.85625	-0.31667	-1.1021	-0.5375	-0.55208	-1.1562	-0.31667	437.715	403.075	499.129	400.953	497.504	491.334	196.017	495.501	348.443	502.546	496.517	518.603	427.749	483.736	216.239	481.842	0.00037681	0.0019049	0.00096138	1016.5	1.219e-05	3.4068e-05	647.59	265.34	1.4871e-05	2.1472e-05	180.69	66.226	99.852	42.367	2.8575e-05	28.252	0.043573	0.056101	0.015722	1453.6	0.00059143	0.00062955	1114.5	406.99	0.00059293	0.00063071	433.04	148.59	172.69	68.718	0.00061011	65.49	510.233	187.230	499.439	184.288	297.698	174.662	182.393	189.383	246.980	419.396	186.809	190.059	193.231	198.254	406.648	193.871	-8191	255	
7266.374	1	1	0	0	0.16766	0.26715	0.11748	0.064252	0.014536	0.10486	0.28772	0.28488	0.26808	0.12837	0.22626	0.17379	0.20068	0.13141	0.16885	0.12762	-0.60833	-0.85833	-0.19583	-1.0833	-0.4875	-0.46042	-1.2375	-0.30625	-0.7875	-0.85208	-0.21042	-1.15	-0.55625	-0.58125	-1.1083	-0.34167	339.483	370.138	365.622	274.880	395.472	240.309	414.715	191.522	187.836	445.814	201.985	444.387	521.252	260.962	343.177	484.951	0.00070209	0.0024191	5.6803e-05	1020.2	9.526e-06	2.4394e-05	658.61	264.32	9.0478e-06	3.3438e-05	183.4	67.73	100.29	42.604	1.0617e-05	29.059	0.044147	0.056765	0.015905	1467	0.00059484	0.0006322	1126	408.74	0.00059344	0.00063155	435.93	149.53	172.61	69.118	0.00060882	66.084	171.958	496.551	459.182	184.032	473.196	473.736	182.484	189.263	205.556	502.068	186.257	189.999	194.251	198.115	506.575	194.200	-8191	255	
7266.470	1	1	0	0	0.19736	0.23726	0.11574	0.37953	0.23436	0.088586	0.057821	0.10583	0.15843	0.26636	0.17609	0.13931	0.066426	0.13262	0.33785	0.40338	-0.21667	-0.96042	-0.27083	-1.0729	-0.38125	-0.13125	-1.2521	-0.52708	-0.60625	-1.0271	-0.10625	-0.79792	-0.72917	-0.27917	-1.1104	-0.37292	432.244	382.456	504.231	444.551	267.057	328.377	523.808	314.057	175.892	455.665	398.832	397.638	418.024	525.906	245.749	475.096	0.00036563	0.0024189	0.00098573	1031.5	1.8768e-05	1.8745e-05	670.45	266.09	2.5688e-05	4.6186e-05	187.62	68.77	101.29	42.837	3.7702e-05	28.537	0.043997	0.05647	0.015848	1475.1	0.00059724	0.00063084	1137.2	410.97	0.0005943	0.00063168	438.1	150.23	173.51	69.289	0.00060927	65.643	212.567	297.366	333.182	183.970	434.637	431.594	181.990	189.034	176.724	313.331	185.862	189.867	193.527	198.283	490.968	193.652	-8191	255	
7266.542	1	1	0	0	0.089376	0.21505	0.33597	0.48503	0.099949	0.14815	0.24086	0.058637	0.22531	0.2912	0.072203	0.3713	0.18184	0.076868	0.22879	0.34331	-0.28125	-1.0292	-0.25417	-1.1187	-0.675	0.020833	-1.1542	-0.37083	-0.32083	-0.97292	-0.13542	-0.80208	-0.83333	-0.089583	-1.1896	-0.35	190.152	514.947	367.458	457.838	211.199	280.122	233.238	505.542	347.662	491.779	529.997	517.990	427.718	393.920	388.451	222.583	0.00038035	0.0020216	0.00056771	1026.9	2.4478e-05	5.5552e-06	653.65	264.87	1.7615e-05	2.5941e-05	182.27	66.715	100.28	42.677	1.9068e-05	28.269	0.04385	0.056388	0.015804	1467.2	0.00059201	0.00062765	1114.7	407.68	0.00059006	0.00062451	430.85	147.83	171.92	68.683	0.00060083	64.897	454.795	269.095	259.060	183.783	489.971	472.074	182.131	189.291	311.593	417.669	186.568	189.962	193.575	198.141	311.337	193.026	-8191	255	
7266.662	1	1	0	0	0.32527	0.3568	0.17067	0.19469	0.032852	0.054264	0.162	0.26936	0.21754	0.23518	0.39112	0.05436	0.24992	0.36413	0.18762	0.27463	0.010417	-1.0104	-0.32292	-0.98958	-0.92292	-0.033333	-1.2458	-0.50625	-0.23333	-1.0792	-0.26042	-0.82292	-1.0104	-0.26667	-1.0792	-0.69792	219.712	289.226	338.933	190.245	305.309	235.961	514.482	512.138	338.936	262.003	245.772	231.174	386.163	176.384	507.231	489.062	0.00080476	0.0027519	0.0011319	1019.5	1.6316e-05	2.6316e-05	651.41	266.83	3.3356e-05	1.9841e-05	185.14	67.389	100.19	42.742	4.9385e-06	28.482	0.043545	0.055779	0.015679	1456.3	0.00058892	0.00062408	1111.6	407.72	0.00058658	0.0006244	431.6	147.98	172.23	68.92	0.00060462	65.298	493.582	269.009	174.143	183.999	194.554	415.909	182.557	189.072	519.559	343.277	186.196	190.255	193.381	197.818	394.253	193.407	-8191	255	
7266.759	1	1	0	0	0.2007	0.16406	0.22431	0.16212	0.30601	0.29555	0.24197	0.10264	0.27815	0.17307	0.30362	0.10785	0.22616	0.2037	0.21211	0.42795	0	-1.2833	-0.24167	-0.88125	-0.85208	-0.14167	-1.2417	-0.8875	-0.0625	-1.1812	-0.38542	-0.61042	-1.1375	-0.425	-0.80833	-0.59375	269.714	492.312	437.186	494.790	293.842	359.968	509.684	213.408	171.624	228.747	465.710	271.243	495.423	205.192	341.939	301.236	0.0010083	0.0009299	0.00062023	1027.8	1.3754e-05	1.6942e-05	659.23	268.78	2.1761e-05	2.5931e-05	183.42	68.383	100.61	43.212	3.4537e-05	28.736	0.04371	0.056214	0.015732	1464.5	0.00059214	0.00062819	1124.7	409.29	0.00059031	0.00062944	434.51	149.52	173.33	69.353	0.00060783	66.064	189.562	311.820	356.661	183.711	515.808	397.754	182.031	189.081	208.097	396.772	186.072	189.275	193.607	197.668	424.278	193.396	-8191	255	
7266.853	1	1	0	0	0.22506	0.039254	0.26254	0.25747	0.25543	0.36068	0.26891	0.13719	0.13591	0.3888	0.21879	0.15914	0.11667	0.21614	0.19345	0.19823	0.34167	-0.89792	-0.44167	-0.46667	-1.1146	-0.24583	-0.85208	-0.85625	-0.24583	-1.2458	-0.53542	-0.37917	-1.1896	-0.34375	-0.75833	-0.88958	188.623	400.694	489.511	456.639	404.290	425.664	416.810	450.059	520.621	455.928	248.859	190.586	204.606	421.867	397.030	459.228	0.00059083	0.0010895	0.0002271	1029.8	9.5904e-06	3.3077e-05	672.45	268.4	2.0326e-05	1.9308e-05	188.23	69.187	100.99	43.134	1.6377e-05	29.136	0.043998	0.056355	0.015895	1473.8	0.00059645	0.00063324	1139.8	412.86	0.00060038	0.00063615	440.94	151.02	174.46	69.851	0.00061705	66.814	197.028	493.318	269.004	183.904	184.250	348.701	182.341	188.958	356.705	208.020	186.327	190.314	193.445	198.241	447.332	193.572	-8191	255	
7266.949	1	1	0	0	0.25368	0.19889	0.169	0.17647	0.18272	0.23722	0.29015	0.14343	0.27652	0.23884	0.13141	0.081155	0.17023	0.20234	0.039837	0.082061	0.3125	-0.93958	-0.36458	-0.37917	-1.0938	-0.43125	-0.49792	-0.89375	-0.14583	-1.0458	-0.63958	-0.17292	-0.96667	-0.38333	-0.47083	-1.1146	265.478	198.202	284.552	277.936	301.919	527.447	413.731	460.154	440.348	176.259	469.873	521.546	497.880	232.181	337.799	446.698	0.00084631	0.0040483	0.00039171	1044.7	1.9053e-05	2.0793e-05	676.54	269.27	2.8679e-05	2.3397e-05	187.06	68.416	102.26	43.493	2.6094e-05	28.708	0.044637	0.057391	0.016025	1488.4	0.00060407	0.00063864	1149.7	415.07	0.00060208	0.00064038	440.97	151.18	175.2	70.116	0.00061827	66.422	520.514	449.789	368.221	184.137	479.008	366.058	182.002	189.472	210.375	372.372	186.076	190.120	193.502	197.887	262.509	193.864	-8191	255	
7267.070	1	1	0	0	0.31774	0.16742	0.28917	0.095332	0.082269	0.27641	0.15012	0.28005	0.099026	0.13158	0.11933	0.13093	0.21458	0.038067	0.20452	0.2792	0.0125	-0.95625	-0.8375	-0.14792	-1.0479	-0.50625	-0.58125	-1.225	-0.29167	-0.82917	-1.0104	-0.1875	-1.0708	-0.475	-0.44792	-0.92292	443.744	361.812	475.455	182.182	525.015	174.242	510.998	497.475	304.410	376.561	183.082	384.333	184.975	236.875	374.496	412.509	6.3263e-05	0.0019064	0.00015377	1026.7	1.2842e-06	2.1723e-05	649.12	267.12	1.3897e-05	3.4027e-05	182.68	66.857	100.7	43.058	2.8113e-05	28.391	0.044699	0.057376	0.0161	1477.4	0.00060322	0.00063787	1124.7	412.64	0.00060345	0.00063894	437.9	149.89	174.57	69.942	0.00062189	66.319	310.098	331.295	231.610	183.928	279.218	484.576	181.823	189.232	230.221	299.586	186.117	190.124	193.269	198.009	491.172	193.484	-8191	255	
7267.141	1	1	0	0	0.098484	0.010344	0.11394	0.27045	0.052622	0.24919	0.15792	0.15913	0.35824	0.11741	0.21283	0.19398	0.3404	0.14423	0.22715	0.23263	0.21042	-0.65625	-0.75208	-0.12292	-1.1063	-0.49167	-0.41875	-1.1437	-0.2875	-0.825	-0.87917	-0.24167	-1.0354	-0.48542	-0.34167	-1.1354	286.389	268.995	429.686	462.862	181.122	376.345	268.220	473.075	368.346	276.539	431.023	397.506	518.585	487.427	393.672	207.950	0.00035494	0.00087034	0.00018453	1024.4	3.2677e-05	1.8788e-05	651.57	266.9	3.1379e-05	1.9853e-05	183.71	67.271	100.4	43.128	1.2269e-05	28.723	0.044965	0.057877	0.016221	1474.7	0.00061022	0.00064963	1131.6	414.29	0.00061196	0.00065121	443.46	151.98	176.05	70.49	0.00063076	67.393	221.209	452.794	204.025	183.620	487.632	275.905	181.755	188.675	246.922	308.362	186.600	189.474	193.369	198.089	245.973	193.034	-8191	255	
7267.238	1	1	0	0	0.044299	0.31257	0.30646	0.15759	0.23852	0.065979	0.22244	0.20739	0.21057	0.10108	0.18908	0.064069	0.16462	0.34182	0.176	0.17732	0.11042	-0.64375	-0.91458	-0.17708	-0.74792	-0.525	-0.61667	-1.1667	-0.47083	-0.65	-1.2125	-0.40208	-1.0354	-0.8375	-0.19167	-1.1646	188.056	369.477	510.828	429.792	454.652	519.973	414.174	523.012	408.478	352.107	327.454	235.400	494.057	172.297	417.895	203.965	0.00048539	0.0015618	0.00015286	1023	7.6519e-06	3.3537e-05	658.16	267.22	1.5892e-05	2.5876e-05	185.39	69.086	100.84	43.448	1.2206e-05	29.092	0.045671	0.058648	0.016452	1484.8	0.00062012	0.00065615	1146.6	417.4	0.00061964	0.00066227	449.71	154.01	177.61	71.153	0.00063691	68.346	182.831	439.188	384.926	183.736	221.659	414.114	182.321	189.254	527.156	300.735	186.842	190.480	194.098	197.611	373.556	194.015	-8191	255	
7267.358	1	1	0	0	0.17487	0.1259	0.33885	0.29315	0.34465	0.023568	0.29293	0.21596	0.022483	0.16126	0.16877	0.014018	0.34132	0.061606	0.097275	0.36689	0.0020833	-0.30417	-0.97708	-0.28125	-0.86042	-0.82917	-0.33958	-1.2396	-0.32917	-0.39792	-1.2229	-0.22917	-0.65417	-0.98958	-0.27917	-1.1104	405.137	387.684	463.249	463.436	408.630	286.538	311.042	518.606	303.765	528.175	181.317	180.086	284.921	200.812	194.865	391.884	0.00058161	0.0011103	0.00083128	1024.3	2.0446e-05	3.3042e-05	668.81	269.86	2.2669e-05	3.8552e-05	188.46	68.895	101.99	43.99	6.9643e-06	30.011	0.046175	0.059405	0.016687	1495.7	0.00062828	0.00066636	1157	421.85	0.00062711	0.00066894	455.69	155.89	179.78	72.099	0.00064765	69.276	173.744	370.145	300.968	183.795	277.363	409.045	181.914	189.056	526.697	179.281	186.495	190.150	193.846	197.267	222.357	193.386	-8191	255	
7267.454	1	1	0	0	0.20666	0.1897	0.29477	0.33685	0.13082	0.073142	0.060377	0.16533	0.070237	0.27832	0.071917	0.25015	0.10823	0.16924	0.33689	0.039121	-0.20417	-0.29375	-1.1437	-0.25	-0.88542	-0.73958	-0.175	-1.0875	-0.55417	-0.40417	-1.2083	-0.17708	-0.74583	-1.1208	-0.21458	-1.0562	498.239	481.907	445.552	493.805	323.695	177.603	193.417	415.885	431.721	284.482	183.699	455.310	432.851	211.839	359.415	449.630	0.00029915	0.0017804	0.00080928	1022.8	1.7049e-05	1.7309e-05	657.45	268.65	2.6877e-05	5.6236e-06	181.98	67.798	100.06	43.181	3.2454e-05	28.551	0.046801	0.060198	0.016925	1501.6	0.00063483	0.00067237	1155.3	421.85	0.0006327	0.00067026	451.37	154.5	178.22	71.238	0.00064602	68.054	496.643	261.840	411.611	183.766	273.682	364.813	181.693	188.914	286.982	429.278	186.274	189.515	194.049	197.699	367.913	194.024	-8191	255	
7267.550	1	1	0	0	0.097284	0.1911	0.15021	0.098858	0.028588	0.1969	0.22841	0.17998	0.13456	0.24516	0.12638	0.15524	0.16965	0.17159	0.17124	0.047877	-0.34167	-0.15417	-0.94167	-0.40833	-0.55208	-0.99167	-0.36458	-0.79792	-0.70208	-0.24583	-1.1896	-0.44792	-0.38958	-1.1437	-0.24375	-0.89583	213.447	201.846	419.935	405.615	383.062	466.678	347.203	512.427	277.644	238.429	222.381	213.425	199.486	202.487	486.663	524.751	0.00088667	0.0018081	8.3041e-05	1009.3	1.5581e-05	3.9038e-05	641.43	263.53	1.0481e-06	2.1764e-05	178.41	65.981	99.494	42.299	4.2087e-05	28.411	0.046829	0.06027	0.016881	1486.1	0.00063377	0.00067243	1138.1	416.79	0.00063052	0.00067067	446.86	153.3	177.15	70.62	0.00064861	67.827	461.261	343.415	354.050	183.713	340.093	319.131	182.034	188.970	364.905	438.778	186.661	189.975	193.674	197.860	502.607	193.656	-8191	255	
#DATA ENDS
