BOXY.EXE: ISS Imagent and Oximeter Data Acquisition Program Version 0.80
Ascii Record File

#ACQ INFORMATION
2  Detector Channels 
16  External MUX Channels 
1  Auxiliary Channels 
5000  Waveform (CCF) Frequency (Hz)
1  Waveforms Skipped 
30  Waveforms Averaged 
1  Cycles Averaged 
16  Acquisitions per Waveform 
10.0806  Updata Rate (Hz) 

#FILE INFORMATION
TRUE -- External MUX Channel results are PARSED.
FALSE -- AC DC and Phase are NOT grouped.
TRUE -- Companion Program Settings File CREATED.
FALSE -- AC data not excluded
FALSE -- DC data not excluded
FALSE -- Phase data not excluded
FALSE -- Auxillary Chn. data not excluded
Tab delimiters

#CALIBRATION STATE
TRUE -- Waveform Calibration Values APPLIED.


#AUX CALIBRATION VALUES
Val Type	aux-1	

Term	1.0000e+00	
Factor	0.0000e+00	


#WF CALIBRATION VALUES
A = Detector Channel
Val Type	A-AC1	A-AC2	A-AC3	A-AC4	A-AC5	A-AC6	A-AC7	A-AC8	A-AC9	A-AC10	A-AC11	A-AC12	A-AC13	A-AC14	A-AC15	A-AC16	A-DC1	A-DC2	A-DC3	A-DC4	A-DC5	A-DC6	A-DC7	A-DC8	A-DC9	A-DC10	A-DC11	A-DC12	A-DC13	A-DC14	A-DC15	A-DC16	A-Ph1	A-Ph2	A-Ph3	A-Ph4	A-Ph5	A-Ph6	A-Ph7	A-Ph8	A-Ph9	A-Ph10	A-Ph11	A-Ph12	A-Ph13	A-Ph14	A-Ph15	A-Ph16	

Term	0.00000e+00	0.00000e+00	0.00000e+00	0.00000e+00	0.00000e+00	0.00000e+00	0.00000e+00	0.00000e+00	0.00000e+00	0.00000e+00	0.00000e+00	0.00000e+00	0.00000e+00	0.00000e+00	0.00000e+00	0.00000e+00	0.00000e+00	0.00000e+00	0.00000e+00	0.00000e+00	0.00000e+00	0.00000e+00	0.00000e+00	0.00000e+00	0.00000e+00	0.00000e+00	0.00000e+00	0.00000e+00	0.00000e+00	0.00000e+00	0.00000e+00	0.00000e+00	0.00000e+00	0.00000e+00	0.00000e+00	0.00000e+00	0.00000e+00	0.00000e+00	0.00000e+00	0.00000e+00	0.00000e+00	0.00000e+00	0.00000e+00	0.00000e+00	0.00000e+00	0.00000e+00	0.00000e+00	0.00000e+00	
Factor	1.00000e+00	1.00000e+00	1.00000e+00	1.00000e+00	1.00000e+00	1.00000e+00	1.00000e+00	1.00000e+00	1.00000e+00	1.00000e+00	1.00000e+00	1.00000e+00	1.00000e+00	1.00000e+00	1.00000e+00	1.00000e+00	1.00000e+00	1.00000e+00	1.00000e+00	1.00000e+00	1.00000e+00	1.00000e+00	1.00000e+00	1.00000e+00	1.00000e+00	1.00000e+00	1.00000e+00	1.00000e+00	1.00000e+00	1.00000e+00	1.00000e+00	1.00000e+00	X	X	X	X	X	X	X	X	X	X	X	X	X	X	X	X	

B = Detector Channel
Val Type	B-AC1	B-AC2	B-AC3	B-AC4	B-AC5	B-AC6	B-AC7	B-AC8	B-AC9	B-AC10	B-AC11	B-AC12	B-AC13	B-AC14	B-AC15	B-AC16	B-DC1	B-DC2	B-DC3	B-DC4	B-DC5	B-DC6	B-DC7	B-DC8	B-DC9	B-DC10	B-DC11	B-DC12	B-DC13	B-DC14	B-DC15	B-DC16	B-Ph1	B-Ph2	B-Ph3	B-Ph4	B-Ph5	B-Ph6	B-Ph7	B-Ph8	B-Ph9	B-Ph10	B-Ph11	B-Ph12	B-Ph13	B-Ph14	B-Ph15	B-Ph16	

Term	0.00000e+00	0.00000e+00	0.00000e+00	0.00000e+00	0.00000e+00	0.00000e+00	0.00000e+00	0.00000e+00	0.00000e+00	0.00000e+00	0.00000e+00	0.00000e+00	0.00000e+00	0.00000e+00	0.00000e+00	0.00000e+00	0.00000e+00	0.00000e+00	0.00000e+00	0.00000e+00	0.00000e+00	0.00000e+00	0.00000e+00	0.00000e+00	0.00000e+00	0.00000e+00	0.00000e+00	0.00000e+00	0.00000e+00	0.00000e+00	0.00000e+00	0.00000e+00	-8.46031e+01	-1.24328e+02	-1.34512e+02	-1.81699e+02	-5.65765e+01	-6.78973e+01	-1.56588e+02	-1.62015e+02	-4.89682e+01	-6.14460e+01	-1.72047e+02	-1.69354e+02	-1.85172e+02	-1.76661e+02	-5.95041e+01	-1.48927e+02	
Factor	1.85394e-05	1.34008e-04	4.54980e-05	1.65179e-01	1.51047e-06	1.75494e-06	1.84651e-01	5.45619e-02	1.21076e-06	1.81770e-06	9.52945e-02	3.13381e-02	2.68894e-02	1.02662e-02	1.54598e-06	1.46995e-02	3.18428e-06	3.57193e-06	9.92978e-07	8.46290e-02	3.85947e-08	3.91772e-08	8.89079e-02	2.80802e-02	3.85441e-08	3.91043e-08	4.71625e-02	1.56485e-02	1.38985e-02	5.29215e-03	3.88907e-08	7.31696e-03	X	X	X	X	X	X	X	X	X	X	X	X	X	X	X	X	



#DISTANCE SETTINGS
A = Detector Channel
A-1	A-2	A-3	A-4	A-5	A-6	A-7	A-8	A-9	A-10	A-11	A-12	A-13	A-14	A-15	A-16	

2.5000e+00	3.0000e+00	2.5000e+00	3.0000e+00	2.0000e+00	3.0000e+00	1.5000e+00	3.0000e+00	3.0000e+00	3.0000e+00	3.0000e+00	3.0000e+00	3.0000e+00	3.0000e+00	1.5000e+00	3.0000e+00	

B = Detector Channel
B-1	B-2	B-3	B-4	B-5	B-6	B-7	B-8	B-9	B-10	B-11	B-12	B-13	B-14	B-15	B-16	

1.0000e+01	1.0000e+01	1.0000e+01	1.4400e+00	1.0000e+01	1.0000e+01	1.5100e+00	1.9400e+00	1.0000e+01	1.0000e+01	1.9900e+00	2.4900e+00	2.4100e+00	2.9000e+00	1.0000e+01	2.9800e+00	




#DATA BEGINS
time	group	step	mark	flag	A-AC1	A-AC2	A-AC3	A-AC4	A-AC5	A-AC6	A-AC7	A-AC8	A-AC9	A-AC10	A-AC11	A-AC12	A-AC13	A-AC14	A-AC15	A-AC16	A-DC1	A-DC2	A-DC3	A-DC4	A-DC5	A-DC6	A-DC7	A-DC8	A-DC9	A-DC10	A-DC11	A-DC12	A-DC13	A-DC14	A-DC15	A-DC16	A-Ph1	A-Ph2	A-Ph3	A-Ph4	A-Ph5	A-Ph6	A-Ph7	A-Ph8	A-Ph9	A-Ph10	A-Ph11	A-Ph12	A-Ph13	A-Ph14	A-Ph15	A-Ph16	B-AC1	B-AC2	B-AC3	B-AC4	B-AC5	B-AC6	B-AC7	B-AC8	B-AC9	B-AC10	B-AC11	B-AC12	B-AC13	B-AC14	B-AC15	B-AC16	B-DC1	B-DC2	B-DC3	B-DC4	B-DC5	B-DC6	B-DC7	B-DC8	B-DC9	B-DC10	B-DC11	B-DC12	B-DC13	B-DC14	B-DC15	B-DC16	B-Ph1	B-Ph2	B-Ph3	B-Ph4	B-Ph5	B-Ph6	B-Ph7	B-Ph8	B-Ph9	B-Ph10	B-Ph11	B-Ph12	B-Ph13	B-Ph14	B-Ph15	B-Ph16	aux-1	digaux	

20629.986	1	1	0	768	0.24053	0.10826	0.033021	0.20109	0.032781	0.06679	0.22374	0.17701	0.18906	0.093736	0.14711	0.085413	0.13002	0.19284	0.13887	0.30376	-0.69792	-0.72708	-0.45	-1.4521	-0.11458	-0.68333	-1.1917	-0.33333	-1.1833	-0.83958	-0.55417	-1.2729	-0.36875	-0.86458	-0.90208	-0.26042	186.404	-23.495	-16.304	217.480	189.596	263.635	171.415	223.847	8.499	119.921	217.653	154.459	47.139	41.919	240.073	197.441	0.00016185	0.00044795	0.00016598	1282	3.1119e-06	3.408e-06	1291.7	345.32	2.8167e-06	1.7331e-06	403.12	135.14	116.14	41.403	4.2296e-06	52.118	0.00020329	0.00018688	5.384e-05	1282.5	2.2075e-06	2.0366e-06	1293	348.03	2.1092e-06	2.0552e-06	403.58	137.19	117.28	41.65	2.0397e-06	52.212	230.644	-21.398	-8.647	-76.837	81.166	54.358	-76.368	-71.452	113.430	70.135	-72.039	-68.080	-67.906	-63.714	82.758	-64.334	-8191	255	
20630.084	1	1	0	0	0.20512	0.17667	0.11193	0.23052	0.26432	0.24886	0.11974	0.27352	0.017329	0.14614	0.28072	0.14482	0.28891	0.15439	0.097062	0.074495	-0.69792	-0.7125	-0.22708	-1.3271	-0.30625	-0.67292	-1.2667	-0.52292	-0.77917	-0.88958	-0.38958	-1.3542	-0.53125	-0.475	-0.91458	-0.39167	30.699	244.587	12.358	246.593	-65.736	263.560	207.095	-71.117	6.670	244.594	-86.801	269.001	241.756	-84.660	148.854	213.321	0.00014798	0.00044818	0.00015223	1284.7	3.0277e-06	4.5981e-06	1294.4	346.37	2.3407e-06	4.0487e-06	401.31	135.87	116.27	41.191	2.8255e-06	51.943	0.00020074	0.00018515	5.1548e-05	1283	2.0625e-06	1.9601e-06	1293.6	348.18	2.0594e-06	1.9467e-06	402.53	137.4	117.32	41.614	1.9765e-06	52.18	235.981	-1.084	3.007	-77.134	74.895	35.942	-76.853	-72.054	39.537	91.819	-72.892	-68.111	-67.755	-63.286	64.807	-64.123	-8191	255	
20630.180	1	1	0	0	0.10766	0.16258	0.26628	0.1653	0.10339	0.0921	0.056852	0.27229	0.12167	0.15005	0.15748	0.20022	0.30022	0.31867	0.15072	0.52085	-0.65833	-0.83333	-0.24375	-1.2375	-0.45	-0.35417	-1.2604	-0.32292	-0.71458	-0.99583	-0.25833	-1.1854	-0.57917	-0.325	-1.175	-0.55	-26.759	181.710	266.214	156.578	-21.948	56.406	153.853	227.575	97.270	168.630	-87.067	253.541	-64.335	269.120	94.696	183.782	0.00012675	0.00054941	9.4181e-05	1281.8	2.7853e-06	6.0929e-06	1294.7	346.01	2.8406e-06	4.5209e-06	404.72	135.61	116.11	41.455	5.1265e-06	52.114	0.00019557	0.00018057	5.0725e-05	1281.8	2.0512e-06	1.9901e-06	1292.9	348.06	2.0209e-06	1.8939e-06	403.13	137.19	117.34	41.683	1.9753e-06	52.142	225.718	19.470	26.230	-76.770	9.889	60.039	-76.812	-72.047	87.271	67.205	-72.631	-67.846	-67.597	-63.343	78.616	-63.976	-8191	255	
20630.275	1	1	0	0	0.25793	0.12522	0.39924	0.33088	0.21075	0.14699	0.27674	0.18584	0.20988	0.034599	0.27131	0.35039	0.22718	0.098561	0.11961	0.14861	-0.54375	-0.98542	-0.22708	-1.2104	-0.61667	-0.37292	-1.2917	-0.375	-0.77708	-1.0958	-0.40417	-1.1562	-0.61875	-0.3625	-1.0729	-0.32292	-37.272	158.704	40.950	226.278	157.476	3.530	168.373	-37.184	125.102	249.494	-22.326	182.477	-63.028	-56.876	176.296	193.237	0.0001503	0.00041821	0.00013563	1282.3	1.9506e-06	4.1796e-06	1291.9	347.04	4.0157e-06	5.2743e-06	402.48	135.85	115.98	41.323	1.1574e-06	52.113	0.0001927	0.00018014	5.0284e-05	1281.8	2.0166e-06	1.9572e-06	1289.9	347.84	2.0481e-06	1.9276e-06	403.07	137.34	117.25	41.667	1.9812e-06	52.207	228.606	7.630	11.142	-76.894	12.902	53.338	-76.751	-71.851	50.313	67.556	-72.926	-68.142	-67.729	-63.167	34.805	-63.969	-8191	255	
20630.371	1	1	0	0	0.16749	0.072747	0.27143	0.25463	0.10956	0.13535	0.060242	0.31017	0.074822	0.17763	0.23128	0.10225	0.41832	0.12842	0.19748	0.16185	-0.0875	-0.98958	-0.22083	-1.2437	-0.81875	-0.25	-1.3979	-0.4375	-0.44583	-0.97917	-0.39583	-0.93958	-0.9	-0.12292	-1.2687	-0.58125	-47.926	152.157	227.784	230.174	28.571	84.679	176.091	181.683	-12.874	254.857	261.693	-1.173	-42.042	250.332	239.986	216.521	0.00017401	0.00051603	0.00013383	1282.9	3.574e-06	6.3253e-06	1287.7	345.3	7.686e-07	4.5735e-06	403.32	135.46	115.68	41.486	1.4897e-06	51.813	0.00019261	0.00017927	5.1031e-05	1281.6	2.0137e-06	1.9177e-06	1289.7	347.83	2.0139e-06	1.9532e-06	402.71	137.05	117.23	41.609	1.9553e-06	52.071	232.740	-1.785	-15.139	-76.665	45.062	38.883	-76.540	-72.170	158.531	43.021	-72.477	-67.955	-67.293	-63.058	51.297	-63.762	-8191	255	
20630.469	1	1	0	0	0.14924	0.19959	0.17019	0.19768	0.047354	0.041117	0.16505	0.076583	0.15756	0.10261	0.24675	0.21389	0.33438	0.18474	0.2061	0.32466	-0.04375	-1.0521	-0.30208	-1.1146	-0.92292	-0.20417	-1.1375	-0.76458	-0.29167	-1.0417	-0.27917	-0.6625	-1.1125	-0.11042	-1.1437	-0.71875	130.313	168.242	-86.846	-23.645	256.765	112.421	237.960	262.447	195.366	179.499	195.293	239.698	254.268	205.970	264.608	220.849	0.00015045	0.00027301	9.0986e-05	1284.9	4.378e-06	2.7674e-06	1293.4	346.36	1.4913e-06	5.842e-06	404.05	135.44	116.2	41.422	2.6669e-06	52.032	0.00019831	0.00018192	5.0617e-05	1282.5	2.0413e-06	1.9932e-06	1291.5	347.83	2.0868e-06	1.9682e-06	403.35	137.18	117.32	41.636	2.0014e-06	52.148	229.579	7.601	-19.433	-76.513	92.541	60.796	-76.555	-71.804	56.478	55.249	-72.178	-67.488	-67.149	-62.949	40.290	-63.314	-8191	255	
20630.590	1	1	0	0	0.17932	0.23655	0.10727	0.18626	0.16059	0.239	0.15755	0.28081	0.23335	0.046247	0.041276	0.2155	0.2173	0.25367	0.321	0.11421	0.06875	-1.1938	-0.36042	-0.72083	-1.1021	-0.32708	-1.2917	-0.80625	-0.1375	-1.1167	-0.50208	-0.64167	-1.1771	-0.20625	-0.8625	-1	162.999	243.785	109.504	190.399	32.707	-59.304	181.522	144.829	117.767	265.105	139.179	171.360	-20.125	-69.832	-43.665	176.535	0.00016739	0.00056018	0.00014839	1282.8	4.0434e-06	6.2401e-06	1293.6	346.14	2.468e-06	5.9781e-06	402.46	135.43	115.87	41.282	3.1458e-06	52.081	0.00019889	0.00018217	5.0098e-05	1284.5	2.0294e-06	1.9843e-06	1294.9	348.11	2.0986e-06	1.975e-06	403.28	137.04	117.26	41.659	2.0776e-06	52.199	237.041	6.656	-5.495	-76.649	109.799	50.675	-76.350	-72.139	54.573	79.143	-72.953	-68.634	-68.252	-63.641	47.758	-64.736	-8191	255	
20630.684	1	1	0	0	0.052442	0.20096	0.19703	0.26394	0.15575	0.058742	0.075483	0.045006	0.22871	0.19072	0.3074	0.16852	0.14867	0.21071	0.13687	0.086632	0.25833	-0.97083	-0.42708	-0.54375	-1.1313	-0.26875	-1.0958	-1.0187	-0.30208	-1.175	-0.59792	-0.40625	-1.15	-0.31667	-0.84375	-0.98125	257.109	39.337	66.070	261.297	242.274	150.891	130.643	-9.610	-30.592	189.550	-77.282	13.489	268.300	227.793	247.351	-61.961	0.00016659	0.00035931	0.00011891	1282	3.8613e-06	5.533e-06	1293.3	346.15	1.5814e-06	5.0204e-06	401.74	135.42	116.79	41.193	4.3656e-06	51.698	0.00020263	0.00018343	5.2075e-05	1286.3	2.1226e-06	2.0796e-06	1296.8	348.39	2.1678e-06	2.0359e-06	403.05	137.14	117.71	41.649	2.1032e-06	52.208	231.560	-28.292	-8.999	-77.198	73.175	52.012	-77.229	-72.492	76.061	27.411	-73.336	-68.747	-68.263	-63.850	78.000	-64.169	-8191	255	
20630.781	1	1	0	0	0.20083	0.27252	0.18705	0.070138	0.019017	0.095168	0.29992	0.29238	0.2415	0.084271	0.057434	0.20077	0.1514	0.085916	0.067647	0.14431	0.12708	-0.89583	-0.66667	-0.5625	-1.1354	-0.26875	-0.92083	-1.15	-0.11458	-0.94167	-0.70625	-0.38958	-1.3625	-0.42292	-0.6125	-0.95833	238.437	234.041	203.021	215.278	114.788	243.311	209.912	180.502	93.906	245.008	113.965	221.977	54.642	-38.070	217.026	154.702	0.00014068	0.00042161	0.00014696	1289.3	3.6436e-06	4.5146e-06	1297	346.63	8.3458e-07	3.4036e-06	403.53	135.61	116.51	41.348	4.6385e-06	51.836	0.00020964	0.00019686	5.331e-05	1289.2	2.1636e-06	2.132e-06	1298.7	348.91	2.2004e-06	2.1097e-06	403.62	137.33	117.67	41.746	2.2094e-06	52.207	235.605	11.782	-2.112	-77.576	60.454	81.784	-77.248	-72.493	146.706	65.601	-73.237	-68.499	-68.173	-63.652	60.615	-64.197	-8191	255	
20630.877	1	1	0	0	0.21053	0.1016	0.24019	0.20536	0.24759	0.084145	0.16745	0.24272	0.35871	0.13395	0.12657	0.098485	0.080308	0.24431	0.19974	0.3278	0.275	-0.90208	-0.86458	-0.38542	-1.1292	-0.34583	-0.775	-1.1979	-0.2125	-0.94167	-1.1521	-0.4	-1.0938	-0.68958	-0.42708	-1.3104	86.200	156.072	186.776	159.766	-7.886	204.189	-78.969	205.866	267.636	-45.242	119.322	2.688	182.683	64.030	-87.099	255.290	0.00015178	0.00054379	0.0001942	1295.2	4.3493e-06	4.3416e-06	1302.6	347.03	1.0071e-06	3.2363e-06	403.73	135.83	116.88	41.477	3.3332e-06	52.011	0.00021847	0.00020008	5.5996e-05	1294.9	2.3408e-06	2.2961e-06	1304.8	349.52	2.4166e-06	2.3525e-06	405.16	137.87	118.13	41.779	2.411e-06	52.346	228.755	-20.686	-30.267	-77.405	77.705	53.444	-77.015	-72.356	4.068	64.029	-73.136	-68.713	-68.056	-63.906	63.493	-64.425	-8191	255	
20630.973	1	1	0	0	0.12321	0.18259	0.25418	0.10348	0.020484	0.2007	0.221	0.15996	0.01905	0.3455	0.17658	0.1398	0.25754	0.070558	0.11774	0.19144	0.17292	-0.87292	-0.79167	-0.46667	-0.96875	-0.41667	-0.74583	-1.2479	-0.19375	-0.79583	-0.86875	-0.15417	-1.0375	-0.97708	-0.40625	-1.1979	135.363	235.691	-87.446	235.367	94.686	97.470	235.804	-27.473	193.698	72.498	-46.968	-7.042	234.831	241.979	142.355	141.915	0.00014739	0.00027612	0.00014173	1301.7	3.0689e-06	4.8296e-06	1308	348.57	1.6763e-06	3.3911e-06	405.11	135.74	116.46	41.543	2.4915e-06	51.922	0.0002343	0.00021425	6.0971e-05	1299.3	2.4254e-06	2.3338e-06	1309.8	350.6	2.3804e-06	2.324e-06	404.65	137.69	117.94	41.778	2.3282e-06	52.358	221.984	-7.966	-7.580	-77.162	54.978	34.606	-77.061	-72.164	131.318	55.393	-72.791	-68.398	-67.593	-63.534	83.137	-64.276	-8191	255	
20631.068	1	1	0	0	0.27906	0.16332	0.14002	0.17704	0.23172	0.45977	0.039029	0.097094	0.14793	0.33597	0.28651	0.11036	0.093087	0.2268	0.11262	0.21722	-0.0375	-0.82917	-0.95417	-0.23542	-1.0562	-0.87708	-0.61458	-1.2625	-0.33333	-0.68333	-1.2708	-0.30625	-0.99792	-0.66042	-0.28125	-1.2542	-2.427	150.544	253.497	201.888	266.990	-33.101	263.735	184.718	-50.311	-4.202	244.781	-71.620	166.732	-62.044	-84.730	269.652	0.0001362	0.00048154	0.00012371	1301.3	1.7052e-06	6.2883e-06	1304.1	348.14	1.9789e-06	4.2916e-06	404.77	135.82	116.53	41.335	4.311e-06	51.989	0.00022007	0.00021006	5.7115e-05	1302.7	2.3156e-06	2.2223e-06	1308.9	350.46	2.3823e-06	2.306e-06	405.23	137.72	118.2	41.715	2.3511e-06	52.323	241.090	24.323	-11.240	-77.041	5.744	40.652	-77.021	-72.284	106.608	34.384	-72.775	-68.547	-68.020	-63.497	49.436	-64.303	-8191	255	
20631.164	1	1	0	0	0.21527	0.062627	0.061394	0.25134	0.19534	0.27527	0.2985	0.13761	0.20007	0.058317	0.074616	0.10828	0.16465	0.053238	0.35693	0.17651	0.025	-0.52917	-1.0958	-0.50625	-1.0083	-1.0438	-0.47917	-1.1104	-0.61667	-0.50833	-1.4229	-0.35208	-0.98542	-0.92292	-0.18333	-1.05	-23.913	204.218	-36.839	192.611	91.495	147.658	232.939	203.953	77.502	76.513	218.699	4.028	178.861	97.168	184.988	187.856	0.00015566	0.00019898	0.00017621	1304.6	4.1831e-06	2.7918e-06	1303.9	349.22	1.5876e-06	5.8773e-06	405.84	135.86	116.66	41.532	2.6808e-06	52.15	0.00022594	0.00021263	5.78e-05	1301	2.3126e-06	2.2552e-06	1307.6	350.67	2.3455e-06	2.2575e-06	405.34	137.65	118.11	41.742	2.321e-06	52.406	224.202	-19.556	-26.694	-76.926	84.961	13.812	-77.038	-72.003	-7.304	45.301	-72.816	-68.546	-67.691	-63.744	2.141	-64.143	-8191	255	
20631.285	1	1	0	0	0.15221	0.16399	0.32203	0.12558	0.28164	0.21058	0.34172	0.13059	0.059305	0.23162	0.16504	0.29586	0.15924	0.28688	0.038007	0.16632	-0.01875	-0.29167	-1.1125	-0.37083	-0.6625	-0.91042	-0.55208	-1.1271	-0.50417	-0.41875	-1.2917	-0.5375	-0.74792	-1.0688	-0.28333	-1.0917	113.109	150.605	105.478	-70.773	-40.072	240.074	172.871	51.173	-25.237	29.574	-13.448	181.422	199.870	91.174	142.943	-1.093	0.00013346	0.00048771	0.00013001	1301.4	1.2513e-06	4.5741e-06	1307.3	347.96	2.1524e-06	4.17e-06	403.87	135.57	116.75	41.336	2.1743e-06	52.126	0.00021964	0.00020627	5.6569e-05	1300.4	2.2968e-06	2.2357e-06	1308.7	350.69	2.3347e-06	2.3342e-06	404.47	137.43	118	41.742	2.3552e-06	52.246	230.569	-12.172	-15.415	-76.839	59.471	37.897	-76.872	-71.905	19.466	57.904	-72.568	-67.908	-67.501	-63.349	27.848	-63.968	-8191	255	
20631.381	1	1	0	0	0.13759	0.21393	0.15487	0.21235	0.1705	0.30503	0.13743	0.062261	0.13885	0.18265	0.14573	0.12698	0.38051	0.26182	0.36153	0.069247	-0.13125	-0.35625	-1.1042	-0.6375	-0.61042	-1.0208	-0.36458	-1	-0.60208	-0.21667	-1.1125	-0.42708	-0.72083	-1.2417	-0.11042	-1.0646	11.766	204.960	247.631	235.983	-76.256	-14.114	-86.762	217.777	-51.087	19.742	257.918	262.801	-47.473	-79.565	129.396	145.972	0.00016996	0.00042333	6.7846e-05	1298.4	4.7698e-06	3.9293e-06	1307.6	349.58	1.2707e-06	4.9949e-06	403.83	135.74	116.66	41.425	4.3228e-06	52.148	0.00022068	0.00020914	5.708e-05	1300.6	2.2855e-06	2.2275e-06	1305.9	350.52	2.3537e-06	2.2245e-06	404.08	137.46	117.92	41.747	2.2767e-06	52.236	232.500	-39.183	-32.725	-76.744	92.022	64.167	-76.852	-71.873	75.777	75.753	-72.337	-67.851	-66.887	-62.718	61.902	-63.358	-8191	255	
20631.477	1	1	0	0	0.17214	0.15579	0.12128	0.34431	0.097097	0.13799	0.13655	0.15699	0.12925	0.10081	0.11969	0.30019	0.16656	0.32858	0.1942	0.24298	-0.55	-0.11667	-1.1333	-0.56875	-0.46667	-1.0708	-0.43958	-1.0021	-0.90417	-0.22292	-1.0604	-0.74167	-0.56667	-1.1083	-0.34583	-1.0229	203.292	54.461	103.454	246.918	-72.834	259.555	228.535	-40.624	149.519	-53.030	256.975	-12.326	-35.337	-78.190	204.064	120.286	0.00011471	0.00047254	0.00015894	1294.8	3.3329e-06	5.9019e-06	1294.1	341.2	1.958e-06	4.945e-06	406.69	135.7	115.44	41.181	3.9739e-06	51.931	0.00021712	0.0002054	5.5661e-05	1297.2	2.2682e-06	2.1976e-06	1304.5	348.55	2.316e-06	2.1794e-06	405.58	137.42	117.67	41.675	2.3054e-06	52.183	244.792	16.091	13.975	-75.515	109.928	47.400	-75.073	-70.019	53.242	77.512	-71.414	-66.690	-65.694	-61.786	74.812	-62.383	-8191	255	
20631.549	1	1	0	0	0.2549	0.21546	0.12861	0.18826	0.17931	0.18907	0.22453	0.051252	0.1321	0.15579	0.33767	0.32737	0.24643	0.13949	0.3809	0.36312	-0.725	-0.36667	-1.0146	-0.59375	-0.32083	-1.3417	-0.37083	-0.66667	-1.0146	-0.31667	-1.0646	-0.79375	-0.34375	-1.1604	-0.37292	-0.67292	-63.588	191.221	185.438	162.589	-52.418	201.707	178.234	216.423	67.800	238.863	207.300	198.409	-41.629	167.906	254.772	251.848	0.00019932	0.00043618	9.2963e-05	1302.3	4.7705e-06	4.9494e-06	1300.4	348.79	2.3111e-06	6.5402e-06	405.75	136.14	116.64	41.54	6.2417e-06	52.255	0.00021348	0.00020877	5.6463e-05	1299	2.3033e-06	2.1641e-06	1302.4	350.51	2.2271e-06	2.2e-06	405.18	137.34	117.89	41.752	2.2597e-06	52.314	228.667	-0.877	18.919	-76.030	59.611	76.605	-75.775	-70.816	71.963	45.416	-71.944	-67.422	-66.497	-62.248	71.263	-62.941	-8191	255	
20631.670	1	1	0	0	0.20201	0.12618	0.13939	0.33293	0.33143	0.12684	0.143	0.24896	0.069042	0.11967	0.10352	0.17091	0.1996	0.24421	0.24896	0.14809	-0.64583	-0.085417	-0.91875	-0.96042	-0.28542	-1.1104	-0.59375	-0.72708	-1.0542	-0.275	-1.0625	-0.95833	-0.37917	-1.2458	-0.62917	-0.56042	35.023	-62.908	215.813	214.880	-29.542	-88.887	187.694	257.087	122.035	121.334	179.285	231.499	-62.538	212.854	238.994	-79.662	0.00013323	0.00031926	0.00015405	1299.6	2.6087e-06	4.8552e-06	1305.8	349.32	9.8407e-07	3.1327e-06	404.52	136.19	116.1	41.63	3.2878e-06	51.908	0.00021336	0.00019916	5.5001e-05	1297.1	2.2275e-06	2.1636e-06	1304.7	350.19	2.2345e-06	2.2004e-06	404.13	137.77	117.66	41.711	2.2703e-06	52.147	221.154	6.721	5.635	-76.967	55.153	45.675	-75.889	-70.929	77.720	72.144	-71.470	-66.954	-66.226	-61.864	65.977	-62.439	-8191	255	
20631.764	1	1	0	0	0.31895	0.093442	0.18595	0.36602	0.30417	0.32701	0.23899	0.1949	0.14621	0.12449	0.22847	0.10971	0.11608	0.30464	0.34361	0.1085	-0.83333	-0.23542	-0.83333	-1.2	-0.20208	-1.1104	-0.8125	-0.49375	-1.2938	-0.47708	-0.88125	-1.0042	-0.25833	-1.2542	-0.71667	-0.45625	43.963	-9.002	-28.874	-41.174	168.502	-13.240	191.871	230.303	232.087	110.729	-67.625	187.607	212.413	246.803	109.760	160.771	0.00010564	0.00038343	0.00014786	1298.8	4.0857e-06	5.966e-06	1300.1	347.35	1.3099e-06	5.7964e-06	406.42	135.64	116.67	41.381	2.2132e-06	51.957	0.00021106	0.00020501	5.5876e-05	1297.7	2.2621e-06	2.2001e-06	1305.4	349.99	2.2409e-06	2.2125e-06	404.83	137.19	117.81	41.677	2.2467e-06	52.184	228.830	29.851	11.762	-75.649	45.745	35.885	-75.492	-70.892	110.595	48.459	-71.307	-67.882	-66.866	-62.266	52.676	-63.002	-8191	255	
20631.861	1	1	0	0	0.36036	0.29261	0.18186	0.1546	0.14808	0.099884	0.36316	0.25706	0.32949	0.062632	0.29947	0.27878	0.24196	0.15805	0.06164	0.056069	-0.87708	-0.16667	-0.6125	-1.0562	-0.38333	-0.99167	-1.0271	-0.42292	-1.1958	-0.47083	-0.73958	-1.0187	-0.11875	-0.925	-0.76458	-0.20208	133.582	46.839	-51.527	196.490	39.186	203.441	220.095	4.968	107.294	161.081	-88.426	108.834	226.023	164.785	-44.542	225.317	0.00012171	0.000299	0.00013814	1297.7	3.8107e-06	6.0302e-06	1301.4	347.93	1.5698e-06	4.5968e-06	403	134.86	116.16	41.337	3.2608e-06	51.892	0.00021398	0.00020521	5.6682e-05	1296.3	2.3597e-06	2.2572e-06	1304.6	349.78	2.3623e-06	2.2721e-06	404.01	137.15	117.55	41.66	2.3034e-06	52.2	232.275	-15.275	-17.101	-76.043	55.503	74.706	-76.289	-71.507	42.027	63.475	-72.896	-68.717	-68.164	-64.049	72.976	-64.610	-8191	255	
20631.980	1	1	0	0	0.07236	0.23284	0.18758	0.24654	0.18199	0.052328	0.2496	0.20376	0.099917	0.23992	0.12036	0.14098	0.23722	0.15006	0.23453	0.21711	-0.64375	-0.45833	-0.3375	-1.0979	-0.12917	-0.95208	-0.93958	-0.56458	-1.0667	-0.52083	-0.63125	-1.2667	-0.24375	-0.85625	-0.86042	-0.21458	4.117	129.747	93.614	254.083	-76.703	189.224	203.699	233.593	220.557	146.015	175.509	-75.333	149.034	-56.013	186.409	-90.500	0.0001524	0.00057858	7.5676e-05	1300.1	3.2178e-06	9.6927e-07	1300	347.81	2.3387e-06	4.4747e-06	404.81	135.24	115.81	41.175	4.1069e-06	51.773	0.00022116	0.00021077	5.8184e-05	1297.5	2.345e-06	2.2657e-06	1302.5	349.66	2.3501e-06	2.3168e-06	404.28	137.14	117.38	41.477	2.3054e-06	52.098	228.249	-18.632	-13.233	-77.619	16.519	97.245	-77.610	-72.699	48.532	61.617	-73.388	-69.135	-68.487	-64.284	81.303	-64.972	-8191	255	
20632.076	1	1	0	0	0.20739	0.079179	0.15877	0.16311	0.18207	0.038579	0.31681	0.33922	0.37306	0.30434	0.18168	0.35758	0.12371	0.08147	0.16495	0.32074	-0.67708	-0.47292	-0.3625	-1.4188	-0.34583	-0.70208	-1.1083	-0.27083	-1.1083	-0.68542	-0.35833	-1.3292	-0.47083	-0.65625	-1.1333	-0.22292	219.105	214.348	-1.338	180.662	-5.646	-83.998	209.543	228.621	-60.009	39.616	-86.715	241.611	258.245	3.916	256.728	162.470	0.00017045	0.00048964	7.4932e-05	1295.8	2.8381e-06	6.0073e-06	1298.3	346.18	2.9999e-06	5.2841e-06	402.61	135.07	116.39	41.245	2.6372e-06	51.676	0.00022226	0.0002107	5.8426e-05	1295	2.3371e-06	2.2706e-06	1301.3	349.18	2.2998e-06	2.2578e-06	403.11	137.03	117.45	41.523	2.2563e-06	52.01	238.866	2.451	-21.927	-77.746	94.571	44.148	-77.527	-73.096	66.364	58.752	-73.284	-69.108	-68.614	-64.202	108.413	-65.012	-8191	255	
20632.148	1	1	0	0	0.10315	0.12607	0.13245	0.096811	0.088934	0.25449	0.30369	0.20043	0.045857	0.19613	0.10339	0.085595	0.03046	0.058378	0.20717	0.10101	-0.55208	-0.61042	-0.19167	-1.3104	-0.38125	-0.53333	-1.3271	-0.25833	-0.90833	-0.87292	-0.28333	-1.2687	-0.7	-0.55208	-1.1917	-0.42292	188.997	201.312	62.981	267.905	119.171	-5.185	262.237	-64.444	-18.363	-86.290	38.780	258.712	-40.500	165.164	124.362	-86.423	0.00010603	0.00051838	9.9096e-05	1295.4	3.3083e-06	6.9871e-06	1298.3	347.53	2.8128e-06	6.6849e-06	403.03	135.41	115.55	41.25	3.6293e-06	51.318	0.00021879	0.00020712	5.8658e-05	1295.5	2.3364e-06	2.2722e-06	1301.2	349.32	2.2752e-06	2.2176e-06	403.47	136.98	117.24	41.504	2.2011e-06	51.917	240.322	-29.177	12.798	-77.726	51.208	78.152	-77.703	-73.071	25.462	35.625	-73.657	-68.952	-68.526	-64.065	82.182	-65.033	-8191	255	
20632.270	1	1	0	0	0.11075	0.11607	0.2204	0.30162	0.20575	0.071	0.26628	0.15803	0.12262	0.10751	0.12583	0.20326	0.17035	0.13364	0.2526	0.13658	-0.32292	-0.87292	-0.06875	-1.1771	-0.53333	-0.30833	-1.3083	-0.44792	-0.65417	-1.0187	-0.27708	-1.125	-0.74167	-0.40625	-1.1958	-0.3875	259.306	253.437	107.484	61.012	221.726	-21.714	201.757	106.540	185.877	-66.674	183.427	-42.663	255.805	206.211	192.066	164.965	0.00013587	0.00032401	0.0001887	1292	3.8808e-06	3.0738e-06	1291.1	346.33	1.9304e-06	4.4129e-06	402.32	135.18	115.85	41.06	2.7771e-06	51.633	0.00021542	0.00020234	5.5632e-05	1293.2	2.2308e-06	2.1121e-06	1298.4	348.76	2.1903e-06	2.1041e-06	402.04	136.84	117.15	41.453	2.1708e-06	51.929	238.040	-9.537	-20.143	-77.839	43.684	57.756	-77.757	-73.069	80.467	70.629	-73.477	-68.965	-68.492	-64.323	78.305	-65.088	-8191	255	
20632.365	1	1	0	0	0.12434	0.15393	0.19564	0.2322	0.076957	0.24324	0.072002	0.14127	0.14568	0.14907	0.29761	0.075981	0.027365	0.37549	0.12192	0.25771	-0.30417	-0.91875	-0.14167	-1.0208	-0.52292	-0.24375	-1.3625	-0.51458	-0.5625	-1.1479	-0.34583	-0.98125	-0.70625	-0.28333	-1.0187	-0.41042	126.137	195.243	142.494	245.078	-72.615	-29.480	-89.206	174.408	192.736	-90.945	93.489	127.590	13.830	-31.582	39.162	202.200	0.00015593	0.00038175	0.00011471	1292	1.1064e-06	5.5361e-06	1292.8	346.4	1.5123e-06	4.6312e-06	402.73	135.32	116.2	41.207	2.4901e-06	51.824	0.00021193	0.00019625	5.4841e-05	1292.5	2.2195e-06	2.1322e-06	1298	348.39	2.1898e-06	2.0635e-06	402.87	136.88	117.27	41.545	2.1078e-06	52.071	240.140	16.360	-12.193	-77.718	69.131	68.952	-77.526	-73.067	61.569	82.630	-73.609	-69.016	-68.649	-64.211	81.265	-64.679	-8191	255	
20632.461	1	1	0	0	0.2809	0.14147	0.29388	0.050152	0.18181	0.16276	0.12546	0.1784	0.14761	0.25854	0.22632	0.068926	0.19944	0.077134	0.15152	0.21348	-0.21667	-1.1354	-0.12708	-0.96875	-0.61667	-0.22708	-1.1104	-0.61042	-0.37917	-1.0542	-0.25625	-0.85625	-1.0083	-0.25	-1.0292	-0.58125	-32.367	192.495	-79.803	235.483	189.632	-60.929	-31.396	20.086	88.623	234.007	248.517	-86.589	264.791	44.036	91.520	163.351	0.00014659	0.00028867	0.00011935	1289.8	1.5866e-06	3.3873e-06	1296.1	346.44	2.2974e-06	4.6535e-06	402.27	135.35	115.38	41.18	4.296e-06	51.45	0.00020936	0.00018931	5.3257e-05	1291.3	2.1339e-06	2.1288e-06	1297.7	348.63	2.194e-06	2.0769e-06	402.35	136.99	117.06	41.473	2.1683e-06	51.89	236.713	5.939	-41.463	-77.507	92.678	95.679	-77.496	-73.025	105.134	73.228	-73.557	-69.082	-68.418	-64.315	103.981	-64.672	-8191	255	
20632.582	1	1	0	0	0.090929	0.2602	0.20925	0.49351	0.09118	0.28822	0.22306	0.12016	0.16656	0.3708	0.13908	0.19918	0.075075	0.34068	0.2527	0.078727	-0.0875	-0.94792	-0.21875	-0.82708	-0.9125	-0.34375	-1.3417	-0.7125	-0.2625	-0.99792	-0.45417	-0.95625	-1.2979	-0.40625	-0.97708	-0.76667	-48.552	-73.823	228.607	209.090	101.150	199.522	-52.290	173.081	32.701	-48.417	239.628	147.451	1.217	160.041	-61.704	240.981	0.0001512	0.00042824	0.00015411	1292.7	3.1087e-06	5.2767e-06	1297.9	346.25	1.7999e-06	4.3679e-06	401.8	135.02	115.33	41.15	1.4709e-06	51.739	0.00020829	0.00018939	5.4866e-05	1290.7	2.1533e-06	2.1226e-06	1299.4	348.63	2.1456e-06	2.0623e-06	402.61	136.84	117.02	41.496	2.0584e-06	52.045	232.881	16.257	-11.953	-77.470	68.607	89.713	-77.675	-72.969	39.134	56.693	-73.426	-69.121	-68.740	-64.032	50.711	-64.905	-8191	255	
20632.678	1	1	0	0	0.091271	0.15326	0.072485	0.17635	0.23136	0.17374	0.062222	0.14096	0.21355	0.057197	0.13719	0.10932	0.21108	0.18578	0.24134	0.098083	-0.020833	-1.1	-0.33542	-0.73333	-0.96458	-0.17083	-1.175	-0.70417	-0.21875	-1.2354	-0.65	-0.575	-1.1896	-0.29375	-1.0521	-0.80833	234.217	220.954	123.905	231.089	-14.448	68.644	198.991	25.640	229.938	179.701	224.772	221.332	-77.679	4.454	-57.825	207.596	0.00014191	0.00038319	0.00019153	1293.7	1.4455e-06	6.3301e-06	1298.5	345.5	2.2358e-06	4.5168e-06	401.12	134.79	116.03	41.122	3.8433e-06	51.674	0.00020349	0.00018343	5.209e-05	1291.8	2.1031e-06	2.0954e-06	1298.9	348.37	2.0962e-06	1.9902e-06	401.77	136.69	117.25	41.486	2.058e-06	51.963	243.680	2.637	-18.160	-77.558	124.100	44.347	-77.674	-73.113	57.944	80.469	-73.619	-68.888	-68.427	-64.146	82.196	-64.772	-8191	255	
20632.771	1	1	0	0	0.097006	0.10817	0.13067	0.19113	0.10701	0.28567	0.17253	0.095411	0.13406	0.24126	0.12962	0.25529	0.29607	0.23559	0.010135	0.075385	0.11042	-0.99583	-0.54583	-0.69583	-1.2208	-0.0125	-0.84583	-1.0167	-0.275	-1.2375	-0.66667	-0.45833	-1.2208	-0.27708	-0.67708	-1.15	178.670	38.844	55.531	224.886	171.620	147.490	237.923	203.269	-13.721	30.722	248.351	9.414	237.300	226.940	123.882	208.598	0.00014629	0.0003522	4.6253e-05	1293.4	2.6152e-06	2.1559e-06	1288.8	347	3.1621e-06	5.2822e-06	400.36	135.05	116.37	41.153	2.1414e-06	51.522	0.00020007	0.00018196	5.1788e-05	1289.4	2.0708e-06	2.0111e-06	1294.7	348.19	2.1088e-06	1.9243e-06	401.76	136.55	117.29	41.431	1.9987e-06	51.881	237.469	-10.100	3.731	-77.508	58.699	45.155	-77.648	-72.833	40.629	106.130	-73.566	-69.034	-68.331	-64.150	26.731	-64.824	-8191	255	
20632.846	1	1	0	0	0.12732	0.19268	0.23223	0.074308	0.088941	0.16033	0.35976	0.29023	0.15829	0.088226	0.49276	0.35356	0.21735	0.24298	0.16259	0.13637	0.25833	-0.975	-0.64792	-0.62292	-1.2313	-0.275	-0.82083	-1.0479	-0.0875	-0.9625	-0.9375	-0.49583	-1.1792	-0.41875	-0.60208	-1.0417	264.034	120.989	45.753	-67.393	-59.549	223.893	268.703	265.664	215.452	209.935	213.684	228.861	-57.388	222.592	27.368	230.696	0.00018861	0.00037665	0.00012513	1289.2	2.9481e-06	4.7327e-06	1296.5	345.49	2.2545e-06	3.69e-06	401.36	135.37	115.45	40.991	4.1444e-06	51.944	0.00019951	0.00017851	5.0332e-05	1287.5	2.0197e-06	1.9945e-06	1295.4	348.14	2.1008e-06	1.9423e-06	401.31	136.73	117	41.448	1.9962e-06	52.019	232.111	-4.517	11.415	-77.737	57.625	66.978	-77.437	-72.671	79.071	67.454	-73.466	-68.858	-68.457	-64.331	77.300	-64.458	-8191	255	
20632.965	1	1	0	0	0.27289	0.28206	0.064418	0.28081	0.13065	0.30899	0.081841	0.22401	0.27865	0.28767	0.32479	0.34143	0.054228	0.064298	0.18404	0.29066	0.15417	-0.81042	-0.57708	-0.41667	-1.05	-0.46875	-0.5875	-1.0688	-0.30625	-0.66667	-1.0167	-0.27083	-1.2354	-0.50417	-0.3	-1.1812	159.304	50.042	-71.868	242.389	-55.029	72.166	160.234	244.328	-87.327	-53.649	237.926	231.913	54.633	211.092	243.951	160.787	0.00016079	0.00035812	6.9482e-05	1290.6	2.8678e-06	4.907e-06	1291.2	344.82	3.1143e-06	4.3095e-06	400.03	135.1	115.86	41.132	3.346e-06	51.635	0.00019796	0.00017822	5.0528e-05	1288.8	2.0192e-06	1.9453e-06	1294.8	347.94	1.9942e-06	1.945e-06	401.03	136.42	117.07	41.389	2.0158e-06	51.855	248.489	-1.325	-3.468	-77.797	69.891	41.256	-77.501	-72.843	40.343	69.679	-73.217	-68.911	-68.151	-63.833	31.786	-64.393	-8191	255	
20633.061	1	1	0	0	0.17971	0.2235	0.17902	0.095605	0.036211	0.11789	0.035817	0.27293	0.075957	0.16746	0.41195	0.17808	0.22922	0.24044	0.15695	0.35598	0.22292	-0.9375	-0.86458	-0.30625	-1.0917	-0.55208	-0.53542	-1.3625	-0.38542	-0.66042	-1.0688	-0.020833	-0.98542	-0.59583	-0.22292	-1.2833	225.224	186.171	-44.405	-35.502	46.001	178.963	143.143	247.623	233.558	25.586	125.556	-7.452	243.526	185.471	260.398	-46.824	0.00015568	0.00050362	0.00012885	1288.3	4.9109e-06	3.4038e-06	1290.3	346.29	9.5394e-07	3.4041e-06	400.7	134.84	115.94	41.139	3.6219e-06	51.745	0.00019532	0.00017523	4.9363e-05	1286.4	1.9736e-06	1.895e-06	1293.5	347.7	2.0293e-06	1.8492e-06	400.68	136.47	117.06	41.418	1.9424e-06	51.949	234.741	-8.927	-17.869	-77.425	47.158	93.172	-77.314	-72.684	103.790	66.199	-73.305	-68.985	-68.057	-63.701	81.186	-64.268	-8191	255	
20633.156	1	1	0	0	0.12757	0.16351	0.24086	0.2886	0.053605	0.16443	0.27963	0.25038	0.2761	0.15443	0.28698	0.13693	0.18627	0.22445	0.10552	0.069799	0.19167	-0.40417	-0.9	-0.3	-0.75625	-0.67083	-0.49375	-1.2979	-0.25208	-0.38958	-1.1479	-0.35625	-0.90208	-0.81458	-0.041667	-1.225	-10.723	227.783	16.336	-79.031	164.986	137.204	232.881	268.903	90.653	146.764	-41.564	-81.012	-60.833	3.985	-83.643	-68.656	0.00012612	0.00023021	0.0001584	1279.9	2.3504e-06	4.8067e-06	1285	345.01	3.9845e-06	6.0008e-06	401.34	134.38	115.69	41.073	2.4522e-06	51.599	0.00019267	0.00017302	4.8701e-05	1281.4	1.9888e-06	1.8476e-06	1288.1	347.7	1.9929e-06	1.8917e-06	400.95	136.25	116.86	41.371	1.8879e-06	51.821	240.707	-3.638	3.543	-77.633	7.015	60.376	-77.521	-72.566	97.371	78.050	-73.177	-68.678	-67.911	-63.931	49.648	-64.495	-8191	255	
20633.254	1	1	0	0	0.16465	0.060577	0.21529	0.21531	0.35283	0.14062	0.10371	0.12002	0.18429	0.15168	0.18192	0.19461	0.079106	0.13162	0.21958	0.21116	-0.20625	-0.31667	-1.0812	-0.24792	-0.91042	-0.80417	-0.45	-1.2042	-0.35417	-0.48958	-1.2292	-0.23333	-0.78958	-0.93333	-0.22292	-1.1479	122.702	186.124	-40.570	-87.916	-31.081	-60.538	182.514	165.310	80.902	208.516	217.497	242.884	161.588	244.128	-62.726	25.483	0.00012997	0.00026587	0.00011426	1279.4	4.363e-06	7.3435e-06	1279.1	345.47	1.5253e-06	5.0383e-06	399.22	134.57	115.26	41.169	4.4365e-06	51.728	0.00019226	0.00016969	4.697e-05	1279.6	1.9313e-06	1.8607e-06	1286.4	347.4	1.9218e-06	1.8641e-06	400.27	136.04	116.84	41.358	1.8924e-06	51.809	231.472	2.721	-1.494	-77.511	87.734	65.551	-77.153	-72.618	62.967	61.049	-72.834	-68.744	-68.165	-64.030	60.796	-64.442	-8191	255	
20633.373	1	1	0	0	0.10087	0.16375	0.15254	0.18115	0.39266	0.096415	0.26402	0.063232	0.045167	0.22831	0.14282	0.20938	0.39105	0.12571	0.13531	0.10176	-0.21875	-0.41875	-1.1063	-0.52083	-0.5375	-0.94375	-0.3625	-1.2021	-0.59583	-0.30625	-0.99375	-0.53125	-0.94792	-1.1583	-0.18542	-1.1396	189.908	177.104	-37.056	3.230	46.740	-56.650	195.882	-67.892	-38.331	216.176	115.844	45.143	-71.329	178.234	-87.719	-61.557	0.00014753	0.00036855	0.00015928	1277	3.944e-06	7.2265e-06	1280.1	344.42	4.3213e-06	6.0205e-06	402.14	134.27	115.72	41.089	3.9634e-06	51.419	0.00018661	0.00017386	4.6372e-05	1280	1.941e-06	1.8554e-06	1285.6	346.52	1.8867e-06	1.8308e-06	401.31	135.89	116.76	41.313	1.86e-06	51.744	237.406	5.467	2.020	-77.383	74.667	71.491	-77.244	-72.363	5.427	67.276	-73.000	-68.726	-68.128	-63.834	39.101	-64.406	-8191	255	
20633.445	1	1	0	0	0.18716	0.212	0.1823	0.25095	0.087165	0.097969	0.3331	0.42949	0.26895	0.17672	0.086634	0.13322	0.18489	0.17082	0.072567	0.24679	-0.18333	-0.31042	-1.1437	-0.475	-0.61667	-1.0896	-0.45833	-0.9625	-0.74583	-0.18333	-1.3396	-0.475	-0.55625	-1.1646	-0.20208	-0.96042	94.626	-77.266	159.163	234.142	74.643	59.194	183.039	-83.772	78.955	36.426	85.240	131.527	259.634	-15.709	5.744	262.254	0.00014362	0.00038731	0.00012559	1276.9	4.7686e-06	7.3268e-06	1284.5	344.88	1.3339e-06	4.2953e-06	399.86	134.86	115.24	41.186	3.8248e-06	51.814	0.00018466	0.00016735	4.6395e-05	1279.6	1.8694e-06	1.8124e-06	1285.4	346.49	1.8475e-06	1.8e-06	400.26	136.25	116.57	41.323	1.8747e-06	51.847	233.124	14.262	-0.887	-77.502	57.074	54.536	-77.265	-72.389	93.727	45.037	-73.131	-68.528	-67.709	-63.797	64.953	-64.236	-8191	255	
20633.541	1	1	0	0	0.19049	0.1296	0.085717	0.25018	0.23166	0.10528	0.26634	0.20918	0.2489	0.06427	0.094512	0.12486	0.35864	0.11416	0.3304	0.095587	-0.47708	-0.091667	-1.0771	-0.41667	-0.30417	-1.0958	-0.23333	-0.6625	-1	-0.17292	-1.1896	-0.50625	-0.41667	-1.2604	-0.30208	-0.67083	68.920	-71.130	34.106	-73.711	-88.410	74.718	145.227	222.725	-78.753	70.955	-86.827	244.359	260.453	-36.632	-21.380	266.146	0.00015116	0.00040942	0.00010833	1278.2	1.3671e-06	6.1446e-06	1279.4	344.21	2.3478e-06	4.4964e-06	400.72	134.32	115.64	40.931	2.7267e-06	51.785	0.00018336	0.00016929	4.5969e-05	1277.6	1.8819e-06	1.7367e-06	1283.2	346.18	1.8626e-06	1.7565e-06	399.75	136.05	116.71	41.262	1.8528e-06	51.752	228.775	-10.953	-4.470	-77.282	125.275	48.075	-77.100	-72.125	81.910	53.706	-73.065	-68.467	-67.983	-63.244	66.499	-64.242	-8191	255	
20633.662	1	1	0	0	0.21066	0.17673	0.10133	0.4202	0.26876	0.24703	0.36409	0.23684	0.10781	0.22353	0.12055	0.22922	0.059926	0.24236	0.32706	0.11874	-0.48125	-0.23125	-0.975	-0.74792	-0.16042	-1.0271	-0.36458	-0.56875	-0.87708	-0.13333	-0.89583	-0.86458	-0.3125	-1.0729	-0.3875	-0.62083	69.311	-20.753	-19.437	237.583	4.914	267.079	187.034	227.380	82.142	164.143	-81.953	231.132	-68.602	215.277	-30.840	224.351	0.00014559	0.00037295	0.00014539	1278.1	3.1861e-06	4.3236e-06	1284.3	344.65	2.54e-06	3.8512e-06	400.16	134.25	115.25	41.009	5.0682e-06	51.583	0.00018033	0.00016513	4.5933e-05	1277	1.8709e-06	1.7811e-06	1283.6	345.81	1.803e-06	1.7933e-06	399.99	136.09	116.53	41.276	1.8345e-06	51.734	235.076	-0.390	19.324	-76.929	57.706	101.642	-77.053	-72.195	35.953	71.140	-72.708	-68.217	-67.633	-63.395	20.725	-64.191	-8191	255	
20633.756	1	1	0	0	0.049953	0.092983	0.20803	0.36104	0.24025	0.24617	0.14126	0.28759	0.10728	0.12158	0.030467	0.15264	0.11339	0.19293	0.2633	0.12121	-0.79167	-0.09375	-0.79583	-0.92292	-0.095833	-1.025	-0.73542	-0.44792	-1.1688	-0.16875	-0.93125	-1.1229	-0.35833	-0.92083	-0.34583	-0.46875	-9.076	118.325	-39.580	-87.816	-51.524	148.035	240.626	196.679	-8.171	138.749	119.956	59.470	190.242	-43.261	62.982	165.670	0.00015803	0.0002493	0.00017418	1276.4	2.8569e-06	5.0451e-06	1282.8	344.76	1.2084e-06	2.3066e-06	401.47	135.04	115.68	41.137	2.6933e-06	51.625	0.00017829	0.00015835	4.3933e-05	1275.9	1.8306e-06	1.7085e-06	1282	345.85	1.829e-06	1.7277e-06	399.63	136.14	116.75	41.284	1.7957e-06	51.747	233.429	13.450	10.499	-77.077	94.460	38.366	-76.991	-71.900	11.612	60.432	-72.825	-68.166	-67.685	-63.380	76.300	-63.844	-8191	255	
20633.854	1	1	0	0	0.13881	0.14597	0.16786	0.19507	0.1482	0.39973	0.16708	0.22525	0.08526	0.2123	0.062092	0.22024	0.21588	0.070601	0.29636	0.097567	-0.65417	-0.29167	-0.625	-1.1562	-0.19792	-1.0354	-0.75417	-0.38333	-0.975	-0.33333	-0.71667	-0.99792	-0.22292	-0.95625	-0.64792	-0.43333	-62.479	-32.336	263.875	210.784	17.142	-27.725	267.215	207.302	156.374	44.534	-45.903	3.160	-63.917	-83.459	15.367	148.858	0.00015311	0.00042771	0.00010036	1274.7	3.0759e-06	4.3269e-06	1277.7	344.61	3.3473e-06	3.8333e-06	400.42	134.6	115.33	40.961	3.5956e-06	51.488	0.00017365	0.00015952	4.4595e-05	1275.3	1.8368e-06	1.6767e-06	1281.7	346.05	1.831e-06	1.7259e-06	399.72	135.97	116.55	41.299	1.771e-06	51.721	239.280	19.552	15.961	-76.949	88.610	69.650	-77.012	-72.079	25.452	75.434	-72.343	-68.149	-67.629	-63.133	87.385	-63.864	-8191	255	
20633.949	1	1	0	0	0.096876	0.13165	0.33322	0.10716	0.37948	0.19734	0.17169	0.19572	0.26362	0.065013	0.23021	0.1683	0.074661	0.30749	0.066624	0.14076	-0.66667	-0.28958	-0.45833	-1.0729	-0.2	-0.87292	-0.92708	-0.41875	-0.94792	-0.44375	-0.64375	-1.0833	-0.16667	-0.99792	-0.66667	-0.33125	142.928	125.592	70.395	101.493	-53.992	51.120	-6.188	235.898	243.546	211.572	202.260	48.222	137.176	230.139	141.791	180.143	0.00016963	0.00033189	0.00013796	1276.6	4.1604e-06	5.7838e-06	1282.6	344.64	2.4689e-06	5.5173e-06	402.02	134.59	115.35	41.056	4.8287e-06	51.573	0.00017495	0.00016121	4.5174e-05	1274.8	1.8471e-06	1.7566e-06	1284	346.06	1.8092e-06	1.785e-06	400.71	135.92	116.54	41.389	1.8006e-06	51.768	219.050	-5.625	-5.127	-76.953	92.783	60.778	-76.588	-71.749	18.018	40.232	-72.581	-68.216	-67.294	-62.842	84.521	-63.883	-8191	255	
20634.045	1	1	0	0	0.035977	0.039441	0.11013	0.064016	0.21071	0.17632	0.23258	0.36308	0.20887	0.085427	0.017136	0.1777	0.29677	0.1896	0.30265	0.034771	-0.63958	-0.52708	-0.3375	-1.1896	-0.077083	-0.80833	-1.0229	-0.4375	-1.0812	-0.68125	-0.46458	-1.1562	-0.30833	-0.7625	-0.91667	-0.14167	107.756	259.935	209.392	-57.842	159.523	-12.768	-87.707	222.685	-30.887	145.977	161.854	8.721	-87.796	-76.389	58.481	-37.126	0.0001385	0.00024941	0.00010598	1275.5	2.6796e-06	4.3421e-06	1281.5	343.09	4.1504e-06	4.2529e-06	400.99	134.52	115.06	40.884	1.7212e-06	51.655	0.00017649	0.00016321	4.7169e-05	1275.6	1.8751e-06	1.7749e-06	1283.2	345.39	1.8331e-06	1.8118e-06	400.01	135.94	116.36	41.274	1.8063e-06	51.751	221.830	-8.949	-5.933	-77.060	64.029	37.299	-76.807	-71.856	74.330	47.252	-72.649	-68.234	-67.554	-63.086	89.733	-63.804	-8191	255	
20634.141	1	1	0	0	0.20139	0.32445	0.18477	0.32893	0.39753	0.087493	0.32252	0.42476	0.24628	0.16139	0.16034	0.10908	0.22648	0.058093	0.13928	0.26703	-0.625	-0.44583	-0.14375	-1.3229	-0.34792	-0.56042	-1.125	-0.36875	-0.87917	-0.72292	-0.35625	-1.2167	-0.28125	-0.66042	-0.97292	-0.30208	-34.199	30.156	217.158	151.117	-24.999	35.714	234.634	230.665	-35.950	222.604	175.426	159.175	-64.508	-50.741	155.552	236.511	0.00015943	0.00028421	0.00017542	1275.4	3.7896e-06	4.8346e-06	1285.9	343.82	1.3908e-06	6.1074e-06	399.23	134.41	115.6	41.026	5.5967e-06	51.48	0.00017985	0.0001637	4.4837e-05	1274.9	1.8573e-06	1.7897e-06	1281.7	345.85	1.8109e-06	1.7505e-06	399.69	136.1	116.64	41.312	1.7854e-06	51.686	224.230	-13.075	6.298	-76.759	58.526	54.604	-76.818	-72.149	51.970	54.388	-72.483	-68.145	-67.561	-63.090	84.302	-63.773	-8191	255	
20634.262	1	1	0	0	0.037044	0.14783	0.2679	0.25827	0.017285	0.12158	0.081097	0.49413	0.13875	0.16827	0.16944	0.086686	0.096524	0.12986	0.18449	0.17831	-0.425	-0.73542	-0.36667	-1.1667	-0.33333	-0.38125	-1.2479	-0.4	-0.75417	-0.78333	-0.35833	-1.1104	-0.5875	-0.37917	-1.0583	-0.30417	106.196	142.247	-28.198	232.862	100.184	-70.227	270.019	184.294	30.908	154.503	-54.435	245.626	-88.953	38.159	-16.562	195.075	0.00015881	0.00027326	0.00013068	1275.4	1.8392e-06	3.2877e-06	1286.4	344.02	2.2745e-06	4.2209e-06	401.18	134.42	114.94	41.019	2.0636e-06	51.674	0.00017629	0.00015819	4.5619e-05	1273.5	1.8869e-06	1.7613e-06	1283.9	345.57	1.8306e-06	1.7556e-06	399.78	135.91	116.46	41.278	1.7715e-06	51.727	226.651	19.848	-6.514	-76.730	30.556	83.787	-76.763	-71.937	40.031	57.898	-72.460	-67.940	-67.399	-63.127	110.904	-63.526	-8191	255	
20634.357	1	1	0	0	0.079701	0.036389	0.23073	0.27603	0.18498	0.14854	0.30208	0.24847	0.12857	0.13624	0.16069	0.028896	0.28462	0.14039	0.308	0.14095	-0.43333	-0.74792	-0.17292	-1.2229	-0.42917	-0.49583	-1.2604	-0.46875	-0.70625	-0.79583	-0.37917	-0.92083	-0.575	-0.475	-1.2	-0.3625	14.703	71.515	-46.194	256.461	-27.999	208.353	106.735	233.949	-80.565	48.576	-45.345	138.410	-72.655	-67.422	216.755	-2.318	0.00013275	0.00048009	0.00010071	1279.1	2.2278e-06	2.8756e-06	1279.5	343.85	1.2396e-06	6.1017e-06	401.1	134.33	115.01	41.09	3.3319e-06	51.496	0.0001763	0.00016246	4.5592e-05	1275.8	1.8318e-06	1.7557e-06	1282.5	345.57	1.7975e-06	1.7537e-06	399.57	135.87	116.42	41.295	1.7614e-06	51.581	228.161	18.430	3.025	-76.674	42.433	95.567	-76.609	-71.747	58.150	64.301	-72.491	-67.987	-67.421	-63.141	84.374	-63.488	-8191	255	
20634.453	1	1	0	0	0.26708	0.10293	0.1236	0.23663	0.17339	0.24677	0.19914	0.1675	0.27633	0.26383	0.37134	0.074652	0.21127	0.19403	0.11987	0.16862	-0.24167	-0.98542	-0.17292	-1.2292	-0.55417	-0.26458	-1.15	-0.43125	-0.57292	-1.0083	-0.17083	-0.95417	-0.72083	-0.22917	-1.0208	-0.49583	217.153	31.164	175.833	228.171	51.095	261.096	234.039	122.661	14.364	-68.032	239.196	-24.835	263.679	-25.084	22.034	76.464	0.00014505	0.00041358	0.00014374	1275	3.1988e-06	5.1035e-06	1284	344.27	3.3538e-06	1.5548e-06	399.5	134.38	115.93	40.939	2.6597e-06	51.344	0.00017541	0.00015794	4.4874e-05	1273.5	1.7569e-06	1.73e-06	1282.1	345.44	1.785e-06	1.7522e-06	399.2	135.85	116.23	41.221	1.7612e-06	51.54	228.405	18.861	7.205	-76.487	56.638	72.968	-76.540	-71.685	74.520	122.819	-72.226	-67.540	-67.302	-62.745	119.086	-63.733	-8191	255	
20634.551	1	1	0	0	0.26762	0.28194	0.094679	0.26094	0.16619	0.29472	0.17937	0.059488	0.033231	0.13099	0.14157	0.080471	0.27118	0.21354	0.11204	0.13443	-0.010417	-0.9625	-0.29375	-0.97708	-0.85208	-0.32083	-1.15	-0.68542	-0.45625	-1.1313	-0.19792	-0.69375	-0.84583	-0.26875	-1.2417	-0.4375	265.490	-4.565	115.472	254.086	-50.389	111.630	266.621	181.273	214.675	155.153	168.028	-84.968	-12.457	186.457	164.931	41.496	0.00016094	0.00022712	0.0001703	1278.1	4.7703e-06	3.947e-06	1278.6	344.16	8.1412e-07	3.9189e-06	399.23	135.03	115.52	41.31	4.1059e-06	51.446	0.00018036	0.00015522	4.4301e-05	1275.8	1.7733e-06	1.7448e-06	1280.8	345.41	1.7878e-06	1.6996e-06	398.9	136.32	116.6	41.408	1.7703e-06	51.603	223.521	6.287	-7.888	-76.487	62.376	33.531	-76.481	-71.568	81.191	82.323	-72.428	-67.586	-67.175	-62.485	72.392	-63.750	-8191	255	
20634.672	1	1	0	0	0.10313	0.28942	0.10149	0.27835	0.026716	0.068661	0.31811	0.33004	0.14733	0.25036	0.27574	0.2366	0.14603	0.12914	0.10085	0.13479	0.11042	-0.94167	-0.16042	-0.91458	-0.71875	0.0020833	-1.4104	-0.6625	-0.3125	-1.1125	-0.42917	-0.55625	-0.82708	-0.13333	-0.75	-0.84167	-52.677	157.241	238.599	-83.098	221.924	113.790	233.585	226.974	158.736	226.556	155.756	148.233	-50.710	58.561	-66.552	214.404	0.00017531	0.00033119	0.00017218	1275.7	2.1763e-06	3.0983e-06	1283.3	345.14	2.107e-06	6.5155e-06	400.42	134.38	115.24	40.979	5.5761e-06	51.59	0.00017828	0.00015983	4.4912e-05	1273.8	1.8277e-06	1.7409e-06	1282.2	345.69	1.8072e-06	1.7073e-06	398.98	135.96	116.39	41.23	1.8044e-06	51.73	235.473	-30.107	-16.557	-76.476	82.831	50.352	-76.406	-71.563	45.055	80.503	-72.239	-67.574	-66.989	-62.839	64.135	-63.424	-8191	255	
20634.742	1	1	0	0	0.060702	0.20228	0.1825	0.20984	0.20151	0.20174	0.22626	0.19864	0.08223	0.18791	0.27398	0.12284	0.12257	0.17265	0.19206	0.089518	0.21667	-1.0104	-0.070833	-0.61875	-0.94375	-0.15625	-1	-0.85208	-0.25625	-1.1146	-0.625	-0.40417	-1.225	-0.17292	-0.64583	-0.90417	255.484	10.755	94.215	-75.275	249.978	-2.705	129.094	257.201	114.597	74.266	269.782	151.111	184.560	-71.991	116.308	-26.042	0.00016376	0.00039756	7.3131e-05	1278.9	3.525e-06	4.9751e-06	1284	344.28	1.4938e-06	4.3651e-06	399.46	134.59	115.15	40.972	3.8891e-06	51.664	0.00017638	0.00015829	4.5449e-05	1274.8	1.8131e-06	1.7551e-06	1283.7	345.51	1.8455e-06	1.7184e-06	399.04	135.98	116.46	41.183	1.8001e-06	51.663	232.020	-7.305	2.200	-76.372	68.485	63.830	-76.328	-71.356	9.290	52.345	-72.233	-67.430	-66.928	-62.720	60.810	-63.287	-8191	255	
20634.838	1	1	0	0	0.23079	0.021038	0.29405	0.1531	0.23154	0.16343	0.29823	0.35013	0.21771	0.026664	0.22671	0.026646	0.063601	0.14119	0.057522	0.194	0.18958	-1.1646	-0.44167	-0.35833	-1.0438	-0.25625	-0.8	-0.9875	-0.014583	-1.0167	-0.69792	-0.50625	-1.1729	-0.25	-0.52917	-1.0063	-29.600	250.847	37.495	235.451	180.345	-24.555	-62.983	189.788	66.298	189.021	169.040	53.022	-55.219	243.226	-38.002	201.189	0.00015458	0.00031051	0.00013711	1272.7	3.9624e-06	5.3254e-06	1282	343.59	2.9315e-06	1.4911e-06	399.47	134.82	115.64	41.147	3.4929e-06	51.507	0.00018458	0.00016102	4.4365e-05	1272.7	1.8135e-06	1.7999e-06	1280.9	345.45	1.8318e-06	1.7386e-06	398.77	136.29	116.54	41.239	1.7758e-06	51.68	223.099	30.211	2.227	-76.221	105.822	72.994	-76.154	-71.275	50.467	71.953	-71.849	-67.231	-66.880	-62.600	72.013	-63.392	-8191	255	
20634.934	1	1	0	0	0.093729	0.090337	0.29695	0.22639	0.2073	0.1234	0.26848	0.2367	0.2126	0.33466	0.044239	0.21057	0.25524	0.30278	0.25093	0.046637	0.20625	-0.93542	-0.61458	-0.40833	-0.925	-0.41875	-0.67083	-1.1229	-0.29583	-0.92917	-0.79583	-0.36667	-1.4542	-0.54375	-0.42917	-1.0958	209.499	161.182	193.284	185.066	176.691	207.629	252.006	218.938	35.231	-58.683	150.293	231.006	212.038	200.476	10.282	205.255	0.00015032	0.00042518	0.00010087	1276.6	2.7477e-06	3.1031e-06	1280	344.14	1.4892e-06	4.8401e-06	399.08	134.07	115.5	40.91	3.2451e-06	51.839	0.00017601	0.00015468	4.4339e-05	1272.5	1.7679e-06	1.6935e-06	1279.8	345.01	1.8027e-06	1.6825e-06	398.33	135.63	116.44	41.166	1.7326e-06	51.707	225.284	-11.184	-39.644	-76.216	71.169	26.488	-75.928	-71.215	34.534	89.921	-72.058	-67.173	-66.620	-62.618	56.953	-63.326	-8191	255	
20635.055	1	1	0	0	0.070086	0.084123	0.1365	0.38389	0.18561	0.041122	0.24389	0.15484	0.14388	0.18416	0.34625	0.25354	0.29824	0.054919	0.16176	0.19036	0.15	-0.81875	-0.7625	-0.2625	-0.94375	-0.4375	-0.70417	-1.1667	-0.12083	-0.78542	-0.99375	-0.12708	-1.0854	-0.51042	-0.32083	-1.1729	29.704	-75.741	-50.784	-74.740	75.571	172.674	227.301	261.544	38.361	227.478	221.687	-60.328	-60.103	172.093	83.863	185.630	0.00015332	0.00039389	0.00016033	1274.4	1.9189e-06	4.8715e-06	1278	343.07	3.1234e-06	6.992e-06	399.35	133.32	115.29	40.884	3.3037e-06	51.453	0.00017541	0.00015694	4.3778e-05	1272.1	1.7739e-06	1.7082e-06	1281.1	345.03	1.7687e-06	1.7029e-06	398.56	135.67	116.49	41.206	1.7781e-06	51.662	222.602	-10.008	-12.396	-76.695	69.784	94.006	-76.857	-71.988	27.350	59.765	-72.630	-68.310	-67.644	-63.553	61.478	-64.153	-8191	255	
20635.150	1	1	0	0	0.086815	0.21895	0.23484	0.086601	0.092961	0.25216	0.12977	0.19671	0.13609	0.26496	0.11564	0.21629	0.18919	0.28906	0.25349	0.16936	0.12292	-0.6875	-1.0354	-0.43125	-0.90208	-0.47708	-0.48542	-1.2062	-0.2875	-0.65	-1.1729	-0.42708	-1.1854	-0.65208	-0.30208	-1.1667	-76.324	-2.319	157.645	224.862	-56.041	22.289	-49.821	-47.308	-70.815	126.683	-47.021	155.068	250.613	-69.911	-37.788	-67.227	0.00013658	0.00021408	0.00015447	1275.8	3.2855e-06	1.7201e-06	1273.9	343.86	2.7318e-06	4.5115e-06	398.8	134.16	115.73	41.012	3.3114e-06	51.621	0.00017593	0.00015564	4.3203e-05	1274.3	1.7752e-06	1.7101e-06	1278.8	345	1.8084e-06	1.6769e-06	398.57	135.66	116.56	41.247	1.7762e-06	51.649	235.317	9.390	18.734	-76.832	13.132	109.161	-76.753	-71.828	44.257	63.313	-72.638	-68.118	-67.537	-62.996	72.734	-63.817	-8191	255	
20635.246	1	1	0	0	0.41216	0.27592	0.11204	0.36225	0.058559	0.20244	0.23632	0.20228	0.10495	0.074183	0.2273	0.079127	0.20333	0.35195	0.11927	0.24511	0.05	-0.45208	-0.95625	-0.34167	-0.69792	-0.76667	-0.41875	-1.3354	-0.1375	-0.41875	-1.0417	-0.27708	-0.7125	-0.74583	-0.31875	-1.1854	-27.634	135.383	145.900	236.292	-70.820	73.036	169.141	142.493	64.947	-80.199	204.491	-39.653	149.337	-83.255	-9.449	-70.601	0.00012469	0.00036616	0.00018815	1270.8	2.4406e-06	5.1072e-06	1281.2	342.45	2.4595e-06	3.2216e-06	398.51	134.45	115.29	40.983	4.1941e-06	51.381	0.0001758	0.00015862	4.5212e-05	1271.7	1.7357e-06	1.746e-06	1279.5	345.05	1.7567e-06	1.7263e-06	398.65	135.81	116.39	41.226	1.7489e-06	51.582	229.665	25.289	6.894	-76.667	101.084	45.877	-76.627	-71.834	71.002	74.605	-72.520	-68.113	-67.306	-63.167	80.165	-63.784	-8191	255	
20635.342	1	1	0	0	0.034253	0.068773	0.1603	0.54831	0.069376	0.14226	0.39227	0.14449	0.078062	0.043922	0.15847	0.34676	0.21874	0.091761	0.19576	0.06812	-0.22292	-0.2	-1.0854	-0.17083	-0.67083	-0.99375	-0.34792	-1.0083	-0.43333	-0.24792	-1.2292	-0.42083	-0.925	-0.95625	-0.20625	-1.0521	259.911	149.126	-18.626	-85.152	5.580	8.793	199.179	-73.659	75.303	-29.282	-36.826	-66.718	258.196	225.315	47.555	145.400	0.00012589	0.0002849	0.00016594	1274.2	3.7305e-06	3.722e-06	1275.6	343.21	1.3428e-06	5.2611e-06	399.77	134.03	115.46	40.908	3.9461e-06	51.489	0.00017337	0.00015581	4.2545e-05	1271.4	1.7686e-06	1.7005e-06	1279.6	344.9	1.795e-06	1.6447e-06	398.34	135.61	116.48	41.161	1.743e-06	51.6	226.564	-1.850	-5.922	-76.529	61.674	32.562	-76.334	-71.624	8.678	64.158	-72.388	-68.071	-66.977	-62.616	65.256	-63.423	-8191	255	
20635.438	1	1	0	0	0.24765	0.081978	0.099674	0.018148	0.19007	0.2657	0.41938	0.3107	0.093765	0.031623	0.076306	0.28745	0.1874	0.18344	0.28126	0.072895	-0.2125	-0.085417	-1.0854	-0.37917	-0.58958	-0.89167	-0.49583	-0.875	-0.60833	-0.15	-1.0958	-0.40208	-0.57083	-1.1542	-0.06875	-0.98958	222.833	-43.080	191.301	-54.741	-29.214	162.990	231.935	212.080	-64.950	157.387	255.913	-75.729	245.777	-79.320	-84.259	268.988	0.00014697	0.00034345	9.9435e-05	1273.5	3.4524e-06	3.1519e-06	1280.7	343.55	9.0663e-07	5.7888e-06	399.69	134.62	115.36	40.925	3.4316e-06	51.397	0.00017112	0.00015689	4.2415e-05	1272.8	1.7507e-06	1.6922e-06	1279.1	345.35	1.7568e-06	1.6953e-06	398.94	135.91	116.37	41.21	1.725e-06	51.66	222.241	-24.884	-30.352	-76.552	75.340	73.419	-76.252	-71.547	50.894	79.241	-72.162	-67.676	-67.139	-62.685	55.473	-64.426	-8191	255	
20635.533	1	1	0	0	0.19947	0.036578	0.088581	0.29066	0.094575	0.2494	0.11432	0.11037	0.15149	0.2123	0.21374	0.084116	0.17378	0.33924	0.18468	0.13291	-0.28958	-0.1125	-1.1708	-0.30625	-0.25833	-1.0417	-0.35417	-1.025	-0.94792	-0.054167	-1.1688	-0.65208	-0.50208	-1.1167	-0.1875	-0.92292	-75.064	26.660	-66.935	266.679	194.874	-51.129	117.263	60.843	103.064	175.218	222.019	17.490	252.607	247.138	233.249	197.323	0.00012767	0.00032495	0.0001926	1270.5	1.8505e-06	4.3872e-06	1278.5	343.38	1.5187e-06	5.0418e-06	400.13	134.47	114.53	40.905	4.3691e-06	51.324	0.00017039	0.00015777	4.2754e-05	1271.1	1.7318e-06	1.6438e-06	1278.4	344.99	1.7659e-06	1.6712e-06	399.04	135.89	116.3	41.252	1.7001e-06	51.612	238.515	23.704	30.421	-77.545	73.507	55.091	-77.302	-72.550	55.945	45.159	-73.011	-68.794	-68.051	-63.818	70.621	-64.296	-8191	255	
20635.631	1	1	0	0	0.093227	0.17073	0.10535	0.1906	0.25747	0.098873	0.083294	0.13402	0.075834	0.32387	0.089789	0.12687	0.21036	0.27097	0.28145	0.37937	-0.35833	-0.020833	-0.88333	-0.51875	-0.33333	-1.1958	-0.31875	-0.73958	-0.87708	-0.097917	-1.2021	-0.65417	-0.42083	-1.2458	-0.32083	-0.73958	128.981	-4.654	-65.874	175.742	151.729	98.644	-43.691	63.890	-76.137	131.602	213.958	260.797	229.774	-75.940	150.563	218.486	0.00016701	0.00044388	0.00016259	1272.9	2.8522e-06	7.2855e-06	1273.2	343.77	2.6036e-06	3.6473e-06	399.8	133.64	115.41	40.879	4.5113e-06	51.47	0.00016792	0.00015408	4.1302e-05	1271.4	1.7343e-06	1.599e-06	1277.5	345.04	1.7595e-06	1.6394e-06	398.65	135.79	116.24	41.22	1.7062e-06	51.602	234.065	-19.073	7.775	-77.743	62.797	53.707	-77.323	-72.500	59.148	51.606	-73.365	-68.668	-67.967	-63.760	58.164	-64.273	-8191	255	
20635.752	1	1	0	0	0.093912	0.15043	0.011677	0.31776	0.27568	0.21393	0.34013	0.11398	0.10244	0.17716	0.14638	0.31668	0.14912	0.11373	0.19776	0.27502	-0.52917	-0.1375	-0.86458	-0.70833	-0.22292	-1.1625	-0.49792	-0.73333	-0.89792	-0.072917	-0.925	-1.0063	-0.12917	-1.1521	-0.52083	-0.35	-70.286	18.320	168.467	-55.373	15.990	215.620	216.706	205.880	46.427	-66.214	252.449	-62.959	3.011	237.117	251.252	141.849	0.00016293	0.00037371	0.00011525	1269.9	2.1442e-06	2.515e-06	1273.5	342.22	1.9862e-06	4.8838e-06	400.39	135.02	114.79	41.206	3.2029e-06	51.309	0.00016847	0.0001567	4.265e-05	1270.6	1.7216e-06	1.6206e-06	1275.4	344.46	1.7239e-06	1.6847e-06	398.71	135.94	116.3	41.314	1.7113e-06	51.601	240.651	16.177	-0.913	-77.333	100.463	48.475	-77.311	-72.451	47.577	58.293	-73.132	-68.608	-68.249	-63.776	85.544	-64.307	-8191	255	
20635.846	1	1	0	0	0.088778	0.081614	0.063428	0.070642	0.28411	0.14249	0.082966	0.11869	0.30428	0.13751	0.11122	0.34537	0.16304	0.25322	0.25888	0.22026	-0.7375	-0.045833	-0.56458	-1.025	-0.21042	-0.88958	-0.52917	-0.48958	-1.0292	-0.10208	-0.925	-0.82917	-0.13125	-0.99792	-0.43542	-0.42083	-71.656	-51.799	94.791	198.351	-39.426	92.476	-9.602	-90.143	-79.631	7.278	174.255	230.613	-67.792	262.840	64.416	-82.782	0.00016243	0.00044147	0.0001495	1271.5	2.4845e-06	5.2982e-06	1270.5	343.18	1.9421e-06	6.4311e-06	399.15	134.4	115.37	40.826	2.4223e-06	51.362	0.00016873	0.00014994	4.1382e-05	1271	1.7308e-06	1.6452e-06	1274.3	344.91	1.7355e-06	1.6487e-06	398.32	135.79	116.41	41.206	1.6691e-06	51.667	222.643	6.055	-1.761	-77.371	56.025	64.687	-77.296	-72.243	26.305	54.218	-73.036	-68.628	-68.090	-63.899	49.366	-64.268	-8191	255	
20635.941	1	1	0	0	0.034936	0.053836	0.088461	0.14077	0.12783	0.31165	0.071695	0.092524	0.17016	0.1055	0.20855	0.094884	0.31447	0.24947	0.16131	0.053604	-0.65625	-0.23958	-0.49583	-0.94167	-0.072917	-0.93542	-0.87083	-0.46042	-1.1083	-0.37708	-0.61875	-1.0625	-0.32292	-1.0646	-0.73125	-0.375	110.123	-57.228	31.077	168.523	-81.376	10.753	23.164	181.349	257.493	154.679	260.918	263.352	-67.974	220.536	38.965	158.959	0.00015561	0.00038712	0.00015909	1270	3.0983e-06	4.9774e-06	1274.4	343.36	1.1929e-06	5.0441e-06	396.16	133.92	115.3	41.024	3.7133e-06	51.509	0.00016663	0.00014937	4.0995e-05	1268.2	1.6908e-06	1.6165e-06	1276.3	344.78	1.6872e-06	1.5934e-06	398.17	135.64	116.33	41.259	1.6459e-06	51.624	233.385	11.849	-4.469	-77.181	108.084	59.189	-77.317	-72.363	75.296	82.074	-72.968	-68.618	-68.156	-63.792	94.618	-64.044	-8191	255	
20636.037	1	1	0	0	0.080231	0.10533	0.28616	0.25742	0.091521	0.3168	0.12333	0.18983	0.26018	0.066895	0.48334	0.17738	0.30202	0.34511	0.10376	0.14049	-0.60625	-0.29583	-0.59583	-1.0562	-0.0625	-0.85208	-1.0271	-0.39167	-1.0583	-0.29375	-0.58958	-1.0792	-0.30208	-0.86875	-0.78958	-0.25625	26.269	-13.150	-53.066	246.713	148.917	-77.830	188.278	170.820	29.916	194.199	239.195	201.090	252.854	131.263	-48.090	-31.848	0.00016373	0.00036751	0.00012636	1274.2	1.3506e-06	2.8377e-06	1272.4	343.09	6.6869e-07	5.9819e-06	398.79	133.38	114.94	41.045	3.7018e-06	51.289	0.0001677	0.000153	4.2005e-05	1270.3	1.7191e-06	1.6237e-06	1275.4	344.82	1.7012e-06	1.6596e-06	398.34	135.62	116.15	41.238	1.6644e-06	51.577	233.383	8.279	-5.353	-77.269	84.333	84.876	-77.259	-72.234	-41.529	67.075	-73.151	-68.793	-67.960	-63.645	92.524	-64.740	-8191	255	
20636.135	1	1	0	0	0.19291	0.20573	0.27222	0.11243	0.1718	0.23245	0.27061	0.10044	0.22623	0.30288	0.24936	0.11409	0.27477	0.17656	0.24107	0.20089	-0.61458	-0.18125	-0.24167	-1.0333	-0.047917	-0.86458	-1.0042	-0.36458	-1.0396	-0.57292	-0.42292	-1.0042	-0.11458	-0.81667	-0.8625	-0.10417	247.777	93.505	-61.211	246.415	-86.602	-2.203	204.919	27.641	203.443	182.031	-56.707	-64.011	249.994	-32.741	-55.017	-9.286	0.00014024	0.00048499	0.00017147	1266.9	2.904e-06	5.9399e-06	1274	341.19	2.8974e-06	4.5987e-06	397.47	133.95	115.13	41.011	4.4201e-06	51.555	0.00016765	0.00015282	4.2822e-05	1268.1	1.7151e-06	1.6285e-06	1272.7	343.64	1.7186e-06	1.6634e-06	397.88	135.62	116.25	41.249	1.6533e-06	51.555	228.735	9.856	-24.005	-77.260	66.350	52.326	-77.315	-72.370	67.437	84.459	-72.993	-68.463	-67.970	-63.506	71.079	-64.464	-8191	255	
20636.230	1	1	0	0	0.18649	0.10406	0.16375	0.13068	0.38691	0.10287	0.23761	0.22605	0.29221	0.087731	0.26012	0.17651	0.073123	0.034443	0.26326	0.34135	-0.55833	-0.62917	-0.15833	-1.2792	-0.15208	-0.59792	-1.175	-0.26875	-0.82917	-0.425	-0.29375	-1.2917	-0.4125	-0.62083	-1.1333	-0.21458	255.069	25.935	-11.292	166.555	-71.496	9.860	239.487	247.607	154.497	34.297	-66.003	216.917	-45.214	243.217	-68.955	247.775	0.00011935	0.00031376	0.00010966	1264.7	3.7314e-06	4.0898e-06	1275.1	342.65	2.6819e-06	4.4381e-06	397.83	134.33	115.1	40.968	4.4283e-06	51.283	0.00016288	0.00015001	4.1633e-05	1265.6	1.7169e-06	1.5573e-06	1275.4	344.43	1.6853e-06	1.5863e-06	398.15	135.73	116.21	41.188	1.5887e-06	51.457	232.320	20.329	10.573	-77.117	92.329	54.989	-77.423	-72.282	56.384	50.993	-73.248	-68.576	-67.978	-63.616	44.744	-64.241	-8191	255	
20636.352	1	1	0	0	0.073781	0.14125	0.14744	0.12535	0.16114	0.031648	0.35594	0.25978	0.31562	0.19552	0.18928	0.21159	0.27721	0.07923	0.16017	0.11434	-0.56875	-0.79375	-0.15208	-1.125	-0.38125	-0.65208	-1.3479	-0.3875	-0.7625	-0.84167	-0.22708	-1.2292	-0.49792	-0.46667	-1.1333	-0.35	98.023	-31.777	97.972	-13.590	-48.818	51.140	-69.457	148.143	184.868	27.983	142.003	-68.141	268.534	-36.788	211.491	245.610	0.00014451	0.00049599	6.3417e-05	1268.2	3.2713e-06	5.1017e-06	1269.3	342.29	2.3629e-06	6.9229e-06	398.16	133.7	114.79	41.108	1.5679e-06	51.431	0.00016777	0.00014911	4.1215e-05	1267.3	1.6822e-06	1.5819e-06	1272	343.83	1.6958e-06	1.6559e-06	397.4	135.44	116.11	41.254	1.62e-06	51.542	231.574	1.224	31.607	-77.078	40.723	59.353	-76.874	-72.457	83.696	74.461	-72.844	-68.599	-67.821	-63.535	51.607	-64.415	-8191	255	
20636.447	1	1	0	0	0.21786	0.12478	0.21389	0.23477	0.20662	0.038923	0.20604	0.26355	0.28392	0.16536	0.1717	0.37275	0.14817	0.14527	0.29817	0.16919	-0.17292	-0.86875	-0.01875	-1.2437	-0.51667	-0.36042	-1.4354	-0.37292	-0.59167	-0.87083	-0.13958	-1.1021	-0.71042	-0.35	-0.81875	-0.54583	-55.450	70.395	-70.789	233.327	-7.571	31.279	219.567	-34.378	-54.017	69.788	212.873	217.505	9.824	234.495	52.241	198.336	0.00011316	0.00033547	0.00013419	1264.8	3.2647e-06	3.7774e-06	1269.9	341.69	2.6056e-06	3.1584e-06	397.66	133.73	114.82	40.822	1.1729e-06	51.323	0.00016672	0.00014635	4.1016e-05	1264.7	1.6671e-06	1.6163e-06	1272.4	343.36	1.6597e-06	1.5823e-06	397.11	135.23	116.07	41.125	1.5952e-06	51.47	240.048	-7.016	-20.940	-76.920	34.534	56.236	-77.040	-72.229	69.613	56.310	-73.023	-68.343	-67.741	-63.370	97.725	-63.946	-8191	255	
20636.543	1	1	0	0	0.070459	0.050573	0.06769	0.10697	0.22747	0.29401	0.31501	0.073523	0.098827	0.34062	0.21311	0.0092198	0.26482	0.29079	0.15099	0.14132	-0.072917	-1.0146	0.1	-1.0417	-0.77292	-0.23125	-1.2292	-0.41667	-0.51042	-1.0771	-0.225	-1.0312	-0.82917	-0.25833	-1.0333	-0.64792	191.492	85.134	52.369	-49.074	234.630	10.782	231.141	-83.545	143.010	-28.970	211.811	-73.183	-88.256	-55.241	107.004	72.623	0.00013731	0.00037253	0.00011749	1263.3	2.7017e-06	5.0077e-06	1268.8	342.24	2.4546e-06	4.4332e-06	397.8	133.73	114.97	40.873	5.2399e-06	51.397	0.0001642	0.00014179	4.0276e-05	1264.5	1.6645e-06	1.5879e-06	1270.3	343.61	1.6859e-06	1.5687e-06	397.46	135.71	116.16	41.096	1.6375e-06	51.529	228.340	11.922	-16.029	-77.095	81.806	53.691	-77.066	-72.300	40.697	69.855	-72.659	-68.278	-68.145	-63.195	72.192	-64.148	-8191	255	
20636.615	1	1	0	0	0.084299	0.12447	0.080236	0.10598	0.24136	0.11177	0.24668	0.15748	0.11165	0.18214	0.089985	0.18327	0.43744	0.21667	0.090302	0.070097	0.039583	-1.1562	-0.12292	-0.91042	-0.84792	-0.16667	-1.1667	-0.66458	-0.25625	-1.1521	-0.42292	-0.82292	-1.0688	-0.225	-0.89167	-0.71458	246.094	-21.161	210.746	148.974	-65.160	-0.905	221.718	150.953	249.833	249.513	172.605	264.766	-50.228	239.616	56.122	177.385	0.00016021	0.00042369	8.8847e-05	1262.7	2.8047e-06	2.0052e-06	1264.8	341.03	2.4482e-06	3.2888e-06	396.52	134.64	114.76	40.924	3.9013e-06	51.511	0.00016728	0.00014386	4.2086e-05	1262.6	1.6554e-06	1.5961e-06	1270.8	344.09	1.6415e-06	1.5466e-06	396.5	135.73	116.07	41.125	1.6124e-06	51.429	219.854	-20.524	4.012	-76.979	68.299	43.213	-76.940	-72.047	18.944	65.826	-72.881	-68.071	-67.707	-63.352	54.594	-64.115	-8191	255	
20636.711	1	1	0	0	0.29947	0.093192	0.079249	0.16815	0.089157	0.17479	0.14779	0.18836	0.16819	0.20558	0.22385	0.37424	0.32967	0.18864	0.22191	0.28038	0.10833	-1.2875	-0.37292	-0.81042	-1.0333	-0.26875	-1.2542	-0.99792	-0.30625	-0.9375	-0.47083	-0.77917	-0.91875	-0.10625	-1.0938	-0.8125	81.300	-32.460	92.762	174.295	68.012	231.454	16.759	254.365	213.821	76.572	65.330	-66.080	21.248	240.761	147.974	261.353	0.00012285	0.00037491	9.896e-05	1264.1	3.5643e-06	3.0879e-06	1267.1	342.26	2.1855e-06	5.1654e-06	396.37	133.97	114.39	40.831	2.3775e-06	51.058	0.0001639	0.00014263	4.2216e-05	1262.9	1.6002e-06	1.5983e-06	1269.2	343.34	1.6494e-06	1.5422e-06	396.96	135.51	115.81	41.097	1.6077e-06	51.408	229.756	0.542	4.214	-76.910	63.532	60.187	-76.804	-72.189	39.459	46.435	-72.651	-68.203	-67.815	-63.447	59.249	-63.883	-8191	255	
20636.830	1	1	0	0	0.20997	0.12246	0.24991	0.11526	0.1084	0.16128	0.21764	0.13596	0.20536	0.0299	0.20645	0.089183	0.094027	0.25669	0.18909	0.22185	0.10208	-1.0521	-0.34792	-0.51875	-1.1146	-0.44375	-0.93542	-0.87292	-0.00625	-1.0896	-0.48125	-0.39792	-1.1604	-0.2125	-0.83333	-0.92083	162.127	-65.513	170.418	218.928	155.573	6.338	-86.049	187.327	42.307	222.645	258.617	-57.770	-72.111	254.692	-9.402	256.330	0.00017625	0.00051492	0.00014955	1266.8	2.772e-06	5.2733e-06	1269.9	341.95	3.2192e-06	4.92e-06	398.21	134.47	114.61	40.815	3.8373e-06	51.371	0.00016456	0.00014414	4.1676e-05	1265.7	1.6281e-06	1.617e-06	1271.2	343.69	1.7104e-06	1.5726e-06	397.53	135.58	115.91	41.068	1.6811e-06	51.512	229.102	20.310	-3.411	-76.845	58.757	64.714	-76.748	-72.353	29.498	51.165	-73.006	-68.405	-67.524	-63.316	83.615	-63.837	-8191	255	
20636.926	1	1	0	0	0.20686	0.20055	0.080671	0.054104	0.15131	0.19615	0.15053	0.34562	0.13291	0.11832	0.32791	0.29714	0.15474	0.058603	0.10898	0.14759	0.27083	-0.93542	-0.30208	-0.33958	-1.1708	-0.33542	-0.81042	-1.3125	-0.27708	-1.0542	-0.6	-0.45	-1.2	-0.37917	-0.6375	-0.83125	188.240	204.443	258.426	-66.382	73.054	259.926	-67.462	-82.038	62.842	-50.732	-77.369	233.053	207.600	222.542	238.895	-79.797	0.00012996	0.00031428	0.00021097	1261.5	3.5917e-06	5.4984e-06	1268.7	341.67	5.7627e-07	5.8209e-06	397.32	133.72	114.74	40.905	5.5722e-06	51.201	0.00016723	0.0001439	4.0898e-05	1262	1.6501e-06	1.6141e-06	1270.3	343.64	1.6723e-06	1.5641e-06	397.26	135.35	115.96	41.104	1.5855e-06	51.444	226.570	11.819	1.872	-76.833	79.019	33.405	-76.759	-71.950	-22.555	74.312	-72.899	-68.150	-67.758	-63.291	83.373	-64.007	-8191	255	
20637.021	1	1	0	0	0.14572	0.23355	0.35726	0.13011	0.087462	0.25208	0.1549	0.048568	0.094794	0.22629	0.18164	0.29973	0.12897	0.082763	0.15485	0.30557	0.12708	-0.87708	-0.52083	-0.57917	-1.1688	-0.47083	-0.5625	-1.0229	0.089583	-0.81875	-0.82917	-0.27083	-1.125	-0.50833	-0.49792	-1.1146	6.731	262.384	-57.422	234.169	87.774	-18.226	220.721	235.449	-4.481	10.779	242.956	170.865	171.727	-49.315	262.746	211.504	0.00016334	0.00048594	0.00011974	1267.1	1.8253e-06	4.8791e-06	1267.6	340.81	1.8226e-06	4.688e-06	397.08	134.07	114.86	40.721	3.3992e-06	51.451	0.00016683	0.00014684	4.066e-05	1263.9	1.6405e-06	1.5662e-06	1270	343.2	1.6637e-06	1.5547e-06	396.87	135.49	116	41.021	1.6468e-06	51.509	227.374	-3.545	-6.930	-76.824	64.526	51.721	-76.676	-71.945	67.892	97.866	-72.521	-68.225	-67.640	-63.297	101.947	-63.938	-8191	255	
20637.143	1	1	0	0	0.10893	0.13812	0.083832	0.34263	0.41529	0.095955	0.37062	0.38791	0.13307	0.081094	0.23606	0.11253	0.12406	0.13661	0.13006	0.33973	0.19583	-0.85833	-0.87708	-0.23333	-1.0292	-0.36667	-0.66458	-1.2188	-0.26458	-0.80625	-1.0333	-0.23958	-1.3042	-0.60625	-0.39792	-1.3125	-84.742	218.220	259.417	-85.254	190.714	137.275	237.053	211.635	-43.043	194.342	-79.503	263.054	219.177	37.324	229.696	161.533	0.00015678	0.00047403	9.6138e-05	1266.7	3.8881e-06	4.4009e-06	1270	341.96	1.647e-06	4.7205e-06	398.42	134.27	115.04	40.962	2.2703e-06	51.458	0.00016605	0.00014272	4.131e-05	1262.9	1.6284e-06	1.5895e-06	1271.1	343.76	1.6777e-06	1.5391e-06	397.54	135.55	116.25	41.142	1.6307e-06	51.534	241.320	20.118	-27.611	-76.643	79.910	76.497	-76.682	-71.775	99.215	64.007	-72.341	-68.107	-67.511	-63.377	43.380	-64.003	-8191	255	
20637.215	1	1	0	0	0.13886	0.12773	0.17311	0.047037	0.18462	0.12082	0.11842	0.33839	0.24085	0.076145	0.2042	0.057194	0.41739	0.11616	0.12451	0.11799	0.13125	-0.64583	-0.91875	-0.14583	-1.0021	-0.475	-0.37708	-1.2875	-0.21042	-0.64375	-1.2563	-0.35625	-1.075	-0.70208	-0.10417	-1.2375	197.398	260.615	255.920	257.779	119.769	105.419	-80.109	255.827	15.370	63.536	-81.307	-82.336	178.347	49.898	0.513	175.391	0.00013094	0.00032865	0.00010101	1265	3.6491e-06	7.3793e-06	1261.9	342.47	2.7105e-06	5.1073e-06	397.15	133.75	115.48	40.96	3.0494e-06	51.211	0.00016279	0.0001458	4.0534e-05	1263.1	1.6446e-06	1.5567e-06	1267	343.81	1.6886e-06	1.5892e-06	397.01	135.19	116.17	41.169	1.6015e-06	51.53	230.742	32.501	22.144	-77.159	63.739	60.956	-77.164	-72.385	50.875	63.021	-73.009	-68.340	-67.819	-63.592	57.432	-64.132	-8191	255	
20637.311	1	1	0	0	0.32358	0.30803	0.19906	0.30071	0.26725	0.18395	0.20052	0.50171	0.16493	0.11438	0.42175	0.094673	0.17936	0.12925	0.12677	0.12782	0.0625	-0.5875	-1.0125	-0.54167	-0.9625	-0.78125	-0.32083	-1.2583	-0.35417	-0.48958	-1.2667	-0.34792	-0.87292	-0.8875	-0.1375	-1.1667	94.996	-6.312	-89.583	240.243	196.208	78.720	99.799	180.382	-49.655	-37.908	130.050	241.848	212.149	265.559	2.044	147.334	0.0001319	0.00037829	7.3701e-05	1263.8	3.8939e-06	2.9409e-06	1265.7	341.9	2.7637e-06	5.0635e-06	394.75	134.22	114.7	40.672	3.0778e-06	51.319	0.00016487	0.00014514	4.0162e-05	1261.8	1.6419e-06	1.585e-06	1268.6	343.53	1.6466e-06	1.5635e-06	396.15	135.45	116.09	41.066	1.618e-06	51.513	231.326	-14.864	-28.822	-77.069	77.831	47.206	-77.161	-72.384	100.691	61.958	-73.012	-68.359	-67.794	-63.462	63.440	-64.178	-8191	255	
20637.432	1	1	0	0	0.15858	0.16607	0.34918	0.24756	0.10749	0.16265	0.28359	0.28092	0.24507	0.1952	0.13962	0.2179	0.058967	0.19166	0.18581	0.30121	-0.175	-0.4	-0.98125	-0.3125	-0.70625	-0.88958	-0.20625	-1.0688	-0.53333	-0.3375	-1.1667	-0.38542	-0.8125	-0.9375	-0.14792	-1.1125	163.715	-12.723	65.896	138.447	-12.998	258.589	139.988	-74.222	68.402	46.327	150.569	200.562	226.770	200.870	2.436	119.924	0.00014845	0.00036353	6.9645e-05	1264.7	4.0817e-06	6.3736e-06	1266.4	341.83	2.6003e-06	4.0321e-06	397.91	134.63	114.7	40.801	3.7153e-06	51.405	0.00016202	0.00014224	3.9454e-05	1262.3	1.6473e-06	1.5388e-06	1267.5	343.24	1.6544e-06	1.5506e-06	396.51	135.29	115.82	41.12	1.6175e-06	51.586	232.127	-1.385	-32.309	-77.110	75.850	59.423	-77.061	-72.130	52.796	51.506	-73.105	-68.486	-67.475	-63.657	43.130	-64.145	-8191	255	
20637.527	1	1	0	0	0.032622	0.12022	0.034554	0.15913	0.27496	0.24202	0.10389	0.43502	0.21079	0.20486	0.21933	0.45558	0.068486	0.34586	0.18447	0.21705	-0.175	-0.29375	-1.0521	-0.42083	-0.41667	-0.90417	-0.34375	-1.075	-0.53542	-0.11875	-1.0083	-0.28125	-0.67292	-1.35	-0.19375	-0.99792	206.531	147.104	-27.764	247.528	48.943	52.921	0.726	214.364	252.831	-38.269	-71.239	235.362	90.957	129.313	118.510	171.796	0.00015987	0.00047952	0.00013564	1262.1	3.0761e-06	7.9425e-06	1263.5	339.95	1.9515e-06	2.8824e-06	397.54	134.27	114.83	40.842	5.0861e-06	51.276	0.00016506	0.00014565	3.909e-05	1261.8	1.6191e-06	1.5526e-06	1267.8	342.89	1.6293e-06	1.5826e-06	396.93	135.5	115.96	41.095	1.5686e-06	51.53	234.870	8.307	23.323	-77.234	76.360	51.391	-77.220	-72.197	85.341	89.171	-73.075	-68.649	-68.002	-63.705	79.087	-63.940	-8191	255	
20637.623	1	1	0	0	0.25503	0.14178	0.25296	0.38224	0.21187	0.25964	0.28194	0.25468	0.13051	0.23012	0.24498	0.19275	0.16632	0.15553	0.098513	0.093848	-0.475	-0.020833	-0.95833	-0.65625	-0.425	-1.0354	-0.34583	-0.85417	-0.80625	0.079167	-1.0333	-0.70417	-0.39167	-1.1187	-0.10417	-0.68125	173.437	108.934	-68.302	217.511	46.284	71.511	188.620	237.021	70.836	9.117	-82.649	253.060	137.865	2.287	76.367	250.457	0.0001654	0.00037095	0.00011998	1262.8	1.4296e-06	4.5484e-06	1270.7	341.05	2.6867e-07	4.7468e-06	395.31	133.48	114.21	40.904	5.1598e-06	51.151	0.00016259	0.00014611	3.9314e-05	1261	1.6397e-06	1.5641e-06	1269.1	343.38	1.6175e-06	1.566e-06	396.13	135.34	115.67	41.14	1.6163e-06	51.405	241.013	31.412	8.843	-77.098	58.600	39.548	-76.927	-71.977	235.877	63.755	-72.693	-68.483	-67.851	-63.438	39.098	-63.956	-8191	255	
20637.742	1	1	0	0	0.1594	0.14295	0.029134	0.18868	0.25817	0.30677	0.30179	0.16487	0.10643	0.14697	0.33822	0.037255	0.19906	0.36456	0.13908	0.066757	-0.46875	-0.13125	-0.89583	-0.66458	-0.23958	-1.0312	-0.36875	-0.42292	-0.97292	-0.075	-1.1417	-0.77917	-0.19792	-1.1958	-0.33333	-0.525	-80.624	195.195	99.342	-46.476	196.758	133.620	266.354	165.614	-12.176	198.167	182.644	198.917	206.757	-89.083	-38.254	17.072	0.00012726	0.00031514	0.00011028	1263.5	2.5535e-06	5.5239e-06	1267.6	342.13	1.3709e-06	4.2078e-06	398.19	133.58	114.89	40.794	3.9772e-06	51.132	0.00016522	0.00014768	3.8981e-05	1260.8	1.6498e-06	1.582e-06	1269.4	343.5	1.6443e-06	1.5845e-06	396.89	135.13	115.93	41.065	1.6183e-06	51.385	225.989	-12.030	7.429	-77.001	51.106	47.800	-77.001	-71.919	66.304	65.363	-72.859	-68.271	-67.745	-63.324	67.289	-63.965	-8191	255	
20637.838	1	1	0	0	0.15939	0.047413	0.29874	0.20122	0.19014	0.12061	0.17449	0.1158	0.31961	0.18788	0.21892	0.11142	0.11067	0.09189	0.23368	0.061221	-0.48333	-0.01875	-0.93958	-0.87292	-0.17292	-1.1792	-0.53333	-0.63333	-0.98125	-0.17292	-0.86875	-0.73333	-0.22917	-1.2	-0.375	-0.37708	56.514	73.490	-29.643	184.636	67.092	94.897	-30.202	268.804	166.208	159.736	-74.222	-81.204	-9.013	240.582	-43.998	173.089	0.00013447	0.00042619	0.00017621	1260.5	2.9173e-06	4.7003e-06	1266.9	343.13	2.6461e-06	4.7652e-06	398.55	133.16	115.26	40.784	3.5941e-06	51.27	0.00016201	0.0001429	3.9707e-05	1259.6	1.6381e-06	1.5997e-06	1267.3	343.66	1.6806e-06	1.6061e-06	396.83	135.08	116.09	41.081	1.6213e-06	51.531	226.351	14.495	-1.584	-77.094	55.202	58.719	-76.713	-72.021	32.994	69.376	-72.430	-68.267	-67.555	-63.160	79.372	-63.898	-8191	255	
20637.910	1	1	0	0	0.085151	0.069376	0.13046	0.21302	0.15081	0.29091	0.18155	0.3222	0.17052	0.26092	0.076712	0.15016	0.23416	0.29255	0.33982	0.31737	-0.80417	-0.12083	-0.63333	-0.98125	-0.089583	-1.0562	-0.72917	-0.3875	-0.8625	-0.29167	-0.93125	-0.89375	-0.37708	-1.275	-0.44375	-0.39583	138.653	-23.913	260.619	192.440	183.578	11.052	257.629	225.909	197.142	-46.784	-37.163	-67.285	202.533	-74.205	11.810	-86.821	0.00016246	0.00041544	0.00012388	1261.3	2.4289e-06	3.5177e-06	1269.7	342.51	2.1016e-06	3.7681e-06	396.85	133.72	114.76	40.781	1.634e-06	51.208	0.00016414	0.00014753	3.9818e-05	1260.5	1.6509e-06	1.5464e-06	1267	343.36	1.6307e-06	1.6093e-06	396.85	135.11	116.07	41.129	1.6524e-06	51.42	235.563	35.164	-34.812	-76.806	61.631	58.385	-76.706	-71.871	37.983	49.884	-72.658	-68.127	-67.599	-63.201	34.185	-63.893	-8191	255	
20638.006	1	1	0	0	0.15475	0.13199	0.22777	0.3596	0.098348	0.28674	0.23768	0.29884	0.22268	0.38901	0.44167	0.19509	0.15338	0.37195	0.25647	0.23433	-0.70625	-0.09375	-0.6375	-1.0229	-0.01875	-0.84583	-0.79167	-0.3	-1.225	-0.19792	-0.33958	-0.92917	-0.26458	-0.82292	-0.65417	-0.29375	120.924	229.859	122.326	163.299	147.831	244.788	237.930	251.492	141.724	243.069	238.961	104.667	-58.656	252.813	-26.588	225.990	0.00011475	0.00057503	0.00017648	1258.6	1.8681e-06	4.1885e-06	1265.6	341.65	1.5766e-06	4.5741e-06	396.17	133.87	115.04	40.742	4.7314e-06	51.55	0.00016158	0.00014904	4.0021e-05	1259.4	1.6588e-06	1.5587e-06	1268.4	343.18	1.6041e-06	1.5674e-06	396.5	135.38	115.89	41.072	1.6048e-06	51.493	229.319	-4.213	-3.911	-76.781	49.836	62.924	-76.572	-71.697	20.173	28.757	-72.419	-67.762	-67.171	-63.074	37.884	-63.744	-8191	255	
20638.127	1	1	0	0	0.10767	0.069394	0.26695	0.24279	0.024649	0.34915	0.11588	0.21723	0.094067	0.25032	0.29231	0.079248	0.24474	0.050304	0.046554	0.48753	-0.73958	-0.21042	-0.53333	-1.0438	-0.15625	-0.85625	-0.97917	-0.3	-0.96458	-0.39167	-0.4375	-1.05	-0.077083	-0.84583	-0.92083	-0.0041667	-13.767	-65.660	141.151	260.708	-72.040	-24.194	169.384	207.131	231.987	179.298	-51.140	79.314	252.949	210.196	146.157	183.363	0.0001156	0.00039478	0.00014638	1263.6	2.8627e-06	4.0309e-06	1267.9	341.34	1.2451e-06	5.4712e-06	396.86	134.41	114.62	40.925	3.6864e-06	51.381	0.0001652	0.00014829	4.1211e-05	1259.2	1.6304e-06	1.5642e-06	1267.1	343.31	1.6225e-06	1.5518e-06	396.28	135.49	115.85	41.129	1.6034e-06	51.516	246.338	10.564	-7.108	-76.829	130.774	59.399	-76.618	-71.606	35.993	78.437	-72.359	-67.916	-67.443	-63.152	54.263	-63.716	-8191	255	
20638.223	1	1	0	0	0.069106	0.33317	0.19764	0.34815	0.28145	0.24661	0.16243	0.25755	0.2413	0.085191	0.03051	0.15714	0.20665	0.086489	0.3564	0.05195	-0.64583	-0.4875	-0.21875	-1.2896	-0.29167	-0.65625	-0.99792	-0.3375	-1.0271	-0.53125	-0.45417	-1.0417	-0.2875	-0.39583	-0.88125	-0.27292	223.017	96.689	162.994	248.683	193.031	148.728	236.256	220.409	160.215	227.933	-37.035	-73.435	-25.052	183.245	14.732	245.932	0.0001426	0.00030636	9.2198e-05	1260.6	6.2073e-06	3.6751e-06	1266.9	340.68	1.4264e-06	6.0608e-06	396.31	134.38	114.81	40.797	4.0223e-06	51.4	0.00015815	0.00014214	3.9748e-05	1258.8	1.6736e-06	1.5495e-06	1267	342.64	1.6044e-06	1.5718e-06	396.33	135.44	115.84	41.049	1.553e-06	51.525	223.070	19.062	1.826	-76.760	59.335	60.021	-76.635	-71.667	56.921	93.121	-72.492	-67.716	-67.423	-63.188	45.121	-63.698	-8191	255	
20638.318	1	1	0	0	0.27962	0.10004	0.12347	0.1579	0.50845	0.0061514	0.13864	0.12075	0.17591	0.1657	0.36526	0.28021	0.093854	0.12856	0.24146	0.33052	-0.6	-0.50833	-0.29167	-1.2875	-0.19792	-0.425	-1.0938	-0.225	-0.83125	-0.70833	-0.32917	-1.0312	-0.46875	-0.54792	-1.0729	-0.34167	36.353	261.641	191.719	-34.804	197.374	28.628	190.634	-85.699	-34.035	50.443	207.675	226.406	182.901	-53.666	-32.013	-61.952	0.00011306	0.0004518	0.00016986	1263.4	4.7823e-06	4.6736e-06	1268.9	339.71	1.9045e-06	2.9935e-06	397.95	133.2	114.7	40.95	3.0996e-06	51.387	0.00015749	0.00014338	3.9239e-05	1259.2	1.6255e-06	1.5397e-06	1268.1	342.61	1.6134e-06	1.5115e-06	396.88	135.01	115.9	41.144	1.5716e-06	51.48	229.527	15.510	-5.888	-76.681	46.304	47.824	-76.770	-71.870	96.449	34.529	-72.434	-67.941	-67.304	-63.304	101.895	-63.647	-8191	255	
20638.414	1	1	0	0	0.16806	0.15627	0.094797	0.26418	0.21515	0.086127	0.1001	0.41138	0.058893	0.34184	0.17088	0.23474	0.39747	0.26742	0.17472	0.13319	-0.50833	-0.74375	-0.29167	-1.2521	-0.29375	-0.38125	-1.1167	-0.22708	-0.63542	-1.1125	-0.14583	-1.2875	-0.75	-0.42917	-0.99375	-0.42708	227.448	-39.597	65.854	192.052	78.929	205.531	0.051	253.866	194.505	-5.063	-12.932	16.771	233.258	256.653	106.156	133.346	0.00017105	0.00048705	7.2302e-05	1262.6	2.9631e-06	7.434e-06	1267.7	340.91	6.5098e-07	4.8036e-06	398.51	133.55	114.83	41.07	3.8032e-06	51.329	0.0001593	0.00013857	3.9866e-05	1259.9	1.6163e-06	1.5324e-06	1267.3	342.96	1.6182e-06	1.5005e-06	396.92	135.15	115.94	41.163	1.5814e-06	51.523	231.175	-3.613	-22.494	-76.633	84.756	85.206	-76.618	-71.787	56.327	89.597	-72.351	-67.837	-67.352	-63.104	71.762	-63.874	-8191	255	
20638.512	1	1	0	0	0.17301	0.28059	0.27811	0.21533	0.20851	0.31213	0.22999	0.040302	0.25309	0.20574	0.19283	0.25407	0.33578	0.048632	0.087134	0.076713	-0.33542	-0.96042	-0.0875	-1.3479	-0.56667	-0.31875	-1.3542	-0.64375	-0.71458	-0.86458	-0.16667	-1.0146	-0.73333	-0.27708	-1.225	-0.49583	223.649	8.451	256.419	216.542	24.496	257.573	131.311	97.617	91.265	227.103	228.909	222.918	268.972	245.490	161.325	213.539	0.00016265	0.00038948	0.00010832	1261.4	3.7184e-06	2.2335e-06	1265.3	341.46	2.0471e-06	6.4675e-06	396.39	134.19	114.72	40.992	3.824e-06	51.344	0.00016275	0.00014306	3.9688e-05	1260.2	1.6305e-06	1.585e-06	1267	343.16	1.6335e-06	1.5596e-06	396.34	135.29	115.9	41.144	1.5888e-06	51.49	227.098	-12.786	-4.088	-76.488	88.980	76.261	-76.513	-71.670	28.462	86.653	-72.551	-67.986	-67.213	-62.964	83.610	-63.924	-8191	255	
20638.607	1	1	0	0	0.12987	0.06487	0.14894	0.33316	0.12122	0.12286	0.1791	0.18834	0.37321	0.24757	0.22054	0.26398	0.21808	0.16478	0.22491	0.42386	-0.0875	-1.1688	-0.15208	-0.9625	-0.80208	-0.15208	-1.2458	-0.5	-0.35417	-0.93125	-0.23125	-1.075	-1.0104	-0.13125	-1.2	-0.57917	-21.431	164.771	45.305	-67.605	73.566	12.507	123.781	200.776	-9.899	-45.270	234.221	249.219	130.265	-26.483	22.682	183.017	0.00012719	0.00034934	0.00017718	1259.4	1.9929e-06	5.1683e-06	1269.1	339.85	7.8263e-07	3.4096e-06	397.79	133.83	115.21	40.607	2.2782e-06	50.976	0.00016319	0.00014039	4.0791e-05	1259.7	1.5939e-06	1.5638e-06	1267.4	342.19	1.5927e-06	1.5228e-06	397.38	135.23	115.9	41.008	1.5643e-06	51.334	224.833	16.616	16.081	-76.578	85.293	68.891	-76.482	-71.704	-57.854	85.644	-72.202	-67.640	-67.389	-62.944	82.486	-63.674	-8191	255	
20638.703	1	1	0	0	0.12957	0.15373	0.070716	0.14418	0.26073	0.045216	0.38386	0.12776	0.28368	0.24089	0.14853	0.14552	0.17748	0.1994	0.068967	0.23813	-0.09375	-1.3438	-0.11667	-0.875	-0.78958	-0.30417	-1.3417	-0.74375	-0.4875	-1.0604	-0.46042	-0.64375	-1.0875	-0.19167	-1.0104	-0.82083	259.521	162.583	111.510	227.794	-17.176	182.239	-73.067	-6.339	-51.384	76.563	35.207	258.979	-58.001	160.272	7.914	167.221	0.00014091	0.0004837	0.00013402	1265.4	4.471e-06	3.0504e-06	1267.7	341.27	2.3864e-06	4.5015e-06	397.04	133.31	114.87	40.891	4.4481e-06	51.5	0.00016441	0.00014141	3.9233e-05	1259	1.6167e-06	1.5158e-06	1267.4	343.02	1.594e-06	1.4821e-06	396.25	135.18	115.89	41.153	1.575e-06	51.439	222.375	-6.489	15.521	-76.412	82.550	34.418	-76.314	-71.571	33.654	70.970	-72.325	-67.769	-66.903	-63.079	54.452	-63.820	-8191	255	
20638.824	1	1	0	0	0.41737	0.24842	0.27384	0.29349	0.035641	0.052845	0.33785	0.076657	0.083115	0.20299	0.029477	0.088172	0.29727	0.1006	0.22704	0.27849	0.020833	-1.075	-0.33958	-0.80417	-1.0063	-0.125	-1.0104	-0.83542	-0.36042	-1.0812	-0.6	-0.60833	-1.0583	-0.30417	-0.82083	-0.82708	208.565	-84.803	243.941	263.066	248.773	122.784	205.407	-89.002	210.835	-20.281	167.910	225.723	-64.111	149.509	269.774	221.165	0.0001622	0.00033582	0.00015537	1263.4	2.7698e-06	2.1183e-06	1271.8	341.74	1.2477e-06	4.8731e-06	398.47	133.58	115.22	40.921	3.8407e-06	51.374	0.00016352	0.00014184	3.926e-05	1259.5	1.6127e-06	1.5557e-06	1268.3	342.97	1.6326e-06	1.4914e-06	396.48	135.24	115.87	41.076	1.5953e-06	51.523	233.610	-3.980	4.635	-76.371	77.170	16.580	-76.397	-71.557	55.692	53.321	-72.206	-67.310	-66.847	-63.026	70.952	-63.202	-8191	255	
20638.920	1	1	0	0	0.20892	0.032345	0.20088	0.13348	0.28951	0.072453	0.1914	0.19413	0.1024	0.076808	0.20044	0.34189	0.26561	0.41573	0.12227	0.24325	0.016667	-1.05	-0.37083	-0.56042	-1.0521	-0.23542	-0.9	-0.975	-0.27292	-1.0417	-0.45417	-0.47917	-1.2812	-0.425	-0.66458	-1.0562	230.850	195.801	138.701	-10.728	78.139	255.465	129.167	264.113	20.030	-51.724	242.789	259.587	237.932	254.205	-88.477	206.180	0.00015126	0.00040438	0.00012794	1261.1	2.2897e-06	3.6231e-06	1270.4	339.91	1.3447e-06	8.3837e-06	395	133.93	114.86	40.873	3.2055e-06	51.397	0.00016432	0.00014646	3.994e-05	1258.5	1.5853e-06	1.5202e-06	1266.7	342.4	1.6271e-06	1.5137e-06	395.98	135.48	115.95	41.102	1.5674e-06	51.473	227.775	-10.124	4.037	-76.246	94.314	45.854	-76.879	-72.189	59.432	63.471	-72.648	-68.000	-67.541	-63.037	99.843	-64.121	-8191	255	
20639.016	1	1	0	0	0.29363	0.11901	0.23814	0.23547	0.38581	0.33946	0.30119	0.16396	0.11493	0.099309	0.31086	0.18268	0.098618	0.12146	0.46456	0.11769	0.0083333	-0.90833	-0.59375	-0.56875	-1.1146	-0.21042	-0.9125	-1.0583	-0.20417	-1.0521	-0.97917	-0.34375	-1.1646	-0.4	-0.56667	-1.175	199.990	-6.149	26.301	254.286	-37.582	185.149	209.689	226.774	34.858	249.623	225.734	226.558	130.332	256.476	149.718	19.967	0.00015044	0.00038261	0.0001371	1261	3.2391e-06	4.9862e-06	1264.3	342.34	2.3357e-06	2.2698e-06	397.44	133.37	115.01	40.883	2.1171e-06	51.156	0.00015878	0.00013682	3.8871e-05	1258.8	1.5922e-06	1.4919e-06	1265.8	343.87	1.6052e-06	1.4966e-06	397.26	135.03	115.88	41.074	1.5945e-06	51.4	233.384	-4.732	-7.693	-76.803	90.917	56.270	-76.598	-72.020	44.957	72.219	-72.676	-67.787	-67.271	-63.175	100.537	-63.669	-8191	255	
20639.111	1	1	0	0	0.26569	0.19199	0.098299	0.10947	0.10252	0.12642	0.34221	0.36085	0.28364	0.1436	0.14006	0.095261	0.14794	0.39273	0.3366	0.079709	0.225	-0.93542	-0.81875	-0.38125	-1.2375	-0.21875	-0.67708	-1.2917	-0.27083	-1.0063	-0.76875	-0.34583	-1.1542	-0.4625	-0.30625	-1.0771	-64.733	72.951	108.286	-56.105	224.683	7.434	147.630	266.171	158.200	74.053	216.239	-34.758	251.324	226.914	-9.200	-86.968	0.00012926	0.00037493	0.00011633	1259	2.5135e-06	5.0308e-06	1266.9	341.57	2.7183e-06	4.4e-06	395.75	133.89	115.04	40.939	5.1782e-06	51.612	0.00016212	0.00013891	3.963e-05	1256.4	1.5944e-06	1.5317e-06	1267.2	342.84	1.6231e-06	1.5204e-06	396.31	135.22	115.85	41.084	1.573e-06	51.502	237.724	7.691	-17.440	-76.460	42.779	66.192	-76.255	-71.935	55.741	58.641	-72.756	-67.988	-67.121	-63.006	63.999	-63.902	-8191	255	
20639.207	1	1	0	0	0.21478	0.092595	0.048114	0.1243	0.079178	0.15398	0.12924	0.18887	0.1759	0.051156	0.19752	0.13811	0.17368	0.046579	0.13352	0.066281	0.29167	-0.83542	-0.76458	-0.1375	-1.2146	-0.50208	-0.48333	-1.1958	-0.1875	-0.56667	-1.1146	-0.3875	-0.96667	-0.65833	-0.43333	-1.1979	-68.383	194.198	143.214	-50.088	-83.408	6.925	208.534	227.229	31.889	235.511	166.964	267.718	143.022	124.464	247.793	263.358	0.00012803	0.00046341	0.00011883	1258.3	2.7516e-06	3.6254e-06	1262	341.56	1.8353e-06	4.8067e-06	396.45	133.88	115.06	41.039	2.344e-06	51.434	0.00016453	0.00014067	3.8606e-05	1257.7	1.5751e-06	1.5187e-06	1264.1	342.61	1.6328e-06	1.5014e-06	396.15	135.37	115.96	41.09	1.584e-06	51.478	229.482	-1.167	-22.909	-76.594	46.307	57.851	-76.636	-71.863	73.718	73.961	-72.511	-68.144	-67.292	-63.134	86.631	-63.707	-8191	255	
20639.303	1	1	0	0	0.26591	0.18198	0.23133	0.21825	0.11685	0.2173	0.22656	0.1102	0.039037	0.15775	0.29154	0.13135	0.20855	0.2988	0.041198	0.078007	-0.05625	-0.57917	-0.70417	-0.2875	-0.6	-0.66875	-0.41042	-1.2021	-0.30833	-0.38125	-1.2062	-0.25625	-0.97917	-0.78333	-0.027083	-1.2604	89.710	91.577	22.072	212.716	-55.355	238.773	249.185	189.232	-22.102	-17.914	185.536	-74.899	192.224	242.473	131.273	198.400	0.00016303	0.00060325	0.00014122	1260.4	2.1133e-06	3.8562e-06	1266.8	342.29	1.7249e-06	5.2821e-06	397.08	134.12	114.66	40.643	5.494e-06	51.172	0.00016007	0.00014209	3.8182e-05	1258	1.5615e-06	1.5156e-06	1265.4	342.98	1.6012e-06	1.5221e-06	396.13	135.11	115.9	41.055	1.5995e-06	51.482	227.578	-9.925	-37.244	-76.399	81.696	69.548	-76.368	-71.688	113.834	45.236	-72.398	-67.875	-67.244	-62.988	87.859	-63.397	-8191	255	
20639.424	1	1	0	0	0.22958	0.2822	0.2233	0.063994	0.27083	0.26508	0.11558	0.15934	0.12963	0.15937	0.23053	0.17743	0.2462	0.26749	0.27036	0.18455	-0.12083	-0.42292	-1.0438	-0.25208	-0.84167	-0.84375	-0.46458	-1.2333	-0.55	-0.66458	-1.0833	-0.32083	-0.8875	-1.0583	-0.17292	-1.2208	151.985	156.459	-34.176	-68.366	254.529	89.570	-62.646	-7.109	-82.216	213.498	250.418	133.789	209.431	190.350	120.448	-70.813	0.00015188	0.00042432	0.00017425	1258.1	2.7484e-06	4.5339e-06	1262	341.18	1.9304e-06	5.8243e-06	396.43	134.19	115.31	40.983	4.1379e-06	51.459	0.00015872	0.00014261	3.9971e-05	1255.4	1.5872e-06	1.5466e-06	1264.4	343.06	1.6033e-06	1.5548e-06	395.53	135.25	115.92	41.101	1.5882e-06	51.484	237.740	26.799	-1.448	-76.431	87.294	84.690	-76.517	-71.600	22.881	67.410	-72.256	-67.600	-67.059	-63.011	87.737	-63.443	-8191	255	
20639.520	1	1	0	0	0.19876	0.1418	0.19462	0.29708	0.24144	0.33878	0.17494	0.33596	0.19114	0.28527	0.19277	0.25577	0.30898	0.081453	0.32541	0.11261	-0.22292	-0.28125	-1.1479	-0.34792	-0.6125	-0.98958	-0.5	-1.1625	-0.76667	-0.29583	-1.2833	-0.29167	-0.48958	-1.1521	-0.20417	-0.94583	169.115	223.974	-67.123	124.592	249.319	144.009	68.326	268.690	11.493	2.441	223.416	-78.512	34.118	267.506	159.721	247.325	0.00014639	0.00043892	0.0001284	1258	2.8446e-06	6.5332e-06	1266.2	341.93	3.4267e-06	5.4508e-06	397.54	133.87	114.46	40.782	3.8419e-06	51.525	0.00015649	0.00014198	3.9405e-05	1255.8	1.5969e-06	1.5481e-06	1265.5	343.37	1.6173e-06	1.5427e-06	396.48	135.16	115.83	41.052	1.6047e-06	51.525	224.483	11.619	-4.303	-76.250	57.685	54.332	-76.225	-71.617	65.036	80.850	-71.904	-67.566	-67.040	-62.727	67.148	-63.365	-8191	255	
20639.615	1	1	0	0	0.24679	0.019778	0.13587	0.23586	0.40755	0.31147	0.24629	0.3121	0.12434	0.049167	0.062178	0.17788	0.16582	0.12944	0.33661	0.27608	-0.33125	-0.18125	-0.93542	-0.55	-0.57708	-1.0167	-0.20833	-1.0417	-0.74167	-0.33958	-1.0667	-0.45	-0.56875	-1.2958	-0.19583	-0.87292	130.367	9.164	148.637	-47.159	-67.375	-43.418	235.207	205.449	256.407	113.327	171.101	51.472	229.927	225.088	-86.096	263.850	0.00015902	0.00044841	0.00018451	1262.1	4.2772e-06	5.3888e-06	1266.8	342.15	1.6994e-06	5.3513e-06	398.2	134.34	115	40.856	4.4974e-06	51.419	0.00015835	0.00014259	3.931e-05	1257.4	1.5918e-06	1.4929e-06	1267	343.31	1.6434e-06	1.5302e-06	397.38	135.44	115.93	41.056	1.611e-06	51.499	233.902	11.826	-12.297	-76.159	66.077	78.014	-76.003	-71.314	27.229	71.499	-72.273	-67.811	-66.739	-62.622	52.477	-63.280	-8191	255	
20639.711	1	1	0	0	0.098922	0.045039	0.18834	0.33207	0.095238	0.24169	0.079604	0.20253	0.12267	0.24666	0.16662	0.12336	0.21201	0.17582	0.065781	0.13	-0.5125	-0.26667	-1.0938	-0.57083	-0.23333	-1.0271	-0.22917	-0.7375	-0.85833	-0.19583	-1.1583	-0.65625	-0.3875	-1.0104	-0.26458	-0.77708	32.942	142.385	41.484	-23.384	19.625	-71.462	-38.294	165.601	179.051	217.989	242.026	198.418	9.448	52.211	123.304	27.817	0.0001236	0.00050647	7.2923e-05	1259.8	8.6507e-07	6.8032e-06	1266.8	342.63	1.0267e-06	4.4589e-06	397.12	133.18	115.42	40.931	2.1845e-06	51.571	0.00016258	0.00014512	3.8726e-05	1258.5	1.6186e-06	1.5163e-06	1267.8	343.79	1.5728e-06	1.5267e-06	396.49	135.2	116.22	41.113	1.6094e-06	51.651	235.722	3.870	-17.452	-76.141	56.437	48.596	-76.276	-71.403	48.755	64.580	-72.058	-67.802	-66.857	-62.565	55.509	-63.235	-8191	255	
20639.807	1	1	0	0	0.21899	0.061056	0.13206	0.06875	0.21288	0.24451	0.069385	0.12036	0.20452	0.077254	0.24737	0.074349	0.13028	0.1756	0.18466	0.32062	-0.52708	-0.23333	-0.94167	-0.8625	-0.21667	-0.87917	-0.43542	-0.72292	-1.025	-0.0375	-0.79583	-0.91042	-0.29792	-1.0396	-0.095833	-0.56667	227.142	193.239	264.244	-79.009	159.207	55.699	-16.278	185.922	-61.414	84.121	225.949	186.195	-40.204	-81.822	260.021	179.821	0.0001573	0.0005335	0.00012738	1262.1	9.1247e-07	7.3455e-06	1266.6	342.67	1.9362e-06	3.7577e-06	396.82	134.17	114.81	41.04	4.7207e-06	51.332	0.00015833	0.00014324	3.8933e-05	1260	1.6308e-06	1.5135e-06	1266.2	343.45	1.5879e-06	1.5492e-06	396.92	135.64	115.98	41.196	1.5681e-06	51.548	225.778	6.582	11.024	-75.837	49.396	42.194	-76.176	-70.908	66.873	87.746	-71.851	-67.620	-66.649	-62.531	40.125	-63.216	-8191	255	
#DATA ENDS
