BOXY.EXE: ISS Imagent and Oximeter Data Acquisition Program Version 0.80
Ascii Record File

#ACQ INFORMATION
2  Detector Channels 
16  External MUX Channels 
1  Auxiliary Channels 
5000  Waveform (CCF) Frequency (Hz)
1  Waveforms Skipped 
30  Waveforms Averaged 
1  Cycles Averaged 
16  Acquisitions per Waveform 
10.0806  Updata Rate (Hz) 

#FILE INFORMATION
TRUE -- External MUX Channel results are PARSED.
FALSE -- AC DC and Phase are NOT grouped.
TRUE -- Companion Program Settings File CREATED.
FALSE -- AC data not excluded
FALSE -- DC data not excluded
FALSE -- Phase data not excluded
FALSE -- Auxillary Chn. data not excluded
Tab delimiters

#CALIBRATION STATE
TRUE -- Waveform Calibration Values APPLIED.


#AUX CALIBRATION VALUES
Val Type	aux-1	

Term	1.0000e+00	
Factor	0.0000e+00	


#WF CALIBRATION VALUES
A = Detector Channel
Val Type	A-AC1	A-AC2	A-AC3	A-AC4	A-AC5	A-AC6	A-AC7	A-AC8	A-AC9	A-AC10	A-AC11	A-AC12	A-AC13	A-AC14	A-AC15	A-AC16	A-DC1	A-DC2	A-DC3	A-DC4	A-DC5	A-DC6	A-DC7	A-DC8	A-DC9	A-DC10	A-DC11	A-DC12	A-DC13	A-DC14	A-DC15	A-DC16	A-Ph1	A-Ph2	A-Ph3	A-Ph4	A-Ph5	A-Ph6	A-Ph7	A-Ph8	A-Ph9	A-Ph10	A-Ph11	A-Ph12	A-Ph13	A-Ph14	A-Ph15	A-Ph16	

Term	0.00000e+00	0.00000e+00	0.00000e+00	0.00000e+00	0.00000e+00	0.00000e+00	0.00000e+00	0.00000e+00	0.00000e+00	0.00000e+00	0.00000e+00	0.00000e+00	0.00000e+00	0.00000e+00	0.00000e+00	0.00000e+00	0.00000e+00	0.00000e+00	0.00000e+00	0.00000e+00	0.00000e+00	0.00000e+00	0.00000e+00	0.00000e+00	0.00000e+00	0.00000e+00	0.00000e+00	0.00000e+00	0.00000e+00	0.00000e+00	0.00000e+00	0.00000e+00	0.00000e+00	0.00000e+00	0.00000e+00	0.00000e+00	0.00000e+00	0.00000e+00	0.00000e+00	0.00000e+00	0.00000e+00	0.00000e+00	0.00000e+00	0.00000e+00	0.00000e+00	0.00000e+00	0.00000e+00	0.00000e+00	
Factor	1.00000e+00	1.00000e+00	1.00000e+00	1.00000e+00	1.00000e+00	1.00000e+00	1.00000e+00	1.00000e+00	1.00000e+00	1.00000e+00	1.00000e+00	1.00000e+00	1.00000e+00	1.00000e+00	1.00000e+00	1.00000e+00	1.00000e+00	1.00000e+00	1.00000e+00	1.00000e+00	1.00000e+00	1.00000e+00	1.00000e+00	1.00000e+00	1.00000e+00	1.00000e+00	1.00000e+00	1.00000e+00	1.00000e+00	1.00000e+00	1.00000e+00	1.00000e+00	X	X	X	X	X	X	X	X	X	X	X	X	X	X	X	X	

B = Detector Channel
Val Type	B-AC1	B-AC2	B-AC3	B-AC4	B-AC5	B-AC6	B-AC7	B-AC8	B-AC9	B-AC10	B-AC11	B-AC12	B-AC13	B-AC14	B-AC15	B-AC16	B-DC1	B-DC2	B-DC3	B-DC4	B-DC5	B-DC6	B-DC7	B-DC8	B-DC9	B-DC10	B-DC11	B-DC12	B-DC13	B-DC14	B-DC15	B-DC16	B-Ph1	B-Ph2	B-Ph3	B-Ph4	B-Ph5	B-Ph6	B-Ph7	B-Ph8	B-Ph9	B-Ph10	B-Ph11	B-Ph12	B-Ph13	B-Ph14	B-Ph15	B-Ph16	

Term	0.00000e+00	0.00000e+00	0.00000e+00	0.00000e+00	0.00000e+00	0.00000e+00	0.00000e+00	0.00000e+00	0.00000e+00	0.00000e+00	0.00000e+00	0.00000e+00	0.00000e+00	0.00000e+00	0.00000e+00	0.00000e+00	0.00000e+00	0.00000e+00	0.00000e+00	0.00000e+00	0.00000e+00	0.00000e+00	0.00000e+00	0.00000e+00	0.00000e+00	0.00000e+00	0.00000e+00	0.00000e+00	0.00000e+00	0.00000e+00	0.00000e+00	0.00000e+00	-1.16366e+02	-1.34525e+02	-1.24640e+02	-1.81440e+02	-6.20949e+01	-6.64202e+01	-1.56427e+02	-1.62015e+02	-6.69733e+01	-6.15982e+01	-1.71980e+02	-1.69516e+02	-1.84939e+02	-1.76465e+02	-6.54987e+01	-1.48787e+02	
Factor	1.61643e-05	1.38122e-04	4.24785e-05	1.47321e-01	1.18619e-06	1.52504e-06	1.65925e-01	4.94256e-02	1.07980e-06	1.67298e-06	8.54847e-02	2.70576e-02	2.30815e-02	8.67598e-03	1.25400e-06	1.23377e-02	1.12576e-05	2.02003e-05	5.73018e-06	7.73108e-02	2.02464e-07	2.30455e-07	8.19583e-02	2.61172e-02	2.05112e-07	2.28814e-07	4.35796e-02	1.39337e-02	1.23178e-02	4.61571e-03	2.14390e-07	6.36437e-03	X	X	X	X	X	X	X	X	X	X	X	X	X	X	X	X	



#DISTANCE SETTINGS
A = Detector Channel
A-1	A-2	A-3	A-4	A-5	A-6	A-7	A-8	A-9	A-10	A-11	A-12	A-13	A-14	A-15	A-16	

2.5000e+00	3.0000e+00	2.5000e+00	3.0000e+00	2.0000e+00	3.0000e+00	1.5000e+00	3.0000e+00	3.0000e+00	3.0000e+00	3.0000e+00	3.0000e+00	3.0000e+00	3.0000e+00	1.5000e+00	3.0000e+00	

B = Detector Channel
B-1	B-2	B-3	B-4	B-5	B-6	B-7	B-8	B-9	B-10	B-11	B-12	B-13	B-14	B-15	B-16	

1.0000e+01	1.0000e+01	1.0000e+01	1.4400e+00	1.0000e+01	1.0000e+01	1.5100e+00	1.9400e+00	1.0000e+01	1.0000e+01	1.9900e+00	2.4900e+00	2.4100e+00	2.9000e+00	1.0000e+01	2.9800e+00	




#DATA BEGINS
time	group	step	mark	flag	A-AC1	A-AC2	A-AC3	A-AC4	A-AC5	A-AC6	A-AC7	A-AC8	A-AC9	A-AC10	A-AC11	A-AC12	A-AC13	A-AC14	A-AC15	A-AC16	A-DC1	A-DC2	A-DC3	A-DC4	A-DC5	A-DC6	A-DC7	A-DC8	A-DC9	A-DC10	A-DC11	A-DC12	A-DC13	A-DC14	A-DC15	A-DC16	A-Ph1	A-Ph2	A-Ph3	A-Ph4	A-Ph5	A-Ph6	A-Ph7	A-Ph8	A-Ph9	A-Ph10	A-Ph11	A-Ph12	A-Ph13	A-Ph14	A-Ph15	A-Ph16	B-AC1	B-AC2	B-AC3	B-AC4	B-AC5	B-AC6	B-AC7	B-AC8	B-AC9	B-AC10	B-AC11	B-AC12	B-AC13	B-AC14	B-AC15	B-AC16	B-DC1	B-DC2	B-DC3	B-DC4	B-DC5	B-DC6	B-DC7	B-DC8	B-DC9	B-DC10	B-DC11	B-DC12	B-DC13	B-DC14	B-DC15	B-DC16	B-Ph1	B-Ph2	B-Ph3	B-Ph4	B-Ph5	B-Ph6	B-Ph7	B-Ph8	B-Ph9	B-Ph10	B-Ph11	B-Ph12	B-Ph13	B-Ph14	B-Ph15	B-Ph16	aux-1	digaux	

29035.312	1	1	0	256	0.22578	0.13235	0.14936	0.3238	0.099065	0.1481	0.36037	0.19494	0.16681	0.26879	0.14729	0.082171	0.19065	0.31271	0.10057	0.087125	-0.99792	-0.41042	-0.7875	-1.2417	-0.28125	-1.1187	-0.76042	-0.89375	-1.1521	-0.4375	-0.99375	-1.1938	-0.33958	-1.4042	-0.825	-0.60417	41.080	136.465	-72.082	193.832	127.694	161.068	-128.719	145.422	8.091	-49.333	39.656	202.386	164.222	-100.181	113.501	123.913	0.00024212	0.00080595	0.00045137	1341.2	1.2469e-05	1.1066e-05	813.43	419.13	1.5023e-05	1.3464e-05	235.88	76.99	157.43	72.662	2.4507e-06	34.629	0.012287	0.022107	0.0063096	1333.1	0.00021912	0.00025119	845.44	421.55	0.00021861	0.0002494	264.65	87.332	162.27	73.635	0.00023059	39.433	230.792	-127.216	147.735	-116.473	1.250	40.125	-119.070	-110.886	56.283	-15.831	-114.686	-110.911	-106.801	-102.437	227.241	-107.093	-8191	255	
29035.408	1	1	0	0	0.26074	0.093485	0.2308	0.28642	0.1812	0.2875	0.15562	0.3842	0.058732	0.23273	0.17653	0.099336	0.16307	0.48819	0.28819	0.21342	-0.78333	-0.39583	-0.75	-1.3	-0.079167	-1.2125	-0.91458	-0.51042	-1.3312	-0.42917	-0.825	-1.3458	-0.30625	-1.1583	-0.8	-0.3375	111.765	-87.791	144.570	158.036	5.431	-33.990	31.858	171.660	0.542	147.827	-50.736	-85.668	214.540	201.320	127.291	56.952	5.8317e-05	0.00071946	0.00027263	1350.3	1.3366e-05	1.1866e-05	826.63	422.78	6.5549e-06	6.2413e-06	236.49	78.454	160.41	73.637	1.4685e-05	35.566	0.012032	0.021727	0.0061435	1337.7	0.00021788	0.00024774	851.75	424.56	0.00021635	0.00024586	266.62	88.808	163.88	74.587	0.00022836	40.076	-30.618	-55.240	-40.676	-116.692	56.910	-72.727	-119.075	-110.962	74.574	90.712	-114.697	-109.764	-106.716	-102.362	147.287	-107.418	-8191	255	
29035.504	1	1	0	0	0.18248	0.203	0.31462	0.21575	0.1343	0.27871	0.19903	0.45089	0.15249	0.13909	0.13917	0.12884	0.20751	0.25546	0.24868	0.13121	-0.84167	-0.62083	-0.67917	-1.2958	-0.40625	-1.1792	-1.225	-0.575	-1.1479	-0.69167	-0.52083	-1.2583	-0.44792	-1.2125	-1.0458	-0.3875	-77.054	35.954	-116.047	218.822	-99.530	-84.184	189.336	224.984	90.553	-5.934	124.468	216.915	-90.856	220.581	112.869	123.991	5.0793e-05	0.0022106	0.00031329	1360.5	1.8782e-05	9.9877e-06	825.32	425.24	6.4188e-06	9.0244e-06	237.17	77.282	159.09	73.422	4.964e-06	35.195	0.012139	0.021754	0.0061247	1344.6	0.0002165	0.0002466	856.17	425.55	0.00021885	0.0002458	266.99	88.193	163.82	74.537	0.00022668	39.689	184.816	-10.422	23.601	-116.842	19.735	-6.836	-118.786	-111.150	221.210	-121.450	-114.598	-110.206	-106.416	-102.603	113.094	-107.328	-8191	255	
29035.598	1	1	0	0	0.17728	0.16481	0.23326	0.36895	0.1007	0.18592	0.11862	0.21448	0.045993	0.10025	0.10787	0.037914	0.19646	0.40557	0.22918	0.088804	-0.8	-0.6875	-0.48333	-1.3583	-0.4	-1.0146	-1.1625	-0.56667	-1.1229	-0.8625	-0.47917	-1.3208	-0.76875	-0.83958	-1.1104	-0.45417	101.540	13.217	-93.529	-121.501	-118.639	-127.667	-8.701	171.407	-127.956	31.570	-103.507	188.016	-113.022	165.746	199.232	106.028	0.00036807	0.00077165	0.0002442	1358.5	2.0031e-05	4.9474e-06	822.1	424.22	6.2439e-06	1.4158e-05	237.42	78.716	159.54	73.573	9.699e-06	35.677	0.012085	0.02156	0.0060245	1342.4	0.00021272	0.00024095	850.26	425.22	0.00021461	0.00024114	265.4	88.147	163.89	74.675	0.00022244	39.938	230.564	-116.997	-9.271	-116.617	17.981	77.397	-118.916	-111.210	87.415	98.972	-114.488	-110.909	-106.328	-102.242	79.055	-107.278	-8191	255	
29035.693	1	1	0	0	0.13347	0.29287	0.08017	0.21069	0.36013	0.20002	0.3684	0.10519	0.15059	0.26936	0.11989	0.1394	0.3006	0.24025	0.1172	0.23234	-0.80417	-0.9375	-0.375	-1.4104	-0.40625	-0.56458	-1.2396	-0.53333	-0.95625	-1.0792	-0.44792	-1.275	-0.77292	-0.93542	-1.2271	-0.4125	-93.363	-13.504	46.951	-122.083	117.725	206.578	175.520	197.519	-93.535	-56.286	183.125	141.607	-101.918	222.657	194.144	226.013	0.00019102	0.00086918	0.00079376	1358.4	8.034e-06	5.8411e-06	828.57	424.28	7.8056e-06	3.0117e-06	241.04	79.278	161.14	74.253	6.048e-06	35.903	0.011862	0.021181	0.0059128	1346	0.00021213	0.00023953	856.83	426.16	0.00021601	0.00024026	269.01	89.127	165.15	75.205	0.00022177	40.354	219.225	-22.102	-26.276	-116.476	-119.259	211.640	-118.536	-110.935	157.030	-63.626	-114.382	-110.118	-106.236	-102.023	-1.923	-106.922	-8191	255	
29035.791	1	1	0	0	0.1328	0.2126	0.089875	0.2483	0.14117	0.21826	0.38441	0.23871	0.31652	0.15443	0.062787	0.10303	0.25566	0.23281	0.14207	0.12053	-0.59167	-0.98333	-0.26875	-1.4312	-0.85	-0.57708	-1.4479	-0.64583	-0.87708	-1.1042	-0.3375	-1.1896	-0.72917	-0.6875	-1.3708	-0.52708	171.211	111.875	147.825	-76.365	185.107	163.119	170.107	110.530	228.659	74.643	208.542	210.824	162.803	-96.724	11.930	221.838	0.00030316	0.00067259	8.2768e-05	1361.4	2.2329e-06	2.7546e-05	845.16	426.95	2.3393e-06	3.87e-06	243.48	80.658	161.32	74.728	5.1741e-06	36.583	0.01179	0.020995	0.0058484	1347.7	0.00020955	0.00023589	865.15	428.32	0.00021182	0.00023769	271.24	90.553	165.36	75.503	0.00022222	40.842	-82.520	114.016	201.214	-116.428	122.857	114.571	-118.713	-111.086	227.578	69.342	-114.229	-110.314	-106.354	-102.181	94.651	-107.066	-8191	255	
29035.910	1	1	0	0	0.20652	0.19091	0.28291	0.10518	0.19891	0.020101	0.099999	0.15099	0.14796	0.12421	0.25034	0.056813	0.23691	0.20459	0.45882	0.29697	-0.54167	-1.1146	-0.058333	-1.3396	-0.84583	-0.40417	-1.1625	-0.67708	-0.65833	-1.2167	-0.43958	-0.95208	-1.1375	-0.52708	-1.2625	-0.6375	199.406	-93.013	181.394	142.652	64.112	110.389	5.203	209.666	147.436	-57.426	222.244	-122.043	-122.354	119.451	145.634	-89.125	0.00020573	0.00051211	3.6163e-05	1379.3	1.2113e-05	2.0249e-05	848.34	429.12	1.1241e-05	4.171e-06	244.53	80.137	160.12	73.7	9.57e-06	35.724	0.011947	0.021114	0.0059838	1359.8	0.0002146	0.00024066	875.34	429.33	0.00021804	0.00023996	272.44	90.572	164.66	74.947	0.00023075	40.571	230.332	-127.501	-104.316	-116.399	76.274	-10.034	-118.436	-111.034	-101.479	201.046	-114.116	-110.360	-106.686	-102.520	-40.831	-106.958	-8191	255	
29036.008	1	1	0	0	0.24422	0.11583	0.15314	0.28927	0.29565	0.13215	0.37146	0.41937	0.13797	0.23566	0.28819	0.12067	0.25321	0.079862	0.096174	0.17452	-0.28333	-1.3208	-0.48958	-1.1875	-0.96042	-0.41875	-1.4542	-0.79792	-0.44375	-1.1042	-0.52292	-0.87083	-1.2271	-0.5125	-1.1396	-0.80417	192.522	18.302	111.684	188.963	141.314	16.613	79.357	153.905	-71.919	178.876	113.357	210.753	156.009	151.468	-105.788	73.273	0.0002024	0.00037582	0.0002439	1355.3	5.6233e-06	1.0379e-05	835.64	426.43	9.2995e-06	1.1058e-05	242.88	80.101	159.97	73.78	1.2005e-05	35.616	0.012406	0.02195	0.0063244	1350	0.00022425	0.000253	866.89	428.98	0.00022803	0.00025142	272.93	90.977	165.11	74.921	0.00024268	40.76	218.730	-93.680	167.392	-116.792	51.100	-29.778	-118.494	-111.038	14.356	-42.923	-113.957	-110.873	-106.186	-102.053	-48.304	-107.025	-8191	255	
29036.104	1	1	0	0	0.059957	0.20977	0.14793	0.09691	0.24188	0.13272	0.21351	0.35539	0.27272	0.14974	0.14488	0.069012	0.42656	0.2956	0.18455	0.13602	-0.11875	-1.2646	-0.43125	-0.98125	-1.1167	-0.30833	-1.2146	-1.1375	-0.44583	-1.4	-0.45833	-0.82708	-1.3229	-0.46875	-1.0375	-1.0833	75.521	46.280	40.542	204.612	57.182	52.591	-127.610	194.566	27.905	99.284	89.538	-29.763	214.555	-97.689	67.110	216.173	0.00027225	0.00037554	0.0003242	1366.7	8.3565e-06	4.3948e-06	842.95	428.29	6.0923e-06	1.1985e-05	245.65	81.015	160.76	74.44	9.587e-06	36.248	0.012695	0.022817	0.0065501	1356.6	0.00022617	0.00025956	874.92	431.54	0.00023143	0.00025817	276.74	92.108	165.97	75.457	0.00024319	41.272	199.767	-95.223	-28.373	-116.288	24.418	-23.792	-118.428	-110.712	32.400	126.777	-114.042	-110.329	-106.111	-101.949	141.546	-106.854	-8191	255	
29036.176	1	1	0	0	0.030992	0.080819	0.25267	0.3302	0.18594	0.070875	0.28651	0.05608	0.086762	0.20589	0.20437	0.36555	0.29301	0.10515	0.089716	0.14115	-0.041667	-1.0688	-0.37917	-0.99167	-1.1729	-0.48542	-1.1354	-1.2083	-0.5625	-1.1125	-0.73958	-0.45	-1.4583	-0.54792	-1.1562	-1.1208	-104.542	6.127	-94.893	203.247	163.123	106.072	153.149	212.335	88.288	146.142	226.241	211.752	146.305	-76.761	175.543	71.494	0.00021761	0.0011651	0.00010472	1372.7	4.1666e-06	1.2555e-05	855.06	431.23	3.9931e-06	9.905e-06	246.67	82.332	162.31	74.651	1.1019e-05	36.936	0.012641	0.022506	0.00647	1361.2	0.00022474	0.00025952	884.77	433.34	0.00022948	0.00025668	279.75	93.133	167.55	75.861	0.00024096	41.711	-119.523	-95.014	-41.766	-116.028	49.992	1.961	-118.584	-111.220	217.678	-2.271	-114.432	-110.407	-106.383	-102.322	-6.431	-107.534	-8191	255	
29036.297	1	1	0	0	0.16244	0.35774	0.19046	0.30092	0.36604	0.09865	0.28801	0.22653	0.31478	0.023921	0.094902	0.10089	0.3498	0.29429	0.25899	0.48106	0.029167	-1.1313	-0.68333	-0.73542	-1.1	-0.25208	-1.1833	-1.3271	-0.475	-1.0938	-0.84792	-0.51042	-1.4958	-0.68125	-0.73958	-0.875	-54.679	-47.719	144.963	196.794	61.455	161.343	204.392	120.958	169.494	-79.084	153.248	176.765	215.998	171.541	198.731	141.979	0.00030172	0.0010791	0.00042522	1385.2	2.0829e-06	2.505e-05	859.64	435.24	1.3296e-05	2.6337e-05	248.49	83.509	162.92	75.135	1.1906e-05	36.695	0.012658	0.022698	0.006502	1369.2	0.00022693	0.00026157	893.14	436.41	0.00022905	0.00025799	281.49	93.918	168.25	76.316	0.00024073	41.691	189.013	-31.881	-35.618	-116.377	-104.726	19.866	-118.308	-111.146	74.259	78.673	-114.749	-110.651	-106.304	-101.956	-107.261	-107.118	-8191	255	
29036.393	1	1	0	0	0.1978	0.21948	0.13812	0.34977	0.13117	0.15827	0.22867	0.095675	0.24735	0.31971	0.18182	0.079547	0.41785	0.12247	0.24206	0.28492	0.039583	-1.0729	-0.79375	-0.64583	-1.3563	-0.50417	-0.99792	-1.3333	-0.31875	-1.1875	-0.93542	-0.58125	-1.5896	-0.71458	-0.65	-1.2104	165.015	-94.467	187.682	227.237	22.105	-98.914	142.737	229.871	123.027	51.327	139.697	154.086	-95.547	185.033	64.171	126.673	0.00023162	0.00024105	0.00015207	1372.9	7.4272e-06	9.593e-06	855.95	432.49	1.0906e-05	1.4149e-05	246.22	82.076	163.37	75.309	9.1776e-06	36.772	0.012677	0.022772	0.0065042	1360.7	0.00022606	0.00026413	885.41	434.92	0.00023023	0.00025763	278.74	92.871	168.14	76.289	0.00024275	41.376	-127.813	67.180	218.102	-116.285	-40.337	-49.019	-118.451	-111.034	33.195	-96.252	-114.080	-110.089	-106.350	-102.066	-64.311	-107.247	-8191	255	
29036.488	1	1	0	0	0.21529	0.15171	0.31615	0.070989	0.29273	0.22973	0.043003	0.28302	0.24274	0.0287	0.14569	0.18748	0.20486	0.12219	0.1626	0.12724	-0.020833	-1.0208	-1.075	-0.35625	-1.3417	-0.51042	-0.66042	-1.5021	-0.3375	-1.0271	-1.2125	-0.25	-1.4104	-0.72083	-0.59167	-1.2521	-16.044	201.428	208.022	22.947	-40.621	203.825	-22.894	205.985	226.202	-52.240	96.968	223.681	152.883	135.415	-99.933	225.853	0.00026463	0.00063528	0.00063941	1368.2	2.9918e-06	1.1293e-05	861.83	434.43	2.759e-06	1.6412e-05	248.7	83.141	163.71	75.371	7.3183e-06	37.019	0.012772	0.022787	0.0064485	1358.4	0.00022791	0.00026147	888.84	435.79	0.00023151	0.00025809	280.21	93.673	168.56	76.378	0.00023994	41.826	224.208	-122.164	-54.381	-116.351	30.946	-80.629	-118.359	-110.652	98.945	165.740	-114.761	-110.242	-106.057	-102.063	-36.887	-107.539	-8191	255	
29036.584	1	1	0	0	0.26185	0.13267	0.10592	0.30251	0.30849	0.094641	0.062203	0.066463	0.10916	0.13106	0.071318	0.10937	0.27989	0.16959	0.17041	0.20188	-0.08125	-0.96875	-1.1083	-0.55	-1.0812	-0.72292	-0.68125	-1.4646	-0.74583	-0.95417	-1.3458	-0.275	-1.3062	-0.93542	-0.37917	-1.3771	-65.752	59.637	217.227	-94.125	64.100	204.189	159.239	-88.999	222.846	-22.986	-119.987	-95.058	195.190	171.491	89.022	-122.616	0.0001218	0.0020878	0.00034393	1370.9	7.4294e-06	8.4641e-06	863.46	436.69	1.3741e-05	6.0914e-06	249.95	83.877	163.46	75.621	1.0332e-05	37.396	0.012941	0.022829	0.0064605	1360.5	0.00023036	0.00026395	894.68	438.4	0.00023594	0.00025941	281.59	94.579	168.99	76.533	0.00024199	42.003	-90.782	-80.600	-115.373	-116.415	-11.020	-28.536	-118.351	-110.792	-0.576	43.408	-113.917	-110.461	-105.830	-102.021	-72.153	-106.876	-8191	255	
29036.703	1	1	0	0	0.13675	0.15753	0.21996	0.21676	0.31321	0.049724	0.2411	0.36879	0.19735	0.26879	0.34702	0.21217	0.21351	0.23178	0.28095	0.17233	-0.016667	-0.78958	-1.3604	-0.71667	-1.075	-1.1146	-0.44167	-1.4729	-0.64583	-0.81042	-1.4438	-0.3875	-0.95625	-1.2354	-0.26667	-1.3104	122.658	84.505	17.681	181.927	10.484	203.369	127.068	173.582	-52.841	2.232	90.123	-65.452	-77.409	154.110	-5.231	-111.260	0.00022054	0.00032746	0.00019327	1372.9	1.1e-05	4.9941e-06	865.48	434.67	1.6672e-05	3.3698e-06	254.71	84.113	165.03	75.25	1.1123e-05	36.876	0.013056	0.023176	0.0064977	1366.1	0.00023257	0.00026336	898.73	438.5	0.00023546	0.00026071	284.67	95.344	170.06	76.546	0.0002407	42.133	219.023	130.751	-14.188	-116.478	64.446	171.104	-118.416	-110.640	-52.525	-114.087	-114.349	-110.334	-105.834	-101.824	-65.677	-106.825	-8191	255	
29036.775	1	1	0	0	0.21804	0.075679	0.18942	0.13718	0.017616	0.33967	0.2116	0.50089	0.042154	0.11971	0.27906	0.2253	0.18077	0.17523	0.30527	0.21722	-0.2375	-0.52292	-1.3292	-0.64583	-0.875	-1.1042	-0.5125	-1.2625	-0.90833	-0.54583	-1.2417	-0.33333	-0.9	-1.1208	-0.55833	-1.2146	-32.391	-45.914	-116.357	208.350	-3.955	114.217	194.435	208.426	64.472	220.633	140.982	57.584	-103.111	-104.214	206.743	130.579	0.0003401	0.0023122	0.00022813	1368.3	1.3885e-05	1.1084e-05	861.98	433.08	6.7109e-06	2.2254e-05	249.82	83.276	163.79	74.586	1.2509e-05	36.789	0.012986	0.022791	0.0063979	1364	0.00022902	0.00025888	892.45	436.53	0.00023442	0.00025593	280.8	94.25	168.78	75.899	0.00024052	41.629	203.279	35.433	183.822	-116.190	-71.337	13.908	-118.793	-110.571	-52.140	-18.784	-114.605	-110.371	-106.011	-102.191	-36.896	-107.517	-8191	255	
29036.873	1	1	0	0	0.11576	0.10993	0.022485	0.4582	0.054565	0.28634	0.35739	0.31371	0.076288	0.16809	0.074889	0.15539	0.29714	0.30485	0.15395	0.19869	-0.36875	-0.43125	-1.1917	-0.73958	-0.73125	-1.1875	-0.45833	-1.3146	-0.93958	-0.55833	-1.5479	-0.70208	-0.64583	-1.3771	-0.21042	-1.025	52.382	-57.105	-64.181	211.469	6.974	116.706	180.501	175.997	28.021	167.107	112.762	132.424	226.496	198.957	137.563	-121.676	4.4708e-05	0.0021218	3.7005e-05	1363.2	1.3726e-06	1.3516e-05	860	431.95	1.1796e-05	1.0662e-05	249.32	83.105	164.17	74.865	9.3918e-06	36.783	0.01283	0.022758	0.0064959	1357.4	0.00023127	0.00025903	890.57	436.77	0.00023391	0.00025683	281.72	94.394	169.06	76.093	0.00024414	41.741	-119.187	-83.481	219.540	-116.557	-67.453	-31.279	-118.452	-110.704	-43.565	42.359	-114.035	-110.659	-106.267	-102.186	156.584	-107.309	-8191	255	
29036.992	1	1	0	0	0.085469	0.13071	0.16795	0.13705	0.20077	0.18758	0.45877	0.21075	0.091559	0.20224	0.19335	0.02895	0.13423	0.11645	0.25256	0.26156	-0.71042	-0.41042	-1.2458	-0.9	-0.35833	-1.0792	-0.59167	-1.1104	-0.97917	-0.42708	-1.2771	-0.87292	-0.61875	-1.4604	-0.31667	-0.89375	70.098	33.743	159.954	-7.947	-83.320	-115.260	145.542	-118.559	-66.506	131.052	170.754	83.873	97.728	-69.796	-93.444	212.415	0.00018932	0.0016706	0.00015538	1365.3	7.4811e-06	1.7665e-05	867.91	436.2	1.0956e-05	7.0514e-06	254.09	84.867	164.62	75.508	3.2951e-06	37.262	0.012742	0.022627	0.0064666	1361.9	0.0002252	0.00025892	898.74	438.66	0.00022984	0.00025828	284.36	95.636	169.63	76.689	0.00024296	42.386	214.708	24.583	-87.107	-116.816	-119.787	-73.284	-119.019	-110.851	31.090	48.243	-114.667	-110.671	-106.197	-102.277	-61.279	-107.014	-8191	255	
29037.088	1	1	0	0	0.064774	0.24668	0.060663	0.16714	0.016397	0.14163	0.13342	0.29437	0.15046	0.30196	0.063127	0.029749	0.19101	0.16667	0.040517	0.2353	-0.85208	-0.2375	-1.1021	-1.0063	-0.61042	-1.2604	-0.55625	-1.0812	-1.0562	-0.32917	-1.3458	-1.0042	-0.78333	-1.3521	-0.59583	-0.67292	-87.133	-83.565	85.776	161.514	-128.059	-119.496	60.084	-114.852	109.247	-78.064	88.132	-23.806	-68.723	173.640	-84.857	138.937	0.00011275	0.00058025	0.00041984	1380.6	4.958e-06	9.8742e-06	874.35	441.2	7.1719e-06	4.6202e-06	254.99	85.493	166.79	75.783	1.8327e-06	37.892	0.01282	0.022892	0.0065489	1371.5	0.00022697	0.0002596	908.17	441.93	0.00023024	0.00026122	287.37	96.465	171.01	77.268	0.00024504	42.835	176.910	-98.946	-56.359	-116.572	-10.352	189.237	-118.888	-110.862	60.335	214.028	-114.041	-110.592	-106.164	-102.252	130.395	-107.573	-8191	255	
29037.184	1	1	0	0	0.33389	0.23399	0.16882	0.33793	0.35871	0.11797	0.33798	0.30469	0.10748	0.24008	0.28105	0.18059	0.21571	0.34772	0.071427	0.25173	-0.77708	0.0041667	-1.075	-1.2021	-0.41458	-1.2667	-0.76458	-0.76042	-1.4375	-0.46042	-1.0812	-1.1063	-0.60833	-1.2125	-0.56667	-0.7625	-84.248	174.252	-47.322	196.688	161.132	-110.710	129.057	189.644	172.395	-37.311	226.240	141.285	-121.575	134.870	104.996	-12.405	0.00021101	0.00046599	6.4703e-05	1378.7	5.3693e-06	9.7187e-06	876.39	438.12	2.0885e-06	1.5324e-05	253.05	84.591	164.86	75.471	8.3871e-06	37.01	0.012757	0.023068	0.006572	1372.4	0.00022843	0.00026307	907.06	439.92	0.00023149	0.00026011	284.52	95.097	169.62	76.787	0.00024076	41.955	200.790	102.558	33.229	-116.270	81.767	81.112	-118.860	-110.544	45.955	195.019	-114.112	-110.785	-106.305	-102.307	68.778	-106.616	-8191	255	
29037.305	1	1	0	0	0.044541	0.1893	0.24746	0.59342	0.091895	0.10084	0.31688	0.30093	0.28401	0.20385	0.06897	0.22438	0.26718	0.10487	0.40314	0.10394	-0.86458	-0.425	-0.91458	-1.3292	-0.33542	-1.1688	-0.91667	-0.75625	-1.0854	-0.55625	-1.0812	-1.1875	-0.525	-1.3792	-0.88958	-0.675	11.513	-15.113	136.326	195.932	67.232	37.380	204.751	163.744	33.665	8.627	-45.757	200.272	157.274	-112.044	86.547	76.145	0.00013609	0.0012076	0.00037813	1375.3	5.8386e-06	9.2227e-06	858.02	434.45	3.051e-06	1.8055e-05	252.41	84.463	164.27	75.874	4.0579e-06	37.182	0.012698	0.022801	0.0063895	1362	0.00022603	0.00025887	892.8	437.97	0.00022893	0.00025785	282.55	94.9	169.38	76.952	0.00024065	42.073	-114.767	117.452	0.286	-116.350	106.833	-39.794	-118.521	-110.760	73.265	17.783	-114.143	-110.412	-106.005	-101.763	230.721	-107.261	-8191	255	
29037.398	1	1	0	0	0.31314	0.39728	0.061487	0.15024	0.081768	0.12846	0.24711	0.13981	0.08158	0.12569	0.22817	0.24092	0.091421	0.078355	0.050909	0.371	-0.91875	-0.5375	-0.70417	-1.3479	-0.35417	-1.1604	-0.96042	-0.45833	-1.3792	-0.58542	-0.8	-1.175	-0.46458	-1.35	-1.0396	-0.39583	-8.081	-120.317	-105.171	206.175	185.971	182.338	157.038	225.978	192.570	-121.689	-91.001	-61.687	-81.017	-39.731	161.884	217.340	0.00025754	0.00055196	0.00034993	1363.1	9.3303e-06	8.6059e-06	860.19	436.36	1.143e-05	2.3466e-05	254.01	85.98	165.92	76.373	8.9014e-06	38.004	0.012768	0.022892	0.0065002	1357.8	0.00022764	0.00026301	892.99	439.1	0.00023113	0.00026028	284.67	96.157	171.07	77.723	0.00024076	42.793	147.781	-36.226	212.962	-116.686	135.807	183.753	-118.770	-110.793	89.984	-10.710	-114.301	-109.956	-106.199	-102.034	-29.084	-106.792	-8191	255	
29037.473	1	1	0	0	0.10741	0.14335	0.12026	0.21075	0.1036	0.22339	0.43475	0.18128	0.21142	0.25248	0.41275	0.28965	0.14846	0.19947	0.2718	0.092391	-0.81667	-0.75	-0.54167	-1.375	-0.50208	-1.0562	-1.2729	-0.69792	-1.1271	-0.73958	-0.62083	-1.3646	-0.44375	-1.0375	-1.0938	-0.41875	201.366	137.773	224.138	146.565	120.519	47.134	185.777	204.868	153.502	168.041	-33.294	225.922	180.438	180.615	-59.699	200.369	0.00019015	0.00060809	0.00048025	1368.1	1.9871e-05	3.8314e-06	871.28	439.08	1.0813e-05	9.5926e-06	256.43	86.793	167.68	77.281	1.1381e-05	38.295	0.012949	0.023194	0.0064866	1356.4	0.00022996	0.00026627	903.53	441.43	0.00023395	0.00026191	287.25	97.17	172.42	78.316	0.00024311	43.374	221.527	159.082	-40.211	-116.280	21.635	210.624	-118.179	-110.663	2.811	-39.757	-114.013	-110.041	-106.388	-102.277	231.121	-107.746	-8191	255	
29037.594	1	1	0	0	0.1995	0.14381	0.1493	0.084675	0.17921	0.2527	0.25746	0.10198	0.20261	0.076498	0.20897	0.21372	0.19936	0.22534	0.20547	0.05882	-0.91667	-0.92292	-0.54792	-1.5625	-0.67083	-0.94792	-1.3937	-0.6	-1.2083	-1.0167	-0.6125	-1.4042	-0.74583	-1.0146	-1.2396	-0.57083	-28.386	-100.396	54.556	-126.724	218.439	143.229	-109.352	168.149	-115.267	21.183	139.338	135.633	176.387	-120.104	-50.787	-107.116	0.00031732	0.0014734	0.00031538	1360.8	6.657e-06	1.6774e-05	874.02	440.74	1.5392e-05	4.6311e-06	256.62	87.011	167.29	76.894	4.8934e-06	37.61	0.013087	0.02327	0.0065647	1358.9	0.00023477	0.00026707	906.71	442.95	0.00023886	0.00026475	288.09	97.4	172.39	78.093	0.00024609	42.772	-124.950	167.703	33.972	-116.389	202.375	-74.159	-118.421	-111.001	-65.849	58.427	-114.126	-110.654	-106.324	-102.174	57.302	-107.208	-8191	255	
29037.688	1	1	0	0	0.18485	0.15478	0.089706	0.27967	0.096908	0.20184	0.468	0.41816	0.10899	0.38309	0.051001	0.10489	0.15834	0.31115	0.15697	0.32223	-0.87708	-0.91875	-0.375	-1.4833	-0.63958	-0.76458	-1.3271	-0.55417	-1.0833	-1.1521	-0.29167	-1.3438	-0.85208	-0.4875	-1.2875	-0.6875	6.512	153.457	42.202	218.150	-0.716	121.405	187.800	-105.131	-36.493	87.190	200.230	-29.858	213.088	175.268	-8.995	135.166	0.00033081	0.0016276	0.00011103	1359.2	1.3295e-05	8.6728e-06	851.74	436.25	1.6748e-05	1.6357e-05	251.32	85.571	167.24	76.54	1.5329e-05	37.539	0.013179	0.023221	0.0065395	1351.4	0.00023464	0.00026569	890.18	439.66	0.00023619	0.00026229	284.9	96.677	171.82	77.834	0.00024449	42.643	-106.487	48.544	204.553	-116.276	84.183	-76.182	-118.570	-110.633	-28.725	43.475	-113.840	-110.614	-106.169	-101.794	-70.384	-107.469	-8191	255	
29037.783	1	1	0	0	0.24519	0.31937	0.08723	0.34523	0.1836	0.1397	0.068601	0.37223	0.063176	0.094943	0.28506	0.27622	0.085175	0.17739	0.073072	0.32263	-0.57292	-1.0292	-0.11875	-1.4937	-0.98333	-0.5625	-1.6063	-0.82917	-0.92708	-1.3667	-0.6125	-1.2771	-0.97292	-0.61042	-1.2917	-0.68125	-54.121	15.317	-119.390	213.816	172.641	192.851	177.975	212.296	161.963	-127.253	209.902	93.921	-106.829	-16.453	158.049	137.253	0.0001189	0.0010407	0.00013053	1368.2	8.9651e-06	1.2251e-05	866.21	437.15	9.484e-06	2.2867e-06	252.51	86.196	167.93	77.243	3.2326e-06	37.801	0.012919	0.023028	0.0065134	1356.3	0.0002305	0.00025943	895.27	441.23	0.00023437	0.00025987	285.92	97.024	172.32	78.064	0.00024211	42.881	202.011	190.337	162.382	-115.947	4.688	-44.813	-118.371	-110.663	71.654	-36.423	-113.937	-110.425	-105.993	-101.795	114.365	-106.802	-8191	255	
29037.881	1	1	0	0	0.22513	0.096546	0.17288	0.26825	0.32739	0.15281	0.11481	0.34498	0.0048676	0.12302	0.16213	0.19871	0.33526	0.25772	0.24075	0.19263	-0.30833	-1.2271	-0.25833	-1.3771	-1.0312	-0.41458	-1.3708	-0.87292	-0.78958	-1.2521	-0.37292	-1.1396	-1.0625	-0.83125	-1.4292	-0.77708	189.457	-2.193	100.061	-111.555	145.608	-64.779	173.979	184.575	-122.217	111.608	-104.029	211.728	198.306	-106.480	32.839	151.159	0.00036068	0.00077498	0.00038804	1365.3	8.1576e-06	6.7022e-06	868.86	438.34	4.6021e-06	1.5651e-06	255.81	86.799	167.88	77.375	4.1912e-06	38.421	0.012837	0.022667	0.0064695	1359.5	0.00023139	0.00025831	902.62	441.14	0.00023132	0.00025792	286.9	97.603	172.5	78.357	0.00024131	43.181	198.001	-74.847	3.651	-116.117	-48.853	48.302	-117.811	-110.689	167.148	192.230	-113.973	-110.200	-106.004	-102.020	-123.051	-107.363	-8191	255	
29038.000	1	1	0	0	0.20725	0.16884	0.19435	0.10078	0.10775	0.10848	0.31039	0.22272	0.2252	0.28062	0.033891	0.10123	0.17426	0.24427	0.12872	0.11183	-0.22917	-1.325	-0.4	-1.25	-1.0417	-0.69167	-1.4667	-0.87917	-0.64792	-1.225	-0.61458	-0.86875	-1.2167	-0.66667	-1.575	-0.99792	117.773	-121.091	-63.852	169.902	62.180	141.719	207.456	165.048	-33.283	12.542	39.802	217.606	-103.141	152.693	91.415	197.459	0.00020582	0.00058712	0.00023571	1371	1.0648e-05	1.2421e-05	875.47	438.55	1.027e-05	7.4853e-06	255.12	86.36	166.16	76.199	6.92e-06	37.44	0.012561	0.022437	0.0063815	1360.9	0.00022243	0.0002534	906.18	440.85	0.00022489	0.00024944	285.54	96.238	170.52	77.196	0.00023184	42.115	-109.279	28.016	11.951	-115.901	61.476	199.971	-117.810	-110.573	-99.623	157.872	-113.845	-110.386	-105.791	-101.890	-28.548	-106.995	-8191	255	
29038.072	1	1	0	0	0.091226	0.14906	0.17335	0.097294	0.17972	0.17468	0.11081	0.13894	0.17597	0.2856	0.25025	0.14103	0.36177	0.11326	0.34335	0.086449	-0.275	-1.3479	-0.41875	-1.0187	-1.2563	-0.43958	-1.2625	-1.075	-0.58125	-1.2833	-0.66458	-0.8625	-1.4229	-0.525	-1.1167	-1.0917	-22.324	-109.548	120.627	2.541	18.677	-118.677	181.646	53.606	58.339	-121.826	-41.676	192.482	216.692	-113.354	-8.178	-67.177	0.00013014	0.0014506	0.00020829	1367.5	1.9118e-05	1.964e-05	863.04	435.48	4.8683e-06	1.2984e-05	249.5	84.577	165.53	75.768	1.6642e-06	37.336	0.012112	0.021827	0.006284	1352.4	0.00021802	0.00024972	886.02	436.14	0.0002196	0.00024649	278.91	94.192	168.86	76.5	0.00023141	41.73	219.247	-114.229	35.279	-116.262	13.704	-32.101	-118.014	-110.656	91.254	54.861	-114.334	-110.098	-106.035	-101.811	-56.536	-106.928	-8191	255	
29038.168	1	1	0	0	0.10835	0.19764	0.067079	0.23803	0.20716	0.31175	0.38664	0.1865	0.30361	0.18829	0.20461	0.27983	0.19513	0.21258	0.056668	0.22124	-0.14792	-1.3833	-0.56875	-0.76875	-1.3521	-0.46667	-1.2354	-1.3792	-0.46458	-1.3146	-0.72708	-0.60625	-1.5229	-0.82708	-0.89792	-1.275	166.011	118.967	162.255	204.247	101.569	142.114	-34.817	190.911	10.284	-109.994	-100.249	210.114	94.933	115.728	84.980	137.560	0.00024045	0.0011799	0.00027365	1359.1	8.0082e-06	1.1262e-05	857.28	435.17	1.1711e-05	1.6323e-05	251.34	85.488	165.66	75.988	4.2785e-06	37.101	0.012101	0.021934	0.0061982	1347.7	0.00021625	0.00024867	886.44	435.44	0.00021821	0.00024541	280.25	94.817	169.4	76.853	0.00023232	41.809	223.055	-38.851	48.956	-115.674	-82.938	95.032	-118.176	-110.540	-46.916	42.348	-114.330	-110.018	-105.853	-101.832	161.272	-106.913	-8191	255	
29038.264	1	1	0	0	0.042377	0.19605	0.035346	0.045437	0.12885	0.07505	0.072549	0.35769	0.23427	0.10689	0.16949	0.18487	0.24745	0.3118	0.11175	0.27881	-0.047917	-1.1	-0.73542	-0.79375	-1.1375	-0.60625	-1.0646	-1.3625	-0.5625	-1.2083	-0.81875	-0.56042	-1.4583	-0.675	-0.85	-1.2167	16.910	118.078	-36.427	189.465	-92.552	55.640	60.111	183.443	2.209	126.681	-12.220	-68.551	194.108	173.125	-72.981	219.171	0.00021976	0.0011781	0.00062235	1367.2	8.9248e-06	1.1414e-05	867.94	435.86	3.7599e-06	2.1679e-06	251.6	86.194	166.1	76.645	8.8445e-06	38.079	0.012218	0.021768	0.0062273	1348.3	0.00021527	0.00024906	891.22	436.75	0.00022142	0.00024507	281.08	95.406	170.29	77.459	0.00022943	42.5	207.913	206.582	32.282	-116.053	43.308	15.134	-118.139	-110.989	-84.701	-34.552	-114.477	-110.194	-106.002	-102.016	-39.634	-106.837	-8191	255	
29038.385	1	1	0	0	0.21055	0.36937	0.11471	0.2745	0.40056	0.029708	0.27985	0.22327	0.09817	0.11683	0.056928	0.14784	0.2751	0.21286	0.0063949	0.086484	0.027083	-1.0979	-0.925	-0.53125	-1.1104	-0.73125	-0.81875	-1.6417	-0.44167	-1.2021	-1.0125	-0.39375	-1.55	-0.72083	-0.77917	-1.5896	58.430	155.372	217.486	-123.560	78.913	12.329	196.132	-74.795	-48.257	-64.472	37.759	-4.265	177.051	216.506	79.842	-104.419	3.8254e-05	0.0016187	0.00018555	1359.8	6.0397e-06	1.0941e-05	873.31	438.61	6.7391e-06	1.2961e-05	257.1	87.895	168.02	77.323	8.3863e-06	38.618	0.012063	0.021594	0.0060956	1348.1	0.00021334	0.00024645	896.21	438.25	0.00021858	0.00024483	283.94	97.091	171.63	78.056	0.00022673	42.821	144.034	-17.523	195.707	-116.369	-94.935	-92.688	-117.873	-110.564	-116.156	78.954	-114.211	-110.004	-106.408	-102.607	51.144	-107.532	-8191	255	
29038.480	1	1	0	0	0.14084	0.12494	0.091493	0.45748	0.15818	0.20074	0.14749	0.28473	0.1416	0.34441	0.17919	0.31389	0.20181	0.35915	0.12485	0.20504	0	-0.98958	-0.97083	-0.58542	-0.92917	-0.70417	-0.52708	-1.3042	-0.4	-0.86458	-1.1708	-0.39583	-1.2146	-0.89375	-0.4875	-1.3271	178.982	-88.027	128.198	210.117	10.935	210.328	189.021	190.478	142.539	-50.856	95.908	149.427	158.589	151.811	13.082	118.266	0.00026624	0.00079892	0.0004065	1351.1	6.1459e-06	8.0478e-06	858.43	434.38	9.6363e-06	1.2695e-05	251.15	85.987	166.92	76.884	1.2191e-05	38.12	0.012167	0.021396	0.0060322	1340.9	0.00021346	0.00024524	886.03	436.17	0.00021783	0.00024278	280.42	95.677	170.79	77.884	0.0002249	42.503	-126.391	-48.985	194.337	-116.533	-5.018	80.324	-118.418	-110.877	-86.664	188.368	-114.742	-110.702	-106.640	-102.428	-69.414	-107.677	-8191	255	
29038.574	1	1	0	0	0.14917	0.080165	0.16442	0.22932	0.068354	0.16266	0.26637	0.46047	0.1096	0.36739	0.19632	0.10647	0.23465	0.15482	0.1905	0.19453	0.014583	-0.68125	-0.95833	-0.42917	-1.025	-0.81875	-0.475	-1.4937	-0.38125	-0.79583	-1.2375	-0.4875	-1.225	-1.2875	-0.26042	-1.1667	-111.220	-83.037	56.488	224.015	175.642	190.440	165.951	212.431	170.598	121.363	130.001	228.285	202.167	-112.287	81.716	86.489	0.00019414	0.00019466	0.00052909	1354.9	9.4989e-06	1.8382e-05	853.16	434.76	9.6217e-06	1.494e-05	254.57	87.39	167.36	77.323	2.4168e-05	38.744	0.012075	0.021425	0.0060254	1337.2	0.00021572	0.00024303	882.81	436.51	0.00022033	0.00024397	281.65	96.754	171.46	78.163	0.00022709	42.986	209.231	220.035	91.413	-116.443	-81.619	26.609	-118.798	-110.993	-39.030	-53.131	-114.664	-110.931	-106.774	-102.392	-78.881	-107.134	-8191	255	
29038.674	1	1	0	0	0.33608	0.16475	0.13872	0.19303	0.11909	0.11506	0.19989	0.14063	0.22749	0.1926	0.22768	0.1221	0.46336	0.32057	0.21906	0.13281	-0.275	-0.55208	-0.98333	-0.74167	-0.94375	-0.78125	-0.48958	-1.3542	-0.73958	-0.57292	-1.2771	-0.44583	-0.96875	-1.1688	-0.42083	-1.2854	168.373	21.065	-81.871	-70.341	-93.372	115.703	117.435	34.016	-93.623	199.732	-124.409	110.022	165.457	227.939	-35.886	-116.464	0.00019981	0.00073339	0.00013667	1354.4	1.1889e-05	1.1845e-05	869.19	437	7.8045e-06	9.1879e-06	254.86	88.053	166.44	77.366	1.7517e-06	38.461	0.012103	0.021458	0.0060947	1341.9	0.00021792	0.00024469	894.81	437.74	0.00022261	0.00024664	283.57	97.496	171.43	78.185	0.00023095	42.994	210.397	67.221	-52.986	-116.307	-86.044	80.516	-118.548	-110.984	108.640	112.975	-114.678	-110.795	-106.463	-102.493	9.070	-107.158	-8191	255	
29038.768	1	1	0	0	0.06237	0.2216	0.08913	0.35923	0.057955	0.030291	0.30881	0.27245	0.070494	0.13688	0.31189	0.11674	0.3352	0.067229	0.11054	0.21845	-0.22708	-0.72708	-1.1979	-0.7125	-0.81875	-1.0812	-0.51042	-1.55	-0.88542	-0.59167	-1.4021	-0.59583	-1.0292	-1.5208	-0.47917	-1.1375	11.756	109.322	84.970	129.643	214.444	138.740	183.872	184.795	75.549	126.859	178.236	197.000	184.814	-108.313	-118.928	173.156	0.00013349	0.00081821	0.00040618	1368.1	7.4957e-06	9.1474e-06	876.44	437.75	9.4768e-06	2.0885e-05	259.42	86.992	167.66	76.9	1.3976e-05	38.379	0.012366	0.021682	0.006217	1357.1	0.00021969	0.00024723	905.9	439.88	0.00022321	0.00024714	286.98	97.35	171.75	77.667	0.00023011	42.878	170.065	-56.386	53.295	-116.553	-107.104	20.727	-118.288	-110.876	-54.021	42.531	-114.404	-110.722	-106.517	-102.444	14.069	-107.070	-8191	255	
29038.863	1	1	0	0	0.088109	0.19872	0.38962	0.21402	0.081673	0.03038	0.4021	0.020236	0.14848	0.1423	0.12738	0.19916	0.11985	0.29571	0.06189	0.1599	-0.43958	-0.30417	-1.1396	-0.8375	-0.7375	-1.3458	-0.56458	-1.1479	-1.1792	-0.62292	-1.3771	-0.69792	-1.0854	-1.7083	-0.28958	-1.1042	220.685	14.780	8.818	218.470	67.674	170.065	160.126	62.801	147.202	183.679	110.960	191.821	-84.231	224.555	112.734	181.165	2.4981e-05	0.00038455	0.00036678	1368.4	8.9243e-06	4.1992e-06	871.5	436.42	9.8465e-06	1.3162e-07	252.83	85.253	165.66	75.774	1.5299e-06	37.349	0.012143	0.021371	0.0061394	1355.8	0.00021254	0.00024254	898.36	436.99	0.00021396	0.00023839	280.17	94.925	168.97	76.435	0.00022241	41.699	-49.695	-20.411	-13.199	-116.713	-35.787	-54.908	-118.425	-110.912	-13.135	216.668	-114.002	-110.322	-106.660	-102.112	154.745	-107.367	-8191	255	
29038.984	1	1	0	0	0.11411	0.087316	0.12613	0.24572	0.01998	0.028783	0.23873	0.44507	0.093614	0.40777	0.36743	0.17768	0.25689	0.3947	0.099762	0.23927	-0.50625	-0.62083	-1.1458	-0.81667	-0.45	-1.4167	-0.575	-0.95417	-1.0958	-0.42083	-1.3625	-0.72292	-0.575	-1.4188	-0.47708	-1.0333	123.821	-122.507	13.246	202.703	96.635	-92.372	-91.754	152.093	140.816	25.094	201.142	144.405	223.709	-97.032	-4.162	191.342	0.000162	0.00091144	0.00011347	1365	1.1274e-05	8.2148e-06	865.88	434.02	4.9203e-06	9.0795e-06	249.24	84.634	164.63	75.632	1.0033e-05	37.342	0.011691	0.020809	0.0059248	1345.8	0.0002055	0.00023499	888.2	433.27	0.00020759	0.00023291	277.1	93.931	167.66	76.225	0.00021846	41.51	195.043	114.497	-30.101	-116.721	207.875	29.413	-118.580	-111.022	127.271	-16.536	-114.420	-110.696	-106.418	-102.329	10.510	-107.231	-8191	255	
29039.080	1	1	0	0	0.14373	0.067972	0.14797	0.22364	0.36163	0.11796	0.3532	0.47635	0.065312	0.32857	0.29569	0.23769	0.27456	0.2016	0.06225	0.21349	-0.69583	-0.15833	-1.1521	-1.0104	-0.48958	-1.1917	-0.55417	-0.83333	-1.1479	-0.22917	-1.1375	-0.95625	-0.58958	-1.4479	-0.52292	-0.65833	-82.030	190.608	-114.837	-101.562	20.986	-77.243	211.311	211.526	41.970	227.949	210.323	155.529	-117.280	209.396	-67.602	167.761	0.0001789	0.00068494	0.00017795	1363.1	3.2922e-06	1.113e-05	866.06	433.5	9.1232e-06	1.2155e-05	253.04	85.783	164.72	75.989	7.5065e-06	37.895	0.011401	0.020512	0.0058061	1346.4	0.00020417	0.00023111	889.21	434.24	0.0002057	0.00023335	279.33	94.595	168.51	76.427	0.00021832	41.799	198.844	-119.296	134.611	-116.509	99.420	18.345	-119.071	-110.802	-45.810	194.562	-114.516	-110.533	-106.051	-102.078	-78.238	-106.476	-8191	255	
29039.178	1	1	0	0	0.099212	0.2682	0.1158	0.50545	0.39058	0.091079	0.25113	0.19579	0.25797	0.025035	0.035494	0.089162	0.13633	0.26682	0.21049	0.37163	-0.84792	-0.31042	-0.81875	-1.1646	-0.55	-1.3125	-0.7375	-0.89375	-1.1167	-0.50417	-0.86875	-0.92708	-0.625	-1.5042	-0.6875	-0.42917	140.476	-121.254	196.609	209.332	-19.064	219.630	164.696	207.751	-87.303	121.728	151.379	-123.669	-117.961	210.953	37.006	27.840	8.8372e-05	0.00079731	0.0001154	1371.1	1.2949e-05	8.9828e-06	879.43	434.02	8.306e-07	6.954e-06	253.44	86.79	165.62	76.02	1.19e-05	38.047	0.011602	0.020527	0.0058861	1355	0.00020812	0.00023725	899.14	435.18	0.00021094	0.00023765	281.08	95.573	169.06	76.902	0.00022297	42.368	-80.076	17.901	-2.940	-116.498	62.407	0.190	-118.515	-110.580	49.974	-24.257	-114.603	-110.566	-106.098	-101.864	-43.510	-107.082	-8191	255	
29039.273	1	1	0	0	0.21056	0.14867	0.27075	0.12798	0.21193	0.12576	0.16666	0.19737	0.1926	0.36005	0.19139	0.2096	0.09555	0.25817	0.13145	0.29961	-0.94375	-0.50625	-0.77708	-1.1979	-0.35625	-1.1229	-0.80625	-0.57083	-1.1833	-0.475	-0.82083	-1.125	-0.48542	-1.3333	-0.95208	-0.41042	-2.041	-95.424	-78.454	159.419	101.093	-31.478	144.360	151.028	57.875	-3.012	188.616	-122.919	155.877	-124.375	78.353	55.471	0.00022196	0.0015788	0.00022184	1373.4	8.6554e-06	6.0429e-06	880.4	437.32	5.3725e-06	1.2906e-05	255.57	85.787	165.31	76.026	8.5676e-06	37.883	0.011944	0.021248	0.0060081	1354.3	0.0002115	0.00024197	901.85	436.32	0.00021407	0.00024143	282.22	95.302	169.1	76.964	0.00022487	42.181	-91.377	-13.792	-54.941	-116.145	-38.004	170.167	-118.364	-110.563	-43.418	-9.673	-113.886	-110.413	-106.327	-101.751	-24.588	-106.598	-8191	255	
29039.369	1	1	0	0	0.12625	0.23298	0.2201	0.55461	0.088006	0.2703	0.22667	0.23022	0.19357	0.19404	0.12761	0.046756	0.30312	0.32362	0.10345	0.23277	-0.92708	-0.4375	-0.58542	-1.2333	-0.34792	-1.1792	-1.0708	-0.56458	-1.0792	-0.72292	-0.73125	-1.325	-0.47292	-1.175	-1.0771	-0.39167	35.250	-57.634	191.531	175.578	174.936	-51.507	162.622	162.643	-66.169	213.206	-110.534	203.691	-98.768	106.219	-103.283	-111.019	0.00018346	0.0011322	0.00031526	1356.1	1.0467e-05	1.2739e-05	862.51	434.14	5.5138e-06	8.9575e-06	252.98	86.765	166.26	77.013	9.5812e-06	38.219	0.011943	0.021398	0.0060061	1343.7	0.00021079	0.00023945	887.06	434.38	0.00021268	0.00023661	280.21	95.846	170.09	77.651	0.00022074	42.612	224.751	10.290	-75.474	-116.265	45.337	30.286	-118.270	-110.659	113.527	127.927	-114.045	-110.548	-105.980	-101.667	21.507	-106.791	-8191	255	
29039.465	1	1	0	0	0.079847	0.091673	0.30081	0.21459	0.20578	0.11998	0.0082161	0.23707	0.14672	0.031236	0.11721	0.31906	0.24905	0.27319	0.049274	0.2197	-0.88542	-0.61458	-0.52292	-1.4125	-0.37292	-0.75417	-1.2333	-0.5375	-1.1521	-0.78958	-0.52917	-1.3042	-0.67083	-1.1958	-1.1917	-0.325	209.113	104.881	-104.122	131.844	-110.571	-27.002	-100.843	173.076	21.743	138.742	197.127	172.117	208.377	207.643	-91.990	-81.045	0.00031443	0.0014329	0.00026483	1367.3	1.3095e-05	1.57e-05	869.78	437.39	1.9814e-06	3.0911e-05	255.31	87.678	168.4	77.622	5.8009e-06	38.759	0.011784	0.020949	0.0059759	1346.4	0.00021195	0.00024207	896.42	437.52	0.00021566	0.00023956	283.53	96.794	171.45	78.126	0.00022403	42.903	-123.916	-62.160	207.021	-116.219	-3.429	114.882	-118.169	-110.432	16.556	33.667	-114.145	-109.947	-106.250	-101.976	-17.294	-106.903	-8191	255	
29039.561	1	1	0	0	0.12455	0.13116	0.12825	0.010934	0.16461	0.29631	0.20351	0.35135	0.10938	0.10442	0.35131	0.31195	0.13004	0.15001	0.17833	0.25095	-0.92708	-0.7625	-0.54375	-1.5688	-0.50208	-0.775	-1.3417	-0.55417	-1.1229	-0.84375	-0.46458	-1.3979	-0.81667	-0.97917	-1.2812	-0.43542	33.292	118.608	-4.365	154.601	210.805	126.590	146.813	182.908	209.688	81.621	110.214	-73.630	219.054	171.109	-30.779	120.228	0.00028219	0.00043669	0.00027138	1363.6	3.3425e-06	1.206e-05	881.11	437.7	3.2624e-06	1.0929e-05	258.87	88.057	167.56	77.588	9.1553e-06	39.153	0.012028	0.021238	0.006052	1352.7	0.00021566	0.00024406	904.48	438.09	0.00021924	0.0002419	284.99	97.467	171.83	78.098	0.00022731	43.331	228.177	100.749	25.633	-116.291	58.974	73.372	-118.544	-110.753	226.362	-18.107	-114.200	-110.255	-106.171	-101.783	-42.661	-107.323	-8191	255	
29039.656	1	1	0	0	0.068598	0.21573	0.26383	0.40382	0.25325	0.12981	0.10194	0.32775	0.15564	0.18682	0.062688	0.11081	0.19669	0.3144	0.11044	0.15286	-0.61042	-0.90833	-0.38125	-1.3792	-0.53125	-0.60208	-1.4438	-0.4125	-1.0271	-1.0708	-0.38958	-1.1521	-0.70417	-0.83333	-1.3646	-0.44792	-116.826	25.275	127.914	-123.257	-3.744	-74.464	131.075	214.390	74.755	208.338	-78.312	221.874	147.549	163.423	120.171	114.558	0.00015014	0.00070701	0.00030504	1377.6	1.2597e-05	1.9327e-05	889.6	438.34	5.6554e-06	6.4026e-06	257.82	86.951	166.86	76.227	8.7143e-06	38.069	0.012169	0.021605	0.0061585	1363	0.00021684	0.00024556	912.65	439.72	0.00021761	0.00024433	285.65	96.875	170.66	77.054	0.00022974	42.389	-107.608	69.194	35.037	-116.056	-48.873	-7.471	-118.387	-110.598	-97.230	81.779	-113.814	-110.448	-106.170	-101.977	19.518	-106.987	-8191	255	
29039.775	1	1	0	0	0.22133	0.25879	0.17658	0.3442	0.14133	0.19312	0.27622	0.26162	0.22785	0.17598	0.29102	0.23188	0.42111	0.23521	0.10306	0.25395	-0.47083	-0.93125	-0.2	-1.5312	-0.82083	-0.40208	-1.4271	-0.54167	-0.72083	-1.2104	-0.34375	-1.0833	-0.97708	-0.60417	-1.2625	-0.46042	-51.301	-97.607	-80.300	202.321	59.549	88.098	159.166	187.982	-49.406	115.402	194.802	-125.482	-112.190	205.736	-72.095	61.416	0.00012826	0.00065334	0.00018316	1375.2	4.8724e-06	1.4024e-05	868.02	435.28	3.4811e-06	7.5156e-06	251.37	85.204	165.47	75.453	1.3653e-05	37.803	0.012186	0.021686	0.0061577	1361.7	0.00021623	0.0002469	895.98	435.01	0.00021785	0.00024035	279.99	94.597	168.74	76.211	0.00022405	41.7	184.436	-114.371	158.919	-116.287	41.888	140.897	-117.966	-110.431	-102.028	-63.660	-113.851	-109.882	-106.055	-101.915	-53.827	-106.959	-8191	255	
29039.873	1	1	0	0	0.25846	0.23925	0.12895	0.34162	0.079391	0.35542	0.042461	0.38247	0.30532	0.29579	0.010493	0.18498	0.15338	0.53768	0.20209	0.20612	-0.60833	-1.3292	-0.39167	-1.2271	-1.0208	-0.25625	-1.3125	-0.7375	-0.66875	-1.2958	-0.42917	-0.95	-1.0688	-0.57917	-1.4104	-0.66458	64.297	78.722	-34.863	210.815	-91.754	-128.455	-64.249	214.620	223.983	224.963	0.075	175.852	177.508	164.716	119.869	150.590	0.00015208	0.0021136	0.00024486	1375.9	5.8914e-06	5.6983e-06	875.22	434.21	7.0395e-06	1.0982e-05	252.22	84.772	163.06	75.344	4.2078e-06	37.528	0.011765	0.020887	0.0059513	1357.5	0.00020711	0.00023436	894.46	432.87	0.00020679	0.00023152	277.19	93.831	167.02	75.792	0.00021579	41.447	224.826	2.615	-6.528	-115.990	136.366	56.915	-118.169	-110.732	-71.312	156.041	-114.607	-109.743	-106.231	-101.820	85.962	-106.947	-8191	255	
29039.945	1	1	0	0	0.06367	0.081276	0.035124	0.10007	0.14716	0.12884	0.16909	0.11068	0.1009	0.16377	0.22876	0.14181	0.28582	0.44042	0.17521	0.14842	-0.10625	-1.0917	-0.375	-1.1771	-1.1833	-0.33958	-1.3375	-0.93125	-0.49375	-1.2583	-0.575	-0.89583	-1.3312	-0.5625	-1.2083	-0.94792	210.805	19.976	182.692	230.327	200.287	31.762	141.987	199.286	6.747	144.084	15.023	204.320	-93.570	-96.146	98.536	92.662	0.00012169	0.00082293	0.00023874	1374.6	6.9863e-06	1.4541e-05	876.72	433.12	7.0022e-06	4.2499e-06	253	85.175	163.93	75.592	1.0461e-05	37.64	0.011389	0.02024	0.0057939	1356.1	0.00020052	0.00023048	896.93	432.01	0.0002026	0.00022735	279.02	93.834	167.54	76.09	0.00021343	41.698	193.598	16.658	160.555	-116.233	182.218	121.842	-118.263	-110.782	-41.749	-92.596	-114.093	-109.919	-105.971	-101.848	87.214	-106.747	-8191	255	
29040.064	1	1	0	0	0.059232	0.13249	0.18858	0.087373	0.18364	0.23773	0.31035	0.21948	0.14528	0.020325	0.28469	0.32995	0.18485	0.16842	0.14455	0.08531	0.010417	-1.2479	-0.5375	-0.98958	-1.2979	-0.47917	-1.3125	-0.95417	-0.25417	-1.1812	-0.48958	-0.7125	-1.4125	-0.66042	-1.1417	-0.81667	173.373	-12.511	222.766	-10.880	-26.310	-33.592	-69.248	138.369	109.829	113.550	138.727	-96.255	189.831	-68.141	-10.942	-71.971	0.00019233	0.0018663	0.00019346	1374.3	9.6428e-06	7.7765e-06	894.55	435.51	1.5609e-05	1.9586e-05	256.1	86.783	165.16	75.968	1.1948e-05	37.784	0.011238	0.020265	0.0057234	1357	0.00019936	0.0002294	907.31	434.6	0.0002037	0.00022846	282.35	95.203	168.43	76.655	0.00021614	42.026	191.618	47.717	-28.182	-115.805	228.988	3.224	-117.725	-110.803	-47.894	71.207	-113.979	-109.956	-106.026	-101.694	26.250	-106.556	-8191	255	
29040.160	1	1	0	0	0.061504	0.22515	0.25072	0.41427	0.27505	0.2153	0.23788	0.25281	0.24798	0.11114	0.10762	0.39884	0.27402	0.33535	0.33814	0.21118	0.14583	-1.3958	-0.63958	-0.72917	-1.0479	-0.42292	-1.0583	-1.2812	-0.2875	-1.1938	-0.76458	-0.68542	-1.4375	-0.68125	-0.88958	-1.2938	-111.118	5.979	-83.942	229.334	-98.717	1.646	146.972	193.077	90.150	-57.889	176.573	217.912	203.837	155.274	-94.108	121.178	6.048e-05	0.0010662	0.00021252	1383.6	2.9458e-06	1.4799e-05	870.76	434.84	3.4476e-06	2.6035e-05	252.33	85.224	165.11	75.582	1.4633e-05	37.493	0.011433	0.020393	0.0057945	1357.9	0.0002049	0.00023469	895.14	433.16	0.00020805	0.00023314	277.79	94.009	168.48	76.215	0.0002181	41.725	-87.831	-43.652	196.285	-116.262	-112.532	50.668	-118.030	-110.483	16.453	-4.269	-113.901	-110.214	-106.047	-101.950	14.131	-106.804	-8191	255	
29040.258	1	1	0	0	0.1443	0.17989	0.05692	0.50786	0.21672	0.091164	0.24635	0.081126	0.24954	0.30802	0.25051	0.10368	0.21358	0.31946	0.27662	0.18495	0.27292	-1.2437	-0.76875	-0.93125	-1.4271	-0.51458	-1.0187	-1.3438	-0.27083	-1.0396	-0.875	-0.475	-1.3958	-0.68125	-0.91667	-1.3333	-59.974	128.287	-65.971	218.827	112.094	208.695	223.729	108.319	114.605	186.153	32.403	-112.855	203.393	-106.251	-3.839	198.486	0.00015905	0.0012	0.00045808	1373.4	1.1516e-05	4.7341e-06	874.05	434.84	7.703e-06	1.7606e-05	253.94	85.177	165.82	76.125	8.042e-06	38.182	0.011621	0.020647	0.0058134	1351.8	0.00020776	0.000237	895.09	434.2	0.00020914	0.000237	280.84	94.713	168.85	76.695	0.00021938	42.262	188.248	-92.575	-76.781	-116.024	-36.267	129.242	-118.389	-110.475	-44.282	129.516	-114.217	-110.195	-105.807	-101.728	36.186	-106.969	-8191	255	
29040.354	1	1	0	0	0.25029	0.098052	0.16058	0.36518	0.086214	0.22768	0.12848	0.11172	0.24835	0.078879	0.10279	0.16376	0.21225	0.38873	0.13825	0.034459	0.072917	-1.1896	-0.97917	-0.60417	-1.3792	-0.59583	-0.73958	-1.4729	-0.4625	-1.0354	-1.0125	-0.29792	-1.4458	-1	-0.57708	-1.5333	163.741	120.993	59.853	200.446	28.211	166.743	108.328	128.507	147.832	-76.659	118.562	-107.436	195.093	217.757	133.503	134.397	0.00018343	0.0020735	0.00032711	1367.3	1.3231e-05	3.4304e-06	880.16	436.67	4.7589e-06	1.94e-05	255.39	86.066	165.04	76.175	3.7184e-06	38.174	0.01179	0.020901	0.0059591	1357	0.00021163	0.00024193	904.44	435.69	0.00021594	0.00024122	282.91	95.679	169.52	76.906	0.0002241	42.499	-67.012	-6.412	-52.331	-115.918	-34.039	214.660	-118.118	-110.867	-9.218	5.833	-114.062	-110.092	-105.931	-101.773	163.782	-106.608	-8191	255	
29040.475	1	1	0	0	0.36215	0.11352	0.15572	0.30477	0.2274	0.32222	0.39936	0.1361	0.28598	0.1649	0.22038	0.15231	0.20361	0.12562	0.13837	0.078545	0.064583	-0.7125	-1.0312	-0.57083	-1.1688	-0.89375	-0.66458	-1.4729	-0.45208	-1.0208	-1.3979	-0.47083	-1.3729	-0.89792	-0.53542	-1.4188	-11.211	49.416	-119.520	165.837	-3.519	79.530	168.670	191.431	127.095	96.184	8.700	-43.764	154.014	-92.421	5.495	144.679	0.00022	0.0017822	9.849e-05	1372.1	1.2433e-05	2.1748e-05	879.98	435.31	7.5123e-06	1.4615e-05	254.88	86.437	165.89	76.084	1.8252e-05	37.875	0.012021	0.021431	0.0060772	1358.7	0.0002143	0.00024382	907.51	436.01	0.00021744	0.00024272	284.33	96.113	169.95	76.987	0.00022673	42.546	229.508	-82.210	-112.494	-116.091	12.699	52.191	-117.759	-110.685	80.623	98.399	-113.936	-110.503	-106.157	-101.943	-89.209	-106.923	-8191	255	
29040.568	1	1	0	0	0.15798	0.15384	0.22521	0.23603	0.094156	0.30038	0.079461	0.14347	0.25407	0.34627	0.017232	0.30429	0.075778	0.30321	0.24009	0.13751	-0.26875	-0.8125	-1.1313	-0.56667	-0.93125	-0.88333	-0.61458	-1.4104	-0.58125	-0.76042	-1.2708	-0.37083	-1.1104	-1.2687	-0.54167	-1.3188	210.808	-97.540	14.448	-115.635	145.359	124.796	193.862	181.044	-123.361	-20.348	-51.494	134.619	219.101	148.546	-4.333	108.331	0.00024479	0.0012816	0.00025619	1366.6	4.3435e-06	7.7474e-06	870.72	433.61	1.2163e-05	8.8137e-06	254.05	84.368	164.27	75.22	1.0101e-05	37.446	0.012042	0.021435	0.0061259	1352.3	0.00021494	0.00024204	894.05	433.48	0.00021359	0.0002372	279.4	93.819	167.58	75.936	0.00021807	41.463	206.237	-121.151	-56.216	-116.166	117.200	39.695	-117.913	-110.536	-12.578	-34.088	-113.757	-110.211	-105.764	-101.823	110.021	-106.668	-8191	255	
29040.664	1	1	0	0	0.31916	0.18281	0.26109	0.11286	0.18775	0.08307	0.11296	0.35645	0.17337	0.22219	0.06857	0.076248	0.057891	0.45908	0.10565	0.2523	-0.24375	-0.55833	-1.2604	-0.74167	-1.0167	-1.1292	-0.63958	-1.4146	-0.8125	-0.65833	-1.3438	-0.63125	-1.0729	-1.2292	-0.44375	-1.2667	84.738	198.206	157.108	-95.258	-125.566	95.032	194.789	225.256	220.078	-65.012	-119.494	80.355	148.404	190.860	209.239	214.434	0.00023155	0.00085011	0.00031555	1361.6	1.4804e-05	1.6245e-05	865.24	430.61	6.5142e-06	1.0803e-05	250.41	84.672	163.67	75.246	4.1569e-06	37.132	0.011599	0.020495	0.0058563	1346.2	0.00020514	0.0002343	886.62	430.6	0.00020619	0.00022918	275.71	92.89	166.27	75.492	0.00021591	41.306	-100.817	-96.577	-107.170	-116.109	-45.940	70.165	-117.991	-110.480	124.577	187.810	-113.810	-109.676	-105.683	-101.716	76.898	-106.776	-8191	255	
29040.762	1	1	0	0	0.23792	0.30429	0.15459	0.20583	0.31904	0.41981	0.17413	0.34712	0.11577	0.1134	0.23901	0.3276	0.20345	0.44515	0.082086	0.15598	-0.375	-0.43333	-1.2042	-0.51667	-0.79583	-0.99583	-0.47708	-1.4021	-0.91875	-0.51667	-1.2625	-0.59792	-0.83958	-1.55	-0.43542	-1.1708	108.676	-57.768	9.633	149.437	-108.714	150.438	139.932	153.642	129.114	-122.963	64.650	166.867	-97.049	221.696	-50.444	-118.071	0.00021716	0.00090788	7.1831e-05	1364.5	6.2447e-06	4.886e-06	867.53	432.65	4.2627e-06	1.6899e-05	253.25	84.314	163.29	74.984	1.4819e-06	37.524	0.011322	0.020217	0.0057413	1346.1	0.00020105	0.00022905	889.18	431.17	0.00020197	0.00022381	276.64	93.082	166.39	75.499	0.00021227	41.453	231.226	-54.694	-81.701	-115.837	161.620	12.199	-118.074	-110.480	30.666	83.396	-114.275	-109.696	-105.784	-101.708	-19.477	-106.589	-8191	255	
29040.857	1	1	0	0	0.30545	0.12471	0.14907	0.39132	0.3926	0.16186	0.086852	0.031058	0.3076	0.13473	0.18821	0.32092	0.3139	0.19296	0.19878	0.013823	-0.51875	-0.425	-1.2771	-0.67083	-0.5875	-1.1896	-0.64167	-1.3417	-1.1146	-0.28542	-1.5417	-0.80208	-0.77292	-1.5646	-0.38542	-1.2042	-9.632	-31.117	205.837	213.226	-117.335	103.008	-80.135	-83.467	26.216	58.697	-107.495	62.506	220.612	154.900	-128.187	156.038	0.00028717	0.0018164	0.00024844	1368.4	1.5805e-06	1.796e-05	877.75	433.08	4.1219e-06	2.7201e-06	254.04	85.02	163.05	75.51	8.0936e-06	37.846	0.011318	0.020042	0.0057194	1350	0.0002013	0.00023047	896.7	432.55	0.00020462	0.00022773	279.27	94.022	166.95	76.006	0.00021718	41.916	-124.553	-127.882	-62.409	-116.107	148.911	45.819	-118.181	-110.503	-127.154	36.138	-113.826	-109.792	-105.986	-101.551	-26.736	-106.974	-8191	255	
29040.953	1	1	0	0	0.22848	0.16561	0.21843	0.33531	0.014551	0.16114	0.063068	0.3411	0.13096	0.061239	0.21968	0.089853	0.19953	0.15162	0.31839	0.22622	-0.80833	-0.45	-1.175	-0.79583	-0.5875	-1.4438	-0.74375	-1.0167	-1.0958	-0.49167	-1.3563	-0.97917	-0.70625	-1.5542	-0.46458	-0.84583	201.271	112.873	146.251	153.455	200.439	106.909	208.326	200.716	103.350	2.288	167.824	191.785	223.396	200.486	63.638	113.287	0.00047044	0.0012712	0.00047885	1364.8	1.1888e-05	4.1032e-06	874.82	434.65	8.2048e-06	2.3058e-05	255.32	85.294	165.06	76.178	7.214e-06	38.079	0.011413	0.020067	0.0057581	1346	0.00020251	0.00023111	894.23	432.91	0.00020498	0.00023101	279.5	94.48	168.22	76.791	0.00021821	42.204	-127.077	-7.163	-79.540	-115.911	-48.215	218.735	-117.959	-110.323	-8.071	84.262	-113.744	-110.032	-105.691	-101.917	-47.564	-106.404	-8191	255	
29041.074	1	1	0	0	0.14774	0.1921	0.16738	0.092359	0.074155	0.18138	0.17651	0.30611	0.12148	0.19071	0.31732	0.34838	0.14634	0.42209	0.21525	0.29575	-0.96458	-0.47083	-1.1229	-1.0833	-0.56458	-1.4021	-0.72292	-0.85417	-1.3208	-0.52083	-1.0938	-0.94375	-0.42083	-1.45	-0.52083	-0.52708	48.422	45.801	109.454	-66.597	136.819	212.833	189.605	137.027	46.234	150.271	182.385	-75.972	-13.696	168.485	58.391	69.278	0.0002902	0.0011826	0.00052091	1350.7	7.533e-06	2.4413e-06	864.44	432.59	7.6165e-06	2.1398e-05	253.52	86.693	165.14	76.929	3.7229e-06	38.806	0.011584	0.020736	0.005838	1333.3	0.0002055	0.00023457	882.76	432.69	0.00020802	0.00023254	279.4	95.296	168.94	77.226	0.00021985	42.713	-104.544	-30.817	-66.149	-116.034	16.064	83.082	-118.163	-110.289	-29.248	19.353	-113.403	-110.012	-105.874	-101.539	108.035	-106.551	-8191	255	
29041.170	1	1	0	0	0.18009	0.22006	0.24019	0.286	0.090462	0.21353	0.12892	0.33149	0.1382	0.15618	0.056473	0.084046	0.26918	0.27623	0.40528	0.31515	-0.77708	-0.46875	-0.90208	-1.3521	-0.25208	-1.1792	-0.93125	-0.70417	-1.3937	-0.49583	-1.0458	-1.1479	-0.60417	-1.5208	-0.81042	-0.60208	5.817	180.392	-2.361	-105.303	208.937	-84.837	101.907	184.070	206.693	138.928	192.664	185.776	180.840	193.531	-88.960	145.979	0.00021468	0.00098189	0.00029757	1352.3	5.885e-06	1.6033e-05	870.87	434.36	7.793e-06	2.902e-05	254.65	87.224	166.47	77.197	8.3321e-06	38.953	0.011623	0.020944	0.0059107	1335.2	0.00020705	0.00024087	891	434.06	0.00021578	0.00024192	283.05	96.792	170.61	77.763	0.00022453	43.388	171.147	-14.139	210.029	-115.815	57.293	-6.814	-117.615	-110.411	-26.597	105.737	-114.033	-110.197	-105.996	-101.945	1.539	-106.305	-8191	255	
29041.240	1	1	0	0	0.16467	0.25132	0.15641	0.45159	0.2572	0.3174	0.10473	0.32322	0.28423	0.26945	0.1798	0.013934	0.10941	0.37099	0.38351	0.0896	-0.91458	-0.375	-0.73125	-1.2604	-0.4625	-1.0833	-1.1375	-0.60208	-1.2125	-0.49583	-0.66667	-1.3271	-0.73333	-1.2313	-0.95	-0.68333	74.604	-54.266	219.643	204.115	-48.012	113.302	111.370	221.618	-44.220	-7.879	168.995	-12.327	-87.810	192.095	221.233	230.006	0.00018015	0.00036118	9.398e-05	1359.4	1.6706e-05	6.7203e-06	873.44	434.43	5.4673e-06	1.94e-05	257.19	88.374	167.3	77.582	4.1353e-07	39.011	0.012009	0.021399	0.0060924	1342.1	0.00021693	0.00024754	899.12	436.03	0.00021911	0.00024718	285.47	97.971	171.7	78.273	0.00022976	43.616	-122.109	-72.239	218.593	-115.658	-3.733	-14.325	-117.869	-110.151	-81.000	50.313	-113.576	-109.936	-105.711	-101.689	-30.262	-106.091	-8191	255	
29041.338	1	1	0	0	0.049083	0.098994	0.12512	0.20954	0.12775	0.22297	0.035961	0.23585	0.13002	0.24551	0.24486	0.33135	0.19477	0.23476	0.30013	0.42422	-0.96875	-0.66667	-0.6	-1.575	-0.34583	-1.0167	-1.1667	-0.6	-1.2021	-0.69167	-0.78542	-1.2583	-0.68542	-1.4458	-1.1396	-0.44375	120.642	17.673	-59.276	170.573	-37.100	184.437	189.056	171.392	-100.861	57.190	-80.437	210.941	190.810	188.915	118.975	78.248	0.00023119	0.00065497	0.00057572	1369.1	6.3186e-06	1.3415e-05	877.5	434.94	8.9651e-06	6.5087e-06	254.44	87.047	166.14	76.375	1.3761e-05	38.509	0.012175	0.021544	0.00615	1350.6	0.00021748	0.00024705	902.63	435.98	0.0002208	0.00024563	283.28	96.789	170.16	77.322	0.00023128	42.86	175.266	104.091	-50.435	-115.844	49.842	-27.231	-117.734	-110.251	-35.986	46.469	-113.419	-109.993	-105.663	-101.636	54.020	-106.921	-8191	255	
29041.457	1	1	0	0	0.14187	0.20596	0.31853	0.3137	0.082364	0.18657	0.2746	0.34302	0.12361	0.2019	0.044731	0.20209	0.36282	0.025456	0.16383	0.24055	-0.69583	-0.71875	-0.37917	-1.4438	-0.48958	-0.90208	-1.1958	-0.45833	-1.1146	-0.7375	-0.6125	-1.2437	-0.68125	-0.91458	-1.1417	-0.48125	-125.330	-67.002	33.685	-110.534	32.887	107.577	145.233	158.340	183.851	153.757	-71.092	40.591	-81.540	201.918	174.561	164.939	9.4451e-05	0.0011451	0.00077121	1357.8	1.0104e-05	1.7304e-05	861.84	430.81	1.1506e-05	1.5749e-05	251.15	86.531	164.88	75.969	8.1152e-06	38.163	0.012352	0.021866	0.0062292	1342.3	0.00021796	0.00025002	886.28	430.94	0.00021907	0.00024277	278.96	95.169	168.71	76.788	0.00022159	42.308	184.377	160.833	7.844	-115.796	113.562	228.304	-117.861	-109.901	-16.477	124.148	-113.385	-109.537	-105.263	-101.358	-1.399	-106.374	-8191	255	
29041.553	1	1	0	0	0.3325	0.24649	0.14648	0.27164	0.19628	0.12319	0.33599	0.21672	0.13262	0.050694	0.12741	0.20622	0.32219	0.34968	0.21437	0.27832	-0.76042	-0.68958	-0.27708	-1.575	-0.67917	-0.83333	-1.4688	-0.52708	-1.1417	-1.0958	-0.78958	-1.2875	-0.86875	-0.84583	-1.3937	-0.44583	-111.833	218.773	-41.601	215.831	12.037	163.987	164.630	192.388	-85.862	147.912	161.926	-90.778	211.354	212.649	16.497	43.614	0.00028166	0.00048663	0.00038183	1358	1.8146e-07	1.7548e-05	859.46	430.46	6.0149e-06	2.8617e-05	250.33	86.367	164.61	76.103	1.9468e-06	38.404	0.011739	0.020894	0.0059033	1339.9	0.00020867	0.00023685	884.89	430.56	0.00020887	0.00023331	277.84	95.232	167.95	76.647	0.00021729	42.364	218.986	88.706	65.201	-115.495	113.210	82.541	-117.357	-110.010	-28.450	22.515	-113.551	-109.303	-105.580	-101.093	224.374	-106.431	-8191	255	
29041.648	1	1	0	0	0.18292	0.17789	0.087128	0.16423	0.40559	0.14602	0.2203	0.13789	0.13712	0.2128	0.15663	0.11636	0.20383	0.25765	0.21317	0.22282	-0.58125	-1.1437	-0.33333	-1.5646	-0.64583	-0.78542	-1.2708	-0.67083	-1.0229	-1.2917	-0.35417	-1.2646	-0.80417	-0.5625	-1.3167	-0.46875	92.625	182.064	72.325	134.022	204.254	-66.677	-114.109	171.494	75.198	176.374	82.476	55.753	-63.598	-85.626	88.793	142.728	0.00024775	0.00059388	0.00044832	1357	7.0082e-06	1.1811e-05	869.07	432.65	1.0915e-05	1.1075e-05	252.07	87.182	164.99	76.724	1.1035e-05	38.894	0.011555	0.020541	0.0058288	1338.7	0.00020603	0.0002344	891	430.71	0.00020758	0.00023342	279.56	96.18	168.55	77.201	0.00021906	42.729	183.691	18.586	19.765	-115.407	50.851	-8.618	-117.353	-110.105	176.566	64.446	-113.307	-109.355	-105.652	-101.278	78.158	-106.418	-8191	255	
29041.746	1	1	0	0	0.13632	0.10618	0.21149	0.1039	0.19159	0.18645	0.099322	0.19696	0.27101	0.18859	0.14348	0.13344	0.31681	0.2783	0.075093	0.2423	-0.5375	-1.275	-0.49167	-1.3708	-0.88333	-0.45	-1.3438	-0.60417	-0.78125	-1.2604	-0.24583	-1.0833	-0.975	-0.56667	-1.2896	-0.62917	163.635	115.189	41.672	-73.017	-119.960	138.451	56.499	202.309	-99.308	-22.808	159.519	-125.443	218.924	209.391	-122.369	-117.947	0.00019727	0.0011287	8.5789e-05	1357.5	8.5646e-06	8.518e-06	869.47	433.52	7.8287e-06	1.0362e-05	250.79	87.623	165.13	76.695	5.0935e-06	38.394	0.011617	0.020669	0.00587	1342.2	0.00020698	0.00023612	893.89	433.01	0.00021024	0.00023438	280.3	96.466	168.92	77.239	0.00022139	42.631	199.788	-122.348	185.613	-115.484	-0.523	-59.370	-117.131	-110.365	-47.198	28.408	-113.281	-109.667	-105.513	-101.009	121.460	-106.680	-8191	255	
29041.842	1	1	0	0	0.16949	0.26568	0.076449	0.57117	0.13076	0.20016	0.22414	0.21912	0.0998	0.065437	0.42312	0.086636	0.038493	0.33948	0.19299	0.24039	-0.43542	-1.3375	-0.28333	-1.3312	-1.1896	-0.52708	-1.5104	-0.76875	-0.7625	-1.2792	-0.62292	-1.1604	-1.2292	-0.725	-1.2583	-0.8125	20.152	-11.080	40.927	179.509	172.567	132.080	162.688	151.182	193.958	83.405	214.589	186.454	146.203	-113.898	107.227	-94.585	0.00033842	0.0012635	0.00049268	1347.4	1.5475e-05	1.2685e-05	858.56	428.91	6.3526e-06	7.3404e-06	249.23	86.758	165.45	76.701	4.1481e-06	38.267	0.011767	0.020835	0.0059712	1330.9	0.00020884	0.00023659	879.01	429.17	0.00021189	0.00023652	277.14	95.647	168.92	77.193	0.00022097	42.662	184.786	181.356	38.451	-115.531	44.586	-98.191	-117.555	-110.197	-103.022	-114.998	-113.752	-109.147	-105.634	-101.226	166.771	-106.453	-8191	255	
29041.938	1	1	0	0	0.022868	0.09691	0.093053	0.38235	0.1178	0.19054	0.21277	0.21817	0.26519	0.29435	0.15445	0.11068	0.055004	0.23506	0.080204	0.36779	-0.16042	-1.4396	-0.44583	-1.0417	-0.99167	-0.39792	-1.3125	-0.96667	-0.60833	-1.2979	-0.37917	-1.025	-1.3854	-0.5625	-1.1063	-0.99375	86.678	-99.512	191.097	-126.432	138.987	106.366	229.887	147.021	144.764	179.792	-3.916	-58.888	67.664	202.935	17.786	229.017	0.00018586	0.0014761	0.00041728	1331.2	9.2307e-06	1.1542e-05	858.49	430.14	1.0608e-05	1.6485e-05	255.02	88.508	167.74	78.17	3.5774e-06	39.784	0.011732	0.020752	0.0059513	1321	0.00020984	0.00023749	879.21	431.04	0.0002115	0.00023743	280.81	97.331	170.52	78.439	0.00022059	43.683	219.344	-63.686	20.996	-115.370	213.859	103.729	-117.256	-109.843	125.168	27.720	-113.075	-109.732	-105.495	-101.337	-32.351	-106.618	-8191	255	
29042.033	1	1	0	0	0.11031	0.24309	0.1685	0.35988	0.13482	0.02649	0.18478	0.22012	0.078198	0.24329	0.074609	0.12152	0.20522	0.27003	0.10792	0.17255	-0.25417	-1.3271	-0.33542	-1.2062	-1.3208	-0.52708	-1.0562	-1.2687	-0.3875	-1.5104	-0.53333	-0.68958	-1.3521	-0.65417	-0.98125	-1.1792	214.104	-92.329	-89.766	222.621	108.502	44.953	-114.698	-127.681	224.332	51.907	-103.457	231.136	157.851	-96.580	143.751	-14.732	0.0002581	0.00094295	0.00046684	1342.3	3.775e-06	1.3116e-05	867.81	433.29	1.1566e-05	8.452e-06	259.46	88.973	168.56	78.36	4.3711e-06	39.932	0.011712	0.020875	0.0059512	1326	0.00021109	0.00023919	891.04	434.17	0.00021482	0.00024069	284.32	98.472	172.06	79.071	0.00022618	44.178	207.149	161.942	95.008	-115.368	-92.666	10.785	-117.570	-109.916	-68.999	-76.867	-113.293	-109.437	-105.684	-101.116	-67.893	-106.176	-8191	255	
29042.154	1	1	0	0	0.061541	0.090139	0.099013	0.13899	0.42261	0.23808	0.10715	0.19775	0.15229	0.39535	0.032574	0.22183	0.33794	0.15701	0.18599	0.036366	-0.025	-1.3729	-0.67083	-0.98333	-1.2938	-0.60417	-1.2563	-1.2979	-0.45	-1.4562	-0.71667	-0.48125	-1.4875	-0.92917	-1.0208	-1.375	-101.001	42.432	139.867	168.935	-121.458	212.437	-25.901	160.956	-24.922	-25.169	148.521	130.273	185.499	-110.650	-115.462	168.193	0.00019617	0.00048354	0.00033517	1341.4	4.094e-06	1.0097e-05	868.22	436.23	8.2837e-06	1.8569e-05	256.94	89.909	168.89	78.64	6.4604e-06	40.265	0.011944	0.021282	0.0060133	1330.2	0.00021175	0.00024236	897.12	436.31	0.00021722	0.00024171	286.07	99.551	172.75	79.432	0.00022595	44.513	215.818	161.938	-65.938	-115.231	-1.544	87.207	-117.052	-109.628	3.748	63.370	-112.955	-109.007	-105.355	-101.238	-94.242	-105.891	-8191	255	
29042.250	1	1	0	0	0.28531	0.22994	0.10769	0.32782	0.05311	0.32182	0.28561	0.24634	0.13508	0.27148	0.29042	0.36577	0.12231	0.41227	0.10916	0.18289	-0.054167	-1.1688	-0.89792	-0.7	-1.2896	-0.40833	-0.90625	-1.5562	-0.45625	-1.175	-0.92292	-0.35417	-1.3479	-0.94792	-0.875	-1.3146	-46.652	200.036	118.511	192.539	-23.004	158.466	186.034	193.807	205.443	-109.960	34.941	120.867	156.543	221.733	-2.778	-125.830	0.00043393	0.0014302	0.00048649	1347.3	8.183e-06	1.6979e-05	868.12	436.23	7.4643e-06	8.3628e-06	256.43	88.947	168.82	78.691	2.3662e-06	39.466	0.011969	0.021107	0.0060194	1329.5	0.00021273	0.00023965	890.77	434.75	0.00021183	0.00023883	282.29	98.007	171.71	79.026	0.00022226	43.783	-113.799	15.485	-68.131	-115.453	-14.147	127.600	-117.196	-110.164	-5.427	113.911	-113.065	-109.555	-105.453	-101.253	217.224	-106.002	-8191	255	
29042.346	1	1	0	0	0.29376	0.20588	0.050344	0.091058	0.13432	0.10521	0.12884	0.22611	0.10861	0.38532	0.33142	0.26947	0.146	0.27635	0.1617	0.20847	0.0020833	-1.1063	-1.025	-0.54375	-1.4958	-0.8625	-0.74583	-1.6625	-0.3625	-0.96458	-1.2042	-0.45833	-1.3896	-1.0104	-0.57917	-1.3792	180.875	139.478	-72.353	192.567	53.738	228.616	166.514	169.136	80.581	-61.543	165.814	164.892	190.848	175.760	65.405	66.090	0.00021096	0.00045225	0.00028604	1346.6	5.878e-06	5.8166e-06	863.8	433.69	1.4115e-05	2.5097e-05	252.23	88.015	167.06	78.136	5.3855e-07	39.373	0.011812	0.021066	0.0059793	1327.2	0.00021007	0.00023911	884.98	433.16	0.00021184	0.00023705	281	97.195	171.13	78.765	0.00022169	43.715	208.711	-44.581	-74.160	-115.237	58.441	191.792	-117.569	-109.944	37.934	189.591	-113.093	-109.265	-105.619	-101.274	127.446	-106.072	-8191	255	
29042.467	1	1	0	0	0.2198	0.21778	0.13533	0.31939	0.42014	0.14385	0.25883	0.27578	0.17273	0.33004	0.094568	0.40603	0.077441	0.22377	0.053362	0.27403	-0.083333	-1.0521	-1.1	-0.62292	-1.4312	-0.85	-0.47708	-1.4271	-0.60208	-1.0708	-1.3708	-0.41667	-1.2646	-1.1146	-0.35	-1.3958	-49.745	112.106	50.892	182.125	57.841	180.098	199.231	179.274	160.208	-110.181	75.410	-97.425	116.661	144.863	121.512	179.994	0.00026187	0.0008213	0.00050871	1337.8	3.605e-06	2.0853e-05	870.57	434.23	9.1306e-06	1.6829e-05	258.12	89.043	168.22	78.109	3.1116e-06	40.286	0.011744	0.021015	0.0059619	1329.6	0.00020797	0.00023756	891.12	433.59	0.0002094	0.00023396	282.83	98.036	171.43	78.77	0.00021691	44.137	225.750	-1.047	-70.022	-114.893	-120.718	13.016	-117.265	-109.515	53.856	18.453	-113.153	-109.252	-105.325	-101.094	51.791	-106.453	-8191	255	
29042.539	1	1	0	0	0.09327	0.22264	0.10326	0.12697	0.20456	0.10913	0.15126	0.52385	0.27569	0.17939	0.085631	0.12493	0.28219	0.082041	0.023712	0.40403	-0.25208	-0.82917	-1.1875	-0.75833	-1.2229	-1.0042	-0.65417	-1.5063	-0.5375	-0.57292	-1.3167	-0.47708	-1.1625	-1.0979	-0.33333	-1.2604	0.124	28.971	-35.390	174.338	124.516	134.100	-66.753	155.019	-28.459	-31.612	-122.756	158.868	169.087	-97.987	-31.234	-126.434	0.00023847	0.0010814	0.00023342	1359.5	7.0892e-06	9.7887e-06	877.87	435.3	5.098e-06	1.0834e-05	259.78	89.635	169.21	78.579	1.1425e-05	40.131	0.011483	0.020227	0.0057646	1335.3	0.00020275	0.00023045	897.63	434.68	0.0002051	0.00022847	283.8	98.192	171.62	78.99	0.0002113	43.935	228.923	20.673	108.137	-115.413	-7.930	-57.468	-117.695	-110.110	-61.957	41.158	-113.326	-109.694	-105.460	-101.325	-94.641	-106.276	-8191	255	
29042.635	1	1	0	0	0.21394	0.20151	0.046639	0.3537	0.20778	0.035895	0.11004	0.17706	0.22309	0.29877	0.2896	0.17883	0.051578	0.054383	0.13789	0.16316	-0.27292	-0.52292	-1.3458	-0.48542	-0.8	-1.0646	-0.4375	-1.4813	-0.72917	-0.42917	-1.3042	-0.35625	-0.93333	-1.3771	-0.30417	-1.3833	-116.281	188.699	-123.402	178.497	-84.731	189.441	-120.469	-126.498	5.845	-58.010	186.299	166.885	145.882	-119.063	177.675	-88.907	0.00034773	0.0012545	0.00046797	1357.1	9.7351e-06	1.4914e-05	877.33	432.82	8.2083e-06	1.1274e-05	255.35	87.678	166.66	77.867	6.9591e-06	39.568	0.011334	0.020116	0.0057176	1335.9	0.00020162	0.0002294	893.93	432.23	0.00020383	0.00022653	280.62	96.723	170	78.377	0.00021293	43.375	227.093	-110.321	-76.249	-115.272	12.183	155.765	-117.797	-110.099	-24.094	-55.711	-113.544	-109.427	-105.475	-101.053	97.256	-106.846	-8191	255	
29042.754	1	1	0	0	0.21114	0.11771	0.1021	0.42602	0.34707	0.12998	0.17339	0.37029	0.16783	0.3393	0.048922	0.12352	0.15323	0.43349	0.1054	0.11297	-0.34375	-0.46458	-1.3125	-0.87708	-0.76875	-1.4333	-0.35208	-1.2917	-0.7375	-0.3375	-1.2417	-0.73125	-0.95833	-1.4813	-0.51042	-1.15	-0.532	-66.466	128.720	186.305	79.413	-85.831	84.389	191.308	-118.629	-5.481	122.001	75.251	180.960	211.516	209.414	-69.810	0.00025858	0.0014352	0.0002509	1338.7	1.537e-05	1.2034e-05	863.98	432.36	4.2815e-06	9.4122e-06	254.63	89.406	167.58	78.419	3.1593e-06	39.76	0.011369	0.020014	0.0056703	1323.7	0.00020199	0.00022922	880.3	431.47	0.00020403	0.00022808	279.35	96.941	170.44	78.589	0.00021396	43.585	-112.213	5.189	-8.665	-115.510	-81.402	196.707	-117.492	-109.962	106.382	123.541	-113.277	-109.499	-105.108	-101.335	70.743	-105.805	-8191	255	
29042.850	1	1	0	0	0.13823	0.12826	0.0060879	0.29633	0.14381	0.075731	0.13271	0.26075	0.3835	0.15722	0.22939	0.43752	0.10956	0.31076	0.23807	0.0048602	-0.4125	-0.41458	-1.3125	-0.79792	-0.4875	-1.2437	-0.45	-1.0771	-0.92292	-0.36458	-1.3167	-0.62292	-0.58333	-1.4562	-0.39375	-1.0792	22.895	114.895	132.407	-123.485	105.249	28.100	202.800	-124.546	1.320	-0.954	189.509	192.593	-126.719	-79.091	-103.650	193.649	0.00026779	0.00018529	0.00017867	1347	1.099e-05	1.1083e-05	876.8	433.84	6.9327e-06	1.4333e-05	255.74	88.775	167.62	78.688	9.686e-06	40.33	0.011396	0.020165	0.0056985	1326.7	0.00020359	0.00022852	891.37	432.81	0.00020528	0.00022837	281.98	97.743	171.37	78.996	0.00021478	44.155	-127.396	-19.346	204.151	-115.425	-33.576	135.784	-118.011	-110.733	-100.021	-36.761	-114.304	-110.436	-106.262	-101.786	38.432	-106.696	-8191	255	
29042.945	1	1	0	0	0.0471	0.28395	0.015486	0.33948	0.11073	0.20501	0.29114	0.21204	0.10557	0.16506	0.30365	0.04239	0.099789	0.31173	0.047332	0.15711	-0.69792	-0.27917	-1.1729	-0.95417	-0.47083	-1.2646	-0.53958	-0.89167	-1.1979	-0.50208	-1.1812	-0.86458	-0.575	-1.3771	-0.375	-0.80833	-89.531	52.568	17.087	162.204	-3.359	84.338	166.268	-122.716	-99.672	36.686	141.683	55.889	192.779	-108.515	-112.089	-101.893	0.00029021	0.00085659	0.00011716	1346.1	1.1208e-05	1.1196e-05	880.4	438.5	1.4514e-05	6.5812e-06	261.4	91.177	169.28	79.892	9.6623e-06	41.604	0.011387	0.020277	0.0056922	1328.1	0.00020292	0.0002303	896.68	435.77	0.00020539	0.0002291	285.98	99.729	172.86	80.333	0.00021425	45.335	-127.045	-54.354	-12.692	-116.196	-118.875	101.515	-117.671	-110.344	-3.768	207.948	-113.820	-109.892	-105.357	-101.160	-51.842	-106.634	-8191	255	
29043.043	1	1	0	0	0.17778	0.1911	0.14139	0.29158	0.17877	0.10137	0.2883	0.21158	0.16883	0.24398	0.34924	0.058289	0.23415	0.17818	0.22496	0.19408	-0.96875	-0.45417	-0.9375	-1.1583	-0.28333	-1.4146	-0.83542	-0.70625	-1.2917	-0.50625	-0.87292	-0.99583	-0.48958	-1.2771	-0.70833	-0.675	-54.012	128.733	191.069	173.921	163.060	-24.549	118.128	168.041	-12.291	-48.275	-87.752	34.489	-118.109	-116.634	174.146	137.677	0.00035919	0.00075791	0.00044259	1347	4.4743e-06	2.7589e-06	889.93	440.25	1.242e-05	3.3118e-06	263.59	91.881	170.33	79.963	2.4724e-06	41.136	0.011496	0.020333	0.0057935	1330.9	0.00020583	0.00023151	910	438.16	0.00020729	0.00023179	287.74	100.1	173.43	80.491	0.00021702	44.939	185.004	-28.767	225.671	-115.525	109.214	-106.885	-117.563	-110.389	9.492	65.114	-114.025	-110.260	-106.183	-102.051	-57.355	-107.381	-8191	255	
29043.139	1	1	0	0	0.20833	0.18343	0.18439	0.25023	0.090769	0.3011	0.20329	0.27538	0.08404	0.12532	0.037795	0.20444	0.327	0.36809	0.072348	0.11221	-1.0333	-0.42917	-0.8375	-1.2042	-0.4625	-1.3792	-0.58958	-0.61667	-1.2958	-0.51667	-0.70833	-1.25	-0.26875	-1.4688	-0.56667	-0.42292	34.582	-10.939	-3.549	193.615	-77.083	-26.629	216.749	175.888	120.221	-88.929	104.824	-9.604	219.663	-121.606	76.157	-49.089	0.00021631	0.0017554	0.00024938	1334.2	4.5185e-06	1.3295e-05	865.88	436.69	9.3167e-07	1.4464e-05	260.25	90.733	169.68	80.1	4.5414e-06	41.078	0.011505	0.020354	0.0058556	1321.1	0.00020577	0.00023309	889.45	436.26	0.00020657	0.00023302	284.86	99.391	173.66	80.456	0.00021875	45.04	215.196	-59.787	77.340	-116.692	-109.319	35.705	-118.523	-110.789	1.903	173.008	-113.729	-110.268	-106.678	-102.110	219.878	-106.998	-8191	255	
29043.234	1	1	0	0	0.1425	0.17498	0.16744	0.31019	0.29932	0.13918	0.16176	0.089223	0.21037	0.083165	0.049007	0.16127	0.19818	0.21024	0.14853	0.12315	-0.83333	-0.45625	-0.68333	-1.3083	-0.63542	-1.075	-0.825	-0.66875	-1.2917	-0.51875	-0.67917	-1.1625	-0.42917	-1.2833	-0.72917	-0.52708	39.320	-86.967	173.343	-102.302	123.636	167.397	160.525	10.463	94.988	115.730	20.289	104.025	189.680	181.732	80.188	2.501	0.00013733	0.0004895	0.00051706	1338.2	8.6345e-06	1.4678e-05	871.8	436.47	2.1255e-06	1.5954e-05	260.33	91.129	170.34	79.867	9.3691e-06	41.293	0.01161	0.020606	0.0058799	1324.1	0.00020683	0.00023601	895.27	435.88	0.00021024	0.00023609	286.97	99.904	174.05	80.593	0.00022173	45.11	190.542	-117.029	-22.254	-116.186	155.891	62.256	-118.212	-110.954	-121.800	40.451	-114.076	-110.358	-106.113	-102.228	7.294	-106.978	-8191	255	
29043.330	1	1	0	0	0.13643	0.08393	0.11051	0.25553	0.10481	0.17582	0.043433	0.40354	0.26157	0.19136	0.14251	0.12426	0.029817	0.28515	0.11814	0.32797	-0.70208	-0.58958	-0.46667	-1.4	-0.275	-0.88542	-1.0604	-0.52083	-1.2875	-0.74583	-0.65417	-1.2125	-0.53958	-1.0708	-1.0125	-0.36458	203.249	48.470	192.457	172.434	202.029	8.450	-102.897	177.056	31.151	145.129	-125.988	-69.304	127.881	214.909	-0.819	165.981	0.00032469	0.0011216	0.0002734	1346.6	3.2838e-06	1.9986e-05	884.76	437.95	9.6769e-07	9.0502e-06	260.8	90.842	169.25	80.973	8.695e-06	41.347	0.011626	0.020789	0.0059135	1329	0.0002074	0.00023452	903.19	437.48	0.00020793	0.00023621	287.7	100.49	173.64	80.878	0.00021858	45.227	229.950	212.210	-45.746	-115.930	25.584	-9.646	-118.119	-110.238	216.371	-124.637	-113.529	-108.535	-105.415	-101.560	216.958	-106.904	-8191	255	
29043.428	1	1	0	0	0.13822	0.23633	0.17135	0.47616	0.083957	0.17677	0.1898	0.37299	0.1594	0.24836	0.1895	0.19041	0.12264	0.31919	0.067546	0.14119	-0.73958	-0.86458	-0.55	-1.3062	-0.50417	-0.59583	-1.2708	-0.62292	-1.2083	-0.72917	-0.54583	-1.4479	-0.56667	-0.93333	-1.3375	-0.48958	117.504	-90.648	-10.868	225.426	-84.722	16.613	-86.836	155.720	-110.512	-29.275	139.093	-21.748	101.543	203.339	-33.957	199.589	0.00023403	0.0012635	0.00038517	1353	4.6161e-06	2.1605e-05	890.4	442.11	2.9895e-06	1.7397e-05	263.21	90.69	167.38	78.992	3.2518e-06	40.283	0.011532	0.020566	0.0058444	1335.9	0.00020423	0.00023357	911.24	439.48	0.0002072	0.00023068	288.98	99.801	172.7	79.913	0.00021405	44.519	202.304	-90.977	-35.160	-115.580	38.392	28.234	-117.487	-109.996	62.324	160.527	-113.186	-109.211	-105.163	-100.870	116.840	-105.588	-8191	255	
29043.545	1	1	0	0	0.2099	0.14978	0.22761	0.25136	0.15602	0.11454	0.34711	0.21127	0.20531	0.16683	0.10708	0.26117	0.17882	0.43646	0.1482	0.14546	-0.9125	-1.0375	-0.32708	-1.6958	-0.82083	-0.67083	-1.5604	-0.65625	-1.05	-1.1604	-0.56042	-1.4146	-0.8875	-0.86875	-1.2313	-0.27292	-39.630	54.717	70.342	229.565	92.095	22.087	149.102	181.856	89.253	42.998	127.067	80.471	-106.294	189.547	43.001	180.770	0.00022073	0.0011437	0.00065531	1349.6	4.1633e-06	8.5006e-07	860.73	429.19	8.7821e-06	1.8189e-05	255.18	88.24	166.5	78.491	3.6216e-06	39.596	0.01143	0.020336	0.0057999	1329.1	0.0002013	0.0002286	887.15	431.73	0.00020203	0.00022559	279.66	96.6	170.31	78.782	0.00020804	43.543	206.817	-60.113	-40.865	-115.123	77.167	-91.950	-117.271	-109.744	231.554	9.158	-113.257	-109.329	-105.340	-101.486	131.453	-106.778	-8191	255	
29043.643	1	1	0	0	0.083555	0.2782	0.15646	0.38392	0.098182	0.22786	0.16866	0.096639	0.077166	0.090501	0.45022	0.16642	0.32703	0.15515	0.09943	0.34402	-0.71458	-0.90208	-0.31667	-1.2396	-0.825	-0.60833	-1.3833	-0.61875	-0.96042	-1.1917	-0.56667	-1.2563	-1.0438	-0.725	-1.3687	-0.59375	120.285	-28.985	-96.515	-121.886	72.039	100.603	162.455	90.149	87.544	113.977	-61.882	139.185	216.885	-111.410	-71.228	107.056	0.00023001	0.0017248	0.00042198	1347.1	8.1603e-06	1.227e-05	868.66	434.98	4.0449e-06	1.7098e-05	255.22	88.521	167.48	79.074	5.9049e-06	39.946	0.010985	0.019662	0.0055257	1324.3	0.00019627	0.00022207	885.51	432.22	0.00019998	0.00022124	279.74	97.045	170.13	78.997	0.00020556	43.617	-112.896	188.679	-64.944	-116.219	111.197	12.820	-118.598	-111.385	146.249	102.968	-114.214	-110.707	-106.564	-102.511	15.922	-107.483	-8191	255	
29043.738	1	1	0	0	0.074812	0.31072	0.12782	0.33873	0.11768	0.20683	0.28758	0.20547	0.20401	0.21593	0.14587	0.23591	0.16525	0.32366	0.10004	0.077481	-0.35208	-1.2208	-0.175	-1.5292	-0.95208	-0.42292	-1.5833	-0.67917	-0.86875	-1.3312	-0.36042	-1.1646	-1.0271	-0.65417	-1.1125	-0.50833	192.610	129.715	197.959	-118.268	39.818	164.212	152.146	207.343	-69.646	144.663	68.073	190.468	223.303	160.561	20.295	12.472	0.00011656	0.00089022	0.00016237	1344	1.7975e-05	1.3667e-05	870.75	433.57	9.8657e-06	9.8176e-06	257.58	89.616	168.02	78.869	3.7004e-06	40.504	0.011016	0.019586	0.0055262	1325.7	0.00019738	0.00022385	891.39	432.14	0.00020061	0.00022206	281.34	97.844	170.92	79.158	0.00020836	44.163	216.918	220.968	165.894	-116.223	55.037	40.863	-118.271	-111.107	49.433	-127.112	-114.610	-110.549	-106.558	-102.686	-29.787	-107.741	-8191	255	
29043.834	1	1	0	0	0.26027	0.18348	0.19702	0.051193	0.15497	0.17614	0.031196	0.31851	0.041859	0.1828	0.32655	0.16122	0.10873	0.26961	0.29433	0.040923	-0.18542	-1.2896	-0.30208	-1.1833	-0.98958	-0.27917	-1.5083	-0.67917	-0.61458	-1.4542	-0.45	-1	-1.1458	-0.50417	-1.425	-0.7375	-64.681	118.163	173.764	128.254	-27.319	81.569	179.543	155.172	-6.858	212.816	194.905	98.395	56.302	-124.788	-101.488	21.085	0.00029432	0.00092131	0.00013459	1344.6	1.3991e-05	5.8029e-06	882.99	437.3	1.1725e-05	1.4185e-05	261.25	91.024	168.14	79.198	1.5439e-05	40.672	0.011138	0.019644	0.0055716	1330	0.00019739	0.00022472	900.05	434.93	0.00020065	0.00022448	284.91	99.101	171.48	79.396	0.00021093	44.444	183.918	11.791	-61.328	-116.268	204.841	55.621	-118.508	-111.024	-76.231	26.332	-114.556	-110.802	-106.681	-102.647	23.648	-107.756	-8191	255	
29043.930	1	1	0	0	0.28261	0.16587	0.19899	0.22847	0.28375	0.22774	0.088905	0.50697	0.1155	0.15718	0.22417	0.18027	0.14258	0.2108	0.17322	0.28388	-0.19792	-1.0833	-0.31875	-1.0938	-1.1208	-0.24583	-1.2333	-0.96875	-0.48958	-1.3917	-0.70625	-0.92917	-1.4	-0.58333	-1.1583	-0.83125	-84.765	-36.826	70.453	200.515	-5.477	68.655	74.196	146.417	156.125	-116.577	189.235	147.860	158.052	129.549	-90.531	152.486	0.0001684	0.0011798	0.00037074	1346.8	5.1983e-06	1.2185e-05	868.81	432.59	3.5015e-06	8.5153e-07	256.59	88.705	168.08	78.136	1.2632e-05	39.7	0.011269	0.019918	0.0056606	1329.6	0.00020059	0.00022866	891.22	432.04	0.00020288	0.00022583	280.82	97.438	170.74	78.678	0.00021226	43.765	196.114	-87.574	-81.111	-116.271	-98.317	-67.663	-118.756	-111.227	41.999	208.538	-114.848	-110.888	-106.666	-102.290	26.746	-107.060	-8191	255	
29044.025	1	1	0	0	0.25307	0.16024	0.23908	0.098248	0.34556	0.069026	0.22173	0.34689	0.070989	0.15555	0.22564	0.091619	0.2977	0.35068	0.1775	0.29778	-0.01875	-1.2563	-0.61875	-0.95417	-1.5104	-0.27917	-1.3042	-1.1521	-0.2875	-1.1229	-0.85833	-0.67292	-1.5187	-0.49375	-0.98125	-1.2375	-82.451	76.564	86.192	9.976	148.434	62.120	-115.122	140.760	153.612	8.731	180.511	84.294	-123.826	189.306	-92.406	157.640	0.00021024	0.00075359	0.00051024	1337.8	2.5613e-06	1.6503e-05	866.28	431.24	9.8693e-06	1.4311e-05	254.37	89.099	167.72	78.714	8.727e-06	40.072	0.011387	0.020071	0.0057486	1321.3	0.0002019	0.00022915	886.78	430.94	0.00020274	0.00022546	280.81	97.484	170.56	78.981	0.000214	43.886	-90.405	137.208	-30.604	-116.573	170.879	73.303	-118.820	-111.178	-60.571	-8.896	-114.224	-110.343	-106.814	-102.368	90.641	-107.452	-8191	255	
29044.146	1	1	0	0	0.16032	0.13678	0.13707	0.36444	0.11028	0.17742	0.33618	0.32605	0.16123	0.23504	0.11265	0.077799	0.22538	0.35106	0.2146	0.28172	0.0083333	-1.325	-0.70417	-0.60833	-1.3333	-0.525	-1.1229	-1.3396	-0.60208	-1.2354	-0.83333	-0.56875	-1.4875	-0.58958	-0.72292	-1.1958	-36.052	114.322	181.076	185.746	28.297	-121.750	215.420	142.968	143.582	181.862	31.042	-114.079	197.968	188.271	-128.856	178.105	0.00018459	0.001238	0.00056273	1343.8	7.4782e-06	1.1068e-05	874.13	432.94	4.0446e-06	5.4391e-06	260.69	89.99	168.42	79.034	1.3944e-05	40.558	0.011229	0.01998	0.0057615	1325	0.00019793	0.00022746	895.57	432.35	0.00020232	0.0002239	284.62	98.931	171.66	79.475	0.00021536	44.553	230.253	-70.061	-10.042	-116.470	13.280	67.879	-118.685	-111.090	74.097	-78.413	-114.535	-110.665	-106.631	-102.405	56.806	-107.206	-8191	255	
29044.242	1	1	0	0	0.28752	0.16665	0.046675	0.27753	0.15096	0.263	0.19007	0.39645	0.42714	0.14527	0.18818	0.16563	0.041055	0.31982	0.1413	0.12696	0.22292	-1.0917	-0.725	-0.58333	-1.25	-0.48125	-0.81458	-1.6146	-0.45625	-1.0146	-1.075	-0.44375	-1.3396	-0.575	-0.59167	-1.4542	63.919	222.289	193.296	187.547	1.746	-14.116	130.773	132.439	85.285	-119.015	-101.289	16.023	97.373	227.161	145.519	-4.330	0.00027752	0.0011934	0.00021938	1344.6	7.1147e-06	9.9156e-06	887.92	436.55	1.1e-05	2.4967e-06	262.86	91.928	169.48	79.736	8.6874e-06	40.907	0.011455	0.020255	0.0057813	1331.8	0.00020198	0.00023141	909.03	436.28	0.00020488	0.00022887	288.76	100.47	172.99	79.993	0.00021739	44.973	-104.448	211.147	9.054	-116.820	41.492	185.624	-118.682	-111.058	-73.317	-78.566	-114.287	-110.536	-106.722	-102.592	35.265	-107.399	-8191	255	
29044.340	1	1	0	0	0.31815	0.35977	0.1522	0.14732	0.36678	0.23487	0.22551	0.15846	0.22109	0.37024	0.24934	0.21038	0.15917	0.43871	0.11292	0.33309	0	-1.0021	-0.84167	-0.45208	-1.1917	-0.7375	-0.75208	-1.4875	-0.34375	-0.93958	-1.1812	-0.24167	-1.4	-0.84583	-0.5125	-1.2313	135.185	97.471	-19.360	-116.621	217.517	199.406	147.524	151.334	-57.420	-77.711	79.217	-111.081	171.247	-108.791	135.959	179.422	0.00020223	0.00050561	0.0001286	1356.1	8.9464e-06	4.7849e-06	892.01	435.93	8.6524e-06	1.8756e-05	261.58	90.349	168.26	78.851	1.3247e-05	39.976	0.011494	0.020579	0.0058315	1339.8	0.00020366	0.00023436	913.24	436.29	0.00020765	0.00023393	286.85	99.333	171.94	79.37	0.00021832	44.156	-120.846	-105.940	-74.045	-116.447	-68.042	-37.513	-118.798	-111.105	-79.274	31.861	-115.106	-110.831	-106.583	-102.407	-55.863	-107.461	-8191	255	
29044.436	1	1	0	0	0.21417	0.10838	0.12489	0.22432	0.15817	0.07781	0.27657	0.043505	0.13591	0.038087	0.10844	0.092152	0.33789	0.1959	0.24078	0.29563	0	-0.6875	-1.1271	-0.42292	-1.0312	-0.77083	-0.66042	-1.5396	-0.3875	-0.9	-1.2146	-0.5125	-1.2708	-1.0438	-0.4	-1.2458	-19.505	136.744	81.840	197.313	-0.112	169.589	195.790	2.137	-20.462	-8.523	-57.071	199.095	196.784	160.593	-47.663	150.929	0.00020564	0.0016155	0.00030332	1351.3	1.3453e-05	1.6092e-05	874.81	434.91	1.0049e-05	5.7299e-06	259.49	90.589	168.98	78.686	7.7785e-06	40.245	0.011534	0.020516	0.0058665	1331.2	0.00020593	0.00023491	899.25	433.89	0.00020886	0.00023389	285.79	99.069	171.65	79.205	0.00021881	44.245	210.552	-9.481	16.986	-116.370	13.725	-53.638	-118.240	-111.087	15.932	-21.606	-114.926	-110.847	-106.623	-102.439	-53.582	-107.879	-8191	255	
29044.531	1	1	0	0	0.087986	0.18181	0.19589	0.30689	0.22166	0.12591	0.11014	0.5355	0.19597	0.24498	0.11537	0.14179	0.31252	0.46534	0.42328	0.29222	-0.25	-0.5625	-1.2042	-0.40625	-0.97292	-1.0917	-0.50625	-1.475	-0.37083	-0.87917	-1.4646	-0.47292	-1.2563	-1.1208	-0.1875	-1.1292	-23.961	198.400	-87.533	208.839	-121.612	-39.155	207.070	194.975	10.331	-41.660	171.498	-96.128	-80.461	-124.125	-49.653	158.041	0.00026661	0.00021605	0.00041602	1346.8	2.7097e-06	6.7634e-06	877.2	437.18	4.6346e-06	4.8063e-06	258.96	90.183	168.85	79.077	5.8436e-06	40.695	0.011653	0.020609	0.0058426	1331.9	0.00020666	0.0002365	904.85	435.06	0.00020948	0.00023205	285.6	99.297	172.27	79.422	0.0002167	44.536	-125.493	114.870	-24.913	-116.646	222.617	-28.726	-118.767	-110.978	-115.149	183.696	-114.223	-110.136	-106.532	-102.406	-39.402	-106.801	-8191	255	
29044.627	1	1	0	0	0.13368	0.29991	0.0062674	0.32636	0.13826	0.097372	0.28772	0.38596	0.1013	0.041752	0.16706	0.072643	0.19664	0.24942	0.18755	0.1141	-0.22917	-0.42292	-1.1771	-0.62083	-1.0479	-1.1729	-0.4375	-1.3729	-0.62292	-0.6	-1.3813	-0.40208	-1.025	-1.3396	-0.30833	-1.2521	-121.134	-76.343	199.711	94.821	204.157	152.715	138.127	169.359	111.127	-116.329	186.536	49.875	176.105	181.151	1.197	118.225	0.0001989	0.00074095	0.00030718	1347.3	3.5704e-06	1.2854e-05	893.78	437.97	1.4047e-05	2.1528e-06	262.68	92.691	169.45	79.571	5.0356e-06	41.044	0.011707	0.020622	0.0058271	1332.5	0.00020609	0.00023348	912.69	435.84	0.00020914	0.00023094	288.82	100.85	172.99	79.878	0.00021533	45.069	-117.710	-106.211	-51.514	-116.632	-87.530	60.299	-118.545	-111.020	-44.250	215.774	-114.496	-110.570	-106.642	-102.301	222.532	-107.268	-8191	255	
29044.723	1	1	0	0	0.094842	0.075567	0.15204	0.073	0.12471	0.2304	0.268	0.13119	0.17115	0.3015	0.12546	0.15136	0.2847	0.43618	0.046432	0.12355	-0.46875	-0.41458	-1.3542	-0.61875	-0.79375	-1.375	-0.70625	-1.2667	-0.83542	-0.32292	-1.2417	-0.63958	-0.77708	-1.3958	-0.35833	-1.0688	70.241	147.701	203.087	173.419	-102.803	192.629	135.242	164.768	61.515	16.134	168.636	-108.497	230.376	206.521	217.191	188.135	0.00025869	0.0009055	0.00021763	1353	1.1702e-05	1.8725e-05	902.14	438.06	3.8063e-06	9.1289e-06	261.78	90.957	169.08	78.914	7.6038e-06	40.304	0.011574	0.020294	0.0056958	1338.9	0.00020407	0.00023459	919.08	436.48	0.00020645	0.00022977	286.72	99.615	172.47	79.279	0.0002165	44.335	211.255	-74.832	229.970	-116.910	-25.390	77.626	-118.597	-111.040	-30.530	15.034	-114.200	-110.850	-106.639	-102.504	175.694	-107.384	-8191	255	
29044.844	1	1	0	0	0.036956	0.29099	0.47701	0.32002	0.11258	0.066394	0.14676	0.31818	0.14517	0.27493	0.13624	0.16929	0.26293	0.39844	0.13078	0.28638	-0.46458	-0.5125	-1.2292	-0.90833	-0.48542	-1.425	-0.45208	-1.2833	-1.0792	-0.54167	-1.3146	-0.65208	-0.69167	-1.5083	-0.35	-0.84583	-42.166	83.891	-36.736	133.180	-95.512	205.380	-115.811	186.038	146.616	131.734	-97.800	167.494	180.268	203.993	143.972	-68.299	0.00020177	0.00023727	0.0002814	1343.1	2.4863e-06	1.3383e-05	882.73	435.08	6.335e-06	1.0327e-05	258.57	89.896	168.41	78.526	8.222e-06	40.218	0.011455	0.02018	0.0057866	1328.3	0.00020407	0.00022962	901.65	433.6	0.00020747	0.00023105	284.43	99.167	171.86	78.95	0.00021614	44.209	225.934	-33.143	38.509	-116.793	41.824	-47.279	-118.740	-111.004	111.037	-36.532	-114.460	-111.160	-106.838	-102.386	-47.126	-107.252	-8191	255	
29044.939	1	1	0	0	0.40201	0.14908	0.12633	0.54058	0.14784	0.35808	0.28808	0.29326	0.13604	0.24625	0.3032	0.29656	0.090597	0.22098	0.048411	0.22177	-0.78958	-0.28125	-1.1187	-1.0125	-0.26875	-1.2146	-0.6	-0.83125	-1.1708	-0.51667	-1.1625	-0.83542	-0.52292	-1.3958	-0.49375	-0.75208	200.039	2.983	-104.604	-126.185	27.434	165.548	-103.009	163.636	214.472	212.794	26.551	-119.532	157.561	-114.309	118.638	-60.221	0.00017143	0.0011013	0.00052329	1345.7	6.6043e-06	8.7019e-06	886.8	435.18	8.0145e-06	4.3623e-06	262.18	91.522	168.56	79.148	6.1755e-06	40.627	0.011495	0.020227	0.0056835	1329	0.00020266	0.0002278	906.62	434.81	0.0002058	0.00022603	287.35	100.15	172.32	79.394	0.00021515	44.482	178.966	14.046	-110.951	-116.664	174.287	-30.126	-118.907	-111.314	-44.243	83.474	-114.499	-111.010	-106.633	-102.351	110.304	-107.006	-8191	255	
29045.010	1	1	0	0	0.14593	0.19375	0.33664	0.36646	0.031048	0.23065	0.24939	0.29193	0.021513	0.080034	0.47494	0.25899	0.27332	0.39218	0.080185	0.24527	-0.78125	-0.22708	-0.89583	-1.0187	-0.54167	-1.2625	-0.45	-0.9125	-1.1396	-0.52083	-1.1854	-1.1604	-0.46458	-1.3646	-0.66458	-0.49375	85.958	84.688	205.335	-111.965	-110.257	-57.475	185.469	174.147	66.289	-51.977	152.725	185.596	-79.591	163.405	223.271	-64.492	0.00024809	0.00022218	0.00022586	1352.4	6.071e-06	3.189e-06	902.27	438.29	1.7402e-05	1.8473e-05	264.28	92.686	169.65	79.623	5.3975e-06	41.394	0.011369	0.020318	0.0057764	1336.5	0.0002047	0.00023236	920.16	437.16	0.00020528	0.00023035	290.71	101.42	173.06	80.023	0.00021811	45.38	220.257	189.105	-31.230	-116.758	186.441	19.430	-118.453	-111.146	-32.118	-49.311	-114.658	-110.561	-106.481	-102.093	127.379	-107.337	-8191	255	
29045.107	1	1	0	0	0.13868	0.17705	0.204	0.26731	0.28314	0.3052	0.31598	0.12382	0.10573	0.12066	0.14392	0.036412	0.2851	0.43465	0.19939	0.1452	-0.70625	-0.47708	-0.86458	-1.15	-0.40208	-1.0479	-0.92917	-0.65208	-1.1375	-0.32292	-0.7125	-1.2333	-0.49167	-1.3062	-0.71042	-0.675	109.909	120.083	-74.294	230.599	-35.763	-31.087	166.137	-92.337	-94.068	-44.215	33.941	139.069	147.833	185.413	-32.023	109.218	0.00012453	0.0011312	0.00012443	1360.4	7.1176e-06	1.1681e-05	912.1	439.46	2.7004e-06	1.7008e-05	268.98	93.529	170.68	79.709	7.1539e-06	41.122	0.011503	0.020516	0.0058802	1344.5	0.00020615	0.00023246	930.29	439.09	0.00020767	0.00023368	293.81	102.04	173.45	80.01	0.00022009	45.084	191.636	-21.031	-101.746	-116.488	-44.015	170.014	-118.431	-111.185	-74.801	86.980	-114.698	-111.101	-106.676	-102.351	139.089	-107.287	-8191	255	
#DATA ENDS
