BOXY.EXE: ISS Imagent and Oximeter Data Acquisition Program Version 0.80
Ascii Record File

#ACQ INFORMATION
2  Detector Channels 
16  External MUX Channels 
1  Auxiliary Channels 
5000  Waveform (CCF) Frequency (Hz)
1  Waveforms Skipped 
30  Waveforms Averaged 
1  Cycles Averaged 
16  Acquisitions per Waveform 
10.0806  Updata Rate (Hz) 

#FILE INFORMATION
TRUE -- External MUX Channel results are PARSED.
FALSE -- AC DC and Phase are NOT grouped.
TRUE -- Companion Program Settings File CREATED.
FALSE -- AC data not excluded
FALSE -- DC data not excluded
FALSE -- Phase data not excluded
FALSE -- Auxillary Chn. data not excluded
Tab delimiters

#CALIBRATION STATE
TRUE -- Waveform Calibration Values APPLIED.


#AUX CALIBRATION VALUES
Val Type	aux-1	

Term	1.0000e+00	
Factor	0.0000e+00	


#WF CALIBRATION VALUES
A = Detector Channel
Val Type	A-AC1	A-AC2	A-AC3	A-AC4	A-AC5	A-AC6	A-AC7	A-AC8	A-AC9	A-AC10	A-AC11	A-AC12	A-AC13	A-AC14	A-AC15	A-AC16	A-DC1	A-DC2	A-DC3	A-DC4	A-DC5	A-DC6	A-DC7	A-DC8	A-DC9	A-DC10	A-DC11	A-DC12	A-DC13	A-DC14	A-DC15	A-DC16	A-Ph1	A-Ph2	A-Ph3	A-Ph4	A-Ph5	A-Ph6	A-Ph7	A-Ph8	A-Ph9	A-Ph10	A-Ph11	A-Ph12	A-Ph13	A-Ph14	A-Ph15	A-Ph16	

Term	0.00000e+00	0.00000e+00	0.00000e+00	0.00000e+00	0.00000e+00	0.00000e+00	0.00000e+00	0.00000e+00	0.00000e+00	0.00000e+00	0.00000e+00	0.00000e+00	0.00000e+00	0.00000e+00	0.00000e+00	0.00000e+00	0.00000e+00	0.00000e+00	0.00000e+00	0.00000e+00	0.00000e+00	0.00000e+00	0.00000e+00	0.00000e+00	0.00000e+00	0.00000e+00	0.00000e+00	0.00000e+00	0.00000e+00	0.00000e+00	0.00000e+00	0.00000e+00	0.00000e+00	0.00000e+00	0.00000e+00	0.00000e+00	0.00000e+00	0.00000e+00	0.00000e+00	0.00000e+00	0.00000e+00	0.00000e+00	0.00000e+00	0.00000e+00	0.00000e+00	0.00000e+00	0.00000e+00	0.00000e+00	
Factor	1.00000e+00	1.00000e+00	1.00000e+00	1.00000e+00	1.00000e+00	1.00000e+00	1.00000e+00	1.00000e+00	1.00000e+00	1.00000e+00	1.00000e+00	1.00000e+00	1.00000e+00	1.00000e+00	1.00000e+00	1.00000e+00	1.00000e+00	1.00000e+00	1.00000e+00	1.00000e+00	1.00000e+00	1.00000e+00	1.00000e+00	1.00000e+00	1.00000e+00	1.00000e+00	1.00000e+00	1.00000e+00	1.00000e+00	1.00000e+00	1.00000e+00	1.00000e+00	X	X	X	X	X	X	X	X	X	X	X	X	X	X	X	X	

B = Detector Channel
Val Type	B-AC1	B-AC2	B-AC3	B-AC4	B-AC5	B-AC6	B-AC7	B-AC8	B-AC9	B-AC10	B-AC11	B-AC12	B-AC13	B-AC14	B-AC15	B-AC16	B-DC1	B-DC2	B-DC3	B-DC4	B-DC5	B-DC6	B-DC7	B-DC8	B-DC9	B-DC10	B-DC11	B-DC12	B-DC13	B-DC14	B-DC15	B-DC16	B-Ph1	B-Ph2	B-Ph3	B-Ph4	B-Ph5	B-Ph6	B-Ph7	B-Ph8	B-Ph9	B-Ph10	B-Ph11	B-Ph12	B-Ph13	B-Ph14	B-Ph15	B-Ph16	

Term	0.00000e+00	0.00000e+00	0.00000e+00	0.00000e+00	0.00000e+00	0.00000e+00	0.00000e+00	0.00000e+00	0.00000e+00	0.00000e+00	0.00000e+00	0.00000e+00	0.00000e+00	0.00000e+00	0.00000e+00	0.00000e+00	0.00000e+00	0.00000e+00	0.00000e+00	0.00000e+00	0.00000e+00	0.00000e+00	0.00000e+00	0.00000e+00	0.00000e+00	0.00000e+00	0.00000e+00	0.00000e+00	0.00000e+00	0.00000e+00	0.00000e+00	0.00000e+00	-2.56295e+01	-1.44903e+02	-1.46208e+02	-1.81557e+02	-1.10190e+02	-6.80644e+01	-1.59026e+02	-1.62015e+02	-3.84505e+01	-8.16621e+01	-1.72371e+02	-1.70803e+02	-1.81112e+02	-1.77111e+02	-8.23039e+01	-1.49802e+02	
Factor	2.04882e-05	7.53207e-05	2.45854e-05	1.58408e-01	9.99100e-07	8.80246e-07	1.70930e-01	4.43404e-02	8.59531e-07	9.60360e-07	7.59286e-02	2.81762e-02	3.25531e-02	8.07940e-03	1.02540e-06	1.17635e-02	7.21442e-07	7.39326e-07	2.06340e-07	8.04690e-02	8.08779e-09	8.09940e-09	8.12938e-02	2.26284e-02	8.09526e-09	8.11344e-09	3.67682e-02	1.35681e-02	1.59473e-02	4.06331e-03	8.14387e-09	5.65090e-03	X	X	X	X	X	X	X	X	X	X	X	X	X	X	X	X	



#DISTANCE SETTINGS
A = Detector Channel
A-1	A-2	A-3	A-4	A-5	A-6	A-7	A-8	A-9	A-10	A-11	A-12	A-13	A-14	A-15	A-16	

2.5000e+00	3.0000e+00	2.5000e+00	3.0000e+00	2.0000e+00	3.0000e+00	1.5000e+00	3.0000e+00	3.0000e+00	3.0000e+00	3.0000e+00	3.0000e+00	3.0000e+00	3.0000e+00	1.5000e+00	3.0000e+00	

B = Detector Channel
B-1	B-2	B-3	B-4	B-5	B-6	B-7	B-8	B-9	B-10	B-11	B-12	B-13	B-14	B-15	B-16	

1.0000e+01	1.0000e+01	1.0000e+01	1.4400e+00	1.0000e+01	1.0000e+01	1.5100e+00	1.9400e+00	1.0000e+01	1.0000e+01	1.9900e+00	2.4900e+00	2.4100e+00	2.9000e+00	1.0000e+01	2.9800e+00	




#DATA BEGINS
time	group	step	mark	flag	A-AC1	A-AC2	A-AC3	A-AC4	A-AC5	A-AC6	A-AC7	A-AC8	A-AC9	A-AC10	A-AC11	A-AC12	A-AC13	A-AC14	A-AC15	A-AC16	A-DC1	A-DC2	A-DC3	A-DC4	A-DC5	A-DC6	A-DC7	A-DC8	A-DC9	A-DC10	A-DC11	A-DC12	A-DC13	A-DC14	A-DC15	A-DC16	A-Ph1	A-Ph2	A-Ph3	A-Ph4	A-Ph5	A-Ph6	A-Ph7	A-Ph8	A-Ph9	A-Ph10	A-Ph11	A-Ph12	A-Ph13	A-Ph14	A-Ph15	A-Ph16	B-AC1	B-AC2	B-AC3	B-AC4	B-AC5	B-AC6	B-AC7	B-AC8	B-AC9	B-AC10	B-AC11	B-AC12	B-AC13	B-AC14	B-AC15	B-AC16	B-DC1	B-DC2	B-DC3	B-DC4	B-DC5	B-DC6	B-DC7	B-DC8	B-DC9	B-DC10	B-DC11	B-DC12	B-DC13	B-DC14	B-DC15	B-DC16	B-Ph1	B-Ph2	B-Ph3	B-Ph4	B-Ph5	B-Ph6	B-Ph7	B-Ph8	B-Ph9	B-Ph10	B-Ph11	B-Ph12	B-Ph13	B-Ph14	B-Ph15	B-Ph16	aux-1	digaux	

1524.974	1	1	0	768	0.14441	0.13254	0.19141	0.040895	0.15371	0.087053	0.078728	0.096499	0.12993	0.13163	0.13176	0.27637	0.15585	0.18916	0.33658	0.17576	-0.14375	-1.1292	-0.97292	-0.85417	-1.3438	-0.41458	-1.0625	-1.525	-0.43542	-1.2375	-1.0667	-0.53542	-1.325	-0.87708	-0.81042	-1.3937	53.677	136.128	212.875	-11.568	-72.046	58.032	-76.883	8.953	51.948	31.366	255.139	231.868	247.054	257.628	-37.318	-73.039	0.0002686	0.00040699	0.00014032	1364	4.1304e-06	6.2853e-07	1361.3	366.62	2.639e-06	1.5151e-06	420.9	140.18	121.38	41.798	6.2496e-06	51.84	0.00050128	0.00057249	0.00015634	1374.2	5.6179e-06	6.3061e-06	1377.9	372.45	5.6247e-06	6.2964e-06	426.7	142.58	123.71	43.089	5.9707e-06	52.881	-46.327	191.331	-48.694	-76.354	-0.018	-52.250	-76.401	-71.830	239.172	-15.675	-72.451	-67.681	-67.045	-62.753	83.090	-63.640	-8191	255	
1525.070	1	1	0	0	0.20494	0.18564	0.22034	0.39345	0.2629	0.129	0.32802	0.10202	0.23996	0.054377	0.18871	0.31449	0.19168	0.22952	0.134	0.076519	-0.1	-1.1562	-1.1458	-0.54583	-1.4792	-0.73958	-0.97917	-1.6458	-0.62292	-1.1896	-1.2	-0.69583	-1.4729	-0.97292	-0.64375	-1.6313	2.245	230.377	242.221	214.072	-31.480	-54.993	204.194	-46.086	256.342	254.966	218.837	198.276	227.726	269.633	185.385	132.904	0.00022998	0.00035852	5.2441e-05	1360.3	3.0944e-06	3.8502e-06	1365.6	369.18	6.2514e-06	6.1694e-06	421.28	139.74	121.39	41.992	2.6358e-06	52.305	0.00051941	0.00057322	0.00015233	1372	5.8477e-06	6.374e-06	1377.1	372.54	5.9556e-06	6.2874e-06	426.46	142.33	124.24	43.122	5.8575e-06	52.901	-64.721	46.984	-2.592	-76.392	49.950	91.425	-76.138	-71.728	226.700	71.597	-72.496	-67.736	-67.093	-62.846	103.552	-63.757	-8191	255	
1525.166	1	1	0	0	0.18532	0.13963	0.18342	0.27381	0.1157	0.1171	0.4007	0.42936	0.21544	0.1694	0.23607	0.40648	0.073234	0.13647	0.13335	0.056744	-0.15	-1.0542	-1.2687	-0.48958	-1.3896	-0.80208	-0.85208	-1.5896	-0.575	-1.0729	-1.5583	-0.5625	-1.4708	-1.125	-0.67708	-1.6229	210.953	165.921	68.815	246.746	-61.801	88.948	146.227	241.223	114.338	-20.056	258.708	222.474	-9.467	218.266	64.398	-32.445	0.00025636	0.00063785	0.00015491	1363.4	2.0427e-06	2.668e-06	1360.4	368	2.1228e-06	8.9004e-06	421.03	140.27	121.61	42.017	2.2688e-06	51.996	0.0005525	0.00056753	0.00015155	1374.3	6.2062e-06	6.2643e-06	1374.8	372.51	6.2977e-06	6.2058e-06	426.77	142.5	125.08	43.115	5.8461e-06	53.005	252.649	267.221	-2.884	-76.257	47.519	-2.866	-76.281	-71.807	167.648	14.305	-72.341	-67.612	-66.961	-63.017	40.335	-63.806	-8191	255	
1525.263	1	1	0	0	0.1882	0.31569	0.12266	0.47568	0.1059	0.081682	0.24312	0.48504	0.18744	0.20369	0.16881	0.1879	0.22893	0.2066	0.24165	0.071617	-0.29583	-0.69167	-1.225	-0.62292	-1.1604	-0.88333	-0.525	-1.5125	-0.84167	-0.90833	-1.4833	-0.75417	-1.1167	-1.2021	-0.47708	-1.6292	40.457	227.677	22.175	265.019	269.186	50.391	228.510	-83.295	147.817	69.457	136.496	205.474	258.451	223.385	86.802	257.689	0.00028541	0.00060429	9.8916e-05	1365.5	7.3492e-06	3.5543e-06	1371.1	368.88	7.0578e-07	1.0983e-05	419.55	140.08	121.5	42.198	2.743e-06	52.269	0.00058375	0.00055887	0.00014972	1377.1	6.4689e-06	6.2316e-06	1377.3	373.65	6.6009e-06	6.1203e-06	426.59	143.17	125.4	43.173	5.7239e-06	53.351	-80.670	-28.342	2.322	-76.621	14.786	35.998	-76.552	-71.850	150.871	12.117	-72.436	-67.425	-66.955	-63.206	-22.422	-63.498	-8191	255	
1525.359	1	1	0	0	0.14622	0.079569	0.21389	0.47443	0.14694	0.37173	0.066788	0.27405	0.40157	0.19552	0.28153	0.21575	0.26012	0.19056	0.11293	0.15548	-0.44375	-0.90625	-1.1521	-0.77708	-1.2146	-1.125	-0.75417	-1.6	-0.7125	-0.78542	-1.6187	-0.6375	-0.97708	-1.3667	-0.45417	-1.3604	153.502	157.010	133.163	241.808	120.455	-62.395	209.372	207.871	103.915	-41.837	-51.820	170.059	218.091	186.864	179.746	9.014	0.00017735	0.00038274	0.00020008	1365.4	3.5658e-06	8.1504e-06	1368.2	369.3	7.3184e-06	8.3437e-06	420.52	139.73	121.58	41.873	4.3783e-06	51.944	0.00059998	0.00055752	0.00014862	1382.8	6.5177e-06	6.1743e-06	1377.7	374.86	6.5552e-06	6.0304e-06	426.31	143.6	125.1	43.016	5.7254e-06	53.464	-47.037	-8.034	29.866	-76.312	4.285	65.762	-76.431	-71.733	75.273	15.903	-72.059	-67.415	-67.268	-62.881	-79.612	-63.567	-8191	255	
1525.455	1	1	0	0	0.16432	0.052103	0.27753	0.18372	0.186	0.10797	0.4086	0.28625	0.01592	0.0968	0.11396	0.2429	0.09201	0.10388	0.19673	0.17514	-0.3375	-0.56667	-1.4417	-0.59792	-0.78125	-1.0833	-0.71458	-1.6271	-0.85833	-0.76875	-1.4854	-0.62292	-1.0229	-1.525	-0.57708	-1.2938	12.751	111.088	230.155	-88.728	99.460	268.416	192.907	243.961	-26.823	47.799	94.295	251.322	-28.906	226.300	33.607	178.013	0.00013669	0.00043076	0.00014848	1368.3	1.3648e-05	6.2259e-06	1367.2	369.28	5.1924e-06	1.1226e-06	420.42	140.25	121.96	42.025	7.0812e-06	52.282	0.00058361	0.00054507	0.0001485	1387.8	6.3025e-06	6.0239e-06	1380.4	376.12	6.3541e-06	5.9282e-06	426.69	144.2	124.76	42.98	5.897e-06	53.747	-10.809	-3.823	-52.606	-76.301	-12.610	20.154	-76.401	-71.620	120.005	-7.521	-72.162	-67.475	-67.041	-62.941	256.203	-63.509	-8191	255	
1525.576	1	1	0	0	0.14909	0.12433	0.18012	0.30879	0.13621	0.014895	0.11046	0.25485	0.13173	0.075577	0.3346	0.098957	0.15704	0.34231	0.40309	0.22273	-0.85	-0.44375	-1.3	-0.75208	-0.82708	-1.2563	-0.8125	-1.3083	-0.925	-0.50208	-1.4125	-0.82917	-0.67708	-1.2833	-0.58125	-1	126.929	233.632	263.550	269.693	21.851	155.140	-86.453	242.363	86.902	73.515	194.454	-53.601	269.073	243.465	-78.322	240.038	0.00026267	0.0007387	0.00020752	1371.8	7.659e-06	3.1806e-06	1363	367.63	3.351e-06	7.7798e-06	421.71	140.52	121.72	41.935	8.4296e-06	52.13	0.00057116	0.00053417	0.00015295	1388.3	6.1934e-06	5.8764e-06	1380.2	375.38	6.2077e-06	5.7615e-06	428.65	144.5	124.53	42.924	6.2464e-06	53.643	-70.450	-43.794	83.194	-76.335	44.415	13.676	-76.206	-71.804	131.810	26.040	-72.326	-67.950	-67.157	-62.933	174.315	-63.828	-8191	255	
1525.672	1	1	0	0	0.18135	0.2885	0.12737	0.25989	0.18999	0.12652	0.30473	0.23247	0.18101	0.020675	0.020393	0.23186	0.26278	0.10767	0.20824	0.22081	-0.71458	-0.49167	-1.2771	-1.05	-0.81458	-1.3333	-0.73333	-1.1167	-1.2667	-0.58333	-1.4021	-0.98958	-0.69375	-1.3875	-0.67708	-1.1229	202.238	34.540	38.862	237.490	147.795	35.468	162.944	-80.110	-22.993	172.068	213.332	196.034	-57.267	210.241	267.597	142.314	0.00011601	0.0006124	0.00015772	1366.5	6.3718e-06	3.5544e-06	1361.8	369.16	3.4495e-06	2.0119e-06	419.97	140.57	121.87	41.773	5.896e-06	52.019	0.00055591	0.00051736	0.00016026	1386.3	5.9657e-06	5.7495e-06	1384	375.46	6.0871e-06	5.6695e-06	429.36	144.14	124.35	42.891	6.5753e-06	53.46	-43.181	-8.640	92.993	-76.372	-7.676	-85.455	-76.479	-71.601	83.011	95.182	-72.365	-67.640	-67.137	-62.998	137.652	-63.522	-8191	255	
1525.768	1	1	0	0	0.26116	0.042128	0.10543	0.3743	0.13426	0.062979	0.1598	0.14535	0.28149	0.18322	0.17573	0.22299	0.17315	0.39908	0.19597	0.2244	-0.91042	-0.2875	-1.2542	-1.1646	-0.54375	-1.4083	-0.96042	-1.0875	-1.4854	-0.47083	-1.2875	-0.96667	-0.44792	-1.4396	-0.66458	-0.75625	107.433	-78.719	146.251	201.515	108.117	-2.940	150.130	267.680	251.126	-59.332	-46.481	182.042	-67.280	216.453	88.945	249.113	0.00018844	0.0003613	7.6007e-05	1367	3.8332e-06	5.8261e-06	1369.7	367.69	8.7726e-06	2.8206e-06	420.59	140.83	121.91	41.887	3.9145e-06	52.186	0.00054734	0.00052634	0.00016672	1385.9	5.8896e-06	5.9064e-06	1388	374.53	5.9847e-06	5.9449e-06	430.48	144	123.84	42.974	6.6756e-06	53.358	-53.023	-8.975	-15.511	-76.399	85.032	142.887	-76.497	-71.455	12.478	-58.149	-72.136	-67.754	-67.026	-63.055	28.124	-63.501	-8191	255	
1525.864	1	1	0	0	0.19388	0.22656	0.14228	0.27697	0.032452	0.066853	0.26812	0.27866	0.20967	0.1491	0.18929	0.19642	0.21692	0.22595	0.17115	0.24123	-1.0083	-0.22708	-1.1187	-1.2229	-0.42917	-1.3875	-0.85833	-0.88333	-1.3917	-0.59583	-0.91458	-1.3583	-0.58125	-1.3188	-0.78333	-0.83542	-10.407	231.398	245.299	221.187	64.020	194.654	220.770	219.295	238.787	-72.681	219.050	181.093	124.535	213.917	6.303	127.644	0.00020362	0.00030767	0.00027746	1365.6	1.1573e-06	1.5358e-06	1364.4	367.57	3.5428e-06	9.8847e-06	421.81	140.08	121.88	41.9	9.6875e-06	52.01	0.00053684	0.00055831	0.00016771	1384.1	5.7424e-06	6.2311e-06	1386.5	374.58	5.8641e-06	6.3325e-06	430.15	143.74	123.95	43.234	6.6398e-06	53.27	-49.947	85.720	-14.195	-76.372	15.273	110.681	-76.393	-71.710	130.563	126.960	-72.171	-67.699	-66.975	-62.836	30.097	-63.736	-8191	255	
1525.960	1	1	0	0	0.13589	0.16338	0.17248	0.072708	0.0035057	0.17192	0.20255	0.065828	0.086465	0.11502	0.14938	0.2677	0.26427	0.11604	0.10677	0.10653	-0.84583	-0.57292	-0.70208	-1.4562	-0.31875	-1.1208	-1.1292	-0.68125	-1.3937	-0.49375	-0.98333	-1.3813	-0.375	-1.3958	-0.96458	-0.50208	17.928	76.188	201.097	-22.105	251.644	78.881	-49.948	-58.608	175.768	179.350	87.928	198.686	20.682	206.847	134.534	234.630	0.00019573	0.00062807	0.00026875	1368.5	5.328e-06	3.9202e-06	1373.2	367.92	5.7731e-06	1.7165e-06	419.83	140.48	122.34	41.857	6.8742e-06	52.306	0.00053013	0.00059069	0.00016549	1383.1	5.7626e-06	6.5464e-06	1387.7	373.4	5.9353e-06	6.5941e-06	428.82	143.63	124.33	43.33	6.4766e-06	53.174	-65.216	-49.855	-53.534	-76.473	79.131	82.266	-76.283	-71.571	57.273	-25.737	-72.346	-67.537	-67.030	-62.797	28.031	-63.449	-8191	255	
1526.055	1	1	0	0	0.077852	0.16027	0.10251	0.13851	0.35662	0.044468	0.46661	0.25581	0.16352	0.027897	0.26242	0.21859	0.13474	0.042068	0.24227	0.39567	-0.97708	-0.61458	-0.65833	-1.3833	-0.4125	-1.1833	-1.2604	-0.78333	-1.425	-0.65	-0.83333	-1.2542	-0.525	-1.2313	-1.0604	-0.61042	-21.742	112.167	44.960	20.471	188.803	-3.184	170.272	-84.998	-38.772	93.274	204.367	-78.716	258.545	50.568	-71.599	192.463	0.00025471	0.00053146	0.00018581	1367.8	5.0676e-06	4.9969e-06	1365.5	368.71	4.6027e-06	3.6008e-06	420.53	140.89	121.74	41.845	6.8351e-06	52.083	0.00054368	0.00060851	0.00015882	1382.3	5.9759e-06	6.6358e-06	1381.8	373.5	6.1121e-06	6.6815e-06	428.14	143.39	124.52	43.23	6.2866e-06	52.969	-80.605	37.458	-3.889	-76.541	83.091	57.617	-76.455	-71.780	59.733	243.210	-72.097	-67.611	-67.221	-62.957	20.191	-63.834	-8191	255	
1526.175	1	1	0	0	0.28446	0.19296	0.13484	0.16709	0.30834	0.059003	0.087439	0.30338	0.037154	0.23105	0.14049	0.11237	0.14431	0.35647	0.18461	0.074167	-0.87917	-0.69375	-0.66042	-1.4271	-0.57292	-0.96875	-1.3667	-0.51042	-1.4312	-1.0396	-0.92292	-1.5938	-0.68958	-1.0083	-1.3479	-0.63333	71.950	82.049	-79.696	123.952	71.180	197.642	79.298	-77.941	64.486	118.438	103.727	258.661	133.837	206.592	-30.165	125.530	0.00026451	0.00052791	0.00016119	1370.5	4.1e-06	6.6465e-06	1364.3	367.59	7.8629e-06	9.5247e-07	421.26	139.89	121.88	41.962	8.2131e-06	52.14	0.00056749	0.00060408	0.00015486	1379.5	6.2431e-06	6.4322e-06	1381.5	372.38	6.3255e-06	6.4849e-06	427.25	142.73	125.11	43.176	6.0847e-06	53.051	-73.310	-38.098	9.900	-76.478	191.411	128.771	-76.236	-71.566	198.815	54.779	-72.410	-67.683	-66.953	-62.685	-35.714	-63.443	-8191	255	
1526.271	1	1	0	0	0.083414	0.066428	0.25671	0.14767	0.16871	0.10077	0.38703	0.099106	0.047238	0.2497	0.26691	0.3001	0.18721	0.092929	0.28111	0.24848	-1.0271	-0.76875	-0.45208	-1.4667	-0.33333	-1.0063	-1.3729	-0.35208	-1.2896	-0.87083	-0.58542	-1.3271	-0.7625	-0.84792	-1.4688	-0.40208	258.236	221.853	-13.946	227.849	2.952	152.429	223.007	66.357	-62.250	-42.882	207.637	253.097	248.716	255.639	117.176	238.275	0.00030024	0.00033021	0.00018769	1361.7	4.9275e-06	6.4295e-06	1363.5	368.88	7.5558e-06	6.0505e-06	421.71	140.04	122.27	41.868	3.4911e-06	51.895	0.0005806	0.00057702	0.0001497	1377	6.4814e-06	6.195e-06	1379.3	373.05	6.4339e-06	6.2334e-06	426.3	143.08	125.43	42.97	5.8581e-06	53.031	263.660	-59.943	-74.545	-76.231	32.517	-37.306	-76.270	-71.612	196.288	11.357	-72.060	-67.643	-67.271	-62.833	-9.916	-63.695	-8191	255	
1526.367	1	1	0	0	0.29782	0.18344	0.15156	0.3058	0.25393	0.26206	0.29467	0.29899	0.075598	0.13572	0.18076	0.17884	0.34729	0.32434	0.043968	0.24938	-0.8625	-0.91458	-0.28958	-1.425	-0.59792	-0.67917	-1.55	-0.69375	-1.1125	-0.96667	-0.55625	-1.3979	-0.89792	-0.94792	-1.3	-0.40417	-27.597	164.242	-45.224	237.803	-35.099	-59.975	136.932	189.899	147.391	-58.335	257.227	266.508	244.753	229.137	200.227	192.744	0.00030076	0.00059061	0.00013825	1365	8.5014e-06	2.6998e-06	1365.3	367.9	7.2375e-07	5.3545e-06	421.75	139.51	122.05	41.821	6.1272e-06	52.177	0.00058292	0.00055976	0.00014437	1379.2	6.4472e-06	5.9816e-06	1378.9	373.82	6.4067e-06	6.1056e-06	425.5	143.52	125.6	42.958	5.7551e-06	53.362	-80.916	-16.135	3.431	-76.139	-84.272	31.078	-76.392	-71.799	252.945	12.860	-72.343	-67.579	-67.016	-62.769	6.620	-63.541	-8191	255	
1526.464	1	1	0	0	0.25679	0.074134	0.15177	0.41467	0.28609	0.12583	0.23268	0.13376	0.20277	0.13224	0.19494	0.13454	0.31308	0.28058	0.13941	0.12694	-0.67083	-1.1167	-0.34583	-1.5396	-0.95417	-0.63125	-1.6896	-0.63125	-0.98542	-1.3104	-0.61458	-1.3479	-1.0063	-0.68125	-1.4604	-0.68542	219.869	255.966	-12.293	231.713	150.132	91.686	-89.221	242.026	-80.406	146.307	185.241	207.993	215.151	219.101	99.565	269.009	0.00027382	0.00063738	9.2751e-05	1365	3.0912e-06	5.5625e-07	1365.4	368.28	2.1423e-06	4.8877e-06	419.97	140.34	122.18	42.065	7.7471e-06	51.832	0.00057617	0.00055326	0.00014275	1383	6.4109e-06	5.9079e-06	1375.7	375.05	6.2949e-06	5.9851e-06	425.27	144.08	125.13	42.921	5.7789e-06	53.459	-59.554	-27.315	250.944	-76.140	-2.298	-34.709	-76.407	-71.706	-11.591	63.949	-72.305	-67.625	-66.957	-62.978	102.502	-63.950	-8191	255	
1526.535	1	1	0	0	0.19532	0.12038	0.070727	0.28192	0.1322	0.23915	0.30964	0.14906	0.11078	0.20865	0.27873	0.087155	0.21127	0.10761	0.20456	0.52622	-0.64375	-1.2521	-0.47083	-1.325	-0.97917	-0.43958	-1.6542	-0.85417	-0.75625	-1.3917	-0.6625	-1.1896	-1.2729	-0.50833	-1.45	-1.0833	-62.191	219.013	-34.825	205.803	125.429	216.546	227.814	217.512	249.887	-71.278	-39.316	-72.966	62.677	197.021	119.640	152.018	0.00013305	0.0006017	6.1639e-05	1362.1	2.9725e-06	7.0474e-06	1370	368.21	5.7592e-06	2.3944e-06	420.48	140.49	121.8	42.097	4.8314e-06	52.281	0.00055728	0.00053672	0.00014542	1385.1	6.1677e-06	5.7291e-06	1377.4	375.32	6.0639e-06	5.8122e-06	427.16	144.09	124.52	42.837	5.9793e-06	53.604	-35.554	-59.337	-50.538	-76.195	-4.588	84.203	-76.301	-71.777	77.266	22.048	-72.392	-67.540	-67.020	-62.831	39.820	-63.195	-8191	255	
1526.656	1	1	0	0	0.23261	0.14585	0.082834	0.36598	0.26415	0.16738	0.059923	0.37551	0.090623	0.2137	0.030697	0.45175	0.34107	0.14193	0.21763	0.15717	-0.40625	-1.4479	-0.53333	-1.2417	-1.0792	-0.59583	-1.3875	-0.99583	-0.7	-1.4646	-0.64375	-1.2354	-1.3667	-0.4625	-1.1208	-1.0917	207.577	209.316	150.946	247.094	173.016	32.357	258.999	175.755	-30.187	-66.491	-88.718	-50.502	269.606	262.295	131.655	116.234	0.00016397	0.00055983	0.00014557	1366.5	6.0681e-06	4.7771e-06	1358.9	368.11	6.0437e-06	6.3993e-06	420.34	140.19	121.98	41.939	1.1849e-06	51.844	0.00054114	0.00052123	0.00015287	1384.8	6.0548e-06	5.5055e-06	1379.4	375.04	5.9086e-06	5.6494e-06	427.58	143.82	124.38	42.718	6.2781e-06	53.485	-55.853	-1.052	58.186	-76.317	-45.484	-6.341	-76.331	-71.520	-56.138	36.972	-72.151	-67.595	-67.137	-62.907	202.570	-63.589	-8191	255	
1526.752	1	1	0	0	0.33721	0.090185	0.041538	0.16496	0.21965	0.13013	0.23232	0.36398	0.12415	0.29483	0.079648	0.14258	0.07022	0.46953	0.098776	0.22035	-0.22292	-1.1833	-0.6625	-1.1542	-1.325	-0.43542	-1.5292	-0.97292	-0.50417	-1.3854	-0.70208	-1.0688	-1.2854	-0.625	-1.2958	-1.0792	191.771	244.510	216.277	261.727	109.059	248.719	245.141	201.514	-28.398	-27.955	94.761	198.042	266.306	233.917	159.607	-3.150	0.00021323	0.00018435	0.00014456	1365.3	6.2304e-06	3.1605e-06	1362.7	367.29	3.7811e-06	5.4649e-06	419.88	140.28	121.75	41.977	5.1718e-06	52.35	0.00053101	0.00051896	0.00016117	1382.5	5.9453e-06	5.6141e-06	1383.4	374.29	5.8274e-06	5.7699e-06	428.72	143.51	124.29	42.868	6.5458e-06	53.424	-75.197	2.177	-31.463	-76.300	-17.240	79.014	-76.120	-71.541	1.268	185.186	-72.085	-67.614	-66.923	-62.887	231.615	-63.632	-8191	255	
1526.848	1	1	0	0	0.3379	0.091151	0.15238	0.33882	0.19526	0.086599	0.37823	0.060506	0.084638	0.033581	0.19358	0.165	0.22851	0.31591	0.12469	0.33053	-0.36667	-1.4208	-0.45417	-0.87083	-1.4125	-0.43125	-1.3167	-1.2104	-0.36042	-1.2458	-0.91667	-0.85208	-1.4688	-0.62708	-1.2188	-1.3375	55.048	113.501	22.823	-73.114	168.150	35.959	188.527	205.905	10.321	96.195	-39.635	217.627	-12.047	246.925	80.734	212.255	0.00018249	0.00016938	3.9641e-05	1369.1	5.2986e-06	6.3552e-06	1372.7	368.14	3.7324e-06	5.1399e-06	420.63	140.81	122.07	41.998	3.9665e-06	52.465	0.0005232	0.0005411	0.00016823	1382.7	5.8229e-06	5.9457e-06	1388.7	374.34	5.658e-06	6.0689e-06	429.44	143.56	124.06	43.114	6.4161e-06	53.359	260.169	-34.280	-39.187	-76.175	-78.694	47.427	-76.279	-71.826	17.951	20.258	-72.295	-67.590	-67.179	-62.796	39.404	-63.547	-8191	255	
1526.944	1	1	0	0	0.24226	0.35414	0.2683	0.28812	0.066371	0.28218	0.28939	0.21212	0.025581	0.070828	0.14958	0.34125	0.56863	0.013949	0.19231	0.33933	-0.045833	-1.4729	-0.86042	-0.7875	-1.2021	-0.61667	-1.1125	-1.3979	-0.2625	-1.3479	-1.0812	-0.7	-1.325	-0.67083	-0.89583	-1.3896	242.899	94.753	237.563	270.386	49.503	72.513	206.299	188.392	134.692	244.086	189.463	-81.479	217.235	-23.141	-54.415	114.071	0.00015505	2.4388e-05	4.5205e-05	1363.7	7.357e-06	4.0893e-06	1369.1	369.08	4.4275e-06	1.2846e-06	420.83	140.37	121.66	41.745	1.3733e-06	52.313	0.00050459	0.00056184	0.00016416	1380.2	5.6531e-06	6.2105e-06	1383.3	373.69	5.5043e-06	6.3044e-06	428.67	143.03	123.83	43.128	6.2278e-06	53.218	257.669	77.887	57.211	-76.267	4.579	232.394	-76.312	-71.450	64.813	177.400	-72.346	-67.472	-66.881	-62.763	-88.806	-63.528	-8191	255	
1527.063	1	1	0	0	0.22733	0.18133	0.3999	0.10029	0.24278	0.12907	0.29987	0.18675	0.38552	0.032215	0.30432	0.1418	0.10774	0.26408	0.33686	0.23016	0.0041667	-1.3104	-1.0146	-0.67917	-1.3188	-0.71042	-0.92292	-1.3875	-0.43958	-1.225	-1.0917	-0.58958	-1.4562	-0.84375	-0.79167	-1.2083	183.259	198.127	109.617	-49.433	236.399	18.094	237.693	269.108	-52.190	-61.391	189.192	-25.110	205.483	256.007	-52.339	221.549	0.00024426	0.00040989	0.00017907	1365.7	1.0298e-06	4.8203e-06	1365	368.25	1.1422e-06	5.9297e-06	420.87	139.68	121.71	42.007	6.012e-06	52.085	0.00051289	0.00058406	0.00015974	1377.3	5.7568e-06	6.4786e-06	1380.6	373.79	5.7925e-06	6.5074e-06	427.71	142.74	124.44	43.321	6.1446e-06	53.091	-50.749	-7.540	7.557	-76.349	-8.355	147.069	-76.447	-71.843	194.630	204.400	-72.531	-67.553	-67.289	-62.865	54.485	-63.587	-8191	255	
1527.137	1	1	0	0	0.23569	0.49899	0.22647	0.23792	0.20715	0.29894	0.10583	0.38981	0.16011	0.22311	0.27163	0.11557	0.1181	0.033257	0.21303	0.16158	-0.064583	-1.2125	-1.2083	-0.45417	-1.5667	-0.84167	-1.0396	-1.7083	-0.45417	-1.1583	-1.3833	-0.75208	-1.3854	-0.85417	-0.58958	-1.6167	45.620	209.165	48.663	-62.639	157.346	205.399	109.904	234.793	59.383	129.134	267.873	258.410	-75.539	-10.263	-45.983	236.842	0.00021821	0.00010063	0.00011264	1367.6	5.9418e-06	8.5176e-06	1369.8	369.09	3.8696e-06	1.8691e-06	420.6	140.26	121.87	41.949	5.3309e-06	51.978	0.00054534	0.00059905	0.00015759	1376.3	6.1682e-06	6.5896e-06	1383.3	373.38	6.1875e-06	6.5232e-06	428.36	142.66	125.2	43.288	6.0805e-06	53.057	-80.187	-72.913	-18.032	-76.252	209.847	98.650	-76.480	-71.881	177.867	69.643	-72.348	-67.494	-67.115	-62.886	39.361	-63.724	-8191	255	
1527.256	1	1	0	0	0.11363	0.33444	0.011184	0.17008	0.1306	0.091177	0.19713	0.30366	0.15928	0.076991	0.078618	0.10241	0.08527	0.23666	0.12172	0.18194	0.11042	-0.80625	-1.075	-0.68125	-1.3312	-0.87917	-0.5625	-1.7292	-0.37292	-0.90208	-1.2938	-0.42708	-1.1583	-1.1625	-0.44375	-1.5604	87.140	85.174	198.686	221.302	-31.299	-65.887	-63.213	253.618	174.794	169.076	240.115	247.663	110.408	202.928	31.481	127.268	0.00022404	0.00032055	0.00019843	1370.5	1.461e-06	5.9919e-06	1364.9	368.1	4.9729e-06	4.3372e-06	420.86	139.89	122.08	41.703	5.9181e-06	52.066	0.00057741	0.00058377	0.00015545	1378.8	6.3876e-06	6.4513e-06	1382.1	373.51	6.5332e-06	6.3463e-06	427.5	142.98	125.73	43.177	5.911e-06	53.193	265.860	-71.411	46.218	-76.514	169.887	50.753	-76.329	-71.670	188.421	11.799	-72.282	-67.888	-67.149	-63.015	118.561	-63.672	-8191	255	
1527.352	1	1	0	0	0.33328	0.23593	0.050196	0.1841	0.28217	0.2014	0.2916	0.23069	0.14573	0.2253	0.044762	0.4444	0.075147	0.042482	0.097899	0.22284	-0.225	-0.95	-1.2167	-0.73958	-1.0917	-1	-0.39167	-1.5729	-0.56042	-0.925	-1.6208	-0.71042	-1.2812	-1.3167	-0.52917	-1.6042	20.385	43.919	-57.098	-62.707	238.693	120.234	-54.091	-52.478	109.824	-26.384	204.835	233.059	-60.053	264.455	237.278	216.764	0.00015934	0.00094918	0.00035628	1362.4	2.9532e-06	5.1065e-06	1370.6	368.09	1.7732e-06	9.5865e-06	422.45	140.4	121.96	42.069	4.8584e-06	51.965	0.00059346	0.00056672	0.00015064	1378.4	6.5785e-06	6.2953e-06	1379.7	374.22	6.6557e-06	6.2002e-06	427.69	143.66	125.66	43.151	5.7943e-06	53.525	262.018	-17.850	-35.247	-76.441	72.359	54.984	-76.263	-71.748	161.796	22.414	-72.381	-67.561	-66.975	-63.054	97.828	-63.656	-8191	255	
1527.448	1	1	0	0	0.083138	0.18989	0.10094	0.27494	0.32451	0.058928	0.10538	0.28565	0.10337	0.21463	0.44683	0.15517	0.30301	0.088344	0.26644	0.25396	-0.34583	-0.62917	-1.15	-0.72292	-1.0292	-1.2458	-0.68333	-1.5438	-0.85	-0.68542	-1.4	-0.75625	-1.0229	-1.0938	-0.43542	-1.2604	168.567	222.966	-1.545	152.579	-62.936	220.573	184.620	196.994	-56.504	-80.320	243.684	228.521	-62.995	244.091	68.550	216.000	0.00022345	0.00038709	0.00014595	1366.1	6.805e-06	4.3081e-06	1369.2	368.36	4.3952e-06	1.8566e-06	420.94	140.4	123.07	42.069	3.6048e-06	52.132	0.00060242	0.00056519	0.00015044	1384.4	6.5786e-06	6.2758e-06	1381.2	375.81	6.6396e-06	6.1577e-06	426.86	144.28	126.07	43.191	5.8874e-06	53.746	-53.036	-47.655	10.850	-76.485	-51.720	103.135	-76.468	-71.822	24.378	-10.336	-72.283	-67.769	-66.710	-62.845	102.309	-63.704	-8191	255	
1527.544	1	1	0	0	0.23783	0.135	0.084079	0.30327	0.13074	0.39795	0.4733	0.36523	0.23142	0.089308	0.27983	0.10477	0.35633	0.19849	0.051737	0.17201	-0.69792	-0.44792	-1.0917	-0.7125	-0.87292	-1.1333	-0.59792	-1.4854	-0.99583	-0.63125	-1.4917	-0.5875	-0.95208	-1.3729	-0.41875	-1.1646	225.728	245.053	201.169	-47.924	25.945	16.021	163.941	237.555	-59.401	166.280	254.840	69.269	-72.537	0.038	-12.459	83.892	0.000268	0.00019981	5.2154e-05	1368.2	7.1261e-06	4.3469e-06	1372.6	368.5	4.4423e-06	4.5891e-06	421.22	140.34	122.58	42.098	4.1976e-06	52.567	0.00059951	0.00056332	0.00015321	1391.5	6.5122e-06	6.2113e-06	1387.4	377.1	6.6292e-06	6.1332e-06	428.95	145.11	125.58	43.27	6.2309e-06	54.067	-66.294	-34.990	129.273	-76.470	-9.769	65.922	-76.423	-71.550	53.701	31.264	-72.144	-67.764	-67.192	-62.904	53.077	-63.703	-8191	255	
1527.665	1	1	0	0	0.18583	0.19089	0.29939	0.38023	0.33723	0.034137	0.41247	0.18237	0.3445	0.28837	0.32991	0.2351	0.26858	0.20402	0.23461	0.26511	-0.53333	-0.47708	-1.4896	-0.78542	-0.70833	-1.3646	-0.63125	-1.2458	-1.2062	-0.64583	-1.2687	-0.85625	-0.8625	-1.4604	-0.49792	-1.1021	110.976	-21.017	155.082	257.677	-55.496	150.244	217.724	178.401	165.202	-43.519	232.286	-20.400	-62.208	-42.731	161.235	-63.712	8.1552e-05	0.00037408	0.00011139	1371.8	7.4941e-06	3.2109e-06	1371.9	369.95	7.237e-06	4.5233e-06	421.29	140.07	122.58	42.081	5.5887e-06	52.367	0.00059383	0.00055922	0.00016185	1395.6	6.4559e-06	6.1995e-06	1390	377.62	6.6088e-06	6.0602e-06	430.44	145.45	125.62	43.191	6.7495e-06	54.04	240.647	-37.827	112.607	-76.347	15.984	-81.897	-76.377	-71.837	31.186	-12.334	-72.330	-67.629	-67.096	-62.764	101.948	-63.693	-8191	255	
1527.761	1	1	0	0	0.31589	0.17856	0.17685	0.21139	0.22701	0.1881	0.047772	0.1177	0.20682	0.043193	0.25582	0.23359	0.17689	0.30992	0.13662	0.18436	-0.72292	-0.51875	-1.2812	-0.94375	-0.58958	-1.3604	-0.64375	-1.2792	-1.2458	-0.49167	-1.3188	-1.1521	-0.58542	-1.5979	-0.5125	-1.0625	108.985	20.646	87.378	-65.189	7.151	5.049	-5.690	223.795	109.991	116.393	220.807	-59.408	246.033	-69.450	-52.423	54.458	0.00012067	0.00095996	5.378e-05	1373.9	4.7441e-06	4.1103e-06	1372.8	370.1	4.8152e-06	5.8694e-06	422.18	140.15	122.29	42.12	1.4373e-06	52.112	0.00059696	0.00055788	0.00017214	1398.7	6.4671e-06	6.1874e-06	1394.5	378.09	6.586e-06	6.1026e-06	432.61	145.15	125.71	43.285	7.0126e-06	53.82	-50.378	-16.846	80.028	-76.392	112.609	172.026	-76.474	-71.751	99.605	73.206	-72.446	-67.638	-67.239	-62.685	25.735	-63.601	-8191	255	
1527.832	1	1	0	0	0.16708	0.23222	0.16587	0.21712	0.32156	0.27505	0.1447	0.099819	0.1797	0.2251	0.18886	0.27021	0.32997	0.27204	0.026837	0.16033	-0.9375	-0.41042	-1.3312	-1.1812	-0.40625	-1.3229	-0.99583	-0.85833	-1.3521	-0.45208	-1.1354	-1.1271	-0.56458	-1.3667	-0.64792	-0.80625	59.797	83.746	35.895	213.882	11.233	181.744	55.291	-69.300	-22.427	71.372	-59.730	-84.077	240.526	160.670	106.676	180.222	9.4085e-05	0.00012185	0.00022766	1372	2.2182e-06	2.5549e-06	1376.7	369.82	4.5198e-06	3.3829e-06	422.97	141.01	123.42	42.004	5.3982e-06	52.317	0.00058161	0.0005581	0.0001767	1393.9	6.1591e-06	6.1763e-06	1397.2	376.51	6.1784e-06	6.1767e-06	432.93	144.55	125.13	43.322	6.9161e-06	53.696	-40.429	173.092	35.213	-76.482	177.826	188.636	-76.388	-71.727	11.516	112.870	-72.399	-67.795	-67.153	-62.808	-7.162	-63.549	-8191	255	
1527.953	1	1	0	0	0.041133	0.31094	0.15463	0.30731	0.090645	0.060077	0.16939	0.21908	0.43371	0.31501	0.21938	0.10121	0.21794	0.27826	0.20093	0.12779	-0.975	-0.47917	-1.0312	-1.3146	-0.3625	-1.2833	-0.91875	-0.875	-1.4333	-0.40208	-1.1562	-1.1396	-0.42708	-1.5208	-0.89375	-0.81875	26.588	125.353	-8.750	191.735	229.890	121.614	205.374	254.321	142.206	55.075	180.896	257.313	236.509	211.379	80.853	171.741	0.00022643	0.00022468	0.00024822	1372	9.936e-06	1.6788e-06	1371.8	369.7	5.4227e-06	1.3055e-06	423.5	140.4	122.6	42.36	2.768e-06	52.313	0.00055231	0.00057342	0.00017222	1392.4	5.897e-06	6.3555e-06	1394.3	375.63	5.8845e-06	6.4026e-06	431.51	143.98	124.29	43.458	6.6337e-06	53.492	-81.456	67.160	-69.737	-76.462	11.010	93.539	-76.153	-71.798	-66.622	136.050	-72.160	-67.914	-67.095	-62.834	-23.231	-63.338	-8191	255	
1528.048	1	1	0	0	0.10399	0.19166	0.12874	0.12375	0.20793	0.064127	0.35117	0.12424	0.13369	0.1123	0.13828	0.07485	0.28561	0.36947	0.27671	0.24606	-0.85	-0.50417	-0.90625	-1.4417	-0.26667	-1.2833	-1.1083	-0.76875	-1.1771	-0.70417	-1.1042	-1.4708	-0.26667	-1.3563	-0.98125	-0.46042	183.643	230.332	-56.487	178.293	210.007	230.308	159.732	183.593	-14.718	-17.730	-71.762	206.987	254.635	68.711	240.678	259.607	0.00013674	0.00037718	0.00015626	1375.2	7.2116e-06	3.6136e-06	1369.8	368.35	1.8545e-06	1.8153e-06	422.27	140.45	121.47	41.985	4.2278e-06	52.009	0.00052585	0.00059278	0.00016341	1388.4	5.7093e-06	6.487e-06	1390.5	373.94	5.7896e-06	6.573e-06	428.49	143.32	124.13	43.29	6.3536e-06	53.148	265.867	221.507	-38.864	-76.359	-23.150	267.703	-76.419	-71.550	-62.608	133.743	-72.162	-67.761	-66.977	-63.044	270.282	-63.332	-8191	255	
1528.144	1	1	0	0	0.11658	0.050064	0.1085	0.17337	0.12093	0.090927	0.31663	0.26481	0.12948	0.081094	0.41173	0.093337	0.14309	0.21143	0.075882	0.20904	-0.98958	-0.28958	-0.67917	-1.5688	-0.34167	-1.0125	-1.0854	-0.78333	-1.3083	-0.71667	-0.69167	-1.4646	-0.73958	-1.0604	-0.83542	-0.45417	234.656	47.209	148.961	235.020	81.823	-41.151	190.813	132.091	174.635	57.618	-88.333	-30.276	212.322	237.958	194.904	113.776	0.00020175	0.00047351	0.00023462	1369.9	3.6441e-06	5.3909e-06	1363.1	369.18	7.3023e-07	9.5516e-07	419.43	139.82	121.54	42.027	1.4591e-06	52.144	0.00053365	0.0005975	0.00015434	1379.6	5.8445e-06	6.4308e-06	1380.8	373.12	5.9128e-06	6.4323e-06	427.15	142.73	124.24	43.219	6.1486e-06	52.961	-76.080	-1.666	-7.011	-76.416	20.681	100.413	-76.475	-71.534	31.237	-34.541	-72.377	-67.533	-67.154	-62.896	4.883	-63.384	-8191	255	
1528.240	1	1	0	0	0.17775	0.26808	0.24328	0.36462	0.11711	0.22582	0.10952	0.12199	0.10126	0.20289	0.43788	0.12478	0.11855	0.01253	0.14374	0.26587	-0.85625	-0.71667	-0.48333	-1.6875	-0.51458	-0.97292	-1.3271	-0.56458	-1.2708	-0.91458	-0.73542	-1.5208	-0.57083	-0.90417	-1.2125	-0.54167	196.925	115.878	187.407	218.554	130.734	261.230	151.333	253.649	-0.754	-67.535	205.682	-49.749	-39.524	-3.414	161.596	206.045	0.00012734	0.00016919	5.5142e-05	1363.4	2.9456e-06	5.4838e-06	1368.7	368.02	4.9833e-06	3.6517e-06	421.69	139.86	120.82	41.949	9.4883e-06	52.026	0.00055897	0.00059559	0.00015347	1377.4	6.21e-06	6.4152e-06	1382.7	372.84	6.3202e-06	6.4286e-06	427.31	142.72	124.91	43.208	6.0613e-06	53.03	-89.020	-38.245	-7.954	-76.428	181.298	14.532	-76.400	-71.642	19.736	123.517	-72.084	-67.624	-67.094	-62.747	19.999	-63.660	-8191	255	
1528.360	1	1	0	0	0.13256	0.13008	0.1467	0.1381	0.09792	0.21137	0.16161	0.10349	0.16253	0.19367	0.2369	0.08413	0.4392	0.28581	0.092789	0.31352	-0.89583	-1.0146	-0.2875	-1.5625	-0.57917	-0.99792	-1.6271	-0.525	-1	-1.0521	-0.69375	-1.6313	-0.57917	-0.85833	-1.2	-0.78125	178.130	-63.249	-32.372	240.783	-47.846	103.566	140.008	243.346	-82.107	25.131	258.230	113.085	158.398	-35.293	260.057	197.256	0.00025377	0.00058673	0.00012819	1367.4	8.137e-07	7.257e-06	1370.6	369.27	8.1093e-06	5.6946e-06	420.66	139.98	122.57	42.097	5.1168e-06	52.022	0.00058203	0.00057931	0.00015029	1380.9	6.4891e-06	6.1983e-06	1383.5	373.47	6.5121e-06	6.2682e-06	426.25	142.98	125.82	43.19	5.9165e-06	53.266	-55.350	-21.154	-39.433	-76.450	78.900	55.956	-76.339	-71.595	-50.883	42.702	-72.100	-67.667	-67.136	-62.896	-6.816	-63.727	-8191	255	
1528.432	1	1	0	0	0.20954	0.010753	0.031355	0.092364	0.12751	0.040554	0.29836	0.2264	0.12608	0.20059	0.30805	0.42799	0.068696	0.23888	0.16596	0.18197	-0.73958	-0.7625	-0.31042	-1.5542	-0.71458	-0.6625	-1.4958	-0.63333	-1.1875	-1.0812	-0.50208	-1.4542	-0.775	-0.78125	-1.4083	-0.625	5.060	-18.641	205.370	235.677	-78.311	93.563	217.462	243.313	56.711	140.842	233.454	178.863	194.400	225.825	-41.088	183.326	0.00023878	0.00045384	7.6884e-05	1367	4.7585e-06	4.7286e-06	1367.3	368.04	1.8631e-06	2.3589e-06	420.98	140.16	121.83	42.021	7.5659e-06	52.127	0.00059125	0.00056776	0.00014486	1382.7	6.539e-06	6.0739e-06	1380.1	374.51	6.402e-06	6.0925e-06	425.35	143.88	125.52	43.097	5.7683e-06	53.502	260.215	-50.679	-3.172	-76.464	10.584	11.505	-76.413	-71.966	243.967	29.677	-72.207	-67.540	-67.331	-62.956	-10.383	-63.486	-8191	255	
1528.528	1	1	0	0	0.25579	0.12742	0.26713	0.1367	0.099323	0.078774	0.24699	0.21879	0.069214	0.031882	0.32233	0.28098	0.03913	0.14239	0.18182	0.15047	-0.67292	-1.25	-0.26875	-1.45	-0.9625	-0.43333	-1.5	-0.90625	-1.2917	-1.3333	-0.61875	-1.3062	-0.89792	-0.6875	-1.375	-0.6375	2.263	1.859	188.420	186.837	262.422	68.217	-50.614	166.878	-71.547	24.480	247.459	233.726	204.966	252.406	-9.604	264.823	0.00024738	0.00018726	0.00011756	1369.3	7.7962e-06	8.333e-06	1366.6	369.93	4.1968e-06	5.7535e-06	419.61	140.46	122.04	41.971	1.6711e-06	52.264	0.00057576	0.00055264	0.00014218	1385.5	6.385e-06	5.8994e-06	1377.2	375.4	6.2545e-06	5.9631e-06	425.3	143.99	125.03	42.952	5.7853e-06	53.62	-49.088	-21.297	197.869	-76.284	1.393	53.021	-76.117	-71.785	40.800	49.844	-72.313	-67.521	-67.389	-63.078	198.297	-63.629	-8191	255	
1528.624	1	1	0	0	0.10784	0.13017	0.26062	0.21192	0.15944	0.28474	0.29548	0.36443	0.1102	0.26454	0.079644	0.30341	0.22713	0.33456	0.28099	0.074787	-0.47917	-1.2687	-0.46875	-1.1854	-0.96458	-0.56458	-1.5042	-0.93333	-0.82708	-1.2604	-0.67083	-1.3625	-1.1417	-0.42083	-1.4312	-0.94583	-43.865	-33.820	47.146	206.202	-86.426	32.150	253.527	229.711	70.392	41.205	-23.960	250.508	-71.369	264.575	114.321	-30.238	0.0001842	0.00039099	0.0001018	1369.8	6.212e-06	4.4268e-06	1364.1	367.42	4.0686e-06	7.3925e-06	419.03	140.76	121.86	42.153	2.736e-06	52.223	0.00055564	0.00053362	0.00014629	1385	6.1545e-06	5.6767e-06	1377.7	375.1	5.9993e-06	5.7704e-06	426.16	143.88	124.5	42.759	5.9857e-06	53.579	227.649	-21.565	82.351	-76.352	-7.510	18.925	-76.210	-71.828	34.183	99.838	-72.132	-67.549	-67.135	-62.746	18.239	-63.715	-8191	255	
1528.745	1	1	0	0	0.1711	0.1365	0.15442	0.045625	0.22014	0.11825	0.41176	0.36006	0.16058	0.28903	0.15183	0.18762	0.055583	0.15781	0.27013	0.17257	-0.46667	-1.3417	-0.78125	-1.2	-1.2625	-0.66458	-1.4937	-0.85208	-0.74583	-1.3479	-0.76875	-1.0958	-1.1375	-0.63333	-1.1854	-0.90417	79.419	52.736	140.705	-69.096	91.741	81.228	203.795	222.800	-46.560	-56.103	201.276	243.417	-36.480	-53.917	-41.125	192.233	0.00012363	0.00013729	6.9536e-05	1361.1	4.61e-06	5.7133e-06	1365.2	368.57	2.4764e-06	5.8505e-06	419.7	139.32	122.37	42	3.7238e-06	52.237	0.00053792	0.00051711	0.0001538	1381.6	6.0272e-06	5.5433e-06	1380.7	375.37	5.8916e-06	5.6696e-06	427.24	143.46	124.46	42.757	6.2638e-06	53.429	-88.006	57.302	201.505	-76.218	91.849	61.898	-76.120	-71.461	197.023	34.119	-72.180	-67.323	-67.271	-62.750	157.765	-63.792	-8191	255	
1528.841	1	1	0	0	0.1676	0.18696	0.26158	0.37146	0.14964	0.063134	0.15829	0.059303	0.36589	0.18554	0.27828	0.11475	0.030658	0.27432	0.10299	0.24139	-0.275	-1.2042	-0.54792	-0.9125	-1.1896	-0.53125	-1.5458	-1.1063	-0.61875	-1.4937	-0.74583	-1.1083	-1.3312	-0.57083	-1.2833	-1.0229	145.213	2.461	55.934	220.829	-26.958	-8.290	179.915	244.469	260.497	96.925	134.931	75.483	-66.407	-68.482	70.126	243.173	0.00021583	0.00033347	3.3634e-05	1364	6.2762e-06	2.4309e-06	1364.1	368.2	1.4037e-06	4.6425e-06	419.94	140.01	121.3	42.014	2.6968e-06	52.091	0.00052913	0.00051485	0.00016158	1378.5	5.8468e-06	5.5614e-06	1382.1	374.07	5.7334e-06	5.7034e-06	427.84	143.09	123.64	42.823	6.4382e-06	53.22	-69.935	-28.259	-5.761	-76.199	121.143	139.331	-76.205	-71.779	206.907	145.617	-72.180	-67.521	-67.150	-62.902	169.997	-63.432	-8191	255	
1528.937	1	1	0	0	0.14022	0.252	0.058113	0.19221	0.22398	0.10059	0.3183	0.17108	0.059718	0.048885	0.23827	0.13466	0.14166	0.3052	0.2361	0.23829	0.0041667	-1.3771	-0.62708	-1.1187	-1.2938	-0.49583	-1.0562	-1.2083	-0.56875	-1.4167	-1.0604	-0.78125	-1.4688	-0.73333	-1.0688	-1.1812	71.565	256.181	66.766	-57.270	55.911	203.923	224.122	203.156	61.604	7.076	258.920	-53.331	-68.318	256.434	-42.302	217.710	0.00017586	0.00030381	2.99e-05	1357.1	4.3316e-06	6.7814e-06	1364	367.79	5.6288e-06	7.8678e-06	419.2	139.67	121.77	41.905	4.2453e-06	51.761	0.00051403	0.00052971	0.00016362	1373.1	5.7303e-06	5.8407e-06	1380.4	373.95	5.566e-06	5.9478e-06	428.23	142.85	123.69	42.928	6.3984e-06	53.133	-57.140	202.085	-13.114	-76.392	31.511	55.240	-76.272	-71.625	64.428	41.349	-72.216	-67.308	-67.513	-62.777	50.899	-63.456	-8191	255	
1529.033	1	1	0	0	0.19128	0.11403	0.223	0.11109	0.081712	0.37921	0.16889	0.10335	0.16261	0.20825	0.35152	0.16303	0.21386	0.2103	0.092306	0.2745	-0.075	-1.2646	-0.81667	-0.76042	-1.2687	-0.59792	-1.1979	-1.4917	-0.57708	-1.3104	-1.0042	-0.60208	-1.4896	-0.68542	-0.86667	-1.5979	52.403	5.947	-65.040	223.564	-29.345	30.817	247.043	157.062	-44.343	58.032	230.463	-75.134	102.847	227.060	197.780	-42.036	0.00014724	0.00015612	0.00016328	1360.7	3.6807e-06	6.062e-06	1364.5	367.48	4.7975e-06	4.2974e-06	421.16	140.2	122.22	42.069	9.6546e-06	52.096	0.00050508	0.00055791	0.00016206	1374.1	5.6443e-06	6.1948e-06	1382.2	373.58	5.5415e-06	6.2863e-06	428.52	142.76	123.77	43.184	6.2399e-06	53.175	-29.216	74.492	-64.787	-76.230	-69.068	229.692	-76.206	-71.660	187.254	230.644	-72.543	-67.862	-66.920	-63.044	31.628	-63.674	-8191	255	
1529.128	1	1	0	0	0.2305	0.028138	0.22178	0.17234	0.26991	0.1923	0.25838	0.19902	0.099544	0.26077	0.18427	0.36027	0.1634	0.20903	0.22867	0.16471	-0.11875	-1.4146	-0.83958	-0.76042	-1.4396	-0.75417	-1.0562	-1.4917	-0.54167	-1.1854	-1.2458	-0.68125	-1.6562	-1.0396	-0.78125	-1.5833	-36.238	168.782	141.758	231.743	24.248	157.906	-59.562	192.247	145.258	165.478	26.493	231.743	91.422	147.625	-13.541	207.889	0.00031241	0.00049351	0.00017541	1362.8	4.3574e-06	5.5065e-06	1360.9	367.37	2.7358e-06	7.1588e-06	420.2	139.93	122.19	41.92	1.0349e-05	52.127	0.00050244	0.00057778	0.00015643	1373.3	5.6611e-06	6.3469e-06	1376.1	373.05	5.6352e-06	6.3427e-06	426.49	142.46	123.94	43.205	5.9042e-06	52.978	-71.688	-24.038	5.754	-76.261	72.593	173.398	-76.086	-71.485	-88.632	58.127	-72.457	-67.541	-67.072	-62.783	43.320	-63.377	-8191	255	
1529.226	1	1	0	0	0.10573	0.037997	0.21261	0.23913	0.27072	0.051535	0.075799	0.32862	0.24721	0.12043	0.16603	0.25849	0.090256	0.24812	0.42883	0.093269	-0.066667	-1.2333	-1.0708	-0.67083	-1.4333	-0.75833	-0.90625	-1.5021	-0.69167	-1.0688	-1.3979	-0.60833	-1.3458	-0.9875	-0.58333	-1.3062	-0.100	8.519	133.487	-41.546	177.545	54.338	213.716	211.532	28.599	-71.685	232.605	128.594	220.399	203.372	-63.203	134.974	0.00018641	0.00034594	8.7068e-05	1365.9	6.4668e-06	4.8314e-06	1360.5	368.89	4.3561e-06	7.7755e-06	421.06	139.78	121.22	41.95	7.1752e-06	52.136	0.00052596	0.00057604	0.00015161	1370	5.9099e-06	6.3227e-06	1374.1	372.15	5.9779e-06	6.1991e-06	426.28	141.93	124.4	43.13	5.8536e-06	52.886	267.837	-78.847	-69.502	-76.247	48.981	64.063	-76.203	-71.615	-42.205	69.239	-72.290	-67.511	-67.094	-62.685	23.609	-63.621	-8191	255	
1529.345	1	1	0	0	0.2004	0.1811	0.14409	0.28237	0.2482	0.065055	0.24155	0.10977	0.17484	0.12187	0.2193	0.11915	0.20964	0.16704	0.2316	0.11456	-0.15833	-0.775	-1.1979	-0.52083	-1.2729	-0.90208	-0.73125	-1.5229	-0.48958	-0.73333	-1.2521	-0.48958	-1.1938	-1.2667	-0.42292	-1.4813	-31.540	-8.089	158.679	230.894	-75.856	94.800	-57.811	110.618	255.559	130.767	221.845	-76.301	10.078	16.209	229.404	199.008	0.00031519	0.0005394	0.00010834	1362.6	4.9659e-06	5.8743e-06	1361.5	368.35	1.5949e-06	2.1764e-06	420.1	139.42	121.51	41.961	6.613e-06	52.126	0.00056206	0.00056542	0.0001513	1369.3	6.2499e-06	6.1963e-06	1372.9	372.79	6.3232e-06	6.1522e-06	425.79	142.22	125.07	43.03	5.76e-06	52.998	-83.650	268.604	-12.500	-76.139	75.126	100.320	-76.331	-71.735	165.905	97.983	-72.422	-67.306	-66.997	-62.936	51.349	-63.199	-8191	255	
1529.441	1	1	0	0	0.099668	0.23599	0.14907	0.22926	0.22909	0.44753	0.1652	0.10103	0.25969	0.25155	0.22665	0.12051	0.26692	0.24594	0.20741	0.16718	-0.25417	-0.89375	-1.5562	-0.63958	-1.2271	-0.97083	-0.64375	-1.5875	-0.675	-0.70417	-1.4896	-0.4875	-1.1646	-1.0833	-0.33542	-1.4625	-70.054	-3.119	135.396	-40.016	107.599	198.527	236.975	213.918	130.159	-16.919	150.889	36.311	225.247	179.650	253.667	258.901	0.00017727	0.00012109	0.00011332	1357.2	5.7117e-06	2.0837e-06	1365.7	367.76	2.1715e-06	5.2226e-06	419.38	140.27	121.67	41.981	1.2307e-05	52.087	0.00058537	0.00055622	0.00014918	1371	6.451e-06	6.1103e-06	1371.9	373.33	6.4659e-06	5.9802e-06	424.98	143.05	124.99	43.018	5.5881e-06	53.284	-71.208	-21.583	-2.435	-76.143	245.734	100.505	-76.338	-71.526	-34.790	25.473	-72.139	-67.639	-67.207	-62.802	-13.822	-63.345	-8191	255	
1529.537	1	1	0	0	0.091796	0.011253	0.059179	0.27	0.13175	0.1075	0.23122	0.49402	0.15357	0.046731	0.11793	0.26441	0.24446	0.028378	0.23541	0.20687	-0.40417	-0.83958	-1.4146	-0.7625	-1.1146	-1.1458	-0.54167	-1.25	-0.84375	-0.49167	-1.6896	-0.73333	-0.86875	-1.1958	-0.54792	-1.2833	8.932	-18.183	-85.673	225.293	-10.172	-30.842	207.757	-88.835	-67.990	183.900	191.271	230.196	222.064	33.011	79.710	117.720	0.00016988	0.00038574	0.00027689	1358	2.4871e-06	5.0176e-06	1365.2	367.15	2.2578e-06	6.3909e-06	419.42	140.11	121.55	42.065	2.9644e-06	52.04	0.00058267	0.00054074	0.0001454	1376	6.3006e-06	6.0396e-06	1372.1	373.94	6.3846e-06	5.834e-06	424.59	143.63	124.9	42.954	5.6205e-06	53.452	-75.911	15.838	-21.712	-76.243	238.613	139.343	-76.193	-71.629	66.705	268.044	-72.113	-67.712	-66.968	-62.685	257.917	-63.406	-8191	255	
1529.658	1	1	0	0	0.27242	0.059114	0.15315	0.25305	0.39033	0.13212	0.23799	0.17336	0.32314	0.019352	0.25565	0.1604	0.25724	0.2837	0.16534	0.1654	-0.65	-0.29583	-1.5104	-0.70417	-0.96875	-1.1583	-0.53125	-1.3229	-1.0521	-0.47083	-1.4604	-0.65208	-0.89375	-1.2229	-0.61875	-1.3042	202.939	227.200	-6.763	218.240	241.023	124.256	241.994	216.869	52.483	134.349	233.777	224.226	-50.466	223.590	-58.398	257.269	0.00023045	0.00029043	5.7744e-05	1360.8	2.9945e-06	3.2502e-06	1363.4	366.66	2.6418e-06	6.434e-07	418.16	139.96	121.8	41.801	3.2369e-06	52.039	0.00057156	0.00053286	0.00014491	1379.4	6.1691e-06	5.8834e-06	1372.9	374.94	6.2787e-06	5.7487e-06	425.37	144.01	124.37	42.851	5.8566e-06	53.623	-68.128	-36.374	55.284	-76.384	153.513	-11.215	-76.288	-71.639	185.947	216.955	-71.936	-67.574	-66.835	-62.634	141.577	-63.614	-8191	255	
1529.729	1	1	0	0	0.18479	0.19167	0.20664	0.10971	0.18654	0.0093203	0.46072	0.54896	0.092801	0.12675	0.059188	0.24678	0.050455	0.19636	0.12992	0.1969	-0.4875	-0.23542	-1.3563	-0.96458	-0.69583	-1.3896	-0.58542	-1.3083	-1.0187	-0.45625	-1.5729	-0.79375	-0.74792	-1.5125	-0.49167	-1.2604	-89.111	126.033	9.440	-23.252	224.186	209.718	183.943	243.597	254.997	-3.905	231.827	225.939	-69.460	-83.855	143.651	-82.314	0.00019414	0.00043586	0.00012606	1360.1	6.8821e-06	3.1392e-06	1362.3	367.89	3.8025e-06	4.1928e-06	419.36	139.66	121.27	41.961	9.2465e-07	52.003	0.0005634	0.00052276	0.00015076	1381	6.0019e-06	5.7453e-06	1377.9	374.95	6.0579e-06	5.5617e-06	427.27	143.66	123.8	42.73	6.117e-06	53.402	268.757	-42.544	103.315	-76.265	72.965	85.593	-76.113	-71.484	43.361	31.136	-72.145	-67.421	-66.919	-62.667	176.155	-63.248	-8191	255	
1529.825	1	1	0	0	0.2608	0.16335	0.2948	0.21029	0.20451	0.25131	0.43726	0.10053	0.12271	0.098253	0.056969	0.19214	0.26405	0.042838	0.15493	0.047747	-0.85	-0.37083	-1.5583	-1.1437	-0.62708	-1.3042	-0.83333	-1.1417	-1.2833	-0.67292	-1.3979	-0.97917	-0.875	-1.5875	-0.65625	-1	18.451	-68.333	171.534	-87.807	-47.971	26.322	181.737	-82.146	105.145	-40.477	85.336	36.226	198.787	264.546	147.489	-86.908	0.00018182	0.00058821	0.00021644	1358.9	4.5499e-06	9.7076e-06	1364.6	368.46	5.9594e-06	5.8836e-06	420.85	140.69	122.03	41.792	3.1261e-06	51.774	0.00054193	0.00050121	0.00015779	1377.3	5.8351e-06	5.6092e-06	1379.9	374.32	5.9749e-06	5.567e-06	428.26	143.76	123.66	42.77	6.3571e-06	53.249	-42.821	265.308	114.516	-76.510	80.965	47.105	-76.312	-71.453	176.872	-70.718	-72.131	-67.493	-66.664	-62.556	87.418	-63.352	-8191	255	
1529.922	1	1	0	0	0.24211	0.19035	0.21564	0.39577	0.071036	0.19843	0.27724	0.063963	0.23836	0.18486	0.19987	0.11919	0.18897	0.18603	0.11834	0.055205	-0.91458	-0.5375	-1.2229	-1.1792	-0.53958	-1.3479	-0.74167	-0.97708	-1.2625	-0.43542	-1.5521	-1.3875	-0.65625	-1.5312	-0.68542	-0.89375	168.502	215.118	230.804	228.931	3.100	28.081	258.946	190.477	267.937	50.624	235.637	55.342	-88.743	237.252	75.822	-55.846	0.00025018	0.00032761	0.0001489	1363.3	7.0778e-06	3.6566e-06	1361.1	367	2.2827e-06	3.2659e-06	423.23	139.9	121.44	41.908	3.5577e-06	51.79	0.00053323	0.00051394	0.00016213	1378.4	5.6845e-06	5.7306e-06	1381.7	372.87	5.7035e-06	5.7288e-06	428.43	142.97	123.42	42.906	6.4321e-06	53.07	-58.477	210.910	-19.897	-76.246	-11.819	115.826	-76.055	-71.439	64.281	61.956	-72.143	-67.730	-66.818	-62.707	195.307	-63.222	-8191	255	
1530.040	1	1	0	0	0.11131	0.20919	0.20248	0.073561	0.12697	0.18509	0.21633	0.14179	0.16069	0.13875	0.25314	0.31862	0.089042	0.2111	0.060353	0.044266	-1.1417	-0.36667	-1.1604	-1.2583	-0.70625	-1.3438	-0.975	-0.81458	-1.4458	-0.45833	-1.1229	-1.2729	-0.625	-1.4042	-0.89375	-0.73958	-4.690	-26.464	233.835	-34.625	24.360	-76.300	153.858	254.173	-12.453	186.615	223.169	226.135	73.396	-51.441	145.834	155.990	0.00012347	0.00012139	1.1617e-05	1356.4	3.1398e-06	2.9033e-06	1364.2	368.45	5.5662e-06	1.0625e-06	419.76	140.18	121.19	41.913	5.1969e-06	51.94	0.00051542	0.00053812	0.00016246	1373.5	5.5002e-06	6.0337e-06	1379.6	373.42	5.5628e-06	6.0491e-06	427.18	142.84	122.84	43.042	6.2408e-06	52.88	248.625	49.141	-32.047	-76.140	12.638	198.302	-76.146	-71.472	82.917	-42.340	-71.991	-67.321	-66.771	-62.708	53.245	-63.454	-8191	255	
1530.137	1	1	0	0	0.26805	0.19822	0.25073	0.35215	0.0012815	0.11635	0.037045	0.14575	0.1229	0.22048	0.28187	0.11266	0.22273	0.082419	0.13346	0.34827	-1.0458	-0.60208	-0.92708	-1.4583	-0.36667	-1.3312	-1.175	-0.725	-1.2958	-0.63333	-0.97292	-1.3188	-0.53125	-1.2521	-0.96667	-0.725	250.528	22.560	246.875	228.410	180.000	15.152	-81.731	-73.793	225.205	-31.284	176.076	173.330	90.067	-33.858	268.820	200.313	0.00020322	0.00039427	7.008e-05	1358.3	1.065e-06	2.164e-06	1358	366.34	4.3195e-06	6.9458e-06	421.53	140.13	122.16	41.791	7.0368e-06	52.3	0.00049895	0.00055931	0.00015457	1371.1	5.4285e-06	6.1545e-06	1375.7	372.38	5.5714e-06	6.2725e-06	426.56	142.7	123.44	43.074	6.0995e-06	52.907	256.504	32.828	-85.650	-76.271	187.172	93.231	-76.146	-71.642	2.802	31.162	-71.763	-67.680	-66.897	-62.557	99.705	-63.178	-8191	255	
1530.233	1	1	0	0	0.14475	0.26917	0.073016	0.21955	0.23431	0.1498	0.24732	0.26915	0.13681	0.10276	0.26316	0.076979	0.17868	0.12724	0.050934	0.31613	-1.1437	-0.64583	-0.80833	-1.325	-0.20417	-1.1521	-1.2708	-0.74375	-1.3667	-0.72708	-0.79167	-1.4271	-0.41042	-1.1771	-1.1354	-0.40625	106.940	41.068	-81.763	265.431	159.595	-25.697	246.810	208.859	-31.875	144.298	247.013	159.875	-78.746	-75.325	248.032	-77.755	0.00027333	0.00056939	0.0002085	1357.7	1.4142e-06	5.846e-06	1365.8	367.13	7.0749e-06	4.7206e-06	421.03	139.7	121.12	41.923	6.1154e-06	51.867	0.00051835	0.00057986	0.00015226	1370.1	5.6877e-06	6.3111e-06	1374.8	371.44	5.8267e-06	6.3139e-06	425.97	142.28	123.92	43.142	5.9968e-06	52.659	-69.992	9.601	-8.491	-76.283	1.354	103.719	-76.038	-71.329	255.475	-11.259	-72.079	-67.494	-66.741	-62.606	56.352	-63.210	-8191	255	
1530.306	1	1	0	0	0.1189	0.17078	0.39531	0.46536	0.088365	0.31579	0.20803	0.28863	0.13509	0.047575	0.13351	0.31552	0.29098	0.28023	0.31989	0.16855	-0.78958	-0.87292	-0.625	-1.6313	-0.66667	-1.0021	-1.4937	-0.675	-1.4729	-0.93542	-0.76875	-1.3333	-0.81875	-1.0708	-1.3813	-0.45417	155.108	96.920	269.753	-87.125	44.141	-10.563	191.812	267.114	-78.581	64.329	224.851	174.486	198.999	-85.071	41.230	120.340	0.00030367	0.00068838	8.8614e-05	1355	9.7039e-06	5.5857e-06	1361.6	367.04	4.4604e-06	5.798e-06	420	140.16	121.25	41.919	6.6378e-06	51.992	0.00054636	0.0005776	0.00014871	1368.3	6.0927e-06	6.2277e-06	1374.6	371.12	6.1401e-06	6.2311e-06	425.33	142.38	124.25	43.089	5.8868e-06	52.797	266.028	10.506	35.656	-76.321	216.254	64.947	-76.152	-71.463	-21.960	-21.984	-71.965	-67.404	-67.127	-62.784	92.158	-63.322	-8191	255	
1530.425	1	1	0	0	0.19151	0.14504	0.05146	0.29191	0.10449	0.41602	0.25715	0.60136	0.17911	0.16941	0.24085	0.20047	0.19843	0.29086	0.14659	0.2776	-1.0667	-0.85417	-0.42292	-1.4729	-0.6625	-1.0729	-1.5812	-0.625	-1.2104	-0.83333	-0.54792	-1.4125	-0.8375	-0.88333	-1.3479	-0.41458	117.316	151.958	16.836	194.613	-27.691	-45.428	217.875	223.247	179.771	199.697	251.584	-4.941	74.337	267.416	1.290	206.318	0.00020942	0.00051752	0.00012062	1356.7	7.0075e-06	4.0136e-06	1358.1	368.26	5.3685e-06	2.1317e-06	419.6	139.18	121.98	42.035	9.7572e-06	51.725	0.0005707	0.00056409	0.00014615	1369.3	6.3209e-06	6.0673e-06	1372.3	372.69	6.3478e-06	6.1293e-06	424.8	142.31	125.05	42.991	5.7615e-06	52.886	-82.600	-53.463	-25.700	-76.262	156.916	90.104	-76.070	-71.301	20.044	190.476	-71.832	-67.363	-66.871	-62.580	35.526	-63.428	-8191	255	
1530.521	1	1	0	0	0.15346	0.247	0.22746	0.23617	0.098596	0.15602	0.20807	0.2136	0.16182	0.055693	0.23478	0.4086	0.22182	0.39911	0.17556	0.098439	-0.75625	-0.81875	-0.56458	-1.475	-0.83125	-0.85833	-1.4667	-0.89792	-1.3146	-1.0625	-0.5875	-1.3042	-0.8125	-0.71875	-1.4229	-0.82708	-69.752	33.581	-41.700	-85.301	41.252	89.611	91.466	-69.569	103.932	163.817	268.016	246.100	251.981	-57.513	98.284	211.102	0.00016288	0.00055787	0.00016484	1360.8	6.2071e-06	3.9405e-06	1359.3	366.36	4.0977e-06	3.095e-06	419.76	140.15	121.76	41.808	4.4385e-06	51.634	0.00057796	0.00055485	0.00014288	1373.1	6.3856e-06	5.9153e-06	1371.7	372.75	6.3141e-06	5.9572e-06	423.61	143.11	125.03	42.815	5.6229e-06	53.154	263.920	67.526	-15.518	-76.327	11.818	116.215	-76.216	-71.532	185.019	137.228	-71.773	-67.208	-66.863	-62.658	-17.221	-63.410	-8191	255	
1530.617	1	1	0	0	0.15764	0.16259	0.34803	0.11473	0.050228	0.27155	0.30343	0.11052	0.10915	0.066583	0.25579	0.2351	0.21946	0.16098	0.21278	0.46382	-0.65417	-1.3042	-0.53125	-1.5021	-0.66667	-0.46458	-1.7	-0.80417	-0.95	-1.3771	-0.72917	-1.275	-1.0208	-0.73958	-1.5271	-0.88333	51.746	158.183	212.307	200.224	66.377	167.023	-58.415	155.897	218.929	-19.116	208.510	-65.557	194.910	202.253	223.416	242.524	0.00030377	0.00047561	0.00021333	1354.2	4.6785e-06	6.9897e-06	1365.4	367.52	5.8103e-06	8.4531e-07	420.29	139.61	121.17	41.963	2.9108e-06	51.832	0.00056525	0.00054226	0.0001399	1374.4	6.2531e-06	5.7509e-06	1371.3	373.79	6.0975e-06	5.8534e-06	423.71	143.33	124.25	42.743	5.6456e-06	53.338	-67.547	14.153	-20.790	-76.064	-16.303	70.635	-76.121	-71.394	50.776	163.762	-72.033	-67.432	-66.758	-62.296	198.699	-63.391	-8191	255	
1530.738	1	1	0	0	0.28308	0.03907	0.28748	0.20217	0.14212	0.20277	0.25554	0.29162	0.18231	0.2057	0.28504	0.24966	0.090337	0.10317	0.021294	0.124	-0.50833	-1.3917	-0.53333	-1.3396	-1.1458	-0.35417	-1.6042	-0.81042	-0.75833	-1.3521	-0.65833	-1.1333	-1.1771	-0.73333	-1.4937	-0.92083	184.005	175.494	223.691	211.371	32.714	-0.073	208.641	162.020	88.352	156.116	261.857	195.880	-57.267	248.335	229.185	-60.508	0.00022494	0.00050622	9.0956e-05	1361.1	3.1171e-06	6.7759e-06	1358.8	366.7	5.3267e-06	6.2266e-06	417.69	140.14	121.89	42.106	7.9126e-06	51.798	0.00054731	0.00052336	0.00014332	1377.5	6.0288e-06	5.5854e-06	1370.6	374.12	5.9336e-06	5.6743e-06	425.1	143.45	124.31	42.751	5.9116e-06	53.316	-46.014	-16.600	9.042	-75.876	88.207	65.922	-76.248	-71.498	43.759	47.461	-71.804	-67.245	-66.957	-62.442	159.510	-63.233	-8191	255	
1530.834	1	1	0	0	0.14558	0.15238	0.11722	0.49666	0.066265	0.17943	0.22244	0.10283	0.13113	0.21862	0.27601	0.24529	0.016507	0.3378	0.29124	0.090492	-0.42292	-1.3813	-0.43958	-1.3563	-1.2333	-0.49583	-1.3958	-0.84792	-0.86875	-1.5375	-0.74583	-1.2458	-1.3729	-0.48958	-1.3667	-1.15	-57.369	-28.899	186.997	243.929	21.315	-52.358	184.419	-78.310	1.043	75.769	183.961	244.028	259.994	-33.908	218.821	-45.117	0.00015892	0.00045888	9.5188e-05	1357.7	2.0838e-06	1.4395e-06	1364.3	367.72	1.0843e-06	2.2961e-06	418.73	139.59	121.53	41.812	7.479e-06	51.895	0.00052809	0.00050997	0.00015039	1374.5	5.8801e-06	5.446e-06	1375.9	373.75	5.7978e-06	5.535e-06	425.94	143.19	123.73	42.652	6.191e-06	53.242	260.584	-19.995	106.677	-76.183	-13.306	245.809	-76.138	-71.363	257.388	21.585	-71.993	-67.576	-66.929	-62.568	207.126	-63.624	-8191	255	
1530.929	1	1	0	0	0.060043	0.077326	0.37363	0.50759	0.2148	0.040353	0.31838	0.13457	0.08233	0.10291	0.21562	0.2364	0.28699	0.29638	0.3637	0.069001	-0.089583	-1.3188	-0.54375	-1.2917	-1.275	-0.54792	-1.7021	-1.0542	-0.54375	-1.3896	-0.91667	-0.84375	-1.7292	-0.76875	-1.2313	-1.1208	152.348	139.330	139.098	225.383	164.944	103.988	177.373	237.201	138.036	269.994	261.640	-64.389	227.193	-44.693	-28.894	89.438	0.00016421	0.00024205	5.0466e-05	1354.9	4.1368e-06	3.0998e-06	1363.1	367.24	5.2156e-06	2.819e-06	419.76	140.25	121.32	41.925	5.2036e-06	52.032	0.00051749	0.00050492	0.00015787	1371.6	5.7348e-06	5.4899e-06	1377.2	373.35	5.6426e-06	5.6258e-06	427.35	142.97	123.48	42.677	6.3206e-06	53.042	-64.398	23.483	20.413	-75.971	34.661	93.625	-76.195	-71.657	63.106	138.097	-72.074	-67.444	-66.922	-62.671	-19.897	-63.522	-8191	255	
1531.026	1	1	0	0	0.15853	0.13975	0.30829	0.27586	0.11121	0.21647	0.37973	0.25216	0.10112	0.090629	0.17717	0.30675	0.26157	0.1029	0.2831	0.15278	-0.26042	-1.3583	-0.725	-0.97917	-1.1729	-0.50417	-1.3375	-1.2375	-0.41042	-1.5312	-0.86667	-0.88958	-1.3604	-0.67708	-1.2313	-1.2646	53.892	71.493	246.289	217.750	95.505	-30.308	203.735	221.668	164.507	140.111	166.861	191.452	195.700	-36.422	-66.550	178.657	0.00018858	0.00040276	0.00015403	1360.9	3.7621e-06	2.5636e-06	1359.4	367.56	5.8199e-06	3.6468e-06	419.85	140.01	121.91	42.047	8.4545e-06	51.908	0.00050575	0.00052218	0.00016165	1370.5	5.6187e-06	5.7338e-06	1377	373.03	5.4601e-06	5.8927e-06	427.78	142.72	123.28	42.898	6.2565e-06	52.967	-47.747	265.809	-25.560	-76.052	7.131	131.962	-76.126	-71.609	55.615	17.182	-72.335	-67.195	-67.308	-62.774	-25.228	-63.742	-8191	255	
1531.121	1	1	0	0	0.32485	0.24264	0.099628	0.24119	0.39126	0.23227	0.17009	0.17488	0.18679	0.27378	0.29779	0.27291	0.34558	0.11419	0.24636	0.2184	-0.18542	-1.4375	-0.86875	-0.73125	-1.4229	-0.50625	-1.3583	-1.4396	-0.58333	-1.3312	-1.2021	-0.55417	-1.5167	-0.74375	-0.84375	-1.3083	9.477	-16.281	-35.867	224.900	196.746	183.918	143.539	219.855	203.889	-80.999	267.610	234.556	260.987	207.952	252.448	-38.697	0.00025594	0.00051804	0.0001558	1358.5	8.7204e-06	2.3e-06	1361.7	367.24	1.0659e-06	3.5433e-06	419.56	139.95	121.54	41.74	6.1117e-06	51.648	0.00049303	0.00055282	0.0001596	1370	5.5478e-06	6.0874e-06	1375.9	372.22	5.4126e-06	6.1884e-06	426.58	142.57	123.15	42.932	6.057e-06	52.868	-89.008	14.160	-33.886	-76.048	-14.053	102.977	-75.922	-71.637	196.506	79.801	-72.296	-67.440	-66.865	-62.658	16.815	-63.332	-8191	255	
1531.217	1	1	0	0	0.2952	0.024551	0.068815	0.25939	0.15461	0.32422	0.15085	0.0965	0.065207	0.21102	0.23411	0.26242	0.20495	0.075334	0.085628	0.48765	0.035417	-1.1375	-1.1354	-0.55417	-1.3813	-0.64375	-1.0396	-1.6479	-0.44792	-1.425	-1.0708	-0.57917	-1.5458	-0.80208	-0.6875	-1.3687	208.912	78.594	-36.600	232.397	73.176	119.114	210.587	219.727	161.486	-89.119	-57.009	247.859	-73.184	-37.435	37.010	162.557	0.00028326	8.8595e-05	0.00027864	1352.5	5.1885e-06	3.8084e-07	1361.3	368.18	2.0001e-06	4.9223e-06	420.32	139.62	121.65	41.888	1.1715e-05	51.674	0.0004999	0.00057061	0.00015518	1366.9	5.6241e-06	6.3452e-06	1373.2	372.23	5.6707e-06	6.3465e-06	426.36	142.08	123.62	43.087	5.9599e-06	52.763	-67.617	-10.077	-52.052	-76.037	178.290	-76.478	-76.018	-71.466	250.283	-30.921	-71.877	-67.236	-66.822	-62.800	57.525	-63.482	-8191	255	
1531.338	1	1	0	0	0.29149	0.1667	0.048071	0.1933	0.047431	0.042507	0.15405	0.22957	0.02425	0.13053	0.14695	0.44068	0.15515	0.077147	0.036996	0.13399	-0.05625	-1.1292	-0.91458	-0.41875	-1.3417	-0.81042	-0.88542	-1.5979	-0.675	-1.2208	-1.2542	-0.48958	-1.4542	-0.82083	-0.77708	-1.6958	19.392	-69.897	209.620	206.598	250.635	-74.625	250.577	191.666	192.870	106.012	124.353	245.885	115.165	147.965	195.084	-47.834	0.00029212	0.00051548	0.00033016	1356.2	5.9503e-06	7.2203e-06	1364.3	367.33	3.8598e-06	4.1413e-06	417.19	139.61	121.38	41.976	8.1352e-06	51.918	0.00052988	0.0005824	0.0001532	1368.7	5.9325e-06	6.3508e-06	1374.6	371.96	6.0304e-06	6.2997e-06	425.21	142.09	124.38	43.082	5.8414e-06	52.703	-70.614	1.304	0.710	-76.167	198.110	83.564	-76.044	-71.633	104.378	7.292	-72.268	-67.206	-66.913	-62.629	-1.436	-63.447	-8191	255	
1531.434	1	1	0	0	0.20241	0.1652	0.22351	0.2967	0.20136	0.34073	0.59759	0.062356	0.18165	0.13386	0.1012	0.073409	0.18543	0.26471	0.14442	0.10242	-0.26458	-0.8	-1.2708	-0.55417	-1.2208	-0.8625	-0.79792	-1.5979	-0.66042	-0.90833	-1.4417	-0.46875	-1.5	-1.0562	-0.70208	-1.5208	248.317	-53.908	14.319	233.288	254.450	236.840	190.633	-74.145	235.229	33.081	-42.887	142.335	-22.680	76.958	101.905	-41.386	0.00023101	0.00044121	0.00017157	1362.1	1.606e-06	2.1499e-06	1359.1	366.73	2.9097e-06	5.9968e-06	421.81	140.19	121.5	41.719	4.3464e-06	51.937	0.0005581	0.00056871	0.00015018	1367.1	6.3074e-06	6.2231e-06	1371	371.83	6.352e-06	6.1794e-06	426.1	142.38	125	42.952	5.7523e-06	52.889	-52.515	8.285	-40.939	-76.264	161.159	79.360	-76.022	-71.504	-9.712	24.844	-72.253	-67.114	-66.910	-62.766	26.125	-63.300	-8191	255	
1531.530	1	1	0	0	0.11309	0.13088	0.15287	0.43568	0.17828	0.26746	0.23328	0.21901	0.21002	0.21425	0.22419	0.27049	0.071172	0.2237	0.099114	0.35339	-0.27917	-0.89583	-1.2625	-0.48542	-1.2604	-1.0917	-0.80417	-1.5104	-0.91458	-0.86667	-1.6771	-0.6	-1.2375	-1.3417	-0.41042	-1.5417	-16.812	197.505	175.320	255.992	253.031	-5.592	222.812	79.728	63.003	217.144	-74.211	246.106	217.905	242.792	264.646	259.358	0.00015479	0.00023636	3.7781e-05	1360.7	8.5972e-06	3.5926e-06	1358.1	367.65	3.5654e-06	6.0248e-06	419.16	140	122.39	41.761	5.1096e-06	51.639	0.00058581	0.00055862	0.00014838	1372.2	6.4701e-06	6.1472e-06	1369.7	372.73	6.5002e-06	6.0243e-06	424.44	143	125.11	42.884	5.6299e-06	53.118	267.090	25.849	-35.040	-76.243	57.618	71.794	-76.013	-71.442	49.364	67.730	-72.019	-67.338	-66.796	-62.748	-37.705	-63.342	-8191	255	
1531.602	1	1	0	0	0.096986	0.29784	0.16354	0.25285	0.052339	0.067209	0.57774	0.29559	0.34153	0.17208	0.2005	0.16083	0.16058	0.25253	0.15309	0.08821	-0.45208	-0.68958	-1.3792	-0.80208	-1.15	-1.0938	-0.82917	-1.4937	-0.86458	-0.60417	-1.6396	-0.67917	-1.2042	-1.3563	-0.44167	-1.4854	185.376	189.457	136.310	243.992	52.052	-24.363	208.206	199.462	152.944	66.268	-0.922	-88.213	-60.344	210.754	106.585	121.610	0.00011437	0.00040675	0.00012773	1354.2	3.7035e-06	1.9269e-06	1358.3	366.45	5.2929e-06	1.4209e-06	417.68	139.36	121.52	41.839	6.8718e-07	51.794	0.00058023	0.00054175	0.000145	1373	6.2881e-06	6.021e-06	1368.4	373.3	6.3434e-06	5.8675e-06	423.29	143.22	124.62	42.855	5.5805e-06	53.224	-50.114	5.121	-6.015	-76.124	44.406	85.508	-76.006	-71.245	171.599	30.354	-72.293	-67.334	-66.532	-62.721	180.655	-63.413	-8191	255	
1531.698	1	1	0	0	0.22626	0.15731	0.26361	0.2077	0.13688	0.19924	0.18703	0.18303	0.17528	0.40922	0.14458	0.12558	0.36159	0.10905	0.28236	0.30973	-0.625	-0.40625	-1.4458	-0.61042	-0.94167	-1.2958	-0.69583	-1.425	-0.87292	-0.51875	-1.4896	-0.75833	-0.91667	-1.3333	-0.33542	-1.275	256.543	111.772	51.332	171.332	29.701	-27.441	159.478	243.656	185.098	-40.467	155.672	-57.383	253.923	161.428	127.699	-69.681	3.0954e-05	0.00040036	3.1804e-05	1353.8	5.5539e-06	3.638e-06	1358.2	367.81	4.8353e-06	6.9459e-06	418.28	139.66	122	41.902	4.2969e-06	51.767	0.00056828	0.00052831	0.00014422	1374.1	6.1648e-06	5.9004e-06	1368.8	374.45	6.1767e-06	5.7361e-06	424.02	143.68	124.34	42.824	5.8125e-06	53.396	236.359	3.993	77.721	-76.072	42.542	101.063	-76.089	-71.411	70.808	-2.960	-72.084	-67.156	-67.013	-62.664	261.019	-63.362	-8191	255	
1531.818	1	1	0	0	0.22524	0.23725	0.2532	0.02244	0.41105	0.12256	0.29012	0.39397	0.2778	0.22919	0.17018	0.4262	0.15048	0.32924	0.16914	0.13932	-0.75417	-0.67292	-1.4917	-0.68542	-0.87083	-1.3312	-0.72917	-1.3125	-1.2583	-0.67292	-1.6521	-0.70208	-0.76042	-1.5604	-0.38333	-1.1792	230.809	54.388	175.535	236.756	-45.979	-21.377	120.868	238.029	79.044	225.477	209.587	267.155	38.423	-77.416	32.653	30.744	7.8533e-05	0.00046121	3.1345e-05	1358.4	3.5701e-06	6.001e-06	1362.8	366.9	1.8542e-06	3.5341e-06	420.15	139.65	121.06	41.877	2.3656e-06	52.174	0.00055224	0.00051323	0.00015108	1377.5	5.9877e-06	5.7182e-06	1374.5	373.79	6.0413e-06	5.6025e-06	426.5	143.64	123.76	42.736	6.1392e-06	53.38	-86.341	-53.803	208.487	-76.315	-49.633	63.837	-76.152	-71.471	37.422	18.949	-71.754	-67.239	-66.953	-62.704	250.138	-63.354	-8191	255	
1531.914	1	1	0	0	0.2207	0.35247	0.16062	0.35823	0.17661	0.21177	0.13568	0.27865	0.16349	0.20849	0.035372	0.11725	0.21556	0.20013	0.14084	0.13757	-0.91458	-0.63125	-1.5125	-1.0042	-0.76042	-1.4813	-0.81875	-1.0562	-1.2313	-0.35833	-1.4792	-0.85417	-0.58125	-1.5917	-0.65208	-0.9625	-31.653	-18.994	52.995	255.288	87.665	201.606	199.694	215.901	77.900	209.500	-52.893	175.174	-21.211	-26.235	63.285	222.283	0.00019547	0.00044812	4.5982e-05	1358.4	4.8764e-06	1.6733e-06	1364	367.36	9.5235e-06	1.1287e-06	420.16	139.57	122.01	41.827	2.2442e-06	51.993	0.00054546	0.00050341	0.00015863	1376	5.8509e-06	5.6625e-06	1378.5	373.69	5.9482e-06	5.5602e-06	428.58	143.4	123.83	42.762	6.4004e-06	53.295	-45.966	-33.098	126.637	-76.038	-24.999	261.461	-76.050	-71.229	35.148	237.892	-71.818	-67.376	-66.912	-62.627	17.622	-62.819	-8191	255	
1532.011	1	1	0	0	0.08366	0.30535	0.13346	0.3337	0.18763	0.23854	0.17399	0.22094	0.15286	0.19258	0.26216	0.32026	0.055549	0.013842	0.15306	0.038032	-1.1063	-0.42083	-1.3188	-1.1	-0.51042	-1.4979	-1.1521	-1.1083	-1.7208	-0.59792	-1.4854	-1.325	-0.69375	-1.65	-0.59792	-0.86667	75.268	200.260	81.433	-48.406	126.282	155.473	141.900	227.229	248.907	266.274	-86.467	204.252	182.508	-38.439	41.382	194.583	0.00012872	0.00066451	4.7499e-05	1351.6	7.8467e-06	8.2913e-07	1360.6	368.03	1.9545e-06	2.9289e-06	418.86	140.01	121.39	41.885	2.3055e-06	52.15	0.00053103	0.00051953	0.00016275	1373.1	5.7008e-06	5.7656e-06	1380.3	373.45	5.7806e-06	5.8286e-06	427.68	143.01	123.45	42.863	6.537e-06	53.19	-72.253	-12.844	250.519	-76.172	0.060	-61.814	-76.046	-71.413	13.065	193.679	-71.957	-67.421	-66.916	-62.582	255.796	-63.256	-8191	255	
1532.130	1	1	0	0	0.22943	0.19202	0.058165	0.26572	0.21889	0.2344	0.039923	0.12316	0.14054	0.10837	0.42381	0.2126	0.13317	0.25089	0.18731	0.026766	-1.1146	-0.41042	-1.0958	-1.2375	-0.5	-1.5229	-1.0458	-0.85417	-1.4062	-0.56458	-1.0646	-1.3083	-0.77708	-1.3875	-0.94167	-0.76042	28.340	28.535	30.801	244.272	51.124	155.083	85.381	145.154	1.071	151.808	246.593	164.763	74.308	213.993	98.261	-27.679	0.00014476	0.00010681	0.00011591	1363.9	5.5017e-06	1.149e-06	1366.9	368.84	3.4801e-06	3.5043e-06	420.31	139.64	121.12	41.864	4.621e-07	51.821	0.00052103	0.00054763	0.00016399	1375	5.6028e-06	6.1052e-06	1381	373.22	5.6573e-06	6.2015e-06	427.39	143.03	123.2	43.049	6.4149e-06	52.967	-64.669	108.622	74.822	-76.110	-14.272	80.708	-76.191	-71.425	128.246	19.516	-72.029	-67.555	-66.928	-62.587	82.619	-63.239	-8191	255	
1532.201	1	1	0	0	0.2216	0.087044	0.17602	0.1719	0.13126	0.097853	0.21391	0.23573	0.023534	0.026011	0.37313	0.2289	0.13119	0.3714	0.1648	0.41129	-1.0646	-0.55833	-0.93542	-1.3604	-0.525	-1.2521	-1.0604	-0.70208	-1.4854	-0.66042	-1.1667	-1.4833	-0.58125	-1.1688	-1.1979	-0.51875	-23.094	-73.550	80.619	155.129	187.539	247.612	236.856	202.939	183.789	76.685	263.993	245.464	228.538	-73.739	251.682	214.015	0.00021284	0.00016139	0.00017667	1360.8	7.025e-06	1.4725e-06	1362.8	367.06	7.6633e-06	1.0669e-05	419.29	139.99	121.96	41.76	8.232e-06	51.849	0.00051952	0.00057882	0.00015984	1374	5.5982e-06	6.3905e-06	1377.3	372.4	5.7017e-06	6.471e-06	426.9	142.65	123.66	43.095	6.2417e-06	52.941	-59.606	236.401	19.022	-76.025	69.838	231.625	-76.097	-71.299	226.926	64.788	-72.096	-67.380	-66.533	-62.488	-32.782	-63.293	-8191	255	
1532.299	1	1	0	0	0.21973	0.19575	0.1311	0.41628	0.017744	0.2648	0.13325	0.22234	0.24239	0.10213	0.079302	0.11372	0.1731	0.098376	0.094715	0.189	-1.1042	-0.7875	-0.8875	-1.3979	-0.375	-1.2583	-1.2979	-0.6875	-1.4896	-0.79583	-1.0333	-1.4438	-0.6125	-1.0562	-1.0417	-0.52708	118.735	227.876	-68.171	243.228	59.896	226.267	266.477	247.158	35.862	-85.505	177.935	188.850	-63.325	-58.398	64.662	203.672	0.00019699	0.00028416	0.00012173	1363	5.6767e-06	5.5008e-06	1362.3	367.9	1.3455e-06	4.889e-06	419.02	140.21	121.85	41.985	9.0295e-06	52.02	0.00052996	0.00059771	0.00015485	1373.3	5.8425e-06	6.4659e-06	1377.6	372.43	5.9435e-06	6.5001e-06	426.28	142.62	124.37	43.191	6.0526e-06	52.808	255.475	4.282	-33.777	-75.884	219.864	93.097	-75.925	-71.259	138.544	102.956	-72.017	-67.501	-66.747	-62.287	2.868	-63.281	-8191	255	
1532.418	1	1	0	0	0.25414	0.19417	0.16621	0.13947	0.17998	0.28824	0.20333	0.25721	0.12673	0.038817	0.14164	0.050224	0.16483	0.2098	0.15952	0.22752	-0.75625	-0.67292	-0.67917	-1.6104	-0.35417	-1.3042	-1.5771	-0.625	-1.4083	-1.0542	-0.76667	-1.5167	-0.75417	-1.1021	-1.2083	-0.55	228.495	-66.594	37.863	245.074	12.541	78.524	219.485	253.744	-75.295	12.124	215.996	40.436	166.361	243.969	242.040	149.513	0.00028959	0.00035173	0.00025047	1362.7	6.3352e-06	1.0853e-05	1367.7	367.05	5.9402e-06	8.9788e-06	420.14	139.83	120.96	41.866	4.0402e-06	51.929	0.00055123	0.00058576	0.00015086	1373.1	6.1605e-06	6.2987e-06	1376.4	371.88	6.2398e-06	6.3376e-06	425.65	142.37	124.64	43.08	6.0104e-06	52.8	258.602	-63.658	-34.614	-76.054	209.056	66.508	-76.046	-71.305	218.204	34.138	-72.091	-67.177	-66.947	-62.000	122.443	-63.206	-8191	255	
1532.514	1	1	0	0	0.25997	0.40973	0.26962	0.21112	0.17972	0.21805	0.20136	0.26437	0.1506	0.31082	0.23377	0.19281	0.10174	0.29684	0.03344	0.37222	-0.77083	-0.95417	-0.59583	-1.5583	-0.78125	-0.91875	-1.5458	-0.69167	-1.25	-1.1708	-0.85	-1.2333	-0.70208	-1.0792	-1.2958	-0.6625	-22.155	79.127	112.297	212.340	113.222	25.911	157.669	213.507	102.843	204.254	-69.504	-62.982	54.070	237.865	108.841	170.166	0.00025914	0.00050261	5.5988e-05	1361.1	1.4118e-06	6.9096e-06	1364.4	369.13	2.2368e-06	6.5597e-07	419.9	139.76	121.75	41.934	4.4597e-06	51.966	0.00057854	0.00057358	0.00014776	1372	6.4403e-06	6.136e-06	1375	372.69	6.4031e-06	6.2087e-06	425.32	142.49	125.44	43.023	5.7951e-06	52.906	-55.560	-31.286	-81.897	-75.974	198.053	82.371	-76.011	-71.355	103.312	64.018	-72.007	-67.477	-66.890	-62.281	-20.624	-63.210	-8191	255	
1532.610	1	1	0	0	0.073278	0.27557	0.15925	0.21592	0.12685	0.11221	0.33153	0.51017	0.12144	0.24703	0.27113	0.39013	0.1049	0.2463	0.27145	0.10294	-0.86458	-1.0688	-0.68333	-1.5375	-0.68958	-0.73333	-1.6375	-0.63542	-1.1083	-1.2979	-0.6875	-1.4167	-0.8375	-0.77083	-1.4	-0.66042	-57.142	266.241	-73.758	120.585	-11.285	-72.082	159.471	236.577	238.399	61.541	259.240	-82.857	20.295	267.106	45.524	203.483	0.00018926	0.00069793	0.00022487	1358.8	8.1319e-06	9.5727e-06	1366.6	367.53	6.6615e-07	1.0966e-05	419.29	139.4	121.97	41.969	6.9521e-06	51.826	0.00057678	0.00055278	0.00014239	1377.2	6.3834e-06	5.9011e-06	1374.4	373.01	6.2563e-06	5.9343e-06	424.28	142.99	124.96	42.861	5.5772e-06	53.121	-69.979	-14.417	-3.377	-75.970	22.877	57.860	-75.965	-71.428	76.108	42.204	-71.925	-67.212	-66.816	-62.338	72.237	-63.306	-8191	255	
1532.706	1	1	0	0	0.09512	0.19348	0.17882	0.41982	0.35237	0.13714	0.16775	0.26203	0.21488	0.11509	0.14403	0.25029	0.28003	0.16418	0.166	0.22001	-0.65625	-1.1042	-0.54375	-1.5542	-0.76458	-0.59583	-1.5958	-0.89167	-1.0583	-1.4125	-0.67083	-1.3521	-1.2062	-0.38125	-1.2583	-0.6625	169.812	-16.497	-40.704	244.047	52.825	187.021	243.163	262.974	-55.998	-7.563	194.719	203.891	126.417	245.937	151.605	190.352	0.0001649	0.0003469	7.0142e-05	1365.1	3.6192e-06	5.5092e-06	1365	367.65	2.2823e-06	7.7756e-06	420.67	139.65	122.14	41.969	4.339e-06	52.084	0.00056313	0.00054089	0.00013915	1379.3	6.1771e-06	5.7715e-06	1374.3	373.89	6.1046e-06	5.7952e-06	423.85	143.52	124.66	42.853	5.6231e-06	53.366	-86.411	-24.589	65.287	-75.797	216.626	54.252	-75.894	-71.250	93.668	49.296	-71.922	-67.177	-66.877	-62.292	-39.766	-63.168	-8191	255	
1532.827	1	1	0	0	0.1895	0.099137	0.20993	0.3119	0.06399	0.1024	0.35471	0.34221	0.069784	0.18277	0.050989	0.26578	0.21774	0.14742	0.042902	0.17659	-0.58125	-1.2625	-0.57292	-1.3708	-0.82917	-0.64375	-1.5063	-1.0167	-0.86042	-1.4229	-0.65833	-1.2646	-1.1625	-0.60417	-1.2333	-0.7375	147.595	215.149	102.170	236.554	99.435	241.424	213.248	237.807	216.914	59.925	98.078	248.445	234.685	-51.371	202.735	239.593	0.00020215	0.00012532	0.00016804	1362.3	8.4297e-06	2.8841e-06	1362.8	365.85	3.811e-06	1.0401e-05	419.34	139.9	121.33	41.935	6.616e-06	51.798	0.00054536	0.000526	0.00014342	1380.1	6.0418e-06	5.6066e-06	1375.1	373.85	5.9194e-06	5.6903e-06	425.24	143.59	123.82	42.713	5.8918e-06	53.306	-80.039	7.287	-5.192	-75.837	10.372	113.821	-76.002	-71.373	23.690	17.441	-71.910	-67.291	-66.940	-62.268	25.486	-63.442	-8191	255	
1532.899	1	1	0	0	0.33624	0.28939	0.28044	0.26947	0.030198	0.27995	0.1903	0.30696	0.053123	0.35539	0.14097	0.20206	0.24949	0.30375	0.2641	0.24773	-0.30417	-1.2917	-0.52292	-1.3354	-1.2958	-0.58542	-1.6167	-0.9625	-0.56042	-1.3354	-0.69583	-1.1333	-1.3625	-0.5375	-1.1521	-0.90833	132.866	43.064	106.227	237.961	227.342	93.259	241.614	184.140	-86.635	-61.772	-56.127	-36.720	120.034	-83.457	61.817	225.391	0.0001667	0.00026558	9.967e-05	1363.8	7.413e-06	8.7464e-07	1363.2	367.6	6.3638e-06	6.0836e-06	419.61	140.35	121.88	41.682	4.2537e-06	52.133	0.00053263	0.00051239	0.00015029	1378.5	5.9325e-06	5.4683e-06	1377.8	373.42	5.785e-06	5.5482e-06	426.54	143.56	123.92	42.657	6.1878e-06	53.179	-85.432	10.252	60.357	-75.897	-41.135	51.683	-75.769	-71.306	20.139	-71.898	-71.852	-66.902	-66.996	-62.382	181.837	-63.294	-8191	255	
1533.019	1	1	0	0	0.16441	0.15426	0.099511	0.41766	0.28969	0.13865	0.050663	0.38598	0.084966	0.14407	0.49957	0.2917	0.046688	0.081316	0.14406	0.092084	-0.22708	-1.4167	-0.49375	-1.1458	-1.1063	-0.475	-1.5042	-0.98125	-0.5375	-1.2896	-0.69375	-0.83542	-1.4562	-0.46458	-1.125	-1.2271	233.868	-39.118	86.590	-87.215	151.283	91.662	169.058	235.108	-6.316	263.050	-76.031	-51.922	-10.908	-41.619	-87.520	195.606	0.00016626	5.8981e-05	0.00011572	1361.1	3.6214e-06	1.1336e-06	1361.2	368.44	4.4574e-06	4.1227e-06	418.53	140.85	121.97	41.979	6.3683e-06	51.948	0.00052484	0.00050666	0.00015795	1376.9	5.7783e-06	5.4838e-06	1379.7	373.56	5.6602e-06	5.6131e-06	426.79	143.21	123.66	42.796	6.3197e-06	53.086	-43.655	154.339	-10.563	-75.981	-6.376	209.873	-75.775	-71.351	67.704	118.663	-71.990	-67.151	-66.708	-62.342	12.197	-63.407	-8191	255	
1533.114	1	1	0	0	0.14249	0.25323	0.33287	0.16073	0.2613	0.11567	0.21313	0.013868	0.17044	0.2631	0.3125	0.21054	0.4581	0.12791	0.12816	0.16692	0.01875	-1.4083	-0.71458	-0.94583	-1.5083	-0.38958	-1.2812	-1.2958	-0.44167	-1.4104	-1.0333	-0.82083	-1.5729	-0.66875	-1.1708	-1.0833	-49.627	80.444	138.918	250.521	99.666	136.187	190.754	-52.718	142.419	181.497	234.487	-71.943	258.277	200.306	212.207	-56.253	0.00024836	0.00025964	9.2157e-05	1357.6	7.7464e-06	2.9782e-06	1364.8	367.35	7.9034e-06	2.5422e-06	420.54	140.88	121.9	41.917	8.4752e-06	51.845	0.00050055	0.00051848	0.00015973	1372.8	5.6e-06	5.7228e-06	1379	372.52	5.427e-06	5.7967e-06	427.4	142.96	123.14	42.872	6.1703e-06	52.88	-79.986	84.257	65.817	-75.820	-30.712	137.709	-75.856	-71.216	52.341	188.921	-71.889	-67.198	-66.611	-62.414	40.153	-63.092	-8191	255	
1533.210	1	1	0	0	0.13666	0.035728	0.23404	0.076502	0.049414	0.37659	0.10233	0.29394	0.38618	0.15245	0.43266	0.21512	0.19684	0.36848	0.1176	0.20871	-0.18125	-1.4604	-0.80417	-1.0167	-1.4271	-0.60833	-1.2354	-1.3958	-0.51458	-1.3312	-0.98333	-0.85	-1.5333	-0.64375	-1.1792	-1.3271	136.199	179.802	-74.448	217.635	85.674	-21.828	232.013	246.257	-60.876	128.730	232.092	-30.223	218.682	208.255	2.945	252.328	0.00012636	0.00038382	0.00022659	1357.9	7.3235e-06	4.7967e-06	1362.4	367.23	3.1858e-06	5.3371e-06	419.82	139.77	121.59	41.794	7.1518e-06	52.086	0.00048812	0.00054508	0.00015712	1370.6	5.4244e-06	6.0259e-06	1375.7	372.06	5.384e-06	6.0477e-06	425.69	142.22	123.17	43.048	5.9967e-06	52.901	-80.459	21.927	-29.280	-75.923	5.798	248.072	-75.748	-71.224	24.092	209.690	-71.871	-67.164	-66.578	-62.546	-13.127	-62.793	-8191	255	
1533.306	1	1	0	0	0.074447	0.35069	0.11513	0.35973	0.2687	0.060319	0.42825	0.20115	0.19634	0.31704	0.10569	0.13796	0.12139	0.28266	0.30744	0.40889	-0.06875	-1.2625	-0.72917	-0.4625	-1.2708	-0.68542	-1.1667	-1.5708	-0.34583	-1.3417	-1.2354	-0.75	-1.6208	-0.56042	-0.91875	-1.5375	56.627	248.959	-77.995	258.836	246.990	185.776	239.609	216.434	203.913	76.324	-32.634	27.820	-40.281	207.441	-42.282	192.039	0.00016814	0.00024909	0.00016375	1357.5	5.8876e-06	5.0185e-06	1358.3	367.26	3.4133e-06	3.0886e-06	419.32	139.77	121.25	41.736	7.2982e-06	51.957	0.00049167	0.00055842	0.00015313	1368.5	5.5249e-06	6.1828e-06	1371.9	371.49	5.5025e-06	6.1465e-06	425.34	142.05	123.45	42.96	5.7856e-06	52.707	-54.148	-4.154	16.256	-75.879	103.003	215.590	-75.849	-71.258	-21.004	160.424	-71.932	-67.207	-66.794	-62.443	49.327	-63.271	-8191	255	
1533.427	1	1	0	0	0.10535	0.27993	0.12091	0.11121	0.29297	0.35944	0.28002	0.28098	0.21527	0.039924	0.161	0.090447	0.15381	0.070218	0.13947	0.23813	-0.16667	-1.1146	-1.075	-0.71667	-1.2812	-0.6625	-0.96875	-1.6771	-0.55208	-0.97917	-1.3625	-0.69167	-1.4625	-1.0187	-0.60208	-1.5312	221.311	55.467	81.618	211.795	81.082	105.600	197.601	210.307	96.694	-67.467	128.904	4.389	13.680	255.327	257.571	187.570	0.0001582	0.00024317	0.00010792	1359.6	4.0969e-06	6.7501e-06	1357.7	367.28	4.057e-06	7.3562e-06	420.26	139.8	121.31	42.05	1.3174e-05	51.986	0.00050812	0.00055471	0.00014672	1365.3	5.7308e-06	6.1107e-06	1371.7	371.32	5.7657e-06	6.0936e-06	424.73	141.8	123.71	42.979	5.6312e-06	52.601	245.597	-60.938	-1.569	-76.004	116.414	33.280	-75.798	-71.373	265.698	57.151	-71.997	-67.237	-66.780	-62.228	49.552	-63.249	-8191	255	
1533.498	1	1	0	0	0.22823	0.22361	0.15739	0.32299	0.18427	0.11874	0.28961	0.15637	0.17399	0.072234	0.18165	0.13262	0.43396	0.2716	0.23697	0.12019	-0.17292	-0.98125	-1.2708	-0.76667	-1.4292	-1.0708	-0.81042	-1.6583	-0.60417	-1.0646	-1.4833	-0.66458	-1.4604	-1.2417	-0.6125	-1.5542	-4.128	-41.442	172.947	233.124	-25.609	149.168	228.647	46.134	4.804	190.972	198.330	-35.741	8.864	269.663	106.525	233.467	0.00017783	0.00028645	0.00010818	1353.9	6.7707e-06	4.6544e-06	1364.6	365.76	2.0023e-06	2.2105e-06	420.74	139.69	121.31	41.828	3.1704e-06	52.081	0.00053524	0.0005451	0.00014332	1362.6	5.9464e-06	5.9389e-06	1368.9	370.03	6.0322e-06	5.905e-06	423.39	141.91	124.3	42.844	5.4902e-06	52.797	270.394	15.507	269.870	-75.888	82.211	-5.863	-75.825	-71.274	58.958	120.536	-71.957	-67.121	-66.601	-62.519	105.163	-63.342	-8191	255	
1533.594	1	1	0	0	0.1529	0.13445	0.13699	0.17865	0.11012	0.11178	0.35586	0.38138	0.21308	0.15694	0.092656	0.37094	0.17295	0.16031	0.25203	0.030968	-0.20833	-0.95833	-1.2771	-0.64792	-1.1979	-1.1521	-0.925	-1.6083	-0.59583	-0.875	-1.5479	-0.75833	-1.3271	-1.3312	-0.35417	-1.7	183.628	253.759	-84.167	31.624	248.435	169.703	-80.210	184.448	269.234	215.875	210.584	222.291	-21.577	204.695	-86.377	118.385	0.00014518	0.00029076	9.6025e-05	1355.4	1.0263e-05	6.1039e-06	1355	367.18	3.8975e-06	8.4625e-06	420.74	139.55	121.65	41.869	5.5477e-06	52.069	0.00055943	0.00052622	0.00014172	1365.2	6.1416e-06	5.8465e-06	1366	371.52	6.1665e-06	5.7282e-06	423.77	142.2	124.37	42.775	5.3092e-06	52.935	262.149	-59.227	-11.114	-75.801	13.563	46.033	-75.909	-71.306	-18.881	-15.660	-71.772	-67.060	-66.684	-62.528	-35.147	-63.307	-8191	255	
1533.691	1	1	0	0	0.015956	0.21105	0.04842	0.53592	0.047097	0.023669	0.25542	0.45467	0.087608	0.29308	0.082196	0.15656	0.10361	0.023425	0.13639	0.3177	-0.29167	-0.6125	-1.3375	-0.58542	-1.1917	-1.4271	-0.71875	-1.3813	-0.90208	-0.71042	-1.8125	-0.66667	-0.91667	-1.3312	-0.26042	-1.4208	-19.570	146.814	248.146	236.964	14.229	-20.998	178.386	237.809	-14.168	73.908	-41.785	-40.223	183.194	268.216	99.621	208.921	9.5922e-05	0.00051613	0.00013435	1362.8	5.4362e-06	2.7898e-06	1361.2	365.7	3.5942e-06	6.1929e-06	419.93	139.66	121.72	41.701	2.27e-06	51.774	0.00055351	0.0005187	0.00013685	1371.1	5.9915e-06	5.7129e-06	1365.7	372.08	6.072e-06	5.6355e-06	423.28	143.06	124.28	42.698	5.3851e-06	53.115	260.613	-89.169	-22.508	-75.819	-37.541	84.360	-75.761	-71.253	93.640	-10.882	-71.898	-67.066	-66.511	-62.434	9.631	-63.420	-8191	255	
1533.787	1	1	0	0	0.21202	0.11575	0.18409	0.13741	0.17283	0.20404	0.23471	0.41865	0.12533	0.20167	0.26682	0.07705	0.33289	0.29533	0.098377	0.17194	-0.5125	-0.52708	-1.2687	-0.86042	-0.85417	-1.5125	-0.72917	-1.3312	-1.0333	-0.63333	-1.3667	-0.74583	-0.93333	-1.275	-0.36458	-1.2917	163.444	-35.656	12.633	240.855	11.021	180.157	237.774	219.505	70.175	-59.606	259.525	-71.633	215.856	247.830	41.550	199.232	0.00038434	0.00028192	0.00016902	1354	6.3596e-06	4.1511e-06	1359.5	366.66	1.5037e-06	4.0707e-06	420.69	139.92	121.48	41.979	6.728e-06	51.854	0.00054626	0.00050918	0.00013804	1372.4	5.9443e-06	5.6761e-06	1368.8	373.44	5.9963e-06	5.6284e-06	423.79	143.69	123.94	42.739	5.6532e-06	53.187	-68.657	-60.814	-65.451	-75.947	-21.597	78.898	-75.756	-71.013	90.850	55.944	-71.499	-67.171	-66.458	-62.392	165.522	-62.999	-8191	255	
1533.907	1	1	0	0	0.14789	0.32373	0.25408	0.058223	0.25486	0.14373	0.096592	0.11265	0.13432	0.28452	0.20549	0.11691	0.042807	0.18741	0.22442	0.083934	-0.63125	-0.61875	-1.4167	-0.90417	-0.83125	-1.4854	-0.65208	-1.3583	-0.98542	-0.57708	-1.4771	-0.82917	-0.70833	-1.4583	-0.46458	-1.125	267.712	117.664	-39.680	-72.591	-85.569	269.574	190.160	232.040	-51.849	263.364	188.952	102.379	79.866	238.927	113.168	191.393	0.00011751	0.00055382	2.1223e-05	1356.7	7.3784e-06	6.4617e-06	1358.9	366.41	5.1639e-06	6.9044e-06	420.35	139.71	121.39	41.712	2.2343e-06	51.798	0.00053729	0.00050287	0.00014692	1374.3	5.8356e-06	5.5563e-06	1371.6	373.59	5.8672e-06	5.4557e-06	425.92	143.49	123.72	42.638	5.9551e-06	53.19	-53.940	-42.647	15.893	-75.948	37.854	2.641	-75.720	-71.085	26.033	135.077	-71.607	-67.196	-66.406	-62.476	63.413	-63.133	-8191	255	
1534.002	1	1	0	0	0.14838	0.1236	0.23269	0.11393	0.050389	0.11792	0.21923	0.47858	0.17964	0.24571	0.25117	0.12814	0.21257	0.48247	0.091208	0.23195	-0.87083	-0.23542	-1.3687	-1.0875	-0.45	-1.4417	-0.80833	-1.2229	-1.1271	-0.55417	-1.4208	-0.96875	-0.64792	-1.5375	-0.7	-0.98125	214.531	269.032	-57.972	191.742	194.143	265.110	206.725	219.235	236.143	0.290	229.780	98.553	-63.194	-31.987	196.684	21.831	0.00030381	0.00019149	0.00011742	1358.1	4.7964e-06	2.3221e-06	1365	368.38	4.8448e-06	7.0975e-06	419.15	140.03	121.37	41.963	4.8459e-06	51.971	0.00052639	0.00049143	0.00015287	1373.7	5.6445e-06	5.4269e-06	1376.3	373.4	5.7073e-06	5.3524e-06	426.71	143	123.31	42.652	6.2086e-06	53.119	-50.547	-14.338	42.218	-75.778	104.572	110.228	-75.908	-71.235	40.491	84.392	-71.542	-67.154	-66.574	-62.409	189.408	-62.859	-8191	255	
1534.100	1	1	0	0	0.082956	0.057235	0.23591	0.35374	0.12789	0.12536	0.35419	0.035461	0.070187	0.17151	0.2531	0.54387	0.1448	0.17347	0.1951	0.21173	-0.86875	-0.25	-1.1167	-1.2854	-0.41042	-1.3646	-0.64792	-0.8875	-1.2396	-0.50208	-1.2771	-1.1437	-0.50625	-1.4188	-0.8125	-0.82917	215.403	114.210	-80.214	222.238	66.055	225.343	252.752	245.567	90.257	-59.671	181.277	234.573	239.977	216.349	108.056	-78.030	0.00014599	0.00054853	0.00013513	1365.5	6.1515e-06	2.716e-06	1364.4	369.14	2.1146e-06	6.8354e-06	420.4	139.79	121.67	41.846	3.1437e-06	52.292	0.00051411	0.00049852	0.00015782	1376.9	5.5553e-06	5.5881e-06	1379.6	372.9	5.594e-06	5.6188e-06	427.86	142.83	123.46	42.788	6.2696e-06	53.102	-58.790	120.640	-56.689	-75.791	-56.981	163.861	-75.947	-70.872	-13.733	116.658	-71.807	-67.414	-66.804	-62.072	14.680	-63.173	-8191	255	
1534.194	1	1	0	0	0.1516	0.11937	0.094958	0.2634	0.29012	0.15048	0.34645	0.087914	0.27296	0.10874	0.10969	0.29226	0.058846	0.24523	0.15191	0.24263	-1.1396	-0.50417	-1.1313	-1.2	-0.48542	-1.4188	-0.86458	-0.94375	-1.4375	-0.4625	-1.2333	-1.2896	-0.48333	-1.4688	-0.675	-0.55417	92.443	249.503	-71.244	257.574	-17.265	174.498	195.227	194.151	135.371	-47.287	244.115	-28.427	-84.950	237.817	5.968	217.372	0.00013344	0.00034564	0.00015469	1359.5	5.0882e-06	6.7193e-06	1360.1	367.35	6.0222e-06	3.376e-06	421	140.4	121.38	42.11	3.9763e-06	52.218	0.00050288	0.00053156	0.00015864	1372.2	5.414e-06	5.8786e-06	1378.8	372.09	5.4533e-06	5.9448e-06	426.67	143.02	122.96	42.995	6.1383e-06	52.869	-62.045	242.920	6.084	-75.926	1.872	174.811	-75.875	-71.156	57.335	-0.809	-71.697	-67.045	-66.492	-62.148	26.330	-63.118	-8191	255	
1534.290	1	1	0	0	0.1006	0.20251	0.32022	0.28939	0.11588	0.23958	0.32603	0.39471	0.081365	0.12602	0.49872	0.11011	0.13817	0.47231	0.19818	0.053991	-1.0688	-0.5	-1.0458	-1.4542	-0.20625	-1.375	-1.0312	-0.86667	-1.3083	-0.65625	-1.0979	-1.4229	-0.67708	-1.3979	-0.99583	-0.50417	76.927	-11.795	212.621	247.927	-54.801	108.908	231.440	229.859	103.525	57.061	-84.363	-41.704	106.808	249.645	34.152	63.558	0.0002524	0.00016633	0.00028795	1361.1	4.9152e-06	1.3212e-06	1362.9	367.39	9.9263e-07	1.5682e-06	419.92	139.87	120.82	42	3.5068e-06	51.776	0.00049403	0.00055254	0.00015281	1372.3	5.3741e-06	6.081e-06	1376	371.32	5.477e-06	6.1137e-06	425.56	142.55	122.83	43.06	5.9314e-06	52.73	-59.874	124.013	-43.261	-75.944	132.360	138.388	-75.715	-71.009	162.701	219.406	-71.781	-67.321	-66.818	-62.373	106.786	-63.033	-8191	255	
1534.386	1	1	0	0	0.081135	0.13511	0.15805	0.36837	0.13452	0.27044	0.13279	0.35304	0.1112	0.22943	0.16641	0.28805	0.10824	0.11301	0.17997	0.22879	-1.0208	-0.78125	-0.81042	-1.4875	-0.55417	-1.2146	-1.3104	-0.625	-1.3521	-0.97917	-0.87917	-1.3083	-0.48542	-1.3312	-1.0688	-0.6	119.808	106.143	185.937	-64.005	260.436	97.461	105.117	262.447	206.281	116.087	213.621	142.753	-30.438	228.062	270.071	138.335	0.00031774	0.00048058	4.1417e-05	1360	5.691e-06	4.5414e-06	1362.8	366.61	2.6492e-06	1.1468e-06	420.77	140.4	122.61	41.827	3.5905e-06	51.976	0.00050731	0.00056251	0.0001488	1369.4	5.5423e-06	6.168e-06	1374.1	371.16	5.6905e-06	6.1641e-06	425.54	142.05	123.87	42.948	5.7563e-06	52.557	260.236	-17.373	42.538	-75.993	156.460	260.161	-75.777	-71.157	157.722	19.391	-71.730	-67.194	-66.525	-62.610	137.654	-62.862	-8191	255	
1534.507	1	1	0	0	0.097847	0.21929	0.14111	0.35155	0.13464	0.18439	0.27637	0.20899	0.22672	0.094439	0.080919	0.22214	0.27768	0.082671	0.19134	0.058815	-1.0958	-0.79375	-0.66042	-1.4667	-0.28125	-1.1333	-1.45	-0.80208	-1.4292	-0.975	-0.64583	-1.6375	-0.60833	-1.1271	-1.2458	-0.44167	-13.455	40.123	27.409	212.905	22.191	168.026	236.223	209.256	215.677	-76.694	0.524	241.349	251.790	138.775	71.940	-2.910	0.00022896	0.00039401	4.3463e-05	1361.2	2.9816e-06	8.4031e-06	1359.4	370.05	3.3117e-06	3.8358e-06	422.18	140.19	121.64	41.87	4.2289e-06	51.977	0.00052521	0.00055636	0.00014388	1367.9	5.8556e-06	6.0491e-06	1370.1	371.52	5.965e-06	5.9993e-06	425.16	141.96	124.26	42.9	5.6827e-06	52.609	-68.933	-25.977	51.879	-75.818	252.717	63.139	-75.847	-71.240	-17.145	53.931	-71.678	-67.026	-66.682	-62.106	-3.239	-62.724	-8191	255	
1534.603	1	1	0	0	0.21664	0.17825	0.056476	0.48977	0.15092	0.2368	0.37421	0.32305	0.13767	0.30373	0.10518	0.13209	0.13125	0.34013	0.16758	0.10707	-0.76667	-0.97292	-0.56458	-1.4813	-0.70208	-0.98333	-1.5792	-0.77292	-1.1313	-0.95417	-0.49792	-1.4875	-0.63125	-0.98542	-1.3208	-0.54792	85.491	101.551	38.963	201.389	140.803	93.708	244.370	254.491	-57.953	170.817	79.127	139.769	-64.886	253.342	-63.667	3.055	0.00027766	0.00061191	0.00030703	1357.8	1.5408e-06	5.536e-06	1361.2	366.96	3.5176e-06	6.3856e-06	419.81	140.92	121.79	41.966	6.1047e-06	52.042	0.00054963	0.00054965	0.00014156	1368.3	6.1475e-06	5.87e-06	1370.2	371.5	6.2062e-06	5.9069e-06	424.05	142.66	124.97	42.922	5.5972e-06	52.837	-69.391	-47.547	-9.730	-75.811	200.899	87.675	-75.731	-71.129	99.034	29.365	-71.819	-66.890	-66.354	-62.335	-4.629	-63.141	-8191	255	
1534.699	1	1	0	0	0.29359	0.10688	0.15112	0.34507	0.32825	0.086801	0.18109	0.1082	0.065289	0.088025	0.27567	0.053031	0.18449	0.29294	0.056184	0.3093	-0.63333	-1.0708	-0.35	-1.5708	-0.70833	-0.70625	-1.4979	-0.61042	-1.075	-1.0042	-0.60417	-1.4271	-0.82292	-0.825	-1.4062	-0.55	-41.621	66.070	13.460	230.285	76.551	90.169	227.725	181.307	44.631	264.655	-60.646	167.959	76.200	-72.636	-81.536	208.502	0.00030355	0.00068429	0.00016007	1363.3	2.5617e-06	4.9061e-06	1358.8	368.17	5.4523e-06	4.0519e-06	418.69	140.24	122.05	41.956	2.168e-06	51.741	0.00056048	0.00053849	0.00013802	1372.4	6.2284e-06	5.7602e-06	1369.9	372.44	6.1302e-06	5.778e-06	422.64	143.17	124.72	42.851	5.4414e-06	53.076	-69.188	-37.002	49.590	-75.587	163.610	136.589	-75.766	-71.058	55.102	21.523	-71.573	-67.120	-66.581	-62.272	102.534	-63.158	-8191	255	
1534.795	1	1	0	0	0.24512	0.11491	0.26376	0.26423	0.19973	0.1654	0.084932	0.083363	0.18702	0.093607	0.20314	0.16882	0.29815	0.16381	0.1682	0.12074	-0.74583	-1.3292	-0.23542	-1.4979	-0.9125	-0.77083	-1.5604	-0.67292	-1.1021	-1.3625	-0.73125	-1.4625	-0.94375	-0.66458	-1.4396	-0.82292	164.185	232.858	-54.933	266.388	23.324	69.412	264.489	159.005	62.538	-80.839	242.986	-39.361	224.171	213.275	19.710	180.854	0.00016247	0.00040904	4.1373e-05	1362.2	3.7605e-06	1.3092e-06	1363.1	368.67	4.6451e-06	5.4761e-06	419.51	140.39	122.14	42.05	5.9104e-06	52.132	0.00055395	0.00052569	0.00013594	1375.2	6.0242e-06	5.6152e-06	1370	373.19	5.8985e-06	5.6777e-06	423.24	143.52	124.3	42.776	5.4586e-06	53.293	-59.041	66.572	36.197	-75.823	3.597	-60.572	-75.751	-71.202	35.584	131.930	-71.421	-67.121	-66.678	-62.365	41.001	-63.234	-8191	255	
#DATA ENDS
