BOXY.EXE: ISS Imagent and Oximeter Data Acquisition Program Version 0.80
Ascii Record File

#ACQ INFORMATION
2  Detector Channels 
16  External MUX Channels 
1  Auxiliary Channels 
5000  Waveform (CCF) Frequency (Hz)
1  Waveforms Skipped 
30  Waveforms Averaged 
1  Cycles Averaged 
16  Acquisitions per Waveform 
10.0806  Updata Rate (Hz) 

#FILE INFORMATION
TRUE -- External MUX Channel results are PARSED.
FALSE -- AC DC and Phase are NOT grouped.
TRUE -- Companion Program Settings File CREATED.
FALSE -- AC data not excluded
FALSE -- DC data not excluded
FALSE -- Phase data not excluded
FALSE -- Auxillary Chn. data not excluded
Tab delimiters

#CALIBRATION STATE
TRUE -- Waveform Calibration Values APPLIED.


#AUX CALIBRATION VALUES
Val Type	aux-1	

Term	1.0000e+00	
Factor	0.0000e+00	


#WF CALIBRATION VALUES
A = Detector Channel
Val Type	A-AC1	A-AC2	A-AC3	A-AC4	A-AC5	A-AC6	A-AC7	A-AC8	A-AC9	A-AC10	A-AC11	A-AC12	A-AC13	A-AC14	A-AC15	A-AC16	A-DC1	A-DC2	A-DC3	A-DC4	A-DC5	A-DC6	A-DC7	A-DC8	A-DC9	A-DC10	A-DC11	A-DC12	A-DC13	A-DC14	A-DC15	A-DC16	A-Ph1	A-Ph2	A-Ph3	A-Ph4	A-Ph5	A-Ph6	A-Ph7	A-Ph8	A-Ph9	A-Ph10	A-Ph11	A-Ph12	A-Ph13	A-Ph14	A-Ph15	A-Ph16	

Term	0.00000e+00	0.00000e+00	0.00000e+00	0.00000e+00	0.00000e+00	0.00000e+00	0.00000e+00	0.00000e+00	0.00000e+00	0.00000e+00	0.00000e+00	0.00000e+00	0.00000e+00	0.00000e+00	0.00000e+00	0.00000e+00	0.00000e+00	0.00000e+00	0.00000e+00	0.00000e+00	0.00000e+00	0.00000e+00	0.00000e+00	0.00000e+00	0.00000e+00	0.00000e+00	0.00000e+00	0.00000e+00	0.00000e+00	0.00000e+00	0.00000e+00	0.00000e+00	0.00000e+00	0.00000e+00	0.00000e+00	0.00000e+00	0.00000e+00	0.00000e+00	0.00000e+00	0.00000e+00	0.00000e+00	0.00000e+00	0.00000e+00	0.00000e+00	0.00000e+00	0.00000e+00	0.00000e+00	0.00000e+00	
Factor	1.00000e+00	1.00000e+00	1.00000e+00	1.00000e+00	1.00000e+00	1.00000e+00	1.00000e+00	1.00000e+00	1.00000e+00	1.00000e+00	1.00000e+00	1.00000e+00	1.00000e+00	1.00000e+00	1.00000e+00	1.00000e+00	1.00000e+00	1.00000e+00	1.00000e+00	1.00000e+00	1.00000e+00	1.00000e+00	1.00000e+00	1.00000e+00	1.00000e+00	1.00000e+00	1.00000e+00	1.00000e+00	1.00000e+00	1.00000e+00	1.00000e+00	1.00000e+00	X	X	X	X	X	X	X	X	X	X	X	X	X	X	X	X	

B = Detector Channel
Val Type	B-AC1	B-AC2	B-AC3	B-AC4	B-AC5	B-AC6	B-AC7	B-AC8	B-AC9	B-AC10	B-AC11	B-AC12	B-AC13	B-AC14	B-AC15	B-AC16	B-DC1	B-DC2	B-DC3	B-DC4	B-DC5	B-DC6	B-DC7	B-DC8	B-DC9	B-DC10	B-DC11	B-DC12	B-DC13	B-DC14	B-DC15	B-DC16	B-Ph1	B-Ph2	B-Ph3	B-Ph4	B-Ph5	B-Ph6	B-Ph7	B-Ph8	B-Ph9	B-Ph10	B-Ph11	B-Ph12	B-Ph13	B-Ph14	B-Ph15	B-Ph16	

Term	0.00000e+00	0.00000e+00	0.00000e+00	0.00000e+00	0.00000e+00	0.00000e+00	0.00000e+00	0.00000e+00	0.00000e+00	0.00000e+00	0.00000e+00	0.00000e+00	0.00000e+00	0.00000e+00	0.00000e+00	0.00000e+00	0.00000e+00	0.00000e+00	0.00000e+00	0.00000e+00	0.00000e+00	0.00000e+00	0.00000e+00	0.00000e+00	0.00000e+00	0.00000e+00	0.00000e+00	0.00000e+00	0.00000e+00	0.00000e+00	0.00000e+00	0.00000e+00	-1.59263e+02	-1.35366e+02	-1.22785e+02	-1.81606e+02	-7.89346e+01	-5.72216e+01	-1.56575e+02	-1.62015e+02	-7.73410e+01	-6.58398e+01	-1.71773e+02	-1.69662e+02	-1.85582e+02	-1.76518e+02	-7.73154e+01	-1.48785e+02	
Factor	2.57673e-05	1.35732e-04	4.29484e-05	1.60521e-01	1.34668e-06	1.50830e-06	1.73562e-01	5.04505e-02	1.28541e-06	1.76270e-06	8.78298e-02	2.84354e-02	2.48919e-02	9.05555e-03	1.36247e-06	1.28161e-02	7.70257e-06	9.89319e-06	2.77655e-06	8.54020e-02	1.04570e-07	1.10558e-07	8.68692e-02	2.69635e-02	1.04314e-07	1.10505e-07	4.53325e-02	1.47671e-02	1.33880e-02	4.87488e-03	1.06932e-07	6.69256e-03	X	X	X	X	X	X	X	X	X	X	X	X	X	X	X	X	



#DISTANCE SETTINGS
A = Detector Channel
A-1	A-2	A-3	A-4	A-5	A-6	A-7	A-8	A-9	A-10	A-11	A-12	A-13	A-14	A-15	A-16	

2.5000e+00	3.0000e+00	2.5000e+00	3.0000e+00	2.0000e+00	3.0000e+00	1.5000e+00	3.0000e+00	3.0000e+00	3.0000e+00	3.0000e+00	3.0000e+00	3.0000e+00	3.0000e+00	1.5000e+00	3.0000e+00	

B = Detector Channel
B-1	B-2	B-3	B-4	B-5	B-6	B-7	B-8	B-9	B-10	B-11	B-12	B-13	B-14	B-15	B-16	

1.0000e+01	1.0000e+01	1.0000e+01	1.4400e+00	1.0000e+01	1.0000e+01	1.5100e+00	1.9400e+00	1.0000e+01	1.0000e+01	1.9900e+00	2.4900e+00	2.4100e+00	2.9000e+00	1.0000e+01	2.9800e+00	




#DATA BEGINS
time	group	step	mark	flag	A-AC1	A-AC2	A-AC3	A-AC4	A-AC5	A-AC6	A-AC7	A-AC8	A-AC9	A-AC10	A-AC11	A-AC12	A-AC13	A-AC14	A-AC15	A-AC16	A-DC1	A-DC2	A-DC3	A-DC4	A-DC5	A-DC6	A-DC7	A-DC8	A-DC9	A-DC10	A-DC11	A-DC12	A-DC13	A-DC14	A-DC15	A-DC16	A-Ph1	A-Ph2	A-Ph3	A-Ph4	A-Ph5	A-Ph6	A-Ph7	A-Ph8	A-Ph9	A-Ph10	A-Ph11	A-Ph12	A-Ph13	A-Ph14	A-Ph15	A-Ph16	B-AC1	B-AC2	B-AC3	B-AC4	B-AC5	B-AC6	B-AC7	B-AC8	B-AC9	B-AC10	B-AC11	B-AC12	B-AC13	B-AC14	B-AC15	B-AC16	B-DC1	B-DC2	B-DC3	B-DC4	B-DC5	B-DC6	B-DC7	B-DC8	B-DC9	B-DC10	B-DC11	B-DC12	B-DC13	B-DC14	B-DC15	B-DC16	B-Ph1	B-Ph2	B-Ph3	B-Ph4	B-Ph5	B-Ph6	B-Ph7	B-Ph8	B-Ph9	B-Ph10	B-Ph11	B-Ph12	B-Ph13	B-Ph14	B-Ph15	B-Ph16	aux-1	digaux	

6268.590	1	1	0	256	0.19572	0.19275	0.10225	0.27732	0.21401	0.17498	0.1099	0.39526	0.15455	0.2301	0.39109	0.058987	0.083739	0.35849	0.27302	0.20932	-0.1125	-1.1958	-0.225	-0.925	-0.71458	-0.10208	-1.0708	-0.50208	-0.36458	-1	-0.125	-0.94167	-0.92917	-0.26458	-1.1104	-0.80417	23.971	175.861	38.892	-70.169	141.917	139.355	176.409	134.271	168.052	7.403	141.539	-60.212	-42.843	-94.123	180.997	127.223	0.00022352	0.00019266	0.00013746	1008.2	3.6033e-06	2.6166e-06	1104	212.44	3.5825e-06	3.6836e-06	269.91	75.179	58.414	16.844	3.2999e-06	23.439	0.0012571	0.0015425	0.00043348	1003.2	1.6256e-05	1.7318e-05	1102.7	214.21	1.6439e-05	1.7212e-05	274.52	77.624	60.582	17.617	1.6265e-05	24.644	153.502	190.882	-87.089	-126.321	-105.137	15.659	-126.427	-119.272	107.055	-3.316	-119.381	-113.056	-112.889	-105.089	30.510	-105.692	-8191	255	
6268.684	1	1	0	0	0.19067	0.18871	0.12596	0.20114	0.24256	0.023202	0.40537	0.11574	0.25982	0.18301	0.30013	0.30542	0.38507	0.15783	0.20858	0.17935	0.20208	-0.82292	-0.26042	-0.62292	-0.87708	0.0041667	-0.94167	-0.62292	-0.045833	-0.98333	-0.48333	-0.60625	-0.88333	-0.085417	-0.86667	-0.65625	5.653	103.340	-26.261	222.628	6.590	198.649	139.918	113.402	-41.689	80.707	-128.234	192.725	-62.620	196.749	121.390	79.255	0.00017758	0.00052276	0.00016189	1008.5	4.0787e-06	4.7127e-06	1102	212.23	2.4617e-06	3.8555e-06	269.31	75.664	58.386	16.785	3.7511e-06	23.177	0.0012648	0.0015257	0.00043029	1003.4	1.6105e-05	1.7188e-05	1102.5	214.3	1.6221e-05	1.6974e-05	273.95	77.42	60.544	17.575	1.6621e-05	24.491	157.480	-44.909	-78.128	-126.392	173.850	-7.149	-126.375	-119.203	-65.125	56.175	-119.465	-113.047	-112.535	-105.195	-9.656	-105.742	-8191	255	
6268.780	1	1	0	0	0.2836	0.068566	0.21969	0.33793	0.22678	0.37103	0.2301	0.17196	0.35198	0.19606	0.034709	0.21314	0.45093	0.24044	0.18746	0.041414	0.24792	-0.89583	-0.3125	-0.58125	-0.99583	-0.045833	-1.0792	-0.92083	-0.097917	-0.95417	-0.45833	-0.49792	-1.0042	-0.37292	-0.60625	-0.70833	115.170	-99.766	142.937	182.582	137.463	-62.836	105.163	173.995	-116.410	107.079	48.371	198.739	-96.400	107.138	-80.198	-103.335	0.00015796	0.00052881	6.8518e-05	1011.8	1.8212e-06	1.4563e-06	1101.8	212.59	3.1099e-06	4.4148e-06	270.4	74.961	58.662	16.736	4.251e-06	23.34	0.0012257	0.0015262	0.00042793	1004.5	1.6555e-05	1.7308e-05	1099.1	214.13	1.608e-05	1.704e-05	273.25	77.345	60.544	17.532	1.6443e-05	24.497	166.908	0.294	193.519	-126.448	-63.528	8.786	-126.620	-119.078	3.297	37.002	-119.467	-113.484	-112.987	-104.955	-6.708	-105.707	-8191	255	
6268.876	1	1	0	0	0.055982	0.16071	0.29352	0.34418	0.2234	0.090172	0.16531	0.12709	0.37035	0.19212	0.38285	0.19798	0.045759	0.071604	0.01314	0.4154	0.3875	-0.92917	-0.55208	-0.5625	-0.9875	-0.21042	-0.72708	-1.0375	-0.0875	-1.0812	-0.73542	-0.20417	-1.0875	-0.25208	-0.54792	-1.0479	46.230	-49.138	-58.299	186.862	201.563	-120.721	209.386	193.445	99.616	165.985	158.512	114.826	30.806	143.282	-63.395	199.608	0.0001478	0.00071215	5.2331e-05	1008.1	3.3186e-06	2.7621e-06	1105.3	212.37	2.8873e-06	1.0692e-06	271.82	74.876	58.82	16.74	3.2569e-06	23.231	0.0012529	0.0015155	0.00042377	1003.2	1.6156e-05	1.7032e-05	1102.5	214.15	1.6176e-05	1.7049e-05	274.1	77.357	60.644	17.51	1.6339e-05	24.459	181.208	-44.923	-67.143	-126.677	65.924	-49.816	-126.293	-119.206	6.273	83.185	-119.284	-113.135	-112.690	-104.629	32.010	-105.477	-8191	255	
6268.973	1	1	0	0	0.16963	0.15163	0.10096	0.16946	0.15367	0.2213	0.15986	0.23558	0.038155	0.086476	0.18091	0.063763	0.16238	0.23966	0.25607	0.16814	0.49792	-0.84167	-0.57292	-0.23542	-0.84583	-0.4	-0.45833	-1.0646	-0.039583	-0.81042	-1.0104	-0.19167	-0.9	-0.35625	-0.25625	-0.93542	69.779	-81.411	213.824	-111.324	155.271	101.443	196.578	-134.334	-136.460	130.357	209.980	-46.695	-126.716	156.735	-62.835	-76.383	0.00020609	8.0025e-05	0.00015981	1011.6	5.2942e-06	4.2598e-06	1105.6	212.8	2.2452e-06	4.9714e-06	269.41	75.286	59.05	16.745	1.9478e-06	23.327	0.0012413	0.0014974	0.0004232	1003.3	1.6195e-05	1.6797e-05	1101.5	214.01	1.6126e-05	1.6836e-05	272.77	77.501	60.645	17.467	1.6358e-05	24.531	188.580	-4.192	-28.728	-126.477	86.625	24.952	-126.876	-119.172	-49.184	-48.282	-119.410	-113.034	-112.480	-105.057	146.975	-105.485	-8191	255	
6269.069	1	1	0	0	0.25275	0.30186	0.18808	0.34976	0.019401	0.25763	0.32248	0.28283	0.25646	0.12441	0.10016	0.10462	0.24296	0.17393	0.11473	0.024911	0.32292	-0.61875	-0.6375	-0.22083	-1.05	-0.35208	-0.57917	-1.3125	-0.20833	-0.71042	-0.925	-0.23958	-1.0167	-0.47917	-0.3125	-1.2437	73.578	-79.275	101.358	220.024	63.929	-94.753	151.994	149.750	92.960	46.848	96.414	-117.053	209.964	-82.905	-3.399	2.901	0.00023387	0.0005235	5.6848e-05	1005	1.9408e-06	6.7029e-06	1103.6	213	1.4037e-06	3.3462e-06	270.39	75.313	58.906	16.665	4.2309e-06	23.242	0.0012245	0.0015067	0.00042369	1001.9	1.5928e-05	1.6742e-05	1098.8	214.11	1.6241e-05	1.6724e-05	273.29	77.444	60.555	17.484	1.6176e-05	24.458	166.427	-24.360	-58.066	-126.396	3.482	31.813	-126.462	-119.130	29.127	46.443	-119.187	-112.980	-112.320	-104.696	78.306	-104.948	-8191	255	
6269.165	1	1	0	0	0.16001	0.050262	0.089322	0.13873	0.089129	0.16453	0.47323	0.33588	0.14741	0.20727	0.19367	0.080837	0.036588	0.34097	0.16455	0.28489	0.2125	-0.60833	-0.8625	-0.2625	-0.8	-0.66667	-0.34375	-1.1625	-0.25208	-0.52292	-0.89792	0.025	-0.93333	-0.58958	-0.10625	-1.1083	173.354	194.928	134.799	-108.874	183.805	-53.689	216.849	201.414	166.417	-71.677	13.591	150.396	-15.806	116.848	197.357	103.648	0.00015615	0.00043922	7.7544e-05	1005.8	2.1534e-06	5.702e-06	1101.5	212.17	4.1928e-06	8.8604e-06	270.81	74.787	58.764	16.668	1.9588e-06	23.157	0.0012467	0.001514	0.00041624	1000.8	1.6088e-05	1.6753e-05	1099.1	214.13	1.5867e-05	1.6722e-05	273.32	77.244	60.475	17.499	1.6398e-05	24.457	182.829	-51.987	76.021	-126.207	11.367	-11.362	-126.238	-119.155	-23.805	-61.734	-119.360	-112.981	-112.212	-104.779	-43.818	-105.416	-8191	255	
6269.286	1	1	0	0	0.12377	0.26211	0.25506	0.0829	0.20636	0.23853	0.10467	0.093773	0.092378	0.11103	0.12074	0.12236	0.046654	0.097052	0.28356	0.02229	0.05	-0.41458	-1.0167	-0.064583	-0.83125	-0.59375	-0.18125	-1.1187	-0.40625	-0.58125	-1.0417	-0.15208	-0.87917	-0.70208	-0.14167	-1.0583	-78.162	67.314	191.132	-22.473	-56.511	-88.376	123.100	-6.063	136.288	30.642	168.505	-135.136	-7.873	-44.726	57.717	-18.553	0.00011591	0.00037431	0.00018059	1009.1	3.4258e-06	2.0862e-06	1098.2	211.55	1.3131e-06	6.0408e-06	270.08	75.307	59.022	16.857	5.6513e-06	23.404	0.0012353	0.0015128	0.00041261	1002.7	1.5862e-05	1.6601e-05	1098.1	213.81	1.5787e-05	1.6494e-05	273.46	77.44	60.554	17.562	1.6291e-05	24.488	171.345	-107.028	-81.366	-126.473	-28.223	-126.757	-126.196	-118.805	200.120	-2.961	-119.453	-112.643	-112.308	-104.580	64.504	-105.321	-8191	255	
6269.382	1	1	0	0	0.21457	0.20914	0.17153	0.22797	0.071039	0.13224	0.25853	0.072537	0.029224	0.10232	0.10182	0.29468	0.10542	0.075147	0.17277	0.19689	-0.060417	-0.32708	-1.1313	-0.28542	-0.675	-0.9625	-0.1125	-0.90625	-0.51458	-0.20833	-1.1521	-0.079167	-0.64167	-1.0354	-0.18125	-0.81458	109.373	209.637	117.617	77.784	0.071	-28.591	195.988	-6.090	25.112	164.674	193.447	22.638	217.261	-122.272	58.339	120.280	0.00013218	0.00074445	9.9193e-05	1007.3	4.4914e-06	3.1818e-06	1102.9	211.87	2.1814e-06	3.4322e-06	270.19	75.47	58.717	16.809	2.814e-06	23.25	0.0011965	0.0014833	0.00041611	1001.4	1.5648e-05	1.6679e-05	1098.1	213.63	1.5814e-05	1.6519e-05	273.33	77.344	60.61	17.521	1.6252e-05	24.455	163.160	-63.397	220.504	-126.277	-75.667	42.270	-126.169	-119.020	-50.316	-131.094	-119.129	-112.742	-112.383	-104.510	61.312	-105.425	-8191	255	
6269.478	1	1	0	0	0.24322	0.27047	0.21542	0.30332	0.4137	0.26756	0.12729	0.15764	0.20406	0.025815	0.06956	0.17841	0.16897	0.080798	0.10814	0.090091	-0.029167	-0.35833	-1.0312	-0.33958	-0.58125	-0.975	-0.25	-0.71667	-0.6	-0.15833	-1.1396	-0.3875	-0.46042	-1.1125	-0.075	-0.88125	222.619	-87.220	-133.502	212.589	106.853	-123.626	200.933	-12.510	88.466	66.214	16.787	129.163	152.948	152.499	7.983	-88.943	0.00020295	0.00091142	0.00016782	1007.2	6.4914e-06	2.5697e-06	1097.2	212.75	5.1811e-06	5.8349e-06	267.68	75.191	58.578	16.69	3.9773e-06	23.321	0.0012136	0.0014897	0.00041743	1000.6	1.5706e-05	1.6695e-05	1096.9	213.67	1.5838e-05	1.6893e-05	272.74	77.255	60.492	17.432	1.6053e-05	24.495	166.380	-32.519	-19.455	-126.270	35.743	0.446	-126.193	-118.728	-51.106	46.604	-119.144	-113.448	-112.447	-104.884	28.818	-105.554	-8191	255	
6269.574	1	1	0	0	0.084188	0.12673	0.12283	0.30116	0.16412	0.064352	0.10943	0.056286	0.25321	0.10383	0.21626	0.16639	0.16833	0.28445	0.11391	0.20437	-0.25417	-0.18958	-0.9875	-0.40208	-0.43958	-1.2604	-0.18125	-0.72708	-0.64583	-0.025	-1.0625	-0.51667	-0.29375	-1.0083	-0.091667	-0.80417	-93.195	28.281	214.987	31.897	104.490	197.106	152.195	149.596	118.236	116.906	125.163	-66.734	-60.033	-82.443	19.194	-87.230	0.00015447	0.00035531	2.9013e-05	1007.6	1.6487e-06	1.9072e-06	1095.4	211.07	2.6586e-06	1.3586e-06	268.79	74.706	58.562	16.675	5.5306e-06	23.119	0.0012206	0.0014992	0.00041614	999.83	1.6014e-05	1.6686e-05	1096.4	213.7	1.585e-05	1.682e-05	272.95	77.168	60.529	17.485	1.613e-05	24.462	186.403	6.156	-104.477	-126.381	-33.016	202.745	-126.439	-118.861	-36.373	113.650	-118.941	-112.682	-112.494	-104.464	33.866	-104.918	-8191	255	
6269.670	1	1	0	0	0.12252	0.17729	0.23225	0.3723	0.21998	0.15492	0.25611	0.21866	0.2763	0.12369	0.032335	0.20823	0.17471	0.11519	0.14491	0.020985	-0.34375	-0.0020833	-0.78125	-0.59583	-0.36042	-0.84375	-0.44583	-0.81042	-0.77083	-0.17292	-0.95417	-0.68542	-0.23958	-1.0542	-0.14167	-0.58542	66.481	214.401	37.755	146.502	-20.763	59.495	90.524	-58.075	215.711	-1.494	-27.033	-108.264	175.194	67.850	151.134	194.107	0.00019337	0.00067695	0.00012678	1006.8	2.6724e-06	7.0921e-06	1096.9	211.27	3.1652e-06	3.6141e-06	269.93	74.975	58.878	16.801	1.7252e-06	23.374	0.0012146	0.001517	0.00041454	1001.1	1.6092e-05	1.6544e-05	1095.6	213.68	1.5938e-05	1.6871e-05	273.43	77.056	60.583	17.518	1.6175e-05	24.505	196.179	-11.419	63.341	-126.573	-0.380	-12.199	-126.190	-118.971	24.525	-7.826	-118.946	-113.011	-112.248	-104.045	104.290	-104.877	-8191	255	
6269.766	1	1	0	0	0.10978	0.32379	0.15501	0.056393	0.031943	0.1404	0.07167	0.23947	0.2029	0.16544	0.046866	0.14594	0.062212	0.19001	0.073316	0.15259	-0.625	0.0083333	-0.9125	-0.70833	-0.16667	-0.91042	-0.36042	-0.53333	-0.89167	0.095833	-0.99583	-0.76458	-0.12917	-1.1146	-0.52083	-0.3875	93.451	159.037	-128.990	-38.522	103.159	70.596	201.323	-108.042	-43.690	62.267	-90.677	-46.021	-8.902	117.374	93.447	-17.055	0.00018394	0.00067923	1.7796e-05	1008.9	2.8978e-06	3.9082e-06	1099.9	212.03	3.1714e-06	1.7027e-06	269.18	74.613	58.259	16.695	1.5815e-06	23.267	0.001223	0.0015024	0.00042128	1002.5	1.5993e-05	1.6613e-05	1095	213.48	1.5818e-05	1.6673e-05	272.89	77.074	60.313	17.523	1.6274e-05	24.477	159.580	3.037	180.542	-126.337	0.600	18.225	-126.154	-118.610	-14.191	80.520	-119.019	-113.195	-112.324	-104.054	42.949	-104.968	-8191	255	
6269.885	1	1	0	0	0.19745	0.17303	0.13797	0.30653	0.087398	0.19092	0.21734	0.24894	0.22335	0.19118	0.21222	0.07548	0.15343	0.31866	0.079955	0.25525	-0.66875	-0.089583	-0.80208	-0.65625	-0.23958	-0.9125	-0.48125	-0.48333	-0.94792	-0.25	-0.775	-0.81458	-0.125	-0.95625	-0.6125	-0.3	78.183	16.590	169.098	187.404	-105.228	174.122	147.301	204.300	-64.149	74.756	-54.051	221.832	-69.669	193.585	216.253	49.013	0.00018211	0.00036965	2.8039e-05	1011.4	3.7295e-06	2.6616e-06	1094.7	212.29	2.8107e-06	5.0039e-06	270.62	75.305	58.839	16.863	5.1041e-06	23.394	0.0011914	0.0015061	0.00041449	1003.3	1.6042e-05	1.6728e-05	1095.4	213.52	1.5729e-05	1.6353e-05	273.92	77.203	60.557	17.555	1.5945e-05	24.455	166.167	-98.887	-13.860	-126.115	-69.062	26.186	-126.362	-118.602	2.673	-2.300	-118.631	-112.418	-112.429	-104.799	3.166	-105.366	-8191	255	
6269.981	1	1	0	0	0.044425	0.10842	0.05171	0.041866	0.19321	0.15591	0.20413	0.1319	0.23896	0.19285	0.043242	0.17067	0.18883	0.21121	0.087	0.37521	-0.76042	-0.20208	-0.51667	-0.88125	-0.14583	-1.0521	-0.575	-0.35417	-1.075	-0.31458	-0.55	-0.96875	-0.1125	-0.85417	-0.51458	-0.13125	-24.772	149.432	73.978	136.535	169.585	215.840	143.991	136.891	47.556	55.702	53.124	93.305	-95.370	177.456	-84.695	61.843	0.00016861	0.00012947	9.7196e-05	1004.9	7.4114e-06	8.1758e-06	1097.2	209.92	3.8581e-06	3.8449e-06	268.88	75.114	58.818	16.692	3.6608e-06	23.27	0.0012038	0.0014903	0.00042353	999.17	1.5873e-05	1.6566e-05	1096.4	213.19	1.6068e-05	1.6939e-05	272.53	77.211	60.453	17.484	1.6631e-05	24.444	167.232	130.525	-118.871	-126.373	-24.191	42.495	-126.228	-119.234	-83.219	25.389	-119.100	-112.667	-112.083	-104.610	-15.802	-105.828	-8191	255	
6270.077	1	1	0	0	0.12798	0.35475	0.16251	0.24779	0.11927	0.20943	0.48931	0.10532	0.37618	0.30732	0.25606	0.11361	0.14619	0.20672	0.12276	0.14333	-0.59583	-0.15625	-0.20625	-1.0438	-0.066667	-0.81042	-0.90208	-0.26667	-1.0458	-0.31458	-0.44792	-0.99792	-0.24167	-0.53125	-0.9	-0.08125	-10.341	220.303	-36.263	-108.710	-85.285	217.665	128.388	70.935	-132.914	86.419	157.270	46.181	188.011	214.798	-118.067	170.559	0.00026593	0.00067108	6.8576e-05	1008.1	3.5711e-06	1.1127e-06	1098.7	211.76	5.3308e-06	2.1942e-06	267.96	75.466	58.799	16.709	2.177e-06	23.274	0.0012214	0.0015084	0.00042304	1001.9	1.6266e-05	1.6748e-05	1097	213.48	1.608e-05	1.6934e-05	272.46	77.502	60.646	17.529	1.6179e-05	24.466	179.363	-62.911	23.843	-126.269	1.861	159.568	-126.281	-119.227	27.130	164.535	-119.080	-112.784	-112.457	-104.992	-12.310	-105.297	-8191	255	
6270.174	1	1	0	0	0.2423	0.068729	0.058775	0.19955	0.1152	0.20795	0.24372	0.28489	0.12198	0.15721	0.21178	0.15063	0.22023	0.13681	0.27113	0.088308	-0.52292	-0.28958	-0.10417	-1.2208	-0.18125	-0.65208	-0.85208	-0.25417	-0.92708	-0.54583	-0.43958	-1.1708	-0.45	-0.61458	-0.93125	-0.28958	-16.697	-66.632	-73.738	194.731	-33.449	67.065	-98.911	216.127	204.081	-47.346	28.461	18.320	-121.500	170.008	-125.533	66.555	0.00014585	0.00045112	0.00015975	1005.6	4.0072e-06	7.0988e-06	1100	210.18	6.5362e-07	2.0293e-06	268.15	74.497	58.319	16.813	3.6319e-07	23.223	0.0012168	0.0014908	0.00041946	1001.8	1.6081e-05	1.6727e-05	1096.6	213.52	1.6106e-05	1.6744e-05	272.45	77.176	60.537	17.532	1.6348e-05	24.393	186.677	-105.509	-52.812	-126.220	-103.947	213.018	-126.152	-118.844	61.058	10.943	-119.247	-112.690	-112.148	-104.340	169.841	-104.928	-8191	255	
6270.270	1	1	0	0	0.17535	0.086941	0.12626	0.17086	0.11024	0.18262	0.16769	0.29119	0.17183	0.19054	0.23368	0.089737	0.15711	0.13229	0.13497	0.22887	-0.56042	-0.38125	-0.11458	-1.0708	-0.17708	-0.6375	-1.1688	-0.21458	-0.91458	-0.6125	-0.18958	-0.94792	-0.32292	-0.36667	-0.92708	-0.14583	-117.522	203.187	-43.961	-112.556	13.600	-26.485	-124.107	196.322	111.054	50.147	182.440	-81.880	-121.454	-14.441	-13.324	-128.911	0.00023422	0.00047763	0.00015717	1005.5	2.8399e-06	1.4214e-06	1100.3	212.19	3.3222e-06	5.6106e-06	270.25	74.652	58.38	16.718	7.6891e-06	23.012	0.0012194	0.0015264	0.00041839	1001.2	1.6215e-05	1.678e-05	1096.1	213.31	1.6015e-05	1.6458e-05	273.37	77.12	60.354	17.431	1.6402e-05	24.359	173.520	-72.879	24.849	-126.433	-73.492	128.301	-126.177	-119.260	-31.106	55.792	-118.881	-112.868	-112.839	-104.452	-24.103	-105.072	-8191	255	
6270.366	1	1	0	0	0.11267	0.29032	0.18217	0.2096	0.06528	0.23653	0.35836	0.21967	0.023257	0.11255	0.17154	0.052663	0.091206	0.14827	0.16199	0.096773	-0.25208	-0.56875	-0.01875	-1.0146	-0.37708	-0.36458	-1.1354	-0.077083	-0.79167	-0.80417	-0.16667	-0.96667	-0.37083	-0.39583	-1.1167	0.016667	-105.821	-94.399	104.083	124.927	131.715	68.860	-124.613	174.629	-33.309	114.762	216.961	81.044	-131.217	-98.520	-63.968	118.270	0.00013888	4.2942e-05	0.00011403	1010	1.4795e-06	5.6328e-06	1101.9	211.96	1.2741e-06	5.5789e-06	268.45	74.725	58.636	16.805	3.286e-06	23.235	0.0012302	0.001513	0.00042368	1002.3	1.602e-05	1.6739e-05	1096.6	213.34	1.5905e-05	1.681e-05	273.1	77.149	60.373	17.484	1.6053e-05	24.375	180.470	164.459	-114.497	-125.977	-36.960	9.444	-126.153	-118.963	-37.934	50.213	-119.065	-112.530	-112.611	-105.138	-62.445	-105.269	-8191	255	
6270.462	1	1	0	0	0.25914	0.2228	0.24421	0.083272	0.18662	0.085433	0.25764	0.050946	0.079571	0.31442	0.19973	0.04644	0.25385	0.13845	0.2173	0.18469	-0.22083	-0.73542	0.058333	-1.0375	-0.23542	-0.18958	-1.0583	-0.18125	-0.5625	-1.0458	-0.075	-0.92083	-0.52708	-0.089583	-1.0083	-0.40208	-132.314	19.602	214.434	202.978	42.053	140.671	146.863	-1.242	-109.683	97.432	191.762	117.531	-72.392	111.754	-45.779	165.558	0.00027153	0.00042917	4.1802e-05	1009.1	3.9469e-06	1.6578e-06	1103.4	210.55	2.6658e-06	2.9927e-06	270.24	74.406	58.553	16.721	3.8096e-06	23.25	0.001222	0.0015206	0.00042437	1002.9	1.5987e-05	1.7064e-05	1096.6	213.04	1.5962e-05	1.6837e-05	272.83	77.296	60.283	17.453	1.6351e-05	24.377	169.503	53.443	-125.498	-126.334	33.795	93.981	-126.463	-119.324	12.478	-109.931	-119.000	-112.835	-112.100	-104.691	-73.660	-105.034	-8191	255	
6270.581	1	1	0	0	0.1526	0.15163	0.16473	0.063478	0.085689	0.14359	0.17125	0.13093	0.056016	0.24773	0.13452	0.22713	0.16206	0.28055	0.27186	0.17838	-0.13333	-0.78958	0.0083333	-0.94167	-0.42708	-0.27292	-1.1646	-0.4375	-0.47292	-0.86042	-0.3125	-0.79167	-0.67917	0.066667	-0.83125	-0.30833	19.390	6.951	176.537	22.728	-59.919	16.148	8.581	171.678	200.125	47.985	-107.236	-131.183	197.063	133.575	109.981	158.128	0.00017707	0.00052772	0.00019686	1007.5	5.9083e-06	3.6703e-07	1098.7	211.06	3.1509e-06	5.9732e-06	270.06	75.222	58.153	16.722	2.3519e-06	23.231	0.0012274	0.001514	0.00042478	1002.4	1.6144e-05	1.6903e-05	1098.1	213.34	1.6097e-05	1.6805e-05	273.06	77.24	60.251	17.454	1.6527e-05	24.406	188.959	-50.232	-51.171	-126.213	-45.366	-54.436	-126.343	-119.091	44.430	-41.812	-119.192	-112.778	-112.737	-104.746	-1.712	-105.183	-8191	255	
6270.677	1	1	0	0	0.13881	0.4617	0.089301	0.059902	0.16454	0.022101	0.25438	0.22108	0.13098	0.27915	0.34147	0.1599	0.31805	0.26113	0.29333	0.010701	0.020833	-0.9375	-0.022917	-0.83333	-0.73542	0.03125	-1.1375	-0.32083	-0.34375	-0.8	-0.10833	-0.75208	-0.80417	-0.022917	-0.81667	-0.36042	34.473	78.894	-12.187	218.876	118.053	96.961	212.040	-123.595	-72.412	81.331	150.650	-94.330	47.176	143.372	37.309	208.480	0.00015909	0.00026899	0.00018174	1007.3	2.9162e-06	2.5017e-06	1101.4	210.85	4.4546e-06	7.3055e-06	268.9	74.4	58.72	16.756	5.1009e-06	23.171	0.0012168	0.0014993	0.00043049	1002.2	1.636e-05	1.6822e-05	1098.9	213.07	1.595e-05	1.6983e-05	273.19	76.869	60.413	17.467	1.6294e-05	24.366	175.772	144.798	15.949	-126.307	76.823	53.806	-126.432	-119.211	-28.218	3.508	-119.276	-112.484	-112.658	-105.187	21.525	-105.682	-8191	255	
6270.750	1	1	0	0	0.13017	0.1562	0.17612	0.21529	0.14719	0.11983	0.43398	0.1747	0.073925	0.13072	0.12179	0.082438	0.23152	0.27708	0.087722	0.044207	-0.035417	-0.94583	-0.14792	-0.46458	-0.77917	-0.125	-0.96458	-0.68125	-0.18958	-1.1729	-0.47708	-0.60417	-0.88542	-0.18542	-0.95833	-0.70208	150.198	120.397	43.877	-127.932	191.526	65.018	150.613	138.876	186.625	-109.231	-97.854	107.955	150.407	-116.136	56.506	-68.962	0.0002221	0.00038944	0.00011875	1006.5	1.9586e-06	1.8876e-06	1099.2	210.86	4.1859e-06	2.9585e-06	268.77	74.548	58.279	16.71	3.8682e-06	23.449	0.0012312	0.0015233	0.00042342	1002	1.6005e-05	1.6919e-05	1097.6	212.93	1.595e-05	1.6713e-05	273	76.982	60.235	17.45	1.6408e-05	24.378	160.524	-16.577	11.397	-126.252	-37.166	-8.150	-126.350	-119.409	-14.809	68.534	-119.389	-112.826	-112.607	-104.740	-35.377	-105.182	-8191	255	
6270.847	1	1	0	0	0.28326	0.16769	0.13084	0.20832	0.28756	0.12713	0.11892	0.12541	0.29039	0.19252	0.27858	0.48496	0.12635	0.092221	0.13253	0.35591	0.0875	-1.0479	-0.2125	-0.23333	-0.95	-0.125	-1.0208	-0.86875	-0.225	-0.9125	-0.375	-0.16667	-0.88958	-0.04375	-0.71042	-0.94792	56.886	-23.937	-71.250	178.792	-39.588	-109.527	132.880	153.363	112.242	-22.908	-84.387	108.537	-44.968	-124.683	-66.368	60.910	0.00022885	0.00020769	4.8577e-05	1012.2	7.0443e-06	7.7593e-06	1101.3	211.47	1.7373e-06	3.8326e-06	268.75	75.077	58.341	16.648	3.3617e-06	23.098	0.0012424	0.0015257	0.00042269	1004.9	1.6184e-05	1.6842e-05	1098.8	213.35	1.626e-05	1.6849e-05	272.83	77.241	60.313	17.404	1.6439e-05	24.328	176.650	217.899	28.032	-126.215	-56.219	41.555	-126.369	-119.264	44.126	-7.966	-119.179	-113.414	-112.378	-104.704	1.424	-105.762	-8191	255	
6270.966	1	1	0	0	0.19275	0.23791	0.20302	0.11324	0.10044	0.051777	0.069469	0.15024	0.2043	0.20177	0.24131	0.10218	0.1574	0.33573	0.18063	0.10766	0.26042	-1.1292	-0.37708	-0.59167	-0.8375	-0.11875	-0.84375	-0.825	-0.054167	-0.91042	-0.55	-0.35	-1.0458	-0.4	-0.725	-0.82708	206.351	81.380	-23.977	38.824	74.306	-97.299	-127.192	134.069	220.554	147.195	176.282	36.670	168.986	197.802	128.708	48.436	0.00023367	4.0276e-05	8.9779e-05	1010.2	1.8081e-06	1.5312e-06	1098	212.55	1.2992e-06	7.0079e-06	268.94	74.662	58.532	16.667	1.8942e-06	23.197	0.0012473	0.0015139	0.00041826	1002.7	1.611e-05	1.6856e-05	1097.9	213.75	1.6074e-05	1.6761e-05	272.97	77.052	60.385	17.429	1.6241e-05	24.383	194.051	-125.110	-13.374	-126.217	12.621	146.858	-126.354	-119.033	8.085	-2.107	-119.112	-112.835	-112.008	-104.970	-73.070	-104.629	-8191	255	
6271.062	1	1	0	0	0.11489	0.18008	0.20008	0.14737	0.11192	0.20951	0.136	0.074457	0.084995	0.13835	0.16396	0.2528	0.076111	0.11409	0.18576	0.15598	0.46667	-0.92083	-0.59167	-0.20417	-1.0125	-0.32292	-0.80833	-1.0604	0.054167	-0.775	-0.68333	-0.2375	-1.0146	-0.16875	-0.22917	-0.89792	-93.874	-119.400	191.204	108.057	-65.026	-60.103	128.503	152.540	175.201	40.291	84.824	148.379	117.948	-133.304	24.830	-65.032	0.00016078	0.00040282	5.7256e-05	1006.3	4.7203e-06	3.5572e-06	1101.3	211.82	1.807e-06	2.1766e-06	266.98	74.721	58.556	16.536	6.863e-06	23.261	0.0012356	0.0015002	0.00042671	1001.2	1.5798e-05	1.6854e-05	1098.5	213.23	1.6188e-05	1.7009e-05	272.04	76.953	60.3	17.357	1.6489e-05	24.38	195.025	-16.857	-136.581	-126.253	57.075	36.343	-126.342	-119.180	157.679	-27.128	-119.248	-112.313	-112.525	-104.731	-6.221	-105.201	-8191	255	
6271.158	1	1	0	0	0.11012	0.17532	0.1836	0.24642	0.12523	0.23478	0.20312	0.13613	0.25671	0.046767	0.055707	0.078047	0.23471	0.13565	0.22361	0.14726	0.44792	-0.69375	-0.54167	-0.36042	-1.0146	-0.3875	-0.59375	-1.1896	-0.01875	-0.67083	-0.95	-0.0041667	-1.0146	-0.475	-0.34167	-0.98542	-114.796	132.001	146.627	203.649	204.788	194.197	25.356	98.242	209.289	-12.800	47.083	136.753	218.640	183.109	83.113	-63.452	0.00019123	0.00035354	9.323e-05	1013	3.6354e-06	3.1985e-06	1098.4	212.31	2.7248e-06	1.2837e-06	268.71	74.561	58.185	16.682	2.5703e-06	23.1	0.0012365	0.0015124	0.0004272	1003.9	1.6197e-05	1.7077e-05	1098.3	213.37	1.6204e-05	1.6904e-05	272.68	77.058	60.4	17.433	1.6598e-05	24.397	177.208	-20.594	-24.045	-126.556	-5.609	11.272	-126.600	-119.110	-21.088	-42.579	-119.251	-112.359	-112.505	-104.939	-67.704	-105.708	-8191	255	
6271.254	1	1	0	0	0.35646	0.25644	0.17431	0.095415	0.30481	0.23577	0.20307	0.15064	0.12249	0.13378	0.12051	0.13235	0.20315	0.1556	0.28086	0.18815	0.08125	-0.675	-0.67292	-0.3875	-0.85417	-0.39792	-0.40625	-1.15	-0.15208	-0.58125	-0.98958	-0.11667	-0.76458	-0.41458	-0.12708	-1.1229	185.769	96.436	80.108	112.666	47.954	-73.199	188.988	87.452	-133.189	91.362	-77.905	-52.570	167.972	88.041	149.026	31.551	0.00013076	0.00018132	0.000117	1004.1	2.2751e-06	3.8107e-06	1103.9	212.76	4.2724e-06	8.3561e-07	269.37	74.928	58.2	16.733	2.6879e-06	23.133	0.0012213	0.0015401	0.00042134	1003.6	1.6217e-05	1.705e-05	1100.5	213.87	1.6221e-05	1.7111e-05	273.71	77.03	60.26	17.428	1.6294e-05	24.409	151.471	-88.646	-56.365	-126.133	-51.477	78.662	-126.343	-118.994	-59.463	-81.480	-119.279	-112.785	-112.280	-104.713	17.383	-105.486	-8191	255	
6271.375	1	1	0	0	0.3006	0.14035	0.29813	0.13636	0.0066623	0.25113	0.23173	0.15308	0.29334	0.037652	0.12748	0.36127	0.38004	0.12415	0.099947	0.23801	0.12083	-0.54167	-1.0688	-0.16458	-0.825	-0.68542	-0.36458	-0.92917	-0.045833	-0.32917	-0.95625	-0.0125	-0.66458	-0.61042	-0.029167	-0.78542	178.388	4.130	78.800	176.574	91.850	120.073	84.450	0.009	42.147	8.650	167.808	-49.381	167.879	9.542	209.032	66.348	0.00017904	0.00023831	0.00014569	1007.4	2.9807e-06	4.5381e-06	1104.7	211.67	5.7589e-06	4.2578e-06	270.5	74.377	58.857	16.701	5.3431e-06	23.236	0.0012347	0.0015333	0.00042462	1001.7	1.6129e-05	1.7062e-05	1100	213.22	1.6174e-05	1.6956e-05	273.42	77.135	60.641	17.445	1.6313e-05	24.356	140.070	-13.851	211.540	-126.566	15.410	34.754	-126.182	-118.809	-0.893	-52.727	-119.090	-112.674	-112.373	-105.093	-47.673	-105.528	-8191	255	
6271.446	1	1	0	0	0.26441	0.10671	0.094285	0.23931	0.17576	0.11999	0.1418	0.22309	0.035901	0.19487	0.14477	0.32171	0.11798	0.079477	0.13283	0.30006	0.079167	-0.24167	-1.0417	-0.20208	-0.65208	-0.72917	-0.18542	-0.92708	-0.34375	-0.16667	-0.96042	-0.24167	-0.57083	-0.8125	-0.30625	-0.84375	41.427	24.503	78.338	178.550	222.101	205.132	185.706	102.784	145.740	93.174	-91.472	138.705	204.940	168.815	-33.680	122.400	0.00017953	4.7679e-05	6.585e-05	1011.5	3.1997e-06	3.5598e-06	1105.9	212.14	6.2647e-06	6.3072e-06	268.3	74.789	58.606	16.525	4.661e-06	23.129	0.0012231	0.0015259	0.00042045	1004.4	1.6046e-05	1.6897e-05	1098.6	213.82	1.5809e-05	1.6803e-05	273.36	77.159	60.389	17.375	1.6223e-05	24.384	177.326	148.662	-24.501	-126.401	81.677	-6.987	-126.303	-119.250	45.134	23.920	-118.760	-112.716	-112.718	-104.717	5.902	-105.247	-8191	255	
6271.567	1	1	0	0	0.066942	0.13242	0.26799	0.17321	0.17783	0.054958	0.2451	0.11207	0.13008	0.24232	0.31026	0.14188	0.18451	0.29704	0.14275	0.2137	0.070833	-0.15	-0.92292	-0.44792	-0.5875	-0.89167	-0.25208	-1.0792	-0.34375	-0.24583	-1.0479	-0.36042	-0.47708	-0.77708	-0.01875	-0.87083	-65.697	115.107	34.378	-70.620	-3.257	132.788	183.305	171.355	-52.501	3.974	178.544	189.497	52.697	-5.178	45.107	179.247	0.00028173	0.00050718	0.00025203	1007.7	1.9729e-06	4.9971e-06	1103	211.27	5.0114e-06	5.883e-06	268.75	74.882	58.554	16.769	3.234e-06	22.978	0.0012103	0.0015158	0.00042293	1001.8	1.6026e-05	1.6858e-05	1098	213.62	1.6039e-05	1.7058e-05	272.11	76.942	60.386	17.464	1.6512e-05	24.363	166.500	-34.632	18.723	-126.070	-4.775	92.501	-126.394	-118.799	-44.519	-5.043	-118.923	-112.894	-112.757	-105.026	47.180	-105.078	-8191	255	
6271.663	1	1	0	0	0.061054	0.1671	0.087318	0.11406	0.45769	0.27138	0.15347	0.097438	0.088553	0.31193	0.064385	0.25219	0.22709	0.16911	0.24636	0.08134	-0.21875	-0.15833	-0.94583	-0.35417	-0.3625	-0.99167	-0.21875	-0.92083	-0.63333	-0.12292	-1.05	-0.375	-0.48125	-1.0125	-0.045833	-0.67292	189.998	-135.439	86.111	222.649	77.171	-91.952	158.659	-73.691	79.695	206.387	-34.551	214.141	198.894	20.975	7.636	63.847	0.00016733	0.00075133	0.00018245	1012.1	4.1004e-06	2.7339e-06	1099.4	212.05	1.8535e-06	6.0005e-06	269.17	74.765	58.889	16.622	5.0922e-06	23.165	0.0012273	0.0015102	0.00041921	1003.8	1.6297e-05	1.6537e-05	1099	213.4	1.5793e-05	1.6934e-05	272.7	76.852	60.464	17.345	1.6214e-05	24.372	177.582	-74.936	87.284	-126.662	-19.837	32.467	-126.486	-119.083	-81.731	48.797	-119.159	-113.017	-112.564	-104.653	3.891	-105.265	-8191	255	
6271.757	1	1	0	0	0.14226	0.16248	0.10736	0.27941	0.14961	0.13696	0.26931	0.13269	0.049407	0.24493	0.10531	0.13722	0.013763	0.18631	0.11576	0.2734	-0.40625	0.022917	-0.88958	-0.46667	-0.175	-0.85417	-0.2625	-0.7	-0.67292	-0.016667	-0.86667	-0.46667	-0.30625	-0.92083	-0.18958	-0.57708	140.784	216.563	-44.021	205.680	178.232	158.805	191.521	154.798	13.153	-106.800	62.397	212.009	-97.475	-104.512	-36.221	185.770	0.0002137	0.00037181	0.00020329	1010.5	4.2343e-06	4.2714e-06	1107.6	210.79	5.3358e-06	4.453e-06	267.76	74.533	58.544	16.669	3.1241e-06	23.222	0.0012301	0.0014978	0.00042348	1002.1	1.5819e-05	1.6661e-05	1101.3	213.33	1.5838e-05	1.6685e-05	273.27	76.878	60.398	17.395	1.6128e-05	24.336	179.250	-49.181	-36.228	-126.024	-51.562	106.282	-126.232	-118.806	-57.331	71.937	-118.844	-112.721	-112.587	-104.672	-27.192	-105.095	-8191	255	
6271.854	1	1	0	0	0.24257	0.13338	0.41547	0.13635	0.065288	0.23258	0.29231	0.22324	0.40338	0.15209	0.012704	0.065302	0.0093856	0.031893	0.032695	0.072621	-0.41875	0.025	-0.77917	-0.6	0	-0.88542	-0.52292	-0.56875	-1.0208	-0.14375	-0.88333	-0.90833	-0.022917	-0.97917	-0.22292	-0.17917	151.301	-4.366	-85.027	183.870	117.680	124.450	151.273	-119.413	98.494	-60.579	171.844	171.599	-112.243	-24.537	-50.127	169.698	0.00017109	0.00016053	7.1644e-05	1007.8	1.7735e-06	6.4852e-06	1099.1	210.92	1.5757e-06	9.0741e-06	269.79	75.222	58.723	16.569	2.9943e-06	23.323	0.0012244	0.0015062	0.0004204	1001.5	1.6073e-05	1.6673e-05	1097.3	213.12	1.5971e-05	1.6728e-05	273.02	76.996	60.328	17.405	1.6262e-05	24.366	178.357	82.714	-35.023	-126.121	-3.560	28.268	-126.381	-118.995	-82.291	35.779	-118.976	-112.904	-112.190	-104.309	-70.002	-105.014	-8191	255	
6271.974	1	1	0	0	0.27248	0.058531	0.18547	0.13094	0.27293	0.20215	0.10621	0.13892	0.087908	0.2003	0.065284	0.12199	0.043264	0.13008	0.13288	0.19793	-0.5375	-0.0083333	-0.63542	-0.97292	0.11042	-0.79583	-0.31667	-0.425	-0.79583	-0.11042	-0.76667	-0.69167	0.029167	-1.1021	-0.35833	-0.31042	165.708	216.779	214.200	-120.359	115.103	-103.976	168.059	160.529	135.990	-18.814	3.607	-95.104	-54.615	-48.389	-15.542	23.549	0.00020957	0.00047159	0.00023113	1006.3	4.3721e-06	2.8142e-06	1100.6	211.12	3.1369e-06	5.3107e-06	269.11	75.092	58.399	16.562	5.8186e-06	23.118	0.0012036	0.0015252	0.00042365	1001.4	1.6179e-05	1.6739e-05	1097.6	213.28	1.5801e-05	1.663e-05	273.11	76.905	60.341	17.387	1.6348e-05	24.311	171.884	-37.091	-21.469	-126.120	-46.770	42.762	-126.149	-118.719	-10.066	45.822	-118.864	-112.917	-112.145	-104.506	8.413	-105.160	-8191	255	
6272.046	1	1	0	0	0.34146	0.19136	0.17541	0.32446	0.18996	0.2346	0.16809	0.19679	0.18905	0.045857	0.096492	0.13389	0.10519	0.1248	0.16183	0.32288	-0.59375	-0.23958	-0.52917	-0.96875	-0.0625	-0.825	-0.51667	-0.058333	-0.91042	-0.17917	-0.55	-0.7625	0.0625	-0.77917	-0.33542	-0.21042	63.569	82.071	87.723	213.928	46.818	191.660	144.170	205.268	20.067	166.157	39.173	28.990	135.637	194.893	47.597	27.840	0.00018531	0.00027524	0.0001118	1005.8	3.3051e-06	4.2404e-06	1099.8	211.44	3.7791e-06	1.8913e-06	267.48	74.63	58.283	16.599	3.952e-06	23.031	0.0012076	0.0015363	0.00042296	1001.2	1.6408e-05	1.6773e-05	1096.9	213.43	1.621e-05	1.682e-05	272.2	77.043	60.369	17.414	1.6665e-05	24.273	177.530	-103.901	-38.415	-125.970	-38.436	29.801	-126.260	-118.719	-60.872	-99.683	-118.817	-112.866	-112.400	-104.801	27.480	-104.544	-8191	255	
6272.142	1	1	0	0	0.08059	0.16919	0.23868	0.12045	0.25226	0.060871	0.10373	0.2088	0.10554	0.24877	0.37648	0.20738	0.067721	0.17165	0.19225	0.16475	-0.60208	-0.08125	-0.44375	-0.80625	0.022917	-0.66458	-0.7625	-0.13125	-0.95208	-0.20417	-0.58333	-0.92292	-0.29375	-0.83333	-0.73125	-0.11458	37.773	74.224	177.066	27.746	92.853	-131.762	-65.492	144.447	199.506	98.040	174.828	165.418	33.735	81.081	156.109	-120.458	0.00020564	0.00021249	4.4209e-05	1012.7	1.0547e-06	1.389e-06	1101.3	212.52	4.8499e-06	2.3989e-06	269.84	75.142	58.246	16.649	2.1209e-06	23.24	0.0012495	0.0015545	0.00042523	1006.2	1.6322e-05	1.6752e-05	1098.5	213.59	1.6195e-05	1.7027e-05	273.44	77.144	60.256	17.425	1.6261e-05	24.394	157.801	137.416	210.127	-125.973	-38.288	127.918	-126.060	-118.680	-35.157	193.199	-119.058	-112.950	-112.146	-104.634	52.889	-104.797	-8191	255	
6272.238	1	1	0	0	0.13699	0.27589	0.20521	0.2775	0.053674	0.13961	0.20615	0.14605	0.082745	0.11856	0.077987	0.21703	0.25884	0.52705	0.19588	0.1516	-0.55417	-0.2375	-0.32083	-1.0833	-0.05625	-0.58333	-0.91042	-0.25625	-1.0292	-0.425	-0.38542	-1.1042	-0.29167	-0.55417	-0.85625	-0.2625	152.052	209.751	196.739	185.121	-124.162	-25.629	177.896	119.357	66.218	-47.848	-115.442	182.276	166.715	170.427	129.849	-24.299	0.00015995	0.00026712	5.4794e-05	1008.3	2.066e-06	2.6675e-06	1101.9	211.49	3.3855e-06	4.2352e-06	269.06	74.385	58.654	16.573	2.2054e-06	22.949	0.0012282	0.0015219	0.00042592	1004.4	1.6115e-05	1.7078e-05	1099.4	213.17	1.6083e-05	1.6706e-05	272.54	76.927	60.462	17.399	1.6256e-05	24.207	188.357	-92.258	86.848	-126.103	-59.043	35.464	-126.178	-118.410	-44.509	-5.414	-119.005	-112.886	-112.258	-104.560	-124.712	-105.148	-8191	255	
6272.359	1	1	0	0	0.13508	0.15618	0.20818	0.31593	0.28142	0.23951	0.080098	0.27379	0.075685	0.20414	0.3206	0.023023	0.16589	0.032363	0.079614	0.1059	-0.36042	-0.51458	-0.1375	-1.0854	-0.20208	-0.69792	-0.92708	-0.054167	-1.0063	-0.47292	-0.29792	-1.0896	-0.30417	-0.75	-1.0667	-0.0625	210.272	41.250	-108.847	132.211	-45.058	63.144	158.766	-109.625	216.629	-102.676	-30.033	49.926	23.485	-118.896	15.053	-35.475	0.00030057	0.00018979	5.9006e-05	1009.3	4.0692e-06	2.36e-06	1104.6	210.73	7.4403e-06	3.3716e-06	268.21	74.595	58.7	16.51	3.2181e-06	23.295	0.0012371	0.001504	0.0004236	1003.6	1.6136e-05	1.6503e-05	1098.9	212.6	1.6174e-05	1.6586e-05	272.19	77.03	60.345	17.358	1.6079e-05	24.297	181.728	170.222	-1.741	-125.920	83.926	126.588	-126.038	-118.435	-112.954	64.316	-119.012	-112.542	-111.837	-104.135	24.643	-104.893	-8191	255	
6272.455	1	1	0	0	0.18781	0.098258	0.10786	0.23737	0.075152	0.14229	0.11287	0.17959	0.090485	0.17593	0.10249	0.10856	0.30915	0.26636	0.10421	0.31313	-0.45417	-0.6375	0.027083	-1.1646	-0.23125	-0.3375	-1.1313	-0.16458	-0.79583	-0.44167	-0.32708	-0.95	-0.26667	-0.46042	-0.94583	-0.225	100.137	214.821	125.917	220.534	190.731	98.501	195.624	121.083	198.968	109.481	16.828	-116.936	221.936	203.185	-60.139	-92.089	0.00022402	0.00047158	2.5822e-05	1012.7	3.1144e-06	3.6858e-06	1106.3	211.33	2.3783e-06	1.8426e-06	269.65	74.267	58.79	16.667	3.5534e-06	23.022	0.0012227	0.0014544	0.00041834	1004.2	1.6052e-05	1.6652e-05	1099.5	213.46	1.5738e-05	1.6576e-05	272.54	76.838	60.433	17.446	1.6282e-05	24.328	199.875	-80.409	143.472	-125.830	-36.752	7.844	-125.742	-118.928	-34.239	-47.175	-118.912	-113.057	-112.472	-104.461	73.404	-105.245	-8191	255	
6272.551	1	1	0	0	0.12563	0.090063	0.082539	0.2072	0.014836	0.11137	0.2381	0.21589	0.15146	0.042154	0.16003	0.28586	0.15154	0.20933	0.057444	0.1064	-0.11875	-0.63958	-0.15208	-0.91667	-0.52083	-0.14583	-1.2542	-0.11667	-0.57708	-0.98333	-0.06875	-1.0458	-0.48333	-0.097917	-1	-0.24792	-113.244	-41.653	55.059	165.499	218.105	120.049	162.684	-70.454	173.869	21.968	206.366	192.967	146.995	-48.810	-110.969	-60.611	0.00018873	0.00021005	5.528e-05	1010.5	3.6232e-06	4.8984e-06	1107.9	211.84	2.5227e-06	2.4091e-06	268.61	75.083	58.458	16.555	3.5504e-06	23.124	0.0012183	0.0015346	0.000425	1004.1	1.6119e-05	1.6803e-05	1100.2	213.2	1.592e-05	1.6645e-05	272.21	77.105	60.347	17.446	1.6024e-05	24.303	183.390	196.732	-120.392	-125.856	-5.113	3.655	-125.878	-118.943	191.098	37.879	-118.687	-112.762	-112.352	-104.167	93.966	-104.944	-8191	255	
6272.647	1	1	0	0	0.10181	0.22812	0.12821	0.31246	0.10201	0.077359	0.41045	0.27009	0.27034	0.076315	0.2478	0.079145	0.24713	0.27397	0.090984	0.087582	-0.11875	-0.87083	0.06875	-0.88542	-0.52917	-0.089583	-1.1229	-0.033333	-0.51875	-0.91875	-0.2	-1.0187	-0.86667	-0.3125	-1.1146	-0.29167	90.288	57.249	52.313	127.085	150.143	-127.298	173.957	148.813	192.119	-7.560	-107.868	196.131	-53.751	214.855	141.387	-49.235	0.00016015	0.00029151	0.000134	1011.7	4.0736e-06	3.9786e-06	1097.2	209.47	2.953e-06	1.1595e-06	269.33	74.8	58.548	16.554	1.7075e-06	23.077	0.0012169	0.0014925	0.0004201	1003.7	1.5893e-05	1.6456e-05	1097.3	212.69	1.5831e-05	1.6555e-05	272.6	77.139	60.272	17.34	1.6046e-05	24.272	183.918	-57.836	-37.026	-125.889	-24.910	85.660	-126.389	-118.505	-124.130	93.706	-118.955	-112.456	-112.147	-104.325	-5.675	-105.177	-8191	255	
6272.742	1	1	0	0	0.10665	0.18811	0.12505	0.39072	0.11782	0.24765	0.45178	0.11531	0.31625	0.083289	0.19272	0.087485	0.16542	0.2857	0.31076	0.14283	0.085417	-1.0021	-0.05	-0.94167	-0.65	-0.070833	-1.1083	-0.30625	-0.475	-1.0604	-0.32292	-0.67917	-0.65	-0.097917	-0.875	-0.39167	85.489	55.883	103.860	-130.530	-92.083	126.961	149.266	154.197	220.521	-79.580	181.600	154.797	127.724	130.368	178.137	178.227	0.00019906	0.00020669	9.365e-05	1010.2	1.885e-06	5.2863e-06	1099	212.41	8.8718e-07	1.9871e-06	268.34	75.043	58.366	16.625	2.9152e-06	23.083	0.001212	0.0015028	0.00041941	1004.5	1.6077e-05	1.6717e-05	1097.2	213.57	1.5524e-05	1.6565e-05	272.2	76.986	60.297	17.393	1.6039e-05	24.268	162.920	-51.593	18.529	-126.231	-9.870	-62.916	-126.360	-118.936	121.984	-109.810	-119.046	-113.018	-111.815	-104.632	27.348	-105.225	-8191	255	
6272.838	1	1	0	0	0.18372	0.14269	0.16764	0.10759	0.27584	0.12878	0.31128	0.19273	0.22894	0.18669	0.2885	0.030303	0.27099	0.36735	0.063116	0.23702	0.11042	-0.81875	-0.095833	-0.53542	-0.8125	-0.15833	-1.0542	-0.39167	-0.047917	-1.0854	-0.20417	-0.60625	-0.83333	-0.0041667	-0.8875	-0.50833	76.910	-119.499	22.665	-17.738	206.060	-124.781	208.274	-126.448	-134.758	114.368	103.110	66.735	207.311	215.585	26.606	136.309	0.00013509	0.00044324	3.733e-05	1008.7	6.6642e-07	2.9343e-06	1102.8	213.43	3.4729e-07	4.9865e-06	269.41	74.906	58.589	16.68	3.9254e-06	23.057	0.0012159	0.0014984	0.00041863	1002.7	1.5872e-05	1.6802e-05	1098.7	213.33	1.5889e-05	1.6563e-05	272.81	76.949	60.28	17.41	1.6118e-05	24.191	178.567	222.447	-65.720	-126.023	118.076	30.044	-126.226	-119.219	-63.426	61.237	-118.976	-112.281	-112.537	-104.381	8.933	-104.974	-8191	255	
6272.958	1	1	0	0	0.17429	0.14673	0.18999	0.29471	0.25101	0.13566	0.12384	0.21206	0.1477	0.14352	0.1562	0.063116	0.24113	0.12407	0.092164	0.18563	0.26667	-0.92708	-0.20417	-0.56667	-1.0312	-0.27083	-1.1042	-0.79792	0.041667	-0.95417	-0.35625	-0.5	-1.0063	-0.2375	-0.80417	-0.92708	-135.667	25.615	154.837	181.680	142.229	149.522	138.077	112.955	8.151	79.346	198.014	65.001	121.669	-37.877	-45.380	107.178	0.00023865	0.00021586	0.00016839	1011.7	2.7475e-06	4.6332e-06	1102.1	212.56	2.9899e-06	7.325e-06	269.02	74.861	58.471	16.583	5.2779e-06	23.043	0.0011994	0.0015021	0.0004207	1005.2	1.5639e-05	1.6654e-05	1098.8	213.19	1.5973e-05	1.6582e-05	272.59	77.084	60.277	17.346	1.6056e-05	24.219	198.527	-16.752	-37.181	-126.007	22.782	132.055	-126.078	-118.864	-37.529	-23.061	-119.452	-112.682	-112.560	-104.417	-43.047	-105.001	-8191	255	
6273.055	1	1	0	0	0.20596	0.11865	0.21184	0.1364	0.034552	0.031761	0.090825	0.21424	0.41975	0.37953	0.2775	0.10681	0.41968	0.1302	0.067986	0.12138	0.28333	-1.1396	-0.31042	-0.51667	-0.8375	-0.15625	-1.0021	-0.72917	-0.097917	-0.94167	-0.5	-0.42292	-1.0417	-0.091667	-0.58542	-0.87292	199.882	-21.471	27.003	198.094	-94.008	30.711	125.620	176.596	125.976	-50.693	148.276	147.440	140.847	144.087	-92.649	-2.115	0.00012795	0.00028294	0.0001644	1009.4	1.5519e-06	5.5528e-06	1106.5	210.67	1.923e-06	8.5321e-06	269.53	74.52	58.475	16.605	3.1446e-07	22.903	0.0012091	0.0014895	0.00042366	1002.7	1.5801e-05	1.6591e-05	1099.4	212.8	1.5807e-05	1.6397e-05	272.75	76.88	60.208	17.386	1.618e-05	24.223	167.894	-79.631	17.060	-125.964	-30.357	50.552	-126.085	-119.063	24.139	-9.899	-119.051	-112.804	-112.182	-104.381	-40.742	-105.281	-8191	255	
6273.149	1	1	0	0	0.10683	0.21921	0.13516	0.47094	0.14819	0.067634	0.31403	0.19416	0.2449	0.016535	0.21174	0.15085	0.11101	0.31836	0.021859	0.082218	0.30208	-0.925	-0.46458	-0.20833	-0.90417	-0.010417	-0.7625	-0.83542	0.0041667	-0.79167	-0.45833	-0.125	-1.0271	-0.24583	-0.58542	-1.0021	99.761	64.823	-46.152	205.100	55.471	57.952	154.475	105.016	222.417	130.180	-123.757	205.823	-110.805	33.983	134.609	-67.827	0.00017335	7.2328e-05	9.8277e-05	1012.6	1.0944e-06	4.0494e-06	1102.6	211.34	4.5864e-07	1.2194e-06	268.48	74.22	58.602	16.553	4.5768e-06	23.152	0.0012137	0.0015005	0.00041708	1004.4	1.5958e-05	1.6629e-05	1098	212.9	1.5834e-05	1.6561e-05	272.21	76.741	60.207	17.334	1.6019e-05	24.234	180.641	-104.261	-16.027	-126.250	87.822	14.390	-126.171	-119.007	30.024	-94.379	-118.962	-112.737	-112.231	-104.256	27.946	-105.280	-8191	255	
6273.247	1	1	0	0	0.13605	0.15426	0.17103	0.20573	0.044782	0.20684	0.1561	0.30108	0.1744	0.18255	0.16514	0.30187	0.075039	0.10007	0.20314	0.27819	0.27917	-1.2542	-0.54583	-0.09375	-1.0271	-0.38125	-0.47292	-1.0542	0.05	-0.78542	-0.86667	-0.20833	-1.0896	-0.30417	-0.20625	-0.83958	45.270	87.413	84.378	-94.805	-63.711	141.411	210.545	-105.707	-76.858	-54.640	14.263	-67.681	-35.125	101.079	-119.217	186.651	0.00019365	0.00044775	0.00011265	1009.9	2.3079e-06	6.2683e-06	1096	212.42	9.5513e-07	2.8413e-06	267.89	74.527	58.429	16.655	5.145e-06	22.956	0.0012049	0.0014756	0.0004131	1003.8	1.5561e-05	1.6359e-05	1098.9	213	1.5583e-05	1.6511e-05	271.83	76.777	60.422	17.368	1.6115e-05	24.229	201.158	-12.300	99.853	-126.226	-27.746	61.667	-125.944	-118.958	207.935	4.497	-119.190	-112.860	-112.892	-105.272	35.877	-105.239	-8191	255	
6273.341	1	1	0	0	0.25378	0.030735	0.0425	0.37664	0.092487	0.10348	0.42629	0.27192	0.15296	0.20226	0.29498	0.2343	0.31151	0.079081	0.23991	0.23573	0.44375	-0.675	-0.92708	-0.19583	-0.86458	-0.51875	-0.5125	-1.2083	-0.14583	-0.55625	-1.0083	-0.12917	-0.84375	-0.325	-0.3625	-1.0417	-43.105	-15.049	-59.116	201.005	29.332	121.787	219.265	212.621	-67.405	-82.275	-15.307	93.037	216.444	209.814	41.868	-116.302	0.00016787	0.0002761	0.00010395	1010.1	2.0845e-06	2.5379e-06	1099.8	211.82	9.9342e-07	5.2315e-06	267.57	75.015	58.537	16.497	4.7923e-06	23.114	0.0011994	0.0014699	0.00041158	1001.7	1.5594e-05	1.6487e-05	1099.2	213.23	1.5659e-05	1.6365e-05	271.79	77.044	60.382	17.335	1.6029e-05	24.241	153.283	9.313	-80.548	-126.174	142.469	98.607	-126.301	-118.957	106.415	52.241	-119.033	-112.685	-112.334	-105.311	47.669	-105.128	-8191	255	
6273.437	1	1	0	0	0.15349	0.24988	0.10772	0.25038	0.095527	0.3622	0.10488	0.10668	0.16442	0.1719	0.19177	0.38388	0.32574	0.063841	0.098588	0.27777	0.039583	-0.51875	-0.72917	-0.25208	-0.95625	-0.57292	-0.2	-1.0521	-0.17708	-0.38958	-0.85208	-0.27708	-0.96875	-0.65833	0.05	-1.2146	31.585	-16.593	26.563	191.029	80.052	160.872	134.138	-41.120	-86.079	39.139	119.523	-47.757	186.809	-11.983	64.784	79.569	0.00018676	0.00050486	0.00010403	1005	4.6136e-06	4.7139e-06	1104	211.11	7.1289e-06	6.4521e-06	268.66	74.616	57.964	16.531	4.1385e-06	22.957	0.0012058	0.0014856	0.00041621	1002.4	1.585e-05	1.658e-05	1098.1	212.76	1.5678e-05	1.6779e-05	272.1	76.971	60.214	17.323	1.6026e-05	24.306	181.046	-66.939	213.415	-126.256	-12.471	-132.113	-125.949	-118.661	-8.689	147.927	-119.426	-112.613	-112.766	-104.360	25.674	-105.517	-8191	255	
6273.534	1	1	0	0	0.20036	0.059742	0.25767	0.32444	0.081764	0.013941	0.34551	0.13494	0.058412	0.10025	0.20221	0.24689	0.054621	0.10597	0.31087	0.18722	0.16042	-0.52083	-0.97917	-0.35833	-0.71875	-0.71042	-0.45833	-0.87917	-0.33958	-0.34167	-0.99792	0.075	-0.75833	-0.79167	-0.0083333	-0.9125	18.676	95.532	-106.442	207.185	109.905	35.554	194.033	215.453	132.893	30.353	-104.148	158.231	36.724	69.307	-67.459	-7.561	0.00025141	0.00043894	0.00015651	1009.5	2.8997e-06	5.1398e-06	1099.2	210.97	9.2291e-07	8.3598e-06	267.03	74.567	58.515	16.555	3.8721e-06	23.2	0.0012048	0.0014815	0.00041376	1003.5	1.5946e-05	1.6212e-05	1098.2	212.71	1.5864e-05	1.6401e-05	272.01	76.79	60.239	17.359	1.5967e-05	24.251	184.536	-117.824	58.653	-126.413	-46.486	26.073	-126.120	-118.985	-53.042	-50.969	-119.296	-112.976	-112.347	-104.802	-120.981	-105.112	-8191	255	
6273.654	1	1	0	0	0.095073	0.20063	0.17438	0.088512	0.059886	0.064459	0.17641	0.087205	0.10264	0.082052	0.11534	0.15759	0.0086542	0.15513	0.17623	0.18866	-0.064583	-0.32083	-0.77083	-0.18542	-0.86875	-1	-0.35833	-0.94583	-0.5125	-0.225	-1.1229	-0.20208	-0.66458	-1.0625	-0.19583	-1.0208	188.713	163.745	182.088	-92.198	43.206	-38.080	92.467	73.776	147.821	87.653	212.887	12.738	106.820	204.518	125.911	-88.892	0.00022519	0.00042624	6.1771e-05	1013.2	4.2744e-06	2.4118e-06	1098.4	210.69	2.3309e-06	7.186e-06	267.64	75.203	58.578	16.625	5.1943e-06	23.043	0.0012086	0.001489	0.00041658	1005.3	1.5819e-05	1.6381e-05	1096.1	212.77	1.5606e-05	1.6549e-05	272.28	77.13	60.264	17.378	1.6289e-05	24.196	173.113	19.418	-54.646	-126.157	62.739	94.769	-125.962	-118.871	-88.992	73.013	-119.133	-112.820	-112.455	-104.492	7.097	-105.471	-8191	255	
6273.750	1	1	0	0	0.20892	0.1916	0.1241	0.16904	0.085273	0.2232	0.038095	0.18092	0.26751	0.32613	0.12069	0.1328	0.17868	0.17432	0.15095	0.15719	-0.13333	-0.091667	-0.73958	-0.38125	-0.42083	-0.95833	-0.23125	-0.88125	-0.77917	-0.24167	-1.2437	-0.38125	-0.50208	-1.0417	-0.016667	-0.70208	-120.360	210.359	196.244	195.604	191.964	-76.360	-108.281	-14.416	210.078	163.772	54.750	-37.625	163.163	151.706	-98.658	148.410	0.00020085	0.00048488	0.00010377	1011.7	2.9943e-06	8.6711e-07	1100	211.7	3.1944e-06	6.1639e-06	267.55	74.217	58.179	16.447	5.8115e-06	23.015	0.0011986	0.0014791	0.00041361	1003.4	1.5863e-05	1.6423e-05	1097.3	212.97	1.5836e-05	1.6376e-05	271.81	76.833	60.149	17.311	1.6056e-05	24.144	207.658	-27.841	-45.042	-126.236	-10.236	96.176	-126.198	-118.937	-54.460	43.286	-119.083	-112.854	-112.122	-104.494	0.763	-104.896	-8191	255	
6273.847	1	1	0	0	0.2465	0.19888	0.19156	0.083896	0.26544	0.18757	0.21507	0.084663	0.18137	0.036279	0.22291	0.0511	0.42332	0.16979	0.18124	0.18345	-0.34583	0.05	-0.83542	-0.41042	-0.21042	-1.1229	-0.1375	-0.9	-0.69375	0.14375	-1.0562	-0.25	-0.12708	-1.0729	-0.2125	-0.88542	10.718	-106.534	-116.791	168.229	-45.846	199.657	169.693	211.925	60.394	128.866	118.677	159.449	215.007	-23.865	3.031	-23.058	0.00015639	0.00028865	0.0001773	1010.6	1.9336e-06	1.7069e-06	1104.2	211.37	5.8585e-06	4.0287e-06	269.32	74.34	58.468	16.831	2.3151e-06	23.034	0.0011884	0.0014845	0.00041476	1003.3	1.5831e-05	1.6461e-05	1099.8	213.29	1.5548e-05	1.6384e-05	272.52	76.68	60.355	17.392	1.5955e-05	24.155	188.207	-47.408	-12.990	-126.253	-50.110	-16.429	-126.314	-118.828	-70.192	-31.595	-119.365	-113.449	-112.242	-104.340	50.130	-104.943	-8191	255	
6273.918	1	1	0	0	0.21162	0.29651	0.34016	0.19845	0.22986	0.075078	0.17059	0.066573	0.17723	0.23372	0.1553	0.33093	0.11226	0.29948	0.098474	0.080334	-0.61458	-0.0375	-0.94792	-0.5375	-0.11042	-0.93333	-0.35417	-0.70417	-0.89792	0.03125	-0.98542	-0.53542	-0.125	-1.1083	-0.4375	-0.62917	169.863	79.901	-43.689	-94.308	126.368	-101.762	-133.331	-26.416	165.172	93.989	137.654	91.221	-91.216	176.458	45.394	-102.578	0.00013894	0.00065768	7.8086e-05	1004.7	3.7758e-06	2.7862e-06	1102.3	210.73	5.1964e-06	3.0819e-06	270.05	74.85	58.61	16.624	2.7199e-06	23.071	0.0011933	0.0014789	0.00040715	1001.8	1.5541e-05	1.6477e-05	1099.1	212.97	1.5825e-05	1.6242e-05	272.75	76.88	60.281	17.372	1.5989e-05	24.181	198.903	-81.870	57.808	-126.165	-15.466	-105.821	-125.975	-118.949	-44.891	-110.361	-119.066	-112.387	-112.103	-104.590	18.525	-105.137	-8191	255	
6274.039	1	1	0	0	0.32256	0.037999	0.043296	0.17766	0.064116	0.10379	0.29585	0.1687	0.14393	0.088835	0.29787	0.099179	0.047143	0.14064	0.058441	0.16324	-0.50208	-0.0875	-0.7125	-0.66667	-0.070833	-1.0479	-0.52708	-0.48542	-0.98542	-0.1625	-0.85625	-0.72708	-0.30833	-0.91667	-0.24792	-0.36667	-113.569	-13.686	124.325	175.620	164.804	124.777	165.480	162.579	-26.805	-9.756	173.477	-48.818	211.292	44.262	31.720	-112.065	0.00019139	0.00011473	0.00013822	1011.2	5.8007e-06	3.1072e-06	1101.6	211.74	4.8188e-06	7.1804e-07	268.84	74.464	58.442	16.646	3.4568e-06	22.932	0.0011967	0.0014735	0.00040866	1001.7	1.5809e-05	1.6444e-05	1097.3	213.29	1.5511e-05	1.6155e-05	272.08	76.809	60.325	17.317	1.6052e-05	24.169	185.504	-103.354	8.852	-126.066	-61.667	-65.113	-126.100	-118.880	-5.228	31.075	-118.926	-112.675	-112.078	-104.408	39.202	-105.431	-8191	255	
6274.135	1	1	0	0	0.13469	0.15186	0.072109	0.28169	0.20409	0.17158	0.38347	0.30604	0.22112	0.13452	0.17723	0.17011	0.085637	0.38524	0.12221	0.19253	-0.75	-0.22083	-0.72083	-0.88125	0.0375	-0.88958	-0.68958	-0.36042	-1.1542	-0.12708	-0.67708	-0.86458	0.1125	-1.0958	-0.69167	-0.1125	-57.471	5.263	-82.157	220.744	34.980	-26.363	184.418	159.533	180.286	100.523	126.257	205.025	55.628	75.770	-1.829	60.318	0.00018137	0.00016694	0.00011221	1010.1	4.0261e-06	2.846e-06	1096.6	211.73	3.5938e-06	2.7846e-06	268.73	74.64	58.553	16.641	5.3563e-06	22.88	0.0011939	0.0014692	0.00040688	1002.8	1.575e-05	1.6402e-05	1096.1	213.03	1.566e-05	1.6336e-05	272.16	76.881	60.367	17.345	1.6048e-05	24.132	198.144	-33.136	210.170	-126.092	-14.292	-1.678	-126.050	-118.650	-81.410	191.561	-119.122	-112.930	-111.877	-104.800	63.416	-104.846	-8191	255	
6274.229	1	1	0	0	0.08557	0.096976	0.10069	0.50367	0.071129	0.19328	0.35553	0.44088	0.11335	0.11753	0.20623	0.093047	0.24626	0.13145	0.31531	0.45258	-0.51042	-0.12708	-0.61458	-1.05	-0.072917	-0.80833	-0.85417	-0.28542	-1.0021	-0.15	-0.36458	-0.88125	-0.23125	-0.73542	-0.69167	-0.22917	-60.621	91.399	66.515	215.676	-106.686	191.187	171.955	122.878	60.775	-123.467	195.527	-16.632	-86.842	-90.507	-3.709	-136.187	0.00023174	0.00062004	0.00013692	1013.4	2.2084e-06	4.8158e-06	1097.9	212.13	5.3988e-06	9.6414e-07	267.54	73.966	58.102	16.599	2.2621e-06	23.109	0.0011918	0.0014742	0.00041801	1003	1.5737e-05	1.6465e-05	1097.4	213.34	1.5674e-05	1.6448e-05	271.6	76.76	60.035	17.35	1.6271e-05	24.212	157.332	-35.272	-49.458	-126.293	56.653	15.986	-126.202	-118.699	170.173	61.702	-118.868	-112.714	-112.288	-104.463	39.261	-104.632	-8191	255	
6274.327	1	1	0	0	0.17439	0.11372	0.25172	0.3286	0.13291	0.21297	0.36013	0.077167	0.062001	0.08504	0.1399	0.43388	0.028558	0.081511	0.068691	0.12894	-0.5875	-0.26667	-0.5	-1.1146	0.0375	-1.0312	-0.76667	-0.23958	-0.98333	-0.28958	-0.54167	-1.2188	-0.2	-0.8375	-0.8125	-0.083333	68.341	201.602	14.952	150.420	-6.740	-18.915	156.278	12.375	216.825	-81.454	74.016	141.121	11.479	-67.538	-10.158	216.787	0.00016438	0.00023911	3.5805e-05	1006.9	2.6045e-06	7.2685e-06	1101.4	210.86	1.4524e-06	2.8852e-06	270.21	74.388	57.688	16.656	2.7821e-06	23.008	0.0012021	0.001493	0.00041856	1002.2	1.5769e-05	1.6472e-05	1098.2	212.75	1.5827e-05	1.6521e-05	272.55	76.674	59.904	17.368	1.6031e-05	24.258	173.541	-32.219	-57.157	-126.067	218.492	63.034	-126.172	-118.731	21.119	-8.958	-118.703	-112.329	-112.327	-104.533	12.975	-104.703	-8191	255	
6274.446	1	1	0	0	0.21494	0.013253	0.1151	0.22376	0.16993	0.25089	0.25429	0.31728	0.20866	0.25355	0.18449	0.15577	0.24214	0.21257	0.19885	0.22346	-0.6625	-0.35625	-0.05	-1.1542	-0.34375	-0.63958	-0.925	-0.25417	-0.88958	-0.59583	-0.16458	-1.1562	-0.19792	-0.55417	-0.72292	-0.19375	82.052	-54.683	52.952	149.941	-0.140	82.640	180.271	197.196	-109.716	9.739	161.808	122.810	220.064	-74.243	-65.141	71.270	0.00027087	0.00035533	7.8835e-05	1010.2	2.9642e-06	2.3275e-06	1096.9	211.48	1.2015e-06	4.7396e-06	268.16	75.001	58.125	16.591	2.9593e-06	23.278	0.0012008	0.0014803	0.0004131	1003.8	1.6e-05	1.6705e-05	1096.4	212.89	1.5704e-05	1.6596e-05	272.24	77.11	60.224	17.359	1.6346e-05	24.17	185.303	-17.811	-67.811	-126.032	10.703	64.617	-126.175	-118.813	-86.515	-0.179	-118.892	-112.550	-112.199	-104.788	20.365	-105.226	-8191	255	
6274.542	1	1	0	0	0.17057	0.11959	0.059326	0.13124	0.07713	0.21284	0.22123	0.17051	0.10298	0.10468	0.096804	0.46315	0.22002	0.3935	0.0771	0.18985	-0.7875	-0.41875	-0.29792	-1.1292	-0.19792	-0.46458	-1.2188	-0.33958	-0.95417	-0.8875	-0.27083	-1.1938	-0.28542	-0.34375	-1.0792	-0.24167	4.714	-100.701	22.880	160.530	39.830	210.010	156.452	-108.514	170.948	210.075	-57.066	15.169	12.023	198.642	31.511	58.528	0.00023267	0.00037384	9.2704e-05	1010.1	1.5378e-06	3.8584e-06	1104.2	210.44	4.3682e-06	5.7225e-06	267.73	74.817	58.241	16.477	7.556e-06	22.929	0.0011993	0.0015048	0.00041322	1001.8	1.5924e-05	1.6369e-05	1098.6	212.69	1.5598e-05	1.6329e-05	272.37	76.857	60.153	17.3	1.6004e-05	24.186	185.509	-62.623	106.464	-125.982	126.991	61.297	-125.936	-118.728	-83.448	12.879	-118.790	-112.535	-111.861	-104.415	61.161	-105.122	-8191	255	
6274.638	1	1	0	0	0.20488	0.25574	0.21253	0.13249	0.18766	0.20659	0.035209	0.034091	0.1596	0.11011	0.2094	0.052866	0.31598	0.15676	0.23331	0.095939	-0.32083	-0.83542	0.045833	-1.2542	-0.39375	-0.48958	-1.3271	-0.35833	-0.62708	-0.70833	-0.18958	-0.87917	-0.5125	-0.34375	-0.94792	-0.24375	-118.718	32.766	173.291	192.201	80.378	1.542	138.148	5.268	57.170	145.272	77.158	102.360	-55.749	135.613	-26.581	-88.328	0.0001675	0.00029541	5.8195e-05	1013.2	1.895e-06	1.1733e-06	1097.4	210.84	3.0836e-06	2.6248e-06	269.14	74.46	58.116	16.598	3.6359e-06	23.136	0.0011867	0.0014831	0.00041249	1002.2	1.5797e-05	1.6564e-05	1095.3	212.6	1.5867e-05	1.662e-05	271.74	76.839	60.076	17.317	1.6044e-05	24.244	181.296	45.966	-5.536	-125.838	-26.745	201.450	-126.143	-118.759	20.856	141.591	-118.742	-112.639	-112.181	-104.666	32.780	-104.794	-8191	255	
6274.735	1	1	0	0	0.098417	0.27648	0.13153	0.38895	0.090342	0.1402	0.25483	0.086007	0.14572	0.11241	0.02975	0.1935	0.15619	0.21269	0.090595	0.11592	-0.43125	-0.69792	0.027083	-1.0896	-0.29792	-0.10625	-1.0021	-0.23333	-0.5	-0.75208	-0.12917	-1.0979	-0.64583	-0.23958	-1.1167	-0.26042	145.742	91.670	174.095	163.207	41.643	33.689	217.427	-102.581	163.477	68.501	84.699	-103.091	87.909	-118.393	-11.057	113.440	0.0001146	0.00012322	0.00012294	1009.8	3.9545e-06	2.8638e-06	1100.6	210.85	1.3824e-06	5.8077e-06	268.43	74.146	58.664	16.499	7.4902e-07	23.066	0.0012129	0.001493	0.00041049	1003.2	1.587e-05	1.6569e-05	1096.9	212.62	1.5766e-05	1.6477e-05	272.11	76.697	60.274	17.318	1.6054e-05	24.208	184.587	-68.192	205.780	-125.726	-99.528	79.636	-126.156	-118.677	130.644	-11.202	-118.685	-112.652	-111.969	-104.117	-117.512	-104.987	-8191	255	
6274.831	1	1	0	0	0.39541	0.25888	0.19313	0.088743	0.30972	0.1931	0.12616	0.17588	0.17454	0.22606	0.074555	0.27243	0.21132	0.21639	0.17685	0.096753	-0.15625	-0.80833	-0.075	-1.0292	-0.76667	0.022917	-1.2	-0.43125	-0.36458	-0.99375	-0.21458	-0.70208	-0.68125	0.085417	-1.0833	-0.5375	-135.561	175.716	-24.369	-128.081	-45.167	-56.602	89.646	126.083	105.023	81.202	-89.424	144.728	50.658	161.809	218.574	25.710	0.00019354	0.00025548	0.00015527	1009.4	4.2511e-06	4.0765e-06	1104	211.77	6.0196e-07	4.1822e-06	266.85	74.96	57.985	16.622	3.0674e-06	22.882	0.0011884	0.0014755	0.00041502	1005.2	1.5716e-05	1.658e-05	1099.3	213.22	1.5951e-05	1.6524e-05	271.47	76.798	59.965	17.366	1.6052e-05	24.122	185.119	-125.534	-110.446	-125.625	-109.107	-21.608	-125.903	-119.018	107.162	17.233	-118.709	-112.132	-111.509	-104.447	-8.331	-104.940	-8191	255	
6274.927	1	1	0	0	0.19596	0.13362	0.27759	0.10726	0.12652	0.18802	0.097077	0.20456	0.28728	0.21884	0.32237	0.23486	0.047256	0.23006	0.14928	0.22766	0.045833	-0.9625	-0.26667	-0.84583	-0.72292	0.020833	-1.0792	-0.43542	-0.34167	-0.89583	-0.14167	-0.74375	-0.75208	-0.15833	-0.99375	-0.58125	-23.880	110.973	147.019	-116.592	-55.405	-111.547	58.088	-128.879	-46.832	103.544	186.999	-129.179	71.459	31.945	159.847	-118.621	0.00017188	0.00024244	3.7308e-05	1013.5	2.9893e-06	6.3848e-06	1104	211.07	2.6698e-06	2.8593e-06	268.53	74.835	58.311	16.496	3.1042e-06	23.07	0.0012184	0.0014885	0.00041961	1005.1	1.575e-05	1.6598e-05	1098.3	212.77	1.5856e-05	1.662e-05	272.66	76.815	60.228	17.287	1.5992e-05	24.222	167.540	-121.111	-129.188	-125.724	-107.554	16.313	-125.891	-118.446	-25.034	-56.817	-118.804	-112.777	-112.030	-104.675	89.894	-105.177	-8191	255	
6275.048	1	1	0	0	0.38293	0.20496	0.025771	0.15837	0.089917	0.21786	0.18571	0.15061	0.08747	0.14553	0.11607	0.2881	0.3397	0.14213	0.13312	0.094134	0.22083	-1.1063	-0.020833	-0.675	-0.80208	-0.070833	-0.97708	-0.63333	-0.1875	-1.1021	-0.36875	-0.50417	-1.0729	0.041667	-0.77917	-0.51458	-26.049	-8.818	181.587	66.727	78.841	161.769	29.199	-129.672	-77.846	87.005	-76.765	-125.771	206.271	182.731	68.468	50.449	0.00017917	0.00024808	0.00013579	1010.1	4.7748e-06	2.7814e-06	1100.5	209.95	4.7405e-06	2.7947e-06	267.89	74.184	58.472	16.543	3.474e-06	23.018	0.0012122	0.0015058	0.00042338	1004.8	1.6023e-05	1.6715e-05	1098.6	212.6	1.6002e-05	1.6696e-05	271.9	76.54	60.213	17.313	1.5967e-05	24.118	167.431	207.178	188.750	-125.785	-16.073	31.177	-125.830	-118.775	220.004	134.714	-118.996	-112.424	-112.037	-104.754	-50.826	-104.966	-8191	255	
6275.142	1	1	0	0	0.37411	0.011747	0.26607	0.25611	0.10003	0.19904	0.13867	0.10885	0.11486	0.18878	0.16006	0.2623	0.17938	0.23257	0.023207	0.016577	0.2875	-1.0688	-0.18958	-0.25208	-1.0938	-0.1375	-0.86458	-0.7125	0.064583	-0.86458	-0.3125	-0.20833	-1.05	-0.10417	-0.62292	-0.60833	176.738	58.864	47.009	-123.900	43.087	196.956	-86.798	184.984	-90.919	39.406	-111.501	218.322	181.258	-90.282	1.539	194.650	0.0002239	0.00039452	0.00012782	1008.8	2.784e-06	4.2599e-06	1099.5	210.67	8.0763e-07	6.3134e-06	267.97	74.591	58.39	16.49	2.4751e-06	22.889	0.0012251	0.0014993	0.00041923	1003.2	1.5735e-05	1.6716e-05	1098.8	212.71	1.6017e-05	1.6311e-05	271.85	76.791	60.1	17.292	1.6012e-05	24.061	167.476	-75.216	-14.270	-125.812	42.295	77.027	-125.869	-118.276	51.749	21.900	-118.921	-112.678	-112.251	-104.326	-8.902	-105.185	-8191	255	
6275.215	1	1	0	0	0.15582	0.12207	0.041316	0.35306	0.15309	0.13764	0.1601	0.08755	0.29153	0.19972	0.10692	0.073213	0.18461	0.12369	0.12899	0.21741	0.4625	-0.81875	-0.21458	-0.3	-1.0938	-0.24167	-0.92292	-0.89375	-0.097917	-0.9875	-0.67917	-0.34375	-0.90833	-0.11458	-0.6125	-0.91667	132.268	-29.796	184.706	155.472	87.246	13.735	191.431	39.401	138.094	93.882	-128.610	175.484	-53.630	68.992	-32.380	83.691	0.0001033	0.00032022	6.6061e-05	1010.6	1.9287e-06	4.3271e-06	1100.9	211.22	5.4738e-06	4.3764e-06	268.72	74.262	58.589	16.477	8.3165e-06	23.102	0.001212	0.0014676	0.00042399	1004.5	1.5635e-05	1.6821e-05	1099.3	212.95	1.6159e-05	1.6725e-05	271.67	76.619	60.185	17.291	1.6297e-05	24.17	182.792	197.087	-131.300	-126.018	11.581	9.474	-126.017	-118.893	-78.730	26.920	-118.753	-112.360	-112.014	-104.804	12.736	-104.926	-8191	255	
6275.334	1	1	0	0	0.17614	0.30638	0.17358	0.19201	0.3293	0.091346	0.15619	0.20672	0.19655	0.28613	0.23986	0.10581	0.075682	0.15959	0.36905	0.14202	0.34375	-0.68125	-0.575	-0.40208	-1.1792	-0.23958	-0.525	-1.0438	-0.052083	-0.89792	-0.74792	-0.39792	-1.0187	-0.43333	-0.33542	-0.81667	143.655	95.482	-113.974	-53.638	104.634	145.292	121.161	127.452	73.524	192.925	-29.227	-100.410	187.788	185.352	91.407	-21.013	0.00017025	0.00042972	0.00010545	1011.1	9.7568e-07	1.9718e-06	1102.1	212.13	2.7866e-06	3.9846e-06	266.98	73.963	58.133	16.48	9.2997e-07	22.911	0.001234	0.0014879	0.00042246	1004.6	1.5977e-05	1.7016e-05	1096.5	213.32	1.6148e-05	1.7383e-05	271.9	76.642	60.074	17.298	1.708e-05	24.057	215.043	1.831	-40.022	-125.826	56.203	25.724	-125.952	-118.837	-13.718	40.060	-118.833	-112.771	-111.998	-104.383	28.613	-104.761	-8191	255	
6275.430	1	1	0	0	0.29208	0.16051	0.058951	0.28449	0.2362	0.13422	0.32807	0.2018	0.24166	0.021692	0.27667	0.23793	0.34453	0.20632	0.11191	0.046372	0.17083	-0.84583	-0.6625	-0.17708	-0.95417	-0.35625	-0.50625	-1.2104	-0.18958	-0.78958	-1.0625	-0.014583	-1.0812	-0.59375	-0.25	-1.0146	-129.317	-81.017	54.380	-123.112	202.717	206.461	124.772	128.810	-15.734	60.299	137.977	11.959	198.682	-125.382	194.784	150.229	0.00017548	0.00050627	0.00011799	1012.5	1.4299e-07	4.0331e-06	1101.5	211.39	1.8405e-06	5.8002e-06	268.08	74.438	58.335	16.444	1.7578e-06	22.858	0.0012594	0.0015618	0.0004409	1005.8	1.6525e-05	1.7546e-05	1099.2	213.17	1.68e-05	1.7182e-05	272.1	76.86	60.02	17.249	1.6758e-05	24.114	205.978	-8.180	-17.455	-125.852	110.264	101.746	-125.903	-118.798	-89.743	98.942	-118.738	-112.468	-112.015	-104.810	1.834	-105.003	-8191	255	
6275.527	1	1	0	0	0.086004	0.21376	0.20926	0.15556	0.053275	0.15643	0.10527	0.40438	0.12846	0.12122	0.14124	0.11568	0.21514	0.093779	0.12452	0.21739	0.058333	-0.68542	-0.775	-0.1875	-0.88958	-0.55208	-0.35833	-1.0958	-0.20625	-0.72708	-1.0646	-0.14375	-0.9375	-0.69375	-0.24792	-1.0417	-33.952	-80.093	-68.702	219.854	4.045	181.496	-65.670	179.942	-64.745	113.438	209.227	101.659	-130.353	214.243	177.241	28.709	0.00019489	0.00032242	0.00012988	1010.7	8.0517e-06	3.2751e-06	1100.1	210.94	4.5683e-06	5.6429e-06	269.91	74.484	58.065	16.525	3.9987e-06	22.834	0.0012499	0.0015425	0.00043086	1005	1.6102e-05	1.6934e-05	1098.8	213.42	1.65e-05	1.6899e-05	272.57	76.767	60.022	17.242	1.6594e-05	24.172	175.893	-66.267	-71.629	-125.812	-32.841	88.165	-126.089	-118.816	-100.339	15.134	-118.956	-112.677	-112.033	-104.483	-17.904	-105.405	-8191	255	
6275.623	1	1	0	0	0.050008	0.18466	0.030629	0.5347	0.11643	0.042216	0.23584	0.20322	0.16918	0.05196	0.10817	0.19146	0.044808	0.43165	0.22625	0.15379	0.25	-0.4875	-0.77292	-0.12917	-0.75625	-0.67708	-0.15625	-1.2208	-0.3375	-0.17917	-0.9125	0	-0.82292	-0.72292	0.010417	-0.99375	-121.205	203.425	48.068	176.280	77.794	167.783	89.400	-118.428	188.349	-80.280	183.039	-122.424	188.300	213.795	149.819	-47.680	0.00013351	0.00078318	0.00014213	1013.6	3.4094e-06	6.5054e-06	1102.7	211.47	2.3327e-06	3.8197e-06	269.5	74.487	58.075	16.381	2.8089e-06	22.881	0.0012247	0.0015137	0.0004249	1005.3	1.6163e-05	1.6991e-05	1099.9	213.37	1.6235e-05	1.6903e-05	271.8	76.661	60.215	17.248	1.6214e-05	24.088	187.588	-8.319	-27.907	-125.861	-25.635	7.053	-126.193	-118.506	59.813	69.395	-118.779	-112.830	-112.185	-104.544	83.199	-104.988	-8191	255	
6275.743	1	1	0	0	0.33697	0.102	0.037872	0.27919	0.24748	0.20908	0.14341	0.39453	0.086544	0.11079	0.11918	0.15125	0.19581	0.34555	0.39509	0.16202	0.10625	-0.2625	-0.875	-0.21875	-0.56875	-0.8375	-0.19583	-0.86042	-0.31458	-0.095833	-1.1417	-0.31875	-0.77708	-0.66667	-0.05625	-0.64792	-81.225	-86.320	198.242	151.352	-3.969	220.165	71.425	150.550	23.372	-123.944	214.701	177.858	-133.974	92.795	217.964	-107.555	0.00022742	0.00034817	0.00012501	1011.1	1.7599e-06	3.2062e-06	1102.6	212.46	2.8207e-06	9.8825e-06	267.43	74.449	57.986	16.331	4.1002e-06	22.681	0.0012421	0.0015342	0.00042449	1005.2	1.6085e-05	1.6527e-05	1098.9	213.2	1.6076e-05	1.665e-05	272.23	76.718	60.16	17.197	1.6543e-05	23.994	173.630	-34.496	-37.901	-125.958	-30.260	146.007	-125.939	-118.921	-53.159	39.717	-118.896	-112.812	-112.022	-104.527	-22.220	-104.657	-8191	255	
6275.839	1	1	0	0	0.043461	0.281	0.13398	0.12345	0.24637	0.29103	0.20071	0.084717	0.2473	0.19519	0.17549	0.099858	0.20111	0.14394	0.16732	0.03642	-0.13958	0.014583	-0.85833	-0.26458	-0.525	-1.0688	-0.1625	-0.98125	-0.59167	-0.17708	-1.1688	-0.37083	-0.54583	-1.0146	-0.077083	-0.74792	-71.055	-95.375	91.088	-53.360	-20.166	15.506	79.805	-107.354	108.626	168.429	-106.954	206.100	205.653	192.706	177.301	-118.323	0.00018862	0.0003439	0.00010644	1007.4	3.0688e-06	7.467e-06	1103.8	211.98	2.4209e-06	8.3251e-07	268.48	74.024	58.325	16.568	2.6481e-06	23.02	0.0012396	0.0015195	0.00041873	1003.1	1.6048e-05	1.6868e-05	1098.7	213.11	1.5875e-05	1.6649e-05	272.18	76.518	60.064	17.29	1.6244e-05	24.2	171.937	28.809	-5.933	-125.952	36.396	27.373	-126.044	-118.764	-32.048	-73.315	-118.585	-112.541	-112.069	-104.246	15.587	-104.801	-8191	255	
6275.911	1	1	0	0	0.31415	0.16281	0.1565	0.08893	0.12114	0.22234	0.15628	0.18019	0.25047	0.25061	0.33374	0.035789	0.18838	0.19734	0.11719	0.084232	-0.275	-0.12917	-1.0312	-0.57083	-0.51458	-1.0917	-0.26875	-0.84583	-0.67708	-0.40417	-0.99583	-0.525	-0.59375	-0.88333	0.077083	-0.625	78.228	59.849	-94.547	-100.699	-7.019	17.504	126.301	91.268	15.273	206.615	-119.369	168.475	4.621	125.854	-8.000	-58.836	0.00019132	0.00048638	0.00014376	1012.2	1.1214e-06	1.7836e-06	1102.5	210.56	2.762e-06	8.0466e-06	269.38	74.665	58.326	16.622	4.575e-06	23.057	0.0012152	0.0015074	0.00042733	1004.9	1.5761e-05	1.6888e-05	1097.6	213.2	1.5899e-05	1.6815e-05	271.97	76.825	60.013	17.303	1.6379e-05	24.086	173.088	-68.677	-0.224	-125.878	-49.518	35.977	-125.757	-118.385	-56.100	53.257	-118.635	-112.653	-112.092	-104.616	-86.261	-104.588	-8191	255	
6276.007	1	1	0	0	0.25491	0.17789	0.31105	0.16175	0.032561	0.046493	0.18283	0.08781	0.1223	0.37633	0.23116	0.39968	0.13798	0.048106	0.12527	0.25166	-0.65417	-0.22083	-0.96458	-0.54792	-0.25208	-1.0292	-0.23125	-0.79167	-0.76458	-0.089583	-0.95625	-0.56458	-0.29792	-0.85417	-0.25833	-0.54583	136.659	-34.879	-3.421	69.456	156.728	91.578	44.360	-7.023	-34.768	87.986	-58.795	205.603	-107.870	-99.408	13.296	5.477	0.00020979	0.00048804	0.00019259	1006.4	2.8034e-06	4.8655e-06	1100.9	211.87	3.0912e-06	2.7544e-06	267.32	74.066	58.207	16.502	6.168e-06	22.832	0.0012196	0.0015367	0.00042157	1001.4	1.606e-05	1.6841e-05	1097.3	213.1	1.5991e-05	1.6747e-05	271.74	76.595	60.158	17.242	1.6175e-05	24.037	181.456	5.430	-35.524	-126.069	-9.772	-39.628	-125.974	-118.849	55.140	-28.175	-118.515	-112.350	-111.934	-103.868	-36.161	-104.836	-8191	255	
6276.126	1	1	0	0	0.15294	0.062071	0.089393	0.16299	0.16389	0.11288	0.3831	0.19492	0.089462	0.15391	0.23434	0.053324	0.23686	0.14674	0.22439	0.10082	-0.46667	0.035417	-0.73125	-0.87292	-0.175	-1.0667	-0.37917	-0.53542	-0.99375	-0.21667	-0.65625	-0.80208	-0.25208	-0.96458	-0.34167	-0.5375	16.614	165.860	-124.324	-110.472	-26.281	0.210	151.751	129.706	-9.348	77.222	173.286	82.299	-22.587	213.661	168.886	148.779	0.00018989	0.00032259	7.7677e-05	1011.1	2.0281e-06	5.5406e-06	1107.3	210.91	3.5576e-06	5.4317e-06	268.58	74.365	58.241	16.428	1.9624e-06	22.796	0.0012297	0.0015262	0.00042191	1003.2	1.606e-05	1.6724e-05	1099.3	212.8	1.5841e-05	1.6878e-05	272.22	76.727	60.249	17.18	1.6339e-05	24.051	178.848	-23.328	53.952	-125.877	207.079	-31.407	-125.866	-118.411	-26.782	-126.824	-118.656	-112.975	-112.236	-104.131	215.438	-104.828	-8191	255	
6276.222	1	1	0	0	0.177	0.24389	0.20659	0.30783	0.11632	0.25313	0.26312	0.25846	0.22169	0.12629	0.24691	0.024438	0.1848	0.07223	0.060627	0.22561	-0.57083	-0.14375	-0.76875	-0.7625	-0.11875	-1.125	-0.875	-0.38542	-1.05	-0.27292	-0.71458	-0.74167	-0.25208	-0.96042	-0.45	-0.36042	139.887	68.243	157.812	118.948	20.053	-19.666	-99.430	95.039	-3.918	-41.714	154.174	34.091	11.806	-18.863	-98.358	-88.889	0.0001828	0.00021279	0.00011508	1013.8	3.3428e-06	2.385e-06	1101.3	213.05	1.8628e-06	4.0675e-06	266.78	74.021	58.088	16.511	2.5767e-06	23.146	0.0012107	0.0015076	0.00042892	1004.6	1.6137e-05	1.665e-05	1098	213.32	1.595e-05	1.6806e-05	271.4	76.587	60.164	17.264	1.6376e-05	24.161	188.153	-41.241	54.039	-125.710	94.762	-8.453	-126.087	-118.560	-92.108	-80.777	-118.614	-112.624	-112.163	-104.113	141.408	-104.494	-8191	255	
6276.320	1	1	0	0	0.055968	0.070925	0.077205	0.19961	0.10926	0.2061	0.19776	0.29877	0.2088	0.39005	0.25653	0.19906	0.26624	0.16606	0.0852	0.25236	-0.77708	-0.275	-0.65417	-1.0542	-0.083333	-0.86458	-0.67292	-0.36042	-1.1	-0.14167	-0.62708	-1.1479	0.10208	-1.0104	-0.70417	-0.28958	103.259	23.375	-52.939	-98.289	191.925	-51.601	-18.301	146.635	-58.366	79.616	160.134	-120.236	142.796	204.442	106.402	132.998	0.00025308	0.00040583	0.00010984	1008.2	1.3227e-06	2.3905e-06	1099.3	210.78	4.2023e-06	3.8056e-06	268.16	74.123	57.829	16.397	2.6641e-06	22.885	0.0012383	0.0015048	0.00042355	1001.4	1.6173e-05	1.686e-05	1096.9	212.84	1.5794e-05	1.6758e-05	271.66	76.783	59.874	17.22	1.6186e-05	24.134	177.886	-93.470	46.493	-125.757	116.440	-29.413	-126.837	-119.365	-83.493	8.930	-119.469	-113.451	-112.839	-105.512	33.701	-105.741	-8191	255	
6276.439	1	1	0	0	0.21529	0.23504	0.10681	0.093262	0.15858	0.029918	0.20458	0.3979	0.18514	0.047124	0.15955	0.16604	0.052093	0.079414	0.39186	0.27706	-0.51042	-0.15625	-0.38125	-1.1667	-0.0020833	-0.89375	-0.85208	-0.25417	-0.89375	-0.32292	-0.34583	-0.94375	-0.1625	-0.73333	-0.96458	-0.085417	186.061	-82.835	-39.521	-111.121	71.850	44.985	121.002	142.851	-117.707	-100.373	-69.689	159.454	-86.593	-112.044	51.241	-25.831	0.00017719	0.00032141	0.00027366	1008.5	5.3633e-06	1.7721e-06	1100.6	209.67	2.2855e-06	3.694e-06	268.78	73.857	57.909	16.503	2.7095e-06	22.977	0.0012218	0.0015009	0.00042172	1004	1.617e-05	1.6742e-05	1098.6	212.2	1.5891e-05	1.6882e-05	272.12	76.431	60.053	17.269	1.6232e-05	24.076	188.131	-43.390	-71.781	-126.825	-87.812	-10.246	-126.821	-119.472	-35.122	-62.399	-119.663	-113.615	-113.392	-104.912	185.730	-105.661	-8191	255	
6276.511	1	1	0	0	0.21423	0.21537	0.055758	0.12931	0.15383	0.13418	0.061401	0.14035	0.21477	0.20522	0.12108	0.36356	0.088605	0.13589	0.084518	0.11552	-0.56667	-0.45417	-0.091667	-0.98333	-0.21667	-0.69583	-0.87708	0.058333	-0.93542	-0.48333	-0.31458	-1.225	-0.39167	-0.70833	-0.76875	-0.08125	-3.653	9.677	-20.681	218.613	-98.030	42.832	-94.956	139.814	163.510	-5.180	92.989	95.709	-5.348	-86.231	134.838	187.253	0.00018538	0.00012326	0.0001622	1007.1	3.4003e-06	3.8164e-06	1098.4	210.76	4.4026e-06	4.2919e-06	268.24	74.183	57.996	16.467	2.3801e-06	22.718	0.0012068	0.00152	0.00042455	1004.4	1.6027e-05	1.684e-05	1098.7	212.94	1.5983e-05	1.6816e-05	271.66	76.551	60.015	17.258	1.64e-05	24.029	180.455	-128.249	-72.633	-126.872	51.093	99.459	-126.954	-119.498	-29.827	-30.553	-119.273	-113.567	-112.846	-105.249	-124.714	-106.134	-8191	255	
6276.607	1	1	0	0	0.083579	0.069747	0.16584	0.22631	0.25076	0.19922	0.29862	0.11972	0.1789	0.093568	0.13591	0.23177	0.083958	0.053779	0.24965	0.044316	-0.66875	-0.53958	-0.26875	-1.0375	-0.28125	-0.76667	-1.0979	-0.077083	-0.975	-0.60208	-0.00625	-1.0021	-0.19167	-0.41667	-1.1229	-0.070833	106.782	49.845	154.718	151.616	-60.932	-14.494	120.775	219.340	-23.401	128.686	177.385	191.636	78.426	66.347	117.696	-125.318	0.00023311	0.00032806	0.0001003	1010.4	5.5268e-06	2.7654e-06	1102.6	211.92	1.2563e-06	3.0878e-06	267.36	74.249	58.122	16.432	8.7164e-07	22.916	0.00123	0.0015181	0.00042175	1003.9	1.6172e-05	1.6828e-05	1097.5	212.85	1.5847e-05	1.6789e-05	272.53	76.639	59.978	17.258	1.6367e-05	24.029	171.472	-92.815	-45.291	-126.577	2.754	-1.110	-126.803	-119.704	134.781	-2.570	-119.483	-113.392	-112.719	-105.073	48.312	-105.772	-8191	255	
6276.728	1	1	0	0	0.24788	0.12204	0.30116	0.27681	0.08057	0.17386	0.28812	0.11062	0.12033	0.087402	0.35968	0.1672	0.26025	0.17412	0.21325	0.16372	-0.32917	-0.71875	-0.075	-1.1125	-0.20208	-0.35	-1.0187	-0.18125	-0.66667	-0.75208	-0.25417	-1.0521	-0.475	-0.41042	-1.1104	0	48.246	173.121	133.855	212.135	178.094	24.803	162.141	207.646	-17.280	98.544	221.424	174.734	147.350	-33.782	-89.611	193.355	0.00017501	0.00031473	8.3904e-05	1010.8	1.6806e-06	5.9893e-06	1102.6	210.41	6.9149e-06	9.6337e-06	266.58	74.377	58.105	16.412	3.1848e-06	22.78	0.0012137	0.0014991	0.0004262	1003.4	1.6132e-05	1.6961e-05	1098.9	212.78	1.5909e-05	1.6905e-05	271.59	76.533	60.169	17.239	1.6287e-05	24.024	173.615	-44.915	145.466	-126.750	-38.175	42.969	-126.859	-119.665	-56.044	74.401	-119.647	-113.193	-112.537	-104.776	70.022	-105.726	-8191	255	
6276.824	1	1	0	0	0.19957	0.25757	0.14111	0.34172	0.21582	0.27364	0.145	0.039026	0.12509	0.30502	0.10647	0.17175	0.1342	0.34922	0.21276	0.096562	-0.3625	-0.77708	0.045833	-0.93333	-0.33958	-0.10625	-1.3729	-0.41458	-0.46667	-0.80833	-0.083333	-0.85625	-0.56667	-0.2125	-0.87708	-0.26458	-110.958	96.546	103.551	202.707	209.191	-51.207	192.962	-56.140	158.247	132.708	-54.697	139.614	180.443	-116.385	65.401	152.694	0.00018861	0.0003176	0.00010175	1012	5.5026e-06	5.7114e-06	1102.6	211.33	2.5578e-06	3.833e-06	266.43	74.214	57.961	16.456	1.7367e-06	22.82	0.001202	0.0014961	0.00042092	1004.8	1.6134e-05	1.684e-05	1098.4	212.93	1.6031e-05	1.6725e-05	271.76	76.651	59.917	17.265	1.6136e-05	24.004	160.855	-58.225	213.570	-126.643	-25.675	81.794	-126.682	-119.484	-3.154	-68.704	-119.339	-113.087	-112.797	-104.818	-0.062	-105.055	-8191	255	
6276.920	1	1	0	0	0.089613	0.15163	0.13794	0.36952	0.12074	0.1141	0.2416	0.13373	0.18751	0.11551	0.18807	0.15887	0.073956	0.17038	0.10158	0.2895	-0.18958	-0.86875	0.05625	-0.85625	-0.72083	-0.00625	-1.2521	-0.40833	-0.66042	-0.85833	-0.24375	-0.82292	-0.67292	-0.09375	-0.825	-0.41875	-64.721	195.254	-94.607	137.580	-136.568	135.994	123.140	142.103	-31.721	155.558	198.614	-49.992	26.927	198.025	30.088	4.340	0.00020271	0.0006495	1.0517e-05	1010.7	2.8101e-06	3.2078e-06	1096.4	211.59	2.972e-06	4.0431e-06	267.72	73.961	58.232	16.404	3.9802e-06	22.743	0.0012198	0.0015137	0.00041516	1004.6	1.6038e-05	1.6732e-05	1098.5	212.88	1.602e-05	1.6816e-05	271.3	76.571	60.124	17.2	1.6372e-05	23.996	169.019	-59.246	60.858	-126.437	-30.467	-87.760	-126.619	-119.437	-29.346	32.215	-119.561	-113.236	-112.882	-105.129	10.186	-105.732	-8191	255	
6277.040	1	1	0	0	0.032179	0.15128	0.13628	0.05294	0.12242	0.26886	0.14708	0.097851	0.26568	0.12298	0.12928	0.19086	0.1835	0.38811	0.12794	0.21118	-0.0083333	-0.76458	-0.05625	-0.875	-0.71667	-0.010417	-1.0875	-0.425	-0.33333	-0.75833	-0.11875	-0.47708	-0.81667	-0.085417	-0.98958	-0.57292	110.610	-111.338	-22.298	152.966	43.966	33.526	188.749	199.567	192.666	-67.053	-13.374	187.264	-27.541	-119.899	-111.789	-123.196	0.00024342	0.00062951	0.00011676	1008.2	1.6249e-06	2.873e-06	1107.8	211.51	7.8727e-07	1.158e-06	267.98	73.746	58.084	16.508	6.419e-06	23.008	0.0012227	0.0015063	0.00041559	1004.2	1.5672e-05	1.6919e-05	1101.4	212.92	1.5895e-05	1.681e-05	271.65	76.555	60.163	17.315	1.6384e-05	24.058	179.384	-32.840	-109.365	-126.736	-125.100	81.430	-127.091	-119.544	-3.979	-66.879	-119.546	-113.225	-112.554	-104.750	-30.546	-105.494	-8191	255	
6277.112	1	1	0	0	0.20509	0.086942	0.15617	0.036663	0.0765	0.24145	0.19668	0.11867	0.17075	0.17167	0.096742	0.12699	0.21332	0.057658	0.088609	0.059976	0.04375	-1.0729	-0.097917	-0.675	-0.70833	0.025	-1.2042	-0.42292	-0.27708	-0.99167	-0.59583	-0.65625	-0.91667	0.089583	-0.81458	-0.63958	11.280	-12.066	-62.078	82.063	-21.527	51.996	-100.533	34.983	198.601	65.073	212.845	131.150	34.455	209.197	21.673	8.638	0.00022465	0.00012214	0.00010201	1011.8	4.4535e-06	3.2275e-06	1099.9	211.37	3.4481e-06	4.5675e-06	267.97	74.205	58.326	16.402	2.4188e-06	23.058	0.0012131	0.0015083	0.00042706	1005.9	1.6145e-05	1.6723e-05	1098.8	212.98	1.578e-05	1.6697e-05	272.09	76.677	60.141	17.235	1.639e-05	24.179	184.952	-102.606	-26.617	-126.458	135.501	-43.559	-126.857	-119.085	-57.027	-14.258	-119.619	-113.060	-112.842	-104.957	-47.448	-105.481	-8191	255	
6277.208	1	1	0	0	0.12207	0.097731	0.087868	0.41738	0.0148	0.1252	0.39249	0.096994	0.2006	0.096971	0.045564	0.044993	0.19844	0.14986	0.22363	0.091108	0.09375	-0.9125	-0.25833	-0.52708	-0.76042	-0.15208	-1.1437	-0.81667	-0.089583	-1.05	-0.3875	-0.65833	-1.075	-0.10417	-0.64375	-0.61042	-62.976	-75.824	8.031	180.564	-37.187	-134.947	185.726	-29.647	5.779	57.367	28.338	-11.077	-101.270	110.061	-2.039	55.518	0.00020129	0.00045702	0.00021668	1012.4	4.6304e-06	1.4099e-06	1097.9	211.71	2.6051e-06	5.9731e-06	267.78	73.732	58.305	16.412	5.7945e-06	22.958	0.00122	0.001502	0.00042225	1004.4	1.5927e-05	1.6725e-05	1098.5	213.05	1.6147e-05	1.6906e-05	271.81	76.495	60.159	17.233	1.6347e-05	24.019	201.203	-29.715	-56.983	-126.531	5.482	105.642	-126.868	-119.226	-33.280	19.621	-119.849	-113.371	-113.164	-105.321	-7.889	-105.647	-8191	255	
6277.303	1	1	0	0	0.083651	0.053778	0.18418	0.274	0.15792	0.36316	0.42047	0.29292	0.05696	0.2779	0.19852	0.20796	0.22468	0.11498	0.11789	0.13259	0.175	-0.86667	-0.375	-0.29167	-0.90417	-0.31042	-0.82708	-0.97083	-0.1375	-0.99792	-0.56042	-0.29375	-1.2667	-0.13333	-0.74375	-0.96875	70.389	155.865	-62.876	208.276	156.341	3.205	198.038	163.629	-99.154	-22.872	180.930	-56.467	183.292	74.104	-99.171	-118.424	0.00017763	0.00076049	8.2398e-05	1009.6	2.9492e-06	6.5453e-06	1102.1	210.3	5.1646e-06	7.9042e-06	265.77	74.455	58.117	16.484	3.9756e-06	22.807	0.0012264	0.0015043	0.00042648	1006.2	1.6173e-05	1.6947e-05	1100	212.8	1.5953e-05	1.6774e-05	271.12	76.877	60.164	17.232	1.6358e-05	24.029	158.039	-8.726	212.684	-126.469	-29.609	0.432	-126.490	-119.446	-35.437	16.085	-119.465	-112.966	-112.602	-104.684	50.714	-106.033	-8191	255	
6277.423	1	1	0	0	0.11204	0.21065	0.21432	0.33418	0.11907	0.15552	0.24174	0.26335	0.23555	0.18262	0.11337	0.28741	0.23332	0.098116	0.17162	0.37277	0.26458	-0.9375	-0.35417	-0.13125	-1.075	-0.29583	-0.57917	-1.1708	-0.14375	-0.97917	-0.8	-0.079167	-1.0104	-0.38333	-0.38333	-1.2333	134.684	96.779	199.834	164.974	-96.110	183.379	-87.358	-106.166	23.474	212.104	-26.860	23.958	154.432	70.326	-82.637	15.169	0.00014259	3.3362e-05	0.00011139	1011.2	5.6824e-06	3.9099e-06	1097.3	211.11	5.9883e-06	7.3004e-06	267.83	74.058	58.117	16.398	3.2628e-06	22.845	0.0012247	0.0015042	0.00042467	1006	1.6166e-05	1.6666e-05	1097.2	212.74	1.6187e-05	1.6876e-05	272	76.671	60.097	17.208	1.6215e-05	24.005	183.882	-68.210	4.170	-126.697	-52.582	92.344	-126.975	-119.654	-72.147	45.537	-119.589	-113.407	-112.524	-105.336	71.382	-105.387	-8191	255	
6277.519	1	1	0	0	0.051238	0.21934	0.13816	0.38668	0.075873	0.38985	0.29029	0.087533	0.18471	0.19041	0.0095748	0.23882	0.16499	0.11844	0.10172	0.12683	0.2125	-0.71042	-0.52292	-0.15625	-0.925	-0.30625	-0.52917	-0.94583	-0.11458	-0.57917	-0.65625	-0.24167	-0.92708	-0.35	-0.45	-1.0562	19.941	-60.311	111.282	196.957	2.263	-76.704	157.492	61.404	66.823	-0.391	-126.653	-79.320	-109.276	213.007	23.354	-128.837	0.00018594	5.4551e-05	7.4176e-05	1012.5	3.8089e-06	8.1291e-06	1093.6	210.06	5.5123e-06	3.5985e-06	266.63	74.212	58.774	16.4	1.0429e-05	22.624	0.0012405	0.0015233	0.00041701	1005.9	1.5919e-05	1.6966e-05	1095.9	212.65	1.6138e-05	1.6789e-05	271.79	76.647	60.374	17.233	1.6432e-05	23.947	196.682	-93.938	91.751	-126.785	-82.389	47.424	-126.761	-119.366	-42.567	138.538	-119.535	-113.484	-112.932	-104.922	7.318	-105.667	-8191	255	
6277.616	1	1	0	0	0.19874	0.037973	0.18488	0.21293	0.18134	0.1141	0.050419	0.24954	0.040834	0.22677	0.18713	0.11526	0.20909	0.15948	0.1332	0.09155	0.15417	-0.6625	-0.79375	-0.21458	-1.0521	-0.44583	-0.42917	-1.1958	-0.089583	-0.55208	-1.0187	-0.13542	-0.85208	-0.5875	-0.15	-0.88333	22.980	72.181	164.818	202.254	59.348	-17.087	-101.529	-87.544	43.222	200.525	-21.461	11.520	-57.029	80.268	-35.786	-94.949	0.00018615	0.0002521	0.00020434	1011.5	4.1566e-06	4.3359e-06	1102.3	211.33	2.0851e-06	6.3993e-06	268.38	73.851	58.068	16.426	6.7764e-06	22.945	0.001214	0.0015295	0.00042152	1005.8	1.5981e-05	1.6746e-05	1099.9	213.22	1.613e-05	1.7001e-05	272.07	76.59	59.983	17.26	1.6255e-05	24.052	194.577	-62.894	-87.218	-126.755	-39.272	73.400	-126.598	-119.536	-102.536	53.911	-119.719	-113.044	-112.632	-105.031	11.575	-105.543	-8191	255	
6277.712	1	1	0	0	0.14695	0.30268	0.1669	0.15378	0.28955	0.11117	0.26924	0.25497	0.13456	0.24193	0.25726	0.26922	0.26454	0.13108	0.29585	0.20686	0.13958	-0.38958	-0.78125	-0.24375	-0.87917	-0.4875	-0.42292	-1.1938	-0.19583	-0.4125	-1.0854	-0.33333	-0.925	-0.7375	-0.11875	-1.0479	221.873	165.371	-129.581	161.565	-100.613	-90.099	160.103	70.441	-125.738	39.028	181.251	-70.235	205.622	54.659	212.385	186.892	0.00022253	0.00043953	7.7614e-05	1011	4.0099e-06	5.7163e-06	1102.4	210.52	3.0077e-06	3.6049e-06	267.86	73.97	58.82	16.529	2.9843e-06	22.798	0.0012221	0.0015413	0.00042456	1006.3	1.615e-05	1.6826e-05	1099.2	213	1.5939e-05	1.6707e-05	272.26	76.623	60.247	17.258	1.6402e-05	23.967	152.072	-29.511	114.771	-126.522	179.817	13.173	-126.732	-119.473	-55.361	-41.736	-119.590	-113.279	-112.627	-105.358	-19.784	-105.722	-8191	255	
6277.808	1	1	0	0	0.047109	0.046677	0.11176	0.061386	0.32082	0.1297	0.38793	0.32057	0.2645	0.19356	0.05189	0.068258	0.13776	0.1561	0.28881	0.032737	-0.066667	-0.18333	-0.92708	-0.14583	-0.77083	-0.79375	-0.16667	-1.2917	-0.49583	-0.1625	-1.0208	-0.2625	-0.69167	-0.78958	-0.15417	-0.96667	182.322	-103.000	105.051	215.084	52.287	194.234	76.435	110.698	193.898	-124.190	149.288	130.946	-136.509	-11.382	15.057	196.660	0.00019041	0.00028372	0.0001793	1006.1	4.574e-06	2.3885e-06	1101.9	209.7	3.2531e-06	8.9745e-06	268.93	74.404	58.448	16.526	8.5871e-06	22.846	0.0012235	0.001514	0.0004246	1004	1.6012e-05	1.688e-05	1099.1	212.58	1.5952e-05	1.7042e-05	271.8	76.646	60.168	17.201	1.653e-05	24.03	172.940	-47.715	-10.476	-126.594	11.795	29.411	-126.391	-119.380	-20.639	40.074	-119.519	-112.818	-112.691	-105.405	30.863	-105.526	-8191	255	
6277.904	1	1	0	0	0.16757	0.032838	0.17446	0.21113	0.29744	0.19269	0.16273	0.22638	0.1205	0.16329	0.21052	0.17929	0.24819	0.33776	0.12127	0.15688	-0.175	-0.25208	-1.0042	-0.3125	-0.55833	-0.85208	-0.37292	-0.91458	-0.59375	-0.097917	-1.0312	-0.27917	-0.66667	-0.92083	-0.14167	-0.79792	-120.764	3.006	-14.316	161.441	141.463	-59.504	153.238	74.012	-106.910	216.018	157.241	191.167	177.156	126.698	141.913	-25.392	0.0001963	0.00022484	5.0275e-05	1007.9	9.3366e-07	3.8607e-06	1103.8	210.25	1.7069e-06	2.9516e-06	268.19	73.369	57.862	16.463	3.1186e-06	23.078	0.0012489	0.0015232	0.00041998	1005.2	1.5895e-05	1.677e-05	1098.3	212.58	1.6448e-05	1.6937e-05	272.27	76.42	59.955	17.24	1.6359e-05	24.111	176.609	15.504	-116.250	-126.688	-77.013	59.258	-126.405	-119.561	-127.871	-9.651	-119.546	-113.342	-112.743	-104.856	-46.729	-105.104	-8191	255	
6278.000	1	1	0	0	0.15494	0.22237	0.05028	0.20355	0.2279	0.089928	0.23747	0.36587	0.27685	0.029204	0.080027	0.060782	0.072242	0.10912	0.084535	0.038629	-0.38542	-0.16667	-0.81875	-0.36042	-0.46042	-0.78333	-0.5875	-0.82083	-0.52708	-0.23542	-1.0875	-0.2375	-0.45	-1.0917	-0.047917	-0.64583	51.381	31.038	-48.869	155.680	133.279	140.234	144.488	183.330	53.116	-135.158	126.549	166.760	65.023	30.737	99.838	40.695	0.00022598	0.00033989	0.00013548	1009.9	4.0517e-06	2.4442e-06	1101.9	210.87	4.586e-06	4.203e-06	269.11	74.787	57.91	16.396	2.7167e-06	22.867	0.001215	0.0015064	0.00042065	1004.4	1.6275e-05	1.662e-05	1100.4	212.85	1.5883e-05	1.6553e-05	272.02	76.896	60.029	17.188	1.5958e-05	24.042	166.302	-67.573	-109.365	-126.463	-6.614	-53.411	-126.482	-119.453	-92.973	74.091	-119.596	-113.124	-112.494	-104.802	65.978	-105.515	-8191	255	
6278.121	1	1	0	0	0.12892	0.18737	0.16462	0.34	0.21575	0.11956	0.25888	0.08488	0.13743	0.14179	0.091473	0.35369	0.014552	0.058643	0.20259	0.25373	-0.13958	0.01875	-0.91458	-0.29792	-0.31458	-0.87708	-0.20208	-0.71042	-0.62917	-0.13542	-0.96667	-0.36458	-0.091667	-0.95417	-0.10417	-0.49375	149.429	-34.929	-102.321	141.971	197.285	-1.498	84.348	-89.503	149.669	59.769	63.636	-133.687	-12.403	-101.700	90.441	41.366	0.00023948	0.00031143	7.6027e-05	1011.7	3.8326e-06	4.0367e-06	1098.2	210.69	3.0062e-06	3.1022e-06	267.47	74.07	58.261	16.487	1.8643e-06	22.89	0.0012163	0.0014745	0.00042105	1004.1	1.5922e-05	1.6533e-05	1096.4	212.59	1.576e-05	1.6441e-05	271.52	76.567	60.185	17.226	1.6122e-05	24.032	163.007	-124.495	-17.236	-126.791	9.734	1.635	-126.749	-119.145	98.019	49.534	-119.333	-113.332	-112.786	-105.020	23.577	-105.382	-8191	255	
6278.217	1	1	0	0	0.10965	0.086258	0.13955	0.24953	0.33589	0.31457	0.23671	0.15459	0.11303	0.11702	0.13732	0.15024	0.14259	0.052426	0.056103	0.069856	-0.4375	0.27708	-0.90208	-0.59375	-0.066667	-0.91875	-0.68542	-0.38958	-0.92917	-0.025	-0.77292	-0.50833	-0.14583	-1.0583	-0.33333	-0.31458	-24.304	134.671	35.995	205.571	123.160	-112.896	115.100	104.030	130.751	-48.407	153.454	220.773	-65.235	-96.575	109.339	-34.420	0.00020183	0.00049025	0.0001787	1010.9	4.9624e-06	1.4807e-06	1099.1	211.99	4.7178e-06	4.815e-06	266.84	74.206	58.234	16.5	3.1434e-06	22.697	0.0012144	0.0015061	0.00041774	1004.7	1.623e-05	1.6721e-05	1099.4	213.09	1.5994e-05	1.6637e-05	271.16	76.437	60.153	17.238	1.6085e-05	23.94	193.224	-130.443	-60.816	-126.565	-2.066	8.672	-126.845	-118.950	-74.735	51.922	-119.054	-113.335	-112.353	-105.824	-65.980	-105.515	-8191	255	
6278.311	1	1	0	0	0.28051	0.11736	0.12891	0.10274	0.04921	0.2162	0.39157	0.37996	0.089086	0.16435	0.1879	0.20817	0.16594	0.21927	0.2411	0.08571	-0.54792	-0.020833	-0.575	-0.82708	-0.060417	-1.0354	-0.53542	-0.46458	-1.1021	-0.077083	-0.7625	-0.73333	0	-0.98125	-0.49583	-0.40417	218.522	-58.629	70.124	135.820	-7.580	52.457	159.685	114.719	-42.945	-133.530	-123.116	110.514	-17.901	189.688	134.122	18.806	0.00015658	0.00060637	8.4875e-05	1014.5	3.9264e-06	3.461e-06	1105.6	210.06	1.4318e-06	6.1372e-06	268.54	74.005	57.682	16.414	2.3255e-06	22.73	0.0012343	0.0015248	0.00041858	1006.1	1.5886e-05	1.6608e-05	1098.1	212.43	1.5723e-05	1.6598e-05	272.18	76.627	59.791	17.239	1.6255e-05	24.049	183.146	-43.272	73.996	-126.515	-8.903	44.740	-126.520	-119.242	46.989	58.515	-119.265	-113.430	-112.668	-104.919	22.845	-105.360	-8191	255	
6278.408	1	1	0	0	0.08519	0.24526	0.23225	0.34435	0.26604	0.066852	0.12598	0.17282	0.1522	0.14898	0.095343	0.24813	0.24461	0.013201	0.056936	0.30639	-0.69167	-0.225	-0.67083	-0.91667	-0.12917	-0.83958	-0.4875	-0.30208	-0.95625	-0.17708	-0.5625	-1.0125	-0.091667	-0.79583	-0.52083	-0.30417	59.539	134.498	181.912	215.716	102.677	3.889	208.106	-117.827	25.472	-15.636	-81.939	-117.565	110.177	170.327	16.293	74.609	0.00017382	0.00042071	0.00018063	1009.7	1.5141e-06	9.0126e-06	1100.4	211.16	6.1397e-06	5.288e-06	269.72	74.22	57.657	16.547	1.084e-06	22.974	0.0012091	0.0015109	0.00041449	1004.1	1.6087e-05	1.6517e-05	1098.2	212.98	1.5855e-05	1.6633e-05	272.22	76.594	60.035	17.234	1.6299e-05	24.009	170.695	-55.773	-28.007	-126.360	2.193	16.889	-126.558	-118.981	27.109	66.723	-119.136	-113.116	-112.554	-104.713	208.439	-105.297	-8191	255	
#DATA ENDS
