BOXY.EXE: ISS Imagent and Oximeter Data Acquisition Program Version 0.80
Ascii Record File

#ACQ INFORMATION
2  Detector Channels 
16  External MUX Channels 
1  Auxiliary Channels 
5000  Waveform (CCF) Frequency (Hz)
1  Waveforms Skipped 
30  Waveforms Averaged 
1  Cycles Averaged 
16  Acquisitions per Waveform 
10.0806  Updata Rate (Hz) 

#FILE INFORMATION
TRUE -- External MUX Channel results are PARSED.
FALSE -- AC DC and Phase are NOT grouped.
TRUE -- Companion Program Settings File CREATED.
FALSE -- AC data not excluded
FALSE -- DC data not excluded
FALSE -- Phase data not excluded
FALSE -- Auxillary Chn. data not excluded
Tab delimiters

#CALIBRATION STATE
TRUE -- Waveform Calibration Values APPLIED.


#AUX CALIBRATION VALUES
Val Type	aux-1	

Term	1.0000e+00	
Factor	0.0000e+00	


#WF CALIBRATION VALUES
A = Detector Channel
Val Type	A-AC1	A-AC2	A-AC3	A-AC4	A-AC5	A-AC6	A-AC7	A-AC8	A-AC9	A-AC10	A-AC11	A-AC12	A-AC13	A-AC14	A-AC15	A-AC16	A-DC1	A-DC2	A-DC3	A-DC4	A-DC5	A-DC6	A-DC7	A-DC8	A-DC9	A-DC10	A-DC11	A-DC12	A-DC13	A-DC14	A-DC15	A-DC16	A-Ph1	A-Ph2	A-Ph3	A-Ph4	A-Ph5	A-Ph6	A-Ph7	A-Ph8	A-Ph9	A-Ph10	A-Ph11	A-Ph12	A-Ph13	A-Ph14	A-Ph15	A-Ph16	

Term	0.00000e+00	0.00000e+00	0.00000e+00	0.00000e+00	0.00000e+00	0.00000e+00	0.00000e+00	0.00000e+00	0.00000e+00	0.00000e+00	0.00000e+00	0.00000e+00	0.00000e+00	0.00000e+00	0.00000e+00	0.00000e+00	0.00000e+00	0.00000e+00	0.00000e+00	0.00000e+00	0.00000e+00	0.00000e+00	0.00000e+00	0.00000e+00	0.00000e+00	0.00000e+00	0.00000e+00	0.00000e+00	0.00000e+00	0.00000e+00	0.00000e+00	0.00000e+00	0.00000e+00	0.00000e+00	0.00000e+00	0.00000e+00	0.00000e+00	0.00000e+00	0.00000e+00	0.00000e+00	0.00000e+00	0.00000e+00	0.00000e+00	0.00000e+00	0.00000e+00	0.00000e+00	0.00000e+00	0.00000e+00	
Factor	1.00000e+00	1.00000e+00	1.00000e+00	1.00000e+00	1.00000e+00	1.00000e+00	1.00000e+00	1.00000e+00	1.00000e+00	1.00000e+00	1.00000e+00	1.00000e+00	1.00000e+00	1.00000e+00	1.00000e+00	1.00000e+00	1.00000e+00	1.00000e+00	1.00000e+00	1.00000e+00	1.00000e+00	1.00000e+00	1.00000e+00	1.00000e+00	1.00000e+00	1.00000e+00	1.00000e+00	1.00000e+00	1.00000e+00	1.00000e+00	1.00000e+00	1.00000e+00	X	X	X	X	X	X	X	X	X	X	X	X	X	X	X	X	

B = Detector Channel
Val Type	B-AC1	B-AC2	B-AC3	B-AC4	B-AC5	B-AC6	B-AC7	B-AC8	B-AC9	B-AC10	B-AC11	B-AC12	B-AC13	B-AC14	B-AC15	B-AC16	B-DC1	B-DC2	B-DC3	B-DC4	B-DC5	B-DC6	B-DC7	B-DC8	B-DC9	B-DC10	B-DC11	B-DC12	B-DC13	B-DC14	B-DC15	B-DC16	B-Ph1	B-Ph2	B-Ph3	B-Ph4	B-Ph5	B-Ph6	B-Ph7	B-Ph8	B-Ph9	B-Ph10	B-Ph11	B-Ph12	B-Ph13	B-Ph14	B-Ph15	B-Ph16	

Term	0.00000e+00	0.00000e+00	0.00000e+00	0.00000e+00	0.00000e+00	0.00000e+00	0.00000e+00	0.00000e+00	0.00000e+00	0.00000e+00	0.00000e+00	0.00000e+00	0.00000e+00	0.00000e+00	0.00000e+00	0.00000e+00	0.00000e+00	0.00000e+00	0.00000e+00	0.00000e+00	0.00000e+00	0.00000e+00	0.00000e+00	0.00000e+00	0.00000e+00	0.00000e+00	0.00000e+00	0.00000e+00	0.00000e+00	0.00000e+00	0.00000e+00	0.00000e+00	-1.16366e+02	-1.34525e+02	-1.24640e+02	-1.81440e+02	-6.20949e+01	-6.64202e+01	-1.56427e+02	-1.62015e+02	-6.69733e+01	-6.15982e+01	-1.71980e+02	-1.69516e+02	-1.84939e+02	-1.76465e+02	-6.54987e+01	-1.48787e+02	
Factor	1.61643e-05	1.38122e-04	4.24785e-05	1.47321e-01	1.18619e-06	1.52504e-06	1.65925e-01	4.94256e-02	1.07980e-06	1.67298e-06	8.54847e-02	2.70576e-02	2.30815e-02	8.67598e-03	1.25400e-06	1.23377e-02	1.12576e-05	2.02003e-05	5.73018e-06	7.73108e-02	2.02464e-07	2.30455e-07	8.19583e-02	2.61172e-02	2.05112e-07	2.28814e-07	4.35796e-02	1.39337e-02	1.23178e-02	4.61571e-03	2.14390e-07	6.36437e-03	X	X	X	X	X	X	X	X	X	X	X	X	X	X	X	X	



#DISTANCE SETTINGS
A = Detector Channel
A-1	A-2	A-3	A-4	A-5	A-6	A-7	A-8	A-9	A-10	A-11	A-12	A-13	A-14	A-15	A-16	

2.5000e+00	3.0000e+00	2.5000e+00	3.0000e+00	2.0000e+00	3.0000e+00	1.5000e+00	3.0000e+00	3.0000e+00	3.0000e+00	3.0000e+00	3.0000e+00	3.0000e+00	3.0000e+00	1.5000e+00	3.0000e+00	

B = Detector Channel
B-1	B-2	B-3	B-4	B-5	B-6	B-7	B-8	B-9	B-10	B-11	B-12	B-13	B-14	B-15	B-16	

1.0000e+01	1.0000e+01	1.0000e+01	1.4400e+00	1.0000e+01	1.0000e+01	1.5100e+00	1.9400e+00	1.0000e+01	1.0000e+01	1.9900e+00	2.4900e+00	2.4100e+00	2.9000e+00	1.0000e+01	2.9800e+00	




#DATA BEGINS
time	group	step	mark	flag	A-AC1	A-AC2	A-AC3	A-AC4	A-AC5	A-AC6	A-AC7	A-AC8	A-AC9	A-AC10	A-AC11	A-AC12	A-AC13	A-AC14	A-AC15	A-AC16	A-DC1	A-DC2	A-DC3	A-DC4	A-DC5	A-DC6	A-DC7	A-DC8	A-DC9	A-DC10	A-DC11	A-DC12	A-DC13	A-DC14	A-DC15	A-DC16	A-Ph1	A-Ph2	A-Ph3	A-Ph4	A-Ph5	A-Ph6	A-Ph7	A-Ph8	A-Ph9	A-Ph10	A-Ph11	A-Ph12	A-Ph13	A-Ph14	A-Ph15	A-Ph16	B-AC1	B-AC2	B-AC3	B-AC4	B-AC5	B-AC6	B-AC7	B-AC8	B-AC9	B-AC10	B-AC11	B-AC12	B-AC13	B-AC14	B-AC15	B-AC16	B-DC1	B-DC2	B-DC3	B-DC4	B-DC5	B-DC6	B-DC7	B-DC8	B-DC9	B-DC10	B-DC11	B-DC12	B-DC13	B-DC14	B-DC15	B-DC16	B-Ph1	B-Ph2	B-Ph3	B-Ph4	B-Ph5	B-Ph6	B-Ph7	B-Ph8	B-Ph9	B-Ph10	B-Ph11	B-Ph12	B-Ph13	B-Ph14	B-Ph15	B-Ph16	aux-1	digaux	

28678.775	1	1	0	256	0.24304	0.25524	0.28542	0.053727	0.20131	0.13066	0.21126	0.21228	0.19918	0.076098	0.16309	0.24267	0.068523	0.14208	0.05757	0.10604	-0.51667	-0.83125	-0.27708	-1.2208	-0.65	-0.625	-1.2042	-0.61042	-1.0979	-1.0812	-0.18125	-1.275	-0.68125	-0.7125	-1.1625	-0.5125	49.871	103.364	-75.325	74.546	143.601	174.948	167.141	130.035	165.489	183.997	260.887	258.006	241.591	248.416	168.228	242.505	0.00017685	0.0010841	0.00033632	973.83	9.7016e-06	2.0773e-05	598.26	374.09	7.8589e-06	1.7861e-05	222.13	99.967	168.07	79.644	5.982e-06	47.494	0.013653	0.02433	0.0069267	1027.5	0.00024645	0.00027867	670.22	393.38	0.00024887	0.00027403	264.73	114.26	178.73	83.592	0.00025524	53.805	-89.370	7.812	-44.544	-80.025	15.916	64.309	-81.969	-74.220	-36.956	69.977	-77.864	-73.718	-69.954	-65.720	74.844	-70.358	-8191	255	
28678.896	1	1	0	0	0.10417	0.20942	0.15817	0.23707	0.15127	0.21639	0.23495	0.209	0.15974	0.2705	0.12273	0.23391	0.38482	0.15659	0.34886	0.26783	-0.4375	-1.025	-0.2875	-1.25	-0.58125	-0.27083	-1.3167	-0.52917	-0.85833	-1.0979	-0.32917	-1.1458	-1.0375	-0.70417	-1.0896	-0.5875	233.089	18.685	238.504	238.937	66.441	-64.313	260.315	196.652	228.007	-7.737	254.581	180.571	173.788	-87.675	-53.171	139.088	0.00022189	0.00022192	0.00034874	973.37	6.5734e-06	3.1616e-05	602.44	373.02	7.5944e-06	3.0913e-06	222.13	101.15	168.66	79.878	9.4293e-06	47.295	0.013741	0.02427	0.0068866	1030.4	0.00024385	0.00027872	675.12	394.42	0.00024854	0.00027294	265.97	115.16	179.32	83.618	0.00025597	53.744	205.011	227.332	-27.146	-80.153	118.646	71.883	-81.825	-74.131	23.790	50.877	-78.068	-73.573	-69.719	-65.453	-39.894	-70.634	-8191	255	
28678.990	1	1	0	0	0.063461	0.16553	0.25758	0.083585	0.18884	0.37817	0.32192	0.35067	0.02822	0.17911	0.15601	0.28166	0.13752	0.31073	0.13517	0.028671	-0.2875	-1.1208	-0.10417	-1.1958	-0.92917	-0.54792	-1.3833	-0.66458	-0.65	-1.2521	-0.32292	-1.0938	-1.0333	-0.75833	-1.2208	-0.50625	131.963	104.420	140.803	201.413	165.608	203.064	195.967	160.494	5.121	25.257	217.185	232.774	265.775	249.608	26.033	69.114	8.9733e-05	0.0004468	0.00056606	968.71	7.3948e-06	7.519e-06	595.57	373.11	8.3761e-06	7.8225e-06	219.85	99.795	167.45	79.662	2.5668e-06	47.206	0.013628	0.024118	0.0068717	1026.4	0.00024339	0.00027362	668.98	392.85	0.00024627	0.00027474	263.86	114.07	178.59	83.35	0.00025581	53.397	103.713	42.184	-7.030	-80.494	6.224	122.963	-82.575	-74.993	-19.611	118.400	-78.754	-74.214	-70.758	-66.237	78.778	-71.587	-8191	255	
28679.090	1	1	0	0	0.14622	0.15265	0.066432	0.33566	0.43148	0.34225	0.29691	0.26366	0.21387	0.12452	0.08886	0.13709	0.17968	0.27804	0.22538	0.10448	-0.14583	-1.1479	-0.28958	-1.3	-1.0729	-0.39375	-1.3646	-0.70208	-0.51667	-1.2604	-0.39167	-0.87083	-1.1979	-0.56458	-1.2687	-1.0146	66.802	-35.862	69.138	206.715	-71.004	95.744	123.072	183.143	23.035	39.395	180.801	-51.215	257.227	253.985	77.330	207.787	8.8353e-05	0.00077179	0.00011479	969.99	9.8262e-06	8.0111e-06	593.32	371.89	1.2027e-05	9.1901e-06	220.24	100.43	167.83	79.798	4.1494e-06	47.26	0.013571	0.024068	0.006888	1025.9	0.00024164	0.00027407	668.13	393.11	0.00024559	0.00027312	264.05	114.35	178.98	83.555	0.00025817	53.623	245.854	-5.375	-22.663	-80.519	61.730	42.445	-82.120	-75.030	163.757	63.740	-78.734	-74.516	-70.595	-66.252	36.178	-71.266	-8191	255	
28679.207	1	1	0	0	0.12812	0.12259	0.22992	0.23733	0.14914	0.1614	0.21208	0.54605	0.074411	0.16935	0.13583	0.22023	0.068998	0.16851	0.29761	0.096775	-0.00625	-1.2167	-0.27708	-0.89792	-1.0917	-0.3375	-1.0479	-0.97292	-0.37292	-1.1354	-0.51875	-0.86875	-1.3062	-0.43542	-0.95208	-0.76667	245.005	253.805	209.598	251.176	27.587	215.746	48.269	189.563	35.941	17.210	15.371	243.117	-83.136	220.804	36.157	206.353	0.00013323	0.0013919	0.00036426	970.94	2.1238e-05	1.1986e-05	595.72	372.37	6.2016e-06	9.4985e-06	222.21	100.97	167.41	80.251	1.374e-05	47.847	0.01347	0.024128	0.0069093	1024.6	0.0002404	0.00027486	668.58	393.24	0.00024393	0.00027168	264.54	114.72	178.7	83.736	0.00025603	53.93	193.315	177.880	-5.346	-80.620	27.669	120.941	-82.545	-74.890	245.187	6.875	-78.644	-74.731	-70.750	-66.536	41.809	-71.279	-8191	255	
28679.279	1	1	0	0	0.14842	0.17407	0.21482	0.32222	0.1036	0.13559	0.27911	0.41459	0.12258	0.26722	0.091571	0.046852	0.080565	0.19372	0.0093271	0.35383	0.091667	-1.1125	-0.36667	-0.69167	-1.2625	-0.325	-1.0479	-1.0208	-0.2125	-1.0938	-0.70417	-0.45	-1.4667	-0.70833	-1.0146	-1.0583	-9.331	224.065	-23.390	-48.868	220.551	179.690	185.253	205.910	-73.960	55.783	248.461	203.977	-70.000	-73.657	181.558	195.194	9.6683e-05	0.00051032	0.00015496	967.8	1.7788e-06	2.2655e-05	595.67	375.11	2.7731e-06	1.2391e-05	222.78	101.63	168.24	79.907	1.9598e-06	47.924	0.013388	0.024094	0.0068838	1021.1	0.00023903	0.00027641	669.52	393.32	0.00024198	0.00027184	266.52	115.36	179.57	83.779	0.000256	54.045	202.820	-85.506	16.618	-80.572	-29.680	12.790	-82.531	-75.069	1.537	49.429	-78.846	-74.511	-70.748	-66.411	187.995	-71.347	-8191	255	
28679.377	1	1	0	0	0.094177	0.23743	0.18447	0.076005	0.27653	0.11915	0.19462	0.2839	0.13838	0.16056	0.088597	0.36564	0.12921	0.26234	0.14907	0.25624	0.0875	-1.1063	-0.43125	-0.5625	-1.1063	-0.3875	-0.91458	-1.3583	-0.30625	-1.1521	-0.86667	-0.475	-1.2771	-0.49375	-0.62917	-0.99792	-38.173	45.958	-74.374	227.583	-42.183	68.024	-31.966	212.433	-23.293	80.345	117.835	-63.811	240.218	239.302	236.576	213.878	0.00018302	0.00022695	0.00032136	969.85	3.8764e-06	2.0633e-05	594.64	372.42	8.5179e-06	2.0318e-05	222.05	101.18	167.74	79.49	7.7489e-06	47.45	0.013456	0.023946	0.0068097	1021.2	0.00023858	0.00027372	666.63	392.83	0.00024318	0.00027299	264.46	114.68	179.4	83.492	0.00025656	53.582	229.120	-54.015	5.416	-80.477	20.564	85.497	-82.709	-74.846	-9.514	92.385	-78.296	-74.315	-70.447	-66.567	164.816	-71.548	-8191	255	
28679.496	1	1	0	0	0.17198	0.33765	0.11839	0.25474	0.24429	0.12314	0.18394	0.3948	0.14355	0.27363	0.17084	0.2143	0.049659	0.24267	0.12597	0.28143	0.15833	-0.80208	-0.72083	-0.49375	-1.3062	-0.5125	-0.44583	-1.4042	-0.35208	-1.0667	-0.86458	-0.34792	-1.4271	-0.77917	-0.46458	-1.0104	153.516	-79.504	109.573	-90.252	229.570	-69.190	65.244	262.091	83.465	162.354	166.696	81.551	192.093	242.746	256.934	103.978	9.3206e-05	0.0011393	0.00016064	956.54	6.7759e-06	1.9375e-06	590.43	373.29	3.5e-06	9.7609e-06	220.8	100.1	166.87	79.622	1.0935e-05	47.615	0.013521	0.024189	0.006822	1016	0.00023756	0.00027431	662.7	392.2	0.00024357	0.00027235	263.19	114.18	178.65	83.393	0.00025396	53.54	243.729	-29.584	57.417	-80.661	178.768	100.165	-82.365	-75.055	260.315	26.846	-79.140	-74.474	-70.706	-66.475	49.425	-71.589	-8191	255	
28679.592	1	1	0	0	0.14088	0.097787	0.099573	0.32472	0.11231	0.11659	0.11572	0.10779	0.12285	0.062047	0.21563	0.25542	0.031391	0.066545	0.17089	0.059477	0.19792	-0.89583	-0.83958	-0.40417	-1.0625	-0.51875	-0.76458	-1.3833	-0.30625	-0.85417	-1.1667	-0.24583	-1.3146	-0.81875	-0.44167	-1.3583	-4.343	-0.521	132.879	231.772	127.131	-54.826	199.219	103.085	59.817	59.533	-84.242	260.606	257.695	75.145	153.304	-25.620	0.00019177	0.00011087	0.00035264	961.96	1.6651e-05	1.1078e-05	588.65	372.21	1.1333e-05	7.0245e-06	218.85	100.62	167.68	79.835	1.1173e-05	47.873	0.013536	0.024136	0.0067859	1016.2	0.00024148	0.00027591	661.79	391.77	0.00024447	0.00027362	263.58	114.55	178.92	83.475	0.00025224	53.858	246.294	-13.626	72.284	-80.819	170.502	-59.777	-82.808	-74.857	-47.262	-10.398	-78.853	-74.340	-70.535	-66.439	-33.043	-71.307	-8191	255	
28679.689	1	1	0	0	0.14194	0.08416	0.089629	0.11107	0.17217	0.13492	0.10649	0.2939	0.17447	0.22516	0.33504	0.31106	0.35538	0.49548	0.15628	0.11378	-0.072917	-0.65625	-1.2313	-0.46458	-1.1208	-0.89167	-0.41458	-1.3583	-0.35208	-0.70208	-1.3125	-0.33333	-1.3229	-1.0438	-0.25417	-1.4333	-82.220	61.054	239.833	213.593	-8.178	193.406	103.921	149.306	152.223	-23.670	-66.496	199.922	-55.339	253.723	205.026	-52.568	1.8221e-05	0.0011417	0.00023305	957.44	3.6729e-06	8.9034e-06	589.93	372.65	1.6035e-05	1.0377e-05	221.89	100.62	167.75	79.972	4.3753e-06	47.735	0.013686	0.023981	0.0067828	1016	0.00024073	0.00027357	661.78	392.27	0.0002441	0.00027203	263.7	114.81	179.18	83.573	0.00025373	53.946	-76.783	-44.313	55.791	-80.646	24.580	-90.382	-82.650	-74.856	187.279	212.647	-78.819	-74.157	-70.719	-66.441	170.067	-71.710	-8191	255	
28679.785	1	1	0	0	0.038611	0.041109	0.11013	0.183	0.38649	0.10508	0.093986	0.46388	0.17329	0.15041	0.1249	0.17732	0.42509	0.097969	0.20018	0.10237	-0.083333	-0.53125	-1.15	-0.13542	-0.91042	-0.93125	-0.28333	-1.3438	-0.45625	-0.48958	-1.325	-0.35833	-1.1417	-1.0333	-0.375	-1.2875	130.452	251.647	125.866	236.298	0.858	133.999	199.044	256.001	-29.471	10.035	187.842	194.221	246.342	-75.331	-44.065	206.683	4.0598e-05	0.00078249	5.6689e-05	960.49	5.7138e-06	1.9822e-05	590.5	370.46	1.1374e-05	2.7382e-06	222.14	100.87	167.63	79.531	5.7952e-06	47.637	0.013574	0.024025	0.0067921	1015.3	0.00024185	0.0002735	663.03	391.61	0.00024544	0.0002711	264.22	114.87	179.2	83.518	0.00025354	53.787	-88.688	32.684	11.970	-80.554	150.818	-4.677	-82.739	-75.072	45.440	258.127	-78.975	-74.538	-70.791	-66.349	68.469	-71.400	-8191	255	
28679.904	1	1	0	0	0.21871	0.31954	0.23051	0.13638	0.22934	0.18145	0.077915	0.086025	0.076196	0.14789	0.016989	0.215	0.20032	0.048178	0.1018	0.059361	-0.16667	-0.52083	-1.2583	-0.4875	-0.89583	-1.0792	-0.3625	-1.4792	-0.74167	-0.43125	-1.2667	-0.44375	-0.925	-1.4354	-0.24167	-1.0938	-58.379	94.734	77.163	204.380	89.841	176.629	175.863	191.882	145.372	-37.248	-7.367	165.099	259.438	-55.145	177.598	2.030	0.00010902	0.00082391	0.00030389	957.1	3.4782e-06	1.5658e-05	582.12	372.74	1.0943e-05	9.7203e-06	218.02	99.639	166.77	79.654	8.538e-06	47.471	0.01361	0.024152	0.0067853	1011.9	0.00024209	0.0002741	657.33	392.2	0.00024494	0.00026982	262.25	114.13	178.53	83.386	0.00025273	53.657	234.098	-21.843	158.155	-80.887	204.485	221.449	-82.765	-75.040	150.248	118.942	-78.842	-74.258	-70.462	-66.533	19.850	-71.470	-8191	255	
28679.977	1	1	0	0	0.075574	0.093258	0.16336	0.49586	0.21972	0.15887	0.38176	0.32457	0.1177	0.18946	0.13323	0.19742	0.44186	0.28448	0.25958	0.13646	-0.45208	-0.22708	-1.2437	-0.61042	-0.56667	-1.2875	-0.43958	-1.15	-0.84167	-0.40417	-1.2313	-0.70625	-0.77708	-1.6375	-0.24792	-1.0458	224.294	115.313	-45.630	260.680	47.040	71.643	197.973	244.906	58.872	75.938	11.311	3.789	249.804	211.253	149.586	217.868	0.00015113	0.00029185	0.00031953	956.89	1.0593e-05	1.5837e-05	579.77	370.52	2.5599e-06	5.2543e-06	220.35	100.23	166.99	79.539	1.1031e-05	47.491	0.013458	0.023895	0.0067939	1009	0.00024015	0.00027152	653.04	390.68	0.00024337	0.00027013	262.04	114.2	178.44	83.29	0.00025326	53.647	204.647	170.969	114.382	-80.549	-4.601	84.750	-82.666	-74.840	-20.264	233.118	-78.776	-74.638	-70.741	-66.452	12.217	-71.353	-8191	255	
28680.070	1	1	0	0	0.078218	0.068636	0.10456	0.21593	0.21127	0.12999	0.18268	0.17908	0.28097	0.076525	0.39919	0.24304	0.17875	0.27393	0.13448	0.18215	-0.53958	-0.3	-1.2042	-0.82708	-0.48958	-1.2437	-0.40625	-1.1125	-0.96667	-0.45208	-1.1417	-0.6625	-0.575	-1.4958	-0.63542	-0.95208	23.131	265.226	-36.962	264.929	23.704	56.546	52.858	174.242	-38.780	133.162	-58.858	-82.420	-82.182	266.609	59.789	-78.729	0.00011779	0.00062531	0.00019421	945.98	2.4978e-06	4.6191e-06	578.47	370.05	6.1547e-06	1.2182e-05	218.7	100.27	167.2	79.595	5.2238e-06	47.893	0.013405	0.023875	0.0068094	1003.6	0.00023972	0.00027007	652.01	390.21	0.00024071	0.00026858	262.72	114.49	178.54	83.348	0.000254	54.129	202.832	226.633	247.069	-80.666	81.958	-49.899	-82.820	-75.026	56.253	47.456	-78.635	-74.227	-70.697	-66.609	222.252	-71.250	-8191	255	
28680.170	1	1	0	0	0.19361	0.065622	0.084323	0.1613	0.26695	0.073975	0.12043	0.505	0.082903	0.062705	0.086998	0.11483	0.1442	0.25635	0.27835	0.17963	-0.58125	-0.175	-0.9	-0.79375	-0.18542	-1.1896	-0.15417	-0.74167	-1.0729	-0.26042	-1.0125	-0.86458	-0.42083	-1.35	-0.3875	-0.83125	-80.964	51.319	-56.746	-69.217	-50.893	170.672	22.357	180.586	-29.961	261.829	183.298	61.469	184.400	168.664	168.519	-15.707	0.00017478	0.00030326	0.00037879	949.62	1.3946e-05	7.0026e-06	582.22	370.12	4.9831e-06	1.415e-05	223.18	101.31	168.12	79.833	2.7306e-06	48.191	0.013241	0.023765	0.0067734	1003.8	0.00023772	0.00027098	655.53	390.07	0.00024012	0.00026977	263.89	115.03	178.82	83.68	0.00025431	54.2	151.592	219.651	233.727	-80.754	69.826	203.743	-82.465	-74.978	105.646	248.624	-78.860	-74.277	-70.620	-66.236	112.258	-71.168	-8191	255	
28680.287	1	1	0	0	0.17493	0.11834	0.10692	0.12689	0.13161	0.17731	0.4756	0.10411	0.15588	0.13146	0.11453	0.071286	0.22054	0.24722	0.1494	0.099514	-0.62917	-0.17292	-0.85	-1.0708	-0.37292	-1.05	-0.5	-0.70417	-1.0938	-0.31458	-0.87292	-1.075	-0.27917	-1.2354	-0.56875	-0.58333	29.476	91.950	240.392	-45.406	-78.885	141.506	244.211	159.265	-64.126	146.642	258.068	-72.816	222.897	231.813	-6.088	-55.337	0.00015057	0.0012481	0.00042056	946.7	6.9296e-06	4.07e-06	578.97	370.77	7.0597e-06	1.2147e-05	220.27	100.95	167.69	79.851	1.1581e-05	47.571	0.01337	0.023951	0.0068294	1003.6	0.00023716	0.0002728	652.57	389.67	0.00024152	0.00027024	262.91	114.38	178.12	83.335	0.00025369	53.669	227.126	-33.509	43.268	-80.685	-4.868	-47.025	-82.511	-74.940	-27.283	76.287	-78.921	-74.543	-70.552	-66.239	-83.232	-71.303	-8191	255	
28680.385	1	1	0	0	0.23534	0.058737	0.24046	0.17808	0.23392	0.2089	0.038904	0.0077578	0.066791	0.082942	0.25581	0.1085	0.18206	0.3593	0.19093	0.06826	-0.78542	-0.32292	-0.67708	-1.125	-0.42292	-1.0604	-0.75	-0.50417	-1.1812	-0.42708	-0.80208	-1.0604	-0.26875	-1.1583	-0.69792	-0.48333	14.647	-56.587	-53.015	160.540	-82.910	220.981	77.909	-81.062	136.597	92.337	-26.878	-49.166	189.510	-69.720	60.366	197.812	0.00010702	0.0019683	0.00042815	948.7	1.3822e-05	8.2357e-06	578.3	368.92	1.7389e-06	1.0685e-05	219	100.24	167.2	79.37	3.6614e-06	47.87	0.013438	0.02402	0.0067566	999.74	0.00023855	0.0002738	649.16	388.78	0.00024076	0.00027115	261.18	114.13	178.25	83.217	0.00025291	53.814	166.853	13.595	24.081	-80.677	43.107	121.144	-82.487	-74.800	61.140	226.373	-78.509	-74.648	-70.452	-66.250	252.880	-71.314	-8191	255	
28680.480	1	1	0	0	0.15337	0.086997	0.16211	0.38402	0.23681	0.37711	0.31998	0.29977	0.14335	0.068939	0.20991	0.045556	0.029012	0.26447	0.41488	0.18344	-0.86458	-0.40625	-0.69375	-1.05	-0.31042	-0.98125	-0.91458	-0.55625	-0.9375	-0.43125	-0.56875	-1.2062	-0.25208	-1.1208	-0.99375	-0.4125	45.089	232.774	-78.934	-79.694	202.936	229.899	198.879	198.818	119.087	-55.726	3.256	184.961	-46.787	-60.213	212.925	-43.243	0.0002343	0.00064707	0.00062011	945.85	1.6098e-06	7.2083e-06	572.9	370.22	1.3683e-05	1.5586e-05	219.29	100.88	167.93	79.881	8.0647e-06	48.1	0.013399	0.02398	0.0067598	1001.1	0.00023911	0.00027375	648.61	388.88	0.00024282	0.00027201	262.51	114.66	178.77	83.547	0.00025179	54.112	198.630	66.660	-66.672	-80.646	250.321	-3.714	-82.685	-74.916	80.664	73.619	-78.337	-74.582	-70.611	-66.220	156.303	-71.135	-8191	255	
28680.576	1	1	0	0	0.17036	0.15968	0.21771	0.27179	0.33209	0.030617	0.39258	0.38298	0.094289	0.17588	0.18231	0.23251	0.33719	0.31912	0.12014	0.24298	-0.65625	-0.575	-0.4625	-1.2479	-0.33333	-0.90208	-1.0542	-0.37083	-1.2604	-0.45417	-0.3375	-1.2333	-0.44167	-0.925	-0.91042	-0.3125	-13.879	50.093	152.586	-53.692	-71.880	220.759	194.900	235.881	30.962	26.120	172.433	159.062	-80.183	256.032	-31.098	184.932	0.00025605	0.0015118	0.00060081	945.13	9.238e-06	1.6724e-05	573.38	371.04	9.7074e-06	3.5649e-06	221.01	101.45	168.33	79.964	5.8358e-06	48.521	0.013544	0.024011	0.0067759	1001.1	0.00024041	0.00027396	649.87	390.05	0.00024404	0.0002734	263.11	115.33	179.18	83.849	0.00025298	54.588	218.729	-13.751	63.610	-80.890	-31.363	93.496	-82.530	-75.010	9.491	92.494	-78.297	-74.210	-70.707	-66.150	120.621	-71.550	-8191	255	
28680.674	1	1	0	0	0.16326	0.11693	0.18382	0.1848	0.24604	0.10005	0.22776	0.21346	0.20578	0.10506	0.097781	0.044875	0.3801	0.24087	0.21022	0.36779	-0.66042	-0.625	-0.31667	-1.3979	-0.20833	-0.79792	-1.2292	-0.50625	-1.0646	-0.88333	-0.55833	-1.2542	-0.59375	-0.78542	-1.2083	-0.32083	-77.118	176.176	158.701	264.483	209.796	-90.725	-64.750	232.011	161.934	129.989	226.813	21.901	233.789	-60.707	63.840	230.977	0.00019196	0.0013395	0.00026523	947.44	5.1408e-06	4.253e-06	577.72	369.6	1.2342e-06	6.059e-06	223.16	102.01	168.51	79.668	4.5149e-06	48.38	0.013609	0.024138	0.0067976	1001	0.00024046	0.00027501	651.33	389.47	0.00024378	0.00027205	263.88	115.78	179.48	83.812	0.00025424	54.611	178.663	-77.694	-11.887	-80.434	51.150	53.390	-82.450	-74.925	259.937	76.767	-78.600	-73.633	-70.674	-66.240	105.943	-71.371	-8191	255	
28680.770	1	1	0	0	0.16273	0.092367	0.25418	0.40082	0.079237	0.10345	0.19979	0.16013	0.15468	0.37427	0.216	0.099221	0.34412	0.24372	0.20392	0.070075	-0.67708	-0.76042	-0.21042	-1.3896	-0.45	-0.65625	-1.6375	-0.29583	-0.85208	-0.89167	-0.2625	-1.2354	-0.93542	-0.68958	-1.2188	-0.51667	53.061	69.118	-18.862	202.050	99.228	250.947	62.488	169.897	219.352	-45.674	217.474	209.344	241.903	-85.058	134.914	239.942	0.0001446	0.00049193	0.00051281	945.22	4.9905e-06	1.9326e-05	578.62	369.42	6.3817e-06	1.3625e-05	218.71	101.02	167.35	80.002	1.1836e-05	48.564	0.01352	0.023978	0.0068143	999.68	0.00024131	0.00027139	651.04	389.94	0.00024325	0.00027222	262	115.08	178.58	83.623	0.00025249	54.562	248.248	94.684	6.050	-80.497	114.417	148.512	-82.601	-74.768	45.502	59.944	-78.369	-74.269	-70.608	-66.206	19.536	-71.469	-8191	255	
28680.891	1	1	0	0	0.15397	0.26007	0.14317	0.10784	0.088331	0.43839	0.22445	0.11268	0.081055	0.16545	0.24825	0.27405	0.36062	0.18793	0.11776	0.25173	-0.6	-1.0729	-0.16875	-1.2667	-0.65833	-0.48125	-1.2542	-0.3375	-0.84792	-1.0271	-0.25625	-1.1625	-0.87708	-0.67917	-1.1604	-0.52083	94.575	159.326	-41.321	93.740	152.719	34.791	226.665	260.091	111.808	202.877	-52.291	255.561	258.302	-53.745	194.044	246.879	0.00012881	0.0007979	0.0004025	956.21	9.0359e-06	5.3094e-06	581.8	372.05	5.3907e-06	1.2051e-05	219.64	101.7	166.71	79.948	1.1007e-05	48.626	0.013539	0.024026	0.0067705	1006.1	0.00024006	0.00027212	654.69	390.71	0.00024327	0.00027108	262.91	115.47	178.59	83.757	0.00025208	54.772	161.429	214.233	-62.791	-80.478	119.589	208.202	-82.934	-74.705	152.102	21.926	-78.291	-74.271	-70.287	-66.457	219.238	-70.967	-8191	255	
28680.984	1	1	0	0	0.30836	0.21222	0.16806	0.18098	0.14967	0.3092	0.18653	0.30051	0.19256	0.27421	0.06112	0.25077	0.096302	0.05717	0.080201	0.33276	-0.27083	-1.1354	-0.23542	-1.2375	-0.73333	-0.375	-1.3125	-0.67917	-0.5	-1.1833	-0.19583	-0.88125	-0.97917	-0.50625	-1.0792	-0.58125	-62.998	170.775	3.065	181.062	249.738	-51.073	233.846	158.360	-64.550	-89.637	217.941	-44.056	-61.289	-50.003	162.054	208.956	9.8469e-05	0.0020522	0.00041754	959.94	3.9263e-06	1.3689e-05	591.88	372.46	7.8935e-06	1.6086e-05	222.9	102.1	168.18	80.22	7.3289e-06	49.064	0.013504	0.023746	0.0067505	1014.4	0.00023991	0.00027046	665.69	391.43	0.00024194	0.0002689	265.27	116.34	179.19	83.943	0.00025521	55.255	140.182	-65.594	-56.150	-80.661	120.950	-48.013	-82.461	-74.742	128.699	143.630	-78.745	-73.933	-70.407	-66.014	16.446	-71.251	-8191	255	
28681.080	1	1	0	0	0.19697	0.15707	0.06125	0.19484	0.135	0.064295	0.027569	0.15811	0.19477	0.38776	0.2087	0.13202	0.1159	0.18867	0.13177	0.32427	-0.0125	-1.1083	-0.28542	-0.9625	-0.98542	-0.19375	-1.2563	-0.65625	-0.47292	-1.1292	-0.2875	-0.79375	-1.0292	-0.40417	-1.0583	-0.77292	-25.637	-90.042	171.612	242.231	79.222	236.051	127.234	255.612	199.677	-82.402	-70.182	176.158	-69.938	196.457	163.305	246.408	0.00014925	0.0011032	0.00013678	974.59	5.3858e-06	1.8835e-05	606.25	374.59	4.4899e-06	1.0255e-05	226.5	103.75	169.13	80.692	1.8396e-06	50.128	0.013478	0.023808	0.0068601	1026.9	0.00023964	0.00027273	679.33	394.7	0.00024418	0.00027164	269.49	117.31	180.07	84.372	0.00025626	56.079	213.242	33.570	-51.332	-80.415	206.413	144.417	-82.231	-74.931	-83.773	185.877	-78.509	-73.743	-70.511	-66.199	135.099	-71.082	-8191	255	
28681.176	1	1	0	0	0.39771	0.29754	0.22436	0.17771	0.055535	0.10637	0.23399	0.24073	0.2261	0.35121	0.12243	0.2623	0.21485	0.36793	0.29732	0.24184	-0.10625	-1.1021	-0.21042	-0.97708	-1.1208	-0.31875	-1.1562	-0.82917	-0.2125	-1.2042	-0.47917	-0.625	-1.1104	-0.54583	-0.79792	-0.82708	-27.810	37.813	125.234	255.599	-16.096	-68.797	-81.082	266.987	123.146	-59.468	231.298	243.643	260.145	230.543	-70.835	199.199	0.00015477	0.00076796	0.00023707	985.11	1.9309e-06	1.2133e-05	614.15	377.24	2.2802e-06	5.7288e-06	226.54	103.08	169.44	80.292	2.3536e-06	49.496	0.013425	0.024058	0.0069109	1036.9	0.00023929	0.00027518	685.38	396.68	0.00024415	0.00027449	269.76	117.9	180.25	84.476	0.00025713	55.849	197.238	-16.397	-22.595	-80.492	116.521	75.172	-82.551	-74.966	87.164	148.779	-78.669	-74.365	-70.576	-66.182	98.103	-71.643	-8191	255	
28681.271	1	1	0	0	0.16784	0.10863	0.15687	0.15873	0.15393	0.13074	0.191	0.35848	0.17919	0.21256	0.024322	0.22189	0.14231	0.21119	0.32949	0.25679	0.12708	-1.1833	-0.325	-0.50833	-1.3062	-0.17292	-1.0417	-0.9875	-0.33333	-1.2042	-0.62292	-0.67083	-1.275	-0.33958	-0.86458	-0.99792	241.885	1.562	-79.435	-83.669	57.030	140.079	231.091	250.044	88.997	11.207	263.049	244.642	-43.441	254.803	253.010	182.283	0.00019297	0.0012251	0.00041556	987.4	4.2906e-06	5.1975e-06	615.84	376.1	1.2479e-05	1.9506e-05	228.93	104.14	169.59	80.841	6.0119e-06	50.161	0.013669	0.024258	0.0069393	1040	0.00024402	0.00027982	689.49	396.72	0.00024654	0.00027554	271.77	118.38	181.08	84.818	0.00025928	56.202	264.229	-69.695	-8.960	-80.520	227.749	126.377	-82.166	-74.838	66.808	149.983	-78.675	-74.147	-70.480	-66.248	-51.263	-71.457	-8191	255	
28681.369	1	1	0	0	0.33869	0.2082	0.091989	0.38968	0.059516	0.18801	0.15212	0.1323	0.068921	0.17014	0.1765	0.23387	0.22966	0.63528	0.087334	0.18227	0.0375	-1.0312	-0.4	-0.58542	-1.2458	-0.39375	-1.0458	-1.1146	-0.28125	-0.975	-0.71042	-0.53542	-1.3625	-0.72917	-1.0917	-1.0375	47.601	-13.406	52.377	213.741	138.965	42.521	-46.863	236.058	25.878	8.289	7.684	40.757	-24.517	254.317	229.700	127.636	0.0001962	0.00085154	0.00019351	983.84	4.6961e-06	4.5727e-06	616.87	379.12	7.2345e-06	1.5211e-05	228.66	105.06	170.24	81.535	1.942e-06	50.745	0.013752	0.02452	0.007	1042.2	0.00024368	0.00028096	691.71	399.11	0.00024793	0.00027813	273.59	119.13	181.74	85.344	0.00026052	56.681	213.259	-65.389	56.375	-80.653	50.342	78.409	-82.477	-75.059	68.325	-55.937	-78.136	-74.163	-70.359	-66.243	-0.565	-71.024	-8191	255	
28681.465	1	1	0	0	0.043097	0.26873	0.11547	0.1683	0.095176	0.2191	0.04985	0.43858	0.15066	0.13309	0.096504	0.33441	0.068306	0.11647	0.12565	0.21703	0.0875	-1.1167	-0.77708	-0.50833	-1.1917	-0.48542	-0.81458	-1.3604	-0.34375	-1.0562	-0.71458	-0.41875	-1.2417	-0.88333	-0.44583	-1.25	124.406	65.474	255.447	161.951	161.499	-26.350	52.423	154.149	248.622	211.659	163.968	241.721	-81.272	101.569	196.775	172.625	9.6768e-05	0.0010821	6.0778e-05	988.98	1.914e-05	1.0663e-05	626.64	379.84	3.4447e-06	5.7893e-06	231.58	106.1	170.92	81.397	4.0694e-06	50.987	0.013868	0.024709	0.0070063	1045.6	0.00024703	0.00028466	699.13	400.43	0.00025198	0.00028178	275.8	120.59	182.36	85.456	0.00026244	57.217	172.963	24.584	13.888	-80.519	10.164	262.367	-82.446	-74.844	119.043	128.813	-78.810	-74.014	-70.584	-66.392	-65.490	-70.957	-8191	255	
28681.586	1	1	0	0	0.12726	0.21977	0.075723	0.24436	0.24532	0.23862	0.1491	0.24922	0.23253	0.19086	0.0698	0.17177	0.31013	0.25618	0.1329	0.087896	0.014583	-1.0854	-0.93333	-0.41667	-1.1583	-0.71042	-0.48542	-1.5042	-0.18333	-0.99583	-0.98958	-0.19792	-1.2646	-0.80625	-0.32917	-1.4688	111.149	-30.473	-8.848	-89.057	13.725	-50.995	232.127	-89.389	263.760	92.944	122.625	-83.537	256.511	213.842	-32.009	179.283	0.00014566	0.0010492	0.00041485	995.78	4.7147e-06	7.7883e-06	629.93	380.7	3.949e-06	5.1192e-06	232.93	106.35	171.52	81.821	9.0177e-06	50.814	0.014074	0.024889	0.0070116	1052.4	0.00025015	0.00028451	706.23	402.73	0.00025521	0.00028286	278.01	120.98	183.37	85.678	0.00026493	57.241	160.868	28.882	58.593	-80.694	-11.352	266.541	-82.481	-74.787	109.739	69.733	-78.773	-74.015	-70.839	-66.504	140.386	-71.153	-8191	255	
28681.682	1	1	0	0	0.081815	0.030218	0.10635	0.22187	0.21499	0.079156	0.20497	0.28603	0.095879	0.080526	0.22717	0.29093	0.19989	0.34673	0.22735	0.20668	0.0125	-0.86458	-1.2479	-0.44375	-1.1313	-0.65208	-0.52083	-1.3854	-0.60833	-0.78125	-1.2104	-0.21458	-1.2229	-0.96042	-0.27083	-1.2313	211.201	198.081	12.692	-17.976	-12.391	33.109	252.703	214.223	126.118	239.856	-28.251	125.974	214.848	-71.752	-5.428	166.298	0.00010378	0.0013405	0.00040291	998.05	5.3695e-06	1.1591e-05	624.5	380.55	4.0717e-06	5.5601e-06	232.92	105.92	172.15	81.718	4.103e-06	50.924	0.01419	0.025015	0.0070738	1053.5	0.00025215	0.00028537	699.1	401.75	0.00025619	0.00028452	276.42	120.34	183.26	85.638	0.00026601	57.23	198.258	0.590	-32.954	-80.494	196.976	73.832	-82.194	-74.697	47.615	-48.555	-78.631	-74.340	-70.395	-66.363	-30.207	-71.277	-8191	255	
28681.777	1	1	0	0	0.12511	0.18743	0.086273	0.17402	0.096837	0.075059	0.042188	0.44108	0.39058	0.25078	0.16302	0.1054	0.1398	0.059074	0.035072	0.29559	0.1	-0.51042	-1.0792	-0.47708	-0.91458	-1.1313	-0.60208	-1.4312	-0.63333	-0.58125	-1.3188	-0.47292	-1.0208	-1.2979	-0.40208	-1.2729	-60.425	-5.559	-70.199	178.739	62.244	163.570	97.438	-77.018	-39.998	39.545	153.315	260.789	225.601	218.109	81.399	17.438	0.00024551	0.00039135	0.00047585	1000.2	5.182e-06	5.1816e-06	621.83	382.62	7.4415e-06	1.3638e-05	229.69	106.25	170.75	81.628	4.4784e-06	50.806	0.01427	0.025342	0.0071843	1055.5	0.00025509	0.00028788	701.95	402.96	0.00025573	0.00028637	276.84	120.78	183.01	85.604	0.00026737	57.543	195.534	-64.615	-46.740	-80.440	-58.447	79.650	-82.477	-74.843	6.239	93.833	-78.203	-74.239	-70.348	-66.387	253.344	-71.352	-8191	255	
28681.850	1	1	0	0	0.090984	0.07774	0.1056	0.15247	0.10724	0.071229	0.26378	0.28376	0.1739	0.19598	0.10698	0.21075	0.18496	0.33937	0.36347	0.19884	-0.28125	-0.48958	-1.1812	-0.6125	-0.85	-0.92083	-0.37292	-1.2625	-0.475	-0.5625	-1.3375	-0.45833	-1.0667	-1.3312	-0.30625	-1.2146	129.691	6.038	188.013	223.270	107.843	80.279	233.905	222.921	-47.811	24.777	-16.211	-4.527	-85.052	258.307	36.651	-38.864	0.00020015	0.00078658	0.00033379	1001.7	8.8352e-06	5.6197e-06	624.68	382.49	6.7054e-06	1.6819e-05	231.95	106.29	171.73	82.02	1.1217e-05	51.246	0.014323	0.025344	0.0072065	1055.7	0.00025387	0.00028929	705.37	403.16	0.00025816	0.00028812	278.48	121.17	183.7	85.833	0.00026871	57.854	252.965	-17.499	196.656	-80.499	162.709	45.900	-82.567	-74.526	49.802	122.206	-78.249	-74.334	-70.545	-66.308	120.266	-71.010	-8191	255	
28681.969	1	1	0	0	0.089026	0.12465	0.11278	0.07854	0.28562	0.15623	0.13233	0.40923	0.11084	0.14539	0.083565	0.14405	0.17973	0.22175	0.18294	0.15114	-0.36042	-0.5625	-0.99167	-0.55833	-0.80625	-1.0271	-0.39375	-1.3854	-0.92917	-0.31042	-1.425	-0.52917	-0.69375	-1.5875	-0.26042	-1.1083	102.602	164.314	109.478	-53.248	23.411	154.121	218.500	181.882	37.670	19.726	204.932	154.823	234.615	206.051	163.316	198.484	0.00017793	0.00083335	0.00044985	993.75	5.7612e-06	1.8065e-05	624.48	381.04	2.4226e-06	6.4632e-06	235.13	106.55	170.84	82.114	1.8099e-05	51.494	0.014265	0.02534	0.0071702	1054.9	0.000252	0.00028909	705.16	402.31	0.00025639	0.00028755	279.62	121.58	183.16	85.899	0.0002679	57.873	244.660	-66.429	141.756	-80.385	51.125	138.912	-82.427	-74.758	156.801	153.203	-78.021	-74.295	-70.273	-66.398	49.061	-71.014	-8191	255	
28682.064	1	1	0	0	0.21253	0.14991	0.12285	0.15742	0.23194	0.13288	0.14494	0.41652	0.27341	0.28013	0.084076	0.14924	0.32789	0.28595	0.10045	0.057442	-0.5125	-0.36667	-1.225	-0.54792	-0.59792	-1.3771	-0.44583	-1.2292	-0.90625	-0.49167	-1.2437	-0.875	-0.77917	-1.5792	-0.45833	-0.91458	16.238	-13.840	207.387	66.510	128.560	-58.975	235.762	210.884	28.967	158.277	-78.268	179.810	-82.736	-42.754	232.828	203.886	0.00018737	0.0010679	0.00026262	994.38	1.0304e-05	1.8503e-05	625.7	380.9	3.2231e-06	1.3354e-05	230.75	105.15	170.69	81.106	2.1419e-06	50.603	0.014107	0.02528	0.0071648	1053.8	0.00025164	0.00028631	704.67	402.17	0.00025498	0.00028596	277.22	120.34	182.42	85.153	0.00026906	57.036	248.306	-8.260	-34.975	-80.551	107.519	87.026	-82.683	-74.871	265.476	91.946	-78.489	-74.291	-70.462	-66.258	52.357	-70.722	-8191	255	
28682.160	1	1	0	0	0.12758	0.09599	0.082528	0.22241	0.22091	0.092422	0.36945	0.028492	0.11734	0.15854	0.11582	0.15168	0.30587	0.20776	0.33109	0.1573	-0.70417	-0.21458	-1.1083	-0.74167	-0.37083	-1.2062	-0.43125	-0.98333	-1.1396	-0.375	-0.99375	-0.83958	-0.43542	-1.6042	-0.62917	-0.8375	132.922	185.796	199.013	176.412	81.713	117.542	177.301	103.728	189.086	66.561	233.825	255.377	221.062	257.198	105.432	236.323	0.00011277	0.0016819	0.00068537	991.73	1.0131e-05	1.4152e-05	619.54	379.41	1.1727e-05	8.3801e-06	229.58	105.14	169.86	80.967	7.7537e-06	50.757	0.014106	0.025241	0.0072127	1050.1	0.00025252	0.00028839	699.73	399.98	0.00025576	0.00028531	275.36	119.6	181.9	84.998	0.00026696	57.011	209.670	-61.028	-40.799	-80.538	67.150	47.701	-82.633	-74.593	14.669	113.829	-78.216	-74.406	-70.533	-66.118	224.448	-71.026	-8191	255	
28682.258	1	1	0	0	0.20008	0.027518	0.093821	0.11487	0.18224	0.15026	0.040241	0.24822	0.35247	0.095419	0.3184	0.051614	0.22117	0.094603	0.0902	0.22979	-0.85833	-0.36042	-1.2062	-0.90208	-0.36458	-1.4417	-0.51042	-0.7875	-1.3417	-0.36875	-1.2563	-1.1396	-0.46875	-1.2083	-0.55833	-0.67708	82.001	-14.106	143.118	142.196	-29.046	201.093	125.571	218.489	-75.409	258.961	233.012	234.021	234.117	-80.043	112.601	210.358	0.00021769	0.0020031	0.00012457	991.1	1.4309e-05	4.6481e-06	623.7	379.21	1.2476e-05	1.0897e-05	230.99	105.89	170.08	81.094	1.4814e-05	51.007	0.014122	0.02537	0.007166	1048.6	0.00025069	0.00028865	700.84	399.26	0.00025457	0.00028408	275.49	119.81	181.44	84.971	0.00026675	57.214	201.095	-8.528	-42.583	-80.578	42.444	-92.168	-82.847	-74.642	112.079	-15.995	-78.956	-74.394	-70.467	-66.124	34.004	-71.253	-8191	255	
28682.377	1	1	0	0	0.18108	0.25437	0.11711	0.17578	0.11087	0.1638	0.12228	0.042256	0.29329	0.025208	0.09365	0.14978	0.10375	0.31474	0.18837	0.15648	-1.0708	-0.47292	-0.68333	-1.1667	-0.47917	-1.1458	-0.57917	-0.625	-1.1958	-0.44792	-1.0146	-1.125	-0.575	-1.5208	-0.88958	-0.49375	115.638	150.723	54.750	213.280	-59.816	104.330	36.062	255.601	137.037	212.930	97.043	227.508	-57.351	213.474	155.903	72.627	0.00027422	0.0017363	0.00051674	992.06	9.12e-06	9.8722e-06	625.55	377.42	7.7957e-06	8.7776e-06	231.2	107.01	170.46	81.373	1.4926e-06	50.851	0.014048	0.025247	0.0071099	1050.6	0.00025027	0.00028481	702.74	398.75	0.00025323	0.00028428	276.7	120.56	181.58	85.154	0.00026493	57.278	200.493	113.830	24.584	-80.510	4.530	-62.072	-82.247	-74.717	9.197	104.240	-78.181	-74.177	-70.380	-66.254	64.064	-71.032	-8191	255	
28682.449	1	1	0	0	0.022952	0.068753	0.10486	0.23476	0.3174	0.29811	0.14136	0.21137	0.087294	0.18338	0.15227	0.42154	0.37678	0.29268	0.24676	0.092465	-0.84792	-0.26458	-0.66667	-1.2292	-0.23125	-1.1167	-0.78958	-0.56042	-1.3979	-0.58958	-0.8125	-1.2938	-0.50625	-1.2646	-0.8125	-0.46042	185.064	114.301	-65.439	228.980	101.431	-8.073	158.499	214.633	217.289	221.063	-91.680	-22.930	227.372	205.865	-47.919	75.304	0.00022725	0.0010175	0.00039653	998.39	9.313e-06	4.3224e-06	633.63	378.25	6.0514e-06	5.602e-06	231.43	106.19	170.38	80.82	3.8504e-06	50.794	0.013997	0.025011	0.0070528	1053	0.00025026	0.00028414	706.88	399.88	0.00025354	0.00028347	277.18	120.27	181.58	84.865	0.00026085	57.02	211.417	17.338	25.814	-80.765	57.380	57.849	-82.679	-74.725	28.229	70.450	-78.130	-74.298	-70.477	-66.152	-26.803	-71.369	-8191	255	
28682.570	1	1	0	0	0.34684	0.13117	0.43381	0.22655	0.27871	0.15401	0.021146	0.20879	0.032138	0.17294	0.095376	0.14946	0.23715	0.27167	0.19192	0.12491	-0.85417	-0.55208	-0.375	-1.2333	-0.26458	-0.90417	-1.3062	-0.49167	-1.0812	-0.64375	-0.34583	-1.3625	-0.54167	-1.1375	-1.1542	-0.47917	64.075	1.244	203.537	223.815	-50.927	-78.965	154.453	185.450	134.678	-25.753	-82.231	195.803	255.934	227.629	-59.242	95.270	7.2707e-05	0.00011084	6.968e-05	987.47	5.1331e-06	1.0176e-05	622.75	377.11	4.2402e-06	4.97e-06	230.51	104.19	168.41	80.396	2.2818e-06	50.035	0.013921	0.02487	0.0070167	1047.3	0.00024864	0.00028269	698.64	397.33	0.00025028	0.00027994	273.74	118.51	179.7	84.15	0.00026065	56.47	167.417	-37.605	-77.261	-80.410	16.938	-24.040	-82.591	-74.641	71.995	50.161	-78.241	-74.316	-70.496	-66.013	-21.389	-71.069	-8191	255	
28682.666	1	1	0	0	0.036283	0.058705	0.17135	0.26727	0.22404	0.10783	0.029959	0.60177	0.16606	0.14397	0.14955	0.14584	0.12501	0.19603	0.0929	0.20876	-0.72917	-0.46458	-0.30208	-1.4479	-0.43125	-0.91042	-1.0938	-0.21042	-1.025	-0.74583	-0.48333	-1.4625	-0.60833	-0.93125	-1.1063	-0.45417	238.229	53.611	137.373	225.550	236.872	-5.500	235.750	218.361	120.966	223.995	-66.532	189.173	133.822	-6.954	-4.707	188.458	0.00024799	0.0012805	0.00016274	990	1.2869e-05	8.0345e-06	621.33	376.08	1.8102e-06	5.8532e-06	228.61	104.53	167.77	80.297	3.4418e-06	50.392	0.013844	0.024699	0.0069685	1045.5	0.0002466	0.00027991	698.69	396.65	0.00024808	0.00027839	272.48	118.77	179.41	84.029	0.00026091	56.649	237.454	211.135	85.258	-80.541	17.669	-28.954	-82.509	-74.770	180.690	-52.583	-77.942	-73.927	-70.535	-66.166	-40.842	-71.008	-8191	255	
28682.762	1	1	0	0	0.11141	0.061459	0.17782	0.034442	0.20273	0.10272	0.17574	0.13234	0.20477	0.24913	0.075586	0.29826	0.085494	0.27288	0.18611	0.047048	-0.82083	-0.82708	-0.24583	-1.4667	-0.51667	-0.79375	-1.1667	-0.50625	-0.92708	-0.95208	-0.62292	-1.1229	-0.575	-0.75625	-1.2229	-0.47083	-3.065	-1.389	-76.577	190.305	213.925	-58.444	-78.711	266.126	175.843	180.585	-30.674	222.521	14.213	-85.683	-57.457	-76.525	0.00027988	0.00066772	0.00027851	996.96	6.8337e-06	2.3337e-05	632.29	376.56	4.1232e-06	1.3851e-05	228.71	105.18	167.61	80.132	6.6786e-06	50.831	0.013835	0.024591	0.0069678	1051.7	0.00024624	0.00027929	703.65	396.54	0.00024898	0.00027773	273.65	119.35	179.46	84.171	0.00025722	56.945	243.840	-63.073	76.812	-80.528	-15.645	68.840	-82.877	-75.740	69.593	160.367	-79.562	-74.873	-71.304	-67.271	88.456	-72.248	-8191	255	
28682.857	1	1	0	0	0.16148	0.16466	0.08566	0.10757	0.18211	0.21514	0.10609	0.15088	0.20686	0.24114	0.031285	0.24582	0.34188	0.16027	0.19949	0.15358	-0.7	-0.85	-0.33542	-1.1708	-0.54167	-0.43542	-1.3271	-0.52083	-0.89375	-1.0979	-0.40208	-1.1792	-0.975	-0.58958	-1.2313	-0.49167	40.655	6.896	155.061	174.117	61.900	8.195	201.676	-71.547	75.481	15.907	9.208	251.696	236.021	209.752	10.827	181.141	0.00010447	0.0013595	0.00013847	994.51	1.101e-05	9.5045e-06	632.33	375.14	3.4642e-06	8.601e-06	231.68	105.05	167.86	80.231	5.3719e-06	50.697	0.013756	0.024391	0.0068892	1053.1	0.00024397	0.00027659	704.77	396.17	0.00024647	0.00027491	275.4	119.46	179.42	84.015	0.00025825	57.02	187.482	2.971	255.992	-81.238	51.419	55.565	-82.997	-75.793	248.423	162.998	-79.295	-75.138	-71.361	-67.099	208.290	-71.817	-8191	255	
28682.979	1	1	0	0	0.066193	0.2997	0.23897	0.18315	0.22724	0.20987	0.046573	0.30709	0.10176	0.1382	0.06965	0.19209	0.20976	0.31382	0.16246	0.10255	-0.30833	-1.0333	-0.09375	-1.2375	-0.74792	-0.4375	-1.4167	-0.57708	-0.86042	-1.2	-0.32292	-0.98958	-1.025	-0.22083	-1.15	-0.58125	234.848	169.083	-42.755	-38.438	135.236	252.750	7.378	219.527	36.150	133.706	146.142	214.044	249.480	-83.254	16.291	183.461	9.3272e-05	0.0014687	0.00021735	999.81	9.7233e-06	1.7842e-05	635.44	375.28	7.4362e-06	7.7394e-06	230.56	104.56	167.36	79.932	6.4352e-06	50.168	0.013596	0.024263	0.0069116	1052.1	0.0002419	0.00027724	705.72	396.19	0.00024439	0.00027293	274.1	118.81	178.73	83.771	0.0002574	56.616	225.110	-4.387	-13.112	-81.537	95.692	22.143	-83.847	-75.799	96.832	122.767	-79.322	-74.677	-71.444	-67.058	192.593	-71.602	-8191	255	
28683.072	1	1	0	0	0.091287	0.17304	0.20618	0.21836	0.32337	0.18091	0.26353	0.46329	0.15546	0.1926	0.027406	0.10145	0.22666	0.30891	0.24965	0.31371	-0.14375	-1.3167	-0.28125	-1.0375	-1.0771	-0.35417	-1.3396	-0.57917	-0.40208	-1.1833	-0.3	-0.99792	-1.0917	-0.63333	-1.2667	-0.73125	71.122	-5.970	175.927	-3.635	64.796	164.240	242.956	243.851	195.110	16.854	36.329	84.772	-89.395	264.291	96.396	218.132	0.00016996	0.00086288	0.0001584	998.29	1.0151e-05	7.3391e-06	629.36	374.99	9.2047e-06	6.8506e-06	229.82	104.6	167.59	79.533	3.9082e-06	50.613	0.013575	0.02427	0.0068701	1051.4	0.00024359	0.00027585	702.42	395.34	0.00024665	0.00027552	273.09	118.8	179.02	83.528	0.0002572	56.634	232.538	-63.670	-27.334	-81.511	-44.636	17.178	-83.218	-75.731	88.927	11.274	-79.340	-75.044	-71.528	-66.999	-8.148	-71.911	-8191	255	
28683.145	1	1	0	0	0.19491	0.1327	0.17847	0.23096	0.16099	0.18325	0.34775	0.23379	0.089392	0.10121	0.094536	0.15242	0.091933	0.1698	0.43807	0.11409	-0.089583	-1.1167	-0.36458	-0.80417	-1.2	-0.34375	-1.2083	-0.8875	-0.33333	-1.0229	-0.38542	-0.675	-1.0604	-0.63125	-1.0292	-0.93542	-62.297	8.034	82.804	185.311	-20.683	51.458	242.557	220.366	10.766	206.118	264.973	243.647	158.730	156.447	63.713	210.428	0.00021481	0.00041079	0.00025351	996.02	4.5426e-06	2.9114e-06	628.16	373.53	1.0165e-05	2.2336e-05	230.52	105.64	167.24	79.943	1.1377e-05	50.349	0.013656	0.024265	0.0069308	1050	0.00024288	0.00027578	702.9	394.95	0.00024597	0.00027758	273.52	119.41	179.07	83.872	0.00025804	56.869	214.777	50.301	15.481	-81.249	33.691	108.450	-83.398	-75.744	58.058	3.542	-79.524	-75.189	-71.464	-67.285	140.115	-72.236	-8191	255	
28683.266	1	1	0	0	0.092275	0.21899	0.18019	0.19801	0.4006	0.048683	0.12799	0.27169	0.041257	0.059626	0.36991	0.10884	0.27589	0.14261	0.24363	0.23248	0.035417	-1.1063	-0.38125	-0.72083	-1.0021	-0.5125	-0.92083	-0.93333	-0.24375	-1.1917	-0.36667	-0.66875	-1.3708	-0.38333	-0.94375	-1.0396	179.959	-4.246	238.489	-66.992	155.972	-27.948	182.121	199.093	172.107	224.824	265.960	-64.422	225.498	253.368	-80.821	-82.094	0.00016009	0.0014997	0.00020522	994.17	1.0068e-05	1.3893e-05	634.73	374.94	1.3065e-05	8.7482e-06	233.81	105.7	167.01	80.075	6.7265e-06	50.995	0.013735	0.024446	0.006919	1050.1	0.00024565	0.00027924	707.36	396.35	0.00024757	0.00027629	275.48	119.78	179.36	84.092	0.00026115	57.355	196.987	-60.679	1.865	-81.358	-14.836	24.124	-83.127	-75.545	169.612	221.323	-79.126	-74.814	-71.394	-67.179	-18.919	-71.844	-8191	255	
28683.361	1	1	0	0	0.1732	0.17403	0.17711	0.031463	0.10968	0.37429	0.18242	0.25608	0.029644	0.15017	0.054706	0.097911	0.14824	0.15329	0.12908	0.24167	0.10833	-1.225	-0.46458	-0.625	-1.225	-0.31042	-0.85	-1.2833	-0.42917	-1.0833	-0.70417	-0.56458	-1.3312	-0.5875	-0.75	-1.1063	51.161	108.703	15.377	233.493	24.802	112.892	-62.529	-79.512	-67.232	-88.969	171.727	33.004	-67.710	228.461	12.769	254.091	0.00018907	0.0009505	0.00061862	1001.9	5.0201e-06	4.0872e-06	637.02	377.35	9.3704e-06	2.6962e-05	234	105.95	167.25	80.155	2.8192e-06	51.023	0.013854	0.02463	0.0070498	1055.1	0.00024588	0.0002827	712.19	398.38	0.00025062	0.00027978	277.5	120.5	179.94	84.162	0.00026348	57.405	232.105	-51.302	-64.871	-81.280	224.860	-81.208	-83.293	-75.653	-9.197	-12.576	-79.442	-74.888	-71.434	-67.256	8.595	-72.435	-8191	255	
28683.457	1	1	0	0	0.19805	0.042996	0.18911	0.1067	0.094498	0.066253	0.11254	0.15322	0.23796	0.22384	0.23835	0.16998	0.17236	0.2174	0.18649	0.1179	0.275	-0.94167	-0.75	-0.6	-1.2458	-0.44583	-0.69375	-1.2042	-0.24583	-0.86042	-0.86458	-0.40208	-1.2229	-0.65833	-0.41875	-1.25	185.726	138.314	-7.106	-66.362	155.226	170.186	53.440	257.541	173.212	252.874	219.093	191.656	-36.239	238.576	80.233	123.259	0.00018343	0.0014629	0.0001781	993.53	6.4167e-06	9.6346e-06	627.6	373.45	8.5144e-06	6.4301e-06	231.7	104.73	167.39	80.001	5.4064e-06	50.558	0.013895	0.024775	0.007062	1051.5	0.00024774	0.00028284	703.54	395.93	0.000251	0.00027932	274.99	119.47	179.19	83.752	0.00026454	57.044	221.879	-27.810	-24.446	-81.585	119.696	34.795	-83.480	-75.824	-52.406	123.465	-78.688	-75.064	-71.067	-67.115	-72.420	-71.967	-8191	255	
28683.555	1	1	0	0	0.098169	0.21392	0.12588	0.4653	0.031716	0.12291	0.15374	0.30613	0.10113	0.19456	0.13669	0.11614	0.34474	0.18906	0.21588	0.15734	0.15625	-0.975	-1.1292	-0.40833	-1.1646	-0.58542	-0.63542	-1.3479	-0.06875	-0.99167	-0.975	-0.125	-1.2979	-0.54167	-0.4125	-1.1708	-1.663	177.647	-12.411	221.750	129.291	-69.990	46.871	-91.423	65.396	-17.208	231.400	19.937	255.714	261.549	221.812	-71.802	0.00016408	0.00094661	0.00025031	988.96	1.3775e-05	4.7139e-06	628.89	376.05	1.897e-05	1.4792e-05	231.5	105.49	167.59	79.708	5.8673e-06	50.982	0.014079	0.024889	0.0070788	1048.7	0.00024898	0.0002837	705.5	396.54	0.00025339	0.00028297	275.34	119.97	179.63	83.843	0.00026452	57.254	170.741	6.598	71.685	-81.296	149.788	151.861	-83.214	-75.659	30.653	-26.709	-79.450	-75.028	-71.286	-67.357	86.007	-72.031	-8191	255	
28683.650	1	1	0	0	0.056735	0.10285	0.22892	0.31655	0.21805	0.28328	0.14712	0.22995	0.12137	0.02219	0.23941	0.51996	0.4518	0.028198	0.29973	0.32203	0.047917	-0.75	-0.90625	-0.48958	-1.1063	-0.625	-0.55417	-1.3813	-0.22917	-0.77708	-0.97708	-0.11875	-1.2229	-0.69375	-0.21042	-1.1333	-13.849	20.493	123.228	255.029	-82.049	179.722	-60.513	216.839	236.158	84.189	212.112	226.398	-80.958	257.186	73.451	228.190	0.00020128	0.001445	0.00062316	984.54	1.3354e-05	8.293e-06	626.9	373.31	1.1723e-05	8.2656e-06	230.18	105.53	167.96	79.602	1.0861e-05	50.945	0.014088	0.02498	0.0070816	1048.1	0.00025005	0.00028715	706.84	396.24	0.00025649	0.0002853	276.62	120.61	179.79	83.958	0.00026585	57.604	228.278	-0.628	17.603	-81.457	46.801	170.653	-83.265	-75.794	181.483	-83.583	-79.182	-75.028	-71.444	-67.304	-29.761	-71.800	-8191	255	
28683.746	1	1	0	0	0.10393	0.066195	0.22316	0.23739	0.17709	0.057181	0.13854	0.5342	0.031872	0.12605	0.31921	0.29705	0.16193	0.15324	0.05823	0.33582	-0.0041667	-0.575	-1.1208	-0.25833	-0.85417	-0.57292	-0.38958	-1.4875	-0.3125	-0.5	-1.2729	-0.21458	-1.0333	-1.1583	-0.17083	-1.1938	98.822	106.830	33.616	220.829	147.769	134.851	252.774	222.612	39.644	189.041	-91.078	201.205	-72.828	215.456	-75.090	235.996	8.1665e-05	0.00070804	0.00050962	995.86	5.6533e-06	1.315e-05	635.57	377.89	1.2488e-05	1.2954e-05	234.69	106.51	168.06	79.886	8.8618e-07	51.156	0.01416	0.02532	0.0071404	1054.1	0.00025214	0.00028938	712.12	399.03	0.00025487	0.00028497	278.92	121.53	180.13	84.075	0.00026701	57.862	187.619	51.184	-27.001	-81.451	-50.505	101.021	-83.549	-75.561	-65.900	47.684	-79.695	-75.125	-71.377	-67.201	-6.447	-71.878	-8191	255	
28683.842	1	1	0	0	0.028738	0.30685	0.083864	0.072705	0.047041	0.192	0.22023	0.23554	0.094861	0.13226	0.19252	0.083819	0.18059	0.32385	0.23936	0.32389	-0.075	-0.43333	-1.1688	-0.18958	-0.98333	-1.1646	-0.42083	-1.2333	-0.425	-0.41667	-1.1292	-0.25208	-0.90208	-1.1396	-0.22917	-1.0604	57.345	48.008	204.463	-25.074	-19.323	99.435	-70.003	-31.121	197.083	22.610	260.360	235.742	239.213	241.858	-67.171	221.534	6.9782e-05	0.00082356	0.00020833	1000.1	7.5585e-06	1.7018e-05	635.81	374.72	1.16e-05	3.8852e-06	232.82	106.07	167.32	79.803	3.092e-06	51.193	0.014301	0.025182	0.0071649	1056.2	0.00025402	0.00028809	713.38	397.92	0.00025824	0.00028809	279.49	121.07	179.74	83.937	0.00026726	57.757	125.887	191.357	-34.862	-81.268	54.010	-2.001	-83.504	-75.561	191.538	126.126	-79.086	-74.914	-71.263	-67.136	29.287	-71.861	-8191	255	
28683.938	1	1	0	0	0.049621	0.32477	0.288	0.24184	0.085816	0.26345	0.13993	0.20692	0.089874	0.017258	0.073696	0.17814	0.025956	0.042438	0.1819	0.21529	-0.23542	-0.26042	-1.0021	-0.48333	-0.40417	-0.98125	-0.36875	-1.2604	-0.7	-0.325	-1.3854	-0.34375	-0.78125	-1.0375	0.03125	-1.0271	-47.374	-84.889	139.484	235.396	136.969	55.695	-64.219	-93.862	-73.610	172.874	149.624	-80.304	-27.131	183.521	-10.738	-76.556	8.2022e-05	0.0015964	0.00031744	992.48	1.4679e-05	4.2779e-06	634.42	375.59	1.1868e-05	1.6275e-05	234.79	106.55	167.45	79.7	8.5401e-06	51.411	0.014339	0.025436	0.0072204	1056.1	0.00025487	0.00029083	712.54	398.36	0.00025844	0.00028958	279.77	121.34	180.25	84.149	0.00026872	57.961	247.756	-69.460	72.807	-81.297	-24.005	141.779	-83.238	-75.884	64.166	250.398	-79.410	-74.446	-71.218	-67.138	101.452	-71.631	-8191	255	
28684.059	1	1	0	0	0.19838	0.22586	0.12636	0.064567	0.11787	0.22299	0.22787	0.275	0.043002	0.10474	0.085567	0.15665	0.16671	0.10807	0.1242	0.024004	-0.51875	-0.13333	-1.1771	-0.425	-0.44167	-1.0896	-0.35208	-1.1146	-0.84583	-0.1375	-1.0312	-0.68542	-0.53958	-1.3	-0.22917	-1.075	188.604	233.748	-34.820	-84.775	111.575	163.361	-15.030	260.514	194.199	153.329	264.881	227.572	194.340	205.460	160.961	169.498	0.00020994	0.00071192	0.00023569	997.33	1.1265e-05	7.5828e-06	636.1	376.48	8.9976e-06	1.8453e-05	234.23	106.57	167.8	79.784	1.1415e-05	51.699	0.014349	0.025472	0.0072448	1057.1	0.00025709	0.0002916	714.03	398.27	0.00026036	0.00029087	281.37	121.76	180.12	84.039	0.0002735	58.177	184.784	28.876	-8.607	-81.527	116.052	200.235	-82.886	-75.630	253.144	64.888	-79.445	-75.426	-71.425	-67.162	183.205	-72.036	-8191	255	
28684.152	1	1	0	0	0.3005	0.31074	0.13641	0.45263	0.12847	0.082128	0.34809	0.089706	0.037822	0.029042	0.22723	0.12983	0.1234	0.18689	0.19958	0.17904	-0.54167	0.14792	-1.2604	-0.74792	-0.31667	-1.1583	-0.47917	-0.74792	-1.1708	-0.08125	-1.2146	-0.84583	-0.5125	-1.4188	-0.16042	-0.63542	-28.669	262.855	2.158	243.823	8.645	-48.873	202.421	178.160	246.480	255.909	190.207	45.226	262.989	-35.772	-77.713	220.958	0.00011695	0.0014362	0.00060343	994.97	1.4697e-05	3.7131e-06	638.05	376.92	6.5062e-06	1.7584e-05	235.75	107.89	167.66	79.682	8.4187e-06	51.765	0.014452	0.025676	0.0073195	1056.9	0.0002575	0.00029399	719.08	399.8	0.00026052	0.00029093	282.46	122.66	180.56	84.157	0.00027529	58.532	142.625	-76.455	141.823	-81.566	-18.252	152.276	-83.372	-75.482	119.089	19.099	-79.100	-74.936	-71.371	-67.198	30.151	-71.511	-8191	255	
28684.250	1	1	0	0	0.018215	0.1421	0.3224	0.32965	0.19289	0.10806	0.14183	0.19701	0.17028	0.2521	0.20286	0.52241	0.34693	0.40788	0.12189	0.16053	-0.62917	-0.10208	-0.85	-0.93542	-0.32083	-1.2687	-0.55625	-0.6375	-1.2521	-0.13958	-1.0667	-0.85	-0.3125	-1.4062	-0.56875	-0.4375	152.181	213.195	130.282	239.306	-31.339	31.694	-63.997	259.847	29.692	245.817	-78.136	230.779	172.570	251.070	-13.309	-53.554	7.1494e-05	0.0011594	0.00019701	1003.1	4.8794e-06	5.3763e-06	641.38	377.91	3.7542e-06	1.0854e-05	237.45	107.83	168.05	79.798	8.3403e-06	51.879	0.014549	0.025944	0.0073788	1063.7	0.00025974	0.00029657	723.41	401.13	0.00026251	0.00029384	284.01	122.92	180.54	84.057	0.00027508	58.452	-82.042	8.085	-69.567	-81.657	86.187	155.397	-83.476	-75.850	201.995	150.040	-79.253	-74.848	-71.289	-67.257	9.239	-71.620	-8191	255	
28684.369	1	1	0	0	0.16228	0.18401	0.19225	0.081465	0.26308	0.11232	0.29959	0.30838	0.11324	0.29984	0.19735	0.23998	0.32796	0.58219	0.19333	0.17063	-0.69583	-0.12292	-0.71667	-0.9625	-0.13542	-1.1063	-0.44375	-0.52083	-1.3042	-0.28958	-0.89167	-1.0042	-0.3625	-1.3583	-0.60417	-0.51458	-53.420	-73.446	-74.184	38.445	239.828	-63.523	89.233	234.173	-91.151	195.271	51.948	-88.881	249.854	226.775	66.349	-44.950	0.00030439	0.0013036	0.00028115	994.15	1.8228e-06	9.6255e-06	639.59	376.05	4.2809e-06	9.7962e-06	236.4	106.51	166.41	79.427	8.7517e-06	51.492	0.014495	0.025948	0.0073555	1057.7	0.000258	0.0002938	717.87	398.34	0.00026175	0.00029065	281.86	121.75	179.64	83.639	0.00027388	58.019	213.249	-28.230	58.192	-81.414	-65.282	58.675	-83.377	-75.790	237.974	59.673	-78.720	-74.864	-71.334	-67.071	56.736	-71.787	-8191	255	
28684.441	1	1	0	0	0.045093	0.37359	0.076158	0.19527	0.20087	0.1465	0.18432	0.19357	0.049313	0.25684	0.21093	0.26883	0.29213	0.25286	0.38293	0.019532	-0.7625	-0.21458	-0.95833	-1.1104	-0.047917	-1.0583	-0.72083	-0.46667	-0.85208	-0.28542	-0.50208	-1.1604	-0.57708	-1.2729	-0.78333	-0.34375	236.624	-51.546	-34.756	237.967	-36.744	226.610	255.708	206.711	254.315	-86.983	183.410	38.061	228.904	-67.504	27.434	197.706	0.00020109	0.0004482	0.00061967	997.6	6.3992e-06	2.502e-06	637.99	376.26	9.4506e-06	2.9394e-05	235.15	106.35	168.01	79.732	8.2569e-06	51.43	0.014411	0.025763	0.0073327	1059.3	0.0002587	0.00029514	717.84	398.31	0.0002628	0.00029385	282.22	121.83	180.01	83.837	0.00027541	58.132	256.629	252.824	2.559	-81.586	169.458	-55.445	-83.266	-75.484	64.678	4.194	-78.963	-74.673	-71.279	-67.233	125.992	-71.397	-8191	255	
28684.537	1	1	0	0	0.041849	0.3735	0.38486	0.11752	0.095576	0.15978	0.21883	0.28476	0.234	0.2412	0.34969	0.10639	0.20049	0.068018	0.24389	0.16906	-0.64375	-0.35625	-0.675	-1.1562	-0.11458	-0.86875	-1.0167	-0.36667	-1.075	-0.45417	-0.43542	-1.2729	-0.51458	-1.1187	-0.96458	-0.22292	-93.670	12.121	0.248	174.429	-3.684	251.288	77.672	199.995	74.040	229.668	259.901	74.552	-56.615	242.874	-65.938	129.942	0.00030734	0.0011807	0.00024355	996.28	1.1207e-05	8.5232e-06	641.11	375.61	6.4463e-06	1.386e-05	234.96	107.73	167.47	79.247	9.4112e-06	51.357	0.014515	0.026024	0.007385	1060.5	0.00026065	0.00029532	720.27	398.35	0.00026285	0.00029374	282.9	122.56	179.94	83.755	0.00027636	58.473	225.963	-26.179	36.795	-81.480	72.356	-93.250	-82.875	-75.760	-63.062	117.012	-79.249	-74.580	-71.696	-67.051	50.037	-71.747	-8191	255	
28684.658	1	1	0	0	0.35715	0.16165	0.08524	0.19878	0.088799	0.11134	0.047373	0.10211	0.11098	0.12241	0.08202	0.14188	0.32804	0.34269	0.15001	0.1836	-0.69167	-0.43125	-0.34583	-1.3604	-0.37083	-0.79792	-1.0271	-0.42917	-1.0708	-0.77083	-0.525	-1.3021	-0.52292	-0.68333	-1.0271	-0.33958	-5.083	90.651	3.731	205.721	10.926	179.769	172.422	198.577	72.266	103.004	264.510	215.564	193.032	239.572	187.696	217.983	4.7111e-05	0.00076529	0.0002176	1001.7	1.2217e-05	1.437e-05	638.71	376.65	6.4753e-06	9.4382e-06	237.17	108.64	167.56	79.596	7.8485e-06	51.884	0.014549	0.025928	0.0074177	1062.4	0.00026186	0.0002971	721.44	399.43	0.00026131	0.00029423	283.85	123.12	180.4	83.957	0.00027569	58.638	247.134	133.751	186.806	-81.480	87.252	106.790	-82.976	-75.640	93.009	95.488	-79.400	-74.942	-71.424	-67.041	202.336	-71.975	-8191	255	
28684.756	1	1	0	0	0.025258	0.19724	0.11393	0.28334	0.23496	0.099471	0.24227	0.13705	0.27524	0.23318	0.20034	0.099918	0.26313	0.33727	0.061223	0.22157	-0.63542	-0.75208	-0.28958	-1.4021	-0.38542	-0.65	-1.1917	-0.32917	-1.1417	-0.90625	-0.33542	-1.1167	-0.70417	-0.89167	-0.98542	-0.32917	15.402	-37.582	91.365	234.990	173.183	98.084	229.012	214.310	62.083	43.636	3.889	259.629	-47.881	190.848	-66.442	-50.789	0.00019276	0.00047752	0.0001455	1001.6	1.5925e-06	1.5397e-05	638.68	376.83	7.527e-06	1.3578e-05	234.07	106.29	166.31	78.854	6.5545e-06	50.711	0.014592	0.026032	0.0073974	1061.5	0.00026045	0.00029608	718.18	398.47	0.00026301	0.00029476	281.51	121.49	179.06	83.318	0.00027428	57.72	188.381	-45.569	191.316	-81.541	245.683	93.733	-83.683	-75.423	-13.962	47.320	-79.192	-74.889	-71.394	-66.929	103.687	-71.569	-8191	255	
28684.852	1	1	0	0	0.043714	0.13946	0.10237	0.11298	0.12159	0.18427	0.10538	0.2064	0.1963	0.034494	0.035893	0.13914	0.24662	0.23126	0.10888	0.32522	-0.58542	-0.70625	-0.22708	-1.4417	-0.36667	-0.45417	-1.2313	-0.25417	-0.92917	-0.89375	-0.0875	-1.2687	-0.62083	-0.61458	-1.1292	-0.39167	107.784	4.166	254.347	241.902	243.065	205.165	2.659	-54.355	37.218	155.446	143.131	178.025	242.291	-60.032	248.063	192.326	0.00014411	0.00014101	0.0003805	996.97	3.8875e-06	2.4591e-05	625.86	373.5	5.6586e-06	5.5793e-06	233.19	106.13	166.46	78.728	1.1136e-05	50.887	0.014615	0.026069	0.0073895	1055.7	0.00025889	0.00029581	711.41	396.92	0.00026359	0.00029335	280.2	121.1	178.57	83.08	0.00027567	57.589	138.505	224.600	52.059	-81.379	163.838	108.004	-83.509	-75.608	236.974	-90.148	-79.011	-75.047	-71.410	-67.040	-55.146	-71.967	-8191	255	
28684.947	1	1	0	0	0.1541	0.24717	0.2091	0.15289	0.024119	0.088985	0.10078	0.15805	0.07482	0.24056	0.10655	0.33833	0.21425	0.28185	0.20367	0.36989	-0.3625	-0.96875	-0.083333	-1.2104	-0.61458	-0.17708	-1.2396	-0.6	-0.6375	-1.0333	-0.27708	-1.05	-0.68125	-0.37083	-1.0292	-0.59375	-4.040	170.449	35.644	242.632	-29.704	166.059	134.538	-27.086	210.046	58.171	21.469	-73.097	211.797	168.840	199.972	249.605	0.00014703	0.000654	6.5845e-05	995.27	1.521e-05	1.6349e-05	634.98	373.78	4.7892e-06	1.7564e-05	233.26	105.21	165.79	78.42	7.1112e-06	50.501	0.014612	0.026011	0.0073721	1057.2	0.00026091	0.00029837	714.57	395.9	0.00026517	0.00029718	281	121.58	178.7	82.95	0.00027594	57.859	206.958	28.170	36.019	-81.188	29.095	53.496	-83.550	-75.537	263.412	49.670	-79.202	-74.732	-71.532	-67.013	-92.174	-72.058	-8191	255	
28685.041	1	1	0	0	0.052693	0.28566	0.025482	0.21612	0.31809	0.23298	0.13312	0.19766	0.26577	0.021946	0.12037	0.24517	0.078678	0.20375	0.079081	0.31414	-0.28125	-1.2	-0.18125	-1.1208	-0.76667	-0.35417	-1.2667	-0.65417	-0.44167	-1.1354	-0.33333	-0.92917	-1.05	-0.42083	-1.3167	-0.68125	-85.376	59.115	15.538	253.997	19.001	36.098	166.084	208.101	-70.845	52.030	112.012	205.374	-42.104	175.204	179.582	222.755	0.00018849	0.00060351	0.00025612	992.38	9.0814e-06	1.3019e-05	637.74	374.13	8.0708e-06	1.6107e-05	233.48	107.41	165.55	78.389	8.3936e-06	51.131	0.014777	0.026126	0.0074081	1057.1	0.00026475	0.00029935	716.34	397.52	0.00026726	0.00029842	281.62	122.68	178.94	83.023	0.0002788	58.123	189.842	251.003	-52.504	-81.484	55.023	-78.593	-82.971	-75.585	14.939	30.309	-79.377	-74.844	-71.333	-66.839	72.690	-71.816	-8191	255	
28685.139	1	1	0	0	0.14907	0.089742	0.12414	0.16087	0.26855	0.15048	0.1183	0.17478	0.055481	0.14089	0.20217	0.04781	0.27921	0.077246	0.17632	0.24834	-0.091667	-1.0812	-0.20208	-0.79375	-0.81667	-0.22083	-1.1708	-0.86875	-0.22917	-1.0125	-0.4	-0.77292	-1.0396	-0.35208	-1.0146	-0.73125	183.400	-70.517	27.137	238.458	165.309	-52.929	117.197	249.109	-19.194	-89.816	127.946	202.688	234.033	179.788	125.610	89.907	0.00028224	0.00072617	0.0001489	991.09	6.9038e-06	1.4331e-05	636.51	373.71	1.0929e-05	1.8763e-05	233.86	107.55	166.74	78.834	5.0222e-06	50.934	0.01479	0.026443	0.0074976	1058.1	0.00026444	0.00030135	718.92	397.58	0.00026928	0.00029899	282.69	122.51	179.17	82.931	0.00027903	57.93	202.476	9.992	16.863	-81.306	122.876	163.814	-83.146	-75.735	88.092	85.348	-79.321	-75.018	-71.378	-67.056	-67.147	-71.907	-8191	255	
28685.234	1	1	0	0	0.21077	0.085222	0.15609	0.044692	0.22034	0.15746	0.27789	0.085067	0.18197	0.33677	0.33369	0.17552	0.22076	0.17077	0.28966	0.12042	0.1875	-1.2812	-0.27917	-0.57292	-0.95417	-0.22917	-1.1417	-1.0479	-0.15208	-1.1917	-0.35	-0.63333	-1.15	-0.51042	-0.92083	-0.96875	228.407	73.950	13.596	183.216	157.129	-6.001	194.709	196.262	78.726	69.544	196.555	196.450	149.078	-52.733	-69.934	186.228	0.00018049	0.00065771	5.235e-05	989.84	1.3377e-05	1.27e-05	627.91	372.61	5.5949e-06	9.9885e-06	232.19	105.17	164.51	78.001	1.3628e-05	50.664	0.014799	0.026469	0.0075262	1053.6	0.00026582	0.00030155	713.32	395.8	0.00026718	0.00029906	280.11	121.04	177.98	82.401	0.00027915	57.367	235.404	-22.515	176.213	-81.171	66.832	72.972	-82.908	-75.641	103.111	80.523	-79.044	-74.716	-71.512	-67.064	73.305	-71.715	-8191	255	
28685.330	1	1	0	0	0.038329	0.16633	0.21022	0.1791	0.18221	0.12592	0.23235	0.20964	0.31362	0.20471	0.097768	0.27466	0.09353	0.099176	0.085117	0.024863	-0.010417	-1.0708	-0.4625	-0.38958	-0.98333	-0.29375	-0.78125	-1.0917	-0.11667	-0.99792	-0.55208	-0.59375	-1.35	-0.42708	-0.57708	-0.79167	69.309	124.221	92.571	252.321	-16.245	210.882	262.734	-18.868	143.964	21.908	127.429	-79.782	198.295	-81.938	-37.446	35.772	8.1628e-05	0.00073366	0.0002815	984.25	4.3311e-06	7.1545e-06	631.11	371.51	1.0999e-05	1.0869e-05	230.21	105.49	165.4	77.719	9.3319e-06	50.813	0.014793	0.026251	0.0074977	1050.4	0.00026408	0.000301	712.38	394.65	0.00026559	0.00029808	279.89	121.28	178	82.251	0.00027928	57.457	-67.887	61.363	212.963	-81.371	206.160	228.042	-82.905	-75.509	195.840	35.154	-79.373	-74.923	-70.978	-66.907	77.895	-71.786	-8191	255	
28685.451	1	1	0	0	0.25824	0.16389	0.22989	0.16085	0.097938	0.13056	0.070126	0.33867	0.19233	0.042124	0.29873	0.20046	0.049067	0.30764	0.096269	0.25672	0.2	-1.0146	-0.45417	-0.25417	-1.1458	-0.3	-0.72708	-1.2	-0.125	-0.91458	-0.73125	-0.36875	-1.2042	-0.57708	-0.55417	-1.1187	-75.049	24.456	168.393	197.616	91.221	75.262	132.491	214.849	65.153	90.145	207.965	202.097	110.940	258.979	-21.133	266.030	0.00026228	0.00096073	0.00042739	988.77	1.1924e-05	4.9629e-06	630.58	369.64	9.0456e-06	8.8815e-06	231.32	105.85	164.73	77.618	7.1808e-06	50.804	0.014741	0.026237	0.0075156	1050.2	0.00026182	0.0002985	712.26	393.57	0.00026715	0.00029693	280.04	121.2	177.58	82.065	0.00027723	57.509	182.364	-16.047	194.645	-81.302	84.626	145.365	-83.036	-75.644	-1.263	-22.269	-79.526	-74.518	-71.257	-67.095	48.238	-71.739	-8191	255	
28685.547	1	1	0	0	0.24033	0.14226	0.27295	0.28117	0.47023	0.073279	0.24942	0.14688	0.11917	0.16838	0.35271	0.17784	0.33024	0.29643	0.075009	0.16752	0.30417	-0.79792	-0.62083	-0.45	-1.2146	-0.29792	-0.56667	-1.325	-0.26042	-0.93958	-0.73542	-0.33125	-1.2042	-0.6125	-0.43958	-1.0917	228.699	4.341	127.290	211.264	120.353	24.383	204.168	196.189	-29.995	32.333	25.774	181.212	-55.664	252.513	194.665	185.050	0.00022162	0.0020972	0.0001457	992.45	4.4295e-06	2.8509e-05	634.05	372.29	5.7717e-06	8.1772e-06	232.94	106.2	164.52	77.673	9.0183e-06	50.993	0.014745	0.026187	0.0074279	1052.3	0.00026171	0.00030015	715.97	394.58	0.00026482	0.00029663	281.82	121.65	177.57	82.014	0.00027805	57.682	191.089	-13.644	-4.009	-81.281	-41.763	101.027	-83.008	-75.581	74.741	82.332	-79.113	-74.761	-71.303	-67.086	-35.659	-72.049	-8191	255	
28685.617	1	1	0	0	0.245	0.080163	0.13476	0.14944	0.32523	0.27513	0.018566	0.10257	0.068437	0.043818	0.19196	0.15285	0.081005	0.13069	0.099581	0.033309	0.064583	-0.6	-0.90208	-0.089583	-0.99792	-0.56458	-0.48125	-1.1646	-0.30208	-0.55417	-1.025	-0.28958	-1.2271	-0.84167	-0.15833	-1.2062	154.371	249.250	-46.555	226.302	-4.658	90.630	58.591	118.426	55.157	-29.351	200.068	8.018	151.962	-61.683	144.459	221.850	8.7626e-05	0.0013277	0.00027859	992.26	4.5984e-06	1.477e-06	636.62	370.36	8.0479e-06	1.4599e-05	232.9	105.74	163.59	77.55	4.5911e-06	49.955	0.014748	0.026273	0.0074573	1054.4	0.0002629	0.00030203	717.65	394.05	0.00026754	0.00029636	281.03	121.18	176.52	81.746	0.00027708	57.173	149.914	25.686	210.487	-81.121	160.792	86.386	-83.011	-75.488	155.165	44.673	-78.630	-74.455	-71.106	-67.103	-50.614	-71.785	-8191	255	
28685.738	1	1	0	0	0.15874	0.19157	0.023198	0.25312	0.092404	0.22902	0.28279	0.19407	0.12301	0.15589	0.31445	0.37893	0.16478	0.36099	0.19969	0.12486	0.1	-0.5125	-1.1562	-0.1875	-0.9125	-0.65	-0.44375	-1.3292	-0.26458	-0.48125	-1.2229	-0.14792	-1.2417	-0.88958	-0.2	-1.1	43.154	186.290	-74.369	233.914	105.911	113.681	105.592	157.227	44.860	185.054	-73.253	228.021	257.770	222.676	88.890	92.201	0.00027143	0.0014975	7.7949e-05	984.08	7.8711e-06	1.6832e-05	635.21	370.41	7.944e-06	2.9696e-06	232.16	105.51	163.58	76.937	2.0294e-06	50.693	0.014702	0.026148	0.0074258	1048.4	0.00025991	0.00029757	714.03	392.42	0.00026604	0.00029657	279.75	120.43	175.94	81.414	0.00027604	57.349	232.340	43.955	-53.687	-81.400	61.321	91.182	-83.006	-75.420	-63.638	61.105	-78.906	-74.622	-71.218	-66.907	103.639	-71.540	-8191	255	
28685.836	1	1	0	0	0.26664	0.41002	0.05998	0.33313	0.14894	0.24866	0.079133	0.36513	0.29865	0.016077	0.090475	0.0095652	0.19889	0.31188	0.026257	0.13571	0.072917	-0.52708	-1.0125	-0.34792	-0.72083	-0.85	-0.31667	-1.2375	-0.38333	-0.50833	-1.3062	-0.35417	-1.0979	-1.1292	-0.27708	-1.1896	71.847	229.885	175.773	-60.007	-85.971	144.345	208.260	166.056	53.291	35.054	-38.851	100.359	169.932	248.133	118.690	232.416	0.00012387	0.00026389	0.0002485	984.69	7.5231e-06	2.4763e-05	637.14	371.57	9.2573e-06	1.1995e-05	232.38	104.77	162.81	76.676	5.3254e-06	50.711	0.014884	0.026326	0.0074418	1051.5	0.00026368	0.00030024	715.1	393.78	0.0002684	0.00029848	280.24	120.64	175.96	81.36	0.00027871	57.537	210.354	-67.153	31.574	-81.056	-18.977	54.288	-83.044	-75.474	-90.342	48.852	-79.222	-74.422	-71.129	-66.989	36.315	-71.921	-8191	255	
28685.932	1	1	0	0	0.085506	0.14011	0.16996	0.2192	0.22541	0.32249	0.11442	0.38111	0.10766	0.29174	0.053273	0.097941	0.10865	0.26016	0.26623	0.27409	-0.27292	-0.21042	-0.99167	-0.525	-0.60417	-0.93125	-0.27083	-1.1875	-0.68333	-0.2875	-1.2542	-0.46042	-0.7125	-1.0375	-0.30833	-1.0875	15.721	-91.804	143.848	242.372	-42.755	50.097	-45.848	238.127	182.946	-18.593	-3.297	204.295	-66.078	233.164	193.869	185.722	0.00027878	0.001104	0.00038156	994.47	1.4408e-05	4.4568e-06	639.66	369.51	2.822e-06	1.7532e-05	233.65	106.2	163.64	76.957	8.4319e-06	51.177	0.014824	0.026294	0.0074916	1056.7	0.00026413	0.00029981	721.63	394.38	0.0002693	0.00029835	282.4	121.58	176.19	81.418	0.00027739	58.009	189.709	-33.739	-34.520	-81.216	80.036	56.184	-82.884	-75.548	25.422	144.093	-78.899	-74.633	-70.954	-66.971	178.612	-71.773	-8191	255	
28686.053	1	1	0	0	0.23146	0.31519	0.20378	0.17689	0.048141	0.16689	0.23729	0.36252	0.088881	0.21903	0.22991	0.17427	0.20336	0.18501	0.26999	0.052161	-0.31667	-0.375	-1.0854	-0.62708	-0.5875	-0.96042	-0.23542	-1.1229	-0.86042	-0.28333	-1.3458	-0.57708	-0.67708	-1.2083	-0.27083	-0.84583	90.665	-8.287	-73.890	240.194	235.433	221.476	186.285	253.534	-64.564	221.358	-50.585	-88.946	262.854	238.979	76.637	221.204	0.0001085	0.0004849	0.0002496	992.79	4.1305e-06	2.7372e-06	646.38	371.59	5.2735e-06	1.103e-05	236.48	107.22	163.79	77.223	1.627e-05	51.114	0.014792	0.026265	0.0074618	1057.3	0.00026422	0.00029943	727.18	395.5	0.00026668	0.00029729	284.12	122.33	176.01	81.489	0.00027935	57.944	202.789	206.650	187.895	-81.203	208.036	252.082	-82.960	-75.556	120.881	-86.227	-78.930	-74.918	-71.018	-66.883	106.011	-71.166	-8191	255	
28686.146	1	1	0	0	0.29894	0.2684	0.096599	0.10194	0.28636	0.32709	0.13765	0.21901	0.14825	0.15087	0.35022	0.12445	0.092204	0.56806	0.1721	0.30175	-0.64583	-0.28333	-1.0292	-0.61458	-0.36875	-1.2792	-0.35208	-1	-1.0625	-0.41458	-0.93958	-0.71042	-0.52917	-1.4333	-0.45833	-0.78125	120.703	-91.275	213.323	254.265	-81.678	10.305	218.652	245.515	113.052	50.800	-70.210	-85.380	-61.533	229.553	213.978	211.229	0.00027625	0.0010269	0.00011444	993.38	1.0066e-05	2.1837e-05	638.75	373.55	1.0958e-05	2.5867e-05	235.45	105.42	162.36	76.814	2.1551e-05	50.88	0.014852	0.026233	0.0075033	1057.5	0.00026488	0.00029844	723.57	395.48	0.00026599	0.00029591	282.67	121.08	175.26	81.155	0.00027918	57.618	208.333	250.426	-50.114	-81.173	57.361	120.183	-82.994	-75.462	63.882	-0.651	-79.291	-74.633	-70.806	-67.117	88.023	-71.544	-8191	255	
28686.242	1	1	0	0	0.25796	0.098337	0.2187	0.21011	0.079624	0.15357	0.24502	0.073716	0.17325	0.17496	0.092966	0.1502	0.25224	0.17798	0.21783	0.23494	-0.48542	-0.14583	-0.92083	-0.86875	-0.20208	-1.2292	-0.42917	-0.74375	-0.91875	-0.3125	-1.0958	-0.89167	-0.4625	-1.3813	-0.37917	-0.47292	198.159	4.107	-44.077	211.770	196.796	-8.724	235.440	235.873	245.006	166.315	46.603	128.633	255.031	244.062	191.713	223.377	0.00018876	0.0010416	0.00057032	990.15	7.6964e-06	1.2831e-05	643.39	372.61	5.6003e-06	6.5591e-06	234.38	105.35	162.12	76.964	6.6442e-06	50.937	0.014772	0.026318	0.0075242	1055.4	0.0002618	0.00030078	724.67	395.68	0.00026679	0.00029823	283.54	121.18	175.07	81.249	0.00027949	57.803	181.562	-79.363	24.358	-81.215	89.856	32.113	-82.868	-75.306	-43.786	256.383	-78.901	-74.613	-71.344	-66.666	136.213	-71.884	-8191	255	
28686.340	1	1	0	0	0.12614	0.10172	0.13644	0.25311	0.12107	0.20544	0.10535	0.2765	0.26643	0.066556	0.1646	0.25231	0.18546	0.18278	0.25588	0.2227	-0.50833	-0.33958	-0.9125	-1.0979	-0.29375	-1.0396	-0.6875	-0.32708	-0.99375	-0.32917	-1.0104	-1.0562	-0.3125	-1.2271	-0.57292	-0.35417	81.004	94.655	65.180	94.672	56.823	251.658	-21.178	219.116	-31.057	26.210	-27.494	264.368	243.072	265.678	106.655	-36.549	9.5061e-05	0.00039021	0.00020158	992.45	3.5057e-06	4.9199e-06	643.48	372.28	3.2072e-06	5.4601e-06	235.49	105.37	161.89	76.654	1.4861e-05	50.954	0.014778	0.026435	0.0075157	1056.3	0.00026346	0.00030064	727.68	395.11	0.00026761	0.00030057	284.13	121.45	174.66	81.111	0.00028061	57.964	259.218	-28.484	-91.544	-81.015	160.910	40.411	-82.349	-74.942	-64.338	51.951	-78.687	-74.555	-71.023	-66.837	22.381	-71.444	-8191	255	
28686.436	1	1	0	0	0.20555	0.21145	0.15535	0.14091	0.17021	0.20045	0.21296	0.1873	0.077426	0.1301	0.27094	0.23201	0.19295	0.22426	0.11143	0.30922	-0.88333	-0.20833	-0.55	-1.1646	-0.03125	-0.84792	-0.65208	-0.54792	-1.0146	-0.17083	-0.75	-1.1646	-0.46875	-1.1125	-0.59792	-0.25625	201.637	30.870	112.150	-39.337	-44.582	-20.406	260.178	265.914	18.989	64.494	194.793	223.738	225.785	264.330	223.127	215.606	3.689e-05	0.00038342	0.00014862	991.53	1.2699e-05	2.0156e-05	648.48	374.2	6.0321e-06	1.9498e-05	238.47	106.22	162.17	76.578	5.1587e-06	51.62	0.014786	0.026438	0.0075475	1056.2	0.00026296	0.0003023	733.99	396.47	0.00026714	0.00030086	286.31	122.11	175.2	81.183	0.00028145	58.252	146.616	96.063	193.663	-81.336	140.358	30.259	-83.110	-75.377	13.464	68.290	-78.754	-74.619	-71.121	-67.012	172.380	-71.461	-8191	255	
28686.531	1	1	0	0	0.13466	0.14158	0.046005	0.19438	0.17017	0.12727	0.3077	0.15736	0.18041	0.29454	0.21358	0.20999	0.47749	0.19022	0.31232	0.15982	-0.77292	-0.12292	-0.475	-1.2417	-0.15625	-0.95	-0.86458	-0.24375	-1.0875	-0.38958	-0.48542	-1.1833	-0.21042	-1.05	-0.68958	-0.20208	106.051	-13.709	135.205	15.781	145.064	60.024	174.578	202.274	38.922	230.518	254.404	143.637	-88.887	-59.164	-80.272	264.709	0.00014533	0.0015538	0.00022726	996.21	2.4398e-06	7.7742e-06	651.35	372.3	7.7991e-06	7.4878e-06	236.6	105.4	161.23	76.347	1.5089e-05	50.593	0.014832	0.026462	0.0075285	1058.8	0.00026457	0.00030392	733.42	395.35	0.00026783	0.00030156	284.18	120.84	174.12	80.705	0.00028081	57.439	186.620	37.632	70.979	-81.101	209.349	66.070	-83.140	-75.646	114.253	34.725	-79.050	-74.670	-71.128	-66.766	167.471	-71.990	-8191	255	
28686.627	1	1	0	0	0.25571	0.13758	0.028582	0.23144	0.019303	0.13753	0.24462	0.34817	0.12663	0.19331	0.043638	0.14017	0.26764	0.18318	0.22484	0.055653	-0.75208	-0.51458	-0.35	-1.2229	-0.27083	-0.75208	-0.85	-0.39375	-0.96042	-0.66875	-0.49583	-1.2646	-0.37708	-0.8	-1.0938	-0.325	196.146	163.560	133.169	-5.379	-41.950	-15.351	-59.158	230.248	-22.600	155.893	155.014	154.475	251.388	-88.949	-43.688	-20.024	0.00021241	0.0011377	0.00042094	990.62	1.8687e-05	1.7032e-05	641.98	369.44	5.0744e-06	1.6415e-05	236.07	104.18	160.07	75.875	4.1907e-06	50.137	0.014854	0.026555	0.007458	1053.4	0.00026454	0.00030084	722.44	392.99	0.00026648	0.00030057	282.27	119.69	173.21	80.208	0.00028087	57.054	205.395	245.845	-39.037	-81.226	165.190	101.959	-83.240	-75.555	-93.227	99.117	-79.077	-74.767	-71.000	-66.791	-81.395	-71.827	-8191	255	
28686.748	1	1	0	0	0.077656	0.12697	0.24158	0.49943	0.029544	0.36257	0.15925	0.15633	0.15664	0.17651	0.33743	0.19936	0.1769	0.10249	0.14401	0.2783	-0.80208	-0.65	-0.31042	-1.1708	-0.37083	-0.8	-1.0604	-0.31042	-1.0354	-0.78333	-0.23958	-0.97292	-0.50625	-0.68333	-1.1812	-0.42708	219.425	146.324	251.919	233.624	-16.603	-90.436	187.931	237.221	-45.107	-75.242	203.768	199.609	217.033	-49.839	144.377	-65.457	0.0002782	0.00077712	0.00028914	988.3	7.7633e-06	1.2464e-05	644.18	370.04	5.6914e-06	1.2461e-05	233.81	104.32	160.39	76.192	1.8447e-05	50.514	0.014924	0.026691	0.0074979	1054.1	0.00026739	0.00030347	726.8	392.52	0.00026968	0.00030053	282.26	120.44	173.55	80.405	0.00028056	57.379	198.994	-49.685	-15.366	-81.133	134.052	8.329	-83.442	-75.801	252.826	248.463	-78.584	-74.582	-71.475	-66.872	-42.600	-71.785	-8191	255	
28686.844	1	1	0	0	0.32119	0.073342	0.34409	0.14322	0.25457	0.14735	0.14132	0.40717	0.078398	0.50149	0.25888	0.12104	0.13612	0.1463	0.079054	0.10911	-0.49167	-0.65417	-0.23333	-1.2563	-0.41042	-0.38542	-1.2333	-0.36875	-0.90208	-0.78958	-0.34167	-1.0729	-0.66042	-0.44583	-1.1458	-0.22917	237.213	-67.120	0.857	-91.378	184.929	208.521	194.976	189.856	44.401	87.736	-42.297	235.563	231.778	15.164	-57.599	209.967	0.00034949	0.0016739	5.3904e-05	993.71	6.5643e-06	5.483e-06	650.94	370.11	5.0211e-06	1.315e-05	234.85	105.52	161.02	76.149	9.1126e-06	50.466	0.014965	0.026754	0.0075102	1057.3	0.00026783	0.0003036	729.83	394.01	0.0002711	0.00030182	283.98	121.58	174.15	80.602	0.00028161	57.629	207.831	45.902	156.417	-81.265	60.826	132.074	-83.101	-75.670	45.152	85.287	-79.223	-74.484	-71.208	-66.836	-29.233	-71.628	-8191	255	
28686.916	1	1	0	0	0.129	0.1558	0.14998	0.13251	0.086961	0.091611	0.13342	0.26574	0.22739	0.18623	0.19439	0.2343	0.20794	0.075654	0.14198	0.34937	-0.21042	-0.96042	-0.11667	-0.91667	-0.52708	-0.41875	-1.2083	-0.45	-0.88333	-1.0125	-0.16042	-1.1604	-0.90833	-0.49583	-1.1729	-0.36042	20.707	-30.434	39.311	196.579	75.888	106.914	146.140	229.234	33.611	-14.874	216.811	234.614	259.532	-50.440	254.265	196.199	0.00011084	0.00080832	0.0004708	992.24	5.7047e-06	1.1661e-05	648.45	369.64	6.2147e-06	3.1581e-06	235.48	105.77	159.85	75.67	1.0587e-05	50.415	0.015049	0.026696	0.0075825	1059.1	0.00026884	0.0003035	731.43	394.47	0.00027343	0.00030312	285.69	121.57	173.59	80.241	0.00028301	57.52	205.903	-13.092	-39.202	-81.166	-12.740	245.580	-83.318	-75.820	132.687	178.306	-78.798	-74.836	-71.401	-66.816	-16.886	-71.659	-8191	255	
28687.012	1	1	0	0	0.13336	0.088684	0.09403	0.36762	0.26694	0.14328	0.11742	0.21491	0.3237	0.17955	0.23918	0.1565	0.27896	0.08026	0.38638	0.12263	-0.21875	-1.0229	-0.3125	-1.0521	-0.78958	-0.34375	-1.325	-0.33125	-0.61875	-1.1042	-0.17292	-0.70208	-0.97917	-0.36458	-1.1646	-0.57917	-6.106	50.918	9.935	-59.328	239.863	86.504	176.313	223.279	197.357	7.174	-64.891	173.480	-88.138	91.740	178.983	-76.461	0.00019972	0.00069795	0.00034529	992.3	5.4811e-06	1.3288e-05	641.51	367.88	6.0634e-06	1.5169e-05	233.24	104.85	159.71	75.173	1.501e-05	49.854	0.015174	0.026772	0.0076203	1056.6	0.00026807	0.00030316	725.74	392.72	0.00027123	0.00030182	281.52	120.48	173.14	79.826	0.00028212	56.924	211.205	-21.055	217.005	-81.234	140.822	147.046	-82.940	-75.562	-13.583	-37.013	-79.220	-74.856	-71.469	-67.063	259.238	-71.527	-8191	255	
28687.131	1	1	0	0	0.064681	0.2356	0.12238	0.41262	0.12826	0.12207	0.20971	0.46148	0.16335	0.17218	0.16719	0.24244	0.26669	0.18494	0.075699	0.24321	-0.17917	-1.1604	-0.35625	-1.0125	-0.91458	-0.2375	-1.175	-0.81875	-0.31667	-1.2437	-0.40417	-0.82708	-1.2208	-0.26667	-1.1604	-0.78542	180.047	22.216	-69.997	222.732	154.264	-11.113	257.825	251.849	-65.082	255.906	171.895	123.304	262.257	220.336	115.750	251.098	0.00019282	0.0013398	0.0004612	990.94	1.299e-05	1.8497e-05	643.54	368.22	5.7826e-06	2.8286e-05	230.96	104.33	159.71	75.466	2.422e-06	49.979	0.014979	0.026663	0.0075755	1054.7	0.00026619	0.00030365	724.93	391.65	0.00026887	0.00030294	281.35	120.35	172.88	79.813	0.00028271	56.983	195.162	11.254	36.759	-81.161	11.281	103.684	-83.107	-75.782	-81.159	74.519	-79.046	-74.748	-71.142	-66.770	-44.541	-71.898	-8191	255	
28687.227	1	1	0	0	0.054423	0.31092	0.084594	0.31424	0.18412	0.17358	0.13663	0.13587	0.1288	0.22922	0.074969	0.3416	0.19745	0.45476	0.23698	0.26209	0.00625	-1.0104	-0.22083	-0.85417	-1.1729	-0.23333	-1.1833	-0.99375	-0.17708	-1.2167	-0.46667	-0.73125	-1.275	-0.48333	-0.97917	-0.89583	17.074	-85.478	165.987	249.116	81.679	219.046	188.463	-71.784	196.216	66.814	253.639	260.772	160.690	265.206	245.605	89.063	0.0002427	0.001122	0.00053584	983.12	7.9644e-06	4.4187e-06	637.75	366.39	5.0276e-06	9.2071e-06	232.42	104.52	159.64	75.092	6.6129e-06	49.808	0.014935	0.026611	0.0076011	1050.9	0.00026739	0.00030401	724.82	391.02	0.00027064	0.00029985	283.07	120.65	172.87	79.671	0.00028449	57.102	189.358	-47.423	53.833	-80.918	105.742	46.682	-82.772	-75.361	136.615	19.455	-79.214	-74.439	-71.120	-66.980	46.266	-71.493	-8191	255	
28687.322	1	1	0	0	0.15935	0.095142	0.56749	0.11918	0.30138	0.19055	0.10215	0.13506	0.418	0.025751	0.024887	0.11707	0.23801	0.05194	0.1706	0.058142	0.1375	-1.1292	-0.29375	-0.6125	-1.2396	-0.28542	-1.0021	-1.0688	-0.21875	-1.1167	-0.67083	-0.48542	-1.2854	-0.45208	-0.8	-1.0083	110.012	233.219	4.431	215.069	154.923	2.772	36.036	218.757	39.161	248.712	149.807	186.051	-45.681	-38.457	-70.471	163.224	0.00013862	0.0015104	0.00042102	992.65	8.8071e-06	5.3414e-06	648.05	368.12	2.4168e-07	5.66e-06	233.67	105.47	159.49	75.376	4.8349e-06	50.582	0.014917	0.026535	0.0076026	1054.2	0.00026593	0.00030474	730.15	391.67	0.00027	0.0003013	283.9	121.18	172.79	79.81	0.00028514	57.415	179.750	2.893	-29.213	-81.215	-48.246	59.043	-82.894	-75.384	-35.743	138.084	-79.279	-74.635	-71.255	-66.894	-2.937	-71.176	-8191	255	
28687.420	1	1	0	0	0.25854	0.22017	0.12036	0.052241	0.17724	0.12816	0.13556	0.23962	0.036188	0.31652	0.18677	0.26844	0.16738	0.11515	0.16433	0.28108	0.14792	-0.95833	-0.57917	-0.6375	-1.2021	-0.27708	-0.86875	-1.0542	-0.28958	-0.89375	-0.85417	-0.2625	-1.1708	-0.5875	-0.88333	-1.1625	247.414	77.898	158.041	225.591	262.560	71.177	-47.733	221.003	263.346	259.959	139.838	-76.058	207.563	262.679	-36.624	-84.985	5.9863e-05	0.00087617	0.00013233	986.5	7.3096e-06	1.4255e-05	647.17	369.28	2.1707e-05	1.1332e-05	235.21	104.39	159.64	75.029	8.6967e-06	50.015	0.014862	0.026606	0.0076478	1052.1	0.00026534	0.00030579	729.3	392.3	0.000268	0.0003024	283.21	120.38	172.64	79.41	0.0002811	56.854	205.332	-7.005	29.262	-80.984	-73.171	-11.464	-82.702	-75.617	56.043	118.043	-79.011	-74.639	-71.439	-67.047	170.564	-71.825	-8191	255	
28687.539	1	1	0	0	0.077025	0.14852	0.21281	0.38687	0.26219	0.015794	0.22282	0.10466	0.024835	0.23201	0.33273	0.17237	0.21209	0.2906	0.18867	0.19112	0.27292	-1.025	-0.75208	-0.38958	-1.3417	-0.38333	-0.88125	-1.175	-0.425	-1.0417	-1.0771	-0.42083	-1.1875	-0.62708	-0.50625	-1.1979	128.459	-9.201	4.101	245.872	66.454	226.763	226.676	97.369	57.369	21.143	-77.528	204.885	196.093	194.777	-45.193	209.091	0.00025625	0.0016365	0.00050485	985.98	9.4343e-06	8.6688e-06	641.55	365.93	1.2132e-05	9.0539e-06	231.99	104.02	158.96	74.706	7.5372e-06	49.576	0.01488	0.026555	0.0075611	1045.2	0.00026339	0.00030241	721.03	389.11	0.00026766	0.00030022	280.89	119.43	171.46	79.156	0.00027923	56.564	202.001	-38.342	-62.391	-81.401	103.372	167.273	-82.872	-75.314	161.821	38.068	-79.534	-74.972	-70.893	-67.238	92.295	-71.403	-8191	255	
28687.611	1	1	0	0	0.24801	0.25193	0.053412	0.27953	0.22236	0.03994	0.20189	0.16431	0.12872	0.17187	0.23763	0.25011	0.39342	0.11966	0.069031	0.35808	0.19167	-0.73958	-0.81875	-0.22083	-1.2625	-0.70208	-0.42292	-1.1458	-0.39792	-0.85417	-0.97917	-0.33333	-1.0833	-0.49167	-0.38333	-1.0312	243.471	9.405	7.366	246.246	16.050	63.748	197.370	255.345	210.445	210.623	-88.457	16.533	244.170	-49.230	-60.598	114.783	0.00014947	0.00082882	0.00037888	983.99	1.047e-05	7.0759e-06	638.28	364.72	6.4177e-06	3.4693e-05	233.52	104.32	158.67	74.642	4.7767e-06	50.283	0.014851	0.02644	0.0075003	1045.5	0.00026395	0.00030468	720.66	389.03	0.00026682	0.0003008	281.54	119.81	171.62	79.287	0.00027688	56.958	264.171	123.524	-62.244	-81.102	20.318	3.991	-83.097	-75.756	-80.074	18.926	-79.251	-74.458	-71.163	-66.766	125.620	-71.548	-8191	255	
28687.732	1	1	0	0	0.24893	0.16381	0.11921	0.24602	0.35736	0.29942	0.21392	0.46034	0.16202	0.1069	0.19491	0.23654	0.11149	0.35382	0.074911	0.062226	-0.14375	-0.74375	-0.94375	-0.29583	-0.93333	-0.72083	-0.425	-1.3813	-0.51042	-0.68125	-1.2042	-0.2625	-1.225	-1.1417	-0.47708	-1.3542	27.156	254.765	255.331	255.910	59.754	-8.205	53.064	238.855	-64.484	92.140	134.338	48.656	250.132	193.632	-40.937	221.953	0.00019361	0.00038969	0.00021374	987.64	5.8047e-06	9.7702e-06	640.21	368.41	2.1146e-06	1.095e-05	235.86	105.15	158.95	75.286	1.1629e-05	50.611	0.014848	0.026524	0.0074821	1049.4	0.00026536	0.00030314	725.18	391.09	0.00026949	0.00030017	283.43	120.72	172.32	79.525	0.00028062	57.352	187.307	248.732	26.198	-81.272	20.644	25.451	-83.176	-75.623	124.172	18.727	-78.921	-74.498	-70.946	-66.891	87.985	-71.452	-8191	255	
28687.828	1	1	0	0	0.19136	0.39446	0.13669	0.094213	0.15684	0.068933	0.34666	0.3611	0.10775	0.29447	0.093411	0.074176	0.18779	0.16105	0.093155	0.11689	-0.10417	-0.7125	-1.0104	-0.2625	-0.89583	-0.86667	-0.44375	-1.3479	-0.5375	-0.57292	-1.4708	-0.49583	-1.0917	-1.175	-0.39167	-1.2083	116.735	185.075	244.361	251.541	-62.424	233.663	208.033	204.187	77.741	-88.950	201.950	157.497	218.252	209.649	-58.429	176.610	0.00021757	0.0010738	0.00049017	989.6	7.62e-06	7.2902e-06	650.52	369.22	1.2999e-05	1.1194e-05	237.26	105.63	160.16	75.318	1.5111e-05	50.808	0.015031	0.026722	0.0074958	1052	0.00026795	0.0003037	731.5	393	0.00027217	0.00030203	285.69	121.5	172.84	79.737	0.00028158	57.712	218.368	58.520	-58.766	-81.187	21.970	-34.842	-82.596	-75.483	141.107	68.709	-79.252	-74.396	-71.082	-66.781	19.433	-71.156	-8191	255	
28687.924	1	1	0	0	0.069326	0.034198	0.19636	0.15274	0.10472	0.31423	0.12134	0.48163	0.17574	0.20323	0.24707	0.2489	0.023245	0.30154	0.16384	0.11867	-0.34792	-0.3125	-1.1417	-0.46458	-0.87292	-0.94792	-0.375	-1.2833	-0.56458	-0.37917	-1.2979	-0.33333	-0.91458	-1.35	-0.20208	-1.2229	167.868	246.667	156.799	213.962	193.279	176.924	229.830	215.350	166.906	187.266	196.539	7.989	162.722	-90.106	136.070	-16.118	0.00017539	0.00025205	0.00021471	984.62	1.0814e-05	1.2335e-05	648	369.27	3.7404e-06	4.872e-06	235.6	104.53	159.19	75.145	8.6574e-06	50.42	0.01499	0.026576	0.0075581	1051.7	0.00026636	0.00030359	728.9	391.94	0.00027246	0.00030213	284.27	120.74	172.52	79.549	0.00028305	57.392	235.853	-14.748	259.269	-81.219	77.660	78.401	-83.120	-75.041	17.826	59.355	-79.179	-74.715	-71.060	-66.876	223.408	-71.141	-8191	255	
28688.020	1	1	0	0	0.10607	0.23767	0.10654	0.28003	0.058566	0.12912	0.12858	0.37664	0.30276	0.18183	0.15377	0.19695	0.020562	0.14058	0.050923	0.33007	-0.27708	-0.3375	-1.1333	-0.5375	-0.63542	-1.125	-0.28542	-1.1979	-0.77708	-0.24375	-1.2896	-0.83542	-0.55	-1.2979	-0.30833	-0.89583	86.917	107.452	-4.547	216.625	199.981	42.931	141.034	-92.006	181.065	-91.250	199.511	190.877	-41.873	242.848	226.089	161.912	0.00019833	0.0022643	9.0941e-05	985.47	9.8364e-06	1.9062e-06	645.15	368.49	8.6746e-06	2.0767e-05	235.7	105.23	159.85	75.302	1.775e-06	50.801	0.014938	0.026504	0.0075327	1049.1	0.00026818	0.00030186	727.19	391.71	0.0002692	0.00029907	284.91	121.14	172.84	79.527	0.00028127	57.558	212.424	-75.361	75.460	-81.096	45.965	160.797	-82.721	-75.288	54.376	109.523	-78.825	-74.419	-70.969	-66.485	-22.948	-71.009	-8191	255	
28688.139	1	1	0	0	0.098253	0.065457	0.21812	0.38436	0.38226	0.025996	0.063757	0.28029	0.1291	0.26553	0.22768	0.18532	0.099457	0.12372	0.1695	0.26721	-0.49167	-0.20208	-1.0354	-0.72917	-0.44583	-1.1167	-0.36042	-1.1958	-0.87708	-0.30833	-1.1042	-0.77708	-0.41458	-1.4479	-0.14792	-0.89792	-79.492	88.466	-87.627	255.512	-72.109	-81.151	-22.951	-88.225	226.449	74.152	51.760	-49.595	262.392	236.453	25.134	242.649	5.3587e-05	0.00039026	0.00017047	990.52	1.4387e-05	4.8366e-06	647.95	368.64	7.1318e-06	9.8581e-06	238.16	105.79	160.18	75.441	4.6638e-06	51.033	0.014919	0.026385	0.0075095	1050.9	0.00026623	0.00030214	731.51	392.16	0.0002711	0.00029928	286.39	121.82	172.9	79.695	0.00028467	57.74	192.092	83.098	59.869	-80.911	96.366	79.817	-82.507	-75.112	142.546	27.363	-78.949	-74.580	-70.641	-66.625	203.657	-71.339	-8191	255	
28688.211	1	1	0	0	0.034726	0.20961	0.19201	0.052679	0.069032	0.095329	0.12806	0.23757	0.04905	0.1395	0.23945	0.17397	0.12972	0.36773	0.15811	0.16847	-0.72292	-0.20625	-1.0938	-0.78542	-0.2625	-1.0375	-0.37708	-0.77708	-0.86875	-0.066667	-0.94375	-0.86667	-0.2375	-1.3	-0.36458	-0.58125	-29.378	19.554	114.965	259.588	51.740	188.655	204.637	226.203	73.406	94.261	219.327	127.758	135.711	250.010	176.137	-47.701	0.00024827	0.0014984	0.00043728	987.12	1.283e-05	1.4685e-05	650.16	368.97	4.9471e-06	2.222e-05	238.92	106.46	160.29	75.293	6.5591e-06	50.933	0.014974	0.026719	0.0076158	1053.4	0.00026745	0.00030567	734.66	393.09	0.00027106	0.00030416	287.89	122.5	173.47	79.862	0.00028364	58.226	195.123	-93.282	28.734	-81.054	-68.240	261.873	-82.928	-75.441	75.651	31.489	-78.847	-74.776	-70.921	-66.847	47.106	-71.244	-8191	255	
28688.307	1	1	0	0	0.17191	0.20822	0.11738	0.085271	0.17711	0.11287	0.17026	0.12112	0.088699	0.11891	0.27135	0.24387	0.25476	0.060904	0.33779	0.13418	-0.52292	-0.23542	-0.8375	-0.875	-0.22292	-1.2437	-0.39792	-0.5375	-1.0021	0.016667	-0.87083	-0.93958	-0.34792	-1.3021	-0.475	-0.4875	79.433	-85.229	132.613	113.980	84.584	-45.899	117.414	-59.672	-60.420	110.169	67.177	-66.894	240.820	-18.638	99.933	-51.855	0.00022523	0.0010958	0.00021298	987	5.0912e-06	9.8819e-06	651.99	368.92	1.0646e-05	5.0198e-06	237.28	106.35	160.4	75.055	1.6622e-06	50.556	0.015083	0.027039	0.0076894	1052.2	0.00026938	0.00030779	736.15	393.17	0.00027078	0.00030487	286.84	121.97	173.17	79.671	0.00028573	57.48	215.443	57.586	266.173	-80.918	60.936	-9.871	-83.108	-75.081	54.516	-4.009	-78.907	-74.717	-70.893	-66.492	184.402	-71.576	-8191	255	
28688.428	1	1	0	0	0.22622	0.054456	0.077532	0.1779	0.16177	0.18127	0.33954	0.049934	0.21163	0.083289	0.30202	0.21032	0.26671	0.51175	0.14241	0.12298	-0.59375	0	-0.70833	-1.0187	-0.21875	-1.1812	-0.61458	-0.47708	-1.1354	-0.21042	-0.68333	-0.9	-0.27292	-1.2479	-0.55	-0.38958	206.906	67.450	126.866	161.129	249.735	158.874	216.278	42.387	181.584	23.589	-84.555	244.948	233.023	222.005	13.458	167.280	0.00034312	0.00046808	0.00010741	983.49	4.2453e-06	1.7421e-05	638.75	364.75	4.7528e-06	1.2592e-05	236.33	104.96	158.21	74.377	1.0038e-05	50.347	0.015	0.026962	0.0076676	1047.8	0.0002689	0.00030673	724.92	389.54	0.00026979	0.00030512	284.07	121.06	171.95	79.169	0.00028451	57.238	225.356	102.762	21.958	-80.984	246.417	16.411	-83.134	-75.111	26.054	218.112	-78.885	-74.898	-71.162	-67.088	139.213	-71.394	-8191	255	
28688.523	1	1	0	0	0.19704	0.32547	0.16233	0.13626	0.1334	0.053528	0.13484	0.19893	0.10899	0.034403	0.14806	0.21102	0.19432	0.18691	0.053215	0.28742	-0.84792	-0.31458	-0.5625	-1.1271	-0.1125	-0.84792	-0.83958	-0.45833	-0.8875	-0.44167	-0.43125	-1.0417	-0.34792	-1.1479	-0.76458	-0.31667	117.223	179.471	2.444	-90.889	215.214	28.029	236.265	-87.443	61.395	172.920	-91.439	-58.927	-71.708	265.867	-65.148	188.073	0.00021086	0.0020892	0.0003847	980.87	1.1335e-05	2.391e-05	642.41	366.12	8.9063e-06	1.0085e-05	232.87	105.59	159.01	74.689	9.0985e-07	50.635	0.015033	0.026851	0.0076417	1043.7	0.00026736	0.00030709	725.8	389.78	0.00027179	0.00030629	283.52	121.3	172.28	79.44	0.00028487	57.482	246.707	52.210	60.052	-81.043	68.573	44.273	-83.077	-75.585	117.057	28.069	-78.983	-74.687	-71.378	-66.708	229.747	-71.775	-8191	255	
28688.619	1	1	0	0	0.18566	0.15385	0.15075	0.14214	0.21175	0.090174	0.26885	0.0032375	0.12769	0.12508	0.22967	0.16059	0.056483	0.13941	0.13525	0.11029	-0.71667	-0.43125	-0.43958	-1.0896	0.15417	-0.81458	-1.1667	-0.04375	-1.0417	-0.50833	-0.38958	-1.2188	-0.53958	-1.0708	-0.97083	-0.34167	179.992	73.792	24.104	174.226	5.753	-68.233	5.816	48.855	-31.373	42.897	194.989	-52.044	-69.843	-63.969	29.148	115.677	0.00025151	0.0016301	0.00045936	985.17	8.2365e-06	1.1138e-05	642.09	367.11	1.6742e-06	1.077e-05	237.55	105.3	159.22	74.788	4.352e-06	50.647	0.015101	0.026984	0.0076571	1047.3	0.00027012	0.0003062	728.41	390.72	0.00027351	0.0003056	285.77	121.39	172.26	79.328	0.00028462	57.512	193.402	55.471	-75.477	-81.193	141.778	-6.321	-83.026	-75.387	-40.424	33.375	-78.733	-74.945	-71.155	-66.754	119.238	-71.415	-8191	255	
#DATA ENDS
