BOXY.EXE: ISS Imagent and Oximeter Data Acquisition Program Version 0.80
Ascii Record File

#ACQ INFORMATION
2  Detector Channels 
16  External MUX Channels 
1  Auxiliary Channels 
5000  Waveform (CCF) Frequency (Hz)
1  Waveforms Skipped 
30  Waveforms Averaged 
1  Cycles Averaged 
16  Acquisitions per Waveform 
10.0806  Updata Rate (Hz) 

#FILE INFORMATION
TRUE -- External MUX Channel results are PARSED.
FALSE -- AC DC and Phase are NOT grouped.
TRUE -- Companion Program Settings File CREATED.
FALSE -- AC data not excluded
FALSE -- DC data not excluded
FALSE -- Phase data not excluded
FALSE -- Auxillary Chn. data not excluded
Tab delimiters

#CALIBRATION STATE
TRUE -- Waveform Calibration Values APPLIED.


#AUX CALIBRATION VALUES
Val Type	aux-1	

Term	1.0000e+00	
Factor	0.0000e+00	


#WF CALIBRATION VALUES
A = Detector Channel
Val Type	A-AC1	A-AC2	A-AC3	A-AC4	A-AC5	A-AC6	A-AC7	A-AC8	A-AC9	A-AC10	A-AC11	A-AC12	A-AC13	A-AC14	A-AC15	A-AC16	A-DC1	A-DC2	A-DC3	A-DC4	A-DC5	A-DC6	A-DC7	A-DC8	A-DC9	A-DC10	A-DC11	A-DC12	A-DC13	A-DC14	A-DC15	A-DC16	A-Ph1	A-Ph2	A-Ph3	A-Ph4	A-Ph5	A-Ph6	A-Ph7	A-Ph8	A-Ph9	A-Ph10	A-Ph11	A-Ph12	A-Ph13	A-Ph14	A-Ph15	A-Ph16	

Term	0.00000e+00	0.00000e+00	0.00000e+00	0.00000e+00	0.00000e+00	0.00000e+00	0.00000e+00	0.00000e+00	0.00000e+00	0.00000e+00	0.00000e+00	0.00000e+00	0.00000e+00	0.00000e+00	0.00000e+00	0.00000e+00	0.00000e+00	0.00000e+00	0.00000e+00	0.00000e+00	0.00000e+00	0.00000e+00	0.00000e+00	0.00000e+00	0.00000e+00	0.00000e+00	0.00000e+00	0.00000e+00	0.00000e+00	0.00000e+00	0.00000e+00	0.00000e+00	0.00000e+00	0.00000e+00	0.00000e+00	0.00000e+00	0.00000e+00	0.00000e+00	0.00000e+00	0.00000e+00	0.00000e+00	0.00000e+00	0.00000e+00	0.00000e+00	0.00000e+00	0.00000e+00	0.00000e+00	0.00000e+00	
Factor	1.00000e+00	1.00000e+00	1.00000e+00	1.00000e+00	1.00000e+00	1.00000e+00	1.00000e+00	1.00000e+00	1.00000e+00	1.00000e+00	1.00000e+00	1.00000e+00	1.00000e+00	1.00000e+00	1.00000e+00	1.00000e+00	1.00000e+00	1.00000e+00	1.00000e+00	1.00000e+00	1.00000e+00	1.00000e+00	1.00000e+00	1.00000e+00	1.00000e+00	1.00000e+00	1.00000e+00	1.00000e+00	1.00000e+00	1.00000e+00	1.00000e+00	1.00000e+00	X	X	X	X	X	X	X	X	X	X	X	X	X	X	X	X	

B = Detector Channel
Val Type	B-AC1	B-AC2	B-AC3	B-AC4	B-AC5	B-AC6	B-AC7	B-AC8	B-AC9	B-AC10	B-AC11	B-AC12	B-AC13	B-AC14	B-AC15	B-AC16	B-DC1	B-DC2	B-DC3	B-DC4	B-DC5	B-DC6	B-DC7	B-DC8	B-DC9	B-DC10	B-DC11	B-DC12	B-DC13	B-DC14	B-DC15	B-DC16	B-Ph1	B-Ph2	B-Ph3	B-Ph4	B-Ph5	B-Ph6	B-Ph7	B-Ph8	B-Ph9	B-Ph10	B-Ph11	B-Ph12	B-Ph13	B-Ph14	B-Ph15	B-Ph16	

Term	0.00000e+00	0.00000e+00	0.00000e+00	0.00000e+00	0.00000e+00	0.00000e+00	0.00000e+00	0.00000e+00	0.00000e+00	0.00000e+00	0.00000e+00	0.00000e+00	0.00000e+00	0.00000e+00	0.00000e+00	0.00000e+00	0.00000e+00	0.00000e+00	0.00000e+00	0.00000e+00	0.00000e+00	0.00000e+00	0.00000e+00	0.00000e+00	0.00000e+00	0.00000e+00	0.00000e+00	0.00000e+00	0.00000e+00	0.00000e+00	0.00000e+00	0.00000e+00	-4.62441e+01	-1.32572e+02	-1.29572e+02	-1.81597e+02	-4.15668e+01	-5.83256e+01	-1.56500e+02	-1.62015e+02	-3.67652e+01	-6.24913e+01	-1.72056e+02	-1.69104e+02	-1.85187e+02	-1.76509e+02	-5.71229e+01	-1.48960e+02	
Factor	2.03475e-05	1.44044e-04	3.70300e-05	1.49915e-01	1.81671e-06	1.56856e-06	1.65062e-01	4.98778e-02	1.21743e-06	1.38476e-06	8.58732e-02	2.76831e-02	2.39861e-02	8.83716e-03	1.25044e-06	1.25509e-02	3.11720e-06	3.47186e-06	9.65345e-07	7.81745e-02	3.75463e-08	3.82462e-08	8.07447e-02	2.60758e-02	3.75634e-08	3.82832e-08	4.31824e-02	1.40095e-02	1.25879e-02	4.64319e-03	3.78202e-08	6.36179e-03	X	X	X	X	X	X	X	X	X	X	X	X	X	X	X	X	



#DISTANCE SETTINGS
A = Detector Channel
A-1	A-2	A-3	A-4	A-5	A-6	A-7	A-8	A-9	A-10	A-11	A-12	A-13	A-14	A-15	A-16	

2.5000e+00	3.0000e+00	2.5000e+00	3.0000e+00	2.0000e+00	3.0000e+00	1.5000e+00	3.0000e+00	3.0000e+00	3.0000e+00	3.0000e+00	3.0000e+00	3.0000e+00	3.0000e+00	1.5000e+00	3.0000e+00	

B = Detector Channel
B-1	B-2	B-3	B-4	B-5	B-6	B-7	B-8	B-9	B-10	B-11	B-12	B-13	B-14	B-15	B-16	

1.0000e+01	1.0000e+01	1.0000e+01	1.4400e+00	1.0000e+01	1.0000e+01	1.5100e+00	1.9400e+00	1.0000e+01	1.0000e+01	1.9900e+00	2.4900e+00	2.4100e+00	2.9000e+00	1.0000e+01	2.9800e+00	




#DATA BEGINS
time	group	step	mark	flag	A-AC1	A-AC2	A-AC3	A-AC4	A-AC5	A-AC6	A-AC7	A-AC8	A-AC9	A-AC10	A-AC11	A-AC12	A-AC13	A-AC14	A-AC15	A-AC16	A-DC1	A-DC2	A-DC3	A-DC4	A-DC5	A-DC6	A-DC7	A-DC8	A-DC9	A-DC10	A-DC11	A-DC12	A-DC13	A-DC14	A-DC15	A-DC16	A-Ph1	A-Ph2	A-Ph3	A-Ph4	A-Ph5	A-Ph6	A-Ph7	A-Ph8	A-Ph9	A-Ph10	A-Ph11	A-Ph12	A-Ph13	A-Ph14	A-Ph15	A-Ph16	B-AC1	B-AC2	B-AC3	B-AC4	B-AC5	B-AC6	B-AC7	B-AC8	B-AC9	B-AC10	B-AC11	B-AC12	B-AC13	B-AC14	B-AC15	B-AC16	B-DC1	B-DC2	B-DC3	B-DC4	B-DC5	B-DC6	B-DC7	B-DC8	B-DC9	B-DC10	B-DC11	B-DC12	B-DC13	B-DC14	B-DC15	B-DC16	B-Ph1	B-Ph2	B-Ph3	B-Ph4	B-Ph5	B-Ph6	B-Ph7	B-Ph8	B-Ph9	B-Ph10	B-Ph11	B-Ph12	B-Ph13	B-Ph14	B-Ph15	B-Ph16	aux-1	digaux	

14148.802	1	1	0	768	0.027339	0.15502	0.18656	0.10736	0.28333	0.25275	0.20925	0.30729	0.14805	0.28341	0.26196	0.18134	0.12637	0.25501	0.27315	0.081324	-0.53958	-0.9125	-0.25417	-1.6396	-0.81042	-0.60833	-1.6792	-0.46875	-0.64583	-0.91667	-0.30208	-1.2687	-0.92917	-0.27917	-1.1833	-0.59167	-28.901	30.395	235.278	251.548	34.328	60.575	293.137	256.147	292.684	275.225	272.756	200.066	27.756	-49.529	176.232	222.955	0.00015031	0.00039578	0.00022825	1357.7	7.484e-06	1.4874e-06	1361.1	365.8	2.5071e-06	7.6947e-06	419.34	137.34	119.67	40.791	2.0978e-06	51.158	0.00033994	0.00032981	9.3361e-05	1368.9	3.7363e-06	3.6211e-06	1364.4	371.41	3.6843e-06	3.6413e-06	419.94	140	121.86	41.538	3.5323e-06	51.696	217.404	41.694	39.358	-36.459	172.495	99.145	-36.576	-31.902	176.877	122.766	-32.368	-27.424	-27.364	-22.936	115.960	-23.703	-8191	255	
14148.899	1	1	0	0	0.17104	0.020512	0.11776	0.28218	0.12658	0.26701	0.29359	0.07611	0.15597	0.26826	0.24688	0.31229	0.42999	0.24282	0.15405	0.22518	-0.24375	-1.0125	-0.34583	-1.2292	-0.89792	-0.26875	-1.6146	-0.67083	-0.58542	-1.0812	-0.35625	-1.1125	-1.0667	-0.40625	-1.0479	-0.64792	107.171	306.272	118.633	266.990	142.807	272.605	242.765	168.448	222.375	263.134	271.975	-6.317	-39.248	246.806	193.838	274.281	0.00016618	0.00066806	0.00011349	1362.2	4.3682e-06	4.6213e-06	1353.7	367.48	3.9871e-06	5.1901e-06	417.83	138.28	120.2	40.82	3.5452e-06	50.76	0.00033818	0.00032786	9.2003e-05	1369.4	3.6519e-06	3.5978e-06	1363.7	371.64	3.6651e-06	3.6339e-06	420.45	140.04	122.1	41.533	3.5748e-06	51.662	234.585	43.895	58.531	-36.756	111.143	99.285	-36.393	-31.909	139.367	112.641	-32.783	-27.863	-27.159	-23.234	168.678	-23.694	-8191	255	
14148.995	1	1	0	0	0.05797	0.18444	0.024632	0.21579	0.20978	0.15718	0.020782	0.1884	0.18139	0.13308	0.16218	0.21149	0.16052	0.25916	0.17082	0.052576	-0.0375	-1.2729	-0.29583	-1.1604	-0.9125	-0.22708	-1.4083	-0.78125	-0.56458	-1.1375	-0.6125	-0.80625	-1.1333	-0.41042	-1.1167	-0.59167	51.645	-15.722	286.043	-28.885	304.271	210.092	-37.366	277.105	-4.505	234.876	251.834	-19.482	153.267	-44.916	150.812	5.753	0.00018095	0.00059422	0.00017309	1358.6	2.4147e-06	7.2119e-06	1358.6	366.8	3.4231e-06	3.7422e-06	417.93	137.55	119.8	40.792	4.3656e-06	50.626	0.00033085	0.00033335	9.2054e-05	1366.2	3.6859e-06	3.6985e-06	1364.8	370.9	3.6544e-06	3.6479e-06	420.13	140.24	121.78	41.552	3.718e-06	51.61	221.148	-21.064	17.574	-36.547	189.930	131.403	-36.774	-31.898	119.936	125.495	-32.805	-27.895	-27.162	-23.002	92.296	-23.797	-8191	255	
14149.091	1	1	0	0	0.11596	0.29353	0.41185	0.12918	0.06154	0.17549	0.24938	0.38557	0.17464	0.19136	0.31562	0.12562	0.26178	0.072185	0.070007	0.20164	-0.05	-1.1313	-0.14792	-1.0729	-1.1167	-0.21875	-1.2792	-0.92083	-0.39375	-1.3208	-0.56042	-0.80625	-1.2646	-0.46458	-0.89792	-0.80417	171.212	24.723	75.657	297.519	162.347	209.372	247.839	293.029	278.326	302.305	271.137	-35.144	-6.075	8.129	-11.895	120.134	0.00021116	0.0005027	0.0001001	1354	8.3301e-06	3.1611e-06	1354.3	367.57	2.0197e-06	4.7197e-06	416.87	138.4	120.11	40.871	4.8035e-06	50.76	0.00033475	0.00033245	9.3817e-05	1366.3	3.6605e-06	3.5726e-06	1364	371.39	3.6933e-06	3.6706e-06	419.84	139.97	121.93	41.542	3.6157e-06	51.637	232.426	13.007	21.581	-36.650	137.477	145.643	-36.399	-31.957	235.546	79.739	-32.803	-27.752	-27.346	-23.191	99.824	-24.022	-8191	255	
14149.187	1	1	0	0	0.14399	0.31123	0.28368	0.020383	0.079288	0.12852	0.2412	0.26675	0.19733	0.0099066	0.25329	0.14856	0.28985	0.12669	0.19189	0.18713	-0.09375	-1.0396	-0.41667	-0.60833	-1.1833	-0.43125	-1.1938	-1.175	-0.16875	-1.2354	-0.6875	-0.70417	-1.4042	-0.52917	-0.80833	-1.1208	15.701	46.613	-0.053	96.552	180.547	39.842	290.415	285.301	286.885	217.141	-24.383	287.520	276.040	219.969	287.531	242.556	0.00016457	0.00052127	0.00016395	1355	5.7463e-06	2.787e-06	1350.4	366.43	2.4134e-06	4.2751e-06	416.84	137.16	119.35	40.759	1.4194e-06	50.995	0.00033835	0.00033345	9.3449e-05	1366.3	3.6991e-06	3.6532e-06	1360.7	370.46	3.734e-06	3.6913e-06	419.41	139.82	121.7	41.467	3.6589e-06	51.659	233.556	43.816	23.715	-36.662	138.772	175.699	-36.524	-31.829	147.596	88.351	-32.670	-27.725	-27.167	-22.956	99.899	-23.854	-8191	255	
14149.283	1	1	0	0	0.13626	0.20047	0.29338	0.092873	0.18488	0.21327	0.11371	0.24177	0.16562	0.1554	0.18381	0.037729	0.23153	0.031172	0.18774	0.18138	-0.025	-1.2208	-0.70833	-0.4875	-1.2292	-0.50625	-0.93542	-1.2521	-0.29375	-1.1958	-0.77083	-0.49792	-1.3417	-0.58125	-0.68125	-1.2625	228.110	89.374	85.327	244.676	75.942	253.875	231.079	-48.191	245.476	296.143	194.050	84.451	308.426	214.447	294.820	-8.363	0.00021181	0.00048012	0.00018453	1359.7	1.6484e-06	3.5013e-06	1352.5	366.84	3.0629e-06	5.2703e-06	416.14	137.19	119.75	40.692	5.2256e-06	50.95	0.00033865	0.00033296	9.3815e-05	1364.7	3.7653e-06	3.7005e-06	1360.6	370.82	3.761e-06	3.7484e-06	419.81	139.66	121.74	41.464	3.7716e-06	51.588	236.028	31.219	46.109	-36.518	167.606	142.260	-36.456	-31.784	52.109	53.643	-32.605	-27.599	-27.061	-22.981	133.814	-23.782	-8191	255	
14149.404	1	1	0	0	0.29352	0.048927	0.16731	0.29377	0.32034	0.1797	0.17775	0.09977	0.19017	0.36417	0.071795	0.13742	0.32815	0.25204	0.16034	0.098861	-0.066667	-1.1104	-0.73958	-0.56458	-1.2646	-0.4875	-0.8625	-1.2979	-0.37917	-1.1375	-1.0187	-0.5125	-1.2542	-0.675	-0.62708	-1.525	-42.128	-20.155	5.076	281.609	157.151	-20.198	261.631	283.171	38.354	258.449	256.628	291.249	-1.567	12.766	-6.776	212.505	0.00019442	0.00058011	0.00016005	1354.7	4.7543e-06	4.6032e-06	1354.4	365.4	2.4419e-06	5.4632e-06	415.94	137.62	119.69	40.743	5.1622e-06	51.156	0.00034666	0.00033898	9.4129e-05	1364	3.7798e-06	3.7343e-06	1360.9	370.62	3.7785e-06	3.6913e-06	419.43	139.43	121.66	41.465	3.7871e-06	51.715	216.678	59.260	39.960	-36.653	149.316	113.274	-36.354	-31.935	105.574	98.558	-32.633	-27.577	-27.139	-22.921	118.799	-23.645	-8191	255	
14149.498	1	1	0	0	0.19384	0.23378	0.0038397	0.20975	0.080898	0.16342	0.31745	0.11016	0.097588	0.081176	0.36347	0.29361	0.28977	0.02228	0.085399	0.31829	0.029167	-0.6875	-0.98125	-0.52083	-1.3375	-0.72292	-0.70625	-1.3896	-0.42708	-0.89167	-1.0917	-0.12708	-1.2292	-0.76042	-0.49792	-1.3646	33.826	23.033	280.254	-33.398	243.658	16.720	-42.929	128.010	205.436	87.436	234.001	295.954	-10.092	212.374	235.401	229.617	0.00016125	0.00050438	0.00019114	1357.7	7.6013e-06	6.1813e-06	1351.9	367.06	3.0258e-06	3.5097e-06	418.46	137.79	119.8	40.669	4.4478e-06	50.973	0.0003453	0.00034277	9.4151e-05	1365.5	3.7941e-06	3.7618e-06	1359.8	371.45	3.8633e-06	3.6993e-06	419.88	139.55	121.86	41.472	3.793e-06	51.644	225.583	41.320	45.627	-36.675	98.777	92.084	-36.448	-31.826	152.884	84.141	-32.656	-27.773	-27.102	-22.931	102.476	-23.635	-8191	255	
14149.594	1	1	0	0	0.13176	0.1152	0.072776	0.17955	0.32614	0.29386	0.3122	0.26433	0.27442	0.25325	0.20588	0.27313	0.18673	0.12583	0.18795	0.2913	-0.15	-0.76042	-0.9625	-0.44583	-1.1313	-0.91875	-0.70625	-1.2771	-0.3125	-0.55208	-1.1875	-0.34375	-1.1729	-1.0083	-0.17917	-1.4292	-17.825	52.108	287.728	285.478	238.371	-38.927	206.360	284.892	272.167	12.044	279.868	221.137	207.265	63.353	38.984	-30.943	0.00016291	0.00031168	0.0001537	1354.2	5.8882e-06	5.9678e-06	1353.6	367.32	3.0336e-06	3.44e-06	417.5	136.97	120.11	40.749	3.7671e-06	50.942	0.00034244	0.00033877	9.3685e-05	1363.2	3.7675e-06	3.7359e-06	1360.6	370.69	3.7487e-06	3.7234e-06	419.69	139.38	121.85	41.438	3.7295e-06	51.614	226.067	45.752	68.417	-36.582	140.451	106.322	-36.461	-31.752	196.684	157.856	-32.493	-27.731	-27.199	-23.001	122.730	-23.663	-8191	255	
14149.691	1	1	0	0	0.26976	0.087306	0.29829	0.5043	0.2884	0.16472	0.16755	0.12599	0.10805	0.20931	0.16301	0.34695	0.17651	0.12159	0.1477	0.13798	-0.10208	-0.55833	-1.3167	-0.53542	-1.0229	-0.8375	-0.42292	-1.3854	-0.425	-0.65625	-1.4438	-0.33958	-0.8125	-1.1063	-0.35625	-1.25	145.412	131.389	15.449	-23.422	40.235	160.713	266.161	118.692	188.446	22.772	-26.251	29.501	6.470	-23.060	83.911	111.476	0.00017933	0.00074928	0.00012255	1360.3	1.9978e-06	3.5928e-06	1355	365.94	1.3941e-06	4.3641e-06	416.99	137.35	119.32	40.883	2.4384e-06	50.922	0.00034396	0.00033971	9.462e-05	1365	3.7499e-06	3.7339e-06	1359.8	370.42	3.8196e-06	3.7171e-06	419.71	139.68	121.75	41.511	3.7848e-06	51.689	223.402	21.213	52.685	-36.629	6.275	84.086	-36.630	-31.766	143.301	130.893	-32.423	-27.376	-27.361	-23.011	108.774	-23.758	-8191	255	
14149.787	1	1	0	0	0.048442	0.10695	0.12168	0.15817	0.14179	0.17657	0.40639	0.48823	0.0606	0.42007	0.14002	0.11135	0.26661	0.17145	0.13995	0.19628	-0.29375	-0.45	-1.1146	-0.52708	-0.78958	-1.0667	-0.61458	-1.325	-0.72917	-0.40208	-1.2479	-0.41458	-0.82083	-1.2313	-0.48542	-1.2062	128.970	82.541	58.278	288.874	20.274	44.749	279.466	248.148	202.542	147.847	190.665	229.546	23.722	-30.496	121.575	239.810	0.00018804	0.00034397	0.00011403	1358.4	5.9236e-06	3.5727e-06	1353.9	366.97	1.1438e-06	1.4313e-06	415.68	137.34	119.97	40.678	4.1937e-06	51.015	0.00035018	0.00034473	9.5678e-05	1365.7	3.8212e-06	3.7335e-06	1361.7	371.08	3.8677e-06	3.7243e-06	419.58	139.79	122.05	41.529	3.8134e-06	51.647	226.576	37.239	43.350	-36.592	114.029	123.814	-36.355	-31.689	167.764	54.968	-32.449	-27.369	-27.020	-22.929	66.520	-23.729	-8191	255	
14149.883	1	1	0	0	0.2208	0.14953	0.10207	0.072729	0.029651	0.089213	0.42399	0.16647	0.070893	0.092512	0.026171	0.26615	0.17343	0.18079	0.18781	0.20041	-0.40417	-0.37917	-1.2563	-0.64583	-0.59583	-1.1688	-0.5125	-1.175	-0.61875	-0.39792	-1.4229	-0.60833	-0.625	-1.3042	-0.38333	-1.1042	279.302	101.665	162.949	298.350	243.422	306.380	265.753	230.800	179.670	125.145	292.200	245.190	-9.169	273.288	89.413	207.657	0.00015753	0.0003737	0.00019821	1363.3	2.9622e-06	5.168e-06	1360.8	366.69	3.0583e-06	4.8196e-06	416.76	137.83	120.19	40.93	5.0711e-06	51.11	0.00034924	0.00034528	9.4143e-05	1368.9	3.7894e-06	3.6983e-06	1366.6	371.47	3.7522e-06	3.7656e-06	420.58	140.14	122.4	41.657	3.851e-06	51.844	230.132	55.328	44.820	-36.769	127.099	92.352	-36.569	-31.821	121.603	124.786	-32.531	-27.844	-27.726	-23.296	98.146	-24.031	-8191	255	
14149.979	1	1	0	0	0.18681	0.17398	0.40473	0.18001	0.14088	0.20139	0.40804	0.12302	0.16905	0.25573	0.20047	0.24004	0.233	0.093876	0.34656	0.2762	-0.59792	-0.31875	-1.0417	-0.68542	-0.64792	-1.1354	-0.73333	-1.0625	-0.86875	-0.31042	-1.3042	-0.74167	-0.62708	-1.2333	-0.28125	-1.1	303.701	199.165	-41.022	248.930	179.334	175.537	218.965	277.723	89.039	237.151	-8.198	307.083	234.919	165.314	38.081	184.376	0.00014184	0.00071155	0.00012059	1363.6	1.4366e-06	2.2411e-06	1359.4	368.22	1.7537e-06	5.1017e-06	420.21	137.67	120.23	41.061	1.6517e-06	51.067	0.00034719	0.00034839	9.5547e-05	1372.1	3.858e-06	3.7254e-06	1367.6	372.57	3.8061e-06	3.787e-06	422.15	140.17	122.37	41.729	3.8111e-06	51.841	230.187	59.862	22.852	-36.865	182.799	140.861	-36.587	-32.163	166.738	104.658	-32.924	-27.905	-27.352	-23.136	187.786	-24.109	-8191	255	
14150.100	1	1	0	0	0.19809	0.24448	0.38208	0.34326	0.10433	0.45244	0.35648	0.11526	0.19944	0.13658	0.28678	0.17694	0.1452	0.11099	0.17905	0.39565	-0.875	-0.21667	-1.0458	-0.91458	-0.31458	-1.2437	-0.58333	-0.91042	-1.0917	-0.24792	-1.1104	-0.85	-0.58542	-1.1958	-0.54167	-0.79375	138.727	76.199	77.268	294.075	100.983	34.792	294.801	208.674	216.216	0.184	217.624	287.342	307.860	-13.199	-16.867	273.996	0.00016255	0.00066622	0.00013731	1358	9.2098e-06	4.4979e-06	1363.6	368.68	4.2986e-06	4.8262e-06	421.37	137.92	120.25	40.923	3.4909e-06	51.221	0.00034377	0.00035315	9.4548e-05	1371.4	3.8801e-06	3.7856e-06	1370.1	372.72	3.8382e-06	3.8541e-06	422.97	140.27	122.29	41.743	3.9079e-06	51.963	235.911	52.278	43.520	-36.954	135.058	111.416	-36.745	-32.041	140.088	108.372	-32.639	-27.772	-27.316	-23.197	79.277	-23.712	-8191	255	
14150.196	1	1	0	0	0.046525	0.29105	0.33233	0.23211	0.16612	0.19968	0.28377	0.33313	0.20093	0.27109	0.29087	0.028125	0.37831	0.28964	0.073004	0.085107	-0.76458	-0.30417	-0.93542	-0.95833	-0.59167	-1.3271	-0.82083	-0.72917	-1.2	-0.3625	-0.9875	-0.97917	-0.29375	-1.2167	-0.5125	-0.73958	199.722	69.733	271.531	225.706	167.834	220.063	214.180	271.995	259.105	253.976	247.879	226.728	209.538	258.200	239.563	237.496	0.00020035	0.00050803	0.00016233	1361.9	5.336e-06	6.1272e-06	1362.6	368.23	4.2152e-06	6.8073e-06	419	138.23	120.62	41.032	2.9124e-06	51.308	0.00034794	0.00035135	9.5815e-05	1372.2	3.8878e-06	3.7841e-06	1370.8	372.89	3.8553e-06	3.8465e-06	422.72	140.65	122.68	41.804	3.8543e-06	52.071	232.964	31.520	21.479	-36.723	120.676	114.912	-36.869	-31.843	135.136	85.624	-32.669	-27.780	-27.068	-23.207	105.096	-23.907	-8191	255	
14150.290	1	1	0	0	0.1159	0.13725	0.087167	0.17578	0.12994	0.0409	0.061585	0.21803	0.31285	0.11551	0.2279	0.39168	0.19005	0.063244	0.27193	0.12575	-0.82708	-0.49167	-0.94792	-1.3687	-0.39792	-1.25	-0.85833	-0.62708	-1.2812	-0.31667	-1.0562	-1.2146	-0.41042	-1.2604	-0.73958	-0.50833	40.971	19.751	-29.391	220.595	-22.528	217.912	239.711	189.296	191.327	37.548	289.391	248.157	277.592	-46.507	26.817	285.417	0.00018866	0.00044003	7.841e-05	1366.3	3.8498e-06	6.6935e-06	1367.3	369.3	3.0149e-06	5.4319e-06	420.62	138.4	120.8	41.137	2.5882e-06	51.282	0.00035018	0.00035526	9.6448e-05	1375	3.9417e-06	3.8646e-06	1375.3	373.54	3.8086e-06	3.8867e-06	423.37	140.67	122.84	41.822	3.9178e-06	52.005	228.174	39.252	86.550	-36.703	115.285	106.687	-36.658	-32.032	124.351	118.149	-32.712	-28.005	-27.494	-22.937	107.115	-23.713	-8191	255	
14150.364	1	1	0	0	0.16585	0.24731	0.11136	0.20381	0.22308	0.069645	0.2486	0.19956	0.28534	0.17185	0.37639	0.2567	0.027532	0.18367	0.1757	0.33465	-0.83542	-0.45833	-0.72708	-1.3417	-0.40833	-1.0333	-1.1292	-0.48958	-1.3271	-0.52708	-0.82708	-1.0271	-0.39792	-1.0896	-0.90208	-0.3125	-48.452	187.526	267.751	300.857	17.079	177.615	233.738	-34.409	291.474	70.932	245.508	284.377	261.806	196.178	48.027	-36.515	0.00018177	0.00061673	0.00027545	1372.3	5.7375e-06	4.6625e-06	1368	369.71	2.0145e-06	3.1837e-06	420.15	138.44	120.97	41.279	3.3727e-06	51.317	0.00034818	0.00035309	9.8145e-05	1379.5	3.9208e-06	3.8463e-06	1375.6	373.66	3.8787e-06	3.9161e-06	423.36	140.86	122.9	41.939	3.8571e-06	51.971	226.227	46.471	58.965	-36.704	93.604	76.428	-36.655	-31.923	167.079	152.167	-32.791	-27.641	-27.195	-23.214	123.089	-24.041	-8191	255	
14150.482	1	1	0	0	0.12662	0.22166	0.15814	0.34482	0.20167	0.10309	0.42507	0.26487	0.29273	0.046205	0.21608	0.14119	0.17518	0.12971	0.1094	0.11515	-0.88125	-0.43125	-0.37917	-1.325	-0.43125	-0.95208	-0.9625	-0.41875	-1.1854	-0.37292	-0.6375	-1.3729	-0.24375	-1.0958	-1.0521	-0.35	244.306	83.113	-47.759	273.602	-4.730	-34.811	256.551	298.661	221.291	72.489	212.565	225.601	223.428	270.993	181.828	252.183	0.00018607	0.00060181	4.3874e-05	1375	4.892e-06	5.4321e-06	1368.8	369.39	2.9861e-06	3.4529e-06	420.5	138.09	121.12	41.143	5.6226e-06	51.223	0.00035263	0.00035606	9.9477e-05	1380.4	3.9652e-06	3.8437e-06	1378	374.16	3.9446e-06	3.8994e-06	424.01	140.76	122.92	41.892	3.8614e-06	52.006	238.273	57.147	21.869	-36.957	171.801	124.423	-36.647	-32.134	131.080	112.437	-32.933	-27.946	-27.453	-22.962	112.193	-23.883	-8191	255	
14150.579	1	1	0	0	0.074923	0.093116	0.21394	0.16559	0.20861	0.084161	0.31402	0.27297	0.10233	0.15245	0.36991	0.22496	0.040996	0.21156	0.16118	0.29992	-0.8125	-0.67083	-0.066667	-1.4958	-0.36667	-0.8875	-1.3333	-0.41458	-1.1021	-0.71042	-0.43125	-1.2167	-0.64167	-0.64375	-1.1938	-0.325	155.713	178.202	69.656	215.010	275.010	59.418	303.482	247.396	187.492	35.803	283.495	288.873	86.045	308.434	260.124	291.670	0.00017771	0.00030746	0.00011208	1369.9	2.7308e-06	3.9002e-06	1373.2	369.86	1.9967e-06	4.2943e-06	421.99	138.9	120.63	41.124	2.6753e-06	51.42	0.00035835	0.00035938	9.9469e-05	1382	3.9503e-06	3.89e-06	1379.9	374.54	3.9368e-06	3.961e-06	424.3	141.12	122.97	42.008	3.8784e-06	52.142	226.476	34.626	31.390	-36.836	140.774	106.781	-36.699	-31.846	95.001	130.645	-32.549	-27.747	-27.221	-23.066	98.136	-23.523	-8191	255	
14150.675	1	1	0	0	0.17505	0.17989	0.059263	0.26189	0.31337	0.13933	0.18849	0.15913	0.213	0.21815	0.076527	0.46753	0.23051	0.10386	0.093671	0.19545	-0.57083	-0.73542	-0.24167	-1.4396	-0.36875	-0.80417	-1.35	-0.34792	-0.81458	-0.85208	-0.37917	-1.1646	-0.6625	-0.66042	-1.0104	-0.45208	144.041	20.440	-7.928	-39.381	231.105	139.312	169.710	209.110	255.313	159.687	-9.974	273.986	-44.557	268.351	291.540	249.502	0.00014815	0.00047532	0.00011294	1376.1	3.0548e-06	7.8554e-06	1375.4	369.49	3.4911e-06	6.4339e-06	421.43	138.72	121.22	41.247	2.3378e-06	51.441	0.00035228	0.00035842	9.8876e-05	1384.4	3.9338e-06	3.8598e-06	1380.7	374.51	3.9507e-06	3.9563e-06	424.68	141.39	123.17	41.999	3.8467e-06	52.187	235.603	48.786	47.019	-36.715	139.059	103.173	-36.637	-31.786	126.973	125.905	-32.554	-27.625	-27.280	-23.081	79.320	-23.780	-8191	255	
14150.795	1	1	0	0	0.15579	0.15394	0.24912	0.2236	0.16276	0.36184	0.18255	0.22688	0.17839	0.18169	0.18075	0.075998	0.32186	0.41726	0.09369	0.18885	-0.4625	-0.86458	-0.060417	-1.4021	-0.63125	-0.5125	-1.4833	-0.54583	-0.72292	-1.0625	-0.38958	-1.2333	-0.74375	-0.60417	-1.1167	-0.34792	22.349	15.372	-13.399	256.407	279.269	173.649	261.314	300.315	290.323	273.082	151.492	78.034	23.848	292.255	270.521	183.957	0.00017944	0.00037493	5.2199e-05	1377.2	3.1559e-07	5.0237e-06	1378.3	370.12	4.1229e-06	3.1113e-06	421.97	139	121.56	41.222	3.021e-06	51.421	0.00035094	0.0003469	9.8113e-05	1385.3	3.9163e-06	3.8735e-06	1383.7	374.47	3.932e-06	3.8247e-06	424.99	141.76	123.25	41.974	3.8962e-06	52.166	229.790	56.902	40.421	-36.769	118.734	124.223	-36.461	-32.040	148.121	126.653	-32.622	-27.819	-27.451	-23.258	139.082	-23.720	-8191	255	
14150.892	1	1	0	0	0.10806	0.15793	0.031212	0.41662	0.1589	0.14793	0.37064	0.12469	0.20388	0.058915	0.21786	0.53956	0.065381	0.12922	0.32513	0.15274	-0.17917	-0.88958	-0.2125	-1.3125	-0.59167	-0.44583	-1.4146	-0.61875	-0.69167	-1.0854	-0.32083	-1.1396	-1.1333	-0.2375	-0.99167	-0.61042	-39.213	285.818	-16.779	269.845	234.989	-5.068	243.400	277.766	275.623	110.675	-25.229	226.969	288.973	-31.134	298.312	173.391	0.00016915	0.00025918	0.00012899	1378.1	4.094e-06	2.7033e-06	1375.3	371.04	3.8797e-06	6.7577e-06	422.08	139.52	122.03	41.39	6.3238e-06	51.621	0.00035222	0.00035243	9.9823e-05	1386.5	3.9176e-06	3.8873e-06	1385.3	375.59	3.9384e-06	3.8767e-06	425.89	141.92	123.67	42.137	3.9471e-06	52.357	216.642	35.329	50.568	-36.783	153.818	144.202	-36.495	-31.957	134.520	129.494	-32.804	-27.662	-27.249	-23.128	134.183	-23.878	-8191	255	
14150.963	1	1	0	0	0.080795	0.23325	0.1935	0.2273	0.06655	0.28034	0.23275	0.18162	0.19176	0.12791	0.1748	0.31518	0.25155	0.13922	0.23215	0.25686	-0.22292	-0.89583	-0.22917	-1.0833	-0.96667	-0.34375	-1.3417	-0.59792	-0.49375	-1.3062	-0.29583	-1.0042	-1.1583	-0.26042	-1.0104	-0.72292	29.935	28.000	116.844	-36.457	95.391	237.655	230.680	300.957	280.676	53.461	-22.258	295.248	-49.885	224.381	132.735	263.549	0.00017391	0.00058952	8.6645e-05	1377.9	4.675e-06	3.994e-06	1382.5	372.37	3.2298e-06	3.7172e-06	424.31	139.64	121.32	41.551	3.7346e-06	51.582	0.00035407	0.00035322	0.0001015	1388.8	3.9467e-06	3.9544e-06	1388.5	376.5	3.9139e-06	3.8592e-06	427.32	142	123.76	42.241	3.9023e-06	52.347	216.909	21.866	93.028	-36.557	131.314	118.090	-36.515	-31.989	99.150	126.670	-32.715	-27.547	-27.545	-22.796	143.832	-23.830	-8191	255	
14151.084	1	1	0	0	0.29987	0.11771	0.11953	0.32038	0.099254	0.098885	0.40237	0.35041	0.10651	0.18454	0.30878	0.30371	0.22448	0.15439	0.24211	0.064355	0.041667	-1.1458	-0.375	-1.0104	-0.99792	-0.32292	-1.2729	-0.76042	-0.24583	-1.0312	-0.49583	-0.89167	-1.2437	-0.08125	-1.1812	-0.79167	123.920	-35.431	169.108	304.355	118.064	-44.754	252.444	-27.118	-22.206	186.051	213.000	244.731	165.673	263.976	221.550	218.080	0.00014458	0.0005968	7.1295e-05	1383.5	4.9076e-06	4.7135e-06	1381.5	372.6	3.2612e-06	5.7474e-06	424.44	139.93	121.54	41.467	2.1815e-06	51.836	0.00036026	0.00035613	0.00010027	1390.5	3.8969e-06	3.9556e-06	1389	376.17	3.955e-06	3.8917e-06	427.03	142.14	123.89	42.212	3.9221e-06	52.52	218.151	21.501	-8.610	-36.606	154.340	96.873	-36.412	-31.897	153.333	124.580	-32.532	-27.610	-27.191	-23.141	94.288	-23.962	-8191	255	
14151.180	1	1	0	0	0.1326	0.14347	0.139	0.095025	0.2722	0.091451	0.13003	0.40715	0.19073	0.020152	0.21862	0.29016	0.32733	0.12733	0.22017	0.22362	-0.045833	-1.125	-0.3625	-0.86458	-1.1896	-0.27292	-1.3958	-1.0917	-0.53125	-1.2167	-0.57083	-0.75625	-1.2396	-0.40833	-0.93333	-0.92708	-30.340	-8.370	214.731	259.515	206.798	170.249	221.600	260.030	-7.555	103.618	-27.655	275.855	-46.463	307.363	205.507	152.273	0.00017333	0.00054615	9.8286e-05	1385.3	5.9587e-06	5.185e-06	1382.6	372.1	3.115e-06	5.8433e-06	423.3	139.75	122.42	41.565	3.0848e-06	51.716	0.00035561	0.00036245	0.00010022	1391.5	3.9249e-06	3.9335e-06	1389	376.53	3.9287e-06	3.9358e-06	426.12	142.35	124.1	42.287	3.9235e-06	52.474	220.709	23.234	7.540	-36.685	187.478	82.685	-36.478	-31.811	138.104	106.445	-32.951	-27.704	-27.380	-22.876	148.280	-24.049	-8191	255	
14151.276	1	1	0	0	0.22727	0.30611	0.16363	0.48056	0.070607	0.25225	0.37367	0.12953	0.2887	0.12922	0.087932	0.11593	0.22726	0.21612	0.35341	0.15156	0.05	-1.1354	-0.56667	-0.84167	-1.1313	-0.18958	-1.2938	-1.1187	-0.18333	-1.0646	-0.80208	-0.76875	-1.3958	-0.24792	-0.78958	-1.1625	264.471	147.779	130.950	281.774	280.217	163.587	215.167	257.801	298.990	206.770	269.258	245.013	-30.556	162.822	305.787	248.244	0.0001387	0.00043988	0.00018029	1377.7	7.5124e-06	6.8438e-06	1381.5	372.81	4.4246e-06	4.5855e-06	424.81	139.72	121.83	41.612	5.6974e-06	51.97	0.00036019	0.00035846	9.9953e-05	1389.2	3.9668e-06	3.9273e-06	1389.2	376.72	3.9776e-06	3.9229e-06	426.88	142.36	123.95	42.288	3.9135e-06	52.495	234.857	45.020	71.425	-36.575	112.345	94.145	-36.487	-31.994	110.645	78.416	-32.698	-27.708	-27.184	-23.194	124.814	-23.833	-8191	255	
14151.395	1	1	0	0	0.38878	0.10034	0.15318	0.37341	0.19801	0.32463	0.35167	0.2571	0.084173	0.23963	0.1083	0.11394	0.12564	0.16305	0.19631	0.090527	0.1125	-1.1354	-0.69583	-0.64375	-1.2896	-0.375	-0.93958	-1.1938	-0.0375	-0.95	-0.82292	-0.48125	-1.1833	-0.53125	-0.50625	-1.0979	44.663	258.902	-28.639	245.896	127.125	288.210	242.925	267.102	187.547	236.867	286.604	237.216	289.508	43.289	178.564	-15.376	0.00019877	0.00017867	0.00013338	1381.7	1.1879e-06	2.4983e-06	1384.8	373.03	4.4098e-06	4.6988e-06	422.94	140.07	121.97	41.444	2.4031e-06	51.713	0.00036332	0.00035678	9.8608e-05	1389.7	4.0229e-06	3.9644e-06	1388.5	376.76	4.0027e-06	3.892e-06	427.09	142.26	124.03	42.24	3.8332e-06	52.433	231.493	98.576	42.654	-36.608	199.785	107.238	-36.550	-31.977	103.623	112.560	-32.774	-27.711	-27.347	-23.219	115.219	-23.992	-8191	255	
14151.491	1	1	0	0	0.14368	0.20822	0.32046	0.080861	0.12919	0.35493	0.33795	0.21347	0.017232	0.23633	0.17299	0.26896	0.16478	0.20036	0.01582	0.016413	0.17292	-0.8125	-0.74583	-0.42083	-1.0229	-0.63125	-0.68333	-1.2792	-0.19792	-1.025	-0.9375	-0.36042	-1.1958	-0.53333	-0.54375	-1.5063	89.296	191.024	281.776	268.046	187.913	1.942	274.870	258.852	174.139	290.829	291.008	33.910	-36.034	264.624	48.285	46.152	0.00016502	0.00080364	0.00017779	1381	6.8804e-06	5.7499e-06	1376.1	372.81	1.9118e-06	2.6756e-06	422.89	139.68	121.97	41.763	3.9261e-06	51.774	0.00035142	0.00035167	9.7452e-05	1390.8	3.8778e-06	3.8378e-06	1388.4	376.85	3.9466e-06	3.8585e-06	426.6	142.48	124.07	42.278	3.8946e-06	52.441	215.310	37.233	24.713	-36.628	136.305	107.324	-36.599	-32.037	205.700	-11.934	-32.535	-27.691	-27.281	-23.167	129.655	-24.001	-8191	255	
14151.587	1	1	0	0	0.24121	0.32466	0.15288	0.30439	0.14094	0.29005	0.2788	0.047527	0.13842	0.074958	0.32189	0.33207	0.17563	0.077713	0.16741	0.35469	0.066667	-1.0625	-0.86042	-0.53542	-1.2292	-0.69167	-0.67292	-1.4833	-0.35	-0.75833	-1.3042	-0.2125	-1.3021	-0.89583	-0.22083	-1.4458	182.251	35.991	92.226	258.870	118.255	61.130	-49.421	229.021	-42.474	161.137	118.177	263.014	192.479	274.582	20.166	285.375	0.00018444	0.00077599	6.562e-05	1381.8	1.8364e-06	5.269e-06	1385.2	372.98	3.1607e-06	4.0574e-06	424.07	140.02	122.29	41.695	2.9535e-06	51.708	0.00035744	0.00035248	9.6201e-05	1390.3	3.8785e-06	3.9037e-06	1388.5	376.99	3.871e-06	3.8201e-06	426.8	142.51	124.12	42.393	3.8439e-06	52.598	225.973	38.514	41.994	-36.700	79.483	103.000	-36.536	-31.939	164.339	105.382	-32.719	-27.724	-26.990	-23.046	130.767	-23.995	-8191	255	
14151.659	1	1	0	0	0.13414	0.15411	0.22354	0.28112	0.021158	0.18629	0.41961	0.21981	0.11781	0.068696	0.20496	0.15071	0.37184	0.073446	0.16076	0.19963	0.039583	-0.69792	-1.2167	-0.2625	-0.96667	-0.76667	-0.54167	-1.3792	-0.28542	-0.53958	-1.2563	-0.58125	-1.1167	-0.9875	-0.28333	-1.2479	144.426	110.263	282.660	301.820	295.478	-10.564	285.322	226.829	301.143	263.346	254.532	221.848	-15.943	98.547	-23.028	-6.311	0.00017581	0.0005269	0.00011601	1384.1	8.956e-06	6.2104e-06	1377.5	373.94	1.6602e-06	5.6871e-06	424.37	140.22	122.3	41.549	1.9404e-06	51.881	0.00035733	0.00034863	9.5813e-05	1392.1	3.8442e-06	3.8101e-06	1388.4	377.08	3.9557e-06	3.9339e-06	427.49	142.48	124.18	42.318	3.9278e-06	52.592	230.913	62.643	25.614	-36.544	151.557	136.835	-36.355	-31.704	139.866	72.099	-32.701	-27.651	-27.180	-23.054	151.413	-23.780	-8191	255	
14151.780	1	1	0	0	0.12846	0.13573	0.33081	0.35517	0.12483	0.20879	0.18792	0.26853	0.10749	0.23826	0.31877	0.053434	0.095231	0.07892	0.23287	0.13562	-0.04375	-0.25833	-1.1292	-0.44792	-1.0104	-0.95833	-0.45208	-1.2667	-0.54167	-0.51667	-1.1646	-0.53125	-1.0667	-1.2604	-0.18958	-1.2083	156.307	151.479	171.259	238.925	225.538	152.597	-46.832	270.423	28.571	28.381	238.600	52.103	-36.682	102.662	119.506	266.295	0.00015322	0.00069242	0.00011212	1382.2	3.776e-06	7.4069e-06	1384.5	372.6	1.2786e-06	4.4451e-06	424.5	139.9	122.46	41.526	3.5294e-06	51.888	0.00035863	0.00035553	0.0001001	1391.7	3.8592e-06	3.8869e-06	1388.7	376.92	3.8771e-06	3.8949e-06	427.05	142.35	124.36	42.284	3.9298e-06	52.639	230.782	38.882	57.933	-36.464	144.574	129.288	-36.584	-32.034	121.038	100.146	-32.812	-27.967	-27.219	-23.276	105.811	-23.875	-8191	255	
14151.876	1	1	0	0	0.11974	0.27409	0.11988	0.53893	0.32232	0.19381	0.17563	0.17727	0.24914	0.15455	0.37204	0.14117	0.1299	0.16283	0.079074	0.066225	-0.30417	-0.30625	-1.2354	-0.41875	-0.71458	-1.0438	-0.42708	-1.1417	-0.66875	-0.48333	-1.4042	-0.68125	-0.86667	-1.275	-0.14792	-1.1271	82.181	122.961	3.066	-46.314	180.911	240.065	36.152	252.453	-21.684	-49.487	200.566	269.332	289.952	-36.626	99.131	277.995	0.00018333	0.00073435	0.00017125	1380.8	4.4428e-06	3.4776e-06	1386.5	372.44	2.938e-06	5.8101e-06	424.75	140.19	122	41.575	5.0013e-06	52.015	0.00035509	0.00035374	9.797e-05	1390.9	3.7969e-06	3.8531e-06	1391.6	377.26	3.8866e-06	3.9443e-06	428.13	142.55	124.17	42.381	3.9592e-06	52.734	216.317	57.664	33.498	-36.848	148.741	100.910	-36.621	-32.027	107.962	93.619	-32.615	-28.001	-27.578	-23.515	131.712	-24.175	-8191	255	
14151.972	1	1	0	0	0.14513	0.13845	0.15219	0.20069	0.30057	0.13674	0.15093	0.25743	0.081616	0.16638	0.18658	0.18663	0.13433	0.14507	0.095228	0.23379	-0.15625	-0.27083	-0.97917	-0.53125	-0.54375	-1.1833	-0.55208	-1.0438	-0.875	-0.37083	-1.3958	-0.71875	-0.68333	-1.3604	-0.31875	-1.0479	72.646	232.539	16.994	282.876	186.495	201.107	227.051	238.416	176.082	-40.980	-47.334	246.640	209.529	309.555	-34.930	170.065	0.00020103	0.00038938	0.00022092	1381.5	1.0687e-06	5.1714e-06	1377	372.24	5.0385e-06	3.6166e-06	423.54	140.64	121.94	41.317	4.4059e-06	51.768	0.00035935	0.00036375	9.9768e-05	1390.6	3.9045e-06	3.9511e-06	1388.4	376.8	3.9892e-06	3.9102e-06	427.92	142.54	124.12	42.255	3.9604e-06	52.627	223.369	39.154	47.164	-37.066	140.067	105.888	-36.932	-32.191	132.512	94.495	-32.777	-28.139	-27.565	-23.504	115.881	-24.115	-8191	255	
14152.068	1	1	0	0	0.15718	0.25819	0.22959	0.27869	0.15303	0.059178	0.095348	0.24389	0.27494	0.052602	0.19546	0.10283	0.20645	0.10108	0.13006	0.12475	-0.61042	-0.28125	-1.1271	-1.0187	-0.37917	-1.1458	-0.53125	-0.98958	-0.99375	-0.2625	-1.1792	-0.80208	-0.41458	-1.3354	-0.49792	-0.65833	287.716	79.367	38.816	260.571	239.272	241.778	172.864	260.252	111.181	-29.237	216.402	170.808	290.070	285.862	295.257	201.826	0.00017251	0.0006615	0.00012237	1382	7.1355e-06	3.0656e-06	1381.8	372.17	1.7577e-06	4.783e-06	423.79	139.67	122.26	41.788	3.3471e-06	51.806	0.00035821	0.00036766	9.9591e-05	1392.8	4.0573e-06	3.9092e-06	1389.4	376.79	3.9921e-06	3.985e-06	427.3	142.37	124.49	42.455	3.987e-06	52.61	222.602	58.480	15.607	-37.029	144.926	150.092	-37.047	-32.077	162.777	125.200	-32.910	-28.072	-27.425	-23.655	100.133	-23.954	-8191	255	
14152.187	1	1	0	0	0.2231	0.12133	0.11467	0.2937	0.074341	0.15536	0.083286	0.18026	0.28954	0.28221	0.42053	0.064014	0.1896	0.15429	0.11917	0.19657	-0.70833	-0.20833	-1.0521	-0.99583	-0.19167	-1.2417	-0.70417	-1.0104	-1.225	-0.21875	-1.0646	-0.69583	-0.37917	-1.3312	-0.54583	-0.59583	43.287	132.642	135.858	304.830	20.678	198.963	231.698	-24.244	3.189	138.402	262.272	271.988	283.750	251.216	91.059	251.768	0.00018913	0.00067349	9.5608e-05	1384.9	6.6666e-06	6.2788e-06	1380.5	374.8	7.0925e-07	3.7031e-06	424.1	140.17	122.28	41.622	2.2517e-06	51.81	0.00036623	0.0003579	9.7707e-05	1392.4	4.0186e-06	3.8935e-06	1388.5	377.69	3.9799e-06	3.9657e-06	427.46	142.48	124.27	42.429	4.0148e-06	52.616	214.157	-10.373	2.574	-36.997	136.191	129.821	-36.858	-32.368	46.748	145.773	-32.783	-27.846	-27.576	-23.252	77.857	-24.353	-8191	255	
14152.260	1	1	0	0	0.094473	0.16385	0.20318	0.20145	0.090853	0.13133	0.19559	0.10959	0.13628	0.10352	0.05208	0.34047	0.063273	0.21613	0.033497	0.13542	-0.66458	-0.17917	-0.86875	-0.94375	-0.24792	-1.075	-0.71875	-0.66667	-1.0187	-0.20417	-0.99167	-1.0187	-0.45833	-1.2854	-0.63958	-0.48125	194.139	194.626	5.115	270.831	224.049	200.459	262.640	69.052	134.385	277.920	202.576	301.638	150.730	250.536	192.472	144.252	0.00014588	0.0006395	0.00010933	1382.4	6.3985e-06	5.029e-06	1384.7	373.68	2.4111e-06	2.3368e-06	426.25	140.3	122.33	41.671	5.2444e-06	51.919	0.00036384	0.00036418	9.9626e-05	1392.9	3.9865e-06	3.8815e-06	1390.5	377.38	3.9568e-06	4.0239e-06	428.78	142.47	124.37	42.416	3.9171e-06	52.698	241.386	1.559	13.032	-37.054	130.955	66.000	-37.016	-32.189	151.458	98.567	-32.811	-27.834	-27.389	-23.469	109.283	-24.045	-8191	255	
14152.357	1	1	0	0	0.091522	0.19692	0.13215	0.25203	0.066365	0.18435	0.38244	0.36312	0.17614	0.024668	0.13187	0.40782	0.18714	0.13902	0.19627	0.17743	-0.81458	-0.36458	-0.78958	-1.2125	-0.30208	-1.1021	-0.7875	-0.58125	-1.1625	-0.23958	-0.925	-1.1354	-0.17292	-1.2563	-0.68958	-0.35833	261.758	-11.463	134.684	-45.757	-37.371	117.871	242.388	264.656	81.494	-22.802	273.897	240.879	126.933	106.074	241.541	270.620	0.00018391	0.00082288	0.00019243	1382.7	6.3144e-06	3.8262e-06	1385.1	373.96	3.6443e-06	6.2993e-06	425.84	140.09	122.39	41.636	4.0912e-06	52.1	0.00035625	0.00035991	9.8699e-05	1393.4	3.9438e-06	3.873e-06	1392	377.66	3.9506e-06	3.9739e-06	428.01	142.5	124.52	42.428	3.9519e-06	52.673	223.736	53.876	36.780	-36.658	143.326	67.581	-36.834	-31.839	141.749	105.524	-32.488	-28.028	-27.322	-22.892	168.610	-24.088	-8191	255	
14152.475	1	1	0	0	0.12818	0.16866	0.19126	0.1532	0.22839	0.21598	0.33648	0.1534	0.22798	0.074413	0.32963	0.12717	0.15327	0.38446	0.29001	0.077547	-0.82708	-0.42292	-0.61667	-1.2896	-0.21458	-1.0729	-0.81667	-0.4625	-1.1479	-0.38542	-0.87083	-1.1646	-0.37917	-1.1979	-0.9	-0.18958	196.147	-25.035	-2.086	-46.106	223.846	-28.745	294.436	248.961	267.796	-20.647	303.548	86.713	213.562	298.299	234.674	194.745	0.00016952	0.00052813	0.00013226	1386	4.3075e-06	2.9553e-06	1378.7	373.81	3.7824e-06	4.7294e-06	426.52	140.54	122.64	41.555	1.8829e-06	51.911	0.00034851	0.00035645	9.795e-05	1396.4	3.8659e-06	3.7963e-06	1391.5	377.9	3.8977e-06	3.882e-06	428.75	142.74	124.47	42.457	3.8624e-06	52.714	207.534	26.049	37.463	-36.979	142.751	99.746	-36.890	-32.199	130.498	113.819	-32.825	-27.796	-27.557	-23.259	78.491	-23.867	-8191	255	
14152.572	1	1	0	0	0.23699	0.22483	0.094841	0.16642	0.2535	0.27797	0.017977	0.21615	0.33097	0.15491	0.17488	0.14584	0.57441	0.32102	0.12971	0.14988	-0.88125	-0.43333	-0.60625	-1.3896	-0.18125	-0.8375	-1.1917	-0.42708	-1.0375	-0.7	-0.40833	-1.3521	-0.3625	-0.76458	-1.0729	-0.26875	-40.870	88.092	-48.509	261.789	145.797	97.519	25.656	198.712	118.424	-49.158	237.905	235.526	275.128	-22.526	-44.777	-5.222	0.00015205	0.00034667	4.1075e-05	1380.5	1.0472e-05	2.9123e-06	1386.7	373.64	4.2394e-06	6.6133e-06	425.62	139.9	121.79	41.704	4.6644e-06	51.975	0.00035292	0.00035095	9.901e-05	1394.6	3.9079e-06	3.7609e-06	1391.8	377.61	3.8434e-06	3.8968e-06	428.06	142.57	124.32	42.497	3.8972e-06	52.632	223.359	-7.802	53.090	-36.838	120.300	136.963	-36.783	-31.972	185.662	117.961	-32.559	-27.824	-27.434	-23.140	135.670	-24.101	-8191	255	
14152.668	1	1	0	0	0.17887	0.15287	0.31124	0.11956	0.040977	0.32578	0.31687	0.053512	0.097845	0.11258	0.078575	0.032793	0.18667	0.10265	0.051421	0.16579	-0.75208	-0.44375	-0.19792	-1.5458	-0.17917	-0.5625	-1.2354	-0.35208	-1.1437	-0.85208	-0.61667	-1.2188	-0.42292	-0.66875	-1.1583	-0.33333	148.781	71.847	140.517	-12.076	84.104	10.145	248.266	233.776	227.146	109.970	231.687	213.582	260.565	-47.527	-47.810	151.079	0.00016708	0.00073772	0.00018503	1386.6	5.0625e-06	5.692e-06	1381.2	375.1	2.9944e-06	3.5871e-06	424.35	140.24	122.24	41.682	4.7916e-06	51.633	0.00035685	0.00034995	9.9443e-05	1396	3.9203e-06	3.7896e-06	1389.4	377.88	3.9353e-06	3.826e-06	427.55	142.45	124.14	42.388	3.8136e-06	52.496	238.350	37.028	69.453	-36.779	149.364	123.201	-36.956	-32.358	177.939	92.482	-32.898	-27.967	-27.752	-23.252	155.100	-24.232	-8191	255	
14152.764	1	1	0	0	0.08224	0.22972	0.091982	0.36167	0.26522	0.18522	0.2895	0.030181	0.21601	0.22684	0.16985	0.052055	0.32296	0.14729	0.30873	0.059032	-0.64792	-0.75208	-0.33542	-1.4667	-0.62708	-0.575	-1.25	-0.51458	-0.92292	-1.0208	-0.53542	-1.2917	-0.65625	-0.49375	-1.3687	-0.27708	194.785	194.888	15.232	-32.393	15.538	49.440	224.736	27.304	212.199	112.140	-39.636	-32.457	305.040	6.998	154.487	206.720	0.00018079	0.00058862	0.00012777	1383.1	6.4513e-06	6.3831e-06	1380.9	372.67	3.1094e-06	5.321e-06	427.09	139.93	122.55	41.48	3.8624e-06	51.858	0.00034941	0.00034667	9.7393e-05	1393.6	3.873e-06	3.8868e-06	1388.9	377.38	3.8687e-06	3.9724e-06	428.97	142.39	124.22	42.314	3.7937e-06	52.547	225.053	11.383	23.040	-36.944	126.206	83.666	-36.871	-32.068	142.858	129.021	-32.931	-28.034	-27.667	-23.153	107.638	-24.289	-8191	255	
14152.860	1	1	0	0	0.052577	0.25109	0.12031	0.18096	0.28915	0.36001	0.25697	0.11692	0.16763	0.043089	0.10176	0.28839	0.22965	0.11477	0.17209	0.024932	-0.5625	-0.95	-0.21042	-1.4958	-0.66042	-0.53333	-1.4292	-0.56042	-0.975	-0.97917	-0.5125	-1.3021	-0.9	-0.40833	-1.1417	-0.56042	264.698	-13.387	-42.508	-36.547	46.998	4.056	260.408	216.987	279.778	52.460	37.497	244.086	32.940	184.693	22.443	251.032	0.00019816	0.00062399	2.2666e-05	1388.5	8.3262e-06	4.1588e-06	1384	373.11	5.3812e-06	2.6737e-06	425.42	140.09	122.8	41.796	2.4491e-06	51.676	0.00035155	0.00035084	9.6076e-05	1394.1	3.8126e-06	3.8227e-06	1389.7	377.73	3.8074e-06	3.7643e-06	427.46	142.54	124.3	42.453	3.8336e-06	52.579	220.967	66.474	145.655	-36.788	172.684	160.384	-36.644	-32.030	98.566	110.559	-32.667	-27.604	-27.640	-23.022	87.767	-23.828	-8191	255	
14152.956	1	1	0	0	0.13621	0.25085	0.30919	0.29195	0.18226	0.057847	0.17409	0.104	0.058505	0.10866	0.18338	0.099682	0.36205	0.1565	0.089487	0.2785	-0.4125	-0.9875	-0.047917	-1.3521	-0.70625	-0.3	-1.5875	-0.50417	-0.57083	-1.1167	-0.3875	-1.1521	-1.0854	-0.42083	-1.1187	-0.64167	171.960	162.105	131.880	241.321	194.090	305.753	256.065	214.541	-41.665	-40.134	182.974	200.720	-47.878	-6.805	39.218	190.045	0.00024921	0.00052516	0.00011647	1381.8	3.5724e-06	3.4208e-06	1385.4	373.3	3.0568e-06	4.4116e-06	425.09	140.46	122.13	41.58	5.1527e-06	52.054	0.00034572	0.00033984	9.4576e-05	1392.8	3.816e-06	3.7439e-06	1390.8	377.63	3.7307e-06	3.7785e-06	428.1	143.01	124.4	42.437	3.6997e-06	52.831	230.426	25.438	13.680	-36.716	210.813	66.155	-36.567	-32.147	115.961	105.957	-32.686	-27.778	-27.211	-23.256	131.580	-24.132	-8191	255	
14153.077	1	1	0	0	0.18355	0.26585	0.12185	0.045731	0.070722	0.28368	0.087526	0.19403	0.17968	0.27587	0.16051	0.092678	0.14269	0.35018	0.031513	0.44124	-0.16667	-1.2146	-0.1	-1.1125	-1.1625	-0.14583	-1.4271	-0.725	-0.37917	-1.2146	-0.24167	-1.0438	-1.2083	-0.225	-1.0771	-0.65	223.898	190.814	17.918	258.306	240.367	110.140	164.408	197.124	181.732	49.590	204.020	235.262	294.371	218.679	281.072	243.656	0.0001833	0.00047368	0.00012506	1385.7	7.0451e-06	5.4763e-06	1383.2	373.42	2.8036e-06	8.6099e-06	424.28	140.74	122.46	41.749	2.646e-06	52.388	0.00033954	0.00033617	9.2273e-05	1393.1	3.7391e-06	3.7965e-06	1390.7	377.83	3.756e-06	3.6285e-06	427.84	143	124.54	42.478	3.634e-06	52.791	235.524	7.610	14.468	-36.680	136.072	99.035	-36.627	-32.133	173.849	105.006	-32.629	-27.516	-27.340	-23.055	132.874	-24.077	-8191	255	
14153.173	1	1	0	0	0.071879	0.27553	0.097539	0.4466	0.2133	0.16144	0.45087	0.14744	0.20313	0.14704	0.13322	0.10265	0.17459	0.16347	0.13386	0.26724	0.020833	-1.0521	-0.33958	-0.76667	-1.1104	-0.27292	-1.1875	-0.85625	-0.38542	-1.1688	-0.53125	-0.72083	-1.25	-0.225	-0.99375	-0.80833	48.146	-10.893	153.639	258.900	238.868	74.085	265.749	-49.389	252.883	-41.302	60.033	284.717	261.610	191.898	216.165	259.341	0.00019695	0.00046532	0.00011934	1386	7.0995e-06	2.944e-06	1383.9	373.93	2.2377e-06	3.4591e-06	426.34	141.15	122.13	41.77	3.1902e-06	51.856	0.00033925	0.00033149	9.2697e-05	1393.3	3.7348e-06	3.7594e-06	1390.5	377.94	3.8749e-06	3.7279e-06	428.24	143.16	124.38	42.493	3.7685e-06	52.555	238.120	50.102	9.208	-36.649	175.281	79.787	-36.406	-31.963	53.513	91.823	-32.826	-27.783	-27.380	-22.982	141.530	-23.880	-8191	255	
14153.267	1	1	0	0	0.16214	0.15599	0.12562	0.335	0.087762	0.10836	0.42374	0.35134	0.080287	0.43844	0.097526	0.34591	0.11265	0.32521	0.081776	0.2226	0.23958	-1.225	-0.375	-0.6875	-1.3354	-0.20208	-1.2208	-0.81042	-0.2875	-1.2083	-0.76875	-0.60417	-1.2896	-0.27708	-0.81042	-1.0792	-20.334	181.631	295.466	302.750	284.718	261.263	-48.370	235.614	136.147	274.299	-32.161	309.279	101.641	205.136	45.791	288.121	0.00016959	0.00083764	0.00020364	1386.8	5.5192e-06	4.6196e-06	1386.1	373.57	1.4368e-06	4.2687e-06	426.3	140.48	122.45	41.752	3.825e-06	51.957	0.00034513	0.00034187	9.6271e-05	1394.6	3.8393e-06	3.7697e-06	1390.5	377.72	3.8079e-06	3.6663e-06	428.98	142.85	124.5	42.487	3.7288e-06	52.69	226.763	39.262	37.180	-36.602	149.709	127.871	-36.710	-32.138	109.231	122.270	-32.853	-27.743	-27.242	-23.148	104.208	-23.778	-8191	255	
14153.364	1	1	0	0	0.12647	0.23556	0.15379	0.2555	0.14851	0.28844	0.22679	0.27413	0.089594	0.27116	0.037587	0.033601	0.44504	0.15666	0.22148	0.1162	0.19583	-1.2229	-0.56875	-0.59375	-1.1167	-0.39167	-0.89583	-0.97083	-0.175	-1.1854	-0.73542	-0.50417	-1.0979	-0.53958	-0.68542	-1.1479	13.041	296.977	291.064	226.141	-0.430	-11.965	220.876	224.976	161.713	43.110	241.059	281.422	-9.767	275.962	-42.365	168.266	0.00014525	0.00071682	0.00011636	1385	6.1884e-06	5.575e-06	1386.5	374.67	3.1502e-06	5.6638e-06	426.69	140.49	122.32	41.677	4.8106e-06	51.97	0.00034259	0.00034512	9.5611e-05	1394.3	3.7549e-06	3.837e-06	1391.2	377.86	3.8895e-06	3.7515e-06	428.75	142.84	124.39	42.434	3.8369e-06	52.726	227.004	8.985	34.978	-36.613	140.476	126.369	-36.747	-32.254	178.978	108.581	-32.707	-27.854	-27.502	-23.258	112.798	-23.703	-8191	255	
14153.484	1	1	0	0	0.17723	0.1906	0.22086	0.41968	0.085251	0.34868	0.22841	0.32975	0.18704	0.2633	0.3095	0.42794	0.045023	0.10397	0.040106	0.16843	0.12708	-0.84583	-0.66458	-0.61875	-1.2313	-0.41667	-0.8	-1.2875	-0.18333	-0.98125	-1.0083	-0.44167	-1.2646	-0.51667	-0.45625	-1.3021	186.881	177.872	220.810	227.628	220.556	251.029	156.959	289.311	29.043	144.437	282.680	286.391	246.031	-35.893	-27.348	-19.470	0.00013536	0.0005133	0.0001033	1386.9	2.8662e-06	1.3237e-06	1383.2	373.79	2.9068e-06	5.1402e-06	425.3	140.48	122.38	41.678	5.301e-06	52.017	0.00034713	0.00034686	9.7411e-05	1394.2	3.8508e-06	3.8097e-06	1392.2	377.87	3.8809e-06	3.7989e-06	428.13	142.69	124.46	42.388	3.8644e-06	52.618	232.910	62.269	68.172	-36.834	105.790	88.650	-36.397	-32.077	135.440	83.212	-32.554	-27.807	-27.470	-23.186	123.532	-24.011	-8191	255	
14153.556	1	1	0	0	0.080826	0.18389	0.12922	0.29446	0.15077	0.029608	0.38333	0.31975	0.052698	0.27998	0.22141	0.33558	0.24327	0.1531	0.10805	0.26308	0.0875	-0.83958	-0.92292	-0.49583	-0.94583	-0.50208	-0.78542	-1.3771	-0.083333	-0.91875	-0.91667	-0.35833	-1.3333	-0.7625	-0.42292	-1.3521	-21.249	52.776	29.968	295.065	136.234	184.288	229.352	242.872	-45.924	56.696	257.938	-43.137	301.878	301.726	-1.342	281.892	0.00018509	0.00043389	9.0168e-05	1385.9	5.8765e-06	3.7893e-06	1379.7	373.77	2.9952e-06	6.9613e-06	426.69	140.22	122.31	41.628	2.7005e-06	51.892	0.00035252	0.00035351	0.00010003	1395.5	3.8616e-06	3.8969e-06	1391.7	377.73	3.9125e-06	3.7671e-06	428.17	142.48	124.45	42.365	3.8209e-06	52.611	236.771	30.179	-6.698	-36.790	113.488	97.919	-36.589	-32.196	151.199	116.267	-32.871	-27.874	-27.357	-23.215	133.839	-24.114	-8191	255	
14153.652	1	1	0	0	0.18822	0.20281	0.090832	0.11117	0.14523	0.13646	0.39531	0.13143	0.22449	0.13191	0.12335	0.25735	0.1799	0.15958	0.24259	0.038823	0.033333	-0.8875	-1.0167	-0.48958	-1.2542	-0.6125	-0.68958	-1.4396	-0.44792	-0.73542	-1.2021	-0.25833	-1.0875	-0.98542	-0.36667	-1.4042	88.758	194.327	140.549	156.215	274.811	-32.237	299.149	298.372	189.958	113.014	200.637	250.802	290.091	292.400	-33.197	261.680	0.00022777	0.00047966	6.16e-05	1385	7.9671e-06	5.2416e-06	1384.6	375.26	3.8863e-06	6.2356e-06	426.84	140.16	122.78	41.6	6.2297e-06	52.211	0.00035269	0.00034978	9.7725e-05	1393.4	3.8452e-06	3.8406e-06	1392.4	378.18	3.8471e-06	3.8252e-06	429.14	142.75	124.76	42.377	3.8622e-06	52.812	237.427	54.484	-0.879	-36.685	124.804	131.000	-36.558	-32.121	164.864	84.898	-32.839	-27.745	-27.080	-23.168	103.785	-23.959	-8191	255	
14153.748	1	1	0	0	0.10191	0.15125	0.22068	0.28342	0.19321	0.078091	0.39394	0.20263	0.19367	0.080747	0.18985	0.13666	0.24525	0.27567	0.25698	0.32567	-0.027083	-0.74792	-0.94583	-0.59792	-0.95208	-0.96458	-0.68333	-1.3188	-0.48542	-0.47708	-1.4542	-0.5	-1.2375	-1.0625	-0.20417	-1.3	284.430	284.863	-38.751	290.022	183.328	149.190	254.879	-46.294	62.502	14.133	-41.247	198.012	282.365	16.651	93.933	213.462	0.00018597	0.00043922	0.00016881	1388	4.5487e-06	3.5148e-06	1387.5	373.9	2.5437e-06	4.1479e-06	427.84	140.04	123.01	41.849	6.5966e-06	52.152	0.00035488	0.00034936	9.6175e-05	1395.7	3.7882e-06	3.8194e-06	1393.5	378.18	3.7959e-06	3.8042e-06	429.6	142.86	124.68	42.538	3.8488e-06	52.787	211.201	55.823	9.837	-36.727	121.858	123.272	-36.607	-31.967	48.552	139.273	-32.539	-27.516	-27.357	-23.309	85.448	-23.625	-8191	255	
14153.869	1	1	0	0	0.19946	0.062154	0.26429	0.36241	0.13249	0.13484	0.30196	0.29879	0.20011	0.23437	0.13599	0.13077	0.24296	0.31219	0.095742	0.34944	-0.35625	-0.42292	-1.1417	-0.47083	-0.8125	-0.96042	-0.39792	-1.1479	-0.77292	-0.25625	-1.3125	-0.575	-0.72917	-1.1938	-0.2	-0.98125	250.959	13.471	289.166	232.720	-26.845	78.880	274.087	254.953	48.275	216.708	163.995	200.397	304.530	-49.088	54.969	300.000	0.00014844	0.00033691	0.00014625	1387.1	4.2511e-06	2.2457e-06	1387.5	375.04	3.5709e-06	3.531e-06	426.11	140.66	122.64	41.951	3.5646e-06	52.044	0.00034374	0.00033945	9.5155e-05	1395.6	3.7718e-06	3.6888e-06	1393	378.21	3.7839e-06	3.7968e-06	428.49	143.08	124.71	42.582	3.7908e-06	52.76	229.274	23.913	26.463	-36.739	141.026	85.422	-36.651	-31.807	167.841	84.001	-32.590	-27.613	-27.075	-23.116	57.493	-23.697	-8191	255	
14153.965	1	1	0	0	0.1008	0.24342	0.14123	0.38244	0.13655	0.15394	0.42837	0.33692	0.12762	0.2633	0.23625	0.36893	0.17752	0.16718	0.10815	0.052661	-0.44375	-0.31875	-1.2583	-0.52917	-0.59792	-0.98542	-0.53333	-1.2604	-0.81875	-0.28958	-1.4417	-0.55	-0.68125	-1.2333	-0.26875	-1.1292	214.671	-10.742	129.597	269.900	74.877	16.997	230.594	261.005	262.873	57.600	206.237	237.977	291.386	209.135	7.768	180.522	0.00013562	0.00084404	0.00011473	1387.8	2.3305e-06	8.9079e-06	1383.2	374.25	3.8998e-06	3.776e-06	426.6	140.98	123.1	41.695	2.4825e-06	52.139	0.00034901	0.00034735	9.678e-05	1396.4	3.823e-06	3.7443e-06	1393.1	378.17	3.8523e-06	3.7923e-06	428.65	143.12	124.69	42.453	3.8351e-06	52.822	233.116	21.548	-5.706	-36.659	130.669	120.802	-36.408	-31.896	131.057	102.450	-32.633	-27.600	-26.888	-22.925	157.783	-23.554	-8191	255	
14154.061	1	1	0	0	0.13468	0.18487	0.058203	0.26183	0.36291	0.42193	0.29059	0.10045	0.19316	0.079172	0.12068	0.35058	0.1192	0.10528	0.097684	0.066018	-0.55	-0.2375	-1.1604	-0.8375	-0.54167	-0.85417	-0.58542	-1.1562	-0.93333	-0.32292	-1.1542	-0.81667	-0.62292	-1.3896	-0.11042	-1.0375	-5.509	8.647	93.202	-0.688	217.134	30.745	-41.446	266.405	48.513	-2.042	283.868	273.815	275.071	264.261	-13.728	-44.130	0.00019151	0.00052449	0.00014732	1395.1	4.3396e-06	4.4615e-06	1381.9	374.66	2.609e-06	3.8104e-06	424.63	140.68	122.9	41.909	3.9973e-06	52.109	0.00034762	0.00035072	9.4918e-05	1396.1	3.8473e-06	3.7596e-06	1392.7	378.71	3.7851e-06	3.716e-06	428.59	143.08	124.66	42.461	3.7987e-06	52.773	222.167	-5.772	43.680	-36.704	146.935	106.468	-36.588	-31.678	133.718	100.769	-32.742	-27.600	-27.265	-23.060	108.204	-23.522	-8191	255	
14154.157	1	1	0	0	0.21073	0.10798	0.079747	0.33174	0.21902	0.053257	0.33201	0.24032	0.36401	0.062291	0.20999	0.12468	0.29526	0.22019	0.17101	0.27282	-0.55208	-0.15833	-1.1625	-0.84375	-0.4375	-1.2396	-0.4	-0.84167	-1.0792	-0.24375	-1.1896	-0.7125	-0.43958	-1.2771	-0.24792	-0.66458	44.546	159.415	-43.639	254.572	159.272	129.048	263.015	267.548	186.656	112.903	308.824	224.819	250.809	-21.134	167.838	190.178	0.000188	0.00057917	0.00018995	1387.1	4.9424e-06	3.9205e-06	1390	373.9	3.2954e-06	5.387e-06	426.29	141.28	122.99	41.852	5.1818e-06	52.22	0.0003463	0.00034645	9.4288e-05	1396.3	3.8775e-06	3.7242e-06	1393.4	378.67	3.8218e-06	3.7864e-06	429.55	143.25	124.88	42.547	3.8576e-06	52.781	226.590	-2.616	23.666	-36.831	109.093	142.417	-36.453	-31.897	109.586	88.990	-32.827	-27.769	-27.127	-22.826	122.449	-23.891	-8191	255	
14154.253	1	1	0	0	0.24229	0.23157	0.13554	0.31791	0.094414	0.12123	0.063489	0.19137	0.032383	0.19293	0.19217	0.02708	0.12578	0.13282	0.0081498	0.10286	-0.66875	-0.31458	-1.0021	-0.95	-0.275	-1.1271	-0.67292	-0.81458	-0.90208	-0.12708	-0.90417	-0.90625	-0.375	-1.4438	-0.37708	-0.68125	283.335	73.677	229.620	253.405	296.505	160.930	-21.411	282.238	186.021	29.600	308.157	299.553	15.925	252.385	295.759	276.494	0.00017317	0.00029962	0.00018166	1386.2	8.4113e-07	1.0528e-06	1389.9	374.14	3.6711e-06	5.307e-06	426.8	140.79	123.03	41.833	1.8382e-06	52.031	0.00034736	0.0003428	9.4222e-05	1396.7	3.873e-06	3.7244e-06	1391	378.57	3.7652e-06	3.7156e-06	429.44	143.16	124.78	42.558	3.7583e-06	52.772	254.026	-25.552	65.028	-36.654	195.041	63.413	-36.500	-31.716	122.540	117.615	-32.369	-27.739	-27.291	-23.120	99.045	-23.813	-8191	255	
14154.349	1	1	0	0	0.2058	0.25958	0.14667	0.14139	0.17538	0.21433	0.2286	0.35447	0.084535	0.13049	0.24676	0.19674	0.26233	0.13436	0.10514	0.28857	-0.54167	-0.34583	-0.83125	-1.1104	-0.29375	-1.1229	-0.85208	-0.575	-1.0729	-0.27292	-0.94792	-1.1521	-0.26042	-1.1729	-0.7375	-0.58333	40.496	-34.842	204.389	260.764	22.370	-1.747	166.175	297.044	294.367	123.719	294.652	307.946	248.184	124.739	-42.090	235.889	0.00021997	0.00053103	0.00011861	1389.4	5.1638e-06	3.6401e-06	1386.8	375.21	2.7502e-06	4.3414e-06	427.41	140.38	122.95	41.889	6.0205e-06	51.837	0.00034422	0.00034695	9.6205e-05	1397.5	3.7742e-06	3.7543e-06	1394	378.9	3.7707e-06	3.7654e-06	429.22	142.87	124.7	42.63	3.7807e-06	52.741	225.771	15.159	38.565	-36.553	131.410	98.908	-36.556	-31.854	136.969	98.973	-32.544	-27.876	-27.190	-22.894	127.728	-23.605	-8191	255	
14154.446	1	1	0	0	0.27426	0.10243	0.074535	0.084236	0.1206	0.12155	0.23688	0.15847	0.17086	0.24487	0.16806	0.38944	0.69319	0.25917	0.29546	0.22326	-0.87917	-0.28125	-0.65	-1.4229	-0.12083	-1.1792	-1.1083	-0.40625	-1.2708	-0.47292	-0.61042	-1.025	-0.29583	-1.1167	-0.91042	-0.33958	221.345	27.367	294.315	-31.431	137.696	32.833	198.762	277.710	-26.242	70.398	297.072	304.922	272.633	268.935	182.818	308.401	0.00019118	0.00054739	0.00016942	1390.8	7.7264e-06	2.8986e-06	1386.7	375.19	5.9804e-06	5.7972e-06	428.27	140.84	122.45	41.985	5.6245e-06	52.145	0.00034311	0.00034261	9.544e-05	1396.7	3.8e-06	3.7998e-06	1392.6	379	3.8439e-06	3.7906e-06	429.78	143.07	124.72	42.602	3.7939e-06	52.844	241.752	60.138	45.986	-36.643	143.351	115.542	-36.476	-31.735	144.493	80.020	-32.492	-27.696	-27.284	-23.147	165.484	-23.769	-8191	255	
14154.565	1	1	0	0	0.053643	0.084822	0.1832	0.11537	0.28881	0.14833	0.23051	0.1814	0.21488	0.16476	0.13549	0.22183	0.28462	0.12334	0.25506	0.047967	-0.82083	-0.4375	-0.35625	-1.2021	-0.26042	-0.97917	-1.0958	-0.49792	-1.05	-0.54375	-0.49583	-1.1833	-0.43958	-1.0063	-0.89583	-0.22708	127.768	191.006	296.098	260.826	30.649	277.223	249.977	172.244	54.136	198.815	151.576	33.969	203.502	282.796	-2.039	78.699	0.00017345	0.00052333	0.00017105	1387.6	7.3114e-06	5.6553e-06	1385.3	374.95	2.6038e-06	2.7817e-06	426.64	140.99	122.65	41.615	1.2701e-06	51.981	0.00034837	0.0003417	9.5505e-05	1395.5	3.8198e-06	3.772e-06	1393.4	378.72	3.833e-06	3.8044e-06	429.61	143.11	124.73	42.516	3.8462e-06	52.791	225.209	39.126	70.007	-36.645	148.202	85.295	-36.514	-31.792	144.198	112.949	-32.585	-27.849	-27.420	-23.123	137.277	-23.636	-8191	255	
14154.661	1	1	0	0	0.24458	0.3522	0.067047	0.27182	0.15556	0.27844	0.25402	0.1116	0.29459	0.52527	0.1377	0.38489	0.21202	0.18629	0.11345	0.3018	-0.6	-0.475	-0.42292	-1.2979	-0.32292	-0.62917	-1.2812	-0.53542	-0.84792	-0.79583	-0.48542	-1.375	-0.1625	-0.79167	-1.0167	-0.30417	3.108	209.939	276.319	300.628	260.915	73.047	249.205	-10.892	205.381	61.856	137.063	0.908	290.036	-13.930	-22.255	113.169	0.00019611	0.00051184	5.9707e-05	1386.2	4.9435e-06	3.421e-06	1382.1	374.55	6.8234e-07	5.5323e-06	425.63	140.58	123.46	41.97	4.7562e-06	51.756	0.00034776	0.00034933	9.7176e-05	1396.3	3.877e-06	3.8042e-06	1391.8	378.23	3.7753e-06	3.8908e-06	429.46	142.94	124.86	42.642	3.8425e-06	52.644	238.057	41.552	-8.146	-36.789	147.416	75.379	-36.553	-32.024	124.410	109.213	-32.678	-27.834	-27.275	-22.858	107.590	-23.720	-8191	255	
14154.757	1	1	0	0	0.057508	0.18132	0.17083	0.2156	0.15819	0.27608	0.4807	0.10203	0.10071	0.1669	0.22356	0.23789	0.057978	0.19788	0.30532	0.18225	-0.77708	-0.80625	-0.38333	-1.4104	-0.53333	-0.72708	-1.2375	-0.41042	-1.05	-0.83958	-0.20417	-1.2021	-0.48125	-0.47708	-1.2521	-0.14792	88.874	3.892	-37.847	256.076	-6.751	135.102	202.860	260.694	7.318	134.494	205.686	259.007	291.233	302.512	255.547	254.298	0.00025329	0.00058475	0.00018285	1384.6	7.7844e-06	3.8469e-06	1386.5	373.27	2.5663e-06	1.6721e-06	427.71	140.86	123.06	42.052	6.852e-06	51.943	0.00034779	0.0003532	9.7074e-05	1396	3.8614e-06	3.7659e-06	1394.4	378.31	3.8014e-06	3.8198e-06	430.23	142.98	124.67	42.6	3.882e-06	52.744	222.429	38.467	57.049	-36.573	154.022	85.808	-36.539	-31.800	126.615	81.795	-32.429	-27.529	-27.264	-23.191	113.105	-24.099	-8191	255	
14154.853	1	1	0	0	0.19742	0.08756	0.23891	0.38443	0.13883	0.095502	0.61225	0.10215	0.0749	0.15752	0.28943	0.31476	0.30453	0.24959	0.07593	0.14125	-0.40417	-0.80208	-0.10625	-1.4104	-0.44167	-0.39792	-1.3292	-0.425	-0.88958	-0.83125	-0.30417	-1.2583	-0.7375	-0.39375	-1.1292	-0.35	-12.381	117.900	244.492	-34.059	300.669	117.503	206.602	283.077	-38.143	304.184	-42.215	283.569	155.174	-41.661	167.746	278.090	0.00018439	0.00038366	6.5086e-05	1389.6	4.6992e-06	6.227e-06	1386.6	374.92	3.4372e-06	5.5496e-06	426.21	140.65	122.34	41.894	3.8766e-07	52.184	0.00034976	0.0003441	9.6526e-05	1398.1	3.8729e-06	3.8225e-06	1394.4	378.34	3.9085e-06	3.902e-06	429.35	143.08	124.79	42.598	3.7767e-06	52.823	246.550	44.650	36.973	-36.566	119.667	91.796	-36.750	-32.101	187.593	105.723	-32.741	-27.838	-27.666	-23.282	84.516	-24.139	-8191	255	
14154.949	1	1	0	0	0.10099	0.11171	0.25832	0.32485	0.41318	0.19883	0.21349	0.30552	0.11083	0.10948	0.2724	0.049424	0.017261	0.054707	0.32209	0.074569	-0.25	-0.8625	-0.21667	-1.3271	-0.72708	-0.475	-1.325	-0.51875	-0.70417	-1.0354	-0.25625	-1.0312	-0.84583	-0.46042	-1.0854	-0.50625	-37.069	217.495	-8.555	260.847	149.145	302.255	230.322	268.368	269.932	54.925	2.543	292.271	20.314	224.499	260.623	222.154	0.0001724	0.00019587	0.00019355	1387.6	1.5146e-06	2.5921e-06	1387.6	375.61	7.0338e-07	5.9392e-06	427.55	140.97	122.55	41.883	5.1989e-06	52.325	0.0003445	0.00035074	9.5175e-05	1397.6	3.7973e-06	3.7759e-06	1394.4	379.23	3.7495e-06	3.7419e-06	430.5	143.36	124.97	42.651	3.7556e-06	52.936	239.794	46.390	19.466	-36.641	156.410	116.102	-36.864	-32.005	128.725	84.983	-32.673	-27.650	-27.341	-23.232	124.060	-24.001	-8191	255	
14155.045	1	1	0	0	0.098349	0.14009	0.25681	0.28848	0.10016	0.15341	0.083327	0.1346	0.22682	0.11236	0.17483	0.20507	0.085732	0.44817	0.050238	0.1658	-0.27083	-1.1063	-0.16875	-1.1625	-0.8375	-0.44167	-1.3458	-0.65417	-0.59792	-1.1271	-0.40208	-0.95833	-1.0312	-0.32292	-1.0875	-0.67917	284.791	26.866	120.253	305.301	51.750	306.052	97.855	304.533	159.371	-8.022	233.050	279.786	213.575	-35.597	286.755	209.045	0.00023202	0.0004156	0.00012983	1385.5	3.6162e-06	3.9864e-06	1385.6	375.73	3.2446e-06	3.0512e-06	425.75	141.5	123.16	41.73	4.8042e-06	52.189	0.00034131	0.00034316	9.3992e-05	1397.2	3.7983e-06	3.7382e-06	1395.1	379.68	3.8504e-06	3.6658e-06	429.5	143.6	125.24	42.592	3.737e-06	52.887	233.940	62.720	26.842	-36.580	96.398	111.846	-36.580	-32.168	182.630	48.807	-32.875	-27.811	-27.037	-23.078	138.740	-23.817	-8191	255	
14155.166	1	1	0	0	0.076666	0.1498	0.11483	0.25104	0.14891	0.11499	0.17629	0.26981	0.17405	0.040565	0.25385	0.28371	0.080304	0.20136	0.23088	0.11564	-0.31042	-1.0979	-0.375	-1.2125	-1.0958	-0.425	-1.4333	-0.69375	-0.49167	-1.3042	-0.40417	-1.0125	-1.225	-0.32083	-1.175	-0.8375	151.022	193.050	228.218	262.355	10.958	261.667	262.203	0.354	164.621	155.944	247.229	-42.627	264.432	13.523	-46.767	-7.470	0.00015239	0.00061783	7.8473e-05	1389.9	6.985e-06	4.1715e-06	1390.2	375.58	4.2308e-06	4.6711e-06	426.84	141.15	123.12	41.789	3.5433e-06	51.843	0.00035007	0.00034315	9.4531e-05	1397.6	3.7761e-06	3.8193e-06	1395.8	379.37	3.8132e-06	3.686e-06	429.41	143.65	125.08	42.62	3.7174e-06	52.811	231.956	16.324	44.347	-36.503	146.357	89.338	-36.751	-31.893	127.488	114.235	-32.762	-27.804	-27.627	-23.175	151.872	-24.084	-8191	255	
14155.260	1	1	0	0	0.1279	0.31761	0.32553	0.18534	0.11642	0.026126	0.32443	0.11537	0.34922	0.14236	0.12227	0.17465	0.089683	0.046811	0.32044	0.30357	-0.05	-1.1333	-0.2625	-0.83542	-0.87083	-0.097917	-1.2625	-1.0208	-0.36667	-1.2604	-0.50417	-0.84375	-1.2854	-0.26458	-0.89375	-0.80625	251.375	113.381	-48.581	220.978	227.086	91.882	212.154	304.786	240.324	-10.734	208.374	285.486	149.105	242.379	150.225	268.411	0.00018257	0.00051547	9.7312e-05	1389.6	5.0437e-06	3.76e-06	1397.1	374.01	1.5523e-06	5.327e-06	426.71	140.5	122.57	41.754	4.1761e-06	52.208	0.00034333	0.00033543	9.6064e-05	1399.1	3.8225e-06	3.8095e-06	1399.5	378.77	3.8478e-06	3.7728e-06	429.42	143.18	124.78	42.641	3.8677e-06	52.91	234.803	-33.711	120.090	-36.673	171.249	96.863	-36.583	-31.930	242.834	102.409	-32.752	-27.415	-27.391	-22.983	136.048	-24.010	-8191	255	
14155.356	1	1	0	0	0.34199	0.060019	0.1452	0.34592	0.26203	0.39822	0.45912	0.11878	0.17709	0.078353	0.31752	0.3107	0.15449	0.16401	0.026763	0.32796	-0.097917	-1.2396	-0.5125	-0.52917	-1.0938	-0.16875	-1.2833	-1.1063	-0.15208	-1.3354	-0.56458	-0.51667	-1.4604	-0.4375	-0.90208	-1.1646	249.572	41.735	69.849	-50.032	52.052	-10.848	259.448	222.969	-8.057	194.056	262.132	267.881	299.538	-44.477	278.169	261.180	0.00019927	0.00079298	9.8361e-05	1388.2	6.4732e-06	4.6685e-06	1386.6	374.95	5.0465e-06	4.0009e-06	428.23	140.7	122.71	41.844	3.1332e-06	51.999	0.00035294	0.00034954	9.6957e-05	1397.8	3.8217e-06	3.7574e-06	1396	379.06	3.8157e-06	3.7851e-06	430.98	143.31	124.9	42.588	3.7985e-06	52.787	232.174	29.608	60.265	-36.470	144.166	101.614	-36.417	-32.098	136.820	103.906	-32.553	-27.804	-27.126	-22.855	126.934	-23.936	-8191	255	
14155.430	1	1	0	0	0.0957	0.067664	0.38019	0.31608	0.027183	0.18268	0.18627	0.094477	0.23099	0.071965	0.18818	0.4103	0.35892	0.38358	0.20663	0.2535	0.21667	-1.2021	-0.59375	-0.54167	-0.90625	-0.46875	-0.99375	-1.3042	-0.21875	-0.975	-0.79167	-0.37292	-1.3979	-0.45625	-0.63333	-1.1313	240.114	241.118	274.819	215.980	192.428	281.663	257.509	266.158	219.667	149.000	268.343	255.015	291.420	248.727	38.115	-36.553	0.0001724	0.00049596	0.00011648	1388.6	6.0778e-06	4.8898e-06	1385.8	376.17	3.0737e-06	5.343e-06	427.18	141.38	122.8	41.925	2.4133e-06	52.176	0.00035268	0.00034565	9.6693e-05	1399.1	3.8007e-06	3.8104e-06	1395.7	379.7	3.8844e-06	3.8455e-06	429.91	143.6	124.98	42.56	3.8219e-06	52.859	247.909	16.072	10.273	-36.799	170.777	115.801	-36.463	-31.939	156.222	137.356	-32.483	-27.638	-27.097	-23.410	163.650	-23.830	-8191	255	
14155.526	1	1	0	0	0.19285	0.21302	0.19898	0.34021	0.12277	0.14302	0.22988	0.15174	0.050236	0.12765	0.068143	0.22877	0.2334	0.30816	0.2732	0.20095	0.0041667	-0.95	-0.575	-0.63542	-1.1938	-0.45833	-0.68125	-1.3813	-0.39375	-1.1292	-0.90833	-0.27083	-1.2854	-0.5625	-0.62917	-1.2417	252.121	-24.066	184.182	295.027	143.960	29.636	-31.835	-48.668	119.742	46.705	-20.135	-6.605	-36.112	-36.663	1.366	31.202	0.00020677	0.00053622	0.00010715	1396.1	5.3013e-06	5.3201e-06	1396.1	374.71	1.203e-06	7.3477e-06	428.12	140.56	123.26	41.956	4.7313e-06	52.097	0.00035255	0.0003511	9.5965e-05	1400.9	3.8592e-06	3.8022e-06	1398.3	379.3	3.8422e-06	3.8436e-06	430.68	143.34	125.18	42.591	3.857e-06	52.895	236.589	0.478	35.476	-36.578	123.619	96.865	-36.354	-31.910	140.637	132.811	-32.857	-27.576	-27.206	-23.125	116.641	-23.708	-8191	255	
14155.645	1	1	0	0	0.079744	0.17021	0.085422	0.22335	0.08334	0.02846	0.1621	0.11351	0.053034	0.041894	0.31321	0.21011	0.29548	0.19095	0.24172	0.019862	-0.095833	-0.93958	-0.975	-0.37708	-1.0083	-0.56042	-0.7375	-1.4125	-0.28125	-0.7375	-1.0187	-0.47083	-1.1521	-0.98542	-0.45	-1.2792	3.819	199.906	-34.767	271.289	191.953	3.529	252.810	175.578	170.146	-24.652	285.388	-37.184	4.861	296.600	-27.675	38.164	0.00014336	0.00051022	9.8526e-05	1386.6	4.308e-06	2.2536e-06	1391.3	375.14	4.9356e-06	5.2904e-06	426.45	140.72	123.22	41.748	2.9149e-06	52.262	0.00035494	0.00035302	9.6587e-05	1396.6	3.7775e-06	3.9129e-06	1397.4	379.23	3.8664e-06	3.9056e-06	429.51	142.93	124.92	42.588	3.8887e-06	52.956	235.535	34.940	19.817	-36.707	121.079	98.823	-36.390	-31.807	144.727	81.843	-32.655	-27.687	-27.204	-23.183	103.048	-23.831	-8191	255	
14155.741	1	1	0	0	0.045371	0.19868	0.19427	0.31899	0.13807	0.03406	0.18723	0.18234	0.20417	0.1079	0.17049	0.44025	0.13956	0.12873	0.18163	0.201	-0.12708	-0.73542	-1.0917	-0.40417	-1.15	-0.90208	-0.64792	-1.6542	-0.44375	-0.56667	-1.3021	-0.3375	-0.99583	-0.81458	-0.36667	-1.1729	-10.465	96.915	234.751	301.858	183.419	51.918	287.263	279.207	112.413	84.365	268.258	226.121	277.435	-39.371	235.630	118.252	0.00015973	0.00036833	6.8768e-05	1389.8	4.9196e-06	3.3279e-06	1390.4	375.97	4.9783e-06	6.5325e-06	428.67	141.45	122.8	42.06	4.1378e-06	52.387	0.00035331	0.00035056	9.5819e-05	1399.6	3.901e-06	3.8336e-06	1397.2	379.68	3.8388e-06	3.793e-06	430.65	143.62	125.11	42.684	3.9015e-06	52.992	222.480	61.558	86.963	-36.535	166.914	101.428	-36.531	-32.061	158.678	76.758	-32.627	-27.900	-27.205	-22.916	127.458	-23.845	-8191	255	
14155.837	1	1	0	0	0.2187	0.10398	0.082453	0.2725	0.3218	0.28652	0.28414	0.37222	0.14764	0.056264	0.13422	0.38038	0.25161	0.25907	0.29792	0.444	-0.18125	-0.36875	-1.125	-0.35833	-0.91667	-0.87292	-0.61667	-1.325	-0.42917	-0.72083	-1.2979	-0.51667	-0.9125	-1.2146	-0.37917	-1.2687	155.197	244.812	189.056	-47.475	26.888	125.698	241.768	231.852	54.152	-31.638	279.634	295.346	283.875	274.258	86.946	257.556	0.00017597	0.00070027	7.2486e-05	1391.6	3.2219e-06	4.7525e-06	1387.9	375.99	4.1825e-06	1.8512e-06	427.77	141.29	123.23	41.788	3.2688e-06	52.151	0.00035117	0.00034539	9.5475e-05	1400.4	3.7765e-06	3.7507e-06	1397.3	379.99	3.8832e-06	3.7671e-06	429.91	143.47	125.3	42.625	3.8228e-06	52.928	235.849	41.265	36.922	-36.689	76.917	83.504	-36.270	-31.761	130.410	30.365	-32.661	-27.548	-26.929	-23.180	131.634	-23.848	-8191	255	
14155.958	1	1	0	0	0.10833	0.24301	0.02877	0.38694	0.23723	0.032779	0.14628	0.31425	0.2203	0.39242	0.22529	0.33385	0.15475	0.51883	0.1915	0.26461	-0.4125	-0.4875	-1.1625	-0.5875	-0.83333	-0.95208	-0.55208	-1.4875	-0.875	-0.45833	-1.5042	-0.55	-0.94375	-1.2313	-0.33333	-1.1604	254.609	31.262	286.952	-25.849	18.663	33.763	148.038	292.093	220.681	259.545	-41.823	-5.686	32.404	-28.884	29.165	266.443	0.0001695	0.00035642	0.00010807	1391	4.8341e-06	4.84e-06	1391.1	374.52	2.2567e-06	1.9059e-06	425.95	141.03	123.79	41.993	3.0902e-06	52.487	0.00035254	0.00034951	9.505e-05	1399.7	3.7978e-06	3.7839e-06	1397.2	379.53	3.8677e-06	3.7641e-06	429.57	143.49	125.34	42.681	3.8046e-06	52.977	228.337	19.266	50.223	-36.361	165.586	124.783	-36.527	-31.664	171.449	107.416	-32.495	-27.568	-27.127	-22.835	102.036	-23.456	-8191	255	
14156.029	1	1	0	0	0.2705	0.22967	0.24533	0.23855	0.051904	0.15811	0.36045	0.23687	0.12491	0.073355	0.26761	0.015233	0.15588	0.12532	0.12379	0.35249	-0.45417	-0.43958	-1.0396	-0.83958	-0.73333	-1.1313	-0.45208	-1.2	-0.87708	-0.31875	-1.2104	-0.57708	-0.89792	-1.2104	-0.14583	-1.0646	128.737	105.122	276.785	273.626	240.670	30.468	293.461	281.029	277.102	234.164	255.999	155.396	305.387	299.798	147.030	241.963	0.00020827	0.00073743	0.00011924	1391.9	3.7114e-06	3.3365e-06	1389.2	375.36	2.4599e-06	6.4301e-06	426.62	140.51	122.9	41.752	4.1202e-06	52.135	0.00035374	0.00035153	9.4757e-05	1398.6	3.8442e-06	3.6986e-06	1395.2	379.46	3.8103e-06	3.7969e-06	429.33	143.31	125.14	42.564	3.8122e-06	52.875	229.192	54.019	20.799	-36.505	104.788	83.766	-36.435	-31.795	115.184	123.980	-32.668	-27.848	-27.182	-23.025	74.150	-23.619	-8191	255	
14156.126	1	1	0	0	0.056424	0.13407	0.17449	0.3527	0.05634	0.062442	0.25381	0.086374	0.094499	0.18203	0.34372	0.063757	0.19541	0.12149	0.13513	0.36484	-0.59583	-0.089583	-1.1208	-0.80833	-0.47083	-1.1104	-0.74375	-1.1125	-0.89583	-0.56667	-1.3458	-0.67292	-0.70417	-1.2417	-0.59375	-0.85208	210.658	244.966	49.094	272.689	159.743	127.189	244.237	61.705	226.464	10.801	263.310	256.529	273.702	274.712	277.819	280.003	0.00022764	0.0006092	0.00010014	1394.1	7.4933e-06	3.639e-06	1388.7	375.28	1.5994e-06	7.6146e-06	426.12	140.59	122.95	41.787	2.558e-06	52.347	0.00035144	0.00035483	9.6134e-05	1399.1	3.9069e-06	3.7928e-06	1395.3	379.06	3.7951e-06	3.8508e-06	429.72	143.16	124.87	42.594	3.7748e-06	52.973	217.572	4.357	70.619	-36.713	122.195	83.736	-36.761	-31.772	200.721	102.743	-32.605	-27.821	-27.026	-23.006	133.207	-23.607	-8191	255	
14156.246	1	1	0	0	0.18337	0.090506	0.13688	0.23545	0.080839	0.095604	0.32958	0.2778	0.39146	0.2834	0.26155	0.10215	0.16034	0.046563	0.17891	0.39461	-0.76667	-0.20625	-1.0729	-0.8625	-0.43958	-1.4417	-0.64792	-0.7625	-1.1562	-0.35833	-1.0083	-0.725	-0.57292	-1.3687	-0.3375	-0.62708	36.764	15.406	19.287	300.009	1.020	24.708	279.038	262.009	61.622	220.637	219.008	210.167	7.352	290.556	42.630	233.781	0.00016933	0.00056776	0.00017477	1389.7	1.3727e-06	5.2269e-06	1389.2	375.21	1.6027e-06	5.173e-06	428.84	140.93	122.87	41.969	2.187e-06	52.269	0.00034526	0.0003476	9.5028e-05	1398.5	3.8217e-06	3.8313e-06	1393.4	379.68	3.897e-06	3.8391e-06	431.09	143.21	125.1	42.663	3.8922e-06	52.92	214.453	27.571	58.622	-36.676	128.298	129.199	-36.538	-31.868	204.155	109.495	-32.380	-27.626	-27.231	-22.995	154.694	-23.363	-8191	255	
14156.341	1	1	0	0	0.28289	0.27437	0.10443	0.46175	0.10255	0.17769	0.48568	0.1768	0.20004	0.067577	0.2396	0.41456	0.29959	0.16435	0.10285	0.061712	-0.80833	-0.21458	-0.98958	-1.0604	-0.33333	-1.4042	-0.56042	-0.67083	-1.0896	-0.54792	-1.0812	-1.1167	-0.5	-1.1417	-0.5875	-0.51458	111.409	219.604	244.269	273.304	-11.718	157.774	170.446	260.002	92.940	140.590	257.223	282.736	310.126	252.121	228.529	-2.504	0.00022706	0.00045565	5.9134e-05	1390.9	5.4269e-06	3.8957e-06	1389.3	375.98	9.4469e-07	6.3903e-06	427.15	140.47	123.12	41.926	2.1186e-06	52.211	0.00035517	0.00035778	9.8196e-05	1399.3	3.9848e-06	3.8467e-06	1397.4	379.73	3.9661e-06	3.9186e-06	430.65	143.14	124.88	42.609	3.8889e-06	52.851	230.004	32.868	16.862	-36.687	131.929	130.315	-36.563	-31.754	111.998	84.607	-32.430	-27.421	-27.069	-22.653	-34.219	-23.864	-8191	255	
14156.439	1	1	0	0	0.26194	0.2364	0.15628	0.22891	0.1732	0.080315	0.15527	0.086237	0.35621	0.16372	0.224	0.20536	0.4226	0.21172	0.13167	0.26903	-0.78333	-0.39167	-0.78333	-1.1646	-0.4125	-1.0167	-1.0708	-0.68958	-1.4396	-0.2875	-1.0083	-1.2042	-0.66458	-1.2563	-0.80625	-0.55208	274.387	97.483	213.614	285.912	53.812	126.544	233.925	167.936	206.844	122.600	259.081	-36.302	282.950	46.189	244.445	258.734	0.00015399	0.0004498	0.00019815	1385.2	3.3079e-06	6.2685e-06	1387.8	376.47	4.8319e-06	2.0811e-06	429.79	140.42	122.8	41.886	3.6964e-06	52.236	0.00035253	0.00034502	9.6611e-05	1396.1	3.8752e-06	3.8155e-06	1394.4	379.71	3.7799e-06	3.8562e-06	430.42	143.22	125.07	42.742	3.8632e-06	52.914	223.358	46.007	27.010	-36.492	149.091	118.387	-36.391	-31.868	162.750	100.453	-32.582	-27.461	-27.087	-22.999	102.408	-23.322	-8191	255	
14156.557	1	1	0	0	0.33399	0.30208	0.11722	0.37925	0.29108	0.064242	0.25292	0.2507	0.23221	0.14243	0.26628	0.11883	0.31729	0.2467	0.098779	0.11892	-0.78542	-0.34792	-0.66875	-1.1771	-0.20417	-0.9375	-1.0396	-0.42708	-1.2812	-0.61667	-0.81458	-1.0312	-0.34583	-1.1562	-0.89792	-0.55208	46.789	67.005	-20.292	253.103	245.178	277.239	158.134	223.730	210.813	129.921	-48.018	261.643	302.876	-23.768	149.506	78.837	0.00017718	0.00065188	0.0001664	1387.9	5.5347e-06	3.0336e-06	1391	374.95	5.663e-06	3.4207e-06	426.73	141.08	122.66	42.195	6.8865e-06	52.195	0.00034679	0.00034868	9.5628e-05	1397.5	3.8268e-06	3.7654e-06	1396.8	379.45	3.8433e-06	3.8198e-06	430.12	143.4	124.96	42.74	3.8153e-06	52.928	221.152	42.122	7.907	-36.634	117.557	79.730	-36.373	-31.662	156.271	80.674	-32.332	-27.614	-27.215	-23.074	148.386	-23.764	-8191	255	
14156.654	1	1	0	0	0.13599	0.25875	0.056445	0.35898	0.18276	0.077991	0.13979	0.12754	0.21063	0.22544	0.23605	0.20714	0.24725	0.16304	0.39252	0.13643	-1.0646	-0.55417	-0.43958	-1.5458	-0.19375	-0.85	-1.2792	-0.5375	-1.2188	-0.70208	-0.57708	-1.1104	-0.48958	-0.79167	-0.95	-0.3	298.724	173.219	185.337	283.594	76.868	289.517	197.947	295.342	165.098	48.125	-14.461	218.995	-32.291	273.186	58.107	158.808	0.00017238	0.00044517	0.00010417	1391.1	4.4183e-06	4.0427e-06	1390.7	376.47	4.2377e-06	3.9162e-06	426.76	141.36	123.18	41.958	4.8071e-06	51.99	0.00034327	0.00034689	9.4956e-05	1400.1	3.7955e-06	3.7183e-06	1396.6	380.27	3.8606e-06	3.7966e-06	430.36	143.29	125.09	42.672	3.7953e-06	52.784	239.909	17.040	35.970	-36.482	152.818	82.202	-36.576	-31.730	141.404	79.401	-32.302	-27.267	-27.068	-23.063	121.045	-23.629	-8191	255	
14156.725	1	1	0	0	0.1641	0.23404	0.23724	0.33988	0.10861	0.16629	0.22434	0.32714	0.29542	0.13532	0.32169	0.26297	0.23518	0.17464	0.037118	0.2638	-0.8125	-0.53542	-0.41458	-1.3354	-0.35625	-0.8	-1.4562	-0.36458	-1.1479	-0.84375	-0.7125	-1.3083	-0.6375	-0.90833	-1.1167	-0.34792	181.179	129.339	237.775	261.038	-29.445	-24.251	223.591	246.793	301.972	83.156	302.164	275.403	220.215	-12.912	31.402	277.062	0.00021218	0.00055846	0.00013972	1392	7.1491e-06	4.98e-06	1380.8	376.1	4.8045e-06	7.3059e-06	428.14	141.46	122.68	42.275	3.7581e-06	52.421	0.00035007	0.00035036	9.641e-05	1397.9	3.9385e-06	3.7805e-06	1393.4	379.65	3.8465e-06	3.7164e-06	431.06	143.7	125.16	42.904	3.6034e-06	53.124	222.097	20.957	38.501	-36.525	143.023	140.629	-36.572	-32.055	147.189	75.425	-32.776	-27.900	-27.478	-23.131	135.421	-23.854	-8191	255	
14156.846	1	1	0	0	0.20235	0.30654	0.10595	0.24343	0.26288	0.1169	0.36276	0.32202	0.13452	0.060629	0.234	0.18074	0.21373	0.20702	0.20243	0.032743	-0.49375	-0.63333	-0.35417	-1.3563	-0.425	-0.59792	-1.4104	-0.47083	-0.8125	-1.0542	-0.57292	-1.1292	-0.85	-0.53125	-1.1625	-0.61458	297.788	112.301	51.454	309.455	163.892	225.114	220.489	232.434	-40.814	193.319	264.130	305.525	245.386	308.397	29.918	93.296	0.00015575	0.00051496	0.00014219	1398.1	3.3536e-06	5.045e-06	1395.7	377.46	3.6814e-06	6.3437e-06	430.69	142.14	123.93	42.145	3.577e-06	52.611	0.00033343	0.00033057	9.1434e-05	1403.1	3.6e-06	3.5727e-06	1401.1	381.79	3.5915e-06	3.5859e-06	432.34	144.26	125.74	42.919	3.601e-06	53.32	240.180	42.628	66.387	-36.609	152.763	83.805	-36.723	-31.937	190.937	113.841	-32.815	-27.796	-27.417	-23.031	103.498	-24.009	-8191	255	
14156.942	1	1	0	0	0.28115	0.032269	0.14942	0.23706	0.22499	0.24291	0.0287	0.066531	0.069677	0.031893	0.22533	0.23359	0.18232	0.22254	0.1746	0.13148	-0.44375	-1.0167	-0.25417	-1.3354	-0.57083	-0.5625	-1.7146	-0.43125	-1.0562	-1.1854	-0.50833	-1.1229	-0.64375	-0.39583	-1.2979	-0.54375	87.744	176.311	-40.965	307.104	96.376	293.722	183.935	-34.157	254.280	308.981	42.006	281.720	129.794	238.405	242.899	33.647	0.00019863	0.00077654	0.0001711	1391.7	5.0988e-06	6.9767e-06	1394.3	378.56	2.7367e-06	3.9358e-06	427.22	140.59	123.47	42.09	6.7916e-06	52.205	0.00033153	0.00032732	8.9681e-05	1401.5	3.6368e-06	3.5926e-06	1397.9	381.49	3.6208e-06	3.6032e-06	431.15	143.58	125.46	42.803	3.6411e-06	53.072	233.190	38.550	41.559	-36.677	125.061	147.765	-36.588	-32.034	166.294	87.930	-32.717	-27.818	-27.181	-22.860	109.784	-23.758	-8191	255	
14157.038	1	1	0	0	0.16088	0.07067	0.093712	0.065262	0.28787	0.031066	0.20926	0.30125	0.12335	0.097617	0.19839	0.051706	0.20289	0.20392	0.19985	0.070246	-0.43542	-1.0979	-0.2625	-1.125	-0.74583	-0.38542	-1.4479	-0.67708	-0.63125	-1.0479	-0.2375	-1.2083	-0.87708	-0.325	-1.1708	-0.59375	133.416	57.126	213.076	307.307	217.590	265.269	225.320	-48.790	292.346	49.255	279.374	-28.274	29.981	296.136	75.879	250.270	0.0001724	0.00057729	0.00010132	1394.8	6.3332e-06	4.4032e-06	1394.2	378.04	5.2522e-06	4.0046e-06	427.27	141.89	123.27	42.11	1.6104e-06	52.431	0.00033896	0.00032905	9.3691e-05	1402.1	3.6656e-06	3.637e-06	1400	381.18	3.706e-06	3.6159e-06	431.1	144.15	125.36	42.876	3.6812e-06	53.139	232.077	34.125	4.733	-36.571	144.629	94.323	-36.594	-31.888	130.260	79.513	-32.419	-27.787	-27.393	-23.023	99.195	-23.798	-8191	255	
14157.134	1	1	0	0	0.092927	0.047143	0.3847	0.023871	0.04203	0.049809	0.30975	0.22145	0.043148	0.40497	0.0051845	0.12775	0.20598	0.29301	0.31004	0.090146	-0.25208	-1.1646	-0.21667	-1.2938	-1.1688	-0.2375	-1.475	-0.875	-0.38333	-1.0979	-0.54375	-0.83125	-1.0167	-0.16875	-1.0979	-0.60625	-15.225	249.644	132.553	289.455	23.528	116.129	233.441	181.183	247.169	19.267	105.264	243.725	-33.579	267.340	283.087	149.531	0.00020731	0.00035295	0.00010071	1394.3	4.368e-06	3.593e-06	1391.2	377.7	2.5258e-06	5.5024e-06	429.2	141.94	123.75	42.257	4.9239e-06	52.375	0.00034041	0.00033537	9.3482e-05	1403	3.691e-06	3.6346e-06	1398.7	381.95	3.7599e-06	3.6196e-06	431.5	144.22	125.71	42.912	3.5932e-06	53.088	241.167	37.652	33.656	-36.637	190.510	82.712	-36.541	-32.155	210.986	156.790	-32.859	-27.706	-27.316	-23.239	76.828	-23.718	-8191	255	
14157.230	1	1	0	0	0.26944	0.27272	0.21744	0.2706	0.15293	0.045566	0.45123	0.17586	0.16425	0.10087	0.12215	0.20418	0.12645	0.27957	0.072144	0.25486	-0.066667	-1.2104	-0.42708	-0.97292	-0.90833	-0.31875	-1.4458	-0.86667	-0.50208	-1.1896	-0.39792	-0.675	-1.2271	-0.50833	-1.1063	-0.8125	52.903	273.674	258.934	267.289	35.779	16.876	284.383	-48.528	-8.095	274.857	-25.895	-48.556	301.220	289.904	255.680	-29.477	0.00017025	0.00041372	0.00019453	1394.4	4.0093e-06	6.9284e-06	1392	378.51	4.1272e-06	3.2503e-06	428.56	141.22	123.3	42.009	5.5148e-06	52.16	0.00034281	0.00033203	9.458e-05	1403.4	3.7474e-06	3.6589e-06	1400.2	381.8	3.843e-06	3.7331e-06	431.62	143.95	125.6	42.812	3.745e-06	53.007	220.419	51.252	35.391	-36.540	201.960	100.162	-36.567	-32.119	189.887	113.675	-32.970	-27.980	-27.648	-23.693	108.834	-24.286	-8191	255	
14157.327	1	1	0	0	0.20109	0.19943	0.26452	0.2902	0.09735	0.1815	0.40618	0.30435	0.093249	0.25924	0.26311	0.20282	0.27797	0.08557	0.048416	0.40283	0.125	-1.1542	-0.37917	-0.66667	-1.15	-0.29792	-1.1792	-1.05	-0.28125	-1.2188	-0.5375	-0.7875	-1.4333	-0.46667	-0.91875	-1.0104	286.278	302.370	-40.603	296.487	82.867	126.103	-46.894	249.843	282.623	303.132	93.099	287.839	-26.006	303.493	147.324	206.758	0.00018612	0.00080063	0.00011155	1389.4	8.0177e-06	5.7424e-06	1394.8	376.73	2.267e-06	4.2762e-06	426.96	141.46	123.2	41.883	4.0845e-06	52.208	0.00034383	0.00034075	9.7114e-05	1402.8	3.799e-06	3.6757e-06	1400.5	380.92	3.7988e-06	3.7562e-06	430.66	143.85	125.47	42.715	3.7188e-06	53.007	238.342	44.680	0.803	-37.062	145.620	102.024	-37.004	-32.383	120.537	86.401	-33.059	-27.991	-28.077	-23.470	119.900	-24.392	-8191	255	
14157.423	1	1	0	0	0.2905	0.22911	0.091602	0.20705	0.23537	0.30312	0.39258	0.27159	0.2202	0.25096	0.18359	0.083921	0.026813	0.0087953	0.13578	0.10141	0.18333	-0.79167	-0.63125	-0.59792	-0.84167	-0.31667	-0.94375	-1.1562	-0.34167	-1.0167	-0.78125	-0.64375	-1.3333	-0.51042	-0.66667	-1.2625	225.432	213.296	54.371	-14.084	78.541	253.077	227.176	270.607	160.482	136.935	279.288	220.800	161.854	23.877	1.132	-23.910	0.00015804	0.00025958	0.00016122	1391.2	5.5399e-06	5.2083e-06	1395	376.43	1.5729e-06	2.4158e-06	427.87	141.72	123.64	42.231	1.4806e-06	52.489	0.00034529	0.00033754	9.3116e-05	1401.1	3.7163e-06	3.6934e-06	1401.2	380.94	3.7261e-06	3.6998e-06	431.02	143.98	125.44	42.798	3.7409e-06	53.186	226.144	80.237	14.214	-37.115	113.983	125.382	-37.058	-32.477	200.043	111.551	-33.387	-28.144	-27.694	-23.467	147.225	-24.152	-8191	255	
14157.519	1	1	0	0	0.10822	0.15563	0.10599	0.18637	0.098835	0.18236	0.383	0.25594	0.31163	0.056456	0.23164	0.28123	0.070814	0.02985	0.17214	0.21277	-0.085417	-1.1187	-0.45208	-0.53333	-1.2062	-0.37083	-1.025	-1.2896	-0.30208	-1.0833	-0.81667	-0.48333	-1.1833	-0.375	-0.60833	-1.45	278.508	35.573	173.633	-20.902	80.194	226.926	242.671	231.284	257.291	177.933	-31.658	-23.826	20.062	148.432	162.234	215.046	0.00018711	0.00015367	0.00013912	1392.4	7.2581e-06	7.0654e-06	1389.3	377.23	2.514e-06	3.2617e-06	428.55	140.97	124.16	42.069	2.6255e-06	52.537	0.00033937	0.00033387	9.5143e-05	1403	3.6949e-06	3.715e-06	1400.6	380.89	3.7706e-06	3.7689e-06	431.33	143.81	125.69	42.748	3.721e-06	53.12	232.478	84.656	6.012	-37.179	131.328	132.694	-36.940	-32.279	164.695	80.447	-32.981	-28.144	-27.358	-23.459	90.330	-24.810	-8191	255	
14157.638	1	1	0	0	0.28769	0.14486	0.028431	0.46804	0.083278	0.12414	0.19404	0.31384	0.27451	0.052777	0.15462	0.12042	0.23863	0.17881	0.20399	0.35693	0.15833	-1.0479	-0.725	-0.60625	-1.1646	-0.525	-0.9625	-1.4271	-0.27292	-0.94375	-1.2437	-0.45	-1.1521	-0.55833	-0.60625	-1.2313	203.156	44.470	-6.910	272.692	78.088	31.672	253.680	284.868	184.275	13.343	-15.569	212.449	-28.904	196.638	27.215	305.569	0.00018181	0.00054878	0.00012922	1394	4.9881e-06	7.127e-06	1388.2	376.26	2.1342e-06	3.3123e-06	427.2	141.68	123.47	41.893	1.938e-06	52.6	0.00034167	0.00034296	9.3697e-05	1401.6	3.7345e-06	3.6417e-06	1398.6	381.16	3.7758e-06	3.7579e-06	430.33	143.88	125.79	42.786	3.6649e-06	53.096	217.784	31.036	48.387	-36.976	141.987	137.268	-36.939	-32.495	126.701	59.161	-33.172	-28.065	-27.715	-23.271	100.007	-24.035	-8191	255	
14157.734	1	1	0	0	0.17543	0.23603	0.16759	0.32244	0.14376	0.059528	0.38327	0.1024	0.19894	0.1355	0.22678	0.024684	0.20267	0.056015	0.050372	0.26942	-0.020833	-0.77083	-1.0979	-0.48333	-1.0125	-0.81667	-0.77083	-1.1958	-0.37708	-0.81458	-1.0583	-0.34167	-1.1354	-0.74583	-0.53333	-1.1208	257.661	137.158	51.730	-42.000	95.291	151.939	274.186	208.198	212.586	301.836	254.258	100.864	-18.567	269.926	136.840	230.149	0.00018863	0.00089557	7.4185e-05	1394.1	6.0714e-06	4.1074e-06	1393	377.54	2.0583e-06	4.4426e-06	426.87	141.79	123.55	41.972	4.6977e-06	52.442	0.00034096	0.00033002	9.1601e-05	1404	3.7263e-06	3.6982e-06	1401.1	381.23	3.7069e-06	3.6558e-06	430.68	144.09	125.68	42.827	3.6697e-06	53.197	240.737	33.857	39.041	-37.069	122.040	113.031	-36.910	-32.285	166.037	101.216	-33.280	-28.271	-27.733	-23.538	126.910	-24.596	-8191	255	
14157.830	1	1	0	0	0.18308	0.033221	0.23723	0.41561	0.070375	0.023147	0.25379	0.40302	0.25224	0.20898	0.34821	0.32701	0.24857	0.25962	0.084697	0.21046	0.022917	-0.63542	-1.0646	-0.59167	-0.86042	-0.85417	-0.60625	-1.4771	-0.41042	-0.59792	-1.3292	-0.43333	-0.87083	-1.1333	-0.070833	-1.1292	290.222	139.516	194.029	296.985	292.975	158.582	258.535	251.040	23.758	62.571	203.591	269.047	296.855	298.931	119.713	231.367	0.00013777	0.00047391	0.00014368	1392.7	6.7097e-06	4.7888e-06	1390.4	377.58	8.9763e-07	4.3322e-06	427.98	141.88	123.71	42.118	4.9587e-06	52.393	0.00033697	0.00033027	9.3252e-05	1402.3	3.7063e-06	3.6279e-06	1400.2	381.94	3.7479e-06	3.6795e-06	431.16	144.04	125.75	42.876	3.6941e-06	53.141	219.172	36.618	39.936	-37.176	147.423	103.127	-36.810	-32.269	225.507	117.187	-33.065	-28.288	-27.515	-23.631	131.080	-24.290	-8191	255	
14157.926	1	1	0	0	0.26166	0.097287	0.29266	0.15498	0.096978	0.19355	0.19806	0.069255	0.19204	0.2448	0.17615	0.41327	0.13029	0.3255	0.098945	0.20935	-0.15	-0.61875	-1.1229	-0.45625	-0.84375	-1.0021	-0.42708	-1.3375	-0.35625	-0.53333	-1.2021	-0.27917	-0.95208	-1.0167	-0.23958	-1.1979	12.215	13.556	-3.460	261.316	136.834	184.189	180.423	-17.846	94.666	42.041	69.369	-45.913	60.571	296.820	165.178	130.264	0.00018165	0.00030406	0.00014588	1394.2	5.1319e-06	4.8253e-06	1395.5	377.46	4.3138e-06	3.8471e-06	427.4	141.75	123.64	42.035	3.9448e-06	52.605	0.00034308	0.00033835	9.096e-05	1402.2	3.7571e-06	3.6578e-06	1400.7	381.1	3.7101e-06	3.6429e-06	430.68	144.29	125.66	42.81	3.6985e-06	53.244	229.767	52.458	47.294	-37.255	109.427	128.474	-37.180	-32.284	174.255	141.463	-33.056	-28.350	-27.816	-23.604	80.312	-24.111	-8191	255	
14158.022	1	1	0	0	0.2481	0.084308	0.068091	0.33667	0.15989	0.2692	0.25093	0.15571	0.11157	0.070518	0.333	0.16317	0.23616	0.17727	0.10738	0.35097	-0.2625	-0.40625	-1.1708	-0.525	-0.7125	-1.025	-0.46875	-1.2437	-0.79792	-0.50417	-1.1708	-0.60417	-0.70417	-1.3792	-0.225	-1.1958	54.878	6.381	117.139	291.310	-47.284	59.777	252.824	222.326	307.279	109.159	272.541	164.108	304.797	223.313	216.543	6.608	0.0001518	0.00085556	0.00017693	1393.8	5.1736e-06	4.3542e-06	1394.1	377.11	6.7119e-06	4.1132e-06	427.28	142.02	123.32	42.187	3.7792e-06	52.42	0.00034059	0.00033707	9.1885e-05	1402.1	3.7325e-06	3.6928e-06	1399.5	381.75	3.7933e-06	3.6816e-06	431.06	144.21	125.52	42.852	3.767e-06	53.249	230.315	56.622	42.618	-37.213	168.926	134.082	-36.851	-32.393	165.827	102.026	-32.961	-28.403	-27.848	-23.536	108.335	-23.980	-8191	255	
14158.119	1	1	0	0	0.25485	0.18808	0.17612	0.3532	0.10738	0.28856	0.1035	0.18857	0.2379	0.2271	0.090257	0.18166	0.18811	0.11918	0.22572	0.21807	-0.31667	-0.23542	-1.175	-0.7125	-0.59583	-1.1354	-0.48333	-0.94375	-0.95	-0.25625	-1.3438	-0.50625	-0.66042	-1.3271	-0.19792	-0.81667	86.099	8.479	54.706	288.943	274.197	-40.993	256.150	257.709	95.704	139.363	233.462	-26.728	148.359	-32.330	179.194	290.287	0.00020839	0.00057061	0.00018179	1398	8.3204e-06	1.7353e-06	1391.2	378.06	1.5971e-06	4.9906e-06	425.94	141.38	123.38	42.183	6.9609e-06	52.436	0.00033539	0.00034082	9.4393e-05	1405.4	3.7124e-06	3.6841e-06	1400.3	381.7	3.6318e-06	3.6306e-06	430.96	143.85	125.72	42.831	3.717e-06	53.12	232.792	58.822	32.413	-37.339	128.775	71.138	-36.895	-32.331	132.731	126.957	-33.177	-28.461	-27.587	-23.409	134.216	-23.982	-8191	255	
14158.239	1	1	0	0	0.19317	0.18828	0.058575	0.2954	0.22275	0.067274	0.22516	0.27514	0.25564	0.20874	0.092466	0.28182	0.22548	0.20034	0.14071	0.075443	-0.48125	-0.29375	-1.1958	-0.82708	-0.52083	-1.3563	-0.56667	-0.88958	-0.9	-0.23958	-1.1812	-0.81667	-0.42708	-1.1708	-0.35	-0.62708	220.739	184.826	-17.070	-35.373	64.481	233.907	287.625	303.369	245.441	172.513	-44.045	-43.474	-47.361	14.643	289.107	87.320	0.00013764	0.00064729	0.00015139	1396.8	8.2052e-06	4.6141e-06	1395.9	375.48	2.7335e-06	2.4428e-06	429.02	140.99	123.58	42.073	3.181e-06	52.502	0.00033286	0.00033988	9.2357e-05	1404.4	3.7023e-06	3.7022e-06	1400.3	380.82	3.7497e-06	3.7307e-06	431.68	143.59	125.47	42.804	3.8142e-06	53.049	231.720	6.198	38.116	-37.085	119.550	74.311	-36.971	-32.403	149.599	119.106	-33.019	-28.305	-27.618	-23.487	135.104	-24.123	-8191	255	
14158.335	1	1	0	0	0.24336	0.098588	0.24242	0.26251	0.36732	0.3068	0.17679	0.18299	0.078042	0.18939	0.14074	0.083471	0.11803	0.23982	0.18404	0.33514	-0.59583	-0.1625	-0.90833	-1.0187	-0.29792	-1.0479	-0.49375	-0.65	-0.9625	-0.18958	-0.98958	-0.88333	-0.3375	-1.1917	-0.47917	-0.66042	-48.324	98.404	-26.900	300.987	237.388	50.290	289.355	-12.092	252.888	8.864	260.200	174.313	-44.633	308.970	-17.971	-28.069	0.0001516	0.00076226	0.00011778	1392.9	7.1699e-06	4.3887e-06	1386.5	376.94	1.6807e-06	3.0866e-06	426.23	141.62	123.39	42.001	5.2188e-06	52.255	0.0003455	0.00034791	9.5815e-05	1402.2	3.8138e-06	3.7395e-06	1398.7	380.88	3.71e-06	3.8685e-06	430.39	143.73	125.32	42.818	3.7685e-06	53.026	214.138	29.547	21.789	-37.147	112.487	113.080	-36.780	-32.002	142.331	114.855	-33.243	-28.348	-27.603	-23.395	104.284	-24.127	-8191	255	
14158.430	1	1	0	0	0.2954	0.30159	0.075417	0.36441	0.11374	0.23854	0.091268	0.22909	0.11367	0.30449	0.16684	0.13965	0.26234	0.11347	0.11857	0.28307	-0.78125	0	-0.76667	-1.0292	-0.13542	-1.1208	-0.7	-0.57708	-1.1	-0.24167	-0.9375	-1.0729	-0.29792	-1.0604	-0.47083	-0.38958	246.470	235.908	-10.052	283.257	82.642	234.201	299.774	295.277	-7.169	245.490	148.872	274.115	282.046	-21.048	210.126	-49.140	0.00019346	0.00031429	0.00013486	1390.8	1.1519e-06	4.4509e-06	1387.9	376.12	1.5504e-06	3.1786e-06	427.76	141.14	123.21	41.908	9.3005e-07	52.385	0.00035116	0.00035122	9.3381e-05	1401.4	3.8329e-06	3.7696e-06	1397.2	380.47	3.8115e-06	3.7955e-06	431.3	143.62	125.15	42.618	3.765e-06	53.048	232.916	38.686	46.646	-36.972	158.393	96.438	-36.895	-32.249	61.935	103.126	-33.142	-28.325	-27.674	-23.353	74.115	-24.262	-8191	255	
14158.526	1	1	0	0	0.1655	0.1288	0.066917	0.17118	0.35813	0.13376	0.22175	0.045918	0.016282	0.12067	0.18515	0.40657	0.21201	0.23107	0.18589	0.26107	-0.75	-0.12083	-0.64792	-0.95625	-0.079167	-1.0667	-0.9375	-0.41042	-1.1833	-0.31875	-0.60417	-1.1521	-0.29375	-1.125	-0.74375	-0.41042	176.002	159.313	148.293	-40.381	20.247	234.878	299.175	70.020	206.747	-7.047	216.663	295.930	306.237	273.022	78.758	149.772	0.00019383	0.00071775	0.0001845	1393.1	3.7003e-06	3.6964e-06	1390.1	377.34	2.121e-06	3.0603e-06	428.69	141.43	123.4	41.916	4.579e-06	52.355	0.00034368	0.00035403	9.5831e-05	1402.6	3.8742e-06	3.7424e-06	1399.5	381.08	3.8554e-06	3.8141e-06	430.32	143.81	125.43	42.753	3.7767e-06	52.983	235.405	70.069	34.885	-36.926	134.252	136.234	-37.064	-32.404	169.619	138.199	-32.836	-27.856	-27.642	-23.428	91.002	-24.072	-8191	255	
14158.622	1	1	0	0	0.18517	0.15763	0.16265	0.16173	0.070696	0.21734	0.18911	0.17432	0.24157	0.18581	0.21731	0.10942	0.079928	0.20731	0.091721	0.37516	-0.57083	-0.34375	-0.61042	-1.1812	-0.23125	-0.73333	-1.1313	-0.44375	-1.0833	-0.575	-0.50417	-1.275	-0.56667	-0.84375	-1.0063	-0.325	254.353	-9.056	224.760	178.544	65.465	17.880	203.302	-31.460	80.211	177.789	270.148	305.786	200.242	283.190	-45.742	-41.859	0.00022354	0.00020337	0.00016269	1390.7	5.9852e-06	6.5911e-06	1388.7	377.71	3.3629e-06	5.2024e-06	426.56	141.04	123.42	42	3.0426e-06	52.182	0.00034537	0.00034405	9.5662e-05	1400.1	3.9109e-06	3.8106e-06	1396.3	381.01	3.798e-06	3.7935e-06	431	143.77	125.24	42.761	3.7704e-06	53.069	229.720	49.856	28.713	-37.007	146.526	92.912	-36.899	-32.279	115.918	120.756	-32.763	-28.140	-27.478	-23.274	156.256	-23.938	-8191	255	
#DATA ENDS
