BOXY.EXE: ISS Imagent and Oximeter Data Acquisition Program Version 0.80
Ascii Record File

#ACQ INFORMATION
2  Detector Channels 
16  External MUX Channels 
1  Auxiliary Channels 
5000  Waveform (CCF) Frequency (Hz)
1  Waveforms Skipped 
30  Waveforms Averaged 
1  Cycles Averaged 
16  Acquisitions per Waveform 
10.0806  Updata Rate (Hz) 

#FILE INFORMATION
TRUE -- External MUX Channel results are PARSED.
FALSE -- AC DC and Phase are NOT grouped.
TRUE -- Companion Program Settings File CREATED.
FALSE -- AC data not excluded
FALSE -- DC data not excluded
FALSE -- Phase data not excluded
FALSE -- Auxillary Chn. data not excluded
Tab delimiters

#CALIBRATION STATE
TRUE -- Waveform Calibration Values APPLIED.


#AUX CALIBRATION VALUES
Val Type	aux-1	

Term	1.0000e+00	
Factor	0.0000e+00	


#WF CALIBRATION VALUES
A = Detector Channel
Val Type	A-AC1	A-AC2	A-AC3	A-AC4	A-AC5	A-AC6	A-AC7	A-AC8	A-AC9	A-AC10	A-AC11	A-AC12	A-AC13	A-AC14	A-AC15	A-AC16	A-DC1	A-DC2	A-DC3	A-DC4	A-DC5	A-DC6	A-DC7	A-DC8	A-DC9	A-DC10	A-DC11	A-DC12	A-DC13	A-DC14	A-DC15	A-DC16	A-Ph1	A-Ph2	A-Ph3	A-Ph4	A-Ph5	A-Ph6	A-Ph7	A-Ph8	A-Ph9	A-Ph10	A-Ph11	A-Ph12	A-Ph13	A-Ph14	A-Ph15	A-Ph16	

Term	0.00000e+00	0.00000e+00	0.00000e+00	0.00000e+00	0.00000e+00	0.00000e+00	0.00000e+00	0.00000e+00	0.00000e+00	0.00000e+00	0.00000e+00	0.00000e+00	0.00000e+00	0.00000e+00	0.00000e+00	0.00000e+00	0.00000e+00	0.00000e+00	0.00000e+00	0.00000e+00	0.00000e+00	0.00000e+00	0.00000e+00	0.00000e+00	0.00000e+00	0.00000e+00	0.00000e+00	0.00000e+00	0.00000e+00	0.00000e+00	0.00000e+00	0.00000e+00	0.00000e+00	0.00000e+00	0.00000e+00	0.00000e+00	0.00000e+00	0.00000e+00	0.00000e+00	0.00000e+00	0.00000e+00	0.00000e+00	0.00000e+00	0.00000e+00	0.00000e+00	0.00000e+00	0.00000e+00	0.00000e+00	
Factor	1.00000e+00	1.00000e+00	1.00000e+00	1.00000e+00	1.00000e+00	1.00000e+00	1.00000e+00	1.00000e+00	1.00000e+00	1.00000e+00	1.00000e+00	1.00000e+00	1.00000e+00	1.00000e+00	1.00000e+00	1.00000e+00	1.00000e+00	1.00000e+00	1.00000e+00	1.00000e+00	1.00000e+00	1.00000e+00	1.00000e+00	1.00000e+00	1.00000e+00	1.00000e+00	1.00000e+00	1.00000e+00	1.00000e+00	1.00000e+00	1.00000e+00	1.00000e+00	X	X	X	X	X	X	X	X	X	X	X	X	X	X	X	X	

B = Detector Channel
Val Type	B-AC1	B-AC2	B-AC3	B-AC4	B-AC5	B-AC6	B-AC7	B-AC8	B-AC9	B-AC10	B-AC11	B-AC12	B-AC13	B-AC14	B-AC15	B-AC16	B-DC1	B-DC2	B-DC3	B-DC4	B-DC5	B-DC6	B-DC7	B-DC8	B-DC9	B-DC10	B-DC11	B-DC12	B-DC13	B-DC14	B-DC15	B-DC16	B-Ph1	B-Ph2	B-Ph3	B-Ph4	B-Ph5	B-Ph6	B-Ph7	B-Ph8	B-Ph9	B-Ph10	B-Ph11	B-Ph12	B-Ph13	B-Ph14	B-Ph15	B-Ph16	

Term	0.00000e+00	0.00000e+00	0.00000e+00	0.00000e+00	0.00000e+00	0.00000e+00	0.00000e+00	0.00000e+00	0.00000e+00	0.00000e+00	0.00000e+00	0.00000e+00	0.00000e+00	0.00000e+00	0.00000e+00	0.00000e+00	0.00000e+00	0.00000e+00	0.00000e+00	0.00000e+00	0.00000e+00	0.00000e+00	0.00000e+00	0.00000e+00	0.00000e+00	0.00000e+00	0.00000e+00	0.00000e+00	0.00000e+00	0.00000e+00	0.00000e+00	0.00000e+00	-1.59263e+02	-1.35366e+02	-1.22785e+02	-1.81606e+02	-7.89346e+01	-5.72216e+01	-1.56575e+02	-1.62015e+02	-7.73410e+01	-6.58398e+01	-1.71773e+02	-1.69662e+02	-1.85582e+02	-1.76518e+02	-7.73154e+01	-1.48785e+02	
Factor	2.57673e-05	1.35732e-04	4.29484e-05	1.60521e-01	1.34668e-06	1.50830e-06	1.73562e-01	5.04505e-02	1.28541e-06	1.76270e-06	8.78298e-02	2.84354e-02	2.48919e-02	9.05555e-03	1.36247e-06	1.28161e-02	7.70257e-06	9.89319e-06	2.77655e-06	8.54020e-02	1.04570e-07	1.10558e-07	8.68692e-02	2.69635e-02	1.04314e-07	1.10505e-07	4.53325e-02	1.47671e-02	1.33880e-02	4.87488e-03	1.06932e-07	6.69256e-03	X	X	X	X	X	X	X	X	X	X	X	X	X	X	X	X	



#DISTANCE SETTINGS
A = Detector Channel
A-1	A-2	A-3	A-4	A-5	A-6	A-7	A-8	A-9	A-10	A-11	A-12	A-13	A-14	A-15	A-16	

2.5000e+00	3.0000e+00	2.5000e+00	3.0000e+00	2.0000e+00	3.0000e+00	1.5000e+00	3.0000e+00	3.0000e+00	3.0000e+00	3.0000e+00	3.0000e+00	3.0000e+00	3.0000e+00	1.5000e+00	3.0000e+00	

B = Detector Channel
B-1	B-2	B-3	B-4	B-5	B-6	B-7	B-8	B-9	B-10	B-11	B-12	B-13	B-14	B-15	B-16	

1.0000e+01	1.0000e+01	1.0000e+01	1.4400e+00	1.0000e+01	1.0000e+01	1.5100e+00	1.9400e+00	1.0000e+01	1.0000e+01	1.9900e+00	2.4900e+00	2.4100e+00	2.9000e+00	1.0000e+01	2.9800e+00	




#DATA BEGINS
time	group	step	mark	flag	A-AC1	A-AC2	A-AC3	A-AC4	A-AC5	A-AC6	A-AC7	A-AC8	A-AC9	A-AC10	A-AC11	A-AC12	A-AC13	A-AC14	A-AC15	A-AC16	A-DC1	A-DC2	A-DC3	A-DC4	A-DC5	A-DC6	A-DC7	A-DC8	A-DC9	A-DC10	A-DC11	A-DC12	A-DC13	A-DC14	A-DC15	A-DC16	A-Ph1	A-Ph2	A-Ph3	A-Ph4	A-Ph5	A-Ph6	A-Ph7	A-Ph8	A-Ph9	A-Ph10	A-Ph11	A-Ph12	A-Ph13	A-Ph14	A-Ph15	A-Ph16	B-AC1	B-AC2	B-AC3	B-AC4	B-AC5	B-AC6	B-AC7	B-AC8	B-AC9	B-AC10	B-AC11	B-AC12	B-AC13	B-AC14	B-AC15	B-AC16	B-DC1	B-DC2	B-DC3	B-DC4	B-DC5	B-DC6	B-DC7	B-DC8	B-DC9	B-DC10	B-DC11	B-DC12	B-DC13	B-DC14	B-DC15	B-DC16	B-Ph1	B-Ph2	B-Ph3	B-Ph4	B-Ph5	B-Ph6	B-Ph7	B-Ph8	B-Ph9	B-Ph10	B-Ph11	B-Ph12	B-Ph13	B-Ph14	B-Ph15	B-Ph16	aux-1	digaux	

7276.672	1	1	0	256	0.096363	0.23811	0.28647	0.15659	0.20101	0.26098	0.12581	0.040027	0.079239	0.28188	0.18353	0.14326	0.19748	0.19751	0.070375	0.26185	-0.25417	-0.95208	-0.21042	-1.0125	-1.1208	-0.30208	-1.0542	-0.69375	-0.44792	-1.1875	-0.43958	-1.0125	-1.1583	-0.46458	-1.0417	-0.68958	189.013	208.417	256.017	177.582	335.453	248.204	452.715	184.914	397.492	404.575	182.798	509.516	187.959	499.139	411.548	444.571	0.00064818	0.0036377	0.00044981	938.82	3.0858e-05	2.8394e-05	531.04	287.91	4.4451e-05	4.7758e-05	170.05	66.584	112.97	54.685	1.1588e-05	34.283	0.041043	0.052621	0.014729	1352.7	0.00055379	0.00058697	966.48	420.6	0.00055119	0.0005858	400.44	142.15	179.25	78.408	0.00056302	68.47	193.552	358.831	451.367	185.246	387.613	339.281	183.331	189.674	278.330	346.025	187.257	191.164	193.589	198.472	173.821	193.955	-8191	255	
7276.769	1	1	0	0	0.31075	0.18223	0.12196	0.28234	0.11966	0.23345	0.087307	0.26479	0.18249	0.10651	0.16661	0.1479	0.091212	0.16266	0.020832	0.035479	-0.10833	-1.0542	-0.625	-0.9125	-1.1208	-0.33542	-1.1667	-0.86042	-0.46042	-1.2833	-0.43333	-0.73958	-1.3563	-0.43333	-1.175	-0.925	182.105	340.647	343.094	176.631	183.899	372.019	192.099	417.128	232.896	353.105	506.329	519.344	471.333	434.240	279.583	372.175	0.00077236	0.0021119	0.00071489	945.05	2.2725e-05	2.6808e-05	528.48	287.56	6.9801e-06	1.5967e-05	163.01	64.07	110.19	52.499	1.9942e-05	31.951	0.040815	0.052147	0.014609	1348.1	0.00054955	0.00058229	959.58	416.86	0.00054905	0.00058169	392.99	138.66	176.01	76.101	0.0005566	65.951	182.273	367.399	387.126	184.828	337.378	198.549	183.389	189.999	288.541	418.011	187.061	190.277	194.201	198.127	233.998	193.969	-8191	255	
7276.889	1	1	0	0	0.10302	0.15193	0.1412	0.1313	0.088006	0.14787	0.076549	0.28687	0.24012	0.068093	0.12263	0.24764	0.22718	0.2486	0.13929	0.16525	0.15	-1.1146	-0.34792	-0.8625	-1.0458	-0.35417	-1.1667	-0.89792	-0.11667	-1.2812	-0.54792	-0.61875	-1.2667	-0.45625	-0.84167	-1.0771	324.535	431.224	359.080	497.422	182.571	244.409	438.469	519.966	244.950	360.035	481.732	228.192	489.459	476.486	211.376	389.579	7.6008e-05	0.00078618	0.00080084	919.39	1.6977e-05	3.4687e-05	502.73	281.74	1.6382e-06	1.0459e-05	156.39	61.977	108.1	51.883	2.216e-05	31.954	0.040157	0.051541	0.014453	1320.8	0.00054186	0.0005742	932.31	408.61	0.00054211	0.00057095	383.6	135.46	172.84	75.155	0.00055025	65.169	462.042	364.040	528.630	184.920	434.924	223.547	183.112	189.841	283.116	340.150	186.575	190.326	194.034	198.225	261.992	193.865	-8191	255	
7276.985	1	1	0	0	0.1709	0.41914	0.10104	0.34551	0.025006	0.057118	0.087941	0.17392	0.17956	0.32932	0.20028	0.22306	0.18229	0.38504	0.12123	0.037478	0.079167	-1.0542	-0.47292	-0.62917	-1.2729	-0.325	-0.86458	-0.9	-0.16875	-1.225	-0.8375	-0.3875	-1.2667	-0.56667	-0.76042	-1.2208	370.240	414.905	478.293	177.100	503.924	321.199	527.197	531.575	285.569	281.563	191.756	514.931	424.930	196.764	354.853	387.930	5.0858e-05	0.00068437	0.00083252	912.44	9.0382e-06	3.7566e-05	502.43	280.71	1.9102e-05	3.6466e-06	155.57	62.049	108.97	52.076	1.6193e-05	32.148	0.039741	0.050986	0.014362	1313.1	0.00053887	0.00057196	928.81	407.61	0.00053865	0.00057423	385.3	136.23	174.05	75.629	0.00055059	65.644	192.191	440.961	349.529	185.076	437.175	368.069	183.600	189.797	250.979	264.940	187.021	189.960	194.296	198.394	268.797	193.662	-8191	255	
7277.082	1	1	0	0	0.3296	0.17007	0.17328	0.3113	0.07199	0.24087	0.12285	0.071918	0.22832	0.29151	0.21777	0.031614	0.03731	0.4153	0.18356	0.11992	0.12292	-1.0125	-0.78958	-0.52292	-1.1562	-0.64375	-1.0229	-1.2708	-0.28333	-1.0896	-1.0667	-0.3375	-1.2	-0.65208	-0.43542	-1.2729	375.662	470.353	202.033	369.342	351.526	439.014	397.600	474.692	221.934	278.643	175.672	208.543	398.373	187.269	317.111	229.356	0.00036388	0.0017828	8.9507e-05	916.74	4.6652e-06	8.7527e-06	509.09	280.14	1.1752e-05	2.6579e-06	160.17	63.099	110.38	52.919	2.5297e-05	33.088	0.039871	0.051267	0.014377	1314.9	0.00053822	0.00056971	932.4	409.12	0.00053566	0.00056908	386.63	136.94	175.12	76.226	0.0005511	66.274	210.243	467.469	334.771	184.956	258.496	380.142	183.102	189.933	417.830	465.080	187.010	191.370	194.456	197.735	481.921	193.477	-8191	255	
7277.178	1	1	0	0	0.094996	0.28937	0.058166	0.27335	0.020703	0.24777	0.10544	0.14133	0.11858	0.11465	0.19021	0.20694	0.20657	0.22112	0.22995	0.097107	0.0125	-0.8625	-0.8	-0.54583	-0.97292	-0.72083	-0.62292	-1.4792	-0.33958	-0.91458	-0.98542	-0.4625	-1.3917	-0.57083	-0.44792	-1.2437	299.470	356.945	423.019	480.699	522.261	470.775	382.877	400.645	332.033	346.297	223.389	478.166	460.377	187.706	184.222	251.686	0.00088013	0.00016247	0.00029229	920.08	2.4339e-05	1.6649e-05	509.3	284.28	4.767e-06	7.8615e-06	163.17	64.722	110.29	53.42	1.3923e-05	33.54	0.039861	0.051334	0.014279	1321.4	0.00053913	0.0005699	937.75	410.62	0.0005363	0.0005686	388.54	137.77	175.71	76.613	0.00055011	66.746	524.454	399.380	386.951	184.938	265.029	517.428	183.224	190.016	346.201	530.423	187.014	190.134	194.517	198.123	251.562	193.872	-8191	255	
7277.274	1	1	0	0	0.16031	0.23324	0.10493	0.32261	0.14521	0.25554	0.17939	0.25258	0.27876	0.23348	0.061079	0.466	0.14997	0.18378	0.20122	0.15469	-0.11458	-0.85208	-0.94167	-0.44792	-0.89792	-0.7625	-0.41875	-1.3	-0.44375	-0.92083	-1.2563	-0.38333	-1.1437	-0.89375	-0.525	-1.2917	518.404	248.009	353.676	413.457	465.346	437.345	506.215	461.032	294.412	459.820	175.785	193.823	517.902	495.261	518.378	367.456	0.00082607	0.0040224	0.00071022	925.83	3.7526e-06	9.9279e-06	517.76	283.95	1.0734e-05	1.3613e-05	159.6	63.691	109.62	52.736	1.4293e-05	32.64	0.03985	0.05123	0.014307	1325.3	0.00053756	0.00056939	940.04	411.5	0.00053514	0.0005686	385.8	136.48	174.55	75.904	0.00054594	65.598	180.619	199.205	319.759	185.064	199.833	392.699	183.041	189.738	462.170	520.923	186.851	190.259	194.310	198.215	496.279	193.730	-8191	255	
7277.368	1	1	0	0	0.19463	0.043568	0.23081	0.087958	0.21069	0.33237	0.12324	0.06921	0.26038	0.011468	0.17213	0.40419	0.3922	0.26595	0.066723	0.19308	-0.24375	-0.44375	-1.0312	-0.36667	-0.77083	-0.93958	-0.34167	-1.2021	-0.50833	-0.62708	-1.1708	-0.45417	-0.88333	-1.0604	-0.46042	-1.1812	400.793	205.141	381.993	473.360	190.089	177.666	251.288	434.192	499.824	451.475	428.202	258.857	508.457	238.188	367.545	477.234	0.00011499	0.0017035	0.00067765	917.16	1.234e-05	2.1414e-05	505.47	283.01	1.3029e-05	1.5978e-05	155.95	62.551	109.08	51.943	7.2281e-06	32.005	0.039399	0.05054	0.014161	1306.4	0.00053325	0.00056482	920.12	407.53	0.00053159	0.00056594	382.51	134.98	173.44	75.181	0.00054646	64.89	203.593	234.514	383.603	184.880	450.670	310.124	182.814	189.946	281.899	402.213	186.228	191.100	194.082	198.348	312.628	194.318	-8191	255	
7277.464	1	1	0	0	0.033678	0.17414	0.20643	0.24229	0.24789	0.060465	0.20965	0.25854	0.049981	0.010417	0.30368	0.19573	0.14829	0.10795	0.14179	0.10316	-0.19583	-0.46458	-1.2812	-0.38542	-0.96458	-1.0979	-0.44792	-1.0896	-0.66667	-0.37708	-1.3563	-0.42292	-0.7875	-0.98542	-0.225	-1.0917	429.299	474.545	396.684	525.610	245.420	321.652	442.311	506.010	355.126	194.202	401.171	390.415	283.268	292.229	227.687	387.995	0.00091629	0.0041394	0.00074555	912.36	3.4789e-05	1.6722e-05	506.75	280.48	4.891e-06	1.7848e-05	157.15	62.661	109.39	52.203	2.4133e-05	32.068	0.039399	0.050632	0.01418	1303.2	0.00053165	0.0005621	921.13	406.41	0.00053015	0.00056078	381.42	134.64	172.84	74.977	0.00053872	64.862	473.013	294.770	336.699	185.071	261.118	182.941	182.887	190.408	454.475	466.749	187.567	190.861	194.450	198.385	410.897	193.885	-8191	255	
7277.562	1	1	0	0	0.2296	0.12278	0.31915	0.32582	0.17984	0.018506	0.030402	0.10583	0.32584	0.06865	0.14206	0.055236	0.11852	0.11679	0.23292	0.2605	-0.26458	-0.28542	-0.94583	-0.47083	-0.80625	-1.1938	-0.40208	-1.2563	-0.64375	-0.36667	-1.2479	-0.64375	-0.72917	-1.3771	-0.27917	-1.2188	520.572	408.346	419.886	423.100	196.427	518.164	173.323	444.288	339.110	216.579	272.307	432.260	410.634	395.706	383.480	288.986	0.00015978	0.0016268	0.00017441	916.24	2.6061e-05	4.1363e-06	503.29	282.68	2.6853e-05	3.6195e-05	159.29	62.172	109.49	52.136	1.8751e-05	32.133	0.039065	0.050105	0.014066	1307.6	0.00052873	0.00056089	922.15	407.9	0.00052855	0.00056275	382.97	135.23	173.21	75.158	0.00054118	65.317	359.831	207.161	424.202	185.156	189.784	504.813	183.079	189.939	375.650	366.276	187.577	190.607	194.495	198.064	412.603	193.669	-8191	255	
7277.681	1	1	0	0	0.12513	0.042401	0.089141	0.57287	0.34118	0.11733	0.24834	0.28868	0.22111	0.14917	0.045462	0.33751	0.35317	0.22426	0.43108	0.28936	-0.46667	-0.31667	-1.1125	-0.63125	-0.34167	-1.2021	-0.40208	-0.87708	-1.0312	-0.16458	-1.0333	-0.69375	-0.59167	-1.3125	-0.39583	-0.9875	283.525	223.276	411.290	529.758	193.944	383.723	253.015	456.908	334.399	512.229	278.108	404.548	206.070	210.800	527.577	464.420	0.0013208	0.0018182	0.00081101	919.22	2.8167e-05	2.4675e-05	506.39	285.91	1.0183e-05	2.717e-05	161.21	65.481	110.4	52.919	4.4478e-06	32.609	0.03917	0.050316	0.014059	1307.3	0.0005297	0.00055997	927.22	409.95	0.000527	0.00056063	384.31	136.63	174.44	75.885	0.00054142	65.604	177.306	334.950	295.866	184.851	192.982	352.174	183.174	190.037	172.176	525.457	187.289	189.997	194.069	198.302	493.694	194.160	-8191	255	
7277.777	1	1	0	0	0.087002	0.28731	0.067892	0.020033	0.064672	0.11042	0.16612	0.21796	0.061925	0.17683	0.097709	0.28019	0.38034	0.25381	0.175	0.085412	-0.63542	-0.27708	-1.3438	-0.62292	-0.6	-1.1917	-0.38958	-0.8375	-1.1271	-0.4125	-1.1771	-0.78958	-0.44167	-1.2958	-0.31875	-0.87708	251.242	291.883	214.257	369.139	411.906	228.737	399.579	195.268	300.954	284.054	196.288	207.545	496.407	504.177	264.517	210.462	0.00077252	0.00044703	0.00069659	917.67	2.2934e-05	1.787e-05	510.37	283.6	5.4224e-06	2.8397e-05	160.74	62.732	110.26	52.026	1.5179e-05	31.859	0.039137	0.050189	0.014073	1311.2	0.00052726	0.00055621	924.64	408.08	0.00052272	0.00055684	381.73	134.9	172.81	74.804	0.00053504	64.211	463.622	196.578	197.217	184.654	204.339	465.715	182.962	189.968	403.838	422.712	187.242	190.441	194.123	198.448	235.873	193.654	-8191	255	
7277.873	1	1	0	0	0.26625	0.17254	0.11819	0.23602	0.10894	0.40422	0.23169	0.25627	0.037203	0.29269	0.31791	0.22223	0.19021	0.40512	0.11408	0.15831	-0.84375	-0.2625	-1.0417	-1.0375	-0.48125	-1.1396	-0.6625	-0.86458	-1.2917	-0.13958	-0.96667	-1.0479	-0.48542	-1.2188	-0.71875	-0.44583	252.415	407.050	199.499	526.732	314.250	173.126	427.391	429.145	373.042	451.043	381.292	352.706	217.611	498.364	324.184	517.217	0.00066404	0.00089258	0.00050523	918.77	1.4365e-05	1.7173e-05	496.85	284.53	2.3057e-05	2.1878e-05	158.91	62.857	109.53	52.151	1.6981e-05	32.349	0.038652	0.04953	0.01393	1299.2	0.00052345	0.00055379	911.03	406.1	0.00052037	0.00055311	379.61	133.9	172.61	74.954	0.00053449	64.313	526.893	428.402	305.221	184.767	322.003	505.083	182.809	189.828	335.629	332.395	187.824	190.156	194.293	198.294	464.939	193.639	-8191	255	
7277.970	1	1	0	0	0.12344	0.36987	0.14978	0.28618	0.31514	0.16258	0.19904	0.27088	0.30077	0.19194	0.16033	0.31593	0.2262	0.23338	0.24748	0.26906	-0.93125	-0.39792	-0.77083	-1.025	-0.18333	-1.2708	-0.66875	-0.72083	-1.1417	-0.44583	-1.0229	-1.025	-0.4	-1.1917	-0.625	-0.40417	222.289	473.913	187.985	519.762	467.135	283.234	473.902	522.891	320.909	513.526	522.250	225.036	482.722	491.910	426.168	261.353	0.00039497	0.0025062	0.00057942	917.45	1.1208e-05	2.9694e-05	496.17	280.11	2.0399e-05	9.7897e-06	161.77	62.354	110.07	52.053	1.0047e-05	32.076	0.038609	0.049591	0.013912	1300.4	0.0005221	0.0005534	911.6	405.1	0.0005214	0.00055322	381.49	134.39	172.44	74.936	0.00053849	64.718	186.382	189.256	411.555	185.185	209.425	290.342	183.195	190.060	244.442	331.524	187.665	190.668	194.331	198.105	200.650	193.677	-8191	255	
7278.066	1	1	0	0	0.16732	0.27031	0.25723	0.13462	0.37178	0.107	0.090388	0.37568	0.23287	0.098904	0.076983	0.25437	0.40224	0.072538	0.1178	0.12358	-0.88333	-0.20208	-0.54792	-1.15	-0.15208	-1.1333	-0.76667	-0.51042	-1.1896	-0.085417	-0.61667	-1.1146	-0.19583	-0.975	-0.78125	-0.5375	253.522	444.811	282.070	497.008	462.165	325.280	281.156	431.906	527.838	349.550	525.790	174.406	193.048	506.224	254.516	172.239	0.00098328	0.0029385	0.00069531	915.55	5.2861e-05	3.4797e-05	510.79	284.14	1.5192e-05	1.2471e-05	159.88	63.408	111.34	52.943	6.3098e-06	33.17	0.038903	0.049835	0.014035	1305.5	0.00052589	0.00055636	922.53	406.59	0.00052076	0.00055397	382.02	135.22	173.76	75.549	0.00053475	65.507	514.464	232.960	274.205	184.723	234.704	235.691	182.325	190.002	429.574	397.907	187.225	190.585	193.896	198.392	238.144	193.975	-8191	255	
7278.162	1	1	0	0	0.23672	0.31828	0.17605	0.17939	0.075512	0.036047	0.2952	0.087156	0.29718	0.099646	0.27933	0.2343	0.28383	0.1014	0.14031	0.25828	-0.875	-0.58333	-0.51042	-1.2583	-0.32083	-1.1333	-1.0333	-0.14792	-1.2563	-0.40833	-0.51042	-1.2104	-0.43542	-0.93542	-1.0625	-0.29792	480.683	529.312	207.295	177.101	293.291	310.810	492.964	276.708	379.253	347.550	439.099	530.834	487.874	375.857	182.151	470.092	0.00020945	0.00081341	0.00057165	928.83	2.4719e-05	2.5356e-05	518.35	287.81	7.4318e-06	1.0367e-05	166.08	64.623	111.63	53.482	4.4285e-05	33.541	0.038796	0.049755	0.014049	1317.1	0.00052489	0.00055673	934.06	410.21	0.00052602	0.00055803	386.69	136.67	175.01	76.088	0.00053925	65.989	180.107	348.363	476.525	184.960	182.589	234.988	183.354	189.741	426.557	299.339	186.005	190.547	194.501	198.246	257.590	194.048	-8191	255	
7278.283	1	1	0	0	0.1159	0.11122	0.10724	0.14175	0.26887	0.095764	0.30742	0.35757	0.25693	0.25567	0.41629	0.18907	0.058165	0.16441	0.060785	0.271	-0.86042	-0.64792	-0.34375	-1.3229	-0.28958	-0.48958	-1.0812	-0.43125	-0.95208	-0.76458	-0.51042	-1.2875	-0.49375	-0.89583	-1.1063	-0.39792	251.434	504.262	482.828	457.308	337.896	437.972	411.099	450.855	236.706	349.288	441.530	279.132	452.210	176.574	525.834	424.092	0.00030067	0.0010835	0.00016137	931.38	6.0593e-06	7.2621e-06	516.4	284.11	1.1132e-05	1.6876e-05	160.97	63.702	110.48	52.618	1.3381e-05	32.253	0.038899	0.050172	0.014046	1318.5	0.00052659	0.00056003	931.2	408.85	0.00052698	0.00055813	384.28	135.23	173.3	75.38	0.00053838	64.872	203.845	510.071	321.155	185.321	232.075	283.714	183.134	190.159	238.941	498.712	186.647	190.138	193.862	198.300	395.456	193.409	-8191	255	
7278.377	1	1	0	0	0.26909	0.089146	0.15769	0.084841	0.081619	0.078761	0.074617	0.28412	0.18361	0.41276	0.067903	0.17659	0.30793	0.27972	0.14156	0.20652	-0.54375	-0.84375	-0.49375	-1.2208	-0.35833	-0.48542	-1.1938	-0.32292	-0.72083	-0.89167	-0.11458	-1.25	-0.70417	-0.67917	-1.2917	-0.27917	383.779	236.344	332.160	466.659	188.644	488.169	444.134	514.144	330.196	423.156	400.217	182.339	507.721	527.071	184.389	360.884	0.0010676	0.0017549	0.00063672	920.41	1.7949e-05	2.6413e-05	509.57	285.14	2.9192e-05	2.5252e-05	162.02	64.037	111.34	53.162	1.8252e-05	33.273	0.039069	0.049912	0.014007	1308	0.00052659	0.00056008	927.1	408.83	0.00052794	0.00056087	384.55	136.31	174.84	76.108	0.00054009	65.73	180.902	253.696	421.500	184.914	406.059	352.904	182.699	189.900	326.363	206.353	186.634	190.453	194.400	198.519	233.183	194.113	-8191	255	
7278.473	1	1	0	0	0.15656	0.2046	0.17379	0.25747	0.07475	0.27578	0.069013	0.048494	0.12379	0.097719	0.16291	0.26449	0.32713	0.15706	0.11105	0.26297	-0.49583	-1.0792	0	-1.1958	-0.58333	-0.40208	-1.2583	-0.4	-0.75417	-1.1875	-0.175	-1.2333	-0.71458	-0.57708	-1.3354	-0.52292	262.586	421.781	319.029	465.471	350.829	323.308	526.255	234.913	361.340	185.621	364.203	506.911	526.779	201.963	208.789	492.593	0.00062652	0.0018719	0.00092214	916.39	1.4901e-05	1.4494e-05	519.03	286.22	2.7838e-05	2.9099e-05	165.87	66.363	113.13	54.601	3.7192e-05	34.348	0.039215	0.050198	0.014072	1313.5	0.00052922	0.00056137	937.62	411.97	0.0005271	0.00056054	389.2	138.23	176.62	77.125	0.00054184	66.631	177.692	314.318	358.421	185.166	408.404	400.643	183.091	189.855	279.668	519.408	186.851	190.170	193.977	198.270	323.364	194.354	-8191	255	
7278.545	1	1	0	0	0.18794	0.15181	0.12845	0.2524	0.23831	0.3866	0.084945	0.17909	0.13634	0.20505	0.26038	0.46501	0.23932	0.053177	0.28592	0.22943	-0.60417	-0.86458	-0.44375	-1.0667	-0.66458	-0.29792	-1.3813	-0.36667	-0.84167	-1.05	-0.34792	-1.0792	-0.75417	-0.57917	-1.2167	-0.49167	199.554	359.374	447.242	498.503	318.269	308.671	437.132	505.275	360.768	298.538	413.858	213.331	514.104	179.191	505.239	348.240	0.00076601	0.0016776	0.0004242	936.52	2.4715e-05	1.098e-05	528.46	290.97	5.3612e-05	5.3227e-06	171.32	66.937	113.1	54.101	4.5442e-06	34.542	0.03919	0.050113	0.014093	1328	0.00052628	0.00055858	946.16	415.65	0.00052839	0.00056157	392.25	139.48	176.82	77.322	0.00054209	67.217	513.267	194.795	378.272	185.333	458.779	331.944	182.945	190.125	336.595	520.940	187.216	191.046	194.393	198.779	296.511	193.963	-8191	255	
7278.665	1	1	0	0	0.38817	0.22196	0.37156	0.19044	0.054565	0.25411	0.027912	0.12985	0.18073	0.19565	0.036882	0.19871	0.25338	0.25351	0.16815	0.22073	-0.29167	-1.0854	-0.19583	-1.1417	-0.96667	-0.36458	-1.0479	-0.65417	-0.43958	-1.3417	-0.34167	-1.0104	-0.90833	-0.25833	-1.1458	-0.61667	428.760	414.768	270.570	213.756	420.332	272.862	221.087	513.287	360.928	203.980	209.464	426.797	194.553	178.139	188.893	339.761	0.00088887	0.001114	0.0012615	945.75	3.1664e-05	3.536e-06	541.79	291.67	2.2133e-05	1.4828e-05	170.47	68.009	113.71	54.609	3.6758e-05	34.91	0.039319	0.05033	0.014124	1333.3	0.00053096	0.00056213	959.72	415.21	0.00053009	0.00056415	394.36	140.3	177.14	77.335	0.00053975	67.373	184.249	197.252	208.564	185.129	526.112	435.448	183.611	189.855	334.746	253.955	186.889	189.925	194.452	198.447	213.573	193.860	-8191	255	
7278.762	1	1	0	0	0.23467	0.1469	0.24251	0.018612	0.17883	0.36726	0.207	0.018759	0.10438	0.17515	0.15402	0.20973	0.066078	0.4158	0.17448	0.22436	-0.25	-1.1812	-0.34583	-0.83542	-0.87083	-0.25417	-1.1021	-0.89167	-0.42917	-1.3896	-0.51458	-0.9125	-1.1771	-0.4375	-0.9125	-0.98958	216.552	320.166	457.017	351.878	277.985	483.611	434.258	239.245	466.691	267.371	500.449	449.154	489.714	480.293	281.127	408.295	8.9132e-05	0.0022279	0.00079366	937.16	1.5094e-05	1.6305e-05	532.77	286.94	2.4097e-05	4.4687e-05	166.35	64.979	111.59	52.946	2.0906e-05	33.365	0.039162	0.049957	0.014061	1325.9	0.00052846	0.00055736	946.41	410.54	0.00052399	0.00055527	386.14	137.17	174.02	75.758	0.00053293	65.55	222.262	488.807	212.459	185.162	339.756	319.109	183.239	190.127	306.879	402.687	186.993	190.005	194.161	198.705	518.796	193.969	-8191	255	
7278.858	1	1	0	0	0.1404	0.18925	0.10873	0.061007	0.15296	0.09463	0.27063	0.23439	0.20263	0.052856	0.086275	0.086165	0.2956	0.30113	0.16494	0.24522	-0.077083	-1.0771	-0.39792	-0.88958	-1.175	-0.36875	-0.92708	-1.0729	-0.34792	-1.2458	-0.625	-0.70833	-1.2042	-0.45	-0.98542	-0.92083	179.884	494.757	276.823	319.390	396.511	493.777	235.575	528.632	377.331	232.249	246.168	217.530	212.123	489.194	498.020	498.252	0.00076158	0.00020304	0.00032184	920.47	1.6407e-05	2.8418e-05	519.53	281.28	2.4079e-05	1.9965e-05	164.19	65.186	110.25	52.212	3.5847e-05	33.081	0.038584	0.049544	0.013837	1304.9	0.00052137	0.00055004	929.2	403.78	0.00051942	0.0005502	382.08	135.73	171.85	74.522	0.00053001	64.931	515.306	490.525	446.681	185.298	267.323	512.026	183.257	190.520	524.196	239.615	187.569	190.632	194.512	198.528	405.844	194.110	-8191	255	
7278.954	1	1	0	0	0.10201	0.094561	0.21729	0.10722	0.13745	0.40041	0.12652	0.16762	0.15489	0.14211	0.19045	0.30708	0.18109	0.14678	0.088475	0.19124	0.085417	-1.1021	-0.54583	-0.6	-1.2521	-0.56458	-0.88333	-0.83125	-0.17917	-1.0333	-0.76042	-0.37708	-1.2458	-0.54792	-0.85417	-1.2667	432.878	343.543	268.452	379.868	207.039	378.054	406.775	463.100	350.266	317.968	445.478	317.776	337.801	251.714	349.469	502.833	0.00087428	0.002176	0.0010502	922.8	4.1857e-05	6.0358e-06	529.76	281.03	2.5765e-05	2.3285e-05	166.17	64.997	109.52	51.941	1.0643e-05	33.343	0.038356	0.04921	0.013762	1304	0.00051906	0.00054893	937.92	403.94	0.00051883	0.00055055	382.35	135.72	171.76	74.381	0.00052804	65.28	498.228	231.442	191.391	185.761	202.240	291.019	183.108	190.125	207.819	260.793	187.117	191.015	194.107	198.542	496.207	194.327	-8191	255	
7279.074	1	1	0	0	0.063	0.21812	0.12091	0.24559	0.23148	0.34765	0.12488	0.15127	0.14898	0.045587	0.077558	0.1568	0.26929	0.3891	0.23739	0.16342	-0.064583	-1.0562	-0.80208	-0.5125	-1.2812	-0.48333	-0.85417	-1.2021	-0.34583	-1.1354	-0.96042	-0.3125	-1.2792	-0.63542	-0.72708	-1.2375	220.950	231.190	359.030	507.092	510.240	525.022	444.660	279.120	212.338	492.281	531.959	475.263	508.755	458.535	295.657	423.252	0.00073412	0.0023938	0.00033334	926.67	1.0984e-05	2.3868e-05	538.01	282.7	4.5778e-07	4.4793e-05	168.68	66.102	110.09	52.127	2.8237e-05	33.813	0.038271	0.049219	0.013789	1308.2	0.00051793	0.00054872	944.12	405.06	0.00051786	0.00055044	385.85	136.88	172.25	74.547	0.00053151	65.611	172.418	501.913	321.173	185.192	410.407	350.858	183.258	190.123	420.746	307.785	187.429	190.515	194.260	198.342	447.823	194.172	-8191	255	
7279.171	1	1	0	0	0.11659	0.13696	0.26328	0.055262	0.089376	0.11226	0.084079	0.18868	0.063882	0.17926	0.27051	0.011734	0.20017	0.19069	0.19979	0.18111	0.16875	-1.0312	-0.925	-0.51042	-1.1	-0.67292	-0.47917	-1.2458	-0.30625	-1.0083	-1.0583	-0.40417	-1.4208	-0.775	-0.33333	-1.3521	214.616	239.865	408.507	530.424	286.257	490.692	218.387	441.949	279.651	378.742	494.038	283.698	512.496	495.233	190.620	351.057	0.00017275	0.00089085	0.00039152	931.84	1.3666e-05	2.3811e-05	539.83	285.36	2.6875e-05	3.1435e-05	169.27	66.282	110.67	52.047	2.7081e-05	33.044	0.038381	0.049287	0.013815	1313	0.00051879	0.00054754	947.04	406.77	0.00051724	0.00054961	385.98	136.6	172.05	74.146	0.00052776	65.004	331.755	341.797	209.639	185.038	277.176	484.512	184.314	190.321	309.657	356.697	187.615	190.970	195.034	198.831	261.146	193.644	-8191	255	
7279.242	1	1	0	0	0.12171	0.045844	0.21802	0.036316	0.22201	0.071622	0.081118	0.18661	0.10991	0.042366	0.1579	0.15225	0.18093	0.41747	0.24087	0.16118	0.13125	-0.77292	-0.96042	-0.48542	-1.0208	-0.63333	-0.58958	-1.1271	-0.26458	-0.81458	-1.2021	-0.44167	-1.0812	-0.61667	-0.30417	-1.2917	463.499	513.151	283.877	382.430	393.776	495.129	200.246	375.560	474.985	453.166	340.805	211.982	448.028	526.735	466.566	391.328	0.00033044	0.0025209	0.00068136	915.32	1.7265e-06	1.3894e-05	521.12	281.74	1.7666e-05	2.9235e-05	162.34	63.458	108.28	51.373	1.8572e-05	32.275	0.038128	0.048936	0.01373	1298.3	0.00051556	0.00054558	925.31	402.29	0.000514	0.00054548	377.86	133.66	170.37	73.43	0.00052307	63.812	192.269	234.375	343.476	185.402	455.756	245.215	183.432	190.111	255.652	180.349	187.568	190.788	194.518	198.698	258.660	193.952	-8191	255	
7279.363	1	1	0	0	0.26382	0.28297	0.35446	0.050908	0.22114	0.22027	0.26537	0.34959	0.2866	0.11504	0.16082	0.26406	0.44561	0.36107	0.20359	0.34212	0.041667	-0.625	-1.0083	-0.40833	-1.1396	-0.83333	-0.53333	-1.1646	-0.62292	-0.47292	-1.0333	-0.18958	-0.97708	-0.84792	-0.15833	-1.1104	236.808	246.850	174.799	387.829	200.776	466.790	462.489	475.301	238.131	432.285	495.920	408.785	198.562	468.744	311.687	209.643	0.00039311	0.00053388	0.00040496	905.22	2.3523e-05	8.2703e-06	517.11	280.2	1.8299e-05	3.2341e-05	161.58	63.976	108.49	51.365	4.6353e-06	32.573	0.037748	0.048214	0.013617	1282.1	0.0005118	0.00053954	915.94	399.77	0.00050755	0.00053842	376.35	133.35	170.33	73.521	0.0005244	63.987	197.282	281.202	356.435	185.255	415.874	230.909	183.800	190.553	284.480	437.140	187.311	191.007	194.389	198.740	434.955	194.129	-8191	255	
7279.457	1	1	0	0	0.19604	0.094152	0.1989	0.12793	0.14561	0.19697	0.17696	0.1113	0.1101	0.2331	0.2754	0.21805	0.20048	0.18381	0.17743	0.14489	-0.1875	-0.52292	-1.225	-0.47917	-0.96042	-1.0688	0.041667	-1.4479	-0.57917	-0.5	-1.2667	-0.46042	-0.8625	-1.175	-0.089583	-1.3208	523.500	526.772	434.425	379.048	461.907	477.573	447.559	452.790	263.951	388.879	477.139	285.065	517.523	506.969	204.658	228.638	0.00057119	0.0017474	0.00042843	913.35	1.1528e-05	3.0823e-06	517.54	278.4	5.2446e-06	2.5506e-05	163.64	64.385	108.39	51.245	3.6051e-05	32.848	0.03768	0.048481	0.013603	1288.8	0.00051072	0.00054206	921.55	400.05	0.00051145	0.00054406	380.02	134.64	170.72	73.645	0.0005268	64.764	211.571	531.707	208.224	184.894	279.128	351.743	183.224	190.376	518.036	453.368	187.041	190.973	194.395	198.814	244.980	194.268	-8191	255	
7279.554	1	1	0	0	0.074645	0.1238	0.35925	0.13807	0.058694	0.35544	0.13048	0.22225	0.2545	0.11998	0.26597	0.10365	0.14193	0.14155	0.10889	0.18911	-0.15	-0.38542	-1.1833	-0.49167	-0.6625	-1.1938	-0.31042	-1.1542	-0.8625	-0.47083	-1.3875	-0.45833	-0.74583	-1.0688	-0.32083	-1.1083	467.662	390.903	367.626	194.314	449.933	502.873	206.995	478.704	184.631	411.922	396.202	306.435	332.887	212.694	315.113	343.356	0.00044556	0.00042132	0.00051602	916.99	2.2417e-05	2.8645e-05	534.59	282.23	1.2295e-05	5.337e-05	167.03	66.077	110.62	52.621	8.5626e-06	34.05	0.038173	0.049056	0.013723	1301.9	0.00051525	0.00054756	937.78	403.44	0.00051628	0.0005449	383.61	136.09	172.37	74.752	0.00052899	65.718	467.730	236.928	279.578	185.367	317.804	209.686	183.124	190.335	373.953	365.138	187.292	190.862	195.041	198.437	433.525	194.000	-8191	255	
7279.674	1	1	0	0	0.23187	0.1969	0.25079	0.24615	0.13338	0.28957	0.071059	0.24486	0.3278	0.15144	0.25237	0.2852	0.33237	0.24894	0.18814	0.079214	-0.55625	-0.10625	-1.0292	-0.44792	-0.56875	-0.93958	-0.20625	-0.91667	-0.98333	-0.38125	-1.2271	-0.5875	-0.525	-1.4167	-0.41042	-0.72917	380.193	419.721	483.398	469.504	414.365	262.660	230.986	173.744	295.798	177.856	290.143	466.815	516.523	243.239	418.056	412.787	0.00061893	0.00079771	0.00064371	928.56	3.0907e-05	1.8185e-05	531.61	285.5	2.2745e-05	2.4026e-05	166.63	65.051	110.56	52.201	1.6569e-05	32.891	0.038224	0.049018	0.013813	1310	0.00051965	0.00054802	939.55	405.69	0.00051378	0.00054629	382.98	135.37	171.94	74.537	0.00052498	64.726	523.514	361.371	309.878	185.346	500.232	377.225	183.240	190.397	275.893	444.606	187.311	191.270	194.527	199.021	244.954	194.799	-8191	255	
7279.770	1	1	0	0	0.081145	0.12932	0.30094	0.12862	0.23589	0.12497	0.18794	0.10141	0.155	0.041754	0.13203	0.12665	0.16926	0.10944	0.11502	0.050876	-0.61875	-0.14583	-1.175	-0.72708	-0.40417	-1.2896	-0.41042	-0.81875	-1.0729	-0.34792	-1.1146	-0.66875	-0.52083	-1.1313	-0.15	-0.60833	452.331	486.588	309.762	527.276	378.874	250.270	452.288	218.209	241.046	382.182	220.954	302.618	204.054	315.625	269.375	508.358	0.00058403	0.00053462	0.0014478	914.87	2.2396e-05	1.4522e-05	511.73	280.78	6.1797e-06	3.9233e-05	160.33	62.976	108.27	51.121	8.9193e-06	32.045	0.037996	0.048672	0.013608	1291.4	0.00051145	0.00054153	915.06	400.54	0.00051013	0.00054156	375.9	132.84	169.14	73.046	0.00052184	63.211	506.544	360.349	330.004	185.193	285.064	406.692	183.054	190.980	241.280	501.505	186.819	191.307	194.316	198.995	221.361	194.668	-8191	255	
7279.842	1	1	0	0	0.27857	0.025353	0.3116	0.071081	0.21182	0.25798	0.10565	0.27695	0.19761	0.23824	0.18028	0.17616	0.053429	0.16915	0.11758	0.28736	-0.77917	-0.29583	-1.1	-0.87708	-0.275	-1.2104	-0.47292	-0.46458	-1.0104	-0.22917	-1.0042	-0.95208	-0.25625	-1.3521	-0.525	-0.46667	184.315	397.671	277.920	510.947	254.743	460.331	529.355	468.426	212.142	226.788	362.069	289.135	443.422	486.560	217.027	218.626	4.799e-05	0.0025866	0.00033565	916.5	1.551e-05	9.5173e-06	513.68	278.75	2.1787e-05	2.1126e-05	161.26	65.132	108.42	51.232	2.3494e-05	32.176	0.037575	0.048016	0.013504	1283.8	0.0005073	0.0005389	912.02	397.83	0.00050617	0.00053716	374.54	132.92	169.15	73.232	0.0005198	63.598	474.179	262.666	510.010	185.782	262.510	491.898	183.245	190.728	203.279	289.811	188.037	190.376	194.490	199.018	442.808	194.692	-8191	255	
7279.963	1	1	0	0	0.47635	0.19281	0.046709	0.30322	0.25227	0.34671	0.32278	0.24953	0.27585	0.32132	0.33544	0.091792	0.20933	0.36698	0.087824	0.085278	-0.70208	-0.22708	-0.76042	-1.0312	-0.1375	-1.125	-0.41042	-0.475	-1.2542	-0.29792	-0.975	-1.1562	-0.25208	-1.1854	-0.86667	-0.39583	410.015	284.971	487.040	201.023	385.168	225.201	450.551	474.847	440.646	510.689	184.706	351.372	422.832	508.886	311.768	216.192	0.00047581	0.002129	0.00033507	911.31	3.3437e-05	6.9045e-06	520.74	280.52	1.8988e-05	1.7259e-05	163.49	64.853	109.21	51.633	1.3087e-05	32.971	0.03749	0.047982	0.013543	1287.2	0.00050799	0.00053717	920.42	399.49	0.00050697	0.0005401	377.76	134.22	170.63	73.849	0.00052168	64.541	527.995	210.553	174.326	185.370	477.933	250.171	184.349	190.556	336.000	332.641	187.883	190.900	195.098	199.190	296.484	195.259	-8191	255	
7280.059	1	1	0	0	0.31734	0.11139	0.16251	0.10013	0.064582	0.20875	0.37696	0.22294	0.20876	0.20489	0.17006	0.18194	0.080711	0.092322	0.28395	0.08187	-0.95833	-0.3625	-0.73958	-1.1479	-0.16667	-0.95208	-0.82917	-0.51042	-1.2625	-0.45208	-0.8375	-1.1333	-0.29167	-1.0542	-0.85625	-0.46875	345.583	325.102	459.597	492.810	364.045	369.180	480.497	518.759	460.304	256.322	528.905	528.934	488.150	431.009	530.193	382.777	0.00035451	0.0023837	0.00080168	929.5	1.4819e-05	6.6951e-06	532.57	282.18	2.2442e-05	2.8535e-05	166.25	65.724	109.86	52.217	2.2638e-05	33.256	0.037836	0.048571	0.013595	1299	0.00051126	0.00054074	934.89	403.26	0.00051099	0.00054166	383.35	135.73	171.67	74.391	0.00052266	65.061	529.290	176.733	361.814	185.688	531.347	419.328	183.812	190.619	241.694	332.624	187.238	190.878	194.761	199.078	350.520	194.797	-8191	255	
7280.155	1	1	0	0	0.16687	0.031107	0.052622	0.23541	0.11643	0.11195	0.15869	0.10434	0.24284	0.15287	0.21149	0.16084	0.15836	0.12792	0.17221	0.050565	-0.8125	-0.53333	-0.56458	-1.2042	-0.30208	-1.0688	-1.0396	-0.30208	-1.2354	-0.63125	-0.46667	-1.2396	-0.30417	-0.91458	-0.93333	-0.23125	258.656	393.333	529.784	526.745	264.520	387.987	328.989	237.773	311.338	325.321	529.255	371.663	201.704	461.887	452.418	408.882	0.00084563	0.0025486	0.00079464	927.91	2.0516e-05	2.7726e-05	532.24	281.95	1.5469e-05	1.4206e-05	164.26	64.714	109.62	51.402	9.9157e-06	32.087	0.037799	0.048435	0.013625	1302.1	0.00050974	0.00053981	929.75	402.45	0.00050906	0.00053825	377.51	133.74	169.81	73.413	0.00051862	63.576	495.176	340.813	265.428	185.313	396.119	503.918	183.994	190.576	287.275	393.696	186.397	191.145	194.844	199.028	516.666	194.377	-8191	255	
7280.251	1	1	0	0	0.12853	0.23808	0.024555	0.097282	0.1492	0.20506	0.059452	0.23674	0.13963	0.17314	0.14611	0.23295	0.18629	0.1756	0.048795	0.17273	-0.82083	-0.61042	-0.42708	-1.1458	-0.24792	-0.88542	-1.0604	-0.54792	-1.2333	-0.74375	-0.38125	-1.2479	-0.51458	-0.85	-0.94792	-0.34792	173.359	369.618	268.195	196.051	528.407	222.015	446.145	199.927	314.580	267.162	439.891	486.844	515.357	454.539	302.030	226.387	0.00071929	0.0030794	0.0018063	913.18	2.6164e-05	2.9841e-05	509.13	280.32	1.0261e-05	1.187e-05	162.4	63.303	109.65	51.599	4.4475e-06	32.032	0.03753	0.048135	0.013468	1282.8	0.0005053	0.00053339	909.28	398	0.0005041	0.00053437	374.19	132.19	169.19	73.315	0.0005173	63.447	174.727	465.544	499.052	185.565	399.353	403.339	183.544	190.738	296.914	296.038	188.323	191.502	194.511	199.080	294.428	194.929	-8191	255	
7280.370	1	1	0	0	0.15128	0.052328	0.31666	0.34432	0.096607	0.13255	0.16372	0.052346	0.033326	0.21452	0.024101	0.19541	0.21282	0.13652	0.2508	0.1163	-0.41667	-0.55625	-0.22292	-1.2771	-0.59792	-0.64583	-1.2563	-0.39375	-1.1479	-0.775	-0.2625	-1.1646	-0.4875	-0.74167	-1.0354	-0.26667	211.866	520.226	183.541	473.094	369.196	460.031	491.199	278.845	282.850	361.899	190.523	190.278	460.693	353.000	389.019	401.272	7.116e-05	0.00043814	0.0008924	914.98	9.4982e-06	3.2628e-05	510.37	279.28	3.1137e-05	2.5639e-05	160.07	63.683	108.96	51.57	1.7382e-05	32.553	0.037375	0.047922	0.013434	1283.4	0.00050393	0.00053677	911.63	398.52	0.00050356	0.0005369	375.12	133.49	169.71	73.536	0.00051898	64.039	526.410	351.383	249.642	185.732	335.784	365.558	183.918	190.731	370.849	459.318	188.013	190.631	195.075	199.189	211.522	194.393	-8191	255	
7280.442	1	1	0	0	0.28074	0.051577	0.2091	0.19976	0.25326	0.14293	0.079141	0.15386	0.20559	0.16707	0.1426	0.043731	0.34796	0.092475	0.047076	0.16871	-0.53125	-0.775	-0.19792	-1.2313	-0.56875	-0.46875	-1.1583	-0.38542	-0.77083	-0.85625	-0.20833	-1.3042	-0.51458	-0.52292	-1.2146	-0.43125	257.759	324.990	284.882	478.294	236.051	439.068	479.991	514.463	263.928	528.448	473.449	440.683	483.042	206.827	233.887	473.753	0.00055159	0.002487	0.00078883	914.88	1.768e-05	3.6551e-05	525.14	282.56	1.1377e-05	3.584e-06	167.17	65.196	109.75	52.469	1.3383e-05	33.493	0.037548	0.048003	0.01348	1289.8	0.00050465	0.00053395	917.22	400.29	0.00050464	0.00053358	376.33	134.1	170.23	74.011	0.0005148	64.452	178.580	280.248	235.069	185.841	477.823	311.493	183.573	190.377	296.587	409.047	188.217	190.794	194.641	199.296	172.504	194.284	-8191	255	
7280.538	1	1	0	0	0.24842	0.2773	0.089526	0.25097	0.11806	0.055949	0.25249	0.16371	0.27444	0.17392	0.22883	0.3051	0.10028	0.16839	0.048386	0.36097	-0.4	-0.96667	-0.18125	-1.0229	-0.55208	-0.20208	-1.1771	-0.56458	-0.80417	-1.0021	-0.18542	-0.95417	-0.84375	-0.35625	-1.15	-0.37708	386.695	207.086	236.263	179.600	513.793	189.477	267.106	406.047	516.288	345.530	391.539	193.731	528.592	351.265	461.019	488.737	0.0011053	0.00068618	0.00043454	925.38	2.4933e-05	1.6831e-05	534.8	285.04	1.0605e-05	3.2551e-05	167.52	65.724	110.44	52.217	1.5678e-05	33.001	0.037455	0.048027	0.013462	1298.6	0.00050847	0.00053821	931.57	403.73	0.00050693	0.00053603	380.62	134.9	170.77	74.084	0.0005176	64.245	497.595	224.745	179.907	185.727	277.835	261.453	183.659	190.260	243.457	304.093	187.489	191.623	194.706	198.956	517.268	194.668	-8191	255	
7280.636	1	1	0	0	0.054227	0.073044	0.1824	0.13997	0.14738	0.16541	0.052875	0.19669	0.11248	0.22457	0.24	0.16562	0.18685	0.26707	0.1433	0.10947	-0.17917	-0.9875	-0.22083	-1.0375	-0.80625	-0.21667	-1.1	-0.43333	-0.5125	-0.97292	-0.14583	-0.82292	-0.93958	-0.19167	-1.2667	-0.43958	346.026	424.655	256.627	502.531	511.786	224.599	500.053	520.657	491.208	359.047	302.962	315.030	209.289	519.689	396.756	443.995	0.00053789	0.0013333	0.00056042	920.71	3.1235e-05	2.1831e-05	519.1	281.43	1.4269e-05	3.7055e-05	160.77	63.313	110.16	51.383	4.7191e-06	32.27	0.037448	0.048041	0.013444	1292.2	0.00050592	0.00053385	913.17	399.79	0.00050341	0.00053464	374.12	132.53	169.19	73.252	0.00051293	63.298	470.500	237.776	208.831	185.895	247.838	358.293	183.975	190.380	334.293	508.327	186.785	190.753	194.574	199.179	368.320	194.808	-8191	255	
7280.755	1	1	0	0	0.18884	0.25627	0.08067	0.26884	0.073883	0.18431	0.28164	0.33221	0.10743	0.11287	0.21033	0.047862	0.20973	0.12102	0.10168	0.080581	-0.035417	-1.3083	-0.1125	-0.92083	-0.9	-0.16875	-1.0938	-0.72083	-0.3125	-1.2229	-0.2375	-0.72292	-1.0438	-0.19583	-1.0417	-0.65208	499.698	287.665	283.951	223.595	449.925	521.297	484.188	192.449	475.986	199.307	430.762	297.999	435.011	209.223	437.242	379.298	0.00040517	0.0012402	0.00045707	904.44	2.0465e-05	3.2672e-05	513.53	281.47	6.282e-06	5.3721e-06	163.06	64.315	109.28	51.843	2.3916e-05	32.419	0.037125	0.047673	0.013382	1281	0.00050057	0.00053313	905.32	399.4	0.00050363	0.00053207	373.86	132.42	169.54	73.535	0.00051234	63.561	390.994	372.572	258.151	186.021	335.753	449.393	183.850	190.351	341.566	234.382	187.743	191.274	195.191	199.429	266.844	194.332	-8191	255	
7280.851	1	1	0	0	0.13488	0.32468	0.048935	0.29529	0.13554	0.1956	0.10085	0.2506	0.081668	0.14224	0.11618	0.29341	0.18069	0.2605	0.078219	0.26257	-0.014583	-1.1104	-0.3375	-0.79583	-1.0562	-0.13333	-1.0812	-0.81667	-0.3125	-1.125	-0.34583	-0.21667	-0.92917	-0.29792	-0.98125	-1.0104	244.757	525.788	417.238	400.854	250.360	482.247	528.430	436.976	522.591	304.912	437.385	311.951	475.777	237.778	200.872	503.268	0.00063181	0.00083256	0.00054699	917.79	2.1829e-05	1.5688e-05	520.37	283.16	6.0725e-06	3.5173e-05	163.73	65.323	110.13	52.099	2.2107e-05	32.962	0.037325	0.047786	0.013408	1286.1	0.00050264	0.00053338	912.3	400.79	0.00050438	0.00053534	375.31	133.51	170.64	73.95	0.00051777	64.325	490.000	410.083	437.290	185.771	177.814	297.830	183.658	190.635	492.452	267.031	186.980	191.593	195.038	199.112	458.345	194.826	-8191	255	
7280.947	1	1	0	0	0.1639	0.11845	0.15599	0.13047	0.39118	0.26139	0.15687	0.085785	0.095208	0.28221	0.27542	0.14564	0.3059	0.16456	0.074653	0.2266	0.36458	-0.92917	-0.39792	-0.63125	-1.0021	-0.3375	-0.975	-0.95833	-0.11458	-1.0979	-0.65208	-0.45417	-1.2208	-0.3875	-0.67292	-1.0146	375.625	521.028	408.292	486.282	364.201	363.533	478.218	451.679	444.063	277.505	186.623	185.243	179.421	493.421	383.766	447.333	0.0008796	0.00047831	0.00077796	922.2	3.2844e-05	1.6947e-05	526.05	283.61	2.7515e-05	5.4349e-05	164.92	65.08	110.41	52.354	2.3866e-05	33.448	0.037417	0.047883	0.013473	1293.6	0.00050709	0.0005372	924.15	402.91	0.0005074	0.00053682	378.92	134.23	171.14	74.038	0.00051744	64.663	197.400	320.331	467.676	185.509	224.131	422.366	184.114	190.566	489.759	323.758	187.528	191.402	195.291	199.012	378.853	195.228	-8191	255	
7281.043	1	1	0	0	0.2888	0.004195	0.2169	0.20216	0.29093	0.094938	0.11678	0.13689	0.263	0.11014	0.11224	0.31438	0.15619	0.38132	0.15743	0.206	0.17708	-0.92292	-0.64167	-0.3125	-0.97292	-0.39375	-0.775	-1.2938	-0.21875	-1.0875	-0.60625	-0.475	-1.0875	-0.46042	-0.43958	-0.77292	306.090	243.044	215.984	284.437	372.467	195.608	237.727	416.822	399.804	444.168	377.330	429.124	510.813	478.846	307.712	410.253	0.00049161	0.0017494	0.00078512	926.72	1.9323e-05	3.3972e-06	530.48	287.19	3.5197e-05	2.5053e-05	166.19	64.764	110.76	52.258	4.51e-06	32.792	0.037445	0.048068	0.01345	1301.5	0.00050823	0.00053555	928.96	404.83	0.00050588	0.00053598	377.98	133.75	170.64	73.919	0.00051433	63.846	201.471	312.958	238.399	185.479	191.541	464.969	183.553	190.633	298.906	198.562	188.003	191.230	195.024	198.965	258.313	194.566	-8191	255	
7281.139	1	1	0	0	0.047575	0.12	0.036253	0.16862	0.095909	0.097242	0.22315	0.30086	0.17763	0.16742	0.1158	0.12247	0.10244	0.04997	0.12245	0.042538	0.0041667	-1.0063	-0.58542	-0.15833	-1.3125	-0.39167	-0.64583	-1.2479	-0.16875	-0.73958	-0.89583	-0.14792	-1.1583	-0.71458	-0.55	-1.1313	388.249	399.435	516.341	486.973	374.865	432.557	409.282	506.346	284.472	226.346	418.334	237.414	409.900	260.580	441.448	452.357	0.0006666	0.0010911	0.00049831	909.28	6.3544e-06	1.661e-05	511.22	280.67	1.6507e-05	1.6387e-05	163.57	63.414	108.47	51.192	3.1032e-05	32.095	0.037133	0.047762	0.013336	1280.2	0.00050208	0.00052986	904.71	398.85	0.00049765	0.00052715	370.9	131.14	168.15	72.803	0.00050797	62.617	521.659	312.551	182.916	185.395	317.930	463.375	183.614	190.363	300.654	331.909	187.238	191.116	194.730	198.557	361.117	194.533	-8191	255	
7281.235	1	1	0	0	0.064951	0.30107	0.057644	0.089496	0.13856	0.11322	0.284	0.22027	0.069685	0.20532	0.25077	0.13306	0.1437	0.31013	0.37989	0.18134	0.029167	-0.78958	-0.72917	-0.29167	-1.1458	-0.72917	-0.3375	-1.1854	-0.17292	-0.71667	-1.0104	-0.225	-1.2687	-0.84375	-0.53958	-1.275	529.152	465.000	517.990	302.842	430.252	202.037	452.715	517.673	210.641	379.669	479.601	500.543	235.337	514.354	373.871	515.150	0.00040101	0.0014118	0.00035717	910.53	3.4762e-05	1.9916e-05	508.3	280.28	1.2742e-05	5.2918e-05	159.43	62.987	109.32	51.696	1.1199e-05	32.254	0.036872	0.047207	0.013217	1272.2	0.00049789	0.00052602	898.76	398.16	0.00049502	0.00052601	370.15	130.94	168.92	73.099	0.00050777	62.876	196.849	342.449	518.664	185.072	392.272	351.115	183.218	190.154	173.575	317.100	187.805	190.883	194.604	198.305	458.591	194.524	-8191	255	
7281.356	1	1	0	0	0.045061	0.14765	0.26368	0.12683	0.2388	0.17633	0.19314	0.41016	0.14229	0.18974	0.17209	0.26855	0.1806	0.15689	0.24096	0.1358	-0.0083333	-0.56875	-1.0167	-0.4	-1.1313	-0.55417	-0.22083	-1.0917	-0.26667	-0.41458	-0.99792	-0.29583	-0.975	-0.8375	-0.35833	-1.1167	250.212	342.072	299.103	270.473	224.004	335.122	379.164	486.299	449.640	347.407	362.876	432.843	438.765	399.134	387.850	300.120	0.00025785	0.0023589	0.0011177	914.6	7.7266e-06	3.4104e-05	509.96	280.63	1.5412e-05	1.7237e-05	163.51	64.356	109.04	51.777	1.3978e-05	32.248	0.036821	0.04741	0.013229	1278.6	0.00049585	0.00052917	901.35	398.49	0.00049629	0.00052901	372.15	131.71	168.81	73.217	0.00050923	63.257	189.241	334.572	227.104	185.069	287.548	255.986	183.563	190.350	309.106	516.652	187.592	191.192	194.409	198.433	382.512	193.892	-8191	255	
7281.450	1	1	0	0	0.17313	0.23509	0.25432	0.32081	0.10115	0.10443	0.14498	0.17886	0.22126	0.23389	0.281	0.11193	0.31638	0.24865	0.21033	0.10482	-0.033333	-0.54167	-1.0792	-0.275	-0.81458	-0.83333	-0.28542	-1.2417	-0.47292	-0.3875	-1.2083	-0.26458	-0.69583	-0.74583	-0.089583	-1.1208	275.704	525.237	464.918	185.045	525.650	525.216	236.238	270.069	229.000	415.811	178.089	527.256	517.389	498.567	480.618	424.782	0.00080971	0.0021754	0.00033525	919.53	2.3275e-05	3.2952e-05	519.41	282.99	9.1118e-06	2.3221e-05	162.97	64.278	109.45	51.887	1.8042e-05	32.748	0.03694	0.047489	0.013318	1283.2	0.0005015	0.00052911	909.27	400.24	0.00049797	0.00053052	372.84	132.28	169.26	73.352	0.0005104	63.566	210.127	241.085	234.390	185.091	211.679	246.921	183.338	190.199	289.711	293.803	187.409	190.847	194.208	198.639	242.844	194.652	-8191	255	
7281.546	1	1	0	0	0.26144	0.10443	0.23741	0.28293	0.15969	0.1015	0.037731	0.25799	0.12165	0.22675	0.29754	0.11878	0.072955	0.22586	0.29716	0.29835	-0.075	-0.125	-0.96458	-0.14792	-0.60625	-0.99375	-0.20417	-1.1292	-0.68333	-0.325	-1.2396	-0.38333	-0.7125	-1.1729	-0.26042	-0.97083	290.169	278.466	517.587	504.037	302.152	471.033	236.006	441.408	296.854	352.633	456.942	180.542	246.444	398.358	481.318	244.625	0.0010891	0.00034965	0.00042064	914.76	1.6631e-05	6.7373e-06	516.4	280.95	2.5042e-05	2.9748e-05	164.06	63.053	107.27	50.432	8.1415e-06	31.422	0.036795	0.047418	0.013292	1281	0.00049805	0.0005265	906.22	397.63	0.00049703	0.00052606	370.47	130.74	166.64	71.906	0.0005061	62.142	206.068	305.272	284.846	185.326	515.372	499.403	183.536	190.247	325.358	285.195	187.112	191.322	194.671	198.710	245.723	194.694	-8191	255	
7281.643	1	1	0	0	0.20288	0.15587	0.29819	0.22004	0.092358	0.063666	0.17548	0.030946	0.062913	0.11731	0.33661	0.21026	0.0876	0.17618	0.12999	0.30414	-0.33333	-0.18958	-0.99583	-0.4125	-0.41042	-0.975	-0.10208	-1.0021	-0.68542	-0.064583	-1.0979	-0.48958	-0.62292	-1.1729	0.01875	-0.89792	398.974	247.630	428.769	228.230	480.693	269.787	420.088	311.948	456.548	242.830	186.302	426.459	285.293	507.635	363.442	437.193	0.00062403	0.0011057	0.00045986	900.06	1.7972e-05	3.4302e-06	497.78	278.38	1.7748e-05	2.0934e-05	155.19	62.451	108.49	50.241	1.3878e-05	31.37	0.036561	0.046774	0.013132	1264.2	0.00049416	0.00052266	887.2	393.39	0.00049148	0.00052148	364.82	129.11	166.48	71.695	0.00050239	61.735	520.446	245.730	233.203	185.388	348.372	479.754	183.858	190.716	353.257	229.243	187.808	191.001	194.734	198.691	426.591	193.795	-8191	255	
7281.739	1	1	0	0	0.24994	0.073061	0.24081	0.43757	0.018758	0.31255	0.28241	0.32465	0.02747	0.34552	0.49575	0.32481	0.18414	0.24688	0.17092	0.11262	-0.26042	-0.24583	-1.0375	-0.57292	-0.34583	-1.0958	-0.22083	-0.775	-0.8375	-0.066667	-0.9375	-0.8	-0.34792	-1.2479	-0.27917	-0.70208	296.961	279.924	455.776	530.662	405.295	258.738	463.638	459.704	346.758	213.630	472.239	532.260	320.642	525.577	191.406	232.171	0.00029134	0.0010775	0.00059517	904.28	2.152e-05	2.9453e-05	503.48	279.04	1.2825e-05	3.6028e-05	160.64	62.99	108.58	50.988	2.0794e-05	32.139	0.036289	0.046713	0.01309	1264	0.00049404	0.00052026	891.06	395.77	0.00049285	0.00052172	367.45	130.04	167.33	72.341	0.00050271	62.264	478.193	401.744	421.905	185.459	247.233	199.297	183.319	190.745	223.398	180.376	186.987	190.609	194.686	198.934	526.153	194.664	-8191	255	
7281.835	1	1	0	0	0.047087	0.18351	0.24752	0.13698	0.23035	0.15729	0.16093	0.23528	0.32042	0.20945	0.27488	0.11432	0.168	0.21575	0.24007	0.31454	-0.50625	-0.20625	-0.98125	-0.60833	-0.34792	-1.0562	-0.33125	-0.625	-1.0229	-0.29375	-0.98125	-0.54167	-0.37708	-1.2792	-0.28125	-0.66458	417.059	308.920	213.005	490.171	181.746	438.102	420.773	452.949	394.832	193.991	173.844	490.442	216.535	242.582	262.840	186.365	0.00062103	0.0017058	0.00035812	909.62	1.939e-05	1.6319e-05	511.12	278.75	4.1144e-06	2.3451e-05	162.89	63.783	109.93	51.26	2.5731e-06	32.841	0.036494	0.046808	0.013127	1269.3	0.00049348	0.00052205	897.61	395.66	0.00049252	0.00052274	370.36	130.98	168.01	72.551	0.00050419	63.06	188.654	286.681	240.340	185.287	517.372	412.492	183.349	190.612	459.079	237.625	187.413	191.031	194.560	198.887	419.693	194.154	-8191	255	
7281.931	1	1	0	0	0.33145	0.10041	0.062772	0.20739	0.28261	0.19102	0.22593	0.088045	0.081114	0.15123	0.1171	0.28253	0.18054	0.34402	0.21999	0.18117	-0.87292	-0.11042	-0.78958	-0.79792	0.0875	-1.0187	-0.46667	-0.725	-1.0646	-0.35625	-0.56667	-1.0083	-0.15	-1.2125	-0.39375	-0.49792	232.540	487.198	485.826	462.450	291.379	371.163	318.705	414.374	343.556	499.435	296.479	437.721	263.931	529.434	380.279	459.007	0.00079529	0.0016389	0.00053028	911.35	2.9469e-05	1.2687e-05	527.31	284.45	9.2147e-07	3.0826e-05	166.24	64.931	109.06	51.642	8.7438e-06	32.833	0.036473	0.046903	0.013192	1279.1	0.0004959	0.00052515	911.48	399.36	0.00049623	0.0005234	372.86	132.34	168.1	73.088	0.0005062	63.253	448.540	322.932	473.921	185.386	193.259	470.369	183.713	190.312	377.962	385.873	187.394	190.602	195.132	198.964	352.948	194.673	-8191	255	
7282.052	1	1	0	0	0.25903	0.060887	0.15318	0.18081	0.072346	0.074924	0.3231	0.084555	0.13231	0.24805	0.24728	0.15863	0.16844	0.12313	0.16254	0.10224	-0.65833	-0.06875	-0.71458	-1.1042	-0.08125	-1.1167	-0.68125	-0.36667	-1.0167	-0.12292	-0.71042	-1.0438	-0.34583	-1.0646	-0.73542	-0.46667	382.668	426.281	360.123	493.617	197.821	377.910	227.941	453.698	371.839	220.335	438.298	243.502	321.503	498.787	207.488	370.492	0.00010216	0.002286	0.00057303	910.18	9.9448e-06	1.9494e-05	516.01	281.87	2.1041e-05	3.866e-05	162.35	63.46	108.18	51.233	2.6126e-05	31.595	0.036581	0.046886	0.013159	1278	0.00049473	0.00052387	903.71	397.35	0.00049134	0.00052101	368.78	130.74	167.38	72.586	0.00050227	62.39	421.196	314.108	457.845	185.431	404.917	369.958	182.788	190.418	362.028	380.897	187.215	190.682	195.272	198.850	506.069	194.816	-8191	255	
7282.148	1	1	0	0	0.21206	0.15918	0.18841	0.3137	0.26517	0.10857	0.084783	0.35188	0.067675	0.14637	0.25552	0.34367	0.084945	0.45415	0.035817	0.093091	-0.62083	-0.31667	-0.68958	-1.1562	-0.12708	-1.0333	-0.74375	-0.11875	-1.1187	-0.51875	-0.68542	-1.2125	-0.41042	-0.93333	-0.70208	-0.42292	406.681	285.931	439.729	467.772	304.707	192.377	315.823	524.313	243.631	281.643	408.639	488.345	173.223	458.256	289.208	415.108	0.00036814	0.003388	0.00086164	904.21	1.734e-05	3.0753e-05	508.73	279.94	2.2716e-06	9.5487e-06	160.5	63.349	108.27	51.146	2.3567e-05	31.865	0.036372	0.046548	0.013084	1266.8	0.00049017	0.00052174	894.25	395.23	0.00049245	0.00052118	367.94	130.06	167.11	72.489	0.00050452	62.44	486.552	502.353	185.210	185.485	253.356	284.688	183.863	190.987	320.299	402.130	187.029	191.021	194.658	199.084	498.274	194.582	-8191	255	
7282.242	1	1	0	0	0.044306	0.14569	0.14847	0.081379	0.1984	0.23199	0.28225	0.19013	0.07112	0.23075	0.32421	0.32599	0.17612	0.2716	0.19389	0.25303	-0.52917	-0.48958	-0.32917	-1.3333	-0.24375	-0.85417	-1.0125	-0.23542	-1.0083	-0.46667	-0.27917	-1.0583	-0.29792	-0.6875	-0.84583	-0.18333	505.076	382.195	237.913	195.279	460.904	189.629	181.264	360.571	477.784	266.293	236.178	273.093	315.930	455.143	492.535	460.631	0.0001339	0.0006762	0.00035671	910.93	3.0042e-05	3.3204e-05	514.1	279.97	1.0249e-05	2.1445e-05	162.35	64.536	109.35	51.566	9.3121e-06	32.509	0.036392	0.04675	0.01315	1271.4	0.00049277	0.00052077	898.72	394.22	0.00048976	0.00052095	368.37	130.97	167.26	72.691	0.00050114	62.991	471.792	474.938	440.296	185.693	327.033	286.063	183.786	190.743	315.013	341.907	187.604	190.822	195.104	199.366	175.166	195.338	-8191	255	
7282.338	1	1	0	0	0.28075	0.016775	0.14954	0.082011	0.34382	0.24454	0.17485	0.12311	0.18739	0.35816	0.26777	0.35767	0.30292	0.20109	0.090595	0.13568	-0.44583	-0.40625	-0.041667	-1.2354	-0.39583	-0.63333	-1.1458	-0.15208	-1.0417	-0.72708	-0.35	-1.1271	-0.31875	-0.63125	-1.0083	-0.39583	505.826	489.914	279.567	395.456	414.071	280.460	465.232	444.281	226.398	200.202	295.427	476.412	517.843	273.145	267.500	217.118	0.0005435	0.0020813	0.0010436	909.17	1.2496e-05	4.272e-05	519.18	281.89	9.29e-06	3.3079e-05	165.69	65.274	109.86	52.1	1.5856e-05	32.925	0.03655	0.046868	0.013182	1274.3	0.00049393	0.00052331	906.53	397.65	0.00049275	0.00052279	371.79	132.28	168.65	73.262	0.00050586	63.652	516.299	396.073	273.709	185.698	226.485	336.586	183.740	190.285	528.797	454.514	188.227	191.128	195.028	199.473	179.290	195.013	-8191	255	
7282.435	1	1	0	0	0.35078	0.10157	0.18357	0.35908	0.23984	0.12335	0.3296	0.083394	0.21944	0.32653	0.12807	0.064813	0.2623	0.08096	0.1949	0.18418	-0.49167	-0.65417	-0.18542	-1.0812	-0.38542	-0.47917	-1.0354	-0.225	-0.87292	-0.71875	-0.20417	-1.0938	-0.51667	-0.41875	-0.9875	-0.1625	195.845	296.276	397.678	467.664	396.069	182.968	487.521	499.348	215.387	459.927	515.783	244.401	431.378	473.544	313.955	430.052	0.00035081	0.00064293	0.00046666	919.3	1.8728e-05	1.453e-05	528.95	282.59	2.2743e-05	1.7849e-05	166.77	66.105	111.16	52.079	1.1305e-05	32.789	0.036466	0.046756	0.01311	1282.1	0.0004933	0.00052408	914.22	398.33	0.0004915	0.00052285	373.22	132.53	168.75	73.155	0.00050335	63.158	518.190	418.405	521.593	185.504	427.525	342.024	183.490	190.616	241.856	265.490	188.113	191.290	194.844	199.501	467.646	194.975	-8191	255	
7282.531	1	1	0	0	0.045147	0.146	0.23858	0.37666	0.12806	0.12877	0.21414	0.20098	0.18424	0.092676	0.31149	0.32694	0.10852	0.17511	0.2353	0.1563	-0.31042	-0.91042	-0.12917	-0.96458	-0.34167	-0.23542	-1.075	-0.21667	-0.49583	-0.78542	-0.32708	-0.94792	-0.56875	-0.20208	-1.1417	-0.3875	521.700	482.665	264.270	479.189	214.683	202.917	189.488	292.974	381.248	294.597	205.018	211.433	194.513	425.177	190.999	451.410	0.00040741	0.0035633	0.00046881	918.09	9.7145e-06	1.7896e-05	514.1	279.15	5.7236e-06	1.3315e-05	162.7	64.118	108.13	51.181	3.3583e-06	31.836	0.036334	0.046759	0.013051	1275.3	0.00049117	0.00052142	898.11	395.19	0.00049003	0.00051988	366.04	130.45	166.61	72.24	0.00049985	62.169	528.552	530.065	462.598	185.580	312.114	221.841	183.813	191.052	479.388	329.735	188.785	191.460	195.117	199.266	467.708	195.138	-8191	255	
7282.627	1	1	0	0	0.26515	0.2714	0.054061	0.12196	0.21966	0.28041	0.14776	0.28255	0.26457	0.018794	0.15956	0.073996	0.40107	0.091839	0.21614	0.094205	-0.25417	-0.88125	-0.0041667	-1.0146	-0.78958	-0.19167	-1.1896	-0.31458	-0.5875	-0.99792	-0.054167	-1.0042	-0.7875	-0.25833	-1.2083	-0.33125	222.234	388.089	373.944	178.277	218.143	289.233	507.824	500.814	354.594	200.477	256.938	382.410	512.512	390.970	490.933	178.457	0.00068504	0.0017562	0.00061772	908.41	2.56e-05	3.7016e-05	509.95	279	6.0351e-06	1.4281e-05	161.05	64.324	108.79	51.445	6.0362e-06	31.789	0.03627	0.046432	0.012995	1262.6	0.00048753	0.00051721	889.4	393.55	0.000489	0.00051721	366.1	130.05	166.5	72.214	0.00049934	62.157	509.832	262.982	511.125	185.740	329.839	423.971	183.611	190.721	440.878	243.390	187.734	191.351	195.034	199.745	530.346	194.293	-8191	255	
7282.723	1	1	0	0	0.24423	0.21022	0.15032	0.029547	0.22327	0.35133	0.37994	0.33376	0.20421	0.075089	0.095192	0.062358	0.13573	0.24151	0.2006	0.1496	-0.10833	-1.0271	-0.0020833	-0.91042	-0.81458	-0.027083	-0.91042	-0.56667	-0.2625	-1.0854	-0.20833	-0.62708	-1.05	-0.21667	-0.75208	-0.51667	505.937	221.800	389.189	454.435	380.352	401.046	531.994	453.905	421.794	275.047	379.879	239.539	279.405	528.234	530.922	329.488	0.00080784	0.0007248	0.0004953	898.18	2.9399e-05	2.3863e-05	510.88	281.55	1.8559e-05	1.6825e-05	161.08	64.425	107.97	51.363	2.9938e-05	32.298	0.036236	0.046305	0.013018	1263.1	0.00049014	0.00051937	895.05	393.94	0.00048644	0.00051782	366.87	130.41	166.52	72.251	0.00049928	62.59	200.340	285.147	205.612	186.228	186.959	191.978	184.403	190.560	177.459	334.521	187.376	191.243	195.396	199.470	190.408	194.716	-8191	255	
7282.844	1	1	0	0	0.11889	0.20022	0.20342	0.15913	0.17095	0.36635	0.08928	0.28094	0.086758	0.10583	0.09979	0.07825	0.11541	0.2802	0.1332	0.34652	-0.00625	-1.0521	0.0083333	-0.61667	-0.91042	-0.09375	-1.0771	-0.75417	-0.070833	-1.1375	-0.27292	-0.50417	-1.0771	-0.41458	-0.75417	-0.84167	480.473	197.296	448.439	527.611	218.736	201.866	312.427	483.592	409.833	475.825	357.892	275.760	214.351	509.999	246.393	430.764	0.00045141	0.0016154	0.00074257	911.03	8.0358e-06	1.5506e-05	522.7	279.02	6.6492e-06	1.0323e-05	166.1	65.157	108.76	51.501	2.6623e-05	32.66	0.036146	0.046303	0.012985	1268.4	0.0004894	0.00051783	901.79	394.54	0.00048821	0.00051839	369.89	131.56	167.22	72.437	0.00050173	63.163	192.740	489.046	519.931	186.029	479.433	527.573	184.158	190.908	521.577	219.174	188.156	191.420	195.342	199.877	250.463	195.151	-8191	255	
7282.940	1	1	0	0	0.097927	0.35656	0.22453	0.20617	0.14256	0.32683	0.1368	0.19949	0.12568	0.15682	0.18456	0.19976	0.10909	0.14229	0.034794	0.2753	-0.054167	-1.0958	-0.34375	-0.475	-0.96875	-0.18333	-0.88333	-0.85625	-0.079167	-1.0229	-0.36875	-0.34792	-1.0292	-0.41042	-0.79792	-0.82917	517.017	336.699	433.105	507.970	252.343	446.330	486.117	435.753	303.047	533.105	526.738	348.578	531.400	201.178	277.231	467.381	0.0002804	0.000187	0.00096567	916.93	3.8164e-05	3.5176e-05	527.91	280.73	1.4739e-05	2.8998e-05	164.91	64.294	108.89	51.215	2.9937e-05	32.515	0.036323	0.046689	0.013071	1276.8	0.00049048	0.0005184	907.32	395.23	0.00048788	0.00051708	368.96	130.95	166.84	72.039	0.00049824	62.319	185.696	234.584	373.383	186.230	373.420	428.425	183.918	191.126	291.659	381.492	188.608	191.053	195.289	199.612	177.271	194.600	-8191	255	
7283.036	1	1	0	0	0.027104	0.086952	0.21941	0.22266	0.19388	0.17713	0.011288	0.25367	0.18069	0.18741	0.07835	0.33372	0.15129	0.27281	0.35215	0.11599	0.091667	-0.90625	-0.56875	-0.44167	-0.92917	-0.052083	-0.35833	-0.90625	0.15417	-1.1437	-0.80833	-0.24583	-1.1771	-0.23958	-0.725	-0.81042	253.167	376.876	458.933	522.203	295.107	408.479	366.508	505.872	269.474	416.323	327.876	512.570	403.206	466.166	299.936	432.028	0.00073657	0.0021673	0.00045595	905	1.0214e-05	2.5266e-05	515.75	277.92	5.3843e-06	2.9299e-05	160.28	63.215	107.78	50.717	1.7864e-05	31.558	0.036087	0.046258	0.012987	1262.3	0.00048615	0.00051524	890.86	391.57	0.00048566	0.00051271	364.56	129.19	165.55	71.667	0.00049564	61.9	524.856	379.747	303.829	185.957	238.910	226.244	184.588	191.026	314.950	306.786	188.102	191.548	194.936	199.540	182.086	195.431	-8191	255	
7283.132	1	1	0	0	0.18426	0.13067	0.089589	0.21725	0.21183	0.19802	0.20947	0.47517	0.16528	0.026971	0.096043	0.051822	0.079191	0.39511	0.25899	0.11568	0.36458	-1.0083	-0.55625	-0.21667	-1.1771	-0.41667	-0.66042	-0.98958	-0.15417	-0.925	-0.775	-0.28542	-1.2333	-0.46458	-0.52917	-1.2437	333.788	501.628	474.650	393.745	529.542	513.232	384.723	447.432	483.942	202.887	291.387	246.407	242.550	519.066	380.454	431.228	0.00080737	0.0015591	0.00063876	904.47	1.9644e-05	2.4536e-05	515.95	279.73	1.3363e-05	1.1989e-05	162.3	62.808	108.4	51.131	2.8505e-06	32.152	0.035937	0.046156	0.01294	1262.4	0.00048804	0.00051713	891.62	392.48	0.00048525	0.00051424	366.19	129.86	166.18	72.072	0.00049758	62.254	477.390	417.654	247.658	185.820	378.879	358.587	184.210	191.169	306.651	261.412	188.562	191.293	195.596	199.776	287.114	195.128	-8191	255	
7283.228	1	1	0	0	0.26704	0.13567	0.10391	0.1288	0.011043	0.15678	0.12504	0.29283	0.24681	0.099657	0.052374	0.065896	0.011689	0.25485	0.26869	0.16033	0.22083	-0.89792	-0.84375	-0.14167	-1.2	-0.53542	-0.48542	-1.2521	-0.22083	-0.60625	-1.0333	-0.17083	-1.0708	-0.55625	-0.36458	-1.0667	315.015	462.704	355.625	452.639	310.496	385.166	205.026	532.566	191.201	305.300	193.481	391.461	454.414	527.154	518.735	207.192	0.00043626	0.0028276	0.0010399	908.91	2.6513e-05	6.6377e-06	517.94	280.01	9.8727e-06	1.7638e-05	164.99	65.467	108.73	51.39	1.5083e-05	32.875	0.035967	0.046161	0.012954	1265.3	0.00048739	0.00051626	899.19	394.75	0.00048741	0.00051727	368.98	131.01	167.02	72.437	0.00049865	62.762	510.004	357.337	304.232	186.234	502.147	214.659	184.231	191.093	513.937	216.547	187.226	192.028	194.969	199.685	437.589	195.476	-8191	255	
7283.324	1	1	0	0	0.095356	0.21503	0.13897	0.20639	0.21248	0.062639	0.22811	0.037656	0.20977	0.19289	0.080763	0.11191	0.20637	0.23722	0.14335	0.047986	0.26458	-0.63125	-0.80417	-0.075	-1.0167	-0.51875	-0.2125	-1.1854	-0.48958	-0.6625	-1.0375	-0.19792	-1.1771	-0.62292	-0.30417	-1.2396	195.153	333.120	418.476	506.890	238.384	445.329	186.371	469.428	405.709	471.897	280.023	396.552	267.250	182.219	294.184	349.010	0.00062658	0.002567	0.001406	912.97	4.3279e-05	3.1461e-05	526.2	283.12	2.0055e-05	3.645e-05	166.74	65.903	109.38	51.639	4.794e-05	32.894	0.035992	0.046503	0.012964	1271.9	0.00048967	0.00051685	907.66	397.01	0.00048896	0.00051958	371.71	131.57	168.13	72.733	0.0005001	63.326	239.072	222.842	250.829	186.158	253.780	299.214	184.220	191.339	242.718	189.667	188.203	191.420	195.549	199.898	183.927	195.329	-8191	255	
7283.443	1	1	0	0	0.10153	0.12238	0.32466	0.27468	0.14853	0.27438	0.1553	0.10917	0.39407	0.18846	0.066639	0.23252	0.20504	0.20945	0.11559	0.22687	-0.12292	-0.37917	-1.0708	-0.20417	-0.94375	-0.69583	-0.23958	-1.0604	-0.53125	-0.45417	-1.1208	-0.1875	-0.95625	-0.82917	-0.12708	-1.1229	327.664	420.965	188.623	177.679	197.727	509.333	364.620	512.822	435.098	481.243	178.535	478.909	522.955	439.064	370.987	174.990	0.00031995	0.0013547	0.00042622	921.57	1.8869e-05	2.679e-05	520.33	281.58	3.404e-05	3.7898e-05	161.98	64.037	108.8	51.262	7.3862e-06	32.007	0.036035	0.046423	0.012997	1276.1	0.00048885	0.0005165	904.68	394.31	0.0004853	0.00051518	367.24	129.86	166.24	72.174	0.00049809	62.124	524.653	307.752	441.157	186.168	214.858	230.650	184.423	191.405	438.271	257.583	188.090	191.604	195.597	199.596	264.615	195.736	-8191	255	
7283.539	1	1	0	0	0.040569	0.21742	0.0276	0.36557	0.29396	0.072137	0.26881	0.18317	0.096252	0.30018	0.27812	0.32262	0.35243	0.28534	0.10757	0.14885	-0.083333	-0.45417	-1.075	-0.225	-0.69375	-1.0396	-0.1875	-1.0125	-0.6375	-0.32083	-1.1	-0.2875	-0.85625	-1.1667	-0.18958	-1.0354	390.141	252.692	365.925	413.291	438.667	444.932	356.996	182.689	505.768	449.860	400.528	460.664	516.441	455.454	455.419	386.851	0.00043347	0.0013954	0.0005232	904.19	1.5553e-05	4.526e-06	508.55	278.02	1.0688e-05	2.3793e-05	159.3	63.268	107.74	50.812	2.1542e-05	32.006	0.035918	0.046031	0.012929	1259.7	0.00048429	0.0005138	887.84	391.11	0.00048285	0.00051307	363.21	128.75	165.33	71.71	0.00049405	61.9	425.844	359.100	188.749	186.230	275.333	518.977	184.257	191.040	227.787	449.375	188.460	192.100	195.673	199.588	362.389	195.829	-8191	255	
7283.611	1	1	0	0	0.04751	0.28159	0.0088163	0.16154	0.11774	0.08913	0.20689	0.15203	0.13843	0.17957	0.27381	0.12134	0.12822	0.15715	0.16611	0.07896	-0.16875	-0.49375	-0.94167	-0.43958	-0.55417	-0.90208	-0.14167	-1.0021	-0.76875	-0.19167	-1.0229	-0.11458	-0.54583	-0.97292	0.0041667	-1.0292	220.171	319.200	220.850	497.136	401.360	314.917	275.420	185.598	432.790	259.478	227.777	445.866	437.618	423.980	405.553	438.105	0.0011512	0.0026306	0.0005623	903.01	1.4284e-05	3.1315e-05	512.71	276.83	2.0781e-05	3.6296e-05	159.2	63.61	107.99	51.029	1.6753e-05	32.601	0.035828	0.045879	0.012869	1257.7	0.00048394	0.00051156	887.79	391.2	0.00048144	0.00051213	363.58	129.06	165.48	71.755	0.00049399	61.979	520.813	353.419	230.224	186.135	281.241	489.140	184.401	191.651	224.822	449.289	188.350	191.877	195.736	199.560	239.417	195.586	-8191	255	
7283.732	1	1	0	0	0.16244	0.14104	0.14159	0.20501	0.15102	0.11054	0.091058	0.16221	0.11753	0.18165	0.1569	0.18957	0.12607	0.20705	0.21592	0.52444	-0.52083	-0.23333	-0.94792	-0.56875	-0.35833	-1.0958	-0.089583	-0.87708	-0.82292	-0.00625	-0.98125	-0.45625	-0.55	-1.2625	-0.19167	-0.61458	216.477	504.994	529.786	519.889	270.194	266.332	207.492	419.988	507.395	430.758	237.787	512.931	184.412	517.568	446.432	401.144	0.00017181	0.0019546	0.00032659	907.26	1.4121e-05	2.1243e-05	519.99	280.54	6.6001e-06	2.1156e-05	163.26	64.921	108.84	51.357	3.8924e-05	32.927	0.035698	0.045955	0.012876	1261.3	0.00048343	0.00051304	896.41	393.44	0.00048302	0.00051268	367.47	130.4	166.65	72.332	0.00049505	62.813	177.942	440.117	198.779	186.435	300.160	427.013	184.584	191.455	201.150	315.193	188.047	192.970	195.729	199.629	292.067	195.271	-8191	255	
7283.828	1	1	0	0	0.14929	0.079595	0.27287	0.20894	0.22566	0.17179	0.48691	0.33783	0.10265	0.19305	0.20356	0.050206	0.18387	0.24981	0.15857	0.1392	-0.65417	-0.1875	-0.93125	-0.60833	-0.37917	-1.2396	-0.3875	-0.81458	-0.8625	-0.19583	-0.84792	-0.61458	-0.425	-1.15	-0.3125	-0.6	312.063	450.839	315.794	505.356	415.659	257.903	452.469	434.611	225.631	266.951	231.454	518.603	198.131	302.640	238.589	507.444	0.000233	0.0017938	0.00081911	917.69	3.4222e-06	7.2001e-06	522.99	280.37	1.1775e-05	5.7947e-06	167.06	65.443	108.65	51.887	1.3718e-05	33.111	0.035865	0.045921	0.012913	1269.2	0.00048455	0.00051476	904.62	395.37	0.00048484	0.00051542	370	131.54	167.39	72.696	0.00049373	63.053	506.341	272.810	264.729	186.195	410.368	273.095	184.859	191.425	221.296	314.096	188.283	192.157	195.757	200.016	348.060	195.196	-8191	255	
7283.924	1	1	0	0	0.21878	0.13814	0.22357	0.052573	0.36032	0.12383	0.0618	0.16175	0.06313	0.28657	0.31101	0.10629	0.063649	0.11881	0.064934	0.081931	-0.50417	-0.14375	-0.86458	-0.85833	-0.19792	-1.1562	-0.45208	-0.57292	-1.0083	-0.17292	-0.76875	-0.93958	-0.32083	-1.2958	-0.53958	-0.39792	383.968	193.463	531.989	174.006	483.669	357.964	351.421	510.736	312.713	525.807	210.802	476.750	348.354	335.172	458.493	498.503	0.00047342	0.0011247	0.0003056	916.3	3.1446e-06	1.0959e-05	517.12	279.68	3.0012e-05	1.839e-05	163.2	63.472	108.92	51.358	2.4472e-05	32.57	0.035865	0.04603	0.012897	1265.6	0.00048351	0.00051189	897.33	393.15	0.00048293	0.00050965	365.85	129.49	165.7	72.019	0.00049296	62.173	175.153	348.642	473.088	186.090	473.917	277.196	184.392	191.300	236.472	343.465	187.635	191.970	195.447	200.263	260.075	195.913	-8191	255	
7284.020	1	1	0	0	0.10199	0.18321	0.093334	0.05806	0.15916	0.10108	0.11262	0.27025	0.28225	0.10588	0.25717	0.16169	0.15966	0.25613	0.2093	0.081696	-0.62708	-0.041667	-0.7375	-0.91458	-0.35208	-1.1729	-0.57083	-0.43125	-0.94792	-0.30417	-0.60417	-1.0125	-0.20417	-1.05	-0.59167	-0.26042	517.724	419.947	528.838	355.504	374.359	243.456	513.266	464.001	480.121	503.749	468.507	401.434	190.386	512.415	379.170	471.445	0.00015216	0.003113	0.00023089	900.5	3.1267e-05	7.2632e-06	507.07	277.26	2.4979e-05	1.1907e-05	162.06	63.868	108.06	51.822	6.4787e-06	32.318	0.03569	0.045808	0.012831	1259.4	0.00048405	0.00051329	887.88	390.89	0.00048176	0.00051158	364.79	129.48	165.54	72.341	0.00049299	62.464	449.589	221.047	225.812	186.384	308.228	317.388	184.528	191.697	249.890	516.968	188.878	192.025	195.622	199.896	375.389	195.646	-8191	255	
7284.141	1	1	0	0	0.1976	0.057868	0.032089	0.085414	0.14917	0.13945	0.15466	0.33387	0.24084	0.2566	0.083785	0.34391	0.20296	0.26618	0.046121	0.12854	-0.51667	-0.10833	-0.67708	-1.0229	-0.14583	-0.89583	-0.66042	-0.53333	-1.1375	-0.31875	-0.725	-1.0229	-0.3	-0.90208	-0.57917	-0.32708	469.114	497.168	479.668	383.710	363.943	422.281	510.706	193.155	228.754	222.327	457.043	471.875	272.501	531.679	441.884	498.725	0.00043591	0.0010122	0.00049323	906.7	3.209e-05	1.7319e-05	522.16	280.24	9.9522e-06	2.4079e-05	164.83	65.534	109.59	52.013	1.0535e-05	33.118	0.035706	0.045734	0.012868	1261	0.00048403	0.00051359	898.45	394.32	0.0004834	0.00051376	368.59	130.77	167.38	72.868	0.00049568	62.848	183.802	357.729	356.586	186.285	325.503	434.848	184.595	191.634	438.200	323.031	188.448	192.185	195.779	200.387	378.147	195.094	-8191	255	
7284.235	1	1	0	0	0.20851	0.20684	0.083366	0.1893	0.16245	0.11305	0.14645	0.10605	0.20243	0.1603	0.080779	0.2706	0.27913	0.24671	0.067791	0.07018	-0.85208	-0.40208	-0.51875	-1.1229	0.0083333	-0.825	-0.72083	-0.26875	-1.0562	-0.39792	-0.52292	-1.2229	-0.2625	-0.89583	-0.91667	-0.10833	358.451	253.961	465.081	513.069	420.640	367.997	431.132	210.705	237.587	314.844	272.834	290.214	269.369	530.312	269.648	380.345	0.0010433	0.0023967	0.00045296	918.01	1.2985e-05	1.767e-05	525.84	281.91	1.0954e-05	4.15e-05	169.37	65.119	110.43	52.563	1.7995e-05	33.336	0.035839	0.045911	0.012845	1267.7	0.00048424	0.00051299	902.23	395.06	0.00048438	0.00051208	370.23	131.32	167.53	73.223	0.00049632	63.528	185.555	469.084	300.208	186.095	364.128	404.015	184.672	191.534	317.892	400.598	188.858	191.882	196.415	199.875	461.433	195.431	-8191	255	
7284.309	1	1	0	0	0.24362	0.019579	0.25971	0.11073	0.2392	0.027551	0.16113	0.37946	0.23654	0.1113	0.15149	0.20795	0.26151	0.066234	0.31721	0.18097	-0.6375	-0.60625	-0.30625	-1.2875	-0.18958	-0.7375	-0.78958	-0.21042	-1.1313	-0.57708	-0.16875	-1.2208	-0.35625	-0.79167	-0.85833	-0.058333	244.927	410.968	529.063	515.226	448.221	188.111	221.193	498.751	497.899	443.128	233.456	432.161	181.222	478.413	179.008	196.734	0.00063185	0.0013658	0.00039407	922.07	3.2719e-05	2.7425e-05	533.72	283.34	1.7994e-05	2.1296e-05	167.17	66.355	110.13	52.327	8.5697e-06	33.345	0.035885	0.045988	0.012932	1276.6	0.00048609	0.00051593	911.13	397.22	0.00048605	0.00051453	370.92	131.42	167.5	73.213	0.00049513	62.986	496.574	293.635	356.948	186.295	463.358	225.276	184.725	191.640	259.830	482.463	188.335	192.702	195.634	200.115	476.868	196.263	-8191	255	
7284.405	1	1	0	0	0.15909	0.13022	0.13583	0.24717	0.12787	0.06276	0.15532	0.28638	0.25267	0.16153	0.091584	0.15948	0.37719	0.096583	0.08209	0.28326	-0.65625	-0.62917	-0.30625	-1.1646	-0.40833	-0.56667	-0.86875	-0.23125	-0.92917	-0.92083	-0.15417	-1.1792	-0.51667	-0.50208	-1.1729	-0.22917	425.559	495.731	444.937	476.038	334.818	281.886	443.798	491.272	458.684	410.656	528.116	282.296	511.541	289.299	532.598	395.036	0.00028893	0.0016886	0.00058636	911.49	2.545e-05	2.1642e-05	515.64	279.94	1.1783e-05	1.2334e-05	163	62.979	107.12	51.247	2.4369e-05	32.409	0.035834	0.045795	0.012876	1264.4	0.00048331	0.00051245	889.25	391.79	0.00048055	0.0005098	364.43	128.84	164.86	72.056	0.00049306	62.026	513.725	485.553	233.583	186.589	186.598	520.877	184.603	191.731	231.403	270.770	188.904	191.921	195.831	200.545	227.526	195.904	-8191	255	
7284.524	1	1	0	0	0.089723	0.014081	0.058917	0.17282	0.276	0.045026	0.035451	0.17359	0.273	0.12147	0.11363	0.23794	0.095454	0.30756	0.13182	0.18422	-0.53333	-0.84375	-0.3125	-1.1313	-0.47083	-0.46458	-1.1417	-0.28333	-0.68125	-0.75833	-0.17083	-1.1021	-0.775	-0.43542	-1.0667	-0.23542	173.959	432.813	506.593	477.632	335.645	496.419	285.675	387.677	487.709	523.972	174.869	486.613	502.019	194.654	271.288	179.275	0.00040855	0.0015175	0.00081572	898.61	2.4889e-05	2.5173e-05	511.52	277.33	3.1674e-05	1.3021e-05	161.91	64.621	106.87	51.256	2.3506e-05	32.395	0.035669	0.045685	0.012832	1253.6	0.00048026	0.00051072	887.03	389.3	0.00048074	0.00050983	362.79	129.07	164.78	71.865	0.00049104	62.176	200.148	341.974	387.050	186.255	387.851	301.277	184.720	191.745	344.773	381.667	188.274	192.008	195.840	200.026	332.683	195.311	-8191	255	
7284.620	1	1	0	0	0.30371	0.27918	0.20333	0.19704	0.086503	0.091959	0.42136	0.20386	0.20944	0.10407	0.28064	0.31406	0.083657	0.46092	0.03533	0.2528	-0.26875	-0.70208	-0.083333	-1.2208	-0.55417	-0.26458	-1.2208	-0.425	-0.5875	-1.0771	-0.29583	-0.96875	-0.63542	-0.1875	-1.2708	-0.50625	261.851	370.384	453.111	410.674	391.592	230.223	475.362	502.242	261.275	459.751	295.419	239.038	474.740	522.191	444.400	396.179	0.00057404	0.00243	0.00023397	907.15	9.4078e-06	1.4505e-05	509.17	278.21	6.465e-06	8.3255e-06	162.1	64.237	107.82	51.287	1.5994e-05	32.667	0.035747	0.045698	0.012796	1258.3	0.00048165	0.00051006	891.4	390.06	0.00047912	0.00050919	364.5	129.75	165.57	72.12	0.00049327	62.61	485.240	233.533	206.109	186.533	357.684	313.442	184.559	191.862	324.931	382.247	188.609	192.120	195.888	200.055	352.213	195.368	-8191	255	
7284.716	1	1	0	0	0.16834	0.20607	0.22068	0.20785	0.32774	0.034355	0.23518	0.067882	0.24285	0.24068	0.17697	0.13476	0.32907	0.26093	0.13287	0.096652	-0.22292	-1.0167	-0.20625	-0.95625	-0.9	-0.15	-1.1917	-0.525	-0.20625	-1.1125	-0.175	-0.77708	-1.0167	-0.17708	-1.1125	-0.34167	414.761	205.020	275.012	435.503	180.249	312.315	390.666	370.232	292.362	394.620	221.547	200.468	508.375	499.223	427.017	231.951	0.000238	0.00082922	0.00029215	914.63	7.5793e-06	6.9653e-06	520.76	278.82	1.6214e-05	1.2864e-05	165.37	66.093	109.13	51.683	1.9696e-05	33.363	0.0357	0.045756	0.012815	1263.3	0.00048134	0.00051006	896.71	392.23	0.00048211	0.00051202	367.25	130.83	166.47	72.674	0.00049492	63.149	225.048	230.742	328.955	186.447	199.152	331.591	185.094	191.374	345.388	459.149	188.517	192.106	195.686	199.809	260.484	195.160	-8191	255	
7284.837	1	1	0	0	0.30326	0.19289	0.042447	0.058793	0.20319	0.06908	0.13607	0.012982	0.12261	0.16763	0.33939	0.21907	0.21014	0.12093	0.14814	0.45537	0.14375	-0.97917	-0.31667	-0.91042	-0.64792	-0.125	-1.1292	-0.55625	-0.1625	-1.1583	-0.44583	-0.71458	-1.1167	-0.28333	-1.0479	-0.5875	479.652	294.787	270.816	346.826	285.320	292.925	232.388	422.148	393.357	449.978	482.426	460.091	513.811	470.007	527.174	366.326	0.00047569	0.0030229	0.00045156	915.3	1.2018e-05	3.2765e-05	521.38	280.48	2.5237e-05	3.0595e-05	163.36	64.291	108.48	51.164	2.9493e-05	32.351	0.035821	0.045851	0.012854	1265.3	0.00048181	0.00051268	898.55	392.77	0.00048069	0.00051111	364.9	129.67	165.4	71.926	0.00049329	62.177	175.786	228.405	429.307	186.617	258.707	255.185	184.721	191.627	422.677	360.925	188.847	192.545	195.897	200.190	193.760	195.178	-8191	255	
7284.908	1	1	0	0	0.069594	0.089805	0.16741	0.3193	0.15781	0.17109	0.14135	0.084875	0.20775	0.17827	0.18862	0.054964	0.099829	0.22955	0.011072	0.086254	0.26042	-1.1437	-0.34375	-0.62708	-1.0583	-0.18125	-0.93958	-0.975	-0.17917	-1.0604	-0.34167	-0.5125	-1.1562	-0.083333	-0.8	-0.71667	325.026	313.034	402.870	474.892	279.953	232.316	476.942	442.847	355.632	359.543	445.455	498.955	340.735	312.010	255.404	417.684	0.00071989	0.0018014	0.00062082	895.83	1.5039e-05	1.9314e-05	503.85	275.49	2.8699e-05	2.2189e-05	160.36	62.753	106.75	50.579	3.6353e-05	31.744	0.035658	0.045665	0.012801	1249.9	0.00048046	0.00050907	881.28	387.38	0.00047751	0.00050919	360.27	127.57	163.8	71.206	0.00048872	61.453	210.287	339.333	296.212	186.392	294.518	404.335	184.654	191.388	295.128	317.879	188.402	191.910	195.968	200.401	339.451	195.292	-8191	255	
7285.004	1	1	0	0	0.30397	0.14814	0.28949	0.36661	0.34414	0.15179	0.18556	0.20216	0.074263	0.10432	0.25072	0.44964	0.2101	0.30418	0.039653	0.1735	0.20417	-1.0333	-0.44583	-0.63958	-1.2333	-0.38125	-0.89792	-1.0208	-0.17708	-0.98958	-0.49167	-0.37708	-1.4813	-0.3	-0.59167	-1.0812	518.365	303.318	446.159	192.513	198.904	256.186	487.102	464.504	289.210	308.602	502.620	464.334	181.837	218.424	420.553	372.012	8.6374e-05	0.00059136	0.00050286	894.03	3.0999e-05	1.8234e-05	504.94	277.54	1.4443e-05	1.3775e-05	161.97	63.132	107.2	51.019	8.9739e-06	32.333	0.03534	0.045368	0.012767	1247.3	0.00047932	0.00050712	883.12	388.07	0.00047715	0.00050818	362.12	128.4	164.7	71.603	0.00048944	61.881	526.063	206.629	242.537	186.750	232.709	288.002	184.649	191.284	380.726	527.997	188.113	191.888	196.082	200.092	472.955	195.831	-8191	255	
7285.125	1	1	0	0	0.029241	0.2683	0.28271	0.0992	0.17388	0.081512	0.21906	0.28643	0.10434	0.27054	0.055641	0.16809	0.10641	0.21176	0.14301	0.096966	0.16875	-1.0438	-0.575	-0.49792	-1.1146	-0.28958	-0.70208	-1.1688	-0.125	-1.0708	-0.76875	-0.34375	-1.1521	-0.25	-0.625	-1.025	311.102	189.527	366.374	331.617	424.318	525.060	433.950	487.735	422.633	462.080	188.694	202.132	492.749	517.332	422.032	386.178	0.00037164	0.0029941	0.00035138	896.45	1.4635e-05	2.9507e-06	515.61	276.87	5.9895e-06	1.3139e-05	163.41	64.246	107.23	51.127	8.4583e-06	32.518	0.035488	0.045429	0.012794	1255.1	0.00047986	0.00050865	889.49	390.34	0.00047902	0.00050908	363.02	129.21	165.05	71.98	0.00049106	62.426	526.348	398.726	253.082	186.397	502.784	523.184	184.529	191.704	465.614	423.117	188.881	192.278	195.674	200.044	377.331	195.967	-8191	255	
7285.221	1	1	0	0	0.27973	0.058983	0.18173	0.19667	0.094811	0.11743	0.18186	0.33438	0.14736	0.058265	0.10256	0.10003	0.026371	0.37956	0.091004	0.20759	0.24167	-0.95	-0.84375	-0.45	-0.86458	-0.53333	-0.52917	-1.2021	-0.18125	-0.85417	-0.86875	-0.11458	-1.3625	-0.55833	-0.33542	-1.2292	201.328	477.396	194.694	211.804	206.784	335.200	387.318	517.973	282.539	514.048	512.582	327.715	223.189	178.211	527.685	207.544	0.00033374	0.0017316	0.00098323	910.07	1.2129e-06	1.9003e-05	520.51	278.34	1.6774e-05	2.5128e-05	166.31	65.345	107.92	51.63	7.179e-06	32.957	0.035643	0.045595	0.012856	1260.8	0.00048477	0.0005112	899.23	391.76	0.00048128	0.00051216	366.95	130.68	166.04	72.302	0.00049226	62.944	183.809	386.318	532.892	186.575	331.243	206.737	184.866	191.488	480.913	488.542	189.342	192.255	195.726	199.881	414.735	195.935	-8191	255	
7285.316	1	1	0	0	0.078888	0.050464	0.14809	0.18975	0.28242	0.1297	0.16573	0.29378	0.28052	0.089156	0.26	0.09551	0.093343	0.37031	0.17778	0.02506	0.35417	-0.85208	-0.85208	-0.36458	-1.0375	-0.52083	-0.32708	-1.2208	-0.3625	-0.66042	-1.0167	-0.21875	-1.0771	-0.80833	-0.25833	-1.1854	325.575	467.514	477.432	505.135	268.286	494.125	211.330	441.206	251.707	393.289	478.972	335.280	251.098	494.276	422.259	461.315	0.00048042	0.0033976	9.1341e-05	905.2	1.8879e-05	5.7455e-06	517.23	278.48	1.7562e-05	1.4018e-05	161.02	63.966	107.36	51.057	1.1208e-05	32.37	0.035654	0.045787	0.012792	1261.2	0.00048144	0.00051015	894.19	390.99	0.00047844	0.0005096	363.74	128.95	165.27	71.808	0.00048927	62.017	221.451	193.403	214.944	186.499	511.153	355.017	185.026	191.729	204.404	413.973	189.088	192.084	195.623	200.380	320.772	196.124	-8191	255	
7285.412	1	1	0	0	0.059784	0.096719	0.10685	0.17609	0.17587	0.15474	0.057781	0.16115	0.16598	0.025594	0.11764	0.1683	0.2828	0.48989	0.33213	0.034784	0.12083	-0.5875	-0.92708	-0.33958	-0.89583	-0.71458	-0.32083	-1.3208	-0.38125	-0.5875	-1.2563	-0.33958	-1.1146	-0.80417	-0.13958	-1.3625	293.884	254.923	224.941	487.493	430.217	364.360	245.695	456.005	425.414	279.644	378.531	424.965	210.325	471.036	201.438	334.142	0.00048765	0.0012543	0.0010351	894.35	1.1092e-05	2.2691e-05	507.27	276.79	1.0735e-05	1.0147e-05	160.05	63.124	106.89	50.931	2.864e-05	32.322	0.035314	0.045395	0.012736	1248	0.00047829	0.00050672	881.64	389.13	0.00047659	0.00050563	360.81	128.23	164.59	71.655	0.00048742	61.881	533.018	310.272	479.254	186.165	218.585	241.166	185.052	191.614	354.535	486.319	188.810	192.322	196.015	199.972	471.310	195.849	-8191	255	
7285.532	1	1	0	0	0.21676	0.30992	0.22412	0.16174	0.18544	0.30538	0.21735	0.23896	0.056988	0.27867	0.12667	0.1553	0.31574	0.28772	0.17775	0.10771	0.00625	-0.4625	-1.0708	-0.35833	-0.825	-1	-0.3125	-1.1458	-0.63333	-0.45625	-1.3937	-0.33958	-0.94375	-1.0583	-0.275	-1.1604	321.692	434.493	490.965	196.523	256.120	264.485	335.606	516.037	220.980	336.320	338.655	380.434	447.992	488.107	286.166	405.268	0.00078549	0.00089005	0.00082396	893.38	1.599e-05	2.3927e-05	510.36	275.86	1.4676e-05	1.8659e-05	161.14	63.281	107.09	51.249	9.4326e-06	32.841	0.035247	0.045267	0.012744	1249.3	0.00047725	0.00050657	887.33	388.76	0.00047835	0.00050711	362.46	128.9	164.88	71.94	0.00048782	62.342	223.990	185.175	285.775	186.731	244.096	285.182	184.522	191.928	466.297	297.833	188.936	191.699	195.755	200.268	217.185	196.382	-8191	255	
7285.604	1	1	0	0	0.1213	0.13205	0.063985	0.44443	0.27941	0.097762	0.17814	0.03207	0.30073	0.062503	0.051676	0.050461	0.28097	0.32419	0.13506	0.13792	-0.20208	-0.34583	-1.2062	-0.52083	-0.6875	-0.9875	-0.22292	-1.0104	-0.86875	-0.29792	-1.1021	-0.42708	-0.60208	-1.2458	-0.1625	-1.0458	431.974	497.336	377.322	475.117	308.488	309.354	175.998	373.895	469.785	464.101	319.545	416.470	492.166	491.770	176.537	346.802	0.00018679	0.00036725	0.000393	903.03	1.1168e-05	2.6363e-05	521.18	275.98	2.6856e-06	2.0679e-05	164.29	64.383	107.39	51.403	2.1978e-05	33.36	0.035309	0.045434	0.01271	1254.3	0.00047909	0.00050632	892.85	390.21	0.00047889	0.00050645	365.69	129.89	165.95	72.315	0.00049171	62.928	533.255	276.899	268.649	186.374	259.688	216.597	185.012	191.909	473.132	203.033	189.569	192.964	196.483	200.210	245.927	195.958	-8191	255	
7285.700	1	1	0	0	0.24479	0.49016	0.27788	0.21509	0.14191	0.15739	0.16934	0.056443	0.069114	0.22586	0.17576	0.16037	0.22719	0.21215	0.16112	0.091836	-0.22292	-0.28125	-1.025	-0.54583	-0.53125	-1.1458	-0.31042	-0.93542	-0.79583	-0.225	-1.2042	-0.46875	-0.59792	-1.0438	-0.18125	-0.93542	212.373	447.567	298.128	271.666	456.397	263.256	506.915	448.930	312.776	260.931	456.008	292.030	176.964	232.111	323.076	431.090	0.00028083	0.0029492	9.8894e-05	905.26	1.6871e-05	9.4314e-06	525.67	279.25	2.1752e-05	4.5567e-05	165.22	65.301	108.81	51.686	1.8563e-05	33.147	0.035588	0.045461	0.012789	1259.7	0.00048048	0.00051089	900.88	392.73	0.00047778	0.00050802	367.13	130.35	166.48	72.57	0.00048961	62.761	197.620	219.320	530.070	186.407	235.842	231.968	184.397	191.716	502.857	266.676	188.830	192.493	196.008	200.063	334.593	195.664	-8191	255	
7285.796	1	1	0	0	0.18238	0.11171	0.24592	0.059757	0.20526	0.081563	0.21829	0.069034	0.18887	0.089191	0.31275	0.091344	0.17212	0.2397	0.1072	0.17426	-0.35417	-0.0375	-0.84167	-0.66667	-0.30417	-0.94167	-0.525	-0.69375	-1.0625	-0.13125	-1.0438	-0.65833	-0.38125	-1.1708	-0.14583	-0.89792	430.652	389.273	429.656	483.040	237.319	392.962	443.695	474.410	191.413	457.482	506.791	179.459	473.840	470.596	277.308	454.330	0.00028629	0.0018997	0.00057785	899.23	1.6446e-05	1.5874e-06	504.59	276.23	3.3651e-05	2.7302e-05	158.76	62.863	105.55	50.486	1.5771e-06	31.781	0.035547	0.045373	0.012744	1255	0.00047845	0.00050737	884.56	389.14	0.00047517	0.00050474	360.58	128.23	163.71	71.229	0.00048563	61.477	210.092	198.771	231.820	186.236	304.581	433.234	184.823	191.756	533.340	428.022	188.831	192.620	195.954	200.321	343.312	195.667	-8191	255	
7285.917	1	1	0	0	0.13575	0.15157	0.38341	0.52753	0.19727	0.19705	0.14439	0.088577	0.15357	0.34239	0.13307	0.12764	0.22213	0.036951	0.41634	0.20906	-0.45208	-0.33958	-0.99375	-0.6625	-0.14792	-1.1167	-0.27708	-0.69792	-1.1187	-0.029167	-1.0208	-0.79375	-0.38125	-1.0875	-0.15833	-0.60417	218.326	303.935	448.308	191.120	330.091	385.942	178.773	209.709	209.965	332.612	402.928	388.768	202.561	519.172	232.842	199.738	7.0637e-05	0.0014693	0.00085984	883.9	4.4315e-05	3.5955e-05	498.19	272.6	4.5146e-06	1.8806e-05	157.46	62.574	106.3	50.769	2.1246e-05	32.404	0.034976	0.044907	0.012644	1237.9	0.00047424	0.00050047	874.3	385.14	0.00047242	0.00050081	359.12	128.01	163.31	71.249	0.00048581	61.773	243.048	512.483	472.612	186.544	471.810	350.823	184.576	191.579	281.406	361.508	188.597	191.845	195.552	199.578	228.830	195.171	-8191	255	
7286.013	1	1	0	0	0.22409	0.20547	0.070074	0.23864	0.29791	0.17711	0.11269	0.10491	0.32683	0.27307	0.14144	0.081143	0.20702	0.32223	0.20013	0.27938	-0.56667	-0.15625	-0.73333	-0.85208	-0.45625	-1.0688	-0.39792	-0.425	-1.1479	-0.21875	-0.85	-1.0333	-0.225	-1.0958	-0.4	-0.26875	255.998	301.996	285.226	417.271	229.754	275.010	247.283	255.443	305.617	427.066	399.503	173.837	517.506	518.199	318.049	336.440	0.0006196	0.00051761	0.0003371	895.22	2.1801e-05	2.8647e-05	506.14	276.33	3.5636e-05	1.0294e-05	161.39	63.688	107.09	50.627	1.1761e-05	32.852	0.035147	0.04515	0.012712	1246.4	0.00047634	0.00050369	879.93	387.47	0.00047573	0.00050152	361.06	128.26	163.94	71.355	0.00048688	61.928	520.683	282.517	454.467	186.070	454.799	301.304	184.322	190.847	417.939	526.548	188.014	191.482	195.421	199.582	300.072	195.023	-8191	255	
7286.109	1	1	0	0	0.091384	0.26948	0.30674	0.082029	0.28742	0.27689	0.16892	0.18258	0.17316	0.21903	0.089546	0.17811	0.30715	0.33453	0.31058	0.068298	-0.66458	-0.24583	-0.74375	-0.97708	-0.15833	-0.89792	-0.63125	-0.36042	-1.025	-0.38542	-0.5875	-1.1021	-0.4375	-1.0604	-0.73125	-0.37083	275.647	479.738	361.579	476.982	415.339	328.283	504.632	445.466	415.107	237.315	472.347	511.684	464.435	180.817	530.535	454.508	0.00048927	0.00056839	0.00021032	903.42	1.558e-05	4.8058e-06	514.06	274.74	3.5025e-05	3.7741e-05	162.14	64.163	107.19	50.528	1.7008e-05	32.837	0.035283	0.045261	0.012659	1251.3	0.00047719	0.00050604	886.2	386.96	0.00047729	0.00050512	362.41	129.04	163.99	71.344	0.00048656	62.003	199.892	204.760	296.508	185.551	312.830	249.393	183.682	191.235	519.404	364.357	187.725	191.852	195.820	199.646	286.903	195.401	-8191	255	
7286.205	1	1	0	0	0.084846	0.094179	0.089502	0.12149	0.28513	0.1562	0.05485	0.093872	0.11512	0.17578	0.15968	0.18746	0.28907	0.060038	0.30573	0.19029	-0.74583	-0.39167	-0.525	-1.1917	-0.15208	-1.0333	-0.79167	-0.20833	-1.1146	-0.39375	-0.65625	-1.3208	-0.19583	-0.73958	-0.78958	-0.16042	397.312	435.403	525.418	404.597	232.038	421.926	481.696	263.093	265.480	289.799	291.862	276.158	500.016	280.884	271.840	313.022	0.00019589	0.0032011	0.00044883	903.17	2.3947e-05	6.484e-06	518.84	275.77	1.6791e-05	3.1896e-05	163.37	63.691	106.81	50.371	1.9404e-05	31.829	0.03534	0.045232	0.012713	1251.9	0.00047699	0.00050396	890.75	388.05	0.00047496	0.00050601	363.09	128.45	163.48	70.923	0.00048588	61.348	203.508	175.368	315.741	185.538	266.228	286.268	184.133	191.452	525.418	305.235	188.394	191.063	195.435	199.783	465.929	195.195	-8191	255	
7286.301	1	1	0	0	0.32607	0.2401	0.10996	0.41746	0.16107	0.108	0.26606	0.07217	0.19491	0.20484	0.31197	0.15281	0.022469	0.2871	0.045352	0.17841	-0.45208	-0.46667	-0.48958	-1.1896	-0.089583	-1.0979	-0.82292	-0.46667	-1.0208	-0.475	-0.45833	-1.3146	-0.41042	-0.79375	-1.0333	-0.19167	398.243	190.367	405.556	449.137	453.683	295.645	451.815	472.526	396.954	180.156	234.822	526.360	473.440	513.622	234.940	309.062	0.00056736	0.001204	0.00075743	892.99	1.2423e-05	1.3065e-05	503.64	271.94	1.831e-05	3.1464e-05	159.98	61.928	105.34	49.851	1.8901e-05	31.527	0.03523	0.045041	0.012663	1240.5	0.00047572	0.00050154	874.93	384.42	0.00047253	0.00050319	357.99	126.78	162.54	70.53	0.00048519	60.591	217.623	376.363	254.820	185.336	435.559	456.821	183.217	190.473	250.896	221.503	187.519	190.839	194.893	199.146	287.078	194.511	-8191	255	
7286.398	1	1	0	0	0.10052	0.1911	0.32104	0.41868	0.034834	0.24072	0.15588	0.3266	0.1529	0.15008	0.1137	0.3123	0.37437	0.13099	0.10566	0.37477	-0.71875	-0.5625	-0.37917	-1.1271	-0.30208	-0.64167	-1.0333	-0.33333	-0.94792	-0.76667	-0.23333	-1.2854	-0.42083	-0.55417	-1.0312	-0.29375	205.455	495.028	252.817	210.466	371.073	440.999	492.150	440.758	446.391	201.335	323.827	288.773	204.250	420.016	470.242	461.419	0.00016399	0.0012063	0.00032722	888.87	1.4334e-05	1.5905e-05	498.82	272.29	2.2074e-05	3.6519e-05	158.2	62.171	105.9	49.756	8.4053e-06	31.626	0.035018	0.044959	0.012619	1235.9	0.00047214	0.0005014	871.23	384.54	0.00047282	0.000501	357.02	126.79	162.26	70.41	0.00048614	60.871	463.521	523.343	178.700	184.982	320.122	215.166	182.917	190.487	248.717	330.298	187.080	190.512	194.441	199.234	229.956	194.495	-8191	255	
7286.517	1	1	0	0	0.16363	0.096946	0.33322	0.31544	0.12964	0.08321	0.21576	0.20044	0.22299	0.17086	0.29668	0.045638	0.24054	0.16968	0.039796	0.099694	-0.47708	-0.67917	-0.01875	-1.2188	-0.45625	-0.50833	-1.1021	-0.077083	-0.77292	-1.0792	-0.23958	-0.91042	-0.55625	-0.50625	-1.0021	-0.23125	528.215	369.334	365.973	389.512	296.190	205.877	500.124	201.638	341.509	286.367	285.537	245.502	409.224	507.847	401.000	347.986	0.00096025	0.001203	0.00019211	891.99	4.2816e-05	9.8173e-06	509.59	272.42	1.6806e-05	1.213e-05	158.41	62.746	105.87	50.231	3.1939e-05	32.073	0.035051	0.045157	0.012663	1240	0.00047436	0.000503	876.76	383.82	0.00047501	0.00050191	357.14	127.11	162.21	70.547	0.00048423	61.178	514.931	280.523	438.293	185.627	275.731	392.492	183.671	190.592	283.824	280.425	187.422	191.911	194.778	199.441	194.033	194.281	-8191	255	
#DATA ENDS
