BOXY.EXE: ISS Imagent and Oximeter Data Acquisition Program Version 0.80
Ascii Record File

#ACQ INFORMATION
2  Detector Channels 
16  External MUX Channels 
1  Auxiliary Channels 
5000  Waveform (CCF) Frequency (Hz)
1  Waveforms Skipped 
30  Waveforms Averaged 
1  Cycles Averaged 
16  Acquisitions per Waveform 
10.0806  Updata Rate (Hz) 

#FILE INFORMATION
TRUE -- External MUX Channel results are PARSED.
FALSE -- AC DC and Phase are NOT grouped.
TRUE -- Companion Program Settings File CREATED.
FALSE -- AC data not excluded
FALSE -- DC data not excluded
FALSE -- Phase data not excluded
FALSE -- Auxillary Chn. data not excluded
Tab delimiters

#CALIBRATION STATE
TRUE -- Waveform Calibration Values APPLIED.


#AUX CALIBRATION VALUES
Val Type	aux-1	

Term	1.0000e+00	
Factor	0.0000e+00	


#WF CALIBRATION VALUES
A = Detector Channel
Val Type	A-AC1	A-AC2	A-AC3	A-AC4	A-AC5	A-AC6	A-AC7	A-AC8	A-AC9	A-AC10	A-AC11	A-AC12	A-AC13	A-AC14	A-AC15	A-AC16	A-DC1	A-DC2	A-DC3	A-DC4	A-DC5	A-DC6	A-DC7	A-DC8	A-DC9	A-DC10	A-DC11	A-DC12	A-DC13	A-DC14	A-DC15	A-DC16	A-Ph1	A-Ph2	A-Ph3	A-Ph4	A-Ph5	A-Ph6	A-Ph7	A-Ph8	A-Ph9	A-Ph10	A-Ph11	A-Ph12	A-Ph13	A-Ph14	A-Ph15	A-Ph16	

Term	0.00000e+00	0.00000e+00	0.00000e+00	0.00000e+00	0.00000e+00	0.00000e+00	0.00000e+00	0.00000e+00	0.00000e+00	0.00000e+00	0.00000e+00	0.00000e+00	0.00000e+00	0.00000e+00	0.00000e+00	0.00000e+00	0.00000e+00	0.00000e+00	0.00000e+00	0.00000e+00	0.00000e+00	0.00000e+00	0.00000e+00	0.00000e+00	0.00000e+00	0.00000e+00	0.00000e+00	0.00000e+00	0.00000e+00	0.00000e+00	0.00000e+00	0.00000e+00	0.00000e+00	0.00000e+00	0.00000e+00	0.00000e+00	0.00000e+00	0.00000e+00	0.00000e+00	0.00000e+00	0.00000e+00	0.00000e+00	0.00000e+00	0.00000e+00	0.00000e+00	0.00000e+00	0.00000e+00	0.00000e+00	
Factor	1.00000e+00	1.00000e+00	1.00000e+00	1.00000e+00	1.00000e+00	1.00000e+00	1.00000e+00	1.00000e+00	1.00000e+00	1.00000e+00	1.00000e+00	1.00000e+00	1.00000e+00	1.00000e+00	1.00000e+00	1.00000e+00	1.00000e+00	1.00000e+00	1.00000e+00	1.00000e+00	1.00000e+00	1.00000e+00	1.00000e+00	1.00000e+00	1.00000e+00	1.00000e+00	1.00000e+00	1.00000e+00	1.00000e+00	1.00000e+00	1.00000e+00	1.00000e+00	X	X	X	X	X	X	X	X	X	X	X	X	X	X	X	X	

B = Detector Channel
Val Type	B-AC1	B-AC2	B-AC3	B-AC4	B-AC5	B-AC6	B-AC7	B-AC8	B-AC9	B-AC10	B-AC11	B-AC12	B-AC13	B-AC14	B-AC15	B-AC16	B-DC1	B-DC2	B-DC3	B-DC4	B-DC5	B-DC6	B-DC7	B-DC8	B-DC9	B-DC10	B-DC11	B-DC12	B-DC13	B-DC14	B-DC15	B-DC16	B-Ph1	B-Ph2	B-Ph3	B-Ph4	B-Ph5	B-Ph6	B-Ph7	B-Ph8	B-Ph9	B-Ph10	B-Ph11	B-Ph12	B-Ph13	B-Ph14	B-Ph15	B-Ph16	

Term	0.00000e+00	0.00000e+00	0.00000e+00	0.00000e+00	0.00000e+00	0.00000e+00	0.00000e+00	0.00000e+00	0.00000e+00	0.00000e+00	0.00000e+00	0.00000e+00	0.00000e+00	0.00000e+00	0.00000e+00	0.00000e+00	0.00000e+00	0.00000e+00	0.00000e+00	0.00000e+00	0.00000e+00	0.00000e+00	0.00000e+00	0.00000e+00	0.00000e+00	0.00000e+00	0.00000e+00	0.00000e+00	0.00000e+00	0.00000e+00	0.00000e+00	0.00000e+00	-1.16366e+02	-1.34525e+02	-1.24640e+02	-1.81440e+02	-6.20949e+01	-6.64202e+01	-1.56427e+02	-1.62015e+02	-6.69733e+01	-6.15982e+01	-1.71980e+02	-1.69516e+02	-1.84939e+02	-1.76465e+02	-6.54987e+01	-1.48787e+02	
Factor	1.61643e-05	1.38122e-04	4.24785e-05	1.47321e-01	1.18619e-06	1.52504e-06	1.65925e-01	4.94256e-02	1.07980e-06	1.67298e-06	8.54847e-02	2.70576e-02	2.30815e-02	8.67598e-03	1.25400e-06	1.23377e-02	1.12576e-05	2.02003e-05	5.73018e-06	7.73108e-02	2.02464e-07	2.30455e-07	8.19583e-02	2.61172e-02	2.05112e-07	2.28814e-07	4.35796e-02	1.39337e-02	1.23178e-02	4.61571e-03	2.14390e-07	6.36437e-03	X	X	X	X	X	X	X	X	X	X	X	X	X	X	X	X	



#DISTANCE SETTINGS
A = Detector Channel
A-1	A-2	A-3	A-4	A-5	A-6	A-7	A-8	A-9	A-10	A-11	A-12	A-13	A-14	A-15	A-16	

2.5000e+00	3.0000e+00	2.5000e+00	3.0000e+00	2.0000e+00	3.0000e+00	1.5000e+00	3.0000e+00	3.0000e+00	3.0000e+00	3.0000e+00	3.0000e+00	3.0000e+00	3.0000e+00	1.5000e+00	3.0000e+00	

B = Detector Channel
B-1	B-2	B-3	B-4	B-5	B-6	B-7	B-8	B-9	B-10	B-11	B-12	B-13	B-14	B-15	B-16	

1.0000e+01	1.0000e+01	1.0000e+01	1.4400e+00	1.0000e+01	1.0000e+01	1.5100e+00	1.9400e+00	1.0000e+01	1.0000e+01	1.9900e+00	2.4900e+00	2.4100e+00	2.9000e+00	1.0000e+01	2.9800e+00	




#DATA BEGINS
time	group	step	mark	flag	A-AC1	A-AC2	A-AC3	A-AC4	A-AC5	A-AC6	A-AC7	A-AC8	A-AC9	A-AC10	A-AC11	A-AC12	A-AC13	A-AC14	A-AC15	A-AC16	A-DC1	A-DC2	A-DC3	A-DC4	A-DC5	A-DC6	A-DC7	A-DC8	A-DC9	A-DC10	A-DC11	A-DC12	A-DC13	A-DC14	A-DC15	A-DC16	A-Ph1	A-Ph2	A-Ph3	A-Ph4	A-Ph5	A-Ph6	A-Ph7	A-Ph8	A-Ph9	A-Ph10	A-Ph11	A-Ph12	A-Ph13	A-Ph14	A-Ph15	A-Ph16	B-AC1	B-AC2	B-AC3	B-AC4	B-AC5	B-AC6	B-AC7	B-AC8	B-AC9	B-AC10	B-AC11	B-AC12	B-AC13	B-AC14	B-AC15	B-AC16	B-DC1	B-DC2	B-DC3	B-DC4	B-DC5	B-DC6	B-DC7	B-DC8	B-DC9	B-DC10	B-DC11	B-DC12	B-DC13	B-DC14	B-DC15	B-DC16	B-Ph1	B-Ph2	B-Ph3	B-Ph4	B-Ph5	B-Ph6	B-Ph7	B-Ph8	B-Ph9	B-Ph10	B-Ph11	B-Ph12	B-Ph13	B-Ph14	B-Ph15	B-Ph16	aux-1	digaux	

28660.842	1	1	0	256	0.12129	0.12372	0.2297	0.18793	0.17203	0.080319	0.32439	0.14064	0.087619	0.15022	0.33974	0.056237	0.29356	0.1182	0.29325	0.18404	-0.8375	-0.85625	-0.34792	-1.3333	-0.42917	-0.63958	-1.3208	-0.48958	-1.1625	-0.87292	-0.56875	-1.3542	-0.70208	-0.76042	-1.2687	-0.31458	-14.042	-1.235	137.239	-67.402	61.667	196.703	78.367	-72.122	64.998	118.636	66.405	211.275	233.726	164.151	-27.326	239.627	0.00010204	0.0011296	0.00026351	1022.1	2.838e-06	1.4529e-05	668.59	386.45	3.2613e-06	2.0951e-05	241.68	113.37	176.58	83.688	7.5696e-06	53.284	0.013162	0.023319	0.0065765	1072	0.00023301	0.0002648	734.37	406.3	0.00023824	0.00026436	282.39	126.05	187.75	86.809	0.0002459	59.114	199.273	-11.478	-65.056	-81.728	14.407	66.848	-83.571	-76.009	-5.771	71.671	-79.759	-75.426	-71.944	-67.828	113.984	-72.901	-8191	255	
28660.912	1	1	0	0	0.15835	0.16707	0.046048	0.1606	0.27015	0.21725	0.17271	0.16006	0.020034	0.052484	0.10202	0.21477	0.21223	0.13839	0.23816	0.24344	-0.48958	-0.95	-0.425	-1.3917	-0.575	-0.54167	-1.2417	-0.70208	-0.78125	-0.9875	-0.37292	-1.3	-0.76042	-0.7875	-1.2271	-0.68125	127.408	40.907	248.205	225.558	80.169	-30.196	-58.996	85.350	10.249	231.208	69.772	189.326	230.282	242.558	5.039	131.119	0.00012704	0.00021502	0.00012794	1019.9	7.6287e-06	2.1324e-06	660.85	386.46	7.4247e-06	2.0308e-05	240.19	111.52	177.59	82.845	3.9494e-06	52.874	0.013163	0.023299	0.0065947	1073.2	0.00023534	0.00026408	730.74	406.15	0.00023579	0.00026311	280.4	124.94	187.61	86.242	0.00024623	58.496	187.546	109.935	67.972	-81.780	210.452	238.959	-83.900	-75.941	136.728	43.016	-79.421	-75.473	-71.946	-67.988	70.935	-72.608	-8191	255	
28661.033	1	1	0	0	0.37977	0.15953	0.072872	0.24432	0.13698	0.055389	0.035991	0.26606	0.11312	0.20089	0.23195	0.071012	0.055484	0.16919	0.16524	0.40373	-0.4125	-1.0417	-0.12083	-1.2021	-0.77083	-0.44583	-1.3687	-0.61875	-0.76458	-1.1896	-0.43125	-1.1542	-1.0125	-0.46667	-1.1979	-0.3625	142.771	145.643	263.146	210.125	-36.301	235.010	203.092	186.766	-32.206	-67.906	212.486	185.042	183.530	235.495	-23.485	181.523	6.2644e-05	0.0011605	0.00021808	1027.4	1.1797e-05	4.8173e-06	659.25	386.42	3.5505e-06	1.0603e-06	237.87	111.33	176.94	82.725	2.5232e-06	53.036	0.013143	0.023093	0.0066116	1073.9	0.00023472	0.0002657	729.92	405.88	0.00023542	0.00026327	280.34	124.93	187.41	86.319	0.00024779	58.641	185.089	-30.720	-90.972	-81.570	41.780	31.997	-83.708	-76.304	-23.200	204.529	-79.233	-75.660	-71.685	-67.969	18.564	-72.384	-8191	255	
28661.131	1	1	0	0	0.24668	0.15505	0.14522	0.18347	0.05126	0.036621	0.099793	0.2576	0.19355	0.31696	0.16644	0.12939	0.082408	0.15609	0.055943	0.38214	-0.24583	-0.98333	-0.0375	-1.2042	-0.85625	-0.34375	-1.2687	-0.79167	-0.42083	-1.2062	-0.275	-0.88125	-1.1167	-0.53333	-1.1063	-0.5625	-28.350	-8.358	150.083	147.156	154.792	-4.290	181.466	249.936	19.625	102.465	170.317	194.398	115.986	223.082	159.914	163.909	8.3841e-05	0.0004503	0.00063138	1023.9	9.75e-06	1.077e-05	668.64	387.1	2.9622e-06	2.7701e-05	240.43	112.65	177.14	82.749	4.998e-06	53.219	0.013139	0.02327	0.0066446	1073.1	0.00023272	0.0002653	733.08	406.01	0.00023631	0.00026359	281.57	125.75	187.35	86.437	0.0002482	58.977	248.307	153.307	-52.369	-81.589	123.037	191.800	-84.026	-76.127	112.773	34.071	-79.807	-75.549	-71.958	-67.753	223.871	-72.809	-8191	255	
28661.227	1	1	0	0	0.29808	0.34496	0.24547	0.13688	0.047006	0.3822	0.25191	0.131	0.13257	0.28324	0.16689	0.1458	0.22248	0.1953	0.15368	0.18984	-0.054167	-0.88333	-0.23958	-0.85625	-0.94375	-0.32292	-1.3354	-0.87917	-0.43542	-1.4937	-0.64375	-0.88542	-1.1479	-0.48958	-1.05	-0.875	56.979	-82.208	-43.679	-37.548	224.266	-47.867	157.912	206.024	-69.397	-2.916	173.773	148.035	209.816	-93.223	36.954	175.877	0.00017551	0.00073478	0.00030748	1025.2	1.4194e-05	1.4448e-05	668.62	390.06	1.2892e-05	2.3331e-05	239.98	112.26	177.18	83.018	7.0002e-06	53.341	0.013154	0.023332	0.0066555	1073.7	0.00023538	0.00026756	736.9	407.74	0.00023707	0.00026495	282.58	126.19	187.87	86.658	0.00024972	59.151	150.834	-0.906	82.473	-81.740	139.595	41.950	-83.776	-76.083	69.784	59.021	-79.358	-75.633	-71.896	-67.870	1.621	-72.758	-8191	255	
28661.322	1	1	0	0	0.081637	0.14373	0.18462	0.061949	0.059579	0.07137	0.1722	0.054107	0.12711	0.15391	0.14872	0.024036	0.047633	0.59494	0.13731	0.26601	-0.052083	-1.0646	-0.54167	-0.86667	-1.15	-0.44792	-1.1667	-0.93958	-0.41042	-1.1167	-0.525	-0.57292	-1.3479	-0.52917	-0.92292	-1.05	249.409	82.700	-25.662	-36.834	91.107	-10.386	216.656	141.599	-14.179	137.289	114.557	-52.961	-32.078	255.666	102.428	178.909	0.00017423	0.000635	0.00082688	1029.5	7.3956e-06	1.1583e-05	666.72	388.56	1.2382e-05	2.7983e-06	240.49	112.31	176.56	82.788	8.2201e-06	52.463	0.013162	0.023534	0.0067241	1076.5	0.00023482	0.00026896	735.84	407.46	0.00023487	0.00026465	282.02	125.71	187.39	86.371	0.00024894	58.482	217.366	23.513	-11.689	-81.683	-29.358	-3.688	-83.645	-76.218	-82.948	2.352	-79.362	-75.693	-71.815	-67.867	200.252	-72.544	-8191	255	
28661.441	1	1	0	0	0.10506	0.24449	0.11049	0.46726	0.24205	0.20178	0.064617	0.16858	0.34292	0.15592	0.034727	0.26726	0.17049	0.30103	0.28343	0.1939	0.077083	-1.2042	-0.52708	-0.74792	-1.1875	-0.25625	-0.98125	-1.0812	-0.22917	-1.1292	-0.5125	-0.59375	-1.3146	-0.54583	-1.0375	-1.3667	34.639	-59.878	101.837	202.244	56.658	186.326	20.408	204.950	170.263	14.034	240.985	-81.438	126.511	257.369	128.640	202.514	0.00012339	0.0017003	0.00036489	1016.9	1.0081e-05	6.1234e-06	660.74	386.19	1.1967e-05	1.064e-05	238.14	111.16	175.43	82.256	7.6847e-06	52.243	0.013118	0.023309	0.0066669	1068.5	0.00023265	0.00026503	728.46	404.59	0.00023626	0.00026542	279.19	123.94	186	85.764	0.00024555	58.07	235.401	-43.171	-67.750	-81.547	34.752	173.826	-83.985	-76.193	110.828	113.964	-79.513	-75.409	-71.665	-67.804	21.896	-72.725	-8191	255	
28661.514	1	1	0	0	0.10866	0.091696	0.027703	0.22139	0.12966	0.10673	0.19021	0.45173	0.084736	0.060553	0.11664	0.37821	0.18599	0.078357	0.11614	0.24286	0.3125	-0.93333	-0.66458	-0.54792	-1.2188	-0.50208	-0.66875	-1.1812	-0.39375	-0.93125	-0.79375	-0.21042	-1.3792	-0.56667	-0.4625	-1.1583	113.995	205.733	151.637	189.329	163.796	175.579	262.133	192.502	253.673	-38.189	77.275	239.216	250.238	128.047	111.438	193.342	0.00014753	0.00017702	0.00034322	1015.9	1.6043e-05	1.0261e-05	659.94	384.27	4.0247e-06	2.5505e-06	238.65	110.9	175.28	81.902	9.8787e-06	52.593	0.013089	0.023266	0.0066022	1066	0.00023365	0.00026665	728.56	402.88	0.00023587	0.00026485	278.94	124.17	185.76	85.704	0.00024437	57.984	216.497	102.330	-54.232	-81.497	180.149	5.895	-83.604	-75.967	60.814	80.842	-79.485	-75.383	-72.009	-68.160	39.461	-72.901	-8191	255	
28661.611	1	1	0	0	0.24418	0.093958	0.15096	0.33486	0.14308	0.18267	0.16103	0.17383	0.078383	0.027424	0.17825	0.33613	0.3087	0.21529	0.1265	0.039377	0.23958	-0.9125	-0.89375	-0.42708	-1.2125	-0.70417	-0.72083	-1.2687	-0.3875	-0.85	-0.93542	-0.44375	-1.3271	-0.84375	-0.60208	-1.4146	-15.396	126.033	155.432	219.890	190.135	80.645	213.078	135.068	151.420	123.891	238.600	130.704	251.075	246.588	37.648	-73.623	0.00014692	0.00071736	0.00021721	1020.5	8.5085e-06	5.9152e-06	661.48	386.06	5.4802e-06	8.7444e-06	240.25	111.08	175.71	82.365	4.2466e-06	52.87	0.013087	0.023341	0.0065876	1066.7	0.00023114	0.00026565	729.76	404.09	0.0002355	0.00026309	279.7	124.58	186.54	86.067	0.00024418	58.646	178.108	119.382	216.115	-81.786	-14.247	7.881	-83.790	-75.924	-28.841	-53.323	-79.758	-75.566	-71.844	-67.945	-0.567	-72.935	-8191	255	
28661.729	1	1	0	0	0.075023	0.11197	0.14474	0.1804	0.30961	0.27705	0.11177	0.43279	0.093024	0.089651	0.29945	0.20104	0.14819	0.28276	0.091345	0.073809	-0.1125	-0.9875	-1.0042	-0.36458	-1.125	-0.74375	-0.63958	-1.4937	-0.37083	-0.72708	-1.2396	-0.24375	-1.1417	-0.925	-0.3375	-1.3125	147.443	195.941	241.442	224.560	178.946	87.720	-43.354	225.904	10.119	105.189	167.688	127.836	77.108	194.157	94.528	-77.219	0.00021376	0.0005829	0.0004741	1022.8	1.3554e-05	1.6271e-05	665.04	386.09	9.1892e-06	1.0781e-05	239.18	112.46	176.38	82.641	5.797e-06	52.802	0.013078	0.023294	0.006537	1071.6	0.00023353	0.00026445	733.42	404.98	0.00023682	0.00026249	280.9	125.54	186.95	86.288	0.00024564	58.715	205.001	51.737	6.666	-81.539	54.651	86.846	-83.549	-76.175	34.082	241.044	-79.435	-75.733	-71.522	-67.777	60.812	-72.795	-8191	255	
28661.826	1	1	0	0	0.16398	0.21513	0.26991	0.17966	0.109	0.16083	0.11833	0.34517	0.063966	0.087526	0.2531	0.35109	0.27156	0.31881	0.079367	0.23795	0.0020833	-0.6375	-1.0333	-0.5	-0.97917	-0.82917	-0.4875	-1.2979	-0.66875	-0.57083	-1.2104	-0.51458	-1.1104	-1.0312	-0.325	-1.3396	223.896	-11.457	86.587	-79.068	70.108	-68.260	-0.019	258.063	-17.873	223.153	-70.273	-70.063	-80.780	232.156	-79.583	206.076	0.0001799	0.0012943	0.00035297	1014.2	6.5573e-06	1.1731e-05	661.4	384.29	4.9021e-06	9.7805e-06	236.67	110.87	174.76	82.294	7.148e-06	52.004	0.013193	0.023296	0.0065553	1064.9	0.00023363	0.00026514	728.59	403.41	0.00023589	0.00026254	278.6	124.32	185.98	85.566	0.0002464	57.939	197.543	51.284	-25.599	-81.799	53.364	95.274	-84.012	-75.857	62.936	42.881	-79.749	-76.094	-71.656	-67.884	63.443	-72.650	-8191	255	
28661.922	1	1	0	0	0.17234	0.1897	0.27141	0.18268	0.26381	0.1592	0.34498	0.16329	0.36798	0.071577	0.12318	0.10297	0.55796	0.16099	0.14979	0.13107	-0.14375	-0.46042	-1.3312	-0.375	-0.97917	-1.1417	-0.33542	-1.3	-0.64792	-0.29167	-1.2	-0.5125	-0.94583	-1.0958	-0.36042	-1.2375	-39.805	232.556	262.002	189.950	130.242	33.170	238.026	197.179	105.184	262.815	62.107	109.521	228.434	260.717	169.751	216.259	0.00023521	0.0012825	0.00030949	1019.8	5.8055e-06	1.4793e-05	655.75	384.49	1.1058e-05	1.7718e-05	236.39	110.69	175.89	82.398	1.0136e-05	52.528	0.01312	0.023185	0.0066425	1069.8	0.00023363	0.00026561	728.33	404.05	0.00023733	0.00026362	278.34	124.17	186.24	85.731	0.00024783	58.312	210.234	-45.922	33.451	-81.774	34.164	57.912	-83.520	-76.184	-14.383	34.695	-79.490	-75.828	-71.676	-68.103	68.813	-72.678	-8191	255	
28662.043	1	1	0	0	0.12695	0.13697	0.15161	0.092268	0.19999	0.29472	0.30023	0.19375	0.078095	0.059555	0.24628	0.1451	0.17786	0.34343	0.10262	0.19904	-0.42292	-0.33333	-1.2792	-0.58958	-0.7	-1.0583	-0.31042	-1.2333	-0.9	-0.46458	-1.3396	-0.46458	-1	-1.4021	-0.36875	-1.0812	244.247	-90.622	126.783	160.656	-63.706	-28.015	221.820	-75.912	-70.546	99.931	119.212	-2.875	-70.298	217.229	78.246	217.703	6.9799e-05	0.0012889	0.00050643	1019.2	6.2878e-06	1.6675e-05	655.81	385.38	4.8123e-06	6.6036e-06	237.61	111.29	176.22	82.532	7.649e-06	52.802	0.013148	0.023403	0.0066101	1070.5	0.00023445	0.00026667	730.31	405.36	0.00023738	0.00026357	280.65	124.94	186.68	86.155	0.00024869	58.592	245.023	42.371	9.767	-81.813	104.081	59.842	-83.374	-75.974	6.664	102.628	-79.506	-75.803	-72.002	-67.878	-81.442	-72.930	-8191	255	
28662.139	1	1	0	0	0.17536	0.13715	0.21238	0.04493	0.16268	0.065354	0.054514	0.262	0.15533	0.26424	0.14365	0.21044	0.013082	0.26446	0.10444	0.067982	-0.62917	-0.27917	-1.1	-0.53333	-0.66667	-1.0583	-0.36458	-1.15	-0.78125	-0.25417	-1.2771	-0.64792	-0.69583	-1.4771	-0.47708	-0.90625	44.191	236.609	1.580	199.487	222.848	173.820	54.843	-63.615	43.956	49.608	144.851	158.813	-23.547	-90.137	110.569	-72.032	0.00014263	0.00071588	0.00041226	1020.5	1.1267e-05	1.7104e-05	665.96	385.13	6.5926e-06	2.0501e-05	241.15	112.01	176.35	82.46	1.3435e-05	53.126	0.013131	0.023469	0.0066402	1072.6	0.00023412	0.00026608	735.44	405.29	0.00023765	0.00026628	281.91	125.37	186.82	86.235	0.0002513	58.78	172.865	42.065	182.128	-81.677	49.679	70.592	-83.707	-76.337	185.488	87.151	-79.699	-75.342	-71.621	-67.967	-32.977	-72.515	-8191	255	
28662.211	1	1	0	0	0.097743	0.092847	0.21142	0.2282	0.20777	0.052598	0.12956	0.30029	0.12945	0.12337	0.24991	0.15196	0.17409	0.10132	0.1535	0.32275	-0.57292	-0.18958	-1.3854	-0.87917	-0.66458	-1.3229	-0.44167	-1.0708	-1.0479	-0.47292	-1.2896	-0.9	-0.49792	-1.4292	-0.30833	-0.86042	227.533	259.364	-68.694	232.979	238.707	151.411	259.857	209.033	255.632	44.061	167.042	72.243	225.398	125.844	221.245	220.351	0.00021113	0.00083464	0.00031233	1019.7	1.6931e-05	9.6768e-06	671.07	386.57	9.4132e-06	9.7014e-06	240.98	112.56	176.08	82.226	6.7681e-06	52.785	0.013267	0.023552	0.0066833	1069.9	0.00023503	0.00026903	738.98	405.9	0.00024028	0.00026617	283.33	125.81	186.78	86.155	0.00025221	58.659	186.315	-18.997	-86.434	-81.812	49.735	107.592	-84.036	-76.065	-29.070	-63.045	-79.560	-75.222	-71.803	-67.651	51.565	-72.849	-8191	255	
28662.330	1	1	0	0	0.21787	0.077673	0.18733	0.19341	0.39558	0.11798	0.14645	0.15468	0.1784	0.22456	0.26064	0.28454	0.17765	0.44975	0.10258	0.092284	-0.60833	-0.31458	-1.0667	-0.95	-0.38542	-1.2458	-0.66458	-0.95833	-1.3563	-0.38958	-1.0333	-1.0063	-0.58958	-1.4354	-0.56875	-0.66667	146.267	4.215	129.299	201.915	-14.616	136.346	100.972	-86.610	56.653	-92.430	165.045	241.596	149.645	-91.119	-14.477	216.519	0.00018862	0.00092896	0.00022569	1012.3	1.0112e-05	1.0031e-05	660.24	383.41	4.2346e-06	4.4452e-06	240.09	111.27	175.89	82.415	1.657e-05	52.399	0.01328	0.02355	0.0067076	1067	0.00023427	0.00026953	731.73	404.12	0.00023905	0.00027088	280.95	124.58	186.22	86.048	0.0002518	58.375	214.257	211.068	257.459	-81.837	173.518	49.431	-83.897	-75.937	75.658	-34.054	-79.503	-75.552	-71.830	-67.441	50.964	-72.404	-8191	255	
28662.426	1	1	0	0	0.14014	0.30421	0.11638	0.4688	0.60129	0.04419	0.094135	0.32456	0.10764	0.30505	0.052558	0.20329	0.16862	0.36238	0.10095	0.11687	-0.88125	-0.3	-0.86042	-1.1542	-0.35	-1.325	-0.73333	-0.74167	-1.2771	-0.4125	-1.0979	-1.1125	-0.43333	-1.5021	-0.79375	-0.725	98.915	188.613	89.988	240.340	9.172	-20.879	232.278	-65.528	263.825	109.272	179.828	130.765	136.112	235.151	197.333	-12.940	0.00017776	0.001133	0.00019514	1016.4	1.0684e-05	1.1527e-05	668.05	385.18	3.1204e-06	1.0661e-05	241.01	112.05	175.95	82.566	6.7164e-06	52.477	0.013342	0.023827	0.0067101	1066.3	0.00023679	0.00026925	734.94	404.57	0.00023963	0.00027001	282.78	125.26	186.05	86.01	0.00025096	58.528	203.593	10.272	51.260	-82.004	-49.355	141.098	-83.902	-76.041	195.978	31.489	-79.521	-76.026	-71.712	-67.889	-63.361	-72.763	-8191	255	
28662.521	1	1	0	0	0.18574	0.15942	0.17048	0.18277	0.31395	0.063813	0.15798	0.50088	0.091938	0.041292	0.19006	0.071375	0.30292	0.37104	0.22785	0.069559	-0.99583	-0.35417	-0.625	-1.3229	-0.48125	-1.3479	-0.86458	-0.48333	-1.2479	-0.51875	-0.79583	-1.0854	-0.575	-1.3896	-0.75625	-0.5375	149.958	202.321	-33.793	224.323	69.519	-88.177	256.925	199.893	236.898	189.409	148.148	191.940	-92.788	-67.362	78.368	126.333	0.00015515	0.0011756	0.00060924	1017.8	7.0118e-06	2.0426e-05	665.23	385.54	5.9276e-06	8.4071e-06	241.45	112.38	175.32	82.622	9.8922e-06	52.982	0.013237	0.023807	0.0067004	1069.1	0.0002373	0.00027066	736.54	405.27	0.00024021	0.00026993	283.21	125.72	186.56	86.103	0.00024949	58.865	205.110	256.648	-0.447	-81.726	225.446	90.337	-83.489	-75.965	111.829	6.692	-79.859	-75.715	-71.884	-67.744	-31.345	-72.835	-8191	255	
28662.617	1	1	0	0	0.134	0.2715	0.33923	0.23149	0.14094	0.28041	0.09665	0.26297	0.19791	0.33611	0.36161	0.080568	0.10494	0.40492	0.11872	0.022294	-1.0854	-0.57917	-0.64167	-1.2604	-0.3375	-0.99583	-1.0604	-0.58542	-1.1542	-0.60833	-0.58333	-1.2021	-0.46667	-1.1063	-0.84583	-0.33125	120.648	-74.491	237.956	188.759	228.141	-1.662	229.810	265.039	-18.219	179.992	184.053	86.377	198.490	194.805	4.014	178.371	0.00034127	0.0011427	0.00026099	1024.2	4.8511e-06	4.294e-07	666.31	386.17	6.2553e-06	3.5928e-06	239.81	112.56	176.41	82.658	5.3512e-06	53.114	0.013517	0.024057	0.0067603	1072.8	0.00024039	0.00027267	738.6	405.52	0.00024274	0.00027183	284.17	126.38	187.25	86.421	0.00025263	59.07	246.597	-85.851	-6.400	-81.468	153.651	-37.926	-83.880	-76.193	202.187	48.717	-79.449	-75.592	-71.738	-67.770	-53.822	-72.830	-8191	255	
28662.738	1	1	0	0	0.066609	0.15602	0.18996	0.13612	0.18936	0.16359	0.27113	0.3187	0.0553	0.060713	0.18594	0.12059	0.27797	0.32943	0.21127	0.18922	-1.0812	-0.62917	-0.44375	-1.5562	-0.29167	-0.80208	-1.1833	-0.55208	-1.1771	-0.87292	-0.48125	-1.3875	-0.58542	-1.0438	-1.175	-0.62917	23.054	169.154	9.926	216.421	-49.097	-36.559	239.714	229.570	18.530	-71.961	158.874	107.562	206.881	227.729	169.886	-71.801	0.00020208	0.0010227	0.00028969	1020.8	1.9618e-06	1.0279e-05	659.63	387.35	1.8767e-06	1.0927e-05	240	110.91	175.37	81.923	7.6104e-06	52.056	0.01349	0.023962	0.0067631	1071.7	0.00023995	0.00027248	733.85	406.39	0.00024173	0.00027162	282.21	125.1	186.34	85.789	0.00025169	58.112	150.135	-80.191	-78.823	-81.766	198.548	202.119	-83.800	-76.228	110.197	-14.929	-79.635	-75.589	-71.814	-67.780	-15.401	-72.951	-8191	255	
28662.811	1	1	0	0	0.2021	0.12834	0.10516	0.32204	0.19063	0.041986	0.27803	0.44585	0.04667	0.21552	0.25436	0.24393	0.13111	0.37633	0.12376	0.2175	-0.68958	-0.70417	-0.39375	-1.4458	-0.44583	-0.66042	-1.2292	-0.51875	-1.0479	-0.89375	-0.50208	-1.4729	-0.64375	-0.95417	-1.3021	-0.56042	188.599	109.863	192.581	111.612	84.082	-78.301	158.174	210.810	172.495	201.876	63.634	246.500	14.590	232.146	-55.321	88.626	0.00021991	0.00059083	0.00041055	1014.6	1.0223e-05	3.509e-06	665.84	385.38	7.044e-06	1.2268e-05	239.32	110.71	175	82.056	4.8718e-06	52.16	0.01351	0.023862	0.0067308	1068.4	0.00023987	0.0002721	732.15	404.87	0.00024243	0.00026974	281.13	124.97	185.91	85.776	0.00025245	58.101	187.296	105.376	37.529	-81.927	85.951	255.526	-84.165	-76.028	191.114	161.785	-79.329	-75.482	-71.948	-67.810	218.508	-72.869	-8191	255	
28662.906	1	1	0	0	0.055629	0.23465	0.15153	0.40939	0.24872	0.15478	0.2698	0.013512	0.14826	0.090122	0.20941	0.17329	0.22725	0.29268	0.071888	0.077842	-0.57292	-1.0021	-0.40833	-1.3417	-0.6	-0.53958	-1.4542	-0.62708	-1.075	-1.1833	-0.4	-1.2313	-0.94167	-0.75	-1.1688	-0.41667	-16.965	208.377	-11.909	225.243	16.354	212.225	252.908	-78.416	35.973	216.656	207.096	255.256	174.982	-93.636	151.228	35.542	0.00026373	0.00081281	0.00034462	1017.8	7.0304e-06	8.4407e-06	663.23	386.04	2.3171e-06	1.7399e-05	240.03	111.83	174.99	82.109	9.1973e-06	52.568	0.013448	0.023893	0.006775	1070.1	0.00024028	0.00027168	732.8	405.36	0.00024137	0.00026854	281.89	125.39	186.25	85.746	0.00025042	58.49	228.363	215.857	23.145	-81.490	189.137	56.993	-83.724	-76.262	-65.328	34.197	-79.280	-75.619	-71.862	-67.934	119.679	-72.743	-8191	255	
28663.002	1	1	0	0	0.11074	0.0089049	0.1064	0.16277	0.14419	0.24803	0.18151	0.23339	0.17466	0.18715	0.21143	0.11816	0.13225	0.27058	0.34564	0.089642	-0.52292	-1.0792	-0.39583	-1.3625	-0.78958	-0.44583	-1.4333	-0.65208	-0.87708	-1.0604	-0.3	-1.1708	-0.91042	-0.46875	-1.275	-0.66458	-18.982	226.096	4.081	260.719	123.230	222.979	238.300	-65.997	234.325	244.914	125.347	-90.299	-53.028	232.656	56.762	71.659	0.00017685	0.0010255	0.00026309	1016.9	9.1694e-06	7.7761e-06	669.75	386.24	1.9177e-06	1.3002e-05	239.2	111.92	175.8	82.315	3.7039e-06	52.731	0.013385	0.023751	0.0067598	1067.7	0.0002381	0.00027177	736.36	404.87	0.00024156	0.00026872	282.13	125.52	186.3	85.735	0.00025218	58.588	202.823	83.120	116.966	-81.744	57.562	112.020	-83.739	-76.272	29.318	24.302	-79.295	-75.884	-71.780	-67.677	-81.829	-72.928	-8191	255	
28663.123	1	1	0	0	0.14278	0.14646	0.1441	0.13225	0.14377	0.19426	0.24664	0.27921	0.35187	0.034902	0.29935	0.22515	0.21109	0.2872	0.31031	0.20891	-0.34167	-1.2062	-0.37083	-1.2354	-0.85625	-0.32083	-1.4021	-0.77083	-0.77708	-1.3125	-0.2625	-0.95208	-1.2375	-0.55208	-1.2604	-0.50208	167.452	22.164	185.091	249.169	109.299	-40.135	-67.990	192.522	136.599	110.422	50.364	197.682	208.792	256.328	189.236	17.030	8.4445e-05	0.0007478	0.00020482	1016.4	3.736e-06	9.1089e-06	666.16	385.06	4.1511e-06	9.2696e-06	241.55	111.66	174.64	82.031	1.2793e-05	52.03	0.01333	0.023855	0.0067612	1067.7	0.00023958	0.00027096	736.79	405.35	0.00024036	0.00026768	283.03	125.48	186	85.683	0.00025526	58.176	209.405	36.780	-11.196	-81.541	84.654	-63.912	-83.663	-76.390	25.897	11.060	-79.695	-75.519	-71.728	-68.167	115.848	-72.868	-8191	255	
28663.219	1	1	0	0	0.27187	0.064488	0.18375	0.2169	0.34354	0.24451	0.1227	0.19245	0.15142	0.092083	0.067476	0.2539	0.25223	0.3326	0.14703	0.086301	-0.15833	-1.3917	-0.15625	-1.0063	-1.2521	-0.52708	-1.2417	-0.80417	-0.46458	-1.1812	-0.28125	-0.81042	-1.2125	-0.61875	-1.0271	-0.97292	147.770	75.384	-38.545	262.115	157.993	236.488	-17.501	155.975	86.445	57.404	265.829	128.778	180.106	209.303	180.372	-69.376	0.00016898	0.00098141	0.00037061	1012.3	7.6194e-06	1.9038e-05	662.76	383.91	2.4719e-06	9.6381e-06	238.55	111.11	174.25	81.751	9.8885e-06	51.834	0.013333	0.023735	0.0067614	1062.5	0.00023796	0.00027065	730.68	403.71	0.00024076	0.00026926	280.26	124.19	185.45	85.392	0.00025177	57.777	213.409	8.330	-5.780	-81.753	246.646	162.156	-83.450	-75.992	186.265	144.079	-79.704	-75.631	-72.034	-67.883	260.416	-72.557	-8191	255	
28663.314	1	1	0	0	0.033485	0.033645	0.18917	0.29493	0.27298	0.069663	0.24703	0.20618	0.19705	0.10824	0.18644	0.10286	0.30728	0.27649	0.27496	0.021108	-0.24167	-1.2854	-0.21667	-0.79583	-1.25	-0.44583	-1.1812	-1.0479	-0.48542	-1.2417	-0.60417	-0.77292	-1.4458	-0.3	-1.0479	-1.0688	100.473	78.345	7.118	90.244	248.914	75.629	115.830	175.347	217.904	-89.826	177.082	93.659	-71.109	243.094	4.559	254.253	0.00017443	0.00062567	3.6487e-05	1015	1.3393e-06	9.6448e-06	660.64	384.06	6.5573e-06	1.4809e-05	238.37	111.24	175.01	82.086	1.3512e-05	51.744	0.013432	0.023729	0.0067784	1066.8	0.00023712	0.00027203	732.82	403.33	0.00024259	0.00026784	280.75	124.54	185.85	85.595	0.00025213	57.962	161.795	-21.078	-19.106	-81.792	-30.176	68.021	-83.344	-76.023	-76.431	252.123	-79.742	-75.597	-71.794	-67.725	48.478	-72.773	-8191	255	
28663.410	1	1	0	0	0.14809	0.38498	0.2587	0.088865	0.1042	0.088998	0.17369	0.54612	0.11508	0.084747	0.19617	0.16835	0.29925	0.29766	0.29728	0.1574	0.03125	-1.2563	-0.47292	-0.65208	-1.3042	-0.55417	-1.0896	-1.2083	-0.45208	-1.3667	-0.85208	-0.46042	-1.5021	-0.67917	-0.82083	-1.2021	138.480	-60.197	61.590	242.758	51.791	157.124	-51.669	238.744	-59.180	-60.157	262.622	254.572	257.636	235.484	71.465	239.883	0.00022766	0.0014112	0.00016664	1015.5	5.5847e-06	1.4541e-05	660.41	383.73	1.5394e-05	6.2728e-06	238.31	111.06	174.18	81.805	1.5188e-05	52.111	0.013477	0.023728	0.0067215	1065.2	0.00023742	0.00027386	730.59	403.26	0.00024255	0.00026843	281.49	124.58	185.42	85.493	0.00024989	58.166	197.938	-21.871	218.671	-81.679	-4.184	55.522	-83.438	-76.111	-42.265	167.881	-79.780	-75.695	-71.879	-68.116	136.740	-72.494	-8191	255	
28663.506	1	1	0	0	0.065503	0.12566	0.17962	0.16838	0.16009	0.12373	0.25627	0.092487	0.057284	0.11185	0.15082	0.099547	0.52832	0.32109	0.12048	0.039315	0.16875	-1.4583	-0.77292	-0.54167	-1.1979	-0.50833	-0.77708	-1.3708	-0.41458	-1.0396	-0.71458	-0.52708	-1.3708	-0.85	-0.50208	-1.2271	-33.077	-11.572	177.102	-50.819	97.711	146.809	-39.854	222.498	-32.251	-24.142	249.640	-58.611	-91.309	170.913	179.575	87.510	0.00022835	0.00075062	0.00017924	1011.7	2.7674e-06	1.3515e-05	665.43	386.73	5.5928e-06	6.6974e-06	242.97	112.37	176.17	82.595	3.2376e-06	52.142	0.013341	0.02376	0.0067326	1066.2	0.00023759	0.00027235	734.87	405.67	0.00024161	0.00026821	283.61	125.66	186.48	86.042	0.00025008	58.339	209.604	248.764	265.337	-81.732	211.977	53.156	-83.506	-76.235	3.197	121.417	-79.851	-75.844	-71.921	-67.936	-21.295	-72.502	-8191	255	
28663.604	1	1	0	0	0.13097	0.1177	0.073178	0.23583	0.1097	0.050409	0.19761	0.096116	0.094562	0.12667	0.034266	0.15657	0.23441	0.28361	0.17214	0.1512	0.047917	-0.925	-0.91667	-0.39583	-1.2167	-0.5625	-0.65833	-1.3521	-0.54167	-0.84375	-1.0771	-0.72292	-1.5125	-0.79375	-0.54792	-1.4458	76.043	47.852	78.860	-82.502	-16.698	-81.830	-65.596	-45.482	73.245	45.598	199.328	191.609	208.077	195.923	-20.321	141.382	0.00021513	0.0010353	0.00015998	1016.1	4.6353e-06	2.0319e-05	664.16	387.36	1.0162e-05	1.7829e-05	240.35	111.87	175.57	81.611	4.8243e-06	51.817	0.013393	0.0238	0.0067561	1068.1	0.0002388	0.00027178	733.39	405.67	0.00024301	0.00026812	282.29	124.93	186.36	85.449	0.00025148	57.94	167.408	-7.457	-64.744	-81.502	59.880	-32.155	-83.611	-76.032	47.819	27.553	-79.538	-75.639	-71.891	-67.907	181.033	-72.831	-8191	255	
28663.723	1	1	0	0	0.16932	0.14462	0.11871	0.17967	0.10546	0.051277	0.30536	0.053898	0.42109	0.33558	0.27671	0.10969	0.33653	0.11023	0.094486	0.35855	-0.15625	-0.76875	-1.1917	-0.36875	-1.3729	-0.83333	-0.70625	-1.2812	-0.35833	-0.6875	-1.0042	-0.3375	-1.3333	-0.96667	-0.375	-1.3333	82.881	262.345	-87.460	210.433	-74.193	-9.560	124.536	-94.036	155.208	-58.116	239.664	123.376	231.626	-89.348	12.158	-68.612	0.00019001	0.00040878	0.00022548	1010.6	7.0669e-06	1.4482e-05	662.89	384.52	1.0442e-05	1.0495e-05	239.31	111.72	174.18	81.428	1.0273e-05	52.105	0.01344	0.023698	0.0067402	1064.8	0.00023969	0.00027201	731.03	404.26	0.00024222	0.0002693	280.85	124.51	185.65	85.373	0.00025217	57.965	233.764	78.826	-41.954	-81.785	55.051	19.499	-83.479	-76.067	-47.182	40.935	-79.700	-75.507	-71.813	-67.967	24.253	-72.547	-8191	255	
28663.818	1	1	0	0	0.25971	0.28915	0.27264	0.055267	0.025409	0.41173	0.14329	0.21858	0.10266	0.19377	0.27797	0.28904	0.1512	0.37819	0.09331	0.11317	-0.28542	-0.84583	-1.0979	-0.5125	-1.125	-0.84792	-0.37708	-1.3979	-0.31458	-0.67917	-1.2583	-0.37708	-1.0583	-1.3188	-0.35833	-1.3229	97.561	240.629	216.223	13.063	86.849	73.267	-32.398	-25.701	-60.328	-60.620	149.122	228.114	190.410	238.880	120.553	130.887	0.00018504	0.0013024	0.00036149	1006.8	1.4918e-05	9.5051e-06	660.19	384.33	4.3777e-06	4.662e-06	239.94	111.69	175.34	81.899	1.4224e-05	52.443	0.013488	0.023865	0.0067726	1061.6	0.00023835	0.00027138	731.79	404.33	0.00024251	0.00027023	281.61	124.75	186.27	85.508	0.00025289	58.256	185.595	-69.165	-0.776	-81.721	30.489	3.304	-83.778	-76.198	83.809	-29.359	-79.930	-75.554	-71.445	-67.894	158.230	-72.450	-8191	255	
28663.914	1	1	0	0	0.12347	0.38192	0.11555	0.052127	0.075513	0.068009	0.24798	0.14974	0.36759	0.17598	0.072934	0.18041	0.24633	0.22302	0.10156	0.13252	-0.28958	-0.65833	-1.3479	-0.63333	-1.0396	-1.0292	-0.50833	-1.3854	-0.78542	-0.59375	-1.2771	-0.46458	-1.0438	-1.3917	-0.49167	-1.1812	47.199	130.602	19.024	-44.409	89.630	34.098	210.830	251.490	-46.108	248.826	6.113	261.704	-40.885	257.480	18.493	218.873	0.00015068	0.0015582	0.00027456	1010.1	9.5911e-06	9.5925e-06	664.07	385.44	4.1259e-06	9.1961e-06	242.3	112.11	175.48	82.194	8.0852e-06	52.491	0.013451	0.023894	0.0067463	1065.1	0.00023967	0.0002739	735	405.85	0.00024395	0.00027169	283.8	125.52	186.51	85.784	0.0002539	58.474	199.346	-88.578	-45.240	-81.759	-23.092	74.033	-83.736	-76.036	22.233	130.584	-79.842	-75.483	-71.902	-67.816	81.448	-72.438	-8191	255	
28664.012	1	1	0	0	0.11942	0.082296	0.25579	0.35457	0.29629	0.20338	0.22973	0.24965	0.16736	0.10858	0.0341	0.10309	0.29701	0.10927	0.15508	0.19266	-0.31875	-0.52917	-1.3125	-0.59583	-0.92917	-1.2812	-0.44792	-1.4562	-0.87917	-0.36875	-1.45	-0.68125	-0.98542	-1.3875	-0.35	-1.3354	238.984	168.901	150.232	249.116	226.128	-80.570	-85.545	174.339	39.926	109.113	64.782	237.788	-55.561	231.200	181.537	34.814	0.00014218	0.0019128	0.00022207	1009.4	5.3599e-06	7.7916e-06	659.67	387.18	2.3112e-06	2.7808e-06	242.82	112.87	174.99	82.027	4.8536e-06	52.443	0.013523	0.024082	0.0068303	1066.7	0.00024102	0.00027453	736.12	406.03	0.00024276	0.00027115	284.32	126.1	186.59	85.863	0.00025385	58.451	189.754	-30.592	-13.191	-81.775	31.792	264.345	-83.650	-75.899	79.156	-43.170	-79.678	-75.547	-71.562	-67.939	0.253	-72.248	-8191	255	
28664.107	1	1	0	0	0.18806	0.29438	0.095368	0.14639	0.041665	0.16074	0.18636	0.23253	0.18811	0.12679	0.16676	0.17373	0.16956	0.1856	0.31952	0.19296	-0.4125	-0.38958	-1.1479	-0.62292	-0.59583	-1.3833	-0.47917	-1.1313	-1.0458	-0.47292	-1.2125	-0.68958	-0.72292	-1.4958	-0.55833	-1.2167	115.432	56.885	191.654	213.618	-21.779	64.558	205.626	257.343	12.923	29.280	96.995	124.260	-88.826	231.564	-73.506	-64.024	0.00014883	0.0019545	2.0577e-05	1010.8	4.8995e-06	8.6184e-06	663.28	385.03	1.1564e-05	4.1627e-06	241.22	110.94	175.15	81.597	1.0867e-05	52.069	0.01351	0.024083	0.0068211	1063.1	0.0002406	0.00027431	733.57	404.44	0.00024161	0.00027163	282.88	124.59	185.62	85.362	0.00025376	57.826	233.585	-29.117	239.165	-81.778	5.385	55.149	-83.289	-76.185	16.526	135.027	-80.002	-75.681	-71.809	-67.891	39.395	-72.587	-8191	255	
28664.203	1	1	0	0	0.092484	0.16056	0.0097519	0.22799	0.39414	0.14628	0.050908	0.30365	0.13229	0.05876	0.15162	0.19126	0.081278	0.4646	0.09816	0.11171	-0.49583	-0.18125	-1.1583	-0.76667	-0.58333	-1.3625	-0.58958	-1.0229	-1.0729	-0.33333	-1.2729	-0.88542	-0.42917	-1.4771	-0.51875	-0.87083	242.279	8.538	260.920	245.846	222.122	-86.698	200.285	230.743	-59.102	36.866	-41.363	264.601	205.427	243.634	181.302	207.710	0.00015599	0.00092896	0.00038915	1005	1.088e-05	5.6723e-06	659.04	385.6	9.2731e-06	8.4519e-06	236.65	110.58	174.26	81.817	5.9072e-06	51.911	0.013455	0.023951	0.0068132	1059.9	0.00023916	0.00027218	731.66	404.42	0.00024206	0.00027011	280.62	124.53	185.31	85.303	0.00025258	57.886	-61.832	239.028	86.994	-81.687	61.540	124.851	-84.008	-76.020	31.841	87.304	-79.466	-75.471	-71.439	-67.680	64.539	-72.545	-8191	255	
28664.299	1	1	0	0	0.22808	0.0040421	0.0088807	0.35516	0.18349	0.13425	0.16513	0.20647	0.22567	0.15332	0.025403	0.37268	0.18741	0.59209	0.19942	0.15243	-0.69167	-0.22708	-1.0812	-0.93333	-0.36667	-1.225	-0.65208	-0.68958	-1.3438	-0.38333	-1.2938	-0.93333	-0.43333	-1.6063	-0.49167	-0.66042	231.182	-74.383	195.594	213.254	177.626	39.049	164.271	182.797	70.024	162.380	216.037	186.112	244.580	250.584	-34.451	205.762	0.00022514	0.0012656	0.00018454	1004.2	7.6971e-06	1.2818e-05	656.52	383.9	7.7512e-06	5.921e-06	239.36	111.69	175.09	81.764	1.3833e-05	52.482	0.01345	0.023817	0.0067488	1057.9	0.00023999	0.00027261	730.15	404.25	0.00024273	0.00027058	281.99	125.16	185.76	85.506	0.00025338	58.335	168.059	246.566	-62.472	-81.715	207.791	147.618	-83.552	-75.868	262.089	30.591	-79.158	-75.759	-71.753	-67.723	124.016	-72.330	-8191	255	
28664.420	1	1	0	0	0.38506	0.24329	0.15562	0.1666	0.31248	0.10255	0.1735	0.12114	0.098243	0.11135	0.15906	0.27594	0.24065	0.47712	0.24007	0.043693	-0.8875	-0.23333	-0.825	-1.0146	-0.50208	-1.1083	-0.76667	-0.55208	-1.425	-0.31458	-1.0417	-1.2917	-0.50208	-1.3375	-0.62917	-0.62708	199.426	20.405	-90.336	226.072	102.029	155.806	142.849	215.472	130.780	-92.716	-61.559	212.919	225.917	225.684	107.486	72.591	0.00025557	0.00062539	0.00026312	1010.8	8.2421e-06	6.4505e-06	667.25	384.79	7.3237e-06	3.7379e-06	241.03	112.28	175.05	82.056	1.2294e-05	52.711	0.013355	0.023828	0.0067707	1065.7	0.00023977	0.00027127	737.17	404.69	0.00024191	0.00027196	284.05	125.75	186.31	85.912	0.00025323	58.709	230.044	58.111	227.952	-81.616	28.641	39.739	-83.912	-76.011	150.005	-28.837	-79.424	-75.466	-71.476	-67.725	-52.591	-72.066	-8191	255	
28664.514	1	1	0	0	0.24375	0.17582	0.038918	0.26641	0.16516	0.23531	0.33551	0.22348	0.046894	0.33468	0.16559	0.27472	0.10197	0.36582	0.29728	0.3672	-0.84583	-0.425	-0.86667	-1.2563	-0.37917	-1.2833	-0.93958	-0.70417	-1.2771	-0.575	-0.82292	-1.3083	-0.61875	-1.5063	-0.85833	-0.46667	129.748	6.786	-49.635	166.755	95.907	-39.672	116.014	224.050	117.376	170.413	-54.444	256.867	199.997	166.004	65.010	-70.631	0.00034705	0.00088482	0.00010599	1010.6	1.2308e-05	5.4033e-06	662.39	384.93	4.5203e-06	1.1265e-05	240.14	111.31	174.51	81.863	1.1559e-05	51.518	0.013394	0.023878	0.0067831	1064.9	0.00023828	0.00026943	732.89	404.88	0.00024295	0.00027057	282.44	125.03	185.78	85.399	0.00025288	57.7	228.226	246.811	58.612	-81.499	64.325	200.244	-83.881	-76.130	262.593	47.485	-79.468	-75.476	-71.760	-67.883	-7.959	-72.434	-8191	255	
28664.609	1	1	0	0	0.085104	0.26696	0.17585	0.27919	0.15374	0.20581	0.20513	0.17461	0.4228	0.20208	0.22796	0.11426	0.15125	0.16961	0.28149	0.013905	-0.83958	-0.59583	-0.50833	-1.2958	-0.29792	-1.1333	-1.0542	-0.55833	-1.1875	-0.63958	-0.79167	-1.1604	-0.55	-1.4083	-0.90833	-0.42083	196.958	92.223	67.454	208.174	39.523	95.319	117.516	121.711	84.255	256.352	256.938	5.142	264.043	196.228	-35.852	62.789	7.0615e-05	0.00026217	7.4967e-05	1004.1	6.8552e-06	1.86e-05	654.73	383.44	7.4881e-06	1.0592e-05	238.05	109.82	173.97	81.348	9.074e-06	51.478	0.013336	0.02382	0.0067297	1060.4	0.0002387	0.00027085	727.43	403.7	0.00024006	0.00027011	280.77	124.12	185.29	85.134	0.00025335	57.607	160.775	-55.885	-19.267	-81.675	88.203	7.939	-83.910	-75.825	47.815	199.109	-79.287	-75.522	-71.746	-67.793	-66.585	-72.794	-8191	255	
28664.684	1	1	0	0	0.1215	0.15481	0.098355	0.24045	0.28306	0.14051	0.1931	0.23104	0.20578	0.14685	0.11652	0.30577	0.24674	0.10686	0.18477	0.10629	-0.875	-0.74375	-0.475	-1.55	-0.45417	-0.91667	-1.0771	-0.51042	-1.2125	-0.8375	-0.46875	-1.3646	-0.45417	-1.025	-1.1313	-0.42708	189.095	-19.764	-17.082	195.291	106.117	6.350	183.696	226.390	-74.720	148.382	181.438	-72.092	208.142	-77.932	13.585	-89.286	0.000187	0.00072749	0.00012855	1006.3	7.2427e-06	1.8046e-06	657.69	384.65	8.3508e-06	9.232e-06	238.31	110.19	174.27	81.754	1.1574e-05	52.007	0.01332	0.023878	0.006745	1060.4	0.00023766	0.00027157	728.86	403.68	0.00024033	0.00026992	280.57	124.26	185.16	85.419	0.00025128	57.901	185.695	-40.819	9.873	-81.665	-83.836	194.905	-83.432	-75.787	165.114	-86.569	-79.163	-75.524	-71.686	-67.626	245.263	-72.392	-8191	255	
28664.803	1	1	0	0	0.12098	0.16944	0.1312	0.14419	0.12072	0.15625	0.31026	0.16279	0.18634	0.073593	0.010902	0.15376	0.28101	0.32471	0.12495	0.24941	-0.75625	-0.85833	-0.23542	-1.325	-0.425	-0.84583	-1.2354	-0.43542	-1.0604	-1.0771	-0.56875	-1.2437	-0.70208	-0.82083	-1.3917	-0.59792	6.544	49.945	9.636	187.580	228.011	248.430	103.490	-69.487	37.423	205.406	229.885	-69.460	243.671	244.686	171.958	204.905	0.00017746	0.0019578	0.00038707	1007.4	1.3725e-05	1.0412e-05	660.5	383.91	2.7665e-06	1.0027e-05	242.7	111.71	174.32	81.863	3.1347e-06	52.234	0.013379	0.02376	0.0067639	1063	0.00023732	0.00026964	731.21	403.52	0.0002417	0.00027063	283.12	125.19	185.62	85.578	0.00025173	58.282	245.932	-57.356	56.567	-81.672	48.428	110.602	-83.482	-75.994	156.251	27.772	-79.528	-75.817	-71.694	-67.741	57.411	-72.874	-8191	255	
28664.898	1	1	0	0	0.067583	0.34732	0.12823	0.155	0.079328	0.26174	0.21271	0.26343	0.24462	0.19339	0.03437	0.12327	0.20769	0.017393	0.017978	0.38236	-0.45417	-0.8875	-0.54375	-1.3854	-0.70208	-0.48542	-1.1771	-0.53125	-0.86875	-1.0708	-0.45417	-1.5458	-0.8875	-0.62083	-1.2292	-0.64375	-35.402	155.768	78.700	161.647	81.725	-40.842	231.684	176.290	-65.384	89.893	153.278	239.223	204.347	102.572	236.308	143.129	0.00015657	0.0015602	0.00016811	1014.9	9.3359e-06	3.4793e-06	661.76	385.99	6.7069e-06	8.8461e-06	241.22	111.87	175.48	82.364	9.6463e-06	52.198	0.013305	0.023965	0.0067295	1066.5	0.00023911	0.00027101	736.37	405.3	0.00024319	0.00027097	283.75	125.59	186.21	85.991	0.00025278	58.355	187.429	-14.203	9.468	-81.513	108.748	-21.034	-83.837	-75.734	71.379	257.647	-79.086	-75.356	-71.793	-67.436	82.521	-72.695	-8191	255	
28664.994	1	1	0	0	0.18363	0.17638	0.38894	0.31096	0.17863	0.28758	0.23529	0.28363	0.12629	0.23602	0.23484	0.16831	0.23241	0.30616	0.17983	0.097121	-0.37917	-1.1896	-0.45208	-1.0875	-0.83542	-0.525	-1.4583	-0.52083	-0.93542	-1.3292	-0.59583	-1.2771	-1.0396	-0.65	-1.3792	-0.69583	238.478	92.567	266.199	-25.325	229.300	111.840	-87.214	204.087	31.881	195.726	156.170	180.578	130.317	243.661	47.724	16.895	0.00025482	0.0014861	0.00032542	1012.1	6.9692e-06	1.1712e-05	664.52	384.96	4.0634e-06	2.1666e-05	239.38	111.34	173.98	81.657	6.784e-06	51.828	0.013455	0.023886	0.0068298	1062.7	0.00024172	0.00027323	733.48	404.28	0.00024282	0.00027051	282.14	124.67	185.36	85.301	0.00025134	57.755	205.171	-30.180	109.258	-81.551	-72.549	60.377	-83.575	-75.613	6.123	106.156	-79.663	-75.832	-71.620	-67.742	-38.760	-72.480	-8191	255	
28665.092	1	1	0	0	0.07605	0.23405	0.17424	0.40709	0.13611	0.1726	0.31615	0.1408	0.17524	0.19434	0.22795	0.11654	0.33156	0.1609	0.086835	0.13134	-0.20208	-1.1292	-0.47292	-1.3875	-0.91875	-0.43333	-1.2188	-0.63125	-0.61667	-1.2833	-0.2625	-1.1979	-1.2313	-0.54583	-1.2896	-0.73958	-15.469	7.689	37.220	244.209	-31.495	-86.422	239.247	-15.250	212.481	233.497	-25.177	182.245	235.261	159.911	171.740	-10.908	9.3437e-05	0.00088802	0.00014075	1006.8	5.718e-06	1.5144e-05	657.79	385.36	6.4674e-06	6.8494e-06	240.67	111.04	175.13	81.806	7.9373e-06	52.034	0.01336	0.023766	0.0067755	1061.7	0.00023923	0.00027232	730.9	404.15	0.00024156	0.00026929	282.38	124.77	185.64	85.446	0.00025188	58.059	167.696	240.133	189.784	-81.463	139.785	-73.764	-83.473	-75.929	169.128	92.254	-79.496	-75.730	-71.683	-67.608	-15.059	-72.678	-8191	255	
28665.213	1	1	0	0	0.17324	0.22465	0.16176	0.23378	0.08906	0.11977	0.091429	0.19516	0.12846	0.40209	0.078808	0.087952	0.30536	0.089153	0.15435	0.13836	-0.0875	-1.3125	-0.44375	-1.0375	-1.0896	-0.44583	-1.4333	-0.65417	-0.38958	-1.2854	-0.59792	-0.99792	-1.2271	-0.58333	-1.2625	-0.93125	100.852	159.015	211.098	220.619	184.270	13.637	182.957	62.362	156.403	-66.908	200.449	51.136	-55.878	204.574	-40.454	231.478	0.00012835	0.0016871	0.00023583	1010.3	1.2217e-05	1.4989e-05	661.42	384.2	2.0176e-06	8.4443e-06	240.3	111.35	174.54	81.918	6.9922e-06	52.435	0.01352	0.023837	0.0067906	1063.1	0.00023886	0.00027297	733.85	404.32	0.00024269	0.00026926	283.31	124.97	185.84	85.618	0.00025382	58.376	249.021	15.697	232.924	-81.564	87.664	77.362	-83.587	-75.973	116.538	60.672	-79.424	-75.405	-71.384	-67.617	75.308	-72.553	-8191	255	
28665.309	1	1	0	0	0.42995	0.32743	0.14362	0.21573	0.15905	0.23683	0.51066	0.068695	0.4136	0.10165	0.090734	0.07013	0.22407	0.46649	0.16252	0.081725	-0.24167	-1.2563	-0.36458	-1.1875	-1.0958	-0.28125	-1.1583	-1.0125	-0.26875	-1.1729	-0.725	-0.63958	-1.4417	-0.53542	-0.97708	-1.0896	247.981	244.595	-55.416	203.022	254.469	101.552	213.553	-70.188	216.928	235.829	19.584	-78.375	-77.058	209.939	236.902	228.192	0.0001531	0.0012588	0.00038208	1010.8	3.4122e-06	1.6428e-05	661.34	384.75	1.285e-05	1.2645e-05	241.38	112.13	174.14	82.002	8.2123e-06	52.284	0.013422	0.023913	0.0068136	1062.1	0.00023871	0.00027331	734.43	404.28	0.00024317	0.00027071	283.61	125.69	185.55	85.727	0.00025448	58.466	221.362	-17.245	-28.660	-81.511	10.128	-8.623	-83.904	-76.015	-34.476	57.682	-79.559	-75.190	-71.711	-67.720	169.214	-72.385	-8191	255	
28665.404	1	1	0	0	0.12819	0.13636	0.12964	0.41842	0.090666	0.1554	0.1548	0.4083	0.15131	0.13396	0.072297	0.031776	0.16749	0.21588	0.14784	0.22883	-0.04375	-1.1604	-0.54167	-0.64792	-1.2812	-0.28958	-1.0521	-1.1625	-0.36042	-1.225	-0.59583	-0.46042	-1.5646	-0.675	-1.0125	-1.2208	172.170	-44.726	55.037	223.069	263.484	215.216	12.964	209.611	91.171	105.213	98.290	198.118	220.074	155.564	-17.640	146.266	0.00010184	0.00090457	0.00014736	1010.6	2.2913e-06	1.9649e-05	664.09	385.4	2.8484e-06	9.3783e-06	240.65	111.6	173.55	81.489	8.773e-06	51.6	0.013389	0.023818	0.0068035	1062.6	0.0002396	0.00027443	735.35	404.89	0.00024318	0.00027095	283.19	124.96	184.87	85.282	0.00025485	57.757	190.583	5.599	51.817	-81.407	-87.346	4.370	-83.151	-75.931	-54.258	111.835	-79.265	-75.129	-71.643	-67.600	175.805	-72.439	-8191	255	
28665.500	1	1	0	0	0.24203	0.148	0.17947	0.20662	0.22157	0.089056	0.10688	0.040524	0.41835	0.25041	0.41142	0.23737	0.16261	0.20353	0.28725	0.15547	-0.0020833	-1.175	-0.62083	-0.63125	-1.2771	-0.43958	-0.97708	-1.3937	-0.30625	-1.2146	-1.0833	-0.28125	-1.5417	-0.69792	-0.84375	-1.225	70.352	-50.398	224.893	-66.347	65.435	-81.771	247.352	204.269	199.782	-57.667	233.161	253.453	-68.936	204.241	106.159	163.107	0.00026487	0.00048935	0.00010441	1005.9	9.4353e-06	1.0351e-05	649.76	382.82	1.5063e-05	1.8106e-05	236.67	109.86	173.23	80.969	5.726e-06	51.199	0.013523	0.023965	0.0068278	1058.5	0.00023846	0.00027366	725.8	402.32	0.00024181	0.00027023	280.04	123.67	184.34	84.772	0.00025216	57.407	226.972	240.970	-13.133	-81.364	104.004	62.221	-83.518	-75.917	79.913	250.665	-79.243	-74.844	-71.539	-67.534	-51.625	-72.439	-8191	255	
28665.596	1	1	0	0	0.09506	0.21712	0.29397	0.24628	0.05515	0.22388	0.32447	0.020692	0.063243	0.25178	0.2394	0.19957	0.1021	0.29188	0.13514	0.18928	-0.11458	-1.1333	-0.74167	-0.46042	-1.5771	-0.68333	-0.87083	-1.2875	-0.40417	-1.225	-1.0292	-0.7	-1.4042	-0.8125	-0.49792	-1.2896	57.961	181.529	-87.993	-62.921	219.555	191.520	177.286	19.636	76.318	107.141	237.820	88.311	-87.709	226.160	101.102	165.507	0.00015128	7.7745e-05	0.00046937	1004.7	2.4743e-06	5.2801e-06	658.01	382.48	7.3968e-06	8.2822e-06	237.94	110.45	173.46	81.241	9.5366e-06	51.884	0.013401	0.023816	0.0067493	1055.7	0.00023863	0.00027173	728.03	401.77	0.0002402	0.00027021	280.45	123.95	184.33	85.082	0.00025112	57.729	175.593	-30.990	2.893	-81.293	45.820	-9.204	-83.184	-75.699	214.804	51.977	-79.542	-75.296	-71.346	-67.630	152.136	-72.452	-8191	255	
28665.691	1	1	0	0	0.11915	0.16998	0.059066	0.27949	0.088044	0.13538	0.17021	0.17864	0.070678	0.18229	0.30305	0.015154	0.23692	0.12347	0.04739	0.38554	0.11458	-0.92708	-1.125	-0.4	-1.1417	-0.67708	-0.55625	-1.5396	-0.48125	-0.82292	-1.2208	-0.43958	-1.2167	-1.0833	-0.35208	-1.4604	215.457	52.052	-93.880	-80.003	221.574	58.569	221.952	232.024	230.294	4.977	150.737	149.435	189.888	224.472	25.676	247.115	0.00026048	0.0017705	0.00052038	1001.9	6.5203e-06	2.7923e-06	659.89	382.19	2.5959e-06	8.7992e-06	239.7	110.72	173.71	81.566	9.6917e-06	52.097	0.013283	0.023772	0.0067121	1056.3	0.000236	0.00027163	730.73	401.74	0.0002404	0.00026923	281.03	124.29	184.59	85.182	0.00025188	57.934	235.505	-26.844	1.646	-81.266	195.504	154.697	-83.526	-75.897	154.855	-56.286	-79.693	-74.957	-71.472	-67.632	112.951	-72.374	-8191	255	
28665.811	1	1	0	0	0.33065	0.10946	0.16438	0.48457	0.058684	0.20674	0.23662	0.26966	0.16517	0.2145	0.31415	0.20431	0.1325	0.24711	0.31601	0.22274	0.010417	-0.82083	-1.0438	-0.53333	-1.1917	-0.98333	-0.54583	-1.4458	-0.41875	-0.76667	-1.4062	-0.5375	-1.3062	-1.2687	-0.51875	-1.375	-35.174	59.749	-74.715	242.031	74.305	160.547	18.587	142.598	33.199	149.756	243.325	161.525	-41.912	225.511	22.903	131.598	0.00024251	0.001041	0.00026669	1005.4	1.174e-05	1.0136e-05	662.39	382.95	8.7788e-06	1.8816e-05	240.3	110.69	173.37	81.402	1.4546e-05	52.049	0.013334	0.023916	0.0067306	1055.6	0.0002367	0.00026948	731.2	401.86	0.00024116	0.00026791	281.78	124.54	184.18	85.139	0.00024928	57.884	224.374	93.309	-63.669	-81.540	63.889	192.863	-83.684	-75.724	251.315	-24.926	-78.963	-75.440	-71.471	-67.347	-40.942	-72.567	-8191	255	
28665.908	1	1	0	0	0.059616	0.15321	0.11872	0.18643	0.12148	0.40493	0.25807	0.22739	0.060814	0.36464	0.19542	0.3048	0.29735	0.25407	0.28432	0.096827	-0.24167	-0.5375	-1.3604	-0.5375	-0.93958	-0.82917	-0.37708	-1.5583	-0.42917	-0.45	-1.325	-0.40625	-1.0542	-1.3958	-0.27083	-1.2854	191.742	-22.178	250.568	200.807	216.887	173.226	92.437	203.514	79.174	205.501	216.896	228.533	251.854	219.474	125.056	-40.275	0.00023074	0.0010032	0.00033138	997.96	8.4485e-06	1.5643e-05	657.46	384.28	2.1105e-06	6.1694e-06	237.31	109.43	172.08	80.595	6.5871e-06	51.1	0.013397	0.023755	0.0066863	1051.7	0.00023794	0.00027199	725.67	401.05	0.00024145	0.00026723	278.58	122.51	183.2	84.267	0.00024786	56.969	182.711	-25.294	65.362	-81.373	7.913	0.813	-83.358	-75.831	38.063	264.427	-79.113	-75.168	-71.476	-67.658	32.718	-72.441	-8191	255	
28665.979	1	1	0	0	0.28886	0.069477	0.17114	0.33538	0.25709	0.344	0.16232	0.06246	0.14566	0.20752	0.37024	0.13651	0.22371	0.3898	0.070765	0.31426	-0.39583	-0.36458	-1.2729	-0.6	-0.81458	-1.1	-0.34375	-1.2667	-0.80208	-0.45208	-1.3021	-0.61875	-0.91042	-1.3	-0.42083	-1.1562	204.185	194.578	-2.264	216.063	150.363	-31.781	198.616	25.917	-12.875	-49.906	222.429	257.866	266.180	213.448	-79.868	209.763	0.00023484	0.0011738	0.00041099	999.97	4.6349e-06	2.0867e-05	658.03	381.85	8.1709e-06	2.1513e-06	237.91	109.94	172.24	81.032	9.0358e-06	51.437	0.013357	0.023665	0.0066454	1052.4	0.00023855	0.00026816	726.09	400.25	0.00023989	0.00026708	278.62	123.26	183.59	84.678	0.00024879	57.201	190.072	-7.591	60.665	-81.513	169.497	31.728	-83.583	-75.698	72.110	40.420	-79.484	-74.970	-71.343	-67.688	165.627	-72.192	-8191	255	
28666.074	1	1	0	0	0.1872	0.16501	0.14192	0.24408	0.17758	0.31451	0.32347	0.15023	0.49716	0.084244	0.1827	0.21482	0.35206	0.075759	0.30778	0.1502	-0.56042	-0.3875	-1.1771	-0.56667	-0.65417	-1.3875	-0.4375	-1.0812	-0.78333	-0.37708	-1.2354	-0.68958	-0.69583	-1.6417	-0.34167	-1.0542	-67.970	95.192	211.149	203.314	118.300	-42.799	-41.853	172.761	258.009	-71.441	258.509	184.334	145.681	237.812	11.671	76.732	0.00012174	0.001051	0.0002381	998.12	6.7028e-06	1.0459e-05	655.93	380.78	1.8605e-05	1.0215e-05	236.51	110.18	172.61	80.897	1.1894e-05	51.566	0.013275	0.023488	0.0066222	1050.9	0.00023519	0.00026587	726.72	399.79	0.00023786	0.00026492	277.77	123.21	183.25	84.47	0.00025063	57.333	250.779	-58.614	60.485	-81.446	100.375	110.694	-83.345	-75.878	54.965	12.242	-79.497	-75.374	-71.473	-67.611	106.811	-72.254	-8191	255	
28666.195	1	1	0	0	0.13166	0.17044	0.22434	0.26278	0.27059	0.087282	0.11622	0.52742	0.17325	0.14665	0.16257	0.21985	0.32771	0.36257	0.15566	0.18346	-0.80417	-0.45	-1.1604	-0.74375	-0.65625	-1.4333	-0.64167	-1.1771	-1.0958	-0.43542	-1.2146	-0.71042	-0.77708	-1.4625	-0.40208	-0.92292	235.157	-16.649	265.249	-93.581	-22.369	-4.625	247.256	225.680	118.809	251.741	92.373	223.855	215.956	223.111	-35.878	-89.679	0.00025028	0.0010515	0.00058182	1001.2	1.1096e-05	3.648e-06	655.68	381.23	9.7398e-06	1.4271e-05	238.71	110.5	173.08	81.293	6.9791e-06	51.882	0.013228	0.023461	0.0066504	1050.7	0.00023567	0.0002669	726.29	400.16	0.00023861	0.00026502	280.23	123.85	183.71	84.785	0.00025044	57.674	211.531	8.650	-13.896	-81.444	107.696	30.688	-83.492	-75.696	-86.688	121.706	-79.295	-75.338	-71.536	-67.541	94.527	-72.348	-8191	255	
28666.293	1	1	0	0	0.2738	0.11554	0.13157	0.276	0.12845	0.33602	0.14567	0.27257	0.2313	0.12307	0.10144	0.19711	0.21531	0.14415	0.19548	0.29753	-0.78958	-0.19167	-0.975	-1.0083	-0.26042	-1.3417	-0.40833	-0.94375	-1.2167	-0.49167	-1.0938	-0.95208	-0.37917	-1.5187	-0.31875	-0.59375	201.970	139.711	70.845	-47.457	-70.218	57.298	19.404	-83.711	213.005	74.738	-51.437	-82.345	-50.329	-9.984	25.556	134.437	0.0001527	0.00040596	0.00030648	1001.7	1.1302e-05	8.826e-06	660.48	382.65	3.396e-06	7.7291e-06	239.26	110.53	173.12	80.92	1.3972e-05	51.491	0.013203	0.023531	0.0066807	1054.4	0.00023592	0.00026895	730.92	401.56	0.0002382	0.00026525	280.83	123.73	183.45	84.729	0.00024904	57.402	192.869	-17.647	233.824	-81.455	62.153	200.501	-83.774	-75.375	116.975	162.546	-79.644	-75.078	-71.524	-67.646	-26.474	-72.344	-8191	255	
28666.389	1	1	0	0	0.063738	0.10711	0.24254	0.4732	0.21071	0.12861	0.27678	0.32864	0.069319	0.078562	0.023085	0.11881	0.282	0.12986	0.15631	0.35454	-0.69792	-0.31042	-0.95833	-1.1896	-0.4125	-1.1604	-0.83958	-0.77292	-1.1417	-0.225	-1.0312	-1.1167	-0.46667	-1.4312	-0.68542	-0.57083	220.398	26.509	-61.566	217.047	77.226	261.538	246.139	246.719	-23.628	-12.147	154.250	-92.612	254.182	258.034	192.190	200.026	0.000105	0.0013681	6.8938e-05	1001.2	3.5675e-06	1.2403e-05	656.45	380.89	3.774e-06	8.7619e-06	236.43	109.63	171.77	80.792	1.0562e-05	51.042	0.013143	0.023514	0.0066907	1049.8	0.00023427	0.00026625	725.3	400.5	0.00023824	0.0002666	278.53	122.79	182.41	84.316	0.00025027	56.946	220.115	27.135	9.398	-81.455	82.152	29.785	-83.203	-75.703	152.837	88.074	-78.939	-75.430	-71.447	-67.445	80.271	-72.429	-8191	255	
28666.484	1	1	0	0	0.061025	0.095093	0.027905	0.057975	0.20266	0.32726	0.07099	0.19269	0.18351	0.22064	0.36387	0.16211	0.32983	0.26789	0.12989	0.1612	-0.86667	-0.3625	-0.85833	-1.3333	-0.16667	-1.2854	-0.94375	-0.63125	-1.2271	-0.63333	-0.87917	-1.1646	-0.45833	-1.0604	-1.0146	-0.61875	59.265	115.230	121.827	248.285	-21.453	-39.460	201.526	251.264	95.164	108.072	135.998	212.520	252.677	156.993	155.182	-64.183	0.00018172	0.00084352	0.00018307	996.97	9.811e-06	1.2568e-05	656.48	379.86	4.0607e-06	6.9428e-06	236.37	109.4	172.99	81.123	7.5877e-06	51.568	0.013167	0.023497	0.0067052	1050	0.00023331	0.00026871	726.87	399	0.00023777	0.0002666	278.76	122.99	183.4	84.8	0.00024889	57.509	200.229	-5.526	37.407	-81.649	51.083	-15.374	-83.453	-75.604	124.199	-26.842	-79.110	-74.860	-71.357	-67.510	196.162	-72.455	-8191	255	
28666.578	1	1	0	0	0.19792	0.24885	0.2118	0.16054	0.22693	0.068074	0.0674	0.28636	0.030672	0.22303	0.12345	0.10228	0.17002	0.20849	0.10076	0.24076	-0.91875	-0.56875	-0.70625	-1.3625	-0.28333	-1.1042	-1.1833	-0.54583	-1.0938	-0.73958	-0.65	-1.3083	-0.48958	-1.1208	-0.99583	-0.40208	14.669	182.839	265.253	118.373	178.817	111.956	-28.486	266.157	88.287	251.527	227.197	231.102	124.172	244.912	190.480	229.122	0.0002334	0.00066114	0.00044784	1006.4	7.9825e-06	1.8737e-05	663.1	381.01	1.0474e-06	9.606e-06	238.5	110.81	173.41	81.61	1.8388e-05	51.911	0.013195	0.023592	0.0067098	1055.6	0.00023501	0.00027037	731.81	400.88	0.00023975	0.00026856	280.95	124.17	184.38	85.327	0.00024946	57.707	205.839	-12.458	52.070	-81.567	54.297	22.512	-83.636	-75.596	232.775	-84.644	-79.406	-75.650	-71.611	-67.471	58.524	-72.393	-8191	255	
28666.676	1	1	0	0	0.26389	0.15204	0.069729	0.18943	0.098868	0.18764	0.10664	0.25899	0.093168	0.088447	0.15736	0.29918	0.22098	0.27197	0.18995	0.08389	-0.86458	-0.70208	-0.3875	-1.3375	-0.45417	-0.87292	-1.3708	-0.325	-1.1604	-0.7	-0.54375	-1.3396	-0.42708	-1.0938	-1.1417	-0.52917	-72.399	146.631	200.757	133.241	-78.362	25.407	190.491	198.416	-45.707	103.757	156.962	85.977	248.660	248.239	216.332	58.820	0.00022155	0.00037655	0.00025988	1004.3	6.0618e-06	7.7784e-06	661.73	382.2	7.4638e-06	5.9574e-06	239.44	111.48	173.46	81.573	1.7928e-05	52.269	0.013243	0.02384	0.0067126	1055.6	0.00023795	0.00026937	730.61	401.33	0.00024028	0.00026837	282.51	124.66	184.35	85.414	0.00024965	58.129	180.827	-1.827	-13.739	-81.599	156.415	213.545	-83.299	-75.813	163.031	-85.659	-79.042	-75.480	-71.258	-67.498	3.692	-72.200	-8191	255	
28666.773	1	1	0	0	0.1499	0.070861	0.14313	0.020671	0.43092	0.21159	0.38146	0.27004	0.1243	0.13288	0.1595	0.20444	0.23027	0.12101	0.27609	0.050025	-0.77708	-0.82708	-0.49792	-1.5	-0.47708	-0.80625	-1.2792	-0.4875	-0.88125	-1.2583	-0.27708	-1.2917	-0.63958	-0.66458	-1.3958	-0.36667	172.953	242.360	55.828	242.946	20.542	134.286	151.616	30.736	90.164	164.569	92.786	223.577	242.444	-11.830	-24.986	265.554	0.00013876	0.00098566	0.00016822	1002.9	9.5888e-06	3.8691e-06	661.68	382.69	7.9336e-06	1.1647e-05	238.28	110.79	173.65	81.342	6.1474e-06	51.63	0.013385	0.023804	0.0067081	1055	0.00023771	0.0002708	729.85	402.38	0.00024132	0.00027198	280.74	124.12	184.58	85.132	0.00024871	57.588	171.137	43.494	-25.883	-81.418	91.855	161.641	-83.473	-75.852	-91.584	96.308	-79.556	-75.551	-71.345	-67.515	-22.066	-72.152	-8191	255	
28666.893	1	1	0	0	0.36271	0.20903	0.15587	0.33608	0.20259	0.088243	0.13203	0.030092	0.13127	0.25642	0.16294	0.22676	0.25065	0.30544	0.11088	0.2312	-0.63333	-1.0438	-0.32708	-1.4104	-0.64375	-0.62292	-1.3875	-0.62292	-0.975	-1.0333	-0.43542	-1.2167	-0.97292	-0.68542	-1.3354	-0.4375	253.721	196.130	47.827	237.972	-41.259	180.488	158.800	115.777	144.108	133.506	161.676	249.401	-46.610	219.168	101.527	205.399	0.00016838	0.0012476	0.00022327	1000.4	7.6171e-06	1.1626e-05	659.54	382.48	1.4266e-05	1.2982e-05	238.66	110.14	172.96	81.434	1.0645e-05	51.436	0.013465	0.023815	0.0067048	1053.2	0.00023939	0.00027049	727.52	401.99	0.00024091	0.0002679	280.75	124	184.11	85.019	0.00024995	57.629	180.294	-28.618	-74.647	-81.105	69.602	59.165	-83.212	-75.672	-91.129	29.729	-79.347	-75.316	-71.264	-67.262	-15.256	-72.814	-8191	255	
28666.988	1	1	0	0	0.20181	0.23378	0.18841	0.12387	0.11187	0.4012	0.15257	0.39667	0.081116	0.22662	0.036587	0.24426	0.26182	0.37349	0.081756	0.25511	-0.54375	-1.0958	-0.25833	-1.3438	-0.775	-0.33542	-1.2771	-0.68542	-0.89375	-1.0479	-0.39583	-1.1562	-1.1812	-0.55208	-1.2646	-0.59375	201.212	27.472	157.679	-29.567	226.471	121.335	181.702	207.132	214.002	214.414	101.206	201.411	171.352	212.355	63.412	23.444	0.00017029	0.00043326	0.0002162	994.21	1.3454e-05	8.8083e-06	659.33	382.34	7.2014e-06	8.9558e-06	239.97	110.61	173.09	81.436	8.0619e-06	51.841	0.013396	0.02366	0.0067142	1051	0.0002375	0.00026784	727.77	400.85	0.00024033	0.00026852	281.57	123.99	184.15	85.008	0.00025018	57.671	245.560	236.578	31.829	-81.242	98.329	53.902	-82.956	-75.688	4.227	24.598	-79.391	-75.303	-71.241	-67.590	89.616	-72.115	-8191	255	
28667.084	1	1	0	0	0.087279	0.14083	0.33963	0.012455	0.18595	0.31169	0.33456	0.1156	0.22384	0.16784	0.13445	0.23837	0.37678	0.34497	0.17987	0.21851	-0.20208	-1.1125	-0.22917	-1.1625	-0.80208	-0.35	-1.2979	-0.54167	-0.725	-1.3396	-0.48333	-0.84167	-1.1354	-0.5875	-1.3167	-0.72917	180.340	98.696	232.009	147.889	-66.213	237.594	170.856	-57.368	12.503	77.537	-58.599	252.795	-89.733	-82.390	-72.078	100.950	0.00011039	0.00020346	0.00043639	1000.7	1.2318e-05	2.0233e-05	659.08	383.31	1.0464e-05	6.1185e-06	237.76	110.96	173.45	81.396	1.6174e-05	51.732	0.013431	0.023671	0.0067003	1053.2	0.0002373	0.00026936	729.6	401.29	0.00023985	0.00026865	281.7	124.39	184.26	85.147	0.00025004	58.016	140.618	84.147	-28.989	-81.231	73.392	109.354	-83.123	-75.891	-22.563	139.387	-79.602	-74.926	-71.369	-67.286	54.239	-72.614	-8191	255	
28667.205	1	1	0	0	0.31588	0.20152	0.32466	0.18261	0.21327	0.028392	0.23613	0.079234	0.22858	0.10059	0.11202	0.26244	0.14208	0.25351	0.21538	0.18193	-0.22917	-1.2521	-0.33542	-1.0438	-1.1792	-0.50208	-1.1125	-0.73125	-0.49375	-1.3375	-0.49375	-0.95625	-1.3229	-0.55833	-1.225	-1.0458	243.766	62.135	16.727	200.600	183.139	56.974	171.174	9.845	-85.348	109.445	228.164	223.181	259.360	264.250	39.064	158.028	6.3137e-05	0.00039385	0.00043402	1003.3	9.4404e-06	4.6891e-06	663.52	382.63	4.8967e-06	2.308e-06	240.89	111.31	173.45	81.267	2.8189e-06	51.666	0.013352	0.023429	0.0067494	1055.4	0.00023798	0.00026876	732.98	401.75	0.0002402	0.00026539	282.24	124.68	184.3	85.171	0.00025112	57.715	154.717	208.008	-15.377	-81.367	176.062	231.700	-83.102	-75.771	154.382	-17.317	-79.181	-75.384	-71.535	-67.323	-49.685	-72.309	-8191	255	
28667.275	1	1	0	0	0.49518	0.28631	0.22589	0.24762	0.11776	0.11538	0.44937	0.19831	0.065216	0.029162	0.20519	0.13515	0.077544	0.095564	0.052184	0.25749	-0.1375	-1.2313	-0.475	-0.91042	-1.0938	-0.3125	-1.1125	-1.1854	-0.44583	-1.3146	-0.51875	-0.8875	-1.1646	-0.72083	-1.1792	-1.0292	-68.488	70.849	122.498	-88.007	-4.993	202.133	242.860	102.798	-11.100	-15.224	166.145	208.481	251.021	233.829	-6.082	187.746	0.00025129	0.0016793	0.00068611	994.92	7.1793e-06	4.3984e-06	653.56	379.87	6.9885e-06	1.2205e-05	237.87	109.81	172.2	80.534	4.0885e-06	51.307	0.013218	0.023407	0.0067136	1048.4	0.00023521	0.00026702	723.44	399.86	0.00023832	0.00026555	279.32	122.9	182.56	84.26	0.00025016	57.022	188.178	12.738	-22.816	-81.082	89.099	49.476	-83.076	-75.714	20.026	105.725	-79.111	-75.072	-71.036	-67.307	127.691	-72.112	-8191	255	
28667.373	1	1	0	0	0.2312	0.094244	0.046973	0.26146	0.22274	0.20354	0.055808	0.39414	0.20495	0.060806	0.14499	0.29343	0.35941	0.14743	0.21044	0.13861	-0.091667	-1.1313	-0.38542	-0.75833	-1.1646	-0.29583	-1.1625	-1.3854	-0.42083	-1.2708	-0.88333	-0.80833	-1.2812	-0.66458	-0.80833	-1.1625	62.866	16.687	-54.277	237.267	224.348	-3.131	253.179	232.473	59.649	174.600	-80.648	136.090	247.173	245.719	-58.196	184.899	0.00021661	0.00059096	0.00015218	994.59	7.6801e-06	6.5868e-06	653.48	378.3	1.2448e-05	9.4555e-06	237.2	108.91	170.67	80.702	1.0871e-05	51.294	0.013175	0.023416	0.006736	1046.1	0.0002347	0.0002679	722.92	398.34	0.00023648	0.00026604	278.94	122.47	181.85	84.206	0.00024995	57.083	213.088	-71.344	-69.356	-81.321	70.906	104.507	-83.461	-75.838	3.388	107.751	-79.366	-75.239	-71.521	-67.281	146.197	-72.394	-8191	255	
28667.492	1	1	0	0	0.2111	0.13225	0.13239	0.22872	0.25479	0.172	0.2039	0.21158	0.10873	0.21953	0.30977	0.24263	0.32413	0.10952	0.13918	0.20567	0.03125	-1.1625	-0.675	-0.68125	-1.4375	-0.48958	-0.73542	-1.2667	-0.35625	-1.1021	-0.8125	-0.41667	-1.2896	-0.6625	-0.76042	-1.3062	45.601	198.837	-44.058	201.172	27.372	262.906	176.567	49.695	232.467	151.770	89.110	204.072	-93.004	105.357	-50.564	240.565	9.3815e-05	0.00075177	0.00021791	996.46	8.3022e-06	5.8921e-06	654.14	379.11	3.6556e-06	1.6889e-05	237.32	109.52	172.15	81.166	1.0186e-05	51.367	0.013173	0.023537	0.0067077	1046.9	0.00023342	0.00026825	724.66	398.03	0.0002361	0.00026638	279.41	123.03	182.27	84.629	0.00024885	57.357	231.544	-90.349	30.815	-81.415	-15.292	87.399	-83.025	-75.646	79.764	34.471	-79.488	-75.270	-71.137	-67.340	15.530	-72.388	-8191	255	
28667.588	1	1	0	0	0.074366	0.23997	0.33648	0.20009	0.051933	0.14772	0.24033	0.34592	0.054043	0.092895	0.21131	0.51172	0.30336	0.2728	0.16971	0.080841	0.077083	-1.0604	-0.75625	-0.40417	-1.1562	-0.5625	-0.75	-1.5625	-0.34167	-0.84583	-0.86667	-0.49375	-1.5542	-0.58958	-0.65417	-1.275	-93.086	103.703	-51.499	192.801	158.712	12.741	-25.535	244.544	116.643	-46.873	-10.490	-67.311	-86.637	241.407	78.250	55.966	0.00027302	0.0010697	1.8894e-05	1000.1	3.7301e-06	1.4911e-05	657.18	380.16	1.2641e-06	9.4862e-06	239.48	110.22	171.29	80.925	5.3939e-06	51.946	0.013136	0.023599	0.0066493	1049.7	0.00023378	0.0002688	727.19	398.74	0.00023796	0.0002672	280.56	123.62	182.74	84.631	0.00025095	57.629	205.317	-24.226	58.723	-81.112	19.105	41.007	-83.131	-75.625	-92.223	84.701	-79.559	-75.090	-71.217	-67.509	-51.687	-72.299	-8191	255	
28667.684	1	1	0	0	0.078062	0.16981	0.15265	0.15128	0.25019	0.072169	0.13631	0.16915	0.11126	0.14583	0.14844	0.41417	0.24196	0.081248	0.1267	0.13314	-0.083333	-0.90833	-0.75	-0.4375	-1.2896	-0.78542	-0.74792	-1.4146	-0.23125	-0.84583	-1.1792	-0.29167	-1.2375	-0.79375	-0.48125	-1.4354	78.868	28.893	15.775	-55.359	167.195	19.968	145.267	-30.605	165.417	134.869	45.421	207.003	246.432	-59.835	-4.828	121.927	0.00015645	0.000658	7.9547e-05	995.76	7.7233e-06	5.7191e-06	658.3	380.86	6.4947e-06	9.2634e-06	236.83	109.27	171.06	80.225	6.768e-06	51.168	0.013205	0.023634	0.0067007	1046.3	0.00023352	0.00026954	725.21	399.04	0.00023981	0.00026733	279.09	122.44	181.96	84.092	0.00024704	56.903	173.350	-69.161	-12.516	-81.188	54.303	-13.480	-83.271	-75.665	-87.270	-53.716	-79.097	-74.971	-71.251	-67.379	123.266	-72.478	-8191	255	
28667.779	1	1	0	0	0.25144	0.17841	0.078037	0.1748	0.17304	0.23305	0.097527	0.032131	0.17345	0.097217	0.21158	0.021673	0.24028	0.36682	0.15174	0.10499	-0.2	-0.57708	-1.0479	-0.52917	-1.2042	-0.57083	-0.50625	-1.3833	-0.59583	-0.60833	-1.075	-0.5125	-1.2708	-1.0396	-0.11875	-1.2271	-18.929	199.328	83.047	221.757	32.111	247.846	127.952	133.215	150.998	216.340	181.730	70.873	-85.537	215.697	118.536	136.854	0.00017821	0.0022325	0.00013323	989.95	4.6453e-06	9.5293e-06	648.55	378.32	1.0155e-05	1.5485e-05	237.23	108.55	170.82	80.556	1.324e-05	51.267	0.013256	0.023518	0.0066632	1043.4	0.00023499	0.00026812	719.45	397.39	0.00024143	0.00026788	277.64	121.99	181.85	84.046	0.00024978	56.933	161.818	114.829	-34.238	-81.435	41.726	-7.519	-83.320	-75.771	-34.565	195.280	-79.637	-75.310	-71.156	-67.452	32.362	-72.372	-8191	255	
28667.877	1	1	0	0	0.051349	0.088906	0.087545	0.034824	0.21933	0.13115	0.26499	0.21932	0.094757	0.1115	0.23039	0.24826	0.082453	0.11723	0.23219	0.10127	-0.058333	-0.64792	-1.0958	-0.32292	-0.98958	-0.76667	-0.375	-1.2542	-0.57292	-0.6	-1.2625	-0.41042	-1.1333	-1.0042	-0.11458	-1.2333	-36.023	238.794	108.807	214.688	36.514	185.594	103.526	233.549	26.270	131.813	200.121	217.986	38.034	-47.450	139.064	237.105	0.000111	0.0010946	0.00061479	995.71	5.3184e-06	9.1954e-06	660.67	380.03	5.8255e-06	3.3163e-06	237.83	109.59	171.78	80.61	1.235e-05	51.374	0.013323	0.023567	0.0066624	1046.1	0.00023615	0.00026862	725.22	398.35	0.00023973	0.00026614	278.66	122.79	182.72	84.297	0.00024962	57.406	207.702	-32.719	-40.823	-81.484	2.695	-7.874	-83.192	-75.580	-22.892	109.706	-79.210	-75.276	-71.304	-67.476	201.757	-71.943	-8191	255	
28667.973	1	1	0	0	0.23299	0.16693	0.1394	0.094928	0.018536	0.034001	0.47653	0.45079	0.096157	0.25239	0.070011	0.14286	0.13967	0.078601	0.093373	0.12881	-0.28125	-0.31667	-1.3188	-0.41667	-0.75833	-1.2708	-0.42083	-1.2208	-0.76875	-0.29792	-1.3521	-0.5875	-0.92708	-1.3104	-0.18333	-1.1812	87.123	241.787	200.821	226.917	176.583	34.124	182.040	224.718	-43.103	136.324	115.644	180.117	236.377	-70.689	-81.745	199.011	0.00014453	0.00039902	0.00035666	987.3	1.239e-05	1.173e-05	654.88	379.96	4.7246e-06	7.8482e-06	236.98	109.53	172.33	80.993	4.4363e-06	51.517	0.013291	0.023709	0.0066633	1044.9	0.00023749	0.00026794	725.63	399.46	0.00024215	0.00026856	279.75	123.25	182.92	84.712	0.0002497	57.731	-77.514	7.356	90.159	-81.405	101.016	66.520	-83.467	-75.602	-27.491	170.512	-79.368	-75.720	-70.975	-67.430	166.942	-72.316	-8191	255	
28668.068	1	1	0	0	0.15083	0.12274	0.29822	0.2259	0.18088	0.19263	0.058477	0.33011	0.13321	0.22777	0.13841	0.14072	0.15172	0.40608	0.14105	0.34576	-0.42708	-0.24167	-1.2271	-0.59583	-0.70417	-1.3771	-0.45	-1.2854	-0.77708	-0.24792	-1.1208	-0.49375	-0.56042	-1.4021	-0.38333	-0.975	166.525	1.146	31.014	-66.153	-8.860	157.837	127.271	236.775	249.184	110.065	-55.488	176.348	259.674	-70.286	-30.078	66.932	0.00016338	0.00097007	8.66e-05	995.82	1.6678e-06	1.9059e-05	659.16	380.42	5.933e-06	1.8431e-05	241.12	111.03	172.17	81.509	1.0335e-05	51.915	0.013402	0.023653	0.0067219	1048.2	0.00023955	0.0002701	728.76	400.81	0.00024128	0.00026645	282.84	124.68	183.49	84.934	0.00025222	57.92	214.983	-43.071	130.456	-81.415	37.491	-66.030	-83.561	-75.456	-33.838	73.669	-78.806	-75.235	-71.258	-67.211	88.799	-72.521	-8191	255	
28668.164	1	1	0	0	0.3667	0.26547	0.10325	0.32245	0.24793	0.27078	0.079844	0.30238	0.040969	0.093927	0.044676	0.18014	0.15378	0.30826	0.082533	0.11297	-0.71458	-0.36875	-1.2563	-0.80417	-0.45	-1.3813	-0.53125	-0.88333	-0.91667	-0.25208	-1.2229	-0.64792	-0.4125	-1.4188	-0.5375	-0.83542	-72.151	34.174	234.670	239.498	203.015	115.255	130.949	210.119	203.110	201.907	12.273	189.973	-59.126	223.113	250.002	72.464	8.739e-05	0.0011081	0.00041536	988.63	6.1815e-06	1.0847e-05	653.92	379.84	3.5078e-06	1.2711e-05	238.44	110.29	172.02	81.026	9.8097e-07	51.511	0.013388	0.02392	0.0067815	1045.9	0.00023782	0.00026998	724.78	400.22	0.00024129	0.00026862	281.16	123.43	182.94	84.591	0.00025379	57.52	-87.451	22.168	-10.373	-81.136	123.017	99.316	-83.564	-75.750	-92.107	92.865	-79.076	-75.190	-71.375	-67.380	176.748	-71.996	-8191	255	
28668.285	1	1	0	0	0.18493	0.14453	0.080582	0.049891	0.18821	0.077977	0.14061	0.24165	0.24151	0.025167	0.19894	0.24624	0.30062	0.46929	0.082136	0.22837	-0.77083	-0.18958	-0.93958	-0.86458	-0.2625	-1.3167	-0.44375	-0.77292	-1.1812	-0.32292	-0.96667	-0.87917	-0.41042	-1.45	-0.72083	-0.7625	148.730	47.582	134.039	249.788	-27.915	137.675	104.869	212.058	-46.988	95.582	-16.405	253.331	-65.580	255.746	103.322	200.899	0.00011327	0.0016767	0.0001506	990.98	1.0308e-05	7.9033e-06	654.49	383.33	1.0815e-05	1.0535e-05	240.02	109.86	173.01	81.149	8.034e-06	51.962	0.013283	0.023681	0.0068196	1045.5	0.00023666	0.000271	725.72	401.33	0.00024234	0.00026992	281.86	123.79	183.68	84.956	0.00025438	57.826	225.094	44.337	96.741	-81.074	3.501	38.586	-83.367	-75.394	-28.884	-14.742	-79.236	-75.116	-71.166	-67.276	173.398	-72.126	-8191	255	
28668.381	1	1	0	0	0.20144	0.2749	0.13627	0.20143	0.067632	0.051635	0.25373	0.39013	0.28267	0.21284	0.28303	0.20252	0.34443	0.29315	0.26238	0.23529	-0.68125	-0.29375	-0.99792	-0.98958	-0.37708	-1.1021	-0.70417	-0.78333	-1.2625	-0.52708	-0.75208	-1.1667	-0.36458	-1.45	-0.70833	-0.81042	-30.050	-23.467	60.809	-65.639	-19.308	-22.413	184.527	-92.917	108.736	6.986	239.359	179.360	230.492	260.578	60.299	182.972	1.2307e-05	0.00072577	0.00052735	996.73	3.1405e-06	1.0276e-05	656.5	381.02	6.4503e-06	6.0789e-06	240.49	110.65	173.3	81.635	1.592e-05	52.139	0.013298	0.023858	0.0068107	1048.1	0.00023942	0.00027292	726.58	401.08	0.00024131	0.00027081	282.29	124.26	184.01	85.211	0.00025483	58.011	125.723	41.351	-33.310	-81.365	229.915	41.872	-83.146	-75.660	110.542	10.335	-79.022	-74.855	-71.165	-67.418	47.950	-71.981	-8191	255	
28668.477	1	1	0	0	0.14582	0.29308	0.12135	0.14644	0.40024	0.17496	0.32626	0.32795	0.025443	0.14599	0.053321	0.30919	0.31206	0.20274	0.0829	0.20016	-0.99375	-0.42292	-0.65625	-1.2792	-0.33125	-1.0479	-1.15	-0.48333	-1.1708	-0.62292	-0.79792	-1.3354	-0.45208	-1.4458	-1.0021	-0.44167	192.364	184.741	84.527	236.444	-75.014	-64.913	220.894	-62.232	2.613	181.025	178.226	11.955	261.411	203.740	78.840	209.857	0.00031291	0.0007251	0.00026756	991.9	8.3569e-06	6.133e-06	660.2	380.93	7.8512e-06	5.7306e-06	241.01	111.59	174.28	81.489	8.0337e-06	52.542	0.013319	0.024122	0.0067898	1045.4	0.00023846	0.0002744	728.8	401.18	0.00024303	0.00027365	283.59	124.76	184.74	85.449	0.00025552	58.373	195.299	-11.731	-18.333	-81.295	15.728	238.571	-83.577	-75.841	44.367	54.021	-78.872	-74.862	-71.018	-67.281	-73.612	-71.650	-8191	255	
28668.574	1	1	0	0	0.028281	0.13678	0.10678	0.14163	0.13656	0.20842	0.231	0.41233	0.15401	0.13241	0.2135	0.16989	0.042691	0.4588	0.15774	0.1664	-0.72917	-0.45833	-0.52292	-1.3062	-0.34583	-1.0312	-0.98958	-0.49792	-1.4354	-0.61875	-0.54375	-1.2271	-0.5	-0.9375	-0.97917	-0.37083	109.562	-10.166	109.321	170.097	137.705	1.861	153.400	224.454	94.600	94.459	144.523	80.708	266.559	258.344	142.001	206.835	0.00021267	0.0017315	8.3129e-05	997.4	9.5272e-06	1.7148e-05	656.16	382.17	6.54e-06	6.8423e-06	240.21	110.53	172.01	81.493	3.2399e-06	51.492	0.013523	0.024171	0.0068471	1046.4	0.00023868	0.00027382	725.98	401.63	0.00024226	0.00027273	282.44	124.26	183.72	85.071	0.00025306	57.565	174.474	-52.618	-50.740	-81.023	44.292	-2.651	-83.178	-75.429	81.097	131.239	-79.419	-75.032	-71.269	-67.065	171.032	-72.030	-8191	255	
28668.668	1	1	0	0	0.29335	0.12678	0.23291	0.050223	0.19214	0.02515	0.31915	0.30593	0.1583	0.12877	0.18577	0.24853	0.24725	0.38929	0.12654	0.24982	-0.9375	-0.59792	-0.63958	-1.3021	-0.45208	-0.9	-1.1104	-0.32917	-1.3208	-0.57917	-0.65208	-1.5146	-0.6875	-1.0042	-1.0354	-0.43542	265.206	196.203	-37.761	92.778	75.010	-37.703	171.359	249.577	8.958	-45.902	160.048	211.782	223.659	251.788	51.861	205.538	0.00021968	0.00099841	0.0002794	985.79	6.8951e-06	6.8008e-06	646.45	380.32	6.5715e-06	9.0226e-06	235.99	108.96	171.89	81.256	1.3499e-05	51.31	0.013426	0.023914	0.0067962	1040.8	0.00024076	0.00027341	718.82	399.56	0.00024202	0.00027058	279.05	122.85	183.33	84.739	0.00025243	57.306	185.986	-1.139	-27.968	-81.187	-18.026	150.134	-83.081	-75.190	47.958	95.962	-79.001	-74.878	-71.219	-67.142	41.644	-72.061	-8191	255	
28668.764	1	1	0	0	0.12912	0.20856	0.16719	0.18588	0.074003	0.13472	0.28413	0.21646	0.16437	0.10854	0.25608	0.19052	0.09179	0.39389	0.30122	0.078507	-0.65	-0.7125	-0.32917	-1.45	-0.40625	-0.74583	-1.2083	-0.49167	-1.0729	-0.95833	-0.50417	-1.3167	-0.70417	-1.0271	-1.2979	-0.31458	219.359	257.336	47.443	219.733	18.617	181.949	145.923	244.135	194.509	137.525	-75.193	257.662	-3.885	233.687	198.398	139.843	0.00031065	0.00094183	0.00045777	988.03	7.9961e-06	2.1216e-05	647.45	380.48	5.0071e-06	1.3516e-05	238.28	110.26	172.54	81.231	1.0773e-05	51.616	0.013381	0.02379	0.0066763	1040.6	0.00023806	0.00027104	719.16	399.68	0.00023963	0.00026791	279.23	123.58	183.41	84.695	0.00024867	57.52	235.997	256.176	64.416	-80.959	14.200	75.399	-83.339	-75.345	9.323	79.455	-78.792	-75.135	-71.461	-67.213	-35.606	-72.034	-8191	255	
28668.885	1	1	0	0	0.25662	0.14054	0.040652	0.34018	0.14906	0.13774	0.11263	0.12931	0.29018	0.13285	0.21313	0.20805	0.18785	0.1269	0.16768	0.28596	-0.65	-0.87292	-0.52917	-1.1083	-0.62708	-0.54375	-1.4188	-0.36042	-0.75625	-0.93958	-0.60208	-1.3896	-0.9125	-0.82292	-1.2437	-0.65208	100.021	-58.264	-19.529	-20.546	-33.996	86.229	249.811	254.173	110.338	33.035	218.727	60.235	232.714	-76.788	59.741	-23.230	0.00024765	0.00075915	0.00024117	994.36	9.2379e-06	1.037e-05	653.12	380.25	6.6976e-06	1.325e-05	238.8	110.89	172.34	81.022	9.0021e-06	51.979	0.013343	0.023581	0.0067107	1042	0.00023675	0.00026744	722.29	399.21	0.00024051	0.00026526	279.53	123.67	183.2	84.803	0.00025038	57.849	200.123	24.816	-21.416	-80.996	60.672	66.653	-83.270	-75.480	240.049	80.529	-78.904	-75.011	-71.310	-67.140	197.974	-72.049	-8191	255	
28668.980	1	1	0	0	0.27063	0.17426	0.17588	0.073511	0.033902	0.11181	0.12812	0.24143	0.10448	0.26039	0.09716	0.15041	0.15559	0.26527	0.37108	0.17864	-0.67708	-1.0979	-0.43125	-1.1542	-0.78542	-0.37292	-1.475	-0.59375	-0.73333	-1.0979	-0.425	-1.2437	-0.99167	-0.72708	-1.1917	-0.71667	28.490	224.793	25.558	263.509	-0.008	154.855	166.684	209.984	202.040	36.111	132.858	233.360	-27.903	-79.639	68.860	-35.795	0.00012972	0.00022769	0.00012496	983.05	3.3852e-06	9.7988e-06	652.85	380.18	2.3927e-06	2.5081e-05	239.63	110.19	171.76	81.237	1.8812e-05	52.008	0.013231	0.023427	0.0066349	1041.6	0.0002356	0.00026551	724.29	399.07	0.00023906	0.00026605	281.41	124.06	182.96	84.727	0.00024563	57.75	180.857	-91.718	43.396	-81.236	107.609	-9.365	-82.922	-75.649	55.916	10.313	-78.770	-74.865	-71.265	-67.080	69.921	-71.740	-8191	255	
28669.076	1	1	0	0	0.084096	0.073777	0.20409	0.36425	0.10149	0.32765	0.13415	0.46397	0.13908	0.20801	0.16229	0.27556	0.041491	0.35017	0.18811	0.17745	-0.18333	-1.2625	-0.40833	-1.2542	-1.0042	-0.29167	-1.5375	-0.87917	-0.69583	-1.2375	-0.52083	-1.1604	-1.2208	-0.52917	-1.3875	-0.73333	47.842	-34.347	35.335	192.052	40.684	186.582	221.002	-85.931	98.533	66.839	-68.795	236.694	209.706	224.723	55.959	167.834	0.00021912	0.00053334	0.00020951	984.97	1.0514e-05	2.9036e-06	646.8	376.87	2.2702e-06	8.8652e-06	238.25	108.8	170.96	80.97	2.264e-06	51.267	0.013215	0.023187	0.0065835	1037.8	0.00023374	0.00026396	718.09	397.06	0.00023575	0.00026277	278	122.44	181.46	84.105	0.00024522	57.02	177.693	-82.259	202.192	-81.068	51.126	-54.277	-82.861	-75.651	166.730	-41.484	-78.722	-74.636	-71.304	-66.983	164.178	-71.566	-8191	255	
28669.174	1	1	0	0	0.09387	0.20228	0.18762	0.22701	0.26462	0.077446	0.082774	0.20502	0.12849	0.18816	0.18255	0.48252	0.24845	0.15058	0.17425	0.32977	-0.39167	-1.2229	-0.27083	-1.1771	-0.96667	-0.33333	-1.5333	-0.86042	-0.6625	-1.4062	-0.4125	-0.9625	-1.3875	-0.43333	-1.1313	-1.0187	204.315	257.586	25.035	250.568	61.976	108.690	-84.459	180.925	225.077	-53.063	36.821	-60.835	-79.403	-93.034	216.723	169.374	0.00020803	0.0021671	0.00034276	982.04	1.2102e-05	4.8083e-06	648.16	378.91	4.5882e-06	7.07e-06	235.4	109.33	170.29	80.677	9.625e-06	51.336	0.013062	0.023012	0.0066112	1034	0.0002321	0.00026409	716.62	396.45	0.00023398	0.00026188	276.52	122.36	181.45	84.214	0.00024552	57.15	175.618	22.493	198.053	-81.075	129.941	145.302	-83.266	-75.398	94.330	63.088	-79.441	-74.657	-71.232	-67.056	239.493	-71.596	-8191	255	
28669.270	1	1	0	0	0.087669	0.17083	0.048691	0.18888	0.16705	0.15619	0.22337	0.3243	0.11394	0.17827	0.028569	0.37601	0.31078	0.26433	0.18129	0.11229	-0.14167	-1.1562	-0.36875	-0.84792	-1.4333	-0.27917	-1.2188	-0.99792	-0.34375	-1.2042	-0.57708	-0.64375	-1.3312	-0.59583	-1.0833	-1.1167	212.816	151.888	-16.214	-83.771	125.284	202.748	138.093	214.341	229.742	167.720	149.712	248.986	221.999	238.588	230.622	210.716	0.00021577	0.00051133	0.00017702	980.37	1.0656e-05	1.5172e-05	654.07	377.04	3.3428e-06	1.8793e-06	236.15	109.44	171.95	80.611	4.2863e-06	51.928	0.012928	0.023104	0.0066135	1035.9	0.0002313	0.00026227	719.89	396.31	0.00023235	0.00026103	277.68	122.93	182.03	84.414	0.00024438	57.438	189.123	-93.434	31.651	-80.658	78.910	124.284	-83.335	-75.534	-92.523	36.653	-78.993	-74.757	-71.070	-67.081	132.734	-71.797	-8191	255	
28669.365	1	1	0	0	0.11174	0.11789	0.086884	0.16825	0.060448	0.12745	0.30784	0.12494	0.22075	0.14025	0.16015	0.16156	0.05006	0.152	0.075055	0.092822	0.2625	-1.4458	-0.55833	-0.53958	-1.1583	-0.47708	-1.0583	-1.1562	-0.40208	-1.3271	-0.69167	-0.56042	-1.4125	-0.67917	-1.1292	-1.2479	40.918	88.197	-49.110	266.433	160.746	-71.021	237.127	211.354	92.874	188.112	205.912	-69.322	235.627	190.353	-14.893	235.556	8.5904e-05	0.0018345	0.00035073	982.8	8.2574e-06	1.2657e-05	652.14	379.53	3.9405e-06	1.054e-05	237.17	110.62	172.07	81.274	1.4238e-05	52.041	0.012898	0.023189	0.0065928	1036.2	0.00023021	0.00026413	720.49	397.47	0.00023417	0.00026366	279.56	123.4	182.56	84.888	0.00024748	57.851	200.754	-49.761	245.170	-80.896	-38.630	10.525	-83.052	-75.203	223.310	166.269	-78.834	-75.026	-71.079	-66.983	80.527	-72.033	-8191	255	
28669.463	1	1	0	0	0.14984	0.1316	0.27028	0.20885	0.1821	0.059297	0.092536	0.1093	0.51195	0.059381	0.28274	0.12429	0.1812	0.22668	0.015905	0.15531	-0.014583	-1.0354	-0.64792	-0.60625	-1.3958	-0.44583	-1.0917	-1.4688	-0.3125	-1.2042	-0.87083	-0.4875	-1.6542	-0.67083	-0.62083	-1.45	61.284	58.951	37.638	220.644	152.699	106.190	239.338	146.654	211.255	-84.735	-87.911	-63.635	-78.094	262.448	119.005	135.103	0.00021766	0.00095627	0.00026154	989.26	8.8687e-06	2.3189e-06	658.31	380.96	9.4052e-06	1.0263e-05	238.93	111.08	171.98	81.346	8.3325e-06	51.5	0.012955	0.02329	0.0066146	1039.5	0.00023053	0.00026483	723.71	399	0.00023478	0.0002641	279.49	123.64	183.12	84.748	0.00024594	57.316	218.867	-56.589	79.370	-81.062	248.687	183.788	-83.203	-75.546	65.876	239.065	-79.108	-74.736	-70.850	-67.058	125.069	-71.697	-8191	255	
28669.580	1	1	0	0	0.072698	0.17535	0.22247	0.044279	0.13809	0.32664	0.27437	0.17682	0.077844	0.15026	0.34522	0.16205	0.33344	0.26634	0.19194	0.12978	-0.11875	-0.87708	-1.0583	-0.53958	-1.1104	-0.49583	-0.77708	-1.3646	-0.24583	-1.0146	-0.96875	-0.35417	-1.35	-0.99167	-0.65208	-1.3583	185.485	152.386	52.078	11.823	117.644	-59.618	-53.286	82.042	44.980	162.644	125.685	235.220	213.055	221.055	10.980	-60.254	0.00016979	0.00029222	5.3095e-05	984.48	9.5112e-06	9.1967e-06	646.43	378.38	7.8024e-06	2.0262e-05	235.52	108.97	172.85	80.795	5.2493e-06	51.483	0.013027	0.023296	0.0065908	1035	0.00023068	0.00026488	714.95	396.66	0.00023552	0.00026293	276.79	122.02	182.33	84.231	0.00024425	57.05	223.997	70.297	-6.244	-80.895	68.203	-2.574	-83.171	-75.313	118.340	90.989	-79.190	-74.708	-70.926	-66.660	108.707	-71.604	-8191	255	
28669.678	1	1	0	0	0.15144	0.062069	0.060286	0.24667	0.17956	0.048891	0.34142	0.58299	0.12238	0.24763	0.21349	0.28449	0.13451	0.55048	0.28476	0.045507	0.00625	-1.2	-0.76458	-0.53333	-1.3854	-0.71042	-0.47708	-1.3521	-0.36875	-0.81042	-1.0667	-0.49167	-1.4062	-1.0167	-0.49375	-1.2292	68.744	-68.249	-33.662	212.669	-88.707	184.465	183.734	236.661	19.015	-3.571	135.992	261.600	-77.130	238.965	-59.710	151.152	0.00019829	0.0013337	0.00040577	980.68	1.2166e-05	1.8138e-05	648.4	378.33	5.5236e-07	7.0291e-06	236.69	109.78	171.4	80.949	4.5678e-06	51.475	0.013048	0.023293	0.0065858	1031.7	0.00023077	0.00026426	714.27	396.31	0.00023596	0.00026447	276.92	122.39	182.12	84.371	0.00024398	57.071	155.990	-2.486	-60.088	-81.041	215.675	6.848	-82.928	-75.012	262.436	117.086	-79.048	-74.835	-70.871	-67.039	-55.224	-71.874	-8191	255	
28669.748	1	1	0	0	0.098922	0.11194	0.12231	0.32249	0.2589	0.10342	0.2928	0.25721	0.081654	0.12162	0.375	0.093622	0.40182	0.1821	0.33548	0.036628	-0.029167	-0.76875	-1.1583	-0.30833	-0.92917	-0.78958	-0.53125	-1.4333	-0.36667	-0.9375	-1.15	-0.56875	-1.1479	-1.0458	-0.47292	-1.4229	-12.873	44.344	113.085	-74.951	177.732	-4.752	222.026	218.728	219.384	195.538	217.892	-23.931	-82.429	201.696	186.781	259.625	0.00015784	0.00028518	0.00030477	982.16	3.7701e-06	6.3633e-06	646.62	377.8	7.8596e-06	9.9019e-06	237.65	109.51	172.15	80.681	1.0279e-05	51.82	0.013086	0.023098	0.0064972	1031.7	0.00023182	0.00026359	713.68	396.6	0.00023498	0.00026231	277.38	122.92	182.72	84.39	0.00024203	57.495	247.411	176.702	15.056	-81.075	129.973	-14.586	-83.104	-75.354	219.157	54.878	-79.354	-75.039	-70.964	-67.151	-11.895	-72.105	-8191	255	
28669.846	1	1	0	0	0.12039	0.21706	0.037555	0.043431	0.21678	0.17771	0.2042	0.13934	0.26344	0.13373	0.010284	0.10761	0.24639	0.025796	0.052797	0.26327	-0.24167	-0.61458	-1.1479	-0.4625	-0.94792	-1.0417	-0.35625	-1.5479	-0.6125	-0.69583	-1.225	-0.30833	-1.0125	-1.2938	-0.30833	-1.4583	-23.581	-11.429	-41.914	114.629	51.951	24.518	154.161	96.986	32.824	244.233	243.519	164.367	-86.189	80.509	-30.962	257.483	0.00011579	0.0011099	0.00028604	984.33	7.1603e-06	8.0886e-06	650.86	378.87	7.1089e-06	6.786e-06	240.45	110.71	173.23	81.328	8.9328e-06	51.93	0.013086	0.023065	0.0065067	1033.2	0.00023248	0.00026069	716.74	398.27	0.00023404	0.00026047	279.52	123.93	183.49	84.879	0.00024331	57.561	199.545	-8.727	117.513	-81.135	112.726	79.304	-83.098	-75.286	55.436	17.818	-79.363	-75.114	-71.317	-67.220	58.949	-71.686	-8191	255	
28669.965	1	1	0	0	0.25866	0.20166	0.22704	0.33571	0.11112	0.11857	0.25625	0.19059	0.21941	0.072811	0.062811	0.36	0.24847	0.13029	0.08271	0.21618	-0.31667	-0.43958	-1.1313	-0.65	-0.82292	-1.1458	-0.48125	-1.3604	-0.75833	-0.38542	-1.3563	-0.60208	-0.83958	-1.425	-0.43958	-1.2646	3.943	105.826	178.669	-75.400	100.348	-30.879	135.995	115.168	132.283	256.899	128.288	220.163	212.175	-49.646	-77.276	166.049	3.9825e-05	0.00025122	0.00026493	984.31	5.1997e-06	1.0996e-05	646.84	379.45	4.5139e-06	1.1587e-05	238.23	109.77	171.87	80.893	7.4484e-06	51.535	0.012975	0.022775	0.0065125	1031.3	0.00023032	0.00026201	713.29	397.88	0.00023341	0.00025744	277.34	122.66	182.79	84.396	0.00024333	57.217	162.068	213.244	149.745	-81.152	42.860	90.349	-83.279	-75.519	154.937	95.309	-79.320	-74.890	-71.099	-67.127	-5.546	-72.039	-8191	255	
28670.061	1	1	0	0	0.27347	0.1359	0.13997	0.16307	0.17039	0.095194	0.067082	0.32749	0.22244	0.19482	0.30527	0.30085	0.069699	0.46977	0.26686	0.1974	-0.6	-0.57083	-1.3625	-0.69583	-0.65417	-1.3062	-0.47292	-1.2188	-0.83958	-0.475	-1.3021	-0.77083	-0.77917	-1.6542	-0.475	-1.1625	170.588	101.023	261.762	263.581	184.667	244.782	-83.375	255.487	237.319	44.774	233.877	213.368	117.091	246.041	213.947	-71.553	0.00016335	0.0014207	0.00027027	976.64	1.3925e-06	1.3939e-05	640.97	376.11	6.8813e-06	7.7145e-06	237.57	109.86	172.53	81.083	6.6835e-06	51.653	0.01293	0.022822	0.0064756	1027.4	0.00022802	0.00025898	711.71	395.96	0.00023298	0.00025655	277.56	122.85	182.65	84.447	0.00024222	57.169	144.088	254.805	95.707	-80.940	-76.632	5.580	-82.628	-75.294	-67.583	-55.714	-79.202	-74.993	-70.969	-67.230	256.849	-71.931	-8191	255	
28670.156	1	1	0	0	0.11256	0.2042	0.011588	0.27477	0.16323	0.19012	0.13595	0.5132	0.15397	0.38734	0.098748	0.15889	0.13878	0.2876	0.21274	0.2256	-0.77083	-0.49583	-1.1583	-0.75417	-0.57292	-1.2521	-0.6375	-1.2812	-0.96875	-0.42083	-1.2958	-0.93125	-0.85417	-1.55	-0.51875	-1.0562	98.714	-13.629	160.455	-83.196	182.973	50.852	259.303	217.157	265.427	188.502	119.819	-87.498	220.308	233.318	-58.102	213.219	0.00026079	0.00034765	0.00036717	976.89	4.6766e-06	9.7289e-06	647.86	379.19	6.9211e-06	1.3296e-05	237.18	110.77	172.74	81.605	5.0395e-06	51.995	0.012858	0.022737	0.0065413	1030	0.00022813	0.00025916	711.94	396.69	0.00023107	0.00025642	277.9	123.79	183.24	84.971	0.00024454	57.67	187.041	88.616	-31.037	-80.969	77.305	48.895	-82.980	-75.334	225.760	133.140	-78.886	-74.769	-70.955	-66.950	154.518	-71.883	-8191	255	
28670.254	1	1	0	0	0.10598	0.035864	0.23182	0.25857	0.15899	0.088871	0.15595	0.13925	0.096718	0.2247	0.21822	0.32202	0.35214	0.24258	0.12756	0.040258	-0.60625	-0.20208	-1.075	-0.86042	-0.67083	-1.2333	-0.58125	-0.62917	-1.1542	-0.55	-1.1333	-0.94792	-0.5	-1.3458	-0.575	-0.71875	-31.476	89.919	204.853	144.037	-0.438	-90.597	201.125	201.215	218.408	141.776	213.484	218.299	-72.675	251.837	-53.069	197.545	0.00026145	0.001398	0.00033924	982.99	1.2854e-05	1.1591e-05	646.15	380.36	5.895e-06	1.5175e-05	239.71	111.69	172.82	81.03	4.0772e-06	52.24	0.012851	0.022836	0.0065213	1032.6	0.00022885	0.00026108	714.54	398.1	0.00023194	0.00025896	280.08	124.32	183.83	84.97	0.00024648	57.888	164.525	-81.669	-9.539	-80.929	89.235	227.083	-82.965	-75.244	257.208	196.799	-78.667	-74.959	-70.611	-66.937	262.413	-71.331	-8191	255	
28670.373	1	1	0	0	0.093716	0.07156	0.25523	0.17682	0.28705	0.1244	0.26329	0.30098	0.23353	0.18634	0.11573	0.065003	0.13794	0.099496	0.16583	0.38665	-0.85417	-0.38125	-1.1917	-0.94583	-0.30625	-1.3292	-0.8375	-0.81875	-1.2604	-0.41458	-1.1354	-1.1187	-0.41042	-1.3354	-0.61042	-0.61667	56.899	-73.563	28.306	262.895	-56.571	143.939	251.206	238.860	-6.570	-33.820	64.365	71.390	-57.204	204.343	-75.990	176.777	0.00011085	0.0011359	3.0219e-05	979.74	4.2122e-06	1.0205e-05	650.63	382.03	7.6809e-06	6.9186e-06	241.54	112.12	173.23	81.675	7.9752e-06	52.258	0.012856	0.023097	0.0065486	1030	0.00023014	0.00026184	717.84	399.79	0.00023301	0.00026162	281.15	124.58	183.95	85.248	0.00024332	57.947	216.463	54.147	32.272	-80.964	72.187	-5.469	-82.711	-75.013	232.208	67.770	-78.978	-74.878	-71.100	-67.142	38.239	-72.188	-8191	255	
28670.445	1	1	0	0	0.30863	0.12277	0.17159	0.054432	0.10057	0.1	0.16112	0.17832	0.26001	0.07794	0.15071	0.032566	0.16408	0.24868	0.24621	0.062394	-0.66667	-0.26458	-0.78958	-1.1792	-0.23125	-1.2292	-0.74583	-0.61458	-1.1542	-0.44792	-0.82708	-1.1396	-0.71875	-1.3271	-0.97708	-0.375	136.207	30.305	163.045	27.911	-31.014	184.917	241.075	-62.582	54.843	3.962	-74.578	-63.806	265.031	-69.558	-22.585	-49.213	4.0107e-05	0.0016599	0.00031479	978.14	1.6623e-06	7.6818e-06	646.14	380.06	7.6946e-06	1.3619e-05	239.45	111.62	173.34	81.582	1.1578e-05	52.172	0.012861	0.023035	0.006497	1030.6	0.00023067	0.00026003	713.69	398.53	0.00023277	0.00026009	279.33	124.12	183.85	85.217	0.00024331	57.917	-63.092	16.920	-2.933	-81.033	264.038	113.249	-83.132	-75.466	53.217	178.315	-78.637	-74.586	-71.057	-67.056	-5.072	-72.328	-8191	255	
28670.566	1	1	0	0	0.12332	0.35831	0.13764	0.13663	0.13332	0.072423	0.079299	0.2479	0.11179	0.13782	0.16616	0.29205	0.31106	0.17776	0.31162	0.094711	-0.96667	-0.49167	-0.55625	-1.3417	-0.49375	-1.2563	-1.1771	-0.56042	-1.1979	-0.58333	-0.52083	-1.3167	-0.525	-0.96875	-0.88958	-0.39792	56.698	6.884	57.181	139.162	262.624	-8.973	100.735	250.748	257.041	-40.331	18.142	227.004	-83.743	218.445	243.269	-20.141	0.00014641	0.00078443	0.0001704	979.27	5.9576e-06	9.6369e-06	648.96	380.96	5.3412e-06	8.037e-06	240.01	111.75	173.87	81.452	8.389e-06	52.252	0.012894	0.022981	0.0064828	1029.2	0.00022977	0.00026187	714.64	398.95	0.00023365	0.00025968	280.48	124.55	184.38	85.086	0.00024331	57.94	187.920	-79.607	-3.931	-81.033	20.663	76.210	-83.027	-75.398	37.885	113.819	-79.008	-75.062	-71.235	-66.978	8.864	-71.609	-8191	255	
28670.660	1	1	0	0	0.11019	0.073156	0.27894	0.063702	0.22079	0.1104	0.08791	0.34796	0.44111	0.13432	0.11554	0.16179	0.18289	0.13298	0.065787	0.13223	-0.69167	-0.45417	-0.45833	-1.5708	-0.34375	-0.93542	-1.2354	-0.45208	-1.1354	-0.71667	-0.67292	-1.4333	-0.71458	-0.9125	-1.1437	-0.41458	186.135	239.504	7.491	184.198	-61.055	89.151	39.320	210.458	144.235	-6.415	-29.511	259.742	-16.848	177.905	249.668	185.516	0.00013669	0.00017619	0.00053678	980.29	7.54e-06	1.8918e-05	654.51	381.3	4.8061e-06	7.3278e-06	240.67	112.56	174.64	81.772	8.617e-06	52.889	0.012887	0.022873	0.0064935	1030.2	0.00023052	0.00026109	717.97	399.53	0.00023336	0.00026036	281.41	125.5	184.94	85.358	0.00024266	58.484	187.939	112.007	33.153	-81.284	25.859	100.470	-83.158	-75.270	120.098	224.061	-79.108	-74.924	-71.197	-67.015	-50.477	-72.051	-8191	255	
#DATA ENDS
