BOXY.EXE: ISS Imagent and Oximeter Data Acquisition Program Version 0.80
Ascii Record File

#ACQ INFORMATION
2  Detector Channels 
16  External MUX Channels 
1  Auxiliary Channels 
5000  Waveform (CCF) Frequency (Hz)
1  Waveforms Skipped 
30  Waveforms Averaged 
1  Cycles Averaged 
16  Acquisitions per Waveform 
10.0806  Updata Rate (Hz) 

#FILE INFORMATION
TRUE -- External MUX Channel results are PARSED.
FALSE -- AC DC and Phase are NOT grouped.
TRUE -- Companion Program Settings File CREATED.
FALSE -- AC data not excluded
FALSE -- DC data not excluded
FALSE -- Phase data not excluded
FALSE -- Auxillary Chn. data not excluded
Tab delimiters

#CALIBRATION STATE
TRUE -- Waveform Calibration Values APPLIED.


#AUX CALIBRATION VALUES
Val Type	aux-1	

Term	1.0000e+00	
Factor	0.0000e+00	


#WF CALIBRATION VALUES
A = Detector Channel
Val Type	A-AC1	A-AC2	A-AC3	A-AC4	A-AC5	A-AC6	A-AC7	A-AC8	A-AC9	A-AC10	A-AC11	A-AC12	A-AC13	A-AC14	A-AC15	A-AC16	A-DC1	A-DC2	A-DC3	A-DC4	A-DC5	A-DC6	A-DC7	A-DC8	A-DC9	A-DC10	A-DC11	A-DC12	A-DC13	A-DC14	A-DC15	A-DC16	A-Ph1	A-Ph2	A-Ph3	A-Ph4	A-Ph5	A-Ph6	A-Ph7	A-Ph8	A-Ph9	A-Ph10	A-Ph11	A-Ph12	A-Ph13	A-Ph14	A-Ph15	A-Ph16	

Term	0.00000e+00	0.00000e+00	0.00000e+00	0.00000e+00	0.00000e+00	0.00000e+00	0.00000e+00	0.00000e+00	0.00000e+00	0.00000e+00	0.00000e+00	0.00000e+00	0.00000e+00	0.00000e+00	0.00000e+00	0.00000e+00	0.00000e+00	0.00000e+00	0.00000e+00	0.00000e+00	0.00000e+00	0.00000e+00	0.00000e+00	0.00000e+00	0.00000e+00	0.00000e+00	0.00000e+00	0.00000e+00	0.00000e+00	0.00000e+00	0.00000e+00	0.00000e+00	0.00000e+00	0.00000e+00	0.00000e+00	0.00000e+00	0.00000e+00	0.00000e+00	0.00000e+00	0.00000e+00	0.00000e+00	0.00000e+00	0.00000e+00	0.00000e+00	0.00000e+00	0.00000e+00	0.00000e+00	0.00000e+00	
Factor	1.00000e+00	1.00000e+00	1.00000e+00	1.00000e+00	1.00000e+00	1.00000e+00	1.00000e+00	1.00000e+00	1.00000e+00	1.00000e+00	1.00000e+00	1.00000e+00	1.00000e+00	1.00000e+00	1.00000e+00	1.00000e+00	1.00000e+00	1.00000e+00	1.00000e+00	1.00000e+00	1.00000e+00	1.00000e+00	1.00000e+00	1.00000e+00	1.00000e+00	1.00000e+00	1.00000e+00	1.00000e+00	1.00000e+00	1.00000e+00	1.00000e+00	1.00000e+00	X	X	X	X	X	X	X	X	X	X	X	X	X	X	X	X	

B = Detector Channel
Val Type	B-AC1	B-AC2	B-AC3	B-AC4	B-AC5	B-AC6	B-AC7	B-AC8	B-AC9	B-AC10	B-AC11	B-AC12	B-AC13	B-AC14	B-AC15	B-AC16	B-DC1	B-DC2	B-DC3	B-DC4	B-DC5	B-DC6	B-DC7	B-DC8	B-DC9	B-DC10	B-DC11	B-DC12	B-DC13	B-DC14	B-DC15	B-DC16	B-Ph1	B-Ph2	B-Ph3	B-Ph4	B-Ph5	B-Ph6	B-Ph7	B-Ph8	B-Ph9	B-Ph10	B-Ph11	B-Ph12	B-Ph13	B-Ph14	B-Ph15	B-Ph16	

Term	0.00000e+00	0.00000e+00	0.00000e+00	0.00000e+00	0.00000e+00	0.00000e+00	0.00000e+00	0.00000e+00	0.00000e+00	0.00000e+00	0.00000e+00	0.00000e+00	0.00000e+00	0.00000e+00	0.00000e+00	0.00000e+00	0.00000e+00	0.00000e+00	0.00000e+00	0.00000e+00	0.00000e+00	0.00000e+00	0.00000e+00	0.00000e+00	0.00000e+00	0.00000e+00	0.00000e+00	0.00000e+00	0.00000e+00	0.00000e+00	0.00000e+00	0.00000e+00	-9.65827e+01	-1.43805e+02	-1.39444e+02	-1.81677e+02	-5.59979e+01	-8.92971e+01	-1.59950e+02	-1.62015e+02	-5.08740e+01	-7.88643e+01	-1.72352e+02	-1.71128e+02	-1.81284e+02	-1.77091e+02	-7.77532e+01	-1.49524e+02	
Factor	1.36684e-05	1.02022e-04	2.72554e-05	1.62761e-01	7.49054e-07	1.57017e-06	1.72592e-01	4.32996e-02	7.46595e-07	8.31903e-07	7.37064e-02	2.64361e-02	3.12763e-02	7.71586e-03	1.03788e-06	1.11046e-02	1.01505e-06	1.06720e-06	2.95085e-07	8.33522e-02	1.16206e-08	1.16285e-08	8.30791e-02	2.23858e-02	1.15920e-08	1.16152e-08	3.63287e-02	1.30762e-02	1.58931e-02	3.95424e-03	1.15352e-08	5.46625e-03	X	X	X	X	X	X	X	X	X	X	X	X	X	X	X	X	



#DISTANCE SETTINGS
A = Detector Channel
A-1	A-2	A-3	A-4	A-5	A-6	A-7	A-8	A-9	A-10	A-11	A-12	A-13	A-14	A-15	A-16	

2.5000e+00	3.0000e+00	2.5000e+00	3.0000e+00	2.0000e+00	3.0000e+00	1.5000e+00	3.0000e+00	3.0000e+00	3.0000e+00	3.0000e+00	3.0000e+00	3.0000e+00	3.0000e+00	1.5000e+00	3.0000e+00	

B = Detector Channel
B-1	B-2	B-3	B-4	B-5	B-6	B-7	B-8	B-9	B-10	B-11	B-12	B-13	B-14	B-15	B-16	

1.0000e+01	1.0000e+01	1.0000e+01	1.4400e+00	1.0000e+01	1.0000e+01	1.5100e+00	1.9400e+00	1.0000e+01	1.0000e+01	1.9900e+00	2.4900e+00	2.4100e+00	2.9000e+00	1.0000e+01	2.9800e+00	




#DATA BEGINS
time	group	step	mark	flag	A-AC1	A-AC2	A-AC3	A-AC4	A-AC5	A-AC6	A-AC7	A-AC8	A-AC9	A-AC10	A-AC11	A-AC12	A-AC13	A-AC14	A-AC15	A-AC16	A-DC1	A-DC2	A-DC3	A-DC4	A-DC5	A-DC6	A-DC7	A-DC8	A-DC9	A-DC10	A-DC11	A-DC12	A-DC13	A-DC14	A-DC15	A-DC16	A-Ph1	A-Ph2	A-Ph3	A-Ph4	A-Ph5	A-Ph6	A-Ph7	A-Ph8	A-Ph9	A-Ph10	A-Ph11	A-Ph12	A-Ph13	A-Ph14	A-Ph15	A-Ph16	B-AC1	B-AC2	B-AC3	B-AC4	B-AC5	B-AC6	B-AC7	B-AC8	B-AC9	B-AC10	B-AC11	B-AC12	B-AC13	B-AC14	B-AC15	B-AC16	B-DC1	B-DC2	B-DC3	B-DC4	B-DC5	B-DC6	B-DC7	B-DC8	B-DC9	B-DC10	B-DC11	B-DC12	B-DC13	B-DC14	B-DC15	B-DC16	B-Ph1	B-Ph2	B-Ph3	B-Ph4	B-Ph5	B-Ph6	B-Ph7	B-Ph8	B-Ph9	B-Ph10	B-Ph11	B-Ph12	B-Ph13	B-Ph14	B-Ph15	B-Ph16	aux-1	digaux	

2843.823	1	1	0	768	0.021556	0.15163	0.030838	0.23961	0.076141	0.23318	0.045332	0.29485	0.069618	0.30946	0.088892	0.25812	0.328	0.12206	0.06706	0.022523	-0.19792	-0.91042	-1.1979	-0.48125	-1.3604	-0.91458	-0.65417	-1.6042	-0.56667	-1.0833	-1.6063	-0.52083	-1.2604	-1.1625	-0.525	-1.5063	214.004	276.723	268.464	-1.990	-12.781	58.560	196.147	31.977	58.074	114.297	213.834	2.712	288.112	171.561	222.219	22.420	0.00051993	0.0019387	8.5967e-05	612.87	1.3985e-05	3.9591e-05	736.22	194.6	2.0376e-05	2.2942e-05	308.03	116.65	66.097	30.271	6.2881e-06	62.177	0.0052519	0.0052862	0.0013595	953.76	6.1271e-05	5.8282e-05	1069.9	291.85	6.0875e-05	5.5587e-05	461.19	171.06	146.25	48.33	4.8884e-05	85.194	176.056	-13.730	128.526	-23.491	210.936	47.908	-23.797	-18.622	227.762	36.216	-20.113	-15.026	-14.547	-10.472	123.639	-11.258	-8191	255	
2843.919	1	1	0	0	0.11051	0.18527	0.36127	0.018627	0.22246	0.21695	0.2661	0.11091	0.10975	0.19457	0.36537	0.2407	0.17012	0.2991	0.1353	0.22578	-0.25	-0.8875	-1.425	-0.71667	-1.2292	-1.0583	-0.6	-1.5458	-0.70625	-0.9375	-1.4292	-0.65833	-1.1396	-1.0812	-0.62708	-1.5521	293.700	50.673	283.298	125.058	-23.499	184.081	285.188	260.382	100.172	167.008	273.571	284.079	198.496	215.564	164.808	268.801	0.00035798	0.0016762	0.00054562	615.05	1.1886e-05	3.1135e-05	733.72	193.87	1.9863e-05	2.2824e-05	308.7	116.34	66.327	29.972	1.5056e-05	62.363	0.0053505	0.0049562	0.0013129	974.54	6.0614e-05	5.5456e-05	1052.8	297.22	6.0644e-05	5.2603e-05	454.73	176.01	143.76	47.371	4.7447e-05	86.878	141.996	20.419	20.550	-23.606	-9.489	37.883	-23.617	-18.530	55.843	45.867	-19.727	-14.595	-14.398	-10.042	89.577	-11.235	-8191	255	
2844.017	1	1	0	0	0.1488	0.26166	0.22274	0.1933	0.11669	0.19014	0.12978	0.095331	0.2148	0.16463	0.25812	0.26617	0.040357	0.068005	0.13958	0.3134	-0.33542	-0.69583	-1.4562	-0.7375	-0.95625	-1.2167	-0.58958	-1.625	-0.87083	-0.78125	-1.4771	-0.69583	-0.90417	-1.2208	-0.62083	-1.2104	232.114	258.976	168.448	238.427	234.183	81.706	15.657	262.120	32.594	33.524	264.845	100.961	202.794	90.967	-0.106	290.907	0.00026463	0.0015051	0.00017281	617.2	1.9946e-05	2.7965e-05	729.25	194.68	2.5986e-05	1.9229e-05	308.73	117.27	66.996	29.998	1.1912e-05	61.989	0.0052049	0.0047103	0.0012834	1007	5.8064e-05	5.4123e-05	1056.9	306.23	5.927e-05	5.1625e-05	459.4	182.19	141.66	47.217	4.9526e-05	88.494	129.930	298.623	138.151	-23.434	67.098	59.944	-23.348	-18.268	51.502	30.752	-19.769	-15.144	-15.553	-9.894	203.061	-11.230	-8191	255	
2844.112	1	1	0	0	0.088713	0.18907	0.094808	0.21154	0.25825	0.13476	0.1287	0.38095	0.16027	0.19332	0.11638	0.12255	0.1256	0.16249	0.16564	0.26943	-0.37917	-0.58958	-1.3646	-0.72708	-0.85833	-1.2917	-0.60208	-1.4083	-0.99583	-0.70417	-1.4146	-0.80208	-0.8375	-1.4729	-0.57292	-1.5771	81.644	11.808	169.762	255.916	145.258	27.470	127.986	316.688	269.600	-9.059	255.434	289.452	20.902	315.985	163.118	173.700	0.00034937	0.0014343	0.0003625	615.36	2.5003e-05	2.979e-05	731.78	196.61	1.7526e-05	1.1559e-05	308.64	116.73	66.182	29.685	4.5922e-05	62.174	0.0050445	0.0046154	0.0013324	1033.9	5.5436e-05	5.2905e-05	1080	309.38	5.6679e-05	4.9986e-05	466.58	182.76	136.62	46.501	5.2899e-05	88.061	64.901	319.025	143.038	-23.245	52.224	-10.518	-23.378	-18.122	80.984	47.891	-19.284	-14.989	-15.080	-10.138	204.901	-11.146	-8191	255	
2844.208	1	1	0	0	0.029247	0.081306	0.28757	0.37929	0.22885	0.23152	0.061887	0.3394	0.20164	0.18649	0.1429	0.049123	0.1197	0.25386	0.24481	0.262	-0.79167	-0.54583	-1.2021	-0.79375	-0.82292	-1.5625	-0.70833	-1.3458	-1.3833	-0.41042	-1.4271	-1.1	-0.77292	-1.5125	-0.63125	-1.4083	-2.061	201.044	-17.466	90.487	220.760	131.329	-6.266	272.844	279.533	279.334	223.975	-18.950	317.950	-18.436	159.206	264.082	4.8743e-05	0.00082049	0.0010918	616.5	1.8725e-05	3.9658e-05	726.07	195.95	1.371e-05	6.4282e-06	307.38	115.77	65.509	29.64	2.6159e-05	61.877	0.0048257	0.0044298	0.0014043	1026.2	5.2198e-05	5.0544e-05	1098.3	302.1	5.3013e-05	4.707e-05	470.75	178.32	130.84	45.426	5.5582e-05	85.891	115.376	-3.313	114.289	-23.971	143.867	43.748	-23.016	-18.625	148.250	202.939	-19.443	-15.400	-14.255	-10.167	212.333	-11.407	-8191	255	
2844.304	1	1	0	0	0.058316	0.24582	0.11863	0.25034	0.15693	0.13883	0.046615	0.29184	0.056047	0.30735	0.20933	0.16879	0.34242	0.18073	0.29205	0.27365	-0.7625	-0.46042	-1.2208	-0.9875	-0.45208	-1.6437	-0.5875	-1.1	-1.2042	-0.425	-1.525	-1.05	-0.57917	-1.5771	-0.60417	-1.1313	16.864	196.641	276.510	-33.411	153.357	264.301	-7.554	298.311	208.560	310.188	293.113	88.166	295.324	248.847	100.873	197.440	0.00022198	0.00087271	0.00085624	615.55	8.4465e-06	2.7861e-05	730.49	195.26	1.6348e-05	1.3437e-05	308.61	116.73	65.896	30.064	1.8131e-05	62.786	0.0045949	0.0043291	0.0014631	1002.7	4.9697e-05	4.9929e-05	1124.5	295.74	5.1379e-05	4.772e-05	479.67	174.99	127.77	46.101	5.7419e-05	84.65	119.210	98.326	125.677	-23.862	60.347	212.542	-23.157	-18.592	84.738	181.131	-19.322	-15.493	-13.832	-9.534	178.961	-11.073	-8191	255	
2844.425	1	1	0	0	0.15806	0.27165	0.12948	0.15009	0.082377	0.057157	0.17224	0.43705	0.091336	0.099514	0.14524	0.13696	0.11763	0.22839	0.24332	0.11994	-0.88542	-0.69792	-1.2083	-1.0438	-0.54167	-1.2396	-0.94583	-0.94792	-1.3937	-0.62083	-1.4542	-1.2396	-0.5875	-1.4771	-0.72917	-0.72917	101.507	71.893	309.814	6.760	139.364	11.243	275.576	234.909	-22.807	-27.440	255.073	263.266	243.829	262.451	34.442	213.053	0.00013198	0.001255	0.00068349	619.27	1.0312e-05	4.3361e-05	737.48	197.4	9.8337e-06	3.2271e-05	311.18	118.5	66.432	30.897	2.3162e-05	63.509	0.0043466	0.0044225	0.0014565	970.44	4.6254e-05	5.0393e-05	1118.1	286.33	4.7802e-05	4.9295e-05	475	172.15	124.24	47.349	5.6104e-05	83.801	-35.146	109.054	-2.265	-23.644	38.115	184.938	-23.494	-18.221	10.785	171.957	-19.225	-15.013	-14.186	-9.238	7.276	-10.811	-8191	255	
2844.521	1	1	0	0	0.32639	0.048422	0.21006	0.066906	0.21063	0.16758	0.13988	0.1095	0.12622	0.10077	0.033142	0.13445	0.1188	0.22859	0.16124	0.13464	-0.83333	-0.42292	-1.1042	-1.2333	-0.41875	-1.3479	-0.84792	-0.67083	-1.3875	-0.41042	-1.0375	-1.2125	-0.42083	-1.2583	-0.95	-0.65417	21.149	297.343	267.570	190.079	214.594	241.366	99.447	275.789	-36.146	180.881	302.156	177.723	22.470	140.583	93.775	258.851	0.00017894	0.0044077	0.00050177	615.69	1.3106e-05	4.6825e-05	736.55	195.64	9.8818e-06	2.3684e-05	309.79	118.13	66.513	30.857	2.2204e-05	63.309	0.00415	0.0047062	0.0013962	950.17	4.4357e-05	5.2914e-05	1102.7	281.04	4.6382e-05	5.2801e-05	464.26	170.13	124.55	48.441	5.42e-05	82.875	159.646	142.690	-12.855	-24.119	269.277	179.646	-23.035	-18.311	180.671	206.234	-19.603	-14.949	-13.689	-9.492	40.687	-11.002	-8191	255	
2844.617	1	1	0	0	0.14991	0.18983	0.26792	0.088295	0.22892	0.29968	0.15408	0.18772	0.080285	0.10015	0.19087	0.20073	0.16604	0.10931	0.19955	0.20427	-0.88542	-0.8125	-1.0875	-1.4729	-0.39792	-1.2563	-0.99583	-0.60417	-1.4688	-0.72708	-1.0167	-1.4083	-0.47083	-1.2396	-1.0021	-0.85208	217.268	109.445	232.949	257.577	22.453	219.898	155.725	-15.400	304.122	58.130	320.763	284.852	186.723	211.337	-18.015	-31.165	0.00030112	0.0011613	0.0010205	615.56	1.695e-05	2.6538e-05	738.92	196.46	2.087e-05	8.4286e-06	310.2	118.13	66.638	30.896	1.3147e-05	63.176	0.0041912	0.0051349	0.0013576	951.9	4.6642e-05	5.7388e-05	1100.3	282.26	4.989e-05	5.8106e-05	462.41	171.18	130.9	49.713	5.3851e-05	83.011	182.852	120.297	-34.476	-23.761	240.924	92.289	-23.517	-18.749	216.983	140.103	-20.151	-15.198	-13.958	-9.791	-13.737	-11.529	-8191	255	
2844.713	1	1	0	0	0.19608	0.041196	0.075474	0.053915	0.35617	0.24621	0.16901	0.25908	0.069829	0.12349	0.17892	0.18563	0.13066	0.18411	0.090785	0.16408	-0.88125	-0.57292	-0.75625	-1.3312	-0.58958	-1.1333	-1.1792	-0.47083	-1.2646	-0.81875	-0.75417	-1.3937	-0.52708	-1.2854	-1.1083	-0.675	252.279	152.821	117.895	83.836	83.069	200.911	245.900	153.228	86.586	87.463	-13.953	241.854	195.990	76.683	115.637	11.397	0.00067751	0.0034254	0.00043071	617.14	2.3468e-05	3.9139e-05	736.35	196.46	2.8024e-05	1.398e-05	310.48	117.44	65.696	30.547	1.3524e-05	63.036	0.0045791	0.0054529	0.0013272	951.54	5.1588e-05	5.884e-05	1091.2	280.33	5.3809e-05	5.8766e-05	455.88	169.23	135.87	49.012	5.1997e-05	82.344	163.403	149.853	282.338	-23.614	218.462	27.784	-23.752	-18.736	206.458	84.444	-20.117	-15.230	-13.265	-10.277	43.335	-11.466	-8191	255	
2844.809	1	1	0	0	0.040134	0.13524	0.23907	0.21971	0.15019	0.11682	0.25263	0.18763	0.12384	0.27098	0.22819	0.14271	0.080428	0.1476	0.092296	0.33277	-0.975	-1.0208	-0.69792	-1.4438	-0.61042	-0.89167	-1.3687	-0.60417	-1.25	-0.91875	-0.6625	-1.6271	-0.90208	-1.1021	-1.0375	-0.57292	240.650	173.126	209.149	309.745	36.899	195.197	271.444	3.393	129.914	275.456	318.177	238.786	74.902	244.651	114.979	303.806	0.00059199	0.0019266	0.00014635	611.94	1.6685e-05	1.6071e-05	738.97	195.61	1.4388e-05	2.1923e-05	310.71	117.01	65.706	30.485	1.6352e-05	62.782	0.0048845	0.0053166	0.0012793	948.68	5.6159e-05	5.7143e-05	1090.3	282.24	5.8311e-05	5.8199e-05	453.89	170.5	143.38	48.561	5.2322e-05	83.479	173.285	-7.153	299.300	-23.806	209.714	318.357	-23.725	-18.897	209.580	89.351	-20.208	-15.142	-14.106	-10.539	67.798	-11.716	-8191	255	
2844.905	1	1	0	0	0.30549	0.17564	0.24132	0.17586	0.1817	0.13908	0.079338	0.41447	0.16317	0.00025084	0.04197	0.1672	0.15294	0.31927	0.11828	0.27089	-0.92292	-0.78125	-0.51042	-1.5396	-0.42292	-0.89375	-1.3062	-0.69167	-1.2021	-0.7875	-0.475	-1.3375	-0.93542	-0.90833	-1.475	-0.62083	136.342	90.587	90.612	-15.445	63.140	-21.852	168.449	311.579	219.013	180.000	240.408	32.941	247.548	-31.176	117.820	248.358	0.00038658	0.002174	0.00072524	615.13	4.6244e-06	4.5521e-05	735.72	195.18	1.1409e-05	1.3339e-05	307.1	116.02	65.198	30.024	7.9741e-06	61.659	0.0053286	0.0053099	0.0012861	975.17	6.1806e-05	5.6315e-05	1092.1	290.71	6.2486e-05	5.79e-05	453.61	175.27	149.17	47.975	5.3552e-05	85.947	209.823	-32.131	6.137	-24.176	179.462	10.292	-24.110	-18.803	115.625	87.128	-20.022	-15.108	-14.293	-10.486	-3.900	-11.289	-8191	255	
2845.000	1	1	0	0	0.19688	0.30031	0.16012	0.07343	0.22861	0.14415	0.32774	0.089005	0.34122	0.017475	0.27633	0.23278	0.040375	0.33023	0.31296	0.073856	-0.64375	-1.1021	-0.53333	-1.3375	-0.675	-0.63125	-1.4312	-0.59167	-0.94792	-1.1292	-0.475	-1.4167	-0.88333	-0.7125	-1.3292	-0.7	-34.370	303.272	4.395	280.811	192.014	195.530	218.264	64.243	280.710	62.830	273.203	232.519	-32.217	33.804	228.727	272.579	0.00023936	0.0019358	0.00042792	611.72	1.156e-05	3.917e-05	731.34	194.77	1.5855e-05	5.9503e-06	309.44	116.79	66.231	30.042	5.8201e-06	62.102	0.0055898	0.0053413	0.0013098	1017.9	6.4319e-05	5.6081e-05	1095.6	303.14	6.2646e-05	5.7225e-05	454.43	181.04	147.95	47.294	5.2501e-05	88.02	103.054	323.140	11.699	-23.591	34.199	25.712	-23.882	-18.560	64.463	31.599	-20.108	-14.889	-15.478	-10.499	235.347	-11.489	-8191	255	
2845.120	1	1	0	0	0.20718	0.15783	0.12676	0.13111	0.021612	0.10194	0.15812	0.07917	0.27287	0.16186	0.23635	0.015885	0.1322	0.23109	0.03441	0.2103	-0.69583	-1.0083	-0.35833	-1.4292	-0.91875	-0.52708	-1.3708	-0.59792	-0.89167	-1.1583	-0.63958	-1.225	-0.86458	-0.55	-1.3417	-0.87917	251.970	181.449	7.067	230.633	-16.577	71.078	165.280	66.310	-15.642	-7.632	87.699	179.834	115.291	17.761	298.994	8.926	0.00010737	0.00087436	8.4514e-05	614.56	1.1783e-05	2.5886e-05	735.6	196.43	1.9792e-05	1.3298e-05	308.99	118.55	67.027	30.331	3.033e-05	62.953	0.0052311	0.0050584	0.0012654	1032.4	5.9759e-05	5.1938e-05	1082.4	307.21	5.6845e-05	5.3083e-05	453.42	183.48	142.04	46.285	5.1752e-05	89.228	318.305	31.022	105.107	-23.763	29.659	106.247	-23.504	-18.739	59.312	41.907	-19.650	-15.540	-14.803	-10.467	159.839	-11.569	-8191	255	
2845.217	1	1	0	0	0.038925	0.26856	0.29284	0.030878	0.13062	0.20395	0.057072	0.2294	0.31507	0.26869	0.29347	0.15786	0.10889	0.12274	0.18132	0.49706	-0.48333	-1.2729	-0.42917	-1.2167	-0.85417	-0.52292	-1.5896	-0.85208	-0.73958	-1.2104	-0.56458	-1.1854	-1.0417	-0.72917	-1.4542	-0.69792	120.432	121.174	238.314	17.048	316.672	232.368	32.574	18.452	136.016	148.727	259.158	240.527	241.467	-24.675	95.064	-19.109	0.00034201	0.0014064	0.00070486	615.6	1.6233e-05	1.5986e-05	729.75	196.64	1.7557e-05	9.0661e-06	309.13	118.78	67.554	30.505	3.424e-05	63.354	0.0047691	0.0047538	0.0012869	1026.4	5.5186e-05	4.8697e-05	1090.7	307.3	5.3088e-05	5.1238e-05	463.31	183.06	138.76	46.077	5.5541e-05	89.499	18.705	287.495	113.686	-23.923	37.714	54.288	-23.911	-18.895	37.390	59.867	-19.707	-15.482	-15.282	-10.706	178.007	-11.870	-8191	255	
2845.313	1	1	0	0	0.10616	0.030058	0.0078055	0.18291	0.058495	0.15483	0.20826	0.382	0.10089	0.31125	0.20292	0.071162	0.05514	0.059015	0.27006	0.32205	-0.29375	-1.1333	-0.45833	-1.1562	-1.1958	-0.4125	-1.3792	-0.88542	-0.65	-1.3646	-0.67292	-0.99583	-1.1875	-0.5625	-1.4146	-1.1458	183.476	102.872	7.358	52.572	81.758	79.197	292.280	211.272	165.914	9.408	293.221	-12.606	121.355	5.478	32.593	300.283	0.00010599	0.0010569	0.0011008	612.81	1.0588e-05	5.6796e-06	729.61	196.07	5.2212e-06	4.8042e-06	310.41	118.74	66.617	30.97	3.927e-05	63.894	0.0046327	0.0047281	0.0014211	1022.4	5.4566e-05	4.8889e-05	1126.7	306.53	5.1716e-05	5.1074e-05	479.12	179.91	136.81	46.276	5.8588e-05	88.64	147.993	316.309	166.618	-24.476	45.293	246.863	-23.737	-19.294	-0.881	81.045	-19.833	-15.903	-15.250	-10.230	193.719	-11.942	-8191	255	
2845.384	1	1	0	0	0.12116	0.12055	0.23329	0.28437	0.058795	0.14347	0.23043	0.14548	0.12784	0.29788	0.17903	0.093209	0.07005	0.25076	0.11316	0.19205	-0.2125	-1.4104	-0.54792	-1.0042	-1.2521	-0.45208	-1.3625	-0.99167	-0.36875	-1.4688	-0.71875	-0.97917	-1.2396	-0.44375	-1.3479	-1.0958	197.018	133.359	188.053	-16.061	-11.604	249.403	187.435	250.940	24.848	21.386	201.480	-18.274	-20.852	214.925	167.714	-27.587	0.00012979	0.0018445	0.00038784	613.9	1.9058e-05	3.8268e-05	734.48	196.08	1.2468e-05	2.0704e-05	312.12	119.12	67.412	30.77	2.0237e-05	64.284	0.0044292	0.0046389	0.0014857	992.47	5.1538e-05	4.8679e-05	1130.8	297.96	4.8376e-05	5.0604e-05	482.43	175.22	132.86	46.685	5.8377e-05	87.073	184.952	138.271	105.188	-23.976	133.985	231.296	-23.533	-19.323	110.839	184.652	-20.044	-15.589	-15.120	-9.926	51.044	-11.882	-8191	255	
2845.505	1	1	0	0	0.047566	0.13697	0.1708	0.089661	0.068752	0.18405	0.16931	0.22673	0.21728	0.1417	0.38704	0.17445	0.21523	0.15682	0.096075	0.19755	0.0125	-1.1333	-0.80208	-0.77917	-1.4813	-0.41042	-1.3167	-1.2875	-0.48542	-1.3208	-0.78333	-0.99167	-1.2542	-0.68958	-0.88958	-1.2062	97.906	272.159	289.098	223.816	74.489	188.419	112.069	0.787	229.303	-20.757	-13.658	255.667	18.975	-31.643	-12.980	248.538	0.00022452	0.00071663	0.0002984	611.07	6.5228e-06	5.5072e-05	740.63	196.95	7.6732e-06	2.1152e-05	309.28	119.04	66.665	30.705	3.8378e-05	64.111	0.0041779	0.0047797	0.0014976	966.8	4.9733e-05	5.2019e-05	1138.6	294.36	4.7427e-05	5.475e-05	486.24	173.53	132.5	48.614	5.8468e-05	86.703	-4.851	109.582	198.006	-24.150	103.392	177.803	-23.551	-19.154	-32.038	236.529	-20.031	-15.334	-14.415	-10.132	84.740	-11.886	-8191	255	
2845.601	1	1	0	0	0.17796	0.24468	0.22429	0.16114	0.086406	0.0662	0.2313	0.31843	0.11308	0.40182	0.083676	0.14917	0.042874	0.27503	0.254	0.12711	-0.089583	-1.3479	-0.75417	-0.67292	-1.4625	-0.39583	-1.05	-1.2667	-0.56042	-1.2417	-0.80625	-0.86042	-1.2917	-0.6875	-0.82708	-1.3708	148.426	-5.982	-4.585	128.786	71.636	243.466	309.736	291.140	235.637	308.556	3.695	303.041	30.700	312.709	-5.742	-31.477	0.00028842	0.0019045	0.0007882	617.14	4.6512e-06	7.2987e-05	737.68	195.65	1.3365e-05	1.2306e-05	311.59	118.13	65.478	30.585	2.5644e-05	63.48	0.0041912	0.0052481	0.0015036	958.42	5.0225e-05	5.7068e-05	1119.1	292.88	4.7708e-05	5.8851e-05	480.88	171.05	133.31	49.804	5.5654e-05	85.812	143.213	92.821	-14.547	-24.208	199.251	172.895	-23.905	-18.894	214.300	147.730	-20.249	-15.478	-14.106	-9.863	44.605	-11.555	-8191	255	
2845.697	1	1	0	0	0.21049	0.23374	0.16449	0.26875	0.14487	0.22883	0.12439	0.2187	0.26405	0.06434	0.077362	0.29368	0.13729	0.19502	0.022535	0.289	-0.16458	-1.2125	-0.91667	-0.675	-1.3354	-0.62917	-0.93125	-1.5729	-0.33333	-1.1313	-1.1125	-0.42708	-1.2583	-0.65625	-0.72292	-1.4417	261.545	-10.593	295.193	17.614	181.444	16.139	303.193	15.182	13.731	294.436	158.649	275.240	-2.536	218.708	75.083	276.227	0.00046478	0.0016014	0.0008544	615.08	1.3908e-05	5.1893e-06	734.77	197.44	1.7003e-05	1.8217e-06	310.42	118.47	66.635	30.531	1.2554e-05	63.4	0.004325	0.0055239	0.0014502	949.74	5.225e-05	6.0745e-05	1104.7	292.78	5.1547e-05	6.2e-05	477.08	171.51	139.53	50.924	5.4903e-05	85.836	194.672	179.452	-34.420	-24.278	235.972	306.784	-23.849	-19.156	233.743	72.176	-19.906	-15.459	-13.727	-10.308	4.546	-11.600	-8191	255	
2845.818	1	1	0	0	0.05508	0.069941	0.040455	0.26619	0.15247	0.091263	0.18411	0.19756	0.12649	0.2176	0.073618	0.15051	0.11084	0.24598	0.18752	0.42488	-0.05	-1.1396	-1.0292	-0.36667	-1.3729	-0.78542	-0.71667	-1.4583	-0.54375	-1.0375	-1.3146	-0.57917	-1.2042	-0.93333	-0.72083	-1.4792	292.593	103.998	278.407	258.823	271.001	220.180	255.447	22.547	32.074	279.799	121.536	-36.727	282.805	-32.138	161.953	274.527	0.00048772	0.0025019	0.00013023	614.53	2.8996e-05	1.6257e-05	735.38	197.27	2.3453e-05	2.3994e-05	311.74	118.23	66.481	30.074	6.4036e-06	62.489	0.0048432	0.0057846	0.0014606	958.11	5.8597e-05	6.3947e-05	1108	294.94	5.8427e-05	6.2832e-05	477.32	172.25	147.18	50.686	5.4458e-05	85.7	159.674	73.476	233.433	-24.311	234.341	99.451	-23.741	-18.937	254.204	21.296	-19.863	-15.310	-13.782	-10.483	94.367	-11.733	-8191	255	
2845.912	1	1	0	0	0.25079	0.23481	0.078873	0.27221	0.091924	0.22896	0.30623	0.31049	0.031699	0.0079177	0.33205	0.12866	0.028865	0.15938	0.10326	0.30746	-0.03125	-0.86042	-1.1229	-0.44167	-1.4438	-0.72917	-0.7875	-1.2687	-0.62292	-1.05	-1.3042	-0.53333	-1.3729	-0.82292	-0.50417	-1.5333	84.721	261.055	277.918	228.999	179.687	291.635	296.138	293.989	287.224	-33.939	305.019	249.311	194.994	213.259	222.959	292.801	0.00034856	0.0033947	0.00073423	615.39	2.0363e-05	2.957e-05	738.82	195.28	7.7037e-06	1.9278e-05	309.06	117.08	66.326	29.321	2.3362e-05	60.996	0.0054392	0.0057803	0.0014957	976.85	6.5616e-05	6.5507e-05	1118.1	302.75	6.7583e-05	6.4734e-05	488.44	179.1	160.52	51.237	5.8215e-05	87.895	158.761	-17.072	6.999	-23.914	219.596	28.452	-23.929	-19.038	206.658	11.977	-20.033	-15.347	-13.738	-10.899	37.824	-11.578	-8191	255	
2845.986	1	1	0	0	0.32335	0.17189	0.14482	0.084437	0.038298	0.16807	0.12413	0.17277	0.083586	0.074341	0.15311	0.21009	0.066544	0.20665	0.038518	0.036395	-0.37917	-0.77917	-1.2812	-0.675	-1.2375	-1.0938	-0.47083	-1.5021	-0.61875	-0.91458	-1.3604	-0.61042	-1.1667	-1.3021	-0.62083	-1.5438	146.486	66.965	169.546	81.632	185.191	171.792	142.888	176.729	90.256	219.427	179.151	258.306	249.139	134.385	27.204	196.794	0.00044625	0.0023596	0.00076325	613.27	8.6883e-06	2.4263e-05	733.69	194.72	2.017e-06	3.5699e-05	307.79	117.42	67.401	28.608	1.9773e-05	60.359	0.0062591	0.0059522	0.0015698	1030.3	7.1709e-05	6.6175e-05	1122.3	313.5	7.1675e-05	6.2942e-05	485.56	185.25	160.51	49.559	5.6058e-05	88.87	191.181	-30.072	-21.733	-24.135	45.743	36.133	-23.658	-18.679	272.430	21.433	-19.668	-14.926	-14.522	-10.591	60.357	-11.243	-8191	255	
2846.105	1	1	0	0	0.12683	0.13688	0.15417	0.23986	0.22091	0.045637	0.058889	0.1937	0.16121	0.18279	0.12919	0.02832	0.18963	0.11925	0.15683	0.15626	-0.41667	-0.77083	-1.3771	-0.675	-1.2271	-1.1896	-0.52292	-1.3937	-0.65625	-0.54167	-1.5271	-0.69792	-0.77917	-1.2354	-0.35833	-1.4083	67.625	123.030	115.302	46.976	-9.067	179.353	27.041	-27.154	138.978	126.198	116.246	45.925	298.142	127.825	95.505	1.866	0.00031351	0.0014854	0.00023515	618.04	1.1776e-05	3.8175e-05	730.87	194.17	2.0399e-05	8.2474e-06	307.63	117.87	67.477	28.62	5.1575e-06	60.162	0.0061485	0.0055885	0.0015068	1063.9	6.8925e-05	6.2782e-05	1107.5	319.09	6.8457e-05	5.9423e-05	478.87	189.99	154.25	48.385	5.4696e-05	89.967	92.176	-7.491	-7.678	-23.498	73.290	37.083	-23.985	-18.174	30.362	-2.199	-19.735	-15.000	-15.189	-10.863	181.867	-11.181	-8191	255	
2846.201	1	1	0	0	0.31275	0.27055	0.11561	0.18166	0.19938	0.13646	0.18832	0.093036	0.099552	0.22973	0.29267	0.089422	0.15332	0.37027	0.21697	0.16604	-0.5	-0.33958	-1.0833	-0.70417	-0.91875	-1.4625	-0.5875	-1.4125	-1.025	-0.49167	-1.4792	-0.94792	-0.85	-1.2563	-0.45417	-1.3208	9.018	100.916	-14.491	227.348	242.477	183.989	205.103	216.510	119.908	170.820	282.355	215.267	268.735	248.828	304.886	21.890	0.00023525	0.0017723	0.00063908	613.63	1.7675e-05	2.6457e-05	733.1	195.67	1.5634e-05	1.281e-05	307.67	118.93	66.838	28.953	3.7889e-05	60.818	0.0058067	0.0052651	0.0014798	1085.2	6.3943e-05	6.0299e-05	1116.9	324.22	6.5369e-05	5.7256e-05	485.26	195.12	151.25	48.697	5.9511e-05	92.326	97.290	16.414	187.993	-23.574	32.794	323.006	-23.657	-18.433	45.017	10.595	-19.588	-15.401	-15.077	-10.539	221.383	-11.590	-8191	255	
2846.297	1	1	0	0	0.14294	0.16986	0.10503	0.32677	0.18914	0.22685	0.29068	0.060155	0.12075	0.045243	0.2283	0.2371	0.15899	0.11731	0.11373	0.11617	-0.52292	-0.47083	-1.15	-0.42292	-0.86458	-1.3646	-0.58125	-1.1208	-1.0479	-0.51458	-1.5292	-0.92708	-0.73125	-1.5146	-0.33333	-1.3667	206.235	207.677	161.696	237.676	221.530	264.736	170.048	1.827	206.579	-11.111	289.765	315.633	-18.175	312.805	264.837	-8.148	0.00024739	0.0019109	0.00051289	618.32	2.4153e-06	9.687e-06	730.18	194.7	2.0819e-05	1.0602e-05	304.83	118.23	67.309	28.893	4.8214e-05	60.916	0.0057614	0.0053148	0.0016297	1118.7	6.3506e-05	6.1268e-05	1161.1	327.68	6.4456e-05	5.6921e-05	499.5	194.38	146.89	48.013	6.3721e-05	90.633	169.860	271.372	168.285	-24.251	-7.206	224.601	-23.293	-18.698	22.945	57.353	-19.433	-15.826	-14.939	-10.509	198.366	-11.922	-8191	255	
2846.418	1	1	0	0	0.098449	0.079816	0.10555	0.03581	0.11483	0.28442	0.050459	0.22955	0.25225	0.13861	0.41014	0.33072	0.10955	0.040027	0.025129	0.2984	-0.70417	-0.46667	-1.1771	-0.99583	-0.6875	-1.4979	-0.68958	-1.1708	-1.2167	-0.48125	-1.4083	-0.9875	-0.64167	-1.5125	-0.59583	-1.225	279.309	186.198	220.288	219.792	201.859	301.620	97.456	173.865	-19.903	2.122	297.629	234.842	-4.928	263.766	146.150	229.185	0.00023243	0.00052046	0.00076709	619.68	8.2942e-06	3.4765e-05	729.46	196.87	2.3127e-06	1.5687e-05	307.29	117.94	65.739	28.528	1.7785e-05	60.68	0.0054673	0.0050837	0.0016927	1091.4	5.9434e-05	5.8169e-05	1182.9	317.06	6.0951e-05	5.5369e-05	507.95	189.51	141.82	47.674	6.7702e-05	88.753	179.870	197.229	106.267	-24.573	78.137	267.256	-23.147	-18.666	259.263	162.823	-19.736	-15.790	-14.800	-10.238	199.900	-11.655	-8191	255	
2846.514	1	1	0	0	0.10006	0.16437	0.25088	0.43468	0.16603	0.25184	0.21868	0.13496	0.12193	0.16891	0.046217	0.079854	0.25649	0.23319	0.073727	0.32947	-1.0333	-0.45625	-1.2313	-0.84583	-0.56458	-1.3375	-0.79375	-0.80417	-1.2313	-0.5875	-1.2375	-1.1625	-0.45208	-1.4958	-0.75625	-1.1375	99.474	69.591	106.831	20.546	286.960	200.601	168.666	-32.657	242.681	43.199	-35.381	83.912	264.972	38.978	121.284	309.131	4.8134e-05	0.0027887	0.00040903	623.07	8.61e-06	2.955e-05	729.66	195.99	6.8061e-06	2.3164e-05	306.38	118.23	65.372	29.196	6.4798e-06	61.529	0.0053382	0.0052449	0.0017637	1071.1	5.7303e-05	6.0104e-05	1207	308.93	5.8457e-05	5.6587e-05	504.82	182.51	134.9	48.048	6.5493e-05	86.113	191.806	141.205	124.934	-24.381	14.020	180.702	-23.763	-19.214	261.455	194.501	-19.862	-15.726	-15.178	-9.709	268.748	-11.776	-8191	255	
2846.610	1	1	0	0	0.13693	0.042818	0.12252	0.12116	0.030248	0.22179	0.10476	0.29189	0.09912	0.21238	0.10678	0.022816	0.31304	0.33863	0.059982	0.15417	-1.0292	-0.51667	-1.1604	-1.1646	-0.75625	-1.4937	-0.88333	-0.91458	-1.4208	-0.70833	-1.2542	-1.2792	-0.54167	-1.2833	-0.92917	-0.7625	219.991	42.275	209.930	11.192	254.936	-35.046	245.978	291.956	-0.703	138.365	189.564	263.637	188.401	303.544	68.766	262.765	0.000201	0.0028709	0.00049234	614.08	9.6955e-06	5.3503e-05	734.17	194.79	1.3553e-05	3.5403e-05	308.19	118.44	66.134	29.511	1.3172e-05	61.533	0.0048906	0.0053062	0.0016677	1023.3	5.3084e-05	6.1438e-05	1187.4	300.7	5.6298e-05	6.1294e-05	500.67	181.64	135.54	50.121	6.562e-05	85.728	102.875	128.630	-19.783	-23.845	131.135	181.170	-23.859	-18.724	84.955	205.514	-19.913	-15.707	-14.665	-10.104	-8.360	-11.561	-8191	255	
2846.682	1	1	0	0	0.12793	0.22984	0.01939	0.24903	0.09371	0.15415	0.097244	0.06032	0.30579	0.2145	0.11615	0.21564	0.30895	0.29955	0.02193	0.36009	-0.97083	-0.65208	-0.97917	-1.3813	-0.55625	-1.2646	-1.0396	-0.65625	-1.3208	-0.65833	-0.93958	-1.4854	-0.58542	-1.3604	-0.97083	-0.62083	177.866	166.797	194.238	30.924	-29.060	153.146	-1.547	36.205	13.238	51.100	144.072	259.778	249.843	294.301	319.194	285.691	0.00020271	0.0032772	0.00037365	618.31	1.5307e-05	1.8699e-05	731.77	194.15	5.3263e-06	1.8112e-05	309.08	119.98	66.61	29.457	2.1012e-05	62.157	0.004929	0.0058958	0.0016381	1023.4	5.4313e-05	6.6558e-05	1177.1	298.97	5.757e-05	6.6979e-05	494.77	182.84	139.97	51.769	6.3759e-05	85.724	238.379	128.849	322.208	-24.010	280.401	221.897	-24.002	-18.597	274.793	187.638	-20.256	-15.787	-13.405	-9.972	-17.096	-11.709	-8191	255	
2846.802	1	1	0	0	0.2194	0.25775	0.24682	0.21757	0.064102	0.065035	0.19494	0.31632	0.1045	0.22433	0.06611	0.40467	0.21005	0.10852	0.17907	0.084313	-1.0479	-0.47083	-0.88333	-1.4708	-0.34167	-1.3792	-0.84583	-0.51875	-1.3438	-0.65208	-0.91875	-1.5958	-0.51458	-1.1667	-1.2313	-0.70417	34.630	240.908	49.724	195.559	61.782	179.927	-4.891	265.824	253.432	297.856	-17.792	-24.022	102.743	305.474	87.261	290.058	0.00047317	0.00071217	0.00090309	612.33	2.4577e-05	5.1811e-06	734.39	194.81	1.4793e-05	1.4052e-05	307.69	119.85	66.708	29.924	6.5983e-06	62.338	0.0051733	0.0062587	0.001562	1011.9	5.7449e-05	6.801e-05	1153.9	295.25	6.0046e-05	6.8102e-05	482.64	180.95	145.26	51.873	6.0567e-05	85.25	146.772	144.409	-24.283	-24.002	233.227	86.239	-24.044	-19.027	239.644	105.936	-20.077	-15.867	-13.768	-10.393	304.329	-11.510	-8191	255	
2846.897	1	1	0	0	0.25521	0.20707	0.13004	0.36371	0.11571	0.19839	0.12846	0.17202	0.25208	0.17238	0.14205	0.067845	0.048598	0.17242	0.18752	0.18993	-0.9375	-0.60417	-0.68958	-1.35	-0.46875	-1.1333	-1.3104	-0.64792	-1.4062	-0.78125	-0.63125	-1.5208	-0.63333	-0.98958	-1.1875	-0.66042	315.253	298.431	271.163	274.767	171.104	323.276	137.640	-18.757	223.260	31.172	273.753	134.898	-31.477	12.393	261.335	-15.334	0.00066439	0.0026372	0.00046417	614.16	3.7518e-05	3.6494e-05	734.25	195.37	1.8495e-05	1.4632e-05	309.95	118.81	67.121	30.008	1.8873e-05	62.394	0.0054221	0.0061682	0.0014646	993.95	6.1015e-05	6.4988e-05	1130.3	290.44	6.258e-05	6.4539e-05	469.81	176.8	147.66	49.87	5.6409e-05	84.129	191.629	48.282	306.089	-24.114	208.027	14.123	-23.758	-18.577	193.903	25.847	-19.822	-15.627	-13.582	-10.697	245.294	-11.368	-8191	255	
2846.993	1	1	0	0	0.073091	0.14006	0.17322	0.31264	0.24319	0.14516	0.068934	0.34884	0.18124	0.20947	0.19857	0.29634	0.13095	0.30235	0.13903	0.069881	-0.91042	-0.75417	-0.60833	-1.3854	-0.69583	-0.91667	-1.3854	-0.51875	-1.3312	-0.93333	-0.72083	-1.5396	-0.63125	-1.0042	-1.3104	-0.84375	243.830	40.004	237.099	264.250	89.336	101.852	188.667	197.485	41.423	317.606	303.951	266.461	-0.372	256.965	75.588	259.883	0.00056459	0.0025186	0.00041616	611.08	3.3682e-05	5.2702e-05	729.07	192.42	1.5056e-05	1.4141e-05	306.62	117.45	66.072	29.831	2.3682e-05	62.11	0.0055222	0.0057393	0.0013747	986.25	6.3784e-05	6.0955e-05	1115.1	291.84	6.6023e-05	6.3012e-05	465.64	179.36	155.12	49.493	5.7627e-05	86.545	172.913	-31.022	-7.962	-24.025	184.939	8.555	-23.711	-18.778	275.901	37.067	-20.037	-15.434	-14.263	-10.338	102.586	-11.142	-8191	255	
2847.089	1	1	0	0	0.17356	0.196	0.089214	0.24641	0.071299	0.071604	0.13492	0.19485	0.32012	0.13141	0.33935	0.080573	0.18099	0.2275	0.04065	0.18741	-0.74167	-0.90417	-0.34375	-1.6708	-0.65625	-0.63958	-1.2542	-0.64792	-1.2167	-1.2667	-0.62708	-1.525	-0.65833	-0.725	-1.1125	-0.79792	219.644	62.879	205.818	302.542	307.465	167.610	280.424	-33.034	61.301	238.578	14.162	250.634	199.410	20.881	76.408	271.049	0.0003001	0.002068	0.00021738	611.52	1.0308e-05	2.2057e-05	728.91	193.07	1.4436e-05	2.2589e-05	309.21	118.07	66.6	30.107	2.384e-05	61.896	0.0058519	0.0056372	0.0013674	1013.4	6.6311e-05	5.818e-05	1103.1	300.94	6.5344e-05	5.9671e-05	460.24	183.47	153.66	48.411	5.5253e-05	88.384	148.690	296.097	-16.503	-23.711	41.515	38.882	-23.605	-18.541	46.774	67.961	-19.712	-15.040	-14.977	-10.618	136.225	-11.684	-8191	255	
2847.209	1	1	0	0	0.32377	0.27732	0.17987	0.13307	0.17625	0.15798	0.34275	0.23008	0.16454	0.24432	0.21333	0.068571	0.26631	0.29748	0.10787	0.11953	-0.575	-1.0229	-0.54583	-1.3979	-0.63958	-0.82292	-1.4562	-0.5625	-1.1979	-1.1833	-0.43958	-1.3104	-0.94375	-0.7	-1.25	-0.77083	-23.512	186.560	123.720	25.341	284.931	224.490	224.645	-26.954	318.075	320.360	-36.355	116.426	-17.157	-22.243	313.103	293.879	0.00011046	0.00084956	0.00044218	607.24	2.2818e-05	2.4023e-05	729.07	193.31	2.6409e-05	1.316e-05	307.68	120.01	67.45	30.07	3.487e-05	62.411	0.0056251	0.0053929	0.0013244	1039.6	6.3966e-05	5.5192e-05	1093	308.28	6.1489e-05	5.7224e-05	458.26	187.83	150.32	47.544	5.5572e-05	90.947	42.727	260.863	63.507	-23.359	54.448	48.224	-23.645	-18.606	74.913	39.618	-19.372	-15.058	-14.999	-10.680	184.757	-11.313	-8191	255	
2847.281	1	1	0	0	0.26766	0.15704	0.37964	0.29461	0.20658	0.1882	0.21843	0.10111	0.30126	0.26819	0.18389	0.11223	0.034228	0.29516	0.096088	0.25967	-0.44375	-1.0708	-0.33125	-1.2021	-0.92083	-0.425	-1.5208	-0.69167	-0.87083	-1.3521	-0.64167	-1.2208	-1.0583	-0.575	-1.3937	-0.81667	313.742	-13.296	185.286	297.636	187.264	187.284	215.968	203.529	186.115	267.887	-27.784	299.262	196.333	314.141	-34.150	277.889	0.00033079	0.0019681	0.00063846	616.38	1.5926e-05	2.5561e-05	722.86	194.08	2.2995e-05	1.9551e-05	306.85	119.2	66.938	29.787	1.9465e-05	62.169	0.0054476	0.0053869	0.0013993	1078.6	6.4075e-05	5.6153e-05	1126.2	321.15	6.1755e-05	5.9034e-05	477.26	193.41	150.64	47.701	6.1607e-05	92.846	24.731	311.523	163.267	-23.148	57.601	3.646	-23.724	-18.947	48.088	63.045	-19.186	-15.443	-15.450	-10.373	197.462	-11.362	-8191	255	
2847.377	1	1	0	0	0.14697	0.17329	0.067027	0.10207	0.1471	0.13005	0.11562	0.10624	0.14815	0.21905	0.14897	0.14605	0.095613	0.015846	0.26112	0.24738	-0.22083	-1.3354	-0.61042	-1.2292	-0.96458	-0.47083	-1.55	-0.75625	-0.7625	-1.2292	-0.78958	-1.1083	-1.2729	-0.53125	-1.4188	-0.89583	212.169	109.480	60.520	1.228	274.991	113.238	20.085	41.608	294.013	258.960	79.960	-18.466	190.525	269.136	321.410	83.174	0.00020771	0.0009927	0.00070546	615.93	2.7738e-06	1.2023e-05	729.67	195.39	1.1569e-05	1.2483e-05	308.3	118.83	66.516	29.858	2.8804e-05	62.601	0.0053566	0.0054616	0.0015644	1093.2	6.3231e-05	5.5719e-05	1165.4	322.2	5.9461e-05	5.7696e-05	492.47	190.37	147.36	47.243	6.4926e-05	91.934	45.449	178.031	145.239	-23.455	-24.899	238.300	-23.591	-18.905	19.874	29.909	-19.184	-15.691	-14.690	-9.939	178.856	-11.632	-8191	255	
2847.498	1	1	0	0	0.091634	0.35919	0.047117	0.15827	0.12415	0.26509	0.14965	0.20321	0.12404	0.13553	0.12263	0.13742	0.22226	0.10345	0.19518	0.27058	-0.35208	-1.4062	-0.47917	-1.1229	-0.98333	-0.325	-1.3104	-1.05	-0.65625	-1.4896	-0.57292	-0.95625	-1.3458	-0.4375	-1.1688	-1.05	39.010	59.167	312.063	248.476	56.968	242.851	289.861	209.088	277.417	124.468	158.159	22.011	275.411	47.880	296.338	258.701	0.00013472	0.00091763	0.00083357	613.78	1.6661e-05	5.1063e-06	727.11	194.54	1.0953e-05	1.9832e-05	308.31	118.77	66.828	30.35	1.4493e-05	64.066	0.0050807	0.0052787	0.0016622	1059.4	6.0486e-05	5.4957e-05	1183.3	314.15	5.6277e-05	5.6862e-05	502	184.53	142.19	47.736	6.4821e-05	90.205	-4.378	46.653	166.796	-23.886	78.480	269.886	-23.070	-19.324	73.933	195.734	-19.839	-15.338	-13.971	-9.511	249.317	-11.635	-8191	255	
2847.594	1	1	0	0	0.19701	0.07483	0.25064	0.099515	0.38569	0.52087	0.035761	0.18505	0.13404	0.39546	0.11474	0.062521	0.21015	0.25379	0.13166	0.20349	-0.14375	-1.3833	-0.57083	-0.875	-1.3708	-0.53333	-1.1812	-1.1646	-0.34792	-1.3896	-0.5375	-0.83542	-1.325	-0.60417	-1.1479	-1.1688	17.076	-7.134	103.388	257.957	265.072	220.850	225.047	265.395	111.035	1.433	-18.401	90.430	295.541	94.543	64.322	-15.478	6.3955e-05	0.0020848	0.00042694	609.77	3.8019e-06	3.6759e-05	734.58	195.3	1.0474e-05	2.2993e-05	309.16	118.71	65.681	30.879	1.2624e-05	64.555	0.0046959	0.0051766	0.0016534	1009.4	5.6225e-05	5.5338e-05	1176.7	305.19	5.2794e-05	5.8534e-05	503.75	179.81	139.25	49.65	6.4543e-05	89.809	208.808	110.626	117.386	-24.066	110.936	197.555	-23.501	-18.488	90.641	186.107	-19.731	-15.196	-14.317	-9.189	44.476	-11.574	-8191	255	
2847.690	1	1	0	0	0.10145	0.17935	0.11938	0.089175	0.21405	0.18334	0.10038	0.12707	0.18767	0.16544	0.40186	0.316	0.15426	0.16752	0.11439	0.19765	0.025	-1.3604	-0.71667	-0.77292	-1.2333	-0.51875	-1.1437	-1.0917	-0.35417	-1.2812	-0.85625	-0.725	-1.1396	-0.76458	-1.0396	-1.2333	107.291	255.714	-4.690	249.691	321.995	-13.960	104.981	311.353	303.078	287.203	289.071	266.734	17.278	229.018	168.206	239.946	0.00023082	0.0027288	0.00010864	609.57	8.503e-06	3.0099e-05	736.92	193.9	3.7536e-06	2.7218e-05	308.48	117.59	65.92	31.58	2.738e-05	65.3	0.0045682	0.0055406	0.0016543	990.46	5.4492e-05	5.9492e-05	1156.8	298.75	5.0635e-05	6.1028e-05	491.13	173.91	134.8	50.893	5.9038e-05	88.431	154.979	140.119	-17.688	-23.988	-4.573	199.123	-23.762	-18.467	75.526	194.673	-19.816	-14.766	-13.130	-9.195	31.054	-11.301	-8191	255	
2847.786	1	1	0	0	0.14092	0.11572	0.16824	0.40297	0.20179	0.10688	0.22819	0.10806	0.27825	0.1671	0.1161	0.19603	0.16323	0.23876	0.10346	0.10022	-0.14792	-1.1479	-0.78333	-0.67292	-1.5771	-0.44167	-0.925	-1.2896	-0.3	-1.2396	-1.0271	-0.65	-1.4521	-0.8	-0.9375	-1.3375	-30.765	300.826	262.808	265.672	-19.658	91.066	302.507	-11.104	52.697	50.589	-0.063	53.207	235.640	55.026	91.466	238.729	0.0003735	0.00043342	0.00044358	606.23	1.6302e-05	4.1204e-05	734.54	193.01	1.2326e-05	1.2478e-05	311.14	118.32	65.469	32.006	1.3425e-05	66.226	0.0043022	0.0054723	0.0014684	939.55	4.9467e-05	5.6784e-05	1087.1	283.51	4.6385e-05	5.6493e-05	464.11	166.87	130.07	50.365	5.0959e-05	86.402	159.732	230.271	-29.336	-23.805	210.363	152.779	-23.527	-19.067	270.320	180.612	-20.022	-15.384	-13.859	-10.119	-11.504	-11.566	-8191	255	
2847.883	1	1	0	0	0.25729	0.087472	0.26286	0.31118	0.1272	0.19342	0.038369	0.19544	0.10322	0.050841	0.32275	0.20785	0.18374	0.12437	0.1247	0.20312	-0.022917	-0.99792	-0.95833	-0.5125	-1.3646	-0.77083	-0.80208	-1.3583	-0.38958	-1.05	-1.2542	-0.44792	-1.3708	-0.82917	-0.62917	-1.4646	0.577	7.738	320.008	272.394	110.423	155.147	309.800	284.033	-14.739	315.877	2.179	-36.974	273.803	223.635	66.680	269.705	0.00071506	0.0012599	0.00019256	610.27	1.8579e-05	1.8812e-05	733.56	195.4	1.9782e-05	3.2066e-07	314.23	119.66	66.395	32.243	1.9917e-05	66.071	0.0042362	0.0052379	0.0013309	914.56	5.0363e-05	5.6918e-05	1061.8	282.04	4.9676e-05	5.6369e-05	460.03	166.5	135.34	50.534	4.9339e-05	86.519	196.639	213.438	305.824	-23.864	247.425	251.614	-23.768	-19.041	208.014	11.102	-20.064	-15.343	-13.353	-10.101	18.997	-11.730	-8191	255	
2847.977	1	1	0	0	0.088188	0.24428	0.1272	0.09884	0.11343	0.20882	0.29719	0.13128	0.12857	0.25279	0.29349	0.21883	0.075702	0.23925	0.10203	0.19452	-0.21458	-1.275	-0.975	-0.37917	-1.4958	-0.68958	-0.66875	-1.375	-0.6	-0.99792	-1.2896	-0.45625	-1.1521	-1.0125	-0.46875	-1.4333	-14.858	311.799	34.258	190.254	174.347	244.118	242.398	316.944	247.855	321.969	42.308	315.112	160.108	262.873	50.233	-11.682	0.00063361	0.0026378	0.00062239	611.71	2.591e-05	5.2998e-05	732.03	194.64	2.7958e-05	1.1327e-05	311.3	117.58	65.595	31.246	9.8129e-06	64.263	0.0046656	0.0052316	0.0013277	922.67	5.5967e-05	5.8057e-05	1068.2	284.21	5.6136e-05	5.6602e-05	461.92	168.1	143.12	49.97	5.0061e-05	86.177	190.439	-27.978	18.268	-23.844	207.421	27.127	-23.889	-18.862	242.060	48.641	-20.252	-15.210	-13.565	-10.470	3.874	-11.502	-8191	255	
2848.098	1	1	0	0	0.23965	0.39614	0.13996	0.077153	0.1614	0.22576	0.19988	0.22455	0.27675	0.12414	0.1608	0.35623	0.094985	0.057069	0.343	0.28791	-0.15208	-0.83333	-1.1646	-0.60833	-1.2875	-1.1375	-0.66875	-1.6417	-0.45833	-0.93958	-1.35	-0.43958	-1.2708	-1.1854	-0.3375	-1.3979	53.742	168.107	265.716	105.849	103.403	114.749	237.309	291.677	166.705	36.853	101.907	-14.040	237.701	32.728	36.410	271.768	0.00043594	0.0029255	6.7367e-05	607.64	4.3147e-06	3.8827e-05	732.32	194.21	9.4893e-06	4.0529e-05	308.93	116	65.987	30.338	2.6801e-05	62.934	0.0052444	0.005219	0.0013763	953.14	6.2102e-05	5.9038e-05	1077.9	294.22	6.3159e-05	5.7579e-05	467.68	174.5	150.6	49.443	5.1389e-05	87.694	186.843	301.244	281.160	-24.173	154.169	20.407	-24.040	-18.816	214.401	22.282	-20.018	-15.188	-14.180	-10.562	28.366	-11.519	-8191	255	
2848.194	1	1	0	0	0.12779	0.19583	0.11957	0.10621	0.20754	0.31567	0.3705	0.11828	0.10527	0.041927	0.24339	0.30603	0.21524	0.18386	0.18516	0.14623	-0.21875	-0.90208	-1.2875	-0.47917	-1.0583	-1.0312	-0.61875	-1.2812	-0.83125	-0.73542	-1.25	-0.52292	-0.92083	-0.98958	-0.42917	-1.5833	-3.749	151.344	-17.959	87.552	278.445	33.125	-35.025	83.073	165.663	229.273	310.285	286.185	20.545	-3.380	294.830	203.201	0.00014028	0.0015199	0.00083742	610.2	1.2286e-05	3.5334e-05	728.94	193.87	9.5291e-06	1.023e-05	307.51	115.88	65.44	30.01	1.1802e-05	62.44	0.0056212	0.0051475	0.0013792	993.18	6.3262e-05	5.7581e-05	1069.9	302.09	6.3152e-05	5.5101e-05	463.62	178.81	146.66	48.309	4.9912e-05	89.14	43.935	-32.894	317.418	-23.438	62.321	37.402	-23.830	-18.217	100.102	39.637	-19.812	-15.118	-15.024	-10.459	181.752	-11.482	-8191	255	
2848.290	1	1	0	0	0.019104	0.16047	0.35312	0.21968	0.082726	0.15052	0.086405	0.41283	0.33032	0.15326	0.043282	0.13594	0.24935	0.31511	0.23144	0.10413	-0.41875	-0.71042	-1.0854	-0.51667	-1.05	-1.0688	-0.51458	-1.3292	-0.68958	-0.73333	-1.5479	-0.66875	-0.9	-1.2333	-0.44167	-1.3312	59.402	108.828	259.916	-10.612	288.256	175.951	262.108	252.655	104.554	189.040	193.919	240.459	303.371	-9.137	165.658	11.581	0.00017752	0.0030259	0.00043002	612.06	2.6673e-05	1.5072e-05	732.99	194.39	1.6151e-05	2.1919e-05	307.65	115.89	65.804	30.213	3.0091e-05	62.944	0.0054782	0.0049628	0.0013512	1027	6.0412e-05	5.5913e-05	1072.8	310.06	6.1148e-05	5.3461e-05	466.61	184.47	144.47	48.376	5.289e-05	91.291	84.705	-17.571	56.803	-23.573	57.653	91.066	-23.305	-18.512	41.253	-29.882	-19.562	-15.028	-15.274	-10.408	195.021	-11.312	-8191	255	
2848.386	1	1	0	0	0.29271	0.16328	0.10915	0.20422	0.2145	0.28685	0.31714	0.17383	0.02607	0.15091	0.15528	0.15497	0.14497	0.16896	0.14258	0.27987	-0.66875	-0.50417	-1.3875	-0.57917	-0.825	-1.4104	-0.56042	-1.2792	-0.87708	-0.37917	-1.375	-0.61042	-0.79792	-1.3146	-0.43542	-1.2708	114.209	64.459	267.566	299.897	247.978	256.140	259.277	18.048	83.384	-20.128	307.852	272.458	30.287	237.716	147.314	296.772	0.00010047	0.0020874	0.00089483	608.35	2.2742e-05	2.7483e-05	728.29	194.97	8.1893e-06	1.2193e-05	303.99	115.14	64.334	29.562	3.0413e-05	62.119	0.0054189	0.0049442	0.0014538	1067.2	5.9496e-05	5.6627e-05	1108	316.14	6.0217e-05	5.3428e-05	477.37	186.09	140.69	47.477	5.7067e-05	90.403	-32.632	269.811	146.511	-24.044	39.776	59.845	-23.717	-18.657	56.964	30.836	-19.603	-15.405	-14.984	-10.498	234.207	-11.394	-8191	255	
2848.507	1	1	0	0	0.14945	0.029561	0.1994	0.36113	0.26431	0.24931	0.083354	0.15589	0.21618	0.28382	0.12678	0.14569	0.092032	0.027779	0.23625	0.23501	-0.5375	-0.23542	-1.3979	-0.56875	-0.54167	-1.2646	-0.64792	-1.0063	-1.0542	-0.39375	-1.3062	-0.80208	-0.75208	-1.3937	-0.54583	-1.2292	139.145	-26.319	62.878	245.887	268.994	251.968	96.770	233.151	-5.506	134.621	-10.974	-25.622	146.622	123.565	128.019	264.196	0.0002411	0.0022336	0.00099585	614.97	6.3546e-06	2.2576e-05	728.07	195.15	1.6188e-05	9.5321e-06	307.29	118.22	66.093	29.83	1.6613e-05	62.959	0.0051896	0.0047338	0.0015279	1058.2	5.5561e-05	5.4468e-05	1133.4	310.5	5.6944e-05	5.0841e-05	486.75	184.47	136	46.748	5.9762e-05	88.456	177.964	32.977	132.720	-24.243	17.555	13.539	-23.725	-18.962	32.266	74.561	-19.610	-15.461	-15.375	-10.117	151.124	-11.435	-8191	255	
2848.578	1	1	0	0	0.2119	0.20425	0.12052	0.071568	0.075575	0.06364	0.27523	0.10638	0.17641	0.13167	0.26203	0.11909	0.20513	0.28131	0.20449	0.31739	-0.74583	-0.38333	-1.1729	-0.72083	-0.5	-1.2208	-0.76667	-1.075	-1.175	-0.55417	-1.4333	-0.87917	-0.42292	-1.4854	-0.86042	-1.0771	319.979	198.496	146.779	275.879	-28.897	-31.902	302.391	148.839	69.851	39.878	307.303	246.574	266.892	274.202	13.876	239.973	0.00015941	0.0010421	0.00049627	611.38	1.3787e-05	2.9917e-05	735.05	195.83	1.0146e-05	2.0537e-05	308.76	118.08	65.423	29.814	9.1134e-06	63.126	0.0048634	0.0046033	0.0015593	1024.8	5.2209e-05	5.3453e-05	1154.3	302.43	5.4928e-05	5.1954e-05	494.34	180.72	132.99	47.414	6.1522e-05	86.684	247.321	158.238	110.778	-24.410	68.081	120.407	-23.210	-19.098	96.482	202.387	-19.475	-15.636	-14.606	-9.836	121.172	-11.418	-8191	255	
2848.674	1	1	0	0	0.12163	0.24063	0.10564	0.199	0.18123	0.11874	0.19209	0.12964	0.111	0.12359	0.0041166	0.27379	0.098371	0.22539	0.14299	0.40822	-0.93333	-0.19792	-1.0333	-1.0396	-0.36875	-1.3937	-0.9125	-0.70208	-1.5167	-0.63333	-1.3271	-0.94167	-0.35208	-1.2521	-0.57708	-0.76042	79.062	271.294	-17.636	301.987	254.143	115.143	180.167	250.857	302.221	134.773	180.117	199.416	264.007	309.134	138.443	299.055	0.0001768	0.0035585	0.0002564	617.65	1.0931e-05	3.5778e-05	735.68	195.63	1.9629e-05	2.0136e-05	310.57	116.74	64.863	30.434	1.5437e-05	63.381	0.0046288	0.0047218	0.0015527	993.5	4.8917e-05	5.4675e-05	1152.5	293.31	5.2237e-05	5.4947e-05	491.52	177.42	130.41	49.301	6.2467e-05	86.45	199.009	134.441	-6.035	-24.288	28.846	200.717	-23.679	-19.021	119.954	203.324	-19.868	-15.507	-14.940	-9.648	10.227	-11.622	-8191	255	
2848.771	1	1	0	0	0.18277	0.25055	0.11982	0.27076	0.030195	0.11672	0.064317	0.3066	0.36078	0.072574	0.16952	0.14841	0.16937	0.35155	0.1528	0.37991	-0.96042	-0.47708	-1.0125	-1.1396	-0.31458	-1.4354	-0.90625	-0.68542	-1.4521	-0.51875	-1.0021	-1.0771	-0.39167	-1.2917	-0.92292	-0.66458	276.327	319.084	91.593	109.684	22.125	36.017	315.669	215.046	75.848	211.524	-33.984	244.851	206.257	-0.536	175.764	269.249	0.00042693	0.0021805	0.00089735	612.6	7.0806e-06	6.4891e-05	731.07	195.3	7.4381e-06	2.3812e-05	308.29	116.98	64.923	29.937	2.0778e-05	62.898	0.0046612	0.0053283	0.0015649	992.54	4.9792e-05	5.9957e-05	1147.2	291.01	5.2136e-05	5.9513e-05	480.94	175.28	130.09	49.837	5.9476e-05	84.627	121.953	122.699	317.267	-23.950	212.012	212.633	-24.106	-18.881	97.770	201.784	-20.231	-15.470	-13.568	-9.464	35.369	-11.611	-8191	255	
2848.867	1	1	0	0	0.39972	0.18872	0.1862	0.10487	0.20236	0.079125	0.13483	0.083255	0.046628	0.040242	0.13787	0.25974	0.15836	0.249	0.10453	0.10114	-0.98125	-0.68333	-0.96667	-1.1375	-0.5625	-1.1958	-1.0208	-0.43542	-1.2792	-0.62708	-0.65	-1.3479	-0.5375	-1.2333	-0.88333	-0.65625	-5.145	283.775	82.045	12.172	27.518	163.821	245.325	305.056	236.751	235.634	250.932	305.939	322.038	268.347	23.809	89.059	0.00012314	0.0022798	0.00091942	610.48	2.8175e-05	3.5882e-05	729.6	195.67	1.3796e-05	7.7315e-06	309.47	121.02	66.088	29.738	2.0997e-06	62.444	0.0046319	0.0056077	0.0014657	979.39	5.0917e-05	6.222e-05	1127.1	287.79	5.3846e-05	6.2398e-05	472.46	175.98	135.57	49.823	5.628e-05	83.266	154.139	132.043	-17.704	-23.385	218.600	159.639	-23.967	-18.749	225.320	250.143	-19.976	-15.312	-13.882	-10.719	56.113	-11.383	-8191	255	
2848.986	1	1	0	0	0.14449	0.21598	0.18176	0.14846	0.15227	0.050085	0.14025	0.21083	0.27601	0.24825	0.24639	0.14974	0.06506	0.16386	0.097482	0.13246	-0.85625	-0.71667	-0.75625	-1.225	-0.325	-1.1792	-1.1104	-0.56667	-1.3042	-0.86042	-0.7375	-1.3354	-0.50625	-1.0333	-0.96875	-0.49167	133.793	264.226	274.388	151.460	51.316	42.971	23.985	272.592	-4.732	164.938	233.086	290.900	-23.763	215.092	20.864	201.574	0.0004013	0.00075035	0.0008019	612.77	3.2155e-05	5.9833e-06	732.46	195.05	2.757e-05	2.1798e-05	310.78	120.47	66.989	30.093	1.4586e-05	62.509	0.0048523	0.0057369	0.0013889	970.27	5.4787e-05	6.1793e-05	1109.2	285.3	5.7349e-05	6.2119e-05	465.75	175.09	142.4	49.497	5.5215e-05	83.092	188.842	261.382	-25.633	-24.023	214.614	66.688	-23.807	-18.954	236.037	-19.228	-19.928	-15.704	-14.715	-10.393	53.640	-11.469	-8191	255	
2849.082	1	1	0	0	0.18	0.13477	0.18039	0.16453	0.18347	0.19443	0.35178	0.31516	0.24658	0.091241	0.13042	0.081867	0.094265	0.32212	0.076752	0.15437	-0.99792	-0.7375	-0.46875	-1.3167	-0.31042	-0.85208	-1.2021	-0.5125	-1.2771	-1.0312	-0.59167	-1.4208	-0.35833	-0.94792	-1.1854	-0.49375	63.321	265.677	216.060	279.839	60.229	234.590	-12.235	-11.920	304.073	111.670	244.781	8.391	225.961	18.358	101.391	259.721	0.00069761	0.0012374	0.00021786	616.2	2.0985e-05	6.0082e-05	726.39	192.12	3.4344e-05	1.3453e-05	309.99	118.9	66.09	30.451	1.4019e-05	62.932	0.0051834	0.0056223	0.0013329	963.26	5.9087e-05	5.913e-05	1092.9	283.35	6.0364e-05	5.9337e-05	457.42	173.39	145.32	48.517	5.283e-05	84.247	186.573	-33.115	291.923	-24.052	254.009	-14.115	-23.357	-18.567	220.197	40.458	-19.670	-14.985	-14.219	-10.373	95.309	-11.229	-8191	255	
2849.178	1	1	0	0	0.026031	0.1061	0.12332	0.16541	0.13389	0.20646	0.26464	0.21142	0.19403	0.13158	0.090568	0.30618	0.02645	0.12915	0.16436	0.097179	-1.1125	-0.94167	-0.43958	-1.2958	-0.475	-0.8375	-1.2188	-0.52917	-1.1167	-0.91458	-0.56667	-1.2979	-0.61458	-0.78958	-1.4292	-0.4875	282.413	35.459	296.498	177.486	322.959	157.029	166.196	313.372	149.032	183.774	197.806	-5.012	-5.146	73.371	157.925	239.029	0.00044044	0.0018185	0.00019578	604.65	1.7243e-05	5.2141e-05	725.98	192.69	3.055e-06	2.7914e-05	310.28	118.64	66.12	30.652	5.5663e-06	64.141	0.0053209	0.0052531	0.0012709	963.97	6.0696e-05	5.4962e-05	1075.3	287.2	6.05e-05	5.583e-05	449.43	175.78	146.47	47.784	5.0744e-05	86.711	206.897	-5.253	-0.003	-23.372	248.791	24.951	-23.215	-18.678	40.316	41.727	-20.027	-15.433	-14.444	-10.335	147.690	-11.149	-8191	255	
2849.274	1	1	0	0	0.25433	0.18214	0.27941	0.054635	0.19685	0.45043	0.065653	0.058045	0.19682	0.047543	0.21521	0.48052	0.26382	0.26255	0.023662	0.13742	-0.7375	-1.0458	-0.18333	-1.2917	-0.82917	-0.65417	-1.3687	-0.34167	-1.0604	-1.025	-0.43542	-1.3542	-0.72917	-0.63958	-1.2188	-0.48958	-13.950	-20.960	299.434	275.833	306.393	22.453	218.536	291.506	262.156	6.723	165.738	314.213	5.754	63.759	135.786	294.057	7.3686e-05	0.00025733	0.0007274	607.87	1.0117e-05	2.0137e-05	728.4	192.78	9.6021e-06	1.2284e-05	308.36	119.15	66.589	30.858	1.1529e-05	64.098	0.0052071	0.004953	0.0012074	978.59	5.8725e-05	5.054e-05	1052.6	291.86	5.622e-05	5.1106e-05	439.56	177.78	140.42	46.307	4.7553e-05	87.505	321.447	63.469	-2.531	-23.142	34.102	16.241	-23.955	-18.152	63.203	21.865	-19.781	-14.878	-15.156	-10.642	127.768	-11.441	-8191	255	
2849.370	1	1	0	0	0.11898	0.23686	0.07924	0.10912	0.041294	0.10878	0.13928	0.29653	0.10228	0.19896	0.16368	0.060344	0.22179	0.26227	0.48028	0.27768	-0.57708	-0.91042	-0.29792	-1.4542	-0.84167	-0.575	-1.1938	-0.74167	-0.81667	-1.0542	-0.64167	-1.3146	-0.86667	-0.55	-1.3167	-0.59792	67.802	161.240	125.499	28.980	95.649	196.796	117.177	302.854	219.165	219.162	247.661	-32.910	282.132	-21.226	229.881	232.639	0.00025585	0.0016668	0.00040482	607.35	8.709e-06	2.6981e-05	724.12	193.73	9.7253e-06	1.1822e-05	308.66	119.36	66.462	30.719	1.9008e-05	63.428	0.0047452	0.0046287	0.0011543	988.34	5.4711e-05	4.7655e-05	1048.7	297.47	5.3158e-05	5.0011e-05	444.92	180.63	138.02	45.798	5.0323e-05	89.05	-35.161	0.368	184.754	-23.747	82.813	55.397	-23.662	-18.942	-6.575	22.444	-19.503	-14.945	-15.185	-10.272	184.667	-11.254	-8191	255	
2849.466	1	1	0	0	0.19642	0.185	0.24872	0.12574	0.068684	0.19445	0.38274	0.39974	0.11075	0.13262	0.085858	0.14331	0.026341	0.26727	0.16728	0.27738	-0.40625	-1.1521	-0.45	-1.2062	-0.75208	-0.49375	-1.4271	-0.93542	-0.75833	-1.4792	-0.61458	-1.1562	-1.1167	-0.56875	-1.1958	-0.68125	8.968	32.230	40.534	228.467	-33.485	-30.196	270.426	278.515	322.599	33.809	159.864	298.871	182.287	267.436	-6.449	249.658	0.00019932	0.0021592	0.00038533	607.77	1.7624e-05	3.0291e-05	718.9	192.52	1.6717e-05	1.8144e-05	304.36	119.65	66.836	29.921	3.302e-05	63.576	0.0046662	0.0046891	0.0012755	1013.5	5.4646e-05	4.7696e-05	1079.8	303.89	5.1986e-05	4.9898e-05	458.33	181.58	135.49	44.956	5.3811e-05	88.314	-19.919	-26.228	111.258	-24.045	38.099	8.261	-23.666	-19.051	107.756	31.644	-19.595	-15.319	-14.317	-9.939	183.460	-11.584	-8191	255	
2849.587	1	1	0	0	0.17421	0.089887	0.082761	0.37615	0.12059	0.18102	0.17804	0.25308	0.22627	0.193	0.23431	0.035207	0.01304	0.27564	0.13347	0.11958	-0.24375	-1.2208	-0.50417	-1.1021	-1.2354	-0.47708	-1.4292	-0.84167	-0.76875	-1.45	-0.57083	-1.0688	-1.1	-0.40833	-1.1688	-0.96042	-21.066	310.802	274.105	292.716	87.567	205.620	14.168	262.980	64.177	270.408	257.271	-19.666	111.101	56.508	126.787	170.835	0.00017152	0.0017114	0.00086329	611.8	3.5228e-06	1.4794e-05	724.85	194.95	1.3895e-05	5.7123e-06	307.49	119.55	66.369	30.333	1.2748e-05	63.77	0.0044289	0.0045318	0.0013824	1002.1	5.2728e-05	4.7214e-05	1107.7	300	4.9605e-05	4.8739e-05	470.31	177.6	132.4	44.946	5.601e-05	86.895	-21.574	318.723	137.136	-24.583	86.231	139.953	-23.631	-18.855	80.895	160.254	-19.474	-15.603	-14.563	-10.099	103.431	-11.723	-8191	255	
2849.683	1	1	0	0	0.13067	0.055868	0.15364	0.31343	0.013526	0.25828	0.33329	0.14708	0.26964	0.1347	0.17963	0.28066	0.18774	0.28891	0.11216	0.40142	-0.27083	-1.2229	-0.49375	-0.93333	-1.1417	-0.42708	-1.4833	-0.97708	-0.54792	-1.3229	-0.72083	-0.79375	-1.1688	-0.60417	-1.0854	-0.94167	132.549	168.068	106.792	317.341	315.323	254.472	240.847	319.669	158.224	177.959	309.998	297.223	292.478	262.649	-15.774	320.799	0.00018164	0.0011578	0.00072819	610.52	9.554e-06	2.8695e-05	728.32	193.38	7.8625e-06	7.9292e-06	308.46	119.27	66.197	30.347	7.9578e-06	63.898	0.004165	0.0044294	0.0014223	966.09	4.9766e-05	4.678e-05	1113.5	292.08	4.685e-05	4.9443e-05	477.84	174.57	130.84	46.029	5.7897e-05	86.547	247.375	187.931	194.859	-23.465	38.808	253.691	-22.866	-18.892	98.624	175.808	-19.636	-15.480	-14.444	-9.695	108.581	-11.581	-8191	255	
2849.779	1	1	0	0	0.082746	0.29161	0.020767	0.15134	0.12178	0.2515	0.18255	0.19933	0.060985	0.15854	0.16378	0.16848	0.24264	0.40829	0.16091	0.14813	-0.022917	-1.2333	-0.73958	-0.83125	-1.3667	-0.67708	-1.3625	-1.1187	-0.5125	-1.375	-0.63125	-0.61875	-1.2583	-0.425	-0.96042	-1.2854	24.167	35.539	157.334	212.382	219.032	25.133	282.094	309.758	67.206	80.504	230.368	195.674	219.227	305.267	42.567	-11.113	4.531e-05	0.0029348	0.00070065	611.79	1.3781e-05	5.7716e-05	723.81	195.21	1.2988e-05	2.8702e-05	309.81	118.72	65.791	29.875	3.305e-05	62.632	0.0041647	0.004846	0.0015177	963.01	5.0727e-05	5.3088e-05	1130.5	293.4	4.8426e-05	5.6189e-05	486.02	174.15	133.45	48.48	6.0683e-05	86.777	310.778	84.567	27.961	-23.964	94.893	169.103	-23.807	-18.789	47.719	196.008	-20.238	-15.696	-14.269	-9.947	71.178	-11.658	-8191	255	
2849.875	1	1	0	0	0.094962	0.15637	0.080557	0.32935	0.22258	0.18488	0.065539	0.1319	0.20189	0.23177	0.023162	0.068869	0.30975	0.20415	0.2048	0.30993	0.014583	-1.4937	-0.67292	-0.50417	-1.4146	-0.44375	-1.0521	-1.1833	-0.57292	-1.0875	-0.88958	-0.61667	-1.4333	-0.55417	-0.90833	-1.5021	0.348	57.361	305.937	286.138	0.857	84.028	258.756	163.139	33.330	-3.073	146.369	270.806	298.431	140.994	221.053	217.474	0.00010018	0.0029035	0.00029464	607.82	2.8278e-06	3.2034e-05	726.08	190.93	9.5581e-06	1.8765e-05	305.6	116.5	64.965	29.608	9.9196e-06	62.545	0.0044228	0.0056112	0.0016006	975.21	5.3575e-05	6.1207e-05	1135.4	294.28	5.0799e-05	6.2299e-05	484.78	172.55	136.15	50.347	5.9752e-05	86.758	223.221	115.773	291.958	-24.056	143.851	211.278	-23.728	-18.498	272.861	172.181	-20.272	-15.678	-14.283	-9.622	106.052	-11.692	-8191	255	
2849.970	1	1	0	0	0.16486	0.17972	0.11455	0.30689	0.20265	0.020002	0.17932	0.10756	0.16393	0.19775	0.21119	0.1672	0.084659	0.32742	0.33162	0.32657	-0.11042	-1.1375	-0.84167	-0.48333	-1.4438	-0.7375	-0.90625	-1.3417	-0.44167	-1.3729	-1.1437	-0.42917	-1.1875	-0.60208	-0.8375	-1.4833	145.170	38.451	75.671	132.994	309.295	265.236	177.432	187.661	156.875	46.354	167.136	170.807	48.791	8.372	-19.422	291.741	0.0004585	0.0016418	0.00059688	607.56	1.8174e-05	4.8886e-05	729.17	192.42	2.5772e-05	2.7625e-06	306.22	116.56	64.171	30.34	5.6159e-06	63.39	0.0047243	0.0060753	0.0015987	982.85	5.8653e-05	6.8116e-05	1145.8	300.13	5.8412e-05	6.9243e-05	491.07	175.17	145.8	52.878	6.0059e-05	88.116	194.403	45.572	-21.955	-23.699	217.363	183.444	-23.835	-18.756	236.085	37.297	-19.907	-15.333	-14.054	-10.550	316.748	-11.490	-8191	255	
2850.066	1	1	0	0	0.16999	0.13797	0.38028	0.39007	0.031903	0.20536	0.13157	0.15713	0.28818	0.14075	0.15291	0.055345	0.18533	0.2344	0.16245	0.2412	-0.11667	-1.025	-1.1396	-0.49792	-1.2292	-0.87708	-0.76042	-1.4688	-0.4	-0.975	-1.1854	-0.5875	-1.4833	-0.90833	-0.53333	-1.4667	190.194	-33.986	14.656	237.351	220.787	-18.870	314.207	157.214	132.531	32.583	245.383	198.453	224.695	288.118	281.308	243.569	0.00079639	0.00077365	0.0003354	608.71	2.9236e-05	3.3619e-05	728.06	191.89	1.4869e-05	1.9771e-05	305.35	115.82	63.627	30.549	1.5589e-05	63.886	0.0053068	0.0062513	0.0015715	978.9	6.3343e-05	6.8522e-05	1125.2	297.59	6.3231e-05	6.6945e-05	484.49	173.56	151.03	52.428	5.7695e-05	88.006	199.195	262.334	300.547	-23.682	206.003	49.975	-23.783	-18.788	223.768	19.166	-19.933	-15.165	-13.632	-10.239	93.402	-11.733	-8191	255	
2850.162	1	1	0	0	0.22829	0.28005	0.11837	0.22031	0.11632	0.19035	0.30991	0.15153	0.097437	0.21675	0.11499	0.22007	0.21964	0.40897	0.34336	0.0415	-0.03125	-0.87083	-1.0187	-0.22917	-1.3229	-0.88333	-0.49583	-1.5	-0.46042	-1.1187	-1.4792	-0.38542	-1.1375	-0.67917	-0.54583	-1.4333	22.731	197.622	213.086	181.256	252.907	263.062	283.459	269.780	241.710	185.596	55.602	294.731	118.801	216.504	266.220	47.146	0.00070695	0.004049	0.00045414	600.8	1.5069e-05	3.2322e-05	727.06	191.24	3.2732e-05	3.7835e-05	304.47	114.57	63.631	31.181	1.6718e-05	64.413	0.0056736	0.0059165	0.0015127	970.92	6.6161e-05	6.4918e-05	1104.1	295.44	6.6519e-05	6.3015e-05	476.04	174.06	153.97	51.792	5.5892e-05	89.731	186.438	-27.372	-12.833	-23.816	238.109	48.058	-23.991	-18.372	208.891	46.826	-20.183	-14.775	-13.621	-10.442	87.721	-11.419	-8191	255	
2850.283	1	1	0	0	0.1755	0.21885	0.21044	0.10763	0.18868	0.15232	0.060329	0.32002	0.2871	0.15718	0.1697	0.17894	0.20793	0.1374	0.063708	0.20434	-0.31042	-0.79375	-1.2625	-0.55833	-1.1771	-0.93542	-0.45833	-1.4062	-0.68125	-0.76667	-1.325	-0.41042	-1.1875	-0.92708	-0.47083	-1.6437	9.949	4.273	65.169	148.160	100.539	-21.150	240.743	322.529	138.894	-27.279	-25.907	285.961	237.811	74.649	64.131	-9.462	0.00045049	0.001507	0.00033515	601.12	5.1833e-06	3.5007e-05	727.69	190.91	4.4428e-06	1.0899e-05	303.84	113.95	64.248	31.268	1.1889e-05	64.736	0.0060375	0.0057573	0.0015213	1010.1	7.0307e-05	6.4765e-05	1111.6	309.46	7.143e-05	6.297e-05	482.89	183.29	159.22	52.442	5.7269e-05	93.857	148.754	319.035	241.062	-23.514	130.192	-0.295	-23.742	-18.605	108.530	35.194	-19.858	-14.331	-14.772	-10.666	43.217	-11.249	-8191	255	
2850.379	1	1	0	0	0.10089	0.085845	0.08163	0.17469	0.11414	0.36283	0.049032	0.096612	0.22998	0.25932	0.27115	0.092189	0.2123	0.15525	0.23411	0.29416	-0.52292	-0.6	-1.2313	-0.78542	-1.0208	-1.0938	-0.54375	-1.4438	-0.46667	-0.5375	-1.3229	-0.62708	-0.95208	-1.1625	-0.49583	-1.3896	152.852	274.965	222.323	76.418	159.086	322.655	69.744	191.570	59.668	208.631	309.541	191.097	308.716	263.619	176.112	269.542	0.00011468	0.0019315	0.00062293	606.29	1.614e-05	2.9205e-05	729.29	192.1	3.8939e-06	1.1715e-05	305.23	114	64.071	31.085	1.8713e-05	64.478	0.0063049	0.0057457	0.0015563	1072.4	7.1352e-05	6.579e-05	1124.7	323.37	7.1743e-05	6.2415e-05	485.93	191.36	157.53	52.482	5.9367e-05	96.893	187.245	-9.314	31.378	-23.504	11.133	44.428	-23.722	-18.298	142.329	20.038	-19.819	-15.115	-14.713	-10.565	227.214	-11.141	-8191	255	
2850.451	1	1	0	0	0.098448	0.22008	0.27663	0.07104	0.20304	0.31324	0.091897	0.22146	0.052751	0.40655	0.023322	0.11164	0.20727	0.082073	0.12922	0.29815	-0.60417	-0.625	-1.2188	-0.60625	-0.9625	-1.1396	-0.53958	-1.275	-0.96875	-0.41042	-1.375	-0.66667	-0.8375	-1.3854	-0.45833	-1.2729	9.907	233.253	303.502	252.448	249.267	16.027	235.731	170.206	65.339	251.503	194.862	298.045	-23.666	68.896	255.367	256.228	0.00028436	0.002082	0.00017847	607.62	2.056e-05	3.9e-05	719.5	190.56	1.3567e-05	1.0278e-05	301.89	114.56	64.106	30.851	9.7177e-06	63.92	0.0062912	0.0057432	0.0016198	1121.6	6.9367e-05	6.5203e-05	1144.1	329.78	6.93e-05	6.1352e-05	492.95	194.83	152.42	51.535	6.2413e-05	96.848	170.942	278.526	91.244	-23.589	74.192	58.587	-23.382	-18.847	9.839	-13.327	-19.527	-14.933	-14.163	-10.307	219.644	-11.683	-8191	255	
2850.547	1	1	0	0	0.054681	0.12872	0.19559	0.30618	0.28142	0.11745	0.13464	0.21336	0.041537	0.15975	0.18382	0.25713	0.27014	0.19931	0.15712	0.16479	-0.43333	-0.33333	-1.2979	-0.58542	-0.75	-1.3604	-0.48125	-1.1708	-1.1812	-0.3375	-1.3875	-0.86042	-0.69375	-1.5187	-0.46042	-1.3937	195.273	312.878	116.669	-15.972	142.409	228.949	268.956	262.244	154.330	-22.244	11.797	42.376	210.272	254.683	214.375	267.697	0.0002928	0.0012919	0.0012042	613.18	1.6372e-05	3.0127e-05	725.05	192.64	7.1481e-06	2.0756e-05	305.22	115.43	63.186	30.568	4.2793e-05	63.73	0.0059961	0.0055464	0.0017053	1130.2	6.5502e-05	6.3286e-05	1178.4	328.93	6.6801e-05	5.941e-05	507.89	194.1	147.71	50.813	6.8248e-05	95.7	131.813	-1.996	139.464	-23.786	52.384	41.215	-23.366	-19.283	87.368	50.974	-19.679	-15.430	-15.189	-10.246	184.228	-11.404	-8191	255	
2850.667	1	1	0	0	0.0098136	0.15855	0.070255	0.067277	0.13191	0.16244	0.34308	0.37435	0.25092	0.17278	0.18564	0.21395	0.053569	0.14408	0.14329	0.33427	-0.79167	-0.33542	-1.4271	-1.1104	-0.49167	-1.5312	-0.37917	-1.125	-1.2958	-0.37917	-1.3583	-0.99167	-0.38333	-1.3687	-0.50833	-1.0667	232.418	103.129	266.687	298.012	193.249	249.144	1.418	241.508	175.981	46.159	287.181	-18.461	190.643	-5.594	37.860	-32.738	0.00014585	0.0012781	0.0011276	616.35	2.2644e-05	2.7875e-05	733.09	194.96	1.4291e-05	2.3053e-05	305.63	114.53	63.632	30.409	4.5062e-05	64.326	0.0058691	0.0054818	0.0018364	1123.1	6.4127e-05	6.3333e-05	1229.1	326.91	6.6743e-05	6.1082e-05	526.75	193.07	147.19	51.385	7.4294e-05	94.668	168.903	316.270	119.827	-24.125	47.082	264.779	-23.284	-18.873	-9.268	217.703	-19.528	-15.457	-14.434	-9.995	210.957	-11.384	-8191	255	
2850.764	1	1	0	0	0.16422	0.085226	0.051594	0.11216	0.15082	0.091314	0.23968	0.41907	0.29443	0.17168	0.1496	0.075641	0.16286	0.18521	0.36938	0.35349	-0.86667	-0.38958	-1.2125	-0.91042	-0.4125	-1.4688	-0.81042	-0.9	-1.4458	-0.24167	-1.15	-0.9875	-0.52292	-1.425	-0.59375	-0.80208	29.923	25.660	63.970	261.802	260.138	18.569	219.204	256.658	48.112	118.159	-5.677	251.785	158.596	307.772	126.891	224.167	0.00015369	0.0034144	0.0002797	610.46	9.6661e-06	5.0095e-05	732.32	193.72	2.2741e-05	3.5331e-05	309.36	115.13	63.988	31.062	4.7867e-06	64.689	0.0057774	0.0057029	0.0019165	1099.8	6.1533e-05	6.5125e-05	1248.5	316.72	6.3641e-05	6.3082e-05	525.49	186.6	141.21	52.103	7.1904e-05	91.7	182.478	119.794	118.506	-23.965	71.208	191.349	-23.321	-18.615	29.301	186.849	-19.738	-15.296	-14.184	-9.832	121.713	-11.733	-8191	255	
2850.860	1	1	0	0	0.17252	0.027848	0.061706	0.31302	0.23363	0.14285	0.26205	0.041814	0.040319	0.19331	0.4511	0.066303	0.13041	0.23305	0.22567	0.028433	-0.97708	-0.475	-1.0729	-1.2917	-0.42292	-1.3771	-0.6875	-0.86667	-1.1271	-0.58125	-1.0792	-1.1125	-0.43333	-1.2396	-0.72917	-0.99375	58.432	75.541	187.151	290.754	-15.443	-18.770	-21.550	281.866	290.560	151.042	247.808	279.811	226.457	38.794	38.072	257.783	0.00010865	0.0043854	0.00062771	608.14	3.0048e-06	4.0404e-05	732.83	192.67	1.3936e-05	2.7134e-05	304.56	113.68	62.018	30.689	2.8584e-05	63.798	0.005317	0.0058709	0.0018159	1055.5	5.759e-05	6.7255e-05	1229.7	307.82	6.1245e-05	6.863e-05	520.95	184.83	141.89	54.458	7.3683e-05	91.622	193.168	99.540	-13.631	-23.924	-35.785	155.356	-23.280	-19.080	40.792	210.420	-19.862	-15.019	-14.496	-9.782	55.307	-11.555	-8191	255	
2850.979	1	1	0	0	0.16629	0.44702	0.11847	0.50492	0.033197	0.093993	0.24375	0.26268	0.26843	0.062616	0.095923	0.16356	0.17298	0.20919	0.12647	0.30324	-1.0542	-0.43958	-0.96042	-1.3563	-0.33333	-1.1625	-1.0042	-0.92083	-1.2875	-0.51667	-0.9875	-1.4583	-0.63958	-1.5063	-0.83958	-0.7	60.762	38.256	79.084	-27.491	201.936	124.225	19.877	296.734	116.235	70.050	233.112	17.797	285.961	259.171	141.566	276.283	0.00043164	0.0037608	0.00059252	609.74	1.5044e-05	2.5315e-05	736.08	191.07	6.1641e-06	1.6901e-05	305.72	113.24	62.652	30.739	1.211e-05	64.03	0.0055909	0.0067527	0.0018575	1076.4	6.2106e-05	7.6313e-05	1241.7	309.16	6.438e-05	7.5148e-05	512.42	183.66	144.82	55.477	6.9743e-05	90.563	140.317	136.645	-13.883	-23.862	219.713	173.982	-24.099	-18.803	285.245	179.423	-19.710	-15.373	-13.348	-10.114	44.935	-11.653	-8191	255	
2851.050	1	1	0	0	0.16497	0.10041	0.30229	0.18642	0.2468	0.23201	0.15083	0.074939	0.16197	0.11494	0.24421	0.12381	0.047557	0.31482	0.16469	0.025274	-0.92292	-0.5875	-0.81875	-1.3396	-0.39375	-1.2125	-1.1958	-0.72292	-1.3604	-0.55833	-0.84167	-1.4708	-0.62292	-1.1187	-1.0875	-0.86458	34.942	235.469	5.597	307.207	16.277	298.492	294.954	47.353	292.699	135.273	92.398	248.372	40.357	236.024	82.292	108.430	0.00044504	0.00086588	0.00056361	606.7	2.4677e-05	9.1461e-06	738.75	191.25	5.009e-05	1.8014e-05	304.61	113.84	62.332	30.774	5.4793e-06	63.904	0.0057037	0.0069339	0.0017244	1052.2	6.4112e-05	7.5201e-05	1201.8	302.88	6.666e-05	7.4856e-05	497.6	180.08	149.35	54.684	6.5289e-05	88.485	181.692	-9.285	306.589	-24.077	197.323	79.661	-24.107	-18.940	236.700	110.807	-19.645	-15.125	-12.945	-10.125	30.507	-11.373	-8191	255	
2851.148	1	1	0	0	0.22577	0.34515	0.035962	0.19757	0.23537	0.041285	0.11428	0.10175	0.047169	0.1119	0.24841	0.18576	0.21162	0.13653	0.28928	0.18284	-1.0167	-0.74792	-0.74167	-1.3292	-0.50833	-1.2417	-1.4729	-0.64375	-1.4125	-0.80833	-0.67292	-1.4937	-0.66458	-1.1	-1.2521	-0.70417	198.822	75.314	285.434	125.353	-29.125	54.287	-28.503	305.432	190.642	174.535	-31.058	261.617	-23.917	-9.475	259.556	-25.962	0.00073614	0.0014755	0.00033702	612.37	3.5241e-05	4.5649e-05	738.86	191.5	1.3653e-05	2.3105e-05	304.23	113.16	62.214	30.351	1.8577e-05	62.719	0.0058966	0.0066147	0.0015825	1020.8	6.6823e-05	7.0268e-05	1167.5	296.28	6.8931e-05	7.0946e-05	483.42	177.58	154.7	52.725	6.3136e-05	87.802	160.738	-2.488	-11.808	-23.973	233.561	31.219	-23.900	-18.815	231.676	18.853	-19.839	-14.847	-13.536	-10.410	23.970	-11.351	-8191	255	
2851.267	1	1	0	0	0.12217	0.33386	0.31787	0.19744	0.18454	0.20161	0.38848	0.13522	0.39196	0.30014	0.12977	0.15992	0.13266	0.20372	0.04832	0.034192	-0.87917	-0.77917	-0.59792	-1.5125	-0.48958	-0.91875	-1.5063	-0.64375	-1.3604	-1.0375	-0.65625	-1.6125	-0.6875	-1.0917	-1.3917	-0.78333	40.053	239.681	-17.981	164.787	113.168	90.837	-10.689	319.644	275.405	251.420	-21.878	288.647	311.104	322.418	310.218	64.464	0.00069079	0.0035563	0.00044129	610.24	1.8008e-05	4.0889e-05	727.97	190.47	6.1588e-06	1.589e-05	304	112.14	62.247	30.294	2.749e-05	62.532	0.0062567	0.0063736	0.0015354	1028.9	7.1792e-05	6.7439e-05	1162.5	302.16	7.3444e-05	6.9497e-05	481.7	182.12	162.16	52.124	6.3878e-05	90.632	168.714	283.524	1.593	-23.695	208.152	32.308	-23.781	-18.484	181.542	42.414	-20.202	-15.047	-13.327	-10.170	63.365	-11.265	-8191	255	
2851.363	1	1	0	0	0.0085727	0.060075	0.050853	0.25325	0.17076	0.13462	0.1455	0.15494	0.18641	0.23009	0.079872	0.1016	0.065475	0.26144	0.16448	0.038335	-0.97917	-0.925	-0.58542	-1.375	-0.77083	-0.79375	-1.525	-0.73333	-1.0042	-1.2354	-0.60208	-1.5021	-0.79375	-0.85625	-1.2646	-0.70833	282.954	137.425	317.048	319.059	104.280	145.427	263.622	6.807	195.553	248.980	40.881	-28.783	0.897	298.845	283.900	322.179	0.00034623	0.0024094	0.00042696	606.44	1.4607e-05	5.3357e-05	727.7	191.02	1.2862e-05	7.8094e-06	304.77	112.61	63.232	30.287	4.1463e-06	62.516	0.0065982	0.0063339	0.0015463	1078	7.6181e-05	6.6992e-05	1168	317.07	7.5348e-05	6.8582e-05	480.68	189.54	163.88	51.619	6.3513e-05	94.053	185.663	311.147	275.362	-23.811	178.616	47.205	-23.752	-18.627	8.849	54.777	-19.619	-14.796	-14.754	-10.575	60.034	-11.100	-8191	255	
2851.459	1	1	0	0	0.022877	0.20739	0.3019	0.20877	0.053203	0.097205	0.22818	0.061389	0.127	0.30229	0.26727	0.36977	0.19583	0.42738	0.11655	0.18176	-0.575	-1.0688	-0.68542	-1.2687	-0.75208	-0.78958	-1.4229	-0.75208	-1.1771	-1.2125	-0.625	-1.4125	-0.97083	-0.54583	-1.4333	-0.71875	316.614	194.913	141.109	126.705	270.050	48.914	121.160	26.156	216.317	125.815	94.490	290.719	306.737	308.950	83.819	-9.677	0.00019096	0.0011553	0.00024226	606.4	1.1958e-05	3.1176e-05	731.85	190.85	2.7687e-05	2.4191e-05	302.14	112.39	63.414	30.081	4.2436e-05	62.606	0.0065241	0.0062583	0.0015443	1119.6	7.517e-05	6.499e-05	1170.4	329.01	7.2568e-05	6.7713e-05	485.6	195.5	161.09	50.999	6.5076e-05	96.679	-2.261	-19.319	92.899	-23.351	82.826	22.060	-23.482	-18.452	53.992	6.850	-19.275	-14.691	-15.209	-10.536	189.224	-11.712	-8191	255	
2851.580	1	1	0	0	0.39254	0.060143	0.08311	0.11553	0.11738	0.070612	0.18435	0.37624	0.20445	0.16863	0.26006	0.16094	0.14644	0.1891	0.25745	0.18064	-0.57083	-1.4021	-0.55	-1.475	-0.95	-0.68542	-1.5229	-0.70833	-0.9625	-1.3604	-0.9	-1.3542	-1.1083	-0.59375	-1.4229	-0.98333	233.373	117.542	83.714	163.229	-33.734	23.077	273.657	240.888	21.551	98.137	296.079	316.579	-7.664	163.130	-22.842	16.522	0.00024136	0.0019546	0.00095655	609.53	2.3695e-05	3.4419e-05	725.87	190.41	2.9405e-05	2.4328e-05	300.02	112.68	62.874	30.399	3.7432e-05	63.679	0.0062342	0.0061546	0.0016207	1147.4	7.2535e-05	6.3193e-05	1190.1	336.31	6.9168e-05	6.5635e-05	494.99	195.12	152.76	49.731	6.5234e-05	95.506	-19.638	14.751	164.492	-23.745	65.263	28.062	-23.381	-19.001	63.289	57.725	-19.405	-14.970	-14.906	-10.197	209.784	-11.219	-8191	255	
2851.676	1	1	0	0	0.096702	0.12901	0.26854	0.10006	0.15596	0.25643	0.11065	0.15081	0.19829	0.17374	0.30245	0.096407	0.1212	0.36975	0.15958	0.29636	-0.51458	-1.35	-0.50208	-1.2542	-0.975	-0.43125	-1.45	-0.67917	-0.625	-1.4104	-0.76042	-1.1417	-1.1042	-0.76458	-1.7083	-0.825	190.987	-2.201	163.636	306.035	306.486	36.858	-26.545	305.675	163.123	176.203	252.121	267.345	-36.346	319.539	245.383	293.159	0.00016653	0.0023774	0.0013827	610.87	7.5911e-06	1.9963e-06	731.84	192.53	2.9458e-06	1.1074e-05	301.98	114.75	63.009	30.89	1.8458e-05	64.628	0.0055393	0.0055855	0.0016179	1097.1	6.3831e-05	5.6711e-05	1183.5	322.79	6.0424e-05	5.9336e-05	497.85	188	145.11	48.624	6.6576e-05	93.913	53.160	294.139	118.826	-23.926	36.243	217.916	-22.981	-18.486	52.158	22.388	-19.229	-15.227	-14.688	-10.028	219.422	-11.974	-8191	255	
2851.748	1	1	0	0	0.15553	0.18756	0.30197	0.25683	0.27974	0.24133	0.068661	0.25691	0.32815	0.27315	0.040294	0.23751	0.12064	0.09169	0.21583	0.11936	-0.31458	-1.4688	-0.55208	-1.1854	-1.3188	-0.59375	-1.3083	-1.0187	-0.67083	-1.3833	-0.68125	-0.98125	-1.2375	-0.54583	-1.2292	-1.1125	223.439	102.031	80.525	305.283	230.881	286.534	51.006	313.514	272.890	221.005	-14.299	307.611	278.541	256.661	226.343	236.710	6.7724e-05	0.00079606	0.0010263	613.19	5.5044e-06	5.8047e-06	734.41	194.38	2.031e-06	1.4028e-05	309.6	116.72	64.647	31.062	1.7411e-05	65.023	0.0051075	0.0053227	0.0016823	1055.9	6.0406e-05	5.533e-05	1201.7	315.59	5.7629e-05	5.9334e-05	513.22	185.57	143.82	49.588	6.8977e-05	92.854	291.123	-0.567	117.975	-23.956	115.251	136.016	-23.606	-19.173	176.962	209.258	-19.618	-15.361	-14.430	-9.753	226.105	-11.651	-8191	255	
2851.844	1	1	0	0	0.28225	0.051087	0.22067	0.22958	0.23523	0.11695	0.1858	0.32703	0.10778	0.12395	0.22688	0.057275	0.10353	0.14548	0.21524	0.23372	-0.27083	-1.4937	-0.575	-0.72917	-1.3333	-0.6625	-1.4021	-1.1354	-0.50833	-1.5125	-0.75417	-1.0271	-1.5354	-0.52917	-1.0604	-1.35	235.716	127.507	194.520	204.399	-16.217	69.060	298.951	209.730	-13.732	100.977	310.457	251.527	-5.978	-5.862	234.349	268.940	0.00017601	0.0027426	0.0004865	611.99	1.8452e-05	5.0011e-05	734.17	194.66	1.1109e-05	2.7405e-05	308.3	117.38	64.551	30.952	1.5718e-05	64.252	0.0049411	0.0055256	0.0017601	1034.9	5.8599e-05	5.8687e-05	1203.8	308.77	5.4684e-05	6.1128e-05	510.27	179.55	139.15	50.441	6.6068e-05	90.267	215.782	133.721	156.606	-24.141	55.485	224.096	-23.546	-19.121	140.928	213.930	-19.827	-15.149	-14.600	-9.125	84.591	-11.729	-8191	255	
2851.963	1	1	0	0	0.29591	0.23424	0.21211	0.068067	0.15551	0.2157	0.11849	0.23274	0.1771	0.11772	0.23252	0.31162	0.16975	0.079641	0.069831	0.11083	0.05625	-1.3	-0.68542	-0.725	-1.2938	-0.80208	-1.2687	-1.3312	-0.25208	-1.3813	-1.0354	-0.68542	-1.3792	-0.69375	-0.98125	-1.3917	201.907	70.981	129.859	254.240	-1.388	255.488	-23.435	-0.842	126.319	72.393	-11.426	224.259	238.265	173.627	218.976	272.259	0.00016496	0.0029826	0.00012422	608.57	4.9258e-06	5.6897e-05	733.67	193.31	6.2956e-06	1.2003e-05	308.8	116.52	64.555	30.889	2.5083e-05	63.899	0.0046705	0.0057534	0.0016848	997.4	5.6127e-05	6.1948e-05	1174.4	301.86	5.2862e-05	6.4563e-05	499.87	176.06	138.02	51.703	6.2728e-05	89.181	95.532	124.695	201.005	-24.238	214.687	188.088	-23.332	-18.791	-26.852	163.794	-19.540	-15.380	-14.155	-9.659	43.401	-11.417	-8191	255	
2852.059	1	1	0	0	0.064816	0.19565	0.094408	0.021924	0.20855	0.10278	0.0714	0.071445	0.068136	0.060839	0.2487	0.32593	0.088797	0.25873	0.12334	0.14504	-0.1125	-1.3438	-1.1	-0.60208	-1.5146	-0.62292	-0.89375	-1.3417	-0.3625	-1.2854	-1.1125	-0.82917	-1.5708	-0.76042	-0.84583	-1.45	10.565	86.342	209.619	14.085	213.610	84.754	274.801	174.351	141.356	253.409	309.893	302.674	180.024	288.095	28.012	264.457	0.00040453	0.0036226	0.00076926	607.65	1.1923e-05	5.2918e-05	727.91	193.69	2.7073e-05	1.5654e-05	313.69	118.52	65.57	30.847	2.1703e-05	64.9	0.0046964	0.0060824	0.0016331	986.58	5.784e-05	6.7418e-05	1156.9	303.36	5.6032e-05	6.8721e-05	498.13	177.48	144.51	53.334	6.0478e-05	89.431	203.353	103.718	312.597	-24.214	172.673	180.696	-23.235	-18.728	252.634	163.545	-20.375	-15.465	-13.732	-10.155	35.930	-11.807	-8191	255	
2852.155	1	1	0	0	0.1946	0.17901	0.087359	0.31493	0.24419	0.083043	0.49569	0.29933	0.018796	0.17181	0.52013	0.048859	0.24262	0.11511	0.10202	0.15709	0.085417	-1.1562	-0.96458	-0.64167	-1.5083	-0.65	-0.86458	-1.2375	-0.38125	-1.2125	-1.1437	-0.76667	-1.5354	-0.79375	-0.64167	-1.5875	73.142	-23.675	70.302	274.068	278.945	123.761	-19.759	317.056	275.250	245.571	246.868	-11.131	232.897	-8.989	-36.134	295.766	0.0005451	0.0010577	0.00063242	609.66	2.2661e-05	4.9371e-05	734.73	195.43	2.9504e-05	2.5328e-05	312.33	119.78	66.031	31.219	1.9381e-05	64.502	0.0050659	0.0062361	0.0015699	978.94	6.075e-05	6.7776e-05	1130	298.66	5.9914e-05	6.6839e-05	488.81	176.03	150.02	53.122	5.79e-05	89.02	171.127	-1.932	290.659	-24.002	219.396	12.482	-23.305	-18.706	265.573	6.533	-19.963	-15.284	-12.893	-10.314	57.967	-11.783	-8191	255	
2852.251	1	1	0	0	0.14881	0.088951	0.33448	0.19404	0.049118	0.16085	0.073569	0.17764	0.31466	0.24125	0.19955	0.12612	0.17189	0.19278	0.072612	0.28754	-0.10625	-1.1375	-1.0063	-0.44375	-1.2354	-0.74792	-0.74792	-1.3833	-0.65417	-1.1688	-1.3021	-0.53125	-1.3417	-1.0521	-0.56458	-1.5396	237.467	289.210	174.980	282.733	-9.674	206.267	161.876	292.107	0.123	192.118	-24.525	258.557	-13.057	307.596	210.199	320.642	0.00077624	0.0015429	0.00041768	608.5	1.1193e-05	4.4181e-05	727.73	193.67	1.8866e-05	2.7943e-05	307.62	118.07	65.785	31.159	2.4368e-06	64.617	0.0055339	0.006056	0.0015256	971.4	6.4543e-05	6.5211e-05	1104.4	295.67	6.303e-05	6.1705e-05	475.29	173.55	150.99	51.279	5.4044e-05	88.425	172.128	311.322	22.013	-23.779	305.925	7.679	-23.774	-19.060	240.123	22.605	-19.551	-15.004	-13.332	-10.473	-13.137	-11.490	-8191	255	
2852.347	1	1	0	0	0.26638	0.16159	0.13002	0.26807	0.19752	0.19968	0.28832	0.20377	0.25079	0.10177	0.079155	0.29867	0.22785	0.13612	0.43047	0.071852	-0.34792	-0.8625	-1.3396	-0.5375	-1.1562	-1.0187	-0.59167	-1.5104	-0.68542	-0.6125	-1.3604	-0.48333	-1.2625	-1.3417	-0.39375	-1.4771	152.109	231.616	252.050	-31.362	43.395	-6.688	-20.718	286.475	85.606	296.213	19.725	239.916	115.239	-26.589	145.577	166.361	0.00073934	0.0036917	0.00049338	603.74	1.7434e-05	6.1604e-05	728.91	194.13	6.3839e-06	1.9232e-05	310.13	119.05	66.674	31.53	2.4482e-05	64.809	0.0057118	0.0056356	0.0014821	986.93	6.7889e-05	6.3538e-05	1100.6	304.07	6.8335e-05	6.1436e-05	481.6	182.4	158.39	51.853	5.5605e-05	91.964	192.804	278.531	-17.175	-23.231	106.630	27.491	-23.597	-18.252	186.851	29.893	-19.673	-14.668	-13.854	-9.987	43.380	-11.282	-8191	255	
2852.444	1	1	0	0	0.10604	0.19975	0.21563	0.10146	0.22132	0.029137	0.045352	0.092641	0.1495	0.37524	0.37864	0.32877	0.045211	0.46409	0.17642	0.36484	-0.42917	-0.71458	-1.2292	-0.56875	-1.2313	-1.1646	-0.70625	-1.3771	-0.8625	-0.80833	-1.6313	-0.74792	-0.96042	-1.325	-0.51875	-1.4958	87.581	54.224	84.153	303.673	154.684	9.422	267.105	18.056	7.237	300.812	270.369	-32.053	141.945	165.522	196.026	280.603	0.00028572	0.0029985	0.00046171	607.88	6.8626e-06	3.5497e-06	722.68	194.18	9.7363e-06	1.6502e-05	309.41	120.99	67.155	31.404	7.3788e-06	65.316	0.0060913	0.005581	0.0014849	1032.6	6.8496e-05	6.2293e-05	1095.4	315.29	6.8567e-05	5.9321e-05	479.9	189.46	156.06	51.395	5.51e-05	94.722	139.790	322.352	-30.414	-23.079	18.576	96.986	-23.460	-18.411	56.498	15.212	-19.560	-14.978	-15.062	-9.908	161.775	-11.038	-8191	255	
2852.540	1	1	0	0	0.34196	0.21013	0.11031	0.086553	0.16071	0.20469	0.12313	0.32014	0.22024	0.026494	0.07324	0.19581	0.21893	0.15067	0.14908	0.13639	-0.55833	-0.61875	-1.3917	-0.57292	-1.3	-1.2979	-0.625	-1.4875	-1.0146	-0.60417	-1.6313	-0.88333	-1.2042	-1.45	-0.56458	-1.4854	237.496	268.804	227.224	11.398	36.447	-17.323	242.044	265.569	288.126	14.902	69.999	17.852	264.199	228.154	294.943	240.005	0.00010279	0.00099002	0.00046415	612.24	2.0224e-05	1.3129e-05	724.77	195.94	1.1499e-05	2.3638e-05	308.47	121.4	67.829	31	2.1839e-05	64.296	0.005973	0.0054354	0.0015014	1079.3	6.6992e-05	6.2486e-05	1113.7	327.81	6.8552e-05	6.0208e-05	491.45	198.88	156.45	51.587	5.9908e-05	96.495	-19.312	134.099	50.872	-23.683	54.794	-18.268	-23.307	-18.132	109.536	61.229	-19.454	-14.629	-14.832	-10.247	190.004	-11.680	-8191	255	
2852.660	1	1	0	0	0.06241	0.22855	0.074604	0.044597	0.22698	0.29286	0.15884	0.092365	0.13468	0.23966	0.088599	0.23908	0.1722	0.16613	0.10507	0.26965	-0.58542	-0.6125	-1.5042	-0.92292	-0.87292	-1.3854	-0.48333	-1.5729	-1.1521	-0.78125	-1.6187	-1	-0.91458	-1.475	-0.66875	-1.325	100.379	-14.524	303.151	154.275	139.571	241.836	275.385	-33.001	175.305	-6.041	4.746	49.768	157.437	264.455	263.091	241.192	0.00014833	0.00074183	0.0006087	604.29	2.2974e-05	4.927e-05	713.78	193.35	1.5702e-05	6.812e-06	306.26	119.2	66.843	30.723	2.8469e-05	64.174	0.0059567	0.0054541	0.0016261	1115.5	6.5409e-05	6.2913e-05	1148.5	331.25	6.7146e-05	5.9634e-05	507.64	200.93	154.45	51.386	6.7661e-05	97.465	150.034	-3.064	121.229	-23.634	65.115	26.504	-23.212	-18.247	56.113	33.297	-19.668	-15.594	-13.976	-9.951	177.343	-11.493	-8191	255	
2852.756	1	1	0	0	0.13504	0.39679	0.15319	0.051322	0.12054	0.12466	0.033953	0.28264	0.069271	0.11746	0.17473	0.056575	0.21049	0.10771	0.039068	0.16299	-0.79792	-0.55417	-1.5312	-0.79792	-0.62917	-1.4604	-0.69792	-1.1938	-1.2062	-0.60208	-1.4333	-1.1333	-0.73333	-1.6417	-0.57083	-1.225	153.111	126.981	30.879	272.439	211.842	163.570	247.639	204.126	244.164	276.787	238.563	-26.858	148.756	286.839	158.797	256.701	0.00031978	0.00095798	0.0011057	607.5	1.5468e-05	1.166e-05	717.16	194.79	1.1817e-05	1.4374e-05	305.47	118.85	65.926	30.657	3.0394e-05	64.584	0.0059897	0.0055742	0.001817	1131	6.5419e-05	6.4006e-05	1206.9	330.82	6.6948e-05	5.995e-05	523.1	198.31	149.47	50.948	7.0825e-05	94.524	215.405	199.022	115.772	-23.509	34.065	42.561	-22.886	-18.662	67.889	-9.347	-19.171	-15.234	-14.371	-9.955	201.730	-11.338	-8191	255	
2852.853	1	1	0	0	0.19741	0.2888	0.36061	0.15716	0.15038	0.056616	0.3282	0.16402	0.08262	0.14154	0.25487	0.13655	0.17721	0.34233	0.14837	0.35618	-0.78542	-0.47917	-1.4167	-0.93125	-0.56458	-1.2104	-0.60208	-0.95625	-1.4021	-0.46458	-1.5417	-1.0792	-0.50625	-1.6583	-0.69583	-0.96667	83.426	293.320	69.806	126.748	136.105	-16.858	-33.725	183.867	152.248	183.357	305.735	-21.127	60.465	251.944	298.675	245.709	0.00012804	0.00037825	0.00047916	607.57	1.5135e-05	2.8211e-05	724.46	195.28	4.6373e-06	1.4706e-05	306.63	119.68	66.62	30.952	9.8381e-06	64.83	0.0056279	0.0054058	0.0018342	1085.4	6.0336e-05	6.2064e-05	1215.3	317.51	6.2349e-05	5.9677e-05	522.46	191.33	143.67	51.278	7.1434e-05	92.442	133.316	77.643	162.406	-24.122	29.305	202.534	-23.066	-18.639	59.515	192.830	-19.656	-15.492	-14.861	-9.104	172.069	-11.395	-8191	255	
2852.949	1	1	0	0	0.26459	0.17807	0.1634	0.14867	0.18674	0.082048	0.17315	0.1209	0.032955	0.19779	0.029884	0.13754	0.19088	0.36064	0.23757	0.3015	-1.2	-0.4875	-1.0667	-0.8875	-0.63125	-1.4438	-0.82708	-0.98333	-1.5438	-0.58333	-1.2437	-1.2104	-0.38958	-1.525	-0.63125	-1.0271	43.114	153.682	78.806	-35.507	113.784	261.280	49.138	271.811	234.145	185.642	174.466	313.594	145.905	100.329	116.397	296.310	0.00015846	0.0039153	0.00087719	603.98	4.9769e-06	5.3838e-05	725.42	193.78	1.3178e-05	4.168e-05	307.39	118.02	65.768	30.692	4.9017e-06	64.34	0.0053805	0.0056648	0.0018313	1053.6	5.7509e-05	6.5004e-05	1210.1	306.3	5.9582e-05	6.2788e-05	511.31	184.87	137.78	52.045	6.7357e-05	89.051	82.079	118.035	289.767	-23.969	75.746	198.053	-23.186	-18.439	70.616	186.494	-19.767	-15.084	-14.438	-9.597	77.718	-11.420	-8191	255	
2853.043	1	1	0	0	0.01846	0.22393	0.25705	0.28112	0.070385	0.05404	0.20144	0.11523	0.37917	0.28672	0.096652	0.071703	0.12039	0.16737	0.24954	0.23733	-1.125	-0.70833	-1.1479	-1.4354	-0.52708	-1.3583	-1.0333	-0.71875	-1.3188	-0.65208	-1.1167	-1.4417	-0.53958	-1.2854	-0.81458	-0.5875	2.501	48.985	-13.121	-25.236	218.156	237.932	276.208	-20.663	290.486	14.942	34.668	283.843	262.903	230.833	20.627	-18.337	0.00024217	0.0025587	0.00066522	599.18	1.5708e-05	4.7271e-05	717.09	190.75	1.695e-05	1.6741e-05	305.93	118.39	65.958	31.451	3.542e-05	64.877	0.0049888	0.0057924	0.0016586	1011.1	5.3258e-05	6.4834e-05	1163.5	295.17	5.5963e-05	6.4585e-05	492.36	180.6	136.38	52.916	6.2977e-05	88.27	126.947	121.150	312.331	-23.982	208.001	157.913	-23.384	-18.686	244.501	202.789	-19.487	-15.271	-13.877	-9.709	39.759	-11.266	-8191	255	
2853.139	1	1	0	0	0.21903	0.17205	0.20762	0.45329	0.25171	0.093561	0.11282	0.17658	0.17078	0.025013	0.15121	0.22757	0.099505	0.14703	0.24287	0.2221	-1.0417	-0.83333	-0.975	-1.4646	-0.325	-1.4458	-0.98333	-0.52292	-1.4854	-0.61875	-1.05	-1.4042	-0.52083	-1.2208	-1.1812	-0.56042	166.061	135.824	11.239	249.838	243.254	194.099	135.584	291.547	118.888	287.005	290.405	292.594	272.440	248.604	291.926	116.120	0.00054704	0.00066472	0.00083846	606.89	2.3259e-05	2.5196e-05	724.02	193.36	2.1049e-05	1.3587e-05	309.29	119.24	66.03	32.028	1.7686e-05	65.862	0.0049505	0.0060406	0.0015538	994.56	5.5192e-05	6.691e-05	1143.3	292.34	5.8544e-05	6.7868e-05	484.98	180.65	143.08	53.99	6.2035e-05	89.064	192.820	176.541	319.007	-23.654	236.297	173.045	-23.855	-18.840	198.513	236.226	-19.788	-15.186	-13.285	-10.011	46.928	-11.440	-8191	255	
2853.260	1	1	0	0	0.10269	0.01942	0.18	0.18286	0.21971	0.25796	0.19848	0.30312	0.05155	0.19538	0.13653	0.07499	0.10162	0.063469	0.24406	0.40486	-1.1354	-0.61667	-0.72708	-1.4667	-0.75625	-1.3875	-1.3438	-0.9125	-1.3167	-0.6875	-0.78958	-1.6979	-0.52708	-1.2583	-1.0833	-0.78125	48.027	147.696	207.718	312.663	285.838	256.123	286.052	291.412	316.270	246.618	-29.077	-14.082	242.911	186.128	43.557	274.428	0.00071915	0.0010142	0.00078669	605.02	3.6812e-05	3.6824e-05	722.16	193.52	1.8734e-05	1.2612e-05	307.57	119.75	66.314	31.962	2.2897e-05	65.454	0.0054739	0.0063775	0.0015415	1004.5	6.1992e-05	6.8928e-05	1150.2	295.1	6.5924e-05	7.0015e-05	485.54	182.5	154.21	54.326	6.2878e-05	89.528	195.537	2.714	256.449	-23.577	216.701	18.146	-23.588	-18.644	252.071	12.286	-19.530	-15.101	-13.654	-10.335	29.477	-11.162	-8191	255	
2853.356	1	1	0	0	0.294	0.079528	0.050156	0.02567	0.33005	0.091946	0.065494	0.13278	0.20556	0.19372	0.18758	0.090186	0.10499	0.30756	0.25826	0.33842	-0.99375	-0.79375	-0.66667	-1.5083	-0.50417	-1.0958	-1.3396	-0.66458	-1.4104	-1.1292	-0.73542	-1.5771	-0.83958	-1.0146	-1.2083	-0.58958	107.004	112.552	171.449	3.898	62.153	197.322	179.350	322.470	232.302	56.363	55.760	20.096	240.524	184.433	306.668	257.842	0.00053765	0.0024696	0.00064815	602.53	2.0568e-05	4.687e-05	714.76	190.35	1.015e-05	2.6318e-05	305.99	118.13	65.171	31.801	8.7405e-06	64.818	0.0060466	0.0063919	0.0015282	1011.2	6.8308e-05	6.7077e-05	1143.1	296.71	7.0136e-05	6.797e-05	478.03	182.97	159.57	53.219	6.1442e-05	90.493	201.599	20.454	313.930	-23.331	242.993	-0.530	-23.123	-18.317	241.256	50.648	-19.891	-14.986	-13.350	-10.191	87.487	-11.085	-8191	255	
2853.452	1	1	0	0	0.39243	0.034707	0.26152	0.13514	0.14166	0.095619	0.033668	0.086127	0.027048	0.0094585	0.14267	0.018572	0.046019	0.44646	0.1633	0.12122	-0.95208	-0.93125	-0.39375	-1.5479	-0.8625	-1.0292	-1.5187	-0.41458	-1.2333	-1.3354	-0.60208	-1.5917	-0.89583	-0.79583	-1.4292	-0.80833	-27.552	85.066	158.393	249.620	-18.652	122.043	268.452	42.499	228.665	74.482	305.392	49.515	262.719	-35.768	-4.145	50.343	0.0002309	0.0025284	0.00048599	597.75	4.32e-06	4.7291e-05	714.32	189.37	2.2952e-06	2.2996e-05	304.19	117.38	65.906	31.738	4.6459e-06	64.986	0.0063203	0.0061746	0.0015008	1037.1	7.2816e-05	6.5111e-05	1141.4	307.27	7.3249e-05	6.7524e-05	477.37	189.55	163.64	52.491	6.1867e-05	93.635	167.915	301.716	285.897	-23.395	32.508	13.326	-23.306	-18.091	76.939	3.169	-20.103	-14.729	-14.269	-10.420	295.754	-11.157	-8191	255	
2853.548	1	1	0	0	0.23874	0.088541	0.071527	0.17647	0.11258	0.12527	0.34346	0.21235	0.17643	0.10357	0.25037	0.18179	0.20977	0.33663	0.071363	0.16622	-0.83125	-1.0688	-0.44375	-1.3604	-0.90417	-0.75208	-1.5063	-0.67708	-1.0812	-1.0625	-0.72708	-1.3813	-1.1	-0.84375	-1.5604	-0.78958	288.290	291.472	-32.301	82.789	181.568	289.844	180.724	255.567	27.375	64.377	323.229	83.515	282.830	292.972	12.977	213.041	0.00010001	0.0020179	0.00019989	603.22	1.7075e-05	3.0431e-05	719.52	189.88	3.7054e-06	1.398e-05	303.82	117.01	65.566	30.721	2.7357e-05	63.837	0.0063354	0.0060267	0.0014633	1073.5	7.1772e-05	6.2122e-05	1132.3	317.48	6.9976e-05	6.4508e-05	472.47	192.66	157.77	50.384	5.9213e-05	93.949	301.130	-0.882	16.297	-23.106	78.421	82.148	-23.325	-17.873	97.924	5.989	-19.703	-14.382	-14.888	-10.149	226.284	-10.793	-8191	255	
2853.645	1	1	0	0	0.19029	0.12255	0.041733	0.07503	0.044219	0.0062747	0.21807	0.24132	0.061909	0.10051	0.15045	0.20845	0.18561	0.23133	0.083101	0.34597	-0.67708	-1.3042	-0.35833	-1.3062	-0.93542	-0.75833	-1.5583	-0.76042	-0.9	-1.3354	-0.54583	-1.5271	-1.1292	-0.46875	-1.3875	-0.76667	54.797	133.673	277.949	264.523	43.714	217.387	248.014	27.660	14.367	10.104	-33.735	62.761	87.073	308.761	84.120	226.142	0.000279	0.001809	0.00014364	601.65	2.848e-05	2.4105e-05	719.32	192.07	3.0196e-05	1.36e-05	301.11	117.11	65.233	30.032	5.8824e-05	62.948	0.0058606	0.0057315	0.001455	1089.1	6.8104e-05	5.9557e-05	1132.1	323.63	6.5411e-05	6.2457e-05	478.78	194.74	154.67	49.31	6.3181e-05	95.214	-2.041	16.931	190.831	-23.355	59.218	70.239	-22.962	-18.325	79.237	18.524	-18.864	-15.028	-14.813	-10.042	209.808	-11.427	-8191	255	
#DATA ENDS
