BOXY.EXE: ISS Imagent and Oximeter Data Acquisition Program Version 0.80
Ascii Record File

#ACQ INFORMATION
2  Detector Channels 
16  External MUX Channels 
1  Auxiliary Channels 
5000  Waveform (CCF) Frequency (Hz)
1  Waveforms Skipped 
30  Waveforms Averaged 
1  Cycles Averaged 
16  Acquisitions per Waveform 
10.0806  Updata Rate (Hz) 

#FILE INFORMATION
TRUE -- External MUX Channel results are PARSED.
FALSE -- AC DC and Phase are NOT grouped.
TRUE -- Companion Program Settings File CREATED.
FALSE -- AC data not excluded
FALSE -- DC data not excluded
FALSE -- Phase data not excluded
FALSE -- Auxillary Chn. data not excluded
Tab delimiters

#CALIBRATION STATE
TRUE -- Waveform Calibration Values APPLIED.


#AUX CALIBRATION VALUES
Val Type	aux-1	

Term	1.0000e+00	
Factor	0.0000e+00	


#WF CALIBRATION VALUES
A = Detector Channel
Val Type	A-AC1	A-AC2	A-AC3	A-AC4	A-AC5	A-AC6	A-AC7	A-AC8	A-AC9	A-AC10	A-AC11	A-AC12	A-AC13	A-AC14	A-AC15	A-AC16	A-DC1	A-DC2	A-DC3	A-DC4	A-DC5	A-DC6	A-DC7	A-DC8	A-DC9	A-DC10	A-DC11	A-DC12	A-DC13	A-DC14	A-DC15	A-DC16	A-Ph1	A-Ph2	A-Ph3	A-Ph4	A-Ph5	A-Ph6	A-Ph7	A-Ph8	A-Ph9	A-Ph10	A-Ph11	A-Ph12	A-Ph13	A-Ph14	A-Ph15	A-Ph16	

Term	0.00000e+00	0.00000e+00	0.00000e+00	0.00000e+00	0.00000e+00	0.00000e+00	0.00000e+00	0.00000e+00	0.00000e+00	0.00000e+00	0.00000e+00	0.00000e+00	0.00000e+00	0.00000e+00	0.00000e+00	0.00000e+00	0.00000e+00	0.00000e+00	0.00000e+00	0.00000e+00	0.00000e+00	0.00000e+00	0.00000e+00	0.00000e+00	0.00000e+00	0.00000e+00	0.00000e+00	0.00000e+00	0.00000e+00	0.00000e+00	0.00000e+00	0.00000e+00	0.00000e+00	0.00000e+00	0.00000e+00	0.00000e+00	0.00000e+00	0.00000e+00	0.00000e+00	0.00000e+00	0.00000e+00	0.00000e+00	0.00000e+00	0.00000e+00	0.00000e+00	0.00000e+00	0.00000e+00	0.00000e+00	
Factor	1.00000e+00	1.00000e+00	1.00000e+00	1.00000e+00	1.00000e+00	1.00000e+00	1.00000e+00	1.00000e+00	1.00000e+00	1.00000e+00	1.00000e+00	1.00000e+00	1.00000e+00	1.00000e+00	1.00000e+00	1.00000e+00	1.00000e+00	1.00000e+00	1.00000e+00	1.00000e+00	1.00000e+00	1.00000e+00	1.00000e+00	1.00000e+00	1.00000e+00	1.00000e+00	1.00000e+00	1.00000e+00	1.00000e+00	1.00000e+00	1.00000e+00	1.00000e+00	X	X	X	X	X	X	X	X	X	X	X	X	X	X	X	X	

B = Detector Channel
Val Type	B-AC1	B-AC2	B-AC3	B-AC4	B-AC5	B-AC6	B-AC7	B-AC8	B-AC9	B-AC10	B-AC11	B-AC12	B-AC13	B-AC14	B-AC15	B-AC16	B-DC1	B-DC2	B-DC3	B-DC4	B-DC5	B-DC6	B-DC7	B-DC8	B-DC9	B-DC10	B-DC11	B-DC12	B-DC13	B-DC14	B-DC15	B-DC16	B-Ph1	B-Ph2	B-Ph3	B-Ph4	B-Ph5	B-Ph6	B-Ph7	B-Ph8	B-Ph9	B-Ph10	B-Ph11	B-Ph12	B-Ph13	B-Ph14	B-Ph15	B-Ph16	

Term	0.00000e+00	0.00000e+00	0.00000e+00	0.00000e+00	0.00000e+00	0.00000e+00	0.00000e+00	0.00000e+00	0.00000e+00	0.00000e+00	0.00000e+00	0.00000e+00	0.00000e+00	0.00000e+00	0.00000e+00	0.00000e+00	0.00000e+00	0.00000e+00	0.00000e+00	0.00000e+00	0.00000e+00	0.00000e+00	0.00000e+00	0.00000e+00	0.00000e+00	0.00000e+00	0.00000e+00	0.00000e+00	0.00000e+00	0.00000e+00	0.00000e+00	0.00000e+00	-4.62441e+01	-1.32572e+02	-1.29572e+02	-1.81597e+02	-4.15668e+01	-5.83256e+01	-1.56500e+02	-1.62015e+02	-3.67652e+01	-6.24913e+01	-1.72056e+02	-1.69104e+02	-1.85187e+02	-1.76509e+02	-5.71229e+01	-1.48960e+02	
Factor	2.03475e-05	1.44044e-04	3.70300e-05	1.49915e-01	1.81671e-06	1.56856e-06	1.65062e-01	4.98778e-02	1.21743e-06	1.38476e-06	8.58732e-02	2.76831e-02	2.39861e-02	8.83716e-03	1.25044e-06	1.25509e-02	3.11720e-06	3.47186e-06	9.65345e-07	7.81745e-02	3.75463e-08	3.82462e-08	8.07447e-02	2.60758e-02	3.75634e-08	3.82832e-08	4.31824e-02	1.40095e-02	1.25879e-02	4.64319e-03	3.78202e-08	6.36179e-03	X	X	X	X	X	X	X	X	X	X	X	X	X	X	X	X	



#DISTANCE SETTINGS
A = Detector Channel
A-1	A-2	A-3	A-4	A-5	A-6	A-7	A-8	A-9	A-10	A-11	A-12	A-13	A-14	A-15	A-16	

2.5000e+00	3.0000e+00	2.5000e+00	3.0000e+00	2.0000e+00	3.0000e+00	1.5000e+00	3.0000e+00	3.0000e+00	3.0000e+00	3.0000e+00	3.0000e+00	3.0000e+00	3.0000e+00	1.5000e+00	3.0000e+00	

B = Detector Channel
B-1	B-2	B-3	B-4	B-5	B-6	B-7	B-8	B-9	B-10	B-11	B-12	B-13	B-14	B-15	B-16	

1.0000e+01	1.0000e+01	1.0000e+01	1.4400e+00	1.0000e+01	1.0000e+01	1.5100e+00	1.9400e+00	1.0000e+01	1.0000e+01	1.9900e+00	2.4900e+00	2.4100e+00	2.9000e+00	1.0000e+01	2.9800e+00	




#DATA BEGINS
time	group	step	mark	flag	A-AC1	A-AC2	A-AC3	A-AC4	A-AC5	A-AC6	A-AC7	A-AC8	A-AC9	A-AC10	A-AC11	A-AC12	A-AC13	A-AC14	A-AC15	A-AC16	A-DC1	A-DC2	A-DC3	A-DC4	A-DC5	A-DC6	A-DC7	A-DC8	A-DC9	A-DC10	A-DC11	A-DC12	A-DC13	A-DC14	A-DC15	A-DC16	A-Ph1	A-Ph2	A-Ph3	A-Ph4	A-Ph5	A-Ph6	A-Ph7	A-Ph8	A-Ph9	A-Ph10	A-Ph11	A-Ph12	A-Ph13	A-Ph14	A-Ph15	A-Ph16	B-AC1	B-AC2	B-AC3	B-AC4	B-AC5	B-AC6	B-AC7	B-AC8	B-AC9	B-AC10	B-AC11	B-AC12	B-AC13	B-AC14	B-AC15	B-AC16	B-DC1	B-DC2	B-DC3	B-DC4	B-DC5	B-DC6	B-DC7	B-DC8	B-DC9	B-DC10	B-DC11	B-DC12	B-DC13	B-DC14	B-DC15	B-DC16	B-Ph1	B-Ph2	B-Ph3	B-Ph4	B-Ph5	B-Ph6	B-Ph7	B-Ph8	B-Ph9	B-Ph10	B-Ph11	B-Ph12	B-Ph13	B-Ph14	B-Ph15	B-Ph16	aux-1	digaux	

14635.202	1	1	0	768	0.18885	0.09596	0.14543	0.39617	0.26387	0.37286	0.28054	0.1719	0.16564	0.32869	0.099889	0.22238	0.15154	0.038646	0.21495	0.11261	0.0625	-0.62292	-1.1625	-0.46667	-0.84583	-0.78333	-0.4625	-1.2437	-0.54792	-0.65417	-1.1146	-0.26042	-1.0063	-0.99583	-0.22708	-1.1646	-103.824	53.485	137.810	198.095	117.576	189.174	175.366	-71.555	-86.604	-149.748	153.218	99.681	-26.519	-148.750	-42.708	-70.763	0.00027029	0.00048052	0.00014039	865.2	8.0439e-07	2.2852e-06	554.02	287.67	1.037e-06	3.5103e-06	173.97	60.71	98.735	41.316	2.738e-07	28.129	0.00070817	0.00074627	0.00021056	870.58	8.2408e-06	8.2007e-06	562.73	290.91	8.2672e-06	8.0894e-06	179.75	62.971	100.9	42.143	8.2299e-06	29.058	-81.839	0.071	-73.277	-142.559	22.191	13.346	-144.861	-137.589	170.339	12.876	-142.019	-137.077	-133.658	-129.918	21.041	-134.949	-8191	255	
14635.298	1	1	0	0	0.14475	0.035673	0.10151	0.17321	0.22107	0.044028	0.16905	0.17246	0.27846	0.096746	0.33823	0.041538	0.14634	0.059986	0.086823	0.15547	-0.016667	-0.47917	-1.1938	-0.19375	-0.86458	-0.98958	-0.26875	-1.0583	-0.45208	-0.39375	-1.1646	-0.3	-0.79792	-1.1458	-0.28542	-1.1875	161.552	89.532	7.343	141.968	31.774	-30.300	-37.135	-129.190	-99.788	-147.475	-123.176	30.550	-92.675	58.107	-40.424	-22.956	0.00021975	0.00022058	0.00026758	861.59	2.4483e-06	1.2561e-06	550.78	288.13	2.3726e-06	3.2715e-06	173.25	60.842	99.269	41.105	2.9865e-06	28.125	0.00069947	0.00074074	0.00020641	867.78	8.0215e-06	8.0472e-06	559.97	290.96	8.0581e-06	8.1625e-06	178.98	62.708	100.99	42.056	8.1363e-06	29.095	-68.051	-1.354	-80.689	-142.477	45.028	-54.170	-144.806	-137.963	-34.550	-5.122	-141.819	-137.464	-133.806	-130.201	-64.715	-134.997	-8191	255	
14635.394	1	1	0	0	0.16855	0.20485	0.087204	0.17409	0.28468	0.3171	0.17813	0.31374	0.27042	0.062459	0.16225	0.084591	0.35047	0.26019	0.060178	0.20361	-0.33542	-0.64375	-1.0646	-0.4875	-0.84792	-1.1313	-0.4125	-1.1854	-0.78125	-0.43333	-1.1938	-0.60625	-0.63958	-1.1812	-0.15208	-0.99167	130.226	103.468	-49.764	176.611	201.938	24.491	-8.396	196.693	-58.476	-116.249	2.351	-97.409	175.529	188.609	137.638	64.454	0.00024255	0.00024738	0.00016708	860.82	3.5147e-06	5.6852e-06	551.93	287.33	3.1112e-06	3.6572e-06	174.48	60.169	99.022	41.21	4.1289e-07	28.289	0.00069476	0.00073936	0.00020411	866.88	8.0435e-06	8.0465e-06	559.33	290.59	8.0193e-06	8.0646e-06	179.32	62.32	100.38	41.951	8.1859e-06	29.089	-78.090	-88.497	-74.785	-142.436	-8.540	40.989	-144.828	-137.975	48.963	0.956	-141.720	-137.353	-133.671	-130.099	-62.986	-134.723	-8191	255	
14635.490	1	1	0	0	0.072203	0.17178	0.19556	0.16139	0.06188	0.22374	0.39306	0.12708	0.10365	0.13359	0.15898	0.12917	0.12658	0.012149	0.099991	0.079767	-0.50833	-0.27292	-1.1167	-0.7375	-0.41042	-1.125	-0.35417	-0.9125	-0.8	-0.26458	-1.3479	-0.66458	-0.54375	-1.3042	-0.43125	-0.81875	0.288	-13.294	-93.285	69.206	-68.776	155.389	130.869	136.120	74.340	93.472	-99.229	149.584	135.794	-60.339	-153.476	-73.559	0.00028326	0.00047038	0.00014089	855.04	8.3099e-06	3.581e-06	551.65	288.41	5.4499e-06	4.655e-06	172.97	60.273	97.991	41.279	4.124e-06	28.13	0.0006939	0.00074293	0.00020683	865.76	7.995e-06	8.1304e-06	562.13	290.95	7.9689e-06	8.1037e-06	179.06	62.451	100.39	42.008	8.0968e-06	29.162	-81.186	-74.540	-106.565	-142.343	41.504	-67.102	-144.584	-138.168	-7.030	-49.350	-141.717	-137.646	-133.695	-129.895	14.236	-134.549	-8191	255	
14635.587	1	1	0	0	0.21971	0.17828	0.22332	0.29923	0.23313	0.24882	0.10399	0.19658	0.11749	0.10828	0.25854	0.02973	0.24866	0.1452	0.27297	0.079532	-0.4875	-0.083333	-1.1521	-0.62083	-0.37917	-1.3521	-0.40625	-0.92292	-0.90208	-0.33125	-1.1729	-0.68125	-0.49375	-1.1479	-0.5875	-0.62917	50.620	188.193	39.112	-93.916	198.393	-111.930	202.066	95.428	-3.743	-141.083	134.239	-34.773	183.873	159.962	152.025	-125.202	0.00026827	9.5187e-05	7.647e-05	863.04	3.1258e-06	4.3778e-06	555.74	288.3	3.6315e-06	2.7299e-06	173.46	60.356	98.901	41.058	2.2949e-06	28.187	0.0006893	0.0007421	0.00020652	869.62	8.0429e-06	8.0731e-06	563.57	291.56	8.0386e-06	8.1726e-06	179.89	62.637	100.72	41.835	8.0757e-06	28.985	-73.758	-66.836	-16.448	-142.464	26.476	29.474	-144.735	-137.887	7.560	84.615	-141.590	-137.746	-133.549	-129.879	-39.999	-134.950	-8191	255	
14635.683	1	1	0	0	0.10804	0.26388	0.094967	0.29073	0.066563	0.22404	0.12052	0.1005	0.1651	0.30479	0.14891	0.36547	0.23676	0.24337	0.20329	0.13259	-0.73125	-0.14167	-0.86875	-0.77917	-0.32292	-1.1208	-0.50417	-0.75833	-0.87917	-0.022917	-0.98333	-0.6375	-0.50625	-1.1917	-0.55625	-0.57292	-97.206	-110.396	-138.039	188.088	-41.208	102.128	-13.964	191.378	108.077	178.676	-102.035	181.366	163.458	-142.147	-58.452	57.502	0.00025697	0.0002964	6.5894e-05	861.18	3.8451e-06	3.17e-06	550.53	286.65	7.8316e-07	3.9207e-06	172	59.808	98.683	41.071	3.5136e-06	27.877	0.00068038	0.00074139	0.00020505	867.53	7.9051e-06	8.1433e-06	560.03	290.08	7.8181e-06	8.087e-06	178.41	62.147	100.4	41.884	8.0201e-06	28.811	-79.835	-71.192	197.822	-142.399	6.674	19.410	-144.852	-137.956	-88.923	47.003	-141.503	-137.461	-133.725	-130.355	-17.380	-134.649	-8191	255	
14635.803	1	1	0	0	0.076564	0.2954	0.14255	0.41603	0.33954	0.23115	0.053194	0.18346	0.1694	0.13696	0.087718	0.11233	0.21795	0.12223	0.29262	0.083745	-0.9	-0.24792	-0.85	-0.97708	-0.19583	-1.025	-0.67292	-0.5375	-1.1313	-0.38542	-0.775	-0.975	-0.24792	-1.2583	-0.6125	-0.52917	-136.022	106.956	17.925	-131.614	-123.775	-69.990	45.909	164.418	-87.139	43.501	24.787	97.580	188.802	190.948	18.455	-147.741	0.00031338	0.00052484	4.9558e-05	861.5	4.7198e-06	6.1955e-06	549.43	286.58	5.4353e-06	2.7105e-06	172.71	60.144	98.773	41.025	7.4407e-06	27.86	0.00068232	0.00072703	0.00020385	867	7.9601e-06	8.0922e-06	558.79	289.76	7.9097e-06	8.173e-06	178.68	62.23	100.49	41.827	7.9952e-06	28.838	-64.340	-123.084	176.283	-142.523	-67.374	-39.584	-144.978	-138.034	-20.947	-78.751	-141.730	-137.333	-133.421	-130.240	-28.275	-134.847	-8191	255	
14635.898	1	1	0	0	0.1716	0.1053	0.094779	0.11261	0.32572	0.25973	0.23644	0.14297	0.061598	0.16318	0.089569	0.16971	0.25223	0.085435	0.14649	0.32591	-0.57292	-0.11667	-0.7375	-1.1854	-0.16875	-1.0333	-0.6625	-0.40625	-1.0542	-0.44375	-0.7	-0.94792	-0.175	-0.98542	-0.87083	-0.32708	58.138	-136.621	128.882	-144.035	-58.175	35.414	15.791	158.731	-118.421	75.116	-140.217	57.306	-77.745	-136.683	-81.405	-136.827	0.00023744	0.00054927	8.6226e-05	863.72	7.9627e-06	6.8858e-07	553.19	286.72	6.9045e-06	4.093e-06	173.79	59.978	98.528	41.124	1.8349e-06	27.803	0.00068371	0.00074077	0.00020472	869.12	7.9967e-06	8.0091e-06	561.38	290.18	8.0439e-06	8.0865e-06	179.34	62.392	100.28	41.863	8.0142e-06	28.944	-90.297	-83.982	7.828	-142.658	71.518	-45.179	-144.402	-137.764	-35.672	-15.721	-141.737	-137.481	-133.660	-129.977	169.216	-134.690	-8191	255	
14635.994	1	1	0	0	0.11626	0.095522	0.17374	0.20768	0.12147	0.070626	0.11847	0.12039	0.14539	0.23367	0.15006	0.15288	0.18209	0.31998	0.22179	0.16792	-0.8	-0.15833	-0.41042	-1.25	-0.15833	-0.95833	-0.77917	-0.1875	-1.025	-0.5125	-0.44375	-1.0729	-0.35625	-0.95208	-0.97292	-0.45833	-3.026	14.268	191.162	187.423	78.340	6.897	131.705	80.846	98.592	-132.231	-93.766	-37.848	194.553	-130.304	107.925	175.261	0.00030422	0.00040083	0.00010286	862.85	5.0985e-06	1.6824e-06	552.39	286.1	4.4959e-06	6.9704e-07	173.79	60.304	98.432	40.778	2.6974e-06	28.048	0.00069247	0.00074488	0.00020307	868.52	8.0412e-06	8.1142e-06	562.67	289.61	8.1395e-06	8.0374e-06	179.37	62.414	100.32	41.74	8.0752e-06	28.91	-65.818	-107.065	54.155	-142.696	-9.262	2.950	-144.751	-138.008	44.366	52.696	-141.820	-137.299	-133.913	-130.010	160.174	-134.758	-8191	255	
14636.090	1	1	0	0	0.092915	0.10841	0.24859	0.14106	0.23669	0.23295	0.15009	0.21023	0.067984	0.1685	0.22097	0.17272	0.022932	0.24666	0.1406	0.13949	-0.75	-0.48333	-0.375	-1.3563	-0.42917	-0.70625	-0.89792	-0.39792	-1.2354	-0.525	-0.425	-1.1625	-0.38542	-0.77708	-0.91875	-0.18542	29.341	147.584	-109.483	154.221	77.622	164.437	75.951	141.600	79.299	92.502	141.089	120.283	32.763	198.418	17.447	190.395	0.00027736	0.00078399	0.00010588	860.07	3.6163e-06	5.9149e-06	550.38	287.14	7.1009e-06	3.0358e-06	172.52	59.605	98.462	40.632	3.1929e-06	27.686	0.00069382	0.00073612	0.00020426	866.78	8.1566e-06	8.1064e-06	559.21	289.43	7.9515e-06	8.1294e-06	178.24	61.986	99.878	41.555	8.0871e-06	28.653	-68.755	-82.721	-89.018	-142.712	2.943	17.202	-144.559	-138.218	9.981	10.377	-141.396	-137.504	-133.660	-130.072	45.210	-134.925	-8191	255	
14636.186	1	1	0	0	0.18354	0.070079	0.01069	0.20648	0.17571	0.25914	0.16951	0.25322	0.17073	0.20459	0.079248	0.17988	0.23478	0.11834	0.072278	0.089186	-0.74167	-0.67292	-0.28958	-1.4937	-0.29375	-0.73333	-1.0479	-0.37917	-1.1229	-0.76042	-0.28542	-1.1396	-0.37292	-0.6875	-1.0708	-0.37917	22.243	-99.252	197.765	194.343	65.676	54.129	-1.330	100.618	105.608	-5.478	119.802	-143.191	-70.352	172.225	39.392	170.468	0.00026883	0.00059703	0.00010591	858.51	7.2244e-06	1.4236e-06	549.09	285.05	4.7773e-07	1.2918e-06	171.93	59.23	97.972	40.95	1.6446e-06	27.618	0.00068685	0.00074713	0.00020679	865.13	8.0607e-06	8.1256e-06	558.18	288.81	8.0032e-06	8.1433e-06	177.71	61.765	99.682	41.613	8.0102e-06	28.704	-65.337	-45.418	-14.204	-142.549	52.066	-17.016	-144.859	-138.028	110.074	1.320	-142.045	-137.556	-133.770	-129.923	-43.441	-134.600	-8191	255	
14636.282	1	1	0	0	0.40533	0.29298	0.29138	0.17229	0.19207	0.15494	0.13881	0.35769	0.15052	0.21163	0.23015	0.25165	0.24582	0.19301	0.20813	0.058134	-0.38125	-0.89167	0.022917	-1.3854	-0.40208	-0.54375	-1.1646	-0.38542	-0.80833	-0.89583	-0.28125	-1.2271	-0.63333	-0.725	-1.1479	-0.47917	-125.510	-113.403	199.420	122.585	53.649	10.717	155.515	-147.928	16.254	-4.603	-42.317	135.299	86.210	146.890	-109.568	-151.471	0.00023161	0.0002571	0.00011368	857.22	5.8334e-06	3.2535e-06	550.19	285.74	3.1954e-06	2.0882e-06	172.55	60.277	98.37	40.915	5.4454e-06	27.975	0.00068597	0.00072613	0.00020464	863.94	8.0174e-06	8.0913e-06	559.79	289.25	8.0103e-06	8.1387e-06	178.18	62.351	100.22	41.777	8.1666e-06	28.82	-60.841	75.375	-7.236	-142.371	22.575	-102.194	-144.504	-137.830	-58.984	-42.092	-141.777	-137.358	-133.792	-130.352	-102.535	-134.922	-8191	255	
14636.403	1	1	0	0	0.12264	0.13304	0.061759	0.1404	0.12471	0.1079	0.27442	0.47389	0.08565	0.059446	0.31579	0.16181	0.048795	0.32549	0.16967	0.070716	-0.57083	-1.225	-0.22708	-1.3167	-0.49167	-0.13958	-1.0938	-0.49167	-0.70833	-1.0917	-0.16458	-1.1104	-0.76667	-0.28333	-1.4854	-0.21875	-35.830	63.064	100.954	-142.296	171.905	-39.515	169.049	183.847	185.313	178.067	-144.006	-42.320	63.036	-89.448	166.978	-151.523	0.00025742	9.264e-05	9.3887e-05	858.82	3.4547e-06	8.1406e-07	553.19	287.05	5.4795e-06	2.9515e-06	173.37	60.119	98.724	40.965	5.5901e-06	27.915	0.00068806	0.00073893	0.00020561	868.95	8.0483e-06	8.2167e-06	562.44	289.93	8.0811e-06	8.0879e-06	179.49	62.386	100.16	41.784	8.1472e-06	28.873	-58.197	-88.853	-29.787	-142.995	52.628	196.795	-144.784	-138.183	24.793	79.315	-142.256	-137.821	-134.088	-130.605	22.728	-135.419	-8191	255	
14636.499	1	1	0	0	0.28693	0.19702	0.15007	0.25041	0.034515	0.26201	0.39003	0.25899	0.13926	0.1617	0.045876	0.24099	0.46837	0.16674	0.022709	0.21848	-0.11042	-1.0875	-0.0375	-1.0646	-0.7625	-0.2625	-1.3875	-0.44375	-0.66667	-1.1229	-0.38333	-0.94167	-0.97708	-0.38958	-1.0583	-0.36458	-0.512	186.411	139.565	115.532	130.053	110.977	150.579	188.523	36.175	84.791	-76.200	188.104	150.177	167.758	-125.267	101.465	0.00019731	0.00059601	0.00010163	859.59	2.7341e-06	7.4737e-06	550.76	285.41	1.9523e-06	2.818e-06	172.86	59.673	97.772	40.537	5.1132e-06	27.468	0.00068456	0.00073822	0.000207	866.85	7.9338e-06	8.0646e-06	560.53	288.7	7.9761e-06	8.114e-06	177.52	61.767	99.675	41.417	7.9581e-06	28.44	-60.116	-155.633	-60.168	-142.987	38.072	23.814	-145.014	-138.462	-45.440	-47.341	-142.116	-137.592	-133.988	-130.519	-57.625	-135.594	-8191	255	
14636.595	1	1	0	0	0.20829	0.082478	0.23229	0.20752	0.080307	0.15505	0.083983	0.081537	0.18792	0.16167	0.1043	0.29155	0.04988	0.22865	0.13272	0.17627	-0.060417	-1.0896	-0.066667	-0.69792	-0.96667	-0.16458	-1.2292	-0.62708	-0.38125	-1.1875	-0.32292	-0.57083	-0.81875	-0.275	-0.97708	-0.77708	51.652	126.938	74.065	176.444	-137.850	69.166	-76.846	145.550	-91.124	-111.828	5.657	53.486	122.081	180.425	75.558	143.730	0.00031049	0.00085485	7.9533e-05	857.93	1.8736e-06	4.9894e-06	547.6	284.8	2.871e-06	6.2405e-06	170.78	59.974	97.859	40.786	1.8876e-06	27.59	0.0006888	0.00074191	0.00020317	863.9	8.06e-06	8.0551e-06	556.35	288.22	7.9931e-06	8.0546e-06	177.28	61.812	99.88	41.513	8.0499e-06	28.521	-69.240	-24.106	-29.562	-142.775	16.339	-11.289	-144.919	-138.471	17.372	-23.673	-142.695	-137.571	-134.058	-130.361	-23.010	-135.245	-8191	255	
14636.692	1	1	0	0	0.082365	0.27856	0.11735	0.20261	0.094384	0.18135	0.15705	0.19699	0.027629	0.24552	0.10992	0.028432	0.22697	0.14251	0.2585	0.14476	0.0125	-0.90833	-0.39167	-0.76042	-1.1604	-0.35833	-1.0292	-0.80833	-0.21667	-1.1042	-0.44792	-0.72708	-1.1854	-0.14583	-0.93333	-1.0167	143.175	-72.134	192.961	192.173	-19.891	57.152	8.734	148.230	95.850	-136.752	187.413	-51.607	-87.752	-0.579	-0.843	148.277	0.00032611	0.00089054	0.00023898	855.32	5.3225e-06	6.7638e-06	545.68	283.94	2.7741e-06	2.4161e-06	171	59.748	97.632	40.579	4.4363e-06	27.472	0.00068839	0.00073721	0.00020205	862.76	7.9823e-06	8.0407e-06	556.27	287.76	8.0241e-06	7.9359e-06	177.59	61.994	99.504	41.43	7.8582e-06	28.565	-66.800	-15.589	-149.651	-142.813	73.841	90.410	-144.538	-138.399	-14.636	-48.204	-142.164	-137.713	-134.200	-130.503	-18.736	-134.978	-8191	255	
14636.763	1	1	0	0	0.2438	0.02681	0.15533	0.31579	0.22699	0.24165	0.13352	0.1684	0.021149	0.14139	0.048948	0.26147	0.16932	0.21239	0.086924	0.16289	0.55208	-1.1625	-0.50417	-0.64792	-1.3	-0.15625	-0.96042	-1.0292	-0.24375	-1.3563	-0.64583	-0.47708	-1.2458	-0.25833	-0.5875	-0.96458	145.037	-136.843	55.394	171.661	-45.516	110.690	102.824	93.044	67.190	130.095	-93.276	-152.928	109.360	-137.383	-41.529	60.067	0.00024384	0.00048439	0.00012754	855.5	5.0711e-06	4.1403e-06	549.22	286.49	1.7467e-06	3.2443e-06	171.54	60.43	98.311	40.744	5.0852e-06	27.593	0.00068032	0.00072624	0.00020185	863.06	7.8994e-06	8.1071e-06	558.4	288.77	8.038e-06	8.1182e-06	177.94	62.381	99.865	41.586	8.0316e-06	28.769	-61.204	-81.851	1.476	-142.528	-15.596	-53.106	-145.150	-138.505	-77.629	-54.398	-141.851	-137.600	-134.013	-130.304	4.717	-135.249	-8191	255	
14636.882	1	1	0	0	0.15326	0.10671	0.17549	0.18629	0.040877	0.075199	0.13299	0.26749	0.2404	0.15794	0.17797	0.28858	0.18253	0.30502	0.28558	0.19736	0.14375	-0.98333	-0.32292	-0.47083	-1.0854	-0.37917	-0.9125	-1.0479	-0.46667	-1.1125	-0.6	-0.375	-0.94583	-0.36667	-0.81875	-0.99167	78.508	-110.099	190.467	192.685	156.099	-22.324	137.479	139.537	-113.977	-145.481	107.181	112.853	5.715	106.544	-92.450	-140.003	0.00026283	0.00050302	6.6072e-06	857.72	3.5765e-06	2.0618e-06	549.37	286.68	2.7083e-06	5.0106e-06	171.2	59.48	98.008	40.848	4.5628e-06	27.605	0.00069501	0.0007347	0.00020565	865.3	7.9328e-06	8.077e-06	560.22	289.48	8.1053e-06	8.0435e-06	178.1	61.902	99.681	41.489	7.9771e-06	28.526	-67.862	-90.330	-144.972	-142.979	35.158	-139.008	-144.884	-138.554	-40.149	-25.057	-141.983	-137.469	-134.018	-130.514	-10.575	-135.508	-8191	255	
14636.978	1	1	0	0	0.070292	0.091604	0.20301	0.24333	0.13893	0.18161	0.076998	0.17739	0.091999	0.14155	0.033267	0.23849	0.1333	0.27665	0.29286	0.010915	0.1375	-1.0479	-0.95	-0.60208	-0.90417	-0.45833	-0.69792	-1.2667	-0.19375	-0.84167	-0.61875	-0.27292	-1.2167	-0.54583	-0.42917	-1.2417	45.719	144.533	130.316	180.950	2.277	66.737	136.797	111.269	-83.487	-116.422	36.502	175.958	193.427	121.559	21.715	-124.877	0.00026509	0.00022871	0.00014758	855.44	4.8301e-06	6.2617e-06	546.54	284.69	2.9646e-06	3.7339e-06	172.21	59.425	97.605	40.674	2.9206e-06	27.592	0.00068204	0.00072884	0.00020155	863.49	7.9186e-06	7.9767e-06	557.11	288.24	7.8777e-06	8.1117e-06	177.55	61.56	99.47	41.419	7.9428e-06	28.488	-74.765	197.627	-79.520	-143.026	-34.321	-21.155	-144.944	-138.263	-5.551	70.366	-142.103	-137.745	-134.245	-130.475	-14.429	-135.158	-8191	255	
14637.074	1	1	0	0	0.050567	0.05205	0.27062	0.17944	0.32379	0.41707	0.02529	0.20068	0.062508	0.1626	0.12797	0.32982	0.1769	0.12199	0.028824	0.16561	0.27083	-0.86875	-0.76875	-0.45417	-0.95417	-0.56042	-0.525	-1.3375	0.0041667	-0.81875	-1.0438	-0.34167	-1.1708	-0.72292	-0.29375	-1.2687	-110.198	-118.760	-89.798	-146.161	-123.190	113.202	181.936	-24.153	-155.042	192.229	-42.380	-142.517	191.914	-88.631	-19.980	67.844	0.00032854	0.00027055	9.7093e-05	851.23	2.6187e-06	2.5449e-06	548.09	286.13	4.3525e-06	4.9171e-06	171.6	59.402	97.933	40.671	2.9841e-06	27.495	0.00069155	0.00071973	0.0001998	860.84	7.8063e-06	8.0507e-06	557.46	288.85	7.9462e-06	8.0069e-06	177.3	61.717	99.528	41.389	7.8895e-06	28.52	-67.586	-43.786	-45.032	-142.864	83.622	102.789	-145.195	-138.128	-5.553	-45.776	-141.931	-137.386	-133.742	-130.353	-123.977	-135.205	-8191	255	
14637.195	1	1	0	0	0.12823	0.24797	0.26545	0.2726	0.1094	0.089123	0.41264	0.059072	0.29847	0.11024	0.24607	0.20627	0.12288	0.052524	0.088847	0.14985	0.0020833	-0.76875	-1.0812	-0.30625	-1.1792	-0.62083	-0.11458	-1.2708	-0.45	-0.50833	-0.98125	-0.21458	-1.2021	-0.64792	-0.10625	-1.2812	15.658	83.838	177.576	-137.522	174.419	1.433	161.387	156.063	170.382	-97.014	-142.842	155.521	197.791	126.509	-92.376	-89.341	0.00021719	0.00039131	0.00010213	853.43	4.0052e-06	4.1082e-06	549.56	284.62	4.1034e-06	4.8975e-06	172.29	60.011	98.161	40.77	2.3802e-06	27.891	0.00067523	0.00071201	0.00020071	862.52	7.8215e-06	7.8722e-06	559.15	288.09	7.7555e-06	7.9173e-06	178.53	62.207	99.775	41.615	7.8452e-06	28.768	-64.697	-41.696	-65.978	-142.626	-41.362	5.412	-144.876	-138.350	110.043	-32.160	-141.743	-137.181	-133.822	-130.385	-39.525	-134.639	-8191	255	
14637.291	1	1	0	0	0.07751	0.23142	0.16588	0.1743	0.052576	0.22175	0.3414	0.17537	0.14447	0.10273	0.10177	0.21219	0.3594	0.14636	0.17461	0.14282	-0.066667	-0.59167	-0.90208	-0.45208	-0.98125	-1	-0.14167	-1.3687	-0.44375	-0.41458	-1.1125	-0.23958	-1.0708	-0.925	-0.35625	-0.95208	34.622	-111.362	-7.628	-152.203	56.052	-11.081	131.420	123.909	-24.997	-124.315	-33.090	-101.857	169.629	29.991	-114.204	195.606	0.00027809	0.00042885	0.00010615	854.63	3.1322e-06	1.6031e-06	552.03	286.43	7.5508e-06	2.1879e-06	173.36	60.252	98.361	40.897	1.3943e-06	27.822	0.00068102	0.00072976	0.00020294	863.85	7.7792e-06	7.9239e-06	561.18	289.74	7.9436e-06	8.0777e-06	179.15	62.225	100.14	41.679	8.0486e-06	28.71	-67.434	-45.107	-37.624	-142.886	-0.266	-30.595	-144.533	-138.216	-74.977	64.537	-141.694	-137.603	-133.926	-130.233	-41.787	-135.219	-8191	255	
14637.363	1	1	0	0	0.19339	0.39251	0.31956	0.020974	0.14478	0.2435	0.02742	0.21009	0.14238	0.17968	0.2757	0.20238	0.5072	0.29376	0.12006	0.1736	-0.03125	-0.37708	-1.0187	-0.16042	-0.79375	-0.85417	-0.43542	-1.2437	-0.57708	-0.35625	-1.0958	-0.4	-0.81458	-1.125	-0.19583	-1.075	77.011	-96.051	-33.964	198.133	13.126	185.919	129.821	162.367	-97.454	-37.908	37.917	-140.821	183.777	-31.850	203.428	-83.594	0.00034534	0.00014088	5.9983e-05	855.2	5.6941e-06	7.5489e-06	550.79	286.66	4.1519e-06	4.4895e-06	170.95	60.159	97.776	40.647	2.1069e-06	27.959	0.00068404	0.00072637	0.00019935	862.74	7.8154e-06	7.9084e-06	559.94	289.08	7.7861e-06	8.1175e-06	178.26	62.082	99.645	41.597	8.0155e-06	28.802	-57.879	-41.200	-18.049	-142.789	27.304	-56.570	-144.814	-138.171	-13.351	18.209	-141.902	-137.691	-133.682	-130.432	7.740	-135.100	-8191	255	
14637.483	1	1	0	0	0.10559	0.12643	0.094377	0.42391	0.23843	0.30304	0.21801	0.14285	0.13866	0.19493	0.10618	0.076296	0.023726	0.10138	0.18819	0.26349	-0.1875	-0.21875	-1.1313	-0.73125	-0.7	-1.1354	-0.29167	-1.1292	-0.74167	-0.375	-1.2625	-0.41875	-0.69583	-1.2333	-0.22917	-1.0333	-108.851	33.359	-53.783	136.413	35.822	-32.918	201.058	143.695	-71.803	34.571	131.593	-61.289	42.563	-19.841	116.690	-85.326	0.00029241	9.514e-05	0.00014208	856.14	6.522e-06	4.0901e-06	553.6	285.93	8.3679e-06	8.1106e-07	173.58	60.19	98.137	40.808	3.0411e-06	27.713	0.00068477	0.00072571	0.00020383	863.02	7.978e-06	8.0986e-06	561.12	289.19	7.8734e-06	8.0052e-06	178.96	62.074	99.618	41.595	7.9592e-06	28.676	-81.699	106.749	-69.708	-142.515	44.637	-92.934	-144.722	-138.260	-14.209	96.306	-141.691	-137.519	-133.751	-130.093	15.832	-134.674	-8191	255	
14637.580	1	1	0	0	0.12002	0.023844	0.15406	0.26945	0.18172	0.29702	0.12888	0.072861	0.13191	0.12009	0.061133	0.13583	0.21105	0.032134	0.094214	0.08677	-0.49792	-0.26042	-1.1812	-0.54792	-0.52292	-1.0917	-0.52292	-1.0604	-1.0792	-0.24375	-1.2146	-0.61458	-0.55625	-1.1729	-0.31667	-0.73333	-132.793	-57.249	-71.192	143.618	-31.483	199.862	-104.308	37.650	159.250	25.977	-81.946	62.673	-108.730	191.116	-42.969	175.880	0.00023292	0.0002104	0.00011687	858.87	5.0278e-06	2.7514e-06	555.53	284.52	2.4422e-06	1.5633e-06	172.98	60.149	98.271	40.858	4.2012e-06	27.865	0.00067973	0.00073658	0.00020203	863.38	7.9648e-06	7.9838e-06	563.2	288.68	7.9318e-06	8.1159e-06	178.93	62.257	99.809	41.675	8.0558e-06	28.764	-72.018	-64.981	-47.079	-142.547	-2.482	-50.348	-144.622	-137.881	-68.287	-51.395	-141.388	-137.365	-133.599	-130.242	9.543	-134.754	-8191	255	
14637.676	1	1	0	0	0.22218	0.391	0.18867	0.1387	0.15544	0.063638	0.21185	0.097055	0.26418	0.29853	0.14149	0.18808	0.13202	0.14969	0.08977	0.21067	-0.55208	-0.19167	-1.1208	-0.77083	-0.64583	-1.3458	-0.52917	-0.92917	-0.9375	-0.15417	-1.1292	-0.63958	-0.40417	-1.2021	-0.2375	-0.71667	-150.321	-65.534	161.874	185.317	130.561	194.216	-153.660	-58.281	-80.898	-108.521	130.400	119.978	129.256	153.477	-103.423	151.786	0.00023809	9.1954e-05	0.00011036	856.99	1.5101e-06	6.2678e-06	551.12	285.82	6.3893e-06	3.8032e-06	173.1	59.772	97.863	40.849	2.4064e-06	27.893	0.00068846	0.00073243	0.00020356	864.37	8.0506e-06	8.2268e-06	563.4	289.68	8.0875e-06	8.0986e-06	179.94	62.26	100.01	41.705	8.07e-06	28.83	-77.316	-109.712	48.988	-142.620	-76.438	-46.647	-144.825	-138.199	-28.175	32.689	-142.308	-137.574	-133.698	-130.164	100.582	-134.604	-8191	255	
14637.796	1	1	0	0	0.14297	0.16549	0.13036	0.27677	0.12711	0.14587	0.024653	0.042127	0.21256	0.17144	0.041862	0.045953	0.16942	0.025356	0.23791	0.13877	-0.75	-0.21458	-0.93333	-1.0021	-0.3125	-1.1708	-0.45	-0.71042	-1.1125	-0.18333	-0.88125	-0.7625	-0.40833	-1.0854	-0.41667	-0.4375	-30.717	66.078	-41.956	124.585	-144.247	-77.830	-35.432	-100.859	50.122	196.604	-90.996	-97.375	188.033	-86.612	149.777	57.916	0.00032372	0.00055973	8.4453e-05	860.74	5.0866e-06	5.3864e-06	549.07	285.8	6.2829e-06	6.4022e-06	172.28	59.881	98.019	40.561	5.8668e-06	27.622	0.0006908	0.00073133	0.0002031	864.75	8.0416e-06	8.0302e-06	560.89	289.09	8.0377e-06	8.2429e-06	178.03	61.879	99.745	41.494	8.0829e-06	28.575	-85.593	-104.530	-40.964	-142.680	20.110	-67.933	-144.854	-138.226	-19.172	-91.576	-141.416	-137.425	-133.491	-130.222	-45.783	-135.146	-8191	255	
14637.891	1	1	0	0	0.24282	0.087287	0.10439	0.17039	0.14354	0.25239	0.18679	0.20868	0.11059	0.1227	0.19632	0.034209	0.1015	0.069116	0.20127	0.2474	-0.77917	-0.18125	-0.88125	-0.87917	0.016667	-1.2292	-0.675	-0.4125	-1.2167	-0.33125	-0.82083	-0.96042	-0.28333	-1.3333	-0.7375	-0.325	12.437	-80.199	-103.849	127.908	-33.896	194.277	-97.089	143.596	-12.550	137.292	-52.895	-56.338	-103.440	-140.137	-57.792	95.857	0.0002863	0.00044877	0.00011862	853.66	5.0488e-06	4.8777e-06	548.63	286.74	2.9932e-06	4.4487e-06	172.48	60.342	97.946	40.866	4.4464e-06	27.361	0.00069715	0.00073491	0.00020439	862.23	8.0405e-06	8.1183e-06	558.27	289.35	8.0173e-06	7.9832e-06	178.59	62.105	99.908	41.55	8.0053e-06	28.489	-80.017	-61.254	-73.931	-142.569	-25.001	-130.770	-144.447	-138.102	-97.276	17.857	-142.088	-137.831	-133.816	-130.232	-43.161	-135.068	-8191	255	
14637.987	1	1	0	0	0.36838	0.37228	0.26918	0.15026	0.2716	0.096772	0.04959	0.31099	0.08543	0.028383	0.062994	0.29401	0.17486	0.051013	0.074475	0.04117	-0.69167	-0.15625	-0.64375	-1	-0.18542	-0.94375	-0.78333	-0.42917	-1.0104	-0.48333	-0.66458	-0.9875	-0.36875	-0.93333	-0.64792	-0.175	-28.044	-78.653	10.778	115.314	46.229	180.975	167.323	187.118	-53.556	-53.595	124.563	114.570	202.163	31.868	-17.855	27.565	0.00022212	0.00044399	3.445e-05	858.04	1.4099e-06	2.3075e-06	553.63	286.37	5.1608e-06	6.3785e-06	171.96	59.554	98.457	40.734	1.6527e-06	27.773	0.00068236	0.00072868	0.00020544	863.32	7.9277e-06	7.9421e-06	561.47	289.75	8.0372e-06	8.0944e-06	179.12	62.136	100.19	41.653	8.0386e-06	28.779	-81.051	-72.253	141.452	-142.742	-106.927	177.556	-144.576	-138.210	111.390	31.147	-141.717	-137.753	-133.844	-130.067	-86.372	-135.238	-8191	255	
14638.059	1	1	0	0	0.10599	0.18949	0.18234	0.14652	0.080603	0.082496	0.15542	0.19351	0.084041	0.042712	0.30119	0.19545	0.14008	0.11263	0.22315	0.0078989	-0.78958	-0.3125	-0.33333	-1.2521	-0.2	-0.86042	-0.9125	-0.0625	-1.1021	-0.52917	-0.7375	-1.0917	-0.3375	-1.1104	-0.97708	-0.26667	-125.157	195.507	-90.455	-128.464	90.145	-149.048	121.993	194.010	-154.938	-123.344	125.104	114.432	73.405	57.906	127.828	102.835	0.00025321	0.00093116	0.00011216	857.5	1.5872e-06	8.2791e-06	553.01	286.5	5.3643e-06	2.0304e-06	173.07	60.438	98.339	40.865	3.1588e-06	27.85	0.00068628	0.00073364	0.00020553	864.41	8.0516e-06	8.1136e-06	562.71	289.67	7.9961e-06	8.1073e-06	179.91	62.482	100.34	41.695	8.0449e-06	28.852	-65.092	-57.157	-63.985	-142.472	-133.967	4.979	-144.872	-137.831	-25.153	-27.945	-141.842	-137.373	-133.518	-129.944	-7.582	-135.090	-8191	255	
14638.179	1	1	0	0	0.24977	0.26374	0.059334	0.30328	0.12445	0.07912	0.16505	0.21768	0.086942	0.23435	0.029629	0.30189	0.097741	0.087039	0.19575	0.10455	-0.75833	-0.55625	-0.36042	-1.2771	-0.26458	-0.63125	-1.0688	-0.26667	-0.95625	-0.6375	-0.46458	-1.1396	-0.525	-0.77708	-1.0479	-0.19375	120.870	6.057	-24.473	-155.149	97.681	117.440	-61.143	-40.398	109.974	-146.063	-138.356	167.295	91.328	129.307	113.031	-96.159	0.00023267	0.00025199	0.00015133	857.6	8.7315e-06	3.022e-06	553.12	286.93	2.4631e-06	1.3281e-06	172.78	59.669	97.992	40.696	1.6932e-06	27.489	0.00069269	0.00072441	0.00020805	864.35	7.9998e-06	8.0435e-06	562.97	289.68	8.1009e-06	7.9836e-06	178.9	62.046	99.985	41.421	8.0167e-06	28.473	-75.548	-62.591	-113.811	-142.609	25.685	98.371	-144.588	-137.781	33.185	92.008	-141.734	-137.387	-133.744	-130.188	-51.268	-134.895	-8191	255	
14638.275	1	1	0	0	0.0017677	0.12894	0.28875	0.26671	0.11596	0.04763	0.23626	0.27363	0.24605	0.1045	0.23947	0.23338	0.28407	0.096702	0.21877	0.13743	-0.54167	-0.7375	-0.2375	-1.1083	-0.27292	-0.55417	-1.0542	-0.2375	-1.1125	-0.9	-0.275	-1.2271	-0.53958	-0.675	-0.9875	-0.16042	180.000	-88.765	-65.541	157.577	72.285	-148.391	147.964	-44.401	-125.318	169.178	190.185	183.958	131.496	21.774	-43.030	74.681	0.0002274	0.00020521	0.00016586	849.51	7.2602e-06	4.0359e-06	547.43	284.92	7.003e-06	6.0777e-06	171.94	59.202	97.894	40.58	4.2026e-06	27.237	0.00068982	0.00073424	0.00020405	860.47	8.0751e-06	7.9933e-06	558.32	288.6	8.0102e-06	8.0559e-06	177.58	61.499	99.668	41.358	7.8922e-06	28.307	-91.119	195.968	-91.541	-142.988	-72.366	-18.563	-144.651	-138.260	-26.369	0.374	-142.160	-137.547	-134.079	-130.187	-14.515	-135.040	-8191	255	
14638.372	1	1	0	0	0.3432	0.096759	0.079348	0.16472	0.16613	0.21996	0.17145	0.16372	0.19469	0.23188	0.29784	0.028637	0.084935	0.40115	0.22661	0.30388	-0.62917	-0.96875	-0.089583	-1.2521	-0.30625	-0.5	-1.1521	-0.23333	-0.91458	-0.96875	-0.19583	-1.1042	-0.43333	-0.425	-1.1667	-0.45	107.165	-34.745	-137.596	98.009	-131.549	136.860	26.178	-88.051	66.438	16.623	201.920	-87.798	-132.799	-142.218	101.346	-119.170	0.00025867	0.00044381	9.5618e-05	855.49	6.0256e-06	3.825e-06	552.34	284.54	7.3793e-06	7.2386e-06	171.4	59.27	97.377	40.25	2.0459e-06	27.061	0.00067831	0.00072054	0.00020288	860.52	7.9114e-06	8.0646e-06	559.26	287.4	7.9773e-06	8.0913e-06	177.47	61.473	99.003	41.1	7.9369e-06	28.163	-72.922	-74.908	52.736	-142.859	-5.683	162.872	-144.839	-138.098	-0.812	-40.710	-141.441	-137.571	-133.866	-130.341	-51.037	-135.332	-8191	255	
14638.468	1	1	0	0	0.050817	0.22021	0.26356	0.13396	0.13925	0.3635	0.038388	0.071788	0.06121	0.063318	0.12083	0.12373	0.1427	0.36263	0.13673	0.094437	-0.49792	-0.81042	-0.15417	-1.2792	-0.65208	-0.30625	-1.2292	-0.51667	-0.71458	-1.1292	-0.10417	-0.96042	-0.6375	-0.42292	-1.2854	-0.21875	109.112	-31.281	6.001	155.270	35.041	166.850	159.175	185.865	-46.143	170.535	160.950	-128.012	152.421	176.681	-135.126	-20.319	0.00029022	0.00022549	0.00011507	850.17	4.7956e-06	3.1438e-06	548.6	284.19	4.9877e-06	4.4875e-06	171.96	59.481	96.491	40.143	2.3663e-06	27.274	0.0006787	0.00072212	0.00020031	861.98	7.9549e-06	7.9595e-06	558.35	287.58	7.876e-06	7.9926e-06	177.43	61.291	98.461	40.952	8.116e-06	28.163	-65.692	-95.029	-22.556	-142.662	-16.224	-101.380	-144.923	-138.209	-6.587	-3.853	-141.577	-137.372	-133.961	-130.185	-10.742	-135.296	-8191	255	
14638.588	1	1	0	0	0.15346	0.2595	0.25143	0.25416	0.11994	0.31777	0.19035	0.14815	0.18905	0.106	0.1604	0.20611	0.074721	0.14552	0.16065	0.14592	-0.3	-0.97083	-0.16667	-1.2021	-0.69792	-0.23333	-1.1917	-0.46875	-0.57083	-1.175	-0.17708	-0.94167	-0.92708	-0.08125	-1.1542	-0.57292	115.085	153.251	96.854	202.263	30.132	160.053	120.207	193.846	193.815	-55.736	33.110	106.489	88.944	135.150	85.443	164.350	0.00021648	0.00068047	2.8205e-05	855.99	6.4812e-06	5.4717e-06	552.2	284.8	1.1401e-06	2.5892e-06	170.17	59.091	96.538	39.985	8.7031e-07	27.122	0.00069217	0.00073566	0.00020465	862.5	8.0427e-06	8.2562e-06	560.5	287.56	8.0562e-06	8.2172e-06	177.2	61.206	98.501	40.918	7.9999e-06	28.039	-70.823	-64.215	-134.020	-142.813	37.949	-11.380	-144.825	-138.322	202.280	-28.092	-141.665	-137.736	-134.175	-130.480	-17.225	-135.426	-8191	255	
14638.660	1	1	0	0	0.22959	0.15598	0.2386	0.3943	0.27032	0.11568	0.085033	0.2045	0.079936	0.12585	0.14979	0.028185	0.19549	0.10635	0.26042	0.09181	-0.15625	-0.94792	-0.15208	-0.84375	-0.8625	-0.2	-1.0708	-0.6	-0.16875	-1.3438	-0.38333	-0.8125	-0.95625	-0.22292	-0.84583	-0.50833	160.651	38.414	176.825	134.074	-11.362	102.012	0.130	179.900	-48.863	127.134	48.703	123.352	136.629	-155.383	-70.336	100.271	0.00024563	0.00027223	0.00013091	853	3.2273e-06	2.9303e-06	545.37	282.87	7.5018e-06	1.5798e-06	170.1	58.692	96.677	39.804	6.2935e-06	26.888	0.00068016	0.00072864	0.00020311	860.34	7.958e-06	7.9956e-06	555.29	286.74	8.064e-06	7.9616e-06	176.28	60.734	98.444	40.659	7.9524e-06	27.805	-77.344	-108.449	1.954	-142.744	68.801	67.486	-144.912	-138.340	-37.607	25.249	-141.773	-137.481	-133.751	-130.264	-6.149	-135.037	-8191	255	
14638.756	1	1	0	0	0.0075236	0.30775	0.23398	0.12423	0.24808	0.1551	0.10183	0.11109	0.35838	0.30938	0.060264	0.16624	0.17006	0.35202	0.12723	0.076819	-0.054167	-0.98125	-0.20833	-0.83125	-1.0938	-0.24375	-1.1146	-0.67917	-0.35625	-1.2062	-0.38958	-0.78333	-1.1729	-0.36875	-0.9	-0.84375	77.263	-40.132	-36.768	180.851	105.072	201.072	51.303	-75.497	39.467	-74.341	103.234	167.728	161.271	136.953	50.723	67.538	0.00024499	0.00015428	6.2033e-05	852.43	6.6926e-06	6.6461e-06	545.45	284.25	1.241e-06	4.9664e-06	170.29	59.046	97.492	39.944	2.7365e-06	27.018	0.00069639	0.00072266	0.00020369	860.74	7.9383e-06	8.0165e-06	555.37	287.25	7.9805e-06	8.0199e-06	175.81	61.148	99.086	40.836	8.0227e-06	28.021	-57.444	-14.545	-145.984	-142.326	-18.468	-63.113	-144.569	-138.103	-40.888	112.754	-141.906	-137.729	-133.857	-130.041	14.921	-134.631	-8191	255	
14638.877	1	1	0	0	0.19166	0.10387	0.22225	0.19279	0.30812	0.30026	0.31656	0.27856	0.17042	0.038779	0.034112	0.11736	0.062036	0.045827	0.2104	0.29295	0.039583	-1.2104	-0.325	-0.65	-1.1	-0.13125	-1.0292	-0.79792	-0.22708	-1.225	-0.61458	-0.63958	-1.1521	-0.40417	-1.0167	-1.1958	190.147	84.293	-136.767	28.451	155.104	74.894	171.648	140.444	-66.790	183.000	36.752	-26.282	-146.535	97.948	-28.738	125.627	0.00026473	0.00084634	1.2466e-05	855.99	3.967e-06	3.8349e-06	548.02	285.62	2.0562e-06	5.5888e-06	170.57	59.048	96.708	40.089	5.1995e-06	27.122	0.000682	0.00072267	0.00020229	862.12	7.8868e-06	7.9624e-06	556.94	287.94	7.8881e-06	7.9574e-06	176.44	61.27	98.989	40.856	7.9321e-06	28.096	-66.715	-87.262	-56.974	-142.619	57.080	-122.794	-144.650	-138.248	140.539	-27.186	-142.021	-137.457	-134.025	-130.307	-42.366	-134.990	-8191	255	
14638.971	1	1	0	0	0.074743	0.23011	0.26331	0.19655	0.15184	0.20107	0.13949	0.11945	0.17548	0.085178	0.19317	0.14772	0.14834	0.04334	0.43033	0.156	-0.029167	-1.0063	-0.62917	-0.49583	-1.2333	-0.2625	-0.82083	-1.0021	-0.075	-1.1	-0.57292	-0.22292	-1.2229	-0.28125	-0.65	-1.1437	147.583	175.215	113.183	-123.477	107.654	-47.154	40.735	-27.607	16.082	-134.300	-144.711	135.500	185.534	189.496	-61.762	-127.166	0.0002906	0.00071633	7.0978e-05	858.06	5.4785e-06	6.2482e-06	546.94	285.82	3.4374e-06	3.4683e-06	171.53	59.161	97.042	40.157	5.2226e-06	27.021	0.00067995	0.00072077	0.00020232	864.13	7.8199e-06	7.9959e-06	558.17	288.64	7.9497e-06	7.9416e-06	177.62	61.307	98.975	40.941	8.0912e-06	28.028	-74.380	-88.341	-65.568	-142.819	-3.268	-19.268	-144.952	-138.080	-56.173	-5.419	-141.604	-137.327	-133.773	-130.266	-56.181	-134.685	-8191	255	
14639.067	1	1	0	0	0.29484	0.050963	0.33074	0.050336	0.15222	0.19663	0.20027	0.12745	0.31359	0.20127	0.1694	0.13041	0.28526	0.21818	0.1445	0.42248	0.05	-0.9625	-0.58333	-0.39792	-1.2979	-0.57917	-0.74167	-1.1208	-0.17083	-1.0042	-0.61458	-0.19375	-1.1625	-0.50833	-0.49583	-1.2604	-93.668	-12.954	7.061	188.843	44.885	-104.327	117.387	-131.899	-50.832	141.145	-152.530	-55.517	112.698	-88.235	45.583	146.068	0.0002881	0.0007534	6.4796e-05	854.37	3.4806e-06	3.2294e-06	542.7	284.83	3.2156e-06	6.5892e-06	170.93	58.563	96.788	39.976	4.0019e-06	26.85	0.00067901	0.00071627	0.00020263	861.71	7.8348e-06	7.9174e-06	554.6	287.29	7.8378e-06	7.8201e-06	176.23	60.68	98.779	40.713	8.0544e-06	27.745	-96.733	-82.757	62.707	-142.458	-35.663	24.242	-144.845	-138.193	-6.984	-8.422	-142.021	-137.366	-133.842	-130.168	58.597	-134.984	-8191	255	
14639.163	1	1	0	0	0.36336	0.12224	0.2362	0.18773	0.25982	0.17701	0.061205	0.094001	0.34898	0.10282	0.14687	0.044871	0.084775	0.16312	0.21335	0.20078	0.225	-0.90417	-0.8375	-0.35	-1.0812	-0.68333	-0.41458	-1.2062	-0.4375	-0.71667	-0.90833	-0.25417	-0.975	-0.84583	-0.55208	-1.3208	151.726	73.322	116.265	-94.861	25.639	108.312	61.457	-6.152	176.939	56.609	-124.759	153.850	178.336	168.397	-49.341	-6.303	0.00023203	0.00056848	8.0589e-05	850.3	4.929e-06	3.3119e-06	544.13	285.14	2.7345e-06	5.5934e-06	170.23	58.395	96.378	39.663	5.1818e-06	26.708	0.00067239	0.00071811	0.00019862	858.15	7.8987e-06	7.9598e-06	552.09	287.08	7.8452e-06	7.8593e-06	175.4	60.595	98.661	40.598	7.8619e-06	27.775	-83.581	-86.734	57.602	-142.400	-6.102	-19.443	-144.472	-138.127	0.573	73.622	-141.602	-137.294	-133.805	-130.185	-9.936	-135.204	-8191	255	
14639.260	1	1	0	0	0.14378	0.28923	0.39989	0.072506	0.041043	0.2878	0.13814	0.25594	0.10453	0.18653	0.11444	0.041478	0.08809	0.11418	0.082344	0.16093	0.15208	-0.61875	-0.98333	-0.33125	-1.1146	-0.525	-0.43958	-1.3854	-0.4875	-0.65625	-1.0479	-0.0375	-0.95625	-0.70208	-0.13333	-1.1771	76.089	69.672	156.957	55.198	34.038	92.561	-116.981	159.021	-114.725	84.574	100.744	168.991	118.639	-137.785	166.293	117.123	0.00022996	0.00042562	0.00015298	849.97	1.3892e-06	5.5263e-06	545.21	283.9	5.6403e-06	4.7751e-06	170.75	58.815	97.016	40.019	4.2957e-06	27.097	0.00067337	0.00072212	0.00020245	857.9	7.8032e-06	7.9673e-06	553.68	287.03	7.836e-06	7.9848e-06	176.12	61.026	98.929	40.807	7.9894e-06	27.982	-62.273	-123.854	-91.457	-142.484	-5.960	-45.584	-145.283	-138.121	-22.087	-24.816	-142.074	-137.669	-133.780	-130.255	45.281	-134.542	-8191	255	
14639.356	1	1	0	0	0.24272	0.090065	0.19294	0.16962	0.086771	0.1194	0.10925	0.21748	0.18623	0.1558	0.24614	0.45005	0.20454	0.066315	0.10911	0.10366	0.10208	-0.6125	-1.0708	-0.38958	-0.85625	-0.81667	-0.34167	-1.3438	-0.65417	-0.58542	-1.1313	-0.42083	-1.0292	-0.94792	-0.29583	-0.95833	-1.206	-74.876	119.398	-115.461	-67.985	137.125	12.006	-145.928	-136.871	86.177	-28.756	85.894	-140.518	96.613	-9.229	-100.652	0.00019278	0.00060767	0.00020111	850.94	2.8853e-06	4.607e-06	545.48	283.18	7.2611e-06	7.0384e-06	170.93	59.08	97.469	40.164	1.7115e-06	27.032	0.00068784	0.00071431	0.00019998	860.1	7.8688e-06	8.0395e-06	555.6	287.54	7.9891e-06	8.0821e-06	176.87	61.305	99.145	41.012	8.0794e-06	28.058	-72.424	-119.512	-99.731	-142.671	-15.667	71.774	-144.994	-138.053	-11.732	-26.603	-141.919	-137.638	-133.562	-130.164	57.796	-134.623	-8191	255	
14639.476	1	1	0	0	0.12147	0.17087	0.26254	0.097078	0.21257	0.079276	0.29997	0.24307	0.32459	0.21179	0.074939	0.14767	0.18509	0.15268	0.18322	0.15861	-0.22708	-0.35625	-1.1896	-0.21875	-0.89375	-0.95417	-0.24792	-1.2458	-0.4875	-0.22708	-0.94375	-0.15208	-0.82292	-1.0292	-0.1375	-1.0208	81.670	-140.043	1.026	-54.782	-49.056	0.054	-149.041	158.586	69.658	201.641	170.992	-85.739	132.441	167.426	-35.452	-130.904	0.00026041	0.0004279	0.0001362	854.15	7.1625e-06	3.6638e-06	543.88	284.62	3.7451e-06	6.172e-06	170.45	58.26	97.557	39.907	3.9919e-06	26.835	0.00068435	0.00072584	0.00020349	860.21	7.9008e-06	8.1288e-06	554.3	287.71	7.9778e-06	8.0976e-06	175.56	60.783	98.991	40.68	7.9344e-06	27.754	-89.641	-46.227	-84.815	-142.796	-24.222	21.133	-144.683	-138.103	-3.928	-15.253	-142.193	-137.627	-133.540	-130.359	-37.854	-135.217	-8191	255	
14639.573	1	1	0	0	0.07553	0.13667	0.076646	0.25745	0.19055	0.10671	0.10613	0.37554	0.28877	0.078601	0.13799	0.053949	0.24551	0.38941	0.056517	0.1046	-0.06875	-0.21875	-1.2313	-0.38958	-0.57083	-1.1917	-0.36667	-0.96042	-0.80625	-0.24792	-1.2125	-0.4375	-0.7125	-1.2833	0.033333	-0.91458	-123.060	-73.494	110.890	182.211	-135.553	-155.954	116.706	154.023	3.215	-57.610	141.226	-142.005	113.903	-84.475	33.999	1.386	0.00036377	0.00071542	0.00010969	844.61	4.7604e-06	5.2989e-06	540.52	282.95	2.5353e-07	4.6393e-06	169.38	58.254	96.668	39.778	3.9058e-06	26.779	0.00069152	0.00073467	0.0002027	854.74	7.9283e-06	8.03e-06	550.72	286.25	7.9648e-06	7.9713e-06	174.92	60.424	98.471	40.595	7.9357e-06	27.678	-75.198	-86.869	-28.828	-142.554	-77.338	94.080	-144.658	-138.027	-19.900	65.658	-141.592	-137.387	-133.866	-130.179	-16.916	-134.897	-8191	255	
14639.669	1	1	0	0	0.14156	0.16852	0.21558	0.19143	0.12739	0.074764	0.024843	0.095474	0.24695	0.13913	0.30437	0.20503	0.15577	0.16422	0.1315	0.18132	-0.38125	-0.11458	-1.2354	-0.55833	-0.61458	-1.1979	-0.30625	-1.0208	-0.89375	-0.36458	-1.0625	-0.44792	-0.53542	-1.2208	-0.10208	-0.83542	96.605	-5.076	154.484	185.917	90.862	-112.223	3.913	65.650	-94.841	170.845	8.130	193.041	-111.165	107.740	43.463	161.081	0.00024169	0.00051613	8.4168e-05	847.84	6.2986e-06	2.3944e-06	543.38	283.56	3.6812e-06	4.2249e-06	169.28	58.462	96.481	39.687	4.5767e-06	26.775	0.00067255	0.00072952	0.00020108	856.78	7.9452e-06	8.0625e-06	551.63	286.34	7.9076e-06	7.9834e-06	175.45	60.491	98.418	40.587	8.0243e-06	27.748	-49.364	-101.643	64.676	-142.854	68.685	189.810	-145.029	-138.233	50.186	159.864	-141.819	-137.594	-134.015	-130.585	-31.141	-135.093	-8191	255	
14639.765	1	1	0	0	0.1023	0.13202	0.17729	0.040211	0.14847	0.28847	0.29269	0.15519	0.11224	0.069021	0.21021	0.3988	0.13273	0.29406	0.18009	0.27753	-0.51875	-0.12708	-0.86458	-0.63542	-0.225	-1.1229	-0.41458	-0.775	-0.9375	-0.14375	-1.0875	-0.47917	-0.25208	-1.0896	-0.125	-0.49375	-136.037	14.011	-120.030	145.170	151.931	-61.476	156.952	114.366	143.424	127.641	-100.373	22.746	163.360	-103.933	22.136	-136.454	0.00023202	0.00041156	9.9315e-05	847.93	6.392e-06	6.0653e-06	542.19	284.57	6.3504e-06	4.7861e-06	169.75	58.604	97.128	39.858	2.3862e-06	26.89	0.00067951	0.00073916	0.00020087	855.57	7.9337e-06	8.0234e-06	553.36	287.07	7.9331e-06	7.9623e-06	175.95	61.003	98.667	40.782	8.0505e-06	27.934	-62.859	13.353	-39.110	-143.044	-27.645	-36.697	-144.836	-138.318	-58.418	-19.094	-141.867	-137.669	-133.587	-130.235	-1.247	-135.004	-8191	255	
14639.884	1	1	0	0	0.3389	0.28466	0.027434	0.26925	0.18895	0.13496	0.27853	0.075465	0.13249	0.35982	0.25157	0.12093	0.34846	0.16222	0.1836	0.077193	-0.6875	0.03125	-0.85833	-0.67292	-0.05625	-1.2188	-0.425	-0.56458	-0.96667	-0.21458	-1.1729	-0.81042	-0.19792	-1.2417	-0.45833	-0.47917	109.482	-59.333	-38.922	196.928	66.231	48.845	-137.590	24.536	-136.728	71.391	202.077	-124.923	172.580	169.165	52.667	-150.412	0.00023774	0.00015434	0.00013288	854.23	3.2671e-06	7.7964e-06	546.56	284.28	2.0897e-06	5.5367e-06	170.4	58.871	96.944	39.985	2.1807e-06	26.965	0.00068205	0.00073224	0.0002027	858.98	7.8578e-06	7.988e-06	554.96	286.99	7.9691e-06	8.0675e-06	176.76	60.938	98.685	40.792	8.0792e-06	27.883	-87.151	-143.481	-105.915	-142.782	71.938	-87.557	-144.753	-138.158	39.824	-9.401	-142.006	-137.607	-133.774	-129.972	12.518	-134.791	-8191	255	
14639.955	1	1	0	0	0.15376	0.11192	0.15642	0.17205	0.11818	0.14348	0.21343	0.23147	0.087966	0.10552	0.36898	0.14919	0.11349	0.12798	0.25629	0.22715	-0.82292	-0.12708	-0.80208	-1.0542	-0.1125	-1	-0.58958	-0.58542	-1.2687	-0.26458	-0.71042	-1.05	-0.47292	-1.0854	-0.51667	-0.37292	-51.276	130.018	26.075	172.155	-152.206	34.205	58.504	19.115	-128.455	-114.082	-153.073	115.572	-143.255	-107.443	-120.154	156.258	0.00028508	0.00079349	0.00018221	849.35	2.6921e-06	1.3362e-06	542.96	283.69	2.3687e-06	5.8174e-06	169.28	58.446	96.382	40.02	4.4338e-06	26.758	0.00067342	0.0007268	0.00020511	857.22	8.1019e-06	7.8777e-06	551.99	287.12	7.8723e-06	8.1207e-06	176.04	60.673	98.538	40.867	8.0769e-06	27.831	-72.101	-75.636	-83.090	-142.653	-27.188	-49.971	-144.408	-137.903	-29.545	80.617	-141.462	-137.770	-133.840	-130.080	-36.120	-134.598	-8191	255	
14640.052	1	1	0	0	0.27619	0.2967	0.23739	0.16635	0.031594	0.054483	0.24328	0.25255	0.11052	0.048067	0.24051	0.1915	0.24674	0.38955	0.21196	0.17824	-0.62917	-0.29167	-0.63125	-1.175	-0.20833	-1.0229	-0.61458	-0.4875	-1.1354	-0.29792	-0.63333	-1.0917	-0.2	-1.0542	-0.66667	-0.325	114.812	10.286	126.453	130.955	-75.460	-60.811	87.264	-140.821	-70.971	-80.093	-130.625	-137.306	151.457	-122.398	-44.826	147.445	0.00030785	0.0002063	8.8436e-05	848.58	5.0647e-06	3.0503e-06	545.7	282.91	2.4786e-06	1.4374e-06	170.34	59.179	97.205	40.059	2.2223e-06	26.819	0.00069267	0.00073802	0.00020388	857.28	8.1016e-06	8.0672e-06	555.27	286.34	7.9578e-06	8.0735e-06	176.03	61.159	98.869	40.882	8.0134e-06	27.838	-67.414	122.619	-107.289	-142.748	66.585	-133.121	-144.722	-138.075	-50.471	99.048	-141.492	-137.680	-133.327	-130.032	-51.738	-134.363	-8191	255	
14640.148	1	1	0	0	0.11363	0.11099	0.10076	0.32997	0.12129	0.037663	0.22242	0.19159	0.1717	0.27416	0.11015	0.088133	0.18683	0.25738	0.16741	0.089538	-0.81667	-0.37083	-0.45	-1.4438	-0.24792	-0.74792	-0.83542	-0.26458	-1.2146	-0.52917	-0.60625	-1.2	-0.39375	-0.97083	-0.94375	-0.29583	81.224	-152.234	-17.728	147.084	-73.805	-88.555	147.557	-149.973	-153.955	200.617	-144.997	-109.477	199.898	197.006	-60.576	12.407	0.00023245	0.00058024	2.9633e-05	850.56	8.4582e-06	7.3831e-06	544.78	283.27	3.4943e-06	9.9108e-07	170.7	58.668	97.736	40.263	4.1834e-06	26.925	0.00068305	0.00073639	0.00020337	859.04	7.9801e-06	8.0343e-06	555.26	287.15	7.9369e-06	8.1896e-06	176.45	61.085	98.9	40.954	8.0468e-06	27.878	-66.721	-34.985	161.658	-142.648	60.403	40.106	-144.760	-137.804	-21.100	-113.301	-141.479	-137.509	-133.553	-129.822	-102.384	-134.776	-8191	255	
14640.268	1	1	0	0	0.25145	0.29546	0.21485	0.21038	0.3904	0.069895	0.094032	0.22484	0.0892	0.053916	0.22442	0.092417	0.21275	0.1282	0.071444	0.15538	-0.675	-0.53542	-0.34167	-1.1208	-0.070833	-0.69167	-1.0104	-0.18333	-1.1458	-0.71042	-0.31458	-1.0958	-0.32708	-0.82292	-0.92708	-0.225	74.781	181.196	157.509	153.286	-140.409	32.163	57.291	79.146	105.683	175.471	-50.207	-152.480	142.294	-112.197	182.936	-140.190	0.00025832	0.00051163	0.00013217	849	1.1822e-05	5.9951e-06	544.69	284.72	3.7623e-06	2.1234e-06	171.27	59.488	97.821	40.05	5.8624e-06	27.017	0.00069083	0.00074891	0.00020608	858.44	8.1225e-06	8.1724e-06	555.33	287.63	8.0266e-06	8.1956e-06	177.38	61.375	99.131	40.906	8.0887e-06	27.873	-66.487	-77.741	-141.003	-142.365	22.794	-12.451	-145.077	-138.023	-32.823	134.377	-141.679	-137.345	-133.631	-130.152	44.931	-134.647	-8191	255	
14640.364	1	1	0	0	0.30934	0.08964	0.13789	0.06364	0.2965	0.089213	0.18393	0.16985	0.17736	0.19356	0.065763	0.24717	0.16216	0.16322	0.18142	0.13727	-0.61458	-0.60208	-0.43333	-1.3104	-0.49583	-0.60208	-1.1604	-0.31458	-1.0375	-0.8	-0.28333	-1.2208	-0.46875	-0.71042	-0.85833	-0.36042	-70.666	-53.249	162.171	11.889	-138.248	134.098	66.111	102.285	49.446	-155.495	10.782	-101.512	108.078	-88.187	-44.327	-117.543	0.00026705	0.00044866	3.1489e-05	851.95	4.2111e-06	2.9855e-06	543.29	283.25	4.434e-06	3.7614e-06	169.4	58.54	97.004	39.845	3.6807e-06	26.671	0.0006938	0.00074482	0.0002069	858.18	8.0707e-06	8.1167e-06	552.13	286.74	8.1041e-06	8.1913e-06	175.3	60.674	98.774	40.612	8.0566e-06	27.645	-70.237	-96.258	5.877	-142.565	-4.539	18.755	-145.000	-138.039	8.871	-24.677	-141.789	-137.976	-134.187	-130.204	17.523	-135.273	-8191	255	
14640.461	1	1	0	0	0.054955	0.37194	0.10364	0.40869	0.10527	0.11869	0.17105	0.065014	0.18509	0.1397	0.39228	0.17021	0.20571	0.13033	0.1969	0.15406	-0.43125	-0.85208	-0.225	-1.2729	-0.34167	-0.58958	-1.25	-0.34583	-0.81458	-0.88542	-0.37708	-1.0208	-0.65625	-0.25625	-1.1313	-0.25	-54.514	139.081	94.411	-136.106	-105.786	-37.739	31.443	-124.193	1.799	-94.222	159.099	-132.512	181.265	-140.832	-78.129	-44.776	0.00025239	0.00060225	0.00012174	851.73	6.7954e-06	1.9698e-06	542.99	283.15	3.4039e-06	4.8593e-06	168.81	58.337	96.376	40.001	4.9657e-06	26.55	0.00069058	0.00074817	0.00020555	856.43	8.1711e-06	8.1062e-06	551.48	286.1	8.1135e-06	8.2283e-06	174.68	60.606	98.2	40.674	8.184e-06	27.606	-72.208	-39.336	-61.770	-142.295	-12.329	-89.532	-144.712	-137.941	-9.543	-106.148	-141.529	-137.200	-133.804	-129.867	-14.710	-134.618	-8191	255	
14640.557	1	1	0	0	0.21881	0.23973	0.17851	0.16267	0.10663	0.20565	0.22109	0.1157	0.14211	0.11137	0.062689	0.11508	0.19849	0.06933	0.4149	0.50803	-0.23333	-0.86042	-0.24792	-1.2667	-0.54583	-0.29375	-1.1792	-0.37708	-0.70625	-0.9375	-0.33125	-1.0646	-0.78125	-0.29167	-1.2188	-0.26875	128.304	-85.496	-1.384	-140.171	123.950	188.142	25.386	111.797	34.095	-7.277	71.464	67.628	115.544	82.781	18.672	147.752	0.00027331	0.00038661	0.00010823	844.92	8.305e-06	2.8316e-06	538.48	281.39	2.2902e-06	5.475e-06	170.84	58.497	96.286	40.068	9.5067e-06	26.732	0.00069711	0.00074547	0.00020675	854.8	8.1864e-06	8.2232e-06	550.76	285.69	8.154e-06	8.2752e-06	175.55	60.81	98.413	40.804	8.1379e-06	27.678	-68.007	-85.287	-87.576	-142.397	-17.180	122.375	-144.737	-138.035	-77.376	-11.257	-141.355	-137.349	-133.665	-129.993	-33.937	-135.174	-8191	255	
14640.653	1	1	0	0	0.31702	0.14095	0.16498	0.16638	0.17471	0.20173	0.19281	0.060007	0.26096	0.18635	0.078899	0.24045	0.10703	0.13766	0.20594	0.29894	-0.32292	-0.90417	-0.20208	-1.3146	-0.71042	-0.33333	-1.1104	-0.50625	-0.61458	-1.2271	-0.20417	-0.9875	-1.0833	-0.31458	-1.0833	-0.60208	5.139	47.390	53.601	21.202	-142.736	184.534	5.188	111.766	165.650	-145.001	60.607	-136.912	-115.844	-147.708	176.640	149.004	0.0002691	0.00036782	4.1214e-05	851.1	3.1696e-06	1.6326e-06	544.43	282.66	1.4854e-06	6.9177e-06	170.59	58.966	97.393	39.998	4.1397e-06	26.738	0.00070839	0.00075243	0.00020777	855.36	8.0992e-06	8.1136e-06	554.28	285.97	8.1509e-06	8.1102e-06	175.99	60.99	98.727	40.824	8.1799e-06	27.757	-78.026	-93.836	165.085	-142.189	-71.262	25.770	-144.931	-138.077	-59.679	-3.805	-141.472	-137.670	-133.498	-129.900	-26.315	-135.269	-8191	255	
14640.749	1	1	0	0	0.10788	0.24191	0.089132	0.10203	0.18205	0.13722	0.25471	0.33316	0.16338	0.22845	0.26541	0.1451	0.062388	0.23958	0.16229	0.16066	-0.19583	-1.2125	-0.29792	-0.94792	-0.78333	-0.34375	-1.1396	-0.6625	-0.27917	-1.2271	-0.25208	-0.6625	-1.0792	-0.28333	-1.0854	-0.7125	114.254	-10.218	187.428	124.295	-51.442	29.237	161.209	189.667	-142.665	66.797	-152.978	63.428	162.138	156.450	15.212	162.442	0.00026595	0.0003037	8.3235e-05	847.37	1.6335e-06	5.8362e-07	540.56	281.72	3.3452e-06	3.9426e-06	167.75	58.163	95.679	39.579	3.7172e-06	26.338	0.00069951	0.00074728	0.00020656	854.16	8.0341e-06	8.226e-06	550.37	285.13	8.1738e-06	8.1662e-06	174.13	60.116	97.566	40.437	8.1866e-06	27.396	-67.595	-42.023	-135.265	-142.382	63.137	94.154	-144.978	-138.371	-24.608	-26.389	-141.868	-137.628	-134.092	-130.222	93.855	-135.466	-8191	255	
14640.845	1	1	0	0	0.2335	0.18651	0.056885	0.16771	0.20347	0.14786	0.11	0.13482	0.056834	0.13921	0.12652	0.20106	0.087146	0.052032	0.22459	0.13941	0.15417	-1.1792	-0.3125	-0.90417	-1.075	-0.29375	-1.1083	-0.59792	-0.11875	-1.2896	-0.3625	-0.60625	-1.075	-0.22083	-0.77708	-0.79375	29.485	121.887	-95.710	122.921	-30.928	188.642	145.800	134.588	180.721	-22.962	114.939	-89.236	-81.361	27.851	-23.647	25.218	0.00025415	0.0012645	0.00017718	839.2	5.0685e-06	2.1153e-06	532.79	277.84	2.0589e-06	3.2338e-06	165.86	57.304	94.815	39.49	6.2185e-06	26.463	0.00069536	0.00074964	0.00020985	848.39	8.2033e-06	8.2561e-06	544.91	281.3	8.2411e-06	8.0493e-06	171.92	59.443	96.821	40.313	8.1609e-06	27.403	-66.192	-31.036	-131.184	-142.576	-69.545	-11.848	-145.036	-138.178	-94.460	-42.581	-141.478	-137.526	-133.774	-129.747	-86.312	-135.017	-8191	255	
14640.964	1	1	0	0	0.11016	0.066719	0.20561	0.29132	0.13971	0.17508	0.064721	0.17022	0.074549	0.14052	0.15783	0.23518	0.15345	0.26722	0.31341	0.092916	0.010417	-1.0104	-0.48125	-0.52708	-1.1042	-0.275	-1.0479	-1.0167	-0.43125	-1.0312	-0.41875	-0.59583	-1.2104	-0.43333	-0.95625	-1.025	145.720	149.933	-67.397	-29.287	-117.422	69.689	174.343	88.238	195.372	79.924	-126.874	102.063	-79.535	79.408	90.323	-50.669	0.00023909	0.00024314	7.6784e-05	841.76	8.3285e-06	4.5185e-06	538.77	278.3	4.6411e-06	8.7184e-06	165.92	57.503	95.365	39.529	3.7524e-06	26.864	0.00069382	0.00074188	0.0002077	849.05	8.1021e-06	8.1719e-06	549.41	281.4	7.9649e-06	8.2525e-06	172.88	59.786	97.01	40.326	8.1313e-06	27.627	-70.463	-20.088	-43.425	-142.621	29.357	31.683	-144.280	-138.103	-41.284	26.185	-141.893	-136.848	-133.544	-130.243	80.982	-134.808	-8191	255	
14641.060	1	1	0	0	0.12882	0.061325	0.12927	0.12247	0.12385	0.072977	0.39778	0.295	0.14168	0.30469	0.16645	0.26733	0.30623	0.30656	0.10941	0.1099	0.13542	-0.82083	-0.58125	-0.54167	-1.1812	-0.27708	-0.83958	-1.0875	-0.32083	-1.0625	-0.69583	-0.275	-1.0771	-0.275	-0.4375	-1.0167	128.251	-57.587	-71.120	184.061	22.935	120.073	59.329	134.056	-119.830	-115.506	91.433	-124.971	111.859	146.504	-78.670	10.593	0.00022275	0.00040102	0.00010641	845.54	4.4991e-06	5.8258e-06	542.1	279.54	4.5902e-06	8.9842e-06	169.37	58.065	95.629	39.867	3.4152e-06	26.755	0.00069075	0.0007396	0.00020623	851.22	7.9938e-06	8.0984e-06	550.58	282.72	8.1193e-06	8.3176e-06	174.07	60.242	97.483	40.605	8.2671e-06	27.756	-80.765	-37.838	200.352	-142.889	-31.921	-40.544	-144.822	-138.296	2.886	4.736	-142.390	-137.793	-133.819	-130.363	159.108	-135.126	-8191	255	
14641.156	1	1	0	0	0.14669	0.12045	0.28169	0.13777	0.16486	0.087655	0.25908	0.061759	0.09279	0.072616	0.33639	0.099122	0.1008	0.044025	0.23642	0.21422	0.17917	-1.0063	-0.71458	-0.3875	-1.1	-0.31667	-0.78958	-1.2146	-0.31875	-1.0812	-0.88333	-0.30417	-1.1958	-0.34375	-0.40833	-0.98333	-127.117	-19.955	-154.321	-127.958	173.240	-0.615	150.319	76.866	145.357	-77.952	128.647	-152.250	-77.136	-56.992	-57.047	-150.843	0.00018035	0.00054515	6.5582e-05	847.17	1.1017e-05	7.5366e-06	541.08	279.69	3.8745e-06	7.2998e-07	167.07	57.374	95.274	39.379	6.0364e-06	26.356	0.00070647	0.00074629	0.00020759	853.68	8.0386e-06	8.109e-06	551.13	283.11	8.1084e-06	7.9683e-06	173.36	59.846	97.199	40.347	8.065e-06	27.387	-61.039	-27.494	-53.409	-142.739	-45.594	-6.900	-144.810	-138.178	18.249	49.011	-142.125	-137.590	-133.688	-130.082	-89.201	-135.282	-8191	255	
14641.253	1	1	0	0	0.10999	0.19334	0.1363	0.076949	0.172	0.2607	0.094387	0.36681	0.16871	0.18357	0.21487	0.22856	0.35296	0.065053	0.10988	0.06872	0.18542	-0.98958	-0.52708	-0.40625	-1.1063	-0.59167	-0.46458	-1.0771	-0.22917	-0.91458	-0.90417	-0.25208	-1.1875	-0.56667	-0.3625	-1.2854	153.933	137.099	148.469	-74.931	155.776	196.455	-16.411	80.968	-143.571	135.115	70.976	8.068	196.016	-126.982	95.486	25.250	0.00027549	0.0006215	0.00012042	840.97	1.0046e-05	4.9282e-06	535.14	280	4.3312e-06	7.1196e-06	167.25	57.876	95.668	39.5	3.1244e-06	26.34	0.00069641	0.00073917	0.00020778	849.48	8.0489e-06	8.1858e-06	546.26	282.96	8.1689e-06	8.1874e-06	172.86	59.715	97.431	40.368	8.0871e-06	27.362	-66.479	-57.683	-19.147	-142.450	7.317	1.674	-145.007	-138.376	-32.384	-18.992	-141.836	-137.395	-133.784	-130.155	0.809	-135.001	-8191	255	
14641.349	1	1	0	0	0.23192	0.11714	0.23407	0.22386	0.14489	0.20184	0.081029	0.33144	0.079154	0.11234	0.10009	0.28869	0.057875	0.14668	0.14612	0.061163	0.16458	-0.75833	-0.87708	-0.49375	-1.1708	-0.63333	-0.40625	-1.1167	-0.35833	-0.90417	-1.0688	-0.34375	-1.175	-0.8	-0.41875	-1.1812	30.648	-94.358	-40.638	197.628	-113.095	-62.943	108.255	187.069	-134.559	124.294	81.234	-138.976	86.401	-138.213	170.727	72.727	0.00027952	0.00021419	0.00020536	839.56	9.6686e-06	5.3742e-06	539.15	280.1	1.6287e-06	1.2733e-06	166.68	57.985	95.746	39.556	1.1986e-06	26.516	0.00069074	0.00073253	0.00020442	850.06	8.061e-06	8.1674e-06	548.59	283.64	8.117e-06	8.1709e-06	173.36	59.91	97.485	40.392	8.0499e-06	27.47	-84.614	-68.993	-4.230	-142.457	-74.388	176.572	-144.690	-137.920	49.727	-40.384	-141.784	-137.887	-133.632	-130.079	-24.811	-134.958	-8191	255	
14641.445	1	1	0	0	0.27632	0.30395	0.39151	0.076363	0.23865	0.20415	0.22688	0.27532	0.074548	0.22812	0.20219	0.062444	0.020157	0.13527	0.17159	0.24579	-0.1	-0.6625	-1.3188	-0.38333	-0.99167	-0.57292	-0.4375	-1.2021	-0.40833	-0.48125	-1.0208	-0.40417	-0.90833	-1	-0.375	-1.0958	20.797	-86.068	30.754	29.303	114.384	78.918	156.442	-145.600	-56.391	-140.936	192.661	193.558	98.218	-103.149	161.098	125.391	0.00022676	0.00023209	3.9227e-05	843.52	2.8473e-06	7.4644e-06	538.43	279.66	2.8829e-06	3.4212e-06	166.46	58.206	96.355	39.531	4.1956e-06	26.436	0.00069965	0.00073883	0.00020913	851.36	8.0998e-06	8.1829e-06	549.29	283.17	8.1906e-06	8.1154e-06	173.46	60.166	97.821	40.382	8.277e-06	27.558	-67.018	-15.202	-135.169	-142.633	112.069	-64.248	-144.455	-137.964	-39.148	-39.307	-142.052	-137.370	-133.910	-130.026	-25.740	-134.875	-8191	255	
14641.541	1	1	0	0	0.18576	0.095259	0.1734	0.29508	0.035106	0.20599	0.29483	0.33583	0.27385	0.029039	0.17958	0.21302	0.26973	0.27897	0.15237	0.34929	-0.17083	-0.41042	-1.0833	-0.225	-0.93333	-0.98333	-0.17292	-1.2667	-0.53125	-0.57083	-1.25	-0.13125	-0.61458	-1.0917	-0.26042	-1.1146	15.412	56.226	63.016	-133.234	155.036	86.467	-145.039	-121.350	-156.037	140.737	-107.324	175.000	173.418	112.564	51.830	160.972	0.00019558	0.00080851	0.00013066	846.11	4.4554e-06	2.3912e-06	539.95	280.64	2.6398e-06	1.7368e-06	167.54	57.543	95.913	39.484	6.9803e-06	26.147	0.0006923	0.00075507	0.00020651	852.66	8.1502e-06	8.146e-06	551.29	284.22	8.0596e-06	8.0746e-06	173.48	60.022	97.778	40.233	8.0431e-06	27.176	-73.963	-20.865	-37.430	-142.689	-104.441	23.335	-144.837	-138.131	11.049	-3.646	-141.879	-137.446	-133.424	-130.120	-8.749	-134.845	-8191	255	
14641.662	1	1	0	0	0.092371	0.20848	0.2597	0.12973	0.063881	0.1022	0.040841	0.095018	0.28632	0.15693	0.22033	0.1498	0.13317	0.10066	0.23084	0.17247	-0.31458	-0.34167	-1.1625	-0.49792	-0.60417	-1.1708	-0.58333	-1.0146	-0.66875	-0.33542	-1.1167	-0.31458	-0.70625	-1.1271	-0.19583	-0.9875	-38.855	-124.454	-24.826	198.939	-27.324	200.831	-51.227	-24.979	92.156	102.871	20.780	202.614	-71.484	-132.214	111.111	143.298	0.00021912	0.00033069	0.00019012	842.43	5.7846e-06	9.1447e-06	536.14	279.94	2.4627e-06	4.6005e-06	165.28	56.676	95.752	39.423	6.6593e-06	26.204	0.00069622	0.00073224	0.00020516	849.64	8.0689e-06	8.0936e-06	543.48	282.69	8.02e-06	8.1243e-06	171.58	59.225	97.637	40.143	8.0119e-06	27.121	-40.736	-48.501	-10.144	-142.446	17.519	43.684	-144.633	-138.051	-3.922	95.925	-141.912	-137.106	-133.841	-130.337	-27.968	-134.697	-8191	255	
14641.756	1	1	0	0	0.28103	0.22914	0.030676	0.20404	0.12115	0.1221	0.040733	0.064764	0.045621	0.30811	0.08035	0.26121	0.30122	0.18157	0.15749	0.14641	-0.46667	-0.11042	-1.0875	-0.28958	-0.5	-1.05	-0.35208	-0.89792	-0.7875	-0.29583	-1.0688	-0.5	-0.52083	-1.1271	-0.35833	-0.84167	118.832	76.030	-140.944	201.981	-89.547	163.754	71.193	149.203	-143.464	-115.819	-59.211	-106.227	168.558	194.610	50.686	70.169	0.00030526	0.00048243	0.00030585	843.71	4.7981e-06	6.4093e-07	535.14	279.53	1.5721e-06	6.1954e-06	166.98	57.654	95.452	39.269	3.7495e-06	26.052	0.00068763	0.00073766	0.00020232	848.33	8.0724e-06	8.1156e-06	545.42	282.75	7.949e-06	8.1292e-06	172.17	59.639	97.654	40.163	7.8982e-06	27.08	-64.854	-47.058	-102.876	-142.639	-38.170	12.366	-145.015	-138.183	-9.377	9.642	-141.602	-137.738	-133.672	-130.268	-30.970	-134.994	-8191	255	
14641.829	1	1	0	0	0.16789	0.14408	0.15116	0.221	0.24535	0.26485	0.12695	0.1186	0.19519	0.18695	0.092415	0.27617	0.23461	0.085572	0.27116	0.27226	-0.61458	-0.19167	-0.975	-0.74167	-0.51458	-1.2479	-0.28958	-0.97917	-0.7125	-0.35417	-1.0479	-0.61875	-0.48333	-1.2625	-0.36875	-0.56042	80.865	57.010	-141.636	131.993	13.062	-56.722	106.477	-82.499	89.839	-100.474	-105.132	108.631	-140.689	-8.870	-129.418	-54.597	0.00026931	0.0003913	0.00013986	843.02	5.1693e-06	6.9524e-06	536.96	281.88	5.5854e-06	5.1471e-06	166.99	57.707	96.308	39.481	3.4721e-06	26.253	0.00068372	0.00072522	0.00020314	850.96	7.8577e-06	7.9827e-06	545.82	283.84	7.9529e-06	7.9925e-06	173.09	60.027	97.993	40.418	8.1195e-06	27.332	-81.072	-120.199	-73.210	-142.763	-53.451	-19.281	-144.868	-137.955	8.643	-15.663	-141.511	-137.714	-133.725	-130.145	10.798	-135.134	-8191	255	
14641.926	1	1	0	0	0.10331	0.33348	0.10677	0.29288	0.18269	0.19061	0.037019	0.30109	0.3832	0.2585	0.11636	0.21168	0.37994	0.21158	0.083055	0.19896	-0.63542	-0.37708	-1.0583	-0.75	-0.4375	-1.0771	-0.32292	-0.75208	-0.99583	-0.3625	-1.0292	-0.95	-0.30625	-1.3062	-0.4625	-0.62708	22.661	-92.618	201.099	-153.813	-127.202	131.434	1.286	147.366	49.717	170.626	-129.767	-138.221	115.862	55.271	148.328	12.523	0.00024609	0.00032759	0.00012555	844.9	2.3306e-06	3.2997e-06	538.17	280.91	1.069e-06	4.8248e-06	168.21	58.324	96.477	39.828	6.783e-06	26.576	0.00067905	0.00074435	0.00020588	851.48	8.0456e-06	8.2529e-06	549.78	283.93	8.0836e-06	8.1878e-06	174.17	60.619	98.15	40.632	8.032e-06	27.524	-77.332	-35.322	-32.283	-142.713	193.061	-72.978	-145.039	-138.181	140.500	13.979	-141.606	-137.356	-133.635	-130.104	-28.960	-135.185	-8191	255	
14642.044	1	1	0	0	0.13205	0.20932	0.087578	0.15569	0.12216	0.066182	0.073692	0.25152	0.26033	0.05515	0.11848	0.23565	0.23722	0.076966	0.2261	0.11422	-0.70625	-0.070833	-0.85417	-0.95417	-0.23333	-1.1875	-0.59375	-0.61667	-1.3021	-0.33125	-0.93333	-0.84167	-0.275	-1.3083	-0.375	-0.3375	-90.371	10.165	-0.353	-125.255	27.750	-147.896	-60.244	190.208	180.935	-34.965	151.086	184.787	185.355	53.485	-110.917	122.758	0.00024422	0.00028061	0.00012837	843.21	3.2472e-06	6.6185e-06	538.63	280.42	5.7553e-06	7.1223e-06	165.93	57.669	95.512	39.589	3.0431e-06	26.188	0.00068323	0.00074751	0.0002075	851.26	8.1516e-06	8.1171e-06	547.41	283.42	8.0705e-06	8.1475e-06	172.28	59.797	97.69	40.367	8.0938e-06	27.235	-76.049	-70.876	-78.721	-142.994	-100.227	78.245	-144.710	-138.188	-67.514	-45.954	-141.962	-137.375	-133.608	-130.042	190.077	-134.573	-8191	255	
14642.141	1	1	0	0	0.19328	0.018735	0.18999	0.17091	0.10485	0.21861	0.11928	0.050849	0.19349	0.053422	0.18893	0.19448	0.34033	0.18715	0.19778	0.058778	-0.6625	-0.26875	-0.84375	-1.0729	-0.29167	-1.1104	-0.78333	-0.45	-1.1146	-0.47083	-0.725	-1.1729	-0.29792	-1.1917	-0.75	-0.30417	57.411	-66.868	149.431	90.730	167.902	135.970	195.502	176.930	184.726	-19.126	21.854	202.725	199.307	-105.245	-98.219	-96.034	0.00028476	0.00011674	0.00012378	841.13	3.9259e-06	9.1921e-07	538.61	280.56	2.0913e-06	7.8096e-07	166.15	57.993	96.181	39.693	3.2198e-06	26.273	0.00068815	0.00074499	0.00020668	848.81	7.9781e-06	8.1077e-06	547.62	283.34	7.9649e-06	8.1614e-06	172.86	60.147	98.077	40.576	8.0294e-06	27.349	-76.667	139.663	-63.076	-142.477	-18.507	131.845	-144.755	-137.870	10.505	-29.213	-141.692	-137.789	-133.677	-129.862	-67.862	-134.862	-8191	255	
14642.237	1	1	0	0	0.19638	0.24308	0.18579	0.2485	0.02659	0.12046	0.1876	0.34716	0.12595	0.22454	0.14695	0.074799	0.25635	0.25455	0.044872	0.17378	-0.71042	-0.4875	-0.53958	-1.1729	-0.23125	-1.0521	-1.0083	-0.37708	-1.25	-0.63542	-0.61875	-1.0917	-0.38333	-0.93333	-0.94167	-0.36875	-13.216	66.600	-21.805	-123.494	172.231	-122.745	95.549	142.796	-39.235	154.211	-41.596	99.874	-124.843	78.369	124.479	-1.980	0.00024598	0.00024695	0.00010163	842.09	2.4675e-06	2.1873e-06	538.1	282.14	1.3488e-06	3.7094e-06	168.19	58.034	96.713	39.498	4.3304e-06	26.429	0.00068544	0.000738	0.0002056	849.74	8.0387e-06	8.1328e-06	547.81	284.14	7.9415e-06	8.1191e-06	173.3	60.027	98.067	40.412	7.9278e-06	27.393	-86.683	-60.024	-7.983	-142.753	-34.239	-85.244	-144.845	-138.153	5.983	4.245	-141.713	-137.520	-133.696	-129.731	-18.420	-134.688	-8191	255	
14642.357	1	1	0	0	0.25158	0.15433	0.18317	0.2685	0.071522	0.30442	0.10878	0.13252	0.15818	0.20918	0.15044	0.249	0.057292	0.15514	0.092379	0.24392	-0.74375	-0.68333	-0.44583	-1.2062	-0.2875	-1.1313	-1.0562	-0.36458	-1.2021	-0.60833	-0.44792	-1.0833	-0.45625	-0.9375	-0.975	-0.22917	174.206	-86.832	-111.967	190.439	126.419	-60.510	-145.203	178.611	141.828	84.452	115.364	186.928	-87.230	53.730	-129.243	81.572	0.00030451	0.00049586	0.00016992	843.37	7.6337e-06	2.2315e-06	539.72	280.05	6.1589e-06	7.0758e-06	168	57.956	96.989	39.841	4.1837e-06	26.69	0.00067518	0.00073233	0.00020146	852.42	7.9393e-06	8.0508e-06	549.55	283.78	7.8619e-06	8.1502e-06	173.39	60.196	98.64	40.712	8.052e-06	27.594	-77.034	-89.054	-105.068	-142.503	26.056	162.647	-144.408	-137.778	12.346	14.386	-141.220	-137.181	-133.684	-129.868	-28.894	-135.118	-8191	255	
14642.429	1	1	0	0	0.094573	0.062672	0.10127	0.18655	0.048825	0.14954	0.23992	0.23091	0.22918	0.077734	0.19762	0.18727	0.21947	0.2385	0.12846	0.030047	-0.76458	-0.59792	-0.35833	-1.2979	-0.425	-0.82083	-1.0458	-0.25417	-0.95417	-0.7125	-0.39792	-1.3104	-0.39792	-0.725	-1.0208	-0.16458	19.140	31.829	77.734	160.774	-156.059	-35.351	-2.921	-126.182	148.046	161.664	-89.236	-152.597	122.013	-125.797	94.965	11.121	0.00024818	0.00031056	0.00010637	844.74	4.7217e-06	6.7248e-06	540.12	280.08	5.4075e-06	7.6011e-06	167.3	58.063	96.756	39.86	1.8406e-06	26.311	0.00068493	0.00073062	0.00020362	852.31	7.9566e-06	7.9521e-06	547.93	283.85	7.9799e-06	7.9011e-06	172.7	60.207	98.397	40.579	7.889e-06	27.268	-66.129	-62.878	-41.737	-142.623	18.879	37.381	-144.688	-138.110	-34.848	30.350	-141.229	-137.529	-133.510	-129.991	-139.523	-134.736	-8191	255	
14642.525	1	1	0	0	0.15079	0.14111	0.11801	0.20441	0.1732	0.18441	0.23916	0.17201	0.31201	0.25523	0.090689	0.088636	0.060447	0.15718	0.072304	0.079344	-0.675	-0.75417	-0.1375	-1.2958	-0.48542	-0.70833	-1.3021	-0.45625	-0.94375	-0.98958	-0.31458	-1.0562	-0.82083	-0.70833	-1.1812	-0.175	136.070	149.154	3.188	-59.107	-20.973	-30.367	-132.859	182.624	-65.897	175.364	41.716	73.815	166.452	154.181	4.526	-112.718	0.00021891	0.00026415	0.00016377	840.79	8.5567e-06	6.6099e-06	532.11	279.74	9.3585e-08	2.3185e-06	165.7	58.213	96.425	39.826	3.1364e-06	26.225	0.00067567	0.00071376	0.00020267	848.37	7.7796e-06	7.8876e-06	543.56	283.67	7.8086e-06	7.8839e-06	172.24	60.123	98.408	40.582	7.8526e-06	27.235	-76.378	-2.104	-7.431	-142.459	44.793	-2.777	-144.702	-137.931	-121.211	-35.245	-141.527	-137.119	-133.401	-129.805	83.692	-134.567	-8191	255	
14642.646	1	1	0	0	0.080663	0.042887	0.16629	0.27202	0.11888	0.27171	0.13841	0.1291	0.077388	0.063319	0.30245	0.086663	0.16367	0.21055	0.23122	0.19921	-0.47917	-0.85833	-0.32292	-1.1625	-0.47708	-0.32917	-1.2354	-0.24792	-0.76042	-1.1	-0.27083	-1.1	-0.65208	-0.40208	-1.1812	-0.42917	190.205	48.901	85.892	188.340	-114.104	135.711	-9.337	108.540	26.858	46.321	134.589	167.324	160.336	27.893	115.609	161.324	0.00025901	0.00051621	0.00017198	842.79	7.2493e-06	2.4398e-06	540.05	280.8	5.9301e-06	2.7474e-06	167.04	58.128	96.378	39.943	2.531e-06	26.526	0.00066861	0.00071235	0.00019929	850.77	7.7931e-06	7.8117e-06	546.81	283.27	7.8378e-06	7.83e-06	173.3	60.144	98.338	40.716	7.843e-06	27.471	-85.333	-16.423	-117.026	-142.292	-23.084	99.800	-144.494	-137.912	20.853	34.545	-141.190	-137.049	-133.590	-129.608	-29.239	-134.713	-8191	255	
14642.742	1	1	0	0	0.13298	0.16126	0.052099	0.47739	0.1662	0.082312	0.23884	0.29516	0.17308	0.11469	0.29043	0.0010963	0.13	0.068338	0.051479	0.22049	-0.37708	-0.93125	-0.125	-1.1625	-0.77917	-0.25208	-1.2812	-0.63125	-0.77708	-1.1354	-0.37292	-0.88958	-0.80208	-0.5	-1.1646	-0.64167	-10.737	-143.442	166.822	191.049	47.986	-96.096	-56.869	172.835	-0.456	-131.727	134.575	180.000	-145.207	-105.575	-147.516	157.614	0.00019392	0.00077654	0.00018092	842.75	1.0267e-05	4.8197e-06	540.55	281.74	1.465e-06	2.401e-06	169.07	58.294	96.917	40.184	3.5291e-06	26.686	0.00066973	0.0007175	0.00019978	851.23	7.8133e-06	7.9215e-06	549.05	284.63	7.8291e-06	7.9054e-06	174.39	60.361	98.908	40.95	7.9556e-06	27.637	-65.003	-59.097	-39.671	-142.323	-14.001	6.737	-144.852	-137.824	-88.346	-19.048	-141.540	-137.188	-133.420	-129.791	23.010	-134.660	-8191	255	
14642.838	1	1	0	0	0.168	0.14966	0.10076	0.26387	0.061351	0.31761	0.33495	0.19109	0.12274	0.16478	0.28637	0.09102	0.27424	0.23425	0.32087	0.13464	-0.19583	-1.175	-0.16667	-0.99583	-1.1229	-0.17708	-1.3104	-0.60833	-0.49583	-1.1208	-0.28542	-0.69375	-1.0292	-0.275	-1.2604	-0.57917	-16.555	21.858	162.585	166.144	83.689	-4.087	71.990	128.832	-42.317	-78.596	191.332	-145.701	180.698	175.582	96.143	-9.715	0.00028052	0.00027338	0.00016183	845.34	4.7282e-06	3.4728e-06	544.23	282.04	2.1333e-06	2.1373e-06	167.46	58.329	97.114	39.854	3.4017e-06	26.387	0.00067731	0.00072171	0.00020056	853.14	7.8688e-06	7.9965e-06	551.08	284.73	7.7156e-06	7.9126e-06	173.43	60.283	98.489	40.736	7.824e-06	27.381	-71.785	43.632	-101.370	-142.500	116.278	-56.615	-144.925	-137.879	53.290	-58.814	-141.623	-137.318	-133.688	-129.578	-28.454	-135.044	-8191	255	
14642.957	1	1	0	0	0.14691	0.17375	0.19413	0.29447	0.10691	0.16425	0.27828	0.088027	0.15425	0.17097	0.27326	0.28952	0.14952	0.41572	0.13166	0.18164	0.027083	-1.1146	-0.325	-0.96458	-0.91667	-0.33958	-1.1583	-0.78333	-0.28542	-1.1208	-0.50208	-0.8375	-1.0479	-0.34583	-1.0312	-0.82083	71.956	-110.277	41.484	162.552	47.516	140.044	184.168	40.510	-150.663	-40.509	46.184	-78.678	66.772	120.190	-0.483	-55.786	0.00022725	0.00036611	0.0002752	842.47	7.0319e-06	4.3664e-06	535.84	281.77	2.3875e-06	5.441e-06	167.66	58.413	96.641	40.023	3.0132e-06	26.421	0.0006728	0.00072046	0.00020016	848.58	7.808e-06	7.964e-06	546.52	284.19	7.8619e-06	7.972e-06	173.07	60.095	98.343	40.777	7.9118e-06	27.376	-71.932	-96.861	-32.399	-142.316	-28.896	-44.633	-144.594	-137.888	32.898	22.264	-141.396	-137.389	-133.260	-129.951	21.558	-134.656	-8191	255	
14643.053	1	1	0	0	0.13373	0.0959	0.062713	0.13824	0.29603	0.080735	0.24028	0.41377	0.14358	0.27284	0.15547	0.18285	0.099471	0.10373	0.19182	0.30997	-0.01875	-1.2604	-0.30625	-0.72083	-1.1375	-0.30208	-0.93958	-0.8	-0.25625	-1.0938	-0.64792	-0.40417	-1.1104	-0.42917	-1.0063	-1.0146	66.518	-64.745	102.514	-103.495	18.685	190.192	-114.054	110.497	70.230	201.948	127.701	91.032	-42.270	137.415	-138.631	172.535	0.00020692	0.00024306	0.00020225	837.43	7.9068e-06	1.4404e-06	537.16	281.59	5.6918e-06	9.1104e-07	167.83	57.701	96.613	39.923	1.1216e-06	26.66	0.0006776	0.00071972	0.00019838	848.5	7.7953e-06	8.0318e-06	547.47	284.32	7.9166e-06	7.9031e-06	173.16	59.874	98.193	40.757	7.8675e-06	27.537	-83.369	-146.642	-25.901	-142.178	-7.466	23.520	-144.478	-137.633	-25.749	-101.134	-141.727	-137.094	-133.227	-129.618	36.368	-134.904	-8191	255	
14643.125	1	1	0	0	0.1954	0.15731	0.23037	0.39775	0.26968	0.18784	0.10607	0.26115	0.34455	0.3041	0.1397	0.15196	0.080455	0.19247	0.14774	0.1983	0.25208	-1.0292	-0.56042	-0.50417	-1.2646	-0.26875	-0.91875	-1.0479	-0.36458	-1.1083	-0.6	-0.36667	-1.1562	-0.27083	-0.77292	-1.1479	-97.712	203.146	-63.101	133.268	154.727	6.595	126.140	120.436	-54.230	155.608	110.281	-92.643	112.076	110.163	6.256	59.073	0.00017977	0.00038469	6.0834e-05	846.67	2.1133e-06	4.6642e-06	544.67	281.19	4.2499e-06	3.394e-06	168.19	58.083	96.154	39.834	2.1091e-06	26.616	0.00068594	0.00072896	0.00020082	850.83	7.95e-06	7.9685e-06	550.03	284.44	7.951e-06	7.9804e-06	173.78	60.202	97.989	40.696	7.9209e-06	27.564	-76.694	-41.901	-28.499	-142.020	-148.017	-105.171	-144.266	-137.454	-76.099	-19.738	-141.596	-137.363	-133.551	-129.970	10.203	-134.476	-8191	255	
14643.221	1	1	0	0	0.18423	0.22352	0.054783	0.20323	0.18747	0.11513	0.1849	0.25756	0.15759	0.14961	0.2648	0.11547	0.1681	0.17515	0.18019	0.30753	0.175	-1.0333	-0.7625	-0.56667	-0.97083	-0.3375	-0.76042	-1.1187	-0.25833	-1.0146	-0.775	-0.21667	-1.2333	-0.45833	-0.49583	-0.99167	-119.409	116.775	36.514	150.166	197.038	-124.178	-16.395	158.357	-122.153	-150.703	121.412	-103.193	-43.934	-143.268	19.621	169.238	0.00026266	2.4615e-05	0.00014692	842.38	4.9411e-06	3.1425e-06	538.33	281.6	5.7803e-07	4.2642e-06	168.59	58.268	96.388	39.951	3.7659e-06	26.339	0.00068246	0.00072693	0.00020251	849.77	7.9299e-06	8.028e-06	549.27	284.33	8.0669e-06	7.9649e-06	173.89	60.17	98.168	40.738	7.8939e-06	27.34	-80.203	59.323	-63.836	-142.350	88.205	-40.919	-144.240	-138.152	53.142	1.463	-141.511	-137.339	-133.338	-129.720	-25.231	-134.382	-8191	255	
14643.342	1	1	0	0	0.20061	0.30395	0.093061	0.16361	0.2033	0.039496	0.42451	0.24021	0.083888	0.058315	0.33062	0.32187	0.18733	0.06055	0.10762	0.12655	0.0041667	-0.90417	-0.72292	-0.33333	-1.15	-0.53542	-0.66875	-1.2729	-0.425	-0.99583	-0.9125	-0.091667	-1.2042	-0.62083	-0.3125	-1.2771	-38.108	67.185	43.348	-134.781	34.233	-112.803	89.210	54.817	54.095	114.848	36.487	-100.407	138.492	85.834	-62.131	52.278	0.00027327	0.00023183	0.00010812	836.99	8.0662e-06	2.9595e-06	535.47	280.97	2.7001e-06	6.9717e-06	166.2	57.117	95.898	39.586	1.7836e-06	25.847	0.00068378	0.00072624	0.00020121	847.32	7.8805e-06	7.7961e-06	543.97	283.35	7.8897e-06	7.9345e-06	171.83	59.328	97.522	40.379	7.8968e-06	26.997	-73.414	-120.235	-89.128	-142.143	0.574	45.623	-144.610	-137.936	-18.236	-11.942	-141.459	-137.125	-133.319	-129.510	126.883	-134.801	-8191	255	
14643.438	1	1	0	0	0.3175	0.16572	0.083661	0.22026	0.1703	0.20692	0.23233	0.1417	0.13339	0.061264	0.12835	0.13594	0.22863	0.22892	0.17639	0.22583	0.10417	-0.68333	-0.86458	-0.43333	-0.77917	-0.5	-0.38125	-1.1875	-0.28542	-0.85	-1.15	-0.28542	-0.98333	-0.78333	-0.53958	-1.2542	136.876	-41.846	7.517	-120.173	-77.370	-81.884	-69.314	110.807	-152.618	74.627	155.967	131.650	145.960	203.779	145.027	125.082	0.00024535	6.9687e-05	0.00010704	839.35	1.781e-06	6.9646e-06	535.75	279.99	3.9829e-06	3.728e-06	165.73	57.283	96.242	39.764	5.9877e-06	26.434	0.00067227	0.00072053	0.00019912	846.19	7.8242e-06	7.7805e-06	543.81	283.77	7.8669e-06	7.7776e-06	172.21	59.598	97.912	40.546	7.9202e-06	27.395	-67.493	-31.939	-108.596	-142.245	-15.219	-52.764	-144.354	-137.773	-23.263	-35.718	-141.567	-137.109	-133.461	-129.847	-48.616	-134.842	-8191	255	
14643.534	1	1	0	0	0.042837	0.080465	0.066721	0.11611	0.30628	0.18994	0.32553	0.11153	0.12076	0.25527	0.095212	0.055614	0.17372	0.39521	0.063781	0.1197	-0.0020833	-0.65	-1.1812	-0.35625	-0.92917	-0.90625	-0.53333	-1.0958	-0.38542	-0.49583	-1.0562	-0.32083	-1.0583	-0.83542	-0.40833	-1.1979	40.449	-84.221	8.270	172.940	182.336	81.928	-126.778	150.999	-122.808	150.830	40.414	65.144	-145.588	171.980	53.160	50.133	0.00020719	0.00035275	0.00013306	842.12	9.0106e-06	4.216e-06	539.08	282.89	2.7634e-06	4.6654e-06	167.33	57.535	96.508	39.858	4.7332e-06	26.336	0.00067087	0.00071919	0.00019804	848.44	7.9758e-06	7.8761e-06	547.63	284.75	7.9596e-06	8.0561e-06	172.85	59.665	98.226	40.648	7.9147e-06	27.392	-76.941	135.205	-16.418	-142.397	-13.534	-24.403	-144.509	-137.670	-14.029	-30.298	-141.390	-137.274	-133.061	-129.753	-65.109	-134.450	-8191	255	
14643.655	1	1	0	0	0.0864	0.27971	0.087366	0.22981	0.11684	0.12507	0.2052	0.36763	0.073335	0.076563	0.12447	0.11478	0.068787	0.10114	0.032239	0.074812	-0.12917	-0.61667	-1.3333	-0.49792	-0.98542	-0.90417	-0.25208	-1.2	-0.47708	-0.51667	-1.2833	-0.50625	-0.96875	-0.95417	-0.2625	-1.1979	-119.199	-95.729	-75.543	-136.072	-115.825	70.550	6.854	192.752	69.648	-37.759	143.780	129.759	-122.157	151.334	-84.280	-11.780	0.00033602	0.00047486	9.1777e-05	840.58	6.7334e-06	5.939e-06	540.08	282.26	3.1187e-06	4.565e-06	167.21	58.211	96.883	40.072	2.4442e-06	26.695	0.00067603	0.00072276	0.00020301	847.69	7.8215e-06	7.9342e-06	547.39	284.2	7.9234e-06	7.9352e-06	173.69	60.172	98.242	40.867	7.928e-06	27.567	-78.698	-135.148	-95.692	-142.219	-22.629	33.381	-144.452	-137.746	2.466	4.125	-141.552	-136.958	-133.634	-129.630	-109.005	-134.316	-8191	255	
14643.726	1	1	0	0	0.036803	0.33013	0.14105	0.11117	0.2011	0.19041	0.17955	0.12911	0.090211	0.01382	0.014984	0.075626	0.099782	0.18564	0.1126	0.17029	-0.26042	-0.52708	-1.2354	-0.40417	-0.92292	-1.1958	-0.39792	-1.1458	-0.63958	-0.43542	-1.1437	-0.45208	-0.83125	-1.1812	-0.22917	-1.1646	-10.974	-25.890	-103.529	194.078	31.949	178.428	196.326	-118.763	195.018	-120.758	-87.552	-5.747	-126.216	94.664	14.476	104.604	0.00019879	0.00021734	0.00013123	838.62	6.444e-06	4.3887e-06	537.16	281.78	1.1878e-06	3.6082e-06	167.76	57.848	96.904	39.808	5.4587e-06	26.374	0.00067487	0.00072832	0.00020543	848.59	7.8214e-06	7.9341e-06	545.37	285.18	7.8075e-06	8.1095e-06	173.73	60.031	98.547	40.685	7.9078e-06	27.359	-71.126	-152.968	-124.923	-142.379	-33.798	72.034	-144.377	-137.665	11.220	-51.013	-141.408	-136.893	-133.244	-129.821	-47.674	-134.393	-8191	255	
14643.822	1	1	0	0	0.15248	0.16823	0.2796	0.18231	0.29775	0.2385	0.15977	0.22641	0.069559	0.047978	0.045779	0.15029	0.30183	0.2705	0.14391	0.085635	-0.21875	-0.31667	-1.4438	-0.66042	-0.58542	-1.3146	-0.42292	-1.175	-0.84583	-0.33333	-1.2125	-0.65208	-0.69167	-1.2708	-0.38958	-0.91458	66.262	-100.771	117.523	124.347	121.760	-53.299	2.208	161.227	-26.773	110.854	144.023	60.160	143.343	-8.674	64.860	6.617	0.00029048	0.00073243	9.5814e-05	839.16	7.6269e-06	3.1224e-06	539.43	282.88	5.1067e-06	7.4911e-06	168.16	57.799	97.265	40.227	8.5649e-06	26.613	0.00068291	0.00073061	0.00020148	849.09	7.8653e-06	7.9359e-06	546.23	286.2	7.8565e-06	8.0176e-06	173.95	60.114	98.859	40.92	7.9565e-06	27.42	-89.509	-15.771	-144.307	-142.153	-33.290	82.736	-144.793	-137.934	-6.413	7.685	-141.128	-137.633	-133.368	-129.895	-31.410	-134.426	-8191	255	
14643.919	1	1	0	0	0.26086	0.19625	0.097865	0.10141	0.17218	0.17445	0.28221	0.032516	0.13269	0.15795	0.11653	0.082662	0.17685	0.2291	0.2015	0.34281	-0.55625	-0.26667	-1.0333	-0.72917	-0.5	-1.2583	-0.51458	-1.0063	-0.97292	-0.25833	-1.1375	-0.73333	-0.20625	-1.2292	-0.41042	-0.7125	174.120	166.700	-126.228	39.851	152.703	114.062	190.004	-60.941	-79.307	147.309	107.984	-54.267	193.778	43.900	106.769	-149.080	0.00029957	0.0004452	2.4031e-05	841.45	4.7495e-06	6.0308e-06	538.21	281.5	1.8894e-06	2.8304e-06	167.95	57.838	96.59	39.955	2.8716e-06	26.393	0.00067678	0.000722	0.00019794	850.07	7.7509e-06	7.9575e-06	546.8	285.13	7.7296e-06	7.966e-06	173.72	59.963	98.576	40.803	7.7902e-06	27.468	-76.343	-114.615	-128.947	-142.226	-60.965	26.380	-144.255	-137.713	9.867	-55.004	-141.293	-137.074	-133.129	-129.807	-6.063	-134.505	-8191	255	
14644.037	1	1	0	0	0.15746	0.3728	0.27921	0.12304	0.03095	0.17895	0.21012	0.14795	0.23044	0.21196	0.3389	0.090196	0.14938	0.077335	0.11549	0.011852	-0.63958	-0.32917	-1.2458	-0.75833	-0.39375	-1.1708	-0.59583	-0.7375	-1.25	-0.48542	-1.1625	-0.8125	-0.28125	-1.5604	-0.3	-0.55	178.013	13.861	155.204	-89.055	183.122	-126.039	98.195	-106.365	110.470	162.286	-84.263	18.648	124.519	-81.447	-67.762	33.454	0.00023962	0.00029293	2.2127e-05	843.37	7.4804e-06	6.9297e-06	541.63	281.6	1.7083e-06	6.8922e-06	168.39	57.92	97.156	40.363	5.4866e-06	26.944	0.00067583	0.00072856	0.0001952	850.25	7.8646e-06	7.915e-06	550.3	285.05	7.8189e-06	7.9032e-06	174.37	60.034	98.731	40.911	7.8432e-06	27.589	-74.914	-8.883	56.479	-142.405	0.444	48.700	-144.040	-137.440	51.910	14.451	-141.315	-137.051	-133.308	-129.704	-54.163	-134.614	-8191	255	
14644.134	1	1	0	0	0.020069	0.20955	0.16032	0.16119	0.10416	0.11107	0.19601	0.19371	0.087074	0.12246	0.058873	0.038342	0.22547	0.055498	0.095463	0.26685	-0.71042	-0.21042	-0.97708	-1.1417	-0.4	-1.0292	-0.76458	-0.6625	-1.2333	-0.33958	-1.0854	-0.84375	-0.52083	-1.3875	-0.60833	-0.64375	-30.574	-48.290	129.849	-140.308	-82.863	45.076	38.013	111.803	188.364	-123.721	-115.775	91.736	42.076	-90.035	2.299	125.652	0.00020097	0.00084943	0.00011986	845.03	1.1501e-06	1.7337e-06	542.38	283.86	5.4874e-06	2.3067e-06	168.33	57.791	97.166	40.067	5.8756e-06	26.289	0.0006694	0.00072761	0.00019639	851.97	7.7964e-06	7.8574e-06	548.93	286.25	7.9241e-06	7.7432e-06	173.73	60.171	98.992	40.85	7.6266e-06	27.307	-74.267	-44.560	-7.117	-142.164	-15.407	157.100	-144.370	-137.619	3.099	-61.405	-141.268	-137.453	-133.247	-129.339	16.129	-134.810	-8191	255	
14644.230	1	1	0	0	0.3466	0.21642	0.17227	0.16961	0.17298	0.17675	0.11734	0.062103	0.098565	0.071746	0.15278	0.13933	0.075107	0.30962	0.074299	0.092228	-0.79583	-0.077083	-0.925	-1.1729	-0.36458	-0.91875	-1.0104	-0.59167	-1.3188	-0.31875	-0.87083	-1.0229	-0.35625	-1.3438	-0.73542	-0.43958	64.759	-113.884	43.435	146.737	-120.073	40.944	57.539	-81.480	112.491	139.279	171.028	153.912	81.532	-149.581	130.751	132.971	0.00029505	0.00020995	2.9087e-05	844.01	4.0191e-06	3.3147e-06	537.62	282.99	7.1813e-06	4.1458e-06	168.46	57.623	97.13	40.097	6.3242e-06	26.128	0.00066459	0.0007135	0.00019778	850.96	7.6536e-06	7.7476e-06	545.34	285.35	7.7818e-06	7.8579e-06	173.62	59.977	98.84	40.864	7.711e-06	27.201	-69.618	194.547	32.126	-142.162	56.532	-38.389	-144.433	-137.655	-21.720	-37.979	-140.800	-137.297	-133.155	-129.624	18.145	-134.651	-8191	255	
14644.326	1	1	0	0	0.1447	0.12377	0.12199	0.18499	0.11132	0.2752	0.25263	0.13912	0.2422	0.086317	0.13133	0.4568	0.093393	0.11718	0.27608	0.079286	-0.89375	-0.225	-0.62917	-1.2958	-0.38333	-1.0833	-0.94583	-0.67917	-1.2417	-0.39375	-0.80208	-1.1688	-0.53542	-1.0729	-1.0333	-0.28542	5.395	28.380	178.514	-102.637	69.335	-85.915	73.346	97.869	-33.797	58.506	-80.656	121.772	94.138	84.072	98.620	-49.497	0.00030613	0.00038431	0.00015693	845.51	3.207e-06	9.5268e-07	542.71	283.4	4.7332e-07	5.5197e-06	170.04	58.514	97.273	40.231	1.9147e-06	26.52	0.00066346	0.00070431	0.00019692	851.51	7.699e-06	7.7096e-06	548.2	285.99	7.7646e-06	7.9122e-06	174.75	60.375	99.017	40.997	7.7416e-06	27.604	-59.032	-96.195	1.004	-142.490	51.667	43.340	-144.589	-137.673	-70.826	7.767	-141.425	-137.046	-133.057	-129.738	-77.402	-134.487	-8191	255	
14644.422	1	1	0	0	0.14476	0.15435	0.19051	0.14749	0.19992	0.36957	0.33032	0.27793	0.055174	0.14745	0.29335	0.27977	0.13291	0.23956	0.061121	0.029911	-0.91458	-0.54583	-0.28125	-1.4229	-0.38125	-0.9125	-1.0271	-0.47708	-1.0979	-0.57708	-0.45833	-1.2042	-0.59375	-0.77292	-0.93542	-0.4375	-136.370	83.269	-83.795	106.383	59.961	-59.124	171.704	-138.967	-21.003	81.102	-124.478	-59.113	176.714	198.721	47.384	134.345	0.00023521	0.00045092	0.00013833	845.47	1.1175e-05	2.2074e-06	542.46	281.83	5.7793e-06	2.2316e-06	169.07	58.246	97.758	40.298	2.043e-06	26.823	0.00066257	0.0007042	0.00019879	853.2	7.7843e-06	7.7371e-06	550.51	285.59	7.7582e-06	7.7965e-06	174.95	60.606	99.372	41.098	7.6426e-06	27.755	-65.024	198.363	-80.270	-142.065	4.264	9.972	-144.442	-137.573	-29.915	-99.258	-141.063	-137.214	-133.421	-129.326	-39.591	-134.556	-8191	255	
14644.518	1	1	0	0	0.28639	0.1963	0.16512	0.30417	0.14497	0.13102	0.045772	0.20623	0.18862	0.063628	0.12359	0.22644	0.48781	0.20105	0.3746	0.20727	-0.60833	-0.73125	-0.46875	-1.2812	-0.25	-0.6875	-1.2042	-0.38125	-0.99375	-0.70625	-0.32292	-1.1812	-0.4375	-0.79583	-1.0417	-0.225	194.712	-115.818	43.053	-146.321	204.170	53.996	139.864	26.096	189.201	-152.920	149.509	142.768	195.310	182.492	69.927	88.452	0.0002881	0.00026136	0.00019034	844.26	8.822e-06	3.555e-06	541.18	284.89	2.1607e-06	1.4036e-06	169.31	58.428	97.856	40.346	3.9912e-06	26.789	0.00066981	0.00069777	0.000196	852.55	7.7168e-06	7.7291e-06	550.89	287.33	7.5985e-06	7.7062e-06	175.28	60.693	99.541	41.15	7.6902e-06	27.572	-84.533	182.927	-117.817	-142.194	-50.657	-17.377	-144.596	-137.567	16.265	197.756	-141.476	-136.702	-133.390	-129.522	-31.511	-134.760	-8191	255	
14644.639	1	1	0	0	0.19801	0.19138	0.14816	0.3082	0.2638	0.17833	0.095864	0.084747	0.12404	0.44242	0.071678	0.29203	0.094382	0.35337	0.11289	0.2627	-0.6875	-0.61458	-0.37917	-1.1313	-0.43958	-0.41667	-1.125	-0.40417	-0.82083	-0.85417	-0.29583	-1.2458	-0.55625	-0.5125	-1.0979	-0.26458	-92.814	-1.920	-35.511	100.182	140.686	73.567	-17.290	130.068	56.246	78.907	-116.524	-83.258	97.107	153.153	-14.733	81.707	0.00021967	3.2447e-05	0.00012171	843.1	1.1967e-05	5.9628e-06	539.23	283.4	2.3098e-06	2.4148e-06	168.23	59.043	98.036	40.273	5.5823e-06	26.771	0.00065598	0.00069996	0.00019772	852.07	7.69e-06	7.7857e-06	547.21	286.36	7.7009e-06	7.6696e-06	174.05	60.675	99.875	41.221	7.713e-06	27.609	-80.095	40.122	-30.363	-142.111	6.526	-25.143	-144.379	-137.653	-49.627	-11.399	-141.227	-136.922	-133.192	-129.484	-19.482	-134.593	-8191	255	
14644.735	1	1	0	0	0.16958	0.080392	0.23761	0.10831	0.22357	0.15791	0.14715	0.13357	0.21289	0.2529	0.073643	0.33833	0.13088	0.23059	0.26111	0.05381	-0.57917	-0.98333	-0.13333	-1.2229	-0.48542	-0.32292	-1.2563	-0.3375	-0.76458	-0.95625	-0.35417	-1.1854	-0.77708	-0.34375	-1.1313	-0.36875	27.698	3.160	164.760	107.456	96.738	-111.337	189.569	179.531	177.044	-28.618	28.201	102.192	-82.820	-77.368	-23.528	152.861	0.00029534	0.00029064	0.00012697	847.11	4.4737e-06	5.6217e-06	541.96	285.71	5.3245e-06	1.8253e-06	168.97	58.785	98.751	40.335	5.9393e-07	26.69	0.00066466	0.00070756	0.00019876	853.15	7.6734e-06	7.6983e-06	549.04	287.67	7.5969e-06	7.7818e-06	174.77	60.474	100	41.062	7.6369e-06	27.499	-77.641	136.093	-32.543	-142.099	-65.640	-19.569	-144.204	-137.313	91.611	-83.346	-140.699	-136.883	-133.016	-129.313	182.066	-134.473	-8191	255	
14644.829	1	1	0	0	0.13089	0.16087	0.25427	0.18141	0.1897	0.15714	0.14146	0.40268	0.10191	0.13224	0.1489	0.11385	0.20493	0.09476	0.22705	0.33775	-0.2	-1.0438	-0.30208	-1.1521	-0.73125	-0.2625	-1.2417	-0.62708	-0.47917	-1.0562	-0.175	-1.0646	-0.96875	-0.375	-0.98333	-0.54375	-100.309	-24.090	-155.481	-138.242	-56.072	129.901	201.395	188.495	-112.848	139.003	86.029	-101.339	80.698	70.165	127.632	-75.809	0.00028077	0.00050277	0.00015722	847.1	6.0916e-06	1.0817e-06	539.24	285.46	5.1636e-06	3.7606e-06	170.11	58.789	98.8	40.464	4.124e-06	26.591	0.00065453	0.00070446	0.00019459	854.59	7.5951e-06	7.7355e-06	549.93	287.95	7.5523e-06	7.6487e-06	174.82	60.757	100.27	41.186	7.6474e-06	27.566	-76.736	202.875	-62.807	-142.034	33.654	103.819	-144.592	-137.838	48.186	44.356	-141.032	-136.965	-133.186	-129.505	15.561	-134.731	-8191	255	
14644.925	1	1	0	0	0.13986	0.29263	0.097375	0.18627	0.07662	0.1852	0.25482	0.22604	0.070271	0.09118	0.067848	0.13459	0.17213	0.25231	0.15854	0.077824	-0.18125	-1.0833	-0.28125	-1.0312	-0.85833	-0.25625	-1.1604	-0.76875	-0.58333	-1.2292	-0.38542	-0.975	-0.93542	-0.20625	-0.92083	-0.73333	-149.022	138.381	196.449	125.838	181.281	-35.589	-91.207	-113.628	29.363	134.558	132.387	-98.370	184.381	-54.697	108.481	32.440	0.00035187	0.00015621	0.00018724	850.06	5.9916e-06	2.9347e-06	547.18	286.57	4.3066e-06	3.9036e-06	171.01	59.16	98.497	40.45	6.606e-06	26.583	0.00065717	0.00069192	0.00019306	855.86	7.5866e-06	7.7693e-06	552.63	288.55	7.5829e-06	7.5951e-06	176	61.087	100.18	41.246	7.6386e-06	27.514	-79.868	-52.635	-120.500	-142.065	-2.972	-20.088	-144.373	-137.705	49.684	-22.284	-141.341	-137.452	-133.428	-130.038	23.471	-134.946	-8191	255	
14645.022	1	1	0	0	0.36227	0.22071	0.20013	0.14552	0.13451	0.048449	0.070484	0.15382	0.096492	0.17606	0.2681	0.15467	0.12734	0.14083	0.11667	0.19448	0.047917	-1.3042	-0.070833	-0.91458	-0.92083	-0.060417	-1.1646	-0.74167	-0.45208	-1.1021	-0.35625	-0.80208	-1.2083	-0.28125	-1.2958	-0.72083	-149.427	-96.350	-29.864	137.223	-142.784	-148.489	94.651	95.697	-10.693	-107.721	200.526	-147.694	-149.784	-29.720	63.880	-75.812	0.00027485	0.00038045	0.00010571	845.01	8.7698e-06	2.2963e-06	541.25	284.38	6.0157e-06	4.6143e-06	167.87	58.187	97.797	40.225	3.5053e-06	26.07	0.00065878	0.00069486	0.00019419	851.44	7.5747e-06	7.7827e-06	547.67	287.01	7.5877e-06	7.6795e-06	173.34	60.278	99.623	40.918	7.5694e-06	27.108	-83.084	-70.864	187.495	-142.099	-21.693	11.668	-144.150	-137.727	-0.222	-3.387	-141.375	-137.034	-133.006	-129.459	-31.631	-135.062	-8191	255	
#DATA ENDS
