BOXY.EXE: ISS Imagent and Oximeter Data Acquisition Program Version 0.80
Ascii Record File

#ACQ INFORMATION
2  Detector Channels 
16  External MUX Channels 
1  Auxiliary Channels 
5000  Waveform (CCF) Frequency (Hz)
1  Waveforms Skipped 
30  Waveforms Averaged 
1  Cycles Averaged 
16  Acquisitions per Waveform 
10.0806  Updata Rate (Hz) 

#FILE INFORMATION
TRUE -- External MUX Channel results are PARSED.
FALSE -- AC DC and Phase are NOT grouped.
TRUE -- Companion Program Settings File CREATED.
FALSE -- AC data not excluded
FALSE -- DC data not excluded
FALSE -- Phase data not excluded
FALSE -- Auxillary Chn. data not excluded
Tab delimiters

#CALIBRATION STATE
TRUE -- Waveform Calibration Values APPLIED.


#AUX CALIBRATION VALUES
Val Type	aux-1	

Term	1.0000e+00	
Factor	0.0000e+00	


#WF CALIBRATION VALUES
A = Detector Channel
Val Type	A-AC1	A-AC2	A-AC3	A-AC4	A-AC5	A-AC6	A-AC7	A-AC8	A-AC9	A-AC10	A-AC11	A-AC12	A-AC13	A-AC14	A-AC15	A-AC16	A-DC1	A-DC2	A-DC3	A-DC4	A-DC5	A-DC6	A-DC7	A-DC8	A-DC9	A-DC10	A-DC11	A-DC12	A-DC13	A-DC14	A-DC15	A-DC16	A-Ph1	A-Ph2	A-Ph3	A-Ph4	A-Ph5	A-Ph6	A-Ph7	A-Ph8	A-Ph9	A-Ph10	A-Ph11	A-Ph12	A-Ph13	A-Ph14	A-Ph15	A-Ph16	

Term	0.00000e+00	0.00000e+00	0.00000e+00	0.00000e+00	0.00000e+00	0.00000e+00	0.00000e+00	0.00000e+00	0.00000e+00	0.00000e+00	0.00000e+00	0.00000e+00	0.00000e+00	0.00000e+00	0.00000e+00	0.00000e+00	0.00000e+00	0.00000e+00	0.00000e+00	0.00000e+00	0.00000e+00	0.00000e+00	0.00000e+00	0.00000e+00	0.00000e+00	0.00000e+00	0.00000e+00	0.00000e+00	0.00000e+00	0.00000e+00	0.00000e+00	0.00000e+00	0.00000e+00	0.00000e+00	0.00000e+00	0.00000e+00	0.00000e+00	0.00000e+00	0.00000e+00	0.00000e+00	0.00000e+00	0.00000e+00	0.00000e+00	0.00000e+00	0.00000e+00	0.00000e+00	0.00000e+00	0.00000e+00	
Factor	1.00000e+00	1.00000e+00	1.00000e+00	1.00000e+00	1.00000e+00	1.00000e+00	1.00000e+00	1.00000e+00	1.00000e+00	1.00000e+00	1.00000e+00	1.00000e+00	1.00000e+00	1.00000e+00	1.00000e+00	1.00000e+00	1.00000e+00	1.00000e+00	1.00000e+00	1.00000e+00	1.00000e+00	1.00000e+00	1.00000e+00	1.00000e+00	1.00000e+00	1.00000e+00	1.00000e+00	1.00000e+00	1.00000e+00	1.00000e+00	1.00000e+00	1.00000e+00	X	X	X	X	X	X	X	X	X	X	X	X	X	X	X	X	

B = Detector Channel
Val Type	B-AC1	B-AC2	B-AC3	B-AC4	B-AC5	B-AC6	B-AC7	B-AC8	B-AC9	B-AC10	B-AC11	B-AC12	B-AC13	B-AC14	B-AC15	B-AC16	B-DC1	B-DC2	B-DC3	B-DC4	B-DC5	B-DC6	B-DC7	B-DC8	B-DC9	B-DC10	B-DC11	B-DC12	B-DC13	B-DC14	B-DC15	B-DC16	B-Ph1	B-Ph2	B-Ph3	B-Ph4	B-Ph5	B-Ph6	B-Ph7	B-Ph8	B-Ph9	B-Ph10	B-Ph11	B-Ph12	B-Ph13	B-Ph14	B-Ph15	B-Ph16	

Term	0.00000e+00	0.00000e+00	0.00000e+00	0.00000e+00	0.00000e+00	0.00000e+00	0.00000e+00	0.00000e+00	0.00000e+00	0.00000e+00	0.00000e+00	0.00000e+00	0.00000e+00	0.00000e+00	0.00000e+00	0.00000e+00	0.00000e+00	0.00000e+00	0.00000e+00	0.00000e+00	0.00000e+00	0.00000e+00	0.00000e+00	0.00000e+00	0.00000e+00	0.00000e+00	0.00000e+00	0.00000e+00	0.00000e+00	0.00000e+00	0.00000e+00	0.00000e+00	-2.56295e+01	-1.44903e+02	-1.46208e+02	-1.81557e+02	-1.10190e+02	-6.80644e+01	-1.59026e+02	-1.62015e+02	-3.84505e+01	-8.16621e+01	-1.72371e+02	-1.70803e+02	-1.81112e+02	-1.77111e+02	-8.23039e+01	-1.49802e+02	
Factor	2.04882e-05	7.53207e-05	2.45854e-05	1.58408e-01	9.99100e-07	8.80246e-07	1.70930e-01	4.43404e-02	8.59531e-07	9.60360e-07	7.59286e-02	2.81762e-02	3.25531e-02	8.07940e-03	1.02540e-06	1.17635e-02	7.21442e-07	7.39326e-07	2.06340e-07	8.04690e-02	8.08779e-09	8.09940e-09	8.12938e-02	2.26284e-02	8.09526e-09	8.11344e-09	3.67682e-02	1.35681e-02	1.59473e-02	4.06331e-03	8.14387e-09	5.65090e-03	X	X	X	X	X	X	X	X	X	X	X	X	X	X	X	X	



#DISTANCE SETTINGS
A = Detector Channel
A-1	A-2	A-3	A-4	A-5	A-6	A-7	A-8	A-9	A-10	A-11	A-12	A-13	A-14	A-15	A-16	

2.5000e+00	3.0000e+00	2.5000e+00	3.0000e+00	2.0000e+00	3.0000e+00	1.5000e+00	3.0000e+00	3.0000e+00	3.0000e+00	3.0000e+00	3.0000e+00	3.0000e+00	3.0000e+00	1.5000e+00	3.0000e+00	

B = Detector Channel
B-1	B-2	B-3	B-4	B-5	B-6	B-7	B-8	B-9	B-10	B-11	B-12	B-13	B-14	B-15	B-16	

1.0000e+01	1.0000e+01	1.0000e+01	1.4400e+00	1.0000e+01	1.0000e+01	1.5100e+00	1.9400e+00	1.0000e+01	1.0000e+01	1.9900e+00	2.4900e+00	2.4100e+00	2.9000e+00	1.0000e+01	2.9800e+00	




#DATA BEGINS
time	group	step	mark	flag	A-AC1	A-AC2	A-AC3	A-AC4	A-AC5	A-AC6	A-AC7	A-AC8	A-AC9	A-AC10	A-AC11	A-AC12	A-AC13	A-AC14	A-AC15	A-AC16	A-DC1	A-DC2	A-DC3	A-DC4	A-DC5	A-DC6	A-DC7	A-DC8	A-DC9	A-DC10	A-DC11	A-DC12	A-DC13	A-DC14	A-DC15	A-DC16	A-Ph1	A-Ph2	A-Ph3	A-Ph4	A-Ph5	A-Ph6	A-Ph7	A-Ph8	A-Ph9	A-Ph10	A-Ph11	A-Ph12	A-Ph13	A-Ph14	A-Ph15	A-Ph16	B-AC1	B-AC2	B-AC3	B-AC4	B-AC5	B-AC6	B-AC7	B-AC8	B-AC9	B-AC10	B-AC11	B-AC12	B-AC13	B-AC14	B-AC15	B-AC16	B-DC1	B-DC2	B-DC3	B-DC4	B-DC5	B-DC6	B-DC7	B-DC8	B-DC9	B-DC10	B-DC11	B-DC12	B-DC13	B-DC14	B-DC15	B-DC16	B-Ph1	B-Ph2	B-Ph3	B-Ph4	B-Ph5	B-Ph6	B-Ph7	B-Ph8	B-Ph9	B-Ph10	B-Ph11	B-Ph12	B-Ph13	B-Ph14	B-Ph15	B-Ph16	aux-1	digaux	

1627.213	1	1	0	768	0.18194	0.13259	0.23616	0.07035	0.089369	0.097415	0.11045	0.17667	0.18285	0.34068	0.2967	0.31328	0.38497	0.18193	0.066474	0.083071	-0.6125	-0.79792	-0.38333	-1.4146	-0.80833	-0.55	-1.4438	-0.62708	-1.0208	-1.15	-0.49583	-1.425	-0.71042	-0.70417	-1.3333	-0.68542	512.646	289.432	309.258	510.845	293.591	178.114	509.776	185.651	460.484	312.294	520.070	182.633	501.893	517.649	246.329	424.706	0.00034832	0.00014779	3.8433e-06	962.77	2.2287e-06	1.9802e-06	1070.1	213.72	6.9742e-07	2.7111e-06	274.68	78.78	60.123	17.66	7.1115e-07	24.986	9.3652e-05	8.0985e-05	2.0675e-05	921.95	9.5935e-07	8.608e-07	1020.8	205.31	9.4171e-07	8.8357e-07	260.82	75.176	56.358	17.007	8.5853e-07	24.058	309.506	500.982	314.088	176.361	261.086	356.116	177.225	183.662	501.468	297.341	183.486	190.196	190.393	198.243	519.893	196.921	-8191	255	
1627.310	1	1	0	0	0.13715	0.20618	0.26153	0.15132	0.21839	0.13297	0.21359	0.24868	0.15661	0.19361	0.1252	0.17012	0.10825	0.076926	0.23484	0.25238	-0.575	-1.3146	-0.34583	-1.5438	-0.85417	-0.77917	-1.5875	-0.825	-0.99375	-1.4062	-0.41667	-1.2458	-1.2062	-0.40417	-1.4104	-0.89167	483.285	458.119	511.628	200.563	458.232	176.349	463.138	193.822	450.979	346.733	492.413	200.579	291.518	349.785	233.651	486.932	0.00032139	0.00023156	9.5199e-05	964.16	9.5499e-07	1.6061e-06	1073.7	213.18	1.9283e-06	1.7373e-06	276.03	78.642	60.542	17.569	2.5078e-06	25.026	9.0535e-05	8.1187e-05	2.1573e-05	923.3	9.6144e-07	8.4892e-07	1023.8	205.64	9.3612e-07	8.7412e-07	261.5	75.072	56.395	17.02	8.7967e-07	24.085	301.061	267.173	221.093	176.418	184.615	381.324	177.316	183.706	324.906	199.675	183.481	190.594	190.355	198.175	244.287	196.987	-8191	255	
1627.406	1	1	0	0	0.34265	0.16587	0.14481	0.057668	0.12268	0.1733	0.17352	0.2228	0.12427	0.10225	0.11069	0.071881	0.084069	0.15799	0.21902	0.1882	-0.49375	-1.3896	-0.33125	-1.2625	-1.0479	-0.49167	-1.4833	-0.91458	-0.58333	-1.2896	-0.57292	-1.0542	-1.0812	-0.56042	-1.1167	-0.64375	273.637	199.886	310.274	166.360	360.814	391.288	213.774	497.194	207.753	516.128	398.529	296.137	346.213	288.977	294.249	388.258	0.00035964	4.5966e-05	8.7798e-05	965.52	5.3732e-06	7.2673e-07	1071.2	213.82	2.0581e-06	1.9914e-06	277.6	79.358	60.637	17.49	4.1097e-06	24.849	8.952e-05	7.8472e-05	2.2814e-05	922.83	9.2339e-07	8.3986e-07	1022.4	205.42	8.9829e-07	8.6131e-07	262.14	75.3	56.308	16.954	9.5171e-07	23.99	303.821	287.051	515.678	176.342	255.553	345.883	176.935	183.676	316.301	339.836	183.436	190.066	190.138	197.624	266.764	197.012	-8191	255	
1627.502	1	1	0	0	0.059963	0.034056	0.15387	0.11227	0.17646	0.15008	0.065942	0.18777	0.27001	0.10494	0.11258	0.095601	0.27302	0.35074	0.13408	0.12389	-0.4	-1.5229	-0.52917	-1.2437	-0.99167	-0.45625	-1.225	-0.92917	-0.58333	-1.4271	-0.45417	-0.89583	-1.3458	-0.63333	-1.425	-1.05	463.111	189.927	476.389	398.012	330.668	416.072	329.382	205.097	195.912	361.359	193.224	173.030	215.226	432.623	353.096	455.207	0.00028668	0.00014088	2.1055e-05	962.04	3.4934e-06	1.8552e-06	1072.5	213.27	4.6819e-06	1.2834e-06	273.16	78.418	60.24	17.577	2.7395e-06	24.891	8.6221e-05	7.8988e-05	2.4279e-05	921.94	9.2053e-07	8.3319e-07	1022.5	205.33	8.7909e-07	8.368e-07	261.37	75.012	56.072	16.944	9.7265e-07	23.927	308.081	253.175	177.700	176.441	207.255	359.516	177.045	183.624	360.078	289.210	183.352	190.370	190.332	197.748	320.917	196.793	-8191	255	
1627.598	1	1	0	0	0.11409	0.3468	0.14758	0.12256	0.22171	0.14523	0.17466	0.14795	0.069683	0.29807	0.13684	0.19373	0.23313	0.2414	0.023371	0.08114	-0.11458	-1.1354	-0.3875	-0.82083	-1.2146	-0.41875	-1.3583	-1.0688	-0.52292	-1.4479	-1	-0.83958	-1.4229	-0.4125	-1.2437	-1.1063	396.883	340.071	390.855	221.234	482.522	415.216	489.427	185.123	294.145	496.753	415.298	279.296	511.503	467.211	336.025	487.248	0.00034112	0.00011981	4.6257e-05	965.29	1.5933e-06	4.8359e-06	1078.6	213.94	1.1513e-07	5.8027e-06	274.39	79.229	59.592	17.492	1.9749e-06	25.017	8.4956e-05	7.7719e-05	2.4776e-05	920.6	8.8838e-07	8.3682e-07	1025	205.15	8.6002e-07	8.6843e-07	261.61	74.968	55.985	16.959	9.7749e-07	23.976	305.107	225.388	240.370	176.572	284.891	284.488	177.320	183.803	484.328	256.660	182.975	190.380	190.772	197.689	333.548	197.144	-8191	255	
1627.694	1	1	0	0	0.23424	0.26533	0.22473	0.40452	0.2066	0.18602	0.19532	0.24519	0.25645	0.16331	0.30384	0.012464	0.10928	0.11404	0.054689	0.3227	-0.01875	-1.2333	-0.91042	-0.89375	-1.3646	-0.44375	-1.1708	-1.2667	-0.32917	-1.3937	-0.97708	-0.59375	-1.3042	-0.38542	-1.1104	-1.3438	379.510	238.612	208.706	171.940	219.615	487.841	458.117	458.747	316.787	292.337	475.672	201.721	208.298	477.255	459.912	373.756	0.00032014	5.8934e-05	9.4051e-05	963.61	3.117e-06	1.1631e-06	1076.3	213.57	2.7605e-06	2.3807e-06	276.43	79.295	60.661	17.55	4.3133e-06	24.936	8.1703e-05	8.1671e-05	2.481e-05	920.37	8.6233e-07	8.9967e-07	1023.4	205.01	8.4191e-07	9.2246e-07	261.67	75.097	56.163	16.977	9.6566e-07	23.943	300.694	248.812	217.635	176.414	214.606	220.543	177.479	183.865	307.948	264.121	183.162	190.306	190.531	198.140	272.875	196.834	-8191	255	
1627.813	1	1	0	0	0.13487	0.13048	0.10919	0.12976	0.19794	0.23022	0.18727	0.017531	0.059844	0.29224	0.24899	0.2438	0.18622	0.38289	0.22781	0.29248	0.05625	-1.1708	-0.88125	-0.62083	-1.3208	-0.64375	-1.0438	-1.4312	-0.4125	-1.3062	-1.0271	-0.5	-1.2167	-0.58125	-0.96667	-1.2521	502.466	328.480	410.994	487.057	298.016	349.819	501.398	424.181	426.817	500.984	415.801	475.075	208.841	489.846	391.865	454.536	0.00034251	0.00010056	3.5916e-05	960.56	2.5483e-06	4.0245e-07	1076.5	212	3.4167e-06	1.9072e-06	272.64	78.722	60.054	17.479	4.1339e-07	24.853	8.0618e-05	8.6509e-05	2.4283e-05	919.12	8.4303e-07	9.7819e-07	1025.3	204.37	8.3889e-07	9.6699e-07	261.52	74.841	56.151	17.021	9.4065e-07	23.88	296.277	237.960	525.294	176.236	451.448	523.636	177.320	183.656	361.703	370.959	183.372	190.430	190.651	197.955	451.074	196.555	-8191	255	
1627.909	1	1	0	0	0.060116	0.32176	0.12573	0.16262	0.28548	0.18153	0.26983	0.26708	0.33454	0.043707	0.23378	0.27087	0.11249	0.066095	0.25356	0.21424	-0.17083	-1.025	-0.83542	-0.40625	-1.3167	-0.60625	-0.82917	-1.4646	-0.29167	-1.1417	-1.0479	-0.55208	-1.2979	-0.61875	-0.76667	-1.3563	175.342	352.321	275.166	514.863	260.438	195.944	420.598	489.549	167.145	234.158	481.993	421.748	470.510	524.051	410.786	491.258	0.00034359	0.00019821	5.1686e-05	965.91	1.9647e-06	1.9337e-06	1076.4	213.01	3.6465e-06	2.6827e-06	275.02	78.614	60.314	17.501	4.1232e-06	24.817	8.5453e-05	9.038e-05	2.3714e-05	920.66	9.1699e-07	9.9842e-07	1024.5	205.19	9.2738e-07	1.0084e-06	261.08	74.849	56.314	17.06	9.3996e-07	23.828	304.579	278.365	280.080	175.930	204.880	390.267	177.550	183.853	287.132	285.260	183.102	190.149	190.708	197.682	264.625	196.498	-8191	255	
1628.005	1	1	0	0	0.18887	0.10306	0.11353	0.1649	0.28688	0.21504	0.22749	0.091656	0.25997	0.070888	0.17002	0.087836	0.20406	0.21954	0.20813	0.14567	-0.060417	-0.99792	-1.225	-0.58333	-1.2146	-0.82708	-1.0312	-1.6229	-0.61042	-0.93958	-1.3312	-0.37708	-1.2188	-0.95417	-0.52917	-1.3583	486.639	415.077	241.386	395.881	391.452	282.038	456.956	487.843	464.128	389.870	478.101	246.508	432.876	193.414	483.913	445.675	0.00031443	0.00017561	0.00015017	967.43	3.0909e-06	1.6957e-06	1074	213.33	3.2659e-06	1.5181e-06	275.25	79.138	60.575	17.538	2.2153e-06	24.816	9.7184e-05	9.584e-05	2.5007e-05	921.75	1.0442e-06	1.0852e-06	1025	205.22	1.0969e-06	1.0826e-06	262.45	75.306	56.8	17.062	1.0083e-06	23.88	300.615	321.659	247.578	176.369	319.107	320.934	177.113	183.562	298.982	384.953	182.982	190.052	190.367	197.857	249.268	196.646	-8191	255	
1628.101	1	1	0	0	0.064615	0.094051	0.26062	0.24143	0.18	0.16172	0.32532	0.0801	0.18332	0.023264	0.15535	0.38164	0.1627	0.22313	0.11883	0.057552	-0.18542	-0.78542	-1.05	-0.54375	-1.0333	-0.79792	-0.67292	-1.4875	-0.64167	-0.70625	-1.2437	-0.40625	-1.0333	-1.1167	-0.525	-1.4521	371.369	485.614	401.150	479.919	403.504	377.145	498.411	312.651	260.268	421.144	478.676	475.411	448.124	436.851	238.333	256.041	0.00031048	0.00017142	0.00010751	973.63	9.3931e-07	2.3736e-06	1077.4	212.55	2.5095e-06	2.9629e-06	274.86	78.975	59.491	17.526	3.8584e-06	24.626	0.00010964	9.9148e-05	2.5872e-05	928.07	1.1524e-06	1.0816e-06	1027.3	204.84	1.1578e-06	1.075e-06	261.86	75.175	56.469	17.014	9.944e-07	23.676	287.625	279.559	234.326	176.355	321.352	394.298	176.980	183.548	322.132	320.315	183.730	190.054	190.493	197.786	250.400	196.995	-8191	255	
1628.198	1	1	0	0	0.19337	0.19516	0.13862	0.34619	0.059547	0.28638	0.11934	0.26968	0.1065	0.11452	0.2391	0.041435	0.16252	0.24872	0.082958	0.1372	-0.21667	-0.68333	-1.2208	-0.61458	-1.2125	-1.1833	-0.575	-1.5833	-0.47292	-0.60417	-1.2708	-0.725	-1.0979	-1.2771	-0.5875	-1.4062	412.241	521.313	409.210	512.813	400.225	237.004	473.734	340.540	484.161	407.938	418.498	257.085	470.750	489.279	447.055	336.829	0.00032078	0.00029777	2.2875e-05	967.42	1.7084e-06	2.1366e-06	1076	211.99	2.4426e-06	2.2054e-06	274.38	78.828	59.94	17.249	4.568e-06	24.471	0.00011247	9.7409e-05	2.5718e-05	926.1	1.1534e-06	1.0488e-06	1027.3	204.38	1.1611e-06	1.0092e-06	260.57	75	56.555	16.809	9.422e-07	23.663	303.554	313.348	213.049	176.411	260.005	195.080	177.087	183.717	401.035	337.647	183.287	190.195	190.101	197.701	338.820	197.135	-8191	255	
1628.294	1	1	0	0	0.12189	0.21649	0.088866	0.23846	0.20229	0.16201	0.041155	0.23765	0.15693	0.055541	0.15648	0.25594	0.16949	0.40137	0.11565	0.1935	-0.50833	-0.47917	-1.2313	-0.675	-0.86458	-1.1771	-0.44167	-1.4937	-0.85417	-0.58333	-1.325	-0.52292	-0.95208	-1.3396	-0.4125	-1.2229	355.130	176.032	444.484	438.035	224.609	450.690	214.539	484.451	274.472	297.536	436.628	488.604	428.632	490.102	485.075	400.665	0.00024088	0.00018744	5.7249e-05	966.79	3.8487e-06	7.8417e-07	1071.4	211.24	2.8959e-06	3.3453e-06	271.14	78.401	60.052	17.136	2.6365e-06	24.437	0.00010745	9.0261e-05	2.4638e-05	923.58	1.0922e-06	1.0108e-06	1022.2	203.73	1.085e-06	9.825e-07	259.32	75.116	56.346	16.71	9.5716e-07	23.652	301.332	259.079	215.046	176.266	273.003	215.753	177.189	183.805	353.506	359.436	183.324	190.385	190.622	197.788	287.025	197.040	-8191	255	
1628.414	1	1	0	0	0.14534	0.2522	0.2914	0.1394	0.054498	0.061813	0.41788	0.026249	0.20299	0.35999	0.16308	0.24335	0.054666	0.19896	0.10883	0.039013	-0.39375	-0.52917	-1.4646	-0.53958	-0.88125	-1.2292	-0.6875	-1.3208	-1.0208	-0.53958	-1.4646	-0.775	-0.78125	-1.1396	-0.42708	-1.2604	502.093	212.954	301.054	481.161	331.720	445.936	451.345	450.368	427.740	289.944	411.306	231.191	354.896	169.812	320.802	172.847	0.00028503	0.00029678	2.8621e-05	961.46	2.0213e-06	1.7594e-06	1069.8	211.31	2.1408e-06	2.411e-06	272.01	78.323	60.111	17.256	3.4059e-06	24.347	9.9654e-05	8.5375e-05	2.4087e-05	921.84	1.0031e-06	9.3887e-07	1020.1	203.19	1.036e-06	9.0999e-07	258.74	74.764	56.075	16.678	9.9851e-07	23.632	310.376	217.210	306.402	176.427	261.149	471.099	176.834	183.882	280.416	309.375	183.519	190.120	190.880	198.171	266.787	196.959	-8191	255	
1628.511	1	1	0	0	0.35696	0.10748	0.14554	0.13241	0.067187	0.12467	0.060823	0.21254	0.17923	0.17673	0.11048	0.10965	0.12072	0.31586	0.16702	0.22469	-0.54792	-0.35208	-1.0583	-0.88125	-0.59375	-1.2938	-0.45	-1.0979	-1.1	-0.275	-1.3438	-0.90417	-0.79167	-1.3625	-0.62292	-1.0229	448.011	279.760	322.093	521.475	223.441	386.877	197.746	364.252	167.619	456.258	491.992	330.906	489.959	207.911	238.062	268.480	0.000319	0.000207	2.7918e-05	960.05	2.518e-06	9.0573e-07	1066.5	211.31	1.5634e-06	9.6298e-07	271.95	77.912	60.281	17.255	2.8617e-06	24.426	9.6452e-05	8.1421e-05	2.5624e-05	921.29	9.9064e-07	9.3357e-07	1020	203.06	9.9261e-07	9.1983e-07	259.29	74.635	56.033	16.676	1.0653e-06	23.608	296.292	218.423	303.895	176.449	290.421	458.137	177.153	183.907	340.609	492.398	183.363	190.195	190.430	197.464	332.043	196.904	-8191	255	
1628.605	1	1	0	0	0.11513	0.18275	0.21687	0.20303	0.14696	0.16173	0.30561	0.062351	0.23038	0.16367	0.19226	0.15084	0.12133	0.070309	0.10011	0.13653	-0.90208	-0.49167	-1.2792	-1.0812	-0.41667	-1.3604	-0.72292	-1.0021	-1.2104	-0.48125	-1.1521	-0.93333	-0.3875	-1.4167	-0.59375	-0.65833	233.568	214.179	276.824	516.850	480.009	418.130	468.213	357.531	396.405	335.829	218.416	446.570	424.935	180.399	517.570	449.113	0.00027393	0.0002136	1.8298e-05	957.24	2.222e-06	3.0185e-06	1071	210.36	2.2417e-06	2.1433e-06	272.54	78.344	60.132	17.309	1.1408e-06	24.539	9.6255e-05	8.387e-05	2.737e-05	919.21	9.9389e-07	9.4599e-07	1022.6	203.04	1.0101e-06	9.7006e-07	259.2	74.865	56.123	16.699	1.1251e-06	23.6	304.227	260.333	493.120	176.195	316.965	334.288	177.215	183.821	328.653	271.968	183.511	190.049	190.877	197.976	515.521	197.193	-8191	255	
1628.701	1	1	0	0	0.27084	0.2491	0.19646	0.11012	0.040058	0.23889	0.31892	0.088823	0.13506	0.21107	0.20462	0.13422	0.12972	0.18212	0.16482	0.16195	-0.97917	-0.42083	-1.1187	-1.0125	-0.52708	-1.5187	-0.81667	-0.7125	-1.4312	-0.38542	-1.0271	-1.0854	-0.4125	-1.3771	-0.92083	-0.78542	369.485	175.589	509.978	473.113	219.033	437.054	408.752	507.873	198.995	425.791	478.166	250.438	357.540	176.780	447.124	246.630	0.00029167	0.00027016	9.3929e-05	964.87	4.0858e-06	1.313e-06	1066.3	211.75	1.484e-06	1.3508e-06	273.31	78.132	59.638	17.091	3.5749e-06	24.536	9.5956e-05	8.9514e-05	2.7955e-05	920.26	9.5006e-07	9.9614e-07	1020.1	203.34	9.5976e-07	1.0326e-06	260.42	74.645	55.916	16.655	1.1298e-06	23.631	304.099	215.375	200.624	176.276	236.764	203.770	177.290	183.851	339.460	226.931	183.157	190.252	190.775	197.907	353.008	197.278	-8191	255	
1628.774	1	1	0	0	0.41105	0.18024	0.15262	0.20494	0.071812	0.095908	0.24356	0.24522	0.25776	0.16129	0.11285	0.15347	0.085409	0.21107	0.19544	0.18853	-1.1333	-0.37708	-1.0542	-1.1938	-0.39375	-1.2208	-1.05	-0.59167	-1.3167	-0.44792	-1.0146	-1.0792	-0.47708	-1.325	-0.72917	-0.51667	491.246	326.241	420.888	441.695	262.224	281.453	492.063	474.807	345.596	205.607	380.632	421.844	243.888	407.961	366.493	242.861	0.0003154	0.00030101	4.1931e-05	959.81	4.2558e-06	3.298e-06	1066.2	210.84	2.5115e-06	3.6036e-06	272.51	78.319	59.825	17.099	9.7183e-07	24.515	9.4804e-05	9.6829e-05	2.7696e-05	919.69	9.5586e-07	1.0919e-06	1020.9	202.87	9.7244e-07	1.0864e-06	259.2	74.524	55.939	16.717	1.0755e-06	23.535	311.282	275.783	291.456	176.196	221.378	304.012	177.179	184.048	312.814	315.723	183.334	190.219	190.910	198.103	273.166	197.010	-8191	255	
1628.893	1	1	0	0	0.15299	0.12904	0.1624	0.24664	0.30194	0.10478	0.34071	0.10154	0.14932	0.295	0.018396	0.1054	0.19236	0.053479	0.073721	0.17916	-1.0208	-0.36042	-0.95625	-1.3021	-0.64375	-1.1979	-1.0021	-0.65417	-1.1063	-0.675	-0.9	-1.3396	-0.42917	-1.0312	-1.05	-0.26667	436.629	180.987	281.138	433.694	356.420	522.559	470.142	472.791	332.039	267.600	263.850	378.753	206.582	421.736	395.555	424.076	0.0002874	8.212e-05	7.3566e-05	961.1	4.3192e-06	2.3426e-06	1068.9	211.76	5.3336e-06	3.1802e-06	273.09	78.482	60.333	17.042	1.5731e-06	24.298	9.3821e-05	0.00010188	2.7038e-05	921.15	9.797e-07	1.114e-06	1021.6	203.12	9.9663e-07	1.1416e-06	259.63	74.78	56.178	16.657	1.0544e-06	23.493	306.919	246.424	279.242	176.366	248.338	279.612	177.157	183.941	299.607	326.623	183.398	190.093	190.511	197.735	237.258	197.016	-8191	255	
1628.990	1	1	0	0	0.16036	0.14083	0.11095	0.10296	0.26255	0.055938	0.26923	0.18666	0.16497	0.12917	0.15395	0.15988	0.19561	0.047451	0.046014	0.11009	-1.0229	-0.62083	-0.65	-1.4438	-0.4625	-0.94375	-1.1708	-0.39167	-1.5354	-0.68125	-0.79167	-1.325	-0.44375	-0.81875	-1.1146	-0.52083	482.540	215.083	226.319	216.623	495.809	349.330	439.193	189.574	221.244	173.687	507.632	171.424	504.432	176.169	300.893	435.843	0.00025898	0.00023513	4.3058e-05	965.44	2.9672e-06	2.7942e-06	1067.4	210.81	1.2728e-06	3.7831e-06	271.54	78.366	59.277	17.222	8.0909e-07	24.367	9.8814e-05	0.00010252	2.5944e-05	920.8	1.0619e-06	1.1e-06	1022.5	203.03	1.0692e-06	1.1282e-06	259.18	74.555	55.999	16.68	1.035e-06	23.514	290.714	347.954	169.516	176.203	253.373	305.862	176.996	184.054	329.249	369.375	183.475	190.221	190.329	197.653	299.217	197.521	-8191	255	
1629.086	1	1	0	0	0.14916	0.11954	0.11859	0.18669	0.28757	0.24249	0.43213	0.19264	0.15114	0.17781	0.19087	0.20251	0.14819	0.18863	0.21506	0.03558	-0.96875	-0.8375	-0.57083	-1.5354	-0.54375	-0.98958	-1.4062	-0.47708	-1.2375	-0.94375	-0.65625	-1.5604	-0.50208	-0.875	-1.15	-0.5625	514.490	312.603	387.747	469.962	288.796	512.782	459.789	414.933	241.688	251.076	396.175	352.135	295.288	208.780	496.136	349.858	0.0002873	0.00014741	4.5507e-05	964.39	1.4685e-06	1.5992e-06	1066.6	210.25	3.0698e-06	2.464e-06	271.76	78.218	59.629	17.174	1.9834e-06	24.31	0.00010526	0.00010105	2.5271e-05	922.18	1.1242e-06	1.0657e-06	1021.4	202.81	1.1266e-06	1.0694e-06	259.43	74.563	56.132	16.712	1.0153e-06	23.526	301.199	285.226	191.644	176.629	307.956	306.265	177.111	183.690	330.426	313.883	183.807	190.566	190.728	198.068	328.767	196.956	-8191	255	
1629.206	1	1	0	0	0.08962	0.25412	0.069239	0.36367	0.25141	0.11933	0.10239	0.41523	0.20612	0.1168	0.1208	0.30582	0.15751	0.21979	0.085973	0.053687	-0.93958	-0.89375	-0.57292	-1.5271	-0.76667	-0.73958	-1.5521	-0.75208	-1.0938	-1.0292	-0.52917	-1.2792	-0.77292	-0.7375	-1.3854	-0.48333	202.772	457.322	220.348	493.287	488.642	300.128	223.516	481.060	180.562	274.766	391.810	463.086	363.920	491.811	360.214	445.108	0.0003513	0.00024759	7.4412e-05	965.5	1.4193e-06	4.0427e-07	1073	210.16	2.1516e-06	2.3314e-06	273.13	78.459	59.525	17.184	3.3778e-06	24.284	0.0001079	9.85e-05	2.4816e-05	923.16	1.1469e-06	1.0363e-06	1022.6	202.7	1.1445e-06	1.031e-06	258.79	74.595	56.172	16.675	9.8843e-07	23.552	296.533	295.114	237.586	176.215	280.638	337.969	177.316	183.649	309.508	315.985	183.188	190.730	190.478	198.429	397.612	197.054	-8191	255	
1629.302	1	1	0	0	0.0754	0.32099	0.022162	0.32131	0.18378	0.3134	0.24319	0.42418	0.21411	0.098492	0.22856	0.062751	0.08603	0.086878	0.19665	0.34979	-0.60417	-1.0479	-0.36667	-1.3521	-0.95	-0.63125	-1.2833	-0.51667	-0.97917	-1.1208	-0.42917	-1.3104	-0.85833	-0.4875	-1.2125	-0.57083	308.087	303.096	456.583	178.624	448.433	239.626	441.017	455.802	306.530	332.917	515.698	428.447	524.535	364.748	459.019	485.259	0.00031094	0.00021138	0.00013883	967.05	3.6925e-06	1.9674e-06	1072.6	210.74	2.031e-06	6.5077e-07	272.81	77.922	59.67	17.031	2.2306e-06	24.473	0.00010829	9.3708e-05	2.4482e-05	922.46	1.1343e-06	9.928e-07	1022.5	203.12	1.1065e-06	1.0113e-06	258.84	74.599	56.109	16.616	9.587e-07	23.679	301.279	207.661	260.394	176.435	308.077	373.783	177.425	183.476	354.092	366.356	183.529	190.535	190.548	197.936	278.754	197.185	-8191	255	
1629.374	1	1	0	0	0.14121	0.029849	0.22461	0.20636	0.074366	0.10084	0.16913	0.31886	0.20988	0.14957	0.24822	0.20707	0.17851	0.18804	0.16524	0.065824	-0.69167	-1.0938	-0.36042	-1.3708	-0.99583	-0.54375	-1.5375	-0.53125	-0.875	-1.2083	-0.71667	-1.2042	-0.86042	-0.35833	-1.5208	-0.61875	255.401	412.015	279.407	465.844	397.755	361.580	505.616	435.051	278.031	465.513	473.314	489.042	370.667	225.571	464.184	414.488	0.00021426	0.000132	8.6419e-05	960.56	1.6317e-06	2.1679e-06	1069.1	210.59	3.2979e-06	5.8139e-06	273.8	78.69	59.59	17.104	1.5798e-06	24.29	0.00010232	9.0062e-05	2.3992e-05	922.24	1.0812e-06	9.6169e-07	1022.1	203.27	1.0457e-06	1.0016e-06	259.41	75.14	56.014	16.611	1.0234e-06	23.574	293.171	323.911	236.985	176.447	236.990	359.863	177.233	183.601	293.874	297.885	183.212	190.719	190.487	198.107	510.393	197.038	-8191	255	
1629.495	1	1	0	0	0.17492	0.14539	0.26359	0.17215	0.25384	0.10244	0.1837	0.13057	0.25943	0.47005	0.33905	0.2788	0.18346	0.25883	0.39189	0.084414	-0.53958	-1.3854	-0.49167	-1.325	-1.1083	-0.49583	-1.5375	-0.775	-0.46458	-1.2687	-0.59792	-1.2062	-1.1583	-0.49375	-1.2812	-0.85833	303.475	273.829	488.142	169.668	489.740	522.116	480.074	307.125	514.782	484.388	195.573	225.152	402.764	295.459	195.163	217.652	0.00039968	0.00017833	7.7235e-05	961.33	7.8154e-07	2.1843e-06	1073.7	210.79	3.5159e-06	1.8039e-06	272.67	78.61	60.152	17.032	5.8622e-06	24.149	9.9606e-05	8.8331e-05	2.5664e-05	921.84	1.0385e-06	9.4577e-07	1023.9	203.19	1.0242e-06	9.7764e-07	259.48	74.848	56.25	16.609	1.0979e-06	23.64	299.783	202.822	205.445	176.506	450.996	369.819	177.206	183.850	333.893	321.201	183.342	190.469	190.602	197.894	259.872	197.004	-8191	255	
1629.591	1	1	0	0	0.1501	0.13214	0.18346	0.19279	0.089255	0.16757	0.28141	0.20056	0.10828	0.21747	0.31203	0.11638	0.090879	0.10509	0.28586	0.36937	-0.25	-1.1542	-0.43333	-1.2333	-1.1917	-0.57083	-1.3083	-0.92292	-0.375	-1.2833	-0.62083	-0.99792	-1.2083	-0.4625	-1.2125	-1.05	257.725	285.486	419.450	446.628	481.007	315.765	476.978	453.750	320.755	467.070	430.636	369.262	369.148	356.458	430.288	509.307	0.00033174	0.00014425	0.00011934	965.02	3.405e-06	2.7908e-06	1073.4	210.15	4.7313e-06	1.413e-06	271.44	78.144	60.231	17.145	1.8851e-06	24.432	9.8307e-05	8.7986e-05	2.8016e-05	922.4	1.0391e-06	9.6336e-07	1023.9	202.92	9.9602e-07	9.7987e-07	259.51	74.841	56.303	16.643	1.1307e-06	23.523	306.039	262.670	221.082	176.275	252.568	398.006	177.312	184.085	345.034	310.616	183.399	190.286	190.212	198.122	324.370	197.218	-8191	255	
1629.685	1	1	0	0	0.17613	0.17782	0.2264	0.35985	0.18116	0.19312	0.053713	0.2758	0.28377	0.22975	0.30591	0.24462	0.15336	0.27828	0.15002	0.10158	-0.052083	-1.2729	-0.49167	-1.0625	-1.2229	-0.43958	-1.2625	-1.1125	-0.38333	-1.4542	-0.66667	-0.6	-1.475	-0.525	-1.1479	-1.1875	409.064	370.365	519.087	455.934	223.026	271.533	475.794	508.658	333.557	418.376	168.989	233.929	327.164	225.674	261.049	357.685	0.00030938	0.0002759	3.1603e-05	963.93	2.4091e-06	4.5187e-07	1069.4	210.33	2.2517e-06	5.1746e-07	272.86	78.678	59.794	17.113	3.192e-06	24.422	9.5071e-05	9.0523e-05	2.8926e-05	921.34	1.0071e-06	9.8889e-07	1022.7	202.9	9.7673e-07	1.0193e-06	259.99	74.791	56.078	16.658	1.1146e-06	23.504	301.263	275.826	217.923	176.412	229.501	275.598	177.263	183.675	326.522	178.222	183.569	190.508	190.673	198.369	331.110	196.800	-8191	255	
1629.806	1	1	0	0	0.16606	0.048958	0.23186	0.41402	0.35207	0.25438	0.20259	0.1119	0.028434	0.28787	0.22858	0.27711	0.26614	0.23589	0.15403	0.16507	0.19583	-1.3833	-0.81042	-0.75208	-1.3146	-0.67708	-1.3479	-1.2812	-0.30833	-1.3062	-0.66667	-0.82083	-1.4125	-0.24583	-0.95417	-1.1229	245.767	242.257	497.563	491.403	486.057	445.973	466.174	520.772	175.170	337.742	475.549	195.320	516.996	513.489	436.414	465.808	0.00034472	0.00014006	5.5674e-05	965.75	1.2873e-06	1.5197e-06	1068.9	210.41	1.7852e-06	4.758e-06	272.66	78.723	59.823	17.082	2.9222e-06	24.498	9.272e-05	9.6371e-05	2.8692e-05	923.12	9.809e-07	1.0511e-06	1024.3	202.74	9.6044e-07	1.0482e-06	259.77	74.776	56.064	16.668	1.0801e-06	23.618	301.516	219.337	265.784	176.695	256.036	410.335	177.285	183.871	404.000	312.923	183.642	190.834	190.610	198.203	318.081	196.751	-8191	255	
1629.902	1	1	0	0	0.11169	0.19859	0.1195	0.48068	0.06075	0.076145	0.13132	0.18762	0.26798	0.15009	0.20805	0.28744	0.091326	0.064899	0.1977	0.25453	0.10625	-1.3083	-0.775	-0.55625	-1.4417	-0.56042	-1.0792	-1.4188	-0.18333	-1.3708	-1.0729	-0.74583	-1.4937	-0.68125	-0.87708	-1.525	281.612	375.829	479.360	509.721	400.112	376.111	376.240	458.879	500.012	369.254	275.194	177.896	458.350	496.570	495.509	236.826	0.00034698	0.00015395	7.5472e-05	961.56	2.9117e-06	4.2888e-06	1073.4	210.77	3.5438e-06	2.9187e-06	273.16	78.174	60.091	17.177	3.4486e-07	24.334	9.1586e-05	9.975e-05	2.7756e-05	921.68	9.7569e-07	1.088e-06	1023.5	203.11	9.6671e-07	1.1328e-06	259.77	74.584	56.19	16.741	1.0496e-06	23.564	305.737	194.755	214.154	176.482	189.544	313.796	177.376	183.855	294.081	307.130	183.274	190.711	190.420	197.847	336.229	197.517	-8191	255	
1629.998	1	1	0	0	0.061649	0.14183	0.24258	0.1653	0.37454	0.33804	0.19713	0.30898	0.17561	0.31365	0.15816	0.21833	0.15218	0.20803	0.12063	0.12314	0.15	-1.0438	-1.0333	-0.7625	-1.3542	-0.77708	-0.74792	-1.4354	-0.33333	-1.0833	-1.1875	-0.40833	-1.4167	-0.7125	-0.625	-1.5354	366.741	397.997	355.986	256.563	414.080	476.168	359.122	480.057	502.719	512.573	316.158	328.229	234.659	465.519	264.477	222.664	0.00035074	0.00010029	7.0772e-05	965.73	4.0363e-06	6.0772e-07	1075.3	210.85	2.6005e-06	3.6298e-06	271.68	77.768	59.661	17.221	3.7527e-06	24.364	9.4583e-05	0.00010177	2.6236e-05	922.53	1.0244e-06	1.1106e-06	1024.1	202.76	1.0498e-06	1.0957e-06	259.28	74.511	56.102	16.719	9.906e-07	23.536	312.446	506.522	262.011	176.444	211.342	322.068	177.383	183.625	352.772	320.009	183.069	190.702	190.600	197.790	285.806	197.297	-8191	255	
1630.070	1	1	0	0	0.10794	0.096566	0.21432	0.38724	0.23864	0.1203	0.2157	0.37581	0.36385	0.14869	0.20707	0.26117	0.082424	0.22298	0.35281	0.060482	-0.11042	-0.91875	-1.1896	-0.35417	-1.3021	-0.79167	-0.68542	-1.3333	-0.36875	-0.9875	-1.2958	-0.50208	-1.1208	-0.79375	-0.54792	-1.3771	289.249	397.634	230.290	398.667	361.803	450.378	465.402	172.929	168.245	307.151	448.323	353.657	318.871	263.177	498.251	504.531	0.00032357	0.00021912	7.9815e-05	963.47	4.1836e-06	4.5221e-06	1072.5	211.41	4.7689e-06	2.4781e-06	273.69	78.129	60.135	17.115	6.6437e-07	24.525	0.00010007	9.7614e-05	2.4945e-05	920.6	1.0704e-06	1.0626e-06	1021.2	203.05	1.0959e-06	1.0483e-06	259.79	74.539	56.306	16.649	9.6123e-07	23.574	292.715	260.101	230.904	176.580	175.356	388.863	177.240	183.958	299.356	354.944	183.294	190.346	190.781	198.223	309.831	197.134	-8191	255	
1630.191	1	1	0	0	0.070215	0.12752	0.1276	0.084492	0.10321	0.45593	0.29015	0.38002	0.26165	0.17878	0.14681	0.20977	0.17257	0.30556	0.3	0.072382	-0.28542	-0.76875	-1.1354	-0.50833	-1.2396	-0.99167	-0.71875	-1.4875	-0.53125	-0.94792	-1.2125	-0.48958	-1.3021	-1.2771	-0.52292	-1.6104	263.786	213.022	498.275	502.170	255.035	449.580	482.047	509.608	188.477	310.643	478.792	323.292	209.381	504.852	262.720	475.096	0.00032224	0.00011188	5.5815e-05	959.06	1.2877e-06	3.636e-06	1069.7	210.91	4.3301e-06	2.1888e-06	273.13	78.181	59.802	17.176	2.6129e-06	24.168	0.00010197	9.3365e-05	2.489e-05	917.77	1.1054e-06	1.0251e-06	1021	202.58	1.1141e-06	1.0084e-06	259.97	74.588	56.223	16.663	9.4852e-07	23.493	295.996	278.769	242.216	176.514	250.959	295.739	177.269	184.141	337.328	304.482	183.428	191.071	190.425	197.906	273.475	197.064	-8191	255	
1630.287	1	1	0	0	0.17345	0.051032	0.13072	0.14899	0.24573	0.10658	0.29085	0.23867	0.17778	0.23904	0.20333	0.098663	0.091396	0.19084	0.10958	0.24388	-0.41667	-0.64375	-1.425	-0.49792	-1.3687	-1.2333	-0.70417	-1.4438	-0.78958	-0.62083	-1.7042	-0.54167	-1.0729	-1.1063	-0.35	-1.1562	417.938	348.556	419.894	516.475	436.533	183.860	375.719	414.452	481.787	326.867	407.744	513.588	439.703	285.777	435.779	310.067	0.00033182	0.00014581	1.1683e-05	955.93	2.8095e-06	1.7505e-06	1070	211.44	2.6404e-06	3.3259e-06	272.65	78.239	60.286	17.193	2.0583e-06	24.393	0.00010702	9.1071e-05	2.4659e-05	918.4	1.0926e-06	9.795e-07	1020.5	203.14	1.1191e-06	9.6281e-07	259.21	74.783	56.354	16.669	9.3266e-07	23.651	297.597	219.917	263.230	176.506	301.350	386.967	177.360	184.064	329.187	302.380	183.354	190.643	191.125	198.119	188.542	197.101	-8191	255	
1630.383	1	1	0	0	0.07252	0.17752	0.11625	0.13089	0.28663	0.17163	0.15698	0.29219	0.21273	0.15241	0.12623	0.17319	0.25041	0.0779	0.16944	0.085635	-0.44583	-0.51667	-1.3625	-0.70417	-0.92708	-1.1917	-0.48125	-1.4583	-0.8375	-0.54792	-1.4438	-0.64167	-0.875	-1.2167	-0.62917	-1.3062	275.293	525.199	506.725	216.443	206.976	454.057	456.199	170.015	382.514	455.937	497.718	429.476	348.795	395.634	275.017	488.287	0.00035401	0.00028894	1.76e-05	962.62	1.9346e-06	1.0354e-06	1071.8	211.13	1.9418e-06	9.665e-07	271.11	78.487	60.362	17.198	2.7235e-06	24.351	0.00010444	8.9238e-05	2.4428e-05	920.86	1.0884e-06	9.8387e-07	1020.5	203.22	1.0941e-06	9.7015e-07	259.11	74.97	56.246	16.691	9.7394e-07	23.65	297.269	218.624	493.838	176.743	277.515	319.590	177.478	184.102	370.893	411.771	183.840	190.555	190.432	198.492	226.143	197.423	-8191	255	
1630.479	1	1	0	0	0.12778	0.16127	0.15004	0.13253	0.21243	0.24073	0.23075	0.12896	0.12265	0.025453	0.060923	0.070197	0.12033	0.11972	0.29293	0.15224	-0.79792	-0.32292	-1.4833	-0.67917	-0.87083	-1.3896	-0.53958	-1.2417	-1.1125	-0.52708	-1.4333	-0.8125	-0.75625	-1.3583	-0.56458	-1.0833	227.240	471.196	247.024	494.021	519.820	373.349	167.734	358.445	403.990	283.315	350.029	273.073	311.496	333.543	344.355	285.124	0.00028041	0.00025104	2.3141e-05	959.56	2.6785e-06	1.5187e-06	1068.8	210.25	3.7276e-06	4.9964e-07	272.71	78.144	59.455	17.049	2.3385e-06	24.318	0.00010343	8.7347e-05	2.5563e-05	920.34	1.0459e-06	9.9098e-07	1020.7	203.17	1.0683e-06	9.5458e-07	259.4	74.965	56.057	16.603	1.0499e-06	23.628	300.939	214.223	261.005	176.445	255.007	393.765	177.604	184.055	313.015	272.357	183.486	190.712	190.797	198.116	270.164	197.315	-8191	255	
1630.598	1	1	0	0	0.25401	0.19381	0.29335	0.4145	0.13519	0.11239	0.46541	0.1334	0.33161	0.14222	0.39083	0.25201	0.093957	0.25026	0.041703	0.23072	-0.87292	-0.32917	-1.4021	-0.66458	-0.66875	-1.4292	-0.50208	-1.0625	-1.0812	-0.35	-1.5417	-0.84792	-0.52292	-1.5042	-0.48333	-1.0729	504.253	457.846	275.733	469.841	468.171	399.988	181.612	486.267	436.583	407.326	189.513	326.930	241.163	206.322	266.066	413.442	0.00036508	0.00016507	6.5071e-05	963.3	3.7587e-06	7.2647e-07	1072.6	210.93	4.152e-06	1.874e-06	272.62	78.882	59.531	17.202	1.0123e-06	24.514	0.00010089	8.8875e-05	2.7968e-05	922.64	1.0221e-06	9.9974e-07	1022	203.25	1.0638e-06	9.6643e-07	260.35	74.909	56.089	16.623	1.1399e-06	23.703	303.262	265.711	217.926	176.674	283.167	184.867	177.550	184.129	320.609	341.830	183.630	190.442	190.586	197.878	331.464	197.634	-8191	255	
1630.671	1	1	0	0	0.11831	0.19038	0.18293	0.4021	0.090116	0.075998	0.0031831	0.29304	0.072884	0.20862	0.50338	0.25153	0.14275	0.29766	0.099185	0.41767	-0.9125	-0.41042	-1.225	-0.97917	-0.45	-1.5125	-0.85625	-0.86875	-1.1875	-0.52708	-1.2229	-1.0125	-0.43333	-1.3521	-0.7125	-0.825	293.733	288.752	364.622	485.037	223.365	274.276	167.976	384.625	314.071	399.426	500.335	517.006	497.542	410.988	427.396	526.061	0.00032602	0.00025819	0.00011372	961.57	1.3238e-06	1.0545e-06	1067.6	210.96	5.7999e-06	3.2567e-06	273.88	78.513	60.01	17.189	2.761e-06	24.334	9.9041e-05	9.1487e-05	2.9329e-05	921.91	1.0204e-06	1.0115e-06	1021.6	203.15	1.0456e-06	1.0285e-06	260.94	74.704	56.234	16.659	1.1987e-06	23.567	304.952	273.558	429.548	176.649	233.646	260.750	177.380	184.363	336.580	269.471	183.676	190.684	190.437	198.199	294.466	197.331	-8191	255	
1630.767	1	1	0	0	0.076956	0.22214	0.17585	0.19899	0.12781	0.18084	0.23769	0.17884	0.18242	0.18718	0.1861	0.061907	0.20232	0.25326	0.15483	0.20788	-0.9875	-0.4625	-1.0104	-1.1667	-0.34583	-1.375	-0.90208	-0.73333	-1.275	-0.43125	-1.0292	-1.225	-0.32917	-1.3729	-0.80417	-0.60833	385.806	391.294	307.500	406.404	430.187	260.113	445.339	444.787	354.715	406.417	391.245	259.756	465.503	193.662	173.964	339.065	0.00035385	0.00018846	2.4874e-05	965.21	2.9818e-06	5.0646e-07	1065.1	211.47	7.2025e-06	2.6507e-06	274.26	77.73	60.083	17.229	2.4876e-06	24.489	9.9541e-05	9.5197e-05	3.0007e-05	922.39	1.0162e-06	1.0978e-06	1021.2	203.24	1.0462e-06	1.0768e-06	260.37	74.425	56.135	16.703	1.1856e-06	23.679	294.270	482.158	388.311	176.474	253.971	382.935	177.331	184.033	322.005	255.336	183.849	190.303	190.525	198.200	307.172	197.568	-8191	255	
1630.886	1	1	0	0	0.082877	0.044069	0.1939	0.17313	0.11918	0.25626	0.32436	0.20797	0.20287	0.17648	0.14792	0.15401	0.25694	0.25302	0.11299	0.27071	-1.0438	-0.44583	-0.86667	-1.4229	-0.30417	-1.4646	-1.0667	-0.81875	-1.2979	-0.59792	-0.86667	-1.275	-0.25833	-1.2083	-0.93333	-0.47292	396.019	311.443	179.469	453.299	287.480	174.783	502.665	451.294	241.653	266.455	480.211	297.030	477.917	457.709	409.987	426.210	0.00030126	3.331e-05	0.00010572	963.77	2.0788e-06	1.6278e-06	1069.7	211.17	3.4578e-06	3.6535e-06	272.48	78.666	59.96	17.192	2.4797e-06	24.509	9.7464e-05	0.00010371	2.9133e-05	920.12	1.0147e-06	1.1543e-06	1020.6	203.05	1.0237e-06	1.1661e-06	259.81	74.761	56.107	16.758	1.1434e-06	23.607	296.929	509.667	272.849	176.369	219.180	297.304	177.376	183.841	295.046	288.563	183.851	190.392	190.779	197.938	321.996	197.507	-8191	255	
1630.982	1	1	0	0	0.12278	0.15882	0.32771	0.24801	0.15753	0.16192	0.21299	0.25406	0.23391	0.1038	0.2061	0.31754	0.15078	0.16711	0.094993	0.22158	-1.0375	-0.51667	-0.84583	-1.4167	-0.41042	-1.075	-1.1271	-0.43542	-1.1729	-0.72917	-1.0104	-1.3375	-0.62083	-1.125	-0.9125	-0.34375	276.265	392.250	439.670	393.091	251.224	371.553	465.318	172.902	259.876	272.684	432.713	200.682	176.216	435.519	189.665	243.483	0.00034732	0.00019909	2.2823e-05	955.85	3.9609e-06	2.6029e-06	1071.8	211.55	2.6059e-06	1.4245e-06	272.5	78.18	60.065	17.082	4.3006e-06	24.357	0.00010084	0.00010833	2.7424e-05	917.66	1.0437e-06	1.1553e-06	1020.3	202.77	1.0764e-06	1.1974e-06	259.82	74.711	56.051	16.675	1.0987e-06	23.495	294.359	248.570	194.905	176.351	224.423	386.389	177.424	184.274	299.358	360.943	183.724	190.457	190.934	198.396	297.755	197.262	-8191	255	
1631.079	1	1	0	0	0.19137	0.11742	0.19869	0.61871	0.19246	0.17567	0.31024	0.024167	0.1327	0.28242	0.21264	0.16576	0.11357	0.26095	0.21207	0.27424	-0.975	-0.65208	-0.52708	-1.4146	-0.37083	-0.94167	-1.3354	-0.69792	-1.4312	-0.71042	-0.4875	-1.3	-0.525	-1.0375	-1.2646	-0.41042	509.248	279.776	481.841	475.129	470.772	403.302	436.896	473.391	411.163	458.503	394.116	440.724	198.502	199.245	247.104	261.662	0.00030168	0.00010592	6.8073e-05	960.84	2.686e-06	1.9078e-06	1071.7	211.1	3.2529e-06	3.0679e-07	271.49	78.552	60.306	17.186	2.205e-06	24.247	0.00010388	0.00010908	2.6531e-05	918.4	1.1074e-06	1.1352e-06	1021.2	203.17	1.1333e-06	1.1701e-06	259.45	74.815	56.406	16.725	1.083e-06	23.487	294.618	274.330	239.725	176.806	272.817	383.738	177.475	184.163	292.322	419.594	183.573	190.630	190.791	198.062	269.648	197.666	-8191	255	
1631.175	1	1	0	0	0.13104	0.18	0.11534	0.32994	0.22246	0.17079	0.06115	0.28782	0.10367	0.067849	0.13303	0.33244	0.090263	0.26564	0.10524	0.046033	-0.75625	-0.87917	-0.31667	-1.4375	-0.7375	-0.86458	-1.4062	-0.51042	-1.1708	-0.90417	-0.66458	-1.1917	-0.52917	-0.85208	-1.0771	-0.50417	217.372	445.693	317.928	518.721	166.666	365.272	502.293	175.545	478.832	424.546	467.476	449.545	228.730	406.806	250.564	390.867	0.00028369	2.9831e-05	7.1262e-05	961	5.4281e-07	2.4649e-06	1070.3	210.67	3.8623e-06	5.3906e-07	271.74	78.017	59.926	17.214	3.3233e-06	24.596	0.00010895	0.0001044	2.6542e-05	917.01	1.1673e-06	1.0949e-06	1019	202.48	1.1887e-06	1.1161e-06	259.08	74.657	56.313	16.673	1.0479e-06	23.589	309.017	478.791	284.888	176.403	406.834	390.699	177.374	183.897	340.881	230.448	183.654	190.336	190.779	197.973	312.054	197.097	-8191	255	
1631.271	1	1	0	0	0.22925	0.049942	0.19325	0.11059	0.16057	0.08244	0.19892	0.17494	0.17036	0.11712	0.10485	0.14837	0.19079	0.073705	0.24342	0.26507	-0.67292	-0.93958	-0.41042	-1.3563	-0.79792	-0.7625	-1.4375	-0.42917	-1.0292	-1.1958	-0.52292	-1.2938	-0.6875	-0.61875	-1.3042	-0.45833	283.506	317.813	347.121	461.891	168.329	224.557	381.151	423.120	326.826	331.143	481.798	262.764	279.248	457.064	297.798	460.324	0.00031432	0.00010289	5.9681e-05	962.39	2.0715e-06	4.9602e-07	1063.7	208.6	2.1583e-06	2.556e-06	273.12	78.096	59.666	17.15	1.6074e-06	24.465	0.00011436	9.8748e-05	2.5856e-05	918.92	1.182e-06	1.0593e-06	1020.8	202.43	1.1797e-06	1.0718e-06	259.55	74.777	56.426	16.599	1.0398e-06	23.603	301.804	260.714	272.121	176.401	412.258	217.897	177.499	184.170	338.565	285.716	183.642	190.629	190.557	198.201	341.202	197.423	-8191	255	
1631.367	1	1	0	0	0.22337	0.236	0.061553	0.22567	0.23959	0.17374	0.39771	0.22691	0.35333	0.054215	0.16868	0.46157	0.30874	0.042912	0.077765	0.064087	-0.53333	-1.1021	-0.37292	-1.3188	-0.84167	-0.70625	-1.5396	-0.55	-1	-1.2	-0.54583	-1.2938	-0.90833	-0.65625	-1.3521	-0.48125	524.070	442.557	213.178	487.395	511.912	446.612	459.219	469.322	301.547	366.111	178.705	508.611	506.861	328.220	470.576	382.751	0.00028128	0.00011566	1.2411e-05	960.23	2.1156e-06	1.5304e-06	1071.5	211.34	4.9959e-07	9.3316e-07	273.13	77.966	59.587	17.103	1.0877e-06	24.461	0.00011032	0.00010014	2.5846e-05	919.8	1.2058e-06	1.0582e-06	1019.5	203.27	1.1406e-06	1.0691e-06	259.07	74.905	56.12	16.612	1.0305e-06	23.713	306.998	226.839	271.001	176.500	276.945	301.602	177.593	183.790	224.018	334.297	183.558	190.580	190.997	198.185	294.200	197.109	-8191	255	
1631.488	1	1	0	0	0.14641	0.081065	0.18734	0.11485	0.20106	0.17006	0.095252	0.24813	0.18515	0.11372	0.37207	0.17327	0.10421	0.039489	0.21379	0.012575	-0.71042	-1.0708	-0.4375	-1.1875	-0.68333	-0.42708	-1.6125	-0.68333	-0.72917	-1.2687	-0.55417	-1.0667	-1.0271	-0.51458	-1.3104	-0.60417	478.470	421.069	259.165	169.596	167.315	179.297	327.346	522.453	323.937	207.205	424.135	442.964	313.325	178.491	234.762	279.631	0.00038782	0.00016537	1.8957e-05	964.38	7.5357e-07	3.6325e-06	1067.7	209.88	8.222e-07	1.9062e-06	271.95	77.954	59.318	17.054	1.8981e-06	24.278	0.00010634	9.439e-05	2.5396e-05	922.28	1.1283e-06	1.0154e-06	1019.6	203.07	1.1158e-06	1.0269e-06	259.23	75	56.081	16.604	1.0657e-06	23.596	308.725	213.125	305.761	176.531	303.386	267.411	177.445	184.087	333.302	285.896	184.026	190.906	190.607	198.223	238.805	197.027	-8191	255	
1631.584	1	1	0	0	0.17922	0.054773	0.24445	0.058765	0.14608	0.25227	0.091652	0.11998	0.22028	0.21228	0.15499	0.12308	0.12725	0.29993	0.11195	0.06495	-0.34583	-1.0208	-0.5625	-1.1583	-1.0438	-0.425	-1.4	-0.76042	-0.81458	-1.25	-0.77083	-0.95417	-1.2167	-0.47083	-1.2708	-0.80208	482.310	405.899	263.294	293.612	330.461	506.793	412.930	330.322	354.741	484.626	410.601	382.498	204.866	173.229	298.462	406.437	0.000293	3.2844e-05	0.00013927	961.87	3.8176e-06	1.7019e-06	1067.4	210.42	1.5238e-06	1.1218e-06	272.14	78.413	59.696	17.236	1.9691e-06	24.306	0.00010374	9.1558e-05	2.7138e-05	920.45	1.0882e-06	9.9646e-07	1019.7	203.07	1.0679e-06	1.0259e-06	259.52	74.932	56.22	16.614	1.1638e-06	23.607	305.940	201.432	243.468	176.664	234.202	365.697	177.409	183.912	327.570	291.661	183.433	190.701	190.723	197.819	308.773	197.350	-8191	255	
1631.678	1	1	0	0	0.19361	0.12547	0.17596	0.14578	0.1447	0.068924	0.2774	0.32512	0.20974	0.15841	0.18906	0.1364	0.16933	0.18279	0.10544	0.24937	-0.21042	-1.2021	-0.525	-0.98542	-1.3	-0.44792	-1.4021	-0.91667	-0.39583	-1.3958	-0.79167	-0.7875	-1.2271	-0.38333	-1.2042	-0.94583	307.580	331.575	414.170	443.475	339.216	221.147	474.954	168.241	371.452	360.768	512.679	433.814	331.491	224.609	430.110	501.126	0.00028976	0.00017527	2.1581e-05	961.76	3.4103e-06	1.9245e-06	1072.3	210.83	2.5015e-06	2.3003e-06	274.11	78.176	59.875	17.174	1.9629e-06	24.367	9.9947e-05	9.2508e-05	2.8983e-05	921.83	1.0565e-06	1.0012e-06	1022.7	203.12	1.0282e-06	1.0201e-06	260.5	74.702	56.041	16.628	1.1657e-06	23.597	308.142	198.998	182.410	176.658	233.293	333.830	177.186	183.941	404.177	355.849	183.646	190.868	191.080	197.894	228.747	197.342	-8191	255	
1631.774	1	1	0	0	0.18928	0.31913	0.057584	0.22174	0.28139	0.18365	0.22405	0.14148	0.14451	0.13809	0.21964	0.063218	0.26573	0.17647	0.2886	0.16971	-0.17292	-1.4375	-0.7375	-0.9625	-1.3917	-0.3375	-1.2667	-1.175	-0.55	-1.4083	-0.82708	-0.85	-1.3875	-0.38958	-1.2708	-1.2208	399.405	432.793	453.523	421.298	191.074	243.319	421.687	508.218	345.560	221.486	182.383	179.100	280.119	194.223	521.828	191.359	0.00027569	0.00042518	8.6864e-05	964.68	2.8397e-06	1.9293e-06	1069.9	211.34	2.641e-06	2.9495e-06	273.26	78.285	60.132	17.051	2.7962e-06	24.333	9.5865e-05	9.1929e-05	3.0367e-05	921.41	1.0188e-06	1.0403e-06	1020.9	203.45	1.0113e-06	1.067e-06	260.21	74.816	56.226	16.621	1.1617e-06	23.595	306.536	235.854	221.382	176.672	267.858	296.277	177.534	183.844	354.004	299.520	183.395	190.449	190.850	197.558	230.979	197.636	-8191	255	
1631.895	1	1	0	0	0.052932	0.14742	0.24967	0.39102	0.13835	0.13469	0.37064	0.17652	0.06154	0.28833	0.17208	0.171	0.18495	0.45512	0.21416	0.094296	0.0125	-1.3271	-0.72917	-0.84583	-1.25	-0.31458	-1.1583	-1.3083	-0.2375	-1.1646	-0.82917	-0.4	-1.4042	-0.66042	-0.67083	-1.1104	525.665	179.217	500.591	514.758	520.327	482.879	515.657	240.162	524.386	291.748	223.492	181.108	427.475	426.282	207.468	512.251	0.00030875	0.00028548	5.479e-05	960.51	5.948e-06	2.9178e-06	1074	210.78	2.6899e-06	2.5759e-06	274.18	78.632	59.853	17.027	2.9448e-06	24.421	9.6639e-05	0.000102	2.9382e-05	920.85	1.0136e-06	1.1015e-06	1023.4	202.93	9.772e-07	1.121e-06	260.32	74.612	56.05	16.722	1.1205e-06	23.561	301.838	258.353	287.512	176.877	301.606	271.343	177.320	183.911	309.551	256.302	183.707	190.681	190.726	198.137	309.905	197.304	-8191	255	
1631.967	1	1	0	0	0.25467	0.13596	0.10264	0.30956	0.087676	0.14053	0.10569	0.12972	0.15596	0.3746	0.065829	0.094886	0.31864	0.18196	0.3465	0.28482	0.033333	-1.1333	-0.72083	-0.69583	-1.3354	-0.59375	-1.0146	-1.3208	-0.26667	-1.1833	-1.1271	-0.43542	-1.4	-0.68333	-0.63125	-1.35	186.267	325.992	490.818	499.297	333.824	294.697	365.979	398.078	206.807	259.326	472.195	444.228	397.234	210.592	210.167	488.519	0.00029038	0.00023177	0.00011823	962.59	4.0888e-07	8.208e-07	1065.3	210.76	3.7057e-06	4.6553e-06	272.7	78.019	59.548	17.265	3.267e-06	24.352	9.5469e-05	0.00010533	2.8404e-05	920.86	1.0118e-06	1.1498e-06	1022	202.82	1.0215e-06	1.1213e-06	259.76	74.586	56.03	16.716	1.0384e-06	23.529	300.354	242.243	295.212	176.661	520.464	279.700	177.371	184.357	302.542	268.719	183.736	190.407	190.668	198.511	331.252	196.846	-8191	255	
1632.063	1	1	0	0	0.21445	0.2073	0.36546	0.25729	0.1286	0.10355	0.16162	0.11595	0.070355	0.071355	0.14736	0.36439	0.11158	0.32287	0.19231	0.16216	0.089583	-0.91667	-0.81458	-0.54167	-1.1958	-0.60833	-0.86458	-1.325	-0.3	-0.83333	-0.9875	-0.36458	-1.2208	-0.69583	-0.6625	-1.4271	380.798	371.718	355.905	457.524	482.899	344.057	204.790	331.022	289.949	446.437	442.876	342.499	474.321	492.849	417.469	444.958	0.00032708	0.00036089	1.2563e-05	960.16	2.3854e-06	2.9866e-06	1065.2	211.59	2.9465e-06	4.3645e-06	272.78	78.348	60.053	16.97	8.4486e-07	24.226	9.7916e-05	0.00010237	2.6331e-05	918.22	1.0334e-06	1.1193e-06	1019.3	202.85	1.0615e-06	1.1049e-06	259.47	74.611	56.27	16.646	1.018e-06	23.512	301.567	241.604	399.154	176.644	226.622	319.688	177.386	184.014	310.194	305.041	183.618	190.641	190.962	197.864	269.498	197.221	-8191	255	
1632.159	1	1	0	0	0.16385	0.12728	0.2766	0.29733	0.087668	0.18864	0.13609	0.013769	0.078921	0.23119	0.34965	0.038858	0.26754	0.074927	0.22104	0.13642	-0.13958	-0.92083	-0.93125	-0.425	-1.1583	-0.82083	-0.65	-1.25	-0.47083	-0.96042	-1.2042	-0.5375	-1.225	-0.90208	-0.49375	-1.3354	408.483	245.756	410.732	178.211	365.820	492.305	492.130	475.276	193.878	169.787	524.786	338.063	263.984	270.278	494.481	260.300	0.00029009	7.6785e-05	7.5726e-05	966.04	3.0447e-06	2.5781e-06	1068.5	210.53	2.7024e-06	3.1992e-06	272.98	78.677	59.933	17.122	7.3091e-07	24.425	0.0001026	0.00010155	2.6396e-05	921.37	1.1122e-06	1.0964e-06	1021.6	202.57	1.1324e-06	1.0706e-06	259.4	74.625	56.36	16.689	1.0107e-06	23.575	297.122	270.053	262.167	176.670	226.737	376.609	177.459	184.002	343.923	334.332	183.313	190.524	190.910	198.015	266.096	197.090	-8191	255	
1632.255	1	1	0	0	0.21233	0.22665	0.064805	0.22934	0.072395	0.2566	0.27803	0.14941	0.22723	0.074592	0.25771	0.071028	0.19306	0.086234	0.11366	0.19855	-0.05	-0.975	-1.125	-0.46667	-1.4208	-1.0604	-0.60625	-1.4042	-0.58958	-0.88542	-1.375	-0.51875	-1.1042	-1.1833	-0.61875	-1.4625	185.039	503.879	281.568	180.380	202.674	166.115	490.380	212.243	319.190	415.615	327.639	182.716	182.589	335.519	478.708	446.955	0.00033805	0.00027635	6.3435e-05	957.46	3.114e-06	1.3728e-06	1065.6	210.74	5.5298e-06	3.4135e-06	272.44	77.994	59.51	17.014	2.7738e-06	24.44	0.00010765	9.6501e-05	2.5866e-05	918.57	1.1683e-06	1.0683e-06	1019.5	203.05	1.1655e-06	1.0498e-06	259.2	74.595	56.371	16.65	9.8992e-07	23.589	304.045	212.135	254.137	176.561	195.549	333.197	177.387	184.060	312.982	320.720	183.745	190.819	190.624	197.765	291.966	197.244	-8191	255	
1632.376	1	1	0	0	0.27697	0.18579	0.17669	0.17949	0.19052	0.097949	0.1951	0.25743	0.0832	0.087785	0.13791	0.2665	0.32792	0.31159	0.21819	0.13347	-0.36042	-0.625	-1.35	-0.54167	-0.91042	-1.2042	-0.57917	-1.4396	-0.76458	-0.68958	-1.325	-0.62083	-0.96875	-1.1	-0.57917	-1.3083	350.354	210.987	520.378	436.676	401.847	430.460	170.227	515.791	172.191	314.152	461.607	469.284	516.271	259.178	381.596	341.287	0.00028998	0.00021944	3.1569e-05	961.11	1.991e-06	4.3925e-06	1067.7	211.46	4.2449e-06	4.4316e-06	274.73	78.245	59.611	17.125	4.2364e-06	24.354	0.00011123	9.4321e-05	2.5235e-05	920.18	1.1554e-06	1.0531e-06	1020.5	203.51	1.1712e-06	1.0119e-06	260.07	74.826	56.4	16.66	9.7453e-07	23.623	292.559	225.166	513.885	176.622	433.473	352.107	177.514	183.885	274.319	310.676	183.487	190.246	190.830	198.139	301.654	197.095	-8191	255	
1632.472	1	1	0	0	0.18968	0.15373	0.14448	0.23377	0.10737	0.15698	0.26277	0.2205	0.11387	0.27188	0.085799	0.21233	0.209	0.072186	0.18772	0.10179	-0.39792	-0.52292	-1.2521	-0.83333	-0.88125	-1.2812	-0.66042	-1.175	-0.79167	-0.66875	-1.3104	-0.69167	-0.70417	-1.2292	-0.4375	-1.3312	268.045	459.447	276.943	453.341	480.802	449.586	440.083	174.761	259.422	434.333	321.898	364.783	281.892	174.172	429.182	378.508	0.0003903	0.00012228	7.7276e-05	967.35	2.254e-06	1.4501e-06	1075.2	210.93	2.2664e-06	3.0589e-07	272.23	78.564	60.135	17.184	1.1627e-06	24.56	0.00010841	9.1367e-05	2.5244e-05	922.62	1.1039e-06	1.0205e-06	1022.2	203.64	1.13e-06	1.0142e-06	259.96	74.98	56.344	16.668	1.0368e-06	23.728	293.597	219.647	269.319	176.451	246.790	312.371	177.408	183.933	287.008	398.360	183.225	190.411	191.397	197.918	244.283	197.860	-8191	255	
1632.568	1	1	0	0	0.074482	0.29617	0.045427	0.16166	0.29543	0.026067	0.19619	0.17929	0.1705	0.10655	0.30593	0.23682	0.11953	0.12653	0.2289	0.29135	-0.71458	-0.5125	-1.4625	-0.79375	-0.8125	-1.3771	-0.81875	-1.3229	-1.0458	-0.30625	-1.3833	-0.64583	-0.70833	-1.3583	-0.53125	-1.2083	429.194	315.436	392.058	492.001	269.088	277.100	451.505	515.993	491.138	423.777	459.045	278.242	315.349	368.084	426.147	245.908	0.00036346	0.00019943	4.9756e-05	963.41	1.1777e-06	2.1045e-06	1067.7	210.66	5.5522e-06	1.391e-06	273.63	78.449	59.936	17.135	2.8153e-06	24.451	0.00010279	8.9824e-05	2.6709e-05	921.63	1.0378e-06	9.9555e-07	1021.6	203.46	1.0733e-06	9.7016e-07	260.03	75.009	56.336	16.597	1.0934e-06	23.704	306.459	276.194	195.853	176.507	183.708	281.337	177.370	184.057	314.547	310.754	183.915	190.241	191.184	198.183	244.329	197.056	-8191	255	
1632.664	1	1	0	0	0.30737	0.11454	0.13435	0.47378	0.23148	0.18508	0.1102	0.20228	0.073711	0.15248	0.2792	0.097766	0.20096	0.12921	0.17739	0.19276	-0.68542	-0.275	-1.2125	-0.82708	-0.68542	-1.475	-0.70208	-1	-1.1729	-0.40417	-1.3833	-0.82917	-0.64167	-1.2521	-0.37083	-0.99792	211.031	352.982	399.977	449.752	326.330	514.284	507.751	415.425	482.348	425.181	443.071	428.973	483.408	427.849	177.105	332.762	0.00039167	0.00016685	6.3014e-05	963.82	1.0917e-06	3.542e-06	1072.3	209.94	1.4884e-06	3.9854e-06	273.75	78.197	60.06	16.972	4.6966e-06	24.56	0.00010192	8.8428e-05	2.8262e-05	922.48	1.0582e-06	9.9037e-07	1023.5	203.61	1.0511e-06	9.5845e-07	260.47	74.759	56.11	16.574	1.1524e-06	23.611	315.503	212.188	229.071	176.700	494.084	266.436	177.287	184.029	337.796	340.452	183.755	190.608	191.217	198.220	301.970	197.292	-8191	255	
1632.759	1	1	0	0	0.14344	0.20319	0.27372	0.10487	0.20082	0.17499	0.14468	0.11979	0.070955	0.086442	0.19339	0.006794	0.14063	0.15033	0.18671	0.26121	-0.9125	-0.5125	-1.3125	-1.0812	-0.425	-1.1875	-0.91875	-0.96875	-1.3625	-0.49375	-1.1583	-0.88333	-0.51042	-1.425	-0.70417	-0.85833	425.709	508.935	377.353	290.100	505.560	272.448	168.373	225.487	479.588	453.907	387.556	399.348	469.188	379.019	213.066	180.573	0.0003029	0.0001867	1.6646e-05	963.84	5.2128e-06	3.3434e-06	1071	210.83	3.3433e-06	2.8156e-06	275.21	78.114	59.867	17.045	5.0898e-06	24.434	9.8268e-05	8.8673e-05	2.9026e-05	921.4	9.9505e-07	9.8851e-07	1023.6	203.5	1.006e-06	1.0016e-06	261.19	74.689	56.108	16.614	1.1401e-06	23.536	315.225	251.851	405.957	176.883	295.899	327.908	177.480	184.281	377.777	220.808	183.897	190.798	191.130	198.201	288.716	197.346	-8191	255	
1632.857	1	1	0	0	0.18274	0.18425	0.091431	0.33974	0.16633	0.12527	0.081726	0.19216	0.20644	0.051196	0.077655	0.16711	0.081479	0.14776	0.13226	0.21559	-0.96667	-0.59375	-1.1313	-1.1979	-0.48542	-1.4208	-0.92292	-0.70417	-1.4083	-0.52083	-1.1417	-1.1896	-0.45833	-1.2896	-0.75833	-0.69167	369.718	408.331	218.175	488.357	340.717	244.558	407.551	353.606	263.387	266.911	516.300	361.828	373.200	206.623	287.491	457.426	0.00030917	0.00031752	4.7859e-05	959.14	5.8138e-07	7.9076e-07	1072.4	210.92	2.1594e-06	1.5001e-06	273.4	78.4	59.994	17.08	2.7741e-06	24.342	9.5097e-05	9.2893e-05	2.8793e-05	920.72	9.4192e-07	1.0408e-06	1024.2	203.08	9.9492e-07	1.0432e-06	260.2	74.825	56.157	16.663	1.1115e-06	23.543	305.621	192.398	418.102	176.597	259.359	181.999	177.234	184.152	365.002	336.198	183.826	190.566	190.628	198.170	354.768	197.323	-8191	255	
1632.975	1	1	0	0	0.11654	0.053125	0.23137	0.34472	0.14036	0.19214	0.28581	0.26429	0.054924	0.17946	0.18048	0.28179	0.090479	0.40893	0.17631	0.4141	-0.90208	-0.51667	-0.98125	-1.3396	-0.45208	-1.4125	-0.97917	-0.53125	-1.2146	-0.54167	-1.0833	-1.3729	-0.75208	-1.3438	-0.9125	-0.47708	294.059	406.516	506.109	169.777	369.312	331.178	459.339	432.675	205.364	410.243	229.431	210.506	202.371	523.305	420.728	476.488	0.00029388	9.9386e-05	7.5871e-05	962.84	2.5555e-06	1.467e-06	1067	210.29	1.0114e-06	3.9508e-06	273.59	78.826	59.704	17.234	1.6899e-06	24.517	9.4459e-05	0.00010006	2.6938e-05	920.81	9.456e-07	1.0883e-06	1022.4	202.73	9.8023e-07	1.0966e-06	260.36	74.721	56.165	16.75	1.0849e-06	23.528	300.539	258.835	235.954	176.780	340.622	345.453	177.330	183.724	419.324	259.287	183.785	190.270	191.216	198.098	311.723	197.380	-8191	255	
1633.072	1	1	0	0	0.11764	0.24978	0.19423	0.16391	0.10061	0.27987	0.211	0.16916	0.24745	0.26954	0.07707	0.21248	0.2225	0.29505	0.12766	0.29579	-1.0854	-0.64792	-0.75	-1.3146	-0.43333	-1.2333	-1.1646	-0.57917	-1.2208	-0.625	-0.96042	-1.225	-0.53333	-1.2708	-0.91667	-0.66458	454.188	465.300	278.252	523.164	260.779	266.880	347.263	407.747	209.544	366.578	473.612	492.336	496.289	480.791	492.961	500.453	0.0003102	0.00016226	4.2717e-05	962.64	1.6875e-06	2.7118e-06	1067.3	211.71	2.4363e-06	2.5478e-06	272.79	78.414	60.23	17.004	2.1694e-06	24.427	9.6054e-05	0.00010452	2.6489e-05	921.13	9.9945e-07	1.1251e-06	1021.8	203.17	1.0703e-06	1.125e-06	259.72	74.807	56.283	16.679	1.061e-06	23.527	306.405	349.545	243.446	176.389	235.253	342.246	177.405	184.020	318.584	346.789	183.628	190.509	190.660	197.753	303.038	197.309	-8191	255	
1633.168	1	1	0	0	0.19238	0.17682	0.055184	0.075763	0.061493	0.13493	0.12143	0.21661	0.06959	0.15617	0.20966	0.21674	0.16998	0.18367	0.093815	0.084723	-1.0312	-0.7875	-0.66667	-1.5125	-0.64167	-0.88958	-1.2729	-0.58542	-1.2979	-0.82708	-0.95625	-1.5354	-0.3875	-0.94792	-1.3208	-0.40833	427.279	239.298	523.861	177.970	413.018	321.011	453.638	513.477	212.681	234.149	497.272	241.907	451.947	173.509	511.833	263.648	0.00032994	0.00012976	2.3243e-05	961.74	2.7846e-06	2.0379e-06	1069.1	211.95	3.0625e-06	2.7814e-06	273.73	78.437	59.512	17.117	9.2691e-07	24.556	0.0001024	0.00010506	2.5862e-05	919.57	1.1025e-06	1.1096e-06	1021.1	203.18	1.1233e-06	1.1352e-06	260.31	74.639	56.265	16.694	1.0372e-06	23.591	304.407	198.183	322.513	176.630	196.057	406.878	177.411	183.867	303.471	298.024	183.394	190.554	191.077	198.810	302.191	197.470	-8191	255	
1633.264	1	1	0	0	0.047452	0.30047	0.13448	0.24568	0.27532	0.085675	0.045982	0.1696	0.095624	0.099705	0.12756	0.026448	0.25746	0.1558	0.093918	0.25252	-0.925	-0.95625	-0.33125	-1.5979	-0.65625	-0.92292	-1.3625	-0.47292	-1.2542	-1.1458	-0.46667	-1.5625	-0.59167	-0.95625	-1.3542	-0.58958	244.221	311.545	283.991	452.782	219.236	208.730	304.208	181.798	493.930	442.953	454.685	380.052	410.917	503.599	168.641	489.605	0.00038394	0.00014713	6.5981e-05	962.45	3.9333e-06	7.6871e-07	1070.8	212.21	1.8903e-06	2.4899e-06	273.75	78.208	59.972	17.157	1.6221e-06	24.399	0.00011181	0.00010299	2.5519e-05	920.84	1.1753e-06	1.0753e-06	1021.5	203.39	1.1668e-06	1.1097e-06	260.22	74.708	56.678	16.651	1.0345e-06	23.607	314.697	210.207	254.259	176.715	286.662	483.831	177.233	184.151	321.260	284.720	183.947	190.709	190.821	197.942	397.055	197.190	-8191	255	
1633.360	1	1	0	0	0.11723	0.070689	0.08053	0.13264	0.034066	0.13226	0.29561	0.26692	0.26869	0.11404	0.086206	0.14606	0.083231	0.11778	0.22936	0.1365	-0.81667	-1.1042	-0.6	-1.5229	-0.73958	-0.82083	-1.575	-0.55	-1.0812	-0.95	-0.66875	-1.4	-0.89792	-0.74792	-1.5375	-0.63333	221.669	234.458	442.469	214.246	350.205	208.068	450.471	453.374	205.164	261.915	448.413	349.287	228.340	390.471	448.639	295.837	0.00031452	0.0002235	9.5561e-05	962.5	2.6515e-06	2.1927e-06	1072.4	209.94	2.5511e-06	3.3336e-06	273.08	78.834	59.963	17.109	1.8246e-06	24.557	0.00011194	9.7488e-05	2.4868e-05	922.09	1.1847e-06	1.0679e-06	1024.5	203.41	1.1683e-06	1.0693e-06	260.09	75.03	56.506	16.615	1.0508e-06	23.715	309.695	207.177	262.560	176.530	359.326	360.745	177.303	184.004	328.170	293.404	183.512	190.519	190.473	198.445	340.050	197.126	-8191	255	
1633.456	1	1	0	0	0.074675	0.25788	0.31926	0.13968	0.14197	0.19041	0.16122	0.102	0.081199	0.033968	0.25192	0.033194	0.1428	0.20141	0.10476	0.19987	-0.49792	-1.0708	-0.56458	-1.3833	-0.82292	-0.64583	-1.3729	-0.89792	-1.0292	-1.3375	-0.3875	-1.2542	-0.87917	-0.52917	-1.3	-0.5875	444.813	300.091	417.178	460.974	388.276	449.866	490.954	274.341	282.242	408.946	415.829	176.520	306.595	482.941	183.069	496.963	0.00031925	7.1031e-05	8.9012e-05	962.26	3.5595e-06	2.715e-06	1068.6	211.27	2.4892e-06	2.3001e-06	271.69	78.258	59.69	17.049	2.9273e-06	24.537	0.00011266	9.7617e-05	2.5546e-05	921.6	1.1874e-06	1.0532e-06	1020.7	203.48	1.157e-06	1.0717e-06	259.56	75.08	56.421	16.668	1.0689e-06	23.699	305.132	225.059	171.885	176.565	272.203	342.128	177.478	183.926	340.957	340.581	183.601	190.453	190.745	198.287	259.523	197.027	-8191	255	
1633.577	1	1	0	0	0.090676	0.119	0.25049	0.18466	0.16597	0.16308	0.17913	0.169	0.10544	0.068173	0.15694	0.10079	0.086578	0.26289	0.25937	0.34634	-0.59792	-1.0729	-0.36667	-1.2687	-1.0646	-0.69375	-1.5375	-0.89583	-0.75208	-1.1938	-0.525	-1.1542	-1.0562	-0.55	-1.3312	-0.86875	337.070	508.723	416.240	522.085	233.232	400.621	474.197	438.838	368.119	305.045	456.509	519.576	269.227	464.945	206.842	201.236	0.00037436	5.2842e-05	0.00011745	964.43	2.3306e-06	1.9962e-06	1068.5	210.36	1.659e-06	3.1022e-06	273.91	78.342	59.928	17.094	3.0097e-06	24.483	0.00010843	9.9025e-05	2.7318e-05	923.33	1.155e-06	1.0375e-06	1020.7	203.59	1.1229e-06	1.0602e-06	260.19	75.088	56.452	16.626	1.1096e-06	23.674	307.050	193.425	196.415	176.754	238.733	282.501	177.648	184.298	337.907	331.502	183.592	190.498	190.934	198.373	313.616	197.260	-8191	255	
1633.671	1	1	0	0	0.25158	0.14618	0.1241	0.22146	0.21875	0.13109	0.16591	0.19142	0.32124	0.075736	0.15173	0.40148	0.092292	0.10584	0.19006	0.15884	-0.3125	-1.2729	-0.39375	-1.1625	-1.0583	-0.33125	-1.5646	-0.98542	-0.625	-1.3792	-0.63542	-1.0479	-1.3917	-0.59167	-1.3104	-1.0063	441.011	423.770	436.974	469.435	420.595	204.984	465.942	166.471	205.194	263.404	309.185	525.612	389.996	386.059	356.528	520.168	0.00031237	0.000123	4.0523e-05	964.43	2.3172e-06	1.5566e-06	1071.1	211.75	4.0425e-06	1.8495e-06	273.81	78.547	59.645	17.236	2.7652e-06	24.528	0.00010491	9.5581e-05	2.9277e-05	923.47	1.1352e-06	1.0339e-06	1023.7	204.02	1.1082e-06	1.0447e-06	261.26	75.178	56.304	16.683	1.2178e-06	23.686	311.123	513.848	280.656	176.486	255.633	383.629	177.831	184.013	358.430	240.912	183.789	190.620	191.419	197.959	408.815	197.473	-8191	255	
1633.767	1	1	0	0	0.16115	0.32478	0.12149	0.025851	0.14807	0.036651	0.10929	0.11873	0.041232	0.22243	0.29895	0.2049	0.20621	0.25032	0.14748	0.19619	-0.16667	-1.4354	-0.52917	-1.1125	-1.2687	-0.50625	-1.3604	-1.1021	-0.64375	-1.6125	-0.65	-0.91458	-1.4667	-0.3625	-1.1146	-0.88542	357.968	458.330	204.655	475.826	186.306	349.704	233.827	332.874	317.229	523.237	458.015	181.099	346.761	235.308	378.703	470.012	0.00035233	0.00032172	8.5085e-05	963.13	2.5523e-06	1.3428e-06	1070.1	210.37	2.9562e-06	2.6624e-06	272.88	78.617	59.708	17.109	1.2401e-06	24.467	0.00010344	9.6538e-05	3.0694e-05	922.68	1.0985e-06	1.0514e-06	1022.5	203.35	1.0693e-06	1.0679e-06	261.15	74.814	56.18	16.676	1.2464e-06	23.651	301.499	246.710	493.700	176.681	270.129	365.744	177.407	183.906	385.778	273.909	183.458	190.632	190.724	198.259	319.090	197.274	-8191	255	
1633.839	1	1	0	0	0.070516	0.25522	0.076739	0.38769	0.23717	0.20441	0.12393	0.028519	0.048067	0.10149	0.18413	0.179	0.069965	0.15596	0.26632	0.14756	-0.10625	-1.6396	-0.74792	-0.84167	-1.1292	-0.48125	-1.2083	-1.1812	-0.48125	-1.4625	-1.0042	-0.68333	-1.1833	-0.59583	-1.0292	-1.2188	292.856	467.945	487.520	450.067	365.914	523.253	301.241	342.650	467.662	461.689	459.815	494.861	229.090	383.495	281.020	407.606	0.00031559	0.00013607	7.9734e-05	962.63	3.3756e-06	2.4393e-06	1070.3	210.9	2.5765e-06	1.0214e-06	273.62	78.196	59.986	17.12	2.6205e-06	24.341	0.00010164	0.00010217	3.155e-05	921.48	1.0837e-06	1.1165e-06	1023	203.41	1.0605e-06	1.149e-06	260.71	74.815	56.251	16.766	1.2294e-06	23.61	296.101	270.583	211.652	176.633	237.871	311.270	177.595	184.257	288.961	318.464	183.743	190.485	191.093	198.034	345.761	197.311	-8191	255	
1633.960	1	1	0	0	0.20241	0.15062	0.16879	0.1705	0.034973	0.072733	0.36865	0.13545	0.18724	0.072946	0.20591	0.29434	0.13303	0.26675	0.051548	0.2765	-0.08125	-1.3833	-0.82917	-0.7125	-1.4521	-0.45833	-1.1896	-1.4104	-0.45833	-1.2229	-1.1771	-0.52083	-1.525	-0.65	-0.74792	-1.4062	238.500	416.587	174.326	177.987	207.181	352.698	498.252	191.980	246.307	500.104	408.443	465.719	483.750	292.235	506.255	412.699	0.00033758	0.00022874	3.2715e-05	958.26	1.6057e-06	2.0504e-06	1069.5	211.74	2.3147e-06	6.0092e-06	272.73	78.282	60.312	17.22	5.1054e-06	24.239	0.00010157	0.00010909	3.0997e-05	918.68	1.0921e-06	1.214e-06	1022.7	203.88	1.0827e-06	1.2449e-06	260.89	74.774	56.532	16.733	1.2222e-06	23.629	300.203	250.924	331.080	176.749	192.828	383.855	177.449	184.199	297.587	266.029	183.307	190.424	190.932	198.158	274.356	197.485	-8191	255	
1634.056	1	1	0	0	0.14475	0.24726	0.17279	0.095992	0.25067	0.18433	0.22606	0.15287	0.19434	0.27827	0.14452	0.098181	0.1239	0.14365	0.15427	0.21014	-0.01875	-1.2167	-1.125	-0.62917	-1.5479	-0.71042	-0.98125	-1.4729	-0.33542	-1.1646	-1.1021	-0.47083	-1.4188	-0.49792	-0.7625	-1.3021	262.588	210.491	341.864	497.789	386.627	219.744	452.573	452.812	501.554	473.699	214.832	174.761	473.971	477.784	256.857	182.208	0.00033826	0.00012685	3.8351e-05	960.16	2.0228e-06	3.4923e-06	1072.2	211.19	2.0878e-06	1.6799e-06	272.84	78.671	59.437	17.042	9.1207e-07	24.325	0.00010835	0.00011741	3.0879e-05	920.68	1.1466e-06	1.2948e-06	1023.3	203.65	1.184e-06	1.2933e-06	260.95	74.979	56.467	16.732	1.1668e-06	23.579	292.943	246.765	351.414	176.757	207.067	296.874	177.463	183.869	268.975	307.491	183.533	190.572	190.756	198.267	171.790	197.832	-8191	255	
1634.152	1	1	0	0	0.08766	0.21603	0.091293	0.21532	0.0982	0.22183	0.31344	0.20352	0.14332	0.14884	0.12948	0.35182	0.09041	0.07173	0.21865	0.39585	0.12292	-0.89792	-1.0208	-0.70208	-1.3542	-0.62708	-0.72917	-1.2812	-0.39792	-1.1063	-1.1875	-0.47083	-1.325	-0.88125	-0.77083	-1.425	304.941	523.306	493.503	428.060	192.011	247.706	470.025	319.509	383.456	429.286	437.870	309.742	168.015	401.181	298.727	503.739	0.00033676	4.4466e-05	4.4475e-05	960.93	3.5571e-06	3.7814e-06	1068.4	209.9	2.3121e-06	5.7709e-06	274.83	78.748	60.31	17.091	2.1383e-06	24.376	0.0001144	0.00011947	3.0801e-05	921.62	1.2596e-06	1.3422e-06	1023.7	203.58	1.2838e-06	1.3194e-06	261.83	74.964	56.815	16.788	1.1916e-06	23.612	303.754	199.833	408.175	176.974	248.480	304.311	177.468	184.154	358.649	293.017	183.921	190.336	190.831	198.079	253.109	196.957	-8191	255	
1634.248	1	1	0	0	0.34851	0.25595	0.1031	0.10997	0.16	0.13367	0.11811	0.40342	0.10256	0.19642	0.1828	0.17025	0.09378	0.26867	0.047302	0.21025	-0.027083	-0.91042	-1.2042	-0.55625	-1.1375	-0.83542	-0.65833	-1.4146	-0.64375	-0.89375	-1.6375	-0.49375	-1.3062	-0.87917	-0.50625	-1.3271	345.787	284.739	189.707	429.363	374.884	507.117	471.224	453.093	258.169	231.345	234.411	523.268	339.405	452.577	476.202	484.205	0.00034744	0.0003194	4.4808e-05	962.13	3.3661e-06	8.0863e-07	1073.5	211.77	4.0284e-06	2.8155e-06	273.01	78.913	60.032	17.241	1.4918e-06	24.214	0.00012461	0.00011699	3.1142e-05	922.34	1.3509e-06	1.3031e-06	1023.8	204.41	1.3688e-06	1.2701e-06	261.24	75.139	56.95	16.814	1.1873e-06	23.492	304.550	208.200	265.044	176.753	216.007	437.784	177.299	184.075	331.126	307.618	183.658	190.511	191.044	198.048	324.973	197.068	-8191	255	
1634.369	1	1	0	0	0.3015	0.12157	0.32295	0.35166	0.032285	0.40346	0.2948	0.18978	0.14967	0.21756	0.44972	0.15396	0.11839	0.13282	0.095771	0.18971	-0.4125	-0.9	-1.2375	-0.52917	-1.1167	-0.98958	-0.61042	-1.3375	-0.7875	-0.88542	-1.6187	-0.45208	-1.1208	-1.1229	-0.4375	-1.4458	479.176	365.341	306.434	461.135	416.581	429.972	423.815	205.088	442.381	285.583	419.900	327.506	362.747	432.752	415.357	408.709	0.00030308	0.00034592	5.8769e-05	960.09	4.4804e-06	2.7838e-06	1073.5	212.56	2.084e-06	1.3369e-06	273.92	78.759	60.319	17.011	9.6321e-07	24.597	0.00012895	0.00011351	3.0979e-05	924.22	1.3776e-06	1.2702e-06	1025.2	204.7	1.3755e-06	1.2437e-06	261.17	75.364	56.955	16.727	1.1419e-06	23.648	295.760	290.384	331.886	176.799	311.158	260.515	177.456	183.831	369.612	331.893	183.547	190.732	190.767	197.950	324.508	197.064	-8191	255	
1634.440	1	1	0	0	0.18814	0.17882	0.17494	0.041308	0.14245	0.032096	0.1418	0.23062	0.265	0.15616	0.2204	0.21289	0.20381	0.22195	0.084989	0.040705	-0.44792	-0.83958	-1.3333	-0.6375	-1.1187	-1.2333	-0.62083	-1.5979	-0.86458	-0.48958	-1.4292	-0.55	-0.81042	-1.225	-0.4625	-1.2146	460.996	299.880	298.502	264.167	228.171	215.731	218.397	504.253	338.558	417.185	277.348	208.069	282.939	224.289	175.213	366.957	0.00032319	0.00012726	6.2771e-05	963.41	5.8887e-06	1.404e-06	1071.4	212.76	1.9307e-06	6.1349e-06	273.68	79.166	59.717	17.112	4.0155e-06	24.102	0.00012825	0.00010859	2.9735e-05	926.35	1.3187e-06	1.2252e-06	1025.8	204.97	1.3399e-06	1.1906e-06	261.5	75.633	56.81	16.699	1.1223e-06	23.648	306.540	300.810	270.903	176.868	188.624	307.691	177.649	183.918	360.571	290.279	183.655	191.100	191.143	197.774	260.220	197.496	-8191	255	
1634.537	1	1	0	0	0.32374	0.15113	0.24705	0.25057	0.20116	0.10379	0.16612	0.026384	0.15065	0.22553	0.089571	0.04044	0.19841	0.037963	0.20745	0.3105	-0.525	-0.41458	-1.2354	-0.67292	-0.74375	-1.2771	-0.43125	-1.2292	-1.0208	-0.37708	-1.3729	-0.71042	-0.81458	-1.3625	-0.325	-0.89583	442.515	193.993	294.520	498.408	275.407	512.135	416.353	496.257	353.240	388.865	459.887	398.330	436.801	352.390	385.981	172.244	0.00033097	0.00021791	8.0809e-05	964.5	1.6963e-06	4.7924e-06	1070.1	212.33	4.0407e-06	1.7752e-06	273.59	78.615	60.583	17.196	2.4274e-06	24.159	0.00012105	0.0001049	2.9825e-05	928.11	1.2502e-06	1.1648e-06	1026.4	204.99	1.2628e-06	1.1419e-06	261.51	75.477	56.79	16.719	1.2059e-06	23.634	313.721	242.789	267.644	176.669	249.847	331.680	177.291	184.091	307.373	303.305	183.408	190.673	190.519	197.885	336.576	197.589	-8191	255	
1634.657	1	1	0	0	0.16888	0.26093	0.075055	0.16399	0.10162	0.11998	0.29781	0.4106	0.27752	0.081776	0.22059	0.10637	0.28941	0.27292	0.20488	0.22051	-0.525	-0.46667	-1.4	-0.81667	-0.68542	-1.2479	-0.60208	-1.0438	-0.77083	-0.29583	-1.4854	-0.625	-0.68542	-1.65	-0.3625	-1.1917	496.661	430.529	344.145	185.511	286.245	242.090	421.455	173.642	384.406	181.142	215.651	340.435	166.877	173.409	305.975	498.516	0.00028972	0.00021053	3.6725e-05	967.37	3.2163e-06	1.2122e-06	1077.7	212.37	4.6893e-06	1.7228e-06	274.59	78.737	59.937	17.215	2.0222e-06	24.256	0.00011691	0.000103	3.1398e-05	929.47	1.2003e-06	1.156e-06	1029	205	1.2044e-06	1.1218e-06	261.98	75.423	56.696	16.693	1.2657e-06	23.636	288.744	175.874	217.332	176.376	290.666	329.883	177.175	184.205	328.969	334.015	183.397	190.622	191.357	198.167	416.792	197.409	-8191	255	
1634.752	1	1	0	0	0.14856	0.15515	0.015975	0.21312	0.10324	0.17389	0.31113	0.23333	0.07506	0.2998	0.24576	0.19295	0.29301	0.28615	0.20998	0.34163	-0.79375	-0.22708	-1.1875	-1.0562	-0.41458	-1.6021	-0.65417	-1.0667	-1.2292	-0.4	-1.2167	-0.98958	-0.625	-1.275	-0.38125	-0.825	491.901	341.622	263.689	211.655	216.143	395.889	494.857	475.801	519.059	291.032	501.564	166.766	428.067	321.046	223.060	369.619	0.00034501	0.00028545	4.8965e-05	965.46	2.5407e-06	2.8847e-07	1074	211.73	1.834e-06	2.3389e-06	273.64	78.766	60.272	17.171	2.0799e-06	24.237	0.00011287	0.00010083	3.2393e-05	926.47	1.1373e-06	1.1118e-06	1026.4	204.64	1.1647e-06	1.1172e-06	262.37	75.405	56.613	16.744	1.3343e-06	23.593	305.531	245.394	209.635	176.519	201.075	433.384	177.446	183.945	324.817	359.124	183.850	190.626	190.754	197.704	241.382	197.653	-8191	255	
1634.848	1	1	0	0	0.30231	0.18949	0.15263	0.21355	0.46305	0.016068	0.38164	0.080153	0.12267	0.1198	0.11777	0.10646	0.21356	0.070587	0.22775	0.15531	-0.91667	-0.57083	-1.1354	-1.1375	-0.43333	-1.4792	-0.80625	-0.90208	-1.2375	-0.41042	-1.0458	-1.1771	-0.36875	-1.2125	-0.6	-0.9125	279.718	520.217	416.714	519.437	247.397	365.136	453.938	468.899	274.964	480.118	501.088	368.991	248.872	297.931	174.934	418.787	0.00035135	0.00015088	0.00012627	967.41	3.6591e-06	2.6946e-06	1075.2	211.47	4.2436e-06	1.0885e-06	275.28	79.2	60.279	17.016	3.492e-06	24.314	0.00011153	0.00010426	3.2988e-05	925.94	1.113e-06	1.1695e-06	1028.2	204.51	1.1382e-06	1.1835e-06	262.74	75.418	56.564	16.744	1.3181e-06	23.562	296.462	525.527	270.820	176.480	230.297	292.931	177.262	184.080	371.795	235.495	183.852	190.457	190.597	198.680	329.141	197.755	-8191	255	
1634.968	1	1	0	0	0.2266	0.090637	0.23045	0.39569	0.14631	0.088559	0.26943	0.31042	0.10484	0.16747	0.23722	0.14049	0.14851	0.13995	0.18275	0.17654	-0.94583	-0.59375	-0.975	-1.4625	-0.47292	-1.2062	-0.93125	-0.63125	-1.1667	-0.39792	-1.2188	-1.225	-0.33542	-1.2625	-0.88125	-0.47917	411.901	270.137	304.131	203.923	424.691	460.438	465.784	449.619	417.471	222.620	507.225	222.545	473.727	275.281	445.410	289.907	0.00028375	0.00017979	7.2479e-05	965.46	4.069e-06	6.6788e-07	1072.4	211.48	3.6415e-06	2.1712e-06	275.84	78.611	60.417	17.053	7.394e-07	24.062	0.00010841	0.00011115	3.2884e-05	925.79	1.0945e-06	1.2413e-06	1026.3	204.24	1.1213e-06	1.2521e-06	262.67	75.087	56.6	16.723	1.2774e-06	23.445	295.018	280.526	287.823	176.750	239.460	335.361	177.344	184.144	315.256	283.677	184.019	190.664	190.666	198.118	227.037	197.320	-8191	255	
1635.064	1	1	0	0	0.0080974	0.12663	0.11117	0.13713	0.041969	0.06297	0.20734	0.12782	0.14248	0.11674	0.10384	0.0961	0.26469	0.11618	0.18477	0.34864	-0.99583	-0.59167	-0.95208	-1.2437	-0.52083	-1.0729	-1.2292	-0.57083	-1.2604	-0.63542	-0.8125	-1.1938	-0.44167	-1.1396	-0.97917	-0.64167	479.613	321.752	341.693	200.940	184.613	187.419	167.124	503.213	227.221	290.826	415.581	441.356	295.565	167.114	370.574	510.049	0.00028112	0.00034719	6.5563e-05	968.41	1.3634e-06	2.7172e-06	1073.2	211.75	5.879e-06	4.1477e-06	271	78.525	60.135	17.083	2.1246e-06	24.465	0.0001067	0.00011508	3.0629e-05	924.99	1.105e-06	1.2635e-06	1027.4	204.47	1.1474e-06	1.2692e-06	261.04	75.063	56.551	16.741	1.2032e-06	23.531	311.391	194.237	300.893	176.541	266.562	283.656	177.445	183.705	304.429	270.972	183.936	190.737	190.913	198.416	235.148	197.644	-8191	255	
1635.136	1	1	0	0	0.17292	0.12997	0.13894	0.030418	0.23558	0.19801	0.28684	0.064616	0.3138	0.12365	0.21905	0.14856	0.13238	0.084117	0.14826	0.16471	-0.97708	-0.93542	-0.7375	-1.4438	-0.52917	-1.2917	-1.2437	-0.63333	-1.2646	-0.65208	-0.84583	-1.4813	-0.50625	-1.2875	-1.0812	-0.53333	249.932	384.909	216.829	501.920	482.075	193.263	499.234	300.021	202.671	290.734	189.114	388.857	296.519	315.778	231.931	407.386	0.00036307	0.00016732	6.4397e-05	968.4	1.3825e-06	2.975e-06	1076.1	211.36	1.9596e-06	4.2806e-06	274.81	78.54	59.973	17.106	3.6379e-06	24.292	0.00011238	0.00011773	2.9328e-05	925.96	1.1659e-06	1.2696e-06	1027.9	203.93	1.2076e-06	1.2958e-06	262	74.912	56.607	16.709	1.1646e-06	23.487	296.612	486.827	309.632	176.579	253.846	332.871	177.353	184.231	296.254	264.011	183.691	190.489	190.842	198.321	289.942	197.305	-8191	255	
1635.257	1	1	0	0	0.336	0.071611	0.27892	0.19612	0.013994	0.11402	0.28531	0.14279	0.079029	0.076471	0.29356	0.085288	0.032079	0.21123	0.11771	0.5098	-0.8625	-0.72292	-0.52917	-1.5562	-0.38958	-1.0229	-1.6104	-0.64792	-1.3312	-0.76042	-0.69792	-1.2188	-0.74792	-0.8875	-1.4083	-0.56667	272.782	490.983	324.787	404.085	242.898	503.568	212.734	467.081	381.557	240.226	389.961	511.508	513.173	503.562	526.021	493.174	0.00033869	0.00028847	6.8286e-05	968.16	1.451e-06	1.6475e-06	1074.5	211.33	1.0456e-06	1.6466e-06	272.84	78.92	60.725	17.02	9.2526e-07	24.136	0.00011776	0.00011505	2.8833e-05	926.59	1.2487e-06	1.2327e-06	1027.6	204.42	1.2769e-06	1.224e-06	261.05	75.327	56.992	16.715	1.1361e-06	23.475	294.607	187.131	212.734	176.795	487.899	392.738	177.420	184.046	470.527	324.291	183.588	190.427	190.504	198.240	374.560	197.170	-8191	255	
1635.353	1	1	0	0	0.064936	0.1834	0.33081	0.082579	0.20569	0.12589	0.46774	0.18708	0.10568	0.18263	0.19431	0.19038	0.19159	0.024866	0.022506	0.38692	-0.69167	-0.95833	-0.31667	-1.4042	-0.47292	-0.7625	-1.4458	-0.31875	-1.1833	-0.90208	-0.78542	-1.4583	-0.6625	-0.92917	-1.5083	-0.55833	325.919	267.238	409.790	379.071	166.138	250.119	461.456	494.757	374.714	485.156	402.892	222.858	466.705	186.845	181.505	264.239	0.00031142	0.0001113	0.00015345	969.05	4.4911e-06	1.9727e-06	1074.2	212.39	1.6299e-06	8.1433e-07	274.3	79.027	60.391	16.916	1.7111e-06	24.352	0.00012082	0.000111	2.7827e-05	927.31	1.3027e-06	1.1773e-06	1027.9	204.57	1.2717e-06	1.1819e-06	262.05	75.309	57.031	16.697	1.103e-06	23.594	305.475	326.255	256.318	176.627	272.006	338.089	177.567	183.949	181.531	301.126	183.713	190.626	190.792	197.728	303.499	197.166	-8191	255	
1635.449	1	1	0	0	0.22745	0.091956	0.21572	0.24907	0.24507	0.081774	0.25114	0.25176	0.094224	0.13674	0.083007	0.23614	0.24388	0.2329	0.19156	0.32992	-0.725	-1.0542	-0.53125	-1.3021	-0.90208	-0.67083	-1.3917	-0.48542	-0.84583	-1.0854	-0.59375	-1.2896	-0.75417	-0.54583	-1.3937	-0.67292	248.725	498.451	268.195	463.547	331.922	309.261	189.620	490.416	416.325	272.406	478.085	168.716	391.367	275.091	408.747	369.214	0.00027173	0.00013531	6.9125e-05	966.3	5.6984e-06	1.2263e-06	1077.4	212.07	1.6205e-06	4.0226e-06	276.02	78.578	60.581	17.13	1.7851e-06	24.227	0.00012077	0.00010561	2.6955e-05	927.47	1.2612e-06	1.123e-06	1028.5	204.6	1.2602e-06	1.1541e-06	261.45	75.347	56.935	16.702	1.0945e-06	23.635	305.088	342.142	396.761	176.537	260.694	409.457	177.620	183.953	310.400	292.194	183.658	190.457	190.888	198.787	287.649	197.649	-8191	255	
1635.545	1	1	0	0	0.23907	0.13344	0.045866	0.0087617	0.067691	0.16976	0.057798	0.10838	0.11143	0.21704	0.10025	0.1062	0.24244	0.23822	0.20305	0.16252	-0.63542	-1.1854	-0.20833	-1.5063	-0.79167	-0.64583	-1.5583	-0.7875	-0.93125	-1.3229	-0.4	-1.2792	-1.0854	-0.45625	-1.6896	-0.66458	303.343	280.480	273.249	243.214	278.966	494.098	193.850	224.698	381.378	190.923	215.660	436.855	403.838	184.815	176.329	482.340	0.00031524	9.7154e-05	9.1481e-05	965.96	3.0978e-06	6.1651e-07	1075.7	212.16	3.4312e-06	8.4797e-07	274.53	78.415	60.507	17.107	2.1796e-06	24.264	0.00011744	0.00010669	2.7776e-05	927.43	1.2545e-06	1.1301e-06	1027.7	205.06	1.2174e-06	1.1531e-06	261.09	75.502	56.786	16.714	1.1609e-06	23.687	308.601	406.184	279.000	176.663	338.470	328.243	177.517	183.939	319.905	473.759	183.460	191.184	190.454	198.025	445.928	197.298	-8191	255	
1635.641	1	1	0	0	0.070463	0.10735	0.34075	0.12064	0.22852	0.15269	0.059831	0.20171	0.26017	0.10394	0.058056	0.25442	0.40758	0.25496	0.31759	0.16474	-0.52083	-1.2958	-0.29792	-1.4125	-1.1	-0.54792	-1.4979	-1.0271	-0.65	-1.5354	-0.43333	-1.0667	-1.3021	-0.48542	-1.4333	-0.8375	377.485	524.900	279.365	491.825	414.032	412.055	269.461	429.102	176.913	362.314	485.861	359.036	188.663	521.898	316.083	524.235	0.00031635	0.00015839	4.9839e-05	969.28	3.0722e-06	2.6479e-06	1077.8	212.48	1.5368e-06	3.0163e-06	274.9	79.075	59.839	17.169	1.7282e-06	24.297	0.00011225	0.00010307	2.9538e-05	929.54	1.2149e-06	1.0882e-06	1029	204.76	1.1519e-06	1.1138e-06	261.86	75.644	56.596	16.685	1.2159e-06	23.601	301.731	233.332	209.366	176.580	205.103	339.464	177.349	183.820	346.759	291.097	183.562	190.703	191.081	198.144	249.807	197.209	-8191	255	
1635.738	1	1	0	0	0.079139	0.21166	0.14259	0.10716	0.1904	0.16429	0.081524	0.21476	0.14952	0.13211	0.055499	0.26931	0.22866	0.043261	0.22397	0.077183	-0.30417	-1.3542	-0.5875	-1.2208	-0.9125	-0.36458	-1.4937	-1.1271	-0.5625	-1.2583	-0.62917	-0.91875	-1.0896	-0.4875	-1.2458	-0.81667	517.911	273.789	300.011	450.128	362.347	346.909	271.926	171.428	309.426	494.989	196.543	183.769	246.683	478.659	303.693	412.440	0.00033412	0.00018194	6.6937e-05	970.06	3.3471e-06	2.844e-06	1080.6	211.55	3.8233e-06	1.8218e-06	275.52	78.761	59.702	17.163	3.0803e-06	24.453	0.00010602	9.8953e-05	3.1079e-05	929	1.1395e-06	1.0616e-06	1029.1	204.94	1.1198e-06	1.0642e-06	262.38	75.482	56.563	16.638	1.2583e-06	23.58	309.820	189.245	170.597	176.630	268.683	336.073	177.306	183.688	321.365	340.962	183.395	190.803	190.383	197.860	339.786	197.171	-8191	255	
1635.832	1	1	0	0	0.15312	0.020932	0.24247	0.039804	0.028749	0.14849	0.36126	0.43457	0.063927	0.12512	0.13262	0.13144	0.12917	0.11372	0.15981	0.16267	-0.15833	-1.3271	-0.47292	-1.0667	-1.1771	-0.41458	-1.3542	-1.4125	-0.37083	-1.4729	-0.86042	-0.87708	-1.3937	-0.45	-0.87708	-0.925	318.474	182.021	386.831	409.905	369.255	173.169	447.327	169.220	303.801	388.598	174.873	256.602	429.547	498.531	302.351	187.009	0.00032969	0.00031926	7.9313e-05	972.51	3.2071e-06	1.5664e-06	1079.6	212.81	3.2647e-06	1.2375e-06	274.37	78.661	60.368	16.986	1.7653e-06	24.222	0.00010389	0.00010022	3.1621e-05	928.37	1.1176e-06	1.0656e-06	1030.6	204.64	1.0968e-06	1.1183e-06	262.36	75.161	56.603	16.652	1.2439e-06	23.498	301.166	249.154	247.664	176.799	261.309	306.536	177.465	183.844	289.399	238.137	183.780	190.749	190.937	197.966	321.414	197.055	-8191	255	
1635.930	1	1	0	0	0.13472	0.10979	0.066463	0.39418	0.10473	0.098028	0.083017	0.35417	0.084857	0.30117	0.25046	0.17396	0.14118	0.17315	0.21679	0.17569	-0.19792	-1.525	-0.625	-1.0063	-1.1938	-0.44375	-1.2938	-1.2125	-0.29167	-1.3667	-0.87292	-0.76667	-1.3896	-0.55833	-0.87917	-1.2625	286.810	186.487	415.683	170.629	434.160	485.743	306.082	447.874	293.192	277.824	499.773	239.239	349.658	239.047	303.102	458.226	0.00029657	0.00026544	2.5235e-05	967.68	2.0326e-06	2.8659e-06	1078.8	213.19	1.1939e-06	3.4328e-06	274.12	78.522	60.137	17.134	5.0369e-06	24.203	0.00010123	0.0001076	3.1935e-05	926.69	1.0879e-06	1.166e-06	1029.2	204.71	1.0551e-06	1.1927e-06	261.58	75.125	56.443	16.693	1.206e-06	23.477	308.238	203.846	244.484	176.689	517.476	276.172	177.240	183.604	381.553	356.651	183.604	190.112	190.676	198.017	339.953	196.855	-8191	255	
1636.049	1	1	0	0	0.088714	0.15235	0.34754	0.040142	0.13172	0.073412	0.097781	0.064653	0.060682	0.052095	0.012978	0.34208	0.34252	0.24052	0.11169	0.1097	-0.15208	-1.3333	-0.91042	-0.74167	-1.375	-0.51667	-1.1021	-1.3958	-0.33333	-1.2896	-0.95208	-0.43958	-1.4688	-0.51667	-0.85	-1.3479	171.910	256.664	521.227	524.433	372.363	436.664	522.363	384.165	188.152	491.719	302.962	205.983	497.101	203.168	395.899	502.451	0.00035996	8.7442e-05	4.9752e-05	967.48	1.0409e-06	1.9017e-06	1076.3	212.2	3.0796e-06	4.7719e-06	273.91	79.175	59.879	17.161	3.1867e-06	24.295	0.0001011	0.00011015	3.0584e-05	925.12	1.103e-06	1.2409e-06	1028.8	204.37	1.0674e-06	1.2638e-06	261.79	75.214	56.485	16.764	1.1723e-06	23.489	296.577	235.389	316.677	176.454	246.784	376.624	177.205	183.660	319.843	355.621	183.702	190.234	191.119	197.937	289.885	197.248	-8191	255	
1636.145	1	1	0	0	0.15366	0.20529	0.042919	0.19426	0.18304	0.15327	0.27881	0.2614	0.14591	0.14076	0.11771	0.3593	0.26451	0.2189	0.030262	0.26694	0.05625	-1.1958	-0.99583	-0.475	-1.3021	-0.74792	-0.80417	-1.4875	-0.45208	-1.1042	-1.1063	-0.58125	-1.1812	-0.80625	-0.74167	-1.5604	382.299	225.867	183.848	247.745	263.766	367.359	355.201	522.003	513.424	168.191	194.563	482.981	243.968	341.328	292.523	388.028	0.00034176	4.5573e-05	0.00011841	968.53	4.2843e-06	1.6669e-06	1074.1	212.26	3.0113e-06	8.5238e-07	276.59	78.889	60.144	17.144	1.3864e-06	24.022	0.00010723	0.00011532	3.0513e-05	926.62	1.1631e-06	1.2927e-06	1027.7	204.13	1.1969e-06	1.2876e-06	262.28	75	56.711	16.751	1.1526e-06	23.44	295.000	384.552	284.140	176.384	186.343	452.854	177.447	183.755	287.018	336.613	183.522	190.464	190.706	197.623	293.403	197.131	-8191	255	
1636.241	1	1	0	0	0.16885	0.24398	0.14737	0.12749	0.32582	0.15948	0.39653	0.24881	0.24317	0.033197	0.13321	0.030615	0.14534	0.16931	0.061783	0.10476	-0.22917	-1.0979	-1.2313	-0.6125	-1.1458	-0.72083	-1.0021	-1.3937	-0.45417	-0.93958	-1.2771	-0.47708	-1.3333	-0.87917	-0.59167	-1.4833	347.410	178.049	220.671	180.549	431.521	490.974	481.906	474.457	281.256	341.410	502.177	236.844	472.797	214.700	282.436	464.727	0.00033376	0.00028317	3.4574e-05	965.75	2.7144e-06	1.6483e-06	1075.1	213.2	1.9832e-06	1.042e-06	272.99	78.594	60.183	17.088	2.4397e-06	24.297	0.00011716	0.00011565	2.975e-05	925.65	1.2756e-06	1.2728e-06	1028.3	205.02	1.2701e-06	1.2298e-06	261.81	75.104	56.875	16.691	1.1298e-06	23.504	295.079	326.277	278.300	176.367	265.510	264.608	177.328	183.732	370.021	319.802	183.081	190.299	190.818	197.818	292.234	197.621	-8191	255	
1636.337	1	1	0	0	0.082076	0.17244	0.091341	0.25706	0.4004	0.1022	0.29002	0.23206	0.16987	0.18145	0.31502	0.23956	0.077991	0.19273	0.27553	0.29407	-0.14375	-0.875	-1.1083	-0.55	-1.0917	-1.0125	-0.65417	-1.2583	-0.55	-0.89792	-1.2146	-0.55208	-1.2188	-0.90417	-0.46458	-1.175	478.335	231.276	185.343	514.304	488.300	433.152	473.653	518.798	507.993	301.801	234.489	422.765	221.964	461.021	236.613	510.748	0.00028512	0.0002645	7.9628e-05	961.43	9.1642e-07	4.4175e-06	1076.6	210.79	1.5759e-06	1.4979e-06	272.73	78.658	60.022	16.983	2.2239e-06	24.425	0.00012234	0.00011004	2.9305e-05	924.19	1.3117e-06	1.2451e-06	1028	204.6	1.3219e-06	1.2017e-06	261.19	75.181	56.936	16.613	1.1225e-06	23.59	297.692	323.441	237.680	176.441	338.589	283.522	177.127	183.760	327.020	305.504	183.432	190.084	190.772	197.266	312.813	196.863	-8191	255	
1636.433	1	1	0	0	0.13312	0.33724	0.22178	0.19972	0.089128	0.11746	0.1598	0.29072	0.17147	0.0067774	0.50909	0.20356	0.087895	0.16019	0.15557	0.21325	-0.33542	-0.71458	-1.3042	-0.72708	-1.0729	-1.0104	-0.63958	-1.5167	-0.70833	-0.69583	-1.4896	-0.31875	-0.96458	-1.0521	-0.50208	-1.5688	215.476	209.689	294.303	251.970	455.113	297.545	429.021	438.017	306.720	294.028	487.247	171.685	388.826	326.475	335.309	259.472	0.00031083	1.9999e-05	6.2372e-05	964.91	1.4518e-06	1.1246e-06	1075.7	211.4	1.1395e-06	2.923e-06	274.76	78.853	60.201	17.116	1.4906e-06	24.284	0.00012426	0.00010656	2.8712e-05	925.74	1.2942e-06	1.1835e-06	1026.1	204.53	1.3227e-06	1.1827e-06	261.92	75.495	56.866	16.726	1.1202e-06	23.627	300.552	297.507	275.888	176.078	280.332	367.056	177.215	183.950	304.076	328.253	183.213	190.639	190.527	197.694	282.048	196.856	-8191	255	
1636.529	1	1	0	0	0.069883	0.037841	0.052929	0.16686	0.17515	0.20161	0.13086	0.28746	0.030248	0.17033	0.080909	0.088765	0.26963	0.20967	0.18695	0.23349	-0.48542	-0.63333	-1.1542	-0.56042	-0.81875	-1.4458	-0.62708	-1.2417	-0.78333	-0.49792	-1.5625	-0.67083	-0.92917	-1.1729	-0.5125	-1.0875	524.773	267.962	195.317	447.235	270.035	507.254	397.114	426.298	444.080	263.943	198.925	472.508	200.287	387.507	523.940	271.068	0.00025081	0.00012884	2.2857e-05	959.06	2.7865e-06	7.6086e-07	1075.1	212.44	7.5505e-07	1.3235e-06	273.93	78.733	60.012	17.062	4.0823e-06	24.34	0.00012122	0.0001053	2.8834e-05	925.04	1.2795e-06	1.1806e-06	1025.5	204.9	1.2945e-06	1.1583e-06	261.71	75.359	56.895	16.672	1.1578e-06	23.682	288.943	377.263	367.104	176.255	269.579	421.295	177.072	183.799	360.798	334.391	183.443	190.046	190.316	197.532	286.917	196.801	-8191	255	
1636.650	1	1	0	0	0.14453	0.2216	0.034793	0.26759	0.062126	0.19823	0.27036	0.15271	0.36187	0.16781	0.31623	0.13566	0.18473	0.12047	0.24677	0.37072	-0.5625	-0.575	-1.4958	-0.83333	-0.72083	-1.2917	-0.65833	-1.1521	-1.2313	-0.42917	-1.4333	-0.83958	-0.7125	-1.3062	-0.50625	-1.2854	368.146	359.816	282.070	455.396	233.952	271.693	502.865	173.569	470.485	484.392	464.690	372.016	376.533	330.969	260.028	480.203	0.00038273	0.00029243	0.00014983	966.11	3.7492e-06	2.1444e-06	1076.3	212.65	3.5175e-06	2.0832e-06	275.82	78.791	60.525	17.047	4.0994e-06	24.375	0.00012015	0.00010257	2.9899e-05	929.53	1.1963e-06	1.1498e-06	1028.9	205.16	1.2076e-06	1.1139e-06	262.43	75.428	56.812	16.656	1.2223e-06	23.679	295.661	211.474	189.318	176.151	248.149	337.189	177.184	183.879	336.697	343.346	183.293	190.262	190.286	197.695	286.859	197.068	-8191	255	
1636.746	1	1	0	0	0.15082	0.19003	0.19417	0.43771	0.20861	0.22347	0.28671	0.24283	0.054772	0.089796	0.049344	0.15744	0.11253	0.23518	0.16647	0.1966	-0.85625	-0.37083	-1.2146	-0.68542	-0.65208	-1.3667	-0.675	-1.0375	-1.1896	-0.46875	-1.3375	-0.91042	-0.58542	-1.4	-0.58125	-1.2208	450.769	304.943	435.179	167.304	350.922	363.018	427.445	503.580	350.264	243.714	505.446	437.115	370.446	181.630	441.115	205.064	0.00029335	0.00028623	2.6037e-05	964.75	1.5872e-06	3.5575e-06	1077	212.43	5.7491e-06	4.4705e-07	275.35	78.527	59.939	17.05	3.3102e-06	24.336	0.00011417	0.00010012	3.1607e-05	928.58	1.1688e-06	1.145e-06	1029.8	205.02	1.1885e-06	1.1074e-06	262.82	75.379	56.56	16.661	1.3134e-06	23.616	297.245	261.508	186.482	176.200	224.955	254.830	176.959	183.956	377.732	414.062	183.308	190.245	190.493	197.888	349.922	197.037	-8191	255	
1636.841	1	1	0	0	0.15661	0.069379	0.22492	0.31294	0.38405	0.30453	0.10643	0.11441	0.12406	0.18766	0.1821	0.15908	0.14023	0.12139	0.10773	0.12152	-0.80625	-0.44167	-1.2292	-0.92917	-0.55417	-1.3396	-0.675	-1.0521	-1.2271	-0.42708	-1.5438	-1.0021	-0.66042	-1.4354	-0.69167	-0.88542	194.242	171.652	439.772	451.006	439.444	358.749	349.605	422.016	518.873	380.385	423.052	408.162	197.448	436.290	235.942	336.956	0.00030879	0.00016222	0.00014169	965.84	1.0584e-06	3.1268e-06	1075.2	211.72	2.3552e-06	3.0368e-06	272.59	78.717	60.512	17.078	1.0459e-06	24.285	0.00011276	0.0001035	3.3591e-05	927.18	1.1628e-06	1.1389e-06	1029.7	204.71	1.1949e-06	1.1861e-06	262.09	75.375	56.958	16.727	1.3669e-06	23.55	301.560	234.684	194.544	176.282	244.300	319.587	177.190	183.801	277.719	232.063	183.428	190.390	190.818	197.449	299.228	197.390	-8191	255	
1636.937	1	1	0	0	0.12419	0.14402	0.12096	0.30707	0.057415	0.14121	0.31098	0.24508	0.17916	0.061444	0.14695	0.15708	0.21877	0.37946	0.3485	0.13566	-1.1125	-0.55625	-1.0333	-1.2313	-0.55833	-1.3479	-0.78542	-0.98958	-1.4083	-0.575	-1.0562	-1.15	-0.26875	-1.1396	-0.81875	-0.75833	358.809	310.385	291.621	524.090	446.521	292.479	372.113	464.199	362.626	260.908	327.374	502.047	175.606	391.253	525.084	216.601	0.00030239	8.5552e-05	9.9577e-05	967.61	2.3097e-06	1.7317e-06	1072.3	212.48	1.9386e-06	2.7825e-06	274.68	79.373	60.187	17.125	3.1555e-06	24.53	0.00011371	0.0001096	3.3927e-05	928.18	1.1525e-06	1.2286e-06	1029.4	204.68	1.1657e-06	1.2466e-06	262.57	75.416	56.637	16.789	1.326e-06	23.649	308.518	182.393	239.068	176.314	244.208	349.569	177.150	183.803	213.459	210.940	183.361	189.975	190.768	197.946	311.582	196.929	-8191	255	
1637.033	1	1	0	0	0.3568	0.17837	0.21187	0.14161	0.053791	0.18156	0.27456	0.22649	0.36425	0.057431	0.2118	0.2739	0.03981	0.256	0.24016	0.1527	-1.0771	-0.51667	-0.925	-1.4104	-0.40208	-1.3687	-1.0562	-0.52917	-1.2875	-0.62708	-1.0167	-1.4458	-0.55208	-1.1792	-0.92917	-0.34792	253.563	278.334	295.723	195.028	448.400	213.012	431.860	375.697	446.464	481.046	428.667	474.762	459.567	521.794	521.328	511.846	0.00030618	0.00012677	3.8659e-05	970.61	4.8404e-06	1.6168e-06	1072.2	212.08	2.7093e-06	1.4941e-06	273.33	78.323	60.366	17.079	2.6034e-06	24.177	0.00010939	0.00011703	3.3058e-05	929.49	1.1334e-06	1.3006e-06	1029	204.56	1.1637e-06	1.3129e-06	262.57	75.284	56.533	16.801	1.2754e-06	23.557	301.057	208.091	270.147	176.140	250.642	283.418	177.025	183.568	296.552	232.212	183.530	190.710	190.798	197.806	260.633	196.800	-8191	255	
#DATA ENDS
