BOXY.EXE: ISS Imagent and Oximeter Data Acquisition Program Version 0.80
Ascii Record File

#ACQ INFORMATION
2  Detector Channels 
16  External MUX Channels 
1  Auxiliary Channels 
5000  Waveform (CCF) Frequency (Hz)
1  Waveforms Skipped 
30  Waveforms Averaged 
1  Cycles Averaged 
16  Acquisitions per Waveform 
10.0806  Updata Rate (Hz) 

#FILE INFORMATION
TRUE -- External MUX Channel results are PARSED.
FALSE -- AC DC and Phase are NOT grouped.
TRUE -- Companion Program Settings File CREATED.
FALSE -- AC data not excluded
FALSE -- DC data not excluded
FALSE -- Phase data not excluded
FALSE -- Auxillary Chn. data not excluded
Tab delimiters

#CALIBRATION STATE
TRUE -- Waveform Calibration Values APPLIED.


#AUX CALIBRATION VALUES
Val Type	aux-1	

Term	1.0000e+00	
Factor	0.0000e+00	


#WF CALIBRATION VALUES
A = Detector Channel
Val Type	A-AC1	A-AC2	A-AC3	A-AC4	A-AC5	A-AC6	A-AC7	A-AC8	A-AC9	A-AC10	A-AC11	A-AC12	A-AC13	A-AC14	A-AC15	A-AC16	A-DC1	A-DC2	A-DC3	A-DC4	A-DC5	A-DC6	A-DC7	A-DC8	A-DC9	A-DC10	A-DC11	A-DC12	A-DC13	A-DC14	A-DC15	A-DC16	A-Ph1	A-Ph2	A-Ph3	A-Ph4	A-Ph5	A-Ph6	A-Ph7	A-Ph8	A-Ph9	A-Ph10	A-Ph11	A-Ph12	A-Ph13	A-Ph14	A-Ph15	A-Ph16	

Term	0.00000e+00	0.00000e+00	0.00000e+00	0.00000e+00	0.00000e+00	0.00000e+00	0.00000e+00	0.00000e+00	0.00000e+00	0.00000e+00	0.00000e+00	0.00000e+00	0.00000e+00	0.00000e+00	0.00000e+00	0.00000e+00	0.00000e+00	0.00000e+00	0.00000e+00	0.00000e+00	0.00000e+00	0.00000e+00	0.00000e+00	0.00000e+00	0.00000e+00	0.00000e+00	0.00000e+00	0.00000e+00	0.00000e+00	0.00000e+00	0.00000e+00	0.00000e+00	0.00000e+00	0.00000e+00	0.00000e+00	0.00000e+00	0.00000e+00	0.00000e+00	0.00000e+00	0.00000e+00	0.00000e+00	0.00000e+00	0.00000e+00	0.00000e+00	0.00000e+00	0.00000e+00	0.00000e+00	0.00000e+00	
Factor	1.00000e+00	1.00000e+00	1.00000e+00	1.00000e+00	1.00000e+00	1.00000e+00	1.00000e+00	1.00000e+00	1.00000e+00	1.00000e+00	1.00000e+00	1.00000e+00	1.00000e+00	1.00000e+00	1.00000e+00	1.00000e+00	1.00000e+00	1.00000e+00	1.00000e+00	1.00000e+00	1.00000e+00	1.00000e+00	1.00000e+00	1.00000e+00	1.00000e+00	1.00000e+00	1.00000e+00	1.00000e+00	1.00000e+00	1.00000e+00	1.00000e+00	1.00000e+00	X	X	X	X	X	X	X	X	X	X	X	X	X	X	X	X	

B = Detector Channel
Val Type	B-AC1	B-AC2	B-AC3	B-AC4	B-AC5	B-AC6	B-AC7	B-AC8	B-AC9	B-AC10	B-AC11	B-AC12	B-AC13	B-AC14	B-AC15	B-AC16	B-DC1	B-DC2	B-DC3	B-DC4	B-DC5	B-DC6	B-DC7	B-DC8	B-DC9	B-DC10	B-DC11	B-DC12	B-DC13	B-DC14	B-DC15	B-DC16	B-Ph1	B-Ph2	B-Ph3	B-Ph4	B-Ph5	B-Ph6	B-Ph7	B-Ph8	B-Ph9	B-Ph10	B-Ph11	B-Ph12	B-Ph13	B-Ph14	B-Ph15	B-Ph16	

Term	0.00000e+00	0.00000e+00	0.00000e+00	0.00000e+00	0.00000e+00	0.00000e+00	0.00000e+00	0.00000e+00	0.00000e+00	0.00000e+00	0.00000e+00	0.00000e+00	0.00000e+00	0.00000e+00	0.00000e+00	0.00000e+00	0.00000e+00	0.00000e+00	0.00000e+00	0.00000e+00	0.00000e+00	0.00000e+00	0.00000e+00	0.00000e+00	0.00000e+00	0.00000e+00	0.00000e+00	0.00000e+00	0.00000e+00	0.00000e+00	0.00000e+00	0.00000e+00	-9.65827e+01	-1.43805e+02	-1.39444e+02	-1.81677e+02	-5.59979e+01	-8.92971e+01	-1.59950e+02	-1.62015e+02	-5.08740e+01	-7.88643e+01	-1.72352e+02	-1.71128e+02	-1.81284e+02	-1.77091e+02	-7.77532e+01	-1.49524e+02	
Factor	1.36684e-05	1.02022e-04	2.72554e-05	1.62761e-01	7.49054e-07	1.57017e-06	1.72592e-01	4.32996e-02	7.46595e-07	8.31903e-07	7.37064e-02	2.64361e-02	3.12763e-02	7.71586e-03	1.03788e-06	1.11046e-02	1.01505e-06	1.06720e-06	2.95085e-07	8.33522e-02	1.16206e-08	1.16285e-08	8.30791e-02	2.23858e-02	1.15920e-08	1.16152e-08	3.63287e-02	1.30762e-02	1.58931e-02	3.95424e-03	1.15352e-08	5.46625e-03	X	X	X	X	X	X	X	X	X	X	X	X	X	X	X	X	



#DISTANCE SETTINGS
A = Detector Channel
A-1	A-2	A-3	A-4	A-5	A-6	A-7	A-8	A-9	A-10	A-11	A-12	A-13	A-14	A-15	A-16	

2.5000e+00	3.0000e+00	2.5000e+00	3.0000e+00	2.0000e+00	3.0000e+00	1.5000e+00	3.0000e+00	3.0000e+00	3.0000e+00	3.0000e+00	3.0000e+00	3.0000e+00	3.0000e+00	1.5000e+00	3.0000e+00	

B = Detector Channel
B-1	B-2	B-3	B-4	B-5	B-6	B-7	B-8	B-9	B-10	B-11	B-12	B-13	B-14	B-15	B-16	

1.0000e+01	1.0000e+01	1.0000e+01	1.4400e+00	1.0000e+01	1.0000e+01	1.5100e+00	1.9400e+00	1.0000e+01	1.0000e+01	1.9900e+00	2.4900e+00	2.4100e+00	2.9000e+00	1.0000e+01	2.9800e+00	




#DATA BEGINS
time	group	step	mark	flag	A-AC1	A-AC2	A-AC3	A-AC4	A-AC5	A-AC6	A-AC7	A-AC8	A-AC9	A-AC10	A-AC11	A-AC12	A-AC13	A-AC14	A-AC15	A-AC16	A-DC1	A-DC2	A-DC3	A-DC4	A-DC5	A-DC6	A-DC7	A-DC8	A-DC9	A-DC10	A-DC11	A-DC12	A-DC13	A-DC14	A-DC15	A-DC16	A-Ph1	A-Ph2	A-Ph3	A-Ph4	A-Ph5	A-Ph6	A-Ph7	A-Ph8	A-Ph9	A-Ph10	A-Ph11	A-Ph12	A-Ph13	A-Ph14	A-Ph15	A-Ph16	B-AC1	B-AC2	B-AC3	B-AC4	B-AC5	B-AC6	B-AC7	B-AC8	B-AC9	B-AC10	B-AC11	B-AC12	B-AC13	B-AC14	B-AC15	B-AC16	B-DC1	B-DC2	B-DC3	B-DC4	B-DC5	B-DC6	B-DC7	B-DC8	B-DC9	B-DC10	B-DC11	B-DC12	B-DC13	B-DC14	B-DC15	B-DC16	B-Ph1	B-Ph2	B-Ph3	B-Ph4	B-Ph5	B-Ph6	B-Ph7	B-Ph8	B-Ph9	B-Ph10	B-Ph11	B-Ph12	B-Ph13	B-Ph14	B-Ph15	B-Ph16	aux-1	digaux	

3892.621	1	1	0	768	0.17431	0.065591	0.15809	0.13622	0.035284	0.32394	0.063345	0.23935	0.26878	0.16449	0.13619	0.12093	0.29643	0.3249	0.1873	0.1805	-0.51042	-0.30625	-0.21667	-0.98958	-0.13958	-0.84583	-0.86042	-0.33542	-0.9875	-0.44792	-0.38125	-0.97083	-0.20417	-0.40417	-0.64375	-0.15833	2.940	209.512	26.858	27.581	183.204	-24.335	207.411	122.561	18.293	58.963	-71.362	217.371	-54.609	40.977	133.714	134.775	0.00029825	0.0019469	0.00056346	422.74	1.9941e-06	1.953e-05	575.63	131.63	1.6493e-05	1.3222e-05	232.92	90.257	43.209	20.158	8.3949e-06	46.735	0.0036677	0.0040457	0.00101	702.31	4.1891e-05	4.3316e-05	871.87	207.64	4.2508e-05	4.3023e-05	357.39	135.24	102.08	34.762	3.8846e-05	64.986	207.342	-7.375	-23.327	-91.641	243.497	8.006	-91.542	-86.451	202.593	55.393	-86.866	-82.385	-82.164	-77.492	60.086	-78.508	-8191	255	
3892.717	1	1	0	0	0.35169	0.2408	0.065851	0.40412	0.10489	0.18706	0.1474	0.057798	0.20221	0.1102	0.14748	0.13611	0.18207	0.16462	0.41193	0.087386	-0.40208	-0.32917	-0.1375	-0.88125	0.014583	-0.525	-0.94583	0.047917	-1.1562	-0.63333	-0.10625	-0.86042	0.027083	-0.53333	-0.92292	-0.079167	108.382	141.085	12.465	224.752	131.658	232.830	44.508	211.523	250.823	74.081	-83.361	111.896	136.628	-48.555	39.983	225.330	0.0002142	0.0016197	0.00034961	416.58	3.1155e-06	1.9684e-05	575.86	130.77	2.2425e-06	2.5806e-06	234.16	90.3	43.761	20.192	1.2195e-05	46.933	0.0037474	0.0038289	0.00097492	699.81	4.3088e-05	4.1246e-05	863.34	208.06	4.3256e-05	4.0753e-05	354.21	136.15	102.85	33.951	3.7493e-05	65.841	218.483	-12.213	-7.588	-91.719	233.739	35.666	-91.546	-86.277	-5.758	114.960	-87.353	-82.672	-82.272	-77.661	-30.915	-78.669	-8191	255	
3892.814	1	1	0	0	0.20988	0.10483	0.17404	0.25193	0.17594	0.16754	0.15632	0.13997	0.1267	0.13305	0.22773	0.17933	0.34728	0.049899	0.11791	0.18778	-0.23125	-0.25417	0.027083	-0.80417	-0.13125	-0.46875	-0.925	-0.30417	-0.75208	-0.76042	-0.35208	-1.2021	-0.33958	-0.31875	-0.99375	-0.15417	183.261	-37.929	137.242	-42.385	-5.896	-32.682	-56.854	98.622	31.743	200.592	218.941	202.025	184.874	102.274	-17.309	9.731	0.00023481	0.00033618	4.6916e-05	422.08	1.3923e-05	2.3246e-05	579.78	131.24	6.0075e-06	8.6527e-06	234.36	91.114	44.235	20.321	1.5118e-05	47.2	0.0037828	0.0036591	0.0009536	715.3	4.3344e-05	3.9687e-05	860.78	212.69	4.3134e-05	3.9628e-05	354.06	139.62	103.47	33.951	3.7809e-05	67.562	178.087	-62.047	-31.204	-91.668	125.915	-30.714	-91.612	-86.396	3.171	-12.477	-87.092	-82.451	-82.065	-77.286	-47.223	-78.183	-8191	255	
3892.910	1	1	0	0	0.072035	0.32799	0.075094	0.10116	0.18976	0.27081	0.1733	0.20593	0.21733	0.01795	0.085936	0.25301	0.13188	0.1664	0.2626	0.16705	-0.27917	-0.6875	0.033333	-0.7375	-0.33125	-0.37917	-1.0354	-0.089583	-0.59375	-0.875	-0.19792	-0.83333	-0.275	0.0020833	-0.82083	-0.41042	80.268	125.911	199.090	235.410	227.403	-81.256	-12.851	83.084	135.160	122.993	121.108	252.398	13.455	94.995	13.451	122.737	2.868e-05	0.0012509	0.00010564	422.79	1.3653e-05	7.7032e-06	582.29	131.73	3.0664e-06	1.1073e-06	234.44	91.557	44.237	20.433	1.0016e-05	47.048	0.0037852	0.0036653	0.00097452	738.94	4.3408e-05	3.988e-05	871.13	219.82	4.2986e-05	4.0089e-05	359.77	143.31	102.68	33.998	3.9421e-05	68.796	58.934	-90.167	102.461	-91.646	76.855	43.438	-91.704	-86.438	23.828	94.442	-87.129	-81.999	-82.923	-77.770	174.370	-78.431	-8191	255	
3893.006	1	1	0	0	0.1461	0.19662	0.17934	0.32709	0.29153	0.13173	0.12669	0.21461	0.11417	0.40738	0.13321	0.12241	0.24012	0.10046	0.12736	0.20109	-0.23542	-0.68125	-0.083333	-0.98958	-0.42708	-0.22708	-0.9125	-0.41042	-0.50833	-0.97292	-0.19792	-0.90208	-0.70417	-0.3125	-1.0583	-0.52083	115.786	137.694	26.116	232.544	16.142	62.907	211.442	-94.252	10.860	138.137	55.311	-0.315	111.332	254.325	24.884	-66.314	0.00013051	0.00085489	0.00031733	423.59	5.5836e-06	8.5772e-06	578.46	131.14	5.9705e-06	1.2464e-05	232.36	90.688	43.611	20.092	2.7239e-05	46.757	0.0037291	0.0036671	0.0010194	753.99	4.264e-05	4.016e-05	882.47	222.67	4.2357e-05	4.0431e-05	366.41	144.69	102.11	34.121	4.2622e-05	69.281	-98.466	-19.780	131.048	-91.760	-6.436	-17.607	-91.825	-86.201	65.604	-6.669	-87.087	-81.839	-82.529	-77.315	211.901	-78.483	-8191	255	
3893.102	1	1	0	0	0.090233	0.26601	0.33732	0.34001	0.23503	0.19231	0.1421	0.079199	0.19519	0.20759	0.064061	0.29435	0.10759	0.16906	0.21635	0.1147	-0.13958	-0.82292	-0.15833	-0.70625	-0.45	0.10625	-0.87917	-0.36458	-0.47083	-1.0063	-0.089583	-0.69583	-0.68542	-0.10833	-0.66667	-0.42708	128.305	125.716	151.178	223.709	132.385	-49.652	0.296	97.156	33.511	152.607	172.391	128.741	73.643	204.256	40.992	82.834	0.00013985	0.001383	0.00027498	421.15	1.1263e-05	2.1263e-05	580.07	132.29	7.2909e-06	7.9833e-06	232.31	91.091	43.986	20.199	1.4401e-05	46.979	0.0037373	0.0037851	0.0011159	765.1	4.3088e-05	4.1333e-05	913.9	226.15	4.3308e-05	4.2108e-05	381.14	146.26	104.02	34.911	4.7217e-05	69.859	224.689	30.654	149.411	-91.391	38.534	72.255	-91.877	-86.500	-93.963	48.591	-87.138	-82.243	-82.408	-78.050	188.006	-78.627	-8191	255	
3893.223	1	1	0	0	0.1009	0.18075	0.15204	0.16999	0.15538	0.19997	0.2223	0.22793	0.12368	0.11465	0.192	0.07841	0.16662	0.081051	0.054444	0.2061	0.30208	-0.87708	-0.20417	-0.80833	-0.87292	-0.1875	-1.0875	-0.51042	-0.16042	-0.82708	-0.31875	-0.63125	-0.82292	-0.13333	-0.85625	-0.66458	-63.003	-43.791	228.661	104.153	21.249	167.544	231.792	217.735	144.114	-88.371	208.904	-21.142	159.390	-10.484	162.622	176.645	0.00013703	0.00025344	0.0002205	424.17	3.0142e-06	8.1985e-06	579.5	132.49	7.6686e-06	8.5685e-06	233.49	90.669	44.26	20.34	1.0626e-05	47.34	0.0038756	0.0039808	0.0012333	773.91	4.4772e-05	4.4015e-05	945.15	227.66	4.4835e-05	4.5219e-05	393.2	146.49	105.64	35.936	5.0213e-05	70.023	-70.785	-36.851	218.056	-91.407	28.238	56.262	-91.708	-86.429	-18.250	180.948	-87.182	-82.169	-82.609	-77.750	216.476	-78.697	-8191	255	
3893.319	1	1	0	0	0.22993	0.27346	0.34038	0.26117	0.14731	0.31222	0.26482	0.24733	0.080528	0.18237	0.11249	0.089969	0.15353	0.21382	0.18709	0.039511	0.36667	-0.87292	-0.10208	-0.20417	-0.69167	0.13333	-0.74583	-0.33333	-0.11875	-0.96042	-0.20208	-0.51042	-0.875	-0.035417	-0.675	-0.67083	-56.296	122.980	189.736	251.831	102.287	124.823	-98.918	56.538	164.533	87.135	176.208	163.240	65.082	-18.262	60.059	62.604	9.3324e-05	0.00071306	0.00031142	426.05	2.4916e-06	1.5508e-05	581.23	132.13	6.7346e-06	1.4006e-05	234.01	90.918	43.73	20.025	6.8276e-06	46.577	0.0038953	0.0041888	0.0012814	765.69	4.4751e-05	4.6525e-05	954.46	225.31	4.4422e-05	4.741e-05	395.44	145.48	105.45	36.78	5.0545e-05	69.42	-74.260	36.559	-43.290	-91.390	-76.541	195.699	-91.535	-86.395	249.032	187.342	-87.034	-82.437	-82.655	-77.849	38.219	-78.465	-8191	255	
3893.415	1	1	0	0	0.1825	0.14107	0.21728	0.050073	0.096969	0.20128	0.099618	0.041085	0.24837	0.12997	0.27581	0.16763	0.11947	0.057569	0.14484	0.24351	0.25208	-0.83958	-0.19583	-0.35417	-0.78542	-0.27083	-0.8125	-1.0208	-0.23542	-0.94167	-0.43542	-0.29583	-0.99792	-0.30417	-0.51458	-0.85	-36.198	138.441	224.946	126.498	226.498	91.631	111.263	126.723	125.842	217.439	-83.606	234.263	195.529	114.434	75.597	210.496	0.00010482	0.0011546	9.8287e-05	421.01	4.9053e-06	4.0051e-05	574.66	131.19	4.6421e-06	1.1096e-05	232.68	90.206	42.767	19.912	1.7854e-05	46.292	0.0039553	0.0045339	0.0013036	765.52	4.5705e-05	5.0229e-05	951.91	225.37	4.5931e-05	5.122e-05	394.41	145.52	107.4	38.054	5.0947e-05	69.554	-89.126	140.545	7.814	-91.910	-65.208	171.469	-91.806	-86.261	119.536	224.335	-87.158	-82.225	-82.620	-77.610	16.942	-78.624	-8191	255	
3893.511	1	1	0	0	0.20849	0.14978	0.1105	0.12761	0.21614	0.19424	0.14131	0.084455	0.39338	0.1972	0.19273	0.19065	0.083598	0.07273	0.045713	0.0025467	0.27292	-0.95625	-0.4875	-0.23958	-1.0917	-0.029167	-0.5125	-0.93333	-0.045833	-0.82917	-0.50417	-0.25208	-1.1292	-0.50208	-0.60625	-1.3312	-29.717	55.037	-47.869	-40.343	-92.514	70.981	217.131	-0.308	-97.689	144.279	251.140	172.361	196.069	-54.311	-12.942	150.138	0.00011111	0.0010831	0.00038992	421.01	4.4158e-06	1.0485e-05	576.74	130.55	7.823e-06	5.3766e-06	232.09	89.61	43.003	20.075	1.7121e-05	46.733	0.0041495	0.0048758	0.0013028	770.71	4.8156e-05	5.3587e-05	951.36	226.62	4.8401e-05	5.4014e-05	393.73	145.95	111.43	38.791	4.9931e-05	69.9	163.758	113.073	-39.459	-91.301	-97.881	72.636	-91.757	-86.372	192.517	129.699	-87.072	-82.166	-82.834	-77.623	34.952	-78.628	-8191	255	
3893.606	1	1	0	0	0.14342	0.10353	0.10062	0.097681	0.2182	0.22075	0.11014	0.079689	0.2049	0.16946	0.12073	0.060869	0.063283	0.21651	0.30935	0.21136	0.14167	-0.83125	-0.47083	-0.17917	-1.0021	-0.13958	-0.4875	-0.96875	-0.30625	-0.875	-0.77708	-0.25	-1.1521	-0.46042	-0.41875	-0.90417	171.285	2.661	31.373	187.201	1.401	9.021	179.630	-22.871	154.601	-101.930	-48.242	86.810	21.277	178.699	-84.257	190.676	0.00031012	0.0014218	0.00025221	420.59	1.667e-05	1.7574e-05	578.79	131.94	4.9384e-06	8.5588e-06	231.59	90.553	42.925	20.191	1.2597e-05	46.984	0.0043648	0.0049604	0.0012787	769.5	5.0303e-05	5.3867e-05	940.94	226.27	5.0747e-05	5.3533e-05	389.47	145.77	114.42	38.506	4.8392e-05	69.779	180.317	-66.665	-34.807	-91.839	211.682	22.796	-91.717	-86.144	238.388	21.024	-87.035	-82.271	-82.112	-78.226	8.919	-78.551	-8191	255	
3893.702	1	1	0	0	0.27086	0.10405	0.12595	0.21382	0.24377	0.070219	0.090057	0.18656	0.2104	0.22614	0.31406	0.30843	0.21917	0.049011	0.18047	0.23128	0.48125	-0.6125	-0.42917	-0.077083	-0.81458	-0.39375	-0.36458	-1.2458	-0.16875	-0.90625	-0.95	-0.054167	-0.7	-0.34792	-0.15833	-1.1271	163.151	153.223	-21.395	-81.960	213.450	83.194	214.285	-56.243	133.646	-55.014	-43.059	46.540	-55.483	-91.664	56.742	-77.749	0.00042925	0.001258	0.00018511	419.07	9.6776e-06	2.5884e-05	579.21	131	8.3451e-06	1.0952e-05	232.77	89.978	43.478	20.127	1.0754e-05	46.344	0.0045506	0.0048516	0.0012501	769.68	5.2921e-05	5.2786e-05	938.15	227.04	5.3324e-05	5.203e-05	387.04	146.29	117.23	37.925	4.8242e-05	70.026	188.077	-25.124	-96.766	-91.913	-65.528	44.167	-91.665	-86.351	218.439	49.576	-87.185	-82.237	-82.239	-77.633	64.395	-78.390	-8191	255	
3893.798	1	1	0	0	0.15004	0.06593	0.48776	0.14227	0.19839	0.10856	0.11879	0.17992	0.06532	0.051293	0.32591	0.12984	0.19039	0.27796	0.20883	0.2327	0.091667	-0.43125	-0.80625	-0.1375	-1.0979	-0.61875	-0.20833	-1.0812	-0.19792	-0.59792	-1.0688	-0.029167	-0.7625	-0.76458	-0.21458	-1.1271	-76.557	-10.644	103.311	31.925	186.364	-41.917	-1.312	252.346	150.059	150.299	210.669	-70.663	86.997	241.799	-60.275	-64.122	0.00024105	0.0022961	0.00061038	415.28	1.2771e-05	2.3011e-05	573.64	130.2	8.3488e-06	1.1195e-05	229.25	88.966	43.334	20.091	1.1747e-05	46.21	0.0047309	0.0047115	0.0012368	777.64	5.4513e-05	5.1211e-05	930.38	229.6	5.4526e-05	5.067e-05	384.25	148.1	117.57	37.375	4.7462e-05	71.024	193.120	-9.255	-10.077	-91.658	101.966	5.926	-91.690	-86.795	243.565	83.674	-87.204	-82.523	-81.827	-77.547	3.894	-78.557	-8191	255	
3893.918	1	1	0	0	0.16891	0.28407	0.28052	0.19861	0.10162	0.17368	0.3365	0.10813	0.23413	0.10662	0.25249	0.11177	0.14016	0.064362	0.071016	0.239	0.091667	-0.4125	-0.71667	-0.17708	-0.60417	-0.66667	-0.125	-0.81042	-0.37083	-0.43333	-0.93125	-0.014583	-0.66042	-0.84167	-0.11875	-0.97708	109.392	251.849	159.631	227.590	83.640	-101.692	204.170	164.009	249.081	110.121	248.351	201.364	221.100	202.861	179.028	191.341	0.00022056	0.002303	0.00019524	413.68	2.5255e-06	3.6489e-05	572.84	129.51	9.1346e-06	9.4363e-06	231.16	89.616	43.481	20.159	7.743e-06	46.872	0.0047301	0.0045674	0.0012111	790.3	5.3243e-05	4.9282e-05	921.73	233.02	5.2495e-05	4.8534e-05	381.56	150.47	115.24	36.871	4.6717e-05	71.936	241.725	-78.866	218.628	-91.701	25.650	-43.081	-91.750	-86.116	51.093	95.807	-87.429	-82.227	-82.147	-77.656	205.358	-78.352	-8191	255	
3894.015	1	1	0	0	0.050164	0.057025	0.1836	0.080697	0.13903	0.078591	0.18597	0.11664	0.058419	0.23262	0.31575	0.13407	0.33967	0.21384	0.022256	0.16246	-0.16875	-0.27708	-1.1021	-0.40833	-0.74375	-1.025	-0.1	-0.95833	-0.4875	-0.1125	-0.9	-0.35208	-0.45833	-0.69792	-0.054167	-0.96667	54.813	182.666	5.079	-12.575	-58.878	130.487	-5.482	213.725	55.068	125.326	194.369	-70.513	234.738	-87.248	117.512	4.901	1.1455e-05	0.0014352	0.00025055	416.64	4.5964e-06	2.311e-05	573.17	130.95	1.8344e-05	7.7084e-06	231.65	90.43	44.529	20.253	1.8797e-05	47.18	0.004539	0.0044316	0.0012106	805.57	5.1369e-05	4.8123e-05	926.67	236.61	5.0709e-05	4.7885e-05	385.06	152.8	112.58	36.722	4.7757e-05	72.775	180.174	-72.226	95.566	-92.054	-44.760	114.957	-91.842	-86.435	80.333	62.774	-86.892	-82.129	-82.434	-77.634	187.681	-78.284	-8191	255	
3894.111	1	1	0	0	0.18134	0.24724	0.19907	0.1463	0.10568	0.32568	0.39634	0.1497	0.31425	0.21954	0.31929	0.16364	0.15072	0.13662	0.25677	0.062225	-0.097917	0.06875	-0.99167	-0.29792	-0.32292	-0.61458	-0.047917	-0.83958	-0.55833	-0.16875	-0.99792	-0.34792	-0.51667	-0.87292	-0.089583	-0.67917	-84.064	67.011	101.926	171.151	70.144	125.404	229.329	-44.795	99.871	234.553	202.619	168.212	197.291	35.168	57.822	178.835	0.00017419	0.0016938	0.00037007	421.59	1.1703e-05	3.8307e-06	574.25	131.47	9.6436e-06	7.9676e-06	230.86	90.314	43.934	20.162	2.3405e-05	46.708	0.0043602	0.0043361	0.0012357	806.55	4.9055e-05	4.667e-05	934.04	234.91	4.7907e-05	4.5845e-05	387.64	150.38	108.3	35.94	4.8668e-05	71.282	-82.141	-0.054	109.196	-91.555	40.222	-8.124	-91.717	-86.172	55.998	23.686	-87.037	-82.009	-81.901	-77.714	219.265	-78.347	-8191	255	
3894.182	1	1	0	0	0.21542	0.24131	0.28922	0.20891	0.28768	0.41457	0.31034	0.073225	0.14293	0.15764	0.093441	0.24384	0.064261	0.25727	0.080892	0.10788	-0.16042	-0.11875	-0.84167	-0.42083	-0.31667	-0.93333	-0.16875	-0.75833	-0.82917	-0.25	-0.86875	-0.575	-0.37708	-1.0021	-0.3125	-0.6625	66.446	250.427	194.786	238.047	58.754	137.141	141.230	121.864	119.666	-12.833	234.265	69.086	-0.467	4.757	-2.282	241.620	0.0001956	0.00048107	0.00080295	417.04	6.709e-06	2.1299e-05	570.99	130.48	1.196e-05	2.4945e-06	232.08	90.005	43.597	20.02	7.6929e-06	47.335	0.0041408	0.0041595	0.0012623	786.61	4.6772e-05	4.5493e-05	943.36	230.32	4.6418e-05	4.5144e-05	391.62	147.71	106.33	35.809	4.9613e-05	70.269	240.988	-44.505	150.411	-91.128	-53.748	93.898	-91.842	-86.494	-4.192	113.474	-87.002	-81.914	-82.372	-77.757	-56.954	-78.099	-8191	255	
3894.303	1	1	0	0	0.32432	0.1716	0.12458	0.14572	0.062563	0.27631	0.26397	0.50657	0.14003	0.20457	0.20451	0.37639	0.26708	0.3002	0.20052	0.1723	-0.49792	0.0020833	-0.82292	-0.53125	-0.0083333	-0.89167	-0.27708	-0.67083	-0.69792	-0.14792	-0.93958	-0.61875	-0.16875	-0.725	-0.15417	-0.58542	-43.437	79.619	246.378	47.169	162.071	20.263	155.340	233.934	-12.552	216.246	-34.444	217.198	-63.315	221.566	7.251	3.562	0.00019072	0.00023431	0.0001808	420.92	1.0046e-05	4.0263e-05	575.77	131.5	1.9125e-06	1.262e-05	233.2	90.888	43.756	19.99	1.1129e-05	47.179	0.0039904	0.0041493	0.0012821	770.04	4.5174e-05	4.562e-05	948.05	225.35	4.4915e-05	4.5898e-05	393.36	145.31	104.57	36.233	4.9925e-05	69.48	-63.355	82.050	-9.893	-91.797	61.644	213.300	-91.517	-85.951	51.515	188.898	-86.742	-82.453	-82.800	-77.455	49.360	-78.008	-8191	255	
3894.399	1	1	0	0	0.045546	0.19724	0.18254	0.35721	0.09525	0.36344	0.2505	0.11285	0.06139	0.21982	0.15605	0.14823	0.16815	0.23469	0.1021	0.072551	-0.5625	-0.16458	-0.85208	-0.69375	-0.28958	-0.975	-0.27083	-0.16875	-0.69167	-0.0041667	-0.69583	-0.75208	-0.072917	-0.9625	-0.29375	-0.58542	-97.879	76.187	227.477	230.645	103.310	-7.632	182.939	11.870	45.262	117.221	-92.811	243.096	226.462	-101.249	-102.894	165.725	0.00011274	0.0023022	0.00026334	419.37	3.6889e-06	2.6001e-05	578.92	131.42	5.2304e-06	2.2535e-05	234.22	91.202	43.867	20.349	1.455e-05	47.26	0.0038873	0.0042694	0.0012676	754.63	4.3779e-05	4.6877e-05	940.55	221.19	4.3265e-05	4.6812e-05	388.39	143.36	102.88	36.849	4.8102e-05	68.765	233.453	172.943	-77.413	-91.829	62.826	150.455	-91.402	-86.104	75.606	218.772	-86.963	-82.243	-81.442	-77.577	18.010	-78.072	-8191	255	
3894.495	1	1	0	0	0.081341	0.15774	0.024913	0.065563	0.22107	0.1971	0.24441	0.097823	0.19106	0.13015	0.1008	0.20268	0.24528	0.24191	0.20035	0.15174	-0.74167	-0.079167	-0.44167	-0.7625	-0.0625	-0.8875	-0.70625	-0.49375	-0.75833	-0.19167	-0.53542	-0.86667	0.035417	-1.1021	-0.54792	-0.45208	78.278	255.707	-101.369	-56.513	81.808	227.511	151.919	200.846	10.547	67.708	56.861	-23.574	-42.505	-87.571	-84.641	190.992	0.00012291	0.00032849	0.00054987	418.57	1.2115e-05	3.1547e-05	577.86	130.2	8.9952e-06	7.2168e-06	232.06	90.247	43.396	20.185	2.0406e-05	47.104	0.003809	0.0043986	0.001211	739.99	4.2721e-05	4.7487e-05	919.32	216.47	4.2334e-05	4.7352e-05	377.06	140.27	101.48	36.611	4.4795e-05	67.267	150.085	54.374	-45.189	-91.344	228.282	139.938	-91.504	-86.231	-104.190	198.492	-86.738	-82.235	-82.171	-77.428	24.057	-78.352	-8191	255	
3894.614	1	1	0	0	0.080334	0.051214	0.1761	0.13709	0.04123	0.17076	0.24679	0.20243	0.080191	0.11428	0.14331	0.37495	0.38139	0.26888	0.11274	0.092636	-0.8	-0.052083	-0.62917	-0.69792	0.16667	-0.78542	-0.4625	-0.083333	-1.0438	-0.39792	-0.61458	-0.82083	-0.11042	-0.72083	-0.54792	-0.31875	153.363	197.297	202.816	225.337	78.471	120.233	66.545	75.198	-6.717	-6.991	153.476	198.217	-34.225	-70.832	-1.289	-77.867	0.00030924	0.00072251	0.00047844	419.9	1.1577e-05	2.7722e-06	576.03	129.88	2.8349e-06	1.434e-05	232.87	90.517	42.448	20.241	2.1346e-05	47.08	0.0037659	0.0043767	0.0011383	728.03	4.3273e-05	4.7724e-05	899.07	213.5	4.338e-05	4.7351e-05	369.44	138.68	103.12	36.475	4.2853e-05	66.918	202.084	248.552	-9.288	-91.546	225.164	242.046	-91.470	-85.865	-75.912	-7.029	-86.777	-82.421	-82.433	-77.288	7.782	-78.081	-8191	255	
3894.710	1	1	0	0	0.055163	0.2119	0.14178	0.31008	0.1718	0.29085	0.046463	0.12118	0.062414	0.23298	0.30516	0.17868	0.043646	0.29889	0.22699	0.13799	-0.66042	-0.29167	-0.475	-0.89583	0.027083	-0.70833	-0.55	-0.27917	-0.84167	-0.42917	-0.49375	-1.075	-0.05625	-0.67083	-0.7875	-0.30417	243.068	81.918	-34.001	221.218	219.126	38.655	235.862	239.130	-25.256	-9.645	-81.999	-24.609	-65.721	244.661	172.763	201.816	0.00029698	0.0014335	0.00035709	417.45	2.058e-06	2.1541e-05	575.05	130.25	1.5125e-05	1.1056e-05	231.94	90.422	43.577	20.324	1.5967e-05	47.022	0.0039157	0.0043195	0.0010958	721.12	4.5395e-05	4.7107e-05	894.73	213.85	4.6309e-05	4.7148e-05	370.88	140.06	108.77	36.605	4.3493e-05	67.844	197.090	242.967	15.863	-91.445	202.536	42.179	-91.519	-86.192	222.415	6.854	-86.974	-82.082	-81.728	-77.469	4.407	-78.454	-8191	255	
3894.784	1	1	0	0	0.23332	0.24867	0.04053	0.1997	0.16449	0.080372	0.1479	0.20576	0.40391	0.11077	0.18552	0.37337	0.24513	0.1552	0.06237	0.093137	-0.69792	-0.19167	-0.17083	-0.97708	-0.17708	-0.72292	-0.8625	-0.13125	-0.90625	-0.65	-0.275	-1.0562	-0.11458	-0.40625	-0.88958	-0.070833	129.550	208.936	250.574	154.893	30.027	-97.321	-50.305	43.671	138.836	-0.551	191.681	238.895	220.384	241.602	-54.319	134.407	0.00041001	0.0016022	0.00035182	414.9	1.01e-05	2.7361e-05	570.37	130.06	1.5372e-05	2.3973e-05	232.12	90.904	43.522	20.176	8.3227e-06	46.857	0.0042627	0.0044016	0.0011355	743.13	5.0372e-05	4.8636e-05	910.04	221.93	5.1672e-05	4.9127e-05	378.44	145.94	115.76	37.169	4.635e-05	70.031	199.579	-35.028	11.772	-91.778	233.161	-7.672	-91.568	-86.139	242.162	20.611	-86.936	-82.125	-82.107	-77.872	41.598	-78.132	-8191	255	
3894.903	1	1	0	0	0.18567	0.095972	0.17595	0.073979	0.11251	0.19662	0.069735	0.16185	0.16954	0.2478	0.051989	0.098493	0.0559	0.20778	0.38124	0.2631	-0.43125	-0.54583	-0.03125	-0.95417	-0.24583	-0.44375	-0.82917	0.041667	-0.75417	-0.75417	-0.2875	-0.94375	-0.12708	-0.325	-0.82083	-0.30417	56.840	60.168	58.401	-46.959	81.707	-43.833	-100.588	109.779	208.350	188.849	-19.739	165.987	189.522	214.783	208.549	142.157	0.00034316	0.0010919	0.00038674	412.68	8.1929e-06	1.76e-05	571.76	129.25	4.8181e-06	7.7492e-06	231.13	88.86	43.284	20.079	1.0229e-05	46.087	0.0046492	0.004517	0.0011852	774.38	5.3603e-05	4.909e-05	918.1	228.72	5.3352e-05	4.9041e-05	378.4	148.8	115.49	36.611	4.6017e-05	70.842	-79.953	-54.667	-102.201	-91.794	29.502	31.593	-91.793	-86.200	11.251	36.405	-86.905	-82.187	-83.093	-77.065	-99.303	-78.359	-8191	255	
3894.999	1	1	0	0	0.0359	0.35604	0.034013	0.24641	0.13904	0.20939	0.34449	0.0346	0.15385	0.23436	0.24705	0.017302	0.12224	0.16369	0.29049	0.10676	-0.32708	-0.73333	0	-0.60833	-0.10833	-0.30208	-1.1354	-0.36875	-0.8	-0.73125	-0.325	-0.97708	-0.3125	-0.066667	-0.96875	-0.35417	-55.214	-85.187	24.573	253.281	31.055	-55.213	152.664	135.330	229.980	-1.682	148.239	-55.882	152.979	186.263	-56.626	107.814	0.00030515	0.0007949	0.00041404	411.24	1.0524e-05	1.8161e-05	568.33	128.38	1.8366e-05	3.1555e-06	228.72	89.751	43.488	20.04	5.4488e-06	46.677	0.0045495	0.0043906	0.0011618	785.99	5.1226e-05	4.7255e-05	909.95	231.25	5.0603e-05	4.7234e-05	376.22	150.62	112.41	36.221	4.6228e-05	71.817	-55.047	-22.856	230.449	-91.642	55.425	102.794	-91.434	-86.433	103.519	42.635	-86.846	-82.291	-82.217	-77.756	1.086	-78.749	-8191	255	
3895.095	1	1	0	0	0.12457	0.1788	0.066826	0.2441	0.025322	0.12348	0.16802	0.18494	0.079894	0.066168	0.11694	0.10052	0.1151	0.19231	0.10252	0.22271	-0.24792	-0.86042	-0.20625	-1.0021	-0.58542	-0.035417	-1.0438	-0.29583	-0.58333	-0.775	-0.0625	-0.80833	-0.57083	-0.35625	-0.91458	-0.095833	51.368	0.346	145.433	113.677	125.379	18.229	-28.629	162.929	24.020	189.722	246.446	182.568	50.064	143.668	60.368	44.286	0.00016311	0.0015709	0.00034983	412.87	7.9411e-06	1.9895e-05	566.36	129.46	7.0601e-06	1.329e-05	228.97	90.398	43.496	20.115	1.5586e-05	46.973	0.004354	0.0042898	0.0011807	793.82	4.8782e-05	4.5689e-05	914.49	232.37	4.7792e-05	4.5123e-05	379.4	150.23	108.14	35.613	4.7109e-05	71.86	17.413	-78.724	166.351	-91.672	-51.233	14.605	-91.642	-86.127	76.861	-48.841	-86.892	-81.947	-82.450	-77.505	237.520	-78.178	-8191	255	
3895.216	1	1	0	0	0.11607	0.27173	0.13106	0.23412	0.07764	0.1678	0.27641	0.14923	0.058487	0.27554	0.23373	0.18607	0.14555	0.054902	0.35088	0.13956	-0.0125	-0.88542	-0.11875	-1.025	-0.62292	-0.11042	-0.95417	-0.31875	-0.32917	-1.2021	-0.42083	-0.6625	-0.49792	-0.079167	-0.97292	-0.575	178.233	-84.718	70.346	204.798	254.440	92.121	158.577	221.149	-15.763	-89.600	239.779	248.509	216.982	22.929	-98.799	221.463	0.00014954	0.0018157	0.00052951	414.01	4.0648e-06	2.858e-05	565.9	130.36	6.7618e-06	2.6292e-06	229.83	90.789	42.867	20.076	1.9232e-05	46.933	0.004121	0.0041443	0.0012294	792.52	4.711e-05	4.5118e-05	936.68	232.72	4.7236e-05	4.5792e-05	391.56	150.93	107.98	35.916	5.0964e-05	71.537	-38.397	-91.449	137.931	-91.460	186.408	62.084	-91.831	-86.148	90.026	250.747	-87.269	-81.715	-82.143	-77.582	241.820	-78.182	-8191	255	
3895.312	1	1	0	0	0.11252	0.11035	0.22324	0.18162	0.42537	0.33599	0.20002	0.35788	0.01644	0.36659	0.085479	0.031535	0.19114	0.19472	0.085582	0.13289	-0.1	-0.82292	0.08125	-0.70417	-0.875	-0.095833	-1.0562	-0.36458	-0.125	-0.725	-0.15833	-0.47292	-0.93125	0.039583	-0.55208	-0.18958	102.365	231.635	-35.451	139.307	171.665	-12.719	217.232	202.362	26.949	18.828	3.263	-83.405	218.668	39.885	73.601	-102.905	0.00010996	0.0011319	0.00039485	415.67	1.2584e-05	1.0391e-05	567.85	129.23	9.765e-06	1.4431e-05	228.33	90.104	42.983	19.984	1.1166e-05	46.63	0.0041447	0.0042638	0.0013299	788.11	4.7808e-05	4.6975e-05	962.95	230.93	4.7644e-05	4.7738e-05	401.82	149.18	108.76	36.685	5.4184e-05	70.956	225.422	165.588	142.171	-91.259	65.409	232.070	-91.288	-86.069	5.907	181.546	-87.156	-81.891	-82.481	-77.939	225.368	-78.057	-8191	255	
3895.406	1	1	0	0	0.10131	0.25204	0.20807	0.13667	0.23244	0.33087	0.067452	0.19714	0.22215	0.10894	0.39573	0.17295	0.14665	0.1985	0.22779	0.27796	0.22708	-0.675	-0.039583	-0.47292	-0.82708	-0.13333	-1.0229	-0.60417	-0.058333	-0.77083	-0.38125	-0.36458	-0.73542	-0.0041667	-0.75625	-0.7625	132.186	172.903	176.181	-80.328	115.894	124.472	179.240	-99.800	205.551	102.021	178.830	-20.637	83.691	-92.567	-42.954	241.327	0.0002015	0.0006651	0.00029574	413.22	5.8346e-06	2.7385e-05	568.31	129.13	3.5647e-06	2.0264e-05	229.85	90.502	42.862	19.9	4.9487e-06	46.8	0.0041595	0.0045015	0.0013889	779.8	4.7535e-05	4.9587e-05	972.51	228.18	4.7204e-05	5.0419e-05	402.89	147.16	107.52	37.474	5.3625e-05	70.157	167.615	129.703	231.289	-91.377	71.143	200.275	-91.258	-86.118	-7.002	184.138	-86.851	-82.172	-82.243	-77.813	53.357	-78.162	-8191	255	
3895.480	1	1	0	0	0.11529	0.11117	0.19695	0.22031	0.19309	0.22891	0.45644	0.2206	0.12626	0.19447	0.22867	0.22853	0.14845	0.22766	0.13876	0.37606	0.18125	-0.80208	-0.47083	-0.67292	-1.0083	-0.24583	-0.92917	-0.80208	-0.34375	-1.1	-0.38958	-0.47708	-0.92708	-0.25833	-0.6125	-1.05	23.560	225.765	-27.664	-65.742	69.217	66.578	213.292	239.073	83.878	228.764	-28.107	215.917	-99.559	164.796	94.789	183.204	8.3225e-05	0.0022931	0.00055158	413.28	9.5134e-06	1.9169e-05	573.62	128.67	1.7897e-06	2.005e-05	232.1	90.064	42.662	20.166	1.8085e-05	46.867	0.0040927	0.004722	0.0013661	769.71	4.7127e-05	5.237e-05	961.97	224.9	4.6597e-05	5.2416e-05	395.89	145.35	106.67	38.147	5.0483e-05	69.302	233.709	166.836	-76.385	-91.660	89.446	186.604	-91.365	-86.328	104.593	229.332	-86.844	-81.979	-81.907	-77.620	59.621	-78.156	-8191	255	
3895.598	1	1	0	0	0.12217	0.10355	0.21265	0.17486	0.10154	0.034974	0.03335	0.10816	0.18453	0.17577	0.23673	0.070027	0.03095	0.33666	0.24333	0.2256	0.039583	-1.1187	-0.55417	-0.25833	-0.74583	0.097917	-0.57917	-0.70417	0.027083	-0.73333	-0.55208	-0.34167	-0.99792	-0.35625	-0.63125	-1.1604	236.910	27.109	-60.560	33.271	-87.446	197.373	224.038	221.081	9.166	129.040	183.205	132.121	219.109	224.293	-98.044	203.116	0.00019633	0.0012213	0.00060497	413.67	3.0911e-06	5.2984e-06	571.58	129.35	1.1938e-05	1.2317e-05	230.4	89.851	42.722	20.087	2.4187e-05	46.52	0.0040175	0.0047677	0.0012585	745.98	4.5806e-05	5.1695e-05	927.1	219.51	4.553e-05	5.1726e-05	382.22	142.34	106.34	37.814	4.6275e-05	67.829	234.879	116.058	-24.314	-91.802	220.750	163.218	-91.718	-85.951	168.613	180.982	-86.787	-81.884	-82.778	-77.283	1.538	-78.364	-8191	255	
3895.695	1	1	0	0	0.23229	0.30295	0.15851	0.25665	0.18184	0.28399	0.15728	0.02733	0.059921	0.07301	0.082119	0.42304	0.054221	0.15828	0.0546	0.11391	0.14375	-0.96458	-0.56458	-0.19167	-0.93333	-0.31458	-0.44167	-1.0229	-0.10833	-0.825	-0.83958	-0.23333	-1.0229	-0.19167	-0.19167	-1.1417	103.985	189.610	225.575	-22.134	18.952	134.630	199.774	85.917	199.521	57.780	143.178	104.768	67.249	161.564	-6.850	186.773	0.00025482	0.00091009	0.00011094	410.73	1.3266e-05	2.6892e-05	567.24	127.75	1.3964e-05	2.0022e-05	228.22	89.309	42.615	19.997	1.8037e-05	46.22	0.0040142	0.0045907	0.0011604	725.4	4.5934e-05	4.8986e-05	895.57	212.98	4.5737e-05	4.8201e-05	368.35	138.41	105.92	36.334	4.3341e-05	66.628	195.123	-77.959	-96.084	-91.904	227.871	0.987	-91.439	-86.132	-72.918	31.756	-86.821	-82.167	-82.213	-77.661	49.049	-78.291	-8191	255	
3895.791	1	1	0	0	0.12339	0.15195	0.2163	0.084118	0.27253	0.206	0.21182	0.10311	0.17321	0.20487	0.19503	0.18434	0.069228	0.089131	0.085275	0.27218	0.28333	-0.575	-0.77917	-0.21667	-1.1229	-0.32917	-0.34792	-0.9	-0.11458	-0.48542	-0.81667	-0.16458	-0.725	-0.39167	-0.2625	-1.0354	171.954	22.954	-66.629	216.089	139.731	6.985	201.956	65.919	205.817	117.219	93.060	226.160	101.295	-51.629	49.114	96.191	0.00021194	0.0024474	0.00029986	412.53	5.2726e-06	2.0445e-05	569.27	128.57	1.2126e-05	2.1342e-05	228.58	89.619	42.58	19.97	1.3512e-05	46.371	0.0040616	0.0043259	0.0011089	718.59	4.7099e-05	4.6867e-05	888.54	213.18	4.7386e-05	4.6553e-05	365.93	139.01	108.66	35.896	4.2386e-05	66.97	171.459	-81.946	-60.395	-91.674	100.177	41.405	-91.424	-86.279	209.887	48.801	-87.104	-82.017	-82.747	-77.740	121.323	-78.186	-8191	255	
3895.887	1	1	0	0	0.23512	0.20958	0.1514	0.092931	0.29003	0.13201	0.077187	0.3517	0.083983	0.088856	0.27376	0.31826	0.15148	0.10586	0.18884	0.084836	0.1	-0.40208	-0.76875	-0.097917	-0.89167	-0.4875	-0.22917	-0.99167	-0.24375	-0.30417	-0.98958	-0.17708	-0.77917	-0.5	-0.066667	-1.1167	243.453	204.013	111.198	155.898	-99.631	-18.339	-38.945	-64.548	-50.154	212.049	245.553	199.557	255.478	58.634	91.781	175.101	0.00025144	0.0026846	0.00040367	408.62	6.1228e-06	3.6705e-05	566.37	128.14	2.9364e-06	1.8145e-05	229.36	89.939	43.107	19.925	9.9254e-06	46.763	0.0041985	0.0041741	0.0010846	726.41	4.8282e-05	4.5022e-05	881.75	215.52	4.7986e-05	4.4312e-05	362.88	140.71	108.43	35.052	4.0817e-05	67.742	218.808	-21.766	-98.758	-91.463	163.623	15.255	-91.625	-86.204	247.966	45.711	-86.813	-82.099	-82.308	-77.746	99.791	-78.303	-8191	255	
3896.008	1	1	0	0	0.15841	0.083657	0.068677	0.25367	0.23248	0.16411	0.058929	0.12475	0.045827	0.082276	0.14109	0.099511	0.10484	0.2688	0.10616	0.15709	-0.035417	-0.40833	-0.775	-0.23958	-0.83542	-0.61458	-0.21667	-0.86875	-0.56667	-0.30417	-1.0562	-0.075	-0.64792	-0.775	0.04375	-0.77917	239.587	-46.887	-26.825	188.439	204.943	209.021	-99.036	195.790	221.495	-32.738	159.257	195.419	95.520	198.361	56.322	211.388	0.00017809	0.0015767	0.00030029	407.52	9.6784e-06	1.8705e-05	566.05	128.34	1.5366e-05	1.4629e-06	227.62	89.349	42.812	19.985	5.4833e-06	45.968	0.0040971	0.003899	0.0010314	729.34	4.5664e-05	4.1701e-05	859.86	215.17	4.4475e-05	4.0707e-05	352.42	139.77	102.45	33.749	3.8199e-05	66.956	194.328	-56.965	-22.536	-91.387	65.658	-44.369	-91.375	-85.852	70.674	162.096	-86.887	-82.243	-82.517	-77.757	240.431	-78.216	-8191	255	
3896.079	1	1	0	0	0.24352	0.10571	0.021031	0.10722	0.28713	0.088895	0.18953	0.12872	0.20498	0.071825	0.18296	0.33334	0.11216	0.16335	0.16672	0.32494	0.14375	-0.13958	-0.7125	0.029167	-0.54375	-0.78542	0.041667	-0.92708	-0.36042	0.0020833	-0.90208	-0.033333	-0.46875	-0.74792	-0.03125	-0.98542	31.364	-95.897	8.470	244.492	232.272	166.562	156.756	82.801	-66.260	104.763	190.736	252.282	-60.439	237.956	-95.587	237.681	7.2825e-05	0.00053039	3.2252e-05	409.87	1.5396e-05	7.4392e-06	562	126.81	1.0489e-05	8.5638e-06	224.58	88.629	43.133	19.795	8.4634e-06	46.025	0.0037489	0.0035804	0.00097054	722.05	4.1396e-05	3.8569e-05	840.38	211.31	3.9988e-05	3.7026e-05	344.3	137.28	96.004	32.532	3.6788e-05	66.149	157.321	243.401	34.512	-91.793	51.941	14.683	-91.425	-86.231	64.693	29.497	-87.153	-82.373	-81.799	-77.623	201.994	-78.130	-8191	255	
3896.175	1	1	0	0	0.25232	0.042093	0.40818	0.11872	0.10385	0.10349	0.18468	0.19513	0.14229	0.19419	0.054936	0.18207	0.11726	0.18388	0.033947	0.14186	-0.225	-0.1375	-0.92292	-0.17708	-0.47917	-0.7875	-0.18958	-0.84167	-0.51458	-0.083333	-1.025	-0.30625	-0.22292	-0.92708	0.04375	-0.63542	199.823	164.134	42.320	218.132	-79.714	138.312	119.848	-91.659	217.204	231.777	-31.684	-102.515	27.936	169.901	-86.620	45.115	4.606e-05	0.001091	0.00025856	409.12	1.325e-05	8.5611e-06	559.14	127.09	5.8779e-06	1.1058e-05	226.03	88.62	42.386	19.953	1.3559e-05	46.292	0.0034055	0.0033456	0.00096118	713.18	3.8371e-05	3.6743e-05	846.26	211.14	3.8553e-05	3.6454e-05	352.45	138.22	95.152	32.69	3.9776e-05	66.425	31.741	-96.240	114.835	-91.730	62.372	84.835	-91.499	-86.135	51.060	30.364	-86.829	-81.873	-82.279	-77.782	186.693	-78.326	-8191	255	
3896.296	1	1	0	0	0.11328	0.30014	0.16887	0.014401	0.03162	0.13113	0.17569	0.21513	0.11565	0.24561	0.26159	0.016489	0.18528	0.11259	0.12632	0.23559	-0.2375	0.08125	-0.54583	-0.21667	-0.31042	-0.82292	0.0041667	-0.86458	-0.54583	-0.2375	-1.1292	-0.44583	-0.49583	-0.97708	-0.15833	-0.70208	167.205	99.282	122.240	-45.973	61.985	113.169	221.536	255.816	157.960	2.065	236.046	-58.921	137.593	150.657	-2.125	79.595	0.00011993	0.00079548	0.00050542	409.5	5.4652e-06	1.9732e-05	556.64	127.55	5.6075e-06	5.7509e-06	226.64	89.171	42.513	19.901	8.0941e-06	46.647	0.0033924	0.0033446	0.0010376	712.75	3.7835e-05	3.684e-05	864.62	208.87	3.7879e-05	3.628e-05	358.59	136.64	93.349	32.558	4.0638e-05	65.452	200.239	-7.088	149.554	-91.792	-36.804	113.045	-91.783	-85.993	144.379	-77.253	-86.644	-81.736	-81.943	-77.441	216.869	-78.221	-8191	255	
3896.392	1	1	0	0	0.057143	0.22589	0.26333	0.30747	0.19429	0.15264	0.32597	0.15203	0.14618	0.22135	0.25444	0.030209	0.050544	0.31117	0.14341	0.10516	-0.52292	-0.0625	-0.95417	-0.43958	-0.18333	-0.96458	-0.37083	-0.54792	-0.6375	0.022917	-0.6125	-0.73542	-0.30417	-1.0667	-0.25	-0.3375	-73.724	-89.722	253.692	206.523	192.225	31.347	252.043	209.872	135.103	178.241	46.465	14.562	102.773	-28.263	120.048	56.172	0.00019489	0.001076	0.00024913	406.88	3.8412e-06	4.7732e-06	559.56	128.24	9.9681e-06	4.4714e-06	224.98	88.418	42.656	19.682	8.6885e-06	45.934	0.0032396	0.0033141	0.0010416	693.92	3.6123e-05	3.6562e-05	865.43	203.43	3.6064e-05	3.6573e-05	357.39	133.44	91.321	32.883	4.1207e-05	64.03	160.646	218.448	-74.011	-91.530	-5.778	25.748	-91.771	-85.777	-25.265	186.442	-86.472	-81.743	-81.831	-77.326	161.819	-78.070	-8191	255	
3896.488	1	1	0	0	0.16145	0.14826	0.11229	0.23342	0.20992	0.14701	0.13205	0.42406	0.082406	0.25638	0.13313	0.10436	0.2272	0.13045	0.16487	0.073574	-0.625	-0.4	-0.84792	-0.59792	-0.23542	-1.025	-0.46667	-0.3	-0.68125	-0.11458	-0.82708	-0.77708	-0.0041667	-1.025	-0.625	-0.5875	-83.792	81.247	-9.976	235.508	58.384	39.326	44.295	241.627	107.124	-44.572	197.495	48.757	-21.242	84.207	130.948	252.718	0.00012211	0.0005762	0.00011687	405.03	9.808e-06	3.5987e-05	557.93	126.31	1.5994e-06	1.8254e-05	228.38	88.681	42.28	19.59	3.4392e-06	46.045	0.0031755	0.0034757	0.0010537	681.09	3.567e-05	3.8939e-05	866.39	201.33	3.6069e-05	3.9335e-05	357.25	132.83	91.612	33.776	4.1066e-05	64.153	237.357	84.063	-93.745	-91.738	77.472	220.444	-91.454	-85.785	-39.062	205.471	-86.920	-82.287	-81.942	-77.628	80.917	-78.202	-8191	255	
3896.584	1	1	0	0	0.27317	0.02776	0.19949	0.16896	0.13801	0.13958	0.26361	0.20949	0.06502	0.30256	0.25896	0.42192	0.12746	0.0813	0.21559	0.31634	-0.61875	-0.15208	-0.48333	-0.60208	-0.022917	-0.8375	-0.45	-0.095833	-0.81458	0.097917	-0.53125	-0.64375	0.054167	-0.85208	-0.19375	-0.070833	169.727	231.863	139.473	235.841	189.553	-53.927	180.497	36.922	111.396	79.044	-89.744	218.187	6.644	26.866	-88.123	-62.614	0.00027026	0.0019152	0.00030929	407.26	6.4184e-06	2.1711e-05	561.22	126.56	7.26e-06	1.0663e-05	226.09	88.93	42.311	19.929	1.7235e-05	46.346	0.0031903	0.0037633	0.0010429	683.81	3.6559e-05	4.1766e-05	862.52	201.86	3.6681e-05	4.1902e-05	354.69	132.45	93.197	34.57	3.9853e-05	64.135	225.814	135.415	-47.921	-91.757	255.896	229.347	-91.693	-86.093	137.572	153.828	-86.754	-81.974	-82.176	-77.377	-5.995	-78.095	-8191	255	
3896.679	1	1	0	0	0.21154	0.3832	0.12415	0.25607	0.12999	0.2534	0.35284	0.16772	0.22493	0.082597	0.22939	0.28352	0.19159	0.15106	0.063982	0.30368	-0.40208	-0.03125	-0.3375	-0.7125	0.10833	-0.61458	-0.45833	-0.12292	-0.94792	-0.42917	-0.68542	-1.0187	-0.00625	-0.90833	-0.5875	-0.30625	-74.475	33.924	89.760	3.479	-31.946	-7.455	150.009	231.469	235.617	-43.703	158.102	254.205	-28.736	178.947	49.492	141.574	0.00039813	0.0014859	0.00052008	408.07	5.4857e-06	7.1886e-06	560.53	126.72	5.246e-06	6.5926e-06	227.89	89.27	42.172	20.128	1.5785e-05	46.564	0.0033146	0.0039289	0.0010116	679.6	3.8236e-05	4.3086e-05	855.01	200.74	3.8722e-05	4.309e-05	351.81	132.74	97.19	35.095	3.9324e-05	64.54	219.265	242.284	-4.035	-91.680	-81.655	113.083	-91.351	-86.214	178.140	-91.322	-86.754	-82.227	-82.576	-77.391	22.226	-77.739	-8191	255	
3896.775	1	1	0	0	0.1893	0.29578	0.13933	0.17234	0.14679	0.17578	0.27846	0.090583	0.068841	0.15056	0.22625	0.12829	0.014518	0.32077	0.13852	0.20932	-0.54792	-0.28542	-0.54792	-1.0083	-0.23125	-0.79167	-0.78333	-0.020833	-0.87083	-0.34375	-0.51042	-1.0146	-0.14792	-0.875	-0.7625	-0.4	188.699	25.249	162.566	234.003	156.845	67.324	-83.454	92.844	42.380	235.451	236.188	150.706	147.556	-80.428	214.135	136.947	0.00047874	0.00037908	0.00035589	407.09	1.1929e-05	1.5206e-05	562.57	126.44	1.4684e-05	1.8767e-05	227.17	88.913	41.939	19.932	2.2495e-05	46.07	0.0036029	0.0040463	0.0010177	686.71	4.24e-05	4.4552e-05	863.05	203.8	4.3469e-05	4.4419e-05	355.23	134.35	103.19	35.131	4.0096e-05	64.824	205.951	115.128	-26.631	-91.394	195.108	-7.926	-91.441	-86.155	191.372	1.919	-86.760	-81.845	-82.027	-77.347	5.428	-78.168	-8191	255	
3896.896	1	1	0	0	0.31582	0.039131	0.10866	0.18359	0.039607	0.079779	0.14328	0.26477	0.12051	0.11005	0.13615	0.10554	0.29795	0.13825	0.12899	0.21238	-0.625	-0.36875	-0.052083	-1.0125	0.0375	-0.83958	-0.85833	-0.27708	-0.72083	-0.25417	-0.44583	-1.05	-0.29167	-0.28958	-0.71458	-0.23125	113.731	0.096	-35.163	-60.457	145.889	208.106	-96.949	249.916	177.843	190.745	120.625	102.634	163.344	-50.699	137.511	104.747	0.00021003	0.0011447	0.00043861	402.93	8.8905e-06	3.4897e-05	560.27	125.25	9.2653e-06	1.1909e-05	228.58	88.189	42.138	19.981	1.8459e-05	45.818	0.0039061	0.004	0.0010111	691.5	4.4698e-05	4.2848e-05	853.89	204.97	4.5041e-05	4.2602e-05	352.12	135.91	105.42	34.648	3.9596e-05	66.101	207.715	-76.241	23.012	-91.497	230.387	4.485	-91.525	-85.887	-100.652	75.728	-86.828	-82.334	-82.268	-77.361	0.120	-78.185	-8191	255	
3896.992	1	1	0	0	0.19563	0.12354	0.32752	0.0083898	0.21438	0.029635	0.31925	0.16753	0.19335	0.062611	0.030474	0.18051	0.1365	0.17736	0.26769	0.16202	-0.40625	-0.54375	-0.039583	-0.74792	-0.29167	-0.52292	-1.2729	-0.31042	-0.79792	-0.60625	-0.11667	-0.80417	-0.1625	-0.2625	-0.925	-0.13125	12.330	145.659	-19.024	164.137	32.685	236.010	184.844	88.996	-83.741	67.789	143.269	-84.329	-23.163	-43.386	-58.233	39.135	0.00016952	0.0023174	0.00015588	401.11	9.84e-06	2.296e-05	559.66	126.06	1.4148e-05	6.9761e-07	225.78	88.569	42.795	19.915	6.7329e-06	46.257	0.0040783	0.0039099	0.0010117	713.68	4.6439e-05	4.2098e-05	854.38	211.23	4.566e-05	4.1546e-05	350.23	139.22	105	34.124	3.8753e-05	67.29	-96.016	-31.058	32.147	-91.394	16.782	18.977	-91.493	-86.586	30.221	209.139	-86.718	-81.879	-81.835	-77.563	220.376	-78.198	-8191	255	
3897.088	1	1	0	0	0.35718	0.020781	0.17425	0.13503	0.14837	0.25397	0.38944	0.21112	0.071348	0.086742	0.18415	0.25722	0.19069	0.13872	0.10122	0.16273	-0.39167	-0.68958	-0.052083	-1.125	-0.34583	-0.47708	-1.0625	-0.34375	-0.84792	-0.96458	-0.22292	-1.0667	-0.43958	-0.34375	-1.0083	-0.34375	-22.093	-26.299	206.142	125.647	207.719	-31.519	199.670	176.170	-95.143	218.579	145.334	140.028	21.195	-74.061	-15.165	141.972	4.5264e-05	0.001884	0.00012844	399.68	1.6834e-05	7.2316e-06	562.71	126.86	1.5988e-05	1.4221e-05	225.85	89.491	43.403	20.145	3.4514e-06	46.69	0.0039357	0.0037502	0.00097903	724.48	4.4001e-05	3.9917e-05	844.57	213.67	4.2696e-05	3.9222e-05	347.55	140.49	100.28	33.385	3.7355e-05	67.526	-22.798	-2.603	-70.321	-91.661	58.749	-28.208	-91.689	-86.238	81.986	25.801	-86.834	-82.117	-82.123	-77.448	190.157	-78.438	-8191	255	
3897.184	1	1	0	0	0.22576	0.19827	0.16365	0.22869	0.094758	0.26669	0.12155	0.13781	0.13055	0.12143	0.20672	0.18131	0.087603	0.21581	0.26244	0.25227	-0.2	-0.52917	-0.14583	-0.97292	-0.44583	-0.060417	-0.95417	-0.14167	-0.56042	-0.75833	-0.12083	-0.79583	-0.71042	-0.21458	-0.77708	-0.4625	41.156	84.095	4.060	235.684	235.881	92.937	42.152	225.279	253.432	-55.352	234.932	-90.857	80.123	-66.841	119.057	-43.242	0.0001327	0.00078794	0.00022955	403.07	4.5295e-06	2.3667e-05	556.81	126.93	1.4758e-05	3.5697e-06	225.46	89.034	43.081	20.108	1.5406e-05	46.675	0.0035621	0.0034524	0.00094675	716.66	3.9705e-05	3.676e-05	838.13	211.06	3.8509e-05	3.6282e-05	346.16	138.15	94.847	32.325	3.7643e-05	66.445	-29.947	-10.854	153.726	-91.377	12.220	0.800	-91.478	-85.975	31.143	59.666	-86.889	-81.735	-82.626	-77.476	161.987	-78.334	-8191	255	
3897.305	1	1	0	0	0.35839	0.043895	0.31807	0.048698	0.17005	0.13358	0.047307	0.042353	0.156	0.27572	0.15472	0.35307	0.084976	0.1274	0.076813	0.22103	-0.1	-0.98125	-0.24792	-0.83125	-0.84792	-0.31667	-1.0042	-0.36042	-0.39792	-0.98542	-0.51458	-0.75625	-0.74375	-0.30833	-0.93333	-0.23125	199.730	-101.357	93.623	17.419	90.028	-61.926	22.818	213.763	184.624	202.020	114.312	218.628	29.324	170.392	195.314	191.991	0.00017361	0.0010336	0.00047211	407.54	5.9427e-06	1.1573e-05	557.92	126.37	4.6899e-06	3.8916e-06	225.32	89.715	42.484	20.077	8.3596e-06	46.63	0.0032969	0.003244	0.00096732	704.32	3.6995e-05	3.4699e-05	846.6	206.74	3.6118e-05	3.4361e-05	349.02	135.27	91.374	31.807	3.8416e-05	65.284	-35.964	95.730	142.251	-91.425	22.125	47.301	-91.470	-85.975	44.113	2.943	-87.098	-82.079	-82.007	-77.174	240.994	-78.104	-8191	255	
3897.376	1	1	0	0	0.058415	0.33347	0.12878	0.34207	0.22109	0.15013	0.42283	0.27955	0.082135	0.32014	0.18623	0.0945	0.043712	0.18521	0.21142	0.082486	0.18542	-0.86875	-0.1625	-0.62708	-0.82292	-0.29792	-0.99167	-0.575	-0.20417	-0.95625	-0.18333	-0.4875	-0.76458	-0.11667	-0.81042	-0.5125	245.898	-91.826	241.808	143.920	8.822	-61.588	-100.756	216.476	233.470	56.708	214.525	173.518	188.794	252.336	209.789	-95.290	0.00016157	0.00055681	0.0001941	409.6	7.5446e-06	2.0832e-05	562.04	126.53	8.2107e-06	9.1795e-06	229.79	90.275	42.722	20.187	3.9289e-06	47.007	0.0030739	0.0031167	0.00098431	685.82	3.5053e-05	3.3817e-05	852.69	202.35	3.4382e-05	3.4224e-05	353.58	133.03	89.74	32.044	3.8973e-05	64.531	-100.325	206.310	85.666	-91.581	58.231	190.742	-91.480	-85.839	78.004	216.164	-86.443	-81.620	-81.872	-77.340	168.241	-78.070	-8191	255	
3897.472	1	1	0	0	0.0029478	0.24124	0.060951	0.14063	0.20249	0.17027	0.079323	0.44833	0.27179	0.090037	0.23506	0.039378	0.12458	0.079931	0.14644	0.11182	0.275	-0.92292	-0.37708	-0.64167	-0.8625	-0.03125	-0.77083	-0.50417	-0.14167	-0.71667	-0.47292	-0.31458	-0.88958	-0.064583	-0.48333	-0.74583	180.583	-81.925	50.906	-78.701	255.454	223.932	5.639	225.041	54.806	131.689	-87.668	101.424	237.260	251.595	130.078	189.690	0.00013859	0.001984	0.00020324	411.45	1.2381e-05	2.3353e-05	567.25	128.05	1.2117e-06	1.2725e-05	229.18	89.902	42.489	20.065	1.8173e-06	46.989	0.0029644	0.0031977	0.00099983	672.27	3.3851e-05	3.5323e-05	858.23	199.17	3.3299e-05	3.5686e-05	353.45	131.29	88.232	32.632	3.819e-05	63.808	153.571	129.751	140.504	-91.382	31.996	165.211	-91.173	-85.907	128.397	205.187	-86.759	-81.910	-82.060	-77.562	163.895	-77.988	-8191	255	
3897.569	1	1	0	0	0.18611	0.12496	0.30777	0.44226	0.18352	0.15783	0.084458	0.060907	0.25359	0.13444	0.21219	0.1009	0.25617	0.10102	0.28829	0.18309	0.23542	-1.0063	-0.28958	-0.34375	-1.0021	-0.18333	-0.81042	-0.78542	-0.14167	-0.90208	-0.49375	-0.34375	-0.95833	0.041667	-0.35208	-0.76458	133.241	-77.491	183.538	-82.004	225.501	225.089	-93.157	-44.548	-89.586	-79.270	233.320	229.124	103.873	-29.246	-96.013	238.612	0.00020393	0.0020448	0.00059468	409.09	8.1275e-06	3.0511e-05	563.38	127.51	8.4955e-06	6.5951e-06	229.33	89.599	42.301	20.045	1.9805e-05	46.588	0.0028719	0.0033485	0.00096787	657.82	3.2794e-05	3.6549e-05	838.89	195.26	3.2097e-05	3.6479e-05	342.68	128.32	86.354	32.689	3.5069e-05	62.29	242.931	121.791	-58.614	-91.256	30.360	189.391	-91.135	-86.010	-75.515	198.976	-86.811	-81.820	-82.406	-77.840	50.594	-78.561	-8191	255	
3897.688	1	1	0	0	0.13348	0.19723	0.093491	0.14015	0.073511	0.060665	0.12361	0.068642	0.044365	0.14643	0.1487	0.069278	0.28858	0.22431	0.16537	0.099261	0.40417	-0.78333	-0.43125	0.0083333	-1.0104	-0.25625	-0.83333	-0.81875	-0.10833	-0.75833	-0.69583	-0.36458	-0.99792	-0.45208	-0.6	-0.9125	233.312	-28.629	174.631	179.350	-16.742	-3.889	234.599	176.352	23.334	73.092	161.189	-24.149	-80.345	227.536	209.301	129.474	0.00025978	0.00057661	0.0001411	407.34	1.1125e-05	2.0329e-05	561.73	127.33	1.2076e-05	6.7996e-06	228.2	89.716	42.202	19.984	3.6102e-06	46.967	0.0027689	0.0033528	0.00088625	640.79	3.196e-05	3.6556e-05	817.08	191.56	3.2078e-05	3.6696e-05	335.72	126.76	87.429	32.853	3.3211e-05	62.108	217.955	91.137	-37.357	-91.291	-96.335	63.039	-91.262	-86.251	242.412	168.257	-86.639	-82.084	-81.502	-77.914	127.864	-78.238	-8191	255	
3897.784	1	1	0	0	0.21405	0.26008	0.077339	0.1059	0.41743	0.19932	0.13582	0.11215	0.40722	0.27334	0.36512	0.16989	0.28481	0.13711	0.14037	0.3149	0.50208	-0.38542	-0.24583	-0.064583	-0.775	-0.11458	-0.09375	-0.83333	-0.2	-0.65417	-0.8375	-0.27083	-0.81042	-0.30208	-0.175	-0.8125	-54.599	43.925	219.736	10.758	231.966	238.758	193.264	-76.129	48.323	-93.770	245.345	-79.382	235.703	-54.166	-55.383	122.881	0.00031641	0.0012565	0.00013088	408.47	6.2655e-06	2.9984e-05	564.7	127.04	1.2954e-05	1.2113e-05	229.82	90.201	42.698	20.345	1.0807e-05	46.884	0.0028923	0.0033729	0.00085284	636.37	3.3867e-05	3.6982e-05	811.31	190.95	3.4436e-05	3.67e-05	334.73	126.97	90.897	32.872	3.2767e-05	62.177	214.694	-12.695	-75.992	-91.274	253.510	-25.308	-91.283	-85.773	230.729	29.858	-86.681	-81.809	-82.420	-77.396	-64.621	-78.234	-8191	255	
3897.880	1	1	0	0	0.07372	0.19482	0.111	0.11355	0.2511	0.14284	0.22149	0.19988	0.10008	0.15657	0.16385	0.14749	0.11061	0.10811	0.043525	0.25722	0.3375	-0.56042	-0.43958	0.12083	-0.5875	-0.22083	-0.26875	-0.56667	0.022917	-0.5125	-0.73333	-0.22083	-0.86042	-0.64583	-0.17917	-0.96875	161.687	-60.374	190.326	-9.977	-32.237	160.200	168.425	-93.316	196.939	-7.949	129.119	163.702	162.929	101.421	44.091	203.123	0.00032684	0.00083131	0.00027185	408.47	1.4994e-05	1.776e-05	564.09	126.62	6.2954e-06	1.3959e-05	229.61	90.249	42.554	20.296	7.6549e-06	46.963	0.0031208	0.003319	0.00084421	639.75	3.6355e-05	3.6292e-05	810.33	192.34	3.6764e-05	3.5908e-05	334.64	128.22	94.352	32.535	3.2587e-05	62.73	195.120	-71.338	1.534	-91.784	224.579	-16.030	-91.368	-86.111	139.012	6.929	-86.527	-81.693	-82.496	-77.598	60.513	-78.429	-8191	255	
3897.976	1	1	0	0	0.087148	0.22166	0.1238	0.14181	0.098168	0.1447	0.078863	0.18371	0.16294	0.2912	0.20842	0.32743	0.13309	0.23614	0.14357	0.19519	0.22917	-0.4375	-0.82708	-0.13333	-0.69167	-0.48125	-0.23125	-1.1229	-0.37708	-0.58333	-0.8375	-0.28333	-0.6375	-0.45	0.010417	-0.90833	246.806	-23.024	-29.195	63.822	245.480	-32.498	143.677	-85.029	111.837	223.078	204.892	-72.179	197.590	-66.398	176.597	106.152	0.00015853	0.001251	0.00042979	405.49	6.862e-06	3.2993e-05	560.94	126.79	1.0247e-05	1.7916e-05	227.14	89.241	43.142	20.085	5.4872e-06	46.436	0.0032848	0.003227	0.00083219	649.13	3.7904e-05	3.5165e-05	804.47	194.99	3.7972e-05	3.4802e-05	331.18	129.77	95.378	32.189	3.2926e-05	63.882	200.678	1.081	-34.342	-91.683	58.903	24.846	-91.787	-86.280	53.554	-7.601	-87.038	-82.214	-82.545	-78.164	-28.459	-78.744	-8191	255	
3898.072	1	1	0	0	0.17055	0.085336	0.029669	0.17293	0.13429	0.27779	0.2657	0.29797	0.36978	0.36575	0.15768	0.34419	0.31565	0.039605	0.01898	0.39529	0.16458	-0.36875	-0.77708	-0.325	-0.76667	-0.70833	-0.34792	-0.9625	-0.39375	-0.35208	-0.96458	-0.27708	-0.48542	-0.68958	0.19792	-0.91458	28.562	73.996	-7.587	193.608	-3.416	-13.396	239.872	183.347	-75.844	-23.750	-86.931	0.839	-87.306	147.913	6.793	231.589	0.00014478	0.00055217	0.00022059	401.46	1.4796e-06	1.967e-05	565.33	125.59	9.1382e-06	7.3667e-06	227.07	88.811	43.396	20.165	1.5067e-05	46.896	0.0034237	0.0032563	0.00085671	674.81	3.8984e-05	3.5445e-05	811.48	201.61	3.8543e-05	3.4923e-05	334.27	133.59	94.923	32.084	3.2801e-05	65.116	233.727	-81.335	0.215	-92.060	118.935	0.399	-91.285	-86.423	80.515	1.313	-86.820	-82.037	-82.370	-77.831	79.551	-78.254	-8191	255	
3898.168	1	1	0	0	0.16352	0.25528	0.21399	0.24152	0.043917	0.19219	0.2813	0.14808	0.078119	0.11728	0.18334	0.15419	0.13115	0.14044	0.26877	0.34286	0.11667	-0.17292	-0.81042	0.035417	-0.4125	-0.66042	-0.15833	-1.1958	-0.56667	-0.30208	-1.1333	-0.35	-0.63125	-1.0312	-0.175	-1.0542	252.919	133.522	-62.779	246.076	11.613	55.327	178.246	194.697	9.500	52.635	-43.089	185.015	-32.059	-24.040	130.672	170.234	0.00012761	0.00061732	0.00021742	406.5	5.6574e-07	2.9447e-05	562.91	128.09	2.2962e-06	9.5374e-06	228.15	89.952	43.292	20.201	1.8834e-05	47.025	0.0032764	0.0031099	0.00083692	683.36	3.6213e-05	3.3409e-05	807.81	203.24	3.5839e-05	3.3091e-05	333.97	134.57	91.955	31.641	3.3316e-05	65.462	-93.801	-57.408	145.224	-91.709	48.049	-3.841	-91.507	-86.198	245.804	-22.330	-87.069	-81.927	-82.159	-77.509	215.172	-77.868	-8191	255	
3898.264	1	1	0	0	0.13064	0.48912	0.19289	0.12266	0.12263	0.10354	0.20242	0.21895	0.34684	0.24907	0.21599	0.16933	0.24733	0.024279	0.15274	0.07044	-0.34375	-0.25625	-0.69375	-0.42917	-0.28333	-0.78542	-0.18542	-0.79792	-0.71667	-0.28333	-0.99583	-0.36458	-0.5625	-0.87708	0.0083333	-0.72917	60.714	-39.227	54.024	215.712	-69.059	10.561	203.660	212.813	15.397	-48.107	248.972	206.958	-1.595	173.749	107.918	99.758	0.00012488	0.00090318	0.00016569	406.75	1.0562e-05	2.4917e-05	564.04	127.81	1.4471e-06	4.8884e-06	227.16	89.854	43.317	20.057	1.3732e-05	47.003	0.0030464	0.0029542	0.00085418	681.51	3.3981e-05	3.1944e-05	815.57	201.74	3.3582e-05	3.1572e-05	337.87	133.28	88.588	31.092	3.4707e-05	64.697	-73.246	-45.358	44.390	-91.515	51.118	-6.575	-91.838	-85.934	113.745	43.390	-86.750	-81.695	-81.824	-77.645	213.996	-78.199	-8191	255	
3898.385	1	1	0	0	0.10367	0.13279	0.21268	0.13116	0.23511	0.12074	0.11738	0.076277	0.13461	0.18073	0.054852	0.25059	0.074892	0.29056	0.30014	0.23023	-0.3875	-0.3	-1.0833	-0.38542	-0.425	-0.63542	-0.039583	-0.57708	-0.49792	0.060417	-0.7875	-0.31875	-0.17708	-0.725	-0.060417	-0.58958	-66.163	-102.195	210.364	88.252	254.435	185.855	185.014	-89.134	107.481	0.571	178.780	-86.652	37.519	-56.594	21.428	163.757	0.00016797	0.00074378	0.00038239	407.36	1.7989e-06	2.1484e-05	559.3	126.99	4.1812e-06	2.4759e-06	227.34	89.31	42.969	19.957	1.2458e-05	47.04	0.0029404	0.0029009	0.00090577	673.23	3.3082e-05	3.1848e-05	830.75	199.31	3.2872e-05	3.1562e-05	343.54	130.95	87.236	31.018	3.6439e-05	63.727	254.186	127.377	168.084	-91.555	207.595	95.917	-91.376	-85.774	55.958	-51.633	-86.786	-82.133	-82.046	-77.319	225.371	-77.964	-8191	255	
3898.479	1	1	0	0	0.20113	0.17099	0.33212	0.2314	0.10814	0.096655	0.27255	0.16949	0.31936	0.092248	0.13299	0.17917	0.25124	0.066827	0.088388	0.098651	-0.16667	-0.097917	-0.84792	-0.46875	-0.29167	-0.85	-0.28125	-0.1375	-0.65	-0.077083	-0.84583	-0.50208	-0.325	-0.82708	-0.23125	-0.52083	-64.494	-100.717	-74.426	226.428	207.083	136.971	177.639	221.477	149.257	212.395	201.136	-32.824	-41.296	184.052	36.545	93.904	8.9691e-05	0.00084786	0.00065577	407.11	1.3358e-05	4.9673e-06	560.89	127.43	8.6763e-06	7.7616e-06	227.3	89.701	42.346	20.067	1.4435e-05	47.058	0.002852	0.0029448	0.00093766	661.2	3.2062e-05	3.2449e-05	837.27	195.63	3.1755e-05	3.255e-05	345.14	129.51	86.016	31.692	3.7195e-05	63.245	189.687	199.717	146.219	-91.563	49.044	-99.835	-91.288	-85.604	31.328	253.839	-86.649	-82.109	-82.020	-77.079	41.751	-77.891	-8191	255	
3898.577	1	1	0	0	0.50278	0.18226	0.3403	0.19688	0.14568	0.29881	0.28671	0.22115	0.16397	0.22118	0.099779	0.17767	0.13786	0.062457	0.18838	0.22726	-0.25208	0.066667	-0.65208	-0.48542	0.10417	-0.78542	-0.44583	-0.41042	-0.96042	0.14375	-0.60417	-0.56875	-0.072917	-0.875	-0.26875	-0.60625	-17.334	127.231	-47.135	193.443	176.056	9.971	107.880	75.112	52.404	181.009	131.634	143.583	-80.948	94.564	-72.141	179.072	0.00010639	0.00085062	0.00028882	406.01	4.3697e-06	1.672e-05	566.13	127.11	4.5313e-06	9.8283e-06	228.94	89.714	42.916	20.055	8.664e-06	46.907	0.0028213	0.0031268	0.00094905	653.44	3.158e-05	3.4652e-05	836.46	193.46	3.1361e-05	3.4682e-05	343.48	128.27	85.246	32.192	3.5533e-05	62.41	217.036	194.516	36.183	-91.284	8.485	199.323	-91.503	-85.902	-93.502	234.006	-86.339	-82.012	-82.270	-77.292	32.581	-77.751	-8191	255	
3898.673	1	1	0	0	0.27688	0.073209	0.14888	0.13069	0.23626	0.062457	0.30335	0.25872	0.16085	0.12237	0.18423	0.15561	0.12334	0.16514	0.15805	0.24352	-0.84375	-0.24583	-0.56042	-0.65625	0.04375	-0.74792	-0.35833	-0.33333	-1.0646	-0.175	-0.51042	-0.79375	-0.11667	-0.77083	-0.4625	-0.26667	-49.876	-58.754	145.101	157.932	8.044	-29.219	245.709	-100.916	62.516	-55.876	-22.358	214.065	18.015	187.817	-44.327	7.063	0.00035542	0.0010295	0.00016896	405.48	6.5422e-06	1.6489e-05	559.58	126.58	8.9914e-06	1.2546e-05	227.88	88.767	42.613	19.829	1.2161e-05	46.192	0.0027361	0.0032559	0.00090001	643	3.1208e-05	3.5889e-05	821.18	190.72	3.1315e-05	3.5703e-05	335.64	126.3	85.253	32.242	3.3556e-05	61.232	221.051	229.905	-40.947	-91.511	180.851	233.964	-91.355	-86.272	-66.342	-87.254	-86.562	-82.099	-82.009	-77.145	44.865	-78.210	-8191	255	
3898.768	1	1	0	0	0.16504	0.052281	0.31501	0.04206	0.033733	0.11892	0.17394	0.14603	0.11139	0.27254	0.50571	0.078319	0.32399	0.073434	0.23369	0.096742	-0.39167	0.05	-0.23125	-0.71875	0.18333	-0.5	-0.65	-0.0041667	-0.85833	-0.058333	-0.4125	-0.9375	-0.064583	-0.76667	-0.46042	-0.23125	204.695	-7.441	234.927	-102.555	178.743	101.695	222.785	189.608	209.239	153.578	126.823	27.036	113.753	-75.109	169.990	132.707	0.00028761	0.0019466	0.00029622	402.77	1.1813e-05	2.3427e-05	556.45	126.51	4.9789e-06	1.2998e-05	226.59	88.989	41.863	19.822	4.7336e-06	45.95	0.002768	0.0032775	0.00084284	630.29	3.161e-05	3.5518e-05	801.8	186.91	3.204e-05	3.5357e-05	328	124.58	86.594	31.882	3.1949e-05	60.536	194.644	61.141	5.775	-91.691	199.105	-1.399	-91.463	-86.158	245.359	18.769	-86.712	-82.126	-81.702	-77.365	236.760	-78.084	-8191	255	
3898.864	1	1	0	0	0.23448	0.077383	0.26576	0.12626	0.14402	0.33177	0.064315	0.33094	0.063473	0.22298	0.17037	0.092108	0.21298	0.24113	0.15232	0.1737	-0.41667	-0.25	-0.1625	-0.87708	-0.083333	-0.54792	-0.66667	-0.14583	-0.97292	-0.35	-0.41042	-1.0729	-0.22083	-0.8	-0.7375	-0.072917	183.824	211.870	-98.986	1.701	140.010	24.962	220.206	185.704	46.810	121.012	92.441	245.254	247.268	-14.542	-49.935	143.325	0.00034057	0.0013688	0.00025872	403.5	5.9681e-06	1.5901e-05	558.52	126.03	2.915e-06	1.2486e-05	225.99	88.485	41.741	19.964	1.1513e-05	46.157	0.0028908	0.0032043	0.00080403	625.87	3.3148e-05	3.4536e-05	795.63	185.58	3.3607e-05	3.4088e-05	325.49	124.08	88.605	31.481	3.1025e-05	60.536	213.190	4.020	-64.753	-91.538	222.623	53.398	-91.426	-85.629	-84.372	62.516	-86.455	-82.025	-82.480	-77.729	-2.200	-78.118	-8191	255	
3898.960	1	1	0	0	0.16187	0.12509	0.090716	0.083573	0.18169	0.11881	0.067194	0.061259	0.21269	0.011554	0.25286	0.016779	0.32461	0.19416	0.15876	0.091753	-0.47917	-0.225	-0.15625	-0.89167	-0.10208	-0.54167	-0.78333	0.14583	-0.77708	-0.29583	-0.083333	-0.70833	-0.058333	-0.33542	-0.60833	-0.3625	138.888	115.090	207.405	204.252	-10.217	8.980	161.937	-68.673	145.742	215.496	214.088	-39.696	188.026	195.408	245.482	159.946	0.00031638	0.0018912	0.00026078	400.24	7.8653e-06	3.7633e-05	559.46	125.56	8.3717e-06	1.3964e-05	227.59	88.897	41.968	20	9.057e-06	46.122	0.0029846	0.0030632	0.00077534	623.83	3.3948e-05	3.2369e-05	786.49	185.8	3.3438e-05	3.1645e-05	319.21	124.02	87.642	30.496	2.8876e-05	60.426	190.976	-26.862	-90.810	-91.689	183.966	-14.343	-91.403	-85.933	168.192	10.809	-86.641	-81.761	-82.225	-77.310	-36.627	-78.151	-8191	255	
3899.081	1	1	0	0	0.32214	0.25498	0.22732	0.13885	0.23979	0.051059	0.089784	0.18077	0.14495	0.13748	0.12086	0.18298	0.26866	0.15071	0.3389	0.36234	-0.30625	-0.43542	-0.2375	-0.98542	-0.16458	-0.30625	-1.0083	-0.020833	-0.52083	-0.50417	0.075	-0.81458	-0.125	-0.39792	-0.80417	-0.26458	203.339	149.052	186.938	56.980	210.225	-17.939	-49.926	157.729	121.813	103.879	86.744	85.759	140.925	242.481	208.390	158.250	0.00019149	0.0015839	0.0003744	401.21	3.911e-06	1.1939e-05	560.76	125.66	1.1079e-05	4.32e-06	225.64	87.951	42.039	19.839	1.4025e-05	45.983	0.0028683	0.0027677	0.00071167	621.41	3.2138e-05	2.9256e-05	767.76	184.68	3.1197e-05	2.8905e-05	311.63	123.33	84.519	29.575	2.6988e-05	60.26	241.026	-73.528	-73.764	-91.687	-43.033	6.010	-91.578	-86.417	-3.430	0.985	-86.700	-81.935	-82.109	-77.342	-22.658	-78.157	-8191	255	
3899.177	1	1	0	0	0.085728	0.19464	0.25374	0.20974	0.19562	0.29675	0.016649	0.11803	0.32638	0.18744	0.2681	0.15932	0.092331	0.26371	0.15425	0.17973	-0.31667	-0.66042	-0.020833	-1.0146	-0.34375	-0.2125	-0.94583	-0.09375	-0.56042	-0.63333	-0.077083	-0.92708	-0.46875	-0.18333	-0.875	-0.14792	-61.193	116.033	252.833	210.353	-8.901	96.740	52.992	152.394	246.304	172.596	200.338	254.920	167.184	167.235	157.143	72.363	7.8672e-05	0.0010673	0.00014293	401.41	1.522e-05	1.1168e-05	557.39	125.38	1.1612e-05	5.6549e-06	225.56	88.137	42.123	19.638	6.0068e-06	45.81	0.002678	0.0026027	0.00067929	623.05	3.0574e-05	2.8016e-05	762.14	187.11	3.0263e-05	2.8325e-05	311.83	124.65	83.332	29.232	2.7107e-05	60.59	-94.950	-30.538	122.371	-91.700	34.431	28.839	-91.567	-85.895	-0.054	23.271	-86.809	-82.065	-82.427	-77.419	83.021	-77.984	-8191	255	
3899.249	1	1	0	0	0.094105	0.031733	0.26824	0.28945	0.24284	0.20748	0.11194	0.10286	0.17916	0.18915	0.079073	0.22126	0.098249	0.15318	0.22206	0.35795	-0.11042	-0.54583	0.15	-0.77083	-0.35	-0.32083	-0.93333	-0.31458	-0.475	-0.69583	0.06875	-0.82917	-0.47917	-0.2	-0.99167	-0.16667	87.483	-55.674	193.494	-53.214	-52.076	246.907	93.360	88.739	-73.040	195.606	241.474	110.699	155.671	196.405	201.597	183.154	6.522e-05	0.0008077	0.00012852	401.58	1.1112e-05	1.7683e-05	558.83	125.43	3.5796e-06	8.0915e-06	224.46	88.816	42.575	19.673	1.7732e-06	45.889	0.002558	0.0025155	0.00068591	624.95	2.8675e-05	2.6685e-05	761.62	186.05	2.8075e-05	2.6679e-05	312.65	124.04	80.472	28.827	2.7568e-05	60.608	226.815	91.010	-92.086	-91.173	57.204	-29.739	-91.500	-86.070	38.510	64.324	-86.649	-81.804	-82.277	-77.267	140.236	-78.288	-8191	255	
3899.345	1	1	0	0	0.010753	0.18814	0.24034	0.13339	0.14051	0.12507	0.16095	0.25035	0.23896	0.14956	0.16234	0.21449	0.32407	0.10981	0.13666	0.30945	-0.13958	-1.1063	-0.083333	-0.75833	-0.66875	0.14792	-0.94583	-0.14583	-0.24167	-0.8875	-0.125	-0.58958	-0.80417	-0.14583	-0.81875	-0.47917	58.406	191.408	121.450	113.174	49.054	216.972	103.170	169.125	-58.897	-93.844	-92.346	206.306	-68.794	229.560	116.452	225.521	7.8027e-05	0.00074257	0.00037221	404.28	1.8993e-06	1.3144e-05	557.94	126.9	3.01e-06	3.3238e-06	226.38	89.427	42.427	19.702	1.4613e-05	46.118	0.0024469	0.0024485	0.00071562	625.95	2.7988e-05	2.6418e-05	777.01	187.24	2.7898e-05	2.7105e-05	320.59	124.96	81.28	29.183	3.0206e-05	60.837	248.490	61.863	152.435	-91.752	168.572	-58.630	-91.793	-85.901	3.321	-19.090	-87.056	-81.583	-82.302	-77.368	207.169	-78.029	-8191	255	
3899.465	1	1	0	0	0.05336	0.51242	0.07317	0.31422	0.22354	0.094976	0.17315	0.50623	0.16727	0.033307	0.049676	0.10312	0.2755	0.12349	0.16675	0.12035	-0.039583	-0.95833	-0.091667	-0.46875	-0.54792	-0.2375	-0.79375	-0.3875	-0.10208	-0.88958	-0.36458	-0.54375	-0.83542	-0.11458	-0.89375	-0.48542	29.141	194.224	201.748	202.856	221.424	192.550	253.463	187.807	78.058	-20.831	-31.266	214.622	184.675	193.895	-68.206	232.963	0.00027715	0.00064251	2.1636e-05	402.02	6.3325e-06	7.1154e-06	557.54	125.6	2.638e-06	8.8095e-06	222.63	87.923	41.773	19.428	3.6888e-06	44.814	0.0025042	0.0025399	0.00077938	626.76	2.844e-05	2.7449e-05	786.14	185.27	2.7513e-05	2.7277e-05	320.01	121.65	78.72	28.664	2.9181e-05	58.634	-98.470	86.450	132.741	-91.806	71.386	98.228	-91.604	-86.061	150.415	225.097	-86.605	-81.899	-81.899	-77.446	73.955	-78.004	-8191	255	
3899.562	1	1	0	0	0.32116	0.027388	0.23148	0.24039	0.05284	0.28765	0.2272	0.13693	0.19471	0.1092	0.12456	0.21802	0.17673	0.18694	0.22342	0.11678	0.24375	-0.74375	-0.022917	-0.38958	-0.63542	0.041667	-0.80417	-0.6	-0.054167	-0.95417	-0.33958	-0.50417	-0.84792	-0.15	-0.775	-0.85833	135.562	193.777	33.691	223.319	181.471	79.557	-21.598	-74.128	249.647	229.591	-44.360	246.768	118.362	80.922	90.776	179.206	0.00022987	0.0005103	0.00020244	399.17	3.9259e-06	1.6311e-05	557.91	124.99	4.7204e-06	4.6485e-06	224.65	87.638	41.549	19.388	1.0374e-05	45.387	0.0022922	0.0024473	0.00075393	605.71	2.6799e-05	2.7484e-05	785.39	182.79	2.6897e-05	2.8611e-05	322.34	121.33	78.652	29.404	3.0346e-05	59.015	-98.721	173.398	-90.546	-91.656	46.112	205.241	-91.260	-86.256	88.916	114.570	-86.943	-81.820	-82.066	-77.794	16.429	-78.239	-8191	255	
3899.658	1	1	0	0	0.065918	0.20448	0.2027	0.28377	0.30744	0.18897	0.12732	0.16738	0.1185	0.4107	0.19635	0.13722	0.014471	0.20661	0.31599	0.054968	0.3875	-0.95417	-0.25417	-0.54792	-0.86042	-0.15625	-0.87083	-0.53958	0.00625	-0.94583	-0.32708	-0.15833	-0.89583	-0.17292	-0.32083	-0.8875	154.942	-0.985	250.960	71.652	0.898	-41.977	206.982	-78.377	38.499	22.963	211.554	125.554	-96.797	211.768	242.870	-14.411	0.00027055	0.0011095	0.00030144	400.47	2.2156e-06	3.219e-05	556.82	124.95	2.9743e-06	2.6166e-06	225.14	87.945	41.673	19.591	2.1796e-05	45.567	0.0023467	0.0026954	0.0007846	608.82	2.7376e-05	3.0358e-05	787.86	182.57	2.7371e-05	3.0952e-05	323.66	121.92	79.764	30.416	3.0483e-05	59.375	-93.600	168.456	-102.522	-91.544	90.923	174.118	-91.383	-85.969	35.504	181.141	-86.788	-81.943	-82.586	-77.619	22.335	-78.191	-8191	255	
3899.777	1	1	0	0	0.23757	0.17975	0.14468	0.54883	0.13177	0.28476	0.23727	0.080081	0.24187	0.09733	0.11388	0.25198	0.094694	0.23281	0.11854	0.31206	0.08125	-0.70833	-0.42917	-0.075	-0.65	0.077083	-0.44167	-0.69375	0.15625	-0.68958	-0.49583	0.00625	-0.57708	0.0083333	-0.47708	-0.66458	-1.150	48.076	-102.219	194.891	85.863	29.318	-89.551	73.357	254.669	230.073	219.148	153.781	148.391	-87.769	81.092	-97.866	0.0002101	0.00043719	0.00053494	402.05	3.0318e-06	2.5559e-05	560.47	125.56	7.3509e-06	7.2144e-06	225	88.614	41.758	19.734	1.1347e-05	45.496	0.0024359	0.0029191	0.00078383	610.13	2.8464e-05	3.243e-05	787.93	183.85	2.8969e-05	3.3131e-05	324.66	122.75	83.381	31.373	3.1453e-05	59.998	209.198	138.938	-63.792	-91.565	180.689	135.550	-91.384	-86.149	212.448	107.558	-86.474	-81.969	-81.943	-77.512	34.300	-77.856	-8191	255	
3899.848	1	1	0	0	0.12364	0.049715	0.055996	0.09753	0.076821	0.14517	0.030981	0.2396	0.11495	0.11701	0.30197	0.27452	0.17159	0.0041214	0.2511	0.21658	0.27917	-0.81458	-0.39792	-0.091667	-0.91042	-0.039583	-0.3625	-1.0771	-0.060417	-0.65	-0.51667	0.1375	-0.70417	-0.27292	-0.12917	-0.99375	-39.063	148.257	253.313	-9.978	-15.547	189.141	154.766	247.099	175.578	233.427	95.079	238.312	243.460	-37.905	229.998	251.508	0.00037767	0.00053683	0.00024256	401.26	6.2927e-06	2.5476e-05	556.1	124.62	9.7701e-06	1.013e-05	224.18	87.218	41.585	19.444	5.1095e-06	45.14	0.0027423	0.0032215	0.00082358	624.24	3.2844e-05	3.5807e-05	799.25	187.25	3.3505e-05	3.5846e-05	328.7	123.81	88.881	31.774	3.2631e-05	60.226	204.954	-77.504	-28.343	-91.049	188.409	24.716	-91.243	-85.743	-83.246	1.065	-86.612	-81.844	-82.118	-77.670	-76.239	-78.210	-8191	255	
3899.944	1	1	0	0	0.1169	0.063778	0.06032	0.11314	0.36334	0.26334	0.28729	0.36914	0.21051	0.14648	0.10819	0.15497	0.1947	0.17627	0.15272	0.19106	0.091667	-0.49583	-0.73542	-0.325	-0.69375	-0.59375	-0.38333	-0.90625	-0.17292	-0.63125	-0.99583	-0.13542	-0.75833	-0.47292	-0.14583	-1.1021	-68.899	78.288	40.512	19.042	24.847	3.407	203.311	-33.021	86.270	-35.817	162.450	254.832	178.077	190.049	203.010	-98.848	0.00039615	0.00086773	0.00031071	395.44	8.8202e-06	1.3948e-05	554.26	124.26	3.9518e-06	1.1346e-05	224.55	87.308	42.013	19.449	4.1128e-06	44.98	0.0030687	0.0032752	0.0008351	627.13	3.544e-05	3.5384e-05	793.83	187.35	3.5563e-05	3.4769e-05	326.06	124.49	90.634	31.236	3.1419e-05	60.414	219.216	-33.758	-15.317	-91.855	-102.804	26.633	-91.292	-86.092	224.148	128.757	-86.971	-81.746	-82.088	-77.445	-22.410	-78.120	-8191	255	
3900.065	1	1	0	0	0.37723	0.25544	0.12319	0.13075	0.16223	0.098602	0.26951	0.018279	0.15712	0.15699	0.34057	0.17149	0.18001	0.30336	0.20678	0.29613	0.24167	-0.4125	-0.57292	-0.020833	-0.975	-0.51042	-0.091667	-1.0042	-0.26875	-0.18333	-0.94583	-0.11875	-0.85208	-0.59583	0.0020833	-1.1229	-20.206	-0.139	89.546	141.152	240.761	-16.799	241.331	-55.603	-58.951	-10.366	185.583	225.507	153.532	101.125	196.713	133.672	0.00034271	0.0013525	0.00021031	394.33	1.2714e-06	1.9088e-05	555.11	123.93	7.3043e-06	5.1205e-06	224.49	87.249	41.58	19.576	9.8343e-06	45.438	0.0031307	0.003092	0.00079816	628.32	3.5485e-05	3.3221e-05	783.49	188.14	3.4783e-05	3.2063e-05	320.33	124.46	88.835	30.404	2.9076e-05	60.657	189.674	35.539	-28.176	-91.479	45.909	-33.281	-91.386	-85.921	83.386	-0.192	-86.735	-82.068	-81.904	-77.420	24.075	-78.122	-8191	255	
3900.161	1	1	0	0	0.085488	0.1459	0.23427	0.15337	0.14702	0.12329	0.071786	0.41761	0.23421	0.12352	0.29464	0.0040376	0.14149	0.2156	0.31979	0.28308	0.035417	-0.52917	-0.63542	-0.079167	-0.625	-0.45208	-0.060417	-0.82917	-0.32292	-0.29792	-1.0667	-0.23958	-0.7625	-0.8375	0.19792	-0.75208	85.402	188.844	-100.952	150.927	115.981	111.725	-4.772	181.353	67.794	149.211	131.814	236.110	68.509	250.881	81.310	197.517	0.00015849	0.0010418	0.00039157	398.02	6.0924e-06	2.8785e-06	558.07	124.4	1.5358e-05	7.0796e-06	224.66	88.114	42.542	19.376	6.5923e-06	45.449	0.0029439	0.0028055	0.00073954	629.78	3.3236e-05	3.0764e-05	772.09	189.22	3.3194e-05	3.0345e-05	317.64	126.39	87.108	30.036	2.8754e-05	61.216	199.812	-42.649	15.098	-91.216	17.378	-83.866	-91.354	-86.019	74.402	26.786	-86.733	-81.765	-82.020	-77.598	-36.070	-78.273	-8191	255	
3900.257	1	1	0	0	0.15892	0.28483	0.27253	0.11122	0.21088	0.062057	0.11657	0.10328	0.19406	0.086034	0.14957	0.18062	0.24563	0.20351	0.22092	0.21002	0.12917	0.020833	-0.83333	0.09375	-0.44583	-0.79167	-0.033333	-0.97083	-0.45833	-0.15417	-0.97292	-0.1875	-0.46042	-1.0042	0.14167	-0.6625	94.488	-93.699	-23.588	181.308	-8.551	128.441	-95.052	249.388	171.468	-85.282	214.298	229.270	3.655	-101.612	159.386	51.198	0.000121	0.00069294	9.2105e-05	397.14	7.2367e-06	1.5996e-05	551.69	124.37	7.6824e-06	1.5867e-05	221.77	87.564	41.406	19.256	1.6737e-05	44.996	0.0028504	0.0027468	0.00074122	637.19	3.1767e-05	2.9762e-05	765.95	189.59	3.1408e-05	2.913e-05	315.91	126.1	84.385	29.531	2.9401e-05	61.179	-76.647	5.322	227.493	-91.455	118.250	61.132	-91.522	-86.014	62.545	81.124	-86.593	-81.818	-81.877	-77.452	226.859	-78.184	-8191	255	
3900.378	1	1	0	0	0.31597	0.11535	0.065794	0.29325	0.077984	0.18176	0.16919	0.032774	0.055791	0.055778	0.34055	0.22916	0.20074	0.14276	0.21978	0.23991	0.175	0.045833	-0.55625	-0.15	-0.22917	-0.65417	0.14792	-0.75833	-0.32917	0.016667	-0.70625	-0.29375	-0.17083	-0.62708	-0.0083333	-0.70833	221.416	-36.691	-55.340	183.063	18.652	178.977	239.937	218.722	86.588	-27.333	185.644	4.874	253.630	132.576	220.268	221.702	0.00017561	0.001513	0.00061951	398.74	5.1149e-06	1.543e-05	550.5	123.53	6.8216e-06	2.396e-06	221.72	87.657	42.329	19.281	2.2876e-05	45.036	0.0027668	0.0027018	0.00077835	645.9	3.1378e-05	2.9863e-05	782.25	191.43	3.1359e-05	2.9334e-05	321.85	126.55	83.62	29.432	3.1058e-05	60.876	233.890	-27.579	140.407	-91.315	31.744	34.625	-91.592	-86.159	-28.554	35.386	-86.575	-82.206	-81.949	-77.282	221.558	-77.837	-8191	255	
3900.474	1	1	0	0	0.2247	0.22017	0.15116	0.2107	0.30768	0.065032	0.17845	0.035657	0.032183	0.15697	0.19378	0.12106	0.21778	0.17002	0.23456	0.23926	-0.066667	-0.05	-0.575	-0.24167	-0.26667	-0.75833	-0.3125	-0.6125	-0.74792	0.05	-0.87292	-0.25417	-0.14583	-0.75417	-0.05625	-0.40625	-90.094	111.082	49.466	190.918	243.375	239.480	77.104	104.140	-67.691	218.883	-15.243	237.777	-78.845	70.402	-92.082	209.392	0.00013271	0.00090604	0.00016306	394.85	5.7424e-06	3.8506e-06	548.42	124.03	6.9864e-06	3.7355e-06	223.12	87.384	41.844	19.371	1.0337e-05	45.484	0.0026677	0.0026256	0.00080549	635.12	2.9891e-05	2.8851e-05	787.68	188.33	2.9921e-05	2.8682e-05	325.68	125.19	81.973	29.4	3.202e-05	60.467	246.371	-21.597	234.258	-91.615	-6.078	14.077	-91.425	-85.506	-2.547	216.375	-86.384	-81.891	-81.938	-77.718	174.503	-77.807	-8191	255	
3900.546	1	1	0	0	0.24576	0.10662	0.016324	0.26251	0.19129	0.19887	0.116	0.20583	0.1988	0.18174	0.077284	0.24621	0.074165	0.20772	0.10123	0.19866	-0.30833	-0.016667	-0.67708	-0.50625	-0.28333	-0.74375	-0.24792	-0.57083	-0.68958	-0.1375	-0.96042	-0.63125	-0.15833	-1.0312	-0.2	-0.50833	68.356	-96.017	59.911	227.585	-58.134	207.617	-40.179	227.280	11.874	-101.697	-73.317	-75.868	13.544	-86.377	-71.280	227.771	0.00018903	0.00036071	0.00011946	396.98	9.2136e-06	1.6939e-05	549.38	124.14	5.3006e-06	8.0255e-06	222.78	87.586	41.492	19.19	7.3443e-06	44.868	0.0026032	0.00264	0.00082408	625.73	2.9189e-05	2.9374e-05	796.41	186.53	2.9525e-05	2.9536e-05	329.1	124.74	81.999	29.932	3.384e-05	60.172	-67.279	-20.305	131.975	-91.713	42.181	191.963	-91.414	-85.981	20.620	252.083	-86.619	-81.962	-82.473	-77.541	193.158	-78.031	-8191	255	
3900.665	1	1	0	0	0.19113	0.087144	0.18732	0.10741	0.1587	0.10546	0.1779	0.046017	0.20544	0.090321	0.30151	0.037544	0.10175	0.13894	0.059949	0.060129	-0.56458	-0.1125	-0.81667	-0.56458	-0.15208	-0.88333	-0.32083	-0.32708	-0.64792	-0.035417	-0.875	-0.56042	-0.13333	-1.0646	-0.25833	-0.31458	152.253	-93.824	-6.967	196.539	144.469	-63.310	85.803	238.102	176.325	-16.779	-31.604	148.533	-18.137	2.195	100.133	205.508	0.00024319	0.001685	0.00029446	394.27	3.4432e-06	2.7045e-05	548.64	122.81	6.4575e-06	1.2041e-05	222.17	86.812	41.234	19.114	7.9434e-06	44.882	0.002661	0.0028943	0.00087906	629.32	3.0103e-05	3.2497e-05	807.41	186.61	3.0377e-05	3.2748e-05	331.51	124.12	82.253	30.645	3.4023e-05	59.829	243.604	141.136	-83.629	-91.607	-61.114	193.348	-91.721	-85.868	126.862	207.485	-86.660	-81.955	-81.909	-77.135	56.921	-78.224	-8191	255	
3900.761	1	1	0	0	0.15596	0.13646	0.052475	0.086767	0.10953	0.14283	0.18504	0.19576	0.25932	0.22014	0.079069	0.13345	0.035545	0.039088	0.17263	0.35912	-0.39583	0.027083	-0.325	-0.49583	-0.022917	-0.85208	-0.4875	-0.30625	-0.89167	-0.16667	-0.5375	-0.77292	-0.064583	-0.91458	-0.52917	-0.29375	-73.326	210.214	1.584	231.405	-72.389	-90.846	-74.960	33.392	180.330	71.564	-72.770	-8.956	227.333	-14.336	194.740	172.989	0.0002061	0.0017078	0.00023551	392.34	2.9634e-06	2.5978e-05	549.1	123.74	1.0377e-05	5.2738e-06	223.9	87.338	41.068	19.108	1.1943e-05	44.902	0.0026633	0.0031052	0.00086685	626.82	3.0449e-05	3.4572e-05	805.62	186.34	3.1002e-05	3.5158e-05	331.11	124.49	84.119	31.611	3.3827e-05	60.149	181.809	127.402	-59.123	-91.535	89.420	127.808	-91.714	-86.017	234.998	155.235	-86.721	-81.932	-81.889	-77.294	21.211	-77.994	-8191	255	
3900.857	1	1	0	0	0.12247	0.094853	0.22081	0.29354	0.13803	0.060863	0.20428	0.38825	0.18365	0.10667	0.14086	0.25466	0.11895	0.30908	0.16671	0.23179	-0.43125	-0.12292	-0.44375	-0.6125	0.041667	-0.70417	-0.50208	-0.1125	-0.65833	-0.022917	-0.3	-0.52917	0.041667	-0.62917	-0.3625	-0.20208	-37.369	-55.469	63.494	208.958	138.919	28.237	151.309	52.285	12.729	227.393	-71.814	198.668	159.387	1.985	246.739	238.589	0.00032481	0.00066478	0.00041215	399.16	1.4563e-05	9.7219e-06	558.5	123.91	7.4617e-06	6.5503e-06	223.76	87.89	41.058	19.431	5.2718e-06	45.229	0.0028031	0.0033216	0.00085525	627.58	3.1729e-05	3.5752e-05	801.29	185.07	3.1554e-05	3.5042e-05	325.52	123.15	85.052	31.352	3.1229e-05	59.692	213.949	162.927	-53.953	-91.936	249.159	206.605	-91.435	-85.790	185.247	22.106	-86.253	-81.728	-82.444	-77.855	99.506	-78.019	-8191	255	
3900.953	1	1	0	0	0.19391	0.20545	0.27427	0.22605	0.11754	0.1677	0.42572	0.21142	0.19097	0.045415	0.057317	0.17444	0.18836	0.15511	0.32953	0.17084	-0.43125	-0.17083	-0.32292	-0.82708	-0.052083	-0.59583	-0.66875	-0.33542	-0.9625	-0.066667	-0.27708	-0.9875	-0.079167	-0.55	-1.0458	-0.13125	-93.714	12.427	31.727	95.675	108.208	36.308	127.937	255.225	180.804	-76.970	208.452	-74.956	-74.945	-92.603	54.899	-69.229	0.0003264	0.00057999	0.00039887	401.13	8.8433e-06	2.0423e-05	556.83	123.47	9.5515e-06	8.4299e-06	223.17	87.021	41.007	19.417	7.7703e-06	45.06	0.0028317	0.0031816	0.00079936	619.69	3.2804e-05	3.4324e-05	789.6	183.07	3.3026e-05	3.3778e-05	320.45	122.04	87.102	30.815	3.0339e-05	59.057	194.751	0.556	-69.287	-91.453	203.950	-11.532	-91.141	-85.912	211.227	72.492	-86.676	-81.975	-82.301	-77.227	81.456	-78.565	-8191	255	
3901.049	1	1	0	0	0.20875	0.03682	0.18264	0.41167	0.20194	0.36191	0.015223	0.24834	0.062817	0.079269	0.12108	0.22942	0.16434	0.078898	0.16687	0.32684	-0.68333	-0.34167	-0.05625	-0.84375	-0.022917	-0.55208	-0.84792	-0.095833	-0.86458	-0.42083	-0.08125	-1.0146	-0.16042	-0.475	-0.48958	-0.025	-100.495	196.542	-9.609	186.831	97.788	57.763	181.492	250.769	-39.571	104.311	-3.625	-51.431	88.076	-88.181	-86.337	-91.913	0.00028377	0.0014177	0.00029278	396.28	5.0363e-06	1.069e-05	555.29	122.33	9.5854e-06	1.6559e-05	222.32	86.65	40.93	19.162	1.1766e-05	44.792	0.0029438	0.003034	0.00077055	615.74	3.4055e-05	3.2828e-05	782.57	182.93	3.4534e-05	3.2978e-05	319.11	123.33	89.439	30.435	3.0354e-05	59.708	189.715	-7.190	-42.460	-92.045	242.889	-8.598	-91.139	-86.150	221.987	56.864	-86.670	-82.053	-81.964	-77.385	-37.619	-78.375	-8191	255	
3901.145	1	1	0	0	0.33659	0.15877	0.26793	0.087511	0.15139	0.23326	0.26919	0.09714	0.35324	0.15892	0.52205	0.098878	0.18284	0.106	0.063651	0.062599	-0.44792	-0.67292	-0.00625	-0.85625	-0.15	-0.34167	-0.97917	-0.125	-0.7375	-0.69375	-0.3125	-1.0646	-0.25417	-0.24583	-0.81458	-0.11458	-69.053	145.579	193.318	182.459	197.322	253.492	-103.423	178.232	114.036	-38.274	-72.652	49.582	-65.785	96.463	241.104	174.470	0.00025259	0.002141	0.00033187	395.8	6.7908e-06	3.9481e-06	552.81	122.98	9.9732e-06	1.2408e-05	221.72	86.454	41.236	19.197	8.0618e-06	44.794	0.0030772	0.0029695	0.00076344	628.87	3.4631e-05	3.1531e-05	776.51	186.54	3.4218e-05	3.1459e-05	315.32	124.82	88.222	30.011	2.9529e-05	60.664	208.474	-28.084	-42.209	-91.831	79.168	80.809	-91.589	-86.234	28.017	46.729	-86.653	-81.950	-82.161	-77.518	70.445	-78.023	-8191	255	
3901.242	1	1	0	0	0.1162	0.27167	0.36684	0.17646	0.12125	0.051469	0.19448	0.20173	0.073509	0.058676	0.12071	0.034693	0.30246	0.16973	0.12549	0.15591	-0.047917	-0.45208	0.06875	-0.79792	-0.11875	-0.20208	-0.89583	-0.18333	-0.81875	-0.78958	-0.014583	-1.0917	-0.2625	-0.0125	-0.66667	-0.12292	190.769	18.786	23.090	28.870	44.424	-52.609	158.731	219.340	12.367	53.145	205.745	189.484	228.002	218.686	252.208	167.935	0.00010311	0.0007531	6.2358e-05	395.63	1.1911e-05	1.7703e-05	556.63	121.87	7.4481e-06	3.2605e-06	223.79	86.708	41.044	19.192	1.0623e-05	44.865	0.0029769	0.0028704	0.00074817	639.55	3.3682e-05	3.0805e-05	775.99	189.68	3.3275e-05	3.0924e-05	317.1	127.03	86.589	29.808	2.9894e-05	61.487	233.609	190.095	243.921	-91.862	61.519	16.302	-91.455	-86.203	25.958	-42.942	-86.769	-81.920	-82.759	-77.493	-75.442	-77.992	-8191	255	
3901.338	1	1	0	0	0.052337	0.12447	0.17979	0.13302	0.087082	0.21981	0.31103	0.25108	0.31777	0.04497	0.14664	0.13127	0.23296	0.036808	0.12704	0.1474	-0.21458	-0.69375	0.058333	-0.76667	-0.11875	-0.13542	-0.8875	-0.19167	-0.35833	-0.90417	-0.175	-0.80625	-0.71667	-0.14375	-0.83958	-0.50208	-3.810	-43.191	64.554	24.393	-32.789	-80.414	193.948	-31.559	159.890	-80.515	237.033	124.302	11.241	156.774	11.590	206.465	0.00012516	0.00046433	2.8863e-05	398.27	1.2669e-05	2.4238e-05	552.96	122.16	3.5213e-06	2.1558e-06	219.89	86.508	41.253	18.941	1.4869e-05	44.521	0.0029117	0.0028461	0.00077579	652.35	3.3235e-05	3.0838e-05	785.65	192.08	3.2417e-05	3.0737e-05	320.16	127.47	85.499	29.461	3.1858e-05	61.423	-99.439	243.590	101.052	-91.636	68.353	9.515	-91.524	-86.131	-51.233	25.596	-86.455	-81.794	-81.384	-77.422	207.381	-78.316	-8191	255	
3901.458	1	1	0	0	0.12242	0.15644	0.20564	0.11721	0.13527	0.2698	0.03247	0.2225	0.18579	0.096794	0.17128	0.16442	0.33088	0.1425	0.19574	0.036786	-0.010417	-0.69375	0.09375	-0.71042	-0.62708	-0.0625	-0.7375	-0.14375	-0.11042	-0.89167	-0.11042	-0.6625	-0.6	-0.19583	-1.0812	-0.575	35.883	-77.446	-59.649	63.929	83.773	-55.262	-47.533	224.628	-61.713	51.809	200.595	-31.103	158.305	21.788	163.823	-85.142	0.00013259	0.00052037	0.00056343	397.5	1.3796e-06	8.7887e-06	548.98	121.53	2.0529e-06	7.6047e-06	219.67	86.752	41.01	18.886	1.497e-05	44.307	0.0028391	0.0028233	0.00082625	653.79	3.2601e-05	3.059e-05	802.11	192.64	3.2335e-05	3.1349e-05	329.58	128.18	86.349	29.743	3.5227e-05	61.633	156.137	-49.801	131.806	-91.481	148.475	22.078	-91.626	-86.137	34.971	36.924	-87.026	-81.805	-82.170	-77.502	204.720	-78.022	-8191	255	
3901.553	1	1	0	0	0.19491	0.15144	0.065297	0.29382	0.27935	0.093241	0.1521	0.11859	0.21304	0.11304	0.19733	0.34434	0.16419	0.12851	0.11702	0.17766	0.0875	-0.92292	-0.033333	-0.39167	-0.64167	0.15417	-0.9375	-0.10625	-0.0625	-0.8375	-0.22083	-0.56042	-0.6625	0.0125	-0.70833	-0.49583	111.260	-81.218	82.770	174.907	208.739	209.639	219.667	237.729	247.532	-82.122	184.036	-49.390	-3.136	-83.734	161.815	105.508	0.00017143	0.00074457	0.0002284	397.79	2.0016e-06	4.0214e-06	560.63	123.46	6.5147e-06	9.5594e-06	223.35	86.684	41.186	19.149	8.8418e-06	44.867	0.0028923	0.0029346	0.00090847	656.69	3.3073e-05	3.1273e-05	826.29	192.48	3.1848e-05	3.1516e-05	335.58	126.25	84.216	29.837	3.503e-05	60.878	250.088	153.091	121.902	-91.603	62.839	75.253	-91.256	-85.862	46.722	201.011	-86.223	-81.743	-81.843	-77.195	183.609	-77.947	-8191	255	
3901.649	1	1	0	0	0.13163	0.11232	0.082367	0.23646	0.23368	0.087769	0.30916	0.1812	0.32569	0.2622	0.20009	0.1335	0.21664	0.18818	0.12129	0.063605	0.10833	-0.8125	-0.11042	-0.41458	-0.76667	-0.12083	-0.68542	-0.35	-0.0083333	-0.73125	-0.33333	-0.51875	-0.90833	-0.04375	-0.5375	-0.625	-6.009	-97.208	-99.713	-38.720	81.206	-29.272	212.714	206.847	17.688	32.196	222.968	157.843	4.765	-49.963	19.599	166.152	0.00021755	0.00097773	0.00041907	398.98	4.3201e-06	1.6953e-05	566.15	125.4	1.3135e-05	1.4195e-05	229.33	88.923	41.332	19.266	1.3688e-05	45.864	0.002699	0.0028752	0.00089207	634.88	3.0657e-05	3.1211e-05	826.83	189.76	2.9457e-05	3.1269e-05	336.93	125.01	81.565	30.171	3.2949e-05	60.464	232.326	162.884	53.720	-91.209	-6.784	225.700	-91.022	-85.955	46.369	199.840	-86.592	-81.477	-81.839	-77.663	16.777	-78.416	-8191	255	
3901.747	1	1	0	0	0.17612	0.022693	0.047537	0.17016	0.24061	0.091362	0.37878	0.2794	0.12464	0.13423	0.11464	0.35481	0.23908	0.21901	0.010245	0.273	0.33125	-1	-0.19792	-0.1625	-0.86875	0.23542	-0.70625	-0.68125	0.097917	-0.80625	-0.40833	-0.17708	-1	-0.066667	-0.59792	-0.78125	-10.098	193.042	-6.226	-100.077	179.890	228.950	150.054	203.236	91.761	139.728	187.352	-45.630	-52.968	150.557	-0.517	179.586	0.00016623	0.0012719	0.00028399	389.49	2.2227e-06	1.4558e-05	568.49	127.59	4.2815e-06	9.0577e-06	231.44	91.677	41.853	18.735	1.0662e-05	43.736	0.002498	0.0028401	0.00081935	602.83	2.763e-05	3.0354e-05	800.05	185.57	2.6826e-05	3.0327e-05	328.69	124.53	78.742	29.308	2.9595e-05	56.893	240.795	170.095	-20.432	-91.517	-100.899	139.676	-91.024	-85.391	45.085	224.453	-86.043	-81.386	-81.806	-77.522	-3.449	-78.159	-8191	255	
3901.841	1	1	0	0	0.23091	0.13469	0.066407	0.016143	0.089032	0.19635	0.14327	0.055677	0.096873	0.27123	0.15476	0.29613	0.12564	0.14508	0.072944	0.2082	0.12708	-0.84167	-0.20833	-0.10833	-0.67292	0.1	-0.55	-0.71667	0.1	-0.89583	-0.40625	-0.26875	-0.82083	-0.16667	-0.375	-1.0562	120.772	-8.911	233.514	113.050	-95.586	-37.637	110.876	159.733	-36.162	12.412	31.880	172.124	43.672	34.126	171.621	74.078	0.00022982	0.00033072	0.00022921	365.53	9.3295e-06	1.3469e-05	536.55	118.26	1.054e-05	9.5224e-06	221.48	87.5	39.875	17.59	1.7425e-05	41.322	0.0023193	0.0027841	0.00074736	562.75	2.6581e-05	3.0302e-05	750.46	172.3	2.6507e-05	3.0258e-05	311.18	118.96	76.796	27.999	2.7918e-05	53.965	215.791	209.016	-79.353	-91.527	178.359	124.795	-91.064	-85.773	208.781	51.679	-86.367	-81.573	-81.559	-77.371	40.111	-78.241	-8191	255	
3901.937	1	1	0	0	0.13983	0.17847	0.12344	0.10781	0.21258	0.08738	0.22207	0.26793	0.13221	0.090673	0.089799	0.21043	0.15213	0.13453	0.42903	0.33589	0.28542	-0.71458	-0.52708	0.20833	-0.74792	-0.21667	-0.33333	-0.71875	-0.0020833	-0.80417	-0.78958	-0.31458	-0.93333	-0.33125	-0.33125	-0.98333	165.888	8.752	165.962	-91.748	-48.984	218.971	-28.577	142.258	198.923	220.719	153.203	-90.427	4.093	57.192	-16.156	183.956	0.00030733	0.00059109	0.00035541	345.46	2.5895e-06	1.6561e-05	519.57	113.17	9.7931e-06	1.3161e-05	214.99	85.833	39.134	17.08	1.4184e-05	40.837	0.0023903	0.0028065	0.00071406	536.33	2.7798e-05	3.0702e-05	726.06	166.29	2.8336e-05	3.0767e-05	304.42	117.29	79.264	27.764	2.7714e-05	53.548	226.439	-68.653	9.071	-90.906	-63.111	31.753	-91.006	-85.512	243.637	36.827	-85.916	-81.485	-81.679	-77.864	55.463	-78.207	-8191	255	
3902.058	1	1	0	0	0.081972	0.073359	0.09193	0.08251	0.1142	0.21884	0.11489	0.27628	0.29553	0.34359	0.19836	0.19468	0.25782	0.075219	0.30186	0.073539	-0.0875	-0.61875	-0.52292	0.029167	-0.76667	-0.10417	-0.475	-0.88958	-0.14375	-0.74583	-0.7125	-0.29375	-0.89167	-0.43333	-0.097917	-1.0042	249.915	33.911	219.661	-28.681	20.931	-21.116	-74.275	56.051	56.928	65.547	195.636	-31.061	90.234	160.406	-0.332	-37.699	0.00027556	0.0011267	0.00029267	331.29	1.1414e-05	1.4312e-05	507.37	108.5	8.1752e-06	5.3573e-06	209.59	84.594	37.869	16.857	7.3722e-06	40.001	0.0025962	0.0028041	0.00071086	527.62	3.005e-05	3.0361e-05	713.28	162.57	3.0041e-05	2.9592e-05	297.86	116.06	80.276	26.965	2.6988e-05	52.926	217.055	-38.741	-14.033	-91.055	229.044	-8.218	-90.685	-85.630	244.680	10.731	-85.940	-81.597	-81.251	-77.485	-0.450	-78.236	-8191	255	
3902.154	1	1	0	0	0.16138	0.30094	0.19577	0.17608	0.085046	0.23774	0.27887	0.24324	0.072281	0.008015	0.4289	0.11965	0.23448	0.1038	0.11117	0.26156	0.054167	-0.31458	-0.58542	0.022917	-0.57292	-0.33333	-0.14583	-0.89792	-0.10833	-0.38125	-0.70625	0.05625	-0.64167	-0.47917	0.016667	-0.86667	111.209	58.997	207.225	245.916	-101.847	-31.920	99.927	-80.258	69.052	182.246	185.060	221.337	242.282	-99.126	-83.594	88.988	0.00025049	0.00085631	9.1489e-05	319.42	4.3159e-06	2.9458e-05	497.38	105.86	3.7936e-06	1.4582e-05	205.33	81.7	37.565	16.393	6.445e-06	38.81	0.0027172	0.0027079	0.00070613	524.04	3.1873e-05	3.035e-05	707.26	164.31	3.2917e-05	3.073e-05	297.11	117.84	83.869	27.195	2.9225e-05	54.058	211.957	-68.883	-98.551	-91.123	228.094	-34.685	-91.309	-85.765	-86.889	44.513	-85.943	-82.008	-80.934	-77.525	42.175	-78.196	-8191	255	
3902.250	1	1	0	0	0.092623	0.25259	0.22136	0.2841	0.15473	0.23946	0.21359	0.059907	0.096991	0.17934	0.1092	0.10267	0.10088	0.19354	0.21132	0.21437	0.26875	-0.10208	-0.77083	-0.00625	-0.51667	-0.5125	-0.13125	-0.99167	-0.21042	-0.36042	-1.0792	-0.1125	-0.55	-0.56458	0.24167	-0.87083	122.259	122.717	148.138	-0.757	-84.464	42.074	224.885	152.182	41.439	251.971	17.191	-69.260	-27.338	-89.483	-68.229	84.052	5.4594e-05	0.0011688	0.00042553	306.64	8.4675e-06	1.4465e-05	486.61	103.8	8.6314e-06	1.2784e-06	201	80.439	36.58	15.877	6.0897e-06	38.017	0.0030295	0.0028887	0.0007593	541.13	3.431e-05	3.1745e-05	705.84	169.74	3.4549e-05	3.1525e-05	295.8	119.99	83.544	26.82	2.9501e-05	54.278	189.515	-75.865	-47.342	-91.055	57.292	-6.827	-90.883	-85.605	23.474	109.761	-85.962	-82.060	-81.449	-78.048	227.475	-78.142	-8191	255	
3902.346	1	1	0	0	0.053514	0.16707	0.1899	0.15475	0.055417	0.072735	0.14983	0.16444	0.12043	0.06946	0.083083	0.16152	0.20961	0.29993	0.25972	0.16966	0.060417	-0.36875	-0.75417	-0.19167	-0.62292	-0.82917	-0.085417	-0.91875	-0.42708	-0.35208	-0.88333	-0.37292	-0.44375	-0.675	0.091667	-0.96667	252.324	182.687	-39.950	200.935	132.761	-29.545	158.156	153.564	91.546	0.662	184.589	-73.756	219.103	-8.226	170.562	215.644	5.1199e-05	0.0005901	0.00016902	287.99	7.3948e-06	1.262e-05	462.33	98.755	4.7913e-06	1.1171e-05	192.9	78.954	35.417	15.32	3.1801e-06	37.131	0.0029629	0.0028334	0.00075996	536.71	3.332e-05	3.1001e-05	683.28	166.6	3.3095e-05	3.0254e-05	290.26	119.05	79.421	25.771	2.976e-05	53.361	-81.810	-80.452	12.079	-90.874	22.320	21.449	-90.632	-85.274	80.344	-7.294	-85.883	-81.192	-81.579	-77.970	213.770	-77.996	-8191	255	
3902.443	1	1	0	0	0.25002	0.26685	0.083208	0.068711	0.1075	0.20728	0.18454	0.421	0.034552	0.032151	0.36035	0.20224	0.02522	0.11626	0.28747	0.1046	0.052083	-0.22292	-0.77708	-0.28958	-0.30625	-0.79375	0.125	-0.56458	-0.48542	0.039583	-0.975	-0.39583	-0.3625	-0.79375	-0.077083	-0.67083	192.079	213.103	24.201	245.477	-81.508	-12.627	9.751	168.646	126.958	227.414	-54.997	212.820	207.176	-75.942	-38.641	255.255	0.00019304	0.00060031	0.00053632	270.14	4.808e-06	2.1494e-05	438.62	91.08	8.2331e-06	1.4175e-05	189.7	77.296	34.918	15.22	2.4168e-05	36.305	0.0028247	0.002752	0.00078563	524.07	3.2089e-05	3.0521e-05	673.87	159.93	3.2363e-05	3.0195e-05	293.69	118.59	78.944	25.732	3.2986e-05	53.431	-26.576	13.666	173.137	-90.718	168.284	-36.980	-91.327	-85.257	18.478	25.105	-85.789	-81.345	-81.437	-77.515	210.249	-78.108	-8191	255	
#DATA ENDS
