BOXY.EXE: ISS Imagent and Oximeter Data Acquisition Program Version 0.80
Ascii Record File

#ACQ INFORMATION
2  Detector Channels 
16  External MUX Channels 
1  Auxiliary Channels 
5000  Waveform (CCF) Frequency (Hz)
1  Waveforms Skipped 
30  Waveforms Averaged 
1  Cycles Averaged 
16  Acquisitions per Waveform 
10.0806  Updata Rate (Hz) 

#FILE INFORMATION
TRUE -- External MUX Channel results are PARSED.
FALSE -- AC DC and Phase are NOT grouped.
TRUE -- Companion Program Settings File CREATED.
FALSE -- AC data not excluded
FALSE -- DC data not excluded
FALSE -- Phase data not excluded
FALSE -- Auxillary Chn. data not excluded
Tab delimiters

#CALIBRATION STATE
TRUE -- Waveform Calibration Values APPLIED.


#AUX CALIBRATION VALUES
Val Type	aux-1	

Term	1.0000e+00	
Factor	0.0000e+00	


#WF CALIBRATION VALUES
A = Detector Channel
Val Type	A-AC1	A-AC2	A-AC3	A-AC4	A-AC5	A-AC6	A-AC7	A-AC8	A-AC9	A-AC10	A-AC11	A-AC12	A-AC13	A-AC14	A-AC15	A-AC16	A-DC1	A-DC2	A-DC3	A-DC4	A-DC5	A-DC6	A-DC7	A-DC8	A-DC9	A-DC10	A-DC11	A-DC12	A-DC13	A-DC14	A-DC15	A-DC16	A-Ph1	A-Ph2	A-Ph3	A-Ph4	A-Ph5	A-Ph6	A-Ph7	A-Ph8	A-Ph9	A-Ph10	A-Ph11	A-Ph12	A-Ph13	A-Ph14	A-Ph15	A-Ph16	

Term	0.00000e+00	0.00000e+00	0.00000e+00	0.00000e+00	0.00000e+00	0.00000e+00	0.00000e+00	0.00000e+00	0.00000e+00	0.00000e+00	0.00000e+00	0.00000e+00	0.00000e+00	0.00000e+00	0.00000e+00	0.00000e+00	0.00000e+00	0.00000e+00	0.00000e+00	0.00000e+00	0.00000e+00	0.00000e+00	0.00000e+00	0.00000e+00	0.00000e+00	0.00000e+00	0.00000e+00	0.00000e+00	0.00000e+00	0.00000e+00	0.00000e+00	0.00000e+00	0.00000e+00	0.00000e+00	0.00000e+00	0.00000e+00	0.00000e+00	0.00000e+00	0.00000e+00	0.00000e+00	0.00000e+00	0.00000e+00	0.00000e+00	0.00000e+00	0.00000e+00	0.00000e+00	0.00000e+00	0.00000e+00	
Factor	1.00000e+00	1.00000e+00	1.00000e+00	1.00000e+00	1.00000e+00	1.00000e+00	1.00000e+00	1.00000e+00	1.00000e+00	1.00000e+00	1.00000e+00	1.00000e+00	1.00000e+00	1.00000e+00	1.00000e+00	1.00000e+00	1.00000e+00	1.00000e+00	1.00000e+00	1.00000e+00	1.00000e+00	1.00000e+00	1.00000e+00	1.00000e+00	1.00000e+00	1.00000e+00	1.00000e+00	1.00000e+00	1.00000e+00	1.00000e+00	1.00000e+00	1.00000e+00	X	X	X	X	X	X	X	X	X	X	X	X	X	X	X	X	

B = Detector Channel
Val Type	B-AC1	B-AC2	B-AC3	B-AC4	B-AC5	B-AC6	B-AC7	B-AC8	B-AC9	B-AC10	B-AC11	B-AC12	B-AC13	B-AC14	B-AC15	B-AC16	B-DC1	B-DC2	B-DC3	B-DC4	B-DC5	B-DC6	B-DC7	B-DC8	B-DC9	B-DC10	B-DC11	B-DC12	B-DC13	B-DC14	B-DC15	B-DC16	B-Ph1	B-Ph2	B-Ph3	B-Ph4	B-Ph5	B-Ph6	B-Ph7	B-Ph8	B-Ph9	B-Ph10	B-Ph11	B-Ph12	B-Ph13	B-Ph14	B-Ph15	B-Ph16	

Term	0.00000e+00	0.00000e+00	0.00000e+00	0.00000e+00	0.00000e+00	0.00000e+00	0.00000e+00	0.00000e+00	0.00000e+00	0.00000e+00	0.00000e+00	0.00000e+00	0.00000e+00	0.00000e+00	0.00000e+00	0.00000e+00	0.00000e+00	0.00000e+00	0.00000e+00	0.00000e+00	0.00000e+00	0.00000e+00	0.00000e+00	0.00000e+00	0.00000e+00	0.00000e+00	0.00000e+00	0.00000e+00	0.00000e+00	0.00000e+00	0.00000e+00	0.00000e+00	-1.59263e+02	-1.35366e+02	-1.22785e+02	-1.81606e+02	-7.89346e+01	-5.72216e+01	-1.56575e+02	-1.62015e+02	-7.73410e+01	-6.58398e+01	-1.71773e+02	-1.69662e+02	-1.85582e+02	-1.76518e+02	-7.73154e+01	-1.48785e+02	
Factor	2.57673e-05	1.35732e-04	4.29484e-05	1.60521e-01	1.34668e-06	1.50830e-06	1.73562e-01	5.04505e-02	1.28541e-06	1.76270e-06	8.78298e-02	2.84354e-02	2.48919e-02	9.05555e-03	1.36247e-06	1.28161e-02	7.70257e-06	9.89319e-06	2.77655e-06	8.54020e-02	1.04570e-07	1.10558e-07	8.68692e-02	2.69635e-02	1.04314e-07	1.10505e-07	4.53325e-02	1.47671e-02	1.33880e-02	4.87488e-03	1.06932e-07	6.69256e-03	X	X	X	X	X	X	X	X	X	X	X	X	X	X	X	X	



#DISTANCE SETTINGS
A = Detector Channel
A-1	A-2	A-3	A-4	A-5	A-6	A-7	A-8	A-9	A-10	A-11	A-12	A-13	A-14	A-15	A-16	

2.5000e+00	3.0000e+00	2.5000e+00	3.0000e+00	2.0000e+00	3.0000e+00	1.5000e+00	3.0000e+00	3.0000e+00	3.0000e+00	3.0000e+00	3.0000e+00	3.0000e+00	3.0000e+00	1.5000e+00	3.0000e+00	

B = Detector Channel
B-1	B-2	B-3	B-4	B-5	B-6	B-7	B-8	B-9	B-10	B-11	B-12	B-13	B-14	B-15	B-16	

1.0000e+01	1.0000e+01	1.0000e+01	1.4400e+00	1.0000e+01	1.0000e+01	1.5100e+00	1.9400e+00	1.0000e+01	1.0000e+01	1.9900e+00	2.4900e+00	2.4100e+00	2.9000e+00	1.0000e+01	2.9800e+00	




#DATA BEGINS
time	group	step	mark	flag	A-AC1	A-AC2	A-AC3	A-AC4	A-AC5	A-AC6	A-AC7	A-AC8	A-AC9	A-AC10	A-AC11	A-AC12	A-AC13	A-AC14	A-AC15	A-AC16	A-DC1	A-DC2	A-DC3	A-DC4	A-DC5	A-DC6	A-DC7	A-DC8	A-DC9	A-DC10	A-DC11	A-DC12	A-DC13	A-DC14	A-DC15	A-DC16	A-Ph1	A-Ph2	A-Ph3	A-Ph4	A-Ph5	A-Ph6	A-Ph7	A-Ph8	A-Ph9	A-Ph10	A-Ph11	A-Ph12	A-Ph13	A-Ph14	A-Ph15	A-Ph16	B-AC1	B-AC2	B-AC3	B-AC4	B-AC5	B-AC6	B-AC7	B-AC8	B-AC9	B-AC10	B-AC11	B-AC12	B-AC13	B-AC14	B-AC15	B-AC16	B-DC1	B-DC2	B-DC3	B-DC4	B-DC5	B-DC6	B-DC7	B-DC8	B-DC9	B-DC10	B-DC11	B-DC12	B-DC13	B-DC14	B-DC15	B-DC16	B-Ph1	B-Ph2	B-Ph3	B-Ph4	B-Ph5	B-Ph6	B-Ph7	B-Ph8	B-Ph9	B-Ph10	B-Ph11	B-Ph12	B-Ph13	B-Ph14	B-Ph15	B-Ph16	aux-1	digaux	

6321.575	1	1	0	256	0.095483	0.10766	0.082368	0.035765	0.13415	0.13887	0.24423	0.18555	0.33131	0.081034	0.19683	0.11715	0.33056	0.053179	0.17523	0.17056	-0.59792	-0.52708	-0.1	-1.0708	-0.020833	-0.425	-0.89167	-0.21875	-0.72292	-0.65417	-0.075	-1.2021	-0.010417	-0.39792	-1.1208	-0.016667	2.838	220.937	145.930	-121.434	67.095	-35.198	177.730	183.353	-83.113	-113.695	151.715	76.771	-123.127	-105.892	135.749	-106.259	0.00019099	0.00021609	4.1927e-05	1032.1	1.6872e-06	3.8898e-06	1118.7	216.43	2.5641e-06	2.9598e-06	272.4	77.266	60.472	17.823	2.9486e-06	24.618	0.00029676	0.00030296	8.8063e-05	1017.6	3.4329e-06	3.3428e-06	1101.8	214.38	3.2459e-06	3.2189e-06	269.79	77.389	60.794	17.966	3.3452e-06	25.057	175.654	-23.828	-42.833	-125.718	50.265	30.896	-125.685	-118.488	-49.668	53.641	-118.571	-112.579	-111.824	-104.221	-76.215	-104.922	-8191	255	
6321.672	1	1	0	0	0.3681	0.10344	0.12429	0.30449	0.28861	0.025025	0.31665	0.086491	0.17507	0.091024	0.088359	0.22445	0.18149	0.062692	0.075719	0.054904	-0.25625	-0.6125	-0.03125	-1.2938	-0.32292	-0.40625	-0.975	-0.13333	-0.71667	-0.7375	-0.15625	-0.95	-0.55	-0.37708	-1.1479	0.025	-17.716	22.768	218.895	-68.169	35.371	-111.348	191.055	-47.772	67.746	-77.564	55.519	-66.423	207.439	63.153	-133.924	29.005	0.00016647	0.00040119	0.00011071	1034.3	1.2086e-06	1.7864e-06	1114.3	217.3	2.622e-06	4.2543e-06	270.79	77.182	60.924	17.909	2.1826e-06	24.742	0.00028995	0.00030826	8.8774e-05	1018.3	3.534e-06	3.5201e-06	1101.5	214.95	3.491e-06	3.5002e-06	269.31	77.477	61.046	17.977	3.4272e-06	25.07	167.772	-29.964	7.298	-125.740	-39.132	24.223	-126.009	-118.786	-49.160	29.344	-118.490	-112.750	-112.225	-103.630	-27.175	-104.756	-8191	255	
6321.768	1	1	0	0	0.015567	0.136	0.18598	0.28933	0.090741	0.29967	0.098837	0.104	0.15686	0.21447	0.066362	0.16137	0.33999	0.1419	0.019872	0.074451	-0.27708	-0.63125	-0.070833	-1.1	-0.34792	-0.16042	-1.0938	-0.12708	-0.48542	-0.69167	-0.09375	-0.82292	-0.40833	-0.26458	-0.87917	-0.23958	181.249	112.152	-69.976	-128.057	-52.595	215.684	115.526	220.109	189.506	87.860	64.290	167.976	-68.472	165.656	-92.856	1.140	0.00019697	0.00031944	4.9056e-05	1037.4	5.8005e-07	3.4809e-06	1113	216.78	3.4778e-06	1.2341e-06	270.93	76.46	60.892	17.826	2.5541e-06	24.519	0.00029786	0.00030529	8.7276e-05	1017.8	3.5018e-06	3.4658e-06	1101.3	214.43	3.5095e-06	3.5025e-06	269.67	77.096	60.889	17.957	3.2264e-06	24.997	169.941	-28.167	-72.445	-125.654	93.312	14.151	-126.102	-118.602	-46.819	60.325	-118.044	-112.309	-112.063	-103.935	-21.515	-104.844	-8191	255	
6321.864	1	1	0	0	0.23021	0.14198	0.13465	0.28864	0.08272	0.085767	0.063565	0.094033	0.087961	0.095875	0.14793	0.075866	0.24206	0.2224	0.13432	0.11881	-0.0083333	-0.71667	-0.00625	-0.97917	-0.41875	-0.083333	-1.1938	-0.18125	-0.41667	-0.83125	-0.17292	-0.57083	-0.58542	-0.13958	-1.025	-0.29583	-84.534	145.988	157.082	196.144	113.863	40.024	40.409	-129.014	-42.562	-111.780	151.911	13.025	-125.992	-31.338	-130.521	21.085	0.00018201	0.00046718	7.6993e-05	1035.1	2.093e-06	2.4156e-06	1116.2	215.82	2.2613e-06	5.4807e-06	271.14	76.429	60.6	17.888	2.4311e-06	24.71	0.0002975	0.00030964	9.1626e-05	1018.5	3.5556e-06	3.6208e-06	1101.5	214.19	3.5197e-06	3.4339e-06	268.81	77.147	60.896	17.994	3.5646e-06	25.067	177.474	-43.204	-22.859	-125.535	-18.939	20.642	-125.847	-118.735	-45.723	47.659	-118.887	-112.459	-112.313	-104.284	9.028	-105.277	-8191	255	
6321.985	1	1	0	0	0.027161	0.030827	0.19278	0.20343	0.2574	0.19948	0.18904	0.28765	0.27457	0.17214	0.17386	0.13969	0.29187	0.35879	0.1482	0.19075	0.125	-0.91042	-0.12083	-0.80417	-0.5375	-0.24167	-1.1167	-0.28958	-0.26667	-0.8875	-0.19375	-0.80625	-0.74583	-0.17708	-0.83125	-0.33125	-119.963	65.656	-94.700	-48.422	92.891	-38.433	135.509	218.382	-21.733	-3.688	66.093	-68.448	-106.572	202.609	47.032	182.664	0.0001729	0.00020885	0.00011605	1038	1.8943e-06	3.3556e-06	1118.3	215.83	1.6481e-06	3.767e-06	270.88	76.226	60.207	17.748	3.4767e-06	24.528	0.00030204	0.00033004	9.431e-05	1020	3.7299e-06	3.7258e-06	1105.7	214.16	3.789e-06	3.7003e-06	269.66	77.133	60.665	17.926	3.48e-06	24.984	171.832	-38.321	-26.915	-125.886	12.602	46.651	-126.122	-118.555	-17.331	16.510	-118.878	-112.596	-112.190	-104.192	-5.652	-105.145	-8191	255	
6322.081	1	1	0	0	0.17129	0.14187	0.13397	0.14787	0.11198	0.29191	0.32196	0.081057	0.24167	0.063578	0.24729	0.052292	0.23515	0.113	0.23905	0.17844	0.12083	-0.83125	-0.072917	-0.5625	-0.76458	-0.19375	-1.1771	-0.42708	0.016667	-1.0063	-0.041667	-0.6125	-0.70833	0.05625	-0.77917	-0.71042	-86.011	-78.206	-100.826	-115.940	166.454	39.639	114.917	94.987	-104.299	11.080	168.257	143.715	-39.960	80.906	-70.285	14.251	0.00018399	0.00032654	8.5128e-05	1039.1	5.957e-07	5.3828e-06	1121.6	215.49	1.6599e-06	3.813e-06	270.64	76.02	60.677	17.774	3.0436e-06	24.582	0.00031463	0.0003293	9.2696e-05	1020.6	3.5395e-06	3.8129e-06	1106.3	214.48	3.5273e-06	3.4984e-06	267.97	76.97	61.07	17.909	3.4537e-06	24.95	178.440	-15.729	-42.441	-125.967	-83.715	32.758	-126.114	-118.418	6.685	42.925	-118.967	-112.251	-112.068	-104.100	22.175	-105.258	-8191	255	
6322.175	1	1	0	0	0.10635	0.25854	0.16694	0.13	0.11829	0.17741	0.048264	0.29454	0.031947	0.08051	0.1654	0.040103	0.13552	0.16309	0.0894	0.2361	0.18542	-0.99792	-0.04375	-0.75	-1.0542	-0.15	-0.81042	-0.57708	-0.097917	-0.85833	-0.24792	-0.59583	-0.87083	-0.19792	-0.70208	-0.58333	-66.083	-82.339	-33.234	134.736	3.084	87.764	128.988	145.971	133.092	-94.127	123.306	-122.976	153.722	157.593	141.561	67.179	0.00019467	0.00026878	0.00011063	1032	2.7868e-06	3.4351e-06	1117.9	216.17	3.5835e-06	2.2651e-06	270.68	76.619	60.111	17.813	4.0969e-07	24.446	0.00031767	0.00033476	9.3726e-05	1017.7	3.4658e-06	3.6567e-06	1104.3	214.32	3.7455e-06	3.5608e-06	269.39	77.053	60.739	17.981	3.592e-06	24.979	171.441	-35.786	-45.121	-125.831	-14.165	40.495	-126.124	-118.696	-81.330	-48.714	-118.371	-112.244	-111.750	-104.550	57.031	-105.204	-8191	255	
6322.249	1	1	0	0	0.28345	0.18713	0.12467	0.085036	0.11805	0.13029	0.13384	0.27782	0.18301	0.1786	0.47191	0.2235	0.32116	0.18511	0.059978	0.13316	0.19792	-0.88958	-0.10417	-0.50208	-0.93125	0.13958	-0.76875	-0.82917	-0.089583	-1.0354	-0.425	-0.35833	-1.0521	-0.064583	-0.63125	-0.84792	72.198	121.265	45.684	178.368	126.547	201.930	119.891	-54.732	13.049	168.364	181.222	-31.154	216.845	96.829	37.028	129.419	0.00022086	0.00026281	5.3984e-05	1038.8	1.1548e-06	2.0489e-06	1116.5	216.04	1.5891e-06	2.9813e-06	269.56	76.534	60.592	17.743	3.1351e-06	24.633	0.00032482	0.00031941	9.0695e-05	1018.8	3.6434e-06	3.627e-06	1103.9	214.35	3.5947e-06	3.5364e-06	268.41	77.121	60.861	17.945	3.5504e-06	25.017	184.378	-51.651	-57.497	-125.567	60.200	88.006	-125.890	-118.518	-42.711	-11.067	-118.594	-112.073	-112.359	-103.871	-43.377	-104.814	-8191	255	
6322.367	1	1	0	0	0.11248	0.13298	0.11949	0.083872	0.30748	0.14536	0.095736	0.062434	0.15718	0.37944	0.10132	0.19561	0.29377	0.099367	0.12596	0.10931	0.28333	-0.98333	-0.46042	-0.25833	-0.975	-0.13125	-0.67917	-0.76458	0.11458	-0.93125	-0.64792	-0.12083	-1.0333	-0.039583	-0.36458	-0.93125	158.235	176.046	-125.179	168.665	97.332	121.903	35.266	172.030	-52.719	174.517	124.753	3.024	-94.055	169.967	-123.581	183.674	0.00020744	0.00025511	0.00012528	1036.2	3.4259e-06	2.2031e-06	1118.3	215.85	1.197e-06	1.084e-06	271.44	76.309	60.914	17.736	2.1222e-06	24.473	0.00031033	0.00031846	9.217e-05	1017.9	3.5364e-06	3.5814e-06	1104	214.4	3.6649e-06	3.5516e-06	269.64	77	60.857	17.91	3.4862e-06	24.945	176.745	1.811	-77.821	-125.715	11.389	0.594	-125.638	-118.633	-6.353	1.152	-118.513	-112.387	-111.666	-104.544	-26.972	-104.631	-8191	255	
6322.464	1	1	0	0	0.18944	0.19177	0.18166	0.23458	0.12754	0.21748	0.17827	0.16776	0.14754	0.21541	0.072904	0.24716	0.099859	0.048261	0.20749	0.13511	0.43125	-0.72917	-0.50833	-0.3	-0.92292	-0.20833	-0.46667	-0.97708	0.027083	-0.59583	-0.71875	-0.13125	-0.95625	-0.27292	-0.13333	-0.98958	91.950	96.210	145.964	171.522	-74.525	58.471	186.919	206.212	140.949	197.266	116.277	49.292	-107.919	21.954	144.248	68.756	0.00022885	0.00034174	0.00012583	1033.9	1.8606e-06	1.69e-06	1117.3	215.93	1.0503e-06	1.6449e-06	270.95	76.67	60.904	17.648	1.9922e-06	24.597	0.00031688	0.00032369	9.0296e-05	1017.8	3.6124e-06	3.5268e-06	1103.6	214.32	3.5123e-06	3.4153e-06	268.41	77.222	60.842	17.948	3.5397e-06	25.002	187.092	-47.108	-60.261	-125.960	-33.854	-4.495	-125.735	-118.326	-69.202	39.779	-118.413	-112.447	-112.459	-105.156	-14.539	-105.698	-8191	255	
6322.560	1	1	0	0	0.38928	0.39683	0.23376	0.17721	0.16212	0.2227	0.17686	0.23349	0.11765	0.044662	0.086223	0.021402	0.28809	0.073539	0.10652	0.22221	0.38542	-0.47292	-0.53542	-0.25625	-1.0667	-0.17083	-0.40833	-1.0167	-0.18125	-0.56667	-0.84792	-0.06875	-0.96042	-0.35	-0.20208	-1.0229	-133.997	29.807	163.823	149.010	47.583	133.688	165.188	-117.826	136.628	103.223	-111.465	-24.080	-106.651	-40.708	-97.303	45.935	0.00018414	0.00028152	8.1506e-05	1033.2	2.227e-06	4.9786e-06	1113.4	215.5	2.7586e-06	1.7157e-06	271.11	76.368	60.512	17.71	2.4366e-06	24.767	0.00031072	0.00033554	9.1505e-05	1016.4	3.7002e-06	3.7799e-06	1104	214.11	3.6201e-06	3.512e-06	269.33	76.998	60.964	17.909	3.643e-06	25.008	186.283	-46.727	-34.910	-126.595	-28.579	21.745	-126.623	-119.273	-37.476	43.591	-119.369	-113.127	-112.654	-105.394	-48.547	-105.859	-8191	255	
6322.656	1	1	0	0	0.18456	0.11382	0.1254	0.17852	0.14906	0.34636	0.045863	0.15351	0.30042	0.16239	0.33547	0.11584	0.22555	0.19503	0.27727	0.13076	0.3625	-0.69792	-0.65833	0.06875	-0.7125	-0.4375	-0.30625	-0.87292	-0.2	-0.57708	-0.80625	-0.089583	-0.88333	-0.63333	-0.11458	-0.93958	33.456	33.721	80.097	-57.993	79.410	-92.939	-16.740	33.830	22.288	108.416	147.774	105.704	63.729	117.516	-45.333	31.971	0.00021453	0.00025925	7.8359e-05	1036.5	1.7162e-06	1.6538e-06	1115.7	214.93	3.6929e-07	1.0918e-06	270.65	76.93	60.911	17.748	3.946e-06	24.588	0.00031654	0.00032693	9.0388e-05	1018.8	3.7257e-06	3.6768e-06	1103.1	213.88	3.7244e-06	3.7687e-06	268.7	77.197	61.074	17.959	3.6245e-06	25.003	171.729	-74.834	-48.995	-126.414	29.491	9.942	-126.747	-119.107	-114.794	6.745	-119.405	-113.421	-112.861	-105.246	-21.309	-105.717	-8191	255	
6322.777	1	1	0	0	0.26275	0.16574	0.16839	0.10333	0.11359	0.22723	0.35663	0.10656	0.053361	0.13975	0.30501	0.08117	0.14574	0.27112	0.18133	0.10092	0.17083	-0.27083	-0.90208	-0.15833	-0.88333	-0.65417	-0.22083	-1.025	-0.14583	-0.45208	-1.0292	-0.125	-0.85	-0.66458	0.072917	-0.9375	106.685	28.782	97.730	-76.524	127.729	-20.167	180.268	207.562	203.040	171.124	164.753	15.889	104.097	-16.087	124.437	-11.840	0.00025106	0.00030078	6.1282e-05	1039.8	1.4957e-06	1.3917e-06	1116	214.46	1.9755e-06	3.6458e-06	270.53	76.709	60.86	17.861	3.3073e-06	24.638	0.00031805	0.00033414	9.1215e-05	1018.6	3.8031e-06	3.7749e-06	1105.5	213.86	3.6668e-06	3.5493e-06	269.08	77.238	60.971	17.973	3.6428e-06	25.045	179.449	-47.228	13.736	-126.487	60.807	19.846	-126.629	-118.980	-28.832	63.482	-119.376	-113.103	-112.804	-105.135	-24.912	-105.394	-8191	255	
6322.848	1	1	0	0	0.19866	0.081258	0.16893	0.25751	0.074201	0.20119	0.38114	0.3131	0.13373	0.17403	0.15163	0.086842	0.22982	0.16631	0.10706	0.44541	-0.085417	-0.13333	-1.05	0.0083333	-0.53333	-0.76042	-0.091667	-0.9125	-0.4875	-0.20417	-1	-0.0875	-0.35625	-0.7625	0.025	-0.98958	-96.324	95.026	104.455	137.586	51.552	108.120	136.801	191.957	167.064	-28.894	-90.217	-54.698	109.792	-29.443	-24.804	-81.090	0.00021759	0.0004107	6.8929e-05	1039	3.3927e-06	3.5158e-06	1116.3	216.66	1.7808e-06	6.1527e-06	271.39	76.672	60.622	17.736	7.2713e-07	24.461	0.00031561	0.00033697	8.8826e-05	1019.7	3.6804e-06	3.5471e-06	1104.5	214.64	3.6327e-06	3.5919e-06	269.44	77.004	60.878	17.937	3.705e-06	24.955	168.504	-49.317	-67.390	-126.520	-30.924	37.625	-126.605	-119.171	-59.879	31.482	-119.456	-112.929	-112.316	-104.762	-17.785	-105.385	-8191	255	
6322.969	1	1	0	0	0.063791	0.063405	0.16642	0.17116	0.1953	0.22297	0.19616	0.42128	0.23234	0.06568	0.085164	0.095684	0.36531	0.25711	0.17981	0.30033	-0.016667	0.066667	-0.87292	-0.35417	-0.70417	-0.77917	0	-0.83125	-0.43542	-0.016667	-0.86667	-0.275	-0.39167	-0.97083	-0.06875	-0.84792	154.097	62.564	-39.365	-104.843	-13.850	147.673	199.943	-122.809	112.144	125.526	66.631	144.871	76.236	211.852	83.647	150.363	0.00024746	0.00038635	5.8343e-05	1036.8	3.7477e-07	3.2873e-06	1120.1	215.63	2.5306e-06	3.892e-06	272.57	76.399	60.696	17.791	3.0511e-06	24.68	0.00031327	0.00033804	9.1892e-05	1019.4	3.5628e-06	3.5436e-06	1103.9	214.5	3.6164e-06	3.6994e-06	269.52	77.156	60.973	17.948	3.6891e-06	25.027	176.700	-7.787	-34.401	-126.518	-114.055	44.243	-126.495	-119.050	-43.775	-18.111	-119.085	-113.741	-112.364	-104.700	12.471	-105.761	-8191	255	
6323.065	1	1	0	0	0.22866	0.21504	0.079977	0.11672	0.20177	0.1398	0.18387	0.13931	0.083649	0.24088	0.19514	0.081805	0.29657	0.05595	0.047556	0.073596	-0.31667	0.10208	-1.0229	-0.38333	-0.49375	-1.1958	-0.27917	-0.71667	-0.75625	-0.045833	-1.0812	-0.31875	-0.41042	-0.86458	-0.22083	-0.74167	2.778	88.791	75.053	73.114	-114.557	-63.958	114.721	145.423	117.852	197.807	-77.682	-66.515	-71.386	-30.927	-68.243	-69.789	0.00022657	0.0002598	0.00010308	1036.2	2.1661e-06	2.9483e-06	1113.8	215.61	1.5005e-06	2.0513e-06	270.85	76.361	60.741	17.787	2.0717e-06	24.608	0.00030539	0.00033192	8.9509e-05	1017.8	3.6682e-06	3.4379e-06	1104.2	214.38	3.4997e-06	3.6296e-06	269.02	76.908	60.858	17.938	3.6981e-06	25.005	171.620	-38.317	-44.097	-126.542	-16.599	38.501	-126.301	-119.087	-54.650	38.773	-119.164	-112.892	-112.835	-105.050	3.311	-105.172	-8191	255	
6323.161	1	1	0	0	0.10007	0.11405	0.19975	0.29386	0.073145	0.052845	0.23667	0.13981	0.038978	0.29183	0.24008	0.19594	0.044049	0.051162	0.073276	0.2447	-0.41458	0.027083	-0.96667	-0.36667	-0.29792	-0.925	-0.35	-0.64167	-0.72917	-0.23333	-0.97083	-0.50833	-0.24583	-1.0042	-0.29792	-0.4875	-9.231	-23.893	209.376	181.102	-104.021	11.881	193.359	8.254	34.975	-94.648	-111.076	106.895	144.649	-75.077	112.748	-105.449	0.00021532	0.00023689	9.5521e-05	1033.8	3.0367e-06	2.8092e-06	1119.1	215.68	2.5843e-06	5.9196e-07	269.38	76.495	60.598	17.812	1.8605e-06	24.691	0.00030438	0.0003252	8.7282e-05	1017.1	3.6504e-06	3.3849e-06	1104	213.97	3.3982e-06	3.4042e-06	268.65	77.093	61.016	17.969	3.5439e-06	25.031	172.030	-57.367	-37.023	-126.506	2.732	25.852	-126.677	-118.846	-61.523	-36.262	-119.053	-113.255	-112.474	-104.837	-62.341	-105.535	-8191	255	
6323.257	1	1	0	0	0.13695	0.15015	0.13052	0.12721	0.044372	0.065428	0.19108	0.14638	0.10445	0.269	0.032054	0.16996	0.1274	0.34597	0.14505	0.22011	-0.5375	-0.0875	-0.84792	-0.48333	-0.08125	-0.98958	-0.4125	-0.44375	-0.96875	-0.08125	-1.0833	-0.79792	-0.039583	-0.95	-0.3375	-0.41042	183.425	51.729	67.074	191.284	48.243	112.053	180.912	176.888	-4.540	-107.343	-0.226	-135.761	47.132	-36.859	-26.042	139.479	0.0001853	0.00030979	8.5649e-05	1032.8	2.3779e-06	2.5231e-06	1112.4	216.21	2.5148e-06	3.9349e-06	270.43	76.35	60.634	17.906	2.6095e-06	24.656	0.00029873	0.00032244	8.7293e-05	1015.9	3.6281e-06	3.3739e-06	1101.4	214.28	3.4384e-06	3.4758e-06	268.96	77.028	60.891	17.961	3.3949e-06	25.095	171.869	-47.766	-74.198	-126.546	-26.073	35.904	-126.343	-118.746	-71.748	27.390	-119.175	-113.316	-112.632	-104.829	-13.770	-104.986	-8191	255	
6323.376	1	1	0	0	0.17056	0.076829	0.15509	0.14377	0.30874	0.25457	0.15226	0.064429	0.021915	0.10809	0.084582	0.33661	0.32568	0.22925	0.02342	0.19498	-0.57917	-0.047917	-0.70417	-0.85	0.085417	-1.0542	-0.42917	-0.42292	-0.82917	-0.041667	-0.68542	-0.76458	-0.085417	-0.9875	-0.29583	-0.31458	109.726	44.992	-53.222	56.652	-57.159	-6.831	124.810	202.805	-69.475	-85.545	171.127	-136.777	157.633	222.227	-87.600	9.850	0.00020919	0.00036308	6.4654e-05	1030.5	2.5364e-06	2.3255e-06	1113.3	216	1.3092e-06	4.1614e-06	270.57	76.409	60.453	17.726	2.0846e-06	24.467	0.00029167	0.00031555	8.5119e-05	1015.1	3.4787e-06	3.4234e-06	1099.5	214.13	3.3569e-06	3.3444e-06	269.17	77.078	60.819	17.933	3.3824e-06	24.96	170.956	-71.929	1.104	-126.424	-14.687	62.382	-126.608	-119.079	46.180	31.135	-119.419	-112.903	-112.587	-104.994	193.457	-104.914	-8191	255	
6323.472	1	1	0	0	0.12598	0.18651	0.21835	0.19089	0.19314	0.10332	0.24424	0.20146	0.038796	0.14963	0.24226	0.2586	0.22252	0.27103	0.27486	0.21883	-0.55625	-0.19167	-0.57292	-0.97708	0.041667	-0.90833	-0.6625	-0.24792	-0.99792	-0.05	-0.55417	-0.98542	0.077083	-0.825	-0.50208	-0.20833	50.726	60.173	145.564	-73.887	93.888	83.238	137.215	-124.256	114.126	-97.978	81.992	-106.301	-124.847	-69.472	104.387	205.815	0.00018084	0.00022377	8.73e-05	1032.5	4.1863e-06	1.7767e-06	1117.8	215.13	2.9141e-06	2.7459e-06	271.36	76.521	60.705	17.668	2.2476e-06	24.607	0.00028578	0.00031273	8.6223e-05	1016	3.5216e-06	3.2755e-06	1102.3	214.05	3.36e-06	3.4514e-06	269	77.112	60.868	17.914	3.396e-06	24.982	165.312	-43.942	-24.450	-126.524	-5.664	-4.050	-126.197	-118.951	7.468	8.499	-119.112	-113.054	-112.096	-104.467	10.840	-104.838	-8191	255	
6323.544	1	1	0	0	0.33407	0.10459	0.22018	0.34711	0.20398	0.23556	0.088722	0.22795	0.12564	0.33306	0.12762	0.044738	0.1624	0.15394	0.31923	0.10233	-0.58542	-0.29792	-0.325	-1.1	-0.27917	-0.88333	-0.74792	-0.26042	-0.88333	-0.31458	-0.5125	-0.98542	-0.085417	-0.77083	-0.73542	0.0041667	-100.685	149.616	215.762	195.415	-111.031	41.339	104.026	217.159	103.376	45.503	151.120	25.121	219.244	-36.924	134.807	-79.460	0.00020415	0.00022367	8.2711e-05	1033.1	8.0028e-07	1.6817e-06	1114.3	214.48	3.3171e-06	2.5706e-06	269.67	76.539	60.602	17.773	4.1428e-06	24.579	0.00028939	0.00032122	8.7016e-05	1016.8	3.5277e-06	3.5008e-06	1100.7	213.95	3.4517e-06	3.4517e-06	268.44	77.017	60.817	17.962	3.4501e-06	24.989	173.096	-23.688	-85.775	-126.353	-3.086	33.429	-126.307	-119.054	-52.589	-55.986	-118.886	-113.067	-112.961	-104.673	-66.412	-104.864	-8191	255	
6323.665	1	1	0	0	0.24474	0.11808	0.15973	0.27205	0.074	0.2023	0.17106	0.22443	0.15895	0.25942	0.22113	0.10976	0.13459	0.077714	0.14679	0.13962	-0.39167	-0.22708	-0.31042	-1.1396	-0.05	-0.70833	-1.0063	-0.25833	-1.0438	-0.49167	-0.27292	-1.2375	-0.26042	-0.3375	-0.8125	-0.29167	-113.895	-118.120	185.172	179.558	-100.186	88.380	174.924	-107.823	114.119	0.121	150.192	-36.950	-116.034	107.954	-118.509	139.956	0.00018722	0.00040737	8.6788e-05	1032.1	3.6831e-06	3.4335e-06	1111.7	215.83	1.8373e-06	2.0811e-06	269.14	76.91	60.416	17.907	3.741e-06	24.669	0.00030526	0.00033684	8.6871e-05	1015.6	3.5449e-06	3.5913e-06	1100.1	213.84	3.4676e-06	3.4535e-06	268.54	77.114	60.804	17.978	3.5132e-06	25.037	181.430	-47.717	-17.706	-126.355	-27.505	28.165	-126.340	-118.970	-30.554	13.127	-118.908	-113.036	-112.212	-104.486	-24.315	-104.858	-8191	255	
6323.761	1	1	0	0	0.10432	0.050882	0.052382	0.22423	0.18064	0.15685	0.26348	0.10188	0.073784	0.025728	0.19575	0.077565	0.20392	0.23165	0.44984	0.064361	-0.5875	-0.43333	-0.16458	-1.2062	-0.34375	-0.68125	-1.1333	-0.11875	-0.925	-0.71667	-0.31042	-1.0958	-0.16667	-0.19583	-0.99792	-0.039583	-131.741	18.125	-80.749	-79.693	183.651	-4.489	184.396	189.757	-106.893	-45.745	114.169	43.308	210.673	-126.383	-76.547	19.370	0.00021895	0.00037998	8.101e-05	1034.7	1.4434e-06	2.6163e-06	1111.1	215.89	2.3103e-06	4.0192e-06	269.75	76.425	60.724	17.8	2.3284e-06	24.658	0.00030077	0.00033039	9.1904e-05	1016.6	3.5841e-06	3.4596e-06	1099.9	213.78	3.5026e-06	3.5242e-06	268.85	77.06	60.93	17.969	3.4354e-06	25.052	174.110	-7.594	-54.659	-126.238	30.032	-19.414	-126.295	-118.710	-26.231	31.420	-118.774	-112.572	-112.294	-104.630	-21.307	-105.095	-8191	255	
6323.857	1	1	0	0	0.13882	0.28234	0.046419	0.26348	0.26184	0.056628	0.16584	0.19496	0.047733	0.23588	0.16582	0.14157	0.36123	0.23614	0.14949	0.13358	-0.56458	-0.51667	-0.17292	-1.1208	-0.26042	-0.52708	-1.1792	-0.23542	-0.71042	-0.81042	-0.19167	-1.1667	-0.60208	-0.31042	-1.075	-0.089583	103.353	-25.349	76.788	218.965	-63.287	-26.011	173.099	-75.460	218.079	-86.130	216.443	208.183	206.530	116.930	-7.905	-38.199	0.00018759	0.00039438	0.00012272	1030.5	2.0638e-06	2.145e-06	1116.1	215.61	2.0098e-06	1.7793e-06	269.88	76.249	60.724	17.931	1.5988e-06	24.528	0.00030281	0.00032874	8.7565e-05	1015.3	3.641e-06	3.5413e-06	1102.7	213.81	3.4508e-06	3.4839e-06	268.14	76.823	60.758	18.017	3.4196e-06	24.914	184.629	-25.864	-19.999	-126.060	62.410	-32.463	-126.089	-118.997	-30.786	42.327	-118.864	-113.376	-112.724	-104.384	15.399	-105.652	-8191	255	
6323.953	1	1	0	0	0.04641	0.036413	0.17131	0.2016	0.2433	0.39891	0.15098	0.143	0.20927	0.19075	0.39991	0.13865	0.11738	0.13392	0.14702	0.14554	-0.29583	-0.64792	-0.18125	-1.1042	-0.3625	-0.15417	-1.2437	-0.4125	-0.72708	-0.65833	-0.091667	-0.90417	-0.48125	-0.2875	-1.1875	-0.27083	122.302	-111.362	-126.701	215.547	138.012	-125.348	158.255	-126.400	60.250	8.775	204.138	-135.343	-117.590	218.294	192.306	148.389	0.00021309	0.00029151	8.5562e-05	1035.3	8.7462e-07	1.3399e-06	1104.4	214.56	1.4814e-06	5.0999e-06	270.29	76.622	60.554	17.62	1.7664e-06	24.493	0.00030797	0.00031458	9.1238e-05	1016	3.7353e-06	3.5494e-06	1098.3	213.38	3.5345e-06	3.5055e-06	268.7	77.012	60.92	17.922	3.5566e-06	24.809	177.429	-30.214	-24.938	-126.307	29.399	-5.680	-126.087	-118.649	-88.709	-3.210	-118.661	-112.861	-112.276	-104.516	46.125	-105.504	-8191	255	
6324.049	1	1	0	0	0.36615	0.055229	0.11741	0.017967	0.23274	0.18449	0.1601	0.053575	0.13536	0.27776	0.12382	0.079117	0.14986	0.26712	0.082674	0.031054	-0.06875	-1.0354	-0.3125	-0.99792	-0.64167	-0.22917	-1.0125	-0.33542	-0.49583	-1.0042	-0.22292	-0.72292	-0.78333	-0.33542	-1.125	-0.47292	106.367	-133.663	149.856	184.800	136.969	175.150	-123.303	165.063	-37.772	217.118	128.338	116.642	205.531	35.208	-117.818	69.877	0.00018301	0.00037385	5.3167e-05	1031.8	1.9064e-06	1.2369e-06	1111.4	215.58	3.2076e-06	4.4177e-06	270.49	76.397	60.402	17.714	1.7603e-06	24.478	0.00030688	0.00032547	9.0735e-05	1018	3.6806e-06	3.5328e-06	1099.7	213.75	3.7536e-06	3.5233e-06	268.5	76.887	60.611	17.876	3.4523e-06	24.907	164.666	-48.283	-1.330	-126.368	-73.502	42.328	-126.213	-119.166	-35.371	19.536	-118.882	-112.526	-111.975	-104.598	1.785	-105.020	-8191	255	
6324.145	1	1	0	0	0.18531	0.10412	0.18866	0.28927	0.12979	0.26109	0.37324	0.0084827	0.22436	0.19518	0.25804	0.091481	0.21685	0.2384	0.15782	0.0824	-0.045833	-0.84375	-0.24375	-0.925	-0.74583	-0.28125	-1.1771	-0.45	-0.24792	-1.2542	-0.17083	-0.75417	-1.0063	-0.047917	-0.83333	-0.51042	-66.144	-53.556	106.025	214.506	90.941	219.687	217.647	154.071	186.036	-60.938	148.609	57.849	219.748	102.330	161.829	-11.696	0.0001977	0.00022424	6.5674e-05	1031.9	2.6197e-06	1.6821e-06	1111.3	215.48	1.7789e-06	1.7669e-06	271.07	76.792	60.677	17.663	1.5993e-06	24.549	0.0003152	0.00033144	9.2933e-05	1014.1	3.5961e-06	3.5941e-06	1100.9	213.89	3.5734e-06	3.5444e-06	268.58	77.119	60.706	17.92	3.6339e-06	24.906	178.512	-31.723	-71.666	-126.209	-39.527	80.646	-126.407	-118.719	-20.825	38.427	-118.815	-112.387	-112.210	-104.551	-38.912	-105.284	-8191	255	
6324.241	1	1	0	0	0.26417	0.22978	0.1324	0.11421	0.22989	0.24444	0.10307	0.20619	0.013529	0.16427	0.1589	0.31668	0.10751	0.10492	0.28267	0.13986	0.11667	-0.8375	-0.225	-0.85208	-0.775	-0.14375	-0.91875	-0.67708	-0.25417	-1.2146	-0.31875	-0.72083	-1.0146	-0.17292	-0.93542	-0.59583	-46.088	61.043	-112.118	-106.079	99.624	-124.783	138.943	172.756	1.841	161.718	14.276	118.266	50.914	162.064	-75.757	162.808	0.000214	0.00034609	7.0487e-05	1030.6	1.2256e-06	4.8436e-06	1113.6	215.33	2.8169e-06	2.1173e-06	271.56	76.342	60.592	17.528	2.8177e-06	24.42	0.00030685	0.00032489	8.8572e-05	1014.7	3.5009e-06	3.6832e-06	1099.9	213.95	3.7081e-06	3.5318e-06	268.76	76.945	60.808	17.814	3.5098e-06	24.904	170.440	-56.511	-53.548	-125.943	24.699	52.787	-126.357	-118.761	-13.798	24.315	-118.972	-112.236	-111.858	-104.623	-13.588	-104.778	-8191	255	
6324.338	1	1	0	0	0.17125	0.36873	0.16244	0.35331	0.14225	0.04214	0.33068	0.049979	0.25759	0.23497	0.062249	0.21871	0.22021	0.09732	0.26839	0.10291	0.0125	-0.975	-0.43333	-0.68958	-1.2146	-0.11042	-1.1417	-0.84375	-0.26875	-0.96042	-0.31875	-0.51875	-0.97083	-0.18542	-0.675	-0.69375	192.649	52.334	213.329	151.408	-60.118	70.865	210.242	-30.216	195.553	14.957	199.128	-67.020	222.357	-17.159	-69.074	-95.481	0.00022594	0.00012613	0.00013895	1027.3	2.8811e-06	2.743e-06	1115.6	215.11	2.776e-06	2.4316e-06	268	76.266	60.501	17.719	2.8019e-06	24.526	0.00030895	0.0003355	9.1626e-05	1014.2	3.6475e-06	3.6733e-06	1101	213.57	3.6695e-06	3.4986e-06	267.73	77.03	60.745	17.913	3.4581e-06	24.914	170.661	45.186	-43.299	-125.818	-39.928	54.098	-126.214	-118.508	3.214	19.625	-118.876	-112.282	-112.225	-104.513	46.376	-104.988	-8191	255	
6324.457	1	1	0	0	0.25519	0.15892	0.14053	0.1397	0.37342	0.15608	0.091416	0.14203	0.18607	0.35799	0.34312	0.2263	0.28775	0.16073	0.19428	0.25066	0.3125	-0.96875	-0.35417	-0.43958	-1.0438	-0.175	-0.90625	-1.0292	-0.047917	-1.1271	-0.44375	-0.45625	-1.0125	-0.083333	-0.76875	-0.8	93.216	40.893	179.933	103.458	11.175	217.759	-68.803	-124.512	-116.789	137.679	102.706	199.937	-10.560	-16.997	169.543	143.861	0.00019855	0.00039552	2.6253e-05	1035.8	2.374e-06	1.3733e-06	1120.8	215.74	1.2863e-06	4.1814e-06	270.46	76.373	60.368	17.687	3.3467e-06	24.516	0.00031542	0.0003177	9.1655e-05	1015.6	3.5854e-06	3.7159e-06	1102.2	213.72	3.5423e-06	3.5309e-06	267.97	76.994	60.701	17.903	3.5105e-06	24.896	175.328	-43.836	-49.982	-125.838	-2.444	8.958	-125.901	-118.956	-50.600	3.640	-118.801	-112.634	-112.197	-104.204	-1.391	-105.514	-8191	255	
6324.553	1	1	0	0	0.2488	0.067509	0.29849	0.091618	0.078541	0.17179	0.25551	0.17342	0.15461	0.021217	0.16339	0.32036	0.033251	0.30452	0.12807	0.2445	0.29792	-0.7875	-0.34167	-0.44583	-0.86458	-0.1	-0.60208	-0.78333	-0.1375	-0.84167	-0.70208	-0.2	-1.1104	-0.19375	-0.45417	-0.91042	-129.369	12.497	22.393	122.389	110.015	-16.960	90.323	157.325	49.512	-129.561	182.833	154.124	-86.978	199.980	197.195	190.471	0.00021972	0.00025637	9.7387e-05	1033.9	3.874e-06	3.1159e-06	1113.3	215.85	2.6795e-06	2.7266e-06	268.99	76.01	60.453	17.718	2.0651e-06	24.239	0.00031691	0.0003272	9.0683e-05	1015.2	3.5257e-06	3.5471e-06	1100.3	213.65	3.7055e-06	3.5094e-06	267.41	76.701	60.747	17.883	3.4526e-06	24.856	179.456	-57.915	-37.148	-125.694	-9.780	22.734	-125.723	-118.726	-19.826	33.468	-118.886	-112.798	-112.115	-104.354	-0.057	-105.162	-8191	255	
6324.649	1	1	0	0	0.11531	0.26417	0.08268	0.26913	0.17172	0.13412	0.24964	0.21559	0.19025	0.18288	0.12555	0.083095	0.11712	0.086388	0.14344	0.36382	0.3875	-0.9125	-0.56875	-0.2375	-1.0229	-0.33125	-0.57083	-1.15	-0.05625	-0.55	-0.65625	0.12083	-1.0208	-0.31875	-0.34375	-1.0104	123.089	-53.386	120.575	197.700	194.485	-64.557	141.470	167.493	-122.415	95.263	-117.939	-47.320	49.210	162.884	-94.190	170.862	0.00017735	0.0002575	7.0704e-05	1028.4	2.6569e-06	3.3509e-06	1114.5	214.46	3.3668e-06	3.1828e-06	268.44	76.396	60.459	17.658	3.0118e-06	24.486	0.00030035	0.00032421	8.9231e-05	1014.3	3.4286e-06	3.5922e-06	1100.5	213.24	3.491e-06	3.5949e-06	267.65	76.835	60.667	17.852	3.5414e-06	24.925	184.612	-18.454	-15.652	-125.927	-22.388	55.078	-125.723	-118.499	-36.283	14.004	-118.898	-112.231	-111.781	-104.481	-7.081	-105.145	-8191	255	
6324.745	1	1	0	0	0.2882	0.16504	0.20113	0.37465	0.12579	0.10682	0.33465	0.36149	0.17481	0.082196	0.18202	0.22403	0.14045	0.16324	0.21021	0.13641	0.44583	-0.56042	-0.69792	-0.18542	-0.86667	-0.65625	-0.34583	-0.95625	-0.079167	-0.64167	-0.7375	0.05	-1.1	-0.59583	-0.10417	-0.95833	217.920	164.147	-67.779	208.573	-27.171	-68.025	177.332	162.334	164.665	150.715	191.037	149.640	18.010	-97.743	-83.037	-49.471	0.00021182	0.0002821	7.2274e-05	1028.3	9.5632e-07	1.8584e-06	1112.8	214.1	2.7013e-06	4.2733e-06	270.12	76.195	60.293	17.612	3.3487e-06	24.414	0.00030671	0.0003184	8.9411e-05	1013.1	3.5233e-06	3.4338e-06	1099.6	213.08	3.5697e-06	3.5341e-06	268.18	76.684	60.605	17.868	3.5673e-06	24.848	174.175	-60.860	-24.684	-125.918	-50.074	30.159	-126.200	-118.537	-3.984	0.241	-118.486	-113.079	-111.696	-104.557	1.349	-105.087	-8191	255	
6324.841	1	1	0	0	0.10627	0.10957	0.2026	0.18073	0.1774	0.088247	0.32081	0.23491	0.067323	0.18663	0.17152	0.39058	0.12081	0.3708	0.16245	0.22917	0.24167	-0.50417	-0.80833	-0.10625	-0.90833	-0.42083	-0.27292	-1.1646	-0.15417	-0.325	-0.89167	-0.0125	-0.7875	-0.76042	-0.21667	-0.91875	92.926	-133.682	-71.473	-13.951	-52.422	51.558	160.884	128.142	-26.565	-97.537	150.419	-85.547	115.233	155.024	170.256	216.523	0.00022548	6.9465e-05	0.00011992	1031.2	4.341e-06	4.0208e-06	1114	215.37	9.9803e-07	2.6506e-06	268.85	76.299	61.048	17.858	2.7092e-06	24.573	0.00029602	0.00032934	8.8653e-05	1014.3	3.5098e-06	3.6037e-06	1099.4	213.73	3.6577e-06	3.6764e-06	267.64	76.771	60.913	17.938	3.5294e-06	25.007	173.115	-90.489	-45.341	-125.630	13.706	10.763	-126.119	-118.622	-57.181	-26.086	-118.423	-112.722	-112.090	-104.188	-29.966	-104.924	-8191	255	
6324.937	1	1	0	0	0.17423	0.235	0.19589	0.27509	0.1692	0.13746	0.078056	0.12205	0.21272	0.1801	0.098095	0.19269	0.39634	0.39204	0.13778	0.27916	-0.033333	-0.4	-1.0417	-0.29167	-0.91875	-0.71458	-0.43333	-1.1688	-0.33542	-0.34792	-1.1646	-0.30417	-0.83958	-0.57083	-0.089583	-0.87708	34.843	-33.441	107.596	-118.839	151.807	-60.013	-51.326	181.380	-72.747	57.803	-92.694	196.528	-135.775	140.898	42.627	213.601	0.00022354	0.00041032	3.7086e-05	1030.4	2.2702e-06	2.4638e-06	1115.9	215.78	1.4265e-06	3.2118e-06	268.82	76.021	60.566	17.591	2.6794e-06	24.672	0.00030611	0.00032967	8.9006e-05	1012.6	3.4911e-06	3.5756e-06	1100.3	213.62	3.5699e-06	3.5679e-06	267.85	76.668	60.754	17.81	3.5214e-06	24.962	176.304	-25.847	18.069	-125.956	-60.183	11.980	-125.897	-118.402	-33.708	71.901	-118.582	-112.520	-112.003	-104.513	26.715	-104.429	-8191	255	
6325.058	1	1	0	0	0.39096	0.1215	0.23392	0.22542	0.173	0.088373	0.26687	0.053515	0.35342	0.067275	0.13998	0.13248	0.23238	0.18385	0.13549	0.08409	-0.25833	-0.2875	-1.1271	-0.21458	-0.59792	-1.0792	-0.25208	-1.0083	-0.46667	-0.21667	-1.2458	-0.24792	-0.51875	-0.93125	-0.079167	-1.0688	131.527	-50.738	-6.550	67.268	153.572	45.781	163.351	-117.968	82.633	16.522	183.107	19.810	201.226	-50.273	-4.148	186.965	0.00022906	0.00034162	0.00010415	1029.7	2.1428e-06	3.1055e-06	1110.9	214.39	2.8188e-06	2.0884e-06	268.95	76.17	60.764	17.626	1.6664e-06	24.293	0.00030537	0.00032571	8.7479e-05	1014.4	3.6586e-06	3.4529e-06	1098.2	213.34	3.6429e-06	3.6856e-06	267.89	76.756	60.799	17.9	3.5372e-06	24.851	176.336	-79.071	-60.769	-125.846	-25.868	-4.217	-125.859	-118.296	-1.447	57.451	-118.556	-112.379	-112.163	-104.619	72.998	-104.803	-8191	255	
6325.152	1	1	0	0	0.14464	0.05923	0.13122	0.21315	0.27117	0.23146	0.25801	0.16657	0.14896	0.11516	0.067104	0.15744	0.22228	0.18506	0.15269	0.32305	-0.0625	-0.17083	-0.89792	-0.34792	-0.47292	-0.96667	-0.20208	-0.99375	-0.50833	-0.21458	-0.97708	-0.3375	-0.45208	-0.97292	-0.066667	-0.82292	-44.819	188.269	26.524	203.005	108.347	-76.962	18.278	148.191	175.472	131.156	84.744	215.903	213.965	156.868	201.173	-110.127	0.00021142	0.00025327	4.9116e-05	1029	1.4714e-06	2.5006e-06	1111.5	214.32	4.6801e-06	4.2776e-06	269.1	76.532	60.476	17.786	1.6362e-06	24.521	0.00030236	0.00032672	8.7785e-05	1014.1	3.6135e-06	3.5966e-06	1099.3	213.37	3.5206e-06	3.5039e-06	267.81	76.915	60.78	17.885	3.5653e-06	24.958	185.840	-33.098	-1.021	-125.874	-79.063	36.074	-126.325	-118.578	-30.681	15.704	-118.671	-112.470	-112.238	-104.714	-16.136	-104.804	-8191	255	
6325.248	1	1	0	0	0.069599	0.08045	0.12699	0.3209	0.25461	0.34025	0.08729	0.18579	0.13804	0.30075	0.044414	0.060337	0.18571	0.19124	0.050309	0.47321	-0.375	-0.075	-0.85417	-0.12917	-0.325	-0.95417	-0.25	-0.84792	-0.71667	-0.19375	-1.1521	-0.43542	-0.32083	-1.0021	-0.38542	-0.81458	135.348	101.590	-52.599	183.810	164.676	8.112	61.438	-125.993	-130.654	16.436	-96.688	199.322	-43.016	146.716	-76.471	186.371	0.00021402	0.00033856	0.00010969	1030.4	1.0033e-06	2.7333e-06	1109.4	215.73	3.6424e-06	2.7362e-06	268.91	75.948	60.317	17.695	2.3937e-06	24.54	0.00030051	0.00032652	8.7993e-05	1014.4	3.5741e-06	3.5392e-06	1097.1	213.27	3.5325e-06	3.5711e-06	267.43	76.684	60.616	17.889	3.4996e-06	24.881	169.947	-15.522	-64.690	-126.436	3.204	37.248	-126.158	-118.585	-30.285	-0.912	-118.616	-112.486	-111.925	-104.345	15.467	-105.119	-8191	255	
6325.369	1	1	0	0	0.14148	0.051584	0.093603	0.31765	0.22878	0.16039	0.3063	0.1572	0.25345	0.067839	0.26731	0.47663	0.075883	0.16553	0.061733	0.048229	-0.46875	-0.1125	-0.90417	-0.66042	-0.041667	-0.97708	-0.33125	-0.67917	-0.8	-0.03125	-1.0438	-0.48333	-0.21458	-1.0542	-0.17292	-0.60833	161.584	-107.601	-28.501	-105.518	217.322	110.752	181.532	-86.341	218.916	23.730	172.326	205.887	-114.219	178.660	91.917	92.655	0.00023101	5.6079e-05	5.5704e-05	1032.1	1.0909e-06	2.6927e-06	1116.4	215.77	3.7019e-06	5.2658e-06	270.97	76.335	60.505	17.697	1.015e-06	24.316	0.00029421	0.00031543	8.7427e-05	1012.4	3.4406e-06	3.3531e-06	1100	213.59	3.446e-06	3.4892e-06	267.72	76.761	60.639	17.882	3.3993e-06	24.855	175.661	-108.558	63.709	-125.782	-5.480	-28.790	-125.787	-118.380	-42.608	26.196	-118.698	-112.725	-111.764	-104.552	7.580	-104.302	-8191	255	
6325.441	1	1	0	0	0.18738	0.12671	0.13362	0.21259	0.19365	0.044427	0.071202	0.083918	0.23747	0.1451	0.21906	0.097028	0.032327	0.12575	0.19899	0.15687	-0.42083	-0.0083333	-0.96875	-0.91667	-0.058333	-1.0708	-0.50208	-0.62083	-0.90208	-0.26667	-0.76875	-0.84375	-0.17708	-0.86667	-0.27917	-0.48333	-4.035	140.452	-80.499	205.713	161.678	-35.287	-103.626	170.067	146.344	-107.330	-94.355	42.627	-87.379	139.815	46.610	95.414	0.00023683	0.00031067	0.0001171	1031.9	4.2709e-06	1.216e-06	1112.9	215.21	1.6527e-06	2.4197e-06	269.34	76.245	60.565	17.773	3.1626e-06	24.592	0.00029437	0.00031673	8.4951e-05	1014.2	3.4554e-06	3.3944e-06	1097.2	213.65	3.2628e-06	3.428e-06	268.09	76.755	60.859	17.896	3.3937e-06	24.985	183.722	-21.678	-52.915	-125.738	-29.873	25.775	-125.832	-118.532	-55.678	27.070	-118.504	-112.630	-111.659	-103.972	6.953	-104.930	-8191	255	
6325.537	1	1	0	0	0.1999	0.24939	0.036163	0.17325	0.21472	0.23612	0.14536	0.35699	0.172	0.2664	0.18498	0.12212	0.1975	0.22828	0.18352	0.09335	-0.49167	-0.16875	-0.625	-0.88958	-0.21875	-1.0938	-0.62292	-0.3625	-1.1063	-0.33542	-0.70625	-0.97708	0.0625	-0.89792	-0.375	-0.41458	146.793	-91.374	-126.528	-102.757	-132.144	36.437	145.240	-108.780	140.966	100.106	-61.929	171.230	180.561	63.634	-129.082	114.720	0.00021899	0.00016629	2.2521e-05	1027.2	2.628e-06	4.1463e-06	1111.8	215.72	2.2362e-06	3.0417e-06	269.77	76.57	60.352	17.701	2.1323e-06	24.511	0.00029488	0.00031347	8.4448e-05	1012.1	3.4366e-06	3.2995e-06	1098.3	213.5	3.4035e-06	3.494e-06	268.06	76.625	60.663	17.87	3.4737e-06	24.922	174.604	12.619	-25.932	-125.743	12.142	30.765	-126.050	-118.432	-13.173	11.933	-118.858	-112.282	-111.879	-104.082	-36.856	-104.726	-8191	255	
6325.633	1	1	0	0	0.18231	0.12742	0.086896	0.081277	0.17075	0.11688	0.25022	0.19477	0.1268	0.17628	0.11003	0.11049	0.3626	0.17496	0.087781	0.27779	-0.75208	-0.27292	-0.50625	-1.0396	-0.13333	-1.0208	-0.72083	-0.23333	-1.2104	-0.26458	-0.80208	-1.0104	-0.20625	-1.1042	-0.64167	-0.21875	-59.975	-16.075	217.269	105.572	-51.060	140.253	212.007	127.752	130.445	-109.630	-100.829	-62.420	102.603	147.226	68.705	176.764	0.000202	0.00016733	7.7362e-05	1034	3.8356e-06	2.2789e-06	1110.9	215.74	3.6685e-06	2.923e-06	269.32	76.205	60.725	17.69	8.9958e-07	24.329	0.00028179	0.00031943	8.3863e-05	1012.8	3.4708e-06	3.4865e-06	1096.9	213.96	3.4287e-06	3.5177e-06	267.81	76.672	60.786	17.855	3.5207e-06	24.823	178.706	-61.301	-26.477	-126.049	-33.466	58.240	-125.980	-118.427	-55.500	15.173	-118.621	-112.442	-112.126	-104.013	24.193	-105.031	-8191	255	
6325.729	1	1	0	0	0.18949	0.059077	0.23281	0.20521	0.15143	0.22005	0.088174	0.22723	0.067492	0.11189	0.51505	0.10141	0.12184	0.14212	0.12601	0.15982	-0.69583	-0.19583	-0.53333	-1.2104	-0.06875	-1.0292	-0.81875	-0.15417	-1.0542	-0.2375	-0.19375	-1.0958	-0.12708	-0.5125	-0.92917	-0.24583	-5.811	54.732	-71.033	210.563	97.623	-113.377	162.613	68.649	161.891	23.765	203.004	210.158	-31.768	43.083	-128.409	-46.287	0.00019386	0.00037771	6.2933e-05	1030.1	1.5351e-06	1.8228e-06	1109.8	216.17	3.371e-06	3.2035e-07	268.12	75.89	60.132	17.602	2.446e-06	24.535	0.0002832	0.00031118	9.0863e-05	1012.4	3.5909e-06	3.4602e-06	1096.4	213.66	3.3485e-06	3.4303e-06	267.2	76.582	60.614	17.855	3.3813e-06	24.891	172.686	-30.537	-45.450	-125.851	31.485	32.581	-125.921	-118.737	-51.230	-27.746	-118.528	-112.621	-112.073	-103.701	14.096	-105.129	-8191	255	
6325.848	1	1	0	0	0.25501	0.17138	0.19087	0.12499	0.16248	0.26289	0.093317	0.13935	0.1076	0.33341	0.26389	0.13413	0.098162	0.51803	0.26467	0.23909	-0.48333	-0.37917	-0.27083	-0.89167	-0.035417	-0.76458	-1.0063	-0.14167	-0.94167	-0.30208	-0.46667	-1.0229	0.014583	-0.53542	-0.79375	-0.20833	39.172	112.116	36.988	189.410	160.436	-67.718	183.739	184.312	-81.385	111.640	78.608	134.787	-13.706	151.777	21.876	-15.649	0.00020213	0.00018371	7.0934e-05	1032.4	2.8399e-06	4.1077e-06	1107.8	214.81	3.2459e-06	3.3727e-06	269.34	76.339	60.319	17.763	1.3113e-06	24.501	0.00028387	0.00031549	8.3626e-05	1013.7	3.5599e-06	3.3928e-06	1095.1	213.39	3.2972e-06	3.3637e-06	267.79	76.806	60.666	17.916	3.2391e-06	24.846	177.797	-78.545	-57.615	-125.762	-43.676	19.662	-125.965	-118.151	-54.381	18.475	-118.515	-112.741	-112.035	-104.050	11.900	-104.800	-8191	255	
6325.944	1	1	0	0	0.14254	0.12906	0.20991	0.19774	0.16911	0.3122	0.33644	0.16772	0.35732	0.29416	0.10093	0.079195	0.038036	0.3198	0.22896	0.15088	-0.66042	-0.56875	0.0041667	-0.98125	-0.25625	-0.53958	-1.3042	-0.27083	-0.84375	-0.62292	-0.15625	-0.86875	-0.20208	-0.4875	-1.0271	-0.31042	57.510	153.190	115.764	-123.573	18.886	98.036	148.990	-97.626	-20.520	-39.373	-106.783	-12.910	-94.975	212.616	-102.409	-50.123	0.00019321	0.00019928	5.2191e-05	1030.8	2.0007e-06	4.3159e-06	1112.5	214.88	2.8088e-06	2.967e-06	269.32	75.943	59.978	17.602	2.3355e-06	24.362	0.00029241	0.0003091	8.4679e-05	1014.7	3.3813e-06	3.4473e-06	1097.3	213.07	3.4045e-06	3.3329e-06	267.91	76.649	60.397	17.849	3.2418e-06	24.84	175.450	-47.871	-60.725	-125.700	-5.046	30.152	-125.929	-118.440	-16.921	6.546	-118.456	-112.278	-111.617	-103.779	27.453	-104.697	-8191	255	
6326.018	1	1	0	0	0.34816	0.15337	0.072174	0.16076	0.13023	0.16362	0.20103	0.028739	0.22652	0.29757	0.36193	0.34096	0.43884	0.087564	0.04401	0.35473	-0.56458	-0.7375	-0.091667	-1.1583	-0.33125	-0.36667	-1.1792	-0.064583	-0.71042	-0.75833	-0.35208	-1.05	-0.54792	-0.20208	-1.0667	-0.15208	19.727	-81.524	186.184	160.283	-1.686	3.771	206.652	110.953	198.405	89.709	205.712	-42.738	202.814	56.824	150.785	195.986	0.00017557	0.00027803	3.6781e-06	1034.1	1.8342e-06	3.1253e-06	1113.8	214.9	1.1134e-06	3.261e-06	270.04	76.084	60.611	17.717	2.1467e-06	24.335	0.00028981	0.00030185	8.3591e-05	1014	3.4031e-06	3.524e-06	1098	213.16	3.247e-06	3.3179e-06	266.88	76.667	60.667	17.864	3.1638e-06	24.852	176.335	-34.944	-54.597	-125.780	5.592	14.145	-125.934	-118.215	-131.085	24.433	-118.587	-112.277	-111.762	-104.016	-9.035	-104.777	-8191	255	
6326.137	1	1	0	0	0.3628	0.18511	0.13387	0.13544	0.15486	0.18954	0.33658	0.16545	0.19339	0.32371	0.27919	0.040841	0.1222	0.11944	0.06738	0.26014	-0.31458	-0.72083	-0.072917	-1.05	-0.48542	-0.24583	-1.1167	-0.29792	-0.81875	-0.92917	-0.0041667	-0.82292	-0.33125	-0.10417	-1.1417	-0.36042	41.114	99.585	114.021	106.426	56.669	179.854	105.224	223.136	-38.811	-91.739	184.447	78.501	-9.036	137.801	147.632	9.114	0.00023291	0.00027459	5.9095e-05	1031.7	3.7697e-07	1.2643e-06	1109.1	213.71	3.3905e-07	4.5819e-06	268.33	76.608	60.279	17.789	2.5571e-06	24.454	0.00028867	0.00031438	8.6472e-05	1013.6	3.4033e-06	3.3446e-06	1095.8	213.17	3.3693e-06	3.2541e-06	267.21	76.664	60.509	17.87	3.2387e-06	24.794	178.335	-74.103	-66.308	-126.030	208.497	-10.559	-126.239	-118.762	-76.292	-12.766	-118.705	-112.328	-111.677	-104.585	50.250	-105.274	-8191	255	
6326.233	1	1	0	0	0.25925	0.29945	0.074812	0.29783	0.12455	0.083547	0.11823	0.26869	0.046301	0.069457	0.14747	0.11723	0.10416	0.22895	0.37404	0.31495	-0.18542	-0.85833	-0.12708	-1.0125	-0.65417	-0.22917	-1.2812	-0.4125	-0.41667	-0.94167	-0.22292	-0.82917	-0.51458	-0.16458	-1.0833	-0.54167	206.495	186.018	218.711	144.956	26.184	-67.969	148.614	56.296	199.968	80.504	-103.200	64.389	-98.980	162.468	7.547	199.854	0.00020365	0.00044654	9.6735e-05	1029.1	3.2279e-06	3.0153e-06	1110.1	213.3	2.5491e-06	4.422e-06	268.85	76.534	60.197	17.516	3.4232e-06	24.409	0.00029523	0.00030088	8.7132e-05	1012.2	3.5353e-06	3.4255e-06	1095.7	212.8	3.4908e-06	3.3409e-06	267.83	76.835	60.551	17.841	3.2605e-06	24.817	180.781	-26.960	-44.195	-125.722	-52.662	-17.198	-125.948	-118.936	-92.354	-13.107	-118.785	-112.787	-111.739	-104.078	-41.867	-105.700	-8191	255	
6326.329	1	1	0	0	0.21009	0.14563	0.092538	0.24028	0.067907	0.10296	0.31904	0.12118	0.09419	0.16404	0.31723	0.10951	0.15443	0.069976	0.19408	0.23588	0.039583	-0.75625	0	-0.98958	-0.73958	-0.0125	-1.2229	-0.43958	-0.26042	-1.1854	-0.1875	-0.7125	-0.70625	-0.225	-0.92083	-0.36875	69.225	39.866	-62.077	158.157	68.052	-7.517	160.356	190.514	5.959	-41.369	206.690	-105.733	208.616	-98.781	203.905	-114.873	0.00020785	0.00036559	7.8228e-05	1027	1.5588e-06	2.0058e-06	1111	214.39	3.4583e-06	1.2892e-06	268.29	76.521	60.33	17.621	2.0748e-06	24.412	0.00030269	0.00029783	8.6241e-05	1011	3.3767e-06	3.4985e-06	1096.4	213	3.6497e-06	3.404e-06	267.1	76.924	60.538	17.832	3.3487e-06	24.811	177.987	-33.823	-60.626	-126.029	3.244	55.207	-125.927	-118.758	-74.002	35.305	-118.626	-112.717	-112.349	-104.224	19.667	-105.615	-8191	255	
6326.449	1	1	0	0	0.078168	0.23339	0.19607	0.23474	0.3048	0.055172	0.18968	0.25588	0.23385	0.24137	0.21369	0.12828	0.15867	0.053438	0.2004	0.13255	-0.06875	-1.0542	-0.11042	-0.87083	-0.83125	-0.064583	-1.0958	-0.59792	-0.041667	-1.1146	-0.2375	-0.47083	-0.77917	-0.20417	-1.0125	-0.68125	202.305	-42.891	63.810	-109.104	158.459	218.112	-133.675	222.029	123.563	-11.502	68.176	-129.405	-65.090	146.828	-76.010	51.662	0.00016317	0.00034704	9.3178e-05	1036.3	2.2179e-06	2.2368e-06	1107.5	213.79	2.8328e-06	3.8184e-06	269.04	75.508	60.393	17.57	3.201e-06	24.411	0.00029517	0.00030123	8.454e-05	1013.2	3.4763e-06	3.3347e-06	1095	212.72	3.3267e-06	3.3547e-06	267.56	76.476	60.531	17.818	3.2329e-06	24.862	183.784	-44.683	-67.943	-125.933	3.481	81.452	-126.273	-118.786	-43.093	37.538	-119.256	-112.430	-111.975	-104.089	12.618	-104.709	-8191	255	
6326.544	1	1	0	0	0.10086	0.10962	0.03546	0.3129	0.12349	0.066252	0.16636	0.22028	0.1325	0.24959	0.27652	0.027617	0.16373	0.0967	0.12716	0.24491	0.28958	-0.7375	-0.26875	-0.34583	-1.0083	-0.24583	-0.91042	-0.61667	-0.16458	-0.93542	-0.21458	-0.53958	-1.0521	-0.15833	-0.68958	-0.77083	108.154	106.661	-107.504	216.377	169.332	-112.827	217.049	147.947	177.305	9.626	167.456	21.855	-29.165	39.171	67.778	-74.786	0.00018831	0.00041427	3.6582e-05	1026.2	2.7713e-06	2.9202e-06	1110.7	214.83	2.1798e-06	3.7039e-06	268.76	76.341	59.624	17.659	2.1649e-06	24.505	0.00029616	0.00029978	8.4291e-05	1011	3.3425e-06	3.3713e-06	1095.7	213.16	3.3828e-06	3.2385e-06	266.94	76.697	60.367	17.824	3.2195e-06	24.828	188.713	-71.667	-19.916	-125.895	12.898	31.502	-126.036	-118.756	-44.902	3.755	-118.756	-112.814	-111.818	-104.289	-16.122	-105.277	-8191	255	
6326.640	1	1	0	0	0.18488	0.24723	0.067011	0.19132	0.27053	0.13097	0.10196	0.13175	0.20339	0.040789	0.21091	0.2291	0.08927	0.22439	0.32368	0.33939	0.39167	-0.88125	-0.26458	-0.36458	-0.99167	-0.10625	-0.8125	-0.89792	-0.16042	-0.86042	-0.39167	-0.33125	-1.05	-0.30833	-0.73125	-0.68333	150.072	38.996	39.894	218.268	-76.410	10.594	159.523	128.781	186.412	175.495	189.585	106.887	189.658	-85.908	59.883	110.535	0.00020581	0.00018112	0.00016382	1028.3	1.0899e-06	4.4504e-06	1110.3	213.8	2.0303e-06	3.213e-06	268.71	76.046	60.603	17.789	3.4743e-06	24.604	0.00029753	0.00029544	8.3985e-05	1012	3.2754e-06	3.4165e-06	1095	212.6	3.322e-06	3.314e-06	267.31	76.637	60.642	17.869	3.3982e-06	24.832	171.882	-35.956	-33.743	-126.013	-8.260	53.572	-126.038	-118.452	7.497	42.746	-118.548	-112.631	-111.905	-104.413	-29.314	-104.605	-8191	255	
6326.738	1	1	0	0	0.02457	0.19763	0.10998	0.39848	0.04535	0.26005	0.18492	0.08229	0.11668	0.39313	0.083234	0.20145	0.059486	0.28412	0.16387	0.34584	0.4125	-0.88958	-0.33333	-0.3125	-1.1125	-0.22708	-0.65625	-1.0417	-0.12083	-0.91667	-0.68125	-0.225	-0.97292	-0.15208	-0.34792	-0.9	-62.084	51.859	39.559	-106.697	111.643	90.223	101.837	183.463	165.405	-110.112	181.838	-93.008	-112.719	-94.812	185.660	144.773	0.00021947	0.0002535	5.6971e-05	1026.2	1.2379e-06	3.9796e-06	1112.2	214.44	2.3188e-06	2.0085e-06	270.19	76.648	60.574	17.712	2.1034e-06	24.44	0.00029276	0.00029158	8.513e-05	1010.5	3.3824e-06	3.396e-06	1097.2	213.08	3.4915e-06	3.3421e-06	267.56	76.828	60.578	17.834	3.3031e-06	24.788	173.471	-20.964	-86.737	-125.711	-28.745	-23.718	-126.110	-118.564	-22.380	-2.656	-118.473	-112.300	-111.975	-104.297	2.769	-104.501	-8191	255	
6326.832	1	1	0	0	0.16615	0.1108	0.31793	0.13942	0.25982	0.276	0.58183	0.16061	0.18235	0.45369	0.27699	0.12286	0.13009	0.24165	0.2211	0.11006	0.31042	-0.9	-0.575	-0.33125	-1.2229	-0.14583	-0.53125	-1.1167	-0.072917	-0.90833	-0.77917	-0.37292	-1.0396	-0.475	-0.32917	-0.90833	0.418	-84.264	137.478	-45.403	40.421	138.544	192.654	-104.838	202.140	206.847	111.925	-89.256	142.709	-119.471	129.232	29.334	0.00022005	0.00030696	9.4836e-05	1031.4	2.7872e-06	2.8576e-06	1114.4	214.87	8.4055e-07	3.4942e-06	267.87	76.205	60.296	17.611	2.0056e-06	24.577	0.0002913	0.00029504	8.4957e-05	1012.3	3.4064e-06	3.3064e-06	1094.9	213.28	3.4563e-06	3.3492e-06	265.89	76.712	60.617	17.838	3.4708e-06	24.827	179.076	-52.311	-22.615	-126.021	-32.108	16.648	-125.793	-118.730	24.076	25.828	-118.788	-112.453	-111.823	-104.446	-44.511	-105.072	-8191	255	
6326.928	1	1	0	0	0.16371	0.2334	0.19425	0.082167	0.11578	0.32963	0.11906	0.014725	0.28669	0.17179	0.13598	0.17383	0.16342	0.14941	0.094158	0.26325	0.24375	-0.60208	-0.70833	-0.022917	-0.98333	-0.41458	-0.50833	-1.1625	-0.11875	-0.81458	-1.0292	-0.18333	-0.8	-0.50625	-0.12708	-0.92083	31.778	218.749	97.246	-34.692	-15.187	-0.808	166.124	-130.689	-26.158	36.931	122.112	201.939	-81.231	172.431	45.073	216.372	0.00021832	0.00024092	7.7162e-05	1029.3	2.1644e-06	4.5616e-06	1108	214.66	1.626e-06	4.6164e-06	267.85	76.105	60.397	17.685	1.6961e-06	24.201	0.00030106	0.00031415	8.7583e-05	1011.7	3.3223e-06	3.4116e-06	1093.7	212.88	3.4997e-06	3.4563e-06	266.9	76.807	60.598	17.84	3.324e-06	24.724	178.407	-42.238	-56.771	-126.139	-56.875	44.553	-126.042	-118.611	-5.156	5.662	-118.594	-112.666	-111.818	-104.317	-52.500	-104.988	-8191	255	
6327.025	1	1	0	0	0.25774	0.14239	0.17418	0.20055	0.1078	0.01753	0.19369	0.053743	0.36877	0.15541	0.044594	0.12853	0.065259	0.15703	0.2238	0.054746	0.025	-0.3875	-0.92708	-0.15	-0.85417	-0.48333	-0.43125	-0.94375	-0.46667	-0.46667	-0.93125	-0.091667	-0.57917	-0.45	-0.14583	-1.0688	180.515	133.031	1.938	211.977	82.801	-58.899	130.355	219.194	-74.919	103.872	-18.217	-131.798	77.021	-132.606	169.373	200.956	0.00021838	0.00017643	6.5077e-05	1025.6	1.3361e-06	2.4619e-06	1107.6	214.16	8.6509e-07	3.1821e-06	269.22	76.024	60.057	17.644	1.2739e-06	24.349	0.0002936	0.0003118	8.0907e-05	1009	3.3308e-06	3.3824e-06	1094.5	212.67	3.3659e-06	3.3674e-06	267.04	76.678	60.479	17.783	3.4127e-06	24.843	181.083	-18.452	-27.524	-125.855	16.793	46.328	-125.942	-118.818	-103.013	17.409	-118.689	-112.778	-111.761	-104.594	-27.145	-104.902	-8191	255	
6327.145	1	1	0	0	0.15794	0.11869	0.11952	0.1473	0.16428	0.19342	0.15836	0.15253	0.039299	0.24065	0.1611	0.27949	0.2747	0.21301	0.11669	0.33137	0.19167	-0.40833	-1.0771	-0.10833	-0.59583	-0.6875	-0.13958	-0.93542	-0.22292	-0.3	-0.95208	-0.022917	-0.63958	-0.91042	0.05	-1.05	-0.986	-69.270	152.438	169.198	75.942	203.591	-59.065	-134.853	194.960	159.885	200.463	-128.241	180.672	89.695	-5.497	-13.273	0.00018722	0.00028321	3.7955e-05	1026.1	3.338e-06	4.0572e-06	1108	214.91	1.9767e-06	4.6482e-06	267.88	76.204	60.124	17.691	1.2194e-06	24.596	0.0002952	0.00032103	8.4771e-05	1010.7	3.482e-06	3.4103e-06	1094.6	212.58	3.4954e-06	3.4079e-06	266.79	76.686	60.559	17.836	3.3835e-06	24.932	168.756	-108.487	-19.068	-125.955	2.509	40.064	-125.840	-118.477	-13.038	18.865	-118.713	-113.045	-112.263	-105.083	-41.101	-105.010	-8191	255	
6327.241	1	1	0	0	0.097572	0.30755	0.064135	0.14267	0.18282	0.27355	0.25816	0.27087	0.63136	0.16876	0.37026	0.084149	0.17372	0.12983	0.17976	0.16672	0.0625	-0.24375	-0.96875	-0.24792	-0.53542	-0.90833	-0.066667	-1.0542	-0.41667	-0.19167	-0.99167	-0.18125	-0.45417	-0.74792	0.175	-0.85833	3.557	149.038	-110.193	221.268	8.486	-102.143	-121.700	-127.178	143.624	-59.037	76.228	-5.878	66.091	159.847	122.817	114.376	0.00017787	0.000209	0.00014061	1025.5	2.5879e-06	7.0372e-07	1109.2	213.88	3.0051e-06	3.9084e-06	267.58	76.056	60.671	17.536	1.9923e-06	24.314	0.00028655	0.00031559	8.6235e-05	1011.1	3.5641e-06	3.3769e-06	1094.4	212.48	3.3698e-06	3.2845e-06	267	76.518	60.602	17.847	3.4024e-06	24.81	175.479	-18.120	-44.650	-126.109	0.922	-83.520	-125.910	-118.503	-41.210	14.611	-118.674	-112.809	-112.045	-104.316	0.207	-105.003	-8191	255	
6327.313	1	1	0	0	0.35575	0.078307	0.091787	0.2089	0.13755	0.2068	0.10891	0.39616	0.10644	0.28597	0.30567	0.093235	0.076317	0.28907	0.10021	0.18598	0.01875	-0.25833	-0.96875	-0.29583	-0.4625	-1.0979	-0.15417	-0.82917	-0.77708	-0.16042	-1.2396	-0.24375	-0.35417	-0.84792	-0.12708	-0.82708	170.514	66.326	210.915	-117.892	-125.991	-34.430	162.746	-126.754	-52.368	163.043	149.738	159.987	140.924	26.621	-50.533	-38.625	0.00023423	0.00033198	5.0503e-05	1030.3	1.6208e-06	3.0182e-06	1109.5	215.66	2.4227e-06	2.0685e-06	268.01	76.128	60.36	17.711	2.6437e-06	24.443	0.0002961	0.00031745	8.4529e-05	1010.1	3.4168e-06	3.3352e-06	1094.3	212.81	3.4274e-06	3.3545e-06	267.16	76.593	60.576	17.826	3.2755e-06	24.852	166.806	-37.054	-11.083	-125.716	-64.325	31.829	-126.214	-118.614	-47.347	10.659	-118.819	-112.693	-112.050	-104.315	39.915	-104.384	-8191	255	
6327.409	1	1	0	0	0.18716	0.1337	0.36299	0.29305	0.19342	0.14215	0.19132	0.27303	0.22324	0.21967	0.21453	0.16977	0.15252	0.068399	0.15509	0.096294	-0.18333	0.077083	-0.85833	-0.42708	-0.31458	-0.9375	-0.25625	-0.69375	-0.69167	0.066667	-1.1229	-0.43333	-0.27708	-0.975	-0.06875	-0.58958	137.943	135.068	168.426	-133.334	150.473	142.479	220.771	222.288	141.430	144.008	209.425	24.555	211.815	-28.160	115.747	55.104	0.00022902	0.00027355	4.1463e-05	1024.5	1.983e-06	2.2438e-06	1105.3	212.88	2.8156e-06	4.2062e-06	269.08	76.195	60.044	17.712	1.1736e-06	24.452	0.00028957	0.00031518	8.2544e-05	1009.7	3.4336e-06	3.2626e-06	1093.5	212.65	3.3465e-06	3.3725e-06	267.07	76.8	60.402	17.856	3.3245e-06	24.903	174.133	-68.090	-91.654	-125.825	-31.933	-5.802	-125.888	-118.392	-15.489	16.181	-118.498	-112.020	-112.049	-103.820	-53.704	-104.711	-8191	255	
6327.530	1	1	0	0	0.16982	0.24359	0.33435	0.45869	0.065844	0.22547	0.21064	0.22311	0.20471	0.2128	0.067724	0.395	0.061721	0.070268	0.20196	0.22471	-0.41875	0.0375	-0.85625	-0.66667	-0.21042	-1.1167	-0.41042	-0.75208	-0.83125	-0.014583	-0.89792	-0.56042	-0.15208	-0.93542	-0.19167	-0.35	122.208	157.636	-88.780	167.112	98.475	-129.629	196.327	181.241	53.232	-74.340	-119.490	-56.712	38.573	178.211	86.953	-130.784	0.00017789	0.00033691	0.00012844	1023.4	2.7828e-07	3.3053e-06	1107.5	213.06	1.7769e-06	3.5115e-06	269.37	75.811	60.37	17.681	2.1838e-06	24.544	0.00028334	0.00030687	8.3973e-05	1007.3	3.3212e-06	3.2073e-06	1093.7	212.26	3.3496e-06	3.2698e-06	267.27	76.558	60.512	17.809	3.2772e-06	24.775	174.895	-62.730	-40.000	-125.904	116.761	52.182	-125.707	-118.349	-18.010	21.455	-118.652	-112.304	-111.930	-104.031	1.129	-104.767	-8191	255	
6327.626	1	1	0	0	0.14795	0.15778	0.22719	0.069247	0.28983	0.22467	0.42947	0.18885	0.1138	0.25894	0.085044	0.045598	0.16842	0.09313	0.16733	0.19039	-0.53542	-0.0625	-0.7625	-0.76875	-0.0375	-0.92708	-0.37292	-0.3875	-0.77083	-0.085417	-0.8875	-0.80417	-0.16458	-0.97708	-0.38333	-0.325	55.545	172.617	-59.717	58.662	163.064	-63.045	147.574	109.208	-77.436	80.596	78.019	179.446	60.323	152.163	-20.330	111.440	0.0001826	0.00038381	7.2113e-05	1022.7	2.3838e-06	4.516e-06	1105.5	213.87	2.6891e-06	2.8169e-06	268.37	75.996	60.191	17.518	9.7245e-07	24.435	0.00028588	0.00030529	8.6102e-05	1008.3	3.4103e-06	3.4031e-06	1091.5	212.55	3.3711e-06	3.4291e-06	266.59	76.467	60.242	17.756	3.4071e-06	24.767	169.718	-55.395	-86.126	-125.961	11.399	47.627	-125.926	-118.479	-61.882	33.619	-118.422	-112.277	-111.798	-104.237	30.717	-104.749	-8191	255	
6327.722	1	1	0	0	0.12447	0.21491	0.1858	0.21503	0.071181	0.047945	0.079105	0.14022	0.1267	0.20328	0.29456	0.3329	0.0821	0.22616	0.088992	0.19953	-0.66667	-0.16667	-0.57083	-0.81458	-0.04375	-0.99792	-0.59583	-0.38542	-1.1063	-0.17083	-0.66042	-0.84167	-0.066667	-0.99583	-0.48125	-0.25417	-21.364	218.691	178.827	151.510	67.843	50.832	216.849	10.644	-130.474	-52.053	144.871	144.267	66.690	-99.225	1.089	142.174	0.00018984	0.00022749	8.5794e-05	1029.1	1.8911e-06	2.544e-06	1106.4	214.48	2.2653e-06	3.2577e-06	268.65	76.256	60.516	17.722	8.9578e-07	24.586	0.00028865	0.00032116	8.8179e-05	1010.7	3.4539e-06	3.3156e-06	1092.1	212.55	3.3709e-06	3.2682e-06	266.78	76.694	60.496	17.872	3.2503e-06	24.924	169.290	-48.355	-42.726	-125.604	-36.630	44.099	-126.016	-118.509	-26.633	30.653	-118.669	-112.577	-111.793	-104.442	24.460	-104.627	-8191	255	
6327.818	1	1	0	0	0.27783	0.043768	0.2972	0.18689	0.23185	0.26957	0.23082	0.13342	0.12988	0.1987	0.083757	0.20835	0.13199	0.11267	0.10679	0.12979	-0.41875	-0.13333	-0.66875	-0.96667	-0.15208	-1.0271	-0.77708	-0.3875	-1.0917	-0.31042	-0.58542	-0.84375	-0.09375	-0.88333	-0.66667	-0.24583	201.731	7.558	109.529	204.754	-133.311	160.241	67.137	-110.867	-59.290	76.846	129.883	-100.502	30.901	212.025	173.732	-80.849	0.00018742	0.00042371	3.3784e-05	1025	1.7798e-06	1.0947e-06	1104.6	214.39	2.3007e-06	2.8726e-06	269.93	76.603	60.156	17.574	1.9699e-06	24.288	0.00027986	0.00031508	8.3724e-05	1007.6	3.4815e-06	3.3396e-06	1091.4	212.72	3.3402e-06	3.3156e-06	267.05	76.706	60.384	17.803	3.2193e-06	24.797	183.071	-27.183	-47.667	-125.689	-2.284	-38.055	-125.779	-118.369	7.623	48.157	-118.420	-112.321	-111.789	-103.693	6.569	-104.570	-8191	255	
6327.913	1	1	0	0	0.33418	0.19399	0.2006	0.32783	0.20919	0.10912	0.18782	0.24787	0.25857	0.10078	0.18497	0.0559	0.29384	0.21587	0.097858	0.063864	-0.67917	-0.26667	-0.37708	-0.98333	-0.09375	-0.67292	-0.79375	-0.060417	-0.78333	-0.37292	-0.58958	-0.84792	-0.21667	-0.75417	-0.675	-0.070833	-44.177	92.649	-37.223	122.149	143.340	-100.622	-112.833	-135.495	-125.103	-107.062	141.043	186.376	129.374	206.073	126.690	87.581	0.00016839	0.00042336	6.2062e-05	1023.3	9.7919e-07	2.3578e-06	1108.4	214.69	2.7813e-06	3.0606e-06	268.72	76.317	60.636	17.737	3.0681e-06	24.457	0.00028374	0.00030813	8.3418e-05	1007.8	3.543e-06	3.3598e-06	1092.7	213.09	3.3139e-06	3.4471e-06	266.66	76.527	60.459	17.839	3.4098e-06	24.8	192.237	-61.358	-17.699	-126.080	1.941	18.086	-125.766	-118.278	-17.484	50.262	-118.342	-112.380	-111.917	-103.908	-8.860	-105.071	-8191	255	
6328.011	1	1	0	0	0.032221	0.15309	0.31152	0.29535	0.17786	0.13988	0.18653	0.037676	0.12359	0.095014	0.10194	0.42383	0.20273	0.075441	0.10647	0.35404	-0.32292	-0.20417	-0.19375	-1.2375	0.014583	-0.67292	-0.99792	-0.089583	-0.80208	-0.56458	-0.21667	-1.0646	-0.14167	-0.58958	-0.88542	-0.079167	208.518	-13.433	129.471	-122.590	-12.207	-86.181	130.118	98.245	-75.059	15.458	-24.894	208.375	185.355	81.312	62.557	-93.541	0.00019728	0.00021788	8.6724e-05	1024.9	3.403e-06	1.2241e-06	1107.1	214.52	2.0955e-06	4.2926e-06	268.66	75.88	60.343	17.665	3.7136e-06	24.274	0.00029251	0.00030953	8.6316e-05	1008.4	3.3891e-06	3.2695e-06	1093.4	212.7	3.277e-06	3.3059e-06	266.85	76.637	60.551	17.823	3.2734e-06	24.748	173.224	-60.618	-34.382	-125.628	-7.371	23.831	-125.683	-118.396	-38.366	15.596	-118.298	-112.772	-111.934	-103.533	4.375	-105.132	-8191	255	
6328.129	1	1	0	0	0.2109	0.16731	0.056778	0.059892	0.14781	0.1599	0.1614	0.43177	0.16254	0.35483	0.060538	0.11807	0.26129	0.13908	0.11784	0.10126	-0.5625	-0.48958	-0.0875	-1.0604	-0.34792	-0.43542	-1.2021	-0.19792	-0.88333	-0.73125	-0.21875	-1.0229	-0.36458	-0.3	-0.97708	-0.25417	-116.321	190.106	-79.799	34.749	40.962	39.883	173.093	193.434	27.460	-11.104	-52.667	4.864	52.967	164.243	57.977	-29.352	0.00017206	0.00013641	0.00010822	1031	3.2564e-06	1.1486e-06	1107.7	214.12	2.2039e-06	5.2572e-06	268.68	75.828	60.2	17.476	4.4246e-06	24.4	0.00028528	0.00030755	8.4181e-05	1010.2	3.3545e-06	3.3918e-06	1092.2	212.85	3.3035e-06	3.2659e-06	267.42	76.58	60.466	17.788	3.2795e-06	24.822	184.107	-59.303	-26.241	-125.829	3.947	22.023	-125.766	-118.189	-44.015	48.593	-118.183	-112.645	-111.724	-104.074	-17.751	-104.380	-8191	255	
6328.226	1	1	0	0	0.16881	0.071544	0.058194	0.2434	0.036685	0.2194	0.32629	0.047556	0.1212	0.20131	0.18534	0.084825	0.092054	0.20936	0.090714	0.097164	-0.41042	-0.85417	-0.025	-1.0646	-0.44583	-0.42292	-1.2062	-0.20417	-0.9875	-0.91042	-0.2125	-1.0396	-0.37708	-0.39375	-0.97917	-0.33958	59.744	-134.064	80.677	213.080	50.456	-37.972	122.255	103.861	-74.048	222.956	-38.427	-101.645	-43.463	-114.874	215.191	135.567	0.00022221	0.00020354	9.5705e-05	1025	2.3641e-06	4.3414e-06	1107.6	214.12	2.5816e-06	1.8108e-06	269.62	76.077	60.285	17.588	1.8769e-06	24.534	0.00028605	0.00028952	8.4228e-05	1008.8	3.2434e-06	3.364e-06	1094	212.66	3.2394e-06	3.2631e-06	267.07	76.69	60.491	17.8	3.1309e-06	24.8	172.960	-41.360	-24.352	-125.461	-10.623	-10.571	-125.790	-118.324	-38.349	50.194	-118.147	-112.100	-111.901	-104.032	27.226	-104.772	-8191	255	
6328.322	1	1	0	0	0.068688	0.18983	0.18653	0.29882	0.14372	0.27691	0.23245	0.07896	0.11474	0.069637	0.17036	0.32161	0.35022	0.083617	0.25635	0.086062	-0.21667	-0.89167	-0.11875	-0.85833	-0.65417	-0.30208	-1.1313	-0.34375	-0.5125	-1.0333	0.052083	-1.1208	-0.53125	-0.14792	-1.0604	-0.375	58.840	142.070	84.419	-131.170	-78.305	38.751	-52.434	-129.744	-23.973	44.139	216.606	152.322	-56.273	-16.608	112.334	7.553	0.00019537	0.00046262	3.1788e-05	1026.5	2.1488e-06	2.6142e-06	1109.2	215.21	1.5768e-06	5.325e-06	268.13	75.959	59.714	17.751	1.629e-06	24.42	0.00028796	0.00029904	8.6096e-05	1009.1	3.3046e-06	3.3405e-06	1093.5	212.99	3.3022e-06	3.2597e-06	266.98	76.599	60.301	17.848	3.193e-06	24.835	176.718	3.448	-9.811	-125.676	-38.118	29.452	-125.787	-118.374	-38.818	20.205	-118.647	-112.252	-111.956	-104.032	1.409	-104.497	-8191	255	
6328.418	1	1	0	0	0.023602	0.41051	0.10996	0.20446	0.14622	0.2276	0.36779	0.1904	0.081319	0.14147	0.19027	0.11848	0.32675	0.16518	0.27629	0.13017	-0.3125	-0.8875	-0.0125	-1.0208	-0.65208	-0.26875	-1.1104	-0.29375	-0.59583	-1.1333	-0.15	-0.6625	-0.78333	-0.15417	-0.99167	-0.32708	-2.332	-128.501	84.782	-135.553	69.267	44.007	195.067	220.441	-25.901	-32.100	-113.869	-62.600	203.358	-52.035	204.576	94.705	0.00021522	0.00029906	3.283e-05	1029.9	3.2098e-06	2.2752e-06	1109.3	214.85	6.3411e-07	9.3825e-07	269.22	76.222	60.075	17.777	1.1105e-06	24.271	0.00028841	0.0002998	8.3655e-05	1010.3	3.204e-06	3.2366e-06	1094	212.69	3.3094e-06	3.1943e-06	267.38	76.429	60.351	17.814	3.2844e-06	24.76	176.217	-56.673	-32.712	-125.508	1.910	51.104	-125.917	-118.181	73.125	94.441	-118.449	-112.151	-111.765	-103.698	71.019	-104.720	-8191	255	
6328.539	1	1	0	0	0.03886	0.20592	0.10595	0.52525	0.18632	0.26432	0.23198	0.32703	0.090843	0.10031	0.25982	0.2126	0.12182	0.13608	0.1684	0.087755	-0.11042	-1.0875	-0.04375	-0.82708	-0.89792	-0.33542	-1.4104	-0.53542	-0.3625	-1.45	-0.18958	-0.64167	-1.0292	-0.20833	-0.89792	-0.66875	75.016	17.625	111.929	178.524	112.249	172.553	154.509	155.202	162.422	-123.487	165.668	60.537	178.523	137.163	120.208	181.457	0.00018462	0.00024399	7.0703e-05	1027	2.3186e-06	4.7691e-06	1109.6	213.63	3.0231e-06	3.4387e-06	267.62	75.562	60.116	17.668	2.5371e-06	24.403	0.00028103	0.00029814	8.2978e-05	1009.3	3.3255e-06	3.3672e-06	1094.1	212.14	3.3543e-06	3.2889e-06	266.28	76.556	60.392	17.811	3.2006e-06	24.771	180.180	-33.018	-12.479	-125.493	-8.889	39.986	-125.454	-118.336	-4.855	-4.167	-118.253	-112.273	-112.011	-103.737	0.978	-104.430	-8191	255	
6328.610	1	1	0	0	0.29828	0.1705	0.30983	0.15054	0.27828	0.16754	0.26421	0.25896	0.33134	0.10033	0.11743	0.069705	0.11778	0.25091	0.31126	0.19072	0.13125	-1.0521	-0.054167	-0.70417	-0.8	-0.0375	-1.1771	-0.47292	-0.029167	-1.1396	-0.13958	-0.575	-0.89792	-0.091667	-0.90208	-0.71667	72.556	40.622	140.086	214.281	-32.777	189.609	109.568	211.462	-54.081	84.738	186.865	136.279	172.070	-119.834	37.457	26.363	0.00017007	0.00015133	5.5823e-05	1025.1	4.3234e-06	2.3638e-06	1109	213.63	2.6345e-06	3.4611e-06	268.9	76.206	60.175	17.643	3.8408e-06	24.467	0.00029207	0.00030141	8.2857e-05	1009.1	3.3242e-06	3.3029e-06	1091.5	212.11	3.3035e-06	3.1943e-06	266.75	76.655	60.35	17.835	3.2131e-06	24.854	173.482	-49.117	-59.428	-125.550	-12.118	40.873	-125.608	-118.092	-9.177	20.630	-118.411	-112.009	-111.785	-103.810	48.737	-104.882	-8191	255	
6328.706	1	1	0	0	0.14392	0.22833	0.19998	0.23678	0.33805	0.147	0.40555	0.045201	0.2703	0.01816	0.050684	0.12147	0.10866	0.19567	0.21189	0.077913	0.39583	-1.0771	-0.29583	-0.69583	-0.97292	-0.0041667	-1.0354	-0.89583	-0.125	-0.95	-0.37708	-0.41458	-1.1354	-0.16875	-0.625	-0.72083	-71.357	-36.105	220.319	209.666	48.109	221.918	-95.125	111.315	74.646	15.354	-62.675	185.808	11.902	56.304	-97.283	209.508	0.00022344	0.00028691	5.7142e-05	1022.8	1.8302e-06	1.8379e-06	1105.3	214.52	4.6116e-06	2.4433e-06	266.85	75.828	60.62	17.506	1.3377e-06	24.355	0.00027996	0.00028878	8.3447e-05	1007.2	3.2687e-06	3.3361e-06	1092.5	212.41	3.2752e-06	3.2834e-06	266.01	76.513	60.468	17.792	3.2423e-06	24.77	174.502	-63.400	-13.791	-125.572	-24.234	52.473	-125.572	-118.357	-38.875	-8.809	-118.352	-112.097	-111.790	-104.165	-44.060	-105.015	-8191	255	
6328.825	1	1	0	0	0.32473	0.18155	0.062396	0.15899	0.057745	0.090837	0.32165	0.37392	0.25709	0.10676	0.17832	0.18832	0.19985	0.15516	0.20024	0.28945	0.17083	-0.91458	-0.60208	-0.53125	-0.98333	-0.25833	-0.87917	-0.89375	0.1	-0.99167	-0.68125	-0.4375	-1.0792	-0.14583	-0.56667	-0.96458	-34.394	5.545	24.332	123.558	-123.603	161.939	196.210	191.313	-8.610	-54.115	-135.233	49.075	167.186	202.219	217.515	-116.228	0.0002187	0.00029721	0.00015843	1023.2	2.0958e-06	2.1221e-06	1105.8	213.26	1.6909e-06	2.328e-06	268.03	76.366	59.709	17.666	2.9808e-06	24.483	0.00029478	0.00028529	8.008e-05	1006.8	3.131e-06	3.3013e-06	1091.7	212.28	3.2935e-06	3.1646e-06	266.65	76.562	60.399	17.856	3.1411e-06	24.829	179.352	-59.383	-23.738	-126.027	13.185	5.289	-126.088	-118.842	-4.902	36.026	-119.018	-112.783	-112.117	-104.414	-12.484	-104.670	-8191	255	
6328.921	1	1	0	0	0.21097	0.44775	0.22672	0.12462	0.46205	0.075906	0.23811	0.12099	0.20346	0.11509	0.034731	0.18928	0.06716	0.042795	0.18461	0.2335	0.21875	-0.93958	-0.52917	-0.2125	-0.90625	-0.11875	-0.63125	-0.78333	0.01875	-0.95833	-0.76667	-0.17917	-1.0479	-0.27083	-0.54583	-1.1604	-116.042	194.998	105.225	206.497	210.379	109.199	-113.321	-57.755	141.389	-85.486	148.208	158.126	-93.434	150.824	96.506	111.602	0.0002051	0.00023328	7.8495e-05	1025.4	3.3517e-06	1.8052e-06	1106.3	213.81	2.2882e-06	5.9894e-06	267.06	75.972	60.253	17.591	2.4155e-06	24.491	0.00028551	0.00029053	7.9843e-05	1007.2	3.2643e-06	3.0708e-06	1093.1	212.11	3.292e-06	3.1941e-06	265.7	76.544	60.435	17.777	3.1498e-06	24.796	171.061	-73.903	-52.822	-126.013	-11.503	77.734	-126.103	-118.596	-45.766	21.489	-118.799	-112.876	-111.928	-104.245	1.719	-105.188	-8191	255	
6329.018	1	1	0	0	0.13818	0.14991	0.071061	0.29224	0.25208	0.12486	0.18806	0.19209	0.12964	0.099507	0.13229	0.12173	0.069285	0.11082	0.31036	0.19265	0.1625	-0.64583	-0.57083	-0.31667	-1.0896	-0.36667	-0.5625	-1.1729	-0.12917	-0.80833	-0.67708	-0.1875	-1.0854	-0.34583	-0.37083	-1.1958	-15.068	148.752	143.075	165.274	80.037	-31.452	156.047	128.742	220.649	-22.094	155.503	-136.162	-105.876	166.423	-104.985	197.201	0.00023534	0.00026011	1.8064e-05	1020.2	6.5977e-07	3.0351e-06	1108.9	213.65	3.1622e-06	5.7825e-06	268.84	76.415	60.531	17.552	1.6918e-06	24.38	0.00028398	0.00028659	8.3701e-05	1007	3.2103e-06	3.1891e-06	1090.7	212.11	3.2342e-06	3.0101e-06	266.48	76.489	60.344	17.787	3.2801e-06	24.771	169.169	-61.456	11.861	-125.842	26.248	-0.985	-126.036	-118.825	-34.140	27.927	-118.895	-112.367	-112.038	-104.384	-15.708	-104.946	-8191	255	
6329.114	1	1	0	0	0.17655	0.20395	0.058607	0.094828	0.2289	0.25735	0.11089	0.1107	0.074318	0.076766	0.052632	0.17752	0.1292	0.24696	0.16608	0.23754	0.29583	-0.74167	-0.76458	-0.27083	-0.8375	-0.375	-0.39375	-1.1958	-0.21458	-0.61875	-1.0208	-0.09375	-0.88958	-0.49375	-0.12083	-1.1042	97.188	38.073	-84.985	139.234	-104.688	-0.829	66.408	-117.905	218.966	187.191	95.605	-115.265	-113.487	137.026	-28.378	191.332	0.0002001	0.00032816	4.398e-05	1022	2.2363e-06	5.8144e-06	1104	214.41	3.9234e-06	6.0056e-06	267.62	75.659	60.54	17.686	1.4664e-06	24.438	0.00028151	0.00028822	8.0219e-05	1007.2	3.2177e-06	3.3094e-06	1090.4	212.47	3.2009e-06	3.2274e-06	265.8	76.366	60.488	17.782	3.2432e-06	24.762	182.157	-25.013	-56.400	-125.923	35.748	19.113	-126.270	-118.523	-32.402	10.621	-118.347	-112.569	-111.756	-104.836	-3.961	-104.731	-8191	255	
6329.210	1	1	0	0	0.20362	0.17181	0.1368	0.26079	0.052997	0.28852	0.18616	0.22691	0.11296	0.23127	0.077875	0.11536	0.096989	0.06273	0.12956	0.35366	0.12708	-0.46042	-0.85417	-0.064583	-0.90833	-0.575	-0.2875	-0.89792	-0.39583	-0.25833	-1.1	-0.18125	-0.79583	-0.63125	-0.24792	-1.0583	26.280	87.500	-52.944	185.942	-33.606	92.042	211.066	129.133	51.664	200.712	84.833	201.854	20.585	59.900	-104.675	-103.680	0.00017509	0.00040344	7.7891e-05	1025.5	2.7888e-06	2.794e-06	1108.7	213.57	2.5717e-06	2.9317e-06	268.98	76.224	60.081	17.636	1.9017e-06	24.371	0.0002848	0.00029937	8.2435e-05	1007.4	3.2371e-06	3.2605e-06	1092.5	211.79	3.3224e-06	3.1692e-06	266.03	76.385	60.444	17.792	3.1647e-06	24.833	163.435	-37.956	-31.110	-126.032	-0.977	14.347	-126.014	-118.608	1.517	-1.736	-118.561	-112.946	-111.797	-104.285	13.668	-104.731	-8191	255	
6329.306	1	1	0	0	0.14012	0.13851	0.46423	0.24119	0.05111	0.093436	0.090397	0.28682	0.1504	0.15963	0.16458	0.045467	0.22387	0.059281	0.038321	0.30846	0.23958	-0.34583	-0.92917	-0.1625	-0.81458	-0.70417	-0.1	-0.85	-0.2875	-0.29792	-1.2	-0.18125	-0.74167	-0.94167	0	-0.96667	-98.278	212.596	-65.158	-83.981	-134.968	129.706	171.904	118.611	-38.217	147.286	121.120	-78.632	-120.751	148.924	-103.147	211.888	0.00023345	0.00018545	3.5391e-05	1025.5	2.8706e-06	2.4453e-06	1105.8	213.91	3.1891e-06	3.1703e-06	269.4	75.763	60.267	17.66	2.3712e-06	24.369	0.0002879	0.00029537	7.6627e-05	1006.4	3.1691e-06	3.1417e-06	1092.2	212.41	3.2826e-06	3.1273e-06	266.47	76.42	60.362	17.773	3.1857e-06	24.718	186.707	-26.869	-21.143	-125.858	-22.500	1.307	-126.062	-118.324	-30.456	44.440	-118.621	-112.260	-112.203	-104.104	7.414	-105.081	-8191	255	
6329.402	1	1	0	0	0.1981	0.21073	0.18744	0.23031	0.040691	0.18394	0.052701	0.39582	0.30237	0.22886	0.0914	0.052783	0.28187	0.33018	0.22444	0.19694	0.089583	-0.22292	-0.94583	-0.51667	-0.6375	-0.92292	-0.23333	-0.91875	-0.475	-0.20208	-1.1479	-0.38958	-0.36042	-0.92708	-0.11875	-0.825	166.932	23.910	33.585	201.460	-125.410	-82.180	72.702	183.982	104.102	150.439	118.028	78.429	-106.153	110.975	161.480	84.366	0.00019235	0.00018488	5.413e-05	1021.6	5.7237e-07	3.2378e-06	1106.3	213.14	2.3305e-06	2.5046e-06	267.91	76.125	60.269	17.604	3.3408e-06	24.417	0.0002852	0.00028606	7.7807e-05	1006	3.1789e-06	3.2868e-06	1090.8	212.06	3.2657e-06	3.334e-06	266.66	76.457	60.337	17.76	3.2708e-06	24.74	175.001	-51.864	-42.993	-125.681	74.632	33.769	-125.889	-118.258	18.259	82.548	-118.729	-112.300	-111.968	-104.038	-31.331	-104.636	-8191	255	
6329.498	1	1	0	0	0.040566	0.06283	0.26559	0.40296	0.024681	0.11599	0.4078	0.12887	0.22192	0.029239	0.096339	0.14248	0.064205	0.1436	0.099898	0.10325	-0.15417	-0.41458	-0.99167	-0.28333	-0.37083	-1.0938	-0.29583	-0.88542	-0.48125	-0.17917	-1.0438	-0.31875	-0.42292	-0.94167	-0.079167	-0.85208	191.553	57.364	173.572	104.102	-38.093	5.869	119.755	-125.509	19.012	90.539	110.054	133.498	91.554	-9.589	43.943	-103.279	0.00021186	0.00026514	7.7667e-05	1022.7	3.6142e-06	2.0103e-06	1103.4	214.46	2.9873e-06	3.9322e-06	268.04	75.975	60.416	17.643	3.0752e-06	24.564	0.00028357	0.00030481	7.923e-05	1006.1	3.1709e-06	3.203e-06	1089.5	212.37	3.2233e-06	3.2187e-06	266.42	76.423	60.682	17.799	3.1712e-06	24.8	168.380	-52.403	-41.025	-125.711	3.904	34.656	-125.833	-118.350	-32.915	-6.538	-118.538	-111.852	-111.584	-104.390	22.374	-104.566	-8191	255	
6329.619	1	1	0	0	0.26787	0.062542	0.21976	0.38576	0.029307	0.054071	0.15803	0.15628	0.15847	0.069866	0.33944	0.14748	0.18656	0.35141	0.18366	0.22871	-0.35625	-0.066667	-0.86667	-0.45208	-0.225	-1.0625	-0.42083	-0.76458	-0.84167	-0.1125	-1.1646	-0.64792	-0.26042	-0.93125	0	-0.76875	11.101	-115.584	-100.151	-116.493	63.773	-84.055	179.778	79.421	25.635	-30.420	178.184	34.536	-67.343	203.519	184.744	178.131	0.00020631	0.00033421	0.00010529	1022.1	2.7758e-06	1.5378e-06	1105.1	212.5	6.2524e-07	3.4979e-06	266.73	76.091	60.242	17.614	2.382e-06	24.414	0.00028334	0.00029684	8.0427e-05	1006.5	3.4144e-06	3.1882e-06	1089.5	212.16	3.2972e-06	3.3333e-06	265.39	76.512	60.318	17.801	3.2824e-06	24.808	178.425	-78.528	-67.160	-125.630	-22.784	-19.132	-125.977	-118.385	-128.493	15.909	-118.253	-112.549	-111.585	-104.173	4.210	-104.644	-8191	255	
6329.713	1	1	0	0	0.19996	0.030918	0.069359	0.26404	0.2662	0.20329	0.34885	0.056429	0.14638	0.1805	0.07284	0.16777	0.13466	0.19299	0.10997	0.10708	-0.59583	0.064583	-1.0812	-0.73333	-0.09375	-1.0583	-0.48542	-0.56875	-0.94167	-0.19375	-1.0396	-0.675	-0.15625	-1.1708	-0.39167	-0.42708	-83.038	64.824	3.845	-131.314	-53.423	-94.754	207.401	-9.895	100.688	64.206	-0.942	-24.591	60.651	-99.916	-102.495	-102.940	0.00025069	0.00023714	4.9719e-05	1026.3	6.6307e-07	4.4717e-06	1106.5	213.86	3.3172e-06	2.8737e-06	267.63	76.127	60.097	17.661	2.6093e-06	24.484	0.00028267	0.00030442	8.3152e-05	1005.9	3.3567e-06	3.2025e-06	1090.6	212.02	3.2898e-06	3.3476e-06	266.05	76.417	60.257	17.812	3.2648e-06	24.796	175.361	-26.020	-19.338	-125.889	-65.200	43.282	-125.673	-118.383	-25.856	2.538	-118.076	-112.309	-111.532	-104.280	56.661	-104.402	-8191	255	
6329.811	1	1	0	0	0.19115	0.04582	0.10479	0.4121	0.33908	0.13811	0.24095	0.097257	0.3172	0.24231	0.11419	0.042251	0.19067	0.28191	0.069443	0.30658	-0.54375	-0.095833	-0.74792	-0.72917	-0.15	-1.0167	-0.48125	-0.63958	-1.1292	-0.13333	-0.98125	-0.95833	-0.24375	-1.1479	-0.275	-0.37917	198.764	55.221	48.138	-122.392	-50.619	119.230	116.933	183.747	43.905	71.650	159.078	218.273	75.447	151.877	181.690	160.803	0.00019415	0.00015949	0.00010445	1026.2	1.6504e-06	6.1933e-07	1102.2	213.95	2.5348e-06	1.3432e-06	268.69	75.473	60.173	17.673	1.3842e-06	24.22	0.00028432	0.00029849	8.1202e-05	1007.4	3.5196e-06	3.2939e-06	1090.7	212.25	3.2861e-06	3.3366e-06	266.4	76.312	60.383	17.821	3.2518e-06	24.808	174.917	-55.919	-49.129	-125.647	-91.156	104.710	-125.825	-118.425	-37.931	-40.867	-118.287	-112.669	-111.650	-103.654	-32.739	-104.769	-8191	255	
6329.906	1	1	0	0	0.13606	0.15496	0.10439	0.093675	0.2549	0.23213	0.38378	0.18059	0.17951	0.089344	0.034623	0.17352	0.097302	0.11177	0.086005	0.086885	-0.74167	0.075	-0.58125	-0.83958	-0.0125	-0.82292	-0.46875	-0.4125	-1.1542	-0.23958	-0.67917	-1.0521	-0.11458	-1.0438	-0.55625	-0.16458	-21.681	177.075	167.330	49.875	-83.612	33.303	221.716	-117.240	-116.447	216.956	176.820	-95.355	21.963	-134.193	113.607	44.248	0.00019776	0.0003166	0.00012478	1021.6	7.5935e-07	3.3985e-06	1104	214.5	2.4298e-06	3.0877e-06	269.46	75.818	60.164	17.651	1.4578e-06	24.316	0.00028658	0.00031289	8.2828e-05	1005.8	3.3471e-06	3.2663e-06	1089.3	212.53	3.2368e-06	3.3494e-06	266.25	76.572	60.3	17.842	3.2732e-06	24.731	168.918	-33.007	-56.825	-125.512	-59.087	42.502	-126.100	-118.412	-23.030	-4.350	-118.222	-112.298	-111.401	-104.337	-8.255	-105.007	-8191	255	
6330.002	1	1	0	0	0.11985	0.14335	0.11689	0.045042	0.15647	0.2466	0.25294	0.073362	0.13967	0.047997	0.10405	0.15034	0.35029	0.19986	0.044308	0.047435	-0.76875	-0.027083	-0.61042	-1.1917	-0.079167	-1.0042	-0.83333	-0.21458	-1.1458	-0.34792	-0.70208	-1.025	-0.125	-0.75	-0.7125	-0.2875	-113.590	177.567	-11.945	191.445	11.151	103.024	200.294	167.157	-18.897	219.759	184.983	-19.208	222.540	-55.037	144.782	156.350	0.00023519	0.00028327	6.1753e-05	1019.7	3.0706e-07	2.9899e-06	1099.3	214.17	2.8276e-06	5.1652e-06	267.52	75.485	60.04	17.698	2.4653e-06	24.419	0.00028727	0.0003058	8.299e-05	1004	3.4619e-06	3.2656e-06	1088.5	212.17	3.2257e-06	3.3405e-06	266.53	76.405	60.322	17.835	3.2797e-06	24.756	179.073	-87.979	-54.701	-125.928	160.502	28.621	-125.679	-118.263	-21.496	39.789	-118.400	-111.977	-111.831	-103.836	-15.320	-104.499	-8191	255	
6330.098	1	1	0	0	0.11084	0.22154	0.21047	0.25448	0.1425	0.037196	0.21556	0.22919	0.27368	0.093896	0.20236	0.037643	0.15139	0.2279	0.086378	0.078829	-0.63958	-0.40625	-0.39583	-1.1667	0.0625	-0.76042	-0.85208	-0.37917	-1.1271	-0.46458	-0.61875	-1.1646	-0.19375	-0.75833	-0.66875	-0.13542	172.064	27.111	3.717	200.433	208.466	-110.651	216.081	206.219	61.474	-120.691	119.712	89.816	58.426	-21.310	-125.689	53.378	0.00019605	0.00031529	0.00011686	1026.1	5.3842e-07	3.6748e-06	1103.6	213.6	1.2532e-06	2.0532e-06	268.79	76.074	60.059	17.752	2.1897e-06	24.343	0.0002858	0.00030145	8.4442e-05	1007.2	3.4203e-06	3.3672e-06	1088.6	212.07	3.2978e-06	3.1814e-06	266.11	76.387	60.41	17.828	3.2824e-06	24.732	169.498	-27.703	-29.093	-125.879	4.322	16.427	-125.672	-118.352	-39.565	11.495	-118.350	-112.184	-111.905	-103.763	-5.380	-104.076	-8191	255	
6330.219	1	1	0	0	0.33324	0.084253	0.1595	0.17869	0.10929	0.23783	0.19023	0.25999	0.26264	0.35524	0.17074	0.26631	0.024743	0.11981	0.1394	0.083048	-0.60833	-0.44167	-0.25833	-1.2167	-0.095833	-0.57083	-1.0333	-0.20417	-0.8	-0.525	-0.4125	-1.0146	-0.23125	-0.51458	-0.8875	-0.14375	-120.680	-28.041	148.035	169.548	54.140	-34.069	165.454	204.687	26.299	148.768	113.011	-101.233	-2.638	121.036	57.348	-117.357	0.0002086	0.00029163	0.00012658	1023.2	3.3921e-06	3.3239e-06	1100.9	214.06	1.7836e-06	1.6174e-06	267.28	75.994	60.484	17.745	3.0659e-06	24.271	0.00028575	0.00030506	8.6108e-05	1006.6	3.3495e-06	3.3432e-06	1087.6	212.17	3.2026e-06	3.3448e-06	265.75	76.485	60.438	17.8	3.2534e-06	24.701	175.425	-26.458	-73.166	-125.697	-2.277	1.821	-125.658	-118.394	-8.619	26.489	-118.407	-112.412	-111.645	-103.718	-5.876	-104.569	-8191	255	
6330.315	1	1	0	0	0.23443	0.14689	0.23243	0.22189	0.21105	0.35066	0.12532	0.21042	0.17676	0.091404	0.16217	0.071487	0.1015	0.17856	0.38624	0.19104	-0.33542	-0.63542	-0.20833	-1.0812	-0.38958	-0.4625	-1.2125	-0.19583	-0.84583	-0.51458	-0.15833	-1.1583	-0.30625	-0.43333	-1.0708	-0.022917	132.851	4.357	-58.918	-134.162	222.928	169.915	78.896	178.215	138.717	145.084	-128.372	136.094	185.381	-112.530	74.752	52.675	0.00021024	0.00016887	0.00012257	1019.7	3.6965e-06	3.0487e-06	1099.2	212.62	3.4707e-06	2.2304e-06	268.35	76.738	59.876	17.586	1.5568e-06	24.465	0.00028305	0.0003011	8.3539e-05	1003.5	3.4486e-06	3.2124e-06	1089	211.69	3.2472e-06	3.3907e-06	266.27	76.532	60.313	17.814	3.3381e-06	24.752	179.583	-49.901	-56.275	-125.648	-9.547	49.195	-125.656	-118.130	-63.963	8.205	-118.308	-112.343	-111.528	-104.162	-28.090	-104.410	-8191	255	
6330.411	1	1	0	0	0.11502	0.068861	0.24035	0.28298	0.16306	0.14749	0.57348	0.17819	0.24204	0.10197	0.32283	0.16833	0.20241	0.21191	0.27332	0.14188	-0.47708	-0.69792	-0.047917	-1.2021	-0.425	-0.36875	-1.1729	-0.24583	-0.80417	-0.89375	-0.0375	-1.1208	-0.58542	-0.37708	-0.91875	-0.29583	169.852	69.645	-116.151	152.777	-0.100	-20.786	175.622	206.387	-61.539	41.373	-91.846	-28.158	185.019	57.124	102.365	38.203	0.00017494	0.00032963	7.8406e-05	1025.4	1.9136e-06	2.3462e-06	1107.1	213	1.9855e-06	1.653e-06	267.69	76.345	59.955	17.604	2.4683e-06	24.295	0.00028748	0.00029224	8.3296e-05	1008.3	3.3621e-06	3.3801e-06	1090.5	211.73	3.3472e-06	3.2399e-06	265.71	76.545	60.265	17.77	3.2157e-06	24.699	181.184	7.353	-79.443	-125.491	-35.213	88.477	-125.630	-118.257	-44.177	53.413	-118.354	-111.966	-112.033	-104.259	12.517	-104.304	-8191	255	
6330.507	1	1	0	0	0.023849	0.11687	0.23109	0.15754	0.16902	0.13762	0.19883	0.11506	0.21883	0.050897	0.093433	0.16196	0.27584	0.13872	0.047307	0.23879	-0.24583	-0.87292	-0.17708	-1.0375	-0.425	-0.32083	-1.1437	-0.21667	-0.63125	-0.78958	-0.1	-1.0667	-0.4875	-0.16458	-1.0438	-0.13958	80.148	-44.564	-97.515	206.346	-121.091	194.698	196.542	142.789	-72.318	-54.104	154.933	-87.912	145.634	193.795	127.857	67.683	0.00023836	0.00042748	0.00010852	1022.7	2.7906e-06	2.6752e-06	1103.2	213.22	2.1602e-06	4.319e-07	267.42	75.861	59.836	17.577	1.5164e-06	24.206	0.0002921	0.00030026	8.4714e-05	1005.8	3.3088e-06	3.3096e-06	1087.2	211.83	3.4117e-06	3.2203e-06	265.54	76.339	60.234	17.74	3.1841e-06	24.685	177.638	-42.816	-36.917	-125.355	-53.731	84.144	-125.878	-118.430	-17.615	60.827	-118.038	-112.170	-111.355	-103.841	62.821	-104.019	-8191	255	
6330.603	1	1	0	0	0.3285	0.11214	0.043986	0.072038	0.22848	0.14463	0.13824	0.14854	0.36091	0.30958	0.20901	0.3064	0.25173	0.34317	0.092378	0.13923	0.05	-0.8375	-0.0875	-0.91458	-0.71875	-0.27083	-1.1771	-0.63958	-0.38542	-0.92292	-0.054167	-0.87083	-0.975	-0.18958	-0.85625	-0.18333	-12.323	142.535	52.899	-3.978	189.080	41.531	121.249	172.765	-108.915	205.146	-34.694	-105.818	-11.397	-9.354	128.808	66.651	0.00019312	0.00030631	5.9378e-05	1028.9	3.1013e-06	3.4598e-06	1103.1	214.4	2.9395e-06	7.4574e-07	266.64	75.86	60.052	17.552	3.5227e-06	24.492	0.00028755	0.00029372	8.572e-05	1008.2	3.2791e-06	3.2285e-06	1088.4	212.13	3.2835e-06	3.2359e-06	265.75	76.282	60.177	17.767	3.2222e-06	24.842	176.251	-49.909	-13.970	-125.685	27.557	47.319	-125.643	-118.268	-12.243	-20.300	-118.544	-111.830	-111.997	-103.765	-3.453	-104.474	-8191	255	
6330.699	1	1	0	0	0.21884	0.13917	0.14859	0.20701	0.19488	0.074727	0.12194	0.19611	0.39351	0.037226	0.1628	0.10815	0.046469	0.2295	0.17518	0.37463	0.1125	-1.1208	-0.072917	-0.53958	-0.68333	-0.16042	-0.90417	-0.52708	-0.36042	-1.0417	-0.020833	-0.77083	-0.84583	-0.15625	-0.90208	-0.48125	29.311	113.983	-62.237	218.916	-21.734	212.287	149.995	168.579	212.592	8.432	203.340	136.542	-78.947	192.054	-124.938	-124.443	0.00025025	0.00028333	7.5374e-05	1027.1	1.9553e-06	2.2416e-06	1097.5	212.94	1.8233e-06	4.7018e-06	269.39	75.721	59.839	17.542	2.4053e-06	24.437	0.00028886	0.00030172	8.2521e-05	1006.6	3.3369e-06	3.2992e-06	1087.8	211.91	3.2565e-06	3.1772e-06	266.38	76.355	60.114	17.761	3.1694e-06	24.771	176.505	-38.495	-25.203	-125.575	-69.463	-41.866	-125.643	-118.148	21.643	-54.302	-118.317	-111.990	-111.218	-103.941	46.231	-104.457	-8191	255	
6330.794	1	1	0	0	0.20072	0.18288	0.10168	0.16853	0.20292	0.055901	0.28476	0.090546	0.13213	0.26484	0.02825	0.091852	0.32501	0.051277	0.087663	0.094753	0.1125	-0.9625	-0.26042	-0.6875	-0.92917	-0.125	-0.95833	-0.59792	-0.35625	-0.925	-0.21875	-0.63542	-0.81458	-0.058333	-0.64792	-0.76042	-61.890	119.872	63.494	-60.471	24.513	62.776	183.994	202.391	-107.536	38.469	-125.278	-99.283	134.838	186.857	-9.015	14.161	0.00023085	0.00020831	4.8055e-05	1016.8	1.3961e-06	4.2874e-06	1100.1	211.51	1.0693e-06	3.4546e-06	266.71	75.952	60.092	17.541	2.3462e-06	24.202	0.00028544	0.00028744	8.2602e-05	1003.2	3.3382e-06	3.3976e-06	1089	211.21	3.2731e-06	3.2792e-06	265.91	76.575	60.268	17.801	3.1431e-06	24.739	177.307	1.517	-119.605	-125.299	-13.171	34.550	-125.471	-118.300	-26.470	39.733	-118.109	-111.784	-111.977	-104.068	28.349	-104.705	-8191	255	
6330.892	1	1	0	0	0.082264	0.20418	0.11285	0.12594	0.20895	0.11947	0.2228	0.16566	0.085182	0.1774	0.18935	0.22566	0.17313	0.020949	0.27438	0.040791	0.24792	-0.97292	-0.2125	-0.66667	-0.9625	-0.09375	-1.0896	-0.71042	-0.14792	-1.0667	-0.47292	-0.46042	-1.0333	-0.029167	-0.68125	-0.80625	-110.929	27.227	187.725	53.313	74.196	-122.631	156.156	104.949	-16.930	27.286	11.882	-90.383	-73.275	85.805	-98.967	-59.826	0.0002171	0.00020332	6.1381e-05	1024.3	3.1411e-06	1.9476e-06	1104.8	213.82	2.376e-06	4.2439e-06	266.93	75.691	60.198	17.617	2.9047e-06	24.091	0.00028697	0.00030411	8.2938e-05	1005.9	3.3164e-06	3.2223e-06	1089.6	211.93	3.3696e-06	3.293e-06	265.84	76.335	60.26	17.779	3.1594e-06	24.644	178.915	-70.069	-19.773	-125.761	5.801	8.678	-125.837	-118.443	-23.817	-5.180	-118.367	-112.527	-111.558	-103.842	-3.955	-104.610	-8191	255	
6331.010	1	1	0	0	0.18692	0.16735	0.20931	0.20619	0.057793	0.086165	0.28211	0.27497	0.14194	0.12008	0.19069	0.27744	0.076375	0.29635	0.063995	0.21861	0.30833	-0.81875	-0.32708	-0.43125	-1.1313	-0.125	-0.77917	-0.91042	-0.175	-0.96458	-0.69583	-0.63542	-1.2354	-0.1875	-0.46875	-1.1854	-54.403	58.790	59.758	141.351	63.198	38.516	205.501	187.996	-53.126	-66.526	102.755	-122.325	-75.001	-51.452	77.448	194.212	0.00018031	0.00027054	7.6872e-05	1024.5	1.6865e-06	1.9425e-06	1099.2	214.72	1.5522e-06	3.7564e-06	267.23	75.538	60.093	17.538	2.416e-06	24.491	0.00029268	0.00030209	8.5119e-05	1007.1	3.2539e-06	3.3398e-06	1089.2	212.32	3.4584e-06	3.3115e-06	265.7	76.342	60.319	17.805	3.1694e-06	24.756	179.723	-28.881	-22.261	-125.679	-22.584	41.157	-125.540	-118.386	-17.485	-15.574	-118.492	-111.897	-111.719	-103.873	16.787	-104.782	-8191	255	
6331.082	1	1	0	0	0.10019	0.22778	0.082987	0.20581	0.18982	0.15208	0.36183	0.35825	0.062902	0.076902	0.16393	0.069824	0.32646	0.20266	0.18301	0.066745	0.22083	-0.94583	-0.55417	-0.52708	-0.98542	-0.3625	-0.53125	-0.93958	0.04375	-0.81458	-0.6375	-0.16458	-0.91667	-0.325	-0.56667	-1.0375	-120.267	214.366	188.800	191.406	-101.391	2.983	195.830	121.900	76.333	190.702	43.273	65.591	-122.987	217.024	-54.503	35.326	0.00018022	0.0002365	5.773e-05	1019.3	2.7099e-06	3.2677e-06	1104.7	213.16	2.952e-06	3.8381e-06	267.58	75.708	59.709	17.446	1.8559e-06	24.313	0.00029044	0.00029461	7.9959e-05	1003.3	3.3118e-06	3.2518e-06	1088.4	211.65	3.3969e-06	3.2502e-06	265.96	76.276	60.17	17.701	3.3336e-06	24.764	172.201	-56.886	-104.744	-125.539	30.289	4.636	-125.397	-118.138	-26.692	-10.838	-118.131	-112.311	-111.505	-103.909	-6.856	-104.523	-8191	255	
6331.178	1	1	0	0	0.1177	0.14185	0.13197	0.11114	0.15035	0.22934	0.088686	0.077092	0.17346	0.11041	0.12859	0.21255	0.18345	0.41558	0.15549	0.1727	0.46458	-0.55417	-0.575	-0.30417	-1.1104	-0.26458	-0.65417	-1.2729	-0.0041667	-0.68125	-0.88542	-0.10833	-0.87292	-0.5625	-0.33542	-1.0625	134.049	78.673	-33.283	157.373	-2.820	-68.589	150.614	-99.147	-125.220	31.562	197.220	-132.532	76.620	-89.780	-96.219	132.670	0.00020252	0.00017639	7.7266e-05	1023.9	2.2738e-06	1.3095e-06	1105.9	212.53	1.7274e-06	3.8319e-06	265.75	75.271	60.228	17.548	3.2627e-06	24.12	0.00029514	0.00030092	8.5119e-05	1004.5	3.2848e-06	3.3584e-06	1088.8	211.7	3.3183e-06	3.2933e-06	264.95	76.251	60.235	17.759	3.3708e-06	24.642	171.893	-76.898	-49.917	-125.673	-3.405	53.996	-125.537	-118.385	-2.544	-18.380	-118.442	-112.206	-111.647	-104.055	37.083	-104.952	-8191	255	
6331.299	1	1	0	0	0.23453	0.022997	0.094796	0.16259	0.2451	0.058154	0.17406	0.20843	0.21283	0.15108	0.23523	0.18305	0.19833	0.061722	0.1108	0.20858	0.039583	-0.64583	-0.64792	-0.22917	-0.93542	-0.44583	-0.34792	-1.0646	-0.26875	-0.63958	-1.0167	-0.24792	-0.72917	-0.76875	-0.39375	-1.1854	141.570	163.091	80.920	-121.554	-50.376	121.802	194.934	201.174	213.922	-73.888	56.733	153.243	141.656	-8.074	-46.651	190.182	0.00016394	0.00033894	3.7111e-05	1023.1	2.3216e-06	1.1953e-06	1102.6	214	4.0406e-06	4.004e-06	265.77	75.652	59.785	17.459	2.4874e-06	24.478	0.00028896	0.00029383	8.5159e-05	1004.5	3.314e-06	3.2974e-06	1087.8	212.02	3.2963e-06	3.2979e-06	265.48	76.272	60.076	17.715	3.1627e-06	24.765	166.177	-35.280	-72.574	-125.452	-16.570	47.384	-125.489	-117.942	-39.229	-16.605	-118.424	-112.025	-111.761	-104.202	-8.725	-104.868	-8191	255	
6331.395	1	1	0	0	0.036137	0.095343	0.15824	0.090804	0.099935	0.26072	0.11876	0.13193	0.16501	0.13061	0.20113	0.1326	0.056785	0.19725	0.1703	0.23884	-0.066667	-0.5	-0.9125	-0.20417	-0.92917	-0.70417	-0.2875	-1.0479	-0.17708	-0.60208	-1.1354	-0.22917	-0.96458	-0.62708	-0.12292	-1.0833	85.266	115.924	-22.234	-78.213	203.552	97.777	123.474	-127.963	-24.356	35.295	-60.604	70.603	186.262	71.964	68.255	141.808	0.00020435	0.00019611	6.2534e-05	1019	2.1998e-06	2.7641e-06	1099.8	212.76	1.9401e-06	3.6114e-06	266.3	75.66	59.994	17.595	1.0774e-06	24.303	0.00028347	0.00029964	8.1711e-05	1004.5	3.2292e-06	3.2444e-06	1088.2	211.36	3.3935e-06	3.1333e-06	264.77	76.294	60.183	17.754	3.2276e-06	24.791	168.247	-27.076	-17.800	-125.307	-18.437	22.923	-125.526	-118.214	-50.670	-27.557	-118.579	-112.291	-111.780	-103.910	5.108	-104.383	-8191	255	
#DATA ENDS
