BOXY.EXE: ISS Imagent and Oximeter Data Acquisition Program Version 0.80
Ascii Record File

#ACQ INFORMATION
2  Detector Channels 
16  External MUX Channels 
1  Auxiliary Channels 
5000  Waveform (CCF) Frequency (Hz)
1  Waveforms Skipped 
30  Waveforms Averaged 
1  Cycles Averaged 
16  Acquisitions per Waveform 
10.0806  Updata Rate (Hz) 

#FILE INFORMATION
TRUE -- External MUX Channel results are PARSED.
FALSE -- AC DC and Phase are NOT grouped.
TRUE -- Companion Program Settings File CREATED.
FALSE -- AC data not excluded
FALSE -- DC data not excluded
FALSE -- Phase data not excluded
FALSE -- Auxillary Chn. data not excluded
Tab delimiters

#CALIBRATION STATE
TRUE -- Waveform Calibration Values APPLIED.


#AUX CALIBRATION VALUES
Val Type	aux-1	

Term	1.0000e+00	
Factor	0.0000e+00	


#WF CALIBRATION VALUES
A = Detector Channel
Val Type	A-AC1	A-AC2	A-AC3	A-AC4	A-AC5	A-AC6	A-AC7	A-AC8	A-AC9	A-AC10	A-AC11	A-AC12	A-AC13	A-AC14	A-AC15	A-AC16	A-DC1	A-DC2	A-DC3	A-DC4	A-DC5	A-DC6	A-DC7	A-DC8	A-DC9	A-DC10	A-DC11	A-DC12	A-DC13	A-DC14	A-DC15	A-DC16	A-Ph1	A-Ph2	A-Ph3	A-Ph4	A-Ph5	A-Ph6	A-Ph7	A-Ph8	A-Ph9	A-Ph10	A-Ph11	A-Ph12	A-Ph13	A-Ph14	A-Ph15	A-Ph16	

Term	0.00000e+00	0.00000e+00	0.00000e+00	0.00000e+00	0.00000e+00	0.00000e+00	0.00000e+00	0.00000e+00	0.00000e+00	0.00000e+00	0.00000e+00	0.00000e+00	0.00000e+00	0.00000e+00	0.00000e+00	0.00000e+00	0.00000e+00	0.00000e+00	0.00000e+00	0.00000e+00	0.00000e+00	0.00000e+00	0.00000e+00	0.00000e+00	0.00000e+00	0.00000e+00	0.00000e+00	0.00000e+00	0.00000e+00	0.00000e+00	0.00000e+00	0.00000e+00	0.00000e+00	0.00000e+00	0.00000e+00	0.00000e+00	0.00000e+00	0.00000e+00	0.00000e+00	0.00000e+00	0.00000e+00	0.00000e+00	0.00000e+00	0.00000e+00	0.00000e+00	0.00000e+00	0.00000e+00	0.00000e+00	
Factor	1.00000e+00	1.00000e+00	1.00000e+00	1.00000e+00	1.00000e+00	1.00000e+00	1.00000e+00	1.00000e+00	1.00000e+00	1.00000e+00	1.00000e+00	1.00000e+00	1.00000e+00	1.00000e+00	1.00000e+00	1.00000e+00	1.00000e+00	1.00000e+00	1.00000e+00	1.00000e+00	1.00000e+00	1.00000e+00	1.00000e+00	1.00000e+00	1.00000e+00	1.00000e+00	1.00000e+00	1.00000e+00	1.00000e+00	1.00000e+00	1.00000e+00	1.00000e+00	X	X	X	X	X	X	X	X	X	X	X	X	X	X	X	X	

B = Detector Channel
Val Type	B-AC1	B-AC2	B-AC3	B-AC4	B-AC5	B-AC6	B-AC7	B-AC8	B-AC9	B-AC10	B-AC11	B-AC12	B-AC13	B-AC14	B-AC15	B-AC16	B-DC1	B-DC2	B-DC3	B-DC4	B-DC5	B-DC6	B-DC7	B-DC8	B-DC9	B-DC10	B-DC11	B-DC12	B-DC13	B-DC14	B-DC15	B-DC16	B-Ph1	B-Ph2	B-Ph3	B-Ph4	B-Ph5	B-Ph6	B-Ph7	B-Ph8	B-Ph9	B-Ph10	B-Ph11	B-Ph12	B-Ph13	B-Ph14	B-Ph15	B-Ph16	

Term	0.00000e+00	0.00000e+00	0.00000e+00	0.00000e+00	0.00000e+00	0.00000e+00	0.00000e+00	0.00000e+00	0.00000e+00	0.00000e+00	0.00000e+00	0.00000e+00	0.00000e+00	0.00000e+00	0.00000e+00	0.00000e+00	0.00000e+00	0.00000e+00	0.00000e+00	0.00000e+00	0.00000e+00	0.00000e+00	0.00000e+00	0.00000e+00	0.00000e+00	0.00000e+00	0.00000e+00	0.00000e+00	0.00000e+00	0.00000e+00	0.00000e+00	0.00000e+00	-9.65827e+01	-1.43805e+02	-1.39444e+02	-1.81677e+02	-5.59979e+01	-8.92971e+01	-1.59950e+02	-1.62015e+02	-5.08740e+01	-7.88643e+01	-1.72352e+02	-1.71128e+02	-1.81284e+02	-1.77091e+02	-7.77532e+01	-1.49524e+02	
Factor	1.36684e-05	1.02022e-04	2.72554e-05	1.62761e-01	7.49054e-07	1.57017e-06	1.72592e-01	4.32996e-02	7.46595e-07	8.31903e-07	7.37064e-02	2.64361e-02	3.12763e-02	7.71586e-03	1.03788e-06	1.11046e-02	1.01505e-06	1.06720e-06	2.95085e-07	8.33522e-02	1.16206e-08	1.16285e-08	8.30791e-02	2.23858e-02	1.15920e-08	1.16152e-08	3.63287e-02	1.30762e-02	1.58931e-02	3.95424e-03	1.15352e-08	5.46625e-03	X	X	X	X	X	X	X	X	X	X	X	X	X	X	X	X	



#DISTANCE SETTINGS
A = Detector Channel
A-1	A-2	A-3	A-4	A-5	A-6	A-7	A-8	A-9	A-10	A-11	A-12	A-13	A-14	A-15	A-16	

2.5000e+00	3.0000e+00	2.5000e+00	3.0000e+00	2.0000e+00	3.0000e+00	1.5000e+00	3.0000e+00	3.0000e+00	3.0000e+00	3.0000e+00	3.0000e+00	3.0000e+00	3.0000e+00	1.5000e+00	3.0000e+00	

B = Detector Channel
B-1	B-2	B-3	B-4	B-5	B-6	B-7	B-8	B-9	B-10	B-11	B-12	B-13	B-14	B-15	B-16	

1.0000e+01	1.0000e+01	1.0000e+01	1.4400e+00	1.0000e+01	1.0000e+01	1.5100e+00	1.9400e+00	1.0000e+01	1.0000e+01	1.9900e+00	2.4900e+00	2.4100e+00	2.9000e+00	1.0000e+01	2.9800e+00	




#DATA BEGINS
time	group	step	mark	flag	A-AC1	A-AC2	A-AC3	A-AC4	A-AC5	A-AC6	A-AC7	A-AC8	A-AC9	A-AC10	A-AC11	A-AC12	A-AC13	A-AC14	A-AC15	A-AC16	A-DC1	A-DC2	A-DC3	A-DC4	A-DC5	A-DC6	A-DC7	A-DC8	A-DC9	A-DC10	A-DC11	A-DC12	A-DC13	A-DC14	A-DC15	A-DC16	A-Ph1	A-Ph2	A-Ph3	A-Ph4	A-Ph5	A-Ph6	A-Ph7	A-Ph8	A-Ph9	A-Ph10	A-Ph11	A-Ph12	A-Ph13	A-Ph14	A-Ph15	A-Ph16	B-AC1	B-AC2	B-AC3	B-AC4	B-AC5	B-AC6	B-AC7	B-AC8	B-AC9	B-AC10	B-AC11	B-AC12	B-AC13	B-AC14	B-AC15	B-AC16	B-DC1	B-DC2	B-DC3	B-DC4	B-DC5	B-DC6	B-DC7	B-DC8	B-DC9	B-DC10	B-DC11	B-DC12	B-DC13	B-DC14	B-DC15	B-DC16	B-Ph1	B-Ph2	B-Ph3	B-Ph4	B-Ph5	B-Ph6	B-Ph7	B-Ph8	B-Ph9	B-Ph10	B-Ph11	B-Ph12	B-Ph13	B-Ph14	B-Ph15	B-Ph16	aux-1	digaux	

1733.243	1	1	0	256	0.13544	0.11241	0.34717	0.18617	0.058062	0.45983	0.33892	0.23388	0.19907	0.084978	0.13916	0.11836	0.11489	0.20684	0.087959	0.21317	-0.37917	-0.83542	-1.2854	-0.43333	-1.2479	-1.1104	-0.7	-1.6104	-0.6625	-0.825	-1.5688	-0.67292	-1.1187	-1.0312	-0.5125	-1.4854	57.033	336.443	234.898	232.379	399.364	87.536	343.950	328.516	131.314	307.371	264.795	250.746	229.741	216.962	200.333	351.258	0.0001805	0.00028017	9.7057e-05	1073.5	2.0165e-06	3.0094e-06	1166.3	225.63	1.7694e-06	2.3364e-06	286.03	79.906	62.473	18.048	1.9202e-06	25.341	0.0002295	0.00020511	5.4277e-05	1038.6	2.5119e-06	2.2783e-06	1129.9	221.63	2.4549e-06	2.1695e-06	277.03	78.799	61.734	18.175	1.9997e-06	25.308	194.900	149.774	166.427	51.275	155.383	155.612	51.836	58.865	86.292	86.114	58.545	65.800	65.742	72.646	262.937	71.805	-8191	255	
1733.339	1	1	0	0	0.15148	0.15325	0.13267	0.20923	0.10369	0.099942	0.27683	0.26749	0.1003	0.16883	0.16232	0.14226	0.30284	0.10481	0.22637	0.23895	-0.46667	-0.49792	-1.3062	-0.58958	-1.1458	-1.2188	-0.66042	-1.2938	-0.94792	-0.72292	-1.5042	-0.87083	-0.875	-1.4062	-0.54375	-1.3958	360.598	227.973	200.863	324.536	219.312	105.682	303.531	343.645	142.210	400.182	367.413	325.896	347.184	297.889	144.267	63.733	0.0001555	0.00035569	0.00013871	1076	3.973e-06	1.132e-06	1171	226.36	1.533e-06	1.8719e-06	284.85	79.182	62.554	18.241	2.2218e-06	25.466	0.0002217	0.00019376	5.1454e-05	1039.2	2.2733e-06	2.1505e-06	1128.8	221.52	2.2988e-06	2.061e-06	276.55	78.416	61.584	18.192	2.0076e-06	25.35	178.122	102.316	157.435	51.277	212.286	145.868	51.411	59.022	359.206	243.686	58.379	65.708	65.883	72.682	179.697	72.362	-8191	255	
1733.433	1	1	0	0	0.26601	0.1091	0.26261	0.11991	0.32979	0.061416	0.074452	0.33572	0.25097	0.055058	0.13773	0.44724	0.13813	0.19789	0.14046	0.14203	-0.53958	-0.6375	-1.3458	-0.83958	-0.89375	-1.5688	-0.52083	-1.1729	-1.0375	-0.56458	-1.4688	-0.71875	-0.80417	-1.475	-0.44375	-1.3229	137.588	239.952	385.186	84.722	182.211	76.820	156.863	397.842	204.664	83.461	327.196	370.003	326.579	381.187	274.462	352.788	0.00017743	0.00036409	8.0757e-05	1072.6	1.6167e-06	5.5072e-06	1167.1	225.04	9.6311e-07	7.7576e-07	286.2	79.238	62.596	18.144	1.974e-06	25.382	0.00020621	0.00018525	5.1805e-05	1038.2	2.1493e-06	2.0825e-06	1128.3	221.17	2.2199e-06	2.0385e-06	277.75	78.585	61.327	18.132	2.1018e-06	25.385	192.192	100.096	177.357	51.630	179.362	243.025	51.720	58.780	187.222	178.078	58.575	65.669	66.055	72.491	241.740	72.207	-8191	255	
1733.554	1	1	0	0	0.096113	0.098333	0.058878	0.50187	0.33568	0.080977	0.11975	0.21193	0.25086	0.33575	0.053257	0.38648	0.39947	0.10152	0.17683	0.21591	-0.8125	-0.55	-1.3312	-0.90833	-0.66667	-1.4542	-0.61042	-1.1125	-1.0458	-0.45625	-1.4146	-0.99167	-0.69583	-1.4521	-0.49375	-0.95625	380.190	227.230	374.452	382.057	190.384	136.662	79.871	395.594	99.644	141.991	344.831	368.247	361.207	206.534	245.592	323.823	0.00014795	0.00014465	0.00012345	1075	1.4253e-06	4.0427e-06	1166.5	224.44	2.4624e-07	2.7935e-06	282.71	79.406	62.22	18.18	5.8502e-06	25.413	0.00020139	0.00018408	5.5929e-05	1038.5	2.1523e-06	2.0129e-06	1128.6	220.92	2.1578e-06	1.967e-06	276.78	78.505	61.367	18.11	2.2955e-06	25.448	167.509	136.213	163.102	51.139	278.165	97.943	51.397	59.145	124.147	215.877	58.483	65.807	65.855	72.550	221.415	72.250	-8191	255	
1733.650	1	1	0	0	0.16574	0.14853	0.084166	0.3211	0.13024	0.081079	0.25533	0.20909	0.27651	0.2396	0.044407	0.13651	0.43226	0.25834	0.28891	0.18637	-1.0625	-0.47917	-1.2417	-1.1625	-0.55208	-1.3813	-0.69167	-1.1562	-1.2604	-0.58542	-1.2958	-1.1667	-0.61667	-1.3729	-0.42917	-0.92917	84.165	394.982	311.878	372.621	238.329	107.591	292.912	393.526	137.556	210.414	62.001	301.825	339.105	117.653	116.872	315.350	0.00017108	0.00052793	7.5943e-05	1072.3	1.4862e-06	6.044e-06	1169.5	224.93	1.6422e-06	9.8745e-07	284.7	79.546	62.373	18.026	2.7632e-06	25.434	0.00020119	0.00018547	6.0033e-05	1040.2	2.1512e-06	2.1199e-06	1134	221.07	2.1845e-06	2.0927e-06	277.67	78.651	61.318	18.151	2.4778e-06	25.35	175.177	147.221	92.231	51.263	235.473	147.958	51.327	58.896	263.484	221.629	58.695	65.539	66.333	72.656	201.149	72.189	-8191	255	
1733.746	1	1	0	0	0.27228	0.25061	0.18531	0.080852	0.14883	0.22721	0.32252	0.18784	0.11097	0.093607	0.19213	0.17251	0.15256	0.126	0.11335	0.19307	-1.1146	-0.28958	-1.2146	-1.1604	-0.74167	-1.3792	-0.74792	-1.0292	-1.3875	-0.34792	-1.2375	-1.0917	-0.59583	-1.3875	-1.0312	-0.74583	270.664	54.423	152.622	158.182	362.474	387.583	305.843	268.985	76.140	273.531	130.922	355.099	340.187	171.731	102.102	375.461	0.00019507	0.00022287	9.87e-05	1074	3.5376e-06	6.8634e-06	1175.7	223.58	4.101e-06	2.3159e-06	285.34	78.558	62.51	18.195	3.5709e-06	25.249	0.00020048	0.00019904	6.2535e-05	1040.2	2.1193e-06	2.2664e-06	1135.7	219.94	2.179e-06	2.2648e-06	277.76	78.27	61.378	18.221	2.5051e-06	25.273	184.922	74.561	145.034	51.385	239.956	171.324	51.275	58.912	205.486	282.631	58.380	65.548	66.053	72.678	139.609	72.115	-8191	255	
1733.842	1	1	0	0	0.15118	0.14399	0.030467	0.34456	0.13424	0.25023	0.19811	0.15901	0.1453	0.14173	0.068867	0.17722	0.082184	0.044306	0.3141	0.036739	-1.1271	-0.27083	-1.0938	-1.3208	-0.56875	-1.4333	-1.0729	-0.60208	-1.4021	-0.65833	-1.0271	-1.4438	-0.61042	-1.2437	-0.8125	-0.7375	272.590	124.795	320.034	326.995	119.365	216.837	341.439	56.312	131.498	395.356	292.974	352.405	331.122	45.464	281.676	267.584	0.00019042	0.00045249	8.8651e-05	1076.4	1.683e-06	5.7051e-06	1169.7	224.4	2.0224e-06	4.2588e-06	285.04	79.202	62.701	17.959	3.0232e-06	25.358	0.00019668	0.00021228	6.1783e-05	1042.2	2.0878e-06	2.379e-06	1134.1	219.72	2.1465e-06	2.416e-06	277.94	78.375	61.318	18.225	2.3926e-06	25.224	183.390	140.523	111.838	51.164	268.927	172.058	51.638	58.917	184.823	194.457	58.395	65.499	66.159	72.329	191.781	72.290	-8191	255	
1733.938	1	1	0	0	0.2297	0.23764	0.078327	0.27303	0.098059	0.15712	0.18131	0.37522	0.19694	0.040518	0.11104	0.3255	0.29757	0.20411	0.051763	0.27099	-1.0375	-0.60417	-1.1521	-1.55	-0.4375	-1.4271	-1.2479	-0.65833	-1.5125	-0.68542	-1.1083	-1.5938	-0.59792	-1.3208	-1.1208	-0.80208	375.131	308.303	293.410	98.292	199.564	44.543	386.151	393.586	186.911	223.043	360.924	372.388	137.683	303.143	109.021	319.860	0.0001772	0.00050468	5.3225e-05	1075.6	3.1504e-06	3.9812e-06	1173.5	224.28	6.1942e-06	2.6171e-06	285.71	79.2	61.951	18.274	2.3152e-06	25.274	0.00020338	0.00022644	6.0631e-05	1041.8	2.1726e-06	2.4916e-06	1134.4	219.28	2.2429e-06	2.5293e-06	276.8	78.283	61.294	18.324	2.3077e-06	25.218	186.113	109.347	188.825	51.102	249.308	151.043	51.361	58.945	203.095	107.529	58.286	65.513	65.994	72.630	148.276	72.327	-8191	255	
1734.035	1	1	0	0	0.092401	0.27422	0.17987	0.14178	0.10568	0.21675	0.046561	0.28274	0.16156	0.08549	0.32848	0.024785	0.10047	0.0425	0.090906	0.072766	-1.0833	-0.68958	-0.7125	-1.3667	-0.52708	-1.1333	-1.3625	-0.61875	-1.2854	-0.62083	-0.8125	-1.5354	-0.48125	-1.1104	-1.3542	-0.50417	72.824	392.235	248.751	239.667	241.480	79.448	383.293	368.224	153.778	82.475	354.939	354.717	142.283	70.935	55.878	309.229	0.00015212	0.00025462	0.0002139	1075.1	3.101e-06	3.237e-06	1167.2	223.42	2.586e-06	1.3048e-06	283.76	78.979	61.706	17.977	5.1965e-06	25.561	0.00020396	0.00022792	5.6399e-05	1040.4	2.2824e-06	2.4635e-06	1131.9	218.52	2.3284e-06	2.4664e-06	276.01	78.16	61.218	18.196	2.2243e-06	25.229	193.978	151.280	154.655	51.376	154.873	253.433	51.381	58.870	285.638	328.453	58.497	65.335	66.078	72.534	225.401	72.531	-8191	255	
1734.131	1	1	0	0	0.21236	0.093384	0.055765	0.3368	0.19174	0.13955	0.23543	0.1907	0.088287	0.11655	0.13496	0.30839	0.10781	0.048835	0.42215	0.096615	-1.025	-0.81042	-0.4375	-1.3667	-0.40833	-1.1187	-1.3604	-0.65	-1.2646	-0.94167	-0.54167	-1.3375	-0.52292	-0.78958	-1.2021	-0.65	214.598	194.638	199.162	341.447	57.456	326.802	353.548	369.107	286.374	123.613	383.895	233.622	211.096	140.220	122.285	220.595	0.00022361	0.00046685	3.032e-05	1076.9	1.4131e-06	2.756e-06	1174.1	223.02	2.3781e-06	2.7562e-06	284.49	79.033	62.179	18.054	2.7718e-06	25.404	0.00021763	0.00022569	5.5131e-05	1041.7	2.4022e-06	2.3492e-06	1134.4	218.63	2.4277e-06	2.3731e-06	276.28	78.099	61.505	18.15	2.1762e-06	25.188	175.606	112.566	139.517	51.226	201.672	367.849	51.282	59.223	241.288	210.798	58.630	65.707	66.058	72.816	180.278	72.425	-8191	255	
1734.227	1	1	0	0	0.30008	0.21471	0.061922	0.19937	0.059337	0.32017	0.22662	0.26479	0.20749	0.43166	0.32283	0.12262	0.25927	0.21766	0.28844	0.088648	-0.86667	-0.89583	-0.5	-1.7188	-0.59167	-0.9875	-1.3958	-0.54167	-1.2125	-1.0333	-0.40417	-1.4438	-0.69792	-0.84583	-1.2062	-0.60417	109.175	321.319	301.416	64.464	152.187	204.052	336.785	111.594	175.270	93.401	373.217	346.408	379.788	351.334	394.289	320.638	0.00017821	0.00015506	3.1017e-05	1081.2	7.1527e-07	6.0583e-06	1176.1	224.09	2.8522e-06	3.3203e-06	283.81	79.254	62.094	18.152	1.5684e-06	25.434	0.00022711	0.00021654	5.4888e-05	1044.3	2.5132e-06	2.2917e-06	1135.9	218.85	2.5383e-06	2.3368e-06	275.82	78.489	61.693	18.206	2.1834e-06	25.321	186.159	126.937	46.628	51.236	247.242	189.883	51.550	58.953	318.351	159.789	58.636	65.711	66.085	72.849	234.412	72.447	-8191	255	
1734.346	1	1	0	0	0.19262	0.045876	0.089989	0.20139	0.35274	0.16869	0.11098	0.22064	0.3729	0.29677	0.27089	0.22514	0.14293	0.28475	0.35726	0.13373	-0.73125	-1.1125	-0.46458	-1.5	-0.64375	-0.70833	-1.4479	-0.55	-0.92292	-1.1479	-0.58125	-1.3292	-0.8	-0.52292	-1.3125	-0.39167	373.407	61.984	246.805	337.620	95.761	120.216	234.815	323.831	130.082	191.716	336.577	75.503	76.144	291.971	84.631	171.968	0.00021808	0.00022124	3.9324e-05	1080.7	2.9359e-06	5.6676e-06	1177.6	223.98	4.3504e-06	2.0047e-06	284.45	79.773	61.99	18.185	4.9479e-06	25.249	0.00023162	0.00021144	5.4357e-05	1048.3	2.5336e-06	2.2228e-06	1137.6	219.51	2.4348e-06	2.2533e-06	276.16	78.671	61.789	18.261	2.147e-06	25.359	174.762	140.417	220.060	51.224	221.200	254.089	51.535	58.841	234.819	336.738	58.223	65.930	66.370	72.748	256.677	72.243	-8191	255	
1734.442	1	1	0	0	0.25228	0.12656	0.21144	0.34742	0.36491	0.072686	0.30343	0.090472	0.14908	0.22037	0.052088	0.23569	0.13265	0.41668	0.1681	0.12482	-0.57917	-1.1042	-0.71667	-1.5229	-0.95417	-0.55208	-1.4771	-0.71042	-1.0146	-1.3438	-0.53125	-1.35	-1.0917	-0.59583	-1.4146	-0.60625	373.430	199.501	155.077	366.931	125.503	316.236	389.589	361.925	133.053	118.733	386.202	67.746	139.078	49.555	307.889	105.755	0.00020384	0.00024637	2.1148e-05	1087.6	2.5071e-06	1.4935e-06	1177.8	224.15	3.7259e-06	1.7286e-06	283.27	79.584	62.493	18.199	4.547e-06	25.469	0.00021842	0.00020653	5.3876e-05	1051.5	2.4487e-06	2.1927e-06	1138.4	220.46	2.4009e-06	2.2767e-06	277.02	78.993	61.987	18.244	2.2361e-06	25.515	178.567	96.363	327.065	51.414	226.734	166.934	51.633	59.016	233.697	144.407	58.269	65.697	66.004	72.864	171.901	72.362	-8191	255	
1734.538	1	1	0	0	0.11395	0.24893	0.14229	0.4086	0.30213	0.054572	0.20878	0.34761	0.11337	0.077945	0.41828	0.2377	0.29063	0.24713	0.17217	0.25425	-0.34375	-1.2479	-0.35417	-1.2667	-0.94167	-0.55417	-1.4771	-0.89792	-0.75417	-1.5896	-0.57708	-1.0354	-1.1187	-0.47292	-1.3542	-0.8875	371.381	228.170	285.865	373.547	296.277	330.268	365.842	400.919	338.832	267.756	361.870	278.622	322.659	386.350	76.446	91.400	0.00017755	0.00015684	0.00012896	1089.2	2.4605e-06	2.927e-06	1186	224.12	1.9423e-06	2.6857e-06	285.31	80.032	63.028	18.233	1.8049e-06	25.585	0.00021542	0.0002032	5.7815e-05	1055	2.4136e-06	2.1791e-06	1145.4	221.17	2.34e-06	2.2117e-06	278.28	79.416	62.088	18.222	2.4345e-06	25.629	183.383	320.016	125.662	51.290	172.321	274.063	51.572	59.120	368.817	255.632	58.412	65.529	66.131	72.431	85.601	72.122	-8191	255	
1734.634	1	1	0	0	0.15889	0.068818	0.22721	0.41657	0.25115	0.044745	0.061397	0.26466	0.1109	0.25763	0.37226	0.12389	0.23225	0.084835	0.10488	0.39487	-0.4375	-1.4917	-0.48333	-1.3354	-1.2437	-0.42708	-1.5917	-0.92292	-0.49167	-1.5854	-0.575	-0.98958	-1.3125	-0.50417	-1.3583	-0.89167	76.896	332.709	383.395	367.011	240.636	52.852	389.482	243.738	188.896	253.192	397.455	116.355	316.881	342.891	74.146	259.652	0.00012384	0.00039283	0.00010598	1096.2	2.1348e-06	8.2855e-06	1186.4	224.49	1.9156e-07	5.8057e-07	286.03	79.312	62.607	18.308	3.9423e-06	25.648	0.00021232	0.00020239	6.2673e-05	1057	2.3715e-06	2.1572e-06	1148.4	221.1	2.3026e-06	2.2125e-06	279.21	79.176	61.961	18.35	2.6403e-06	25.648	184.371	108.080	119.875	51.208	270.052	185.726	51.876	58.938	341.212	215.983	58.528	65.718	65.447	72.849	207.059	71.651	-8191	255	
1734.730	1	1	0	0	0.21907	0.071712	0.077387	0.33771	0.10523	0.15101	0.43417	0.12732	0.14122	0.2642	0.11327	0.3077	0.23182	0.15356	0.076375	0.4595	-0.18333	-1.375	-0.39167	-1.1292	-1.175	-0.43958	-1.4042	-1.0562	-0.56042	-1.4312	-0.91458	-0.67083	-1.3479	-0.44167	-1.2833	-1.0438	345.928	389.965	305.657	340.316	80.622	62.948	349.377	108.601	285.095	117.516	118.257	45.336	384.981	98.559	53.091	324.142	0.00018334	0.00010022	2.512e-05	1090.1	1.3756e-06	8.0729e-06	1183.9	225.35	2.6727e-06	2.05e-06	285.4	80.371	62.558	18.271	4.357e-06	25.689	0.00021735	0.00021837	6.8893e-05	1059.2	2.4774e-06	2.3671e-06	1153.3	222.28	2.3698e-06	2.4507e-06	280.61	79.468	62.169	18.349	2.7272e-06	25.66	188.626	122.872	241.217	51.029	177.532	245.583	51.817	58.696	238.749	199.725	58.035	65.850	65.972	72.580	206.106	71.986	-8191	255	
1734.826	1	1	0	0	0.055344	0.19657	0.21797	0.27857	0.10561	0.085202	0.10159	0.11742	0.19756	0.14593	0.07163	0.076312	0.21518	0.23264	0.064367	0.12018	0.066667	-1.2854	-0.69792	-0.86667	-1.2396	-0.51667	-1.3813	-1.1667	-0.57917	-1.175	-0.95208	-0.66875	-1.5229	-0.75	-1.1479	-1.2646	219.436	45.023	151.629	320.882	255.122	210.848	317.306	42.047	389.512	102.800	253.656	101.753	339.546	120.591	93.523	109.055	0.00021251	0.0001168	5.5616e-05	1096.7	1.9788e-06	5.1504e-06	1194	227.29	2.4735e-06	5.3114e-06	286.32	79.977	63.582	18.314	4.2841e-06	25.703	0.0002134	0.00022922	6.8688e-05	1064.5	2.3397e-06	2.4869e-06	1156.6	222.74	2.2699e-06	2.5094e-06	280.56	79.421	62.328	18.486	2.6297e-06	25.62	192.224	102.859	209.870	51.361	130.734	194.046	51.403	58.850	215.409	200.019	58.451	65.739	65.976	72.349	212.028	71.865	-8191	255	
1734.923	1	1	0	0	0.22661	0.13661	0.19793	0.24737	0.13401	0.32407	0.23955	0.21352	0.096558	0.33894	0.25244	0.21702	0.15766	0.12003	0.082313	0.31218	-0.12708	-1.2625	-1.0479	-0.76458	-1.6417	-0.70625	-1.1833	-1.3458	-0.38542	-1.4417	-1.0792	-0.60625	-1.4083	-0.7	-0.80625	-1.2042	185.527	395.763	343.545	357.964	318.887	91.967	275.500	345.911	105.363	258.823	321.947	243.039	303.181	111.894	93.566	48.998	0.00017718	0.00019529	7.9126e-05	1099.1	2.0608e-06	9.9814e-07	1194.6	227.39	1.4568e-06	4.3636e-06	286.17	80.409	63.115	18.468	4.1102e-06	25.484	0.00021193	0.00023968	6.7544e-05	1064.8	2.3296e-06	2.6817e-06	1157.8	222.76	2.3462e-06	2.6892e-06	280.92	79.396	62.543	18.57	2.5135e-06	25.588	188.444	106.129	67.836	51.166	279.915	166.324	51.754	58.976	208.769	163.327	58.261	65.914	66.065	72.482	99.587	71.890	-8191	255	
1735.043	1	1	0	0	0.12956	0.070853	0.010278	0.23775	0.24375	0.1488	0.33161	0.21986	0.16999	0.11645	0.2617	0.1159	0.11844	0.12362	0.19073	0.15091	-0.0375	-1.075	-0.9375	-0.65208	-1.425	-0.48958	-1.0521	-1.3792	-0.57292	-1.3104	-0.91042	-0.45208	-1.3458	-0.87917	-0.72292	-1.4125	107.693	85.440	261.233	370.623	230.543	42.475	360.499	48.345	93.758	133.455	89.478	394.378	294.185	83.083	379.218	323.665	0.00014777	0.00022827	7.796e-05	1100.6	5.3345e-06	4.6331e-06	1195.4	226.85	5.3822e-06	1.4603e-06	287.54	80.659	62.921	18.495	3.2687e-06	25.522	0.00022033	0.00025015	6.5945e-05	1065	2.4191e-06	2.7324e-06	1156	222.91	2.4247e-06	2.6858e-06	281.09	79.456	62.499	18.596	2.4247e-06	25.627	188.995	64.577	110.751	51.142	260.605	209.188	51.500	58.717	186.304	290.256	58.171	65.502	65.981	72.414	115.790	72.061	-8191	255	
1735.139	1	1	0	0	0.20185	0.22724	0.25836	0.21831	0.099171	0.30044	0.1406	0.42155	0.16897	0.15644	0.037535	0.24635	0.30588	0.16403	0.26759	0.13671	-0.0125	-1.05	-1.0312	-0.67917	-1.2167	-0.6375	-0.80625	-1.4	-0.70833	-0.95417	-1.4333	-0.19792	-1.45	-0.95417	-0.43333	-1.4396	158.611	113.923	188.045	94.769	117.152	372.461	331.081	67.817	218.792	204.779	232.970	328.408	390.146	398.396	207.806	340.817	0.00021904	0.00022345	0.00010847	1099.9	5.9275e-07	3.9532e-06	1193.8	226.48	4.1285e-06	3.3785e-06	285.25	80.43	62.869	18.396	2.2857e-06	25.488	0.00022826	0.0002467	6.4812e-05	1065.3	2.6422e-06	2.7601e-06	1156.5	222.96	2.6532e-06	2.6777e-06	281	79.591	62.783	18.606	2.4459e-06	25.657	190.046	254.644	59.439	51.300	272.091	99.203	51.771	58.943	217.466	262.048	58.196	65.805	65.591	72.677	166.463	72.381	-8191	255	
1735.236	1	1	0	0	0.13876	0.13906	0.080958	0.22905	0.21679	0.11601	0.33412	0.35726	0.28685	0.15275	0.089619	0.057119	0.21826	0.032542	0.15278	0.2355	-0.1625	-1.0312	-1.3708	-0.61458	-1.25	-0.94583	-0.425	-1.3813	-0.61042	-0.93333	-1.3354	-0.34375	-1.2604	-0.99583	-0.42917	-1.2667	329.490	289.839	98.695	301.600	61.807	66.603	308.954	345.108	274.877	146.446	398.492	73.371	44.852	46.604	342.079	62.730	0.00020803	0.00048971	0.00011322	1103.6	3.4968e-06	5.8037e-06	1196.1	227.43	3.5268e-06	1.1263e-06	287.33	80.497	62.742	18.35	2.5924e-06	25.86	0.00025535	0.00024262	6.5111e-05	1066.7	2.8448e-06	2.7053e-06	1160.2	223.35	2.8834e-06	2.6471e-06	280.75	79.82	63.25	18.582	2.4448e-06	25.803	186.513	168.797	164.269	51.045	173.470	121.790	51.416	58.907	216.212	286.460	58.317	65.661	66.419	72.316	163.005	71.847	-8191	255	
1735.332	1	1	0	0	0.11532	0.26967	0.27171	0.47749	0.12778	0.38647	0.093894	0.21554	0.37827	0.080537	0.22993	0.29054	0.23253	0.16464	0.30113	0.1353	-0.23958	-0.82917	-1.2792	-0.6625	-1.2229	-1.1292	-0.71042	-1.4958	-0.84375	-0.83333	-1.3917	-0.57917	-1.2083	-1.1229	-0.35833	-1.475	258.480	77.250	294.043	360.326	181.725	328.600	116.925	179.638	55.530	392.687	140.070	308.059	383.046	306.808	390.556	217.186	0.00021357	0.00041019	8.5442e-05	1100.4	4.016e-06	3.3491e-06	1202.5	227.62	2.1436e-06	2.5559e-06	288.63	80.407	63.282	18.477	6.3788e-06	25.67	0.00026943	0.00024093	6.4717e-05	1069.6	2.9525e-06	2.702e-06	1162.3	224.18	2.9069e-06	2.5868e-06	281.84	80.13	63.295	18.621	2.3958e-06	25.882	187.922	129.712	93.282	51.152	301.391	233.290	51.535	58.786	200.956	382.982	58.241	65.749	65.993	72.336	204.083	72.060	-8191	255	
1735.426	1	1	0	0	0.15421	0.16659	0.26425	0.4091	0.14332	0.1349	0.18611	0.26075	0.26415	0.3514	0.11968	0.078851	0.080208	0.085838	0.31156	0.27902	-0.61667	-0.58958	-1.5208	-0.58958	-0.86875	-1.0708	-0.64792	-1.4438	-0.76458	-0.35625	-1.5375	-0.68333	-0.93125	-1.4625	-0.60625	-1.3479	335.566	378.792	349.699	43.166	269.397	292.718	360.164	219.901	358.709	52.974	106.716	265.672	51.304	73.542	179.606	275.078	0.00019642	0.00025774	8.0351e-05	1112.2	4.3349e-07	8.1125e-06	1208.5	228.71	1.9339e-06	2.3742e-06	288.65	80.801	63.149	18.455	3.8321e-06	25.868	0.00026191	0.00023317	6.2375e-05	1075.9	2.7995e-06	2.5683e-06	1164.7	225.35	2.814e-06	2.4884e-06	282.02	80.225	63.375	18.608	2.4293e-06	26.007	180.046	379.419	42.840	51.347	253.384	145.049	51.512	58.897	346.677	196.930	58.181	65.861	66.090	72.805	216.749	72.071	-8191	255	
1735.522	1	1	0	0	0.16525	0.090528	0.13843	0.16253	0.33125	0.077202	0.51242	0.28734	0.13706	0.17884	0.16538	0.16241	0.20726	0.28483	0.22648	0.23725	-0.64583	-0.50417	-1.4896	-0.8375	-0.94167	-1.4396	-0.55	-1.4125	-0.99375	-0.31042	-1.4438	-0.79792	-0.75625	-1.2125	-0.55208	-1.0312	159.604	361.301	234.769	295.494	145.440	80.136	362.038	268.648	237.461	219.361	327.333	277.065	139.156	384.335	388.211	273.783	0.00014767	0.00041697	0.00020739	1108.3	1.569e-06	7.6616e-06	1202.4	228.23	2.6897e-06	2.2347e-06	287.72	80.557	63.373	18.568	9.6187e-07	25.922	0.0002496	0.00022668	6.3213e-05	1077.7	2.6995e-06	2.5262e-06	1165.1	225.24	2.6755e-06	2.4338e-06	281.82	80.33	63.069	18.623	2.5014e-06	26.035	189.313	147.452	150.514	51.198	329.198	141.044	51.505	58.930	302.103	283.398	58.488	65.375	65.977	72.758	391.537	72.226	-8191	255	
1735.643	1	1	0	0	0.31838	0.36148	0.19357	0.38312	0.26085	0.098959	0.41292	0.095627	0.20544	0.087144	0.14231	0.24508	0.15278	0.25231	0.25887	0.14746	-0.98333	-0.475	-1.2625	-0.70833	-0.74583	-1.475	-0.67292	-1.1792	-1.1021	-0.50417	-1.2979	-0.86875	-0.61667	-1.4271	-0.48958	-1.1458	389.128	219.643	329.299	346.643	170.667	68.961	384.800	147.097	90.367	306.809	397.095	246.873	109.059	359.271	283.673	346.700	0.00012542	0.00025333	0.00023192	1113.7	1.6931e-06	5.766e-06	1204.1	229.46	1.1348e-06	7.8328e-06	289.86	80.524	63.808	18.518	3.9139e-06	25.811	0.00023448	0.00021785	6.5369e-05	1079.8	2.4924e-06	2.3622e-06	1166.9	225.33	2.4765e-06	2.3198e-06	283.25	80.275	62.857	18.575	2.6054e-06	25.872	178.433	65.437	147.149	51.201	222.071	199.464	51.654	58.877	350.954	197.355	58.087	65.407	66.263	72.759	220.059	72.135	-8191	255	
1735.739	1	1	0	0	0.31298	0.21853	0.26713	0.16205	0.23744	0.32973	0.28305	0.12332	0.13577	0.18924	0.24446	0.16983	0.16918	0.25129	0.15785	0.15947	-0.8625	-0.50208	-1.35	-1.1104	-0.73125	-1.3625	-0.78958	-1.0312	-1.3417	-0.56458	-1.3625	-0.97083	-0.71458	-1.5646	-0.67917	-1.0208	108.725	145.962	295.491	133.364	179.174	119.121	330.526	172.649	400.565	242.122	70.257	126.548	116.617	265.534	102.222	284.005	0.0001853	0.00070323	5.6223e-05	1112.4	2.4034e-06	8.2886e-06	1199.5	228.51	3.9357e-06	2.3396e-06	289	80.557	63.562	18.444	6.1166e-06	25.753	0.0002268	0.00021182	6.8308e-05	1078.5	2.4665e-06	2.4047e-06	1165.6	225.3	2.5037e-06	2.353e-06	283.6	80.228	62.837	18.6	2.8127e-06	25.859	177.865	107.053	108.150	51.208	279.965	213.700	51.406	58.898	222.323	206.226	58.495	65.548	66.066	72.375	206.419	71.859	-8191	255	
1735.811	1	1	0	0	0.070069	0.16148	0.19667	0.32569	0.31018	0.17823	0.24996	0.21746	0.18101	0.19473	0.23226	0.12928	0.24068	0.30291	0.3267	0.24992	-0.94167	-0.40833	-1.1688	-1.2542	-0.62083	-1.5042	-0.98333	-0.89375	-1.2938	-0.60208	-1.3583	-1.1333	-0.76458	-1.3208	-0.86667	-0.82292	121.148	246.717	268.206	348.726	106.108	227.346	357.946	244.796	305.721	228.973	313.974	333.245	263.953	71.429	109.970	112.437	0.00022557	0.00064378	0.000118	1109.8	3.4121e-06	4.6542e-06	1203.3	227.13	3.2536e-06	5.309e-06	290.6	81.109	63.783	18.365	5.4299e-06	25.744	0.00023127	0.00022929	7.1903e-05	1075.2	2.4617e-06	2.5873e-06	1167.9	224.5	2.5331e-06	2.6178e-06	283.49	80.423	62.933	18.642	2.8981e-06	25.854	192.235	204.405	191.411	51.333	220.020	170.438	51.445	59.017	227.900	233.836	58.418	65.820	66.274	72.621	155.638	72.554	-8191	255	
1735.907	1	1	0	0	0.20834	0.10958	0.074124	0.31928	0.061547	0.10476	0.2608	0.24126	0.28492	0.090329	0.095332	0.14041	0.14477	0.21587	0.25782	0.17436	-1.1042	-0.34167	-1.1083	-1.0271	-0.40833	-1.3542	-1.0604	-0.84583	-1.5229	-0.45833	-1.2354	-1.2917	-0.34792	-1.3229	-0.84792	-0.58333	374.075	206.622	83.801	63.467	326.618	203.367	353.808	166.098	111.884	103.133	97.978	392.625	338.371	279.816	197.003	297.784	0.00017891	0.00033762	8.532e-05	1110.1	4.3003e-06	3.1997e-06	1205	229.34	3.2151e-06	6.8669e-06	288.78	80.716	63.278	18.568	3.1241e-06	25.603	0.00023194	0.00025124	7.2611e-05	1076.8	2.4788e-06	2.7745e-06	1168.7	225.31	2.4479e-06	2.7108e-06	283.44	80.081	62.74	18.741	2.7045e-06	25.719	186.190	156.459	145.849	51.394	237.743	185.503	51.284	58.958	249.683	209.013	58.513	65.513	65.724	72.718	211.545	72.127	-8191	255	
1736.003	1	1	0	0	0.055794	0.13434	0.34507	0.30183	0.14552	0.24997	0.25178	0.13068	0.076873	0.11721	0.12139	0.14296	0.046866	0.39555	0.19083	0.15233	-1.1688	-0.61875	-0.90417	-1.4062	-0.34583	-1.4062	-1.3583	-0.70208	-1.3021	-0.72292	-0.74375	-1.4542	-0.66667	-1.5	-0.86667	-0.5	126.146	132.436	144.679	313.185	359.572	137.427	297.984	330.535	240.843	314.315	177.697	346.996	179.619	354.338	93.242	289.066	0.00016977	0.00024329	0.00012185	1104.7	2.6059e-07	5.703e-06	1201.3	228.77	2.6349e-06	4.2769e-06	288.43	80.871	63.627	18.601	1.9808e-06	25.879	0.00021948	0.00025052	6.6801e-05	1072.5	2.3859e-06	2.7614e-06	1166.3	224.69	2.4977e-06	2.8496e-06	283.51	80.245	62.818	18.736	2.6537e-06	25.781	197.367	208.590	243.999	51.119	182.921	171.859	51.461	58.803	158.660	219.659	58.238	65.353	66.027	72.314	93.051	71.970	-8191	255	
1736.124	1	1	0	0	0.25688	0.0064539	0.1876	0.26018	0.092418	0.15044	0.11682	0.21522	0.19135	0.060512	0.15886	0.11035	0.067666	0.15387	0.3278	0.21078	-1.1313	-0.7375	-0.8875	-1.4896	-0.35833	-1.225	-1.2604	-0.58958	-1.0729	-0.71042	-0.85833	-1.3854	-0.51042	-1.0979	-0.99583	-0.46667	156.718	287.107	303.080	324.562	96.838	310.909	322.220	354.824	130.310	337.908	51.456	371.960	167.188	182.167	300.687	224.536	0.00016812	0.00036122	5.5616e-05	1109	1.0572e-06	5.3448e-06	1199.9	228.75	4.4901e-06	4.02e-06	289.91	80.537	63.879	18.514	4.3362e-06	25.704	0.00023206	0.0002677	6.5285e-05	1074.8	2.6e-06	2.8653e-06	1165.1	224.94	2.6952e-06	2.9102e-06	283.54	80.121	63.448	18.767	2.69e-06	25.835	170.038	212.649	377.586	50.974	229.401	211.610	51.178	58.948	231.107	158.323	58.187	65.659	65.772	72.616	229.453	72.030	-8191	255	
1736.220	1	1	0	0	0.18304	0.3531	0.17531	0.18086	0.13174	0.21932	0.24736	0.18871	0.048128	0.3856	0.11608	0.09508	0.13519	0.15788	0.099665	0.30136	-0.9125	-0.88125	-0.56667	-1.5479	-0.42708	-0.92917	-1.3021	-0.72917	-1.4083	-0.90208	-0.52708	-1.3146	-0.8	-0.91667	-1.2792	-0.45	308.195	362.611	79.455	389.975	97.001	208.682	334.978	322.240	70.452	395.239	343.886	381.923	283.194	359.652	354.292	380.329	0.00020611	0.00051854	8.4545e-05	1108.1	2.5281e-06	2.5641e-06	1201.8	228.91	5.6822e-06	2.9601e-06	292.21	81.025	63.922	18.488	3.7874e-06	25.719	0.00025753	0.00026815	6.6737e-05	1075.9	2.883e-06	2.8598e-06	1166.6	225.03	2.8951e-06	2.8275e-06	283.63	80.203	63.465	18.729	2.57e-06	25.797	192.000	75.356	93.693	50.979	245.018	177.882	51.389	58.862	212.501	142.690	58.263	65.509	65.594	72.449	185.819	71.999	-8191	255	
1736.316	1	1	0	0	0.20758	0.25314	0.12498	0.066089	0.24192	0.54336	0.35245	0.13373	0.20413	0.095742	0.27933	0.058219	0.074194	0.24533	0.26251	0.18263	-0.75833	-0.91667	-0.39375	-1.5187	-0.4375	-0.9	-1.5958	-0.38333	-1.0896	-1.0604	-0.64792	-1.5042	-0.9	-0.92917	-1.2167	-0.54583	202.906	52.884	310.738	363.424	90.634	292.788	376.118	376.203	339.468	42.451	380.759	366.620	314.950	346.112	397.187	321.641	0.00024294	0.00034537	9.3453e-05	1103.9	2.7172e-06	1.797e-06	1204.3	228.67	3.857e-06	1.037e-06	288.16	80.586	63.698	18.592	6.7209e-06	25.612	0.00025921	0.00025168	6.2963e-05	1073.5	2.9263e-06	2.6675e-06	1166.6	225.36	2.9405e-06	2.7001e-06	282.64	80.163	63.796	18.711	2.5151e-06	25.839	188.463	73.694	130.445	51.161	320.289	190.692	51.469	58.900	197.796	230.085	58.349	66.024	65.869	72.835	171.299	72.339	-8191	255	
1736.435	1	1	0	0	0.26836	0.36167	0.21624	0.19631	0.1151	0.10807	0.18195	0.13754	0.26806	0.15174	0.47832	0.16645	0.065104	0.080479	0.22199	0.23392	-0.76042	-1.0063	-0.38125	-1.425	-1.0396	-0.75833	-1.7167	-0.50208	-1.2229	-1.2479	-0.71875	-1.3479	-0.8	-0.6125	-1.2604	-0.58542	44.124	312.546	286.411	368.499	121.264	216.224	372.325	88.635	302.667	357.948	352.206	276.503	313.183	100.372	235.813	341.265	0.0002327	9.5999e-05	4.5255e-05	1108.8	2.3321e-06	1.9656e-06	1204.8	227.82	3.5697e-06	1.3872e-06	289.55	81.48	63.373	18.747	1.5019e-06	25.762	0.00026335	0.00024335	6.2686e-05	1076.2	2.9226e-06	2.582e-06	1166.5	225.39	2.8712e-06	2.6911e-06	282.62	80.625	63.457	18.719	2.496e-06	25.972	185.352	190.930	165.760	51.260	181.564	304.500	51.594	58.909	245.966	344.561	58.183	65.793	65.819	72.943	178.800	71.991	-8191	255	
1736.506	1	1	0	0	0.23849	0.10327	0.11986	0.072286	0.038134	0.32297	0.098572	0.23264	0.10898	0.1047	0.28251	0.42236	0.15773	0.078489	0.28858	0.24962	-0.68333	-1.1104	-0.4875	-1.7271	-1.0333	-0.6625	-1.8	-0.71667	-0.84167	-1.2375	-0.56875	-1.3	-1.0854	-0.55417	-1.4188	-0.75208	212.607	93.060	321.939	376.508	254.093	275.366	281.211	344.061	329.033	213.576	347.985	344.830	46.146	265.090	233.870	341.242	0.00017862	0.00041983	9.6167e-05	1113.6	2.1717e-06	4.5179e-07	1202.5	228.93	1.5954e-06	5.0395e-06	289.6	81.26	63.421	18.463	4.7436e-06	25.779	0.00025464	0.00024078	6.2537e-05	1078.4	2.8005e-06	2.5114e-06	1164.5	225.98	2.7486e-06	2.5319e-06	282.62	80.678	63.248	18.613	2.5657e-06	26.043	185.466	75.012	143.744	51.290	248.613	122.372	51.743	58.707	251.454	110.325	57.892	65.692	65.752	72.401	212.852	71.888	-8191	255	
1736.604	1	1	0	0	0.12221	0.13615	0.21955	0.43543	0.20591	0.1261	0.2082	0.12509	0.056892	0.22892	0.24701	0.12122	0.14095	0.18096	0.1211	0.22367	-0.36875	-1.3208	-0.36458	-1.1542	-1.2333	-0.33125	-1.5167	-0.54167	-0.73958	-1.5292	-0.625	-1.2417	-0.95417	-0.52292	-1.4	-1.0042	123.104	207.342	326.368	65.214	171.620	90.289	378.439	305.940	235.852	174.904	384.926	52.024	323.069	45.617	189.990	388.246	0.00021041	0.00047126	9.9005e-05	1117.2	1.6429e-06	6.944e-06	1207.4	230.63	1.2421e-06	4.2522e-06	289.08	80.882	63.569	18.481	3.8856e-06	25.742	0.00024256	0.00023631	6.5484e-05	1079.7	2.7398e-06	2.4726e-06	1168.9	226.48	2.6397e-06	2.5192e-06	283.15	80.812	63.323	18.58	2.6797e-06	26.012	190.872	118.930	73.525	51.028	358.547	220.450	51.703	58.938	240.241	169.658	58.647	65.540	65.281	72.544	203.202	72.049	-8191	255	
1736.723	1	1	0	0	0.23106	0.19048	0.15435	0.24771	0.088468	0.1818	0.31185	0.47805	0.23083	0.11744	0.31789	0.17101	0.26609	0.11259	0.40801	0.15556	-0.13958	-1.3958	-0.65833	-1.3167	-1.1021	-0.46042	-1.6667	-0.91458	-0.5	-1.3583	-0.66042	-0.93125	-1.3083	-0.62708	-1.2333	-0.9375	267.612	149.661	387.616	341.340	254.727	198.424	357.924	334.369	236.077	239.783	59.037	328.157	42.158	133.590	237.661	391.804	0.00018066	0.00020513	0.00015956	1114.8	1.6506e-06	3.0761e-06	1201.4	229.47	2.5406e-06	1.1781e-06	288.46	81.439	63.483	18.562	3.6696e-06	25.661	0.00023283	0.00022903	6.9373e-05	1081	2.636e-06	2.4334e-06	1167.4	226.39	2.5965e-06	2.4776e-06	283.52	80.63	63.061	18.643	2.7836e-06	25.952	179.101	107.043	153.825	51.184	195.358	210.237	51.545	58.788	187.401	282.867	58.349	65.809	66.139	72.672	220.620	71.911	-8191	255	
1736.819	1	1	0	0	0.17106	0.37968	0.10716	0.28149	0.20101	0.18351	0.1422	0.02375	0.2069	0.26105	0.07916	0.20918	0.21414	0.27488	0.26504	0.1993	-0.10833	-1.3479	-0.525	-1.1042	-1.5479	-0.34167	-1.4542	-1.1604	-0.60417	-1.2521	-0.68333	-1.0854	-1.325	-0.52708	-1.0958	-0.99583	221.384	107.650	185.044	337.878	153.454	397.227	373.019	42.678	318.494	95.078	272.952	394.425	357.144	59.773	259.859	281.487	0.00022702	0.00047212	8.3057e-05	1110.9	3.9089e-06	5.9125e-06	1210.1	229.33	1.8484e-06	4.2627e-06	290.74	80.556	63.362	18.507	1.1907e-06	25.685	0.00022519	0.00022718	7.2474e-05	1076	2.5226e-06	2.4328e-06	1170.6	226.16	2.4385e-06	2.5449e-06	284.69	80.226	63.039	18.685	2.9084e-06	25.867	178.321	90.141	96.006	51.306	229.474	200.666	51.462	58.793	153.292	213.580	58.524	65.611	66.079	72.407	333.872	71.796	-8191	255	
1736.916	1	1	0	0	0.26988	0.20877	0.086519	0.16699	0.13907	0.31076	0.26092	0.13987	0.16056	0.058834	0.2776	0.060767	0.031975	0.061881	0.22765	0.17513	-0.14375	-1.3813	-0.69375	-0.91667	-1.4479	-0.5	-1.4104	-1.1042	-0.425	-1.4167	-0.94167	-0.84375	-1.5	-0.57708	-1.1104	-1.2708	64.422	233.654	342.326	368.717	268.954	108.796	328.387	280.108	336.406	49.910	379.846	74.926	73.258	158.855	347.481	261.578	0.00023018	0.00045697	5.569e-05	1109.6	3.7486e-06	3.4422e-06	1200.8	230.92	4.9959e-07	5.8337e-07	290	81.053	63.894	18.579	3.8355e-06	25.889	0.00022796	0.00024692	7.4894e-05	1075.5	2.5561e-06	2.708e-06	1167.3	225.92	2.4875e-06	2.7626e-06	284.6	80.465	63.319	18.74	2.8897e-06	25.958	188.859	107.295	137.947	51.091	211.139	166.027	51.446	59.070	57.136	252.406	58.083	65.487	65.890	72.493	179.543	71.519	-8191	255	
1737.036	1	1	0	0	0.16239	0.17209	0.03209	0.49365	0.12965	0.052612	0.27304	0.23438	0.090018	0.19499	0.048549	0.15491	0.11643	0.10762	0.11628	0.27735	-0.041667	-1.3917	-0.73125	-0.56875	-1.4875	-0.75	-1.1542	-1.425	-0.49375	-1.2146	-0.90417	-0.76458	-1.4375	-0.62083	-0.86042	-1.2042	189.734	147.463	171.067	345.046	267.920	189.916	294.456	253.492	133.648	295.890	376.687	166.833	289.540	217.737	316.854	83.741	0.00021309	0.00022244	0.00011402	1109.1	2.9343e-06	7.4492e-06	1202.6	230.26	8.3797e-07	2.5266e-06	289.77	80.764	63.509	18.618	7.4009e-07	25.797	0.00022693	0.00026366	7.3916e-05	1077.5	2.5808e-06	2.9027e-06	1169	225.99	2.5172e-06	2.9295e-06	284.62	80.306	63.24	18.8	2.7945e-06	25.887	171.885	115.237	115.301	51.289	226.983	184.127	51.768	58.782	284.669	168.749	58.188	65.901	66.023	72.543	226.188	71.713	-8191	255	
1737.108	1	1	0	0	0.36743	0.027075	0.061548	0.37283	0.17219	0.064643	0.28976	0.20148	0.091838	0.088939	0.065792	0.16946	0.29422	0.16583	0.12623	0.11948	0.060417	-1.2437	-0.83542	-0.625	-1.4917	-0.46458	-1.2771	-1.4688	-0.42292	-1.3646	-1.3708	-0.51875	-1.6479	-0.86458	-0.91667	-1.3208	224.456	78.498	154.358	365.528	175.478	200.387	363.017	367.574	159.929	145.470	65.848	223.058	305.891	292.476	118.255	167.382	0.00021387	0.00065154	3.6877e-05	1116.2	9.0914e-07	2.3931e-06	1211.3	229.06	5.2473e-06	4.7808e-06	291.25	80.602	63.487	18.467	3.5114e-06	25.785	0.00023228	0.00027154	7.079e-05	1079.9	2.6286e-06	3.0029e-06	1171.3	226.08	2.6305e-06	2.9281e-06	284.54	80.127	63.266	18.793	2.6154e-06	25.829	181.828	114.593	156.242	51.307	68.768	66.668	51.640	58.739	223.510	99.401	58.269	65.727	65.877	72.492	136.820	72.025	-8191	255	
1737.204	1	1	0	0	0.23697	0.046318	0.44259	0.20202	0.11619	0.11938	0.14355	0.090811	0.25605	0.026492	0.10793	0.097821	0.10326	0.19452	0.076123	0.062546	-0.12292	-1.0812	-1.2188	-0.71042	-1.3458	-0.91042	-1.0167	-1.5146	-0.52708	-1.2437	-1.425	-0.4875	-1.325	-0.82917	-0.68542	-1.3687	158.007	338.958	43.192	204.535	124.409	278.523	317.190	41.029	359.687	105.231	151.218	191.706	250.705	230.054	303.144	241.144	0.00022749	0.00034927	0.00015598	1113.3	2.5091e-06	5.3267e-06	1206.9	230.29	3.205e-06	3.6308e-06	291.24	81.2	63.499	18.613	2.3414e-06	25.755	0.00024745	0.00026816	6.9068e-05	1077.1	2.7952e-06	2.9434e-06	1168.9	226.54	2.8296e-06	2.9002e-06	284.32	80.445	63.666	18.796	2.6052e-06	25.887	187.573	137.397	44.125	51.246	179.593	400.036	51.561	58.908	183.663	168.006	58.423	65.587	66.087	72.520	221.007	72.263	-8191	255	
1737.300	1	1	0	0	0.18047	0.13785	0.22007	0.20204	0.33594	0.1934	0.35329	0.14294	0.23968	0.17885	0.16722	0.18025	0.28792	0.30172	0.25181	0.075501	-0.066667	-0.95208	-1.1542	-0.65	-1.3062	-1.0458	-0.92083	-1.7021	-0.62917	-0.96458	-1.4979	-0.67083	-1.2542	-1.0083	-0.68333	-1.5479	95.888	248.235	56.879	72.801	237.877	134.797	323.738	346.181	87.521	295.220	104.060	349.780	131.267	120.035	163.137	361.538	0.00016103	0.00035296	6.3096e-05	1114.5	3.1638e-06	9.4979e-06	1205.7	230.65	2.1e-06	1.7739e-06	290.6	80.893	64.327	18.562	2.0774e-06	25.877	0.00026628	0.00026165	6.8083e-05	1079.1	3.0292e-06	2.9004e-06	1171.1	226.3	3.0283e-06	2.8199e-06	284.19	80.475	64.12	18.803	2.6131e-06	25.99	171.944	88.133	181.047	51.238	139.065	208.159	51.789	58.681	209.849	191.460	58.690	65.600	65.801	72.455	130.637	72.212	-8191	255	
1737.419	1	1	0	0	0.12916	0.12682	0.11928	0.29827	0.10859	0.06139	0.10023	0.33529	0.13492	0.036867	0.41949	0.097853	0.1511	0.49572	0.37039	0.10683	-0.13333	-0.99167	-1.3979	-0.6125	-1.1854	-1.1271	-0.84583	-1.5833	-0.825	-0.77917	-1.5312	-0.48542	-1.0833	-1.1271	-0.64167	-1.475	161.049	389.460	283.930	55.655	339.673	350.769	44.297	352.778	121.972	53.891	394.976	122.741	265.035	59.121	215.193	306.165	0.00018483	0.00031771	8.566e-05	1117.6	3.1859e-06	3.324e-06	1213.1	230.64	4.2821e-06	3.8428e-06	292.32	80.991	63.927	18.635	4.2283e-06	25.594	0.000284	0.00026317	6.7845e-05	1082.3	3.0958e-06	2.8793e-06	1172.9	227.3	3.1093e-06	2.764e-06	285.14	80.702	64.015	18.766	2.5365e-06	26.068	178.597	333.719	132.516	51.264	194.659	215.071	51.678	59.090	243.101	178.020	58.275	65.715	66.385	72.453	227.688	72.073	-8191	255	
1737.515	1	1	0	0	0.31942	0.25461	0.094842	0.25673	0.14796	0.11506	0.30777	0.19319	0.21845	0.16088	0.026384	0.053202	0.23052	0.34775	0.068373	0.15756	-0.24583	-0.71667	-1.55	-0.59375	-0.96042	-1.3021	-0.6375	-1.5104	-1.0021	-0.60417	-1.5583	-0.76875	-0.92917	-1.5083	-0.4125	-1.1417	226.956	107.185	378.341	380.677	261.221	118.066	314.252	316.826	207.647	193.015	399.116	50.499	287.743	386.946	96.942	337.685	0.00019325	0.00032793	8.9414e-05	1114.7	1.4318e-06	1.8386e-06	1207.3	230.58	1.6362e-06	4.6226e-06	290.35	80.903	64.06	18.536	1.8219e-06	25.88	0.0002752	0.00024584	6.546e-05	1082.4	2.9076e-06	2.756e-06	1171.3	227.88	2.9389e-06	2.6241e-06	284.31	80.943	63.849	18.749	2.4974e-06	26.156	186.064	143.522	131.998	51.439	346.290	264.286	51.617	59.081	293.272	136.611	58.139	65.813	66.434	72.535	276.381	72.384	-8191	255	
1737.611	1	1	0	0	0.095534	0.081783	0.24179	0.22005	0.068521	0.14182	0.39706	0.18036	0.057871	0.26586	0.069548	0.31495	0.07904	0.27207	0.051247	0.13954	-0.75833	-0.45833	-1.4958	-0.56875	-1.0042	-1.3708	-0.65	-1.3083	-0.97917	-0.60208	-1.6313	-0.63542	-1.0938	-1.2667	-0.37292	-1.1229	84.827	334.452	293.518	380.248	239.926	137.757	379.036	343.047	180.373	210.711	369.845	374.737	72.569	392.773	261.799	171.018	0.00018969	0.00022031	0.0001395	1118	3.6115e-06	9.7874e-06	1212.6	229.9	3.3002e-06	2.4396e-06	290.85	81.362	64.059	18.582	3.0679e-06	25.925	0.00026368	0.00023737	6.5916e-05	1082.7	2.8e-06	2.6381e-06	1172.9	227.23	2.8169e-06	2.5369e-06	284.55	80.983	63.538	18.724	2.5983e-06	26.116	169.111	67.492	159.840	51.327	253.183	113.041	51.494	58.947	235.289	142.968	58.234	65.715	66.170	72.573	215.092	72.430	-8191	255	
1737.707	1	1	0	0	0.18373	0.13457	0.075024	0.080064	0.14367	0.088555	0.20714	0.27514	0.26963	0.12781	0.17394	0.11931	0.099493	0.069751	0.070849	0.085381	-0.61875	-0.29167	-1.4146	-0.83958	-0.73333	-1.2479	-0.83958	-1.1187	-1.2812	-0.3625	-1.3917	-0.8	-0.6625	-1.4458	-0.46667	-1.1792	372.784	229.097	321.300	65.130	140.582	214.471	369.596	315.431	297.719	297.472	56.829	56.147	60.308	285.898	233.000	80.780	0.00019069	8.4031e-05	4.6281e-05	1115.3	1.4083e-06	3.1386e-06	1207.4	231.17	2.3439e-06	2.0256e-06	291.01	81.316	63.856	18.664	8.8913e-06	25.812	0.00024836	0.00022651	6.8061e-05	1083.6	2.6243e-06	2.545e-06	1171.7	227.88	2.6885e-06	2.4287e-06	285.21	80.796	63.399	18.695	2.7528e-06	26.032	176.209	110.684	77.568	51.130	219.479	245.286	51.442	59.022	208.388	210.287	58.455	65.590	66.038	72.667	236.718	71.960	-8191	255	
1737.804	1	1	0	0	0.13008	0.11362	0.17765	0.3843	0.085201	0.10684	0.14509	0.29075	0.13161	0.16453	0.23085	0.29704	0.2484	0.11294	0.30754	0.14017	-0.76875	-0.43958	-1.325	-0.91042	-0.53958	-1.3667	-0.78125	-1.2979	-1.1875	-0.58333	-1.3417	-1.1625	-0.52708	-1.55	-0.66875	-0.91458	319.649	206.951	320.572	394.235	232.033	95.003	345.858	351.638	178.552	252.871	171.967	399.861	56.283	358.212	251.346	382.742	0.00013611	1.8109e-05	0.00017923	1115	2.618e-06	4.1656e-06	1217.2	230.51	2.5569e-06	2.7563e-06	290.9	80.91	63.769	18.613	6.8869e-06	25.745	0.00024273	0.00022365	7.1819e-05	1083.2	2.6101e-06	2.5108e-06	1174.4	227.25	2.5865e-06	2.4692e-06	285.07	80.804	63.373	18.722	2.8508e-06	26.004	198.548	338.488	144.071	51.040	275.974	220.419	51.414	59.083	314.318	206.449	57.932	65.859	66.327	72.403	209.035	72.015	-8191	255	
1737.900	1	1	0	0	0.15427	0.31901	0.086158	0.264	0.15783	0.11357	0.032197	0.20067	0.23371	0.17701	0.15508	0.1543	0.13291	0.1624	0.08596	0.22122	-0.89167	-0.45417	-1.2313	-1.2229	-0.51667	-1.425	-0.79792	-0.90208	-1.1833	-0.52917	-1.2292	-1.1417	-0.64792	-1.3792	-0.67917	-0.75	205.838	369.807	291.841	53.012	79.002	391.171	230.962	354.470	160.026	208.010	391.094	373.390	178.048	103.589	73.068	338.110	0.00018694	0.00052368	6.041e-05	1119.8	2.1339e-06	3.5564e-06	1210.4	231.3	2.0418e-06	4.3963e-06	293.41	81.031	64.088	18.523	3.6045e-06	25.75	0.00023764	0.00023587	7.4541e-05	1084.9	2.5267e-06	2.6273e-06	1175.3	227.66	2.579e-06	2.6399e-06	286.48	80.901	63.422	18.775	2.9601e-06	25.947	204.446	114.250	94.072	51.191	183.831	192.147	51.568	58.785	168.866	176.474	58.392	65.696	65.772	72.405	381.675	72.033	-8191	255	
1737.996	1	1	0	0	0.1776	0.16987	0.14668	0.066351	0.17217	0.083966	0.12704	0.12806	0.20992	0.23496	0.21143	0.12044	0.12754	0.068478	0.25276	0.21091	-1.1771	-0.50208	-1.0792	-1.3375	-0.36458	-1.3625	-1.0938	-0.8375	-1.4708	-0.45208	-1.0792	-1.1396	-0.43958	-1.1604	-0.87083	-0.85208	349.876	188.553	101.065	332.720	229.807	284.621	320.534	374.061	362.437	154.442	319.924	301.645	73.534	191.830	288.774	377.443	0.00016469	0.00045644	6.0108e-05	1117.8	7.7409e-07	1.0024e-06	1213.9	231.19	2.1359e-06	3.7879e-06	292.13	81.739	63.819	18.681	5.7333e-07	25.963	0.00023814	0.00025638	7.5981e-05	1084	2.5443e-06	2.8175e-06	1176.7	227.78	2.5823e-06	2.8411e-06	285.76	80.752	63.384	18.855	2.8721e-06	25.987	181.107	109.592	185.246	51.320	186.174	187.065	51.434	58.978	279.310	183.360	58.290	65.549	65.739	72.347	67.693	72.288	-8191	255	
1738.117	1	1	0	0	0.11579	0.12963	0.069844	0.122	0.088586	0.22849	0.11936	0.039559	0.26931	0.26078	0.22615	0.22107	0.33489	0.11463	0.1376	0.047613	-1.0208	-0.45208	-1.0021	-1.3146	-0.35833	-1.3479	-1.3125	-0.56667	-1.4562	-0.54167	-1.0271	-1.4854	-0.72292	-1.2938	-0.91042	-0.44583	277.524	97.330	332.669	386.062	320.487	101.301	93.929	70.379	123.794	379.681	264.908	345.053	71.524	225.943	293.593	282.097	0.00019562	5.5153e-05	8.5491e-05	1117.5	3.4291e-06	3.9267e-06	1206.8	230.8	2.3333e-06	3.3174e-06	292.5	80.908	64.006	18.563	3.2871e-06	25.773	0.0002325	0.00026514	7.0664e-05	1083	2.5044e-06	2.8797e-06	1173	227.12	2.5475e-06	2.9192e-06	285.5	80.376	63.33	18.845	2.7475e-06	25.837	189.608	246.810	207.380	51.076	174.711	192.200	51.728	58.943	212.834	183.978	58.352	65.637	66.115	72.690	194.104	72.303	-8191	255	
1738.213	1	1	0	0	0.072989	0.097485	0.303	0.38144	0.13706	0.14738	0.17469	0.24239	0.18696	0.21278	0.052882	0.19459	0.12828	0.26741	0.18022	0.26441	-1.2125	-0.74375	-0.84583	-1.4333	-0.46875	-1.2687	-1.0187	-0.66667	-1.3521	-0.56458	-0.66875	-1.3521	-0.55208	-1.2271	-1.1792	-0.54583	375.800	44.990	328.971	345.861	63.990	352.094	69.919	97.499	283.166	105.022	390.926	350.710	93.625	107.821	330.819	347.947	0.00020078	0.0001833	3.5613e-05	1118	3.1632e-06	4.5563e-06	1210.2	230.64	2.3457e-06	1.8387e-06	291.51	80.785	63.886	18.631	2.5536e-06	25.99	0.00023743	0.00027007	6.8582e-05	1082.8	2.6775e-06	2.9634e-06	1172.3	226.93	2.7306e-06	2.9449e-06	284.57	80.629	63.83	18.884	2.7196e-06	25.969	182.172	107.244	195.520	51.423	225.454	132.524	51.599	59.126	203.130	85.379	58.263	65.545	65.960	72.662	364.672	72.186	-8191	255	
1738.307	1	1	0	0	0.26322	0.26877	0.10213	0.28755	0.21135	0.13929	0.15896	0.082929	0.16375	0.37345	0.047669	0.13839	0.12588	0.26433	0.16255	0.13003	-1.0688	-0.70417	-0.59583	-1.5125	-0.64375	-1.0854	-1.2354	-0.66458	-1.3229	-0.86042	-0.60208	-1.5104	-0.65833	-0.84167	-1.4312	-0.6875	67.581	306.068	121.356	349.329	299.072	155.996	355.831	153.492	223.923	94.042	167.137	149.474	54.326	281.970	343.224	307.979	0.00020422	0.00018843	0.00012888	1115.5	4.5538e-06	5.6906e-06	1207.5	231.89	3.361e-06	1.6394e-06	290.79	80.983	64.201	18.669	3.4795e-06	25.706	0.00026152	0.00027897	6.9085e-05	1080.7	2.9378e-06	2.9058e-06	1174.2	227.29	2.9104e-06	2.9819e-06	284.95	80.625	64.083	18.847	2.7e-06	25.924	186.759	99.065	119.459	51.335	201.775	281.725	51.346	58.792	261.179	83.251	58.545	65.725	65.989	72.747	153.181	72.337	-8191	255	
1738.405	1	1	0	0	0.07251	0.12479	0.21176	0.22333	0.28556	0.074242	0.17979	0.066631	0.10875	0.075889	0.17686	0.27708	0.16186	0.23514	0.23433	0.010111	-0.925	-0.86667	-0.46458	-1.4833	-0.725	-1.0667	-1.3271	-0.54792	-1.1458	-1.0792	-0.66458	-1.5312	-0.70417	-0.84375	-1.3937	-0.47292	271.478	138.957	98.168	380.431	308.229	149.637	370.237	136.174	295.445	41.482	393.662	79.396	290.651	54.965	137.919	206.083	0.00019154	0.00052544	8.9127e-05	1125	2.1224e-06	4.9661e-06	1211	230.86	2.2506e-06	4.8538e-07	292.4	80.929	64.083	18.581	5.7997e-07	25.856	0.00027153	0.00026183	6.5151e-05	1085.3	2.9746e-06	2.7382e-06	1173.1	227.17	2.9133e-06	2.7831e-06	285.18	80.617	63.846	18.754	2.5557e-06	25.973	184.473	153.947	174.374	51.426	205.971	324.670	51.724	59.195	169.009	321.828	58.540	65.484	65.845	72.821	196.895	72.567	-8191	255	
1738.499	1	1	0	0	0.10198	0.14698	0.23108	0.4208	0.1243	0.020183	0.23498	0.26026	0.033967	0.34336	0.31749	0.075155	0.41722	0.1244	0.01563	0.28484	-0.93958	-1.1958	-0.37708	-1.4375	-0.99583	-0.66458	-1.4646	-0.67292	-1.1792	-1.3062	-0.5	-1.4854	-0.86667	-0.79792	-1.3958	-0.76042	309.301	310.833	61.320	364.025	68.052	59.960	381.865	297.451	150.624	298.455	60.069	89.575	83.468	347.160	355.865	100.924	0.0002025	0.00027128	0.00011078	1114.4	4.3429e-06	1.1284e-06	1213.7	230.87	2.8926e-06	2.9591e-06	293.07	81.612	64.095	18.57	1.7068e-06	25.955	0.00026376	0.00024611	6.3389e-05	1081.2	2.9094e-06	2.6156e-06	1173.1	227.72	2.8542e-06	2.6839e-06	284.72	80.959	63.888	18.741	2.5219e-06	26.094	191.681	161.213	120.400	51.181	203.502	222.282	51.638	58.990	340.496	337.866	58.715	65.597	66.320	72.704	164.646	72.574	-8191	255	
1738.596	1	1	0	0	0.10738	0.11917	0.13421	0.11272	0.13276	0.10856	0.16393	0.29355	0.17627	0.27279	0.16313	0.10282	0.12955	0.063668	0.035772	0.12395	-0.7125	-1.1604	-0.59583	-1.6604	-1.0042	-0.59583	-1.5854	-0.53333	-1.1	-1.3333	-0.70417	-1.1917	-0.79792	-0.53542	-1.4729	-0.6375	176.691	310.407	98.569	232.628	312.164	105.224	399.241	400.739	275.914	100.673	168.426	74.936	329.936	327.630	288.147	396.199	0.00020014	0.00020474	0.00017439	1116.4	9.1788e-07	8.7905e-06	1210.7	229.9	3.9078e-06	5.4219e-06	293.17	81.427	64.12	18.545	1.157e-06	25.766	0.00026233	0.0002438	6.3312e-05	1083.1	2.9189e-06	2.5738e-06	1172.8	227.72	2.826e-06	2.6902e-06	285.35	81.064	63.852	18.726	2.6084e-06	26.142	179.088	136.584	46.928	51.451	202.683	206.043	51.628	59.108	248.309	156.160	58.240	65.381	65.868	72.714	238.129	72.670	-8191	255	
1738.716	1	1	0	0	0.16225	0.16842	0.26267	0.12482	0.33494	0.38314	0.26807	0.2144	0.31509	0.18911	0.14219	0.2105	0.15933	0.35101	0.19805	0.095678	-0.6375	-1.3188	-0.42917	-1.0896	-1.0083	-0.55833	-1.4917	-0.86667	-0.94583	-1.55	-0.69792	-1.1479	-1.2271	-0.40625	-1.3438	-1.0063	268.621	86.862	88.308	387.160	312.170	223.735	361.199	229.480	102.633	298.127	370.442	389.276	194.721	256.904	149.821	295.076	0.00015483	0.00020647	0.00013453	1117.4	2.7161e-06	2.6722e-06	1210.3	231.71	3.0742e-06	1.5067e-06	291.66	81.312	63.738	18.711	4.8169e-06	25.909	0.00025673	0.00024138	6.6358e-05	1085.8	2.868e-06	2.6207e-06	1172.6	227.93	2.8006e-06	2.6777e-06	285.19	81.344	63.824	18.828	2.8636e-06	26.229	174.749	170.179	168.811	51.443	226.574	178.900	51.713	59.095	209.441	158.478	58.579	65.876	65.917	73.288	227.680	72.496	-8191	255	
1738.812	1	1	0	0	0.35122	0.23859	0.18514	0.31872	0.10969	0.070571	0.35488	0.13799	0.20105	0.06401	0.24353	0.22646	0.31363	0.25249	0.1633	0.20152	-0.27083	-1.2313	-0.34167	-1.1229	-1.1833	-0.39167	-1.5208	-1.1292	-0.70625	-1.4292	-0.72292	-1.1917	-1.2333	-0.58542	-1.4188	-0.85	376.642	305.382	64.391	51.934	321.025	219.043	45.029	379.544	364.550	75.591	363.440	242.465	268.380	367.348	359.272	331.876	0.00026303	0.0003561	0.00011776	1116.5	1.5138e-06	1.9493e-06	1211.6	230.81	7.009e-07	1.8034e-06	291.48	81.638	63.539	18.658	6.0442e-06	25.772	0.00025782	0.00024778	7.3812e-05	1085.3	2.8615e-06	2.6378e-06	1174.5	228.05	2.8075e-06	2.7421e-06	286.3	81.259	63.72	18.762	3.0951e-06	26.155	179.478	113.533	81.761	51.186	154.472	137.410	51.560	58.974	318.309	266.031	58.460	66.092	65.858	72.905	200.995	71.919	-8191	255	
1738.908	1	1	0	0	0.2183	0.18104	0.072993	0.35362	0.17959	0.18275	0.27617	0.14421	0.25909	0.12504	0.25134	0.30353	0.14844	0.19862	0.15733	0.15167	-0.13542	-1.3146	-0.53542	-1.0812	-1.3875	-0.42917	-1.4375	-1.1562	-0.40208	-1.4062	-0.74375	-0.95625	-1.3937	-0.50417	-1.2833	-1.2354	198.605	52.543	50.125	365.696	258.207	102.268	337.422	398.907	260.091	182.421	390.303	85.184	106.960	335.848	106.038	82.789	0.00016191	0.00025094	9.3903e-05	1112.4	3.9326e-06	4.6858e-06	1210.5	231.45	1.2951e-06	1.8791e-06	293.17	81.398	63.719	18.636	1.498e-06	25.833	0.0002583	0.0002552	7.9326e-05	1084.7	2.8547e-06	2.7171e-06	1176.9	228.53	2.7676e-06	2.7743e-06	287.47	80.993	63.889	18.755	3.1385e-06	26.154	196.627	85.996	83.408	51.709	218.435	203.770	51.658	59.212	126.730	149.045	58.436	65.762	66.167	73.206	283.517	71.836	-8191	255	
1738.980	1	1	0	0	0.182	0.30719	0.22628	0.27693	0.083325	0.23137	0.30661	0.20646	0.19679	0.13516	0.055643	0.12841	0.23218	0.072476	0.072637	0.18985	-0.05	-1.3479	-0.50833	-0.9625	-1.2646	-0.47708	-1.3583	-1.2375	-0.52708	-1.4229	-0.66458	-0.76042	-1.4312	-0.58333	-0.81667	-1.2271	78.508	238.655	234.322	363.227	199.549	96.931	325.414	140.274	149.890	380.212	228.550	277.216	308.742	115.277	52.991	389.765	0.0002281	0.00064359	0.00027929	1122.7	2.2972e-06	9.8214e-07	1211.4	230.37	2.1423e-06	4.2638e-06	291.33	81.478	64.192	18.747	4.1265e-06	26.013	0.00024633	0.00026034	8.0651e-05	1084.9	2.7352e-06	2.8033e-06	1175.9	227.7	2.6543e-06	2.8934e-06	286.47	81.071	63.827	18.861	3.1435e-06	26.136	185.840	135.536	149.015	51.608	185.190	253.671	51.857	59.199	307.435	152.917	58.513	66.260	65.986	73.053	130.780	71.968	-8191	255	
1739.101	1	1	0	0	0.31107	0.226	0.13433	0.34475	0.06625	0.17766	0.31135	0.43298	0.17941	0.22652	0.20477	0.27443	0.079218	0.24467	0.11025	0.16436	-0.16875	-1.3312	-0.825	-0.93542	-1.3937	-0.49167	-1.2458	-1.2062	-0.52083	-1.2437	-0.8375	-0.68542	-1.2729	-0.4625	-0.91458	-1.15	146.323	359.449	296.548	332.684	79.741	194.097	342.369	370.936	268.350	261.925	296.551	364.993	295.818	359.645	331.317	259.017	0.00016791	0.00042961	0.00016271	1116	2.5716e-06	4.5825e-06	1209.5	231.28	4.779e-06	1.7793e-06	291.68	81.546	63.877	18.483	5.198e-06	25.893	0.0002473	0.00027983	8.1649e-05	1084.2	2.7582e-06	3.1234e-06	1176.5	228.02	2.6989e-06	3.1726e-06	286.28	81.164	63.716	18.945	3.0621e-06	26.127	192.340	155.852	167.580	51.443	136.321	166.171	51.640	59.040	199.629	358.297	58.195	66.260	65.665	72.670	143.489	72.234	-8191	255	
1739.197	1	1	0	0	0.24706	0.17446	0.056077	0.25698	0.11127	0.24791	0.44548	0.11141	0.10519	0.14382	0.16901	0.070061	0.32664	0.18384	0.067201	0.048605	-0.05625	-1.2292	-0.89583	-0.625	-1.3542	-0.5	-1.2208	-1.4125	-0.575	-1.1417	-0.92083	-0.62292	-1.3458	-0.65	-0.7125	-1.3813	327.830	319.287	380.258	49.478	272.272	226.142	339.897	304.547	261.530	288.894	49.201	111.431	287.826	276.269	287.680	310.793	0.00021484	0.00061762	3.0107e-05	1115.3	2.8993e-06	8.7156e-06	1209.9	232.52	2.685e-06	1.9793e-06	290.72	80.92	64.269	18.692	1.8058e-06	26.177	0.00025372	0.00029419	7.8676e-05	1082.8	2.8334e-06	3.2195e-06	1176.9	228.17	2.7993e-06	3.1889e-06	286.39	80.797	64.03	19.003	2.8803e-06	26.175	186.576	160.474	182.380	51.530	184.295	230.404	51.538	59.170	245.736	242.814	58.308	65.996	65.927	72.799	49.303	72.343	-8191	255	
1739.293	1	1	0	0	0.35118	0.09874	0.18278	0.30341	0.22773	0.13877	0.14917	0.2331	0.14746	0.05844	0.075761	0.067484	0.15533	0.22855	0.29838	0.11686	0.072917	-1.1646	-0.93333	-0.68333	-1.3625	-0.75	-0.80417	-1.5083	-0.4875	-1.0458	-1.1792	-0.28333	-1.2792	-0.775	-0.48333	-1.4333	115.836	361.087	303.342	392.741	202.401	241.735	308.944	308.721	100.959	94.899	71.021	377.235	194.276	194.645	212.451	317.978	0.00020564	0.00034592	0.00012703	1120.9	5.3768e-06	5.572e-06	1216.4	232.57	1.0749e-06	1.224e-06	292.16	81.533	63.408	18.518	2.7319e-06	25.905	0.00026123	0.00029242	7.4583e-05	1083.4	2.9653e-06	3.1997e-06	1176.8	228.41	3.0189e-06	3.1682e-06	286.52	80.849	64.081	18.928	2.8685e-06	26.091	182.022	154.797	62.723	51.506	210.118	113.503	51.685	59.089	288.403	217.746	58.660	65.838	66.701	72.908	311.635	72.353	-8191	255	
1739.389	1	1	0	0	0.077822	0.13416	0.10947	0.25359	0.35252	0.17812	0.30407	0.33037	0.11916	0.1014	0.18319	0.26987	0.11905	0.27597	0.0257	0.092314	-0.077083	-1.15	-1.2042	-0.6875	-1.0583	-0.79792	-0.69792	-1.4604	-0.33958	-0.99167	-1.3229	-0.525	-1.1771	-0.86042	-0.36042	-1.3583	351.292	381.853	342.218	320.961	268.649	265.366	90.435	280.764	44.301	266.788	98.960	95.434	324.610	77.400	396.911	87.376	0.00018204	0.00053238	2.8301e-05	1113.5	4.7827e-06	4.3912e-06	1213.5	231.78	1.707e-06	3.3037e-06	291.76	81.496	64.287	18.519	1.4179e-06	25.892	0.00028431	0.00028856	7.4917e-05	1082.1	3.2072e-06	3.1841e-06	1176.4	228.23	3.2618e-06	3.1266e-06	286.8	80.935	64.523	18.933	2.8354e-06	26.122	175.884	89.777	95.717	51.808	225.908	107.595	51.834	59.187	194.124	188.151	58.552	65.541	66.130	73.305	198.525	72.503	-8191	255	
1739.508	1	1	0	0	0.13559	0.16345	0.35802	0.1833	0.22384	0.34233	0.23796	0.39331	0.024055	0.12947	0.074595	0.16635	0.12902	0.23906	0.18268	0.29692	-0.19792	-0.84792	-1.1146	-0.43333	-0.99583	-0.8375	-0.57292	-1.4292	-0.5625	-0.79792	-1.2812	-0.51042	-1.2271	-1.3	-0.44375	-1.35	106.915	325.669	118.428	389.863	94.876	101.056	371.241	347.548	279.662	234.729	195.342	377.420	364.862	381.520	127.905	292.295	0.00017124	0.00057967	5.8365e-05	1117.4	1.9015e-06	3.6762e-06	1222.6	231.61	8.9378e-07	2.4176e-06	293.37	81.649	63.866	18.688	3.7386e-06	25.864	0.00030517	0.00028633	7.5574e-05	1088	3.3924e-06	3.1827e-06	1179.9	228.72	3.3864e-06	3.0604e-06	287.23	81.542	64.638	18.981	2.8535e-06	26.185	183.746	145.285	178.526	51.757	248.002	230.701	51.874	58.930	177.933	185.347	58.324	65.825	66.349	72.984	177.748	72.337	-8191	255	
1739.604	1	1	0	0	0.37157	0.18172	0.24014	0.35011	0.11864	0.0076797	0.3098	0.16094	0.23207	0.16875	0.075192	0.29235	0.17239	0.42474	0.097165	0.13848	-0.38958	-0.76042	-1.2687	-0.47917	-1.025	-0.93542	-0.64583	-1.3021	-0.79375	-0.55208	-1.5438	-0.65	-1.075	-1.2104	-0.43958	-1.2083	262.795	100.890	215.751	306.629	219.219	224.422	269.884	348.526	276.525	386.987	196.982	352.175	229.888	376.103	197.230	246.187	0.00017946	0.00033615	0.00010889	1119.2	1.2445e-06	8.5576e-07	1210.6	232.52	1.5693e-06	1.0065e-06	292.12	82.082	64.112	18.712	5.4767e-06	26.118	0.00030859	0.00027743	7.4883e-05	1089.7	3.3274e-06	3.1009e-06	1178.3	229.58	3.3464e-06	2.9732e-06	286.83	81.869	64.719	19.01	2.823e-06	26.429	179.332	113.403	143.896	51.358	298.001	271.440	51.680	59.179	251.648	384.058	58.414	65.959	66.221	72.712	250.356	72.549	-8191	255	
1739.678	1	1	0	0	0.025222	0.046511	0.2219	0.25507	0.1065	0.042844	0.22839	0.26809	0.32678	0.12328	0.17444	0.25163	0.22803	0.24862	0.16699	0.14816	-0.43125	-0.47083	-1.3729	-0.68958	-1.0812	-1.3	-0.65208	-1.4542	-0.94167	-0.45	-1.4479	-0.75	-0.61458	-1.3896	-0.4875	-1.25	392.072	197.115	268.574	350.266	359.364	212.086	295.984	364.309	309.474	376.705	190.358	303.866	56.186	246.911	204.606	98.782	0.00018032	0.00043946	0.00012633	1123.4	2.354e-06	4.3061e-06	1219.6	232.71	4.9744e-06	1.1465e-06	294.3	81.597	64.716	18.497	7.7819e-06	26.005	0.00030354	0.00027557	7.506e-05	1093.2	3.2255e-06	3.0376e-06	1182.1	230.17	3.2863e-06	2.9284e-06	287.66	81.799	64.735	18.891	2.9461e-06	26.468	207.980	130.735	44.042	51.826	281.991	214.490	52.007	59.544	214.263	181.708	58.822	66.077	66.391	72.964	150.691	72.636	-8191	255	
1739.797	1	1	0	0	0.13848	0.24147	0.080305	0.10049	0.14284	0.38001	0.14037	0.13263	0.16978	0.1789	0.31504	0.13552	0.062735	0.23495	0.20378	0.25376	-0.92708	-0.41042	-1.1625	-0.74583	-0.79792	-1.4958	-0.53333	-1.1542	-0.95208	-0.42083	-1.4083	-0.75	-0.70625	-1.4854	-0.49583	-0.98333	75.625	225.473	340.065	282.673	89.061	361.228	312.411	340.493	111.691	77.658	262.121	354.289	156.764	61.241	273.015	57.576	0.00012455	0.00029728	0.00012333	1125.3	2.4364e-06	5.422e-06	1212.2	232.81	1.8083e-06	3.229e-06	293.19	81.705	64.082	18.584	5.6984e-06	25.967	0.00029404	0.00026595	7.7825e-05	1094.8	3.1425e-06	2.9862e-06	1180.6	230.54	3.1544e-06	2.865e-06	288.63	81.848	64.535	18.893	3.2095e-06	26.434	179.474	108.600	124.293	51.070	250.158	185.622	51.379	59.056	198.139	164.309	58.372	65.892	65.558	72.511	155.595	72.420	-8191	255	
1739.893	1	1	0	0	0.10481	0.22562	0.07753	0.27009	0.1415	0.25852	0.25913	0.076408	0.10928	0.24126	0.15375	0.030772	0.1414	0.22596	0.11232	0.11512	-0.57917	-0.51042	-1.2687	-0.75625	-0.66875	-1.3271	-0.72083	-1.1417	-1.1708	-0.43125	-1.225	-0.85208	-0.66875	-1.2875	-0.52292	-0.77292	98.193	132.917	122.910	388.637	380.856	203.933	47.076	269.534	142.862	93.691	215.293	317.793	86.828	121.179	112.707	301.333	0.00015229	0.00037448	0.0001474	1128.2	4.12e-06	4.3494e-06	1218.9	233.2	1.7595e-06	2.6788e-06	293.15	81.358	64.495	18.629	3.4707e-06	26.027	0.00028428	0.00026361	8.2594e-05	1096.4	3.0459e-06	2.9781e-06	1185.6	230.27	3.078e-06	2.9349e-06	289.11	81.71	64.378	18.893	3.382e-06	26.367	175.727	58.544	201.910	51.126	240.813	329.642	51.465	59.155	163.668	215.513	58.579	65.738	65.697	72.604	183.314	72.011	-8191	255	
1739.989	1	1	0	0	0.0084903	0.10211	0.085181	0.28412	0.25137	0.024611	0.095817	0.1102	0.15299	0.096845	0.25191	0.19644	0.22238	0.29575	0.058846	0.10731	-0.7125	-0.49792	-1.1688	-1.2104	-0.38958	-1.3188	-0.80833	-1.0104	-1.1646	-0.49792	-1.2021	-0.8875	-0.48125	-1.4188	-0.55208	-0.72917	393.143	348.964	201.659	390.833	298.821	344.916	336.909	59.439	261.669	87.854	293.606	379.426	351.544	119.101	55.848	384.281	0.00017197	0.00020726	7.1452e-05	1123.7	2.2592e-06	7.7986e-06	1216.7	232.06	7.815e-07	2.0842e-06	293.69	81.676	64.348	18.695	1.6412e-06	25.933	0.00027817	0.00027162	8.695e-05	1091.8	2.9745e-06	3.0365e-06	1185.6	229.64	3.0439e-06	2.9583e-06	289.55	81.733	64.043	18.978	3.3508e-06	26.264	181.110	109.019	83.028	51.156	238.536	113.444	51.588	58.643	361.405	185.928	58.104	65.673	65.914	72.683	389.271	72.217	-8191	255	
1740.085	1	1	0	0	0.13816	0.27724	0.054029	0.035754	0.18931	0.13429	0.28924	0.40148	0.13294	0.24543	0.18072	0.19441	0.32174	0.20735	0.058681	0.15003	-0.98125	-0.38542	-1.2979	-1.2604	-0.42083	-1.3667	-0.69583	-0.8625	-1.4479	-0.56458	-1.0542	-1.2563	-0.37292	-1.2917	-1.0396	-0.52708	299.091	291.710	244.411	289.665	85.096	81.016	366.440	365.111	147.748	176.409	82.547	346.825	352.260	49.848	60.830	364.052	0.00015628	0.00029288	6.6654e-05	1120.3	2.6956e-06	8.1614e-06	1224.3	232.7	2.883e-06	4.0396e-06	291.37	81.541	64.264	18.628	1.5019e-06	25.94	0.00026782	0.00028086	8.4809e-05	1092.1	2.8324e-06	3.1305e-06	1188.3	229.65	2.9131e-06	3.1439e-06	288.1	81.438	64.145	19.062	3.2969e-06	26.214	201.349	100.579	48.914	51.144	204.290	172.914	51.569	58.970	205.404	220.514	58.312	65.392	66.162	72.822	107.296	72.306	-8191	255	
1740.206	1	1	0	0	0.26363	0.27249	0.12936	0.18897	0.34766	0.11689	0.1008	0.20403	0.19905	0.10073	0.24061	0.42799	0.12646	0.14344	0.3489	0.19122	-1.0375	-0.61875	-0.79375	-1.5021	-0.59792	-1.3208	-1.1729	-0.67292	-1.1917	-0.53958	-1.0333	-1.3	-0.32292	-1.3979	-0.89583	-0.51458	274.562	182.480	296.685	388.721	399.618	382.953	101.633	388.222	253.433	72.837	310.733	82.722	98.883	229.026	197.206	351.719	0.00018787	0.00031131	0.00011228	1128.9	4.0819e-06	5.6733e-06	1221.6	233.82	2.8612e-06	3.1509e-06	292.74	82.14	64.422	18.766	4.2817e-06	26.022	0.00026352	0.00029533	8.2369e-05	1094.6	2.8524e-06	3.2848e-06	1184.9	229.84	2.9065e-06	3.3479e-06	288.56	81.616	64.268	19.143	3.2487e-06	26.191	164.322	102.661	151.602	51.178	222.552	206.070	51.843	58.707	174.988	183.472	58.137	65.432	65.954	72.548	82.396	72.114	-8191	255	
1740.277	1	1	0	0	0.058503	0.17262	0.10164	0.28906	0.24524	0.11401	0.18015	0.24944	0.15251	0.10038	0.26694	0.12764	0.21761	0.11434	0.086719	0.30635	-1.0021	-0.87917	-0.71458	-1.4167	-0.43542	-1.0604	-1.1208	-0.42083	-1.2896	-0.61042	-0.86042	-1.0646	-0.5875	-1.0208	-1.0938	-0.41667	347.222	239.892	340.381	318.558	333.463	130.130	340.058	47.682	252.661	191.987	47.583	88.608	125.479	71.732	95.107	65.231	0.00019365	0.00034502	2.3849e-05	1121.8	2.3385e-06	4.7448e-06	1223	233.43	4.1309e-06	2.5207e-06	294.55	81.964	64.416	18.706	7.5878e-07	25.91	0.00027565	0.00032004	8.0957e-05	1091.8	3.0098e-06	3.4512e-06	1186.2	230.04	3.0941e-06	3.4204e-06	288.26	81.587	64.615	19.15	3.1515e-06	26.184	183.038	274.368	142.162	51.121	217.570	168.413	51.553	58.852	223.216	121.975	58.331	65.510	65.936	72.686	254.442	72.339	-8191	255	
1740.398	1	1	0	0	0.25119	0.34927	0.12595	0.26781	0.19758	0.15775	0.12395	0.20925	0.14769	0.13175	0.068297	0.094272	0.16928	0.23607	0.057489	0.36654	-0.90417	-0.79792	-0.60625	-1.3667	-0.37083	-1.1229	-1.1833	-0.50208	-1.3104	-0.77292	-0.83125	-1.2542	-0.52917	-1.0604	-1.0229	-0.64167	272.553	281.088	314.238	302.464	98.703	232.149	380.421	361.721	339.798	134.146	376.279	362.928	311.553	346.693	360.214	315.724	0.00022073	0.00040065	9.6846e-05	1127.5	1.6104e-06	3.0671e-06	1225	231.88	2.5594e-06	4.4781e-06	292.27	81.982	64.225	18.549	4.0352e-06	26.044	0.00028904	0.00032014	7.8627e-05	1094.2	3.2534e-06	3.3905e-06	1186.7	229.18	3.3039e-06	3.4286e-06	287.89	81.563	64.715	19.085	3.1332e-06	26.226	185.107	352.357	348.616	51.446	93.057	97.975	51.693	59.091	236.186	212.241	58.733	65.694	66.291	72.681	87.579	72.313	-8191	255	
1740.494	1	1	0	0	0.08266	0.046961	0.23759	0.28189	0.18897	0.15695	0.088387	0.2966	0.14946	0.053036	0.20903	0.065154	0.13254	0.17348	0.022653	0.080431	-0.98958	-0.82708	-0.58542	-1.5271	-0.60417	-0.96458	-1.5	-0.40625	-1.2208	-1.0792	-0.6375	-1.4771	-0.66875	-0.97292	-1.1479	-0.38958	362.347	108.637	191.717	345.275	127.190	260.072	174.062	348.517	114.711	127.950	315.862	145.106	117.999	170.404	224.815	311.152	0.00020594	0.00031877	5.1608e-05	1129.7	2.1901e-06	3.3456e-06	1221.9	232.41	3.7941e-06	1.9474e-06	292.86	81.669	64.188	18.71	7.5573e-06	26.138	0.000307	0.00031207	7.7269e-05	1095.6	3.4832e-06	3.3284e-06	1186.8	229.45	3.49e-06	3.3836e-06	287.69	81.704	64.906	19.098	3.0794e-06	26.376	185.181	332.531	375.171	51.329	137.147	171.886	51.743	58.903	187.004	204.193	58.754	66.002	65.735	72.843	169.295	72.246	-8191	255	
1740.588	1	1	0	0	0.17324	0.23297	0.25584	0.19624	0.15807	0.11916	0.29512	0.22574	0.18484	0.29651	0.23807	0.18976	0.037729	0.1384	0.17283	0.21599	-0.86875	-0.975	-0.6	-1.4292	-0.70625	-0.89583	-1.5417	-0.60625	-1.0896	-1.0125	-0.66875	-1.5063	-0.79167	-0.58958	-1.625	-0.4875	119.465	278.615	152.261	345.838	349.689	283.028	312.617	320.995	48.151	330.983	284.971	286.193	298.699	61.557	189.340	330.828	0.00015897	0.00039612	8.0467e-05	1125.1	2.28e-06	5.3892e-06	1222.1	233.19	6.8299e-06	3.5687e-06	293.89	81.619	64.472	18.638	1.6178e-06	26.043	0.0003162	0.00030055	7.6509e-05	1095.5	3.5501e-06	3.2107e-06	1187.5	230.1	3.5039e-06	3.2543e-06	288.1	81.948	65.046	19.008	3.0027e-06	26.367	187.655	295.921	150.569	51.436	165.765	138.837	51.603	59.328	197.688	191.386	58.360	65.975	66.331	73.007	192.650	72.276	-8191	255	
1740.685	1	1	0	0	0.21445	0.21268	0.22548	0.30544	0.049287	0.019135	0.30755	0.17059	0.2228	0.087325	0.34829	0.11579	0.092942	0.10545	0.25	0.30924	-0.71667	-1.1167	-0.37708	-1.5312	-0.74792	-0.63333	-1.5646	-0.6	-1.0583	-1.2333	-0.475	-1.3833	-0.88333	-0.76042	-1.3	-0.72083	104.996	46.058	216.083	338.636	168.788	253.910	325.272	352.816	338.874	233.223	54.404	359.228	362.230	388.959	324.362	339.570	0.00017899	0.00024035	7.3602e-05	1127.8	1.2123e-06	5.1084e-06	1221.3	232.22	3.0567e-06	1.9976e-06	295.71	81.925	63.96	18.673	1.8233e-06	25.961	0.00031196	0.00028918	7.411e-05	1097.6	3.4891e-06	3.0925e-06	1186.1	230.56	3.4025e-06	3.1485e-06	288.11	82.163	64.92	19.032	3.0161e-06	26.507	196.021	88.826	125.408	51.479	165.741	165.612	51.910	59.065	220.658	135.183	58.506	66.111	65.768	72.818	90.949	71.874	-8191	255	
1740.805	1	1	0	0	0.28555	0.012601	0.16186	0.21194	0.26309	0.3159	0.19537	0.08946	0.43885	0.09344	0.10392	0.32485	0.34582	0.29315	0.2794	0.10346	-0.46042	-1.3021	-0.4125	-1.3708	-0.90625	-0.5375	-1.5521	-0.82083	-0.83125	-1.3188	-0.5875	-1.2708	-0.95	-0.45625	-1.3292	-0.75	354.951	233.841	130.426	356.001	156.575	57.179	376.781	313.857	53.416	111.293	176.204	332.459	316.369	365.839	131.795	343.065	0.00021293	0.00031748	8.5413e-05	1127.2	1.8458e-06	3.4093e-06	1220.5	234.3	1.9356e-06	2.8527e-06	293.9	81.833	64.124	18.732	8.2801e-06	26.066	0.0002999	0.00028711	7.6425e-05	1097.2	3.4061e-06	2.9906e-06	1185.4	231.36	3.2378e-06	3.0433e-06	288.59	82.113	64.611	18.986	3.138e-06	26.479	187.732	118.011	122.372	51.517	156.314	219.387	51.768	59.120	255.173	140.969	58.620	66.304	66.391	72.440	174.975	71.811	-8191	255	
1740.901	1	1	0	0	0.12318	0.12591	0.070347	0.11993	0.19523	0.21698	0.13734	0.54081	0.074611	0.3332	0.19194	0.045195	0.20221	0.14995	0.079512	0.22914	-0.32292	-1.3833	-0.46042	-1.1854	-1.1479	-0.48542	-1.4	-0.80625	-0.79583	-1.5042	-0.675	-1.2792	-1.1417	-0.42292	-1.3729	-0.89792	365.921	319.550	290.201	180.157	99.714	54.777	129.146	391.499	138.704	382.367	93.984	169.182	303.509	147.761	378.055	394.759	0.00017325	0.00028205	8.376e-05	1129	5.3586e-06	1.0252e-06	1221.5	234.23	1.7488e-06	3.2792e-06	296.01	81.557	64.498	18.688	4.3447e-06	26.031	0.00028946	0.00028134	8.0035e-05	1099.6	3.2037e-06	2.887e-06	1186.8	230.92	3.1039e-06	2.9848e-06	289.31	81.955	64.685	18.959	3.3409e-06	26.422	179.561	362.234	105.055	51.312	236.749	380.194	51.699	59.070	198.848	186.267	58.214	65.599	66.104	72.433	184.669	72.260	-8191	255	
1740.973	1	1	0	0	0.22529	0.25847	0.083884	0.47658	0.19872	0.14419	0.19572	0.10215	0.19797	0.26587	0.16394	0.21129	0.066467	0.2853	0.082185	0.19047	-0.37917	-1.5083	-0.46042	-1.1229	-1.3167	-0.35417	-1.5812	-0.85208	-0.64375	-1.4354	-0.58125	-0.89167	-1.3083	-0.58958	-1.0042	-0.9375	276.798	395.033	156.517	72.592	95.528	73.013	365.635	349.499	205.100	334.317	371.674	350.644	299.665	324.189	258.316	382.720	0.00023683	0.00064346	0.00016295	1129.8	2.8455e-06	7.8731e-06	1217.2	232.66	1.3151e-06	1.4327e-06	293.43	81.773	64.323	18.633	1.954e-06	26.172	0.00028053	0.00027302	8.4561e-05	1097.5	3.1274e-06	2.8464e-06	1186	229.95	2.976e-06	2.9242e-06	289.2	81.943	64.387	18.949	3.362e-06	26.405	186.689	138.639	107.356	51.358	217.782	163.482	51.823	59.315	257.882	303.853	58.578	66.287	66.181	73.059	128.338	72.644	-8191	255	
1741.069	1	1	0	0	0.14128	0.12188	0.26709	0.23714	0.091653	0.079763	0.4002	0.21924	0.17863	0.074181	0.44617	0.12429	0.087676	0.13547	0.26341	0.13594	-0.31875	-1.2646	-0.67708	-0.97083	-1.275	-0.3625	-1.2313	-1.0125	-0.40417	-1.4229	-0.86042	-0.84792	-1.1771	-0.41667	-1.1958	-1.2208	342.084	50.524	82.589	208.554	263.844	47.145	400.936	57.313	329.834	56.392	314.848	373.563	385.498	49.607	391.044	370.165	0.00019795	0.00077521	2.8868e-05	1132.9	1.9895e-06	4.6692e-06	1226.8	233.14	5.161e-06	2.6462e-06	292.75	81.361	64.012	18.822	3.9696e-06	26.115	0.0002669	0.00027657	8.7547e-05	1097.8	2.997e-06	2.9958e-06	1191.2	230.47	2.9612e-06	3.1076e-06	289.4	81.569	64.319	19.06	3.4133e-06	26.312	177.827	132.588	280.990	51.521	217.027	124.068	51.810	59.095	223.298	127.506	58.527	66.100	66.340	73.227	172.853	72.597	-8191	255	
1741.190	1	1	0	0	0.030739	0.27744	0.10155	0.29438	0.33425	0.060641	0.064004	0.099498	0.20647	0.22656	0.21158	0.13454	0.044265	0.1941	0.066379	0.21557	0.066667	-1.2333	-0.71667	-0.66458	-1.3813	-0.39167	-1.0812	-1.2667	-0.3375	-1.3896	-0.9375	-0.85625	-1.3687	-0.4625	-1.0125	-1.3958	319.916	108.627	89.251	367.103	224.986	312.495	217.323	166.358	122.247	317.061	343.438	42.798	335.680	193.572	67.762	385.857	0.0001786	0.00032326	4.1023e-05	1132.1	2.6852e-06	5.9418e-06	1222.4	232.92	4.221e-06	5.5169e-06	295.66	81.762	64.228	18.739	6.4046e-06	26.097	0.00026364	0.00029273	8.8077e-05	1097.4	2.9724e-06	3.1926e-06	1187.8	230.64	2.8916e-06	3.2665e-06	290.22	81.623	64.3	19.116	3.3254e-06	26.367	184.383	158.153	154.802	51.457	262.342	160.927	51.931	59.397	261.781	252.827	58.894	65.857	65.988	73.187	219.561	72.351	-8191	255	
1741.286	1	1	0	0	0.24576	0.15907	0.14303	0.044609	0.11734	0.23189	0.031811	0.16169	0.17342	0.079005	0.24021	0.23334	0.11897	0.15555	0.29487	0.10128	0.039583	-1.3083	-0.79167	-0.67083	-1.3646	-0.68542	-1.1958	-1.3458	-0.49375	-1.3271	-0.99583	-0.4125	-1.4354	-0.61042	-0.70625	-1.2313	335.777	96.321	107.321	389.993	283.163	239.370	146.190	173.975	60.932	290.570	354.485	361.429	158.835	370.500	245.832	250.558	0.00017574	0.00025314	9.2453e-05	1128.7	4.5854e-06	7.8697e-06	1227.5	232.39	3.2001e-06	1.1381e-06	294.7	81.619	64.7	18.83	5.5521e-06	25.911	0.0002652	0.00031007	8.4987e-05	1096.5	3.0356e-06	3.4173e-06	1188.3	230.14	2.994e-06	3.4408e-06	288.92	81.494	64.665	19.135	3.1433e-06	26.278	181.420	44.871	297.989	51.560	196.571	101.704	52.051	59.140	223.690	150.788	58.396	66.129	65.806	72.466	180.586	72.442	-8191	255	
1741.380	1	1	0	0	0.1559	0.19955	0.25896	0.093928	0.15697	0.14338	0.222	0.14617	0.26922	0.18833	0.17232	0.33845	0.19156	0.090592	0.1713	0.18897	-0.095833	-1.0646	-1.0021	-0.53958	-1.2625	-0.69583	-0.80833	-1.5229	-0.39375	-1.225	-1.2	-0.44167	-1.3979	-0.83333	-0.69375	-1.5479	382.525	82.342	138.467	297.128	271.170	370.153	334.104	336.214	119.606	259.697	305.246	356.318	77.553	335.715	361.799	96.495	0.00019982	0.00012958	6.5853e-05	1126.8	4.9287e-06	4.7357e-06	1221.1	233.91	4.6335e-06	7.7938e-07	294.66	81.48	65.047	18.663	1.1982e-06	26.257	0.00027154	0.00031517	8.0549e-05	1094.9	3.1144e-06	3.3837e-06	1186.9	230.46	3.0833e-06	3.3722e-06	288.7	81.36	64.723	19.136	3.0321e-06	26.297	179.950	317.432	135.027	51.489	180.541	392.291	51.969	59.214	169.275	376.695	58.440	66.151	66.241	72.862	45.087	72.254	-8191	255	
1741.478	1	1	0	0	0.1163	0.14435	0.10159	0.21275	0.22865	0.28111	0.14025	0.13411	0.062307	0.137	0.1389	0.13423	0.24998	0.14514	0.30923	0.24265	-0.022917	-0.88125	-1.0333	-0.58333	-1.3458	-0.78125	-0.76458	-1.55	-0.4375	-0.88542	-1.3271	-0.61458	-1.3646	-1.0396	-0.67292	-1.4167	343.610	273.818	231.061	61.570	128.896	118.131	344.674	45.374	364.195	355.387	377.335	366.295	76.145	281.565	322.074	49.391	0.00022803	0.00082783	0.00011822	1130.8	1.8431e-06	5.022e-06	1221.3	233.46	3.5114e-06	3.5408e-06	295.95	82.249	64.56	18.677	7.1717e-06	25.744	0.00029007	0.00030737	7.9021e-05	1095.6	3.2749e-06	3.4006e-06	1186.1	230.11	3.3639e-06	3.3111e-06	289.08	81.638	64.862	19.113	2.9511e-06	26.185	184.281	154.497	52.501	51.640	248.370	374.410	52.063	59.445	194.185	169.348	58.878	65.964	66.743	73.200	233.577	72.213	-8191	255	
1741.574	1	1	0	0	0.17163	0.014664	0.2619	0.091212	0.12515	0.16676	0.21976	0.40945	0.15974	0.18399	0.11102	0.31124	0.18674	0.077966	0.22205	0.23353	-0.28125	-0.87708	-1.4875	-0.46458	-1.1396	-1.0354	-0.74375	-1.4854	-0.39792	-0.85417	-1.5083	-0.41875	-1.2667	-1.0208	-0.4625	-1.4021	89.642	306.582	134.794	341.662	110.183	106.124	336.512	395.239	365.678	312.362	389.934	194.593	354.106	138.685	64.909	315.965	0.00020986	0.00039766	8.7147e-05	1132.6	4.2848e-06	3.3358e-06	1222.2	234.44	2.4145e-06	2.5219e-06	293.97	81.555	65.092	18.723	6.1293e-06	26.203	0.00030995	0.00029445	7.8138e-05	1096	3.4592e-06	3.2491e-06	1187	230.9	3.4746e-06	3.1305e-06	288.32	81.665	65.287	19.042	2.924e-06	26.356	170.133	367.656	131.803	51.850	180.349	59.277	52.394	59.522	192.435	212.035	58.894	66.151	66.749	73.397	102.871	72.985	-8191	255	
1741.669	1	1	0	0	0.33094	0.23473	0.055842	0.015188	0.33678	0.25246	0.31201	0.052371	0.091756	0.061354	0.12621	0.25517	0.19616	0.29414	0.19499	0.25671	-0.40833	-0.88125	-1.3833	-0.76667	-0.91458	-1.075	-0.89167	-1.6167	-0.78958	-0.62917	-1.3667	-0.62292	-1.1938	-1.1646	-0.62292	-1.3208	400.735	143.530	244.960	299.317	292.086	67.186	317.326	333.733	346.425	399.084	42.373	122.737	76.173	311.628	108.850	63.160	0.00019028	0.0002384	1.5692e-05	1124.8	3.2984e-06	2.2697e-06	1223.6	233.8	5.5005e-06	4.8184e-06	293.05	81.869	64.786	18.873	4.2578e-06	25.961	0.00031482	0.00028518	7.4701e-05	1095.1	3.3983e-06	3.1158e-06	1185.8	230.73	3.3938e-06	2.9942e-06	287.28	81.821	65.034	19.046	2.8127e-06	26.347	183.452	57.611	233.634	52.079	212.250	77.246	52.323	59.330	229.518	178.083	59.072	66.305	66.883	73.008	207.434	72.496	-8191	255	
1741.765	1	1	0	0	0.028464	0.18347	0.4003	0.22771	0.22277	0.15923	0.084841	0.21441	0.14956	0.054829	0.28378	0.29244	0.1787	0.27951	0.2596	0.13089	-0.49792	-0.86042	-1.4917	-0.60208	-1.1042	-1.3813	-0.59375	-1.175	-0.86458	-0.55417	-1.4354	-0.63958	-0.81042	-1.3687	-0.29792	-1.4083	81.407	124.043	350.806	384.944	242.410	143.466	278.682	369.985	396.113	136.374	70.453	368.827	69.295	62.913	317.009	53.085	0.00015376	0.00061626	2.6043e-05	1127.1	5.0889e-06	4.3287e-06	1227.2	234.56	3.3023e-06	5.421e-06	294.18	82.014	63.945	18.788	6.1684e-06	26.116	0.00029999	0.00027178	7.3201e-05	1096.5	3.2409e-06	3.0461e-06	1185.3	230.94	3.2818e-06	2.9235e-06	287.96	82.056	64.615	19.012	2.8551e-06	26.462	166.504	114.814	208.286	51.999	174.301	49.280	52.191	59.467	263.230	164.089	59.109	66.114	66.946	73.624	217.495	72.773	-8191	255	
1741.886	1	1	0	0	0.085609	0.34483	0.1472	0.11729	0.12922	0.1564	0.13163	0.12401	0.26796	0.027632	0.24076	0.13806	0.32115	0.33371	0.078916	0.22513	-0.44375	-0.59792	-1.3458	-0.73333	-0.96875	-1.2708	-0.63542	-1.2917	-1.0208	-0.43125	-1.3771	-0.79167	-0.74167	-1.425	-0.56042	-0.99583	349.411	139.587	266.804	49.905	244.155	297.688	376.541	114.734	288.523	382.468	329.504	178.434	249.733	338.012	281.296	374.988	0.00017499	0.00043409	0.00010566	1128.8	3.5203e-06	6.1944e-06	1225.8	232.56	2.9184e-06	1.3218e-06	294.18	82.175	64.249	18.633	6.0198e-06	26.28	0.00028918	0.0002677	7.6275e-05	1096.9	3.2012e-06	3.0435e-06	1186.6	230.75	3.2678e-06	2.96e-06	288.85	82.234	64.777	18.983	3.2153e-06	26.678	192.923	99.650	129.075	51.740	265.755	254.833	52.108	59.338	129.809	157.748	58.948	66.003	65.907	73.239	212.182	72.540	-8191	255	
1741.982	1	1	0	0	0.2776	0.25873	0.17013	0.045284	0.18568	0.17856	0.038745	0.26015	0.22604	0.13637	0.25649	0.19351	0.31846	0.29669	0.17438	0.29509	-0.65833	-0.55833	-1.4188	-0.85208	-0.40833	-1.5792	-0.56458	-1.2313	-1.1604	-0.38958	-1.5125	-1.0063	-0.82292	-1.1917	-0.5375	-1.0562	159.120	70.456	116.386	189.809	67.579	107.300	385.968	338.346	396.184	317.017	47.199	345.363	304.648	376.933	153.054	44.273	0.00018918	0.00041558	0.00012857	1128.9	4.842e-06	1.8883e-06	1222.4	233.43	4.1105e-06	3.719e-06	294.53	82.11	64.187	18.684	5.1342e-06	26.048	0.00029664	0.00027276	8.4111e-05	1099.4	3.1592e-06	3.0822e-06	1187.6	231.14	3.1993e-06	2.9324e-06	289.56	82.185	64.543	19.004	3.4316e-06	26.464	188.809	155.063	85.512	51.795	211.016	127.942	52.294	59.557	267.975	175.060	59.034	66.025	66.576	73.228	182.902	72.550	-8191	255	
1742.078	1	1	0	0	0.25983	0.044255	0.058285	0.33326	0.099007	0.054131	0.30026	0.36193	0.1477	0.2465	0.090215	0.14638	0.14647	0.10886	0.1659	0.087816	-0.7625	-0.32708	-1.2854	-1.0604	-0.4	-1.3875	-0.63333	-1.0458	-1.1938	-0.36042	-1.2958	-1.0812	-0.46875	-1.4167	-0.58125	-1.0208	342.279	74.901	41.840	336.355	295.312	109.273	343.222	312.703	388.522	122.920	94.119	276.722	43.184	250.115	230.660	347.023	0.00017838	0.00038835	8.2383e-05	1130	3.2833e-06	8.371e-06	1220.9	233.41	3.2314e-06	3.2943e-06	293.05	81.74	64.184	18.671	3.9579e-06	26.089	0.00029104	0.00027271	8.7899e-05	1097.7	3.1024e-06	3.1138e-06	1188.2	230.91	3.1181e-06	2.9422e-06	289.78	81.944	64.207	19.028	3.477e-06	26.369	177.559	181.611	86.936	51.842	209.537	161.447	51.955	59.541	191.997	217.634	58.794	66.382	66.851	73.446	188.214	72.638	-8191	255	
1742.174	1	1	0	0	0.1326	0.11927	0.12578	0.17081	0.10556	0.054824	0.26739	0.1459	0.13718	0.049355	0.097718	0.082595	0.25468	0.39622	0.066714	0.51879	-1.0167	-0.35208	-1.1437	-1.0729	-0.63958	-1.4167	-0.90208	-0.84792	-1.5167	-0.675	-1.1562	-0.97292	-0.33333	-1.2667	-0.49167	-0.5625	216.008	368.252	114.988	330.043	395.688	344.724	328.556	75.597	197.346	248.053	288.145	87.154	326.496	399.369	277.188	363.735	0.00015048	0.00028262	0.00012287	1130.8	3.651e-06	1.0044e-05	1220.9	233.32	1.0341e-06	4.2308e-06	293.63	81.575	64.019	18.766	1.0312e-06	25.888	0.00027812	0.00028045	8.8677e-05	1096.2	2.9302e-06	3.1014e-06	1188.5	230.59	3.0199e-06	3.1745e-06	289.6	81.714	64.237	19.079	3.4395e-06	26.308	161.357	145.573	112.847	51.791	252.957	170.242	51.898	59.467	186.226	229.232	58.903	66.059	66.555	73.036	372.738	72.675	-8191	255	
1742.270	1	1	0	0	0.10845	0.21273	0.16321	0.21417	0.19348	0.10265	0.38348	0.17765	0.012494	0.26935	0.11378	0.11715	0.30938	0.12688	0.11638	0.32513	-0.96042	-0.5	-1.0479	-1.3083	-0.50208	-1.3625	-0.98958	-1	-1.3708	-0.79583	-1.0333	-1.3188	-0.56042	-1.2729	-0.85	-0.63958	93.802	49.158	231.812	340.815	47.480	121.627	53.574	73.315	300.422	347.713	94.579	311.369	284.893	91.543	197.343	381.396	0.00018791	0.00083453	0.0001008	1123.8	1.878e-06	4.7053e-06	1220.4	233.63	1.9974e-06	4.523e-06	296.12	81.851	64.619	18.739	3.904e-06	25.977	0.00027071	0.00029905	8.6507e-05	1095.2	2.928e-06	3.3672e-06	1187.7	230.43	3.016e-06	3.3855e-06	290.07	81.837	64.539	19.111	3.3509e-06	26.29	180.361	155.324	368.933	51.716	283.310	219.613	51.896	59.052	244.263	179.905	58.914	66.122	66.523	73.156	259.107	72.694	-8191	255	
1742.366	1	1	0	0	0.098047	0.16039	0.1518	0.10875	0.25887	0.27768	0.19491	0.16017	0.10061	0.043202	0.12296	0.28	0.24147	0.086829	0.035755	0.16567	-0.85208	-0.48333	-0.76667	-1.2542	-0.35833	-1.2042	-1.0771	-0.61458	-1.3354	-0.65417	-1.0729	-1.4146	-0.24167	-1.3563	-0.91458	-0.325	327.986	105.929	227.457	47.531	137.421	122.754	281.933	210.975	78.331	240.875	365.074	81.992	364.163	188.890	199.910	345.312	0.00018637	0.00021947	7.4553e-05	1133	2.0853e-06	8.6585e-07	1218.6	232.2	8.4347e-07	1.189e-06	294.57	81.261	64.475	18.773	3.2005e-06	26.063	0.00027216	0.00031861	8.3576e-05	1097.8	2.9908e-06	3.4622e-06	1188.8	230.14	3.0744e-06	3.4938e-06	288.9	81.632	64.602	19.224	3.238e-06	26.28	175.399	393.717	166.100	51.755	187.196	337.992	51.907	59.339	251.580	145.806	58.524	65.921	66.472	73.091	155.608	72.747	-8191	255	
1742.485	1	1	0	0	0.20705	0.27387	0.17209	0.29342	0.20542	0.17013	0.28177	0.26036	0.27235	0.15269	0.23694	0.15689	0.30988	0.15136	0.10515	0.25645	-0.91667	-0.62708	-0.65625	-1.5187	-0.54583	-1.1229	-1.1562	-0.40625	-1.3729	-0.86875	-0.82292	-1.6562	-0.42083	-0.92083	-1.1896	-0.71458	139.646	399.293	369.273	368.943	192.669	245.019	140.690	59.810	195.176	145.133	98.481	327.298	203.173	119.257	345.111	112.483	0.00025905	0.0002897	0.00020084	1131.1	3.1736e-06	5.9709e-06	1218.9	233.99	1.7244e-06	4.709e-06	294.23	81.953	64.339	18.868	5.5824e-07	25.996	0.00028884	0.00032757	8.0906e-05	1096.3	3.2753e-06	3.511e-06	1186	230.1	3.3321e-06	3.5536e-06	289.38	81.686	64.844	19.199	3.1645e-06	26.288	185.233	169.257	102.641	51.631	209.416	196.013	51.933	59.443	193.409	275.018	58.777	66.179	66.475	73.117	336.482	72.684	-8191	255	
1742.581	1	1	0	0	0.16504	0.12535	0.22107	0.17638	0.14563	0.18929	0.021979	0.15012	0.2263	0.13459	0.18082	0.33758	0.081762	0.10068	0.096541	0.24306	-0.95417	-0.7125	-0.33333	-1.4375	-0.49167	-0.97708	-1.5604	-0.52292	-1.3292	-0.96875	-0.58125	-1.3979	-0.82917	-0.76042	-1.4333	-0.29167	210.726	357.900	291.348	80.715	331.829	206.486	383.840	60.377	260.493	136.108	399.878	69.919	159.673	182.385	235.081	64.148	0.00019834	0.00021556	0.00012589	1128.2	1.3183e-06	6.0635e-07	1218.9	232.71	3.6299e-06	2.1759e-06	293.64	82.311	64.231	18.765	2.5142e-06	25.98	0.00030303	0.00031636	7.6626e-05	1094.2	3.359e-06	3.2768e-06	1184.4	229.53	3.3652e-06	3.3403e-06	288.21	81.689	64.948	19.088	3.0258e-06	26.172	173.958	123.848	113.348	51.624	206.747	352.702	51.980	59.176	215.718	222.088	58.633	66.377	66.199	72.885	201.800	72.539	-8191	255	
1742.678	1	1	0	0	0.32905	0.036842	0.077967	0.16595	0.20404	0.19293	0.16635	0.2015	0.15039	0.13345	0.16904	0.2294	0.14979	0.26497	0.19567	0.12977	-0.99375	-1.0312	-0.2875	-1.5104	-0.62917	-0.7	-1.5271	-0.58125	-1.1562	-1.0167	-0.59375	-1.3542	-0.525	-0.84583	-1.2604	-0.43125	251.613	103.946	269.053	121.942	86.039	368.227	339.503	277.581	202.055	66.089	73.094	398.054	282.259	330.758	122.943	59.452	0.00017077	0.00030355	9.8876e-05	1128.9	3.3074e-06	7.6916e-06	1220.5	233.66	2.2921e-06	2.3267e-06	294.37	82.08	64.779	18.634	1.6843e-06	26.028	0.00031425	0.00029419	7.5226e-05	1096	3.477e-06	3.16e-06	1185.5	230.52	3.4398e-06	3.146e-06	287.74	81.853	65.048	18.996	2.9617e-06	26.345	168.707	65.890	92.082	51.752	201.614	92.995	51.953	59.258	233.285	90.718	58.967	65.905	66.338	72.718	296.006	72.760	-8191	255	
1742.774	1	1	0	0	0.32084	0.1506	0.1917	0.2388	0.16806	0.12771	0.24872	0.24699	0.20156	0.17375	0.099765	0.29772	0.14614	0.095928	0.29015	0.11971	-0.54167	-1.0063	-0.38125	-1.5208	-0.63958	-0.69583	-1.2604	-0.50208	-1.0375	-1.1646	-0.62083	-1.2646	-0.79167	-0.50208	-1.3354	-0.5625	300.298	120.391	144.195	357.420	345.321	287.919	373.756	379.586	147.462	246.894	367.860	370.309	359.410	287.686	247.475	70.861	0.00015518	0.00032424	9.6413e-05	1129.4	4.0124e-06	2.105e-06	1223.4	233.39	3.1966e-06	2.3664e-06	292.92	81.633	63.828	18.828	2.1101e-06	25.893	0.00031037	0.00028938	7.2927e-05	1097.1	3.5162e-06	3.0759e-06	1187.3	230.92	3.4388e-06	3.1738e-06	287.84	82.03	64.799	19.103	2.9417e-06	26.429	192.362	65.245	101.560	51.855	217.892	300.888	51.739	59.058	222.386	75.966	58.806	66.444	66.093	73.237	287.760	72.884	-8191	255	
1742.845	1	1	0	0	0.2931	0.21979	0.090732	0.13868	0.065478	0.24126	0.13351	0.099757	0.26881	0.027474	0.26035	0.19183	0.083783	0.20819	0.13416	0.11457	-0.63542	-1.2854	-0.27708	-1.4937	-0.58125	-0.61667	-1.4458	-0.6875	-0.89583	-1.1938	-0.40208	-1.3333	-1.0396	-0.5625	-1.5458	-0.58958	141.605	210.472	241.194	71.181	54.157	121.479	329.295	355.136	136.886	89.226	379.286	65.752	399.448	287.541	113.639	389.667	0.00021213	0.00016194	6.983e-05	1134.9	4.6307e-06	8.4716e-06	1223.6	233.62	3.3844e-06	2.9263e-06	294.84	81.823	64.646	18.91	6.6059e-06	26.122	0.00030568	0.00029124	7.4977e-05	1102	3.3984e-06	3.0454e-06	1187.3	231.51	3.2977e-06	3.0929e-06	288.39	82.299	65.08	19.053	3.1307e-06	26.559	188.994	150.895	155.946	51.848	146.508	157.466	52.147	59.512	231.429	218.438	58.979	65.814	66.858	72.821	183.096	72.643	-8191	255	
1742.966	1	1	0	0	0.10461	0.21329	0.12976	0.36769	0.26039	0.1419	0.27326	0.20742	0.10843	0.20981	0.10685	0.12694	0.19632	0.37922	0.15827	0.082733	-0.25417	-1.4542	-0.37708	-1.1917	-0.83333	-0.35	-1.5125	-0.84375	-0.70417	-1.3229	-0.49583	-1.3687	-1.075	-0.35208	-1.3354	-0.55625	264.067	220.386	141.490	340.386	386.014	293.881	340.031	65.313	269.464	73.357	92.506	189.831	356.039	46.095	140.055	202.061	0.00014383	0.00056175	0.00011536	1128.2	4.4097e-06	4.4719e-06	1228.3	233.58	1.9942e-06	1.4475e-06	294.19	82.2	64.708	18.623	8.2894e-06	26.09	0.00029312	0.00028341	7.9045e-05	1100.7	3.3021e-06	2.9842e-06	1189.6	231.61	3.1717e-06	3.0719e-06	289.2	82.275	64.828	18.993	3.2768e-06	26.55	195.645	164.939	70.885	51.640	251.391	118.898	52.075	59.443	171.940	121.981	59.215	66.382	66.881	73.450	202.473	72.330	-8191	255	
1743.062	1	1	0	0	0.33198	0.16253	0.20509	0.079498	0.31865	0.28491	0.17952	0.25691	0.12828	0.3845	0.14507	0.2277	0.30193	0.32253	0.14044	0.26507	-0.25208	-1.3479	-0.51875	-1.3958	-1.1063	-0.20625	-1.5375	-1.1479	-0.65208	-1.35	-0.62708	-0.98333	-1.1458	-0.41667	-1.3333	-0.89375	147.529	312.486	358.121	60.107	356.714	212.288	341.741	81.172	46.083	350.819	84.014	374.900	303.518	375.559	346.653	74.265	0.00015658	0.00033043	1.3447e-05	1128.2	3.2989e-06	2.8662e-06	1230.2	232.73	1.4863e-06	3.3574e-06	294.35	81.872	64.545	18.794	4.8708e-06	26.181	0.00028635	0.00027845	8.4302e-05	1099.9	3.25e-06	2.9837e-06	1193	230.8	3.124e-06	3.025e-06	289.33	82.029	64.697	19.045	3.4905e-06	26.519	187.881	162.330	57.304	51.917	250.208	54.255	52.417	59.604	256.297	104.111	59.180	66.252	66.412	73.348	175.995	72.755	-8191	255	
#DATA ENDS
