BOXY.EXE: ISS Imagent and Oximeter Data Acquisition Program Version 0.80
Ascii Record File

#ACQ INFORMATION
2  Detector Channels 
16  External MUX Channels 
1  Auxiliary Channels 
5000  Waveform (CCF) Frequency (Hz)
1  Waveforms Skipped 
30  Waveforms Averaged 
1  Cycles Averaged 
16  Acquisitions per Waveform 
10.0806  Updata Rate (Hz) 

#FILE INFORMATION
TRUE -- External MUX Channel results are PARSED.
FALSE -- AC DC and Phase are NOT grouped.
TRUE -- Companion Program Settings File CREATED.
FALSE -- AC data not excluded
FALSE -- DC data not excluded
FALSE -- Phase data not excluded
FALSE -- Auxillary Chn. data not excluded
Tab delimiters

#CALIBRATION STATE
TRUE -- Waveform Calibration Values APPLIED.


#AUX CALIBRATION VALUES
Val Type	aux-1	

Term	1.0000e+00	
Factor	0.0000e+00	


#WF CALIBRATION VALUES
A = Detector Channel
Val Type	A-AC1	A-AC2	A-AC3	A-AC4	A-AC5	A-AC6	A-AC7	A-AC8	A-AC9	A-AC10	A-AC11	A-AC12	A-AC13	A-AC14	A-AC15	A-AC16	A-DC1	A-DC2	A-DC3	A-DC4	A-DC5	A-DC6	A-DC7	A-DC8	A-DC9	A-DC10	A-DC11	A-DC12	A-DC13	A-DC14	A-DC15	A-DC16	A-Ph1	A-Ph2	A-Ph3	A-Ph4	A-Ph5	A-Ph6	A-Ph7	A-Ph8	A-Ph9	A-Ph10	A-Ph11	A-Ph12	A-Ph13	A-Ph14	A-Ph15	A-Ph16	

Term	0.00000e+00	0.00000e+00	0.00000e+00	0.00000e+00	0.00000e+00	0.00000e+00	0.00000e+00	0.00000e+00	0.00000e+00	0.00000e+00	0.00000e+00	0.00000e+00	0.00000e+00	0.00000e+00	0.00000e+00	0.00000e+00	0.00000e+00	0.00000e+00	0.00000e+00	0.00000e+00	0.00000e+00	0.00000e+00	0.00000e+00	0.00000e+00	0.00000e+00	0.00000e+00	0.00000e+00	0.00000e+00	0.00000e+00	0.00000e+00	0.00000e+00	0.00000e+00	0.00000e+00	0.00000e+00	0.00000e+00	0.00000e+00	0.00000e+00	0.00000e+00	0.00000e+00	0.00000e+00	0.00000e+00	0.00000e+00	0.00000e+00	0.00000e+00	0.00000e+00	0.00000e+00	0.00000e+00	0.00000e+00	
Factor	1.00000e+00	1.00000e+00	1.00000e+00	1.00000e+00	1.00000e+00	1.00000e+00	1.00000e+00	1.00000e+00	1.00000e+00	1.00000e+00	1.00000e+00	1.00000e+00	1.00000e+00	1.00000e+00	1.00000e+00	1.00000e+00	1.00000e+00	1.00000e+00	1.00000e+00	1.00000e+00	1.00000e+00	1.00000e+00	1.00000e+00	1.00000e+00	1.00000e+00	1.00000e+00	1.00000e+00	1.00000e+00	1.00000e+00	1.00000e+00	1.00000e+00	1.00000e+00	X	X	X	X	X	X	X	X	X	X	X	X	X	X	X	X	

B = Detector Channel
Val Type	B-AC1	B-AC2	B-AC3	B-AC4	B-AC5	B-AC6	B-AC7	B-AC8	B-AC9	B-AC10	B-AC11	B-AC12	B-AC13	B-AC14	B-AC15	B-AC16	B-DC1	B-DC2	B-DC3	B-DC4	B-DC5	B-DC6	B-DC7	B-DC8	B-DC9	B-DC10	B-DC11	B-DC12	B-DC13	B-DC14	B-DC15	B-DC16	B-Ph1	B-Ph2	B-Ph3	B-Ph4	B-Ph5	B-Ph6	B-Ph7	B-Ph8	B-Ph9	B-Ph10	B-Ph11	B-Ph12	B-Ph13	B-Ph14	B-Ph15	B-Ph16	

Term	0.00000e+00	0.00000e+00	0.00000e+00	0.00000e+00	0.00000e+00	0.00000e+00	0.00000e+00	0.00000e+00	0.00000e+00	0.00000e+00	0.00000e+00	0.00000e+00	0.00000e+00	0.00000e+00	0.00000e+00	0.00000e+00	0.00000e+00	0.00000e+00	0.00000e+00	0.00000e+00	0.00000e+00	0.00000e+00	0.00000e+00	0.00000e+00	0.00000e+00	0.00000e+00	0.00000e+00	0.00000e+00	0.00000e+00	0.00000e+00	0.00000e+00	0.00000e+00	-8.46031e+01	-1.24328e+02	-1.34512e+02	-1.81699e+02	-5.65765e+01	-6.78973e+01	-1.56588e+02	-1.62015e+02	-4.89682e+01	-6.14460e+01	-1.72047e+02	-1.69354e+02	-1.85172e+02	-1.76661e+02	-5.95041e+01	-1.48927e+02	
Factor	1.85394e-05	1.34008e-04	4.54980e-05	1.65179e-01	1.51047e-06	1.75494e-06	1.84651e-01	5.45619e-02	1.21076e-06	1.81770e-06	9.52945e-02	3.13381e-02	2.68894e-02	1.02662e-02	1.54598e-06	1.46995e-02	3.18428e-06	3.57193e-06	9.92978e-07	8.46290e-02	3.85947e-08	3.91772e-08	8.89079e-02	2.80802e-02	3.85441e-08	3.91043e-08	4.71625e-02	1.56485e-02	1.38985e-02	5.29215e-03	3.88907e-08	7.31696e-03	X	X	X	X	X	X	X	X	X	X	X	X	X	X	X	X	



#DISTANCE SETTINGS
A = Detector Channel
A-1	A-2	A-3	A-4	A-5	A-6	A-7	A-8	A-9	A-10	A-11	A-12	A-13	A-14	A-15	A-16	

2.5000e+00	3.0000e+00	2.5000e+00	3.0000e+00	2.0000e+00	3.0000e+00	1.5000e+00	3.0000e+00	3.0000e+00	3.0000e+00	3.0000e+00	3.0000e+00	3.0000e+00	3.0000e+00	1.5000e+00	3.0000e+00	

B = Detector Channel
B-1	B-2	B-3	B-4	B-5	B-6	B-7	B-8	B-9	B-10	B-11	B-12	B-13	B-14	B-15	B-16	

1.0000e+01	1.0000e+01	1.0000e+01	1.4400e+00	1.0000e+01	1.0000e+01	1.5100e+00	1.9400e+00	1.0000e+01	1.0000e+01	1.9900e+00	2.4900e+00	2.4100e+00	2.9000e+00	1.0000e+01	2.9800e+00	




#DATA BEGINS
time	group	step	mark	flag	A-AC1	A-AC2	A-AC3	A-AC4	A-AC5	A-AC6	A-AC7	A-AC8	A-AC9	A-AC10	A-AC11	A-AC12	A-AC13	A-AC14	A-AC15	A-AC16	A-DC1	A-DC2	A-DC3	A-DC4	A-DC5	A-DC6	A-DC7	A-DC8	A-DC9	A-DC10	A-DC11	A-DC12	A-DC13	A-DC14	A-DC15	A-DC16	A-Ph1	A-Ph2	A-Ph3	A-Ph4	A-Ph5	A-Ph6	A-Ph7	A-Ph8	A-Ph9	A-Ph10	A-Ph11	A-Ph12	A-Ph13	A-Ph14	A-Ph15	A-Ph16	B-AC1	B-AC2	B-AC3	B-AC4	B-AC5	B-AC6	B-AC7	B-AC8	B-AC9	B-AC10	B-AC11	B-AC12	B-AC13	B-AC14	B-AC15	B-AC16	B-DC1	B-DC2	B-DC3	B-DC4	B-DC5	B-DC6	B-DC7	B-DC8	B-DC9	B-DC10	B-DC11	B-DC12	B-DC13	B-DC14	B-DC15	B-DC16	B-Ph1	B-Ph2	B-Ph3	B-Ph4	B-Ph5	B-Ph6	B-Ph7	B-Ph8	B-Ph9	B-Ph10	B-Ph11	B-Ph12	B-Ph13	B-Ph14	B-Ph15	B-Ph16	aux-1	digaux	

21356.295	1	1	0	768	0.064256	0.19857	0.09599	0.24812	0.12622	0.026632	0.12503	0.2011	0.17811	0.04868	0.098232	0.21315	0.12026	0.14005	0.049529	0.17215	-0.23542	-0.125	-1.1417	-0.67292	-0.26042	-1.2188	-0.41458	-0.7625	-1.075	-0.30833	-1.0854	-0.49792	-0.27292	-0.975	-0.14792	-0.78125	441.972	229.318	317.518	447.188	229.805	406.719	456.522	177.293	239.661	338.867	256.466	230.334	521.169	410.894	349.157	234.007	0.00017072	0.0009484	0.00027843	1388.6	2.2271e-05	9.6966e-06	673.33	368.7	4.5184e-06	1.3586e-05	159.48	39.058	94.748	31.014	1.5254e-05	14.987	0.0060091	0.006712	0.0018704	1448.2	7.3428e-05	7.4607e-05	796.58	397.16	7.3562e-05	7.4408e-05	236.04	65.817	114.86	39.081	7.2848e-05	27.471	356.105	242.853	222.209	182.883	383.355	341.542	180.561	187.934	380.532	291.065	183.675	188.032	192.864	197.679	312.364	193.747	-8191	255	
21356.391	1	1	0	0	0.14073	0.15153	0.17201	0.34012	0.07768	0.38029	0.10038	0.29134	0.23746	0.058031	0.17738	0.078501	0.075003	0.18497	0.33431	0.073297	-0.625	-0.19375	-0.83542	-0.82708	-0.18125	-1.1729	-0.375	-0.6	-1.0604	-0.30417	-0.91458	-0.8625	-0.085417	-0.96458	-0.39792	-0.39375	461.068	372.331	213.817	516.288	330.526	369.021	413.033	478.368	180.350	264.744	353.313	277.413	420.917	202.379	230.872	217.628	0.00010789	0.0016922	0.0003487	1377.7	1.5379e-06	6.2473e-06	672.62	367.13	1.1533e-05	2.9921e-05	156.61	38.9	94.831	31.48	1.7018e-05	14.914	0.0059832	0.0066726	0.0018541	1439.1	7.132e-05	7.2216e-05	787.34	394.72	7.0795e-05	7.154e-05	231.88	64.426	113.58	39.027	7.0175e-05	27.105	262.236	482.538	247.571	182.678	238.706	399.803	180.336	187.532	351.771	314.884	183.734	189.146	192.657	198.024	521.115	193.055	-8191	255	
21356.486	1	1	0	0	0.090865	0.10595	0.14572	0.22193	0.10658	0.24426	0.13772	0.24459	0.37799	0.2496	0.27078	0.12033	0.20232	0.075975	0.23478	0.12202	-0.70833	-0.23333	-0.86875	-0.90625	-0.13333	-1.0792	-0.50625	-0.21458	-1.2271	-0.13542	-1.0021	-0.93542	-0.2	-1.1146	-0.32708	-0.36458	301.386	288.888	362.889	174.603	235.843	447.598	422.896	373.884	231.438	471.363	231.590	489.603	424.613	219.779	203.100	240.272	0.00018615	0.0017732	0.00021907	1375.9	8.2694e-06	1.1525e-05	672.91	366.5	8.8909e-06	1.7942e-05	158.99	38.809	94.601	31.61	1.7886e-05	15.078	0.0057461	0.0063897	0.0017794	1431.8	6.8863e-05	7.0274e-05	783.17	391.3	6.9012e-05	7.0563e-05	231.33	64.402	113.66	39.132	6.9809e-05	27.047	224.312	204.225	521.490	182.910	327.176	338.331	180.670	187.698	365.240	309.873	184.523	188.614	193.007	197.987	260.594	193.628	-8191	255	
21356.582	1	1	0	0	0.21877	0.11655	0.18297	0.1735	0.33925	0.33799	0.3299	0.20381	0.24444	0.17814	0.24305	0.30721	0.04139	0.10346	0.29729	0.12099	-0.59583	-0.18542	-0.70208	-1.0458	-0.16667	-1.0229	-0.5125	-0.55833	-1.0667	-0.36458	-0.63542	-1	-0.18333	-0.91458	-0.61875	-0.32917	173.369	359.557	184.553	519.068	510.630	433.746	457.285	178.639	321.617	430.903	488.243	203.011	179.480	300.935	306.469	210.689	0.00012277	0.00057673	0.00011918	1373.3	1.0428e-05	9.7025e-06	669.02	365.09	2.3246e-06	7.9356e-06	157.34	39.675	94.969	31.747	2.0625e-06	15.189	0.005706	0.0063906	0.0017726	1428.9	6.8031e-05	6.8923e-05	777.1	388.99	6.6728e-05	6.7e-05	227	63.16	112.1	38.469	6.6352e-05	26.517	290.514	386.273	260.695	183.326	489.616	485.879	180.790	187.705	374.346	189.013	185.109	188.994	192.909	198.131	332.030	194.562	-8191	255	
21356.680	1	1	0	0	0.024791	0.12293	0.14082	0.41484	0.30217	0.1395	0.24257	0.35099	0.061002	0.27254	0.15744	0.090556	0.18745	0.19861	0.40359	0.30771	-0.7	-0.36458	-0.33542	-1.3167	-0.20208	-1	-0.78125	-0.40208	-1.1146	-0.41458	-0.58542	-1.0354	-0.25833	-0.94167	-0.7875	-0.16875	512.461	283.220	307.633	518.465	406.997	267.216	488.977	478.481	267.415	258.314	307.205	377.453	459.150	242.575	446.531	471.454	0.00015258	0.0014494	0.00018956	1370.3	9.8625e-06	2.8231e-05	668.5	365.29	5.5912e-06	6.925e-06	159.98	38.71	95.334	31.314	1.0737e-05	15.019	0.0054052	0.0060188	0.0016756	1415.5	6.4501e-05	6.5483e-05	766.17	387.78	6.3763e-05	6.4613e-05	224.46	61.785	111.3	38.145	6.4215e-05	26.036	233.920	362.036	427.413	183.100	398.092	261.575	180.642	187.774	444.322	513.668	184.694	188.825	193.235	198.375	319.130	193.005	-8191	255	
21356.775	1	1	0	0	0.22874	0.2145	0.13796	0.2548	0.27985	0.16582	0.31632	0.032353	0.35621	0.33211	0.078672	0.26291	0.080044	0.33302	0.23162	0.17888	-0.66667	-0.35208	-0.225	-1.1313	-0.29583	-0.70208	-0.95208	-0.35417	-1.0146	-0.53333	-0.38542	-1.0792	-0.425	-0.825	-0.825	-0.16667	518.550	446.679	239.873	508.772	338.963	425.521	433.050	377.519	278.172	248.488	525.265	180.559	410.772	480.175	181.038	210.812	0.00010506	0.0014687	0.00013574	1367.6	3.215e-05	2.1165e-05	662.95	366.5	6.2335e-06	1.6504e-05	156.37	39.398	95.461	31.344	9.0511e-06	15.176	0.0052298	0.0058938	0.0016298	1407.7	6.2807e-05	6.4493e-05	759.24	386.35	6.2689e-05	6.3753e-05	223.16	61.811	111.35	38.023	6.3503e-05	25.853	198.167	447.718	426.094	183.309	339.928	448.830	180.966	187.662	417.245	254.523	184.978	188.509	192.993	198.761	408.037	193.989	-8191	255	
21356.895	1	1	0	0	0.22335	0.24597	0.23251	0.052885	0.32705	0.20544	0.20637	0.35038	0.23316	0.090368	0.10981	0.22086	0.39025	0.21855	0.30116	0.21366	-0.8375	-0.39375	-0.325	-1.2542	-0.24583	-0.76042	-1.0625	-0.077083	-1.0125	-0.68958	-0.21458	-1.1	-0.30833	-0.58333	-1.0438	-0.047917	437.880	222.014	429.112	527.450	213.282	239.432	441.588	486.069	315.297	267.303	332.175	389.354	457.990	210.317	515.676	511.947	0.00015114	0.00075956	0.00013792	1373.2	5.5707e-06	5.3975e-06	661.05	366.24	7.6719e-06	1.7788e-05	160.7	39.203	95.55	31.552	3.2964e-06	15.259	0.005212	0.0058388	0.0016192	1405.1	6.2043e-05	6.2997e-05	755.81	386.13	6.1683e-05	6.3044e-05	223.39	61.745	111.57	38.203	6.4417e-05	26.279	232.584	234.475	286.753	183.124	505.109	340.002	180.466	187.655	381.721	185.241	185.512	189.127	193.065	198.404	449.010	193.818	-8191	255	
21356.990	1	1	0	0	0.073159	0.12587	0.13411	0.31368	0.28979	0.33731	0.11865	0.070304	0.32204	0.18751	0.44212	0.33315	0.13824	0.26728	0.29491	0.2099	-0.61042	-0.64792	-0.18125	-1.1	-0.47708	-0.46667	-1.2542	-0.4125	-0.76667	-0.78333	-0.25417	-1.1292	-0.5125	-0.54375	-1.0896	-0.32083	225.698	215.784	469.483	500.710	308.537	327.605	219.470	370.233	466.350	244.875	503.223	436.076	512.175	227.663	518.438	331.751	0.00013836	0.00054898	0.00038619	1364.6	1.7209e-05	2.4274e-05	664.99	365.96	1.4821e-05	1.5227e-05	158.89	39.914	95.998	31.953	7.8549e-06	15.695	0.0052845	0.005974	0.0016521	1408.6	6.3909e-05	6.5164e-05	762.97	387.74	6.4167e-05	6.5446e-05	226.06	62.946	112.68	38.725	6.5445e-05	26.739	307.366	372.547	175.665	183.295	306.571	337.004	180.884	187.985	412.554	215.294	185.024	188.887	192.982	198.561	241.286	194.363	-8191	255	
21357.086	1	1	0	0	0.037838	0.044912	0.16113	0.36096	0.14881	0.28818	0.40238	0.17767	0.026442	0.29182	0.31588	0.32469	0.12787	0.18681	0.15522	0.12279	-0.45833	-0.79375	-0.05625	-1.125	-0.65417	-0.15833	-1.3021	-0.42917	-0.70417	-0.94375	-0.070833	-0.92292	-0.76875	-0.30833	-1.1125	-0.40208	446.607	478.095	211.742	185.158	187.876	196.012	426.506	450.915	336.391	462.230	383.698	175.630	500.225	174.204	403.863	175.144	0.00038303	0.0012252	0.00033617	1363	7.8127e-06	2.0975e-05	665.8	366.15	1.6144e-05	1.4956e-05	158.41	39.766	96.344	32.298	1.1125e-05	15.782	0.0053727	0.0060097	0.0016802	1408.8	6.5592e-05	6.6353e-05	766.59	387.87	6.5502e-05	6.6714e-05	226.31	63.413	113.19	39.213	6.729e-05	27.098	233.513	500.835	249.154	183.658	242.431	300.738	181.281	188.261	257.406	236.193	184.938	188.997	193.187	198.482	278.329	194.710	-8191	255	
21357.184	1	1	0	0	0.018304	0.079571	0.17361	0.30006	0.1206	0.071605	0.10828	0.35236	0.073142	0.16985	0.27341	0.038735	0.06077	0.23358	0.18806	0.11652	-0.15208	-1.0375	-0.14792	-1.0604	-0.68333	-0.28333	-1.275	-0.51458	-0.58333	-1.0646	-0.31042	-0.94792	-0.8	-0.14167	-1.0292	-0.34375	233.805	285.755	170.872	187.634	518.215	351.625	385.075	497.927	489.657	437.436	518.372	345.832	196.625	512.569	187.318	196.273	7.0254e-05	0.00069488	0.00027162	1359.3	7.2504e-06	1.8435e-05	660.32	361.23	2.2106e-05	1.2162e-05	155.95	39.689	95.392	32.492	6.4491e-06	15.563	0.0055625	0.006194	0.0017419	1407	6.7855e-05	6.8706e-05	763.31	386.52	6.811e-05	6.92e-05	227.84	64.139	112.95	39.686	6.8728e-05	27.506	223.022	421.485	453.303	183.571	460.056	246.068	181.158	187.824	292.090	184.794	184.794	189.909	193.518	198.689	381.249	193.784	-8191	255	
21357.277	1	1	0	0	0.31047	0.18571	0.14386	0.21629	0.14623	0.088279	0.09935	0.19295	0.16571	0.044709	0.20797	0.1464	0.10155	0.030558	0.10232	0.17759	-0.020833	-1.0708	-0.19792	-0.82292	-0.93333	-0.11042	-1.2875	-0.6125	-0.4125	-1.1375	-0.22083	-0.86458	-0.825	-0.25417	-1.1042	-0.52292	454.658	316.025	399.869	478.234	425.733	223.070	413.691	470.496	439.643	292.028	173.833	308.649	496.076	394.315	261.707	309.342	0.00017123	0.0014501	0.00030957	1348.2	1.5643e-05	1.38e-05	655.95	360.2	5.2615e-06	6.7976e-06	156.12	39.724	94.748	32.693	2.2112e-05	15.901	0.0056605	0.006294	0.0017638	1404.2	6.8408e-05	6.9421e-05	763.86	385.05	6.8656e-05	6.9729e-05	228.14	64.667	113.53	40.099	7.0427e-05	28.155	234.527	244.021	369.412	183.674	234.800	313.177	180.651	187.797	266.499	339.691	184.250	189.728	193.270	198.910	380.210	193.778	-8191	255	
21357.373	1	1	0	0	0.32624	0.1902	0.28836	0.32674	0.1487	0.15759	0.27989	0.23112	0.12435	0.24832	0.05419	0.06348	0.18952	0.20313	0.25961	0.16546	0.085417	-1.2208	-0.30417	-0.73125	-0.90208	-0.33333	-1.0521	-0.7125	-0.24375	-1.0104	-0.22917	-0.66667	-1.0979	-0.49583	-0.97083	-0.93333	172.076	313.143	291.562	176.796	495.578	493.841	394.519	471.873	510.687	418.958	517.927	491.926	517.576	184.857	406.433	239.240	0.00019817	0.0021868	0.00026276	1351.7	1.3119e-05	3.4469e-05	659.95	358.69	5.8962e-06	3.9357e-06	157.06	39.707	95.418	32.969	1.7926e-05	16.173	0.0058416	0.0064462	0.0018062	1409.3	7.0511e-05	7.135e-05	771.36	385.64	7.0632e-05	7.0959e-05	230.24	65.198	113.87	40.553	7.1373e-05	28.404	184.251	267.531	430.548	183.422	443.779	384.926	180.773	187.796	205.307	380.997	184.270	189.759	193.535	198.788	204.159	193.643	-8191	255	
21357.494	1	1	0	0	0.18043	0.21705	0.1284	0.17539	0.26331	0.36945	0.32977	0.29202	0.27441	0.020594	0.18211	0.11418	0.2616	0.11304	0.23368	0.24413	0.075	-1.1437	-0.34375	-0.65	-1.1812	-0.31042	-0.95	-0.78333	-0.25208	-1.0667	-0.53542	-0.65417	-1.1146	-0.30833	-0.78542	-0.925	196.833	413.138	333.019	476.148	388.875	181.865	529.871	500.659	245.088	319.148	527.246	440.011	515.831	395.235	439.339	406.628	0.00017428	0.0013158	0.00022724	1347.9	7.9771e-06	1.2154e-05	662.94	358.44	1.121e-05	9.9919e-06	153.91	39.438	93.937	33.218	1.6883e-05	16.31	0.0059105	0.0065458	0.0018478	1411.7	7.1799e-05	7.3011e-05	777.8	386.03	7.1506e-05	7.2797e-05	231.09	65.647	113.99	40.805	7.2211e-05	28.616	229.380	255.324	487.612	183.400	356.381	284.349	181.281	187.882	222.327	239.435	184.748	189.531	193.236	198.424	356.412	193.439	-8191	255	
21357.592	1	1	0	0	0.084936	0.25564	0.11322	0.12736	0.30236	0.11382	0.23955	0.60463	0.17801	0.19984	0.078985	0.076782	0.078864	0.050009	0.065273	0.16858	0.20833	-1.0625	-0.43125	-0.59792	-0.96875	-0.24583	-0.72083	-1.0354	-0.23542	-1.1875	-0.67292	-0.49375	-1.375	-0.44375	-0.72292	-0.9	485.893	491.232	203.389	214.116	526.189	222.203	413.460	494.947	237.262	404.535	290.096	394.817	245.308	366.892	361.767	187.273	0.00016352	0.0020442	4.7126e-05	1346.2	1.4012e-05	2.1158e-05	659.79	355.54	3.0681e-06	7.0067e-06	150.8	39.678	93.869	33.208	1.4197e-05	16.232	0.0059277	0.0066393	0.0018497	1407.7	7.1556e-05	7.2206e-05	771.2	383.39	7.1463e-05	7.259e-05	229.42	65.506	113.77	40.826	7.2302e-05	28.694	280.403	205.700	504.641	182.821	250.095	347.902	180.990	187.679	436.335	315.132	183.818	189.253	193.546	198.127	402.067	193.518	-8191	255	
21357.688	1	1	0	0	0.096736	0.36991	0.13185	0.074857	0.10036	0.066238	0.083226	0.11357	0.088661	0.14017	0.39975	0.20784	0.28689	0.040561	0.31609	0.22614	0.1375	-0.9375	-0.53542	-0.45208	-1.2604	-0.32292	-0.6875	-1.1333	-0.1	-0.83542	-0.67083	-0.12292	-1.2521	-0.46875	-0.35625	-1.0208	335.760	209.841	457.210	488.169	383.953	316.923	411.669	233.753	309.071	204.965	366.704	417.563	483.443	206.895	280.351	380.763	0.00018917	0.00051602	0.00037308	1344.5	8.327e-06	1.5616e-05	654.34	355.68	9.7323e-06	2.5805e-05	151.78	38.783	94.092	32.995	2.2968e-05	16.267	0.0059577	0.0066561	0.001854	1407	7.1854e-05	7.3152e-05	773.88	383.31	7.1787e-05	7.2671e-05	229.19	65.264	113.49	40.639	7.1475e-05	28.517	227.841	197.560	498.226	183.178	233.844	426.660	181.085	187.974	450.319	291.450	184.636	188.774	193.210	198.071	244.467	194.397	-8191	255	
21357.783	1	1	0	0	0.10766	0.21357	0.16385	0.30215	0.24891	0.13746	0.49282	0.33154	0.13131	0.10178	0.096672	0.10984	0.24618	0.12951	0.24108	0.20083	0.079167	-0.9875	-0.77917	-0.33958	-1.0917	-0.4375	-0.38333	-1.0917	-0.26042	-0.73125	-0.78125	-0.10208	-1.0771	-0.59375	-0.43333	-1.1646	519.799	197.079	170.781	502.077	356.943	396.820	452.194	484.974	361.341	222.974	329.961	484.016	189.711	487.684	438.490	195.067	0.00013855	0.0017067	0.00012801	1348.2	1.1839e-05	2.4931e-05	655.28	354.11	7.9796e-06	1.5751e-05	152.88	39.348	94.488	33.332	1.7841e-05	16.594	0.0058946	0.006594	0.0018264	1407	7.064e-05	7.2962e-05	770.97	383.08	7.1158e-05	7.2498e-05	229.7	65.462	113.52	40.838	7.2312e-05	28.818	215.911	367.992	395.674	183.448	245.423	484.755	180.710	187.894	453.070	424.226	184.306	189.506	193.450	198.555	217.203	193.314	-8191	255	
21357.855	1	1	0	0	0.17814	0.085109	0.17224	0.24811	0.15262	0.21664	0.029636	0.25984	0.031201	0.20694	0.11826	0.29336	0.056994	0.18921	0.23846	0.027997	0.16875	-0.81042	-0.75	-0.32708	-0.89375	-0.57083	-0.2125	-1.3563	-0.19375	-0.62292	-0.94375	-0.22917	-1.0583	-0.55	-0.2875	-1.175	232.888	485.575	258.190	504.832	309.145	363.095	478.941	498.426	209.437	321.626	479.987	447.086	421.185	487.657	297.373	459.139	0.00018015	0.00066276	0.00025846	1346.3	5.6518e-06	1.6189e-05	660.91	356.3	3.3684e-06	1.348e-05	154.49	39.326	95.122	33.119	2.1983e-05	16.346	0.0059749	0.006691	0.0018605	1410.5	7.1983e-05	7.3522e-05	778.23	384.75	7.2582e-05	7.3167e-05	231.85	65.746	114.36	40.958	7.3398e-05	28.93	264.532	357.301	313.148	183.190	296.735	176.698	180.773	187.883	281.224	358.874	184.221	188.451	192.589	197.712	281.874	193.074	-8191	255	
21357.977	1	1	0	0	0.28897	0.34812	0.42822	0.29557	0.092384	0.072655	0.068938	0.061871	0.15103	0.12559	0.16825	0.077312	0.043025	0.11714	0.057331	0.097215	0.21042	-0.47917	-0.9875	-0.15208	-1.0438	-0.67917	-0.28125	-1.1979	-0.38542	-0.5	-0.98958	-0.28333	-1.0125	-0.82708	-0.18333	-1.0229	274.163	254.884	278.880	475.986	280.307	465.443	170.906	464.366	212.744	358.134	387.511	177.528	270.513	241.325	282.189	334.688	0.0001885	0.0019102	0.00028146	1345	1.9224e-05	7.0913e-06	652.86	355.5	9.2191e-06	1.1763e-05	153.36	39.007	93.743	32.798	1.3361e-05	16.07	0.0060342	0.006776	0.0018844	1412.8	7.2283e-05	7.4207e-05	772.75	384.05	7.2118e-05	7.3541e-05	229.07	65.514	113.87	40.692	7.3222e-05	28.668	255.700	273.705	352.865	182.713	426.984	392.554	180.002	187.243	352.461	464.464	184.034	187.784	193.083	197.907	243.168	193.233	-8191	255	
21358.072	1	1	0	0	0.089844	0.32833	0.17857	0.18801	0.26725	0.23234	0.062152	0.16199	0.26968	0.091429	0.26925	0.15841	0.17302	0.21181	0.076701	0.20693	-0.19375	-0.52708	-1.0583	-0.38542	-0.7875	-0.79375	-0.15208	-1.2125	-0.53542	-0.37917	-1.1104	-0.23125	-0.7625	-0.94375	-0.175	-0.83125	256.105	307.712	187.870	486.747	467.016	196.653	229.681	446.451	425.830	438.690	459.506	459.411	370.210	226.094	304.235	347.902	0.00012552	0.0010558	0.00043819	1342.9	9.6626e-06	8.501e-06	657.5	357.08	1.1904e-05	1.8766e-05	153.04	38.929	94.108	32.844	1.724e-05	16.305	0.0060259	0.0067158	0.0018647	1408.7	7.2207e-05	7.33e-05	774.43	385.72	7.2156e-05	7.3453e-05	230.45	65.74	114.07	40.661	7.3131e-05	28.764	428.978	194.090	331.035	182.592	501.157	343.878	180.116	187.399	203.721	426.158	184.018	187.699	192.636	197.498	176.101	192.714	-8191	255	
21358.166	1	1	0	0	0.15292	0.23743	0.21248	0.078954	0.11203	0.038057	0.14181	0.23341	0.070621	0.074699	0.16864	0.21832	0.12236	0.074372	0.17419	0.15688	-0.23542	-0.5125	-1.0521	-0.25625	-0.68125	-0.93125	-0.4	-1.125	-0.70625	-0.27292	-1.2979	-0.24792	-0.65625	-0.95833	-0.014583	-0.94375	262.005	266.549	265.698	331.325	352.159	246.050	515.183	478.382	277.369	352.463	459.765	473.515	333.835	368.985	347.211	339.689	0.00029488	0.0016762	0.00048043	1349.9	9.5496e-06	1.1821e-05	657.16	358.47	1.2909e-05	4.6351e-06	154.51	39.421	94.588	32.088	1.3252e-05	15.763	0.0060599	0.0067344	0.0018591	1415.9	7.2151e-05	7.3028e-05	776.12	386.61	7.1566e-05	7.2525e-05	230.25	65.124	113.71	39.743	7.1457e-05	28.101	224.508	523.869	189.361	182.428	373.441	441.336	180.226	187.163	404.386	199.467	183.582	188.612	192.380	197.555	381.628	192.418	-8191	255	
21358.264	1	1	0	0	0.12876	0.094733	0.065519	0.21423	0.20377	0.11745	0.13474	0.096371	0.043517	0.19469	0.27741	0.10774	0.078183	0.2234	0.17661	0.21697	-0.25208	-0.041667	-1.0875	-0.48542	-0.375	-0.98542	-0.20625	-1.0917	-0.59792	-0.27708	-1.1167	-0.37083	-0.24583	-1.0625	-0.14792	-0.70625	271.066	486.885	255.574	384.849	281.632	204.281	354.391	294.169	312.256	214.612	505.710	479.578	224.988	227.721	509.405	516.024	0.00022659	0.001362	0.00036472	1362	4.3096e-06	5.8383e-06	662.62	363.19	9.2334e-06	1.8809e-05	156.25	39.986	94.786	31.598	1.1924e-05	15.485	0.0058545	0.0065041	0.0018065	1418.2	7.0228e-05	7.1054e-05	776.67	389.57	7.0634e-05	7.1528e-05	232.25	65.602	114.06	39.46	7.2454e-05	28.082	251.486	405.389	514.475	182.428	453.542	309.748	180.261	186.868	237.294	504.581	183.230	188.318	192.455	197.421	500.771	193.105	-8191	255	
21358.383	1	1	0	0	0.2097	0.026798	0.081679	0.18615	0.20229	0.045209	0.197	0.26743	0.086145	0.18317	0.076854	0.3069	0.2337	0.24843	0.080427	0.12143	-0.55833	-0.20208	-1.125	-0.48542	-0.31875	-1.0708	-0.33125	-0.82917	-0.99792	0.0083333	-0.84792	-0.54167	-0.19167	-1.0875	-0.24792	-0.43542	431.897	183.218	290.529	493.603	246.448	469.311	213.266	500.844	414.194	330.031	277.983	303.340	432.155	498.102	229.845	417.155	0.0001412	0.00095324	0.00025577	1370.2	1.3647e-05	1.0951e-05	664.82	364.52	1.5043e-05	3.4781e-06	157.98	39.416	94.596	31.515	2.2472e-05	15.555	0.0059613	0.0066636	0.0018599	1431.3	7.1091e-05	7.249e-05	781.38	391.88	7.037e-05	7.0745e-05	231.03	64.636	113.22	39.006	6.9975e-05	27.4	260.639	307.628	430.081	182.130	345.682	372.526	179.968	187.323	383.561	180.425	183.918	188.067	192.500	197.760	213.979	192.943	-8191	255	
21358.455	1	1	0	0	0.18439	0.16578	0.23901	0.065909	0.49557	0.40318	0.19998	0.19002	0.20716	0.049073	0.054743	0.12174	0.12305	0.18982	0.073949	0.078433	-0.47917	-0.11667	-0.82292	-0.84167	-0.079167	-1.0542	-0.28333	-0.69792	-1.0229	-0.16458	-1.0396	-0.59583	-0.15833	-1.1875	-0.40208	-0.21458	365.009	205.841	374.404	362.719	356.597	175.883	187.309	449.704	206.181	343.257	306.345	477.628	517.322	510.326	259.153	172.311	8.4243e-05	0.00024453	0.00050349	1368.4	1.0313e-05	1.2242e-05	661.65	364.61	8.7741e-06	2.4306e-05	158.32	39.298	95.524	31.643	1.445e-05	15.689	0.0057132	0.0063349	0.0017561	1420.8	6.8088e-05	6.87e-05	771	388.35	6.6694e-05	6.7268e-05	227.51	63.525	112.69	38.772	6.6133e-05	26.995	262.093	348.208	209.828	182.305	170.509	525.752	180.102	187.186	312.243	228.998	183.650	188.426	192.259	197.304	369.745	193.670	-8191	255	
21358.574	1	1	0	0	0.15915	0.12404	0.14493	0.14654	0.16735	0.31193	0.20089	0.30564	0.094523	0.10441	0.17497	0.18389	0.12417	0.3523	0.3257	0.15694	-0.42292	-0.17708	-0.83333	-0.98958	-0.11875	-0.92083	-0.36458	-0.36667	-0.85833	-0.12708	-0.70208	-0.85625	-0.095833	-0.9875	-0.4875	-0.16042	414.819	455.305	402.374	216.344	250.309	438.058	454.380	471.342	185.292	217.746	305.495	432.808	350.335	489.204	348.645	246.914	0.00024836	0.0006606	0.00016637	1367.6	1.8123e-06	1.7442e-05	668.44	366.97	2.2488e-05	2.7739e-06	163.61	41.022	96.873	32.048	2.0157e-05	15.884	0.00542	0.0060496	0.0016809	1415.1	6.4967e-05	6.6489e-05	769.63	390.39	6.5649e-05	6.6727e-05	231.06	64.516	114.15	39.119	6.7079e-05	27.348	275.970	506.658	424.033	182.110	189.311	403.140	180.270	186.977	287.290	306.250	183.381	187.843	192.558	197.567	266.677	193.269	-8191	255	
21358.672	1	1	0	0	0.28589	0.17237	0.38899	0.20955	0.16076	0.21259	0.18639	0.27939	0.035041	0.08925	0.05981	0.13509	0.087996	0.20413	0.094874	0.11044	-0.66458	-0.09375	-0.78958	-0.82708	-0.0041667	-1.0208	-0.35208	-0.41042	-1.0542	-0.38333	-0.54167	-1.0833	-0.19583	-0.9375	-0.81042	-0.18542	454.553	493.380	517.995	171.725	280.208	170.662	420.415	170.673	326.226	484.068	399.269	493.138	507.382	184.816	191.584	216.080	0.0003352	0.0011032	0.00027496	1380	2.2509e-05	1.638e-05	679.56	371.14	1.0831e-05	7.9138e-06	163.9	41.013	97.093	31.457	2.0498e-05	15.766	0.0055099	0.0062053	0.0017051	1428.9	6.6185e-05	6.7711e-05	779.32	395.55	6.6509e-05	6.7899e-05	234.5	64.971	114.48	38.852	6.7603e-05	27.312	282.295	345.199	312.958	182.382	366.159	240.176	179.834	186.895	495.494	404.607	183.843	188.309	192.092	197.282	230.868	192.729	-8191	255	
21358.768	1	1	0	0	0.12998	0.097532	0.15895	0.34831	0.14812	0.055776	0.034887	0.15672	0.097775	0.092319	0.11471	0.10984	0.19247	0.25624	0.31133	0.35612	-0.61667	-0.24375	-0.49375	-1.2771	-0.18542	-0.97083	-0.77917	-0.40208	-0.97083	-0.3875	-0.45417	-1.1708	-0.30833	-0.83542	-1.0375	-0.22083	255.019	312.495	424.837	460.420	268.415	445.060	384.458	512.124	272.850	411.073	493.429	309.034	400.828	211.868	246.805	420.573	0.00018731	0.00088571	0.00046083	1380.5	7.5302e-06	1.1375e-05	674.96	378.23	1.1145e-05	1.4865e-05	164.77	41.27	98.257	31.477	1.3999e-05	15.615	0.0055689	0.0062886	0.0017449	1437.5	6.8006e-05	6.9251e-05	787.23	400.88	6.7892e-05	6.947e-05	237.52	65.734	115.96	39.01	6.9636e-05	27.524	214.929	319.154	343.966	182.377	334.214	338.963	179.958	186.820	344.634	308.260	183.619	188.758	191.798	197.979	458.758	193.096	-8191	255	
21358.863	1	1	0	0	0.16098	0.077302	0.11597	0.17671	0.11793	0.22683	0.12205	0.29906	0.25532	0.045554	0.22182	0.27156	0.076023	0.32448	0.34077	0.24496	-0.57292	-0.38958	-0.16667	-1.0583	-0.25208	-1.0042	-0.9375	-0.3	-1	-0.51875	-0.35625	-1.0208	-0.13958	-0.77708	-0.77292	-0.19167	419.340	518.283	386.924	329.071	395.030	250.523	282.425	444.180	205.691	293.807	500.743	513.262	485.106	496.841	480.968	185.630	0.00011028	0.0009252	0.0003312	1389.5	1.0111e-05	2.3711e-06	679.03	376.82	1.4774e-05	8.4533e-06	166.89	41.043	97.561	31.525	7.5513e-06	15.613	0.0057524	0.0064384	0.0017933	1445.8	6.9711e-05	7.1061e-05	793.89	401.15	6.9925e-05	7.0911e-05	239.57	66.107	116.22	39.105	7.019e-05	27.639	183.036	397.591	183.162	182.156	444.837	395.496	179.744	186.948	374.804	396.412	184.094	188.263	192.426	198.096	469.833	193.064	-8191	255	
21358.984	1	1	0	0	0.28255	0.3359	0.1994	0.37617	0.046336	0.081142	0.13028	0.39294	0.2425	0.22266	0.24292	0.36723	0.39974	0.12335	0.40492	0.41886	-0.57917	-0.57292	-0.43542	-1.3875	-0.33958	-0.56458	-0.96667	-0.22708	-1.0688	-0.52917	-0.29167	-1.0312	-0.40833	-0.4375	-0.87708	-0.125	281.719	343.313	461.590	171.144	496.816	231.346	483.973	453.105	464.592	482.388	386.579	463.839	297.583	222.547	443.963	254.630	0.00020044	0.0013488	0.00030739	1388.5	1.9335e-05	4.6415e-06	684.47	376.6	5.2184e-06	5.322e-06	168.02	41.532	98.478	31.498	1.3629e-05	15.665	0.0057926	0.0064581	0.0017842	1445.9	7.0219e-05	7.1103e-05	795.68	402.38	6.9673e-05	7.1465e-05	240.93	66.587	116.96	39.104	7.0938e-05	27.788	271.073	481.425	314.938	182.329	472.501	445.121	180.035	186.969	336.078	424.595	183.605	188.853	192.411	197.574	279.050	192.899	-8191	255	
21359.078	1	1	0	0	0.12952	0.094687	0.19298	0.15612	0.19464	0.31704	0.26096	0.38264	0.1955	0.027271	0.2836	0.13566	0.2483	0.24692	0.18865	0.30873	-0.3125	-0.53125	-0.19792	-1.0938	-0.3	-0.38958	-1.2313	-0.32917	-0.67917	-0.74583	-0.13958	-1.1021	-0.47083	-0.35208	-1.2375	-0.15	384.776	247.481	259.193	310.795	193.195	238.730	212.952	511.754	212.398	312.357	336.872	249.460	519.841	194.837	524.046	522.272	0.00022107	0.00048211	0.00075286	1392.9	5.8144e-06	1.1566e-05	689.45	379.45	4.202e-06	4.6163e-06	170.03	41.905	98.293	31.512	1.2033e-05	15.554	0.0058335	0.0065363	0.0018009	1452.4	7.0767e-05	7.1926e-05	802.44	404.18	7.0701e-05	7.1471e-05	242.05	67.243	117.05	39.177	7.0871e-05	28.03	217.592	501.996	332.025	182.590	195.751	416.100	179.883	186.908	361.191	476.816	183.451	188.158	191.830	198.029	519.488	193.523	-8191	255	
21359.152	1	1	0	0	0.043448	0.21584	0.09713	0.058453	0.099278	0.084661	0.19225	0.11382	0.16922	0.15903	0.085326	0.25307	0.28143	0.065785	0.42627	0.037758	-0.4	-0.85	-0.0083333	-1.0375	-0.44583	-0.26875	-1.1979	-0.27292	-0.40208	-0.7625	-0.25625	-0.92083	-0.58333	-0.25417	-1.1042	-0.17292	348.969	376.044	506.593	196.503	510.013	521.473	515.323	500.372	521.002	289.619	379.899	472.386	447.319	193.944	214.025	231.791	9.0148e-05	0.0014162	0.00075868	1401.8	4.3183e-06	1.0421e-05	695.33	380.2	5.4053e-06	4.9607e-06	166.29	41.877	97.699	31.961	6.929e-06	15.576	0.0058971	0.0065837	0.0018365	1457.9	7.1645e-05	7.2613e-05	807.83	406.44	7.2444e-05	7.4021e-05	244.68	68.014	118.12	39.847	7.46e-05	28.465	200.287	247.638	432.918	182.358	351.670	343.685	180.038	186.701	234.858	304.415	183.527	188.273	191.870	196.843	389.248	192.604	-8191	255	
21359.271	1	1	0	0	0.26993	0.11081	0.084954	0.34842	0.26192	0.18044	0.2176	0.10306	0.34006	0.035179	0.28611	0.20489	0.16978	0.043889	0.1209	0.15012	-0.25417	-0.84167	-0.052083	-1.1667	-0.53958	-0.18542	-1.0875	-0.41458	-0.36458	-0.90208	-0.077083	-0.99167	-0.90833	-0.21458	-1.0812	-0.31667	257.020	225.611	286.157	479.571	437.099	520.060	222.292	471.041	204.613	184.773	221.850	302.486	212.435	171.952	205.896	226.316	0.000232	0.0017756	0.00075616	1393.3	2.7053e-05	2.0959e-05	688.23	376.29	5.6849e-06	5.8518e-06	166.28	41.196	97.757	31.122	1.4509e-05	15.454	0.006116	0.006796	0.0018933	1456	7.3406e-05	7.3873e-05	803.24	403.75	7.2218e-05	7.2943e-05	242.27	67.464	117.25	39.065	7.2774e-05	28.005	238.401	427.690	437.135	182.264	403.329	291.523	179.804	187.088	352.924	488.269	184.047	189.154	191.711	197.330	453.725	193.215	-8191	255	
21359.367	1	1	0	0	0.077015	0.24297	0.16819	0.35806	0.070678	0.28538	0.032961	0.43862	0.11807	0.030594	0.25811	0.022483	0.20623	0.19938	0.12312	0.20555	0.075	-0.96458	0.11458	-1.025	-0.70833	0.010417	-1.0479	-0.5625	-0.37708	-0.95833	-0.19792	-0.63125	-0.95417	-0.14375	-1.0792	-0.44167	228.412	186.410	428.227	457.463	420.239	454.447	404.246	472.062	513.322	228.605	300.730	273.342	512.632	421.922	220.089	248.584	0.00022267	0.0016093	0.00036296	1391	1.2648e-05	1.8074e-05	688.55	377.69	6.4766e-06	1.1505e-05	168.96	40.776	98.175	31.074	1.474e-05	15.328	0.005968	0.0066792	0.001871	1451.7	7.2231e-05	7.2942e-05	801.3	403.98	7.0975e-05	7.2188e-05	242.34	66.843	117.03	38.837	7.1367e-05	27.607	227.851	263.578	226.667	182.364	203.452	321.623	180.342	186.797	215.495	417.377	183.767	188.753	192.167	197.577	189.180	193.055	-8191	255	
21359.463	1	1	0	0	0.13309	0.16816	0.24257	0.21004	0.10124	0.13258	0.245	0.23066	0.048981	0.075207	0.17929	0.19988	0.26476	0.14789	0.29118	0.16358	0.19792	-0.92708	-0.12292	-0.78542	-0.77083	0.058333	-1.0958	-0.81042	-0.2625	-1.1167	-0.3375	-0.52708	-0.8625	0.0083333	-0.61667	-0.75417	494.727	220.752	472.592	182.470	336.116	322.389	284.894	482.652	173.447	327.227	521.014	178.122	411.470	488.745	374.173	424.251	0.00015735	0.001201	0.00028755	1386	1.1425e-05	9.0269e-06	695.54	378.96	1.0591e-05	2.6835e-05	169.76	41.809	99.353	31.146	8.5357e-06	15.527	0.0058447	0.0065531	0.0018149	1444.1	6.9918e-05	7.1126e-05	798.1	404.24	6.9451e-05	7.0506e-05	241.97	66.854	116.99	38.834	7.0241e-05	27.653	257.660	285.173	229.028	182.360	210.905	180.199	180.150	187.068	271.213	355.522	184.088	188.532	192.313	197.372	266.277	192.886	-8191	255	
21359.561	1	1	0	0	0.24553	0.05969	0.11989	0.47515	0.093692	0.066468	0.26078	0.53678	0.27796	0.20801	0.37641	0.34322	0.095269	0.26778	0.13318	0.017681	0.18542	-1.0479	-0.37708	-0.60625	-0.94792	-0.13542	-0.84792	-0.82083	-0.029167	-1.0375	-0.37708	-0.37917	-1.0083	0.0125	-0.63333	-1.0292	182.340	205.290	520.594	504.062	479.129	260.731	436.540	482.945	293.179	426.786	311.892	193.478	273.867	290.160	281.651	503.807	0.00026862	0.0022937	0.00015205	1388.5	1.7846e-05	2.4656e-05	679.38	379.84	1.5999e-05	4.576e-06	172.08	41.814	98.669	31.249	1.7819e-05	15.596	0.0057518	0.0064335	0.0017917	1444.3	6.8727e-05	6.9832e-05	792.38	404.34	6.7715e-05	6.9317e-05	240.81	66.194	116.47	38.51	6.8491e-05	27.134	283.304	380.166	379.846	182.373	306.066	527.394	180.128	186.858	291.200	253.466	183.622	188.487	191.883	197.799	230.366	192.837	-8191	255	
21359.680	1	1	0	0	0.14478	0.20578	0.068372	0.12764	0.26635	0.339	0.048323	0.20654	0.334	0.3807	0.36513	0.28134	0.10853	0.14155	0.11198	0.19257	0.16042	-1.0042	-0.42083	-0.60208	-1.0375	-0.32292	-0.50833	-1.0833	-0.11458	-0.87292	-0.65208	-0.1875	-1.1313	-0.079167	-0.56875	-0.98125	233.646	386.749	498.140	489.974	442.826	176.649	390.069	460.847	186.851	260.248	497.022	375.060	171.408	452.536	501.508	224.110	0.00027774	0.0010293	0.00025644	1390.9	1.0205e-05	7.8117e-06	684.1	379.55	7.0108e-06	1.5429e-05	170.11	41.629	98.434	31.413	2.4075e-05	15.182	0.0056472	0.0063374	0.001764	1441.8	6.8516e-05	6.9838e-05	791.3	404.84	6.8761e-05	7.005e-05	242.5	66.845	116.92	38.915	6.9803e-05	27.457	168.960	371.019	194.541	182.392	455.113	383.104	180.275	186.936	266.307	331.654	182.987	188.594	192.294	197.106	254.528	193.459	-8191	255	
21359.752	1	1	0	0	0.15698	0.11255	0.043683	0.11275	0.16757	0.1948	0.10511	0.3137	0.030843	0.22103	0.057191	0.12248	0.30717	0.16097	0.061263	0.15218	0.17083	-0.975	-0.50417	-0.32917	-1.2062	-0.24375	-0.50833	-1.0208	0.027083	-0.9625	-0.68333	-0.097917	-1.2021	-0.33333	-0.55208	-0.99167	302.227	229.464	257.997	205.591	228.900	266.191	509.849	211.741	368.724	506.015	432.520	370.022	482.539	436.631	507.365	430.562	0.0001352	0.0012099	0.00045068	1393.4	9.7328e-06	1.5905e-05	683.45	380.56	5.047e-06	1.371e-05	170.47	41.778	99.455	31.164	6.4806e-06	15.423	0.005755	0.0064319	0.0017766	1445.1	6.8967e-05	7.0191e-05	792.47	405.22	6.8342e-05	6.9722e-05	242.23	66.635	117.21	38.655	6.899e-05	27.36	250.347	289.004	267.069	182.553	293.786	263.692	180.223	186.724	387.582	219.138	183.578	188.476	192.129	197.992	247.477	194.162	-8191	255	
21359.848	1	1	0	0	0.23109	0.029825	0.36169	0.35601	0.15718	0.12608	0.20854	0.28189	0.23094	0.1002	0.041596	0.29201	0.13688	0.20286	0.18836	0.033979	0.14375	-0.9625	-0.72708	-0.5375	-1.0104	-0.32917	-0.44375	-1.1	-0.066667	-0.76667	-0.75625	0.1	-0.9875	-0.53125	-0.37083	-0.84583	170.698	487.428	300.088	514.872	289.170	300.404	203.314	505.346	466.553	477.554	410.207	222.830	407.677	468.942	241.440	298.417	0.00024791	0.001011	0.00024183	1388.6	2.1118e-05	1.3088e-05	688.94	381.47	7.9459e-06	2.5305e-05	172.98	42.108	99.47	31.55	7.0641e-06	15.862	0.005665	0.0063425	0.0017635	1445.8	6.841e-05	6.9283e-05	796.25	405.8	6.8048e-05	6.8587e-05	242.35	66.691	117.14	38.672	6.8104e-05	27.341	184.808	174.260	446.383	182.372	468.163	334.073	180.458	187.080	383.722	382.768	183.623	188.672	192.250	197.594	342.319	192.516	-8191	255	
21359.943	1	1	0	0	0.3475	0.27	0.11509	0.1826	0.14579	0.1118	0.14694	0.096952	0.050647	0.12746	0.079874	0.27388	0.10393	0.3633	0.26672	0.21913	0.22708	-0.50208	-0.83542	-0.00625	-1.0104	-0.4125	-0.18125	-1.1812	-0.064583	-0.58958	-0.90208	0.010417	-0.95	-0.5375	-0.22083	-1.1958	341.149	230.461	486.299	353.973	198.082	489.581	195.677	436.296	358.048	292.723	224.689	474.871	185.824	221.211	261.674	490.524	0.00012234	0.00079947	0.00069592	1396.8	1.6121e-05	1.2985e-05	691	384.75	8.8436e-07	5.3241e-06	172.7	41.743	100.09	31.23	2.2616e-05	15.307	0.0055879	0.0062284	0.0017262	1443	6.7156e-05	6.821e-05	795.26	407.13	6.6715e-05	6.7885e-05	241.69	66.06	117.28	38.451	6.8246e-05	27.166	285.971	347.148	359.670	182.402	270.347	316.608	179.986	187.081	433.474	188.446	183.961	188.497	192.207	197.566	287.909	193.416	-8191	255	
21360.062	1	1	0	0	0.032458	0.20463	0.15222	0.13877	0.20332	0.055391	0.17849	0.087293	0.15434	0.16015	0.10327	0.20428	0.22769	0.18763	0.21476	0.19288	0.15417	-0.45625	-0.97292	-0.25625	-0.74792	-0.71458	-0.14167	-1.2167	-0.33958	-0.53333	-0.95417	0.097917	-0.99583	-0.61667	-0.10625	-1.0646	469.442	202.726	301.927	485.557	175.918	522.092	179.737	356.849	413.051	263.942	374.565	408.699	189.813	311.856	294.086	524.126	9.6791e-05	0.0015251	0.00025913	1392.6	2.5255e-05	1.3922e-05	686.03	381.83	6.2615e-06	2.033e-05	173.95	41.687	99.508	31.05	1.7391e-05	15.516	0.0055882	0.0062521	0.0017484	1444.1	6.8095e-05	6.9423e-05	794.82	406.79	6.8377e-05	6.9306e-05	243.02	66.487	117.39	38.533	6.9369e-05	27.171	499.639	434.759	216.014	182.488	520.179	371.952	179.831	187.431	235.524	190.135	183.628	187.524	192.509	197.512	379.299	193.144	-8191	255	
21360.158	1	1	0	0	0.04037	0.25236	0.15873	0.15712	0.093578	0.26664	0.16964	0.18574	0.03336	0.1866	0.1503	0.025565	0.16958	0.27714	0.033621	0.22533	-0.15208	-0.25	-0.99375	-0.24375	-0.64167	-0.85625	-0.225	-1.2563	-0.31875	-0.35833	-1.1667	-0.21667	-0.61458	-0.80833	-0.3125	-0.94792	475.861	309.699	303.706	452.827	235.574	512.079	345.916	433.737	489.237	477.358	436.819	440.303	276.841	491.521	229.293	211.470	0.00020553	0.00053374	0.00041216	1388.7	2.5446e-06	3.6152e-06	690.45	382.29	1.1555e-05	2.2764e-05	173.42	41.461	99.815	31.15	1.8673e-05	15.061	0.0057103	0.0063372	0.0017823	1445.9	6.854e-05	6.9826e-05	800.16	406.83	6.9101e-05	7.0349e-05	244.05	67.053	117.39	38.565	6.9449e-05	27.341	260.523	179.299	327.858	182.545	447.639	337.717	180.189	186.926	239.960	436.402	183.693	187.465	192.226	197.689	425.865	193.073	-8191	255	
21360.258	1	1	0	0	0.21069	0.20825	0.16771	0.36527	0.052472	0.21589	0.13674	0.38782	0.18511	0.10569	0.064127	0.24256	0.10725	0.19335	0.14852	0.21722	-0.23958	-0.225	-1.1125	-0.55417	-0.56042	-0.98958	-0.097917	-1.1479	-0.58542	-0.28125	-1.0292	-0.30208	-0.62083	-1.1063	-0.097917	-0.91667	240.512	255.610	234.922	506.025	316.024	270.209	253.409	211.665	374.432	277.393	479.684	253.623	389.477	487.868	465.087	231.554	0.00036591	0.0012311	0.00023918	1396.2	9.284e-06	2.4242e-05	691.16	382.99	6.4858e-06	9.4039e-06	173.76	42.324	99.94	30.997	7.6999e-06	15.454	0.0057225	0.0063563	0.0017753	1448.3	6.828e-05	6.9258e-05	798.61	407.11	6.7815e-05	6.8742e-05	242.86	66.484	117.01	38.429	6.8545e-05	27.291	319.752	375.708	489.972	182.441	241.348	429.554	180.094	187.087	274.541	257.485	184.299	188.906	191.783	197.388	505.155	193.032	-8191	255	
21360.352	1	1	0	0	0.20423	0.22127	0.14184	0.38244	0.27805	0.14331	0.12322	0.088754	0.11787	0.063496	0.32487	0.085107	0.16536	0.30705	0.25514	0.080419	-0.175	-0.125	-1.0854	-0.34167	-0.40625	-0.89583	-0.30208	-0.92083	-0.87292	-0.5	-1.1625	-0.50833	-0.50833	-0.94375	-0.085417	-0.79583	525.840	213.262	342.988	425.555	296.485	389.594	258.105	485.229	217.378	388.406	437.713	387.854	251.934	426.293	265.261	329.072	0.00022064	0.00030082	0.00036299	1398.1	7.5547e-06	8.4314e-06	694.14	384.14	4.8942e-06	7.7448e-06	171.8	41.879	99.185	31.207	1.2194e-05	15.367	0.0055586	0.0062435	0.0017336	1444.8	6.7269e-05	6.8197e-05	797.74	406.6	6.6797e-05	6.8442e-05	241.6	66.34	116.84	38.495	6.7449e-05	26.951	195.964	210.639	263.789	182.528	445.532	451.296	180.074	187.053	317.884	433.716	183.732	187.611	192.142	197.720	189.158	192.705	-8191	255	
21360.447	1	1	0	0	0.4369	0.2551	0.13224	0.1492	0.15715	0.13708	0.19019	0.17962	0.1425	0.099513	0.37634	0.21331	0.2144	0.10252	0.086897	0.022848	-0.56458	-0.13333	-1.0083	-0.53125	-0.27292	-1.0646	-0.24583	-0.79583	-0.64583	-0.1625	-0.84375	-0.42292	-0.3875	-1.1792	-0.33958	-0.55833	182.165	316.727	346.648	479.064	317.177	354.784	206.057	217.239	313.703	419.626	467.614	524.508	290.079	198.226	374.685	313.178	0.00023578	0.0010383	0.00016542	1390.7	1.3475e-05	8.0276e-06	683.58	382.37	3.7121e-06	1.9535e-05	171.1	41.445	98.156	31.026	1.1928e-05	15.171	0.0055009	0.0061453	0.0017183	1440.2	6.6658e-05	6.7764e-05	789.76	404.76	6.6594e-05	6.783e-05	240.82	65.721	116.34	38.294	6.7825e-05	26.842	266.663	215.020	291.006	182.637	247.042	375.823	180.288	187.245	289.955	267.477	183.837	187.826	192.271	197.713	196.725	192.461	-8191	255	
21360.545	1	1	0	0	0.13612	0.040542	0.19125	0.24216	0.039035	0.148	0.079725	0.21411	0.16281	0.14476	0.21373	0.18282	0.12304	0.13232	0.10389	0.32622	-0.33333	-0.16875	-0.95417	-0.69583	-0.14375	-1.0917	-0.44375	-0.58125	-0.94583	-0.14167	-0.95417	-0.57917	-0.20625	-1.0896	-0.425	-0.42708	340.617	454.299	319.528	199.687	507.706	319.554	514.134	493.642	370.272	186.651	460.408	322.705	236.531	508.287	488.380	515.984	0.00014469	4.0049e-05	0.00038529	1390	1.2607e-05	1.3661e-05	688.14	380.66	2.1982e-05	1.1526e-05	173.9	41.748	98.94	30.901	8.2972e-06	15.268	0.0055776	0.0062062	0.0017234	1441.5	6.6355e-05	6.7537e-05	789.86	403.57	6.5743e-05	6.68e-05	238.99	65.361	115.76	37.987	6.6429e-05	26.677	320.585	462.101	391.379	182.371	295.337	443.585	180.237	186.913	222.820	431.707	184.361	188.160	192.254	197.444	354.415	192.760	-8191	255	
21360.664	1	1	0	0	0.30052	0.29273	0.18039	0.38286	0.088995	0.19855	0.2787	0.17304	0.14473	0.090239	0.12868	0.070985	0.10642	0.15717	0.1881	0.32586	-0.74792	-0.10208	-0.66667	-0.79375	-0.18333	-1.025	-0.37708	-0.34375	-0.88542	-0.12083	-0.76042	-0.8	-0.31667	-1.1229	-0.42292	-0.42292	494.659	357.471	415.200	503.814	209.141	191.030	432.418	379.181	289.839	517.747	289.189	232.304	503.336	500.207	390.495	331.959	0.00011678	0.00091658	0.00057074	1394.7	2.3072e-05	1.0494e-05	689.4	381.6	1.2052e-05	4.4344e-06	174.31	42.02	99.229	30.961	6.1884e-06	15.213	0.0054576	0.006082	0.0016822	1440.3	6.5434e-05	6.6354e-05	789.34	403.56	6.4568e-05	6.59e-05	238.66	64.862	115.54	37.931	6.4905e-05	26.401	496.994	177.154	305.199	182.418	338.368	230.459	180.097	187.080	315.835	497.233	183.308	187.705	191.971	197.494	222.099	193.007	-8191	255	
21360.762	1	1	0	0	0.2358	0.082737	0.10175	0.36005	0.19608	0.14367	0.25106	0.29327	0.10528	0.23243	0.10025	0.37666	0.10603	0.080037	0.189	0.12842	-0.57083	-0.18542	-0.64375	-1.0187	0.052083	-0.95625	-0.6	-0.41875	-1.1042	-0.17917	-0.50625	-0.86875	-0.12917	-1.1604	-0.36458	-0.36042	323.692	261.903	321.440	507.637	374.043	196.458	284.095	449.042	399.271	359.456	439.584	490.110	528.128	307.444	197.268	309.313	0.00015081	0.0011448	0.00079016	1392.9	9.2621e-06	1.0778e-05	686.59	380.62	1.1878e-05	8.3742e-06	170.48	42.416	99.272	30.848	6.1042e-06	15.36	0.0053376	0.0060004	0.00167	1441	6.5086e-05	6.5849e-05	789.36	403.34	6.487e-05	6.5223e-05	237.58	65.139	115.76	37.891	6.5247e-05	26.499	293.123	192.698	237.415	182.525	277.766	238.141	180.144	186.958	319.020	363.658	183.554	187.638	192.168	197.556	233.413	192.710	-8191	255	
21360.857	1	1	0	0	0.14767	0.14791	0.15337	0.20148	0.083019	0.18068	0.11414	0.33096	0.16075	0.13684	0.048404	0.0045808	0.07383	0.25155	0.1296	0.19154	-0.68125	-0.22708	-0.47708	-1.1479	-0.16042	-1.0292	-0.58333	-0.24792	-1.0479	-0.36667	-0.56042	-1.15	-0.2375	-0.92708	-0.73125	-0.035417	370.853	359.409	217.473	460.765	372.721	450.131	424.584	468.852	239.355	513.148	338.600	270.677	228.509	502.836	516.993	249.052	0.00019008	0.00068262	0.00017096	1391.5	1.801e-05	1.2631e-05	684.06	381.11	7.2076e-06	1.5461e-05	170.62	41.622	97.815	30.811	1.8414e-05	15.168	0.0053669	0.0060606	0.0016588	1437	6.5256e-05	6.6016e-05	786.03	403.68	6.5265e-05	6.6692e-05	238.5	65.092	115.49	37.738	6.575e-05	26.431	252.709	436.841	259.518	182.181	217.258	337.894	179.743	187.007	486.720	330.119	183.770	187.683	192.406	197.496	474.429	193.345	-8191	255	
21360.977	1	1	0	0	0.16036	0.12479	0.14647	0.11859	0.38746	0.13126	0.020791	0.27706	0.12899	0.15654	0.11552	0.20678	0.057469	0.5093	0.16253	0.097363	-0.51875	-0.60417	-0.41667	-1.1229	-0.31875	-0.62917	-0.95	-0.26042	-0.9875	-0.54375	-0.34583	-1.0396	-0.20417	-0.77708	-0.94167	-0.1	224.993	205.274	261.667	490.566	341.420	278.876	405.571	517.920	309.224	514.637	394.948	376.719	499.184	441.008	177.054	380.781	0.00016937	0.00058114	0.00082731	1391.2	1.5975e-05	1.9864e-05	686.63	380.21	4.2565e-06	9.9544e-06	170.72	41.806	97.903	30.559	1.028e-05	15.219	0.0054201	0.0061087	0.0016918	1439.8	6.5947e-05	6.7062e-05	787.25	403.48	6.6324e-05	6.7568e-05	239.41	65.441	115.82	37.834	6.7085e-05	26.672	205.408	239.215	502.177	182.507	361.252	398.394	180.256	187.232	265.469	495.356	183.824	188.402	192.235	197.543	262.473	193.476	-8191	255	
21361.049	1	1	0	0	0.068285	0.04662	0.060459	0.34574	0.10247	0.067759	0.12332	0.2313	0.16827	0.070464	0.17236	0.30431	0.14955	0.11918	0.29889	0.074172	-0.63333	-0.56458	-0.13125	-1.1542	-0.28125	-0.66875	-0.91875	-0.27083	-0.89792	-0.55625	-0.11875	-0.87917	-0.37083	-0.57917	-0.89375	-0.16667	210.711	505.115	300.866	525.045	252.238	413.253	176.574	504.024	494.636	504.480	421.601	179.235	182.480	271.947	249.111	460.947	0.00023952	0.00083655	0.00075269	1399.3	7.6156e-06	6.938e-06	690.25	383.08	1.617e-05	1.8915e-05	172.01	42.001	99.68	30.884	1.2743e-05	14.962	0.0055363	0.0061787	0.0017156	1443.7	6.6453e-05	6.7227e-05	792.12	404.91	6.6384e-05	6.7608e-05	240.18	65.816	116.41	37.912	6.754e-05	26.712	264.555	316.004	517.939	182.525	199.221	247.568	180.287	187.056	449.872	213.416	184.227	188.059	192.336	197.785	382.757	192.702	-8191	255	
21361.143	1	1	0	0	0.054799	0.096176	0.053367	0.20039	0.17298	0.27304	0.43642	0.16476	0.15059	0.1239	0.16708	0.32296	0.20033	0.11377	0.1414	0.13169	-0.3625	-0.425	-0.14583	-1.1771	-0.39792	-0.60417	-0.9875	-0.24792	-0.84167	-0.68958	-0.16458	-0.99167	-0.53542	-0.31042	-0.9625	0.11875	328.210	433.052	214.061	524.549	269.305	359.510	478.900	407.153	267.531	371.965	368.576	321.632	523.753	243.343	485.148	366.135	0.00020684	0.00060179	0.0003089	1397.2	1.9071e-05	1.0476e-05	696.29	382.64	3.9495e-06	2.1227e-05	172.76	41.916	99.519	30.613	1.0827e-05	15.08	0.005539	0.0062225	0.0017202	1447.1	6.6448e-05	6.7094e-05	795.46	405.39	6.5908e-05	6.7229e-05	240.17	65.99	116.64	37.811	6.7167e-05	26.749	299.435	492.584	215.656	182.469	271.320	273.932	180.061	187.179	295.428	527.011	184.101	187.678	191.939	197.617	472.155	192.799	-8191	255	
21361.240	1	1	0	0	0.13782	0.2128	0.10584	0.29441	0.16766	0.1872	0.09938	0.1557	0.1688	0.11119	0.038336	0.13491	0.11518	0.065671	0.14686	0.11815	-0.59792	-0.82708	-0.17708	-1.0958	-0.35625	-0.19792	-1.1667	-0.35417	-0.75208	-0.89583	-0.23542	-1.0167	-0.67083	-0.27708	-1.025	-0.44583	343.788	407.840	515.749	174.882	427.910	326.358	499.927	444.629	424.669	405.767	453.003	178.226	419.054	451.132	338.410	484.274	0.00010581	0.00043016	0.00042019	1399.9	1.5411e-05	1.9811e-05	692.54	384.28	1.043e-05	4.1827e-06	172	41.073	98.694	30.451	4.512e-06	14.816	0.0055558	0.0062301	0.0017349	1450.4	6.7358e-05	6.8298e-05	796.2	407.17	6.7244e-05	6.8418e-05	241.44	65.749	116.29	37.794	6.7544e-05	26.623	426.172	482.395	248.238	182.518	177.560	300.490	180.006	186.949	350.658	522.508	183.839	188.127	191.966	197.565	360.489	192.952	-8191	255	
21361.359	1	1	0	0	0.206	0.14645	0.082511	0.11676	0.10727	0.016959	0.14503	0.31683	0.10761	0.1613	0.12498	0.3215	0.12528	0.14177	0.0075941	0.13156	-0.085417	-0.87917	-0.08125	-0.93542	-0.63333	-0.12917	-1.0854	-0.29792	-0.40833	-1.2313	-0.072917	-1.1479	-0.83542	-0.37292	-1.0333	-0.56875	301.686	464.164	430.877	505.681	215.773	391.032	403.693	523.150	263.999	284.133	211.989	280.165	509.133	390.085	289.084	235.263	7.6304e-05	0.00096926	0.00021728	1396	1.2387e-05	1.3364e-05	695.96	382.77	1.3776e-05	1.9805e-05	171.29	41.79	99.345	30.357	8.8599e-06	15.186	0.0055612	0.0061921	0.001727	1447.1	6.6437e-05	6.7705e-05	794.81	405.34	6.6353e-05	6.7975e-05	240.89	65.868	116.47	37.652	6.7328e-05	26.533	281.591	312.129	462.991	182.505	378.345	321.080	180.430	186.859	428.572	304.201	183.480	187.490	192.179	197.452	305.877	193.170	-8191	255	
21361.455	1	1	0	0	0.2139	0.15734	0.1689	0.28716	0.22854	0.28934	0.017085	0.33097	0.056647	0.064308	0.21244	0.15469	0.15311	0.064769	0.078261	0.070041	0	-1.0938	-0.11458	-0.90625	-0.75	-0.32917	-1.2313	-0.58958	-0.39167	-1.0625	-0.13958	-0.70208	-0.97083	-0.052083	-0.83333	-0.4375	251.074	513.067	185.154	507.044	516.758	252.241	515.937	493.974	445.771	169.586	198.035	285.206	458.619	396.740	526.572	271.472	0.00021835	0.0013067	0.00024373	1405	1.3053e-05	1.8986e-05	694.68	385.36	2.0807e-05	1.443e-05	174.36	42.234	99.886	30.462	1.5031e-05	15.069	0.0055206	0.0062133	0.0017272	1450.8	6.6729e-05	6.8039e-05	797.73	407.11	6.6654e-05	6.8202e-05	242.95	66.361	117.24	37.648	6.7981e-05	26.651	263.890	247.620	471.706	182.490	298.167	259.707	180.195	187.181	351.230	251.641	184.014	188.414	192.310	196.996	434.957	192.483	-8191	255	
21361.553	1	1	0	0	0.32587	0.21597	0.1189	0.29399	0.12112	0.12655	0.3038	0.15856	0.2565	0.10311	0.091769	0.1304	0.10235	0.0098927	0.13254	0.16278	0.025	-1.3604	-0.18125	-1	-0.77917	-0.36667	-1.0896	-0.59167	-0.29375	-1.2292	-0.23542	-0.69167	-0.98958	-0.052083	-0.92917	-0.75208	382.839	404.929	381.356	509.859	415.571	238.115	407.876	463.072	254.303	207.933	276.663	240.211	414.348	482.992	314.856	185.880	0.00026542	0.0012731	0.00042624	1408.1	1.0508e-05	2.121e-06	704.15	385.75	1.1178e-05	5.3731e-06	173.78	42.446	99.591	30.053	1.66e-05	15.064	0.0056351	0.0062985	0.0017486	1457.3	6.7894e-05	6.9248e-05	806.84	409.63	6.7992e-05	6.9264e-05	244.91	66.971	118.02	37.812	6.8773e-05	26.894	272.542	357.191	243.665	182.641	311.727	176.196	180.262	187.200	195.515	321.902	183.477	188.384	192.384	197.470	316.660	192.836	-8191	255	
21361.623	1	1	0	0	0.13177	0.12766	0.23095	0.57783	0.071147	0.1527	0.1977	0.12733	0.14655	0.16186	0.26858	0.25408	0.38113	0.19967	0.36876	0.040154	0.3125	-1.1	-0.24167	-0.70417	-0.73333	-0.27083	-0.94167	-0.86042	-0.12083	-1.1917	-0.34375	-0.525	-1.0562	-0.24167	-0.99167	-0.80625	379.139	300.629	478.698	473.773	304.958	251.527	243.142	390.037	208.699	438.363	236.388	236.269	512.336	500.684	273.811	268.156	6.2436e-05	0.00090284	0.00036897	1411.5	1.3657e-05	1.9168e-05	699.87	386.69	1.6108e-05	1.5954e-05	173.71	41.572	99.328	30.01	2.6638e-06	14.836	0.005678	0.006338	0.0017584	1458.5	6.7702e-05	6.9088e-05	803.5	408.73	6.7763e-05	6.8502e-05	242.13	66.123	116.72	37.485	6.717e-05	26.459	470.280	458.984	376.808	182.561	366.498	282.819	180.077	187.286	219.341	437.763	183.321	188.391	192.177	197.213	185.200	192.526	-8191	255	
21361.744	1	1	0	0	0.054924	0.047627	0.2495	0.17898	0.14308	0.1374	0.23925	0.25505	0.26299	0.0379	0.091693	0.18488	0.048537	0.20146	0.19807	0.14586	0.1625	-0.86875	-0.3875	-0.61875	-1.3	-0.17083	-0.725	-1.0396	-0.125	-0.91667	-0.56667	-0.32292	-1.1812	-0.3	-0.65833	-0.7125	337.793	338.088	246.856	170.301	438.822	214.231	494.739	515.303	183.682	407.793	187.089	269.127	216.577	446.552	207.408	293.595	0.00012642	0.00075513	0.00047061	1406.8	7.5446e-06	3.269e-06	694.33	383.12	1.7582e-05	1.3822e-05	172.98	42.021	98.621	30.254	1.9515e-05	15.071	0.0055466	0.0061854	0.0017161	1451.2	6.6936e-05	6.8228e-05	796.73	406.73	6.6989e-05	6.8106e-05	241.27	65.933	116.56	37.668	6.8059e-05	26.735	349.664	333.943	347.657	182.685	295.794	192.144	180.363	186.843	325.425	435.581	183.940	188.344	192.336	197.640	286.181	193.674	-8191	255	
21361.842	1	1	0	0	0.12964	0.19519	0.10217	0.20551	0.2658	0.15105	0.24938	0.058162	0.068762	0.16224	0.22705	0.11101	0.13932	0.12584	0.12108	0.26327	0.20833	-1.0875	-0.45208	-0.46458	-1.0375	-0.34792	-0.7	-1.1229	-0.14583	-1.0187	-0.61042	-0.31042	-1.2083	-0.21042	-0.35208	-1.0167	456.231	198.361	526.634	471.210	261.156	183.735	318.155	512.515	228.730	309.132	348.345	389.779	515.283	491.469	361.006	358.449	0.00023422	0.00050863	0.00022881	1407.1	8.7984e-06	1.5255e-05	696.83	382.85	3.6925e-06	2.0957e-05	172.38	41.873	99.526	30.006	1.5283e-06	14.995	0.0056229	0.0062972	0.0017506	1452.7	6.7262e-05	6.8869e-05	797.98	406.05	6.7563e-05	6.8591e-05	242.59	66.34	116.94	37.636	6.8624e-05	26.819	247.847	473.808	400.549	182.727	501.719	356.129	180.257	187.028	367.724	344.582	183.835	188.596	192.682	197.921	499.586	192.618	-8191	255	
21361.938	1	1	0	0	0.13638	0.11752	0.24504	0.19168	0.092235	0.38348	0.089032	0.20226	0.033494	0.17883	0.42452	0.2367	0.31588	0.4143	0.07898	0.1808	0.16042	-0.98542	-0.66875	-0.29583	-1.0396	-0.38333	-0.49792	-1.0167	-0.12708	-0.96667	-0.8375	-0.15833	-1.1729	-0.55	-0.27292	-1.075	318.012	423.574	521.773	469.866	485.675	491.188	408.544	503.211	369.818	270.900	177.692	199.170	458.464	496.037	494.180	254.430	0.00013614	0.0030016	0.00038413	1409.6	1.1581e-05	1.1315e-05	693.66	382.99	7.5705e-06	1.3292e-05	172.78	41.773	99.115	30.228	3.6527e-06	15.072	0.0056778	0.0063306	0.0017655	1454.4	6.8121e-05	6.9068e-05	802.35	407.08	6.7826e-05	6.8754e-05	242.37	66.15	116.51	37.591	6.8444e-05	26.837	363.549	289.880	199.825	182.628	430.690	216.872	180.040	187.052	382.296	324.088	183.998	187.395	192.067	197.749	272.826	193.507	-8191	255	
21362.059	1	1	0	0	0.4098	0.10946	0.04736	0.3531	0.1289	0.096401	0.19825	0.32855	0.21964	0.2037	0.21953	0.055144	0.28189	0.23999	0.17367	0.21555	0.23958	-0.64792	-0.83958	-0.325	-1.1083	-0.57292	-0.31875	-1.1083	-0.23958	-0.64792	-0.99583	-0.13958	-0.72917	-0.63333	-0.34583	-1.1333	380.318	333.907	440.846	506.887	450.406	467.336	408.636	476.904	464.660	372.832	205.837	401.011	186.320	500.065	303.001	394.815	0.00022554	0.00043265	0.00061752	1402.4	5.3724e-06	7.2506e-06	690.2	382.44	7.2531e-06	2.7986e-05	169.34	41.05	98.497	29.973	7.6603e-06	14.871	0.0056356	0.0063466	0.0017669	1454	6.8286e-05	6.9515e-05	797.85	406.86	6.7916e-05	6.9018e-05	240.85	65.586	116.35	37.396	6.8086e-05	26.576	230.931	214.121	488.998	182.446	385.536	438.300	180.455	187.273	254.719	437.834	183.715	188.356	192.427	197.242	250.457	192.382	-8191	255	
21362.152	1	1	0	0	0.17011	0.24254	0.11242	0.15428	0.14571	0.17357	0.14861	0.2213	0.25691	0.10912	0.17984	0.24947	0.077433	0.15796	0.28042	0.17106	-0.027083	-0.67917	-0.83542	-0.25417	-0.95833	-0.74792	-0.425	-1.1354	-0.50208	-0.49792	-1.1521	0.0041667	-0.86458	-0.68958	-0.1375	-1.2792	304.424	355.882	300.827	204.766	382.283	281.863	178.585	506.278	278.063	304.975	523.935	443.533	281.846	221.812	396.775	500.745	0.00029852	0.00036828	0.00016756	1395.3	1.8404e-05	2.2304e-05	689.65	381.32	9.0993e-06	1.4303e-05	170.04	40.959	98.061	30.148	5.415e-06	14.629	0.0056239	0.0062934	0.0017531	1447.3	6.7893e-05	6.9346e-05	795.29	405.29	6.8121e-05	6.9198e-05	240.35	66.014	116.44	37.622	6.9964e-05	26.784	229.422	483.579	466.257	182.523	258.290	272.829	180.701	187.261	303.594	482.226	183.807	188.482	191.814	197.795	276.012	193.302	-8191	255	
21362.248	1	1	0	0	0.19026	0.32298	0.23551	0.19241	0.17184	0.03906	0.1866	0.19204	0.11719	0.23869	0.090696	0.17725	0.31353	0.1507	0.073186	0.15598	-0.0020833	-0.26875	-0.98958	-0.475	-1.0479	-0.86875	-0.05	-1.0292	-0.30417	-0.38125	-1.2146	-0.30208	-0.84167	-0.95208	-0.10625	-1.0625	412.428	463.170	390.717	505.681	214.145	320.855	435.081	470.606	494.516	485.131	453.814	325.646	419.497	473.138	357.376	213.544	9.5227e-05	0.0010921	0.00032445	1393.2	8.44e-06	8.6947e-06	692.29	381.56	6.3281e-06	1.4006e-05	171.33	41.007	98.356	30.326	1.1661e-05	14.795	0.0057013	0.0063742	0.001781	1449.8	6.9042e-05	7.0504e-05	799.38	404.98	6.9156e-05	7.0369e-05	241.66	66.302	116.69	37.731	7.0203e-05	26.821	433.389	216.583	394.491	182.578	506.710	338.336	180.412	187.268	417.229	409.709	184.168	188.324	192.324	197.386	434.138	192.845	-8191	255	
21362.344	1	1	0	0	0.22926	0.095951	0.17646	0.18758	0.061664	0.17225	0.27788	0.26381	0.12456	0.10528	0.14686	0.10193	0.20019	0.16	0.17697	0.34148	-0.060417	-0.13958	-1.1521	-0.34375	-0.4875	-0.97917	-0.18125	-0.92292	-0.62917	-0.14792	-1.1104	-0.29167	-0.47708	-0.98958	-0.15208	-1.1771	383.864	515.008	426.328	428.758	298.068	223.794	411.790	497.957	479.310	344.647	434.921	181.388	257.037	428.261	171.088	207.367	0.00023107	0.0012154	0.00060362	1393.7	1.4692e-06	2.796e-06	691.41	380.44	7.4884e-06	1.16e-05	171.9	41.445	98.388	30.003	9.2819e-06	14.763	0.0057496	0.0064671	0.0017983	1451.9	6.9403e-05	7.0745e-05	801.89	405.21	6.9681e-05	7.0853e-05	242.66	66.601	117.18	37.676	7.141e-05	26.989	236.335	503.631	229.781	182.453	245.525	330.693	179.958	187.519	288.402	173.628	183.814	188.608	192.060	197.621	410.211	193.297	-8191	255	
21362.441	1	1	0	0	0.18204	0.22991	0.25988	0.1959	0.076459	0.13364	0.16768	0.2213	0.14406	0.28717	0.17064	0.216	0.28427	0.074346	0.25214	0.14123	-0.1875	-0.14167	-1.0396	-0.475	-0.60833	-0.9875	-0.16458	-1.1125	-0.82083	-0.33542	-1.1063	-0.23125	-0.3625	-1.2083	-0.18125	-0.90208	397.258	324.027	523.605	479.549	475.772	242.796	312.715	481.429	265.983	310.843	299.907	472.648	520.015	203.601	503.909	484.926	0.00012794	0.00055818	0.00012753	1391.4	3.649e-06	2.6019e-05	689.12	378.87	2.0287e-05	2.7036e-05	168.68	40.673	97.825	29.924	3.9796e-06	14.633	0.0058179	0.0065319	0.001824	1454.3	7.0421e-05	7.2515e-05	806.01	405.76	7.1143e-05	7.2486e-05	242.06	66.683	116.87	37.92	7.2065e-05	27.112	222.413	419.315	465.878	182.379	514.995	288.239	180.192	187.203	296.768	182.470	183.849	188.260	192.361	197.624	427.412	192.902	-8191	255	
21362.537	1	1	0	0	0.16872	0.11108	0.29364	0.25418	0.11189	0.15734	0.44527	0.23272	0.066389	0.18309	0.20697	0.15572	0.13773	0.16797	0.13134	0.21893	-0.57708	0.13333	-0.94583	-0.52917	-0.35208	-1.0438	-0.36458	-0.88125	-0.84167	-0.17083	-1.0917	-0.49375	-0.40625	-1.2083	-0.20833	-0.73333	467.869	427.310	487.076	196.667	238.110	242.981	471.320	494.678	304.061	491.205	390.750	510.316	228.901	312.827	439.883	438.115	0.00028106	0.0011496	0.0001761	1390	1.1371e-05	1.2954e-05	687.02	375.9	9.7384e-06	1.2806e-05	165.86	40.346	97.486	29.865	3.9113e-06	14.597	0.0059579	0.0066765	0.0018553	1449.6	7.1586e-05	7.2672e-05	802.35	403.11	7.1504e-05	7.2538e-05	240.57	66.5	116.52	37.815	7.1947e-05	27.097	279.430	376.448	337.662	182.231	278.450	322.143	180.188	187.350	383.326	371.829	183.345	188.598	192.525	197.431	270.413	193.938	-8191	255	
21362.656	1	1	0	0	0.062046	0.080915	0.27723	0.10641	0.18727	0.26012	0.24603	0.12377	0.15563	0.12998	0.30089	0.21675	0.3162	0.082728	0.20907	0.16978	-0.56458	0.0083333	-0.89583	-0.79167	-0.3625	-0.95625	-0.42917	-0.59375	-0.86458	-0.30833	-0.86458	-0.94375	-0.32917	-1.2542	-0.23958	-0.63125	379.169	303.074	412.723	519.085	171.428	483.959	476.537	284.374	337.194	205.985	193.335	297.386	192.364	243.672	504.914	426.921	0.00018289	0.0022455	0.00012556	1395.1	1.5054e-05	8.4081e-06	685.99	376.36	1.1175e-05	2.1578e-05	166.85	40.575	97.112	29.734	1.1456e-05	14.705	0.0059701	0.0066652	0.0018395	1453	7.203e-05	7.2877e-05	800.83	403.03	7.2005e-05	7.2804e-05	240.32	66.633	116.46	37.676	7.2029e-05	27.084	348.693	242.161	191.007	182.611	294.562	345.760	180.441	187.076	405.388	398.616	184.610	188.651	192.168	198.057	370.148	192.524	-8191	255	
21362.754	1	1	0	0	0.44048	0.14471	0.31208	0.26048	0.29339	0.079808	0.057736	0.26056	0.25703	0.02295	0.20642	0.052268	0.19685	0.032267	0.14509	0.20746	-0.7375	0.0125	-0.83542	-0.80625	-0.22292	-1.075	-0.28542	-0.49792	-0.99583	-0.05	-0.63125	-0.75833	-0.16042	-1.2167	-0.50208	-0.32708	236.920	256.926	302.928	440.373	459.451	255.520	426.692	503.941	248.472	192.001	498.802	404.279	509.020	177.949	372.146	372.763	5.6379e-05	0.00075458	0.00017933	1401.1	9.2325e-06	8.8585e-06	691.55	377.46	1.8095e-05	3.1904e-06	167.28	40.764	97.112	29.686	6.9494e-06	14.886	0.0059705	0.006667	0.0018599	1456.9	7.1724e-05	7.3159e-05	805.76	403.75	7.2319e-05	7.3448e-05	242.68	66.98	116.56	37.897	7.2812e-05	27.354	171.154	473.477	400.894	182.473	433.151	471.334	179.998	187.110	274.325	522.159	183.973	188.086	192.420	197.657	488.021	192.784	-8191	255	
21362.850	1	1	0	0	0.010499	0.073639	0.21856	0.25968	0.13076	0.062334	0.18118	0.043073	0.1188	0.1025	0.15426	0.18458	0.037238	0.23273	0.29076	0.13343	-0.79792	-0.43333	-0.72292	-1.2396	-0.11042	-1.0167	-0.76875	-0.42292	-1.125	-0.29167	-0.84583	-0.91667	-0.20833	-1.1063	-0.63958	-0.22917	438.679	386.264	337.838	459.273	447.414	177.275	502.836	442.872	330.324	209.159	310.697	176.292	341.946	239.424	470.080	372.433	0.00024881	0.0019856	0.00020754	1399.6	3.1125e-05	2.0867e-05	687.01	376.46	2.7561e-06	2.4798e-05	164.38	40.424	96.296	29.795	1.3255e-05	14.508	0.0059879	0.0066996	0.0018612	1457.8	7.2467e-05	7.3484e-05	805.88	403.48	7.2401e-05	7.3239e-05	241.84	67.024	116.47	37.878	7.3865e-05	27.288	337.186	301.468	451.469	182.442	303.460	413.360	180.126	187.238	248.637	295.610	184.033	188.692	192.174	197.603	515.195	193.394	-8191	255	
21362.922	1	1	0	0	0.14838	0.26541	0.20047	0.33737	0.13382	0.28049	0.19273	0.3029	0.24059	0.12811	0.1167	0.14776	0.058996	0.062619	0.12453	0.043947	-0.80625	-0.22292	-0.31458	-1.0479	-0.17708	-1.0042	-0.61042	-0.37917	-1.1187	-0.16875	-0.50625	-0.79583	-0.25	-0.79375	-0.82708	-0.17917	314.409	424.942	504.793	461.501	259.279	523.127	482.216	473.206	399.604	236.569	172.065	449.644	496.328	258.998	275.796	259.392	0.00027082	0.00073974	0.00028831	1396.8	9.9023e-06	8.9334e-06	683.69	374.44	1.3696e-05	2.6544e-05	164.07	40.013	97.009	29.348	2.1982e-05	14.318	0.0060217	0.0067382	0.0018859	1452.1	7.2452e-05	7.3804e-05	801.7	402.46	7.223e-05	7.3969e-05	242.05	66.824	116.43	37.775	7.4847e-05	27.353	309.528	177.564	479.035	182.376	399.706	395.182	180.004	187.287	354.347	317.461	183.634	187.928	192.217	197.788	289.723	192.841	-8191	255	
21363.039	1	1	0	0	0.13227	0.10589	0.085367	0.31578	0.11027	0.22075	0.13328	0.26951	0.1595	0.19911	0.25716	0.21681	0.10206	0.21072	0.263	0.069335	-0.73542	-0.44583	-0.27292	-1.2917	-0.225	-0.66042	-0.975	-0.20208	-0.97917	-0.4125	-0.37917	-1.15	-0.22083	-0.6875	-0.74375	-0.18125	455.567	316.828	366.943	525.474	415.458	297.863	481.939	376.519	367.566	479.563	355.174	515.838	293.353	476.390	332.580	382.190	0.00047601	0.0015546	0.00023565	1387.9	1.4051e-05	6.0503e-06	680.99	374.72	3.3925e-06	2.0385e-05	167.52	40.141	96.768	29.51	1.2691e-05	14.461	0.0060964	0.0068268	0.0019033	1455.3	7.3368e-05	7.4645e-05	805.21	403.52	7.3399e-05	7.482e-05	243.04	67.091	116.51	37.842	7.4404e-05	27.276	314.563	329.535	247.018	182.710	268.371	462.494	179.944	187.310	181.746	192.525	184.884	188.459	192.425	197.599	515.092	192.712	-8191	255	
21363.137	1	1	0	0	0.29965	0.15043	0.2004	0.189	0.24934	0.027924	0.31325	0.057439	0.17456	0.083115	0.16403	0.041749	0.2675	0.11023	0.15389	0.12478	-0.45417	-0.54583	-0.30833	-1.1125	-0.041667	-0.45625	-0.97292	-0.26042	-0.98542	-0.68125	-0.28542	-0.93333	-0.43333	-0.48333	-1.0021	0.039583	345.395	313.942	398.639	190.137	347.816	210.123	487.594	415.091	271.102	453.023	176.416	220.062	414.614	465.161	344.076	220.349	0.00016025	0.00094803	0.00043956	1392.5	2.9668e-05	1.4057e-05	693.72	375.06	1.187e-05	3.1726e-05	166.95	40.575	97.301	29.813	2.2668e-05	14.425	0.0060649	0.0068306	0.0018992	1459	7.2919e-05	7.4414e-05	810.86	404.11	7.3084e-05	7.438e-05	243.86	67.189	116.93	37.87	7.4192e-05	27.328	281.648	318.888	178.892	182.556	384.870	195.550	180.556	187.144	289.551	398.406	183.924	188.616	192.143	197.508	293.725	193.482	-8191	255	
21363.232	1	1	0	0	0.16591	0.14682	0.26346	0.15592	0.22084	0.27039	0.37544	0.39904	0.24668	0.020959	0.17873	0.10385	0.1649	0.37291	0.1123	0.13248	-0.36042	-0.6875	-0.091667	-1.3479	-0.21042	-0.41042	-0.99792	-0.40208	-0.70833	-0.80417	-0.083333	-1.0938	-0.40417	-0.53542	-1.1896	-0.079167	412.297	178.500	323.597	460.271	272.115	475.014	405.796	396.611	458.761	192.205	446.194	410.233	506.990	506.347	177.785	360.618	0.00017923	0.0011123	0.0003636	1400.5	1.1526e-05	1.2677e-05	691.94	375.57	2.344e-05	1.1539e-05	168.65	41.114	97.404	29.814	1.1827e-05	14.613	0.0060335	0.0067834	0.0018861	1464.7	7.2765e-05	7.4641e-05	811.53	405.26	7.296e-05	7.4744e-05	245.03	67.407	117.29	38.043	7.4622e-05	27.459	302.719	348.814	481.912	182.776	422.832	189.611	180.482	187.517	421.100	221.147	183.677	188.466	192.303	197.529	501.540	193.977	-8191	255	
21363.328	1	1	0	0	0.21072	0.26819	0.13044	0.22155	0.092164	0.17939	0.098782	0.076164	0.1765	0.099049	0.20275	0.15527	0.11119	0.068933	0.037571	0.16846	-0.31667	-0.8	-0.083333	-1.0646	-0.55833	-0.35417	-1.2313	-0.27917	-0.64167	-0.77292	-0.26875	-0.95417	-0.60417	-0.29375	-1.0354	-0.15417	488.508	215.557	448.400	432.650	284.635	253.138	175.554	303.479	492.507	214.899	281.370	185.866	465.939	241.508	462.339	416.620	0.00022194	0.0012927	0.00056339	1397.6	3.7695e-06	2.1693e-05	694.71	377.66	1.781e-05	2.942e-05	166.61	40.693	97.613	29.784	1.8135e-05	14.82	0.0061441	0.0069455	0.0019282	1469.6	7.4337e-05	7.6402e-05	816.4	406.61	7.4995e-05	7.6301e-05	246.08	68.088	117.89	38.252	7.5582e-05	27.654	206.237	285.224	382.005	182.723	314.895	420.341	180.399	187.310	239.994	324.811	183.994	187.910	192.500	197.463	458.885	193.622	-8191	255	
21363.449	1	1	0	0	0.18341	0.1554	0.24007	0.31355	0.49659	0.041979	0.19318	0.39663	0.19811	0.13619	0.33786	0.07385	0.088261	0.31986	0.24797	0.088795	-0.225	-0.90625	-0.025	-1.025	-0.64792	-0.32083	-1.2271	-0.33333	-0.54792	-0.91667	-0.18958	-0.66667	-0.65208	-0.34167	-1.1271	-0.46042	313.319	280.512	339.834	181.527	466.453	217.359	473.485	428.096	175.501	174.260	464.343	175.929	261.795	456.167	444.087	412.913	6.7513e-05	0.00052279	0.00077813	1400.3	7.0188e-06	9.2802e-06	700.17	376.83	1.3755e-05	1.6221e-05	166.28	41.078	97.706	29.622	1.1898e-05	14.521	0.006204	0.0070171	0.0019365	1471.5	7.5575e-05	7.6699e-05	818.98	406.46	7.5368e-05	7.6144e-05	246.02	68.212	117.81	38.26	7.5866e-05	27.783	337.365	265.534	201.645	182.882	362.389	498.987	180.234	187.244	381.860	328.211	184.503	188.198	192.036	198.040	236.573	193.321	-8191	255	
21363.521	1	1	0	0	0.21837	0.34208	0.10231	0.24225	0.061565	0.21706	0.027899	0.26654	0.15147	0.098351	0.21803	0.13821	0.10704	0.11563	0.25314	0.17387	-0.097917	-0.9625	-0.16667	-1.0063	-0.64167	-0.18125	-1.1063	-0.50417	-0.25625	-1.1271	-0.26875	-0.87292	-0.87292	-0.37917	-1.1375	-0.375	216.783	220.988	258.885	457.794	479.260	352.083	328.464	467.006	308.432	179.496	446.892	475.228	517.270	448.450	225.257	230.385	0.00019661	0.00072322	0.00028339	1406.8	1.3067e-05	1.4364e-05	694.32	379.2	1.2857e-05	3.648e-05	168.59	40.777	97.345	29.744	1.7962e-05	14.439	0.0062572	0.0069594	0.0019319	1473.5	7.4563e-05	7.5243e-05	816.97	407.17	7.3342e-05	7.3729e-05	244.73	67.378	117.29	37.804	7.3666e-05	27.441	305.679	235.259	416.698	182.817	473.275	502.825	180.456	187.305	345.981	424.361	183.646	187.165	192.154	197.690	262.436	193.896	-8191	255	
21363.617	1	1	0	0	0.16036	0.26446	0.32	0.05883	0.29681	0.19867	0.30359	0.21773	0.28049	0.074189	0.33331	0.11326	0.24443	0.18906	0.28164	0.07029	-0.027083	-0.93542	-0.35625	-0.77292	-0.77083	0.033333	-1.0146	-0.77708	-0.18542	-1.0604	-0.2875	-0.71042	-0.86667	-0.11875	-0.95833	-0.50208	339.092	273.736	280.040	413.556	489.875	445.877	506.392	452.978	283.757	205.652	224.806	263.202	452.765	346.364	242.683	245.494	0.00031318	0.0021292	0.00033645	1418.3	1.0599e-05	1.2874e-05	706.82	381.69	8.4068e-06	1.7861e-05	169.79	41.39	98.929	29.66	1.2056e-05	14.297	0.0061223	0.0068465	0.0018936	1475.9	7.4143e-05	7.517e-05	823.14	410.21	7.4739e-05	7.5604e-05	248.25	68.626	118.67	38.163	7.5088e-05	27.759	254.908	333.079	203.939	183.008	203.081	412.242	180.338	187.461	372.216	220.707	183.765	188.664	192.878	197.734	244.637	193.196	-8191	255	
21363.738	1	1	0	0	0.20114	0.11868	0.11134	0.19326	0.34514	0.2533	0.17634	0.13345	0.23573	0.20453	0.21538	0.019588	0.16322	0.26124	0.38643	0.16024	0.22292	-1.0104	-0.27083	-0.51667	-0.91875	-0.22083	-1.0542	-0.84167	-0.1125	-0.92708	-0.29792	-0.41667	-1.0292	-0.26042	-0.69583	-0.88333	510.410	311.306	478.764	178.702	495.110	283.685	506.022	452.381	251.789	405.917	481.625	402.038	358.852	347.940	342.060	255.425	0.0001182	0.0012785	2.4263e-05	1412.5	1.2949e-05	4.6031e-06	699.11	379.14	1.652e-05	1.3544e-05	169.25	40.834	97.622	29.643	1.6069e-05	14.454	0.0062286	0.0068921	0.0019239	1478.9	7.5219e-05	7.6581e-05	822.4	409.92	7.4696e-05	7.6378e-05	248.29	68.499	118.44	38.086	7.593e-05	27.667	206.329	309.784	369.398	182.951	296.750	478.788	180.584	187.131	232.706	394.109	184.008	188.364	192.355	197.788	346.176	193.058	-8191	255	
21363.834	1	1	0	0	0.12126	0.10273	0.27375	0.3453	0.28526	0.060141	0.075839	0.23451	0.19395	0.16702	0.069122	0.11929	0.1622	0.058904	0.16032	0.22745	0.34583	-0.91667	-0.1375	-0.61042	-0.81042	-0.11667	-0.72292	-1.0604	-0.020833	-1.0375	-0.425	-0.1625	-0.99167	-0.31042	-0.63125	-0.93125	389.963	431.193	384.846	496.470	301.057	259.826	461.633	471.663	194.541	339.885	478.051	228.613	275.252	429.415	249.726	434.912	0.00012828	4.3899e-05	0.00034214	1408.8	2.0285e-05	9.7549e-06	697.37	379.55	8.8558e-06	2.1081e-05	170.09	40.943	98.138	29.704	1.6314e-05	14.284	0.0062302	0.0069322	0.0019391	1478.9	7.4644e-05	7.6353e-05	822.2	409.28	7.5175e-05	7.5934e-05	249.05	68.443	118.34	38.125	7.5803e-05	27.636	277.800	368.788	199.185	182.853	332.612	337.526	180.589	187.099	227.714	218.317	183.785	188.477	192.790	197.618	409.524	193.764	-8191	255	
21363.930	1	1	0	0	0.37859	0.14191	0.041214	0.16865	0.23525	0.099035	0.065313	0.32919	0.12431	0.058293	0.33368	0.067423	0.30775	0.11635	0.25849	0.14219	0.075	-0.88542	-0.47083	-0.53542	-1.0896	-0.25	-0.60833	-0.81458	-0.083333	-0.96458	-0.57917	-0.14583	-1.1812	-0.48125	-0.43542	-1.0312	346.384	476.086	425.821	205.420	264.354	209.535	367.597	518.582	478.982	184.713	471.003	342.222	427.010	513.975	400.662	273.231	0.00016524	0.0009891	0.00089386	1411.9	1.6698e-05	1.676e-05	702.46	380.96	7.1347e-06	2.0888e-05	170.04	40.818	98.192	29.896	1.6744e-05	14.48	0.0062027	0.0069727	0.0019368	1475.2	7.4873e-05	7.6637e-05	823.42	409.72	7.5294e-05	7.6487e-05	248.4	68.719	118.52	38.17	7.5215e-05	27.608	230.291	343.332	195.425	182.763	245.512	350.551	180.958	187.248	370.257	232.360	183.517	188.317	192.051	197.472	483.254	194.195	-8191	255	
21364.025	1	1	0	0	0.35715	0.23555	0.15702	0.29882	0.26655	0.25068	0.16504	0.26735	0.045065	0.12573	0.10411	0.33073	0.26815	0.28042	0.07475	0.24649	0.13542	-0.89375	-0.675	-0.41667	-1.1708	-0.40833	-0.52917	-1.1812	-0.24792	-0.85208	-0.72708	-0.09375	-1.0125	-0.51667	-0.30417	-1.1354	323.149	220.823	182.127	202.286	284.812	351.824	195.752	178.393	518.858	450.271	384.629	441.737	498.630	347.459	486.522	326.046	0.00021547	0.00096367	0.00039059	1417	1.3338e-05	1.8582e-05	703.76	380.58	5.6505e-06	6.7693e-06	168.87	41.184	98.164	29.902	3.278e-06	14.423	0.0061708	0.0068768	0.0019292	1474.1	7.3922e-05	7.5021e-05	820.69	409.23	7.4172e-05	7.5546e-05	247.61	68.184	118.38	38.093	7.5269e-05	27.58	247.678	444.446	279.490	182.576	269.479	359.648	180.326	187.259	425.542	210.835	184.264	188.507	192.184	197.235	216.750	192.986	-8191	255	
21364.145	1	1	0	0	0.18879	0.25395	0.057748	0.27138	0.11325	0.15326	0.34055	0.13567	0.2208	0.32123	0.045451	0.12903	0.31288	0.17795	0.27299	0.36267	0.18333	-0.60208	-0.96875	-0.13542	-0.85417	-0.63333	-0.49375	-1.1958	-0.20625	-0.57083	-1.0479	-0.12917	-0.78125	-0.5125	-0.26875	-1.0479	439.398	402.058	373.930	497.261	200.628	176.685	389.027	483.987	352.412	264.705	217.720	290.899	447.924	413.118	461.693	282.941	0.00016026	0.0012161	0.00067094	1406.1	1.6696e-05	3.3435e-05	697.96	380.55	1.2785e-05	1.6249e-05	168.32	40.602	96.994	29.602	7.0969e-06	14.431	0.0061766	0.0069391	0.0019323	1471.7	7.5133e-05	7.6715e-05	820.64	408.82	7.5168e-05	7.7014e-05	247.52	68.124	117.97	38.187	7.5942e-05	27.581	501.156	281.558	411.582	182.702	282.585	366.178	180.471	187.187	226.056	475.421	183.990	188.260	192.421	197.690	287.422	193.247	-8191	255	
21364.217	1	1	0	0	0.22487	0.16631	0.12063	0.30507	0.12038	0.14485	0.056124	0.057013	0.1628	0.17514	0.36657	0.11944	0.044129	0.061112	0.06899	0.29292	0.10833	-0.73958	-0.76875	-0.2375	-0.82292	-0.60833	-0.17708	-1.2625	-0.26667	-0.61667	-1.0708	-0.1375	-0.98333	-0.73125	-0.12083	-1.2062	383.346	387.799	501.826	507.532	405.449	330.838	525.571	468.294	169.896	466.548	387.131	170.011	519.235	187.564	465.072	426.413	0.00010473	0.0022127	0.00054305	1411.6	1.4046e-05	1.2464e-05	696.45	379.27	1.4575e-05	2.8414e-05	167.51	40.377	97.779	29.64	1.5439e-05	14.534	0.0062215	0.0069699	0.0019373	1472.2	7.4926e-05	7.6229e-05	817.38	407.34	7.5265e-05	7.6505e-05	246.18	67.952	117.99	37.929	7.5339e-05	27.479	233.104	517.655	346.899	182.791	443.558	203.807	180.555	187.296	292.102	273.378	184.047	188.692	192.335	198.308	408.474	193.653	-8191	255	
21364.338	1	1	0	0	0.11812	0.22444	0.16814	0.066843	0.16296	0.24059	0.3221	0.32582	0.28359	0.22668	0.24171	0.23149	0.22396	0.21872	0.21804	0.33179	-0.070833	-0.30833	-0.96875	-0.26042	-0.4875	-0.5	-0.22708	-1.1229	-0.47708	-0.19583	-0.93125	-0.05	-0.62708	-0.76667	-0.17708	-0.78542	265.374	317.606	320.721	448.108	205.411	367.075	427.646	181.935	220.413	363.768	434.318	460.211	376.882	277.224	466.046	370.276	6.4569e-05	0.00074476	0.00030125	1410.9	2.2948e-05	1.5275e-05	699.85	380.17	9.0233e-06	1.612e-05	166.45	40.953	97.951	29.312	6.4272e-06	14.099	0.0062231	0.0069634	0.0019338	1470.4	7.4883e-05	7.5871e-05	817.31	407.25	7.4286e-05	7.538e-05	244.64	67.908	117.55	37.514	7.4071e-05	27.091	280.814	294.156	359.884	182.561	371.662	187.607	180.547	187.372	525.861	174.888	184.146	188.301	192.702	197.470	408.133	193.837	-8191	255	
21364.434	1	1	0	0	0.24628	0.24095	0.24102	0.29287	0.064764	0.097188	0.12389	0.18295	0.19243	0.2756	0.063538	0.10858	0.18907	0.28382	0.28823	0.20433	-0.13333	-0.18542	-1.05	-0.14792	-0.70208	-0.85417	-0.24375	-1.2208	-0.49583	-0.46875	-1.025	-0.20833	-0.69375	-1.05	-0.11875	-0.9125	181.206	289.765	276.935	457.682	290.466	255.067	339.457	377.156	510.870	350.120	469.418	300.187	512.185	491.989	518.558	396.783	0.00019912	0.0015747	0.00036042	1409.3	1.8396e-05	1.0892e-06	700.11	380.99	1.6062e-05	2.694e-05	169.76	40.862	98.981	29.658	1.2656e-05	14.168	0.0061259	0.0068192	0.00189	1470.5	7.374e-05	7.5386e-05	819.09	409.68	7.4708e-05	7.5835e-05	248.21	68.704	119.3	37.84	7.5995e-05	27.51	234.840	323.363	178.229	182.825	233.693	440.243	180.109	187.313	265.585	364.527	184.369	188.262	192.403	197.475	386.277	193.430	-8191	255	
21364.529	1	1	0	0	0.13473	0.12033	0.18814	0.39639	0.17929	0.15863	0.092879	0.32777	0.12094	0.096686	0.10165	0.4058	0.24848	0.057077	0.079069	0.14082	-0.30417	-0.19583	-1.1083	-0.56667	-0.56458	-1.0708	-0.3875	-0.92292	-1.0021	-0.30208	-1.3479	-0.4	-0.45208	-1.2521	-0.1375	-0.71667	457.523	273.397	395.254	502.158	307.770	275.676	406.958	170.402	434.704	525.872	451.852	208.706	186.048	362.281	462.553	195.084	0.00023362	0.0017292	0.00067249	1418.7	3.0909e-05	2.9305e-05	698.65	381.7	1.9756e-05	2.3632e-05	168.93	41.434	98.801	28.983	1.7133e-05	14.05	0.006256	0.0070623	0.0019493	1483.1	7.5695e-05	7.7158e-05	823.61	412.14	7.63e-05	7.7704e-05	249.2	68.957	119.03	37.768	7.7618e-05	27.702	220.296	448.953	175.388	182.843	331.476	311.982	180.374	187.569	292.811	420.718	183.509	188.632	192.359	197.435	327.860	193.549	-8191	255	
21364.627	1	1	0	0	0.21019	0.13847	0.13298	0.19898	0.11919	0.16107	0.26503	0.15232	0.13961	0.1349	0.30365	0.036559	0.25193	0.25595	0.14225	0.067413	-0.47917	-0.27917	-0.8875	-0.61875	-0.45625	-1.1646	-0.091667	-1.0021	-0.83958	-0.26667	-0.98958	-0.50208	-0.31667	-1.3229	-0.38958	-0.69375	287.952	195.758	439.599	218.398	238.813	191.315	420.938	514.317	281.534	484.650	440.328	190.471	492.492	172.832	459.086	355.209	0.00019074	0.0010114	0.00032852	1417.4	1.8387e-05	1.1198e-05	699.69	381.26	7.1844e-06	1.7969e-05	171.12	40.927	99.208	29.063	1.8564e-05	13.783	0.0064032	0.0071628	0.0019789	1485.4	7.7132e-05	7.843e-05	829.4	412.77	7.753e-05	7.838e-05	251.33	69.389	119.89	37.739	7.7957e-05	27.535	246.299	223.882	403.503	182.593	279.239	342.383	180.632	187.434	510.398	307.189	184.573	188.385	191.932	197.632	355.717	193.163	-8191	255	
21364.746	1	1	0	0	0.2079	0.40381	0.097047	0.13431	0.086428	0.10933	0.10325	0.36997	0.283	0.086412	0.044915	0.33091	0.2665	0.10231	0.063679	0.32596	-0.45625	-0.20417	-0.81875	-0.67083	-0.4125	-1.1833	-0.39375	-0.81875	-0.95625	-0.095833	-1.0125	-0.54375	-0.23958	-1.1125	-0.44167	-0.52708	310.220	259.522	330.860	486.292	312.835	511.575	454.600	499.055	195.184	353.146	455.452	478.252	175.583	181.121	495.621	521.793	0.00022033	0.00050688	0.00031375	1418.5	1.1013e-05	1.606e-05	708.74	387.03	5.5788e-06	1.9533e-05	170.52	41.308	99.487	28.938	1.8848e-05	13.923	0.0064015	0.0072051	0.0019967	1488.8	7.7947e-05	7.9265e-05	835.17	416.3	7.8504e-05	7.9702e-05	252.44	70.005	120.39	37.873	7.8838e-05	27.919	225.397	220.556	184.707	182.871	440.739	282.172	180.484	187.381	399.700	270.233	184.346	188.471	192.451	197.469	434.113	193.383	-8191	255	
21364.818	1	1	0	0	0.24627	0.10627	0.12313	0.12293	0.3002	0.15664	0.15543	0.32453	0.35338	0.021603	0.36378	0.14333	0.070561	0.1377	0.017675	0.2357	-0.69375	-0.0875	-0.85833	-1.0208	-0.22708	-1.1333	-0.42917	-0.62917	-1.3979	-0.17083	-0.79792	-0.82708	-0.45417	-1.3083	-0.67708	-0.51875	308.348	436.754	344.229	490.949	411.485	183.500	412.346	491.299	267.533	175.693	367.960	512.774	469.228	448.707	238.947	521.514	1.3803e-05	0.0021229	0.00036767	1422.4	4.0557e-06	6.1098e-06	713.25	386.33	4.3343e-06	1.3524e-05	173.68	42.074	99.127	29.305	8.5873e-06	13.8	0.0064472	0.007246	0.0020222	1494.9	7.8047e-05	7.9833e-05	839.35	417.37	7.7919e-05	7.9738e-05	254.02	70.192	120.55	37.943	7.8538e-05	27.8	320.095	301.436	309.737	182.836	358.991	332.430	180.637	187.591	396.186	346.175	184.267	188.593	192.471	197.696	346.343	193.189	-8191	255	
21364.914	1	1	0	0	0.16175	0.14986	0.11746	0.16912	0.17011	0.17523	0.34975	0.069845	0.058035	0.15629	0.12872	0.33068	0.13367	0.16992	0.10947	0.19225	-0.74167	-0.21042	-0.73958	-1.0708	-0.18542	-1.05	-0.72083	-0.52083	-1.1729	-0.14583	-0.75833	-1.0583	-0.16875	-1.025	-0.65417	-0.31042	431.347	504.572	173.181	170.330	400.941	206.352	371.704	248.159	346.705	275.351	364.267	465.962	478.335	379.019	188.920	491.345	0.00047027	0.0024023	0.00023034	1422.4	1.0453e-05	2.1711e-05	695.56	383.65	1.0091e-05	3.4902e-06	169.7	40.647	98.556	28.706	1.6426e-05	13.763	0.0064041	0.0072488	0.0020013	1490.7	7.7269e-05	7.8316e-05	827.62	414.65	7.6727e-05	7.7731e-05	251.22	68.93	119.44	37.456	7.7245e-05	27.3	205.901	286.743	250.018	182.939	369.560	264.056	180.509	187.328	298.999	181.573	183.863	188.355	192.648	197.755	344.767	193.678	-8191	255	
21365.010	1	1	0	0	0.20822	0.078984	0.20417	0.10096	0.14418	0.083153	0.049011	0.43231	0.069621	0.22215	0.057711	0.16785	0.076993	0.19899	0.23251	0.12439	-0.6625	-0.26875	-0.72292	-1.2479	-0.15833	-1.0292	-0.78958	-0.175	-0.94792	-0.4875	-0.58958	-1.2625	-0.25417	-0.88958	-0.70417	-0.10625	430.904	207.109	398.479	317.665	205.245	299.760	446.577	374.600	528.022	204.025	336.130	265.080	359.943	213.202	441.894	303.791	0.00030129	0.0025104	0.00047757	1408.4	2.0172e-05	2.2648e-05	700.77	383.14	6.0339e-06	1.7427e-05	169.56	41.329	98.814	28.961	1.3055e-05	14.098	0.0062936	0.0070765	0.0019734	1480.3	7.6505e-05	7.7755e-05	825.44	413.5	7.6717e-05	7.7993e-05	251.21	69.034	119.56	37.78	7.6915e-05	27.523	230.182	234.085	179.611	183.010	232.644	265.328	181.000	187.471	291.331	508.151	184.547	188.540	192.155	197.485	405.379	193.348	-8191	255	
21365.107	1	1	0	0	0.45097	0.026727	0.1065	0.26102	0.079063	0.25118	0.10499	0.21459	0.096407	0.17986	0.23145	0.065352	0.080738	0.1925	0.14619	0.29527	-0.57708	-0.41458	-0.31458	-1.1646	-0.15	-0.67292	-1.0042	-0.36458	-0.99167	-0.50833	-0.30625	-1.1271	-0.13958	-0.6	-0.85417	-0.28333	354.328	505.095	429.687	481.198	425.425	491.078	230.761	189.904	391.169	194.578	233.999	473.083	357.023	186.938	314.547	410.628	0.00018055	0.00064813	0.00057066	1416.7	4.0305e-06	3.0986e-05	703.04	383.99	1.0039e-05	1.2548e-05	171.46	41.143	98.903	28.914	1.066e-05	14.222	0.0063244	0.0071232	0.0019701	1484.5	7.6159e-05	7.7188e-05	826.35	412.78	7.5584e-05	7.6863e-05	249.25	68.636	118.95	37.624	7.5102e-05	27.193	229.839	455.390	507.834	183.090	310.746	334.500	180.214	187.438	291.140	411.512	184.496	188.825	192.765	197.668	181.436	193.896	-8191	255	
21365.225	1	1	0	0	0.070679	0.12547	0.18234	0.41872	0.27928	0.18289	0.076407	0.5963	0.1743	0.20006	0.14537	0.23668	0.085704	0.17612	0.17396	0.15701	-0.675	-0.55208	-0.22292	-1.275	-0.37292	-0.72708	-1.0417	-0.14583	-0.8	-0.65417	-0.36458	-1.0688	-0.25208	-0.56875	-1.0583	-0.0041667	473.693	429.827	316.358	468.520	173.697	225.755	192.373	494.135	187.897	176.446	521.480	197.842	477.963	496.510	360.519	437.234	0.00027054	0.00090105	0.00046482	1413.9	1.7686e-05	4.3537e-06	706.8	383.58	6.2762e-06	2.5778e-05	171.53	41.427	99.115	29.512	2.0561e-05	13.921	0.0061539	0.0068927	0.0019018	1476.9	7.4675e-05	7.5483e-05	820.8	411.27	7.3984e-05	7.5721e-05	248.85	68.425	119.35	37.954	7.5011e-05	27.363	320.831	199.813	498.405	182.606	271.709	197.862	180.338	187.370	239.339	317.362	184.808	189.151	192.523	197.610	282.379	192.733	-8191	255	
21365.322	1	1	0	0	0.21187	0.18973	0.037317	0.15774	0.23474	0.21314	0.17291	0.23858	0.078171	0.11437	0.069951	0.028867	0.39483	0.12938	0.21226	0.25601	-0.67083	-0.77917	-0.16667	-1.3042	-0.49375	-0.5375	-1.0542	-0.30208	-0.86667	-0.85208	-0.17083	-1.1083	-0.45	-0.30208	-1.2125	-0.1	308.576	515.136	399.673	462.702	522.583	418.880	440.565	501.571	181.149	170.620	503.305	257.466	491.067	520.616	451.888	523.595	0.0001458	0.00073983	0.00060006	1420.3	1.5732e-05	2.607e-05	696.26	384.52	6.9292e-06	3.1535e-05	169.96	41.362	98.733	29.251	1.261e-05	14.18	0.0061973	0.0069487	0.0019204	1479.9	7.4947e-05	7.5751e-05	819.09	412.37	7.4718e-05	7.5832e-05	248.27	68.519	119.28	37.768	7.6144e-05	27.408	267.086	438.906	344.006	182.626	177.652	341.929	180.313	187.071	429.384	252.166	183.637	188.102	191.695	197.779	179.662	192.799	-8191	255	
21365.418	1	1	0	0	0.059079	0.079502	0.14007	0.43023	0.10889	0.046766	0.34012	0.34256	0.18166	0.20928	0.069334	0.25782	0.1273	0.1282	0.13773	0.089149	-0.50417	-0.8875	0.020833	-1.3854	-0.44792	-0.59167	-1.3687	-0.23333	-0.79583	-0.84583	-0.26667	-0.89167	-0.72917	-0.26667	-1.1958	-0.28542	520.490	437.711	501.494	506.148	240.980	170.316	374.183	205.951	253.464	478.376	228.849	416.051	511.334	323.422	278.909	227.905	7.3575e-05	0.00042362	0.00027031	1407.9	8.381e-06	1.9733e-05	698.19	380.81	8.7229e-06	1.4536e-05	166.96	40.373	98.402	29.313	6.6143e-06	14.367	0.0063212	0.0070207	0.0019572	1477.8	7.6019e-05	7.7271e-05	821.06	410.73	7.6489e-05	7.7189e-05	247.99	68.59	119.36	37.799	7.6889e-05	27.564	470.663	504.636	361.908	182.726	354.019	345.268	180.099	187.217	332.443	239.885	183.555	188.525	192.279	197.601	198.131	192.825	-8191	255	
21365.514	1	1	0	0	0.15735	0.15318	0.26574	0.40981	0.18093	0.1234	0.25621	0.158	0.024272	0.079796	0.063446	0.2418	0.26533	0.34003	0.20029	0.12926	-0.14375	-0.9375	-0.17292	-0.89167	-0.9	-0.24375	-1.0812	-0.59583	-0.40833	-0.9625	-0.225	-1.0146	-0.81667	-0.28958	-1.1458	-0.50833	418.243	350.160	463.861	467.339	408.424	339.892	439.793	478.730	251.566	418.439	356.334	483.049	204.271	448.379	385.247	479.979	0.00020674	0.00022324	0.0003912	1410	1.0692e-05	1.6292e-05	695.95	380.59	1.1833e-05	3.5045e-05	169.29	41.07	97.691	29.135	2.3375e-05	14.321	0.0063274	0.0070631	0.001965	1478.8	7.6254e-05	7.7514e-05	822.83	410.22	7.6525e-05	7.7932e-05	249.94	69.226	119.46	38.022	7.7832e-05	27.761	249.296	171.849	307.053	183.033	412.189	408.459	180.402	187.229	260.358	529.227	184.109	189.452	192.353	197.631	465.467	193.149	-8191	255	
21365.609	1	1	0	0	0.23376	0.21742	0.11168	0.30917	0.14006	0.11287	0.14984	0.29821	0.13921	0.099134	0.09322	0.22817	0.10988	0.10456	0.12613	0.13031	0.072917	-1.2062	-0.16458	-1.0688	-0.66667	-0.13333	-1.0187	-0.42292	-0.46667	-1.3438	-0.22083	-0.77292	-0.91042	-0.21042	-0.95833	-0.42917	491.304	282.968	174.582	501.651	235.118	219.623	385.350	491.958	416.716	184.479	506.891	235.349	240.141	451.101	302.243	414.667	0.00035386	0.0012537	9.0854e-05	1415.2	2.3881e-05	2.2242e-05	702.24	382.04	8.6379e-06	9.8136e-06	170.33	41.003	98.009	29.313	2.241e-05	14.099	0.0063119	0.0070887	0.0019732	1482.9	7.5692e-05	7.6709e-05	825.07	411.21	7.5528e-05	7.663e-05	249.32	68.911	119.27	37.786	7.6769e-05	27.564	223.148	255.566	305.765	182.961	294.746	339.328	180.074	187.217	337.317	318.076	184.287	188.091	192.093	197.745	234.783	193.140	-8191	255	
21365.705	1	1	0	0	0.082727	0.11695	0.22116	0.27763	0.039193	0.20244	0.083815	0.21087	0.090863	0.20762	0.2961	0.15529	0.2235	0.2517	0.12338	0.1761	0.18125	-1.0771	-0.29583	-1.0271	-0.97708	-0.13542	-1.3042	-0.79375	-0.2375	-1.0875	-0.34792	-0.60833	-1.1437	-0.21042	-1.0167	-0.74375	194.276	379.896	521.658	290.040	452.880	503.255	328.407	435.517	523.064	298.241	273.609	266.946	524.538	202.704	508.856	459.225	7.8748e-05	0.0018165	0.00036281	1417.4	3.6234e-06	1.5188e-05	708.96	384.83	1.7957e-05	1.7854e-05	168.64	41.511	98.797	29.374	7.0044e-06	14.362	0.0063319	0.0070817	0.0019744	1485.9	7.6462e-05	7.7599e-05	828.92	413.99	7.6386e-05	7.7372e-05	250.21	69.226	119.68	37.98	7.7408e-05	27.763	217.388	507.458	182.761	182.924	171.540	288.022	180.569	187.033	208.023	224.411	184.580	188.232	192.915	197.587	181.021	193.514	-8191	255	
21365.826	1	1	0	0	0.28621	0.27725	0.33451	0.20326	0.12587	0.026225	0.20655	0.23942	0.11976	0.029965	0.094233	0.14346	0.03761	0.1452	0.13291	0.38878	0.21042	-1.0292	-0.26667	-0.67708	-0.875	-0.08125	-0.89375	-0.86458	-0.095833	-1.1229	-0.38125	-0.39792	-1.125	-0.25833	-0.82083	-0.64167	503.979	425.588	473.289	501.122	257.563	384.575	341.721	485.386	448.105	284.387	443.770	258.245	432.082	446.581	376.737	197.199	0.00018202	0.00066348	0.00029996	1416.2	1.5915e-05	1.3025e-05	703.76	380.89	1.6577e-05	3.3225e-05	169	41.333	98.799	29.148	7.9034e-06	14.06	0.0063768	0.0071385	0.0019926	1488	7.6654e-05	7.8091e-05	830.44	411.4	7.658e-05	7.8095e-05	250.17	69.126	119.47	37.886	7.6937e-05	27.668	503.393	328.130	480.462	182.738	302.782	348.138	180.171	187.558	223.338	339.555	183.788	188.369	192.722	197.471	437.132	192.607	-8191	255	
21365.924	1	1	0	0	0.2263	0.2496	0.19281	0.55628	0.054855	0.079362	0.25407	0.28743	0.18457	0.17966	0.06992	0.09308	0.05558	0.13454	0.15525	0.28732	0.47292	-1.0604	-0.37083	-0.66667	-0.92083	-0.070833	-0.68958	-0.94792	-0.13125	-1.0312	-0.3375	-0.36667	-1.3417	-0.14167	-0.77083	-0.91042	190.548	277.935	357.229	525.291	299.438	317.423	476.371	464.075	447.738	481.243	476.909	496.996	399.339	310.138	447.858	420.455	0.00010244	0.0009741	0.00054341	1411.2	1.4763e-05	2.2467e-05	708.54	380.9	2.3458e-06	2.1723e-05	170.66	41.198	98.604	29.331	2.7983e-05	14.154	0.0063148	0.0070962	0.0019713	1483.7	7.6433e-05	7.803e-05	828.68	411.53	7.6465e-05	7.7948e-05	250.2	69.234	119.61	38.041	7.7326e-05	27.632	198.358	363.050	370.793	182.496	231.282	347.777	180.477	187.446	290.260	249.819	183.890	188.782	191.950	196.977	401.646	193.123	-8191	255	
21366.020	1	1	0	0	0.18651	0.27764	0.16192	0.22608	0.17627	0.16971	0.015803	0.32274	0.028964	0.15571	0.043452	0.10209	0.083948	0.31777	0.093414	0.071095	0.20625	-1.0104	-0.38333	-0.41458	-1.05	-0.25833	-0.72292	-0.95625	-0.21458	-0.73542	-0.68542	-0.30625	-1.0167	-0.23958	-0.52083	-1.0542	261.987	195.451	303.786	280.228	375.971	476.962	304.521	481.947	293.480	383.452	464.221	229.259	435.690	446.240	484.745	312.952	0.00028274	0.00087029	0.00032762	1425	1.5996e-05	4.9211e-06	711.87	383.23	1.2482e-05	5.0351e-06	171.79	41.684	98.093	29.572	2.3023e-05	14.348	0.0063569	0.0070969	0.0019724	1487.6	7.5984e-05	7.7669e-05	832.38	412.24	7.5701e-05	7.6586e-05	250.03	69.038	119.41	38.006	7.5907e-05	27.569	227.561	393.889	293.769	182.715	448.980	479.821	180.342	187.051	203.436	370.809	184.022	187.811	192.525	197.177	271.077	193.560	-8191	255	
21366.113	1	1	0	0	0.090781	0.20378	0.12457	0.18535	0.1409	0.31752	0.14068	0.40577	0.051363	0.21722	0.19073	0.3622	0.14739	0.34776	0.13704	0.1841	0.13333	-1.0812	-0.62083	-0.26042	-1.2375	-0.42292	-0.5125	-1.1542	-0.060417	-1.0646	-0.78333	-0.27917	-0.94792	-0.41458	-0.11042	-0.90625	247.316	237.750	350.918	459.693	223.470	472.445	174.512	171.805	453.797	513.704	176.735	496.026	268.560	476.096	267.076	495.615	0.00015243	0.0011071	0.00042178	1426.1	1.5926e-05	8.9377e-06	709.52	383.94	1.0399e-05	2.2232e-05	170.56	41.456	99.193	29.421	1.3398e-05	14.168	0.0062636	0.007001	0.0019396	1490.1	7.5512e-05	7.6907e-05	830.46	413.35	7.5752e-05	7.7048e-05	250.09	69.102	119.87	37.934	7.6298e-05	27.523	211.832	270.356	193.725	182.920	294.975	420.890	180.852	186.924	522.133	486.577	183.662	187.729	192.509	197.486	488.450	192.801	-8191	255	
#DATA ENDS
