BOXY.EXE: ISS Imagent and Oximeter Data Acquisition Program Version 0.80
Ascii Record File

#ACQ INFORMATION
2  Detector Channels 
16  External MUX Channels 
1  Auxiliary Channels 
5000  Waveform (CCF) Frequency (Hz)
1  Waveforms Skipped 
30  Waveforms Averaged 
1  Cycles Averaged 
16  Acquisitions per Waveform 
10.0806  Updata Rate (Hz) 

#FILE INFORMATION
TRUE -- External MUX Channel results are PARSED.
FALSE -- AC DC and Phase are NOT grouped.
TRUE -- Companion Program Settings File CREATED.
FALSE -- AC data not excluded
FALSE -- DC data not excluded
FALSE -- Phase data not excluded
FALSE -- Auxillary Chn. data not excluded
Tab delimiters

#CALIBRATION STATE
TRUE -- Waveform Calibration Values APPLIED.


#AUX CALIBRATION VALUES
Val Type	aux-1	

Term	1.0000e+00	
Factor	0.0000e+00	


#WF CALIBRATION VALUES
A = Detector Channel
Val Type	A-AC1	A-AC2	A-AC3	A-AC4	A-AC5	A-AC6	A-AC7	A-AC8	A-AC9	A-AC10	A-AC11	A-AC12	A-AC13	A-AC14	A-AC15	A-AC16	A-DC1	A-DC2	A-DC3	A-DC4	A-DC5	A-DC6	A-DC7	A-DC8	A-DC9	A-DC10	A-DC11	A-DC12	A-DC13	A-DC14	A-DC15	A-DC16	A-Ph1	A-Ph2	A-Ph3	A-Ph4	A-Ph5	A-Ph6	A-Ph7	A-Ph8	A-Ph9	A-Ph10	A-Ph11	A-Ph12	A-Ph13	A-Ph14	A-Ph15	A-Ph16	

Term	0.00000e+00	0.00000e+00	0.00000e+00	0.00000e+00	0.00000e+00	0.00000e+00	0.00000e+00	0.00000e+00	0.00000e+00	0.00000e+00	0.00000e+00	0.00000e+00	0.00000e+00	0.00000e+00	0.00000e+00	0.00000e+00	0.00000e+00	0.00000e+00	0.00000e+00	0.00000e+00	0.00000e+00	0.00000e+00	0.00000e+00	0.00000e+00	0.00000e+00	0.00000e+00	0.00000e+00	0.00000e+00	0.00000e+00	0.00000e+00	0.00000e+00	0.00000e+00	0.00000e+00	0.00000e+00	0.00000e+00	0.00000e+00	0.00000e+00	0.00000e+00	0.00000e+00	0.00000e+00	0.00000e+00	0.00000e+00	0.00000e+00	0.00000e+00	0.00000e+00	0.00000e+00	0.00000e+00	0.00000e+00	
Factor	1.00000e+00	1.00000e+00	1.00000e+00	1.00000e+00	1.00000e+00	1.00000e+00	1.00000e+00	1.00000e+00	1.00000e+00	1.00000e+00	1.00000e+00	1.00000e+00	1.00000e+00	1.00000e+00	1.00000e+00	1.00000e+00	1.00000e+00	1.00000e+00	1.00000e+00	1.00000e+00	1.00000e+00	1.00000e+00	1.00000e+00	1.00000e+00	1.00000e+00	1.00000e+00	1.00000e+00	1.00000e+00	1.00000e+00	1.00000e+00	1.00000e+00	1.00000e+00	X	X	X	X	X	X	X	X	X	X	X	X	X	X	X	X	

B = Detector Channel
Val Type	B-AC1	B-AC2	B-AC3	B-AC4	B-AC5	B-AC6	B-AC7	B-AC8	B-AC9	B-AC10	B-AC11	B-AC12	B-AC13	B-AC14	B-AC15	B-AC16	B-DC1	B-DC2	B-DC3	B-DC4	B-DC5	B-DC6	B-DC7	B-DC8	B-DC9	B-DC10	B-DC11	B-DC12	B-DC13	B-DC14	B-DC15	B-DC16	B-Ph1	B-Ph2	B-Ph3	B-Ph4	B-Ph5	B-Ph6	B-Ph7	B-Ph8	B-Ph9	B-Ph10	B-Ph11	B-Ph12	B-Ph13	B-Ph14	B-Ph15	B-Ph16	

Term	0.00000e+00	0.00000e+00	0.00000e+00	0.00000e+00	0.00000e+00	0.00000e+00	0.00000e+00	0.00000e+00	0.00000e+00	0.00000e+00	0.00000e+00	0.00000e+00	0.00000e+00	0.00000e+00	0.00000e+00	0.00000e+00	0.00000e+00	0.00000e+00	0.00000e+00	0.00000e+00	0.00000e+00	0.00000e+00	0.00000e+00	0.00000e+00	0.00000e+00	0.00000e+00	0.00000e+00	0.00000e+00	0.00000e+00	0.00000e+00	0.00000e+00	0.00000e+00	-4.62441e+01	-1.32572e+02	-1.29572e+02	-1.81597e+02	-4.15668e+01	-5.83256e+01	-1.56500e+02	-1.62015e+02	-3.67652e+01	-6.24913e+01	-1.72056e+02	-1.69104e+02	-1.85187e+02	-1.76509e+02	-5.71229e+01	-1.48960e+02	
Factor	2.03475e-05	1.44044e-04	3.70300e-05	1.49915e-01	1.81671e-06	1.56856e-06	1.65062e-01	4.98778e-02	1.21743e-06	1.38476e-06	8.58732e-02	2.76831e-02	2.39861e-02	8.83716e-03	1.25044e-06	1.25509e-02	3.11720e-06	3.47186e-06	9.65345e-07	7.81745e-02	3.75463e-08	3.82462e-08	8.07447e-02	2.60758e-02	3.75634e-08	3.82832e-08	4.31824e-02	1.40095e-02	1.25879e-02	4.64319e-03	3.78202e-08	6.36179e-03	X	X	X	X	X	X	X	X	X	X	X	X	X	X	X	X	



#DISTANCE SETTINGS
A = Detector Channel
A-1	A-2	A-3	A-4	A-5	A-6	A-7	A-8	A-9	A-10	A-11	A-12	A-13	A-14	A-15	A-16	

2.5000e+00	3.0000e+00	2.5000e+00	3.0000e+00	2.0000e+00	3.0000e+00	1.5000e+00	3.0000e+00	3.0000e+00	3.0000e+00	3.0000e+00	3.0000e+00	3.0000e+00	3.0000e+00	1.5000e+00	3.0000e+00	

B = Detector Channel
B-1	B-2	B-3	B-4	B-5	B-6	B-7	B-8	B-9	B-10	B-11	B-12	B-13	B-14	B-15	B-16	

1.0000e+01	1.0000e+01	1.0000e+01	1.4400e+00	1.0000e+01	1.0000e+01	1.5100e+00	1.9400e+00	1.0000e+01	1.0000e+01	1.9900e+00	2.4900e+00	2.4100e+00	2.9000e+00	1.0000e+01	2.9800e+00	




#DATA BEGINS
time	group	step	mark	flag	A-AC1	A-AC2	A-AC3	A-AC4	A-AC5	A-AC6	A-AC7	A-AC8	A-AC9	A-AC10	A-AC11	A-AC12	A-AC13	A-AC14	A-AC15	A-AC16	A-DC1	A-DC2	A-DC3	A-DC4	A-DC5	A-DC6	A-DC7	A-DC8	A-DC9	A-DC10	A-DC11	A-DC12	A-DC13	A-DC14	A-DC15	A-DC16	A-Ph1	A-Ph2	A-Ph3	A-Ph4	A-Ph5	A-Ph6	A-Ph7	A-Ph8	A-Ph9	A-Ph10	A-Ph11	A-Ph12	A-Ph13	A-Ph14	A-Ph15	A-Ph16	B-AC1	B-AC2	B-AC3	B-AC4	B-AC5	B-AC6	B-AC7	B-AC8	B-AC9	B-AC10	B-AC11	B-AC12	B-AC13	B-AC14	B-AC15	B-AC16	B-DC1	B-DC2	B-DC3	B-DC4	B-DC5	B-DC6	B-DC7	B-DC8	B-DC9	B-DC10	B-DC11	B-DC12	B-DC13	B-DC14	B-DC15	B-DC16	B-Ph1	B-Ph2	B-Ph3	B-Ph4	B-Ph5	B-Ph6	B-Ph7	B-Ph8	B-Ph9	B-Ph10	B-Ph11	B-Ph12	B-Ph13	B-Ph14	B-Ph15	B-Ph16	aux-1	digaux	

14567.467	1	1	0	768	0.24359	0.14216	0.2347	0.29394	0.16297	0.1308	0.16704	0.2484	0.19853	0.22571	0.15569	0.22628	0.16639	0.16101	0.25046	0.24624	0.079167	-1.0333	-0.60417	-0.59792	-1.2146	-0.36667	-0.75833	-1.15	-0.19167	-1.0854	-0.89167	-0.4	-1.0604	-0.45625	-0.55208	-1.0208	230.172	187.489	436.695	487.679	280.748	291.549	233.700	484.935	226.252	197.093	303.306	348.186	395.960	234.173	224.460	363.119	0.00041582	0.00022316	0.00011594	887.12	7.7407e-06	5.0482e-06	597.16	271.89	1.5319e-06	8.0483e-06	190.81	64.801	95.977	42.441	7.0113e-07	31.416	0.00096366	0.001029	0.00028744	902.47	1.1152e-05	1.1478e-05	614.93	277.94	1.1166e-05	1.1284e-05	199.54	68.537	99.261	43.858	1.1231e-05	32.954	286.312	468.577	286.872	188.563	305.667	354.078	186.706	193.304	382.738	311.494	189.893	194.889	197.256	200.639	189.588	196.601	-8191	255	
14567.563	1	1	0	0	0.053721	0.0084471	0.20044	0.35592	0.14507	0.25616	0.19704	0.17982	0.28945	0.1186	0.21575	0.16584	0.12195	0.12567	0.28206	0.14121	0.19375	-0.79167	-0.69792	-0.44375	-1.1854	-0.51458	-0.48958	-1.1208	-0.25	-0.89792	-1.0229	-0.35	-1.4188	-0.74792	-0.51042	-1.1479	452.165	492.402	456.212	217.745	389.254	371.512	403.430	515.627	439.996	243.810	232.483	305.003	196.504	534.316	490.685	316.846	0.00033718	0.00061667	0.00014347	884.37	6.0458e-06	1.3067e-05	595.98	270.11	2.8854e-06	4.7629e-06	189.76	64.514	95.912	42.705	3.426e-07	31.234	0.00095673	0.001011	0.00028305	900.65	1.0971e-05	1.1229e-05	612.19	277.06	1.103e-05	1.1099e-05	199.23	68.408	99.205	43.885	1.1028e-05	32.947	284.086	505.104	258.969	188.610	336.713	397.058	187.232	193.413	314.012	309.770	190.201	194.107	197.342	200.353	328.090	196.764	-8191	255	
14567.657	1	1	0	0	0.20658	0.12614	0.16846	0.16453	0.075457	0.15955	0.027483	0.34578	0.16557	0.2337	0.020847	0.2587	0.13735	0.06768	0.03836	0.26086	0.15833	-0.65208	-0.70833	-0.25	-1.0333	-0.56667	-0.49375	-1.1104	-0.28333	-0.68542	-1.025	-0.2125	-1.2146	-0.7	-0.17917	-1.1	338.881	409.717	416.323	454.661	210.886	446.368	462.900	495.812	256.630	184.240	283.555	454.623	199.112	404.821	240.802	355.432	0.00038339	0.00044224	0.00011467	887.99	5.3706e-06	5.5389e-06	596.49	271.97	3.2642e-06	2.7289e-06	188.66	65.59	96.115	42.395	9.4645e-07	31.615	0.00094782	0.0010022	0.00028023	902.36	1.0952e-05	1.0992e-05	612.69	278.26	1.1043e-05	1.1079e-05	199.39	68.676	99.262	43.884	1.1145e-05	33.115	274.070	469.097	238.201	188.489	293.750	339.615	186.871	193.202	517.754	243.214	190.272	194.674	197.461	200.726	258.488	196.760	-8191	255	
14567.755	1	1	0	0	0.054025	0.079341	0.12409	0.15264	0.24141	0.13774	0.067303	0.063055	0.28359	0.13141	0.053282	0.26035	0.050644	0.1054	0.29881	0.25218	-0.05	-0.76875	-0.96875	-0.27917	-0.87708	-0.72917	-0.18958	-1.3271	-0.36042	-0.68125	-1.1	-0.21042	-1.0729	-0.85625	-0.50625	-0.99583	192.131	198.094	338.796	451.384	516.671	394.036	206.474	386.067	407.846	422.791	286.794	206.813	356.876	243.323	385.235	499.600	0.00045233	0.00016521	0.00012791	884.84	8.1414e-06	5.9461e-06	597.79	271.39	3.9485e-06	2.7943e-06	189.46	65.027	96.097	42.545	8.1183e-06	31.596	0.00094797	0.0010185	0.00028157	901.17	1.1062e-05	1.1163e-05	613.53	277.67	1.1067e-05	1.1115e-05	199.77	68.849	99.12	43.838	1.1103e-05	33.112	275.891	384.315	211.545	188.710	298.477	412.304	186.835	193.054	414.643	252.173	190.492	194.788	197.361	200.384	309.860	196.470	-8191	255	
14567.850	1	1	0	0	0.32295	0.35963	0.18565	0.094526	0.32621	0.11516	0.13184	0.21842	0.23255	0.21064	0.13716	0.071769	0.091501	0.34199	0.11771	0.12524	-0.0875	-0.5375	-1.2563	-0.26667	-0.81458	-0.97917	-0.31875	-1.2104	-0.48958	-0.41667	-1.0396	-0.25417	-0.80625	-1.1271	-0.27292	-1.1021	304.314	420.229	236.894	373.864	293.908	463.767	394.491	463.622	344.199	364.855	526.812	269.156	190.498	189.985	269.779	272.824	0.0003505	0.00078482	8.3267e-05	881.23	7.3176e-06	2.3997e-06	597.53	272.42	3.3474e-06	5.5663e-06	190.38	65.019	96.078	42.573	6.5802e-07	31.393	0.00094882	0.0010046	0.0002836	899.36	1.101e-05	1.1211e-05	614.94	278.56	1.1096e-05	1.1258e-05	200.16	68.662	98.825	43.786	1.1106e-05	32.991	286.276	194.294	339.250	188.518	271.638	268.719	186.917	193.116	322.027	359.129	190.059	194.558	197.370	200.664	283.203	196.794	-8191	255	
14567.946	1	1	0	0	0.39736	0.097583	0.042723	0.3249	0.19574	0.21335	0.1125	0.21077	0.14287	0.12024	0.17291	0.15394	0.13002	0.14088	0.047169	0.12172	-0.26875	-0.39375	-1.0833	-0.32708	-0.83958	-0.9375	-0.25833	-1.3104	-0.6125	-0.31042	-1.3479	-0.43542	-0.64375	-1.1688	-0.16042	-1.1542	342.376	428.547	258.017	189.685	306.155	202.771	498.172	529.440	455.311	409.944	442.165	510.964	269.433	184.729	317.636	247.582	0.00047662	0.00070414	9.7278e-05	881.66	8.4408e-06	9.3099e-06	596.45	271.97	4.8014e-06	4.8573e-06	188.02	64.31	95.847	42.116	6.1843e-06	31.077	0.00095167	0.0010308	0.00028287	900.47	1.0991e-05	1.1173e-05	610.66	277.18	1.1055e-05	1.1295e-05	198.79	67.985	98.843	43.481	1.1224e-05	32.669	271.939	322.203	326.200	188.234	320.149	296.287	186.684	193.373	315.180	404.045	190.391	194.561	197.215	200.410	405.580	196.650	-8191	255	
14568.066	1	1	0	0	0.22952	0.28707	0.049453	0.090399	0.091427	0.13867	0.088743	0.035792	0.23864	0.047594	0.28686	0.12659	0.18962	0.15214	0.19176	0.16466	-0.57083	-0.2125	-1.0625	-0.67292	-0.51667	-1.0917	-0.15208	-0.975	-1.1708	-0.2375	-1.175	-0.49583	-0.56875	-0.98958	-0.34375	-1.0292	467.376	461.761	284.123	434.539	468.607	497.761	477.567	423.219	358.627	385.231	508.436	370.849	502.642	455.074	482.125	528.566	0.00035061	0.0003115	0.00013085	882.87	6.9164e-06	6.7732e-06	597.56	269.8	6.3173e-06	5.9891e-06	188.8	64.786	95.775	42.235	4.6248e-06	30.913	0.00095276	0.0010208	0.00028335	901.17	1.0915e-05	1.1069e-05	611.85	276.74	1.095e-05	1.13e-05	198.54	67.964	98.561	43.56	1.1229e-05	32.688	286.158	287.416	259.346	188.450	308.808	325.467	186.671	193.246	360.349	287.862	190.347	194.778	197.529	200.622	225.896	197.420	-8191	255	
14568.163	1	1	0	0	0.091607	0.37237	0.2361	0.44971	0.14763	0.12508	0.19576	0.063039	0.23987	0.17136	0.1201	0.16086	0.15619	0.080873	0.18175	0.22664	-0.4625	-0.0625	-1.1104	-0.55625	-0.60625	-1.3333	-0.39583	-0.9875	-1.0292	-0.27917	-1.1958	-0.47708	-0.47083	-1.4	-0.43958	-0.75	524.190	402.353	220.900	531.952	220.182	297.063	447.095	486.886	420.099	355.257	427.877	175.778	418.100	481.767	219.121	428.795	0.00035079	0.00016519	0.00026052	881.13	4.9489e-06	1.2413e-06	594.55	271.43	4.153e-06	1.3798e-06	188.39	64.783	95.431	42.088	8.0103e-06	31.507	0.00095961	0.0010327	0.0002839	899.97	1.1165e-05	1.1153e-05	612.49	277.35	1.115e-05	1.1202e-05	198.97	68.085	98.455	43.518	1.1098e-05	32.839	274.962	276.409	321.181	188.473	396.809	304.512	186.970	193.472	383.293	402.355	190.762	194.559	197.548	200.896	274.672	197.043	-8191	255	
14568.259	1	1	0	0	0.24136	0.33711	0.11531	0.50333	0.52228	0.15632	0.10795	0.13929	0.10889	0.13214	0.083287	0.12259	0.094696	0.2628	0.16019	0.14658	-0.62917	-0.225	-1.0896	-0.725	-0.36458	-1.3438	-0.675	-0.75833	-1.1583	-0.2	-0.99375	-0.77708	-0.36042	-1.2458	-0.4875	-0.71875	479.250	305.635	391.177	474.429	190.813	399.181	529.977	448.020	246.526	223.651	482.489	459.483	252.834	432.807	258.633	220.156	0.00040556	0.00081665	0.00019944	884	8.4576e-06	3.6395e-06	597.56	272.01	1.7002e-06	5.0705e-06	189.57	64.701	95.287	42.061	6.529e-06	31.259	0.00096536	0.0010141	0.0002825	900.5	1.1078e-05	1.1235e-05	614.71	277.7	1.11e-05	1.1246e-05	199.24	68.137	98.322	43.401	1.1291e-05	32.785	281.554	184.168	225.689	188.569	296.238	372.867	186.765	193.153	335.594	396.664	190.428	194.907	197.393	200.869	262.694	196.854	-8191	255	
14568.355	1	1	0	0	0.07108	0.12908	0.20151	0.16374	0.2579	0.14559	0.17492	0.19926	0.1639	0.12582	0.094069	0.24574	0.2222	0.18235	0.16187	0.20602	-0.69792	-0.19792	-0.86875	-1.0333	-0.09375	-1.2875	-0.67708	-0.57083	-1.1562	-0.42708	-1.0458	-0.97708	-0.20208	-1.2292	-0.54167	-0.48125	243.240	515.114	213.582	188.532	181.407	315.345	249.866	518.029	522.942	399.920	522.962	517.540	390.003	515.003	349.558	482.878	0.00030158	0.00033406	0.00018813	881.23	1.4e-05	3.2054e-06	593.1	269.29	5.4883e-06	6.9426e-06	187.6	63.829	94.656	41.581	6.059e-06	30.829	0.00095242	0.0010207	0.00028513	897.79	1.1157e-05	1.1205e-05	609.61	275.95	1.1264e-05	1.1291e-05	197.1	67.16	97.411	43.027	1.1272e-05	32.359	292.553	182.119	274.207	188.784	369.506	345.120	187.042	193.548	347.563	300.746	190.299	194.436	197.546	200.750	348.756	197.104	-8191	255	
14568.451	1	1	0	0	0.012642	0.065164	0.077632	0.17645	0.17561	0.14085	0.16604	0.3689	0.11568	0.18451	0.35189	0.21911	0.26822	0.2879	0.12883	0.33917	-0.6125	-0.17917	-0.78542	-1.0917	-0.31667	-1.2313	-0.74792	-0.36667	-1.0417	-0.35625	-0.80625	-0.99375	-0.22917	-1.1542	-0.79792	-0.46042	214.331	520.216	179.844	461.047	278.238	525.474	183.799	518.579	374.491	216.539	212.530	425.016	520.573	508.429	532.283	520.449	0.00026929	0.00034709	0.00021376	878.07	7.1302e-06	1.1125e-05	588.72	268.16	6.6801e-07	1.4875e-06	186.57	64.113	93.889	41.65	4.5298e-06	30.514	0.0009699	0.0010437	0.00028902	895.28	1.1353e-05	1.1476e-05	606.52	274.42	1.1369e-05	1.1446e-05	196.51	67.304	97.168	43.034	1.1328e-05	32.34	288.411	270.680	243.336	188.528	377.771	315.720	187.358	193.504	491.230	263.433	190.598	195.128	197.701	200.989	321.920	196.882	-8191	255	
14568.547	1	1	0	0	0.11534	0.041749	0.21249	0.18261	0.029694	0.4114	0.45738	0.12147	0.11637	0.12016	0.13206	0.057275	0.36927	0.21064	0.28956	0.15997	-1.0063	-0.36875	-0.575	-1.3375	-0.26667	-0.95833	-0.93333	-0.27292	-1.0375	-0.58542	-0.56875	-1.0708	-0.39792	-0.80417	-1.0729	-0.26875	370.268	237.047	313.755	176.589	496.010	258.625	482.080	488.639	188.749	188.719	427.229	373.760	498.066	490.536	226.150	271.461	0.00031238	0.0005044	1.8142e-05	876.82	5.3998e-06	3.7638e-06	592.37	269.37	3.799e-06	4.8957e-06	187.64	64.472	94.706	41.781	3.9469e-06	30.664	0.00096884	0.0010497	0.00028948	895.49	1.1399e-05	1.1275e-05	608.66	274.94	1.1208e-05	1.153e-05	197.54	67.731	97.663	43.183	1.1307e-05	32.409	274.896	290.130	489.682	188.835	345.340	304.657	187.212	193.332	381.685	345.807	190.453	194.716	197.851	201.063	491.924	197.067	-8191	255	
14568.668	1	1	0	0	0.16615	0.31644	0.15433	0.16249	0.051934	0.21122	0.059843	0.089903	0.19709	0.14405	0.21714	0.061227	0.13032	0.19809	0.28923	0.11801	-0.8125	-0.53542	-0.42708	-1.3792	-0.39375	-0.89583	-0.95	-0.59375	-1.1	-0.78958	-0.4625	-1.1562	-0.33958	-0.89375	-0.91042	-0.23958	344.419	388.223	433.828	503.601	228.651	499.630	396.567	465.791	234.959	201.741	212.605	529.551	504.584	220.252	233.179	292.322	0.00037555	0.00033637	8.4999e-05	882.72	4.4055e-06	2.6823e-06	591.99	267.53	4.0196e-06	9.3617e-06	187.48	64.363	94.285	41.777	7.9476e-06	30.866	0.00097131	0.001032	0.00028854	896.9	1.131e-05	1.1394e-05	609.04	274.85	1.1046e-05	1.1484e-05	197.9	67.679	97.805	43.093	1.1329e-05	32.483	283.362	293.555	432.723	188.612	366.875	365.177	186.810	193.239	356.993	284.387	190.460	194.429	197.649	200.901	332.387	196.416	-8191	255	
14568.762	1	1	0	0	0.23294	0.21184	0.15584	0.15287	0.11768	0.22775	0.14049	0.37543	0.11733	0.21638	0.18665	0.19332	0.15909	0.29731	0.14637	0.27281	-0.70625	-0.68125	-0.275	-1.2854	-0.37708	-0.72083	-1.2083	-0.23125	-1.0667	-0.83125	-0.25	-1.1417	-0.63958	-0.68333	-1.1979	-0.32917	200.485	266.959	355.123	176.532	308.434	270.899	399.537	513.238	246.375	347.739	200.659	366.006	477.714	420.712	233.557	176.126	0.00029245	1.0695e-05	0.00013833	883.55	3.7665e-06	8.2715e-07	589.77	267.56	4.2633e-06	4.7663e-06	186.84	64.141	94.481	41.495	3.4721e-06	30.412	0.00096205	0.0010234	0.00028829	897.39	1.1214e-05	1.1317e-05	608.04	274.51	1.1245e-05	1.1296e-05	197.13	67.489	97.468	42.951	1.1198e-05	32.14	282.077	384.439	290.284	188.510	347.194	316.483	187.104	193.595	356.597	314.367	190.768	195.055	197.502	201.108	338.874	196.674	-8191	255	
14568.858	1	1	0	0	0.28095	0.1025	0.22578	0.15589	0.16079	0.18601	0.33595	0.18205	0.067733	0.16936	0.0090704	0.19762	0.2048	0.12355	0.23404	0.22272	-0.40208	-0.79792	-0.10833	-1.3021	-0.48542	-0.42708	-1.0979	-0.3625	-0.93542	-0.80833	-0.26042	-1.0688	-0.66667	-0.52917	-1.1896	-0.35625	291.485	326.999	471.359	531.592	436.826	185.137	220.254	492.474	358.440	408.102	234.511	364.856	212.250	232.082	425.158	185.865	0.00031763	0.00026816	0.00015143	880.02	1.0688e-05	8.2637e-06	583.48	268.6	1.8299e-06	3.8149e-06	185.31	63.605	94.127	41.548	4.9372e-06	30.475	0.00095816	0.0010255	0.00028645	895.02	1.1142e-05	1.1323e-05	603.11	274.41	1.108e-05	1.127e-05	196	67.008	97.494	42.866	1.1253e-05	32.148	283.080	257.861	263.704	188.543	347.247	279.494	187.226	193.330	332.584	246.270	190.491	194.543	197.577	200.891	302.638	196.788	-8191	255	
14568.955	1	1	0	0	0.13923	0.06343	0.26386	0.24605	0.18333	0.18857	0.036441	0.19423	0.26703	0.35176	0.13561	0.11056	0.061211	0.2862	0.30081	0.022419	-0.5875	-0.7125	-0.40833	-1.1479	-0.51875	-0.5875	-1.1938	-0.3875	-0.89167	-0.86458	-0.21042	-1.0479	-0.59583	-0.57708	-1.2	-0.43542	387.291	519.381	235.693	485.561	249.258	320.429	288.293	530.385	329.130	371.119	358.005	368.340	374.947	256.613	243.083	474.914	0.00046476	0.00057316	0.00016177	878.75	8.7538e-06	8.0987e-06	589.63	268.63	6.5839e-06	3.2681e-06	186.59	63.948	94.336	41.583	5.1485e-06	30.725	0.0009505	0.0010188	0.00028509	893.69	1.1088e-05	1.1241e-05	605.98	274.58	1.1057e-05	1.1126e-05	196.38	67.151	97.295	42.862	1.1011e-05	32.205	290.431	207.120	266.269	188.742	336.098	351.373	187.105	193.121	311.835	324.039	190.389	195.185	197.810	200.932	209.652	197.029	-8191	255	
14569.028	1	1	0	0	0.13955	0.20577	0.15567	0.024577	0.19267	0.32289	0.22077	0.25781	0.095991	0.10775	0.2456	0.056439	0.36007	0.44041	0.19066	0.31518	-0.12292	-0.9375	-0.14167	-1.2375	-0.7375	-0.32917	-1.1521	-0.53958	-0.41667	-1.2062	-0.25417	-1.0896	-0.88333	-0.33958	-1.1167	-0.62292	341.801	477.471	211.111	318.107	521.704	344.138	183.638	472.970	291.291	491.315	404.529	295.711	189.135	465.832	176.041	180.529	0.00038051	0.00059042	8.4895e-05	878.12	6.0205e-06	4.9144e-06	588.22	267.11	2.8037e-06	4.7471e-06	187.9	64.259	94.096	41.409	1.448e-06	30.648	0.00096574	0.0010258	0.00028506	894.33	1.104e-05	1.1142e-05	606.31	273.93	1.1161e-05	1.111e-05	196.87	67.44	97.183	42.845	1.1092e-05	32.252	278.749	424.227	237.194	188.852	299.238	260.597	187.058	193.413	309.469	185.298	190.290	194.633	197.463	200.963	312.322	197.003	-8191	255	
14569.147	1	1	0	0	0.17977	0.066777	0.2315	0.13026	0.11435	0.077946	0.30291	0.16404	0.22832	0.081237	0.14826	0.1407	0.10082	0.3387	0.026829	0.24776	-0.075	-0.74167	-0.22708	-1.0021	-0.91458	-0.34792	-1.2812	-0.4375	-0.37917	-1.2042	-0.1375	-0.83958	-1.1146	-0.28333	-1.0271	-0.70208	474.532	453.519	274.967	261.652	440.485	176.648	205.349	183.696	258.934	417.353	423.214	506.799	361.207	196.211	375.883	224.461	0.00035111	0.00054797	0.00019462	882.33	5.1455e-06	1.0789e-05	590.76	267.14	6.3259e-06	3.4642e-06	187.8	63.992	93.998	41.486	4.151e-06	30.498	0.00095469	0.0010231	0.00028179	896.1	1.1165e-05	1.1313e-05	608.33	274.41	1.1179e-05	1.1359e-05	197.28	67.392	97.359	42.781	1.1151e-05	32.112	284.009	187.195	306.592	188.918	338.002	239.346	187.006	193.464	352.288	454.937	190.545	195.402	197.496	200.837	306.930	196.711	-8191	255	
14569.243	1	1	0	0	0.2146	0.026163	0.068175	0.11453	0.35755	0.17517	0.12886	0.31429	0.082507	0.15274	0.1731	0.07755	0.21551	0.19629	0.081611	0.23529	-0.0125	-0.96875	-0.40625	-0.72708	-1.1187	-0.27917	-1.3542	-0.74375	-0.49375	-1.2875	-0.4625	-0.7125	-1.1375	-0.32917	-1.05	-0.76667	275.663	495.272	179.952	449.437	208.094	274.322	250.181	496.508	511.171	212.790	283.720	429.349	513.812	271.650	494.866	328.408	0.00036263	0.00064002	8.3323e-05	875.83	4.4988e-06	4.2958e-06	588.11	267.76	3.5989e-06	8.6825e-06	185.12	63.173	93.541	41.216	5.9165e-06	30.376	0.00095387	0.0010118	0.00028604	894.05	1.1027e-05	1.1289e-05	605.69	273.82	1.1156e-05	1.1236e-05	195.48	66.758	96.638	42.494	1.1078e-05	31.954	281.143	264.451	283.485	189.061	363.756	352.127	187.261	193.291	437.315	337.028	190.502	194.725	197.531	200.901	379.242	197.152	-8191	255	
14569.339	1	1	0	0	0.13522	0.065048	0.20935	0.079376	0.41521	0.25451	0.11378	0.16068	0.23549	0.036731	0.066227	0.15193	0.17903	0.17988	0.11291	0.16409	0.035417	-1.1917	-0.4875	-0.73958	-1.0917	-0.39792	-1.0021	-0.71667	-0.32708	-1.2812	-0.51667	-0.41875	-1.2542	-0.35417	-0.75833	-1.0021	488.295	187.529	261.975	414.927	407.559	381.737	351.043	517.347	402.544	381.727	317.364	519.614	518.110	432.059	236.401	390.935	0.00035992	0.00052778	0.00014097	878.53	2.2434e-06	5.8934e-07	587.78	266.5	5.1138e-06	1.8601e-06	185.44	63.012	93.352	41.161	4.9045e-06	30.349	0.00096965	0.0010281	0.00028614	892.46	1.1122e-05	1.1417e-05	605.72	272.76	1.1154e-05	1.1372e-05	195.26	66.612	96.184	42.485	1.1261e-05	31.929	291.462	220.933	279.200	188.938	229.067	301.283	187.211	193.549	360.483	230.033	190.374	194.738	197.783	200.957	309.243	197.086	-8191	255	
14569.435	1	1	0	0	0.19407	0.23491	0.33911	0.17781	0.20614	0.065485	0.17324	0.17136	0.12189	0.16387	0.20115	0.27567	0.23008	0.18249	0.12525	0.3281	0.066667	-1.0542	-0.40417	-0.72917	-1.0229	-0.35833	-0.8875	-0.9625	-0.19167	-1.1771	-0.65625	-0.31875	-1.2479	-0.2625	-0.65625	-1.1083	175.624	328.643	346.771	311.547	423.851	214.811	388.215	517.682	482.483	369.961	268.042	313.438	209.149	411.340	442.885	362.549	0.00030461	0.00048948	0.00027138	874.72	4.5656e-06	1.6059e-06	586.79	265.77	3.6688e-06	5.5442e-06	184.5	63.103	92.675	40.895	4.1768e-06	30.297	0.00096847	0.0010335	0.00028799	892.37	1.1164e-05	1.1364e-05	605.36	271.7	1.1462e-05	1.1464e-05	195.31	66.471	96.038	42.309	1.1532e-05	31.998	292.598	252.608	274.152	188.748	301.190	256.834	187.118	193.330	436.768	389.768	190.487	194.894	197.985	200.870	282.409	196.890	-8191	255	
14569.554	1	1	0	0	0.17023	0.30737	0.072114	0.20831	0.069573	0.27887	0.055204	0.0584	0.20491	0.16125	0.37557	0.012398	0.38276	0.0087351	0.13502	0.16272	0.0375	-1.1979	-0.6375	-0.36875	-1.1896	-0.47708	-0.65625	-1.1979	-0.22708	-0.875	-0.64375	-0.35208	-1.1458	-0.30625	-0.57917	-1.2083	239.961	270.501	294.044	504.746	196.290	261.634	182.782	183.251	451.069	487.384	329.605	330.560	529.497	228.666	289.659	437.832	0.00041612	0.00038324	0.00010606	877.59	3.5703e-06	3.823e-06	586.62	267.63	5.1909e-06	4.6726e-06	185.46	63.087	93.115	41.032	1.7247e-06	30.42	0.0009761	0.0010387	0.00029306	893.15	1.1354e-05	1.1535e-05	606.52	272.28	1.1434e-05	1.1508e-05	195.76	66.735	96.185	42.479	1.1382e-05	32.037	273.320	228.631	348.241	188.893	210.055	291.392	186.897	193.311	323.437	391.557	190.515	194.443	197.823	201.037	251.763	196.991	-8191	255	
14569.628	1	1	0	0	0.26429	0.18478	0.219	0.36998	0.16837	0.21163	0.10257	0.11544	0.33735	0.25052	0.12215	0.30434	0.25119	0.030565	0.24741	0.1153	0.1	-0.96667	-0.825	-0.475	-1.1271	-0.58542	-0.61667	-1.2188	-0.27292	-0.87083	-0.63958	-0.24375	-1.0417	-0.5625	-0.39792	-1.3563	235.878	287.715	338.201	430.971	329.588	201.932	467.224	472.157	421.488	420.686	253.149	439.066	211.955	187.762	479.531	474.969	0.00031945	0.00070782	7.532e-05	873.61	1.0197e-05	5.1565e-06	587.96	265.4	5.9183e-06	5.1084e-06	184.62	62.633	92.517	40.833	3.1086e-06	30.373	0.00097704	0.0010575	0.00029119	890.5	1.1299e-05	1.1456e-05	604.97	271.7	1.1379e-05	1.1475e-05	194.86	66.293	95.701	42.287	1.1281e-05	31.811	275.873	286.492	258.822	188.683	284.643	340.194	187.133	193.768	338.522	351.986	191.059	194.807	197.660	200.920	256.444	197.223	-8191	255	
14569.748	1	1	0	0	0.047565	0.049614	0.047459	0.11891	0.085261	0.15624	0.10627	0.042935	0.19213	0.16638	0.18222	0.23413	0.23358	0.092557	0.12023	0.0060731	0.058333	-0.78542	-1.1083	-0.28542	-1.1042	-0.70417	-0.24583	-1.1417	-0.30417	-0.77917	-0.98125	-0.27708	-0.94167	-0.79167	-0.22292	-1.2542	438.158	277.638	189.938	288.523	476.688	361.229	400.638	396.893	186.980	433.381	506.346	504.974	209.760	394.162	439.599	488.644	0.00030155	0.00034319	0.00015858	872.09	5.2441e-06	5.6367e-06	587.75	263.85	1.6022e-06	2.6622e-06	184.39	62.168	91.87	41.019	1.7321e-06	30.153	0.00097095	0.0010453	0.00029168	888.07	1.1289e-05	1.1416e-05	603.54	270.54	1.1376e-05	1.1424e-05	193.9	65.838	95.234	42.145	1.1361e-05	31.637	273.015	329.795	262.123	188.781	257.602	349.987	187.639	193.517	453.961	354.442	190.810	194.883	197.932	201.172	379.512	197.006	-8191	255	
14569.843	1	1	0	0	0.38955	0.063942	0.19489	0.090647	0.17753	0.13985	0.040341	0.20142	0.17549	0.21672	0.28855	0.20767	0.2441	0.20181	0.13098	0.15239	-0.10625	-0.54792	-1.0833	-0.57292	-1.2042	-0.7125	-0.42083	-1.5896	-0.44792	-0.55833	-1.075	-0.3125	-0.99583	-1.0187	-0.15208	-1.3646	341.587	291.315	230.393	312.792	519.677	245.698	278.354	531.273	425.220	469.911	442.356	227.554	220.091	289.505	317.648	235.406	0.00033883	0.00030134	0.00015503	874.29	4.9625e-06	6.3933e-06	583.47	262.71	5.5269e-06	5.7831e-06	183.28	62.533	91.428	40.725	3.7215e-06	30.267	0.00098403	0.0010516	0.00029258	888.55	1.1289e-05	1.1547e-05	602.39	269.28	1.1505e-05	1.1575e-05	193.71	65.955	95.082	42.25	1.1695e-05	32.009	270.266	221.104	293.969	188.782	214.648	369.295	187.082	193.296	309.585	254.856	190.437	195.110	197.540	200.879	225.011	196.898	-8191	255	
14569.939	1	1	0	0	0.22705	0.06126	0.083185	0.26918	0.1608	0.10073	0.24289	0.17101	0.35009	0.21654	0.19898	0.085854	0.029093	0.059401	0.019027	0.1581	-0.05625	-0.425	-1.0438	-0.275	-0.91875	-0.92083	-0.3	-1.2458	-0.47917	-0.31458	-1.1604	-0.45833	-0.59792	-1.025	-0.25417	-0.97292	190.240	228.793	373.614	511.285	421.958	276.294	445.605	492.787	409.472	420.969	459.803	371.220	390.447	491.076	420.499	230.518	0.00024515	0.00011769	0.00015377	869.43	8.0643e-06	8.1437e-06	587.14	263.66	4.9895e-06	1.038e-05	183.86	62.671	92.613	40.881	6.3197e-06	30.257	0.00099446	0.0010583	0.0002895	885.45	1.1449e-05	1.1574e-05	604.39	270.35	1.1423e-05	1.1575e-05	194.48	66.49	95.636	42.286	1.1447e-05	32.063	281.637	223.159	237.931	188.339	364.328	374.192	187.008	193.259	284.072	306.622	190.415	194.663	197.911	200.810	253.241	196.595	-8191	255	
14570.035	1	1	0	0	0.18286	0.10505	0.096534	0.25735	0.19661	0.087252	0.17975	0.42314	0.15017	0.21945	0.22784	0.30072	0.13882	0.26995	0.11812	0.20476	-0.41875	-0.39167	-1.0875	-0.50833	-0.79167	-0.94167	-0.31042	-1.1542	-0.52917	-0.31042	-1.0812	-0.4875	-0.775	-1.0729	-0.18958	-0.89375	287.771	533.070	533.356	524.998	455.231	240.455	234.892	507.200	442.010	367.326	269.642	474.319	197.608	224.987	380.642	312.947	0.00036809	0.00066711	4.8973e-05	871.83	1.2396e-05	4.3607e-06	585.95	264.19	1.1766e-06	5.0671e-06	185.39	62.818	92.605	40.724	2.2473e-06	29.787	0.00098596	0.0010477	0.00028877	889.26	1.1424e-05	1.1605e-05	605.22	270.98	1.1364e-05	1.1562e-05	194.5	66.286	95.787	42.112	1.131e-05	31.585	272.794	275.019	240.478	188.749	350.899	349.250	187.042	193.378	327.189	339.498	190.814	194.218	197.766	201.000	471.073	197.385	-8191	255	
14570.156	1	1	0	0	0.12306	0.21961	0.21381	0.11752	0.20629	0.098191	0.29752	0.077758	0.11024	0.19536	0.067927	0.077805	0.047739	0.36392	0.17541	0.21098	-0.21667	-0.1	-1.1896	-0.56875	-0.44792	-1.0521	-0.25625	-1.0375	-0.825	-0.09375	-1.1917	-0.6125	-0.62292	-1.2042	-0.275	-0.94792	275.953	328.261	509.060	384.826	386.447	203.083	415.876	181.381	509.041	504.940	398.940	203.502	347.296	181.417	454.800	531.549	0.00041783	0.00028942	9.1226e-05	868.01	6.5826e-06	8.1754e-06	577.36	262.87	5.0358e-06	2.5293e-06	181.97	61.712	91.977	40.45	3.5649e-06	29.476	0.00098924	0.001045	0.00028868	885.15	1.1226e-05	1.1349e-05	597.22	269.41	1.1359e-05	1.1343e-05	192.17	65.305	95.235	41.584	1.1329e-05	31.17	287.624	245.483	266.141	188.643	380.859	383.023	186.900	193.180	382.223	389.029	190.514	194.804	197.744	200.805	306.044	197.059	-8191	255	
14570.252	1	1	0	0	0.22085	0.14834	0.14983	0.25571	0.26809	0.1601	0.18174	0.0853	0.10463	0.19418	0.023439	0.045736	0.41701	0.018728	0.1608	0.31541	-0.45	-0.45417	-1.0458	-0.59167	-0.45417	-1.1417	-0.55	-1.0333	-0.93333	-0.15625	-1.1708	-0.73542	-0.40417	-1.2417	-0.35417	-0.62292	199.994	448.261	412.801	509.294	391.373	466.974	485.664	191.192	464.498	183.482	470.245	458.426	442.569	417.171	273.890	492.928	0.0003491	0.000828	0.000129	868.76	1.3133e-05	5.9949e-06	583.92	262.99	2.5721e-06	6.5115e-06	182.89	61.537	92.048	40.38	2.6571e-06	29.503	0.00097486	0.0010421	0.00028813	885.57	1.1278e-05	1.1463e-05	599.4	269.16	1.1346e-05	1.1506e-05	192.87	65.22	94.758	41.739	1.1469e-05	31.304	265.512	245.767	258.030	188.403	317.567	372.581	187.036	193.573	463.312	321.592	190.677	194.718	197.746	200.862	427.368	197.273	-8191	255	
14570.323	1	1	0	0	0.0377	0.32629	0.087187	0.085713	0.10006	0.23922	0.22445	0.16113	0.20811	0.18232	0.16173	0.163	0.17161	0.41661	0.035575	0.14682	-0.58958	-0.20625	-1.0083	-0.82083	-0.25833	-1.2479	-0.55	-0.68542	-1.2687	-0.37292	-1.0146	-0.84792	-0.38542	-1.1333	-0.47708	-0.64375	419.643	392.128	308.505	309.934	417.662	445.579	522.410	395.980	454.330	229.662	502.399	529.761	182.035	521.729	360.189	486.710	0.00028026	0.00024757	0.00018166	867.95	3.2064e-06	6.8231e-06	581.47	263.84	2.8507e-06	1.9113e-06	182.47	62.121	91.554	40.21	6.7968e-06	29.898	0.00097167	0.0010428	0.00029216	885.13	1.1288e-05	1.159e-05	599.57	269.79	1.1257e-05	1.1508e-05	192.77	65.445	94.74	41.66	1.1456e-05	31.414	282.928	257.717	214.225	188.781	311.715	353.306	187.277	193.567	296.999	278.780	190.488	194.692	197.667	201.083	249.356	197.023	-8191	255	
14570.444	1	1	0	0	0.19319	0.14609	0.22628	0.20871	0.12034	0.1015	0.16071	0.13278	0.25787	0.090394	0.12567	0.20201	0.1498	0.030071	0.10371	0.060293	-0.63333	-0.25833	-1.0063	-1.0833	-0.17708	-1.2021	-0.53542	-0.52292	-1.0292	-0.375	-0.99167	-0.95208	-0.3125	-1.1729	-0.54167	-0.45833	507.828	377.950	392.442	482.794	477.570	275.826	411.409	487.594	297.757	259.606	532.427	385.285	533.715	378.989	213.042	290.394	0.0003437	0.00060224	0.00010259	870.21	6.4959e-06	4.7271e-07	584.81	264.05	2.6516e-06	5.2339e-06	184.7	62.235	91.518	40.226	8.1795e-06	29.377	0.00097577	0.0010421	0.00028922	885.81	1.1337e-05	1.1357e-05	601.4	269.49	1.1292e-05	1.1491e-05	193.53	65.494	94.767	41.548	1.145e-05	31.068	282.638	252.258	254.365	188.677	392.920	389.115	187.118	193.375	400.184	397.023	190.693	194.757	197.893	200.828	333.793	196.918	-8191	255	
14570.540	1	1	0	0	0.20369	0.21321	0.24562	0.12232	0.34734	0.027455	0.22343	0.041745	0.32301	0.21431	0.14712	0.046456	0.27315	0.21629	0.095812	0.21352	-0.86458	-0.53542	-0.87292	-1.1375	-0.16458	-1.2271	-0.59583	-0.5875	-1.1833	-0.21667	-0.64583	-1.3229	-0.34375	-1.0229	-0.7875	-0.55417	355.231	353.499	321.125	528.343	497.201	323.065	210.394	485.409	294.568	361.301	393.454	523.417	459.648	491.213	336.063	442.085	0.00025777	0.00041467	9.1248e-05	869.89	1.5228e-05	6.2941e-06	579.33	262.5	6.4157e-06	2.1232e-06	181.35	61.416	91.149	39.972	3.4995e-06	29.302	0.00095991	0.001051	0.00028925	883.84	1.1204e-05	1.146e-05	596.83	268.87	1.1262e-05	1.1544e-05	191.97	64.926	94.503	41.479	1.1494e-05	31.086	274.064	315.183	234.218	188.910	377.799	313.053	186.995	193.429	274.995	361.574	190.965	194.422	197.515	200.859	284.277	196.955	-8191	255	
14570.636	1	1	0	0	0.20399	0.12675	0.019983	0.21744	0.05468	0.093075	0.39009	0.10584	0.16386	0.19329	0.19841	0.20728	0.20894	0.05379	0.23461	0.088475	-0.92708	-0.32708	-0.61042	-1.2708	-0.2625	-0.97292	-0.93333	-0.52917	-1.2104	-0.35208	-0.69792	-1.1604	-0.24583	-1.1021	-0.96875	-0.30833	339.582	512.064	337.232	188.545	368.893	287.062	500.581	319.933	302.856	446.369	248.976	450.203	498.781	425.362	308.863	473.249	0.00035016	0.00086108	4.5594e-05	864.63	1.5417e-06	6.4776e-06	580.61	262.61	3.9761e-06	3.8686e-06	182.07	61.653	92.119	40.136	2.2429e-06	29.637	0.00096586	0.0010389	0.00028881	881.39	1.1238e-05	1.1397e-05	596.61	268.54	1.1193e-05	1.1395e-05	192.41	65.093	94.961	41.494	1.1209e-05	31.161	280.430	211.169	274.184	188.901	460.146	314.013	187.195	193.880	294.481	185.042	190.689	194.979	197.746	200.993	377.404	197.148	-8191	255	
14570.731	1	1	0	0	0.1382	0.19892	0.076634	0.14912	0.27268	0.26659	0.051916	0.1637	0.070942	0.25324	0.25477	0.23467	0.084934	0.1319	0.21722	0.11383	-0.87083	-0.52083	-0.40208	-1.3062	-0.16458	-0.82708	-1.1292	-0.39375	-1.0896	-0.69583	-0.42083	-1.1792	-0.54375	-0.92917	-1.0229	-0.37708	409.922	384.792	249.997	453.441	455.279	430.254	211.967	361.789	304.504	299.089	257.688	235.107	412.196	255.337	228.836	287.278	0.00036823	0.0009369	0.00029521	868.83	4.6127e-06	5.3492e-06	578.45	263.96	4.3293e-06	4.2581e-06	182.49	61.954	91.539	40.03	5.1433e-06	29.829	0.00095686	0.0010344	0.00029077	883.41	1.1095e-05	1.1357e-05	596.28	269.18	1.1044e-05	1.1443e-05	192.65	65.282	94.701	41.453	1.1279e-05	31.31	287.079	239.107	320.783	188.899	399.249	514.226	187.166	193.392	360.916	385.338	190.243	194.786	197.688	201.116	314.077	197.131	-8191	255	
14570.851	1	1	0	0	0.10547	0.31841	0.31612	0.27455	0.094465	0.11705	0.11084	0.13262	0.15845	0.28284	0.19134	0.15741	0.16007	0.029904	0.02722	0.20097	-0.61667	-0.7625	-0.41667	-1.1292	-0.49792	-0.86042	-1.1313	-0.16042	-0.98333	-0.87917	-0.32083	-1.0792	-0.55208	-0.76667	-1.1354	-0.28542	447.231	379.520	228.358	514.151	278.344	425.473	360.973	429.389	295.744	443.588	181.300	523.195	431.318	190.165	415.585	379.478	0.00026048	0.0005118	8.2058e-05	865.85	6.7238e-06	6.3211e-06	584.45	262.85	5.7693e-06	2.732e-06	183.06	61.681	91.679	40.358	4.9341e-06	29.591	0.00095177	0.0010287	0.00028635	883.43	1.1123e-05	1.1347e-05	599.33	268.71	1.1139e-05	1.1333e-05	192.84	65.352	94.797	41.693	1.1202e-05	31.182	272.794	295.292	235.411	188.788	352.594	345.899	187.499	193.653	368.777	341.363	191.015	194.831	197.378	200.938	324.134	196.500	-8191	255	
14570.923	1	1	0	0	0.077517	0.13028	0.29816	0.14121	0.29984	0.20526	0.10459	0.32642	0.054625	0.18674	0.21361	0.036446	0.23649	0.40875	0.16136	0.24002	-0.68125	-0.825	-0.29375	-1.3125	-0.46875	-0.58125	-1.2771	-0.42083	-0.97708	-0.94375	-0.30625	-1.1979	-0.5	-0.49583	-1.15	-0.25	243.593	185.720	221.010	511.471	192.182	411.376	207.215	435.617	333.854	479.786	444.805	423.070	532.313	520.437	388.276	402.538	0.00028738	0.00028756	0.00022376	865.27	6.8513e-06	1.8829e-07	581.16	262.46	7.442e-06	6.9133e-06	182.54	61.653	91.432	40.138	1.4782e-06	29.284	0.00094927	0.0010347	0.00028559	883.08	1.1176e-05	1.1192e-05	597.02	268.49	1.1135e-05	1.124e-05	191.45	64.956	94.5	41.355	1.1078e-05	30.778	280.250	270.133	265.149	188.596	381.055	395.414	186.966	193.432	312.313	305.064	190.838	195.118	197.845	201.376	505.762	197.132	-8191	255	
14571.019	1	1	0	0	0.23937	0.041318	0.11307	0.36322	0.043819	0.27074	0.17072	0.40961	0.20266	0.027789	0.34137	0.26038	0.16282	0.18059	0.26675	0.15645	-0.63542	-0.85	-0.42708	-1.3417	-0.47083	-0.48542	-1.2896	-0.45	-0.83125	-1.225	-0.27083	-1.1208	-0.67083	-0.44792	-1.1583	-0.42917	518.090	307.416	196.175	468.023	502.980	387.676	437.633	453.272	412.688	243.570	427.118	468.821	186.495	433.992	528.877	469.146	0.0003527	0.00034188	6.7226e-05	864.14	3.2299e-06	8.7505e-06	576.8	260.83	2.7042e-06	6.1862e-07	181.29	61.105	91.074	39.872	5.5291e-06	29.163	0.00094735	0.0010235	0.00028336	880.61	1.1146e-05	1.1221e-05	595.42	267.98	1.1267e-05	1.1358e-05	190.93	64.35	93.783	41.141	1.1151e-05	30.697	282.687	316.948	225.123	189.076	423.453	403.989	187.377	193.655	335.110	473.034	190.564	194.727	197.500	201.084	303.282	197.252	-8191	255	
14571.115	1	1	0	0	0.05123	0.094195	0.46245	0.12489	0.085503	0.12129	0.083652	0.3592	0.086599	0.057976	0.16908	0.13236	0.064089	0.35961	0.16665	0.41909	-0.25417	-1.1229	-0.022917	-1.0896	-0.49583	-0.28333	-1.1792	-0.61458	-0.54375	-1.1771	-0.32292	-0.9875	-1.0167	-0.35208	-1.1812	-0.47292	269.203	224.142	482.322	209.934	295.934	335.803	286.787	489.580	533.988	390.087	505.388	258.176	533.624	212.311	447.731	449.813	0.00028762	0.00043113	0.00011995	863.28	7.0943e-06	2.1048e-06	576.06	260.95	5.1934e-06	5.6903e-06	180.02	60.59	90.05	39.564	3.689e-06	28.893	0.00096992	0.0010276	0.00028297	883.01	1.1167e-05	1.114e-05	595.28	267.94	1.1108e-05	1.1163e-05	190.7	63.873	93.224	40.929	1.1239e-05	30.519	274.696	254.813	341.955	188.868	327.170	251.416	187.140	193.670	289.249	277.280	190.409	194.776	197.662	201.280	312.169	197.118	-8191	255	
14571.236	1	1	0	0	0.14082	0.40758	0.32192	0.13682	0.072789	0.1647	0.44046	0.095744	0.23524	0.27508	0.21316	0.050448	0.15662	0.10421	0.32058	0.012557	0.0375	-1.2646	-0.097917	-1.1604	-0.94792	-0.4	-1.3229	-0.62708	-0.60208	-1.2125	-0.33958	-0.79583	-0.98542	-0.16458	-1.1979	-0.51042	322.294	298.032	476.299	371.242	508.086	307.061	448.342	402.324	194.618	317.462	439.950	217.615	302.613	527.250	258.449	282.494	0.00028825	0.00015966	0.0001548	865.34	8.1913e-06	3.8548e-06	580.17	261.65	5.3043e-06	4.0577e-06	181.11	60.64	90.115	39.497	3.3473e-06	29.119	0.00095207	0.0010198	0.00028231	883.54	1.1124e-05	1.1224e-05	596.34	267.51	1.1194e-05	1.134e-05	190.62	64.215	93.323	40.928	1.1092e-05	30.724	301.900	212.670	233.053	189.150	337.270	520.719	187.467	193.504	278.926	269.180	190.462	195.296	197.843	201.221	268.827	197.133	-8191	255	
14571.332	1	1	0	0	0.20736	0.25975	0.051095	0.028718	0.093592	0.099529	0.064721	0.17712	0.26278	0.23582	0.22878	0.0068651	0.19995	0.37064	0.18922	0.15128	0.00625	-0.99375	-0.32083	-0.96042	-1.0167	-0.35208	-1.1708	-0.70208	-0.4375	-1.2771	-0.53958	-0.73333	-1.1354	-0.2875	-0.80417	-0.73958	374.642	441.904	193.077	222.719	444.316	327.932	392.591	388.735	293.558	213.667	281.606	351.114	525.404	465.848	473.788	524.340	0.00044493	0.00073535	0.00016667	866.66	3.5912e-06	2.7987e-06	578.47	262.07	2.2443e-06	1.5757e-06	181.36	60.844	90.363	39.555	4.2135e-06	28.949	0.00094491	0.0010085	0.00028002	883.94	1.0866e-05	1.1167e-05	597.99	267.92	1.1077e-05	1.1152e-05	191.03	64.017	93.647	40.836	1.1038e-05	30.496	280.864	277.033	259.418	188.909	390.558	521.087	187.242	193.433	305.758	231.094	190.714	194.983	197.840	201.120	315.830	197.121	-8191	255	
14571.428	1	1	0	0	0.28426	0.2427	0.28344	0.069759	0.161	0.18021	0.14726	0.17806	0.10883	0.1453	0.097934	0.19567	0.32789	0.12784	0.12497	0.083762	-0.05625	-1.1771	-0.25	-0.55833	-1.2313	-0.24167	-0.98333	-0.71458	-0.275	-1.2563	-0.44375	-0.76875	-1.2104	-0.43542	-0.81458	-0.93333	396.966	324.747	381.081	422.620	478.951	419.931	498.151	479.974	488.692	285.389	521.064	486.196	479.312	299.655	472.183	208.691	0.00034689	0.00057265	0.00016741	862.84	4.1735e-06	7.6892e-06	577.05	260.18	7.1576e-06	4.4757e-06	180.48	60.179	90.427	39.549	1.1384e-06	28.741	0.00093267	0.001	0.00028209	881.03	1.0955e-05	1.118e-05	593.24	267.15	1.0976e-05	1.1101e-05	190.71	63.935	93.3	40.828	1.0985e-05	30.472	271.118	320.257	251.279	189.109	293.767	310.651	187.117	193.665	314.767	323.954	191.078	195.103	198.010	200.945	230.337	197.042	-8191	255	
14571.524	1	1	0	0	0.048609	0.097629	0.20575	0.33696	0.10741	0.12022	0.23494	0.097258	0.30305	0.33598	0.25882	0.071918	0.23026	0.29834	0.19418	0.31226	0.18542	-1.0312	-0.52292	-0.60625	-1.2083	-0.26042	-0.80417	-1.0167	-0.15625	-1.2667	-0.76042	-0.34792	-1.2812	-0.53542	-0.66458	-1.0396	191.271	177.272	532.752	480.024	371.658	193.107	286.722	261.946	364.351	510.861	435.553	512.747	379.784	507.664	258.891	408.569	0.00035195	0.00042367	9.5396e-05	865.36	4.2054e-06	9.1737e-06	580.08	262.21	2.332e-06	1.0581e-06	180.27	60.345	90.149	39.55	4.7865e-06	29.179	0.00093981	0.0010058	0.000282	882.23	1.0759e-05	1.1184e-05	595.64	267.83	1.0965e-05	1.1146e-05	190.64	63.868	93.005	40.906	1.0986e-05	30.613	282.240	178.567	335.546	188.947	418.266	390.115	187.139	193.751	204.980	380.641	190.680	195.262	198.013	201.246	453.820	197.014	-8191	255	
14571.621	1	1	0	0	0.23947	0.11242	0.25292	0.16271	0.1411	0.08368	0.11437	0.31044	0.25175	0.1754	0.18068	0.062048	0.11655	0.26737	0.030609	0.062355	0.18333	-1.1125	-0.93542	-0.62708	-1.1896	-0.44583	-0.7	-1.0646	-0.23958	-1.0979	-0.84583	-0.32083	-1.3062	-0.39583	-0.65833	-1.3396	255.725	177.949	210.467	479.510	275.443	208.761	518.272	474.062	511.834	373.621	456.899	218.932	319.189	192.737	439.095	403.416	0.00037209	0.00036357	8.6274e-05	865.66	2.4469e-06	7.1384e-06	578.31	261.19	5.9446e-06	6.1249e-06	179.77	60.1	89.631	39.432	3.7964e-06	28.902	0.00095239	0.0010066	0.0002796	882.05	1.0998e-05	1.1003e-05	595.26	267.39	1.0826e-05	1.1109e-05	190.16	63.416	92.831	40.668	1.0948e-05	30.593	275.764	527.670	176.730	189.191	294.462	351.462	187.525	193.816	297.656	256.741	190.776	195.266	198.124	201.009	326.165	197.152	-8191	255	
14571.717	1	1	0	0	0.23348	0.14172	0.11313	0.051377	0.18745	0.084118	0.37948	0.20005	0.38724	0.11948	0.23304	0.19433	0.14233	0.49222	0.076673	0.080719	0.19167	-0.9125	-0.7625	-0.40833	-1.2083	-0.43333	-0.60208	-1.4167	-0.16042	-1.2208	-0.9625	-0.16042	-1.0604	-0.6375	-0.57292	-1.2792	455.594	465.916	458.495	259.903	479.282	528.204	452.259	398.005	462.647	245.787	422.590	460.177	531.221	193.212	452.964	365.274	0.00035821	0.00012441	0.00012136	867.45	2.1011e-07	4.4763e-06	578.67	261.16	3.3099e-06	3.9143e-06	181.19	60.769	90.064	39.499	6.6835e-06	28.886	0.00094032	0.0010002	0.00028058	882.52	1.0873e-05	1.1021e-05	597.15	267.79	1.0943e-05	1.0998e-05	191.51	63.76	92.833	40.732	1.0961e-05	30.523	295.181	268.772	290.102	188.929	378.122	241.258	187.145	193.735	351.172	350.320	190.966	194.940	198.160	200.990	318.914	197.329	-8191	255	
14571.836	1	1	0	0	0.1438	0.12366	0.10093	0.16195	0.055657	0.016682	0.29575	0.22651	0.04615	0.082549	0.20121	0.096267	0.11565	0.0073385	0.15167	0.092796	0.11875	-0.78333	-1.0187	-0.17083	-1.05	-0.85	-0.37917	-1.2708	-0.36458	-0.59583	-1.025	-0.2375	-0.93958	-0.93958	-0.38333	-1.2917	329.566	271.109	314.139	455.314	280.223	384.872	454.555	432.976	482.959	293.058	390.646	499.208	267.600	216.074	515.771	232.093	0.0003477	0.00062658	0.0001089	866.06	6.9598e-06	1.3126e-05	578	261.64	4.6451e-06	1.8187e-06	180.18	59.798	89.41	39.182	1.5629e-06	28.611	0.00094524	0.0010105	0.00027525	881.52	1.0802e-05	1.1046e-05	594.64	267.74	1.0876e-05	1.1019e-05	189.85	63.182	92.441	40.577	1.1085e-05	30.33	294.491	283.923	223.061	188.853	347.690	379.867	187.084	193.697	299.723	255.590	190.705	195.192	197.899	201.618	343.157	197.109	-8191	255	
14571.932	1	1	0	0	0.19574	0.15974	0.16413	0.46741	0.026963	0.004905	0.17563	0.4071	0.15629	0.28549	0.17154	0.13905	0.34191	0.10465	0.19214	0.27607	-0.05	-0.68333	-1.1688	-0.56875	-0.95625	-0.85833	-0.37708	-1.3312	-0.46042	-0.65625	-1.1688	-0.30833	-0.78958	-1.05	-0.2125	-1.3958	305.027	285.948	493.637	493.447	393.840	463.868	236.007	183.605	325.774	311.344	529.603	312.205	528.635	254.958	238.820	513.382	0.00037084	0.00010053	0.00019031	864.64	1.3061e-05	6.3651e-06	577.22	261.18	3.5894e-06	4.1434e-06	179.56	59.709	88.862	39.018	8.092e-06	28.436	0.00094529	0.0010132	0.00027766	880.58	1.0905e-05	1.0979e-05	593.73	266.5	1.098e-05	1.0986e-05	188.79	62.8	91.972	40.208	1.0743e-05	30.039	262.062	391.455	250.538	189.192	349.791	358.986	187.541	193.757	321.437	354.760	190.784	195.039	198.295	201.117	324.773	197.139	-8191	255	
14572.028	1	1	0	0	0.16037	0.30272	0.18767	0.1805	0.26255	0.067663	0.11881	0.14851	0.15089	0.32954	0.18425	0.14187	0.21742	0.19814	0.11919	0.14574	-0.18333	-0.45208	-1.1792	-0.23333	-0.9625	-0.85	-0.31042	-1.0896	-0.53125	-0.44792	-1.2188	-0.43333	-0.89375	-1.0625	-0.36458	-1.1042	300.575	371.878	470.531	258.540	210.779	472.048	464.799	315.751	471.558	340.117	401.787	255.110	504.660	484.627	395.271	479.063	0.00034259	7.5772e-05	0.0002199	862.77	2.9536e-06	7.9543e-06	577.25	260.2	4.9656e-06	4.9559e-06	179.24	59.514	89.011	38.901	9.2643e-06	28.533	0.00093764	0.0010017	0.00027988	881.96	1.0856e-05	1.1145e-05	593.12	266.94	1.0933e-05	1.0994e-05	189.16	62.733	91.795	40.167	1.1054e-05	30.077	279.155	228.435	238.399	189.104	212.669	322.130	187.349	193.672	282.208	329.216	190.750	195.307	197.720	201.603	357.414	197.259	-8191	255	
14572.148	1	1	0	0	0.071569	0.15719	0.17498	0.34527	0.25808	0.11875	0.35487	0.20875	0.10348	0.20477	0.33276	0.091444	0.14159	0.24323	0.23534	0.053668	-0.34583	-0.3625	-0.9875	-0.55417	-0.61667	-1.0271	-0.3875	-1.2708	-0.87083	-0.35417	-1.1292	-0.37083	-0.60417	-1.1187	-0.2625	-1.0229	265.391	283.727	382.250	509.468	288.567	510.823	427.974	400.744	274.734	472.233	303.094	447.696	199.678	534.253	443.428	528.338	0.00038361	0.00043481	0.00019684	867.46	3.6703e-06	5.0504e-06	575.07	259.61	2.3922e-06	3.5053e-06	179.88	59.185	88.748	38.864	2.3705e-06	28.616	0.0009373	0.0010022	0.00027911	881.35	1.0888e-05	1.1102e-05	593.05	266.11	1.104e-05	1.1174e-05	189.25	62.556	91.541	40.183	1.1072e-05	30.062	281.756	306.429	229.523	189.090	188.834	342.350	187.432	193.874	317.978	437.204	190.779	194.851	197.857	201.318	219.534	196.990	-8191	255	
14572.220	1	1	0	0	0.3598	0.37084	0.050639	0.19029	0.086476	0.038376	0.10849	0.22082	0.16864	0.10393	0.12779	0.37356	0.096595	0.016912	0.017872	0.30577	-0.47083	-0.38542	-1.2104	-0.46458	-0.50833	-1.1583	-0.48958	-0.9625	-0.89792	-0.3375	-1.0958	-0.53542	-0.3875	-1.2396	-0.38958	-0.85833	220.014	335.584	448.628	461.406	253.346	412.951	410.585	468.556	409.526	323.654	288.362	216.930	425.140	355.041	194.084	386.140	0.00034649	0.00069227	7.7944e-05	863.95	6.5808e-06	4.2059e-06	576.06	260.67	4.3856e-06	2.7746e-07	176.01	58.941	88.222	38.694	8.112e-07	28.075	0.00094915	0.00101	0.00028227	879.68	1.0951e-05	1.1015e-05	591.98	265.93	1.0984e-05	1.1131e-05	187.36	62.143	91.254	39.918	1.1047e-05	29.644	290.819	315.485	261.653	188.988	366.931	292.926	187.452	193.803	316.100	341.584	190.947	194.976	198.273	201.313	263.954	197.356	-8191	255	
14572.316	1	1	0	0	0.27598	0.079188	0.18408	0.24878	0.37952	0.161	0.22945	0.44811	0.13753	0.21222	0.12675	0.10095	0.064995	0.277	0.15123	0.13511	-0.525	-0.097917	-1.2708	-0.77708	-0.39583	-1.3042	-0.46458	-0.93125	-1.1083	-0.14167	-1.0729	-0.6875	-0.55208	-1.2833	-0.4875	-0.70417	252.922	351.149	329.609	531.894	247.740	276.419	465.839	468.906	206.986	476.060	523.549	262.897	185.534	506.021	179.798	408.587	0.00033224	0.00091244	0.00019458	861.8	4.2762e-06	4.3286e-06	570.5	259.98	3.859e-06	2.3398e-06	178.16	58.013	88.38	38.489	7.0441e-07	27.912	0.00093041	0.001004	0.00027895	877.6	1.0934e-05	1.1072e-05	588.62	265.21	1.0969e-05	1.1081e-05	187.4	61.536	90.89	39.778	1.0969e-05	29.621	284.670	215.665	245.388	188.933	324.651	288.398	187.123	194.009	398.516	361.560	191.122	195.349	197.891	201.097	187.068	197.621	-8191	255	
14572.412	1	1	0	0	0.22562	0.1851	0.11639	0.34648	0.13584	0.10467	0.070499	0.14076	0.21953	0.26577	0.045494	0.39416	0.12231	0.14963	0.081672	0.18945	-0.61458	-0.045833	-0.84583	-0.83125	-0.28125	-1.225	-0.29375	-0.51458	-1.0063	-0.26875	-1.1	-0.96875	-0.4	-1.1979	-0.41667	-0.47083	178.910	535.023	501.315	505.829	235.159	313.925	383.046	206.619	303.013	213.876	219.809	197.221	530.814	187.050	272.611	327.380	0.00033524	0.00042646	0.00014387	865.39	7.2449e-06	1.2423e-06	572.69	259.59	3.1808e-06	4.2724e-06	177.71	58.248	87.537	38.419	8.6313e-06	28.135	0.00093012	0.00099361	0.00027885	879.6	1.0863e-05	1.0922e-05	588.7	265.38	1.082e-05	1.1084e-05	187.24	61.689	90.887	39.764	1.0932e-05	29.615	276.992	265.817	237.645	189.092	355.585	235.604	187.248	193.855	370.578	332.517	191.437	194.834	198.127	201.283	296.985	197.634	-8191	255	
14572.533	1	1	0	0	0.27247	0.074166	0.25303	0.014899	0.10779	0.11161	0.12315	0.083092	0.1776	0.25569	0.29479	0.12846	0.26755	0.2014	0.1719	0.12335	-0.58125	-0.16458	-0.775	-0.93958	-0.21667	-1.0938	-0.48542	-0.41667	-1.0292	-0.43542	-1.0208	-1.0729	-0.25833	-1.2229	-0.53542	-0.53542	248.772	348.650	273.904	434.015	520.827	258.167	454.898	188.277	511.695	289.976	427.082	505.321	496.412	523.002	287.187	514.654	0.0003803	0.00011284	4.9312e-05	862.46	3.654e-06	5.8985e-06	574.84	259.87	2.9649e-06	3.633e-06	178	58.13	87.9	38.68	3.7981e-06	28.04	0.000926	0.00098767	0.00027772	879.54	1.09e-05	1.1026e-05	591.29	265.05	1.0866e-05	1.1081e-05	187.38	61.587	90.854	39.866	1.1072e-05	29.726	283.423	276.779	439.960	188.834	383.715	356.859	187.394	193.851	321.607	356.427	190.662	195.150	198.429	201.267	313.979	197.431	-8191	255	
14572.627	1	1	0	0	0.28158	0.15509	0.3767	0.23242	0.17811	0.24553	0.23967	0.039001	0.15605	0.23752	0.36384	0.21969	0.091055	0.15924	0.22738	0.31833	-0.68958	-0.18125	-0.90625	-1.1063	-0.18333	-0.96042	-0.88125	-0.30833	-1.0187	-0.4	-0.72083	-1.1854	-0.31875	-0.85417	-0.67708	-0.34167	509.187	196.892	258.036	443.481	321.086	486.227	227.289	377.903	484.645	424.404	185.008	499.513	355.614	268.768	227.619	512.890	0.00034533	0.00043189	5.3955e-05	865.03	3.0557e-06	2.0935e-06	571.92	258.47	4.6577e-06	6.3167e-06	176.2	58.265	87.451	38.297	3.4846e-06	27.896	0.00093294	0.0010072	0.00027582	880.16	1.0757e-05	1.0893e-05	588.75	264.65	1.0803e-05	1.0974e-05	186.3	61.516	90.258	39.52	1.0874e-05	29.376	279.499	236.598	468.022	188.965	316.390	290.325	187.403	194.067	277.749	349.086	191.350	195.189	198.099	201.655	288.291	197.536	-8191	255	
14572.724	1	1	0	0	0.075098	0.20174	0.096637	0.42987	0.35789	0.12152	0.091017	0.45917	0.14242	0.08533	0.070462	0.050689	0.12249	0.24925	0.24203	0.27681	-0.87917	-0.29375	-0.5625	-1.3125	-0.25417	-0.88542	-0.83333	-0.36458	-1.0458	-0.51042	-0.43958	-1.1313	-0.46667	-0.96667	-0.79792	-0.26042	411.752	363.673	244.070	521.928	502.832	323.971	207.486	519.571	279.091	193.835	515.090	209.701	324.538	250.157	478.636	418.471	0.00032054	0.0006796	0.0001163	857.73	1.178e-05	1.033e-06	570.26	257.69	1.947e-06	1.5411e-06	174.6	57.095	87.027	38.031	5.3154e-06	27.677	0.00093058	0.0010016	0.0002748	873.88	1.0964e-05	1.0959e-05	585.48	263.2	1.0833e-05	1.1083e-05	184.63	60.553	89.608	39.325	1.0899e-05	29.182	293.194	276.553	200.468	189.209	335.532	341.784	187.331	193.969	294.928	348.632	191.187	195.406	198.121	201.880	312.068	197.547	-8191	255	
14572.797	1	1	0	0	0.30119	0.073448	0.15919	0.070056	0.16166	0.10052	0.27579	0.043933	0.15464	0.12522	0.058391	0.18021	0.18434	0.15569	0.17507	0.30157	-0.51667	-0.51042	-0.34167	-1.2854	-0.26667	-1.0083	-1.0646	-0.20833	-0.9875	-0.75	-0.32083	-1.3104	-0.45833	-0.85833	-0.96458	-0.29792	370.628	246.459	511.039	280.049	259.906	466.821	422.658	293.091	325.874	511.683	187.479	452.463	498.330	227.194	226.432	270.382	0.00022441	0.00029648	0.00023043	857.33	5.5917e-06	3.66e-06	567.01	255.34	8.5671e-06	3.9616e-06	176.15	57.47	86.391	37.966	1.4817e-06	27.332	0.00093059	0.0010009	0.00027679	875.32	1.0776e-05	1.0903e-05	585.07	262.1	1.0879e-05	1.0932e-05	184.92	60.684	89.29	39.25	1.0742e-05	29.073	277.868	182.987	287.648	189.236	392.628	309.244	187.503	194.075	364.504	261.736	191.075	195.567	198.176	201.470	485.723	197.169	-8191	255	
14572.916	1	1	0	0	0.20249	0.25609	0.29886	0.11871	0.20887	0.27114	0.12899	0.13596	0.25338	0.039458	0.20347	0.19286	0.17483	0.30036	0.21866	0.093442	-0.57292	-0.62292	-0.21458	-1.1729	-0.31042	-0.41875	-1.0333	-0.36042	-0.93125	-0.87917	-0.45625	-1.0354	-0.5625	-0.54583	-1.0542	-0.42292	486.899	179.341	256.619	426.522	343.576	351.411	460.162	308.511	518.940	215.607	201.197	493.418	216.113	470.317	220.979	339.960	0.00031238	0.00048379	0.0001525	859.96	4.0299e-06	2.4275e-06	570.91	256.17	2.6926e-06	5.3363e-06	174.96	57.201	86.606	37.973	2.6206e-06	27.731	0.00092326	0.00099565	0.00027482	876.46	1.0896e-05	1.1036e-05	586.52	261.8	1.0789e-05	1.1044e-05	184.75	60.47	89.168	39.251	1.079e-05	29.207	276.862	210.295	284.000	188.974	241.792	334.418	187.206	193.714	338.314	436.444	190.667	194.956	198.035	201.504	307.955	197.333	-8191	255	
14573.012	1	1	0	0	0.16087	0.27385	0.15369	0.12095	0.069943	0.30525	0.048344	0.2326	0.34482	0.27289	0.11615	0.17048	0.076114	0.030644	0.47438	0.26727	-0.57708	-1.0042	-0.46042	-1.4958	-0.80208	-0.58333	-1.3354	-0.59583	-0.99583	-0.99583	-0.50833	-1.3354	-0.68542	-0.62708	-1.4542	-0.62917	295.285	353.683	351.711	505.409	386.626	245.691	211.510	467.890	272.632	394.357	259.901	482.545	438.818	238.835	475.615	487.328	0.00036783	0.00055027	0.00012546	858.31	8.7505e-06	1.8214e-06	573.42	256.92	7.0092e-06	4.5153e-06	176.11	57.601	86.714	37.856	1.9984e-06	27.451	0.00092609	0.0010044	0.00027421	875.33	1.091e-05	1.0799e-05	588.51	263.18	1.0782e-05	1.0865e-05	185.78	60.909	89.325	39.213	1.074e-05	29.083	282.188	277.028	261.956	188.879	269.081	531.289	186.874	193.656	310.914	360.554	190.992	195.286	198.025	201.305	454.032	197.407	-8191	255	
14573.108	1	1	0	0	0.40387	0.095803	0.38975	0.078767	0.066767	0.19442	0.22718	0.17233	0.17238	0.24626	0.040775	0.2811	0.36808	0.24642	0.11698	0.1869	-0.69375	-1.3125	-0.475	-1.3604	-0.70625	-0.57083	-1.5458	-0.60417	-0.99375	-1.2	-0.45625	-1.2083	-1.1375	-0.59792	-1.4062	-0.55208	238.807	501.215	340.682	184.097	517.608	361.077	214.783	302.227	407.977	304.616	315.889	267.516	523.663	518.194	501.879	389.680	0.00032955	0.00040413	0.00020646	862.43	9.5579e-06	3.6499e-06	566.69	257.85	5.409e-06	7.8036e-06	174.7	57.003	86.764	37.935	5.6799e-06	27.463	0.00092657	0.0009866	0.0002761	876.19	1.0655e-05	1.0874e-05	585.4	262.98	1.0636e-05	1.0809e-05	184.63	60.218	89.334	39.145	1.0786e-05	28.955	276.792	525.545	286.396	189.036	450.123	371.446	187.242	193.726	415.978	260.949	190.947	195.360	198.203	201.497	313.799	197.111	-8191	255	
14573.229	1	1	0	0	0.15741	0.12534	0.13793	0.18807	0.057227	0.072938	0.13639	0.16575	0.22222	0.19471	0.12505	0.32097	0.017962	0.064394	0.047882	0.19717	-0.34583	-1.1083	-0.55	-1.3625	-0.88958	-0.47292	-1.4062	-0.65208	-0.77292	-1.275	-0.48542	-1.0958	-1.3417	-0.70833	-1.25	-0.7375	198.030	473.924	310.781	205.793	377.769	217.752	477.429	481.939	398.072	474.643	437.549	509.410	413.862	178.351	357.271	529.737	0.00031888	0.0010149	0.00015853	860.12	4.7407e-06	5.0385e-06	566.07	257.9	2.2717e-06	1.1165e-05	175.59	57.593	86.736	37.967	2.4031e-06	27.404	0.00091468	0.00097926	0.00027588	875.3	1.069e-05	1.0851e-05	583.84	263.25	1.0707e-05	1.0905e-05	184.74	60.802	89.944	39.278	1.0669e-05	29.044	278.701	264.031	290.001	189.051	361.132	409.145	187.465	193.604	457.337	344.340	190.864	195.069	198.006	201.396	373.199	197.157	-8191	255	
14573.325	1	1	0	0	0.056107	0.31587	0.21834	0.1524	0.097032	0.12393	0.081099	0.22893	0.14579	0.10547	0.25337	0.20059	0.13105	0.24077	0.02431	0.12724	-0.29583	-1.375	-0.50417	-1.0688	-1.1667	-0.43125	-1.2188	-0.65417	-0.48958	-1.2854	-0.41042	-1.0146	-1.1771	-0.68333	-1.2396	-0.79792	318.776	199.028	177.996	457.451	534.838	226.253	332.598	534.213	219.242	344.184	295.590	236.998	445.978	190.885	189.494	249.030	0.00035181	0.00023771	4.2485e-05	864.45	1.7471e-06	8.3051e-06	568.93	258.05	7.0586e-06	2.3708e-06	177.39	57.73	87.754	38.267	5.6007e-06	27.678	0.00091352	0.00097456	0.00027256	876.58	1.058e-05	1.0712e-05	585.49	263.53	1.0589e-05	1.0888e-05	186.04	60.942	90.396	39.52	1.0694e-05	29.265	283.229	235.801	505.965	188.957	315.505	363.307	187.500	193.403	312.465	320.341	190.350	195.026	197.733	200.971	273.030	196.339	-8191	255	
14573.421	1	1	0	0	0.37131	0.13278	0.1336	0.23279	0.30715	0.030718	0.26205	0.30296	0.16642	0.26487	0.2295	0.18358	0.035418	0.081126	0.24095	0.11283	-0.075	-1.3354	-0.43125	-0.96458	-1.3229	-0.53542	-1.2958	-0.83333	-0.45	-1.3687	-0.53542	-0.57083	-1.3667	-0.41667	-1.2104	-1.1562	192.525	534.722	460.410	179.776	306.830	490.964	181.432	192.686	509.501	489.200	531.583	206.561	508.366	221.113	408.674	451.853	0.00034902	0.00037326	0.00012597	860.41	1.8916e-06	2.3804e-06	571.13	258.46	5.6162e-06	4.6689e-06	176.29	57.958	87.865	38.506	2.698e-06	27.978	0.00091753	0.00097749	0.00027342	876.79	1.0744e-05	1.0944e-05	588.4	264.7	1.0744e-05	1.0878e-05	186.71	61.44	90.796	39.77	1.0826e-05	29.495	287.077	269.202	292.453	188.947	408.949	338.177	187.376	193.499	297.829	335.577	190.748	194.895	197.447	201.046	412.126	196.456	-8191	255	
14573.517	1	1	0	0	0.03361	0.13028	0.30745	0.071512	0.21902	0.183	0.27449	0.21043	0.1097	0.22293	0.17599	0.040871	0.28813	0.035233	0.51968	0.0092209	-0.12917	-1.3917	-0.75833	-0.91667	-1.3333	-0.475	-1.1542	-1.0729	-0.25833	-1.1396	-0.56042	-0.68333	-1.35	-0.4	-1.0979	-1.1333	212.408	270.596	470.708	297.446	464.561	510.339	422.491	464.035	344.308	223.456	504.004	351.682	196.845	430.145	376.514	449.923	0.00033637	0.00057251	0.00012095	862.25	1.4759e-06	2.2901e-06	570.99	259.01	5.2162e-06	1.6221e-06	177.65	58.126	87.918	38.29	3.3638e-06	27.7	0.00090955	0.00097679	0.00027417	879.12	1.0543e-05	1.0722e-05	586.74	265	1.0686e-05	1.0745e-05	187.16	61.426	90.977	39.598	1.0675e-05	29.274	290.446	295.065	255.735	188.879	418.579	181.186	186.923	193.587	392.909	181.259	190.358	194.811	197.678	201.036	282.852	196.400	-8191	255	
14573.613	1	1	0	0	0.15133	0.087847	0.23894	0.36686	0.075829	0.10038	0.22578	0.052058	0.31317	0.15735	0.16073	0.29865	0.10464	0.2472	0.20447	0.20933	-0.014583	-1.2292	-0.57083	-0.80833	-1.2646	-0.45833	-1.1333	-1.1917	-0.42917	-1.4	-0.63542	-0.35625	-1.3417	-0.43542	-0.82083	-1.25	444.724	413.505	243.407	524.638	294.347	427.116	502.899	472.246	181.256	231.478	451.003	354.011	231.954	252.556	410.559	465.234	0.00039674	0.00050228	0.00017633	859.86	6.9389e-06	2.6866e-06	574.1	258.13	8.8601e-06	1.0817e-06	178.09	58.284	87.606	38.538	1.7712e-06	27.809	0.00092011	0.00097261	0.00026987	877.81	1.0614e-05	1.0552e-05	588.27	264.31	1.0566e-05	1.0656e-05	186.61	61.486	90.585	39.679	1.0614e-05	29.333	275.312	269.723	308.966	188.817	445.371	342.290	187.047	193.183	352.642	374.168	190.560	194.576	197.767	201.177	285.165	197.012	-8191	255	
14573.708	1	1	0	0	0.23041	0.046522	0.15446	0.22764	0.24056	0.23656	0.060135	0.095829	0.10731	0.12925	0.275	0.32042	0.29596	0.36278	0.087048	0.17973	-0.066667	-1.1146	-0.85833	-0.675	-1.2812	-0.5875	-0.93333	-1.3667	-0.53542	-1.2833	-1.0125	-0.47917	-1.4896	-0.8	-0.72917	-1.2875	250.274	188.239	482.987	410.527	457.179	455.201	353.134	382.845	479.598	418.651	187.400	453.052	489.056	217.321	356.195	233.354	0.00034038	0.00071397	7.4664e-05	862.03	7.2058e-06	3.9537e-06	572.28	259.27	2.717e-06	2.2181e-06	177.14	58.254	87.593	38.577	4.1666e-06	27.863	0.00090478	0.00096242	0.00026679	877.39	1.0532e-05	1.0744e-05	587.82	265.07	1.0568e-05	1.0678e-05	186.79	61.432	90.76	39.797	1.0522e-05	29.476	281.462	221.559	378.594	188.681	298.575	298.191	187.418	193.249	287.954	313.561	190.391	194.803	197.987	201.189	308.025	196.535	-8191	255	
14573.828	1	1	0	0	0.16064	0.24906	0.19225	0.084113	0.083004	0.16576	0.035627	0.29537	0.13347	0.049584	0.1031	0.1926	0.09281	0.38896	0.30305	0.064921	-0.0020833	-1.1187	-0.90833	-0.53958	-1.3521	-0.65625	-0.65833	-1.2583	-0.32292	-1.0396	-1.1708	-0.39375	-1.35	-0.85417	-0.45208	-1.3833	251.187	342.090	451.569	398.306	370.945	284.478	253.086	429.933	362.499	234.596	516.462	340.618	297.341	502.469	177.046	512.323	0.00031489	0.00029438	0.00015005	864.88	9.3451e-06	5.2777e-06	573.26	259.07	3.4547e-06	2.3649e-06	177.12	58.47	87.905	38.668	9.0417e-06	28.162	0.00090463	0.00096441	0.0002684	877.61	1.0469e-05	1.0543e-05	589.77	265.03	1.0672e-05	1.0651e-05	186.95	61.795	90.839	39.913	1.0679e-05	29.682	270.917	522.464	191.197	188.844	281.889	320.274	187.055	193.225	319.098	386.776	190.703	194.916	198.072	201.084	321.927	197.040	-8191	255	
14573.925	1	1	0	0	0.39149	0.1562	0.10074	0.067734	0.13789	0.16574	0.24641	0.38988	0.037034	0.14513	0.15417	0.034509	0.21471	0.18462	0.27292	0.18017	0.0020833	-0.88125	-1.0292	-0.35833	-1.1625	-0.86042	-0.63333	-1.3896	-0.55	-0.85625	-1.3583	-0.41875	-1.1688	-0.95	-0.40208	-1.4729	257.600	387.659	466.353	417.680	263.536	519.433	470.144	533.739	285.196	202.490	193.151	463.436	439.387	484.450	523.312	454.000	0.00037304	0.00055131	0.00012996	865.63	7.1657e-06	5.7177e-06	577.85	260.15	8.2666e-06	9.8616e-06	178.8	58.717	88.279	38.943	4.769e-06	27.956	0.00091068	0.00096525	0.00027091	880.84	1.0594e-05	1.073e-05	592.51	266.34	1.0605e-05	1.064e-05	188.15	61.796	91.042	40.063	1.0644e-05	29.541	296.159	245.314	519.755	188.605	331.690	300.533	187.250	193.401	330.029	309.359	190.669	195.074	197.902	200.947	375.890	196.795	-8191	255	
14574.021	1	1	0	0	0.34656	0.13089	0.095396	0.3035	0.064548	0.30921	0.34457	0.23239	0.16199	0.25682	0.038038	0.046187	0.15432	0.31348	0.10273	0.16558	-0.19167	-0.67708	-1.0917	-0.39167	-1.1167	-0.88125	-0.53125	-1.4021	-0.60208	-0.4875	-1.3979	-0.44583	-1.1021	-1.0729	-0.53542	-1.225	253.504	503.072	339.124	447.758	406.589	294.036	505.179	522.346	309.698	534.178	533.710	342.373	182.176	236.089	248.836	177.651	0.00031353	0.00052287	0.00022205	860.84	2.3075e-06	1.0476e-05	572.62	259.79	4.8217e-06	3.2357e-06	177.5	58.66	88.546	38.776	4.8879e-06	27.934	0.00091113	0.00096856	0.00026945	878.62	1.0589e-05	1.0633e-05	590.82	265.7	1.0499e-05	1.0618e-05	187.18	61.643	91.151	39.986	1.0651e-05	29.556	276.794	266.419	259.331	189.047	421.387	488.653	187.227	193.474	347.078	340.919	190.555	194.744	198.088	201.214	308.830	197.120	-8191	255	
14574.092	1	1	0	0	0.10695	0.19342	0.16905	0.28563	0.10001	0.54213	0.20973	0.30039	0.30245	0.076815	0.039447	0.12143	0.21532	0.25334	0.16386	0.20807	-0.26042	-0.4625	-1.2208	-0.54583	-1.1583	-1.0812	-0.3875	-1.2104	-0.83542	-0.58542	-1.3167	-0.38333	-0.90208	-1.1146	-0.32708	-1.4354	427.532	278.432	435.787	482.673	342.544	281.518	485.733	501.221	529.050	286.694	251.678	267.488	474.910	205.011	256.691	211.697	0.00036053	0.00047987	0.00013366	867.37	1.035e-05	1.6318e-06	571.47	259.68	9.9294e-07	4.7815e-06	177.32	58.406	87.415	38.702	6.813e-06	28.16	0.00090701	0.00096422	0.0002713	880.63	1.0545e-05	1.0791e-05	590.35	265.59	1.0574e-05	1.0695e-05	187.69	61.517	90.601	40.014	1.0703e-05	29.643	283.881	231.473	229.564	188.481	322.072	374.411	186.931	193.321	300.615	283.210	190.826	194.418	197.907	201.020	291.968	197.035	-8191	255	
14574.213	1	1	0	0	0.10429	0.16959	0.090153	0.23242	0.24035	0.2549	0.10867	0.17131	0.27062	0.21579	0.10691	0.06538	0.1355	0.44593	0.45419	0.10683	-0.34583	-0.4375	-1.3854	-0.63333	-0.79583	-1.3687	-0.2875	-1.2792	-0.76042	-0.32917	-1.5604	-0.52917	-0.8875	-1.3292	-0.35625	-1.2125	499.425	407.950	456.161	201.994	344.848	460.635	373.805	465.900	517.647	410.254	516.292	349.135	335.975	198.183	263.635	472.366	0.00035117	0.00050163	0.00015888	862.89	1.0475e-05	3.378e-06	576.2	261.37	3.0706e-06	1.683e-06	178.23	58.643	87.641	38.829	4.7383e-06	28.229	0.00090862	0.00096814	0.00027326	878.51	1.0616e-05	1.0814e-05	592.25	266.24	1.0629e-05	1.0806e-05	187.38	61.679	90.71	40.073	1.071e-05	29.815	287.825	270.417	343.848	188.599	380.263	278.568	187.420	193.618	430.008	274.273	190.466	194.612	197.927	201.102	320.332	197.113	-8191	255	
14574.309	1	1	0	0	0.20799	0.16863	0.26158	0.32657	0.093821	0.15299	0.34388	0.1737	0.07385	0.08973	0.040442	0.25159	0.30272	0.14862	0.22539	0.27354	-0.55417	-0.34583	-1.3521	-0.73542	-0.62292	-1.3854	-0.5375	-0.97292	-0.85	-0.4625	-1.3521	-0.87083	-0.97083	-1.4708	-0.46042	-1.1229	264.889	235.696	403.216	515.091	254.138	193.194	428.733	399.419	367.632	218.024	239.773	215.356	463.175	280.143	476.397	518.387	0.00029437	0.00053853	0.0001568	865.13	4.4459e-06	4.9021e-06	578.95	260.75	4.0483e-06	6.2025e-06	179.54	58.407	87.814	38.852	2.9596e-06	28.092	0.00091625	0.00097869	0.00027324	881.55	1.0591e-05	1.0748e-05	594.31	266.28	1.0693e-05	1.0781e-05	188.71	61.662	90.729	40.189	1.0737e-05	29.635	282.450	306.988	236.964	188.990	384.050	313.320	187.345	193.537	323.386	354.821	190.882	194.530	197.915	201.445	243.587	196.946	-8191	255	
14574.405	1	1	0	0	0.029301	0.27393	0.28289	0.056659	0.12981	0.26991	0.12532	0.24278	0.29988	0.070791	0.11429	0.40458	0.33761	0.30836	0.058581	0.14381	-0.79792	-0.43958	-1.1313	-0.76458	-0.725	-1.4917	-0.53125	-1.1437	-1.3563	-0.32292	-1.3333	-1.0021	-0.55625	-1.35	-0.70833	-0.89375	222.626	257.823	512.240	424.268	311.813	400.586	440.159	426.506	439.036	269.603	205.930	461.533	189.589	457.674	192.786	217.491	0.00029023	0.00040107	0.00013525	861.81	4.0978e-06	4.7214e-06	577.82	260.05	2.5414e-06	1.4382e-06	178.62	57.74	87.463	38.663	6.1894e-07	27.876	0.00091816	0.00099209	0.00026966	878.37	1.0581e-05	1.0855e-05	591.78	265.94	1.0577e-05	1.0892e-05	187.8	61.156	90.348	39.916	1.0721e-05	29.42	270.400	256.577	242.620	188.971	330.531	200.294	187.497	193.548	324.647	326.384	190.805	194.645	198.020	200.819	268.899	197.088	-8191	255	
14574.502	1	1	0	0	0.090491	0.13647	0.27758	0.18521	0.12378	0.13788	0.18261	0.049844	0.25549	0.15908	0.094531	0.080989	0.085346	0.21075	0.17947	0.18903	-0.81458	-0.475	-1.1146	-0.88333	-0.65833	-1.3771	-0.73125	-0.88542	-1.1854	-0.52917	-1.1125	-1.1	-0.40417	-1.3417	-0.62917	-0.81667	408.857	334.098	248.569	518.549	526.491	371.260	303.635	473.284	457.491	372.289	229.466	460.114	179.642	428.624	354.737	395.966	0.00038423	0.0002044	0.00021082	869.09	7.1736e-06	3.2482e-06	575.58	260.88	2.7901e-06	2.0571e-06	177.22	57.903	87.442	38.663	6.2213e-06	27.741	0.00090871	0.00097933	0.00027098	879.91	1.0659e-05	1.0613e-05	589.16	265.96	1.0624e-05	1.0854e-05	186.83	61.127	90.266	39.905	1.0702e-05	29.38	286.587	318.784	191.190	188.834	296.373	298.781	187.316	193.892	269.944	373.591	190.567	195.083	197.895	201.109	343.593	196.684	-8191	255	
14574.598	1	1	0	0	0.16286	0.17162	0.046915	0.26995	0.13307	0.38238	0.27747	0.36035	0.23186	0.024473	0.071854	0.1451	0.13398	0.24814	0.041382	0.15736	-0.93125	-0.38958	-1.1063	-1.0917	-0.32708	-1.0979	-0.71667	-0.83333	-1.3521	-0.36458	-1.1313	-0.90833	-0.50417	-1.3583	-0.77292	-0.48333	209.804	396.395	389.533	516.769	262.263	356.796	491.180	518.801	319.063	485.781	454.155	475.946	457.097	483.075	391.637	381.936	0.00021735	0.00040293	0.00019204	865.13	4.057e-06	6.0756e-06	575.04	260.52	6.569e-06	2.5914e-06	177.46	57.952	87.414	38.722	3.2516e-06	28.022	0.00091954	0.00098716	0.00026881	879.57	1.0635e-05	1.0761e-05	591.44	265.99	1.0617e-05	1.0679e-05	187.15	61.023	90.398	39.997	1.0698e-05	29.553	289.568	308.196	319.796	188.716	278.851	310.800	187.264	193.480	311.005	414.417	190.503	194.477	197.680	201.233	273.848	197.575	-8191	255	
14574.694	1	1	0	0	0.073787	0.10321	0.46871	0.39674	0.22279	0.16394	0.33126	0.36199	0.24249	0.025958	0.24377	0.25042	0.22785	0.3442	0.16206	0.28809	-0.9125	-0.48125	-0.79167	-1.3062	-0.30417	-1.2333	-0.98125	-0.69167	-1.2146	-0.47917	-0.89375	-1.1875	-0.43125	-1.1708	-0.88542	-0.47083	236.133	336.956	201.283	490.196	452.061	293.392	388.390	481.830	213.877	299.684	228.609	215.242	188.760	252.719	371.189	432.774	0.00031703	0.00067544	0.0002239	865.88	1.3587e-05	1.9206e-06	577.79	259.86	4.6827e-06	6.5874e-06	178.56	58.098	87.27	38.809	5.3492e-06	28.262	0.00091564	0.00099002	0.0002723	880.81	1.0679e-05	1.0666e-05	593.95	265.93	1.0829e-05	1.0894e-05	187.81	61.426	90.384	40.037	1.07e-05	29.605	299.856	343.293	222.165	188.826	373.123	305.144	187.673	193.705	339.540	262.811	190.508	194.648	197.726	201.118	266.518	196.373	-8191	255	
14574.790	1	1	0	0	0.12334	0.16558	0.21142	0.28933	0.17642	0.23778	0.26238	0.27636	0.28609	0.092789	0.23117	0.10682	0.25818	0.033868	0.10859	0.11355	-1.0479	-0.48958	-0.66042	-1.225	-0.43542	-0.99583	-0.94792	-0.48125	-1.2125	-0.53333	-0.78333	-1.5625	-0.54167	-1.2354	-1.1354	-0.32292	175.418	410.978	197.766	496.632	459.016	290.008	528.423	534.548	234.137	531.320	264.488	364.873	502.612	522.860	262.496	527.924	0.0003146	0.0002758	0.0001722	864.65	5.5483e-06	9.2206e-06	576.68	261.26	1.0039e-05	5.008e-06	176.31	57.577	87.435	38.651	2.2625e-06	27.632	0.00091778	0.00098622	0.00027022	880.39	1.0669e-05	1.0675e-05	590.88	265.98	1.0618e-05	1.0776e-05	186.42	60.856	90.289	39.736	1.0535e-05	29.125	274.800	232.353	236.366	188.496	295.728	290.377	186.832	193.161	339.499	392.973	190.743	194.626	197.949	201.086	379.780	196.853	-8191	255	
14574.909	1	1	0	0	0.20439	0.26832	0.23863	0.24753	0.079096	0.36157	0.17369	0.14734	0.085703	0.081036	0.18265	0.16984	0.22747	0.26898	0.24778	0.092447	-0.88542	-0.58542	-0.40625	-1.4833	-0.39792	-1.1104	-1.0688	-0.37708	-1.1625	-0.86667	-0.39792	-1.4438	-0.56458	-0.95208	-1.3271	-0.45625	465.272	464.639	484.354	474.840	303.413	354.800	286.971	440.759	247.035	374.623	389.101	513.977	432.873	256.402	418.805	181.673	0.00031353	0.00055873	0.00011686	864.68	3.0944e-06	4.4366e-06	569.39	259.76	5.6775e-06	7.8854e-07	175.98	56.927	86.906	38.516	6.4361e-06	27.855	0.00092155	0.00097351	0.0002718	879.14	1.0653e-05	1.0784e-05	586.74	265.39	1.0617e-05	1.0895e-05	185.88	60.531	89.991	39.77	1.0691e-05	29.238	285.124	320.295	319.460	188.688	224.543	406.312	187.045	193.414	298.043	346.264	190.435	194.342	197.964	201.232	383.786	196.863	-8191	255	
14575.005	1	1	0	0	0.22997	0.40629	0.26137	0.14535	0.19168	0.18627	0.26681	0.097441	0.15959	0.21478	0.20081	0.2588	0.067465	0.079956	0.27772	0.04598	-0.85417	-0.90208	-0.45833	-1.5792	-0.59375	-0.72083	-1.4125	-0.50625	-1.1896	-0.9875	-0.35625	-1.4792	-0.58125	-0.86667	-1.3667	-0.5125	263.073	518.937	263.525	416.459	415.482	203.971	223.867	515.020	462.331	220.740	294.787	512.339	184.463	366.648	433.247	477.248	0.0003707	0.00019683	0.00013023	863.53	1.1605e-05	6.4732e-06	573	259.18	1.8902e-06	3.0823e-06	178.5	57.878	86.962	38.621	4.7699e-06	27.799	0.00090627	0.00097049	0.00027136	878.73	1.0475e-05	1.0643e-05	588.61	266.02	1.0542e-05	1.0663e-05	187	60.788	90.116	39.919	1.0556e-05	29.356	272.824	429.427	374.036	189.031	298.072	319.739	186.855	193.564	260.943	319.428	190.320	194.487	197.608	200.874	354.712	196.859	-8191	255	
14575.101	1	1	0	0	0.11733	0.22319	0.089343	0.24049	0.27971	0.14757	0.10905	0.21499	0.13387	0.27374	0.24991	0.41225	0.2345	0.1061	0.14176	0.035549	-0.71667	-0.84375	-0.525	-1.3729	-0.71458	-0.65	-1.2979	-0.43333	-0.95417	-1.0896	-0.53125	-1.2333	-0.69792	-0.47292	-1.325	-0.50208	203.893	463.492	509.666	502.212	263.061	406.971	282.574	469.785	457.835	491.735	453.236	499.945	232.780	206.368	209.754	298.035	0.00022929	0.00021374	7.4199e-05	864.41	3.1827e-06	7.681e-06	575.15	260.02	1.7066e-06	4.4865e-06	179.63	58.239	87.354	38.804	3.8492e-06	27.9	0.00089725	0.00097269	0.00027107	880.43	1.046e-05	1.0786e-05	590.36	266.15	1.0587e-05	1.0564e-05	187.56	61.247	90.58	40.047	1.0548e-05	29.542	281.436	340.279	267.901	188.686	246.290	328.202	186.953	193.275	261.153	339.133	190.586	195.070	197.504	201.164	332.098	197.050	-8191	255	
14575.197	1	1	0	0	0.23513	0.18638	0.31165	0.089318	0.3104	0.13659	0.23374	0.13642	0.20979	0.1574	0.11768	0.33464	0.26525	0.16088	0.016458	0.061849	-0.50625	-1.0542	-0.066667	-1.3625	-0.66667	-0.66042	-1.4688	-0.63125	-0.86875	-1.1063	-0.53333	-1.2563	-0.99375	-0.34583	-1.1667	-0.63125	290.657	429.046	255.374	309.399	224.282	362.135	528.255	440.618	212.808	220.416	271.358	191.726	446.316	213.120	454.437	203.460	0.0003981	0.00037832	7.1103e-05	869.66	2.3742e-06	5.4343e-06	575.64	260.59	4.8072e-06	5.2331e-06	177.62	57.75	88.352	38.945	2.7024e-06	27.828	0.00091272	0.00097187	0.00027038	881.38	1.0703e-05	1.0689e-05	591.31	266.92	1.0443e-05	1.0775e-05	187.51	61.09	91.132	39.975	1.0622e-05	29.277	274.111	299.032	248.989	188.712	261.276	454.290	187.048	193.508	407.696	317.898	190.607	194.695	197.647	200.999	221.477	196.882	-8191	255	
14575.318	1	1	0	0	0.093948	0.065312	0.28363	0.19515	0.094523	0.16933	0.13052	0.14735	0.052941	0.32467	0.22734	0.064743	0.29253	0.25936	0.30052	0.17113	-0.39167	-1.2062	-0.27708	-1.2667	-1.0604	-0.5375	-1.3292	-0.69375	-0.70417	-1.3542	-0.59792	-1.1313	-1.1417	-0.48125	-1.3563	-0.73958	453.333	442.891	350.600	228.627	405.607	183.640	410.018	179.453	454.686	437.983	177.112	305.240	500.934	491.865	466.061	476.053	0.00026865	0.00030006	0.00021297	867.62	1.2063e-05	6.4467e-06	570.62	260.32	9.7417e-06	1.5307e-06	176.22	57.648	87.819	38.585	5.5257e-07	27.567	0.00090641	0.00096898	0.00026637	880.51	1.051e-05	1.0604e-05	586.89	265.96	1.0425e-05	1.054e-05	185.85	60.657	90.765	39.801	1.0453e-05	29.011	275.293	352.246	199.463	188.957	292.807	411.475	187.152	193.367	324.458	291.029	190.541	195.029	197.507	200.859	232.053	197.181	-8191	255	
14575.390	1	1	0	0	0.13899	0.060847	0.36871	0.14102	0.1082	0.23446	0.23981	0.094875	0.177	0.11876	0.16678	0.15728	0.24178	0.34573	0.026198	0.20009	-0.44583	-1.2458	-0.45208	-1.2375	-0.975	-0.35	-1.3104	-0.77292	-0.62292	-1.175	-0.4875	-0.95625	-1.0208	-0.46667	-1.1708	-0.84583	437.633	312.091	266.517	515.680	440.782	309.135	221.125	346.514	497.139	510.834	503.419	369.998	387.688	531.246	179.483	422.284	0.00031311	0.00044317	8.2286e-05	863.11	1.4673e-05	4.5234e-06	570.63	260.07	5.6948e-06	2.0918e-06	176.15	57.902	87.522	38.542	2.3818e-06	27.621	0.00090936	0.00095131	0.00026969	877.73	1.0409e-05	1.0667e-05	586.5	265.57	1.0474e-05	1.055e-05	185.85	60.787	90.655	39.832	1.0312e-05	29.148	281.299	271.423	308.374	188.908	371.167	316.637	186.917	193.530	528.606	288.334	190.587	195.239	197.546	201.104	286.358	197.097	-8191	255	
14575.486	1	1	0	0	0.17136	0.047096	0.10368	0.25558	0.21626	0.058271	0.18765	0.13798	0.10208	0.085599	0.25938	0.041455	0.22548	0.43317	0.082758	0.34016	0.11458	-1.3896	-0.50417	-0.92292	-1.1771	-0.37083	-1.3188	-1.025	-0.32083	-1.3479	-0.51875	-0.75208	-1.2687	-0.50625	-1.0896	-0.91042	348.058	202.209	298.998	378.746	356.763	316.416	188.791	220.933	358.068	474.404	498.113	397.823	194.480	456.598	383.762	417.098	0.00028365	4.9028e-05	5.8844e-05	862.34	7.1684e-06	4.3038e-06	575.13	260.74	2.1386e-06	2.9647e-06	176.5	57.455	87.068	38.618	4.5037e-06	27.228	0.00090074	0.00096208	0.0002667	877.07	1.0393e-05	1.0559e-05	588.49	265.58	1.0484e-05	1.0453e-05	185.94	60.577	90.121	39.857	1.0358e-05	29.125	273.319	181.047	500.976	188.863	340.116	392.225	187.379	193.517	266.659	286.045	190.707	194.758	198.250	201.264	319.158	197.239	-8191	255	
14575.605	1	1	0	0	0.30427	0.080673	0.27245	0.13198	0.13696	0.0347	0.37298	0.24644	0.20601	0.048579	0.10713	0.12574	0.34927	0.21477	0.30592	0.20225	-0.022917	-1.3188	-0.74792	-0.63125	-1.2042	-0.53542	-0.95833	-1.0312	-0.42708	-1.2229	-0.93958	-0.51458	-1.3854	-0.45	-1.0375	-1.1604	374.835	413.374	377.370	290.435	317.240	239.768	380.569	448.310	264.262	450.359	260.942	186.546	423.265	261.591	218.670	508.712	0.00028907	0.0011824	3.4083e-05	862.48	2.4576e-06	4.4458e-06	573.5	259.35	1.8705e-06	2.5354e-06	177.02	56.628	86.553	38.624	2.4161e-06	27.311	0.00090945	0.00096279	0.0002676	878.24	1.0544e-05	1.0578e-05	589.19	264.49	1.0543e-05	1.0644e-05	185.96	60.201	89.546	39.882	1.0653e-05	29.047	285.582	282.449	251.585	188.891	413.830	383.379	187.238	193.539	365.724	356.756	190.871	195.281	197.666	201.213	316.417	197.336	-8191	255	
14575.701	1	1	0	0	0.49115	0.12067	0.083535	0.3855	0.23166	0.15486	0.14587	0.23232	0.19355	0.23668	0.21654	0.12281	0.10154	0.25723	0.1134	0.31323	0.022917	-1.1875	-0.6625	-0.51458	-1.5917	-0.5625	-0.78333	-1.2417	-0.38125	-1.0938	-0.85625	-0.61458	-1.175	-0.46458	-0.95833	-1.2125	515.905	489.975	183.019	175.772	515.250	477.539	513.749	510.213	244.969	274.636	208.613	496.090	521.282	194.506	336.340	175.439	0.00029454	0.00035605	5.1276e-05	858.81	2.2394e-06	6.1316e-06	570.3	258.95	3.49e-06	2.2088e-06	176.28	57.085	86.688	38.34	4.03e-07	27.432	0.0008989	0.0009729	0.00027159	875.16	1.0599e-05	1.0761e-05	587.19	264.02	1.0582e-05	1.0642e-05	185.07	60.04	89.399	39.574	1.0495e-05	28.929	273.663	532.417	245.365	188.707	317.399	344.395	186.898	193.342	286.310	327.251	190.300	194.594	197.749	200.969	197.065	196.793	-8191	255	
14575.797	1	1	0	0	0.15667	0.24988	0.065502	0.32616	0.17593	0.12123	0.079363	0.15017	0.22281	0.11529	0.19986	0.049091	0.14598	0.13901	0.14841	0.22654	-0.15	-1.0792	-0.85	-0.43542	-1.3438	-0.6	-0.92083	-1.3646	-0.31042	-1.15	-0.88333	-0.62708	-1.1979	-0.44583	-0.88542	-1.1208	252.320	314.330	362.293	386.353	385.334	201.576	267.881	204.434	265.334	486.643	493.301	204.531	295.675	463.205	483.758	464.982	0.00033765	0.00042073	4.0712e-05	857.72	4.5158e-06	3.8612e-06	565.13	257.21	7.4223e-06	2.1983e-06	175.85	56.571	86.517	38.397	1.3525e-06	27.587	0.00089894	0.00096321	0.00026947	874.32	1.052e-05	1.0743e-05	584.69	263.37	1.0546e-05	1.0669e-05	184.76	59.867	89.283	39.685	1.0656e-05	29.035	284.423	332.465	215.477	188.855	250.371	338.283	186.916	193.415	298.284	461.539	190.576	194.479	198.010	201.100	323.913	197.298	-8191	255	
14575.918	1	1	0	0	0.081416	0.10032	0.19785	0.0049981	0.16277	0.13841	0.31392	0.22076	0.17736	0.24473	0.14343	0.36366	0.095507	0.22644	0.087737	0.30986	0.047917	-1.0333	-1.025	-0.39375	-1.4292	-0.86667	-0.74792	-1.3646	-0.38333	-1.0104	-1.1208	-0.49792	-1.3062	-0.78542	-0.65208	-1.325	239.585	301.036	311.961	495.121	207.108	322.589	472.622	504.293	437.684	517.483	443.872	443.542	514.397	472.472	440.802	491.480	0.00030175	0.00020393	8.4721e-05	859.06	6.2578e-06	2.4613e-06	570.72	256.92	4.8598e-07	7.5518e-06	175.93	56.733	86.173	38.687	8.3201e-06	27.547	0.00091138	0.0009631	0.00026694	875.3	1.048e-05	1.0617e-05	587.41	263.04	1.0532e-05	1.0562e-05	184.71	59.973	89.229	39.85	1.0615e-05	29.194	272.799	200.296	369.277	188.301	410.366	235.451	187.090	193.268	525.413	335.938	190.137	194.762	198.065	200.602	308.833	196.780	-8191	255	
14575.989	1	1	0	0	0.085172	0.14599	0.179	0.27033	0.12747	0.099095	0.021663	0.15464	0.24709	0.34195	0.090707	0.17865	0.24887	0.15098	0.12057	0.33579	0.070833	-0.7375	-1.1583	-0.51458	-1.1167	-0.79583	-0.53333	-1.3417	-0.42292	-0.82917	-1.1729	-0.4625	-1.2833	-1.0125	-0.42917	-1.2687	219.357	395.012	279.984	472.266	473.753	374.580	178.794	180.532	459.088	294.002	184.597	467.839	515.071	443.598	285.933	518.160	0.00032028	0.00028331	5.1467e-05	855.18	6.9084e-06	4.0171e-06	573.61	258.43	7.1081e-06	8.019e-06	177.34	57.745	87.195	38.765	3.5884e-06	27.981	0.00090162	0.00096774	0.00027385	873.83	1.0551e-05	1.07e-05	590.71	263.69	1.0555e-05	1.0669e-05	186.86	60.721	89.992	40.168	1.0578e-05	29.493	285.908	327.526	270.797	188.675	229.038	315.697	187.004	193.311	327.532	319.013	189.831	194.787	197.532	200.711	331.995	196.675	-8191	255	
14576.085	1	1	0	0	0.2365	0.11144	0.071855	0.18376	0.09854	0.012316	0.18277	0.26642	0.12589	0.043094	0.33824	0.14407	0.08402	0.15672	0.14009	0.016704	-0.18958	-0.64167	-1.2292	-0.6375	-1.1417	-1.0667	-0.47917	-1.5604	-0.5375	-0.83542	-1.3583	-0.50625	-1.2188	-1.1208	-0.36875	-1.4188	512.873	201.794	497.273	451.768	458.312	416.593	512.077	531.542	484.638	226.680	405.767	476.379	298.667	495.213	363.052	232.554	0.000382	0.00049278	0.00010825	863.15	3.3292e-06	4.6509e-06	571.62	259.98	4.6692e-06	8.5553e-06	176.72	57.53	87.626	39.066	6.5442e-06	27.856	0.00089762	0.0009691	0.00026819	876.69	1.0359e-05	1.0637e-05	590.82	265	1.0542e-05	1.0626e-05	186.62	60.921	90.382	40.244	1.0517e-05	29.313	279.048	211.293	323.534	188.339	360.521	250.548	186.685	193.285	345.025	346.821	190.413	194.569	197.668	200.730	284.127	196.466	-8191	255	
14576.182	1	1	0	0	0.17726	0.062553	0.23806	0.2908	0.34456	0.17276	0.22664	0.075919	0.10207	0.1598	0.24234	0.25578	0.069197	0.289	0.23846	0.1925	-0.35833	-0.62083	-1.15	-0.63542	-0.89583	-1.1771	-0.50208	-1.3667	-0.7	-0.64583	-1.4125	-0.52292	-1.1063	-1.2646	-0.49792	-1.1812	472.460	215.087	227.890	441.167	463.382	481.918	524.931	204.280	228.487	532.205	283.502	491.957	525.570	460.352	503.161	227.760	0.00042532	0.00053366	0.00012475	859.72	1.097e-05	7.712e-06	575.41	258.03	5.1453e-06	4.1259e-06	176.73	58.055	88.067	39.204	5.5652e-06	28.075	0.00089064	0.00096156	0.00026434	875.2	1.0362e-05	1.0588e-05	589.28	264.83	1.0422e-05	1.0601e-05	187.05	61.243	90.844	40.443	1.046e-05	29.592	290.878	290.320	221.958	188.652	358.124	334.450	186.954	193.193	322.465	304.522	190.154	194.652	197.844	200.935	363.645	196.705	-8191	255	
14576.278	1	1	0	0	0.13813	0.13062	0.20748	0.16282	0.26598	0.12411	0.28154	0.09005	0.15809	0.10101	0.1362	0.07542	0.22848	0.20531	0.22532	0.29694	-0.59167	-0.51042	-1.3271	-0.66667	-0.91458	-1.2188	-0.1875	-1.1458	-0.93333	-0.35417	-1.4438	-0.58125	-0.775	-1.1437	-0.54583	-1.1854	477.585	477.517	379.181	286.074	471.329	513.015	211.649	254.943	369.505	509.103	477.242	189.182	521.270	474.879	400.728	507.264	0.0002237	0.0010543	0.00015586	860.77	1.2404e-05	4.9514e-06	575.02	260.52	5.7809e-06	4.9117e-06	178.09	57.64	88.513	39.335	6.9735e-06	28.059	0.00089869	0.0009494	0.00026588	877.29	1.0434e-05	1.0535e-05	591.13	266	1.0346e-05	1.0524e-05	187.73	61.353	91.09	40.569	1.028e-05	29.544	290.342	252.461	215.738	188.528	383.322	389.470	186.968	193.132	354.637	358.620	190.509	194.234	197.635	200.696	323.977	196.389	-8191	255	
14576.398	1	1	0	0	0.30064	0.1832	0.032231	0.28842	0.16457	0.20324	0.23754	0.10463	0.30192	0.18122	0.1431	0.25817	0.14272	0.23767	0.1629	0.09492	-0.71042	-0.40417	-1.2687	-0.91042	-0.7125	-1.1938	-0.49167	-1.2062	-1.0229	-0.49583	-1.1667	-0.77292	-0.66667	-1.3542	-0.32083	-1.1146	342.462	403.928	428.693	471.968	263.548	274.617	455.131	455.941	405.417	270.298	330.251	178.335	430.029	349.823	482.494	227.331	0.00035569	0.00017836	0.00010386	863.1	5.2653e-06	9.403e-06	577.06	261.22	3.646e-06	3.2739e-06	179.2	58.564	87.893	39.257	2.2449e-06	28.321	0.00088784	0.00094703	0.00026194	878.43	1.039e-05	1.0418e-05	593.38	266.54	1.0554e-05	1.0551e-05	188.45	61.601	91.144	40.639	1.0472e-05	29.871	286.436	324.529	334.938	188.649	343.610	287.387	186.989	193.505	381.828	314.901	190.152	194.618	197.546	200.757	269.333	196.494	-8191	255	
14576.494	1	1	0	0	0.13705	0.33566	0.29328	0.1467	0.10323	0.16323	0.23483	0.31535	0.15789	0.18271	0.23268	0.15932	0.35103	0.32386	0.24001	0.15498	-0.66667	-0.1625	-1.1437	-1.0458	-0.425	-1.3979	-0.47292	-0.95625	-1.0396	-0.36042	-1.1292	-0.78958	-0.35208	-1.7458	-0.575	-0.64792	449.598	534.766	374.740	207.064	262.055	231.051	433.365	445.660	179.668	384.738	418.969	458.306	305.531	302.154	454.590	410.094	0.00034467	0.00025221	0.00012487	865.26	2.0704e-06	3.5733e-06	578.75	261.38	7.0288e-06	3.9244e-06	179.66	58.535	88.778	39.412	7.2088e-06	28.25	0.00089751	0.00095979	0.0002663	879.67	1.0337e-05	1.0296e-05	595.75	267.39	1.0391e-05	1.0498e-05	189.68	61.759	91.472	40.7	1.0336e-05	29.662	296.242	348.768	494.525	188.565	409.168	338.771	186.988	193.314	331.122	260.558	190.794	194.665	197.731	201.104	313.615	196.514	-8191	255	
14576.591	1	1	0	0	0.11862	0.10297	0.21982	0.4897	0.26055	0.058436	0.19168	0.10194	0.12949	0.13636	0.28656	0.052779	0.09438	0.25487	0.061164	0.30333	-0.81458	-0.25417	-0.95417	-0.98333	-0.45833	-1.6	-0.67083	-0.84583	-1.1729	-0.44792	-1.1625	-0.96875	-0.55208	-1.2104	-0.49583	-0.74375	378.224	275.676	207.549	488.538	309.773	283.567	523.802	376.253	362.562	240.982	274.553	469.937	339.065	499.019	189.368	198.675	0.00031755	0.00046488	6.1477e-05	862.73	3.1848e-06	8.4082e-06	573	260.15	2.4221e-06	4.8e-06	178.04	58.144	88.09	39.281	6.7817e-06	27.845	0.00088989	0.0009496	0.00026251	878.73	1.0314e-05	1.0273e-05	591.66	266.54	1.0273e-05	1.036e-05	187.63	61.111	90.954	40.517	1.0311e-05	29.347	270.631	303.550	521.886	188.530	258.703	366.762	186.846	193.387	362.473	387.270	190.532	194.823	197.894	200.977	395.212	196.995	-8191	255	
14576.687	1	1	0	0	0.4257	0.15651	0.37409	0.11435	0.26091	0.22417	0.13718	0.11859	0.18922	0.34284	0.12268	0.19719	0.35094	0.23467	0.15914	0.27963	-0.84375	-0.3875	-1.0083	-1.1479	-0.45	-1.2646	-0.8875	-0.65417	-1.2625	-0.425	-1.0125	-0.98333	-0.41875	-1.225	-0.76667	-0.34792	447.483	403.980	262.697	457.099	435.683	232.304	436.180	451.265	302.770	458.925	521.968	336.913	517.890	178.110	416.388	471.358	0.0002415	0.00032718	4.2221e-05	865.28	5.5815e-06	5.0781e-06	576.61	260.64	7.6512e-06	4.744e-06	178.31	58.262	87.824	39.517	4.713e-06	28.187	0.00087971	0.00092874	0.00026172	880.1	1.0259e-05	1.0397e-05	592.45	266.8	1.0314e-05	1.0402e-05	187.7	61.234	90.766	40.789	1.0365e-05	29.666	281.150	273.218	267.963	188.476	297.303	346.594	186.958	193.560	349.365	346.251	190.297	194.803	197.913	201.072	355.455	196.916	-8191	255	
14576.781	1	1	0	0	0.074583	0.10227	0.049516	0.1737	0.26633	0.19498	0.38936	0.25472	0.12465	0.052588	0.19793	0.18598	0.13787	0.29526	0.19063	0.10638	-0.94792	-0.5625	-0.68542	-1.2062	-0.35208	-1.2271	-0.79792	-0.62917	-1.275	-0.45417	-0.91458	-1.0708	-0.31875	-1.1271	-0.83125	-0.53958	247.429	227.610	239.619	205.746	392.318	365.265	442.767	412.489	314.947	441.817	207.823	281.223	511.714	456.634	526.173	249.767	0.00025061	0.00044764	0.0001285	861.31	7.1673e-06	3.0214e-06	579.89	261.35	5.3262e-06	1.6373e-06	180.61	59.116	87.855	39.639	1.4061e-06	28.478	0.00089296	0.00093965	0.00026364	877.95	1.0397e-05	1.0414e-05	594.69	266.93	1.0349e-05	1.0567e-05	189.26	61.728	91.024	40.978	1.0324e-05	29.909	281.573	259.592	229.723	188.676	407.509	365.148	186.783	193.485	321.980	379.301	190.447	194.468	197.786	200.976	399.726	196.436	-8191	255	
14576.879	1	1	0	0	0.17878	0.1175	0.28759	0.08056	0.19667	0.11352	0.34608	0.12657	0.33992	0.12897	0.24194	0.073275	0.10283	0.14267	0.11769	0.23437	-0.61667	-0.5875	-0.70417	-1.3271	-0.3375	-1.2542	-0.94583	-0.45625	-1.2417	-0.73333	-0.72292	-1.3292	-0.4	-1.0896	-0.98333	-0.3875	458.711	261.708	416.665	509.223	445.548	256.011	485.666	230.914	220.162	281.547	420.106	449.294	228.203	426.666	202.007	453.003	0.00026387	0.0005016	4.3511e-05	866.32	7.1157e-06	2.3303e-06	581.21	262.42	7.5646e-06	4.92e-06	178.38	58.498	88.333	39.991	2.8411e-06	28.376	0.000884	0.00096241	0.00026601	879.09	1.0308e-05	1.043e-05	596.86	266.92	1.0466e-05	1.0588e-05	189.17	61.607	91.049	41.075	1.0528e-05	30.013	274.992	342.159	450.394	188.523	358.718	361.709	186.923	193.569	331.270	307.928	190.839	194.383	197.987	201.011	392.173	196.904	-8191	255	
14576.998	1	1	0	0	0.093126	0.19982	0.31568	0.31904	0.15972	0.2039	0.27891	0.17265	0.097536	0.24857	0.25756	0.2535	0.19312	0.11462	0.12436	0.26592	-0.96458	-0.76458	-0.52708	-1.4312	-0.40833	-0.92292	-1.1208	-0.4625	-1.2646	-0.80208	-0.63958	-1.3042	-0.43958	-1.0167	-1.2708	-0.39375	330.268	484.957	271.745	457.336	468.481	375.704	526.292	203.450	506.846	487.894	220.988	256.479	215.944	384.646	504.860	213.481	0.00034111	0.0010302	0.00024064	866.49	3.6317e-06	1.2066e-06	581.59	261.12	3.7004e-07	1.0689e-06	178.38	57.844	88.098	39.949	5.5057e-06	28.252	0.00089188	0.0009514	0.00026751	878.3	1.0345e-05	1.0477e-05	596.04	266.53	1.0464e-05	1.0471e-05	188.34	61.223	90.744	41.111	1.0427e-05	29.784	283.606	233.851	285.986	188.736	268.252	386.701	187.230	193.625	357.424	521.285	190.546	194.434	197.712	201.401	357.540	196.945	-8191	255	
14577.094	1	1	0	0	0.21739	0.037214	0.10732	0.038022	0.20365	0.071812	0.1162	0.23039	0.1257	0.14817	0.16167	0.3024	0.26679	0.25694	0.14433	0.20217	-0.75625	-0.6875	-0.54792	-1.4333	-0.35208	-0.55	-1.1833	-0.35625	-1.0312	-0.86875	-0.33125	-1.4479	-0.88958	-0.75	-1.2646	-0.42917	520.200	477.454	399.783	487.472	341.093	465.853	221.128	194.112	290.920	335.056	421.823	234.253	481.447	525.340	501.989	532.655	0.00027754	0.0003416	0.0001462	854.55	8.6475e-06	1.1559e-06	577.05	260.18	4.8575e-07	4.892e-06	180.34	57.866	87.073	39.866	1.9726e-06	28.388	0.00089327	0.00096003	0.00026599	874.29	1.0418e-05	1.048e-05	596.16	266.44	1.0434e-05	1.0596e-05	188.74	61.029	90.118	41.179	1.057e-05	29.872	286.715	409.319	314.103	188.632	323.923	450.308	187.247	193.502	315.406	295.018	190.219	194.955	197.726	201.326	323.621	196.884	-8191	255	
14577.190	1	1	0	0	0.05084	0.26969	0.23267	0.20067	0.34507	0.25226	0.080565	0.070852	0.05131	0.13345	0.21524	0.23581	0.33553	0.058723	0.18918	0.035559	-0.51667	-0.9875	-0.35	-1.3396	-0.7625	-0.54583	-1.4292	-0.38125	-0.96667	-1.2	-0.45625	-1.1958	-0.79375	-0.47083	-1.2437	-0.59375	390.694	448.369	449.715	473.344	190.007	198.427	479.893	430.983	279.855	429.180	456.213	185.589	417.889	307.610	177.551	261.457	0.00037573	0.00025569	0.00016707	861.62	2.2425e-06	3.8229e-06	580.62	260.02	6.3401e-06	5.3532e-06	181.18	57.931	88.165	40.104	6.989e-06	28.799	0.00090331	0.00096189	0.00027157	875.98	1.0654e-05	1.0713e-05	597.2	266.12	1.0456e-05	1.0657e-05	189.79	61.234	90.726	41.471	1.0499e-05	30.252	277.173	336.136	366.856	188.848	372.287	333.834	186.692	193.522	331.014	339.428	190.690	194.756	197.791	201.389	375.503	196.753	-8191	255	
14577.286	1	1	0	0	0.16626	0.1615	0.2429	0.058582	0.16354	0.39749	0.21246	0.43902	0.14919	0.14583	0.17776	0.28656	0.13855	0.28739	0.15442	0.10481	-0.7125	-1.1208	-0.44167	-1.3438	-0.7625	-0.60625	-1.3	-0.55625	-1.025	-1.3458	-0.68125	-1.4208	-0.97083	-0.51667	-1.5	-0.9125	176.156	366.089	419.586	484.754	393.797	326.896	510.813	521.628	305.959	329.891	491.967	461.685	346.899	502.340	433.576	459.876	0.00030956	0.00048542	0.00010119	860.16	9.5342e-06	1.8083e-06	586.01	262.45	2.7738e-06	1.0177e-06	181.96	58.66	88.246	40.677	1.4971e-06	29.002	0.0009009	0.00096997	0.0002683	875.45	1.0526e-05	1.0724e-05	601	267.63	1.0458e-05	1.0493e-05	191.03	61.793	91.042	41.796	1.0527e-05	30.425	271.188	237.025	305.252	188.825	273.291	261.170	187.239	193.547	308.128	229.901	190.755	194.627	197.757	201.265	353.946	196.784	-8191	255	
#DATA ENDS
