BOXY.EXE: ISS Imagent and Oximeter Data Acquisition Program Version 0.80
Ascii Record File

#ACQ INFORMATION
2  Detector Channels 
16  External MUX Channels 
1  Auxiliary Channels 
5000  Waveform (CCF) Frequency (Hz)
1  Waveforms Skipped 
30  Waveforms Averaged 
1  Cycles Averaged 
16  Acquisitions per Waveform 
10.0806  Updata Rate (Hz) 

#FILE INFORMATION
TRUE -- External MUX Channel results are PARSED.
FALSE -- AC DC and Phase are NOT grouped.
TRUE -- Companion Program Settings File CREATED.
FALSE -- AC data not excluded
FALSE -- DC data not excluded
FALSE -- Phase data not excluded
FALSE -- Auxillary Chn. data not excluded
Tab delimiters

#CALIBRATION STATE
TRUE -- Waveform Calibration Values APPLIED.


#AUX CALIBRATION VALUES
Val Type	aux-1	

Term	1.0000e+00	
Factor	0.0000e+00	


#WF CALIBRATION VALUES
A = Detector Channel
Val Type	A-AC1	A-AC2	A-AC3	A-AC4	A-AC5	A-AC6	A-AC7	A-AC8	A-AC9	A-AC10	A-AC11	A-AC12	A-AC13	A-AC14	A-AC15	A-AC16	A-DC1	A-DC2	A-DC3	A-DC4	A-DC5	A-DC6	A-DC7	A-DC8	A-DC9	A-DC10	A-DC11	A-DC12	A-DC13	A-DC14	A-DC15	A-DC16	A-Ph1	A-Ph2	A-Ph3	A-Ph4	A-Ph5	A-Ph6	A-Ph7	A-Ph8	A-Ph9	A-Ph10	A-Ph11	A-Ph12	A-Ph13	A-Ph14	A-Ph15	A-Ph16	

Term	0.00000e+00	0.00000e+00	0.00000e+00	0.00000e+00	0.00000e+00	0.00000e+00	0.00000e+00	0.00000e+00	0.00000e+00	0.00000e+00	0.00000e+00	0.00000e+00	0.00000e+00	0.00000e+00	0.00000e+00	0.00000e+00	0.00000e+00	0.00000e+00	0.00000e+00	0.00000e+00	0.00000e+00	0.00000e+00	0.00000e+00	0.00000e+00	0.00000e+00	0.00000e+00	0.00000e+00	0.00000e+00	0.00000e+00	0.00000e+00	0.00000e+00	0.00000e+00	0.00000e+00	0.00000e+00	0.00000e+00	0.00000e+00	0.00000e+00	0.00000e+00	0.00000e+00	0.00000e+00	0.00000e+00	0.00000e+00	0.00000e+00	0.00000e+00	0.00000e+00	0.00000e+00	0.00000e+00	0.00000e+00	
Factor	1.00000e+00	1.00000e+00	1.00000e+00	1.00000e+00	1.00000e+00	1.00000e+00	1.00000e+00	1.00000e+00	1.00000e+00	1.00000e+00	1.00000e+00	1.00000e+00	1.00000e+00	1.00000e+00	1.00000e+00	1.00000e+00	1.00000e+00	1.00000e+00	1.00000e+00	1.00000e+00	1.00000e+00	1.00000e+00	1.00000e+00	1.00000e+00	1.00000e+00	1.00000e+00	1.00000e+00	1.00000e+00	1.00000e+00	1.00000e+00	1.00000e+00	1.00000e+00	X	X	X	X	X	X	X	X	X	X	X	X	X	X	X	X	

B = Detector Channel
Val Type	B-AC1	B-AC2	B-AC3	B-AC4	B-AC5	B-AC6	B-AC7	B-AC8	B-AC9	B-AC10	B-AC11	B-AC12	B-AC13	B-AC14	B-AC15	B-AC16	B-DC1	B-DC2	B-DC3	B-DC4	B-DC5	B-DC6	B-DC7	B-DC8	B-DC9	B-DC10	B-DC11	B-DC12	B-DC13	B-DC14	B-DC15	B-DC16	B-Ph1	B-Ph2	B-Ph3	B-Ph4	B-Ph5	B-Ph6	B-Ph7	B-Ph8	B-Ph9	B-Ph10	B-Ph11	B-Ph12	B-Ph13	B-Ph14	B-Ph15	B-Ph16	

Term	0.00000e+00	0.00000e+00	0.00000e+00	0.00000e+00	0.00000e+00	0.00000e+00	0.00000e+00	0.00000e+00	0.00000e+00	0.00000e+00	0.00000e+00	0.00000e+00	0.00000e+00	0.00000e+00	0.00000e+00	0.00000e+00	0.00000e+00	0.00000e+00	0.00000e+00	0.00000e+00	0.00000e+00	0.00000e+00	0.00000e+00	0.00000e+00	0.00000e+00	0.00000e+00	0.00000e+00	0.00000e+00	0.00000e+00	0.00000e+00	0.00000e+00	0.00000e+00	-8.46031e+01	-1.24328e+02	-1.34512e+02	-1.81699e+02	-5.65765e+01	-6.78973e+01	-1.56588e+02	-1.62015e+02	-4.89682e+01	-6.14460e+01	-1.72047e+02	-1.69354e+02	-1.85172e+02	-1.76661e+02	-5.95041e+01	-1.48927e+02	
Factor	1.85394e-05	1.34008e-04	4.54980e-05	1.65179e-01	1.51047e-06	1.75494e-06	1.84651e-01	5.45619e-02	1.21076e-06	1.81770e-06	9.52945e-02	3.13381e-02	2.68894e-02	1.02662e-02	1.54598e-06	1.46995e-02	3.18428e-06	3.57193e-06	9.92978e-07	8.46290e-02	3.85947e-08	3.91772e-08	8.89079e-02	2.80802e-02	3.85441e-08	3.91043e-08	4.71625e-02	1.56485e-02	1.38985e-02	5.29215e-03	3.88907e-08	7.31696e-03	X	X	X	X	X	X	X	X	X	X	X	X	X	X	X	X	



#DISTANCE SETTINGS
A = Detector Channel
A-1	A-2	A-3	A-4	A-5	A-6	A-7	A-8	A-9	A-10	A-11	A-12	A-13	A-14	A-15	A-16	

2.5000e+00	3.0000e+00	2.5000e+00	3.0000e+00	2.0000e+00	3.0000e+00	1.5000e+00	3.0000e+00	3.0000e+00	3.0000e+00	3.0000e+00	3.0000e+00	3.0000e+00	3.0000e+00	1.5000e+00	3.0000e+00	

B = Detector Channel
B-1	B-2	B-3	B-4	B-5	B-6	B-7	B-8	B-9	B-10	B-11	B-12	B-13	B-14	B-15	B-16	

1.0000e+01	1.0000e+01	1.0000e+01	1.4400e+00	1.0000e+01	1.0000e+01	1.5100e+00	1.9400e+00	1.0000e+01	1.0000e+01	1.9900e+00	2.4900e+00	2.4100e+00	2.9000e+00	1.0000e+01	2.9800e+00	




#DATA BEGINS
time	group	step	mark	flag	A-AC1	A-AC2	A-AC3	A-AC4	A-AC5	A-AC6	A-AC7	A-AC8	A-AC9	A-AC10	A-AC11	A-AC12	A-AC13	A-AC14	A-AC15	A-AC16	A-DC1	A-DC2	A-DC3	A-DC4	A-DC5	A-DC6	A-DC7	A-DC8	A-DC9	A-DC10	A-DC11	A-DC12	A-DC13	A-DC14	A-DC15	A-DC16	A-Ph1	A-Ph2	A-Ph3	A-Ph4	A-Ph5	A-Ph6	A-Ph7	A-Ph8	A-Ph9	A-Ph10	A-Ph11	A-Ph12	A-Ph13	A-Ph14	A-Ph15	A-Ph16	B-AC1	B-AC2	B-AC3	B-AC4	B-AC5	B-AC6	B-AC7	B-AC8	B-AC9	B-AC10	B-AC11	B-AC12	B-AC13	B-AC14	B-AC15	B-AC16	B-DC1	B-DC2	B-DC3	B-DC4	B-DC5	B-DC6	B-DC7	B-DC8	B-DC9	B-DC10	B-DC11	B-DC12	B-DC13	B-DC14	B-DC15	B-DC16	B-Ph1	B-Ph2	B-Ph3	B-Ph4	B-Ph5	B-Ph6	B-Ph7	B-Ph8	B-Ph9	B-Ph10	B-Ph11	B-Ph12	B-Ph13	B-Ph14	B-Ph15	B-Ph16	aux-1	digaux	

21165.225	1	1	0	768	0.097212	0.29787	0.21183	0.16578	0.18243	0.17712	0.18444	0.20698	0.13998	0.15706	0.1805	0.095023	0.31411	0.39153	0.17281	0.55578	0.05	-0.80625	-0.90208	-0.38125	-0.97083	-0.74792	-0.41042	-1.3687	-0.39792	-0.71875	-1.2104	-0.44792	-1.1979	-0.95208	-0.30208	-1.1917	179.488	247.408	153.761	166.987	254.037	32.999	136.067	203.611	187.524	-79.615	155.522	-55.324	254.468	209.152	200.685	-51.669	0.00043841	0.00024423	0.00045439	1435.1	9.3274e-06	2.3807e-05	866.57	462.92	1.4525e-05	1.4312e-05	292.44	109.97	184.75	82.125	1.3956e-05	51.511	0.0066402	0.0073809	0.0020471	1503.2	7.922e-05	8.0291e-05	982.52	488.64	7.9025e-05	7.9957e-05	365.83	134.27	200.92	87.232	7.9601e-05	62.43	224.608	-7.106	-25.201	-81.310	4.513	76.632	-83.617	-76.701	-78.376	254.726	-80.561	-75.853	-72.408	-68.029	120.169	-71.679	-8191	255	
21165.320	1	1	0	0	0.17543	0.34202	0.038456	0.36029	0.1064	0.17041	0.19802	0.16985	0.1986	0.18315	0.044957	0.20952	0.23616	0.41881	0.16773	0.36208	0.17708	-0.35	-0.95208	-0.36875	-1.0938	-0.70833	-0.40208	-1.5208	-0.38542	-0.62917	-1.1479	-0.16458	-0.81458	-1.0333	-0.38333	-1.0729	28.338	92.780	194.695	213.766	-47.522	75.708	-45.183	216.946	166.877	37.714	-47.052	259.812	-91.236	160.349	225.923	174.754	0.00044216	0.00041721	0.00068885	1442.5	1.6564e-05	5.4363e-06	869.05	460.98	2.0427e-05	1.5928e-05	292.69	109.13	185.17	82.049	9.8776e-06	51.148	0.0065489	0.0073105	0.0020263	1500.7	7.8377e-05	7.9806e-05	983.18	487.2	7.8723e-05	7.9731e-05	364.57	133	200.62	87.311	7.9607e-05	62.194	187.667	107.359	33.705	-81.592	5.751	-45.572	-83.594	-76.638	145.037	153.559	-80.221	-75.868	-72.549	-67.710	159.683	-71.846	-8191	255	
21165.418	1	1	0	0	0.15871	0.20092	0.28063	0.28028	0.2468	0.14633	0.22014	0.35692	0.20158	0.15209	0.03929	0.34859	0.21916	0.099352	0.32501	0.084972	-0.33125	-0.33333	-1.1063	-0.51458	-0.93542	-0.96667	-0.46458	-1.0979	-0.6375	-0.40625	-1.1292	-0.34792	-0.94792	-1.3646	-0.22917	-1.1229	16.909	-76.783	42.513	220.857	-0.081	85.910	220.235	229.137	83.304	250.895	126.006	148.299	218.949	221.411	48.929	252.533	0.00033101	0.00070985	0.00080015	1438.7	4.0888e-06	1.0911e-05	867.22	463.42	5.8472e-06	3.0321e-05	292.41	109.1	184.27	82.427	1.7029e-05	51.903	0.006542	0.0073	0.0020306	1506.5	7.8801e-05	8.0416e-05	981.11	489.11	7.8498e-05	7.9604e-05	366.03	133.42	200.21	87.579	7.8893e-05	62.524	253.958	216.261	-60.116	-81.582	185.194	135.145	-83.333	-76.864	-39.869	96.040	-80.171	-75.743	-72.294	-68.206	43.294	-71.183	-8191	255	
21165.514	1	1	0	0	0.25396	0.22352	0.39893	0.14886	0.20214	0.33053	0.115	0.34551	0.11191	0.22368	0.16668	0.063572	0.077235	0.36876	0.228	0.22832	-0.38333	-0.28958	-1.0042	-0.48125	-0.84167	-1.0292	-0.28333	-1.1104	-0.73125	-0.27708	-1.2917	-0.54375	-0.74583	-1.2646	-0.2375	-0.8875	4.593	-87.439	79.361	-28.469	203.663	28.925	-28.605	218.185	158.328	86.649	123.350	121.971	186.875	215.536	151.809	142.829	0.00016908	0.00073753	0.00028284	1433.1	1.6568e-05	3.4868e-05	866.79	463.5	8.7883e-06	5.6831e-06	291.42	109.83	184.77	82.674	9.0811e-06	51.924	0.0064243	0.0071912	0.0019881	1498.4	7.6717e-05	7.7233e-05	973.14	485.98	7.5097e-05	7.6154e-05	360.07	131.63	198.68	86.993	7.474e-05	61.682	116.133	-93.030	246.584	-81.269	23.318	62.819	-83.483	-76.641	122.864	83.649	-79.667	-76.125	-72.432	-68.034	122.993	-71.309	-8191	255	
21165.609	1	1	0	0	0.049831	0.22529	0.1007	0.32618	0.0079488	0.098781	0.146	0.33932	0.26638	0.21044	0.2151	0.11136	0.19545	0.089617	0.25294	0.30457	-0.41667	-0.091667	-1.325	-0.6125	-0.43333	-1.1354	-0.29583	-1.0875	-1.0021	-0.16667	-1.2687	-0.68125	-0.70625	-1.3917	-0.1625	-0.88958	89.083	76.786	-82.277	199.104	124.070	102.140	66.479	178.343	-10.925	204.468	194.201	-82.250	-70.216	166.453	-47.556	31.658	8.7065e-05	0.00023218	9.0032e-05	1437.9	1.2747e-05	1.0601e-05	865.38	463.55	1.4893e-05	8.1701e-06	294.99	109.89	185.58	83.042	1.4808e-05	52.249	0.0061599	0.0068854	0.0019259	1491.1	7.4948e-05	7.6315e-05	973.96	486.17	7.5343e-05	7.6993e-05	363.26	133.64	200.62	87.897	7.7824e-05	63.005	-51.659	149.925	248.803	-81.555	77.746	66.830	-83.593	-76.585	-48.846	169.793	-79.822	-75.765	-72.250	-67.814	44.376	-71.343	-8191	255	
21165.705	1	1	0	0	0.24614	0.060684	0.0052078	0.11102	0.05196	0.10931	0.27295	0.36736	0.17879	0.13145	0.20992	0.19427	0.12683	0.4451	0.057523	0.12729	-0.70417	-0.09375	-0.8125	-0.83958	-0.33125	-1.1313	-0.39167	-0.79167	-0.7125	-0.11042	-1.0979	-0.68542	-0.57083	-1.4708	-0.40625	-0.67292	189.864	35.222	245.937	217.338	37.452	158.067	30.340	185.056	171.861	3.034	229.526	195.759	15.824	242.825	179.890	153.610	0.00025021	0.00054504	0.0006937	1442.7	2.9451e-05	7.7645e-06	875.38	466.86	9.1048e-06	1.3721e-05	295.52	108.26	184.64	82.25	1.8727e-05	51.301	0.0064507	0.007279	0.0020292	1511.1	7.8624e-05	8.0259e-05	991.45	493.53	7.9054e-05	8.0965e-05	367.58	133.81	200.97	87.988	8.0175e-05	62.79	216.650	-77.575	132.343	-81.384	92.946	82.638	-83.347	-76.739	-85.313	70.649	-80.176	-76.077	-72.356	-67.621	42.775	-71.697	-8191	255	
21165.826	1	1	0	0	0.09443	0.26829	0.10476	0.29588	0.23395	0.090352	0.19842	0.35601	0.033412	0.19729	0.070918	0.24687	0.096623	0.12422	0.074131	0.27747	-0.69792	-0.22917	-0.7875	-0.99375	-0.17917	-1.0312	-0.52292	-0.65833	-1.25	-0.46875	-1.1562	-0.68958	-0.36042	-1.2458	-0.46875	-0.56458	15.557	142.100	233.323	223.652	142.923	7.900	128.031	203.479	233.143	-12.713	202.790	196.379	264.685	231.382	205.139	213.069	0.00015258	0.00077786	0.00014014	1446.1	1.3294e-05	9.3581e-06	876.48	466.93	1.0835e-05	1.902e-05	291.36	108.74	183.46	83.03	2.2383e-05	51.927	0.0066698	0.0074152	0.0020724	1513.6	8.0227e-05	8.2134e-05	991.69	492.52	8.0177e-05	8.1537e-05	368.83	133.73	200.64	88.345	8.0918e-05	62.953	243.690	-49.546	72.048	-81.239	-78.108	150.705	-83.404	-76.593	37.346	60.534	-79.902	-75.589	-72.400	-67.698	51.105	-71.421	-8191	255	
21165.920	1	1	0	0	0.19271	0.30915	0.078446	0.27207	0.054558	0.23293	0.17656	0.34968	0.095859	0.26154	0.22848	0.15856	0.2845	0.10065	0.18279	0.13365	-0.84583	-0.14167	-0.95625	-1.2042	-0.33958	-1.1021	-0.725	-0.61042	-1.2062	-0.28333	-0.71875	-1.2104	-0.3875	-1.1354	-0.69792	-0.39792	230.321	138.746	183.120	261.488	216.398	172.313	214.939	200.163	33.736	27.762	-18.013	217.590	189.397	-84.921	227.432	163.804	0.00014408	0.00071489	0.0008686	1448.6	1.1995e-05	1.0628e-05	875.01	467.01	9.951e-06	1.0903e-05	292.94	108.43	185.27	82.997	5.0242e-06	51.544	0.006702	0.0075138	0.0020869	1516.4	8.056e-05	8.2142e-05	991.52	492.62	8.0721e-05	8.2139e-05	367.84	134.05	201.2	88.388	8.171e-05	63.15	228.663	265.416	164.704	-81.399	-69.074	40.184	-83.424	-76.513	-28.793	163.366	-79.659	-75.606	-72.445	-67.340	90.781	-71.345	-8191	255	
21166.018	1	1	0	0	0.071307	0.24302	0.19135	0.23479	0.1426	0.080783	0.12807	0.021898	0.039597	0.10421	0.099929	0.25615	0.12266	0.16321	0.2154	0.031778	-0.825	-0.39375	-0.60833	-1.1479	-0.13333	-1.0104	-0.875	-0.475	-1.3458	-0.52292	-0.6125	-1.3125	-0.575	-0.94583	-0.60417	-0.089583	-1.333	97.226	-14.775	145.985	207.790	120.321	-49.662	-36.422	7.630	142.908	220.133	-67.479	239.083	230.678	129.754	137.682	0.0002328	0.0012823	0.00084003	1450.5	1.9685e-05	4.9968e-06	881.25	471.37	1.5629e-05	2.2856e-05	296.98	109.71	184.99	83.462	5.1397e-06	52.509	0.0067788	0.0075903	0.0021099	1526.5	8.2347e-05	8.4289e-05	1004.7	498.68	8.3232e-05	8.4487e-05	375.12	136.8	203.51	89.283	8.5076e-05	64.352	204.052	90.254	171.602	-81.458	49.850	191.653	-83.376	-76.536	161.206	223.353	-79.667	-75.910	-72.274	-67.571	36.092	-71.185	-8191	255	
21166.111	1	1	0	0	0.15741	0.31841	0.29961	0.4558	0.065041	0.27079	0.4911	0.23353	0.019601	0.20389	0.10892	0.23653	0.096844	0.3743	0.1547	0.13753	-0.70625	-0.44583	-0.48958	-1.1688	-0.34583	-0.625	-0.80208	-0.5375	-0.96875	-0.46042	-0.53333	-1.2938	-0.55	-0.9125	-0.99167	-0.34375	-38.005	48.507	175.188	241.694	13.277	249.583	198.650	161.496	191.982	-76.230	185.656	174.771	-93.565	256.186	217.976	150.667	0.00038508	0.0013271	0.00068764	1452.5	3.8121e-06	1.9569e-05	874.86	468.8	1.9156e-05	6.0444e-06	293.6	108.47	183.69	82.595	2.1322e-05	50.988	0.0070202	0.007844	0.0021847	1531	8.4559e-05	8.5562e-05	1006.8	498.34	8.5284e-05	8.6384e-05	375.63	135.78	202.61	88.781	8.7073e-05	63.809	198.275	-2.656	-39.788	-81.242	48.127	-88.851	-83.562	-76.451	68.366	26.233	-80.328	-76.177	-72.215	-67.687	-2.127	-71.487	-8191	255	
21166.207	1	1	0	0	0.21068	0.15931	0.27957	0.37185	0.053151	0.091743	0.29985	0.46044	0.22225	0.064719	0.13486	0.26458	0.1305	0.3033	0.22801	0.16896	-0.84375	-0.58542	-0.43125	-1.3979	-0.2875	-0.61458	-1.1896	-0.24583	-0.91667	-0.8375	-0.375	-1.1146	-0.63125	-0.78333	-1.1854	-0.31042	45.154	86.392	47.749	230.636	-15.952	110.728	258.625	244.145	32.495	191.310	-61.952	194.059	212.930	207.701	135.110	-89.569	0.00032151	0.0019521	0.00019377	1450.3	1.1952e-05	2.1237e-05	881.92	468.34	1.3927e-05	3.3296e-06	292.62	106.53	183.6	81.937	1.3322e-05	51.059	0.0072181	0.0080929	0.0022574	1536.1	8.7973e-05	8.9312e-05	1014.4	500.72	8.7566e-05	8.9332e-05	378.53	135.8	203.05	88.655	8.8842e-05	63.667	193.114	-43.560	212.987	-81.094	-17.970	-30.127	-83.439	-76.707	-10.405	46.907	-79.895	-75.966	-71.945	-67.623	-4.963	-71.699	-8191	255	
21166.305	1	1	0	0	0.16602	0.1946	0.40119	0.35095	0.32271	0.2635	0.24968	0.11795	0.25969	0.17315	0.3061	0.2946	0.22794	0.092202	0.094601	0.04482	-0.72292	-0.8375	-0.23958	-1.2833	-0.42917	-0.38125	-1.4521	-0.35417	-1.025	-0.65417	-0.26875	-1.2417	-0.67083	-0.58542	-1.1833	-0.38125	77.266	43.878	201.885	239.481	-42.530	186.032	174.695	236.432	76.684	-39.555	216.236	231.643	127.702	13.815	-56.534	45.253	0.00031577	0.0016541	0.00032786	1459.8	1.4603e-05	2.1684e-05	878.93	470.34	1.0228e-05	1.679e-05	295.49	108.44	183.67	82.574	5.732e-06	51.067	0.007291	0.0081717	0.0022821	1539.9	8.8012e-05	8.9812e-05	1016.1	501.86	8.8026e-05	8.99e-05	379.71	136.87	204.03	89.02	8.9987e-05	64.342	-37.142	224.115	47.277	-81.295	159.735	68.077	-82.982	-76.647	188.941	99.543	-80.352	-75.654	-72.246	-67.327	160.223	-71.417	-8191	255	
21166.400	1	1	0	0	0.14172	0.10689	0.0048318	0.59112	0.38136	0.21306	0.1027	0.12228	0.15887	0.13806	0.12884	0.14864	0.18854	0.23815	0.17349	0.16365	-0.47083	-0.95208	-0.075	-1.2396	-0.58125	-0.46875	-1.3917	-0.31875	-0.80208	-1.0292	-0.4125	-1.0854	-0.83542	-0.43542	-1.1625	-0.4375	180.579	91.250	84.126	204.131	-0.336	15.813	79.614	232.807	223.901	-90.941	234.544	220.251	182.885	211.797	82.570	74.433	3.9823e-05	0.0012097	0.00020027	1458.8	1.1604e-05	3.0481e-06	892.35	476.1	1.4742e-05	7.8405e-06	300.62	109.19	186.03	83.093	1.3421e-05	51.849	0.0074061	0.0083073	0.002322	1552.2	9.0647e-05	9.2138e-05	1033.1	509.67	9.0983e-05	9.2961e-05	388.34	139.37	206.66	90.187	9.2439e-05	65.171	-30.254	-46.599	117.101	-81.063	-21.586	8.368	-83.168	-76.719	-93.010	-46.902	-80.442	-75.901	-72.409	-67.684	151.515	-71.829	-8191	255	
21166.521	1	1	0	0	0.084923	0.14125	0.040084	0.45649	0.24563	0.022252	0.12868	0.34715	0.22479	0.29769	0.20096	0.24306	0.22163	0.43654	0.13637	0.12888	-0.31667	-0.93542	-0.097917	-1.1646	-0.77917	-0.24375	-1.2167	-0.77292	-0.72292	-1.0458	-0.22083	-0.94583	-0.92083	-0.40208	-0.90417	-0.54167	215.251	62.121	0.707	-72.112	178.011	152.131	211.182	210.208	-77.522	138.105	-14.753	-52.234	215.058	248.950	222.248	-85.417	0.00025778	0.00098936	0.00024787	1469.2	1.878e-05	9.5989e-06	898.27	479.98	7.4759e-06	1.0544e-05	299.26	108.32	185.12	83.048	1.69e-05	51.101	0.0076021	0.0085345	0.0023696	1561.1	9.1733e-05	9.3213e-05	1040.8	514.04	9.2123e-05	9.3585e-05	387.81	138.68	205.84	89.614	9.2599e-05	64.561	191.283	-44.857	187.740	-81.008	213.483	-29.242	-82.920	-76.645	-16.257	42.751	-80.516	-75.427	-72.244	-67.630	145.133	-71.432	-8191	255	
21166.617	1	1	0	0	0.27399	0.14392	0.33173	0.25057	0.27815	0.15685	0.34521	0.24207	0.086705	0.10053	0.3139	0.051686	0.17912	0.12808	0.077834	0.13428	-0.070833	-1.1938	-0.1	-0.99375	-0.90417	-0.064583	-1.1125	-0.6625	-0.47083	-1.1896	-0.39167	-0.68958	-0.9	-0.4875	-1.0583	-0.73542	-5.410	55.632	93.121	-89.655	118.829	13.433	240.709	246.244	-51.351	-89.646	226.933	-76.613	212.337	239.734	94.656	-40.218	2.6735e-05	0.0012863	0.00011484	1459.9	2.0544e-05	1.5552e-05	884.09	473.91	4.7595e-06	2.6192e-05	293.66	107.37	184.33	81.874	1.8579e-05	50.706	0.0076214	0.0085281	0.0023615	1552	9.1753e-05	9.3216e-05	1027.5	507.15	9.2338e-05	9.4117e-05	383.36	137.32	205.05	89.089	9.297e-05	64.046	-10.350	139.464	237.415	-80.961	83.584	65.394	-83.287	-76.719	-70.890	257.679	-79.859	-75.528	-72.247	-67.469	105.870	-71.495	-8191	255	
21166.715	1	1	0	0	0.14173	0.15695	0.12772	0.066679	0.19394	0.31906	0.26948	0.39848	0.085467	0.03071	0.18027	0.15431	0.19708	0.12307	0.35082	0.11679	-0.05625	-1.0958	-0.27917	-0.85208	-0.99792	-0.18125	-0.98542	-0.92083	-0.43958	-1.0667	-0.70833	-0.63958	-1.2	-0.32083	-1.1104	-0.92917	204.859	139.891	-28.961	258.310	203.475	-42.820	176.223	244.689	135.774	115.754	-91.028	65.532	-37.883	109.156	186.285	117.626	0.00030077	0.0020295	0.00029993	1459.6	7.491e-06	3.282e-05	888.09	475.59	4.8341e-06	2.0952e-05	293.35	107.75	184.5	81.582	1.6493e-05	50.394	0.0076459	0.0085469	0.002375	1552.6	9.2522e-05	9.4124e-05	1028.1	508.38	9.2559e-05	9.3579e-05	382.72	137.54	204.54	88.948	9.2969e-05	63.992	206.029	-30.069	148.350	-80.786	49.071	88.702	-82.723	-76.746	-53.042	156.139	-79.812	-75.518	-72.186	-67.577	-74.847	-71.326	-8191	255	
21166.785	1	1	0	0	0.14041	0.1588	0.15297	0.1106	0.25183	0.058528	0.22582	0.27594	0.15468	0.070478	0.074763	0.20719	0.049972	0.2497	0.097848	0.13179	0.10625	-1.1938	-0.38958	-0.69375	-1.0292	-0.15	-0.71875	-1.075	-0.20833	-1.1458	-0.58542	-0.50417	-1.0958	-0.39167	-0.80208	-0.98333	-54.839	107.674	191.838	224.771	-2.340	168.591	191.191	253.203	4.477	-9.798	217.616	93.469	-63.386	238.342	10.163	256.646	0.00016809	0.001102	0.00039467	1459.6	1.9291e-05	1.1085e-05	883.47	478.85	7.2677e-06	1.6099e-05	298.02	107.76	184.64	82.473	2.1156e-05	50.713	0.0076467	0.008587	0.0023878	1554.9	9.2737e-05	9.3905e-05	1028.5	510.52	9.2704e-05	9.5206e-05	387.78	138.68	206.48	89.664	9.4347e-05	64.64	145.801	10.877	-17.064	-80.795	-69.430	-13.117	-82.817	-76.597	-70.163	199.097	-80.434	-75.980	-72.580	-67.522	32.351	-71.121	-8191	255	
21166.906	1	1	0	0	0.27125	0.23504	0.35113	0.2705	0.15338	0.22365	0.16606	0.29823	0.13679	0.20262	0.13684	0.11112	0.21183	0.10744	0.41589	0.065364	0.17708	-1.2896	-0.37917	-0.325	-1.2292	-0.27917	-0.8875	-1.2958	-0.025	-0.99375	-0.68125	-0.26042	-1.2833	-0.55	-0.55833	-1.2313	44.784	242.319	43.942	248.910	239.167	29.735	134.116	-89.743	138.326	-44.853	245.859	-23.430	-79.713	200.620	-42.580	190.691	0.00010836	0.0014009	0.00042968	1465.1	5.2515e-06	2.9963e-06	892.08	477.38	4.3267e-06	9.3969e-06	297.57	107.7	184.79	82.103	1.6648e-05	50.334	0.0077709	0.0086913	0.0024115	1562.8	9.3524e-05	9.4829e-05	1036.1	510.64	9.2861e-05	9.3975e-05	386.26	137.74	205.67	89.078	9.3511e-05	64.156	-12.226	70.590	-34.619	-81.035	111.046	-44.089	-83.089	-76.531	187.238	137.382	-80.429	-75.528	-72.271	-67.241	175.932	-71.083	-8191	255	
21167.000	1	1	0	0	0.099033	0.29201	0.22958	0.051436	0.35151	0.30697	0.27451	0.23308	0.1433	0.18135	0.18857	0.26943	0.19988	0.20593	0.16199	0.023908	0.33958	-1.0187	-0.6625	-0.52917	-1.0458	-0.30417	-0.44375	-1.5312	-0.16042	-1.1	-0.83542	-0.45833	-1.2542	-0.69167	-0.525	-1.1021	58.694	82.094	110.810	213.185	89.653	217.919	179.131	-93.842	1.715	231.391	107.581	188.726	-89.382	248.623	218.824	-88.630	0.00021149	0.0018747	0.00015769	1454.3	1.6312e-05	3.6114e-06	869.47	469.5	9.655e-06	2.7455e-05	292.62	106.01	182.69	81.11	6.1902e-06	49.705	0.0076574	0.0085685	0.0023867	1548	9.2569e-05	9.3841e-05	1020.8	504.79	9.3338e-05	9.4661e-05	384.15	137.37	205.17	88.664	9.6006e-05	64.033	-67.027	-47.040	30.541	-80.914	207.744	90.606	-83.020	-76.540	-79.354	-80.107	-79.907	-75.803	-72.291	-67.544	47.345	-71.510	-8191	255	
21167.098	1	1	0	0	0.12629	0.064095	0.15776	0.31416	0.3896	0.32032	0.20888	0.19778	0.098538	0.2955	0.16338	0.0061419	0.15342	0.23879	0.17118	0.10188	-0.029167	-0.89583	-0.75208	-0.4375	-0.97917	-0.65625	-0.41458	-1.1812	-0.27083	-0.74167	-1.0917	-0.1875	-1.1313	-0.74167	-0.31667	-1.1313	160.844	102.063	196.336	220.425	-86.664	-86.145	151.477	202.868	184.327	90.505	100.349	18.151	-74.678	235.179	174.494	251.088	9.1525e-05	0.00086099	0.00059408	1453.8	7.9944e-06	1.977e-05	885.58	471.11	2.2038e-05	9.5922e-06	290.28	106.37	183.17	81.441	6.8015e-06	50.095	0.0079088	0.0088433	0.0024663	1554.9	9.4829e-05	9.704e-05	1033	508.67	9.5145e-05	9.6594e-05	384.57	138.12	205.63	88.689	9.5501e-05	64.035	193.402	-15.817	7.194	-80.637	50.116	-1.721	-82.897	-76.324	240.936	33.271	-79.756	-75.508	-72.468	-67.311	-33.603	-71.113	-8191	255	
21167.217	1	1	0	0	0.08534	0.26585	0.13782	0.12823	0.46145	0.1383	0.18956	0.3217	0.062576	0.1349	0.075291	0.30213	0.33752	0.23243	0.12122	0.20146	-0.039583	-0.48333	-0.99583	-0.41458	-1.0958	-0.77917	-0.25417	-1.2667	-0.4	-0.58958	-0.99583	-0.35	-0.98542	-0.99375	-0.27708	-1.4208	50.194	44.779	-35.927	-86.727	235.570	13.437	150.975	213.599	-86.082	-60.247	179.938	239.829	-47.123	143.901	246.387	221.128	0.00011541	0.0018425	0.00017679	1454.5	1.0266e-05	1.9233e-05	880.62	472.76	1.0369e-05	2.2191e-05	293.46	107.75	184.24	81.646	1.0979e-05	50.253	0.0078382	0.0087445	0.0024305	1553.4	9.4367e-05	9.6196e-05	1031.6	509.35	9.4615e-05	9.6816e-05	386.88	138.47	206.03	88.982	9.5488e-05	64.234	180.929	110.939	22.075	-80.854	30.628	186.760	-82.937	-76.554	-24.552	-7.054	-80.082	-75.658	-71.709	-67.207	17.878	-71.265	-8191	255	
21167.312	1	1	0	0	0.075812	0.26431	0.11643	0.055214	0.17818	0.057508	0.2119	0.35049	0.13664	0.10086	0.20385	0.20755	0.074242	0.19082	0.33842	0.1564	-0.14792	-0.50833	-1.1187	-0.54375	-0.99375	-0.94792	-0.5375	-1.4	-0.44792	-0.21458	-1.275	-0.21667	-0.96042	-1.2313	-0.0041667	-1.2042	-35.762	255.854	-16.930	-65.934	192.645	93.734	225.685	227.579	-44.396	-9.327	162.035	136.510	217.060	159.879	-89.503	125.836	0.00014029	0.0013926	0.00055528	1454.8	1.3122e-05	3.2618e-06	878.27	473.51	1.0203e-05	2.0439e-05	296.25	106.86	185.28	81.732	2.2699e-05	50.382	0.0078228	0.0087101	0.002443	1553.6	9.3945e-05	9.5737e-05	1030.5	508.83	9.3905e-05	9.6078e-05	385.85	138.04	206.65	89.247	9.4536e-05	64.213	-43.186	-19.179	13.172	-80.817	53.256	261.286	-84.025	-77.982	242.699	-42.237	-81.787	-77.061	-73.757	-69.015	176.686	-72.739	-8191	255	
21167.385	1	1	0	0	0.13425	0.30566	0.2652	0.16144	0.10114	0.13253	0.13064	0.43919	0.49297	0.26584	0.17182	0.085781	0.26966	0.33615	0.16545	0.26268	-0.066667	-0.45	-1.0396	-0.52708	-0.51042	-1.0104	-0.15625	-1.1812	-0.64792	-0.30833	-1.1792	-0.3625	-0.55625	-1.1229	-0.30833	-1.1125	136.527	-25.541	199.685	215.939	88.259	261.932	251.313	184.613	-78.081	204.950	225.741	213.937	229.047	217.695	68.962	233.156	0.00021107	0.002421	0.00070288	1449	1.1435e-05	9.6179e-06	875.33	469.8	1.48e-05	2.5264e-05	291.14	105.46	182.19	81.213	1.6553e-05	49.631	0.0077592	0.0087112	0.0024031	1547	9.3119e-05	9.4883e-05	1025.2	505.48	9.3503e-05	9.451e-05	382.13	136.33	204.41	88.677	9.4844e-05	63.516	209.650	89.877	8.464	-82.586	218.607	-59.844	-84.940	-77.967	-57.139	156.464	-81.480	-77.423	-73.676	-69.110	215.761	-72.882	-8191	255	
21167.506	1	1	0	0	0.21013	0.026045	0.38249	0.27673	0.25026	0.19849	0.29425	0.32618	0.22369	0.093435	0.26408	0.24713	0.14053	0.33231	0.029401	0.10733	-0.20208	-0.072917	-0.98125	-0.35833	-0.4875	-1.05	-0.31875	-0.9875	-0.71458	-0.2	-1.0562	-0.49375	-0.60625	-1.3563	-0.09375	-0.79583	103.333	168.251	244.353	219.111	156.670	22.847	126.953	190.433	-92.390	156.879	214.729	-75.053	212.427	205.481	-56.940	-42.792	0.00028191	0.0028796	0.00064095	1443.6	1.6453e-05	3.656e-05	871.44	467.95	1.5961e-05	9.0664e-06	289.41	105.5	182.99	81.458	1.0949e-05	49.259	0.0078014	0.008728	0.0024169	1544.9	9.3194e-05	9.5014e-05	1018.9	504.21	9.3007e-05	9.4435e-05	380.12	136.18	204.71	88.494	9.3559e-05	63.561	256.142	-72.443	21.637	-82.756	128.378	200.429	-84.759	-78.080	108.357	-67.575	-81.529	-77.527	-73.686	-68.893	217.555	-73.065	-8191	255	
21167.602	1	1	0	0	0.34485	0.20313	0.14394	0.093038	0.1277	0.069566	0.22736	0.26712	0.22107	0.19505	0.090635	0.033792	0.13753	0.17866	0.16863	0.21055	-0.34167	-0.064583	-0.96042	-0.52708	-0.31875	-1.1021	-0.32083	-0.81667	-0.85208	-0.31042	-1.2604	-0.79792	-0.36667	-1.3479	-0.18542	-0.65208	-25.963	196.908	236.834	199.199	146.326	214.554	58.852	237.512	262.568	127.604	101.778	57.406	-45.383	244.593	257.160	147.469	0.0002175	0.0017673	0.00038971	1440.2	2.6582e-05	1.6418e-05	867.84	470.58	7.7654e-06	1.5856e-05	289.42	105.98	183.26	80.965	8.6601e-06	50.102	0.0077023	0.0086148	0.0023954	1544.8	9.2585e-05	9.3634e-05	1017.5	506.25	9.2121e-05	9.3978e-05	382.13	136.55	204.77	88.463	9.3081e-05	63.42	-33.501	-32.490	221.246	-82.659	-28.398	-85.462	-84.815	-77.905	-19.280	138.437	-82.039	-77.451	-73.493	-69.163	-66.421	-72.906	-8191	255	
21167.697	1	1	0	0	0.27624	0.090673	0.055578	0.22151	0.34626	0.08532	0.25462	0.34597	0.095361	0.19485	0.081333	0.22657	0.33634	0.18787	0.18215	0.17864	-0.53958	-0.34583	-1.0396	-0.78958	-0.18958	-0.98958	-0.51042	-0.59792	-0.975	-0.17083	-0.96042	-1.0521	-0.3625	-1.1979	-0.25	-0.575	50.010	214.605	226.476	204.702	-86.870	108.825	-33.072	-77.515	178.461	-55.765	-43.046	242.346	263.185	-28.935	104.763	62.089	0.0002799	0.0016585	0.00018709	1446.2	6.844e-06	2.6902e-05	868.56	471.69	9.7387e-06	1.8908e-05	295.75	107.28	184.34	81.873	4.1984e-05	50.663	0.0076616	0.0085677	0.0023794	1546.2	9.2133e-05	9.3916e-05	1019.6	507.54	9.2608e-05	9.399e-05	385.05	137.25	206.09	89.145	9.3796e-05	64.255	244.421	26.256	-48.734	-82.702	117.794	58.257	-84.440	-78.058	149.709	258.470	-81.683	-77.467	-73.756	-68.955	-53.684	-73.098	-8191	255	
21167.818	1	1	0	0	0.23916	0.29208	0.11289	0.10509	0.18407	0.14973	0.074777	0.16981	0.17055	0.16754	0.070593	0.15826	0.14215	0.26323	0.074516	0.39296	-0.73333	-0.079167	-0.62917	-0.90625	-0.29792	-1.1354	-0.46458	-0.48542	-1.1	-0.31042	-0.90625	-1.0854	-0.24792	-1.2229	-0.54583	-0.275	5.125	104.024	-85.684	164.685	210.980	191.195	244.320	185.166	189.090	245.196	-67.987	144.783	-83.553	233.346	-8.034	193.321	0.00018007	0.0010211	0.00019216	1453.2	9.3875e-06	1.3494e-05	877	476.08	1.1481e-05	5.1154e-06	296.03	106.51	183.57	82.072	6.7041e-06	50.224	0.007727	0.0086652	0.0024058	1556.5	9.3241e-05	9.5027e-05	1029.1	510.34	9.3366e-05	9.4816e-05	386.74	137.51	205.73	89.323	9.4094e-05	64.028	3.331	259.318	-40.445	-82.858	149.927	135.481	-84.961	-78.028	124.271	-3.541	-81.559	-77.208	-74.043	-68.937	141.852	-72.702	-8191	255	
21167.914	1	1	0	0	0.19587	0.095113	0.10223	0.30244	0.1407	0.28849	0.30469	0.15407	0.040872	0.09843	0.31393	0.12882	0.14941	0.14185	0.26939	0.33132	-0.63333	-0.25208	-0.63125	-1.1292	-0.21875	-1.1708	-0.76042	-0.27708	-1.175	-0.38333	-0.53333	-1.0917	-0.21875	-1.3375	-0.79167	-0.42292	114.059	145.276	140.673	171.189	19.925	-73.012	143.253	209.033	113.320	56.890	200.874	-50.285	-87.968	-90.715	8.604	-77.336	0.00018982	0.0015982	0.00053099	1454.5	1.4821e-05	3.6601e-05	873.26	469.34	5.7874e-06	1.8786e-05	292.8	105.94	183.02	81.617	6.0953e-06	49.836	0.0077704	0.0086599	0.0024199	1554.7	9.3002e-05	9.4262e-05	1022.1	506.73	9.2105e-05	9.315e-05	381.41	135.54	204.1	88.461	9.1789e-05	62.913	184.405	233.231	47.488	-82.651	-47.977	-43.864	-84.659	-78.039	-87.535	52.269	-81.761	-77.514	-73.762	-68.978	24.132	-72.964	-8191	255	
21168.010	1	1	0	0	0.19006	0.2905	0.14298	0.41033	0.21647	0.10625	0.26849	0.0501	0.099484	0.2968	0.18298	0.29012	0.16365	0.40134	0.13783	0.16392	-0.82083	-0.22917	-0.37083	-1.1646	-0.11042	-0.92292	-0.9375	-0.35625	-1.0396	-0.29583	-0.60417	-1.0646	-0.34375	-0.97917	-0.65833	-0.060417	-65.077	213.844	112.084	244.165	86.833	-5.150	182.693	43.827	183.509	66.607	204.091	126.134	246.321	251.344	13.797	232.280	0.00017537	0.00070909	0.00049238	1445.4	1.0707e-05	1.0023e-05	865.31	466.64	1.0142e-06	1.8505e-05	287.66	105.08	182.54	81.22	1.0279e-05	49.637	0.0075176	0.0084182	0.0023265	1538.6	8.9724e-05	9.1119e-05	1009.3	500.88	8.9119e-05	9.0922e-05	376.66	134.64	203.14	88.02	8.9644e-05	62.757	178.101	184.220	61.747	-82.696	-31.032	204.081	-84.786	-78.068	63.175	111.721	-81.142	-77.765	-73.600	-69.187	8.451	-73.194	-8191	255	
21168.080	1	1	0	0	0.091472	0.1508	0.067221	0.2443	0.062946	0.12739	0.27662	0.40912	0.2192	0.19963	0.10445	0.26611	0.070282	0.12241	0.063149	0.23811	-0.42708	-0.47292	-0.32708	-1.2167	-0.27917	-0.83125	-1.1583	-0.43125	-1.1146	-0.47708	-0.17083	-1.075	-0.3375	-1.0875	-1.1187	-0.21458	-12.582	199.008	241.336	-86.525	43.530	68.345	199.108	206.213	68.467	173.727	29.708	204.656	-67.160	-69.167	91.451	170.284	0.00013585	0.00061163	0.00050487	1442.3	8.0544e-06	1.5254e-05	868.96	468.01	1.1109e-05	1.7522e-05	291.54	106.8	184.63	82.015	7.5677e-06	49.959	0.0073665	0.0082189	0.0022939	1534.1	8.901e-05	9.0588e-05	1008.8	502.71	8.8576e-05	9.0868e-05	378.79	135.93	204.89	88.777	9.0184e-05	63.06	237.104	-68.687	-57.674	-82.593	71.405	55.224	-84.694	-78.117	-87.326	130.243	-81.663	-77.383	-73.343	-68.732	-56.636	-72.692	-8191	255	
21168.201	1	1	0	0	0.13069	0.44135	0.12572	0.19955	0.22835	0.28103	0.35164	0.25095	0.20954	0.17423	0.35654	0.13058	0.23144	0.61383	0.075548	0.19607	-0.4375	-0.79583	-0.24167	-1.4188	-0.46458	-0.60417	-1.2417	-0.51875	-1.1875	-0.65833	-0.24792	-1.1688	-0.74792	-0.53542	-1.1583	-0.24583	57.251	203.347	59.365	212.888	157.074	-28.338	243.830	170.313	107.033	-45.972	222.355	256.086	236.400	256.054	191.319	-7.439	0.00019756	0.0026814	0.00015794	1449.3	2.2606e-05	3.9642e-06	874.73	472.68	8.9818e-06	1.9458e-05	295.17	107.3	183.99	82.038	9.3085e-06	49.917	0.0073853	0.0082518	0.0022899	1540.3	8.8275e-05	9.0304e-05	1012.3	504.64	8.7443e-05	8.9038e-05	378.59	135.43	203.96	88.548	8.775e-05	62.749	-21.053	-29.446	-58.655	-82.648	41.012	184.061	-84.544	-77.999	11.408	133.315	-81.416	-76.993	-73.604	-68.797	201.224	-73.178	-8191	255	
21168.299	1	1	0	0	0.094843	0.21699	0.082869	0.22711	0.1305	0.077023	0.047183	0.081035	0.24292	0.1407	0.38818	0.15432	0.24441	0.18647	0.18253	0.18768	-0.41667	-0.79167	-0.20625	-1.3396	-0.38542	-0.58333	-1.2042	-0.31875	-0.98542	-0.9	-0.41667	-1.3354	-0.84583	-0.6	-1.1104	-0.32917	-76.336	204.043	82.588	255.723	102.328	-63.294	14.202	-51.738	239.436	101.774	64.234	216.558	251.988	181.002	197.731	251.907	0.00020078	0.0012266	0.00088431	1453.4	1.1854e-05	7.7962e-06	868.6	469.55	2.1376e-05	1.6955e-05	292.36	107.14	184.27	82.082	4.4338e-06	49.779	0.0072246	0.0081683	0.0022519	1537.7	8.8298e-05	8.951e-05	1009	502.74	8.8055e-05	8.9561e-05	377.68	135.03	203.91	88.808	8.891e-05	62.725	-86.905	4.071	-43.733	-82.518	-49.494	44.546	-84.670	-77.933	204.481	-77.010	-81.518	-76.929	-73.769	-68.823	49.422	-72.802	-8191	255	
21168.395	1	1	0	0	0.32757	0.092248	0.32875	0.38714	0.306	0.18008	0.17818	0.097611	0.039086	0.24975	0.22157	0.20002	0.080797	0.36337	0.03898	0.081902	-0.26458	-1.0792	-0.27292	-1.2833	-0.48542	-0.39792	-1.35	-0.52917	-0.725	-1.1479	-0.42083	-1.2313	-0.84792	-0.55208	-1.0729	-0.40833	181.844	57.493	-44.933	-90.604	-36.132	24.494	238.665	239.674	-33.149	154.316	-90.323	249.216	-47.386	-93.286	19.847	-5.511	0.0002575	0.00088626	0.00045075	1463.6	1.716e-05	7.6265e-06	868.83	471.33	7.5323e-06	2.6569e-05	296.47	106.85	184.66	82.58	9.8068e-06	49.742	0.0073162	0.0081877	0.0022813	1543	8.809e-05	8.9945e-05	1008.7	504.39	8.8501e-05	8.986e-05	378.86	135.18	204.11	89.212	8.8817e-05	62.793	204.377	68.818	26.460	-82.440	146.236	101.917	-84.555	-77.721	0.227	-82.520	-81.239	-77.219	-73.581	-68.512	205.500	-72.361	-8191	255	
21168.490	1	1	0	0	0.21691	0.19846	0.14494	0.31575	0.14306	0.092532	0.24233	0.38621	0.11911	0.022451	0.19044	0.045018	0.10956	0.31973	0.2981	0.197	-0.25	-1.15	-0.275	-0.89167	-0.78333	-0.325	-1.2854	-0.72708	-0.2	-1.1271	-0.41875	-1.0438	-1.1229	-0.50833	-1.2271	-0.825	-76.190	173.123	56.062	197.060	-73.898	131.489	61.423	208.572	169.089	201.106	160.150	247.458	34.158	221.076	-85.231	118.515	0.00017588	0.0019586	0.00029279	1464.1	8.5681e-06	2.4896e-05	878.41	473.6	3.0329e-06	1.0217e-05	297.86	107.28	185.17	82.858	9.3682e-06	50.028	0.0072729	0.008192	0.00227	1546.5	8.8006e-05	8.8838e-05	1013.5	506.39	8.7553e-05	8.8661e-05	378.07	135.41	204.08	89.321	8.7812e-05	63.073	157.325	-39.394	45.806	-82.270	-13.899	-28.246	-84.374	-77.943	119.587	23.598	-81.255	-76.717	-73.413	-68.717	98.292	-72.635	-8191	255	
21168.609	1	1	0	0	0.10692	0.068846	0.29566	0.4851	0.10538	0.075503	0.41044	0.16886	0.30673	0.012939	0.24779	0.056868	0.2016	0.58597	0.12004	0.030925	-0.13333	-1.1938	0.029167	-0.88125	-0.9375	-0.225	-1.3646	-0.84167	-0.29792	-1.0083	-0.325	-0.61042	-1.1479	-0.22917	-0.97083	-0.6375	143.653	74.752	35.956	169.381	54.567	212.926	-31.713	258.347	95.624	12.355	257.743	-73.292	-85.201	-85.049	-9.034	-35.508	0.00015741	0.0020189	0.00094291	1467.8	3.9162e-06	7.1381e-06	881.45	475.96	1.0277e-05	2.6212e-05	298.58	107.5	186.02	82.722	5.6033e-06	50.392	0.0072751	0.0081164	0.002249	1549.4	8.7671e-05	8.9261e-05	1014.9	508	8.743e-05	8.898e-05	379.83	136.03	204.93	89.515	8.8135e-05	63.356	-50.490	94.319	-80.314	-81.942	-47.988	167.662	-84.092	-77.580	157.544	87.875	-81.004	-76.892	-73.215	-68.624	90.977	-72.532	-8191	255	
21168.682	1	1	0	0	0.14886	0.10244	0.14301	0.32429	0.23789	0.35831	0.19689	0.28542	0.27971	0.15637	0.018421	0.21395	0.10733	0.1258	0.2337	0.1984	-0.0875	-1.0812	-0.27083	-0.85833	-1.2354	-0.21667	-0.83542	-1.0063	-0.42292	-0.94375	-0.35417	-0.73542	-1.2417	-0.35	-1.0333	-0.84375	150.547	5.693	2.633	-80.798	111.345	249.205	125.888	218.406	246.164	-66.302	162.659	-90.467	226.762	252.496	-31.094	134.855	0.00017071	0.0013802	0.00031708	1457.5	1.4112e-05	2.0559e-05	878.73	476.8	1.7509e-05	8.0698e-06	295.22	107.06	184.31	82.676	2.2702e-05	49.986	0.0072419	0.0081151	0.0022652	1545	8.7626e-05	8.9033e-05	1013.9	506.88	8.7968e-05	8.9353e-05	379.28	135.4	204.48	89.464	8.9918e-05	63.208	-83.438	160.029	-72.849	-81.767	-19.558	68.749	-84.164	-78.091	98.295	-9.174	-80.960	-76.890	-73.197	-68.457	202.877	-72.605	-8191	255	
21168.777	1	1	0	0	0.054642	0.084105	0.13167	0.19796	0.16154	0.22015	0.24357	0.30793	0.15534	0.1916	0.05789	0.25691	0.15226	0.097477	0.079118	0.22529	-0.060417	-1.1167	-0.44167	-0.60417	-1.0583	-0.38333	-0.82083	-1.0708	-0.14583	-1.1354	-0.61458	-0.39375	-1.2833	-0.38958	-0.85833	-1.0479	-68.509	110.583	-9.575	236.982	6.196	258.708	100.784	231.174	187.365	4.313	237.199	201.481	-66.816	128.603	-54.782	42.143	0.00033674	0.00080365	0.0006504	1471.6	2.1298e-05	7.6439e-06	884.39	479.59	1.7257e-06	2.0501e-05	295.78	106.78	183.06	83.001	1.8792e-05	50.021	0.0074214	0.0083095	0.0023095	1556.6	8.9193e-05	9.0883e-05	1022.5	511.98	8.9284e-05	9.1152e-05	382.85	136	204.22	89.78	8.9462e-05	63.194	225.500	-44.154	31.738	-82.169	123.090	-82.449	-83.999	-77.537	108.948	23.152	-81.266	-76.975	-73.948	-68.755	87.652	-72.435	-8191	255	
21168.898	1	1	0	0	0.060213	0.089189	0.13048	0.4104	0.20942	0.068593	0.17587	0.30972	0.10499	0.069828	0.16016	0.11316	0.03856	0.32193	0.21954	0.023372	0.14792	-0.92083	-0.57708	-0.47708	-1.2146	-0.28542	-0.7625	-1.3271	-0.2625	-1.1792	-0.78125	-0.52083	-1.3292	-0.63958	-0.61875	-1.2	186.429	63.007	124.413	250.650	213.949	164.627	177.837	244.119	87.064	-50.039	192.124	2.912	90.980	133.267	234.706	-65.183	0.00041979	0.00087885	0.00059128	1464.5	4.6174e-06	1.3293e-05	878.42	475.3	2.6899e-06	1.3395e-05	297.59	107.72	183.23	83.097	2.3604e-05	49.665	0.0073462	0.0082011	0.0022895	1551.2	8.8552e-05	9.0197e-05	1016.6	509.21	8.7896e-05	8.9159e-05	380.2	135.58	203.45	89.546	8.8038e-05	62.83	223.771	-21.312	166.087	-82.749	186.983	99.103	-84.778	-78.175	210.269	94.596	-81.564	-77.492	-73.740	-69.140	63.008	-72.617	-8191	255	
21168.992	1	1	0	0	0.18716	0.028092	0.12916	0.33863	0.064227	0.12192	0.14145	0.39777	0.243	0.1395	0.10776	0.25361	0.41557	0.37119	0.22224	0.14464	0.28542	-0.84375	-0.825	-0.35208	-1.2083	-0.46875	-0.54583	-1.3542	-0.11458	-0.85833	-1.0208	-0.16667	-1.2521	-0.7	-0.30625	-1.2833	151.790	-42.891	25.597	235.876	52.427	56.863	-69.233	195.858	196.992	-24.653	57.228	150.715	246.197	158.016	236.878	105.197	0.00016642	0.0017678	0.0007232	1466.5	1.14e-05	2.0407e-05	876.58	479.93	1.8783e-05	2.9514e-05	297.51	107.85	184.6	83.328	3.012e-05	50.824	0.0072443	0.0081151	0.0022629	1550.8	8.7189e-05	8.9266e-05	1015	509.33	8.7888e-05	8.9884e-05	382.73	136.45	205.11	90.26	9.0811e-05	63.946	261.909	43.333	47.748	-82.555	165.602	-39.844	-84.806	-77.933	16.219	49.790	-81.721	-77.250	-73.927	-69.029	-23.737	-73.399	-8191	255	
21169.090	1	1	0	0	0.26317	0.10224	0.31325	0.10834	0.12913	0.10495	0.15573	0.39221	0.1033	0.13908	0.21177	0.089904	0.30751	0.4067	0.3081	0.26991	0.21042	-0.75625	-0.87292	-0.45833	-1.2062	-0.63542	-0.19792	-1.3062	-0.37708	-0.75208	-1.1375	-0.15833	-1.2604	-0.87708	-0.23542	-1.2104	191.747	220.620	146.820	186.946	55.344	147.224	193.887	209.812	67.668	-6.139	254.892	-44.040	-55.443	258.047	225.680	243.656	0.00016083	0.0011252	0.00055521	1471.7	2.2947e-05	2.2092e-05	890.96	481.99	1.2978e-05	1.696e-05	295.32	106.57	183.81	82.958	1.0932e-05	49.538	0.0074756	0.0083755	0.002342	1565	9.0553e-05	9.2529e-05	1032.3	515.77	9.0549e-05	9.2282e-05	383.58	136.32	204.89	89.879	9.1039e-05	63.06	-72.486	-18.965	40.388	-82.669	53.412	33.513	-84.621	-78.250	86.869	192.433	-81.572	-77.064	-73.857	-68.981	75.821	-72.916	-8191	255	
21169.186	1	1	0	0	0.15893	0.24403	0.23107	0.2247	0.10936	0.095096	0.35157	0.31251	0.39619	0.24482	0.20161	0.049073	0.27276	0.11226	0.18947	0.22607	-0.0625	-0.37292	-0.90208	-0.50208	-0.85208	-0.69167	-0.25417	-1.2563	-0.23125	-0.57708	-1.2042	-0.21667	-1.0583	-1.0854	-0.15833	-1.1771	2.338	34.500	86.381	213.527	46.739	-76.516	199.817	209.334	235.237	-70.700	178.528	214.265	-75.014	192.069	-49.456	179.112	0.00016362	0.00090551	0.00055054	1470.7	1.6135e-05	2.0226e-05	878	477.27	1.696e-05	2.6128e-05	294.51	105.97	183.97	83.242	8.7274e-06	49.797	0.0074944	0.0083945	0.0023286	1558.3	9.0639e-05	9.249e-05	1022.8	512.13	9.097e-05	9.2456e-05	383.18	135.85	204.82	90.168	9.1937e-05	63.474	240.465	35.338	-81.075	-82.486	193.041	111.274	-84.857	-78.034	-34.756	-16.209	-81.472	-77.430	-73.497	-68.715	186.356	-72.827	-8191	255	
21169.281	1	1	0	0	0.061593	0.1933	0.12483	0.40663	0.32256	0.079604	0.17953	0.54726	0.16097	0.082515	0.1286	0.088409	0.22587	0.058001	0.061411	0.29033	-0.070833	-0.53125	-1.2458	-0.5375	-0.78958	-0.95833	-0.26042	-1.2854	-0.70625	-0.31875	-1.3146	-0.46667	-0.81875	-1.2271	-0.060417	-1.2396	57.854	-4.864	-89.873	232.592	188.876	-95.212	-49.892	219.715	210.591	98.370	238.121	82.766	212.130	13.535	256.156	-40.872	0.00021078	0.0010083	0.00036086	1476.3	2.3312e-05	1.1491e-05	887.2	485.34	6.0284e-06	4.0779e-05	300	107.3	185.26	83.817	1.3857e-05	49.942	0.007613	0.008511	0.0023666	1568.1	9.1947e-05	9.4019e-05	1035.3	519.45	9.239e-05	9.4252e-05	389.64	137.39	206.99	91.216	9.3575e-05	64.135	55.442	53.559	155.990	-82.615	198.380	-21.906	-84.880	-77.927	198.382	-18.921	-81.208	-77.757	-73.664	-68.801	161.199	-72.837	-8191	255	
21169.379	1	1	0	0	0.1663	0.04383	0.096922	0.23908	0.22503	0.15425	0.010872	0.45079	0.25615	0.095633	0.27236	0.15379	0.19876	0.060551	0.1301	0.23497	-0.010417	-0.31042	-1.125	-0.63958	-0.80417	-1.2104	-0.21667	-1.2667	-0.74167	-0.22083	-1.2271	-0.30833	-0.55417	-1.2188	-0.2625	-0.8875	-27.582	8.087	201.978	236.447	235.319	209.703	155.972	202.220	179.400	-59.880	170.951	92.611	-57.436	-68.470	9.915	228.705	0.00024383	0.0009707	0.00059201	1476.7	3.1997e-06	1.0924e-05	893.92	488.52	1.5119e-05	2.2919e-05	297.74	106.51	184.16	83.717	1.2493e-05	50.148	0.0076784	0.0085563	0.0023779	1570.4	9.1902e-05	9.3429e-05	1036.3	520.67	9.1146e-05	9.2228e-05	387.23	136.34	205.17	90.601	9.043e-05	63.759	-70.966	232.847	225.152	-82.693	98.853	142.710	-84.655	-78.554	109.232	49.686	-81.808	-77.628	-74.019	-69.025	248.462	-72.488	-8191	255	
21169.498	1	1	0	0	0.023974	0.16078	0.13744	0.26472	0.033319	0.20423	0.29053	0.20594	0.060141	0.17423	0.14151	0.30961	0.26714	0.5185	0.22412	0.49368	-0.425	-0.27917	-1.0854	-0.6	-0.30417	-1.2479	-0.29167	-1.2271	-0.89167	-0.14583	-1.275	-0.66458	-0.6125	-1.2083	-0.32292	-0.91458	262.913	29.022	169.338	227.305	180.490	36.379	189.384	-93.731	-11.910	186.733	179.719	-81.890	170.968	228.879	-7.685	193.005	0.00015622	0.0012383	0.00015038	1468.2	1.9337e-05	2.8908e-05	890.13	483.68	8.2844e-06	1.4936e-05	300	106.15	183.54	83.744	2.589e-05	49.834	0.0074775	0.0083374	0.0023109	1561.8	8.955e-05	9.1348e-05	1027.5	516.8	8.995e-05	9.1836e-05	386.2	136.08	204.3	90.6	9.125e-05	63.335	7.520	-49.341	-23.117	-82.562	-60.249	138.367	-85.069	-77.801	-57.419	-44.113	-82.053	-77.600	-73.695	-69.066	100.474	-72.447	-8191	255	
21169.596	1	1	0	0	0.15838	0.18316	0.13105	0.089562	0.059976	0.36812	0.40697	0.26926	0.11673	0.084055	0.232	0.10801	0.41372	0.33893	0.15562	0.22005	-0.51042	-0.11667	-1.0271	-0.84167	-0.31875	-1.2167	-0.28958	-0.86042	-1.1	-0.17917	-1.125	-0.99792	-0.65	-1.2146	-0.24375	-0.6125	-51.812	122.380	-22.680	228.722	38.340	169.904	160.319	158.972	21.051	-18.511	-81.042	171.238	236.168	241.907	217.800	167.876	0.00021837	0.0019328	0.00060665	1467.7	3.4963e-06	2.5051e-05	882.52	481.43	1.3554e-05	2.2413e-05	296.76	104.75	183.71	84.074	1.9557e-05	49.912	0.007537	0.0084118	0.0023282	1558.9	9.097e-05	9.2594e-05	1022.7	514.94	9.0905e-05	9.2384e-05	384.7	135.4	204.73	90.539	9.2085e-05	63.404	-11.510	-7.273	-35.227	-82.446	30.646	-54.649	-84.530	-78.066	-90.704	255.920	-81.442	-77.647	-73.757	-69.002	132.777	-72.096	-8191	255	
21169.691	1	1	0	0	0.31186	0.14195	0.14792	0.26614	0.14303	0.082643	0.32421	0.33576	0.16804	0.075699	0.065017	0.014225	0.2992	0.13091	0.10009	0.23566	-0.76875	-0.12917	-0.94167	-0.87917	-0.22917	-1.3833	-0.40417	-0.56458	-1.1313	-0.19792	-0.88333	-0.95417	-0.43333	-1.4688	-0.33542	-0.47708	130.618	82.983	87.427	208.612	129.874	160.668	245.692	217.763	-87.442	-9.099	156.669	146.573	209.990	245.564	126.757	172.583	0.00013776	0.0015835	0.00022501	1469	1.1833e-05	3.2283e-06	881.9	483.76	4.8611e-06	2.2615e-05	296.59	105.78	182.35	83.895	2.0899e-05	49.447	0.0075669	0.0084394	0.0023564	1563	9.1289e-05	9.2165e-05	1025.6	517.96	9.1048e-05	9.1778e-05	383.87	135	203.61	90.487	9.0711e-05	62.988	152.980	212.740	-42.609	-82.448	-68.786	35.778	-84.361	-77.579	170.961	116.885	-81.682	-77.546	-73.577	-68.965	218.980	-72.715	-8191	255	
21169.787	1	1	0	0	0.39624	0.11395	0.11772	0.29157	0.25624	0.1904	0.088629	0.19163	0.19191	0.12981	0.18325	0.009814	0.16108	0.38838	0.23615	0.24639	-0.7125	-0.21667	-0.82917	-1.0104	-0.24375	-0.99792	-0.51042	-0.74375	-1.0417	-0.20625	-0.74583	-1.0562	-0.31458	-1.375	-0.67083	-0.20625	-23.477	242.359	204.496	189.268	-52.369	110.173	158.858	232.679	-28.032	263.574	238.693	-29.930	238.188	237.426	-44.010	-86.395	0.00019601	0.0017771	0.00057017	1471	2.6306e-05	1.4097e-05	882.26	483.25	1.5457e-05	1.357e-05	297.76	105.99	182.86	84.163	1.161e-05	49.39	0.0074441	0.0082906	0.0023128	1559.5	8.985e-05	9.0982e-05	1023.4	515.17	8.9501e-05	9.1115e-05	384.14	135.09	203.15	90.486	8.9733e-05	62.799	21.723	-29.142	110.019	-82.394	-0.660	66.779	-84.805	-77.897	178.776	-48.967	-81.360	-77.426	-73.839	-68.593	206.025	-72.144	-8191	255	
21169.908	1	1	0	0	0.13827	0.17084	0.22801	0.22524	0.13179	0.12372	0.13003	0.17763	0.28127	0.12278	0.17582	0.35175	0.21843	0.20534	0.19898	0.18052	-0.65417	-0.34167	-0.58125	-1.2396	-0.27083	-0.85417	-0.78333	-0.475	-1.3	-0.46458	-0.65833	-1.0063	-0.24583	-1.175	-0.80833	-0.29583	76.225	-34.156	77.527	202.565	142.751	245.799	-52.185	180.987	99.296	-65.112	256.755	-78.537	247.780	-77.102	-63.224	165.915	0.00015029	0.0025826	0.0005558	1465.7	1.3195e-05	2.9131e-05	875.32	478.44	1.5161e-05	1.3773e-05	295.54	104.92	182.37	83.664	1.4172e-05	49.491	0.0073692	0.0082086	0.002282	1551.5	8.7736e-05	8.922e-05	1013.4	510.07	8.7491e-05	8.9052e-05	379.11	133.55	202.25	89.97	8.9261e-05	62.42	-63.933	180.174	43.150	-82.392	182.315	42.727	-84.676	-77.544	-30.107	108.490	-80.946	-77.310	-73.368	-68.640	47.472	-72.694	-8191	255	
21169.979	1	1	0	0	0.17494	0.15178	0.19313	0.19207	0.0033265	0.087094	0.13848	0.06793	0.18535	0.15483	0.080336	0.067264	0.21844	0.15616	0.055983	0.15613	-0.77083	-0.25	-0.37708	-1.3479	-0.097917	-1.025	-1.0833	-0.48958	-1.2083	-0.41667	-0.4875	-0.98542	-0.3125	-0.73958	-1	-0.18542	-36.157	-78.330	237.180	-59.871	-94.755	248.699	199.483	228.698	-70.853	-27.714	194.173	259.199	-89.625	14.057	-82.612	224.384	0.00016853	0.0012771	0.00028495	1456.2	7.5421e-06	1.7088e-05	865.65	474.09	4.532e-06	3.67e-05	293.22	104.5	180.07	82.554	1.4973e-05	48.635	0.0072322	0.008169	0.002259	1542	8.7606e-05	8.9297e-05	1002.8	506.87	8.8255e-05	9.0003e-05	378.29	133.03	201.03	89.475	8.9804e-05	61.966	13.762	67.480	-19.547	-82.548	85.254	100.479	-84.568	-77.824	84.964	-9.126	-81.558	-76.859	-73.632	-68.771	54.385	-72.667	-8191	255	
21170.074	1	1	0	0	0.28347	0.14549	0.10655	0.15543	0.028666	0.13531	0.11015	0.43671	0.30107	0.063241	0.3181	0.20835	0.26797	0.083858	0.14366	0.23942	-0.59792	-0.49167	-0.37292	-1.2875	-0.35833	-0.75417	-1.1458	-0.29375	-1.0771	-0.55833	-0.36042	-1.1812	-0.70625	-0.79583	-1.1458	-0.23958	54.047	23.478	-23.260	26.288	43.861	27.401	54.360	208.602	-31.366	210.679	236.408	209.766	201.382	-42.390	244.197	213.823	0.00020384	0.001265	0.00087309	1455	1.0584e-05	3.5499e-05	868.1	477.49	5.9446e-06	6.0016e-07	289.5	103.39	180.5	82.931	8.2654e-06	49.296	0.0073176	0.0082162	0.0022813	1542.8	8.8542e-05	8.9973e-05	1010	509.07	8.8397e-05	9.0172e-05	376.77	132.95	201.2	89.682	8.8976e-05	62.21	-17.828	-55.648	205.260	-82.469	229.120	150.020	-84.372	-77.628	-59.811	118.878	-81.085	-77.431	-73.342	-68.643	-22.681	-72.613	-8191	255	
21170.170	1	1	0	0	0.045504	0.19298	0.088864	0.4489	0.064274	0.16299	0.19004	0.53374	0.21972	0.083387	0.082617	0.096056	0.072217	0.37313	0.16354	0.1454	-0.50625	-0.56667	-0.033333	-1.3229	-0.5375	-0.61458	-1.2687	-0.45833	-0.90417	-0.9625	-0.0020833	-1.2062	-0.50833	-0.58333	-1.0771	-0.26667	177.504	103.942	81.795	255.430	212.803	-6.731	-94.521	-79.894	-73.559	237.756	70.507	92.145	233.791	217.377	137.526	23.273	0.00012197	0.0022339	0.00043404	1463.8	2.5656e-05	9.3378e-06	876.36	479.16	5.4031e-06	1.7983e-05	295.24	104.67	182.18	83.155	5.8921e-06	49.535	0.0073236	0.0082412	0.0022885	1548.8	8.9079e-05	9.0921e-05	1013.1	510.59	8.9038e-05	9.0917e-05	380.23	134.05	202.82	90.122	8.9566e-05	62.642	145.071	62.608	-31.389	-82.580	104.440	-0.599	-84.366	-77.708	131.699	248.341	-80.475	-77.021	-73.346	-68.626	51.762	-72.682	-8191	255	
21170.291	1	1	0	0	0.13215	0.057454	0.16216	0.15359	0.16563	0.11976	0.12135	0.37958	0.17063	0.16394	0.18145	0.042569	0.052704	0.19933	0.12269	0.12852	-0.44792	-1.0875	-0.13125	-1.2333	-0.6375	-0.36042	-1.2771	-0.49583	-0.55625	-0.98542	-0.25625	-1.1083	-0.65417	-0.40625	-1.0979	-0.48958	173.127	-2.808	108.826	232.868	-14.560	0.118	59.931	196.014	171.140	128.372	181.609	17.962	-91.583	232.772	20.319	231.480	4.8895e-05	0.0015289	5.7868e-05	1460.8	8.9801e-06	3.1297e-06	871.05	478.5	1.5566e-05	2.046e-05	295.99	105.16	182.88	83.906	1.3096e-05	49.819	0.0073671	0.0082542	0.002293	1548.9	8.8977e-05	9.0168e-05	1012	510.79	8.8995e-05	9.0524e-05	381.15	134.23	203.28	90.512	8.9447e-05	62.962	46.248	73.196	-25.714	-82.524	257.709	251.067	-84.790	-77.534	120.013	-57.151	-81.550	-77.315	-73.505	-68.878	41.524	-72.860	-8191	255	
21170.387	1	1	0	0	0.12146	0.27148	0.15968	0.20661	0.095677	0.096534	0.21894	0.41895	0.12261	0.30772	0.13957	0.11	0.20103	0.06013	0.29003	0.11027	-0.16667	-0.95625	-0.12083	-1.2083	-0.66875	-0.23958	-1.2604	-0.42292	-0.53958	-1.0812	-0.24375	-1.1125	-0.70417	-0.34583	-1.1437	-0.42083	94.322	-25.814	183.867	242.800	51.373	-27.278	-1.285	255.169	184.222	57.996	-66.346	-17.883	256.841	171.374	169.950	124.628	6.8062e-05	0.0007426	0.00036991	1467.6	1.8451e-05	1.4444e-05	871.57	473.58	1.8497e-05	3.282e-05	289.86	103.51	181.68	83.156	4.4743e-06	48.897	0.0074288	0.0083109	0.0023066	1554.4	8.9557e-05	9.0673e-05	1012.8	508.23	8.8917e-05	8.9986e-05	376.6	132.73	201.9	89.632	8.8997e-05	62.088	115.760	-89.156	20.914	-82.357	122.489	45.114	-84.207	-77.855	19.439	23.044	-81.122	-77.160	-73.638	-68.634	-30.612	-72.679	-8191	255	
21170.482	1	1	0	0	0.25184	0.28038	0.065495	0.21057	0.046427	0.25313	0.16481	0.25125	0.21269	0.46378	0.12089	0.1459	0.17818	0.28274	0.16654	0.19782	-0.25833	-1.0917	-0.20208	-1.0833	-0.98125	-0.27083	-1.1229	-0.7	-0.34375	-1.1708	-0.27083	-0.85625	-1.0958	-0.42083	-0.91458	-0.63333	-61.212	127.758	61.206	256.460	107.178	84.088	251.238	202.846	39.794	-0.537	84.325	216.894	221.929	-60.966	197.498	-50.061	0.0001004	0.00080307	0.00070959	1456	1.7624e-05	1.8633e-05	872.07	475.51	9.2701e-06	1.0773e-05	290.79	103.26	182.69	83.214	2.2217e-06	49.077	0.0073897	0.0082176	0.0022902	1541.8	8.8301e-05	9.0214e-05	1004.3	506.72	8.8637e-05	8.9448e-05	375.79	132.66	202.14	89.828	8.9495e-05	62.327	-56.827	-21.368	-74.840	-82.477	113.897	-66.687	-84.686	-77.638	90.881	-36.589	-81.304	-77.512	-73.811	-69.089	37.167	-72.747	-8191	255	
21170.578	1	1	0	0	0.2069	0.22473	0.098492	0.13052	0.24774	0.22134	0.11491	0.23144	0.16623	0.24489	0.31838	0.16083	0.19134	0.088716	0.11603	0.15902	0.091667	-1.1625	-0.18958	-1.1083	-1.1125	-0.20833	-1.0208	-0.93125	-0.41458	-0.95833	-0.45	-0.35417	-1.2938	-0.25	-0.83542	-0.75625	242.950	104.810	-75.990	184.236	231.955	-6.083	-67.082	184.061	-93.394	217.827	172.626	65.944	181.311	230.958	257.425	196.514	0.00019642	0.0018939	0.00043783	1462.3	1.9633e-05	1.3418e-05	870.22	479.45	1.729e-05	1.3956e-05	297.22	105.39	183.84	83.833	1.4806e-05	49.868	0.0073971	0.0082576	0.0023074	1550.9	8.9527e-05	9.0872e-05	1013.9	512.76	8.9816e-05	9.1442e-05	382.31	135.09	204.34	90.819	9.1265e-05	63.251	-49.594	-15.434	49.364	-82.713	61.360	59.391	-84.744	-77.755	176.891	34.046	-81.899	-77.351	-73.806	-69.066	146.248	-72.865	-8191	255	
21170.676	1	1	0	0	0.28836	0.26048	0.11803	0.17306	0.14562	0.097377	0.2654	0.28458	0.15003	0.29843	0.17994	0.19435	0.30081	0.31469	0.13743	0.19304	-0.014583	-0.97917	-0.47708	-0.49583	-1.0104	-0.13542	-1.0083	-0.80625	-0.01875	-1.2854	-0.50208	-0.37083	-1.2771	-0.21458	-0.74167	-0.9875	37.267	53.676	171.585	263.008	111.186	211.132	145.416	231.174	72.864	101.485	229.404	192.948	242.804	228.417	-71.988	-68.402	0.00013629	0.0019959	0.00010053	1467.5	1.9126e-05	9.0553e-06	878.38	480.89	8.1147e-06	2.8049e-05	293.43	105.82	183.79	84.676	1.6011e-05	49.847	0.0075256	0.0084055	0.0023456	1559.9	9.0327e-05	9.1729e-05	1022.3	514.46	8.9386e-05	9.086e-05	381.84	134.4	203.99	91.118	9.057e-05	63.334	244.115	-12.897	-92.194	-82.690	104.426	85.202	-84.654	-77.700	144.129	71.265	-81.549	-77.479	-73.748	-68.884	112.915	-72.567	-8191	255	
21170.771	1	1	0	0	0.29021	0.2434	0.30535	0.20483	0.092019	0.25568	0.1491	0.050623	0.089225	0.095958	0.29925	0.14713	0.22669	0.06789	0.060486	0.14767	0.19375	-0.94792	-0.2875	-0.64167	-1.1688	-0.40833	-0.86667	-1.0187	-0.0875	-1.1875	-0.66875	-0.53333	-1.2667	-0.39167	-0.64583	-1.0396	261.918	74.269	58.968	263.932	-56.667	51.969	175.427	-3.505	91.236	-66.369	165.797	61.239	-69.607	-76.845	-5.271	204.378	9.5843e-05	0.0015856	0.00043578	1468.5	3.8554e-06	1.1292e-06	880.81	481.47	1.2667e-05	3.9317e-06	293.26	105.09	182.65	83.939	1.0403e-05	49.618	0.0074057	0.0082666	0.0023113	1559.9	8.9315e-05	9.1679e-05	1021.6	513.95	8.9121e-05	9.0925e-05	382.08	134.44	203.05	90.823	9.0071e-05	62.839	252.250	-11.975	-65.358	-82.501	116.902	134.380	-84.609	-78.072	141.573	233.765	-81.414	-77.292	-73.854	-68.766	73.093	-72.510	-8191	255	
21170.867	1	1	0	0	0.10545	0.056078	0.13372	0.22719	0.083199	0.23181	0.18495	0.36362	0.17165	0.32273	0.22009	0.1341	0.081968	0.071326	0.086594	0.11475	0.28542	-1.1688	-0.74167	-0.4375	-1.1333	-0.34375	-0.76458	-1.2896	-0.27292	-0.89375	-0.74792	-0.26667	-1.0417	-0.49375	-0.63958	-1.0542	125.530	113.057	198.929	242.629	191.144	177.907	211.604	219.212	125.418	-49.166	190.039	156.257	255.339	243.300	-30.792	-74.939	0.00028187	0.0010406	0.00045046	1463.4	2.2483e-05	1.0788e-05	867.79	479.03	1.0129e-05	8.5877e-06	295.21	103.91	181.55	83.672	3.1927e-05	49.476	0.0073995	0.00824	0.0022975	1551.9	8.8619e-05	8.9869e-05	1009.5	510.6	8.7586e-05	8.9401e-05	377.33	132.36	201.76	90.04	8.692e-05	61.982	112.050	-81.232	-14.948	-82.465	46.700	77.925	-84.345	-77.799	113.315	88.413	-81.621	-77.079	-73.658	-68.964	145.501	-72.528	-8191	255	
21170.986	1	1	0	0	0.31369	0.086485	0.27403	0.032118	0.021185	0.10887	0.21062	0.21077	0.12358	0.22944	0.071204	0.11108	0.17301	0.24221	0.18946	0.049107	0.24792	-0.80833	-0.95208	-0.35625	-1.2396	-0.50417	-0.55417	-1.2979	-0.12917	-0.95833	-0.95	-0.25625	-1.3125	-0.80208	-0.3125	-1.1021	190.890	156.756	216.799	-67.838	42.152	-9.161	159.207	-88.211	-29.709	230.116	128.322	-40.201	243.709	208.392	132.501	142.363	0.00021688	0.00058251	0.00026787	1458.8	2.0191e-05	1.0438e-05	869.62	478.41	6.8667e-06	8.9506e-06	294	104.39	182.98	83.525	7.1825e-06	49.209	0.0072517	0.0080919	0.0022503	1540.5	8.6881e-05	8.8242e-05	1001.3	508.99	8.6291e-05	8.7965e-05	375.7	132.26	201.89	90.015	8.669e-05	61.911	-84.752	-43.684	4.487	-82.568	-53.016	-75.917	-84.422	-77.756	148.740	191.359	-81.381	-77.152	-73.533	-68.841	115.562	-72.558	-8191	255	
21171.082	1	1	0	0	0.12465	0.17745	0.13467	0.57296	0.0042172	0.08081	0.061884	0.42046	0.2742	0.15413	0.33152	0.1037	0.20295	0.30997	0.043784	0.16688	0.1	-0.775	-0.86458	-0.45833	-0.90625	-0.62708	-0.52083	-1.2729	-0.32917	-0.62917	-1.2354	-0.33958	-1.0292	-0.72708	-0.17917	-1.25	-38.101	186.065	97.821	237.863	214.260	-3.840	257.362	229.191	91.693	72.031	-67.183	168.126	214.609	215.780	-50.593	202.551	0.00015024	0.00070032	0.00051684	1456.7	8.5965e-06	1.7415e-05	865.06	476.38	1.3094e-05	2.4369e-05	290.03	105.27	183.82	84.176	1.0795e-05	50.123	0.0071288	0.0079828	0.0022209	1538.8	8.5777e-05	8.785e-05	1002	508.19	8.6105e-05	8.7606e-05	375.79	133.08	202.67	90.401	8.6505e-05	62.362	243.620	25.027	-49.764	-82.354	172.496	60.618	-84.077	-77.632	213.820	-30.266	-81.058	-76.851	-73.325	-68.640	-25.484	-72.806	-8191	255	
21171.180	1	1	0	0	0.28941	0.19828	0.29826	0.078938	0.21696	0.015954	0.28258	0.47384	0.057066	0.19712	0.078106	0.063164	0.17068	0.42903	0.0033869	0.059454	0.029167	-0.49583	-0.9375	-0.31458	-0.92917	-0.76667	-0.20417	-1.2354	-0.3875	-0.50833	-1.1333	-0.37083	-0.94167	-1.1396	0.020833	-1.2437	48.627	13.317	-15.297	205.584	153.272	178.998	203.902	230.400	9.661	-71.526	-16.867	88.607	-76.411	-58.278	69.564	121.248	0.00016674	0.00048276	0.00034074	1468.7	9.4664e-06	1.3242e-05	878.77	481.56	1.7389e-05	2.6412e-05	296.46	105.93	184.85	84.856	1.2021e-05	49.927	0.0071927	0.0080162	0.0022203	1549.5	8.6476e-05	8.8492e-05	1007.8	512.37	8.6122e-05	8.6731e-05	377.46	133.29	203.58	90.849	8.6557e-05	62.473	46.792	161.850	91.980	-82.488	-65.847	71.936	-84.216	-77.667	69.896	36.586	-81.112	-77.156	-73.102	-68.803	42.493	-72.272	-8191	255	
21171.275	1	1	0	0	0.12831	0.25339	0.20882	0.20396	0.10775	0.24422	0.17147	0.1427	0.20208	0.06045	0.11954	0.099336	0.15265	0.31382	0.14297	0.12567	-0.19375	-0.37083	-0.98958	-0.29792	-0.8	-0.9375	-0.21458	-1.1479	-0.46667	-0.32292	-1.2375	-0.41042	-0.82083	-1.1063	0.014583	-0.99583	4.542	179.388	67.902	-74.642	41.283	41.801	156.112	163.471	146.111	66.660	-48.653	-86.176	253.756	-86.968	100.147	93.495	0.00026051	0.0010097	0.00079694	1468.7	1.8611e-05	1.2308e-05	869.15	479.42	4.8787e-06	4.187e-05	295.43	105.72	183.93	84.294	5.1588e-06	49.719	0.0071313	0.0079472	0.0022031	1548.5	8.5983e-05	8.7137e-05	1005.1	509.9	8.5798e-05	8.7372e-05	376.38	133.32	202.98	90.767	8.6621e-05	62.385	-90.743	102.178	-38.948	-82.739	50.043	33.535	-84.583	-77.857	262.650	56.452	-81.505	-76.947	-73.294	-69.157	206.093	-72.534	-8191	255	
21171.371	1	1	0	0	0.10379	0.27009	0.098618	0.2283	0.17096	0.17145	0.26496	0.5	0.030843	0.28917	0.15011	0.37363	0.20921	0.26898	0.14976	0.053547	-0.34167	-0.22292	-1.1354	-0.47708	-0.5375	-0.98125	-0.35625	-1.225	-0.62708	-0.27292	-1.2708	-0.39375	-0.53333	-1.2896	-0.052083	-0.85625	65.742	157.135	217.785	205.055	11.140	81.973	103.141	222.058	-72.576	-92.152	213.129	158.659	240.439	-45.565	0.438	59.289	0.00012324	0.00043701	0.000536	1463.7	1.5516e-05	1.8214e-05	876.55	480.44	1.2688e-05	1.7342e-05	297.28	104.93	184.36	84.763	3.1244e-05	49.857	0.0071204	0.0079522	0.0022106	1547.9	8.6066e-05	8.7129e-05	1005.5	510.93	8.5202e-05	8.6957e-05	376.69	132.83	203.19	90.921	8.664e-05	62.613	-77.176	-80.199	-35.177	-82.548	203.102	165.839	-84.514	-77.784	236.452	26.368	-81.215	-77.301	-73.530	-68.664	185.969	-72.131	-8191	255	
21171.467	1	1	0	0	0.22419	0.12164	0.1037	0.2268	0.084141	0.24197	0.17164	0.1038	0.076492	0.23498	0.19178	0.044466	0.34834	0.15896	0.24013	0.16627	-0.52292	-0.26042	-1.0646	-0.83125	-0.50833	-1.1417	-0.35	-0.82917	-0.87292	-0.17708	-1.1646	-0.5125	-0.31042	-1.3021	-0.12708	-0.725	-1.452	-74.193	-70.282	170.211	251.544	65.169	154.134	91.460	130.854	22.270	246.242	160.953	206.794	-71.889	-8.650	170.639	0.00036627	0.0013512	0.00035673	1469.6	3.8467e-06	1.1514e-05	878.82	482.88	7.7401e-06	1.623e-05	298.96	107.19	185.06	85.299	2.5103e-05	50.356	0.0071319	0.0079468	0.0022108	1552.5	8.5488e-05	8.6763e-05	1009.5	513.47	8.5826e-05	8.6907e-05	380.86	134.01	203.42	91.059	8.6033e-05	62.843	-73.270	-53.950	-52.932	-82.450	57.918	36.816	-84.951	-77.683	214.713	-13.622	-81.527	-77.191	-73.350	-68.687	116.274	-72.486	-8191	255	
21171.588	1	1	0	0	0.11298	0.18712	0.28344	0.28089	0.083263	0.14244	0.38444	0.1075	0.033127	0.13716	0.32839	0.13007	0.091283	0.10628	0.087686	0.16924	-0.73125	-0.0083333	-0.8125	-0.82083	-0.22708	-1.0688	-0.41875	-0.45625	-0.98542	-0.18333	-1.0438	-0.84167	-0.41458	-1.3583	-0.475	-0.47292	98.445	79.649	-68.465	-48.047	130.596	165.329	197.406	192.025	10.138	177.279	264.191	261.025	-8.951	-90.795	163.580	-71.921	0.00024361	0.00091786	0.00087945	1471.1	9.8329e-06	3.2418e-06	882.2	485.97	1.303e-05	2.6462e-05	296.71	106.49	185.18	85.448	4.8521e-06	50.291	0.0071114	0.0079418	0.0022145	1553.7	8.5723e-05	8.6812e-05	1016.1	515.11	8.6173e-05	8.7269e-05	380.48	133.99	204.14	91.436	8.6144e-05	62.766	241.160	262.964	16.146	-82.525	103.945	191.168	-84.747	-77.736	49.891	76.838	-81.237	-77.232	-73.470	-68.799	-58.159	-72.589	-8191	255	
21171.684	1	1	0	0	0.063378	0.15027	0.20233	0.027515	0.25291	0.28915	0.2447	0.22756	0.073911	0.36481	0.031004	0.12937	0.1122	0.50998	0.28788	0.10622	-0.71667	-0.12917	-0.60833	-0.825	-0.085417	-1.0562	-0.525	-0.70417	-0.98958	-0.37083	-0.80625	-0.84167	-0.175	-1.1562	-0.46875	-0.57083	-18.998	45.538	26.247	19.343	55.277	167.533	236.961	-91.000	49.664	139.020	150.434	76.424	263.157	-93.076	119.641	129.186	0.00022382	0.0011253	0.00021508	1473	1.0029e-05	2.4234e-05	881.74	482.05	1.5359e-05	1.7266e-05	297.57	105.64	183.3	84.99	8.8147e-06	49.759	0.007069	0.0079264	0.0022033	1551	8.5825e-05	8.7394e-05	1011.3	513.3	8.6129e-05	8.8139e-05	379.35	133.49	203.05	91.484	8.8059e-05	62.797	241.369	203.460	-83.161	-82.486	150.669	21.578	-84.714	-77.568	127.707	197.096	-81.076	-76.903	-73.477	-68.922	188.585	-72.568	-8191	255	
21171.779	1	1	0	0	0.33604	0.31813	0.033908	0.45446	0.37823	0.18518	0.1388	0.20862	0.068016	0.15162	0.10674	0.34239	0.4556	0.18088	0.21974	0.30635	-0.7125	-0.20625	-0.50833	-1.0083	-0.097917	-0.94792	-0.55833	-0.38958	-1.1271	-0.1875	-0.89167	-1.0146	-0.19583	-1.2104	-0.74375	-0.18333	-44.799	-58.429	80.545	158.930	211.198	41.217	213.342	249.814	-20.803	240.635	154.094	67.702	238.583	240.811	226.693	168.707	0.00020988	0.00070774	0.00074976	1479.7	9.6297e-06	2.3511e-05	877.3	483.17	1.9242e-05	1.1321e-05	296.2	104.77	183.09	84.491	2.1132e-05	49.913	0.0072433	0.0080976	0.0022556	1560.7	8.747e-05	8.8706e-05	1016.3	514.53	8.6711e-05	8.8787e-05	379.58	132.94	202.33	91.179	8.6529e-05	62.296	239.671	43.823	45.119	-82.607	-23.354	80.375	-84.679	-77.731	141.136	56.871	-81.170	-77.117	-73.544	-68.625	45.991	-72.447	-8191	255	
21171.852	1	1	0	0	0.12601	0.249	0.15056	0.18986	0.29402	0.21531	0.10616	0.18463	0.072205	0.32868	0.23353	0.1751	0.13286	0.34285	0.10979	0.054536	-0.73542	-0.31667	-0.52917	-1.0812	-0.19375	-0.71042	-0.83125	-0.23125	-1.0979	-0.32292	-0.4375	-1.0896	-0.34167	-1.1562	-0.88958	-0.12292	259.020	125.198	170.243	94.602	79.963	99.752	103.651	-71.185	5.426	71.002	211.589	142.992	-51.179	222.538	111.726	40.585	0.00011685	0.001564	0.00028427	1468.8	9.5162e-06	3.4537e-05	867.6	479.17	2.1687e-05	1.9471e-05	291.98	104.58	183.62	84.749	1.5236e-05	50.073	0.0070749	0.0078966	0.0021859	1545.1	8.4186e-05	8.6079e-05	996.54	506.94	8.4078e-05	8.5044e-05	372.71	131.46	200.87	90.631	8.4641e-05	62.007	-64.947	225.704	-52.862	-82.435	20.595	92.385	-84.255	-77.443	-25.340	-49.526	-80.726	-76.993	-73.470	-68.568	54.948	-72.899	-8191	255	
21171.947	1	1	0	0	0.15532	0.32432	0.23205	0.2056	0.2508	0.21356	0.0537	0.11851	0.22326	0.32606	0.27282	0.031606	0.1744	0.42044	0.043474	0.046345	-0.60833	-0.4	-0.43125	-1.5063	-0.30208	-1.0063	-1.075	-0.36875	-1.0292	-0.5375	-0.22083	-0.95417	-0.15208	-0.73542	-0.82083	-0.36458	9.255	123.386	-82.401	-80.494	-16.275	-42.203	254.305	185.129	258.411	142.574	-80.339	-50.848	257.620	221.614	-79.925	148.579	0.00029994	0.00060122	0.00069192	1467	2.6426e-05	2.5514e-05	868.81	480.73	1.6015e-05	1.858e-05	296.23	104.83	183.33	85.255	1.5673e-05	50.45	0.006952	0.0077834	0.0021683	1538.9	8.3948e-05	8.5427e-05	995.72	508.4	8.4125e-05	8.5784e-05	375.65	132.12	202.03	91.016	8.5098e-05	62.416	-37.521	35.235	-87.101	-82.421	12.254	-91.533	-84.239	-77.704	157.333	108.585	-80.705	-77.313	-73.317	-68.720	50.816	-71.996	-8191	255	
21172.066	1	1	0	0	0.38906	0.037889	0.23578	0.31641	0.1923	0.4324	0.14559	0.1786	0.18787	0.19557	0.18302	0.17995	0.12866	0.29804	0.099084	0.26366	-0.59583	-0.60417	-0.13333	-1.2396	-0.15625	-0.54375	-1.1625	-0.27708	-1.0187	-0.77083	-0.26458	-1.0646	-0.52917	-0.72917	-1.0438	-0.25833	194.029	24.533	240.209	207.202	181.359	-87.471	10.723	201.317	-88.876	9.421	135.915	-71.448	71.631	264.002	73.953	226.200	0.00034511	0.0027298	0.00037883	1470	1.5378e-05	6.4142e-06	866.6	481.7	6.3207e-06	2.7433e-05	293.52	104.85	182.27	84.488	9.6715e-06	49.505	0.007039	0.0078534	0.0021925	1545.9	8.5423e-05	8.718e-05	1005.1	511.33	8.5573e-05	8.7089e-05	376.77	132.6	201.49	90.517	8.5526e-05	61.845	191.110	232.691	38.974	-82.365	87.053	111.407	-84.210	-77.830	-89.050	50.678	-81.430	-77.057	-73.391	-68.490	234.205	-72.411	-8191	255	
21172.162	1	1	0	0	0.097446	0.078117	0.097991	0.51203	0.13453	0.22334	0.0921	0.24046	0.24267	0.078506	0.2838	0.10609	0.1217	0.2361	0.16312	0.20572	-0.44583	-0.88958	-0.11875	-1.3625	-0.35417	-0.49375	-1.3563	-0.33333	-0.73542	-0.94583	-0.29792	-1.0729	-0.69375	-0.5875	-1.1854	-0.079167	-13.581	-71.341	-91.278	255.353	84.938	133.393	171.113	160.101	152.050	-88.350	198.991	39.820	219.360	-63.317	126.727	257.554	9.4044e-05	0.0010709	0.00094376	1461.1	7.034e-06	5.0238e-06	864.24	475.93	1.429e-05	1.5512e-05	291.26	103.16	181.67	84.274	1.6923e-05	49.869	0.0070483	0.0078567	0.0021705	1535.9	8.4647e-05	8.5587e-05	991.54	504.55	8.3947e-05	8.5396e-05	371.29	130.78	201	90.216	8.5398e-05	62.055	241.559	-48.849	56.467	-82.324	181.784	-87.009	-84.552	-77.552	102.565	19.937	-80.993	-77.170	-73.228	-68.460	152.612	-72.384	-8191	255	
21172.260	1	1	0	0	0.12833	0.17568	0.31286	0.028446	0.1608	0.3031	0.2667	0.26266	0.21808	0.054975	0.10751	0.23891	0.30272	0.13059	0.035309	0.26285	-0.3375	-0.825	-0.19583	-1.1833	-0.55208	-0.26667	-1.2687	-0.2625	-0.55	-0.99375	-0.26042	-1.1375	-0.88333	-0.31875	-1.1375	-0.2625	-55.267	133.724	-3.575	253.121	-90.656	-13.957	179.950	150.527	-67.241	73.194	163.465	237.584	175.347	184.157	-69.369	213.520	9.181e-05	0.00049945	0.0003831	1480.1	2.3984e-05	1.8334e-05	887.28	484.68	1.409e-05	1.8929e-05	300.37	106.99	186.1	85.805	1.9462e-05	50.129	0.0071345	0.0080401	0.0022247	1555.1	8.7261e-05	8.9425e-05	1018.9	518.07	8.8937e-05	8.995e-05	386.26	135.84	206.32	92.425	8.9488e-05	63.44	-0.572	51.377	210.963	-81.991	81.502	-33.726	-84.199	-77.655	-66.387	-1.854	-81.624	-76.872	-73.450	-68.330	127.587	-72.470	-8191	255	
21172.381	1	1	0	0	0.17559	0.061945	0.21465	0.47256	0.28027	0.16599	0.25072	0.19824	0.17437	0.098721	0.18356	0.060797	0.26933	0.19754	0.24646	0.18942	-0.13333	-1.1479	0.014583	-1.1792	-0.8125	-0.28958	-1.35	-0.48958	-0.5	-1.0875	-0.25625	-1.0354	-0.96667	-0.38542	-1.1479	-0.55208	207.636	154.926	162.034	256.976	88.117	-48.528	216.721	188.660	-28.942	-43.428	-45.032	102.751	214.232	-72.836	262.764	44.787	0.00017962	0.0020948	0.00073515	1482.5	2.5479e-05	1.4818e-06	887.56	489.34	6.8039e-06	2.7815e-05	297.68	105.31	183.64	84.9	1.5246e-05	49.576	0.0073879	0.0082269	0.0022722	1570.6	8.7924e-05	8.8979e-05	1022	519.12	8.6715e-05	8.7673e-05	381.04	133.14	202.6	91.234	8.5716e-05	62.258	173.656	-28.416	251.045	-81.898	19.326	40.213	-84.301	-77.769	96.058	-2.988	-81.643	-76.467	-73.499	-68.712	133.161	-72.265	-8191	255	
21172.451	1	1	0	0	0.18639	0.097192	0.27229	0.3617	0.26101	0.15343	0.1024	0.16336	0.037754	0.16088	0.18882	0.32983	0.083893	0.31463	0.12222	0.15254	-0.089583	-1.1854	-0.19792	-0.89583	-0.81042	-0.22708	-1.0021	-0.74792	-0.44167	-1.125	-0.041667	-0.525	-1.0875	-0.38958	-0.99167	-0.80833	-76.979	-40.801	211.479	198.447	137.614	133.973	188.043	119.617	36.420	156.880	-27.737	27.119	213.450	250.337	20.266	230.482	0.00018612	0.0015127	0.00020576	1469.8	1.5339e-05	1.4832e-05	866.33	477.44	6.188e-06	1.7e-05	292.27	103.67	182.46	84.284	3.7349e-06	49.59	0.0069754	0.0077614	0.0021522	1539.9	8.2932e-05	8.4246e-05	989.26	506.4	8.3295e-05	8.4679e-05	372.13	130.83	201.03	90.375	8.4602e-05	61.806	-91.347	-34.625	249.471	-82.141	48.979	103.274	-84.440	-77.127	29.661	72.803	-81.287	-77.253	-72.990	-68.754	98.417	-72.585	-8191	255	
21172.547	1	1	0	0	0.19715	0.16648	0.11147	0.37309	0.53318	0.088408	0.19656	0.19562	0.54976	0.28329	0.23846	0.15268	0.20544	0.21438	0.20696	0.091895	0.20625	-1.0896	-0.22708	-0.82917	-0.85	-0.10208	-0.82083	-0.69375	-0.22292	-1.1375	-0.35208	-0.52083	-1.2333	-0.24583	-0.75625	-0.94792	178.192	120.411	94.254	-82.598	24.092	220.769	214.079	139.861	-56.142	-42.469	251.245	25.494	192.289	240.675	66.453	-88.015	6.2886e-05	0.0012223	0.00015169	1465.1	5.4724e-06	1.8333e-05	867.81	477.39	8.7953e-06	1.663e-05	292.92	103.68	182.1	84.442	2.3612e-05	49.317	0.0070286	0.0078515	0.0021834	1540.8	8.4529e-05	8.6385e-05	997.97	508.18	8.5184e-05	8.6827e-05	374.27	131.35	201.34	90.616	8.5911e-05	61.797	-51.551	-30.899	185.396	-82.209	111.139	-76.652	-84.252	-77.819	216.785	94.541	-81.653	-77.245	-73.613	-68.776	66.100	-72.376	-8191	255	
21172.668	1	1	0	0	0.091168	0.26417	0.097816	0.13398	0.14498	0.29125	0.42981	0.2813	0.052388	0.093835	0.13215	0.22224	0.30845	0.34154	0.10601	0.19679	0.20625	-1.0812	-0.35208	-0.50208	-1.0312	-0.05	-0.91875	-1.1271	-0.27917	-1.1854	-0.44792	-0.40833	-1.3042	-0.55208	-0.75833	-0.86875	-37.242	-89.786	129.328	124.851	113.604	-72.520	233.115	238.379	-30.861	101.214	216.099	17.542	-89.912	171.455	-68.978	235.638	0.00026218	0.00057725	0.00095928	1469.1	9.4337e-07	6.8161e-06	869.41	482.51	1.2744e-05	8.5607e-06	295.27	104.4	182.22	84.923	3.6796e-05	49.739	0.0070595	0.0079824	0.0022104	1550.6	8.5478e-05	8.6848e-05	1003	511.79	8.5098e-05	8.7255e-05	376.53	131.91	201.67	90.997	8.5758e-05	62.08	183.131	-30.736	-50.220	-82.359	2.598	80.316	-84.100	-77.683	61.062	5.037	-81.138	-77.298	-73.387	-68.845	63.269	-72.744	-8191	255	
21172.764	1	1	0	0	0.23807	0.26692	0.069673	0.18575	0.075994	0.094878	0.18233	0.2757	0.28938	0.27612	0.12259	0.15239	0.32645	0.14971	0.17472	0.17935	0.21042	-1.0229	-0.58125	-0.56458	-1.2812	-0.35833	-0.81042	-0.99583	-0.24375	-0.84167	-0.66667	-0.25417	-1.125	-0.48333	-0.44792	-1.15	92.480	195.790	-30.801	227.521	175.775	10.151	122.381	217.601	205.348	-8.375	-43.845	-50.034	255.065	186.101	-21.613	251.802	0.00024943	0.0022891	0.00010427	1468.5	2.2391e-06	1.1351e-05	875.15	483.1	4.6555e-06	1.5261e-05	296.15	105.35	184.09	84.916	1.097e-05	50.608	0.0070297	0.0078994	0.0021832	1547	8.4642e-05	8.609e-05	1002.6	512.35	8.5067e-05	8.6569e-05	378.48	132.52	203.26	91.424	8.6371e-05	62.953	-87.299	254.969	-24.955	-82.363	39.111	-5.507	-84.404	-77.733	55.252	196.181	-81.356	-77.375	-73.513	-68.948	19.880	-72.206	-8191	255	
21172.859	1	1	0	0	0.13782	0.32915	0.10988	0.26754	0.24927	0.025854	0.27128	0.19199	0.12947	0.22392	0.36551	0.30453	0.27565	0.26523	0.10306	0.2439	0.25	-0.67292	-0.66667	-0.33125	-1.2396	-0.56042	-0.72917	-1.2354	-0.17708	-0.97708	-0.89167	-0.15	-1.2667	-0.70833	-0.31458	-1.2167	149.769	230.967	140.631	-73.794	184.158	77.460	202.294	246.187	26.737	101.537	140.804	175.474	84.022	-82.984	-20.430	5.984	3.6123e-05	0.00069422	0.0005491	1487.5	3.3237e-05	4.7867e-06	893.69	489.93	1.3025e-05	2.3251e-05	300.09	105.78	183.3	85.616	1.8317e-05	50.432	0.0071259	0.0080175	0.0022265	1567	8.6371e-05	8.8051e-05	1021.2	520.85	8.6052e-05	8.7565e-05	381.26	133.38	202.91	91.54	8.4429e-05	62.45	-46.034	130.783	-43.174	-82.415	196.572	-42.378	-84.555	-77.873	76.413	-39.981	-81.654	-77.052	-73.366	-68.841	192.063	-72.553	-8191	255	
21172.979	1	1	0	0	0.26146	0.09704	0.2056	0.55599	0.14643	0.29578	0.337	0.32137	0.20794	0.11834	0.11374	0.068655	0.25759	0.29908	0.45099	0.14871	0.22083	-0.73958	-0.96042	-0.33542	-1.0771	-0.43958	-0.44167	-1.1938	-0.28125	-0.9	-0.92083	-0.125	-1.0354	-0.83125	-0.28958	-1.3875	86.884	-13.168	248.124	184.170	257.691	263.862	263.100	215.174	10.384	-52.083	217.407	118.472	243.270	-90.019	252.819	240.554	8.5456e-05	0.0011572	0.00022067	1463.4	1.1589e-05	1.4726e-05	870.09	484.25	1.4287e-05	1.4684e-05	295.67	104.43	182.18	84.852	2.3514e-06	49.917	0.006929	0.0076701	0.0021291	1536.7	8.2436e-05	8.3598e-05	994.62	509	8.2508e-05	8.3822e-05	372.43	130.37	200.56	90.661	8.3683e-05	62.001	249.053	-76.927	-88.663	-82.281	169.243	17.719	-84.443	-77.713	21.382	157.198	-81.326	-77.385	-73.288	-68.691	226.764	-72.814	-8191	255	
21173.074	1	1	0	0	0.14062	0.099698	0.1084	0.2988	0.31965	0.15338	0.17556	0.21886	0.17445	0.085081	0.2813	0.2416	0.42651	0.23998	0.27869	0.24777	0.12292	-0.72708	-1.2542	-0.33958	-1.1187	-0.3875	-0.28542	-1.2729	-0.55417	-0.62292	-1.2396	-0.25417	-1.1271	-1.0375	-0.4125	-1.1833	90.149	-55.729	-21.951	165.061	195.813	30.036	168.196	-85.987	-47.114	178.297	223.407	-72.209	-65.297	215.282	23.361	258.441	0.00013546	0.0016169	0.00036831	1470.7	5.4652e-06	5.2394e-06	877.82	488	7.6863e-06	1.7484e-05	299.19	105.36	183.24	85.435	1.3506e-05	50.492	0.0069454	0.0077392	0.002147	1545.4	8.4178e-05	8.528e-05	1005.5	515.65	8.4181e-05	8.5318e-05	378.48	132.23	202.28	91.144	8.4778e-05	62.47	177.334	-81.293	0.981	-82.525	167.930	111.948	-84.475	-77.864	34.034	14.841	-81.033	-77.054	-73.254	-69.090	63.922	-72.515	-8191	255	
21173.146	1	1	0	0	0.13511	0.12726	0.061305	0.27957	0.11674	0.24381	0.1416	0.31031	0.11461	0.10431	0.19015	0.22509	0.13313	0.13311	0.25172	0.3236	-0.077083	-0.27708	-1.2125	-0.58542	-0.83333	-0.81667	-0.46667	-1.3875	-0.54792	-0.4	-1.1583	-0.30833	-0.84167	-1.1333	-0.25625	-1.1	34.138	228.573	164.075	-65.548	39.736	230.153	13.080	196.998	-18.526	178.221	211.269	239.947	77.643	-48.611	-33.541	-75.539	0.00028836	0.003305	0.00027003	1470.8	1.5523e-05	1.9516e-05	879.3	491.38	1.3402e-05	1.7668e-05	301.22	106.99	186.56	85.649	1.2427e-05	51.083	0.0070493	0.0078312	0.0021871	1555.3	8.521e-05	8.6588e-05	1014.1	519.81	8.5251e-05	8.6644e-05	382.55	134.14	205.44	91.841	8.7295e-05	63.709	244.363	-28.072	260.167	-82.336	69.595	-40.311	-84.617	-77.814	165.258	-12.028	-81.078	-77.210	-73.542	-68.864	64.743	-71.927	-8191	255	
21173.242	1	1	0	0	0.31164	0.3876	0.088898	0.11655	0.055667	0.27171	0.36338	0.35517	0.15819	0.1628	0.15285	0.081856	0.20341	0.18247	0.16214	0.12942	-0.30208	-0.33125	-1.2854	-0.57083	-0.77917	-0.98542	-0.14375	-1.0417	-0.74792	-0.39583	-1.1396	-0.39167	-0.62292	-1.2208	-0.11667	-0.97708	-21.848	15.596	198.692	-90.609	148.572	-8.066	163.804	194.490	159.255	123.623	3.133	233.316	-33.557	180.471	3.047	238.865	0.00030672	0.0021173	0.00053909	1490.9	2.5642e-05	4.054e-06	895.81	495.35	6.6735e-06	2.0005e-05	303.39	107.45	186.61	86.347	8.2706e-06	51.202	0.0072334	0.0080593	0.0022561	1572.7	8.6998e-05	8.854e-05	1027.7	525.57	8.6518e-05	8.7354e-05	385.74	135.24	206.04	92.422	8.727e-05	63.895	247.646	-38.758	-56.576	-82.578	95.316	-55.582	-84.266	-77.617	75.544	75.611	-81.367	-77.560	-73.483	-69.080	102.404	-72.503	-8191	255	
21173.363	1	1	0	0	0.24637	0.1548	0.15314	0.17529	0.18492	0.11166	0.18416	0.3144	0.14299	0.069681	0.31056	0.063759	0.26634	0.31401	0.030027	0.078356	-0.51042	-0.06875	-0.91042	-0.43958	-0.49167	-1.0562	-0.20208	-1.15	-0.86875	-0.38125	-1.0958	-0.55	-0.58333	-1.0792	-0.027083	-0.85833	46.342	-87.095	32.108	257.286	-63.626	80.502	-26.032	191.903	113.670	3.790	230.008	-30.017	-76.176	243.101	-95.878	-9.365	0.00020234	0.0018999	0.00035465	1493.3	1.5251e-05	1.9299e-05	900.1	496.49	8.0211e-06	2.1004e-06	306.18	107.03	187.3	86.55	1.63e-05	51.33	0.0072251	0.0080681	0.0022399	1575.5	8.7071e-05	8.9036e-05	1030.4	527.03	8.7499e-05	8.9108e-05	390.3	136.21	207.72	93.162	8.9541e-05	64.255	225.613	-38.705	71.547	-82.614	-32.864	-89.520	-84.814	-77.900	50.289	233.348	-81.242	-77.183	-73.502	-68.843	183.239	-72.828	-8191	255	
21173.461	1	1	0	0	0.17135	0.17959	0.2624	0.46601	0.048609	0.23621	0.19416	0.42851	0.32152	0.16295	0.29741	0.091292	0.093263	0.30839	0.09421	0.31241	-0.5	-0.15625	-0.93958	-0.7625	-0.39583	-1.0562	-0.41667	-0.98958	-1.0667	-0.0625	-1.1187	-0.77917	-0.32708	-1.3521	-0.43958	-0.775	234.525	218.944	171.345	212.903	61.945	176.941	189.843	184.845	70.683	35.674	179.764	60.407	-51.021	221.168	65.259	-67.282	0.00029482	0.00080164	0.00031626	1493.7	2.7671e-05	2.2327e-05	903.79	501.33	1.748e-05	1.1707e-05	308.43	107.51	187.23	87.067	4.6221e-06	51.689	0.0073612	0.0082351	0.0022919	1583.3	8.8675e-05	9.0368e-05	1040.9	531.46	8.88e-05	9.0315e-05	393.32	136.91	207.72	93.536	8.9969e-05	64.519	-44.223	33.630	113.312	-82.363	264.069	65.235	-84.897	-77.890	116.128	98.485	-81.071	-77.335	-73.588	-68.905	100.762	-72.116	-8191	255	
21173.557	1	1	0	0	0.14934	0.28991	0.24908	0.30878	0.15232	0.023234	0.24739	0.12935	0.12252	0.17819	0.20119	0.052595	0.32731	0.33579	0.1955	0.35115	-0.71458	0.01875	-0.81042	-0.78958	-0.14375	-1.0771	-0.45417	-0.78333	-1.0312	-0.2375	-0.90208	-0.89167	-0.17708	-1.4354	-0.58125	-0.5875	104.413	83.763	42.819	240.296	-85.892	81.302	197.024	190.381	102.394	18.478	108.506	101.139	218.504	185.516	32.621	231.478	5.0626e-05	0.0011694	0.00048238	1496.7	8.276e-06	6.7554e-06	902.74	499.1	3.2674e-06	9.421e-07	311.68	107.94	187.44	86.817	1.1283e-05	51.476	0.0073852	0.0082593	0.0023	1587.7	8.8546e-05	9.0546e-05	1041.1	531.79	8.8261e-05	9.0267e-05	392.77	136.63	207.14	93.407	8.8812e-05	64.336	-30.727	34.737	50.432	-82.039	120.622	-62.979	-84.530	-77.767	70.650	182.884	-81.185	-77.264	-73.504	-68.804	176.433	-72.270	-8191	255	
21173.652	1	1	0	0	0.21318	0.12725	0.13467	0.20787	0.19441	0.23491	0.18283	0.051682	0.16806	0.25322	0.15542	0.48974	0.153	0.30865	0.23569	0.14625	-0.7	-0.03125	-0.83542	-0.91042	-0.30625	-0.99167	-0.53542	-0.44167	-1.2708	-0.21042	-0.85625	-1.1688	-0.21875	-1.2396	-0.49167	-0.29583	166.506	52.481	65.486	226.541	92.163	-41.716	-55.324	217.727	139.465	-83.277	-93.852	218.399	210.634	239.952	65.065	185.643	0.0001445	0.00059229	0.0006004	1507.4	5.4545e-06	2.8566e-05	900.99	499.47	7.8464e-06	2.6633e-05	308.93	108.15	186.96	87.271	1.6763e-05	51.75	0.0072837	0.0081738	0.002271	1585.4	8.807e-05	8.9873e-05	1038.5	530.56	8.7832e-05	8.9732e-05	392.49	136.41	206.82	93.608	8.8376e-05	64.325	184.956	59.813	242.761	-82.366	60.994	224.301	-84.278	-77.835	-47.037	38.884	-81.419	-77.253	-73.862	-68.661	13.588	-72.346	-8191	255	
21173.748	1	1	0	0	0.17497	0.26096	0.15649	0.34186	0.23323	0.27096	0.17594	0.13384	0.23505	0.098374	0.27116	0.065905	0.10616	0.58196	0.14491	0.17431	-0.58125	-0.3125	-0.62917	-1.2771	-0.28333	-0.96667	-0.64583	-0.625	-1.2708	-0.59792	-0.71875	-1.0812	-0.38542	-1.0104	-0.81458	-0.32917	197.601	173.481	86.756	256.128	164.810	244.831	188.897	-83.590	-50.976	250.672	175.562	85.268	225.982	209.816	129.060	200.216	0.00012947	0.00071677	0.00032487	1498	1.4075e-05	9.337e-06	900.82	494.4	6.7335e-06	3.5347e-06	304.72	106.99	185.74	86.395	1.1635e-05	51.135	0.0072294	0.008123	0.00226	1582.2	8.712e-05	8.9097e-05	1033.2	526.32	8.7506e-05	8.9193e-05	386.49	134.86	205.18	92.842	8.7421e-05	63.669	254.627	25.185	-37.267	-82.385	195.979	149.720	-84.335	-77.759	9.362	-16.312	-81.089	-77.076	-73.474	-68.676	-37.846	-72.290	-8191	255	
21173.846	1	1	0	0	0.083042	0.14949	0.2566	0.095892	0.1104	0.11999	0.20134	0.42564	0.24236	0.23586	0.17262	0.18432	0.39431	0.45639	0.1069	0.4261	-0.84167	-0.54792	-0.44375	-1.6104	-0.23333	-0.85	-0.98125	-0.43958	-0.99792	-0.48333	-0.38333	-1.2083	-0.43958	-1.0292	-0.82708	-0.31667	0.748	168.189	154.504	150.007	28.905	228.300	-17.573	203.740	-21.991	-1.352	1.244	245.625	247.920	239.526	61.584	225.749	0.0002351	0.0012535	0.00023995	1485.7	9.2177e-06	2.2265e-05	892.78	490.52	1.5125e-06	1.5375e-05	301.33	105.75	185.73	86.003	1.3787e-05	51.03	0.0071892	0.008071	0.0022452	1568	8.7243e-05	8.8933e-05	1026.3	522.54	8.7565e-05	8.9212e-05	384.7	134.34	204.91	92.529	8.7857e-05	63.649	77.608	165.817	58.354	-82.414	-46.265	198.633	-84.627	-77.835	86.849	49.067	-81.413	-77.192	-73.706	-68.439	100.500	-72.406	-8191	255	
21173.941	1	1	0	0	0.06408	0.29033	0.27494	0.21369	0.092792	0.41711	0.24113	0.11578	0.15471	0.20492	0.22273	0.1742	0.37953	0.36969	0.060271	0.27052	-0.77917	-0.73125	-0.29167	-1.4104	-0.22083	-0.6875	-1	-0.40625	-1.0146	-0.51875	-0.30833	-1.1313	-0.475	-0.90833	-0.92083	-0.28958	123.526	-34.140	80.852	128.611	15.250	230.319	183.899	-63.148	-84.699	-40.195	-62.313	-73.700	213.258	209.281	-50.105	-41.547	0.00020533	0.000722	0.00024476	1490.9	1.4453e-05	7.1978e-06	888.35	493.03	5.3276e-06	2.4625e-05	302.44	107.07	185.85	86.308	7.7441e-06	51.099	0.0072551	0.0080837	0.0022423	1569.6	8.7179e-05	8.8825e-05	1021.8	522.76	8.6953e-05	8.8904e-05	385.31	134.67	205.67	92.794	8.7755e-05	63.709	-49.473	209.407	-69.855	-82.406	106.253	69.074	-84.458	-77.553	-72.497	91.186	-80.844	-76.751	-73.526	-68.668	233.816	-73.041	-8191	255	
21174.061	1	1	0	0	0.27378	0.3021	0.17545	0.15564	0.19014	0.10547	0.097697	0.13188	0.34815	0.047664	0.15291	0.09186	0.062613	0.098769	0.07319	0.17342	-0.48125	-0.83542	-0.10833	-1.2125	-0.4	-0.59792	-1.1479	-0.38333	-0.78542	-0.81875	-0.070833	-1.1458	-0.475	-0.53958	-1.1396	-0.16042	14.117	64.908	-38.547	263.691	138.740	107.610	203.288	207.644	198.668	41.088	173.005	76.694	-80.580	238.590	188.573	-28.180	0.00031001	0.0010685	0.00011263	1487.1	7.8119e-06	1.4836e-05	887.06	491.29	1.4643e-05	2.1182e-05	303.94	107.39	187.4	87.072	6.3157e-06	51.473	0.0072941	0.0081244	0.0022572	1569.4	8.7189e-05	8.8713e-05	1024.8	522.63	8.7604e-05	8.8854e-05	387.44	135.87	206.49	93.007	8.8626e-05	64.327	200.797	144.417	257.398	-82.347	96.352	67.772	-84.903	-77.518	258.184	-21.144	-80.854	-76.881	-73.418	-68.500	173.481	-72.271	-8191	255	
21174.156	1	1	0	0	0.17534	0.13125	0.078466	0.25099	0.1721	0.32831	0.33474	0.27896	0.061749	0.17522	0.13286	0.37771	0.090585	0.4282	0.089317	0.37526	-0.32917	-0.8625	-0.016667	-1.2729	-0.51667	-0.3375	-1.1083	-0.47292	-0.79583	-0.8625	-0.21458	-0.87917	-0.81042	-0.43542	-1.2542	-0.31875	-92.210	-68.005	254.921	216.717	-53.248	-6.127	-13.243	217.796	160.696	199.339	-86.904	252.269	-41.907	259.509	219.814	215.242	0.00016035	0.000696	0.00025204	1493.9	1.4429e-05	7.7737e-06	897.94	497.55	1.0661e-05	1.1913e-05	306.5	108.94	187.91	86.656	4.504e-06	50.67	0.007361	0.0082698	0.0022972	1579.8	8.9311e-05	9.0706e-05	1036.4	529.22	8.8997e-05	9.0868e-05	390.61	136.66	207.35	93.209	9.0019e-05	64.054	-53.195	-75.630	114.387	-82.137	227.104	79.381	-84.350	-77.361	37.802	46.670	-81.176	-77.008	-73.639	-68.517	-1.332	-72.354	-8191	255	
21174.252	1	1	0	0	0.10533	0.14841	0.30126	0.29697	0.17787	0.067656	0.11634	0.29041	0.12426	0.12754	0.070042	0.23375	0.1808	0.32767	0.15111	0.218	-0.060417	-0.99792	-0.029167	-0.89583	-0.52292	-0.13958	-1.0146	-0.55417	-0.7	-1.1063	-0.32292	-0.85417	-0.93542	-0.425	-1.2396	-0.48333	145.324	193.223	-83.192	252.304	152.789	209.494	260.104	214.403	-28.146	101.375	87.941	210.153	228.477	209.369	3.516	176.972	0.00015855	0.0001789	0.00064357	1489.6	2.0086e-05	1.37e-05	892.95	491.4	1.8014e-06	2.9611e-05	304.56	106.31	186.39	85.945	6.0471e-06	50.403	0.0074203	0.0082692	0.0023069	1577.6	8.9807e-05	9.1605e-05	1032.2	525.19	9.0088e-05	9.1659e-05	388.66	135.93	206.6	92.58	9.0285e-05	63.863	-26.690	158.675	46.382	-82.297	-66.322	69.094	-84.366	-77.639	-41.551	14.746	-81.736	-76.861	-73.532	-68.746	80.778	-72.295	-8191	255	
21174.348	1	1	0	0	0.18733	0.24783	0.23772	0.26048	0.23833	0.072024	0.28192	0.30842	0.17053	0.11316	0.26574	0.070569	0.27413	0.30849	0.11926	0.17792	-0.0020833	-1.0438	-0.15208	-0.99792	-0.79375	-0.47708	-1.2188	-0.70625	-0.3125	-1.1896	-0.2625	-0.86042	-1.0792	-0.32917	-1.0812	-0.54792	-68.688	219.418	-15.792	235.539	-92.384	226.787	167.551	122.220	18.253	213.272	49.132	21.133	-76.236	256.101	75.140	109.419	0.00019008	0.0014327	0.00027696	1487	8.0411e-06	5.537e-07	890.02	491.18	1.2524e-05	2.4722e-05	301.67	107.14	187.4	87.136	1.677e-05	51.228	0.0074068	0.0082499	0.002306	1573.1	8.9075e-05	9.1369e-05	1029.2	525.42	9.0262e-05	9.1725e-05	390.9	137.17	208.64	93.669	9.2214e-05	64.892	256.984	82.303	-36.330	-82.362	90.907	73.978	-84.022	-77.840	31.660	80.240	-81.554	-77.122	-73.529	-68.729	-58.626	-72.403	-8191	255	
21174.443	1	1	0	0	0.14356	0.22051	0.2422	0.2449	0.13308	0.051985	0.24952	0.24338	0.15098	0.3223	0.4769	0.20789	0.18084	0.31054	0.23042	0.084679	0.025	-1.0625	-0.19375	-1.0167	-1.0479	-0.14583	-1.1104	-0.75417	-0.2375	-1.2	-0.35625	-0.66042	-1.2854	-0.60417	-0.95625	-0.90417	129.305	23.133	241.065	-86.095	126.571	134.082	205.107	201.705	84.539	41.634	39.764	239.943	184.547	225.808	-63.753	-87.346	0.00028224	0.00079051	0.00041653	1499.9	1.788e-05	1.92e-05	903.49	499.29	4.6875e-06	1.2628e-05	306.82	108.95	189.89	87.376	1.8681e-05	51.353	0.007578	0.0085145	0.0023635	1591.4	9.129e-05	9.3211e-05	1044	532.15	9.0676e-05	9.2498e-05	394.98	137.73	209.44	94.023	9.1619e-05	64.955	218.936	99.118	71.592	-81.881	-51.160	49.555	-84.295	-77.832	162.924	31.439	-81.376	-76.747	-73.414	-68.732	-40.291	-72.425	-8191	255	
21174.539	1	1	0	0	0.13027	0.16973	0.19343	0.073789	0.15385	0.084455	0.079196	0.20574	0.23068	0.16573	0.12503	0.18667	0.16107	0.23279	0.2308	0.36554	0.10208	-1.1292	-0.3375	-0.62917	-1.0083	-0.2	-0.99792	-1.025	-0.29583	-1.2687	-0.48333	-0.45208	-1.125	-0.39375	-0.94375	-1.0063	-88.085	-35.094	129.589	166.420	247.983	-79.726	210.753	196.956	245.093	-27.122	149.257	189.391	178.593	-61.554	226.858	179.686	8.686e-05	0.001817	0.0001074	1501.2	2.059e-05	1.4263e-05	896.7	499.46	1.4421e-05	1.4846e-05	307.13	108.57	189.06	87.605	2.3479e-05	51.542	0.0075019	0.0084499	0.002333	1589.7	9.024e-05	9.133e-05	1041.7	530.15	8.938e-05	9.1607e-05	393.49	137.49	208.9	94.047	9.0894e-05	64.892	226.711	-68.608	36.462	-82.011	-48.323	-19.187	-84.266	-77.750	121.691	18.808	-81.495	-77.252	-73.497	-68.678	83.561	-72.416	-8191	255	
21174.660	1	1	0	0	0.30066	0.17417	0.074626	0.24583	0.090767	0.12486	0.13831	0.39003	0.072799	0.18274	0.21545	0.079161	0.37151	0.29768	0.21514	0.15401	0.30833	-1.0042	-0.36875	-0.48958	-1	-0.24375	-0.82292	-1.1542	-0.14167	-1.0812	-0.58125	-0.30833	-1.2	-0.36667	-0.66458	-0.98125	8.530	24.721	90.248	-87.083	161.250	-50.288	234.012	236.488	-14.943	-51.893	243.045	123.825	246.580	197.426	-10.190	2.766	0.00021291	0.00083311	0.00035189	1500.5	6.974e-06	4.5409e-06	901.19	497.71	6.5117e-06	1.9497e-05	303.17	106.86	188	86.767	8.5835e-06	50.808	0.0075093	0.0083926	0.0023451	1588.3	9.0349e-05	9.2205e-05	1039	530.72	9.0573e-05	9.2956e-05	391.58	136.76	208.27	93.55	9.1649e-05	64.389	-76.936	176.147	213.425	-82.114	150.552	-18.120	-84.455	-77.773	-93.262	109.378	-81.470	-77.070	-73.296	-68.669	-25.846	-72.525	-8191	255	
21174.758	1	1	0	0	0.13519	0.16977	0.25485	0.13599	0.16596	0.21628	0.30794	0.18573	0.16657	0.29311	0.21211	0.21358	0.26272	0.21483	0.036136	0.18652	0.21042	-0.73125	-0.45208	-0.38333	-1.0688	-0.40625	-0.6	-1.1812	-0.3875	-0.98542	-0.73542	-0.25208	-0.88333	-0.64583	-0.18958	-1.0083	202.949	-17.557	-29.897	-37.003	187.553	252.229	219.786	219.606	-17.427	58.352	188.365	239.929	-71.313	-12.701	-52.241	256.354	0.00015595	0.0014701	0.00048053	1498	2.3217e-05	1.0159e-05	900.84	498.72	7.3155e-06	1.9479e-05	305.16	106.91	187.45	86.789	1.1973e-05	51.093	0.0075515	0.0084141	0.0023507	1587.6	9.0559e-05	9.277e-05	1039.8	530.65	9.0553e-05	9.2149e-05	391.37	136.49	207.74	93.416	9.0431e-05	64.171	227.421	31.910	25.495	-82.282	206.873	82.474	-83.999	-77.815	189.274	26.078	-81.429	-77.119	-73.247	-68.601	38.842	-72.570	-8191	255	
21174.854	1	1	0	0	0.21831	0.17089	0.15166	0.27177	0.0080216	0.18064	0.21644	0.24895	0.087318	0.041571	0.26841	0.13609	0.1598	0.11511	0.16386	0.014422	0.2875	-0.97917	-0.72292	-0.10417	-1.1792	-0.32292	-0.47917	-1.3458	-0.30625	-0.67708	-0.86458	-0.10625	-1.1938	-0.84167	-0.1875	-1.175	257.422	123.891	-79.093	223.355	229.307	19.040	-69.296	225.563	258.692	256.533	217.927	151.462	216.249	38.007	88.711	228.832	0.0002144	0.0012388	0.00015525	1497.6	6.9297e-06	8.9428e-06	895.4	498.21	5.5388e-06	1.9433e-05	305.44	107.62	187.08	87.246	1.0087e-05	51.5	0.0074095	0.0082683	0.0023072	1579.6	8.9605e-05	9.1009e-05	1032.8	529.48	8.9539e-05	9.093e-05	391.47	136.45	208.04	93.862	9.0669e-05	64.691	256.114	208.175	-54.711	-82.044	51.789	98.124	-84.465	-77.577	6.634	50.970	-81.485	-77.096	-73.308	-68.752	225.614	-71.850	-8191	255	
21174.947	1	1	0	0	0.12931	0.13357	0.16069	0.12737	0.092698	0.27239	0.15036	0.33055	0.081992	0.29713	0.033758	0.17391	0.33047	0.207	0.16448	0.17223	0.45417	-0.57917	-0.83542	-0.28125	-0.97292	-0.65625	-0.28125	-1.2188	-0.33125	-0.76042	-1.1896	-0.2375	-0.87917	-0.89375	-0.27917	-1.0646	58.090	-36.612	185.347	209.807	139.273	-73.408	155.279	-72.645	-16.842	-15.019	174.935	190.103	260.389	220.164	200.056	-11.505	0.00022282	0.0011018	0.00064611	1502.6	1.8334e-05	2.5854e-05	899.86	501.27	6.5396e-07	8.546e-06	306.45	106.42	187.84	87.597	7.3032e-06	51.272	0.0074822	0.0083757	0.0023291	1588.1	8.9963e-05	9.1501e-05	1040.9	532.61	8.9715e-05	9.1532e-05	391.88	136.92	208.08	94.046	8.975e-05	64.548	248.139	20.463	-31.687	-82.139	-82.080	90.287	-84.011	-77.453	149.172	154.369	-81.585	-76.846	-73.257	-68.649	171.328	-72.548	-8191	255	
21175.045	1	1	0	0	0.070239	0.16467	0.23388	0.27503	0.22305	0.039759	0.3499	0.2783	0.27383	0.16931	0.13128	0.211	0.19326	0.51981	0.16304	0.39193	0.075	-0.46042	-1.0896	-0.43333	-0.78333	-0.875	-0.175	-1.1792	-0.47292	-0.36458	-1.0708	-0.19375	-0.93542	-1.0708	0.029167	-1.1854	175.461	238.094	-94.281	253.965	242.052	90.108	186.826	198.958	44.041	240.594	238.671	-80.701	-25.993	218.088	250.451	117.814	0.00019813	0.00074089	0.00015916	1495.4	2.2216e-05	4.4184e-06	893.08	497.66	1.6893e-05	1.4731e-05	299.96	107.5	187.43	87.172	1.8771e-05	50.959	0.0074117	0.0082414	0.0023049	1578.5	8.9472e-05	9.0714e-05	1032.1	528.05	8.888e-05	9.0253e-05	387.5	135.83	207.48	93.503	8.9804e-05	64.233	227.690	160.506	96.054	-82.157	221.000	-94.790	-84.361	-77.610	204.349	-46.793	-80.997	-77.588	-73.099	-68.502	-2.376	-72.221	-8191	255	
#DATA ENDS
