BOXY.EXE: ISS Imagent and Oximeter Data Acquisition Program Version 0.80
Ascii Record File

#ACQ INFORMATION
2  Detector Channels 
16  External MUX Channels 
1  Auxiliary Channels 
5000  Waveform (CCF) Frequency (Hz)
1  Waveforms Skipped 
30  Waveforms Averaged 
1  Cycles Averaged 
16  Acquisitions per Waveform 
10.0806  Updata Rate (Hz) 

#FILE INFORMATION
TRUE -- External MUX Channel results are PARSED.
FALSE -- AC DC and Phase are NOT grouped.
TRUE -- Companion Program Settings File CREATED.
FALSE -- AC data not excluded
FALSE -- DC data not excluded
FALSE -- Phase data not excluded
FALSE -- Auxillary Chn. data not excluded
Tab delimiters

#CALIBRATION STATE
TRUE -- Waveform Calibration Values APPLIED.


#AUX CALIBRATION VALUES
Val Type	aux-1	

Term	1.0000e+00	
Factor	0.0000e+00	


#WF CALIBRATION VALUES
A = Detector Channel
Val Type	A-AC1	A-AC2	A-AC3	A-AC4	A-AC5	A-AC6	A-AC7	A-AC8	A-AC9	A-AC10	A-AC11	A-AC12	A-AC13	A-AC14	A-AC15	A-AC16	A-DC1	A-DC2	A-DC3	A-DC4	A-DC5	A-DC6	A-DC7	A-DC8	A-DC9	A-DC10	A-DC11	A-DC12	A-DC13	A-DC14	A-DC15	A-DC16	A-Ph1	A-Ph2	A-Ph3	A-Ph4	A-Ph5	A-Ph6	A-Ph7	A-Ph8	A-Ph9	A-Ph10	A-Ph11	A-Ph12	A-Ph13	A-Ph14	A-Ph15	A-Ph16	

Term	0.00000e+00	0.00000e+00	0.00000e+00	0.00000e+00	0.00000e+00	0.00000e+00	0.00000e+00	0.00000e+00	0.00000e+00	0.00000e+00	0.00000e+00	0.00000e+00	0.00000e+00	0.00000e+00	0.00000e+00	0.00000e+00	0.00000e+00	0.00000e+00	0.00000e+00	0.00000e+00	0.00000e+00	0.00000e+00	0.00000e+00	0.00000e+00	0.00000e+00	0.00000e+00	0.00000e+00	0.00000e+00	0.00000e+00	0.00000e+00	0.00000e+00	0.00000e+00	0.00000e+00	0.00000e+00	0.00000e+00	0.00000e+00	0.00000e+00	0.00000e+00	0.00000e+00	0.00000e+00	0.00000e+00	0.00000e+00	0.00000e+00	0.00000e+00	0.00000e+00	0.00000e+00	0.00000e+00	0.00000e+00	
Factor	1.00000e+00	1.00000e+00	1.00000e+00	1.00000e+00	1.00000e+00	1.00000e+00	1.00000e+00	1.00000e+00	1.00000e+00	1.00000e+00	1.00000e+00	1.00000e+00	1.00000e+00	1.00000e+00	1.00000e+00	1.00000e+00	1.00000e+00	1.00000e+00	1.00000e+00	1.00000e+00	1.00000e+00	1.00000e+00	1.00000e+00	1.00000e+00	1.00000e+00	1.00000e+00	1.00000e+00	1.00000e+00	1.00000e+00	1.00000e+00	1.00000e+00	1.00000e+00	X	X	X	X	X	X	X	X	X	X	X	X	X	X	X	X	

B = Detector Channel
Val Type	B-AC1	B-AC2	B-AC3	B-AC4	B-AC5	B-AC6	B-AC7	B-AC8	B-AC9	B-AC10	B-AC11	B-AC12	B-AC13	B-AC14	B-AC15	B-AC16	B-DC1	B-DC2	B-DC3	B-DC4	B-DC5	B-DC6	B-DC7	B-DC8	B-DC9	B-DC10	B-DC11	B-DC12	B-DC13	B-DC14	B-DC15	B-DC16	B-Ph1	B-Ph2	B-Ph3	B-Ph4	B-Ph5	B-Ph6	B-Ph7	B-Ph8	B-Ph9	B-Ph10	B-Ph11	B-Ph12	B-Ph13	B-Ph14	B-Ph15	B-Ph16	

Term	0.00000e+00	0.00000e+00	0.00000e+00	0.00000e+00	0.00000e+00	0.00000e+00	0.00000e+00	0.00000e+00	0.00000e+00	0.00000e+00	0.00000e+00	0.00000e+00	0.00000e+00	0.00000e+00	0.00000e+00	0.00000e+00	0.00000e+00	0.00000e+00	0.00000e+00	0.00000e+00	0.00000e+00	0.00000e+00	0.00000e+00	0.00000e+00	0.00000e+00	0.00000e+00	0.00000e+00	0.00000e+00	0.00000e+00	0.00000e+00	0.00000e+00	0.00000e+00	-4.62441e+01	-1.32572e+02	-1.29572e+02	-1.81597e+02	-4.15668e+01	-5.83256e+01	-1.56500e+02	-1.62015e+02	-3.67652e+01	-6.24913e+01	-1.72056e+02	-1.69104e+02	-1.85187e+02	-1.76509e+02	-5.71229e+01	-1.48960e+02	
Factor	2.03475e-05	1.44044e-04	3.70300e-05	1.49915e-01	1.81671e-06	1.56856e-06	1.65062e-01	4.98778e-02	1.21743e-06	1.38476e-06	8.58732e-02	2.76831e-02	2.39861e-02	8.83716e-03	1.25044e-06	1.25509e-02	3.11720e-06	3.47186e-06	9.65345e-07	7.81745e-02	3.75463e-08	3.82462e-08	8.07447e-02	2.60758e-02	3.75634e-08	3.82832e-08	4.31824e-02	1.40095e-02	1.25879e-02	4.64319e-03	3.78202e-08	6.36179e-03	X	X	X	X	X	X	X	X	X	X	X	X	X	X	X	X	



#DISTANCE SETTINGS
A = Detector Channel
A-1	A-2	A-3	A-4	A-5	A-6	A-7	A-8	A-9	A-10	A-11	A-12	A-13	A-14	A-15	A-16	

2.5000e+00	3.0000e+00	2.5000e+00	3.0000e+00	2.0000e+00	3.0000e+00	1.5000e+00	3.0000e+00	3.0000e+00	3.0000e+00	3.0000e+00	3.0000e+00	3.0000e+00	3.0000e+00	1.5000e+00	3.0000e+00	

B = Detector Channel
B-1	B-2	B-3	B-4	B-5	B-6	B-7	B-8	B-9	B-10	B-11	B-12	B-13	B-14	B-15	B-16	

1.0000e+01	1.0000e+01	1.0000e+01	1.4400e+00	1.0000e+01	1.0000e+01	1.5100e+00	1.9400e+00	1.0000e+01	1.0000e+01	1.9900e+00	2.4900e+00	2.4100e+00	2.9000e+00	1.0000e+01	2.9800e+00	




#DATA BEGINS
time	group	step	mark	flag	A-AC1	A-AC2	A-AC3	A-AC4	A-AC5	A-AC6	A-AC7	A-AC8	A-AC9	A-AC10	A-AC11	A-AC12	A-AC13	A-AC14	A-AC15	A-AC16	A-DC1	A-DC2	A-DC3	A-DC4	A-DC5	A-DC6	A-DC7	A-DC8	A-DC9	A-DC10	A-DC11	A-DC12	A-DC13	A-DC14	A-DC15	A-DC16	A-Ph1	A-Ph2	A-Ph3	A-Ph4	A-Ph5	A-Ph6	A-Ph7	A-Ph8	A-Ph9	A-Ph10	A-Ph11	A-Ph12	A-Ph13	A-Ph14	A-Ph15	A-Ph16	B-AC1	B-AC2	B-AC3	B-AC4	B-AC5	B-AC6	B-AC7	B-AC8	B-AC9	B-AC10	B-AC11	B-AC12	B-AC13	B-AC14	B-AC15	B-AC16	B-DC1	B-DC2	B-DC3	B-DC4	B-DC5	B-DC6	B-DC7	B-DC8	B-DC9	B-DC10	B-DC11	B-DC12	B-DC13	B-DC14	B-DC15	B-DC16	B-Ph1	B-Ph2	B-Ph3	B-Ph4	B-Ph5	B-Ph6	B-Ph7	B-Ph8	B-Ph9	B-Ph10	B-Ph11	B-Ph12	B-Ph13	B-Ph14	B-Ph15	B-Ph16	aux-1	digaux	

14091.838	1	1	0	768	0.21689	0.40129	0.27056	0.19357	0.13994	0.22684	0.29811	0.16457	0.44952	0.051143	0.33256	0.081294	0.24305	0.17285	0.34391	0.11121	-0.49375	-0.94792	-0.25625	-1.1479	-0.70208	-0.37708	-1.3479	-0.39583	-0.62083	-0.91042	-0.32292	-1.2792	-0.65417	-0.21667	-1.075	-0.17292	238.839	198.523	-5.971	259.812	258.643	200.447	224.261	258.368	301.372	2.498	-47.767	-7.285	235.399	243.201	114.914	-44.214	0.00022431	0.00065918	0.00017578	1366.2	7.6346e-06	6.6813e-06	1362.3	368.13	3.7425e-06	1.146e-06	421.77	139.93	121.72	42.034	2.772e-06	51.999	0.00051829	0.00054057	0.00015082	1377.5	5.9237e-06	5.8607e-06	1376.5	373.22	5.9157e-06	5.8648e-06	426.84	143.35	124.44	43.026	5.8603e-06	53.195	247.388	79.120	55.107	-41.070	155.475	127.380	-40.839	-36.521	134.992	18.499	-37.086	-32.100	-31.889	-27.729	18.349	-28.222	-8191	255	
14091.934	1	1	0	0	0.057747	0.11648	0.13594	0.12675	0.17437	0.14607	0.16218	0.27017	0.14997	0.23373	0.10492	0.37416	0.2699	0.32651	0.16225	0.14089	-0.22708	-0.88542	-0.45833	-1.1333	-0.69375	-0.2375	-1.1708	-0.45	-0.50417	-0.86042	-0.41875	-0.99375	-0.78542	-0.425	-1.075	-0.56875	301.879	301.381	156.931	210.735	122.409	173.411	154.393	301.530	-0.952	157.776	211.182	281.646	230.141	-21.948	123.602	77.994	0.00016558	0.00062374	9.3007e-05	1362.2	7.1588e-06	4.7218e-06	1361.7	366.44	2.6336e-06	1.9754e-06	421.57	140.55	122.13	41.989	3.6104e-06	52.304	0.00052355	0.00054272	0.0001488	1376.3	5.8693e-06	5.8939e-06	1374.7	372.66	5.8654e-06	5.8738e-06	426.49	143.32	124.58	42.936	5.8654e-06	53.224	248.243	33.894	-2.129	-41.159	140.348	114.809	-41.035	-36.260	158.755	81.841	-37.135	-32.568	-31.689	-27.306	132.740	-28.377	-8191	255	
14092.030	1	1	0	0	0.053534	0.19748	0.14209	0.28473	0.10794	0.19657	0.32942	0.22749	0.20473	0.071416	0.30658	0.1358	0.27586	0.28933	0.078627	0.22448	-0.14375	-1.1562	-0.14167	-1.075	-0.78333	-0.42083	-1.0729	-0.73333	-0.34375	-1.1688	-0.3375	-0.76458	-1.0854	-0.35417	-0.95625	-0.625	55.471	182.434	-50.761	228.904	245.516	1.127	188.218	278.983	138.857	131.330	238.576	280.057	188.100	275.458	193.729	298.836	0.00015257	0.00057083	0.00012676	1360.1	4.4678e-06	7.2431e-06	1366.9	366.35	1.1991e-06	2.598e-06	419.64	140.05	121.4	42.033	5.172e-07	51.932	0.00052725	0.00053943	0.00015021	1374.4	5.8816e-06	6.0126e-06	1373.9	372.27	5.95e-06	5.9614e-06	425.8	143.11	124.35	42.998	5.91e-06	53.105	228.595	37.897	50.428	-41.149	144.832	106.455	-40.991	-36.260	128.023	151.436	-37.039	-32.056	-31.695	-27.627	201.369	-28.225	-8191	255	
14092.126	1	1	0	0	0.18824	0.3189	0.1547	0.28323	0.20905	0.18065	0.4863	0.38004	0.28487	0.20718	0.26851	0.11557	0.137	0.25983	0.063519	0.0323	-0.0083333	-0.99375	-0.047917	-0.89792	-1.0167	-0.27083	-1.1979	-0.96875	-0.32292	-1.2875	-0.44792	-0.66875	-1.1646	-0.325	-0.9	-0.90417	276.357	129.820	289.871	267.200	135.664	-16.847	271.728	260.854	293.412	89.376	290.822	208.409	268.941	276.050	-33.597	163.141	0.00018348	0.00065386	0.00019871	1361.5	6.3953e-06	6.3879e-06	1360	367.82	7.9846e-07	5.7396e-06	420.92	140.37	122.02	42.094	5.7764e-06	51.822	0.00052236	0.00054197	0.00015064	1373.6	5.9733e-06	5.9965e-06	1372.6	373.6	5.9435e-06	5.9498e-06	426.38	143.39	124.49	42.981	5.959e-06	53.152	237.821	67.947	24.049	-41.115	152.146	80.852	-40.878	-36.375	258.848	105.875	-37.089	-32.102	-31.938	-27.226	124.061	-28.399	-8191	255	
14092.222	1	1	0	0	0.076109	0.21841	0.28455	0.29574	0.12359	0.15238	0.51582	0.1934	0.10688	0.012013	0.34694	0.27118	0.12627	0.14099	0.15422	0.036426	0.070833	-1.3312	-0.34792	-0.9	-1.1104	-0.26458	-1.1562	-0.92083	-0.12083	-1.1292	-0.74792	-0.325	-1.2417	-0.35	-0.85833	-1.1083	-10.932	-8.304	67.012	263.329	136.089	-40.973	238.734	172.793	126.180	152.027	154.432	300.722	-30.330	-44.816	265.956	125.137	0.00013461	0.00030566	0.00013187	1363	2.4257e-06	1.3423e-06	1362	368.47	3.4327e-06	5.0726e-06	422.18	139.61	121.93	41.935	3.9736e-06	52.036	0.00053307	0.00054379	0.00015371	1374	5.8749e-06	5.9448e-06	1372.5	372.86	5.9753e-06	5.9349e-06	426.82	143.11	124.41	42.987	6.1948e-06	53.205	265.072	92.191	45.618	-40.981	120.361	91.146	-40.815	-36.189	92.708	115.327	-37.026	-31.924	-31.383	-27.584	123.144	-28.322	-8191	255	
14092.319	1	1	0	0	0.1724	0.099043	0.3763	0.16966	0.047301	0.12503	0.11587	0.27621	0.070351	0.20378	0.22801	0.073972	0.19788	0.22849	0.15514	0.29571	0.10417	-0.99375	-0.57292	-0.72292	-1.125	-0.3875	-1.0646	-1.2437	-0.24375	-1.0708	-0.82708	-0.36875	-1.2354	-0.13958	-0.69583	-0.98333	204.880	108.671	43.213	248.859	299.471	11.337	211.016	290.721	12.136	278.995	236.332	61.448	-53.689	269.308	79.212	273.804	0.0002056	0.00031491	0.0001259	1359.6	6.6755e-06	3.7619e-06	1362.1	368.26	4.9564e-06	5.6612e-06	421.57	140.34	121.92	41.936	1.4679e-06	52.164	0.00053099	0.00054549	0.00015397	1373.7	6.0457e-06	6.0067e-06	1371	374	6.0751e-06	5.9449e-06	426.84	143.06	124.47	42.946	6.0741e-06	53.232	228.336	-36.517	56.710	-40.935	110.196	28.270	-40.991	-36.317	169.697	113.418	-36.990	-32.108	-31.968	-27.715	82.390	-28.270	-8191	255	
14092.439	1	1	0	0	0.26024	0.081698	0.1991	0.46355	0.23779	0.069671	0.21148	0.21962	0.21076	0.14255	0.21849	0.072144	0.15643	0.32428	0.14405	0.19174	0.0041667	-0.90417	-0.65	-0.56667	-1.0312	-0.30625	-0.83125	-1.2125	-0.26875	-1.1208	-0.87083	-0.46042	-1.0604	-0.53542	-0.35833	-1.125	291.743	245.735	-37.640	-46.878	130.098	100.326	248.316	-10.697	79.262	288.109	164.947	243.678	0.886	-49.513	65.368	26.886	0.00017486	0.00058745	0.00013513	1360.4	3.2523e-06	5.6877e-06	1365	368.66	1.4152e-06	1.7822e-06	419.91	139.56	121.36	41.94	3.1235e-06	52.064	0.00052975	0.00054777	0.00015176	1373.8	6.0628e-06	6.0456e-06	1373.4	373.65	6.018e-06	6.0479e-06	426.07	143.01	124.24	42.913	6.0498e-06	53.201	240.749	36.171	8.690	-40.956	124.760	59.334	-40.918	-36.053	81.588	70.757	-37.153	-32.414	-31.688	-27.522	114.754	-28.325	-8191	255	
14092.534	1	1	0	0	0.1386	0.209	0.14939	0.19922	0.1157	0.15544	0.13438	0.24505	0.086423	0.25219	0.25732	0.13147	0.060798	0.18751	0.17436	0.18067	0.06875	-0.95625	-0.86875	-0.64167	-1.3167	-0.57708	-0.87917	-1.3563	-0.29583	-1.0562	-1.1958	-0.44375	-1.3458	-0.68542	-0.2875	-1.225	19.776	229.894	103.677	267.276	4.233	102.645	248.088	270.961	92.364	73.178	239.358	-52.813	-11.001	-19.143	230.421	276.100	0.00018622	0.00041418	0.00017165	1363	2.2059e-06	7.4105e-06	1358.6	366.98	2.1085e-06	4.295e-06	418.48	140.22	121.18	41.825	1.8377e-06	52.243	0.0005272	0.00054861	0.00015274	1374.5	5.9706e-06	6.1259e-06	1371.7	372.53	6.0483e-06	6.0825e-06	426.31	143.19	124.2	42.929	6.1349e-06	53.201	228.117	44.327	32.559	-40.901	158.206	47.685	-40.832	-36.230	140.782	119.226	-37.163	-31.991	-31.651	-27.435	48.467	-28.334	-8191	255	
14092.630	1	1	0	0	0.071414	0.22322	0.10955	0.21339	0.11191	0.080967	0.37322	0.061397	0.16194	0.24569	0.13753	0.23336	0.23323	0.44972	0.089281	0.012047	-0.020833	-0.71875	-0.95625	-0.20208	-1.0292	-0.64583	-0.65625	-1.3042	-0.50208	-0.71875	-1.2417	-0.38333	-1.0667	-0.68333	-0.325	-1.3896	209.593	281.000	81.067	257.473	-8.103	17.442	211.625	33.515	112.612	38.066	162.163	-5.148	296.490	303.508	-37.919	86.280	0.00021961	0.00064915	0.00021274	1357.7	4.7559e-06	8.2557e-06	1361.6	368.49	4.5995e-06	6.2103e-06	422.74	140.42	122.06	42.203	6.4151e-06	52.059	0.0005312	0.00055849	0.00015597	1371.7	5.9995e-06	6.0779e-06	1372.6	373.16	6.0516e-06	6.0625e-06	426.54	143.24	124.5	43.088	5.9686e-06	53.085	219.851	14.242	4.161	-40.949	99.952	103.679	-40.656	-36.086	96.283	87.951	-36.953	-31.826	-31.533	-27.434	102.446	-28.127	-8191	255	
14092.726	1	1	0	0	0.36491	0.20041	0.075654	0.18162	0.061154	0.044997	0.25776	0.10074	0.18677	0.23708	0.20803	0.13386	0.26552	0.17551	0.10968	0.11363	-0.066667	-0.52292	-1.0021	-0.38958	-0.85208	-0.8	-0.41875	-1.2354	-0.525	-0.53333	-1.1771	-0.31042	-1.075	-0.93542	-0.15	-1.2292	31.248	8.966	115.313	-33.168	146.123	128.756	250.133	219.892	55.638	227.559	67.567	237.407	19.910	260.552	130.188	151.360	0.00011559	0.0005502	0.00016065	1362.6	2.3017e-06	3.6956e-06	1359.4	368.29	5.1447e-06	5.8062e-06	419.72	139.85	121.14	41.824	2.5634e-06	51.977	0.00053214	0.0005467	0.00015271	1373.7	6.063e-06	6.0922e-06	1370.4	373.42	6.1153e-06	6.0893e-06	425.98	143.06	124.14	42.958	6.119e-06	53.243	249.264	78.450	1.040	-40.803	197.456	133.263	-40.839	-36.053	150.983	72.242	-36.782	-31.916	-31.529	-27.207	68.125	-27.832	-8191	255	
14092.822	1	1	0	0	0.15106	0.039531	0.073329	0.20662	0.14668	0.14923	0.36875	0.31633	0.21023	0.1656	0.13897	0.13394	0.15179	0.062894	0.22067	0.19139	-0.12292	-0.40625	-1.0375	-0.425	-0.82292	-0.87292	-0.24792	-1.1	-0.64792	-0.21458	-1.375	-0.51875	-0.86875	-0.87292	-0.18333	-1.2271	-49.596	298.467	-9.944	5.653	22.712	72.666	254.702	224.970	-11.889	200.891	-18.592	1.026	34.757	161.076	29.869	147.892	0.00019513	0.00036907	6.8744e-05	1360.1	3.2723e-06	7.4048e-06	1363.6	368.43	2.5443e-06	4.6304e-06	421.85	140.44	121.85	41.938	4.7372e-06	51.893	0.00053948	0.00054898	0.00015446	1372	5.9991e-06	6.0369e-06	1373.3	373.27	6.021e-06	6.0243e-06	426.65	143.29	124.33	43.012	6.0089e-06	53.226	230.758	34.864	75.979	-40.902	70.155	79.597	-40.780	-35.897	134.526	139.744	-36.723	-31.766	-31.376	-27.355	91.110	-28.252	-8191	255	
14092.918	1	1	0	0	0.17949	0.11508	0.19544	0.086215	0.18246	0.14012	0.15041	0.24047	0.18089	0.29193	0.14164	0.35916	0.13366	0.17514	0.30304	0.17296	-0.05	-0.37292	-1.1125	-0.475	-0.66875	-1.1104	-0.38333	-1.1333	-0.73125	-0.22292	-1.3667	-0.46458	-0.85208	-1.1146	-0.22917	-1.1042	117.458	-9.249	9.510	277.358	-20.523	87.402	209.158	-49.882	119.793	251.906	282.863	265.791	-23.401	195.028	96.885	-40.077	0.00018701	0.00029673	0.00019136	1357.4	5.4087e-06	4.9622e-06	1360.8	368.72	3.3991e-06	4.6442e-06	422.66	140.24	121.05	42.191	2.2716e-06	51.996	0.00052889	0.00055012	0.00015289	1371.5	5.9951e-06	6.0214e-06	1374.1	373.5	6.0432e-06	6.0248e-06	426.86	143.28	124.26	43.033	5.995e-06	53.185	227.038	-0.160	34.819	-40.732	91.115	41.882	-40.701	-35.948	73.526	122.458	-36.713	-31.837	-31.410	-27.466	122.795	-28.006	-8191	255	
14093.039	1	1	0	0	0.28967	0.18245	0.10482	0.38749	0.049311	0.15842	0.11513	0.27803	0.23885	0.098195	0.53432	0.20768	0.18972	0.061991	0.033635	0.14373	-0.33542	-0.27917	-1.1313	-0.70625	-0.59583	-1.1313	-0.27292	-1.1688	-0.88542	-0.00625	-1.3604	-0.60833	-0.225	-1.3833	-0.35417	-0.875	44.049	167.775	178.488	245.812	188.028	46.865	288.602	261.884	28.028	117.767	259.110	244.990	-10.069	236.989	210.697	-35.570	0.00018095	0.00050617	0.00016063	1356.1	2.6639e-06	5.8815e-06	1365.3	368.29	5.4801e-07	6.6378e-06	422.97	139.89	121.8	41.914	3.4955e-06	51.998	0.00052815	0.0005411	0.00015016	1371.3	5.9752e-06	6.0056e-06	1372.9	373.38	5.9433e-06	5.8766e-06	426.82	143.05	124.44	42.992	5.9289e-06	53.235	232.666	69.422	8.758	-40.912	126.115	100.346	-40.885	-35.937	283.158	77.945	-36.584	-31.809	-31.257	-27.409	215.891	-27.822	-8191	255	
14093.135	1	1	0	0	0.13537	0.14621	0.16784	0.30144	0.13641	0.054122	0.29494	0.23987	0.15402	0.12564	0.45572	0.17856	0.16529	0.064478	0.24353	0.11391	-0.66667	-0.23333	-1.1354	-0.70417	-0.41667	-1.0187	-0.5	-0.78958	-1.1167	-0.18333	-1.2875	-0.81667	-0.31458	-1.2271	-0.475	-0.85417	80.672	118.873	53.781	259.742	133.959	302.998	210.178	260.102	0.537	-19.217	243.179	222.066	294.925	-37.176	31.417	177.232	0.00018944	0.00055763	7.8021e-05	1357.9	1.5084e-06	4.347e-06	1356.3	367.3	1.5299e-06	3.3523e-06	422.14	138.97	121.64	42.132	3.0957e-06	52.29	0.00051369	0.00054309	0.00014917	1371	5.8969e-06	5.8789e-06	1370.6	373	5.8888e-06	5.9436e-06	426.31	142.81	124.5	42.998	5.9123e-06	53.195	234.110	26.669	85.810	-40.813	136.662	77.964	-40.682	-36.013	172.020	131.870	-36.551	-31.790	-31.285	-27.250	64.835	-27.990	-8191	255	
14093.231	1	1	0	0	0.14036	0.14671	0.18342	0.093855	0.22266	0.13522	0.20327	0.34624	0.26763	0.068113	0.29599	0.16849	0.20926	0.21716	0.17383	0.1742	-0.57292	-0.17708	-0.84583	-0.98125	-0.22292	-1.0625	-0.5375	-0.59167	-0.98333	-0.20625	-1.0771	-1.0125	-0.40417	-1.2062	-0.57708	-0.40833	138.003	47.778	53.965	125.438	-29.669	297.280	256.935	253.687	97.092	155.927	28.576	266.585	-33.275	229.021	-7.973	-21.873	0.00011987	0.00056079	0.00016164	1363	7.4472e-06	4.997e-06	1360.5	368.43	3.9386e-06	4.4901e-06	420.46	140.54	121.79	42.139	4.858e-06	52.104	0.00051403	0.00053391	0.00014927	1375.8	5.9282e-06	5.8431e-06	1373.7	373.56	5.8284e-06	5.8861e-06	426.31	143.31	124.52	43.065	5.9058e-06	53.257	259.495	33.429	32.116	-40.658	159.737	101.058	-40.646	-35.785	122.762	99.492	-36.643	-31.716	-31.348	-27.150	185.739	-28.074	-8191	255	
14093.327	1	1	0	0	0.20009	0.17423	0.18565	0.14363	0.056996	0.31456	0.089885	0.25188	0.11789	0.11933	0.20242	0.37099	0.073485	0.15714	0.28846	0.2262	-0.74792	-0.25	-0.85417	-1.075	-0.28542	-1.1292	-0.83542	-0.67917	-1.1812	-0.4	-0.8375	-0.9375	-0.41042	-1.0083	-0.64167	-0.41458	265.401	-53.029	132.642	262.235	26.444	22.167	239.457	-46.902	-8.815	280.863	-15.555	263.602	232.260	-7.264	-36.254	303.766	0.00019054	0.00068169	0.00013723	1365.6	1.2918e-06	5.9302e-06	1360.7	367.81	3.6696e-06	5.3666e-06	421.24	139.61	122.05	42.18	6.133e-06	52.17	0.00052286	0.00053744	0.00014931	1378.4	5.8526e-06	5.7988e-06	1374.7	373.54	5.8275e-06	5.8303e-06	427.39	143.23	124.67	43.076	5.9163e-06	53.239	225.214	50.083	7.478	-40.873	-24.994	87.158	-40.830	-35.930	130.354	113.405	-36.896	-32.087	-31.456	-27.526	119.194	-28.223	-8191	255	
14093.422	1	1	0	0	0.12168	0.10494	0.11275	0.28204	0.11669	0.046312	0.26978	0.12658	0.078557	0.1282	0.19754	0.14693	0.2101	0.22979	0.072883	0.27754	-0.78958	-0.23333	-0.64167	-1.0812	-0.09375	-0.97292	-1.0562	-0.525	-1.2292	-0.40833	-0.78333	-1.2125	-0.47292	-1.0875	-0.58542	-0.35833	170.964	28.814	15.367	282.101	164.419	108.425	276.175	119.291	-29.387	235.758	298.666	269.204	-31.505	159.206	120.633	-38.311	0.00011197	0.000431	0.0001917	1365.3	4.0512e-06	7.3901e-06	1362.3	368.51	2.4744e-06	6.5019e-06	422.58	141.38	121.8	42.037	5.6618e-06	52.06	0.00052389	0.00054011	0.00014969	1377.2	5.9364e-06	5.8464e-06	1376.4	373.54	5.9339e-06	5.9192e-06	427.22	143.53	124.44	43.065	5.9403e-06	53.337	251.351	40.481	4.190	-40.903	211.366	114.500	-40.723	-35.883	172.404	73.665	-36.754	-31.918	-31.529	-27.105	103.715	-28.073	-8191	255	
14093.518	1	1	0	0	0.18285	0.18343	0.1267	0.12766	0.11728	0.18263	0.26602	0.21314	0.18587	0.15655	0.38014	0.13234	0.20759	0.15333	0.18382	0.32568	-0.63333	-0.31458	-0.67083	-1.2021	-0.25208	-1.0646	-1.0646	-0.23125	-1.0833	-0.59583	-0.6625	-1.2792	-0.14375	-0.96667	-0.925	-0.14375	268.762	227.364	37.086	235.866	-26.388	20.223	198.592	-50.787	31.345	46.508	24.544	290.171	267.984	-6.556	149.709	-34.753	0.00014671	0.00046217	0.0001103	1362.7	4.2606e-06	6.5658e-06	1361.3	367.71	2.5577e-06	6.2466e-06	422.19	140.03	121.83	42.078	2.2376e-06	52.211	0.00052958	0.00053629	0.00015295	1375.3	5.8388e-06	5.907e-06	1373.7	373.75	5.9081e-06	5.8845e-06	427.08	143.26	124.52	43.084	5.9099e-06	53.27	220.634	294.965	11.504	-40.842	124.785	72.206	-40.774	-36.055	232.685	100.197	-36.552	-31.667	-31.340	-27.164	131.568	-28.172	-8191	255	
14093.614	1	1	0	0	0.22078	0.20493	0.27607	0.25885	0.18207	0.35196	0.24849	0.24538	0.11882	0.085624	0.21935	0.30945	0.28213	0.23785	0.27432	0.38512	-0.9	-0.5	-0.26667	-1.3875	-0.27917	-0.88125	-1.2437	-0.19792	-1.2062	-0.34375	-0.42083	-1.3687	-0.3875	-0.82292	-0.99792	-0.52292	103.591	-16.779	84.498	271.871	-3.074	55.810	285.739	151.709	194.584	224.806	207.138	-18.150	8.762	-35.553	145.020	247.061	0.00017531	0.00034906	0.00013214	1361.2	4.7499e-06	7.6673e-06	1369.7	369.18	2.9238e-06	7.5743e-06	422.63	139.91	122.51	42.05	4.1129e-06	52.138	0.00052173	0.00054097	0.00015074	1376	5.8977e-06	5.8992e-06	1377.5	374.2	5.9046e-06	5.8841e-06	428.34	143.15	124.81	43.004	5.8354e-06	53.19	232.710	2.775	16.370	-40.953	158.558	83.806	-40.779	-35.985	22.330	118.832	-36.721	-31.923	-31.866	-27.406	150.868	-28.365	-8191	255	
14093.710	1	1	0	0	0.056656	0.16314	0.1706	0.21565	0.15423	0.13952	0.37549	0.062957	0.079998	0.15917	0.28431	0.17743	0.27966	0.10384	0.29678	0.2466	-0.67083	-0.63125	-0.46875	-1.4104	-0.35	-0.70208	-1.275	-0.28542	-1.0938	-0.76875	-0.62917	-1.2604	-0.39375	-0.70208	-1.1375	-0.58542	186.838	204.367	256.024	164.089	288.973	240.105	188.783	58.005	237.554	91.844	255.014	278.110	275.541	71.589	-47.283	230.243	0.00015404	0.00039387	0.00020481	1362.8	6.1651e-06	3.414e-06	1365.5	369.88	3.1875e-06	9.2748e-06	424.52	140.46	122.09	42.063	3.5532e-06	52.469	0.00051125	0.0005295	0.00014867	1377.2	5.8032e-06	5.7326e-06	1376.6	374.27	5.6949e-06	5.8179e-06	427.89	143.52	124.78	43.072	5.7409e-06	53.338	245.423	9.746	37.763	-40.961	103.758	169.863	-40.797	-36.190	152.667	65.335	-36.616	-31.670	-31.541	-27.447	132.967	-28.184	-8191	255	
14093.806	1	1	0	0	0.27006	0.24112	0.067025	0.38692	0.17276	0.11116	0.09857	0.19584	0.12993	0.22297	0.19571	0.24278	0.23191	0.087085	0.20555	0.2966	-0.62917	-0.67292	-0.17083	-1.4021	-0.58333	-0.57083	-1.5208	-0.57292	-0.7625	-0.96875	-0.50833	-1.25	-0.64792	-0.27917	-1.0917	-0.32917	-26.832	62.151	16.702	299.704	195.027	23.699	222.135	249.945	173.135	118.697	-6.383	229.252	273.901	-2.273	144.216	51.393	9.216e-05	0.00030495	3.6364e-05	1364.5	4.802e-06	4.7948e-06	1362.7	368.86	4.9208e-06	4.0034e-06	421.53	140.56	121.88	41.907	1.9448e-06	52.118	0.00050517	0.00052874	0.00014756	1378.1	5.7493e-06	5.8129e-06	1374.9	373.71	5.6833e-06	5.8194e-06	426.85	143.4	124.69	43.122	5.7746e-06	53.247	224.858	2.162	86.110	-40.890	143.678	155.888	-40.777	-35.830	125.244	92.985	-37.063	-31.853	-31.639	-27.303	137.619	-28.393	-8191	255	
14093.927	1	1	0	0	0.10025	0.12927	0.15382	0.27227	0.31307	0.21909	0.12194	0.33181	0.14375	0.098588	0.18483	0.15501	0.42195	0.098593	0.24083	0.23807	-0.53542	-0.89792	-0.14583	-0.85417	-0.58333	-0.41667	-1.3125	-0.45833	-0.52083	-1.0438	-0.16875	-1.0375	-0.72917	-0.31458	-1.2021	-0.35417	121.031	84.132	34.323	238.646	243.643	-43.586	280.199	225.945	245.233	238.893	257.629	259.594	242.318	-22.866	56.753	-27.632	0.00017855	0.00048312	0.00011903	1367.7	8.894e-06	3.4255e-06	1365.4	369.43	2.8143e-06	4.5589e-06	423.29	140.33	121.17	42.124	3.1176e-06	52.283	0.00051497	0.00052997	0.00014822	1379.5	5.7821e-06	5.7923e-06	1377.8	373.98	5.7661e-06	5.7972e-06	427.78	143.51	124.51	43.093	5.7852e-06	53.249	218.907	25.366	3.145	-40.775	116.820	138.527	-40.979	-36.502	200.724	93.451	-37.133	-32.249	-31.594	-27.644	38.617	-28.452	-8191	255	
14093.999	1	1	0	0	0.23443	0.052136	0.18082	0.20155	0.227	0.15813	0.41463	0.19562	0.18688	0.10076	0.12007	0.2256	0.19014	0.36729	0.35764	0.21305	-0.25625	-1.2479	-0.10625	-1.1458	-0.71875	-0.3125	-1.3208	-0.6375	-0.64583	-1.0646	-0.25	-0.84375	-0.95625	-0.37292	-1.1271	-0.46458	37.418	241.908	95.316	-54.009	-27.947	92.738	234.807	203.621	304.352	244.088	-0.504	230.213	292.884	-39.285	288.135	127.729	0.00020514	0.00055401	0.00014898	1367	3.9839e-06	5.7874e-06	1363.8	369.36	2.6e-06	5.8928e-06	422.62	140.43	121.7	42.181	4.2881e-06	52.298	0.00051643	0.00052415	0.00014664	1377.8	5.7528e-06	5.7628e-06	1377.4	374.2	5.7704e-06	5.7607e-06	427.75	143.56	124.57	43.071	5.7881e-06	53.211	234.456	17.647	38.476	-41.224	140.398	111.276	-40.994	-36.433	183.106	133.736	-37.123	-32.357	-31.704	-27.510	126.967	-28.588	-8191	255	
14094.119	1	1	0	0	0.37404	0.074191	0.16573	0.27365	0.046257	0.21142	0.21132	0.36942	0.1963	0.29988	0.095711	0.045671	0.28834	0.14778	0.24904	0.13039	-0.045833	-1.1	-0.35208	-0.90417	-0.96458	-0.1625	-1.1917	-0.67083	-0.35833	-1.1562	-0.34792	-0.76667	-0.97083	-0.32083	-1	-0.775	-28.163	-8.096	147.196	-30.920	61.151	131.382	252.265	-41.739	301.010	160.263	276.252	188.549	223.910	8.855	264.109	240.849	0.00020349	0.00064191	6.2655e-05	1363.4	2.4899e-06	8.2347e-06	1369.9	369.46	2.6592e-06	3.7613e-06	422.06	140.31	122.3	42.143	2.737e-06	52.38	0.00050784	0.00052891	0.00014667	1378.7	5.8018e-06	5.8069e-06	1377.1	374	5.8145e-06	5.7667e-06	427.35	143.56	124.61	43.12	5.8445e-06	53.253	206.536	20.130	57.899	-41.187	183.611	81.682	-40.976	-36.359	186.711	71.957	-37.229	-32.427	-31.861	-27.661	148.020	-28.680	-8191	255	
14094.215	1	1	0	0	0.16927	0.16981	0.099815	0.25993	0.27525	0.064076	0.31432	0.11862	0.080556	0.22942	0.29846	0.19034	0.075397	0.087878	0.10011	0.077823	-0.047917	-1.2188	-0.09375	-0.81042	-0.89375	-0.26667	-1.3042	-0.79167	-0.070833	-1.1125	-0.51458	-0.75208	-1.1	-0.2875	-0.90625	-0.65417	-21.302	55.985	264.927	-52.527	65.776	249.814	243.484	304.532	26.679	268.874	237.153	122.924	102.464	37.298	161.212	-39.410	0.00017538	0.00024808	0.00022419	1366.9	5.7217e-06	5.3446e-06	1365.2	368.99	2.7171e-06	5.7483e-06	422.4	140.25	122.21	42.005	1.97e-06	52.154	0.00051109	0.0005246	0.00014609	1377.4	5.7077e-06	5.781e-06	1376.8	373.84	5.8042e-06	5.7539e-06	428.26	143.47	124.92	42.977	5.7881e-06	53.281	239.099	20.193	60.309	-41.196	203.511	101.035	-40.983	-36.524	171.271	83.464	-37.001	-32.236	-31.903	-27.613	131.181	-28.523	-8191	255	
14094.312	1	1	0	0	0.12929	0.17259	0.17431	0.32178	0.086214	0.10437	0.26678	0.10438	0.37194	0.13609	0.11594	0.066064	0.15915	0.16128	0.27938	0.10459	0.083333	-1.0458	-0.34167	-0.7625	-0.88333	-0.091667	-1.125	-1.1063	-0.29375	-1.1771	-0.60208	-0.24167	-1.1417	-0.22708	-0.77708	-0.94167	34.941	215.049	78.097	284.599	181.018	58.838	271.686	186.186	303.620	146.424	163.808	237.187	-52.360	284.440	184.128	225.220	0.00017457	0.00064416	0.00019501	1361.7	8.0365e-06	3.0062e-06	1365.1	369.24	1.5033e-06	4.9098e-06	423.4	140.71	121.3	42.052	1.4526e-06	52.286	0.00051151	0.00052548	0.00014882	1376.3	5.7969e-06	5.8774e-06	1378.6	374.2	5.8233e-06	5.7741e-06	427.67	143.92	124.43	43.114	5.7942e-06	53.283	230.644	49.840	39.877	-40.922	130.242	74.314	-40.768	-36.454	53.395	95.842	-37.090	-32.247	-31.694	-27.471	180.578	-28.368	-8191	255	
14094.408	1	1	0	0	0.03472	0.19684	0.12639	0.38872	0.23321	0.29442	0.20777	0.23477	0.064047	0.061013	0.19596	0.068948	0.24938	0.16022	0.19562	0.095262	0.18958	-1.1417	-0.67917	-0.65208	-1.125	-0.25625	-1	-1.2146	-0.16875	-1.0708	-0.79167	-0.40417	-1.2542	-0.51042	-0.61667	-1.2021	-49.634	108.573	287.995	300.103	181.731	-22.836	287.869	259.924	213.799	-50.194	47.947	253.795	-32.761	24.620	210.362	300.803	0.00018159	0.00078006	0.00018496	1364.7	7.6694e-06	6.7566e-06	1366.9	369.24	1.1861e-06	5.1699e-06	422.15	140.39	121.87	42.12	5.1976e-06	52.465	0.0005149	0.00052704	0.0001481	1377.6	5.8199e-06	5.7924e-06	1377.6	374.37	5.7981e-06	5.7836e-06	427.47	143.52	124.83	43.036	5.8383e-06	53.375	211.048	36.793	49.085	-41.236	144.201	75.447	-40.823	-36.457	221.409	138.354	-37.048	-32.180	-31.535	-27.502	81.715	-28.602	-8191	255	
14094.527	1	1	0	0	0.056373	0.23398	0.065243	0.086547	0.085884	0.17604	0.3202	0.14375	0.10022	0.10607	0.17813	0.2579	0.27491	0.19333	0.21442	0.088253	0.19583	-0.99792	-0.77083	-0.37708	-1.1229	-0.37917	-0.64583	-0.99792	-0.18958	-0.79167	-0.725	-0.25417	-1.1271	-0.50833	-0.45625	-1.1604	299.330	-2.949	191.876	-52.270	58.368	134.734	264.993	-52.256	145.031	5.346	-44.896	210.647	225.160	180.287	301.102	162.755	0.00021422	0.00050889	0.00019376	1365.2	5.7163e-06	4.4012e-06	1362.9	367.34	2.8658e-06	7.9607e-06	423.17	140.49	122.29	41.908	4.1286e-06	52.421	0.00051498	0.00052566	0.00014709	1378.7	5.7996e-06	5.8626e-06	1376.3	373.5	5.8049e-06	5.8523e-06	428.31	143.53	124.93	43.043	5.7189e-06	53.363	231.602	76.169	20.200	-40.891	175.487	61.660	-40.984	-36.308	124.333	85.652	-37.080	-32.220	-31.702	-27.755	193.936	-28.214	-8191	255	
14094.623	1	1	0	0	0.22699	0.13518	0.15175	0.44864	0.27251	0.30522	0.16973	0.3232	0.26372	0.16241	0.037413	0.26971	0.14244	0.22885	0.22586	0.1702	0.175	-0.83542	-0.82917	-0.38958	-1.15	-0.70625	-0.475	-1.4208	-0.11458	-0.90208	-0.98958	-0.35	-1.3021	-0.74375	-0.3375	-1.3375	97.533	208.319	159.755	253.509	-39.737	52.909	279.705	251.982	137.105	-14.992	79.849	256.922	95.792	198.571	36.628	19.153	0.00016516	0.00038967	0.00010479	1363.1	2.651e-06	8.7116e-06	1367.4	368.13	3.4989e-07	4.9935e-06	421.54	140.03	122.13	42.174	5.8102e-06	52.379	0.00051725	0.00053189	0.00014656	1376.5	5.7343e-06	5.7117e-06	1376.3	373.98	5.7173e-06	5.7797e-06	427.39	143.41	124.84	43.018	5.771e-06	53.324	220.533	21.816	14.315	-41.100	84.174	73.746	-40.758	-36.218	-18.932	72.646	-37.011	-32.274	-31.734	-27.755	72.462	-28.338	-8191	255	
14094.694	1	1	0	0	0.29588	0.12944	0.09667	0.31941	0.041762	0.12504	0.42875	0.5152	0.30273	0.1645	0.21657	0.38632	0.23924	0.38351	0.34084	0.15861	0.039583	-0.71042	-0.9125	-0.63542	-0.94167	-0.52083	-0.50208	-1.3208	-0.2125	-0.6	-1.1521	-0.14792	-0.98542	-0.83542	-0.34583	-1.225	32.694	-51.842	68.892	288.777	-29.860	275.082	304.532	167.086	224.001	239.143	222.997	259.568	255.646	275.020	57.136	191.711	0.00013584	0.00052765	0.00012438	1364.5	3.0783e-06	1.7986e-06	1368.6	368.51	2.2197e-06	3.6546e-06	422.69	140.16	121.99	42.106	6.9927e-06	52.416	0.00050662	0.00052808	0.00014629	1378.8	5.768e-06	5.8035e-06	1375.7	374.16	5.8192e-06	5.7804e-06	427.44	143.18	124.72	43.012	5.8215e-06	53.264	235.267	2.402	-16.581	-41.278	97.670	260.579	-40.952	-36.265	153.186	114.274	-37.003	-32.451	-31.718	-27.666	122.815	-28.442	-8191	255	
14094.815	1	1	0	0	0.11786	0.12964	0.36589	0.25156	0.064132	0.050162	0.26817	0.090758	0.10387	0.24066	0.047764	0.17861	0.22324	0.044034	0.14483	0.18036	-0.0125	-0.46458	-0.91042	-0.42917	-0.87083	-0.89375	-0.59375	-1.2313	-0.51042	-0.375	-1.3521	-0.34375	-0.99792	-0.99792	-0.35833	-1.0896	247.299	168.733	287.095	281.732	206.573	37.615	283.420	-42.906	206.456	224.870	6.473	-6.808	139.982	-20.646	102.595	181.023	0.00015969	0.00040261	0.00016216	1365.3	4.8932e-06	3.042e-06	1365.3	368.54	1.1207e-06	8.4303e-06	421.83	139.92	121.6	41.942	5.7446e-06	52.221	0.00051103	0.00052371	0.00014769	1378	5.8322e-06	5.8357e-06	1373.9	373.82	5.8496e-06	5.7321e-06	426.91	143.24	124.58	42.963	5.8878e-06	53.259	216.798	45.243	-1.202	-41.245	120.662	82.279	-40.934	-36.355	246.827	84.274	-37.046	-32.414	-31.970	-27.708	119.552	-28.336	-8191	255	
14094.911	1	1	0	0	0.13699	0.15817	0.17915	0.15543	0.059416	0.053065	0.31729	0.081607	0.083676	0.16069	0.042266	0.24965	0.21914	0.20407	0.19068	0.13222	-0.14583	-0.275	-1.1271	-0.34583	-0.88125	-1.0875	-0.40833	-1.2	-0.59792	-0.39375	-1.0812	-0.55208	-0.875	-1	-0.064583	-1.075	-18.291	-45.639	192.808	252.345	250.482	248.226	293.201	245.038	113.879	-44.849	-26.759	298.292	145.350	230.858	211.793	265.512	0.00015934	0.00026606	0.00014383	1361.6	2.0104e-06	5.6087e-06	1368.4	368.91	4.874e-06	4.234e-06	422.12	140.4	121.94	41.953	2.873e-06	52.029	0.0005163	0.00052851	0.00014883	1373.1	5.8641e-06	5.8052e-06	1376.6	374.24	5.8186e-06	5.9076e-06	427.31	143.55	124.77	43.074	5.8285e-06	53.252	230.823	90.455	49.559	-40.968	190.805	134.467	-41.035	-36.385	126.003	58.586	-37.000	-32.383	-31.417	-27.562	54.261	-28.461	-8191	255	
14095.007	1	1	0	0	0.087628	0.20555	0.15974	0.27865	0.064358	0.18534	0.14258	0.16618	0.092867	0.25496	0.30299	0.029547	0.22412	0.078463	0.27147	0.2767	-0.275	-0.34375	-1.1979	-0.54167	-0.53542	-0.9375	-0.41458	-1.0167	-0.81458	-0.30833	-1.3333	-0.52917	-0.7125	-1.2	-0.125	-1.1479	133.203	103.914	3.179	277.582	170.468	113.047	94.767	261.827	248.500	142.455	-19.871	116.060	-18.275	48.293	95.233	23.053	0.00022689	0.00052532	0.0002069	1363.5	3.3865e-06	8.7452e-06	1366.8	368.29	3.2638e-06	4.1162e-07	421.1	139.9	122.1	42.028	5.5128e-06	52.202	0.00051737	0.00052927	0.00014665	1377.6	5.8279e-06	5.8378e-06	1377.6	373.9	5.783e-06	5.7901e-06	427.94	143.44	124.83	43.055	5.8576e-06	53.326	222.913	31.149	63.826	-41.359	159.440	136.871	-41.041	-36.264	155.473	126.604	-37.246	-32.020	-31.766	-27.400	119.328	-28.190	-8191	255	
14095.103	1	1	0	0	0.14043	0.22599	0.10927	0.544	0.11574	0.080765	0.28065	0.046534	0.31928	0.090747	0.21194	0.13465	0.11453	0.091777	0.32079	0.28449	-0.40208	-0.37917	-1.2833	-0.9	-0.57083	-1.1313	-0.59167	-1.0417	-0.74167	-0.37917	-1.2271	-0.79167	-0.4375	-1.45	-0.4625	-1.0125	150.203	158.006	-49.345	233.182	303.569	114.829	289.344	181.114	-31.126	125.410	251.060	305.657	-51.987	114.738	224.875	282.463	0.00016317	0.00062212	8.9796e-05	1366.2	4.4121e-06	6.006e-06	1365.2	369.68	3.3835e-06	7.0926e-06	422.24	139.81	121.72	42.109	1.696e-06	52.201	0.00051024	0.00052675	0.00014821	1375.5	5.8417e-06	5.792e-06	1374.2	374.1	5.7976e-06	5.9119e-06	427.77	143.37	124.61	43.04	5.8166e-06	53.21	235.464	44.474	43.859	-41.292	170.887	108.348	-40.919	-36.179	102.714	123.710	-37.167	-32.124	-31.562	-27.719	116.798	-28.309	-8191	255	
14095.224	1	1	0	0	0.29801	0.21415	0.29032	0.044539	0.20819	0.096074	0.62134	0.27267	0.1287	0.16664	0.015	0.10948	0.1006	0.08398	0.14518	0.20915	-0.74167	-0.27708	-1.0167	-0.66667	-0.49167	-1.2021	-0.40833	-0.86042	-1.1146	-0.52292	-1.275	-0.77917	-0.39583	-1.3167	-0.44375	-0.77917	190.927	118.543	32.048	271.614	228.730	274.107	287.100	236.344	240.236	237.781	2.563	-49.220	253.869	206.179	-52.968	148.496	0.00028521	0.00046162	0.0001799	1364.8	7.5903e-06	7.2464e-06	1362	368.53	3.3882e-06	5.2867e-06	422.24	140.56	121.78	42.07	3.7546e-06	52.303	0.00050789	0.00053127	0.00014568	1374.8	5.8381e-06	5.804e-06	1374.1	374.25	5.7675e-06	5.7454e-06	428.05	143.45	124.65	42.968	5.8248e-06	53.259	235.311	25.819	27.121	-41.050	133.993	125.005	-41.083	-36.184	118.872	97.857	-37.061	-32.111	-31.728	-27.561	161.257	-28.270	-8191	255	
14095.296	1	1	0	0	0.20162	0.075987	0.15719	0.12916	0.1048	0.14834	0.17591	0.19382	0.19457	0.12829	0.21582	0.17209	0.29709	0.2469	0.16966	0.1988	-0.82708	-0.18333	-0.92083	-0.82083	-0.28958	-1.2687	-0.89375	-0.75417	-1.0229	-0.2875	-1.1479	-0.98542	-0.55625	-1.3625	-0.58542	-0.55625	289.775	11.631	240.399	63.866	-53.761	-53.009	244.990	-0.315	209.969	289.113	292.559	263.186	279.880	79.358	205.707	-10.921	0.00018741	0.00063153	9.1201e-05	1364.4	3.7963e-06	6.2843e-06	1361.7	368.79	3.7502e-06	5.1148e-06	421.66	139.46	122.17	42.069	7.3018e-06	52.262	0.00050732	0.00052731	0.00014421	1374.2	5.7781e-06	5.742e-06	1374.6	374.36	5.7504e-06	5.8013e-06	427.75	143.29	124.56	43.046	5.8146e-06	53.217	218.418	-4.705	-8.851	-41.328	156.921	122.842	-40.858	-36.150	184.625	54.621	-37.183	-32.156	-31.844	-27.374	86.142	-28.197	-8191	255	
14095.392	1	1	0	0	0.20809	0.2071	0.41567	0.22574	0.071808	0.22434	0.165	0.35871	0.31273	0.17569	0.15857	0.31988	0.44985	0.14416	0.14527	0.2956	-0.88542	-0.40625	-0.82292	-1.2542	-0.18125	-1.1146	-0.77917	-0.63542	-1.1938	-0.47708	-0.77917	-1.0333	-0.375	-1.1833	-0.66667	-0.27292	92.254	183.917	-23.180	-7.344	-22.058	8.343	268.910	215.511	31.720	-34.808	16.400	257.524	-25.507	294.039	202.765	205.434	0.00013868	0.00026632	0.00014583	1358.2	5.9622e-06	3.8714e-06	1362.6	367.86	2.319e-06	4.6777e-06	422.64	140.83	121.87	41.84	7.552e-07	52.119	0.00050434	0.00052531	0.00014695	1375	5.6444e-06	5.6829e-06	1373.7	373.82	5.7365e-06	5.766e-06	428.21	143.7	124.63	42.98	5.6556e-06	53.298	231.598	39.809	50.707	-41.009	99.545	105.443	-40.996	-36.142	95.957	123.300	-36.718	-32.144	-31.733	-27.598	90.610	-28.508	-8191	255	
14095.488	1	1	0	0	0.23446	0.18538	0.086343	0.28052	0.16733	0.076571	0.54624	0.25538	0.16189	0.20959	0.14571	0.33352	0.15512	0.16671	0.18061	0.11235	-0.86667	-0.38958	-0.65625	-1.3104	-0.060417	-1.0021	-1.1708	-0.5125	-1.1271	-0.49583	-0.95833	-1.0333	-0.29792	-1.1	-0.81042	-0.20417	250.357	173.302	187.189	-31.779	18.196	266.077	228.149	253.729	73.326	100.717	277.632	213.354	-13.807	212.076	0.191	198.910	0.00020004	0.00049127	0.00016811	1362.9	2.3223e-06	5.2888e-06	1361.1	368.27	1.9571e-06	6.0102e-06	422.29	140.76	122.49	42.05	2.7256e-06	52.159	0.00050857	0.00052937	0.00014377	1374.9	5.8044e-06	5.6764e-06	1374	374.1	5.7689e-06	5.8083e-06	427.38	143.66	124.79	43.015	5.7453e-06	53.186	243.242	70.014	55.207	-41.067	111.379	106.960	-40.901	-36.054	166.077	64.055	-37.291	-32.129	-31.469	-27.436	139.166	-28.059	-8191	255	
14095.607	1	1	0	0	0.19781	0.099197	0.24961	0.31051	0.21887	0.15061	0.24589	0.30566	0.21465	0.17656	0.25587	0.25059	0.44947	0.23267	0.18081	0.21756	-0.74375	-0.43333	-0.69375	-1.2167	-0.24167	-0.70625	-0.93125	-0.41458	-1.1104	-0.46458	-0.40833	-1.3062	-0.55625	-0.72083	-1	-0.29583	217.694	160.795	230.144	-48.880	-42.257	87.938	190.832	296.259	154.386	253.037	257.699	268.726	-40.174	-8.842	293.622	-53.086	0.00020944	0.00065501	2.4115e-05	1361.6	5.288e-06	9.9923e-06	1356.3	367.22	2.0431e-06	5.3032e-06	422.32	139.99	121.84	41.927	2.9412e-06	52.149	0.00050697	0.00052344	0.0001439	1374.7	5.8117e-06	5.74e-06	1372.2	373.84	5.8026e-06	5.7863e-06	427.17	143.29	124.6	42.98	5.6823e-06	53.217	228.985	33.116	-17.058	-41.035	121.043	119.791	-40.972	-36.034	163.758	117.762	-37.094	-32.039	-31.665	-27.404	124.435	-28.327	-8191	255	
14095.703	1	1	0	0	0.28844	0.053263	0.22232	0.23057	0.23003	0.17793	0.22969	0.22596	0.14218	0.14772	0.35234	0.20784	0.0080463	0.29153	0.18982	0.16099	-0.66667	-0.63125	-0.43542	-1.5292	-0.26458	-0.63542	-1.3188	-0.47083	-1.1333	-0.65	-0.45833	-1.0458	-0.50208	-0.86042	-1.1375	-0.30417	203.697	115.679	302.399	256.950	-7.707	234.950	-31.300	247.821	-9.484	-37.012	294.121	203.096	14.909	0.109	33.931	189.871	0.00023632	0.00044605	0.0001516	1359.7	7.1212e-06	5.549e-06	1361	368.75	1.8416e-06	2.3283e-06	424.67	140.61	121.97	42.232	4.9141e-06	52.308	0.00050442	0.00051634	0.00014586	1374.5	5.7321e-06	5.6152e-06	1374.6	374.31	5.6913e-06	5.7394e-06	428.66	143.84	124.67	43.107	5.8072e-06	53.137	218.824	87.485	57.384	-40.962	126.263	81.117	-40.816	-36.158	107.710	172.787	-36.754	-32.026	-31.538	-27.200	82.479	-28.143	-8191	255	
14095.799	1	1	0	0	0.15019	0.35445	0.22938	0.27081	0.20838	0.082578	0.30552	0.10402	0.2238	0.13025	0.28157	0.089529	0.30768	0.15079	0.085369	0.18214	-0.775	-0.86458	-0.32917	-1.3375	-0.40625	-0.66667	-1.2979	-0.42708	-1.0104	-0.68125	-0.35417	-1.0917	-0.625	-0.7	-1.3188	-0.30833	11.117	107.484	132.048	259.399	231.487	149.975	253.513	-29.385	277.728	182.831	-53.041	-38.234	278.688	244.549	31.383	293.470	0.00017632	0.00086948	8.6085e-05	1364.3	4.2549e-06	6.3677e-06	1361.4	368.62	4.3546e-06	7.287e-06	421.23	140.69	121.35	42.111	4.3611e-06	52.124	0.00050593	0.00052853	0.00014762	1376.6	5.8063e-06	5.6757e-06	1373.1	373.78	5.7032e-06	5.6406e-06	427.37	143.55	124.47	43.097	5.6733e-06	53.3	232.710	31.662	31.288	-41.002	197.790	95.512	-40.734	-36.227	85.986	125.617	-36.859	-32.091	-31.627	-27.483	125.237	-28.022	-8191	255	
14095.895	1	1	0	0	0.25002	0.1598	0.29042	0.40105	0.25026	0.1942	0.12552	0.10384	0.16784	0.025349	0.28016	0.4278	0.046665	0.40305	0.2098	0.26415	-0.67917	-0.85833	-0.17083	-1.2062	-0.54167	-0.45625	-1.3542	-0.31875	-0.80417	-0.8875	-0.525	-1.2188	-0.81667	-0.44792	-1.1688	-0.31458	283.982	40.956	263.493	237.882	22.812	-7.400	85.822	273.384	286.225	290.335	-37.253	275.478	88.278	302.656	233.684	299.568	0.00015258	0.00046913	0.00020326	1362.3	6.836e-06	3.6601e-06	1365.9	368.27	1.7584e-06	5.1724e-06	421.43	140.47	122.15	42.054	4.0749e-06	52.367	0.00050071	0.00052179	0.00014565	1375.4	5.7285e-06	5.6722e-06	1374.4	373.61	5.7535e-06	5.6819e-06	426.99	143.64	124.74	43.072	5.8167e-06	53.273	216.455	32.729	42.156	-40.777	147.561	90.059	-40.974	-35.947	52.962	69.357	-36.820	-31.929	-31.795	-27.389	124.419	-28.261	-8191	255	
14095.992	1	1	0	0	0.15917	0.083807	0.24523	0.32292	0.13466	0.11844	0.42718	0.33929	0.019573	0.21412	0.34644	0.11755	0.24397	0.50881	0.19344	0.11012	-0.19792	-1.0583	-0.18125	-1.3125	-0.63125	-0.36875	-1.425	-0.37708	-0.7875	-1.1292	-0.46875	-1.0917	-0.88125	-0.54583	-1.2208	-0.5125	236.695	138.491	-19.645	302.943	239.431	168.679	250.807	-25.984	96.840	292.104	-18.743	167.742	284.861	285.281	152.953	268.269	0.0001612	0.000464	0.00012003	1365.6	1.1743e-05	7.0191e-06	1364.2	368.01	5.3342e-06	1.8579e-06	421.78	141.22	122.35	41.922	1.4984e-06	52.282	0.00051362	0.00052822	0.00014753	1377.5	5.7437e-06	5.7415e-06	1374.3	374.34	5.7742e-06	5.7968e-06	427.75	143.75	124.95	43.018	5.7701e-06	53.249	231.854	70.542	-34.787	-40.874	144.445	90.049	-40.681	-36.098	108.675	60.659	-36.764	-31.973	-31.583	-27.317	142.979	-28.115	-8191	255	
14096.088	1	1	0	0	0.15338	0.048049	0.15064	0.28039	0.18173	0.36088	0.21367	0.274	0.14658	0.44311	0.051556	0.22458	0.19537	0.302	0.17927	0.22574	-0.21042	-1.1875	-0.225	-1.1729	-0.78542	-0.27292	-1.3563	-0.57083	-0.51458	-1.1042	-0.5	-1.1271	-0.83333	-0.3625	-1.1646	-0.7875	135.395	-44.213	63.165	245.476	205.511	184.190	-50.366	277.820	88.766	14.523	212.293	-26.323	-54.197	252.234	285.506	38.310	0.00018403	0.00061653	0.00014066	1363.5	6.8139e-06	5.2454e-06	1367	368.88	8.3707e-07	1.3615e-06	422.34	139.89	122.05	42.227	4.9119e-06	52.229	0.00051292	0.00052185	0.00014821	1375	5.785e-06	5.8529e-06	1376.1	373.48	5.8359e-06	5.8188e-06	427.42	143.17	124.65	43.063	5.8246e-06	53.225	227.756	19.447	25.695	-40.728	127.098	91.404	-40.620	-36.319	105.685	113.244	-36.824	-31.947	-31.548	-27.356	134.593	-27.943	-8191	255	
14096.208	1	1	0	0	0.10115	0.23384	0.35953	0.19898	0.030111	0.2251	0.084196	0.16161	0.080231	0.11031	0.21619	0.17067	0.21831	0.14585	0.074272	0.12775	-0.14375	-1.1375	-0.11042	-1.2021	-0.86458	-0.28958	-1.0979	-0.81458	-0.31667	-1.1646	-0.47292	-1.0771	-1.1938	-0.42708	-1.1375	-0.77917	197.259	53.167	67.165	253.834	28.390	24.573	80.404	249.870	125.663	-17.314	239.958	131.863	74.719	237.475	143.168	269.384	0.00016431	0.00056961	0.00018419	1366.3	6.5504e-06	6.6045e-06	1365.9	367.61	3.4302e-06	5.6602e-06	422.74	140.31	122.12	42.105	5.2363e-06	52.255	0.00050941	0.00053314	0.00014709	1378.3	5.8457e-06	5.8596e-06	1376.2	373.59	5.8785e-06	5.8728e-06	427.88	143.38	124.53	43.057	5.875e-06	53.263	223.083	35.075	42.641	-40.919	162.678	101.876	-40.722	-36.161	190.547	97.875	-36.710	-31.771	-31.602	-27.213	132.428	-28.129	-8191	255	
14096.304	1	1	0	0	0.083381	0.23652	0.17091	0.13453	0.23813	0.28122	0.13171	0.10119	0.14569	0.25902	0.19022	0.038293	0.18677	0.22085	0.15902	0.1527	0.225	-1.05	-0.23125	-0.86458	-0.90208	-0.28958	-1.1646	-0.72292	-0.15417	-1.1771	-0.49792	-0.67292	-1.1917	-0.55417	-0.9375	-0.89792	9.818	129.405	-0.007	174.667	-24.264	256.990	293.990	1.858	40.519	186.846	64.878	199.048	288.959	257.508	248.557	-31.291	0.00021059	0.0010863	0.0001855	1363.8	2.1212e-06	4.4759e-06	1367	369.04	2.4513e-06	6.8016e-06	423.08	140.78	122.53	42.13	3.2418e-06	52.259	0.00052066	0.00053904	0.0001505	1375.4	5.8498e-06	5.9168e-06	1375.7	373.85	5.8913e-06	5.8299e-06	427.18	143.53	124.93	43.09	5.8627e-06	53.311	242.688	41.298	21.919	-40.725	180.532	56.626	-40.811	-36.087	66.951	79.099	-36.663	-31.807	-31.551	-27.668	104.690	-28.244	-8191	255	
14096.401	1	1	0	0	0.066548	0.13945	0.34174	0.40286	0.20187	0.046767	0.39011	0.27998	0.096025	0.21093	0.31952	0.26515	0.089968	0.35677	0.26564	0.095665	0.12917	-1.0667	-0.27708	-0.675	-1.0562	-0.058333	-0.89375	-0.98958	-0.0083333	-1.2292	-0.67083	-0.52292	-1.0896	-0.30417	-0.78958	-1.1437	231.583	-46.039	107.234	296.044	-17.238	290.695	233.373	189.556	206.058	0.503	281.056	303.066	284.250	245.891	42.103	170.363	0.00018455	0.00067275	0.00012228	1362.2	2.9213e-06	2.8184e-06	1365.2	368.97	4.078e-06	3.5649e-06	422.13	140.53	122.18	42.039	2.9284e-06	51.94	0.00051164	0.00053551	0.00014604	1377.3	5.8209e-06	5.8832e-06	1375	374.13	5.9195e-06	5.7968e-06	426.97	143.61	124.64	43.044	5.7547e-06	53.186	221.837	29.341	38.422	-40.733	148.229	110.585	-40.704	-36.242	148.177	97.052	-36.909	-31.989	-31.569	-27.624	78.939	-27.891	-8191	255	
14096.519	1	1	0	0	0.022206	0.19814	0.12545	0.052853	0.088572	0.1966	0.24325	0.19796	0.31796	0.12547	0.14875	0.43168	0.072546	0.25265	0.085454	0.25041	0.18125	-1.15	-0.51875	-0.66875	-1.4813	-0.16458	-1.1292	-1.0896	-0.1125	-1.0021	-0.86042	-0.2625	-1.2729	-0.36667	-0.82083	-1.2729	-37.432	194.089	165.464	135.069	53.757	117.130	275.792	197.678	98.769	67.185	249.223	281.009	138.958	276.407	236.346	220.197	0.00017616	0.00022376	9.9469e-05	1365.2	5.1671e-06	7.6099e-06	1363.7	367.87	3.4171e-06	4.569e-06	421.88	140.23	121.84	42.031	8.1977e-06	52.374	0.00051719	0.00053462	0.00014842	1376.5	5.7972e-06	5.8876e-06	1374.9	373.5	5.7959e-06	5.8273e-06	427.23	143.49	124.75	43.086	5.7092e-06	53.324	232.177	-36.659	49.621	-40.762	140.221	69.483	-40.716	-35.996	222.574	91.976	-36.628	-31.669	-31.245	-27.415	124.459	-28.063	-8191	255	
14096.591	1	1	0	0	0.080616	0.065362	0.20844	0.32374	0.10469	0.11846	0.16773	0.43443	0.10727	0.27944	0.1308	0.13588	0.35404	0.069104	0.11535	0.31863	0.21458	-0.8625	-0.6625	-0.27917	-1.2542	-0.53125	-0.82917	-1.2896	-0.25833	-0.98542	-0.91667	-0.34583	-1.0521	-0.55208	-0.53542	-1.1833	152.796	-51.730	152.554	275.269	28.858	13.736	249.176	304.626	91.744	198.145	122.927	196.903	226.798	-44.780	60.115	171.015	0.00021066	0.00052398	9.7249e-05	1367.5	5.9375e-06	7.142e-06	1365.1	368.18	2.5441e-06	6.2211e-06	421.83	140.69	122.17	42.087	2.4969e-06	52.433	0.00051605	0.0005315	0.00014829	1376.4	5.7312e-06	5.829e-06	1373.9	373.27	5.7888e-06	5.8263e-06	427.5	143.62	124.72	43.019	5.8294e-06	53.443	225.718	23.483	-38.283	-40.700	128.208	124.432	-40.494	-35.968	183.529	104.168	-36.749	-31.662	-31.510	-27.468	58.816	-27.877	-8191	255	
14096.687	1	1	0	0	0.27461	0.42984	0.25373	0.091702	0.21307	0.016215	0.20639	0.4287	0.1384	0.13528	0.26892	0.18284	0.33866	0.25882	0.2833	0.22573	0.1125	-0.875	-0.91875	-0.40833	-1.1958	-0.57917	-0.60208	-1.2604	-0.29375	-1.0063	-1.0917	-0.4875	-1.1208	-0.83125	-0.40208	-1.3417	167.638	17.375	84.000	154.603	66.231	276.083	-45.314	-38.049	197.578	-34.593	-31.581	-28.245	-47.133	288.282	176.192	207.102	0.00017584	0.00042644	0.00019883	1361.8	5.0582e-06	1.1943e-06	1365.7	369.35	6.7114e-06	4.5896e-06	422.96	140.48	122.02	42.151	7.2423e-07	52.068	0.00051259	0.00053379	0.00014706	1374.6	5.8308e-06	5.7837e-06	1376.2	374.1	5.8586e-06	5.826e-06	427.52	143.52	124.63	43.084	5.8215e-06	53.173	226.001	2.633	74.687	-40.668	118.219	257.293	-40.647	-36.086	164.808	60.088	-36.352	-31.657	-31.311	-27.349	67.083	-27.951	-8191	255	
14096.783	1	1	0	0	0.19504	0.34257	0.098347	0.32365	0.076634	0.15538	0.32147	0.033443	0.29954	0.13148	0.07972	0.19283	0.24639	0.15802	0.38579	0.19681	0.0375	-0.64375	-0.94167	-0.2125	-1.0417	-0.7125	-0.34583	-1.2188	-0.475	-0.65417	-1.225	-0.38125	-1.0167	-0.97292	-0.29167	-1.2563	252.819	154.608	-6.630	219.496	-21.326	7.538	199.954	224.828	190.685	33.400	196.150	215.821	-46.196	244.766	-36.232	229.522	0.00016781	0.00090076	0.00012387	1361	9.3922e-06	4.3926e-06	1367.2	368.17	7.1489e-06	3.6045e-06	423.74	140.51	122.1	42.026	4.0659e-06	52.267	0.00051549	0.00052596	0.00014811	1373.6	5.7541e-06	5.7356e-06	1376.3	373.74	5.7985e-06	5.8103e-06	427.72	143.53	124.64	43.084	5.862e-06	53.287	227.460	-16.228	-20.724	-40.616	126.918	154.526	-40.371	-35.713	112.475	121.441	-36.792	-32.077	-31.668	-27.247	165.605	-28.026	-8191	255	
14096.904	1	1	0	0	0.25538	0.11182	0.071098	0.40841	0.18177	0.39246	0.15985	0.33637	0.14555	0.22779	0.26924	0.20559	0.22687	0.23889	0.10542	0.14391	0.01875	-0.65208	-1.1	-0.3	-0.85417	-0.84375	-0.62708	-1.3167	-0.60417	-0.60208	-1.2604	-0.27083	-0.87917	-0.85833	-0.22708	-1.3583	11.486	-23.797	40.622	292.025	301.668	259.619	214.582	227.318	292.002	-9.038	267.750	264.638	236.275	293.189	175.539	205.922	0.00018455	0.00010661	0.00011461	1364.9	6.7443e-06	5.1524e-06	1361.8	369.47	6.1189e-06	3.4085e-06	422.41	140.48	122.09	42.236	5.0032e-06	52.119	0.00051257	0.00052493	0.00014531	1377.4	5.7052e-06	5.7876e-06	1375	374.46	5.7585e-06	5.9059e-06	427.99	143.51	124.9	43.138	5.7898e-06	53.241	241.060	-7.785	5.840	-40.764	179.353	57.244	-40.543	-36.098	125.126	127.919	-36.862	-31.848	-31.252	-27.339	51.537	-28.066	-8191	255	
14097.000	1	1	0	0	0.072846	0.11423	0.27674	0.13711	0.17465	0.17427	0.39454	0.089481	0.43982	0.12526	0.069406	0.23649	0.1856	0.19505	0.074465	0.17745	-0.18125	-0.40208	-1.2062	-0.425	-0.89583	-0.93958	-0.5375	-1.2271	-0.75833	-0.55833	-1.5167	-0.55417	-0.69167	-0.98958	-0.25417	-1.2125	224.479	133.569	290.635	152.414	139.834	114.915	252.533	-51.524	73.845	283.236	229.097	261.143	177.621	267.616	94.241	95.750	0.00019035	0.0007719	0.00017261	1361.9	5.8217e-06	3.2972e-06	1367.3	370.02	3.2165e-06	5.349e-06	421.53	140.56	121.95	42.066	4.7678e-06	52.001	0.00051284	0.0005299	0.00014778	1376.5	5.7821e-06	5.7706e-06	1374.5	374.01	5.8161e-06	5.8531e-06	427.22	143.53	124.81	43.029	5.777e-06	53.249	239.843	16.429	47.484	-40.890	186.512	87.974	-40.673	-35.968	89.477	91.051	-36.646	-32.012	-31.187	-27.163	137.637	-27.830	-8191	255	
14097.096	1	1	0	0	0.16311	0.23175	0.051317	0.28205	0.14271	0.066522	0.11536	0.078521	0.19118	0.19212	0.10524	0.076821	0.21641	0.20469	0.0051074	0.039944	-0.29167	-0.12083	-1.1562	-0.61875	-0.625	-0.92708	-0.59583	-1.3042	-0.7875	-0.28333	-1.2333	-0.60625	-0.81667	-1.2458	-0.22083	-0.9625	-52.126	135.824	58.336	300.067	25.821	34.039	234.042	226.191	300.120	269.403	135.798	220.315	297.748	294.792	178.247	289.094	0.00016408	0.00043642	8.5889e-05	1365.3	6.1894e-06	6.1113e-06	1365.1	369.03	1.4843e-06	6.4145e-06	424.03	140.78	121.79	42.091	1.3773e-06	51.986	0.00051066	0.00053264	0.0001464	1376.2	5.7587e-06	5.8177e-06	1374.7	374.08	5.7787e-06	5.7753e-06	428.17	143.52	124.67	43.05	5.8077e-06	53.27	229.756	19.717	50.786	-40.789	106.229	104.891	-40.661	-35.809	305.813	117.724	-36.492	-31.876	-31.273	-27.134	58.719	-28.001	-8191	255	
14097.168	1	1	0	0	0.22888	0.059074	0.33058	0.28173	0.168	0.16773	0.26973	0.37534	0.35004	0.22229	0.33978	0.3735	0.39856	0.10859	0.14105	0.1094	-0.30625	-0.34167	-1.1375	-0.6625	-0.58333	-1.2479	-0.49792	-0.98542	-0.77292	-0.24375	-0.99792	-0.63958	-0.34167	-1.2875	-0.28542	-0.81667	9.878	219.760	155.639	222.873	206.645	-6.237	282.012	272.146	161.745	45.268	-3.291	-39.171	284.849	105.050	63.435	230.784	0.00016562	0.0003522	0.00011743	1363.4	8.8229e-06	1.6567e-06	1363.8	368.26	3.8917e-06	5.8139e-06	421.6	139.91	122.64	42.151	4.5704e-06	52.453	0.00051014	0.00053237	0.00014737	1375.2	5.8556e-06	5.8578e-06	1374.7	374.38	5.8541e-06	5.8547e-06	427.47	143.33	124.94	43.056	5.7806e-06	53.304	233.794	40.065	32.233	-40.733	150.135	240.432	-40.894	-36.112	141.218	126.320	-36.812	-31.893	-31.144	-27.275	99.144	-27.952	-8191	255	
14097.289	1	1	0	0	0.11063	0.177	0.057867	0.26755	0.29037	0.053546	0.1278	0.25855	0.13458	0.063925	0.21707	0.20368	0.14088	0.32533	0.037766	0.21237	-0.53958	-0.13125	-0.76042	-0.79167	-0.475	-1.2604	-0.525	-0.81667	-0.99583	-0.29167	-1.1063	-1.05	-0.35417	-1.2125	-0.40208	-0.8125	220.897	37.316	153.714	259.363	273.229	287.107	224.086	-47.654	-13.214	255.666	255.471	11.209	243.129	204.480	20.187	133.747	0.00020455	0.00031878	0.00022363	1364.4	6.6153e-06	5.8561e-06	1365.8	368.57	4.3262e-06	6.036e-06	422.16	139.78	121.81	42.152	2.117e-06	52.139	0.00051006	0.00052563	0.00014625	1374.7	5.7289e-06	5.8046e-06	1374.4	374.14	5.815e-06	5.8389e-06	427.43	143.21	124.55	43.125	5.8e-06	53.283	213.757	6.987	38.906	-40.915	129.684	82.525	-40.846	-35.804	150.678	80.795	-36.310	-31.726	-31.207	-27.055	146.138	-27.865	-8191	255	
14097.385	1	1	0	0	0.070862	0.13332	0.022517	0.13549	0.26623	0.17154	0.22812	0.009818	0.33967	0.2167	0.30947	0.13387	0.12933	0.25028	0.06835	0.1391	-0.66458	-0.23542	-1.0187	-1.0146	-0.26042	-1.2188	-0.67917	-0.63542	-1.025	-0.47917	-0.875	-1.0417	-0.55417	-1.3438	-0.48333	-0.48125	32.356	186.346	178.975	165.469	89.929	-14.097	260.710	138.204	35.846	97.694	222.381	227.250	236.381	257.021	20.772	226.452	0.00017846	0.00067859	0.00018518	1365.6	2.1845e-06	5.9376e-06	1363.3	368.01	4.3145e-06	5.8745e-06	421.66	140.48	122.46	42.142	2.541e-06	52.263	0.00050532	0.00052856	0.00014431	1377.6	5.7818e-06	5.7541e-06	1374	374.32	5.7538e-06	5.8217e-06	427.1	143.52	124.72	43.054	5.7159e-06	53.376	239.199	55.345	11.549	-41.389	73.229	89.518	-41.220	-36.215	74.460	115.726	-37.103	-32.436	-31.714	-27.818	63.172	-28.685	-8191	255	
14097.481	1	1	0	0	0.16629	0.19448	0.057196	0.032727	0.176	0.23427	0.1947	0.13724	0.27937	0.11354	0.25555	0.4225	0.083367	0.19134	0.1523	0.16145	-0.85833	-0.17083	-0.76875	-0.925	-0.15208	-0.92708	-0.8875	-0.59375	-1	-0.29167	-1.0604	-1.1021	-0.4875	-1.1583	-0.61667	-0.30625	95.541	248.010	49.596	102.210	102.870	83.502	267.506	272.468	115.793	212.411	288.631	225.004	246.826	172.298	-52.706	3.714	0.00019412	0.0004618	1.1157e-05	1360.8	5.9744e-06	3.1948e-06	1360.9	368.37	4.8144e-06	5.4116e-06	421.85	140.92	121.57	42.006	3.289e-06	52.094	0.00050943	0.00052145	0.00014412	1375.3	5.7081e-06	5.7434e-06	1373.1	374.08	5.736e-06	5.7548e-06	427.84	143.63	124.64	43.015	5.7365e-06	53.267	227.811	5.600	-24.497	-41.288	76.156	27.147	-41.041	-36.362	155.310	121.228	-37.060	-32.173	-31.880	-27.607	113.641	-28.293	-8191	255	
14097.600	1	1	0	0	0.17941	0.10719	0.096157	0.24353	0.15889	0.20287	0.11799	0.16268	0.091971	0.18228	0.20384	0.20167	0.19351	0.4739	0.14074	0.089198	-0.82083	-0.27292	-0.75625	-1.2542	-0.14375	-0.92708	-1.0521	-0.53542	-1.0146	-0.3625	-0.8	-1.0854	-0.24583	-1.1521	-0.82917	-0.45625	-11.344	121.064	295.271	305.395	12.831	135.011	208.178	249.685	41.845	-32.930	157.417	284.502	-50.207	255.880	202.515	280.438	0.0001317	0.0002335	0.00011105	1362.5	5.6605e-06	9.8064e-06	1361.2	369.39	2.7282e-06	4.9605e-06	422.59	140.02	122.13	42.057	5.0374e-06	52.132	0.00050711	0.00052482	0.0001459	1375.1	5.8418e-06	5.6926e-06	1374.6	374.26	5.7207e-06	5.7154e-06	427.65	143.31	124.63	43.05	5.7595e-06	53.272	223.202	70.737	50.179	-41.233	175.177	114.504	-41.226	-36.266	152.968	108.752	-37.027	-32.039	-31.876	-27.380	94.272	-28.677	-8191	255	
14097.696	1	1	0	0	0.033717	0.25963	0.15779	0.35535	0.12614	0.062969	0.073535	0.32534	0.14216	0.2982	0.14099	0.19565	0.089613	0.21543	0.21773	0.3596	-0.62083	-0.39167	-0.55417	-1.0854	-0.21875	-0.95208	-1.1125	-0.36875	-1.0208	-0.63542	-0.63333	-1.2687	-0.39375	-0.84375	-0.80833	-0.34167	-25.733	173.735	203.109	289.835	179.646	74.155	11.949	283.077	-16.425	-22.213	-34.971	217.676	287.333	94.479	192.369	294.731	0.00018704	0.00075277	0.00013486	1365.5	4.0265e-06	5.2653e-06	1362.8	368.36	3.4407e-06	4.3595e-06	421.44	140.79	121.4	42.211	3.1231e-06	52.072	0.00050838	0.00052772	0.00014786	1376.6	5.8963e-06	5.7247e-06	1373.4	373.46	5.8276e-06	5.74e-06	426.85	143.71	124.48	43.099	5.735e-06	53.259	238.430	11.944	49.274	-41.246	120.345	88.265	-41.181	-36.322	181.866	86.252	-37.222	-32.259	-31.772	-27.620	115.100	-28.313	-8191	255	
14097.792	1	1	0	0	0.284	0.083241	0.22839	0.099765	0.1921	0.23166	0.22302	0.24536	0.27151	0.24659	0.24219	0.17831	0.22772	0.24302	0.3087	0.38303	-0.5625	-0.56042	-0.2875	-1.1521	-0.20625	-0.69583	-1.1958	-0.34167	-1.0125	-0.48333	-0.54167	-1.2729	-0.39167	-0.75625	-0.93125	-0.12708	285.548	-21.664	-43.928	135.791	210.978	55.834	226.016	158.608	230.178	78.893	-50.765	286.144	-13.543	299.312	105.346	249.887	0.00020385	0.00067408	5.2706e-05	1364.4	2.8078e-06	7.1647e-06	1358.8	369.22	1.0281e-06	3.4585e-06	422.09	140.29	121.55	42.049	5.5026e-06	52.186	0.00049875	0.00052659	0.00014337	1376.6	5.8194e-06	5.7365e-06	1374.7	373.81	5.7142e-06	5.6692e-06	427.28	143.42	124.48	43.091	5.6766e-06	53.243	238.208	26.502	1.721	-41.193	138.326	93.959	-41.147	-36.519	71.747	128.410	-37.270	-32.229	-32.003	-27.584	91.216	-28.466	-8191	255	
14097.888	1	1	0	0	0.28877	0.11763	0.29837	0.22297	0.15241	0.13906	0.074184	0.17586	0.21143	0.067349	0.22528	0.35035	0.090336	0.12724	0.10463	0.26735	-0.6	-0.48125	-0.14792	-1.1417	-0.31667	-0.58333	-1.1313	-0.51667	-0.93333	-0.825	-0.51875	-1.1958	-0.5	-0.62917	-0.96042	-0.42917	244.330	234.786	109.616	286.958	234.105	80.421	285.703	263.867	148.158	197.990	203.189	213.707	19.631	287.085	173.119	-29.019	0.00014605	0.00037963	0.00015828	1368.2	3.3573e-06	4.8632e-07	1358.7	369.34	1.1978e-06	2.3059e-06	422.33	140.62	121.98	42.19	2.7444e-06	52.103	0.00050488	0.00052526	0.00014427	1376.7	5.8009e-06	5.7826e-06	1371.6	374.3	5.743e-06	5.7476e-06	427.32	143.78	124.75	43.049	5.7407e-06	53.248	236.678	34.056	53.770	-41.144	224.455	66.044	-41.158	-36.502	106.011	140.651	-37.165	-32.425	-31.975	-27.791	102.598	-28.493	-8191	255	
14097.984	1	1	0	0	0.21279	0.19392	0.042611	0.27004	0.028935	0.086188	0.16208	0.38474	0.37158	0.17298	0.29119	0.22185	0.20119	0.030765	0.024977	0.16079	-0.37917	-0.94375	-0.22083	-1.4042	-0.50417	-0.63542	-1.3521	-0.32708	-0.85	-1.0458	-0.3625	-1.2625	-0.74375	-0.53125	-1.1125	-0.53125	55.555	48.391	145.371	252.069	141.452	48.550	196.110	225.615	149.954	151.487	242.831	-40.780	-49.796	293.405	-34.855	264.263	0.00019589	0.00059756	6.6959e-05	1365.2	3.5334e-06	5.1084e-06	1361.8	368.38	1.8281e-07	1.6428e-06	423.05	140.57	121.85	41.988	2.0334e-07	52.331	0.00050489	0.00051963	0.00014579	1377.2	5.7343e-06	5.6886e-06	1373.6	373.39	5.6883e-06	5.7053e-06	427.71	143.5	124.58	43.061	5.6781e-06	53.331	225.515	-19.250	-0.543	-41.354	154.835	134.118	-41.173	-36.439	188.924	162.633	-37.304	-32.430	-31.977	-27.755	192.836	-28.448	-8191	255	
14098.081	1	1	0	0	0.27264	0.16891	0.29728	0.46461	0.24739	0.11065	0.26114	0.19909	0.32698	0.1865	0.34173	0.007563	0.025533	0.093221	0.080735	0.20138	-0.37708	-0.90208	-0.14583	-1.1437	-0.44167	-0.32292	-1.3854	-0.4	-0.70417	-1.0396	-0.32292	-1.1271	-0.86875	-0.30625	-1.3333	-0.50208	95.954	-4.157	230.009	220.730	211.883	-49.032	297.315	243.107	280.416	52.861	262.543	219.941	278.885	289.256	171.053	217.752	0.00018492	0.00018873	0.00010624	1367	3.8546e-06	8.5006e-06	1366	368.85	5.2707e-06	3.6813e-06	422.3	140.12	122.61	41.981	1.5589e-06	52.135	0.00049924	0.00052029	0.00014523	1377.6	5.7135e-06	5.6937e-06	1374.7	374.09	5.6756e-06	5.6941e-06	426.91	143.69	124.7	43.004	5.673e-06	53.163	255.114	48.028	32.294	-41.259	114.880	57.385	-41.137	-36.558	168.115	87.371	-37.292	-32.413	-32.088	-27.650	78.794	-28.494	-8191	255	
14098.201	1	1	0	0	0.061799	0.18072	0.21072	0.19857	0.22699	0.074845	0.29174	0.27657	0.10825	0.24429	0.29462	0.20472	0.18607	0.40478	0.17627	0.21859	-0.19375	-1.0979	-0.15833	-1.2188	-0.74583	-0.32083	-1.1125	-0.49792	-0.38333	-0.98125	-0.53333	-1.025	-1.0187	-0.17708	-1.0396	-0.52083	-23.634	78.144	40.508	209.416	237.555	200.785	247.312	249.388	116.830	180.884	-36.927	-27.815	-29.224	229.709	118.148	210.997	0.00016503	0.00077061	0.00015313	1367.4	3.3072e-06	5.7438e-06	1365.4	367.86	2.937e-06	2.3966e-06	422.19	140.58	121.99	42.216	3.2874e-06	52.443	0.0004998	0.00052191	0.00014543	1376.4	5.6879e-06	5.6843e-06	1375.4	373.57	5.7107e-06	5.7328e-06	426.88	143.62	124.75	43.084	5.6787e-06	53.396	226.597	35.874	23.710	-41.322	176.389	136.149	-41.273	-36.616	72.112	146.643	-37.490	-32.293	-31.817	-27.892	93.794	-28.527	-8191	255	
14098.297	1	1	0	0	0.26024	0.10711	0.31513	0.34152	0.041257	0.1989	0.25113	0.24585	0.18502	0.15133	0.27648	0.11824	0.12712	0.11545	0.17055	0.23917	-0.30833	-1.025	-0.020833	-1.2729	-0.99583	-0.4625	-0.925	-0.65833	-0.24375	-1.2188	-0.40417	-0.70625	-0.99583	-0.29583	-0.89167	-0.76667	252.641	74.819	301.186	285.283	150.030	248.136	191.966	235.717	56.325	249.605	210.723	-7.196	274.451	-51.434	301.283	217.302	0.00016583	0.00042906	0.00013797	1363.5	6.1642e-06	7.2077e-06	1365.6	370.13	2.9007e-06	3.3518e-06	422.02	140.47	122.41	42.056	4.2554e-07	52.089	0.00049558	0.00051841	0.00014594	1376	5.6912e-06	5.7741e-06	1377.2	373.83	5.7582e-06	5.6601e-06	426.7	143.71	124.95	43.057	5.6961e-06	53.313	231.465	40.378	26.817	-41.210	95.167	57.128	-41.235	-36.483	96.439	154.777	-37.211	-32.257	-31.803	-27.812	-49.534	-28.577	-8191	255	
14098.392	1	1	0	0	0.31668	0.13321	0.097373	0.18404	0.10045	0.14354	0.30178	0.11558	0.19342	0.073243	0.091202	0.35245	0.2596	0.09671	0.035441	0.3178	0.19583	-1.0729	-0.375	-0.96875	-1.0667	-0.2875	-1.2188	-0.83958	-0.37917	-1.1083	-0.62292	-0.62292	-1.2917	-0.38542	-1.0812	-0.9125	176.327	24.037	5.065	-37.785	270.803	294.194	280.228	-16.709	238.330	116.088	-32.865	233.679	-28.140	122.126	-28.818	258.549	9.0613e-05	0.00035375	0.00016442	1362.6	1.2445e-05	2.0407e-06	1366.1	369.39	3.766e-06	4.0175e-06	419.88	139.96	122.18	41.887	4.2599e-06	52.127	0.00050947	0.00052197	0.00014417	1377.4	5.6909e-06	5.5824e-06	1375.7	373.68	5.7196e-06	5.5814e-06	426.33	143.45	124.82	43.016	5.6657e-06	53.358	221.218	67.712	58.973	-41.359	166.196	92.598	-41.098	-36.606	126.496	134.878	-37.425	-32.402	-31.960	-27.619	148.440	-28.672	-8191	255	
14098.465	1	1	0	0	0.21279	0.1466	0.098492	0.32365	0.045541	0.14931	0.098812	0.4674	0.15059	0.17559	0.20062	0.24715	0.12464	0.22027	0.1253	0.31388	0.095833	-1.0167	-0.2875	-0.50833	-1.1896	-0.31042	-1.1333	-1.1292	-0.325	-1.1458	-0.46667	-0.54167	-1.3188	-0.27917	-0.65625	-0.86667	154.726	-53.977	181.153	286.782	203.545	94.757	249.817	271.239	140.350	286.269	288.622	4.933	282.856	17.390	163.743	284.836	0.00017095	0.00042433	0.00025309	1366.4	5.3854e-06	4.3376e-06	1365.6	368.86	1.1796e-06	5.1152e-06	421.91	140.36	122.18	42.18	3.5672e-06	52.494	0.00050338	0.00051349	0.00014406	1376.1	5.693e-06	5.624e-06	1376.1	374.15	5.741e-06	5.6569e-06	427.45	143.56	124.63	43.095	5.7026e-06	53.404	246.745	56.717	30.000	-41.336	131.551	73.253	-41.139	-36.592	100.504	112.640	-37.306	-32.305	-31.922	-27.922	117.266	-28.536	-8191	255	
14098.584	1	1	0	0	0.13853	0.19357	0.28224	0.09465	0.17519	0.16916	0.062584	0.26575	0.21474	0.19898	0.23353	0.26691	0.30177	0.27996	0.25259	0.17847	0.16042	-0.8125	-0.63958	-0.525	-1.1854	-0.48125	-0.88125	-1.2729	-0.30625	-0.96042	-0.9125	-0.42708	-1.3167	-0.60417	-0.62292	-1.1562	269.668	63.857	54.749	-46.353	41.025	203.135	22.010	295.609	157.132	118.156	243.722	247.398	244.859	232.562	246.065	171.418	0.00016934	0.00024257	0.00010095	1364.3	5.721e-06	7.0628e-06	1369.9	368	3.8757e-06	3.6748e-06	422.74	140.41	122.86	41.975	5.1153e-06	52.33	0.00050664	0.00051281	0.00014333	1378.2	5.6163e-06	5.6662e-06	1376.9	373.35	5.6833e-06	5.6078e-06	427.59	143.5	125.13	43.036	5.6622e-06	53.42	211.729	39.613	58.285	-41.339	128.268	118.863	-41.172	-36.450	161.051	99.872	-37.154	-32.139	-31.922	-27.833	146.084	-28.557	-8191	255	
14098.680	1	1	0	0	0.24296	0.10982	0.16485	0.24318	0.25405	0.021399	0.20789	0.026302	0.17105	0.19386	0.22357	0.23476	0.40286	0.37831	0.19017	0.09332	0.12083	-0.96875	-0.79167	-0.54167	-1.0854	-0.48958	-0.71458	-1.3208	-0.17083	-1.1042	-0.92083	-0.46042	-1.1229	-0.6625	-0.44583	-1.3625	82.504	222.786	-30.092	263.841	57.302	49.548	273.118	-24.657	190.552	188.414	220.350	171.323	280.612	288.499	261.361	117.606	0.00016857	0.00067398	0.0001081	1362.2	5.7647e-06	5.1174e-06	1366.5	368.26	4.3372e-06	4.2267e-06	421.65	140.31	122.22	42.117	4.4222e-06	52.368	0.00049701	0.00050592	0.00014247	1375.3	5.6197e-06	5.7272e-06	1377.5	373.87	5.6599e-06	5.7096e-06	427.26	143.38	124.91	43.073	5.793e-06	53.317	225.112	74.526	11.756	-41.173	110.811	140.484	-41.187	-36.462	109.089	137.951	-37.363	-32.349	-31.894	-27.947	106.586	-28.493	-8191	255	
14098.776	1	1	0	0	0.10453	0.15019	0.3031	0.27351	0.12355	0.18811	0.2918	0.27578	0.18278	0.086166	0.41141	0.19208	0.23666	0.16736	0.094027	0.099931	0.0625	-0.74583	-0.83125	-0.47083	-0.88958	-0.50833	-0.57292	-1.3438	-0.36667	-1	-0.93542	-0.16458	-1.1229	-0.68958	-0.43958	-1.4979	280.114	259.446	120.787	224.157	219.236	180.392	233.048	238.809	19.317	30.332	273.855	-44.240	-6.339	240.394	138.437	231.359	0.00017264	0.00010204	0.00013331	1364.8	6.1444e-06	7.7692e-06	1367.6	368.44	4.8893e-06	4.1005e-06	423.09	140.2	122.48	42.073	1.8424e-06	52.34	0.00049865	0.00051595	0.00014304	1375.9	5.6248e-06	5.6853e-06	1375.7	373.73	5.5753e-06	5.7244e-06	427.54	143.39	125.01	43.097	5.6992e-06	53.231	232.782	92.406	7.980	-41.138	121.740	137.425	-40.985	-36.586	78.349	82.883	-36.940	-32.322	-31.961	-27.909	60.545	-28.388	-8191	255	
14098.873	1	1	0	0	0.37506	0.097801	0.21193	0.31876	0.25145	0.077904	0.32726	0.12973	0.18645	0.13275	0.28866	0.25902	0.32758	0.42956	0.16823	0.097345	0.010417	-0.75417	-1.0208	-0.50625	-1.0083	-0.70625	-0.71667	-1.5646	-0.41042	-0.70208	-1.1292	-0.46667	-0.98125	-0.77083	-0.28958	-1.1	261.289	148.965	293.269	-4.102	142.039	234.944	195.710	139.941	-2.908	184.692	212.181	250.071	289.614	256.311	-20.172	156.296	0.00020112	0.00026901	0.00017832	1362.1	5.8457e-06	4.2573e-06	1363.8	368.88	3.2996e-06	4.3936e-06	422.87	140.56	122.43	42.176	6.7668e-06	52.309	0.00050052	0.00052916	0.00014546	1376	5.7214e-06	5.693e-06	1373.9	373.82	5.7458e-06	5.7552e-06	427.55	143.59	124.99	43.103	5.6633e-06	53.332	240.023	83.588	29.541	-41.480	131.602	101.663	-41.016	-36.373	187.238	144.359	-37.143	-32.203	-32.077	-27.823	82.830	-28.332	-8191	255	
14098.969	1	1	0	0	0.1232	0.21763	0.33299	0.084693	0.10662	0.094872	0.35753	0.26072	0.25699	0.17059	0.070157	0.17205	0.2675	0.31126	0.20636	0.31623	-0.033333	-0.55208	-1.1	-0.39167	-0.76667	-0.80417	-0.38542	-1.1604	-0.5125	-0.41458	-1.225	-0.30625	-1.0146	-0.89583	-0.40208	-1.0063	126.266	112.111	111.042	266.988	170.314	200.997	246.800	273.343	14.830	233.092	19.181	-29.002	245.153	223.226	-2.899	290.475	0.00022572	0.000784	7.92e-05	1357.4	3.7978e-06	6.2729e-06	1360.9	368.51	2.8998e-06	3.4237e-06	421.32	139.88	122.25	42.045	5.1306e-06	52.28	0.00050395	0.00052811	0.00014479	1374	5.7734e-06	5.7611e-06	1375.8	373.97	5.7914e-06	5.7343e-06	427.63	143.39	124.94	43.006	5.8093e-06	53.375	246.552	39.043	45.168	-41.348	82.899	103.371	-41.189	-36.663	117.274	132.797	-37.452	-32.472	-31.931	-28.016	129.484	-28.532	-8191	255	
14099.065	1	1	0	0	0.23734	0.20218	0.13239	0.23184	0.35974	0.22893	0.26871	0.05984	0.24286	0.085193	0.070952	0.3152	0.30903	0.33744	0.070544	0.15714	-0.29792	-0.48333	-1.025	-0.48542	-0.76458	-1.0146	-0.4375	-1.15	-0.71458	-0.12708	-1.3646	-0.4	-0.83958	-0.9	-0.17708	-0.93125	67.937	95.293	275.044	303.082	116.413	116.043	226.655	118.482	271.381	179.763	221.151	298.945	263.183	275.990	196.428	300.807	0.00019658	0.00075641	0.00018514	1360	7.2005e-06	6.1148e-06	1363	367.69	1.6051e-06	7.9573e-06	422.11	140.47	122.01	42.094	3.2532e-06	52.345	0.0005068	0.00052187	0.00014507	1374.5	5.8534e-06	5.7711e-06	1374	373.57	5.7103e-06	5.8227e-06	427.56	143.39	124.84	43.127	5.7635e-06	53.306	224.126	64.924	11.767	-41.482	156.090	113.186	-41.202	-36.580	155.529	-6.029	-37.125	-32.551	-32.126	-27.839	63.383	-28.282	-8191	255	
14099.161	1	1	0	0	0.10141	0.32906	0.15688	0.22318	0.23581	0.20515	0.23892	0.30651	0.23551	0.084271	0.17111	0.17094	0.12258	0.26891	0.13845	0.21595	-0.38125	-0.27083	-1.2271	-0.55625	-0.56042	-0.84167	-0.20417	-1.1292	-0.82708	-0.31042	-1.2437	-0.5875	-0.5	-1.1375	-0.26875	-0.98333	183.170	256.724	188.835	260.310	290.059	87.771	285.623	244.586	-50.893	127.022	292.678	291.924	-17.617	305.363	231.759	212.887	0.00018903	0.00068687	0.00015069	1355.6	7.3172e-06	4.4645e-06	1364.9	367.85	2.4578e-06	4.0518e-06	422.45	140.95	122.28	41.841	2.3046e-06	52.066	0.0005146	0.00052701	0.00014604	1373.8	5.7531e-06	5.7369e-06	1374.1	373.83	5.8145e-06	5.8026e-06	427.35	143.7	124.93	42.994	5.6835e-06	53.269	219.439	24.681	41.196	-41.432	118.504	122.825	-41.285	-36.427	231.356	83.815	-37.492	-32.481	-31.797	-27.772	121.128	-28.705	-8191	255	
14099.282	1	1	0	0	0.061326	0.22824	0.21325	0.22682	0.13232	0.17647	0.29298	0.37281	0.13262	0.1141	0.058779	0.13253	0.16764	0.3706	0.072578	0.11197	-0.43333	-0.35208	-0.975	-0.77292	-0.36458	-1.2208	-0.40208	-1.1	-0.95	-0.14583	-1.3333	-0.66875	-0.59583	-1.075	-0.3375	-0.925	0.016	48.063	53.366	283.474	211.524	132.481	251.801	293.235	-49.052	152.048	34.528	291.686	-45.449	-48.411	52.870	-47.282	0.00018237	0.00015728	0.00018054	1362.2	5.5202e-06	6.6991e-06	1357.1	368.66	4.8407e-06	4.3584e-06	422.14	140.45	122.2	42.013	3.3898e-06	52.385	0.00050555	0.00052345	0.00014412	1375.3	5.7167e-06	5.7112e-06	1373.5	373.98	5.7236e-06	5.7285e-06	427.32	143.59	124.93	43.122	5.6365e-06	53.346	233.131	79.685	26.057	-41.413	89.930	80.448	-40.950	-36.473	139.019	84.337	-37.371	-32.414	-31.585	-27.845	169.536	-28.535	-8191	255	
14099.378	1	1	0	0	0.35398	0.22027	0.35309	0.073724	0.21018	0.32283	0.23341	0.46281	0.13345	0.015964	0.23481	0.081924	0.25824	0.12215	0.23105	0.19854	-0.48542	-0.2375	-1.0646	-0.91875	-0.4625	-1.1562	-0.60833	-0.59167	-1.1708	-0.19375	-1.1771	-0.8	-0.2875	-1.0875	-0.25208	-0.58542	142.670	263.610	113.453	-28.120	254.338	24.054	263.401	230.437	158.331	261.529	-8.814	129.822	291.770	-30.178	93.447	304.916	0.00018573	0.00060322	0.00011552	1358.7	7.7341e-06	4.9399e-06	1358.8	369.1	3.4633e-06	3.1531e-06	422.03	140.51	122.24	42.041	4.8468e-06	52.136	0.00050207	0.00051554	0.00014383	1373.7	5.7069e-06	5.6741e-06	1371.4	373.91	5.6019e-06	5.624e-06	427.65	143.54	124.74	43.016	5.6266e-06	53.234	245.897	27.202	26.121	-41.494	126.420	87.479	-41.235	-36.272	124.157	84.995	-37.362	-32.408	-32.251	-28.113	93.059	-28.694	-8191	255	
14099.472	1	1	0	0	0.086452	0.096438	0.51166	0.31903	0.18036	0.18831	0.20382	0.099907	0.24593	0.11789	0.16892	0.10563	0.17832	0.15706	0.20115	0.083275	-0.83333	-0.029167	-0.89375	-0.97292	-0.38958	-1.2125	-0.53542	-0.6	-1.2458	-0.12917	-1.0938	-0.96042	-0.2875	-1.2979	-0.5625	-0.46042	263.371	139.421	168.727	273.921	65.713	101.490	239.727	167.037	194.333	115.776	244.673	301.094	-23.742	257.098	168.601	-49.078	0.00019153	0.00079479	2.5555e-05	1358.7	8.0237e-06	7.2918e-06	1358.3	368.69	2.5023e-06	8.4234e-06	420.95	140.15	122.03	42.137	2.565e-06	52.351	0.00049611	0.00051136	0.0001399	1372.8	5.6082e-06	5.6855e-06	1371.3	373.72	5.5348e-06	5.5971e-06	426.68	143.5	124.77	43.118	5.6584e-06	53.37	231.457	10.215	125.869	-41.341	118.171	92.108	-41.183	-36.542	112.974	78.314	-37.203	-32.251	-31.786	-27.549	7.402	-28.670	-8191	255	
14099.570	1	1	0	0	0.23025	0.23243	0.077669	0.40141	0.22506	0.17081	0.14637	0.26033	0.037369	0.18767	0.16078	0.18235	0.23217	0.17471	0.18626	0.20211	-0.73333	-0.2	-0.67083	-1.1396	-0.027083	-1.2792	-0.86875	-0.68958	-1.1521	-0.475	-0.90833	-1.2604	-0.41875	-1.1333	-0.6	-0.32708	146.673	256.643	-49.736	-52.364	-34.035	134.890	283.004	-43.869	95.073	49.780	219.930	41.907	243.210	226.296	264.244	288.916	0.00018783	0.00035186	0.00012702	1362.3	6.084e-06	5.9503e-06	1359.7	367.89	2.8949e-06	5.5523e-06	422.8	140.76	121.57	42.113	3.607e-06	52.323	0.00049117	0.00050171	0.00014024	1373	5.6197e-06	5.5628e-06	1372.1	373.74	5.5421e-06	5.6638e-06	426.83	143.52	124.71	43.074	5.5492e-06	53.236	231.910	-0.587	10.099	-41.352	100.685	83.135	-41.343	-36.384	117.209	93.569	-37.304	-32.406	-31.897	-28.078	119.454	-28.683	-8191	255	
14099.689	1	1	0	0	0.16506	0.18171	0.22497	0.22925	0.083909	0.32281	0.24925	0.32568	0.2198	0.15307	0.14475	0.3832	0.1127	0.090805	0.15547	0.17926	-0.94375	-0.275	-0.46042	-1.1313	-0.15833	-0.89792	-0.95417	-0.31458	-1.1542	-0.3125	-0.71875	-1.425	-0.10833	-1.0771	-0.74375	-0.39583	52.272	-37.249	4.955	-48.495	282.798	231.507	199.541	243.798	257.628	13.043	228.152	228.353	190.903	145.373	146.922	264.476	0.00017558	0.00055656	0.00011263	1361.1	2.945e-06	8.2374e-06	1365.8	367.63	3.5716e-06	4.323e-06	420.63	140.51	121.67	42.336	3.5596e-06	52.224	0.00049232	0.00051243	0.0001428	1373.2	5.6478e-06	5.5458e-06	1374.1	373.22	5.5078e-06	5.6692e-06	427.03	143.66	124.52	43.153	5.6288e-06	53.336	230.243	15.746	75.009	-41.460	165.338	129.221	-41.252	-36.307	82.262	62.580	-37.288	-32.424	-31.719	-27.774	87.673	-28.295	-8191	255	
14099.761	1	1	0	0	0.29834	0.15279	0.25037	0.28985	0.11522	0.24563	0.17084	0.25113	0.031847	0.081464	0.19034	0.17186	0.18463	0.13226	0.21656	0.16717	-0.61458	-0.1875	-0.48542	-1.2792	-0.24375	-0.80417	-1.0792	-0.27917	-0.91667	-0.67292	-0.51667	-1.2625	-0.37708	-0.94375	-0.93542	-0.42708	38.619	127.374	257.520	297.200	134.279	186.722	244.218	292.161	102.014	59.018	240.237	248.844	276.045	292.736	251.092	242.702	0.00016819	0.00098721	9.0419e-05	1357.3	5.9967e-06	2.7694e-06	1362.4	367.48	4.3589e-06	2.4573e-06	423.28	140.66	121.64	42.303	4.6352e-06	52.232	0.00049271	0.00051696	0.00014339	1373.8	5.6582e-06	5.6274e-06	1372.4	373.32	5.5865e-06	5.5444e-06	427.46	143.5	124.51	43.168	5.6727e-06	53.322	225.418	63.902	22.298	-41.403	112.501	60.041	-41.307	-36.712	290.936	151.654	-37.130	-32.399	-31.810	-27.407	105.328	-28.489	-8191	255	
14099.857	1	1	0	0	0.19723	0.25934	0.16742	0.46947	0.22338	0.098106	0.32692	0.15472	0.2733	0.10094	0.04355	0.26728	0.070316	0.027985	0.28266	0.24681	-0.79375	-0.47083	-0.34583	-1.2271	-0.38542	-0.77083	-1.2521	-0.47708	-0.88125	-0.56042	-0.50625	-1.2083	-0.44375	-0.68125	-1.0958	-0.36667	0.848	141.749	232.613	284.228	267.742	172.174	223.458	294.788	196.749	92.551	257.297	256.733	254.839	252.262	281.359	-8.269	0.00024731	0.0006673	0.00012467	1361.6	1.0236e-05	7.456e-06	1365.7	367.54	3.529e-06	5.5726e-06	422.9	140.75	121.91	42.269	5.7022e-06	52.156	0.00049942	0.00052011	0.00014409	1374.9	5.7036e-06	5.6062e-06	1373.6	373.6	5.7056e-06	5.7396e-06	427.59	143.73	124.88	43.147	5.661e-06	53.341	232.864	30.833	69.808	-41.243	152.261	62.465	-41.228	-36.537	131.806	101.088	-37.138	-32.461	-32.170	-27.729	88.454	-28.648	-8191	255	
14099.977	1	1	0	0	0.1003	0.21311	0.35567	0.32499	0.17161	0.042512	0.15248	0.056066	0.36309	0.11754	0.090045	0.20854	0.13906	0.35262	0.31057	0.13151	-0.62083	-0.725	-0.054167	-1.2896	-0.35	-0.61042	-1.2271	-0.42083	-1.025	-0.725	-0.23542	-1.3604	-0.55625	-0.70417	-0.93333	-0.39375	-24.438	10.099	98.444	-35.576	47.583	-49.248	218.480	-22.134	109.118	-36.556	269.682	218.088	196.106	279.048	228.183	265.681	0.0001405	0.00036841	0.00017807	1363.2	6.8994e-06	7.333e-06	1365.6	367.4	2.4075e-06	2.0048e-06	422.76	140.49	122.16	42.137	1.7697e-06	52.503	0.0005001	0.0005212	0.00014194	1376.3	5.6868e-06	5.7836e-06	1373.7	373.12	5.6359e-06	5.7339e-06	427.11	143.63	124.98	43.108	5.7264e-06	53.356	234.955	-2.094	20.718	-41.435	142.068	116.509	-41.375	-36.466	127.714	149.102	-37.257	-32.348	-32.273	-27.850	151.817	-28.613	-8191	255	
14100.074	1	1	0	0	0.12898	0.077468	0.078633	0.14871	0.2537	0.068264	0.24535	0.17732	0.088987	0.098707	0.40894	0.44297	0.18175	0.081053	0.15938	0.091826	-0.3375	-0.7875	-0.125	-1.3604	-0.68542	-0.41042	-1.2771	-0.55625	-0.75	-0.85625	-0.3125	-1.2729	-0.66875	-0.49583	-1.2083	-0.16458	73.147	69.964	285.932	271.924	20.811	35.150	236.878	272.335	285.963	256.917	296.496	-52.274	281.419	285.351	241.701	296.967	0.00020493	0.00071605	0.00017554	1361.2	1.2632e-05	6.8865e-06	1362.5	367.67	4.9962e-06	8.1138e-06	420.77	140.85	122.53	42.197	1.6094e-06	52.327	0.00050573	0.00052255	0.00014562	1373.2	5.7278e-06	5.6293e-06	1373.1	373.23	5.6399e-06	5.6588e-06	426.53	143.8	124.88	43.182	5.6944e-06	53.343	235.017	6.052	19.760	-41.279	145.441	110.955	-41.240	-36.372	182.605	85.413	-37.204	-32.572	-31.802	-27.618	112.792	-28.745	-8191	255	
14100.170	1	1	0	0	0.11325	0.098942	0.12491	0.098768	0.12801	0.18021	0.237	0.22416	0.22288	0.075211	0.20793	0.22331	0.15264	0.64038	0.13077	0.22154	-0.12292	-1.0562	-0.2125	-1.2833	-0.63333	-0.32708	-1.2875	-0.52292	-0.80833	-1.175	-0.38958	-0.90208	-0.74375	-0.28542	-1.0458	-0.41875	-27.251	121.461	-40.434	268.732	176.435	-37.673	272.665	285.402	2.250	12.735	-23.439	298.500	252.867	-22.466	-51.421	238.155	0.00016603	0.00027577	0.00019083	1364.9	8.1292e-06	8.1284e-06	1365.4	368.3	1.9301e-06	3.867e-06	419.52	140.29	122.39	42.149	2.5996e-06	52.233	0.00050171	0.00051475	0.0001414	1376.7	5.7095e-06	5.7209e-06	1376.5	373.39	5.7604e-06	5.6765e-06	426.98	143.46	124.98	43.142	5.5814e-06	53.349	229.109	32.674	14.095	-41.362	125.095	66.007	-41.154	-36.512	53.047	113.294	-37.126	-32.456	-32.087	-27.855	156.699	-28.572	-8191	255	
14100.266	1	1	0	0	0.18664	0.053264	0.21217	0.27582	0.30853	0.22623	0.24673	0.37098	0.22376	0.12935	0.097365	0.097487	0.11588	0.11708	0.33168	0.25912	-0.33125	-1.0312	-0.21875	-1.1042	-1	-0.13958	-1.4937	-0.6375	-0.46042	-1.3083	-0.35417	-1.2292	-0.90833	-0.44583	-1.1521	-0.625	73.185	182.298	208.256	-16.508	77.262	299.181	183.541	246.795	96.323	35.427	292.008	188.902	207.293	36.874	99.361	209.383	0.00019217	0.00038555	9.3194e-05	1360.7	1.9851e-06	3.8816e-06	1366.3	368.51	1.8678e-06	4.2214e-06	422.68	140.97	121.66	42.184	4.204e-06	52.423	0.00050921	0.0005187	0.00014728	1377.2	5.7491e-06	5.7915e-06	1376.6	373.81	5.6928e-06	5.6705e-06	427.27	143.67	124.69	43.141	5.5765e-06	53.32	233.828	20.434	20.181	-41.296	63.377	140.635	-40.963	-36.441	174.675	66.118	-37.339	-32.373	-31.985	-27.822	83.155	-28.510	-8191	255	
14100.362	1	1	0	0	0.14823	0.22924	0.05257	0.47141	0.22804	0.10934	0.095933	0.18501	0.071058	0.23178	0.1491	0.18779	0.07286	0.38696	0.24591	0.096195	-0.05	-1.2667	-0.18958	-1.0458	-1.0146	-0.125	-1.0792	-0.97292	-0.27083	-1.1833	-0.49375	-0.85625	-1.1771	-0.26042	-1.1167	-0.73958	285.836	282.224	280.847	252.078	-41.318	116.082	297.934	282.119	235.226	168.597	274.162	-33.627	-11.950	1.625	285.407	121.320	0.00018706	0.00042998	0.00015115	1364	7.3495e-06	6.5781e-06	1364.5	369.53	3.31e-06	2.7028e-06	422.72	140.52	122.28	42.253	4.4666e-06	52.03	0.00050588	0.00051606	0.00014502	1376.8	5.6772e-06	5.7153e-06	1374.2	373.99	5.7469e-06	5.7226e-06	427.77	143.73	124.94	43.108	5.6514e-06	53.293	235.168	18.853	67.822	-41.092	110.819	115.986	-41.195	-36.591	111.467	99.974	-37.144	-32.158	-31.966	-27.721	99.043	-28.641	-8191	255	
14100.458	1	1	0	0	0.23312	0.20167	0.1479	0.29507	0.12653	0.10883	0.24967	0.23077	0.065532	0.16934	0.22431	0.29313	0.16054	0.095697	0.1008	0.21074	0.0020833	-1.0208	-0.3375	-0.82083	-1.0375	-0.16875	-1.3833	-0.975	-0.44792	-1.3125	-0.54375	-0.51667	-1.0083	-0.27083	-0.66875	-0.88333	190.445	190.796	189.033	284.022	95.261	-3.362	253.744	261.002	18.629	-32.860	226.735	248.104	284.131	303.002	250.513	271.186	0.00017126	0.00062324	0.00014619	1362	4.5291e-06	4.3723e-06	1363.7	368.18	2.3414e-06	3.0475e-06	419.59	140.68	122.32	42.048	4.8729e-06	52.295	0.0005026	0.000517	0.00014589	1374.7	5.7042e-06	5.7427e-06	1375.1	373.37	5.7538e-06	5.6678e-06	426.88	143.66	125.01	43.132	5.6404e-06	53.31	216.916	26.771	43.718	-41.098	129.182	214.910	-41.111	-36.494	76.116	122.107	-37.307	-32.337	-31.919	-27.665	105.847	-28.608	-8191	255	
14100.554	1	1	0	0	0.23667	0.13796	0.19081	0.33998	0.10778	0.12763	0.5967	0.10237	0.050039	0.36445	0.35601	0.3646	0.26255	0.16886	0.53591	0.37682	0.14375	-0.99792	-0.42917	-0.71875	-1.2583	-0.22917	-0.95625	-0.95417	-0.36042	-0.83542	-0.63125	-0.37292	-1.2188	-0.4375	-0.73125	-1.0708	94.439	61.915	1.558	241.915	68.340	51.518	231.247	190.538	142.975	-4.789	-43.889	287.725	281.201	280.531	0.195	202.525	0.00018048	0.00028919	0.00021764	1364.2	8.9116e-06	6.7931e-06	1369.6	367.75	2.5323e-06	1.4613e-06	422.03	140.61	122.41	42.248	3.4568e-06	52.501	0.00050384	0.00051495	0.00014439	1374.9	5.5935e-06	5.7264e-06	1375.4	373.5	5.621e-06	5.7129e-06	427.73	143.42	125	43.111	5.6228e-06	53.329	232.699	27.016	40.906	-41.401	130.750	113.592	-41.143	-36.551	102.443	26.636	-37.275	-32.241	-31.794	-27.566	88.734	-28.493	-8191	255	
14100.650	1	1	0	0	0.11503	0.16003	0.048386	0.10058	0.12528	0.12555	0.13335	0.26891	0.06175	0.09031	0.2534	0.098811	0.41491	0.064239	0.31767	0.14304	0.11042	-0.92708	-0.58333	-0.53333	-1.1	-0.2625	-0.86458	-0.92917	-0.34375	-0.86875	-0.82292	-0.53958	-1.1313	-0.50417	-0.46042	-1.1375	99.611	82.583	183.830	232.810	0.696	73.156	-39.830	-51.647	75.270	170.055	-9.953	-19.712	268.966	46.652	233.760	265.127	0.00016497	0.00058024	4.7157e-05	1358.1	5.868e-06	4.3414e-06	1365.1	366.8	2.1526e-06	1.0735e-06	419.37	140.72	122.15	42.171	4.895e-06	52.283	0.00050687	0.00051844	0.00014355	1373.1	5.5788e-06	5.7106e-06	1375	372.92	5.6937e-06	5.6733e-06	426.57	143.65	124.74	43.075	5.6751e-06	53.25	227.794	3.450	57.375	-41.345	141.501	44.902	-40.999	-36.506	144.302	113.338	-37.520	-32.311	-31.833	-27.761	155.170	-28.331	-8191	255	
14100.769	1	1	0	0	0.19858	0.20444	0.14254	0.27832	0.068476	0.1304	0.10988	0.29112	0.18622	0.063219	0.14453	0.3195	0.31984	0.15852	0.24718	0.15605	0.20208	-0.95208	-0.52083	-0.39583	-1.0688	-0.80208	-0.57083	-1.3042	-0.27083	-0.92292	-0.97917	-0.14375	-1.1146	-0.54792	-0.43333	-1.4062	115.556	202.225	157.763	265.794	255.904	272.963	273.110	199.411	80.957	-30.603	258.799	-32.046	198.840	238.430	-1.302	238.227	0.00015457	0.00056505	8.819e-05	1361.1	7.2784e-06	4.5023e-06	1360.2	368.73	3.2273e-06	2.5951e-06	423.56	140.17	121.89	42.251	2.8473e-06	52.286	0.00049636	0.00051928	0.00014203	1373.5	5.7146e-06	5.7608e-06	1372.7	373.42	5.7023e-06	5.6725e-06	427.33	143.42	124.94	43.08	5.7316e-06	53.319	230.597	25.297	9.065	-41.171	123.957	62.220	-41.098	-36.461	190.641	51.427	-37.445	-32.301	-32.153	-27.817	105.570	-28.497	-8191	255	
14100.865	1	1	0	0	0.053647	0.053983	0.17266	0.11239	0.23842	0.31948	0.255	0.27055	0.28949	0.094288	0.24765	0.15329	0.24174	0.29404	0.18456	0.19469	0.11875	-0.56458	-0.78542	-0.4125	-1.0104	-0.29167	-0.60833	-1.1042	-0.22083	-0.6125	-1.0729	-0.15417	-1.2854	-0.77083	-0.30208	-1.1646	135.860	-49.486	74.923	276.949	61.896	-20.450	233.967	246.382	124.906	-35.591	7.360	251.233	289.622	281.779	255.784	-49.312	0.00014348	0.00043383	0.00017517	1364.3	3.8121e-06	5.773e-06	1364.8	367.6	1.7446e-06	2.139e-06	422.58	141.43	121.89	41.878	4.2883e-06	52.277	0.00050478	0.0005215	0.00014262	1374	5.7452e-06	5.7502e-06	1374.3	372.91	5.6889e-06	5.6773e-06	427.45	143.94	124.86	42.974	5.8082e-06	53.306	227.630	20.194	56.723	-41.211	136.867	139.578	-41.131	-36.524	117.175	72.547	-37.149	-32.222	-31.766	-27.931	103.799	-28.561	-8191	255	
14100.962	1	1	0	0	0.33209	0.077249	0.12632	0.33054	0.14155	0.2228	0.27795	0.2664	0.1953	0.19959	0.15382	0.1203	0.073516	0.32443	0.31269	0.21236	0.13542	-0.54167	-0.89167	-0.24792	-0.89167	-0.75625	-0.2625	-1.1437	-0.35	-0.65625	-1.2354	-0.45208	-1.0083	-0.87292	-0.32917	-1.0542	219.776	139.565	251.498	238.235	289.575	104.713	272.161	249.183	177.466	182.229	231.686	-14.200	303.726	11.804	32.254	292.364	0.00015314	0.00059182	8.6453e-05	1360.7	4.324e-06	4.2799e-06	1361.5	367.84	7.0477e-07	3.6482e-06	421.25	140.55	121.76	42.179	3.522e-06	52.179	0.00051286	0.00052634	0.00014581	1373.2	5.7216e-06	5.7486e-06	1371.4	373.62	5.7448e-06	5.8192e-06	427.42	143.67	124.78	43.071	5.7722e-06	53.275	238.902	56.113	34.999	-41.243	180.241	119.331	-41.014	-36.406	128.312	147.568	-37.177	-32.477	-31.712	-27.766	93.031	-28.563	-8191	255	
14101.058	1	1	0	0	0.0852	0.25043	0.13726	0.14149	0.023588	0.17207	0.41071	0.19547	0.089516	0.20277	0.5041	0.3638	0.046338	0.057128	0.19069	0.245	-0.047917	-0.21042	-1.075	-0.41667	-0.87917	-0.88958	-0.55417	-1.0542	-0.34583	-0.3625	-1.1021	-0.48958	-0.94792	-0.93542	-0.2125	-1.4271	43.057	286.803	86.770	256.079	89.954	147.868	227.661	248.355	176.182	293.777	-36.884	230.887	257.248	-25.683	283.551	-33.263	0.00019856	0.00054013	0.00020803	1359.4	5.0418e-06	6.296e-06	1364	368.75	1.0745e-06	3.0683e-06	422.29	140.74	122.14	41.952	3.3466e-06	52.201	0.00050683	0.000523	0.00014565	1372.6	5.7419e-06	5.7528e-06	1372.8	373.42	5.79e-06	5.7598e-06	426.8	143.63	124.83	43.077	5.8123e-06	53.256	218.842	53.851	16.387	-41.163	121.083	98.223	-41.191	-36.307	89.814	131.784	-37.214	-32.214	-32.046	-27.730	99.359	-28.550	-8191	255	
14101.154	1	1	0	0	0.19826	0.1179	0.20779	0.39474	0.13409	0.066266	0.37987	0.10246	0.082221	0.32385	0.12013	0.056126	0.36877	0.089303	0.060798	0.18078	-0.25417	-0.10417	-1.0646	-0.56042	-0.65833	-0.88542	-0.32917	-1.2583	-0.60625	-0.2125	-1.3604	-0.46458	-0.85833	-1.2229	-0.03125	-1.1396	69.662	272.340	113.066	-53.268	198.877	89.632	280.158	193.606	-43.501	78.719	226.887	292.127	282.259	22.313	5.122	217.943	0.00018932	0.00049817	9.0492e-05	1361.9	6.0727e-06	5.0133e-06	1357.6	368.68	1.4124e-06	4.4323e-06	423.29	140.06	122.68	41.832	6.5336e-06	52.707	0.00050632	0.00052795	0.00014351	1371.7	5.6944e-06	5.7285e-06	1371.9	373.76	5.7589e-06	5.7712e-06	427.8	143.44	124.99	43.001	5.7648e-06	53.485	219.857	8.931	-11.180	-41.211	155.056	112.441	-40.927	-36.384	101.779	99.062	-37.115	-32.350	-31.897	-27.754	100.908	-28.475	-8191	255	
14101.250	1	1	0	0	0.24819	0.21916	0.1207	0.13825	0.14292	0.12919	0.35747	0.085754	0.25056	0.3363	0.14556	0.33799	0.15603	0.090777	0.038131	0.30489	-0.325	-0.40833	-1.0917	-0.67917	-0.66458	-1.2313	-0.54375	-0.92083	-0.92917	-0.33542	-1.1375	-0.6375	-0.55833	-1.2542	-0.17292	-0.86042	80.115	50.619	-49.195	296.943	87.008	259.433	223.386	-25.129	220.586	241.929	266.590	242.405	240.055	57.529	199.683	237.203	0.00017808	0.00051259	0.00011995	1357.6	4.2864e-06	3.9625e-06	1364.8	368.6	4.4304e-06	3.4844e-06	422.16	139.74	122.08	41.963	3.4313e-06	52.377	0.00050501	0.0005234	0.00014365	1372.1	5.6944e-06	5.7498e-06	1372.3	373.52	5.8407e-06	5.8376e-06	427.17	143.46	124.81	43.03	5.7203e-06	53.351	244.470	60.839	78.994	-41.287	76.282	81.319	-41.112	-36.267	152.171	140.854	-36.869	-32.385	-31.752	-27.545	101.096	-28.257	-8191	255	
14101.371	1	1	0	0	0.099739	0.079964	0.10722	0.42139	0.17177	0.2271	0.14691	0.13899	0.20361	0.2473	0.10817	0.39272	0.21388	0.2372	0.12649	0.1234	-0.53125	-0.15208	-1.2146	-0.49167	-0.45417	-1.4062	-0.54792	-0.95625	-0.99792	-0.1125	-1.1063	-0.75417	-0.47708	-1.1833	-0.31667	-0.7	168.985	192.303	88.237	273.418	179.829	181.264	168.676	-51.075	256.414	105.973	292.415	292.662	19.336	229.741	295.137	273.647	0.00014827	0.00047951	0.00018192	1359.4	4.3476e-06	7.3232e-06	1361.7	367.79	3.7072e-06	6.3697e-06	421.88	140.48	121.68	42.039	3.6316e-06	52.168	0.00050435	0.00052321	0.00014621	1371.7	5.693e-06	5.7586e-06	1372.8	373.78	5.6312e-06	5.8039e-06	427.13	143.7	124.7	43.026	5.691e-06	53.318	219.108	65.866	26.397	-41.375	219.880	140.065	-41.225	-36.407	147.915	85.140	-37.122	-32.051	-31.863	-27.538	24.882	-28.602	-8191	255	
14101.465	1	1	0	0	0.18327	0.19452	0.26331	0.060112	0.11667	0.18381	0.14514	0.23044	0.042646	0.077789	0.21693	0.18877	0.032624	0.060782	0.15344	0.15136	-0.75833	-0.14583	-0.87292	-0.66667	-0.33333	-1.1604	-0.66042	-0.76875	-1	-0.25208	-1.0312	-0.79792	-0.21667	-1.1437	-0.44167	-0.5625	265.619	46.257	106.397	109.311	44.681	-41.069	270.959	-49.250	112.108	-51.269	226.185	-46.001	6.596	266.149	174.377	152.600	0.00012559	0.00041572	0.00015431	1358.5	5.9227e-06	3.0007e-07	1366.1	369.49	9.1459e-07	6.506e-06	421.11	140.73	122.36	41.996	3.9355e-06	52.385	0.00050381	0.00052158	0.00014328	1372.2	5.7087e-06	5.6371e-06	1371.9	373.98	5.602e-06	5.6687e-06	427.15	143.62	124.88	43.015	5.7196e-06	53.382	222.933	32.019	26.411	-41.318	79.151	108.613	-41.231	-36.470	274.529	59.933	-37.011	-32.734	-31.700	-27.889	161.459	-28.317	-8191	255	
14101.563	1	1	0	0	0.19719	0.18388	0.20892	0.087011	0.36104	0.10752	0.52348	0.30464	0.068958	0.085922	0.26825	0.28913	0.16627	0.23923	0.14739	0.22305	-0.6875	-0.32708	-0.81458	-1.1271	-0.39583	-1.1104	-0.72917	-0.70625	-1.3104	-0.46667	-1.1313	-0.89375	-0.18125	-1.0458	-0.51042	-0.60417	187.094	244.670	177.336	279.341	-19.806	196.114	221.034	253.920	30.873	-21.645	99.202	227.966	-14.022	-6.010	205.859	236.295	0.0001753	0.00035809	2.5625e-05	1361.4	3.4133e-06	1.055e-05	1365.7	367.82	4.6766e-06	5.8176e-06	423.17	140.69	121.83	42.343	5.5685e-06	52.304	0.00050097	0.0005185	0.0001452	1374.6	5.7041e-06	5.6173e-06	1373.5	373.33	5.6029e-06	5.7812e-06	428.13	143.95	124.88	43.222	5.6801e-06	53.312	230.397	2.363	99.169	-41.267	115.255	99.261	-41.033	-36.090	88.929	132.141	-37.337	-32.162	-31.651	-27.450	116.818	-28.558	-8191	255	
14101.657	1	1	0	0	0.249	0.035337	0.055458	0.16038	0.082921	0.42184	0.26132	0.16635	0.22283	0.12746	0.16604	0.18368	0.17695	0.094793	0.43523	0.3177	-0.65	-0.20417	-0.7125	-1.3646	-0.2625	-0.95625	-0.75208	-0.63958	-1.1417	-0.28333	-0.78125	-1.0438	-0.14167	-1.0167	-0.76667	-0.40208	188.826	-51.152	31.935	217.315	41.005	303.659	198.803	270.368	57.245	-52.461	264.962	-25.061	-53.441	9.427	-13.380	208.463	0.00012589	0.00068158	0.00016406	1362.1	1.5583e-06	5.4163e-06	1367.1	368.55	4.0185e-06	3.8981e-06	423.11	140.66	122.37	41.977	9.3299e-07	52.273	0.00050254	0.00051863	0.00014584	1374.4	5.6308e-06	5.6534e-06	1375.3	374.04	5.6735e-06	5.6784e-06	427.24	143.55	124.86	43.136	5.7578e-06	53.387	223.706	-8.852	51.825	-41.139	158.968	113.118	-41.191	-36.290	83.586	72.801	-37.103	-32.184	-31.684	-27.374	34.530	-28.365	-8191	255	
#DATA ENDS
