BOXY.EXE: ISS Imagent and Oximeter Data Acquisition Program Version 0.80
Ascii Record File

#ACQ INFORMATION
2  Detector Channels 
16  External MUX Channels 
1  Auxiliary Channels 
5000  Waveform (CCF) Frequency (Hz)
1  Waveforms Skipped 
30  Waveforms Averaged 
1  Cycles Averaged 
16  Acquisitions per Waveform 
10.0806  Updata Rate (Hz) 

#FILE INFORMATION
TRUE -- External MUX Channel results are PARSED.
FALSE -- AC DC and Phase are NOT grouped.
TRUE -- Companion Program Settings File CREATED.
FALSE -- AC data not excluded
FALSE -- DC data not excluded
FALSE -- Phase data not excluded
FALSE -- Auxillary Chn. data not excluded
Tab delimiters

#CALIBRATION STATE
TRUE -- Waveform Calibration Values APPLIED.


#AUX CALIBRATION VALUES
Val Type	aux-1	

Term	1.0000e+00	
Factor	0.0000e+00	


#WF CALIBRATION VALUES
A = Detector Channel
Val Type	A-AC1	A-AC2	A-AC3	A-AC4	A-AC5	A-AC6	A-AC7	A-AC8	A-AC9	A-AC10	A-AC11	A-AC12	A-AC13	A-AC14	A-AC15	A-AC16	A-DC1	A-DC2	A-DC3	A-DC4	A-DC5	A-DC6	A-DC7	A-DC8	A-DC9	A-DC10	A-DC11	A-DC12	A-DC13	A-DC14	A-DC15	A-DC16	A-Ph1	A-Ph2	A-Ph3	A-Ph4	A-Ph5	A-Ph6	A-Ph7	A-Ph8	A-Ph9	A-Ph10	A-Ph11	A-Ph12	A-Ph13	A-Ph14	A-Ph15	A-Ph16	

Term	0.00000e+00	0.00000e+00	0.00000e+00	0.00000e+00	0.00000e+00	0.00000e+00	0.00000e+00	0.00000e+00	0.00000e+00	0.00000e+00	0.00000e+00	0.00000e+00	0.00000e+00	0.00000e+00	0.00000e+00	0.00000e+00	0.00000e+00	0.00000e+00	0.00000e+00	0.00000e+00	0.00000e+00	0.00000e+00	0.00000e+00	0.00000e+00	0.00000e+00	0.00000e+00	0.00000e+00	0.00000e+00	0.00000e+00	0.00000e+00	0.00000e+00	0.00000e+00	0.00000e+00	0.00000e+00	0.00000e+00	0.00000e+00	0.00000e+00	0.00000e+00	0.00000e+00	0.00000e+00	0.00000e+00	0.00000e+00	0.00000e+00	0.00000e+00	0.00000e+00	0.00000e+00	0.00000e+00	0.00000e+00	
Factor	1.00000e+00	1.00000e+00	1.00000e+00	1.00000e+00	1.00000e+00	1.00000e+00	1.00000e+00	1.00000e+00	1.00000e+00	1.00000e+00	1.00000e+00	1.00000e+00	1.00000e+00	1.00000e+00	1.00000e+00	1.00000e+00	1.00000e+00	1.00000e+00	1.00000e+00	1.00000e+00	1.00000e+00	1.00000e+00	1.00000e+00	1.00000e+00	1.00000e+00	1.00000e+00	1.00000e+00	1.00000e+00	1.00000e+00	1.00000e+00	1.00000e+00	1.00000e+00	X	X	X	X	X	X	X	X	X	X	X	X	X	X	X	X	

B = Detector Channel
Val Type	B-AC1	B-AC2	B-AC3	B-AC4	B-AC5	B-AC6	B-AC7	B-AC8	B-AC9	B-AC10	B-AC11	B-AC12	B-AC13	B-AC14	B-AC15	B-AC16	B-DC1	B-DC2	B-DC3	B-DC4	B-DC5	B-DC6	B-DC7	B-DC8	B-DC9	B-DC10	B-DC11	B-DC12	B-DC13	B-DC14	B-DC15	B-DC16	B-Ph1	B-Ph2	B-Ph3	B-Ph4	B-Ph5	B-Ph6	B-Ph7	B-Ph8	B-Ph9	B-Ph10	B-Ph11	B-Ph12	B-Ph13	B-Ph14	B-Ph15	B-Ph16	

Term	0.00000e+00	0.00000e+00	0.00000e+00	0.00000e+00	0.00000e+00	0.00000e+00	0.00000e+00	0.00000e+00	0.00000e+00	0.00000e+00	0.00000e+00	0.00000e+00	0.00000e+00	0.00000e+00	0.00000e+00	0.00000e+00	0.00000e+00	0.00000e+00	0.00000e+00	0.00000e+00	0.00000e+00	0.00000e+00	0.00000e+00	0.00000e+00	0.00000e+00	0.00000e+00	0.00000e+00	0.00000e+00	0.00000e+00	0.00000e+00	0.00000e+00	0.00000e+00	-1.16366e+02	-1.34525e+02	-1.24640e+02	-1.81440e+02	-6.20949e+01	-6.64202e+01	-1.56427e+02	-1.62015e+02	-6.69733e+01	-6.15982e+01	-1.71980e+02	-1.69516e+02	-1.84939e+02	-1.76465e+02	-6.54987e+01	-1.48787e+02	
Factor	1.61643e-05	1.38122e-04	4.24785e-05	1.47321e-01	1.18619e-06	1.52504e-06	1.65925e-01	4.94256e-02	1.07980e-06	1.67298e-06	8.54847e-02	2.70576e-02	2.30815e-02	8.67598e-03	1.25400e-06	1.23377e-02	1.12576e-05	2.02003e-05	5.73018e-06	7.73108e-02	2.02464e-07	2.30455e-07	8.19583e-02	2.61172e-02	2.05112e-07	2.28814e-07	4.35796e-02	1.39337e-02	1.23178e-02	4.61571e-03	2.14390e-07	6.36437e-03	X	X	X	X	X	X	X	X	X	X	X	X	X	X	X	X	



#DISTANCE SETTINGS
A = Detector Channel
A-1	A-2	A-3	A-4	A-5	A-6	A-7	A-8	A-9	A-10	A-11	A-12	A-13	A-14	A-15	A-16	

2.5000e+00	3.0000e+00	2.5000e+00	3.0000e+00	2.0000e+00	3.0000e+00	1.5000e+00	3.0000e+00	3.0000e+00	3.0000e+00	3.0000e+00	3.0000e+00	3.0000e+00	3.0000e+00	1.5000e+00	3.0000e+00	

B = Detector Channel
B-1	B-2	B-3	B-4	B-5	B-6	B-7	B-8	B-9	B-10	B-11	B-12	B-13	B-14	B-15	B-16	

1.0000e+01	1.0000e+01	1.0000e+01	1.4400e+00	1.0000e+01	1.0000e+01	1.5100e+00	1.9400e+00	1.0000e+01	1.0000e+01	1.9900e+00	2.4900e+00	2.4100e+00	2.9000e+00	1.0000e+01	2.9800e+00	




#DATA BEGINS
time	group	step	mark	flag	A-AC1	A-AC2	A-AC3	A-AC4	A-AC5	A-AC6	A-AC7	A-AC8	A-AC9	A-AC10	A-AC11	A-AC12	A-AC13	A-AC14	A-AC15	A-AC16	A-DC1	A-DC2	A-DC3	A-DC4	A-DC5	A-DC6	A-DC7	A-DC8	A-DC9	A-DC10	A-DC11	A-DC12	A-DC13	A-DC14	A-DC15	A-DC16	A-Ph1	A-Ph2	A-Ph3	A-Ph4	A-Ph5	A-Ph6	A-Ph7	A-Ph8	A-Ph9	A-Ph10	A-Ph11	A-Ph12	A-Ph13	A-Ph14	A-Ph15	A-Ph16	B-AC1	B-AC2	B-AC3	B-AC4	B-AC5	B-AC6	B-AC7	B-AC8	B-AC9	B-AC10	B-AC11	B-AC12	B-AC13	B-AC14	B-AC15	B-AC16	B-DC1	B-DC2	B-DC3	B-DC4	B-DC5	B-DC6	B-DC7	B-DC8	B-DC9	B-DC10	B-DC11	B-DC12	B-DC13	B-DC14	B-DC15	B-DC16	B-Ph1	B-Ph2	B-Ph3	B-Ph4	B-Ph5	B-Ph6	B-Ph7	B-Ph8	B-Ph9	B-Ph10	B-Ph11	B-Ph12	B-Ph13	B-Ph14	B-Ph15	B-Ph16	aux-1	digaux	

28615.674	1	1	0	512	0.030928	0.11479	0.22765	0.11091	0.053483	0.08581	0.028512	0.27656	0.27641	0.16488	0.075945	0.18241	0.23323	0.29556	0.12565	0.16692	0.13125	-1.0896	-0.19792	-0.72708	-0.925	-0.14583	-0.87708	-0.78542	-0.17917	-0.91667	-0.32917	-0.37708	-1.2583	-0.25625	-0.88333	-0.925	305.206	393.104	342.720	170.786	471.044	440.441	421.115	516.972	227.238	271.629	217.744	510.917	510.903	520.897	313.610	497.249	0.00026236	0.0013506	0.0002397	813.1	4.4275e-06	4.0544e-06	532.62	283.91	7.2667e-07	8.5299e-06	188.11	67.161	105.98	53.155	8.7332e-06	31.739	0.012365	0.021967	0.0063133	897.74	0.00022057	0.00025135	623.22	314.91	0.00022427	0.00025105	235.26	83.303	121.18	59.213	0.00023786	39.091	206.984	294.021	297.186	176.258	208.662	205.550	174.034	181.754	302.291	220.127	178.251	183.297	186.887	190.634	455.950	185.607	-8191	255	
28615.744	1	1	0	0	0.3608	0.090995	0.18576	0.251	0.20277	0.063714	0.19214	0.17798	0.12649	0.23037	0.11065	0.11163	0.12302	0.45279	0.14613	0.066799	0.27917	-1.0646	-0.32708	-0.4625	-0.97708	-0.16042	-0.79375	-0.85417	-0.18958	-0.89375	-0.50625	-0.33333	-1.075	-0.25	-0.66458	-0.99792	249.972	405.021	291.854	304.516	241.301	266.388	482.722	506.406	239.875	366.844	432.876	291.138	476.146	493.664	513.207	470.128	0.00028742	0.00058262	0.00034394	818.93	5.7711e-07	6.0694e-06	538.17	285.31	5.3166e-06	1.1208e-06	186.78	67.716	106.55	53.749	5.5743e-06	31.727	0.012572	0.022243	0.0063685	902.55	0.00022346	0.00025723	627.66	316.26	0.00022799	0.00025641	236.17	83.643	121.84	59.681	0.00024195	39.325	227.935	488.156	240.594	176.201	183.255	216.645	174.051	181.861	344.450	273.158	178.190	182.494	186.892	190.575	498.273	185.857	-8191	255	
28615.842	1	1	0	0	0.080228	0.31088	0.20947	0.11615	0.10764	0.066444	0.099085	0.24685	0.25762	0.21988	0.088002	0.18198	0.21934	0.20176	0.24472	0.10256	0.24375	-0.85208	-0.55208	-0.44583	-1.0271	-0.13542	-0.59375	-0.86042	-0.029167	-1.0771	-0.70417	-0.28542	-1.25	-0.45	-0.5875	-1.2021	247.932	316.403	218.120	184.982	343.408	380.689	308.806	463.761	206.103	389.230	492.199	194.228	418.571	178.219	242.055	449.219	0.00035576	0.001235	0.00023376	822.92	9.5833e-06	8.4088e-06	538.23	284.04	3.9896e-06	6.5336e-06	186.24	66.622	105.6	53.145	5.6794e-06	31.325	0.012777	0.022757	0.006512	907.37	0.00022756	0.00025952	629.2	316.13	0.00023039	0.00025819	234.87	82.844	121.18	59.186	0.00024255	38.791	204.083	365.439	279.427	176.214	396.813	223.666	174.068	181.721	298.008	209.187	178.656	182.607	186.421	190.444	198.210	185.464	-8191	255	
28615.963	1	1	0	0	0.17632	0.16391	0.1646	0.052155	0.050316	0.33742	0.24033	0.035824	0.088544	0.097622	0.38253	0.16874	0.28826	0.31193	0.065038	0.051244	0.37917	-0.90833	-0.65208	-0.21875	-1.0125	-0.27917	-0.52292	-1.0542	-0.064583	-0.85625	-0.85417	-0.32083	-1.1354	-0.62292	-0.47708	-1.1313	315.823	480.787	412.648	329.797	188.037	334.259	422.892	438.263	235.524	179.682	207.054	437.566	368.320	179.497	241.688	198.243	0.00047791	0.00045663	0.00032524	814.56	1.1147e-05	1.8576e-05	531.19	283.81	7.4866e-06	5.3115e-06	185.46	66.018	105.24	52.846	1.8427e-06	31.242	0.012846	0.022858	0.0064992	901.65	0.00022626	0.00026041	622.08	315.05	0.0002305	0.00025867	233.27	82.101	120.66	58.96	0.00024079	38.64	204.036	368.645	309.094	176.122	209.913	229.746	174.131	181.771	297.463	219.703	178.424	182.549	186.384	190.433	493.101	186.047	-8191	255	
28616.059	1	1	0	0	0.1217	0.090542	0.32023	0.046429	0.23059	0.15686	0.31219	0.33555	0.091575	0.19308	0.23098	0.082092	0.17907	0.21757	0.095127	0.33892	0.0375	-0.60833	-0.725	-0.18542	-1.0104	-0.61875	-0.41875	-1.2479	-0.21875	-0.57083	-0.86875	-0.12083	-1.0604	-0.87083	-0.27083	-0.87708	244.154	492.706	334.865	176.333	227.050	310.291	447.421	493.709	484.673	234.082	415.653	301.369	182.480	177.901	512.120	469.147	0.00036673	0.00073829	0.00028764	816.19	5.7878e-06	1.1369e-05	528.37	283.54	1.0699e-05	1.7173e-05	185.36	65.719	105.23	53.053	7.9181e-06	31.373	0.012838	0.02282	0.0064291	901.12	0.00022727	0.0002623	621.48	315.12	0.00023252	0.00025897	233.36	81.963	120.63	59.173	0.0002406	38.817	207.462	508.077	519.848	176.101	512.495	218.959	173.981	181.624	283.760	304.561	178.808	182.860	186.722	190.586	214.209	185.544	-8191	255	
28616.154	1	1	0	0	0.074006	0.1256	0.068366	0.41212	0.15359	0.1024	0.17949	0.21161	0.14323	0.16377	0.26783	0.22456	0.21469	0.22585	0.059881	0.16331	-0.0041667	-0.51667	-0.88958	-0.35208	-1.0208	-0.725	-0.13333	-1.2646	-0.33958	-0.41042	-1.0375	-0.29583	-0.81875	-0.69583	-0.18125	-1.1771	254.571	250.431	368.476	187.702	401.545	171.684	491.725	485.480	377.924	410.496	465.486	276.684	514.782	180.238	329.944	390.658	0.000368	6.3584e-05	0.00017377	815.5	5.2554e-06	6.3352e-06	534.02	283.77	5.7646e-06	9.2003e-06	188.15	66.78	105.96	53.341	5.3384e-06	31.915	0.012867	0.022761	0.0064768	900.54	0.00022823	0.0002608	624.53	315.77	0.00023304	0.00025864	234.97	82.589	121.07	59.359	0.00024078	39.294	205.634	310.770	232.947	176.314	357.994	344.921	174.104	181.896	228.348	432.027	178.322	182.401	186.658	190.913	198.464	185.748	-8191	255	
28616.250	1	1	0	0	0.062835	0.23548	0.095934	0.42339	0.13678	0.10673	0.01681	0.14876	0.18874	0.33408	0.17432	0.26139	0.18663	0.37626	0.14714	0.081222	0.09375	-0.39792	-0.925	-0.3625	-0.85625	-0.71875	-0.26667	-1.1396	-0.39583	-0.51458	-1.0958	-0.34167	-0.97083	-0.93542	-0.32083	-1.0583	323.469	244.526	193.581	462.808	398.637	357.485	510.280	166.222	469.211	405.370	475.704	504.869	251.869	489.536	276.206	462.347	0.00033233	0.00083427	0.00023835	818.57	3.8434e-06	9.7785e-06	534.57	285.85	1.0037e-05	4.8955e-06	186.89	66.766	105.68	52.978	1.563e-06	31.671	0.012924	0.022799	0.0064466	903.77	0.00023083	0.00025962	625.81	317.29	0.00023239	0.00025897	235.14	82.859	121.03	59.338	0.00024075	39.105	212.275	218.467	341.308	176.073	493.639	337.778	174.253	182.086	285.794	410.381	178.636	182.304	186.532	190.484	496.682	185.735	-8191	255	
28616.346	1	1	0	0	0.085352	0.16348	0.16274	0.088514	0.097578	0.12967	0.17675	0.047145	0.068043	0.28738	0.33577	0.077905	0.074578	0.1105	0.15007	0.12835	0.01875	-0.31458	-0.99792	-0.29167	-0.81042	-0.99375	-0.225	-1.0375	-0.525	-0.37708	-1.1333	-0.32917	-0.67083	-1.1771	-0.14375	-1.0125	189.196	471.428	185.703	230.170	321.239	236.957	439.172	193.790	391.355	322.821	177.403	275.845	325.058	506.817	257.994	502.409	0.0003035	0.00036876	0.00044739	812.82	5.8567e-06	5.4282e-06	534.26	283.47	9.2799e-06	1.438e-05	184.14	65.564	104.98	52.704	1.0119e-05	31.01	0.01288	0.022646	0.0064449	900.69	0.00022827	0.00025815	621.39	314.98	0.00023165	0.00025834	232.41	81.841	120.23	58.774	0.00023925	38.435	202.114	208.875	175.105	176.055	382.862	478.460	174.238	182.004	511.202	299.775	178.287	182.513	186.604	190.767	256.671	185.829	-8191	255	
28616.443	1	1	0	0	0.21609	0.058707	0.24437	0.14975	0.083117	0.15597	0.10313	0.080397	0.27042	0.068405	0.30761	0.18617	0.16802	0.31067	0.23081	0.09173	-0.40208	-0.32292	-1.1104	-0.46875	-0.40833	-0.9625	-0.25625	-0.93125	-0.69792	-0.0083333	-1.1125	-0.3625	-0.27708	-1.2958	-0.13333	-0.76458	420.273	210.693	400.633	433.926	463.806	508.529	212.348	226.283	488.448	424.405	183.070	237.672	480.169	208.156	323.465	454.823	0.00031418	0.00064924	9.5264e-05	806.73	1.0065e-05	2.0067e-06	527.93	283.11	4.804e-06	1.5274e-05	183.85	65.832	104.89	52.786	8.3229e-06	30.803	0.012819	0.0226	0.0064102	895.52	0.00022705	0.0002578	617.72	315.22	0.00023175	0.00025908	232.63	81.722	120.23	58.815	0.00024314	38.458	204.994	172.935	516.878	176.100	270.629	184.388	173.874	181.985	329.363	224.846	178.511	182.762	186.583	190.859	299.378	185.979	-8191	255	
28616.539	1	1	0	0	0.34251	0.31534	0.204	0.35851	0.11915	0.22713	0.10117	0.146	0.24233	0.15064	0.1251	0.13257	0.34794	0.13643	0.17639	0.087554	-0.4375	-0.19375	-1.2542	-0.55833	-0.44583	-1.2667	-0.42292	-0.81458	-1.0854	-0.21667	-1.1333	-0.74792	-0.39167	-1.1542	-0.15417	-0.825	308.229	481.054	516.089	489.812	298.225	495.163	326.406	391.425	480.621	389.482	343.937	213.673	231.846	505.970	520.857	423.978	0.0001812	0.0012903	0.00028271	813.6	2.7915e-06	6.2572e-06	528.87	282.77	1.1831e-05	7.2254e-06	186.07	65.49	104.41	53.036	8.5362e-06	31.228	0.012893	0.022733	0.0065135	899.55	0.00022755	0.00025892	619.64	314.67	0.00022989	0.00025674	232.86	81.805	120.09	58.985	0.0002425	38.75	208.544	294.203	197.517	176.141	451.626	424.648	173.937	181.993	273.051	278.795	178.156	182.410	186.584	190.741	394.777	185.946	-8191	255	
28616.635	1	1	0	0	0.31326	0.17899	0.23781	0.13176	0.41525	0.11162	0.1463	0.39951	0.054951	0.16668	0.075045	0.17047	0.29709	0.051567	0.081136	0.23948	-0.62083	-0.24167	-0.67292	-0.78333	-0.35	-0.99167	-0.70417	-0.61458	-0.99792	-0.37083	-1.0021	-0.83125	-0.26667	-1.4021	-0.26458	-0.61667	332.348	436.566	302.241	430.876	366.352	512.434	340.790	354.041	521.288	412.130	296.888	263.426	205.274	471.398	249.540	491.746	0.00041218	0.00061989	0.00033959	811.29	5.906e-06	6.0733e-06	530.35	284.04	4.9333e-06	1.0292e-05	184.59	66.157	104.9	53.066	5.111e-06	31.617	0.012821	0.022752	0.0064927	897.36	0.00022808	0.00025838	621.61	315.17	0.00023099	0.00025886	234.08	82.413	120.28	59.261	0.00024477	39.029	204.136	341.991	289.364	175.917	383.890	389.389	174.277	181.669	510.342	358.312	178.313	182.558	186.730	190.791	402.064	185.605	-8191	255	
28616.754	1	1	0	0	0.14078	0.29301	0.23786	0.27363	0.074592	0.12338	0.23151	0.31924	0.087603	0.21801	0.35143	0.10189	0.070815	0.21647	0.16984	0.25993	-0.81458	-0.14583	-0.82292	-0.84375	-0.11458	-1.1375	-0.66875	-0.46667	-1.0146	-0.19792	-0.55833	-0.95833	-0.41875	-1.0479	-0.71042	-0.35	268.934	490.621	224.901	430.457	207.626	185.022	425.397	427.043	177.387	246.073	361.397	438.187	246.773	169.088	176.152	472.053	0.00030711	0.0011551	0.00025164	811.04	4.2084e-06	5.5152e-06	535.16	283.92	6.3619e-06	1.294e-05	184.58	66.514	105.21	52.801	6.3201e-06	30.944	0.012781	0.022734	0.0064799	899	0.00022592	0.0002601	624.73	315.33	0.00022962	0.00025831	233.58	82.151	120.08	58.831	0.00024132	38.493	209.246	474.878	269.017	175.973	422.274	365.682	174.247	182.301	313.634	302.024	178.432	182.504	186.692	190.849	317.621	185.541	-8191	255	
28616.850	1	1	0	0	0.09027	0.25359	0.39688	0.19978	0.18343	0.091108	0.20553	0.23248	0.36705	0.25089	0.42743	0.18969	0.2841	0.13413	0.13373	0.3539	-0.80833	-0.13333	-0.74792	-1.0438	-0.20833	-1.0312	-0.71042	-0.33333	-1.0729	-0.38125	-0.75833	-1.0229	-0.325	-1.0896	-0.7625	-0.21042	194.113	464.795	365.694	177.715	238.620	349.901	488.372	509.498	444.516	337.994	498.697	456.433	259.000	176.601	518.582	504.939	0.00038162	0.0010203	0.0001788	808.95	6.7875e-06	3.7892e-06	525.31	282.88	4.9998e-06	1.3825e-05	182.13	65.614	104.82	52.596	7.7701e-06	30.853	0.012651	0.022669	0.0064715	895.07	0.00022716	0.00026044	617.48	313.13	0.00023023	0.00025704	231.63	81.44	119.82	58.774	0.0002413	38.241	227.370	259.248	173.393	175.933	303.494	168.929	174.016	182.086	206.461	303.913	178.544	182.424	186.524	190.862	479.245	185.687	-8191	255	
28616.945	1	1	0	0	0.37506	0.28591	0.070635	0.14833	0.095835	0.038572	0.10319	0.57479	0.122	0.09752	0.056699	0.17936	0.43371	0.15534	0.11478	0.24192	-0.78125	-0.15625	-0.68333	-1.0938	-0.1125	-0.99583	-0.90625	-0.43333	-1.1708	-0.4875	-0.33125	-1.1792	-0.36458	-1.0854	-0.8125	-0.38333	173.064	185.927	262.134	170.059	494.457	273.426	406.861	502.780	359.477	431.867	491.609	424.427	497.099	208.070	456.733	166.675	0.00039586	0.00051451	0.00015579	806.03	1.4782e-05	1.6136e-05	528.75	281.5	7.254e-07	1.0818e-06	183.25	65.503	104.55	52.919	2.0946e-06	30.796	0.012745	0.022708	0.0063785	892.75	0.00022518	0.00025619	617.7	313.3	0.00022733	0.00025654	231.63	81.424	119.74	58.906	0.00023838	38.288	207.759	189.328	303.586	176.334	363.654	405.030	174.001	181.955	267.569	317.262	177.998	182.035	186.639	190.812	394.059	186.180	-8191	255	
28617.043	1	1	0	0	0.041615	0.14722	0.13534	0.35897	0.047075	0.074485	0.1734	0.36237	0.27635	0.21538	0.14362	0.065379	0.16528	0.31857	0.21134	0.1562	-0.45625	-0.59167	-0.38542	-1.2792	-0.38958	-0.775	-0.93333	-0.36875	-1.1125	-0.71458	-0.22292	-0.99375	-0.43125	-0.85208	-0.9	-0.34792	277.040	288.681	437.407	460.257	205.377	485.782	404.025	504.464	177.232	450.030	223.161	488.468	513.276	509.006	384.734	202.475	0.00029606	0.0016347	0.00051157	813.29	7.8279e-06	1.2107e-05	530.65	281.74	2.9351e-06	5.1663e-06	184.39	66.009	104.42	52.882	6.285e-06	31.395	0.012743	0.022678	0.0063618	897.43	0.00022635	0.00025834	619.99	313.43	0.00022861	0.00025526	232.94	81.861	119.94	58.935	0.00023678	38.593	216.682	286.622	285.250	176.182	314.764	410.399	174.016	182.387	361.233	345.162	178.585	182.683	186.661	190.829	479.029	185.727	-8191	255	
28617.139	1	1	0	0	0.14191	0.19413	0.23761	0.33074	0.19694	0.13527	0.35197	0.34231	0.15797	0.077059	0.11212	0.069759	0.3167	0.41234	0.15788	0.20324	-0.55208	-0.61042	-0.21458	-1.1333	-0.4	-0.78125	-1.0833	-0.1375	-0.83333	-0.78333	-0.20208	-1.1375	-0.62917	-0.50417	-1.0625	-0.24583	405.347	368.120	426.076	438.750	398.362	414.274	429.202	485.944	190.449	332.152	226.073	508.977	422.835	404.630	464.319	479.603	0.0003945	0.0001865	0.00016865	813.33	1.0624e-05	1.7168e-05	532.73	284.11	6.3641e-06	1.4276e-05	186.26	66.238	104.5	53.005	1.1096e-05	31.47	0.012736	0.022663	0.0063536	897.06	0.00022761	0.00025875	622.06	314.83	0.00022803	0.00025486	233.87	82.405	120.3	59.181	0.00023718	38.826	196.157	362.238	458.468	176.059	305.757	320.206	173.973	181.945	332.826	271.960	178.473	182.644	186.563	190.785	235.936	185.871	-8191	255	
28617.234	1	1	0	0	0.1048	0.18457	0.21498	0.17542	0.14241	0.17211	0.12213	0.35064	0.25285	0.32431	0.13242	0.25145	0.17839	0.13517	0.093687	0.11593	-0.59167	-0.75	-0.05	-1.2896	-0.32292	-0.57917	-1.2292	-0.36667	-0.98958	-0.72708	-0.33542	-1.2313	-0.575	-0.55208	-1.1417	-0.21458	229.594	319.720	207.118	180.564	471.851	444.080	461.882	397.026	194.636	506.535	167.358	422.944	496.166	460.788	501.258	342.360	0.00033394	9.6013e-05	0.0002197	813.14	5.689e-06	2.912e-06	533.02	282.87	2.7962e-06	6.3553e-06	183.53	65.228	104.77	52.642	7.8868e-07	30.695	0.012774	0.022571	0.0063581	899.9	0.00022652	0.00025762	620.5	313.96	0.00022885	0.00025523	232.64	81.441	120.15	58.644	0.00023731	38.254	224.366	478.239	233.360	176.362	274.764	310.716	174.240	181.868	303.252	309.804	179.134	182.789	186.439	190.877	291.516	185.607	-8191	255	
28617.355	1	1	0	0	0.11885	0.046394	0.22705	0.4596	0.056713	0.081631	0.065558	0.087698	0.13999	0.27302	0.22147	0.26387	0.55749	0.15254	0.18071	0.1412	-0.28958	-0.76667	-0.23958	-1.1417	-0.62292	-0.46458	-1.1771	-0.56458	-0.61875	-1.2417	-0.28333	-0.98125	-0.79792	-0.43542	-1.2833	-0.49792	324.628	180.949	488.359	446.278	444.947	470.840	170.377	463.016	369.257	351.318	379.116	507.362	167.688	452.621	320.676	467.272	0.00024887	0.0025438	2.4342e-05	810.24	1.572e-05	1.628e-05	527.98	281.32	4.2035e-06	1.3664e-05	182.75	65.753	104.71	52.707	6.0831e-06	30.889	0.012665	0.022369	0.006358	893.28	0.00022616	0.00025519	616.76	313.36	0.000228	0.00025341	231.57	81.814	120.03	58.634	0.00023987	38.301	223.216	219.678	183.612	176.008	324.494	296.833	174.186	182.111	285.889	324.695	178.839	182.944	186.809	190.863	281.788	185.983	-8191	255	
28617.449	1	1	0	0	0.16299	0.22425	0.11747	0.1099	0.33	0.16268	0.22393	0.52308	0.15324	0.28634	0.2524	0.36146	0.16117	0.28841	0.09875	0.24459	-0.31042	-1.0271	-0.083333	-1.0688	-0.80625	-0.17917	-1.1521	-0.41042	-0.59167	-0.97292	-0.42292	-0.96875	-0.79167	-0.22083	-1.1646	-0.42708	293.323	206.252	441.108	192.222	187.748	382.011	497.130	505.594	210.640	393.668	459.191	462.652	283.159	458.406	208.223	472.031	0.00038273	0.00072479	0.00035179	810.56	3.0411e-06	6.5193e-06	528.82	281.58	4.0513e-06	1.5101e-05	183.81	66.314	106.01	52.814	2.5882e-06	31.03	0.012742	0.022543	0.0063876	894.28	0.00022759	0.00025608	619.34	313.25	0.00022816	0.00025542	232.46	82.028	120.6	58.832	0.00023894	38.559	203.101	272.974	302.176	176.224	512.493	251.946	174.038	181.918	422.254	249.257	178.213	182.385	186.866	190.865	168.529	185.970	-8191	255	
28617.547	1	1	0	0	0.12628	0.29357	0.073742	0.17805	0.15044	0.092218	0.072197	0.16533	0.071684	0.37346	0.12674	0.19456	0.18256	0.20256	0.16247	0.4561	-0.2	-0.97083	-0.083333	-0.95833	-0.79167	-0.2125	-1.1229	-0.47083	-0.51458	-1.0125	-0.3125	-0.69375	-1.0667	-0.29167	-1.2437	-0.63542	466.980	476.965	395.542	430.807	191.431	167.489	431.390	472.425	267.593	250.378	344.877	165.970	259.968	385.119	451.774	438.782	0.00034908	0.00044781	0.00036748	810.38	7.5692e-06	1.6624e-05	530.87	281.96	1.1627e-05	7.757e-06	185.21	66.708	105.55	53.02	6.0605e-06	31.63	0.012661	0.022477	0.0064117	894.65	0.00022529	0.00025504	620.46	313.89	0.00022806	0.00025362	233.78	82.688	120.65	59.075	0.00023921	38.906	204.862	363.485	291.354	176.376	226.829	354.612	174.086	181.861	313.651	428.867	177.844	182.350	186.605	191.061	373.790	186.056	-8191	255	
28617.645	1	1	0	0	0.13209	0.13675	0.089197	0.16335	0.048154	0.081574	0.17743	0.067168	0.12571	0.12731	0.081227	0.22817	0.23547	0.12559	0.29951	0.12266	0.095833	-1.0083	-0.275	-0.87083	-0.9875	-0.21458	-1.0958	-0.80833	-0.34792	-1.0979	-0.33958	-0.53958	-1.0583	-0.30625	-1.0167	-0.79792	189.689	438.575	386.823	372.343	314.608	217.604	230.118	486.664	282.578	180.300	182.843	515.409	185.587	521.756	425.207	214.559	0.00037064	0.0008291	8.8119e-05	813.58	1.34e-05	1.3084e-05	532.16	283	9.5515e-06	1.5068e-05	185.52	67.239	106.09	52.77	4.9269e-06	31.202	0.012623	0.022646	0.0064289	896.87	0.00022495	0.00025632	622.5	314.72	0.00022781	0.00025269	234.42	83.122	120.93	59.018	0.0002401	38.579	204.612	247.732	179.324	176.103	286.525	404.625	174.173	182.007	356.264	300.235	178.159	182.768	186.479	190.710	345.415	185.489	-8191	255	
28617.738	1	1	0	0	0.17191	0.1426	0.24397	0.39145	0.34807	0.27382	0.015744	0.20079	0.17011	0.15432	0.0943	0.31088	0.080946	0.18631	0.21442	0.041857	0.0083333	-1.2125	-0.30833	-0.59792	-0.96042	-0.19583	-1.0542	-1.05	-0.40625	-1.1396	-0.51875	-0.57708	-1.1812	-0.27917	-0.6875	-1.1292	319.621	314.094	236.925	452.830	403.736	412.339	224.048	410.264	409.872	400.903	409.238	470.337	476.431	243.454	417.935	450.731	0.00025046	0.00063243	0.00010564	804.97	6.0068e-06	1.1686e-05	527.18	282.78	9.9064e-06	1.0248e-05	181.33	66.182	105.28	52.531	4.6496e-06	31.013	0.012635	0.02242	0.0064096	890.62	0.00022425	0.00025541	616.5	313.54	0.00022735	0.00025341	231.12	81.685	120.35	58.572	0.00023755	37.973	203.993	216.877	284.867	176.269	307.138	318.909	173.913	181.966	238.185	259.140	178.425	182.509	186.877	190.907	315.594	185.878	-8191	255	
28617.834	1	1	0	0	0.10031	0.142	0.175	0.33914	0.23118	0.31658	0.26677	0.19398	0.21644	0.26808	0.16324	0.10998	0.42108	0.41734	0.1426	0.33096	0.04375	-1.0438	-0.425	-0.61667	-1.0771	-0.15417	-0.71042	-1.0458	0.020833	-0.99375	-0.62083	-0.375	-1.2938	-0.51667	-0.46875	-1.1479	261.970	495.855	496.795	452.366	325.775	417.565	474.405	444.333	363.110	333.656	334.265	389.516	178.065	484.806	334.621	206.676	0.00022397	0.00076426	0.0004139	802.65	7.4557e-06	9.846e-06	527.6	280.94	2.7391e-06	1.1617e-05	183.15	65.56	105.39	52.656	9.1695e-06	30.858	0.012562	0.022221	0.0063414	887.45	0.00022261	0.00025551	615.58	312.13	0.00022594	0.00025223	231.54	81.725	120.33	58.611	0.00023596	38.068	210.511	287.338	221.539	176.219	501.662	211.659	173.863	181.896	518.364	171.305	178.306	182.714	186.715	190.774	257.228	185.364	-8191	255	
28617.930	1	1	0	0	0.16314	0.10638	0.29233	0.27555	0.26973	0.081357	0.10716	0.16764	0.12524	0.18864	0.31758	0.17281	0.13211	0.17681	0.18707	0.19096	0.077083	-0.9125	-0.68958	-0.49792	-1.1542	-0.41667	-0.525	-1.1396	-0.23542	-0.72708	-0.8125	-0.38125	-1.0562	-0.45417	-0.56042	-1.2188	522.796	271.089	406.333	443.408	256.498	355.764	265.029	222.921	498.400	341.105	488.880	377.395	322.357	475.880	336.063	173.601	0.00029787	0.00037875	0.00038556	802.98	3.9708e-06	1.6936e-05	526.03	282.91	8.7232e-06	4.833e-06	183.74	66.829	105.98	52.983	6.1864e-06	31.028	0.012538	0.022411	0.0062985	888.45	0.00022168	0.00025408	616.97	312.98	0.00022499	0.00025185	232.17	82.301	120.93	58.887	0.00023514	38.41	190.645	428.809	280.952	176.024	337.239	272.574	174.222	182.022	224.602	275.312	178.685	182.894	186.730	190.641	183.092	185.721	-8191	255	
28618.027	1	1	0	0	0.24748	0.06589	0.1424	0.032833	0.21483	0.10969	0.3732	0.32074	0.1617	0.19423	0.21552	0.11462	0.024127	0.10098	0.16035	0.10308	0.12917	-0.75208	-0.79792	-0.36667	-1.1125	-0.40417	-0.53333	-1.3146	-0.24583	-0.8875	-1.0646	-0.19375	-1.0771	-0.62292	-0.41875	-1.1896	406.824	304.571	403.879	425.357	237.996	179.083	403.395	191.968	469.212	425.456	380.563	386.522	311.423	173.424	213.970	523.073	0.00047714	0.00018095	0.00033306	804.54	5.7199e-06	3.7194e-06	534.84	284.24	4.1855e-06	1.4433e-05	186.6	67.547	106.3	53.107	1.7166e-06	31.52	0.0126	0.022301	0.0063171	889.55	0.00022384	0.00025577	620.34	313.86	0.0002275	0.00025319	233.69	83.012	121.27	59.188	0.00023674	38.852	208.840	408.804	201.159	176.144	352.414	341.048	174.169	181.981	348.675	306.269	178.287	182.217	186.689	190.458	345.138	185.374	-8191	255	
28618.146	1	1	0	0	0.042112	0.17798	0.13992	0.12869	0.3461	0.26696	0.18868	0.15844	0.10793	0.14655	0.061514	0.30152	0.35053	0.066257	0.15563	0.044048	0.11042	-0.7125	-0.85833	-0.2625	-0.85208	-0.63542	-0.425	-1.0562	-0.22083	-0.69167	-1.0667	-0.24167	-0.99792	-0.86458	-0.25625	-1.0146	271.968	279.936	309.005	176.331	185.592	466.261	305.912	318.543	248.663	188.757	333.770	471.651	254.600	509.729	295.784	480.852	0.00041422	0.00083675	9.1796e-05	808.78	4.2994e-06	6.2961e-06	531.31	283.01	4.1789e-06	8.1188e-06	183	67.121	105.25	52.466	1.2173e-05	30.943	0.012649	0.022391	0.0063363	892.77	0.0002242	0.0002563	619.83	313.55	0.00022806	0.00025376	231.67	82.381	120.64	58.606	0.00023426	38.178	225.491	307.947	278.396	175.979	377.961	406.552	173.937	182.029	217.601	231.269	178.382	182.972	186.543	190.666	244.133	185.899	-8191	255	
28618.219	1	1	0	0	0.068911	0.079896	0.37896	0.29236	0.10893	0.22932	0.27941	0.10893	0.14045	0.13958	0.049786	0.15453	0.3659	0.13594	0.082106	0.04551	0.03125	-0.45833	-1.1562	-0.20625	-0.92917	-0.63125	-0.24375	-1.2146	-0.31042	-0.5125	-1.2833	-0.42292	-0.98333	-1.1396	-0.16667	-0.98958	331.555	246.273	232.621	475.244	172.650	319.365	448.248	470.374	469.463	419.630	502.618	387.562	190.203	219.897	343.543	261.346	0.00025091	0.00058379	0.00047209	800	6.2115e-06	1.4486e-05	525.75	281.9	4.2163e-06	4.4119e-06	183.23	65.825	105.12	52.577	4.2357e-06	30.882	0.012552	0.022091	0.00624	885.09	0.00022278	0.00025156	613.19	311.84	0.00022443	0.00025054	230.74	81.697	120.29	58.493	0.00023394	38.093	232.177	243.755	292.764	176.076	340.908	363.181	174.471	182.029	306.290	209.905	179.001	182.628	186.804	190.837	420.788	185.787	-8191	255	
28618.314	1	1	0	0	0.10664	0.22283	0.22641	0.11589	0.24016	0.081565	0.15032	0.23256	0.13437	0.17787	0.14284	0.12899	0.051846	0.26161	0.071432	0.30756	-0.0125	-0.34583	-0.9875	-0.375	-0.72292	-0.77292	-0.27917	-1.3	-0.65417	-0.38958	-1.2396	-0.38542	-0.85625	-1.0208	-0.25833	-1.0187	294.543	320.868	285.484	241.687	362.820	470.382	356.181	450.765	343.212	207.711	490.948	198.357	226.872	182.795	314.133	478.208	0.00023723	0.00033888	0.00040643	802.53	8.9276e-06	1.1969e-05	527.6	281.86	6.532e-06	8.9095e-06	184.98	66.421	105.27	52.847	7.7578e-06	31.061	0.012523	0.022164	0.0062599	887.66	0.00022205	0.00025243	615.1	312.63	0.0002252	0.0002483	231.11	81.71	120.5	58.723	0.00023373	38.371	191.550	486.970	308.382	175.936	316.847	355.160	174.229	182.023	318.483	266.973	178.352	182.563	186.726	190.879	499.192	185.926	-8191	255	
28618.436	1	1	0	0	0.13334	0.1564	0.20269	0.17217	0.20342	0.17749	0.23982	0.14646	0.14852	0.15751	0.057493	0.37682	0.11751	0.14839	0.25197	0.072453	-0.28125	-0.14167	-1.3458	-0.50208	-0.46875	-0.95	-0.26667	-0.97917	-0.49583	-0.4875	-1.4229	-0.76667	-0.57083	-1.0604	-0.17708	-0.96042	198.186	309.946	291.161	405.688	308.132	367.378	373.907	468.264	461.460	218.167	458.029	508.732	484.523	442.148	278.380	414.913	0.00024834	0.0014414	0.00018415	804.39	2.4628e-06	7.7473e-06	528	283.72	7.6353e-06	1.3084e-05	185.11	66.415	105.3	52.967	2.4422e-06	31.229	0.012529	0.022098	0.0062737	889.54	0.0002227	0.00025318	617.82	313.53	0.00022541	0.00025249	232.48	82.336	120.75	59.04	0.00023814	38.646	201.927	194.366	297.167	176.096	418.971	492.336	173.958	182.061	375.983	311.390	178.505	182.225	186.783	190.707	315.180	185.576	-8191	255	
28618.531	1	1	0	0	0.15003	0.23141	0.14959	0.10947	0.34704	0.052637	0.1755	0.20369	0.11245	0.18953	0.082057	0.21038	0.2403	0.27422	0.23949	0.12333	-0.49167	-0.27083	-0.96667	-0.57708	-0.4125	-1.2188	-0.275	-0.9375	-1.0292	-0.37917	-1.2396	-0.7	-0.57083	-1.3354	-0.225	-0.86875	184.097	402.145	475.985	488.282	422.140	205.668	395.678	461.011	413.875	221.969	353.702	198.194	235.386	168.864	415.233	435.643	0.00032215	0.0015423	0.00015043	810.03	1.2311e-05	6.7019e-06	530.89	283.36	5.2202e-06	1.1796e-05	184.43	66.62	106.25	52.969	9.358e-07	31.203	0.012771	0.022362	0.0063939	893.76	0.00022526	0.00025457	620.79	314.49	0.00022711	0.00025464	233.73	82.761	121.1	59.012	0.00023844	38.678	197.075	320.179	181.291	176.000	264.477	229.422	174.166	182.116	363.301	397.838	178.665	182.657	186.430	190.688	304.390	186.191	-8191	255	
28618.627	1	1	0	0	0.058474	0.04862	0.15795	0.06575	0.13322	0.11758	0.052621	0.14985	0.20205	0.061509	0.16113	0.26871	0.20767	0.2125	0.08389	0.0024689	-0.38542	0.033333	-1.0396	-0.71875	-0.325	-1.275	-0.29583	-0.8	-0.82917	-0.15625	-0.90625	-0.75833	-0.39375	-1.3333	-0.34375	-0.55833	368.604	309.601	361.013	479.014	429.194	506.951	495.249	404.271	337.420	265.461	469.577	471.045	195.990	405.842	325.864	331.077	0.00036408	0.00089141	0.0003725	805.96	1.0833e-05	2.6546e-06	529.65	281.79	9.0629e-06	3.395e-06	183.62	65.396	104.71	52.744	6.2441e-06	30.672	0.01262	0.022458	0.0063982	892.35	0.00022511	0.0002569	619.92	313.55	0.00022877	0.00025623	231.89	81.528	120.07	58.742	0.00024012	38.156	196.305	357.257	330.665	176.100	314.116	357.507	173.978	182.106	285.670	322.580	178.353	182.712	186.841	190.864	277.127	185.882	-8191	255	
28618.725	1	1	0	0	0.19412	0.17292	0.16844	0.21215	0.20148	0.25359	0.45119	0.076943	0.1707	0.14462	0.051168	0.34067	0.22618	0.12958	0.12734	0.27486	-0.71458	-0.089583	-1.0438	-0.87292	-0.22708	-1.1437	-0.49167	-0.57708	-1.0917	-0.19583	-1.0167	-0.58125	-0.10625	-1.2604	-0.475	-0.41667	358.564	371.057	447.966	441.596	266.622	285.954	434.658	312.142	260.062	521.059	523.480	361.324	392.934	453.097	492.540	202.222	0.00029953	0.00065751	0.00033803	809.94	6.9207e-06	9.074e-06	528.6	281.24	2.2737e-06	1.8767e-05	181.93	65.413	104.36	52.58	7.3953e-06	30.719	0.012665	0.022643	0.0064227	894.03	0.00022685	0.00025897	616.29	313.39	0.00023024	0.00025792	230.67	81.094	119.68	58.719	0.00023991	38.112	190.950	302.217	201.556	176.172	283.680	309.091	173.779	182.044	243.369	359.557	178.290	182.556	186.610	190.672	316.935	185.716	-8191	255	
28618.844	1	1	0	0	0.22515	0.26534	0.090851	0.047852	0.31498	0.020255	0.059667	0.26674	0.27229	0.09715	0.053578	0.025687	0.11785	0.56077	0.31714	0.20636	-0.70833	-0.18333	-0.7625	-1.0979	-0.12292	-1.2563	-0.54375	-0.30833	-1.1771	-0.4125	-0.81667	-0.7125	-0.28542	-1.175	-0.67917	-0.30417	375.046	236.420	209.159	498.081	289.979	266.502	357.470	478.266	500.903	330.030	240.901	170.059	476.822	481.102	318.111	352.593	0.00024575	0.00067125	0.00017437	806.14	2.5657e-06	4.2787e-06	527.2	282.08	9.7904e-06	1.4875e-05	184.96	65.074	104.15	52.817	8.1861e-06	31.05	0.012678	0.022625	0.0063916	890.48	0.0002267	0.00025942	616.63	313.07	0.00022872	0.000257	231.8	80.899	119.55	58.902	0.00023912	38.444	195.022	267.650	283.800	176.122	371.707	360.067	174.030	182.086	332.496	442.101	178.481	182.786	186.676	190.865	207.316	185.433	-8191	255	
28618.914	1	1	0	0	0.11159	0.31954	0.2173	0.39342	0.15012	0.079881	0.086197	0.21106	0.071306	0.024869	0.17516	0.035821	0.14294	0.30328	0.26501	0.44091	-0.58125	-0.33125	-0.52083	-1.0292	-0.12083	-0.925	-0.53958	-0.31458	-0.98125	-0.52708	-0.77292	-1.0333	-0.25625	-1.25	-0.74375	-0.28333	252.546	503.205	168.253	493.108	458.425	280.044	283.852	443.674	273.391	336.850	242.910	316.071	245.298	477.781	435.612	445.419	0.00029886	0.00055418	0.0002295	803.88	7.0629e-06	6.7341e-06	529.09	282.94	6.4469e-06	2.8957e-06	182.05	65.648	104.54	53.227	5.4565e-06	31.381	0.012676	0.02264	0.006417	890.49	0.00022713	0.00026008	618.6	313.42	0.00023233	0.00025888	232.45	81.757	120.07	59.207	0.00024222	38.746	192.272	193.373	232.931	175.977	399.895	364.277	173.996	181.949	437.035	192.902	178.448	182.256	186.827	190.943	400.638	185.477	-8191	255	
28619.035	1	1	0	0	0.14441	0.2759	0.1456	0.27637	0.21814	0.11393	0.16321	0.26509	0.35701	0.11222	0.27539	0.22605	0.10667	0.22871	0.15931	0.23181	-0.77083	-0.14375	-0.44375	-1.0271	-0.30208	-0.77083	-0.8875	-0.38542	-1.0542	-0.40625	-0.43542	-1.2083	-0.42708	-0.80833	-0.56667	-0.32708	370.541	196.675	287.467	416.453	288.042	333.520	473.675	387.710	413.653	345.718	319.452	219.254	176.243	187.903	381.625	411.810	0.00022843	0.00042046	0.00043387	809.78	8.377e-07	3.9401e-06	530.84	283.23	4.2131e-06	5.6085e-06	183.97	65.679	104.11	52.688	3.7388e-06	30.577	0.012883	0.022876	0.0064328	894.29	0.00022835	0.00026038	620.04	314.11	0.00023168	0.00025836	232.9	81.544	119.74	58.812	0.00024119	38.19	217.181	169.007	404.094	175.979	445.528	324.635	173.970	181.919	292.200	238.959	178.555	182.174	187.009	190.681	333.215	185.546	-8191	255	
28619.131	1	1	0	0	0.34992	0.11209	0.20477	0.11885	0.19837	0.26081	0.18172	0.078825	0.1454	0.068472	0.059123	0.062855	0.22692	0.46578	0.18922	0.1868	-0.59167	-0.38125	-0.275	-1.2854	-0.38333	-0.80833	-0.95417	-0.19583	-1.0729	-0.72292	-0.35208	-1.2792	-0.37083	-0.8875	-1.1313	0.022917	367.341	344.860	431.235	359.968	432.173	252.432	431.457	417.577	245.839	259.599	223.269	292.221	515.619	459.361	191.782	465.169	0.00027734	0.00040095	0.00046585	799.68	1.1461e-05	7.5359e-06	523.28	280.21	1.0778e-05	5.0373e-06	182.12	65.093	104.22	52.475	7.3184e-06	30.489	0.012805	0.022853	0.0064489	889.77	0.00022875	0.00025865	613.41	311.97	0.00023115	0.00025694	230.17	80.86	119.45	58.602	0.00024038	37.983	203.680	468.848	180.136	176.129	351.749	261.664	174.120	181.946	236.027	455.781	178.787	182.424	186.686	190.942	505.075	185.243	-8191	255	
28619.229	1	1	0	0	0.21731	0.30346	0.020633	0.18724	0.18226	0.18733	0.37362	0.22475	0.36515	0.16698	0.12388	0.31063	0.094433	0.30123	0.14144	0.020539	-0.625	-0.60625	-0.17292	-1.1229	-0.475	-0.65417	-1.2729	-0.39167	-0.90208	-0.66667	-0.30625	-1.2188	-0.41875	-0.54583	-1.3042	-0.20417	315.400	187.592	171.126	511.965	223.835	482.134	510.902	384.249	295.114	360.965	227.325	453.187	356.565	297.251	503.014	225.154	0.00025422	0.00093005	0.00031413	798.61	5.3383e-06	1.6038e-05	522.84	280.57	2.6865e-06	3.0629e-06	180.67	65.525	103.75	52.508	6.3271e-06	30.537	0.012829	0.022736	0.0064389	889.01	0.00022919	0.00025887	613.42	312.99	0.00023363	0.00025977	230.34	80.991	119.51	58.589	0.00024165	38.096	236.345	252.757	476.358	176.051	262.696	320.590	174.090	181.956	323.728	219.014	178.720	183.066	186.696	190.892	286.983	186.035	-8191	255	
28619.324	1	1	0	0	0.079539	0.019252	0.14595	0.23738	0.096464	0.12349	0.27506	0.15122	0.20124	0.28485	0.11995	0.23024	0.34604	0.17926	0.21584	0.19321	-0.55	-0.73542	-0.16042	-1.0438	-0.51875	-0.43333	-0.95	-0.37292	-0.69583	-0.84375	-0.24375	-1.0917	-0.63333	-0.41458	-1.1333	-0.33333	317.023	368.247	504.043	169.428	447.407	352.615	518.940	464.010	263.741	372.878	353.322	242.713	455.712	488.263	339.793	198.736	0.00024726	0.00036843	0.00030264	797.9	1.0373e-05	5.7989e-06	523.71	281.33	6.8429e-06	1.508e-05	181.09	64.852	104.47	52.845	8.095e-06	30.765	0.012843	0.022674	0.0064629	886.91	0.00022867	0.00025972	614.63	312.8	0.00023259	0.00026033	231.78	81.264	119.76	58.917	0.00024294	38.488	213.814	391.634	184.931	176.205	335.477	293.534	174.154	181.973	270.946	326.879	178.502	182.954	186.608	190.855	319.017	185.944	-8191	255	
28619.443	1	1	0	0	0.0098861	0.22722	0.25293	0.27967	0.098705	0.29936	0.1528	0.3857	0.14586	0.084195	0.22362	0.1961	0.25264	0.11086	0.11154	0.048372	-0.34375	-0.97083	-0.11875	-1.0187	-0.64167	-0.26458	-0.90625	-0.56458	-0.64167	-1.1229	-0.17292	-0.88125	-0.78333	-0.48958	-1.2687	-0.25833	523.285	339.557	278.337	186.269	447.670	253.442	288.509	514.884	254.699	203.886	305.109	297.318	169.064	467.645	312.100	521.286	0.000251	0.00086619	0.0001547	798.99	1.357e-06	8.7473e-06	528.39	281.66	3.1174e-06	9.5937e-06	184.3	65.665	104.98	52.865	7.1729e-06	31.082	0.012887	0.022865	0.0064938	887.2	0.00022847	0.00025858	617.11	312.91	0.00023174	0.00025785	232.98	81.979	120.29	59.022	0.0002419	38.574	219.064	182.120	172.200	176.229	276.682	254.069	173.796	182.135	256.766	374.354	178.022	182.757	186.722	191.143	294.996	186.113	-8191	255	
28619.516	1	1	0	0	0.035354	0.13698	0.033022	0.17833	0.20396	0.24325	0.13169	0.31924	0.10947	0.14924	0.06336	0.10822	0.14082	0.2492	0.25504	0.27946	0.025	-0.925	-0.085417	-0.93958	-0.72708	-0.11667	-0.99583	-0.45625	-0.45	-0.98125	-0.24792	-0.74167	-1.0833	-0.26667	-1.1271	-0.42708	381.691	243.556	346.859	484.934	197.206	322.249	433.877	455.376	215.627	379.765	263.439	180.681	224.465	474.554	371.678	460.851	0.00041143	0.0003158	0.00037589	801.83	6.7473e-06	1.0547e-05	526.68	280.37	5.6471e-06	1.3336e-05	183.82	65.12	104.65	52.681	1.2369e-05	30.601	0.01284	0.022734	0.0064566	886.6	0.00022767	0.00025787	615.3	311.83	0.0002289	0.00025546	231.28	81.324	120.03	58.635	0.0002404	38.086	201.501	280.691	400.744	176.070	281.079	352.832	173.903	182.057	300.425	418.307	178.261	182.664	186.726	190.906	322.252	185.398	-8191	255	
28619.611	1	1	0	0	0.16526	0.10167	0.12027	0.12048	0.092339	0.29538	0.29153	0.35557	0.087374	0.22589	0.30254	0.3324	0.11189	0.14691	0.031327	0.040427	-0.11042	-1.1	-0.18333	-0.8875	-0.71042	-0.37917	-1.2271	-0.58125	-0.31042	-1.1667	-0.15625	-0.6125	-1.0354	-0.37917	-0.925	-0.7375	275.083	501.752	213.328	363.091	384.719	188.145	463.750	429.280	521.659	334.297	522.047	492.294	407.832	199.683	331.258	232.024	0.0004034	0.00096659	0.00010893	802.59	8.4533e-06	1.0316e-05	520.79	280.44	1.6989e-06	2.5918e-05	182.07	64.655	104.83	52.596	1.0257e-05	30.767	0.012807	0.022661	0.0065276	888.12	0.00022825	0.00026028	613.7	312.16	0.00023302	0.00025975	230.48	81.12	119.91	58.672	0.00024184	38.103	198.592	413.157	444.631	176.250	310.333	289.968	174.092	182.400	167.470	322.670	178.452	182.912	186.971	190.876	295.897	185.699	-8191	255	
28619.707	1	1	0	0	0.17266	0.25361	0.13565	0.17047	0.098748	0.052703	0.20648	0.22139	0.13887	0.12033	0.26058	0.27399	0.35711	0.078305	0.075936	0.29803	0.1375	-1.0396	-0.27917	-0.59167	-0.90625	-0.14792	-1.0333	-0.7875	-0.29375	-0.98542	-0.37083	-0.51667	-1.2812	-0.225	-0.8875	-0.74792	414.719	164.491	366.722	406.726	333.370	387.006	331.253	401.595	509.368	220.064	460.736	232.969	173.128	456.498	502.320	255.002	0.0002852	0.00062223	0.00018882	802.28	8.8705e-06	5.9827e-06	522.06	280.24	7.1805e-06	1.2858e-05	181.39	65.03	104.92	52.692	5.4338e-06	30.838	0.012799	0.022822	0.0064488	888.45	0.00022712	0.00025915	614.43	312.06	0.00023099	0.00025837	230.71	81.364	119.9	58.86	0.00024186	38.297	222.516	185.475	489.910	176.049	181.182	383.904	174.273	182.022	367.840	269.559	178.301	182.525	186.481	190.596	507.294	185.657	-8191	255	
28619.826	1	1	0	0	0.20924	0.12311	0.13171	0.38596	0.23736	0.16157	0.1047	0.26112	0.028541	0.14249	0.21953	0.19782	0.13553	0.20197	0.048509	0.039501	0.054167	-0.99792	-0.17292	-0.51667	-0.89583	-0.33542	-1.0312	-0.96042	-0.125	-0.95833	-0.56042	-0.45625	-1.2625	-0.34583	-0.76667	-1.0771	385.372	348.343	283.579	482.784	366.043	523.534	370.393	398.519	474.170	261.856	469.444	349.514	216.374	497.591	297.436	432.784	0.00028849	0.0016649	0.00039934	802.75	5.031e-06	7.4401e-06	528.25	280.93	3.1946e-06	2.5162e-05	183.18	65.345	104.69	53.058	4.3291e-06	31.128	0.0128	0.022769	0.0064919	887.4	0.00022748	0.00026045	617.82	312.35	0.00022999	0.00025721	232.7	81.596	120.18	59.116	0.00024018	38.653	200.468	218.527	266.941	176.268	425.619	169.663	174.256	182.025	291.691	307.226	178.043	182.812	186.788	190.875	321.113	185.733	-8191	255	
28619.924	1	1	0	0	0.062147	0.11644	0.12802	0.12699	0.11716	0.056145	0.25471	0.22824	0.077452	0.091693	0.072288	0.16696	0.18801	0.23387	0.28907	0.13065	0.19167	-0.825	-0.53125	-0.41667	-1.0562	-0.3625	-0.59792	-1.3875	-0.3	-0.70625	-0.66875	-0.4125	-1.325	-0.55417	-0.43333	-1.2667	311.629	298.209	220.742	429.639	366.318	431.695	229.386	504.548	464.620	322.402	477.277	396.703	506.265	168.100	453.185	459.264	0.00032225	0.0012663	0.00011746	804.39	6.0911e-06	6.8049e-06	529	282.77	6.8731e-06	3.714e-06	184.75	66.096	105.27	53.194	2.6097e-06	30.969	0.012851	0.02268	0.0064836	889.55	0.0002285	0.00026059	620.15	314.05	0.00023275	0.00025926	233.32	82.266	120.77	59.146	0.0002428	38.592	203.145	254.305	264.489	176.097	367.730	214.506	174.381	182.019	186.687	213.596	178.470	182.800	186.536	190.840	335.877	185.733	-8191	255	
28620.020	1	1	0	0	0.075495	0.079624	0.16998	0.10393	0.12862	0.071047	0.19369	0.079629	0.061811	0.12095	0.20601	0.36291	0.091829	0.29027	0.093817	0.23902	0.28125	-0.76667	-0.81667	-0.14792	-1.0208	-0.27917	-0.475	-1.1979	-0.11458	-0.91875	-0.7125	-0.083333	-1.1167	-0.48958	-0.14375	-1.0146	510.953	425.280	197.158	487.227	251.518	504.722	453.783	178.215	374.021	293.880	441.508	479.056	364.549	506.435	213.535	455.939	0.00030206	0.0014626	0.00024683	801.24	5.416e-06	2.6318e-05	525.62	281.04	1.0976e-05	8.1468e-06	181.76	65.615	104.83	52.924	1.6416e-05	30.652	0.012906	0.022848	0.0064651	887.29	0.0002283	0.000262	615.81	312.69	0.00023337	0.00025888	231.66	81.568	120.17	58.948	0.00024359	38.143	206.848	305.197	172.226	176.221	373.857	367.569	173.918	181.782	168.718	369.521	178.676	182.724	186.821	190.930	290.951	185.453	-8191	255	
28620.115	1	1	0	0	0.16752	0.1767	0.20066	0.26377	0.25636	0.24299	0.12391	0.030192	0.073432	0.13216	0.15869	0.26059	0.2489	0.11061	0.29527	0.18586	0.14792	-0.82083	-0.65417	-0.19583	-0.92083	-0.5375	-0.475	-1.1083	-0.19792	-0.64167	-0.96458	-0.066667	-1.0187	-0.54792	-0.21042	-1.3021	342.484	188.253	325.084	412.425	403.495	354.236	331.919	441.317	419.964	363.711	247.979	503.717	472.099	511.927	442.625	444.468	0.00047519	0.00085129	0.00029156	800.08	1.0558e-05	1.1048e-05	523.16	280.47	7.1964e-06	4.6154e-06	182.99	64.904	104.7	52.782	4.9654e-06	31.079	0.012962	0.02294	0.0065246	886.11	0.00022918	0.00026016	616.25	312.67	0.00023478	0.00026029	232.5	81.643	120.52	59.092	0.00024395	38.567	215.217	222.777	201.721	176.424	365.610	349.016	174.362	181.852	275.712	500.816	178.129	183.131	186.653	190.745	321.655	185.768	-8191	255	
28620.211	1	1	0	0	0.3189	0.39042	0.31344	0.037534	0.020176	0.12908	0.37011	0.26043	0.20582	0.094486	0.23753	0.25319	0.25403	0.27108	0.20008	0.30904	0.13542	-0.59375	-0.74167	-0.17083	-0.8625	-0.56667	-0.18542	-1.225	-0.2625	-0.43125	-0.9	-0.35417	-0.85833	-0.75625	-0.19792	-1.1396	512.552	298.761	461.004	248.109	509.851	359.750	479.576	390.673	456.055	253.390	446.780	166.621	169.775	448.735	465.340	504.650	0.00028845	0.00062386	3.787e-05	798.88	3.8384e-06	5.393e-06	525.73	283.28	5.3722e-06	2.2584e-06	182.57	65.641	105.4	53.162	2.1049e-06	31.038	0.013029	0.022947	0.0065322	886.54	0.00023045	0.00026313	617.45	314.07	0.00023483	0.00026067	233	82.252	121.04	59.286	0.00024435	38.708	208.891	183.168	189.706	176.129	393.404	373.124	173.839	181.928	282.105	462.465	178.363	182.699	186.991	190.485	199.289	185.395	-8191	255	
28620.307	1	1	0	0	0.13796	0.2614	0.17826	0.31844	0.21603	0.14426	0.19274	0.074283	0.10189	0.16942	0.17915	0.28635	0.027185	0.30773	0.13638	0.34198	0.077083	-0.49375	-0.96042	-0.21875	-0.86042	-0.8	-0.25417	-1.0812	-0.43542	-0.42917	-1.1875	-0.225	-0.78958	-1	-0.070833	-1.1104	267.746	323.621	475.960	484.072	177.678	380.744	483.560	171.159	197.472	485.641	521.814	454.018	302.717	479.680	399.358	372.873	0.00038192	0.00059282	0.0003287	799.52	1.0039e-05	3.0586e-06	526.29	282.15	5.5091e-06	1.4574e-05	184.28	65.964	105.51	53.223	7.1305e-07	31.488	0.013134	0.02315	0.0065984	888.88	0.00023216	0.00026313	619	314.28	0.00023315	0.00025881	233.36	82.442	121.17	59.425	0.00024299	38.855	215.093	490.664	288.241	176.266	288.943	232.839	174.114	182.068	504.397	252.022	178.637	182.849	186.769	191.051	272.994	185.929	-8191	255	
28620.428	1	1	0	0	0.22368	0.24838	0.11951	0.21613	0.2253	0.22496	0.10667	0.29577	0.094798	0.13376	0.15004	0.29986	0.12044	0.20704	0.1232	0.069649	-0.20208	-0.19792	-1.0708	-0.3	-0.4875	-0.74167	-0.12917	-1.0104	-0.6875	-0.26875	-1.1521	-0.17292	-0.8	-1.1958	-0.1125	-0.96458	323.440	377.000	233.848	167.646	235.959	399.023	514.521	453.483	378.138	243.508	496.201	246.167	190.176	508.105	518.137	319.286	0.00038514	0.00044521	0.00013836	801.02	8.2022e-06	3.7147e-06	529	281.51	4.5339e-06	7.184e-06	183.08	65.994	104.81	52.7	9.4517e-06	31.072	0.012966	0.022997	0.0065596	888.77	0.00023018	0.00026142	619.09	313.88	0.00023197	0.00025842	232.75	81.986	120.5	58.952	0.00024231	38.42	200.808	193.953	291.845	175.916	420.130	330.488	174.060	182.290	497.053	366.454	178.498	182.546	186.799	190.764	208.319	186.146	-8191	255	
28620.523	1	1	0	0	0.23038	0.085627	0.30183	0.041848	0.12018	0.13888	0.2852	0.137	0.12372	0.025532	0.32379	0.29331	0.15028	0.26555	0.085846	0.12839	-0.22083	-0.15625	-1.1437	-0.51667	-0.3625	-1.0312	-0.17708	-1.1021	-0.59375	-0.37292	-1.1604	-0.54167	-0.59792	-1.2354	-0.27083	-0.8625	360.244	508.164	226.580	341.360	511.176	417.546	466.681	225.504	255.900	261.263	374.356	214.528	183.577	498.896	212.413	405.826	0.00037213	0.00063435	0.00018544	797.15	5.8905e-06	1.5992e-05	522.37	279.8	4.0503e-06	9.7127e-06	181.69	65.538	104.29	52.71	8.5679e-06	30.802	0.01286	0.022777	0.0064531	883.97	0.0002269	0.00025981	611.14	312.02	0.00023	0.00025651	230.88	81.535	119.95	58.776	0.00024108	38.173	205.774	236.470	214.402	176.127	291.682	245.077	174.609	182.179	352.770	333.747	178.024	182.479	186.952	190.962	193.559	185.726	-8191	255	
28620.619	1	1	0	0	0.013126	0.12085	0.10386	0.16288	0.29245	0.033945	0.13751	0.36294	0.25236	0.10994	0.28494	0.1002	0.18594	0.03599	0.052364	0.092548	-0.42083	-0.15833	-0.82708	-0.62292	-0.5125	-0.9625	-0.21458	-0.77708	-0.85833	-0.064583	-0.93125	-0.60833	-0.47292	-1.2958	-0.24792	-0.625	278.099	337.570	482.648	184.593	428.009	456.789	461.287	452.696	193.450	391.820	458.204	260.818	328.394	169.365	324.117	403.901	0.00032511	0.00012434	0.000131	794.9	9.5986e-06	1.6352e-05	520.91	281.73	1.67e-05	4.7863e-06	182.78	65.134	104.54	52.997	3.1138e-06	30.826	0.012836	0.022673	0.0064651	883.48	0.00022858	0.0002607	613.08	313.14	0.00023227	0.00025934	231.81	81.614	120.2	59.005	0.00024488	38.394	214.387	296.846	241.405	176.260	300.810	273.427	173.986	182.227	324.625	323.841	178.920	182.789	187.050	191.035	297.393	185.650	-8191	255	
28620.715	1	1	0	0	0.13933	0.054902	0.18014	0.085177	0.16439	0.049493	0.3304	0.10152	0.11151	0.29834	0.18995	0.045618	0.23682	0.17631	0.09177	0.3101	-0.42917	-0.09375	-0.89375	-0.76667	-0.28958	-1.25	-0.4	-0.6875	-0.89375	-0.21042	-0.98333	-0.81667	-0.33542	-1.2062	-0.23542	-0.58542	457.421	456.791	511.319	380.739	263.600	474.758	438.507	396.265	337.085	294.936	455.886	315.539	168.171	174.655	224.526	444.386	0.00034994	0.00041916	0.00011109	797.24	4.6991e-06	1.115e-05	527.79	282.37	6.848e-06	8.6055e-06	182.23	65.939	105	53.161	1.5071e-05	31.155	0.012823	0.022998	0.0064741	886.29	0.00022879	0.00025962	616.47	313.92	0.00023291	0.00026038	232.63	82.142	120.67	59.295	0.00024332	38.608	209.927	227.478	521.076	176.082	289.826	220.577	173.796	182.114	424.149	334.409	178.309	182.475	186.852	190.903	223.100	185.976	-8191	255	
28620.811	1	1	0	0	0.25152	0.10943	0.23756	0.18126	0.14521	0.22284	0.33828	0.26037	0.13519	0.17828	0.28551	0.20725	0.068566	0.44574	0.21473	0.38273	-0.7	-0.09375	-0.80417	-0.8875	-0.11875	-1.1688	-0.51667	-0.49583	-1.1354	-0.225	-0.7625	-0.73125	-0.11667	-1.1104	-0.48333	-0.33125	519.722	351.815	188.303	521.451	236.089	502.062	472.657	178.197	283.147	164.343	182.807	441.657	223.692	172.459	261.834	271.285	0.00036628	0.00012718	0.0002429	796.32	7.7469e-06	1.6465e-05	525.67	282.52	9.8679e-06	6.8981e-06	185.07	66.388	105.32	53.214	7.8475e-06	31.216	0.012905	0.022914	0.0065178	886.4	0.00023063	0.00026255	618.51	314.06	0.00023222	0.00026101	233.65	82.249	120.69	59.337	0.0002428	38.676	216.833	476.805	353.960	176.185	274.294	401.231	174.096	182.149	270.817	435.904	178.223	182.973	186.620	191.047	351.435	186.088	-8191	255	
28620.908	1	1	0	0	0.21261	0.12706	0.20919	0.18728	0.23079	0.10115	0.030818	0.3109	0.1835	0.2153	0.18705	0.14271	0.21426	0.17683	0.11317	0.13066	-0.65833	-0.24375	-0.87292	-1.0646	-0.42917	-0.9	-0.63125	-0.31875	-1.2729	-0.33958	-0.65417	-1.0333	-0.25	-0.95	-0.65208	-0.39583	173.615	167.192	432.721	445.115	335.690	205.513	321.678	474.843	212.864	318.440	439.874	465.419	502.322	514.920	288.902	502.888	0.00042675	0.00060589	7.1806e-05	799.29	2.9542e-06	1.464e-06	520.72	282.7	4.138e-06	1.7605e-05	182.59	65.396	104.88	52.856	2.5749e-06	30.79	0.01285	0.022896	0.0065156	885.88	0.00022891	0.00025977	614.36	313.24	0.00023151	0.000258	231.38	81.735	120.44	58.895	0.00024102	38.137	200.015	389.828	497.806	176.056	334.246	337.451	174.235	182.255	323.971	284.447	178.315	182.858	186.723	190.997	178.711	186.079	-8191	255	
28621.025	1	1	0	0	0.16014	0.34335	0.067077	0.31297	0.07186	0.17385	0.06443	0.34735	0.1852	0.18638	0.1612	0.30222	0.024504	0.087728	0.19119	0.16848	-0.63125	-0.30208	-0.47292	-1.0146	-0.18333	-1.0583	-0.81667	-0.24583	-1.2729	-0.33125	-0.42083	-1.0854	-0.19167	-0.725	-0.50208	-0.079167	445.266	410.282	392.934	489.772	394.878	214.703	500.462	185.403	183.197	464.943	179.344	270.232	168.050	164.966	443.988	447.577	0.0003868	0.00064481	0.00030429	797.02	4.862e-06	2.1673e-06	519.28	281.36	5.9784e-06	1.6607e-05	183.4	65.981	104.8	52.711	9.7646e-06	30.809	0.01287	0.022798	0.0064847	882.6	0.00022837	0.00026112	611.99	311.99	0.0002307	0.00025837	231.86	81.833	120.39	58.936	0.00024097	38.206	209.710	249.743	210.323	176.174	337.925	520.934	173.933	182.192	376.636	337.767	178.465	182.867	186.938	190.902	313.976	185.921	-8191	255	
28621.123	1	1	0	0	0.079309	0.22015	0.21917	0.023025	0.23167	0.18239	0.14302	0.022129	0.0623	0.11024	0.096383	0.15372	0.19704	0.13471	0.24266	0.27221	-0.59167	-0.42083	-0.31458	-1.0771	-0.035417	-0.87708	-0.80417	-0.0625	-1.0292	-0.32292	-0.44167	-1.3542	-0.23333	-0.8	-0.86042	-0.17917	258.352	290.111	325.509	318.378	313.889	345.382	283.541	322.344	477.285	482.087	436.024	216.834	437.268	259.228	404.876	458.887	0.00039735	0.00051575	6.8168e-05	794.2	3.7766e-06	1.2435e-05	521.71	281.11	6.8215e-06	5.3651e-06	183.77	66.046	105.08	53.222	8.3714e-06	31.128	0.012813	0.022748	0.0064188	881.57	0.00022609	0.00026003	612.94	312.5	0.00023141	0.00025929	232.65	82.19	120.69	59.238	0.00024121	38.599	229.683	480.830	453.867	176.151	396.572	354.053	174.120	181.909	331.665	451.985	178.598	182.290	186.618	191.022	279.818	185.795	-8191	255	
28621.219	1	1	0	0	0.13385	0.25468	0.22702	0.057325	0.20028	0.11179	0.13939	0.0091363	0.27787	0.18221	0.075006	0.17972	0.15622	0.23747	0.11724	0.11383	-0.51667	-0.50833	-0.13958	-1.2354	-0.37292	-0.725	-1.1229	-0.325	-0.83958	-0.65417	-0.29792	-1.4229	-0.32292	-0.73958	-1.1042	-0.2625	271.928	492.513	294.994	322.301	194.155	287.953	485.257	288.310	437.859	517.608	494.821	447.602	218.205	195.081	404.905	364.540	0.00037964	0.00017276	3.4874e-05	798.68	7.9978e-06	1.9327e-06	527.72	282.73	6.3235e-06	1.1712e-05	184.23	66.756	105.9	53.243	1.1705e-05	31.372	0.012789	0.023033	0.0064546	885.49	0.00022703	0.00025963	616.27	313.34	0.00023111	0.00025888	233.18	82.749	121.3	59.412	0.00024215	38.803	207.725	445.644	283.836	176.155	303.402	370.519	174.052	182.227	341.079	313.931	178.611	183.010	186.788	191.057	253.293	186.284	-8191	255	
28621.314	1	1	0	0	0.11408	0.13985	0.23234	0.2427	0.15883	0.12805	0.17849	0.057936	0.2487	0.22769	0.085506	0.16767	0.20455	0.0039053	0.033872	0.31762	-0.50833	-0.56875	-0.29167	-1.2	-0.34583	-0.39167	-0.97708	-0.2875	-0.8875	-0.87708	-0.33958	-1.1146	-0.52083	-0.60833	-1.1979	-0.22083	260.996	243.744	517.632	515.503	223.081	217.286	181.395	335.670	231.886	516.577	428.888	492.672	173.777	325.871	277.374	468.732	0.00036802	0.0007738	8.6354e-05	804.12	6.9679e-06	5.9545e-06	528.29	282.21	7.422e-06	5.9105e-06	185.68	66.338	105.81	53.256	7.7068e-06	31.214	0.012892	0.022784	0.0064667	888.77	0.00022838	0.00026026	620.4	313.8	0.00023199	0.00025905	234.27	82.742	121.4	59.278	0.0002421	38.696	191.698	297.979	234.665	176.228	189.993	300.157	174.282	182.089	253.933	315.139	178.246	183.009	186.389	191.039	182.609	185.532	-8191	255	
28621.387	1	1	0	0	0.25793	0.18937	0.27594	0.13857	0.069487	0.079931	0.27156	0.25388	0.31428	0.083944	0.19864	0.21123	0.23945	0.20376	0.12602	0.19838	-0.34792	-0.97292	-0.060417	-1.2542	-0.49167	-0.31667	-0.94792	-0.19167	-0.57708	-0.99167	-0.23333	-0.825	-0.48542	-0.48333	-1.1229	-0.35625	331.565	366.404	401.552	165.799	473.732	488.387	317.410	467.187	460.926	344.430	433.935	196.014	411.926	371.904	289.140	482.657	0.0003065	0.0010066	7.724e-05	801.78	5.662e-06	1.0911e-05	524.68	281.06	1.2389e-05	8.8753e-06	182.9	65.913	105.63	53.122	1.6072e-06	30.882	0.012855	0.022832	0.0064602	886.28	0.00022832	0.00025995	614.06	312.61	0.00023042	0.00025689	231.2	82.166	120.67	59.104	0.00023992	38.342	191.597	222.107	501.779	176.231	326.839	263.591	174.267	182.123	230.976	380.998	178.358	182.696	187.054	191.263	437.234	185.955	-8191	255	
28621.508	1	1	0	0	0.20507	0.25483	0.22355	0.067594	0.12296	0.28049	0.28783	0.078823	0.11577	0.33309	0.1498	0.26861	0.065814	0.078734	0.26098	0.11168	-0.47083	-1.0083	-0.19167	-1.1667	-0.56458	-0.15833	-1.1667	-0.66875	-0.49583	-1.0167	-0.275	-0.82917	-0.78542	-0.4625	-1.0042	-0.50625	319.801	522.794	282.212	405.137	175.228	423.872	496.296	479.831	436.183	352.649	210.679	468.054	298.645	181.870	398.823	469.695	0.00032257	0.00083469	0.00015952	798.72	5.8493e-06	6.6411e-06	522.88	281.75	6.2152e-06	9.7848e-06	183.67	66.181	105.66	52.852	1.4511e-05	31.164	0.012823	0.022669	0.0064324	885.23	0.00022927	0.00025885	614.87	313.63	0.00023106	0.00025629	231.72	82.358	120.77	59.144	0.00023892	38.605	211.091	299.493	374.977	176.264	299.563	381.461	174.082	182.241	336.521	368.902	177.871	182.736	186.724	190.776	321.389	185.718	-8191	255	
28621.604	1	1	0	0	0.25021	0.088309	0.071139	0.084606	0.19961	0.12969	0.068572	0.048054	0.32193	0.19535	0.20049	0.16404	0.25964	0.22165	0.035213	0.35583	0.054167	-0.92917	-0.064583	-0.95417	-0.66042	-0.1875	-1.0896	-0.55625	-0.37708	-1.0583	-0.23333	-0.77083	-1.0562	-0.2625	-0.98958	-0.66667	307.283	257.975	458.528	180.074	429.616	377.592	443.352	429.580	294.680	210.694	437.847	335.934	492.570	175.056	333.862	448.518	0.00043089	0.0015008	0.00046387	798.84	7.8373e-06	9.0485e-06	528.64	281.71	9.47e-06	6.4483e-06	184.26	66.995	105.71	53.62	2.4785e-06	31.358	0.012702	0.022581	0.006427	883.94	0.00022902	0.00025799	616.08	312.8	0.00023064	0.0002548	233.35	82.922	121.01	59.505	0.00023929	38.842	191.065	325.495	183.162	176.268	354.398	374.517	173.939	181.918	182.411	310.425	178.292	182.850	186.886	190.894	388.987	185.465	-8191	255	
28621.699	1	1	0	0	0.054246	0.12207	0.20569	0.13709	0.23001	0.21001	0.10647	0.31156	0.13985	0.099129	0.22457	0.43377	0.22771	0.18931	0.20108	0.070083	0.095833	-0.92083	-0.42708	-0.75417	-0.82083	-0.21042	-1.0688	-0.5625	-0.49792	-1.0792	-0.45	-0.4125	-1.1917	-0.2375	-1.0208	-0.83958	357.550	334.289	484.571	383.881	516.661	276.501	334.121	411.854	251.884	449.941	221.576	192.964	249.311	194.130	276.006	504.614	0.00036576	0.001082	0.00011687	794.57	8.0341e-06	6.8341e-06	526.67	281.81	6.7709e-06	7.3341e-06	184.41	67.019	106.27	53.613	4.5569e-06	31.705	0.012726	0.022377	0.0064091	882.45	0.00022615	0.0002576	617.21	313.64	0.0002286	0.00025404	234.59	83.167	121.3	59.662	0.00023913	39.035	199.764	235.030	266.068	176.139	295.489	250.640	174.100	181.813	324.776	371.249	177.842	182.352	186.766	190.636	398.717	185.934	-8191	255	
28621.797	1	1	0	0	0.16445	0.26135	0.14773	0.20859	0.19525	0.14667	0.2102	0.2486	0.29927	0.10345	0.2059	0.1569	0.33492	0.051579	0.15734	0.10265	0.30625	-1.0333	-0.33958	-0.35417	-0.87917	-0.28333	-0.95417	-0.95	-0.35625	-1.0312	-0.59583	-0.17917	-1.0312	-0.26667	-0.76458	-0.81458	334.717	198.465	305.927	210.270	401.555	473.225	441.153	164.299	362.800	237.243	445.692	420.403	467.654	173.675	445.549	307.772	0.00034766	0.00049038	0.0001704	798.17	6.033e-06	5.8174e-06	529.09	281.02	1.3007e-05	1.23e-05	183.73	66.533	105.6	53.141	1.9803e-06	31.02	0.012568	0.022248	0.0063963	881.71	0.00022429	0.00025477	616.78	312.23	0.00022653	0.00025298	232.79	82.639	120.85	59.149	0.00023763	38.417	219.526	315.272	230.662	176.016	320.261	284.001	173.955	181.791	332.675	290.931	178.024	183.050	186.841	190.967	348.140	185.675	-8191	255	
28621.914	1	1	0	0	0.27136	0.038229	0.069257	0.20364	0.097201	0.043775	0.32329	0.2877	0.13071	0.099151	0.149	0.084425	0.2167	0.39713	0.10269	0.12655	0.15417	-0.94583	-0.35208	-0.49792	-0.90625	-0.48542	-0.61042	-0.9875	-0.05625	-0.9375	-0.86042	-0.27292	-1.2812	-0.31458	-0.78125	-1.0792	454.989	279.826	306.539	181.554	379.492	474.089	347.199	485.361	328.449	212.563	516.482	380.305	171.775	478.445	369.507	376.472	0.00037733	0.00064067	0.00023065	792.92	5.6929e-06	6.5939e-06	521.61	280.11	1.0889e-05	6.6435e-06	183.7	66.589	106.02	53	6.1842e-06	31.247	0.012499	0.022325	0.0063256	875.81	0.00022146	0.00025375	610.91	311.36	0.00022341	0.00025208	231.24	82.15	120.66	58.981	0.00023416	38.463	194.767	330.539	336.704	175.925	366.779	318.347	173.939	181.779	246.151	192.646	178.121	182.822	186.589	191.050	170.297	185.872	-8191	255	
28622.012	1	1	0	0	0.22483	0.29536	0.22916	0.13177	0.23503	0.047868	0.25968	0.3017	0.17022	0.2473	0.025081	0.11767	0.14517	0.20126	0.29872	0.18164	0.12708	-1.0063	-0.66667	-0.36667	-1.0104	-0.42083	-0.61667	-1.0562	0.014583	-0.81875	-0.66875	-0.1625	-1.2792	-0.66042	-0.44375	-1.2375	302.817	402.789	327.129	424.055	370.452	228.604	506.828	175.226	465.833	302.347	510.544	416.487	457.811	269.625	355.453	458.599	0.00023287	0.0011345	0.00037074	791.18	7.9908e-06	9.8829e-06	522.35	280.51	9.4432e-06	7.5253e-06	186.11	66.432	105.85	53.374	4.7143e-06	31.556	0.012412	0.022146	0.0063295	876.95	0.00022009	0.0002535	610.6	311.74	0.00022454	0.00025178	232.56	82.392	121.06	59.295	0.00023773	38.762	199.828	167.398	224.834	176.117	312.207	306.806	174.179	181.941	348.604	404.451	178.164	182.549	186.611	190.938	336.078	186.111	-8191	255	
28622.109	1	1	0	0	0.025557	0.13799	0.40188	0.16104	0.16443	0.21188	0.098775	0.046024	0.3688	0.17306	0.079407	0.1178	0.061044	0.19881	0.1156	0.20813	0.31667	-0.72292	-0.73958	-0.15625	-1.0917	-0.42708	-0.49375	-1.3563	-0.17083	-0.76667	-0.7625	-0.22292	-1.0417	-0.62917	-0.28333	-1.0083	464.205	450.446	200.367	443.663	358.626	212.585	165.789	449.444	504.913	191.782	446.730	209.747	316.052	173.813	435.399	473.570	0.00028949	0.0011626	0.0002657	796.38	1.3059e-05	1.2755e-05	526.22	282.49	9.2819e-06	6.8766e-06	184.11	66.71	105.93	53.566	1.3173e-05	31.763	0.012614	0.022218	0.0063321	879.71	0.00022203	0.00025352	614.55	313.13	0.00022648	0.00025182	232.89	82.758	121.2	59.505	0.00023614	38.997	218.120	249.359	282.511	176.080	409.805	307.144	173.903	182.026	223.083	275.363	178.181	182.385	186.638	190.544	344.662	185.867	-8191	255	
28622.203	1	1	0	0	0.11012	0.096743	0.05917	0.03738	0.14413	0.28558	0.22309	0.23659	0.29545	0.122	0.28649	0.1311	0.089348	0.12554	0.047349	0.29075	-0.03125	-0.66458	-0.86042	-0.22708	-1.1083	-0.64583	-0.46458	-1.0875	-0.3	-0.6125	-1.0604	-0.054167	-1.0792	-0.75	-0.24375	-1.0854	382.078	242.650	465.560	358.932	435.931	228.428	360.009	400.704	266.028	339.695	430.615	454.507	167.968	431.504	387.182	377.352	0.00027853	0.0014053	0.00040001	796.96	5.3174e-06	6.0461e-06	529.11	282.07	8.8586e-06	2.0975e-06	185.18	67.811	106.27	53.459	6.7978e-06	31.584	0.012501	0.022378	0.0063264	881.09	0.00022257	0.00025348	615.9	313.11	0.00022545	0.00025183	233.87	83.35	121.49	59.477	0.00023453	38.945	204.745	289.561	190.208	176.110	337.211	286.334	174.099	181.833	272.389	402.061	178.133	182.628	186.751	190.956	368.211	185.501	-8191	255	
28622.299	1	1	0	0	0.12975	0.094061	0.060943	0.029033	0.10014	0.3257	0.24821	0.41248	0.12204	0.29332	0.11366	0.2585	0.14725	0.28049	0.16427	0.03272	0.19375	-0.43542	-1.0125	-0.27917	-0.84375	-0.65833	-0.12708	-1.0979	-0.38958	-0.44375	-1.175	-0.28333	-0.91667	-1.0063	0.125	-0.87083	330.784	203.796	413.513	186.533	334.007	252.222	240.870	458.714	426.117	458.883	316.345	494.122	426.235	178.919	298.990	198.233	0.0001682	0.0010409	0.00027181	788.16	7.4897e-06	1.3424e-05	524.48	280.99	4.3637e-06	1.5028e-05	182.51	66.766	105.53	53.208	5.7088e-06	31.262	0.012479	0.02217	0.0062664	873.39	0.0002212	0.00025198	609.99	311.54	0.0002253	0.00024815	230.62	82.222	120.61	59.109	0.00023191	38.503	219.651	225.374	284.729	176.045	340.835	344.577	174.161	182.199	274.265	313.350	178.356	182.581	186.544	190.594	353.857	185.774	-8191	255	
28622.395	1	1	0	0	0.14286	0.09426	0.14222	0.16079	0.35589	0.19055	0.20476	0.095151	0.26233	0.083618	0.26541	0.096926	0.12015	0.34599	0.11478	0.35742	0.22708	-0.37917	-0.975	-0.19375	-0.53958	-0.86875	-0.19167	-1.0896	-0.43125	-0.18125	-1.0271	-0.37917	-0.82083	-1.2125	-0.20625	-1.0271	515.019	199.484	522.616	463.911	504.588	495.174	403.867	510.263	472.904	233.870	228.669	178.185	344.439	181.999	487.244	477.880	0.00031529	0.001114	0.00023003	784.48	6.799e-06	3.4976e-06	520.53	280.61	6.2892e-06	9.9071e-06	183.24	66.661	106.44	53.466	7.7943e-06	31.729	0.012365	0.021929	0.006197	869.86	0.00022	0.00025039	607.99	311.51	0.00022218	0.00024694	230.56	82.249	120.94	59.255	0.0002316	38.777	215.770	321.019	453.952	176.174	239.602	416.871	174.395	181.897	272.564	324.344	178.288	182.591	186.664	190.787	282.577	185.861	-8191	255	
28622.516	1	1	0	0	0.11632	0.37563	0.083291	0.27487	0.014221	0.12702	0.46536	0.058527	0.14011	0.16334	0.197	0.25779	0.16015	0.041881	0.32815	0.28298	-0.20625	-0.25625	-1.2125	-0.32708	-0.62917	-0.96875	-0.10625	-1.075	-0.95	-0.1375	-1.0312	-0.2875	-0.63125	-1.0458	-0.24583	-0.84792	169.641	403.875	197.508	435.805	263.909	383.166	469.064	187.375	198.643	496.750	177.608	420.469	276.955	278.287	341.310	491.382	0.00035762	0.0015434	0.00015626	785.89	1.1257e-05	4.6881e-06	524.06	280.94	2.2763e-06	1.9702e-05	186.27	66.831	105.7	53.486	1.1279e-05	31.761	0.012352	0.021801	0.0062025	870.87	0.00021922	0.00025088	610.09	311.73	0.00022343	0.00024791	231.84	82.675	121.01	59.518	0.00023266	39.019	216.225	257.671	196.478	176.051	324.709	243.540	173.925	182.039	366.642	353.243	178.306	182.513	186.693	190.717	262.184	185.419	-8191	255	
28622.611	1	1	0	0	0.18771	0.13641	0.038778	0.32414	0.20057	0.089845	0.058253	0.35122	0.054534	0.12933	0.16122	0.054267	0.22048	0.38999	0.031769	0.12527	-0.19167	-0.15	-1.0646	-0.34583	-0.27917	-1.0542	-0.29167	-1.0771	-0.76667	-0.225	-1.0083	-0.61667	-0.50833	-1.3542	-0.27292	-0.71458	184.064	472.397	303.975	495.807	388.000	267.936	447.385	426.328	374.510	246.437	165.968	498.376	504.684	166.777	437.191	464.806	0.00046479	0.00073702	0.00036839	793.22	8.968e-06	1.0162e-05	526.09	281.52	4.9964e-06	2.2563e-06	185.8	67.546	106.52	53.846	8.7601e-06	31.96	0.012289	0.021816	0.0062196	876.34	0.00021949	0.00024941	612.94	312.34	0.00022235	0.00024603	233.38	83.065	121.15	59.732	0.0002307	39.347	209.943	510.523	209.602	175.997	379.142	313.546	174.042	182.213	246.068	433.664	178.254	182.706	186.790	190.696	318.969	185.870	-8191	255	
28622.684	1	1	0	0	0.17025	0.15406	0.17302	0.45567	0.14631	0.029985	0.090622	0.25667	0.05982	0.20011	0.076513	0.18298	0.24356	0.33893	0.10562	0.25957	-0.5125	-0.31042	-1.0333	-0.59583	-0.26875	-1.0958	-0.30417	-0.76875	-1.0521	-0.089583	-0.90208	-0.66458	-0.32292	-1.1292	-0.37708	-0.60208	514.686	256.672	347.215	491.844	229.226	478.730	325.641	494.553	377.956	500.741	192.864	188.110	521.253	514.802	392.107	486.998	0.00033815	0.0015838	0.00027758	790.49	2.4545e-06	1.1318e-05	528.97	281.55	4.4101e-06	1.9744e-05	186.87	67.378	105.79	53.61	6.776e-06	31.938	0.012353	0.021888	0.0062257	874.97	0.00022012	0.00024905	615.42	312.54	0.00022046	0.00024661	233.43	83.087	120.89	59.488	0.00023204	39.041	195.119	343.810	379.713	176.048	299.911	265.484	174.301	182.305	294.360	314.291	178.658	182.536	186.606	191.029	231.638	185.765	-8191	255	
28622.805	1	1	0	0	0.14154	0.094871	0.1018	0.1221	0.21939	0.14197	0.19975	0.24418	0.26372	0.20216	0.14495	0.16584	0.034931	0.4279	0.086059	0.068347	-0.42917	-0.11875	-0.7375	-0.73333	-0.14375	-1.1333	-0.35833	-0.525	-1.05	-0.16042	-0.84583	-0.69583	-0.15417	-1.2167	-0.44167	-0.32083	410.052	192.673	453.626	224.235	461.863	452.234	486.620	518.703	263.036	415.124	229.572	485.612	495.550	466.046	417.748	248.039	0.00029801	0.00069626	0.00028814	787.12	3.7676e-06	8.3113e-06	524.41	280.82	8.2951e-06	6.8357e-07	186.82	67.029	105.9	53.716	6.5054e-06	31.904	0.012229	0.021677	0.0061651	870.01	0.00021675	0.00024649	609.73	311.75	0.00021928	0.00024533	231.51	82.591	120.45	59.38	0.0002301	38.99	202.384	265.069	301.602	176.161	309.090	315.701	173.802	182.248	187.520	289.923	178.830	182.799	186.920	190.706	258.680	185.589	-8191	255	
28622.900	1	1	0	0	0.055323	0.30354	0.21722	0.21511	0.19496	0.11961	0.21933	0.15551	0.11737	0.075557	0.047084	0.32683	0.16181	0.12019	0.09778	0.20953	-0.66458	-0.15625	-0.78542	-1.0187	-0.18958	-1.0542	-0.675	-0.375	-1.0833	-0.31042	-0.81875	-1.0438	-0.3125	-1.0521	-0.49583	-0.32917	168.393	505.963	344.667	468.487	316.377	362.114	471.516	439.215	394.811	177.309	215.714	478.600	446.553	272.052	213.201	181.008	0.0004203	0.00019531	0.00020051	787.17	1.2286e-05	1.0658e-05	524.43	281.54	4.4009e-06	2.589e-06	185.8	67.562	105.94	53.902	7.5718e-06	31.877	0.0122	0.021763	0.006171	871.8	0.00021695	0.0002475	609.81	311.57	0.00021926	0.00024662	232.62	83.032	120.95	59.725	0.00023234	39.142	208.551	164.784	272.317	176.156	327.124	186.650	174.205	181.862	430.802	411.544	178.477	182.771	186.804	190.926	351.888	185.868	-8191	255	
28622.994	1	1	0	0	0.074245	0.12107	0.23457	0.19128	0.015839	0.085171	0.083068	0.35252	0.043214	0.048787	0.25359	0.041711	0.074227	0.25297	0.010315	0.17225	-0.45	-0.23542	-0.65833	-0.97917	-0.022917	-0.99375	-0.62083	-0.21042	-1.0604	-0.34792	-0.48542	-0.93125	-0.24375	-1.0208	-0.63333	-0.23333	495.347	503.207	384.003	468.343	358.745	515.262	170.434	415.173	278.739	173.332	337.644	330.319	442.225	418.318	519.689	507.334	0.00030972	0.00039123	0.00013467	795.04	6.6455e-06	1.4897e-05	524.72	282.74	7.2376e-06	7.8791e-06	185.13	67.953	106.96	54.327	5.0014e-06	32.037	0.012221	0.021914	0.0061976	875.08	0.00021924	0.00025047	615.51	313.3	0.00022216	0.00025051	234.21	83.55	121.59	59.988	0.00023512	39.34	198.337	253.438	480.860	176.168	349.051	338.978	174.169	182.219	240.135	317.225	178.601	182.419	186.833	190.942	190.826	186.172	-8191	255	
28623.092	1	1	0	0	0.20258	0.12032	0.060201	0.073193	0.11717	0.16128	0.22735	0.17655	0.082943	0.17071	0.27512	0.12229	0.26888	0.094175	0.20223	0.18708	-0.70833	-0.35625	-0.38125	-1.2542	-0.14792	-0.81875	-0.91042	-0.37292	-0.9875	-0.55625	-0.57708	-1.3813	-0.30833	-0.9125	-1.0292	-0.29375	241.581	463.465	240.850	434.244	229.840	517.548	458.644	465.290	509.702	320.301	344.761	435.048	404.969	191.440	519.301	463.292	0.00040498	0.00028635	0.00039993	795.22	7.9718e-06	6.0389e-06	527.56	282.93	7.7005e-06	1.6772e-05	187.76	68.18	106.65	54.268	1.2723e-05	32.307	0.012436	0.022182	0.0062596	874.82	0.0002204	0.00025231	617.09	313.02	0.00022219	0.00025004	234.71	83.65	121.76	59.997	0.00023185	39.492	210.635	188.338	266.048	176.149	312.320	283.228	174.089	182.212	365.117	393.491	178.503	182.769	187.034	190.975	272.102	186.273	-8191	255	
28623.213	1	1	0	0	0.11879	0.093358	0.064886	0.27769	0.13623	0.23742	0.1364	0.44861	0.19216	0.035381	0.30297	0.05889	0.015954	0.10832	0.051564	0.18518	-0.68958	-0.61875	-0.30208	-1.1729	-0.37083	-0.82917	-1.1667	-0.33958	-0.96667	-0.51667	-0.36667	-1.1917	-0.4875	-0.81667	-0.84792	-0.2625	501.186	357.252	175.860	486.264	313.265	308.467	508.484	478.362	324.568	470.314	274.742	164.850	419.789	497.299	448.795	255.946	0.00023441	0.00029235	0.00023915	791.15	1.919e-06	1.7378e-05	526.82	281.58	2.7912e-06	1.1851e-05	185.06	67.595	106.24	53.379	9.7559e-06	31.573	0.01235	0.022119	0.0062252	874.27	0.00022056	0.00025078	614.22	312.23	0.00022263	0.00024946	232.25	82.992	121.01	59.485	0.00022992	38.772	224.531	201.438	221.651	176.191	329.604	365.433	174.387	182.073	174.268	467.179	178.353	182.666	186.991	191.079	306.153	185.465	-8191	255	
28623.309	1	1	0	0	0.17894	0.086812	0.1383	0.13883	0.22064	0.05792	0.17399	0.2221	0.23709	0.17631	0.3061	0.12472	0.17915	0.20888	0.1447	0.26709	-0.49375	-0.44375	-0.325	-1.2229	-0.22708	-0.79792	-1.1167	-0.33125	-0.81667	-0.68125	-0.23333	-1.1979	-0.57917	-0.50625	-1.0521	-0.16458	420.068	492.212	221.665	367.514	246.130	333.067	406.896	409.835	321.129	353.788	190.875	469.504	412.333	519.744	356.425	523.551	0.00032672	0.00095167	0.00016854	791.94	3.4089e-06	4.3932e-06	524.15	280.44	8.2273e-06	1.2657e-05	183.33	67.485	106.13	53.714	5.6665e-06	31.761	0.012283	0.021945	0.0061127	873.88	0.00021828	0.00024991	609.9	311.33	0.00022155	0.00024543	231.41	82.492	120.71	59.447	0.00022887	38.873	198.409	243.824	212.832	176.263	272.394	221.793	174.065	182.113	334.640	256.323	178.794	182.991	186.872	191.116	340.055	186.057	-8191	255	
28623.379	1	1	0	0	0.33281	0.14874	0.22837	0.35146	0.039611	0.19846	0.29229	0.10482	0.15377	0.088265	0.074251	0.1221	0.19455	0.35685	0.11885	0.27823	-0.37917	-0.83125	-0.1	-1.0917	-0.57083	-0.43958	-1.1625	-0.3	-0.72292	-1.0438	-0.42708	-0.99375	-0.91042	-0.55208	-1.0896	-0.34167	470.299	232.817	479.224	499.130	414.197	226.134	452.044	198.634	498.504	226.977	272.859	432.652	372.041	503.665	471.463	273.672	0.00035293	0.00080677	0.0005017	790.56	7.4365e-06	3.347e-06	522.94	281.41	9.6207e-06	2.7515e-06	185.23	66.7	105.96	53.774	1.125e-06	31.68	0.012279	0.021774	0.006153	870.04	0.00021908	0.00024784	608.69	311.41	0.0002207	0.00024597	231.67	82.587	120.69	59.522	0.0002273	39.021	188.867	201.723	228.172	176.331	265.621	433.682	174.255	182.190	282.814	262.358	178.287	182.822	186.809	190.908	485.753	185.896	-8191	255	
28623.477	1	1	0	0	0.1723	0.21377	0.12797	0.15424	0.098327	0.32047	0.34112	0.25731	0.13453	0.30659	0.24933	0.19041	0.0056313	0.14581	0.18542	0.22728	-0.375	-0.77708	-0.035417	-1.1292	-0.65208	-0.22083	-1.2292	-0.50417	-0.57292	-0.98958	-0.26042	-0.85833	-0.71458	-0.29583	-1.0729	-0.26458	454.583	315.251	339.454	511.523	326.112	372.356	502.753	501.951	377.384	371.032	458.373	400.579	338.198	187.038	394.805	500.022	0.00026423	0.0006908	0.00025183	790.86	6.4337e-06	6.0266e-06	526.22	281.21	7.1357e-06	3.5317e-06	186.27	68.418	106.3	53.526	1.0207e-05	31.913	0.012183	0.021387	0.0060673	871.97	0.00021597	0.00024404	612.16	311.54	0.00021778	0.00024103	232.58	83.123	120.77	59.54	0.00022538	39.271	183.154	213.991	271.024	176.013	271.682	306.841	173.716	181.808	370.592	381.868	178.134	182.845	186.380	190.728	348.126	185.505	-8191	255	
28623.596	1	1	0	0	0.17494	0.032932	0.11671	0.12021	0.18412	0.37466	0.22234	0.18743	0.096715	0.26433	0.10905	0.32538	0.26182	0.24375	0.058952	0.22068	-0.0625	-1.0438	-0.13958	-0.96042	-0.65625	-0.077083	-1.15	-0.575	-0.27083	-1.1521	-0.20208	-0.85208	-0.84583	-0.34583	-0.88125	-0.61042	332.359	271.461	411.205	464.479	396.770	176.190	397.743	171.606	484.500	386.652	249.465	450.246	467.381	479.703	301.500	453.517	0.00026225	0.0011308	0.00033451	788.03	8.5143e-06	5.3099e-06	530.67	282.03	3.5056e-06	5.2401e-06	188.16	68.446	106.3	53.525	1.205e-05	32.101	0.012007	0.021264	0.0060281	869.18	0.00021279	0.00024244	615.21	311.71	0.00021687	0.00023784	233.43	83.481	120.73	59.413	0.00022257	39.153	215.793	332.287	192.937	175.948	242.812	407.625	173.886	181.920	212.818	380.871	178.736	182.913	186.598	190.814	286.937	185.529	-8191	255	
28623.691	1	1	0	0	0.2436	0.32633	0.13258	0.31557	0.098265	0.31988	0.17228	0.16562	0.13331	0.14392	0.09823	0.10985	0.33308	0.15903	0.37937	0.41827	0.15833	-0.97083	-0.2	-0.74583	-0.675	-0.13333	-1.1229	-0.64583	-0.39792	-1.0875	-0.325	-0.63125	-1.0146	-0.4	-0.93333	-0.79375	513.911	287.085	212.532	471.620	204.072	256.574	209.852	517.987	369.167	474.716	273.999	218.510	164.021	437.071	420.623	498.473	0.00034636	0.00062308	0.00037759	787.12	2.4187e-06	7.9406e-06	524.44	279.69	9.6403e-06	9.5448e-06	184.59	67.531	105.86	53.462	1.1788e-05	31.847	0.011904	0.020938	0.0060069	867.73	0.00021127	0.00023888	608.19	309.35	0.00021319	0.00023564	230.05	82.137	120.01	58.996	0.00022368	38.712	189.002	176.576	345.410	176.342	332.736	517.731	174.198	181.935	453.380	284.536	178.211	182.685	186.768	190.837	517.741	185.266	-8191	255	
28623.789	1	1	0	0	0.26337	0.031435	0.32578	0.17447	0.065924	0.287	0.29217	0.077757	0.24145	0.10663	0.42828	0.09726	0.18241	0.031704	0.056841	0.30657	0.12083	-1.0146	-0.10625	-0.55625	-0.99792	-0.29583	-1.025	-0.6875	-0.2	-1.2062	-0.38958	-0.6125	-1.0854	-0.31042	-0.725	-0.84167	399.866	286.077	483.367	500.230	447.999	270.010	488.602	504.744	192.762	208.063	226.104	383.555	176.580	423.101	272.578	506.348	0.00045193	0.00093591	0.00019199	783.17	5.9783e-06	9.7512e-06	524.45	279.63	1.1029e-05	1.1649e-05	184.18	67.215	105.9	53.498	2.9929e-06	32.004	0.01178	0.020903	0.0059766	863.31	0.00020887	0.00023841	606.98	309.1	0.00021147	0.00023652	230.37	82.353	120.19	59.352	0.00022349	38.951	196.921	246.175	224.859	176.087	272.645	502.545	174.126	182.081	233.334	390.165	177.884	182.532	186.705	190.789	427.752	185.675	-8191	255	
28623.908	1	1	0	0	0.24497	0.21352	0.21464	0.11504	0.1134	0.22333	0.15858	0.077488	0.15827	0.15301	0.075284	0.10241	0.092155	0.165	0.19081	0.23141	0	-1.1604	-0.20417	-0.29583	-1.0063	-0.14167	-0.79375	-0.99167	-0.16875	-0.9375	-0.42917	-0.275	-1.0458	-0.55625	-0.59167	-0.96458	371.842	278.579	174.572	462.649	182.895	283.271	219.875	448.535	238.576	425.396	517.494	449.744	215.347	508.069	300.038	245.994	0.00029506	0.00054243	0.00012196	782.89	4.7053e-06	8.0375e-06	522.81	279.74	5.4103e-06	4.8395e-06	185.52	67.868	105.79	53.876	3.838e-06	32.41	0.011812	0.020978	0.0059859	864.23	0.00020807	0.00023758	607.45	309.4	0.00020983	0.00023745	231.51	82.751	119.96	59.493	0.00022222	39.314	226.377	335.498	484.852	176.082	339.351	325.707	174.174	182.147	268.821	274.179	178.256	182.742	186.793	190.772	430.257	185.590	-8191	255	
28623.980	1	1	0	0	0.29359	0.1119	0.29332	0.38632	0.20699	0.15325	0.13824	0.095379	0.20544	0.17416	0.12231	0.41093	0.25209	0.29735	0.059371	0.16805	0.3125	-0.9875	-0.40625	-0.37708	-1.1938	-0.31458	-0.53333	-1.0667	0.070833	-0.93125	-0.64375	-0.10625	-1.3083	-0.31667	-0.63542	-1.1708	508.097	468.853	425.124	506.787	361.284	479.959	325.348	180.571	258.870	333.982	451.134	435.784	415.174	235.428	417.756	351.548	0.00035149	0.0015123	0.00054961	788.61	5.2272e-06	7.6262e-06	523.69	280.69	6.061e-06	1.1279e-05	187.94	68.555	105.85	54	2.0457e-05	32.735	0.011846	0.021005	0.0060039	865.68	0.00021038	0.00024212	610.15	310.53	0.00021293	0.00023934	233.22	83.312	120.32	59.805	0.00022285	39.718	215.732	199.857	273.374	176.338	368.994	282.227	174.490	181.979	273.439	398.798	178.440	183.186	186.957	190.951	252.386	186.108	-8191	255	
28624.076	1	1	0	0	0.069058	0.03034	0.11987	0.24798	0.24532	0.30743	0.34967	0.43381	0.18765	0.21447	0.25057	0.17742	0.39212	0.0064368	0.1773	0.087717	0.30417	-1.1104	-0.49167	-0.47292	-1.1875	-0.55833	-0.33333	-1.1271	-0.3125	-0.90625	-0.83125	-0.033333	-1.1979	-0.50833	-0.29167	-1.2167	403.327	350.730	269.457	483.723	323.810	427.155	517.926	504.652	247.344	366.546	329.187	429.713	512.085	368.713	204.851	475.173	0.00038487	0.0009923	0.00014263	783.65	9.7484e-06	1.9191e-05	526.33	281.15	2.4165e-06	1.0344e-05	188.41	67.92	106.2	53.817	9.2584e-06	32.118	0.011939	0.021216	0.0060081	864.94	0.00021217	0.00024238	611.22	310.52	0.00021426	0.0002402	232.75	83.141	120.52	59.559	0.00022271	39.173	193.843	178.681	453.939	176.195	278.176	286.511	173.919	182.124	177.172	248.162	178.369	182.770	186.627	190.798	261.033	185.668	-8191	255	
28624.195	1	1	0	0	0.2555	0.1621	0.15086	0.12529	0.081323	0.13409	0.29925	0.512	0.3435	0.30843	0.045928	0.1831	0.14877	0.26456	0.087316	0.2288	0.072917	-0.88333	-0.82917	-0.19167	-1.1333	-0.63542	-0.4375	-1.0521	-0.21042	-0.78542	-1.1396	-0.36458	-1.0812	-0.84792	-0.35417	-1.1771	289.868	245.153	297.136	234.907	429.557	428.107	462.207	518.646	438.359	343.437	318.913	469.972	472.766	170.024	215.311	252.497	0.00025392	0.00060416	1.8445e-05	784.32	4.2862e-06	6.6505e-06	524.52	278.85	8.6136e-06	7.5991e-06	185.83	67.516	105.85	53.792	1.1351e-05	32.139	0.011944	0.021275	0.0059853	863.65	0.00021242	0.00024412	605.12	309.37	0.00021562	0.00024059	230.69	82.459	120.27	59.457	0.00022448	39.182	199.582	227.942	188.037	176.122	283.945	327.584	174.094	181.783	292.139	235.859	178.002	182.949	186.775	190.630	363.376	185.777	-8191	255	
28624.293	1	1	0	0	0.14475	0.066429	0.12667	0.31826	0.19807	0.1295	0.15893	0.27259	0.34795	0.31397	0.084512	0.084979	0.14493	0.24577	0.18468	0.06841	0.10417	-0.51667	-0.96458	-0.33333	-0.87708	-0.89792	-0.51458	-1.0792	-0.51667	-0.325	-1.0521	-0.30208	-0.96458	-0.95625	-0.13333	-1.0583	362.826	305.498	381.059	502.349	326.907	280.901	338.968	508.607	489.260	379.964	249.772	486.986	316.116	285.098	194.508	340.466	0.00038308	0.0012226	0.00029616	781.88	1.0854e-05	1.2763e-05	523.98	281.47	6.2173e-06	2.0539e-05	184.4	67.732	106.84	53.76	1.8817e-05	32.382	0.01204	0.021197	0.0059943	864.27	0.000213	0.00024266	606.71	310.19	0.00021673	0.00024168	231.25	82.712	120.85	59.61	0.00022396	39.339	204.988	279.341	472.741	176.085	227.209	403.558	174.238	181.972	239.351	289.304	178.449	182.725	186.927	190.844	343.391	185.585	-8191	255	
28624.389	1	1	0	0	0.15412	0.27342	0.26818	0.187	0.049706	0.26585	0.30973	0.31903	0.13838	0.1898	0.1956	0.065102	0.32481	0.080502	0.09533	0.1112	0.0375	-0.58542	-1.075	-0.41458	-0.74167	-1.0063	-0.29167	-1.325	-0.56667	-0.44167	-1.1812	-0.20417	-0.81458	-0.9625	-0.18333	-1.0542	496.533	341.872	337.063	501.519	238.350	427.517	462.559	466.911	306.039	500.655	209.242	396.529	483.846	488.566	329.424	268.286	0.00039381	0.00086888	5.3716e-05	786.84	6.6374e-07	1.2057e-05	521.7	282.29	1.1769e-05	8.5133e-06	186.54	67.928	106.8	54.12	1.8417e-05	32.467	0.012028	0.021361	0.0060218	868.26	0.0002152	0.00024357	609.28	311.81	0.00021877	0.00024143	232.81	83.248	121.15	59.885	0.00022879	39.541	188.245	222.712	324.392	176.169	322.966	393.659	174.233	182.229	267.892	348.278	178.410	182.608	187.140	190.823	258.855	185.510	-8191	255	
28624.510	1	1	0	0	0.13574	0.10231	0.075338	0.11006	0.23284	0.25772	0.40817	0.20893	0.067305	0.55903	0.10377	0.075992	0.066083	0.1639	0.087036	0.044978	-0.0875	-0.46458	-1.0562	-0.50417	-0.49167	-0.91667	-0.20833	-1.0292	-0.61875	-0.31875	-1.2833	-0.3375	-0.78958	-1.1375	-0.30625	-1.0229	517.768	328.831	365.956	521.958	423.568	239.396	168.534	469.545	242.044	448.255	522.882	307.742	423.200	173.987	271.793	371.176	0.00028967	0.00074686	0.00012277	789.63	5.6053e-06	2.8065e-06	529.85	282.04	6.9201e-06	1.2353e-05	187.87	68.383	106.25	54.176	1.2153e-05	32.372	0.012234	0.021397	0.0060844	871.06	0.0002163	0.00024427	613.12	312.38	0.00021853	0.00024097	233.91	83.704	121.21	59.863	0.00022535	39.508	219.084	237.479	232.531	176.208	514.475	283.953	174.172	182.084	295.253	288.448	178.453	182.571	186.653	191.019	366.054	185.825	-8191	255	
28624.580	1	1	0	0	0.20306	0.23165	0.12149	0.25785	0.08304	0.18187	0.069302	0.21495	0.12057	0.24342	0.096109	0.30374	0.082837	0.25724	0.092088	0.15708	-0.51042	-0.19167	-0.93125	-0.55417	-0.57083	-1.0312	-0.24583	-0.96042	-0.74167	-0.20208	-0.93333	-0.5125	-0.52917	-1.3125	-0.23958	-0.87708	318.327	343.968	223.975	512.612	357.027	263.852	229.164	408.670	256.394	350.320	454.765	390.531	479.882	481.866	198.978	209.311	0.00036305	0.0010299	0.00032409	787.59	9.8061e-07	1.6151e-06	524.8	280.12	7.7284e-06	8.0347e-06	185.13	67.013	106.5	53.697	8.4837e-06	32.185	0.01212	0.021213	0.0060442	867.69	0.00021276	0.00024288	608.13	310.86	0.00021655	0.00024061	231.45	82.767	120.7	59.424	0.00022667	39.095	182.198	267.072	211.671	175.930	356.744	319.442	174.441	181.777	270.499	313.155	178.394	182.186	186.588	190.799	240.391	186.047	-8191	255	
28624.678	1	1	0	0	0.21535	0.28397	0.070183	0.085813	0.24692	0.11515	0.24818	0.16063	0.16666	0.15903	0.35953	0.12814	0.21188	0.088465	0.10825	0.048063	-0.63542	-0.095833	-1.2042	-0.60625	-0.25833	-1.125	-0.325	-0.81042	-0.87917	-0.083333	-1.1375	-0.47292	-0.50208	-1.2521	-0.17708	-0.5875	191.556	226.293	193.504	179.419	304.609	347.053	303.615	443.403	227.235	258.586	433.673	474.918	180.497	187.304	376.928	186.353	0.00032451	7.9273e-05	6.5533e-05	782.86	1.3288e-06	1.1385e-05	520.84	280.1	7.1804e-06	1.2667e-05	186.58	67.784	105.8	53.734	3.3918e-06	31.89	0.011988	0.021208	0.0060578	864.06	0.00021256	0.00024104	605.95	309.74	0.00021643	0.00024088	231.48	82.471	120.19	59.524	0.00022839	39.045	207.776	240.050	261.794	175.998	237.932	364.510	174.311	182.067	251.745	363.739	178.345	182.494	186.634	190.814	322.802	185.585	-8191	255	
28624.773	1	1	0	0	0.12237	0.14133	0.037876	0.22383	0.097446	0.2959	0.091907	0.40843	0.06167	0.031963	0.30472	0.33767	0.090676	0.34156	0.090078	0.12071	-0.47083	-0.12292	-0.8125	-0.6625	-0.24583	-0.97292	-0.37083	-0.65833	-1.0146	-0.15833	-0.95	-0.75625	-0.2625	-1.2333	-0.44167	-0.58958	453.573	511.582	175.540	514.096	273.432	447.725	192.318	193.989	430.728	414.137	504.039	518.971	225.746	463.643	414.480	241.697	0.00037414	0.00076951	0.00016208	785.14	1.21e-05	1.8603e-05	522.74	280.5	2.9713e-06	7.068e-06	184.94	67.491	105.95	53.691	5.2483e-06	32.076	0.01201	0.021201	0.006087	866.19	0.0002117	0.0002439	608.76	310.84	0.00021555	0.00024326	232.57	82.967	120.58	59.629	0.00023009	39.385	214.283	346.608	338.431	176.351	330.275	333.090	174.151	182.143	280.075	228.344	178.499	182.156	186.953	190.649	292.377	185.878	-8191	255	
28624.869	1	1	0	0	0.088127	0.11955	0.19682	0.12911	0.19791	0.21255	0.28837	0.087957	0.1933	0.15586	0.22434	0.025479	0.14711	0.098044	0.042883	0.20382	-0.57708	-0.091667	-0.61458	-0.95208	-0.11667	-1.025	-0.6125	-0.72083	-1.0979	-0.2625	-0.9	-0.88125	-0.22083	-1.025	-0.51458	-0.27708	517.857	441.039	283.956	196.134	249.937	510.786	297.053	334.326	431.000	492.169	465.841	399.381	281.314	327.231	227.026	464.429	0.00034812	0.00012645	0.00026259	788.2	1.0823e-05	9.2376e-06	524.86	282.63	1.5724e-06	1.2068e-05	187.99	68.363	106.28	54.173	9.7155e-06	32.608	0.012084	0.021589	0.0061391	869.1	0.0002155	0.00024668	612.33	312.14	0.00021969	0.00024661	234.04	83.67	121.21	60.019	0.00023302	39.705	182.926	281.371	309.590	176.076	328.710	242.876	174.119	182.216	168.970	403.108	178.506	182.833	186.619	190.788	205.117	186.226	-8191	255	
28624.988	1	1	0	0	0.10621	0.12672	0.15232	0.35619	0.051677	0.096628	0.19658	0.35305	0.17333	0.15334	0.14089	0.079247	0.20219	0.27248	0.18334	0.16378	-0.63958	-0.17292	-0.60833	-1.0167	-0.14375	-0.86458	-0.73125	-0.39375	-1.175	-0.45625	-0.975	-1.1437	-0.085417	-1.0292	-0.65	-0.15625	283.052	280.516	288.545	442.234	184.323	166.026	479.598	471.777	379.821	478.600	472.906	224.419	475.947	175.911	338.018	489.205	0.00047746	0.00034314	0.00015368	790.4	1.083e-05	8.7028e-06	525.79	281.42	5.2054e-06	4.5133e-06	187.73	68.158	105.64	53.73	7.5373e-06	32.077	0.012248	0.021873	0.0061824	871.84	0.00021822	0.00024862	615.44	312.02	0.00021997	0.00024669	233.71	83.417	120.67	59.712	0.00022984	39.307	220.083	206.382	320.489	176.295	231.901	219.317	173.796	182.370	522.003	235.228	178.260	182.717	186.788	190.995	238.759	186.076	-8191	255	
28625.084	1	1	0	0	0.42265	0.21628	0.13456	0.086017	0.20084	0.19302	0.29438	0.21259	0.16413	0.1459	0.20397	0.070413	0.27824	0.12454	0.32157	0.13727	-0.64167	-0.41875	-0.31875	-1.0729	-0.04375	-0.86667	-0.87708	-0.20625	-1.1104	-0.34583	-0.34167	-0.93333	-0.16458	-0.97292	-0.71875	-0.29167	277.975	268.896	255.272	482.224	442.284	404.483	169.136	448.412	234.441	407.993	165.564	396.948	498.333	461.173	348.249	444.884	0.00037528	0.00099805	0.00020277	785.95	6.2128e-06	9.3693e-06	521.57	280.51	8.2259e-06	8.7696e-06	185.53	67.331	105.73	53.743	8.5587e-06	32.085	0.012266	0.021918	0.0062135	867.31	0.00021869	0.00024909	608.26	310.48	0.00021931	0.00024835	231.82	82.682	120.31	59.572	0.00022851	39.133	190.862	368.994	432.658	176.214	207.388	207.727	173.836	182.148	303.527	172.381	178.858	182.542	186.579	191.064	315.681	185.951	-8191	255	
28625.180	1	1	0	0	0.18817	0.08221	0.31829	0.19381	0.096035	0.16615	0.10796	0.16081	0.076458	0.30047	0.24487	0.095792	0.096554	0.19377	0.3688	0.056613	-0.90625	-0.20625	-0.46875	-1.2687	-0.24375	-0.77292	-1.0708	-0.39167	-1.0583	-0.57083	-0.37083	-1.2146	-0.22083	-0.85208	-0.9375	-0.15625	412.316	359.119	248.531	178.400	495.103	273.248	445.626	363.482	378.956	446.755	424.705	493.328	173.837	206.447	405.781	521.062	0.0002755	0.00094829	0.00023823	782.57	7.441e-06	8.1629e-06	521.33	281.47	2.7209e-06	1.7529e-05	184.04	67.833	105.67	53.46	4.5097e-06	32.147	0.012239	0.021756	0.0061488	864.54	0.00021719	0.00024788	606.59	310.5	0.00022068	0.00024551	232.11	82.794	120.6	59.49	0.00022845	39.181	195.879	219.900	192.749	176.124	262.184	522.585	173.971	182.244	233.537	421.803	178.410	182.845	186.696	190.979	390.815	185.761	-8191	255	
28625.275	1	1	0	0	0.25811	0.013349	0.13458	0.15245	0.33415	0.093377	0.04257	0.40525	0.050384	0.15243	0.17794	0.10947	0.33293	0.072573	0.16746	0.25951	-0.64583	-0.54792	-0.11875	-1.15	-0.17917	-0.67917	-1.0417	-0.30208	-0.88125	-0.77708	-0.43333	-1.225	-0.36042	-0.57917	-0.85833	-0.41875	472.461	450.404	288.806	421.957	355.550	301.874	227.246	199.241	452.861	455.621	324.802	365.878	226.163	367.467	198.522	377.813	0.00039663	0.00026158	0.00030344	784.97	7.759e-06	5.8893e-06	523.17	279.78	3.6727e-06	5.8995e-06	186.32	67.488	106.32	53.944	1.0197e-05	32.257	0.012237	0.021713	0.0061565	866.97	0.00021893	0.00024798	608.77	310.51	0.00021983	0.00024543	233.15	83.109	120.84	59.684	0.00022851	39.332	224.752	518.125	328.267	176.158	334.891	261.901	174.294	182.076	354.396	250.686	178.733	182.876	186.809	190.944	338.778	185.737	-8191	255	
28625.371	1	1	0	0	0.091389	0.19591	0.32623	0.20983	0.12286	0.12667	0.29348	0.22913	0.24372	0.21079	0.056034	0.085651	0.082283	0.37515	0.084588	0.044341	-0.45625	-0.71458	-0.091667	-1.2375	-0.26458	-0.35208	-1.1167	-0.19792	-0.83542	-0.69583	-0.375	-1.1667	-0.66667	-0.42708	-1.1917	-0.41667	316.068	457.016	180.173	505.886	280.987	279.744	448.175	409.804	507.854	442.820	470.928	423.317	264.974	487.633	494.754	167.252	0.00021211	0.00071468	0.00033485	789.35	4.1126e-06	9.9561e-06	523.78	281.17	2.591e-06	1.0315e-05	187.45	68.294	106.51	54.243	6.7126e-06	32.617	0.012251	0.021547	0.0061296	868.29	0.00021964	0.00024797	612.5	311.76	0.00022058	0.00024546	233.59	83.765	121.16	59.941	0.00023167	39.707	235.748	308.289	493.374	176.195	245.600	176.962	174.217	182.020	270.310	398.891	178.325	183.094	186.739	191.088	377.681	185.646	-8191	255	
28625.469	1	1	0	0	0.34774	0.19222	0.06034	0.35456	0.35612	0.23314	0.097644	0.19602	0.13089	0.15831	0.12388	0.28521	0.16596	0.36724	0.24234	0.39084	-0.375	-0.87917	-0.17083	-1.1021	-0.43958	-0.35417	-1.1146	-0.12917	-0.62708	-1.0917	-0.033333	-0.775	-0.62708	-0.26875	-1.0688	-0.42292	269.249	486.534	282.372	180.179	472.578	477.343	505.021	429.265	251.953	421.283	434.531	500.108	490.075	173.989	342.096	490.009	0.00044478	0.00092942	0.00018144	785.17	5.7269e-06	6.8207e-06	524.35	280.4	3.8352e-06	9.6762e-06	184.77	67.487	105.24	53.344	1.3717e-05	31.699	0.0123	0.02184	0.0061767	869.03	0.00021807	0.00024819	611.03	311.44	0.00022108	0.00024554	231.93	82.883	120.17	59.385	0.00022995	39.008	209.388	254.100	193.064	176.322	472.798	177.086	174.332	182.135	338.285	347.342	178.534	182.787	186.852	191.015	273.233	186.035	-8191	255	
#DATA ENDS
