BOXY.EXE: ISS Imagent and Oximeter Data Acquisition Program Version 0.80
Ascii Record File

#ACQ INFORMATION
2  Detector Channels 
16  External MUX Channels 
1  Auxiliary Channels 
5000  Waveform (CCF) Frequency (Hz)
1  Waveforms Skipped 
30  Waveforms Averaged 
1  Cycles Averaged 
16  Acquisitions per Waveform 
10.0806  Updata Rate (Hz) 

#FILE INFORMATION
TRUE -- External MUX Channel results are PARSED.
FALSE -- AC DC and Phase are NOT grouped.
TRUE -- Companion Program Settings File CREATED.
FALSE -- AC data not excluded
FALSE -- DC data not excluded
FALSE -- Phase data not excluded
FALSE -- Auxillary Chn. data not excluded
Tab delimiters

#CALIBRATION STATE
TRUE -- Waveform Calibration Values APPLIED.


#AUX CALIBRATION VALUES
Val Type	aux-1	

Term	1.0000e+00	
Factor	0.0000e+00	


#WF CALIBRATION VALUES
A = Detector Channel
Val Type	A-AC1	A-AC2	A-AC3	A-AC4	A-AC5	A-AC6	A-AC7	A-AC8	A-AC9	A-AC10	A-AC11	A-AC12	A-AC13	A-AC14	A-AC15	A-AC16	A-DC1	A-DC2	A-DC3	A-DC4	A-DC5	A-DC6	A-DC7	A-DC8	A-DC9	A-DC10	A-DC11	A-DC12	A-DC13	A-DC14	A-DC15	A-DC16	A-Ph1	A-Ph2	A-Ph3	A-Ph4	A-Ph5	A-Ph6	A-Ph7	A-Ph8	A-Ph9	A-Ph10	A-Ph11	A-Ph12	A-Ph13	A-Ph14	A-Ph15	A-Ph16	

Term	0.00000e+00	0.00000e+00	0.00000e+00	0.00000e+00	0.00000e+00	0.00000e+00	0.00000e+00	0.00000e+00	0.00000e+00	0.00000e+00	0.00000e+00	0.00000e+00	0.00000e+00	0.00000e+00	0.00000e+00	0.00000e+00	0.00000e+00	0.00000e+00	0.00000e+00	0.00000e+00	0.00000e+00	0.00000e+00	0.00000e+00	0.00000e+00	0.00000e+00	0.00000e+00	0.00000e+00	0.00000e+00	0.00000e+00	0.00000e+00	0.00000e+00	0.00000e+00	0.00000e+00	0.00000e+00	0.00000e+00	0.00000e+00	0.00000e+00	0.00000e+00	0.00000e+00	0.00000e+00	0.00000e+00	0.00000e+00	0.00000e+00	0.00000e+00	0.00000e+00	0.00000e+00	0.00000e+00	0.00000e+00	
Factor	1.00000e+00	1.00000e+00	1.00000e+00	1.00000e+00	1.00000e+00	1.00000e+00	1.00000e+00	1.00000e+00	1.00000e+00	1.00000e+00	1.00000e+00	1.00000e+00	1.00000e+00	1.00000e+00	1.00000e+00	1.00000e+00	1.00000e+00	1.00000e+00	1.00000e+00	1.00000e+00	1.00000e+00	1.00000e+00	1.00000e+00	1.00000e+00	1.00000e+00	1.00000e+00	1.00000e+00	1.00000e+00	1.00000e+00	1.00000e+00	1.00000e+00	1.00000e+00	X	X	X	X	X	X	X	X	X	X	X	X	X	X	X	X	

B = Detector Channel
Val Type	B-AC1	B-AC2	B-AC3	B-AC4	B-AC5	B-AC6	B-AC7	B-AC8	B-AC9	B-AC10	B-AC11	B-AC12	B-AC13	B-AC14	B-AC15	B-AC16	B-DC1	B-DC2	B-DC3	B-DC4	B-DC5	B-DC6	B-DC7	B-DC8	B-DC9	B-DC10	B-DC11	B-DC12	B-DC13	B-DC14	B-DC15	B-DC16	B-Ph1	B-Ph2	B-Ph3	B-Ph4	B-Ph5	B-Ph6	B-Ph7	B-Ph8	B-Ph9	B-Ph10	B-Ph11	B-Ph12	B-Ph13	B-Ph14	B-Ph15	B-Ph16	

Term	0.00000e+00	0.00000e+00	0.00000e+00	0.00000e+00	0.00000e+00	0.00000e+00	0.00000e+00	0.00000e+00	0.00000e+00	0.00000e+00	0.00000e+00	0.00000e+00	0.00000e+00	0.00000e+00	0.00000e+00	0.00000e+00	0.00000e+00	0.00000e+00	0.00000e+00	0.00000e+00	0.00000e+00	0.00000e+00	0.00000e+00	0.00000e+00	0.00000e+00	0.00000e+00	0.00000e+00	0.00000e+00	0.00000e+00	0.00000e+00	0.00000e+00	0.00000e+00	-1.16366e+02	-1.34525e+02	-1.24640e+02	-1.81440e+02	-6.20949e+01	-6.64202e+01	-1.56427e+02	-1.62015e+02	-6.69733e+01	-6.15982e+01	-1.71980e+02	-1.69516e+02	-1.84939e+02	-1.76465e+02	-6.54987e+01	-1.48787e+02	
Factor	1.61643e-05	1.38122e-04	4.24785e-05	1.47321e-01	1.18619e-06	1.52504e-06	1.65925e-01	4.94256e-02	1.07980e-06	1.67298e-06	8.54847e-02	2.70576e-02	2.30815e-02	8.67598e-03	1.25400e-06	1.23377e-02	1.12576e-05	2.02003e-05	5.73018e-06	7.73108e-02	2.02464e-07	2.30455e-07	8.19583e-02	2.61172e-02	2.05112e-07	2.28814e-07	4.35796e-02	1.39337e-02	1.23178e-02	4.61571e-03	2.14390e-07	6.36437e-03	X	X	X	X	X	X	X	X	X	X	X	X	X	X	X	X	



#DISTANCE SETTINGS
A = Detector Channel
A-1	A-2	A-3	A-4	A-5	A-6	A-7	A-8	A-9	A-10	A-11	A-12	A-13	A-14	A-15	A-16	

2.5000e+00	3.0000e+00	2.5000e+00	3.0000e+00	2.0000e+00	3.0000e+00	1.5000e+00	3.0000e+00	3.0000e+00	3.0000e+00	3.0000e+00	3.0000e+00	3.0000e+00	3.0000e+00	1.5000e+00	3.0000e+00	

B = Detector Channel
B-1	B-2	B-3	B-4	B-5	B-6	B-7	B-8	B-9	B-10	B-11	B-12	B-13	B-14	B-15	B-16	

1.0000e+01	1.0000e+01	1.0000e+01	1.4400e+00	1.0000e+01	1.0000e+01	1.5100e+00	1.9400e+00	1.0000e+01	1.0000e+01	1.9900e+00	2.4900e+00	2.4100e+00	2.9000e+00	1.0000e+01	2.9800e+00	




#DATA BEGINS
time	group	step	mark	flag	A-AC1	A-AC2	A-AC3	A-AC4	A-AC5	A-AC6	A-AC7	A-AC8	A-AC9	A-AC10	A-AC11	A-AC12	A-AC13	A-AC14	A-AC15	A-AC16	A-DC1	A-DC2	A-DC3	A-DC4	A-DC5	A-DC6	A-DC7	A-DC8	A-DC9	A-DC10	A-DC11	A-DC12	A-DC13	A-DC14	A-DC15	A-DC16	A-Ph1	A-Ph2	A-Ph3	A-Ph4	A-Ph5	A-Ph6	A-Ph7	A-Ph8	A-Ph9	A-Ph10	A-Ph11	A-Ph12	A-Ph13	A-Ph14	A-Ph15	A-Ph16	B-AC1	B-AC2	B-AC3	B-AC4	B-AC5	B-AC6	B-AC7	B-AC8	B-AC9	B-AC10	B-AC11	B-AC12	B-AC13	B-AC14	B-AC15	B-AC16	B-DC1	B-DC2	B-DC3	B-DC4	B-DC5	B-DC6	B-DC7	B-DC8	B-DC9	B-DC10	B-DC11	B-DC12	B-DC13	B-DC14	B-DC15	B-DC16	B-Ph1	B-Ph2	B-Ph3	B-Ph4	B-Ph5	B-Ph6	B-Ph7	B-Ph8	B-Ph9	B-Ph10	B-Ph11	B-Ph12	B-Ph13	B-Ph14	B-Ph15	B-Ph16	aux-1	digaux	

28269.459	1	1	0	768	0.086358	0.078018	0.17767	0.1388	0.14129	0.14418	0.31364	0.32442	0.12068	0.15022	0.35712	0.063139	0.16866	0.15926	0.2358	0.20828	-0.26875	-0.73333	-0.3625	-1.1792	-0.66042	-0.525	-1.3563	-0.65833	-0.53542	-1.1875	-0.50625	-1.2333	-1.0333	-0.24792	-1.1708	-0.64167	178.228	-67.006	192.988	189.618	189.648	234.101	206.459	199.091	113.865	48.864	157.195	-60.581	-41.914	180.613	-98.926	182.218	0.00026808	0.00053747	0.00013008	1371.9	3.8901e-06	3.1115e-06	1365.2	369.92	3.6951e-06	4.0234e-06	421.34	139.54	121.56	42.254	3.8871e-06	51.969	0.0004697	0.00051275	0.00015442	1379.4	6.0693e-06	6.0538e-06	1378.1	374.47	5.8918e-06	5.6446e-06	426.54	143.04	124.27	42.922	5.8841e-06	53.046	217.132	-28.954	-43.304	-111.245	24.556	11.666	-111.506	-106.864	1.081	35.708	-107.394	-103.244	-102.730	-98.069	23.371	-98.613	-8191	255	
28269.555	1	1	0	0	0.028331	0.033502	0.10903	0.13526	0.1706	0.090436	0.26921	0.41578	0.20373	0.28451	0.070546	0.22894	0.28428	0.086534	0.059099	0.29149	-0.2375	-1.2083	-0.32708	-1.1583	-1.0833	-0.42083	-1.3479	-0.76667	-0.55625	-1.1208	-0.54167	-0.95625	-1.0583	-0.375	-1.1521	-0.80417	18.243	15.323	231.884	225.768	1.999	108.523	-107.339	167.160	-112.994	125.864	-60.871	205.909	-93.347	208.239	105.572	-111.580	0.00026962	0.00028752	0.00016091	1373.4	3.6402e-06	5.3868e-06	1359.3	368.04	2.394e-06	5.4139e-06	423.24	139.78	121.55	42.104	2.5415e-06	51.758	0.00046757	0.00053135	0.00015476	1379.5	5.9048e-06	5.8617e-06	1377	373.6	5.9256e-06	5.7714e-06	426.87	143.07	124.3	42.878	5.6769e-06	53.008	217.187	-28.900	-23.162	-111.085	7.131	15.308	-111.502	-106.930	-14.221	30.806	-107.337	-103.020	-102.726	-97.633	14.548	-98.348	-8191	255	
28269.650	1	1	0	0	0.18886	0.27757	0.32673	0.2624	0.169	0.18699	0.17923	0.29175	0.08579	0.32038	0.029052	0.19991	0.11295	0.13097	0.11129	0.3628	0.020833	-1.2375	-0.20833	-0.97083	-1.0292	-0.18958	-1.3604	-1.1125	-0.53333	-1.2521	-0.42708	-0.85	-1.3625	-0.4625	-1.0583	-0.84583	107.443	-22.387	81.545	177.532	-52.982	-112.148	74.020	166.030	-81.163	87.819	83.480	-37.330	171.451	180.363	-39.274	159.795	0.00025462	0.0003621	0.00014507	1374.1	3.0193e-06	5.5213e-06	1371.6	369.36	3.0184e-06	4.422e-06	421.85	139.57	121.14	42.055	2.5509e-06	51.99	0.00046478	0.0005162	0.00015371	1379.8	5.8445e-06	6.2641e-06	1381	373.86	6.1803e-06	5.9315e-06	426.65	143.12	123.95	42.824	6.0052e-06	52.979	214.889	-35.781	-27.774	-111.221	5.666	19.889	-111.146	-106.582	-28.219	34.557	-107.102	-102.808	-102.620	-98.029	19.051	-98.560	-8191	255	
28269.748	1	1	0	0	0.10514	0.27943	0.15332	0.14714	0.12395	0.14647	0.20091	0.23001	0.024142	0.048225	0.19723	0.17142	0.19311	0.19573	0.38285	0.16808	-0.022917	-1.0667	-0.45208	-0.76458	-1.1458	-0.41667	-1.1208	-1.1688	-0.26458	-1.1271	-0.61042	-0.55833	-1.1479	-0.49792	-0.88542	-1.0604	-56.706	132.960	158.921	212.659	-112.410	-44.255	194.775	229.467	164.796	0.644	-97.345	229.625	-102.662	197.232	195.308	97.588	0.00027794	0.00050359	0.00010288	1372.7	3.8879e-06	5.7893e-06	1362.4	369.26	3.8754e-06	2.4123e-06	422.95	140.16	121.34	42.161	3.627e-06	51.903	0.00047606	0.00051384	0.00015534	1379.9	5.7698e-06	6.2348e-06	1377.3	373.6	6.114e-06	5.768e-06	426.83	142.94	124.03	42.871	5.8837e-06	52.998	215.440	-34.596	-40.793	-111.225	34.607	19.680	-111.453	-106.796	-18.047	13.707	-107.352	-103.302	-102.627	-98.041	26.513	-98.628	-8191	255	
28269.844	1	1	0	0	0.072175	0.12524	0.10056	0.30461	0.33325	0.10539	0.25916	0.13029	0.31508	0.11347	0.20543	0.1546	0.083063	0.1802	0.15039	0.11568	0.0125	-1.1562	-0.6875	-0.6875	-1.2021	-0.26042	-0.92083	-0.99375	-0.27083	-1.1042	-0.77083	-0.62292	-1.0938	-0.48542	-0.57708	-1.1938	13.335	-87.288	209.871	212.011	-111.430	-94.626	202.823	116.293	-16.947	-78.314	189.985	208.942	3.921	-76.181	188.752	185.810	0.00025861	0.00053873	0.00014457	1373	3.5296e-06	5.4853e-06	1362.1	367.94	2.3389e-06	4.9609e-06	420.75	139.61	121.08	42.001	2.8562e-06	51.966	0.00048328	0.00054095	0.00015471	1379.1	5.782e-06	6.2228e-06	1376.7	373.76	6.2222e-06	5.9396e-06	426.21	142.9	124.04	42.766	6.027e-06	52.998	213.425	-29.784	-18.744	-111.207	45.935	51.288	-111.384	-106.838	-23.523	16.881	-107.245	-103.095	-102.579	-98.017	2.898	-98.348	-8191	255	
28269.939	1	1	0	0	0.29143	0.047184	0.035139	0.081326	0.10878	0.13613	0.19264	0.19848	0.27029	0.21245	0.066441	0.18687	0.19191	0.15708	0.20556	0.34835	0.075	-0.91667	-0.55208	-0.51667	-1.1729	-0.3625	-0.94167	-1.3396	-0.39583	-0.8625	-1.0354	-0.38958	-1.4521	-0.47917	-0.57708	-1.3229	-66.581	-117.536	-104.726	-16.135	191.570	161.162	171.922	128.152	76.001	16.895	44.717	219.685	165.830	-57.737	-54.073	129.057	0.0002351	0.0004507	0.00013721	1370.5	3.8718e-06	6.8776e-06	1361.4	368.68	2.6864e-06	5.3893e-06	422.12	139.45	121.69	42.284	4.1993e-06	51.916	0.00048087	0.0005165	0.00015378	1378.5	5.9406e-06	6.2972e-06	1376.9	373.74	6.1559e-06	5.9268e-06	426.93	142.71	124.25	42.846	6.1289e-06	53.021	215.486	-26.139	-44.948	-111.261	4.741	15.563	-111.312	-106.729	3.393	29.248	-107.160	-102.955	-102.538	-97.827	7.222	-98.441	-8191	255	
28270.059	1	1	0	0	0.069164	0.10408	0.28828	0.21886	0.10873	0.12831	0.24142	0.16459	0.38131	0.16373	0.20842	0.060099	0.22719	0.15139	0.18087	0.44343	0.12083	-0.83958	-0.84583	-0.46458	-1.1542	-0.5125	-0.65625	-1.4	-0.1625	-0.89583	-1.0812	-0.53958	-1.1417	-0.74375	-0.43542	-1.2542	-101.570	17.675	-102.201	188.222	60.586	126.895	188.217	142.123	152.560	-74.000	220.859	193.255	199.689	105.194	175.139	79.397	0.00024844	0.00053609	0.00015079	1369.7	3.2561e-06	4.9535e-06	1369.2	367.39	2.2736e-06	3.4486e-06	422.2	139.66	121.3	41.897	3.4998e-06	52.013	0.00047688	0.00052815	0.00015464	1376.7	5.9588e-06	6.194e-06	1378.4	372.86	6.1786e-06	5.8605e-06	426.3	142.78	124.07	42.742	6.1159e-06	53.019	212.653	-28.665	-32.063	-111.182	22.259	45.574	-111.387	-106.958	-29.218	18.102	-107.098	-103.205	-102.539	-97.869	38.405	-98.252	-8191	255	
28270.154	1	1	0	0	0.10341	0.37968	0.063054	0.38366	0.088272	0.10973	0.32856	0.19765	0.079846	0.14358	0.18775	0.037092	0.22857	0.25775	0.24128	0.25394	0.13125	-0.50833	-1.1125	-0.52917	-1.1333	-0.85	-0.35208	-1.3167	-0.55208	-0.8	-1.3687	-0.54375	-1.1521	-0.87083	-0.16458	-1.3687	211.577	232.935	203.219	189.347	217.451	141.971	172.334	191.100	154.920	-123.481	-30.294	16.016	-99.262	116.476	-86.991	182.858	0.00024845	0.00036155	0.00014303	1370.5	2.4952e-06	6.3382e-06	1363.6	368.57	2.4093e-06	7.2398e-06	422.07	139.8	121.92	42.077	2.8421e-06	52.003	0.00047765	0.00053699	0.00015528	1379.3	6.0009e-06	6.2751e-06	1377.9	373.64	6.1525e-06	6.2056e-06	426.24	142.86	124.19	42.831	5.8805e-06	52.986	215.899	-42.368	-24.943	-111.087	39.216	14.989	-111.388	-106.694	-15.318	32.568	-107.068	-103.096	-102.537	-97.944	18.295	-98.340	-8191	255	
28270.252	1	1	0	0	0.29799	0.032382	0.18405	0.076842	0.029879	0.21578	0.17684	0.27548	0.043792	0.14834	0.20748	0.049919	0.16447	0.19185	0.22451	0.14034	-0.20417	-0.42292	-1.1646	-0.40208	-0.95625	-0.90208	-0.68125	-1.3208	-0.68333	-0.45625	-1.2479	-0.46458	-1.0063	-1.1792	-0.39167	-1.3312	180.088	-70.540	-42.311	-86.341	-106.799	-118.391	198.696	149.809	-121.324	8.837	218.218	-25.088	222.386	213.601	67.380	-124.562	0.00027147	0.00058169	0.00015388	1372.5	2.0505e-06	3.4924e-06	1362.7	369.41	2.1993e-06	5.7464e-06	421.02	139.69	121.71	42.028	4.0864e-06	51.738	0.00047979	0.00055618	0.00015688	1377.7	5.9364e-06	5.8973e-06	1377.2	373.52	6.1747e-06	6.1389e-06	426.51	142.78	124.15	42.836	6.1928e-06	52.9	218.542	-37.393	-29.019	-111.464	-24.562	14.325	-111.434	-106.889	-20.564	39.726	-107.330	-103.057	-102.637	-97.988	11.666	-98.390	-8191	255	
28270.348	1	1	0	0	0.093873	0.14353	0.12214	0.18067	0.15723	0.15788	0.36384	0.29816	0.093534	0.15184	0.16844	0.12766	0.17197	0.09658	0.14315	0.12345	-0.46458	-0.5125	-1.125	-0.61875	-0.88542	-1.1125	-0.67917	-1.1792	-0.75625	-0.4625	-1.4708	-0.62292	-0.76042	-1.075	-0.51875	-1.0854	84.368	8.799	53.557	193.130	206.120	12.333	200.962	193.797	-34.838	117.754	-84.463	55.957	158.690	175.221	55.034	111.411	0.00027819	0.00048366	0.00014187	1374.5	3.105e-06	5.2094e-06	1364.3	367.98	4.5803e-06	5.2867e-06	423.13	138.94	121.22	41.872	5.2802e-06	52.069	0.00048502	0.00057251	0.00015166	1379.6	6.1165e-06	5.8968e-06	1379.4	373.69	6.2974e-06	6.0888e-06	426.38	142.68	123.96	42.696	6.1776e-06	53.052	217.718	-43.436	-27.488	-111.183	19.203	13.371	-111.401	-106.706	-19.169	32.161	-107.055	-103.178	-102.458	-97.936	10.793	-98.210	-8191	255	
28270.443	1	1	0	0	0.12613	0.11594	0.046194	0.35712	0.24671	0.18929	0.3643	0.051664	0.088805	0.28537	0.16223	0.069315	0.084174	0.17543	0.014571	0.37546	-0.37917	-0.21667	-1.0604	-0.66667	-0.625	-1.1063	-0.46875	-1.2396	-0.85417	-0.23125	-1.4396	-0.6	-0.57292	-1.0458	-0.32083	-1.0146	37.649	-68.433	75.950	-123.925	27.262	174.946	203.253	186.488	-109.348	109.285	109.133	162.258	162.317	-108.585	-45.643	136.467	0.00025893	0.0003818	0.00018942	1370.5	2.2265e-06	4.9785e-06	1365.9	368.98	3.3887e-06	7.3183e-06	421.95	138.93	121.28	41.876	3.1538e-06	52.032	0.00048875	0.00055622	0.00015747	1378.7	6.0436e-06	6.0797e-06	1378.2	373.7	6.1414e-06	6.1899e-06	426.5	142.75	123.98	42.738	6.2495e-06	53.024	221.865	-27.082	-28.820	-111.508	23.590	10.147	-111.666	-107.033	-15.510	47.248	-107.415	-103.387	-102.857	-98.216	22.945	-98.693	-8191	255	
28270.539	1	1	0	0	0.17396	0.34675	0.085706	0.22245	0.22957	0.12016	0.47016	0.39822	0.38802	0.18623	0.24372	0.29557	0.16295	0.04721	0.36336	0.060041	-0.48542	-0.225	-1.0083	-0.78125	-0.51458	-1.2583	-0.52292	-1.0583	-1.0312	-0.16667	-1.1771	-0.86458	-0.49375	-1.1833	-0.2625	-0.77292	-53.090	197.142	142.913	175.898	99.900	70.581	-116.583	233.406	184.995	-7.881	162.479	174.768	113.925	-26.050	-115.592	167.045	0.00024465	0.00044737	0.00014289	1367.5	2.2406e-06	4.321e-06	1359.3	366.98	3.4566e-06	6.4423e-06	423.02	138.9	121.32	42.025	4.103e-06	52.234	0.0004795	0.00055193	0.00014475	1377.5	5.9596e-06	6.0048e-06	1374.2	373.07	6.1705e-06	6.0526e-06	426.06	142.64	123.89	42.764	6.2495e-06	52.966	217.343	-33.415	-39.375	-111.588	39.547	17.334	-111.576	-107.010	-9.837	33.893	-107.431	-103.260	-102.357	-97.840	9.064	-98.540	-8191	255	
28270.637	1	1	0	0	0.29445	0.1884	0.14607	0.20945	0.12453	0.13706	0.18223	0.12041	0.093194	0.30376	0.32488	0.11828	0.14243	0.26711	0.099794	0.36882	-0.675	-0.175	-0.85625	-0.95	-0.31458	-1.0875	-0.58542	-0.94167	-1.1187	-0.25833	-1.1917	-0.96458	-0.57917	-1.4937	-0.53125	-0.62292	121.346	193.283	-120.861	206.134	-72.715	-35.986	-111.657	-14.994	232.940	39.634	231.211	232.341	186.973	-53.955	98.222	126.234	0.00025735	0.00041667	0.00010448	1371.3	3.1454e-06	3.3691e-06	1365	367.87	3.3856e-06	5.7819e-06	422.76	139.32	121.27	41.946	4.2534e-06	51.712	0.00047941	0.00057276	0.00015541	1378.3	6.1971e-06	5.8084e-06	1374.8	373.36	6.3286e-06	6.1537e-06	426.93	142.59	123.72	42.796	6.4491e-06	52.928	215.550	-38.599	-21.351	-111.416	0.393	39.275	-111.503	-106.536	-35.767	30.011	-107.245	-103.414	-102.500	-97.930	23.380	-98.189	-8191	255	
28270.756	1	1	0	0	0.22227	0.20373	0.16255	0.3431	0.3647	0.15651	0.43395	0.18501	0.051062	0.26324	0.28987	0.3529	0.17612	0.21992	0.050781	0.24693	-0.85625	-0.43125	-0.92292	-0.85417	-0.10417	-1.2604	-0.76458	-0.8625	-1.1667	-0.16042	-1.1292	-0.82917	-0.3	-1.3687	-0.62917	-0.34583	183.230	-107.321	108.452	212.664	-30.445	28.085	147.624	-122.861	-68.422	66.862	198.039	162.336	-42.026	215.026	0.742	-23.735	0.00024396	0.00020891	0.00017109	1371.3	2.4777e-06	6.1213e-06	1365.8	369.79	3.3386e-06	5.0984e-06	420.96	139.24	121.54	41.965	3.6294e-06	51.854	0.00047838	0.00056287	0.00015494	1377.8	6.095e-06	6.3433e-06	1376.9	374.27	6.1743e-06	6.4673e-06	426.25	142.49	123.98	42.759	6.1945e-06	52.917	216.362	-26.920	-18.757	-111.331	20.584	28.507	-111.364	-106.662	-6.437	28.664	-107.279	-103.320	-102.742	-97.663	3.975	-98.279	-8191	255	
28270.852	1	1	0	0	0.20744	0.25597	0.078093	0.28205	0.34104	0.21995	0.06533	0.41612	0.055326	0.16247	0.13048	0.052103	0.22998	0.031146	0.098849	0.011195	-0.86042	-0.33333	-0.825	-1.2437	-0.37083	-1.2375	-0.75833	-0.4625	-0.96042	-0.28125	-0.62083	-1.275	-0.37083	-1.2333	-0.71042	-0.37292	149.505	-68.632	125.361	-65.715	106.899	-48.161	225.651	214.038	183.250	79.254	182.523	-118.916	-83.275	-56.303	-69.064	116.741	0.00025175	0.00068667	0.00018758	1373.1	3.5648e-06	3.5493e-06	1362.9	368.92	1.8028e-06	3.6332e-06	424.93	139.74	121	42.051	4.2448e-06	51.808	0.00048919	0.00055378	0.00015594	1380.1	6.0516e-06	6.1671e-06	1376.7	373.61	6.1491e-06	6.3744e-06	426.97	142.57	123.75	42.783	6.1199e-06	52.96	214.675	-39.438	-31.968	-111.352	21.347	23.253	-111.600	-106.743	-8.257	24.141	-107.098	-103.145	-102.534	-98.167	26.063	-98.320	-8191	255	
28270.947	1	1	0	0	0.28165	0.052395	0.23061	0.3344	0.14529	0.115	0.14516	0.2517	0.12684	0.49704	0.20098	0.066469	0.15419	0.18913	0.1277	0.17892	-0.95625	-0.25417	-0.56875	-1.2542	-0.27917	-0.9125	-0.92708	-0.37292	-1.15	-0.38542	-0.51667	-0.99583	-0.32292	-1.0729	-0.91667	-0.36042	3.535	121.536	189.481	-117.676	-58.865	82.004	126.180	187.398	39.542	105.576	116.927	155.878	221.098	-106.685	58.158	129.796	0.00028417	0.00040394	0.0001078	1374.1	2.0168e-06	5.0822e-06	1360.7	369.71	2.7773e-06	5.6622e-06	421.77	139.27	120.6	42.003	4.0626e-06	51.526	0.00047732	0.0005622	0.00015616	1379.8	6.1452e-06	6.0446e-06	1374.6	373.43	6.0735e-06	6.1808e-06	425.86	142.46	123.7	42.739	6.2017e-06	52.884	214.340	-47.169	-6.876	-111.546	6.965	23.318	-111.346	-107.054	-32.724	30.782	-107.239	-103.177	-102.679	-97.900	24.029	-98.317	-8191	255	
28271.020	1	1	0	0	0.44024	0.134	0.11811	0.38399	0.048978	0.036925	0.14194	0.10378	0.15898	0.10781	0.22295	0.31047	0.22437	0.10842	0.30853	0.1173	-0.81875	-0.5125	-0.48125	-1.45	-0.17917	-0.99792	-1.25	-0.43542	-1.1187	-0.46042	-0.47083	-1.1979	-0.3375	-0.83542	-0.69792	-0.12917	166.930	65.987	30.427	218.128	-33.540	-77.873	-95.282	214.537	151.234	1.311	-63.489	198.129	-75.589	206.690	-23.403	112.720	0.00027135	0.00057696	0.00021249	1369.5	3.5435e-06	4.0063e-06	1360.8	368.74	3.0571e-06	4.6278e-06	421.8	138.52	120.33	42.017	3.1008e-06	51.885	0.00047861	0.00054158	0.0001554	1378.2	6.2123e-06	6.1671e-06	1376.1	373.3	6.1786e-06	6.0602e-06	426.12	142.28	123.52	42.804	6.0253e-06	52.924	213.976	-44.999	-19.275	-111.321	29.185	12.913	-111.416	-106.778	-16.132	21.920	-107.018	-103.217	-102.568	-97.792	24.057	-98.203	-8191	255	
28271.139	1	1	0	0	0.12384	0.38638	0.11213	0.44928	0.22649	0.059676	0.30632	0.29583	0.10818	0.24363	0.25977	0.078732	0.20885	0.31351	0.17178	0.2849	-0.70208	-0.54167	-0.38333	-1.5104	-0.42083	-0.74583	-1.2604	-0.5375	-1.0208	-0.63958	-0.50625	-1.2229	-0.53333	-0.65417	-0.9625	-0.21667	214.744	141.595	165.037	217.239	-14.830	-60.673	173.352	-106.431	163.235	-12.979	-116.252	-4.069	120.036	-121.068	116.474	211.129	0.00026552	0.00044956	0.00017999	1365.5	2.4826e-06	4.8706e-06	1364.4	368.23	3.1995e-06	6.5713e-06	421.33	139.5	120.95	42.021	3.1402e-06	51.982	0.00046736	0.00056355	0.00016175	1378.4	6.1309e-06	6.1114e-06	1377.6	373.11	6.1786e-06	6.229e-06	425.41	142.78	123.67	42.776	6.1597e-06	52.959	216.398	-44.100	-40.238	-111.189	23.107	9.761	-111.239	-106.615	-19.422	21.481	-107.111	-103.098	-102.550	-97.683	13.798	-98.389	-8191	255	
28271.234	1	1	0	0	0.11424	0.18146	0.056853	0.24607	0.20999	0.085946	0.2285	0.17093	0.33018	0.055173	0.10052	0.26749	0.31922	0.2358	0.17544	0.31267	-0.55833	-0.65417	-0.28125	-1.3438	-0.39167	-0.61667	-1.5542	-0.56458	-0.81667	-1.0042	-0.3625	-1.0729	-0.35208	-0.75625	-1.1479	-0.4125	-91.694	-7.926	38.363	207.816	-55.435	233.147	223.603	83.924	26.740	222.388	234.227	172.069	-111.249	221.061	-0.268	-30.029	0.00026892	0.00045115	0.00014163	1369.4	3.2493e-06	5.001e-06	1366.3	368.69	3.789e-06	4.4629e-06	423.35	138.77	120.8	41.9	4.1752e-06	51.734	0.00048079	0.00056712	0.00016282	1378.2	6.0828e-06	6.2847e-06	1377.9	373.69	6.179e-06	5.9153e-06	426.26	142.37	123.75	42.8	6.1213e-06	52.9	218.912	-58.774	-24.206	-111.301	34.158	37.740	-111.378	-106.603	-12.536	23.987	-107.028	-103.311	-102.501	-97.772	3.284	-98.511	-8191	255	
28271.330	1	1	0	0	0.23884	0.13515	0.14666	0.40304	0.053984	0.013905	0.36969	0.0077045	0.29289	0.25029	0.27678	0.06735	0.10447	0.35203	0.21453	0.2304	-0.56667	-1.025	-0.25625	-1.2771	-0.60625	-0.35625	-1.4604	-0.44375	-0.73125	-1.0604	-0.30833	-1.35	-0.92708	-0.31667	-1.2167	-0.38333	160.811	20.067	-61.102	139.553	118.275	177.295	148.437	78.385	-54.756	-88.260	184.081	-95.486	20.002	-86.627	-114.889	-122.540	0.0002663	0.00058496	0.00017822	1368.9	3.9017e-06	8.5191e-06	1369.6	368.48	3.4767e-06	6.6723e-06	419.73	139.47	120.87	41.905	2.9758e-06	51.689	0.00047819	0.00054915	0.0001564	1379.2	6.1435e-06	6.2252e-06	1379.2	373.31	6.3093e-06	6.311e-06	425.55	142.56	123.91	42.716	6.228e-06	52.814	214.303	-38.172	-37.284	-111.157	17.354	33.033	-111.243	-106.806	11.831	31.521	-107.240	-103.009	-102.517	-97.630	-15.265	-98.624	-8191	255	
28271.451	1	1	0	0	0.26764	0.21908	0.16603	0.31247	0.083472	0.27273	0.17127	0.17687	0.06382	0.1637	0.091311	0.09588	0.32481	0.16446	0.33985	0.19666	-0.31875	-1.0271	-0.19167	-1.275	-0.56458	-0.32292	-1.3479	-0.44792	-0.49375	-1.0917	-0.45625	-1.1333	-0.8125	-0.29167	-1.2083	-0.49792	-43.938	70.816	-109.016	196.744	77.197	214.413	-106.853	148.117	-36.875	130.435	145.964	233.309	162.681	143.031	209.373	230.956	0.00024147	0.00056166	9.919e-05	1371.9	3.18e-06	6.0631e-06	1366.5	368.08	3.3608e-06	4.389e-06	419.31	139.69	121.65	42.178	3.0903e-06	51.915	0.00047838	0.00056283	0.00015912	1379.6	6.3544e-06	6.4379e-06	1379.8	373.17	6.2709e-06	6.2895e-06	426.05	142.6	124.04	42.81	6.1025e-06	52.987	215.192	-27.222	-16.321	-111.362	9.221	37.629	-111.453	-106.779	-13.168	26.961	-107.478	-103.325	-103.086	-97.996	10.490	-98.733	-8191	255	
28271.549	1	1	0	0	0.17875	0.20625	0.024791	0.27146	0.12502	0.19073	0.46354	0.21866	0.0040748	0.23638	0.29375	0.25718	0.28531	0.34116	0.40301	0.25596	-0.20833	-0.98333	-0.13958	-1.1604	-1.0375	-0.18542	-1.4854	-0.47917	-0.53125	-1.0271	-0.43542	-1.0042	-0.9125	-0.45417	-1.0917	-0.68333	190.200	-80.232	148.040	206.143	172.184	-71.997	190.759	155.149	33.965	46.785	150.625	129.943	197.456	185.054	155.315	146.862	0.00026577	0.00040683	0.00021343	1370.7	3.236e-06	6.7018e-06	1362.4	366.61	3.5416e-06	5.2741e-06	422.96	139.17	121.41	42.077	3.6894e-06	51.92	0.00047805	0.00055252	0.00016239	1379.8	5.9537e-06	6.0759e-06	1378.2	373.09	6.2585e-06	5.8967e-06	426.25	142.49	124	42.835	5.9994e-06	52.968	213.549	-46.246	-23.270	-111.489	36.187	26.475	-111.473	-107.068	5.355	19.574	-107.481	-103.130	-102.829	-97.819	15.689	-98.651	-8191	255	
28271.619	1	1	0	0	0.31871	0.083973	0.16724	0.19847	0.15459	0.096663	0.10337	0.08802	0.23819	0.13161	0.12772	0.11458	0.079956	0.11603	0.068812	0.16469	0.010417	-1.1812	-0.24375	-0.92708	-0.84583	-0.097917	-1.35	-0.74167	-0.48333	-1.1688	-0.425	-0.81458	-1.3125	-0.2625	-1.0542	-0.82292	-26.527	34.366	12.054	-119.923	94.097	48.465	202.025	209.449	64.994	40.660	-15.417	10.350	-108.938	-42.289	192.589	141.536	0.00026618	0.00037287	0.00015437	1374	3.6547e-06	2.8436e-06	1366.6	368.14	3.471e-06	4.3498e-06	420.66	138.87	121.19	42.045	3.0415e-06	51.759	0.0004814	0.00053728	0.00015234	1380.9	5.909e-06	6.3303e-06	1378	373.56	6.4632e-06	5.9158e-06	426.05	142.43	123.92	42.803	6.0052e-06	52.94	218.565	-42.104	-31.499	-111.388	20.961	31.444	-111.423	-106.958	8.765	15.014	-107.430	-103.285	-102.674	-97.982	47.242	-98.722	-8191	255	
28271.740	1	1	0	0	0.10662	0.17363	0.26918	0.28705	0.19702	0.35065	0.33593	0.19788	0.039589	0.1524	0.14523	0.17523	0.17812	0.13696	0.060127	0.37742	0.2125	-0.96875	-0.43333	-0.7625	-1.2062	-0.17083	-1.2	-1.0604	-0.36667	-1.15	-0.43958	-0.68958	-1.2437	-0.4375	-0.8875	-0.9	-4.816	133.453	-111.107	173.389	142.689	178.252	215.900	156.923	-52.593	192.590	78.383	216.427	26.796	134.486	54.154	211.403	0.00026189	0.00045716	0.00017654	1375.6	3.0819e-06	5.2694e-06	1362.4	368.87	3.3725e-06	3.9178e-06	422.63	139.19	121.19	42.057	2.8679e-06	51.984	0.00048065	0.00055134	0.00015534	1380.5	5.9339e-06	6.4724e-06	1378.6	374.03	6.4615e-06	6.2285e-06	426.57	142.75	123.96	42.815	6.3535e-06	52.946	216.719	-47.706	-24.430	-111.223	18.869	5.763	-111.373	-107.080	3.763	16.780	-107.235	-103.205	-102.515	-97.606	-5.378	-98.789	-8191	255	
28271.836	1	1	0	0	0.062586	0.2776	0.050844	0.40678	0.35573	0.091672	0.20257	0.23663	0.21943	0.30244	0.077459	0.19671	0.31096	0.18874	0.35014	0.2395	0.075	-0.97292	-0.53542	-0.7375	-1.1208	-0.35	-1.1021	-1.0708	-0.40625	-1.1542	-0.67917	-0.75208	-1.3687	-0.52292	-0.69167	-1.2271	151.362	96.945	11.189	232.970	2.040	-104.755	-107.265	187.275	192.743	80.014	-122.553	179.523	-117.897	168.631	203.298	199.297	0.0002733	0.00037641	0.00013975	1376.4	3.3864e-06	5.1456e-06	1368.3	369.35	3.6075e-06	4.6458e-06	421.46	139.12	121.2	42.172	3.7342e-06	51.662	0.00048912	0.00058505	0.00017207	1380.6	6.192e-06	6.5968e-06	1380.7	374.22	6.6679e-06	6.4916e-06	426.65	142.67	123.99	42.809	6.6747e-06	52.911	219.188	-43.589	-39.872	-111.320	13.615	15.253	-111.246	-106.741	-12.167	29.583	-106.958	-102.970	-102.230	-97.665	35.511	-98.234	-8191	255	
28271.932	1	1	0	0	0.16405	0.50963	0.11244	0.19955	0.052983	0.2243	0.31815	0.34646	0.050014	0.060403	0.10064	0.18356	0.18866	0.35473	0.0785	0.070753	0.029167	-1.0958	-0.67708	-0.60833	-1.2917	-0.475	-0.84792	-1.2583	-0.22708	-1	-0.86042	-0.37708	-1.3708	-0.49375	-0.42083	-1.2917	-14.549	224.043	38.360	207.217	176.497	-89.613	134.433	164.068	153.000	72.459	138.505	160.789	-110.919	229.495	144.166	69.930	0.00025425	0.00036778	0.00011622	1376.8	2.588e-06	7.5848e-06	1370.1	367.71	2.3987e-06	3.7448e-06	422.75	139	121.43	41.978	3.6348e-06	51.647	0.00051963	0.0005981	0.00017148	1382.1	6.4822e-06	7.0951e-06	1381.9	373.71	6.8157e-06	6.6661e-06	427.09	142.61	124.02	42.792	6.8279e-06	52.935	223.605	-20.513	-26.012	-111.275	2.524	26.344	-111.275	-106.864	-10.658	41.824	-107.064	-103.223	-102.516	-97.967	19.601	-98.560	-8191	255	
28272.053	1	1	0	0	0.052268	0.22438	0.050277	0.28294	0.24661	0.028423	0.23971	0.078009	0.16394	0.13772	0.25331	0.12335	0.2674	0.11529	0.15522	0.13741	0.2875	-0.84375	-0.88958	-0.46667	-1.2292	-0.575	-0.61458	-1.3771	-0.18958	-0.81458	-0.90833	-0.37083	-1.3062	-0.66458	-0.47708	-1.4188	65.403	91.510	14.484	230.082	221.712	197.694	113.229	177.650	114.092	203.595	220.928	175.234	205.619	60.317	14.679	18.908	0.00026666	0.00050614	0.00016748	1377.5	3.5415e-06	4.7856e-06	1368.1	367.67	2.1658e-06	4.1463e-06	420.88	139.43	121.58	41.943	3.4808e-06	51.743	0.00051628	0.00059149	0.00017093	1384.3	6.4751e-06	7.0097e-06	1380.5	373.79	7.005e-06	6.6327e-06	425.89	142.72	124.2	42.835	6.6381e-06	52.947	211.678	-49.744	-24.601	-111.127	15.701	30.348	-111.392	-106.842	1.663	9.606	-107.334	-102.997	-102.668	-97.516	24.172	-98.438	-8191	255	
28272.148	1	1	0	0	0.096254	0.23921	0.36386	0.32386	0.22961	0.24882	0.1889	0.16195	0.077682	0.052462	0.38086	0.2863	0.30507	0.3034	0.21188	0.22944	0.047917	-0.62292	-0.96667	-0.34583	-1.1396	-0.63542	-0.42917	-1.4396	-0.42083	-0.94167	-1.0708	-0.20625	-1.1146	-0.66875	-0.5625	-1.1396	-122.598	-100.680	-9.994	211.033	42.049	214.634	123.477	172.259	-100.721	19.829	203.838	174.735	199.731	-45.009	33.325	-124.496	0.00025174	0.00059942	0.00012292	1378.7	1.4075e-06	4.7788e-06	1365.4	369.88	2.9561e-06	5.3539e-06	421.89	139.23	121.58	42.126	2.8537e-06	51.951	0.00050868	0.0006199	0.00016969	1383.7	6.718e-06	7.0683e-06	1382.6	374.05	7.0541e-06	7.3316e-06	427.39	142.66	124.24	42.842	6.9449e-06	52.97	214.525	-40.355	-2.161	-111.246	11.360	38.748	-111.358	-106.715	7.733	40.210	-107.122	-103.105	-102.506	-97.686	21.370	-98.009	-8191	255	
28272.244	1	1	0	0	0.098507	0.10563	0.075616	0.23398	0.20042	0.23269	0.13766	0.22667	0.15034	0.1035	0.22293	0.076301	0.062589	0.36973	0.022703	0.26117	0.020833	-0.67292	-1.0167	-0.44583	-1.0167	-0.825	-0.45208	-1.1625	-0.53542	-0.55833	-1.2729	-0.35625	-0.94583	-0.83958	-0.29167	-1.3229	91.151	228.808	205.996	192.957	95.071	-73.513	-90.669	169.782	60.129	116.226	233.619	143.731	-63.051	223.518	75.603	175.590	0.00025585	0.00047606	0.00017062	1383	2.9372e-06	5.0863e-06	1371.9	369.13	3.0173e-06	4.0338e-06	421.16	138.83	121.56	41.942	4.2235e-06	51.882	0.00053734	0.000651	0.00018232	1387.3	6.9416e-06	7.3818e-06	1384.3	373.92	7.1977e-06	7.3845e-06	426.56	142.44	124.07	42.723	7.6381e-06	52.934	217.243	-45.921	-36.515	-111.375	3.845	24.086	-111.373	-106.664	-12.795	15.608	-107.336	-103.005	-102.843	-97.905	17.093	-98.021	-8191	255	
28272.316	1	1	0	0	0.17147	0.11967	0.18766	0.30274	0.24904	0.18149	0.17826	0.25365	0.13919	0.13483	0.27295	0.081935	0.21963	0.33512	0.13253	0.14091	-0.12292	-0.62292	-1.1146	-0.37917	-0.79792	-0.88333	-0.4375	-1.3354	-0.52083	-0.12708	-1.2479	-0.50417	-0.72708	-0.9625	-0.077083	-1.0812	156.268	217.406	173.168	198.902	-25.456	38.415	127.332	204.663	-7.939	-45.885	221.544	-29.792	-101.899	-121.309	129.099	198.807	0.00025675	0.00050761	0.00019308	1378.1	1.9008e-06	5.0284e-06	1368.8	367.75	3.8772e-06	4.7885e-06	422.39	139.51	121.03	41.91	4.1642e-06	51.841	0.00053188	0.00066349	0.00018815	1384.3	6.8673e-06	7.1009e-06	1379.9	373.42	7.2546e-06	7.2448e-06	426.77	142.53	123.79	42.712	7.3531e-06	52.989	215.026	-31.110	-37.048	-111.286	0.337	33.830	-111.472	-106.918	-14.218	42.844	-107.333	-103.337	-102.595	-97.878	7.066	-98.504	-8191	255	
28272.436	1	1	0	0	0.34946	0.24074	0.13705	0.20736	0.20041	0.11149	0.18732	0.25863	0.13741	0.11713	0.090668	0.016299	0.31747	0.085863	0.084046	0.12751	-0.29167	-0.325	-1.1875	-0.4625	-0.78125	-1.0167	-0.28125	-1.2396	-0.63125	-0.25	-1.35	-0.55208	-0.82292	-1.1917	0.0020833	-1.1229	101.702	90.493	17.415	162.743	204.672	-81.690	141.258	195.226	-35.314	179.511	-16.449	-13.820	206.865	59.796	177.594	-78.762	0.00023966	0.00063054	0.00017962	1376.2	3.6627e-06	4.2672e-06	1377.1	369.5	2.1119e-06	4.2772e-06	421.75	139.78	120.99	41.902	4.2516e-06	51.922	0.00054398	0.0006696	0.00018816	1385.4	7.1474e-06	7.533e-06	1388.8	374.78	7.455e-06	7.5285e-06	426.98	142.84	124.07	42.753	7.5796e-06	53.03	217.540	-38.335	-30.153	-111.240	48.933	21.189	-111.408	-106.657	-2.076	47.655	-106.983	-103.098	-102.671	-97.865	2.749	-98.123	-8191	255	
28272.531	1	1	0	0	0.1753	0.34383	0.18812	0.16631	0.33474	0.24164	0.14612	0.18225	0.054869	0.13182	0.1999	0.072071	0.15108	0.086366	0.034429	0.20715	-0.48958	-0.30833	-1.05	-0.53542	-0.70625	-1.1583	-0.51458	-1.1417	-0.94583	-0.35208	-1.2104	-0.68125	-0.33333	-1.0729	-0.13125	-0.8375	10.641	-123.323	-40.312	-102.735	-109.875	-117.357	111.217	209.260	154.285	77.887	175.383	-109.195	192.814	156.413	144.094	159.048	0.0002778	0.00034489	0.00015204	1377.1	3.5785e-06	3.7995e-06	1373.8	369.8	2.6198e-06	4.8293e-06	423.16	138.82	121.16	41.981	3.5715e-06	51.849	0.00055718	0.00069863	0.00018945	1387.9	7.2955e-06	7.4082e-06	1387.4	374.63	7.5131e-06	7.5356e-06	427.48	142.38	124.08	42.797	7.4273e-06	52.974	217.266	-25.176	-27.347	-111.465	32.683	30.578	-111.509	-106.829	-2.464	36.796	-107.138	-103.272	-102.629	-97.986	8.566	-98.209	-8191	255	
28272.629	1	1	0	0	0.055124	0.048848	0.26743	0.2711	0.14998	0.18839	0.17685	0.064191	0.10525	0.22849	0.23082	0.013407	0.3336	0.21628	0.056838	0.10136	-0.625	-0.12708	-1.0146	-0.725	-0.31667	-1.2313	-0.59792	-1.0854	-0.73958	-0.11458	-1.3333	-0.58542	-0.33958	-1.0354	-0.25833	-0.76875	-71.595	-97.004	77.660	171.052	203.314	-93.573	194.360	175.013	110.161	88.100	71.504	192.026	202.859	129.199	143.804	69.118	0.00025383	0.00034655	0.00015463	1375.4	2.2643e-06	5.8826e-06	1375.1	368.54	3.673e-06	6.3004e-06	421	139.45	120.76	41.657	2.3361e-06	51.763	0.00055671	0.00069977	0.00019323	1383.5	7.3528e-06	7.5954e-06	1384.3	373.93	7.3712e-06	7.7353e-06	426.3	142.52	123.76	42.709	7.6796e-06	52.969	215.615	-59.680	-20.626	-111.329	13.480	23.134	-111.543	-106.684	3.995	29.922	-107.151	-103.210	-102.573	-97.883	3.132	-98.520	-8191	255	
28272.725	1	1	0	0	0.10956	0.1499	0.13804	0.21445	0.087207	0.059719	0.3379	0.30961	0.35853	0.14062	0.049076	0.13111	0.20395	0.11191	0.15683	0.13059	-0.48542	-0.29792	-1.0542	-0.91667	-0.15625	-1.2021	-0.52083	-0.82708	-1.1063	-0.09375	-1.3167	-0.86667	-0.31875	-1.1854	-0.46875	-0.53125	168.844	157.254	-109.986	176.528	-114.639	-115.512	156.210	213.133	21.670	-60.032	192.678	166.304	124.309	228.741	51.904	-17.572	0.00025924	0.0005191	0.00011198	1380	2.2366e-06	5.3081e-06	1375.2	367.85	3.3581e-06	5.5685e-06	422.07	139.05	121.45	42.114	3.0126e-06	52.126	0.00056169	0.00066955	0.00018913	1389.2	7.058e-06	7.3045e-06	1387.7	374.22	7.4332e-06	7.6424e-06	427.97	142.64	124.1	42.883	7.7672e-06	53.216	222.173	-22.892	-48.864	-111.316	-6.911	14.831	-111.633	-106.632	9.006	40.167	-106.877	-103.287	-102.454	-98.043	42.963	-98.029	-8191	255	
28272.844	1	1	0	0	0.069577	0.14345	0.37126	0.069255	0.16602	0.23348	0.22499	0.13922	0.26844	0.14139	0.37695	0.092187	0.23839	0.20061	0.19355	0.28709	-0.80833	-0.064583	-0.79792	-0.99792	-0.25	-0.94167	-0.68542	-0.6125	-1.0479	-0.11875	-1.0938	-0.99792	-0.24792	-1.1167	-0.55	-0.43542	-82.683	168.536	158.388	189.702	165.451	18.504	172.096	147.515	149.502	60.220	175.830	194.573	154.038	-122.165	12.498	154.288	0.00023462	0.00051491	0.00011781	1380.1	2.2061e-06	6.0333e-06	1376.3	368.05	2.2676e-06	5.3973e-06	423.18	139.11	121.37	42.217	2.6806e-06	51.745	0.0005456	0.00068218	0.00019011	1388.8	7.5587e-06	7.5657e-06	1385.3	374.08	7.2875e-06	7.6691e-06	427.23	142.64	123.88	42.848	7.5653e-06	52.998	213.234	-47.741	-3.078	-111.232	2.362	33.648	-111.305	-106.770	-5.643	19.594	-106.773	-103.274	-102.379	-97.600	10.278	-98.478	-8191	255	
28272.918	1	1	0	0	0.097494	0.23104	0.15418	0.32688	0.084453	0.20226	0.12694	0.5044	0.016649	0.080275	0.29256	0.058263	0.074954	0.18228	0.041235	0.28207	-0.64792	-0.2125	-0.79792	-1.1958	-0.38125	-1.0312	-0.72917	-0.48333	-1.1167	-0.25833	-0.85417	-1.1958	-0.13958	-0.98958	-0.5	-0.29792	93.257	173.253	-66.448	198.864	203.735	-50.853	177.896	155.046	100.921	-66.664	-108.953	-106.612	44.434	226.805	45.057	163.937	0.00028372	0.00030745	0.00016171	1377.3	3.8571e-06	4.7334e-06	1371.6	368.5	3.3828e-06	6.2145e-06	422.87	139.27	121.4	42.038	3.0157e-06	51.996	0.00055343	0.00071951	0.00019472	1386	7.4511e-06	7.7913e-06	1385.5	373.93	7.7152e-06	8.0352e-06	427.6	142.91	124.27	42.851	7.4903e-06	53.121	215.135	-31.279	-44.608	-111.234	24.837	25.764	-111.601	-106.692	-18.114	12.973	-106.963	-103.197	-102.688	-97.892	-9.795	-98.251	-8191	255	
28273.014	1	1	0	0	0.19179	0.10042	0.12427	0.053486	0.2828	0.0093922	0.35201	0.30908	0.032386	0.27259	0.10822	0.30633	0.19964	0.21022	0.24735	0.11037	-0.94167	-0.58125	-0.625	-1.4188	-0.10833	-0.84167	-1.0479	-0.2625	-1.1812	-0.49792	-0.625	-1.25	-0.5125	-1.1146	-1.0187	-0.35	120.251	148.432	214.917	-99.135	120.603	154.919	159.092	168.528	224.658	-44.364	90.181	-79.782	197.451	202.970	34.362	105.648	0.00025367	0.00032939	0.00016162	1383.1	3.2116e-06	4.7689e-06	1382.4	368.99	3.6538e-06	5.7703e-06	422.66	140.21	121.43	42.102	3.602e-06	51.959	0.00055505	0.00072738	0.00019761	1389.9	7.775e-06	8.1048e-06	1391.1	374.77	7.8575e-06	8.2087e-06	428.16	143.21	124.12	42.909	8.2335e-06	53.161	216.623	-50.717	-8.023	-111.416	19.346	45.691	-111.630	-106.849	-14.992	23.978	-107.339	-103.304	-102.818	-97.695	9.141	-98.769	-8191	255	
28273.133	1	1	0	0	0.087512	0.021493	0.21755	0.11832	0.063681	0.15226	0.21098	0.28538	0.17144	0.24432	0.035162	0.23357	0.2746	0.077249	0.18447	0.087669	-0.6625	-0.62292	-0.51667	-1.2875	-0.49167	-0.83333	-1.1896	-0.49792	-1.3021	-0.68333	-0.60833	-1.1625	-0.39792	-0.8	-0.9375	-0.27292	75.218	-77.247	160.559	219.344	137.605	109.974	202.173	172.943	-63.453	-93.384	229.148	-110.211	213.023	52.796	176.457	-116.688	0.00026825	0.00049402	0.00013415	1385.6	2.6288e-06	5.2703e-06	1376.4	370.18	3.2629e-06	6.5295e-06	422.63	139.72	121.46	41.881	4.5421e-06	51.968	0.00057569	0.00073146	0.00021024	1395	7.9522e-06	8.4313e-06	1390.4	374.93	8.0007e-06	8.2912e-06	427.96	142.93	124.35	42.816	8.1263e-06	53.141	213.003	-41.354	-7.581	-111.419	8.296	42.849	-111.701	-106.695	-9.942	21.491	-107.370	-103.203	-102.729	-97.670	18.318	-98.532	-8191	255	
28273.229	1	1	0	0	0.14747	0.20918	0.27923	0.30722	0.25957	0.40729	0.21486	0.48084	0.21956	0.14586	0.28535	0.10392	0.39741	0.14632	0.080197	0.22293	-0.68125	-0.66875	-0.32917	-1.5021	-0.27917	-0.77708	-1.2479	-0.34792	-1.0604	-0.91042	-0.35208	-1.1812	-0.36875	-0.76042	-1.1479	-0.48542	63.730	-6.927	22.644	226.202	108.688	25.466	70.843	219.183	-37.494	-7.622	141.339	158.509	209.278	-87.491	139.052	108.553	0.00024284	0.00052036	0.00016565	1387.8	3.8086e-06	4.5204e-06	1375.3	369.51	3.8411e-06	4.1465e-06	421.84	139.02	121.6	42.083	4.707e-06	52.049	0.00058122	0.00074535	0.00021382	1394.5	8.2905e-06	8.2925e-06	1392.5	374.87	8.1545e-06	8.294e-06	427.92	142.78	124.48	42.93	8.1549e-06	53.169	215.617	-40.591	-29.189	-111.477	4.651	-2.444	-111.563	-107.114	-14.622	26.323	-107.219	-103.221	-102.686	-97.700	13.046	-98.568	-8191	255	
28273.324	1	1	0	0	0.24965	0.080173	0.1549	0.17647	0.10786	0.1077	0.23494	0.40849	0.1329	0.15295	0.22833	0.18626	0.12733	0.17227	0.33252	0.26875	-0.69167	-0.64375	-0.41667	-1.2625	-0.57708	-0.34792	-1.4312	-0.35208	-0.86875	-0.77083	-0.40833	-1.2792	-0.61667	-0.50625	-0.97917	-0.275	18.567	-97.542	179.491	202.153	133.840	109.675	180.023	198.031	-40.697	120.693	151.860	-117.266	160.701	-120.165	103.896	229.617	0.00026051	0.00051894	0.00015531	1394.5	3.163e-06	4.4667e-06	1380.8	369.46	3.4792e-06	5.2664e-06	424.7	139.6	121.97	42.155	4.8891e-06	51.753	0.00058174	0.00074674	0.00021491	1399	8.2639e-06	8.0981e-06	1393.4	374.51	8.1814e-06	8.3994e-06	428.27	143.08	124.54	42.966	8.1884e-06	53.092	217.907	-28.882	-24.953	-111.259	-5.076	14.481	-111.187	-106.536	-5.449	27.974	-107.003	-102.946	-102.600	-97.663	2.526	-98.237	-8191	255	
28273.422	1	1	0	0	0.021397	0.044388	0.17546	0.1815	0.093666	0.26487	0.085453	0.31538	0.088531	0.17441	0.37234	0.22107	0.35659	0.15343	0.047388	0.097046	-0.37083	-0.92292	-0.20417	-1.2792	-0.47708	-0.33958	-1.4167	-0.28333	-0.69167	-1.0458	-0.2625	-1.1625	-0.70833	-0.42917	-1.0771	-0.42292	175.342	217.750	-117.081	-100.867	150.832	60.259	94.626	157.747	217.962	-20.317	202.057	220.501	178.863	-114.915	128.879	73.796	0.00024139	0.00034693	0.0001174	1390.8	3.4817e-06	4.2206e-06	1379	369.53	3.9776e-06	4.6658e-06	422.89	139.68	121.59	42.1	3.9208e-06	52.05	0.00057564	0.00073588	0.000214	1398.7	7.9514e-06	8.5715e-06	1396.2	375.39	8.3536e-06	8.5452e-06	428.01	143.04	124.44	42.913	8.3268e-06	53.15	218.012	-46.524	-16.361	-111.290	38.553	12.086	-111.238	-106.569	-27.851	29.952	-107.135	-102.966	-102.606	-97.716	26.343	-98.165	-8191	255	
28273.518	1	1	0	0	0.40185	0.29108	0.11067	0.15655	0.13498	0.12491	0.27214	0.076781	0.34274	0.18411	0.11027	0.061653	0.33045	0.28523	0.074681	0.16857	-0.20625	-1.0792	-0.13542	-1.3708	-0.89167	-0.275	-1.3417	-0.68542	-0.54167	-1.0042	-0.3875	-0.84583	-0.76042	-0.31042	-1.1583	-0.55625	79.271	76.055	117.707	-35.094	117.820	-79.849	-94.687	198.681	40.151	198.082	217.334	97.594	208.314	192.773	132.842	-25.531	0.00025775	0.00054806	0.00018164	1392.3	3.4999e-06	6.0422e-06	1380.3	369.04	2.9146e-06	4.4009e-06	424.49	139.9	121.53	42.214	3.2386e-06	52.196	0.0005964	0.00075566	0.00021642	1398.4	8.1779e-06	8.4131e-06	1394.1	374.99	8.1374e-06	8.3584e-06	428.78	143.18	124.5	43.036	8.0722e-06	53.323	212.962	-40.128	-13.402	-111.199	27.389	14.757	-111.378	-106.707	-28.599	55.593	-106.876	-103.031	-102.634	-97.771	13.269	-98.304	-8191	255	
28273.613	1	1	0	0	0.20664	0.33096	0.16968	0.34798	0.11794	0.097387	0.19292	0.29641	0.04424	0.37847	0.10456	0.24449	0.27599	0.24965	0.061141	0.38056	-0.00625	-1.0271	0.0020833	-1.0146	-0.85625	-0.21667	-1.1667	-0.62292	-0.3375	-1.1313	-0.36875	-0.81667	-1.2062	-0.20833	-1.1437	-0.60208	103.187	135.772	115.079	-108.482	211.459	186.321	139.005	132.301	-24.322	197.445	169.089	126.710	221.988	-104.920	11.546	191.910	0.00027065	0.00042462	0.00014947	1385.9	1.5865e-06	5.7956e-06	1384.2	369.52	2.9413e-06	3.4815e-06	423.88	139.94	121.53	42.086	3.2967e-06	51.88	0.0005978	0.0007419	0.00022152	1398	8.3128e-06	8.801e-06	1396.2	375.26	8.3113e-06	7.9947e-06	428.54	143.26	124.5	42.901	8.3393e-06	53.146	222.031	-42.780	-22.837	-111.141	-0.737	37.161	-111.348	-106.819	0.905	18.154	-107.184	-103.255	-102.821	-97.762	13.500	-98.424	-8191	255	
28273.732	1	1	0	0	0.24246	0.38495	0.17895	0.26675	0.29929	0.21609	0.23814	0.13155	0.19558	0.18006	0.27448	0.27821	0.28084	0.29477	0.053558	0.20252	-0.00625	-1.1	-0.29167	-1.0083	-0.95417	-0.13542	-1.2687	-0.83333	-0.26667	-1.1187	-0.51875	-0.75208	-1.1479	-0.35833	-1.1	-0.8875	-86.918	-74.755	88.944	202.340	119.495	3.538	133.330	157.570	97.473	-110.418	-107.436	194.930	181.675	181.552	44.758	83.432	0.00025929	0.00038847	0.00015108	1390.4	2.191e-06	6.0188e-06	1379.7	370.88	3.5844e-06	4.8664e-06	423.57	140.6	121.72	41.979	3.3804e-06	52.225	0.00059893	0.00073386	0.00021377	1398.8	7.9071e-06	8.5379e-06	1394.8	376.26	8.1976e-06	7.9317e-06	429.03	143.58	124.65	42.923	7.9771e-06	53.396	214.924	-58.204	-26.476	-111.219	0.741	14.922	-111.331	-106.830	-2.730	22.102	-107.088	-103.042	-102.619	-97.735	45.152	-98.482	-8191	255	
28273.830	1	1	0	0	0.19793	0.20767	0.11056	0.28947	0.24729	0.2002	0.21158	0.073231	0.29012	0.11154	0.066469	0.19049	0.13619	0.10267	0.16851	0.26437	-0.066667	-1.3021	-0.47292	-0.6875	-1.1042	-0.15833	-1.0458	-0.85417	-0.36875	-1.3375	-0.54167	-0.48542	-1.2542	-0.61458	-0.88542	-1.0667	64.218	30.390	-44.932	171.333	131.645	29.102	207.960	-106.297	-62.321	55.440	197.921	190.071	220.796	207.661	219.536	-110.318	0.00027258	0.00053528	0.00015768	1391.3	3.493e-06	5.7102e-06	1383.9	372.65	2.8376e-06	4.3743e-06	424.64	140.86	122.68	42.317	3.8467e-06	52.125	0.00058683	0.00072923	0.00021586	1398.3	8.1239e-06	8.6099e-06	1395.1	376.97	8.2066e-06	8.244e-06	430	144.14	125.26	43.162	8.0713e-06	53.39	217.090	-52.443	-22.952	-111.214	48.522	39.066	-111.281	-106.709	-19.385	29.854	-107.220	-102.934	-102.510	-97.732	36.790	-98.136	-8191	255	
28273.924	1	1	0	0	0.14628	0.012686	0.084822	0.42267	0.132	0.41678	0.11084	0.019042	0.064071	0.20715	0.11573	0.13215	0.27935	0.10503	0.29317	0.34393	0.21875	-0.86875	-0.41667	-0.40208	-1.2021	-0.21458	-0.81667	-1.025	-0.14375	-1.1437	-0.85833	-0.25625	-1.325	-0.62917	-0.575	-1.0771	-85.983	164.833	58.994	-118.657	-65.072	125.555	-115.728	224.892	-70.924	43.833	-120.777	231.613	-104.179	226.774	114.817	181.450	0.00026068	0.00035424	0.00010182	1395.1	3.6646e-06	6.0426e-06	1379	371.84	3.5734e-06	6.4556e-06	424.77	140.62	122.02	42.309	2.1136e-06	52.509	0.00060505	0.00075591	0.00021787	1401	8.0686e-06	8.7962e-06	1396.2	377.38	8.4976e-06	8.5185e-06	430.07	143.68	125.35	43.178	8.3679e-06	53.494	217.035	-41.542	-19.449	-111.199	3.885	15.080	-111.202	-106.722	-23.076	33.407	-106.899	-103.007	-102.290	-97.661	10.747	-98.340	-8191	255	
28274.020	1	1	0	0	0.26088	0.1064	0.039855	0.12582	0.034864	0.042609	0.21555	0.070841	0.22858	0.19173	0.17165	0.14885	0.28141	0.17629	0.17165	0.46451	0.325	-0.70625	-0.64792	-0.41458	-1.2104	-0.20833	-0.875	-1.1292	-0.26042	-0.84375	-0.89583	-0.39167	-1.0146	-0.43125	-0.325	-1.2479	188.371	-3.146	105.243	215.615	204.285	23.295	-104.719	225.452	-12.927	-7.018	7.036	202.839	-68.928	-71.510	91.725	183.521	0.00024136	0.00023374	0.00013574	1387.7	2.4632e-06	5.6003e-06	1385.3	373.75	2.7848e-06	4.4204e-06	426.26	140.34	122.07	42.175	2.1355e-06	51.987	0.00059797	0.00076298	0.00021094	1399.2	8.064e-06	8.3516e-06	1399.6	378.04	8.3378e-06	8.4675e-06	430.97	143.8	124.8	43.097	8.4019e-06	53.319	219.303	-64.793	-13.716	-111.153	56.687	33.316	-111.455	-106.884	-45.889	37.579	-107.187	-102.971	-102.641	-97.721	-6.370	-98.390	-8191	255	
28274.141	1	1	0	0	0.25299	0.16322	0.043204	0.16869	0.09367	0.36787	0.36764	0.01432	0.13032	0.050346	0.12469	0.04555	0.20015	0.039276	0.20376	0.2156	0.25417	-0.725	-0.73333	-0.66875	-1.1042	-0.46042	-0.60417	-1.4208	-0.0875	-0.80625	-0.96458	-0.34375	-1.2417	-0.65625	-0.37292	-1.1833	117.701	-118.698	164.598	164.791	108.830	55.905	171.380	160.319	-67.608	222.509	194.488	171.106	-115.035	103.729	-73.508	200.788	0.00025078	0.00056567	0.0001313	1395.4	3.0114e-06	5.7363e-06	1387.1	371.87	4.1939e-06	5.6797e-06	424.95	139.56	121.81	42.152	1.7946e-06	52.231	0.00060763	0.00077624	0.00022849	1400.8	8.1399e-06	9.0002e-06	1401.5	377.66	8.6408e-06	8.7793e-06	430.38	143.51	124.68	43.017	8.8065e-06	53.266	217.885	-42.493	-11.179	-111.267	45.413	30.918	-111.171	-106.734	-55.802	38.045	-107.262	-103.288	-102.649	-97.846	-6.861	-98.379	-8191	255	
28274.213	1	1	0	0	0.26115	0.077722	0.043829	0.22668	0.18353	0.15398	0.21945	0.089221	0.033624	0.1055	0.17655	0.12674	0.1511	0.072582	0.29199	0.34755	0.20208	-0.64792	-0.90208	-0.46875	-1.0833	-0.65417	-0.64583	-1.2708	-0.19167	-0.54583	-1.0562	-0.31042	-0.975	-0.84792	-0.24167	-1.2521	-66.226	181.758	156.135	175.488	-55.138	-100.994	174.259	126.976	71.697	-62.718	224.124	75.743	179.770	-116.775	-34.268	138.812	0.00021946	0.00033335	0.00019801	1389.4	2.8171e-06	4.1987e-06	1380.6	370.9	2.6741e-06	5.9593e-06	423.84	139.69	121.63	42.141	4.3123e-06	52.014	0.00062789	0.00079496	0.00022693	1398.1	8.5073e-06	9.151e-06	1397	376.91	8.8433e-06	8.919e-06	429.43	143.41	124.67	42.997	8.7788e-06	53.216	214.879	-34.088	-33.980	-111.146	14.864	30.110	-111.356	-106.685	4.930	33.729	-107.229	-103.185	-102.546	-97.969	28.394	-98.149	-8191	255	
28274.309	1	1	0	0	0.13647	0.10161	0.12929	0.31422	0.11083	0.17978	0.086583	0.25852	0.11348	0.18594	0.1405	0.11145	0.31264	0.21871	0.15246	0.15903	-0.0625	-0.61667	-1.0354	-0.47292	-0.92083	-0.86667	-0.30625	-1.2958	-0.39792	-0.36667	-1.2542	-0.29792	-0.99583	-1.0792	-0.20833	-1.3	149.608	205.886	-40.587	188.719	76.218	-6.809	141.834	192.014	138.885	129.380	206.625	-115.152	167.723	9.180	-24.173	98.691	0.00024119	0.00037948	9.0443e-05	1391.7	3.9825e-06	4.0888e-06	1383.3	369.46	3.3612e-06	6.3475e-06	423.33	139.63	121.3	42.258	2.6903e-06	52.058	0.00061877	0.00078507	0.00021906	1399.3	8.2681e-06	8.7429e-06	1395.9	376.23	8.6711e-06	9.0429e-06	429.61	143.31	124.64	43.006	8.8177e-06	53.27	216.034	-56.680	-60.704	-111.135	21.675	46.670	-111.481	-106.886	-27.607	25.952	-107.044	-103.240	-102.600	-97.933	7.275	-98.183	-8191	255	
28274.404	1	1	0	0	0.2403	0.12432	0.12593	0.086536	0.10806	0.12862	0.30475	0.41379	0.25596	0.2005	0.13693	0.24281	0.27285	0.29087	0.17927	0.35805	-0.15	-0.41875	-1.0688	-0.40417	-0.89375	-0.73333	-0.29375	-1.1229	-0.47083	-0.1125	-1.3479	-0.27083	-0.95417	-1.0229	-0.27708	-1.0229	117.518	-1.164	124.153	152.083	159.030	-98.649	104.125	166.157	189.058	-104.669	180.625	-120.955	226.914	179.284	208.439	179.080	0.00026384	0.00043621	0.00019202	1389.3	3.351e-06	7.3221e-06	1380.5	370.26	3.3571e-06	4.8775e-06	425.89	139.28	121.93	42.084	3.5464e-06	51.964	0.00062628	0.00082964	0.00022772	1397.2	8.7009e-06	9.1889e-06	1395.2	376	8.8476e-06	9.2627e-06	429.8	142.93	124.63	42.996	8.6212e-06	53.136	214.339	-58.771	-31.702	-111.263	28.379	29.058	-111.341	-106.683	-34.790	27.042	-106.937	-103.193	-102.548	-97.785	-2.264	-98.307	-8191	255	
28274.525	1	1	0	0	0.23718	0.17338	0.23039	0.27546	0.13686	0.17296	0.26411	0.32237	0.15237	0.056499	0.049501	0.21525	0.16264	0.050133	0.059417	0.21024	0.0020833	-0.27292	-1.0583	-0.44583	-0.58958	-0.98542	-0.40208	-1.2229	-0.63333	-0.36042	-1.1917	-0.36875	-0.60417	-1.1125	-0.17708	-1.0396	229.397	87.947	-107.595	-117.800	47.882	133.952	229.135	152.429	-21.210	83.053	-115.093	-99.714	205.639	75.089	62.652	-33.925	0.00028578	0.00050917	0.00018268	1386.6	3.8113e-06	5.402e-06	1380.9	370.21	2.9297e-06	5.381e-06	424.42	139.54	121.73	41.916	4.8808e-06	52.061	0.00060845	0.00079156	0.00022294	1394.7	8.3732e-06	8.8677e-06	1393.3	375.62	8.7087e-06	9.0629e-06	429.16	143.06	124.26	42.816	8.9195e-06	53.067	212.340	-39.779	-25.906	-111.241	4.166	33.464	-111.362	-106.743	8.186	46.896	-107.234	-103.100	-102.136	-97.580	15.005	-98.480	-8191	255	
28274.621	1	1	0	0	0.17446	0.010608	0.098062	0.22597	0.16425	0.055563	0.031548	0.23213	0.17153	0.1067	0.46214	0.20792	0.34577	0.1476	0.39362	0.38594	-0.45417	-0.10625	-1.0083	-0.6875	-0.34583	-1.0542	-0.42292	-0.94583	-0.70208	-0.37917	-1.1208	-0.66875	-0.47917	-1.3312	-0.27917	-0.83333	10.721	89.577	136.580	207.540	95.893	119.274	185.800	128.703	79.183	13.426	211.677	183.336	155.803	210.084	55.377	174.893	0.00027929	0.00056835	0.00011109	1391.2	3.7535e-06	4.1121e-06	1382	369.62	5.2451e-06	4.6749e-06	424.68	139.03	121.19	41.67	2.5486e-06	51.807	0.00062623	0.00083827	0.0002318	1395.2	8.7903e-06	9.1409e-06	1392.2	375.24	8.9856e-06	9.48e-06	428.66	142.57	124.16	42.65	9.4689e-06	52.966	211.194	-50.791	-35.645	-111.381	24.385	23.132	-111.358	-106.831	-19.299	46.902	-106.941	-103.059	-102.430	-97.699	23.208	-98.515	-8191	255	
28274.719	1	1	0	0	0.30456	0.15733	0.12207	0.54592	0.18134	0.15555	0.27019	0.093268	0.15347	0.051489	0.20277	0.21894	0.089251	0.36097	0.14421	0.22269	-0.38333	-0.33542	-1.0708	-0.86875	-0.44375	-1.2292	-0.63958	-0.88958	-1.0896	-0.1125	-1.1417	-0.73125	-0.46458	-1.1792	-0.50208	-0.49583	168.795	170.643	3.447	214.014	17.440	137.414	134.519	213.931	184.971	-50.148	213.952	229.753	155.699	195.080	-63.579	-116.266	0.00026711	0.00068122	0.00012558	1389.9	1.8253e-06	3.1321e-06	1375.3	368.06	3.17e-06	4.8845e-06	422.89	139.27	120.78	41.858	2.3665e-06	51.61	0.00064877	0.00082388	0.00023136	1395.3	9.0687e-06	9.1668e-06	1390.8	374.43	9.0873e-06	9.4424e-06	427.85	142.42	123.87	42.714	9.2728e-06	52.918	218.933	-43.901	-43.186	-111.310	38.966	30.490	-111.546	-106.597	1.975	34.449	-107.407	-103.286	-102.410	-97.661	-3.664	-98.119	-8191	255	
28274.814	1	1	0	0	0.21873	0.15194	0.12783	0.43987	0.15381	0.13992	0.14199	0.47111	0.094085	0.10099	0.18877	0.073719	0.036464	0.28317	0.090366	0.10799	-0.75	-0.19375	-0.74792	-0.95417	-0.33125	-0.9375	-0.69792	-0.68125	-0.94792	-0.15625	-1.0333	-1.1187	-0.16667	-1.1771	-0.38333	-0.52708	135.046	84.451	46.516	209.751	180.219	105.614	212.887	177.332	119.951	-7.501	-120.829	130.660	208.765	-35.399	173.720	-101.777	0.00027208	0.00042104	0.00020715	1384.4	2.7556e-06	5.096e-06	1375	370.86	2.6264e-06	7.0393e-06	421.47	138.76	121.13	41.767	3.5784e-06	51.65	0.00062707	0.00084479	0.00023037	1393	9.1699e-06	9.0723e-06	1387.7	374.85	8.8502e-06	9.2212e-06	426.55	142.2	123.96	42.56	9.0272e-06	52.833	216.011	-58.436	-31.498	-111.436	3.403	54.947	-111.435	-106.595	-11.986	26.154	-107.010	-103.061	-102.504	-97.629	17.175	-98.469	-8191	255	
28274.910	1	1	0	0	0.15108	0.087679	0.17766	0.12422	0.20305	0.16722	0.12894	0.34712	0.23388	0.13973	0.23456	0.10454	0.32781	0.12268	0.12703	0.34835	-0.90833	-0.3375	-0.93125	-1.1688	-0.23958	-1.1583	-0.69792	-0.49375	-1.0458	-0.12083	-0.87917	-1.0792	-0.25625	-1.1437	-0.79792	-0.47083	-15.726	64.985	184.166	-114.401	-41.635	196.949	156.720	223.271	-96.704	-77.040	180.153	187.549	211.425	169.137	-111.304	178.851	0.00026294	0.00050025	0.000118	1378.5	3.0136e-06	3.2756e-06	1371	370.31	3.9566e-06	5.935e-06	421.64	138.33	120.74	41.86	2.7883e-06	51.7	0.00062675	0.00086158	0.00023226	1389.5	9.1012e-06	9.1193e-06	1385.6	375.36	8.9292e-06	9.256e-06	427.24	141.8	123.56	42.63	9.3653e-06	52.799	215.086	-57.351	-73.923	-111.260	11.827	-6.603	-111.532	-106.982	-4.499	55.008	-106.910	-103.342	-102.407	-97.920	-2.902	-97.939	-8191	255	
28275.004	1	1	0	0	0.25779	0.13765	0.12051	0.17151	0.18536	0.070126	0.25892	0.20113	0.2153	0.066446	0.04986	0.22033	0.277	0.17132	0.37422	0.094799	-0.95625	-0.34583	-0.52708	-1.3062	-0.070833	-1.0521	-0.8875	-0.65	-1.0854	-0.43958	-0.86875	-1.2667	-0.4375	-1.0917	-0.80625	-0.39792	55.944	140.106	89.810	194.181	160.743	-106.136	166.231	-124.313	185.071	-67.001	22.536	165.870	-123.995	234.885	-78.221	141.900	0.00025973	0.00048804	0.00016402	1384.4	3.5549e-06	3.7733e-06	1375.3	370.12	2.9943e-06	6.2566e-06	422.09	138.34	120.82	41.886	3.2555e-06	51.657	0.00063427	0.00086554	0.00023898	1392.6	9.2016e-06	9.6623e-06	1390.1	375.63	9.2125e-06	9.7575e-06	427.43	141.98	123.77	42.736	9.3327e-06	52.818	219.500	-64.386	-47.477	-111.061	8.692	24.792	-111.427	-106.667	-3.586	24.981	-106.642	-103.083	-102.568	-97.636	29.179	-98.129	-8191	255	
28275.102	1	1	0	0	0.089513	0.019366	0.1474	0.06481	0.20929	0.032269	0.045481	0.44051	0.29851	0.21578	0.19415	0.16716	0.046657	0.15453	0.17012	0.047155	-0.53542	-0.38333	-0.58958	-1.4146	-0.23958	-0.79583	-0.95625	-0.34583	-0.97708	-0.52083	-0.60625	-1.1417	-0.42708	-1.0479	-0.88542	-0.26667	116.784	-11.239	-4.323	202.933	210.334	58.188	32.387	139.212	-99.344	132.954	184.561	-82.042	77.013	179.263	-73.802	-91.603	0.00025326	0.00039608	0.00012169	1384.2	2.8137e-06	5.4066e-06	1379.4	370.8	2.8119e-06	3.7908e-06	420.59	138.85	120.77	41.833	4.7595e-06	51.486	0.00064774	0.00085973	0.0002387	1395.4	9.0674e-06	9.7651e-06	1392.4	376.33	9.2215e-06	9.7398e-06	427.47	142.29	123.5	42.637	9.4077e-06	52.665	216.352	-16.716	-17.825	-111.363	19.095	12.124	-111.505	-106.608	-36.206	48.100	-106.933	-102.915	-102.419	-97.614	24.697	-98.000	-8191	255	
28275.221	1	1	0	0	0.12431	0.21693	0.1284	0.33742	0.037402	0.12575	0.40011	0.097904	0.18826	0.065215	0.22774	0.1848	0.2738	0.16492	0.2255	0.20109	-0.78333	-0.54583	-0.32917	-1.2938	-0.35625	-0.87083	-1.1375	-0.40417	-0.94375	-0.68125	-0.50208	-1.5708	-0.46042	-0.87708	-0.90625	-0.28125	189.566	159.279	-89.071	-105.522	11.259	-102.104	209.147	219.673	27.673	99.122	13.730	188.992	187.318	205.082	138.023	135.927	0.00024686	0.00031957	9.0793e-05	1389.1	3.9185e-06	5.012e-06	1376.4	370.2	3.6207e-06	6.3639e-06	422.34	138.65	120.66	41.681	4.9359e-06	51.42	0.00064492	0.00084298	0.00023998	1395.7	8.7987e-06	9.2504e-06	1389.9	375.83	8.7903e-06	9.379e-06	427.37	141.92	123.53	42.554	9.0214e-06	52.637	223.193	-52.594	-29.802	-111.417	21.402	25.891	-111.219	-106.725	-10.573	16.691	-107.066	-102.929	-102.643	-97.347	18.294	-98.202	-8191	255	
28275.316	1	1	0	0	0.23958	0.12477	0.089672	0.27718	0.21055	0.29053	0.16128	0.25034	0.15928	0.16004	0.19127	0.16422	0.091691	0.28692	0.1251	0.022041	-0.63542	-0.625	-0.05	-1.2875	-0.3375	-0.5375	-1.3146	-0.32917	-0.66042	-0.65833	-0.4125	-1.2146	-0.56458	-0.79583	-0.84583	-0.33542	10.545	102.847	161.533	154.090	-29.542	190.349	146.743	190.283	116.029	224.578	77.954	66.828	-70.722	-111.515	204.671	224.889	0.00026403	0.00045366	0.00017281	1381.2	2.9745e-06	5.3023e-06	1370.7	369.74	4.4424e-06	6.2283e-06	421.06	138.69	120.28	41.662	2.6365e-06	51.494	0.00063094	0.00081016	0.00023613	1390	9.0636e-06	9.1726e-06	1385.4	374.9	8.7878e-06	9.1916e-06	425.33	141.86	123.12	42.532	9.0919e-06	52.629	210.790	-34.753	-22.587	-111.105	28.195	23.528	-111.141	-106.460	-9.979	26.491	-106.920	-103.016	-102.592	-97.234	27.175	-98.245	-8191	255	
28275.412	1	1	0	0	0.38707	0.032865	0.12258	0.28432	0.15149	0.067782	0.11327	0.1105	0.19191	0.21545	0.090419	0.2569	0.31976	0.36932	0.31236	0.16297	-0.54583	-0.78125	-0.10417	-1.2083	-0.56875	-0.28542	-1.3979	-0.25	-0.88333	-0.97708	-0.33125	-1.1417	-0.69375	-0.54792	-1.2479	-0.45208	41.630	89.582	15.411	-115.278	-91.216	149.638	182.845	222.437	-121.108	213.248	185.296	-104.913	175.578	169.516	97.927	230.447	0.0002324	0.00066783	0.00012403	1382.8	2.2858e-06	2.586e-06	1369.4	370.64	3.311e-06	6.2507e-06	419.41	138.05	120.19	41.76	2.7533e-06	51.518	0.00064553	0.00086878	0.00024477	1390.5	9.2222e-06	9.8961e-06	1384	375.06	9.3595e-06	9.5382e-06	425.39	141.69	123.07	42.591	9.5975e-06	52.807	214.291	-52.156	-53.676	-111.195	24.127	17.447	-111.323	-106.739	-0.051	20.705	-106.681	-103.047	-102.476	-97.546	49.366	-98.267	-8191	255	
28275.510	1	1	0	0	0.018235	0.23887	0.30243	0.29583	0.09976	0.11948	0.4001	0.15186	0.28377	0.21095	0.26484	0.42974	0.25054	0.1596	0.35462	0.14743	-0.56458	-0.77292	-0.32917	-1.2583	-0.58958	-0.34583	-1.3729	-0.54167	-0.68542	-1.0833	-0.47292	-1.15	-0.85	-0.41875	-1.0521	-0.40833	218.397	89.289	114.660	216.250	-113.577	-39.174	189.045	211.558	-120.153	39.650	188.100	-102.986	198.315	221.724	130.900	218.066	0.00025685	0.00032549	0.00017812	1383.3	2.161e-06	4.8233e-06	1376.6	369.59	3.7184e-06	4.7201e-06	422.39	139.21	121.37	41.753	3.4696e-06	51.611	0.00065775	0.000887	0.00025136	1392.5	9.2248e-06	1.0018e-05	1387.8	375.21	9.304e-06	9.5392e-06	427.4	142.24	123.75	42.664	9.1679e-06	52.834	218.791	-58.502	-19.233	-110.926	13.219	23.481	-111.113	-106.569	-19.835	22.213	-107.017	-102.839	-102.451	-97.432	13.932	-98.431	-8191	255	
28275.605	1	1	0	0	0.24081	0.19484	0.23109	0.27033	0.30738	0.02389	0.54309	0.14543	0.24486	0.17263	0.042062	0.36326	0.19649	0.27636	0.12143	0.15877	-0.083333	-1.1333	-0.075	-1.1437	-0.67083	-0.30625	-1.3521	-0.48958	-0.49375	-1.1542	-0.21667	-0.91667	-0.9875	-0.25833	-0.93958	-0.64375	-45.420	20.490	-52.936	131.404	140.540	1.287	188.305	-110.484	-120.536	-13.636	-90.286	214.376	93.405	234.680	94.121	-16.492	0.00024907	0.00058541	0.00021441	1388	4.7724e-06	3.33e-06	1378.8	371.07	2.4833e-06	5.2126e-06	421.67	138.86	120.3	41.703	2.6622e-06	51.492	0.00065015	0.00084513	0.00025073	1395.1	9.1999e-06	9.7002e-06	1389.6	375.15	9.0155e-06	9.461e-06	426.88	142.01	123.2	42.586	9.1455e-06	52.733	218.685	-52.238	-39.967	-111.165	-15.475	40.631	-111.136	-106.539	-36.903	37.184	-107.006	-103.132	-102.425	-97.428	14.565	-98.014	-8191	255	
28275.701	1	1	0	0	0.083016	0.182	0.26622	0.26892	0.22883	0.2758	0.36897	0.021838	0.083869	0.080501	0.33611	0.29805	0.045676	0.090136	0.10291	0.14856	0.08125	-1.1917	-0.33958	-1.0438	-0.84792	-0.31875	-1.3458	-0.6375	-0.4625	-1.1521	-0.37292	-0.90833	-1.1104	-0.30208	-1.0271	-0.63542	17.356	14.226	200.341	228.165	-5.297	117.137	122.527	1.811	189.021	187.590	202.516	190.425	-74.486	-84.057	-32.269	192.294	0.00026806	0.00060998	0.00013199	1386.6	3.4315e-06	4.8572e-06	1374.7	369.1	2.0589e-06	7.4295e-06	422.29	138.51	120.38	41.628	2.8272e-06	51.638	0.00066057	0.0008426	0.00024113	1392.7	8.9405e-06	9.4271e-06	1386	374.6	9.089e-06	9.1135e-06	426	141.82	123.11	42.492	9.1214e-06	52.689	216.961	-36.251	-46.644	-111.002	0.541	10.499	-111.084	-106.530	11.100	34.376	-106.878	-102.765	-102.345	-97.671	-3.686	-98.399	-8191	255	
28275.822	1	1	0	0	0.30748	0.2186	0.11787	0.51577	0.1445	0.098797	0.2765	0.13888	0.24444	0.28947	0.18344	0.3033	0.31071	0.19711	0.047438	0.21541	0.28958	-1.1417	-0.12917	-0.79792	-1.0312	-0.36667	-1.2479	-0.97292	-0.37292	-1.0312	-0.57708	-0.62292	-1.1854	-0.22917	-0.66667	-0.81875	222.306	172.460	-46.997	228.302	-35.293	141.352	226.372	193.330	27.363	-39.834	213.431	-86.452	199.331	-68.175	62.273	168.553	0.00027456	0.00062595	0.00015992	1383.1	3.9191e-06	3.9038e-06	1375.9	371.01	2.5936e-06	3.7129e-06	421.12	138.6	120.53	41.768	3.9531e-06	51.308	0.00064237	0.00081925	0.00024203	1393.5	8.7599e-06	9.7146e-06	1389.6	376	9.1412e-06	9.1139e-06	426.74	141.9	123.14	42.553	8.8347e-06	52.572	214.884	-46.785	-28.723	-111.071	8.088	28.080	-111.075	-106.715	-6.135	43.991	-107.236	-103.058	-102.273	-97.646	11.358	-98.350	-8191	255	
28275.918	1	1	0	0	0.16833	0.029837	0.047945	0.1765	0.10267	0.045412	0.13046	0.48373	0.093166	0.19433	0.12528	0.029655	0.033221	0.29831	0.14459	0.10601	0.09375	-1.1187	-0.49583	-0.55208	-0.99792	-0.27292	-0.93542	-0.98542	-0.1625	-1.0583	-0.6125	-0.70625	-1.1688	-0.36875	-0.78542	-1.1333	55.283	-26.755	-22.004	-97.825	120.583	137.029	166.752	171.243	218.248	156.620	-50.673	-56.886	-67.355	155.922	150.344	192.554	0.00025332	0.00043057	0.00011459	1380.3	2.7601e-06	8.0055e-06	1370.2	367.25	3.7211e-06	5.684e-06	414.27	137.22	119.16	41.192	3.7646e-06	51.045	0.00063104	0.00081592	0.00023943	1384.8	8.2715e-06	9.4203e-06	1377.7	372.91	9.2514e-06	8.9247e-06	420.42	140.37	121.66	42.127	9.4604e-06	52.196	216.073	-37.292	-48.030	-111.042	59.600	20.857	-111.266	-106.643	7.276	21.601	-107.118	-103.209	-102.385	-97.685	20.469	-98.067	-8191	255	
28276.014	1	1	0	0	0.22115	0.22294	0.30781	0.27878	0.21414	0.094152	0.14469	0.34363	0.050602	0.05632	0.075071	0.052002	0.20617	0.07609	0.14059	0.18696	0.1375	-1.0688	-0.43958	-0.64583	-1.0667	-0.28958	-0.84167	-1.1292	-0.12708	-1.1021	-0.81458	-0.53125	-1.2021	-0.23958	-0.46458	-1.0208	-15.191	-32.843	66.147	231.196	203.126	-14.784	211.641	184.289	209.648	-91.103	18.076	232.730	195.835	148.063	73.731	193.119	0.0002708	0.00035551	9.8141e-05	1369.7	3.3205e-06	2.4178e-06	1364.3	368.48	3.1711e-06	4.1028e-06	414.09	136.98	119	41.17	4.3781e-06	51.205	0.00064262	0.00087391	0.00024932	1379.6	9.3678e-06	1.0273e-05	1376.3	373.71	9.7774e-06	9.7346e-06	420.04	140.15	121.86	42.205	9.5372e-06	52.298	215.151	-50.464	-71.850	-111.029	26.192	16.169	-111.176	-106.522	8.404	13.033	-106.653	-102.692	-102.565	-97.315	39.990	-98.161	-8191	255	
28276.086	1	1	0	0	0.28923	0.17575	0.23886	0.20822	0.43609	0.19189	0.093834	0.32949	0.088046	0.23389	0.10092	0.20125	0.12833	0.32875	0.040728	0.1541	0.42917	-0.79792	-0.50625	-0.53542	-0.98333	-0.28958	-0.70833	-1.1354	-0.1125	-0.84792	-0.7625	-0.26667	-1.0479	-0.60417	-0.375	-1.15	107.299	-42.092	-96.932	198.613	54.164	155.605	211.438	202.320	107.320	-7.064	210.504	222.659	-75.595	169.994	-109.085	212.945	0.0002494	0.0003878	0.00015528	1374.2	3.8175e-06	4.4467e-06	1359.1	365.08	3.4874e-06	5.468e-06	414.11	136.32	118.61	41.192	3.8208e-06	51.182	0.0006653	0.00085986	0.00025233	1382.1	9.3699e-06	1.0121e-05	1374.2	371.99	9.8001e-06	9.9877e-06	419.32	139.96	121.43	42.081	9.8182e-06	52.252	214.033	-45.518	-13.668	-110.871	31.188	-11.065	-111.198	-106.554	-26.585	45.900	-107.091	-102.802	-102.259	-97.898	19.355	-98.153	-8191	255	
28276.184	1	1	0	0	0.089471	0.1236	0.12254	0.29285	0.21396	0.22224	0.21323	0.39077	0.12302	0.19206	0.31726	0.21545	0.28764	0.3208	0.094453	0.17616	0.20833	-0.90208	-0.75833	-0.49167	-1.0167	-0.48333	-0.5125	-0.9	-0.2125	-0.73333	-1.0583	-0.15833	-1.0375	-0.71875	-0.45625	-1.0333	-106.187	222.975	136.294	-112.131	68.520	-114.747	177.694	125.626	1.448	144.844	-100.113	143.008	-74.070	-24.747	2.682	17.737	0.0002629	0.00053598	0.00010801	1367.6	5.9853e-07	5.6985e-06	1358	366.6	2.1694e-06	6.122e-06	415.27	136.91	118.85	41.124	3.141e-06	50.803	0.00069089	0.00090261	0.00026182	1378	9.6715e-06	1.0512e-05	1374	372.39	9.8984e-06	1.0599e-05	419.99	140.09	121.77	42.063	1.0234e-05	52.15	214.593	-18.028	-22.638	-111.013	-48.461	43.167	-111.235	-106.851	0.114	29.560	-106.972	-102.923	-102.339	-97.635	29.549	-98.078	-8191	255	
28276.303	1	1	0	0	0.11189	0.15116	0.047873	0.099959	0.035695	0.21851	0.17432	0.27578	0.26984	0.074244	0.070182	0.22402	0.087082	0.063035	0.082748	0.15702	0.09375	-0.55625	-0.92708	-0.375	-0.85208	-0.65208	-0.49375	-1.3271	-0.089583	-0.75417	-1.1479	-0.31042	-1.0063	-0.9625	-0.30208	-1.2563	-59.419	-23.189	-51.401	-17.304	-12.109	82.456	149.478	173.707	13.757	-92.625	207.459	190.547	-119.892	206.219	147.689	104.872	0.00026621	0.00042588	0.00013451	1370.5	1.3118e-06	4.5761e-06	1365.7	368.62	1.6173e-06	7.0456e-06	415.91	136.36	119.19	41.298	2.4913e-06	50.901	0.00071172	0.00093855	0.0002699	1381.3	9.9747e-06	1.0912e-05	1377.6	373.03	1.0649e-05	1.0991e-05	420.72	140.14	121.87	42.076	1.0641e-05	52.167	218.810	-31.922	-47.737	-110.965	32.620	28.219	-111.103	-106.356	21.502	16.293	-106.818	-103.066	-102.385	-97.703	-0.502	-97.868	-8191	255	
28276.398	1	1	0	0	0.3492	0.16753	0.24256	0.31391	0.081738	0.22483	0.3082	0.29715	0.18887	0.19359	0.1334	0.3546	0.17298	0.075806	0.070283	0.17884	0.11875	-0.44167	-1.0187	-0.5125	-0.97708	-0.70625	-0.51042	-1.0604	-0.56875	-0.42083	-1.1021	-0.2625	-1.0187	-0.94375	-0.17708	-1.1771	89.306	-58.926	-117.087	-119.037	166.768	31.060	172.120	199.227	54.933	35.348	186.187	220.491	-54.393	157.215	157.561	76.872	0.00026433	0.00044306	6.252e-05	1375.7	3.5184e-06	4.2299e-06	1365.7	369.8	2.8269e-06	4.2013e-06	414.6	136.55	119.59	41.243	2.8176e-06	51.173	0.00072708	0.0010037	0.00027788	1384.5	1.0206e-05	1.1168e-05	1381.1	374.45	1.0738e-05	1.1092e-05	420.8	140.08	122.24	42.167	1.0946e-05	52.32	209.698	-35.959	4.183	-110.990	19.182	46.569	-111.090	-106.560	14.117	51.175	-107.078	-103.287	-102.460	-97.789	20.944	-98.283	-8191	255	
28276.494	1	1	0	0	0.25966	0.15242	0.25542	0.25592	0.43299	0.27573	0.43311	0.2527	0.0663	0.16328	0.24977	0.27311	0.367	0.16687	0.12895	0.32526	-0.13333	-0.36667	-0.97083	-0.33542	-0.68958	-1.0125	-0.35625	-1.25	-0.4625	-0.38333	-1.0458	-0.36042	-0.79792	-0.9625	-0.2625	-1.275	-23.984	212.317	88.861	215.098	-89.562	142.082	200.813	113.557	214.713	9.593	-101.575	133.663	188.571	-117.043	-120.288	106.459	0.00026987	0.00053351	0.00012963	1382.5	3.381e-06	5.9197e-06	1371.2	369.85	1.7995e-06	3.4879e-06	413.67	136.4	118.55	41.199	4.3024e-06	51.089	0.00074319	0.00099886	0.00027339	1391.8	1.0225e-05	1.1308e-05	1386.2	375.18	1.0977e-05	1.1159e-05	419.99	139.95	121.72	42.044	1.1253e-05	52.141	213.634	-38.475	-2.860	-111.315	-8.965	25.446	-111.200	-106.552	7.848	14.117	-107.021	-102.964	-102.269	-97.700	-22.504	-98.233	-8191	255	
28276.615	1	1	0	0	0.12996	0.070083	0.17681	0.43502	0.10405	0.14586	0.16434	0.20538	0.14939	0.21416	0.2329	0.28363	0.36449	0.33979	0.13386	0.28282	-0.16042	-0.17917	-1.1333	-0.46458	-0.69375	-1.1708	-0.25417	-1.0292	-0.71667	-0.11875	-1.2375	-0.36875	-0.65208	-1.2771	0.029167	-1.1667	130.799	4.769	142.834	-122.175	-98.601	45.285	151.868	171.411	-45.735	-113.521	-94.555	181.845	221.403	218.136	126.532	165.241	0.00020676	0.00043857	0.00012121	1384.9	3.9547e-06	4.6438e-06	1371.8	368.71	3.6737e-06	3.5644e-06	417.07	136.41	119.04	41.257	2.8301e-06	51.238	0.00075192	0.0010575	0.00029672	1391.4	1.1143e-05	1.1564e-05	1387	375.45	1.1414e-05	1.1971e-05	421.83	140.2	121.87	42.173	1.161e-05	52.397	219.336	-24.646	-46.082	-111.169	32.970	16.468	-111.219	-106.471	1.571	21.727	-106.888	-102.823	-102.397	-97.598	-2.909	-98.308	-8191	255	
28276.686	1	1	0	0	0.073859	0.14374	0.08494	0.21069	0.019644	0.14384	0.30472	0.24612	0.1701	0.10435	0.10387	0.30662	0.36349	0.11608	0.20566	0.059756	-0.36667	-0.20833	-1.1479	-0.49792	-0.23125	-1.1083	-0.58542	-1.0396	-0.83125	-0.32708	-1.0625	-0.83542	-0.5	-1.3542	-0.32292	-0.97917	176.881	-79.212	-52.860	61.442	177.565	86.490	185.940	144.828	151.888	196.672	216.294	192.213	-98.811	200.374	144.422	56.272	0.00027369	0.0005525	0.00015874	1386.4	1.4223e-06	5.2623e-06	1381.5	370.91	3.1857e-06	4.3114e-06	417.41	137.05	119.51	41.469	2.8995e-06	51.177	0.00075687	0.0010659	0.00028866	1397.6	1.1094e-05	1.1728e-05	1395	377.25	1.112e-05	1.1794e-05	423.16	140.65	122.65	42.374	1.1687e-05	52.426	213.389	-43.417	-37.742	-111.337	25.279	20.656	-111.161	-106.563	7.997	26.709	-106.884	-102.837	-102.267	-97.494	15.887	-98.131	-8191	255	
28276.781	1	1	0	0	0.10834	0.19403	0.12469	0.21853	0.19055	0.21459	0.26531	0.32934	0.084536	0.24091	0.1794	0.18567	0.31079	0.43047	0.063673	0.053273	-0.525	-0.17292	-1.1958	-0.75208	-0.27083	-1.125	-0.49167	-1.0417	-1.0125	-0.10208	-1.2333	-0.74375	-0.26667	-1.1771	-0.3625	-0.51667	95.388	215.696	-40.012	198.028	-90.786	-86.455	-78.507	175.822	-114.270	92.534	-70.941	234.686	216.713	-112.851	100.061	4.307	0.00026311	0.00040919	0.0001441	1396.8	2.9575e-06	3.851e-06	1388.2	372.34	3.7474e-06	7.5108e-06	420.1	137.37	119.81	41.443	2.9776e-06	51.405	0.00076109	0.0010395	0.00029121	1406.5	1.1005e-05	1.1669e-05	1400.7	377.88	1.1233e-05	1.1749e-05	424.8	141.15	122.97	42.389	1.1452e-05	52.576	221.381	-43.748	-19.899	-111.401	-0.616	19.982	-111.483	-106.768	0.363	26.391	-107.248	-103.336	-102.562	-97.946	-35.251	-98.409	-8191	255	
28276.902	1	1	0	0	0.33025	0.20027	0.2496	0.35184	0.052693	0.22857	0.39547	0.2907	0.3828	0.24621	0.36882	0.141	0.18842	0.21268	0.12507	0.044956	-0.57708	-0.20417	-0.76042	-0.94583	-0.18542	-0.96042	-0.56667	-0.61667	-0.74792	-0.27917	-0.88958	-1.0187	-0.44167	-1.1583	-0.40208	-0.47083	-10.038	52.869	-80.571	217.223	204.375	-54.356	170.606	186.565	-108.173	8.300	125.148	231.455	-120.634	53.567	167.531	194.557	0.00026373	0.00036886	0.00015122	1397.8	2.5726e-06	4.922e-06	1384.8	370.62	2.9703e-06	4.3577e-06	421.25	137.23	119.65	41.698	2.8055e-06	51.239	0.00073299	0.0010389	0.0002975	1409.5	1.0787e-05	1.1791e-05	1403	377.27	1.1193e-05	1.1914e-05	424.55	141.1	122.81	42.447	1.1001e-05	52.565	221.822	-39.624	-38.249	-111.467	25.162	24.275	-111.485	-107.094	-27.038	31.253	-107.196	-103.052	-102.610	-97.911	23.356	-98.312	-8191	255	
28276.996	1	1	0	0	0.12812	0.31791	0.14887	0.17729	0.098498	0.092151	0.26385	0.23029	0.056118	0.06997	0.12922	0.17837	0.19512	0.21429	0.14134	0.076812	-0.89167	-0.075	-0.78958	-1.1521	-0.19167	-1.0312	-0.72083	-0.55208	-1.0729	-0.125	-0.775	-1.2146	-0.22708	-1.0583	-0.56042	-0.45208	-38.627	-44.357	-45.588	222.303	-5.246	35.062	171.805	131.731	-31.292	-17.675	-119.051	74.146	178.741	-98.041	28.654	171.589	0.00025321	0.00058333	0.00013223	1406.7	3.4877e-06	2.9343e-06	1386.3	369.89	4.2587e-06	5.4109e-06	417.64	137.46	119.95	41.726	2.4998e-06	51.608	0.00071739	0.0010185	0.00027984	1412.4	1.0452e-05	1.0512e-05	1402.2	376.25	1.0463e-05	1.0745e-05	423.53	141.04	122.95	42.552	1.0262e-05	52.669	214.481	-28.208	-27.420	-111.389	36.693	23.539	-111.457	-106.840	3.888	39.366	-107.182	-103.059	-102.376	-97.635	44.782	-98.145	-8191	255	
28277.094	1	1	0	0	0.34261	0.11449	0.18136	0.037653	0.11103	0.22336	0.15817	0.15826	0.023546	0.20658	0.24101	0.23935	0.11537	0.12071	0.22379	0.15464	-0.67292	-0.16875	-0.76042	-1.3521	-0.2125	-0.99792	-0.95417	-0.35625	-1.3042	-0.51458	-0.66042	-1.2792	-0.4	-1.0396	-0.88542	-0.18125	-25.970	-60.267	129.770	17.726	-44.134	201.669	184.217	141.285	134.282	-114.232	183.435	155.483	197.773	-68.988	-15.422	154.473	0.00023316	0.00028919	8.1923e-05	1405.5	4.3319e-06	3.2642e-06	1389.3	370.18	3.8338e-06	4.3493e-06	419.56	137.86	120.25	41.676	4.9395e-06	51.492	0.00070996	0.00099545	0.00027674	1413	1.0421e-05	1.1007e-05	1404.1	375.96	1.0519e-05	1.1165e-05	424.6	141.34	123.01	42.434	1.0832e-05	52.701	215.003	-78.690	-13.433	-111.515	-12.195	38.116	-111.783	-106.769	-4.244	52.132	-107.182	-103.325	-102.584	-97.957	34.724	-98.628	-8191	255	
28277.215	1	1	0	0	0.1352	0.14872	0.13768	0.25474	0.083031	0.22181	0.14827	0.38166	0.3302	0.20026	0.13712	0.2071	0.06413	0.097973	0.099501	0.16423	-0.9375	-0.375	-0.42917	-1.2979	-0.29792	-0.78958	-1.0458	-0.37083	-1.1229	-0.40208	-0.5625	-1.3854	-0.62708	-1.0021	-0.97292	-0.15833	27.011	-49.335	-84.241	218.720	155.826	140.177	221.467	193.349	161.890	-49.130	-81.357	162.291	168.708	195.162	137.239	226.121	0.00026365	0.00054521	0.0001387	1398.5	4.4807e-06	4.3451e-06	1382.1	370.55	2.7829e-06	5.2465e-06	419.35	136.83	119.97	41.8	2.3617e-06	51.414	0.00070438	0.001006	0.00028096	1408.9	1.0696e-05	1.1405e-05	1400.2	375.44	1.0379e-05	1.1331e-05	423.71	140.86	122.79	42.529	1.0868e-05	52.56	213.975	-25.587	-28.421	-111.401	7.573	26.089	-111.674	-106.731	4.212	31.389	-107.042	-103.300	-102.515	-97.935	44.484	-98.263	-8191	255	
28277.311	1	1	0	0	0.31181	0.088792	0.23448	0.15769	0.1858	0.12302	0.22205	0.10332	0.14435	0.19993	0.24072	0.058112	0.14669	0.099544	0.26058	0.26769	-0.80625	-0.72083	-0.275	-1.2625	-0.29167	-0.7875	-1.1208	-0.48958	-1.1812	-0.78333	-0.45	-1.3542	-0.68125	-0.87708	-1.1063	-0.48542	-115.265	8.977	-31.740	150.275	66.832	81.031	188.524	107.565	148.360	56.015	147.728	-85.931	194.082	208.966	108.773	-99.434	0.00026049	0.00042692	0.00012954	1401.7	3.3128e-06	4.7676e-06	1391.6	370.09	3.7641e-06	4.8784e-06	417.43	137.23	119.87	41.71	3.9572e-06	51.102	0.00071814	0.0010123	0.00027948	1409.1	1.0507e-05	1.1224e-05	1404.6	376.12	1.105e-05	1.1158e-05	423.82	141.06	122.75	42.474	1.0849e-05	52.467	211.966	-32.497	-59.356	-111.381	22.520	39.863	-111.489	-106.876	-25.339	17.962	-107.502	-103.510	-102.597	-97.775	12.371	-98.410	-8191	255	
28277.383	1	1	0	0	0.0223	0.051854	0.14621	0.18886	0.23031	0.084127	0.087391	0.07616	0.11422	0.2125	0.25613	0.029425	0.24615	0.19898	0.36215	0.1013	-0.6875	-0.86042	-0.25833	-1.3479	-0.32292	-0.61667	-1.2333	-0.41458	-0.95208	-0.82292	-0.17708	-1.2938	-0.45625	-0.74167	-1.1958	-0.39792	168.878	5.544	-94.269	120.802	-107.764	105.934	131.395	-120.932	188.902	33.870	196.518	8.786	206.638	184.812	221.803	183.941	0.000255	0.00041434	0.00014531	1401.2	1.5779e-06	5.2796e-06	1385.7	369.61	3.9768e-06	7.3812e-06	418.15	136.86	119.77	41.604	3.4949e-06	51.192	0.00072023	0.0010112	0.00027906	1410.9	1.0575e-05	1.0946e-05	1403.1	375.13	1.0657e-05	1.0919e-05	423.79	140.94	122.64	42.422	1.0617e-05	52.467	209.448	-58.083	-10.623	-111.568	24.031	29.979	-111.648	-106.959	-1.628	22.987	-107.026	-103.293	-102.612	-97.940	27.175	-98.500	-8191	255	
28277.479	1	1	0	0	0.21877	0.22656	0.20735	0.2976	0.15706	0.060374	0.39989	0.19272	0.086933	0.081473	0.02836	0.31612	0.035291	0.16389	0.13342	0.33684	-0.53958	-0.92917	-0.29792	-1.15	-0.49583	-0.57708	-1.3083	-0.33958	-0.78333	-0.975	-0.2625	-1.1167	-0.63333	-0.63125	-1.1292	-0.43542	-102.606	73.009	-42.241	187.424	-33.063	-92.789	194.108	-81.418	-113.886	-22.929	-44.795	192.310	-62.340	-109.745	-71.730	-122.341	0.00026257	0.0004725	0.00013398	1397.4	4.4019e-06	4.7795e-06	1384.5	369.5	3.4836e-06	7.154e-06	416.51	136.74	119.59	41.453	2.1288e-06	50.962	0.00072253	0.00098443	0.00028403	1406.8	1.0526e-05	1.1288e-05	1400.5	375.26	1.0776e-05	1.1394e-05	422.73	140.73	122.61	42.395	1.0607e-05	52.367	218.884	-55.065	-69.533	-111.337	36.705	64.557	-111.352	-106.916	8.665	46.736	-107.199	-103.300	-102.589	-97.640	52.565	-98.452	-8191	255	
28277.600	1	1	0	0	0.19152	0.15252	0.15784	0.27552	0.25721	0.02899	0.55228	0.36644	0.20206	0.18587	0.1844	0.21705	0.30647	0.2581	0.074307	0.080943	-0.25208	-0.88125	-0.25625	-1.1021	-0.7	-0.41042	-1.4521	-0.46667	-0.75625	-0.99583	-0.1875	-1.2563	-0.93542	-0.46875	-1.1375	-0.525	-64.322	-31.935	-90.904	207.948	5.023	75.266	182.506	-72.687	-25.063	231.736	198.396	155.684	-100.181	159.201	70.269	186.981	0.00025702	0.00055741	0.00012022	1401.7	5.3113e-06	4.7895e-06	1387.7	369.74	2.2791e-06	6.6103e-06	417.11	137.5	120.17	41.555	3.2738e-06	51.27	0.00072734	0.00097773	0.00027762	1408.7	1.05e-05	1.1238e-05	1401.9	375.29	1.061e-05	1.0969e-05	423.52	140.96	122.9	42.441	1.0679e-05	52.592	219.457	-24.534	-33.990	-111.537	41.743	4.746	-111.512	-107.019	-26.993	21.955	-107.486	-103.302	-102.687	-97.788	15.614	-98.433	-8191	255	
28277.695	1	1	0	0	0.016763	0.18048	0.12397	0.16789	0.074634	0.11793	0.16616	0.19114	0.4812	0.14345	0.20047	0.31251	0.18095	0.017696	0.28903	0.12762	-0.05	-1.0396	-0.33542	-1.1063	-0.85833	-0.19167	-1.3208	-0.63542	-0.45833	-1.1521	-0.19792	-1.0812	-1.0417	-0.28958	-1.0521	-0.71875	120.546	182.930	-87.448	211.631	216.611	213.405	90.157	197.928	166.378	145.513	-29.924	152.222	-107.160	119.167	-81.728	69.169	0.0002408	0.00046874	0.00017125	1399.2	2.383e-06	4.5801e-06	1391.2	369.2	2.7715e-06	6.1008e-06	418.28	138.31	119.79	41.488	4.2724e-06	51.276	0.00073224	0.00097361	0.00028861	1409.4	1.0529e-05	1.1194e-05	1405.7	375.42	1.0626e-05	1.0887e-05	423.72	141.15	122.87	42.44	1.0324e-05	52.712	210.095	-33.932	-37.313	-111.642	24.769	18.311	-111.531	-106.826	-10.309	38.390	-107.624	-103.170	-102.962	-97.827	35.689	-98.542	-8191	255	
28277.791	1	1	0	0	0.10704	0.041788	0.091805	0.21363	0.26162	0.1451	0.33725	0.1824	0.21156	0.26025	0.16126	0.075997	0.097293	0.13784	0.17443	0.14602	-0.30208	-1.0167	-0.14167	-1.1729	-0.94583	-0.16042	-1.1417	-0.7375	-0.47708	-0.9375	-0.35417	-0.64167	-0.9625	-0.16458	-1.0208	-0.77917	-63.108	-112.975	-91.291	164.058	-33.871	28.309	174.814	212.062	101.305	97.635	-124.823	213.869	181.065	179.391	214.365	142.404	0.00023718	0.00053811	0.00013903	1404	3.4029e-06	6.2304e-06	1387.9	368.89	2.5544e-06	3.7578e-06	420.11	137.84	120.12	41.556	3.0967e-06	51.318	0.0007348	0.00098544	0.00028295	1411.6	1.0215e-05	1.1193e-05	1405	374.86	1.0476e-05	1.1052e-05	424.57	141.24	122.95	42.485	1.0706e-05	52.656	213.629	-21.836	-47.498	-111.489	30.493	33.581	-111.445	-107.052	11.414	-12.645	-107.114	-103.288	-102.820	-97.945	27.377	-98.580	-8191	255	
28277.887	1	1	0	0	0.33402	0.25278	0.17755	0.38068	0.25054	0.12871	0.11611	0.26782	0.29007	0.14869	0.30544	0.066342	0.031306	0.18573	0.38864	0.029974	0.010417	-1.0187	-0.325	-0.74167	-1.0229	-0.29375	-1.1917	-0.78542	-0.225	-1.0125	-0.59375	-0.66875	-1.0583	-0.2	-0.81667	-0.88125	-3.648	105.252	21.686	219.084	-105.954	112.579	164.992	132.795	192.231	164.072	151.965	162.682	180.347	225.879	-95.278	129.160	0.00026796	0.0006912	0.00018182	1403.3	3.4566e-06	5.3356e-06	1392.6	369.7	4.8405e-06	5.6371e-06	419	138.01	119.96	41.556	5.5764e-06	51.543	0.00071359	0.00097933	0.00028931	1412.5	1.0585e-05	1.1422e-05	1407.5	375.71	1.0635e-05	1.1063e-05	424.61	141.28	123.02	42.475	1.0685e-05	52.643	216.791	-40.644	-24.580	-111.315	10.025	18.819	-111.373	-106.946	-2.762	41.188	-107.253	-103.218	-102.555	-98.046	21.681	-98.547	-8191	255	
28277.982	1	1	0	0	0.1998	0.23021	0.088219	0.16045	0.17138	0.17755	0.36315	0.26959	0.23801	0.063953	0.065327	0.17593	0.072151	0.17099	0.1583	0.15478	0.12292	-1.0792	-0.51042	-0.60208	-0.94583	-0.029167	-1.1896	-0.97917	-0.18125	-1.1104	-0.69167	-0.475	-1.0938	-0.24583	-0.56875	-1.0458	142.971	-38.667	106.249	-102.772	55.735	133.423	126.005	138.632	106.785	-63.117	175.571	198.935	174.684	-112.065	216.847	102.076	0.00025626	0.00028704	0.00010829	1403.5	1.9846e-06	8.1912e-06	1386.9	369.31	1.695e-06	5.9027e-06	417.96	138.2	120.24	41.772	3.4121e-06	51.264	0.00073175	0.00097571	0.00028477	1412.5	1.0352e-05	1.1441e-05	1405.5	375.04	1.0574e-05	1.1353e-05	424.59	141.41	123.14	42.518	1.1087e-05	52.657	214.497	-22.718	-78.738	-111.288	4.482	14.792	-111.482	-106.890	13.611	38.214	-106.986	-103.293	-102.677	-97.768	-2.284	-98.612	-8191	255	
28278.078	1	1	0	0	0.061289	0.20175	0.12177	0.38425	0.28619	0.20519	0.30205	0.18491	0.022473	0.13812	0.31286	0.19266	0.20918	0.11423	0.35617	0.19419	0.34792	-0.96667	-0.57083	-0.58958	-1.1313	-0.325	-1.0187	-1.1375	0.070833	-1.0229	-0.68125	-0.25	-1.2771	-0.47083	-0.6625	-1.125	133.374	-27.713	-96.376	197.772	-87.694	161.514	140.863	167.648	145.493	151.588	139.578	-110.658	-89.481	163.275	3.091	-3.376	0.00025428	0.00047978	0.00013122	1406.2	1.8934e-06	6.0202e-06	1389.7	369.89	4.2886e-06	6.7439e-06	419.15	137.45	119.67	41.817	4.2281e-06	51.17	0.00072476	0.00097748	0.00028832	1415.2	1.023e-05	1.1494e-05	1405.7	375.25	1.0743e-05	1.1026e-05	425.25	141.24	122.83	42.512	1.0761e-05	52.665	219.052	-49.134	-51.276	-111.389	-0.682	21.646	-111.380	-106.652	-1.155	36.879	-107.200	-103.015	-102.533	-97.870	21.838	-98.431	-8191	255	
28278.176	1	1	0	0	0.11084	0.19372	0.10095	0.33345	0.14823	0.32167	0.36557	0.050109	0.16729	0.053901	0.20738	0.31077	0.28171	0.086252	0.10896	0.24156	0.20417	-1.0938	-0.7	-0.47292	-1.0438	-0.44792	-0.82708	-1.075	-0.17292	-0.89792	-0.88333	-0.42917	-1.1521	-0.50833	-0.40625	-1.2083	28.171	203.198	166.147	-7.055	139.720	-94.100	185.616	0.712	105.864	96.733	-116.835	-65.860	-103.108	-26.496	-13.259	216.144	0.00026035	0.0003502	7.8755e-05	1402.2	4.515e-06	4.9136e-06	1393	368.89	3.8544e-06	6.1257e-06	419.13	137.92	120.14	41.548	3.8696e-06	51.275	0.00073651	0.00098156	0.00028278	1412.9	1.0405e-05	1.153e-05	1407.2	374.82	1.0798e-05	1.0874e-05	424.44	141.42	123.04	42.467	1.0736e-05	52.618	215.789	-24.450	-41.224	-111.247	-6.651	44.057	-111.317	-106.945	-21.275	52.014	-107.181	-103.149	-102.771	-97.927	33.976	-98.324	-8191	255	
28278.295	1	1	0	0	0.14475	0.24163	0.18408	0.33264	0.11528	0.099166	0.35058	0.15678	0.28925	0.1592	0.20904	0.36207	0.070532	0.19012	0.09621	0.17405	0.3125	-0.88542	-0.90417	-0.44167	-1.1771	-0.48542	-0.58958	-1.375	-0.17083	-0.63125	-1.2104	-0.375	-0.99792	-0.75	-0.17917	-1.2729	127.329	201.939	-78.962	193.682	97.192	95.101	-111.200	159.874	-75.122	65.820	-99.013	206.077	-115.315	-60.672	-7.077	-83.983	0.00024101	0.00049832	0.00016351	1401	2.1019e-06	4.7575e-06	1386.4	369.6	3.9983e-06	5.2863e-06	417.63	137.36	119.82	41.632	3.7148e-06	51.547	0.00073062	0.00097988	0.00027801	1410.8	1.0254e-05	1.1373e-05	1403.4	375.67	1.0659e-05	1.1219e-05	423.47	141.15	122.89	42.525	1.0591e-05	52.74	214.722	-49.206	-29.360	-111.424	32.073	39.880	-111.416	-106.819	-6.291	45.955	-107.695	-103.423	-102.691	-98.032	26.549	-98.301	-8191	255	
28278.391	1	1	0	0	0.16028	0.050165	0.1175	0.30538	0.26658	0.13711	0.40096	0.18175	0.044869	0.064996	0.11478	0.31575	0.18526	0.035982	0.2946	0.11686	-0.04375	-0.80417	-1.0708	-0.27708	-1.0708	-0.6375	-0.47292	-1.2604	-0.3375	-0.50417	-1.1604	-0.225	-1.025	-0.70208	-0.1125	-1.1562	150.235	177.453	-71.686	195.800	200.596	130.911	171.131	-107.368	-53.727	-70.670	192.599	211.856	-64.819	-63.687	57.150	229.278	0.00026208	0.00060743	0.00020236	1399.6	3.9437e-06	4.4425e-06	1390.4	369.69	3.1692e-06	3.1808e-06	414.8	137.45	120.16	41.361	5.1178e-06	51.322	0.00073158	0.00097458	0.0002828	1410.9	1.0421e-05	1.1416e-05	1405	375.33	1.0686e-05	1.0562e-05	423.12	140.99	123.01	42.376	1.0546e-05	52.662	215.048	-43.365	-28.049	-111.401	3.353	29.817	-111.314	-106.729	9.066	5.642	-107.223	-103.273	-102.560	-97.906	18.721	-98.544	-8191	255	
28278.486	1	1	0	0	0.17081	0.14414	0.14317	0.27924	0.24085	0.058904	0.26431	0.2815	0.1516	0.16958	0.27987	0.13387	0.2314	0.092279	0.16357	0.21585	-0.060417	-0.56042	-1.0854	-0.50417	-0.69583	-0.70208	-0.35417	-1.2229	-0.45208	-0.62708	-1.1187	-0.275	-0.88125	-0.98542	-0.10417	-1.1417	-87.261	100.037	216.388	192.770	213.902	-97.403	199.172	189.521	-42.817	228.812	-78.873	-120.170	205.313	-78.016	-69.537	118.629	0.00027939	0.00046873	0.00013141	1400.9	2.5203e-06	5.327e-06	1389.9	368.76	1.6867e-06	5.4619e-06	418.93	137.83	120.13	41.651	1.9685e-06	51.266	0.00072112	0.00096385	0.0002744	1411	1.0428e-05	1.0967e-05	1403.7	374.7	1.0417e-05	1.0797e-05	424.73	141.06	122.81	42.453	1.0329e-05	52.628	220.192	-69.225	-28.208	-111.369	40.974	33.269	-111.362	-106.745	-3.904	31.944	-107.156	-103.253	-102.642	-97.882	-38.168	-98.387	-8191	255	
28278.582	1	1	0	0	0.3274	0.28885	0.064652	0.28839	0.0049641	0.24277	0.050572	0.3548	0.28179	0.21047	0.16851	0.31961	0.3371	0.13366	0.042754	0.16033	-0.13125	-0.31875	-1.2271	-0.34583	-0.72083	-0.96042	-0.23125	-1.1479	-0.39583	-0.375	-1.2604	-0.26875	-0.58333	-1.0146	-0.2	-1.0458	127.396	208.927	100.243	-96.400	-19.364	29.214	162.460	176.881	79.782	-78.569	211.086	216.345	163.296	-86.013	-90.179	-88.694	0.00026644	0.00037665	0.00014555	1401.3	3.9236e-06	5.4838e-06	1386.5	368.07	4.4454e-06	4.6922e-06	416.62	137.24	120.07	41.509	4.0935e-06	51.42	0.00070752	0.00094992	0.00027413	1408.6	1.006e-05	1.0806e-05	1403.3	374.76	1.0538e-05	1.0808e-05	422.91	140.99	122.81	42.421	1.0801e-05	52.676	215.076	-52.208	-42.269	-111.462	33.072	22.044	-111.352	-106.757	-8.782	31.315	-107.269	-103.357	-102.689	-98.208	38.360	-98.396	-8191	255	
28278.680	1	1	0	0	0.27413	0.14504	0.28928	0.22898	0.18413	0.27596	0.3804	0.2807	0.19751	0.20026	0.27096	0.33625	0.10423	0.073596	0.16941	0.02146	-0.30208	-0.19375	-1.1604	-0.5875	-0.68125	-0.84583	-0.32292	-1.0792	-0.91875	-0.41875	-1.4396	-0.47083	-0.44375	-1.1625	-0.14375	-0.95625	-0.514	154.113	-34.364	188.943	215.854	-15.626	139.935	168.532	-92.128	-102.505	226.726	159.868	179.779	229.793	86.368	-82.950	0.00024371	0.00020266	8.6773e-05	1402	2.7387e-06	4.4114e-06	1385.6	369.5	2.9378e-06	6.8936e-06	419.21	137.78	120.43	41.616	3.5348e-06	51.413	0.0007268	0.00098278	0.00026953	1410	1.016e-05	1.063e-05	1402	374.86	1.0457e-05	1.1117e-05	424.24	141.06	123	42.458	1.0761e-05	52.709	217.365	-48.065	-40.254	-111.504	27.499	9.349	-111.334	-106.794	19.099	43.171	-107.189	-103.498	-102.499	-98.058	22.319	-98.402	-8191	255	
28278.775	1	1	0	0	0.178	0.28557	0.11028	0.45048	0.14964	0.37395	0.34042	0.24239	0.34572	0.24415	0.4066	0.15661	0.081765	0.19119	0.089501	0.22438	-0.38958	-0.25208	-1.0708	-0.72292	-0.37708	-1.1708	-0.45833	-1.0063	-0.79167	-0.16875	-1.2812	-0.41458	-0.54375	-0.9875	-0.22708	-0.9	-92.582	188.290	216.513	218.213	0.105	-71.888	130.185	189.856	136.330	-52.901	-114.371	125.464	219.673	222.308	224.734	118.892	0.00024942	0.00045721	0.00011965	1401.1	3.8569e-06	5.2356e-06	1391.7	370.08	3.0347e-06	6.2382e-06	421.21	137.4	119.9	41.708	3.4618e-06	51.428	0.00072307	0.00097614	0.00027003	1412.2	1.0203e-05	1.0719e-05	1405.9	375.08	1.0437e-05	1.0952e-05	425.25	141.09	122.95	42.587	1.0456e-05	52.734	213.842	-48.274	-28.351	-111.385	40.006	29.154	-111.616	-106.716	-12.043	28.769	-107.138	-103.187	-102.588	-98.055	2.166	-98.262	-8191	255	
28278.896	1	1	0	0	0.10104	0.31426	0.12344	0.27506	0.1711	0.29379	0.30228	0.3494	0.23943	0.26589	0.30486	0.36107	0.18499	0.11327	0.33494	0.10389	-0.56875	-0.24375	-0.91458	-0.93333	-0.095833	-1.0729	-0.4875	-0.99167	-0.82083	-0.25417	-0.99375	-0.77708	-0.5875	-1.2354	-0.34583	-0.9375	77.001	-76.821	16.719	178.508	-68.150	-48.321	152.726	220.748	210.950	-56.262	219.311	212.801	177.697	-114.456	117.449	18.864	0.00026576	0.00034412	0.000139	1404.6	2.6863e-06	2.5763e-06	1388.4	370.35	4.1996e-06	4.7622e-06	418.93	137.87	120.05	41.773	2.5541e-06	51.587	0.00070651	0.00095863	0.00027014	1413.8	1.0435e-05	1.0956e-05	1404.1	374.98	1.039e-05	1.1334e-05	424.15	141.1	123.02	42.575	1.0975e-05	52.713	217.687	-51.690	-14.524	-111.497	5.749	58.572	-111.591	-106.826	-9.456	9.208	-107.036	-103.357	-102.605	-97.918	-4.075	-98.537	-8191	255	
28278.990	1	1	0	0	0.15326	0.28274	0.2948	0.2636	0.16709	0.15155	0.19398	0.42982	0.090376	0.16757	0.22942	0.19676	0.27393	0.19578	0.015802	0.20447	-0.61875	-0.13125	-0.81042	-0.93125	-0.1875	-1.0958	-0.58958	-0.7375	-1.2042	-0.28125	-0.8875	-0.9375	-0.40625	-1.2104	-0.475	-0.52083	212.821	206.213	-2.556	155.030	82.472	109.299	79.070	226.067	-63.665	159.401	-68.380	47.834	226.602	-14.154	211.957	148.150	0.00025693	0.00065157	0.00020001	1403	2.364e-06	4.624e-06	1393.7	369.44	3.2988e-06	4.6983e-06	420.14	138.38	120.27	41.595	4.8691e-06	51.54	0.00071273	0.00099911	0.00026983	1411.6	1.0256e-05	1.0829e-05	1405.9	375.31	1.0374e-05	1.1104e-05	425.5	141.39	123.17	42.551	1.0941e-05	52.808	217.762	-29.058	-27.832	-111.382	17.432	16.341	-111.681	-106.799	-1.525	29.899	-107.177	-103.401	-102.419	-97.854	15.032	-98.297	-8191	255	
28279.086	1	1	0	0	0.031841	0.18304	0.29168	0.33669	0.35211	0.22064	0.14249	0.21616	0.19721	0.16313	0.31483	0.093937	0.24899	0.34477	0.083263	0.24916	-0.80208	-0.21458	-0.775	-1.0708	-0.072917	-1.0875	-0.70417	-0.47708	-1.2042	-0.34583	-0.67292	-1.1375	-0.18542	-1.0271	-0.55208	-0.20417	-104.400	27.264	-59.923	225.198	-16.507	-2.428	199.922	213.982	19.681	18.516	188.290	225.571	181.295	227.154	159.675	109.219	0.00025785	0.00048659	0.00012633	1406.4	2.7197e-06	4.0046e-06	1390.5	369.92	2.5541e-06	4.9345e-06	418.79	138.56	119.96	41.779	2.4773e-06	51.356	0.00071423	0.001042	0.00027735	1413.2	1.0672e-05	1.1154e-05	1406.6	375.19	1.0579e-05	1.153e-05	425.06	141.55	123.16	42.627	1.098e-05	52.661	219.217	-17.704	-18.544	-111.544	16.392	34.369	-111.528	-106.944	-39.432	35.017	-107.264	-103.242	-102.547	-97.817	35.313	-98.251	-8191	255	
28279.184	1	1	0	0	0.17771	0.17119	0.070288	0.51447	0.21684	0.17963	0.17101	0.22035	0.27625	0.083773	0.22149	0.12281	0.21771	0.085059	0.26383	0.089106	-0.61875	-0.072917	-0.6375	-1.2083	-0.17083	-0.93542	-0.90208	-0.5	-1.1	-0.45625	-0.65	-1.1042	-0.29583	-1.0396	-0.77708	-0.37708	-18.747	52.989	183.954	187.129	85.796	150.971	217.632	161.793	102.981	75.200	198.043	-66.373	-90.768	-63.096	1.725	191.895	0.00025588	0.00040924	0.00013865	1401.2	3.2379e-06	3.8469e-06	1390.5	369.23	2.5833e-06	3.9215e-06	420.32	138.1	119.91	41.73	5.0103e-06	51.642	0.00071491	0.000996	0.00027721	1412.7	1.0721e-05	1.1019e-05	1407.7	375.02	1.0568e-05	1.1464e-05	425.54	141.47	123.09	42.571	1.1104e-05	52.829	217.803	-41.375	-13.744	-111.216	16.183	18.497	-111.627	-106.898	-8.332	48.298	-107.286	-103.177	-102.651	-97.705	-7.891	-98.664	-8191	255	
28279.279	1	1	0	0	0.15604	0.1439	0.057203	0.22089	0.055567	0.20903	0.16268	0.17586	0.18435	0.058808	0.1919	0.18591	0.17659	0.25247	0.1888	0.2351	-0.77708	-0.27292	-0.51042	-1.3646	-0.28958	-0.75833	-0.85208	-0.31875	-0.92917	-0.72083	-0.81042	-1.1167	-0.26875	-0.88542	-0.93958	-0.32917	168.234	117.841	190.091	226.448	47.615	78.457	150.241	-113.383	-23.799	218.363	197.472	221.899	-85.645	111.984	170.411	-109.676	0.00025333	0.00058981	7.0669e-05	1409	4.3324e-06	5.5046e-06	1390.9	368.74	2.8238e-06	5.4087e-06	421.19	137.69	119.88	41.622	1.9796e-06	51.375	0.00072708	0.0010206	0.00028358	1417.2	1.0659e-05	1.121e-05	1407.7	374.64	1.0762e-05	1.1306e-05	426.38	141.4	123.22	42.589	1.0728e-05	52.719	216.779	-23.748	-4.894	-111.516	32.936	6.429	-111.621	-106.779	-9.636	30.424	-107.388	-103.254	-102.633	-98.102	-1.746	-98.654	-8191	255	
#DATA ENDS
