BOXY.EXE: ISS Imagent and Oximeter Data Acquisition Program Version 0.80
Ascii Record File

#ACQ INFORMATION
2  Detector Channels 
16  External MUX Channels 
1  Auxiliary Channels 
5000  Waveform (CCF) Frequency (Hz)
1  Waveforms Skipped 
30  Waveforms Averaged 
1  Cycles Averaged 
16  Acquisitions per Waveform 
10.0806  Updata Rate (Hz) 

#FILE INFORMATION
TRUE -- External MUX Channel results are PARSED.
FALSE -- AC DC and Phase are NOT grouped.
TRUE -- Companion Program Settings File CREATED.
FALSE -- AC data not excluded
FALSE -- DC data not excluded
FALSE -- Phase data not excluded
FALSE -- Auxillary Chn. data not excluded
Tab delimiters

#CALIBRATION STATE
TRUE -- Waveform Calibration Values APPLIED.


#AUX CALIBRATION VALUES
Val Type	aux-1	

Term	1.0000e+00	
Factor	0.0000e+00	


#WF CALIBRATION VALUES
A = Detector Channel
Val Type	A-AC1	A-AC2	A-AC3	A-AC4	A-AC5	A-AC6	A-AC7	A-AC8	A-AC9	A-AC10	A-AC11	A-AC12	A-AC13	A-AC14	A-AC15	A-AC16	A-DC1	A-DC2	A-DC3	A-DC4	A-DC5	A-DC6	A-DC7	A-DC8	A-DC9	A-DC10	A-DC11	A-DC12	A-DC13	A-DC14	A-DC15	A-DC16	A-Ph1	A-Ph2	A-Ph3	A-Ph4	A-Ph5	A-Ph6	A-Ph7	A-Ph8	A-Ph9	A-Ph10	A-Ph11	A-Ph12	A-Ph13	A-Ph14	A-Ph15	A-Ph16	

Term	0.00000e+00	0.00000e+00	0.00000e+00	0.00000e+00	0.00000e+00	0.00000e+00	0.00000e+00	0.00000e+00	0.00000e+00	0.00000e+00	0.00000e+00	0.00000e+00	0.00000e+00	0.00000e+00	0.00000e+00	0.00000e+00	0.00000e+00	0.00000e+00	0.00000e+00	0.00000e+00	0.00000e+00	0.00000e+00	0.00000e+00	0.00000e+00	0.00000e+00	0.00000e+00	0.00000e+00	0.00000e+00	0.00000e+00	0.00000e+00	0.00000e+00	0.00000e+00	0.00000e+00	0.00000e+00	0.00000e+00	0.00000e+00	0.00000e+00	0.00000e+00	0.00000e+00	0.00000e+00	0.00000e+00	0.00000e+00	0.00000e+00	0.00000e+00	0.00000e+00	0.00000e+00	0.00000e+00	0.00000e+00	
Factor	1.00000e+00	1.00000e+00	1.00000e+00	1.00000e+00	1.00000e+00	1.00000e+00	1.00000e+00	1.00000e+00	1.00000e+00	1.00000e+00	1.00000e+00	1.00000e+00	1.00000e+00	1.00000e+00	1.00000e+00	1.00000e+00	1.00000e+00	1.00000e+00	1.00000e+00	1.00000e+00	1.00000e+00	1.00000e+00	1.00000e+00	1.00000e+00	1.00000e+00	1.00000e+00	1.00000e+00	1.00000e+00	1.00000e+00	1.00000e+00	1.00000e+00	1.00000e+00	X	X	X	X	X	X	X	X	X	X	X	X	X	X	X	X	

B = Detector Channel
Val Type	B-AC1	B-AC2	B-AC3	B-AC4	B-AC5	B-AC6	B-AC7	B-AC8	B-AC9	B-AC10	B-AC11	B-AC12	B-AC13	B-AC14	B-AC15	B-AC16	B-DC1	B-DC2	B-DC3	B-DC4	B-DC5	B-DC6	B-DC7	B-DC8	B-DC9	B-DC10	B-DC11	B-DC12	B-DC13	B-DC14	B-DC15	B-DC16	B-Ph1	B-Ph2	B-Ph3	B-Ph4	B-Ph5	B-Ph6	B-Ph7	B-Ph8	B-Ph9	B-Ph10	B-Ph11	B-Ph12	B-Ph13	B-Ph14	B-Ph15	B-Ph16	

Term	0.00000e+00	0.00000e+00	0.00000e+00	0.00000e+00	0.00000e+00	0.00000e+00	0.00000e+00	0.00000e+00	0.00000e+00	0.00000e+00	0.00000e+00	0.00000e+00	0.00000e+00	0.00000e+00	0.00000e+00	0.00000e+00	0.00000e+00	0.00000e+00	0.00000e+00	0.00000e+00	0.00000e+00	0.00000e+00	0.00000e+00	0.00000e+00	0.00000e+00	0.00000e+00	0.00000e+00	0.00000e+00	0.00000e+00	0.00000e+00	0.00000e+00	0.00000e+00	-9.65827e+01	-1.43805e+02	-1.39444e+02	-1.81677e+02	-5.59979e+01	-8.92971e+01	-1.59950e+02	-1.62015e+02	-5.08740e+01	-7.88643e+01	-1.72352e+02	-1.71128e+02	-1.81284e+02	-1.77091e+02	-7.77532e+01	-1.49524e+02	
Factor	1.36684e-05	1.02022e-04	2.72554e-05	1.62761e-01	7.49054e-07	1.57017e-06	1.72592e-01	4.32996e-02	7.46595e-07	8.31903e-07	7.37064e-02	2.64361e-02	3.12763e-02	7.71586e-03	1.03788e-06	1.11046e-02	1.01505e-06	1.06720e-06	2.95085e-07	8.33522e-02	1.16206e-08	1.16285e-08	8.30791e-02	2.23858e-02	1.15920e-08	1.16152e-08	3.63287e-02	1.30762e-02	1.58931e-02	3.95424e-03	1.15352e-08	5.46625e-03	X	X	X	X	X	X	X	X	X	X	X	X	X	X	X	X	



#DISTANCE SETTINGS
A = Detector Channel
A-1	A-2	A-3	A-4	A-5	A-6	A-7	A-8	A-9	A-10	A-11	A-12	A-13	A-14	A-15	A-16	

2.5000e+00	3.0000e+00	2.5000e+00	3.0000e+00	2.0000e+00	3.0000e+00	1.5000e+00	3.0000e+00	3.0000e+00	3.0000e+00	3.0000e+00	3.0000e+00	3.0000e+00	3.0000e+00	1.5000e+00	3.0000e+00	

B = Detector Channel
B-1	B-2	B-3	B-4	B-5	B-6	B-7	B-8	B-9	B-10	B-11	B-12	B-13	B-14	B-15	B-16	

1.0000e+01	1.0000e+01	1.0000e+01	1.4400e+00	1.0000e+01	1.0000e+01	1.5100e+00	1.9400e+00	1.0000e+01	1.0000e+01	1.9900e+00	2.4900e+00	2.4100e+00	2.9000e+00	1.0000e+01	2.9800e+00	




#DATA BEGINS
time	group	step	mark	flag	A-AC1	A-AC2	A-AC3	A-AC4	A-AC5	A-AC6	A-AC7	A-AC8	A-AC9	A-AC10	A-AC11	A-AC12	A-AC13	A-AC14	A-AC15	A-AC16	A-DC1	A-DC2	A-DC3	A-DC4	A-DC5	A-DC6	A-DC7	A-DC8	A-DC9	A-DC10	A-DC11	A-DC12	A-DC13	A-DC14	A-DC15	A-DC16	A-Ph1	A-Ph2	A-Ph3	A-Ph4	A-Ph5	A-Ph6	A-Ph7	A-Ph8	A-Ph9	A-Ph10	A-Ph11	A-Ph12	A-Ph13	A-Ph14	A-Ph15	A-Ph16	B-AC1	B-AC2	B-AC3	B-AC4	B-AC5	B-AC6	B-AC7	B-AC8	B-AC9	B-AC10	B-AC11	B-AC12	B-AC13	B-AC14	B-AC15	B-AC16	B-DC1	B-DC2	B-DC3	B-DC4	B-DC5	B-DC6	B-DC7	B-DC8	B-DC9	B-DC10	B-DC11	B-DC12	B-DC13	B-DC14	B-DC15	B-DC16	B-Ph1	B-Ph2	B-Ph3	B-Ph4	B-Ph5	B-Ph6	B-Ph7	B-Ph8	B-Ph9	B-Ph10	B-Ph11	B-Ph12	B-Ph13	B-Ph14	B-Ph15	B-Ph16	aux-1	digaux	

3862.276	1	1	0	256	0.10196	0.25641	0.15613	0.38918	0.28002	0.042773	0.13307	0.057347	0.12608	0.15047	0.34441	0.10664	0.20015	0.42893	0.053638	0.067138	-0.40625	-0.12292	-0.2	-0.71667	0.047917	-0.62708	-0.60833	0.064583	-0.65208	-0.13958	-0.18125	-0.63333	0.225	-0.7375	-0.62292	-0.19375	423.686	529.991	258.206	456.511	235.001	506.417	474.233	333.949	255.788	500.463	472.515	259.501	484.043	505.307	205.904	439.338	0.00039382	0.00035419	6.645e-05	483.86	5.7405e-06	1.0333e-05	643.94	161.35	2.7387e-06	2.433e-06	261.38	93.035	48.424	18.578	5.19e-06	42.401	0.0012335	0.0013642	0.00035402	589.99	1.4578e-05	1.6062e-05	764.84	193.14	1.5436e-05	1.5903e-05	309.38	110.48	68.759	24.084	1.4405e-05	49.454	225.098	231.373	314.637	191.842	262.358	296.170	191.269	196.944	250.015	274.689	195.740	200.187	199.901	206.454	216.448	204.655	-8191	255	
3862.372	1	1	0	0	0.13428	0.039281	0.080515	0.090741	0.063658	0.22873	0.087917	0.25985	0.14826	0.11574	0.27099	0.29407	0.2113	0.13548	0.025716	0.088651	-0.64583	-0.37083	-0.22292	-1	-0.25625	-0.65	-0.81458	-0.13542	-0.80833	-0.24583	-0.14375	-0.87292	0.089583	-0.20208	-0.5	-0.18958	519.379	281.977	490.195	207.049	289.356	272.973	195.219	489.826	191.564	326.017	514.920	189.313	460.299	296.002	359.980	386.320	0.00052451	7.7153e-05	0.00013153	484.69	2.6663e-06	9.7864e-06	646.06	162.85	2.8629e-06	8.6198e-06	262.68	93.604	48.807	18.622	3.5364e-06	42.286	0.0013732	0.0014603	0.00038162	599.47	1.6079e-05	1.5973e-05	765.53	194.48	1.5883e-05	1.5542e-05	311.45	111.54	70.322	24.236	1.4931e-05	50.006	233.054	484.513	224.274	191.689	292.267	402.150	191.439	196.763	529.800	334.692	195.926	200.340	200.337	206.061	315.298	205.068	-8191	255	
3862.469	1	1	0	0	0.21395	0.21672	0.31907	0.19794	0.18387	0.099601	0.14735	0.043453	0.082646	0.15228	0.091024	0.2046	0.091882	0.10559	0.12773	0.04042	-0.47292	-0.5	-0.18958	-0.925	-0.03125	-0.37917	-0.775	-0.05	-0.55208	-0.4125	-0.20625	-0.78125	-0.0875	-0.3	-0.68333	-0.24583	337.760	280.894	527.147	350.931	471.457	415.218	389.339	491.776	250.267	266.526	224.555	181.138	371.686	537.294	358.483	350.601	0.00038234	0.00087816	8.7205e-05	490.58	4.5992e-06	9.3385e-06	646.79	162.7	1.2678e-06	3.6045e-06	263.64	93.488	48.715	18.594	7.9747e-06	42.477	0.0014844	0.0014884	0.00039246	609.37	1.7278e-05	1.6388e-05	771.59	196.98	1.7096e-05	1.605e-05	314.11	112.9	71.959	24.425	1.579e-05	50.842	224.709	278.632	210.576	191.817	255.612	290.497	191.184	196.714	435.012	362.214	195.877	200.128	200.375	205.974	296.460	205.248	-8191	255	
3862.565	1	1	0	0	0.16027	0.17666	0.037014	0.19056	0.21226	0.26594	0.12797	0.42332	0.016707	0.1404	0.16921	0.14475	0.28546	0.24009	0.096799	0.26826	-0.33333	-0.78125	-0.18333	-0.88125	-0.46458	-0.40417	-0.86042	-0.10208	-0.46667	-0.58333	-0.1125	-0.83958	-0.30833	-0.29375	-1.05	-0.25208	206.176	474.041	397.376	179.863	390.857	277.584	205.403	492.621	221.205	419.976	537.511	218.007	523.208	483.917	530.705	516.870	0.0004755	0.00029596	0.00034665	486.92	1.1165e-06	1.4792e-05	648.13	162.61	3.4521e-06	3.6239e-06	260.82	92.973	48.058	18.404	4.3036e-06	42.298	0.0015883	0.0015571	0.00041527	621.48	1.8293e-05	1.7197e-05	780.71	200.26	1.8333e-05	1.7214e-05	315.57	114.53	72.595	24.413	1.6516e-05	51.192	234.717	343.744	245.269	192.034	258.889	304.604	191.222	196.801	420.973	200.191	196.153	200.147	200.044	206.165	342.767	204.964	-8191	255	
3862.661	1	1	0	0	0.095797	0.10506	0.067953	0.16561	0.027949	0.18179	0.1818	0.10923	0.15145	0.081	0.30928	0.22831	0.10384	0.076848	0.11393	0.22862	-0.25417	-0.70625	-0.09375	-1.0125	-0.32292	-0.35625	-1.175	-0.18125	-0.64792	-0.81458	-0.01875	-0.81875	-0.47917	-0.05625	-0.80417	-0.035417	239.003	429.578	283.360	215.054	205.919	303.451	220.851	499.292	190.470	524.340	181.138	403.368	318.166	348.272	341.405	467.490	0.00037102	0.00048818	9.8811e-05	483.7	6.2213e-06	3.8563e-06	638.57	159.43	6.6005e-06	5.0187e-06	257.66	92.166	47.19	18.223	6.8893e-06	41.814	0.0015856	0.0015618	0.00042029	622.51	1.7933e-05	1.6805e-05	772.74	198.06	1.7782e-05	1.702e-05	314	114.69	71.861	24.412	1.7568e-05	51.344	236.605	313.688	233.283	192.163	405.550	281.215	191.291	196.825	331.213	381.176	195.784	200.419	200.513	206.280	231.789	204.918	-8191	255	
3862.757	1	1	0	0	0.19202	0.15438	0.061955	0.13813	0.11311	0.18267	0.29009	0.38153	0.094669	0.22974	0.32702	0.14845	0.15136	0.098791	0.054133	0.37382	-0.24583	-0.63542	0.25833	-0.7	-0.39792	-0.1625	-1.0688	-0.22917	-0.51042	-0.90625	-0.23333	-0.73958	-0.62917	-0.03125	-0.8375	-0.14792	389.693	233.115	207.526	458.438	526.495	314.271	334.834	530.818	462.225	214.865	519.934	489.603	379.835	435.632	257.902	474.426	0.00030664	0.00025121	7.8829e-05	486.39	1.7451e-06	6.1869e-06	643.9	159.72	8.9446e-06	3.2994e-06	257.96	91.992	47.905	18.329	5.2372e-06	41.905	0.0016246	0.0016314	0.00046	634.31	1.8713e-05	1.7916e-05	789.35	201.91	1.8839e-05	1.8382e-05	321.76	116.59	73.47	24.801	1.9357e-05	52.009	249.990	300.895	275.226	192.250	419.509	348.912	191.187	196.560	350.788	356.627	195.983	200.257	200.276	205.991	205.714	205.154	-8191	255	
3862.853	1	1	0	0	0.4418	0.17464	0.20523	0.088905	0.30717	0.11273	0.23308	0.34125	0.22532	0.04328	0.083648	0.07769	0.059596	0.097758	0.12754	0.30061	-0.11875	-0.88958	-0.041667	-0.54375	-0.66458	-0.0020833	-0.91458	-0.18542	-0.11458	-0.86042	-0.06875	-0.56042	-0.8125	-0.22292	-0.84792	-0.6	321.557	385.348	439.255	526.475	213.783	476.639	484.897	180.825	423.078	505.051	178.582	501.171	440.572	385.763	249.478	536.158	0.00040197	0.0010028	0.00020865	489.03	4.4104e-06	1.3932e-05	645.36	160.74	3.6837e-07	1.1687e-06	261.24	92.548	48.235	18.649	3.9255e-06	42.326	0.0016716	0.0016928	0.00049586	639.72	1.8791e-05	1.7974e-05	798.24	202.4	1.8157e-05	1.7688e-05	323.88	115.41	72.141	24.635	1.883e-05	51.546	236.826	206.263	520.104	192.021	400.023	246.737	191.446	196.530	460.710	310.417	195.667	200.524	200.198	205.918	342.143	204.991	-8191	255	
3862.949	1	1	0	0	0.019674	0.2374	0.19335	0.17174	0.075148	0.16034	0.19912	0.13207	0.16017	0.16801	0.1774	0.043919	0.2643	0.066345	0.13262	0.15756	0.16458	-0.63125	0.045833	-0.55	-0.69583	-0.31667	-0.93958	-0.62708	-0.10625	-0.97292	-0.225	-0.42292	-0.64167	-0.025	-0.50417	-0.38125	457.002	308.993	460.667	537.928	491.744	400.081	478.727	509.341	315.380	527.151	522.489	205.283	527.314	430.147	407.970	446.175	0.00033853	0.00089592	8.5925e-05	489.18	5.2154e-06	3.4868e-06	646.56	161.26	3.1341e-06	2.7015e-06	259.1	92.578	48.204	18.443	9.9548e-06	41.73	0.0015442	0.001584	0.00047565	625.27	1.7162e-05	1.6903e-05	790.79	199.09	1.6791e-05	1.7128e-05	320.81	114.08	70.863	24.489	1.8571e-05	50.596	238.505	220.849	423.989	191.996	329.315	492.740	191.410	196.764	247.236	233.909	196.077	200.546	200.508	205.896	290.470	204.769	-8191	255	
3863.068	1	1	0	0	0.17799	0.22119	0.17426	0.096755	0.16473	0.27769	0.11889	0.11766	0.13323	0.1338	0.11916	0.059769	0.36713	0.15229	0.33783	0.18954	0.27917	-0.79167	-0.091667	-0.26875	-0.75208	0.22083	-0.74167	-0.75208	-0.13333	-0.85	-0.19167	-0.39167	-0.7875	0.025	-0.675	-0.64375	482.780	357.938	518.398	288.145	339.612	318.764	414.340	372.119	235.222	273.881	418.408	319.476	456.399	315.129	241.190	248.479	0.00038137	0.00086656	5.1378e-05	482.04	3.4048e-06	1.0475e-05	638.5	160.83	2.5516e-06	9.9848e-06	258.39	92.417	48.005	18.382	9.0027e-06	41.524	0.0014894	0.0016096	0.00047649	615.12	1.6981e-05	1.7586e-05	783.95	197.31	1.6555e-05	1.762e-05	318.53	112.93	70.464	24.629	1.8218e-05	50.193	224.580	455.226	277.236	192.007	398.108	287.507	191.407	196.664	309.254	236.341	195.721	200.452	200.138	205.739	316.657	204.928	-8191	255	
3863.164	1	1	0	0	0.18832	0.1004	0.27919	0.16115	0.10293	0.085847	0.073839	0.33247	0.0675	0.080508	0.16168	0.19756	0.27433	0.084849	0.028025	0.41741	0.28542	-0.98125	-0.175	-0.3625	-0.94792	-0.18542	-0.9625	-0.86875	-0.14792	-0.9875	-0.60208	-0.42917	-0.92083	-0.0020833	-0.55625	-0.65625	456.735	296.583	212.455	387.565	356.690	258.850	479.046	480.512	378.448	272.569	509.032	449.634	179.161	430.184	519.245	493.031	0.00041404	0.00077549	5.8203e-05	483.74	3.9117e-06	1.6752e-05	636.33	160.55	3.965e-06	8.1259e-06	259.89	92.521	47.892	18.452	4.7964e-06	41.744	0.0014767	0.0016589	0.00046454	611.81	1.6549e-05	1.7903e-05	778.31	196.91	1.624e-05	1.7897e-05	317.17	112.34	70.112	24.637	1.6971e-05	49.951	235.874	465.989	319.235	191.863	499.030	230.090	191.604	196.519	308.848	276.537	195.773	200.643	200.427	205.803	413.466	204.845	-8191	255	
3863.238	1	1	0	0	0.30358	0.17031	0.17277	0.071891	0.156	0.1053	0.057806	0.24931	0.10874	0.22612	0.26054	0.11252	0.21641	0.12042	0.26626	0.29555	0.1875	-0.56042	-0.28125	-0.022917	-0.57917	-0.26458	-0.525	-0.77708	0.077083	-0.65625	-0.44375	0.070833	-0.775	0.014583	-0.38542	-0.81458	351.256	419.280	493.611	220.635	321.190	189.844	265.981	514.525	459.423	354.507	191.862	506.819	372.769	425.957	427.838	385.901	0.00040893	0.00056152	0.00025483	482.9	6.8645e-06	9.9396e-06	641.48	162.13	2.7387e-06	9.2336e-07	260.17	93.234	48.337	18.544	6.8974e-06	42.1	0.0014179	0.001616	0.00042428	604.06	1.594e-05	1.7311e-05	770.41	194.89	1.5619e-05	1.6911e-05	312.81	111.28	69.319	24.367	1.5265e-05	49.56	225.505	524.465	308.956	191.766	247.807	318.870	191.445	196.759	337.238	280.668	195.663	200.305	199.824	206.061	324.152	205.145	-8191	255	
3863.357	1	1	0	0	0.3103	0.2562	0.23045	0.093794	0.1185	0.11826	0.099068	0.36049	0.15725	0.08109	0.14434	0.15224	0.056351	0.12631	0.20575	0.15605	0.15	-0.64167	-0.54375	-0.28125	-0.75208	-0.11042	-0.3875	-0.68958	0.20208	-0.525	-0.54583	0.04375	-0.7625	-0.37292	-0.21458	-0.87083	330.026	363.876	507.964	457.005	482.679	205.271	276.154	493.564	284.922	438.532	492.935	214.885	302.383	464.571	342.455	208.337	0.00039038	0.00088861	9.2322e-05	484.46	4.2938e-06	1.27e-05	641.54	162.05	5.9037e-06	7.1935e-06	258.9	92.459	48.369	18.39	3.0069e-06	41.548	0.0013695	0.0015139	0.00038913	597.85	1.5694e-05	1.6468e-05	762.29	193.45	1.5785e-05	1.6438e-05	310.11	110.34	69.878	24.154	1.5049e-05	48.983	217.320	212.747	240.638	191.759	266.703	326.627	191.457	196.364	261.664	383.193	195.668	200.335	200.338	205.922	406.946	204.732	-8191	255	
3863.453	1	1	0	0	0.14122	0.075533	0.20059	0.14708	0.19243	0.43648	0.25831	0.13995	0.18623	0.15746	0.18743	0.1265	0.12853	0.16664	0.10891	0.054327	0.47292	-0.47083	-0.56042	-0.10833	-0.6125	-0.31458	-0.033333	-0.91458	-0.13958	-0.54375	-0.85417	-0.039583	-0.74792	-0.50208	0.08125	-0.89375	305.275	449.658	315.223	264.651	352.526	428.999	485.088	338.051	391.662	492.246	473.442	215.945	452.927	188.306	421.554	318.727	0.00038621	0.00051613	0.00022381	482.74	5.9168e-06	7.8095e-06	635.58	160.77	6.0993e-06	7.3545e-06	258.55	92.59	48.698	18.264	4.8254e-06	41.693	0.0014135	0.0014569	0.00038166	592.5	1.6172e-05	1.5889e-05	754.66	192.59	1.6137e-05	1.5755e-05	308.46	110.13	70.238	23.897	1.4826e-05	49.171	210.827	220.354	252.355	191.492	229.391	359.175	191.444	196.455	300.975	365.263	195.814	200.072	200.314	206.193	385.770	204.815	-8191	255	
3863.549	1	1	0	0	0.036345	0.16488	0.17305	0.22358	0.18449	0.31515	0.19418	0.17049	0.4383	0.24576	0.14187	0.031954	0.28935	0.36538	0.13666	0.34958	0.11042	-0.21875	-0.52292	0.060417	-0.725	-0.4625	-0.30208	-1.025	-0.15625	-0.38958	-0.98125	0.058333	-0.73125	-0.44375	-0.2875	-1.0229	274.858	183.801	538.063	522.333	277.638	402.824	225.630	454.458	423.271	222.514	536.862	362.714	205.935	460.442	452.608	427.088	0.00035022	0.00029689	0.00010266	481.44	2.2541e-06	4.3528e-06	636.59	160.9	2.3878e-06	6.9749e-06	260.49	92.636	48.321	18.414	7.8763e-06	42.006	0.0014655	0.0014301	0.00037911	597.52	1.63e-05	1.5231e-05	753.59	193.57	1.5927e-05	1.4973e-05	307.87	110.82	69.979	23.792	1.4426e-05	49.542	223.395	308.016	216.083	191.719	323.906	412.832	191.497	196.724	198.293	313.991	195.733	200.034	200.654	205.778	296.981	204.658	-8191	255	
3863.670	1	1	0	0	0.15385	0.16819	0.26239	0.073628	0.049705	0.34347	0.070825	0.18917	0.16542	0.19464	0.21341	0.10926	0.28222	0.25133	0.1062	0.11746	0.2125	-0.16458	-0.725	0.15417	-0.57083	-0.42917	-0.05	-0.75625	-0.070833	-0.12917	-0.77917	0.020833	-0.45833	-0.53542	0.060417	-0.75208	461.745	426.406	332.836	332.824	236.862	404.887	332.261	304.182	435.126	341.941	377.480	485.521	327.694	364.495	183.230	323.337	0.00038974	0.0007661	0.00012902	483.1	9.0717e-06	1.1589e-05	641.9	161.99	3.8636e-06	5.4655e-06	260.37	92.7	48.509	18.552	7.5574e-07	42.085	0.0014308	0.0013837	0.00036951	601.01	1.5857e-05	1.4826e-05	754.22	195.3	1.5732e-05	1.4672e-05	308.41	111.76	69.47	23.759	1.4268e-05	50.032	229.563	286.587	296.098	191.865	381.763	315.586	191.437	196.848	435.107	293.514	195.862	200.048	200.368	205.427	274.412	205.229	-8191	255	
3863.766	1	1	0	0	0.33373	0.25634	0.21432	0.38366	0.3049	0.15736	0.12555	0.10807	0.18332	0.12691	0.14735	0.062813	0.29816	0.52361	0.21483	0.1729	0.17708	-0.033333	-0.73542	-0.079167	-0.43125	-0.64792	-0.37083	-0.85	-0.60833	-0.24792	-0.87708	-0.33542	-0.54375	-0.82917	0.11458	-0.83542	467.952	412.399	472.234	484.752	359.960	379.373	531.054	212.117	485.881	475.536	309.919	334.096	420.282	181.953	326.193	510.533	0.00039415	0.00057383	0.00029671	482.5	3.6015e-06	6.5271e-06	640.26	162.16	6.6405e-06	5.9917e-06	260.15	91.477	48.069	18.341	4.9233e-06	41.782	0.0013709	0.0013294	0.00036301	603.27	1.5189e-05	1.4452e-05	753.7	195.21	1.5019e-05	1.4226e-05	307.5	111.13	68.143	23.414	1.4395e-05	49.594	246.828	330.114	237.780	191.764	406.649	231.793	191.127	196.717	313.448	350.583	195.879	200.552	200.345	206.103	285.973	204.941	-8191	255	
3863.837	1	1	0	0	0.20566	0.31649	0.27501	0.17744	0.23198	0.073559	0.41359	0.22357	0.1686	0.20119	0.21402	0.19062	0.1929	0.062171	0.17174	0.11759	0.05625	0.064583	-0.825	-0.15417	-0.34792	-0.91042	0.00625	-0.625	-0.59792	-0.29583	-0.90833	-0.26875	-0.39167	-0.91667	-0.079167	-0.61458	243.019	519.342	201.996	253.733	318.727	523.257	191.435	523.227	402.468	230.991	527.125	250.008	530.899	223.264	299.630	189.999	0.00037697	0.00063702	0.00015606	483.62	4.011e-06	1.1523e-05	639.02	161.14	9.5117e-07	3.9327e-06	260.17	91.981	48.129	18.373	1.1822e-05	41.811	0.0013112	0.0012846	0.0003681	602.65	1.4505e-05	1.4047e-05	754.42	194.54	1.4502e-05	1.3883e-05	308.6	111.02	67.407	23.369	1.4782e-05	49.535	228.046	413.521	533.895	191.743	401.808	265.271	191.162	196.743	308.111	330.762	195.683	200.011	200.750	205.975	249.622	204.991	-8191	255	
3863.958	1	1	0	0	0.23136	0.14015	0.17414	0.11597	0.23781	0.12355	0.40664	0.1955	0.179	0.16031	0.19918	0.11934	0.10065	0.33384	0.2312	0.14886	-0.14583	0.13958	-0.7125	-0.31042	-0.3625	-0.97292	-0.20833	-0.76667	-0.77917	0.083333	-0.91667	-0.28958	-0.46875	-1.0812	-0.072917	-0.70417	237.257	277.917	451.575	180.461	395.535	276.002	350.968	449.137	236.147	375.812	217.208	198.556	446.685	327.547	471.990	504.104	0.0003584	0.00047149	2.6196e-05	484.54	4.0336e-06	6.43e-06	644.11	161.5	3.1559e-06	6.7943e-06	261.04	92.55	48.351	18.323	9.4009e-06	42.034	0.0012758	0.001275	0.00038113	600.55	1.4116e-05	1.382e-05	760.86	194.15	1.416e-05	1.3749e-05	310.66	110.88	67.214	23.417	1.5176e-05	49.491	220.212	364.604	429.440	191.949	472.417	462.834	191.393	196.783	285.569	202.097	195.684	200.264	200.188	206.150	284.328	204.935	-8191	255	
3864.052	1	1	0	0	0.090652	0.062555	0.092991	0.1446	0.11981	0.12505	0.13164	0.14275	0.19352	0.23681	0.1607	0.25019	0.26991	0.26161	0.2039	0.13293	-0.50417	-0.091667	-0.95833	-0.4875	-0.19375	-0.75833	0.058333	-0.44583	-0.67292	0.15208	-0.67292	-0.675	-0.15417	-0.85833	-0.28958	-0.11875	313.542	212.948	414.471	286.309	307.728	313.303	467.536	206.547	314.125	332.937	466.172	482.539	313.715	270.414	508.716	421.936	0.00048012	0.00026098	8.4405e-05	483.1	4.2426e-06	5.0405e-06	644.85	162.21	4.4729e-06	1.207e-05	262.22	93.184	48.452	18.604	9.7649e-06	42.197	0.0012409	0.0012635	0.00038778	597.15	1.3769e-05	1.3965e-05	765.37	193.43	1.3819e-05	1.4059e-05	312.34	110.76	66.797	23.665	1.5283e-05	49.406	232.842	494.627	455.264	191.817	392.853	230.333	191.450	196.739	338.801	242.993	195.965	200.762	200.199	206.251	325.987	205.231	-8191	255	
3864.149	1	1	0	0	0.17224	0.1339	0.18194	0.10778	0.084273	0.087344	0.37277	0.3566	0.16989	0.17613	0.082773	0.15683	0.066166	0.056849	0.14105	0.16771	-0.36042	0.26667	-0.66458	-0.53958	-0.1625	-0.77917	-0.21875	-0.46458	-0.93542	-0.21875	-0.77917	-0.65	-0.072917	-0.94375	-0.26458	-0.18333	454.139	423.911	417.605	473.172	396.737	321.263	365.395	410.156	364.779	336.897	533.303	245.412	301.840	217.022	489.247	280.185	0.00037908	0.00089614	2.1286e-05	484.81	4.3575e-06	1.8164e-05	641.19	160.64	2.0063e-06	3.2189e-06	260.39	92.158	48.403	18.435	2.7117e-06	41.726	0.0012251	0.0013214	0.00038866	595.19	1.3725e-05	1.4681e-05	764.53	192.14	1.39e-05	1.4827e-05	310.46	109.71	66.738	23.741	1.535e-05	48.895	228.852	185.735	379.442	192.207	343.223	179.572	191.181	196.686	306.020	275.539	196.106	200.282	200.205	205.978	214.841	204.981	-8191	255	
3864.245	1	1	0	0	0.25222	0.27138	0.17234	0.39875	0.092847	0.12242	0.083854	0.41261	0.11562	0.18986	0.10385	0.075446	0.2784	0.15788	0.14451	0.10505	-0.36875	0.24583	-0.37917	-0.56875	-0.029167	-0.8375	-0.52083	-0.18125	-0.82708	0.079167	-0.77708	-0.68125	-0.1625	-0.85417	-0.41875	-0.22292	271.906	293.516	458.501	495.928	402.987	280.260	461.452	482.377	330.063	380.996	425.830	424.012	318.810	513.310	201.888	432.122	0.00036977	0.00077276	5.5654e-05	482.54	5.6798e-06	1.8123e-05	641.81	160.99	1.9969e-06	2.021e-06	260.67	92.12	48.263	18.341	5.8866e-06	41.913	0.0012466	0.001409	0.00038773	593.69	1.4023e-05	1.5493e-05	759.97	191.87	1.4219e-05	1.5566e-05	309.57	109.64	67.266	23.963	1.5149e-05	49.003	230.554	228.162	250.326	191.533	347.043	266.688	191.376	196.635	323.092	313.591	195.920	200.410	200.187	205.796	398.639	204.805	-8191	255	
3864.365	1	1	0	0	0.24474	0.028534	0.14581	0.21821	0.20451	0.27286	0.14336	0.067761	0.23029	0.092752	0.22538	0.1458	0.041594	0.16884	0.13899	0.18094	-0.375	0.10208	-0.53542	-0.75	-0.020833	-0.78125	-0.49375	-0.072917	-1.0417	-0.29375	-0.5375	-0.90417	-0.0875	-0.82292	-0.51667	-0.21667	368.851	232.213	533.491	217.836	378.566	216.763	272.254	437.463	356.875	393.496	454.104	218.171	391.395	537.299	253.800	454.184	0.00046239	0.00042767	0.00027363	483.87	4.691e-06	1.0894e-05	640.46	161.05	2.5124e-06	6.49e-06	258.95	92.882	48.181	18.448	3.3153e-06	42.261	0.0012919	0.0014592	0.0003821	594.56	1.4627e-05	1.5984e-05	759.19	191.95	1.4745e-05	1.5926e-05	309.08	109.98	67.906	24.039	1.4572e-05	49.136	218.013	378.174	313.998	191.919	257.955	312.174	191.236	197.020	225.960	255.530	195.936	200.186	200.525	205.770	390.323	205.143	-8191	255	
3864.461	1	1	0	0	0.17137	0.2464	0.1338	0.27992	0.16785	0.12245	0.038237	0.098914	0.2258	0.33344	0.25994	0.32398	0.041216	0.21598	0.21019	0.017287	-0.50417	-0.27292	-0.44583	-1.1125	-0.18333	-0.86875	-0.55	-0.035417	-0.625	-0.24792	-0.36042	-1.05	0	-0.76042	-0.94792	-0.22083	452.292	186.492	350.894	196.267	347.230	245.492	262.030	207.970	223.720	237.622	183.931	347.169	359.852	185.007	475.478	489.217	0.0003919	0.0008787	0.00024323	486.09	1.127e-06	2.7352e-06	645.92	161.56	7.384e-06	6.7552e-06	261.05	92.972	48.559	18.565	5.3592e-06	42.117	0.0013264	0.0014362	0.00036966	593.26	1.4927e-05	1.5526e-05	759.13	191.85	1.5027e-05	1.528e-05	308.31	109.8	68.636	23.909	1.4118e-05	49.041	221.923	364.736	311.590	191.875	535.933	379.890	191.204	196.619	287.659	394.304	195.912	200.235	200.088	206.264	248.240	205.268	-8191	255	
3864.533	1	1	0	0	0.05748	0.36122	0.12254	0.33051	0.074877	0.147	0.092794	0.33874	0.071118	0.0742	0.24561	0.14882	0.18349	0.080567	0.29313	0.2352	-0.34167	-0.21042	-0.22917	-0.70208	-0.175	-0.5375	-1.0875	-0.21042	-0.83958	-0.52708	-0.28958	-0.9375	-0.31667	-0.3875	-0.80833	-0.22917	347.708	326.254	388.067	198.760	309.982	422.878	448.380	317.103	325.619	283.068	506.148	471.448	505.891	194.502	346.070	418.727	0.00039896	0.0002036	0.00026619	482.12	5.0286e-06	1.1494e-05	640.28	160.99	1.774e-06	3.8352e-06	258.34	91.376	47.45	18.31	2.1826e-06	41.745	0.0013501	0.0013743	0.00035695	590.73	1.5206e-05	1.4798e-05	752.81	190.77	1.5361e-05	1.478e-05	304.74	108.85	68.301	23.499	1.3823e-05	48.843	223.628	395.981	250.654	191.974	231.595	387.348	191.274	196.604	336.877	273.770	195.918	200.066	200.241	206.076	436.372	204.831	-8191	255	
3864.629	1	1	0	0	0.212	0.2013	0.21646	0.1196	0.18668	0.16887	0.25325	0.13064	0.16432	0.18318	0.24684	0.18682	0.04556	0.12621	0.13639	0.088592	-0.56042	-0.41875	0.097917	-0.97292	-0.21667	-0.23542	-0.63125	-0.05625	-0.40833	-0.7	-0.14167	-1.0229	-0.060417	-0.29583	-0.74583	0.045833	249.544	371.994	422.589	308.481	325.667	446.528	423.687	237.712	457.466	487.478	411.157	454.852	325.370	461.206	186.013	366.337	0.00030332	0.00062353	0.00017654	481.31	7.132e-07	1.1275e-05	639.43	159.75	4.0711e-06	6.3752e-06	258.38	91.682	47.365	18.189	2.4632e-06	41.934	0.0013779	0.0013455	0.00035539	593.11	1.5809e-05	1.4801e-05	753.79	192.08	1.6008e-05	1.4984e-05	305.46	110.36	69.19	23.516	1.4346e-05	49.533	254.407	323.809	285.638	191.647	333.155	363.567	191.008	196.470	478.306	282.703	195.686	200.242	199.921	206.174	381.542	204.760	-8191	255	
3864.750	1	1	0	0	0.20558	0.078444	0.17105	0.27124	0.23482	0.1016	0.084475	0.14618	0.082257	0.019121	0.54921	0.16602	0.17473	0.091449	0.12733	0.052825	-0.18333	-0.46042	0.075	-0.87917	-0.175	-0.2375	-0.95	-0.27292	-0.55417	-0.65625	-0.041667	-0.77708	-0.33333	-0.22917	-0.88333	-0.083333	481.361	189.442	297.338	189.621	317.293	392.405	379.977	513.516	190.507	303.606	472.255	456.594	414.066	184.667	182.029	202.607	0.00038575	0.00041775	0.00010284	484.54	9.9894e-06	1.2253e-05	638.37	161.18	5.2754e-06	9.2388e-06	258.51	92.36	48	18.494	9.4501e-06	42.126	0.0014057	0.0013678	0.00036355	603.85	1.6032e-05	1.4961e-05	755.75	195.05	1.5852e-05	1.4998e-05	306.69	111.69	69.068	23.71	1.4565e-05	50.111	225.839	279.565	420.040	191.636	389.634	295.990	191.266	196.674	388.561	286.201	195.777	200.318	200.532	206.041	295.160	204.876	-8191	255	
3864.846	1	1	0	0	0.16613	0.041996	0.3143	0.16398	0.2882	0.090685	0.19222	0.18839	0.19766	0.1377	0.085826	0.16168	0.089071	0.13908	0.11181	0.25606	0.00625	-0.62083	0.045833	-0.90625	-0.38958	-0.2	-0.97917	-0.14583	-0.46042	-0.75417	0	-0.76667	-0.32917	-0.12708	-0.71875	-0.36042	284.584	343.558	260.766	235.253	456.801	220.319	211.194	357.221	516.313	446.029	535.569	210.038	225.427	440.155	367.460	535.007	0.0003506	0.0010975	0.00024862	484.9	1.4848e-06	1.132e-05	643.64	161.32	3.7304e-06	5.4523e-06	259.26	91.868	48.084	18.376	4.0867e-06	42.027	0.001392	0.0013748	0.00037804	609	1.5911e-05	1.5038e-05	764.15	196.78	1.5718e-05	1.515e-05	310.01	112.21	68.975	23.674	1.5265e-05	50.232	235.807	271.558	221.444	191.833	337.550	301.324	191.478	196.730	314.431	327.859	195.404	200.353	199.920	206.003	194.612	205.059	-8191	255	
3864.942	1	1	0	0	0.17344	0.31291	0.1443	0.45576	0.25004	0.12974	0.36909	0.1438	0.091151	0.37541	0.17111	0.17694	0.085691	0.010276	0.35529	0.18074	-0.09375	-0.76458	0.13333	-0.7375	-0.60833	-0.30625	-1.0125	-0.29167	-0.34792	-0.80833	-0.29792	-0.77708	-0.88125	-0.25625	-0.875	-0.39167	405.609	245.522	351.487	516.198	341.538	524.359	385.109	454.340	416.104	525.552	496.388	182.945	288.763	407.431	311.889	277.997	0.00033497	0.00023412	0.00020445	481.66	2.7212e-06	4.7807e-06	638.21	159.69	4.2606e-06	6.8024e-06	258.45	91.394	47.509	18.205	6.6162e-06	41.348	0.001363	0.0013624	0.00038933	606.29	1.5478e-05	1.4764e-05	762.25	195.21	1.5314e-05	1.4974e-05	310.21	111.28	68.167	23.494	1.6055e-05	49.756	233.699	266.919	495.013	191.784	362.771	309.609	191.397	196.583	330.268	507.866	196.034	200.273	200.116	206.258	259.897	204.967	-8191	255	
3865.038	1	1	0	0	0.12395	0.15652	0.027274	0.31368	0.20697	0.15235	0.16621	0.22186	0.072987	0.14988	0.25842	0.090442	0.12961	0.0757	0.14914	0.20582	0.06875	-0.73542	0.10625	-0.49375	-0.65208	0	-1.1021	-0.57292	-0.175	-0.86667	0.13333	-0.53542	-0.76875	-0.34583	-0.98542	-0.58125	510.562	317.602	245.647	229.761	189.172	215.890	273.237	461.011	472.066	308.571	532.874	180.550	439.728	484.912	183.666	496.680	0.00039943	0.00051744	0.00015377	479.65	3.6156e-06	1.5024e-05	639.07	160.24	1.6656e-06	7.667e-06	257.89	91.129	47.296	18.26	9.9697e-06	41.617	0.0013589	0.001381	0.00041514	603.57	1.5368e-05	1.4919e-05	768.16	194.6	1.5185e-05	1.5083e-05	312.27	110.77	68.067	23.601	1.6654e-05	49.833	225.163	416.577	186.458	192.135	293.086	294.139	191.194	196.857	456.569	322.616	195.826	200.345	200.571	205.812	212.134	205.040	-8191	255	
3865.133	1	1	0	0	0.26897	0.26246	0.24164	0.039843	0.27645	0.38632	0.067381	0.17335	0.3701	0.16134	0.13184	0.10965	0.23336	0.10548	0.22811	0.30086	0.42292	-0.9125	0.058333	-0.40833	-0.68542	-0.079167	-0.97083	-0.625	-0.052083	-0.7875	-0.13958	-0.34792	-0.60625	-0.03125	-0.58333	-0.71667	487.083	205.387	288.298	364.194	411.517	306.045	436.069	495.320	532.545	255.029	216.785	225.521	257.664	346.861	339.020	234.800	0.00037383	0.00070224	0.00011967	479.75	5.0416e-06	5.9502e-06	640.99	159.44	3.6239e-06	1.2574e-06	259.83	92.51	47.341	18.413	1.6699e-06	42.122	0.0013497	0.0014248	0.0004307	603.45	1.5358e-05	1.549e-05	772.93	193.75	1.4939e-05	1.5592e-05	314.02	110.69	67.488	23.896	1.6502e-05	49.826	248.903	502.286	449.148	191.866	314.612	210.107	191.205	196.656	360.348	186.985	195.729	200.401	200.087	205.945	397.531	205.039	-8191	255	
3865.229	1	1	0	0	0.099613	0.10686	0.097966	0.23018	0.24484	0.20394	0.24031	0.20652	0.15689	0.15731	0.13117	0.13723	0.1601	0.15207	0.1778	0.091495	0.30833	-0.76875	-0.10208	-0.25625	-0.73958	-0.089583	-0.68333	-0.86667	-0.18542	-0.91458	-0.35208	-0.42917	-0.78333	0.039583	-0.48125	-0.68542	247.996	260.226	367.371	501.573	521.561	479.942	324.519	511.026	305.973	276.087	358.671	521.062	463.558	510.786	219.573	230.728	0.00033882	0.0007069	0.00016854	482.7	4.8225e-06	1.1436e-06	641.31	160.47	1.68e-06	5.4247e-06	257.99	91.415	47.459	18.254	1.1924e-05	41.877	0.0013189	0.0014592	0.00042289	601.22	1.498e-05	1.5982e-05	773.26	194.34	1.4855e-05	1.64e-05	314.26	110.48	68.242	24.285	1.6815e-05	49.844	242.059	532.850	190.096	191.906	196.568	453.585	191.568	196.735	231.647	215.747	195.929	200.616	199.659	205.950	362.844	204.893	-8191	255	
3865.350	1	1	0	0	0.21736	0.19561	0.19991	0.18717	0.053493	0.20711	0.13087	0.16675	0.23889	0.13701	0.1751	0.041	0.16938	0.038927	0.10623	0.14121	0.4	-1.0708	-0.46667	-0.2375	-0.78958	-0.15417	-0.75417	-0.75208	-0.025	-1.0167	-0.50208	-0.14167	-0.87708	-0.3375	-0.39583	-0.775	360.645	435.609	279.594	279.835	484.373	204.149	379.492	447.622	204.285	236.397	519.324	462.965	446.398	282.946	279.439	394.351	0.00043665	0.0011936	0.0002119	481.25	7.15e-06	1.3102e-06	635.54	158.89	9.123e-06	7.0491e-06	255.72	90.288	46.663	18.146	1.7744e-06	41.468	0.0013858	0.0016015	0.00044024	603.55	1.6154e-05	1.7918e-05	772.9	194.42	1.6509e-05	1.8367e-05	314.27	110.73	69.918	24.832	1.7689e-05	50.122	233.369	195.475	223.498	191.788	256.256	503.530	191.422	196.612	265.901	335.809	196.211	200.444	200.403	206.286	327.972	205.023	-8191	255	
3865.446	1	1	0	0	0.1547	0.21951	0.087875	0.049247	0.15912	0.32387	0.15037	0.17171	0.24772	0.29829	0.23937	0.17694	0.087718	0.23039	0.18522	0.17258	0.32292	-0.53542	-0.71875	-0.047917	-0.8375	-0.4125	-0.56875	-0.79583	0.029167	-0.65833	-0.82083	-0.27292	-0.95417	-0.0020833	-0.35625	-1.1208	480.187	286.104	246.175	403.460	471.042	364.102	491.366	396.699	425.900	531.839	513.192	263.269	192.807	498.134	504.753	465.624	0.00039361	0.00018709	7.4029e-05	479.47	7.0361e-06	8.8825e-06	639.38	159.18	6.7987e-06	7.1595e-06	256.4	90.464	46.945	18.353	3.5141e-06	41.752	0.0015355	0.0017388	0.00045751	609.06	1.773e-05	1.9141e-05	775.56	195.94	1.7854e-05	1.926e-05	316.01	111.69	72.146	25.254	1.8301e-05	50.742	220.850	408.710	339.327	192.114	270.993	281.749	191.652	196.954	255.323	313.761	195.809	200.645	200.394	206.032	267.187	205.136	-8191	255	
3865.542	1	1	0	0	0.060096	0.058814	0.090305	0.19468	0.2843	0.23612	0.27727	0.083305	0.10954	0.20037	0.26807	0.14329	0.095087	0.27131	0.2156	0.4135	0.56458	-0.45417	-0.62292	-0.14167	-1.0604	-0.38542	-0.16875	-0.79583	0.058333	-0.58125	-0.75625	-0.11667	-0.94167	-0.425	-0.33125	-1.1604	310.214	514.898	443.527	410.656	427.640	352.904	427.258	482.859	454.916	290.016	529.040	294.412	451.809	472.260	529.701	475.457	0.00040976	0.00089995	0.00025986	477.84	4.0326e-06	5.9553e-06	636.03	158.74	4.5331e-06	6.9613e-06	258.19	91.041	47.129	18.351	5.105e-06	42.141	0.0016912	0.0018299	0.00047682	614.56	1.9563e-05	1.9939e-05	780.62	197.27	1.9479e-05	1.9833e-05	318.43	112.72	74.091	25.38	1.8473e-05	51.11	220.964	319.065	242.041	192.057	299.935	330.952	191.330	196.662	246.751	377.544	195.960	200.317	200.405	205.591	345.965	205.230	-8191	255	
3865.638	1	1	0	0	0.063461	0.051077	0.19312	0.22334	0.10509	0.22175	0.11937	0.077722	0.27107	0.15681	0.108	0.1936	0.16064	0.06143	0.093476	0.17208	0.43542	-0.51458	-0.98125	-0.2125	-0.62292	-0.43958	-0.27917	-0.68958	-0.077083	-0.59583	-0.95	0.23542	-0.68542	-0.39167	-0.11042	-0.90625	520.673	369.147	204.371	186.584	185.777	433.099	517.502	335.975	419.980	501.922	484.483	197.433	355.315	182.363	531.132	492.341	0.00034569	0.00065366	5.0787e-05	474.68	4.0902e-06	1.1519e-05	636.56	158.07	2.7865e-06	9.1663e-06	255.63	90.494	46.931	18.364	1.3331e-06	41.529	0.0017769	0.0018053	0.00047988	617.97	2.0237e-05	1.9608e-05	780.81	198.19	2.0143e-05	1.9188e-05	316.29	112.49	73.849	25.015	1.7969e-05	50.809	230.388	371.162	275.367	192.071	531.548	345.707	191.098	196.776	199.048	367.883	195.534	200.149	200.807	205.840	380.108	205.156	-8191	255	
3865.759	1	1	0	0	0.17521	0.28927	0.11257	0.12992	0.14324	0.12992	0.1625	0.10343	0.037596	0.12225	0.17051	0.10728	0.13357	0.19337	0.14502	0.17358	0.20833	-0.43333	-0.78958	0.020833	-0.60208	-0.67292	-0.24375	-1.1187	-0.24375	-0.24792	-0.9125	-0.066667	-0.675	-0.33542	-0.045833	-1.1667	528.680	225.850	493.988	417.462	374.497	415.256	529.133	527.981	305.017	446.875	459.083	400.591	331.374	377.004	358.118	381.848	0.00033353	0.0011615	2.3574e-05	473.35	2.4598e-06	9.2089e-06	629.38	156.17	6.2113e-06	1.0034e-05	252.69	89.393	46.246	18.12	8.7433e-06	41.668	0.0017274	0.0016958	0.00045579	612.31	1.9525e-05	1.8466e-05	767.96	195.82	1.9481e-05	1.8318e-05	311.21	111.59	72.146	24.571	1.7266e-05	50.807	238.686	305.922	347.776	192.019	370.021	339.171	191.196	196.441	361.886	364.010	195.762	199.973	200.727	206.549	326.660	205.155	-8191	255	
3865.830	1	1	0	0	0.22818	0.10459	0.27731	0.30669	0.21004	0.21288	0.088817	0.17459	0.032218	0.034538	0.19164	0.27363	0.08963	0.32155	0.060297	0.16535	0.01875	-0.27917	-0.84375	-0.225	-0.91875	-0.6625	-0.079167	-0.91458	-0.57917	-0.26875	-0.96042	-0.047917	-0.6	-0.93542	-0.125	-0.95	242.246	513.502	206.014	275.326	232.455	528.616	489.731	188.824	182.305	405.455	445.326	338.063	359.435	500.343	444.975	512.243	0.00037338	0.00041205	9.6373e-05	473.08	2.0518e-06	4.932e-06	629.08	155.92	3.08e-06	9.495e-06	253.6	89.344	46.632	18.212	4.7495e-06	41.653	0.0016604	0.0016137	0.00043685	611.63	1.8406e-05	1.7528e-05	760.82	195.64	1.8345e-05	1.7399e-05	310.45	112.29	71.56	24.551	1.741e-05	51.215	235.815	331.196	490.791	191.584	475.796	503.073	191.435	196.516	355.692	250.212	195.763	200.561	200.424	206.353	330.336	205.189	-8191	255	
3865.926	1	1	0	0	0.10616	0.12091	0.12608	0.090085	0.092843	0.047641	0.15527	0.056606	0.10714	0.22348	0.14841	0.41459	0.16289	0.11494	0.17844	0.29619	-0.22708	-0.22917	-0.84167	-0.21667	-0.5375	-0.62917	-0.42083	-0.92708	-0.51875	-0.05	-0.85417	-0.24792	-0.49167	-0.89792	0.045833	-0.92917	378.417	183.149	299.622	387.489	534.947	241.284	519.297	504.612	420.226	378.797	202.701	512.302	470.702	278.194	505.145	521.023	0.0004323	0.00026319	0.00011378	471.32	5.8089e-06	1.5325e-05	632.8	156.33	4.8908e-06	3.2619e-06	253.9	89.97	46.274	18.299	1.2617e-05	41.867	0.0016482	0.0016339	0.00045484	619.17	1.8436e-05	1.7784e-05	770.72	197.89	1.8632e-05	1.7919e-05	314.9	113.52	71.768	24.821	1.8855e-05	51.938	239.554	337.377	186.101	191.919	321.415	316.084	191.361	196.742	337.642	237.168	195.959	200.191	200.643	206.356	255.461	205.413	-8191	255	
3866.023	1	1	0	0	0.18793	0.3131	0.11131	0.22173	0.11876	0.17719	0.077254	0.079254	0.022393	0.060312	0.081535	0.11981	0.16426	0.12575	0.1061	0.23002	-0.0875	-0.14583	-0.84375	-0.40833	-0.19375	-0.75	0	-0.70417	-0.73125	-0.085417	-0.85625	-0.32708	-0.425	-0.92292	-0.125	-0.60417	351.378	217.534	413.554	526.234	462.615	207.437	538.884	242.613	231.104	253.026	336.760	287.771	392.119	483.878	401.704	454.077	0.00034319	0.00075176	0.0001372	472.69	4.9078e-06	1.0453e-05	631.16	156.63	7.1992e-06	4.3762e-06	253.19	88.614	46.103	18.068	4.3236e-06	41.076	0.0016961	0.0016971	0.00049994	629.15	1.9635e-05	1.9118e-05	783.14	199.74	1.9537e-05	1.8809e-05	318.73	113.66	72.647	24.949	2.0825e-05	51.634	236.639	317.212	534.467	191.878	398.686	379.085	191.090	196.894	418.013	306.879	195.836	200.462	200.321	205.878	282.779	204.789	-8191	255	
3866.141	1	1	0	0	0.17816	0.31756	0.20428	0.0098489	0.26464	0.2473	0.32576	0.086023	0.21505	0.29988	0.2077	0.12261	0.084053	0.005265	0.043812	0.14146	-0.34583	0.029167	-0.69375	-0.40208	-0.23125	-0.97708	-0.33542	-0.69583	-0.525	0.097917	-0.94375	-0.625	-0.13542	-0.97292	-0.19375	-0.59583	490.061	305.370	442.787	525.180	387.023	462.393	515.678	478.223	180.926	282.324	537.599	483.391	485.722	468.523	313.927	367.387	0.00032951	0.00049136	0.00030096	465.93	5.5665e-06	1.8169e-05	620.59	154.13	3.2019e-06	4.5527e-06	249.98	88.239	46.121	17.942	4.3459e-06	41.006	0.0017845	0.0018042	0.00054498	625.88	1.999e-05	1.9875e-05	787.03	198.71	1.9962e-05	1.9549e-05	321.05	113.19	72.476	25.006	2.1368e-05	51.265	230.886	210.479	207.282	191.818	407.959	213.812	191.301	196.955	410.104	242.097	195.966	200.452	200.499	205.685	288.494	205.182	-8191	255	
3866.238	1	1	0	0	0.04974	0.073865	0.13045	0.20638	0.34374	0.45863	0.14775	0.30234	0.16184	0.096958	0.068875	0.15706	0.077611	0.20954	0.23709	0.12969	-0.32292	-0.029167	-0.69583	-0.52292	-0.39375	-0.6375	-0.44792	-0.64167	-1.0854	-0.10417	-0.65417	-0.47083	-0.15833	-0.72708	-0.36042	-0.60208	187.034	419.072	431.123	383.650	228.364	316.758	510.279	511.451	286.131	263.308	352.843	460.796	375.502	257.371	437.372	466.076	0.00042505	0.00032822	0.00020689	464.75	6.8048e-06	2.0624e-05	622.82	154.86	3.9852e-06	4.9169e-06	252.38	88.672	45.734	18.061	4.7369e-06	40.978	0.0017529	0.0018337	0.00055249	621.61	1.9744e-05	2.0366e-05	791.16	197.46	1.9864e-05	2.063e-05	322.4	113.22	72.277	25.375	2.1803e-05	51.307	231.405	412.005	249.001	191.708	236.734	244.502	191.088	197.134	349.322	258.357	196.219	200.479	200.519	206.128	463.169	205.203	-8191	255	
3866.334	1	1	0	0	0.37524	0.075347	0.19511	0.1286	0.25291	0.14717	0.22139	0.16726	0.24844	0.15756	0.25293	0.17656	0.13424	0.42318	0.040814	0.014967	-0.57917	0.11042	-0.5625	-0.45208	-0.16875	-1.0021	-0.47083	-0.39167	-0.84375	0.085417	-0.83125	-0.75833	0.0625	-0.93125	-0.20625	-0.175	519.730	336.081	214.555	219.661	249.560	341.845	444.355	231.312	372.011	526.630	403.401	246.071	390.261	394.254	362.320	436.557	0.000264	0.00081209	0.00025131	466.33	2.1515e-06	1.2176e-05	624.75	154.71	5.7628e-06	8.4096e-06	251.06	88.922	45.628	18.186	5.3763e-06	41.378	0.0017724	0.0019504	0.00055816	623.91	2.0151e-05	2.1656e-05	794.97	197.91	2.0261e-05	2.1752e-05	323.03	113.7	73.028	25.876	2.1817e-05	51.732	229.318	442.620	350.277	192.073	387.640	200.169	191.431	196.679	249.603	521.549	196.177	200.510	200.726	206.128	423.983	205.440	-8191	255	
3866.430	1	1	0	0	0.27101	0.12276	0.066167	0.24952	0.035565	0.049185	0.25737	0.16328	0.41875	0.11463	0.078045	0.10318	0.25409	0.069811	0.042867	0.32249	-0.52083	-0.20208	-0.65417	-0.67292	0	-0.9375	-0.71458	-0.23542	-0.78125	-0.31667	-0.57708	-0.85	-0.12917	-0.77083	-0.275	-0.46667	505.720	415.303	516.696	228.772	405.323	504.580	294.820	257.170	298.492	336.843	362.516	179.168	277.373	257.257	215.056	182.014	0.00037572	0.00071882	9.0831e-05	466.08	6.1431e-06	1.0487e-05	620.52	153.3	1.4717e-06	2.8108e-06	250.54	88.174	45.24	17.953	2.6405e-06	41.017	0.001828	0.0020663	0.00056157	627.78	2.0821e-05	2.2777e-05	793.38	197.84	2.1133e-05	2.2897e-05	321.54	113.55	74.603	26.231	2.2367e-05	51.639	234.752	501.382	285.491	191.984	349.668	425.501	191.429	196.881	268.845	235.658	196.286	200.187	200.470	205.888	394.644	205.445	-8191	255	
3866.526	1	1	0	0	0.20035	0.25348	0.19883	0.20016	0.12464	0.16114	0.2566	0.30339	0.016465	0.12767	0.2647	0.20598	0.24535	0.085877	0.24393	0.19491	-0.72917	-0.13542	-0.25208	-0.85417	-0.20833	-0.93333	-0.57917	-0.089583	-1.125	-0.22708	-0.37708	-1.0396	-0.20208	-0.89375	-0.42917	-0.16667	247.804	198.585	249.980	254.612	227.228	294.734	490.607	463.524	256.220	227.161	512.809	338.447	452.833	182.592	463.433	506.722	0.00040155	9.9877e-05	0.00024278	464.59	5.6476e-06	1.532e-05	621.36	153.42	6.7426e-06	4.249e-06	250.04	87.873	45.556	18.05	3.4213e-06	41.026	0.0019819	0.0022296	0.00058476	634.21	2.3159e-05	2.479e-05	799.66	200.53	2.3603e-05	2.4835e-05	325.54	114.84	77.593	26.574	2.3151e-05	52.06	218.364	406.840	292.552	191.752	278.652	444.324	191.510	196.642	299.227	395.600	196.015	200.597	200.354	206.193	290.483	205.048	-8191	255	
3866.622	1	1	0	0	0.014436	0.1035	0.046719	0.11926	0.11139	0.10361	0.049741	0.25385	0.15338	0.094182	0.11908	0.14874	0.15111	0.13572	0.16785	0.27558	-0.54375	-0.37917	-0.14583	-0.82708	-0.14167	-0.79792	-0.67708	-0.29167	-0.9	-0.29375	-0.29792	-0.91458	-0.085417	-0.48333	-0.49583	-0.20208	286.257	399.064	319.778	442.873	364.438	323.528	473.045	457.577	482.880	199.420	413.344	209.468	389.720	470.905	450.978	531.527	0.00050444	5.975e-05	0.00019046	469.77	2.7852e-06	9.3462e-06	623.89	154.19	5.7557e-06	4.0481e-06	250.35	88.751	45.428	17.949	2.8447e-06	41.202	0.0021291	0.0022567	0.00058966	637.5	2.4351e-05	2.4646e-05	800.89	201.45	2.4601e-05	2.4471e-05	324.6	115.51	78.898	26.562	2.2999e-05	52.547	222.195	347.115	324.253	191.846	521.471	436.703	191.282	196.579	263.698	320.871	196.138	200.943	200.389	206.291	179.368	205.006	-8191	255	
3866.718	1	1	0	0	0.179	0.090727	0.44277	0.080319	0.05984	0.2018	0.098633	0.25742	0.35442	0.32085	0.065571	0.19223	0.18616	0.31276	0.25909	0.091347	-0.51667	-0.225	-0.32083	-1.025	-0.29792	-0.38958	-0.8	-0.1125	-0.69375	-0.46042	-0.089583	-0.98542	-0.25208	-0.55	-0.66458	-0.029167	246.204	296.934	441.915	280.626	232.437	440.100	483.902	392.461	244.934	438.899	316.281	506.369	377.080	496.591	254.697	429.488	0.00047621	0.00037515	0.00010691	466.7	8.9515e-06	7.1264e-06	624.76	153.85	3.4038e-06	2.6734e-06	250.44	88.393	45.988	18.173	8.202e-06	41.291	0.0021787	0.0022297	0.00058479	640.45	2.4965e-05	2.395e-05	800.76	202.49	2.496e-05	2.3903e-05	325.07	116.47	79.736	26.507	2.2768e-05	52.836	218.840	382.470	261.267	191.827	248.368	319.048	191.492	196.693	215.543	358.892	195.713	200.462	200.710	206.423	323.500	204.958	-8191	255	
3866.839	1	1	0	0	0.14464	0.012479	0.20834	0.25828	0.1792	0.13211	0.14702	0.1869	0.14195	0.28374	0.14589	0.028456	0.26145	0.142	0.32125	0.095391	-0.41458	-0.64583	-0.3875	-0.82083	-0.18958	-0.67708	-0.97917	-0.1	-0.69583	-0.6875	-0.2375	-0.80833	-0.37083	-0.47917	-0.71875	-0.01875	535.588	360.878	367.092	527.479	436.359	322.486	378.029	228.973	214.851	475.880	489.251	233.395	461.237	529.478	225.808	411.667	0.00042804	0.00010954	0.00025365	467.24	4.3696e-06	1.1291e-05	623.74	154.86	3.5788e-06	4.7368e-06	250.14	88.093	45.724	18.021	7.3575e-06	41.169	0.0021844	0.0021478	0.00056781	642.49	2.4312e-05	2.2691e-05	791.96	202.54	2.3735e-05	2.242e-05	320.73	115.9	77.969	25.943	2.208e-05	52.813	221.192	309.236	231.188	191.952	200.432	369.664	191.371	196.889	485.810	384.582	196.065	200.251	201.047	206.667	349.896	205.135	-8191	255	
3866.933	1	1	0	0	0.19089	0.33481	0.16329	0.14558	0.22083	0.057179	0.35532	0.1334	0.20486	0.14268	0.066656	0.099486	0.15572	0.16466	0.21901	0.41255	-0.11875	-0.74375	-0.21667	-0.84167	-0.27292	-0.225	-0.82708	-0.10625	-0.51042	-0.68542	-0.30208	-0.90208	-0.39375	-0.089583	-0.72292	-0.16667	373.757	324.695	476.333	393.020	508.128	245.478	473.770	467.584	535.711	342.870	323.485	538.100	526.712	197.441	397.657	493.313	0.00034748	0.0011041	0.00015786	468.71	4.9829e-06	9.3113e-06	622.02	154.89	4.9847e-06	3.999e-06	250.24	88.586	45.716	18.004	4.4675e-06	41.163	0.0021243	0.0020959	0.00056124	646.9	2.3809e-05	2.2401e-05	791.31	203.42	2.3228e-05	2.208e-05	320.58	116.36	76.592	25.624	2.1555e-05	52.808	221.616	327.312	275.367	191.659	317.895	319.805	191.491	196.616	464.808	374.169	195.624	200.775	201.271	206.301	432.789	204.812	-8191	255	
3867.031	1	1	0	0	0.12119	0.23513	0.22569	0.25675	0.39588	0.12947	0.15055	0.49639	0.14709	0.33833	0.15662	0.19773	0.23321	0.029565	0.29088	0.21674	0.10208	-0.61667	0.11875	-0.99375	-0.575	-0.28125	-1.0042	-0.06875	-0.47917	-1.1021	-0.26458	-0.85833	-0.70625	-0.15417	-0.74583	-0.46667	354.219	342.458	451.035	508.409	432.410	364.040	502.145	445.077	509.527	182.586	527.057	364.991	191.116	415.281	421.457	413.234	0.00027309	0.00071161	0.00012862	467.11	5.7482e-06	2.04e-05	625.06	154.74	1.664e-06	5.0845e-06	251.4	88.506	45.848	18.03	1.1273e-05	41.416	0.001993	0.0020075	0.00055924	647.22	2.2783e-05	2.1782e-05	798.25	204.82	2.2701e-05	2.2106e-05	324.92	117.41	76.69	25.854	2.2985e-05	53.385	235.434	361.211	246.948	191.765	347.393	312.262	191.606	196.565	314.706	407.756	195.960	200.506	200.621	206.423	240.676	205.126	-8191	255	
3867.126	1	1	0	0	0.16662	0.10714	0.26631	0.21884	0.26483	0.13319	0.21463	0.24895	0.14946	0.31208	0.09458	0.10627	0.27551	0.083237	0.18769	0.32836	0.066667	-0.725	-0.3375	-0.725	-0.64583	-0.091667	-1.0125	-0.54792	-0.26042	-0.93958	-0.41042	-0.77083	-0.71042	0.022917	-0.79583	-0.4625	429.641	498.824	449.072	516.803	431.498	523.158	431.362	204.718	186.283	226.154	389.668	471.782	192.944	382.855	475.139	471.442	0.00040839	0.00067314	0.0003177	469.15	3.9626e-06	6.165e-06	632.21	154.67	1.4691e-06	3.454e-06	251.53	89.118	45.73	18.243	7.671e-06	41.413	0.0020087	0.0020168	0.00058765	649.28	2.2576e-05	2.1812e-05	807.75	204.66	2.2351e-05	2.1857e-05	328.82	117.1	75.965	25.744	2.3157e-05	52.822	248.675	389.722	186.760	191.835	389.787	235.497	191.305	197.119	217.577	348.853	196.025	200.581	200.635	206.250	203.904	205.152	-8191	255	
3867.222	1	1	0	0	0.056297	0.14348	0.083341	0.065445	0.12163	0.065208	0.057034	0.082169	0.10504	0.30975	0.13845	0.33949	0.15083	0.33587	0.21617	0.11578	0.11042	-0.79583	0.097917	-0.6	-0.8	-0.12708	-1.0417	-0.73958	-0.14792	-0.90417	-0.095833	-0.61875	-0.96458	-0.066667	-1.025	-0.66667	349.151	373.565	321.899	475.886	335.673	493.808	492.738	198.789	284.399	491.197	511.175	465.458	266.895	372.445	301.761	269.210	0.00042125	0.00069225	2.9435e-05	471.37	5.1907e-06	7.8183e-06	628.77	153.73	5.0083e-06	1.8202e-06	248.7	88.236	45.438	17.951	4.066e-06	40.841	0.0019183	0.0019712	0.00059171	640.37	2.1925e-05	2.1654e-05	806.88	202.15	2.1752e-05	2.1882e-05	326.79	115.09	75.151	25.753	2.3877e-05	52.339	242.022	202.703	518.421	192.025	462.881	274.222	191.465	196.740	290.479	273.209	195.707	200.335	200.718	206.380	238.378	205.265	-8191	255	
3867.318	1	1	0	0	0.22061	0.14589	0.13375	0.14159	0.040166	0.088005	0.096027	0.17745	0.33187	0.11634	0.36846	0.21368	0.17435	0.16489	0.064948	0.21404	0.14792	-0.77917	-0.033333	-0.45	-0.83958	-0.054167	-0.775	-0.74792	-0.23125	-0.79792	-0.1375	-0.3625	-0.94583	0	-0.72292	-0.725	458.305	291.423	290.343	517.005	285.940	217.013	419.121	186.986	284.670	386.976	456.882	286.312	340.894	485.189	291.963	429.269	0.0003575	0.0011403	0.00019731	467.97	8.0164e-06	1.1603e-05	623.13	154.12	5.0189e-06	4.4924e-06	250.12	88.301	45.69	18.02	7.9562e-06	41.131	0.0019397	0.0020826	0.00061382	636.89	2.2007e-05	2.2438e-05	806.1	200.72	2.1619e-05	2.26e-05	326.76	114.53	74.796	25.959	2.3347e-05	52.19	221.734	527.892	510.967	192.120	352.541	255.055	191.433	196.797	353.383	219.860	195.731	200.399	200.441	206.469	392.401	205.018	-8191	255	
3867.439	1	1	0	0	0.18064	0.1139	0.1086	0.26492	0.16654	0.16457	0.15421	0.30288	0.15234	0.2724	0.51752	0.24978	0.16286	0.28279	0.25697	0.15992	0.42917	-0.58542	-0.34167	-0.66667	-0.98333	-0.3	-0.95625	-0.625	0.0375	-0.65417	-0.50417	-0.26875	-1.0729	-0.31458	-0.7625	-0.85	522.859	404.814	287.079	392.136	373.073	530.291	262.475	520.998	478.534	317.409	489.937	515.960	411.970	465.166	401.188	397.186	0.00042215	0.0012254	0.00013257	465.78	6.1115e-06	5.5919e-06	625.7	152.63	3.1486e-06	3.3239e-06	251.47	88.619	45.715	18.03	1.1287e-05	41.31	0.0018955	0.0021086	0.00059619	632.87	2.1715e-05	2.3248e-05	804.99	200.25	2.1671e-05	2.344e-05	326.99	114.95	75.43	26.337	2.3048e-05	52.361	206.589	507.895	527.892	192.049	327.950	511.191	191.432	196.622	423.582	485.616	196.101	200.362	199.889	206.013	343.788	204.807	-8191	255	
3867.535	1	1	0	0	0.036239	0.22092	0.16362	0.21949	0.21678	0.076016	0.17169	0.1331	0.1233	0.19194	0.13022	0.14172	0.20933	0.24774	0.1644	0.2717	0.425	-0.60625	-0.15208	-0.2	-0.91875	-0.27708	-0.66042	-0.7125	0.21667	-0.825	-0.34792	-0.19167	-1.0104	-0.25417	-0.42083	-0.92708	189.995	376.351	271.774	403.536	416.135	327.914	198.550	249.432	323.114	252.301	236.562	245.866	417.084	452.623	328.850	535.655	0.00030541	0.001343	0.00053365	467.73	4.6282e-06	4.9597e-06	624.45	154.21	8.6643e-06	1.3925e-06	251.27	88.429	45.542	18.074	3.8116e-06	40.915	0.0019277	0.0021699	0.00058345	633.3	2.2024e-05	2.3667e-05	801.95	201.04	2.2266e-05	2.3945e-05	326.58	114.85	76.313	26.544	2.3072e-05	52.195	214.666	311.527	345.641	192.140	251.788	519.014	191.567	196.636	254.645	422.080	196.380	200.353	199.655	205.896	283.505	205.311	-8191	255	
3867.631	1	1	0	0	0.25331	0.14248	0.17263	0.15746	0.11231	0.10955	0.22034	0.16723	0.19724	0.080473	0.28599	0.099442	0.19461	0.21158	0.18654	0.33152	0.30417	-0.68125	-0.51667	-0.22083	-0.95625	-0.4375	-0.40417	-0.70208	-0.05	-0.7125	-0.72917	-0.11042	-1.0521	-0.2625	-0.17708	-0.89375	487.812	431.266	293.533	469.877	216.172	368.646	536.608	461.155	368.653	292.345	479.924	199.893	214.482	484.609	285.564	523.183	0.00050864	0.0015696	0.00023789	463.4	4.7414e-06	1.0218e-05	618.28	152.79	1.1093e-05	8.9727e-06	249.05	87.658	44.778	17.859	8.1282e-06	40.938	0.0020384	0.0022469	0.00059544	632.64	2.329e-05	2.4596e-05	796.47	199.58	2.3533e-05	2.4563e-05	323.31	114.2	77.148	26.378	2.2786e-05	51.926	208.081	321.293	272.737	191.582	298.914	192.632	191.337	196.646	257.950	417.585	195.878	200.393	200.658	206.000	377.850	205.219	-8191	255	
3867.703	1	1	0	0	0.19352	0.2387	0.2013	0.20502	0.013715	0.077603	0.24333	0.195	0.18609	0.042496	0.068041	0.085895	0.067006	0.038176	0.46522	0.12614	0.31042	-0.6375	-0.7625	-0.13333	-0.9625	-0.28958	-0.44583	-1.0021	-0.045833	-0.40417	-0.63958	0.045833	-0.84167	-0.43333	-0.20833	-1.0021	482.535	323.046	375.758	454.061	305.139	371.511	254.984	434.134	250.737	376.489	390.803	519.602	342.230	481.024	207.640	485.583	0.0004245	0.00056746	4.7026e-05	461.43	9.4086e-06	3.2979e-06	618.71	152.94	4.9991e-06	4.6284e-06	248.75	87.878	44.427	17.871	9.5698e-06	40.879	0.002094	0.0022065	0.00057879	629.04	2.3853e-05	2.3948e-05	792.83	199.09	2.3986e-05	2.3819e-05	322.86	114.43	78.168	26.273	2.2606e-05	52.22	207.981	303.451	490.417	191.772	281.771	250.414	191.717	196.647	258.621	252.657	196.000	200.357	200.498	206.274	228.014	205.125	-8191	255	
3867.823	1	1	0	0	0.2425	0.20989	0.23615	0.5265	0.13821	0.17991	0.19736	0.17654	0.2997	0.069674	0.22904	0.29498	0.2293	0.15576	0.10551	0.18464	0.12083	-0.68542	-0.7875	-0.16042	-0.62708	-0.24375	-0.25	-1.0771	0.04375	-0.39375	-0.74375	-0.36458	-0.73333	-0.54792	0.14792	-0.88125	274.090	314.400	455.949	181.323	451.435	429.396	483.294	516.264	423.465	306.406	486.266	325.577	193.239	213.367	240.847	506.507	0.00047897	0.00014139	6.2208e-05	462.09	2.6374e-06	2.3146e-06	619.83	152.19	1.1921e-05	8.3861e-06	247.88	87.585	45.221	18.039	2.3674e-06	41.04	0.0021723	0.0021882	0.00058124	632.66	2.4622e-05	2.3708e-05	795.31	200.56	2.4739e-05	2.3507e-05	322.63	115.17	78.401	26.206	2.2152e-05	52.71	217.854	491.334	348.400	191.669	307.662	409.469	191.633	196.907	280.731	411.517	195.811	200.572	200.127	206.490	461.493	205.234	-8191	255	
3867.919	1	1	0	0	0.31378	0.047439	0.04509	0.038718	0.084083	0.13066	0.3524	0.22893	0.19948	0.19037	0.34709	0.15944	0.060271	0.12827	0.30568	0.14719	0.30208	-0.15208	-0.6625	0.1	-0.58958	-0.48125	-0.11875	-1.0104	-0.20625	-0.175	-1.0562	-0.0875	-0.47708	-0.43125	0.072917	-0.83958	352.637	413.212	426.311	450.525	232.146	365.183	189.936	214.947	396.811	218.224	206.999	263.982	406.615	495.636	489.888	300.935	0.00019437	0.00041003	0.00010443	461.57	4.2194e-06	9.2905e-06	618.88	151.71	8.642e-06	4.0412e-06	247.94	87.455	44.996	18.004	1.2659e-06	40.789	0.0021667	0.0021539	0.00058464	643.36	2.53e-05	2.4112e-05	797.89	202.96	2.5309e-05	2.3825e-05	323.29	116.72	79.154	26.384	2.3209e-05	53.268	222.249	455.382	366.425	191.674	533.567	287.526	191.653	196.638	356.617	228.506	195.909	200.504	200.701	206.017	204.451	204.919	-8191	255	
3868.016	1	1	0	0	0.03307	0.15429	0.26117	0.33813	0.42746	0.36427	0.27649	0.21598	0.1436	0.05622	0.1118	0.18867	0.16957	0.092569	0.18529	0.15901	0.16458	-0.15	-0.92708	-0.21458	-0.60625	-0.96042	-0.17292	-1.0729	-0.44583	-0.23125	-0.86458	-0.00625	-0.56667	-0.86667	-0.15	-0.89583	409.419	239.442	192.990	441.692	204.223	329.840	442.627	471.320	218.869	487.238	516.068	205.995	502.373	500.056	307.417	531.528	0.00041638	0.000365	0.00026547	456.4	7.0492e-06	1.4677e-05	611.07	150.82	8.3499e-06	5.6671e-06	244.56	86.708	44.627	17.91	1.1053e-05	40.486	0.002235	0.002221	0.00060602	649.38	2.5495e-05	2.4292e-05	792.78	204.18	2.4942e-05	2.3816e-05	322.77	117.1	78.076	26.2	2.3933e-05	53.554	252.012	303.979	210.112	191.787	374.452	265.716	191.221	196.542	396.062	256.207	195.845	200.504	201.375	206.004	534.041	205.331	-8191	255	
3868.112	1	1	0	0	0.078815	0.078437	0.23024	0.26713	0.13972	0.079612	0.30954	0.20319	0.25602	0.066347	0.022155	0.092915	0.17796	0.26877	0.032626	0.14381	-0.19792	-0.0875	-1.0167	-0.56875	-0.47083	-0.91042	-0.16875	-0.9125	-0.48333	-0.03125	-0.86042	-0.26458	-0.37708	-0.98542	-0.2125	-1.0292	286.733	368.983	224.731	529.954	518.774	261.485	441.570	399.413	179.017	463.090	197.318	324.696	324.154	225.359	496.520	389.196	0.00030118	0.00033988	0.00013875	451.64	2.7418e-06	7.5221e-06	610.82	149.65	6.6024e-06	7.0628e-06	244.51	86.916	44.158	17.852	6.0974e-06	40.777	0.0022266	0.002225	0.00063058	652.95	2.5524e-05	2.4818e-05	804.77	206.28	2.6079e-05	2.5131e-05	330.04	119.48	80.265	26.901	2.6837e-05	54.545	241.149	282.677	443.199	191.612	467.832	294.859	191.213	196.916	353.491	266.240	195.908	200.700	200.532	206.410	360.031	205.337	-8191	255	
3868.231	1	1	0	0	0.076686	0.065826	0.05772	0.27139	0.2896	0.16318	0.15858	0.18828	0.090885	0.067163	0.35577	0.054919	0.077467	0.23038	0.29047	0.095773	-0.32292	-0.1	-0.9	-0.12917	-0.12708	-0.92708	-0.4875	-0.68333	-0.76458	-0.23125	-1.1437	-0.55833	-0.45833	-1.2333	-0.14583	-0.675	493.083	521.306	469.214	495.268	305.195	400.522	438.805	233.085	388.720	325.698	356.351	266.170	285.660	251.933	468.394	194.098	0.00025484	0.00022195	0.00027606	452.76	1.0835e-05	1.1723e-05	609.99	149.23	6.876e-06	4.0765e-06	243.2	86.428	44.229	18.084	8.8887e-06	40.9	0.0023609	0.0023828	0.00070141	665.67	2.6918e-05	2.6093e-05	821.56	207.26	2.6489e-05	2.5701e-05	333.41	119.04	79.393	26.841	2.7043e-05	54.1	231.071	435.676	468.812	191.876	324.238	199.345	191.614	196.695	413.895	292.573	195.972	200.551	200.440	206.107	272.205	205.564	-8191	255	
3868.302	1	1	0	0	0.29553	0.067239	0.23507	0.39081	0.17661	0.10499	0.26618	0.14483	0.12855	0.052701	0.208	0.24638	0.42626	0.32175	0.20982	0.068238	-0.43125	-0.12083	-0.94792	-0.47708	0.0083333	-0.93958	-0.11667	-0.55	-0.88333	0.15208	-0.80208	-0.48333	-0.14375	-1.0146	-0.30625	-0.68125	338.942	198.824	306.255	527.689	284.234	303.561	341.969	198.612	425.045	514.635	453.002	494.446	203.584	531.690	489.588	519.251	0.00036935	0.00055028	0.00026013	451.49	4.1361e-06	1.7373e-05	609.49	148.2	3.2313e-06	3.5109e-06	241.22	85.594	43.846	17.719	6.4778e-06	40.459	0.0022509	0.0023001	0.00068961	649.46	2.5227e-05	2.5241e-05	816.41	203.02	2.5336e-05	2.5326e-05	330.51	117.24	78.494	26.941	2.7668e-05	53.467	228.796	209.912	535.256	192.232	301.278	538.445	191.091	196.874	502.307	527.857	196.085	200.529	200.463	206.339	515.885	205.692	-8191	255	
3868.398	1	1	0	0	0.095554	0.32078	0.17628	0.19558	0.16747	0.099843	0.075901	0.11839	0.04746	0.16495	0.1272	0.14252	0.13167	0.27425	0.18859	0.25099	-0.7	-0.029167	-0.79375	-0.56458	-0.0083333	-1.0146	-0.14375	-0.19792	-0.86458	0.095833	-0.58125	-0.56875	-0.064583	-0.84167	-0.25208	-0.39792	246.433	345.583	479.128	482.516	299.118	269.970	235.405	219.547	320.071	367.772	213.908	267.729	445.235	249.210	189.176	486.555	0.00032055	0.0002085	2.5375e-05	447.58	8.4107e-06	2.2171e-05	602.04	146.82	9.7443e-07	5.878e-06	239.56	85.458	43.243	17.795	1.0622e-05	40.209	0.0022589	0.0024022	0.00071223	646	2.5498e-05	2.6743e-05	817.11	202.08	2.6236e-05	2.7559e-05	333.47	117.65	79.824	27.755	2.9465e-05	54.041	236.565	468.061	294.547	191.848	434.901	219.811	191.519	197.048	312.650	251.984	196.177	200.617	200.891	206.399	333.386	204.992	-8191	255	
3868.519	1	1	0	0	0.15148	0.10362	0.13484	0.14796	0.1406	0.19179	0.21043	0.11489	0.15349	0.27447	0.086139	0.26863	0.3903	0.15666	0.12899	0.29749	-0.45	0.03125	-0.54375	-0.60208	-0.054167	-0.82292	-0.42917	-0.11042	-0.83333	-0.24375	-0.78333	-0.92917	-0.066667	-0.925	-0.23958	-0.31667	533.092	486.412	289.166	515.698	390.783	465.353	486.899	384.130	315.873	319.849	271.747	283.363	337.742	201.022	283.453	484.264	0.00043583	0.00061596	0.00030704	442.69	4.3129e-06	1.055e-05	605.14	146.55	8.5489e-06	9.6592e-06	239.04	84.915	43.656	17.748	2.7299e-06	40.149	0.0024206	0.0027112	0.00076751	659.14	2.7747e-05	3.0122e-05	828.93	204.34	2.7748e-05	2.9997e-05	335.2	118.41	81.474	28.298	2.9432e-05	54.112	230.041	524.416	298.405	191.651	502.944	279.541	191.076	197.071	292.204	520.998	196.187	200.684	199.782	206.302	456.502	205.230	-8191	255	
3868.615	1	1	0	0	0.34177	0.073568	0.090278	0.14612	0.20649	0.13105	0.14926	0.22058	0.19129	0.29464	0.057336	0.1422	0.24702	0.29022	0.11006	0.37112	-0.49792	-0.039583	-0.31667	-0.725	0.016667	-0.84375	-0.32708	-0.05	-0.88542	-0.16875	-0.47917	-0.82292	-0.14167	-0.92917	-0.56042	-0.29583	446.065	469.518	218.434	238.308	184.342	307.248	480.359	523.991	321.342	459.714	489.206	219.197	224.284	468.282	300.465	492.166	0.00042752	0.00096192	0.0003616	445.51	5.1311e-07	1.3957e-05	600.91	146.57	4.993e-06	4.4493e-06	239.94	85.502	43.641	17.721	1.8056e-05	40.168	0.0024882	0.0028175	0.00075571	658.27	2.8699e-05	3.1301e-05	829.35	205.36	2.9205e-05	3.1786e-05	337.53	119.94	84.633	29.089	3.0328e-05	54.753	229.491	532.084	318.567	191.897	519.461	202.481	191.330	197.235	229.241	528.727	196.039	200.760	200.236	206.570	316.027	205.326	-8191	255	
3868.711	1	1	0	0	0.30322	0.33203	0.49599	0.085833	0.31612	0.21513	0.23297	0.038905	0.15031	0.089924	0.21865	0.33065	0.308	0.1818	0.14086	0.22319	-0.46458	-0.13542	-0.25208	-0.78958	-0.091667	-0.7875	-0.74583	-0.14792	-1.0125	-0.5625	-0.59583	-0.93333	-0.32292	-0.77292	-0.88333	-0.2	284.808	242.957	347.430	225.352	270.770	200.531	243.223	244.170	498.586	421.436	220.260	366.455	286.480	258.951	384.847	477.826	0.00038185	0.00074526	0.00031706	444.54	9.6392e-06	1.0274e-05	597.41	145.74	5.0554e-06	6.8367e-07	235.59	84.083	43.425	17.638	7.9966e-06	39.602	0.0026722	0.0029548	0.00076035	659.56	3.0224e-05	3.1458e-05	821.12	204.13	3.0457e-05	3.1668e-05	332.11	118.45	85.493	28.647	2.9855e-05	53.893	210.864	212.844	311.208	192.104	253.357	315.329	191.197	197.001	218.462	228.815	196.167	200.810	200.631	206.343	316.268	205.254	-8191	255	
3868.832	1	1	0	0	0.07556	0.14812	0.029712	0.12477	0.14481	0.18858	0.14868	0.12786	0.11439	0.25578	0.16151	0.11432	0.18239	0.17423	0.2422	0.14867	-0.55208	-0.43542	-0.22917	-1.0479	-0.23333	-0.66042	-0.89583	-0.275	-0.92708	-0.45625	-0.35417	-1.1063	-0.24583	-0.775	-0.93333	-0.25208	505.236	182.861	400.677	497.006	340.136	428.239	488.904	360.808	348.639	464.792	498.926	296.167	304.755	519.899	205.225	483.654	0.0004434	0.00059299	0.00032505	435.32	3.1609e-06	1.7674e-05	591.45	143.71	6.6902e-06	1.2189e-05	233.26	83.833	42.948	17.56	3.5599e-06	39.735	0.0027453	0.0028776	0.00074765	651.86	3.1254e-05	3.0966e-05	812.86	202.63	3.1629e-05	3.1203e-05	329.79	118.44	86.621	28.439	2.9581e-05	54.309	222.537	534.985	343.768	191.912	247.845	339.691	191.167	196.743	233.009	368.463	196.192	200.517	200.760	206.737	224.207	205.132	-8191	255	
3868.928	1	1	0	0	0.18761	0.3543	0.039638	0.23763	0.13993	0.13607	0.31366	0.29999	0.2957	0.26304	0.17643	0.18269	0.19136	0.21054	0.19988	0.11465	-0.29792	-0.4125	-0.2	-1.0958	-0.45	-0.52292	-0.85208	0.014583	-0.59583	-0.48542	-0.047917	-1.0333	-0.26458	-0.43125	-0.68958	0.10208	462.336	289.583	472.578	263.682	386.102	226.169	462.251	524.075	384.996	208.679	199.742	504.687	295.028	437.595	335.256	222.148	0.00034709	0.00087298	0.00021683	435.29	1.0771e-05	2.4236e-05	588.32	143.43	9.3493e-06	5.5826e-06	233.35	83.509	42.924	17.672	4.0061e-06	39.779	0.0028557	0.0028455	0.00075083	659.62	3.2264e-05	3.05e-05	813.36	204.19	3.2526e-05	3.1057e-05	329.54	120.39	88.179	28.525	2.9998e-05	55.113	227.235	270.757	448.292	191.596	285.667	349.118	191.453	196.646	493.215	469.724	195.918	200.637	201.037	206.276	370.646	204.840	-8191	255	
3869.000	1	1	0	0	0.073257	0.12169	0.22835	0.15582	0.14505	0.02614	0.37049	0.25612	0.10659	0.062775	0.36229	0.059474	0.32882	0.12921	0.28235	0.09354	-0.2375	-0.55625	-0.1875	-1.0875	-0.36458	-0.50625	-1.0771	-0.37708	-0.70417	-0.59792	-0.28333	-1.1021	-0.37708	-0.44792	-0.7875	-0.24792	471.440	354.934	279.503	454.287	238.411	262.335	453.684	370.947	412.284	331.804	513.821	229.906	406.403	347.011	512.040	452.579	0.00028408	0.00060254	0.00041323	438.04	6.4612e-06	2.0165e-06	593.54	143.19	6.3548e-06	7.4012e-06	235.09	83.361	42.764	17.694	1.2609e-05	39.958	0.0028629	0.0028022	0.00074377	667.57	3.194e-05	3.0045e-05	813.81	207.33	3.2379e-05	3.0824e-05	331.17	122.47	88.12	28.608	3.0789e-05	56.223	227.847	301.383	216.171	191.811	429.307	424.542	191.355	197.080	335.167	363.130	196.010	200.910	200.686	206.477	202.750	205.270	-8191	255	
3869.119	1	1	0	0	0.088422	0.1721	0.19049	0.1237	0.14758	0.43631	0.16017	0.28372	0.39789	0.13006	0.039752	0.22792	0.22798	0.15714	0.14806	0.22926	-0.20417	-0.64167	-0.064583	-0.66458	-0.36667	-0.24792	-0.82083	-0.20833	-0.4	-0.70417	-0.12083	-0.78958	-0.24583	-0.2375	-0.97917	-0.37292	307.906	478.116	343.198	239.932	477.780	227.994	195.196	500.735	409.864	482.493	267.880	233.089	226.435	502.351	181.592	536.209	0.00025699	0.0019723	0.00010147	430.94	1.474e-05	5.5855e-06	580.73	141.41	1.2615e-05	1.0258e-05	230.87	83.04	42.441	17.348	2.0038e-05	39.062	0.0029142	0.0028944	0.00078522	685.08	3.3346e-05	3.1552e-05	823.43	211.21	3.3507e-05	3.2359e-05	335.54	124.58	89.371	28.842	3.3715e-05	56.959	240.888	371.662	522.649	192.274	389.274	357.418	191.264	196.605	399.616	374.703	195.716	200.677	200.570	206.525	229.731	205.589	-8191	255	
3869.215	1	1	0	0	0.15765	0.26329	0.10728	0.30442	0.24079	0.083847	0.11206	0.36792	0.214	0.16216	0.13891	0.18019	0.23039	0.18848	0.26724	0.22884	-0.15625	-0.8125	0.097917	-1.0125	-0.69167	-0.10417	-1.1375	-0.064583	-0.14375	-0.84583	-0.05625	-0.7625	-0.78958	-0.125	-0.86667	-0.32292	212.203	512.030	252.069	523.613	346.157	392.172	477.484	418.575	430.333	363.767	240.808	533.885	389.021	241.769	213.632	184.495	0.00028869	0.00044464	0.00066809	420.02	3.5549e-06	5.0683e-06	571.57	138.35	3.2429e-06	6.4082e-06	228.73	82.153	42.024	17.244	1.3654e-05	38.91	0.0030857	0.0031483	0.00088785	701.51	3.6036e-05	3.4913e-05	844.12	216.94	3.6421e-05	3.5485e-05	346.26	126.99	91.619	29.442	3.6687e-05	57.524	252.474	383.052	533.628	191.883	485.900	205.267	190.938	197.068	319.670	486.882	196.062	201.132	200.364	206.686	193.198	205.379	-8191	255	
3869.311	1	1	0	0	0.10357	0.15515	0.20464	0.039572	0.16662	0.14973	0.30081	0.18773	0.17374	0.27818	0.19285	0.31332	0.06914	0.15137	0.15126	0.0009265	-0.060417	-0.625	0.10833	-0.75833	-0.72083	-0.18542	-0.96875	-0.38542	-0.41667	-0.97292	0.0083333	-0.42083	-0.65208	-0.25	-0.80417	-0.51042	272.665	221.101	450.886	231.818	207.663	501.783	200.711	478.257	290.714	505.807	424.923	497.871	461.544	531.789	509.720	180.000	0.00034061	0.00055469	0.00018274	421.97	1.562e-06	2.4791e-05	577.09	138.49	5.2915e-06	4.9434e-06	228.54	82.339	41.902	17.347	1.0654e-05	38.997	0.0031397	0.0032071	0.0009408	702.22	3.6038e-05	3.4998e-05	859.82	215.92	3.6193e-05	3.591e-05	353.04	127.01	91.985	29.913	3.9177e-05	57.98	226.634	302.395	201.711	192.115	461.305	292.097	191.086	196.932	320.066	206.034	195.887	201.042	200.179	206.192	237.651	205.508	-8191	255	
3869.407	1	1	0	0	0.10285	0.1853	0.19655	0.20759	0.33612	0.02124	0.053276	0.34038	0.14982	0.10513	0.046727	0.15161	0.40095	0.065627	0.20453	0.26681	0.095833	-0.74583	0.027083	-0.5875	-0.82292	0.12708	-0.6625	-0.57708	-0.23333	-1.0417	-0.2375	-0.53958	-0.94792	-0.14792	-0.99375	-0.67083	426.171	220.071	390.306	412.973	519.129	266.453	493.735	420.471	511.871	421.028	493.640	296.631	421.625	412.586	400.961	228.950	0.00025521	0.00068799	0.00020497	426.33	5.8428e-06	1.4161e-05	579.06	138.4	6.5609e-06	1.421e-05	229.3	82.451	42.426	17.48	8.5217e-06	39.32	0.003235	0.0033709	0.0010038	707.46	3.6521e-05	3.63e-05	870.18	213.97	3.4837e-05	3.5265e-05	349.2	123.72	88.163	29.306	3.5947e-05	56.037	262.888	522.151	478.921	192.184	479.471	286.512	191.463	197.036	394.811	201.380	196.219	201.107	200.588	206.266	303.137	205.344	-8191	255	
3869.528	1	1	0	0	0.16311	0.11711	0.17882	0.19666	0.18171	0.17102	0.24839	0.10409	0.10843	0.21742	0.25082	0.19893	0.0060138	0.23569	0.21695	0.29991	0.054167	-0.85833	-0.30833	-0.67292	-0.93958	-0.175	-0.73125	-0.65625	-0.24167	-1.0792	-0.4625	-0.62917	-0.89167	-0.2	-0.72917	-0.84792	505.676	478.743	364.083	466.220	428.823	212.649	521.662	351.437	488.597	373.655	485.225	373.350	383.830	195.807	459.957	517.031	0.00046053	0.001501	6.6879e-05	423.64	8.7261e-06	1.7703e-05	575.91	137.9	1.2165e-05	9.962e-06	226.51	81.664	41.983	17.26	1.1484e-05	38.962	0.0028843	0.0031285	0.00091139	673.76	3.2507e-05	3.3618e-05	842.95	205.02	3.1755e-05	3.3596e-05	338.45	119.63	84.887	28.93	3.3671e-05	54.514	245.365	527.080	277.267	192.070	328.443	189.202	191.402	196.851	421.810	250.662	195.901	200.859	201.610	206.158	380.307	205.371	-8191	255	
3869.599	1	1	0	0	0.23641	0.12713	0.050365	0.194	0.15583	0.15696	0.11019	0.35729	0.28373	0.10122	0.15718	0.23353	0.018188	0.28071	0.051486	0.18863	0.40208	-0.86042	-0.41875	-0.30208	-1.0167	-0.11042	-0.78958	-1.1313	-0.0625	-1.0521	-0.4375	-0.19167	-1.0583	-0.20208	-0.54583	-0.69583	452.665	519.782	319.781	252.656	519.531	510.776	515.638	459.519	353.557	222.395	191.868	379.707	216.289	312.491	498.213	468.402	0.00024316	0.0014549	0.00034608	426.34	6.821e-06	2.3749e-05	578.05	137.3	1.1709e-05	2.8772e-06	226.57	81.975	41.922	17.409	2.0361e-05	39.206	0.0027231	0.003071	0.00085409	661.94	3.1238e-05	3.3795e-05	831.78	203.09	3.1359e-05	3.4579e-05	336.76	119.71	85.657	29.524	3.3916e-05	55.233	219.880	215.294	271.933	192.193	312.500	506.226	191.638	196.560	225.072	308.934	195.940	200.939	200.172	206.370	373.443	205.494	-8191	255	
3869.696	1	1	0	0	0.22336	0.21169	0.37386	0.13347	0.11261	0.28363	0.23601	0.14698	0.26592	0.096225	0.19281	0.43266	0.19772	0.11108	0.18363	0.12679	0.4875	-0.8375	-0.41042	-0.020833	-0.70625	-0.18125	-0.69375	-0.96875	-0.1875	-1.1354	-0.73958	-0.24375	-0.87083	-0.21458	-0.34167	-0.86875	305.181	334.745	319.795	411.075	535.779	412.079	451.621	449.174	305.860	536.440	181.141	440.980	511.854	461.859	230.816	343.053	0.0004383	0.00054082	0.00039226	428.91	1.1096e-05	1.1954e-05	582.45	138.88	1.1834e-05	4.3045e-06	228.47	82.781	42.553	17.344	5.2579e-06	39.211	0.002889	0.0032923	0.00087971	673.58	3.3777e-05	3.6548e-05	845.36	207.61	3.4378e-05	3.7142e-05	342.88	122.29	90.489	30.553	3.5423e-05	56.19	225.062	423.629	296.801	192.156	267.180	257.011	191.725	197.126	239.717	410.064	196.501	200.740	200.097	207.108	209.947	205.473	-8191	255	
3869.792	1	1	0	0	0.3076	0.26435	0.25595	0.094935	0.36391	0.14739	0.31407	0.1742	0.30377	0.069724	0.069381	0.1198	0.20791	0.081701	0.044082	0.17302	0.35417	-0.49167	-0.52292	0	-0.94792	-0.35	-0.63333	-0.88125	-0.09375	-0.79167	-0.85208	-0.19583	-1.05	-0.42708	-0.21042	-1.1354	194.412	230.944	483.564	282.770	461.986	260.307	495.334	418.604	253.578	391.609	454.507	495.329	507.529	494.835	510.949	423.145	0.00039806	0.0011183	0.00028882	423.46	9.8591e-06	1.0385e-05	579.71	138.53	8.9104e-06	3.8476e-06	228.15	82.483	41.663	17.468	8.8271e-06	39.117	0.0031804	0.0035113	0.00091869	683.35	3.6794e-05	3.8222e-05	848.48	209.08	3.6907e-05	3.7803e-05	343.69	122.9	92.681	30.468	3.5313e-05	56.241	228.472	313.412	261.803	191.895	504.628	464.151	191.660	197.252	263.183	394.657	196.286	200.855	199.842	206.556	236.977	205.540	-8191	255	
3869.912	1	1	0	0	0.01946	0.21236	0.2317	0.4933	0.136	0.044135	0.13949	0.41384	0.27651	0.099684	0.14645	0.17336	0.22007	0.073177	0.11411	0.06932	0.20417	-0.675	-0.80417	-0.26667	-1.0646	-0.49375	-0.27917	-1.0146	-0.30417	-0.56875	-0.72292	-0.0083333	-0.79375	-0.34375	-0.18542	-0.92917	399.869	199.574	300.712	494.412	265.833	407.846	431.005	420.825	462.119	449.830	424.879	535.693	179.001	469.297	428.433	279.227	0.00041454	0.00095503	0.00014819	423.9	3.65e-06	2.7538e-05	572.92	137.25	4.4691e-06	1.0897e-05	225.68	81.317	41.737	17.221	1.3741e-05	38.896	0.0033	0.0034362	0.00090991	681.77	3.7884e-05	3.7401e-05	838.83	207.5	3.7635e-05	3.635e-05	337.14	121.34	91.981	29.624	3.3231e-05	55.429	221.636	386.489	351.538	191.874	527.130	337.621	191.661	196.668	287.946	372.335	196.121	200.932	201.188	206.432	312.364	205.388	-8191	255	
3870.008	1	1	0	0	0.054338	0.20777	0.034488	0.18172	0.11195	0.13718	0.027817	0.073705	0.25518	0.35745	0.16795	0.066957	0.15379	0.087642	0.26102	0.30206	0.16458	-0.375	-0.91458	-0.34375	-0.67292	-0.54375	-0.26667	-0.90833	-0.28333	-0.35208	-0.90625	-0.075	-0.72708	-0.2625	0.041667	-0.9	244.805	534.899	272.965	186.774	432.099	273.417	441.664	497.368	255.530	337.054	509.248	496.291	468.624	339.217	281.965	476.209	0.00028513	0.00037684	0.00023097	422.55	5.1562e-06	1.4825e-05	579.69	137.11	7.0294e-06	3.5265e-06	226.77	82.678	42.158	17.386	6.2816e-06	39.205	0.0031563	0.0031105	0.0008203	665.27	3.4623e-05	3.2828e-05	812.74	202.34	3.3755e-05	3.1845e-05	326.51	119.66	87.909	28.504	3.0493e-05	55.165	197.314	279.796	309.619	191.469	357.454	340.930	191.806	196.834	355.265	370.941	196.441	200.670	200.798	206.433	441.406	205.410	-8191	255	
3870.103	1	1	0	0	0.28234	0.21319	0.099372	0.2114	0.12599	0.043781	0.38454	0.20924	0.13753	0.054155	0.36229	0.095219	0.23991	0.10477	0.056861	0.31345	0.0083333	-0.22708	-0.75833	-0.25417	-0.79375	-0.4875	-0.016667	-0.70833	-0.13125	-0.125	-0.93958	-0.29375	-0.61667	-0.65	-0.054167	-1.0312	509.152	461.874	209.069	499.922	497.696	399.890	201.553	525.093	241.005	372.023	514.769	423.211	530.823	408.971	421.195	199.424	0.00027904	0.0012207	0.00011511	427.16	1.0501e-05	9.4887e-06	580.7	138.92	6.2473e-06	9.0814e-06	228.37	83.05	42.444	17.422	4.2112e-06	39.503	0.0029604	0.0029171	0.00078507	669.02	3.3717e-05	3.1844e-05	814.17	206.06	3.3483e-05	3.1612e-05	327.93	121.73	87.057	28.46	3.0293e-05	55.793	214.829	217.395	496.441	191.791	298.432	311.103	191.270	196.914	431.311	328.901	196.230	200.704	200.858	206.825	382.177	205.432	-8191	255	
3870.201	1	1	0	0	0.16275	0.081097	0.22228	0.049514	0.27808	0.12565	0.20487	0.17378	0.13122	0.18469	0.31443	0.30304	0.097319	0.12396	0.16275	0.27686	-0.175	-0.225	-1.0542	-0.15208	-0.43958	-0.60417	0.11458	-0.89583	-0.13958	0.12708	-0.95208	-0.42292	-0.62292	-0.70625	-0.016667	-0.94792	517.201	200.957	362.176	433.893	334.998	456.288	425.142	291.790	514.157	186.645	529.798	198.976	522.744	388.421	378.034	244.325	0.0003963	0.00055506	0.00032362	428.67	7.9384e-06	1.2519e-05	585.27	138.42	7.7178e-06	7.3219e-06	227.58	82.45	42.087	17.431	1.5879e-05	39.21	0.0028721	0.002845	0.00078246	677.33	3.2868e-05	3.1628e-05	820.8	208.54	3.3451e-05	3.1995e-05	332.63	123.57	87.693	28.872	3.271e-05	56.703	211.692	269.728	514.152	191.963	412.768	285.345	191.579	197.073	377.476	334.697	196.002	200.807	201.587	206.621	274.567	205.646	-8191	255	
3870.295	1	1	0	0	0.10784	0.22785	0.012466	0.034067	0.12336	0.10549	0.23905	0.31171	0.038764	0.28019	0.097421	0.17942	0.25684	0.040981	0.13998	0.33462	-0.32292	-0.070833	-1.0125	-0.49375	-0.61667	-0.86042	-0.25625	-0.76458	-0.22917	0.066667	-1.2396	-0.20625	-0.29792	-1.0333	-0.15208	-0.98333	337.379	359.531	502.903	400.291	472.521	330.022	498.223	201.950	493.137	431.751	388.152	265.722	517.617	208.997	355.839	495.651	0.0003363	0.0013942	0.00042295	422.75	8.7494e-06	5.3195e-06	575.83	136.24	8.1807e-06	5.3475e-06	225.09	80.882	41.837	17.413	1.2967e-05	38.873	0.0029627	0.0029602	0.00084898	683.48	3.3162e-05	3.194e-05	822.53	206.84	3.2423e-05	3.1038e-05	331.15	121.26	84.995	28.139	3.2493e-05	55.435	222.045	275.390	530.553	191.977	358.445	431.626	191.514	197.035	295.371	341.276	196.200	200.797	200.895	206.373	188.647	205.649	-8191	255	
3870.391	1	1	0	0	0.13838	0.23453	0.087934	0.20686	0.22503	0.26023	0.087453	0.10853	0.25799	0.35182	0.22911	0.25396	0.097475	0.10272	0.12272	0.069198	-0.28958	0.010417	-0.925	-0.47083	-0.33542	-0.86042	-0.21667	-0.65625	-0.78542	-0.022917	-1.0167	-0.47083	-0.1625	-1.125	-0.14167	-0.8125	458.905	395.128	313.853	213.066	443.681	354.184	437.047	526.038	316.842	466.538	429.305	529.364	370.856	244.003	486.641	469.529	0.00030888	0.00095581	0.00037359	421.12	4.0695e-06	1.8205e-05	578.12	136.08	3.1005e-06	8.5765e-06	226.68	81.541	41.395	17.391	1.6638e-05	39.305	0.0027655	0.0027836	0.00083443	665.39	3.068e-05	3.0127e-05	821.41	202.07	3.0559e-05	2.9949e-05	331.71	119.4	83.15	28.026	3.292e-05	55.04	232.482	222.449	486.476	192.230	508.492	267.061	191.480	197.033	286.350	497.228	196.367	200.615	200.857	206.342	196.973	205.755	-8191	255	
3870.512	1	1	0	0	0.1297	0.20905	0.2625	0.17179	0.20931	0.090804	0.31358	0.1103	0.25751	0.31235	0.22295	0.18253	0.012315	0.095762	0.37272	0.25599	-0.33333	0.0083333	-0.77708	-0.58125	-0.22083	-1.0708	-0.10208	-0.52708	-0.91667	0.01875	-0.63958	-0.6375	-0.072917	-0.95833	-0.175	-0.50833	228.920	213.183	241.016	218.599	339.098	290.706	425.893	265.705	473.262	416.815	442.971	438.940	504.848	398.964	341.842	424.240	0.00031864	0.00054936	0.0003545	424.04	1.3087e-05	1.4257e-05	576.41	137.17	5.9475e-06	5.6409e-06	227.15	82.367	42.268	17.481	9.913e-06	39.297	0.0026875	0.0027867	0.00084696	659.64	3.0239e-05	3.0682e-05	829.33	201.59	3.0334e-05	3.1087e-05	337.31	120.01	84.492	28.913	3.4664e-05	55.459	244.089	505.997	434.766	192.007	392.501	274.303	191.679	197.252	406.787	526.405	196.448	201.116	201.465	206.304	341.284	205.626	-8191	255	
3870.608	1	1	0	0	0.1248	0.23023	0.1652	0.12716	0.13697	0.14854	0.2528	0.13676	0.18902	0.39336	0.041691	0.070704	0.16842	0.23226	0.14159	0.39253	-0.39583	-0.15833	-0.7875	-0.58542	-0.11875	-0.86458	-0.17292	-0.27292	-0.85208	-0.041667	-0.58333	-0.62292	0.0625	-0.79583	-0.15	-0.17292	333.939	525.010	506.794	410.299	265.261	270.535	445.506	208.620	356.910	449.157	422.824	498.665	529.793	214.043	230.532	465.331	0.00046381	0.0015453	0.00011645	423.43	3.5645e-06	2.1824e-06	578.45	136.73	8.5672e-06	6.3395e-06	226.97	82.047	41.653	17.416	1.0954e-05	39.196	0.0028015	0.003063	0.0008936	667.16	3.1423e-05	3.3567e-05	841.27	203.34	3.16e-05	3.3827e-05	337.86	120.42	84.488	29.464	3.4258e-05	54.959	236.505	504.886	311.200	192.558	208.114	243.900	191.490	197.014	380.466	236.927	196.431	200.940	200.596	206.500	379.448	205.149	-8191	255	
3870.704	1	1	0	0	0.26369	0.1895	0.17949	0.33138	0.13764	0.15553	0.11293	0.11151	0.25174	0.24571	0.011441	0.25463	0.28131	0.3681	0.24525	0.065191	-0.55	0.047917	-0.43542	-0.45833	0.22292	-0.85833	-0.36667	-0.12292	-0.95	0.0125	-0.46875	-0.80417	-0.029167	-0.94792	-0.36042	0.041667	209.592	218.322	280.170	537.250	438.382	268.433	488.887	182.402	439.387	400.605	512.934	233.645	222.187	221.746	440.299	399.519	0.00041276	0.00044487	0.0002441	422.4	7.7892e-06	1.5263e-05	570.73	135.8	1.2056e-05	6.5989e-06	223.95	82.028	41.763	17.506	3.4537e-06	39.048	0.0027693	0.003139	0.00086542	658.17	3.1203e-05	3.4329e-05	825.36	200.1	3.12e-05	3.4094e-05	331.16	118.46	83.945	29.338	3.2551e-05	54.393	241.154	465.097	400.013	191.877	232.859	200.111	191.459	197.047	235.749	240.421	196.411	200.903	200.045	206.451	248.757	205.280	-8191	255	
3870.800	1	1	0	0	0.32942	0.10883	0.069628	0.26307	0.066818	0.28064	0.025092	0.062091	0.18051	0.39688	0.22478	0.25544	0.14609	0.12501	0.048689	0.062298	-0.50417	0.15417	-0.31667	-0.61458	-0.06875	-0.65833	-0.47083	-0.16458	-0.93542	-0.26875	-0.51667	-0.89792	-0.13542	-0.53958	-0.5375	-0.039583	305.296	455.389	421.838	197.273	357.773	262.702	530.624	311.228	414.968	231.751	518.883	463.286	399.103	360.704	255.874	223.109	0.00040588	0.00051896	0.00028341	419.39	6.727e-06	1.92e-06	570.45	136.43	8.1075e-06	6.0099e-06	225.14	82.35	42.086	17.561	3.1377e-06	39.264	0.0027871	0.0031714	0.00083142	653.88	3.2081e-05	3.4957e-05	821.24	200.04	3.2537e-05	3.4846e-05	330.34	118.96	86.591	29.72	3.2443e-05	54.677	234.778	486.480	297.231	191.759	212.506	428.522	191.674	196.739	235.400	364.696	196.304	201.106	200.308	206.619	241.877	205.414	-8191	255	
3870.897	1	1	0	0	0.38743	0.28296	0.3032	0.24394	0.19065	0.18754	0.17847	0.19272	0.17638	0.22246	0.23352	0.26432	0.19547	0.1596	0.3176	0.13571	-0.54375	-0.28125	-0.32708	-0.92083	-0.18958	-0.82292	-0.7125	-0.26667	-0.925	-0.52708	-0.66875	-0.88125	-0.22917	-0.86667	-0.68958	-0.16875	438.953	243.787	249.280	230.223	283.417	268.044	460.745	476.355	426.144	349.041	537.929	468.081	272.922	284.584	383.334	505.631	0.00050334	0.0021715	0.00029543	421.93	9.7598e-06	1.1691e-05	574.78	136.93	9.0507e-06	6.362e-06	227.52	82.367	41.961	17.603	5.7205e-06	39.635	0.0029688	0.0032405	0.00083796	660.53	3.4419e-05	3.5419e-05	828.99	202.42	3.4892e-05	3.5251e-05	333.33	120.12	89.352	29.596	3.202e-05	55.033	203.741	332.738	337.339	192.092	269.183	387.981	191.865	197.060	211.639	396.706	196.218	201.032	200.160	206.807	405.752	205.668	-8191	255	
3870.993	1	1	0	0	0.22117	0.15614	0.18289	0.26979	0.13413	0.23534	0.2615	0.24826	0.27837	0.37782	0.049054	0.048989	0.17147	0.16985	0.057872	0.10661	-0.32292	-0.4125	-0.11458	-0.94792	-0.072917	-0.37708	-0.59792	0.072917	-0.79375	-0.3875	-0.26458	-0.90417	-0.0041667	-0.33333	-0.675	-0.041667	485.200	408.285	403.253	502.472	179.611	431.085	516.104	207.175	240.962	478.341	479.886	247.142	474.276	476.778	243.944	191.887	0.00049924	0.0018123	0.00016167	424.17	4.48e-06	1.1268e-05	578.24	137.9	1.2219e-05	1.3167e-05	226.81	82.266	42.186	17.6	9.0603e-06	39.744	0.0030115	0.0030862	0.00080522	657.74	3.4234e-05	3.32e-05	817.42	201.27	3.4576e-05	3.3386e-05	329.44	120.41	89.961	29.274	3.2074e-05	55.528	236.819	276.951	243.885	191.706	504.676	305.797	191.703	196.902	299.402	346.977	196.377	200.815	200.388	206.608	400.323	205.096	-8191	255	
3871.089	1	1	0	0	0.14925	0.16412	0.11113	0.30448	0.18777	0.10752	0.10075	0.090041	0.26721	0.22158	0.42962	0.14762	0.1682	0.3483	0.22243	0.38442	-0.041667	-0.31042	-0.11875	-1.0458	-0.28125	-0.17083	-0.69583	-0.15417	-0.85208	-0.57083	-0.05625	-0.93125	-0.2375	-0.32083	-0.96875	-0.19792	240.866	363.230	332.500	340.682	493.793	536.362	180.685	447.785	274.258	220.460	227.753	387.298	521.652	536.759	257.859	455.971	0.00051471	0.0012753	0.00046243	422.32	4.187e-06	2.5873e-05	579.76	137.64	1.2074e-05	7.3749e-06	225.57	82.2	42.013	17.509	7.08e-06	39.474	0.0031024	0.0030668	0.00081734	671.88	3.5707e-05	3.35e-05	825.07	205.86	3.5478e-05	3.3474e-05	329.34	121.89	89.686	29.014	3.1903e-05	56.063	228.990	293.876	276.048	191.982	515.587	345.842	191.430	196.771	339.490	374.699	196.427	201.083	200.854	206.330	419.546	205.004	-8191	255	
3871.183	1	1	0	0	0.082524	0.22491	0.18444	0.25404	0.26648	0.092948	0.21097	0.22091	0.068179	0.31636	0.10961	0.32126	0.1134	0.20706	0.28837	0.24398	-0.29583	-0.58958	-0.029167	-1.0271	-0.20833	-0.35417	-1.0438	-0.125	-0.79375	-0.79792	-0.34792	-0.88958	-0.6625	-0.18333	-0.75625	-0.15208	246.647	297.372	195.633	476.575	467.665	365.982	187.330	495.708	383.785	295.774	449.628	240.084	241.419	497.536	220.942	520.550	0.00028172	0.0012051	0.00030577	426.93	8.1208e-06	1.0768e-05	580.47	138.18	5.0852e-06	3.3457e-06	228.32	83.071	41.698	17.494	1.7992e-06	39.678	0.0030755	0.0030713	0.00082727	686.69	3.5517e-05	3.3734e-05	830.88	210.43	3.5428e-05	3.371e-05	334.1	124.37	89.566	29.021	3.246e-05	56.805	234.193	234.935	282.947	191.819	426.877	385.148	191.435	196.693	434.171	237.732	196.235	200.863	201.186	206.480	241.538	205.438	-8191	255	
3871.304	1	1	0	0	0.14486	0.23944	0.013955	0.0862	0.31221	0.19254	0.25577	0.33323	0.34507	0.11869	0.065358	0.17544	0.45263	0.076009	0.21857	0.33098	-0.28542	-0.78125	-0.0875	-0.8625	-0.47083	-0.26042	-1.0917	-0.35208	-0.57292	-0.96458	-0.19167	-0.95625	-0.64375	-0.28125	-0.92083	-0.54583	260.663	230.045	440.473	495.817	359.030	357.202	186.393	181.819	507.776	277.844	467.665	482.658	200.748	531.675	322.499	533.639	0.0001855	0.00062821	0.00013896	426.81	3.5689e-06	1.2062e-05	585.9	138.42	5.5259e-06	8.4636e-06	229.48	83.588	42.058	17.774	1.2799e-05	39.901	0.0029784	0.0029779	0.00082073	684.11	3.3455e-05	3.1976e-05	827.74	208.82	3.2963e-05	3.2055e-05	335.1	124.31	87.829	29.02	3.3378e-05	57.278	229.413	233.890	526.789	191.980	378.223	258.178	191.410	197.104	403.066	382.341	196.082	201.224	201.095	206.722	530.818	205.529	-8191	255	
3871.400	1	1	0	0	0.15394	0.18459	0.14144	0.26927	0.060943	0.10985	0.37833	0.066959	0.20046	0.082769	0.047949	0.1825	0.30085	0.11576	0.18943	0.46661	-0.091667	-0.93958	-0.22083	-0.88125	-0.72708	-0.10417	-1.3687	-0.38958	-0.41667	-1.0354	-0.37917	-1.0375	-0.8375	-0.18125	-0.88958	-0.44375	209.952	302.383	465.109	514.325	242.124	527.626	486.695	533.545	244.401	267.763	422.956	503.592	486.003	366.229	370.344	480.628	0.00022716	0.00021646	6.2694e-05	422.7	2.4649e-06	1.7302e-05	582.48	137.65	7.7853e-06	2.5217e-06	227.74	82.835	42.251	17.541	1.4492e-05	39.474	0.002969	0.0030276	0.00086421	689.85	3.386e-05	3.2965e-05	842.79	210.02	3.3329e-05	3.2487e-05	337.21	123.2	86.506	28.577	3.369e-05	55.942	244.426	299.985	428.299	192.252	378.008	383.062	191.192	196.986	358.991	257.847	196.238	201.053	200.784	206.484	210.793	205.604	-8191	255	
3871.472	1	1	0	0	0.1231	0.18788	0.1022	0.18478	0.14339	0.10864	0.19907	0.16812	0.18624	0.26152	0.41327	0.30352	0.097612	0.17969	0.20128	0.35951	0.079167	-0.82917	0.014583	-0.89375	-0.94167	-0.32917	-0.88958	-0.48125	-0.29583	-0.68542	-0.25	-0.49375	-1.0187	-0.025	-0.66875	-0.57917	448.858	210.735	433.149	514.900	263.927	443.888	458.621	198.047	348.392	479.919	190.767	234.466	224.089	210.845	326.529	443.603	0.0003382	0.001047	0.00022828	423.74	3.881e-06	4.9765e-06	580.07	137.26	5.3386e-06	6.549e-06	226.95	82.706	42.492	17.482	5.7128e-06	39.186	0.0028072	0.0028844	0.00085762	670.32	3.1684e-05	3.0975e-05	830.12	203.95	3.0562e-05	3.0167e-05	332.3	118.95	82.35	27.773	3.1417e-05	54.193	230.719	224.901	475.793	192.159	238.817	291.803	191.605	196.954	433.635	402.651	196.567	201.391	200.099	206.432	212.412	205.442	-8191	255	
3871.592	1	1	0	0	0.050353	0.23832	0.096027	0.10007	0.039861	0.18338	0.074152	0.32735	0.24914	0.14887	0.24831	0.2139	0.1462	0.30011	0.080306	0.30835	0.097917	-0.75625	-0.1125	-0.57292	-0.78125	-0.24167	-0.69792	-0.63542	0.072917	-0.89375	-0.13958	-0.58542	-0.74792	-0.10833	-0.67292	-0.58958	361.663	234.983	386.024	346.047	429.267	191.227	234.425	498.325	397.592	278.857	424.391	214.430	372.762	479.882	212.834	401.001	0.00028216	0.0013204	0.00026272	424.52	4.3591e-06	1.5036e-05	581.55	138.65	6.322e-06	6.4873e-06	229.49	82.776	42.33	17.673	4.5254e-06	39.845	0.0025103	0.0026565	0.00078505	642.47	2.8057e-05	2.852e-05	812.23	196.6	2.7208e-05	2.8275e-05	325.68	115.75	79.128	27.494	2.9199e-05	53.235	231.579	495.828	387.963	192.174	254.598	198.783	191.524	196.894	432.947	186.061	196.173	201.139	201.006	206.222	266.388	205.714	-8191	255	
3871.688	1	1	0	0	0.26211	0.17741	0.25388	0.13424	0.19403	0.19867	0.22614	0.17296	0.18615	0.26139	0.024956	0.088486	0.15375	0.34407	0.1779	0.10105	0.33125	-0.83958	-0.24792	-0.25417	-0.84167	0.0020833	-0.43333	-0.63542	-0.1125	-0.81042	-0.56875	-0.64792	-0.89167	-0.27708	-0.4875	-0.94167	380.676	456.328	256.912	352.281	340.676	298.410	438.617	225.773	289.915	306.496	378.261	331.922	309.490	520.957	249.327	397.698	0.00019192	0.00090494	0.00039724	426.28	4.3265e-06	1.5007e-05	586.4	139.09	2.7796e-06	1.7098e-06	229.76	83.312	42.13	17.735	4.8147e-06	39.976	0.0023401	0.0025649	0.00073164	626.16	2.6254e-05	2.7808e-05	798.95	193.84	2.5818e-05	2.7764e-05	319.54	114.07	77.279	27.387	2.7184e-05	52.633	224.917	413.874	234.570	192.376	410.872	182.890	191.700	197.034	535.278	487.033	196.250	200.764	200.851	206.406	393.035	205.467	-8191	255	
3871.785	1	1	0	0	0.21443	0.2594	0.20711	0.09415	0.21096	0.25576	0.24132	0.22967	0.13404	0.015485	0.24879	0.21339	0.091423	0.15855	0.099798	0.079804	0.21875	-0.7875	-0.65208	-0.41667	-1.0125	0.01875	-0.44167	-0.70417	-0.175	-0.77708	-0.6	-0.36875	-1.1938	-0.43125	-0.67292	-0.875	436.740	381.217	523.888	402.919	525.877	516.187	438.989	188.856	215.807	190.694	317.107	189.009	210.557	380.145	399.752	475.712	0.00024794	0.00087426	0.00055992	425.78	3.713e-06	1.9289e-05	576.32	136.78	1.0424e-05	6.5954e-06	226.2	82.175	41.681	17.444	1.1604e-05	39.349	0.0022464	0.0025607	0.00069729	618.2	2.5712e-05	2.7942e-05	783.82	190.45	2.5842e-05	2.8154e-05	313.39	112.42	77.231	27.297	2.6585e-05	51.767	236.036	372.102	236.893	192.419	294.261	192.249	191.634	196.969	267.035	243.023	196.117	201.011	200.578	206.133	380.788	205.391	-8191	255	
3871.881	1	1	0	0	0.12561	0.12254	0.15807	0.114	0.21121	0.049196	0.21562	0.42746	0.042853	0.30016	0.28945	0.028695	0.13203	0.17842	0.05851	0.29994	0.3375	-0.95417	-0.55208	-0.18958	-0.9125	-0.15833	-0.73125	-1.0479	-0.15208	-0.8375	-0.78333	-0.20625	-0.88125	-0.27708	-0.21458	-1.0063	525.473	472.207	366.283	457.830	304.797	210.394	395.181	508.529	372.739	227.789	497.496	271.214	404.306	433.717	485.812	457.432	0.00044624	0.00070897	0.00042474	418.97	8.0425e-06	5.7154e-06	572.73	137.16	7.2441e-06	5.3749e-06	224.65	82.266	41.464	17.414	2.5016e-05	39.109	0.0023055	0.0025994	0.00067943	610.42	2.6685e-05	2.8237e-05	773.75	189.18	2.6708e-05	2.8161e-05	311.34	112.32	78.547	27.287	2.6121e-05	51.848	212.097	371.376	320.231	192.388	307.114	483.872	191.712	197.218	198.960	335.479	196.406	200.986	200.632	206.830	418.332	205.918	-8191	255	
3872.001	1	1	0	0	0.17642	0.053188	0.05257	0.22321	0.18287	0.13561	0.28594	0.25772	0.14507	0.12979	0.13404	0.24356	0.17444	0.12565	0.36683	0.1273	0.28542	-0.6125	-0.525	-0.20208	-0.58958	-0.37083	-0.30417	-0.99167	-0.21667	-0.75625	-0.95625	-0.12083	-0.77917	-0.5125	-0.25417	-0.99375	415.563	466.079	370.894	197.498	201.146	453.151	183.060	460.520	288.833	524.931	192.488	522.986	213.117	455.050	496.978	440.673	0.00044649	0.0011575	0.00022947	420.62	2.1891e-06	5.4919e-06	571.3	136.62	4.5292e-06	1.1251e-05	227.09	82.456	41.911	17.512	6.8426e-06	39.415	0.0024229	0.0026032	0.00067688	613.08	2.7988e-05	2.8351e-05	775.74	190.1	2.7896e-05	2.7754e-05	311.8	112.62	80.133	27.058	2.5688e-05	51.999	210.256	321.162	211.851	192.527	334.826	507.636	191.924	196.906	280.475	379.935	196.295	200.955	201.027	206.472	467.911	205.356	-8191	255	
3872.096	1	1	0	0	0.23869	0.035375	0.25677	0.23843	0.11467	0.094609	0.45889	0.40805	0.25317	0.072642	0.17355	0.19958	0.11328	0.17466	0.21535	0.25806	0.3	-0.62917	-0.54792	-0.035417	-0.85833	-0.58333	-0.30833	-1.1938	-0.04375	-0.70625	-1.0729	-0.20208	-0.84375	-0.81667	-0.36042	-1.0521	281.677	312.555	398.860	501.689	425.104	332.220	497.799	376.856	413.426	288.121	486.339	289.544	333.303	472.222	201.319	393.857	0.00047474	0.0014547	0.00014278	420.84	7.5807e-06	1.2595e-05	577.5	138.75	6.402e-06	2.8146e-06	228.31	82.458	42.104	17.456	1.8838e-06	39.217	0.002468	0.0024975	0.00066005	615.4	2.8032e-05	2.6983e-05	774.08	191.44	2.8164e-05	2.6845e-05	311.76	113.71	80.524	26.806	2.5525e-05	52.368	219.230	323.535	256.313	191.980	515.833	363.129	191.875	196.791	314.065	432.725	196.016	201.080	200.947	206.503	421.478	205.716	-8191	255	
#DATA ENDS
