BOXY.EXE: ISS Imagent and Oximeter Data Acquisition Program Version 0.80
Ascii Record File

#ACQ INFORMATION
2  Detector Channels 
16  External MUX Channels 
1  Auxiliary Channels 
5000  Waveform (CCF) Frequency (Hz)
1  Waveforms Skipped 
30  Waveforms Averaged 
1  Cycles Averaged 
16  Acquisitions per Waveform 
10.0806  Updata Rate (Hz) 

#FILE INFORMATION
TRUE -- External MUX Channel results are PARSED.
FALSE -- AC DC and Phase are NOT grouped.
TRUE -- Companion Program Settings File CREATED.
FALSE -- AC data not excluded
FALSE -- DC data not excluded
FALSE -- Phase data not excluded
FALSE -- Auxillary Chn. data not excluded
Tab delimiters

#CALIBRATION STATE
TRUE -- Waveform Calibration Values APPLIED.


#AUX CALIBRATION VALUES
Val Type	aux-1	

Term	1.0000e+00	
Factor	0.0000e+00	


#WF CALIBRATION VALUES
A = Detector Channel
Val Type	A-AC1	A-AC2	A-AC3	A-AC4	A-AC5	A-AC6	A-AC7	A-AC8	A-AC9	A-AC10	A-AC11	A-AC12	A-AC13	A-AC14	A-AC15	A-AC16	A-DC1	A-DC2	A-DC3	A-DC4	A-DC5	A-DC6	A-DC7	A-DC8	A-DC9	A-DC10	A-DC11	A-DC12	A-DC13	A-DC14	A-DC15	A-DC16	A-Ph1	A-Ph2	A-Ph3	A-Ph4	A-Ph5	A-Ph6	A-Ph7	A-Ph8	A-Ph9	A-Ph10	A-Ph11	A-Ph12	A-Ph13	A-Ph14	A-Ph15	A-Ph16	

Term	0.00000e+00	0.00000e+00	0.00000e+00	0.00000e+00	0.00000e+00	0.00000e+00	0.00000e+00	0.00000e+00	0.00000e+00	0.00000e+00	0.00000e+00	0.00000e+00	0.00000e+00	0.00000e+00	0.00000e+00	0.00000e+00	0.00000e+00	0.00000e+00	0.00000e+00	0.00000e+00	0.00000e+00	0.00000e+00	0.00000e+00	0.00000e+00	0.00000e+00	0.00000e+00	0.00000e+00	0.00000e+00	0.00000e+00	0.00000e+00	0.00000e+00	0.00000e+00	0.00000e+00	0.00000e+00	0.00000e+00	0.00000e+00	0.00000e+00	0.00000e+00	0.00000e+00	0.00000e+00	0.00000e+00	0.00000e+00	0.00000e+00	0.00000e+00	0.00000e+00	0.00000e+00	0.00000e+00	0.00000e+00	
Factor	1.00000e+00	1.00000e+00	1.00000e+00	1.00000e+00	1.00000e+00	1.00000e+00	1.00000e+00	1.00000e+00	1.00000e+00	1.00000e+00	1.00000e+00	1.00000e+00	1.00000e+00	1.00000e+00	1.00000e+00	1.00000e+00	1.00000e+00	1.00000e+00	1.00000e+00	1.00000e+00	1.00000e+00	1.00000e+00	1.00000e+00	1.00000e+00	1.00000e+00	1.00000e+00	1.00000e+00	1.00000e+00	1.00000e+00	1.00000e+00	1.00000e+00	1.00000e+00	X	X	X	X	X	X	X	X	X	X	X	X	X	X	X	X	

B = Detector Channel
Val Type	B-AC1	B-AC2	B-AC3	B-AC4	B-AC5	B-AC6	B-AC7	B-AC8	B-AC9	B-AC10	B-AC11	B-AC12	B-AC13	B-AC14	B-AC15	B-AC16	B-DC1	B-DC2	B-DC3	B-DC4	B-DC5	B-DC6	B-DC7	B-DC8	B-DC9	B-DC10	B-DC11	B-DC12	B-DC13	B-DC14	B-DC15	B-DC16	B-Ph1	B-Ph2	B-Ph3	B-Ph4	B-Ph5	B-Ph6	B-Ph7	B-Ph8	B-Ph9	B-Ph10	B-Ph11	B-Ph12	B-Ph13	B-Ph14	B-Ph15	B-Ph16	

Term	0.00000e+00	0.00000e+00	0.00000e+00	0.00000e+00	0.00000e+00	0.00000e+00	0.00000e+00	0.00000e+00	0.00000e+00	0.00000e+00	0.00000e+00	0.00000e+00	0.00000e+00	0.00000e+00	0.00000e+00	0.00000e+00	0.00000e+00	0.00000e+00	0.00000e+00	0.00000e+00	0.00000e+00	0.00000e+00	0.00000e+00	0.00000e+00	0.00000e+00	0.00000e+00	0.00000e+00	0.00000e+00	0.00000e+00	0.00000e+00	0.00000e+00	0.00000e+00	-1.59263e+02	-1.35366e+02	-1.22785e+02	-1.81606e+02	-7.89346e+01	-5.72216e+01	-1.56575e+02	-1.62015e+02	-7.73410e+01	-6.58398e+01	-1.71773e+02	-1.69662e+02	-1.85582e+02	-1.76518e+02	-7.73154e+01	-1.48785e+02	
Factor	2.57673e-05	1.35732e-04	4.29484e-05	1.60521e-01	1.34668e-06	1.50830e-06	1.73562e-01	5.04505e-02	1.28541e-06	1.76270e-06	8.78298e-02	2.84354e-02	2.48919e-02	9.05555e-03	1.36247e-06	1.28161e-02	7.70257e-06	9.89319e-06	2.77655e-06	8.54020e-02	1.04570e-07	1.10558e-07	8.68692e-02	2.69635e-02	1.04314e-07	1.10505e-07	4.53325e-02	1.47671e-02	1.33880e-02	4.87488e-03	1.06932e-07	6.69256e-03	X	X	X	X	X	X	X	X	X	X	X	X	X	X	X	X	



#DISTANCE SETTINGS
A = Detector Channel
A-1	A-2	A-3	A-4	A-5	A-6	A-7	A-8	A-9	A-10	A-11	A-12	A-13	A-14	A-15	A-16	

2.5000e+00	3.0000e+00	2.5000e+00	3.0000e+00	2.0000e+00	3.0000e+00	1.5000e+00	3.0000e+00	3.0000e+00	3.0000e+00	3.0000e+00	3.0000e+00	3.0000e+00	3.0000e+00	1.5000e+00	3.0000e+00	

B = Detector Channel
B-1	B-2	B-3	B-4	B-5	B-6	B-7	B-8	B-9	B-10	B-11	B-12	B-13	B-14	B-15	B-16	

1.0000e+01	1.0000e+01	1.0000e+01	1.4400e+00	1.0000e+01	1.0000e+01	1.5100e+00	1.9400e+00	1.0000e+01	1.0000e+01	1.9900e+00	2.4900e+00	2.4100e+00	2.9000e+00	1.0000e+01	2.9800e+00	




#DATA BEGINS
time	group	step	mark	flag	A-AC1	A-AC2	A-AC3	A-AC4	A-AC5	A-AC6	A-AC7	A-AC8	A-AC9	A-AC10	A-AC11	A-AC12	A-AC13	A-AC14	A-AC15	A-AC16	A-DC1	A-DC2	A-DC3	A-DC4	A-DC5	A-DC6	A-DC7	A-DC8	A-DC9	A-DC10	A-DC11	A-DC12	A-DC13	A-DC14	A-DC15	A-DC16	A-Ph1	A-Ph2	A-Ph3	A-Ph4	A-Ph5	A-Ph6	A-Ph7	A-Ph8	A-Ph9	A-Ph10	A-Ph11	A-Ph12	A-Ph13	A-Ph14	A-Ph15	A-Ph16	B-AC1	B-AC2	B-AC3	B-AC4	B-AC5	B-AC6	B-AC7	B-AC8	B-AC9	B-AC10	B-AC11	B-AC12	B-AC13	B-AC14	B-AC15	B-AC16	B-DC1	B-DC2	B-DC3	B-DC4	B-DC5	B-DC6	B-DC7	B-DC8	B-DC9	B-DC10	B-DC11	B-DC12	B-DC13	B-DC14	B-DC15	B-DC16	B-Ph1	B-Ph2	B-Ph3	B-Ph4	B-Ph5	B-Ph6	B-Ph7	B-Ph8	B-Ph9	B-Ph10	B-Ph11	B-Ph12	B-Ph13	B-Ph14	B-Ph15	B-Ph16	aux-1	digaux	

7176.363	1	1	0	768	0.091133	0.13089	0.16765	0.15901	0.098135	0.078783	0.040635	0.12588	0.1893	0.36544	0.056749	0.36019	0.14894	0.15383	0.31297	0.1758	0.15833	-1.0125	-0.49792	-0.65417	-1.2313	-0.57917	-1.1187	-0.9875	-0.17917	-1.3375	-0.95	-0.6875	-1.2333	-0.33333	-0.93958	-1.075	251.709	200.172	192.347	219.360	-75.423	12.349	153.790	-45.008	-19.180	-74.128	155.371	256.231	-75.674	232.489	182.560	95.555	0.00017851	0.0013341	0.00016277	887.75	6.5238e-06	4.924e-06	523.82	342.26	9.8854e-06	1.4508e-05	211.25	108.31	160.84	89.008	1.3798e-05	63.429	0.010685	0.01357	0.0037909	938.53	0.00014183	0.00014944	605.54	355.3	0.00014035	0.00014762	258.43	120.78	168.94	90.268	0.00014021	68.576	108.272	259.107	83.865	-62.981	141.475	127.396	-64.719	-58.269	-13.654	74.348	-60.892	-58.897	-55.246	-51.714	278.522	-55.877	-8191	255	
7176.459	1	1	0	0	0.23355	0.26522	0.20191	0.14773	0.11578	0.17422	0.23569	0.23855	0.20558	0.041793	0.11152	0.2312	0.33153	0.3214	0.082242	0.14804	0.070833	-1.2521	-0.61667	-0.50625	-1.0562	-0.49792	-0.76042	-1.0729	-0.2125	-1.1354	-0.90417	-0.47708	-1.4354	-0.49792	-0.75833	-1.1833	70.726	13.200	203.117	-53.262	97.165	241.317	223.653	213.333	185.566	174.032	-44.736	76.044	-69.632	233.072	-63.742	-41.731	0.00028607	0.0010688	0.00028936	883.79	7.8666e-06	8.6077e-06	526.48	341.02	1.3488e-05	1.6037e-05	214.14	107.34	160.01	89.022	6.8055e-06	63.867	0.010269	0.01316	0.0036872	933.08	0.00013854	0.00014523	605.74	354.56	0.00013714	0.00014345	258.21	120.03	167.94	89.923	0.00013687	68.376	131.571	-40.539	13.864	-62.742	82.045	185.580	-64.702	-58.327	-54.097	38.145	-61.323	-58.804	-55.073	-51.509	64.829	-55.417	-8191	255	
7176.556	1	1	0	0	0.0039965	0.076129	0.25749	0.19038	0.14902	0.2503	0.17705	0.032161	0.080202	0.12194	0.16874	0.25815	0.16577	0.24059	0.01762	0.075359	0.15208	-1.0104	-0.70833	-0.56458	-1.2792	-0.24375	-0.77917	-1.1979	-0.24375	-1.0646	-1.1063	-0.43542	-1.3646	-0.81875	-0.62292	-1.3375	-27.681	179.802	118.663	251.658	244.517	266.603	282.938	63.930	-29.508	96.814	149.808	37.113	102.598	228.686	255.809	137.557	0.00011628	0.0012306	0.00016533	891.68	4.169e-06	1.3706e-05	537.6	343.12	1.469e-05	2.8925e-05	214.71	109.43	162.38	89.041	9.1048e-06	64.826	0.010001	0.012702	0.0035956	937.58	0.00013462	0.00014242	609.51	356.25	0.00013373	0.00014158	260.19	121.88	170.21	90.234	0.0001358	69.289	56.448	221.830	163.268	-62.683	155.896	-39.380	-64.710	-58.118	214.399	38.678	-62.108	-58.402	-55.227	-51.836	26.983	-55.305	-8191	255	
7176.652	1	1	0	0	0.16996	0.28802	0.14118	0.26768	0.013681	0.20273	0.21307	0.11222	0.14289	0.19148	0.075787	0.32791	0.32116	0.057141	0.22594	0.12025	0.16875	-0.82292	-0.82083	-0.33542	-1.1208	-0.59792	-0.25	-1.3042	-0.4875	-0.94792	-1.0354	-0.41667	-1.2917	-0.90833	-0.375	-1.2917	-5.849	-58.802	-26.414	250.835	180.936	109.929	205.020	-58.448	63.716	-33.563	222.729	-69.774	250.919	278.769	200.863	-61.042	0.00020457	0.0014296	0.00036853	899.58	1.5185e-06	5.3867e-06	546.58	348.55	7.3828e-06	8.5782e-06	223.18	112.17	163.99	89.684	2.8607e-05	65.889	0.0098707	0.012494	0.0035129	942.17	0.00013001	0.00013834	617.24	359.94	0.00013114	0.0001389	264.29	124.17	171.78	91.051	0.00013471	70.207	117.720	3.441	22.987	-62.983	89.549	32.102	-64.769	-58.122	147.300	169.834	-61.415	-58.794	-54.994	-51.669	109.473	-55.534	-8191	255	
7176.748	1	1	0	0	0.18907	0.11408	0.085244	0.17151	0.064734	0.11974	0.12097	0.18955	0.1419	0.21437	0.2313	0.03536	0.13734	0.36624	0.27921	0.30177	0.014583	-0.66042	-1.1708	-0.2375	-1.1063	-0.88958	-0.45	-1.4062	-0.54583	-0.7	-1.1229	-0.35833	-1.175	-1.0458	-0.40833	-1.4375	16.376	78.931	54.498	-74.225	275.927	18.117	139.958	211.726	102.280	-14.964	138.569	57.436	-38.748	-44.987	278.498	163.053	0.00018708	0.0023603	0.00041514	904.26	9.4974e-06	1.1454e-05	551.21	349.93	1.061e-05	1.0195e-05	224.17	112.49	164.87	90.001	1.1941e-05	65.443	0.0098091	0.012543	0.0035145	948.82	0.00013239	0.00013984	622.74	361.73	0.00013244	0.00013924	264.71	124.01	171.71	90.937	0.00013499	69.671	141.132	-74.234	144.943	-62.812	65.824	27.216	-65.127	-58.443	-7.024	140.612	-61.597	-58.821	-55.374	-51.921	79.151	-54.971	-8191	255	
7176.844	1	1	0	0	0.060556	0.051132	0.15073	0.12313	0.28634	0.16696	0.24248	0.11332	0.34027	0.065288	0.33927	0.11969	0.19511	0.071798	0.2085	0.1125	-0.17083	-0.575	-1.2792	-0.4	-0.86875	-0.87917	-0.43125	-1.4167	-0.42083	-0.45	-1.2125	-0.45417	-1.0187	-1.2896	-0.4875	-1.3563	120.296	-72.501	-0.053	-9.789	11.688	25.810	278.430	234.625	-6.275	-22.553	252.296	-38.796	270.893	-27.806	271.529	272.323	0.00035044	0.0010304	0.0003895	902.65	1.2452e-05	4.3333e-06	544.38	345.92	8.4327e-06	1.8494e-05	217.71	109.81	162.13	88.943	1.0333e-05	64.068	0.0098594	0.012431	0.0035066	948.09	0.00013202	0.00013988	614.67	357.56	0.00013234	0.00014005	260.2	121.85	169.72	90.119	0.00013676	68.69	209.735	62.107	-70.178	-62.853	70.446	9.368	-64.995	-58.098	238.315	120.827	-61.778	-58.831	-54.988	-51.732	-44.758	-55.588	-8191	255	
7176.965	1	1	0	0	0.037913	0.20482	0.14775	0.12918	0.27979	0.16271	0.091528	0.11261	0.19826	0.13461	0.22571	0.24526	0.21909	0.374	0.11731	0.40844	-0.16458	-0.56875	-1.2188	-0.34167	-0.86875	-1.125	-0.45833	-1.2771	-0.74792	-0.58333	-1.3083	-0.49167	-0.88958	-1.5042	-0.32708	-1.325	8.658	178.799	9.745	-25.855	214.610	211.769	278.705	116.279	210.120	272.852	157.101	138.161	-31.138	282.625	259.199	256.874	0.0001708	0.0015831	0.00019059	887.2	8.5427e-06	6.6264e-06	537.71	345.52	1.1657e-05	2.3433e-05	220.05	110.18	163.48	89.722	1.1361e-05	65.689	0.0099871	0.012723	0.0035558	940.32	0.00013451	0.00014314	610.99	357.68	0.00013437	0.00014311	263.34	122.46	171.11	90.891	0.00013784	70.072	150.736	-13.573	233.172	-62.901	52.878	198.120	-65.013	-58.483	-59.089	-64.237	-61.893	-58.353	-55.145	-51.898	172.294	-55.487	-8191	255	
7177.059	1	1	0	0	0.12184	0.081718	0.2618	0.068232	0.13033	0.12836	0.2514	0.37934	0.11513	0.16395	0.29369	0.12014	0.25846	0.25885	0.23502	0.13722	-0.4125	-0.24167	-1.1917	-0.71458	-0.725	-1.2458	-0.39167	-1.1167	-0.86458	-0.39583	-1.3229	-0.75208	-0.66875	-1.3875	-0.17083	-1.0958	35.973	-33.691	-35.406	43.011	-61.026	163.213	241.497	-64.851	33.688	-45.915	237.851	134.423	226.553	230.516	102.931	224.039	0.00044497	0.0011599	0.00016053	896.41	7.3601e-06	1.2026e-05	541.94	351.09	4.4282e-06	9.0911e-06	223.63	111.77	165.73	91.404	1.7278e-05	66.809	0.009953	0.012792	0.0035789	942.96	0.00013479	0.00014284	614.99	362.52	0.00013439	0.00014508	267.86	124.83	173.86	92.584	0.00014089	71.471	171.299	119.111	268.262	-62.758	-11.829	129.054	-64.680	-58.109	79.193	0.290	-61.602	-58.581	-55.111	-51.603	58.068	-55.482	-8191	255	
7177.155	1	1	0	0	0.2958	0.23504	0.18828	0.26218	0.17089	0.27048	0.1802	0.35096	0.27363	0.15562	0.23643	0.27835	0.30426	0.21013	0.058309	0.25213	-0.6125	-0.23542	-1.2437	-0.80625	-0.58125	-1.1938	-0.30833	-0.91667	-1.1187	-0.475	-1.2896	-0.71875	-0.71667	-1.4958	-0.49167	-1.0021	272.684	176.860	238.969	216.235	2.859	202.989	235.601	246.120	72.174	-20.072	149.891	261.493	280.702	260.345	0.899	260.959	0.00011882	0.0011608	0.00077174	899.97	1.3649e-05	2.9762e-06	544.39	352.72	1.5516e-05	8.096e-06	229.11	114.61	168.09	92.755	1.4832e-06	68.654	0.01021	0.013005	0.0036538	951.6	0.00013742	0.00014602	621.48	365.03	0.00013717	0.00014618	272.14	127.11	175.79	94.099	0.00014184	73.48	185.594	58.442	83.820	-63.241	143.927	147.002	-65.408	-58.157	91.179	-65.566	-61.625	-58.538	-54.857	-51.691	43.577	-55.461	-8191	255	
7177.251	1	1	0	0	0.11881	0.13514	0.14206	0.46129	0.17084	0.21626	0.26002	0.10095	0.19934	0.014351	0.066171	0.093615	0.33092	0.23107	0.21459	0.14077	-0.71875	-0.26042	-1.0042	-0.9	-0.55	-1.0604	-0.51667	-0.98333	-1.075	-0.4625	-1.1229	-0.93542	-0.50625	-1.4	-0.53542	-0.56875	169.328	101.394	53.456	231.393	72.274	-1.905	203.629	214.105	32.016	213.132	260.357	194.893	282.929	-25.076	108.784	183.400	0.0001486	0.00069262	0.00027758	897.67	1.6423e-06	1.8336e-06	549.26	356.5	9.1215e-06	6.5614e-06	230.92	116.93	169.08	93.413	2.1094e-05	68.71	0.010299	0.013228	0.0036964	953.97	0.00013943	0.00014844	627.56	369.96	0.00013923	0.00014687	275.6	128.94	177.44	94.563	0.00014391	73.067	141.348	27.851	219.568	-62.713	-37.987	159.847	-64.740	-57.840	24.069	22.700	-61.536	-58.648	-55.396	-51.513	15.701	-55.508	-8191	255	
7177.348	1	1	0	0	0.16492	0.18237	0.11716	0.29815	0.205	0.30566	0.26232	0.11394	0.16382	0.050829	0.1983	0.042364	0.15488	0.23837	0.29313	0.053958	-0.78542	-0.16458	-0.99375	-0.69167	-0.40625	-1.2521	-0.49167	-0.81458	-1.2729	-0.27083	-0.9625	-0.93958	-0.44792	-1.375	-0.675	-0.43125	61.876	220.219	235.645	235.334	166.443	30.150	169.653	214.994	21.151	-5.278	212.969	45.765	-52.122	-74.250	77.053	85.728	0.00025972	0.0010862	0.00013762	886.69	5.96e-06	1.6495e-05	524.15	355.25	1.1094e-05	1.3513e-05	230.54	115.82	170.03	93.477	5.5967e-06	67.745	0.010463	0.013286	0.0037604	943.62	0.0001426	0.00015152	609.72	368.85	0.00014056	0.0001482	273.76	128.53	177.96	94.622	0.00014091	72.33	129.588	18.711	203.402	-62.859	-2.286	69.906	-64.900	-58.102	163.437	106.995	-61.527	-58.604	-55.109	-51.426	216.268	-55.167	-8191	255	
7177.444	1	1	0	0	0.35208	0.12097	0.11427	0.17788	0.15099	0.065505	0.22615	0.031347	0.097229	0.097706	0.14441	0.11152	0.15601	0.12693	0.17319	0.066107	-0.80208	-0.3875	-0.74792	-1.0438	-0.48125	-1.0792	-0.775	-0.41667	-1.15	-0.32292	-0.96042	-1.2896	-0.42083	-1.2354	-0.7625	-0.41667	228.347	282.517	74.969	197.587	58.408	-45.919	196.637	249.442	188.545	75.664	199.744	-0.828	269.054	211.686	234.957	260.052	0.00020455	0.0012811	0.00030761	898.24	1.3841e-05	5.2613e-06	541.28	357.35	8.5139e-06	1.6347e-05	230.22	117.23	170.49	93.965	1.6113e-05	68.788	0.010172	0.012911	0.0036174	944.59	0.00013518	0.00014439	616.24	368.93	0.00013533	0.00014427	274.23	129.32	178.29	95.05	0.0001387	72.972	132.142	-21.719	24.770	-62.924	282.531	54.775	-65.015	-58.212	-12.682	108.587	-61.297	-58.916	-55.061	-51.598	9.220	-55.335	-8191	255	
7177.564	1	1	0	0	0.1576	0.42064	0.28115	0.23583	0.15973	0.056185	0.05381	0.090334	0.13105	0.18704	0.020661	0.16372	0.16292	0.35596	0.091118	0.23229	-0.84375	-0.27083	-0.63125	-1.0979	-0.13542	-1.0667	-0.91667	-0.40208	-1.2667	-0.42917	-0.65417	-1.2667	-0.64583	-1.2938	-0.89792	-0.3875	88.949	201.855	258.407	-72.595	75.711	142.246	-49.693	-15.058	155.584	84.764	217.274	266.938	99.421	231.114	-27.652	16.900	0.00016513	0.00030676	0.00039088	902.79	2.1861e-05	2.1466e-05	553.19	355.62	1.056e-05	9.6195e-06	236.52	118.7	172.46	94.253	1.4061e-05	69.239	0.0099837	0.012779	0.00356	948.04	0.00013192	0.00013995	622.39	368.43	0.00013211	0.00014007	275.54	130.1	179.14	95.112	0.00013494	73.434	158.318	51.918	70.325	-62.735	108.256	193.064	-65.124	-57.792	-23.902	214.792	-61.157	-58.669	-54.839	-51.455	-13.897	-55.351	-8191	255	
7177.660	1	1	0	0	0.11977	0.21886	0.12573	0.27835	0.15984	0.17914	0.32052	0.20501	0.12074	0.27056	0.071044	0.11289	0.10913	0.24292	0.30561	0.21106	-0.88333	-0.51875	-0.64375	-1.3312	-0.53542	-1.0042	-1.1833	-0.44792	-1.2	-0.75625	-0.64167	-1.4396	-0.51875	-1.1083	-1.2208	-0.46667	111.886	103.491	162.569	263.350	234.144	111.420	254.705	124.137	9.316	201.167	222.900	78.894	189.236	-58.845	143.735	180.464	0.00051255	0.00029266	0.00028497	905.54	2.0937e-05	4.9079e-06	551.06	362.15	9.3159e-06	8.7832e-06	238.95	121	173.95	95.493	5.5089e-06	70.357	0.0098833	0.012601	0.0035297	951.1	0.00013182	0.00014036	623.35	372.14	0.00013123	0.0001384	278.66	131.81	180.39	95.91	0.00013492	74.198	130.999	255.619	-17.197	-62.854	-22.284	-33.710	-65.367	-58.198	217.586	193.121	-61.270	-58.578	-55.111	-51.589	267.316	-55.517	-8191	255	
7177.757	1	1	0	0	0.095904	0.086988	0.099921	0.15843	0.19702	0.22507	0.20297	0.078317	0.13424	0.17193	0.010251	0.092369	0.02974	0.31237	0.15575	0.18373	-0.74167	-0.60417	-0.36875	-1.3438	-0.29375	-0.77708	-1.1875	-0.53958	-1.0729	-0.73125	-0.52083	-1.3104	-0.78958	-0.76875	-1.1375	-0.3875	199.263	232.449	182.360	223.277	238.789	-37.489	244.748	181.789	207.381	74.320	26.798	204.897	-60.374	254.261	-64.560	222.964	0.0002117	0.0010358	0.00032371	909.48	2.1475e-05	1.9955e-05	552.6	359.08	6.4705e-06	9.5175e-06	231.65	118.09	172.7	93.935	5.5167e-06	68.086	0.0099068	0.012603	0.003535	953.2	0.00013327	0.00014042	622.21	370.61	0.00013217	0.00013848	273.77	129.72	179.08	94.924	0.00013571	72.504	60.034	44.731	263.501	-62.496	-26.614	188.866	-65.099	-58.269	-22.447	-20.887	-61.335	-58.582	-55.171	-51.626	210.833	-55.511	-8191	255	
7177.853	1	1	0	0	0.06	0.094843	0.094726	0.22086	0.13057	0.19178	0.1266	0.049801	0.2044	0.073988	0.21802	0.23746	0.15335	0.4629	0.16404	0.036562	-0.59167	-1.1083	-0.47083	-1.3937	-0.7	-0.5875	-1.2667	-0.58333	-1.0458	-0.80833	-0.43333	-1.3021	-0.63958	-0.80208	-1.1521	-0.40833	201.579	146.394	-3.685	275.338	119.512	166.586	260.683	-0.850	47.326	100.105	234.611	-73.731	262.351	244.778	266.079	-31.493	0.00059917	0.0016553	0.00032336	889.94	1.0778e-05	9.5973e-06	530.81	356.59	1.3896e-05	2.0862e-05	228.69	117.08	169.47	93.086	2.0657e-06	68.094	0.0099597	0.012738	0.0035825	940.46	0.00013568	0.00014271	609.08	367.36	0.00013414	0.00014237	271.22	128.44	177.31	94.281	0.00013837	72.125	132.444	-70.449	35.187	-62.907	-58.930	65.054	-64.547	-58.088	-51.232	35.467	-61.426	-58.858	-55.173	-51.492	28.012	-55.454	-8191	255	
7177.924	1	1	0	0	0.19388	0.14134	0.15766	0.15771	0.38304	0.092209	0.079682	0.38525	0.27705	0.07993	0.20292	0.12592	0.41532	0.2517	0.13151	0.3783	-0.59583	-1.1875	-0.14167	-1.1396	-0.74583	-0.50625	-1.2812	-0.5625	-0.84792	-1.1104	-0.47917	-1.1667	-0.87708	-0.61875	-1.3292	-0.63125	120.960	63.676	123.965	-39.050	34.805	245.116	141.354	243.230	103.064	211.285	57.991	22.106	245.151	241.935	135.552	250.413	0.00035468	0.00089108	0.00011305	891.83	1.3754e-05	1.1448e-05	543.02	355.22	4.9091e-06	1.5363e-05	231.77	116.44	170.05	92.957	4.3499e-06	67.615	0.0099991	0.012758	0.0035769	942.98	0.00013467	0.00014202	615.14	366.48	0.00013312	0.00014057	272.35	128.16	176.99	93.927	0.00013398	72.014	145.683	99.140	11.731	-62.627	67.706	25.397	-64.622	-58.260	255.961	4.559	-60.841	-58.472	-55.377	-51.639	38.077	-55.417	-8191	255	
7178.043	1	1	0	0	0.10395	0.29494	0.17441	0.36369	0.263	0.010306	0.19526	0.30747	0.17486	0.035041	0.25025	0.056209	0.11732	0.10759	0.19965	0.21792	-0.31458	-1.1833	-0.53125	-1.2708	-0.92917	-0.49792	-1.2062	-0.65833	-0.79583	-1.1458	-0.28542	-1.2208	-1.0208	-0.55208	-1.2396	-0.68125	177.116	187.822	213.601	262.818	126.775	66.488	-72.105	280.357	271.792	6.256	197.198	-36.869	188.540	221.637	135.760	216.276	0.00024507	0.00013797	0.00033776	898.11	8.1787e-06	1.2843e-05	550.56	353.69	1.7079e-05	1.2641e-05	231.24	117.19	167.82	92.352	1.1283e-05	68.122	0.0097388	0.012455	0.0034801	942.9	0.00013128	0.00014014	620.35	366.01	0.00013219	0.00014021	272.81	127.96	174.98	93.032	0.00013493	71.935	175.682	-63.223	17.285	-62.983	146.276	112.101	-64.945	-58.296	168.438	113.378	-61.574	-58.573	-55.162	-51.651	190.290	-55.090	-8191	255	
7178.139	1	1	0	0	0.080837	0.21857	0.26341	0.051899	0.20229	0.11274	0.15783	0.23859	0.17227	0.2552	0.06527	0.20112	0.033854	0.35492	0.075865	0.30268	-0.3375	-0.86458	-0.175	-1.0812	-0.69792	-0.33125	-1.3021	-0.85417	-0.44375	-1.1583	-0.28125	-1.1125	-1.3042	-0.5	-1.2083	-0.95	4.515	256.897	209.868	140.965	251.963	171.041	274.817	174.525	216.651	51.907	120.478	-64.543	216.267	261.662	229.989	234.397	0.00059841	0.0020954	0.0002999	895.35	7.204e-06	1.0869e-05	555.73	353.07	1.0578e-05	2.5321e-05	233.79	117.91	168.7	92.707	1.0475e-05	68.527	0.0097695	0.012576	0.0035128	942.34	0.00013135	0.00014022	626.38	365.84	0.00012983	0.00013816	274.45	128.79	176.15	93.599	0.00013201	72.477	160.650	44.231	19.430	-62.433	101.464	282.632	-64.550	-58.118	106.307	119.365	-61.593	-58.858	-55.510	-51.667	-1.108	-55.305	-8191	255	
7178.237	1	1	0	0	0.073504	0.13152	0.075756	0.059798	0.055932	0.15718	0.088441	0.39462	0.10985	0.21636	0.1951	0.23332	0.17323	0.60739	0.1558	0.3241	-0.020833	-1.2979	-0.26667	-0.58125	-1.0125	-0.3	-1.2979	-0.99375	-0.31667	-1.0979	-0.55625	-0.84792	-1.1708	-0.44375	-1.0396	-0.92083	86.080	22.621	-55.695	259.555	222.884	253.571	-53.826	252.089	-34.427	169.137	119.920	238.062	214.628	231.022	50.504	-18.277	0.00016925	0.00038388	0.00046234	901.17	1.4104e-05	8.5502e-06	545.79	355.79	1.0335e-05	8.8863e-06	231.26	116.12	169.4	92.649	8.0315e-06	67.295	0.0096312	0.012295	0.0034654	945.36	0.00012943	0.00013813	618.19	365.6	0.0001305	0.00013749	271.06	127.23	175.67	93.302	0.00013204	71.42	52.602	64.529	-69.574	-62.366	99.393	86.912	-64.694	-58.344	94.752	121.356	-61.659	-58.464	-55.082	-51.588	217.102	-55.300	-8191	255	
7178.356	1	1	0	0	0.17935	0.19051	0.25431	0.11627	0.24726	0.1318	0.1382	0.25872	0.13817	0.28588	0.3377	0.47182	0.16266	0.44052	0.10271	0.23634	-0.072917	-1.1479	-0.58542	-0.80417	-1.2292	-0.2125	-1.0125	-0.98333	-0.24375	-1.0167	-0.71042	-0.53333	-1.4083	-0.41458	-0.98542	-1.125	-56.059	18.369	53.012	159.210	231.984	-29.291	228.135	166.088	37.086	-40.375	-48.538	201.824	-53.476	238.053	-53.257	-61.087	0.00051097	0.0013535	0.00023743	896.99	5.3667e-06	6.306e-06	544.06	354.34	1.9839e-05	1.2032e-05	230.62	117.53	170.84	93.712	6.7765e-06	67.899	0.0096062	0.012177	0.0034266	937.55	0.00012798	0.00013573	611.16	364.26	0.00012826	0.00013585	270.77	128.38	177.37	94.138	0.00013149	72.176	180.055	-18.130	74.269	-62.698	-35.208	78.692	-64.723	-57.954	104.888	132.623	-61.555	-58.542	-55.211	-51.668	33.369	-55.231	-8191	255	
7178.452	1	1	0	0	0.16007	0.065599	0.12907	0.17422	0.077719	0.066022	0.20495	0.40463	0.30165	0.23183	0.16526	0.25024	0.15519	0.43248	0.18026	0.19084	0.054167	-1.0479	-0.61042	-0.46042	-1.3312	-0.39375	-0.86875	-1.2271	-0.28333	-1.2208	-0.73958	-0.37292	-1.3417	-0.475	-0.72708	-1.2521	37.696	190.630	238.246	-75.432	208.258	265.230	12.024	240.954	150.067	0.304	212.383	264.382	261.818	276.775	61.793	205.922	0.00029279	0.0013706	0.00072512	897.22	7.54e-06	1.1529e-05	546.2	358.32	9.0203e-06	1.3892e-05	235.09	119.25	172.97	94.476	1.7513e-05	69.143	0.0096005	0.012195	0.0034172	937.66	0.00012859	0.00013656	616.05	368.03	0.00012869	0.00013546	273.73	129.89	178.71	94.837	0.00012927	72.917	157.123	55.303	-60.888	-62.923	10.468	143.315	-64.853	-57.950	18.519	59.758	-61.446	-58.470	-55.047	-51.493	163.245	-55.341	-8191	255	
7178.524	1	1	0	0	0.14828	0.15506	0.038282	0.31991	0.08395	0.20955	0.07964	0.13841	0.026568	0.26736	0.14249	0.27699	0.38279	0.32399	0.089471	0.26903	0.0625	-1.0896	-0.65208	-0.4875	-1.2833	-0.52083	-0.66875	-1.2188	-0.34583	-0.91875	-0.87083	-0.59375	-1.3646	-0.77292	-0.5375	-1.2021	-40.001	101.902	29.205	254.009	166.801	-57.227	226.643	270.209	275.863	180.656	-63.859	278.373	256.649	282.354	-52.852	258.275	2.4773e-05	0.00065529	0.00015524	902.91	1.4754e-05	2.3422e-06	555.11	359.85	6.5608e-06	1.7056e-05	237.23	119.97	173.67	94.704	8.5346e-06	70.024	0.0095521	0.01213	0.003407	944.92	0.00012843	0.00013474	621.18	369.97	0.00012835	0.00013539	276	130.81	179.73	95.197	0.00012985	73.739	-59.629	-10.077	-55.390	-62.704	49.117	-50.253	-64.840	-57.968	86.810	251.657	-61.478	-57.973	-54.934	-51.491	-55.228	-55.315	-8191	255	
7178.645	1	1	0	0	0.12928	0.046097	0.20865	0.16789	0.089502	0.034502	0.044248	0.19645	0.4176	0.31609	0.13101	0.18152	0.356	0.66807	0.16089	0.11072	0.066667	-0.99583	-0.88542	-0.36667	-1.225	-0.51458	-0.6	-1.2938	-0.27083	-0.97292	-1.0604	-0.19792	-1.4083	-0.9625	-0.3875	-1.3604	-22.140	57.120	-52.156	250.557	166.291	211.084	107.345	264.639	260.768	-53.574	10.803	282.932	277.144	269.873	171.150	-67.877	0.00027675	0.0013492	0.00026698	905.06	6.2145e-06	2.5793e-06	557.21	364.04	1.3837e-05	1.3168e-05	237.05	121.28	174.19	94.689	1.0596e-05	69.533	0.0094263	0.011971	0.0033883	948.78	0.00012735	0.0001339	625.09	372.79	0.00012816	0.00013489	276.98	131.55	180.51	95.543	0.0001311	73.543	136.316	-70.849	21.367	-63.013	158.157	-20.004	-64.593	-58.498	201.811	-19.005	-61.706	-58.429	-55.094	-51.395	-28.561	-55.355	-8191	255	
7178.741	1	1	0	0	0.24512	0.35643	0.049617	0.13702	0.13044	0.12584	0.15947	0.23504	0.049675	0.22861	0.3656	0.19037	0.064482	0.26142	0.1931	0.21225	0.010417	-0.58542	-1.0583	-0.48333	-0.85208	-0.72708	-0.55208	-1.4562	-0.50625	-0.9125	-1.225	-0.33542	-1.325	-0.86875	-0.26667	-1.2812	172.023	215.416	25.842	-64.064	280.191	-58.803	-2.180	204.737	214.468	227.397	164.667	-55.022	145.212	233.544	167.018	174.055	0.00025153	0.001261	0.00045268	902.91	5.1217e-06	1.1162e-05	550.86	359.4	8.0623e-06	1.753e-05	235.23	118.77	173.65	94.326	1.051e-05	68.739	0.009642	0.012245	0.0034119	944.98	0.00012846	0.00013617	618.32	369.21	0.00012847	0.00013496	272.86	129.48	179.29	95.122	0.00013093	72.628	110.670	-33.655	250.114	-62.664	154.537	149.039	-64.604	-57.926	47.861	42.805	-61.541	-58.050	-54.833	-51.407	185.382	-55.070	-8191	255	
7178.837	1	1	0	0	0.36288	0.062816	0.19456	0.23637	0.15667	0.28817	0.28384	0.098351	0.12208	0.10003	0.069004	0.32158	0.30235	0.14159	0.19052	0.22717	-0.18542	-0.575	-1.1104	-0.27292	-1.0542	-1.1354	-0.32708	-1.35	-0.6125	-0.45417	-1.2333	-0.49792	-1.1458	-1.2188	-0.39375	-1.2812	272.492	37.479	-68.223	171.111	133.061	234.269	222.677	176.109	253.367	213.489	156.418	-59.430	218.731	-1.164	18.571	183.727	0.000307	0.0019257	0.00029523	902.92	7.952e-06	2.3457e-05	545.53	358.95	6.0427e-06	2.5347e-05	233.51	118.79	172.77	93.9	5.5132e-06	68.522	0.0094201	0.012018	0.0033722	940.18	0.00012599	0.00013374	615.65	369.14	0.00012604	0.00013328	273.07	129.53	178.64	94.697	0.00012976	72.694	161.121	15.946	34.452	-62.652	-25.188	124.084	-64.641	-58.087	-58.297	142.406	-61.617	-58.527	-54.817	-51.742	77.633	-55.245	-8191	255	
7178.958	1	1	0	0	0.062821	0.16577	0.14644	0.060652	0.38959	0.20035	0.31364	0.3933	0.25785	0.033139	0.25014	0.18902	0.24572	0.21296	0.23682	0.4026	-0.25833	-0.50417	-1.3167	-0.57917	-0.875	-1.1521	-0.425	-1.2417	-0.7625	-0.58542	-1.35	-0.27708	-0.82083	-1.2021	-0.20417	-1.1604	252.148	-35.017	-24.725	238.951	218.780	22.833	252.123	-74.635	221.337	55.558	-23.736	205.443	-17.056	265.884	210.995	217.840	8.3991e-05	0.0018956	0.00059991	901.91	8.1459e-06	2.0531e-05	553.56	360.75	1.7249e-05	1.4468e-05	234.59	118.65	172.17	93.235	1.4286e-05	68.483	0.0094266	0.011966	0.0033484	943.23	0.00012479	0.00013331	618.38	368.96	0.0001251	0.00013201	273	128.77	177.34	93.882	0.00012786	72.149	274.204	45.554	-1.188	-62.946	90.176	215.325	-64.488	-57.964	195.596	142.572	-61.204	-59.040	-54.920	-51.459	168.866	-55.382	-8191	255	
7179.052	1	1	0	0	0.24521	0.14954	0.20615	0.054988	0.028919	0.31304	0.2359	0.25963	0.11955	0.099902	0.1046	0.25379	0.32787	0.30604	0.29587	0.48183	-0.49792	-0.42083	-1.0417	-0.50208	-0.53958	-1.05	-0.4625	-1.1187	-0.85208	-0.43333	-1.2479	-0.76458	-0.84792	-1.4438	-0.325	-1.1771	122.881	-17.084	-26.075	175.571	94.144	22.371	-18.220	-63.218	118.905	275.738	154.113	247.247	-62.283	278.746	145.619	242.006	0.00032267	0.00021926	0.00036575	908.41	1.4598e-05	4.864e-06	558.35	359.02	1.2155e-05	2.8084e-05	233.03	116.75	170.6	93.095	5.0534e-06	68.693	0.0093502	0.011903	0.0033066	945.27	0.00012452	0.00013204	621.68	367.41	0.000124	0.00013135	272.13	127.43	176.52	93.666	0.00012719	72.397	143.870	-51.449	53.896	-62.657	79.717	61.424	-64.965	-57.992	-11.899	229.008	-61.237	-58.316	-54.877	-51.510	209.841	-55.281	-8191	255	
7179.148	1	1	0	0	0.15047	0.25413	0.031096	0.11861	0.28343	0.27523	0.11874	0.10213	0.13441	0.051505	0.075925	0.22577	0.01623	0.22539	0.21835	0.17813	-0.47292	-0.26458	-1	-0.86875	-0.5125	-1.2812	-0.27708	-1.1625	-0.87083	-0.16667	-1.1958	-0.68333	-0.525	-1.6104	-0.2375	-0.9875	139.803	179.314	-59.327	265.376	281.148	244.151	164.189	143.941	186.792	25.705	102.035	238.746	274.985	226.017	-12.027	-57.226	0.00011839	0.00032838	0.00066176	909.06	9.704e-06	6.7881e-06	559.73	359.46	4.353e-06	1.568e-05	236.04	117.82	169.98	92.661	1.407e-05	67.604	0.0092147	0.011704	0.0032911	945.61	0.00012269	0.00013006	623.08	367.19	0.00012251	0.00013008	271.22	127.31	175.34	93.143	0.00012421	71.343	171.393	47.227	-11.037	-62.566	51.991	13.175	-64.838	-57.879	169.296	43.363	-61.605	-59.175	-54.886	-51.391	40.762	-55.232	-8191	255	
7179.220	1	1	0	0	0.27118	0.16727	0.13477	0.26973	0.28008	0.016602	0.13268	0.29768	0.37505	0.19699	0.32104	0.23577	0.47232	0.25427	0.17465	0.16966	-0.80625	-0.20208	-1.1125	-0.77292	-0.59167	-1.2979	-0.26875	-0.98125	-0.99792	-0.2375	-1.0521	-0.86667	-0.52083	-1.575	-0.42708	-0.75833	265.091	13.755	187.972	234.012	107.669	206.266	-3.957	-38.742	228.356	-70.584	190.476	108.282	-49.465	207.920	97.230	202.731	0.00037668	0.0024321	0.00018687	897.89	1.1175e-05	1.1195e-05	550.38	356.08	8.4265e-06	1.2708e-05	230.72	114.9	167.7	91.207	2.9447e-06	66.807	0.0090681	0.011514	0.0032345	934.49	0.0001217	0.00012867	610.24	363.73	0.00012033	0.00012877	265.29	124.45	172.96	91.792	0.00012294	70.128	124.576	23.851	172.138	-62.393	251.628	37.932	-64.945	-57.966	-49.224	123.430	-61.125	-58.458	-54.903	-51.518	24.963	-55.446	-8191	255	
7179.340	1	1	0	0	0.21307	0.24109	0.18226	0.023095	0.24311	0.089087	0.13777	0.17971	0.11977	0.23225	0.25515	0.24863	0.41325	0.27934	0.35281	0.034207	-0.99167	-0.28542	-0.81458	-1.1208	-0.25	-1.3854	-0.49583	-0.57083	-1.2125	-0.26667	-1.0979	-1.1167	-0.35	-1.3062	-0.50417	-0.6625	18.087	236.885	227.109	212.121	137.975	87.114	209.267	191.254	-56.525	244.766	280.439	186.226	243.412	271.498	72.499	116.775	0.00021239	0.00034344	0.00011881	901.52	9.4809e-06	4.4097e-06	549.05	355.26	6.8961e-06	1.6829e-05	232.5	115.49	169.26	92.526	1.8089e-05	67.51	0.0089849	0.011444	0.0031936	934.82	0.00011916	0.00012686	610.07	362.86	0.00011862	0.0001252	265.94	125.07	174.03	92.553	0.00011942	70.75	159.184	135.692	155.605	-62.576	77.865	84.319	-64.822	-57.990	-3.442	70.192	-61.057	-58.326	-54.966	-51.505	30.870	-55.356	-8191	255	
7179.437	1	1	0	0	0.20053	0.20734	0.16759	0.20853	0.093502	0.2176	0.1467	0.23255	0.27393	0.34638	0.11056	0.32783	0.27819	0.27245	0.19478	0.37473	-0.75208	-0.30417	-0.54792	-1.0604	-0.23125	-1.075	-0.7875	-0.47292	-1.25	-0.44792	-0.60417	-1.1042	-0.45208	-1.4042	-0.81875	-0.44792	192.540	173.357	171.435	159.143	241.687	-12.767	180.600	262.529	245.851	55.705	192.386	278.432	267.333	-75.028	187.500	-69.856	0.0002968	0.00087727	0.00036719	903.12	1.4365e-05	9.9041e-06	556.2	356	8.0783e-06	1.8355e-05	231.24	116.09	169.44	92.402	2.1308e-06	68.359	0.0087814	0.011155	0.003104	936.52	0.00011652	0.0001243	611.7	364.68	0.0001175	0.00012383	266.32	125.69	174.53	92.786	0.00012026	71.394	165.441	-60.777	68.740	-62.538	138.644	160.228	-64.870	-58.158	97.108	115.791	-61.014	-58.735	-54.964	-51.435	281.114	-55.270	-8191	255	
7179.533	1	1	0	0	0.029586	0.084805	0.15505	0.31743	0.12898	0.26914	0.37408	0.24297	0.32292	0.17932	0.35188	0.10331	0.34721	0.030098	0.20604	0.21947	-0.89792	-0.38542	-0.78542	-1.2062	-0.40833	-1.175	-0.82083	-0.35833	-1.2125	-0.53333	-0.54583	-1.1792	-0.57292	-1.2083	-0.80625	-0.21458	237.229	99.249	76.251	224.825	-54.035	180.092	143.314	-66.507	35.499	-4.999	258.344	219.515	212.069	257.575	213.693	213.898	2.6927e-05	0.0012727	0.00031622	906.24	6.5229e-06	1.7912e-06	557.82	357.09	1.5768e-05	1.0665e-05	233.09	116.71	169.09	92.587	8.7794e-06	67.988	0.0087709	0.011134	0.0031444	937.05	0.0001173	0.00012495	613.98	364.22	0.00011741	0.00012412	267.43	125.92	174.31	92.779	0.00012066	71.482	-15.490	72.572	161.145	-62.640	-15.723	8.764	-64.918	-58.073	72.949	109.035	-61.424	-58.371	-54.938	-51.367	262.725	-55.167	-8191	255	
7179.629	1	1	0	0	0.076639	0.14684	0.18466	0.070691	0.15487	0.3122	0.23173	0.11782	0.095495	0.12064	0.18251	0.16347	0.18635	0.23783	0.19288	0.126	-0.7125	-0.51875	-0.49375	-1.2167	-0.175	-1.0479	-0.925	-0.43958	-1.2125	-0.70208	-0.50417	-1.4083	-0.51458	-1.0771	-1.1146	-0.27917	-72.644	158.767	86.282	217.850	79.962	-45.838	158.744	-63.990	87.145	88.632	177.026	188.215	278.680	241.367	123.123	256.183	8.2524e-05	0.0013458	0.00075988	905.23	1.4455e-05	6.4631e-06	555.87	355.76	7.821e-06	8.1427e-06	231.76	114.67	168.02	92.142	1.0731e-05	66.605	0.0087955	0.011198	0.0031411	940	0.00011759	0.00012495	613.65	363.46	0.0001187	0.00012524	265.89	124.77	173.37	92.456	0.00012176	70.276	163.814	49.948	44.306	-62.527	53.343	239.197	-64.956	-58.057	241.809	152.330	-61.365	-58.504	-54.973	-51.544	-5.431	-55.273	-8191	255	
7179.750	1	1	0	0	0.26741	0.1291	0.10073	0.40339	0.14336	0.044007	0.1943	0.25339	0.15359	0.044204	0.22077	0.013063	0.23985	0.24195	0.15363	0.052277	-0.70625	-0.72292	-0.45208	-1.3542	-0.27292	-0.63958	-1.0542	-0.5125	-1.0167	-0.6	-0.34167	-1.375	-0.58958	-0.92917	-1.1812	-0.675	253.845	72.141	-71.990	182.262	-37.415	2.445	283.160	218.871	110.785	-33.916	213.848	113.698	247.670	248.349	113.926	189.995	0.00038659	0.0014729	0.00067507	896.27	8.1314e-06	6.0767e-06	547.19	354.55	5.6311e-06	6.6927e-06	227.2	115.08	168.66	91.861	1.5119e-05	66.409	0.0088806	0.011263	0.0031652	932.27	0.00011859	0.00012564	606.09	361.76	0.00011823	0.00012468	262.85	124.19	173.29	92.172	0.00012095	69.961	148.763	161.374	14.439	-62.579	188.948	94.757	-64.545	-57.850	168.144	19.994	-61.181	-58.617	-54.712	-51.318	212.340	-55.284	-8191	255	
7179.821	1	1	0	0	0.18712	0.33905	0.25766	0.093509	0.19802	0.27521	0.11418	0.11367	0.15696	0.030233	0.25282	0.20031	0.32913	0.18851	0.066091	0.15152	-0.48542	-0.80625	-0.35625	-1.3604	-0.43542	-0.45208	-1.1187	-0.34583	-0.90208	-0.91458	-0.32292	-1.1521	-0.52917	-0.76042	-1.1604	-0.56458	40.612	46.542	207.861	-69.153	125.813	100.391	-63.698	192.066	23.962	27.000	245.717	242.500	255.259	276.885	167.974	192.207	0.0003052	0.0016415	0.00024809	897.05	9.7913e-06	3.8375e-06	545.46	353.44	1.258e-05	1.2575e-05	229.51	115.13	168.6	92.286	2.2709e-06	66.818	0.0087954	0.011305	0.0031605	932.28	0.0001186	0.00012639	604.66	362.03	0.00011847	0.00012551	264.22	124.57	173.65	92.239	0.00012064	70.178	103.460	16.290	143.386	-62.754	193.388	190.517	-65.118	-58.121	194.992	-2.235	-61.151	-58.734	-54.944	-51.481	-23.833	-55.313	-8191	255	
7179.917	1	1	0	0	0.073478	0.17405	0.11371	0.16803	0.10877	0.18645	0.25346	0.021827	0.20761	0.2609	0.17663	0.31744	0.33641	0.29485	0.04292	0.24755	-0.64583	-0.83333	-0.12917	-1.2354	-0.70208	-0.53958	-1.3479	-0.47917	-0.89792	-1.1646	-0.38333	-1.15	-0.93333	-0.6	-1.2583	-0.63333	-10.863	265.978	92.272	208.840	154.997	211.182	204.535	70.522	-47.462	40.841	-65.006	173.192	-31.677	212.476	-71.294	243.807	0.00014359	0.00081597	0.00047256	905.52	7.2255e-06	1.1699e-05	551.91	355.74	1.2228e-05	5.7222e-06	230.97	115.4	169.15	92.648	8.7852e-06	67.687	0.0088206	0.011197	0.0031566	934.97	0.00011784	0.00012422	609.59	361.91	0.00011675	0.00012377	265.3	125.17	174.1	92.572	0.00012086	70.904	120.937	20.236	61.639	-62.495	45.971	-70.450	-64.684	-57.941	90.152	-13.022	-61.547	-58.456	-54.969	-51.257	169.127	-55.467	-8191	255	
7180.038	1	1	0	0	0.086316	0.24669	0.017714	0.094793	0.056066	0.10936	0.090502	0.10618	0.20109	0.1103	0.11931	0.24964	0.3178	0.32666	0.14444	0.23186	-0.3875	-1.1917	-0.27917	-1.1875	-0.78958	-0.30208	-1.1396	-0.54583	-0.72917	-1.2437	-0.51042	-0.92083	-0.96042	-0.30417	-1.2062	-0.75417	238.898	267.322	39.415	-5.210	209.885	156.539	77.224	212.245	25.440	209.730	283.724	-69.125	230.424	262.051	28.562	220.844	0.00029692	0.0004707	8.736e-05	901.29	8.348e-06	1.0128e-05	553.13	355.45	6.7042e-06	1.027e-05	231.3	117.08	169.67	92.822	8.8904e-06	68.324	0.0087831	0.011117	0.0031319	937.13	0.00011769	0.00012381	611.18	363.87	0.00011812	0.00012362	266.33	126.18	174.47	93.084	0.00011922	71.389	193.111	-33.755	249.254	-62.555	-29.134	156.529	-64.816	-58.088	32.053	60.848	-61.190	-58.298	-54.842	-51.416	261.616	-55.437	-8191	255	
7180.132	1	1	0	0	0.15306	0.20261	0.19642	0.26827	0.12029	0.20378	0.23922	0.12579	0.29381	0.069044	0.063368	0.2724	0.18253	0.23317	0.11518	0.24483	-0.10833	-1.0646	-0.32708	-0.95625	-0.9375	-0.275	-1.2812	-0.71875	-0.47708	-1.2125	-0.43125	-0.96042	-1.1083	-0.39375	-1.1667	-0.80625	177.288	-38.533	126.792	236.334	127.790	-49.599	224.667	-37.274	-31.556	125.977	90.368	274.510	266.433	-69.738	57.269	248.399	0.00023068	0.001174	0.00010215	903.88	5.1395e-06	1.6889e-05	547.32	355.43	4.1394e-06	1.615e-05	227.56	115.03	168.95	92.004	7.417e-06	66.333	0.0087688	0.011125	0.0031021	936.19	0.00011721	0.00012382	606.48	362.47	0.00011646	0.00012305	262.64	124.06	173.29	92.203	0.00011904	69.926	123.890	269.186	82.252	-62.397	88.499	88.612	-64.389	-57.980	91.621	55.243	-61.354	-58.404	-54.993	-51.311	93.911	-55.423	-8191	255	
7180.229	1	1	0	0	0.19085	0.077359	0.12998	0.1496	0.13065	0.25885	0.13904	0.29369	0.1048	0.30415	0.25679	0.16643	0.2256	0.24046	0.14101	0.19536	-0.10208	-1.1646	-0.31667	-0.89792	-1.0708	-0.23958	-0.97917	-0.9	-0.077083	-1.1208	-0.51458	-0.67917	-1.2938	-0.38542	-0.87917	-0.95625	231.689	77.405	3.517	197.936	189.804	-67.631	87.712	246.757	91.175	43.175	-70.984	238.238	257.190	266.595	-9.039	245.159	0.00033078	0.00086005	0.000516	893.52	7.0962e-06	1.4038e-05	542.34	352.99	1.3751e-05	1.6055e-05	226.88	115.06	167.94	92.684	1.3735e-05	66.991	0.0087467	0.011071	0.0031106	928.09	0.00011665	0.00012381	599.11	359.9	0.00011585	0.00012272	261.22	123.73	173.09	92.55	0.00011798	70.037	137.422	-18.862	141.965	-62.499	47.972	102.034	-64.509	-58.280	36.984	85.371	-61.593	-58.418	-55.063	-51.391	245.694	-55.580	-8191	255	
7180.325	1	1	0	0	0.11638	0.097618	0.32761	0.12834	0.11252	0.15278	0.16564	0.16322	0.15936	0.31056	0.1171	0.20889	0.017965	0.19467	0.03484	0.30559	-0.05625	-1.1688	-0.39167	-0.45417	-1.3125	-0.39375	-1.1167	-1.2458	-0.23958	-1.2583	-0.70625	-0.75	-1.3104	-0.45	-0.85208	-0.92708	-35.027	156.607	-51.397	11.085	127.046	158.576	-10.047	237.942	54.509	-72.762	245.410	76.526	253.454	204.088	207.690	212.541	0.00035171	0.00056639	0.00051766	896.64	4.553e-06	7.1288e-06	547.63	356.89	8.5904e-06	7.2416e-06	229.26	115.7	168.95	92.754	1.3515e-05	67.561	0.0085644	0.010953	0.003086	932.52	0.00011659	0.00012202	605.18	363.71	0.00011462	0.00012164	263	124.63	173.96	92.968	0.00011529	70.634	149.169	112.197	38.008	-62.414	35.847	42.683	-64.371	-58.203	-58.437	141.306	-61.372	-58.065	-54.933	-51.625	98.149	-55.546	-8191	255	
7180.421	1	1	0	0	0.13263	0.1699	0.25142	0.2269	0.080941	0.16652	0.19427	0.23268	0.050465	0.25353	0.30653	0.0096005	0.24366	0.39689	0.10976	0.35208	0.077083	-1.0646	-0.54167	-0.54375	-1.2542	-0.45833	-0.94792	-1.1667	-0.33333	-1.075	-0.89583	-0.59167	-1.3188	-0.60833	-0.79375	-1.3	109.957	-42.606	117.350	267.514	65.909	-46.566	63.567	234.697	31.550	276.051	169.591	277.946	276.496	244.264	40.536	197.462	2.8309e-05	0.0013025	0.00020503	904.51	8.171e-06	8.0204e-06	555.99	356.72	9.5629e-06	6.9691e-06	231.74	116.84	171.29	93.504	5.6753e-06	68.123	0.0084186	0.010695	0.0029897	934.78	0.00011386	0.00012063	609.05	364.42	0.00011335	0.00012073	264.51	125.54	175.73	93.439	0.00011496	71.355	85.368	-31.308	-68.050	-62.242	23.050	130.479	-64.529	-57.979	66.755	36.112	-61.606	-58.323	-54.777	-51.377	65.921	-55.463	-8191	255	
7180.517	1	1	0	0	0.080472	0.22372	0.26336	0.079571	0.24098	0.21599	0.20801	0.15404	0.15836	0.15334	0.16219	0.2132	0.32283	0.26554	0.13545	0.2436	0.08125	-1.1271	-0.82917	-0.50417	-1.1313	-0.49583	-0.68958	-1.1354	-0.25	-1.1521	-1.0729	-0.23958	-1.4042	-0.82292	-0.77708	-1.2625	10.997	54.217	114.865	43.961	2.924	90.115	199.342	65.979	139.388	-15.113	268.265	-55.799	219.763	259.456	0.039	127.529	0.00016322	0.0013517	0.00071261	909.97	1.5588e-05	3.9823e-06	554.69	363.1	2.3126e-06	2.4969e-05	233.32	119.73	173.93	94.838	5.0336e-06	68.939	0.0084252	0.010695	0.0030218	938.81	0.00011282	0.00011913	611.55	367.1	0.00011259	0.00011876	267.79	128.17	178.08	94.786	0.00011582	72.185	80.182	-63.773	21.947	-62.665	119.984	132.934	-64.730	-57.848	222.152	65.577	-61.359	-58.426	-54.799	-51.477	234.682	-55.142	-8191	255	
7180.638	1	1	0	0	0.1745	0.11809	0.11765	0.18224	0.10447	0.15365	0.13417	0.23523	0.11184	0.18223	0.45188	0.13931	0.32585	0.36344	0.042025	0.28157	0.00625	-0.80208	-0.82917	-0.53542	-1.3042	-0.63333	-0.54792	-1.2938	-0.42292	-0.85833	-1.0854	-0.425	-1.1771	-0.81667	-0.51875	-1.4	158.057	35.780	-65.372	264.671	257.617	84.486	271.408	-29.696	139.187	-30.536	213.085	273.353	265.396	-74.867	-55.462	275.826	0.00021545	0.00046696	0.00044546	913.23	4.6412e-06	1.0579e-05	551.98	359.6	1.0942e-05	2.7322e-05	232.07	118.08	172.83	94.356	1.9571e-06	68.133	0.0084574	0.010673	0.0030103	939.98	0.00011271	0.00011948	605.72	366.54	0.00011279	0.00011873	264.57	126.43	177.04	94.407	0.00011613	71.456	131.816	243.962	-0.841	-62.338	86.664	271.925	-64.048	-57.937	197.921	15.866	-61.180	-58.528	-54.657	-51.489	138.557	-54.782	-8191	255	
7180.734	1	1	0	0	0.22081	0.18463	0.046058	0.070376	0.13645	0.21487	0.15497	0.20175	0.20179	0.27085	0.13081	0.23306	0.24603	0.36489	0.16742	0.145	-0.035417	-0.89167	-1.2229	-0.1375	-0.98333	-0.54792	-0.55208	-1.3813	-0.39167	-0.6875	-1.2042	-0.39167	-1.2146	-1.0979	-0.48125	-1.1917	-40.529	83.951	173.700	221.913	40.430	-5.701	178.605	205.197	182.351	196.602	271.291	279.732	229.398	270.393	90.544	279.314	0.00026296	0.0017856	0.00065493	906.42	1.7463e-05	6.6767e-06	547.15	360.79	6.7545e-06	7.7287e-06	229.63	118.16	173.13	94.944	1.9684e-05	68.903	0.0084786	0.010804	0.0030357	936.48	0.00011326	0.00012097	600.64	366.04	0.00011297	0.00011955	264.46	126.54	177.63	94.676	0.00011657	71.655	127.405	-3.614	95.491	-62.321	90.954	79.226	-64.746	-57.813	151.586	51.270	-61.529	-58.122	-54.616	-51.278	19.997	-55.131	-8191	255	
7180.830	1	1	0	0	0.11322	0.31553	0.015325	0.28136	0.025113	0.1046	0.11287	0.28458	0.094174	0.18328	0.24318	0.066893	0.1345	0.25508	0.30408	0.042281	0	-0.58542	-1.0604	-0.24167	-0.81667	-0.88958	-0.36667	-1.1917	-0.53542	-0.4125	-1.2958	-0.4	-1.0042	-1.3167	-0.23958	-1.175	218.942	210.964	148.381	204.595	125.216	-27.432	83.322	188.384	-48.690	-48.423	276.462	-52.461	198.410	243.082	-73.512	215.789	4.6203e-05	0.0015559	0.000262	906.84	1.2105e-05	9.1272e-06	547.22	358.78	3.5527e-06	1.2367e-05	231.45	119.57	174.82	95.135	1.2148e-05	69.431	0.0084425	0.010839	0.0030402	936.32	0.00011377	0.00012025	605.82	366.98	0.00011403	0.00012018	265.74	127.57	178.4	94.966	0.00011705	72.155	138.923	107.790	93.039	-62.234	201.038	-38.746	-64.300	-57.730	-40.348	-37.022	-61.868	-58.248	-54.642	-51.558	0.511	-55.319	-8191	255	
7180.924	1	1	0	0	0.14039	0.28674	0.21853	0.21478	0.11311	0.20193	0.29636	0.35197	0.17666	0.13829	0.084329	0.16013	0.40841	0.1572	0.14204	0.15747	-0.17292	-0.49167	-1.0979	-0.33125	-0.69583	-1.2875	-0.24375	-1.2542	-0.675	-0.53542	-1.2375	-0.49583	-1.0583	-1.2563	-0.22083	-1.0958	-48.890	188.057	40.750	226.970	259.580	272.034	233.130	251.360	-28.694	183.432	208.997	218.013	221.628	-53.803	11.340	270.876	0.00036778	0.0004927	0.00054466	908.89	1.2871e-05	7.1673e-06	549.42	362.44	6.3419e-06	1.1959e-05	237.04	119.45	174.42	95.386	8.7051e-06	69.37	0.0084853	0.010862	0.0030299	938.54	0.00011414	0.00012159	608.19	368.78	0.00011424	0.00012147	269.01	128.15	178.69	95.26	0.00011812	72.306	120.714	70.749	8.464	-62.226	238.379	55.830	-64.612	-57.765	-54.537	21.777	-60.334	-58.125	-54.592	-51.405	0.886	-54.876	-8191	255	
7181.045	1	1	0	0	0.20731	0.20907	0.085973	0.19081	0.30624	0.25541	0.16699	0.16473	0.13182	0.11181	0.018795	0.11042	0.10688	0.38704	0.12489	0.16858	-0.27708	-0.14792	-1.1562	-0.55625	-0.42917	-1.2188	-0.33958	-1.2458	-0.83333	-0.28333	-1.1542	-0.4125	-0.75208	-1.3479	-0.32917	-1.1792	35.782	65.980	154.424	224.326	115.491	186.354	215.431	213.627	168.166	234.264	95.657	171.572	257.057	199.774	53.921	196.038	0.00047073	0.0020312	0.00015029	910.39	1.677e-05	8.4448e-06	555.78	362.4	7.5322e-06	1.76e-05	236.32	120.23	174.74	95.363	7.5955e-06	69.32	0.0084776	0.010842	0.003006	940.24	0.00011356	0.00012061	612.93	369.39	0.00011353	0.00012061	269.13	128.73	178.64	94.962	0.00011761	72.041	134.144	40.646	214.772	-62.313	240.877	-5.636	-64.553	-57.697	60.766	178.126	-61.165	-58.589	-54.508	-51.171	28.697	-55.017	-8191	255	
7181.117	1	1	0	0	0.10296	0.19141	0.1521	0.28469	0.099505	0.14399	0.20551	0.37246	0.13264	0.16513	0.36604	0.19314	0.1548	0.055026	0.095347	0.25577	-0.59792	-0.22292	-1.1313	-0.67708	-0.45625	-1.2271	-0.375	-1.0521	-0.78333	-0.35625	-1.1833	-0.75	-0.54167	-1.5021	-0.36667	-0.92708	-26.673	141.987	141.826	-19.909	-2.947	-31.381	265.736	265.565	220.550	206.041	136.141	-64.410	244.491	247.342	-62.508	199.038	0.0004285	0.0015315	0.00014216	904.91	1.2275e-05	1.715e-05	543.8	361.37	9.0373e-06	1.3599e-05	232.01	119.12	173.9	94.889	1.7385e-05	68.17	0.0085643	0.010922	0.00305	933.54	0.00011426	0.00012126	603.16	367.06	0.00011478	0.0001215	264.89	127.13	178.41	94.495	0.00011731	71.153	152.254	243.523	235.896	-62.302	-37.496	150.553	-64.696	-57.399	65.832	32.632	-60.972	-58.343	-54.515	-51.157	84.023	-55.044	-8191	255	
7181.213	1	1	0	0	0.23789	0.12646	0.23583	0.46217	0.090307	0.14973	0.16813	0.32824	0.21779	0.086887	0.13249	0.15815	0.11679	0.27845	0.3037	0.15679	-0.60833	-0.1875	-0.94375	-0.86458	-0.275	-1.2604	-0.57292	-0.87083	-0.87917	-0.21458	-1.0875	-0.86667	-0.4	-1.5375	-0.53333	-0.73542	223.648	268.384	178.513	155.840	167.435	140.941	150.896	187.154	20.245	267.722	261.134	238.809	266.508	218.009	27.060	154.879	0.0001809	0.00093295	8.6508e-05	902.65	7.2956e-06	1.1327e-05	544.78	361.48	1.0376e-05	9.6881e-06	233.05	120.37	176	95.366	1.497e-05	68.565	0.0086088	0.010891	0.0030527	932.74	0.00011551	0.00012134	600.96	368.05	0.00011446	0.00012056	265.74	128.4	180.33	95.242	0.00011649	71.767	242.943	-66.407	20.859	-62.234	34.415	71.363	-64.589	-57.950	-31.500	110.391	-60.910	-58.390	-54.721	-51.161	97.513	-55.002	-8191	255	
7181.309	1	1	0	0	0.29222	0.10648	0.18749	0.16654	0.19114	0.021438	0.19332	0.074041	0.181	0.19533	0.016758	0.12878	0.33204	0.18816	0.064066	0.11683	-0.80625	-0.25208	-0.92708	-0.80208	-0.24375	-1.0938	-0.69583	-0.81458	-1.0938	-0.19583	-1.1542	-0.95	-0.3875	-1.3625	-0.49583	-0.61458	99.050	128.898	37.633	-42.304	-68.708	188.226	182.618	216.168	36.592	195.647	-29.759	255.300	-59.785	-36.287	200.694	-60.078	0.00028674	0.0010251	0.00011328	905.01	1.2229e-05	3.0831e-06	546.97	364.37	1.0982e-05	1.3028e-05	233.55	119.82	175.68	95.571	2.0234e-05	69.073	0.0084882	0.010795	0.0030418	932.63	0.00011417	0.00012073	603.27	369.37	0.00011412	0.00012034	266.46	128.52	180	95.296	0.00011591	71.965	227.750	15.381	80.289	-62.549	83.388	197.963	-64.217	-57.616	50.600	2.442	-61.464	-58.524	-54.723	-51.192	75.325	-54.989	-8191	255	
7181.430	1	1	0	0	0.15358	0.028472	0.17612	0.072384	0.035938	0.13486	0.16042	0.2912	0.19628	0.29612	0.12817	0.37879	0.51054	0.17151	0.17287	0.11265	-0.74375	-0.37708	-0.84583	-1.1917	-0.30208	-1.2521	-0.78333	-0.6	-1.0938	-0.32917	-0.82917	-1.0542	-0.21042	-1.2417	-0.66667	-0.37708	89.918	137.712	20.620	205.155	110.813	18.958	-59.835	228.515	-14.294	-13.002	145.575	144.595	252.889	258.102	129.365	-0.716	0.00027171	0.00069363	0.00043807	913.29	1.2695e-05	1.3017e-05	549.14	363.28	1.9141e-05	7.0331e-06	235.32	119.55	173.93	94.804	1.0423e-05	69.161	0.0084461	0.01076	0.0030352	940.51	0.00011362	0.00012024	609.03	369.32	0.00011361	0.00011972	267.52	127.89	177.97	94.789	0.00011657	72.1	158.224	208.101	-1.474	-62.491	228.674	106.739	-64.351	-57.487	59.358	-66.358	-60.706	-58.384	-54.875	-51.199	70.499	-55.164	-8191	255	
7181.526	1	1	0	0	0.13367	0.081208	0.070932	0.32664	0.12396	0.2226	0.12335	0.15567	0.22545	0.13791	0.36205	0.14493	0.28443	0.25175	0.12995	0.1447	-0.7625	-0.24167	-0.60625	-1.2021	-0.32917	-1.0562	-0.83333	-0.46875	-1.3417	-0.3	-0.68542	-1.2083	-0.43958	-1.2583	-0.92917	-0.40208	40.918	145.888	71.175	250.946	92.572	122.332	-72.266	158.378	30.913	123.189	264.534	249.281	211.720	222.132	12.836	-59.178	0.00033246	0.00024207	7.138e-05	908.97	1.3372e-05	2.1318e-06	558.91	363.39	7.4412e-06	3.8589e-06	236.15	118.47	172.95	94.442	1.5106e-05	68.227	0.0084176	0.01076	0.0030271	940.2	0.00011298	0.00012047	612.64	369.08	0.0001128	0.00011971	267.2	126.95	177.45	94.273	0.00011629	71.154	141.097	-20.464	82.407	-62.662	-33.362	129.004	-64.600	-58.056	166.801	-63.265	-60.449	-58.700	-54.927	-51.143	-19.074	-55.081	-8191	255	
7181.622	1	1	0	0	0.27459	0.23392	0.21883	0.2241	0.18762	0.089799	0.12668	0.20234	0.17908	0.21038	0.060571	0.17239	0.2363	0.37657	0.06401	0.12794	-0.67083	-0.54167	-0.39375	-1.2979	-0.17083	-0.93958	-0.93333	-0.47708	-1.0667	-0.59167	-0.40417	-1.2771	-0.45625	-1.0833	-1.0771	-0.33125	250.645	146.614	158.216	-54.377	-41.156	185.323	234.252	240.823	-75.032	258.856	194.032	199.396	267.749	265.282	56.278	214.828	0.00027168	0.0012698	0.00018988	915.38	6.8641e-06	1.1204e-05	550.61	359.55	1.2064e-05	1.4729e-06	230.84	116.05	171.89	94.03	8.5075e-06	67.347	0.0084221	0.010621	0.0030034	938.67	0.00011209	0.00011759	603.21	365.51	0.00011122	0.00011795	262.35	124.37	175.85	93.687	0.0001138	70.258	169.126	277.489	52.612	-62.227	127.454	76.723	-64.751	-57.531	42.820	81.362	-60.956	-57.914	-54.931	-51.251	116.969	-55.385	-8191	255	
7181.718	1	1	0	0	0.087668	0.14357	0.10773	0.11804	0.026271	0.078987	0.12451	0.12343	0.18946	0.24416	0.24342	0.1025	0.19608	0.25734	0.30901	0.16341	-0.8125	-0.575	-0.27708	-1.4	-0.4625	-0.84583	-1.2083	-0.6375	-1.1313	-0.66042	-0.43958	-1.2604	-0.29167	-0.96458	-0.9375	-0.42708	109.279	79.201	271.300	180.530	-58.423	218.639	167.504	252.749	64.405	117.154	139.527	117.464	283.863	237.826	34.666	-64.797	0.00021172	0.00027043	0.00030691	911.75	9.9477e-06	3.1554e-05	547	360.86	1.2058e-05	5.7845e-06	232.59	117.07	172.71	94.177	7.9931e-06	68.347	0.0082872	0.01053	0.0029962	937.56	0.00011208	0.00011831	602.79	366.1	0.00011105	0.00011774	262.79	125.45	176.81	94.093	0.00011313	70.96	163.346	84.475	138.514	-62.312	28.201	44.898	-64.463	-57.826	250.010	131.157	-61.020	-58.298	-54.376	-50.990	113.369	-55.616	-8191	255	
7181.814	1	1	0	0	0.22554	0.19593	0.20231	0.26318	0.22036	0.21906	0.12822	0.11207	0.25298	0.12744	0.11158	0.061478	0.19946	0.39361	0.31353	0.26245	-0.6	-0.70833	-0.18333	-1.4167	-0.58125	-0.58333	-1.2583	-0.35625	-1.0063	-1.1292	-0.20417	-1.0375	-0.80417	-0.75	-1.1292	-0.45833	-42.450	247.153	-28.199	5.912	-68.928	-67.543	97.205	135.190	-58.126	77.531	248.285	224.275	-44.954	245.864	67.325	221.412	0.00028795	0.0017381	8.1236e-05	919.64	7.9064e-07	9.9518e-06	554.92	363.26	1.3096e-05	7.5632e-06	230.45	118.51	174.18	95.015	1.9078e-06	68.72	0.0083091	0.010514	0.0029577	942.64	0.00011094	0.00011744	605.74	367.38	0.00011028	0.00011691	263.58	126.75	177.93	94.723	0.00011292	71.477	134.219	268.795	280.798	-62.065	78.447	246.347	-64.494	-57.679	132.843	124.166	-60.579	-58.042	-54.790	-51.215	98.942	-55.001	-8191	255	
7181.910	1	1	0	0	0.094719	0.17638	0.38477	0.4564	0.19761	0.12869	0.036902	0.086688	0.041946	0.27329	0.078579	0.26278	0.12512	0.39536	0.23532	0.076058	-0.51875	-0.87083	-0.05625	-1.1562	-0.44792	-0.42917	-1.3021	-0.45625	-0.71667	-1.1021	-0.37917	-1.0187	-0.86875	-0.50208	-1.2542	-0.50417	172.466	158.264	22.609	264.065	227.033	44.881	119.166	253.758	-21.939	127.309	133.733	204.042	-54.395	281.415	-4.685	-73.381	0.00028609	0.0014613	0.00021959	919.66	7.3724e-06	6.1056e-06	559.91	364.09	8.4579e-06	2.1738e-05	233.62	118.9	174.15	95.32	2.2401e-05	69.229	0.0082788	0.010498	0.002959	944.71	0.00011127	0.0001181	610.78	369.48	0.00011098	0.00011773	266.36	127.14	177.79	94.901	0.00011416	72.067	118.383	12.016	-20.400	-62.195	29.729	12.558	-64.539	-57.747	56.716	59.758	-61.365	-57.951	-54.778	-51.230	86.037	-55.210	-8191	255	
7182.006	1	1	0	0	0.1335	0.10047	0.093344	0.3133	0.39159	0.28915	0.15385	0.31501	0.17571	0.2183	0.18269	0.29008	0.19095	0.30059	0.18604	0.27106	-0.38125	-1.2062	-0.29583	-1.1583	-0.51667	-0.53333	-1.2188	-0.7	-0.56875	-1.3125	-0.32917	-1.0771	-0.95833	-0.35417	-1.2062	-0.65	93.128	68.948	234.146	227.510	28.555	-29.872	41.844	228.041	-63.113	162.020	-53.322	-70.615	279.223	-67.706	59.941	245.389	0.00026729	0.00085912	0.00013035	920.02	4.6702e-06	3.1655e-06	558.06	363.47	9.6373e-06	1.4029e-05	234.22	117.55	173.34	95.114	8.1735e-06	68.605	0.0082836	0.010537	0.0029529	945.72	0.00011158	0.00011779	612.18	369.27	0.00011137	0.00011821	265.43	126.16	177.43	94.873	0.00011359	71.113	27.240	-40.755	-37.975	-62.201	149.198	139.272	-64.485	-57.694	155.854	105.593	-60.530	-58.486	-54.700	-51.196	185.591	-54.659	-8191	255	
7182.125	1	1	0	0	0.37231	0.11998	0.088484	0.47929	0.10197	0.10677	0.33939	0.19108	0.081371	0.12269	0.13759	0.2318	0.034526	0.33563	0.14811	0.189	-0.21875	-1.2521	-0.46042	-0.92917	-0.86042	-0.40417	-1.2458	-0.67917	-0.35	-1.2146	-0.48958	-0.99792	-1.2229	-0.5125	-1.1938	-0.83333	229.594	25.937	281.918	212.590	-42.943	40.941	247.184	277.577	129.387	171.086	111.851	146.632	220.176	275.048	25.028	36.029	0.00065119	0.00050054	0.00029409	919.53	1.6561e-05	1.4688e-05	549.39	361.47	4.7808e-06	1.6397e-06	231.02	117.57	173.48	94.705	8.1712e-06	68.15	0.0083013	0.010471	0.0029511	941.16	0.00011113	0.00011845	603.68	367.48	0.00011147	0.00011795	262.99	125.38	177.37	94.746	0.00011236	70.94	136.053	92.025	-9.209	-62.138	27.008	118.306	-64.573	-57.748	51.959	270.838	-60.746	-58.268	-54.624	-51.146	10.334	-55.253	-8191	255	
7182.221	1	1	0	0	0.10761	0.22625	0.081576	0.21671	0.2125	0.19766	0.11853	0.29775	0.36968	0.14861	0.28173	0.29522	0.30135	0.26474	0.10105	0.053658	-0.020833	-1.2792	-0.28958	-1.0042	-0.89167	-0.23542	-1.1375	-0.775	-0.33125	-1.1229	-0.51042	-0.78542	-1.2729	-0.44167	-0.88958	-1.0271	88.445	20.560	198.352	281.646	5.379	46.136	120.846	275.136	222.241	2.611	58.978	184.784	234.232	256.381	243.153	138.640	9.1302e-05	0.00036626	0.00034611	915.76	1.5523e-05	4.0705e-06	550.73	363.51	3.2868e-06	1.3613e-05	233.67	118.33	174.55	95.477	7.6022e-06	68.57	0.0082437	0.0104	0.0029433	942.15	0.00010963	0.00011677	605.9	368.47	0.00011025	0.00011629	264.12	126.18	177.87	94.922	0.0001127	71.306	29.876	107.670	14.015	-62.285	59.254	-33.575	-64.096	-57.644	127.497	244.977	-61.305	-58.250	-54.455	-51.189	32.415	-55.239	-8191	255	
7182.318	1	1	0	0	0.19136	0.19337	0.24586	0.38049	0.6193	0.1643	0.38413	0.14925	0.17047	0.18726	0.17648	0.24956	0.074023	0.19971	0.28239	0.23073	0.079167	-1.2208	-0.54167	-0.75417	-1.1167	-0.26667	-1.1917	-0.99167	-0.089583	-1.1833	-0.57708	-0.61875	-1.3333	-0.34583	-0.8625	-1.1771	-51.352	218.375	238.631	199.273	148.811	139.900	214.210	-68.819	-43.704	76.957	279.607	-67.749	101.105	-6.912	-46.048	262.946	0.00027521	0.0011048	0.00018466	916.85	1.1652e-05	1.1347e-05	555.87	365.42	8.4677e-06	2.1916e-05	235.95	119.07	174.69	95.717	1.0114e-06	69.417	0.0082243	0.010432	0.0029241	940.91	0.00011134	0.0001171	607.85	369.79	0.00011043	0.00011715	266.14	126.51	178.28	95.257	0.00011221	71.956	149.481	154.425	110.541	-62.272	50.903	39.693	-64.193	-57.589	236.600	67.792	-61.187	-57.928	-54.560	-51.200	-38.800	-54.962	-8191	255	
7182.414	1	1	0	0	0.01851	0.25235	0.30411	0.14144	0.2262	0.14402	0.12802	0.16263	0.13876	0.14176	0.16968	0.16093	0.116	0.27853	0.042078	0.052672	0.045833	-1.2104	-0.42708	-0.55208	-1.2083	-0.20208	-0.8875	-1.0271	-0.35	-0.88125	-0.62292	-0.3	-1.3625	-0.55417	-0.63125	-1.1792	-41.266	45.313	-23.719	255.547	130.472	-30.789	83.426	114.727	142.441	46.210	106.708	184.928	30.412	274.935	-17.015	208.114	0.00023585	0.00037527	4.8703e-05	918.71	9.9754e-06	1.2268e-05	561.07	365.83	5.7689e-06	1.1095e-05	234.32	119.92	175.53	96.431	7.1455e-06	70.121	0.0081956	0.010413	0.0029211	942.63	0.00010994	0.00011612	610.95	371.1	0.00010993	0.00011529	266.17	127.76	179.44	95.726	0.00011194	72.515	93.872	-44.327	44.192	-62.272	186.951	68.112	-64.250	-57.826	-32.011	71.166	-61.155	-58.280	-54.726	-51.319	37.898	-55.317	-8191	255	
7182.510	1	1	0	0	0.099021	0.19114	0.082531	0.23988	0.028929	0.20313	0.23161	0.18292	0.2029	0.2216	0.39311	0.23883	0.13119	0.37139	0.19596	0.048658	0.027083	-1.1083	-0.65833	-0.53542	-1.2146	-0.40833	-0.68125	-1.3667	-0.17292	-0.99792	-0.84583	-0.28542	-1.3937	-0.84792	-0.40833	-1.3792	97.181	-22.113	-30.696	275.567	45.262	236.681	171.671	-72.865	133.014	263.368	215.344	194.815	197.992	258.731	252.886	248.902	0.00021358	0.0002465	0.0002346	918.62	4.5189e-06	9.7792e-06	553.78	365.29	3.7307e-06	2.8854e-05	229.89	117.67	174.95	95.187	5.4321e-06	68.36	0.0080715	0.010322	0.0028863	942.02	0.00010845	0.00011478	603.86	369.55	0.00010886	0.00011502	262.39	125.95	178.4	94.893	0.00011281	70.774	93.701	138.621	47.792	-62.245	67.150	122.275	-64.586	-57.712	270.943	21.196	-61.505	-58.347	-54.671	-51.343	19.761	-55.317	-8191	255	
7182.606	1	1	0	0	0.10396	0.29546	0.0735	0.29143	0.088393	0.34576	0.17894	0.30419	0.1103	0.15635	0.19628	0.24865	0.13695	0.20656	0.14982	0.053959	0.10417	-0.99583	-0.73958	-0.37292	-1.1313	-0.72083	-0.60208	-1.3563	-0.18958	-0.96667	-0.96875	-0.32083	-1.2729	-0.82292	-0.4125	-1.3833	7.935	169.779	-39.796	-58.007	-67.628	194.241	-67.518	-73.932	131.280	32.578	278.094	267.098	175.802	253.246	7.281	270.450	0.00024047	0.00081197	0.00043103	907.93	2.8813e-06	5.3604e-06	549.37	360.63	3.7942e-06	1.4072e-05	232.39	117.34	174.99	95.481	1.7483e-05	68.322	0.0082015	0.01044	0.0029402	934.21	0.00010951	0.00011671	598.2	366.23	0.00010928	0.00011526	261.65	125.47	178.2	94.875	0.00011323	70.866	149.208	-53.725	55.665	-62.381	182.137	176.468	-64.150	-57.587	-55.361	94.642	-61.058	-58.451	-54.554	-51.191	27.691	-55.151	-8191	255	
7182.727	1	1	0	0	0.15829	0.11373	0.098533	0.23754	0.20298	0.30232	0.27585	0.23232	0.13712	0.18561	0.18042	0.20744	0.14273	0.35901	0.024643	0.28072	0.00625	-0.75	-0.91042	-0.37917	-1	-0.64375	-0.36042	-1.3875	-0.57083	-0.59583	-1.0146	-0.26458	-1.1458	-0.85208	-0.1875	-1.3917	240.265	164.938	-43.914	117.585	63.575	121.746	-73.217	240.282	132.469	66.421	187.093	178.968	208.026	247.053	-14.575	284.232	0.00014748	0.0013834	0.00030868	910.26	1.5188e-05	1.4443e-05	553.04	364.93	6.7461e-06	3.9072e-06	232.99	118.62	176.44	95.961	1.2064e-05	69.34	0.0082831	0.01048	0.0029493	935.95	0.00010992	0.00011605	601.6	369.18	0.00010961	0.00011652	264.1	127.11	180.23	95.718	0.00011254	71.88	96.983	23.745	187.535	-62.217	125.053	93.248	-64.729	-57.542	15.040	217.184	-61.076	-58.297	-54.503	-51.251	64.073	-55.064	-8191	255	
7182.823	1	1	0	0	0.20337	0.04769	0.091895	0.30969	0.12985	0.22439	0.21518	0.31602	0.17453	0.11188	0.3463	0.1975	0.18656	0.27162	0.15687	0.13467	-0.029167	-0.53958	-1.025	-0.37083	-0.79792	-0.78542	-0.33333	-1.3271	-0.35833	-0.59375	-1.1021	-0.33125	-1.0104	-1.1104	-0.27917	-1.1375	97.803	190.369	34.280	230.526	61.229	168.715	73.906	242.354	60.325	123.156	167.303	16.869	-38.049	270.550	102.487	118.492	9.1401e-05	0.0019348	0.00012341	908.94	1.4113e-05	5.5681e-06	551.83	366.98	1.547e-05	1.377e-05	235.06	120.4	177.36	97.22	1.2503e-05	69.436	0.0082462	0.01045	0.0029233	938.83	0.00011017	0.00011584	603.39	370.58	0.00010912	0.00011441	265.24	127.82	180.55	96.483	0.00011051	72.351	103.214	-62.375	84.470	-62.486	89.763	212.260	-64.189	-57.608	76.680	162.988	-60.838	-58.000	-54.743	-51.267	117.351	-55.102	-8191	255	
7182.917	1	1	0	0	0.18206	0.018019	0.12933	0.16808	0.052615	0.051473	0.25602	0.34547	0.25851	0.28758	0.30267	0.056619	0.45805	0.26285	0.16563	0.12623	-0.020833	-0.35833	-1.2375	-0.36875	-0.87917	-0.95	-0.36042	-1.3125	-0.69167	-0.44792	-1.1313	-0.32292	-0.80208	-1.0708	-0.19583	-1.2833	10.721	99.548	117.030	247.954	174.482	145.123	247.568	-68.010	116.723	46.430	254.408	-27.924	-59.059	-60.004	162.921	269.969	0.00032041	0.002354	0.00019127	921.26	1.1429e-05	8.582e-06	555.56	368.8	8.7182e-06	3.8047e-06	236.53	120.15	177.37	96.848	6.3599e-06	69.896	0.0081313	0.010329	0.0028982	943.69	0.00010923	0.00011562	607.43	372.93	0.00010893	0.00011541	265.95	128.27	180.92	96.439	0.0001106	72.384	206.055	0.827	54.433	-62.325	59.715	73.192	-64.332	-57.655	38.007	183.580	-61.246	-58.268	-54.554	-51.228	53.470	-54.959	-8191	255	
7182.991	1	1	0	0	0.12402	0.25904	0.081062	0.39005	0.22099	0.28996	0.22086	0.23879	0.027335	0.21038	0.26381	0.14022	0.24302	0.15398	0.065411	0.10216	-0.3875	-0.40208	-1.0375	-0.40625	-0.625	-1.0562	-0.23333	-1.0104	-0.875	-0.25417	-1.0708	-0.65625	-0.67083	-1.5104	-0.17708	-1.0854	180.477	130.589	86.951	232.443	-2.135	102.929	236.935	264.491	127.752	207.670	-68.838	172.727	173.283	271.387	217.576	225.476	0.00015959	0.0016135	0.00014216	916.66	9.6402e-06	1.0487e-05	552.63	366.74	9.1209e-06	1.8636e-05	233.46	118.16	176.19	96.195	4.568e-06	68.806	0.0081185	0.010303	0.0028952	939.91	0.00010927	0.00011528	602.25	370.37	0.00010809	0.00011438	262.6	126.23	179.69	95.809	0.00011084	71.175	193.594	-35.757	-5.455	-62.214	68.728	-29.316	-64.295	-57.483	101.986	72.435	-61.396	-57.990	-54.290	-51.175	77.953	-54.694	-8191	255	
7183.087	1	1	0	0	0.18049	0.32499	0.061486	0.19526	0.17981	0.12022	0.10365	0.10169	0.13709	0.1166	0.37691	0.15152	0.43156	0.38571	0.081539	0.22419	-0.35833	-0.1625	-0.93958	-0.80833	-0.44792	-1.0479	-0.31667	-1.1313	-0.92708	-0.2875	-1.1042	-0.62083	-0.7375	-1.4167	-0.325	-1.025	117.357	83.194	59.609	-71.601	261.462	254.748	169.399	-54.776	75.220	58.096	218.320	272.155	260.350	-31.642	261.067	52.470	0.00026855	0.00033447	6.2062e-05	909.54	3.8695e-06	3.2712e-06	548.09	366.58	6.1168e-06	6.5304e-06	229.85	117.9	175.65	96.642	8.8466e-06	68.926	0.008059	0.010303	0.0028968	937.5	0.00010915	0.00011502	598.9	369.2	0.00010847	0.00011456	261.78	125.61	179.44	95.795	0.00011143	71.594	166.989	158.216	95.592	-62.308	89.149	74.637	-64.249	-57.395	15.327	161.720	-60.851	-58.240	-54.466	-51.098	91.055	-55.087	-8191	255	
7183.206	1	1	0	0	0.013163	0.075205	0.086547	0.050699	0.041366	0.37753	0.072215	0.069484	0.13638	0.22416	0.279	0.12133	0.24317	0.37914	0.27987	0.12435	-0.575	-0.16458	-1.3292	-0.625	-0.24375	-1.3354	-0.275	-0.9	-1.0792	-0.064583	-1.0812	-0.7875	-0.45208	-1.3	-0.54375	-0.81042	165.157	-61.039	24.852	134.017	119.534	18.296	254.660	145.589	260.785	65.752	-59.341	-37.212	-41.635	274.110	34.608	177.578	0.00042614	0.00084469	0.00065652	913.91	7.4946e-06	1.9619e-05	553.31	367.4	2.0018e-06	1.1738e-05	234.43	118.85	176.3	96.751	1.3116e-05	69.476	0.0081606	0.010336	0.0028717	940.68	0.00010982	0.00011561	603.12	371.45	0.00010794	0.00011562	263.71	126.88	180.16	96.308	0.00011084	72.107	178.405	206.218	3.120	-61.982	154.740	140.059	-64.508	-57.571	209.992	154.011	-61.164	-58.042	-54.547	-50.850	231.570	-54.798	-8191	255	
7183.302	1	1	0	0	0.35558	0.14344	0.16223	0.12824	0.33283	0.040916	0.20525	0.17453	0.14256	0.068681	0.15942	0.076197	0.19585	0.37371	0.27442	0.086809	-0.67292	-0.37917	-0.81458	-0.8625	-0.25625	-1.1562	-0.45	-0.69792	-1.2042	-0.26667	-1.0688	-1.0021	-0.34792	-1.1417	-0.25625	-0.52083	230.176	153.653	210.633	160.492	34.282	253.563	185.458	-66.430	34.582	52.104	181.883	-54.369	-56.696	222.478	68.535	-54.017	0.00029919	0.0004505	7.0286e-05	921.64	2.292e-06	1.3122e-06	553	366.82	5.8862e-06	1.258e-05	233.57	120.87	178.93	98.098	8.5067e-06	70.485	0.0080659	0.010302	0.0028937	943.79	0.00010951	0.0001151	604.81	373.01	0.00010943	0.00011569	266.55	128.85	182.24	97.5	0.00011211	72.945	158.088	238.353	12.240	-62.353	43.305	283.378	-64.217	-57.625	-9.944	182.348	-60.887	-58.119	-54.468	-50.941	1.709	-54.777	-8191	255	
7183.398	1	1	0	0	0.11108	0.025271	0.40507	0.1851	0.0042998	0.11269	0.074693	0.26823	0.046036	0.35494	0.22479	0.29531	0.20256	0.15005	0.27909	0.15676	-0.87083	-0.24583	-0.93958	-1.125	-0.23958	-1.1688	-0.50833	-0.47292	-1.2812	-0.29167	-0.86458	-1.1542	-0.35208	-1.3125	-0.59167	-0.37708	120.653	123.466	34.506	269.244	277.525	280.879	50.980	217.489	141.903	134.353	200.527	228.131	-46.837	238.836	163.813	184.358	0.00013786	0.00074679	0.00040706	919.22	8.5096e-06	2.3435e-05	553.16	369.98	4.7954e-06	1.2315e-05	237.67	121.36	179.67	98.219	8.112e-06	70.363	0.0081653	0.010361	0.0029165	944.35	0.00010895	0.00011501	607.53	374.45	0.00010796	0.00011575	267.32	128.92	182.5	97.592	0.00011129	72.726	181.548	173.708	82.114	-62.074	-19.997	126.838	-64.363	-57.296	64.828	-58.655	-60.998	-58.145	-54.473	-51.131	188.882	-55.095	-8191	255	
7183.519	1	1	0	0	0.20303	0.051925	0.35744	0.15316	0.42232	0.1105	0.1139	0.40578	0.083926	0.24939	0.1868	0.070283	0.040295	0.42613	0.096082	0.082033	-0.62917	-0.37708	-0.7625	-1.3167	-0.11042	-0.98125	-0.89375	-0.51458	-1.3062	-0.51042	-0.82083	-1.2958	-0.375	-1.1562	-1.0354	-0.45	266.997	232.467	217.533	277.438	241.638	71.885	259.767	270.081	88.225	33.304	-24.310	97.341	20.918	279.805	32.115	42.252	0.00033489	0.00089277	6.997e-05	920.21	6.6084e-06	2.2151e-05	546.04	368.62	9.179e-06	1.9488e-05	232.75	119.63	178.61	97.178	1.5759e-05	68.934	0.0080692	0.010155	0.002857	939.63	0.00010693	0.00011323	598.81	371.79	0.00010703	0.00011249	262.44	127.19	181.19	96.875	0.00010946	71.891	117.080	-25.652	276.380	-62.144	180.952	120.731	-64.525	-57.457	44.758	-36.390	-60.560	-58.088	-54.493	-51.028	68.584	-54.927	-8191	255	
7183.590	1	1	0	0	0.084662	0.25647	0.17177	0.22071	0.3182	0.13656	0.18579	0.061659	0.11233	0.12461	0.27237	0.086685	0.24566	0.2689	0.20832	0.079096	-0.80625	-0.38333	-0.5375	-1.1521	-0.32917	-1.0146	-0.8125	-0.64792	-1.2146	-0.65208	-0.71458	-1.0708	-0.3875	-0.92708	-0.93125	-0.5125	55.297	209.969	122.491	223.062	166.884	-2.257	203.159	220.994	142.144	106.927	205.196	-19.331	210.904	176.201	21.537	250.442	0.00032651	0.0014305	0.00041061	920.49	1.4033e-05	4.238e-06	548.4	368.49	5.9526e-06	1.3112e-05	233.58	119.21	178.62	97.779	1.1109e-05	69.244	0.008097	0.010239	0.0029126	938.73	0.00010859	0.00011437	598.21	371.88	0.00010756	0.00011378	263.64	127.3	181.6	97.15	0.00010947	71.917	176.199	110.428	7.793	-62.018	77.114	47.480	-64.398	-57.207	270.683	115.193	-60.835	-58.071	-54.393	-50.955	164.859	-54.568	-8191	255	
7183.686	1	1	0	0	0.24481	0.19333	0.15888	0.26103	0.08989	0.11187	0.14078	0.10712	0.25955	0.12888	0.31446	0.091319	0.464	0.35301	0.19056	0.13594	-0.70833	-0.63125	-0.275	-1.1667	-0.39792	-0.76042	-1.2771	-0.42917	-1.0708	-0.60417	-0.12917	-1.1271	-0.37292	-0.74583	-1.0583	-0.39375	-49.439	69.599	-55.383	-24.980	183.136	30.452	242.677	251.714	265.033	20.047	189.578	231.394	272.786	253.345	240.486	225.169	0.00028662	0.001117	0.0002721	917.68	1.0902e-05	1.2024e-05	551.91	371.22	8.9844e-06	3.1403e-05	234.96	121.65	179.81	98.382	7.6593e-06	69.91	0.0079873	0.010181	0.0028473	939.25	0.00010717	0.00011363	601.5	373.82	0.00010746	0.0001137	265.07	128.84	182.57	97.668	0.00010918	72.424	110.247	284.080	132.241	-61.881	9.165	92.359	-63.939	-57.144	113.633	89.263	-61.099	-57.969	-54.523	-51.101	63.725	-54.714	-8191	255	
7183.807	1	1	0	0	0.17561	0.012251	0.39223	0.26546	0.21486	0.29437	0.18652	0.21471	0.23558	0.23121	0.15653	0.17366	0.06301	0.075818	0.067759	0.18322	-0.64375	-0.70417	-0.18125	-1.2583	-0.40208	-0.64167	-1.1271	-0.40417	-0.71875	-0.89583	-0.50417	-1.3521	-0.6625	-0.72292	-1.1313	-0.47708	120.516	247.512	92.911	223.707	109.044	163.910	189.854	193.029	118.425	-29.409	227.577	263.789	259.940	188.554	125.899	142.836	0.00014499	0.00090662	0.0001646	921.72	1.1173e-05	8.7366e-06	554.63	370.16	3.9522e-06	2.4538e-05	238.05	121.53	180.66	98.14	1.506e-05	70.779	0.0079578	0.01015	0.0028394	942.81	0.00010754	0.00011296	605.23	374.15	0.00010693	0.00011247	266.58	129.02	182.87	97.519	0.00010798	73.097	132.162	-23.855	-24.869	-62.014	-52.084	59.996	-64.308	-57.331	44.538	10.991	-60.761	-58.179	-54.249	-51.107	158.950	-54.777	-8191	255	
7183.903	1	1	0	0	0.086331	0.13212	0.13982	0.14269	0.32186	0.18433	0.12273	0.43281	0.074188	0.15297	0.24605	0.19813	0.15538	0.49509	0.30608	0.37809	-0.55208	-0.81042	-0.05625	-1.2479	-0.56458	-0.44167	-1.2104	-0.44792	-0.83125	-0.94375	-0.29375	-0.91875	-0.7375	-0.57708	-1.1229	-0.36667	32.460	123.312	217.694	243.290	63.739	141.678	102.099	219.553	-40.672	226.529	231.731	161.952	-35.052	284.152	155.828	282.053	0.00025908	0.00104	0.00060928	922.33	3.6426e-06	2.0656e-05	556.1	371.13	2.0252e-06	1.9096e-05	235.13	121.81	179.38	98.151	1.4362e-05	69.788	0.0079507	0.010131	0.0028227	942.58	0.00010576	0.00011174	605.45	374.94	0.00010607	0.00011294	265.06	128.68	182.14	97.339	0.00010756	72.143	179.341	-10.170	47.711	-61.915	177.631	77.687	-63.893	-57.239	57.027	69.592	-60.813	-57.667	-54.464	-50.892	41.416	-54.511	-8191	255	
7183.999	1	1	0	0	0.051957	0.10974	0.13709	0.16648	0.2074	0.23537	0.29579	0.12399	0.1611	0.033664	0.092495	0.31426	0.30613	0.37912	0.06819	0.25149	-0.34375	-0.93333	-0.095833	-0.98333	-0.62083	-0.19167	-1.1083	-0.53333	-0.49583	-0.925	-0.26875	-1.1292	-0.62917	-0.29583	-1.1917	-0.53125	-28.948	65.078	8.252	209.731	128.336	123.002	217.025	-70.424	-49.665	41.311	3.357	280.833	206.694	253.413	184.027	190.957	0.00026831	0.0012043	0.00024789	916.14	1.1921e-05	8.9152e-06	551.11	368.42	8.7515e-06	1.3374e-05	232.33	118.87	177.34	97.574	1.4523e-05	68.683	0.0079152	0.01003	0.0028149	941.59	0.00010595	0.00011049	598.56	371.45	0.00010486	0.00011099	262.13	126.4	180.77	96.833	0.00010722	71.295	192.692	-33.631	5.564	-61.891	21.813	20.869	-64.119	-57.449	33.990	193.044	-60.716	-57.863	-54.182	-50.459	13.549	-54.946	-8191	255	
7184.118	1	1	0	0	0.11915	0.068787	0.16874	0.2577	0.091861	0.14606	0.14597	0.4195	0.13157	0.22106	0.23665	0.013205	0.21038	0.35083	0.070547	0.13414	-0.17917	-1.1437	-0.5	-1.0625	-0.84167	-0.12917	-1.0708	-0.68542	-0.23542	-1.2271	-0.35833	-1.0417	-0.95417	-0.48333	-1.2208	-0.68125	196.752	141.107	132.643	260.252	256.190	74.979	241.535	225.311	-45.222	266.131	213.518	165.441	-24.404	233.373	159.358	17.215	0.00021559	0.00098659	0.00045036	925	1.3656e-05	7.4828e-06	550.31	367.18	1.6453e-05	7.7187e-06	234.86	119	177.67	97.606	7.0625e-06	69.655	0.0078178	0.0099611	0.0028139	942.8	0.0001066	0.00011225	601.63	371.47	0.00010469	0.00010997	262.88	126.64	180.58	96.896	0.00010648	71.883	101.611	174.350	123.176	-62.504	56.137	280.715	-63.949	-57.639	24.621	-4.111	-60.764	-58.427	-54.807	-51.215	176.538	-55.305	-8191	255	
7184.214	1	1	0	0	0.091574	0.13052	0.084383	0.26747	0.10317	0.10286	0.021126	0.18042	0.14171	0.2546	0.21603	0.4153	0.42769	0.19168	0.22729	0.30618	0.075	-1.3438	-0.24583	-0.93125	-0.93125	-0.20625	-1.0292	-0.65417	-0.28958	-1.0271	-0.31875	-0.64375	-1.3042	-0.58333	-0.96458	-0.75625	73.268	238.141	97.278	222.132	88.850	140.237	198.685	265.126	-24.068	57.854	186.437	261.944	249.438	-43.005	168.656	170.918	0.0004348	0.0010323	0.00030062	915.38	1.2781e-05	1.9708e-05	552.88	370.57	1.7045e-06	1.0633e-05	237.55	119.95	179.52	98.186	2.5417e-06	70.207	0.0078041	0.0099873	0.0027971	941.06	0.00010569	0.00011149	604.21	373.92	0.00010505	0.00011119	265.02	127.79	181.63	97.389	0.00010721	72.476	176.714	136.332	-47.380	-62.339	254.912	52.849	-64.317	-57.729	-27.931	173.768	-60.827	-58.441	-54.791	-51.312	70.197	-54.969	-8191	255	
7184.286	1	1	0	0	0.1836	0.33919	0.23105	0.2301	0.17155	0.38916	0.23186	0.1423	0.14343	0.11839	0.14813	0.072495	0.16409	0.42921	0.24119	0.11248	0.19375	-0.92083	-0.38958	-0.58333	-1.1521	-0.13958	-1.0708	-0.76875	-0.28333	-1.1792	-0.62708	-0.6125	-1.1646	-0.55	-0.84792	-0.88958	183.009	191.251	-40.211	264.632	163.813	37.984	-62.722	-47.132	-59.842	3.181	-34.987	-69.807	266.134	256.103	-32.720	163.524	0.00015251	0.0006666	0.00012232	925.15	1.104e-05	1.8869e-06	558.64	371.78	6.2507e-06	7.2806e-06	239.08	122.28	180.83	98.922	6.7166e-06	71.087	0.0079358	0.009997	0.0028273	945.9	0.00010508	0.00011196	605.82	375.4	0.0001055	0.00011104	267.81	129.49	183.64	98.205	0.00010625	73.386	153.102	48.898	64.571	-62.298	107.524	82.890	-64.413	-58.019	-38.325	113.340	-61.772	-58.190	-54.807	-51.166	52.664	-55.374	-8191	255	
7184.382	1	1	0	0	0.075972	0.18358	0.17029	0.21622	0.052871	0.21111	0.1247	0.38545	0.10158	0.073836	0.23448	0.17965	0.23364	0.25498	0.090088	0.06338	0.058333	-1.1063	-0.47708	-0.40833	-1.1104	-0.30417	-0.94375	-1.0292	-0.085417	-1.0771	-0.61875	-0.47708	-1.3438	-0.5	-0.73333	-1.1375	113.079	-28.359	17.915	228.387	170.451	265.053	69.205	212.356	91.548	185.258	48.808	-71.213	240.193	275.230	-37.844	279.981	0.00030613	0.00086894	9.4137e-05	929.43	1.179e-05	1.7759e-05	559.87	372.94	2.6952e-06	2.8005e-06	237.79	120.93	180.88	98.476	8.021e-06	69.678	0.0078139	0.010002	0.002772	945.42	0.00010455	0.00011117	604.46	375.38	0.00010536	0.00011093	265.94	128.23	183.12	97.778	0.00010726	72.036	168.006	266.756	-36.440	-62.421	83.410	52.772	-64.379	-57.901	218.722	222.625	-61.330	-58.010	-54.872	-51.255	60.224	-55.225	-8191	255	
7184.503	1	1	0	0	0.19804	0.30113	0.13602	0.18334	0.2578	0.1257	0.029747	0.4403	0.22809	0.083569	0.15354	0.12471	0.14127	0.13058	0.21031	0.28547	0.25	-1	-0.6875	-0.54375	-1.3125	-0.42708	-0.74167	-1.0312	-0.014583	-0.98125	-0.89167	-0.33958	-1.4667	-0.75	-0.54167	-1.3083	134.520	-70.242	118.899	-71.272	-53.715	228.647	283.872	217.115	12.017	187.495	197.726	206.938	-39.246	257.702	-62.396	277.329	3.4816e-05	0.00074483	0.00072942	914.61	1.7664e-06	3.6999e-06	552.95	369.3	7.4563e-06	9.938e-06	234.04	120.16	180.03	98.319	1.3544e-05	69.362	0.0078115	0.0098315	0.0027636	938.85	0.00010433	0.00010964	597.79	372.46	0.00010223	0.00010919	262.05	126.8	181.81	97.212	0.0001053	71.701	-28.592	-33.801	-32.190	-62.216	146.788	248.483	-64.177	-57.886	42.557	118.648	-61.380	-58.555	-54.708	-51.319	81.352	-55.217	-8191	255	
7184.599	1	1	0	0	0.19165	0.18433	0.11458	0.11331	0.1476	0.22642	0.28627	0.27348	0.12925	0.0859	0.25053	0.24624	0.2093	0.13	0.17656	0.32132	0.25417	-0.8875	-0.66667	-0.48542	-0.96458	-0.70833	-0.4375	-1.2396	-0.22708	-0.975	-0.93542	-0.37083	-1.2458	-0.75833	-0.4	-1.3188	-36.994	-31.850	-51.671	-45.622	273.165	165.788	-70.314	277.032	44.948	66.303	223.493	-35.305	-73.177	8.455	185.181	105.014	0.0003208	0.0017245	0.00023175	914.19	4.2962e-06	3.2395e-06	553.23	370.56	1.4978e-05	3.4411e-05	236.84	119.99	180.1	98.334	7.1651e-06	69.896	0.0076686	0.0097801	0.0027338	937.15	0.00010346	0.00010872	598.74	372.48	0.00010229	0.00010814	263.03	127.15	182.69	97.498	0.00010599	72.233	142.556	-9.066	224.689	-62.383	-2.765	24.646	-64.574	-57.787	29.849	92.846	-61.137	-58.450	-54.585	-51.709	115.839	-55.319	-8191	255	
7184.695	1	1	0	0	0.16396	0.14638	0.11214	0.34171	0.10632	0.040922	0.17572	0.21404	0.078406	0.09297	0.23618	0.13677	0.19155	0.25745	0.32373	0.13866	0.066667	-0.78958	-0.69375	-0.29167	-0.97083	-0.53958	-0.24167	-1.1063	-0.38958	-0.63958	-1.0542	-0.35208	-1.0729	-1.0688	-0.225	-1.4125	123.222	193.176	-61.034	-1.254	116.883	201.407	249.611	238.499	126.481	252.270	-61.677	186.041	237.876	-37.298	-22.724	-45.517	0.00033622	0.0010345	0.00012684	926.75	1.5148e-05	1.9699e-05	551.57	372.46	6.8446e-06	1.4589e-05	234.74	120.37	180.29	98.491	3.813e-06	70.711	0.0077637	0.0098752	0.0027712	944.21	0.00010361	0.00010972	600.63	374.61	0.00010304	0.00010988	263.62	127.39	182.44	97.583	0.00010585	72.651	149.716	104.555	-59.787	-62.429	83.518	161.332	-64.497	-57.717	64.498	11.906	-61.511	-58.169	-54.607	-51.157	111.999	-54.868	-8191	255	
7184.791	1	1	0	0	0.1667	0.020392	0.06785	0.15664	0.1939	0.14183	0.24601	0.16495	0.19249	0.13385	0.063869	0.25345	0.32504	0.12878	0.31282	0.11906	-0.11667	-0.57292	-0.85625	-0.42708	-0.86458	-0.62708	-0.21458	-1.4479	-0.23958	-0.47917	-1.1417	-0.26458	-0.93125	-1.1396	-0.23542	-1.3125	41.752	51.044	-26.896	125.481	206.663	-20.183	-70.597	282.200	111.498	140.752	72.981	246.604	257.800	277.731	199.456	183.645	0.0003328	0.0006578	0.00017171	930.29	7.61e-06	1.3255e-05	562.98	373.73	2.0959e-05	6.6875e-06	236.53	120.59	178.6	98.542	1.1928e-05	70.251	0.0076994	0.0098838	0.0027583	948.09	0.00010482	0.0001112	607.87	375.76	0.00010384	0.00011038	265.99	127.71	181.58	97.656	0.00010675	72.645	167.450	-19.002	63.911	-62.622	48.740	-36.503	-64.151	-57.900	92.175	-66.492	-61.115	-58.501	-54.513	-51.357	4.732	-55.013	-8191	255	
7184.887	1	1	0	0	0.16302	0.22039	0.23174	0.28414	0.14718	0.28958	0.26318	0.20506	0.23461	0.23259	0.064779	0.092786	0.11953	0.17111	0.20343	0.18318	-0.027083	-0.37917	-0.98542	-0.34583	-0.82083	-0.8	-0.19167	-1.3813	-0.66667	-0.38542	-1.2354	-0.25625	-1.0854	-1.1063	0.0083333	-1.1812	164.719	6.740	106.197	182.064	272.770	-38.098	189.006	239.695	111.752	68.179	182.440	118.881	-52.155	-38.333	170.789	162.995	0.00016351	0.0020274	0.00032913	923.01	2.3074e-05	1.0158e-05	553.1	371.4	1.3933e-05	7.6378e-06	234.69	117.88	179.01	98.148	7.8576e-06	69.514	0.007732	0.0097766	0.0027506	942.55	0.00010379	0.00011092	603.55	373.71	0.00010342	0.00010952	262.61	125.89	181.35	97.229	0.00010619	71.92	153.052	-1.798	-30.819	-62.540	19.565	95.462	-64.399	-57.618	-20.371	154.751	-61.280	-58.646	-54.950	-51.084	64.052	-55.361	-8191	255	
7184.984	1	1	0	0	0.1996	0.081873	0.18712	0.19337	0.018853	0.22557	0.16645	0.21252	0.16779	0.073847	0.25382	0.02443	0.28104	0.061296	0.09735	0.25305	-0.40833	-0.09375	-1.1104	-0.35833	-0.69167	-1.0417	-0.29167	-0.95625	-0.66458	-0.29375	-1.0292	-0.28958	-0.75833	-1.2062	-0.06875	-1.0625	233.939	107.129	-32.492	133.440	132.749	138.715	145.570	213.304	149.900	-19.157	-74.875	37.284	-31.371	62.845	-31.239	-27.969	0.0002463	0.0012561	0.00045867	922.8	1.0995e-05	2.5102e-05	552.54	371.02	4.478e-06	6.1521e-06	236.39	119.53	179.07	98.56	7.3017e-06	70.197	0.0077218	0.0098459	0.0027518	940.43	0.00010343	0.00010942	599.81	373.19	0.00010295	0.00010915	262.47	126.9	181.83	97.657	0.00010558	72.12	169.335	45.580	106.676	-62.491	-8.495	47.729	-64.523	-57.862	55.838	61.876	-61.439	-58.554	-54.651	-51.271	222.989	-54.962	-8191	255	
7185.080	1	1	0	0	0.070876	0.16031	0.28887	0.15335	0.31262	0.013595	0.17745	0.41713	0.056545	0.014448	0.27995	0.2712	0.11764	0.32023	0.091422	0.23293	-0.29583	-0.23542	-1.0479	-0.51458	-0.54792	-1.2021	-0.40208	-1.0812	-0.79583	-0.22708	-1.1333	-0.49375	-0.50625	-1.1417	-0.22083	-0.8125	137.734	-51.829	-11.952	-18.723	-64.935	159.414	-14.444	226.097	74.959	-31.016	197.019	202.878	221.829	249.453	172.724	221.068	0.00044866	0.00063142	0.00025159	920.96	1.2846e-06	1.4729e-05	558.75	371.97	1.1594e-05	2.3418e-05	236.42	119.69	179.45	98.68	6.5872e-06	70.59	0.0076635	0.0097699	0.0027569	942.05	0.00010298	0.00010873	603.18	374.17	0.00010315	0.00010902	263.6	127.18	182.01	97.817	0.00010548	72.63	162.225	160.624	-63.493	-62.558	197.170	170.624	-64.182	-57.512	80.171	77.569	-61.357	-58.244	-54.770	-51.311	192.680	-55.214	-8191	255	
7185.199	1	1	0	0	0.11622	0.1888	0.011215	0.29324	0.18975	0.27954	0.17838	0.19318	0.13357	0.26253	0.27494	0.26684	0.15284	0.2325	0.31406	0.24796	-0.4875	-0.045833	-1.0063	-0.63542	-0.3125	-0.925	-0.35625	-0.85208	-0.93958	-0.27083	-0.86667	-0.74375	-0.43958	-1.3979	-0.30208	-0.82292	233.787	111.543	88.250	273.503	-72.127	-28.580	34.198	270.357	44.398	7.996	261.274	150.172	262.344	215.174	197.757	266.051	0.00047289	0.001021	0.00033918	924.47	6.7855e-06	1.0318e-05	559.56	375.2	3.0234e-06	1.0855e-06	237.17	120.62	181.4	99.565	1.1121e-05	71.199	0.0076627	0.0097141	0.0027328	944.38	0.00010313	0.00010773	603.74	376.17	0.00010269	0.00010876	264.93	127.81	182.97	98.513	0.00010421	73.193	145.050	-30.938	-26.271	-62.333	12.199	-2.413	-64.885	-57.521	110.706	92.238	-60.696	-58.586	-54.621	-51.256	217.400	-54.876	-8191	255	
7185.295	1	1	0	131072	0.24837	0.2788	0.18292	0.18686	0.10851	0.35669	0.16361	0.32655	0.15113	0.23907	0.2618	0.24036	0.36888	0.36813	0.34371	0.22748	-0.49583	-0.08125	-0.90208	-0.80208	-0.32083	-1.1958	-0.46875	-0.75208	-1.0354	-0.30208	-0.90208	-0.89375	-0.37708	-1.1562	-0.27292	-0.76875	237.519	-15.774	114.902	-66.722	43.185	187.788	225.924	234.451	108.534	189.061	269.776	235.411	252.896	227.513	21.272	-67.843	0.00044837	0.00018233	0.00051738	929.95	1.9177e-05	1.5925e-06	564.17	376.16	3.1317e-06	1.8979e-05	239.43	121.75	180.68	100.15	1.0781e-05	71.164	0.007626	0.0096998	0.0027002	949.05	0.00010239	0.00010867	607.47	378.03	0.00010189	0.00010825	266.66	128.74	183.4	98.961	0.00010423	73.283	160.896	193.478	46.163	-62.263	112.556	158.083	-64.167	-58.012	278.840	40.092	-61.496	-58.513	-54.744	-51.379	-23.820	-55.105	-8191	255	
7185.391	1	1	0	0	0.21011	0.12863	0.062351	0.23568	0.097466	0.30236	0.16456	0.083543	0.3325	0.10579	0.11974	0.44335	0.31652	0.34477	0.13347	0.27544	-0.7375	-0.1875	-0.69167	-0.97083	-0.19167	-1	-0.44167	-0.46875	-1.0083	-0.21875	-0.76458	-1.0167	-0.23958	-1.2417	-0.58125	-0.44792	12.459	97.961	199.984	249.906	112.503	255.867	277.158	-21.121	151.994	-37.855	-30.670	148.761	-47.809	233.254	172.326	212.325	8.4729e-05	0.00075593	0.00010358	928.82	9.4538e-06	1.0037e-05	552.71	374.2	1.1997e-05	1.1239e-05	235.3	119.06	179.8	99.016	9.2002e-06	69.6	0.0075999	0.0096932	0.0027037	945.63	0.00010051	0.00010774	598.59	375.72	0.00010074	0.00010649	261.94	126.26	181.89	97.989	0.00010316	71.861	161.264	279.984	169.989	-62.407	54.625	219.202	-64.593	-57.670	36.644	-29.094	-61.479	-58.335	-54.906	-51.132	-72.148	-55.193	-8191	255	
7185.487	1	1	0	0	0.13752	0.024225	0.30733	0.31822	0.060837	0.22989	0.11841	0.30654	0.099801	0.35024	0.11481	0.25198	0.23839	0.49985	0.13455	0.22929	-0.71875	-0.33542	-0.55833	-1.0667	-0.14583	-1.0167	-0.48542	-0.44375	-1.1104	-0.37917	-0.64167	-1.2125	-0.38542	-1.4625	-0.66458	-0.56875	93.996	250.160	200.174	268.405	-65.778	209.038	119.644	231.629	131.685	-3.398	-46.300	268.425	-51.259	241.773	65.993	-42.882	0.00030198	0.00025876	0.00031065	924.49	1.0033e-05	9.5102e-06	554.54	373.2	4.8086e-06	3.8118e-06	232.65	119.63	180.52	98.826	1.2461e-05	69.569	0.0075286	0.009654	0.0027361	941.97	0.00010208	0.00010756	596.68	374.11	0.00010209	0.00010789	261.03	126.22	182.23	98.065	0.0001042	72.065	115.409	266.148	42.282	-62.366	112.682	18.195	-64.634	-57.845	-57.397	193.235	-61.243	-58.212	-54.935	-50.973	-48.092	-54.989	-8191	255	
7185.583	1	1	0	0	0.23672	0.086454	0.23809	0.25424	0.16846	0.10867	0.19023	0.28914	0.14168	0.29591	0.22275	0.077951	0.1405	0.26414	0.16072	0.32759	-0.7	-0.33333	-0.49375	-1.1292	-0.2625	-0.98542	-0.91042	-0.30208	-1.0667	-0.58542	-0.62292	-1.0708	-0.46458	-0.92917	-0.96458	-0.30833	-16.463	209.606	24.404	216.208	-10.350	113.377	228.013	194.807	152.267	145.488	190.993	265.113	-72.844	261.469	252.781	182.835	0.00038603	0.0013442	0.00030409	922.44	8.3741e-06	5.9818e-06	551.82	372.57	7.197e-06	6.9356e-06	234.52	121.62	181.23	99.519	5.9172e-06	70.496	0.0075979	0.0096208	0.0027018	942.9	0.00010257	0.00010801	598.6	374.98	0.00010191	0.00010794	262.56	127.41	183.79	98.802	0.00010406	72.683	166.391	66.061	116.827	-62.451	-8.724	246.575	-64.470	-57.908	230.024	196.592	-60.837	-58.268	-54.662	-51.166	125.792	-54.647	-8191	255	
7185.679	1	1	0	131072	0.18941	0.35	0.11069	0.29106	0.043037	0.24136	0.34618	0.20875	0.17308	0.1148	0.18785	0.19274	0.38357	0.23091	0.13917	0.27121	-0.625	-0.32083	-0.34375	-1.0625	-0.25833	-0.84375	-0.94583	-0.55833	-1.0167	-0.69167	-0.49375	-1.1458	-0.23958	-1.0583	-0.91875	-0.26667	258.933	7.638	8.748	139.224	-52.668	210.901	150.151	249.496	170.579	35.824	189.043	216.408	261.116	206.370	28.115	3.786	0.0002681	0.0017157	0.0001911	932.32	7.6115e-06	5.4417e-06	552.69	375.43	9.4924e-06	7.5323e-06	236.91	122.31	183.86	100.35	4.3428e-06	71.002	0.0076424	0.0096852	0.0027207	949.89	0.00010206	0.00010835	599.83	377.87	0.00010276	0.00010981	264.67	128.93	185.69	99.41	0.00010582	73.312	178.331	-27.963	96.541	-62.088	-29.803	79.658	-64.413	-57.779	264.803	150.900	-60.561	-58.397	-54.468	-51.201	209.589	-54.886	-8191	255	
7185.800	1	1	0	0	0.29037	0.12607	0.11496	0.1814	0.052182	0.31224	0.09465	0.30849	0.17648	0.31006	0.24705	0.067267	0.2219	0.23039	0.17588	0.28386	-0.78125	-0.5375	-0.079167	-1.2729	-0.30417	-0.63125	-1.3667	-0.21667	-0.85	-0.59792	-0.15417	-1.3146	-0.55417	-0.72083	-1.0292	-0.36875	-1.842	42.636	153.782	-46.418	229.679	-38.313	-40.684	190.178	-30.795	135.892	225.255	-18.084	-45.365	200.871	63.158	213.455	0.00049222	0.0015726	0.00028444	931.5	7.7914e-06	1.1384e-05	558.47	375.23	9.3003e-06	2.1773e-05	236.58	121.94	182.13	100.09	1.4566e-05	70.883	0.0077197	0.0098017	0.0027471	950.75	0.00010303	0.00010848	603.74	377.87	0.00010274	0.00010849	264.15	128.89	184.75	99.401	0.00010422	72.93	148.471	59.730	3.924	-62.360	12.533	89.561	-64.329	-57.516	187.813	75.049	-60.583	-58.177	-54.892	-50.953	70.409	-55.074	-8191	255	
7185.896	1	1	0	131072	0.28203	0.10914	0.085578	0.094874	0.20985	0.26657	0.10887	0.20225	0.16626	0.12506	0.18661	0.20407	0.29285	0.12033	0.21716	0.13747	-0.36875	-0.77917	-0.010417	-1.0646	-0.64792	-0.34583	-1.1958	-0.47083	-0.87292	-0.88333	-0.22917	-1.1896	-0.83125	-0.6625	-1.1229	-0.38333	61.250	114.116	33.427	-68.207	206.484	-61.422	185.700	185.197	250.918	49.041	102.381	148.384	251.818	245.061	-30.328	205.797	0.00032719	0.0012406	0.00026739	930.07	1.1595e-05	2.0842e-05	551.71	372.23	7.3143e-06	1.7564e-05	234.06	120.85	181.89	99.797	8.8633e-06	70.482	0.0076635	0.0097357	0.0027242	945.45	0.00010287	0.00010838	596.67	375.77	0.00010204	0.00010849	261.38	127.77	184.53	98.855	0.00010524	72.361	174.039	88.899	146.734	-62.569	134.779	132.785	-64.171	-57.216	66.769	78.217	-61.317	-58.302	-54.404	-51.083	132.748	-54.680	-8191	255	
7185.991	1	1	0	131072	0.18804	0.19774	0.21203	0.184	0.35115	0.19344	0.25874	0.47088	0.23485	0.11	0.067633	0.29155	0.22944	0.48298	0.10059	0.31874	-0.475	-0.94792	-0.09375	-1.0125	-0.7625	-0.36458	-1.15	-0.38542	-0.61667	-0.98958	-0.1375	-0.89792	-0.76458	-0.27917	-1.0625	-0.40833	-18.751	118.290	180.019	278.202	260.006	90.836	132.164	244.277	144.027	49.775	243.164	270.522	260.026	249.671	154.445	204.379	0.00035293	0.0012852	0.00022392	928.86	1.7564e-05	9.8763e-06	552.82	375.36	1.0851e-05	9.0665e-06	236.49	122.12	183.18	100.73	1.1749e-05	71.066	0.0077219	0.0097598	0.0027357	946.92	0.00010384	0.00010903	597.01	377.5	0.00010281	0.00010882	263.44	128.62	185.42	99.743	0.00010572	73.208	154.059	18.773	230.241	-62.067	26.676	22.127	-64.373	-57.652	-39.773	77.269	-61.142	-58.115	-54.934	-51.058	186.484	-55.275	-8191	255	
7186.087	1	1	0	131072	0.089126	0.052562	0.041917	0.25413	0.25416	0.16516	0.21541	0.17568	0.1163	0.20848	0.22933	0.065383	0.15535	0.45858	0.39321	0.18095	0.066667	-1.0354	-0.014583	-1.0187	-0.80417	-0.11875	-1.1104	-0.44375	-0.39792	-1.2208	-0.30625	-0.86458	-0.90208	-0.52917	-1.1187	-0.63958	92.764	-15.247	144.304	258.275	101.443	-30.579	-73.975	98.706	273.045	-66.545	-13.688	238.650	12.057	262.274	-49.781	170.252	0.00027742	0.0015504	0.00045311	923.13	5.8824e-06	4.7674e-06	551.27	377.49	5.845e-06	6.3298e-06	236.93	122.82	183.43	100.83	5.6096e-06	71.523	0.0076772	0.0097552	0.0027426	945.39	0.00010295	0.00011026	596.77	379.3	0.00010295	0.00010972	264.44	130	186.83	100.42	0.00010586	73.81	110.669	-31.980	6.683	-61.866	92.700	77.820	-64.051	-57.677	-2.960	155.467	-60.882	-58.216	-54.690	-50.973	257.418	-54.922	-8191	255	
7186.183	1	1	0	131072	0.16404	0.23212	0.2052	0.065857	0.034004	0.12055	0.1831	0.044667	0.17458	0.13154	0.12511	0.33821	0.28073	0.19388	0.057043	0.27839	-0.058333	-1.1542	-0.21667	-0.69167	-0.92292	-0.35625	-1.0104	-0.86458	-0.31042	-1.2229	-0.3375	-0.72917	-0.82917	-0.27917	-1.0292	-0.62917	23.000	-2.950	-14.526	226.768	7.241	85.207	227.719	28.595	158.191	-19.597	-62.250	265.136	253.819	-58.882	268.291	218.043	0.00028005	0.0008887	0.00023644	930.86	1.5863e-05	8.2368e-06	556.11	379.18	1.5827e-05	1.8012e-05	239.98	124.83	188.6	101.98	8.7428e-06	73.2	0.0077114	0.0098646	0.0027602	951.4	0.00010427	0.00011012	600.83	381.36	0.00010421	0.00011051	267.54	132.51	190.01	101.61	0.00010764	75.106	106.783	3.698	22.982	-62.081	23.197	-45.290	-64.179	-57.541	45.757	256.955	-61.201	-57.931	-54.953	-51.150	-10.136	-54.874	-8191	255	
#DATA ENDS
