BOXY.EXE: ISS Imagent and Oximeter Data Acquisition Program Version 0.80
Ascii Record File

#ACQ INFORMATION
2  Detector Channels 
16  External MUX Channels 
1  Auxiliary Channels 
5000  Waveform (CCF) Frequency (Hz)
1  Waveforms Skipped 
30  Waveforms Averaged 
1  Cycles Averaged 
16  Acquisitions per Waveform 
10.0806  Updata Rate (Hz) 

#FILE INFORMATION
TRUE -- External MUX Channel results are PARSED.
FALSE -- AC DC and Phase are NOT grouped.
TRUE -- Companion Program Settings File CREATED.
FALSE -- AC data not excluded
FALSE -- DC data not excluded
FALSE -- Phase data not excluded
FALSE -- Auxillary Chn. data not excluded
Tab delimiters

#CALIBRATION STATE
TRUE -- Waveform Calibration Values APPLIED.


#AUX CALIBRATION VALUES
Val Type	aux-1	

Term	1.0000e+00	
Factor	0.0000e+00	


#WF CALIBRATION VALUES
A = Detector Channel
Val Type	A-AC1	A-AC2	A-AC3	A-AC4	A-AC5	A-AC6	A-AC7	A-AC8	A-AC9	A-AC10	A-AC11	A-AC12	A-AC13	A-AC14	A-AC15	A-AC16	A-DC1	A-DC2	A-DC3	A-DC4	A-DC5	A-DC6	A-DC7	A-DC8	A-DC9	A-DC10	A-DC11	A-DC12	A-DC13	A-DC14	A-DC15	A-DC16	A-Ph1	A-Ph2	A-Ph3	A-Ph4	A-Ph5	A-Ph6	A-Ph7	A-Ph8	A-Ph9	A-Ph10	A-Ph11	A-Ph12	A-Ph13	A-Ph14	A-Ph15	A-Ph16	

Term	0.00000e+00	0.00000e+00	0.00000e+00	0.00000e+00	0.00000e+00	0.00000e+00	0.00000e+00	0.00000e+00	0.00000e+00	0.00000e+00	0.00000e+00	0.00000e+00	0.00000e+00	0.00000e+00	0.00000e+00	0.00000e+00	0.00000e+00	0.00000e+00	0.00000e+00	0.00000e+00	0.00000e+00	0.00000e+00	0.00000e+00	0.00000e+00	0.00000e+00	0.00000e+00	0.00000e+00	0.00000e+00	0.00000e+00	0.00000e+00	0.00000e+00	0.00000e+00	0.00000e+00	0.00000e+00	0.00000e+00	0.00000e+00	0.00000e+00	0.00000e+00	0.00000e+00	0.00000e+00	0.00000e+00	0.00000e+00	0.00000e+00	0.00000e+00	0.00000e+00	0.00000e+00	0.00000e+00	0.00000e+00	
Factor	1.00000e+00	1.00000e+00	1.00000e+00	1.00000e+00	1.00000e+00	1.00000e+00	1.00000e+00	1.00000e+00	1.00000e+00	1.00000e+00	1.00000e+00	1.00000e+00	1.00000e+00	1.00000e+00	1.00000e+00	1.00000e+00	1.00000e+00	1.00000e+00	1.00000e+00	1.00000e+00	1.00000e+00	1.00000e+00	1.00000e+00	1.00000e+00	1.00000e+00	1.00000e+00	1.00000e+00	1.00000e+00	1.00000e+00	1.00000e+00	1.00000e+00	1.00000e+00	X	X	X	X	X	X	X	X	X	X	X	X	X	X	X	X	

B = Detector Channel
Val Type	B-AC1	B-AC2	B-AC3	B-AC4	B-AC5	B-AC6	B-AC7	B-AC8	B-AC9	B-AC10	B-AC11	B-AC12	B-AC13	B-AC14	B-AC15	B-AC16	B-DC1	B-DC2	B-DC3	B-DC4	B-DC5	B-DC6	B-DC7	B-DC8	B-DC9	B-DC10	B-DC11	B-DC12	B-DC13	B-DC14	B-DC15	B-DC16	B-Ph1	B-Ph2	B-Ph3	B-Ph4	B-Ph5	B-Ph6	B-Ph7	B-Ph8	B-Ph9	B-Ph10	B-Ph11	B-Ph12	B-Ph13	B-Ph14	B-Ph15	B-Ph16	

Term	0.00000e+00	0.00000e+00	0.00000e+00	0.00000e+00	0.00000e+00	0.00000e+00	0.00000e+00	0.00000e+00	0.00000e+00	0.00000e+00	0.00000e+00	0.00000e+00	0.00000e+00	0.00000e+00	0.00000e+00	0.00000e+00	0.00000e+00	0.00000e+00	0.00000e+00	0.00000e+00	0.00000e+00	0.00000e+00	0.00000e+00	0.00000e+00	0.00000e+00	0.00000e+00	0.00000e+00	0.00000e+00	0.00000e+00	0.00000e+00	0.00000e+00	0.00000e+00	-8.46031e+01	-1.24328e+02	-1.34512e+02	-1.81699e+02	-5.65765e+01	-6.78973e+01	-1.56588e+02	-1.62015e+02	-4.89682e+01	-6.14460e+01	-1.72047e+02	-1.69354e+02	-1.85172e+02	-1.76661e+02	-5.95041e+01	-1.48927e+02	
Factor	1.85394e-05	1.34008e-04	4.54980e-05	1.65179e-01	1.51047e-06	1.75494e-06	1.84651e-01	5.45619e-02	1.21076e-06	1.81770e-06	9.52945e-02	3.13381e-02	2.68894e-02	1.02662e-02	1.54598e-06	1.46995e-02	3.18428e-06	3.57193e-06	9.92978e-07	8.46290e-02	3.85947e-08	3.91772e-08	8.89079e-02	2.80802e-02	3.85441e-08	3.91043e-08	4.71625e-02	1.56485e-02	1.38985e-02	5.29215e-03	3.88907e-08	7.31696e-03	X	X	X	X	X	X	X	X	X	X	X	X	X	X	X	X	



#DISTANCE SETTINGS
A = Detector Channel
A-1	A-2	A-3	A-4	A-5	A-6	A-7	A-8	A-9	A-10	A-11	A-12	A-13	A-14	A-15	A-16	

2.5000e+00	3.0000e+00	2.5000e+00	3.0000e+00	2.0000e+00	3.0000e+00	1.5000e+00	3.0000e+00	3.0000e+00	3.0000e+00	3.0000e+00	3.0000e+00	3.0000e+00	3.0000e+00	1.5000e+00	3.0000e+00	

B = Detector Channel
B-1	B-2	B-3	B-4	B-5	B-6	B-7	B-8	B-9	B-10	B-11	B-12	B-13	B-14	B-15	B-16	

1.0000e+01	1.0000e+01	1.0000e+01	1.4400e+00	1.0000e+01	1.0000e+01	1.5100e+00	1.9400e+00	1.0000e+01	1.0000e+01	1.9900e+00	2.4900e+00	2.4100e+00	2.9000e+00	1.0000e+01	2.9800e+00	




#DATA BEGINS
time	group	step	mark	flag	A-AC1	A-AC2	A-AC3	A-AC4	A-AC5	A-AC6	A-AC7	A-AC8	A-AC9	A-AC10	A-AC11	A-AC12	A-AC13	A-AC14	A-AC15	A-AC16	A-DC1	A-DC2	A-DC3	A-DC4	A-DC5	A-DC6	A-DC7	A-DC8	A-DC9	A-DC10	A-DC11	A-DC12	A-DC13	A-DC14	A-DC15	A-DC16	A-Ph1	A-Ph2	A-Ph3	A-Ph4	A-Ph5	A-Ph6	A-Ph7	A-Ph8	A-Ph9	A-Ph10	A-Ph11	A-Ph12	A-Ph13	A-Ph14	A-Ph15	A-Ph16	B-AC1	B-AC2	B-AC3	B-AC4	B-AC5	B-AC6	B-AC7	B-AC8	B-AC9	B-AC10	B-AC11	B-AC12	B-AC13	B-AC14	B-AC15	B-AC16	B-DC1	B-DC2	B-DC3	B-DC4	B-DC5	B-DC6	B-DC7	B-DC8	B-DC9	B-DC10	B-DC11	B-DC12	B-DC13	B-DC14	B-DC15	B-DC16	B-Ph1	B-Ph2	B-Ph3	B-Ph4	B-Ph5	B-Ph6	B-Ph7	B-Ph8	B-Ph9	B-Ph10	B-Ph11	B-Ph12	B-Ph13	B-Ph14	B-Ph15	B-Ph16	aux-1	digaux	

21522.682	1	1	0	768	0.27178	0.37593	0.35417	0.14143	0.054711	0.249	0.12301	0.13333	0.23181	0.096094	0.088518	0.16208	0.25557	0.016674	0.11878	0.17915	-0.53125	-0.0041667	-0.65	-0.92917	0.03125	-1.0042	-0.39583	-0.50833	-0.93333	-0.22292	-0.83333	-1.0042	-0.20625	-0.93333	-0.57917	-0.30833	524.095	524.634	294.626	487.118	357.909	181.941	232.796	359.160	396.252	519.035	195.598	286.067	474.337	216.631	361.228	508.211	0.00045688	0.000852	0.0010132	1241	3.7199e-05	1.3044e-05	683.71	361.48	3.7229e-05	5.819e-05	195	59.515	116.93	49.742	1.4489e-05	27.159	0.011894	0.013301	0.0037119	1488.2	0.00014759	0.00015075	986	451.76	0.00015581	0.00015978	375.99	120.7	168.08	68.983	0.00016168	55.513	293.875	384.985	249.546	178.453	367.343	252.278	177.302	183.822	411.389	246.347	180.383	185.822	189.050	193.481	509.114	189.371	-8191	255	
21522.777	1	1	0	0	0.15932	0.08725	0.23028	0.3286	0.15063	0.25652	0.14069	0.43691	0.095613	0.2304	0.081254	0.092863	0.2103	0.091074	0.069515	0.10906	-0.825	-0.23125	-0.5125	-0.99167	-0.058333	-0.89792	-0.70833	-0.41458	-0.9625	-0.43333	-0.4875	-1.0354	-0.27292	-0.84583	-0.7875	-0.175	499.440	244.528	482.344	486.485	508.359	198.129	446.023	471.511	225.229	278.774	338.434	315.381	186.354	274.196	314.834	342.193	0.00034133	0.0021018	0.00086447	1244.1	8.5649e-06	2.4884e-05	686.98	360.5	3.7675e-05	2.8427e-05	195.79	58.764	117	50.248	3.5641e-05	27.108	0.013106	0.014713	0.0040669	1509.9	0.00015767	0.0001592	1002.1	456.23	0.00015989	0.00016426	379.91	121.61	168.53	69.444	0.00016679	57.169	257.221	472.142	518.537	178.439	209.790	458.738	176.669	183.701	351.729	370.226	180.318	184.994	188.801	193.817	263.969	189.046	-8191	255	
21522.873	1	1	0	0	0.18058	0.46591	0.16132	0.12372	0.12728	0.12186	0.067302	0.2095	0.049817	0.061846	0.44015	0.22711	0.30696	0.14383	0.31925	0.36224	-0.72292	-0.40208	-0.29583	-1.1313	-0.175	-0.65	-0.92917	-0.37083	-1.0604	-0.67292	-0.33333	-1.2792	-0.44375	-0.81458	-0.87083	-0.16875	176.430	255.278	288.391	323.643	457.009	223.377	292.676	439.737	189.766	430.462	496.725	348.828	518.454	372.952	425.419	509.849	0.00036611	0.002885	0.00041361	1239.7	2.02e-05	2.5022e-05	673.98	361.61	1.2564e-05	1.7713e-05	197.06	59.803	118.88	50.069	1.9469e-05	27.045	0.013878	0.016081	0.0045687	1560.8	0.00018475	0.00019287	1093.6	489	0.00020732	0.00021903	454.26	148.63	194.98	79.293	0.00022869	67.152	288.702	444.869	240.703	178.460	261.616	486.092	176.791	183.842	506.238	252.647	181.349	185.404	188.532	193.278	166.885	188.590	-8191	255	
21522.971	1	1	0	0	0.12201	0.12849	0.24904	0.17603	0.3804	0.34253	0.15188	0.11268	0.092964	0.29113	0.15657	0.13084	0.077443	0.16567	0.22414	0.20335	-0.47083	-0.54583	-0.325	-1.15	-0.22292	-0.63125	-1.1063	-0.2	-0.99375	-0.52292	-0.39792	-1.0667	-0.49167	-0.66667	-0.99583	-0.077083	331.278	327.476	405.408	518.259	354.414	347.309	514.288	247.626	253.849	221.728	270.149	377.051	482.538	393.250	408.624	400.822	0.00062924	0.0015912	0.0010504	1244.3	1.8473e-05	4.4279e-05	687.63	365.25	1.8651e-05	1.2817e-05	194.68	60.27	120.2	50.677	1.2187e-05	27.221	0.01754	0.019625	0.0054799	1644	0.00021962	0.0002243	1149.8	502.87	0.00021515	0.0002178	443.31	141.42	187.4	76.504	0.0002094	64.546	237.313	496.016	184.972	178.218	213.953	193.847	175.753	183.975	306.454	200.320	180.098	184.843	188.458	193.373	439.466	188.808	-8191	255	
21523.066	1	1	0	0	0.061836	0.22397	0.20387	0.30951	0.11321	0.22338	0.23186	0.10023	0.068811	0.19645	0.19578	0.24944	0.57129	0.17803	0.13512	0.26231	-0.5625	-0.70833	-0.28542	-1.1646	-0.33958	-0.47708	-1.1375	-0.17083	-0.90417	-0.66667	0.0041667	-0.87083	-0.55	-0.38125	-1.0042	-0.12917	516.829	226.134	507.364	500.719	253.059	201.910	222.168	488.083	359.123	374.073	343.416	469.743	183.542	462.573	226.737	267.550	0.0002955	0.0026513	0.00052419	1235.6	1.3837e-05	3.4501e-05	676.17	363.52	2.2131e-05	1.3974e-05	196.88	59.028	118.56	50.69	2.2971e-05	26.94	0.016679	0.018576	0.0051056	1592.5	0.00019661	0.00019857	1080.4	481.97	0.00019221	0.00019594	410.07	127.84	172.96	69.947	0.0001587	54.765	223.981	516.366	319.606	178.527	347.775	354.546	176.502	184.027	362.509	389.908	180.088	184.876	188.860	193.412	166.709	188.123	-8191	255	
21523.162	1	1	0	0	0.31898	0.18305	0.13798	0.14355	0.056877	0.23159	0.23852	0.3381	0.16469	0.25821	0.18485	0.21158	0.20859	0.22	0.19063	0.15536	-0.24792	-0.725	-0.28333	-1.175	-0.51042	-0.35625	-1.3	-0.4125	-0.90625	-1.0542	-0.2	-0.97292	-0.68542	-0.36042	-0.96875	-0.45625	444.384	459.177	339.435	521.669	255.536	197.334	419.752	453.019	366.307	396.706	462.502	384.975	307.634	465.957	311.463	296.076	0.00036045	0.00086851	0.00057433	1244.6	2.5669e-05	1.6442e-05	674.45	365.34	1.0584e-05	2.164e-05	197.91	59.874	118.01	50.656	2.6322e-05	27.443	0.012602	0.0142	0.0039027	1486.9	0.00015241	0.00015683	991.42	457.97	0.00016141	0.00016861	389.97	125.17	174.82	72.134	0.00017888	59.338	234.655	247.215	280.479	178.762	271.159	408.121	176.649	183.802	396.797	263.483	180.729	185.227	188.368	193.219	231.798	188.038	-8191	255	
21523.281	1	1	0	0	0.10771	0.09365	0.21578	0.04821	0.18765	0.14597	0.059178	0.37487	0.11329	0.097161	0.059969	0.11788	0.20127	0.18801	0.25119	0.31649	-0.3	-0.95208	-0.016667	-1.0271	-0.82083	-0.38958	-1.1146	-0.51042	-0.475	-0.98333	-0.28333	-0.95	-0.80208	-0.31042	-0.79167	-0.45833	198.426	178.889	298.513	360.180	261.680	214.530	174.981	504.521	428.036	320.455	403.456	303.938	499.316	401.702	415.698	465.747	7.4431e-05	0.0017243	0.00053213	1246.7	3.572e-05	2.5474e-05	678.42	363.39	1.9227e-05	2.3597e-05	198.95	60.806	120.58	51.238	2.646e-05	27.461	0.014463	0.016073	0.0043563	1524.5	0.00016408	0.0001657	1005.4	461.05	0.00016305	0.00016864	388.94	124.54	174.99	71.911	0.00017851	60.417	217.756	291.978	243.859	178.495	295.382	370.025	176.825	183.934	348.651	194.801	180.479	184.667	188.970	193.853	522.851	188.639	-8191	255	
21523.377	1	1	0	0	0.27616	0.14212	0.18877	0.13754	0.17038	0.090183	0.043667	0.16834	0.064643	0.13368	0.24569	0.26652	0.37837	0.04133	0.15475	0.10127	-0.11042	-1.0833	0.10417	-0.86458	-0.78542	-0.17708	-1.1854	-0.525	-0.35417	-1.0729	-0.23958	-0.79375	-0.94167	-0.24792	-1.0271	-0.76458	499.507	525.207	334.405	477.464	482.434	282.779	487.620	458.334	256.795	419.295	193.991	372.905	501.090	441.626	376.139	404.248	0.0004942	0.00098498	0.0011729	1244	3.289e-06	3.2355e-05	671.75	366.3	2.0348e-05	3.8849e-05	198.49	60.736	120.98	50.842	1.8793e-05	27.585	0.015592	0.01798	0.0050686	1596.8	0.00020308	0.00021057	1116.7	501.01	0.00021074	0.00020843	432.87	138.56	187.07	75.701	0.00019664	63.304	264.360	320.631	341.112	178.649	213.458	389.686	176.573	184.114	519.683	210.039	180.421	184.975	188.681	193.373	364.281	188.852	-8191	255	
21523.473	1	1	0	0	0.16777	0.19141	0.13159	0.26968	0.30028	0.26683	0.03883	0.35635	0.16273	0.1863	0.064164	0.15282	0.2823	0.25843	0.080052	0.22081	-0.19792	-1.0021	-0.15625	-0.93125	-0.9375	-0.32083	-0.95417	-0.84583	-0.46667	-1.1208	-0.36667	-0.7375	-0.98125	-0.12917	-0.9375	-0.72708	307.592	344.776	305.623	521.776	407.364	285.856	269.682	495.278	258.946	183.899	253.357	317.868	462.463	177.252	226.299	462.037	0.0001284	0.0012086	0.00067851	1235.4	2.7343e-05	4.3919e-05	673.36	368.03	2.0787e-05	3.4764e-05	196.79	60.62	120.29	50.471	5.0063e-05	26.851	0.016565	0.01896	0.0054582	1640	0.00022373	0.00022988	1154.6	517.34	0.00023294	0.00023853	474.26	153.29	199.88	80.008	0.00022904	67.666	515.929	369.809	343.266	178.362	299.195	287.760	176.221	183.653	346.803	505.182	180.363	184.447	188.461	193.117	169.299	188.412	-8191	255	
21523.568	1	1	0	0	0.28259	0.036457	0.050342	0.20306	0.065363	0.30962	0.22754	0.38289	0.29093	0.17721	0.1468	0.15562	0.19719	0.10071	0.28188	0.045918	0.24375	-1.3708	-0.29792	-0.56875	-0.95625	-0.31042	-1.0167	-0.71667	-0.35417	-1.1437	-0.53542	-0.41875	-1.2479	-0.27083	-0.975	-0.90208	166.602	344.350	248.783	494.001	228.837	367.907	421.729	431.574	184.908	409.553	406.415	471.001	195.308	503.978	406.595	520.811	0.00036705	0.00090059	0.00013006	1232.6	3.1014e-05	5.0667e-06	667.97	370.31	7.5811e-06	2.208e-05	197.96	61.349	120.3	51.198	2.4931e-05	26.92	0.017837	0.019343	0.0052722	1601.9	0.00019769	0.00019619	1059.1	483.2	0.00018348	0.00018648	412.85	133.63	183.09	75.057	0.00020346	65.52	271.044	198.812	430.982	178.360	281.574	233.468	176.685	183.968	281.677	511.820	180.011	185.507	188.876	193.621	189.471	188.943	-8191	255	
21523.664	1	1	0	0	0.11875	0.40937	0.11509	0.099497	0.15577	0.084308	0.080272	0.35138	0.146	0.098802	0.11543	0.18066	0.21599	0.31126	0.17048	0.26475	0.375	-0.94583	-0.37917	-0.37292	-1.1208	-0.2625	-0.65625	-1.1688	-0.26667	-1.1125	-0.56042	-0.4	-1.2333	-0.49167	-0.86042	-1.0667	223.561	173.023	315.559	414.922	232.698	491.847	492.401	171.995	224.530	469.502	179.381	449.801	194.309	452.260	414.281	473.120	0.00035538	0.0014467	0.00012616	1233.7	2.1025e-05	2.5065e-05	676.29	366.61	1.3693e-05	1.92e-05	194.22	59.069	119.98	50.211	1.3978e-05	26.633	0.017967	0.020777	0.0060068	1684.1	0.00024721	0.0002586	1238.9	545.63	0.00027944	0.00028981	542.97	176.63	221.12	89.211	0.00031052	84.762	289.215	248.686	386.858	178.189	498.996	458.494	176.899	183.860	348.079	323.044	180.537	184.689	188.357	193.657	466.193	188.076	-8191	255	
21523.762	1	1	0	0	0.060199	0.076589	0.16525	0.29944	0.079017	0.18513	0.33084	0.31225	0.307	0.10634	0.24739	0.17351	0.20553	0.24809	0.0087454	0.21437	0.12083	-1.2083	-0.73333	-0.29167	-0.925	-0.32708	-0.725	-1.1688	-0.31875	-1.0438	-0.80417	-0.077083	-1.15	-0.69792	-0.59792	-1.0417	247.999	323.430	513.525	182.866	262.935	479.555	198.099	507.140	289.715	293.328	218.768	281.404	490.186	481.116	331.481	400.641	0.0003752	0.0032222	0.00061338	1227.9	4.5294e-05	0.00010807	659.13	362.54	3.1361e-05	1.6276e-05	193.55	57.205	116.25	49.598	3.3416e-05	26.398	0.026384	0.030003	0.0086429	1915.8	0.00035112	0.00037123	1490	620.99	0.00038578	0.00039839	673.31	219.09	257.99	104.23	0.00042506	105.67	311.138	401.625	183.025	178.436	432.492	293.370	176.435	183.447	304.333	250.208	179.965	184.520	188.648	193.603	248.337	188.010	-8191	255	
21523.883	1	1	0	131072	0.03662	0.067087	0.080423	0.32653	0.17676	0.18316	0.11508	0.072764	0.055489	0.061411	0.14994	0.21992	0.32431	0.24408	0.03435	0.023999	0.25417	-0.95833	-0.97708	-0.38333	-1.0333	-0.67292	-0.46042	-1.4312	-0.42083	-1.1208	-0.97708	-0.36458	-1.1688	-0.74375	-0.45833	-1.1125	189.551	355.633	383.782	478.242	393.345	372.924	170.417	505.160	437.864	494.975	224.432	360.688	367.210	332.308	423.443	286.964	0.000354	0.0019588	0.00058112	1223.1	3.2033e-05	3.6466e-05	662.73	355.76	3.6814e-05	1.8368e-05	186.44	56.181	114.5	48.754	1.8404e-05	25.729	0.035271	0.039895	0.011173	2112.4	0.00043054	0.0004423	1629.9	656.18	0.000438	0.00044637	719.85	233.12	267.89	107.51	0.00044826	108.47	318.522	182.472	377.441	178.419	303.938	522.057	176.547	183.598	247.719	238.334	181.033	185.189	188.691	193.339	461.665	188.612	-8191	255	
21523.979	1	1	0	131072	0.11637	0.038456	0.026299	0.23518	0.095546	0.10083	0.088657	0.17092	0.27478	0.070581	0.10384	0.035876	0.11577	0.30794	0.20456	0.080656	0.19583	-0.72083	-0.80208	-0.40833	-1.0625	-0.66875	-0.50625	-1.2583	-0.42708	-0.60417	-1.2708	-0.13542	-1.0938	-0.85417	-0.175	-1.2125	477.854	201.348	306.943	428.490	409.100	431.452	353.709	221.926	518.586	282.655	388.897	443.505	506.395	169.068	359.290	475.915	0.0002619	0.0014794	0.00070352	1207.5	3.3964e-05	1.0562e-05	651.78	355.63	2.9186e-05	5.8686e-05	184.79	57.185	113.68	48.484	5.044e-05	25.769	0.036778	0.041314	0.011549	2129.9	0.00044309	0.00045604	1652.3	664.38	0.00044645	0.00045054	715.89	230.7	264.1	104.97	0.00042398	101.65	233.306	399.637	344.260	178.376	238.460	400.125	175.506	183.929	291.167	273.855	179.962	184.259	188.154	193.722	236.609	188.265	-8191	255	
21524.074	1	1	0	0	0.1725	0.19499	0.064332	0.21655	0.31242	0.08767	0.10364	0.25674	0.12061	0.14849	0.15836	0.076475	0.070949	0.24372	0.021546	0.13303	-0.12292	-0.375	-1.1125	-0.15417	-0.95208	-0.825	-0.31667	-1.425	-0.47292	-0.38333	-1.1562	-0.27292	-1.0396	-0.86042	0.016667	-1.0771	324.695	366.525	522.115	383.593	288.799	427.683	469.437	367.458	414.953	482.487	261.680	459.940	328.827	517.579	357.366	234.998	0.00037992	0.0010888	0.00063626	1227.6	2.6574e-05	2.3397e-05	648.53	357.62	8.2551e-06	1.6685e-05	188.56	56.491	116.04	49.378	2.4153e-05	26.115	0.033051	0.036082	0.0098408	1976.3	0.00036707	0.00037143	1443.4	593.66	0.00034351	0.00034426	587.57	187.71	227.6	91.192	0.0003237	84.282	215.747	334.686	479.825	178.084	514.661	202.187	176.547	183.933	352.004	217.445	181.698	184.505	188.821	193.268	332.730	189.265	-8191	255	
21524.170	1	1	0	0	0.086422	0.24041	0.026646	0.077602	0.063394	0.29562	0.18057	0.16664	0.11071	0.20063	0.12824	0.16183	0.071324	0.28255	0.26396	0.34451	-0.15	-0.5	-0.95417	-0.275	-0.67292	-0.94167	-0.275	-0.94375	-0.49167	-0.4375	-1.0667	-0.13125	-0.73333	-0.87292	-0.16875	-0.8875	317.160	265.374	516.533	494.207	302.788	325.991	486.840	507.462	513.457	321.188	469.315	390.358	497.231	515.426	315.947	394.868	0.00046296	0.0019113	0.00049928	1229.3	4.5443e-05	6.0051e-05	657.43	361.48	3.3286e-05	2.7686e-05	191	57.641	117.65	49.996	4.4503e-05	26.725	0.026025	0.028756	0.0078977	1818.8	0.00029681	0.00030012	1286	547.51	0.00028457	0.00028839	527.28	170.59	214.96	87.019	0.00029269	80.361	265.728	237.113	236.551	178.408	186.437	402.355	176.161	183.881	520.086	260.685	180.739	184.387	189.082	193.514	287.371	187.780	-8191	255	
21524.242	1	1	0	0	0.1883	0.35737	0.1555	0.079843	0.18532	0.16585	0.14774	0.11911	0.091255	0.22137	0.19338	0.18428	0.10991	0.057322	0.31199	0.13229	-0.16875	-0.19167	-1.1063	-0.375	-0.45833	-1.0771	-0.15417	-1.1812	-0.625	-0.20625	-1.025	-0.51458	-0.73125	-1.2062	-0.32917	-0.73333	201.686	412.330	213.573	255.338	418.625	442.702	324.575	200.066	181.356	181.188	406.466	312.478	279.393	258.360	491.283	388.745	0.00070338	0.0056816	0.00040655	1235	3.4782e-05	2.8441e-05	667.75	363.64	6.5607e-06	7.2787e-06	193.38	59.109	117.92	50.03	1.7038e-05	26.539	0.024401	0.027236	0.00755	1806.3	0.00029302	0.00030064	1309.4	559.43	0.00029961	0.00030431	544.73	177.46	220.98	88.995	0.00030728	83.244	224.288	226.919	170.044	178.390	387.232	174.707	176.405	184.007	227.086	224.257	179.848	185.044	188.943	193.611	274.337	188.210	-8191	255	
21524.361	1	1	0	0	0.20065	0.34278	0.16577	0.3565	0.079682	0.25136	0.12811	0.19146	0.25036	0.38527	0.19768	0.076032	0.20318	0.29508	0.45411	0.27488	-0.36875	-0.26458	-0.975	-0.66042	-0.25208	-1.0438	-0.077083	-1.0292	-0.83333	-0.31667	-1.1271	-0.36667	-0.56042	-1.2667	-0.15	-0.81042	252.158	277.483	173.866	463.366	182.952	426.661	177.346	426.564	231.599	355.343	192.787	523.206	239.673	514.035	390.473	500.733	0.00036904	0.0027575	0.00080291	1239.2	5.1641e-05	6.6238e-05	665.63	362.82	1.8545e-05	4.6952e-05	193.2	58.683	118.39	50.104	2.5467e-05	26.159	0.025862	0.029064	0.0080709	1860.4	0.00031841	0.00032337	1354.8	574.21	0.00031746	0.00032044	563.36	181.58	222.88	89.029	0.0003033	81.679	264.597	250.790	245.068	178.232	391.841	255.183	176.499	184.206	209.413	474.562	181.421	185.110	188.614	193.532	312.728	188.482	-8191	255	
21524.457	1	1	0	0	0.21256	0.16133	0.12583	0.30154	0.18738	0.14084	0.23679	0.14183	0.14685	0.20325	0.30405	0.12258	0.21296	0.2993	0.24536	0.21584	-0.52708	-0.11875	-0.95	-0.83542	-0.18125	-1.1271	-0.33542	-0.80417	-1.0208	-0.1	-1.0438	-0.58542	-0.36042	-1.1667	-0.25	-0.51042	506.954	310.505	464.009	205.303	219.410	367.868	500.978	171.209	168.941	499.438	404.254	422.032	484.823	505.726	500.133	329.889	0.00058895	0.00056171	0.00082243	1240.7	2.7968e-05	2.2451e-05	663.14	367.84	3.0641e-05	1.2488e-05	195.39	60.423	119.51	51.257	3.5757e-05	26.795	0.024806	0.02749	0.007635	1815.3	0.00029606	0.00029769	1292.7	555.18	0.0002836	0.00028478	522.02	168.77	213.01	86.037	0.00027784	77.405	274.955	333.577	499.610	178.408	508.664	242.586	176.707	183.967	207.654	397.625	180.515	184.616	188.849	193.262	242.518	188.775	-8191	255	
21524.553	1	1	0	0	0.17169	0.076808	0.17108	0.26932	0.11996	0.067805	0.12499	0.16694	0.11661	0.084815	0.34084	0.1407	0.38492	0.24393	0.084242	0.24206	-0.66667	-0.11875	-0.9	-0.82708	-0.083333	-1.2104	-0.50208	-0.52292	-0.93542	-0.24167	-0.80625	-0.91458	-0.15625	-1.1542	-0.42708	-0.45	314.901	474.911	475.185	476.587	299.940	202.560	445.573	189.007	505.873	458.752	501.734	498.661	495.229	227.223	354.579	510.690	0.00039267	0.0011515	0.00059612	1232.5	4.3419e-05	3.0774e-05	670.88	367.79	1.7813e-05	1.4283e-05	196.52	59.903	122.01	51.81	3.2711e-05	27.792	0.022476	0.024763	0.0067801	1732.6	0.000254	0.00025225	1191.6	522.3	0.00023658	0.00023791	470.73	152.13	198.12	80.344	0.00022894	68.771	250.920	238.952	415.401	178.331	246.287	329.624	176.816	184.536	392.827	253.787	180.478	185.590	189.209	193.532	199.238	188.958	-8191	255	
21524.650	1	1	0	0	0.1995	0.57288	0.02848	0.30205	0.080014	0.27119	0.092762	0.29806	0.075787	0.2366	0.15753	0.27719	0.1451	0.12026	0.029977	0.2391	-0.72292	-0.025	-0.62917	-0.87708	-0.21042	-1.0583	-0.2	-0.60417	-1.1063	-0.33542	-0.68542	-0.9125	-0.0875	-1.1479	-0.51042	-0.25	336.422	260.244	346.321	466.387	298.844	216.603	441.413	496.292	429.550	524.972	440.928	414.664	199.146	232.916	281.634	476.899	0.00029902	0.00060097	0.00051951	1240.7	3.236e-06	2.0934e-05	679.63	373.57	1.4591e-05	3.325e-05	201.48	61.886	125.54	53.301	4.7048e-06	28.752	0.018303	0.020066	0.0054493	1616.9	0.00019739	0.00019451	1062.3	480.63	0.00017223	0.00017085	387.42	123.14	173.24	70.92	0.00015241	54.551	252.509	251.046	365.043	178.564	369.562	274.330	176.077	184.292	380.119	476.108	180.637	184.448	189.074	193.444	523.388	187.809	-8191	255	
21524.770	1	1	0	0	0.20984	0.15316	0.21526	0.23757	0.31982	0.19906	0.11838	0.078713	0.022396	0.16773	0.19589	0.10593	0.26101	0.13402	0.25496	0.25377	-0.80208	-0.19583	-0.6875	-1.1542	0.05	-1.0083	-0.71458	-0.32917	-1.2354	-0.42708	-0.62708	-0.92708	-0.16875	-0.94583	-0.7125	-0.2125	526.096	422.920	375.113	492.001	445.764	466.662	425.634	175.390	256.995	255.986	194.856	428.153	521.646	186.133	313.715	413.577	0.00010167	0.0035884	0.00037089	1258.3	1.1657e-05	1.633e-05	686.59	376.64	3.7935e-06	2.5008e-06	201.86	62.119	124.52	52.864	1.1868e-05	28.423	0.012028	0.01346	0.0037154	1491.7	0.00014414	0.0001476	978.7	459.91	0.00014801	0.00015328	373.38	120.13	171.66	70.675	0.00015327	55	227.050	172.125	451.624	178.441	457.138	350.274	176.433	184.295	244.087	331.694	181.117	185.109	188.867	193.852	423.799	188.644	-8191	255	
21524.842	1	1	0	0	0.32053	0.24788	0.014167	0.20596	0.18749	0.10639	0.30275	0.12083	0.085	0.22393	0.15977	0.06072	0.28956	0.18061	0.14364	0.10908	-0.87708	-0.31875	-0.25417	-1.3438	-0.13958	-1.0312	-0.7125	-0.2125	-1.1437	-0.40208	-0.30625	-1.2062	-0.33333	-1.0208	-0.99375	-0.16042	413.445	420.687	167.468	218.916	447.581	353.631	178.445	432.944	505.898	462.712	500.562	399.888	462.771	204.657	263.809	190.313	0.00019517	0.0021495	0.00028539	1258.7	2.9531e-05	1.8716e-05	686.17	376.17	1.9409e-05	1.8101e-05	203.75	63.276	125.42	54.012	1.9972e-05	29.037	0.012326	0.013843	0.0038197	1498.8	0.00014565	0.00014869	980.82	458.8	0.00014405	0.00014753	365.87	117.26	169.58	70.37	0.0001463	54.423	193.157	363.267	425.855	178.460	380.069	440.976	176.742	184.209	248.557	484.312	181.196	184.471	189.121	193.527	237.719	189.196	-8191	255	
21524.963	1	1	0	0	0.068682	0.11287	0.17483	0.32739	0.13804	0.15856	0.21729	0.20641	0.2346	0.19045	0.085685	0.05821	0.24461	0.17512	0.064343	0.20685	-0.54167	-0.42083	-0.4625	-1.4396	-0.17083	-0.61458	-1.0021	-0.3875	-0.90208	-0.54583	-0.40625	-1.1167	-0.53333	-0.64583	-0.94792	-0.19792	183.599	370.775	362.742	479.409	269.677	520.415	487.266	452.199	377.459	381.493	257.469	310.042	518.054	321.149	354.443	221.147	0.00059226	0.002521	0.000731	1263.6	1.968e-05	1.0353e-05	699.74	377.3	1.0255e-05	9.2734e-06	206.57	63.628	126.03	53.377	1.1921e-05	28.991	0.012042	0.013738	0.0038196	1506.1	0.00014764	0.00015166	994.83	463.72	0.00014846	0.00015304	374.07	120.11	172.53	71.449	0.00015312	55.821	253.377	303.108	300.060	178.633	367.092	250.703	176.873	183.947	517.715	422.907	180.983	184.794	189.066	193.886	321.567	188.409	-8191	255	
21525.059	1	1	0	0	0.042569	0.023939	0.2049	0.15743	0.20929	0.32542	0.14126	0.24811	0.31824	0.090649	0.26847	0.13973	0.34641	0.21593	0.10411	0.099154	-0.57917	-0.59583	-0.29792	-1.1688	-0.46667	-0.41042	-1.1125	-0.32917	-0.88333	-0.85833	-0.25	-0.98333	-0.49583	-0.45208	-1.1458	-0.35208	503.178	513.919	270.846	504.097	281.475	251.488	168.663	238.250	297.055	361.751	524.257	280.479	525.794	429.919	508.877	425.524	0.00024824	0.0023578	0.00020303	1273.7	1.8292e-05	2.451e-05	702.24	376.63	1.4489e-05	1.0666e-05	206.39	64.331	126.55	53.997	1.0382e-05	29.007	0.012615	0.01424	0.0039506	1522.3	0.00015363	0.00015473	1001.7	464.9	0.00015043	0.00015381	375.54	120.21	172.71	71.149	0.00015103	55.66	215.424	245.017	246.399	178.972	373.339	288.879	176.547	184.303	516.605	399.864	181.087	184.563	188.975	193.725	378.978	188.135	-8191	255	
21525.154	1	1	0	0	0.1875	0.076019	0.17453	0.20855	0.22867	0.26012	0.033727	0.19873	0.046763	0.07756	0.17314	0.1316	0.19256	0.18255	0.038589	0.13071	-0.26042	-0.65833	-0.19167	-1.4146	-0.56458	-0.11667	-1.1875	-0.40208	-0.82917	-0.82083	-0.26042	-0.97917	-0.82083	-0.21042	-1.2417	-0.34583	286.854	213.273	227.523	514.299	299.939	424.222	177.658	442.124	480.826	211.425	461.703	212.282	285.242	251.330	432.691	204.397	0.00017128	0.0024176	0.00074703	1264.8	9.3957e-06	8.26e-06	691.99	377.07	2.579e-05	7.0222e-06	201.62	62.332	123.76	52.571	1.901e-05	28.146	0.012463	0.014057	0.0039095	1522.9	0.00015785	0.00016189	1019.6	474.28	0.00016904	0.00017536	401.7	129.75	181.23	74.443	0.00018244	61.279	484.314	234.342	246.134	178.732	244.477	247.159	177.121	183.715	288.702	497.693	180.540	185.276	188.823	193.602	381.340	188.520	-8191	255	
21525.252	1	1	0	0	0.30358	0.25922	0.1094	0.268	0.10717	0.40632	0.23326	0.25687	0.12774	0.10133	0.24245	0.13177	0.28432	0.11326	0.10621	0.19926	-0.24792	-0.975	-0.072917	-1.1625	-0.80417	-0.29583	-1.0917	-0.44375	-0.56667	-0.9625	0.05625	-1.1187	-0.72292	-0.30833	-1.2208	-0.35208	431.906	383.643	522.749	205.337	202.641	277.872	424.403	520.275	363.098	508.620	409.520	190.393	459.352	396.403	218.672	515.203	0.00025086	0.0025538	0.00024071	1262.9	1.9541e-05	1.8468e-05	688.96	374.23	1.6023e-05	1.5225e-05	202.09	62.35	123.16	52.77	1.8102e-05	28.316	0.015414	0.017307	0.0047992	1586.1	0.00018731	0.00019021	1069.6	488.23	0.00018528	0.00018668	408.03	129.91	179.28	73.315	0.00017096	58.585	261.036	235.518	274.219	178.626	444.525	397.983	176.859	184.318	249.426	381.894	181.242	185.160	188.513	193.488	202.266	188.910	-8191	255	
21525.369	1	1	0	0	0.10351	0.25255	0.14332	0.14247	0.24033	0.017212	0.41805	0.4209	0.17408	0.15502	0.1071	0.33232	0.12346	0.14943	0.27373	0.27615	0	-0.9625	-0.010417	-0.98333	-0.725	-0.10833	-0.91875	-0.44375	-0.4	-1.0854	-0.15	-0.70625	-0.93333	-0.275	-0.86667	-0.54792	243.699	314.678	237.092	521.788	358.951	262.964	464.179	511.385	247.414	440.564	496.333	182.246	456.497	403.611	340.886	265.046	0.00038459	0.00090388	0.00044175	1262.4	1.7963e-05	2.0345e-05	691.3	377.22	2.1715e-05	5.8226e-06	202.2	61.939	123.8	53.225	1.0841e-05	28.281	0.013889	0.015472	0.0042499	1538.4	0.00016404	0.00016398	1008.8	468.15	0.00015714	0.00015906	380.32	121.93	173.53	71.555	0.00015889	56.637	222.874	229.235	328.255	178.856	293.732	188.995	176.858	184.101	264.166	392.101	180.574	185.061	188.968	193.751	186.122	189.347	-8191	255	
21525.467	1	1	0	0	0.16422	0.16657	0.13201	0.080747	0.27412	0.1068	0.24517	0.11704	0.12365	0.12858	0.15817	0.071235	0.065162	0.095523	0.10583	0.089633	0.0020833	-1.0417	-0.2	-0.94583	-0.99167	-0.26042	-1.1125	-0.93958	-0.28958	-1.1187	-0.40208	-0.6625	-1.1625	-0.2125	-1.0021	-0.8625	356.854	220.036	452.052	244.591	193.371	219.634	399.610	424.795	319.101	411.100	478.200	168.187	345.610	179.515	510.906	400.879	0.00042572	0.0018277	0.0012303	1254.5	1.5821e-05	1.2672e-05	690.38	375.97	2.2658e-05	3.3749e-05	205.57	62.652	125.44	53.447	1.3932e-05	28.831	0.013088	0.014631	0.0040998	1525.7	0.00015823	0.00015929	1009.4	468.21	0.00015708	0.00015941	384.19	122.82	174.65	72.05	0.00015935	56.915	272.158	488.868	186.323	178.645	369.331	384.042	176.705	184.186	367.142	378.813	181.004	185.083	188.804	193.317	176.658	188.476	-8191	255	
21525.537	1	1	0	0	0.21434	0.067743	0.19406	0.22444	0.19034	0.21634	0.11314	0.4548	0.081639	0.10856	0.30787	0.17431	0.033381	0.29518	0.13811	0.16842	0.058333	-1.1042	-0.38125	-0.75208	-0.8875	0.01875	-1.0833	-0.97083	-0.18542	-1.2313	-0.44375	-0.4625	-1.1479	-0.37708	-0.74792	-0.86875	292.243	363.914	200.972	480.422	312.436	280.858	208.323	501.053	276.803	236.738	270.471	328.497	482.195	238.490	207.747	243.285	0.00028715	0.0010699	0.00078578	1268.1	1.8092e-05	2.3383e-05	689.14	376.65	1.7417e-05	3.2297e-05	202.59	62.889	124.85	53.067	2.472e-05	28.44	0.013021	0.014486	0.0040407	1526.2	0.00015595	0.00015754	1005.5	468.14	0.0001547	0.0001575	377.73	120.81	171.44	70.9	0.00015133	55.007	216.645	453.722	368.298	178.585	304.992	242.016	176.803	184.203	285.931	447.016	180.721	185.057	188.956	193.575	339.257	188.510	-8191	255	
21525.658	1	1	0	0	0.16771	0.15203	0.13431	0.3208	0.14793	0.19016	0.18108	0.68682	0.21447	0.031837	0.15941	0.16117	0.1598	0.27764	0.11541	0.22107	0.23542	-1.1187	-0.31458	-0.56458	-1.0979	-0.19583	-0.84167	-1.1104	-0.15417	-0.98542	-0.77292	-0.48958	-1.1417	-0.29583	-0.76875	-0.91875	406.376	522.539	361.102	507.379	520.469	372.227	167.646	480.471	333.609	396.836	392.403	511.167	498.399	505.845	413.312	218.981	0.00030003	0.0023136	0.00046984	1263.3	3.2443e-05	3.9925e-06	685.27	375.11	5.7945e-06	2.0045e-05	204.89	61.701	124.28	53.22	3.3052e-05	28.558	0.012322	0.013786	0.0038654	1504.6	0.00014734	0.00015046	985.17	460.89	0.00014917	0.00015181	373.44	119.19	170.65	70.512	0.00014935	54.57	169.976	480.117	422.559	178.786	227.124	378.168	176.884	183.969	259.069	429.074	180.772	185.130	189.169	193.449	318.726	188.329	-8191	255	
21525.754	1	1	0	0	0.11481	0.14187	0.2854	0.14528	0.20072	0.15638	0.3101	0.1966	0.15384	0.18864	0.28231	0.07313	0.11435	0.087247	0.20142	0.11656	0.37917	-1.0187	-0.49375	-0.33333	-0.96875	-0.37083	-0.78125	-1.1771	-0.01875	-1.0958	-0.81875	-0.14375	-1.075	-0.51875	-0.35417	-1.1021	348.913	396.217	396.018	492.873	291.037	378.237	458.941	509.415	498.026	439.805	188.860	227.897	179.992	429.249	191.206	314.534	0.00016339	0.0023843	0.0013096	1264.8	8.6011e-06	3.4455e-05	696.44	375.2	1.3323e-05	1.7975e-05	202.26	62.435	124.27	53.221	2.9035e-05	28.059	0.012213	0.013665	0.0038142	1502.9	0.00014581	0.00014904	981.6	457.86	0.00014435	0.00014669	365.79	116.43	168.2	69.823	0.00014484	53.918	511.504	294.169	491.385	178.884	395.859	503.669	177.057	184.338	349.642	252.908	181.179	185.733	189.272	193.455	290.939	188.683	-8191	255	
21525.852	1	1	0	0	0.17056	0.093443	0.11146	0.10129	0.16847	0.21348	0.1983	0.31771	0.03268	0.17592	0.056018	0.16262	0.22466	0.35163	0.19356	0.12585	0.21875	-0.62083	-0.85208	-0.45833	-0.9625	-0.475	-0.525	-1.0187	-0.075	-0.78125	-0.8625	-0.17917	-1.1979	-0.59167	-0.26042	-1.175	307.383	488.487	293.275	170.731	255.969	423.582	185.014	495.267	236.963	510.826	216.715	230.941	214.829	495.005	260.081	521.691	0.00025638	0.0028382	0.00036184	1262.5	1.0995e-05	1.0109e-05	694.44	375.88	9.7064e-06	2.175e-05	204.32	62.647	124.9	53.207	1.2572e-05	28.509	0.01202	0.013507	0.0038019	1500.8	0.0001462	0.00014944	981.78	458.44	0.00014512	0.0001474	367.28	117.22	169.08	70.415	0.0001466	54.367	250.623	322.119	340.949	178.642	379.064	500.692	176.933	183.894	203.381	339.536	180.725	185.465	188.667	193.578	511.581	189.259	-8191	255	
21525.947	1	1	0	0	0.095984	0.080823	0.02953	0.21003	0.28289	0.15319	0.15443	0.16113	0.0034411	0.21938	0.065902	0.12979	0.20358	0.31477	0.1129	0.1434	0.05	-0.66875	-0.81042	-0.24792	-0.92292	-0.54375	-0.4	-1.2563	-0.32292	-0.61667	-0.99167	-0.22292	-1.0417	-0.86042	-0.20417	-1.1125	214.745	487.456	244.033	217.626	488.331	272.966	407.616	503.416	476.550	212.148	437.086	302.751	434.275	483.507	505.748	453.289	0.00014221	0.0017184	0.00072691	1263	2.5814e-05	1.2045e-05	695.7	377.12	3.6063e-06	2.3817e-05	201.73	62.729	123.64	52.695	1.6317e-05	28.271	0.012107	0.013499	0.0037968	1501.1	0.00014853	0.00015108	985.86	459.24	0.00014643	0.00014854	367.09	116.96	169.1	70.043	0.00014605	53.945	339.593	342.922	437.619	178.686	185.812	205.024	176.605	183.838	510.871	400.616	180.947	185.558	188.991	193.573	465.106	188.756	-8191	255	
21526.066	1	1	0	0	0.11268	0.21495	0.19203	0.10325	0.27746	0.086868	0.15938	0.41647	0.14966	0.063386	0.30921	0.32248	0.37921	0.0082655	0.26599	0.084492	0.18333	-0.46042	-0.95625	-0.1875	-0.98542	-0.59792	-0.24792	-1.1917	-0.46875	-0.63542	-0.91875	-0.15833	-1.0375	-0.89167	-0.24792	-1.0375	473.619	443.039	257.767	361.126	327.599	227.051	458.053	485.117	468.065	230.028	489.001	490.693	517.531	497.820	244.479	501.494	0.00021529	0.0013076	0.00029282	1264	1.2025e-05	2.7708e-05	690.1	373.86	1.5417e-05	1.3808e-05	199.69	62.026	123.79	53.049	1.5665e-05	28.287	0.012142	0.013665	0.0037999	1501.2	0.00014735	0.00015204	984	460.11	0.00015075	0.00015339	371.19	118.85	170.83	70.627	0.00015111	54.758	495.708	298.885	291.989	178.577	454.807	194.207	176.732	184.220	475.737	194.301	180.996	184.948	188.845	193.957	412.805	188.644	-8191	255	
21526.139	1	1	0	0	0.11889	0.16429	0.24426	0.26018	0.28973	0.044719	0.21387	0.19353	0.079271	0.080579	0.11549	0.1593	0.42677	0.2726	0.27537	0.32892	-0.11042	-0.33958	-0.9875	-0.31458	-0.64375	-0.89583	-0.32292	-1.3021	-0.53333	-0.44167	-1.2958	-0.3	-0.72917	-0.98958	-0.091667	-1.1229	169.040	468.544	415.595	498.538	290.158	505.878	219.019	186.968	340.591	515.109	464.031	194.265	478.965	501.291	424.914	373.700	0.00043844	0.0026489	0.00064773	1260	2.4899e-05	1.3064e-05	691.78	373.79	2.0551e-05	5.1669e-05	203.16	62.862	124.11	53.337	1.1444e-05	28.279	0.012463	0.013719	0.0037753	1495.3	0.00014355	0.0001453	964.33	452.06	0.00013917	0.00014016	355.54	113.81	165.77	68.881	0.00013739	52.485	238.058	337.531	386.139	178.717	368.024	366.773	176.697	184.313	250.051	391.323	181.298	185.438	189.420	193.845	352.312	188.521	-8191	255	
21526.234	1	1	0	0	0.036098	0.27087	0.35428	0.30339	0.25651	0.13548	0.15431	0.32746	0.23281	0.062735	0.099697	0.12234	0.39612	0.22148	0.27439	0.31085	-0.21042	-0.2875	-1.0583	-0.39167	-0.49375	-1.0063	-0.3375	-1.0667	-0.61667	-0.4875	-1.0104	-0.38125	-0.64583	-1.3771	-0.00625	-0.95208	318.373	450.683	441.740	481.808	372.431	207.882	176.693	438.266	190.532	332.818	196.034	447.744	471.903	523.873	202.723	436.933	0.00051021	0.0011687	0.00024994	1262.9	4.8268e-06	1.3329e-05	694.12	376.41	1.1638e-05	1.4859e-05	205.3	62.583	124.78	53.878	1.9559e-05	29.476	0.011355	0.012528	0.0034397	1474.8	0.00013123	0.00013169	943.41	444.91	0.00012597	0.00012611	341.18	109.31	161.61	67.515	0.00012444	50.502	214.310	184.824	471.708	178.778	380.415	205.319	176.924	184.601	356.066	283.746	180.520	186.106	189.639	193.702	268.169	189.103	-8191	255	
21526.330	1	1	0	0	0.061577	0.18669	0.016574	0.21855	0.042354	0.098475	0.090753	0.22302	0.16877	0.12636	0.20345	0.36046	0.17404	0.2441	0.1407	0.16126	-0.42917	-0.1	-1.0438	-0.40417	-0.50625	-1.0979	-0.3375	-1.1896	-0.83542	-0.11875	-0.77917	-0.4375	-0.49375	-1.2313	-0.21042	-0.76875	170.578	350.818	195.110	426.251	202.914	338.631	211.106	429.392	373.388	173.704	443.902	384.322	465.783	495.249	487.957	386.638	0.00038524	0.00057863	0.00034104	1283	2.3519e-05	2.3699e-05	704.35	376.7	1.7806e-05	2.3746e-05	204.51	63.289	125.42	54.124	1.1101e-05	29.095	0.010307	0.011473	0.0032196	1467.9	0.00012787	0.0001313	960.39	450.72	0.00013497	0.00013829	359.31	116.1	167.91	70.111	0.00014081	53.426	253.287	243.126	301.759	178.934	409.746	390.214	177.292	184.652	331.835	337.786	181.193	185.620	189.067	193.660	167.541	188.687	-8191	255	
21526.449	1	1	0	0	0.3133	0.11296	0.031463	0.23675	0.20896	0.1386	0.071999	0.2745	0.13899	0.35929	0.12512	0.189	0.3756	0.22031	0.041496	0.16327	-0.38542	-0.11875	-1.0896	-0.61458	-0.24792	-0.97708	-0.1875	-0.75417	-0.99167	0.010417	-0.97292	-0.68333	-0.45208	-1.2875	-0.36667	-0.81042	321.774	412.652	328.698	490.509	479.133	510.616	189.977	436.803	431.079	483.716	170.298	205.779	259.719	202.291	493.686	468.087	0.00022474	0.00032666	0.00045509	1268.7	3.3032e-05	4.1659e-05	697.13	375.36	7.2728e-06	2.2296e-05	204.16	62.809	124.57	54.149	1.0823e-05	29.121	0.011391	0.012682	0.0035072	1481.5	0.00013359	0.000135	953.71	447.99	0.00012993	0.00013163	347.76	111.39	163.13	68.421	0.00013002	51.509	273.902	366.498	268.361	178.770	410.897	365.367	177.046	184.674	300.116	308.493	181.078	185.100	189.503	193.664	434.121	189.240	-8191	255	
21526.547	1	1	0	0	0.042266	0.15419	0.17999	0.090225	0.050521	0.031969	0.17601	0.31856	0.16586	0.20089	0.11545	0.19589	0.1962	0.10635	0.20873	0.13517	-0.44792	-0.18958	-0.77917	-0.77083	-0.20833	-1.025	-0.43333	-0.66875	-1.075	-0.25	-0.87292	-0.62708	-0.12708	-1.0771	-0.29167	-0.1625	490.954	180.033	307.993	484.949	372.162	460.013	449.032	490.678	433.061	439.363	446.048	376.330	195.423	480.095	293.594	172.881	0.00044581	0.00024116	0.00060702	1255.4	1.7475e-05	1.8257e-05	698.55	372.22	1.7304e-05	1.9262e-05	205.7	63.471	124.52	54.697	1.8116e-05	29.743	0.010517	0.011643	0.0032186	1448.6	0.00012256	0.00012423	930.5	436.65	0.00012036	0.0001223	334.04	106.93	158.64	67.296	0.00011768	49.609	244.693	506.177	270.166	178.859	510.076	259.226	176.677	184.117	235.581	455.968	180.840	185.377	189.178	193.979	471.135	188.698	-8191	255	
21526.643	1	1	0	0	0.12734	0.1143	0.12708	0.02796	0.17934	0.16152	0.079141	0.30721	0.22253	0.24696	0.22083	0.1	0.17017	0.21877	0.14079	0.21193	-0.58542	-0.17083	-0.6	-0.86667	-0.125	-0.86875	-0.53958	-0.41042	-0.80833	-0.28958	-0.59167	-0.775	-0.16667	-1.2167	-0.62083	-0.37708	312.695	202.271	208.439	185.852	454.102	463.403	210.642	508.257	210.173	206.711	490.985	193.754	520.558	489.959	496.590	524.237	0.00074784	0.00032365	0.0004672	1262.3	2.5844e-05	2.6849e-05	698.62	371.67	1.6389e-05	2.0421e-05	204.96	63.981	125.74	55.328	1.4371e-05	30.109	0.0095408	0.010732	0.0029985	1435.8	0.00011745	0.00012189	931	438.5	0.00012455	0.00012845	346.19	112.13	164.24	69.954	0.00013368	53.056	257.385	209.021	360.401	178.842	259.328	208.862	176.922	184.339	218.798	525.793	181.042	185.896	188.894	193.901	445.217	188.580	-8191	255	
21526.738	1	1	0	0	0.045362	0.14016	0.34996	0.28362	0.24056	0.035463	0.22485	0.24362	0.28556	0.16134	0.29348	0.35035	0.25144	0.2094	0.23934	0.12378	-0.58958	-0.20208	-0.76458	-1.1458	-0.089583	-1.1479	-0.70208	-0.29583	-1.2042	-0.24792	-0.4625	-0.87083	-0.26042	-0.98125	-0.59583	-0.27083	288.965	305.796	338.726	486.428	423.236	251.822	487.891	387.163	455.218	245.158	521.200	431.374	497.999	348.832	187.348	523.078	0.00025058	0.0034407	0.00047377	1259.8	3.0393e-05	5.0088e-05	706.93	373.8	1.6928e-05	5.3157e-06	204.04	64.572	126.02	55.787	1.9067e-05	30.464	0.01091	0.01228	0.0033997	1463.1	0.00013103	0.000134	959.91	444.49	0.00013019	0.00013312	348.51	112.25	163.87	69.928	0.00012754	52.118	239.308	258.788	337.924	178.719	265.466	396.143	176.745	184.651	374.332	429.605	180.873	185.155	188.923	193.769	460.645	188.021	-8191	255	
21526.836	1	1	0	0	0.25841	0.21489	0.38607	0.11971	0.3453	0.13187	0.078645	0.27352	0.15074	0.20147	0.053522	0.3259	0.15938	0.1593	0.058438	0.044051	-0.59167	-0.30833	-0.37292	-1.2146	-0.025	-0.8125	-0.74583	-0.18542	-1.1437	-0.31458	-0.49375	-1.2292	-0.24375	-0.8625	-0.825	-0.20625	487.118	473.611	271.272	456.854	193.520	325.967	467.852	431.350	184.333	407.993	307.429	369.885	431.766	447.133	448.600	519.919	2.9403e-05	0.0028777	0.00050228	1259.8	2.6009e-06	3.7417e-06	691.15	371.08	5.5524e-06	2.3804e-05	202.4	63.314	124.89	55.475	2.404e-05	30.097	0.010264	0.011398	0.0030901	1428.8	0.00011638	0.00011709	910.81	430.98	0.00011446	0.00011678	327.27	105.68	158.03	67.845	0.00011646	50.353	169.778	170.621	386.605	178.874	477.419	275.999	176.669	184.492	174.493	228.916	180.844	185.625	189.273	194.020	446.970	188.385	-8191	255	
21526.932	1	1	0	0	0.13309	0.3586	0.20422	0.19474	0.23237	0.21726	0.2707	0.18673	0.031944	0.012501	0.24251	0.33242	0.32331	0.31847	0.16167	0.20519	-0.64583	-0.46875	-0.12083	-1.2	-0.079167	-0.79375	-1.1208	-0.47292	-1.0625	-0.51875	-0.3875	-1.1375	-0.50417	-0.6875	-0.98125	-0.14375	221.265	386.695	342.441	501.809	453.521	281.620	522.158	231.829	194.276	196.323	503.161	395.522	231.496	486.922	215.802	185.734	0.00055963	0.00092142	0.00039756	1246.7	1.83e-05	1.095e-05	691.03	366.93	2.0797e-05	1.89e-05	200.08	63.941	125.07	55.838	1.0809e-05	30.211	0.0098079	0.011051	0.0030485	1425	0.00011966	0.00012075	914.48	430	0.00011466	0.00011538	322.35	104.17	155.95	67.269	0.00010743	48.657	236.397	217.966	221.839	178.838	330.542	329.591	177.029	184.332	255.574	314.848	180.469	185.088	189.126	193.726	293.156	188.839	-8191	255	
21527.053	1	1	0	0	0.35691	0.2918	0.11394	0.22283	0.26081	0.17321	0.27528	0.34109	0.31476	0.099131	0.17262	0.12537	0.22854	0.17408	0.35859	0.11586	-0.60417	-0.56458	-0.22083	-1.2062	-0.45625	-0.40833	-1.2188	-0.42292	-0.94167	-0.64167	-0.27708	-1.1729	-0.44167	-0.50417	-0.76458	-0.11667	484.142	176.915	306.040	200.604	481.906	432.257	510.499	466.638	290.434	193.391	273.276	218.759	487.638	421.501	512.630	254.416	0.00020363	0.00043874	0.00098531	1247.5	1.7064e-05	2.1715e-05	688.43	369.86	2.3816e-05	7.3257e-06	202.8	64.295	125.17	55.767	1.3531e-05	30.822	0.0087788	0.009836	0.0026962	1388.8	0.00010407	0.00010459	874.64	419.12	0.00010022	0.0001013	308.42	99.844	152.43	66.144	0.00010024	48.145	203.563	191.992	211.744	178.833	312.701	255.158	176.850	184.639	178.913	427.913	181.135	185.541	189.458	194.106	382.177	188.815	-8191	255	
21527.146	1	1	0	0	0.3491	0.34958	0.32428	0.27531	0.18806	0.27307	0.071615	0.21064	0.076997	0.28687	0.13104	0.18482	0.27325	0.26356	0.25077	0.059312	-0.65625	-0.875	-0.045833	-1.2979	-0.47292	-0.475	-1	-0.25833	-0.85	-0.92917	0.00625	-1.025	-0.68958	-0.33333	-1.1125	-0.19792	297.478	443.345	483.888	503.530	326.458	484.583	167.862	374.586	298.478	254.280	393.195	328.745	222.334	514.069	514.011	440.302	0.00023827	0.0013769	0.00019012	1247.8	1.7649e-05	1.351e-05	693.6	371.72	6.613e-06	2.8769e-05	203.25	64.894	124.15	56.34	6.4965e-06	31.077	0.0086537	0.0098116	0.0027658	1402.1	0.00011052	0.00011188	898.99	427	0.00010927	0.00011	318.4	102.92	154.2	66.841	0.00010124	48.116	231.765	396.876	490.202	178.883	503.100	439.722	177.073	184.520	450.738	235.800	180.444	185.189	189.320	193.641	295.577	188.898	-8191	255	
21527.242	1	1	0	0	0.1518	0.29598	0.17824	0.26288	0.10994	0.16798	0.43983	0.11863	0.21013	0.22168	0.18225	0.34211	0.37514	0.1474	0.14176	0.10625	-0.26667	-0.90417	-0.20417	-1.1417	-0.53125	-0.275	-1.2188	-0.46875	-0.37708	-0.86667	-0.27917	-0.75833	-0.7125	-0.31667	-0.87292	-0.17292	202.378	370.588	202.252	483.486	346.632	320.002	330.261	191.411	206.591	499.393	427.153	438.589	183.898	169.584	449.855	243.263	0.00037323	0.001315	3.2731e-05	1249.2	2.8783e-05	1.4199e-05	692.15	368.54	1.1934e-05	3.4052e-05	198.36	64.438	124.24	55.995	1.7776e-05	30.459	0.0082209	0.0091638	0.0025402	1377	9.8664e-05	9.9495e-05	871.29	416.88	9.9182e-05	0.00010051	307.26	99.67	152.05	66.229	9.8227e-05	47.283	251.815	261.541	188.416	178.862	291.676	399.782	176.987	184.403	250.329	391.840	181.367	184.969	189.288	193.892	322.228	189.038	-8191	255	
21527.363	1	1	0	0	0.14863	0.069578	0.10611	0.49283	0.35535	0.15947	0.066182	0.17456	0.065168	0.21844	0.22724	0.23759	0.05958	0.17638	0.087937	0.29093	-0.10833	-0.90625	-0.1	-0.9	-0.64375	-0.11875	-1.025	-0.575	-0.32708	-1.0208	-0.18125	-0.73125	-0.94167	-0.13333	-0.92708	-0.61458	467.756	436.388	289.746	457.904	379.521	425.980	187.950	444.635	277.835	269.157	376.525	295.007	361.224	206.990	375.092	263.886	0.00012409	0.0016921	0.00035645	1243.7	2.4482e-05	7.4366e-06	688.66	366.02	1.2284e-05	3.3176e-05	198.61	63.84	123.07	56.365	5.5336e-06	30.716	0.0080205	0.0089517	0.0025019	1367.7	9.6898e-05	9.8168e-05	862.95	414.76	9.7998e-05	0.00010024	307.88	100.39	152.62	66.95	0.00010463	48.867	522.786	274.045	390.049	178.883	285.734	491.750	176.988	184.576	173.162	444.349	181.113	184.942	189.170	193.875	295.328	189.068	-8191	255	
21527.434	1	1	0	0	0.30287	0.16286	0.10039	0.1775	0.10093	0.34514	0.069339	0.11581	0.14067	0.19493	0.12331	0.074223	0.13886	0.23532	0.16423	0.1912	0.1875	-0.90417	-0.20833	-0.83125	-0.75833	-0.0083333	-1.05	-0.52708	-0.41458	-1.1167	-0.26458	-0.48333	-1.0833	-0.18958	-0.77708	-0.6125	387.078	448.344	330.593	466.363	185.947	478.954	293.398	490.316	427.563	479.248	221.802	399.120	492.998	400.734	291.103	420.319	0.0003777	0.0016026	0.00041418	1245.6	5.6673e-06	2.6133e-05	690.23	365.48	1.4191e-05	3.7365e-05	201.11	63.857	123.58	56.467	2.5545e-05	31.169	0.0087655	0.0098501	0.0027909	1396.3	0.00010854	0.00011054	892.69	422.54	0.00010798	0.0001095	317.62	102.43	153.72	67.097	0.00010396	48.567	229.108	397.936	464.745	178.664	426.492	285.684	177.125	184.430	375.025	405.119	181.019	185.220	189.016	193.971	282.569	188.570	-8191	255	
21527.531	1	1	0	0	0.34777	0.19175	0.025853	0.29047	0.096065	0.196	0.091482	0.19328	0.049435	0.13654	0.20316	0.10551	0.26491	0.072209	0.20017	0.059803	0.28333	-1.1167	-0.04375	-0.61667	-0.82708	-0.13958	-1.1354	-0.72708	0.066667	-1.175	-0.37292	-0.50417	-1.0396	-0.33125	-0.6875	-0.60208	365.353	396.470	262.633	514.309	226.761	213.793	242.279	475.198	312.963	507.173	226.866	230.745	269.795	439.367	302.283	444.528	0.00021682	0.0011415	0.00025945	1242.5	3.5311e-05	2.415e-05	692.03	367.8	2.3739e-05	3.3796e-05	200.87	64.72	125.06	56.69	7.7053e-06	31.763	0.0084289	0.0094556	0.0026517	1379.8	0.00010037	0.00010216	871.94	415.59	9.7657e-05	9.8947e-05	305.82	98.836	150.9	66.271	9.3801e-05	46.95	254.976	305.077	171.210	178.616	207.278	265.646	177.112	184.336	310.276	312.521	181.152	185.625	189.320	193.970	334.083	188.528	-8191	255	
21527.627	1	1	0	0	0.17218	0.2009	0.26264	0.13639	0.17404	0.15423	0.13983	0.2834	0.11426	0.15032	0.3707	0.065984	0.14044	0.21051	0.12354	0.32093	0.35417	-1.0146	-0.11042	-0.625	-1.3062	-0.40625	-0.88125	-1.0354	-0.14167	-1.1292	-0.6375	-0.4	-1.0021	-0.40417	-0.75833	-0.95833	384.969	166.484	355.144	480.767	268.402	403.638	303.028	198.241	436.534	490.673	472.168	375.972	505.874	189.687	192.530	432.306	0.0004869	0.00088681	0.0003178	1244.1	1.9294e-05	1.8016e-05	693.51	368.89	6.8346e-06	2.8913e-05	198.59	63.454	124.35	56.038	6.1304e-06	30.453	0.0076607	0.0086057	0.0024093	1364.7	9.3199e-05	9.6236e-05	863.17	413.12	9.4241e-05	9.6246e-05	302.2	97.818	150.08	65.672	9.5908e-05	46.721	239.897	175.819	317.797	178.818	371.306	442.613	177.379	184.262	417.761	436.750	181.317	184.839	189.253	193.476	451.175	189.569	-8191	255	
21527.746	1	1	0	0	0.26843	0.13686	0.18067	0.39858	0.32982	0.23462	0.055852	0.075022	0.061115	0.13875	0.035367	0.083264	0.2653	0.22184	0.13782	0.1808	0.32083	-1.0458	-0.56458	-0.35417	-0.96042	-0.36458	-0.72292	-1.1479	-0.17292	-1.0583	-0.58333	-0.29167	-1.1042	-0.38542	-0.50625	-1.1104	193.529	389.141	487.159	171.273	198.758	469.298	330.706	331.899	177.931	285.019	386.901	458.155	471.864	508.065	346.390	394.741	0.0003277	0.0021123	0.00033364	1246.6	1.7681e-05	7.8059e-06	686.83	367.48	1.2305e-05	2.5524e-05	199.79	63.653	123.12	55.883	7.1246e-06	31.083	0.0079204	0.0089148	0.0024903	1373.9	9.6785e-05	9.8895e-05	863.24	413.97	9.6721e-05	9.7977e-05	302.94	98.1	150.11	65.837	9.5848e-05	46.851	252.338	309.773	500.227	178.730	365.788	278.876	176.787	184.393	262.791	449.945	180.607	185.573	189.213	193.792	312.343	189.233	-8191	255	
21527.844	1	1	0	0	0.029332	0.11624	0.25785	0.42233	0.20392	0.13531	0.15589	0.19122	0.14238	0.38227	0.12236	0.35911	0.18899	0.13676	0.30317	0.1536	0.052083	-0.84375	-0.8375	-0.54583	-1.0292	-0.36667	-0.77292	-1.1187	-0.17083	-0.83333	-0.73958	-0.3375	-1.0833	-0.59792	-0.38125	-1.0708	326.678	287.291	376.457	176.219	411.041	394.602	311.683	401.185	504.770	330.911	394.733	335.683	196.557	430.117	218.431	251.784	0.00028149	0.0011241	0.00052272	1244.3	1.2058e-05	2.0121e-05	688.16	366.87	1.1715e-05	3.7474e-05	203.42	64.193	122.94	56.191	2.6924e-05	31.179	0.0078754	0.008799	0.0024214	1361.8	9.2234e-05	9.4023e-05	849.97	409.83	8.9848e-05	9.0428e-05	295.14	95.397	147.61	65.008	8.9422e-05	46.046	187.958	333.762	506.003	178.828	292.401	166.399	176.867	184.342	489.538	347.735	180.905	185.181	189.882	194.078	382.277	189.006	-8191	255	
21527.939	1	1	0	0	0.22799	0.19348	0.38614	0.10362	0.24473	0.11363	0.20546	0.043364	0.12457	0.053677	0.21817	0.088112	0.2444	0.16754	0.13199	0.10559	0.21042	-0.65208	-0.85	-0.23958	-1.1063	-0.50208	-0.21667	-1.2625	-0.25625	-0.85625	-1.0271	-0.045833	-0.9875	-0.63958	-0.41667	-1.0542	391.335	331.330	392.900	452.211	333.004	277.419	213.027	428.646	250.933	525.955	418.703	307.809	377.700	514.366	428.428	445.955	0.00026069	0.00163	0.00061217	1243.6	7.7523e-06	2.689e-05	688.44	369.43	1.0456e-05	6.8304e-06	201.69	64.474	124.51	56.485	1.7271e-05	31.514	0.0075065	0.0083106	0.0023227	1359.1	9.0572e-05	9.3016e-05	851.88	412.08	9.2461e-05	9.2886e-05	298.39	97.426	149.12	65.571	9.094e-05	46.433	270.734	309.468	360.392	178.975	278.090	388.355	177.201	184.663	397.521	346.798	180.947	185.482	189.454	193.979	303.615	188.886	-8191	255	
21528.012	1	1	0	0	0.096749	0.14151	0.17983	0.17272	0.17557	0.22275	0.081016	0.13829	0.027313	0.13888	0.050565	0.096742	0.063117	0.16907	0.13075	0.34921	0.32083	-0.63542	-0.94167	-0.32917	-1.0146	-0.66042	-0.24792	-1.3625	-0.40833	-0.55625	-1.1167	-0.16875	-0.86042	-0.88958	-0.11458	-1.2292	412.602	274.369	385.446	196.336	180.539	451.944	409.868	478.006	386.096	395.565	456.104	308.811	251.390	490.747	382.316	519.640	0.00025179	0.002079	0.00044426	1245.2	1.6984e-05	1.0092e-05	693.1	369.4	8.3769e-06	1.6416e-05	201.9	64.609	124.54	56.52	1.4941e-05	31.246	0.0075419	0.0083408	0.0023139	1358.7	8.8724e-05	8.9933e-05	847.68	409.14	8.8195e-05	8.8693e-05	294.66	95.549	148.03	65	8.7281e-05	45.554	272.189	256.492	331.685	179.079	450.435	268.371	176.950	184.558	314.036	342.937	180.938	185.441	189.840	194.319	213.892	188.428	-8191	255	
21528.133	1	1	0	0	0.075461	0.21947	0.082903	0.48149	0.24046	0.12133	0.23525	0.06187	0.13119	0.20045	0.26958	0.39746	0.084799	0.45338	0.078315	0.096923	-0.054167	-0.43958	-1.1167	-0.32083	-0.8875	-0.96458	-0.38542	-1.25	-0.43542	-0.16458	-1.2771	-0.24167	-0.69167	-1.1146	-0.16458	-0.90833	188.839	266.978	371.039	497.051	488.747	381.789	322.004	204.822	409.207	173.888	187.866	425.495	483.532	187.943	192.579	456.537	0.00039728	0.0027054	0.00047223	1251.7	2.0878e-05	2.2899e-05	688.92	368.94	1.6116e-05	9.1398e-06	196.61	63.673	123.51	56.424	1.3606e-05	31.162	0.0071326	0.0078101	0.0021874	1348.6	8.5084e-05	8.641e-05	835.38	406.42	8.6898e-05	8.8252e-05	291.82	95.481	148.01	65.024	8.9541e-05	45.837	204.086	258.146	202.751	179.093	276.534	286.408	177.161	184.729	388.073	285.547	181.397	185.560	189.280	193.970	323.336	189.072	-8191	255	
21528.229	1	1	0	0	0.1895	0.080347	0.29034	0.41401	0.22219	0.070452	0.21884	0.080463	0.10878	0.24928	0.30739	0.13209	0.27286	0.35671	0.014596	0.048772	-0.14167	-0.225	-0.99375	-0.38333	-0.77917	-0.97292	-0.34583	-1.1875	-0.66875	-0.27917	-1.1437	-0.42083	-0.73542	-1.2479	-0.1375	-0.79792	263.971	477.957	403.155	477.177	466.337	428.092	365.937	492.166	462.334	416.118	341.296	193.196	456.539	507.661	235.397	301.022	7.0993e-05	0.0026821	0.00082592	1239.8	1.4113e-05	3.121e-05	686.74	366.84	2.4182e-05	1.3545e-05	200.06	64.086	123.88	56.796	1.9964e-05	31.772	0.0073731	0.0081634	0.0022951	1349.8	8.9304e-05	9.1425e-05	843.87	408.95	8.9948e-05	9.076e-05	295	95.977	147.76	65.318	8.8348e-05	45.745	180.421	229.646	390.125	178.811	401.240	441.208	177.025	184.399	357.742	322.066	180.771	185.415	189.313	193.878	393.427	189.219	-8191	255	
21528.324	1	1	0	0	0.27062	0.18575	0.18426	0.58037	0.12675	0.13582	0.15327	0.15255	0.12103	0.20238	0.23017	0.12049	0.21359	0.26864	0.22902	0.16878	-0.17292	-0.0083333	-0.925	-0.64583	-0.49167	-1.1667	-0.38125	-1.1187	-0.74375	-0.20417	-1.1292	-0.45208	-0.31667	-1.1417	-0.125	-0.70208	307.869	491.780	341.252	490.494	496.851	189.806	263.953	285.604	333.010	408.743	179.870	477.744	519.349	503.062	199.593	477.450	0.00016037	0.0010973	0.00020701	1239.2	1.5476e-05	1.0087e-05	695.19	368.12	3.5642e-06	1.3167e-05	200.16	64.899	124.19	56.64	1.9945e-05	31.957	0.0072268	0.0079871	0.0022162	1342.4	8.5217e-05	8.6756e-05	837.93	406.62	8.6181e-05	8.7399e-05	292.1	95.689	147.78	65.413	8.8149e-05	46.074	200.275	185.551	499.105	178.923	240.884	490.202	176.715	184.322	260.659	271.966	180.918	185.409	189.549	194.152	379.808	188.440	-8191	255	
21528.443	1	1	0	0	0.16581	0.31038	0.14821	0.1301	0.10149	0.33496	0.1999	0.44793	0.16104	0.01347	0.068076	0.24076	0.252	0.26292	0.14356	0.50471	-0.48958	-0.058333	-0.92917	-0.72917	-0.325	-0.99583	-0.41667	-0.73958	-0.85417	-0.21042	-0.91667	-0.475	-0.37917	-1.1021	-0.35208	-0.6125	203.793	389.304	176.897	381.797	371.696	466.472	474.973	487.982	477.973	239.339	358.986	464.060	192.311	474.131	205.066	481.735	0.00028704	0.0025313	0.00032549	1245.9	2.3172e-05	1.6939e-05	692.05	366.2	1.9403e-05	2.7707e-05	203.82	64.784	124.59	57.036	6.0849e-06	31.995	0.0071752	0.0080527	0.0022435	1347.8	8.6361e-05	8.8495e-05	842.89	407.97	8.628e-05	8.794e-05	294.38	95.926	148.45	65.732	8.8474e-05	46.115	290.967	493.315	507.323	178.726	215.868	503.564	177.161	184.582	254.924	202.055	181.288	185.603	189.262	194.081	347.321	188.931	-8191	255	
21528.539	1	1	0	0	0.2327	0.2151	0.11489	0.22284	0.17851	0.08987	0.093179	0.30821	0.075289	0.17723	0.19973	0.18586	0.14954	0.28007	0.22427	0.22571	-0.51667	0.039583	-0.77083	-0.57708	-0.225	-1.1667	-0.50833	-0.62917	-1.1083	-0.31042	-0.86042	-0.81458	-0.39583	-1.1667	-0.36042	-0.60833	347.179	513.563	401.796	513.910	305.618	468.102	356.855	460.597	293.013	431.578	243.564	176.806	509.233	519.973	276.870	454.306	0.00031687	0.0024526	0.00049579	1244.9	7.5851e-06	3.1716e-05	685.8	367.52	2.6559e-05	2.286e-05	201.64	63.49	124.5	56.856	1.0707e-05	31.541	0.0072824	0.0082319	0.002293	1353	8.9821e-05	9.2201e-05	846.31	409.68	9.1438e-05	9.3524e-05	297.76	97.275	149.68	66.142	9.4373e-05	47.061	230.391	271.805	285.045	178.913	492.037	207.450	177.180	184.793	229.154	325.823	181.218	185.394	189.536	194.272	259.599	188.603	-8191	255	
21528.635	1	1	0	0	0.096621	0.17786	0.13024	0.18603	0.25699	0.19361	0.16329	0.3958	0.15889	0.37068	0.15179	0.36419	0.21035	0.29187	0.15915	0.21917	-0.66875	-0.10833	-0.81042	-1.1604	-0.27917	-1.1271	-0.61875	-0.60208	-1.175	-0.3625	-0.7375	-0.86042	-0.11458	-1.1854	-0.70417	-0.52708	452.832	401.890	265.449	274.293	417.176	333.473	426.354	466.050	263.979	357.930	318.872	183.045	447.799	486.953	429.537	462.870	0.00034304	0.00079975	0.00041398	1235.9	5.531e-06	1.8521e-05	685.09	366.48	6.5231e-06	2.2131e-05	200.57	64.573	125.01	57.355	1.2815e-05	31.818	0.007721	0.0086575	0.0023636	1350.6	9.0791e-05	9.1188e-05	841.97	407.8	8.9065e-05	9.1282e-05	294.15	96.531	149.36	66.329	9.2458e-05	46.931	260.230	445.288	227.386	178.944	451.113	272.853	177.233	184.566	334.394	385.388	181.600	185.107	189.429	194.023	519.250	188.813	-8191	255	
21528.732	1	1	0	0	0.23931	0.18651	0.19697	0.171	0.1266	0.21132	0.24196	0.23235	0.14929	0.18786	0.072336	0.13567	0.3011	0.13815	0.096813	0.10655	-0.80208	-0.1875	-0.55833	-1.1396	-0.11667	-1.0312	-0.68542	-0.45208	-1.175	-0.52292	-0.88333	-1.1875	-0.325	-0.97917	-0.80417	-0.22917	506.082	391.659	349.175	210.638	287.898	311.838	414.743	430.314	257.318	213.201	235.273	190.495	170.315	398.065	506.646	350.704	0.00045171	0.00083676	0.00042454	1239.8	1.7301e-06	2.0299e-05	689.83	365.45	6.8413e-06	6.9039e-06	201.96	64.183	125.19	57.142	9.5127e-06	31.9	0.0076064	0.0085617	0.0023605	1350.9	9.0841e-05	9.1862e-05	845.15	408.86	9.0365e-05	9.2142e-05	296.81	97.091	150.13	66.447	9.3429e-05	47.412	262.847	509.024	216.800	179.103	443.274	412.044	177.013	184.710	250.283	219.779	181.376	185.498	189.438	193.830	321.026	188.618	-8191	255	
21528.828	1	1	0	0	0.19269	0.19494	0.14816	0.062807	0.068943	0.19109	0.22474	0.18422	0.06271	0.18104	0.21158	0.064951	0.21976	0.047223	0.069853	0.15893	-0.74792	-0.43333	-0.4	-1.0688	-0.16458	-1.0542	-0.77083	-0.36458	-1.1375	-0.46667	-0.58958	-1.2958	-0.47292	-0.92083	-0.91458	-0.28125	518.471	171.957	463.944	460.868	448.439	281.204	478.989	419.592	292.771	311.733	489.343	321.076	471.481	492.853	437.564	386.304	0.00038392	0.00058608	0.00029448	1232.7	3.6803e-06	3.8328e-06	685.53	367.21	2.4568e-05	3.7294e-05	200.75	65.701	124.82	57.261	8.9966e-06	31.871	0.007834	0.008839	0.0024484	1358.3	9.6084e-05	9.773e-05	860.71	413.51	9.6834e-05	9.8609e-05	305.99	100.5	152.63	67.334	9.8704e-05	48.369	193.836	189.078	499.268	178.827	482.229	311.282	176.767	184.578	257.317	359.324	181.502	185.736	189.338	193.866	341.229	188.853	-8191	255	
21528.924	1	1	0	0	0.22996	0.17314	0.044939	0.14809	0.19422	0.16625	0.081477	0.20987	0.19785	0.21827	0.08563	0.22686	0.2251	0.14606	0.19741	0.26197	-0.67917	-0.53542	-0.37083	-1.2292	-0.20417	-0.65833	-1.1208	-0.12292	-0.94583	-0.59375	-0.34792	-1.1063	-0.33125	-0.75208	-1.2604	-0.35625	340.755	393.675	456.023	418.469	184.945	356.282	331.382	422.310	202.010	403.875	245.400	223.590	180.923	500.363	306.790	475.324	0.00040044	0.0025885	0.00035061	1235.7	1.8492e-05	1.6705e-05	681.53	366.05	1.0379e-05	1.0943e-05	197.66	64.093	124.29	56.559	2.09e-05	31.369	0.0081732	0.0091304	0.0025155	1364.8	9.8196e-05	9.9298e-05	858.14	413.99	9.7741e-05	0.00010037	304.92	100.05	152.69	67.064	0.00010151	48.656	230.673	243.574	279.144	178.733	185.695	384.983	176.890	184.394	280.276	341.645	180.843	184.923	189.465	194.005	332.507	189.123	-8191	255	
21529.045	1	1	0	0	0.12157	0.14259	0.17319	0.15551	0.14578	0.088604	0.29785	0.28593	0.12081	0.2691	0.047547	0.092797	0.35243	0.26341	0.11259	0.064004	-0.44792	-0.75417	-0.30833	-1.3687	-0.37708	-0.575	-0.99583	-0.41458	-0.94792	-0.72708	-0.2625	-1.0708	-0.54167	-0.58542	-1.1208	-0.325	432.539	455.749	298.280	490.549	429.348	276.865	453.621	477.918	447.836	462.875	196.521	496.288	224.604	409.749	520.571	363.165	0.00026312	0.0015368	0.0010385	1228.4	1.3461e-05	1.5955e-05	677.51	364.08	2.1726e-05	3.877e-05	197.1	64.403	124.84	56.543	1.5201e-05	31.584	0.0085082	0.0095445	0.0026467	1370.8	0.00010402	0.00010445	866.8	415.59	0.00010161	0.0001035	308.06	100.84	152.58	67.023	0.00010081	48.292	227.740	276.336	479.390	178.975	233.257	237.405	176.824	184.853	262.324	413.360	180.842	185.380	189.364	193.719	376.582	188.401	-8191	255	
21529.139	1	1	0	0	0.077085	0.19789	0.092074	0.27097	0.12623	0.34842	0.20105	0.028082	0.27614	0.24906	0.077023	0.053016	0.28015	0.16429	0.11439	0.14865	-0.61458	-0.84167	-0.28125	-0.97708	-0.375	-0.59792	-1.1479	-0.34583	-0.825	-0.9	-0.38542	-1.2917	-0.43542	-0.47708	-0.93958	-0.26875	414.906	293.181	429.215	525.369	468.602	509.993	350.944	445.169	180.876	203.987	302.615	435.250	458.293	221.349	400.655	174.545	0.0004978	0.00039445	0.00038092	1230.5	1.0186e-05	1.1849e-05	670.65	363.18	1.3648e-05	3.0425e-05	197.75	64.293	123.6	57.143	3.2245e-05	31.326	0.0082783	0.0092248	0.0025725	1361.7	0.00010052	0.0001018	858.59	414.4	0.00010109	0.00010278	307.86	100.97	152.46	67.175	0.00010111	48.427	295.586	203.825	232.922	178.964	414.438	423.544	177.043	184.549	215.666	525.421	181.064	185.673	189.036	193.845	307.764	189.338	-8191	255	
21529.234	1	1	0	0	0.26745	0.22578	0.094552	0.30156	0.17397	0.21415	0.34084	0.26683	0.1864	0.17002	0.23765	0.071493	0.072533	0.35309	0.19806	0.28797	-0.47708	-0.95	-0.041667	-1.2146	-0.6125	-0.34583	-1.1063	-0.4125	-0.6	-0.84583	-0.15625	-1.0312	-0.88125	-0.46458	-0.96458	-0.40625	235.125	514.189	370.867	516.741	349.085	524.016	432.623	464.135	342.645	463.500	409.567	522.468	183.291	213.266	287.014	484.485	0.00046976	0.00040863	0.00093108	1219.8	2.1083e-05	2.9439e-06	672.07	362.14	3.7292e-06	3.6965e-05	198.68	64.573	123.82	57.114	2.2984e-05	31.624	0.0082691	0.0092687	0.0025728	1357.2	9.9569e-05	0.00010119	856.52	414.46	0.00010007	0.00010251	307.54	100.42	152.03	67.098	9.9459e-05	48.175	273.467	264.861	264.222	178.954	285.858	306.396	176.902	184.534	407.488	313.724	181.312	185.467	189.694	193.833	485.769	188.930	-8191	255	
21529.309	1	1	0	0	0.29051	0.12031	0.18867	0.35443	0.12675	0.30379	0.23586	0.36854	0.13291	0.31559	0.18318	0.34847	0.14725	0.19622	0.13085	0.10018	-0.15625	-0.88958	0.010417	-1.125	-0.62917	-0.22708	-1.225	-0.53542	-0.63333	-1.125	-0.20417	-0.95625	-0.93542	-0.36667	-0.94792	-0.52083	405.384	418.531	414.608	517.735	213.381	393.421	188.743	177.316	390.155	379.691	490.908	176.377	182.786	459.318	319.862	290.173	0.00028943	0.0020115	0.00063327	1221	2.0131e-05	1.157e-05	672.29	362.98	3.366e-05	2.1711e-05	197.62	64.347	123.13	56.372	1.3674e-05	31.313	0.0080211	0.0089912	0.0025165	1349.4	9.6168e-05	9.7651e-05	846.01	409.97	9.6038e-05	9.8596e-05	302.6	98.842	150.72	66.607	9.8984e-05	47.73	522.444	210.718	486.707	179.059	513.915	227.295	177.183	184.757	311.798	324.191	181.777	185.535	189.542	194.517	393.869	188.882	-8191	255	
21529.428	1	1	0	0	0.32152	0.061924	0.22531	0.077631	0.21252	0.021751	0.21683	0.24728	0.029071	0.23681	0.17312	0.24712	0.0093774	0.21031	0.3724	0.19836	0.0020833	-1.1313	-0.052083	-0.89167	-0.86667	-0.24583	-1.3	-0.8	-0.24792	-1.0979	-0.31875	-0.7125	-1.125	-0.15	-0.86458	-0.72708	191.293	430.125	426.076	368.431	185.158	444.519	400.782	480.047	377.106	198.467	240.231	431.174	207.596	508.448	236.014	194.934	0.00025682	0.00037186	0.00036847	1218	9.2938e-06	4.7275e-05	674.44	361.94	1.504e-06	3.6996e-05	196.4	63.326	123.46	56.893	1.7015e-05	31.221	0.0081	0.0091472	0.0025551	1353	9.8679e-05	0.00010107	850.27	410.95	9.8336e-05	0.00010122	304.84	99.514	151.52	67.082	0.00010164	48.331	259.440	238.340	508.099	178.914	281.627	280.228	176.997	184.672	290.466	427.498	181.065	185.297	189.443	193.957	208.268	189.412	-8191	255	
21529.523	1	1	0	0	0.18527	0.23292	0.18853	0.25532	0.27625	0.056176	0.18815	0.060198	0.18223	0.20772	0.26049	0.24421	0.29225	0.29988	0.10866	0.054755	0.11458	-1.2667	-0.32292	-0.75833	-0.95833	-0.06875	-0.89792	-0.7	-0.10833	-1.0854	-0.37708	-0.24375	-1.0958	-0.27083	-0.94583	-0.87292	208.401	326.047	271.893	476.005	229.662	256.831	377.016	459.707	387.701	223.924	515.086	261.784	236.757	515.228	193.253	435.032	0.0006076	0.0040998	0.00028293	1216.4	1.417e-06	1.4361e-05	663.32	362.66	3.257e-05	2.1738e-05	196.47	63.669	123.72	56.788	2.6308e-05	31.327	0.0083564	0.0093725	0.0026119	1352.1	0.00010055	0.00010199	846.95	411.08	9.8153e-05	9.895e-05	301.7	98.63	150.77	66.621	9.7758e-05	47.588	267.200	236.758	478.184	179.137	316.620	372.488	176.953	184.426	309.737	271.508	180.885	185.970	189.314	194.006	381.977	189.692	-8191	255	
21529.619	1	1	0	0	0.10273	0.19422	0.21338	0.17411	0.17498	0.13089	0.096298	0.26894	0.12649	0.11764	0.33695	0.11227	0.023628	0.22461	0.064986	0.085278	0.34583	-1.025	-0.31458	-0.575	-1.025	-0.1	-0.97708	-0.96458	-0.26458	-0.96458	-0.61875	-0.31875	-1.1063	-0.35417	-0.7625	-0.91458	360.838	343.337	215.827	358.336	257.886	238.443	183.432	479.531	331.138	206.327	320.395	265.503	441.160	191.999	317.228	208.035	0.00056765	0.0017767	0.00035833	1215.3	6.4613e-06	1.7453e-05	669.55	362.78	8.0323e-06	2.488e-05	197.97	64.21	123.8	56.746	1.4193e-05	31.556	0.0080779	0.0089892	0.0025009	1346.4	9.6973e-05	9.8936e-05	842.79	409.08	9.5863e-05	9.6943e-05	299.84	98.524	150.53	66.638	9.6869e-05	47.744	269.959	246.988	361.448	179.240	265.533	328.071	177.077	184.367	457.535	295.806	181.371	185.751	189.678	194.121	494.800	189.174	-8191	255	
21529.717	1	1	0	0	0.11341	0.13859	0.098202	0.27964	0.1414	0.15499	0.42247	0.18437	0.096474	0.14371	0.08613	0.12422	0.12428	0.17896	0.32054	0.21249	0.19167	-0.72708	-0.33125	-0.3125	-1.1646	-0.37708	-0.66042	-1.1229	-0.2625	-0.81458	-0.71667	-0.20833	-0.95833	-0.25208	-0.3875	-1.1333	258.475	253.343	269.927	497.876	318.381	283.193	433.648	172.739	385.426	517.435	430.197	281.775	354.682	420.772	497.830	465.737	0.00019259	0.0021238	0.00021809	1212.2	1.725e-05	3.0709e-05	670.5	364.44	6.1239e-06	1.7169e-05	196.91	63.555	123.32	56.432	1.2158e-05	30.988	0.0081471	0.0090341	0.0025181	1349.1	9.8305e-05	0.00010025	847.73	410.92	9.747e-05	9.8166e-05	298.91	97.942	149.72	66.015	9.4086e-05	46.884	281.628	217.053	508.279	179.213	329.591	288.180	177.117	184.636	308.715	274.968	180.631	185.866	189.686	194.230	311.186	189.320	-8191	255	
21529.836	1	1	0	0	0.23827	0.11947	0.17877	0.212	0.16296	0.10427	0.26411	0.2997	0.039754	0.26787	0.10206	0.24588	0.092453	0.3765	0.20029	0.10884	0.11875	-1.0042	-0.79792	-0.28542	-1.1437	-0.27292	-0.58542	-1.0688	0.027083	-0.99375	-0.86458	-0.13542	-1.2958	-0.44583	-0.32708	-0.96042	312.129	375.731	443.990	168.570	363.784	239.638	509.500	500.174	525.453	328.514	230.592	477.764	191.645	419.572	491.736	449.393	0.00017291	0.00050577	0.00071237	1213.5	2.0304e-05	1.7878e-05	666.41	361.61	1.6176e-05	1.1104e-05	196.29	62.711	122.31	56.455	1.0929e-05	31.126	0.0078345	0.0086664	0.0024344	1338.2	9.5451e-05	9.7773e-05	839.2	409.64	9.8471e-05	9.8491e-05	301.07	98.289	150.26	66.284	9.8123e-05	47.466	241.527	235.607	202.215	179.021	472.164	280.000	176.908	184.915	188.368	422.107	181.481	185.934	189.741	193.905	519.049	189.087	-8191	255	
21529.908	1	1	0	0	0.14896	0.21168	0.12223	0.26847	0.02701	0.15054	0.083212	0.27293	0.18897	0.22716	0.1133	0.24715	0.28664	0.47808	0.10951	0.1067	0.13542	-0.8125	-0.65625	-0.27917	-0.93958	-0.5	-0.45	-1.1604	0.0041667	-0.85208	-0.85833	-0.14375	-1.1229	-0.68333	-0.175	-1.1688	342.937	286.956	327.167	522.189	449.886	238.333	338.072	169.157	237.249	215.709	283.537	205.305	167.345	489.072	401.391	469.239	0.00017117	0.0024593	0.00014745	1215.9	8.0414e-06	2.2174e-05	660.74	363.23	7.7921e-06	9.9162e-06	196.68	63.523	123.39	56.58	2.3556e-05	31.123	0.008143	0.0090142	0.0025324	1347.1	9.8633e-05	0.00010073	842.67	410.67	9.9007e-05	9.967e-05	303.2	99.312	151.12	66.636	0.00010003	47.858	265.658	249.246	304.696	179.150	362.547	324.402	177.760	184.806	215.165	338.892	181.792	185.599	189.775	194.462	286.118	188.996	-8191	255	
21530.004	1	1	0	0	0.15835	0.22871	0.18405	0.089543	0.090884	0.077741	0.20269	0.22859	0.15808	0.04534	0.21917	0.32187	0.36128	0.34548	0.22109	0.13713	0.2375	-0.57292	-0.79792	-0.06875	-1.0063	-0.525	-0.31458	-1.1042	-0.35417	-0.44375	-0.93333	-0.17917	-0.90833	-0.91458	-0.064583	-1.1562	193.180	453.701	174.436	470.118	281.338	174.382	441.549	408.905	452.355	327.539	169.225	516.825	442.130	517.055	402.100	380.069	0.00043601	0.00022502	0.0008814	1205.3	1.6701e-05	1.82e-05	663.63	359.1	6.729e-06	9.4836e-06	199.01	63.404	123.12	56.5	7.5156e-06	31.715	0.008194	0.0090533	0.0025387	1341.9	9.7749e-05	0.0001	842.03	409.33	9.7254e-05	9.8214e-05	300.75	98.706	150.15	66.444	9.6601e-05	47.507	229.978	183.641	389.719	178.962	300.735	455.789	177.503	184.915	369.957	171.476	180.786	185.780	189.600	194.241	310.898	188.779	-8191	255	
21530.125	1	1	0	0	0.23246	0.23461	0.13863	0.20945	0.17502	0.053834	0.12253	0.38509	0.28787	0.24351	0.35958	0.25874	0.30777	0.15449	0.21801	0.14002	-0.025	-0.43958	-1.0438	-0.55417	-0.73958	-0.78958	-0.29792	-1.1313	-0.375	-0.34792	-1.2458	-0.29792	-0.8375	-1.0458	-0.083333	-1.125	429.801	373.431	271.517	476.185	416.354	449.250	348.670	483.537	362.317	435.331	460.035	457.794	248.353	510.590	243.005	384.976	0.00024915	0.001578	8.2002e-05	1208.1	1.5306e-05	1.8915e-05	668.71	362.6	1.4635e-05	1.6983e-05	195.64	63.547	122.93	56.812	3.6473e-06	31.118	0.0079268	0.0088312	0.0024798	1341.1	9.5998e-05	9.8511e-05	844.71	410.56	9.7095e-05	9.8063e-05	300.72	98.654	150.49	66.592	9.8423e-05	47.502	259.123	252.979	187.966	178.856	455.836	412.977	176.850	184.766	442.795	234.844	180.785	185.485	189.530	194.139	262.569	189.293	-8191	255	
21530.219	1	1	0	0	0.30863	0.048021	0.11661	0.2841	0.19875	0.11767	0.21328	0.1815	0.11598	0.061385	0.15661	0.025794	0.11259	0.21879	0.3071	0.26144	-0.12708	-0.26667	-1.0771	-0.51458	-0.7875	-0.96875	-0.20208	-1.2396	-0.775	-0.33542	-1.0083	-0.225	-0.78125	-1.0938	-0.022917	-0.87708	452.213	377.182	208.655	515.046	219.352	460.221	445.368	493.825	232.918	366.252	489.658	416.585	414.485	256.043	409.859	226.459	0.00035261	0.0015424	0.00071903	1209.5	1.1423e-06	2.6388e-05	660.05	359.78	6.5016e-06	1.7911e-05	191.34	62.774	122.61	56.278	2.2136e-05	31.188	0.0080904	0.0090786	0.0025446	1343.7	9.7797e-05	0.00010012	839.46	408.17	9.7458e-05	9.8313e-05	298.45	97.686	149.41	66.072	9.6517e-05	47.151	242.953	504.132	344.919	178.902	357.028	305.366	176.825	184.653	334.669	296.316	181.501	184.968	190.040	193.900	364.818	189.306	-8191	255	
21530.314	1	1	0	0	0.14832	0.19086	0.23339	0.32693	0.27246	0.21466	0.15641	0.29949	0.498	0.073118	0.33832	0.28346	0.3784	0.21781	0.062608	0.24519	-0.21042	-0.095833	-1.1542	-0.58125	-0.4875	-1.1292	-0.18333	-1.0125	-0.65417	-0.13958	-1.1083	-0.36042	-0.57083	-1.2125	-0.19167	-0.8875	341.451	297.270	226.362	470.680	285.856	246.519	214.709	189.209	196.900	493.079	525.879	494.461	507.903	178.333	222.430	168.053	0.00030654	0.0012835	0.00031104	1208.8	1.4317e-05	3.1825e-06	659.89	359.16	1.3996e-05	7.2006e-06	195.16	63.379	122.63	56.391	8.7168e-06	31.007	0.0079543	0.0089156	0.0024922	1337.6	9.7192e-05	9.95e-05	837.8	407.77	9.7472e-05	9.9236e-05	299.85	98.484	149.81	66.472	9.7741e-05	47.184	229.836	351.876	338.883	179.008	275.257	517.761	177.234	184.787	511.009	325.891	180.901	185.286	189.628	194.157	388.210	188.852	-8191	255	
21530.412	1	1	0	0	0.019701	0.27185	0.079573	0.21968	0.33532	0.27096	0.016451	0.20003	0.29538	0.073809	0.27583	0.17274	0.043215	0.24661	0.068398	0.12882	-0.51458	-0.16042	-1.2125	-0.72083	-0.40625	-1.0979	-0.36667	-0.69792	-0.94167	-0.25	-1.1208	-0.60625	-0.38333	-1.1688	-0.32708	-0.65625	400.350	473.097	403.459	189.100	375.737	370.794	416.177	517.475	182.099	354.742	483.570	450.545	180.123	234.255	307.166	431.237	0.0003528	0.0013859	0.00024367	1201.2	1.3972e-05	5.8727e-07	655.76	362.48	2.0604e-05	1.9391e-05	196.74	64.163	123.81	56.673	2.4569e-05	31.236	0.007988	0.0089608	0.0024759	1332	9.616e-05	9.8256e-05	835.95	408.45	9.733e-05	9.9429e-05	301.71	99.312	151.43	66.929	0.00010046	48.189	233.700	378.292	258.923	179.175	334.564	408.201	177.116	184.928	332.650	235.490	181.757	185.183	189.744	194.145	351.821	189.078	-8191	255	
21530.531	1	1	0	0	0.15888	0.14218	0.36184	0.23709	0.065791	0.28723	0.20522	0.21184	0.2527	0.10435	0.23637	0.1075	0.068825	0.17661	0.13419	0.040371	-0.4875	-0.11875	-1.0354	-0.58958	-0.26458	-1.2188	-0.31042	-0.59583	-1.0625	-0.14583	-0.95	-0.675	-0.20208	-1.2146	-0.36667	-0.50833	491.378	451.800	240.154	451.491	295.142	344.566	242.475	483.909	344.387	198.547	392.547	512.304	247.261	377.750	257.747	260.270	0.00012346	0.001422	0.00062063	1198.4	1.409e-05	1.7233e-05	667.63	361.27	5.3313e-06	1.8384e-05	195.56	64.026	123.56	56.627	2.9355e-05	31.092	0.0083855	0.009456	0.0026296	1350.9	0.00010293	0.00010522	856.61	413.46	0.00010384	0.00010561	308.87	101.97	153.6	67.546	0.00010485	48.744	241.903	307.529	184.755	179.071	336.072	234.728	177.238	185.091	206.022	400.520	181.378	184.840	189.188	193.561	407.489	189.078	-8191	255	
21530.604	1	1	0	0	0.064432	0.11241	0.12686	0.049341	0.097849	0.078223	0.43037	0.21864	0.25253	0.11547	0.19571	0.20233	0.1051	0.21128	0.14686	0.35717	-0.49792	-0.08125	-0.77292	-0.96042	-0.18958	-1.0667	-0.49792	-0.5	-1.0979	-0.17083	-0.98125	-0.66458	-0.18542	-1.0833	-0.24583	-0.4625	364.393	288.627	249.292	483.634	388.186	468.535	518.095	221.009	490.050	361.793	312.534	345.668	391.203	175.494	225.350	171.731	0.00055883	0.00080859	0.00032032	1205.1	5.5991e-06	2.1956e-05	656.73	359.9	1.7039e-05	2.3868e-05	193.66	62.206	121.77	56.021	2.2567e-05	30.647	0.0086377	0.0096531	0.0026717	1354	0.00010337	0.00010452	847.44	411.29	0.00010228	0.00010414	304.23	100.06	151.72	66.771	0.00010249	48.08	258.979	511.166	410.710	178.498	519.780	494.219	176.480	184.113	187.254	363.098	180.716	184.554	189.103	193.439	351.184	188.737	-8191	255	
21530.699	1	1	0	0	0.18411	0.22917	0.11899	0.15591	0.2319	0.094659	0.44013	0.35651	0.26127	0.18131	0.13775	0.28132	0.37093	0.083941	0.15581	0.13627	-0.63958	-0.16458	-0.7	-1.0312	-0.16042	-1	-0.78542	-0.37292	-1.1979	-0.14792	-0.66458	-0.77917	-0.21042	-0.96458	-0.38958	-0.26042	489.135	445.194	394.459	509.995	289.584	442.475	447.683	439.528	452.004	289.429	320.699	439.571	448.831	377.153	191.853	354.910	0.00027759	0.00037589	0.00019062	1197.5	1.2569e-05	1.2712e-05	657.01	359.09	9.1547e-06	9.7172e-06	193.78	62.916	122.75	56.439	5.4153e-06	30.73	0.0084263	0.0094128	0.0025947	1343.5	0.00010126	0.00010171	840.05	409.67	9.9802e-05	0.00010101	301.7	99.202	151.48	66.538	0.00010025	47.764	268.225	339.733	175.925	178.528	275.265	478.154	176.104	184.471	351.300	481.494	180.426	184.450	188.509	193.357	207.174	188.987	-8191	255	
21530.820	1	1	0	0	0.20367	0.27101	0.072695	0.26318	0.015572	0.032784	0.1152	0.16035	0.11304	0.070296	0.29945	0.45101	0.30845	0.28717	0.34977	0.11812	-0.68333	-0.5375	-0.49167	-1.1917	-0.17917	-0.91458	-0.73542	-0.22708	-1.1229	-0.35	-0.38333	-0.99167	-0.14375	-0.90417	-0.72292	-0.15625	305.416	178.223	352.960	415.412	211.843	345.456	447.455	305.786	299.779	450.107	421.478	524.196	505.724	489.178	280.262	182.979	0.00046436	0.0016304	0.00074544	1203.8	3.3216e-05	1.2102e-05	654.47	360.66	9.6204e-06	2.1449e-05	194.34	63.795	122.92	56.484	2.116e-05	31.248	0.008217	0.0091573	0.0025388	1340.6	9.8897e-05	0.00010004	838.78	410.45	9.9184e-05	0.00010142	303.47	100.39	152.09	66.902	0.0001023	48.199	289.377	226.094	262.430	178.519	505.166	257.868	176.398	183.984	172.442	323.715	180.875	185.706	189.022	193.993	464.748	188.590	-8191	255	
21530.918	1	1	0	0	0.027137	0.26628	0.061798	0.21373	0.090345	0.27026	0.28515	0.27651	0.08105	0.026334	0.12603	0.14407	0.27987	0.3428	0.26429	0.059077	-0.525	-0.50417	-0.36875	-1.2833	-0.15417	-0.73333	-0.91042	-0.16458	-0.69792	-0.29167	-0.3125	-1.0354	-0.33125	-0.61875	-1.0187	-0.30417	440.097	293.358	523.788	441.473	303.458	435.211	423.180	466.839	355.066	433.641	423.996	262.940	346.717	519.992	328.106	263.407	0.00020826	0.00098296	0.00055067	1206.9	3.2915e-05	5.0644e-06	662.34	360.84	1.5248e-05	1.1809e-05	196.87	63.477	124.04	56.502	7.4668e-06	31.179	0.0083601	0.0092881	0.0025704	1343.9	9.9486e-05	9.9619e-05	841.16	410.07	9.8197e-05	0.00010021	302.12	99.609	151.29	66.761	9.9474e-05	47.987	332.358	364.692	282.384	178.488	175.089	413.195	176.432	184.107	173.064	319.568	180.887	185.330	188.630	193.548	228.482	188.489	-8191	255	
21531.014	1	1	0	0	0.12819	0.10263	0.24112	0.33664	0.11377	0.20077	0.28409	0.065784	0.28205	0.12572	0.1605	0.16891	0.092843	0.16341	0.24061	0.21425	-0.50208	-0.60833	-0.18333	-1.125	-0.28125	-0.55625	-1.0125	-0.29583	-0.69792	-0.57917	-0.225	-1.1313	-0.47708	-0.50625	-0.94583	-0.12083	189.092	312.175	509.186	470.394	345.887	294.641	457.847	428.757	264.983	412.192	264.599	330.297	472.929	481.737	238.065	444.752	0.00050537	0.00088758	0.00038072	1208.7	6.897e-06	9.2674e-06	650.61	358.5	3.8843e-06	2.9154e-05	192.69	62.656	123.19	56.036	1.3726e-05	30.817	0.0081658	0.0091579	0.0025389	1341.8	9.7773e-05	9.9471e-05	835.33	407.53	9.6784e-05	9.8671e-05	298.25	97.546	149.49	65.907	9.5585e-05	46.592	215.798	452.445	256.989	178.690	194.229	201.400	176.200	184.307	364.988	438.162	181.357	185.043	189.026	193.554	200.533	188.353	-8191	255	
21531.135	1	1	0	0	0.20742	0.087235	0.21281	0.16365	0.30807	0.18494	0.11376	0.13638	0.083095	0.10173	0.20731	0.21039	0.24454	0.17109	0.24341	0.2632	-0.32708	-0.64792	-0.21875	-1.0646	-0.53333	-0.23958	-0.98125	-0.27708	-0.85625	-0.72083	-0.095833	-1.0854	-0.45	-0.35	-1.0854	-0.08125	477.644	487.230	337.727	502.796	473.106	221.069	211.232	526.350	393.247	239.444	483.885	171.141	191.203	501.327	206.100	451.783	0.00016204	0.00044078	0.00017412	1202.7	9.1822e-06	1.1373e-05	654.88	359.6	5.2384e-06	2.1467e-05	193.66	63.315	122.79	56.298	1.5251e-05	30.659	0.0076796	0.00865	0.0023814	1323.2	9.218e-05	9.3622e-05	818.17	403.05	9.0626e-05	9.2554e-05	291.08	95.084	147.39	65.067	8.9857e-05	45.7	206.549	382.941	420.099	178.843	214.526	273.617	176.530	184.540	233.731	520.777	181.206	185.608	189.018	193.993	316.247	188.481	-8191	255	
21531.205	1	1	0	0	0.23433	0.053877	0.35992	0.23505	0.2245	0.12498	0.17797	0.035992	0.17556	0.10973	0.17721	0.28565	0.46989	0.15384	0.071857	0.23302	-0.29375	-0.7875	-0.12708	-1.3042	-0.63958	-0.31875	-1.2208	-0.35625	-0.48333	-0.94792	-0.060417	-0.95833	-0.60833	-0.13333	-1.0292	-0.32708	381.243	419.767	395.492	442.767	211.681	168.816	450.810	207.161	264.261	369.265	341.699	435.210	513.082	499.077	485.284	204.812	0.00028129	0.0014545	0.00029804	1206.4	3.0479e-05	3.1154e-05	658.78	361.71	1.0481e-05	6.0591e-06	195.85	63.368	123.5	56.577	8.6818e-06	30.937	0.007314	0.0082512	0.002291	1316	8.8085e-05	8.999e-05	813.91	401.5	8.7107e-05	8.9524e-05	288.91	94.52	147.71	65.206	8.8923e-05	45.916	244.932	466.653	203.975	178.625	322.201	513.813	176.682	184.266	303.111	323.177	181.112	184.694	188.797	193.875	449.504	188.560	-8191	255	
21531.301	1	1	0	0	0.17241	0.084671	0.048255	0.40071	0.048041	0.23727	0.31655	0.16316	0.34515	0.19979	0.31732	0.072134	0.23611	0.1041	0.13885	0.16425	0.0083333	-1.0438	0.12292	-0.8875	-0.58125	-0.10625	-1.0771	-0.29792	-0.24792	-1.0521	-0.054167	-0.77292	-0.6625	-0.47708	-1.1354	-0.32292	520.165	431.344	468.184	459.607	269.901	225.711	455.528	416.899	262.029	460.041	173.480	315.373	180.035	456.419	333.429	379.180	0.00017192	0.0012398	0.00060023	1204.7	5.1013e-06	1.136e-05	659.5	361.53	7.9022e-06	1.995e-05	195.82	64.083	123.91	57.047	1.6291e-05	31.894	0.0073446	0.0082098	0.0022931	1318.3	8.7852e-05	8.8712e-05	813.96	401.69	8.6339e-05	8.8183e-05	288.98	95.292	147.91	65.544	8.7303e-05	45.868	392.863	452.604	188.891	178.791	487.160	356.255	176.985	184.236	191.300	222.967	180.733	185.084	189.252	193.687	336.174	188.928	-8191	255	
21531.396	1	1	0	0	0.316	0.037463	0.088052	0.32727	0.31701	0.086771	0.16445	0.29113	0.17643	0.12713	0.2191	0.016901	0.23024	0.24989	0.27863	0.050606	0.058333	-0.84375	-0.060417	-0.78958	-0.7375	0.029167	-1.1938	-0.57292	-0.34167	-0.94167	-0.11667	-0.52917	-0.91875	-0.18958	-1.0333	-0.48125	340.843	166.262	303.237	493.095	523.837	207.272	402.285	495.677	174.577	224.725	344.309	380.713	488.867	168.622	468.327	404.975	0.00033513	0.001034	0.00048867	1209.5	3.0004e-05	2.2727e-05	661.62	361.85	6.3755e-06	2.3762e-06	197.85	63.599	123.72	56.53	7.2154e-06	31.144	0.0071721	0.0079842	0.0022062	1315.2	8.4784e-05	8.6133e-05	809.56	400.18	8.3605e-05	8.5024e-05	283.36	92.78	146.18	64.497	8.206e-05	44.655	242.094	268.164	288.708	178.599	377.643	502.032	176.395	184.076	204.490	441.667	181.301	185.478	189.296	193.774	410.789	188.802	-8191	255	
21531.494	1	1	0	0	0.030272	0.20716	0.16225	0.24612	0.17324	0.1237	0.16529	0.19677	0.1597	0.25919	0.19226	0.32089	0.09624	0.039925	0.073487	0.23416	0.072917	-0.92083	0.05625	-0.62917	-0.87292	0.014583	-1.0021	-0.82708	-0.14167	-0.93542	-0.37292	-0.51458	-1.1333	-0.16875	-0.84375	-0.59583	184.105	372.464	481.449	523.367	426.012	276.080	470.320	472.582	293.764	178.331	339.744	422.255	403.472	272.359	425.190	317.497	0.00025316	0.0031641	0.00042303	1207.5	9.5275e-06	7.248e-06	664.13	364.39	9.6331e-06	1.0698e-05	196.88	63.767	124.12	56.912	6.2096e-06	31.5	0.0067656	0.0075544	0.002084	1303.7	8.0014e-05	8.128e-05	797.72	398.4	7.9223e-05	8.0255e-05	279.11	91.593	145.15	64.33	8.0093e-05	44.444	217.283	201.771	384.554	178.658	322.342	222.188	176.224	183.969	284.559	469.577	180.665	184.799	188.993	193.658	439.984	188.615	-8191	255	
21531.613	1	1	0	0	0.17608	0.25017	0.15856	0.15276	0.10045	0.19479	0.25334	0.20773	0.15608	0.096958	0.078049	0.084048	0.11413	0.11845	0.22677	0.16423	0.22083	-0.95833	-0.14792	-0.40208	-1.075	-0.29167	-0.7125	-0.8375	-0.070833	-1.0271	-0.38333	-0.425	-1.0833	-0.2	-0.78125	-0.725	393.956	358.082	394.031	434.847	381.029	303.146	437.121	493.327	379.542	307.442	206.780	251.491	480.270	495.026	392.757	441.422	0.00039093	0.00083275	0.00051075	1218.9	1.6783e-05	8e-06	668.12	364	1.3231e-05	2.7102e-05	197.82	64.172	125.02	56.754	1.1997e-05	31.976	0.0067047	0.0075095	0.0020981	1311.1	8.1839e-05	8.3389e-05	805.7	400.67	8.2235e-05	8.2431e-05	282.89	92.971	146.33	64.69	8.1767e-05	45.146	266.391	178.395	178.426	178.837	414.980	386.159	176.735	184.400	257.768	328.434	180.443	185.098	189.073	193.936	213.785	188.580	-8191	255	
21531.709	1	1	0	0	0.13004	0.0332	0.26428	0.23523	0.071417	0.077069	0.15693	0.26614	0.21741	0.096968	0.083963	0.088384	0.087123	0.10884	0.26565	0.23723	0.24792	-0.81667	-0.28333	-0.4	-1.0292	-0.1875	-0.625	-0.78542	-0.052083	-0.9375	-0.62292	-0.26458	-1.0458	-0.26875	-0.51667	-1.025	447.139	390.212	270.646	407.818	300.585	211.287	220.333	497.117	203.108	419.031	256.868	342.961	172.450	469.475	432.848	433.172	0.00055068	0.00087037	0.00032659	1217	2.0269e-05	8.4735e-06	675.84	364.19	7.0171e-06	4.0903e-06	200.78	64.937	125.7	57.421	2.1703e-05	32.026	0.006716	0.007404	0.0020502	1307.7	7.8134e-05	7.8636e-05	800.85	397.37	7.6972e-05	7.7079e-05	279.01	91.856	145.48	64.786	7.8039e-05	44.892	248.638	357.970	425.371	178.599	431.376	500.119	176.783	184.338	287.357	376.810	180.637	185.095	189.457	193.725	217.334	188.728	-8191	255	
21531.805	1	1	0	0	0.23219	0.17818	0.039071	0.44475	0.17433	0.11912	0.21046	0.25194	0.16648	0.091711	0.16312	0.22472	0.047056	0.1502	0.099748	0.30027	0.16875	-0.8875	-0.65833	-0.42083	-0.92083	-0.27708	-0.69792	-1.1437	-0.24375	-0.96875	-0.61042	-0.16667	-1.0625	-0.49583	-0.53542	-1.1146	362.924	231.612	265.693	490.566	238.699	193.403	430.528	457.542	446.859	513.836	343.931	511.891	294.137	497.379	482.811	418.994	0.00022204	0.00025087	0.00047679	1223.1	8.3521e-06	1.928e-05	679.83	367.44	7.9797e-06	1.1902e-05	200.65	65.517	125.87	57.955	1.3615e-05	31.916	0.0065176	0.0072246	0.0020484	1314.4	7.8389e-05	7.9881e-05	810.11	401.03	7.8753e-05	7.9759e-05	282.89	92.957	146.33	65.218	8.0153e-05	44.892	257.880	418.359	281.645	178.660	254.835	242.449	176.564	184.262	398.531	203.348	181.453	185.627	189.354	193.691	316.951	188.681	-8191	255	
21531.900	1	1	0	0	0.24622	0.18618	0.06103	0.35027	0.075976	0.1975	0.3489	0.053929	0.029729	0.18247	0.23204	0.18875	0.15751	0.34549	0.2308	0.21804	0.33333	-0.73958	-0.72083	-0.27917	-1.2208	-0.37292	-0.22292	-1.1479	-0.18125	-0.62708	-0.97708	-0.12292	-1.0042	-0.58542	-0.22292	-1.2208	251.138	378.403	506.543	449.813	400.536	249.601	434.250	480.076	499.063	478.624	172.280	407.762	512.571	490.762	388.926	523.666	0.0003253	0.00056293	0.00074778	1229.5	1.1105e-05	6.1825e-06	670.38	363.6	2.3163e-05	1.633e-05	198.82	64.91	125.28	57.355	3.5833e-06	31.935	0.0065741	0.0073232	0.002071	1319.9	8.0278e-05	8.2414e-05	812.24	401.74	8.1479e-05	8.316e-05	286.45	94.224	147.74	65.439	8.4987e-05	45.771	218.081	377.459	462.619	178.721	439.075	346.111	176.821	184.293	348.014	208.062	181.540	184.888	189.273	194.051	467.927	188.776	-8191	255	
21531.996	1	1	0	0	0.10693	0.144	0.11231	0.23104	0.23918	0.26781	0.057229	0.18046	0.26488	0.2672	0.069741	0.1226	0.28416	0.046928	0.2843	0.33286	0.26458	-0.58542	-0.9125	-0.1125	-0.89583	-0.66875	-0.27917	-1.0479	-0.30625	-0.4	-0.82708	-0.16667	-0.95417	-0.80417	-0.16875	-0.91042	366.251	249.872	325.776	208.457	179.903	425.152	444.476	372.530	265.479	169.303	322.044	437.575	442.515	175.492	211.260	499.546	0.0002601	0.0031547	0.00043406	1225.8	1.5403e-05	1.1737e-05	670.46	364.65	2.7212e-06	9.0433e-06	199.87	65.193	125.69	56.839	1.5044e-05	31.598	0.0070094	0.0077833	0.0021619	1322	8.1564e-05	8.3345e-05	810.84	400.73	8.1608e-05	8.3049e-05	286.18	94.13	147.19	65.296	8.3096e-05	45.467	234.754	377.888	316.355	178.995	393.537	419.254	176.850	184.147	345.183	373.974	180.388	185.279	189.261	193.536	326.607	188.998	-8191	255	
21532.094	1	1	0	0	0.30112	0.1262	0.10784	0.24045	0.073174	0.024145	0.37691	0.40756	0.15728	0.19924	0.14039	0.21063	0.16471	0.33125	0.11464	0.15157	0.085417	-0.5125	-0.96667	-0.30417	-0.67917	-0.82917	-0.3125	-1.0625	-0.32083	-0.30208	-1.2042	0.11458	-0.74792	-0.86875	-0.10833	-0.9	242.895	316.140	375.445	495.377	383.337	188.047	366.473	443.524	377.888	191.250	294.504	431.561	453.845	496.759	192.381	507.698	0.00050535	0.00053055	0.00055386	1223.7	1.5609e-05	2.2161e-05	673.56	368.61	4.1423e-06	5.3119e-06	199.02	65.827	125.49	57.494	1.9318e-05	32.387	0.0069051	0.007708	0.0021523	1320.7	8.2393e-05	8.4757e-05	816.89	403.97	8.2599e-05	8.3378e-05	286.26	94.05	147.08	65.258	8.1476e-05	45.257	237.509	516.554	338.660	178.854	290.343	381.490	176.926	184.204	225.933	524.316	180.767	185.585	189.301	193.553	193.941	188.366	-8191	255	
21532.215	1	1	0	0	0.12012	0.051834	0.27275	0.13918	0.072383	0.28937	0.1625	0.095342	0.16111	0.043841	0.1136	0.029875	0.21803	0.098578	0.14423	0.23503	-0.18333	-0.26042	-0.93958	-0.28542	-0.60208	-0.84792	-0.13542	-1.1	-0.42708	-0.30833	-1.0688	-0.3	-0.83333	-1.0333	-0.066667	-0.86875	261.114	410.978	297.233	513.740	286.297	307.762	408.789	428.296	495.476	227.791	445.408	450.402	218.244	380.662	486.940	482.648	0.00046251	0.0006773	0.00039619	1228.8	1.1853e-05	2.8258e-05	679.97	368.17	1.3906e-05	1.0847e-05	201.83	64.641	124.86	57.283	9.4944e-06	31.627	0.0067063	0.007432	0.0020874	1322.1	8.1617e-05	8.4377e-05	823.36	405.44	8.6035e-05	8.7818e-05	292.27	95.737	148.61	65.58	8.6467e-05	45.733	234.743	420.914	240.564	178.650	400.491	360.092	176.822	184.445	260.878	227.032	180.492	185.553	189.145	193.796	282.534	188.897	-8191	255	
21532.309	1	1	0	0	0.20319	0.21263	0.1391	0.27598	0.19208	0.3186	0.018661	0.055749	0.13964	0.12421	0.091573	0.072443	0.23904	0.24055	0.060281	0.23157	-0.20833	-0.16042	-1.0917	-0.4375	-0.2875	-1.125	-0.1625	-0.83333	-0.67917	-0.2125	-1.0021	-0.35	-0.5	-1.1208	-0.13125	-0.8125	215.134	356.642	425.302	427.984	196.059	455.241	256.352	503.153	279.271	311.175	514.792	501.900	471.209	175.057	386.296	302.403	0.00031161	0.00076928	0.00088898	1221.8	1.07e-05	1.9611e-05	671.08	366.1	1.1923e-05	5.23e-06	197.91	64.077	124.45	56.906	1.2358e-05	31.81	0.0071026	0.0078788	0.0021834	1325.1	8.5044e-05	8.6548e-05	817.32	403.37	8.443e-05	8.4673e-05	284.1	92.991	146	64.664	7.9487e-05	44.576	221.286	222.992	173.760	178.943	310.827	426.138	176.641	184.485	320.784	317.982	180.946	185.108	189.179	193.994	290.013	188.388	-8191	255	
21532.404	1	1	0	0	0.068019	0.44873	0.080874	0.54983	0.20156	0.28561	0.14258	0.3858	0.23933	0.023219	0.2854	0.32587	0.22049	0.17816	0.033388	0.18242	-0.33333	0.035417	-0.99792	-0.66875	-0.1625	-1.2458	-0.36042	-0.92917	-0.91042	-0.15417	-1.1854	-0.49167	-0.34583	-1.0875	-0.0625	-0.54583	420.296	240.878	346.488	471.438	367.238	338.687	474.194	444.775	456.022	251.513	227.765	419.438	232.403	473.091	307.798	182.620	0.00043862	0.00066012	7.2528e-05	1219.4	1.0776e-05	6.8073e-06	668.49	365.69	1.5204e-05	7.0603e-06	198.51	64.605	124.95	57.002	4.1935e-06	31.638	0.0066059	0.0072951	0.0020233	1311.5	7.9013e-05	8.0414e-05	804.31	399.6	7.9303e-05	8.0444e-05	280.94	92.559	146.09	64.747	8.1763e-05	45.339	262.101	202.482	302.487	178.766	286.791	180.207	177.205	184.739	278.693	178.981	180.782	185.319	189.405	194.245	375.906	188.620	-8191	255	
21532.502	1	1	0	0	0.079719	0.10436	0.27961	0.21645	0.019207	0.19056	0.11018	0.18855	0.30397	0.36402	0.19213	0.20385	0.1101	0.14024	0.16305	0.27211	-0.52708	-0.16667	-0.86875	-0.79583	-0.19583	-1.1021	-0.2875	-0.77917	-0.80625	-0.079167	-0.8	-0.53958	-0.31042	-1.0708	-0.20208	-0.54167	395.122	482.782	204.076	183.537	367.631	237.288	264.739	464.168	195.842	342.327	226.337	388.064	349.474	483.287	449.715	488.593	0.00048879	0.0019136	0.00030333	1216.1	1.5732e-05	2.0922e-05	666.52	365.53	1.0908e-05	1.0256e-05	202.02	64.431	125.23	57.258	2.1968e-05	31.941	0.0069197	0.0078136	0.0021814	1326.5	8.5727e-05	8.6943e-05	820.54	404.35	8.3932e-05	8.4425e-05	285.86	93.661	146.97	64.846	8.1082e-05	44.971	230.592	390.905	233.957	178.729	282.636	311.358	176.915	184.670	258.970	311.948	181.040	185.430	189.573	193.854	395.244	189.002	-8191	255	
#DATA ENDS
