BOXY.EXE: ISS Imagent and Oximeter Data Acquisition Program Version 0.80
Ascii Record File

#ACQ INFORMATION
2  Detector Channels 
16  External MUX Channels 
1  Auxiliary Channels 
5000  Waveform (CCF) Frequency (Hz)
1  Waveforms Skipped 
30  Waveforms Averaged 
1  Cycles Averaged 
16  Acquisitions per Waveform 
10.0806  Updata Rate (Hz) 

#FILE INFORMATION
TRUE -- External MUX Channel results are PARSED.
FALSE -- AC DC and Phase are NOT grouped.
TRUE -- Companion Program Settings File CREATED.
FALSE -- AC data not excluded
FALSE -- DC data not excluded
FALSE -- Phase data not excluded
FALSE -- Auxillary Chn. data not excluded
Tab delimiters

#CALIBRATION STATE
TRUE -- Waveform Calibration Values APPLIED.


#AUX CALIBRATION VALUES
Val Type	aux-1	

Term	1.0000e+00	
Factor	0.0000e+00	


#WF CALIBRATION VALUES
A = Detector Channel
Val Type	A-AC1	A-AC2	A-AC3	A-AC4	A-AC5	A-AC6	A-AC7	A-AC8	A-AC9	A-AC10	A-AC11	A-AC12	A-AC13	A-AC14	A-AC15	A-AC16	A-DC1	A-DC2	A-DC3	A-DC4	A-DC5	A-DC6	A-DC7	A-DC8	A-DC9	A-DC10	A-DC11	A-DC12	A-DC13	A-DC14	A-DC15	A-DC16	A-Ph1	A-Ph2	A-Ph3	A-Ph4	A-Ph5	A-Ph6	A-Ph7	A-Ph8	A-Ph9	A-Ph10	A-Ph11	A-Ph12	A-Ph13	A-Ph14	A-Ph15	A-Ph16	

Term	0.00000e+00	0.00000e+00	0.00000e+00	0.00000e+00	0.00000e+00	0.00000e+00	0.00000e+00	0.00000e+00	0.00000e+00	0.00000e+00	0.00000e+00	0.00000e+00	0.00000e+00	0.00000e+00	0.00000e+00	0.00000e+00	0.00000e+00	0.00000e+00	0.00000e+00	0.00000e+00	0.00000e+00	0.00000e+00	0.00000e+00	0.00000e+00	0.00000e+00	0.00000e+00	0.00000e+00	0.00000e+00	0.00000e+00	0.00000e+00	0.00000e+00	0.00000e+00	0.00000e+00	0.00000e+00	0.00000e+00	0.00000e+00	0.00000e+00	0.00000e+00	0.00000e+00	0.00000e+00	0.00000e+00	0.00000e+00	0.00000e+00	0.00000e+00	0.00000e+00	0.00000e+00	0.00000e+00	0.00000e+00	
Factor	1.00000e+00	1.00000e+00	1.00000e+00	1.00000e+00	1.00000e+00	1.00000e+00	1.00000e+00	1.00000e+00	1.00000e+00	1.00000e+00	1.00000e+00	1.00000e+00	1.00000e+00	1.00000e+00	1.00000e+00	1.00000e+00	1.00000e+00	1.00000e+00	1.00000e+00	1.00000e+00	1.00000e+00	1.00000e+00	1.00000e+00	1.00000e+00	1.00000e+00	1.00000e+00	1.00000e+00	1.00000e+00	1.00000e+00	1.00000e+00	1.00000e+00	1.00000e+00	X	X	X	X	X	X	X	X	X	X	X	X	X	X	X	X	

B = Detector Channel
Val Type	B-AC1	B-AC2	B-AC3	B-AC4	B-AC5	B-AC6	B-AC7	B-AC8	B-AC9	B-AC10	B-AC11	B-AC12	B-AC13	B-AC14	B-AC15	B-AC16	B-DC1	B-DC2	B-DC3	B-DC4	B-DC5	B-DC6	B-DC7	B-DC8	B-DC9	B-DC10	B-DC11	B-DC12	B-DC13	B-DC14	B-DC15	B-DC16	B-Ph1	B-Ph2	B-Ph3	B-Ph4	B-Ph5	B-Ph6	B-Ph7	B-Ph8	B-Ph9	B-Ph10	B-Ph11	B-Ph12	B-Ph13	B-Ph14	B-Ph15	B-Ph16	

Term	0.00000e+00	0.00000e+00	0.00000e+00	0.00000e+00	0.00000e+00	0.00000e+00	0.00000e+00	0.00000e+00	0.00000e+00	0.00000e+00	0.00000e+00	0.00000e+00	0.00000e+00	0.00000e+00	0.00000e+00	0.00000e+00	0.00000e+00	0.00000e+00	0.00000e+00	0.00000e+00	0.00000e+00	0.00000e+00	0.00000e+00	0.00000e+00	0.00000e+00	0.00000e+00	0.00000e+00	0.00000e+00	0.00000e+00	0.00000e+00	0.00000e+00	0.00000e+00	-1.59263e+02	-1.35366e+02	-1.22785e+02	-1.81606e+02	-7.89346e+01	-5.72216e+01	-1.56575e+02	-1.62015e+02	-7.73410e+01	-6.58398e+01	-1.71773e+02	-1.69662e+02	-1.85582e+02	-1.76518e+02	-7.73154e+01	-1.48785e+02	
Factor	2.57673e-05	1.35732e-04	4.29484e-05	1.60521e-01	1.34668e-06	1.50830e-06	1.73562e-01	5.04505e-02	1.28541e-06	1.76270e-06	8.78298e-02	2.84354e-02	2.48919e-02	9.05555e-03	1.36247e-06	1.28161e-02	7.70257e-06	9.89319e-06	2.77655e-06	8.54020e-02	1.04570e-07	1.10558e-07	8.68692e-02	2.69635e-02	1.04314e-07	1.10505e-07	4.53325e-02	1.47671e-02	1.33880e-02	4.87488e-03	1.06932e-07	6.69256e-03	X	X	X	X	X	X	X	X	X	X	X	X	X	X	X	X	



#DISTANCE SETTINGS
A = Detector Channel
A-1	A-2	A-3	A-4	A-5	A-6	A-7	A-8	A-9	A-10	A-11	A-12	A-13	A-14	A-15	A-16	

2.5000e+00	3.0000e+00	2.5000e+00	3.0000e+00	2.0000e+00	3.0000e+00	1.5000e+00	3.0000e+00	3.0000e+00	3.0000e+00	3.0000e+00	3.0000e+00	3.0000e+00	3.0000e+00	1.5000e+00	3.0000e+00	

B = Detector Channel
B-1	B-2	B-3	B-4	B-5	B-6	B-7	B-8	B-9	B-10	B-11	B-12	B-13	B-14	B-15	B-16	

1.0000e+01	1.0000e+01	1.0000e+01	1.4400e+00	1.0000e+01	1.0000e+01	1.5100e+00	1.9400e+00	1.0000e+01	1.0000e+01	1.9900e+00	2.4900e+00	2.4100e+00	2.9000e+00	1.0000e+01	2.9800e+00	




#DATA BEGINS
time	group	step	mark	flag	A-AC1	A-AC2	A-AC3	A-AC4	A-AC5	A-AC6	A-AC7	A-AC8	A-AC9	A-AC10	A-AC11	A-AC12	A-AC13	A-AC14	A-AC15	A-AC16	A-DC1	A-DC2	A-DC3	A-DC4	A-DC5	A-DC6	A-DC7	A-DC8	A-DC9	A-DC10	A-DC11	A-DC12	A-DC13	A-DC14	A-DC15	A-DC16	A-Ph1	A-Ph2	A-Ph3	A-Ph4	A-Ph5	A-Ph6	A-Ph7	A-Ph8	A-Ph9	A-Ph10	A-Ph11	A-Ph12	A-Ph13	A-Ph14	A-Ph15	A-Ph16	B-AC1	B-AC2	B-AC3	B-AC4	B-AC5	B-AC6	B-AC7	B-AC8	B-AC9	B-AC10	B-AC11	B-AC12	B-AC13	B-AC14	B-AC15	B-AC16	B-DC1	B-DC2	B-DC3	B-DC4	B-DC5	B-DC6	B-DC7	B-DC8	B-DC9	B-DC10	B-DC11	B-DC12	B-DC13	B-DC14	B-DC15	B-DC16	B-Ph1	B-Ph2	B-Ph3	B-Ph4	B-Ph5	B-Ph6	B-Ph7	B-Ph8	B-Ph9	B-Ph10	B-Ph11	B-Ph12	B-Ph13	B-Ph14	B-Ph15	B-Ph16	aux-1	digaux	

7324.008	1	1	0	256	0.091238	0.14362	0.1119	0.2033	0.1564	0.15892	0.072846	0.30993	0.2581	0.21219	0.040117	0.12957	0.34153	0.20901	0.17022	0.24353	-0.50833	-0.42083	-0.37292	-1.0125	0.070833	-0.81458	-0.90417	-0.10417	-0.87708	-0.35	-0.4375	-1.0729	-0.10625	-0.83125	-0.78333	-0.20208	517.232	237.773	507.016	447.900	196.307	418.775	216.808	519.976	309.361	252.590	485.702	259.552	488.327	479.465	362.752	460.606	0.00078316	0.0010033	0.0008074	1073.9	1.8227e-05	1.866e-05	674.51	385.91	1.1059e-05	1.9323e-05	263.82	95.682	151.53	68.324	2.8803e-05	42.36	0.024444	0.03137	0.0087921	1290.3	0.00032872	0.00034838	913.8	452.71	0.00032439	0.00034215	390	137.14	185.95	80.817	0.00032717	61.215	185.753	493.293	231.512	182.229	377.829	354.201	180.159	187.540	315.973	204.001	184.888	187.680	191.398	195.402	253.007	191.105	-8191	255	
7324.080	1	1	0	0	0.023063	0.26989	0.093521	0.18264	0.12427	0.28495	0.1588	0.2441	0.20496	0.1337	0.15979	0.031425	0.24204	0.07651	0.26588	0.37532	-0.39792	-0.35	-0.21042	-0.91667	0.01875	-0.53958	-0.81458	-0.30833	-0.80833	-0.50208	-0.33333	-1.1146	-0.14583	-0.76042	-0.78958	-0.125	215.080	465.414	420.580	494.231	493.981	413.379	356.706	261.508	523.094	226.696	399.543	492.970	235.487	363.865	389.470	493.837	0.0005902	0.00053662	0.00029234	1057.1	1.7935e-05	4.1468e-06	674.33	388.19	1.0032e-05	8.1386e-06	264.12	96.782	151.95	68.183	9.8571e-06	41.827	0.023851	0.030368	0.0085787	1272.1	0.00032206	0.0003418	907.8	453.35	0.00032173	0.00033939	392.91	138.29	186.2	80.504	0.00032328	60.84	527.512	170.582	225.855	182.793	451.480	242.946	180.962	187.627	486.356	365.493	184.503	187.968	191.476	195.402	424.734	191.086	-8191	255	
7324.176	1	1	0	0	0.32489	0.070977	0.24055	0.033763	0.12264	0.091428	0.1824	0.20188	0.13427	0.34646	0.039051	0.31733	0.26918	0.18627	0.1088	0.14695	-0.42708	-0.3625	-0.19375	-1.0354	-0.14167	-0.28542	-0.875	-0.014583	-0.96458	-0.48333	0.10417	-1.125	-0.31458	-0.51667	-0.98125	0.047917	423.997	511.864	234.891	203.433	229.336	340.630	264.008	459.805	516.723	318.315	350.556	487.704	475.557	501.622	244.531	209.253	0.00088142	0.0017951	0.00072992	1058.8	2.9278e-05	1.7251e-05	681	384.6	7.7019e-06	1.7281e-05	271.27	99.7	152.87	69.464	2.0428e-05	43.432	0.023441	0.03007	0.0084667	1267.9	0.0003177	0.0003368	916.7	452.15	0.00031959	0.00034005	398.7	141.01	188.15	81.983	0.00032694	62.252	178.991	501.008	294.067	182.731	245.961	417.303	180.619	187.728	269.908	378.894	185.055	187.174	191.263	195.108	335.041	191.055	-8191	255	
7324.272	1	1	0	0	0.099911	0.15817	0.33683	0.12734	0.1288	0.14766	0.12747	0.022981	0.12428	0.30691	0.098121	0.13189	0.079705	0.29077	0.091189	0.15968	-0.35	-0.54167	-0.039583	-1.0396	-0.26875	-0.35	-1.1333	-0.19583	-0.52083	-0.77708	-0.17083	-0.96042	-0.4125	-0.4125	-1.2125	-0.31458	173.815	200.727	275.893	250.226	302.401	242.039	369.533	427.912	516.792	197.594	179.546	462.350	489.700	177.084	459.243	502.152	0.00044058	0.0017846	0.00044176	1065	1.6643e-05	2.27e-06	695.74	384.78	2.3222e-05	2.8764e-05	277.97	102.58	155.76	71.629	1.8995e-05	45.866	0.023712	0.030247	0.0084806	1274.8	0.00031794	0.00033826	924.91	451.34	0.00031899	0.00034082	404.05	143.8	190.91	84.132	0.00033348	65.546	520.249	266.708	257.310	182.702	239.862	281.344	180.066	187.769	247.677	277.191	184.707	187.476	191.186	195.308	270.054	191.284	-8191	255	
7324.393	1	1	0	0	0.14115	0.089911	0.087282	0.25566	0.17322	0.19207	0.36341	0.31547	0.080878	0.10941	0.086408	0.22364	0.14094	0.21315	0.18819	0.22151	-0.22292	-0.93333	0.05625	-0.92292	-0.41042	-0.1	-1.0667	-0.40833	-0.51667	-0.85625	-0.095833	-0.92292	-0.77292	-0.375	-0.88333	-0.375	195.771	496.968	338.785	453.678	466.381	401.212	170.539	477.343	257.635	384.292	493.088	365.810	475.092	495.873	477.385	184.682	0.00095976	0.003068	0.00070308	1079.4	1.3648e-05	1.7772e-05	709.67	389.15	1.8251e-05	1.0796e-05	273.69	99.466	152.14	69.014	7.3776e-06	43.546	0.024441	0.031357	0.0087713	1298.3	0.00032707	0.00034565	940.52	455.67	0.00032221	0.0003407	398.84	140.21	186.59	81.525	0.00032523	62.067	187.644	247.919	187.887	182.735	341.691	428.250	180.869	187.442	282.990	460.337	184.717	187.977	191.238	195.189	440.574	191.210	-8191	255	
7324.489	1	1	0	0	0.22661	0.03418	0.21487	0.10268	0.15645	0.18761	0.23178	0.27585	0.25919	0.13158	0.22566	0.094061	0.083593	0.30594	0.09701	0.30241	-0.11875	-0.84375	-0.045833	-0.63125	-0.69583	-0.1125	-0.91458	-0.57917	-0.33125	-0.78333	-0.21042	-0.72083	-0.82917	-0.28542	-0.77083	-0.36042	239.780	235.027	441.827	509.130	328.964	429.324	200.764	456.472	392.316	481.067	488.419	481.072	502.374	190.243	490.603	470.959	0.00030264	0.00093957	0.00063912	1053.5	4.3256e-06	1.8349e-05	671.11	377.53	1.7837e-05	2.8445e-05	260.69	94.387	148.06	66.244	1.6823e-05	40.547	0.023503	0.030082	0.0084312	1263.5	0.00031557	0.00033481	898.57	443.28	0.00031443	0.00033341	382.79	134.45	181.85	78.434	0.00031862	58.869	505.075	316.610	230.833	182.738	334.871	278.056	180.442	187.705	336.081	380.553	184.482	188.010	191.360	195.356	369.806	191.404	-8191	255	
7324.585	1	1	0	0	0.083292	0.081158	0.063718	0.12788	0.21314	0.19034	0.053704	0.37407	0.2174	0.17309	0.18626	0.19523	0.62367	0.026677	0.060169	0.36567	0.22917	-0.74375	-0.0875	-0.81042	-0.85	-0.039583	-1.0063	-0.33125	-0.18333	-1.1083	-0.12708	-0.53333	-0.96042	-0.04375	-0.90833	-0.59375	380.376	322.954	368.289	252.193	373.879	417.948	475.933	461.076	509.569	226.408	456.321	235.368	496.772	381.952	493.527	498.521	0.00028707	0.0019511	0.00055638	1043.9	2.5883e-05	3.1108e-05	661.99	373.86	8.3205e-06	3.3458e-06	260.33	95.649	148	66.674	8.827e-06	40.861	0.023091	0.029321	0.0082978	1245.9	0.00031196	0.00033103	889.7	438.97	0.00031353	0.00033329	384.53	135.39	182.27	78.808	0.00032057	59.561	197.120	459.851	252.159	182.691	245.106	341.540	180.839	187.764	442.524	250.612	184.627	187.735	191.641	195.354	379.915	190.663	-8191	255	
7324.681	1	1	0	0	0.37692	0.058883	0.17735	0.19825	0.31148	0.19129	0.36625	0.20054	0.13959	0.096814	0.2295	0.32552	0.12061	0.155	0.11435	0.050753	0.26042	-0.81667	-0.22917	-0.36667	-0.88333	0.066667	-0.89792	-0.67917	-0.11875	-0.82083	-0.27292	-0.45625	-1.0271	-0.17083	-0.86042	-0.49792	243.878	195.739	498.913	459.421	485.654	213.606	499.839	523.027	206.739	332.183	489.179	438.313	500.600	196.619	372.590	459.039	0.00041256	0.00031656	0.00084348	1039.2	1.7153e-05	1.4344e-05	666.04	372.91	1.3493e-05	2.1834e-05	262.49	96.772	149.06	66.641	1.3851e-05	41.88	0.02321	0.029805	0.0083409	1248.1	0.00031238	0.00032982	895.16	438.05	0.00031266	0.00033403	386.87	136.69	183.2	79.166	0.00032405	60.903	199.099	375.042	358.136	182.884	338.467	503.733	181.031	187.531	313.967	294.208	184.879	188.154	191.716	195.258	353.892	191.544	-8191	255	
7324.777	1	1	0	0	0.12237	0.20451	0.27156	0.16732	0.28157	0.077281	0.07153	0.40228	0.091844	0.22969	0.15769	0.20382	0.26089	0.2542	0.29003	0.075391	0.29583	-1.0146	-0.275	-0.33125	-0.88125	0.022917	-0.46042	-0.66042	-0.033333	-0.975	-0.53125	-0.41458	-1.1771	-0.49792	-0.66875	-0.91875	224.421	267.494	361.089	207.623	254.919	451.048	409.176	481.092	521.031	424.205	217.034	233.512	417.078	481.081	468.102	413.179	0.00039198	0.0023587	0.00098156	1051.1	1.379e-05	5.2315e-06	677.29	372.37	1.2697e-05	7.474e-06	262.92	96.727	148.02	66.158	9.2183e-06	42.254	0.02358	0.030332	0.0085098	1260.8	0.00031983	0.00033783	909.86	440.77	0.0003156	0.00033704	387.84	137.08	182.18	78.501	0.00032534	61.082	179.683	273.953	499.392	182.791	209.589	293.488	180.700	187.715	271.618	526.639	184.870	188.397	191.414	195.416	246.776	191.198	-8191	255	
7324.873	1	1	0	0	0.14088	0.15125	0.15881	0.24607	0.21356	0.23136	0.14905	0.11651	0.065193	0.19041	0.22129	0.28901	0.31977	0.3386	0.22115	0.42587	0.39167	-0.84375	-0.35417	-0.3	-0.86458	-0.097917	-0.71042	-1.0063	-0.045833	-0.65417	-0.59167	-0.27917	-1.0875	-0.26042	-0.35833	-1.0583	506.696	480.609	465.120	410.575	199.466	341.394	468.661	483.780	219.641	199.435	322.770	498.273	477.193	190.094	459.930	479.234	0.00065509	0.00076661	0.0001422	1051.2	1.4921e-05	7.3642e-06	675.17	376.28	1.2729e-05	8.7387e-06	259.54	94.253	145.93	65.345	8.202e-06	39.991	0.02374	0.030376	0.0085698	1265.6	0.00032048	0.000341	911.03	443.13	0.00031787	0.00033773	384.69	134.31	180.55	77.457	0.00031987	58.271	511.771	346.867	249.516	182.615	209.808	262.470	180.908	187.707	514.428	429.833	184.833	187.949	191.798	195.616	431.146	191.280	-8191	255	
7324.970	1	1	0	0	0.091894	0.011708	0.14248	0.18795	0.30391	0.13255	0.12155	0.17131	0.30265	0.26958	0.21875	0.13195	0.15504	0.18153	0.10294	0.19489	0.17292	-0.7	-0.32917	-0.15833	-0.72917	-0.32292	-0.52083	-1.2229	-0.2875	-0.83958	-0.60417	0.0083333	-0.93542	-0.34583	-0.22292	-1.1542	454.481	346.721	361.806	463.130	233.769	302.966	185.392	514.803	328.792	396.197	391.997	451.302	387.539	169.882	217.551	314.412	0.00063688	0.0011692	0.00057055	1033.4	1.237e-05	7.6101e-06	644.61	367.61	2.358e-05	8.8611e-06	250.26	91.176	145.25	65.372	1.9404e-05	39.651	0.023047	0.029453	0.0082856	1234.9	0.00031043	0.00032849	872.91	432.48	0.00031004	0.00033061	374.3	131.33	179.49	77.359	0.00031974	58.413	517.998	184.247	186.474	182.624	195.429	186.890	180.768	187.595	277.367	301.795	185.022	188.263	191.925	195.468	325.031	191.835	-8191	255	
7325.089	1	1	0	0	0.21078	0.078405	0.28338	0.33231	0.17138	0.085676	0.19487	0.26952	0.15862	0.25124	0.032502	0.073945	0.075845	0.33759	0.15673	0.16564	0.21667	-0.81042	-0.79583	-0.29375	-0.85625	-0.475	-0.45833	-1.1	0.0625	-0.65625	-0.9125	-0.05	-1.0333	-0.50417	-0.014583	-1.2042	188.408	470.931	289.533	517.852	503.655	257.205	486.037	506.782	239.853	234.119	528.323	508.129	338.610	200.259	173.808	352.408	0.00045198	0.00081944	0.00021662	1026.8	1.1234e-05	1.674e-05	649.28	369.15	2.6526e-06	7.2603e-06	254.01	94.131	146.06	66.253	1.0305e-05	41.016	0.023119	0.029704	0.0082929	1237.7	0.00031191	0.00032964	876.09	432.48	0.00031125	0.00032965	377.6	133.36	180.57	78.448	0.00032003	59.852	179.532	384.403	523.126	182.531	169.925	226.219	181.012	187.775	239.916	419.737	185.682	187.474	191.323	195.216	311.451	191.246	-8191	255	
7325.185	1	1	0	0	0.19963	0.047729	0.23434	0.13619	0.071847	0.19264	0.29734	0.33463	0.24808	0.17104	0.34293	0.076197	0.23622	0.21716	0.16757	0.15138	0.16042	-0.43542	-0.59792	-0.28542	-0.775	-0.60417	-0.22917	-0.90833	-0.09375	-0.39583	-0.92083	-0.24792	-0.98125	-0.76875	-0.025	-1.1333	443.491	290.320	517.742	443.408	396.963	504.016	434.928	495.617	401.395	368.755	457.906	281.127	365.148	457.733	462.785	369.946	0.00068954	0.001711	0.0012069	1041.5	2.3991e-05	9.6355e-06	662.42	371.69	1.2263e-05	3.1153e-05	259.14	94.665	146.54	65.908	1.6568e-05	41.567	0.023372	0.029787	0.0083823	1251.8	0.00031474	0.00033386	896.08	438.61	0.00031211	0.00032985	382.12	134.3	180.37	78.006	0.00031745	59.902	525.512	221.138	341.572	182.672	313.434	194.089	180.523	187.694	255.321	361.162	184.535	187.959	191.589	195.443	488.597	191.353	-8191	255	
7325.281	1	1	0	0	0.21918	0.093437	0.43334	0.20611	0.29008	0.069625	0.21111	0.29966	0.31426	0.39044	0.12255	0.35831	0.14629	0.15461	0.13187	0.16906	0.064583	-0.060417	-0.87083	-0.16667	-0.68958	-0.72083	-0.28333	-1.0562	-0.3375	-0.30417	-1.1583	-0.36667	-0.84792	-0.74792	-0.16458	-1.0604	528.501	207.163	507.632	504.464	256.288	342.581	200.536	444.630	170.772	421.727	482.739	483.124	501.259	435.452	332.150	272.265	0.0011627	0.0026425	0.00041132	1056.6	2.0811e-05	2.6346e-05	690.12	376.48	1.4703e-05	2.6798e-05	264.7	98.676	148.66	66.076	1.7186e-05	41.936	0.023075	0.029677	0.0083126	1258.5	0.00031526	0.00033445	916.59	443.12	0.00031552	0.00033554	391.99	138.05	182.97	78.748	0.00032148	60.611	183.779	240.229	172.187	182.777	364.278	180.657	180.780	188.047	375.193	477.309	184.565	187.837	191.928	195.480	509.219	191.379	-8191	255	
7325.377	1	1	0	0	0.10054	0.014832	0.30287	0.37581	0.071756	0.1468	0.060407	0.35573	0.29758	0.37363	0.19764	0.35303	0.14604	0.16323	0.079885	0.31276	0.085417	-0.29167	-0.79375	-0.37708	-0.49583	-0.90417	-0.325	-0.96042	-0.42917	-0.30417	-1.1125	-0.275	-0.58333	-0.97083	0.039583	-0.9	261.342	469.141	515.771	191.425	184.714	400.624	360.355	470.267	238.149	197.920	199.994	414.755	352.673	517.712	473.538	495.121	0.00064159	0.0017489	0.00039358	1047.7	1.9458e-05	9.0865e-06	676.37	372.88	1.3439e-05	2.4387e-05	260.78	93.91	146.51	65.717	3.6779e-06	40.661	0.023263	0.029708	0.0082466	1254.8	0.00031084	0.00032834	900.81	436.83	0.00031083	0.00032911	381.07	133.78	180.69	78.009	0.00031663	59.014	503.838	242.978	361.205	182.630	320.883	225.110	180.891	187.787	283.892	229.858	184.376	188.050	191.542	195.349	519.430	191.382	-8191	255	
7325.473	1	1	0	0	0.35769	0.14923	0.25224	0.33721	0.11765	0.097549	0.18017	0.32555	0.058098	0.2778	0.06857	0.041222	0.22952	0.33909	0.28887	0.069845	-0.43542	-0.10208	-0.90833	-0.29167	-0.375	-0.88333	-0.15625	-0.94583	-0.67708	-0.15625	-1.0729	-0.28333	-0.24792	-1.1729	-0.075	-0.75625	246.418	528.876	465.870	459.954	434.606	429.395	525.841	420.467	444.419	311.676	288.256	345.898	237.289	175.444	381.875	287.631	0.00082991	0.0014368	0.00077785	1033.9	2.0486e-05	2.5844e-05	653.04	367.39	1.74e-05	2.5664e-05	253.25	91.969	144.96	64.878	2.2097e-05	40.286	0.023027	0.029586	0.0082567	1235.8	0.00030985	0.00032689	877.19	431.72	0.00030557	0.00032451	374.46	131.58	178.43	76.959	0.00031522	58.516	183.401	372.977	500.948	183.043	223.397	239.158	181.183	187.866	219.922	350.393	185.208	187.889	191.783	195.731	467.489	191.492	-8191	255	
7325.569	1	1	0	0	0.10158	0.049878	0.05967	0.29061	0.07453	0.39235	0.30175	0.2185	0.051002	0.057097	0.19707	0.15282	0.12856	0.23232	0.17114	0.032077	-0.40208	-0.18333	-0.95625	-0.40833	-0.35	-0.97292	-0.23333	-0.70208	-0.91667	-0.00625	-0.875	-0.59583	-0.29583	-1.1229	-0.31875	-0.71458	324.545	213.014	232.466	471.129	321.130	328.012	473.554	458.738	458.078	215.632	480.249	204.835	184.253	520.984	183.444	432.223	0.00045248	0.0017326	0.00022748	1030.3	2.5455e-05	2.0968e-05	664.69	371.53	1.0393e-05	2.7085e-05	259.16	93.743	146.62	65.931	6.8975e-06	41.226	0.022981	0.029468	0.008245	1238.4	0.00031055	0.00032927	886.44	434.53	0.00030883	0.00032711	379.76	133.19	179.94	78.031	0.00031704	59.561	525.483	439.869	266.823	183.032	219.718	476.491	180.871	187.872	404.387	430.307	184.678	187.999	191.906	195.550	453.743	191.419	-8191	255	
7325.690	1	1	0	0	0.26606	0.023813	0.15015	0.013544	0.082826	0.19398	0.056567	0.22415	0.20039	0.16595	0.099797	0.14147	0.25151	0.29255	0.092806	0.14318	-0.36042	-0.06875	-0.9	-0.6875	-0.14583	-0.85625	-0.32917	-0.575	-0.90625	-0.12917	-0.89167	-0.77083	-0.11042	-0.79167	-0.34167	-0.57708	418.082	479.697	243.287	308.220	379.075	485.855	174.908	524.732	371.008	192.119	426.892	376.508	506.191	524.489	470.040	408.702	0.0010033	0.0010063	0.00029409	1044.5	1.2734e-05	1.0961e-05	674.52	373.81	6.7368e-07	2.1171e-05	264.99	95.932	148.68	66.687	1.9476e-05	41.88	0.02303	0.029474	0.0083117	1247.9	0.00031276	0.0003318	902.55	439.62	0.00031447	0.00033307	389.92	136.56	183.15	79.266	0.00032359	60.799	511.327	415.255	354.538	182.887	461.879	235.415	181.127	188.036	170.651	340.100	184.701	188.129	191.691	195.586	378.064	191.540	-8191	255	
7325.784	1	1	0	0	0.1409	0.054624	0.086273	0.15368	0.17847	0.21302	0.2007	0.098943	0.32428	0.080402	0.20134	0.077239	0.12272	0.16653	0.26263	0.21272	-0.54375	-0.072917	-0.78958	-0.825	-0.00625	-0.96667	-0.40417	-0.41042	-0.8625	0.072917	-0.85625	-0.90208	-0.14792	-1.1458	-0.53125	-0.3375	208.167	511.322	351.857	461.117	469.390	259.690	460.954	452.217	466.514	486.259	466.332	378.551	486.451	185.986	370.959	513.201	0.00071025	0.0024582	0.00037999	1049.1	2.3229e-05	1.9426e-05	688.18	375.99	2.0438e-05	1.446e-05	268.21	96.423	147.85	66.273	1.3926e-05	41.595	0.023326	0.029908	0.0083765	1255.7	0.00031496	0.00033326	916.54	441.24	0.0003126	0.00033245	390.4	136.63	181.72	78.511	0.0003181	60.018	192.994	332.168	325.464	182.656	294.835	391.232	180.819	187.968	331.069	212.337	185.114	187.834	191.987	195.693	291.437	191.343	-8191	255	
7325.880	1	1	0	0	0.10163	0.26886	0.26979	0.11015	0.11946	0.31071	0.087646	0.29954	0.078005	0.22982	0.10057	0.22324	0.11166	0.23997	0.18873	0.19299	-0.51458	-0.18958	-0.70208	-0.88542	0.010417	-0.99792	-0.4875	-0.16458	-0.9625	-0.21667	-0.40417	-0.94583	-0.14583	-1.2062	-0.6375	-0.27917	454.299	491.179	529.716	279.105	381.593	267.941	192.371	453.378	461.740	502.874	431.563	411.029	258.343	177.848	455.069	498.404	0.00072093	0.0018297	0.00073319	1029.9	4.7862e-06	1.1459e-05	654.34	364.82	1.1052e-05	1.7172e-05	248.79	89.965	142.49	63.728	1.0839e-05	38.89	0.023085	0.029448	0.0082565	1236.6	0.00030788	0.00032462	876.43	428.49	0.00030359	0.00032041	368.41	128.74	175.82	75.604	0.00031063	57.002	518.130	286.409	213.700	182.750	238.575	350.353	180.983	188.176	392.340	363.206	185.009	188.135	191.990	196.035	511.818	191.087	-8191	255	
7325.954	1	1	0	0	0.30599	0.44412	0.045245	0.20078	0.13547	0.19285	0.32473	0.16641	0.10925	0.23079	0.091339	0.1389	0.20892	0.24102	0.078546	0.082765	-0.53958	-0.22292	-0.21042	-0.94167	-0.225	-1.0604	-0.71875	-0.11667	-0.86875	-0.21458	-0.44792	-0.96458	-0.23958	-0.80625	-0.60417	-0.25417	200.527	507.649	285.782	430.645	253.333	321.269	360.580	478.868	287.855	340.300	480.104	480.055	253.457	492.850	262.405	467.793	0.00020007	0.0026442	0.00020668	1021.3	3.3724e-05	3.2271e-05	647.56	361.88	1.3649e-05	8.1078e-06	248.62	90.068	142.47	63.619	1.7018e-05	38.984	0.02247	0.028909	0.0081187	1221.1	0.00030519	0.00032518	867.67	427.72	0.00030486	0.00032347	368.94	128.76	175.74	75.332	0.00030872	56.721	204.035	201.335	510.681	182.610	309.517	285.124	180.591	187.689	180.058	343.998	185.163	187.422	191.575	195.897	205.976	191.623	-8191	255	
7326.073	1	1	0	0	0.23089	0.032648	0.18501	0.33868	0.26248	0.227	0.0759	0.21265	0.29251	0.1511	0.28764	0.15328	0.31169	0.34955	0.23983	0.093846	-0.53125	-0.26458	-0.32083	-1.0312	-0.077083	-0.62292	-0.825	-0.016667	-0.91042	-0.36042	-0.42292	-1.1313	-0.12292	-0.57708	-0.81042	0.072917	489.186	358.065	314.340	491.075	376.643	375.279	217.168	493.953	509.088	301.045	474.443	373.701	495.975	506.887	339.545	477.605	0.00059153	0.0031074	0.00046776	1024.9	1.4322e-05	2.1658e-05	652.01	364.19	1.4408e-05	9.135e-06	253.21	91.203	143.16	63.666	9.6352e-06	39.331	0.022456	0.028671	0.0080901	1224.8	0.00030345	0.00032303	874.42	426.52	0.00030248	0.00032302	374.22	130.54	176.46	75.836	0.00031134	57.628	181.096	334.175	423.091	182.439	297.826	315.501	181.182	187.819	221.243	368.313	184.422	187.959	191.453	195.826	336.647	191.262	-8191	255	
7326.169	1	1	0	0	0.23763	0.086083	0.20868	0.096134	0.17379	0.13339	0.14135	0.25936	0.060801	0.10284	0.33049	0.28135	0.14651	0.23009	0.18683	0.086408	-0.50625	-0.53333	-0.19375	-1.1458	-0.225	-0.55833	-0.9375	-0.2	-0.6875	-0.49583	-0.21042	-0.90625	-0.225	-0.69375	-0.79583	-0.2125	204.784	527.763	177.477	434.702	331.707	383.008	381.527	497.724	479.042	383.770	373.724	343.019	216.128	253.803	371.340	240.893	0.00076403	0.0031512	0.00046675	1029.6	9.0109e-06	1.9224e-05	668.56	362.71	1.1452e-05	7.365e-06	255.17	92.934	144.71	64.675	1.8029e-05	40.59	0.022659	0.028965	0.0080938	1230.3	0.00030286	0.00032307	888.94	427.37	0.00030206	0.00032298	376.66	131.86	177.75	76.501	0.00031362	58.939	514.268	295.410	257.193	182.576	324.174	196.004	180.996	187.837	284.191	474.296	184.577	187.753	191.606	195.767	318.100	191.715	-8191	255	
7326.265	1	1	0	0	0.17173	0.071072	0.11264	0.26902	0.23439	0.12772	0.090179	0.32993	0.14084	0.077028	0.11313	0.24288	0.15691	0.25884	0.29739	0.12479	-0.49583	-0.70417	-0.12083	-1.0542	-0.39583	-0.42917	-0.875	-0.2	-0.69792	-0.625	-0.13125	-0.96875	-0.45625	-0.46458	-0.90625	-0.079167	389.889	406.460	238.285	187.059	484.820	403.250	477.334	451.497	280.994	451.129	206.082	420.708	177.791	487.708	484.076	459.218	0.00067661	0.0021901	0.00078376	1040.8	1.4277e-05	1.5391e-05	677.53	368.45	2.8672e-05	1.1459e-05	254.16	90.653	141.79	62.82	3.1709e-06	38.059	0.022818	0.029099	0.0082164	1245	0.00030779	0.00032588	902.12	431.67	0.00030496	0.00032059	373.41	129.52	175.22	74.403	0.00030675	55.936	523.281	299.524	299.880	182.778	478.243	269.015	180.774	187.746	297.665	363.039	185.290	187.884	191.857	195.642	452.961	191.410	-8191	255	
7326.361	1	1	0	0	0.149	0.37836	0.15349	0.12252	0.38178	0.052979	0.17397	0.38949	0.33575	0.20343	0.22	0.15681	0.11836	0.15172	0.067927	0.094311	-0.45417	-0.84375	-0.054167	-1.0375	-0.27083	-0.15833	-0.99375	-0.26042	-0.61875	-0.72917	-0.17083	-0.89792	-0.53125	-0.11042	-1.0417	-0.19792	244.426	401.256	517.245	217.201	352.045	297.610	351.062	450.903	505.120	527.125	346.689	491.409	527.150	393.057	453.906	236.108	0.00071739	0.0013063	0.00036743	1022.2	1.6867e-05	1.3882e-05	642.21	358.84	1.1934e-05	4.8988e-05	240.55	87.025	139.64	61.793	6.0791e-06	37.166	0.022292	0.028375	0.007994	1219.7	0.00030108	0.0003188	861.32	420.5	0.00029871	0.00031662	360.43	125.69	172.29	73.376	0.00030482	54.775	513.438	485.730	380.843	182.646	209.522	506.250	181.133	187.689	254.171	235.051	184.762	187.863	192.002	195.861	198.626	191.614	-8191	255	
7326.482	1	1	0	0	0.27133	0.088092	0.24558	0.23729	0.22739	0.18619	0.12274	0.46849	0.26875	0.43193	0.081887	0.16097	0.16999	0.27966	0.1905	0.33091	-0.014583	-0.91458	0.12708	-0.97083	-0.4625	-0.2375	-0.96667	-0.225	-0.4875	-0.86667	-0.13333	-0.9375	-0.55208	-0.0041667	-0.9	-0.54583	246.409	483.739	462.911	231.812	354.439	425.950	404.975	489.376	431.823	267.344	190.754	451.174	504.012	173.106	334.422	497.363	0.00044457	0.0011292	0.00020418	1011.1	1.3278e-05	1.6532e-05	647.66	357.76	1.3766e-05	4.7538e-05	249.31	89.763	142.1	63.44	2.8137e-05	38.868	0.022057	0.028181	0.0079283	1210.9	0.00029866	0.00031647	857.61	420.51	0.00029981	0.00031994	368.13	128.25	175.26	75.337	0.00031007	56.865	512.107	431.253	503.749	182.848	279.000	519.697	180.816	188.078	252.092	348.263	185.207	187.805	191.531	195.725	305.832	190.876	-8191	255	
7326.553	1	1	0	0	0.17817	0.23248	0.28931	0.10081	0.19344	0.020851	0.11237	0.32347	0.17489	0.26079	0.21648	0.1077	0.29299	0.2383	0.20088	0.18073	-0.010417	-0.89375	-0.095833	-0.91458	-0.54375	-0.01875	-1.0229	-0.475	-0.35208	-1.2125	-0.22292	-0.81875	-0.85625	-0.15	-0.99583	-0.46667	232.600	416.729	438.059	418.063	249.710	368.878	400.068	491.759	279.499	438.691	330.414	526.654	524.322	466.157	425.569	362.297	0.00059979	0.0010088	0.00030563	1024.4	4.5918e-06	1.6151e-05	653.47	363.26	1.3028e-05	2.1624e-05	247.71	89.588	143.1	62.666	1.9703e-05	38.46	0.022533	0.028808	0.0080796	1224.1	0.00030107	0.00031972	874.12	424.13	0.00029883	0.00031688	366.57	127.87	174.82	74.39	0.00030909	56.544	170.169	434.671	320.650	182.527	271.064	193.482	180.725	187.904	385.426	328.624	184.440	187.889	191.734	195.451	205.357	191.515	-8191	255	
7326.650	1	1	0	0	0.068068	0.27665	0.11674	0.060032	0.15916	0.25058	0.014915	0.42564	0.096334	0.1372	0.29199	0.094043	0.08805	0.44875	0.14156	0.2207	0.16667	-0.875	-0.066667	-0.55417	-0.80417	-0.097917	-0.89167	-0.49167	-0.19167	-1.0229	-0.4	-0.44583	-1.0104	-0.175	-1.0667	-0.64583	504.167	233.855	418.024	244.854	206.573	254.521	269.696	478.874	488.761	387.049	188.522	192.045	521.708	478.581	332.370	410.889	0.00036591	0.0006416	0.00040962	1039.2	1.1814e-05	9.3778e-06	669.69	365.35	3.8388e-06	2.0152e-06	254.97	92.112	142.73	62.775	9.73e-06	38.878	0.022455	0.028737	0.0080537	1233.9	0.00030278	0.00032341	887.16	428	0.00030448	0.00032316	375.81	130.54	175.66	74.672	0.00030989	56.962	486.255	346.531	489.601	182.786	394.415	327.829	180.782	187.729	319.784	247.799	184.661	188.420	191.484	195.640	295.395	191.143	-8191	255	
7326.770	1	1	0	0	0.36091	0.14326	0.21597	0.18103	0.40854	0.19683	0.17926	0.14384	0.14811	0.35666	0.12209	0.19667	0.29874	0.2292	0.22124	0.29692	0.33958	-0.75833	-0.3	-0.49375	-0.86458	-0.054167	-0.82917	-0.81875	-0.075	-1.0146	-0.44583	-0.40833	-1.1313	-0.31667	-0.71667	-0.63958	478.495	208.848	301.811	473.005	180.427	321.520	450.050	449.803	216.969	352.786	501.457	184.392	234.026	473.064	372.682	505.225	0.00048266	0.0013205	0.00074999	1042.4	2.278e-05	1.3498e-05	668.06	365.54	2.162e-05	2.7557e-05	251.51	91.33	144.52	64.352	2.3366e-06	39.188	0.022467	0.028888	0.0080972	1238.5	0.00030589	0.00032397	890.3	430.12	0.00030549	0.00032459	374.89	130.54	177.35	76.228	0.00031202	57.196	518.502	289.680	193.321	182.833	184.703	314.094	180.680	188.008	235.459	384.836	185.010	187.324	191.523	195.443	499.950	191.146	-8191	255	
7326.865	1	1	0	0	0.19498	0.15244	0.081218	0.15521	0.074421	0.043625	0.40159	0.16429	0.074616	0.11537	0.1981	0.28898	0.066826	0.30127	0.30918	0.11605	0.29375	-0.93125	-0.375	-0.23542	-0.975	-0.25833	-0.46667	-0.64167	-0.18542	-1.05	-0.56667	-0.29792	-1.0875	-0.34167	-0.59375	-0.91667	284.254	319.609	182.981	437.681	290.340	269.765	499.746	491.297	416.656	182.566	498.168	261.578	459.542	499.240	218.356	490.772	0.00057955	0.0019793	0.00044322	1026.5	9.1735e-06	5.0669e-05	639.69	360.26	1.602e-05	3.6435e-05	247.98	89.43	143.59	64.547	2.2895e-05	39.072	0.022459	0.028646	0.0079835	1221.5	0.00030021	0.00031772	858.43	422.5	0.00030002	0.00031888	366.21	127.78	176.48	76.271	0.00031145	57.487	195.993	189.264	295.300	182.773	242.996	401.689	180.551	187.803	205.468	475.452	184.977	187.806	191.923	195.421	294.929	191.088	-8191	255	
7326.963	1	1	0	0	0.040997	0.094324	0.33611	0.43854	0.17124	0.1839	0.070521	0.251	0.23915	0.071041	0.022424	0.044667	0.375	0.16509	0.21837	0.17536	0.4875	-0.92708	-0.55	-0.22292	-1	-0.15208	-0.43958	-0.93333	0.0625	-0.74375	-0.77708	-0.083333	-1.1	-0.39375	-0.28333	-1.0854	438.516	281.192	389.198	507.121	479.852	416.531	318.055	459.132	237.336	465.156	413.457	446.080	186.809	201.753	340.893	461.869	0.00049492	0.002443	0.00014589	1028.9	3.1448e-06	9.8805e-06	642.64	364.48	2.0508e-05	1.4572e-05	251.82	89.815	143.19	63.854	1.0319e-05	39.537	0.022734	0.029072	0.008167	1226.8	0.00030521	0.00032396	865.66	427.49	0.00030301	0.00032073	368.23	128.41	175.92	75.697	0.00030943	57.43	522.428	230.300	514.470	182.437	339.565	210.213	180.906	188.029	250.937	189.088	184.612	187.633	191.557	195.736	427.865	191.811	-8191	255	
7327.081	1	1	0	0	0.018943	0.090328	0.17784	0.26849	0.014513	0.36943	0.22634	0.14738	0.0063946	0.066793	0.14887	0.019058	0.11869	0.16337	0.27023	0.16618	0.49583	-0.7375	-0.72708	-0.1	-0.97708	-0.42083	-0.29375	-1.1083	-0.052083	-0.7625	-0.7	0.089583	-0.92917	-0.60208	-0.15208	-1.075	489.858	507.156	504.060	173.138	387.628	447.937	436.114	447.276	306.896	279.723	253.153	345.918	174.314	188.316	391.228	514.231	0.00056283	0.0011844	0.0006525	1026.5	2.4387e-06	1.1736e-05	658.92	369.12	4.2582e-06	1.8571e-05	254.47	93.353	145.77	65.435	1.3892e-05	40.699	0.022469	0.028851	0.0081292	1229.6	0.00030696	0.00032615	884.24	433.54	0.00030686	0.00032642	376.99	132.03	179.02	77.54	0.00031221	58.674	528.984	383.175	249.498	182.672	299.845	323.179	181.126	187.853	321.572	233.581	185.138	188.294	191.521	195.320	271.874	191.662	-8191	255	
7327.178	1	1	0	0	0.14165	0.017084	0.17858	0.19444	0.26001	0.19949	0.40698	0.37977	0.13744	0.055886	0.19824	0.1068	0.2193	0.10008	0.27697	0.3337	0.31042	-0.475	-0.90625	-0.23333	-0.91042	-0.38333	-0.44583	-1.0438	-0.18333	-0.625	-0.93958	-0.097917	-0.96458	-0.62292	-0.0125	-0.97708	283.559	194.122	476.058	369.003	430.185	491.983	519.545	465.989	367.157	380.888	190.987	444.927	263.637	259.766	344.803	457.965	0.00065188	0.00099738	0.00057077	1033	1.9946e-05	2.506e-05	674.21	373.31	1.1145e-05	2.1527e-05	262.92	94.799	149.36	67.575	1.6203e-05	42.645	0.022578	0.029006	0.0080974	1235.5	0.0003057	0.00032438	892.51	436.38	0.00030852	0.00032753	385.65	135.22	182.72	79.732	0.00031883	60.854	180.204	217.407	219.029	182.957	202.182	370.287	180.736	187.693	189.463	308.598	185.098	188.177	191.624	195.084	414.765	191.549	-8191	255	
7327.249	1	1	0	0	0.29804	0.13881	0.096722	0.30577	0.069826	0.21466	0.12366	0.071919	0.20537	0.26964	0.25398	0.12298	0.19411	0.34554	0.43965	0.11948	0.26042	-0.52708	-0.81042	-0.21667	-0.6875	-0.59583	-0.31875	-1.05	-0.48958	-0.36458	-0.97708	-0.33333	-0.73958	-0.9375	0.05625	-1.1187	381.762	277.526	351.706	466.447	368.670	482.227	512.242	395.176	386.077	266.749	365.693	412.826	515.464	445.325	254.405	356.227	0.00065778	0.0027335	0.00073239	1029	7.7413e-06	9.1501e-06	651.55	370.15	1.423e-05	1.5089e-05	256.37	92.811	148.93	68.435	2.0414e-05	42.179	0.023111	0.029504	0.0082285	1238.2	0.00030775	0.00032402	873.81	433.61	0.00030503	0.00032424	376.04	132.45	181.87	80.444	0.00031787	60.57	519.567	280.444	334.581	182.529	278.494	408.034	181.443	187.953	280.610	225.757	184.867	188.314	191.741	195.368	297.479	191.614	-8191	255	
7327.370	1	1	0	0	0.14641	0.18427	0.10528	0.49294	0.25618	0.14712	0.19737	0.14387	0.067068	0.2546	0.14874	0.33628	0.17925	0.11379	0.15177	0.3061	-0.00625	-0.029167	-0.98125	-0.16875	-0.65208	-0.6875	-0.16667	-1.0646	-0.3625	-0.16667	-0.77083	-0.34375	-0.55833	-0.97292	-0.047917	-0.96875	197.785	233.159	444.556	506.117	268.211	275.213	527.298	483.905	439.925	455.085	181.872	394.485	237.242	396.816	417.778	187.279	0.00043017	0.001545	0.0006869	1027.9	5.7664e-06	4.7035e-06	640.38	373.15	9.8261e-06	1.9323e-05	250.15	91.463	146.68	66.566	2.6476e-05	41.528	0.023168	0.029667	0.0083148	1235.7	0.00031336	0.00032969	867.99	436.9	0.0003069	0.0003255	372.57	131.1	179.67	78.47	0.00030816	59.146	185.140	185.765	246.266	182.877	470.552	405.408	180.372	187.803	245.107	374.175	184.593	187.605	191.418	195.089	216.613	191.589	-8191	255	
7327.466	1	1	0	0	0.19619	0.026838	0.19691	0.28306	0.26581	0.055299	0.14409	0.10293	0.12948	0.1126	0.080825	0.079528	0.15814	0.011484	0.18339	0.13966	-0.14583	0.11458	-0.81667	-0.39167	-0.525	-0.94375	-0.12292	-0.84375	-0.55833	-0.16042	-1.1146	-0.36875	-0.48125	-1.0729	-0.08125	-0.65208	364.485	368.725	259.610	479.252	297.495	383.176	437.665	178.442	276.247	199.434	413.690	196.532	183.758	508.400	352.978	197.895	0.00060089	0.00096258	0.00042983	1031.6	2.2947e-05	2.3946e-05	648.69	373.41	1.9468e-05	3.0053e-05	256.12	93.771	148.32	67.662	1.7098e-05	42.046	0.022442	0.028856	0.008093	1231.6	0.00030494	0.00032241	871.18	436.98	0.00030375	0.00032322	377.28	132.85	180.96	79.411	0.00031009	59.978	191.664	201.699	300.018	182.764	515.076	302.525	180.948	188.029	350.254	353.224	184.568	188.209	191.503	195.255	360.224	191.150	-8191	255	
7327.562	1	1	0	0	0.070215	0.13092	0.20723	0.19335	0.15846	0.25815	0.35472	0.32682	0.17751	0.060439	0.17573	0.12026	0.2189	0.1176	0.20848	0.27469	-0.28542	-0.14792	-0.96875	-0.27708	-0.34792	-0.97083	-0.15625	-0.76458	-0.64167	-0.039583	-1.0667	-0.44583	-0.37708	-1.2646	-0.29583	-0.82708	228.643	370.653	469.059	496.641	300.173	264.059	464.513	520.740	344.797	417.365	486.598	460.371	178.628	460.537	197.971	191.963	0.00066884	0.0013	0.00069074	1034.2	9.754e-06	8.1549e-06	668.94	375.56	6.2902e-06	3.45e-06	264.47	97.112	150.56	69.549	5.7769e-06	43.461	0.022559	0.028942	0.0080982	1234.6	0.00030479	0.00032364	885.97	439.09	0.00030465	0.00032394	385.98	136.05	184.09	81.247	0.00031434	61.705	516.586	498.023	230.240	182.704	266.189	304.549	180.597	187.937	252.386	180.468	185.144	187.805	191.697	195.143	267.686	191.511	-8191	255	
7327.658	1	1	0	0	0.13848	0.28618	0.11788	0.18739	0.11068	0.1807	0.25581	0.19523	0.26569	0.085883	0.30503	0.23624	0.12015	0.15031	0.25391	0.10132	-0.35208	0.01875	-0.85625	-0.54583	-0.14167	-0.98125	-0.2	-0.57292	-0.86875	0.033333	-0.94583	-0.51458	-0.39583	-1.1812	-0.25	-0.52917	455.293	419.212	267.103	193.581	353.414	529.013	434.470	175.566	344.252	380.484	466.634	527.730	239.429	239.593	206.792	461.753	0.00074474	0.0012168	0.00012795	1045.6	2.7243e-05	7.9795e-06	678.47	376.36	2.499e-05	1.51e-05	263.97	95.545	148.65	67.334	1.047e-05	41.972	0.022763	0.02904	0.0081279	1244.2	0.0003054	0.00032142	894.11	438.89	0.00029996	0.00031825	380.14	133.87	180.28	78.701	0.00030498	59.332	527.599	491.907	505.976	182.513	432.141	300.866	180.847	187.866	294.761	259.874	184.634	187.439	191.228	195.362	358.682	191.680	-8191	255	
7327.777	1	1	0	0	0.19624	0.21495	0.087498	0.16885	0.082018	0.19443	0.28962	0.42481	0.047993	0.12049	0.22524	0.10708	0.27669	0.056629	0.17834	0.32828	-0.50833	-0.027083	-0.80417	-0.72083	-0.058333	-0.99375	-0.41042	-0.47292	-1.125	-0.0083333	-0.88542	-0.86875	-0.27292	-1.0542	-0.48333	-0.34583	250.272	380.432	366.988	421.329	417.027	284.042	173.965	445.641	487.531	432.025	463.668	437.658	511.204	525.449	456.968	396.373	0.00084158	0.0018039	0.00059868	1023.9	1.8677e-05	9.3331e-06	639.17	369.97	2.8811e-05	1.752e-06	247.4	90.626	145.74	65.368	4.5288e-06	39.241	0.022091	0.028285	0.0079324	1221.6	0.00029836	0.0003162	856.75	431.15	0.00029862	0.00031582	365.95	128.52	177.36	77.153	0.00030395	57.088	181.578	250.574	292.052	182.355	279.911	246.479	180.923	187.684	515.554	229.936	184.996	187.417	191.567	195.333	446.225	191.056	-8191	255	
7327.851	1	1	0	0	0.12065	0.054946	0.17894	0.41386	0.2604	0.20832	0.092766	0.16043	0.091699	0.25237	0.071895	0.061045	0.06922	0.4753	0.22118	0.30988	-0.78125	-0.125	-0.56458	-0.96875	-0.15625	-1.0167	-0.4625	-0.38333	-1.0042	-0.2125	-0.51458	-0.85833	-0.17708	-0.96875	-0.52292	-0.22708	190.363	262.479	237.927	438.898	363.300	202.507	477.284	425.641	268.384	288.527	504.991	193.005	233.408	523.193	490.101	389.736	0.00085184	0.0012289	0.00056169	1005.8	1.4269e-05	1.5031e-05	623.85	367.79	2.2995e-05	1.1973e-05	247.28	90.566	146.13	66.827	2.4354e-05	39.943	0.02202	0.028254	0.0079799	1204.6	0.00030069	0.00031886	845.72	429.96	0.0003018	0.0003193	367.28	129.14	178.61	78.503	0.00030566	57.561	524.413	246.647	171.444	182.618	297.202	310.268	180.645	188.032	308.181	330.078	185.090	187.354	191.578	195.090	253.945	190.508	-8191	255	
7327.947	1	1	0	0	0.3527	0.14628	0.17991	0.21139	0.077096	0.022419	0.23995	0.20214	0.095454	0.27754	0.16759	0.17173	0.16828	0.21098	0.070017	0.053521	-0.65625	-0.12083	-0.51875	-0.99167	-0.033333	-0.99375	-0.76458	-0.16875	-0.925	-0.22708	-0.51042	-1.1146	-0.01875	-0.9625	-0.57708	-0.14375	171.711	204.434	298.253	498.927	497.389	513.996	403.358	504.331	476.323	318.308	297.213	441.525	207.598	200.622	452.581	486.852	0.00080315	0.0016343	0.0005548	1009.1	2.662e-05	8.7347e-06	626.59	367.13	1.3345e-05	1.6011e-05	252.91	93.331	147.61	68.178	8.6056e-06	41.043	0.02214	0.028299	0.0079476	1204.7	0.00029944	0.00031808	848.49	429.06	0.0003021	0.00032291	373.83	132.12	180.59	80.103	0.00031257	59.642	195.188	354.332	275.249	182.739	236.417	303.961	181.094	187.779	258.948	322.108	184.891	187.825	191.607	195.305	474.415	190.965	-8191	255	
7328.043	1	1	0	0	0.069252	0.30974	0.2829	0.16826	0.13242	0.33325	0.10087	0.20936	0.1363	0.13265	0.14532	0.11817	0.11953	0.31547	0.17936	0.04676	-0.61042	-0.16875	-0.31458	-1.1	-0.0875	-0.68958	-0.775	-0.21042	-1.1812	-0.22292	-0.31667	-0.98958	-0.2	-0.75833	-0.65	-0.08125	206.940	344.812	240.163	177.685	455.814	461.758	239.084	465.563	304.694	320.106	480.305	260.943	276.407	500.785	259.928	427.660	0.00067972	0.00019017	0.00048886	1011.5	2.0953e-05	3.6584e-06	640.62	367.51	1.0274e-06	2.618e-05	258.26	93.728	148.65	69.389	1.7029e-05	43.152	0.022641	0.028961	0.0081121	1214.4	0.0003045	0.000323	864.1	431.84	0.0003056	0.00032554	378.25	133.5	181.98	81.253	0.00031956	61.661	177.955	507.535	291.310	182.863	296.271	454.367	180.459	187.605	484.367	300.359	184.394	187.639	191.268	195.370	404.291	190.673	-8191	255	
7328.162	1	1	0	0	0.14775	0.2465	0.16843	0.11255	0.071189	0.18565	0.099928	0.15039	0.11288	0.14186	0.38783	0.2336	0.2697	0.035842	0.11755	0.19872	-0.43125	-0.41458	-0.26042	-0.95625	-0.16042	-0.53333	-0.81875	-0.19583	-0.91667	-0.71458	-0.31875	-0.98125	-0.3875	-0.49583	-0.97292	-0.21458	186.825	378.127	429.108	221.346	493.012	203.874	189.006	172.358	466.094	439.370	421.300	512.077	213.537	425.942	233.996	524.119	0.0009699	0.0015141	0.00048216	1019.4	2.0439e-05	1.0467e-05	646.2	372.62	1.7686e-05	1.6275e-05	252.54	91.862	145.46	67.497	2.3433e-05	41.104	0.023388	0.029906	0.0084166	1233.4	0.00031618	0.00033481	877.32	436.82	0.00031354	0.00033252	376.02	132.11	180.03	79.737	0.00031829	59.747	172.940	274.787	275.565	182.434	528.664	370.502	180.853	187.782	285.223	279.015	184.703	187.484	191.341	194.872	223.521	190.566	-8191	255	
7328.258	1	1	0	0	0.40702	0.1411	0.074261	0.19108	0.19058	0.12773	0.062281	0.22197	0.1814	0.12072	0.18435	0.2247	0.19746	0.24444	0.1952	0.26351	-0.46458	-0.55	-0.12083	-1.1729	-0.15	-0.47292	-0.81875	-0.29167	-0.86458	-1.0271	-0.25625	-1.025	-0.47292	-0.58542	-0.88125	-0.15208	341.939	482.868	186.675	488.880	337.755	506.788	259.980	466.167	247.075	176.815	476.182	381.786	504.014	486.878	494.396	447.607	0.00061308	0.0010154	0.00027263	1006.5	2.3048e-06	1.7521e-05	621.94	367.79	8.816e-06	2.542e-05	244.78	90.904	145.94	67.433	1.1261e-05	40.138	0.023153	0.029436	0.0083137	1211.2	0.00031224	0.00033055	850.26	431.21	0.00031091	0.0003301	369.34	130.45	179.47	79.188	0.00031873	58.404	505.192	264.560	306.142	182.583	209.377	291.693	180.811	187.675	206.546	333.698	185.068	187.624	191.678	194.860	328.652	191.470	-8191	255	
7328.354	1	1	0	0	0.12299	0.026622	0.16483	0.17905	0.31424	0.066889	0.24027	0.071306	0.21729	0.11826	0.028329	0.11938	0.052717	0.15687	0.090686	0.28098	-0.34792	-0.6875	0.15208	-1.0229	-0.39375	-0.36667	-1.1313	-0.11875	-0.59375	-0.9375	-0.052083	-0.94375	-0.475	-0.38958	-1.2333	-0.17083	198.534	286.448	428.367	497.783	238.918	257.598	498.774	221.926	327.811	268.567	437.447	192.466	480.531	229.584	338.896	384.376	0.00068147	0.0015428	0.00050256	992.1	1.6586e-05	1.5609e-05	621.48	364.61	1.8654e-05	1.648e-05	246.76	92.25	146.41	68.102	1.2261e-05	41.142	0.023003	0.029347	0.0082323	1200.3	0.00030789	0.00032692	847.35	427.89	0.00030815	0.0003279	370.28	130.99	180.27	79.776	0.00031681	59.561	176.975	344.543	225.031	182.847	316.295	276.165	181.375	187.618	186.740	327.912	184.369	187.658	191.253	194.944	280.870	190.762	-8191	255	
7328.450	1	1	0	0	0.076686	0.22924	0.28052	0.38737	0.24531	0.28364	0.19055	0.1696	0.19641	0.17471	0.20129	0.14034	0.13903	0.32401	0.26708	0.27093	-0.0875	-0.87292	-0.18958	-0.98125	-0.54583	0.0041667	-1.1375	-0.46458	-0.45625	-0.99792	-0.44375	-0.80833	-0.71458	-0.26667	-1.0396	-0.3875	375.431	363.382	189.077	470.680	176.048	313.586	268.989	478.065	271.284	182.281	388.168	469.600	392.346	517.096	433.023	350.195	0.00048521	0.0012892	0.00027904	1000	6.2376e-06	1.9942e-05	633.43	362.96	1.2094e-05	3.6865e-06	251.19	92.855	147.09	68.178	1.0297e-05	42.469	0.023116	0.029577	0.0082803	1211.3	0.00031209	0.00033171	856.36	429.38	0.00031006	0.00032945	374.26	132.96	180.93	80.47	0.00032049	60.783	507.316	346.514	211.578	182.882	294.822	170.760	180.726	187.652	399.378	477.039	184.971	187.813	190.889	195.059	292.284	190.680	-8191	255	
7328.546	1	1	0	0	0.34614	0.20866	0.25611	0.010814	0.20366	0.091426	0.15244	0.12161	0.18817	0.13119	0.2084	0.18688	0.46937	0.22913	0.35012	0.27189	-0.00625	-0.82708	0.054167	-0.79375	-0.71875	-0.08125	-1.1271	-0.42083	-0.11458	-0.93125	-0.12292	-0.94167	-0.85	-0.089583	-0.95833	-0.32708	187.637	326.192	298.495	491.262	433.976	262.247	434.066	458.014	308.995	249.068	176.920	527.588	176.768	478.712	477.400	505.700	0.00083847	0.0015168	0.00057813	1012.5	1.4055e-05	1.849e-05	643.07	369.41	1.599e-05	7.8168e-06	256.56	94.63	148.14	68.927	6.5162e-07	43.074	0.023377	0.029848	0.0083804	1223.9	0.00031444	0.00033413	875.59	435.09	0.00031336	0.00033293	380.38	134.67	182.59	81.037	0.00031896	61.674	171.632	204.565	245.675	182.553	476.089	436.249	180.769	187.740	513.217	455.199	185.240	187.497	191.228	195.084	448.074	190.675	-8191	255	
7328.643	1	1	0	0	0.16148	0.28589	0.16839	0.43978	0.25638	0.40118	0.064426	0.17245	0.12136	0.18383	0.21673	0.099418	0.17922	0.27787	0.041501	0.20485	-0.079167	-0.95833	-0.15833	-0.75833	-0.75417	-0.060417	-1.025	-0.58333	-0.2625	-0.82708	-0.12708	-0.57708	-1.1313	-0.225	-1.0562	-0.54583	339.812	513.228	193.527	175.845	178.630	500.106	341.602	456.019	232.551	494.018	526.370	461.459	523.042	188.072	451.160	478.873	0.00082392	0.0028953	0.0003795	1018.3	1.2185e-05	2.2151e-05	653.44	372.98	4.8628e-06	1.9566e-05	252.94	94.31	147.77	68.404	1.7848e-05	41.178	0.023306	0.029733	0.0083536	1229.5	0.00031374	0.00033214	880.78	437.41	0.00031119	0.00032927	378.08	133.84	181.57	80.283	0.000317	59.468	516.802	219.850	282.122	182.508	350.659	377.680	180.590	187.490	248.690	396.552	184.530	187.577	191.300	195.003	196.143	190.508	-8191	255	
7328.763	1	1	0	0	0.17057	0.087595	0.031136	0.14034	0.2046	0.055585	0.11542	0.13171	0.20031	0.049357	0.097601	0.16484	0.28408	0.040017	0.10185	0.2394	0.19375	-1.1875	-0.14167	-0.68958	-1.0042	-0.097917	-1.0063	-0.8125	-0.15417	-1.0771	-0.43333	-0.54167	-1.125	-0.28958	-0.72917	-0.67708	220.098	302.646	412.701	228.143	281.145	420.804	185.934	467.582	376.798	445.760	394.106	230.540	210.929	294.798	271.833	405.806	0.00045889	0.0012092	5.9691e-05	1003.5	3.7564e-05	8.9246e-06	623.52	364.53	1.3903e-05	1.2751e-05	246.43	91.704	146.92	67.54	1.3258e-05	40.906	0.02288	0.029196	0.0081817	1205	0.00030576	0.00032549	847.71	427.5	0.00030469	0.00032603	368.79	131.17	179.94	79.895	0.0003154	59.34	209.208	260.464	447.316	182.805	187.424	367.446	180.832	187.394	419.085	457.962	184.694	187.669	191.273	194.979	306.141	191.161	-8191	255	
7328.858	1	1	0	0	0.19773	0.24884	0.053939	0.070905	0.09421	0.17064	0.14497	0.21109	0.24399	0.099289	0.21091	0.092065	0.1442	0.35636	0.10224	0.13071	0.15625	-1.0063	-0.45	-0.40208	-1.1083	-0.37917	-0.79167	-0.89583	-0.089583	-0.80208	-0.45833	-0.38542	-1.0312	-0.052083	-0.43333	-1.1729	295.957	178.461	292.709	177.751	336.552	489.264	448.303	515.124	420.977	470.021	204.869	192.718	511.052	463.178	246.856	392.919	0.00059534	0.00089939	0.00028781	1002.1	3.0877e-05	2.4232e-05	624.07	363.5	1.9661e-05	1.4375e-05	247.37	91.743	145.87	67.851	2.5626e-05	41.883	0.022949	0.029229	0.0082277	1205.8	0.00030964	0.00032467	850.97	427.55	0.00030649	0.00032462	369.78	131.58	179.95	79.916	0.00031454	60.021	487.188	428.675	519.032	182.801	259.982	419.647	180.980	187.751	292.670	392.375	184.176	188.146	191.475	194.881	255.619	190.965	-8191	255	
7328.954	1	1	0	0	0.25284	0.045053	0.076376	0.1232	0.19818	0.10841	0.14361	0.16136	0.2135	0.048401	0.12099	0.36547	0.14631	0.27722	0.13281	0.11147	0.25	-0.91458	-0.53125	-0.375	-0.88333	-0.275	-0.7375	-1.1417	-0.13542	-1.0542	-0.8	-0.32708	-1.4021	-0.30208	-0.50833	-1.0333	472.074	245.148	419.729	197.676	480.989	383.342	339.718	503.763	329.413	380.970	528.654	488.433	509.902	509.296	347.330	401.908	0.0006895	0.0024016	0.00013941	1006.3	7.7744e-06	6.4388e-06	636.29	368.64	1.2647e-05	6.5804e-06	254.66	94.732	148.16	68.365	2.4236e-05	42.822	0.022898	0.029318	0.0082366	1213.7	0.00031026	0.00032772	865.82	432.43	0.00030847	0.00032787	375.73	134.08	181.66	80.684	0.00031573	60.928	171.352	202.325	335.655	182.478	399.256	356.927	180.808	187.806	244.971	440.503	184.583	187.808	190.871	195.113	335.039	190.860	-8191	255	
7329.052	1	1	0	0	0.045021	0.16589	0.2924	0.050204	0.3012	0.31299	0.31866	0.1905	0.21629	0.16563	0.16952	0.2642	0.11317	0.23976	0.26365	0.099223	0.36667	-0.67292	-0.89167	-0.16042	-1.1854	-0.525	-0.45	-1.1625	-0.077083	-0.79583	-0.79792	-0.24583	-1.1917	-0.41875	-0.25625	-1.1292	474.558	245.687	331.240	181.009	271.430	250.196	242.545	466.487	352.694	297.188	218.568	481.802	287.220	463.206	182.796	503.119	0.00037472	0.00055681	0.00050175	1012.5	1.6062e-05	2.2036e-05	659.08	371.91	2.1586e-05	2.7247e-05	260.26	97.454	151.03	70.461	2.3695e-05	44.214	0.022857	0.029324	0.0082138	1218.5	0.00031103	0.00032785	881.16	436.43	0.00030872	0.00032875	383.63	137.26	184.9	82.424	0.00031835	62.297	196.602	388.574	240.026	182.206	404.907	313.020	180.466	187.448	210.115	304.494	184.910	187.732	191.048	194.991	305.591	191.096	-8191	255	
7329.146	1	1	0	0	0.082051	0.05137	0.10674	0.20264	0.12708	0.14377	0.26487	0.14855	0.22397	0.10765	0.067283	0.05817	0.2294	0.35361	0.39444	0.28339	0.085417	-0.70833	-0.98125	-0.25625	-0.96458	-0.16042	-0.19375	-1.1104	-0.045833	-0.54167	-1.0167	-0.18333	-1.1354	-0.6375	-0.31042	-1.3354	268.418	282.203	526.016	485.397	335.620	256.185	189.859	312.711	302.762	368.606	480.692	267.699	183.078	489.551	379.781	207.595	0.00059205	0.0021876	0.00051015	1019.8	1.8519e-05	5.4301e-06	654.14	372.82	1.2465e-05	8.0582e-06	257.45	96.438	149.39	69.035	1.6208e-05	42.88	0.023025	0.029463	0.0082001	1222.8	0.00030718	0.00032493	875.43	435.34	0.00030356	0.00032333	376.8	134.38	182.24	80.961	0.00030952	60.485	526.871	336.975	251.112	182.624	277.821	516.069	180.741	187.612	399.346	215.118	184.922	187.890	191.255	195.082	335.022	191.022	-8191	255	
7329.242	1	1	0	0	0.089249	0.32697	0.1983	0.18092	0.089059	0.16284	0.3217	0.22113	0.29127	0.14695	0.028316	0.07645	0.087589	0.1898	0.038593	0.18016	0.12917	-0.43958	-0.83125	-0.085417	-0.87083	-0.67292	-0.16667	-1.0167	-0.21667	-0.45625	-1.0312	-0.25625	-1.0583	-1.0167	-0.25625	-1.1646	173.343	339.271	348.236	462.401	456.979	206.496	480.957	521.419	491.289	297.717	447.391	216.541	328.170	182.442	463.095	482.160	0.00036744	0.001406	0.00019591	1005	2.737e-05	1.4957e-05	639.83	369.31	5.733e-06	2.0074e-05	254.49	96.209	149.51	69.434	5.7853e-06	42.693	0.022516	0.028827	0.0080899	1208.8	0.00030473	0.0003209	862.28	433.24	0.00030309	0.00032266	374.75	134.45	182.29	81.062	0.00031151	60.781	205.140	275.114	338.392	182.455	297.519	305.085	180.714	187.639	379.733	313.225	185.255	187.718	191.610	195.071	226.661	190.749	-8191	255	
7329.338	1	1	0	0	0.29439	0.19147	0.2889	0.20431	0.20113	0.12803	0.18537	0.17185	0.11896	0.077791	0.022936	0.052283	0.45127	0.27783	0.10992	0.0091359	-0.00625	-0.275	-0.88333	-0.26667	-0.59583	-0.74792	-0.22292	-1.0354	-0.375	-0.37917	-1.1104	-0.10833	-0.70417	-0.94583	-0.039583	-1.0958	360.410	428.475	268.311	395.613	260.306	298.157	502.141	457.424	277.955	250.593	270.399	181.892	170.664	513.439	467.861	470.031	0.00067267	0.001219	0.0010122	1017.4	4.6698e-06	1.0523e-05	650.95	372.82	2.0484e-06	1.4446e-05	259.93	98.073	150.72	70.163	1.5038e-05	43.58	0.022538	0.028911	0.008118	1215.1	0.00030432	0.0003235	871.8	435.67	0.00030232	0.0003241	379.77	136.35	183.2	81.618	0.00030917	61.211	511.026	208.497	316.910	182.760	351.311	491.499	180.823	187.963	269.131	189.133	184.693	187.305	191.390	195.282	221.241	190.895	-8191	255	
7329.434	1	1	0	0	0.14904	0.32804	0.26885	0.26227	0.31973	0.18781	0.31134	0.11602	0.090246	0.1325	0.12201	0.23223	0.30589	0.083975	0.18575	0.16766	-0.16042	-0.05	-0.75	-0.095833	-0.40417	-0.74167	-0.14583	-0.95625	-0.29167	-0.083333	-0.92083	-0.17917	-0.66458	-0.96875	-0.08125	-0.66875	496.640	331.232	257.422	488.715	331.900	336.835	472.669	475.726	414.562	416.372	252.968	281.517	194.835	485.790	204.784	496.088	0.00059288	0.00037202	0.00091372	1017.4	3.4762e-05	9.8301e-06	655.4	372.56	2.3551e-05	3.153e-06	264.43	98.244	151.2	70.677	4.4929e-06	44.199	0.02253	0.028743	0.0080767	1218.5	0.00030391	0.00032244	881.61	435.74	0.00030306	0.00032378	382.77	137.93	185.07	82.282	0.00031307	62.264	527.285	477.127	257.657	182.630	278.136	387.732	180.772	187.723	304.965	497.766	184.535	187.525	191.630	195.190	405.519	191.287	-8191	255	
7329.555	1	1	0	0	0.051338	0.27834	0.24537	0.23463	0.2372	0.17324	0.075112	0.22525	0.1068	0.069897	0.040865	0.21641	0.22155	0.19225	0.091124	0.10742	-0.40208	-0.022917	-0.98125	-0.35833	-0.3875	-0.95	-0.32708	-0.77917	-0.41667	-0.10208	-0.99167	-0.2875	-0.53542	-0.94583	-0.13333	-0.90417	370.788	513.728	432.614	524.366	177.913	173.014	512.482	433.009	456.165	309.785	509.047	446.286	232.980	227.054	517.220	202.765	0.00063522	0.001975	9.6671e-05	1021.7	2.0114e-05	1.3414e-05	673.5	374.84	7.6693e-06	3.7996e-05	262.21	98.84	151.96	70.518	9.6212e-06	43.604	0.022673	0.028908	0.0081876	1229.6	0.0003064	0.00032442	894.75	438.9	0.00030656	0.00032437	384.4	137.96	184.64	81.924	0.00031125	61.673	507.973	246.994	432.193	182.257	313.452	467.211	180.570	187.692	501.115	299.148	185.196	187.355	191.492	195.164	442.934	191.386	-8191	255	
7329.651	1	1	0	0	0.16323	0.1905	0.1191	0.20212	0.11021	0.1158	0.11407	0.26708	0.24437	0.050596	0.35979	0.12984	0.13947	0.36672	0.089258	0.11814	-0.50208	-0.097917	-0.85417	-0.50833	-0.0375	-1.0896	-0.20625	-0.78542	-0.675	-0.175	-0.88333	-0.3875	-0.25417	-1.0292	-0.14792	-0.68958	206.514	286.796	269.469	449.766	350.394	523.888	449.046	257.246	389.532	475.131	524.980	382.633	398.599	462.362	510.293	384.387	0.00075308	0.0015399	4.9857e-05	1014.6	1.4774e-05	1.2437e-05	641.63	369.73	4.5295e-06	3.5597e-05	249.25	94.536	147.36	68.424	2.4676e-05	41.28	0.022591	0.0288	0.0080744	1217.2	0.00030277	0.0003208	863.84	431.15	0.000299	0.00031811	368.86	132.57	180.26	79.816	0.00030709	59.37	528.138	323.505	378.971	182.572	278.993	526.772	180.924	187.965	353.140	460.911	184.365	187.443	191.375	194.938	255.206	190.911	-8191	255	
7329.723	1	1	0	0	0.072819	0.16647	0.19289	0.071782	0.12815	0.25451	0.073224	0.065708	0.16161	0.22967	0.12534	0.18326	0.11143	0.12151	0.27029	0.039232	-0.50417	-0.066667	-0.64792	-0.76875	-0.085417	-1.0979	-0.30208	-0.50417	-0.89583	-0.22292	-0.92708	-0.6	-0.2375	-1.125	-0.46875	-0.31042	508.617	457.359	280.679	453.773	438.607	257.242	505.881	501.005	516.988	225.025	506.260	401.380	468.713	235.083	273.038	218.090	0.0009564	0.00060395	0.00049312	1002.3	1.1144e-05	6.0881e-05	636.4	366.73	5.4974e-06	2.8195e-05	250.21	94.056	147.8	68.361	7.527e-06	42.045	0.022329	0.028505	0.0080067	1200.8	0.00030188	0.00031868	853.22	427.92	0.00029817	0.00031764	368.65	132.11	180.2	80.075	0.00030736	59.727	175.736	211.363	201.068	182.559	369.996	306.100	181.099	187.827	221.503	215.000	185.048	187.517	191.522	195.198	335.770	191.574	-8191	255	
7329.844	1	1	0	0	0.16249	0.12224	0.34756	0.2812	0.094367	0.053389	0.21555	0.26668	0.22653	0.08145	0.16541	0.064333	0.11656	0.12839	0.10991	0.16323	-0.62917	-0.1875	-0.87917	-0.84583	0.039583	-0.95833	-0.5375	-0.42917	-1.1187	-0.1625	-0.76875	-0.67083	-0.3	-0.99583	-0.46667	-0.24583	445.088	240.685	348.743	507.218	221.272	501.464	478.097	356.124	207.507	183.201	294.798	416.261	276.222	436.939	472.013	216.008	0.00063765	0.00046394	0.00055762	1003.7	1.6383e-06	1.0655e-05	638.48	368.14	1.8213e-05	4.14e-05	255.94	95.865	149.58	69.253	2.2979e-05	42.9	0.022414	0.028692	0.0080268	1205.5	0.00030167	0.00032005	858.37	430.38	0.00030008	0.0003187	373.61	134.4	181.49	80.875	0.00030988	60.767	515.778	387.019	254.632	182.423	298.811	246.898	180.522	187.744	242.577	430.419	184.853	187.444	191.532	195.407	204.445	190.673	-8191	255	
7329.938	1	1	0	0	0.084228	0.18042	0.036129	0.32506	0.15627	0.25698	0.20211	0.25329	0.11231	0.13857	0.10106	0.24405	0.1254	0.12257	0.042067	0.16623	-0.53333	-0.089583	-0.45417	-1.0208	-0.041667	-0.85208	-0.75417	-0.325	-0.94167	-0.23542	-0.59583	-0.975	0.020833	-1.0417	-0.63958	-0.15833	206.441	178.580	214.763	490.500	380.069	321.813	437.097	505.274	511.875	388.626	179.868	503.541	448.292	474.935	258.914	264.792	0.00081597	0.0022419	0.00068656	1014.4	1.7735e-05	2.6292e-05	653.1	372.51	2.987e-06	3.2905e-06	261.24	97.605	149.93	69.278	5.3777e-06	43.314	0.022613	0.028881	0.008122	1215.7	0.00030512	0.00032327	875.31	434.78	0.00030302	0.0003217	379.56	136.18	182.97	81.117	0.00030868	61.446	526.276	261.273	191.872	182.430	307.524	264.761	180.786	187.648	303.897	240.043	184.488	187.681	191.251	195.260	421.662	191.253	-8191	255	
7330.034	1	1	0	0	0.085079	0.072741	0.30146	0.10744	0.07382	0.23417	0.19269	0.26641	0.11382	0.066044	0.27191	0.15041	0.10637	0.26761	0.10876	0.18976	-0.625	-0.20833	-0.47708	-0.89167	0.035417	-1.0521	-1.0083	-0.23333	-0.78125	-0.46667	-0.1875	-0.94167	-0.31875	-0.99167	-0.6375	-0.23542	177.318	174.834	390.271	227.275	249.840	351.452	414.095	418.313	390.666	225.286	448.513	406.975	172.581	190.979	242.846	513.779	0.0010602	0.0019408	0.00040745	1020.2	1.3495e-05	8.8023e-06	661.02	373.48	7.1584e-06	1.8698e-05	258.92	96.903	148.91	69.478	1.8185e-05	42.782	0.02253	0.028866	0.008076	1222.8	0.00030404	0.0003231	883.27	435.59	0.00030331	0.00032208	378.83	136.16	182.57	81.018	0.0003093	60.423	188.280	242.365	519.142	182.581	238.643	211.106	180.704	187.514	311.585	218.254	184.883	187.617	191.371	195.103	229.529	191.072	-8191	255	
7330.132	1	1	0	0	0.18417	0.17625	0.16119	0.10355	0.16573	0.23463	0.12073	0.21998	0.19866	0.26594	0.11826	0.46934	0.16016	0.22797	0.43304	0.0864	-0.57708	-0.42708	-0.27917	-1.1125	-0.070833	-0.69375	-0.97708	-0.20833	-0.88333	-0.4625	-0.20625	-0.8375	-0.38958	-0.71667	-0.96458	-0.06875	389.405	300.192	441.304	482.892	310.946	495.029	275.936	478.124	369.206	276.557	224.426	494.209	209.650	216.036	336.060	250.274	0.00051891	0.0026029	0.00066243	1007.6	2.7413e-05	1.5236e-05	636.94	365.27	9.4886e-07	1.0683e-05	251.48	95.111	148.34	69.417	1.6619e-05	41.886	0.022391	0.028548	0.007991	1204.6	0.00030032	0.00031744	853.61	427.65	0.00029926	0.00031783	369.16	132.89	181.18	80.919	0.00030761	59.822	197.241	291.584	461.406	182.835	292.753	401.166	180.964	187.763	439.843	175.801	184.826	187.879	191.635	195.155	309.685	190.973	-8191	255	
7330.251	1	1	0	0	0.092432	0.061837	0.099186	0.04901	0.23811	0.052249	0.30493	0.37887	0.21221	0.10824	0.20772	0.10283	0.018851	0.18964	0.11622	0.072885	-0.49375	-0.45833	-0.25417	-1.2563	-0.045833	-0.525	-0.77083	-0.20625	-1.0083	-0.59792	-0.14583	-0.90625	-0.18542	-0.47917	-0.93125	-0.22292	263.788	366.194	444.715	247.919	197.341	330.701	499.353	497.011	446.715	179.408	205.338	438.154	417.649	211.405	397.460	419.138	0.00042495	0.0012353	0.00018056	1004	1.2881e-05	6.416e-06	639.16	365.87	1.3972e-05	1.3376e-05	251.53	94.254	146.5	68.143	1.5192e-05	42.241	0.022372	0.028684	0.008017	1205	0.00030153	0.00031937	853.77	427.65	0.0003003	0.00031676	370.43	132.96	179.67	80.098	0.00030668	59.948	171.383	525.923	300.788	182.787	486.251	269.085	180.936	187.980	232.180	201.044	184.881	187.785	191.037	195.270	338.431	191.370	-8191	255	
7330.347	1	1	0	0	0.13076	0.14236	0.12029	0.31358	0.20917	0.24232	0.13939	0.20221	0.35116	0.080304	0.13839	0.13038	0.37011	0.23007	0.27837	0.047501	-0.31042	-0.54167	0.066667	-0.92917	-0.29792	-0.33125	-1.0354	-0.2	-0.50417	-0.7875	-0.064583	-0.92917	-0.29792	-0.4375	-0.98542	-0.18125	231.561	293.409	513.916	484.130	467.675	422.529	241.214	517.377	409.327	251.907	419.454	475.203	504.845	207.359	444.766	281.986	0.00040829	0.00069062	0.00021928	1005.7	2.2961e-05	1.2342e-05	648.16	371.32	2.2041e-05	1.5999e-05	256.15	96.377	149.29	69.554	1.4817e-05	42.925	0.022285	0.028469	0.0080278	1206.5	0.00030139	0.00032047	865.24	432.15	0.00030123	0.00032017	374.54	134.83	181.7	80.897	0.00030742	60.357	506.986	262.667	315.338	182.590	342.922	376.559	181.008	187.702	301.336	209.155	184.979	188.004	191.544	195.214	242.251	191.684	-8191	255	
7330.443	1	1	0	0	0.24439	0.15746	0.033097	0.25746	0.013135	0.20368	0.12833	0.24369	0.079753	0.24991	0.2318	0.097314	0.29296	0.04332	0.17538	0.21648	-0.15625	-0.79583	0.14583	-0.71667	-0.57083	-0.39792	-1.1688	-0.26667	-0.54792	-0.83333	0.10208	-0.89792	-0.71667	-0.30208	-1.0646	-0.27708	467.039	419.252	404.946	221.990	373.747	453.139	280.281	444.833	196.484	502.817	184.050	367.136	481.709	294.008	258.274	370.242	0.00022321	0.0012221	0.00019539	1015.3	3.3873e-06	2.5296e-05	654.09	367.74	1.1593e-05	1.7205e-05	261.94	98.868	150.81	69.909	1.536e-05	43.391	0.022269	0.028471	0.0079683	1213.3	0.00030077	0.00031956	875.21	431.97	0.00030244	0.00032109	380.2	137	183.42	81.695	0.00031054	61.44	496.279	431.566	433.393	182.830	417.235	198.543	180.854	188.007	266.262	405.731	184.500	188.134	191.835	195.518	292.571	191.700	-8191	255	
7330.539	1	1	0	0	0.10348	0.16987	0.071832	0.086529	0.11712	0.036999	0.18835	0.11978	0.17293	0.21848	0.21884	0.063456	0.32157	0.1377	0.19336	0.29942	-0.1875	-0.90417	-0.16458	-0.75208	-0.58333	-0.072917	-0.96458	-0.475	-0.41042	-0.9875	-0.16875	-0.78125	-0.68958	-0.2125	-0.83958	-0.28333	352.510	366.817	243.965	413.189	294.724	327.961	483.828	506.705	221.452	285.791	450.732	427.541	170.818	388.282	427.464	491.062	0.00081455	0.00071816	0.0012927	1019.7	3.196e-06	1.2422e-05	649.09	366.35	7.9367e-06	2.3317e-05	253.38	95.462	146.94	68.268	3.5925e-06	41.617	0.022437	0.02862	0.0080298	1214.7	0.00030096	0.00031659	870.95	427.84	0.0002967	0.00031454	369.59	132.71	179.01	79.734	0.00030329	59.17	522.550	509.621	251.433	182.805	278.634	492.667	180.560	187.824	277.514	451.745	184.977	187.875	192.094	195.571	251.520	191.166	-8191	255	
7330.635	1	1	0	0	0.0066835	0.14115	0.15634	0.16982	0.26104	0.06087	0.30013	0.13876	0.081306	0.43972	0.15336	0.20431	0.15137	0.26297	0.21954	0.16202	0.066667	-1.1542	0.0625	-0.97292	-0.84167	-0.2375	-1.0042	-0.61667	-0.175	-1.2583	-0.1625	-0.54167	-0.99583	-0.31667	-0.75417	-0.575	487.708	361.676	304.187	193.967	334.798	469.669	330.711	355.066	450.095	438.045	188.137	445.077	472.175	194.875	459.158	261.298	0.00042525	0.0014524	0.00020398	996.32	1.529e-05	3.2692e-05	623.16	362.37	4.4874e-06	1.8506e-05	247.54	92.062	145.16	67.45	1.6137e-05	40.591	0.021939	0.028097	0.0079046	1193.2	0.00029594	0.00031259	842.63	423.24	0.00029432	0.00031069	362.26	129.69	177.54	78.515	0.00029989	58.111	516.406	211.464	330.518	182.602	512.654	381.886	181.042	187.712	322.385	526.194	184.631	187.506	191.293	195.384	513.779	190.910	-8191	255	
7330.732	1	1	0	0	0.3649	0.19133	0.078573	0.43812	0.12969	0.073224	0.22869	0.39969	0.23651	0.13883	0.063265	0.24655	0.37143	0.11927	0.067444	0.47621	0.30833	-1.0417	-0.31042	-0.41458	-0.71458	-0.054167	-0.97083	-0.80208	-0.2125	-1.1875	-0.22292	-0.47917	-0.86875	-0.19375	-0.55625	-0.6875	526.293	220.428	291.870	205.241	382.737	413.730	483.199	445.292	263.140	400.048	527.144	178.354	497.789	526.104	519.547	465.053	0.00051415	0.00050299	0.00034397	996.76	1.9314e-05	5.3903e-06	632.17	363.27	9.6821e-06	2.6646e-06	248.89	93.746	147.42	68.229	1.3707e-05	41.479	0.021819	0.027843	0.007849	1191.1	0.00029529	0.00031462	848.92	424.9	0.00029588	0.00031439	366.12	131.49	179.03	79.716	0.00030255	58.807	209.668	482.697	221.523	182.804	520.420	497.381	181.108	187.958	254.545	438.036	185.054	188.074	191.724	195.313	435.784	191.297	-8191	255	
7330.852	1	1	0	0	0.09229	0.14124	0.28445	0.079477	0.10941	0.063601	0.25001	0.22582	0.10448	0.25548	0.23538	0.15474	0.18733	0.1828	0.039462	0.06741	0.22083	-0.9625	-0.14375	-0.50417	-0.80625	0.070833	-0.66458	-0.89583	-0.18542	-0.94583	-0.36042	-0.39583	-1.0792	-0.13542	-0.67917	-0.75833	278.682	472.395	520.732	218.540	277.058	245.439	460.311	478.512	513.708	511.138	452.957	358.539	210.505	510.404	233.174	180.836	0.00051706	0.0016007	0.00039809	1003.1	1.3281e-05	2.2773e-05	639.89	362.06	1.7228e-05	2.9563e-05	251.71	94.122	147.52	68.142	2.2413e-05	42.039	0.021928	0.028165	0.0078548	1196.9	0.00029499	0.00031365	854	423.92	0.00029513	0.00031407	369.04	132.17	179.12	79.673	0.00030409	59.636	515.867	365.310	442.738	182.860	511.692	262.633	180.997	187.881	344.090	282.044	184.921	187.891	191.368	195.222	411.063	190.544	-8191	255	
7330.947	1	1	0	0	0.083025	0.14758	0.18838	0.13263	0.14684	0.047791	0.12285	0.1089	0.33036	0.14435	0.12935	0.25876	0.13652	0.31977	0.072767	0.17575	0.40417	-0.92708	-0.50208	-0.22917	-0.9625	-0.29583	-0.75	-1.0562	0.029167	-0.9	-0.58958	-0.03125	-1.2542	-0.34375	-0.56042	-0.84583	415.156	389.069	386.772	483.009	445.421	179.084	216.536	441.965	327.050	271.116	204.099	195.382	201.591	493.085	232.114	300.926	0.0006333	0.0017467	0.00054433	1004.4	6.4099e-06	2.9136e-05	648.43	365.35	9.0782e-06	1.9485e-05	253.92	96.123	147.22	68.43	1.854e-05	42.415	0.022019	0.02807	0.0078894	1203.6	0.000299	0.0003153	863.8	426.29	0.00029711	0.00031472	372.36	133.7	179.59	79.845	0.00030394	59.963	511.763	297.089	343.600	182.614	208.178	242.601	180.960	187.945	363.008	183.720	184.242	187.203	191.518	195.045	329.933	191.288	-8191	255	
7331.020	1	1	0	0	0.27256	0.13577	0.17392	0.22674	0.19978	0.11051	0.20226	0.17749	0.34657	0.33527	0.17799	0.24287	0.21544	0.15478	0.23078	0.11893	0.325	-0.83542	-0.68125	-0.26875	-1.0187	-0.11458	-0.47917	-1.0417	-0.072917	-0.73958	-0.78125	-0.05	-1.1167	-0.37292	-0.55	-1.0104	431.669	489.818	262.087	169.815	279.779	371.147	427.743	479.514	237.582	460.234	483.693	492.161	195.012	233.245	529.452	489.285	0.00020417	0.00054623	0.00049095	1003.6	1.0038e-05	1.0973e-05	644.25	364.09	1.5881e-05	1.4328e-05	248.35	93.36	146.15	67.332	8.9104e-06	40.582	0.022011	0.028241	0.0079046	1203.2	0.00029703	0.00031548	859.38	425.64	0.00029554	0.00031351	363.63	130.57	177.82	78.75	0.00030124	58.116	505.016	363.814	435.778	182.640	476.380	401.689	181.079	187.448	513.461	463.653	184.274	187.550	191.596	195.289	299.840	191.116	-8191	255	
7331.115	1	1	0	0	0.19136	0.29486	0.14215	0.12093	0.041731	0.077147	0.1262	0.070296	0.30669	0.28183	0.16164	0.15067	0.14635	0.29043	0.18067	0.14034	0.15417	-0.68125	-0.77083	-0.16042	-0.98333	-0.49167	-0.35625	-0.825	-0.15208	-0.56875	-0.8	0.025	-0.97917	-0.70417	-0.27708	-0.96458	299.344	306.470	516.679	516.069	494.283	189.422	463.324	258.253	264.356	407.679	495.078	485.079	504.706	443.103	203.849	191.620	0.00067627	0.00073785	0.000909	995.99	2.4887e-05	1.6748e-05	629.3	361.42	4.4111e-06	2.5399e-05	245.53	92.233	145.57	67.252	1.7037e-05	40.91	0.021843	0.027922	0.0078404	1189.1	0.00029561	0.00031125	839.67	422.12	0.00029502	0.00031258	363.11	130.4	177.81	78.749	0.00030132	58.254	176.881	502.978	339.433	182.569	250.553	500.066	181.022	187.875	220.197	400.395	184.359	188.399	191.540	195.386	455.249	190.890	-8191	255	
7331.235	1	1	0	0	0.027866	0.17544	0.15495	0.12583	0.15351	0.35437	0.14851	0.11934	0.11572	0.10684	0.14044	0.28698	0.07116	0.39977	0.077618	0.39805	0.15	-0.5125	-0.87917	-0.0875	-0.80625	-0.58333	-0.225	-1.175	-0.15833	-0.52083	-1.0229	-0.1125	-0.88125	-0.95625	-0.30833	-1.05	517.601	225.381	507.406	472.405	510.600	351.051	385.216	460.594	482.260	204.669	479.515	228.898	344.172	472.285	312.043	178.052	0.00036777	0.00070285	0.00030034	991.16	2.8529e-05	5.7462e-06	631.86	363.26	4.0246e-06	2.9751e-06	249.28	94.586	146.48	67.832	1.9053e-05	41.981	0.021826	0.02793	0.0078437	1187.7	0.00029532	0.00031272	847.26	423.42	0.00029457	0.00031409	366.41	132.27	178.88	79.308	0.00030464	59.264	193.991	476.545	469.123	182.671	358.620	208.822	181.032	187.702	440.718	280.562	184.655	187.710	191.809	195.399	321.700	191.270	-8191	255	
7331.331	1	1	0	0	0.24205	0.25675	0.18923	0.19292	0.078806	0.32776	0.12289	0.045776	0.014657	0.10783	0.097149	0.092121	0.098868	0.1415	0.092633	0.18771	0.27917	-0.0875	-0.92917	-0.12292	-0.65625	-0.81875	-0.13333	-0.96875	-0.36458	-0.30833	-0.88958	-0.30833	-0.71042	-0.94375	-0.10625	-1.0312	207.566	194.412	452.417	171.213	453.891	505.918	376.101	408.948	517.357	349.787	523.250	471.271	212.285	430.376	331.028	407.413	0.00038222	0.00026007	0.00057458	995.27	4.7013e-06	3.65e-06	644.63	365.35	1.5185e-05	1.3761e-05	252.8	94.791	147.57	68.477	2.6521e-05	42.593	0.021942	0.028053	0.0078995	1194.1	0.00029671	0.00031234	857.54	424.48	0.00029586	0.00031472	369.54	133.31	179.52	79.747	0.00030532	60.32	184.859	529.093	297.278	182.778	272.215	177.769	180.484	187.753	245.109	296.943	184.882	187.933	191.933	195.416	274.614	191.488	-8191	255	
7331.427	1	1	0	0	0.13972	0.40629	0.04589	0.39536	0.21219	0.18234	0.19462	0.11157	0.31103	0.20603	0.34387	0.22904	0.23964	0.25262	0.079882	0.12893	0	-0.125	-0.98125	-0.24583	-0.63542	-1.0854	-0.20833	-0.96667	-0.60833	-0.21667	-1.1583	-0.275	-0.7625	-0.94375	-0.11875	-0.9625	431.948	308.529	199.972	504.000	227.552	354.791	489.982	513.043	211.259	422.973	504.563	435.198	200.016	240.656	374.562	207.714	0.00058467	0.00047602	0.00070468	1013.2	1.6873e-06	2.1841e-05	651.1	370.76	2.4971e-05	3.0589e-05	257.05	97.242	148.44	68.628	1.1618e-05	41.88	0.022274	0.028623	0.0080077	1211.4	0.00030168	0.00031866	872.82	433.12	0.00029958	0.00031787	375.49	134.79	180.54	79.943	0.00030458	59.627	514.443	330.644	217.441	182.520	297.506	333.236	181.329	187.874	291.420	417.133	184.850	188.115	191.861	195.461	295.655	191.335	-8191	255	
7331.524	1	1	0	0	0.083863	0.11046	0.065899	0.29021	0.14751	0.13665	0.35652	0.28026	0.21537	0.20651	0.23509	0.26257	0.159	0.20661	0.17982	0.32038	-0.36458	-0.25417	-1.0896	-0.475	-0.34792	-1.0146	-0.075	-1.0479	-0.69167	-0.29375	-1.2146	-0.30208	-0.50417	-1.0312	-0.16667	-0.875	271.447	442.841	454.962	425.053	327.880	413.617	476.184	496.404	424.335	334.121	262.392	495.990	236.762	477.862	341.277	192.573	0.00066475	0.0015748	0.00063035	1002.4	9.272e-06	8.0326e-06	631.31	362.3	2.061e-06	2.049e-05	247.65	93.369	146.18	67.381	1.8786e-05	40.699	0.022075	0.028219	0.0079029	1197.3	0.00029766	0.00031363	848.35	424.19	0.00029371	0.00031418	363.78	130.84	177.82	78.722	0.00030064	57.935	194.586	337.311	419.705	182.731	527.303	356.056	180.908	188.134	346.841	395.757	185.393	188.316	191.675	195.560	459.765	191.460	-8191	255	
7331.620	1	1	0	0	0.0094737	0.13247	0.1474	0.14603	0.15439	0.11794	0.14902	0.13295	0.26055	0.064155	0.27485	0.17162	0.36024	0.25524	0.18494	0.089346	-0.5375	-0.11667	-0.73958	-0.61042	-0.40625	-1.075	-0.21042	-0.77917	-0.675	-0.15417	-0.99167	-0.47708	-0.30625	-1.2042	-0.0875	-0.50833	509.356	217.609	213.595	438.639	261.565	418.587	527.828	411.191	289.105	383.487	429.387	477.396	208.156	478.835	522.736	201.053	0.00032491	0.0015656	0.00083714	989.4	2.0785e-05	2.8769e-05	619.05	361.24	6.0055e-06	3.0004e-05	247.93	92.294	145.7	67.247	1.0181e-05	40.823	0.0218	0.027783	0.0077974	1183.3	0.00029326	0.00031019	834.81	419.92	0.00029128	0.00031087	360.72	129.43	177.26	78.501	0.00030082	58.088	180.703	433.498	293.560	182.971	234.627	266.334	181.168	188.337	282.084	419.676	184.338	188.214	191.519	195.531	304.138	191.310	-8191	255	
7331.716	1	1	0	0	0.014702	0.18766	0.15339	0.036971	0.19666	0.19183	0.091453	0.1698	0.13	0.19282	0.080034	0.21366	0.45601	0.35157	0.15613	0.21277	-0.55417	-0.1875	-0.9	-0.59792	-0.30208	-1.0292	-0.33958	-0.75	-0.90417	-0.0875	-0.95833	-0.7625	-0.33125	-1.1792	-0.39792	-0.53333	203.071	324.925	429.197	440.414	300.176	331.182	440.856	439.078	395.372	524.065	366.362	393.307	476.777	182.835	299.152	206.635	0.00077157	0.0010495	0.00046308	987.41	9.2573e-06	1.6826e-05	626.37	358.97	2.1213e-05	2.2807e-05	246.91	92.97	145.99	67.058	1.493e-05	41.76	0.021792	0.027872	0.0077845	1182.3	0.00029333	0.00030824	839.71	418.89	0.00029176	0.0003077	361.62	130.12	176.64	78.488	0.00029817	58.657	188.253	174.360	478.495	182.825	433.484	290.227	181.385	188.189	175.827	347.391	185.417	188.020	192.112	195.901	491.850	191.394	-8191	255	
7331.812	1	1	0	0	0.15163	0.22403	0.22668	0.077342	0.20189	0.16386	0.19219	0.12545	0.12712	0.2681	0.29707	0.22364	0.16427	0.2356	0.15328	0.23509	-0.48542	-0.12083	-0.7875	-0.7125	-0.0125	-0.94375	-0.37083	-0.57917	-1.0021	-0.15208	-0.93542	-0.85208	-0.027083	-1.3271	-0.39583	-0.46875	232.871	407.698	315.254	504.916	424.116	380.214	523.609	430.034	385.603	179.092	494.218	193.789	258.174	326.422	367.778	523.034	0.00096384	0.0013593	0.00057511	995.16	1.9386e-05	2.5326e-05	646.64	364.07	1.4197e-05	3.7457e-05	254.47	94.54	146.55	67.774	1.712e-05	42	0.021746	0.02792	0.0078456	1191.3	0.0002947	0.0003126	857.2	424.42	0.00029229	0.00031264	368.49	132.23	178.3	79.125	0.00030222	59.233	173.315	260.092	266.742	182.693	363.581	413.829	181.234	187.851	209.422	346.953	185.046	188.187	191.716	195.785	464.769	191.216	-8191	255	
7331.933	1	1	0	0	0.22763	0.19635	0.15552	0.10334	0.20595	0.33939	0.36804	0.063436	0.13852	0.059838	0.55251	0.31424	0.31996	0.15937	0.3365	0.12395	-0.81042	-0.17917	-0.5125	-1.0146	-0.039583	-0.89583	-0.57292	-0.31458	-1.0187	-0.40625	-0.60208	-1.0208	-0.17292	-1.025	-0.52083	-0.29792	342.814	374.865	487.717	511.422	199.011	214.298	501.796	201.082	474.443	416.238	511.462	176.125	478.318	498.416	330.903	276.084	0.00044424	0.0016296	0.00046933	1011	9.3458e-06	1.0727e-05	647.55	364.41	1.9677e-05	3.8443e-05	252.44	94.892	147	68.31	4.8497e-06	41.107	0.021874	0.027978	0.007848	1199.4	0.00029496	0.00031281	861.23	426.38	0.00029488	0.00031396	368.57	132.29	178.77	79.501	0.00030032	58.447	180.877	466.550	337.415	182.715	273.958	314.152	181.381	187.906	402.440	384.617	185.551	187.968	191.724	195.699	453.238	191.845	-8191	255	
7332.027	1	1	0	0	0.042937	0.11994	0.089183	0.12028	0.15713	0.072649	0.12145	0.19429	0.35324	0.1129	0.12341	0.31781	0.23054	0.19304	0.17755	0.26436	-0.74792	-0.41667	-0.49583	-1.15	-0.11667	-0.99167	-0.76042	-0.29375	-0.9875	-0.27917	-0.51875	-1.0708	-0.16667	-0.80625	-0.76042	-0.16667	182.016	242.597	297.255	337.121	406.927	392.855	435.827	427.365	290.473	475.414	473.025	400.957	504.491	504.499	301.984	421.981	0.00093632	0.0015973	0.00011955	984.94	8.9182e-06	1.1716e-06	615.23	357.89	9.8127e-06	2.9649e-05	240.53	89.979	142.96	66.415	1.3812e-05	39.93	0.021794	0.027785	0.0077913	1178.7	0.00029209	0.0003079	827.46	415.71	0.00028953	0.00030657	354.28	127.05	174.32	77.612	0.00029568	56.922	178.501	216.851	247.138	182.730	341.542	367.766	180.594	188.001	225.373	306.443	184.431	188.201	191.907	195.541	289.153	191.083	-8191	255	
7332.123	1	1	0	0	0.072892	0.13536	0.055338	0.23214	0.16329	0.13006	0.076011	0.13863	0.17663	0.10413	0.052637	0.31656	0.058706	0.19488	0.14537	0.31726	-0.48333	-0.17708	-0.38958	-1.1354	-0.18125	-0.58125	-0.81042	-0.14583	-0.96667	-0.40833	-0.27083	-1.1729	-0.14792	-0.75417	-0.8375	-0.08125	311.001	382.676	450.231	452.299	370.339	369.748	389.283	399.085	406.890	197.187	390.764	506.285	202.025	236.044	501.430	391.447	0.00075408	0.0024161	0.00083498	986.52	9.6583e-06	7.7657e-06	613.78	354.72	1.8633e-05	2.5661e-06	240.59	89.305	141.74	65.596	8.9272e-06	39.879	0.021417	0.027459	0.0077078	1173.2	0.00028758	0.00030578	825.09	413.07	0.00028779	0.00030402	352.79	125.92	172.7	76.74	0.00029416	56.795	177.151	226.461	326.915	182.781	252.687	366.060	180.579	187.952	450.699	192.615	185.077	187.667	192.009	195.753	316.668	191.604	-8191	255	
7332.244	1	1	0	0	0.28638	0.1404	0.17072	0.080617	0.34423	0.1123	0.12121	0.2586	0.20595	0.038948	0.099978	0.079678	0.24488	0.046316	0.31863	0.24662	-0.50208	-0.44375	-0.10833	-0.98542	-0.29167	-0.6625	-1.125	-0.3375	-0.925	-0.73125	-0.23333	-1.1208	-0.45625	-0.65	-1.1187	-0.15208	397.049	500.333	243.953	451.541	346.214	181.196	515.208	496.969	189.537	221.924	413.290	356.306	182.816	447.097	263.287	452.563	0.00076052	0.00077751	0.0003669	983.76	1.6524e-05	2.0904e-05	623.62	358.37	9.1878e-06	8.3324e-06	244.8	91.517	145.02	66.871	2.0518e-05	40.821	0.021454	0.027394	0.0077311	1177.3	0.00029162	0.00030981	835.08	418.83	0.00029212	0.0003091	360.28	128.61	175.88	78.168	0.00029904	57.816	186.325	458.517	172.830	182.845	239.807	294.421	181.450	187.995	493.059	522.450	185.025	188.279	191.803	195.912	181.302	191.192	-8191	255	
7332.316	1	1	0	0	0.089766	0.15084	0.19474	0.1501	0.31613	0.066323	0.30005	0.24463	0.085718	0.13808	0.029801	0.29143	0.35137	0.15511	0.10732	0.13716	-0.63958	-0.76458	-0.039583	-1.1437	-0.37917	-0.475	-1.1021	-0.24167	-0.78125	-0.80208	-0.15833	-1.1292	-0.44583	-0.55	-1.1354	-0.1375	205.457	314.153	312.334	228.307	173.103	458.577	422.999	489.181	430.898	346.285	187.728	517.222	459.820	188.454	342.250	382.770	0.00088264	0.0021491	0.0002563	992.04	6.0886e-06	1.2799e-05	634.37	360.54	1.6231e-05	1.3043e-05	248.34	93.711	144.64	68.108	8.297e-06	42.11	0.021574	0.027561	0.0077671	1184.4	0.00029148	0.00030956	845.29	421.02	0.00029157	0.00030912	364.89	130.59	176.8	79.089	0.0002991	59.031	519.841	272.817	234.850	182.909	288.115	176.918	181.142	187.902	173.662	420.557	184.950	188.355	191.920	195.899	287.644	191.544	-8191	255	
7332.412	1	1	0	0	0.17159	0.25612	0.15812	0.17032	0.14892	0.27826	0.36274	0.46521	0.10087	0.069005	0.1313	0.12735	0.27993	0.14979	0.1063	0.027363	-0.27083	-0.73958	-0.0020833	-1.0417	-0.4375	-0.45417	-1.0208	-0.34792	-0.37708	-0.79792	-0.064583	-0.9375	-0.57917	-0.17708	-1.1333	-0.066667	416.331	296.710	346.242	205.733	305.108	392.411	428.036	483.856	203.457	262.326	307.163	468.545	459.785	508.792	346.043	221.195	0.00067243	0.001121	0.00048376	1003.4	1.9281e-05	1.6323e-05	638.43	361.82	1.6855e-05	2.7459e-05	245.57	90.214	142.95	66.405	7.4092e-06	40.157	0.021814	0.027745	0.0077919	1192.5	0.00029128	0.00031012	846.99	418.65	0.00028894	0.00030754	358.92	127.61	174.73	77.659	0.00029632	56.975	172.402	210.122	321.582	182.879	178.691	180.977	181.143	187.998	412.123	194.550	185.346	188.238	192.352	195.942	298.086	191.182	-8191	255	
7332.532	1	1	0	0	0.18523	0.21121	0.16333	0.11623	0.034145	0.16346	0.21483	0.14384	0.063946	0.12069	0.22405	0.25062	0.14341	0.23332	0.22195	0.083028	-0.1875	-0.78333	-0.10833	-1.05	-0.46667	-0.20208	-0.9625	-0.38125	-0.51042	-0.98125	-0.12708	-0.75417	-0.78958	-0.30625	-0.99375	-0.45625	397.202	192.649	312.568	427.910	189.585	461.083	523.552	476.668	217.704	401.010	423.799	518.796	529.871	442.333	381.401	492.280	0.00085969	0.0030408	0.00012473	986.25	1.6031e-05	6.598e-06	612.88	354.7	1.6316e-05	1.5288e-05	239.24	88.913	142.23	65.621	1.5548e-05	39.583	0.021417	0.02741	0.007676	1175.6	0.00028645	0.00030591	821.53	412.93	0.00028577	0.00030414	352.37	125.42	173.05	76.746	0.00029292	56.316	178.331	271.781	292.368	182.428	265.199	450.786	181.448	188.073	319.726	255.649	185.786	188.235	191.870	195.975	432.531	191.303	-8191	255	
7332.628	1	1	0	0	0.24169	0.12334	0.20678	0.099218	0.27226	0.11398	0.13712	0.23106	0.20088	0.092369	0.31243	0.16344	0.16142	0.27178	0.14301	0.062399	0.16042	-1.0312	-0.12292	-0.91667	-0.65	-0.0041667	-0.97917	-0.43542	-0.10625	-0.96042	-0.23333	-0.73125	-0.9625	-0.23958	-0.77083	-0.42083	317.681	491.962	436.899	454.559	458.619	406.066	486.063	394.391	280.499	523.050	220.309	505.636	413.991	201.747	442.269	420.791	0.00069517	0.0021837	0.00032702	982.94	2.0895e-05	2.1318e-05	622.37	357.05	1.8883e-05	2.3549e-05	241.87	90.413	143.65	66.542	1.2032e-05	40.064	0.02126	0.027294	0.007666	1174.6	0.00028691	0.00030613	827.84	415.7	0.00028763	0.00030515	355.69	127.21	174.22	77.366	0.00029393	57.073	483.188	263.055	475.083	183.016	354.185	203.946	181.566	188.026	274.781	286.984	185.064	188.423	191.947	195.802	371.830	191.181	-8191	255	
7332.725	1	1	0	0	0.081368	0.24696	0.11117	0.052965	0.30317	0.13702	0.095119	0.18948	0.15237	0.11699	0.2893	0.23753	0.27316	0.24064	0.010395	0.11463	0.18333	-0.96042	0.06875	-0.84792	-0.70833	0.047917	-0.95	-0.68333	-0.11042	-1.0938	-0.20833	-0.59375	-1.0896	-0.27917	-0.82292	-0.74792	427.762	266.003	236.159	212.570	275.618	171.051	495.450	191.758	430.218	170.557	190.247	172.825	442.932	482.713	210.472	377.338	0.00081182	0.0013331	0.00021993	992.74	1.5531e-05	1.2163e-05	629.77	357.76	3.389e-06	1.7231e-05	246.53	92.211	145.51	67.86	1.5099e-05	41.772	0.021343	0.027275	0.0076863	1181.1	0.00028801	0.00030662	839.22	417.38	0.00028863	0.00030702	361.19	129.45	177.23	78.991	0.00029823	58.641	171.296	317.667	275.123	183.051	390.202	460.087	181.495	187.873	249.375	442.214	185.104	188.085	192.347	195.997	260.663	191.648	-8191	255	
7332.821	1	1	0	0	0.43701	0.051988	0.026367	0.36135	0.18694	0.084742	0.18448	0.18045	0.10895	0.23608	0.23859	0.13382	0.25951	0.12708	0.23539	0.34142	0.039583	-1	-0.14792	-0.38542	-0.94583	-0.05625	-0.77917	-0.70417	-0.19167	-1.075	-0.43958	-0.34583	-0.9625	-0.25	-0.5375	-0.89167	214.325	403.990	233.074	502.450	337.357	430.229	478.839	524.679	363.062	423.134	255.039	446.890	487.287	215.285	364.466	497.164	0.0011971	0.0011776	0.0002014	1005.9	3.7183e-05	6.452e-06	647.56	362.36	1.8229e-05	7.7903e-06	252.57	94.512	147.99	68.869	5.6183e-06	42.613	0.021666	0.027758	0.0077488	1194.7	0.00029216	0.00030877	856.27	423.5	0.00029203	0.00030943	368.22	131.75	179.23	79.981	0.00030092	59.833	172.100	290.747	436.926	182.766	358.942	243.645	180.717	188.065	406.471	182.593	184.813	187.839	191.958	195.868	379.275	191.583	-8191	255	
7332.917	1	1	0	0	0.30712	0.20283	0.24139	0.38308	0.13279	0.089586	0.31768	0.38171	0.33051	0.11939	0.19055	0.17859	0.33704	0.13404	0.23013	0.20642	0.34792	-0.95833	-0.38125	-0.22708	-1.0479	-0.19792	-0.75833	-0.89583	-0.01875	-0.86667	-0.65208	-0.30417	-1.1208	-0.40833	-0.65	-0.76875	185.825	211.599	520.441	193.967	420.707	198.756	458.313	456.123	223.882	474.526	451.900	211.278	488.201	396.836	201.344	179.405	0.00077952	0.001344	0.00049455	1005.4	9.3289e-06	3.9302e-06	638.8	365.38	1.1055e-05	2.1187e-05	247.98	91.548	146.09	67.532	9.6271e-06	40.7	0.021977	0.027979	0.0079186	1200.8	0.00029449	0.00031132	852.45	424.68	0.00029305	0.00030863	362.81	128.84	177.15	78.695	0.00029538	57.538	519.608	275.321	202.237	183.178	505.366	251.955	181.258	188.017	322.875	280.438	184.369	188.227	192.013	195.961	170.243	191.479	-8191	255	
7333.011	1	1	0	0	0.079853	0.2185	0.16125	0.3601	0.21223	0.13253	0.12139	0.28869	0.43131	0.18156	0.16023	0.26875	0.35073	0.27609	0.05629	0.062643	0.4125	-0.90208	-0.38958	-0.44583	-0.84167	-0.31875	-0.41458	-0.99792	-0.083333	-0.94583	-0.79792	-0.19167	-1.0646	-0.25208	-0.28125	-0.96875	359.460	306.849	294.354	524.408	453.451	239.908	517.221	429.108	452.581	503.190	522.444	179.301	483.475	486.104	308.084	210.868	0.00056828	0.0005984	0.00073369	995.66	1.7551e-05	7.2892e-06	625.96	359.29	2.8691e-05	1.5959e-05	243.71	90.265	144.77	67.22	1.5032e-05	40.573	0.021471	0.027353	0.0076981	1179.7	0.00028815	0.00030469	831.75	418.19	0.00028771	0.00030537	357.99	127.44	176.31	78.501	0.00029626	57.425	508.774	381.956	274.035	183.031	359.321	235.743	181.035	188.022	245.317	352.806	185.310	188.152	192.166	195.894	240.255	191.351	-8191	255	
7333.107	1	1	0	0	0.11715	0.1315	0.17479	0.28931	0.18265	0.34797	0.019148	0.056785	0.24407	0.383	0.26494	0.069625	0.25724	0.20644	0.12643	0.11574	0.24583	-0.77292	-0.49375	-0.38125	-0.98958	-0.3625	-0.42708	-1.2062	-0.19792	-0.72083	-0.83125	-0.054167	-1.1875	-0.47917	-0.11875	-1.0812	365.371	393.689	498.906	518.062	349.061	500.139	496.144	458.433	504.031	390.735	514.933	378.374	502.260	474.000	414.457	245.361	0.000789	0.0029249	0.00082059	992.3	1.6574e-05	2.2219e-05	622.9	360.07	1.0435e-05	1.4446e-06	245.71	92.31	146.22	67.903	1.6317e-05	41.19	0.021485	0.027415	0.0076717	1181.7	0.00028986	0.00030784	835.89	419.62	0.0002899	0.00030863	360.96	129.1	177.14	79.161	0.00029655	58.24	492.943	296.422	253.846	183.236	304.264	254.039	181.555	188.360	294.424	456.552	185.503	188.513	192.265	196.061	286.549	191.280	-8191	255	
7333.205	1	1	0	0	0.17124	0.16694	0.049531	0.070135	0.11421	0.1634	0.21343	0.44912	0.096107	0.17106	0.40264	0.11811	0.062461	0.16723	0.074503	0.032263	0.3875	-0.6625	-0.72708	-0.04375	-0.98958	-0.78542	-0.5875	-1.0542	-0.29375	-0.57292	-1.0208	0.125	-0.96667	-0.63958	0.0125	-1.0958	391.189	353.755	437.759	438.675	216.839	327.207	423.596	489.425	441.748	173.044	503.293	522.100	368.190	216.554	269.441	391.711	0.00050706	0.0018108	0.0004238	994.61	1.6787e-05	4.7996e-06	639.84	361.39	1.2201e-05	1.6287e-05	248.52	92.947	146.89	68.243	1.9931e-05	42.061	0.021518	0.027539	0.00771	1188.4	0.00029127	0.00030908	847.43	421.94	0.00029068	0.0003106	363.89	130.15	178.14	79.465	0.00030027	59.241	512.997	493.681	220.268	182.973	407.968	289.676	181.476	188.277	274.666	455.188	185.572	188.536	192.357	196.344	376.001	192.062	-8191	255	
7333.324	1	1	0	0	0.096875	0.15151	0.089826	0.41012	0.038505	0.024782	0.29118	0.2416	0.21737	0.12477	0.24553	0.19231	0.39391	0.31353	0.04462	0.25887	0.14583	-0.43958	-0.9	-0.15	-0.93958	-0.81458	-0.23958	-1.1271	-0.425	-0.22083	-0.87292	-0.275	-0.8	-0.75833	-0.08125	-0.97083	403.082	393.161	438.338	413.381	329.533	177.266	431.044	497.476	445.212	426.291	397.064	330.302	172.044	498.021	508.670	195.672	0.00085468	0.0026984	0.00068121	1000.5	5.8597e-06	5.9891e-06	647.2	365.16	2.0613e-05	6.4856e-06	252.53	93.779	147	68.233	1.5042e-05	41.836	0.021839	0.027941	0.0078322	1197.1	0.00029448	0.00031191	860.55	425.06	0.00029502	0.00031178	368.97	131.17	178.68	79.453	0.00030089	59.121	177.386	278.801	311.555	182.977	396.583	479.517	181.281	188.251	218.727	284.454	184.757	188.488	192.161	195.562	397.864	191.251	-8191	255	
7333.420	1	1	0	0	0.091486	0.1767	0.32397	0.52613	0.10715	0.14448	0.16789	0.39469	0.19458	0.097595	0.19774	0.07533	0.053806	0.24469	0.4613	0.038995	-0.05625	-0.24792	-0.95833	-0.21458	-0.63125	-0.83333	-0.17292	-1.1229	-0.49375	-0.18125	-0.9875	-0.1625	-0.59167	-0.975	-0.085417	-0.74167	491.107	521.910	316.106	491.701	339.012	468.151	524.918	495.120	185.275	320.750	527.144	261.180	173.331	179.501	511.219	426.398	0.00049374	0.0013635	0.00029031	999.76	2.0559e-05	2.9986e-06	624.61	360.84	2.6672e-06	6.4058e-06	242.51	90.362	145.17	67.29	1.189e-05	39.703	0.021596	0.027847	0.0077642	1189.8	0.00029207	0.00030785	837.35	420.62	0.00028862	0.0003072	356.94	127.08	175.76	78.289	0.00029378	56.819	497.950	342.984	299.339	183.138	354.595	515.471	181.074	188.019	331.250	410.896	184.461	187.867	191.954	195.584	509.928	191.342	-8191	255	
7333.517	1	1	0	0	0.42514	0.14236	0.0041477	0.29552	0.26929	0.12491	0.33714	0.094039	0.17295	0.09779	0.089426	0.10161	0.23395	0.29872	0.15179	0.11034	-0.30208	-0.066667	-0.95	-0.20417	-0.42292	-0.93542	0	-1.0167	-1.0187	-0.31875	-1.0562	-0.17083	-0.64792	-0.9875	0.072917	-0.78125	319.640	260.128	481.150	486.263	264.687	446.973	172.925	215.497	348.375	183.239	469.813	223.206	216.189	179.803	403.672	428.645	0.00063764	0.00095077	0.00029047	986.89	8.6015e-06	2.0098e-05	612.91	360.63	1.2805e-05	2.5484e-05	241.08	90.247	144.82	67.192	5.3367e-06	40.305	0.021383	0.027415	0.0076779	1175.4	0.00028824	0.00030672	826.57	417.85	0.00028841	0.00030604	355.75	127.24	175.8	78.314	0.00029477	57.23	508.760	261.287	226.509	182.581	281.922	308.519	180.807	187.925	298.138	404.934	184.770	187.694	191.628	195.463	470.393	191.247	-8191	255	
7333.613	1	1	0	0	0.12941	0.11517	0.28705	0.26624	0.16583	0.052039	0.21089	0.033825	0.1239	0.070596	0.28109	0.39592	0.30077	0.32966	0.14921	0.062403	-0.3625	0.039583	-0.7625	-0.36042	-0.26667	-0.97917	-0.075	-0.74375	-0.56458	0.022917	-1.0354	-0.45208	-0.35	-1.0583	-0.08125	-0.66667	441.377	384.202	350.264	407.046	344.648	342.204	491.772	209.062	268.142	308.321	486.794	458.277	429.570	482.389	308.711	439.077	0.00065465	0.0023903	0.00045506	989.68	1.1157e-05	1.0656e-05	623.55	357.99	9.173e-06	2.3357e-05	244.53	90.641	144.89	67.653	3.2222e-06	41.362	0.021393	0.027312	0.0076791	1176.4	0.00028728	0.00030579	832.85	417.66	0.00028854	0.0003059	358.06	127.81	176.17	78.693	0.00029632	58.046	222.090	483.805	439.527	182.382	250.353	326.412	181.161	187.902	251.518	323.490	184.765	187.819	191.522	195.743	369.916	190.958	-8191	255	
7333.709	1	1	0	0	0.33071	0.10474	0.12051	0.18007	0.21829	0.1869	0.29741	0.20166	0.43712	0.20706	0.27887	0.018157	0.093138	0.18882	0.37887	0.40999	-0.33333	-0.027083	-0.75625	-0.5625	-0.15625	-1.0583	-0.28125	-0.7	-0.68542	0.058333	-0.93333	-0.67917	-0.23958	-1.0833	-0.14583	-0.73333	178.602	273.456	407.479	498.243	184.387	349.837	360.349	459.015	400.528	320.677	494.144	402.280	207.235	172.492	301.993	311.779	0.00055032	0.0012262	0.00059462	997.25	8.0673e-06	1.127e-05	640.04	359.69	9.5461e-06	4.1526e-05	248.64	92.782	146.8	68.269	7.3316e-06	42.151	0.021626	0.027544	0.0077168	1185	0.00028989	0.00030689	846.41	420.9	0.00028976	0.00030656	363.58	129.42	177.91	79.429	0.0002984	59.176	189.374	292.638	380.852	182.558	246.991	312.069	180.568	187.780	266.410	368.473	185.209	188.229	191.881	196.165	425.457	191.542	-8191	255	
7333.805	1	1	0	0	0.17431	0.24549	0.23263	0.42565	0.10441	0.32609	0.082447	0.23344	0.17045	0.24391	0.034459	0.13904	0.16749	0.11022	0.040027	0.18987	-0.53958	0.04375	-0.81042	-0.78958	-0.14375	-0.99167	-0.28125	-0.54167	-1.0333	-0.14792	-0.76458	-0.78333	-0.25	-1.1583	-0.40625	-0.2125	453.149	366.008	354.516	528.090	411.846	341.454	205.560	440.193	193.527	348.701	365.161	298.121	464.480	253.697	322.502	181.944	0.00065641	0.0019174	0.00066122	1005.4	1.3534e-05	1.9022e-05	645.91	365.89	9.5918e-06	2.1485e-05	250.93	91.982	146.63	67.678	5.4375e-06	40.712	0.02177	0.027946	0.0077924	1198.9	0.00029367	0.00031098	857.49	425.02	0.00029078	0.00030927	365.25	129.41	177.32	78.948	0.00029624	57.911	491.357	290.360	284.496	182.678	495.995	213.059	180.991	188.480	422.455	387.708	185.301	188.288	191.850	195.764	211.300	191.181	-8191	255	
#DATA ENDS
