BOXY.EXE: ISS Imagent and Oximeter Data Acquisition Program Version 0.80
Ascii Record File

#ACQ INFORMATION
2  Detector Channels 
16  External MUX Channels 
1  Auxiliary Channels 
5000  Waveform (CCF) Frequency (Hz)
1  Waveforms Skipped 
30  Waveforms Averaged 
1  Cycles Averaged 
16  Acquisitions per Waveform 
10.0806  Updata Rate (Hz) 

#FILE INFORMATION
TRUE -- External MUX Channel results are PARSED.
FALSE -- AC DC and Phase are NOT grouped.
TRUE -- Companion Program Settings File CREATED.
FALSE -- AC data not excluded
FALSE -- DC data not excluded
FALSE -- Phase data not excluded
FALSE -- Auxillary Chn. data not excluded
Tab delimiters

#CALIBRATION STATE
TRUE -- Waveform Calibration Values APPLIED.


#AUX CALIBRATION VALUES
Val Type	aux-1	

Term	1.0000e+00	
Factor	0.0000e+00	


#WF CALIBRATION VALUES
A = Detector Channel
Val Type	A-AC1	A-AC2	A-AC3	A-AC4	A-AC5	A-AC6	A-AC7	A-AC8	A-AC9	A-AC10	A-AC11	A-AC12	A-AC13	A-AC14	A-AC15	A-AC16	A-DC1	A-DC2	A-DC3	A-DC4	A-DC5	A-DC6	A-DC7	A-DC8	A-DC9	A-DC10	A-DC11	A-DC12	A-DC13	A-DC14	A-DC15	A-DC16	A-Ph1	A-Ph2	A-Ph3	A-Ph4	A-Ph5	A-Ph6	A-Ph7	A-Ph8	A-Ph9	A-Ph10	A-Ph11	A-Ph12	A-Ph13	A-Ph14	A-Ph15	A-Ph16	

Term	0.00000e+00	0.00000e+00	0.00000e+00	0.00000e+00	0.00000e+00	0.00000e+00	0.00000e+00	0.00000e+00	0.00000e+00	0.00000e+00	0.00000e+00	0.00000e+00	0.00000e+00	0.00000e+00	0.00000e+00	0.00000e+00	0.00000e+00	0.00000e+00	0.00000e+00	0.00000e+00	0.00000e+00	0.00000e+00	0.00000e+00	0.00000e+00	0.00000e+00	0.00000e+00	0.00000e+00	0.00000e+00	0.00000e+00	0.00000e+00	0.00000e+00	0.00000e+00	0.00000e+00	0.00000e+00	0.00000e+00	0.00000e+00	0.00000e+00	0.00000e+00	0.00000e+00	0.00000e+00	0.00000e+00	0.00000e+00	0.00000e+00	0.00000e+00	0.00000e+00	0.00000e+00	0.00000e+00	0.00000e+00	
Factor	1.00000e+00	1.00000e+00	1.00000e+00	1.00000e+00	1.00000e+00	1.00000e+00	1.00000e+00	1.00000e+00	1.00000e+00	1.00000e+00	1.00000e+00	1.00000e+00	1.00000e+00	1.00000e+00	1.00000e+00	1.00000e+00	1.00000e+00	1.00000e+00	1.00000e+00	1.00000e+00	1.00000e+00	1.00000e+00	1.00000e+00	1.00000e+00	1.00000e+00	1.00000e+00	1.00000e+00	1.00000e+00	1.00000e+00	1.00000e+00	1.00000e+00	1.00000e+00	X	X	X	X	X	X	X	X	X	X	X	X	X	X	X	X	

B = Detector Channel
Val Type	B-AC1	B-AC2	B-AC3	B-AC4	B-AC5	B-AC6	B-AC7	B-AC8	B-AC9	B-AC10	B-AC11	B-AC12	B-AC13	B-AC14	B-AC15	B-AC16	B-DC1	B-DC2	B-DC3	B-DC4	B-DC5	B-DC6	B-DC7	B-DC8	B-DC9	B-DC10	B-DC11	B-DC12	B-DC13	B-DC14	B-DC15	B-DC16	B-Ph1	B-Ph2	B-Ph3	B-Ph4	B-Ph5	B-Ph6	B-Ph7	B-Ph8	B-Ph9	B-Ph10	B-Ph11	B-Ph12	B-Ph13	B-Ph14	B-Ph15	B-Ph16	

Term	0.00000e+00	0.00000e+00	0.00000e+00	0.00000e+00	0.00000e+00	0.00000e+00	0.00000e+00	0.00000e+00	0.00000e+00	0.00000e+00	0.00000e+00	0.00000e+00	0.00000e+00	0.00000e+00	0.00000e+00	0.00000e+00	0.00000e+00	0.00000e+00	0.00000e+00	0.00000e+00	0.00000e+00	0.00000e+00	0.00000e+00	0.00000e+00	0.00000e+00	0.00000e+00	0.00000e+00	0.00000e+00	0.00000e+00	0.00000e+00	0.00000e+00	0.00000e+00	-1.59263e+02	-1.35366e+02	-1.22785e+02	-1.81606e+02	-7.89346e+01	-5.72216e+01	-1.56575e+02	-1.62015e+02	-7.73410e+01	-6.58398e+01	-1.71773e+02	-1.69662e+02	-1.85582e+02	-1.76518e+02	-7.73154e+01	-1.48785e+02	
Factor	2.57673e-05	1.35732e-04	4.29484e-05	1.60521e-01	1.34668e-06	1.50830e-06	1.73562e-01	5.04505e-02	1.28541e-06	1.76270e-06	8.78298e-02	2.84354e-02	2.48919e-02	9.05555e-03	1.36247e-06	1.28161e-02	7.70257e-06	9.89319e-06	2.77655e-06	8.54020e-02	1.04570e-07	1.10558e-07	8.68692e-02	2.69635e-02	1.04314e-07	1.10505e-07	4.53325e-02	1.47671e-02	1.33880e-02	4.87488e-03	1.06932e-07	6.69256e-03	X	X	X	X	X	X	X	X	X	X	X	X	X	X	X	X	



#DISTANCE SETTINGS
A = Detector Channel
A-1	A-2	A-3	A-4	A-5	A-6	A-7	A-8	A-9	A-10	A-11	A-12	A-13	A-14	A-15	A-16	

2.5000e+00	3.0000e+00	2.5000e+00	3.0000e+00	2.0000e+00	3.0000e+00	1.5000e+00	3.0000e+00	3.0000e+00	3.0000e+00	3.0000e+00	3.0000e+00	3.0000e+00	3.0000e+00	1.5000e+00	3.0000e+00	

B = Detector Channel
B-1	B-2	B-3	B-4	B-5	B-6	B-7	B-8	B-9	B-10	B-11	B-12	B-13	B-14	B-15	B-16	

1.0000e+01	1.0000e+01	1.0000e+01	1.4400e+00	1.0000e+01	1.0000e+01	1.5100e+00	1.9400e+00	1.0000e+01	1.0000e+01	1.9900e+00	2.4900e+00	2.4100e+00	2.9000e+00	1.0000e+01	2.9800e+00	




#DATA BEGINS
time	group	step	mark	flag	A-AC1	A-AC2	A-AC3	A-AC4	A-AC5	A-AC6	A-AC7	A-AC8	A-AC9	A-AC10	A-AC11	A-AC12	A-AC13	A-AC14	A-AC15	A-AC16	A-DC1	A-DC2	A-DC3	A-DC4	A-DC5	A-DC6	A-DC7	A-DC8	A-DC9	A-DC10	A-DC11	A-DC12	A-DC13	A-DC14	A-DC15	A-DC16	A-Ph1	A-Ph2	A-Ph3	A-Ph4	A-Ph5	A-Ph6	A-Ph7	A-Ph8	A-Ph9	A-Ph10	A-Ph11	A-Ph12	A-Ph13	A-Ph14	A-Ph15	A-Ph16	B-AC1	B-AC2	B-AC3	B-AC4	B-AC5	B-AC6	B-AC7	B-AC8	B-AC9	B-AC10	B-AC11	B-AC12	B-AC13	B-AC14	B-AC15	B-AC16	B-DC1	B-DC2	B-DC3	B-DC4	B-DC5	B-DC6	B-DC7	B-DC8	B-DC9	B-DC10	B-DC11	B-DC12	B-DC13	B-DC14	B-DC15	B-DC16	B-Ph1	B-Ph2	B-Ph3	B-Ph4	B-Ph5	B-Ph6	B-Ph7	B-Ph8	B-Ph9	B-Ph10	B-Ph11	B-Ph12	B-Ph13	B-Ph14	B-Ph15	B-Ph16	aux-1	digaux	

6294.470	1	1	0	256	0.12721	0.086268	0.16212	0.13709	0.19666	0.061587	0.24124	0.16157	0.03559	0.24049	0.09005	0.22759	0.19585	0.10613	0.080855	0.22326	0.27917	-1	-0.62083	-0.375	-1.0292	-0.1375	-0.65	-1.0646	-0.16667	-0.9875	-0.67083	-0.18333	-1.1896	-0.20417	-0.38333	-1.1938	30.629	173.307	-79.515	181.087	53.976	-68.387	110.841	20.021	15.353	217.951	-135.946	-137.599	-139.601	201.730	143.046	-103.822	0.00048349	0.00066241	0.00011476	1360.3	4.103e-06	2.7779e-06	1366.7	374.53	3.2541e-06	3.2835e-06	429.89	141.72	123.27	41.223	7.6686e-06	51.291	0.00071449	0.00077087	0.00021109	1377.3	8.4133e-06	8.5395e-06	1388.8	380.67	8.5381e-06	8.7881e-06	437.99	145.68	125.69	42.259	8.659e-06	52.781	172.526	-38.652	-42.599	-128.148	-53.966	-14.064	-128.576	-124.005	-22.136	5.426	-124.360	-120.362	-119.912	-114.942	-8.467	-115.571	-8191	255	
6294.589	1	1	0	0	0.097348	0.064572	0.15969	0.29969	0.08518	0.073243	0.14681	0.45184	0.12436	0.16541	0.24089	0.14585	0.38826	0.11536	0.075345	0.23879	0.33958	-0.76875	-0.65833	-0.10417	-1.1063	-0.45417	-0.62292	-1.3104	-0.14792	-0.74792	-0.97708	-0.13125	-1.0521	-0.5375	-0.3375	-1.2792	110.017	74.629	213.220	210.176	88.628	-16.417	-138.012	150.725	-31.982	80.270	146.651	16.121	-110.863	-103.277	90.080	210.916	0.00044921	0.00068549	6.8544e-05	1363.3	2.8827e-06	8.8727e-06	1371.1	372.92	4.3278e-06	8.3951e-06	431.27	141.8	122.97	41.202	6.0454e-06	51.15	0.0007548	0.00081674	0.00022854	1378.6	8.837e-06	9.3187e-06	1391.7	380.9	9.1568e-06	9.6356e-06	439.08	145.73	125.77	42.351	9.6905e-06	52.888	176.363	-66.594	-86.294	-128.439	-47.377	47.021	-128.449	-123.864	-59.453	17.556	-124.139	-120.602	-119.942	-114.923	-23.998	-115.455	-8191	255	
6294.685	1	1	0	0	0.099519	0.16494	0.34107	0.12428	0.22601	0.089161	0.2203	0.4772	0.22405	0.25084	0.39916	0.16333	0.26017	0.15642	0.031539	0.070034	0.37917	-0.53125	-0.85	-0.21875	-0.89792	-0.39583	-0.32083	-1.0958	-0.24167	-0.58125	-1.0979	-0.070833	-0.90417	-0.64167	0.025	-1.0125	90.696	181.802	194.172	170.622	-48.162	-76.652	175.117	168.260	-60.982	-44.429	190.786	-117.759	-120.435	187.723	-56.719	119.134	0.00048178	0.00048472	0.00014478	1362.8	1.772e-06	5.0941e-06	1373.1	375.97	3.4935e-06	5.784e-06	430.78	141.43	122.64	41.272	5.1852e-06	51.113	0.0008153	0.00087524	0.00024597	1383.3	9.4901e-06	9.9376e-06	1395.3	382.38	9.5123e-06	9.4274e-06	438.52	145.73	126	42.341	9.2487e-06	52.816	175.902	-41.131	-45.877	-128.409	-5.879	25.219	-128.678	-123.992	-12.076	-0.992	-124.398	-120.777	-119.701	-114.906	-18.490	-115.644	-8191	255	
6294.781	1	1	0	0	0.11234	0.29677	0.058325	0.1381	0.15027	0.096721	0.352	0.23947	0.11953	0.39439	0.25238	0.17243	0.12029	0.063001	0.083379	0.25572	0.18333	-0.31875	-0.76458	-0.23542	-0.72292	-0.64583	-0.23125	-1.1104	-0.33333	-0.45625	-1.1688	-0.14583	-0.91458	-0.88125	-0.14792	-0.94167	105.739	19.841	198.922	-131.617	103.104	-33.816	149.253	157.162	104.472	-67.505	144.546	-49.159	-15.359	-141.344	59.025	126.286	0.00052336	0.00056326	4.1104e-05	1359.5	5.0493e-06	4.5255e-06	1370.1	376.22	5.0318e-06	7.5572e-06	432.39	141.31	122.75	41.232	5.8525e-06	51.432	0.00077812	0.00083226	0.00023157	1379.5	8.6192e-06	9.1404e-06	1392.9	382.1	8.9664e-06	9.0683e-06	438.73	145.33	125.74	42.348	9.1473e-06	52.947	178.746	-27.331	-20.994	-128.466	-56.658	21.278	-128.578	-123.791	-28.796	9.667	-124.221	-120.442	-119.781	-114.954	-23.018	-115.398	-8191	255	
6294.877	1	1	0	0	0.11179	0.048971	0.29317	0.1973	0.20148	0.14277	0.13972	0.34773	0.29132	0.23936	0.098023	0.25188	0.38318	0.15194	0.35376	0.055775	0.083333	-0.18958	-0.86667	-0.32708	-0.84375	-0.74375	-0.36458	-1.0083	-0.28958	-0.11667	-1.1938	-0.28333	-0.7875	-0.78542	-0.039583	-1.0708	-130.543	-107.584	2.178	-138.065	-30.791	209.251	-34.775	-119.487	135.160	-102.207	-126.321	160.205	-133.097	-73.411	164.642	-74.465	0.00048722	0.00066083	0.00019086	1358.9	1.7477e-06	6.2358e-06	1373.5	377.27	3.834e-06	5.9086e-06	430.23	141.47	122.77	41.172	6.899e-06	51.418	0.00075731	0.00081666	0.0002259	1378.5	8.6089e-06	8.9543e-06	1394.2	381.75	8.766e-06	8.9661e-06	438.58	145.5	125.75	42.259	8.7688e-06	52.955	175.920	-39.750	-79.551	-128.251	12.496	28.402	-128.554	-123.970	-38.533	-6.128	-124.294	-120.301	-119.727	-114.973	-17.716	-115.592	-8191	255	
6294.973	1	1	0	0	0.10537	0.1235	0.26164	0.28874	0.067709	0.26992	0.365	0.34918	0.040369	0.14812	0.16872	0.14762	0.55902	0.20148	0.25565	0.22188	-0.05625	-0.22708	-0.86458	-0.27917	-0.49792	-0.92292	-0.24583	-1.0187	-0.7	-0.066667	-1.0396	-0.18125	-0.61667	-0.91667	0.0083333	-0.87708	-106.521	107.364	-3.823	181.160	47.893	194.274	148.098	150.230	13.888	128.206	-35.877	-51.246	188.543	202.830	211.354	8.600	0.0005044	0.00044528	0.00017596	1362.6	3.038e-06	6.6009e-06	1376.1	375.72	4.4814e-06	6.7745e-06	430.89	141.55	122.86	41.397	4.428e-06	51.314	0.00074591	0.00079069	0.00021486	1379.6	8.5754e-06	8.6668e-06	1396.5	382.04	8.4827e-06	8.6341e-06	439.21	145.5	125.68	42.366	8.6869e-06	52.811	172.332	-91.193	-85.128	-128.433	11.320	21.379	-128.467	-123.651	-32.349	0.628	-124.204	-120.702	-119.903	-115.039	16.699	-115.247	-8191	255	
6295.069	1	1	0	0	0.24018	0.19777	0.29721	0.28717	0.15889	0.19837	0.42775	0.091977	0.090227	0.20814	0.28139	0.15713	0.20561	0.25655	0.082773	0.096355	-0.2875	-0.13958	-1.0083	-0.51042	-0.31667	-0.8375	-0.30625	-0.84583	-0.77083	-0.1625	-1.0625	-0.22917	-0.2375	-0.99167	-0.175	-0.87708	25.933	-11.242	202.026	170.648	176.779	182.690	139.823	98.593	36.372	-76.503	-137.939	119.081	-63.995	-141.728	-23.474	76.482	0.0004779	0.0002565	0.00021243	1366.7	3.8561e-06	5.5026e-06	1375.3	375.41	6.2884e-06	9.3737e-06	430.54	142.09	122.29	41.394	3.7486e-06	51.022	0.00073362	0.00078624	0.00022024	1382.9	8.4736e-06	8.3898e-06	1396	382.17	8.7152e-06	8.8804e-06	438.99	145.48	125.76	42.375	8.9531e-06	52.867	169.207	-1.325	-41.011	-128.269	-27.592	22.964	-128.407	-123.959	-34.999	14.191	-124.058	-120.591	-119.732	-114.725	-31.526	-115.271	-8191	255	
6295.166	1	1	0	0	0.074217	0.26723	0.15515	0.3037	0.2033	0.22234	0.20796	0.21507	0.23917	0.2899	0.20677	0.24678	0.10825	0.072083	0.050227	0.17745	-0.24583	-0.14167	-0.86667	-0.45208	-0.1875	-0.95208	-0.36875	-0.73125	-0.68542	0.0625	-0.9125	-0.59375	-0.35208	-0.98333	-0.16875	-0.43958	-82.636	182.917	-66.231	213.766	32.527	194.745	217.858	-92.085	201.037	-15.248	174.213	132.592	128.024	150.636	204.848	134.266	0.0005227	0.00040183	0.00011327	1371.6	2.983e-06	2.6468e-06	1372.9	375.17	5.6099e-06	4.625e-06	431.86	142.07	122.77	41.148	4.2221e-06	51.085	0.00076384	0.00080141	0.00022417	1384.4	8.8141e-06	8.9069e-06	1394.4	382.13	8.8056e-06	9.0674e-06	439.25	145.67	125.64	42.301	9.015e-06	52.761	172.933	-77.005	-67.204	-128.365	-65.159	35.500	-128.601	-123.683	-34.243	56.400	-124.086	-120.317	-119.756	-114.586	-42.138	-115.399	-8191	255	
6295.286	1	1	0	0	0.30832	0.2054	0.1166	0.23901	0.2763	0.076649	0.22301	0.26471	0.2806	0.18005	0.44431	0.24896	0.33237	0.18634	0.23439	0.179	-0.475	-0.13542	-0.83958	-0.76042	0.066667	-0.8	-0.45208	-0.55625	-0.93958	0.027083	-0.96667	-0.73333	-0.025	-1	-0.17083	-0.46458	115.608	199.881	-24.897	-129.550	-5.199	99.943	121.613	176.491	73.223	12.803	200.503	114.805	-47.995	-131.854	-111.234	-2.859	0.00048871	0.00069149	0.00013033	1365.3	4.237e-06	5.0436e-06	1376.8	376.04	5.9841e-06	3.5527e-06	430.3	141.57	123.2	41.318	3.5469e-06	51.128	0.00075009	0.00084364	0.00022507	1383.1	8.947e-06	9.1397e-06	1396.8	382.8	8.8854e-06	9.2205e-06	438.8	145.68	125.98	42.394	9.0977e-06	52.819	174.176	-87.309	-47.329	-128.403	-26.642	0.671	-128.507	-123.543	-65.474	-6.916	-124.067	-120.411	-119.647	-114.806	-57.032	-116.219	-8191	255	
6295.382	1	1	0	0	0.26851	0.13522	0.084388	0.24483	0.078636	0.27655	0.25477	0.15711	0.19925	0.072304	0.28269	0.20462	0.22908	0.23258	0.25732	0.063534	-0.69792	0.05625	-0.60208	-0.82083	0.13333	-0.84167	-0.475	-0.41667	-0.96875	-0.075	-0.7875	-0.81458	-0.1625	-1.0083	-0.28542	-0.1875	38.900	-102.381	-77.291	190.161	46.538	120.964	194.030	152.959	83.681	70.186	131.902	148.362	-64.681	192.615	-46.078	-16.410	0.00048849	0.0003306	0.00015828	1367.5	2.1969e-06	4.3127e-06	1372.6	376.72	3.5655e-06	6.2072e-06	433.13	142.04	122.21	41.283	3.3118e-06	51.16	0.00076859	0.00083828	0.00023348	1384.7	9.2008e-06	9.4479e-06	1396.8	382.74	9.2859e-06	9.6144e-06	439.69	145.53	125.66	42.332	9.4305e-06	52.855	166.575	-62.532	-11.355	-129.680	-36.661	-7.296	-129.659	-124.820	-47.161	22.928	-125.118	-121.380	-120.615	-115.914	11.254	-116.403	-8191	255	
6295.479	1	1	0	0	0.23625	0.09565	0.24635	0.18044	0.20543	0.17385	0.25417	0.13085	0.3564	0.17781	0.13728	0.13321	0.29773	0.26688	0.18852	0.32294	-0.59583	-0.17708	-0.4	-1.0042	-0.0625	-0.85833	-0.72917	-0.16042	-1.0292	-0.14583	-0.57708	-0.90208	-0.0083333	-0.74167	-0.56667	-0.21875	-3.133	-35.045	-36.191	171.509	-74.082	54.017	163.951	125.700	171.387	8.756	-14.704	-112.044	-88.489	185.009	156.826	163.404	0.00048738	0.00046793	0.00015435	1364.9	3.2826e-06	3.6983e-06	1376.7	376.69	6.0222e-06	7.1033e-06	431.3	141.86	122.41	41.185	1.6593e-06	51.123	0.00079479	0.00087829	0.00024005	1384	9.342e-06	9.6835e-06	1396.7	382.43	9.3439e-06	9.6929e-06	439.51	145.4	125.9	42.277	9.6005e-06	52.798	175.054	-39.295	-10.945	-129.351	14.568	30.600	-129.556	-124.703	-51.910	10.074	-125.315	-121.306	-120.969	-115.966	-2.710	-116.622	-8191	255	
6295.575	1	1	0	0	0.10768	0.17806	0.26754	0.21822	0.22266	0.22796	0.208	0.377	0.16971	0.25937	0.21878	0.19171	0.066146	0.21159	0.0058723	0.12457	-0.42292	-0.15833	-0.53125	-1.05	-0.01875	-0.76667	-0.8375	-0.3375	-1.1021	-0.44583	-0.475	-1.0104	-0.12083	-0.73333	-0.81875	-0.33333	70.388	217.039	-104.017	-88.895	-128.275	11.456	169.660	104.218	104.123	-95.256	193.715	-107.245	72.312	-139.302	-75.443	203.455	0.00046226	0.00060067	0.00014871	1365.7	3.6025e-06	6.6923e-06	1377.1	374.58	1.8656e-06	4.6758e-06	429.49	141.83	122.98	41	5.5802e-06	51.186	0.00078234	0.00085846	0.00023985	1383.6	9.0871e-06	9.4085e-06	1397.1	382.06	9.1759e-06	9.5156e-06	439	145.3	125.88	42.178	9.046e-06	52.754	166.699	-88.035	-55.159	-129.417	-13.250	41.186	-129.340	-124.877	-34.915	24.309	-125.135	-121.326	-120.730	-115.649	-16.615	-116.340	-8191	255	
6295.671	1	1	0	0	0.086878	0.28984	0.058241	0.27084	0.1791	0.28767	0.18448	0.17158	0.12455	0.085142	0.10624	0.40547	0.21905	0.040779	0.19771	0.088303	-0.43125	-0.30208	-0.29792	-1.0396	-0.085417	-0.80417	-0.90417	-0.1875	-1.1333	-0.59792	-0.625	-1.1083	-0.19583	-0.70625	-0.7125	-0.0625	-139.369	-46.399	2.831	196.689	138.487	-95.954	69.375	-59.302	2.919	119.513	-102.204	129.796	-62.768	95.787	92.371	161.542	0.00047244	0.00046673	0.00015257	1371.3	2.6105e-06	5.5903e-06	1372.9	375.25	3.7102e-06	7.5028e-06	431.49	141.59	122.67	40.969	4.5747e-06	51.154	0.00075472	0.00082699	0.00022967	1384.7	8.8965e-06	9.093e-06	1397.1	382.15	8.5852e-06	8.9649e-06	439.25	145.55	125.65	42.127	8.6882e-06	52.708	178.747	-69.733	-31.486	-129.171	-26.351	24.005	-129.493	-124.774	-74.487	4.339	-125.077	-121.310	-120.849	-115.564	2.680	-116.501	-8191	255	
6295.765	1	1	0	0	0.19697	0.115	0.12407	0.052523	0.23659	0.087561	0.21961	0.19236	0.17452	0.11339	0.13591	0.27648	0.10077	0.15523	0.090799	0.33204	-0.50208	-0.41458	-0.125	-0.99167	-0.175	-0.44792	-1.0583	-0.23333	-0.82083	-0.60833	-0.3125	-0.89583	-0.32083	-0.20417	-0.94375	-0.19792	126.239	9.931	5.366	-47.652	-138.451	185.989	180.546	208.606	-21.012	203.313	172.055	180.821	110.304	154.413	189.904	-140.892	0.00051398	0.00050371	0.0001192	1365.2	3.4778e-06	6.8306e-06	1379	375.75	4.9001e-06	8.2285e-06	432.27	141.73	123.07	40.954	4.7444e-06	51.278	0.00072244	0.00077717	0.0002188	1386	8.4251e-06	8.6155e-06	1399.2	381.98	8.3575e-06	8.5906e-06	438.63	145.28	125.66	42.183	8.4374e-06	52.677	170.706	-71.794	-67.589	-129.065	-45.512	36.363	-129.408	-124.674	-46.356	7.890	-125.039	-121.059	-120.741	-115.791	-30.416	-116.278	-8191	255	
6295.886	1	1	0	0	0.27638	0.36908	0.11032	0.15531	0.15288	0.22418	0.11099	0.27339	0.23764	0.10104	0.11101	0.51188	0.12211	0.094914	0.12383	0.2196	-0.3375	-0.51667	-0.175	-0.97292	-0.32917	-0.37917	-1.1979	-0.12917	-0.73542	-0.94583	-0.22083	-0.975	-0.36042	-0.43125	-0.84167	-0.24792	-72.987	63.499	134.988	191.882	25.568	22.227	112.293	150.691	-37.341	179.494	-67.549	178.009	191.083	1.301	107.142	198.750	0.0005771	0.00059239	9.5865e-05	1365.3	5.2428e-06	5.4956e-06	1375.9	374.92	2.1549e-06	5.9889e-06	429.42	141.23	122.7	41.22	2.9954e-06	51.006	0.00072273	0.00078544	0.00022021	1384.2	8.5501e-06	8.5061e-06	1398	382.1	8.4927e-06	8.4518e-06	438.52	145.3	125.66	42.201	8.4924e-06	52.644	172.251	-47.832	-59.437	-129.122	-18.115	7.027	-129.279	-124.635	-94.604	-2.150	-125.153	-121.065	-120.794	-115.578	-13.695	-115.953	-8191	255	
6295.982	1	1	0	0	0.089188	0.21569	0.13973	0.12076	0.11127	0.19811	0.35674	0.10748	0.1534	0.19672	0.36553	0.13688	0.37493	0.15016	0.011335	0.1872	-0.25	-0.82292	-0.17708	-0.89792	-0.47708	-0.2	-1.2938	-0.27708	-0.55208	-0.9375	-0.17708	-1.1167	-0.75	-0.29167	-1.0417	-0.19583	-129.314	-12.004	-54.976	191.337	154.145	-141.350	167.464	45.393	184.826	139.714	150.956	213.145	195.667	-69.817	1.893	35.732	0.00050208	0.00043251	0.00010011	1372.1	5.2904e-06	7.1083e-06	1373.8	374.44	4.7149e-06	8.8292e-06	431.26	141.52	122.31	41.077	3.3734e-06	51.028	0.00071353	0.00074036	0.00021433	1384.5	8.3057e-06	8.5404e-06	1397.1	381.27	8.1917e-06	8.3668e-06	438.62	145.2	125.43	42.165	8.1529e-06	52.57	176.654	-125.825	-46.369	-128.863	-39.411	30.639	-129.161	-124.633	-66.885	2.389	-124.943	-120.960	-120.508	-115.690	-24.621	-116.024	-8191	255	
6296.078	1	1	0	0	0.22284	0.062276	0.17781	0.29385	0.27938	0.09444	0.15184	0.13076	0.095877	0.043017	0.17613	0.04689	0.26337	0.12923	0.15577	0.057343	-0.15	-0.98333	-0.052083	-1.2021	-0.55833	-0.29375	-1.1896	-0.53125	-0.44375	-0.98958	-0.060417	-1.0458	-0.775	-0.29375	-0.98125	-0.20417	51.555	173.967	-116.966	203.477	27.952	211.108	157.340	131.709	127.313	22.884	187.597	-9.283	113.593	181.422	164.549	149.869	0.00044556	0.00066167	0.00013356	1365.7	2.6283e-06	4.3066e-06	1370.8	374.2	3.8123e-06	7.49e-06	429.12	142.44	122.55	40.925	6.0897e-06	50.84	0.00068895	0.00074906	0.00020641	1381.6	8.1754e-06	8.1788e-06	1393.3	381.25	8.1678e-06	8.4562e-06	437.53	145.42	125.43	42.071	8.4797e-06	52.571	177.688	-50.459	-92.995	-129.046	-74.392	38.805	-129.165	-124.756	-19.942	29.420	-124.816	-121.086	-120.503	-115.283	-12.481	-116.224	-8191	255	
6296.150	1	1	0	0	0.28202	0.20448	0.20368	0.46802	0.22817	0.27662	0.34186	0.42718	0.11141	0.1396	0.2125	0.21166	0.081383	0.19305	0.1603	0.13948	-0.077083	-1.0396	-0.13333	-0.98333	-0.74583	-0.016667	-1.2687	-0.60417	-0.40208	-0.87083	-0.3	-0.98125	-0.96875	0.0875	-1.125	-0.57083	-16.976	17.932	192.487	209.242	-112.356	-130.601	115.197	178.014	-11.108	143.050	180.856	-111.619	23.881	167.631	71.228	-39.088	0.00048673	0.00032791	0.00016924	1366.7	1.6589e-06	4.8078e-06	1375	374.81	5.0973e-06	9.494e-07	430.24	141.33	121.76	41.218	2.2762e-06	51.103	0.00071847	0.00076256	0.00021332	1384	8.3416e-06	8.6054e-06	1395.4	380.91	8.3095e-06	8.3995e-06	437.69	144.97	125.34	42.169	8.156e-06	52.634	172.207	-66.857	-61.028	-128.807	22.520	23.692	-129.273	-124.774	-70.481	18.452	-124.747	-120.913	-120.743	-115.341	-5.534	-116.136	-8191	255	
6296.271	1	1	0	0	0.19314	0.10268	0.16043	0.09703	0.40261	0.097762	0.42351	0.21902	0.19912	0.3418	0.13372	0.067828	0.23286	0.073892	0.20926	0.091762	0.19583	-1.0208	-0.12083	-0.74167	-0.96667	-0.1375	-1.1063	-0.62708	-0.33958	-1.1667	-0.425	-0.73958	-0.9125	-0.22292	-0.94792	-0.81042	27.515	-97.817	212.733	141.858	11.515	-139.120	184.645	135.184	24.789	-76.031	161.673	108.664	144.284	166.958	114.604	-29.254	0.00048161	0.00015404	0.00016819	1366.6	3.957e-06	3.9042e-06	1374.8	374.42	3.6663e-06	6.6202e-06	430.22	141.41	121.93	41.053	3.5187e-06	51.044	0.00071006	0.00074922	0.00021132	1381.4	8.0985e-06	8.2502e-06	1396.1	381.07	8.0571e-06	8.1295e-06	437.63	145.11	125.35	42.119	7.8996e-06	52.536	176.391	-45.710	-36.839	-128.794	-24.249	0.983	-128.990	-124.397	-22.112	15.113	-124.901	-120.753	-120.657	-115.361	-17.702	-116.154	-8191	255	
6296.367	1	1	0	0	0.46107	0.33123	0.1503	0.28997	0.21888	0.20262	0.36681	0.32371	0.06651	0.10124	0.2521	0.12914	0.26766	0.33225	0.2117	0.14164	0.20208	-0.86042	-0.11875	-0.41458	-0.88542	-0.26458	-0.9125	-0.76667	-0.22708	-1.1542	-0.475	-0.46875	-1.2313	-0.1875	-0.80417	-0.73333	-62.690	77.938	153.237	-120.330	174.019	67.647	158.408	127.263	90.701	-18.091	160.659	30.475	142.632	196.547	75.259	212.377	0.00046867	0.00066434	0.00014548	1368.6	1.9585e-06	2.9306e-06	1376.2	374.98	5.9055e-06	7.0761e-06	429.04	141.83	122.41	41.285	3.6614e-06	51.21	0.00069145	0.00073337	0.0002085	1383.2	7.8802e-06	8.0913e-06	1395.6	380.62	7.7905e-06	7.9722e-06	436.7	145.21	125.35	42.072	7.9005e-06	52.594	167.222	-56.057	-63.202	-128.872	31.586	-27.987	-129.071	-124.322	-35.925	20.292	-124.735	-120.946	-120.206	-115.328	-21.841	-115.810	-8191	255	
6296.463	1	1	0	0	0.33866	0.29118	0.3149	0.29524	0.2396	0.032039	0.39273	0.27115	0.17669	0.26965	0.088246	0.1162	0.20027	0.26521	0.11481	0.29609	0.32292	-1.0417	-0.46667	-0.45	-1.2375	-0.21458	-0.92708	-0.94583	0.0625	-0.99583	-0.66042	-0.47083	-1.1458	-0.3	-0.40833	-0.82917	-27.371	0.756	191.236	119.883	173.583	-18.882	117.731	146.744	-17.445	89.550	-90.508	-100.655	83.304	206.894	210.014	-142.473	0.00049417	0.00060847	0.00010753	1363.1	5.5258e-06	7.6419e-06	1372.8	373.86	2.754e-06	4.9864e-06	428.91	141.67	122.71	41.067	5.7776e-06	50.716	0.00068102	0.00071301	0.00020126	1379.7	7.7776e-06	7.9908e-06	1390.6	380.64	7.8116e-06	7.8576e-06	436.51	144.95	125.38	42.044	7.9274e-06	52.377	173.874	-88.913	-28.028	-128.748	-59.640	18.333	-129.072	-124.535	-78.265	-10.794	-124.712	-120.749	-120.147	-115.400	-35.351	-115.775	-8191	255	
6296.559	1	1	0	0	0.20336	0.19572	0.2421	0.32401	0.27832	0.11351	0.23326	0.1515	0.16024	0.085663	0.07793	0.25034	0.11471	0.28145	0.21898	0.31036	0.42708	-0.95833	-0.39792	-0.46667	-1.0104	-0.21875	-0.69167	-0.93958	-0.14167	-0.97083	-0.58542	-0.01875	-0.94375	-0.37708	-0.43542	-1.0271	182.434	-33.986	-113.461	194.466	-44.606	-122.088	126.733	66.690	79.796	-59.523	-132.624	195.699	154.681	-82.578	26.840	-118.390	0.00045296	0.00069469	0.00016921	1363.1	1.1128e-06	4.7255e-06	1373.7	374.37	5.6242e-06	7.914e-06	429.89	141.43	122.13	41.122	4.9175e-06	50.955	0.00069111	0.00071474	0.0002049	1380.7	7.7512e-06	7.9201e-06	1394.2	380.09	8.0448e-06	8.1295e-06	436.78	144.99	125.35	42.085	8.1836e-06	52.501	176.807	-40.498	-79.371	-128.607	-16.074	27.529	-128.857	-124.397	-47.195	1.061	-125.219	-120.822	-120.111	-115.199	-8.573	-115.587	-8191	255	
6296.678	1	1	0	0	0.085026	0.052884	0.18401	0.107	0.081296	0.13073	0.31188	0.065229	0.12065	0.06648	0.049272	0.11766	0.17917	0.18185	0.08786	0.20728	0.11667	-0.73958	-0.625	-0.35	-0.78333	-0.32917	-0.54167	-1.2062	-0.0083333	-0.55625	-0.75417	-0.2125	-1.0562	-0.525	-0.25625	-1.0792	127.225	-9.636	108.540	113.416	-134.198	39.721	158.727	113.463	188.570	-135.728	109.247	-109.747	-120.497	-136.733	-81.858	126.789	0.00048839	0.00054736	0.00015746	1363.2	4.5149e-06	1.8174e-06	1379.2	374.25	3.8382e-06	3.9988e-06	427.96	141.1	121.87	40.882	4.8174e-06	50.912	0.00070344	0.00075283	0.00020816	1379.3	8.1366e-06	8.4107e-06	1395.6	380.13	8.2599e-06	8.2071e-06	435.85	144.85	124.95	42.027	8.2571e-06	52.495	176.751	-49.525	-38.274	-128.702	-34.810	6.714	-128.675	-124.313	-42.041	10.777	-124.604	-120.451	-119.949	-115.204	-9.074	-115.818	-8191	255	
6296.774	1	1	0	0	0.22517	0.26102	0.15743	0.25778	0.17199	0.18341	0.3064	0.30413	0.27273	0.12279	0.16447	0.30947	0.26675	0.12257	0.35286	0.37624	0.23333	-0.43125	-0.61875	-0.26042	-0.95833	-0.36667	-0.38333	-1.1667	-0.039583	-0.74375	-0.81875	-0.045833	-0.92292	-0.5	-0.091667	-0.90625	-97.680	-56.881	-36.910	211.485	176.681	-4.835	140.029	144.012	-6.790	-105.946	150.235	-116.948	215.669	119.096	197.279	186.032	0.00046409	0.00038053	0.0001875	1362	3.5569e-06	4.1352e-06	1375.4	374.62	4.2617e-06	5.0907e-06	430.01	141.33	122.74	40.614	3.6452e-06	51.159	0.00071448	0.00075881	0.00021224	1381.9	8.3102e-06	8.5316e-06	1392.6	380.64	8.372e-06	8.4997e-06	437.46	144.71	125.28	41.994	8.3788e-06	52.567	174.712	-43.396	-49.751	-128.560	14.173	52.986	-128.680	-124.130	-34.469	-5.194	-124.460	-120.809	-120.301	-115.095	10.179	-115.907	-8191	255	
6296.847	1	1	0	0	0.06861	0.1325	0.26604	0.17098	0.17521	0.32435	0.10265	0.32771	0.15821	0.10095	0.086849	0.16441	0.16011	0.33604	0.079565	0.10365	0.18542	-0.45	-0.83125	-0.225	-0.925	-0.58958	-0.37917	-1.1896	-0.18125	-0.50417	-1.2125	-0.0625	-0.88542	-0.675	-0.16875	-1.2229	168.274	-29.346	172.380	-96.491	73.823	-131.001	204.972	160.873	-56.731	128.818	153.966	108.264	-114.962	213.695	63.259	149.989	0.00050942	0.00056846	0.00016127	1362.9	1.4355e-06	3.1195e-06	1370.7	372.48	4.8477e-06	5.5299e-06	430.49	141.22	122.42	40.754	2.4481e-06	51.056	0.00072377	0.00076157	0.0002112	1379.7	8.0713e-06	8.3852e-06	1391.5	380.13	8.379e-06	8.3546e-06	437.58	144.97	125.37	41.922	8.4071e-06	52.54	173.755	-83.235	-56.621	-128.681	-7.130	11.799	-128.838	-124.141	-90.991	6.870	-124.465	-120.429	-119.862	-115.129	-11.827	-115.671	-8191	255	
6296.966	1	1	0	0	0.2326	0.028806	0.3473	0.40581	0.062092	0.19671	0.17552	0.1703	0.062809	0.32252	0.2441	0.071671	0.26237	0.19857	0.12527	0.30758	0.19792	-0.40208	-0.86458	-0.33958	-1.0271	-0.75833	-0.28542	-1.1896	-0.3125	-0.38333	-1.0187	-0.34583	-0.78958	-0.77708	-0.17083	-1.1271	-4.042	-12.184	204.209	150.742	-18.769	-80.452	62.363	133.520	164.536	145.910	150.978	188.181	214.690	170.953	90.752	132.943	0.00049806	0.00055938	0.00011003	1366.8	5.1781e-06	3.9977e-06	1368.6	374.7	4.7967e-06	7.4534e-06	429.52	141.06	122.04	40.837	3.9146e-06	51.043	0.00070841	0.00075203	0.00021632	1379.6	8.2946e-06	8.3515e-06	1392.6	380.47	8.5055e-06	8.5326e-06	437.02	144.74	125.25	41.985	8.6015e-06	52.568	178.384	-100.223	-61.989	-128.445	6.873	20.454	-128.665	-123.988	-23.153	8.822	-124.179	-120.706	-120.205	-115.173	-12.178	-115.667	-8191	255	
6297.062	1	1	0	0	0.11769	0.092398	0.13287	0.2654	0.174	0.18419	0.31455	0.17914	0.15887	0.22978	0.23264	0.32271	0.28579	0.23615	0.082195	0.16748	0.0020833	-0.2	-0.95417	-0.38958	-0.78958	-0.7625	-0.17917	-1.1646	-0.24167	-0.17083	-1.1688	-0.19583	-0.57083	-0.92917	-0.32292	-0.95417	135.943	118.788	-56.000	198.592	-61.431	-105.816	146.314	-40.225	111.932	-32.962	67.150	172.449	-93.407	207.541	85.543	-130.397	0.00049204	0.00067843	0.00018653	1367.1	4.4468e-06	4.523e-06	1376.9	374.98	5.2095e-06	5.0448e-06	428.19	140.74	122.23	40.95	4.065e-06	51.117	0.00074364	0.00079189	0.00021576	1379.9	8.4301e-06	8.615e-06	1394.6	381.1	8.5759e-06	8.665e-06	437.45	144.7	125.2	41.967	8.5719e-06	52.591	173.624	-57.155	-45.428	-128.502	7.303	55.841	-128.585	-123.876	-43.489	37.073	-124.136	-120.399	-119.771	-115.220	-13.976	-115.444	-8191	255	
6297.159	1	1	0	0	0.056073	0.11357	0.10076	0.20106	0.015201	0.13987	0.36958	0.11465	0.21472	0.10094	0.015916	0.071456	0.057722	0.05729	0.05803	0.14676	-0.25625	-0.14792	-1.0354	-0.35625	-0.49167	-0.78542	-0.23333	-0.9	-0.66042	-0.035417	-0.98333	-0.49375	-0.53125	-0.91667	-0.2125	-0.71875	-103.759	216.637	4.864	166.846	-64.833	208.914	114.281	159.725	3.232	-94.941	-16.357	62.109	96.683	67.678	153.854	-140.498	0.00050419	0.00036891	0.00013075	1363.7	1.758e-06	5.2944e-06	1374.7	375.14	3.9091e-06	2.8008e-06	427.93	142.14	122.27	40.873	4.2854e-06	51.012	0.00071987	0.0007904	0.00021479	1379.4	8.4233e-06	8.3872e-06	1393.2	381.25	8.4238e-06	8.6072e-06	437.44	144.89	125.39	42.024	8.5369e-06	52.559	174.712	-33.817	-19.388	-128.443	-8.738	-10.040	-128.637	-123.524	-58.265	22.764	-124.171	-120.570	-119.910	-114.582	-4.915	-115.576	-8191	255	
6297.255	1	1	0	0	0.088644	0.30335	0.029229	0.25163	0.27954	0.058892	0.12319	0.3489	0.056496	0.18331	0.081649	0.29103	0.16657	0.068258	0.091772	0.040707	-0.13125	0.027083	-0.92917	-0.675	-0.25417	-0.8875	-0.375	-0.93333	-0.925	-0.047917	-1.1417	-0.675	-0.21458	-1.0958	-0.13333	-0.74583	-42.090	115.970	179.226	209.633	-13.577	26.044	151.462	149.361	67.969	-123.912	-35.756	215.653	82.463	-62.551	142.248	-98.083	0.00045686	0.00054992	0.00010468	1366.5	5.6751e-06	3.7703e-06	1373.5	375.09	5.9683e-06	6.8017e-06	430.71	141.42	122.21	41.159	2.7942e-06	51.104	0.00071595	0.00078305	0.00020959	1380.6	8.3403e-06	8.5293e-06	1392.5	380.76	8.5016e-06	8.6242e-06	437.58	144.91	125.29	42.087	8.473e-06	52.658	173.599	-54.188	-53.464	-128.630	13.202	-15.571	-128.611	-123.982	-43.003	12.625	-124.387	-120.597	-119.775	-115.034	34.027	-115.324	-8191	255	
6297.375	1	1	0	0	0.11548	0.25739	0.095483	0.28862	0.18694	0.18439	0.34819	0.25437	0.16293	0.26099	0.03956	0.30323	0.16768	0.31341	0.093241	0.3746	-0.43958	-0.022917	-0.88125	-0.70625	-0.19583	-0.98333	-0.43333	-0.57708	-0.97083	-0.11458	-0.89792	-0.79792	-0.2	-1.0417	-0.2625	-0.51458	69.437	73.039	84.210	135.851	194.430	100.726	128.307	192.068	-84.450	-60.383	-118.800	135.218	165.549	145.720	-124.077	111.348	0.00050443	0.00031714	0.00022357	1364.7	3.5062e-06	3.1006e-06	1372.4	374.68	4.0166e-06	2.6552e-06	430.55	141.85	122.98	40.846	4.5108e-06	50.739	0.0007286	0.0007991	0.00021514	1382.4	8.3998e-06	8.6473e-06	1395.1	381.01	8.567e-06	8.8627e-06	437.61	145.02	125.63	42.021	8.9644e-06	52.478	174.161	-59.317	-40.473	-128.440	0.866	25.374	-128.512	-123.933	-18.750	-13.785	-124.201	-120.382	-119.583	-114.916	-5.280	-115.425	-8191	255	
6297.447	1	1	0	0	0.27785	0.045943	0.32197	0.19931	0.16377	0.073334	0.11543	0.14216	0.18891	0.11957	0.11744	0.25467	0.21702	0.073634	0.17564	0.34674	-0.49167	0.020833	-0.88958	-0.8875	-0.0375	-0.87083	-0.5125	-0.6125	-0.7875	-0.0041667	-0.875	-0.67917	-0.21667	-1.0583	-0.35417	-0.40417	5.966	113.049	130.246	-141.743	-136.599	80.168	211.811	-88.670	109.997	-114.740	-130.104	187.628	192.303	26.346	190.922	213.314	0.00058752	0.00043293	0.00013664	1369.4	3.0239e-06	4.5455e-06	1368.3	375.77	5.1873e-06	3.9272e-06	430.77	140.86	121.99	41.099	2.7459e-06	51.01	0.00075261	0.00079589	0.00022011	1384.1	8.7897e-06	8.7187e-06	1393	380.99	8.6713e-06	8.9113e-06	438.34	144.75	125.43	42.115	8.7412e-06	52.553	178.420	-11.185	-29.138	-128.676	1.374	23.229	-128.729	-123.894	-20.711	26.739	-124.328	-120.811	-119.626	-114.897	30.704	-115.374	-8191	255	
6297.568	1	1	0	0	0.11798	0.19202	0.034313	0.33708	0.38818	0.044504	0.17165	0.043369	0.16949	0.27976	0.093321	0.26332	0.10823	0.281	0.26541	0.18937	-0.68125	-0.054167	-0.66667	-0.73125	-0.10833	-0.86875	-0.48958	-0.61667	-0.94583	-0.045833	-0.96667	-1.0562	-0.03125	-1.0417	-0.53542	-0.25417	-132.303	16.394	3.973	194.659	-64.058	-5.286	170.334	130.813	-38.717	-5.724	-58.609	146.317	-134.155	208.147	157.891	91.520	0.00051734	0.00035748	0.00014007	1367.1	4.9918e-06	4.7957e-06	1378.7	375.11	1.8662e-06	3.6775e-06	428.84	141.76	122.29	40.896	3.3496e-06	50.911	0.00074355	0.00081652	0.00022553	1381.6	9.0015e-06	8.9039e-06	1395.5	381.44	8.9773e-06	9.1388e-06	437.95	145.1	125.6	42.074	9.0948e-06	52.572	173.047	-75.498	-92.909	-128.680	-41.920	42.660	-128.601	-124.098	-68.605	48.852	-124.221	-120.683	-119.919	-115.094	-37.239	-115.722	-8191	255	
6297.662	1	1	0	0	0.14227	0.077663	0.14979	0.095515	0.12948	0.10447	0.25484	0.018388	0.23247	0.20369	0.2964	0.21993	0.1658	0.14067	0.57984	0.2278	-0.41667	0.06875	-0.46042	-1.1396	-0.072917	-0.91458	-0.65625	-0.25417	-0.98125	-0.10417	-0.5625	-1.1729	-0.10833	-0.84792	-0.55208	-0.375	-90.100	53.207	-131.887	-89.475	198.084	-65.808	124.167	177.480	-41.540	214.796	151.271	158.872	-112.935	-1.888	37.941	206.483	0.00046941	0.00028796	7.4094e-05	1368.3	3.9556e-06	4.8577e-06	1373.1	374.92	5.1392e-07	6.0705e-06	428.98	141.1	122.07	41.131	6.8252e-06	50.745	0.00076743	0.0008308	0.00023448	1384.9	9.1259e-06	9.3185e-06	1395.6	381.51	8.8758e-06	9.3017e-06	437.88	144.98	125.42	42.105	9.0959e-06	52.555	173.152	-56.405	-66.577	-128.538	-7.246	32.993	-128.727	-123.977	-22.692	-9.717	-124.037	-120.389	-119.914	-114.993	4.653	-115.359	-8191	255	
6297.758	1	1	0	0	0.26462	0.094963	0.17809	0.16043	0.039139	0.12028	0.46292	0.13327	0.18624	0.15771	0.20499	0.14621	0.099172	0.39345	0.22163	0.11467	-0.56042	-0.21042	-0.44583	-1.1812	-0.13333	-0.77292	-0.89167	-0.225	-1.0167	-0.41875	-0.51458	-1.1125	-0.33958	-0.90208	-0.70208	0.027083	86.143	-50.219	174.256	213.059	-130.363	63.917	173.214	158.892	214.524	-138.793	155.512	115.536	-123.154	157.267	89.603	170.012	0.00048478	0.00033328	9.7617e-05	1366.5	5.205e-06	4.1363e-06	1375.5	375.24	5.3393e-06	3.1444e-06	430.17	141.67	122.6	41.183	4.1089e-06	51.119	0.00075883	0.00082037	0.00023011	1384.8	9.0087e-06	9.086e-06	1396.4	381.53	8.8997e-06	9.3082e-06	437.56	145.14	125.39	42.151	9.0103e-06	52.527	177.365	-39.927	-60.277	-128.331	-22.444	22.598	-128.935	-124.103	-40.568	24.924	-124.273	-120.306	-120.048	-114.939	-25.002	-115.594	-8191	255	
6297.854	1	1	0	0	0.032948	0.22778	0.10843	0.11246	0.12658	0.06761	0.035017	0.39807	0.22081	0.26411	0.22172	0.34794	0.3069	0.27674	0.011546	0.29197	-0.75	-0.325	-0.17708	-0.99583	-0.19583	-0.7	-1.1729	-0.125	-0.79375	-0.45625	-0.36042	-1.1313	-0.37708	-0.56667	-0.92708	-0.16458	-33.533	185.625	168.717	181.189	155.356	-124.934	103.954	188.182	-3.937	29.179	108.148	-101.487	-102.100	168.804	-78.023	154.769	0.00045959	0.00072797	0.00015764	1366.6	2.404e-06	3.6979e-06	1376.2	374.45	5.4068e-06	3.6494e-06	430.38	141.4	122.07	40.915	3.5237e-06	51.084	0.00076605	0.00083288	0.00022977	1385.6	8.9734e-06	8.9912e-06	1396.5	380.93	9.0079e-06	9.0925e-06	438.36	145.11	125.35	42.051	8.9506e-06	52.599	170.870	-34.603	-58.424	-128.437	-42.637	62.938	-128.645	-123.946	-35.945	-5.964	-124.269	-120.446	-119.825	-114.909	-31.820	-115.544	-8191	255	
6297.975	1	1	0	0	0.2861	0.16064	0.14319	0.31512	0.15748	0.35952	0.30368	0.16167	0.05115	0.10573	0.29576	0.024513	0.17646	0.080802	0.10939	0.064994	-0.61042	-0.51667	-0.14792	-1.0833	-0.05625	-0.43333	-1.3479	-0.23333	-0.75208	-0.66042	-0.03125	-1.0312	-0.38958	-0.31667	-1.1625	-0.34167	21.977	123.267	160.121	183.711	-11.865	44.520	160.919	-90.175	-19.460	-1.947	195.660	-62.184	175.771	-106.027	-65.317	-120.734	0.00052793	0.00038056	0.00013848	1366.2	3.7966e-06	5.7291e-06	1376.5	374.43	3.1391e-06	8.4605e-06	430.39	140.89	122.33	41.051	4.6547e-06	51.178	0.00076424	0.00083233	0.00023195	1384.3	9.0222e-06	9.0782e-06	1396.4	380.88	9.0051e-06	9.3236e-06	439.24	145.14	125.38	42.147	9.1785e-06	52.654	173.173	-74.793	-36.610	-128.223	-42.723	58.257	-128.597	-123.891	-35.559	-8.641	-124.141	-120.387	-120.128	-114.723	-12.047	-115.648	-8191	255	
6298.071	1	1	0	0	0.24389	0.065323	0.091206	0.21788	0.29636	0.045825	0.39367	0.25049	0.053044	0.085284	0.14547	0.4042	0.20932	0.13021	0.081679	0.19493	-0.18125	-0.63542	-0.010417	-1.0479	-0.30417	-0.18958	-1.2687	-0.20833	-0.64792	-0.84792	-0.2125	-1.0646	-0.31875	-0.41458	-1.0854	-0.1125	96.925	-58.151	134.204	-126.955	15.841	155.890	167.838	202.186	43.238	128.981	-120.387	-125.785	156.744	66.066	188.255	152.644	0.00046589	0.00048054	0.00015376	1375.5	1.7695e-06	3.4733e-06	1377.4	376.11	4.1119e-06	5.7301e-06	431.51	142.16	122.26	41.082	4.1028e-06	51.07	0.00076217	0.00085933	0.00024131	1388	9.4542e-06	9.4755e-06	1399.7	382.19	9.4621e-06	9.5808e-06	439.31	145.68	125.26	42.158	9.799e-06	52.653	171.649	-50.896	-4.771	-128.417	-1.776	51.406	-128.599	-123.835	-58.072	-22.352	-124.101	-120.605	-120.133	-114.839	-18.689	-115.794	-8191	255	
6298.143	1	1	0	0	0.30323	0.13996	0.13069	0.40794	0.18243	0.15227	0.29404	0.41912	0.21235	0.14863	0.2788	0.031454	0.16274	0.1565	0.010805	0.15384	-0.37708	-0.58542	0.06875	-1.1271	-0.40833	-0.25833	-1.3104	-0.27917	-0.50417	-0.83542	-0.15417	-0.93542	-0.74375	-0.21875	-1.0479	-0.19167	22.225	-89.804	90.193	208.002	-101.155	-3.571	114.423	164.230	52.660	206.113	132.275	23.746	-4.776	4.688	173.661	210.961	0.00045584	0.00030671	8.6258e-05	1375.4	3.8136e-06	6.7502e-06	1374.9	376.04	3.8547e-06	6.4677e-06	430.23	141.83	122.3	41.158	6.9322e-06	51.042	0.00081498	0.0008792	0.00025055	1389.4	9.8104e-06	9.8521e-06	1400.5	381.92	9.7092e-06	9.9643e-06	439.15	145.54	125.53	42.191	9.5626e-06	52.627	177.122	-67.644	-50.432	-128.168	-30.089	33.035	-128.610	-123.881	-24.456	44.090	-124.468	-120.421	-120.075	-114.812	7.652	-115.683	-8191	255	
6298.239	1	1	0	0	0.079289	0.27146	0.1115	0.25496	0.071185	0.2314	0.12538	0.31826	0.26667	0.2291	0.072776	0.089979	0.34968	0.1806	0.35969	0.27976	-0.058333	-0.69792	0.13125	-1.0458	-0.68125	0.010417	-1.2708	-0.3	-0.33125	-1.0187	-0.14583	-0.82292	-0.70625	-0.24792	-0.9125	-0.55417	-96.913	209.199	49.744	119.524	157.905	15.970	-89.704	145.642	-94.691	-133.028	182.708	201.161	-136.594	-111.613	-103.006	155.139	0.00052752	0.00046628	0.0002527	1369.1	2.1657e-06	4.0629e-06	1378.8	376.34	6.369e-06	7.1527e-06	433.7	141.97	122.25	41.058	3.1715e-06	50.955	0.00082729	0.00087938	0.0002464	1387.7	9.5487e-06	9.9145e-06	1401.5	382.49	9.5916e-06	9.9993e-06	440.03	145.59	125.62	42.193	9.7669e-06	52.692	180.755	-23.629	-41.807	-128.412	-49.806	5.526	-128.707	-123.924	-29.801	15.738	-124.342	-120.243	-119.934	-114.770	-47.714	-115.285	-8191	255	
6298.360	1	1	0	0	0.12475	0.083588	0.20325	0.19885	0.21906	0.28793	0.41133	0.16082	0.22137	0.080357	0.031305	0.23019	0.23203	0.097926	0.14762	0.24709	0.05625	-0.9875	-0.17917	-0.80417	-0.77292	0.052083	-1.2375	-0.47292	-0.10625	-1.0312	-0.28125	-0.825	-0.85	-0.30833	-0.85833	-0.57083	12.351	-53.108	42.181	197.902	112.753	18.898	205.637	-123.833	-13.131	80.081	71.380	159.855	-119.913	215.942	61.753	198.160	0.00042125	0.00011206	0.00019809	1371.6	2.2277e-06	5.9331e-06	1377.8	376.25	5.9131e-06	6.2175e-06	431.59	141.68	122.78	41.223	4.2073e-06	51.022	0.00083321	0.00088554	0.00025213	1390	9.6775e-06	9.9334e-06	1401.7	382.13	9.6818e-06	9.8704e-06	439.73	145.56	125.79	42.221	9.9284e-06	52.71	175.822	-112.053	-36.111	-128.232	-51.181	23.453	-128.485	-123.859	-39.553	-6.838	-124.578	-120.498	-120.049	-114.906	7.685	-115.729	-8191	255	
6298.456	1	1	0	0	0.021269	0.20224	0.10302	0.21782	0.12113	0.12554	0.18028	0.11017	0.3779	0.18517	0.05712	0.39693	0.35549	0.26262	0.045063	0.23674	0.2125	-0.91667	-0.34375	-0.84167	-1.0708	-0.31458	-1.0208	-0.80417	-0.34583	-1.1167	-0.26042	-0.64583	-1.05	-0.20625	-0.88542	-0.675	-109.686	208.005	123.160	170.744	-0.338	-125.543	183.756	-128.361	-81.856	-140.305	145.750	-125.836	211.900	-104.044	153.814	82.949	0.00049644	0.00035439	0.00017221	1371.3	6.3131e-06	2.036e-06	1381	374.23	4.056e-06	6.4226e-06	430.99	141.36	122.64	41.208	3.4045e-06	51.06	0.00081471	0.00090026	0.00025542	1389.3	9.9404e-06	1.024e-05	1402.4	381.59	9.8655e-06	1.0028e-05	439.26	145.38	125.83	42.231	9.9921e-06	52.791	170.827	-116.697	-27.383	-128.662	-12.053	16.567	-128.930	-124.297	-9.338	23.259	-124.336	-120.554	-119.943	-115.023	14.195	-115.700	-8191	255	
6298.552	1	1	0	0	0.10967	0.066038	0.26353	0.33343	0.16124	0.23086	0.1832	0.25481	0.031114	0.2586	0.12674	0.37522	0.12965	0.20832	0.2153	0.36021	0.18125	-1.1292	-0.175	-0.55625	-0.90208	0.03125	-1.0771	-0.79583	-0.1	-1.1021	-0.54375	-0.48333	-1.1938	-0.22083	-0.64792	-0.70833	-141.415	90.793	-14.274	-121.582	20.626	33.265	15.146	165.778	-55.822	-14.396	-136.337	191.182	-137.368	-58.642	207.611	39.292	0.00054424	0.00064275	0.00016744	1378.1	4.1034e-06	4.8732e-06	1380.8	376.09	4.6093e-06	7.4183e-06	430.96	141.88	122.72	41.022	3.3211e-06	50.851	0.00083928	0.00093379	0.0002564	1392.2	9.779e-06	1.006e-05	1404	382.96	9.9241e-06	1.0172e-05	439.39	145.45	125.65	42.128	9.7847e-06	52.565	175.536	-71.700	-71.136	-128.248	-60.046	57.578	-128.511	-123.790	-45.490	-8.424	-124.331	-120.532	-119.921	-115.053	-28.580	-115.606	-8191	255	
6298.648	1	1	0	0	0.28516	0.11638	0.14564	0.17065	0.055384	0.14676	0.11707	0.32792	0.28632	0.18567	0.16323	0.25329	0.13304	0.39995	0.20704	0.16877	0.42083	-0.90833	-0.51042	-0.53333	-0.97708	-0.14167	-0.76042	-0.87708	-0.016667	-0.83333	-0.6625	-0.24375	-0.975	-0.29583	-0.59375	-0.92292	-60.804	85.142	-111.675	128.867	160.486	-138.962	130.332	133.484	140.008	23.120	189.920	172.072	-116.322	183.604	204.119	138.445	0.00045106	0.00072731	0.00015077	1372.5	5.5055e-06	5.3531e-06	1379.6	376.82	3.7428e-07	3.3823e-06	432.18	141.34	122.65	41.162	5.8088e-06	51.076	0.00082148	0.00088105	0.00025154	1389.9	9.6551e-06	9.7395e-06	1401.4	382.66	9.7064e-06	9.6809e-06	439.81	145.37	125.86	42.236	9.3138e-06	52.653	172.839	-44.386	-23.935	-128.591	-18.799	-2.402	-128.761	-124.105	-70.407	43.424	-124.437	-120.558	-120.130	-115.163	-54.809	-115.602	-8191	255	
6298.742	1	1	0	0	0.16083	0.28995	0.064618	0.27036	0.098444	0.074763	0.22245	0.38756	0.3021	0.22157	0.27075	0.23061	0.22337	0.082177	0.072678	0.069733	0.45208	-0.7875	-0.56042	-0.40417	-1	-0.22292	-0.75417	-1.0063	-0.029167	-0.84375	-0.73333	-0.17292	-0.9625	-0.22292	-0.33125	-0.97917	45.098	-26.603	-33.967	200.505	-111.001	-72.660	-135.228	165.561	149.889	132.646	175.861	7.814	-122.143	-62.028	-77.692	150.916	0.00045243	0.00065604	0.00018984	1374	2.18e-06	3.7825e-06	1381	375.32	4.6726e-06	5.6958e-06	431.88	141.41	123.63	41.017	2.4138e-06	51.337	0.00079401	0.00085669	0.00023954	1389.8	9.056e-06	9.4596e-06	1401	382.24	9.1394e-06	9.1335e-06	439.12	145.18	126.18	42.121	9.2287e-06	52.719	177.261	-33.109	-61.965	-128.514	-3.815	25.113	-128.624	-124.029	13.944	-1.729	-124.366	-120.615	-120.062	-114.912	-21.740	-115.552	-8191	255	
6298.839	1	1	0	0	0.18625	0.094753	0.33754	0.39698	0.16557	0.052888	0.083148	0.32399	0.078355	0.098979	0.43165	0.1651	0.28469	0.073814	0.34951	0.24922	0.12083	-0.84583	-0.7875	-0.31458	-0.87083	-0.16042	-0.6875	-1.1271	-0.26667	-0.73125	-0.8875	-0.175	-0.95	-0.43333	-0.31042	-1.1292	-17.138	-95.971	61.345	151.824	166.610	-60.483	-126.692	186.883	83.685	-4.114	182.074	192.873	-122.300	-7.616	-34.425	189.573	0.00046497	0.00032303	8.2626e-05	1374	4.5928e-06	3.8356e-06	1383.5	375.84	4.5405e-06	5.4123e-06	431.3	142.12	122.58	40.929	1.8327e-06	51.3	0.00077663	0.00082538	0.00023337	1387.9	8.8046e-06	9.2434e-06	1400.3	381.6	8.9316e-06	8.9985e-06	439.37	145.26	125.67	42.081	9.0879e-06	52.689	169.910	-84.275	-11.351	-128.389	-7.294	9.553	-128.683	-123.769	-47.230	-15.633	-124.389	-120.554	-119.719	-114.975	-71.587	-115.808	-8191	255	
6298.936	1	1	0	0	0.29445	0.28294	0.20152	0.16619	0.11132	0.073667	0.16174	0.1827	0.14087	0.45115	0.25883	0.031037	0.22435	0.11257	0.23818	0.26994	0.25417	-0.56042	-0.79583	-0.26042	-0.9	-0.67083	-0.56875	-1.1792	-0.22917	-0.66042	-0.92083	-0.1	-1.0479	-0.8	-0.1625	-1.0438	203.155	51.041	-25.931	171.547	-4.579	-79.290	49.324	135.140	-139.169	216.903	211.505	-100.120	60.563	-73.281	-103.433	100.204	0.00046919	0.00040576	0.00014462	1369.6	4.1485e-06	4.3387e-06	1376.1	375.41	3.8157e-06	5.5542e-06	431.3	141.49	122	40.969	3.682e-06	51.071	0.00074465	0.0008212	0.00022455	1386.2	9.0246e-06	9.1526e-06	1400	381.86	9.1548e-06	9.1952e-06	438.5	145.22	125.42	42.094	9.0691e-06	52.665	172.543	-36.819	-20.701	-128.384	-5.017	26.554	-128.614	-124.178	-39.559	15.079	-124.627	-120.519	-119.682	-114.930	-24.054	-115.701	-8191	255	
6299.055	1	1	0	0	0.068087	0.081865	0.11645	0.26661	0.049381	0.28189	0.38294	0.12284	0.32509	0.049448	0.2545	0.1955	0.045641	0.48609	0.04712	0.36383	0.19167	-0.4625	-0.89375	-0.23958	-0.75208	-0.49583	-0.45	-1.1938	-0.010417	-0.52917	-1.0875	-0.054167	-0.88333	-0.79375	0.0083333	-1.0333	69.631	-72.863	186.424	-140.571	-102.101	203.734	199.423	9.171	-85.964	-119.029	138.088	-95.464	69.101	197.218	175.936	185.322	0.00047728	0.00037482	0.0002124	1373.8	3.6216e-06	5.1685e-06	1381.2	375.43	3.7925e-06	6.3524e-06	428.2	142.5	122.63	40.984	2.0396e-06	51.314	0.00078903	0.00084914	0.00023133	1386.5	9.1213e-06	9.2231e-06	1401.1	381.91	9.0975e-06	9.1975e-06	438.65	145.33	125.69	42.127	9.1362e-06	52.705	169.308	-56.291	-39.913	-128.439	14.591	5.052	-128.744	-124.094	-30.118	10.379	-124.040	-120.452	-119.964	-114.944	-70.642	-115.425	-8191	255	
6299.152	1	1	0	0	0.063083	0.11528	0.091517	0.39918	0.16723	0.47172	0.10431	0.18331	0.12613	0.22433	0.15788	0.50143	0.015231	0.048434	0.12279	0.083532	-0.052083	-0.36042	-0.88125	-0.29167	-0.92917	-0.71458	-0.22292	-0.99375	-0.3375	-0.46042	-1.1542	-0.175	-0.58958	-0.88125	-0.39583	-1.1125	100.320	-110.712	208.621	198.412	-64.063	-25.712	124.429	192.347	109.645	143.906	185.151	-132.918	181.961	151.455	-33.291	119.545	0.0004344	0.00059457	0.00015321	1371.4	5.6247e-06	3.9573e-06	1375.6	374.67	3.8557e-06	6.4916e-06	430.67	141.21	122.23	41.083	2.3658e-06	51.014	0.00078064	0.00084078	0.00023402	1388.2	8.9771e-06	9.45e-06	1399.6	382.34	9.0992e-06	9.2433e-06	439.12	145.29	125.64	42.182	9.1799e-06	52.637	173.424	-55.391	-19.574	-128.468	12.226	34.123	-128.485	-123.807	-28.997	35.196	-124.110	-120.508	-119.658	-114.904	-8.457	-115.445	-8191	255	
6299.248	1	1	0	0	0.071962	0.20285	0.12987	0.26669	0.074149	0.02931	0.27841	0.054786	0.19349	0.14389	0.16932	0.015892	0.25268	0.22155	0.10313	0.016166	0.06875	-0.20417	-0.73542	-0.19792	-0.54167	-0.73958	-0.22083	-0.88958	-0.36875	-0.1625	-1.1313	-0.32917	-0.52083	-1.0521	-0.20625	-1.0812	58.053	217.484	98.903	206.970	105.520	195.828	174.037	161.750	196.086	-139.504	143.249	49.689	159.414	122.197	35.767	-18.397	0.00052196	0.00065744	8.1039e-05	1373.5	2.2298e-06	5.7325e-06	1375.5	374.86	5.3973e-06	7.4598e-06	431.22	141.35	122.19	40.958	3.9811e-06	51.06	0.00077061	0.00082738	0.00022813	1389	9.0738e-06	9.2996e-06	1397.5	382.4	9.0846e-06	9.2186e-06	439.3	145.18	125.52	42.09	9.0397e-06	52.672	175.680	-66.980	-10.383	-128.386	33.967	9.511	-128.481	-123.949	-23.053	9.735	-124.295	-120.621	-119.892	-115.082	-52.480	-115.502	-8191	255	
6299.344	1	1	0	0	0.26785	0.046339	0.1816	0.29718	0.27169	0.046719	0.38715	0.35438	0.099154	0.17426	0.24386	0.1321	0.083684	0.32012	0.12475	0.34723	-0.30208	-0.035417	-1.0521	-0.50833	-0.38333	-0.92708	-0.25	-1.0312	-0.64375	-0.010417	-1.075	-0.52083	-0.46458	-1.1021	-0.091667	-0.66042	-130.117	-12.313	-55.595	174.178	217.808	140.078	186.639	175.091	181.259	40.242	177.499	96.197	-128.104	141.979	71.916	171.698	0.00049459	0.00047272	0.00023949	1373.3	3.4036e-06	2.9659e-06	1383.7	376.41	4.9453e-06	6.3591e-06	432.16	141.5	122.41	40.996	5.1317e-06	50.921	0.00077854	0.00082738	0.0002282	1388.2	8.9538e-06	9.0679e-06	1399.9	382.26	8.8443e-06	9.0089e-06	439.01	145.04	125.55	42.106	8.7163e-06	52.58	170.317	-50.219	-40.159	-128.283	20.163	59.156	-128.635	-123.852	-40.477	39.667	-124.220	-120.636	-119.671	-114.641	29.157	-115.099	-8191	255	
6299.440	1	1	0	0	0.23563	0.096647	0.24992	0.35992	0.35916	0.30613	0.27568	0.26221	0.11921	0.12744	0.23171	0.080207	0.14653	0.078492	0.074527	0.23101	-0.3125	0.052083	-0.94792	-0.52292	-0.08125	-1.1083	-0.21042	-0.98958	-0.72083	-0.23958	-1	-0.76667	-0.35	-0.83125	-0.21667	-0.63125	201.500	216.305	-68.681	202.620	63.736	126.117	177.692	133.280	-14.183	87.739	138.125	76.434	188.471	153.189	210.086	136.432	0.00046893	0.00040183	0.00012522	1371.9	3.882e-06	2.9434e-06	1377.8	375.58	4.0245e-06	8.9473e-06	431.46	140.54	122.12	41.076	3.9433e-06	51.146	0.00074012	0.00081903	0.00022402	1388.2	8.7272e-06	8.8629e-06	1400.9	381.66	8.683e-06	9.0324e-06	439.05	144.88	125.38	42.09	8.8546e-06	52.574	175.399	-73.146	-28.143	-128.253	0.643	30.941	-128.475	-123.813	-19.804	5.975	-123.589	-120.470	-119.780	-114.728	-13.509	-115.287	-8191	255	
6299.536	1	1	0	0	0.24337	0.14747	0.3787	0.13209	0.34661	0.16949	0.31785	0.28919	0.27003	0.050744	0.21138	0.034451	0.51165	0.14989	0.18031	0.17867	-0.5625	-0.0020833	-0.83542	-0.76042	-0.11875	-1.1167	-0.41875	-0.66458	-0.83125	0.03125	-0.79792	-0.77917	-0.18333	-1.1063	-0.30417	-0.625	212.701	-75.730	12.412	192.354	-88.333	-139.398	110.301	145.545	72.446	-103.475	183.417	-20.629	193.158	187.426	-8.240	181.156	0.00047426	0.00054115	9.0918e-05	1369.9	4.3857e-06	5.1376e-06	1381.6	374.78	5.3194e-06	5.8214e-06	428.98	141.31	123.02	41.012	3.0001e-06	50.929	0.00074285	0.00080446	0.0002207	1385.3	8.5915e-06	8.841e-06	1399.9	381.86	8.6039e-06	8.9617e-06	438.39	145.01	125.51	42.083	8.7602e-06	52.544	171.260	-30.572	-24.614	-128.367	17.661	24.943	-128.548	-123.517	-38.302	-7.615	-123.965	-120.139	-119.829	-114.812	-1.065	-115.300	-8191	255	
6299.657	1	1	0	0	0.13182	0.047907	0.096548	0.23885	0.21027	0.13748	0.24986	0.12495	0.10267	0.30028	0.38921	0.1375	0.20876	0.24669	0.19017	0.18756	-0.66458	0.10625	-0.81875	-0.65208	-0.17917	-1.1146	-0.58958	-0.37708	-0.93333	-0.23958	-0.91875	-0.80833	-0.23958	-1.1417	-0.38958	-0.41042	164.978	-112.713	209.451	-106.748	215.757	171.908	159.302	104.494	94.815	149.167	197.814	-96.313	109.077	186.851	170.394	21.491	0.00050555	0.00041579	0.00012165	1373.6	1.9407e-06	1.8867e-06	1378	375.92	5.4973e-06	3.8171e-06	428.82	141.33	122.7	41.052	3.3023e-06	50.845	0.00074879	0.00082919	0.00021732	1387.6	8.6712e-06	8.5832e-06	1400.4	382.22	8.542e-06	9.0059e-06	438.69	145.11	125.66	42.108	9.0019e-06	52.509	171.497	-48.583	-70.309	-128.327	-30.559	-7.743	-128.578	-123.577	-31.530	34.460	-124.254	-120.467	-119.804	-114.792	-50.395	-115.652	-8191	255	
6299.751	1	1	0	0	0.071665	0.13922	0.19863	0.43293	0.059353	0.14617	0.27752	0.29957	0.15211	0.22667	0.042031	0.1346	0.20481	0.25026	0.064341	0.37362	-0.675	-0.13333	-0.65	-0.88542	-0.19167	-0.88125	-0.59792	-0.45625	-1.0417	-0.21458	-0.75	-0.83958	-0.32917	-1.0792	-0.61875	-0.31042	180.669	-140.357	104.146	-137.818	-44.821	66.920	131.820	206.797	166.904	-45.082	-51.426	126.266	-80.698	192.070	62.236	158.778	0.00044758	0.00064452	0.00019314	1366.1	4.7696e-06	4.9494e-06	1378	374.35	3.8295e-06	6.952e-06	430.44	141.76	122.25	40.845	5.6007e-06	50.97	0.00073433	0.00080986	0.00022511	1386.3	8.8488e-06	8.7786e-06	1398.4	381.77	8.6011e-06	8.9652e-06	438.62	145.02	125.46	41.999	8.8321e-06	52.683	173.903	-28.792	-42.657	-128.376	2.877	6.908	-128.448	-123.842	-11.544	14.012	-124.123	-120.323	-119.731	-114.660	-28.325	-115.320	-8191	255	
6299.847	1	1	0	0	0.0074698	0.18365	0.027684	0.22294	0.21579	0.19727	0.24803	0.18066	0.35755	0.40891	0.274	0.18524	0.21664	0.13506	0.1619	0.18684	-0.60417	-0.27708	-0.44583	-1.2437	-0.0625	-0.88125	-0.87292	-0.22292	-0.96875	-0.29375	-0.50833	-0.94167	-0.23125	-1.0333	-0.71875	-0.15	140.430	-123.999	184.615	212.824	61.764	-41.389	186.368	172.415	-92.306	35.063	201.054	199.175	-133.683	-67.175	-124.869	170.177	0.00050585	0.00050809	0.00017463	1371.4	3.5022e-06	5.0593e-06	1383.7	374.64	2.9878e-06	5.3995e-06	431.43	141.72	122.6	40.827	3.0448e-06	51.129	0.00074116	0.00080133	0.00022161	1387.5	8.8466e-06	8.8861e-06	1400.2	381.6	8.6294e-06	8.8708e-06	438.52	145.04	125.67	42.098	8.8366e-06	52.623	172.908	-61.955	-70.796	-128.489	-33.095	21.822	-128.528	-123.758	-16.155	16.841	-124.315	-120.342	-120.031	-114.733	-17.099	-115.197	-8191	255	
6299.943	1	1	0	0	0.12049	0.17905	0.031495	0.1832	0.1417	0.033797	0.13141	0.25417	0.36494	0.13892	0.33745	0.33463	0.13185	0.13357	0.13109	0.21251	-0.67083	-0.28958	-0.31042	-1.0792	-0.23958	-0.77708	-0.82292	-0.48542	-1.1521	-0.40833	-0.52917	-1.0021	-0.39792	-0.75208	-0.88958	0.022917	126.754	110.137	-43.585	190.259	-51.180	47.811	167.810	180.948	-64.774	139.250	-64.965	-85.501	150.227	-48.176	14.650	-94.310	0.00047419	0.00049406	0.00014011	1366.9	1.765e-06	7.0274e-06	1380.7	374.24	4.9998e-06	5.7129e-06	431.72	141.04	122.08	40.918	4.1061e-06	51.027	0.00073765	0.00080512	0.0002265	1385.7	8.7159e-06	8.6616e-06	1398.8	381.42	8.4883e-06	8.7897e-06	438.29	144.84	125.16	42.021	8.518e-06	52.454	167.705	-73.378	-55.161	-128.349	48.439	24.411	-128.372	-123.705	-53.194	16.232	-124.247	-120.326	-119.969	-114.559	38.354	-115.312	-8191	255	
6300.017	1	1	0	0	0.19361	0.16486	0.2382	0.14016	0.11737	0.43866	0.12361	0.16987	0.14129	0.23536	0.18857	0.35662	0.059743	0.057013	0.41142	0.31377	-0.55	-0.4875	-0.095833	-1.1354	-0.2125	-0.40208	-0.90833	-0.13125	-0.95208	-0.47292	-0.2125	-1.0521	-0.29583	-0.61875	-1.0042	-0.079167	132.723	-30.137	72.778	-79.982	-37.812	-119.950	158.029	214.868	97.487	155.176	157.960	198.260	186.686	150.980	-115.205	-119.320	0.00045288	0.00038761	0.00017183	1366.6	2.2278e-06	4.0704e-06	1381.2	374.34	4.2944e-06	2.6769e-06	429.21	141.53	122.38	41.051	3.8533e-06	50.753	0.0007315	0.00079389	0.0002222	1385.2	8.6128e-06	8.7394e-06	1399.9	381.23	8.535e-06	8.9113e-06	437.67	144.99	125.53	42.06	8.6699e-06	52.449	177.543	-63.300	-71.946	-128.402	-10.479	2.993	-128.627	-123.813	-17.807	-15.328	-124.045	-120.158	-119.933	-114.738	-34.331	-115.242	-8191	255	
6300.136	1	1	0	0	0.060349	0.19861	0.24513	0.24148	0.099114	0.034462	0.6536	0.24636	0.19179	0.16512	0.41749	0.090164	0.34165	0.18388	0.34296	0.082905	-0.36458	-0.62708	-0.020833	-1.0771	-0.3	-0.39583	-1.2563	-0.36875	-0.7375	-0.70208	-0.28125	-1.0479	-0.6125	-0.22083	-0.89792	-0.06875	202.287	194.181	-28.047	188.386	116.496	194.774	163.839	113.699	-69.597	-95.395	204.789	8.643	-120.872	158.345	113.438	-126.446	0.00050977	0.00088878	0.00011027	1372.2	2.6122e-06	6.0227e-06	1381.3	374.6	4.7225e-06	5.104e-06	431.57	141.34	122.3	40.947	4.9305e-06	50.613	0.00075034	0.00082192	0.0002226	1389.8	8.8706e-06	9.1406e-06	1401.6	381.63	8.7541e-06	8.9359e-06	439.38	145.11	125.45	42.025	8.7624e-06	52.473	169.037	-62.635	-66.897	-128.401	-66.477	23.559	-128.591	-123.845	5.266	35.181	-124.205	-120.513	-119.890	-114.813	-8.328	-115.388	-8191	255	
6300.232	1	1	0	0	0.070031	0.12448	0.26693	0.30244	0.32325	0.092691	0.26022	0.19231	0.28096	0.079734	0.068862	0.1944	0.28259	0.065934	0.066517	0.15565	-0.35208	-0.67083	-0.1625	-0.96042	-0.20625	-0.38958	-1.1208	-0.11042	-0.53542	-0.83333	-0.25	-0.87708	-0.525	-0.27917	-0.78333	-0.24375	-71.140	161.613	-113.212	192.318	22.194	170.295	155.939	156.649	-120.903	201.309	-101.612	192.996	173.937	94.542	-80.976	215.440	0.00044213	0.00032356	4.215e-05	1368	5.1634e-06	2.0166e-06	1375.9	376.08	3.3442e-06	5.8884e-06	431.17	141.17	122.65	40.983	3.8225e-06	51.01	0.00075039	0.00080621	0.00022329	1386.4	8.6996e-06	8.9831e-06	1399.1	381.64	8.72e-06	8.9046e-06	438.36	144.94	125.38	42.022	8.7559e-06	52.489	179.759	-62.539	-54.369	-128.148	0.772	75.028	-128.424	-123.981	-34.123	13.233	-124.298	-120.203	-120.059	-115.080	12.138	-115.409	-8191	255	
6300.328	1	1	0	0	0.078923	0.37614	0.10492	0.1309	0.10822	0.12971	0.089374	0.24026	0.17952	0.058364	0.19704	0.20002	0.22222	0.15856	0.067934	0.21306	-0.13958	-0.95833	-0.020833	-1.1104	-0.42292	-0.24375	-1.0542	-0.43333	-0.46042	-0.97083	-0.20833	-0.97917	-0.65625	-0.28125	-1.0854	-0.29583	178.487	200.077	-106.037	-141.028	30.697	-40.362	146.932	155.607	-141.879	109.682	46.692	-99.065	171.581	173.068	23.871	214.419	0.00047975	0.00054216	0.00016847	1370.5	3.7724e-06	3.1269e-06	1377.7	374.1	3.9839e-07	6.2736e-06	430.8	141.59	122.33	41.123	6.534e-06	50.867	0.00074728	0.00080553	0.00022546	1385.7	8.6876e-06	9.0999e-06	1398.1	380.93	8.7306e-06	8.9228e-06	438.14	145.08	125.31	42.087	9.1017e-06	52.403	176.037	-68.571	-28.998	-128.292	-14.976	-1.469	-128.533	-123.968	-111.583	67.277	-123.990	-120.294	-119.820	-114.881	-10.081	-115.470	-8191	255	
6300.449	1	1	0	0	0.2602	0.091464	0.15589	0.26171	0.25178	0.060519	0.17655	0.24546	0.16577	0.079954	0.14451	0.039026	0.30635	0.1936	0.21587	0.37857	-0.06875	-1.1354	0.00625	-0.96875	-0.6	-0.11458	-1.2229	-0.45208	-0.32292	-0.975	-0.16042	-0.7625	-0.85833	-0.11458	-0.91042	-0.46042	-136.865	211.729	-10.281	178.559	141.942	-105.482	101.161	116.969	68.921	148.860	182.065	204.175	166.583	-120.093	-5.600	88.956	0.00049117	0.00075443	0.00014104	1370.5	6.3131e-06	3.4716e-06	1376.2	374.22	3.3399e-06	8.601e-06	428.82	141.45	122.68	40.953	5.9581e-06	50.805	0.00077363	0.00082775	0.00023066	1385.7	8.8682e-06	9.048e-06	1395.5	380.68	8.7678e-06	8.9707e-06	437.43	145.16	125.17	41.981	8.9591e-06	52.336	176.479	-60.902	-0.535	-128.284	-8.858	59.785	-128.591	-124.034	-33.358	5.996	-123.866	-120.135	-119.744	-114.889	-22.852	-115.275	-8191	255	
6300.545	1	1	0	0	0.058207	0.36298	0.15557	0.27824	0.1763	0.060973	0.4002	0.33797	0.32777	0.11697	0.29267	0.46638	0.3391	0.13469	0.37298	0.14308	0.0625	-0.97083	-0.10833	-0.91667	-0.63542	0.064583	-1.1042	-0.52083	-0.23333	-1.2104	-0.19583	-0.65625	-0.8625	-0.36875	-0.69375	-0.57083	87.373	-59.225	199.699	156.359	-95.179	178.782	139.644	161.906	213.253	44.198	71.673	178.108	168.291	190.069	-103.791	-34.801	0.00048584	0.00040912	8.7955e-05	1367.1	4.047e-06	4.5432e-06	1375	374.92	5.7973e-06	4.1137e-06	428.41	141.19	122.12	41.008	4.6878e-06	50.696	0.00076045	0.00081648	0.00022819	1387.1	8.8039e-06	9.2692e-06	1395.1	381.03	8.9551e-06	9.0759e-06	437.43	144.73	125.1	41.999	8.933e-06	52.46	171.667	-57.590	-22.836	-128.164	-20.409	33.592	-128.506	-123.680	-2.724	-15.180	-124.264	-120.309	-119.974	-114.801	-9.021	-115.349	-8191	255	
6300.616	1	1	0	0	0.1362	0.27744	0.085428	0.31412	0.20189	0.033908	0.16771	0.18074	0.059075	0.091064	0.28341	0.091081	0.16468	0.30746	0.28814	0.18514	0.19792	-1.1812	-0.20208	-0.625	-0.81667	-0.03125	-1.0333	-0.97083	0.13542	-1.0458	-0.38125	-0.52708	-0.98333	-0.097917	-0.80417	-0.78125	-37.392	-93.142	-44.432	157.233	217.297	-81.851	169.177	127.902	-127.012	-4.177	-140.108	205.735	210.539	-69.293	164.903	-90.113	0.00047095	0.00065326	0.00012754	1367.5	2.2572e-06	2.3695e-06	1372.1	375.04	4.496e-06	5.7089e-06	431.02	140.77	122.2	40.968	2.707e-06	50.723	0.00076557	0.00082476	0.00023152	1384.4	8.9087e-06	9.3035e-06	1396.3	381.23	8.9525e-06	8.9698e-06	437.39	144.88	125.23	42.016	8.8582e-06	52.426	174.026	-62.169	-47.484	-128.054	24.763	22.776	-128.260	-123.924	-38.107	20.934	-124.114	-120.306	-119.923	-114.573	-9.683	-115.525	-8191	255	
6300.737	1	1	0	0	0.1582	0.41683	0.18473	0.33363	0.20924	0.12561	0.15424	0.35042	0.12768	0.011917	0.04764	0.10044	0.12245	0.22515	0.17837	0.18473	0.45208	-0.92708	-0.32917	-0.61458	-0.9625	-0.12083	-0.84375	-0.88958	0.077083	-1.0187	-0.61458	-0.33125	-0.89375	-0.25	-0.52708	-0.93333	-37.465	96.193	-6.242	196.416	-45.657	43.894	137.811	130.227	-60.794	183.065	46.148	-133.220	184.184	210.316	-116.871	115.173	0.00054862	0.00042546	0.0001902	1363.4	4.2638e-06	4.3812e-06	1375.4	373.32	4.9639e-06	5.9895e-06	430.87	140.73	122.5	40.931	3.5402e-06	50.749	0.00076262	0.00082058	0.00022537	1384	8.7629e-06	9.1856e-06	1395.6	380.27	8.878e-06	8.8883e-06	437.45	144.61	125.25	41.984	8.8646e-06	52.339	174.425	-71.673	-21.741	-128.101	-42.922	23.356	-128.211	-123.823	-17.384	-0.012	-124.076	-119.910	-119.529	-114.873	8.433	-115.518	-8191	255	
6300.832	1	1	0	0	0.1806	0.21022	0.12508	0.27874	0.26025	0.11129	0.026163	0.16834	0.35516	0.14388	0.16548	0.53591	0.039699	0.17779	0.26968	0.16125	0.30833	-1.05	-0.45	-0.55417	-1.1	-0.42708	-0.95	-1.0771	-0.1875	-0.96875	-0.70417	-0.52917	-1.1458	-0.27083	-0.4375	-0.84583	179.303	31.189	-62.874	190.964	-49.361	127.634	46.111	154.208	80.646	182.387	166.379	155.506	-5.251	129.286	4.213	10.281	0.00049237	0.00042685	0.00012104	1367.9	6.4146e-06	5.0415e-06	1374	374.34	4.3096e-06	6.1275e-06	431.5	141.56	122.18	40.795	4.9266e-06	50.962	0.00075123	0.00079391	0.00022908	1383.8	8.8688e-06	9.131e-06	1396.3	380.76	8.7832e-06	9.0476e-06	437.56	144.89	125.12	41.958	8.9549e-06	52.476	172.916	-78.752	-10.887	-128.089	-44.992	39.909	-128.211	-123.632	-13.977	10.559	-123.968	-120.130	-119.555	-114.685	-5.084	-115.382	-8191	255	
6300.928	1	1	0	0	0.33482	0.10819	0.088441	0.44152	0.071855	0.093272	0.054534	0.27526	0.11797	0.11675	0.12119	0.19867	0.19403	0.25219	0.030169	0.12008	0.24167	-0.71458	-0.62917	-0.27292	-1.0917	-0.37083	-0.72708	-1.25	0.1375	-0.89167	-0.83958	-0.31458	-1.0979	-0.53125	-0.34792	-1.1646	195.928	216.034	124.628	205.285	75.904	141.582	-122.387	168.900	-74.245	128.558	124.891	186.814	188.945	195.016	57.689	-48.601	0.00047025	0.00065908	0.00014288	1371.2	3.6274e-06	8.4956e-06	1371.1	373.97	3.078e-06	5.0504e-06	429.27	141.28	121.62	40.813	3.9369e-06	50.866	0.00076076	0.00081825	0.00022887	1384.7	8.6503e-06	9.031e-06	1393.4	381.09	8.9588e-06	9.133e-06	437.45	144.8	124.88	41.891	9.0224e-06	52.329	175.000	-68.277	-43.415	-127.968	-29.196	22.390	-128.131	-123.561	-62.836	19.789	-124.103	-119.902	-119.479	-114.677	-62.840	-115.127	-8191	255	
6301.048	1	1	0	0	0.28104	0.24846	0.29968	0.078273	0.17714	0.089088	0.14571	0.38816	0.40706	0.13085	0.10527	0.14302	0.23094	0.22502	0.11943	0.3446	0.1	-0.58125	-0.67292	-0.15417	-0.93542	-0.34375	-0.51667	-1.2313	-0.23125	-0.4875	-0.9	-0.17083	-1.1979	-0.55625	-0.31458	-1.2479	81.964	13.747	25.506	-99.924	109.623	-43.925	125.120	139.358	27.487	-53.960	-50.502	144.239	180.834	164.044	-16.687	211.806	0.00048967	0.00041389	0.00017866	1366.6	1.6068e-06	5.4441e-06	1371.3	373.85	1.2615e-06	6.886e-06	429.21	140.62	121.86	40.86	3.1375e-06	50.808	0.00075047	0.00079949	0.00022595	1385.1	8.7745e-06	8.9803e-06	1394.8	380.19	9.0468e-06	8.9214e-06	437.18	144.67	125.09	41.965	8.8969e-06	52.426	175.037	-36.420	-30.797	-127.951	-32.152	0.750	-128.005	-123.465	-54.655	13.787	-123.665	-120.233	-119.199	-114.420	-6.380	-115.022	-8191	255	
6301.144	1	1	0	0	0.19657	0.3266	0.26546	0.1841	0.18396	0.33169	0.20151	0.2253	0.15678	0.17865	0.24865	0.19178	0.29068	0.16979	0.12131	0.20967	0.3375	-0.51458	-0.92708	-0.275	-0.7875	-0.50417	-0.39375	-1.1146	-0.18542	-0.60833	-1.0729	-0.16458	-0.95833	-0.68333	-0.22708	-1.1688	3.106	-141.254	34.687	150.322	-128.127	-70.515	215.991	175.521	121.891	17.550	-121.999	15.699	63.829	-128.647	3.260	201.523	0.00041924	0.00060356	7.8162e-05	1363.9	3.4084e-06	6.4943e-06	1377.3	374.47	5.5939e-06	5.4076e-06	428.68	140.64	122.77	41.017	3.9334e-06	50.897	0.00077162	0.00082872	0.00023227	1382.6	8.8059e-06	9.1234e-06	1395.8	380.99	8.9703e-06	9.0407e-06	437.25	144.69	125.38	41.985	8.913e-06	52.501	171.468	-65.774	-42.361	-127.932	-69.439	22.132	-128.096	-123.496	-30.577	59.394	-123.924	-120.214	-119.394	-114.475	7.712	-115.232	-8191	255	
6301.241	1	1	0	0	0.042867	0.11873	0.12716	0.43697	0.21702	0.20628	0.45809	0.34129	0.053387	0.17845	0.31944	0.22398	0.21657	0.21389	0.29035	0.31645	0.125	-0.3375	-1.0583	-0.28333	-0.84167	-0.82292	-0.22083	-1.1333	-0.30208	-0.37917	-1.0875	-0.27917	-0.6625	-0.67917	-0.15	-0.96667	198.672	179.901	-77.187	181.637	109.602	-81.881	189.658	178.283	-11.125	179.977	-130.210	96.502	-102.852	-0.236	78.512	-83.295	0.00042198	0.00029174	5.8183e-05	1363.1	5.1565e-06	7.1101e-06	1374.1	376.08	4.4672e-06	9.3446e-06	427.19	140.2	122.19	40.728	5.7558e-06	50.891	0.00074527	0.00082179	0.00022721	1381.8	8.8122e-06	8.7746e-06	1396	381.17	8.8406e-06	9.0045e-06	436.5	144.37	125.12	41.891	8.7764e-06	52.38	171.932	-97.654	-73.237	-127.860	-21.590	24.899	-128.316	-123.573	-32.532	17.080	-123.930	-120.170	-119.490	-114.667	-29.863	-115.149	-8191	255	
6301.312	1	1	0	0	0.10948	0.30194	0.10528	0.26468	0.096468	0.14691	0.19937	0.096791	0.13982	0.079579	0.16175	0.10836	0.20048	0.21936	0.17945	0.14007	0.06875	-0.39167	-0.90625	-0.4375	-0.73542	-0.81875	-0.12708	-1.0312	-0.475	-0.30833	-1.0917	-0.23958	-0.69375	-1.0771	-0.033333	-0.95625	-99.872	114.520	-140.751	202.074	-8.145	-138.212	158.452	210.025	-73.825	-112.878	137.795	199.953	139.277	189.436	-23.476	-137.439	0.00051	0.00035872	0.00011556	1365.3	5.0954e-06	2.7332e-06	1372.7	374.21	3.3698e-06	4.8194e-06	428.21	140.71	121.84	40.841	6.4846e-06	50.63	0.00076544	0.00081178	0.00022137	1384.6	8.5632e-06	8.89e-06	1393.8	381.22	8.878e-06	8.9272e-06	437.32	144.48	125.1	41.912	8.8404e-06	52.301	174.273	-74.184	-41.518	-128.016	-2.428	11.920	-128.219	-123.459	38.399	22.174	-123.790	-119.874	-119.360	-114.746	-20.897	-115.279	-8191	255	
6301.433	1	1	0	0	0.20152	0.16761	0.14959	0.15455	0.01576	0.32683	0.13323	0.15125	0.072379	0.20277	0.12091	0.39394	0.39014	0.23808	0.2542	0.45284	-0.22917	-0.052083	-1.0458	-0.47083	-0.5125	-0.79375	-0.2875	-0.97917	-0.94167	-0.15417	-0.9625	-0.33333	-0.50833	-1.1083	-0.18958	-0.9375	59.876	142.882	49.674	210.962	-11.073	13.081	-99.042	110.226	124.028	-70.492	-115.058	156.742	-71.609	180.480	89.073	-136.996	0.00046488	0.00054406	0.00011281	1362.9	4.2309e-06	5.3551e-06	1375.8	376.75	3.4857e-06	6.0015e-06	431.54	141.28	122.54	40.834	5.0884e-06	50.954	0.00075912	0.00082907	0.00022542	1382.1	8.861e-06	9.0619e-06	1394	381.19	8.8932e-06	9.022e-06	437.89	144.72	125.03	41.971	9.0293e-06	52.501	175.743	-28.885	-43.011	-128.100	-54.213	29.419	-128.300	-123.432	-31.288	-0.911	-123.777	-120.188	-119.413	-114.395	-42.870	-114.972	-8191	255	
6301.529	1	1	0	0	0.10565	0.14354	0.18504	0.19292	0.16296	0.21963	0.22742	0.0033445	0.16853	0.11366	0.21685	0.16658	0.2084	0.31671	0.13953	0.063963	-0.36042	-0.060417	-0.95625	-0.38958	-0.50417	-0.95625	-0.24375	-0.85625	-0.75	-0.17708	-1.0542	-0.45833	-0.5125	-1.1938	-0.1375	-0.85208	136.167	-27.500	-62.688	181.654	143.616	-30.450	152.373	36.181	169.401	91.865	-127.838	138.234	160.697	163.370	67.468	107.126	0.00047967	0.00039772	0.00012341	1366.5	2.3647e-06	6.076e-06	1372.1	372.92	4.3757e-06	4.2103e-06	429.61	140.77	122.46	40.904	3.8287e-06	50.892	0.00075692	0.00083266	0.00023086	1381.9	8.9235e-06	9.0755e-06	1394.6	379.99	8.8917e-06	9.1171e-06	437.51	144.77	125.26	41.921	9.0593e-06	52.375	171.397	-31.965	-33.506	-127.914	-46.342	22.505	-128.089	-123.255	-15.020	-4.068	-123.977	-120.086	-119.408	-114.547	-13.122	-115.039	-8191	255	
6301.625	1	1	0	0	0.18897	0.18406	0.30911	0.2327	0.08558	0.079387	0.1802	0.145	0.30682	0.17436	0.14144	0.12679	0.16924	0.1732	0.10115	0.23341	-0.49792	-0.089583	-0.88542	-0.78542	-0.34792	-1.1063	-0.25	-0.87292	-0.91875	-0.027083	-1.2083	-0.53958	-0.30208	-1.0562	-0.25	-0.64792	-26.847	204.439	-106.403	149.439	54.119	213.187	134.331	161.209	86.128	9.101	-85.278	-4.898	198.538	31.787	114.729	193.963	0.00052943	0.00030044	0.00015177	1366.6	4.5647e-06	5.7576e-06	1370.8	372.93	3.6957e-06	5.2856e-06	428.82	140.74	121.34	40.621	3.7047e-06	50.812	0.00075687	0.00083814	0.00022818	1381.5	8.9575e-06	9.1867e-06	1393.7	380.31	9.031e-06	9.2062e-06	437.12	144.57	124.82	41.841	8.9985e-06	52.309	173.200	-60.645	-52.502	-128.082	-59.618	35.136	-128.206	-123.469	-45.140	20.142	-123.682	-120.228	-119.212	-114.432	-39.797	-114.961	-8191	255	
6301.721	1	1	0	0	0.064844	0.024228	0.16882	0.35985	0.46112	0.096462	0.12072	0.21201	0.27539	0.14024	0.27731	0.16246	0.14596	0.1753	0.18648	0.27138	-0.61042	-0.2125	-0.80417	-0.80833	-0.10833	-1.0604	-0.54792	-0.525	-1.0292	-0.14375	-1.0396	-0.86458	-0.16458	-1.0271	-0.47917	-0.43958	2.408	-34.721	80.478	177.668	144.358	107.028	161.551	-123.181	45.275	125.182	180.522	198.720	-87.716	138.699	195.719	161.076	0.00045748	0.00049668	0.0001155	1366	3.6554e-06	4.4557e-06	1372.4	372.76	4.0945e-06	9.1641e-06	428.93	140.65	121.5	40.841	2.9475e-06	50.582	0.00076026	0.00082493	0.00022861	1382.2	8.7338e-06	8.9755e-06	1391.5	380.31	8.7521e-06	8.9762e-06	436.96	144.47	124.8	41.85	8.8061e-06	52.242	179.347	-40.584	-19.190	-127.888	-49.701	2.416	-128.306	-123.503	-38.291	13.932	-124.076	-120.323	-119.518	-114.496	-2.771	-114.961	-8191	255	
6301.840	1	1	0	0	0.39184	0.14231	0.068431	0.21011	0.2139	0.082666	0.21149	0.14636	0.12508	0.10049	0.14611	0.18562	0.28025	0.14814	0.24991	0.076754	-0.49583	-0.010417	-0.64167	-0.92917	-0.0125	-0.94167	-0.57083	-0.36458	-1.0958	-0.125	-0.78333	-0.87917	-0.12083	-0.96458	-0.28958	-0.37292	88.197	-30.966	25.105	179.602	69.660	196.897	123.661	139.594	146.635	19.774	98.169	149.132	158.061	-5.622	41.597	183.102	0.00050077	0.00035265	0.00011202	1356.7	4.3185e-06	4.9288e-06	1369.4	372.83	3.0025e-06	6.4742e-06	426.8	140.38	121.98	40.771	3.2429e-06	50.614	0.00073855	0.00079772	0.00022562	1379.9	8.764e-06	8.7429e-06	1392.3	380.29	8.6287e-06	8.8521e-06	436.5	144.34	124.92	41.908	8.8914e-06	52.351	172.469	-51.454	-55.589	-127.931	-35.490	21.138	-128.175	-123.369	-20.895	30.683	-123.454	-120.030	-119.350	-114.346	-4.494	-114.718	-8191	255	
6301.912	1	1	0	0	0.054664	0.34067	0.2204	0.1669	0.14163	0.077263	0.1403	0.25454	0.088667	0.33059	0.21757	0.24706	0.16979	0.26786	0.19377	0.25275	-0.72917	-0.15208	-0.51042	-1.1063	-0.058333	-0.95	-0.7	-0.38958	-0.92083	-0.09375	-0.54167	-1.0562	-0.14375	-0.85625	-0.66667	-0.13958	-130.029	12.361	34.287	107.645	38.838	-52.160	-133.077	187.398	144.903	12.043	-103.563	170.207	126.431	163.263	205.630	201.868	0.00052482	0.0005543	0.0001788	1358.8	3.5729e-06	4.5291e-06	1357.7	372.42	4.0947e-06	2.4634e-06	425.7	139.56	121.38	40.827	7.0763e-06	50.441	0.00074099	0.00081951	0.00022565	1379.9	8.7832e-06	9.0246e-06	1388.5	379.99	8.6474e-06	8.9258e-06	435.94	144.08	124.79	41.927	8.972e-06	52.28	170.772	-58.271	-91.111	-127.986	9.311	5.312	-128.079	-123.264	-98.186	21.037	-123.714	-119.915	-119.250	-114.166	20.046	-114.850	-8191	255	
6302.010	1	1	0	0	0.15793	0.15425	0.27349	0.47002	0.32067	0.21918	0.22021	0.3105	0.13712	0.25988	0.067275	0.25142	0.16817	0.32555	0.17392	0.26441	-0.77917	-0.29583	-0.45	-1.0312	-0.30625	-0.81042	-0.87917	-0.27083	-0.80625	-0.4375	-0.5	-1.0208	-0.2125	-0.81042	-0.89375	-0.09375	-46.174	205.958	95.539	192.532	110.374	-74.594	165.493	183.303	-39.669	-104.684	212.956	160.746	179.829	-110.469	-104.271	-116.805	0.00048844	0.00051266	0.00018144	1356.1	3.9602e-06	4.759e-06	1366.5	372.88	4.9199e-06	5.1253e-06	425.19	140.51	121.39	40.731	5.7043e-06	50.508	0.00073776	0.00080827	0.00022779	1379.5	8.8571e-06	9.013e-06	1390.8	379.5	8.9619e-06	8.9988e-06	434.84	144.27	124.9	41.901	8.9832e-06	52.263	167.503	-85.436	-19.717	-127.979	-40.547	6.943	-128.290	-123.365	-37.790	-24.089	-123.586	-120.016	-119.543	-114.293	-7.859	-114.954	-8191	255	
6302.129	1	1	0	0	0.099939	0.38203	0.17234	0.046587	0.30883	0.2824	0.61307	0.078344	0.14402	0.10285	0.067661	0.34955	0.055293	0.14799	0.1014	0.092657	-0.83542	-0.33542	-0.10625	-1.1771	-0.0125	-0.61667	-1.2146	-0.13333	-0.98542	-0.52083	-0.39167	-1.0896	-0.36667	-0.61667	-0.90208	-0.05	89.715	-56.673	-39.124	106.268	10.831	-56.419	165.493	-89.575	22.595	1.521	115.982	152.411	-64.062	123.191	141.806	121.020	0.00050262	0.00045264	0.00015672	1358.7	5.4425e-06	5.5104e-06	1361	371.93	4.8739e-06	5.21e-06	426.01	140.29	120.95	40.584	4.0932e-06	50.453	0.00075368	0.00082779	0.00022815	1380.1	9.0261e-06	9.133e-06	1390.6	379.54	8.9127e-06	9.1609e-06	436.84	144.48	124.61	41.844	9.0469e-06	52.285	179.259	-73.968	-61.223	-128.079	-17.655	35.730	-128.182	-123.356	-45.192	24.577	-123.619	-120.208	-119.320	-114.165	-25.039	-115.009	-8191	255	
6302.225	1	1	0	0	0.21355	0.11709	0.12624	0.29006	0.17092	0.18313	0.53274	0.25768	0.1886	0.086956	0.094596	0.29956	0.0097318	0.16069	0.09714	0.038735	-0.62083	-0.55	-0.31458	-1.1917	-0.23333	-0.61667	-1.0479	-0.2625	-1.0646	-0.775	-0.35208	-1.1458	-0.53125	-0.6375	-0.97917	-0.22708	120.821	31.488	-118.675	131.946	-88.740	25.255	144.837	111.693	27.181	106.647	-129.637	217.416	95.869	-115.576	129.844	80.329	0.00048172	0.00036426	0.00014736	1356.9	2.7279e-06	4.8293e-06	1360.3	371.37	4.3339e-06	9.5542e-06	426.61	139.89	120.96	40.658	4.7462e-06	50.301	0.00073903	0.00082225	0.00023174	1379.2	8.8141e-06	9.1835e-06	1388.2	379.63	8.8832e-06	9.2186e-06	435.82	144.09	124.6	41.902	8.8406e-06	52.21	167.022	-69.394	-38.818	-127.805	2.489	34.719	-128.228	-123.343	-28.254	16.446	-123.627	-119.971	-119.632	-114.195	5.123	-114.814	-8191	255	
6302.321	1	1	0	0	0.1912	0.1863	0.038881	0.16675	0.27835	0.21057	0.1729	0.27427	0.058173	0.089042	0.26631	0.11089	0.27685	0.15713	0.222	0.15769	-0.28958	-0.67083	-0.10625	-1.0771	-0.3375	-0.43333	-1.1958	-0.34792	-0.79792	-0.80208	-0.24167	-0.98542	-0.74375	-0.38125	-1.1542	-0.37708	143.590	-111.634	197.454	-133.867	122.809	-45.115	77.132	167.481	147.430	78.462	163.695	59.212	189.041	190.127	119.005	57.490	0.00047099	0.00060157	9.9919e-05	1352.4	3.1005e-06	3.0471e-06	1366.5	373.25	4.1886e-06	8.0758e-06	427.83	140.29	121.68	40.683	4.4887e-06	50.679	0.00075074	0.00082484	0.00022789	1378	9.0104e-06	8.9688e-06	1390.2	379.42	8.8045e-06	9.0655e-06	436.71	144.26	124.95	41.764	8.8923e-06	52.159	179.972	-61.128	23.567	-128.119	68.994	41.479	-128.302	-123.421	-44.564	-0.176	-123.700	-120.079	-119.744	-114.406	-26.704	-115.287	-8191	255	
6302.417	1	1	0	0	0.13955	0.18642	0.25773	0.23279	0.2814	0.16348	0.15218	0.22065	0.2589	0.31482	0.19545	0.098569	0.076009	0.32665	0.12733	0.19721	-0.36875	-0.79792	0.10625	-1.0396	-0.41875	-0.23542	-1.0833	-0.37083	-0.57083	-0.91875	-0.36667	-1.0271	-0.79167	-0.34792	-1.0521	-0.45625	-97.311	-127.152	-121.183	129.478	-77.987	97.230	107.267	165.817	10.419	202.916	-85.352	87.097	135.622	205.144	-98.276	-86.793	0.00049123	0.00044132	0.00014639	1365.4	1.8961e-06	1.9866e-06	1367.4	372.01	4.9407e-06	5.8943e-06	426.26	139.94	121.21	40.807	4.5422e-06	50.697	0.00075952	0.0008212	0.00022496	1381.1	8.915e-06	9.1376e-06	1391.5	379.35	9.122e-06	9.0897e-06	435.81	144.29	124.61	41.836	8.8301e-06	52.297	173.804	-33.132	-26.091	-127.947	-75.106	28.224	-128.283	-123.474	-19.768	-15.809	-123.648	-119.899	-119.611	-114.289	26.168	-115.147	-8191	255	
6302.513	1	1	0	0	0.16507	0.33418	0.037457	0.31084	0.25108	0.23832	0.16516	0.33618	0.11396	0.052859	0.10864	0.22655	0.22015	0.28002	0.23027	0.31229	-0.22292	-0.89375	-0.058333	-1.1938	-0.5875	-0.125	-1.1854	-0.51875	-0.40625	-1.0812	-0.32292	-0.875	-0.87917	-0.23542	-1.0833	-0.5625	117.942	112.495	-16.002	-119.116	35.251	-63.297	-140.147	182.751	-86.293	38.805	160.951	195.458	-74.955	190.861	-112.319	170.805	0.00046358	0.00073986	0.00014266	1359.8	1.7407e-06	4.0355e-06	1367.2	371.96	1.8392e-06	6.3358e-06	427.48	141.16	121.2	40.504	2.924e-06	50.317	0.00075671	0.0008124	0.00023052	1378.3	8.9636e-06	8.9158e-06	1389.2	379.22	8.7891e-06	9.0142e-06	436.53	144.56	124.66	41.839	8.8535e-06	52.238	164.286	-52.815	-56.596	-128.044	-15.863	-20.446	-128.025	-123.319	-58.047	32.048	-123.853	-120.186	-119.556	-114.208	-48.841	-115.142	-8191	255	
6302.609	1	1	0	0	0.068769	0.008456	0.14506	0.24522	0.17142	0.23213	0.34583	0.055505	0.21458	0.12344	0.26803	0.22874	0.074177	0.063221	0.065248	0.14683	-0.04375	-0.95208	-0.16042	-1.0792	-0.84375	-0.17083	-1.1729	-0.625	-0.425	-0.99375	-0.30625	-0.96875	-0.85	-0.13958	-0.93958	-0.74792	20.311	-118.029	197.384	-121.636	59.795	27.388	178.697	39.171	-103.424	191.129	92.581	123.157	-128.729	55.561	27.349	15.662	0.00048751	0.00066794	0.0001358	1363.7	1.3833e-06	7.429e-06	1366.1	372.03	3.4101e-06	3.598e-06	426.19	139.9	120.46	40.587	5.4983e-06	50.544	0.00075886	0.00081027	0.00022761	1380.2	8.9492e-06	9.1443e-06	1391.3	379.05	8.8749e-06	9.0183e-06	436.03	144.05	124.39	41.798	8.7005e-06	52.182	172.745	-45.047	-47.623	-127.924	-2.461	10.035	-128.181	-123.465	-55.039	10.767	-123.635	-120.017	-119.660	-114.146	5.763	-115.074	-8191	255	
6302.730	1	1	0	0	0.27321	0.1315	0.29757	0.38484	0.18785	0.20745	0.35147	0.12411	0.26004	0.049642	0.22236	0.23827	0.11587	0.1866	0.046955	0.096205	0.05	-1.0104	-0.27292	-0.98958	-0.74583	-0.14792	-1.1562	-0.83542	-0.17708	-1.1333	-0.34792	-0.68333	-1.0812	-0.36458	-0.84167	-0.78333	-89.038	139.560	-53.605	181.375	121.600	-94.048	151.953	-115.174	-43.871	118.607	216.795	214.480	-90.715	-54.240	124.673	179.869	0.00045712	0.00074143	0.00021078	1355.7	6.5075e-06	3.1014e-06	1368.6	369.81	4.5395e-06	4.2142e-06	424.25	140.3	121.21	40.539	4.3815e-06	50.358	0.00076522	0.00082017	0.00022831	1377.9	8.9442e-06	8.9573e-06	1391.1	378.82	8.9688e-06	9.063e-06	435.37	144.14	124.68	41.749	8.9751e-06	52.199	175.098	-30.579	-50.110	-127.894	12.218	7.986	-128.103	-123.546	-28.319	11.293	-124.001	-119.783	-119.404	-114.439	-14.674	-115.161	-8191	255	
6302.824	1	1	0	0	0.15591	0.069018	0.080872	0.40767	0.22434	0.28568	0.40704	0.19848	0.21623	0.042752	0.33848	0.30845	0.11676	0.20599	0.32732	0.36483	0.22917	-0.96458	-0.28958	-0.63333	-1.0271	-0.24792	-0.95	-0.77917	-0.10833	-1.0167	-0.44167	-0.54375	-1.1625	-0.0375	-0.59375	-0.88125	10.977	-19.603	-62.235	-134.998	68.648	-102.123	193.547	88.780	203.752	-71.371	158.257	-138.426	180.171	-130.377	-34.112	32.436	0.00046936	0.00051739	0.00018178	1360.4	4.8633e-06	7.2425e-06	1372.3	370.35	5.2468e-06	5.6677e-06	424.82	139.43	121.37	40.536	2.8722e-06	50.41	0.00076074	0.00082184	0.00023196	1380.5	8.7226e-06	9.0563e-06	1394	378.87	8.7847e-06	8.9325e-06	435.17	144.09	124.6	41.793	8.962e-06	52.2	175.946	-7.969	-38.379	-127.708	8.064	30.933	-127.968	-123.495	-80.899	-3.068	-123.827	-119.536	-119.198	-114.413	14.981	-115.155	-8191	255	
6302.921	1	1	0	0	0.097921	0.15784	0.23032	0.29824	0.1221	0.2598	0.12829	0.43133	0.41477	0.049155	0.21333	0.083712	0.069858	0.17072	0.35904	0.082046	0.11458	-0.97292	-0.48125	-0.57708	-1.0229	-0.15833	-0.98542	-0.95	-0.17708	-0.95625	-0.7625	-0.47083	-1.05	-0.27083	-0.41875	-1.125	-128.212	-3.836	-74.545	141.257	28.858	196.822	155.274	143.816	-58.348	164.514	175.423	122.318	-106.634	158.969	-1.641	206.904	0.00048675	0.00049947	0.0001297	1359.6	3.9795e-07	3.439e-06	1362	371.67	4.1063e-06	3.6658e-06	426.36	139.35	121.75	40.541	7.5634e-06	50.321	0.00075848	0.00082429	0.00022865	1380	8.8784e-06	9.2199e-06	1390.6	379.63	8.8289e-06	9.276e-06	435.28	144.02	124.83	41.754	8.913e-06	52.112	173.401	-77.031	-37.714	-127.720	124.666	-9.173	-127.739	-123.416	-39.114	27.558	-123.714	-119.999	-119.133	-114.305	-11.200	-114.871	-8191	255	
6303.017	1	1	0	0	0.25292	0.26195	0.26217	0.30642	0.26574	0.3458	0.34729	0.34773	0.25678	0.23902	0.25888	0.39027	0.19947	0.1399	0.12535	0.21904	0.28125	-0.80625	-0.57292	-0.46042	-0.94792	-0.47292	-0.97083	-0.9875	-0.2	-1.0375	-0.87708	-0.27083	-1.2854	-0.4625	-0.4875	-1.1125	190.130	-61.062	116.081	-126.306	192.646	193.168	160.670	149.282	-88.398	11.242	-107.309	198.155	146.541	203.186	-94.108	155.813	0.0004782	0.00049046	0.00016755	1355.6	3.6625e-06	5.2534e-06	1362.5	371.82	5.2407e-07	8.2059e-06	425.31	138.81	121.12	40.418	7.4505e-06	50.505	0.00076567	0.00080071	0.00022941	1378.9	8.9653e-06	9.2777e-06	1391.5	379.53	9.0214e-06	9.2101e-06	435.69	143.92	124.75	41.742	9.0466e-06	52.286	173.479	-69.053	-15.808	-127.929	-36.741	8.131	-128.013	-123.311	45.686	20.499	-123.749	-119.911	-118.940	-114.129	-26.783	-114.885	-8191	255	
6303.137	1	1	0	0	0.098854	0.24832	0.091774	0.21181	0.10589	0.082093	0.27516	0.17567	0.10332	0.37329	0.10288	0.20909	0.28669	0.18165	0.22104	0.17124	0.33333	-0.66042	-0.6375	-0.375	-1.0458	-0.51458	-0.425	-1.2396	-0.16042	-0.82083	-1.0104	-0.38333	-1.0438	-0.58542	-0.53125	-1.2729	-52.338	93.747	187.117	185.593	-95.498	177.622	214.045	217.433	3.900	159.513	57.573	-136.274	165.263	-136.679	-70.675	125.516	0.00043719	0.00026611	0.00011766	1357.4	3.4924e-06	4.1041e-06	1364.3	370.74	4.4778e-06	7.669e-06	424.38	139.11	121.08	40.521	6.4701e-06	50.16	0.00078093	0.00084941	0.00023141	1378.8	9.196e-06	9.4083e-06	1392	379.25	9.2168e-06	9.1839e-06	435.71	144.02	124.64	41.851	9.2672e-06	52.206	171.001	-57.730	-31.213	-127.852	-35.507	42.345	-127.885	-123.275	-46.520	21.158	-123.339	-119.727	-119.331	-114.455	-0.328	-114.766	-8191	255	
6303.209	1	1	0	0	0.21176	0.17311	0.037362	0.10306	0.1694	0.3115	0.28472	0.31856	0.26529	0.15223	0.33592	0.035163	0.10893	0.22776	0.14539	0.26555	0.089583	-0.63333	-0.64583	-0.36875	-1.0604	-0.52292	-0.44792	-1.1083	-0.375	-0.70417	-1.0187	-0.12917	-1.0854	-0.67917	-0.17083	-1.2625	197.392	78.511	184.440	-119.284	9.511	117.961	114.512	166.935	94.653	54.636	142.614	-42.363	156.574	125.408	-30.418	-44.245	0.00047035	0.00053548	0.00019875	1348.3	3.232e-06	7.0157e-06	1358.4	370.77	2.8524e-06	3.1316e-06	423.37	139.3	121.03	40.352	1.9394e-06	50.321	0.00078329	0.00085621	0.00023306	1378.2	8.9767e-06	9.3244e-06	1389.7	379.55	9.0357e-06	9.0902e-06	434.84	144.02	124.74	41.692	9.1175e-06	52.216	172.225	-41.690	-37.375	-127.678	-51.409	24.749	-127.890	-123.340	-62.285	20.663	-123.452	-119.605	-119.321	-114.276	-44.438	-114.724	-8191	255	
6303.305	1	1	0	0	0.03958	0.14992	0.14357	0.31932	0.19365	0.22109	0.39277	0.48685	0.14523	0.36188	0.29682	0.22742	0.20389	0.23063	0.22191	0.40947	0.060417	-0.61875	-0.85208	-0.39792	-0.8625	-0.67917	-0.44792	-1.2417	-0.29167	-0.61042	-1.2021	-0.32708	-0.86458	-0.89375	-0.25625	-1.1688	-17.493	-126.379	-80.703	-126.582	21.744	28.240	207.499	146.365	179.648	-121.636	193.113	-133.007	-137.082	-108.053	-85.444	163.000	0.0004551	0.00059048	0.00014046	1349.4	3.9889e-06	4.6896e-06	1358.2	368.68	3.2014e-06	7.9831e-06	423.74	139.27	120.48	40.187	7.0434e-06	50.311	0.00077031	0.00083931	0.00023195	1379.1	8.8976e-06	9.1809e-06	1389.4	378.99	9.3156e-06	9.2877e-06	434.98	143.98	124.68	41.692	9.2469e-06	52.237	174.715	-34.572	-38.294	-127.828	10.661	14.560	-127.988	-123.223	-1.445	40.116	-123.534	-119.927	-119.009	-114.283	9.435	-114.858	-8191	255	
6303.401	1	1	0	0	0.16476	0.1614	0.17226	0.22757	0.12976	0.17166	0.34707	0.3702	0.14257	0.090914	0.31317	0.30788	0.15874	0.13567	0.10297	0.079927	-0.020833	-0.38333	-1.05	-0.27083	-0.91875	-0.82292	-0.38542	-1.3062	-0.64792	-0.48333	-1.175	-0.22917	-0.84583	-0.89583	-0.15625	-0.96667	76.324	163.736	-86.418	218.157	-93.962	-21.139	184.075	136.671	166.270	66.400	200.581	-139.089	172.218	211.155	-132.391	-5.562	0.00051634	0.00049307	0.0001803	1347.5	1.0907e-06	5.83e-06	1355.8	370.49	4.0809e-06	6.0047e-06	424.5	139.03	120.65	40.382	4.4475e-06	50.078	0.00076588	0.00084282	0.00023296	1376.8	9.2376e-06	9.4705e-06	1388.9	379.53	9.1211e-06	9.4261e-06	435.77	143.95	124.77	41.763	9.0957e-06	52.098	178.337	-75.845	-44.708	-127.783	-10.122	0.724	-127.985	-123.346	-28.287	4.021	-123.727	-119.817	-119.270	-114.092	-10.893	-114.691	-8191	255	
6303.522	1	1	0	0	0.11048	0.23352	0.10455	0.2203	0.16759	0.074318	0.39488	0.31782	0.24501	0.11566	0.14633	0.17458	0.26773	0.12797	0.18453	0.17312	-0.045833	-0.20625	-0.91667	-0.46458	-0.66458	-0.87708	-0.34375	-1.0333	-0.62083	-0.25833	-1.1146	-0.425	-0.54583	-0.89583	-0.0125	-0.98958	-78.630	8.026	-46.453	214.185	-54.309	199.782	193.681	173.058	165.828	-14.706	134.793	-111.867	-119.538	218.461	17.522	-97.670	0.00047101	0.00043002	0.00014035	1350.6	3.1923e-06	6.412e-06	1362.1	368.26	3.8328e-06	5.3367e-06	424.43	138.57	120.76	40.237	6.8479e-06	50.062	0.00077321	0.0008482	0.00022806	1376.1	8.9797e-06	9.493e-06	1389.8	378.62	9.029e-06	9.4684e-06	435.34	143.73	124.74	41.703	9.2946e-06	52.124	179.770	-69.466	-54.368	-127.917	-45.830	8.575	-128.022	-123.176	-64.840	-4.080	-123.707	-119.972	-119.093	-114.019	-10.679	-114.919	-8191	255	
6303.618	1	1	0	0	0.11042	0.1317	0.030955	0.22223	0.24027	0.21823	0.15953	0.02008	0.11057	0.087669	0.18801	0.25209	0.090977	0.37539	0.058799	0.21413	-0.25833	-0.072917	-1.1812	-0.39375	-0.46667	-1.0292	-0.27708	-1.0208	-0.7375	0.029167	-1.0063	-0.35	-0.53125	-0.99375	-0.085417	-0.83958	-41.721	-110.354	-92.820	-127.263	-129.017	172.631	113.385	-58.672	71.433	-132.201	-84.494	160.960	182.143	120.824	-77.594	144.527	0.00046635	0.00033035	0.00016686	1346.2	4.4596e-06	2.2742e-06	1355.8	369.53	5.2487e-06	3.288e-06	424.37	139.16	120.96	40.384	4.6369e-06	50.189	0.00078762	0.00084572	0.00023875	1376.2	8.9904e-06	9.4979e-06	1388.7	379.43	9.1909e-06	9.3522e-06	435.51	143.95	124.73	41.792	9.3472e-06	52.212	177.443	-38.037	-75.825	-127.796	4.330	9.278	-128.114	-123.141	-17.015	-0.063	-123.613	-119.737	-119.161	-114.411	-21.310	-114.770	-8191	255	
6303.713	1	1	0	0	0.096194	0.26358	0.1974	0.23438	0.2519	0.15012	0.31575	0.091392	0.24808	0.22464	0.19127	0.48274	0.087193	0.16776	0.10525	0.13356	-0.44167	-0.016667	-0.95833	-0.6125	-0.29167	-1.0521	-0.51875	-0.78333	-0.9	-0.13542	-1.1083	-0.53958	-0.11667	-1.1771	-0.15625	-0.67292	-118.901	195.157	118.669	-122.523	79.600	208.022	215.190	132.284	-102.521	189.019	195.724	212.859	212.219	-75.078	35.999	-98.806	0.00051681	0.0005827	0.00012404	1351.7	5.5338e-06	4.0132e-06	1353.9	368.81	5.3969e-06	4.3831e-06	424.97	139.03	120.78	40.26	2.5191e-06	50.397	0.00077266	0.00085356	0.00023659	1380.2	9.1688e-06	9.3316e-06	1388.7	378.74	9.2744e-06	9.4977e-06	436.19	144.02	124.75	41.75	9.2991e-06	52.28	171.467	-33.869	-15.744	-127.616	-15.920	48.096	-128.071	-123.180	-44.248	-1.399	-123.459	-119.634	-119.310	-114.292	-28.637	-114.870	-8191	255	
6303.810	1	1	0	0	0.23596	0.13223	0.058988	0.18101	0.1167	0.11463	0.18429	0.24558	0.18706	0.28383	0.2984	0.20525	0.29871	0.31137	0.073087	0.12221	-0.53125	-0.00625	-0.77917	-0.59583	-0.26042	-1.1688	-0.38333	-0.82292	-0.93958	-0.0625	-0.86875	-0.64167	-0.34792	-1.0208	-0.22708	-0.46667	-18.229	-40.949	35.228	-71.332	93.556	59.574	137.881	-120.977	118.841	76.735	183.823	113.068	202.235	177.258	-61.905	-116.020	0.0004113	0.00038537	0.00017537	1350.9	5.7166e-06	4.385e-06	1370.5	374.04	3.2805e-06	3.8264e-06	429.12	140.88	122.13	40.643	1.0892e-06	50.634	0.00077082	0.00086143	0.00023553	1377.5	9.1834e-06	9.2351e-06	1392.9	380.29	9.2872e-06	9.339e-06	437.17	144.34	124.83	41.788	9.0264e-06	52.335	165.287	-56.606	-19.484	-127.807	-38.264	29.627	-128.887	-124.022	-26.879	21.522	-124.168	-120.483	-119.697	-114.831	31.729	-115.538	-8191	255	
6303.905	1	1	0	0	0.045516	0.18245	0.14666	0.39569	0.41281	0.30689	0.14828	0.19522	0.022464	0.15929	0.15495	0.22176	0.16448	0.2136	0.022493	0.40061	-0.57917	0.070833	-0.63542	-0.87083	-0.19583	-0.92292	-0.47917	-0.44583	-1.0125	-0.14167	-0.625	-0.80833	-0.079167	-1.1063	-0.36458	-0.44583	-138.559	85.014	-77.444	203.660	-2.919	7.083	123.384	192.730	-84.635	38.216	-117.008	212.639	-120.364	-115.650	-37.678	182.984	0.00052662	0.00068398	0.00015547	1368	5.4495e-06	2.9372e-06	1371.7	373.21	3.9841e-06	4.2575e-06	427.63	140.4	121.42	40.565	6.0558e-06	50.651	0.00077998	0.00086095	0.00023712	1381.9	9.2941e-06	9.3606e-06	1391.3	379.66	9.1894e-06	9.4047e-06	436.69	144.05	124.85	41.807	9.3378e-06	52.217	171.562	-64.122	-52.500	-129.090	-23.982	16.354	-129.087	-124.239	-57.592	-8.535	-124.721	-120.898	-120.466	-115.497	-22.678	-115.919	-8191	255	
6304.001	1	1	0	0	0.17186	0.18697	0.068897	0.34186	0.16681	0.075614	0.30019	0.24649	0.091129	0.11281	0.27329	0.34116	0.1995	0.10686	0.20038	0.088426	-0.62292	0.025	-0.68125	-0.87708	0.035417	-1.0167	-0.56458	-0.46667	-0.96042	-0.045833	-0.57292	-0.70833	-0.1625	-0.62917	-0.48958	-0.25833	99.459	73.048	5.844	209.165	-55.947	-9.652	140.885	182.092	91.143	136.829	-7.992	164.841	-125.128	-51.295	65.876	213.017	0.00051172	0.00030485	0.0002045	1360.9	5.8577e-06	2.0373e-06	1373.2	373.95	2.5958e-06	4.3896e-06	430.19	140.2	121.94	40.791	4.3736e-06	50.81	0.00076633	0.0008509	0.00024066	1381.4	9.1836e-06	9.5536e-06	1392.8	380.28	9.0696e-06	9.4629e-06	436.69	144.16	124.86	41.896	9.1888e-06	52.332	172.191	-104.781	-33.305	-129.044	1.204	9.816	-128.822	-124.403	-74.208	17.103	-124.613	-120.978	-119.976	-115.293	4.298	-115.989	-8191	255	
6304.097	1	1	0	0	0.26186	0.25577	0.054157	0.049609	0.15616	0.20596	0.22777	0.15132	0.061161	0.12534	0.050541	0.41468	0.086007	0.32475	0.035459	0.084043	-0.51458	-0.0875	-0.32083	-0.89167	-0.097917	-0.78333	-0.6625	-0.37917	-1.0271	-0.083333	-0.35625	-0.89167	-0.23542	-0.90833	-0.43333	-0.125	140.339	-13.492	178.243	-17.538	78.689	107.932	121.831	190.342	25.011	179.941	-136.250	151.162	189.193	194.661	-54.294	13.195	0.00049701	0.00046776	0.00018699	1364.8	1.4323e-06	6.4901e-06	1365.2	372.05	8.0854e-07	3.9007e-06	426.88	140.2	121.12	40.853	5.3408e-06	50.548	0.00077156	0.00085281	0.00023239	1381.7	9.2028e-06	9.3827e-06	1389.7	379.55	8.9021e-06	9.2925e-06	435.99	144.22	124.84	41.923	9.4004e-06	52.261	174.207	-39.021	-52.398	-128.792	36.386	8.885	-128.964	-124.127	-42.154	11.030	-124.550	-120.503	-120.356	-115.262	7.048	-115.789	-8191	255	
6304.218	1	1	0	0	0.19927	0.11113	0.19267	0.41077	0.17245	0.044914	0.23601	0.31104	0.25662	0.1301	0.12916	0.23765	0.11215	0.30699	0.18275	0.3132	-0.5125	-0.24792	-0.30208	-1.2021	-0.070833	-0.61667	-0.87917	-0.052083	-1.0271	-0.47083	-0.41875	-0.99167	-0.41458	-0.80417	-0.81458	-0.17292	-51.371	-55.272	-35.085	180.079	63.852	146.278	211.565	191.515	-37.435	204.923	53.128	192.569	183.239	203.658	177.566	195.178	0.00047659	0.00049916	0.00022221	1367	2.456e-06	6.8668e-06	1370.8	373.95	5.1268e-06	5.5656e-06	429.91	140.69	121.62	40.811	3.352e-06	50.755	0.0007734	0.00086691	0.00023818	1382.3	9.2634e-06	9.4014e-06	1391.6	380.12	9.167e-06	9.5062e-06	436.96	144.09	124.94	41.872	9.4432e-06	52.292	168.926	-76.925	-64.050	-128.840	-62.623	6.778	-129.124	-124.263	-41.262	14.682	-124.466	-120.641	-120.151	-115.146	-5.161	-115.604	-8191	255	
6304.314	1	1	0	0	0.12305	0.11535	0.21622	0.12349	0.19159	0.15434	0.34457	0.057018	0.19014	0.15485	0.16884	0.28082	0.12157	0.24508	0.16775	0.12284	-0.53125	-0.40833	-0.15625	-1.35	-0.12708	-0.75417	-0.9625	-0.16667	-0.92083	-0.53333	-0.27708	-1.1854	-0.37708	-0.525	-0.93542	-0.28333	-70.556	-84.657	-109.374	-136.901	83.736	-109.852	136.701	-116.789	-96.993	87.587	190.099	137.697	198.674	-39.906	136.139	109.263	0.00053177	0.00042993	7.5604e-05	1365.3	4.0402e-06	3.5887e-06	1375.7	373.26	4.3131e-06	7.1727e-06	429.09	140.26	121.83	40.685	3.4273e-06	50.906	0.00078643	0.00086157	0.00023468	1380.9	9.2592e-06	9.1577e-06	1393.9	380.06	9.1207e-06	9.5619e-06	436.86	144.23	124.83	41.809	9.5229e-06	52.332	165.641	-65.857	-18.952	-128.703	-39.027	46.131	-128.957	-124.158	-14.439	31.697	-124.537	-120.846	-120.217	-115.191	7.983	-115.793	-8191	255	
#DATA ENDS
