BOXY.EXE: ISS Imagent and Oximeter Data Acquisition Program Version 0.80
Ascii Record File

#ACQ INFORMATION
2  Detector Channels 
16  External MUX Channels 
1  Auxiliary Channels 
5000  Waveform (CCF) Frequency (Hz)
1  Waveforms Skipped 
30  Waveforms Averaged 
1  Cycles Averaged 
16  Acquisitions per Waveform 
10.0806  Updata Rate (Hz) 

#FILE INFORMATION
TRUE -- External MUX Channel results are PARSED.
FALSE -- AC DC and Phase are NOT grouped.
TRUE -- Companion Program Settings File CREATED.
FALSE -- AC data not excluded
FALSE -- DC data not excluded
FALSE -- Phase data not excluded
FALSE -- Auxillary Chn. data not excluded
Tab delimiters

#CALIBRATION STATE
TRUE -- Waveform Calibration Values APPLIED.


#AUX CALIBRATION VALUES
Val Type	aux-1	

Term	1.0000e+00	
Factor	0.0000e+00	


#WF CALIBRATION VALUES
A = Detector Channel
Val Type	A-AC1	A-AC2	A-AC3	A-AC4	A-AC5	A-AC6	A-AC7	A-AC8	A-AC9	A-AC10	A-AC11	A-AC12	A-AC13	A-AC14	A-AC15	A-AC16	A-DC1	A-DC2	A-DC3	A-DC4	A-DC5	A-DC6	A-DC7	A-DC8	A-DC9	A-DC10	A-DC11	A-DC12	A-DC13	A-DC14	A-DC15	A-DC16	A-Ph1	A-Ph2	A-Ph3	A-Ph4	A-Ph5	A-Ph6	A-Ph7	A-Ph8	A-Ph9	A-Ph10	A-Ph11	A-Ph12	A-Ph13	A-Ph14	A-Ph15	A-Ph16	

Term	0.00000e+00	0.00000e+00	0.00000e+00	0.00000e+00	0.00000e+00	0.00000e+00	0.00000e+00	0.00000e+00	0.00000e+00	0.00000e+00	0.00000e+00	0.00000e+00	0.00000e+00	0.00000e+00	0.00000e+00	0.00000e+00	0.00000e+00	0.00000e+00	0.00000e+00	0.00000e+00	0.00000e+00	0.00000e+00	0.00000e+00	0.00000e+00	0.00000e+00	0.00000e+00	0.00000e+00	0.00000e+00	0.00000e+00	0.00000e+00	0.00000e+00	0.00000e+00	0.00000e+00	0.00000e+00	0.00000e+00	0.00000e+00	0.00000e+00	0.00000e+00	0.00000e+00	0.00000e+00	0.00000e+00	0.00000e+00	0.00000e+00	0.00000e+00	0.00000e+00	0.00000e+00	0.00000e+00	0.00000e+00	
Factor	1.00000e+00	1.00000e+00	1.00000e+00	1.00000e+00	1.00000e+00	1.00000e+00	1.00000e+00	1.00000e+00	1.00000e+00	1.00000e+00	1.00000e+00	1.00000e+00	1.00000e+00	1.00000e+00	1.00000e+00	1.00000e+00	1.00000e+00	1.00000e+00	1.00000e+00	1.00000e+00	1.00000e+00	1.00000e+00	1.00000e+00	1.00000e+00	1.00000e+00	1.00000e+00	1.00000e+00	1.00000e+00	1.00000e+00	1.00000e+00	1.00000e+00	1.00000e+00	X	X	X	X	X	X	X	X	X	X	X	X	X	X	X	X	

B = Detector Channel
Val Type	B-AC1	B-AC2	B-AC3	B-AC4	B-AC5	B-AC6	B-AC7	B-AC8	B-AC9	B-AC10	B-AC11	B-AC12	B-AC13	B-AC14	B-AC15	B-AC16	B-DC1	B-DC2	B-DC3	B-DC4	B-DC5	B-DC6	B-DC7	B-DC8	B-DC9	B-DC10	B-DC11	B-DC12	B-DC13	B-DC14	B-DC15	B-DC16	B-Ph1	B-Ph2	B-Ph3	B-Ph4	B-Ph5	B-Ph6	B-Ph7	B-Ph8	B-Ph9	B-Ph10	B-Ph11	B-Ph12	B-Ph13	B-Ph14	B-Ph15	B-Ph16	

Term	0.00000e+00	0.00000e+00	0.00000e+00	0.00000e+00	0.00000e+00	0.00000e+00	0.00000e+00	0.00000e+00	0.00000e+00	0.00000e+00	0.00000e+00	0.00000e+00	0.00000e+00	0.00000e+00	0.00000e+00	0.00000e+00	0.00000e+00	0.00000e+00	0.00000e+00	0.00000e+00	0.00000e+00	0.00000e+00	0.00000e+00	0.00000e+00	0.00000e+00	0.00000e+00	0.00000e+00	0.00000e+00	0.00000e+00	0.00000e+00	0.00000e+00	0.00000e+00	-1.59263e+02	-1.35366e+02	-1.22785e+02	-1.81606e+02	-7.89346e+01	-5.72216e+01	-1.56575e+02	-1.62015e+02	-7.73410e+01	-6.58398e+01	-1.71773e+02	-1.69662e+02	-1.85582e+02	-1.76518e+02	-7.73154e+01	-1.48785e+02	
Factor	2.57673e-05	1.35732e-04	4.29484e-05	1.60521e-01	1.34668e-06	1.50830e-06	1.73562e-01	5.04505e-02	1.28541e-06	1.76270e-06	8.78298e-02	2.84354e-02	2.48919e-02	9.05555e-03	1.36247e-06	1.28161e-02	7.70257e-06	9.89319e-06	2.77655e-06	8.54020e-02	1.04570e-07	1.10558e-07	8.68692e-02	2.69635e-02	1.04314e-07	1.10505e-07	4.53325e-02	1.47671e-02	1.33880e-02	4.87488e-03	1.06932e-07	6.69256e-03	X	X	X	X	X	X	X	X	X	X	X	X	X	X	X	X	



#DISTANCE SETTINGS
A = Detector Channel
A-1	A-2	A-3	A-4	A-5	A-6	A-7	A-8	A-9	A-10	A-11	A-12	A-13	A-14	A-15	A-16	

2.5000e+00	3.0000e+00	2.5000e+00	3.0000e+00	2.0000e+00	3.0000e+00	1.5000e+00	3.0000e+00	3.0000e+00	3.0000e+00	3.0000e+00	3.0000e+00	3.0000e+00	3.0000e+00	1.5000e+00	3.0000e+00	

B = Detector Channel
B-1	B-2	B-3	B-4	B-5	B-6	B-7	B-8	B-9	B-10	B-11	B-12	B-13	B-14	B-15	B-16	

1.0000e+01	1.0000e+01	1.0000e+01	1.4400e+00	1.0000e+01	1.0000e+01	1.5100e+00	1.9400e+00	1.0000e+01	1.0000e+01	1.9900e+00	2.4900e+00	2.4100e+00	2.9000e+00	1.0000e+01	2.9800e+00	




#DATA BEGINS
time	group	step	mark	flag	A-AC1	A-AC2	A-AC3	A-AC4	A-AC5	A-AC6	A-AC7	A-AC8	A-AC9	A-AC10	A-AC11	A-AC12	A-AC13	A-AC14	A-AC15	A-AC16	A-DC1	A-DC2	A-DC3	A-DC4	A-DC5	A-DC6	A-DC7	A-DC8	A-DC9	A-DC10	A-DC11	A-DC12	A-DC13	A-DC14	A-DC15	A-DC16	A-Ph1	A-Ph2	A-Ph3	A-Ph4	A-Ph5	A-Ph6	A-Ph7	A-Ph8	A-Ph9	A-Ph10	A-Ph11	A-Ph12	A-Ph13	A-Ph14	A-Ph15	A-Ph16	B-AC1	B-AC2	B-AC3	B-AC4	B-AC5	B-AC6	B-AC7	B-AC8	B-AC9	B-AC10	B-AC11	B-AC12	B-AC13	B-AC14	B-AC15	B-AC16	B-DC1	B-DC2	B-DC3	B-DC4	B-DC5	B-DC6	B-DC7	B-DC8	B-DC9	B-DC10	B-DC11	B-DC12	B-DC13	B-DC14	B-DC15	B-DC16	B-Ph1	B-Ph2	B-Ph3	B-Ph4	B-Ph5	B-Ph6	B-Ph7	B-Ph8	B-Ph9	B-Ph10	B-Ph11	B-Ph12	B-Ph13	B-Ph14	B-Ph15	B-Ph16	aux-1	digaux	

7133.155	1	1	0	768	0.1141	0.1868	0.13012	0.39412	0.092957	0.25179	0.23446	0.24689	0.036756	0.096844	0.022969	0.10397	0.37658	0.25514	0.25868	0.20609	0.18958	-0.97083	-1.0146	-0.4	-1.025	-0.7125	-0.53125	-1.3375	-0.54792	-0.76458	-1.0583	-0.41458	-1.3062	-0.95417	-0.39583	-1.4542	169.012	234.570	255.493	445.874	175.115	309.202	269.942	475.731	510.535	385.949	419.812	266.718	486.244	162.456	195.102	425.782	0.00079262	0.001131	0.00072114	839.81	2.7607e-06	1.1935e-05	500.8	313.9	6.9348e-06	1.5851e-05	196.57	95.068	136.17	71.912	2.8131e-05	51.996	0.04125	0.052839	0.014904	1260.1	0.00056007	0.00059251	948.09	445.51	0.0005586	0.00059219	430.04	169.51	202.99	95.836	0.00056955	85.89	183.060	187.388	267.918	164.200	390.069	256.055	162.248	168.561	183.704	427.653	165.912	168.213	171.764	175.653	354.057	172.117	-8191	255	
7133.251	1	1	0	0	0.14883	0.13667	0.17525	0.16621	0.18931	0.12918	0.15962	0.30201	0.02429	0.12936	0.13288	0.058733	0.087143	0.2552	0.13646	0.12392	0.095833	-0.625	-1.0333	-0.49167	-1.0208	-0.73542	-0.37917	-1.3292	-0.52292	-0.62083	-1.1667	-0.38125	-1.075	-1.0979	-0.41042	-1.3854	303.778	365.206	505.856	488.662	456.104	393.953	268.318	498.175	180.697	271.693	382.531	470.443	378.192	481.684	388.423	454.971	0.0013694	0.0017227	0.00049699	843.27	3.8447e-05	3.5052e-05	513.97	313.87	1.4408e-05	2.3516e-05	196.92	94.053	136.52	71.625	1.6599e-05	52.204	0.041178	0.052908	0.014833	1263.3	0.00055858	0.00059122	949.17	445.75	0.00055636	0.00059248	430.67	169.64	202.46	95.45	0.00056611	86.046	158.949	360.717	303.484	163.980	250.211	351.473	162.392	168.680	281.930	387.260	165.652	168.177	171.719	175.505	185.382	171.744	-8191	255	
7133.347	1	1	0	0	0.20871	0.23316	0.03024	0.20955	0.068708	0.14216	0.26819	0.197	0.12549	0.20169	0.22383	0.23819	0.31066	0.3436	0.10574	0.1717	0.03125	-0.52917	-1.0021	-0.40833	-1.1	-0.90625	-0.27917	-1.3208	-0.63333	-0.4625	-1.2833	-0.375	-1.1229	-1.0729	-0.24583	-1.1896	427.839	481.541	221.483	501.033	205.751	161.519	510.421	155.750	203.552	299.876	172.992	427.894	461.994	460.624	175.396	502.799	0.0010922	0.0032458	8.2858e-05	853.26	9.544e-06	5.0706e-05	519.05	319.04	2.5942e-05	1.3427e-05	202	96.651	137.57	72.518	1.6206e-05	52.897	0.040788	0.052336	0.014609	1261.8	0.00054484	0.00057573	949.98	445.73	0.00054031	0.00057406	427.64	168.95	201.92	95.57	0.0005533	86.038	164.212	269.878	250.945	164.345	311.778	368.311	162.071	168.758	313.313	214.381	164.982	168.779	171.824	175.698	261.224	172.019	-8191	255	
7133.444	1	1	0	0	0.34876	0.28738	0.020475	0.12806	0.036221	0.11762	0.17317	0.11669	0.27257	0.027488	0.15417	0.30374	0.16727	0.37706	0.2163	0.16844	-0.12292	-0.46667	-1.0167	-0.39167	-0.89792	-0.95208	-0.39375	-1.2833	-0.63333	-0.54792	-1.2333	-0.46458	-0.75625	-1.2396	-0.27708	-1.1021	310.276	388.994	319.526	487.595	230.140	328.870	153.744	485.530	424.465	465.214	376.609	464.905	356.500	462.017	253.856	249.961	0.0012127	0.0041147	0.0013089	851.21	1.4808e-05	1.7338e-05	516.36	315.61	2.9759e-05	3.7097e-05	197.15	94.559	136.8	71.69	3.3505e-05	51.784	0.039902	0.051275	0.014372	1256.8	0.00054039	0.00057287	939.19	443.28	0.00054123	0.00057399	424.36	167.31	200.91	95.162	0.00055608	84.938	172.536	166.512	379.161	164.295	356.529	197.394	162.639	168.380	293.964	388.040	164.663	168.552	171.811	175.571	323.519	171.845	-8191	255	
7133.540	1	1	0	0	0.088837	0.18265	0.23311	0.31661	0.38317	0.12593	0.024278	0.2724	0.23572	0.24217	0.14564	0.29291	0.10623	0.081796	0.31862	0.20771	-0.42708	-0.4125	-1.1021	-0.47292	-0.66042	-0.99792	-0.46875	-1.1354	-0.77708	-0.41042	-1.3208	-0.60833	-0.67292	-1.4125	-0.22292	-0.925	407.971	326.859	466.071	490.422	250.770	352.313	290.445	378.225	476.563	195.467	377.147	197.507	508.445	492.249	416.268	205.900	0.0004393	0.00077739	0.00052894	838.31	2.5715e-05	2.0284e-05	503.62	314.03	6.581e-06	1.2908e-05	195.74	93.357	135.73	72.196	2.6781e-05	51.985	0.040406	0.051906	0.0145	1254.3	0.00054468	0.00057901	933.34	442.02	0.00054165	0.00057426	421.21	165.8	199.82	94.986	0.00054681	84.437	478.040	393.402	156.127	164.191	251.119	223.127	161.856	168.301	237.190	240.820	165.754	168.338	171.608	175.723	344.129	172.361	-8191	255	
7133.636	1	1	0	0	0.21975	0.055908	0.18821	0.3236	0.21308	0.067373	0.16624	0.21245	0.26907	0.12944	0.12515	0.14391	0.041534	0.22539	0.30112	0.071604	-0.37083	-0.20625	-0.98958	-0.38125	-0.46042	-1.2146	-0.50833	-1.0708	-0.94375	-0.23542	-1.1771	-0.70417	-0.45	-1.3125	-0.12917	-0.72708	234.508	259.130	481.834	423.680	301.119	206.869	418.648	232.905	251.308	418.511	446.327	495.647	256.112	151.346	471.226	509.781	0.0008332	0.00192	0.00010861	845.36	3.9559e-05	2.1771e-05	517.97	315.4	1.4931e-05	2.368e-05	197.51	94.135	136.16	72.123	3.6908e-05	52.766	0.039534	0.05041	0.014136	1241.8	0.00052917	0.00055847	927.38	438.54	0.0005236	0.00055425	416.53	164.6	197.84	94.347	0.00053051	84.074	499.030	232.763	221.377	164.294	260.504	292.145	161.997	168.684	409.585	190.633	165.189	168.273	172.046	175.705	259.905	171.852	-8191	255	
7133.757	1	1	0	0	0.033941	0.16885	0.22033	0.22831	0.26049	0.45852	0.089536	0.093679	0.12325	0.13319	0.20406	0.2466	0.28475	0.17777	0.12028	0.27558	-0.50833	-0.11458	-1.0646	-0.79792	-0.26875	-1.1417	-0.20833	-0.85417	-0.975	-0.44167	-0.98125	-0.68958	-0.34167	-1.3563	-0.52708	-0.625	285.300	447.414	222.458	466.418	353.392	385.354	267.791	187.961	498.575	401.252	179.813	433.274	475.705	491.070	459.759	491.039	0.00067953	0.0010398	0.00038338	857.71	2.6879e-05	7.3155e-06	521.1	318.89	9.885e-06	2.6839e-05	198.76	94.816	135.02	72.164	7.2097e-06	52.685	0.038471	0.048943	0.013719	1240.2	0.00051366	0.00054179	920.76	435.63	0.00050359	0.00053081	408.28	161.14	193.62	92.836	0.00049677	81.918	176.348	231.962	433.221	164.159	247.045	255.016	161.879	168.608	495.519	228.129	165.544	167.874	171.863	175.785	166.527	171.708	-8191	255	
7133.853	1	1	0	0	0.12406	0.16425	0.25963	0.38866	0.36859	0.16725	0.14729	0.41751	0.11267	0.08253	0.19612	0.12085	0.12796	0.13528	0.23557	0.22675	-0.64375	-0.085417	-0.94167	-0.99167	-0.19583	-1.1042	-0.525	-0.675	-1.1354	-0.20208	-0.89792	-0.89375	-0.1375	-1.2333	-0.44583	-0.53125	399.467	358.471	426.628	504.372	202.344	189.533	301.213	436.762	407.537	448.360	372.911	188.380	369.338	233.298	253.048	448.462	0.00082328	0.0041399	0.00040225	861.28	5.683e-06	6.4453e-06	530.9	318.27	3.5273e-05	1.7969e-05	204.74	93.579	135.07	71.588	2.2833e-05	52.349	0.035409	0.045107	0.012585	1208.3	0.00046822	0.00049518	898.02	425.43	0.00046306	0.00048952	394.05	155.11	188.46	90.793	0.00047055	80.107	165.868	197.145	454.445	164.098	349.760	240.966	162.014	168.589	244.996	409.718	166.172	168.383	172.008	175.849	247.667	171.970	-8191	255	
7133.947	1	1	0	0	0.18454	0.24641	0.042003	0.14619	0.073314	0.29151	0.019944	0.23348	0.0042569	0.24121	0.1733	0.11172	0.25765	0.1863	0.24155	0.18918	-0.69583	-0.066667	-0.77917	-1.0625	-0.41458	-1.1625	-0.56667	-0.55625	-1.0604	-0.28125	-0.99167	-0.90833	-0.3875	-1.075	-0.625	-0.38333	333.066	185.100	295.936	465.704	250.720	356.465	376.545	466.967	280.384	195.476	260.467	484.011	190.868	476.680	303.674	184.069	0.00093462	0.0021554	0.00056794	852.52	1.4538e-06	1.6435e-05	523.17	314.52	4.2991e-06	1.4222e-05	194.65	93.018	132.58	71.173	1.443e-05	52.027	0.033973	0.043493	0.01224	1195.5	0.00045868	0.00048517	882.4	420.11	0.00045488	0.00048404	385.95	152.59	186.17	90.062	0.00046314	79.151	161.779	328.489	367.418	163.850	378.292	456.828	162.013	168.639	397.806	366.227	166.084	168.543	171.989	175.725	372.990	172.257	-8191	255	
7134.045	1	1	0	0	0.071115	0.2119	0.16984	0.25019	0.13052	0.13796	0.13778	0.14743	0.14144	0.11908	0.27431	0.071775	0.31965	0.25234	0.028264	0.17848	-0.8375	-0.25	-0.50208	-1.275	-0.1625	-1.0938	-0.87708	-0.53125	-1.1875	-0.39375	-0.63125	-1.1875	-0.49167	-1.1396	-0.80625	-0.10833	425.474	438.463	196.483	507.320	463.974	285.581	451.701	347.235	395.146	164.158	176.341	318.882	472.466	485.990	279.533	402.583	0.00099585	0.0036235	0.00068722	851.39	3.3409e-05	2.2052e-05	519.68	313.71	1.8447e-05	4.4187e-05	199.68	92.578	134.69	72.162	1.3526e-05	52.636	0.033691	0.043216	0.012154	1188.1	0.00045516	0.00048362	874.45	419.56	0.00045422	0.00048001	387.64	153.31	187.6	90.932	0.00046214	79.776	156.655	480.728	420.239	164.209	322.493	244.082	162.426	168.810	496.908	400.723	165.975	168.280	172.260	175.929	181.918	171.641	-8191	255	
7134.139	1	1	0	0	0.073846	0.15532	0.24945	0.075374	0.20226	0.04815	0.32756	0.11674	0.11096	0.14645	0.11312	0.24348	0.20394	0.078637	0.073425	0.074419	-0.67083	-0.34583	-0.51042	-1.2188	-0.27917	-0.94375	-0.93333	-0.27917	-1.0396	-0.61667	-0.58333	-1.1646	-0.33125	-1.0146	-0.88958	-0.18125	251.092	400.198	240.611	316.708	439.161	413.060	432.418	224.818	445.514	331.003	246.924	385.536	480.341	384.398	265.710	501.458	0.00076415	0.0032438	0.00061283	861.42	2.4491e-05	2.1393e-05	521.73	319.49	2.7096e-05	2.0316e-05	201.01	93.909	135.55	72.711	2.1018e-05	53.097	0.033506	0.042982	0.012115	1193.9	0.0004552	0.00048283	878.28	423.6	0.00045456	0.00048331	390.45	155.45	189.16	91.749	0.0004669	80.606	152.842	248.158	357.630	164.401	194.373	253.560	162.002	168.809	210.818	332.313	165.416	168.419	171.867	175.674	208.276	171.760	-8191	255	
7134.236	1	1	0	0	0.28957	0.051596	0.018248	0.19499	0.18727	0.13906	0.4177	0.19183	0.32042	0.25836	0.19523	0.054467	0.10644	0.28608	0.26915	0.11913	-0.66042	-0.45208	-0.43125	-1.2563	-0.30208	-0.85208	-1.1146	-0.33542	-0.89792	-0.78333	-0.4375	-1.2062	-0.60833	-0.89375	-1.0312	-0.41042	317.855	403.894	364.231	383.688	176.699	321.048	407.565	432.320	241.139	328.336	165.926	510.043	248.184	507.754	477.516	404.812	0.0011243	0.0028938	0.00051907	860.09	1.1406e-05	9.2431e-06	527.38	318.27	2.7685e-05	1.1497e-05	200.33	94.209	136.73	72.497	4.3856e-05	53.261	0.034115	0.043778	0.012277	1202.5	0.00046445	0.00049092	891.36	426	0.00046417	0.00049321	395.5	156.99	190.88	91.854	0.00047416	81.18	168.109	216.706	486.753	163.973	302.638	195.541	161.778	168.850	239.719	365.027	165.959	168.226	171.563	175.875	213.078	171.966	-8191	255	
7134.356	1	1	0	0	0.12372	0.11534	0.1109	0.32684	0.098963	0.08081	0.15415	0.091959	0.2691	0.29229	0.25695	0.27805	0.20186	0.15911	0.055078	0.2432	-0.5125	-0.78958	-0.13333	-1.0875	-0.38125	-0.7	-1.025	-0.28333	-0.95833	-0.94792	-0.0625	-1.2729	-0.46042	-0.53542	-1.1229	-0.38125	312.019	440.488	486.661	350.893	224.170	418.779	326.653	409.489	285.511	342.936	293.315	493.564	405.858	489.609	219.341	497.048	0.0010097	0.0019761	0.00022224	864.15	9.5349e-06	3.6214e-05	539.12	318.05	2.2607e-05	5.1881e-05	200.24	92.784	133.71	71.505	2.4426e-05	52.026	0.034618	0.044028	0.012404	1208.1	0.00046655	0.00049493	897.54	426.22	0.00046658	0.00049644	395.13	155.89	188.74	90.94	0.00047607	80.136	506.009	421.518	249.514	164.638	209.826	307.932	161.891	168.794	302.249	392.816	165.934	168.440	171.626	175.947	315.393	171.526	-8191	255	
7134.452	1	1	0	0	0.14626	0.28678	0.28328	0.41719	0.18163	0.15546	0.24725	0.10913	0.20456	0.23025	0.26278	0.14448	0.13013	0.16582	0.097602	0.26565	-0.50625	-0.84167	-0.2125	-1.0792	-0.41667	-0.34375	-1.0417	-0.51875	-0.85208	-1.1167	-0.1875	-0.92292	-0.63542	-0.53333	-1.1917	-0.48542	331.166	325.394	239.722	461.117	280.059	322.623	504.245	345.377	375.874	397.738	428.969	234.012	479.868	449.365	430.991	484.396	0.00067212	0.00098626	0.00034489	852.38	1.7988e-05	1.7532e-05	516.06	312.58	3.0799e-05	8.3115e-06	195.16	90.618	131.96	70.407	1.9709e-05	50.886	0.034806	0.044275	0.012433	1197.9	0.0004674	0.00049484	882.65	420.27	0.00046693	0.00049336	389.03	152.9	186.4	89.76	0.00047489	78.984	503.626	467.697	170.009	164.183	159.005	215.227	161.939	168.457	297.945	291.590	166.243	169.000	171.880	176.000	384.323	171.952	-8191	255	
7134.548	1	1	0	0	0.27552	0.23825	0.16274	0.15699	0.034723	0.13941	0.20262	0.25926	0.042558	0.18743	0.19684	0.11936	0.14549	0.27697	0.046941	0.11024	-0.12292	-1.0542	-0.25	-1.2292	-0.77083	-0.40833	-1.3083	-0.375	-0.66875	-0.91875	-0.28125	-1.0396	-0.71667	-0.49375	-1.2437	-0.51667	307.112	438.533	441.959	490.484	223.675	155.480	169.041	434.510	367.526	487.622	174.992	480.478	485.947	509.287	219.439	509.319	0.0011223	0.004052	0.00077256	849.48	1.4884e-05	3.2347e-05	516.23	311.01	1.7997e-05	4.9004e-05	195.7	91.53	132.78	70.588	2.2635e-05	51.6	0.03439	0.044023	0.012384	1191	0.00046407	0.00049166	876.74	419.44	0.00046187	0.00049107	387.89	153.43	187.47	90.149	0.00047391	79.51	173.587	171.481	164.919	164.442	161.230	356.300	161.747	168.661	155.159	359.468	166.006	168.240	171.883	175.773	235.809	171.849	-8191	255	
7134.645	1	1	0	0	0.078746	0.15821	0.28542	0.20384	0.34091	0.19295	0.24227	0.33983	0.13589	0.34165	0.18196	0.18938	0.027589	0.13189	0.14139	0.16384	-0.13542	-0.99792	-0.1875	-0.99167	-0.82292	-0.20625	-1.1021	-0.675	-0.3375	-1.1958	-0.33125	-0.88542	-1.0167	-0.38125	-1.1833	-0.58958	193.104	397.996	457.994	500.310	496.582	494.848	404.464	462.246	248.641	329.452	165.167	455.985	433.158	216.730	422.733	151.643	0.00077959	0.0022755	0.00023437	856.48	1.4179e-05	2.2329e-05	522.81	314.78	2.4416e-05	6.9024e-06	197.57	93.519	133.99	71.846	2.8356e-05	51.947	0.034352	0.043849	0.012369	1196.1	0.00046381	0.00049113	883.83	422.02	0.00046265	0.00049057	391.31	154.72	188.53	90.864	0.00047331	80.026	164.128	218.302	412.516	164.413	231.890	411.361	162.108	168.289	176.014	275.507	165.636	167.883	171.746	176.145	179.966	171.704	-8191	255	
7134.716	1	1	0	0	0.35026	0.033441	0.30531	0.13479	0.22819	0.22943	0.14927	0.23005	0.35332	0.035082	0.059137	0.3354	0.17197	0.36483	0.26719	0.22846	0.05625	-1.1479	-0.12917	-0.74792	-0.83958	-0.27083	-1.0333	-0.76667	-0.45833	-1.4521	-0.53333	-0.7375	-1.1979	-0.47083	-1.1688	-0.69375	204.599	173.295	235.166	486.511	483.447	223.501	414.632	384.200	234.301	265.131	181.477	150.819	453.923	172.401	231.644	313.247	0.00094605	0.0016139	0.00014104	858.92	3.8888e-07	2.1585e-05	523.84	314.39	6.6549e-06	1.817e-05	198.16	92.966	133.41	71.195	2.2533e-05	52.349	0.034313	0.043951	0.012308	1199.2	0.00046295	0.00049222	890.8	422.4	0.00046401	0.00049276	392.3	155.04	187.73	90.555	0.00047485	80.118	191.548	268.276	318.408	164.212	449.052	275.457	161.878	168.742	260.799	218.541	165.518	168.623	171.610	175.844	158.578	171.749	-8191	255	
7134.837	1	1	0	0	0.20404	0.22128	0.1403	0.25005	0.13592	0.21603	0.10036	0.28852	0.45124	0.13219	0.1186	0.21507	0.27596	0.25864	0.16504	0.28851	0.070833	-0.9875	-0.675	-0.78125	-1.2208	-0.48958	-0.95	-0.9125	-0.13125	-1.1292	-0.47083	-0.57708	-1.25	-0.32917	-0.66875	-1.1083	208.406	430.914	412.982	468.377	476.130	477.505	299.957	481.181	505.582	330.852	392.459	210.037	170.840	159.140	318.904	478.040	0.00096669	0.00054835	0.00040696	863.12	5.498e-06	7.9969e-06	535.05	315.76	7.0881e-06	2.3558e-05	196.65	93.078	134.02	71.454	1.2418e-05	51.817	0.034385	0.044079	0.012332	1204	0.00046475	0.0004927	891.76	423.97	0.00046564	0.00049192	392.25	154.55	188.25	90.782	0.00047588	79.9	162.204	303.233	253.208	164.295	233.503	486.492	161.479	168.738	345.162	323.791	165.595	168.061	171.704	175.845	156.080	171.507	-8191	255	
7134.933	1	1	0	0	0.16846	0.21358	0.13063	0.093506	0.07483	0.081221	0.2085	0.22626	0.26989	0.18848	0.14156	0.0091148	0.3353	0.33938	0.047232	0.072372	-0.072917	-1.05	-0.49375	-0.4625	-1.1708	-0.23958	-0.72917	-1.15	-0.17917	-1.1646	-0.61042	-0.41875	-1.0979	-0.59792	-0.69167	-1.1063	177.462	382.005	399.888	161.892	310.904	486.591	281.998	482.428	221.022	251.637	469.303	320.351	159.758	492.681	331.492	432.897	0.0008118	0.00046601	0.00051907	846.97	1.6285e-05	1.5039e-05	508.3	310.93	1.057e-05	2.8611e-05	192.96	90.316	132.51	70.486	2.5239e-05	50.818	0.034639	0.044467	0.012476	1197.5	0.00047053	0.00049554	879.05	420.56	0.00046701	0.00049429	387.68	152.91	187	90.078	0.00047799	78.928	162.667	415.337	172.669	164.162	202.757	291.318	162.622	168.878	313.960	331.600	165.538	167.810	171.857	175.752	221.687	171.652	-8191	255	
7135.027	1	1	0	0	0.2564	0.13525	0.1332	0.1869	0.11263	0.23508	0.14651	0.19994	0.20416	0.28945	0.3768	0.16349	0.27667	0.14301	0.15334	0.1285	0.2375	-0.85625	-0.7	-0.49167	-1.1437	-0.3125	-0.68125	-1.1792	-0.2625	-0.96667	-0.82292	-0.24167	-1.0875	-0.48958	-0.44583	-1.1292	427.586	338.442	369.369	433.168	481.456	182.018	415.617	488.719	335.884	425.204	390.797	426.554	425.976	273.023	410.230	362.133	0.0009749	0.0038904	0.00095998	843.15	2.9994e-05	4.3312e-05	513.16	310.53	2.0051e-05	2.0568e-05	192.76	89.356	130.57	69.698	2.572e-05	50.409	0.034782	0.044529	0.012478	1194.6	0.00047003	0.0004954	880.98	419.13	0.00046638	0.0004959	387.67	151.99	185.26	89.213	0.00047597	78.56	157.873	179.677	293.293	164.391	372.933	328.859	162.666	168.644	407.926	338.078	165.407	167.748	171.824	175.565	277.318	172.344	-8191	255	
7135.125	1	1	0	0	0.098071	0.18855	0.13408	0.17863	0.26369	0.39353	0.34203	0.14462	0.20468	0.17059	0.060961	0.26413	0.15992	0.097198	0.25553	0.1274	0.23958	-1.0479	-0.57917	-0.21875	-1.1833	-0.42917	-0.37917	-1.1396	-0.072917	-0.85833	-0.84167	-0.25625	-1.1437	-0.60417	-0.36875	-1.2875	467.570	344.685	332.432	470.649	419.337	309.672	216.826	489.949	404.186	207.097	175.489	151.770	495.123	188.157	153.324	477.433	0.00097432	0.00049681	0.00062127	854.19	1.6789e-05	5.4186e-05	517.36	312.53	9.9753e-06	2.4727e-05	195.09	89.408	130.21	69.69	4.6955e-06	50.701	0.034658	0.044484	0.012459	1201.8	0.00046761	0.00049571	882.2	419.18	0.00046156	0.00048907	387.18	151.44	184.26	88.674	0.0004705	78.471	153.819	188.171	487.887	164.476	294.592	189.498	162.806	168.772	257.494	275.727	166.542	169.046	172.119	175.521	158.275	171.995	-8191	255	
7135.244	1	1	0	0	0.11172	0.25952	0.21736	0.28479	0.028266	0.25241	0.13045	0.21988	0.065853	0.30198	0.16061	0.17019	0.20023	0.10112	0.041114	0.19424	0.175	-0.64583	-0.725	-0.22083	-1.0104	-0.65625	-0.46458	-1.3854	-0.19375	-0.52708	-1.2687	-0.0875	-0.99167	-0.66042	-0.33542	-1.2458	325.356	257.157	406.113	464.443	385.326	388.805	463.559	463.745	430.689	369.110	477.816	461.729	506.888	173.448	463.865	197.432	0.00079852	0.0032036	0.00072507	861.64	1.1244e-05	4.4499e-05	528.08	314.75	2.2965e-05	2.3167e-05	198.68	92.745	133.51	71.028	7.5849e-06	52.238	0.034121	0.043885	0.012256	1198.9	0.00045923	0.00048535	883.8	419.64	0.00045287	0.00048019	388.74	152.93	186.79	90.095	0.00046264	79.701	186.601	195.707	329.940	163.921	319.753	298.833	162.171	168.688	274.431	360.902	165.763	168.289	171.681	175.729	212.084	172.036	-8191	255	
7135.318	1	1	0	0	0.18899	0.14917	0.017506	0.16354	0.14586	0.22167	0.19727	0.22925	0.18451	0.25141	0.11388	0.1694	0.19017	0.51822	0.14576	0.25595	-0.091667	-0.6875	-0.83542	-0.26042	-0.84583	-0.72917	-0.34375	-1.0833	-0.3625	-0.52083	-1.3104	-0.34792	-0.87083	-1.2396	-0.14792	-1.1708	379.471	240.667	262.844	192.107	482.203	499.204	389.206	400.639	271.605	209.154	422.245	359.035	457.722	473.500	421.395	338.247	0.00085859	0.0021585	0.00048565	867.35	2.2176e-05	1.8018e-05	524.36	315.6	1.8218e-05	2.9731e-05	194.27	89.838	130.73	70.122	1.2618e-05	50.975	0.033561	0.043091	0.012102	1200.5	0.00045928	0.000486	884.12	421.41	0.00045813	0.00048546	387.45	151.32	185.1	89.384	0.00046879	78.35	501.933	497.685	372.041	164.474	354.815	244.196	162.508	168.511	306.711	258.315	166.645	168.662	171.850	175.794	320.785	171.742	-8191	255	
7135.437	1	1	0	0	0.050835	0.11562	0.14131	0.39646	0.054838	0.11502	0.16847	0.13223	0.15974	0.22894	0.25516	0.26663	0.15996	0.47731	0.2255	0.16838	0.016667	-0.43333	-0.8125	-0.35833	-0.68542	-0.87708	-0.16667	-1.2292	-0.675	-0.33333	-1.2188	-0.25417	-0.83125	-1.2062	-0.1875	-1.1146	338.265	209.280	381.378	489.058	497.745	496.234	206.684	170.522	378.462	180.845	368.499	213.195	460.113	159.359	321.009	478.166	0.0012351	0.0023611	0.0011146	857.72	3.7749e-05	3.521e-05	512.64	312.21	4.083e-05	1.5823e-05	193.48	88.644	129.54	69.688	1.8863e-05	49.847	0.034002	0.043608	0.01225	1191.8	0.00046006	0.00048835	873.27	417.41	0.00045945	0.00048601	385.26	149.97	183.85	88.862	0.00046907	77.96	174.986	273.564	183.628	164.102	249.816	282.971	162.137	168.411	188.566	400.581	165.715	168.511	172.220	175.721	274.134	172.244	-8191	255	
7135.533	1	1	0	0	0.1603	0.2482	0.055095	0.26346	0.15296	0.16641	0.13839	0.28634	0.046981	0.27679	0.093129	0.15071	0.21391	0.49693	0.19485	0.16099	-0.17708	-0.23958	-1.0583	-0.55	-0.65417	-0.8625	-0.32292	-0.99792	-0.74167	-0.23542	-1.2167	-0.59583	-0.7125	-1.3	-0.2875	-1.0063	291.870	210.060	462.764	460.215	260.783	166.879	410.311	408.999	312.662	281.369	357.602	280.104	197.319	497.695	480.029	410.827	0.00040784	0.0014322	0.00069083	855.54	1.6922e-05	1.6424e-05	520.58	315.46	2.9887e-05	1.673e-05	196.7	89.428	130.94	69.984	2.2986e-05	51.136	0.033798	0.043166	0.012105	1190.8	0.00045292	0.00048118	872.76	417.88	0.00045192	0.0004785	383.5	150.19	183.81	88.878	0.00046036	78.001	166.358	464.336	223.864	164.178	268.985	253.972	162.399	168.642	463.994	399.849	165.894	168.734	171.971	175.766	319.537	172.059	-8191	255	
7135.629	1	1	0	0	0.2296	0.032814	0.066845	0.13478	0.19004	0.081324	0.20172	0.25222	0.1407	0.079387	0.077715	0.19857	0.41061	0.17625	0.12816	0.22268	-0.25208	-0.27708	-1.1521	-0.43542	-0.4875	-0.91875	-0.23333	-1.0187	-0.75625	-0.37292	-1.2229	-0.5125	-0.60833	-1.4021	-0.10208	-1.0875	480.357	444.981	242.493	460.781	262.674	474.234	449.615	389.587	212.853	412.831	476.999	188.154	301.640	158.265	270.152	158.702	0.00094611	0.0019458	0.00029443	864.44	2.0618e-05	1.757e-05	527.95	314.5	1.9763e-05	2.198e-05	198.25	91.021	132.18	70.214	1.3516e-05	51.368	0.033298	0.042729	0.011941	1189.7	0.00044766	0.00047234	873.38	416.94	0.00044247	0.00046836	381.16	149.06	183.16	88.592	0.00045	77.897	493.520	241.840	293.100	164.270	287.832	331.782	162.056	168.863	486.327	278.015	165.352	168.585	172.007	176.105	259.271	172.058	-8191	255	
7135.725	1	1	0	0	0.15238	0.1348	0.2768	0.22233	0.24572	0.24147	0.24258	0.30426	0.18801	0.20847	0.28289	0.14629	0.46432	0.30066	0.24809	0.32282	-0.58542	-0.49167	-1.1063	-0.7125	-0.37292	-1.1104	-0.33542	-0.78542	-0.975	-0.09375	-1.1604	-0.675	-0.51875	-1.2542	-0.16667	-0.6125	453.417	326.238	283.502	413.891	340.170	318.341	178.422	465.813	204.321	284.100	157.078	338.142	499.292	480.461	342.245	320.136	0.00091703	0.0047696	0.00070558	862.53	1.6292e-05	2.5435e-05	532.9	316.55	1.988e-05	7.7533e-06	199.78	90.559	130.27	69.682	3.0775e-05	51.08	0.032491	0.041643	0.01164	1184.5	0.00043551	0.00046025	868.65	415.13	0.00042878	0.00045474	375.64	147.06	180.18	87.56	0.00043507	76.352	160.950	173.307	269.354	164.322	189.748	311.263	162.255	168.757	308.491	471.978	165.784	168.701	171.864	175.559	299.038	171.970	-8191	255	
7135.846	1	1	0	0	0.19888	0.20136	0.2274	0.025306	0.088855	0.26495	0.094841	0.063172	0.1818	0.094142	0.15416	0.29529	0.18578	0.52892	0.14819	0.19661	-0.68333	-0.28333	-1.1958	-0.76042	-0.275	-1.1583	-0.23542	-0.64792	-1.1521	-0.41458	-1.1625	-0.85417	-0.33333	-1.3062	-0.34583	-0.625	334.419	372.591	201.630	423.587	430.539	502.497	474.577	430.667	381.802	233.264	312.594	508.611	421.089	182.775	423.454	441.799	0.00054733	0.00094251	0.00051291	860.16	5.7815e-06	2.759e-05	527.64	312.85	1.0698e-05	1.4601e-05	191.68	86.524	127.21	68.411	2.459e-05	49.065	0.031213	0.040117	0.011216	1168.5	0.00041866	0.00044485	847.22	406.62	0.0004154	0.00044083	363.55	142.13	175.44	85.171	0.00042304	73.651	500.523	439.332	466.213	164.225	442.503	438.615	162.235	168.549	286.328	318.307	165.399	168.591	172.172	176.000	302.895	171.951	-8191	255	
7135.940	1	1	0	0	0.33873	0.10257	0.15046	0.098476	0.17138	0.24722	0.44357	0.42587	0.24428	0.23543	0.34247	0.3412	0.13831	0.20844	0.077428	0.10856	-0.75417	-0.18542	-0.81458	-0.89167	-0.11875	-1.0771	-0.66042	-0.55	-0.87083	-0.36042	-0.78958	-0.94583	-0.16458	-1.2479	-0.61458	-0.41875	247.636	402.682	232.006	384.696	218.794	432.457	220.266	467.292	325.810	488.995	312.772	443.910	203.629	494.655	429.043	201.157	0.00071978	0.00085389	0.00035125	844.19	4.2715e-06	3.2007e-05	512.21	306.18	3.8458e-05	1.7835e-06	187.88	84.637	124.24	66.705	1.4292e-05	47.568	0.030667	0.03899	0.010956	1147.3	0.00041047	0.00043361	828.3	398.87	0.00040627	0.00043127	355.34	138	171.6	83.113	0.00041416	71.88	160.187	230.363	323.070	163.958	431.367	161.345	162.184	169.141	402.867	217.254	165.777	168.290	172.029	176.223	446.018	172.427	-8191	255	
7136.013	1	1	0	0	0.22279	0.1675	0.19897	0.30341	0.22886	0.21517	0.31035	0.30248	0.14572	0.11183	0.25123	0.37289	0.28037	0.29348	0.34863	0.018857	-0.82917	-0.37917	-0.78125	-1.0625	-0.27292	-1.0896	-0.57708	-0.51458	-1.2333	-0.46875	-0.78542	-1.2563	-0.49167	-0.89583	-0.7625	-0.43958	195.581	161.269	182.317	467.249	363.564	154.220	502.861	500.829	198.724	307.820	288.147	494.576	484.976	465.341	220.328	393.391	0.0005288	0.0011036	0.00058547	850.61	9.8533e-06	9.8808e-06	511.68	302.81	3.4338e-05	1.3571e-05	186.72	83.504	123.55	65.724	1.4371e-05	47.644	0.030042	0.038486	0.010763	1142.2	0.00040408	0.00042621	826.51	394.16	0.00039691	0.00042116	352.89	136.19	169.31	82.036	0.00040383	70.984	170.108	468.696	279.177	164.281	368.621	195.435	162.578	169.022	295.128	253.555	165.684	168.703	172.038	175.906	305.452	171.977	-8191	255	
7136.132	1	1	0	0	0.067569	0.078718	0.18788	0.24423	0.025105	0.15252	0.15229	0.29473	0.10742	0.086111	0.20196	0.13058	0.1093	0.14796	0.10792	0.4076	-0.67708	-0.39375	-0.6625	-1.2833	-0.325	-0.95208	-1.0521	-0.36458	-0.89792	-0.35208	-0.4875	-1.1958	-0.31875	-1.1146	-0.99583	-0.27917	422.946	421.644	440.476	406.121	458.233	209.033	171.422	476.831	185.880	317.610	482.297	496.370	445.012	165.440	265.883	312.344	0.00042395	0.0032553	5.0676e-05	861.28	5.8402e-06	1.9452e-05	528.35	306.04	1.1811e-05	1.7621e-05	192.2	85.817	125.33	66.885	1.3404e-05	48.859	0.02916	0.037083	0.010453	1138.7	0.00039058	0.00041175	824.57	394.7	0.00038525	0.00040972	351.19	136.66	169.33	82.418	0.00039139	71.76	507.782	385.571	414.809	164.312	336.636	289.617	162.341	168.911	171.415	220.526	165.671	168.717	172.207	176.174	359.480	172.234	-8191	255	
7136.228	1	1	0	0	0.083571	0.48341	0.039199	0.19665	0.14817	0.22167	0.40176	0.2883	0.16337	0.13014	0.23474	0.32611	0.31121	0.20051	0.31214	0.148	-0.72708	-0.57708	-0.425	-1.1396	-0.60625	-0.8625	-0.92292	-0.16458	-1.0896	-0.53958	-0.4375	-1.1625	-0.47292	-0.86042	-1.0479	-0.30833	431.076	421.560	368.863	487.474	409.519	480.879	187.564	414.703	407.993	243.153	436.091	159.857	167.209	252.736	232.383	208.076	0.00043534	0.00036714	0.0006838	865.52	1.8776e-05	2.8145e-05	538.57	311.09	9.9801e-06	3.8111e-05	196.16	87.412	126.52	68.028	3.2927e-05	49.475	0.028281	0.036065	0.010152	1135.4	0.00037731	0.0003996	824.28	395.88	0.00037628	0.00039734	351.09	136.73	169.81	82.938	0.00038348	71.43	151.072	414.464	178.421	164.282	185.268	312.134	162.463	168.869	221.478	218.687	165.464	168.947	171.813	176.172	281.861	172.027	-8191	255	
7136.325	1	1	0	0	0.06694	0.20062	0.19978	0.21677	0.17749	0.29161	0.49524	0.24231	0.14209	0.068189	0.20635	0.18653	0.076401	0.29893	0.057656	0.056253	-0.46667	-0.67292	-0.33542	-1.0375	-0.525	-0.60208	-1.0771	-0.32917	-0.84167	-0.88125	-0.39792	-1.2188	-0.44375	-0.54167	-1.0667	-0.12708	481.204	373.965	264.861	162.860	327.792	364.202	434.075	477.049	466.998	463.919	155.766	255.216	504.696	156.540	461.682	486.369	0.00043401	0.0016509	0.00033828	856.21	6.3354e-06	1.3612e-05	524.38	307.71	2.1678e-05	2.3035e-05	191.85	84.229	123.86	65.656	7.2896e-06	47.309	0.027865	0.035324	0.0098881	1126.8	0.00037126	0.00039239	806.05	389.86	0.00036605	0.00038626	340.96	132.01	165.03	80.414	0.00037043	68.605	164.744	233.368	501.272	164.348	374.766	194.943	162.355	168.806	300.977	444.655	166.034	168.986	171.966	176.165	250.010	171.983	-8191	255	
7136.421	1	1	0	0	0.097036	0.32337	0.21794	0.37023	0.18703	0.026671	0.094485	0.39562	0.30958	0.14115	0.25087	0.35939	0.11499	0.27716	0.11533	0.16872	-0.46458	-0.74792	-0.30833	-1.2104	-0.5625	-0.59167	-1.2167	-0.2375	-0.85208	-0.76875	-0.34792	-1.2646	-0.59375	-0.41458	-1.2333	-0.39375	337.129	359.974	432.352	196.791	265.169	279.515	347.861	418.978	285.807	307.052	469.811	483.392	152.269	161.832	449.788	466.748	0.00077132	0.0018203	0.0010787	857.95	1.632e-05	1.0508e-05	520.76	305.7	2.415e-05	2.5458e-05	187.67	82.886	121.93	64.836	1.3404e-06	47.049	0.026775	0.034084	0.0095806	1109.1	0.00035699	0.00037643	791.12	383.3	0.0003473	0.00036616	329.02	127.32	160.46	78.304	0.00033761	66.292	495.207	247.570	246.505	164.309	302.424	267.150	162.302	168.634	275.400	410.079	165.977	168.609	172.232	176.243	416.434	171.947	-8191	255	
7136.541	1	1	0	0	0.26543	0.24717	0.094067	0.12314	0.19849	0.032842	0.22797	0.29875	0.20582	0.38744	0.077903	0.149	0.046598	0.23264	0.074924	0.31848	-0.38958	-0.91875	-0.19375	-1.2042	-0.48125	-0.1875	-1.2	-0.49375	-0.77083	-1.1604	-0.31875	-1.2708	-0.79375	-0.47083	-1.0542	-0.50208	488.081	350.750	193.424	163.446	259.913	249.227	476.641	422.103	473.732	297.034	416.105	152.155	259.207	452.524	189.780	444.543	0.00095408	0.0015393	0.0002041	859.22	1.0042e-05	2.7245e-05	529.48	305.69	2.5155e-05	2.665e-05	193.2	84.067	122.79	65.783	6.4142e-06	48.015	0.024073	0.030502	0.0084784	1076.9	0.00031352	0.00032862	758.43	372.55	0.00030064	0.00031575	311.49	121.83	155.32	77.069	0.00029807	64.542	179.058	319.282	472.408	164.105	501.672	286.835	162.104	168.627	466.395	377.512	165.247	168.706	172.243	176.143	154.960	171.779	-8191	255	
7136.613	1	1	0	0	0.24679	0.16211	0.10025	0.2205	0.21431	0.18257	0.2393	0.25433	0.2923	0.072624	0.29435	0.28372	0.10501	0.35029	0.19276	0.20675	-0.30208	-1.1167	-0.13958	-1.1146	-0.62292	-0.0625	-1.2167	-0.60208	-0.55208	-1.1333	-0.23125	-0.87083	-0.975	-0.27083	-0.99583	-0.62708	453.795	276.034	471.927	453.212	217.050	209.175	160.818	432.440	185.021	355.365	182.239	175.396	271.143	507.102	275.237	365.447	0.00066255	0.002558	0.000347	862.66	2.5062e-05	2.2824e-05	533.33	306.68	2.2369e-05	2.6546e-05	190.79	83.365	121.4	64.395	1.0506e-05	47.466	0.021385	0.027237	0.0076079	1058.1	0.00028481	0.00030189	746.13	366.99	0.0002813	0.00029952	304.75	119.22	152.54	75.242	0.00028537	63.453	167.784	344.724	207.136	164.752	267.752	260.676	161.805	168.921	440.871	316.078	165.655	168.537	172.310	176.194	258.082	172.192	-8191	255	
7136.709	1	1	0	0	0.28623	0.1961	0.21113	0.17696	0.19582	0.15268	0.17854	0.54744	0.10073	0.25487	0.04429	0.25041	0.16405	0.18053	0.031243	0.21717	0.047917	-1.0562	-0.16667	-1.0375	-1.0583	-0.25833	-1.0417	-0.67292	-0.21875	-1.075	-0.27917	-0.69583	-0.95417	-0.46042	-1.0583	-0.69167	357.794	275.813	452.308	398.979	181.544	190.352	174.162	459.869	484.831	189.460	237.951	494.575	164.358	449.894	165.750	352.638	0.00059694	0.0011933	0.00031755	867.24	2.6209e-05	1.4687e-05	540.21	307.59	1.7586e-05	5.1519e-06	191.14	82.999	121.33	64.391	8.4404e-06	46.901	0.020635	0.026245	0.0073438	1052.3	0.00027631	0.00028923	738.91	363.41	0.00027233	0.00028738	299.74	117.52	151.03	74.757	0.00027613	62.298	160.135	212.477	208.056	164.447	289.714	339.990	162.309	168.638	368.930	164.430	165.141	169.080	172.236	176.355	482.684	172.079	-8191	255	
7136.805	1	1	0	0	0.10263	0.16527	0.086127	0.188	0.083962	0.055832	0.20361	0.234	0.090486	0.10461	0.14762	0.094935	0.01773	0.017131	0.1685	0.24223	-0.0875	-1.1542	-0.13125	-0.675	-1.1354	-0.32292	-1.0104	-0.67917	-0.3	-1.1833	-0.47917	-0.58333	-1.0396	-0.35	-0.9375	-0.92083	261.248	240.043	430.229	497.634	296.396	337.770	465.337	186.843	253.328	176.313	307.170	251.734	187.423	479.951	283.363	422.170	0.00077578	0.0017341	0.0003295	856.63	1.0953e-05	2.5695e-05	525.79	304.47	2.3755e-06	1.2932e-05	187.07	81.019	119.94	63.681	1.411e-05	46.091	0.019963	0.025588	0.0071676	1038.2	0.00026829	0.00028503	723.61	359.91	0.00026772	0.00028411	295.22	115.48	149.47	73.854	0.00027456	61.344	171.395	280.884	422.747	164.325	243.410	310.675	162.394	168.577	430.256	205.485	165.074	169.088	172.104	176.185	308.758	172.059	-8191	255	
7136.926	1	1	0	0	0.26347	0.25359	0.26286	0.19946	0.15009	0.38257	0.19531	0.22034	0.10963	0.13112	0.23421	0.169	0.15802	0.17074	0.028852	0.19258	0.36875	-0.98958	-0.49792	-0.50417	-1.2083	-0.12083	-1.0375	-1.0229	-0.13958	-1.2667	-0.35417	-0.43125	-1.2708	-0.3625	-0.67708	-1.0833	253.266	400.265	421.880	481.073	316.104	233.539	441.896	457.913	481.315	197.350	378.898	486.389	498.882	443.544	407.628	479.059	0.00023983	0.00044768	0.00046588	854.02	1.2906e-05	1.9557e-05	529.56	301.9	2.7351e-05	1.3636e-05	187.07	81.575	120.12	63.574	1.4305e-05	46.029	0.019986	0.025438	0.0071151	1034.2	0.00026735	0.00028276	722.96	358.86	0.00026714	0.00028358	295.65	115.75	149.55	74.025	0.00027557	61.652	478.082	169.530	152.028	164.460	332.346	272.004	162.671	168.564	336.443	301.978	166.077	168.942	172.361	176.072	412.492	171.660	-8191	255	
7137.020	1	1	0	0	0.17108	0.2431	0.16468	0.19528	0.082507	0.25462	0.10808	0.13625	0.25183	0.11675	0.235	0.4057	0.21504	0.32993	0.1163	0.23789	0.16458	-0.89375	-0.45625	-0.43333	-1.0333	-0.20833	-0.83542	-1.1521	-0.12083	-0.92292	-0.78958	-0.40833	-1.2208	-0.48958	-0.53958	-1.1437	309.504	419.991	376.814	474.067	154.232	162.529	186.123	480.507	458.203	308.684	262.938	474.043	501.656	500.264	387.325	157.967	0.00093051	0.0010893	0.00058734	862.27	1.0951e-05	2.0894e-05	529.57	304.68	1.7566e-05	2.7816e-05	189.36	82.821	121.35	64.569	1.5495e-05	46.783	0.02018	0.025694	0.007237	1042.7	0.00027087	0.00028826	730	362.71	0.00027215	0.00028807	299.54	117.18	151.67	74.922	0.00027835	62.554	491.487	157.685	312.201	164.092	500.458	264.473	162.502	168.893	246.997	303.830	165.640	168.707	172.134	176.148	234.936	171.768	-8191	255	
7137.118	1	1	0	0	0.22576	0.028154	0.10113	0.44543	0.15189	0.15525	0.14597	0.16928	0.29409	0.18798	0.17408	0.22309	0.10748	0.38354	0.20864	0.062882	0.175	-0.8875	-0.65417	-0.32292	-1.1187	-0.325	-0.61458	-1.0604	0.022917	-0.94167	-0.81458	-0.10417	-1.1375	-0.75625	-0.36667	-1.2333	365.526	433.618	309.206	433.358	195.277	427.827	206.369	180.708	305.337	195.006	227.528	212.534	460.534	497.362	338.987	336.918	0.00070526	0.0013723	0.00030208	864.69	3.676e-06	1.1244e-05	537.21	307.68	1.728e-05	1.5402e-05	194.42	84.03	123.34	65.886	2.6785e-05	48.233	0.020189	0.025689	0.0071931	1044.8	0.00027059	0.00028554	734.67	364.52	0.00026692	0.00028401	300.72	118.34	152.41	75.871	0.00027407	63.292	159.350	260.365	478.754	164.396	418.216	271.016	162.743	168.950	247.763	183.792	165.903	169.253	172.152	175.992	163.691	172.143	-8191	255	
7137.213	1	1	0	0	0.28916	0.18504	0.135	0.044118	0.11961	0.058866	0.050273	0.03898	0.14943	0.048336	0.17682	0.097721	0.13983	0.080404	0.23905	0.34553	0.091667	-0.63125	-0.8125	-0.30625	-1.1104	-0.37917	-0.28958	-1.1479	-0.20625	-0.8	-1.1458	-0.175	-1.1875	-0.84167	-0.31042	-1.1875	176.811	263.765	322.036	224.850	484.568	268.797	411.123	508.778	397.122	266.719	390.886	315.695	194.782	435.321	414.502	450.813	0.00092372	0.0025983	0.0007669	870.59	1.3988e-05	1.0041e-05	531.84	310.35	2.2164e-05	2.678e-05	193.23	82.838	122.43	65.15	1.0879e-05	47.289	0.019761	0.025252	0.007061	1046.9	0.00026383	0.00028041	732.01	364.49	0.00026285	0.00027954	297.73	116.76	150.75	75.058	0.00027131	62.207	187.040	290.917	321.072	164.171	333.602	369.642	162.233	168.970	283.160	434.993	165.703	169.189	172.578	175.939	174.537	172.334	-8191	255	
7137.309	1	1	0	0	0.12638	0.047458	0.37301	0.080691	0.11681	0.070662	0.13033	0.25966	0.17754	0.27475	0.14855	0.086578	0.2103	0.071069	0.14322	0.12028	0.19375	-0.56042	-1.0854	-0.21667	-0.95833	-0.73542	-0.38958	-1.2667	-0.40208	-0.40625	-1.0417	-0.13333	-0.86458	-0.74167	-0.14583	-1.3354	158.061	358.106	161.483	508.683	243.425	174.552	406.046	460.090	247.794	211.583	225.690	257.751	155.912	424.503	338.508	409.721	0.00081971	0.00064648	0.00050785	860.25	1.4206e-05	1.0902e-05	523.94	306.23	1.131e-05	7.6142e-06	188.63	82.877	121.35	65.081	1.813e-05	47.09	0.019586	0.025002	0.0070264	1035.1	0.00026457	0.000279	718.7	361.26	0.00026251	0.00027866	293.39	115.89	150.51	74.958	0.00026753	62.001	190.592	205.799	229.272	164.191	157.651	320.954	162.663	168.995	288.927	246.382	165.291	168.600	172.074	176.287	460.600	172.358	-8191	255	
7137.405	1	1	0	0	0.21653	0.17729	0.087594	0.32943	0.13229	0.25503	0.14463	0.19892	0.21223	0.06884	0.26313	0.2809	0.1501	0.079291	0.24786	0.13165	0.010417	-0.37917	-0.75625	-0.43333	-0.95625	-0.81667	-0.26875	-1.1063	-0.39792	-0.44375	-1.1271	-0.14167	-0.85	-1.0625	-0.095833	-0.97292	470.121	415.757	209.827	377.071	349.223	159.530	402.761	163.235	411.485	317.710	503.548	433.084	507.504	508.368	485.295	503.364	0.0008769	0.002295	0.00031881	862.4	1.2729e-05	1.4305e-05	532.51	310.77	1.2774e-05	8.8363e-06	194.65	85.004	125.28	66.713	1.7894e-05	48.528	0.019395	0.02465	0.0068966	1034.7	0.00025929	0.00027441	718.93	362.76	0.00025604	0.00027153	296.44	117.63	152.71	76.299	0.0002606	63.284	165.821	272.611	229.393	164.411	332.938	300.177	162.260	168.591	250.919	182.678	166.318	168.515	172.389	176.215	317.299	172.604	-8191	255	
7137.526	1	1	0	0	0.21158	0.14673	0.33414	0.24048	0.10903	0.11878	0.081259	0.37511	0.24906	0.26116	0.075606	0.0099884	0.19197	0.075412	0.22373	0.23272	-0.15208	-0.425	-1.0438	-0.35208	-0.55417	-0.72917	-0.29375	-1.1292	-0.66667	-0.30833	-1.0938	-0.43333	-0.88125	-1.1229	-0.10625	-1.0146	399.393	313.278	437.125	476.417	198.391	160.493	467.467	488.730	483.876	244.768	485.949	440.294	489.174	187.801	492.003	473.761	0.00076815	0.0014154	0.00016494	866.09	6.1856e-06	5.3468e-06	533.93	312.72	9.4178e-06	3.3917e-05	195.5	86.715	125.29	66.879	1.1114e-05	49.335	0.018884	0.024169	0.0067736	1034.2	0.00025257	0.00026817	720.97	363.39	0.00025034	0.0002648	294.61	117.33	152.16	76.215	0.0002523	63.143	155.654	267.939	388.059	164.716	234.906	352.286	162.101	168.927	431.069	297.164	166.024	168.905	172.199	176.014	186.849	172.060	-8191	255	
7137.622	1	1	0	0	0.21588	0.057958	0.50361	0.029411	0.26036	0.1174	0.16118	0.25093	0.3111	0.19459	0.34969	0.075161	0.23881	0.20789	0.098434	0.22844	-0.35208	-0.18958	-1.1375	-0.23542	-0.66875	-1.1271	-0.18125	-1.0708	-0.78333	-0.26875	-1	-0.47083	-0.38958	-1.4521	-0.16875	-0.89583	204.464	245.658	405.792	257.549	356.116	400.635	481.003	498.411	246.502	270.449	413.735	320.193	475.433	394.729	476.493	508.215	0.00086034	0.0022291	0.00012894	869.64	2e-05	1.8176e-05	540.63	311.05	1.6864e-05	1.7572e-05	194.25	84.988	123.91	66.055	1.9253e-05	48.375	0.018348	0.023492	0.00662	1034.7	0.00024747	0.00026306	720.99	362.15	0.00024664	0.00026133	294.6	116.09	150.54	75.388	0.00025154	62.387	166.554	305.172	240.067	164.232	256.676	390.494	162.276	169.031	510.518	448.514	165.590	168.375	172.551	176.149	288.988	172.511	-8191	255	
7137.718	1	1	0	0	0.2476	0.2321	0.40939	0.037518	0.27542	0.027289	0.2605	0.07657	0.11158	0.16071	0.2289	0.0714	0.16526	0.23938	0.11803	0.02918	-0.36042	-0.11875	-0.80625	-0.59167	-0.36667	-0.91458	-0.32917	-1.0875	-0.74583	-0.29375	-1.0979	-0.68125	-0.54375	-1.2875	-0.3875	-0.8625	193.635	254.166	367.668	491.460	363.788	224.085	432.652	371.249	390.032	504.122	403.084	487.210	247.595	495.096	282.476	200.404	0.00068068	0.00081241	0.00020839	871.9	2.5366e-05	2.0427e-05	532.57	307.56	2.016e-05	5.9446e-06	190.83	81.018	120.34	64.221	1.6733e-05	45.901	0.018246	0.023381	0.0065735	1030.8	0.00024693	0.00026122	714.12	358.73	0.00024632	0.00026133	288.62	112.26	146.76	73.337	0.00025188	60.096	171.062	225.384	353.251	163.901	321.732	344.552	162.250	168.780	264.341	508.137	166.251	169.564	172.292	176.335	170.488	172.373	-8191	255	
7137.839	1	1	0	0	0.096622	0.14466	0.16131	0.19376	0.073183	0.086413	0.073674	0.45694	0.20994	0.21423	0.099934	0.31532	0.34866	0.16773	0.32726	0.082427	-0.59583	-0.05	-1.0312	-0.60208	-0.38958	-1.2146	-0.30208	-0.95625	-1.1	-0.15625	-0.90833	-0.73542	-0.34583	-1.4062	-0.40417	-0.65625	444.013	160.999	480.809	154.260	155.748	482.433	386.815	462.176	467.138	352.197	471.419	476.352	470.935	497.972	154.280	399.760	0.00092113	0.00024553	0.0010913	857.9	1.5582e-05	1.8486e-06	524.98	304.49	9.3432e-06	1.7604e-05	187.1	80.358	119.62	63.275	1.9276e-05	46.143	0.018267	0.023256	0.0065679	1016.5	0.00024658	0.00026061	701.65	353.8	0.00024438	0.00025883	284.13	111.07	146.02	72.645	0.00024848	59.783	170.990	241.694	296.759	164.389	280.446	215.937	162.171	168.897	281.009	281.089	165.914	168.983	172.323	176.120	469.955	172.871	-8191	255	
7137.910	1	1	0	0	0.14829	0.11878	0.44193	0.052914	0.069914	0.11797	0.15266	0.12062	0.25282	0.17268	0.44503	0.088089	0.25227	0.13713	0.33738	0.13929	-0.74375	-0.17708	-0.75208	-0.71042	-0.26458	-1.0854	-0.4875	-0.46667	-1.1562	-0.21458	-0.8	-0.84583	-0.17708	-0.96042	-0.55625	-0.52292	210.480	200.754	188.270	394.781	278.925	350.007	431.172	427.303	399.521	399.025	196.696	418.786	491.180	422.022	256.939	469.446	0.00079089	0.00024435	0.00058849	859.55	6.7973e-06	1.4257e-05	532.19	303.87	1.756e-05	1.5232e-05	190.39	82.205	121.19	64.224	1.1023e-05	46.645	0.018109	0.022978	0.0064294	1016.8	0.00024124	0.00025563	706.1	353.11	0.00024051	0.00025385	285.14	111.59	146.18	73.191	0.00024353	60.283	158.462	251.359	467.891	164.406	237.939	477.251	162.034	169.096	233.389	271.167	165.859	168.973	172.225	176.554	479.297	172.124	-8191	255	
7138.006	1	1	0	0	0.071589	0.23355	0.33041	0.46902	0.25102	0.23002	0.36151	0.1959	0.181	0.14831	0.14564	0.052629	0.031957	0.39162	0.0064169	0.28305	-0.70417	-0.097917	-0.75	-0.95208	-0.27708	-0.925	-0.65208	-0.39583	-0.99583	-0.058333	-0.575	-0.94792	-0.27083	-1.1083	-0.51875	-0.2625	223.818	355.682	266.878	488.945	415.810	270.460	468.009	425.767	353.168	459.434	399.909	303.750	160.108	476.344	384.264	402.468	0.0003522	0.0011009	0.00023554	868.81	1.4341e-05	1.7575e-05	539.58	306.27	7.0215e-06	1.9177e-06	193.34	83.84	121.78	65.294	3.106e-06	47.428	0.017688	0.022562	0.0063241	1020.2	0.00023803	0.00025113	708.11	355.02	0.0002369	0.00025107	287.12	112.81	147.02	73.859	0.00024062	60.851	170.420	403.528	438.852	164.300	508.137	447.165	162.275	168.744	219.007	227.544	165.738	168.869	172.512	176.074	370.801	172.184	-8191	255	
7138.101	1	1	0	0	0.10004	0.14968	0.093394	0.27974	0.033176	0.16417	0.18342	0.09606	0.193	0.19604	0.17884	0.14552	0.38061	0.10834	0.24449	0.17716	-0.7125	-0.30833	-0.6125	-1.0417	-0.24583	-0.92708	-0.925	-0.25625	-1.1542	-0.2625	-0.55833	-1.0333	-0.18542	-0.81042	-0.875	-0.25625	363.293	227.563	160.011	442.308	462.086	272.235	320.874	495.821	173.387	482.351	506.489	251.065	498.766	395.527	474.502	243.873	0.0010039	0.00071523	0.00045753	871.77	9.4715e-07	8.5147e-06	542.54	308.99	5.3302e-06	3.2806e-06	194	82.857	121.89	64.94	1.5523e-05	47.343	0.017531	0.022347	0.0062642	1022.6	0.00023473	0.00024942	713.38	357.36	0.00023544	0.00025023	288.16	112.91	147.06	73.604	0.00024237	60.677	168.965	196.420	236.817	164.520	479.659	205.811	162.734	168.943	235.608	423.756	165.530	168.567	172.230	176.120	299.836	172.339	-8191	255	
7138.221	1	1	0	0	0.058223	0.077462	0.10807	0.24764	0.12065	0.21697	0.079924	0.35511	0.1223	0.40654	0.31002	0.26694	0.15242	0.24019	0.1162	0.47863	-0.55833	-0.57708	-0.40208	-1.1667	-0.0041667	-0.87708	-0.91458	-0.13542	-0.95833	-0.42917	-0.25625	-1.0583	-0.15625	-0.98958	-0.99583	-0.16458	409.769	217.824	304.843	501.349	158.048	437.389	334.551	442.944	314.608	337.755	290.389	432.005	445.709	163.728	175.474	463.114	0.00086981	0.0015269	0.00032759	869.19	5.7937e-06	3.2692e-05	532.55	304.52	2.2344e-05	3.3087e-05	188.63	79.421	118.66	62.809	1.2441e-05	45.296	0.017609	0.022522	0.00634	1019.1	0.00023785	0.00025213	704.28	352.99	0.00023846	0.00025226	282.82	109.66	143.92	71.739	0.00024471	58.759	153.523	427.447	216.467	164.249	363.330	321.534	162.711	168.687	414.518	273.852	166.228	168.938	172.337	176.358	188.789	172.326	-8191	255	
7138.318	1	1	0	0	0.063549	0.13902	0.1081	0.2986	0.1222	0.14101	0.20479	0.24862	0.14089	0.12486	0.054152	0.15969	0.078756	0.14635	0.2966	0.2227	-0.66875	-0.35208	-0.22917	-1.225	-0.30208	-0.65208	-1.0354	-0.17917	-1.0792	-0.675	-0.31042	-1.0667	-0.30208	-0.5125	-1.075	-0.37292	398.020	419.369	405.761	267.930	367.777	255.912	487.497	465.890	427.722	406.404	460.438	198.308	469.607	446.539	363.854	442.800	0.00038807	0.00073464	0.00062644	857.15	7.3117e-06	3.0269e-05	527.33	301.25	1.1306e-05	1.9696e-05	187.86	80.517	118.61	63.226	1.0794e-05	45.646	0.01777	0.022671	0.0064132	1011.1	0.00024017	0.00025487	697.44	350.26	0.00023845	0.00025338	281.9	110.31	144.54	72.227	0.00024465	59.254	171.088	312.893	361.192	164.625	419.887	357.378	162.282	168.760	235.100	331.579	165.550	168.846	172.110	176.185	254.367	172.367	-8191	255	
7138.414	1	1	0	0	0.13137	0.16297	0.18439	0.059559	0.083242	0.1433	0.32229	0.3367	0.16276	0.029649	0.22031	0.16068	0.26373	0.097163	0.14309	0.27855	-0.49583	-0.55	-0.091667	-1.0042	-0.19375	-0.425	-1.0583	-0.37083	-1.0187	-0.73333	-0.40625	-1.1417	-0.57917	-0.67708	-1.0479	-0.27083	298.231	412.159	184.413	387.941	302.742	255.090	368.770	160.997	338.860	246.869	419.460	259.432	490.563	205.508	479.545	437.002	0.00059639	0.0010827	0.00042014	858.82	1.8867e-05	7.5331e-06	528.32	304.28	5.2521e-06	1.4382e-05	190.5	81.501	120.99	64.579	1.3243e-05	46.492	0.017718	0.022531	0.0063656	1014.2	0.00023815	0.00025274	701.64	353.35	0.00023829	0.00025352	284.11	111.38	146.75	73.526	0.00024757	60.35	503.019	355.132	191.087	164.402	263.825	487.727	161.985	168.649	378.242	306.091	165.767	168.353	171.861	176.183	354.846	171.837	-8191	255	
7138.485	1	1	0	0	0.16745	0.1595	0.090006	0.31347	0.16074	0.15857	0.25523	0.29354	0.088528	0.36236	0.26281	0.19346	0.2124	0.37253	0.25133	0.13954	-0.48125	-0.99583	-0.17708	-1.0167	-0.36042	-0.3	-1.0646	-0.45208	-0.62917	-1.0479	-0.35208	-1.1354	-0.64583	-0.42083	-1.0167	-0.46667	491.190	266.364	368.290	449.112	173.773	235.774	430.580	495.894	418.329	351.505	428.152	466.466	333.002	484.758	304.356	387.952	0.0008177	0.0015808	0.00060488	864.56	9.0964e-06	2.0388e-05	533.98	307.37	1.3718e-05	1.2491e-05	189.45	80.833	120.24	63.705	7.7796e-06	46.614	0.017983	0.023056	0.0064555	1025.2	0.00024379	0.00025754	709.67	356.21	0.00024364	0.00025808	288.03	111.94	146.66	73.041	0.00024994	60.147	193.989	505.108	448.540	164.130	437.421	367.884	161.909	168.517	240.608	397.579	165.501	168.739	171.785	176.019	343.144	171.776	-8191	255	
7138.606	1	1	0	0	0.18476	0.29159	0.02148	0.29598	0.23036	0.12593	0.11361	0.27048	0.20488	0.18501	0.19563	0.24961	0.29305	0.2536	0.019351	0.25355	-0.3	-1.0729	0.025	-1.0292	-0.71042	-0.20417	-1.15	-0.34375	-0.52917	-1.0125	-0.13958	-0.9625	-0.9	-0.44583	-1.2646	-0.39167	267.125	367.996	229.719	458.536	466.422	205.391	502.692	487.130	212.550	198.707	491.370	458.275	178.006	392.519	342.267	162.756	0.00072088	0.0007543	0.00033262	868.43	4.1316e-06	1.316e-05	537.7	305.08	2.2841e-06	9.9805e-06	189.9	80.973	118.78	63.546	1.7672e-05	45.999	0.018051	0.023091	0.0064591	1023.6	0.00024174	0.00025583	708.54	354.94	0.00024013	0.00025478	286.44	111.24	145.1	72.437	0.00024615	59.492	186.166	194.449	153.382	163.890	238.537	349.658	161.623	168.527	395.440	326.134	165.357	168.165	172.071	175.843	235.719	172.362	-8191	255	
7138.702	1	1	0	0	0.036421	0.32721	0.23404	0.26462	0.1628	0.11773	0.18193	0.21495	0.07831	0.20327	0.2786	0.10413	0.36778	0.28003	0.14987	0.22379	0.1	-0.975	-0.016667	-0.81875	-0.65833	-0.06875	-1.1021	-0.72917	-0.37708	-1.0042	-0.3375	-0.82708	-0.82708	-0.20208	-0.9125	-0.78125	445.617	361.636	379.505	458.043	342.947	434.429	452.379	499.697	168.443	290.636	500.667	362.512	182.055	170.044	454.366	460.535	0.00085025	0.0018128	0.00019562	861.19	8.243e-06	1.1008e-05	522.67	303.67	4.0957e-06	6.1539e-06	186.97	78.619	118.13	62.79	7.9457e-06	44.558	0.017951	0.02287	0.0064133	1017.8	0.00024124	0.00025599	696.57	352.72	0.0002417	0.00025515	281.5	109.24	144.13	71.732	0.00024593	58.299	506.089	301.722	396.559	164.172	173.917	483.536	162.226	168.411	393.535	245.100	165.164	168.672	172.059	176.022	373.854	171.930	-8191	255	
7138.798	1	1	0	0	0.28988	0.074864	0.20725	0.17183	0.2499	0.11184	0.26842	0.25538	0.19587	0.17055	0.32334	0.26122	0.47751	0.37786	0.15595	0.17996	-0.15625	-0.96667	-0.17292	-0.90625	-1.1187	-0.4625	-1.0458	-0.73542	-0.34167	-1.0187	-0.38125	-0.51042	-0.94583	-0.24375	-0.84167	-0.78333	258.586	242.086	413.057	341.728	435.105	410.059	498.239	392.553	442.499	276.427	504.104	441.403	478.214	499.922	360.164	440.827	0.00086541	0.00020312	0.00044345	862.99	1.0482e-05	1.0656e-05	523.98	304.56	1.1218e-05	1.2485e-05	184.9	80.054	120	64.055	2.0763e-05	46.03	0.017848	0.022656	0.006348	1014	0.00023893	0.00025246	694.05	352.32	0.00023807	0.0002525	281.92	109.93	145.6	72.659	0.00024173	59.343	155.475	364.440	364.695	164.065	379.717	363.253	162.257	168.658	227.586	151.412	165.735	168.847	172.346	176.083	256.958	171.560	-8191	255	
7138.919	1	1	0	0	0.13356	0.26478	0.12637	0.16848	0.068106	0.27927	0.16185	0.38475	0.14208	0.2884	0.11299	0.074222	0.068668	0.15028	0.099318	0.031274	0.054167	-1.3979	-0.23125	-0.47917	-0.96458	-0.23958	-0.8625	-0.77917	-0.24167	-1.2042	-0.6	-0.31875	-1.0812	-0.2	-0.75	-0.875	385.430	435.163	162.804	228.374	243.470	426.210	239.451	460.992	174.278	328.880	498.057	462.518	409.835	504.118	261.445	366.355	0.00065734	0.0023261	0.00031823	866.41	1.1514e-05	1.2389e-05	536.64	308.18	1.2682e-05	7.5857e-06	191.64	81.97	120.56	64.237	1.8806e-05	46.485	0.017621	0.022322	0.006266	1018.7	0.00023476	0.00024977	701.4	354.68	0.00023511	0.0002486	283.32	111.27	145.9	73.135	0.00024017	59.795	151.402	311.814	257.851	164.073	216.321	343.475	162.402	168.614	321.413	403.792	165.380	168.926	171.743	175.984	256.164	171.947	-8191	255	
7139.013	1	1	0	0	0.083401	0.12421	0.2691	0.22409	0.084064	0.24957	0.44402	0.21539	0.21758	0.007488	0.30353	0.1431	0.081213	0.32245	0.095373	0.0907	0.11875	-0.82083	-0.56667	-0.50833	-1.1896	-0.275	-0.84792	-0.9375	-0.27292	-1.15	-0.66875	-0.35625	-1.0208	-0.62708	-0.66667	-1.0438	294.648	483.536	448.854	393.045	284.500	498.128	461.923	162.274	301.679	453.062	505.665	212.483	471.886	499.767	272.486	392.494	0.00030897	0.00027689	0.00044136	874.17	1.1784e-05	9.9133e-06	534.08	309.36	1.7585e-05	3.629e-06	193.76	82.897	122.39	64.935	1.4498e-06	47.687	0.0173	0.022238	0.0061771	1022.2	0.00023453	0.00024578	704.71	356.24	0.00023167	0.0002462	285.67	111.89	147.23	73.674	0.00024049	60.641	164.798	207.404	188.546	164.427	467.250	246.641	162.167	168.424	211.981	431.068	165.427	168.662	171.826	176.209	346.201	171.774	-8191	255	
7139.109	1	1	0	0	0.12556	0.22474	0.16878	0.14216	0.15232	0.26721	0.050423	0.13221	0.20548	0.1312	0.13595	0.24578	0.2571	0.32331	0.04046	0.2722	0.20417	-0.99792	-0.6625	-0.46875	-1.1646	-0.25417	-0.66667	-1.1854	-0.12917	-0.95625	-0.64792	-0.41042	-1.0521	-0.44167	-0.32292	-1.2271	431.307	258.481	331.545	493.812	375.041	281.233	447.170	403.134	345.984	166.874	499.427	211.485	478.100	153.367	294.123	485.135	0.0006266	0.001563	0.0007041	882.37	1.8979e-05	8.9354e-06	546.28	311.14	7.5238e-06	1.1971e-05	196.49	82.29	121.86	65.299	1.0819e-05	47.09	0.017478	0.022177	0.0062401	1028.5	0.00023523	0.00025018	712.23	359.2	0.00023576	0.00025172	287.77	112.19	147.98	74.033	0.00024614	60.461	472.745	425.269	262.540	164.344	277.332	322.977	162.409	168.614	306.519	388.642	165.887	168.708	172.062	175.935	316.730	171.948	-8191	255	
7139.206	1	1	0	0	0.076955	0.15225	0.22578	0.19196	0.14873	0.33273	0.19728	0.29873	0.13873	0.14061	0.24989	0.065881	0.13261	0.22443	0.071013	0.24738	0.19792	-0.8125	-0.83542	-0.21667	-0.93125	-0.31667	-0.50625	-1.2479	-0.25	-0.7375	-0.80833	-0.24792	-1.0458	-0.59792	-0.30833	-1.2729	472.408	448.868	286.335	422.967	312.396	190.596	433.797	395.259	207.371	459.315	409.090	425.654	421.251	447.641	242.823	413.318	0.00073212	0.0011896	0.00018744	860.08	8.015e-06	2.41e-05	522.6	306.29	1.4254e-05	2.1458e-05	188.81	79.502	120.57	64.408	1.2669e-05	46.038	0.017979	0.023066	0.0065218	1025.4	0.00024592	0.00026118	707.08	357.79	0.00024855	0.00026339	288.36	111.61	147.33	73.608	0.0002509	60.087	160.300	456.227	398.834	164.417	335.035	187.986	161.639	168.771	172.666	360.628	166.115	168.625	172.272	176.099	345.094	172.293	-8191	255	
7139.302	1	1	0	0	0.31295	0.11757	0.056987	0.20488	0.34086	0.16515	0.092121	0.14916	0.05605	0.21475	0.12801	0.1851	0.14613	0.15586	0.15583	0.16894	0.14375	-0.63542	-0.99375	-0.24375	-1.0688	-0.76667	-0.43333	-1.3625	-0.50208	-0.66875	-1.0375	-0.03125	-1.15	-0.86875	-0.19792	-1.1833	495.181	223.960	299.307	352.531	214.837	316.394	380.410	493.072	353.058	314.934	246.257	203.524	160.360	230.579	173.932	184.258	0.00066283	0.00034548	0.0005535	870.23	5.2165e-06	7.6696e-06	529	309.8	6.2357e-06	2.6856e-05	191.28	81.726	123.47	65.656	1.5432e-05	47.403	0.018144	0.023163	0.0065179	1028.8	0.0002431	0.00025816	708.01	358.81	0.00024252	0.00025717	287.83	112.76	148.97	74.711	0.00024737	61.104	160.618	260.308	259.500	164.535	242.875	462.376	162.045	169.086	329.564	423.672	165.888	169.101	172.179	176.195	304.085	172.281	-8191	255	
7139.398	1	1	0	0	0.12677	0.14801	0.14097	0.14322	0.09183	0.089045	0.1325	0.33136	0.072735	0.35122	0.18134	0.25893	0.27936	0.20251	0.15823	0.18878	-0.064583	-0.42083	-1.0333	-0.46458	-0.93333	-0.72708	-0.18958	-0.99375	-0.42708	-0.57292	-1.275	-0.31042	-1.0229	-0.9125	-0.27708	-1.3021	179.425	267.336	276.248	173.988	399.684	350.789	419.428	508.366	160.926	283.969	180.570	467.329	232.314	483.845	409.620	470.718	0.0010204	0.00089118	0.00026846	869.62	1.5002e-05	2.4053e-05	538.45	314.3	2.0331e-06	1.1721e-05	195.61	84.031	124.27	66.535	9.9188e-06	48.294	0.017872	0.022738	0.0063886	1026.1	0.00023828	0.00025096	708.96	360.98	0.0002356	0.00024849	288.14	113.38	149.67	75.2	0.00023962	61.398	173.333	425.137	456.301	164.451	245.492	275.874	162.177	168.223	374.094	182.855	165.418	168.759	171.900	175.645	350.966	171.930	-8191	255	
7139.519	1	1	0	0	0.041286	0.048725	0.2699	0.051611	0.12501	0.12422	0.21111	0.11115	0.19601	0.27486	0.13121	0.1021	0.18571	0.20188	0.081968	0.11742	-0.12917	-0.29792	-0.90417	-0.30625	-0.64167	-0.95833	-0.28333	-1.0187	-0.59792	-0.27083	-1.1271	-0.42708	-0.88958	-0.9875	-0.13125	-1.0875	452.750	397.449	408.474	456.854	467.258	351.711	504.698	397.730	434.900	468.739	237.924	397.127	479.830	469.899	404.456	392.803	0.00056563	0.00086381	0.00054655	881.15	1.2566e-05	3.3004e-05	544.35	315.79	2.0199e-05	1.8991e-05	200.19	85.834	126.44	67.729	6.8285e-06	49.462	0.01734	0.022341	0.0062361	1029.7	0.0002337	0.00024888	710.98	362.31	0.0002333	0.00024729	289.85	114.79	150.99	75.967	0.00023703	62.502	163.744	211.693	504.000	163.941	389.852	320.076	161.423	168.428	256.463	418.586	165.263	168.351	171.827	175.834	405.806	172.205	-8191	255	
7139.615	1	1	0	0	0.018939	0.20594	0.14243	0.4706	0.16748	0.274	0.18849	0.14071	0.12596	0.28067	0.2392	0.21652	0.15963	0.28367	0.17972	0.13131	-0.20417	-0.23125	-1.2021	-0.37292	-0.52917	-0.8875	-0.28958	-0.94167	-0.61667	-0.4	-1.075	-0.3125	-0.58958	-1.1063	-0.0375	-1.1396	397.130	169.894	192.315	477.415	398.938	308.810	458.771	477.011	165.794	375.917	430.725	167.158	238.950	488.435	240.376	414.570	0.00071524	0.00063265	0.0005423	879.71	1.5936e-05	1.2338e-05	541.84	315.04	8.2323e-06	1.7046e-05	197.3	84.914	124.84	66.923	4.2084e-06	48.271	0.017323	0.022077	0.0062036	1030	0.00023406	0.00024871	711.66	362.22	0.00023402	0.00025035	289.09	114.25	150.19	75.734	0.00023923	61.483	155.912	239.143	272.928	163.929	444.870	226.334	161.562	168.177	278.552	197.382	165.730	168.189	171.750	175.407	372.459	171.686	-8191	255	
7139.711	1	1	0	0	0.14486	0.1848	0.10137	0.17471	0.239	0.16919	0.20388	0.18328	0.20082	0.27312	0.30376	0.15078	0.19759	0.12998	0.025823	0.023815	-0.42083	-0.26667	-1.0063	-0.52083	-0.50625	-1.0792	-0.33333	-0.74167	-0.74583	-0.4625	-1.1208	-0.6375	-0.58542	-1.4562	-0.25	-1.075	375.109	377.328	383.259	295.712	211.994	189.294	497.220	477.360	377.543	377.490	369.358	220.405	468.233	432.079	390.067	171.133	0.00030249	0.0012389	0.00046649	867.7	8.1048e-07	1.1751e-05	526.22	312.05	1.1389e-05	4.0596e-06	191.48	82.978	124.63	66.486	4.1073e-06	47.702	0.017377	0.022114	0.0062071	1019.2	0.00023385	0.00024922	698.66	359.56	0.0002345	0.00024943	285.24	112.42	149.55	75.052	0.00024121	60.875	489.379	264.436	290.743	163.778	251.209	161.012	162.124	168.227	305.874	228.320	165.089	168.421	171.828	175.548	309.283	171.564	-8191	255	
7139.783	1	1	0	0	0.039153	0.22494	0.3195	0.18499	0.32981	0.20775	0.42047	0.22366	0.029336	0.093902	0.085388	0.078179	0.16199	0.14816	0.3936	0.20438	-0.41875	-0.085417	-0.96042	-0.6	-0.31458	-1.0792	-0.34792	-0.78542	-0.98333	-0.20208	-0.95	-0.61042	-0.39583	-1.1479	-0.30625	-0.65	265.688	183.670	377.083	212.381	259.511	418.355	458.630	436.682	152.249	495.870	318.863	489.189	485.059	365.240	158.278	166.643	0.00078444	0.0010776	0.00036198	864.64	1.3058e-05	9.7058e-06	530.9	311.66	1.11e-05	7.0857e-06	195.27	83.477	124.39	66.504	2.2397e-05	48.081	0.017553	0.022388	0.0062801	1019.2	0.00023548	0.00024787	700.65	359.83	0.00023315	0.00024823	286.16	112.79	149.13	75.097	0.00023893	61.089	195.724	160.038	315.617	163.880	219.285	414.321	162.185	168.369	236.779	195.073	165.865	168.102	171.826	175.625	210.235	171.920	-8191	255	
7139.903	1	1	0	0	0.35982	0.074503	0.18464	0.1517	0.051715	0.048817	0.1502	0.37622	0.27539	0.089334	0.19702	0.13554	0.12908	0.31234	0.17549	0.16875	-0.57708	-0.12083	-0.98333	-0.63958	-0.39375	-1.0833	-0.47292	-0.65	-1.0958	-0.10417	-0.85208	-0.78333	-0.14167	-1.0667	-0.50625	-0.55417	232.331	156.709	386.296	510.516	365.315	181.105	460.460	188.788	400.432	238.683	356.759	450.084	481.990	158.128	363.568	399.406	0.00051067	0.00067924	0.00021924	870.68	2.2689e-05	1.7402e-05	535.05	312.02	1.082e-05	2.1893e-05	194.79	83.381	124.46	66.536	2.4765e-05	48.22	0.017491	0.022319	0.0062903	1024.1	0.00023685	0.00025108	706.01	360.02	0.00023678	0.00025039	288.1	113	149.28	74.98	0.00024069	61.225	178.423	169.909	219.127	163.840	169.018	353.079	162.096	168.625	495.557	374.402	165.193	168.312	171.760	175.757	207.783	172.185	-8191	255	
7139.998	1	1	0	0	0.294	0.1661	0.01235	0.21594	0.19271	0.092664	0.056583	0.29153	0.20644	0.23972	0.055423	0.1797	0.21495	0.081566	0.18351	0.11042	-0.75833	-0.15625	-0.98958	-0.93958	-0.275	-0.94167	-0.44167	-0.38958	-1.1083	-0.20625	-0.83542	-0.98333	-0.32292	-1.2125	-0.35833	-0.35417	191.447	504.733	187.377	480.551	305.779	206.041	362.394	505.014	448.858	401.794	368.796	188.054	465.579	491.139	333.597	467.572	0.00073109	0.0021676	0.000455	876.39	2.3059e-05	2.1698e-05	541.64	315.19	4.435e-06	1.9015e-05	198.03	84.85	124.89	67.039	1.9786e-05	48.64	0.017403	0.022259	0.0062435	1026.5	0.00023366	0.00024688	709.75	360.68	0.00023264	0.00024639	289.5	113.57	149.84	75.433	0.00023653	61.572	182.728	474.654	267.864	163.814	160.665	293.768	161.838	168.269	438.089	269.151	165.671	168.582	171.725	175.877	409.132	171.810	-8191	255	
7140.094	1	1	0	0	0.14654	0.025283	0.11203	0.30713	0.23664	0.14845	0.10982	0.30418	0.14353	0.094349	0.082251	0.29376	0.20229	0.10936	0.12065	0.28669	-0.675	-0.18542	-0.59583	-1.1146	-0.085417	-0.95833	-0.75	-0.28333	-1.0458	-0.31458	-0.60417	-1.0854	-0.175	-0.90625	-0.76042	-0.31458	442.017	487.623	253.032	468.023	285.205	220.410	477.207	388.272	485.107	314.043	223.079	169.586	472.968	442.232	262.055	238.362	0.00093083	0.00077738	0.00041786	876.31	3.081e-06	8.9364e-06	537.71	311.71	1.1567e-05	2.0883e-05	193.19	83.404	123.97	66.522	6.3783e-06	47.859	0.01719	0.022028	0.0061792	1023	0.00023207	0.00024622	703.18	359.21	0.00023124	0.00024399	284.53	111.99	148.37	74.734	0.00023699	60.514	159.138	490.675	217.184	164.014	164.816	370.114	162.044	169.075	316.632	201.978	166.468	168.683	172.054	175.938	330.813	172.235	-8191	255	
7140.190	1	1	0	0	0.23189	0.25057	0.21014	0.17431	0.22668	0.097693	0.069743	0.26365	0.33054	0.069288	0.072341	0.10647	0.24732	0.25071	0.077759	0.12683	-0.7	-0.32917	-0.51667	-1.05	-0.045833	-0.85	-0.89583	-0.1375	-1.0042	-0.35208	-0.52083	-1.0187	-0.3	-0.86458	-0.86667	-0.16875	314.513	272.747	177.078	458.393	342.967	307.325	191.601	151.633	402.598	431.920	422.883	465.664	505.792	158.346	289.796	365.862	0.00034871	0.00066523	0.00015249	867.51	1.687e-05	1.1659e-05	526.51	311.24	3.5636e-06	1.3364e-05	190.28	82.047	122.99	65.933	3.4699e-06	47.029	0.017175	0.02187	0.0061518	1013.7	0.00022935	0.00024172	689.91	355.48	0.00022516	0.00023884	279.85	110.32	146.65	74.111	0.000228	59.757	494.566	371.442	329.032	163.952	338.532	379.827	162.484	169.127	508.225	363.163	165.884	168.142	171.988	176.429	180.805	172.329	-8191	255	
7140.288	1	1	0	0	0.27917	0.20527	0.076174	0.04277	0.16161	0.1867	0.14873	0.085695	0.048101	0.16363	0.18522	0.37702	0.10108	0.20564	0.072638	0.15227	-0.52292	-0.62083	-0.28958	-1.0604	-0.070833	-0.7	-0.88958	-0.2375	-0.94375	-0.64583	-0.425	-1.225	-0.37292	-0.76667	-1.0375	-0.31042	233.643	441.354	186.720	446.281	427.973	507.512	498.408	188.217	310.309	370.851	259.276	509.954	501.430	162.007	223.862	426.833	0.00092264	0.00019903	0.00057155	870.24	6.8002e-06	2.732e-05	529.63	312.12	8.9441e-06	6.9336e-06	195.7	83.452	123.98	67.107	3.3521e-06	47.856	0.016671	0.021259	0.0059816	1011.1	0.00022409	0.00023647	688.51	355.39	0.00022016	0.0002336	280.16	110.67	147	74.463	0.00022316	60	161.565	456.679	313.569	164.285	273.714	280.829	162.350	168.800	217.167	328.349	165.970	168.675	172.348	176.147	297.024	172.753	-8191	255	
7140.382	1	1	0	0	0.16478	0.12382	0.063476	0.31175	0.39466	0.28238	0.12647	0.15236	0.20863	0.24353	0.12725	0.20594	0.24086	0.30668	0.074133	0.11974	-0.6	-0.66875	-0.23542	-1.1542	-0.15833	-0.57917	-1.175	-0.26042	-0.70208	-0.79167	-0.11667	-1.0625	-0.525	-0.625	-0.98125	-0.22708	478.263	501.495	495.139	501.015	377.981	399.614	382.172	492.104	302.061	158.599	509.791	189.346	177.483	494.030	246.194	377.504	0.00076927	0.00060593	0.00017969	871.29	1.8511e-05	9.8012e-06	540.67	314.28	2.353e-05	1.4342e-05	195.68	84.094	124.37	66.7	1.1485e-05	48.073	0.016027	0.020431	0.0057372	1008	0.00021294	0.00022557	686.24	354.81	0.00021073	0.00022339	277.85	109.64	145.8	73.965	0.00021129	59.52	161.637	202.333	418.682	164.356	331.168	284.832	162.364	168.636	334.949	191.428	166.152	168.773	172.441	176.046	248.116	172.437	-8191	255	
7140.478	1	1	0	0	0.15202	0.098072	0.1352	0.19186	0.19619	0.076528	0.34725	0.15449	0.089642	0.10548	0.038074	0.16516	0.025965	0.22663	0.1306	0.2418	-0.475	-0.8	-0.1	-1.2188	-0.51667	-0.43125	-0.98542	-0.44375	-0.7375	-0.725	-0.3	-1.0833	-0.55208	-0.35	-1.0042	-0.41042	223.173	439.638	276.474	499.820	392.551	353.337	489.616	183.740	248.597	318.951	359.429	478.368	173.966	480.179	297.453	419.480	0.00080534	0.00098832	0.00027243	879.01	2.4338e-05	1.7358e-05	540.82	316.08	3.5598e-06	1.4027e-05	197.72	85.517	124.66	67.008	1.287e-05	48.662	0.01537	0.019477	0.005468	1005.5	0.00020483	0.00021633	684.09	354.53	0.00020231	0.00021381	275.98	109.59	145.37	74.043	0.00020382	59.55	153.860	312.599	365.958	164.249	259.145	355.820	162.505	168.716	221.052	262.664	165.644	168.877	172.282	176.393	256.869	171.967	-8191	255	
7140.599	1	1	0	0	0.091247	0.2559	0.22861	0.18353	0.10412	0.24867	0.34643	0.19504	0.046537	0.094698	0.055331	0.069709	0.10545	0.43173	0.35761	0.097214	-0.26458	-1.0083	-0.24583	-1.1458	-0.59375	-0.24375	-0.95833	-0.38958	-0.58333	-0.80833	-0.34792	-1.0917	-0.75417	-0.325	-0.85	-0.29792	305.200	343.845	181.432	393.133	403.165	299.827	462.174	482.959	243.822	366.453	365.690	497.108	287.499	504.712	440.116	501.811	0.00064698	0.0011925	0.00028842	879.79	1.302e-05	9.5751e-06	535.92	314.93	1.3803e-05	2.5963e-05	198.89	85.076	125.1	67.055	2.8854e-05	48.356	0.014746	0.018775	0.0052322	994.9	0.00019712	0.00020693	671.79	351.6	0.0001955	0.00020684	271.74	108.41	145.05	73.969	0.00019857	59.078	172.413	174.599	300.500	164.188	355.598	312.090	162.652	168.413	277.263	457.350	165.803	168.739	172.005	176.281	236.838	172.240	-8191	255	
7140.695	1	1	0	0	0.10137	0.14036	0.2916	0.074575	0.20662	0.13736	0.13267	0.30217	0.28853	0.21595	0.14183	0.11945	0.16309	0.26938	0.24215	0.14638	-0.10417	-1.0521	-0.17708	-0.98125	-0.77292	-0.30208	-1.0479	-0.52708	-0.35	-1.1938	-0.23542	-1.0375	-0.86667	-0.25208	-1.1875	-0.4125	383.390	224.162	325.345	422.324	211.311	210.543	171.410	352.363	371.033	293.917	348.703	366.725	463.670	162.406	346.258	441.947	0.00050344	0.00076693	0.00020593	870.48	1.3423e-05	1.684e-05	526.8	314.05	2.3103e-05	8.3224e-06	196.22	84.289	126.34	67.319	1.7619e-05	49.062	0.014445	0.018427	0.0051828	987.62	0.00019346	0.00020558	665.56	350.67	0.00019256	0.00020424	270.62	107.92	145.04	73.936	0.00019549	59.048	181.120	470.425	150.730	164.325	353.427	387.344	162.067	168.531	166.681	352.308	165.814	168.991	172.024	176.242	181.600	171.910	-8191	255	
7140.791	1	1	0	0	0.057999	0.20092	0.26248	0.35783	0.16426	0.12209	0.25686	0.15092	0.15069	0.17757	0.099229	0.27381	0.21898	0.16654	0.25414	0.055299	-0.0020833	-1.0438	-0.14167	-0.74792	-0.65625	-0.097917	-0.85625	-0.45208	-0.17083	-1.1063	-0.19375	-0.81875	-1.0063	-0.39167	-1.0521	-0.67917	446.038	351.940	208.282	164.471	157.655	343.546	491.816	193.941	232.076	388.740	265.257	403.316	190.692	434.625	363.648	402.756	0.00065025	0.000589	0.00031635	869.09	5.4207e-06	6.9126e-06	542.33	315.88	1.6843e-05	7.7708e-06	197.79	84.902	125.08	67.516	5.1091e-06	48.77	0.014262	0.018016	0.0050921	986.98	0.00019109	0.00020095	670.21	351.32	0.00019017	0.00020161	270.9	107.86	144.59	73.802	0.00019578	59.011	499.574	264.149	291.747	164.803	370.861	308.882	161.816	168.662	349.760	284.645	166.082	169.196	171.973	176.015	486.215	172.056	-8191	255	
7140.887	1	1	0	0	0.21596	0.18468	0.093072	0.21714	0.16236	0.13464	0.015453	0.12615	0.14628	0.17524	0.039744	0.30489	0.22538	0.22446	0.049785	0.13591	0.175	-0.99583	-0.31667	-0.61458	-0.86875	0.029167	-1.0854	-0.71667	-0.20625	-1.0917	-0.2625	-0.57917	-1.0354	-0.42917	-0.825	-0.71042	341.838	270.753	240.722	392.564	423.572	331.310	385.409	311.408	285.073	360.831	384.401	414.922	156.634	163.038	445.690	244.152	0.00059838	0.0011583	7.5221e-05	874.67	3.7065e-06	1.6805e-05	542.68	319.42	8.866e-06	1.038e-05	200.68	86.187	126.89	67.783	1.2353e-05	49.45	0.014166	0.018065	0.0050607	990.84	0.00019089	0.00020031	672.23	352.38	0.0001882	0.00019795	272.24	108.66	145.42	74.183	0.0001927	59.608	178.493	509.782	296.094	164.489	400.466	178.975	162.394	169.082	237.986	287.668	165.266	168.887	172.002	176.237	385.984	171.890	-8191	255	
7141.008	1	1	0	0	0.097475	0.071223	0.13101	0.23574	0.26318	0.2021	0.27706	0.36902	0.16506	0.32561	0.20924	0.14248	0.32148	0.068778	0.099328	0.065367	0.19375	-0.9375	-0.15625	-0.61667	-1.2229	-0.24375	-0.83542	-0.89792	-0.070833	-1.15	-0.45208	-0.54583	-1.1646	-0.52917	-0.65208	-0.98125	324.820	467.360	510.559	455.236	290.124	477.151	444.358	420.684	296.625	248.241	371.745	422.559	192.288	494.726	394.414	361.937	0.00075808	0.0013054	0.00026066	888.24	1.2612e-05	1.4053e-05	552.98	318.36	2.4554e-06	1.5715e-05	201.17	86.298	127.42	67.982	5.8188e-06	50	0.014098	0.018013	0.0050596	994.97	0.00019078	0.00020112	677.24	353.98	0.00018965	0.00020087	273.8	109.59	146.59	74.723	0.00019371	59.963	155.376	215.499	295.913	164.621	254.381	390.382	162.618	168.787	368.978	321.025	165.667	168.553	172.255	176.326	203.831	172.368	-8191	255	
7141.080	1	1	0	0	0.14366	0.2182	0.23555	0.17983	0.062037	0.19852	0.098904	0.12414	0.28064	0.051118	0.14409	0.30911	0.11857	0.24385	0.041235	0.39637	0	-1.0667	-0.375	-0.475	-1.1604	-0.4125	-0.75208	-1.1333	-0.041667	-0.96042	-0.725	-0.32917	-1.3937	-0.4125	-0.46667	-1.2188	457.035	379.147	488.541	462.241	283.360	157.237	155.990	435.649	379.675	386.023	363.992	493.736	286.077	498.636	392.425	486.187	0.00078903	0.00051708	0.00052165	877.02	9.6379e-06	8.4069e-06	540.59	318.27	1.9218e-05	1.7111e-05	196.31	85.426	127.15	68.047	1.7219e-05	49.2	0.014023	0.017937	0.005037	992.17	0.00018899	0.00020059	673.04	354.02	0.00018986	0.00020247	270.77	108.34	146.05	74.477	0.00019444	59.494	153.048	226.540	484.119	164.473	383.219	196.190	162.426	168.817	392.768	297.463	165.509	168.645	172.089	176.148	224.575	172.039	-8191	255	
7141.199	1	1	0	0	0.15113	0.078625	0.25417	0.030718	0.36116	0.28179	0.089834	0.29565	0.15332	0.19036	0.14547	0.23255	0.21015	0.10163	0.23067	0.07242	0.325	-0.79375	-0.7125	-0.26458	-1.15	-0.36667	-0.7375	-1.0417	-0.33333	-0.81875	-0.64792	-0.34583	-1.1396	-0.60833	-0.45417	-1.1167	510.714	344.488	160.953	454.135	265.326	468.672	490.117	460.712	184.373	463.910	238.570	184.279	480.294	203.691	385.338	461.620	0.00067252	0.0012152	0.00028624	875.57	2.3628e-05	1.9823e-05	539.21	320.79	1.2716e-05	1.5036e-05	199.32	86.62	128.67	68.854	1.1113e-05	49.655	0.014208	0.018054	0.0050651	991.07	0.0001903	0.00020182	669.36	354.18	0.00019082	0.00020208	273.27	109.41	147.34	75.383	0.00019764	60.199	193.892	453.400	152.252	164.285	243.294	369.498	162.445	169.022	167.054	301.244	166.095	169.074	172.299	176.134	239.557	172.201	-8191	255	
7141.295	1	1	0	0	0.054167	0.12332	0.14528	0.27401	0.13186	0.059434	0.15773	0.10303	0.21258	0.055578	0.1023	0.22434	0.032306	0.16145	0.12203	0.30935	0.37083	-0.78125	-0.73958	-0.275	-0.92292	-0.56667	-0.23333	-1.0333	-0.26042	-0.67292	-1.1479	-0.070833	-1.0583	-0.7375	-0.2625	-1.0979	485.011	181.093	198.605	178.273	507.781	502.103	440.002	237.821	446.239	468.130	158.436	373.780	424.868	488.194	282.608	471.400	0.00066947	0.0013896	0.00058239	883.17	7.5499e-06	4.6426e-06	542.8	320.2	8.4532e-06	1.6084e-05	203.29	87.419	128.86	69.243	4.7439e-06	50.136	0.014343	0.018306	0.0051171	996.47	0.00019229	0.00020397	677.05	356.37	0.00019467	0.00020508	276.22	110.71	147.98	75.922	0.00020093	60.722	161.163	490.872	181.833	164.359	170.822	502.344	162.872	168.833	221.384	272.641	165.180	168.975	172.299	176.059	177.860	172.645	-8191	255	
7141.391	1	1	0	0	0.13811	0.32482	0.25724	0.13745	0.1006	0.11799	0.15711	0.2553	0.091082	0.14216	0.28702	0.1133	0.52871	0.3353	0.087653	0.31319	0.27917	-0.56458	-0.72917	-0.21667	-1.0125	-0.65208	-0.51667	-1.1625	-0.29583	-0.57708	-0.95833	-0.25	-0.9375	-0.86042	-0.15625	-1.0104	214.622	167.452	452.476	510.347	268.644	180.493	221.443	446.397	384.408	275.879	469.835	188.262	167.062	194.775	216.749	441.457	0.0008575	0.0010758	0.00054094	885.59	1.5208e-05	2.1632e-05	546.29	321.15	1.5004e-05	1.8162e-05	202.67	87.457	128.67	69.221	2.0459e-05	50.663	0.014597	0.018629	0.0052158	1003.7	0.0001973	0.00020869	684.11	358.36	0.0001969	0.00020928	278.74	111.56	148.63	76.027	0.00020457	61.363	155.605	479.197	214.846	164.369	318.106	207.319	162.500	168.536	294.912	261.309	165.810	168.829	172.290	176.120	186.874	172.476	-8191	255	
7141.487	1	1	0	0	0.10534	0.13263	0.14288	0.18849	0.073711	0.02309	0.42437	0.36152	0.11704	0.10995	0.14369	0.25042	0.11857	0.10133	0.1297	0.13257	-0.097917	-0.35208	-1.0771	-0.37708	-0.83125	-0.6875	-0.2375	-1.0312	-0.33125	-0.45	-1.1354	-0.26042	-0.80417	-1.0583	-0.14583	-1.1313	170.935	390.705	259.163	445.020	301.235	306.304	288.690	481.618	484.423	497.343	467.043	428.693	349.729	151.561	206.983	200.188	0.00080028	0.00061638	0.00038907	891.01	1.0853e-05	2.3448e-05	553.13	323.32	2.3632e-05	2.8538e-05	202.46	86.214	127.68	68.755	6.2498e-06	49.809	0.014958	0.019139	0.0053215	1011.7	0.00020365	0.00021596	693.85	361.11	0.00020538	0.00021921	282.5	111.82	149.43	76.153	0.00021338	61.329	156.959	239.223	352.961	164.728	308.440	424.713	162.749	168.699	235.697	271.692	166.177	168.828	172.204	175.933	243.976	172.483	-8191	255	
7141.608	1	1	0	0	0.069784	0.058185	0.28332	0.22946	0.15975	0.25966	0.31154	0.1766	0.25638	0.11678	0.2576	0.3011	0.37373	0.17977	0.24497	0.096611	-0.21667	-0.3875	-1.1146	-0.3625	-0.63958	-0.82292	-0.25417	-1.075	-0.54792	-0.26667	-1.0917	-0.35417	-0.59792	-0.93542	-0.13125	-0.82292	191.225	233.532	329.189	460.928	211.288	272.371	249.509	469.153	219.774	308.530	480.898	492.711	169.296	176.244	166.734	262.234	0.00052945	0.0022663	0.00026458	879.77	1.1882e-05	8.484e-06	537.14	318.28	2.0683e-05	1.1129e-05	195.29	84.091	125.92	67.623	2.3295e-05	47.919	0.015656	0.019921	0.0056311	1008.5	0.00021183	0.00022435	684.9	359.18	0.00021474	0.00022929	281	111.2	149.31	75.736	0.00022783	60.88	169.238	465.760	311.248	164.353	247.624	261.705	162.703	168.619	237.751	414.593	165.339	168.899	171.910	176.037	238.402	172.087	-8191	255	
7141.679	1	1	0	0	0.21476	0.11738	0.32218	0.29299	0.2294	0.11365	0.15944	0.16292	0.21544	0.1792	0.25207	0.065524	0.26826	0.26259	0.012684	0.15768	-0.30208	-0.17292	-0.9875	-0.58125	-0.58125	-1.0312	-0.19375	-0.99375	-0.71042	-0.25208	-1.1521	-0.47708	-0.44375	-1.1729	-0.11042	-1.0979	285.832	166.787	491.034	476.763	207.938	462.179	462.069	194.861	427.869	390.899	447.719	414.023	470.447	396.803	167.877	354.001	0.00053855	0.0015873	0.00059641	872.84	9.6344e-06	7.6659e-06	531.51	316.97	3.9576e-06	2.0495e-05	196.39	83.742	126.15	67.838	7.2875e-06	48.186	0.016727	0.021455	0.0060403	1019.8	0.00022832	0.00024352	698.85	362.52	0.00023013	0.00024616	288.81	113.47	151.21	76.319	0.00024444	61.936	164.454	153.213	259.976	164.516	222.796	312.632	162.344	169.092	331.248	347.172	165.883	168.474	172.368	176.340	294.282	172.104	-8191	255	
7141.775	1	1	0	0	0.090324	0.13528	0.094023	0.26155	0.12608	0.14786	0.20679	0.27039	0.22741	0.11223	0.32505	0.10374	0.31473	0.40059	0.22555	0.27741	-0.51667	-0.1375	-0.96042	-0.57292	-0.525	-1.0208	-0.28542	-0.92292	-1.0208	-0.12708	-1.0271	-0.41667	-0.43542	-1.0958	-0.32292	-0.83125	172.555	271.702	384.523	383.996	490.586	483.714	499.414	465.234	364.014	494.174	334.907	419.167	200.140	151.161	354.343	472.923	0.00085115	0.00033325	0.00054569	874.41	1.2777e-05	8.419e-06	534.02	316.35	1.2823e-05	6.0854e-06	197.65	83.926	124.9	67.242	2.472e-05	48.439	0.017963	0.023185	0.0065383	1036.9	0.00024859	0.00026365	716.91	367.82	0.00025237	0.00026937	298.43	116.16	152.82	76.955	0.0002626	63.115	182.360	469.522	280.300	164.489	280.437	434.624	162.348	168.841	247.659	187.047	165.798	168.562	172.428	176.339	323.385	172.193	-8191	255	
7141.872	1	1	0	0	0.33816	0.31009	0.14822	0.027317	0.31156	0.085804	0.12757	0.20487	0.29046	0.06667	0.17513	0.090913	0.1613	0.31318	0.15612	0.24732	-0.52083	-0.047917	-0.67917	-0.73333	-0.0875	-1.0583	-0.42083	-0.71458	-1.1292	-0.325	-1.0458	-0.65208	-0.325	-1.3083	-0.29375	-0.46458	436.499	507.422	192.178	460.444	273.657	160.006	507.624	256.897	288.020	387.376	459.981	376.098	180.118	445.672	230.865	440.870	0.00076992	0.00029151	0.0001666	883.16	5.561e-06	1.1105e-05	542.93	319.18	3.0534e-06	2.0351e-05	198.85	85.877	127.31	68.14	1.3486e-05	49.428	0.019169	0.02465	0.0069728	1054.6	0.00026466	0.00027951	735.79	373.58	0.0002677	0.00028372	306.95	119.82	156.41	78.474	0.00027936	65.185	151.770	389.576	300.666	164.372	163.873	246.083	162.686	169.187	277.395	181.922	165.416	168.876	172.209	176.281	509.956	172.600	-8191	255	
7141.968	1	1	0	0	0.18443	0.26676	0.14179	0.34926	0.19923	0.14227	0.13556	0.14165	0.18278	0.022448	0.065304	0.073871	0.15394	0.17421	0.33719	0.23026	-0.59583	-0.19792	-0.725	-0.84792	-0.4875	-1.0417	-0.53125	-0.38125	-1.0271	0.054167	-0.84375	-0.77917	-0.25208	-1.1604	-0.6875	-0.52917	275.212	202.253	364.564	445.875	155.530	487.913	194.537	441.057	430.842	210.615	321.415	506.781	390.328	425.791	342.153	262.818	0.00043898	0.00049563	0.0010081	886.06	3.5832e-06	1.1067e-05	541.94	318.49	3.1229e-05	1.591e-05	197.1	84.611	126.37	67.388	3.521e-06	48.576	0.020456	0.026202	0.0073951	1071	0.00027938	0.00029552	748.75	377.84	0.00028112	0.00029903	311.39	121.03	157.65	78.499	0.00029259	64.847	166.524	508.178	186.277	164.258	196.742	298.004	162.612	168.897	223.062	286.101	165.693	168.219	172.352	176.283	502.983	172.506	-8191	255	
7142.087	1	1	0	0	0.1124	0.1395	0.18152	0.11706	0.028615	0.19882	0.11954	0.28361	0.049955	0.033141	0.2205	0.076208	0.1821	0.1064	0.056131	0.22493	-0.675	-0.19792	-0.52292	-0.97708	-0.20833	-1.1625	-0.55833	-0.52917	-1.2104	-0.12708	-0.69167	-0.86042	-0.3625	-1.1521	-0.56875	-0.1625	471.273	321.979	223.844	203.659	493.846	339.683	310.927	461.681	314.658	484.286	371.128	510.028	476.125	269.070	357.597	317.948	0.00057732	0.0020519	0.00075153	871.7	2.6909e-05	1.6467e-05	531.44	316.55	1.7043e-05	1.4495e-05	191.37	82.794	125.46	66.962	1.3378e-05	47.567	0.02132	0.027249	0.0076434	1065.5	0.00028961	0.00030663	745.54	376.79	0.00029069	0.00030772	310.81	120.13	157.29	78.31	0.00029772	64.67	171.369	182.626	176.991	164.724	254.577	229.490	162.626	168.782	220.931	332.069	165.751	169.122	172.296	176.082	380.426	172.442	-8191	255	
7142.183	1	1	0	0	0.19143	0.16857	0.13623	0.31864	0.28463	0.28364	0.18272	0.34551	0.23555	0.20609	0.12755	0.14638	0.27216	0.1161	0.32564	0.25626	-0.725	-0.30417	-0.61458	-1.0167	-0.10833	-0.80625	-0.63958	-0.12292	-1.1042	-0.50625	-0.56458	-1.0479	-0.26042	-1.0146	-0.65	-0.275	247.908	390.229	265.091	509.365	218.192	373.736	451.401	410.026	272.088	403.183	462.216	250.594	471.049	220.770	416.676	421.831	0.0006947	0.0022784	0.00025311	875.58	1.9371e-05	1.276e-05	530.62	315.86	2.1422e-05	1.3983e-05	197.45	82.951	125.89	67.551	2.3056e-06	48.672	0.021698	0.027843	0.0077958	1070.5	0.00029298	0.00031051	747.88	377.72	0.00029364	0.00031012	313.58	121.02	158.1	78.787	0.00029999	65.437	501.043	318.998	369.966	164.475	406.972	398.767	162.681	168.758	262.259	225.296	166.021	168.920	172.320	176.292	386.798	172.693	-8191	255	
7142.279	1	1	0	0	0.20805	0.19782	0.12479	0.22078	0.12389	0.15412	0.20941	0.19155	0.29546	0.079339	0.18579	0.088046	0.058672	0.083884	0.077497	0.19073	-0.64167	-0.30833	-0.28958	-1.0021	-0.05	-0.81667	-1.0438	-0.27917	-1.1083	-0.67917	-0.28333	-1.2563	-0.25208	-0.75417	-0.75208	-0.19167	295.529	492.027	199.284	499.881	297.300	389.253	165.429	437.090	176.725	409.900	295.527	358.008	437.199	461.786	482.210	495.423	0.00080981	0.00051898	0.00071463	877.85	1.7062e-05	3.3591e-05	539.55	318.64	1.0955e-05	2.8702e-05	198.76	85.031	125.59	67.771	2.5121e-05	48.996	0.021843	0.027866	0.0078301	1077.4	0.0002943	0.00031137	755.55	380.62	0.00029263	0.00031116	316.5	122.47	158.8	79.169	0.00030078	65.951	152.867	196.511	276.803	164.517	212.448	346.719	162.044	168.898	265.605	270.734	165.196	168.603	171.818	176.091	210.264	172.339	-8191	255	
7142.375	1	1	0	0	0.4178	0.39315	0.31539	0.025309	0.10519	0.28312	0.053802	0.48514	0.22885	0.22023	0.07225	0.27427	0.15877	0.24346	0.14545	0.060354	-0.74583	-0.43333	-0.24167	-0.96458	-0.25625	-0.6625	-1.0417	-0.27708	-0.77708	-0.58542	-0.28542	-1.1083	-0.39375	-0.7	-0.87917	-0.34375	198.725	153.088	413.266	325.817	236.282	304.731	421.473	495.945	344.309	196.124	236.086	233.382	250.319	195.514	377.368	342.938	0.0011155	0.00063683	0.00038551	883.08	1.5093e-05	1.7307e-05	537.42	318.51	4.9639e-06	1.2963e-05	200.69	84.315	126.17	67.614	1.4184e-05	49.274	0.021936	0.028078	0.0078869	1082.7	0.0002965	0.00031466	759.8	381.62	0.00029767	0.00031479	318.93	122.84	159	79.256	0.00030128	66.133	165.979	309.799	349.238	164.274	214.048	448.893	161.852	168.426	316.134	414.000	165.923	168.904	172.043	176.096	299.988	171.558	-8191	255	
7142.471	1	1	0	0	0.24736	0.048043	0.25879	0.38922	0.11698	0.17766	0.19564	0.30989	0.15688	0.034842	0.18356	0.13947	0.15204	0.19816	0.16667	0.24579	-0.48542	-0.90417	-0.34375	-1.2313	-0.44375	-0.49583	-1.1229	-0.20833	-0.72708	-0.75	-0.25833	-1.05	-0.61042	-0.36042	-0.98333	-0.26667	293.838	399.639	383.736	406.373	266.542	255.489	391.461	440.715	313.274	299.396	163.864	245.490	411.733	170.845	478.823	487.233	0.00098228	0.00049643	0.0001278	880.05	1.1603e-05	1.1985e-05	536.67	317.17	2.4729e-06	1.8195e-05	198.96	84.552	126.7	68.189	1.5211e-05	48.767	0.021984	0.028076	0.0078921	1082.9	0.00029388	0.00031335	757.24	381.26	0.00029516	0.00031249	317.07	122.44	159.37	79.681	0.00030358	66.077	155.741	157.565	485.571	164.244	343.714	432.001	162.718	168.762	392.919	242.435	165.999	168.839	172.056	175.864	359.662	172.349	-8191	255	
7142.567	1	1	0	0	0.026553	0.053064	0.27328	0.25114	0.1297	0.22172	0.24173	0.082098	0.11243	0.13613	0.3457	0.37097	0.077852	0.069634	0.068302	0.14476	-0.40833	-0.8625	-0.27917	-0.96875	-0.65	-0.40208	-1.2146	-0.44583	-0.56458	-0.79792	-0.020833	-0.96042	-0.79792	-0.37292	-1.2042	-0.32083	477.551	188.974	508.041	211.347	407.466	190.040	429.463	507.085	177.852	442.866	467.241	486.606	411.166	212.764	461.438	215.073	0.00080422	0.001914	0.00030096	879.56	9.2911e-06	2.1136e-05	531.42	318.78	3.1367e-05	2.8463e-05	195.58	84.833	126.42	68.756	1.1623e-05	48.901	0.022113	0.028327	0.0079217	1079.6	0.00029738	0.00031633	752.57	382.11	0.0002993	0.0003172	317.28	123.04	159.94	79.999	0.00030546	66.304	190.228	248.228	239.672	164.497	280.027	489.573	162.726	168.735	346.643	341.322	165.475	168.767	172.198	175.878	252.189	172.286	-8191	255	
7142.688	1	1	0	0	0.18911	0.087621	0.047504	0.18369	0.23174	0.16933	0.10055	0.24204	0.044579	0.15509	0.058917	0.089387	0.098048	0.18271	0.33581	0.17159	-0.275	-0.89375	-0.035417	-1.1458	-0.60208	-0.3	-1.2188	-0.49167	-0.575	-1.0896	-0.29583	-0.86042	-0.85	-0.31875	-1.1187	-0.49167	236.867	428.481	239.215	502.773	406.503	227.623	288.674	502.381	409.324	258.840	311.699	416.881	165.577	163.227	300.787	417.122	0.00092581	0.00084339	0.00083684	877.53	1.0842e-05	2.6721e-05	535.18	317.83	2.7596e-05	1.1855e-05	200.75	85.548	127.24	69.016	8.6473e-06	49.358	0.022321	0.028408	0.0079378	1082.6	0.00029893	0.00031738	757.88	382.47	0.00029746	0.00031588	319.43	123.91	160.33	80.51	0.00030508	66.752	155.825	261.268	299.574	164.136	379.850	425.212	162.621	168.571	262.120	247.578	165.517	168.980	172.191	175.773	237.319	171.753	-8191	255	
7142.784	1	1	0	0	0.13459	0.31196	0.061437	0.23827	0.32508	0.072326	0.28645	0.14961	0.16499	0.14327	0.15955	0.16429	0.28589	0.082402	0.090006	0.1172	-0.010417	-1.0125	-0.0625	-0.9875	-0.8125	-0.0875	-1.1458	-0.46042	-0.33333	-1.0771	-0.25	-0.70625	-1.2188	-0.20833	-1.0833	-0.54375	197.408	357.609	251.907	289.783	249.073	259.820	463.506	361.193	255.061	470.607	479.106	457.404	236.688	211.525	321.708	177.361	0.00084951	0.0021296	0.00039087	887.61	2.4715e-06	1.5665e-05	541.88	321.74	1.4954e-05	9.7808e-06	201.6	86.406	127.79	69.556	1.5809e-05	49.823	0.022065	0.028339	0.0079648	1087.2	0.00029887	0.00031675	762	385.28	0.00029651	0.00031572	320.49	124.2	161.01	80.701	0.00030245	67.092	157.424	496.275	397.896	164.332	155.509	301.553	162.104	168.703	179.872	311.769	165.720	168.701	171.991	175.931	279.738	172.206	-8191	255	
7142.880	1	1	0	0	0.10673	0.1818	0.12688	0.16061	0.19036	0.15867	0.025911	0.35016	0.37525	0.20374	0.075494	0.1757	0.14769	0.166	0.19666	0.27274	0.29583	-1.1146	-0.15833	-0.8	-0.84375	-0.0875	-1.0271	-0.51667	-0.225	-1.1125	-0.27292	-0.59167	-0.94167	-0.36875	-0.7125	-0.84792	467.356	400.302	174.485	170.168	172.363	361.355	485.625	459.513	212.855	296.687	187.400	170.539	170.428	477.115	259.913	476.638	0.0006001	0.00037518	0.00054501	889.63	8.0121e-06	1.334e-05	546.79	323.02	2.1961e-05	1.4429e-05	204.02	87.281	129.62	69.936	8.0463e-06	50.601	0.021765	0.027884	0.0078256	1088.9	0.0002947	0.00031255	765	385.95	0.0002936	0.00031121	321.84	125.07	162.1	81.438	0.00030114	67.714	152.635	162.685	283.530	164.179	238.474	236.594	162.727	168.658	361.991	443.696	165.893	168.755	172.185	176.174	284.509	171.727	-8191	255	
7142.976	1	1	0	0	0.29472	0.15107	0.30496	0.19919	0.16154	0.044033	0.11554	0.3611	0.19097	0.088356	0.090842	0.3815	0.066006	0.11894	0.085581	0.27605	0.10833	-0.99792	-0.19375	-0.59792	-0.93333	-0.11875	-0.98125	-0.84792	-0.175	-1.2896	-0.58125	-0.44375	-1.1604	-0.15625	-0.77708	-1.0187	389.537	208.791	298.760	451.583	281.157	477.415	503.123	457.605	286.647	183.240	430.276	465.002	428.207	473.558	169.400	206.769	0.000475	0.0024204	0.00055288	885.73	1.1125e-05	7.7653e-06	537.48	321.22	2.0575e-05	3.0194e-05	200.38	85.965	129.06	69.358	1.3265e-05	50.044	0.02192	0.028071	0.0079142	1087.9	0.00029602	0.00031342	759.2	385.27	0.00029441	0.00031336	319.36	124.14	161.51	80.938	0.00030298	66.828	171.664	222.517	410.510	164.546	168.538	387.028	161.953	168.814	385.973	502.611	166.143	169.125	172.186	176.067	373.877	171.812	-8191	255	
#DATA ENDS
