BOXY.EXE: ISS Imagent and Oximeter Data Acquisition Program Version 0.80
Ascii Record File

#ACQ INFORMATION
2  Detector Channels 
16  External MUX Channels 
1  Auxiliary Channels 
5000  Waveform (CCF) Frequency (Hz)
1  Waveforms Skipped 
30  Waveforms Averaged 
1  Cycles Averaged 
16  Acquisitions per Waveform 
10.0806  Updata Rate (Hz) 

#FILE INFORMATION
TRUE -- External MUX Channel results are PARSED.
FALSE -- AC DC and Phase are NOT grouped.
TRUE -- Companion Program Settings File CREATED.
FALSE -- AC data not excluded
FALSE -- DC data not excluded
FALSE -- Phase data not excluded
FALSE -- Auxillary Chn. data not excluded
Tab delimiters

#CALIBRATION STATE
TRUE -- Waveform Calibration Values APPLIED.


#AUX CALIBRATION VALUES
Val Type	aux-1	

Term	1.0000e+00	
Factor	0.0000e+00	


#WF CALIBRATION VALUES
A = Detector Channel
Val Type	A-AC1	A-AC2	A-AC3	A-AC4	A-AC5	A-AC6	A-AC7	A-AC8	A-AC9	A-AC10	A-AC11	A-AC12	A-AC13	A-AC14	A-AC15	A-AC16	A-DC1	A-DC2	A-DC3	A-DC4	A-DC5	A-DC6	A-DC7	A-DC8	A-DC9	A-DC10	A-DC11	A-DC12	A-DC13	A-DC14	A-DC15	A-DC16	A-Ph1	A-Ph2	A-Ph3	A-Ph4	A-Ph5	A-Ph6	A-Ph7	A-Ph8	A-Ph9	A-Ph10	A-Ph11	A-Ph12	A-Ph13	A-Ph14	A-Ph15	A-Ph16	

Term	0.00000e+00	0.00000e+00	0.00000e+00	0.00000e+00	0.00000e+00	0.00000e+00	0.00000e+00	0.00000e+00	0.00000e+00	0.00000e+00	0.00000e+00	0.00000e+00	0.00000e+00	0.00000e+00	0.00000e+00	0.00000e+00	0.00000e+00	0.00000e+00	0.00000e+00	0.00000e+00	0.00000e+00	0.00000e+00	0.00000e+00	0.00000e+00	0.00000e+00	0.00000e+00	0.00000e+00	0.00000e+00	0.00000e+00	0.00000e+00	0.00000e+00	0.00000e+00	0.00000e+00	0.00000e+00	0.00000e+00	0.00000e+00	0.00000e+00	0.00000e+00	0.00000e+00	0.00000e+00	0.00000e+00	0.00000e+00	0.00000e+00	0.00000e+00	0.00000e+00	0.00000e+00	0.00000e+00	0.00000e+00	
Factor	1.00000e+00	1.00000e+00	1.00000e+00	1.00000e+00	1.00000e+00	1.00000e+00	1.00000e+00	1.00000e+00	1.00000e+00	1.00000e+00	1.00000e+00	1.00000e+00	1.00000e+00	1.00000e+00	1.00000e+00	1.00000e+00	1.00000e+00	1.00000e+00	1.00000e+00	1.00000e+00	1.00000e+00	1.00000e+00	1.00000e+00	1.00000e+00	1.00000e+00	1.00000e+00	1.00000e+00	1.00000e+00	1.00000e+00	1.00000e+00	1.00000e+00	1.00000e+00	X	X	X	X	X	X	X	X	X	X	X	X	X	X	X	X	

B = Detector Channel
Val Type	B-AC1	B-AC2	B-AC3	B-AC4	B-AC5	B-AC6	B-AC7	B-AC8	B-AC9	B-AC10	B-AC11	B-AC12	B-AC13	B-AC14	B-AC15	B-AC16	B-DC1	B-DC2	B-DC3	B-DC4	B-DC5	B-DC6	B-DC7	B-DC8	B-DC9	B-DC10	B-DC11	B-DC12	B-DC13	B-DC14	B-DC15	B-DC16	B-Ph1	B-Ph2	B-Ph3	B-Ph4	B-Ph5	B-Ph6	B-Ph7	B-Ph8	B-Ph9	B-Ph10	B-Ph11	B-Ph12	B-Ph13	B-Ph14	B-Ph15	B-Ph16	

Term	0.00000e+00	0.00000e+00	0.00000e+00	0.00000e+00	0.00000e+00	0.00000e+00	0.00000e+00	0.00000e+00	0.00000e+00	0.00000e+00	0.00000e+00	0.00000e+00	0.00000e+00	0.00000e+00	0.00000e+00	0.00000e+00	0.00000e+00	0.00000e+00	0.00000e+00	0.00000e+00	0.00000e+00	0.00000e+00	0.00000e+00	0.00000e+00	0.00000e+00	0.00000e+00	0.00000e+00	0.00000e+00	0.00000e+00	0.00000e+00	0.00000e+00	0.00000e+00	-8.46031e+01	-1.24328e+02	-1.34512e+02	-1.81699e+02	-5.65765e+01	-6.78973e+01	-1.56588e+02	-1.62015e+02	-4.89682e+01	-6.14460e+01	-1.72047e+02	-1.69354e+02	-1.85172e+02	-1.76661e+02	-5.95041e+01	-1.48927e+02	
Factor	1.85394e-05	1.34008e-04	4.54980e-05	1.65179e-01	1.51047e-06	1.75494e-06	1.84651e-01	5.45619e-02	1.21076e-06	1.81770e-06	9.52945e-02	3.13381e-02	2.68894e-02	1.02662e-02	1.54598e-06	1.46995e-02	3.18428e-06	3.57193e-06	9.92978e-07	8.46290e-02	3.85947e-08	3.91772e-08	8.89079e-02	2.80802e-02	3.85441e-08	3.91043e-08	4.71625e-02	1.56485e-02	1.38985e-02	5.29215e-03	3.88907e-08	7.31696e-03	X	X	X	X	X	X	X	X	X	X	X	X	X	X	X	X	



#DISTANCE SETTINGS
A = Detector Channel
A-1	A-2	A-3	A-4	A-5	A-6	A-7	A-8	A-9	A-10	A-11	A-12	A-13	A-14	A-15	A-16	

2.5000e+00	3.0000e+00	2.5000e+00	3.0000e+00	2.0000e+00	3.0000e+00	1.5000e+00	3.0000e+00	3.0000e+00	3.0000e+00	3.0000e+00	3.0000e+00	3.0000e+00	3.0000e+00	1.5000e+00	3.0000e+00	

B = Detector Channel
B-1	B-2	B-3	B-4	B-5	B-6	B-7	B-8	B-9	B-10	B-11	B-12	B-13	B-14	B-15	B-16	

1.0000e+01	1.0000e+01	1.0000e+01	1.4400e+00	1.0000e+01	1.0000e+01	1.5100e+00	1.9400e+00	1.0000e+01	1.0000e+01	1.9900e+00	2.4900e+00	2.4100e+00	2.9000e+00	1.0000e+01	2.9800e+00	




#DATA BEGINS
time	group	step	mark	flag	A-AC1	A-AC2	A-AC3	A-AC4	A-AC5	A-AC6	A-AC7	A-AC8	A-AC9	A-AC10	A-AC11	A-AC12	A-AC13	A-AC14	A-AC15	A-AC16	A-DC1	A-DC2	A-DC3	A-DC4	A-DC5	A-DC6	A-DC7	A-DC8	A-DC9	A-DC10	A-DC11	A-DC12	A-DC13	A-DC14	A-DC15	A-DC16	A-Ph1	A-Ph2	A-Ph3	A-Ph4	A-Ph5	A-Ph6	A-Ph7	A-Ph8	A-Ph9	A-Ph10	A-Ph11	A-Ph12	A-Ph13	A-Ph14	A-Ph15	A-Ph16	B-AC1	B-AC2	B-AC3	B-AC4	B-AC5	B-AC6	B-AC7	B-AC8	B-AC9	B-AC10	B-AC11	B-AC12	B-AC13	B-AC14	B-AC15	B-AC16	B-DC1	B-DC2	B-DC3	B-DC4	B-DC5	B-DC6	B-DC7	B-DC8	B-DC9	B-DC10	B-DC11	B-DC12	B-DC13	B-DC14	B-DC15	B-DC16	B-Ph1	B-Ph2	B-Ph3	B-Ph4	B-Ph5	B-Ph6	B-Ph7	B-Ph8	B-Ph9	B-Ph10	B-Ph11	B-Ph12	B-Ph13	B-Ph14	B-Ph15	B-Ph16	aux-1	digaux	

21589.658	1	1	0	768	0.37853	0.13312	0.1891	0.098741	0.11038	0.29856	0.13836	0.54766	0.30196	0.053526	0.021585	0.075751	0.089736	0.2208	0.10026	0.10551	0.30417	-0.90833	-0.11458	-0.38333	-0.74583	0.175	-0.96042	-0.54375	-0.016667	-0.95417	-0.31042	-0.3125	-0.96042	-0.072917	-0.55625	-0.88542	24.511	56.083	54.533	185.867	-42.902	237.152	9.996	-71.929	104.529	240.525	177.396	206.575	173.911	-7.086	227.397	112.548	0.00014705	0.00047404	0.00014631	1157.1	3.7121e-06	2.2761e-06	687.65	381.12	3.8023e-06	4.568e-06	225.75	77.61	138.45	65.87	4.168e-06	39.74	0.00033058	0.00034518	9.616e-05	1075.7	3.7747e-06	3.8144e-06	639.96	357.17	3.8859e-06	3.7477e-06	211.95	73.624	130.18	61.925	3.8841e-06	37.455	240.802	9.575	44.122	-87.860	241.732	-33.629	-90.063	-82.377	-7.054	67.871	-86.213	-82.028	-77.612	-73.660	-25.000	-78.427	-8191	255	
21589.756	1	1	0	0	0.19716	0.22912	0.13541	0.0049648	0.18875	0.14387	0.3623	0.071032	0.16308	0.2041	0.33793	0.14781	0.057722	0.35771	0.1553	0.10982	0.44375	-1.0667	-0.2125	-0.46667	-0.96667	-0.1	-0.89375	-0.77292	0.09375	-0.95	-0.3375	-0.39792	-1.1583	-0.19375	-0.66042	-0.9625	252.251	186.548	-70.723	38.567	193.131	140.001	170.727	-21.274	191.231	-78.399	179.435	144.402	-78.776	-97.592	92.996	229.488	0.00017079	0.00061654	0.00011629	1151.7	7.7549e-06	6.4196e-06	686.72	383.53	2.0587e-06	6.5411e-06	227.29	78.205	138.58	65.811	3.1591e-06	39.828	0.0003452	0.00034826	9.7337e-05	1073.5	3.8288e-06	3.801e-06	639.97	358	3.8018e-06	3.7409e-06	212.19	74.219	130.56	62.007	3.7164e-06	37.51	239.738	-9.736	39.042	-88.003	52.109	37.129	-90.051	-82.212	180.943	55.963	-86.360	-81.893	-77.329	-73.542	6.064	-78.632	-8191	255	
21589.852	1	1	0	0	0.16229	0.20366	0.1044	0.19175	0.20148	0.215	0.1258	0.061512	0.20842	0.21178	0.19331	0.10168	0.15454	0.14399	0.2155	0.17178	0.32292	-0.67917	-0.53958	-0.3875	-0.90625	-0.1375	-0.61042	-1.1354	-0.047917	-0.96667	-0.63542	-0.28958	-1.1063	-0.28542	-0.52292	-0.96667	46.566	13.096	101.721	176.599	-57.968	110.071	-82.226	200.835	-80.609	56.515	19.163	74.469	150.288	211.540	-79.322	222.480	9.9501e-05	0.00044807	0.00016968	1152.3	3.274e-06	4.6986e-06	688.88	384.52	3.6062e-07	2.2374e-06	229.7	78.159	138.58	65.903	3.0595e-06	40.468	0.0003314	0.00033406	9.3847e-05	1074.7	3.6743e-06	3.7142e-06	641.75	358.55	3.8066e-06	3.5824e-06	213.83	74.069	130.53	62.077	3.6919e-06	37.83	248.471	-8.662	-6.417	-88.095	63.942	89.706	-90.295	-82.516	-17.558	-0.422	-85.950	-81.718	-77.981	-73.632	74.562	-78.554	-8191	255	
21589.947	1	1	0	0	0.19709	0.088752	0.24097	0.22769	0.11351	0.10621	0.23676	0.11034	0.15233	0.15331	0.14684	0.22121	0.25564	0.16552	0.084464	0.1687	0.26042	-0.75208	-0.52292	-0.22083	-1.0396	-0.19375	-0.66667	-1.25	-0.085417	-0.71458	-0.70208	-0.1	-1.0771	-0.48333	-0.12083	-1.0021	61.488	-60.972	55.031	137.111	-78.218	105.700	-79.373	146.960	-30.432	248.260	242.482	251.367	235.537	243.233	10.823	153.239	0.00011825	0.00049633	0.00012863	1162.2	2.5488e-06	3.619e-06	691.63	384.47	3.3834e-06	3.8172e-06	229.53	77.959	138.67	65.348	3.7342e-06	39.552	0.00032923	0.00033494	9.2014e-05	1078.8	3.6794e-06	3.624e-06	645.69	359.8	3.6114e-06	3.4881e-06	214.54	73.994	130.27	61.716	3.5954e-06	37.292	242.304	-54.508	-10.087	-88.039	-99.471	81.495	-90.137	-82.456	190.558	75.357	-85.931	-81.490	-77.408	-73.775	94.520	-78.585	-8191	255	
21590.045	1	1	0	0	0.21515	0.23317	0.27422	0.091178	0.060867	0.24382	0.03324	0.2724	0.18096	0.21914	0.28887	0.11874	0.31098	0.15918	0.12974	0.14431	0.325	-0.62292	-0.66667	-0.11667	-0.89792	-0.49792	-0.3125	-1.2313	-0.21667	-0.78958	-0.80208	-0.16875	-1.1583	-0.725	-0.28125	-0.97917	120.047	75.650	105.256	114.080	213.305	-53.149	167.280	176.693	232.887	138.337	219.609	234.892	166.949	-87.343	-32.303	-7.549	0.00010465	0.00016944	0.0002312	1157.5	4.1372e-06	2.3565e-06	684.56	380.3	5.0061e-06	4.7312e-06	223.15	75.845	135.34	63.997	4.7376e-06	38.687	0.00031915	0.00032453	9.3224e-05	1077.7	3.7202e-06	3.6898e-06	639.38	356.22	3.817e-06	3.956e-06	209.55	72.103	127.88	60.451	4.137e-06	36.406	242.703	-33.711	-60.983	-87.863	97.293	82.993	-90.295	-82.165	54.975	48.010	-86.186	-81.225	-77.228	-73.626	44.398	-78.030	-8191	255	
21590.141	1	1	0	0	0.14485	0.17955	0.0078281	0.28235	0.31126	0.15373	0.36944	0.17923	0.21686	0.18431	0.1517	0.063824	0.37227	0.064288	0.12666	0.15986	-0.0083333	-0.475	-0.74583	-0.21667	-0.8375	-0.62292	-0.34167	-1.0146	-0.18125	-0.40417	-0.86875	-0.14583	-0.96042	-0.84583	-0.15625	-1.0708	240.604	62.394	98.107	215.736	141.783	50.561	146.481	-99.053	85.070	170.092	123.731	-51.243	211.922	168.255	102.355	230.790	9.4425e-05	0.00046616	0.00018226	1161.9	3.1377e-06	6.5272e-06	680.53	380.09	2.1091e-06	4.4791e-07	223.49	75.869	135.22	63.911	3.0544e-06	38.789	0.000364	0.00037717	0.00010371	1082.7	4.0249e-06	4.0169e-06	637.52	354.84	3.9316e-06	4.0065e-06	208.42	71.719	127.71	60.278	4.0138e-06	36.421	230.065	-13.297	-7.951	-87.918	22.033	53.452	-89.846	-82.072	38.664	170.806	-86.163	-81.632	-77.160	-73.109	14.011	-78.822	-8191	255	
21590.262	1	1	0	0	0.078974	0.12856	0.20558	0.1223	0.12091	0.063768	0.09489	0.25741	0.058495	0.11588	0.088538	0.12633	0.2102	0.18975	0.17573	0.035763	0.21667	-0.43333	-0.89375	-0.31458	-0.82292	-0.7	-0.14167	-1.1271	-0.44167	-0.28333	-1.0646	-0.13542	-0.7875	-0.82083	-0.058333	-0.9375	-84.046	99.407	-88.747	253.946	259.491	72.074	206.026	172.153	167.995	-53.927	198.307	45.776	249.491	139.905	101.860	-31.465	0.00014362	0.00026058	9.7819e-05	1156.5	7.1969e-06	2.7465e-06	685.51	378.14	2.4629e-06	7.4368e-06	224.9	76.186	136.11	64.648	2.5753e-06	39.023	0.00033789	0.0003549	9.7515e-05	1079.6	3.8609e-06	3.7502e-06	637.9	355.37	3.8157e-06	3.77e-06	210.17	72.379	128.32	60.787	3.7682e-06	36.863	245.583	51.330	-30.452	-87.853	14.290	57.861	-90.004	-81.878	19.674	13.751	-85.796	-81.568	-77.430	-73.279	-11.891	-78.687	-8191	255	
21590.355	1	1	0	0	0.19906	0.20042	0.33705	0.18284	0.14093	0.1284	0.099179	0.3635	0.14479	0.13801	0.29925	0.11072	0.26863	0.16325	0.43243	0.14433	0.0083333	-0.25625	-1.0354	-0.22292	-0.65	-0.86875	-0.25417	-1.1521	-0.48958	-0.28333	-1.1812	-0.18542	-0.6625	-0.95208	-0.1	-0.90833	84.197	177.593	-37.699	219.254	150.208	153.867	169.612	168.025	67.613	144.921	259.029	206.769	-64.927	100.972	206.498	-75.240	0.00014015	0.00021755	0.00019604	1163.7	1.0131e-06	1.0333e-05	687.54	383.75	3.9084e-06	8.2297e-06	227.4	77.69	137.07	64.638	1.9424e-06	39.787	0.00032257	0.00033115	9.1538e-05	1082.1	3.5693e-06	3.4436e-06	641.98	357.55	3.4299e-06	3.486e-06	211.56	73.41	129.42	61.056	3.4725e-06	37.119	226.366	-45.405	-18.586	-87.992	-54.637	23.872	-89.966	-81.892	39.929	65.802	-85.420	-81.491	-77.242	-73.299	137.654	-78.580	-8191	255	
21590.453	1	1	0	0	0.18541	0.0949	0.21085	0.27039	0.16079	0.0795	0.14596	0.12897	0.044617	0.11376	0.24065	0.19387	0.21723	0.32484	0.33029	0.22871	-0.10208	0.10833	-0.9375	-0.4375	-0.52917	-0.85	-0.060417	-0.96458	-0.64583	0.0020833	-0.98542	-0.31875	-0.40833	-1.2083	-0.22708	-0.84167	-9.338	-21.124	-71.115	201.575	115.555	-42.414	-36.050	168.837	-94.194	234.466	199.047	171.603	250.550	249.294	15.982	204.206	0.00012669	0.00035373	6.5686e-05	1154.9	2.5509e-06	2.6129e-06	678.64	380.6	3.0108e-06	3.4853e-06	221.29	75.915	137.02	64.665	4.0468e-06	39.24	0.00030683	0.00031621	8.5636e-05	1076	3.4861e-06	3.5084e-06	633.65	355.22	3.5354e-06	3.5728e-06	208.06	72.255	129.19	61.061	3.6754e-06	36.819	252.516	-28.153	6.845	-88.144	82.457	95.583	-90.095	-82.171	94.216	19.095	-86.088	-81.677	-77.276	-73.463	88.308	-78.199	-8191	255	
21590.549	1	1	0	0	0.1217	0.16689	0.31045	0.21346	0.27031	0.17427	0.10162	0.19757	0.024695	0.17724	0.1425	0.11844	0.056671	0.2738	0.18701	0.25562	-0.25208	-0.36667	-0.82917	-0.45833	-0.31458	-1.0312	-0.175	-1.0583	-0.75208	-0.060417	-1.1417	-0.525	-0.31875	-1.2729	0.060417	-0.525	232.237	-98.418	21.314	224.003	-65.743	121.517	217.434	256.141	254.075	182.208	175.186	49.842	32.853	172.328	248.205	-31.307	0.00011126	0.00046022	0.00017396	1156	7.3272e-07	3.6699e-06	681.93	377.58	4.8434e-06	5.3856e-06	222.75	77.44	137.96	65.641	2.1344e-06	39.919	0.000322	0.00033145	9.3131e-05	1073.4	3.6446e-06	3.5989e-06	634.8	354.75	3.4863e-06	3.5607e-06	208.99	72.914	129.58	61.563	3.4026e-06	37.307	250.425	-67.753	-33.266	-87.885	10.659	-15.335	-90.117	-82.056	-8.277	29.899	-85.759	-81.856	-77.488	-73.649	-78.323	-78.610	-8191	255	
21590.645	1	1	0	0	0.12203	0.078786	0.14539	0.28936	0.29774	0.12586	0.25141	0.31474	0.31134	0.081251	0.056645	0.17589	0.45327	0.19622	0.29103	0.21836	-0.40625	0.1	-0.78542	-0.55208	-0.18542	-1.0833	-0.16667	-0.76667	-0.84375	0.077083	-0.98542	-0.51042	-0.20625	-1.1667	-0.14792	-0.26667	33.139	-24.649	238.617	43.245	68.670	36.931	178.657	257.459	-37.417	117.600	-68.187	200.795	247.041	-62.912	209.624	133.767	0.00011186	0.0003579	0.00013723	1152.2	4.3725e-06	2.9447e-06	680.39	381.7	2.5614e-06	4.8364e-06	226.29	77.745	138.13	65.717	1.3148e-06	40.035	0.00029427	0.0003027	8.196e-05	1074.9	3.2415e-06	3.1228e-06	636.1	356.75	3.2772e-06	3.1279e-06	210.76	73.384	130.02	61.847	3.1837e-06	37.447	250.384	-51.409	7.938	-87.890	58.005	20.437	-89.972	-82.148	8.128	65.545	-85.497	-81.719	-77.630	-73.337	-73.239	-78.665	-8191	255	
21590.740	1	1	0	0	0.19491	0.19802	0.1106	0.19152	0.34284	0.23028	0.084156	0.26141	0.083103	0.2202	0.10633	0.17419	0.40941	0.16039	0.13358	0.2992	-0.59583	0.15417	-0.92083	-0.63333	0.00625	-0.925	-0.35208	-0.4	-1.0917	0.085417	-0.86042	-0.85625	-0.2125	-0.9875	-0.14167	-0.34583	163.883	-25.588	70.771	-95.516	218.372	96.092	-86.863	212.790	224.799	-55.187	83.336	143.770	204.847	198.253	99.572	256.726	0.0001326	0.00014709	0.0001993	1156.4	6.0723e-06	5.9573e-06	691.63	380.19	9.7436e-07	6.6355e-06	225.91	78.632	138.89	65.719	1.7061e-06	40.197	0.00028428	0.00028599	8.1455e-05	1077.4	3.3407e-06	3.2575e-06	640.43	355.52	3.2807e-06	3.2672e-06	211.79	73.992	130.53	61.975	3.3782e-06	37.503	250.421	64.747	-41.004	-87.920	104.868	83.885	-89.773	-82.015	107.444	71.662	-85.569	-81.263	-77.500	-73.095	185.448	-78.277	-8191	255	
21590.836	1	1	0	0	0.079067	0.25594	0.28031	0.33517	0.35161	0.29826	0.022008	0.28581	0.21595	0.14305	0.19291	0.19144	0.34134	0.097369	0.025904	0.081757	-0.54792	-0.10417	-0.67708	-0.87917	0.13958	-0.7375	-0.54167	-0.54583	-0.94792	-0.01875	-0.66458	-0.97708	-0.10208	-1.0562	-0.40417	-0.25	27.429	83.608	-84.490	217.619	50.021	37.678	-81.517	-79.679	138.867	-48.346	142.634	-48.235	231.982	-95.075	-26.606	218.916	0.00010186	0.00055963	0.00017705	1156.8	4.8088e-06	3.1359e-06	679.54	379.62	4.9477e-06	6.6463e-06	222.16	77.302	138	65.256	5.4372e-06	39.464	0.00029577	0.00029844	8.1832e-05	1073.3	3.2843e-06	3.1448e-06	632.96	354.42	3.2122e-06	3.1365e-06	207.97	73.091	129.55	61.604	3.2158e-06	37.166	252.569	-26.422	-52.124	-88.153	24.191	61.799	-89.896	-82.087	5.322	89.061	-85.751	-81.222	-77.447	-73.145	6.687	-78.257	-8191	255	
21590.957	1	1	0	0	0.24	0.10327	0.23568	0.31109	0.19298	0.14479	0.17702	0.35251	0.29631	0.11193	0.2704	0.11607	0.43884	0.27324	0.056068	0.099091	-0.66875	-0.09375	-0.60833	-1.1667	-0.0083333	-0.85625	-0.72917	-0.46042	-0.8375	-0.19167	-0.39583	-1.1437	-0.020833	-1.0208	-0.72083	-0.022917	-96.838	224.847	233.256	197.480	248.193	226.906	-28.687	123.022	167.022	238.309	-57.980	169.997	216.268	193.537	39.600	190.362	0.00012526	0.00031192	8.889e-05	1154.6	4.4584e-06	3.4364e-06	683.1	378.22	7.2769e-07	5.4998e-06	223.07	76.662	137.32	65.31	4.8746e-06	39.767	0.00028321	0.00028156	8.1805e-05	1071.1	3.173e-06	3.1645e-06	632.76	353.65	3.2531e-06	3.2461e-06	208.13	72.555	129	61.395	3.3003e-06	37.133	243.246	-10.226	-34.053	-87.836	104.342	35.268	-89.748	-81.872	240.659	139.869	-85.344	-81.231	-77.035	-73.331	48.816	-77.950	-8191	255	
21591.053	1	1	0	0	0.2349	0.24586	0.13939	0.28659	0.25923	0.027321	0.2527	0.219	0.093119	0.13788	0.18402	0.0094532	0.27545	0.23151	0.3707	0.11293	-0.48333	-0.16875	-0.46667	-1.0063	-0.11042	-0.85208	-0.80625	-0.16875	-1	-0.31042	-0.41875	-0.99167	-0.31042	-0.73958	-0.80833	-0.077083	253.777	-56.244	-93.842	258.577	248.556	-95.658	209.468	-97.315	179.627	105.804	212.188	20.132	-97.273	-77.114	211.614	-73.459	0.0001386	0.00043051	0.00016218	1156.2	3.1891e-06	8.9302e-06	686.45	380.58	2.2024e-06	1.324e-06	223.76	77.683	137.82	65.101	4.2485e-07	40.069	0.00029088	0.00029134	8.3296e-05	1075.4	3.2392e-06	3.2093e-06	636.68	354.56	3.1522e-06	3.1556e-06	209.55	72.922	129.09	61.267	3.1524e-06	37.367	227.116	9.131	-77.290	-87.565	24.746	68.118	-90.242	-81.996	-22.262	14.130	-85.558	-80.914	-77.229	-72.838	-31.409	-78.087	-8191	255	
21591.148	1	1	0	0	0.24474	0.18458	0.10453	0.12577	0.12701	0.17824	0.2007	0.23496	0.30256	0.28536	0.10239	0.23926	0.25666	0.22441	0.20403	0.050424	-0.56042	-0.22292	-0.12292	-1.1771	0.09375	-0.58958	-1.0333	-0.15208	-0.98958	-0.53958	-0.17083	-1.2208	-0.43125	-0.62917	-1.0229	0.022917	-26.294	72.810	8.449	-11.716	240.766	181.386	-74.512	169.572	139.586	251.922	-25.116	246.768	-41.839	254.149	186.822	-43.405	0.00011557	0.00066224	0.00015878	1160.2	3.6305e-06	4.7566e-06	690.68	381.21	2.1013e-06	1.8531e-06	226.19	78.205	138.14	65.582	2.8763e-06	40.351	0.00027465	0.00028238	8.0148e-05	1076.6	3.2249e-06	3.0857e-06	641.2	355.85	3.1784e-06	3.1398e-06	211.57	73.947	129.97	61.995	3.3097e-06	37.727	252.464	21.655	-26.122	-87.540	33.096	-34.735	-90.256	-82.194	-38.353	45.718	-85.663	-81.271	-77.375	-73.046	73.090	-78.565	-8191	255	
21591.221	1	1	0	0	0.33433	0.15897	0.13793	0.25247	0.12328	0.23787	0.14287	0.31486	0.14294	0.2201	0.16621	0.16368	0.17633	0.40075	0.11299	0.10258	-0.46042	-0.50625	0.0375	-1.1604	-0.36458	-0.39792	-1.0833	-0.22083	-0.60417	-0.81458	-0.19583	-0.94167	-0.38958	-0.35833	-0.82708	-0.16042	-69.302	142.788	250.041	255.583	255.092	1.893	215.680	254.934	32.487	55.057	-51.536	228.546	207.200	239.965	230.992	217.694	0.00012894	0.00029075	0.00015788	1159.1	5.2141e-06	3.2392e-06	688.26	379.53	3.3783e-06	7.9296e-06	224.73	77.714	138.35	65.605	7.2652e-06	39.821	0.00028733	0.000292	8.0493e-05	1074.9	3.1106e-06	3.078e-06	638.65	355.22	3.1324e-06	3.08e-06	209.74	73.51	129.83	61.734	3.0343e-06	37.338	239.448	-2.942	-27.438	-87.998	-3.204	22.402	-90.067	-82.051	13.105	63.518	-85.713	-81.557	-77.418	-73.110	91.175	-78.385	-8191	255	
21591.342	1	1	0	0	0.036992	0.12373	0.10131	0.10934	0.029528	0.094026	0.35338	0.23111	0.067508	0.21739	0.25715	0.18736	0.23156	0.11216	0.2068	0.20889	-0.42083	-0.55833	-0.077083	-0.99792	-0.23333	-0.4	-0.95833	-0.0083333	-0.63125	-0.69167	-0.125	-1.0104	-0.62083	-0.27083	-0.99375	-0.41875	117.050	240.475	187.396	75.337	171.218	88.703	241.652	181.564	-2.781	-88.258	206.905	160.891	-97.339	242.084	117.417	184.590	0.00013254	0.00070562	0.00021605	1153.4	2.7624e-06	2.2399e-06	680.74	381.43	1.9386e-06	2.2907e-06	223.18	77.835	138.28	65.79	6.336e-06	40.144	0.00026652	0.00026756	7.348e-05	1070.8	2.8148e-06	2.8032e-06	633.67	355.17	2.8845e-06	2.7664e-06	209.82	73.679	129.8	61.805	2.7364e-06	37.61	248.778	23.268	-6.620	-87.802	173.092	34.543	-90.037	-82.142	4.091	51.831	-85.694	-81.204	-77.587	-73.326	9.203	-78.638	-8191	255	
21591.436	1	1	0	0	0.13318	0.1914	0.26348	0.42427	0.084391	0.34689	0.242	0.099124	0.22942	0.33256	0.1825	0.22472	0.031598	0.14648	0.23985	0.33346	-0.22083	-0.81667	0.11667	-0.88958	-0.41667	-0.027083	-1.225	-0.30833	-0.42708	-0.89583	0.0125	-0.97917	-0.72708	-0.12708	-1.0521	-0.23125	210.263	-86.657	-90.590	239.057	-86.159	-62.394	25.167	256.048	153.212	47.758	210.552	248.070	99.867	246.797	212.004	-17.033	0.00010422	0.00071046	0.00011635	1151.7	4.3916e-06	5.9547e-07	683.82	378.71	2.632e-07	4.4731e-06	226.15	79.059	137.88	66.235	8.5024e-07	40.698	0.00024632	0.00024816	6.8338e-05	1074.2	2.734e-06	2.782e-06	638.08	354.84	2.7933e-06	2.6404e-06	211.8	74.246	129.89	62.1	2.727e-06	37.81	239.339	1.526	-4.371	-87.502	46.664	14.460	-89.961	-82.224	166.297	54.330	-85.918	-81.336	-77.611	-73.281	144.197	-78.302	-8191	255	
21591.533	1	1	0	0	0.19342	0.25612	0.28156	0.36532	0.098317	0.11698	0.17525	0.24612	0.36251	0.17145	0.27186	0.08359	0.26146	0.22901	0.28969	0.19013	-0.03125	-1.0458	-0.091667	-0.82292	-0.725	-0.029167	-1.0354	-0.39792	-0.3625	-1.0396	-0.14792	-0.74583	-0.78333	-0.3125	-0.96458	-0.54792	90.063	-89.855	238.200	242.128	-26.510	105.460	2.997	226.436	-55.435	240.153	-80.564	-93.377	-84.124	-60.909	36.004	-22.603	0.00011949	0.00045763	0.00018615	1161.2	2.977e-06	3.883e-06	698.75	382.24	2.0418e-06	1.6183e-06	227.94	80.002	139.43	66.537	4.7014e-06	40.826	0.00024232	0.0002404	6.6616e-05	1079	2.6918e-06	2.6531e-06	644.83	356.92	2.6767e-06	2.585e-06	213.55	75.154	130.79	62.429	2.6301e-06	38.151	250.549	27.908	-60.734	-87.890	63.697	72.223	-90.070	-82.149	-54.669	36.504	-85.670	-81.333	-77.639	-73.285	26.920	-78.313	-8191	255	
21591.652	1	1	0	0	0.28767	0.18703	0.054613	0.33949	0.15443	0.14366	0.042912	0.045784	0.066543	0.033721	0.039833	0.35669	0.056769	0.22821	0.032771	0.058334	0.077083	-1.0042	-0.14583	-0.80625	-0.74375	-0.29792	-0.97083	-0.51042	-0.16667	-1.0396	-0.29792	-0.67292	-0.90833	-0.3375	-0.92083	-0.73542	96.398	57.588	-1.999	253.238	44.518	-59.845	-6.580	38.923	-80.625	256.480	220.790	137.069	-28.793	217.530	113.014	133.182	9.9522e-05	0.00024993	9.2114e-05	1160.4	3.8256e-06	4.3346e-06	694.87	380.16	4.6738e-07	3.3837e-06	228.27	79.464	138.34	66.437	1.882e-06	40.481	0.00024315	0.00024103	6.7256e-05	1079.7	2.7454e-06	2.6651e-06	645.77	356.21	2.7021e-06	2.6111e-06	212.12	74.607	130.45	62.315	2.7061e-06	37.984	-91.409	-65.558	-11.204	-87.835	60.717	64.376	-89.911	-82.123	-16.935	4.034	-85.720	-81.212	-77.168	-73.266	129.719	-78.140	-8191	255	
21591.748	1	1	0	0	0.13534	0.19762	0.03284	0.32354	0.10391	0.48486	0.24046	0.2707	0.1755	0.19002	0.039546	0.1157	0.084887	0.2721	0.11522	0.04646	0.37083	-1.075	-0.2875	-0.64375	-0.79583	-0.18125	-0.75	-0.675	-0.29792	-0.86875	-0.35625	-0.37083	-1.1708	-0.14167	-0.77292	-0.47708	-90.692	142.992	-28.834	232.634	51.586	-99.797	161.740	-81.577	-43.776	49.419	-30.838	32.955	115.503	224.558	-34.046	23.846	9.9898e-05	0.00044198	0.00017855	1160.7	3.0412e-06	1.3476e-06	693.94	383.65	1.6925e-06	2.5688e-06	227.87	78.557	138.59	65.661	1.981e-06	40.608	0.00024607	0.00024055	6.8278e-05	1074.3	2.7018e-06	2.6978e-06	643.85	357.44	2.8034e-06	2.6604e-06	212.27	74.415	130.08	62.05	2.6955e-06	37.892	248.443	5.696	-16.117	-87.678	51.228	61.265	-89.608	-81.962	76.383	32.518	-85.753	-80.900	-77.723	-73.242	-9.366	-78.140	-8191	255	
21591.820	1	1	0	0	0.33751	0.23497	0.18654	0.11244	0.44394	0.16494	0.27924	0.16096	0.20455	0.19549	0.10102	0.17922	0.12512	0.19833	0.17934	0.15507	0.34167	-0.92708	-0.26875	-0.37917	-0.83333	-0.30625	-0.79583	-0.84167	0.11458	-0.98125	-0.44583	-0.25	-1.0625	-0.12708	-0.5875	-0.95625	152.162	123.011	124.759	-100.154	-8.100	-1.844	254.105	243.480	55.511	4.373	178.409	224.221	-37.227	232.840	243.164	14.540	0.00014778	0.00041235	0.00016444	1160.8	5.4401e-06	7.6003e-06	693.46	381.31	1.4755e-06	1.5125e-06	229.08	79.332	138.55	66.045	5.1706e-06	40.768	0.00024401	0.00024456	6.7369e-05	1076.2	2.6891e-06	2.713e-06	646.73	356.85	2.6942e-06	2.561e-06	214.11	74.573	130.41	62.049	2.748e-06	38.029	259.144	23.801	-0.604	-87.679	91.515	59.331	-89.805	-82.194	10.738	105.753	-85.597	-81.418	-77.618	-73.295	34.847	-78.364	-8191	255	
21591.941	1	1	0	0	0.35105	0.29764	0.070739	0.36507	0.08158	0.4039	0.30414	0.071645	0.14803	0.09353	0.35562	0.093823	0.17901	0.14765	0.079786	0.059531	0.22917	-0.67292	-0.16875	-0.23125	-0.96042	-0.2875	-0.57917	-1.0292	-0.033333	-0.91042	-0.42083	-0.22292	-1.0167	-0.29375	-0.42708	-0.86667	148.529	204.718	111.961	-92.827	200.608	234.748	-50.838	-99.803	-70.405	-15.638	186.509	34.149	229.596	17.171	183.717	249.477	0.00017323	0.00032766	0.00016778	1172.4	1.0664e-06	5.1919e-06	703.58	384.71	3.7499e-06	7.4866e-06	231.63	79.007	139.31	66.011	2.9063e-06	40.584	0.00024201	0.00024521	6.6316e-05	1086.1	2.7056e-06	2.6556e-06	650.64	358.85	2.7464e-06	2.7498e-06	215.54	75.058	130.81	62.149	2.8474e-06	38.162	232.683	-5.186	-32.432	-87.635	96.302	24.823	-89.730	-81.858	45.937	61.900	-86.281	-81.096	-77.262	-73.186	63.843	-78.259	-8191	255	
21592.037	1	1	0	0	0.093473	0.19007	0.073523	0.15749	0.095968	0.24462	0.030593	0.29773	0.18065	0.12001	0.14258	0.32412	0.10888	0.25907	0.15306	0.22673	0.16458	-0.8375	-0.61042	-0.32292	-1.0021	-0.27917	-0.44167	-1.0833	0.035417	-0.72708	-0.71667	-0.17917	-1.0417	-0.25625	-0.23542	-0.92292	239.685	35.302	224.045	251.009	57.791	69.466	-21.663	212.246	160.902	61.707	10.096	258.033	5.645	221.686	115.519	222.672	9.6192e-05	0.00037601	0.00025721	1170.4	2.2655e-06	6.5663e-06	697.59	383.34	5.0946e-06	6.6519e-06	228.27	78.543	138.7	66.077	2.6045e-06	40.567	0.00025013	0.00024922	7.1244e-05	1085.2	2.7437e-06	2.7103e-06	649.36	358.1	2.8542e-06	2.7249e-06	213.53	74.293	130.1	61.974	2.8397e-06	37.764	234.648	-50.339	-16.084	-87.632	-69.320	38.736	-90.058	-81.930	27.145	47.492	-85.623	-81.322	-77.299	-72.995	-34.317	-78.517	-8191	255	
21592.133	1	1	0	0	0.071123	0.24611	0.031098	0.26052	0.23523	0.063009	0.23528	0.3266	0.1687	0.20843	0.13103	0.15018	0.17608	0.24549	0.057043	0.13864	0.43542	-0.50208	-0.6625	-0.325	-0.80625	-0.39583	-0.3	-1.0021	-0.070833	-0.72292	-0.85	0.033333	-1.1896	-0.7125	-0.275	-1.0958	68.365	121.880	49.259	258.050	171.730	240.326	165.925	220.523	183.880	-59.233	98.964	224.070	-46.812	166.532	233.550	190.803	0.00015014	6.2451e-05	0.0001926	1165.8	1.9648e-06	7.6249e-06	685.65	381.72	8.1204e-07	5.3242e-06	229.29	78.824	139.34	66.235	3.794e-06	40.456	0.00025358	0.00024766	7.1958e-05	1079.4	2.7546e-06	2.8026e-06	640.44	356.89	2.8877e-06	2.7401e-06	212.78	74.275	130.39	62.068	2.741e-06	37.816	251.256	18.765	-56.840	-87.380	1.279	22.844	-89.684	-81.921	118.371	65.233	-86.242	-81.146	-77.147	-73.158	20.559	-78.619	-8191	255	
21592.254	1	1	0	0	0.20452	0.07908	0.10537	0.14786	0.42768	0.21233	0.38702	0.18812	0.20985	0.24369	0.23291	0.60249	0.18155	0.28741	0.096919	0.19445	0.26042	-0.47708	-0.70833	-0.12083	-0.825	-0.46875	-0.15417	-0.88542	-0.20625	-0.43958	-0.825	-0.10833	-0.95417	-0.81042	0.022917	-1.0229	207.308	14.637	157.982	-89.689	62.410	-6.945	229.915	138.597	222.467	234.742	146.503	240.018	244.775	-94.817	87.395	157.227	0.00011288	0.00049591	0.00022155	1161.2	5.01e-06	5.7422e-06	694.6	384.16	2.9137e-06	4.3464e-06	230.14	78.606	139.3	66.023	5.1985e-06	40.662	0.00024248	0.00024689	6.8559e-05	1077.5	2.6793e-06	2.654e-06	647.54	358	2.6734e-06	2.6101e-06	213.56	74.441	130.44	62.021	2.6046e-06	38.016	237.315	15.653	-25.805	-87.773	78.494	26.909	-90.165	-81.999	74.301	66.534	-85.829	-81.484	-77.623	-73.190	37.636	-78.087	-8191	255	
21592.350	1	1	0	0	0.21432	0.13458	0.14989	0.10075	0.068224	0.15426	0.27942	0.34231	0.05796	0.20093	0.10215	0.29842	0.29983	0.27335	0.10796	0.17479	-0.014583	-0.54583	-0.83333	-0.16875	-0.7875	-0.49375	-0.25625	-1.025	-0.21667	-0.46042	-1.0333	0.066667	-0.90417	-0.85	0.047917	-1.1688	179.523	249.349	72.547	205.481	-24.983	117.856	-36.798	214.230	-34.518	80.812	222.918	-28.428	242.713	57.887	234.911	230.915	0.00011592	0.00055753	0.00027374	1166.3	1.8707e-06	2.548e-06	700.88	384.81	1.6312e-06	7.9359e-06	233.12	79.637	139.65	65.523	1.7915e-06	40.733	0.00023288	0.00022852	6.257e-05	1082.2	2.4906e-06	2.3924e-06	652.51	359.42	2.5643e-06	2.5322e-06	216.85	75.155	130.99	61.89	2.5814e-06	38.125	250.759	-17.864	0.815	-87.771	42.287	6.334	-89.903	-81.804	-12.080	25.841	-86.052	-81.219	-77.188	-73.024	107.949	-78.289	-8191	255	
21592.443	1	1	0	0	0.42051	0.27168	0.24077	0.063006	0.059353	0.18737	0.22539	0.17508	0.14951	0.14574	0.33531	0.15454	0.30194	0.24233	0.039842	0.25668	-0.041667	-0.24583	-1.0854	-0.23333	-0.81042	-0.675	-0.01875	-1.1208	-0.51875	-0.2	-1.1958	-0.097917	-0.64583	-0.96042	0.089583	-1.025	103.600	230.082	-42.373	57.067	20.727	-99.499	98.026	99.040	202.924	216.124	246.190	-75.585	-49.135	254.549	147.764	188.676	0.0001158	0.00033137	0.00025946	1177.4	3.4095e-06	1.9686e-06	702.14	385.35	3.5749e-06	5.6908e-06	229.7	78.592	138.41	65.226	4.2942e-06	40.139	0.00023834	0.00023168	6.4322e-05	1088.1	2.5406e-06	2.539e-06	653.36	359.38	2.6056e-06	2.4944e-06	213.35	73.97	130.11	61.308	2.5913e-06	37.506	247.896	-23.843	-35.849	-87.736	62.651	49.599	-89.725	-81.711	63.623	78.661	-85.288	-81.177	-77.233	-72.971	57.816	-77.646	-8191	255	
21592.516	1	1	0	0	0.098718	0.11345	0.21757	0.20797	0.14212	0.12624	0.1179	0.34768	0.27205	0.18203	0.1458	0.18368	0.3248	0.16154	0.2845	0.29198	-0.12083	-0.089583	-0.99792	-0.33125	-0.59792	-0.76875	-0.077083	-0.97083	-0.69583	-0.054167	-1.0833	-0.22917	-0.30208	-0.93125	0.2	-0.83542	54.496	-3.608	97.756	218.093	-58.766	221.987	45.879	227.276	112.785	-49.115	217.503	161.955	250.811	-77.136	-81.230	216.127	0.00011231	9.5182e-05	0.00015077	1159.4	3.0251e-06	6.8274e-06	691.05	382.24	2.0955e-06	1.2311e-06	226.66	77.882	137.84	64.82	1.5982e-06	40.028	0.00023231	0.00023346	6.42e-05	1078	2.6474e-06	2.4762e-06	642.69	357.03	2.596e-06	2.5333e-06	211.21	73.368	129.3	61.155	2.5806e-06	37.409	247.931	233.292	-70.493	-87.724	7.704	42.473	-89.864	-81.752	64.563	57.159	-85.074	-81.190	-77.143	-72.899	258.972	-78.074	-8191	255	
21592.637	1	1	0	0	0.23186	0.10231	0.16138	0.41322	0.19041	0.19117	0.15329	0.080794	0.22386	0.36113	0.18329	0.10977	0.18181	0.19889	0.15619	0.24487	-0.095833	-0.014583	-0.82917	-0.5375	-0.22083	-1.0229	-0.375	-0.87292	-0.57917	-0.0375	-1.0229	-0.43958	-0.2375	-1.1271	-0.035417	-0.73125	85.665	3.519	170.545	214.700	-62.465	122.728	109.133	10.525	96.935	167.093	-92.047	167.010	-82.061	-57.468	-79.964	163.668	0.00011811	0.00014139	0.00023812	1159.4	2.1364e-06	3.0753e-06	690.93	383.23	4.4334e-07	9.3906e-06	229.33	78.326	138.54	65.071	4.3306e-06	40.06	0.00023315	0.00024028	6.2688e-05	1077.3	2.6072e-06	2.504e-06	642.44	357.32	2.6228e-06	2.5076e-06	212.18	73.691	129.53	61.237	2.5565e-06	37.421	228.019	-30.870	-13.189	-87.483	31.069	23.970	-89.335	-81.741	131.578	76.091	-85.613	-81.500	-77.355	-73.137	83.848	-78.053	-8191	255	
21592.732	1	1	0	0	0.19281	0.21717	0.11084	0.12577	0.23066	0.30824	0.07662	0.27953	0.079896	0.050826	0.18137	0.10298	0.20362	0.21207	0.17115	0.19793	-0.40833	0.13125	-0.77292	-0.49375	-0.25	-1.1917	-0.15417	-0.74167	-0.90417	-0.075	-0.925	-0.62917	-0.325	-0.99167	-0.11042	-0.50208	-31.771	51.343	108.065	227.789	178.692	-2.846	229.255	239.890	221.739	115.148	55.228	-94.905	15.755	76.502	98.812	230.012	0.00014479	0.00030924	0.00021328	1161.9	2.5679e-06	3.2232e-06	692.96	383.84	4.5141e-06	4.3256e-06	230.21	78.989	138.89	65.329	3.5788e-06	40.547	0.00023056	0.00023712	6.3379e-05	1078.2	2.5973e-06	2.5325e-06	645.36	357.6	2.5818e-06	2.5604e-06	213.5	74.193	129.89	61.529	2.5301e-06	37.776	248.650	-24.425	-19.461	-87.676	93.240	62.748	-89.557	-81.646	76.909	-14.806	-85.523	-80.857	-77.279	-72.939	7.325	-78.037	-8191	255	
21592.828	1	1	0	0	0.081492	0.11518	0.051203	0.3765	0.16426	0.21766	0.18551	0.14738	0.11013	0.1607	0.12901	0.27788	0.21626	0.02043	0.092458	0.12331	-0.45208	0.014583	-0.65625	-0.64167	-0.12083	-1.0625	-0.32292	-0.57917	-0.94167	-0.10208	-0.70208	-0.70625	-0.125	-1.2667	-0.33125	-0.40208	-68.589	66.919	246.341	152.494	55.707	-97.774	127.011	208.078	-32.064	174.397	-23.502	77.634	-57.216	233.858	-60.605	221.063	0.00016104	0.0002513	0.00014785	1174.8	5.6335e-06	6.2211e-06	700.86	384.56	4.8073e-06	4.1106e-06	229.93	78.545	138.59	65.509	4.298e-06	40.033	0.00022931	0.00022811	6.3002e-05	1084.2	2.5234e-06	2.4451e-06	649.56	358.14	2.5165e-06	2.5041e-06	213.25	74.113	130	61.576	2.5685e-06	37.457	236.879	-34.821	4.198	-87.745	53.867	93.947	-89.974	-81.818	55.836	68.409	-85.449	-81.645	-77.087	-73.313	38.790	-78.047	-8191	255	
21592.926	1	1	0	0	0.13359	0.21436	0.14168	0.35327	0.048854	0.049142	0.23349	0.13842	0.16089	0.1128	0.24801	0.23797	0.14572	0.24491	0.13774	0.11153	-0.59375	-0.21458	-0.83542	-0.73958	-0.08125	-1.1021	-0.34583	-0.52292	-1.0604	-0.17083	-0.7125	-0.92708	0.0625	-0.98542	-0.34583	-0.26042	85.421	-26.567	58.381	238.170	215.385	192.341	210.455	243.361	101.359	60.017	244.873	205.478	127.653	200.300	30.047	246.868	0.00012226	0.00068141	0.00013472	1153.6	1.8825e-06	4.3694e-06	688.64	380.21	3.8262e-06	5.2563e-06	227.35	78.421	138.44	65.425	4.1865e-06	40.399	0.0002275	0.00023708	6.4177e-05	1072.7	2.6103e-06	2.5209e-06	639.1	355.22	2.5352e-06	2.4618e-06	211.09	73.571	129.81	61.531	2.5979e-06	37.527	234.000	-7.880	-94.128	-87.550	78.140	27.384	-89.957	-82.037	33.383	105.147	-85.294	-81.361	-77.301	-73.190	-8.571	-78.343	-8191	255	
21593.047	1	1	0	0	0.33541	0.14976	0.22803	0.11274	0.35594	0.24727	0.30455	0.24027	0.14868	0.36341	0.1442	0.20469	0.21437	0.36574	0.1616	0.18126	-0.67708	-0.175	-0.54375	-1.2167	-0.13542	-0.775	-0.46667	-0.4375	-0.91042	-0.27917	-0.5375	-0.96875	-0.375	-0.96875	-0.47708	-0.03125	48.339	212.432	121.458	251.140	216.310	212.534	134.984	224.474	120.166	36.256	68.212	20.965	-94.300	208.156	83.828	146.920	0.00013456	0.0003699	0.00012509	1158.1	1.7568e-06	4.8292e-06	692.1	380.45	3.9888e-06	7.0965e-06	228.64	78.027	137.71	65.2	2.8279e-06	40.212	0.00022684	0.00023338	6.4357e-05	1073.7	2.5809e-06	2.4991e-06	640.43	355.8	2.5571e-06	2.5451e-06	212.47	73.774	129.33	61.312	2.6628e-06	37.461	237.604	-32.578	-5.755	-87.607	-98.679	80.976	-89.635	-81.882	20.848	59.117	-85.398	-81.341	-77.233	-72.883	95.217	-77.973	-8191	255	
21593.117	1	1	0	0	0.15834	0.21308	0.15675	0.11204	0.099671	0.13552	0.26736	0.31122	0.079283	0.23083	0.14537	0.23625	0.11917	0.26396	0.30174	0.075643	-0.57083	-0.32917	-0.35417	-1.1292	-0.21875	-0.74583	-0.7375	-0.33958	-0.95208	-0.35417	-0.51667	-1.0854	-0.11875	-0.7625	-0.65833	-0.21875	-18.220	200.768	259.997	214.779	102.652	230.707	101.502	230.411	127.908	95.154	252.427	-19.280	232.027	-89.192	154.053	91.763	9.1304e-05	9.3551e-05	7.7373e-05	1164.8	3.3431e-06	3.7809e-06	694.5	382.01	3.4827e-06	3.7212e-06	229.73	78.767	138.52	65.57	2.2295e-06	40.612	0.00023032	0.00023315	6.6259e-05	1075.6	2.5982e-06	2.5837e-06	643.61	356.23	2.6045e-06	2.5942e-06	213.57	74.266	129.87	61.506	2.5091e-06	37.799	240.915	-47.828	-99.350	-87.519	31.564	40.172	-89.766	-81.549	76.442	82.021	-85.500	-80.926	-77.125	-72.680	-8.737	-77.774	-8191	255	
21593.213	1	1	0	0	0.24469	0.10916	0.33455	0.2784	0.15441	0.19123	0.18705	0.29668	0.1077	0.12032	0.19861	0.1056	0.24258	0.21231	0.12909	0.095624	-0.49167	-0.50208	-0.27083	-1.2771	-0.035417	-0.78542	-0.89375	-0.18542	-1	-0.39792	-0.20833	-0.97083	-0.34375	-0.6625	-0.9125	-0.1625	173.617	89.037	218.765	236.192	199.492	225.846	172.671	196.218	27.284	66.627	254.967	94.172	249.185	217.664	30.562	166.037	0.00012348	0.00034196	5.2608e-06	1163.8	2.3075e-06	9.2514e-07	698.62	382.52	3.2244e-07	5.701e-06	230.93	79.386	138.49	65.56	2.4453e-06	40.467	0.0002384	0.00023399	6.5094e-05	1078.2	2.5659e-06	2.492e-06	648.32	357.23	2.6163e-06	2.4291e-06	214.7	74.799	129.93	61.555	2.5102e-06	37.81	242.599	-19.874	236.501	-87.288	84.725	93.314	-90.015	-81.826	-29.792	112.629	-85.242	-80.979	-77.325	-72.754	94.210	-77.961	-8191	255	
21593.334	1	1	0	0	0.35863	0.18462	0.22821	0.38582	0.057032	0.087151	0.12335	0.15834	0.091709	0.076589	0.083728	0.078083	0.025491	0.31331	0.096394	0.069202	-0.50625	-0.45	-0.070833	-1.0438	-0.066667	-0.62917	-1.1042	-0.26667	-0.78542	-0.62917	-0.20625	-1.1437	-0.45625	-0.38125	-1.0854	-0.1375	89.348	59.996	257.419	235.441	251.463	122.266	93.012	1.510	174.418	54.008	239.910	230.065	-96.263	239.429	-67.064	118.905	9.4467e-05	0.00028481	0.00011008	1159.6	3.8391e-06	2.8587e-06	692.12	381.66	2.886e-06	7.1299e-06	229.07	79.224	137.89	65.329	7.7234e-06	40.042	0.00022757	0.00022082	6.1184e-05	1075.2	2.4923e-06	2.4586e-06	644.87	355.55	2.4927e-06	2.4364e-06	212.82	74.041	129.65	61.315	2.4618e-06	37.593	240.615	-26.372	-32.682	-87.746	80.790	44.342	-89.865	-81.712	12.759	80.775	-86.117	-81.249	-77.369	-72.898	33.223	-77.792	-8191	255	
21593.428	1	1	0	0	0.070708	0.39019	0.18848	0.17189	0.1579	0.0068264	0.18011	0.48219	0.10652	0.20368	0.25359	0.10403	0.026843	0.2597	0.064753	0.30381	-0.35417	-0.65417	-0.21667	-1.1125	-0.4125	-0.41458	-1.3146	-0.24583	-0.76042	-0.69375	-0.225	-0.80625	-0.37083	-0.35417	-1.0625	-0.20417	-21.198	32.188	79.509	248.648	-44.982	41.657	194.549	212.252	-44.497	-18.076	157.288	234.004	33.843	248.462	-99.522	241.756	0.00011128	0.00026852	0.00010134	1160.3	4.1318e-06	3.2537e-06	698.39	382.3	8.0274e-07	7.3325e-06	228.45	79.01	138.32	65.29	3.9221e-06	40.258	0.00022923	0.00022318	6.3447e-05	1076	2.537e-06	2.4762e-06	646.18	356.45	2.4439e-06	2.3969e-06	214.44	74.322	129.5	61.357	2.5682e-06	37.744	252.969	62.232	-9.542	-87.557	48.226	48.001	-89.508	-81.651	230.210	17.366	-85.084	-80.838	-77.406	-72.992	51.068	-78.468	-8191	255	
21593.525	1	1	0	0	0.067211	0.11569	0.16653	0.29586	0.10349	0.16162	0.25448	0.17627	0.040597	0.20997	0.2634	0.18696	0.23988	0.19183	0.14337	0.10749	-0.19167	-0.64792	0.1625	-0.98958	-0.58542	-0.16667	-1.0917	-0.21042	-0.425	-1.0667	-0.15208	-0.90208	-0.69792	-0.45208	-0.85833	-0.34167	-40.835	1.201	31.961	201.616	-23.031	177.663	111.985	101.169	-69.949	166.544	-51.172	-83.380	-42.543	258.048	109.179	42.011	0.00013946	0.00041049	0.00014243	1166.7	1.9534e-06	4.6964e-06	698.4	384.21	2.4404e-06	5.478e-06	233.37	79.15	138.41	65.718	2.6658e-06	40.678	0.00022347	0.00022017	6.3124e-05	1078.8	2.5467e-06	2.3366e-06	650.07	357.8	2.4885e-06	2.4029e-06	216.06	74.615	129.73	61.436	2.5632e-06	38.05	255.131	26.591	-52.502	-87.739	58.965	33.286	-89.564	-82.212	8.588	43.431	-85.402	-81.368	-77.123	-72.946	7.774	-77.746	-8191	255	
21593.621	1	1	0	0	0.21408	0.099081	0.18723	0.09996	0.18548	0.36072	0.18446	0.13272	0.10478	0.2713	0.33033	0.19208	0.39233	0.27235	0.10818	0.36398	-0.016667	-0.96875	-0.24167	-1.0271	-0.58125	-0.26667	-1.0125	-0.39792	-0.40625	-1.1208	0.039583	-0.675	-0.82083	-0.39583	-1.0229	-0.49167	-25.552	-75.613	-4.551	189.539	-0.268	-84.837	243.657	171.525	95.020	-56.865	200.380	221.589	-33.574	-66.246	-7.609	39.851	0.00016294	0.00041774	0.00012794	1162.4	3.8445e-06	7.4714e-06	706.01	383.48	2.0116e-06	5.1755e-06	232.08	79.431	138.32	64.943	4.3634e-06	40.443	0.00023393	0.00022313	6.3263e-05	1081.5	2.5548e-06	2.5681e-06	652.87	358.23	2.575e-06	2.4953e-06	216.43	75.116	130.04	61.355	2.6276e-06	37.831	236.064	20.562	-22.260	-87.310	87.655	45.902	-89.270	-81.579	11.662	74.796	-84.686	-81.189	-77.044	-72.650	10.521	-78.177	-8191	255	
21593.717	1	1	0	0	0.3881	0.069961	0.31554	0.14436	0.038508	0.2419	0.30114	0.28792	0.13249	0.12125	0.11513	0.068874	0.17573	0.21173	0.21056	0.16659	0.035417	-0.95417	-0.1875	-0.82708	-0.92708	-0.18958	-0.81458	-0.63958	-0.35208	-1.0229	-0.36667	-0.875	-0.88542	-0.23542	-1.0792	-0.67292	196.648	202.261	46.405	187.586	14.390	125.052	195.528	174.842	-94.035	107.070	256.309	87.948	122.288	220.372	-70.344	206.145	0.00011364	0.0003505	7.7878e-05	1156.3	3.9294e-07	1.7853e-06	692.86	380.64	1.2492e-07	6.4674e-06	228.72	78.368	138.57	65.018	2.9593e-06	40.038	0.00023692	0.00022997	6.7191e-05	1073.4	2.5497e-06	2.6303e-06	644.07	355.64	2.7315e-06	2.6083e-06	212.56	74.028	129.7	61.162	2.6328e-06	37.393	252.432	13.572	-38.260	-87.622	246.622	92.046	-89.538	-81.876	-99.043	72.756	-85.304	-80.820	-76.834	-72.669	111.276	-78.515	-8191	255	
21593.812	1	1	0	0	0.13368	0.18897	0.23002	0.26664	0.35531	0.020369	0.30528	0.50158	0.19518	0.25471	0.30721	0.2885	0.11539	0.27792	0.25723	0.13167	-0.091667	-0.95417	-0.14792	-0.86042	-0.79583	-0.19375	-0.97917	-0.60833	-0.097917	-1.05	-0.30208	-0.40208	-0.94167	-0.15625	-0.82083	-0.90833	190.194	57.291	93.229	-94.892	52.638	-36.267	226.856	236.118	201.312	-96.222	142.852	208.899	-99.399	-84.970	-92.624	-26.991	8.827e-05	0.00065572	0.00020333	1155.1	6.6781e-06	2.5546e-06	692.32	381.01	2.8121e-06	5.9973e-06	228.27	78.688	138.54	65.387	2.7635e-06	40.375	0.00024543	0.00024414	6.7134e-05	1072.5	2.6355e-06	2.672e-06	641.17	355.37	2.8655e-06	2.6945e-06	212.08	74.244	129.62	61.303	2.8778e-06	37.679	254.728	6.154	-35.898	-87.193	35.627	47.674	-89.503	-81.760	34.580	40.454	-85.204	-81.226	-76.992	-72.563	73.916	-77.777	-8191	255	
21593.934	1	1	0	0	0.37164	0.056282	0.22182	0.45081	0.3196	0.17238	0.23208	0.22698	0.065748	0.50285	0.059727	0.096813	0.13691	0.091634	0.18579	0.10671	0.13333	-0.925	-0.575	-0.46458	-0.86875	-0.27292	-0.71667	-0.76042	-0.016667	-0.98958	-0.50417	-0.41667	-1.1792	-0.22083	-0.9125	-0.98542	22.515	216.083	108.403	195.936	258.283	-46.773	173.359	185.027	110.125	157.486	59.509	-57.455	-84.155	217.519	239.748	-18.212	0.00012854	0.00044208	0.00010956	1155.2	6.1985e-06	5.5914e-06	690.83	380.97	9.9072e-07	3.8541e-06	226.24	79.438	138.03	65.234	3.5834e-06	40.63	0.00025564	0.00025466	6.9312e-05	1072.5	2.824e-06	2.8152e-06	641.43	355.24	2.7936e-06	2.7151e-06	212.35	74.616	129.86	61.276	2.7101e-06	37.938	252.924	-3.998	17.022	-87.379	99.570	32.899	-89.614	-81.762	21.766	72.480	-86.037	-81.015	-76.973	-72.588	-7.163	-77.937	-8191	255	
21594.029	1	1	0	0	0.22948	0.072861	0.34721	0.26705	0.051066	0.1947	0.18046	0.25927	0.067257	0.082038	0.25916	0.18944	0.33487	0.079573	0.15482	0.087205	0.16667	-0.87917	-0.55208	-0.40833	-1.025	-0.21042	-0.52708	-0.95	-0.077083	-0.8625	-0.57708	-0.28958	-1.1167	-0.47083	-0.575	-0.85417	136.531	-48.658	164.915	252.965	7.737	50.182	222.221	217.273	-65.361	-20.384	222.840	-75.383	-93.984	-69.467	154.975	126.527	0.00012791	0.00038354	0.00011672	1159.1	4.4662e-06	4.2296e-06	695.14	382.17	4.7872e-06	7.6662e-06	231.39	79.531	139.82	65.405	3.5821e-06	40.208	0.00024875	0.00024282	6.7918e-05	1073.3	2.7518e-06	2.6911e-06	645.33	355.97	2.7314e-06	2.7178e-06	214.76	74.95	130.66	61.347	2.8239e-06	37.726	245.645	33.478	3.223	-87.176	65.503	14.506	-89.158	-81.813	59.029	58.064	-85.349	-81.292	-76.947	-72.942	8.063	-78.338	-8191	255	
21594.127	1	1	0	0	0.15126	0.062364	0.32967	0.24091	0.22745	0.18455	0.23294	0.26892	0.1974	0.16732	0.13452	0.25424	0.23547	0.16797	0.13668	0.033254	0.34375	-0.82917	-0.54167	-0.225	-1.025	-0.16042	-0.75	-1.1792	-0.13125	-0.78125	-0.7625	-0.075	-1.2062	-0.41458	-0.43333	-0.87083	82.563	68.972	174.359	248.814	23.503	127.243	-93.494	-18.365	215.982	109.406	193.924	-81.244	-10.519	-82.783	93.407	-87.854	8.0373e-05	0.00046151	9.6893e-05	1152.4	3.048e-06	2.1252e-06	681.86	377.93	3.8399e-06	1.0205e-05	226.72	77.982	137.29	64.83	1.5624e-06	39.769	0.00025038	0.00025382	6.9552e-05	1068.3	2.7362e-06	2.776e-06	636.41	352.84	2.8867e-06	2.8143e-06	210.52	73.549	129.07	60.882	2.8244e-06	37.215	246.785	-36.451	-0.389	-87.758	44.634	31.820	-89.582	-81.836	-7.674	55.814	-85.481	-81.144	-76.879	-72.460	38.230	-78.148	-8191	255	
21594.223	1	1	0	0	0.14399	0.10033	0.21587	0.13884	0.20676	0.1659	0.12242	0.053309	0.1993	0.20523	0.10275	0.25339	0.062712	0.13678	0.027048	0.12572	0.31458	-0.50625	-0.78958	-0.125	-1.0125	-0.23333	-0.4125	-1.0688	-0.30625	-0.80833	-0.68542	-0.010417	-1.0729	-0.43333	-0.34167	-0.975	-62.672	-19.411	66.185	-16.167	-73.146	1.365	198.878	188.675	27.857	169.140	141.585	210.695	153.242	97.075	-64.410	-12.676	0.00010856	0.00038159	0.00011708	1154.8	4.3949e-06	3.9556e-06	678.86	376	2.2896e-06	4.4024e-06	224.72	77.37	137.27	64.421	2.7624e-06	39.768	0.00025993	0.00025137	7.2034e-05	1065.5	2.8397e-06	2.7204e-06	633.61	351.82	2.887e-06	2.7239e-06	209.4	73.064	128.78	60.621	2.8277e-06	37.103	234.732	8.321	-18.005	-87.448	115.606	13.813	-89.720	-81.337	-37.968	-17.898	-85.484	-81.238	-77.453	-73.226	86.925	-77.689	-8191	255	
21594.344	1	1	0	0	0.37173	0.040603	0.13799	0.026291	0.045814	0.14208	0.26082	0.18223	0.056572	0.13225	0.28916	0.23485	0.32105	0.091396	0.22216	0.30449	0.033333	-0.60417	-0.81042	-0.075	-0.87917	-0.31042	0.039583	-1.1167	-0.15417	-0.56667	-0.84583	-0.14375	-0.93125	-0.6375	-0.10208	-1.0646	-33.947	54.341	-83.742	191.909	139.573	96.077	256.268	235.837	214.045	173.943	-60.012	250.281	-16.042	183.222	157.362	94.655	0.00010822	0.00028381	0.00010526	1145.9	1.0816e-06	4.0187e-06	686.32	377.71	2.255e-06	2.3592e-06	223.69	77.821	136.86	64.7	4.3584e-06	40.06	0.00025455	0.00025242	6.9126e-05	1061	2.7619e-06	2.7415e-06	634.1	352.31	2.803e-06	2.7417e-06	209.64	73.063	128.5	60.609	2.836e-06	37.275	-90.114	-93.674	-13.801	-87.435	-25.549	37.688	-89.454	-81.671	122.295	16.085	-84.910	-80.641	-77.199	-72.742	89.303	-77.936	-8191	255	
21594.412	1	1	0	0	0.10984	0.059465	0.38041	0.092016	0.12394	0.067296	0.19063	0.064355	0.23232	0.17375	0.15984	0.11762	0.082212	0.24171	0.079104	0.17373	0.125	-0.48125	-0.94792	-0.125	-0.6375	-0.64167	-0.095833	-1.1437	-0.39583	-0.17292	-1.0021	0.0375	-0.59583	-1.0083	-0.05625	-1.0354	27.600	-31.178	89.683	199.780	10.323	232.798	-54.257	199.234	31.960	196.795	70.405	158.472	23.847	-71.805	-68.999	241.467	0.00015298	0.00011313	0.00021832	1150.3	1.3975e-06	4.3445e-06	685.92	376.79	5.6111e-07	4.1987e-06	225.64	77.59	136.56	64.163	3.7026e-06	39.954	0.00026045	0.00026115	7.3569e-05	1065.9	3.0778e-06	2.9873e-06	637.7	352.08	3.2369e-06	3.0987e-06	210.91	73.365	128.17	60.341	3.2086e-06	37.081	237.786	-15.730	-4.361	-87.721	42.568	53.128	-89.113	-81.536	-6.856	95.042	-84.767	-81.133	-77.049	-73.200	45.596	-77.459	-8191	255	
21594.510	1	1	0	0	0.07515	0.045608	0.091253	0.23816	0.083096	0.20251	0.28611	0.2553	0.060432	0.2092	0.16437	0.073267	0.53006	0.3026	0.31248	0.20635	-0.0083333	-0.16458	-0.94167	-0.11667	-0.66667	-0.66667	-0.11042	-1.0208	-0.55833	-0.29167	-1.0229	-0.15833	-0.6375	-0.89375	-0.04375	-0.975	96.411	-76.188	33.699	200.255	229.299	83.739	181.712	258.959	103.208	115.219	11.633	156.241	227.305	221.640	-0.496	11.884	0.00012543	0.00045252	0.00013023	1148.3	3.8923e-06	7.4057e-06	677.95	375.69	3.7573e-06	4.0303e-06	221.81	76.437	135.92	63.687	2.1307e-06	39.091	0.00028127	0.00028039	7.72e-05	1064	3.1476e-06	2.9738e-06	629.8	350.63	3.064e-06	3.0406e-06	207.4	72.032	127.42	60.04	2.9715e-06	36.632	243.744	-2.338	-17.340	-87.575	25.427	-15.851	-88.972	-81.678	27.655	52.730	-85.463	-81.034	-76.941	-72.914	2.059	-77.405	-8191	255	
21594.605	1	1	0	0	0.074878	0.35919	0.064674	0.3566	0.021217	0.25646	0.19356	0.08253	0.19502	0.25242	0.27792	0.2895	0.14045	0.24597	0.19861	0.21519	-0.085417	-0.26458	-0.88125	-0.47292	-0.5375	-0.99583	-0.25208	-0.86667	-0.68333	-0.20417	-1.2479	-0.19375	-0.56458	-1.1479	-0.03125	-0.64583	3.982	-81.631	101.478	241.462	227.928	-92.561	56.280	182.230	36.900	212.642	225.738	-56.544	215.472	235.700	155.096	-70.918	9.4803e-05	0.00048038	0.00013662	1141.7	2.5605e-06	4.1166e-06	675.78	374.1	8.1329e-07	3.6761e-06	224.37	76.241	135.75	63.314	2.9449e-06	39.203	0.00026451	0.000269	7.4037e-05	1057.9	2.9767e-06	3.0112e-06	628.22	349.26	3.0493e-06	3.0382e-06	208.5	72.237	127.35	59.802	3.1411e-06	36.694	-96.688	-32.780	-11.564	-87.460	9.812	48.114	-90.247	-81.795	47.121	72.479	-85.504	-81.018	-76.843	-73.092	79.387	-77.544	-8191	255	
21594.727	1	1	0	0	0.17158	0.092544	0.26575	0.15778	0.12905	0.15577	0.14641	0.17218	0.14025	0.086424	0.22179	0.34281	0.32558	0.34496	0.15244	0.18796	-0.30417	-0.10833	-0.81458	-0.38125	-0.40625	-0.85625	-0.19375	-0.90208	-0.85625	-0.14375	-0.83958	-0.38958	-0.40208	-1.1375	0.039583	-0.67917	92.231	257.365	217.169	201.415	8.317	148.706	-52.552	256.649	248.030	226.530	195.843	16.951	205.559	249.105	94.080	208.107	0.00011586	0.00015156	0.00019304	1137.6	2.1824e-06	5.7957e-06	672.13	373.88	2.344e-06	9.5784e-06	224.39	76.753	135.16	63.536	5.4505e-06	38.985	0.0002791	0.00028407	7.9091e-05	1057.2	3.1665e-06	3.0523e-06	628.6	349.79	3.1026e-06	3.1526e-06	209.17	72.542	127.33	59.855	3.1374e-06	36.651	-94.615	-32.709	5.306	-87.777	-5.027	54.942	-89.457	-81.866	96.040	74.143	-85.426	-81.985	-77.168	-73.165	38.280	-77.880	-8191	255	
21594.822	1	1	0	0	0.13634	0.13144	0.17927	0.17658	0.11014	0.11536	0.19654	0.013893	0.32497	0.17322	0.26328	0.24718	0.17382	0.033545	0.16728	0.38478	-0.39792	-0.097917	-0.96667	-0.66042	-0.1875	-1.0438	-0.15833	-0.6625	-0.7875	-0.12917	-0.88542	-0.675	-0.26875	-1.1667	-0.17292	-0.54583	103.622	-7.490	-6.886	173.902	148.913	-24.356	163.401	20.825	-8.863	214.480	-61.666	-90.342	-75.677	203.169	120.477	177.844	0.0001222	0.00017442	0.00013226	1136.6	3.9381e-06	8.4922e-06	678.39	374.7	2.3498e-06	4.6917e-06	228.12	77.14	135.31	63.765	4.0603e-06	39.22	0.00027345	0.00027618	7.8791e-05	1058.8	3.1032e-06	3.032e-06	632.57	350.69	3.12e-06	3.1064e-06	210.8	72.816	127.43	59.788	3.2621e-06	36.818	235.132	-73.787	12.308	-87.647	164.571	13.901	-89.684	-81.597	43.904	51.557	-85.390	-80.659	-76.992	-73.020	14.800	-77.893	-8191	255	
21594.918	1	1	0	0	0.028087	0.070096	0.13566	0.13217	0.15744	0.12845	0.20247	0.093964	0.085858	0.11083	0.18226	0.21741	0.15186	0.33608	0.19047	0.048993	-0.6375	-0.16875	-0.88125	-0.72292	-0.13542	-1.0667	-0.31875	-0.70625	-0.97083	-0.10208	-0.83958	-0.67083	0.0375	-0.975	-0.27708	-0.49583	32.005	41.168	119.404	215.986	185.244	27.338	-98.372	233.583	209.404	237.422	114.636	29.014	0.209	239.079	109.504	175.761	0.00010019	0.00021534	0.00019778	1139	5.5108e-06	4.6139e-06	674.79	374.23	4.2373e-06	5.6781e-06	224.18	76.716	135.12	63.177	5.9498e-06	38.835	0.00028442	0.00029484	8.165e-05	1059.1	3.3272e-06	3.2516e-06	630.33	350.21	3.3576e-06	3.3278e-06	209.05	72.39	127.22	59.598	3.4161e-06	36.455	240.193	-13.978	-35.573	-87.336	16.725	-14.090	-89.728	-82.025	17.150	99.333	-85.210	-81.613	-77.149	-73.116	52.096	-78.272	-8191	255	
21595.014	1	1	0	0	0.2988	0.056405	0.12234	0.11098	0.25785	0.36064	0.16147	0.18756	0.1878	0.094757	0.32904	0.30005	0.16028	0.25704	0.10352	0.058348	-0.5875	-0.23958	-0.65833	-1.0812	0.016667	-1.0896	-0.57083	-0.45208	-0.77917	-0.2125	-0.79375	-0.83333	-0.22292	-1.0083	-0.55833	-0.325	12.443	-43.737	134.815	-94.807	-15.373	87.382	158.746	-0.535	-36.199	52.834	-48.244	44.919	-69.998	245.351	-44.452	38.789	0.00012353	0.0003927	0.0001562	1135.3	2.6485e-06	3.2922e-06	670.06	374.32	3.0545e-06	5.2811e-06	222.53	76.462	135.57	63.443	4.2715e-06	39.364	0.00030273	0.0003063	8.5539e-05	1056.7	3.4115e-06	3.3516e-06	626.24	349.95	3.3694e-06	3.3219e-06	208.45	72.471	127.42	59.831	3.3632e-06	36.83	-97.438	32.594	22.849	-87.871	6.288	62.069	-89.532	-81.813	83.473	112.724	-85.429	-81.502	-77.214	-73.098	88.313	-78.020	-8191	255	
21595.109	1	1	0	0	0.21148	0.088346	0.054447	0.42295	0.31625	0.16468	0.1959	0.14461	0.055221	0.15812	0.19354	0.099903	0.21341	0.24016	0.31351	0.145	-0.61458	-0.0375	-0.47917	-0.93333	-0.0375	-0.95	-0.63958	-0.43333	-1.2667	-0.18125	-0.73333	-0.95417	-0.15625	-0.94583	-0.67292	-0.19792	144.941	99.074	-7.104	166.087	218.232	-97.466	172.090	-69.594	139.290	-9.561	-47.419	-31.569	226.139	-25.041	-37.147	-9.145	0.00011033	0.00053791	0.00022533	1139.4	6.1928e-06	8.3508e-06	677.23	375.41	2.7761e-06	8.5758e-07	224.32	76.846	135.93	63.474	4.0869e-07	38.983	0.00029065	0.0002982	8.3402e-05	1057.9	3.3388e-06	3.2856e-06	628.73	350.16	3.3309e-06	3.2954e-06	209.5	72.928	127.49	59.763	3.3751e-06	36.707	231.572	14.109	-22.250	-87.785	-45.888	40.522	-89.843	-81.719	-18.277	28.367	-85.711	-81.478	-77.227	-73.195	195.402	-77.825	-8191	255	
21595.205	1	1	0	0	0.27187	0.22644	0.34396	0.48606	0.15294	0.15623	0.21841	0.039312	0.47073	0.14303	0.26977	0.21001	0.33662	0.19247	0.14878	0.29032	-0.54792	-0.20417	-0.38333	-0.90833	-0.12708	-0.71667	-0.70833	-0.2	-1.0542	-0.275	-0.37083	-1.0125	-0.29583	-0.73958	-0.73542	-0.2	56.022	-74.930	-49.002	209.486	96.651	-37.147	182.399	-79.801	62.825	14.672	-98.568	241.050	-75.921	-38.848	172.688	242.253	0.00014759	0.00036913	0.00024526	1143.8	4.5973e-06	9.2952e-06	679.66	374.9	3.6674e-07	5.1996e-06	226.79	78.269	136.28	63.437	1.547e-06	39.211	0.00029719	0.00031338	8.3282e-05	1060.2	3.2769e-06	3.2738e-06	632.26	351.24	3.3264e-06	3.3161e-06	211.14	73.431	127.63	59.84	3.3244e-06	36.928	249.678	-46.138	-31.976	-87.777	65.383	53.334	-89.306	-81.729	-18.412	61.869	-85.087	-81.165	-77.289	-72.867	14.948	-78.577	-8191	255	
21595.303	1	1	0	0	0.23869	0.074552	0.086671	0.16224	0.14352	0.080031	0.19278	0.21306	0.12973	0.17736	0.06917	0.2354	0.087896	0.15323	0.16727	0.1459	-0.39792	-0.47917	-0.29375	-1.2437	-0.10417	-0.70417	-0.8625	0.052083	-1.0375	-0.5125	-0.23125	-0.97083	-0.3125	-0.5875	-1.0167	0.04375	106.983	252.835	-26.632	-54.665	164.543	-78.862	99.020	170.686	-10.782	9.055	225.174	259.230	212.219	-55.522	240.747	102.500	7.8547e-05	0.00048484	4.4016e-05	1142.4	6.4022e-07	7.2804e-06	673.53	373.85	2.8135e-06	7.4003e-06	225.33	77.007	135.29	63.342	3.3338e-06	39.034	0.000296	0.00030421	8.5824e-05	1060.2	3.3736e-06	3.33e-06	632.26	349.78	3.3134e-06	3.2397e-06	209.25	72.832	126.97	59.627	3.4277e-06	36.569	-95.602	-12.788	-12.116	-87.830	158.256	17.600	-90.038	-81.893	47.840	83.388	-85.372	-81.123	-77.344	-72.825	25.427	-78.704	-8191	255	
21595.424	1	1	0	0	0.066146	0.27017	0.034141	0.33224	0.1532	0.035025	0.075263	0.22511	0.23763	0.30987	0.26976	0.27708	0.057053	0.29588	0.20509	0.21802	-0.37292	-0.41875	-0.025	-1.0604	-0.2	-0.32292	-0.99167	-0.24583	-0.77292	-0.70208	-0.14583	-0.875	-0.12708	-0.56042	-1.0521	-0.15208	184.534	146.054	223.127	255.341	16.719	204.387	200.804	176.377	83.115	-93.784	93.221	123.342	-84.018	-50.420	117.384	41.793	0.00013776	0.00055776	0.00012619	1137.6	1.1712e-06	4.1193e-06	673.27	373.7	4.6976e-06	4.643e-06	221.09	76.744	134.85	63.019	2.3059e-06	38.783	0.00030295	0.00031568	8.4906e-05	1055.8	3.4953e-06	3.397e-06	627.74	349.13	3.392e-06	3.4092e-06	207.88	72.307	126.75	59.466	3.505e-06	36.548	-98.105	-32.002	28.435	-88.431	77.812	49.385	-90.531	-82.702	80.378	35.151	-86.506	-81.447	-77.639	-73.591	63.958	-79.009	-8191	255	
21595.518	1	1	0	0	0.18246	0.1863	0.28733	0.18816	0.11167	0.08731	0.25132	0.041693	0.063463	0.11826	0.26434	0.095836	0.15992	0.12994	0.27689	0.18381	-0.48958	-0.7	0.033333	-1.1292	-0.077083	-0.15	-1.0812	-0.2125	-0.68333	-0.76042	-0.058333	-0.95208	-0.4125	-0.19375	-1.1146	0	20.416	90.055	10.562	-38.104	27.121	143.275	192.487	-64.098	138.060	116.233	191.836	-98.441	162.480	170.497	204.783	166.353	0.00011081	0.00014695	0.00012889	1139.4	1.8414e-06	2.2418e-06	670.11	372.36	1.404e-06	5.7468e-06	224.14	76.828	134.28	62.962	7.4451e-07	38.825	0.00030689	0.00031786	9.0378e-05	1058.2	3.5485e-06	3.4153e-06	627.43	349.61	3.5932e-06	3.5334e-06	208.74	72.599	126.85	59.361	3.5131e-06	36.594	215.311	-33.743	-62.044	-88.190	-65.663	92.374	-90.385	-82.496	30.687	52.711	-85.942	-81.716	-77.901	-73.655	5.004	-78.396	-8191	255	
21595.613	1	1	0	0	0.1479	0.11444	0.16672	0.25192	0.27751	0.15193	0.21827	0.10723	0.27034	0.21965	0.14425	0.087819	0.2201	0.026901	0.34575	0.21011	-0.20625	-0.68125	0.00625	-0.97292	-0.33958	-0.22083	-1.2042	-0.34583	-0.63542	-0.94792	-0.18333	-0.93125	-0.77083	-0.27917	-1.0854	-0.37917	160.572	239.512	-89.318	225.021	239.068	-29.810	125.391	23.043	-49.310	132.969	187.745	178.799	247.217	24.734	109.119	-61.865	0.00010605	0.00023931	3.1595e-05	1141.2	1.4643e-06	5.1674e-06	672.89	375.35	5.5982e-07	7.9589e-06	224.2	77.026	134.71	63.187	1.0856e-06	38.846	0.00030114	0.00031307	8.6877e-05	1060.5	3.3955e-06	3.4471e-06	631.34	349.91	3.5512e-06	3.398e-06	209.61	73.091	127.01	59.382	3.558e-06	36.681	246.578	38.213	101.501	-88.341	59.120	86.254	-90.353	-82.530	-87.272	2.868	-86.014	-81.719	-77.928	-73.596	203.912	-78.457	-8191	255	
21595.711	1	1	0	0	0.012717	0.28259	0.37135	0.17293	0.1412	0.15502	0.17112	0.17815	0.27756	0.19857	0.26675	0.12947	0.26419	0.16365	0.2342	0.16621	-0.2	-0.9	0.066667	-0.92917	-0.73958	-0.26875	-1.1417	-0.44375	-0.27917	-1.2188	-0.077083	-0.96875	-0.83333	-0.10625	-1.0083	-0.47917	154.376	64.550	97.655	219.493	112.815	132.604	-78.469	194.382	-3.012	74.106	-35.481	176.957	-67.900	257.971	30.403	138.832	7.3734e-05	0.00058085	0.00015216	1138.4	4.1971e-06	6.3977e-06	673.99	372.94	1.8651e-06	7.399e-06	222.2	76.138	134.46	62.755	2.7303e-06	38.138	0.00031803	0.00032769	9.2577e-05	1059.6	3.6202e-06	3.5809e-06	630.82	348.98	3.6913e-06	3.6593e-06	207.74	72.094	126.26	59.014	3.7161e-06	36.133	238.100	10.221	24.890	-88.121	57.918	-21.083	-90.374	-82.688	136.554	121.396	-85.855	-81.245	-77.774	-73.528	61.601	-78.594	-8191	255	
21595.807	1	1	0	0	0.060954	0.030527	0.22333	0.30535	0.29451	0.20708	0.25607	0.24833	0.23672	0.089756	0.11545	0.13039	0.1947	0.37244	0.097236	0.33142	-0.03125	-1.05	-0.05	-0.83333	-0.83125	-0.1	-1.0021	-0.50208	-0.40208	-1.0125	-0.04375	-0.675	-0.76875	-0.40417	-1.0542	-0.36458	114.840	42.049	66.003	233.782	256.904	32.369	90.694	158.317	97.743	118.598	223.182	241.817	196.579	255.547	219.550	159.768	0.00010702	0.00049644	0.00025233	1129.3	3.0623e-06	5.6564e-06	669.82	370.37	3.0427e-06	8.6392e-07	220.5	75.445	134.47	62.58	7.2864e-06	38.687	0.0003261	0.00033109	9.3675e-05	1051.8	3.6934e-06	3.648e-06	623.96	346.9	3.6574e-06	3.6168e-06	207.18	71.617	126.33	58.956	3.6769e-06	36.203	241.286	21.486	-42.117	-88.234	120.709	73.853	-90.659	-82.327	3.226	154.652	-86.186	-81.516	-77.751	-73.733	66.005	-78.731	-8191	255	
21595.902	1	1	0	0	0.20475	0.13589	0.14402	0.13761	0.18559	0.29375	0.37006	0.28986	0.19178	0.19417	0.090958	0.11602	0.047449	0.26853	0.25612	0.121	0.1625	-0.93958	-0.16042	-0.69167	-0.87292	0.00625	-0.86042	-0.69792	-0.11667	-1.0187	-0.35208	-0.32292	-0.97292	-0.05	-0.73958	-0.64167	-5.848	166.206	64.633	205.162	-39.806	-63.314	208.623	-70.703	-54.324	206.689	164.397	151.798	146.904	240.730	-92.912	148.454	0.00014242	0.00027091	0.0001791	1125.4	1.5391e-06	8.9963e-06	667.16	371.83	1.151e-06	7.366e-06	220.58	75.75	133.87	62.503	2.0887e-06	38.627	0.00031874	0.00033994	9.1958e-05	1048.8	3.6186e-06	3.6635e-06	623.43	347.59	3.6923e-06	3.6745e-06	206.9	72.057	126.42	58.895	3.5769e-06	36.344	227.257	175.055	9.039	-88.319	-34.505	48.438	-90.109	-82.304	99.795	11.791	-86.533	-81.851	-77.716	-73.558	108.457	-78.984	-8191	255	
21596.023	1	1	0	0	0.15218	0.24354	0.18966	0.23895	0.15879	0.11126	0.21618	0.3019	0.15425	0.29386	0.10065	0.05023	0.41986	0.29241	0.096919	0.15677	0.27708	-0.92083	-0.12292	-0.37292	-0.96667	-0.16667	-0.87083	-0.77917	0.11458	-0.91875	-0.4625	-0.28958	-1.1979	-0.35833	-0.475	-0.86667	-9.262	77.792	85.718	-89.252	206.966	95.234	164.645	184.086	237.329	138.678	106.662	2.635	-99.857	193.531	-30.195	162.710	0.00011019	0.00076586	0.00013689	1131.1	3.7878e-06	2.0899e-06	675.55	370.5	3.6039e-07	7.2925e-06	222.41	76.44	134.74	62.738	3.4334e-06	38.857	0.0003098	0.00032268	8.9492e-05	1051.8	3.5091e-06	3.4864e-06	626.6	347.63	3.5282e-06	3.4755e-06	208.1	72.559	126.76	59.167	3.5339e-06	36.503	250.806	-9.449	-29.831	-88.077	101.465	134.528	-90.420	-82.352	22.767	85.601	-86.199	-81.775	-77.800	-73.391	42.498	-78.887	-8191	255	
21596.119	1	1	0	0	0.083905	0.28773	0.068856	0.23047	0.11447	0.089839	0.14021	0.51343	0.30314	0.30932	0.07987	0.15904	0.22973	0.19312	0.074284	0.055191	0.18333	-1.1208	-0.52083	-0.22917	-0.80625	-0.20417	-0.775	-0.98333	-0.11875	-1.1187	-0.59375	-0.2	-1.1521	-0.1125	-0.53958	-1.1104	204.071	207.338	-8.849	-46.357	-27.684	241.491	74.874	217.209	164.506	233.618	-41.786	163.248	-39.695	238.653	30.262	257.742	0.00010616	0.00066563	8.6342e-05	1130.2	4.2699e-06	6.0848e-06	673.87	371.73	2.8789e-06	3.8532e-06	220.99	75.918	134.49	62.214	4.3804e-06	38.364	0.00030471	0.00031725	8.9095e-05	1052.9	3.562e-06	3.4916e-06	628.02	348.12	3.5542e-06	3.4042e-06	206.83	72.116	126.16	58.693	3.5019e-06	35.993	231.500	26.523	6.772	-88.200	55.927	58.297	-90.072	-82.655	64.970	90.682	-86.136	-81.346	-77.888	-73.543	138.913	-78.814	-8191	255	
21596.215	1	1	0	0	0.13846	0.15151	0.021483	0.21592	0.072997	0.026101	0.28997	0.29808	0.14632	0.13152	0.073108	0.13067	0.13736	0.18241	0.055273	0.069289	0.21458	-1.025	-0.42708	-0.24167	-1.1042	-0.20833	-0.79167	-1.1125	-0.24167	-0.83542	-0.71667	-0.17292	-1.1625	-0.54375	-0.52083	-1.1417	214.252	141.248	191.243	206.523	184.347	156.158	226.727	127.500	14.607	-31.768	-2.284	-47.475	-70.700	-0.880	-31.788	-83.860	0.00017748	0.00049096	0.00011341	1122.8	5.5173e-06	5.0049e-06	664.91	369.44	2.9436e-06	5.0927e-06	218.21	75.007	131.85	62.053	4.8998e-06	38.008	0.00031828	0.00032042	9.1397e-05	1046	3.5424e-06	3.5939e-06	619.08	345.9	3.6101e-06	3.5431e-06	204.68	71.16	124.9	58.446	3.5297e-06	35.823	245.476	3.382	-10.884	-88.259	135.413	58.130	-89.947	-82.600	46.444	85.970	-86.181	-81.513	-77.791	-73.700	38.208	-78.958	-8191	255	
21596.287	1	1	0	0	0.255	0.11954	0.26733	0.29579	0.39791	0.044137	0.35813	0.24853	0.22211	0.15148	0.30341	0.40607	0.17296	0.25847	0.064627	0.28046	0.17917	-0.69375	-0.57708	-0.39375	-0.92708	-0.35833	-0.46458	-1.1979	-0.079167	-0.70208	-0.80208	-0.089583	-1.0521	-0.58542	-0.31458	-0.81042	146.761	245.219	234.062	198.812	31.443	25.114	111.493	246.136	230.717	-100.072	164.201	-56.000	-74.947	228.872	31.911	106.196	0.00011911	0.00052035	7.7059e-05	1123.8	3.3948e-06	4.9346e-06	664.13	369.07	4.7957e-07	1.3623e-06	219.3	75.698	133.46	61.836	3.0553e-06	38.483	0.00031051	0.00031813	8.7647e-05	1044.4	3.4917e-06	3.4181e-06	619.96	344.93	3.5171e-06	3.3785e-06	206.26	71.673	125.56	58.421	3.4847e-06	36.014	242.343	16.930	-67.101	-88.173	-76.309	14.598	-90.154	-82.420	-9.049	47.145	-86.499	-81.493	-77.887	-73.622	34.578	-78.683	-8191	255	
21596.406	1	1	0	0	0.30094	0.10975	0.020869	0.2883	0.21853	0.17176	0.26002	0.25051	0.38895	0.050821	0.25624	0.071186	0.4853	0.20404	0.15296	0.16122	0.39792	-0.69583	-0.74583	-0.24167	-0.94167	-0.6875	-0.33333	-1.0979	-0.21458	-0.5375	-0.90625	0.12292	-0.94583	-0.62083	-0.18958	-1.0792	-92.403	42.875	73.536	146.532	183.182	-56.617	141.825	134.318	203.674	-12.440	-89.554	139.098	-89.507	239.911	67.741	258.041	0.00016013	0.00038762	0.00015138	1124	3.6405e-06	4.542e-06	667.05	369.09	2.3262e-06	5.2948e-06	220.03	75.946	133.54	62.488	5.3281e-06	38.769	0.00030259	0.00031296	8.6004e-05	1043.3	3.3924e-06	3.4161e-06	622.68	346.18	3.4743e-06	3.4437e-06	206.97	71.814	125.62	58.684	3.5041e-06	36.313	252.893	-15.317	-9.180	-88.099	37.790	35.482	-90.089	-82.530	-83.675	27.432	-86.367	-81.586	-77.894	-73.596	-5.001	-78.654	-8191	255	
21596.502	1	1	0	0	0.13504	0.19716	0.043912	0.15433	0.11454	0.15858	0.29224	0.18364	0.11408	0.13613	0.23959	0.2434	0.24099	0.10213	0.28134	0.21749	0.2	-0.43333	-0.93542	-0.23333	-0.76875	-0.625	-0.39375	-1.1688	-0.31042	-0.48125	-0.96458	0.0125	-0.86458	-0.77292	-0.20833	-1.075	195.979	171.980	-90.115	-49.659	16.366	12.599	224.797	166.111	235.258	-13.730	207.623	169.252	225.204	153.315	-75.948	4.777	8.7383e-05	0.00070174	0.00016462	1124.1	4.9385e-06	5.7098e-06	669.83	371.32	2.0835e-06	3.7434e-06	222.02	75.956	133.2	62.291	4.6156e-06	38.523	0.000302	0.00031063	8.5793e-05	1044.7	3.345e-06	3.3455e-06	624.45	347.5	3.3711e-06	3.2867e-06	207.5	71.992	125.58	58.729	3.3267e-06	36.052	240.915	9.421	8.367	-88.275	56.825	24.442	-90.083	-82.255	81.339	51.746	-85.872	-81.241	-77.744	-73.747	42.482	-78.396	-8191	255	
21596.598	1	1	0	0	0.18494	0.2458	0.12121	0.094699	0.19995	0.032222	0.32952	0.52757	0.2083	0.1438	0.18782	0.21225	0.26035	0.15624	0.093756	0.24103	-0.0020833	-0.40208	-0.84583	-0.37083	-0.79583	-0.625	-0.15417	-1.2792	-0.42083	-0.29792	-0.91458	-0.083333	-0.68125	-0.86458	0.09375	-1.0063	34.655	-2.199	-88.742	-14.271	65.853	-11.828	238.776	231.590	-2.682	213.717	197.010	76.837	219.123	221.270	-29.112	252.074	0.00015998	0.00013881	3.0282e-06	1126.3	8.0962e-06	9.2996e-06	663.1	368.94	5.5668e-07	7.2255e-06	220.04	76.171	134.02	62.064	5.7323e-06	38.114	0.00028813	0.00029435	8.1234e-05	1042	3.2434e-06	3.2187e-06	616.98	345.17	3.3362e-06	3.297e-06	205.46	71.618	125.72	58.525	3.3785e-06	35.758	250.758	-14.363	249.077	-88.050	51.163	47.719	-90.383	-82.340	-44.361	61.220	-85.861	-81.797	-77.507	-73.695	32.499	-78.570	-8191	255	
21596.693	1	1	0	0	0.16164	0.10187	0.21157	0.1603	0.051472	0.18837	0.11235	0.32476	0.099568	0.056602	0.11416	0.12673	0.092812	0.090642	0.091772	0.31991	-0.175	-0.20417	-0.89792	-0.48958	-0.41667	-0.85417	-0.14167	-1.0667	-0.62708	-0.18958	-1.1187	-0.26667	-0.71667	-1.0333	-0.0020833	-0.86667	258.711	195.599	244.112	156.674	180.110	150.279	158.249	212.210	194.456	10.842	142.358	163.337	50.303	-77.015	40.185	221.624	0.00015916	0.00032321	0.00011722	1120.2	1.3835e-06	1.9541e-06	662.41	370.43	2.5356e-06	5.1996e-06	219.48	75.475	133.59	62.38	1.7101e-06	38.355	0.00029881	0.00030347	8.1486e-05	1040.1	3.33e-06	3.3245e-06	617.45	346.24	3.3642e-06	3.2732e-06	205.69	71.522	126	58.759	3.3468e-06	35.988	237.464	-21.628	9.935	-88.099	134.247	240.172	-90.114	-82.051	78.009	75.441	-85.732	-82.195	-77.465	-73.763	4.786	-78.710	-8191	255	
21596.814	1	1	0	0	0.28359	0.40838	0.24758	0.05617	0.21838	0.19578	0.22804	0.24635	0.18442	0.18776	0.073241	0.23812	0.39374	0.060197	0.28253	0.22991	-0.32708	-0.1875	-1.0187	-0.48125	-0.22083	-1.025	-0.2375	-0.97292	-0.64792	-0.12917	-1.0208	-0.37083	-0.43125	-1.3	-0.20833	-0.67292	161.835	-3.123	95.924	71.604	-97.173	197.118	111.873	190.472	45.678	34.945	-78.352	156.969	222.989	224.053	27.075	-82.831	0.0001331	0.00047905	0.00016015	1118.9	1.8172e-06	6.2178e-06	663.02	369.81	2.3711e-06	3.0906e-06	220.16	76.504	133.59	62.544	4.0786e-06	38.737	0.00028763	0.00029759	8.0075e-05	1039.3	3.2302e-06	3.2108e-06	619.15	346.54	3.2299e-06	3.3345e-06	207.31	72.257	125.93	59.05	3.2548e-06	36.339	-86.780	-4.579	-30.503	-88.263	64.525	37.565	-90.602	-82.163	-1.583	53.728	-85.628	-81.686	-77.635	-73.646	63.631	-78.338	-8191	255	
21596.887	1	1	0	0	0.18199	0.1923	0.096192	0.16774	0.18637	0.15115	0.14277	0.085937	0.25085	0.14889	0.31922	0.080373	0.061888	0.084333	0.16886	0.072683	-0.32292	-0.089583	-0.7875	-0.48333	-0.19375	-1.1354	-0.26667	-0.79167	-1.1125	-0.11458	-0.97917	-0.51042	-0.28125	-1.1417	0.022917	-0.57917	205.314	-87.259	-48.988	181.671	231.026	-93.667	-53.023	168.361	19.209	-36.073	175.392	203.980	-72.957	107.433	200.897	134.902	0.00012136	0.00037996	6.2151e-05	1123.8	1.7803e-06	1.7154e-06	665.72	371.32	5.8883e-07	3.7273e-06	222.98	76.723	133.49	62.738	3.6634e-06	38.413	0.00028844	0.00029979	8.1466e-05	1041.7	3.2838e-06	3.2955e-06	624.06	347.31	3.2404e-06	3.2754e-06	208.84	72.659	126.01	58.98	3.2311e-06	36.22	233.915	5.681	-73.129	-88.347	81.726	258.493	-90.332	-82.323	82.191	8.480	-85.981	-82.275	-77.782	-73.664	81.135	-78.289	-8191	255	
21596.982	1	1	0	0	0.23214	0.33078	0.13274	0.16127	0.28673	0.075473	0.26101	0.38413	0.16095	0.21552	0.13498	0.22822	0.33365	0.12832	0.05927	0.069755	-0.4625	0.20625	-0.89167	-0.55833	-0.11667	-1.0083	-0.38542	-0.55417	-1.0604	-0.14375	-0.775	-0.67917	-0.25208	-1.2188	-0.31458	-0.41042	119.076	-74.271	-49.156	220.938	77.559	83.338	253.673	163.601	175.372	79.012	13.364	3.606	-52.959	91.676	100.921	247.027	0.00013565	0.00036557	0.00014231	1115.2	4.9993e-06	5.2635e-06	662.96	370.22	4.1678e-06	6.3505e-06	220.25	76.347	133.83	62.44	3.7115e-06	38.279	0.00029107	0.000297	8.0868e-05	1038.6	3.2962e-06	3.173e-06	617.14	345.6	3.2339e-06	3.2526e-06	205.76	71.855	125.9	58.755	3.3482e-06	35.953	244.929	-5.898	32.413	-88.214	49.241	21.981	-90.227	-82.266	52.583	21.396	-86.101	-81.606	-77.772	-73.641	64.018	-78.183	-8191	255	
21597.104	1	1	0	0	0.30351	0.2193	0.15903	0.17789	0.16527	0.21094	0.30104	0.068429	0.11774	0.10717	0.039257	0.1723	0.17184	0.17026	0.058962	0.12978	-0.6125	0.020833	-0.57292	-0.74583	-0.10833	-1.0562	-0.45625	-0.37292	-1.0833	-0.23125	-0.71667	-0.8375	-0.225	-1.15	-0.34375	-0.49583	86.559	-40.748	140.132	226.931	157.393	64.368	129.958	-31.011	-75.086	-92.653	90.270	117.055	105.861	-76.784	142.159	224.697	0.0001191	6.8586e-05	6.5412e-05	1118.3	4.8915e-06	2.9359e-06	666.28	370.04	2.9095e-06	2.9147e-06	221.46	76.203	133.57	62.164	4.7562e-06	38.642	0.00029905	0.00030084	8.2531e-05	1040.1	3.2625e-06	3.1486e-06	619.52	345.08	3.2273e-06	3.2721e-06	207.24	71.915	125.65	58.592	3.3e-06	36.129	230.255	66.139	46.560	-88.152	24.649	42.752	-90.161	-82.120	4.578	66.805	-86.053	-81.971	-77.568	-73.486	40.726	-78.780	-8191	255	
21597.199	1	1	0	0	0.31268	0.12633	0.24318	0.1777	0.23582	0.24656	0.25066	0.14039	0.22509	0.15369	0.20841	0.10476	0.038265	0.38473	0.16952	0.12477	-0.70417	0.029167	-0.64375	-0.95208	0.05625	-0.92708	-0.46667	-0.45625	-0.87292	-0.035417	-0.46042	-0.91458	-0.26458	-0.97292	-0.71042	-0.17917	258.128	158.481	184.998	256.094	-61.507	81.000	138.382	236.705	55.531	-30.219	85.015	-51.656	-20.750	229.186	-6.586	237.397	0.00012609	0.00022742	6.0238e-06	1119.9	2.4215e-06	7.0565e-06	664.42	369.79	1.3841e-06	8.6389e-06	223.27	75.581	134.06	62.512	4.2447e-06	38.611	0.00028729	0.00030561	8.2386e-05	1040.9	3.2974e-06	3.2728e-06	621.52	346.21	3.3061e-06	3.1823e-06	208.28	71.899	125.73	58.721	3.3105e-06	36.255	235.969	29.133	56.334	-88.119	54.860	39.003	-90.167	-82.427	112.200	62.023	-86.488	-81.574	-77.593	-73.587	95.412	-78.694	-8191	255	
21597.295	1	1	0	0	0.08145	0.15277	0.14679	0.15043	0.27497	0.053257	0.22021	0.024063	0.091088	0.10303	0.013255	0.30203	0.20473	0.20516	0.1445	0.17464	-0.59583	-0.041667	-0.40417	-1.4	-0.091667	-0.66875	-0.72708	-0.12708	-0.925	-0.55833	-0.3	-0.92083	-0.14792	-0.87708	-0.74792	-0.089583	-5.753	-53.545	190.946	249.075	-99.212	-38.239	-40.368	254.602	204.899	-55.143	212.603	-90.988	250.958	187.726	-45.371	192.744	0.00011219	0.00030227	9.5907e-05	1119.5	3.6503e-06	3.4323e-06	669.54	371.56	7.1944e-07	5.562e-06	225.04	76.923	133.1	62.248	1.0185e-06	38.594	0.0002885	0.00030331	8.3977e-05	1041.4	3.2931e-06	3.2078e-06	624.16	346.81	3.2648e-06	3.2585e-06	209.21	72.625	125.54	58.62	3.3632e-06	36.137	232.165	42.477	-53.571	-87.969	-15.017	43.983	-89.948	-82.421	167.177	59.999	-85.943	-81.414	-77.448	-73.485	113.331	-78.445	-8191	255	
21597.414	1	1	0	0	0.15099	0.2016	0.16057	0.27771	0.20946	0.19329	0.26763	0.32504	0.19023	0.15039	0.60008	0.10048	0.20974	0.50278	0.13307	0.19516	-0.39583	-0.26667	-0.28958	-1.2646	-0.072917	-0.7625	-0.725	-0.26458	-0.95417	-0.32917	-0.42083	-1.2021	-0.3625	-0.80208	-0.93125	-0.15417	-3.751	151.010	220.676	-67.422	111.335	213.844	172.471	211.108	-5.046	249.540	-79.756	23.520	236.885	-90.263	40.990	137.688	0.00013032	0.0003992	0.00015164	1115.2	4.0609e-06	6.1142e-06	661.58	369.65	2.7809e-06	4.5532e-06	221.04	75.655	133.02	61.684	1.8181e-06	38.162	0.00029072	0.00029643	8.1834e-05	1038.5	3.3378e-06	3.2565e-06	618.59	344.94	3.2921e-06	3.1858e-06	206.25	71.373	124.87	58.011	3.2329e-06	35.743	223.933	-33.665	15.819	-88.050	95.877	40.924	-90.001	-82.199	99.781	13.388	-85.997	-81.476	-77.531	-73.532	237.646	-78.607	-8191	255	
21597.510	1	1	0	0	0.129	0.15374	0.11808	0.49429	0.31067	0.054547	0.17961	0.32638	0.14551	0.11715	0.2606	0.095366	0.10342	0.22594	0.17423	0.10453	-0.40208	-0.57083	-0.24583	-1.2542	-0.26458	-0.48333	-0.80833	-0.13125	-0.75208	-0.525	-0.15833	-1.1417	-0.30208	-0.65417	-0.94792	0.13958	-6.556	33.600	62.354	161.795	69.534	172.647	219.966	190.691	-30.007	165.528	96.711	154.556	-67.408	231.635	65.242	215.026	8.5133e-05	0.00023647	0.00017199	1117.2	2.6208e-06	5.4198e-06	665.36	368.85	5.0453e-06	6.3041e-06	219.83	76.179	132.98	61.612	5.2014e-06	38.029	0.00028573	0.00029879	8.1592e-05	1038.8	3.3132e-06	3.2378e-06	619.19	344.54	3.3694e-06	3.3292e-06	206.5	71.641	124.79	58.06	3.2754e-06	35.785	248.847	-41.216	21.159	-88.081	43.136	60.830	-90.281	-82.621	67.744	79.648	-86.030	-81.917	-77.962	-73.558	55.610	-78.622	-8191	255	
21597.582	1	1	0	0	0.11808	0.16371	0.33422	0.30966	0.20904	0.1564	0.22638	0.23782	0.26626	0.18184	0.28215	0.043183	0.16454	0.15943	0.12932	0.11757	-0.54375	-0.63333	0	-1.1208	-0.29167	-0.51667	-0.98542	-0.16458	-0.64375	-0.76667	0	-0.78542	-0.33125	-0.19375	-1.1604	-0.18333	259.279	-36.990	79.709	185.588	60.120	93.207	191.765	158.158	227.916	48.100	-0.411	244.741	104.106	247.740	177.274	240.908	0.00012171	0.0001736	5.9193e-05	1117.9	2.2457e-06	2.3316e-06	668.02	368.2	2.9949e-06	4.5885e-06	222.5	75.728	133.2	61.895	1.8762e-06	38.082	0.0002902	0.00029936	8.2667e-05	1037.2	3.3226e-06	3.2624e-06	620.42	344.47	3.3839e-06	3.3448e-06	207.71	71.751	125.16	58.222	3.3683e-06	35.919	255.530	250.051	39.164	-88.179	71.320	-30.331	-89.989	-82.477	27.078	34.593	-86.364	-82.221	-77.665	-73.437	0.773	-78.381	-8191	255	
21597.678	1	1	0	0	0.13532	0.16538	0.10107	0.20868	0.31504	0.064778	0.28489	0.15538	0.17492	0.11891	0.085471	0.17448	0.12213	0.38555	0.13923	0.18474	-0.23125	-0.60208	0.13333	-1.0771	-0.44167	-0.32708	-1.0833	-0.23542	-0.3875	-0.75	-0.058333	-1.0667	-0.47292	-0.46042	-0.78333	-0.1625	208.911	167.636	93.668	-91.677	129.016	-20.091	197.993	-58.779	65.009	-97.901	236.994	-98.804	-65.043	-14.701	-13.230	-89.792	8.6652e-05	0.00034572	0.00014026	1117.4	7.414e-06	4.0725e-06	668.4	368.67	2.4836e-06	2.4799e-06	221.27	76.367	132.88	61.781	4.6891e-06	38.004	0.00029618	0.00030885	8.552e-05	1039.2	3.4685e-06	3.3331e-06	623.03	345.13	3.478e-06	3.4252e-06	207.58	72.136	125.17	58.21	3.405e-06	35.858	257.018	-50.387	-43.841	-87.926	45.881	71.046	-89.962	-82.059	82.670	38.032	-86.207	-81.998	-78.390	-73.705	14.540	-78.626	-8191	255	
21597.799	1	1	0	0	0.34258	0.11698	0.2419	0.14339	0.011588	0.14371	0.34032	0.094812	0.20758	0.044356	0.16627	0.25849	0.12712	0.4094	0.20171	0.18402	-0.027083	-0.76667	0.12292	-1.0542	-0.57917	-0.0875	-0.98958	-0.25625	-0.36042	-1.0917	0.0625	-0.72708	-0.60208	-0.23333	-0.94375	-0.32708	247.115	-79.260	-40.242	248.808	6.395	24.283	168.450	184.814	-44.911	-26.537	-42.608	191.173	174.998	-93.502	88.358	209.506	8.5583e-05	0.00034549	9.7991e-05	1116.8	5.1133e-06	2.4774e-06	661.32	367.77	2.4676e-06	5.4005e-06	220.25	74.798	132.29	61.443	1.5929e-06	37.858	0.00030413	0.00032161	8.7152e-05	1036.2	3.3704e-06	3.3674e-06	615.98	343.22	3.3993e-06	3.3213e-06	205.62	71.089	124.3	57.853	3.3325e-06	35.505	244.233	-58.988	1.392	-88.334	76.284	-4.806	-90.377	-82.519	17.403	83.081	-85.735	-81.559	-77.852	-73.639	148.704	-79.002	-8191	255	
21597.895	1	1	0	0	0.23159	0.15507	0.2484	0.10241	0.22637	0.12697	0.21467	0.085251	0.2921	0.03676	0.23323	0.055696	0.12266	0.39788	0.076643	0.13227	0.16042	-0.79167	-0.060417	-0.89375	-0.73958	0.125	-1.1083	-0.41667	-0.225	-0.8625	-0.1875	-0.54583	-0.83958	-0.18333	-0.97708	-0.55833	83.048	220.330	-65.203	205.283	218.339	198.519	224.968	139.867	-94.999	-64.376	170.665	-37.872	136.129	237.035	144.507	241.024	0.00010394	0.0004209	7.546e-05	1109	6.1833e-06	2.2581e-06	663.05	365.22	1.8718e-06	3.155e-06	219.66	74.868	132.4	61.614	2.3977e-06	37.602	0.00030113	0.00030741	8.6834e-05	1032.3	3.4523e-06	3.3789e-06	614.7	342.2	3.4562e-06	3.3714e-06	204.34	70.915	124.37	57.843	3.4839e-06	35.447	250.355	9.266	-22.275	-88.074	58.129	23.045	-90.309	-82.385	-36.422	34.441	-85.719	-81.871	-77.917	-73.695	68.493	-78.606	-8191	255	
21597.990	1	1	0	0	0.23428	0.30598	0.12433	0.16564	0.12902	0.12669	0.15373	0.014706	0.16336	0.10626	0.13113	0.14622	0.11829	0.33079	0.086544	0.26365	0.34375	-0.95625	-0.047917	-0.71875	-0.76667	0.0041667	-0.93125	-0.60417	0.12083	-1.0312	-0.2375	-0.41458	-0.91875	-0.0020833	-0.78125	-0.46458	-22.028	-79.390	87.770	-55.963	128.441	148.067	239.581	-99.170	-43.801	134.330	-89.713	-60.816	179.197	240.182	77.203	84.771	0.00014504	0.00038443	0.00010419	1115.3	2.1973e-06	4.1993e-06	655	365.4	4.0129e-06	4.3069e-06	220.16	75.465	132.83	61.19	1.4288e-06	37.859	0.00030315	0.00031451	8.7754e-05	1035.3	3.4346e-06	3.4793e-06	614.49	342.65	3.4813e-06	3.3451e-06	205.61	71.402	124.63	57.858	3.4977e-06	35.582	244.101	0.127	-4.693	-88.321	112.428	-0.240	-90.091	-82.571	100.727	102.336	-86.596	-82.117	-77.673	-73.237	252.106	-78.978	-8191	255	
21598.088	1	1	0	0	0.088285	0.2316	0.36312	0.14053	0.22142	0.13025	0.22892	0.18614	0.12094	0.20357	0.028883	0.05839	0.24359	0.16899	0.20186	0.27708	0.43958	-0.75	-0.070833	-0.39792	-0.84583	-0.05	-0.84167	-0.825	-0.12708	-1.0125	-0.50417	-0.16875	-0.91042	-0.095833	-0.74375	-0.62708	202.273	254.091	60.234	-96.633	34.403	149.964	149.625	195.763	14.540	-67.799	-63.086	36.681	52.225	-33.896	91.763	136.099	0.00013597	0.00033234	0.00012713	1112.9	2.2372e-06	1.161e-05	662.19	366.65	3.407e-06	2.1422e-06	219.98	75.6	132.07	61.143	4.2779e-06	37.592	0.00031176	0.00031508	8.8503e-05	1035.8	3.5039e-06	3.4901e-06	617.47	343.1	3.5474e-06	3.4807e-06	206.31	71.618	124.69	57.875	3.514e-06	35.632	239.048	2.941	10.675	-88.330	187.881	60.999	-89.868	-82.350	33.125	-95.048	-86.407	-81.375	-77.656	-73.486	41.799	-78.914	-8191	255	
21598.184	1	1	0	0	0.31438	0.22582	0.13582	0.24151	0.28483	0.10948	0.092742	0.14982	0.20802	0.26737	0.12774	0.1835	0.25368	0.12703	0.14065	0.22718	0.575	-0.8125	-0.29167	-0.44583	-0.9125	0.0020833	-0.63333	-0.8625	-0.066667	-0.80625	-0.48542	-0.12083	-1.025	-0.37917	-0.45417	-0.83542	-29.157	-8.779	40.842	-76.847	15.712	-85.706	65.948	170.673	227.392	-92.529	51.057	-60.943	1.284	147.945	207.354	121.254	8.0222e-05	0.00047422	0.00021379	1114.9	4.5888e-07	8.8668e-06	659.8	366.34	2.5531e-06	4.4594e-06	219.17	75.061	131.46	60.922	8.8171e-07	37.548	0.0003108	0.00032512	9.1462e-05	1035.5	3.5227e-06	3.5432e-06	615.58	342.16	3.7406e-06	3.5565e-06	204.33	70.867	124.04	57.459	3.6027e-06	35.249	231.826	-43.918	1.339	-88.087	175.302	63.199	-90.281	-82.270	97.181	47.915	-85.885	-81.430	-77.735	-73.615	45.347	-78.636	-8191	255	
21598.279	1	1	0	0	0.2189	0.048517	0.16047	0.14091	0.17776	0.072012	0.37904	0.13557	0.19311	0.17017	0.050727	0.048043	0.22442	0.31398	0.11273	0.12075	0.26667	-0.81875	-0.4875	-0.175	-0.83125	-0.066667	-0.36458	-0.94167	-0.08125	-0.76667	-0.70625	0.045833	-1.0812	-0.325	-0.27708	-0.89583	-33.469	3.092	155.630	-81.897	206.534	228.375	-55.029	253.857	204.155	-5.500	-60.444	182.141	221.859	215.813	-4.902	218.267	0.00012487	0.00047096	4.2036e-05	1102.7	3.7035e-06	4.39e-06	657.56	367.21	8.6507e-07	3.1214e-06	217.93	75.526	131.27	60.751	3.9995e-06	37.551	0.00030732	0.00031885	9.0491e-05	1028.5	3.5863e-06	3.5899e-06	615.28	342.45	3.6108e-06	3.5423e-06	204.51	71.296	123.71	57.472	3.6484e-06	35.387	250.375	-25.985	-12.151	-88.156	42.577	97.381	-90.386	-82.317	207.098	35.266	-85.759	-80.902	-77.745	-73.447	65.239	-78.736	-8191	255	
21598.377	1	1	0	0	0.098102	0.37829	0.065398	0.14289	0.13812	0.15061	0.18206	0.047182	0.1488	0.22862	0.23034	0.24091	0.11113	0.0236	0.20762	0.39323	0.37917	-0.59792	-0.57083	0.15208	-0.90833	-0.22708	-0.30417	-1.0312	-0.0083333	-0.675	-0.62292	0.095833	-0.74583	-0.48125	-0.25417	-0.96042	25.767	16.999	81.584	247.993	59.366	110.687	103.127	-19.137	-79.321	41.130	124.688	169.537	-64.897	-6.041	255.896	186.400	0.00010943	0.00024341	0.0002071	1110.1	4.5866e-06	4.0834e-06	658.27	365.99	2.6293e-06	8.1033e-06	222.35	75.519	131.88	61.356	4.4967e-06	38.109	0.00031707	0.00032314	9.0127e-05	1031.9	3.5515e-06	3.4973e-06	618.53	342.99	3.5672e-06	3.4768e-06	207.44	71.626	124.25	57.688	3.5158e-06	35.659	229.525	-28.320	-38.688	-88.021	162.355	6.998	-89.747	-82.301	38.643	81.893	-85.781	-81.667	-77.624	-73.549	57.292	-78.578	-8191	255	
21598.496	1	1	0	0	0.09499	0.12865	0.11938	0.17108	0.0089531	0.23312	0.14014	0.36675	0.35274	0.13002	0.11467	0.15265	0.32473	0.076617	0.15609	0.32249	0.28958	-0.55417	-0.74375	-0.058333	-0.83542	-0.37292	-0.20833	-1.1458	-0.16875	-0.48542	-0.88542	0.00625	-0.83958	-0.49583	-0.052083	-0.8375	133.938	-27.735	-76.509	169.580	2.880	245.305	46.909	164.816	198.526	178.645	-59.482	209.527	256.462	136.241	99.639	-74.216	0.00010941	0.00059075	0.0001722	1114	4.7676e-06	6.3687e-06	671.94	369.08	2.43e-06	3.4831e-06	224.6	76.478	132.13	61.233	2.1818e-06	38.161	0.00030785	0.00031513	8.6749e-05	1036.4	3.4487e-06	3.3802e-06	626.75	345.74	3.4808e-06	3.4929e-06	209.73	72.502	124.42	57.705	3.7273e-06	35.998	210.832	-24.285	-58.489	-88.104	65.172	28.585	-89.733	-82.339	-75.084	-18.531	-85.945	-81.748	-77.524	-73.906	78.418	-78.571	-8191	255	
21598.592	1	1	0	0	0.19272	0.17046	0.27777	0.29686	0.11597	0.18793	0.10619	0.09141	0.31454	0.30168	0.18758	0.21387	0.065636	0.12459	0.23282	0.31478	0.095833	-0.36875	-0.9125	-0.014583	-0.76667	-0.50833	-0.045833	-0.74375	-0.29792	-0.30625	-0.85208	0.066667	-0.61667	-0.71042	-0.0125	-0.96875	223.340	50.351	108.088	-22.721	206.562	248.812	-96.825	143.284	236.758	17.612	-86.781	-19.653	94.654	228.349	94.097	191.664	0.00010685	0.0007398	0.00019715	1119	3.5716e-06	4.4175e-06	671.87	369.02	5.3049e-06	6.4942e-06	220.87	75.047	131.42	60.355	2.2303e-06	37.764	0.00032583	0.00033627	9.2146e-05	1041.4	3.7147e-06	3.7915e-06	627.49	345.1	3.7555e-06	3.6568e-06	207.47	71.601	123.93	57.011	3.8361e-06	35.39	256.490	-16.902	-38.870	-88.068	103.142	50.293	-89.738	-82.346	16.279	74.517	-85.677	-81.086	-77.476	-73.554	-27.661	-78.260	-8191	255	
21598.688	1	1	0	0	0.23986	0.16517	0.032896	0.083732	0.26121	0.28882	0.17942	0.063438	0.060145	0.16599	0.3051	0.063684	0.26918	0.44337	0.19479	0.05158	0.039583	-0.25417	-1.0208	-0.12708	-0.41042	-0.70417	-0.085417	-0.97708	-0.36667	-0.15417	-0.94583	0.025	-0.70625	-0.91042	-0.016667	-0.97083	236.873	18.914	6.510	118.125	-57.490	-52.268	95.071	-42.315	158.755	88.541	143.887	135.208	68.145	191.842	168.083	70.843	9.3529e-05	0.00060837	0.00017163	1112.2	7.9455e-06	4.4781e-06	664.21	367.25	1.8881e-06	7.0016e-06	221.7	75.169	131.6	60.669	8.8899e-07	37.698	0.00033024	0.00034483	9.4726e-05	1038.1	3.6782e-06	3.7847e-06	619.81	344.56	3.8028e-06	3.6897e-06	207.75	71.382	123.91	57.134	3.7231e-06	35.455	252.415	-9.127	-7.433	-87.820	107.254	75.485	-89.881	-81.973	243.429	66.934	-86.139	-81.251	-77.074	-73.482	238.615	-78.071	-8191	255	
21598.783	1	1	0	0	0.12323	0.080576	0.10299	0.25824	0.14777	0.28056	0.16561	0.3185	0.16824	0.0331	0.14777	0.15531	0.26341	0.34311	0.11699	0.25779	0.05	0.17083	-0.89167	-0.32083	-0.35625	-0.89583	-0.14583	-1.0708	-0.51667	-0.04375	-0.96667	-0.3	-0.46667	-0.93125	-0.13125	-0.98958	21.846	212.574	84.088	255.180	0.385	67.996	73.176	243.951	163.988	-9.147	-59.405	66.597	142.953	-58.223	171.183	227.226	0.00014428	0.00060831	0.00011575	1118.9	1.2558e-06	5.0051e-06	667.83	369.17	2.266e-06	2.0573e-06	221.27	75.427	131.45	60.538	2.4888e-06	37.647	0.00033974	0.00035044	9.4709e-05	1038.6	3.709e-06	3.7075e-06	623.53	345.14	3.7929e-06	3.7609e-06	207.84	71.77	124.06	57.176	3.9232e-06	35.544	257.839	29.942	77.503	-87.821	118.965	75.759	-89.446	-82.048	219.407	53.242	-85.407	-82.070	-77.289	-73.212	66.594	-78.438	-8191	255	
21598.879	1	1	0	0	0.17779	0.09652	0.21826	0.18894	0.18794	0.13502	0.024965	0.082413	0.027166	0.21537	0.11557	0.077525	0.14196	0.084551	0.16321	0.38852	-0.14375	-0.17292	-0.94167	-0.23333	-0.26667	-0.94792	-0.13958	-1.0104	-0.84167	0.075	-0.97708	-0.2	-0.47708	-1.0604	0.0125	-0.69375	-72.198	-9.140	-22.001	228.976	-89.574	245.849	-47.137	174.836	102.023	-85.508	180.579	135.046	255.514	171.689	115.042	165.210	0.00015099	0.0002975	0.00016243	1121.7	3.0501e-06	6.5942e-06	665.87	370.15	6.5896e-06	4.5132e-06	220.75	76.537	131.42	60.488	3.3033e-06	38.07	0.00035107	0.00036524	0.0001004	1042	3.9504e-06	3.9794e-06	623.82	345.48	4.0936e-06	4.1672e-06	207.82	72.252	124.03	57.135	4.1539e-06	35.665	235.462	11.456	-22.252	-88.005	49.694	-39.440	-89.735	-81.684	65.810	20.515	-85.941	-81.221	-77.315	-73.206	-62.247	-78.178	-8191	255	
21598.975	1	1	0	0	0.23408	0.26923	0.16188	0.37468	0.19523	0.21528	0.11366	0.11745	0.25404	0.1288	0.3053	0.17005	0.34018	0.3831	0.11251	0.18305	-0.28125	0.17083	-0.89792	-0.63958	-0.34583	-1.1333	-0.14583	-0.75625	-0.75208	0.0125	-0.86875	-0.59167	-0.37917	-0.93542	-0.29583	-0.475	-35.455	92.189	46.084	236.046	224.033	239.615	223.671	-52.921	240.913	61.511	-90.803	-38.097	-79.330	-62.501	256.810	208.272	0.00017449	0.00034301	0.00012736	1116.1	5.2199e-06	5.1522e-06	667.81	366.53	2.9478e-06	3.9924e-06	221.18	74.491	131.69	60.163	2.7924e-06	37.476	0.00036266	0.00037897	0.00010342	1040.8	4.0576e-06	4.0464e-06	623.76	343.95	3.9885e-06	3.8653e-06	206.8	71.243	123.89	56.933	3.8941e-06	35.243	234.551	20.202	-18.105	-87.862	48.312	26.993	-89.854	-81.900	196.353	111.769	-85.512	-81.339	-77.459	-73.316	99.487	-78.181	-8191	255	
21599.096	1	1	0	0	0.11686	0.26594	0.085528	0.19277	0.025611	0.31261	0.16009	0.15402	0.25784	0.20555	0.24618	0.29963	0.19481	0.26447	0.014779	0.23999	-0.55833	-0.14792	-0.78542	-0.87708	-0.1	-1.0938	-0.37708	-0.41042	-0.99375	-0.20625	-0.90417	-0.61042	-0.15208	-0.87083	-0.26667	-0.37083	19.987	221.317	152.763	235.183	62.845	28.495	98.237	250.063	204.390	29.882	63.983	-82.257	-40.303	-84.975	20.618	250.193	0.0001605	0.00067165	8.8204e-05	1110.1	1.7535e-06	4.9139e-06	657.39	366.57	3.0151e-06	3.7373e-06	219.6	74.657	131.71	60.451	2.2603e-06	37.448	0.00032892	0.00035198	9.4002e-05	1034.2	3.6889e-06	3.6606e-06	616.6	343.09	3.709e-06	3.7563e-06	206.08	71.013	123.5	56.983	3.7893e-06	35.215	-92.254	-33.482	-41.170	-87.734	218.034	-2.470	-89.661	-81.987	28.392	32.475	-85.468	-81.517	-77.405	-73.005	-48.027	-78.352	-8191	255	
21599.191	1	1	0	0	0.073557	0.082946	0.12935	0.058776	0.091825	0.10725	0.2167	0.25441	0.066395	0.24304	0.259	0.1577	0.12729	0.30948	0.10163	0.16972	-0.5625	-0.095833	-0.81458	-0.75833	0.014583	-0.925	-0.44167	-0.55833	-0.875	-0.21458	-0.72292	-0.64583	-0.05625	-0.975	-0.49792	-0.2125	86.057	109.030	-32.149	-66.398	-15.338	101.586	103.716	237.249	-93.766	-92.520	180.155	67.485	-72.285	214.354	-11.592	215.652	0.00010123	0.00055853	3.1056e-05	1111.6	2.2318e-06	7.6374e-06	662.23	366.95	1.8531e-06	6.8674e-07	221.6	75.467	131.68	60.062	5.3405e-06	37.543	0.00032819	0.0003382	9.4416e-05	1034.1	3.859e-06	3.7617e-06	617.17	343.32	3.7592e-06	3.7745e-06	206.02	71.327	123.63	56.961	3.9354e-06	35.348	254.422	-9.372	155.415	-87.742	28.401	59.857	-89.817	-81.734	92.996	109.220	-85.627	-81.756	-77.222	-73.330	44.584	-77.761	-8191	255	
21599.287	1	1	0	0	0.013541	0.12512	0.26566	0.29862	0.068648	0.049334	0.065499	0.17148	0.22861	0.19971	0.024723	0.078786	0.19801	0.21576	0.059542	0.20084	-0.71667	-0.17292	-0.28333	-0.79583	-0.06875	-0.88125	-0.63125	-0.36875	-0.95	-0.13125	-0.63125	-0.95625	-0.12708	-0.98542	-0.71667	-0.064583	-92.635	68.913	-80.058	227.699	170.856	259.234	14.268	-73.457	-76.698	24.830	28.408	131.697	142.043	-42.821	-2.661	242.584	0.0001407	0.00011655	8.5293e-05	1114	2.3939e-06	5.1029e-06	665.09	366.75	2.3916e-06	2.8316e-06	222.2	75.969	131.47	60.512	4.6749e-06	37.843	0.00034092	0.00036371	9.7616e-05	1036.1	3.9125e-06	3.8187e-06	620.3	343.48	3.8071e-06	3.7435e-06	207.33	71.698	123.88	57.157	3.7739e-06	35.539	238.861	-75.633	-20.658	-87.796	76.186	39.258	-89.265	-82.073	76.324	84.294	-85.136	-81.026	-77.511	-73.237	182.466	-77.807	-8191	255	
21599.383	1	1	0	0	0.32296	0.19929	0.12776	0.22691	0.16205	0.22749	0.17031	0.069038	0.11518	0.13515	0.038636	0.27404	0.094054	0.2047	0.29794	0.3267	-0.60208	-0.17708	-0.3375	-1.0354	-0.025	-0.90417	-0.9875	-0.28125	-1.0854	-0.47708	-0.42083	-1.0063	-0.25417	-0.86042	-0.58125	-0.05625	-1.965	167.524	231.787	159.151	131.661	-83.560	156.427	120.730	44.990	158.270	109.783	-58.276	166.306	193.223	-27.104	220.627	0.00011082	0.00032992	0.00018421	1116.5	9.5303e-06	5.2613e-06	671.6	369.31	3.1122e-06	6.5966e-06	222.22	75.889	130.36	60.505	5.0769e-06	37.531	0.00032326	0.00034802	9.4314e-05	1038.1	3.8046e-06	3.7205e-06	624.8	344.68	3.7449e-06	3.7324e-06	207.11	71.752	123.56	57.125	3.8509e-06	35.292	230.965	-67.878	-9.523	-87.813	42.430	25.197	-90.018	-82.119	12.488	24.461	-85.368	-81.234	-77.616	-73.047	56.922	-77.974	-8191	255	
21599.479	1	1	0	0	0.25572	0.13794	0.19605	0.31557	0.2211	0.22479	0.17425	0.3686	0.24453	0.071709	0.24392	0.19215	0.048124	0.15273	0.21222	0.14993	-0.60625	-0.40625	-0.17083	-1.1354	-0.11667	-0.51458	-0.79167	-0.13125	-0.96875	-0.40625	-0.15833	-0.92917	-0.20833	-0.775	-0.69792	-0.06875	-17.355	28.020	242.149	-67.771	149.172	8.891	172.026	209.548	123.623	136.844	-95.931	-69.666	-71.344	222.422	167.274	236.725	0.00014299	0.00048931	0.00019665	1106.6	9.0968e-06	6.2267e-06	664.22	365.35	2.6333e-06	6.1364e-06	219.87	74.78	131.17	60.193	1.9697e-06	37.495	0.00032803	0.00034195	9.4012e-05	1031.9	3.7156e-06	3.6556e-06	618.21	342.01	3.6614e-06	3.6493e-06	205.71	71.018	123.5	56.832	3.7282e-06	35.125	247.328	-4.726	14.649	-87.604	28.357	43.952	-89.754	-81.916	-28.018	72.236	-85.214	-81.381	-77.333	-73.112	13.235	-78.331	-8191	255	
#DATA ENDS
