BOXY.EXE: ISS Imagent and Oximeter Data Acquisition Program Version 0.80
Ascii Record File

#ACQ INFORMATION
2  Detector Channels 
16  External MUX Channels 
1  Auxiliary Channels 
5000  Waveform (CCF) Frequency (Hz)
1  Waveforms Skipped 
30  Waveforms Averaged 
1  Cycles Averaged 
16  Acquisitions per Waveform 
10.0806  Updata Rate (Hz) 

#FILE INFORMATION
TRUE -- External MUX Channel results are PARSED.
FALSE -- AC DC and Phase are NOT grouped.
TRUE -- Companion Program Settings File CREATED.
FALSE -- AC data not excluded
FALSE -- DC data not excluded
FALSE -- Phase data not excluded
FALSE -- Auxillary Chn. data not excluded
Tab delimiters

#CALIBRATION STATE
TRUE -- Waveform Calibration Values APPLIED.


#AUX CALIBRATION VALUES
Val Type	aux-1	

Term	1.0000e+00	
Factor	0.0000e+00	


#WF CALIBRATION VALUES
A = Detector Channel
Val Type	A-AC1	A-AC2	A-AC3	A-AC4	A-AC5	A-AC6	A-AC7	A-AC8	A-AC9	A-AC10	A-AC11	A-AC12	A-AC13	A-AC14	A-AC15	A-AC16	A-DC1	A-DC2	A-DC3	A-DC4	A-DC5	A-DC6	A-DC7	A-DC8	A-DC9	A-DC10	A-DC11	A-DC12	A-DC13	A-DC14	A-DC15	A-DC16	A-Ph1	A-Ph2	A-Ph3	A-Ph4	A-Ph5	A-Ph6	A-Ph7	A-Ph8	A-Ph9	A-Ph10	A-Ph11	A-Ph12	A-Ph13	A-Ph14	A-Ph15	A-Ph16	

Term	0.00000e+00	0.00000e+00	0.00000e+00	0.00000e+00	0.00000e+00	0.00000e+00	0.00000e+00	0.00000e+00	0.00000e+00	0.00000e+00	0.00000e+00	0.00000e+00	0.00000e+00	0.00000e+00	0.00000e+00	0.00000e+00	0.00000e+00	0.00000e+00	0.00000e+00	0.00000e+00	0.00000e+00	0.00000e+00	0.00000e+00	0.00000e+00	0.00000e+00	0.00000e+00	0.00000e+00	0.00000e+00	0.00000e+00	0.00000e+00	0.00000e+00	0.00000e+00	0.00000e+00	0.00000e+00	0.00000e+00	0.00000e+00	0.00000e+00	0.00000e+00	0.00000e+00	0.00000e+00	0.00000e+00	0.00000e+00	0.00000e+00	0.00000e+00	0.00000e+00	0.00000e+00	0.00000e+00	0.00000e+00	
Factor	1.00000e+00	1.00000e+00	1.00000e+00	1.00000e+00	1.00000e+00	1.00000e+00	1.00000e+00	1.00000e+00	1.00000e+00	1.00000e+00	1.00000e+00	1.00000e+00	1.00000e+00	1.00000e+00	1.00000e+00	1.00000e+00	1.00000e+00	1.00000e+00	1.00000e+00	1.00000e+00	1.00000e+00	1.00000e+00	1.00000e+00	1.00000e+00	1.00000e+00	1.00000e+00	1.00000e+00	1.00000e+00	1.00000e+00	1.00000e+00	1.00000e+00	1.00000e+00	X	X	X	X	X	X	X	X	X	X	X	X	X	X	X	X	

B = Detector Channel
Val Type	B-AC1	B-AC2	B-AC3	B-AC4	B-AC5	B-AC6	B-AC7	B-AC8	B-AC9	B-AC10	B-AC11	B-AC12	B-AC13	B-AC14	B-AC15	B-AC16	B-DC1	B-DC2	B-DC3	B-DC4	B-DC5	B-DC6	B-DC7	B-DC8	B-DC9	B-DC10	B-DC11	B-DC12	B-DC13	B-DC14	B-DC15	B-DC16	B-Ph1	B-Ph2	B-Ph3	B-Ph4	B-Ph5	B-Ph6	B-Ph7	B-Ph8	B-Ph9	B-Ph10	B-Ph11	B-Ph12	B-Ph13	B-Ph14	B-Ph15	B-Ph16	

Term	0.00000e+00	0.00000e+00	0.00000e+00	0.00000e+00	0.00000e+00	0.00000e+00	0.00000e+00	0.00000e+00	0.00000e+00	0.00000e+00	0.00000e+00	0.00000e+00	0.00000e+00	0.00000e+00	0.00000e+00	0.00000e+00	0.00000e+00	0.00000e+00	0.00000e+00	0.00000e+00	0.00000e+00	0.00000e+00	0.00000e+00	0.00000e+00	0.00000e+00	0.00000e+00	0.00000e+00	0.00000e+00	0.00000e+00	0.00000e+00	0.00000e+00	0.00000e+00	-9.65827e+01	-1.43805e+02	-1.39444e+02	-1.81677e+02	-5.59979e+01	-8.92971e+01	-1.59950e+02	-1.62015e+02	-5.08740e+01	-7.88643e+01	-1.72352e+02	-1.71128e+02	-1.81284e+02	-1.77091e+02	-7.77532e+01	-1.49524e+02	
Factor	1.36684e-05	1.02022e-04	2.72554e-05	1.62761e-01	7.49054e-07	1.57017e-06	1.72592e-01	4.32996e-02	7.46595e-07	8.31903e-07	7.37064e-02	2.64361e-02	3.12763e-02	7.71586e-03	1.03788e-06	1.11046e-02	1.01505e-06	1.06720e-06	2.95085e-07	8.33522e-02	1.16206e-08	1.16285e-08	8.30791e-02	2.23858e-02	1.15920e-08	1.16152e-08	3.63287e-02	1.30762e-02	1.58931e-02	3.95424e-03	1.15352e-08	5.46625e-03	X	X	X	X	X	X	X	X	X	X	X	X	X	X	X	X	



#DISTANCE SETTINGS
A = Detector Channel
A-1	A-2	A-3	A-4	A-5	A-6	A-7	A-8	A-9	A-10	A-11	A-12	A-13	A-14	A-15	A-16	

2.5000e+00	3.0000e+00	2.5000e+00	3.0000e+00	2.0000e+00	3.0000e+00	1.5000e+00	3.0000e+00	3.0000e+00	3.0000e+00	3.0000e+00	3.0000e+00	3.0000e+00	3.0000e+00	1.5000e+00	3.0000e+00	

B = Detector Channel
B-1	B-2	B-3	B-4	B-5	B-6	B-7	B-8	B-9	B-10	B-11	B-12	B-13	B-14	B-15	B-16	

1.0000e+01	1.0000e+01	1.0000e+01	1.4400e+00	1.0000e+01	1.0000e+01	1.5100e+00	1.9400e+00	1.0000e+01	1.0000e+01	1.9900e+00	2.4900e+00	2.4100e+00	2.9000e+00	1.0000e+01	2.9800e+00	




#DATA BEGINS
time	group	step	mark	flag	A-AC1	A-AC2	A-AC3	A-AC4	A-AC5	A-AC6	A-AC7	A-AC8	A-AC9	A-AC10	A-AC11	A-AC12	A-AC13	A-AC14	A-AC15	A-AC16	A-DC1	A-DC2	A-DC3	A-DC4	A-DC5	A-DC6	A-DC7	A-DC8	A-DC9	A-DC10	A-DC11	A-DC12	A-DC13	A-DC14	A-DC15	A-DC16	A-Ph1	A-Ph2	A-Ph3	A-Ph4	A-Ph5	A-Ph6	A-Ph7	A-Ph8	A-Ph9	A-Ph10	A-Ph11	A-Ph12	A-Ph13	A-Ph14	A-Ph15	A-Ph16	B-AC1	B-AC2	B-AC3	B-AC4	B-AC5	B-AC6	B-AC7	B-AC8	B-AC9	B-AC10	B-AC11	B-AC12	B-AC13	B-AC14	B-AC15	B-AC16	B-DC1	B-DC2	B-DC3	B-DC4	B-DC5	B-DC6	B-DC7	B-DC8	B-DC9	B-DC10	B-DC11	B-DC12	B-DC13	B-DC14	B-DC15	B-DC16	B-Ph1	B-Ph2	B-Ph3	B-Ph4	B-Ph5	B-Ph6	B-Ph7	B-Ph8	B-Ph9	B-Ph10	B-Ph11	B-Ph12	B-Ph13	B-Ph14	B-Ph15	B-Ph16	aux-1	digaux	

2930.633	1	1	0	256	0.12451	0.13619	0.040187	0.19937	0.043169	0.13396	0.21357	0.24752	0.27378	0.14278	0.20341	0.21136	0.16222	0.26932	0.111	0.2535	-0.81667	-0.325	-1.0771	-0.775	-0.41458	-1.3625	-0.78333	-0.825	-1.4417	-0.31042	-1.2687	-1.3125	-0.5875	-1.3229	-0.74167	-0.65417	-96.023	-65.166	13.115	149.718	79.325	-27.925	-122.342	184.118	198.515	151.266	186.387	216.028	217.942	209.212	192.806	115.276	0.00022905	0.0025175	0.00031009	769.55	6.8779e-06	1.975e-05	912.33	289.8	1.7854e-05	8.8603e-06	401.7	148.24	98.092	42.116	2.3792e-05	71.77	0.0029184	0.0031387	0.00096587	1012.4	3.2352e-05	3.611e-05	1171.2	355.1	3.3859e-05	3.6375e-05	510.91	186.23	139.11	54.175	3.8012e-05	86.149	-119.322	163.687	-59.298	-110.293	-25.821	199.711	-111.321	-105.847	17.873	213.825	-107.125	-102.654	-102.008	-96.613	31.981	-97.866	-8191	255	
2930.754	1	1	0	0	0.048971	0.15529	0.035753	0.15618	0.17242	0.13561	0.28452	0.37941	0.068666	0.13615	0.054596	0.049858	0.13262	0.1234	0.10871	0.12272	-1.0333	-0.43333	-0.93333	-1.0583	-0.17708	-1.2771	-0.86042	-0.71042	-1.2146	-0.31458	-0.97083	-1.1771	-0.40417	-1.3854	-0.65417	-0.6875	56.599	26.979	-26.229	198.951	163.493	-113.726	217.865	207.398	-33.294	158.811	178.255	212.119	225.037	125.135	61.401	107.933	0.00042578	0.0036291	0.00037222	765.21	2.7071e-06	1.7814e-05	901.64	289.64	1.2866e-05	3.582e-06	398.02	146.83	97.454	42.291	8.5541e-06	71.238	0.0028905	0.0033484	0.00092625	998.26	3.0837e-05	3.5881e-05	1139.4	347.18	3.103e-05	3.4899e-05	493.17	180.48	135.29	53.383	3.4082e-05	84.046	-119.047	147.316	-13.349	-110.786	108.990	187.383	-111.556	-105.707	-40.886	110.746	-107.075	-102.556	-101.257	-96.504	16.269	-97.862	-8191	255	
2930.850	1	1	0	0	0.074919	0.084922	0.21587	0.072197	0.09795	0.19687	0.22481	0.3546	0.44806	0.10023	0.026977	0.24126	0.1553	0.2713	0.24043	0.47967	-0.80417	-0.51458	-0.81875	-1.4937	-0.37083	-1.0896	-1.0833	-0.44583	-1.2083	-0.7375	-1.1271	-1.4271	-0.5375	-1.0667	-1.0312	-0.38333	125.856	-114.966	86.588	-102.905	15.060	-21.413	232.920	216.285	-44.616	38.272	64.226	-119.680	-21.939	-95.354	219.753	201.156	0.00050819	0.00011095	0.00037977	768.24	1.2629e-05	1.7827e-05	913.43	292.64	1.0549e-05	6.609e-06	404.35	148.24	98.286	42.656	8.4481e-06	71.978	0.0027702	0.0032806	0.00085735	984.67	3.1395e-05	3.5939e-05	1136.4	346.88	3.1974e-05	3.536e-05	492.35	179.69	137.45	53.224	3.119e-05	83.131	-123.111	-96.348	22.799	-110.944	202.382	157.412	-111.050	-105.632	-68.614	-92.964	-107.172	-102.738	-101.701	-96.173	-21.876	-97.984	-8191	255	
2930.946	1	1	0	0	0.14554	0.23697	0.15278	0.3216	0.026335	0.14467	0.39751	0.20502	0.077035	0.025734	0.30776	0.24492	0.26467	0.362	0.16361	0.2481	-0.85417	-0.80417	-0.6375	-1.5458	-0.36875	-1.0875	-1.1333	-0.70625	-1.2687	-0.7125	-0.74375	-1.5667	-0.5625	-1.1271	-1.0229	-0.6	1.788	-57.611	-47.293	193.110	-5.293	229.671	170.315	233.345	195.938	108.403	188.228	228.904	216.949	-89.345	49.765	141.248	0.00053665	0.00036405	0.0002161	774.36	7.949e-06	9.235e-06	912.14	297.08	4.1241e-06	7.0504e-06	408.32	149.21	100.02	42.885	1.1103e-05	71.91	0.0027221	0.0030356	0.00076663	963.56	3.0861e-05	3.2702e-05	1119.8	345.43	3.1953e-05	3.3147e-05	490.33	179.28	140.53	52.843	3.0139e-05	83.176	218.616	-76.909	-46.445	-110.623	217.947	-63.073	-111.244	-105.551	-96.976	21.324	-107.125	-102.589	-101.480	-96.287	83.389	-98.048	-8191	255	
2931.042	1	1	0	0	0.24382	0.081928	0.059272	0.21931	0.21323	0.11561	0.067766	0.45946	0.11264	0.2068	0.025732	0.24867	0.027042	0.16043	0.11485	0.071913	-0.91458	-0.76875	-0.43333	-1.4708	-0.34167	-0.87083	-1.3021	-0.51667	-1.1729	-0.81042	-0.58542	-1.5229	-0.42708	-0.90833	-1.1375	-0.45625	84.543	-57.570	40.199	-115.601	-44.506	49.428	183.148	-121.097	210.861	193.309	-84.680	212.939	91.522	203.157	77.263	196.157	0.00051391	0.001273	0.00045137	776.01	9.7702e-06	1.0239e-05	906.39	289.21	7.2017e-06	1.3314e-05	398.59	145.45	97.325	41.416	1.6885e-05	69.941	0.0028144	0.0029124	0.0007271	954.41	3.1238e-05	3.0073e-05	1091.6	336.53	3.0533e-05	2.9311e-05	468.77	173.12	134.3	49.894	2.603e-05	79.981	221.143	-60.967	-24.659	-110.875	200.612	31.427	-111.158	-105.943	16.313	26.291	-107.227	-102.518	-101.305	-96.486	22.815	-97.995	-8191	255	
2931.136	1	1	0	0	0.049276	0.071173	0.13546	0.26903	0.15296	0.044013	0.18464	0.34072	0.23976	0.13348	0.39106	0.12645	0.35553	0.10727	0.16511	0.1187	-0.7375	-1.1271	-0.53333	-1.3917	-0.48333	-0.65208	-1.2979	-0.50417	-1	-0.72083	-0.57292	-1.5	-0.71458	-0.81458	-1.5229	-0.43333	51.321	85.182	-115.719	227.991	216.046	-9.420	221.069	120.263	-82.191	-5.164	118.510	167.775	-47.261	152.382	54.827	131.267	0.00046957	0.0010085	0.00030337	757.54	5.6232e-06	1.1038e-05	893.74	285.9	2.9384e-06	3.7606e-07	395.68	145.19	96.684	41.1	6.4445e-06	69.739	0.002553	0.0025248	0.00062869	929.3	2.8875e-05	2.6542e-05	1058.4	331.4	2.8323e-05	2.6757e-05	457.84	172.27	131.8	49.127	2.4107e-05	80.175	-123.708	-10.339	-62.242	-110.685	53.605	-39.104	-111.379	-106.057	150.145	-34.410	-107.224	-102.805	-101.535	-96.256	74.820	-97.992	-8191	255	
2931.233	1	1	0	0	0.22736	0.067904	0.26098	0.1941	0.10283	0.22007	0.17447	0.11803	0.26056	0.11848	0.16267	0.10496	0.14885	0.24514	0.32247	0.43553	-0.78958	-0.85208	-0.30625	-1.2313	-0.66875	-0.51458	-1.4604	-0.5625	-0.95	-1.3021	-0.35833	-1.1729	-0.61042	-0.71875	-1.3083	-0.55208	-29.605	59.947	-48.261	-108.335	70.801	-41.010	133.498	168.489	-65.071	212.687	169.821	89.834	210.516	234.284	-37.946	158.633	0.00018947	0.0014046	0.0002041	758.39	2.4477e-06	1.8408e-05	900.44	290.28	5.8398e-06	1.1629e-05	398.98	146.66	98.079	41.773	8.6912e-06	70.151	0.0024143	0.0023714	0.00058542	934.49	2.7332e-05	2.4749e-05	1052.3	336.66	2.6336e-05	2.503e-05	457.56	174.14	130.42	48.867	2.2831e-05	80.675	-116.691	-46.590	-54.891	-110.533	160.739	90.215	-111.442	-105.916	11.383	9.049	-107.188	-102.687	-101.631	-96.413	-106.666	-98.015	-8191	255	
2931.353	1	1	0	0	0.23875	0.20825	0.35003	0.27896	0.19121	0.24031	0.2272	0.23029	0.14227	0.15582	0.21577	0.14197	0.18097	0.15368	0.1448	0.22023	-0.38542	-1.0667	-0.29792	-1.1562	-0.65833	-0.475	-1.3438	-0.45417	-0.81875	-1.2938	-0.45833	-1.0854	-1.0771	-0.4625	-1.2917	-0.85208	38.342	71.317	217.999	-86.981	-31.331	-57.206	209.935	140.414	-59.629	25.106	162.783	192.493	148.427	183.182	-3.367	196.889	0.00035408	0.00069435	0.00019381	764.42	5.03e-06	1.8068e-05	897.31	286.96	1.6121e-06	6.8533e-06	397.61	145.52	97.091	40.963	9.0628e-06	69.327	0.0022111	0.002189	0.00056346	932.34	2.4856e-05	2.2413e-05	1041.9	332.59	2.3665e-05	2.2611e-05	452.79	171.58	126.12	47.337	2.2614e-05	79.207	-95.764	-37.527	199.122	-110.912	147.464	-67.866	-111.436	-105.929	-2.241	24.891	-107.351	-102.590	-101.554	-96.496	143.798	-98.240	-8191	255	
2931.449	1	1	0	0	0.13205	0.30555	0.10633	0.089283	0.11332	0.25833	0.088998	0.1552	0.14428	0.11003	0.2408	0.24669	0.25664	0.057613	0.031878	0.15696	-0.23333	-1.2542	-0.31667	-0.89583	-0.87917	-0.65208	-1.2938	-0.70208	-0.52708	-1.4521	-0.27083	-1.0375	-1.0063	-0.30625	-1.3271	-0.85625	204.955	-3.953	60.672	-100.133	225.333	107.462	-70.289	92.317	78.744	221.908	229.836	131.526	214.561	19.573	205.698	200.696	0.00046514	0.0013238	0.00010844	752.68	7.7185e-06	1.5927e-05	889.78	285.68	1.4937e-05	1.0561e-05	392.19	143.73	96.025	40.729	9.0734e-06	68.295	0.0020539	0.0020501	0.00058368	918.6	2.4356e-05	2.177e-05	1046.4	331.33	2.4091e-05	2.3103e-05	458.43	170.95	126.79	47.408	2.5492e-05	79.36	224.229	-48.283	163.781	-110.655	25.677	62.003	-111.322	-106.076	34.522	-29.693	-107.441	-102.515	-101.782	-96.430	204.568	-98.104	-8191	255	
2931.545	1	1	0	0	0.097063	0.11916	0.14867	0.35576	0.22374	0.18186	0.12328	0.2503	0.12262	0.16181	0.12673	0.25966	0.16165	0.40652	0.16609	0.27525	-0.19167	-1.0375	-0.52083	-0.87083	-0.99583	-0.33958	-1.3146	-0.80833	-0.44167	-1.2563	-0.48958	-0.93333	-1.2708	-0.38333	-1.1521	-0.88542	-4.106	216.186	-32.370	169.347	103.565	-18.582	70.661	214.974	-6.853	-25.482	209.391	175.486	-122.895	-65.326	-88.875	219.665	0.00034072	0.0010222	0.0001961	748.8	6.4355e-06	2.3912e-05	883.68	280.14	6.5626e-06	6.5127e-06	387.34	143.44	94.364	40.436	1.6545e-06	68.517	0.0021371	0.0021224	0.00065394	918.67	2.4718e-05	2.2175e-05	1054.8	326.32	2.3264e-05	2.2809e-05	456.98	167.96	123.54	46.974	2.529e-05	78.491	-105.383	17.219	75.705	-110.563	5.358	33.075	-111.270	-105.815	52.959	-1.321	-107.369	-102.570	-101.956	-96.632	-113.670	-98.007	-8191	255	
2931.642	1	1	0	0	0.084148	0.18052	0.16546	0.46921	0.067481	0.17358	0.071029	0.0692	0.20997	0.14468	0.25559	0.28122	0.20015	0.27778	0.18966	0.10526	-0.058333	-1.0938	-0.32917	-0.8125	-1.0187	-0.48958	-1.2625	-1.0333	-0.39583	-1.2271	-0.79583	-0.76875	-1.2167	-0.41875	-1.0292	-0.89375	118.754	232.802	16.657	201.681	211.684	78.293	230.684	-40.383	57.343	-90.379	-105.013	170.933	125.060	-2.684	-95.285	183.639	0.00024953	0.00035007	0.00019298	750.6	2.8158e-06	2.3871e-05	889.21	278.8	8.3391e-06	4.6276e-06	386.12	142.1	93.46	39.847	2.3239e-06	68.298	0.0019655	0.0020497	0.00064431	902.7	2.273e-05	2.1868e-05	1048.3	320.68	2.119e-05	2.2498e-05	453.68	165.19	120.59	46.625	2.4786e-05	77.541	-106.377	195.897	-10.340	-110.673	-32.455	229.383	-111.287	-105.977	81.022	179.918	-107.264	-102.824	-101.687	-96.802	1.869	-98.101	-8191	255	
2931.738	1	1	0	0	0.27833	0.12243	0.077435	0.23856	0.062578	0.4906	0.15986	0.06632	0.22388	0.43372	0.085053	0.14585	0.093422	0.24121	0.1275	0.16077	-0.022917	-1.0187	-0.67708	-0.525	-1.3937	-0.26875	-1.1437	-1.1958	-0.30208	-1.2062	-0.84375	-0.6375	-1.1583	-0.62292	-0.76042	-1.0667	168.082	-49.501	88.305	-75.465	19.926	-68.505	199.757	206.500	-13.342	-108.270	-40.293	88.741	116.339	214.415	177.143	79.006	0.00036431	0.00095684	0.00022228	745.88	3.8673e-06	3.3124e-05	878.21	275.02	8.5268e-06	1.1954e-05	381.95	141.04	92.28	39.488	1.0629e-05	67.435	0.0019032	0.0021996	0.00066029	896.97	2.3025e-05	2.4908e-05	1052.4	320.46	2.2556e-05	2.6062e-05	456.58	165.81	121.25	47.474	2.5818e-05	77.185	224.515	118.237	-63.475	-110.541	-50.983	209.709	-111.228	-105.965	42.935	233.551	-107.365	-102.554	-101.531	-96.767	22.945	-98.117	-8191	255	
2931.834	1	1	0	0	0.082265	0.23192	0.21841	0.2719	0.23267	0.1495	0.11371	0.16875	0.046988	0.089188	0.5001	0.25105	0.15603	0.44806	0.20695	0.19629	0.24792	-1.2333	-0.70833	-0.60833	-1.0458	-0.36875	-0.875	-0.99375	-0.42917	-1.1875	-1.0938	-0.38333	-1.3687	-0.65625	-0.73125	-1.1771	-108.975	113.076	94.425	196.035	28.129	135.211	200.168	221.080	41.472	-1.648	108.512	159.769	184.488	192.824	127.817	61.419	0.00031204	0.00037358	0.00034819	738.58	4.3331e-06	2.002e-05	867.7	271.23	1.0594e-05	4.1106e-06	376.16	138.49	90.636	38.908	7.6363e-06	66.193	0.0019726	0.0023971	0.0006633	887.4	2.3061e-05	2.6142e-05	1030.3	314.05	2.2245e-05	2.6236e-05	445.87	161.52	119.82	46.986	2.4611e-05	75.609	230.632	204.062	-64.310	-110.646	-80.226	106.460	-111.472	-106.128	217.305	-2.843	-107.269	-102.594	-101.624	-96.645	65.973	-98.080	-8191	255	
2931.930	1	1	0	0	0.27804	0.12509	0.039135	0.28856	0.17541	0.2012	0.19103	0.097141	0.12539	0.37205	0.035973	0.18516	0.042422	0.10323	0.34647	0.074484	0.175	-0.87917	-0.86667	-0.39583	-1.1396	-0.38958	-0.85625	-1.3854	-0.29583	-0.9875	-1.0312	-0.33958	-1.1562	-0.68958	-0.51042	-1.2729	207.803	233.517	176.254	-108.423	192.600	141.609	164.178	205.532	122.557	29.884	88.897	163.942	44.626	134.575	172.977	223.059	0.00040941	0.0010718	0.00038689	728.84	1.064e-05	1.1945e-05	858.37	266.34	8.944e-06	1.0672e-05	371.99	137.69	89.558	38.266	5.1009e-06	66.361	0.002049	0.0024481	0.00064579	876.43	2.4186e-05	2.6964e-05	1018.9	307.95	2.4028e-05	2.6733e-05	441.03	160.03	121.21	46.739	2.449e-05	75.384	214.509	-99.439	170.091	-110.493	223.348	221.012	-111.336	-106.002	144.861	65.735	-107.142	-102.477	-101.646	-96.779	22.319	-98.176	-8191	255	
2932.026	1	1	0	0	0.40335	0.2275	0.19221	0.074627	0.32985	0.029901	0.19388	0.36846	0.20752	0.18977	0.13261	0.11595	0.42413	0.12135	0.24845	0.12597	-0.010417	-0.8125	-1.1146	-0.37083	-1.1646	-0.65833	-0.56875	-1.1562	-0.29375	-0.86667	-1.0812	-0.43542	-1.3542	-0.91875	-0.69167	-1.2208	235.386	79.711	11.381	213.896	93.327	123.746	192.044	230.719	-13.057	176.350	-63.652	-65.656	-106.655	-123.182	-117.042	68.437	0.00047943	0.00079406	0.0001503	727.27	5.2914e-06	1.9637e-05	858.55	263.01	3.1882e-06	8.6408e-06	368.04	136.43	88.487	37.647	5.5899e-06	64.731	0.0022178	0.0024453	0.00064249	870	2.5763e-05	2.6677e-05	1012.2	304.14	2.524e-05	2.5442e-05	434.08	158.16	120.28	45.514	2.2633e-05	73.759	235.747	235.125	18.993	-110.627	-101.882	-30.910	-111.611	-105.795	201.221	38.678	-107.312	-102.736	-101.586	-96.791	-64.272	-98.004	-8191	255	
2932.145	1	1	0	0	0.26539	0.22282	0.20674	0.21738	0.20129	0.081962	0.14898	0.19831	0.12144	0.30371	0.17897	0.19826	0.084973	0.093131	0.12272	0.14762	-0.22083	-0.75208	-1.0833	-0.47708	-1.375	-0.83125	-0.6125	-1.3208	-0.65	-0.79375	-1.3979	-0.59583	-1.0833	-0.925	-0.4	-1.3333	-100.237	38.270	37.883	-28.601	-101.838	-102.639	83.081	224.025	28.804	200.938	235.713	2.412	60.124	197.221	152.192	215.846	0.00028143	0.0009151	0.00030547	713.48	6.0676e-06	2.5654e-05	852.79	262.1	5.7443e-06	9.9379e-06	368.34	135.42	88.79	37.845	1.448e-05	64.372	0.0022364	0.0022758	0.00060779	856.4	2.5913e-05	2.5399e-05	997.67	303.21	2.6086e-05	2.465e-05	431.76	158.57	121.77	45.526	2.2546e-05	74.124	220.978	-32.239	-68.401	-110.950	154.847	58.639	-111.071	-106.060	222.973	22.045	-107.428	-102.616	-101.547	-96.474	18.155	-98.358	-8191	255	
2932.241	1	1	0	0	0.12637	0.47746	0.19063	0.10306	0.14543	0.13087	0.19389	0.17891	0.2763	0.30109	0.18282	0.23151	0.13061	0.40243	0.25537	0.066638	-0.1375	-0.60208	-1.1333	-0.42083	-1.0208	-0.70833	-0.54583	-1.2104	-0.69167	-0.5875	-1.2479	-0.54375	-0.9875	-1.0875	-0.34167	-1.3708	96.407	5.738	131.363	109.325	-97.837	108.680	-105.980	195.779	-71.813	80.546	181.249	134.795	-69.655	148.343	173.463	-119.291	0.00037401	0.00042839	0.00031949	713.17	9.2606e-06	7.7218e-06	847.35	262.33	9.6654e-07	1.3542e-06	365.67	134.34	88.831	37.446	6.0161e-06	64.183	0.0023413	0.002246	0.0005919	868.08	2.6204e-05	2.4687e-05	987.95	304.94	2.6057e-05	2.3895e-05	425.88	159.63	120.49	44.968	2.1793e-05	74.295	-115.374	201.135	-89.095	-111.008	15.835	44.144	-111.613	-105.810	-40.514	-94.997	-107.182	-102.771	-101.265	-96.707	159.636	-98.016	-8191	255	
2932.315	1	1	0	0	0.23893	0.040469	0.13667	0.17334	0.15887	0.18893	0.30049	0.3638	0.057997	0.2263	0.097426	0.23742	0.16439	0.19998	0.097788	0.29454	-0.18542	-0.60833	-1.0542	-0.43958	-0.875	-1.0208	-0.0625	-1.2	-0.69792	-0.15	-1.275	-0.5125	-0.73958	-1.2875	-0.37917	-1.2125	-53.631	18.200	-71.528	-70.973	-22.914	147.187	167.958	-94.234	4.388	149.849	-107.022	126.916	-117.903	152.352	-88.852	196.112	0.00040931	0.001117	0.00016399	712.21	2.9679e-06	1.0977e-05	846.91	264.08	3.5799e-06	1.6452e-05	366.72	135.49	89.328	37.746	1.2545e-05	64.364	0.0022915	0.0021857	0.00057495	877.25	2.5201e-05	2.3924e-05	985.6	308.09	2.4839e-05	2.2576e-05	425.25	161.13	119	44.674	2.1391e-05	74.583	234.196	-23.091	-100.266	-110.800	42.554	73.094	-111.165	-105.816	70.542	11.952	-107.506	-102.964	-101.749	-96.692	224.739	-98.147	-8191	255	
2932.434	1	1	0	0	0.046922	0.098339	0.30051	0.20608	0.11446	0.071253	0.20332	0.22623	0.12997	0.16919	0.28648	0.11492	0.19542	0.36134	0.065111	0.20077	-0.48333	-0.5	-1.375	-0.56875	-0.62292	-1.0063	-0.34167	-1.1688	-1.0646	-0.17708	-1.4021	-0.5625	-0.75417	-1.1063	-0.30417	-1.1625	-71.729	134.569	111.692	-76.897	128.008	187.794	-121.514	-99.102	180.588	130.675	-116.474	169.143	54.725	192.738	-112.681	156.401	0.00020544	0.0016293	9.4302e-05	717.41	2.935e-06	6.6215e-06	847.24	263.04	1.0288e-05	8.1081e-06	367.93	137.08	89.776	38.061	1.1111e-05	64.913	0.0021705	0.0020618	0.00057679	885.47	2.4304e-05	2.323e-05	996.09	309.62	2.4676e-05	2.233e-05	432.8	163.88	119.8	45.091	2.3666e-05	75.837	-102.901	-73.986	117.394	-110.873	-12.897	-23.937	-111.910	-106.101	97.418	21.812	-107.558	-103.119	-101.944	-96.996	177.076	-98.409	-8191	255	
2932.530	1	1	0	0	0.17929	0.015519	0.039996	0.13165	0.092832	0.21861	0.18621	0.2947	0.094074	0.13694	0.13383	0.23871	0.19532	0.17558	0.087419	0.25542	-0.45	-0.2625	-1.25	-0.63542	-0.56042	-1.2833	-0.60208	-0.89375	-1.0667	-0.40417	-1.3563	-0.65833	-0.79583	-1.2875	-0.42708	-0.99375	90.660	-63.786	102.416	193.032	232.916	-68.896	231.594	176.301	155.658	-111.262	136.379	-118.241	192.390	-38.142	133.058	152.451	0.00030412	0.00026455	0.0002756	720.23	4.6287e-06	1.7767e-05	852.95	265.56	4.9836e-06	8.8174e-06	369.06	135.71	89.835	37.725	1.5302e-05	64.416	0.0022231	0.0020706	0.00063269	894.86	2.4405e-05	2.3177e-05	1012.5	311.91	2.4379e-05	2.1621e-05	435.96	161.97	117.78	44.43	2.4266e-05	74.259	230.110	4.527	147.650	-111.252	73.637	-47.263	-111.687	-106.092	-9.715	41.715	-107.679	-102.987	-101.973	-96.872	174.946	-98.394	-8191	255	
2932.626	1	1	0	0	0.22907	0.12815	0.21506	0.09901	0.24354	0.10122	0.20883	0.25458	0.15631	0.25855	0.31045	0.13173	0.18566	0.2441	0.091707	0.15548	-0.48333	-0.23958	-1.2271	-0.82083	-0.26458	-1.2417	-0.6875	-0.96667	-0.89375	-0.27083	-1.1625	-0.96458	-0.5875	-1.2042	-0.23333	-0.78542	30.336	-0.070	82.811	225.208	63.640	-11.113	-59.751	162.314	44.113	-5.911	-112.138	155.946	216.055	-97.001	141.978	215.577	0.00025897	0.0010613	0.00035727	717.3	6.9451e-06	1.4597e-05	852.81	266.82	3.9588e-06	5.7324e-06	373.73	136.83	90.913	38.078	7.0102e-06	64.77	0.0020837	0.0019647	0.00063646	882.55	2.2888e-05	2.2333e-05	1015.3	309.95	2.3329e-05	2.1575e-05	439.14	161.27	117.34	44.898	2.4743e-05	74.049	231.434	197.090	78.622	-110.911	-16.697	-84.364	-111.704	-106.019	63.586	221.566	-107.675	-102.827	-101.507	-96.878	213.252	-98.243	-8191	255	
2932.746	1	1	0	0	0.23779	0.2508	0.090629	0.084711	0.26587	0.23492	0.13213	0.20373	0.22178	0.12772	0.32864	0.10764	0.20708	0.32174	0.14823	0.19433	-0.85625	-0.25833	-1.05	-0.96042	-0.32708	-1.0667	-0.56875	-0.77917	-1.0271	-0.25	-0.84792	-1.0604	-0.3875	-1.1875	-0.75417	-0.70625	-1.780	179.108	-93.625	34.883	113.535	26.242	127.172	186.298	-51.508	200.391	-46.843	123.521	4.618	168.628	102.922	66.841	0.00040197	0.00076594	1.8147e-05	722.51	5.6023e-06	1.5581e-05	853.55	266.88	2.0178e-06	7.4064e-06	372.56	137.91	91.07	38.365	9.6227e-06	65.614	0.0019929	0.0020062	0.00063313	876.35	2.1526e-05	2.282e-05	1018	308.04	2.2213e-05	2.2533e-05	439.5	161.32	116.43	45.52	2.4687e-05	74.205	-111.457	5.513	-41.766	-111.108	27.419	208.477	-111.668	-105.983	96.592	216.592	-107.550	-102.975	-102.071	-96.864	48.076	-98.364	-8191	255	
2932.843	1	1	0	0	0.26752	0.069982	0.015733	0.11193	0.051962	0.041224	0.2401	0.15531	0.04408	0.20123	0.33469	0.24965	0.14653	0.16133	0.13299	0.43187	-0.68125	-0.56042	-0.93542	-1.2	-0.53125	-1.1396	-0.76875	-0.65417	-1.1104	-0.4	-1.0146	-1.1896	-0.40833	-1.4104	-0.33958	-0.66458	-44.936	-37.758	88.053	121.064	63.581	36.484	198.204	207.104	-66.079	0.226	145.704	141.397	-113.409	91.691	-92.563	224.208	0.00032019	0.00070493	0.00024588	723.15	1.0293e-05	5.7502e-06	856.24	267.01	6.3033e-06	1.6302e-06	370.05	136.43	89.308	38.04	6.2796e-06	64.747	0.0019063	0.0021129	0.00061801	870.01	2.0385e-05	2.33e-05	1010.7	305.17	2.093e-05	2.3183e-05	433.7	158.93	114.3	45.357	2.4051e-05	73.266	-120.618	162.075	230.769	-110.879	30.444	-96.832	-111.503	-106.067	109.442	203.445	-107.556	-103.242	-102.039	-97.059	-93.859	-98.316	-8191	255	
2932.914	1	1	0	0	0.28935	0.10265	0.12399	0.11871	0.13707	0.27224	0.45136	0.12586	0.29708	0.2612	0.37563	0.094421	0.23401	0.21181	0.2485	0.078741	-0.97708	-0.33958	-0.72708	-1.3125	-0.34583	-1.0396	-0.87917	-0.63542	-1.2625	-0.42917	-1.0312	-1.15	-0.45417	-0.87083	-0.88542	-0.45417	52.843	-48.498	231.345	158.566	48.597	-15.828	183.266	55.799	-11.087	93.750	-106.391	-102.056	172.862	228.723	115.547	-58.692	0.00036072	0.001596	0.00020981	717.04	4.2257e-06	1.0219e-05	845.23	262.83	1.8566e-06	6.7302e-06	363.51	134.39	87.458	37.166	1.4806e-05	63.572	0.0019028	0.0022476	0.00060693	863.8	2.1185e-05	2.5115e-05	1005.1	301.55	2.2289e-05	2.5312e-05	428.5	157.14	114.92	45.182	2.4249e-05	72.126	227.289	175.209	-99.698	-111.238	175.548	88.387	-111.577	-106.123	220.026	-92.009	-107.733	-102.980	-101.908	-96.896	43.077	-98.329	-8191	255	
2933.035	1	1	0	0	0.16302	0.089004	0.11351	0.1236	0.11907	0.28589	0.24063	0.23064	0.17892	0.13842	0.017268	0.24533	0.1079	0.087262	0.067716	0.17151	-0.89375	-0.38542	-0.67292	-1.3208	-0.13958	-0.90625	-1.1417	-0.35833	-1.3	-0.52083	-0.54792	-1.2938	-0.45833	-1.0271	-0.725	-0.6	117.120	58.503	-72.581	-75.498	9.964	10.053	22.614	-102.046	-53.867	-123.519	-96.582	126.486	224.713	213.605	-36.315	-106.619	0.00035838	0.00051202	0.00041459	705.46	1.4568e-05	7.0218e-06	829.38	256.87	8.1157e-06	3.1599e-06	354.35	131.45	85.51	36.228	1.1807e-05	61.988	0.0020347	0.0023502	0.00060324	849.88	2.2892e-05	2.5461e-05	989.47	294.23	2.3704e-05	2.5715e-05	419.18	154.33	115.23	44.116	2.4026e-05	70.626	-124.223	-9.231	-43.244	-111.333	-114.208	-47.238	-111.915	-106.263	-107.130	-35.871	-107.392	-102.747	-102.061	-97.040	-32.817	-98.624	-8191	255	
2933.129	1	1	0	0	0.18883	0.26993	0.13459	0.23928	0.17416	0.071437	0.15035	0.18357	0.0082186	0.31576	0.068168	0.29655	0.27398	0.26824	0.17023	0.092202	-0.70833	-0.56667	-0.325	-1.0979	-0.3875	-0.76042	-1.1437	-0.21458	-1.3292	-0.83333	-0.45625	-1.2667	-0.6375	-0.93542	-1.1979	-0.51667	208.423	150.333	-46.360	159.747	190.592	129.154	189.906	-45.458	145.222	-112.425	139.125	-116.715	209.560	192.954	-8.968	213.884	0.00033448	0.00086131	0.00031423	690.22	8.0631e-06	1.7282e-05	813.14	246.12	4.3099e-06	5.1233e-06	345.65	128.16	82.958	35.339	1.5631e-05	61.423	0.0021533	0.0023326	0.0005851	830.05	2.4041e-05	2.4367e-05	964.01	282.84	2.4286e-05	2.4511e-05	406.1	149.96	113.48	42.64	2.2832e-05	69.437	222.094	-37.585	-28.888	-111.204	-107.858	-29.658	-111.699	-106.177	197.690	50.218	-107.666	-102.821	-102.105	-96.984	17.032	-98.553	-8191	255	
2933.225	1	1	0	0	0.12313	0.14002	0.15824	0.26089	0.10557	0.032886	0.18953	0.25976	0.1329	0.29106	0.15175	0.13269	0.39555	0.10173	0.13345	0.37436	-0.8	-0.65417	-0.49375	-1.2313	-0.36875	-0.6375	-1.3979	-0.39792	-1.1896	-0.88542	-0.39792	-1.2229	-0.45208	-0.88333	-1.0521	-0.3875	-44.725	144.423	151.782	-114.459	108.107	216.580	78.251	-107.777	-15.005	70.274	4.312	206.128	152.156	156.015	-21.431	-95.316	0.00029489	0.00091812	0.0002863	680.59	6.8139e-06	4.9512e-06	812.62	243.68	5.1577e-06	2.983e-06	344.21	126.88	82.001	34.971	1.0458e-05	60.047	0.0021976	0.0022499	0.00056674	827.52	2.5351e-05	2.4091e-05	962.73	283.29	2.5561e-05	2.4545e-05	403.42	150.52	114.76	42.295	2.2776e-05	69.281	-120.711	-29.555	-74.088	-111.218	-39.150	-57.719	-111.508	-106.081	-5.854	-2.099	-107.637	-103.055	-101.944	-96.858	44.779	-98.526	-8191	255	
2933.322	1	1	0	0	0.1683	0.26011	0.058892	0.20607	0.18153	0.058974	0.040578	0.087478	0.21172	0.34875	0.23581	0.31683	0.072798	0.12723	0.24071	0.18637	-0.69583	-0.6	-0.46667	-1.2062	-0.60208	-0.79583	-1.2188	-0.58542	-0.74792	-1.0187	-0.35208	-1.3042	-0.48542	-0.61042	-1.1979	-0.61458	-90.669	81.181	234.035	174.541	37.518	3.066	152.475	231.128	111.175	32.834	161.939	-97.096	218.128	20.335	-90.416	86.170	0.00033407	0.0018387	0.00072644	672.56	2.9022e-06	2.4197e-05	797.68	239.6	7.6793e-06	9.3218e-07	337.21	124.25	80.617	34.319	8.0669e-06	59.007	0.0022525	0.0022382	0.00055755	831.23	2.6063e-05	2.4032e-05	947.2	282.87	2.5936e-05	2.4905e-05	397.08	150.57	113.95	41.646	2.2896e-05	69.493	-108.389	-74.951	-58.873	-111.372	58.072	15.267	-111.597	-106.289	15.840	-0.813	-107.500	-103.029	-101.959	-97.182	37.124	-98.704	-8191	255	
2933.442	1	1	0	0	0.18088	0.16688	0.22125	0.15519	0.23174	0.1411	0.23035	0.23212	0.17345	0.20578	0.11702	0.21146	0.21296	0.079367	0.31344	0.16866	-0.51458	-0.99583	-0.27292	-1.2417	-0.52083	-0.63542	-1.4562	-0.62708	-0.68958	-1.125	-0.38333	-0.9375	-0.85208	-0.61042	-1.2271	-0.775	182.332	208.309	-110.602	106.201	206.925	-23.450	188.407	84.803	145.154	66.705	-61.885	214.768	212.096	213.523	89.954	167.704	0.00033636	0.00083954	0.00022044	668.14	3.9245e-06	7.7347e-06	799.86	237.11	5.9921e-06	1.0721e-05	334.7	123.93	80.596	33.844	9.3171e-06	58.753	0.0022956	0.0023035	0.00057333	844.93	2.6678e-05	2.4459e-05	953.63	285.82	2.6193e-05	2.5315e-05	399.15	152.33	113.71	41.371	2.415e-05	70.105	-101.406	-16.308	-16.517	-111.251	177.917	4.380	-111.970	-106.080	94.981	18.181	-107.609	-102.793	-102.244	-97.050	199.514	-98.563	-8191	255	
2933.538	1	1	0	0	0.10015	0.10448	0.36608	0.1232	0.23359	0.17003	0.2456	0.19836	0.06099	0.070307	0.28409	0.12365	0.16096	0.24768	0.049323	0.21327	-0.65208	-1.1313	-0.35	-1.05	-0.86667	-0.46667	-1.4438	-0.7125	-0.67708	-1.2104	-0.44375	-1	-0.96667	-0.33333	-1.2333	-0.86875	-107.354	-85.741	15.592	227.441	-30.732	-42.480	131.937	161.247	47.545	193.326	159.825	-90.686	-97.330	-77.713	-108.073	-16.062	0.00024722	0.0010511	0.00019953	661.47	3.4098e-06	3.8426e-05	789.55	230.73	1.141e-05	8.198e-06	329.33	122.19	77.371	33.131	1.2889e-05	57.538	0.0022985	0.0023034	0.0006132	843.93	2.6524e-05	2.4136e-05	952.99	282.26	2.6045e-05	2.4935e-05	398.79	151.62	112.01	40.523	2.6331e-05	69.603	210.787	-30.310	101.360	-111.329	58.922	0.348	-111.649	-106.494	33.175	-54.413	-107.211	-102.855	-101.815	-97.149	190.155	-98.712	-8191	255	
2933.610	1	1	0	0	0.2335	0.1042	0.1319	0.20653	0.34285	0.11296	0.087512	0.15025	0.23572	0.18726	0.20229	0.018562	0.12098	0.090045	0.27345	0.06874	-0.32083	-1.0583	-0.21667	-1.0896	-0.89167	-0.39167	-1.1521	-0.76667	-0.67292	-1.2687	-0.51458	-0.82292	-0.87708	-0.31458	-1.1229	-0.94583	33.957	-34.060	12.355	200.960	-43.506	-74.016	210.747	150.115	-36.261	167.978	-38.166	208.692	-31.999	210.975	24.880	128.902	0.00035105	0.0011337	0.00013151	648.46	5.1998e-06	1.6666e-05	772.24	223.87	2.2975e-06	8.4117e-06	318.92	118.21	75.672	31.866	4.021e-06	56.028	0.0023375	0.0023323	0.00068195	839.53	2.7317e-05	2.4466e-05	960.95	276.9	2.6687e-05	2.5662e-05	399.6	149.09	110.8	39.814	2.9321e-05	68.482	-109.056	-5.046	55.927	-111.234	119.607	79.418	-111.853	-106.271	103.761	12.160	-107.698	-102.705	-102.173	-96.869	119.337	-98.443	-8191	255	
2933.706	1	1	0	0	0.077898	0.19124	0.13905	0.12265	0.16092	0.42823	0.36979	0.29612	0.15949	0.05478	0.22794	0.3103	0.020535	0.017524	0.23632	0.20662	-0.14167	-1.1354	-0.42083	-0.76667	-1.0979	-0.13958	-1.3312	-0.63333	-0.32708	-1.1479	-0.47708	-0.94167	-1.2208	-0.46458	-1.0271	-0.97292	104.224	-53.350	126.950	207.265	220.950	-51.766	-53.299	86.612	101.601	-80.936	195.756	-106.194	43.803	5.921	-11.094	85.201	0.00018493	0.0004302	0.00026082	637.3	4.5399e-06	3.3676e-06	764.84	215.5	1.1418e-05	6.9987e-06	311.74	114.76	72.398	30.502	8.7802e-06	54.504	0.0024092	0.002453	0.00076501	836.6	2.8535e-05	2.6454e-05	968.88	270.69	2.7362e-05	2.7418e-05	398.76	145.66	107.94	39.12	3.0534e-05	66.721	-118.830	-68.543	108.693	-111.372	-16.144	-113.929	-111.647	-106.196	47.649	-62.052	-107.339	-102.514	-101.910	-96.971	99.812	-98.574	-8191	255	
2933.827	1	1	0	0	0.29125	0.30766	0.05145	0.24151	0.11507	0.21907	0.223	0.33406	0.1705	0.23211	0.31071	0.10093	0.43423	0.086451	0.16969	0.39808	0.079167	-1.1604	-0.3	-0.66667	-1.025	-0.31667	-0.9125	-0.87083	-0.2	-1.2208	-0.44792	-0.475	-1.3333	-0.41042	-0.94167	-1.0771	-88.586	-118.631	-90.457	-47.267	22.034	-18.952	-60.068	198.212	84.845	204.036	229.977	125.986	166.004	-99.177	13.541	108.468	0.0002433	0.0011438	9.8349e-05	627.75	1.3683e-05	7.3176e-06	747.05	209.28	4.8879e-06	6.5142e-06	303.97	112.45	70.066	29.717	3.4872e-05	53.169	0.0023459	0.0025511	0.00078595	819.23	2.7609e-05	2.7857e-05	958.09	264.02	2.6812e-05	2.9392e-05	394.18	143.11	106.47	39.394	3.2175e-05	66.347	-79.834	164.719	112.609	-110.978	51.389	219.967	-111.788	-106.037	42.452	4.037	-107.623	-102.651	-102.292	-97.540	-17.823	-98.223	-8191	255	
2933.923	1	1	0	0	0.059165	0.096287	0.10681	0.19951	0.069989	0.090238	0.12171	0.16177	0.19655	0.23753	0.26438	0.40518	0.064979	0.19417	0.1333	0.13983	0.066667	-1.1958	-0.59583	-0.53333	-1.3854	-0.4125	-1.1	-1.2583	-0.28333	-1.3354	-0.76667	-0.44583	-1.1521	-0.40208	-0.89167	-1.1604	61.292	45.637	-27.873	134.921	131.750	106.420	-104.054	142.062	-69.034	-112.596	155.111	185.319	118.569	139.778	-68.460	136.218	0.00024169	0.00071492	0.00023744	623.22	9.0545e-06	3.3008e-05	749.59	205.19	5.0927e-06	1.0828e-05	300.46	110.92	69.288	29.727	8.5251e-06	52.555	0.002477	0.0029447	0.00085954	830.08	3.0012e-05	3.2898e-05	976.21	265.68	2.9113e-05	3.4074e-05	399.1	144.19	108.8	40.666	3.3089e-05	66.406	222.027	148.771	-104.753	-110.920	-2.330	208.018	-111.421	-106.220	-116.621	207.485	-107.510	-102.551	-101.982	-97.396	42.373	-98.363	-8191	255	
2934.019	1	1	0	0	0.39964	0.1522	0.26308	0.24403	0.16057	0.12581	0.21266	0.20631	0.19314	0.090113	0.2429	0.24853	0.027793	0.2393	0.063713	0.39241	-0.025	-1.0583	-0.62917	-0.52708	-1.1313	-0.50208	-0.87292	-1.2958	-0.34583	-1.0271	-1.125	-0.34375	-1.3917	-0.67917	-0.525	-1.2938	-85.743	-7.045	-81.090	-66.186	-82.796	-92.870	-89.272	148.840	-46.985	80.170	203.523	170.329	170.528	-119.371	38.669	202.029	0.00028153	0.001808	3.0968e-05	623.17	1.4743e-05	1.4105e-05	745.11	202.81	9.3483e-06	7.0425e-06	291.91	108.28	67.015	28.809	8.6905e-06	50.862	0.0025789	0.0031417	0.00085074	825.08	3.044e-05	3.4334e-05	961.06	260.04	2.9933e-05	3.4481e-05	387.97	139.56	107.08	39.729	3.1674e-05	63.956	-121.340	168.744	129.010	-111.278	-109.620	75.567	-111.226	-106.339	195.562	152.283	-107.168	-102.524	-101.976	-96.930	29.191	-98.704	-8191	255	
2934.115	1	1	0	0	0.13347	0.14533	0.14214	0.092872	0.079067	0.10127	0.063594	0.25835	0.084636	0.14859	0.060737	0.083308	0.13992	0.11522	0.23001	0.24625	-0.033333	-1.075	-0.91667	-0.5375	-1.0833	-0.51667	-0.79375	-1.2271	-0.50833	-1.0167	-1.2563	-0.43333	-1.3979	-0.50833	-0.62708	-1.1812	93.066	95.521	181.500	-77.525	226.126	178.260	32.862	-93.702	-45.997	1.648	82.964	44.519	52.433	196.034	39.697	230.819	0.0004622	0.00087034	0.00017888	600.8	1.5644e-06	2.3611e-05	731.78	195.48	8.6575e-06	9.3889e-06	284.55	105.49	64.929	28.122	1.5527e-05	50.433	0.0026856	0.0031069	0.00082037	796.35	3.1263e-05	3.3881e-05	939.28	249.29	3.0706e-05	3.2891e-05	375.56	134.93	106.09	38.618	2.9421e-05	62.51	212.103	-39.726	-91.892	-110.876	45.038	8.350	-111.309	-106.157	-115.332	78.952	-107.100	-102.231	-101.832	-96.986	24.996	-98.184	-8191	255	
2934.210	1	1	0	0	0.13642	0.12818	0.3522	0.042995	0.12812	0.17199	0.20626	0.050493	0.14305	0.18533	0.095345	0.10766	0.15336	0.1328	0.1441	0.20098	0.0875	-0.93333	-0.85208	-0.25625	-1.1792	-0.4625	-0.70417	-1.3271	-0.475	-0.87917	-0.94792	-0.4375	-1.2167	-0.85417	-0.32292	-1.0375	-21.328	-53.420	195.015	59.175	-106.645	45.346	143.725	-60.326	-43.523	21.553	125.683	49.152	225.537	136.503	86.753	219.820	0.00033008	0.0020997	0.0001457	599.81	7.6693e-06	1.7035e-05	731.06	195.6	4.7211e-06	1.1145e-05	288.81	106.41	66.137	28.307	6.1952e-06	51.225	0.0027078	0.0028793	0.00075463	774.71	3.0148e-05	3.0593e-05	912.03	244.23	2.9633e-05	2.9191e-05	367.39	133.05	104.12	37.469	2.5614e-05	61.732	204.996	-33.572	186.342	-111.136	-94.387	73.834	-111.531	-106.202	185.617	21.099	-107.317	-102.728	-101.990	-97.338	-60.732	-98.478	-8191	255	
2934.308	1	1	0	0	0.058081	0.24213	0.020367	0.098468	0.12851	0.14028	0.13337	0.32176	0.11971	0.092091	0.21847	0.24886	0.051072	0.26259	0.082165	0.11417	0.016667	-0.58958	-1.0104	-0.2875	-0.8875	-0.97708	-0.81875	-1.2313	-0.5	-0.58958	-1.1812	-0.475	-0.90208	-0.9375	-0.35208	-1.0646	76.039	50.891	12.041	-75.615	230.234	-27.022	212.449	169.724	79.294	38.485	87.035	180.611	212.616	188.327	-53.724	140.404	0.0004402	0.0013228	0.00016193	602.22	9.201e-06	1.7994e-05	727.2	196.58	8.0842e-06	7.3022e-06	286.02	105.61	65.902	28.194	8.4058e-06	50.488	0.0025342	0.0025175	0.00067013	766.95	2.8587e-05	2.7507e-05	889.92	242.34	2.8534e-05	2.6598e-05	356.95	132.43	102.11	36.748	2.4073e-05	61.402	206.639	-109.759	-101.257	-111.387	-9.328	26.690	-111.434	-106.057	41.635	40.370	-107.627	-102.651	-101.080	-97.413	19.999	-98.667	-8191	255	
2934.426	1	1	0	0	0.27443	0.1011	0.25282	0.12033	0.15569	0.063845	0.22051	0.26154	0.14795	0.14003	0.037867	0.21264	0.12297	0.44337	0.1462	0.044798	-0.19792	-0.3875	-0.975	-0.37708	-0.80208	-1.0375	-0.48542	-1.1979	-0.53125	-0.5	-1.0479	-0.62292	-0.95833	-1.1646	-0.18125	-1.1167	157.430	168.839	14.400	124.483	215.957	90.672	181.272	229.666	5.588	230.712	100.934	224.896	77.581	217.660	-84.343	153.320	0.00034432	0.0010037	0.00024679	596.66	7.612e-06	1.2685e-05	724.91	195.76	6.4948e-06	9.3328e-06	287.8	106.1	66.718	28.252	9.4733e-06	50.73	0.0025019	0.002411	0.00063424	773.55	2.7975e-05	2.6776e-05	879.8	245.88	2.8321e-05	2.6083e-05	358.03	134.96	102.31	36.841	2.392e-05	62.507	-77.565	-7.882	48.200	-111.067	-28.670	-21.973	-111.591	-106.248	-86.955	54.695	-107.438	-102.981	-101.623	-97.429	195.262	-98.524	-8191	255	
2934.523	1	1	0	0	0.090743	0.3261	0.1087	0.05967	0.083294	0.1943	0.35816	0.24256	0.16254	0.21562	0.10886	0.048482	0.18475	0.33813	0.077984	0.16782	-0.22917	-0.11875	-1.2958	-0.37083	-0.94167	-1.1208	-0.45417	-1.1646	-0.57917	-0.61667	-1.2625	-0.56042	-0.7875	-1.2458	-0.22708	-1.1562	227.579	-104.873	-87.242	202.880	-111.693	-86.276	-1.429	-80.924	133.240	187.903	69.348	-107.502	-44.709	-116.756	-6.405	-114.912	0.00021304	0.00055721	0.0002765	599.34	4.5368e-06	1.8269e-05	725.31	198.53	7.2557e-06	9.7429e-06	289.57	107.15	67.583	28.734	7.8944e-06	51.099	0.0024881	0.0023734	0.00063639	787.45	2.7402e-05	2.6207e-05	885.21	249.64	2.7548e-05	2.5188e-05	360.05	137.05	101.45	36.734	2.4587e-05	63.215	-93.348	-49.777	29.873	-111.443	-119.173	68.434	-111.464	-106.172	68.463	71.312	-107.469	-102.703	-101.895	-97.266	175.829	-98.415	-8191	255	
2934.619	1	1	0	0	0.15779	0.19066	0.063512	0.34675	0.19652	0.14327	0.28883	0.10664	0.14033	0.1224	0.11058	0.067543	0.15155	0.11943	0.053187	0.16771	-0.53333	-0.42917	-1.2708	-0.56667	-0.59375	-1.2708	-0.48958	-1.0875	-0.78542	-0.47083	-1.3604	-0.66875	-0.72708	-1.1958	-0.36458	-1.1146	-85.365	-60.055	44.062	-102.866	-111.422	188.048	197.582	-106.992	103.294	55.355	206.047	221.049	102.829	132.439	131.167	181.900	0.00023329	0.00077963	0.00044038	602.3	7.015e-06	1.5127e-05	729.35	197.89	1.2124e-05	1.2347e-05	289.94	108.07	66.757	28.653	1.5134e-05	51.284	0.0024218	0.002292	0.00065558	795.17	2.6679e-05	2.5595e-05	899.13	250.24	2.7149e-05	2.4254e-05	364.78	137.93	100.27	36.424	2.5776e-05	63.067	213.647	-63.345	104.692	-111.219	44.813	30.862	-111.894	-106.144	30.296	20.981	-107.802	-103.014	-102.469	-97.043	182.266	-98.276	-8191	255	
2934.715	1	1	0	0	0.31376	0.010124	0.10566	0.13864	0.23512	0.1076	0.153	0.20527	0.15375	0.16663	0.17898	0.28277	0.021202	0.068889	0.065062	0.19741	-0.68542	-0.18542	-1.025	-0.73542	-0.47083	-1.2625	-0.46042	-1.1542	-1.1625	-0.41042	-1.4146	-0.80208	-0.48333	-1.3604	-0.25208	-0.89167	64.509	-76.967	189.729	-102.107	120.645	-117.647	105.164	203.237	234.104	203.440	105.671	176.063	-79.160	230.641	17.619	-67.347	0.0001894	0.00022847	0.00025582	602.64	8.3511e-07	2.1634e-05	727.9	198.61	9.833e-06	4.8495e-06	288.44	106.68	66.644	28.175	5.5244e-06	50.574	0.0023558	0.0021879	0.00068288	791.22	2.6061e-05	2.4931e-05	910.56	248.96	2.6771e-05	2.3982e-05	367.56	135.88	98.412	35.898	2.7077e-05	61.618	-98.130	-58.989	168.890	-111.295	70.355	-29.222	-111.652	-106.158	28.891	81.563	-107.487	-102.643	-101.882	-97.302	-33.376	-98.520	-8191	255	
2934.836	1	1	0	0	0.2062	0.20561	0.14873	0.37033	0.17401	0.11241	0.2624	0.21369	0.16573	0.068438	0.13907	0.12915	0.11134	0.077757	0.19299	0.39388	-0.625	-0.20417	-0.98958	-0.74792	-0.43125	-1.25	-0.44375	-0.71875	-1.1271	-0.41042	-1.1688	-0.88542	-0.31042	-1.3104	-0.51875	-0.87083	116.658	-89.662	64.742	149.396	205.589	196.795	-69.783	212.865	92.432	106.350	159.715	210.770	-118.780	149.184	134.240	-117.812	0.0002223	0.00024854	0.00023944	598.15	5.7379e-06	4.8509e-06	721.43	195.36	1.0642e-05	6.5109e-06	286.37	105.84	66.115	27.992	7.4822e-06	50.276	0.0022534	0.0021573	0.00069256	776.41	2.436e-05	2.4434e-05	903.73	242.69	2.5216e-05	2.4011e-05	364.86	133.44	95.92	35.925	2.7501e-05	60.831	218.535	207.888	1.303	-111.366	103.030	64.640	-111.934	-106.074	47.337	221.493	-107.405	-102.892	-101.596	-97.160	150.423	-98.604	-8191	255	
2934.907	1	1	0	0	0.11968	0.037963	0.10889	0.45295	0.16331	0.1323	0.089047	0.009443	0.20395	0.12596	0.27722	0.21504	0.29072	0.11581	0.22193	0.22365	-0.60417	-0.25	-1.1833	-0.90833	-0.37083	-1.3083	-0.62708	-0.69583	-1.0479	-0.425	-0.95208	-0.92292	-0.36458	-1.3062	-0.48333	-0.78333	128.705	-115.495	43.160	144.855	12.180	-2.545	117.644	40.882	-58.260	176.506	-7.962	-103.929	216.447	13.261	-84.036	181.321	0.0002199	0.0011545	0.00016147	595.31	1.21e-05	7.0332e-06	721.59	192.52	1.3388e-05	5.531e-06	284.16	104.58	64.427	27.457	5.7929e-06	49.951	0.0021763	0.0022573	0.00069936	770.83	2.3772e-05	2.5869e-05	907.42	239.8	2.4575e-05	2.5923e-05	362.19	132.22	94.394	36.125	2.7756e-05	60.45	-114.263	134.254	25.763	-111.293	38.191	183.529	-111.547	-106.268	45.210	163.611	-107.095	-102.603	-101.547	-97.195	56.661	-98.258	-8191	255	
2935.003	1	1	0	0	0.22317	0.24185	0.16711	0.24317	0.14353	0.12313	0.1229	0.21105	0.22432	0.12289	0.40577	0.13095	0.089206	0.1341	0.089056	0.15805	-0.76875	-0.32708	-0.86458	-1.1167	-0.22708	-1.2021	-0.63958	-0.62083	-1.1417	-0.56458	-0.9125	-1.1708	-0.5	-1.0688	-0.84375	-0.47083	-90.095	43.435	7.181	231.874	226.253	-54.757	225.571	175.408	200.621	23.967	144.055	177.459	138.987	87.344	5.265	70.428	9.1198e-05	0.00066664	0.00040763	591.8	7.7915e-06	7.7969e-06	715.11	188.55	2.5259e-06	1.3459e-05	277.03	102.22	61.876	26.748	9.3385e-06	48.252	0.0021531	0.0024669	0.00070005	765.85	2.3827e-05	2.7857e-05	902.49	235.34	2.5148e-05	2.8582e-05	357.41	130.82	94.653	36.294	2.9236e-05	59.548	203.837	121.709	-64.940	-111.172	-44.231	220.562	-111.938	-106.047	181.251	143.954	-107.434	-102.737	-102.059	-97.231	-91.335	-98.490	-8191	255	
2935.100	1	1	0	0	0.10293	0.14516	0.18587	0.085015	0.086351	0.24473	0.14208	0.18527	0.12117	0.11088	0.21977	0.18255	0.14682	0.16367	0.29077	0.13599	-0.84792	-0.37083	-0.66458	-1.1688	-0.27292	-0.87917	-0.84583	-0.38958	-1.2583	-0.46875	-0.88542	-1.2208	-0.45417	-1.1583	-0.93958	-0.38542	-20.722	12.762	206.318	-105.916	118.827	-116.540	172.447	-123.400	223.169	93.997	181.944	9.133	141.333	-121.424	115.852	-79.298	0.0002939	0.0013593	0.0001667	574.07	4.7169e-06	8.5122e-06	694.98	176.53	1.0558e-06	7.4799e-06	260.51	95.023	56.139	24.802	1.2902e-05	44.987	0.0023786	0.0028257	0.00074672	766.26	2.741e-05	3.1814e-05	901.52	227.93	2.9284e-05	3.2874e-05	348.32	126.29	95.136	35.413	3.1366e-05	57.244	235.329	179.209	24.934	-111.333	182.813	149.222	-111.543	-106.262	-118.405	-33.029	-107.186	-102.468	-101.958	-96.984	-26.350	-98.325	-8191	255	
2935.218	1	1	0	0	0.076215	0.033268	0.24598	0.1135	0.15108	0.072944	0.20118	0.33332	0.1933	0.30634	0.16064	0.092934	0.1445	0.10794	0.19548	0.066582	-0.79583	-0.42917	-0.47083	-1.1875	-0.56667	-1.0312	-1.1208	-0.28542	-1.0625	-0.79583	-0.4875	-1.2417	-0.375	-0.97708	-1.1708	-0.36875	53.313	203.608	23.385	130.493	196.432	-96.735	-70.637	153.412	-101.196	-124.033	156.118	39.648	-5.319	57.084	173.464	196.418	0.0002841	0.0010139	0.00028422	561.02	7.7712e-06	1.4439e-05	679.39	167.32	1.5197e-05	1.4928e-05	250.98	91.199	53.945	23.829	1.863e-05	43.881	0.0027301	0.0031143	0.00079704	762.42	3.1526e-05	3.3836e-05	899.83	219.66	3.2199e-05	3.3802e-05	340.64	122.95	97.073	34.636	3.1952e-05	56.478	184.648	48.978	-89.199	-111.582	183.451	55.455	-111.745	-106.112	-119.018	52.472	-107.015	-102.203	-101.636	-97.106	52.392	-98.004	-8191	255	
2935.315	1	1	0	0	0.21084	0.40102	0.015242	0.16396	0.12987	0.1358	0.080388	0.15256	0.30356	0.21733	0.2628	0.25282	0.31826	0.23978	0.11513	0.057799	-0.70625	-0.77917	-0.60417	-1.4688	-0.525	-0.8875	-1.1604	-0.40417	-1.1688	-0.69583	-0.56042	-1.2396	-0.4375	-0.9125	-1.2292	-0.475	39.341	232.666	-51.843	144.311	-82.406	25.220	204.461	164.728	136.136	-115.253	18.938	-108.905	214.370	151.798	-22.778	53.553	0.00028956	0.000383	0.00075405	557.84	3.1387e-06	1.9422e-05	682.8	161.81	7.0463e-06	1.1434e-05	244.53	88.643	52.608	23.009	2.8889e-05	42.682	0.002938	0.003146	0.0007969	762.38	3.3975e-05	3.3562e-05	896.04	216.47	3.4357e-05	3.4265e-05	334.94	122.61	98.959	34.127	3.2675e-05	56.747	215.385	-5.424	-30.327	-111.239	-37.837	4.300	-111.715	-106.088	-79.919	28.225	-107.149	-102.373	-101.616	-96.816	25.029	-98.079	-8191	255	
2935.411	1	1	0	0	0.06606	0.11392	0.25273	0.22796	0.20456	0.28858	0.028699	0.20883	0.070352	0.34027	0.36981	0.15482	0.032015	0.16738	0.24946	0.07567	-0.83542	-0.74167	-0.39375	-1.2833	-0.57708	-0.79167	-1.1833	-0.41875	-1.1042	-0.87917	-0.50625	-1.4875	-0.47708	-0.68958	-1.1604	-0.425	100.200	213.104	152.249	229.479	146.823	126.569	39.302	178.707	23.522	-86.644	187.416	117.751	220.424	-122.729	141.092	37.286	0.00013811	0.00082227	0.00045537	554.54	2.5037e-06	1.0869e-05	676.14	155.42	6.8088e-06	9.6228e-06	237.55	85.554	49.769	22.118	1.3994e-05	41.381	0.003202	0.0032483	0.00081385	779.35	3.6832e-05	3.4318e-05	899.91	216.85	3.6304e-05	3.4856e-05	328.48	121.92	98.11	33.04	3.2301e-05	56.387	-109.592	-83.902	-29.603	-111.602	224.589	14.095	-111.794	-106.334	22.834	-17.570	-107.176	-102.026	-101.401	-96.485	-35.908	-98.356	-8191	255	
2935.507	1	1	0	0	0.17743	0.054948	0.34384	0.20694	0.14056	0.13509	0.21594	0.17768	0.2176	0.35511	0.26602	0.22302	0.013711	0.18006	0.12577	0.15829	-0.54583	-0.97917	-0.20625	-1.4792	-0.57917	-0.58958	-1.4562	-0.6125	-0.84167	-1.0396	-0.28333	-1.2375	-0.6875	-0.53542	-1.3937	-0.5875	-0.030	198.887	23.349	-120.013	134.367	185.889	-120.219	102.597	-54.029	-81.801	177.854	82.738	-71.303	204.456	7.592	-61.189	0.00010373	0.0017316	0.00030361	555.15	1.3338e-05	2.1796e-05	671.06	153.5	8.0951e-06	5.4889e-06	232.91	84.196	49.242	21.83	5.6993e-06	41.054	0.0032176	0.0032509	0.0008052	796.54	3.771e-05	3.486e-05	896.74	221.47	3.6866e-05	3.5314e-05	325.99	123.77	97.523	32.647	3.1944e-05	56.806	214.584	18.972	-4.326	-111.709	28.257	-21.657	-111.605	-106.456	-7.479	44.726	-106.870	-102.017	-100.929	-96.745	-26.107	-98.283	-8191	255	
2935.603	1	1	0	0	0.25477	0.056207	0.17227	0.1732	0.10412	0.15073	0.20913	0.10367	0.2504	0.14376	0.17894	0.13643	0.10834	0.40648	0.2525	0.072922	-0.45	-1.0042	-0.37292	-1.3396	-0.61667	-0.28542	-1.1604	-0.38125	-0.68333	-1.1167	-0.12083	-1.3229	-0.83333	-0.44167	-1.1958	-0.59583	-43.184	-97.445	150.036	115.858	101.090	204.424	166.183	193.108	25.771	-101.572	132.021	-19.086	57.178	190.996	87.603	-93.267	0.00019687	0.0013066	0.00019337	554.42	4.2825e-06	1.3516e-05	674.02	153.84	5.4479e-06	1.2044e-05	233.8	84.736	49.722	22.174	1.7079e-05	41.804	0.0030713	0.0030838	0.00078335	799.56	3.5551e-05	3.2337e-05	891.93	221.18	3.4366e-05	3.3207e-05	327.06	124.05	95.491	32.236	3.1746e-05	57.369	-80.267	-99.155	-122.302	-111.561	16.760	45.895	-111.410	-106.052	25.098	7.952	-106.924	-101.942	-102.069	-96.777	216.404	-97.882	-8191	255	
2935.699	1	1	0	0	0.14102	0.071596	0.055457	0.16192	0.36151	0.31043	0.28509	0.14512	0.24126	0.18521	0.12292	0.22625	0.2098	0.28654	0.055046	0.16464	-0.11667	-1.0146	-0.35	-1.1688	-0.84167	-0.31458	-1.3604	-0.55833	-0.74375	-1.2354	-0.19375	-1.0479	-0.95	-0.4	-1.0958	-0.78125	-7.946	-19.599	224.734	160.853	-18.254	80.528	197.339	188.989	210.048	184.863	18.630	222.921	80.218	-99.628	204.075	-60.654	0.00027189	0.0010257	0.00031111	555.53	5.3025e-06	2.1446e-05	677.19	156.74	7.091e-06	1.1131e-05	238.42	87.592	52.031	22.862	1.8052e-05	43.204	0.0028606	0.0028762	0.00077773	787.85	3.2744e-05	2.9468e-05	891.07	220.6	3.1586e-05	3.0339e-05	331.03	123.75	93.888	32.006	3.1904e-05	57.703	-75.269	-25.712	164.023	-111.434	96.087	-28.583	-111.783	-106.037	65.798	51.583	-107.352	-102.125	-101.527	-96.748	-102.745	-98.304	-8191	255	
2935.795	1	1	0	0	0.087735	0.25575	0.18583	0.29848	0.11027	0.024428	0.17328	0.11406	0.24246	0.18745	0.16158	0.030567	0.10731	0.23398	0.15167	0.16062	-0.13125	-1.0438	-0.42708	-0.91667	-1.2146	-0.48125	-1.1875	-0.86667	-0.51667	-1.0104	-0.48958	-0.975	-1.0333	-0.43542	-1	-0.8375	-95.521	-70.472	-32.890	-31.844	230.370	198.572	143.250	-12.416	171.825	163.105	-100.547	182.066	-56.023	219.059	199.569	137.179	0.00029203	0.00018658	0.00013717	562.88	4.9674e-06	9.2212e-06	682.2	162.2	1.1621e-05	1.3268e-05	244.7	88.587	52.803	22.83	7.0431e-06	42.79	0.0026939	0.0026908	0.00080439	783.19	3.1194e-05	2.8018e-05	899.85	222	2.9651e-05	2.8805e-05	337.23	122.47	92.07	31.861	3.2032e-05	56.584	-83.224	-90.270	154.372	-111.392	-44.641	-67.695	-111.504	-106.546	50.243	-105.073	-107.271	-102.551	-101.516	-96.658	205.325	-98.540	-8191	255	
2935.916	1	1	0	0	0.12875	0.11043	0.092347	0.21483	0.10634	0.19797	0.078182	0.29032	0.19226	0.15227	0.096132	0.27192	0.15044	0.2065	0.11447	0.077426	-0.14167	-0.95833	-0.26667	-0.79167	-1.1479	-0.11458	-1	-0.7875	-0.52292	-1.2229	-0.55208	-0.8	-1.1688	-0.33958	-0.92292	-0.89583	-47.333	-108.119	-62.467	234.127	62.706	70.595	1.220	104.218	154.411	31.692	-92.347	-109.832	204.499	-103.692	213.395	169.954	0.00032213	0.0010279	0.00018174	561.2	7.3827e-06	2.302e-05	680.79	162.95	6.1208e-06	1.1902e-05	246.77	90.001	54.093	23.422	8.0534e-06	43.64	0.0025282	0.0026213	0.00081964	767.57	2.9807e-05	2.8381e-05	900.78	221.98	2.8775e-05	2.9874e-05	344.24	123.31	93.125	33.243	3.3978e-05	57.985	-117.142	131.623	225.910	-111.161	26.579	212.207	-111.508	-106.080	50.479	175.753	-107.204	-102.487	-101.451	-96.831	-34.705	-98.123	-8191	255	
2936.010	1	1	0	0	0.11545	0.22649	0.28344	0.081652	0.05339	0.10021	0.066387	0.14686	0.1375	0.27249	0.29045	0.13939	0.44815	0.315	0.26641	0.13047	0.085417	-1.1104	-0.43333	-0.64167	-1.2792	-0.325	-1.1021	-1.0771	-0.33333	-1.2396	-0.63958	-0.75625	-1.2083	-0.37083	-0.89167	-1.0396	-29.750	71.312	99.785	176.116	29.456	70.259	152.321	66.043	1.322	-52.487	121.233	60.482	46.356	194.151	-69.533	233.031	0.00012039	0.0013466	0.00016225	563.81	5.302e-06	3.0304e-05	684.42	165.59	5.2663e-06	1.1097e-05	249.64	91.578	54.223	23.861	8.8268e-06	44.423	0.0026209	0.0029758	0.00090497	783.72	3.1841e-05	3.3122e-05	928.05	230.25	3.1196e-05	3.5395e-05	361	129.05	98.622	35.885	3.7371e-05	60.137	-35.379	202.151	1.655	-111.459	113.924	164.805	-111.599	-105.796	48.064	190.066	-107.089	-102.594	-101.371	-96.781	103.186	-97.921	-8191	255	
2936.108	1	1	0	0	0.30177	0.092095	0.23428	0.11159	0.080536	0.46552	0.17077	0.36786	0.12451	0.11886	0.064401	0.18725	0.036867	0.17313	0.25488	0.16684	0.041667	-1.1167	-0.63958	-0.375	-1.225	-0.45833	-0.82083	-1.1812	-0.41667	-1.15	-0.8625	-0.6	-1.225	-0.53125	-0.79583	-1.1896	229.100	100.673	95.553	-6.805	31.189	48.214	-74.571	127.308	4.002	201.482	-117.793	198.029	231.762	-118.469	-57.299	129.729	0.00041368	0.0021128	0.00053924	563.41	6.5575e-06	2.5461e-05	686.61	163.69	2.7386e-06	5.8965e-06	246.38	90.33	53.267	23.368	1.8289e-05	43.986	0.00282	0.0034018	0.00095354	794.1	3.3056e-05	3.6935e-05	933	229.81	3.2568e-05	3.8444e-05	359.85	128.73	100.45	36.903	3.9556e-05	61.031	227.069	140.170	-40.663	-111.310	110.205	221.806	-111.652	-106.163	102.085	-96.916	-107.333	-101.996	-101.673	-96.915	39.760	-98.104	-8191	255	
2936.204	1	1	0	0	0.22535	0.31331	0.12763	0.19499	0.13631	0.11871	0.19207	0.14893	0.13939	0.29054	0.14862	0.12824	0.090906	0.14161	0.13297	0.12215	0.28125	-1.1292	-0.66875	-0.56042	-1.2229	-0.4375	-1.05	-1.2375	-0.34792	-0.98542	-0.90208	-0.40417	-1.1896	-0.49792	-0.76042	-1.1917	149.818	-113.869	113.227	-35.276	-107.705	-121.317	9.889	-52.983	50.390	214.485	-73.962	210.409	-60.958	28.869	90.381	181.639	0.00033036	0.0011416	0.00016834	558.91	1.0901e-05	4.6688e-06	690.46	164.19	7.5908e-06	1.5691e-05	246.63	90.765	53.616	23.688	2.42e-05	43.807	0.0032349	0.0039248	0.0010556	817.93	3.8525e-05	4.3024e-05	960.55	235.79	3.7945e-05	4.2827e-05	367.88	129.94	106	37.871	3.9814e-05	60.798	207.240	-114.878	163.111	-111.581	180.377	144.544	-111.686	-106.605	-74.987	-81.673	-106.934	-102.473	-101.890	-97.137	16.019	-97.986	-8191	255	
2936.299	1	1	0	0	0.060832	0.34105	0.10103	0.13836	0.27456	0.1568	0.26902	0.27576	0.15408	0.13227	0.19916	0.02399	0.1489	0.20504	0.37791	0.19835	-0.0041667	-1.0229	-0.92083	-0.27083	-1.4104	-0.53542	-0.69167	-1.225	-0.35208	-0.8375	-1.0688	-0.39375	-1.2104	-0.78333	-0.45208	-1.2458	47.685	-37.829	131.413	-101.057	55.845	77.732	176.266	179.475	141.148	9.689	217.791	-71.273	223.199	150.494	110.690	176.404	0.00071117	0.001489	0.00032082	573.42	1.1553e-05	1.4505e-05	689.83	165.06	1.2956e-05	1.0155e-05	246.75	89.791	52.903	23.615	2.5214e-05	43.34	0.0035142	0.0040048	0.0010634	828.93	4.2331e-05	4.5365e-05	983.52	240.34	4.4291e-05	4.6362e-05	378.57	133.47	114.78	39.036	4.2471e-05	61.607	209.628	-36.649	-55.209	-111.304	-107.960	-29.117	-111.850	-106.335	232.061	32.565	-106.736	-102.218	-102.272	-96.539	0.817	-98.353	-8191	255	
2936.395	1	1	0	0	0.1224	0.094211	0.35939	0.23114	0.23164	0.29558	0.086424	0.28965	0.42666	0.29171	0.24134	0.15492	0.053925	0.36099	0.15511	0.067812	-0.085417	-0.87083	-1.0958	-0.4875	-1.1437	-0.72917	-0.64167	-1.2687	-0.53958	-0.87708	-1.2896	-0.2625	-1.1396	-0.85	-0.64167	-1.4312	52.349	-113.246	201.819	123.441	-9.740	48.643	3.606	146.798	164.527	81.254	195.047	0.348	59.468	174.489	59.471	-115.165	0.00029673	0.00066699	0.00028751	564.38	1.1797e-05	2.8114e-05	691.76	161.62	1.7241e-05	2.0198e-05	242.77	87.411	52.236	22.825	1.612e-05	42.694	0.0039702	0.0041386	0.0010971	837.46	4.5774e-05	4.55e-05	973.36	237.81	4.5708e-05	4.3925e-05	367.03	131.19	113.04	37.454	3.9913e-05	61.16	215.388	218.738	4.516	-111.505	-82.885	-25.818	-111.567	-106.355	223.783	-1.031	-106.872	-102.242	-101.846	-96.928	15.062	-98.244	-8191	255	
2936.516	1	1	0	0	0.16167	0.29074	0.20003	0.13594	0.075502	0.1087	0.162	0.35505	0.25343	0.23569	0.03485	0.12295	0.14299	0.34162	0.27348	0.12257	-0.31458	-0.71875	-0.98958	-0.31458	-0.9375	-0.86042	-0.50417	-1.2563	-0.725	-0.60417	-1.2958	-0.40625	-0.92083	-0.975	-0.34167	-1.2687	191.163	34.461	164.795	203.586	123.244	-120.668	-112.042	-91.003	-101.331	-30.613	132.549	-124.079	-14.689	-3.033	219.115	154.648	0.00035486	0.0015634	0.00049566	562.51	8.1148e-06	9.0099e-06	690.44	158.99	7.9112e-06	1.0146e-05	241.6	87.374	52.331	22.881	7.3849e-06	42.718	0.0040069	0.0039261	0.0010391	841.89	4.5145e-05	4.3148e-05	954.06	236.68	4.4862e-05	4.1699e-05	359.52	133.17	111.95	37.108	3.8762e-05	62.2	198.344	-48.210	-13.085	-111.887	3.887	-16.769	-111.388	-106.589	-40.437	-14.078	-106.672	-102.657	-100.894	-97.024	63.066	-98.606	-8191	255	
2936.612	1	1	0	0	0.40563	0.1258	0.40028	0.10648	0.373	0.11543	0.20662	0.18233	0.1793	0.16375	0.34373	0.13367	0.22789	0.14671	0.23575	0.073052	-0.2	-0.53333	-1.1458	-0.36875	-0.80208	-0.95208	-0.53958	-1.2583	-0.58958	-0.61667	-1.4833	-0.42917	-0.83542	-1.1854	-0.32292	-1.3188	162.146	-74.465	-102.184	94.117	-87.050	-123.017	187.546	-103.339	-107.850	-27.467	234.026	137.529	-69.305	-31.467	91.229	-120.593	0.00019592	0.00075938	0.00032018	557.01	1.2953e-05	1.2737e-05	686.26	159.92	6.925e-06	1.3285e-05	237.45	86.519	52.058	22.649	5.6929e-06	41.886	0.0040369	0.003902	0.0010252	862.92	4.5123e-05	4.3308e-05	951.61	243.67	4.5746e-05	4.2334e-05	360.08	136.74	111.89	37.016	3.9872e-05	62.975	-81.206	204.221	-34.330	-111.393	37.315	87.273	-111.701	-106.276	67.508	17.952	-106.907	-101.917	-100.719	-97.174	107.206	-98.318	-8191	255	
2936.708	1	1	0	0	0.2172	0.24141	0.11391	0.29398	0.10107	0.33006	0.15762	0.26679	0.12151	0.099635	0.1507	0.1664	0.21832	0.15534	0.17185	0.074675	-0.20833	-0.24375	-1.1104	-0.57708	-0.77708	-1.0896	-0.3625	-1.1896	-0.70833	-0.49583	-1.4667	-0.54583	-0.81875	-1.1583	-0.175	-1.1938	65.519	100.363	143.062	213.594	38.294	-87.713	216.581	216.064	6.604	-2.934	34.799	212.840	-91.712	129.027	-82.814	-113.980	0.00030473	0.00075102	0.00010893	560.78	1.2318e-05	3.1676e-05	686.05	156.11	6.4166e-06	4.8601e-06	236.19	85.702	50.837	22.396	2.2919e-05	41.954	0.0040543	0.0039128	0.0010692	890.77	4.6095e-05	4.4765e-05	976.38	249.41	4.7609e-05	4.3693e-05	370.28	140.62	113.17	37.145	4.4126e-05	64.432	-85.359	-25.956	166.218	-111.403	2.746	-1.690	-111.934	-106.315	72.542	67.609	-107.340	-102.876	-101.123	-96.324	208.409	-97.781	-8191	255	
2936.780	1	1	0	0	0.27338	0.12626	0.21181	0.26576	0.13839	0.085998	0.22933	0.13304	0.23534	0.066255	0.10062	0.12565	0.11213	0.092101	0.1585	0.1892	-0.55	-0.26875	-1.2646	-0.63333	-0.40833	-1.1458	-0.30625	-0.96042	-1.1417	-0.39792	-1.2042	-0.94167	-0.41042	-1.3146	-0.37292	-1.0187	60.112	-82.525	57.029	-111.228	46.573	-55.698	141.172	22.205	177.483	211.966	150.868	150.786	97.098	-11.403	-113.094	92.577	0.00034343	0.00091154	0.00053693	564.23	1.4047e-05	1.6639e-05	686.3	155.27	7.4687e-06	1.1098e-05	230.01	82.992	48.672	21.545	3.5713e-05	40.553	0.0042115	0.004019	0.0011923	923.35	4.8265e-05	4.6889e-05	1022.6	254.37	5.11e-05	4.6823e-05	387.79	144.08	117.52	37.867	5.3809e-05	66.365	-116.938	-82.810	166.316	-111.320	37.253	4.016	-111.898	-106.153	-110.677	-34.649	-106.663	-102.085	-100.866	-97.104	190.143	-97.939	-8191	255	
2936.900	1	1	0	0	0.13853	0.2914	0.2264	0.25237	0.18198	0.11923	0.054775	0.38983	0.035336	0.29452	0.1254	0.24791	0.26189	0.16892	0.15425	0.22061	-0.61458	-0.4	-1.2062	-0.74375	-0.58958	-1.3167	-0.29167	-0.93333	-1.1021	-0.525	-1.2896	-0.91875	-0.375	-1.1042	-0.48542	-0.75	90.103	-33.977	-24.862	180.877	162.072	-8.205	157.619	209.245	-69.391	162.812	-79.761	124.280	-89.404	-64.234	147.308	-72.491	0.00022286	0.0010115	0.00056907	564.51	1.0989e-05	1.3494e-05	691.72	153.69	4.8719e-06	1.1305e-05	229.32	80.067	48.043	20.552	1.3716e-05	39.058	0.0048703	0.0046467	0.0014807	991.23	5.6842e-05	5.5208e-05	1123.5	271.37	6.0552e-05	5.6043e-05	427.2	152.46	127.56	40.362	6.6381e-05	69.204	221.104	-24.349	151.520	-111.448	29.655	56.658	-111.613	-105.828	74.384	-55.438	-107.232	-102.061	-101.398	-96.376	210.196	-97.707	-8191	255	
2936.996	1	1	0	0	0.25014	0.20699	0.11652	0.18664	0.18993	0.15668	0.21901	0.050395	0.23518	0.050431	0.16598	0.23736	0.26084	0.33944	0.044377	0.11266	-0.49167	-0.12083	-0.9375	-0.92292	-0.31667	-1.3417	-0.48542	-0.84375	-1.1479	-0.34583	-1.1917	-1.075	-0.3625	-1.4229	-0.50833	-0.93333	-67.356	87.604	76.788	145.391	211.188	11.110	203.677	-52.367	144.376	68.417	79.476	138.962	-104.767	-95.365	76.155	-60.739	0.00023566	0.0016424	7.5628e-05	575.25	8.9013e-06	3.3605e-05	689.38	152.75	1.3133e-05	3.1657e-05	228.35	79.153	47.164	19.737	1.4278e-05	38.015	0.0056199	0.0055924	0.0017946	1062	6.421e-05	6.5439e-05	1202.5	284.05	6.6485e-05	6.5702e-05	452.61	157.26	132.57	42.836	7.3748e-05	69.725	16.190	183.244	233.812	-111.556	59.368	-110.387	-111.546	-105.580	79.803	181.721	-107.059	-101.567	-101.005	-96.531	-101.855	-97.646	-8191	255	
2937.092	1	1	0	0	0.26968	0.23261	0.099564	0.25634	0.11417	0.11501	0.17206	0.2675	0.2789	0.12245	0.17156	0.090361	0.49177	0.067344	0.048202	0.20456	-0.80417	-0.39792	-0.96875	-1.0542	-0.27083	-1.2	-0.92708	-0.70625	-1.1063	-0.55833	-0.96875	-1.2396	-0.48125	-1.3958	-0.63542	-0.53125	207.586	40.876	-89.318	130.017	169.491	-100.774	-40.209	195.145	40.577	-33.630	8.375	38.421	173.132	-34.937	110.698	-99.599	8.3537e-05	0.0032955	0.00031564	572.42	8.369e-06	2.986e-05	685.3	149.44	1.1425e-05	1.9613e-05	226.97	78.613	46.054	19.556	1.6672e-05	38.177	0.0057801	0.006229	0.0018532	1061.9	6.2252e-05	6.7918e-05	1188.8	274.49	6.2301e-05	6.6826e-05	438.04	152.33	126.59	42.576	6.9295e-05	67.357	-106.744	155.041	230.759	-111.491	-34.902	186.577	-111.235	-105.618	51.968	206.819	-106.444	-101.799	-101.461	-95.924	45.532	-97.611	-8191	255	
2937.189	1	1	0	0	0.33182	0.22268	0.066131	0.05947	0.1352	0.14813	0.13852	0.21897	0.18537	0.12001	0.34449	0.44807	0.19087	0.39038	0.20041	0.2042	-0.77917	-0.51458	-0.72083	-1.2917	-0.55	-1.1375	-0.90625	-0.51458	-1.2604	-0.575	-0.77917	-1.1083	-0.45833	-1.05	-0.93542	-0.62917	171.369	-109.069	-68.576	-29.909	-76.063	141.874	138.687	185.985	66.481	-9.560	-97.351	225.688	-8.191	-87.377	58.865	234.404	0.00037213	0.0018014	0.00085557	572.01	1.5659e-05	3.323e-05	680.96	148.67	1.0323e-05	1.2797e-05	227.12	76.947	44.077	19.312	2.5267e-05	37.397	0.005405	0.0062571	0.0017324	1034.6	6.0455e-05	6.9554e-05	1168.4	269.34	6.2091e-05	6.9741e-05	430.65	149.42	126.98	42.649	6.6917e-05	65.339	216.261	165.907	-49.742	-111.564	202.196	-105.553	-111.431	-105.438	195.261	222.022	-106.974	-101.779	-100.913	-96.320	6.638	-97.379	-8191	255	
2937.308	1	1	0	0	0.24482	0.26842	0.0618	0.097237	0.27109	0.06541	0.4165	0.17647	0.11541	0.15555	0.26837	0.2652	0.18476	0.21512	0.13358	0.13944	-1.0708	-0.40833	-0.75208	-1.2875	-0.21458	-1.2625	-0.87917	-0.65625	-1.2542	-0.79792	-0.70625	-1.2313	-0.475	-1.0875	-1.1625	-0.24167	-41.516	162.431	-115.013	232.743	-106.500	133.252	209.474	113.990	198.746	-46.389	117.579	-48.027	29.879	5.756	70.408	135.478	0.00049426	0.00084681	0.00032057	572.23	2.2456e-05	2.7685e-05	680.57	145.8	2.1922e-05	1.2665e-05	222.22	77.103	43.936	19.249	1.5824e-05	36.969	0.0054119	0.0062891	0.0016336	1001.9	5.9981e-05	6.7218e-05	1131.4	256.96	6.1152e-05	6.7181e-05	412.66	141.75	126.18	41.277	6.2483e-05	62.835	217.964	94.335	-51.884	-111.314	232.799	107.966	-111.673	-106.013	231.071	78.757	-106.490	-101.415	-101.204	-96.124	49.348	-97.745	-8191	255	
2937.379	1	1	0	0	0.16033	0.16433	0.17979	0.1198	0.12972	0.28531	0.23361	0.071376	0.12434	0.1519	0.15248	0.19802	0.22311	0.36686	0.43431	0.14885	-0.8375	-0.62083	-0.49792	-1.3104	-0.50625	-0.9	-1.2729	-0.125	-1.3188	-0.78125	-0.625	-1.2854	-0.3125	-0.9875	-1.0625	-0.59792	83.528	-99.238	-59.193	97.887	208.355	195.862	225.538	194.954	-27.210	154.069	-93.790	44.558	178.975	214.446	103.674	175.761	0.00040764	0.0025401	0.00039035	565.43	1.382e-05	2.0175e-05	671.43	145.81	1.6517e-05	1.1128e-05	222.12	75.753	43.27	18.949	5.9106e-06	36.62	0.0054489	0.0060725	0.0015492	968.47	6.1854e-05	6.4099e-05	1096.7	250.51	6.2181e-05	6.3894e-05	401.22	138.17	127.77	39.866	5.9536e-05	61.475	214.062	-25.340	-3.602	-111.510	217.718	54.981	-111.400	-106.092	194.266	7.477	-106.356	-102.034	-101.476	-96.159	-98.902	-98.016	-8191	255	
2937.475	1	1	0	0	0.13452	0.15701	0.19456	0.056594	0.084576	0.29914	0.23091	0.15088	0.15844	0.16575	0.1481	0.13945	0.1853	0.087879	0.14081	0.052837	-0.78333	-0.76667	-0.52083	-1.2271	-0.87083	-0.76458	-1.3042	-0.30625	-1.2917	-0.675	-0.375	-1.45	-0.6	-0.64375	-1.2083	-0.39792	-68.881	130.077	-13.534	-99.262	47.088	-20.266	43.325	110.720	232.011	181.605	5.247	172.702	-49.709	87.217	-68.915	174.362	0.00024397	0.00077267	0.00031429	559	1.4428e-05	1.3378e-05	671.98	143.24	3.8355e-06	1.3265e-05	219.31	74.621	42.787	18.763	1.6119e-05	36.106	0.005522	0.0057911	0.0014807	957.24	6.3497e-05	6.1702e-05	1082.7	249.35	6.3409e-05	6.1966e-05	391.39	137.72	128.21	38.553	5.6337e-05	61.421	225.218	-7.965	-94.429	-111.626	209.828	123.971	-111.042	-105.858	-23.268	61.609	-106.567	-101.329	-100.792	-96.314	10.885	-98.168	-8191	255	
2937.596	1	1	0	0	0.3908	0.077192	0.10992	0.23003	0.051652	0.11079	0.10193	0.24024	0.18046	0.18375	0.044726	0.23903	0.19158	0.15672	0.27431	0.20111	-0.67917	-0.73333	-0.28542	-1.1667	-0.52083	-0.62917	-1.2958	-0.38333	-1.0187	-0.89792	-0.30833	-1.3021	-0.5875	-0.64792	-1.4375	-0.52917	-31.197	-63.125	147.900	184.230	208.549	62.067	177.083	-118.556	212.723	173.944	89.841	-97.158	43.140	131.330	204.276	-99.801	0.00045161	0.0016591	0.00046705	558.48	9.1138e-06	6.6737e-06	669.56	143.57	2.957e-06	2.7967e-06	222.55	76.207	44.745	19.006	1.5692e-05	36.569	0.0054009	0.005399	0.0013542	949.27	6.0698e-05	5.6414e-05	1038.6	242.52	5.5206e-05	5.3062e-05	365.98	133.46	118.01	35.836	4.709e-05	59.534	-122.502	-43.463	-43.400	-111.227	85.987	109.560	-111.286	-106.563	-5.754	-12.329	-106.864	-101.864	-100.984	-96.122	-2.052	-97.898	-8191	255	
2937.692	1	1	0	0	0.11261	0.28531	0.063111	0.065816	0.054646	0.12012	0.11235	0.29782	0.19359	0.098858	0.10225	0.10724	0.10127	0.071781	0.16523	0.3296	-0.44167	-0.90625	-0.25417	-1.2625	-0.72083	-0.35625	-1.3458	-0.475	-0.80208	-1.3125	-0.32708	-1.4312	-0.89583	-0.50208	-1.0917	-0.40208	-108.661	-56.736	38.190	189.579	-23.132	113.159	113.066	171.497	177.405	-117.455	215.597	137.396	137.234	-101.662	226.756	165.770	0.00022732	0.001766	0.0002988	556.98	4.7872e-06	4.3725e-06	662.69	146.74	1.439e-05	1.723e-05	225.28	77.382	45.887	19.783	5.9892e-06	37.496	0.004574	0.0045575	0.001125	895.38	4.8698e-05	4.41e-05	945.8	230.68	4.3185e-05	4.0561e-05	332.91	123.61	100.13	31.99	3.6098e-05	55.965	-110.541	-35.382	59.248	-111.750	72.406	56.610	-111.396	-105.825	-20.093	62.542	-106.886	-101.798	-100.819	-96.478	210.820	-97.284	-8191	255	
2937.788	1	1	0	0	0.26956	0.24537	0.15018	0.16957	0.305	0.15384	0.17978	0.15867	0.19392	0.19615	0.1865	0.16184	0.12107	0.16629	0.19447	0.089125	-0.44375	-1.1	-0.40833	-1.1208	-0.80208	-0.20833	-1.3167	-0.49792	-0.79167	-1.2229	-0.42083	-1.0646	-1.0562	-0.1375	-1.3229	-0.45417	86.867	-99.354	-84.211	146.118	85.801	-70.333	-33.819	158.347	-24.266	-96.875	-106.138	174.812	94.415	234.202	213.198	233.955	0.00031904	0.0013579	0.00013643	554.76	7.6222e-06	1.8721e-05	663.5	152.87	2.1037e-06	1.414e-05	231.44	81.228	48.622	20.634	2.8913e-06	38.914	0.0034757	0.0035002	0.00090864	839.71	4.0213e-05	3.6394e-05	910.31	228.79	3.7651e-05	3.5969e-05	333.77	123.7	97.087	31.459	3.4587e-05	55.874	-54.550	-2.368	140.404	-111.500	143.619	1.476	-111.382	-105.890	-38.246	5.062	-107.199	-101.529	-100.843	-96.648	178.872	-97.797	-8191	255	
2937.909	1	1	0	0	0.10084	0.11554	0.20693	0.10392	0.24397	0.16736	0.23638	0.18959	0.25522	0.06633	0.12826	0.16903	0.10558	0.13636	0.094293	0.23928	-0.22083	-1.075	-0.24583	-1.1562	-0.88125	-0.37917	-1.2604	-0.52917	-0.56042	-1.1812	-0.39583	-0.99375	-0.97917	-0.23958	-1.1375	-0.90833	211.670	-41.822	32.081	-74.101	-59.918	-109.253	178.494	92.000	108.296	157.324	219.722	157.464	135.361	179.675	133.897	-46.492	0.0001904	0.0011128	0.00039915	557.68	1.2384e-05	2.3591e-05	659.88	154.81	6.3514e-06	1.1012e-05	235.16	82.555	48.653	20.894	1.5405e-05	39.412	0.0031153	0.003122	0.00088028	815.24	3.5721e-05	3.2043e-05	902.19	224.9	3.4312e-05	3.2687e-05	338.13	122.37	95.646	31.346	3.611e-05	56.286	-110.763	6.347	134.463	-110.938	12.853	23.186	-111.308	-105.853	-1.115	-14.154	-106.459	-101.427	-100.980	-96.041	-100.768	-97.881	-8191	255	
2938.005	1	1	0	0	0.17736	0.067641	0.18384	0.28307	0.090139	0.29053	0.096695	0.19337	0.067941	0.18871	0.34773	0.22151	0.38235	0.14605	0.19422	0.13482	-0.15417	-1.0604	-0.28542	-0.71667	-1.0104	-0.40625	-1.2125	-0.775	-0.29375	-1.2667	-0.42708	-1.0688	-1.1271	-0.34375	-1.0979	-0.56042	-104.072	-110.602	102.231	169.041	-23.259	-24.987	151.064	142.952	138.670	230.335	226.486	-35.206	-34.399	96.748	77.563	-24.584	0.00015001	0.00081274	0.0005781	558.29	1.0015e-05	1.6083e-05	666.73	157.78	3.7039e-06	6.3284e-06	237.6	83.749	50.262	21.429	1.4617e-05	40.365	0.0030392	0.0030542	0.00092781	806.54	3.4911e-05	3.1734e-05	913.49	225.41	3.3253e-05	3.2531e-05	346.4	122.45	95.207	31.909	3.7136e-05	56.167	-68.585	24.961	181.031	-110.485	34.769	218.913	-111.156	-105.893	-58.935	107.845	-106.851	-102.000	-101.520	-96.804	-101.383	-98.033	-8191	255	
2938.077	1	1	0	0	0.3599	0.22872	0.27962	0.3139	0.27049	0.14758	0.26049	0.296	0.1065	0.20087	0.1511	0.066197	0.26294	0.26968	0.22314	0.14477	-0.054167	-1.0104	-0.36667	-1.0979	-1.0417	-0.30625	-1.2854	-0.72917	-0.31875	-1.1729	-0.625	-0.79583	-1.0375	-0.40417	-0.85208	-1.1083	48.820	-56.801	175.004	-37.945	171.793	93.016	218.869	-111.326	-54.665	-82.739	76.543	-7.512	128.235	-113.858	-98.676	178.191	0.00023492	0.0019717	0.00015844	554.02	1.475e-05	1.3753e-05	666.64	157.71	1.0603e-05	1.08e-05	238.62	83.177	49.799	21.355	1.1728e-05	39.873	0.0028962	0.0030459	0.00094345	793.41	3.3585e-05	3.2708e-05	916.16	224.24	3.1946e-05	3.3744e-05	347.37	120.63	93.572	32.429	3.7348e-05	55.723	-62.678	127.002	19.212	-110.768	35.366	200.207	-111.106	-105.774	54.618	222.808	-107.054	-101.684	-101.513	-96.031	11.414	-97.798	-8191	255	
2938.196	1	1	0	0	0.2539	0.06783	0.16978	0.20789	0.023666	0.14881	0.16554	0.14682	0.2356	0.29067	0.22594	0.10742	0.14314	0.17288	0.18482	0.20611	0.064583	-1.2417	-0.5375	-0.68125	-1.2	-0.40625	-0.87292	-1.075	-0.11875	-1.2146	-0.71042	-0.55833	-1.3125	-0.4	-0.875	-1.1083	192.557	-4.891	-1.063	208.531	157.648	42.057	193.348	-111.338	49.411	152.842	115.796	74.491	148.738	-41.811	165.903	154.570	0.00015989	0.0018832	0.00017029	554.98	5.0906e-06	2.2117e-05	660.61	160.5	1.7266e-05	6.0324e-06	242.53	86.017	51.673	22.134	1.7199e-05	41.033	0.002844	0.0032757	0.00096933	792.24	3.3411e-05	3.5564e-05	917.44	227.14	3.1924e-05	3.6181e-05	352.78	122.63	94.941	34.058	3.6412e-05	56.733	195.117	126.578	-4.332	-110.830	-49.223	179.875	-111.048	-105.946	20.178	197.659	-106.806	-101.964	-100.997	-96.476	47.025	-97.791	-8191	255	
2938.292	1	1	0	0	0.068523	0.2218	0.3227	0.040327	0.38069	0.042416	0.13712	0.13177	0.21179	0.07816	0.38449	0.25001	0.34988	0.083716	0.15762	0.19598	-0.054167	-1.1292	-0.78542	-0.57708	-1.1479	-0.54375	-0.76042	-1.1729	-0.325	-1.2604	-0.80208	-0.41875	-1.075	-0.46458	-0.78958	-1.1771	-32.160	220.382	153.541	-40.418	184.560	-29.452	223.362	-64.859	24.217	2.810	157.477	224.330	-61.705	-63.327	-87.693	222.436	0.00025113	0.00024871	0.0004017	561.48	9.2085e-06	5.7684e-06	672.25	164.22	1.3233e-05	1.8166e-05	247.22	87.458	52.428	22.448	1.3412e-05	41.664	0.0028257	0.003435	0.00095893	796.81	3.4043e-05	3.8541e-05	926.65	231.99	3.4204e-05	4.0032e-05	362.65	126.39	100.86	36.196	3.9165e-05	58.3	227.349	-75.034	-22.503	-110.807	-68.307	1.170	-111.216	-106.011	181.298	151.290	-106.821	-101.420	-101.137	-96.359	36.242	-97.623	-8191	255	
2938.388	1	1	0	0	0.086088	0.17863	0.28369	0.36817	0.10373	0.12132	0.23345	0.42576	0.19226	0.10096	0.13488	0.20502	0.23486	0.19347	0.31621	0.16065	0.0083333	-0.91875	-0.98958	-0.1875	-1.2229	-0.66042	-0.65625	-1.3813	-0.325	-0.79583	-1.0958	-0.2125	-1.1354	-0.49375	-0.46458	-1.3896	-95.337	127.044	54.350	-117.229	185.556	-15.530	112.469	160.700	80.574	-57.306	-100.681	-104.122	91.352	117.849	180.828	-62.110	0.00038068	0.00071529	0.00034514	561.76	8.0423e-06	1.2317e-05	672.33	164.02	5.5044e-06	1.0537e-05	244.61	87.376	52.762	22.606	6.3404e-06	41.49	0.0032033	0.0038436	0.0010196	810.44	3.8427e-05	4.2746e-05	944.15	235.19	3.8722e-05	4.2918e-05	366.9	126.86	106.19	36.875	4.0228e-05	58.482	217.377	-28.385	-60.372	-110.859	169.089	52.065	-110.990	-105.846	220.170	-37.425	-106.930	-101.564	-101.107	-96.463	-42.759	-97.950	-8191	255	
2938.484	1	1	0	0	0.038742	0.095133	0.014183	0.26347	0.33189	0.18942	0.17313	0.18825	0.08265	0.059228	0.065045	0.22801	0.24595	0.035175	0.27946	0.073658	-0.029167	-0.96875	-0.97292	-0.38125	-1.2208	-0.47708	-0.72292	-1.1771	-0.61458	-0.76042	-1.1938	-0.22083	-1.2729	-0.92708	-0.50417	-1.2458	216.887	235.631	68.627	204.445	-114.390	195.751	177.131	197.537	-55.304	-28.237	146.018	73.993	-64.591	80.996	57.652	190.165	0.00044509	0.00051533	0.00014535	563	1.4049e-05	1.2168e-05	668.3	161.96	1.4591e-05	6.8457e-06	243.41	85.084	51.263	22.073	1.4466e-05	40.425	0.003612	0.0040172	0.0010684	820.01	4.2624e-05	4.4349e-05	950.14	235.21	4.2685e-05	4.3705e-05	367.02	126.59	109.52	36.554	4.0502e-05	58.066	227.939	-56.185	-56.779	-111.113	220.493	36.119	-110.684	-105.652	225.332	-48.335	-106.866	-101.951	-101.813	-96.350	-5.218	-98.343	-8191	255	
2938.605	1	1	0	0	0.13146	0.4358	0.28467	0.12392	0.09158	0.019852	0.19533	0.23732	0.053983	0.13843	0.069856	0.044007	0.16142	0.19867	0.034638	0.15506	0.077083	-0.7125	-1.0312	-0.35417	-1.2208	-0.61042	-0.58125	-1.0521	-0.4125	-0.71042	-1.2146	-0.23958	-0.84167	-0.9875	-0.27083	-1.5438	54.647	-45.744	215.180	-80.806	76.438	106.216	25.770	167.344	90.925	231.255	190.327	223.716	-39.743	67.592	234.129	84.327	0.00022116	0.0011836	0.00062946	560.8	7.5984e-06	2.7058e-05	661.92	158.35	1.0176e-05	9.7398e-06	239.46	83.027	50.024	21.557	5.2889e-06	39.941	0.003932	0.0040749	0.0010916	834.73	4.6702e-05	4.6248e-05	957.25	238.86	4.8305e-05	4.6452e-05	370.96	130.78	115.54	37.015	4.2128e-05	59.782	189.733	200.110	-47.641	-111.306	-106.359	10.792	-110.907	-106.304	-74.398	-6.363	-106.851	-101.850	-101.030	-96.257	-7.873	-98.224	-8191	255	
2938.676	1	1	0	0	0.15821	0.11905	0.063225	0.15409	0.2282	0.29198	0.24272	0.069031	0.12834	0.096199	0.11472	0.32941	0.13551	0.18654	0.21614	0.065901	-0.18125	-0.61667	-1.0708	-0.16875	-1.0646	-0.70417	-0.58542	-1.2604	-0.73333	-0.56458	-1.1167	-0.55417	-0.9375	-1.1896	-0.44375	-1.1667	81.404	130.708	-59.125	150.668	58.651	36.918	-107.542	112.464	32.160	50.403	-110.600	-67.724	135.922	214.786	51.457	142.754	0.00031707	0.0017701	0.00026676	552.2	9.3573e-06	6.6005e-06	662.12	154.17	8.0475e-06	1.0639e-05	232.36	80.683	48.09	20.605	1.5399e-05	38.783	0.0042482	0.0041629	0.0011061	859.31	4.9033e-05	4.7033e-05	959.08	242.42	5.035e-05	4.7038e-05	366.07	132.84	115.09	36.434	4.2903e-05	60.793	214.659	-29.281	-79.129	-111.104	76.556	-14.158	-111.130	-105.893	4.405	22.088	-106.583	-102.100	-100.749	-96.489	-81.343	-97.822	-8191	255	
2938.772	1	1	0	0	0.05656	0.16294	0.21079	0.082249	0.20718	0.16727	0.25166	0.36978	0.10696	0.23716	0.21645	0.14283	0.29713	0.18488	0.083782	0.26521	-0.28958	-0.78333	-1.1917	-0.36458	-0.78125	-0.925	-0.25208	-1.15	-0.71667	-0.31042	-1.3854	-0.61667	-1.0104	-1.0979	-0.20625	-1.2062	150.321	-115.977	155.550	142.854	28.254	14.930	128.488	110.843	204.874	232.029	98.111	163.104	151.060	58.179	14.752	130.541	9.481e-05	0.00060659	0.00013586	553.53	9.876e-06	1.0671e-05	662.77	150.08	4.5281e-06	3.8865e-06	227.11	78.295	47.199	20.286	1.8418e-05	37.794	0.0044372	0.0043312	0.0011491	902.92	5.1334e-05	4.9763e-05	977.1	250.79	5.3141e-05	4.9659e-05	370.82	137.84	117.21	36.844	4.6616e-05	62.597	-63.353	-16.840	-37.805	-111.508	-3.042	31.003	-111.603	-105.821	-16.687	173.536	-106.649	-101.977	-100.455	-96.161	194.723	-97.933	-8191	255	
2938.869	1	1	0	0	0.13263	0.20369	0.19851	0.13791	0.36071	0.10421	0.02235	0.060371	0.1845	0.14607	0.11114	0.29373	0.12628	0.10949	0.24472	0.12715	-0.47292	-0.31667	-1.3021	-0.60208	-1.1083	-1.25	-0.49375	-1.0125	-1.0083	-0.43125	-1.0979	-0.575	-0.65417	-1.1479	-0.37292	-1.1354	106.927	232.113	211.793	120.061	183.103	-21.014	-87.642	97.932	167.058	-14.592	160.352	173.620	209.212	217.217	-106.721	182.113	0.00021567	0.0016104	0.00072039	553.18	1.4078e-05	1.7027e-05	662.61	147.72	6.2484e-06	1.0891e-05	220.34	76.314	44.371	19.164	2.6929e-05	36.691	0.0046893	0.0045517	0.0012627	946.36	5.4329e-05	5.3051e-05	1017.6	259.27	5.7351e-05	5.3005e-05	387.61	143.8	121.59	37.576	5.51e-05	65.07	-87.166	-45.775	157.872	-111.302	34.868	45.007	-111.576	-105.724	-36.917	33.766	-106.997	-101.945	-100.640	-96.433	201.106	-97.267	-8191	255	
2938.988	1	1	0	0	0.23358	0.1776	0.078374	0.31349	0.077346	0.11843	0.011303	0.11432	0.22114	0.17451	0.029441	0.0763	0.27103	0.43241	0.24783	0.22314	-0.56042	-0.24583	-1.2208	-0.66042	-0.33125	-1.1729	-0.4375	-1.025	-0.97708	-0.42083	-1.0896	-0.70625	-0.31667	-1.1583	-0.32917	-0.93542	-55.945	65.180	69.839	236.335	-75.019	16.600	29.454	107.217	-42.735	10.965	62.194	-81.600	-95.023	-104.441	-94.321	160.401	0.00012728	0.0015619	0.00030137	557.76	1.6657e-05	2.7425e-05	661.08	146.91	1.1823e-05	1.9989e-05	220.28	77.131	45.277	19.333	2.9413e-05	37.048	0.0051864	0.0049886	0.0014831	999.04	5.9085e-05	5.6701e-05	1079	267.12	6.083e-05	5.5344e-05	408.11	147.76	124.6	38.097	6.0289e-05	65.534	-7.840	-22.443	103.515	-110.996	64.483	-11.233	-111.364	-105.454	29.895	87.881	-106.613	-101.785	-100.790	-95.631	177.539	-97.381	-8191	255	
2939.084	1	1	0	0	0.13789	0.072051	0.14361	0.15237	0.2191	0.17324	0.23784	0.15471	0.28288	0.19465	0.25215	0.12692	0.29195	0.081449	0.24628	0.14131	-0.51875	-0.2625	-1.1688	-0.87917	-0.65833	-1.4292	-0.4875	-0.92917	-1.1625	-0.2125	-1.2938	-0.97917	-0.35625	-1.2521	-0.71458	-0.74792	170.617	-47.030	-19.145	-93.772	-64.299	-6.818	101.863	-102.291	-1.752	-116.713	128.806	161.334	-56.808	138.887	132.669	212.923	0.00025771	0.0013432	0.00055639	557.83	4.9177e-06	2.0527e-05	666.38	145.77	3.0674e-06	1.0169e-05	220.96	77.109	44.874	19.581	2.4955e-05	37.329	0.0051913	0.0049478	0.0015519	991.25	5.7023e-05	5.5007e-05	1090.7	259.7	5.7394e-05	5.2995e-05	406.8	143.39	119.21	37.741	6.0811e-05	64.197	-59.033	93.239	182.291	-111.126	10.218	135.460	-111.364	-105.589	147.079	-44.028	-106.761	-101.984	-100.825	-96.947	228.294	-97.310	-8191	255	
2939.180	1	1	0	0	0.2795	0.16198	0.15532	0.19183	0.063556	0.079578	0.042814	0.084053	0.26078	0.23606	0.10605	0.021431	0.12744	0.1222	0.12085	0.35562	-0.7125	-0.20208	-1.0396	-0.85833	-0.30833	-1.35	-0.46458	-0.72708	-1.2229	-0.41875	-1.2167	-0.85	-0.65833	-1.4312	-0.55208	-0.87292	161.367	-104.541	-48.281	-97.658	58.822	40.102	-84.336	100.403	-90.951	33.431	215.068	-39.340	215.944	-57.126	123.031	165.406	0.00025185	0.0025448	0.00029017	558.66	1.3976e-05	3.2102e-05	660.57	146.83	7.6777e-06	1.5653e-05	223.58	77.282	46.225	19.537	1.7287e-05	37.412	0.0049405	0.0049414	0.0015476	966.77	5.3658e-05	5.4816e-05	1087.2	255.01	5.4487e-05	5.4625e-05	406.56	141.09	115.81	38.312	5.95e-05	62.866	-102.872	168.416	-72.890	-111.413	36.328	190.662	-111.090	-105.412	16.531	203.692	-106.871	-101.848	-100.489	-96.360	87.900	-97.148	-8191	255	
2939.278	1	1	0	0	0.042724	0.039945	0.23306	0.18698	0.11411	0.13905	0.047054	0.28727	0.026834	0.12785	0.12078	0.16804	0.21029	0.024392	0.13423	0.14407	-0.90833	-0.33958	-0.93333	-1.1125	-0.57292	-1.1604	-0.64375	-0.68125	-1.0917	-0.43542	-0.86667	-1.0792	-0.47708	-1.1542	-0.9	-0.3125	174.183	87.484	-53.099	46.938	196.986	-113.124	201.155	-92.734	176.791	170.372	231.049	196.121	208.897	-121.338	72.373	148.573	0.00011851	0.0027505	0.00048852	548.46	4.3515e-06	2.5503e-05	658.56	147.45	1.2997e-05	1.6965e-05	220.98	76.299	45.054	19.246	9.1003e-06	37.022	0.0046226	0.0050425	0.0014849	940.26	5.0103e-05	5.5058e-05	1057.7	247.71	4.9997e-05	5.4152e-05	390.35	135.59	110.04	37.917	5.597e-05	60.619	-29.603	155.701	-99.490	-111.308	175.070	150.084	-111.087	-105.534	0.686	194.029	-106.349	-101.982	-100.820	-96.372	-54.788	-97.504	-8191	255	
2939.372	1	1	0	0	0.11533	0.081175	0.30646	0.12158	0.10048	0.086262	0.21704	0.18015	0.23586	0.10834	0.26005	0.1915	0.10269	0.08806	0.40968	0.095917	-0.75	-0.42917	-0.63125	-1.3604	-0.091667	-1.2542	-0.78958	-0.53542	-1.1854	-0.64375	-0.72083	-1.3563	-0.1375	-1.1625	-0.75208	-0.60417	-46.857	-95.744	227.866	158.026	133.680	-46.273	154.235	69.885	-118.297	30.003	105.755	60.665	156.929	31.042	150.393	221.523	0.00040688	0.0020904	0.0003696	551.61	8.0592e-06	5.325e-06	656.43	143.93	5.6716e-06	7.2571e-06	219.02	75.207	43.451	19.168	2.8382e-05	36.823	0.0043845	0.0050889	0.0013969	920.24	4.8371e-05	5.5204e-05	1033.4	237.5	4.808e-05	5.3669e-05	372.73	128.92	105.92	36.527	5.0023e-05	57.395	-104.577	163.894	-75.925	-111.168	192.448	150.325	-110.948	-105.515	-74.098	206.072	-106.297	-101.775	-100.901	-96.323	14.544	-96.999	-8191	255	
2939.468	1	1	0	0	0.2082	0.13442	0.29888	0.31656	0.087264	0.10454	0.26616	0.25029	0.12435	0.18723	0.25901	0.18244	0.21178	0.090732	0.11414	0.2857	-1.0396	-0.45208	-0.8125	-1.0438	-0.30417	-0.82083	-1.1042	-0.54167	-1.3229	-0.38333	-0.67292	-1.1979	-0.30833	-1.1583	-0.81667	-0.40208	-52.606	-46.347	-103.953	176.401	65.637	-22.997	189.768	-96.119	164.758	51.803	203.394	-71.443	42.290	229.660	130.542	208.245	0.00034548	0.0013806	0.00039563	552.01	1.1852e-05	7.0516e-06	659.9	142.67	2.0002e-05	6.9402e-06	217.73	76.127	43.152	19.258	3.2331e-06	36.7	0.0040827	0.004733	0.0012337	867.41	4.5342e-05	5.0075e-05	989.76	223.95	4.5218e-05	4.8685e-05	352.9	122.03	102.37	34.698	4.4e-05	54.373	180.860	-40.114	-58.020	-111.072	217.798	170.289	-111.144	-105.515	202.627	170.119	-106.399	-101.285	-101.308	-95.778	-14.281	-97.529	-8191	255	
2939.589	1	1	0	0	0.38504	0.037212	0.1037	0.15857	0.18105	0.20067	0.2841	0.25513	0.20427	0.018495	0.19395	0.15108	0.20819	0.061992	0.19476	0.357	-0.81875	-0.79583	-0.77917	-1.1146	-0.27292	-0.79583	-1.1667	-0.43333	-1.2833	-0.63958	-0.65833	-1.325	-0.53958	-1.0146	-1.1542	-0.47708	-28.426	198.595	-47.829	232.776	225.435	133.000	172.657	159.335	25.710	138.966	172.393	174.202	-91.524	-122.935	-104.237	-87.996	0.0002358	0.00030902	0.00070561	549.89	1.1961e-05	1.0609e-05	656.19	142.12	1.7456e-05	6.7871e-06	216.79	75.669	43.188	19.004	4.2909e-06	36.666	0.0038305	0.0041909	0.0010741	821.72	4.2876e-05	4.4161e-05	943.14	211.97	4.205e-05	4.2372e-05	330.78	114.77	96.368	31.863	3.6693e-05	51.292	165.048	66.678	-14.377	-110.809	-101.510	5.012	-111.021	-105.603	203.660	79.501	-106.601	-101.811	-100.660	-95.846	63.784	-97.229	-8191	255	
2939.685	1	1	0	0	0.1376	0.18014	0.19907	0.2064	0.092704	0.38721	0.13645	0.30452	0.079998	0.17541	0.37602	0.1964	0.21798	0.1877	0.037312	0.16135	-0.78958	-0.74583	-0.5625	-1.3458	-0.54792	-0.88542	-1.2354	-0.2375	-0.98542	-0.78333	-0.275	-1.4479	-0.68125	-0.69375	-1.2625	-0.375	203.862	190.627	-72.256	35.909	-28.296	-13.153	-6.191	196.419	191.923	-0.120	233.157	200.628	69.608	215.707	-60.260	60.554	0.00022818	0.00030627	9.9243e-05	543.23	1.216e-05	1.588e-05	655.22	143.42	2.1227e-06	1.0464e-05	218.43	75.489	43.508	19.208	8.1589e-06	36.673	0.0033713	0.0034569	0.00087176	774.02	3.7659e-05	3.6256e-05	889.92	204.3	3.7484e-05	3.6383e-05	316.08	112.54	94.482	31	3.4371e-05	52.028	-120.508	1.602	-109.013	-111.195	-105.407	55.763	-111.059	-105.478	95.901	19.625	-106.249	-101.451	-100.421	-95.119	-30.706	-97.913	-8191	255	
2939.781	1	1	0	0	0.12113	0.14471	0.17527	0.24219	0.28315	0.069007	0.10006	0.28426	0.20793	0.15392	0.10889	0.37007	0.21386	0.11332	0.17131	0.42235	-0.575	-0.95625	-0.12708	-1.4188	-0.6	-0.73333	-1.3083	-0.45208	-1.3292	-1.0167	-0.28125	-1.2167	-0.53125	-0.73958	-1.2667	-0.51875	-112.045	21.413	199.123	192.518	99.064	-9.652	-100.736	166.391	72.551	50.715	-117.626	-65.475	200.261	143.866	26.371	187.559	0.00022449	0.00055237	0.00053629	550.89	5.5675e-06	2.0909e-05	665.94	144.53	6.8512e-06	3.0002e-06	220.78	76.441	44.793	19.316	4.9808e-06	37.231	0.0033877	0.0034353	0.00086769	803.57	4.0422e-05	3.7741e-05	909.97	214.96	4.0598e-05	3.9271e-05	325.12	119.58	99.432	32.018	3.6527e-05	54.874	223.615	229.665	-42.682	-110.909	62.320	56.296	-111.088	-105.951	-4.129	91.065	-106.813	-101.323	-100.880	-95.861	-48.027	-97.712	-8191	255	
2939.877	1	1	0	0	0.25082	0.084419	0.13372	0.24228	0.076928	0.31317	0.33667	0.15449	0.037523	0.22369	0.065942	0.071673	0.2453	0.40812	0.20414	0.13473	-0.66875	-0.84375	-0.41667	-1.1187	-0.80208	-0.35417	-1.3729	-0.27292	-1.0042	-0.88542	-0.52708	-1.3062	-0.86458	-0.41875	-1.2667	-0.62083	-27.433	-51.848	47.372	145.774	-28.244	0.266	190.701	168.877	0.259	53.851	165.713	-35.530	-93.294	77.959	63.032	165.210	0.00015206	0.0013546	6.0938e-05	557.58	1.0796e-05	1.5134e-05	667.08	142.66	5.7185e-06	1.0348e-05	217.33	75.43	43.689	19.107	1.0392e-05	36.304	0.0036209	0.0036692	0.0009197	845.21	4.2741e-05	4.0112e-05	933.24	224.68	4.3594e-05	4.2606e-05	333.58	124.88	103.56	32.715	4.0204e-05	56.89	19.194	-62.998	-41.977	-111.419	37.342	-19.808	-111.232	-105.632	94.370	-56.234	-106.432	-101.302	-100.402	-96.092	-26.530	-97.192	-8191	255	
2939.973	1	1	0	0	0.11389	0.07572	0.055141	0.30568	0.12127	0.17406	0.0135	0.51566	0.15441	0.36034	0.17275	0.14383	0.098989	0.30108	0.29547	0.1257	-0.57917	-1.125	-0.45	-1.3208	-0.78333	-0.475	-1.3896	-0.4625	-0.80833	-1.2271	-0.425	-0.8625	-1.0458	-0.47083	-1.2083	-0.52917	-92.893	223.327	102.929	72.860	3.050	67.400	68.805	198.197	-8.472	204.188	-100.976	154.209	161.611	149.794	-57.857	187.832	0.00018507	0.0020032	0.00026559	559.95	1.4727e-05	2.3713e-05	662.56	142.45	1.5982e-05	6.8316e-06	215.3	74.575	42.022	18.432	2.115e-05	35.648	0.0038349	0.0038816	0.0010119	873.28	4.4065e-05	4.0361e-05	941.77	227.05	4.2199e-05	4.0444e-05	333.74	122.7	99.285	31.345	4.0778e-05	55.914	-80.136	-24.200	144.684	-110.856	45.934	-8.620	-111.223	-105.888	50.424	88.411	-106.362	-101.718	-100.777	-96.003	221.035	-97.468	-8191	255	
2940.070	1	1	0	0	0.13706	0.25298	0.29507	0.12529	0.23919	0.22314	0.11533	0.2707	0.28265	0.025768	0.14086	0.038216	0.25629	0.17982	0.31808	0.28362	-0.39583	-1.2021	-0.22708	-1.0875	-0.93125	-0.27292	-1.3917	-0.64375	-0.48125	-0.99375	-0.58333	-0.86042	-1.1125	-0.35833	-1.1333	-0.65625	-24.611	97.328	218.198	207.987	165.592	138.398	130.675	135.553	231.236	-11.938	128.724	200.375	14.763	136.098	153.680	210.645	0.00027619	0.0014685	0.00036464	557.94	1.0561e-05	4.0175e-05	656.71	139.62	3.7537e-06	5.427e-06	211.47	73.476	42.191	18.288	2.119e-05	35.957	0.0037036	0.0037268	0.0010719	871.28	4.4026e-05	3.9872e-05	965.34	227.65	4.3622e-05	4.1468e-05	346.82	124.31	102.27	31.941	4.6597e-05	57.479	230.290	-41.977	126.539	-110.921	83.555	-15.825	-111.564	-106.020	84.882	-42.163	-107.195	-101.155	-100.779	-96.229	233.642	-97.347	-8191	255	
2940.164	1	1	0	0	0.27234	0.13416	0.22412	0.22773	0.12107	0.38056	0.19875	0.12386	0.12998	0.025764	0.30774	0.018249	0.11846	0.26199	0.17898	0.20546	-0.05	-1.1667	-0.54792	-0.91875	-1.0042	-0.21042	-1.3417	-0.80833	-0.40417	-1.2708	-0.52292	-0.60833	-1.2958	-0.25208	-0.92708	-1.15	-98.535	79.098	159.810	-10.394	204.392	-100.048	-64.482	183.022	-120.700	-23.332	120.139	207.616	56.911	207.271	-99.879	12.639	9.7321e-05	0.0012918	0.00057974	555.18	5.6227e-06	1.0978e-05	665.55	139.83	7.9546e-06	9.1337e-06	211.95	72.624	41.041	17.821	1.0507e-05	35.122	0.0039506	0.00397	0.0012197	891.72	4.7085e-05	4.3417e-05	1013.7	234.89	4.716e-05	4.6366e-05	371.4	129.43	108.67	33.977	5.5567e-05	60.083	-103.186	-16.534	101.775	-110.856	19.426	176.475	-111.261	-105.985	-3.104	188.817	-107.042	-101.365	-100.622	-96.099	213.686	-96.949	-8191	255	
2940.285	1	1	0	0	0.28325	0.044724	0.31612	0.087933	0.36868	0.046955	0.073762	0.25898	0.31749	0.17312	0.25987	0.18712	0.2266	0.1821	0.23399	0.15971	0.13333	-1.2812	-0.17917	-0.79375	-1.1625	-0.22292	-1.1063	-0.95208	-0.49375	-1.2104	-0.65	-0.71667	-1.0229	-0.45417	-1.0187	-1.0521	61.162	182.560	31.049	-96.547	-10.791	53.529	210.608	110.385	-97.720	107.536	-117.839	47.363	35.821	-121.165	-16.852	116.756	0.00022491	0.00086943	0.00039433	563.07	9.5035e-06	3.7506e-05	668.85	137.54	7.9377e-06	1.5237e-05	211.49	71.127	40.565	17.295	1.3543e-05	34.138	0.0045234	0.0047663	0.0014831	951.89	5.3563e-05	5.2712e-05	1083.8	246.2	5.2062e-05	5.4829e-05	392	132.9	112.07	35.737	5.897e-05	60.202	-65.282	176.797	65.415	-110.689	27.100	199.187	-110.722	-105.447	49.897	233.198	-106.837	-101.571	-100.587	-96.457	-85.350	-97.443	-8191	255	
2940.381	1	1	0	0	0.15313	0.25694	0.058763	0.071279	0.31045	0.14794	0.20788	0.25785	0.23692	0.095269	0.22139	0.16422	0.16616	0.042791	0.055174	0.28614	0.020833	-0.9375	-0.53958	-0.70625	-1.3229	-0.49583	-0.97708	-1.1417	-0.49167	-1.1396	-0.71875	-0.59583	-1.4917	-0.53333	-0.92917	-1.1458	113.815	186.476	-123.076	207.379	159.942	119.333	-102.997	184.692	-37.074	216.583	123.492	166.659	113.076	74.898	-34.005	-39.403	0.00028584	0.0012562	0.0003117	556.66	8.114e-06	1.6358e-05	670.52	136.57	4.3431e-06	1.0787e-05	208.28	68.73	38.879	16.841	2.3796e-05	33.871	0.0045451	0.0052014	0.0015337	954.73	5.3932e-05	5.8045e-05	1096.6	247.43	5.3757e-05	6.0643e-05	397.71	134.29	114.17	37.715	6.1781e-05	61.384	-53.175	122.348	203.121	-110.979	-26.322	197.582	-110.841	-105.934	112.737	169.064	-106.771	-101.410	-100.816	-96.229	-26.981	-96.966	-8191	255	
2940.477	1	1	0	0	0.28445	0.10186	0.097984	0.23473	0.072653	0.18146	0.034036	0.27598	0.1864	0.19631	0.16445	0.36723	0.10954	0.19732	0.20863	0.21351	-0.060417	-0.9	-0.77083	-0.58333	-1.3042	-0.575	-0.82083	-1.3979	-0.22917	-1.2104	-0.97917	-0.38125	-1.2396	-0.57292	-0.72083	-1.2625	155.200	-39.838	186.110	12.268	221.007	151.918	138.517	144.236	24.821	42.003	-59.337	222.595	-91.364	-40.781	-82.488	-85.918	0.00026814	0.0010239	0.00020182	561.26	8.0664e-06	2.7994e-05	673.06	134.62	6.4018e-06	9.4195e-06	206.3	68.956	38.622	16.963	3.9525e-06	34.124	0.0048531	0.0058306	0.0016238	973.61	5.7552e-05	6.4365e-05	1108	248.66	5.6307e-05	6.4196e-05	398.21	133.64	117.19	38.885	6.2047e-05	61.599	217.765	124.743	115.466	-111.099	-20.696	129.125	-110.859	-105.939	188.150	212.398	-106.646	-101.311	-101.244	-95.441	-57.096	-97.145	-8191	255	
#DATA ENDS
