BOXY.EXE: ISS Imagent and Oximeter Data Acquisition Program Version 0.80
Ascii Record File

#ACQ INFORMATION
2  Detector Channels 
16  External MUX Channels 
1  Auxiliary Channels 
5000  Waveform (CCF) Frequency (Hz)
1  Waveforms Skipped 
30  Waveforms Averaged 
1  Cycles Averaged 
16  Acquisitions per Waveform 
10.0806  Updata Rate (Hz) 

#FILE INFORMATION
TRUE -- External MUX Channel results are PARSED.
FALSE -- AC DC and Phase are NOT grouped.
TRUE -- Companion Program Settings File CREATED.
FALSE -- AC data not excluded
FALSE -- DC data not excluded
FALSE -- Phase data not excluded
FALSE -- Auxillary Chn. data not excluded
Tab delimiters

#CALIBRATION STATE
TRUE -- Waveform Calibration Values APPLIED.


#AUX CALIBRATION VALUES
Val Type	aux-1	

Term	1.0000e+00	
Factor	0.0000e+00	


#WF CALIBRATION VALUES
A = Detector Channel
Val Type	A-AC1	A-AC2	A-AC3	A-AC4	A-AC5	A-AC6	A-AC7	A-AC8	A-AC9	A-AC10	A-AC11	A-AC12	A-AC13	A-AC14	A-AC15	A-AC16	A-DC1	A-DC2	A-DC3	A-DC4	A-DC5	A-DC6	A-DC7	A-DC8	A-DC9	A-DC10	A-DC11	A-DC12	A-DC13	A-DC14	A-DC15	A-DC16	A-Ph1	A-Ph2	A-Ph3	A-Ph4	A-Ph5	A-Ph6	A-Ph7	A-Ph8	A-Ph9	A-Ph10	A-Ph11	A-Ph12	A-Ph13	A-Ph14	A-Ph15	A-Ph16	

Term	0.00000e+00	0.00000e+00	0.00000e+00	0.00000e+00	0.00000e+00	0.00000e+00	0.00000e+00	0.00000e+00	0.00000e+00	0.00000e+00	0.00000e+00	0.00000e+00	0.00000e+00	0.00000e+00	0.00000e+00	0.00000e+00	0.00000e+00	0.00000e+00	0.00000e+00	0.00000e+00	0.00000e+00	0.00000e+00	0.00000e+00	0.00000e+00	0.00000e+00	0.00000e+00	0.00000e+00	0.00000e+00	0.00000e+00	0.00000e+00	0.00000e+00	0.00000e+00	0.00000e+00	0.00000e+00	0.00000e+00	0.00000e+00	0.00000e+00	0.00000e+00	0.00000e+00	0.00000e+00	0.00000e+00	0.00000e+00	0.00000e+00	0.00000e+00	0.00000e+00	0.00000e+00	0.00000e+00	0.00000e+00	
Factor	1.00000e+00	1.00000e+00	1.00000e+00	1.00000e+00	1.00000e+00	1.00000e+00	1.00000e+00	1.00000e+00	1.00000e+00	1.00000e+00	1.00000e+00	1.00000e+00	1.00000e+00	1.00000e+00	1.00000e+00	1.00000e+00	1.00000e+00	1.00000e+00	1.00000e+00	1.00000e+00	1.00000e+00	1.00000e+00	1.00000e+00	1.00000e+00	1.00000e+00	1.00000e+00	1.00000e+00	1.00000e+00	1.00000e+00	1.00000e+00	1.00000e+00	1.00000e+00	X	X	X	X	X	X	X	X	X	X	X	X	X	X	X	X	

B = Detector Channel
Val Type	B-AC1	B-AC2	B-AC3	B-AC4	B-AC5	B-AC6	B-AC7	B-AC8	B-AC9	B-AC10	B-AC11	B-AC12	B-AC13	B-AC14	B-AC15	B-AC16	B-DC1	B-DC2	B-DC3	B-DC4	B-DC5	B-DC6	B-DC7	B-DC8	B-DC9	B-DC10	B-DC11	B-DC12	B-DC13	B-DC14	B-DC15	B-DC16	B-Ph1	B-Ph2	B-Ph3	B-Ph4	B-Ph5	B-Ph6	B-Ph7	B-Ph8	B-Ph9	B-Ph10	B-Ph11	B-Ph12	B-Ph13	B-Ph14	B-Ph15	B-Ph16	

Term	0.00000e+00	0.00000e+00	0.00000e+00	0.00000e+00	0.00000e+00	0.00000e+00	0.00000e+00	0.00000e+00	0.00000e+00	0.00000e+00	0.00000e+00	0.00000e+00	0.00000e+00	0.00000e+00	0.00000e+00	0.00000e+00	0.00000e+00	0.00000e+00	0.00000e+00	0.00000e+00	0.00000e+00	0.00000e+00	0.00000e+00	0.00000e+00	0.00000e+00	0.00000e+00	0.00000e+00	0.00000e+00	0.00000e+00	0.00000e+00	0.00000e+00	0.00000e+00	-9.65827e+01	-1.43805e+02	-1.39444e+02	-1.81677e+02	-5.59979e+01	-8.92971e+01	-1.59950e+02	-1.62015e+02	-5.08740e+01	-7.88643e+01	-1.72352e+02	-1.71128e+02	-1.81284e+02	-1.77091e+02	-7.77532e+01	-1.49524e+02	
Factor	1.36684e-05	1.02022e-04	2.72554e-05	1.62761e-01	7.49054e-07	1.57017e-06	1.72592e-01	4.32996e-02	7.46595e-07	8.31903e-07	7.37064e-02	2.64361e-02	3.12763e-02	7.71586e-03	1.03788e-06	1.11046e-02	1.01505e-06	1.06720e-06	2.95085e-07	8.33522e-02	1.16206e-08	1.16285e-08	8.30791e-02	2.23858e-02	1.15920e-08	1.16152e-08	3.63287e-02	1.30762e-02	1.58931e-02	3.95424e-03	1.15352e-08	5.46625e-03	X	X	X	X	X	X	X	X	X	X	X	X	X	X	X	X	



#DISTANCE SETTINGS
A = Detector Channel
A-1	A-2	A-3	A-4	A-5	A-6	A-7	A-8	A-9	A-10	A-11	A-12	A-13	A-14	A-15	A-16	

2.5000e+00	3.0000e+00	2.5000e+00	3.0000e+00	2.0000e+00	3.0000e+00	1.5000e+00	3.0000e+00	3.0000e+00	3.0000e+00	3.0000e+00	3.0000e+00	3.0000e+00	3.0000e+00	1.5000e+00	3.0000e+00	

B = Detector Channel
B-1	B-2	B-3	B-4	B-5	B-6	B-7	B-8	B-9	B-10	B-11	B-12	B-13	B-14	B-15	B-16	

1.0000e+01	1.0000e+01	1.0000e+01	1.4400e+00	1.0000e+01	1.0000e+01	1.5100e+00	1.9400e+00	1.0000e+01	1.0000e+01	1.9900e+00	2.4900e+00	2.4100e+00	2.9000e+00	1.0000e+01	2.9800e+00	




#DATA BEGINS
time	group	step	mark	flag	A-AC1	A-AC2	A-AC3	A-AC4	A-AC5	A-AC6	A-AC7	A-AC8	A-AC9	A-AC10	A-AC11	A-AC12	A-AC13	A-AC14	A-AC15	A-AC16	A-DC1	A-DC2	A-DC3	A-DC4	A-DC5	A-DC6	A-DC7	A-DC8	A-DC9	A-DC10	A-DC11	A-DC12	A-DC13	A-DC14	A-DC15	A-DC16	A-Ph1	A-Ph2	A-Ph3	A-Ph4	A-Ph5	A-Ph6	A-Ph7	A-Ph8	A-Ph9	A-Ph10	A-Ph11	A-Ph12	A-Ph13	A-Ph14	A-Ph15	A-Ph16	B-AC1	B-AC2	B-AC3	B-AC4	B-AC5	B-AC6	B-AC7	B-AC8	B-AC9	B-AC10	B-AC11	B-AC12	B-AC13	B-AC14	B-AC15	B-AC16	B-DC1	B-DC2	B-DC3	B-DC4	B-DC5	B-DC6	B-DC7	B-DC8	B-DC9	B-DC10	B-DC11	B-DC12	B-DC13	B-DC14	B-DC15	B-DC16	B-Ph1	B-Ph2	B-Ph3	B-Ph4	B-Ph5	B-Ph6	B-Ph7	B-Ph8	B-Ph9	B-Ph10	B-Ph11	B-Ph12	B-Ph13	B-Ph14	B-Ph15	B-Ph16	aux-1	digaux	

3804.006	1	1	0	256	0.082089	0.14425	0.20165	0.083188	0.1414	0.22488	0.22599	0.14927	0.040998	0.24015	0.12029	0.28417	0.074873	0.32887	0.15409	0.066327	0.2375	-0.49167	-0.47083	-0.070833	-0.9	-0.18958	-0.5625	-0.73125	0.12292	-0.53958	-0.7125	0.00625	-0.95	-0.29167	-0.1625	-0.87292	198.904	180.575	279.256	-17.890	254.207	-17.338	74.612	-13.330	310.616	71.687	261.456	270.651	-23.144	250.877	77.364	41.742	0.00011969	0.00082531	0.00030119	370.84	5.9037e-06	4.4054e-06	484.22	101.61	3.2216e-06	5.2442e-06	183.74	65.266	30.017	11.439	3.7962e-06	28.117	0.0014323	0.0015898	0.00041918	489.16	1.6527e-05	1.731e-05	608.64	133.73	1.6465e-05	1.729e-05	234.75	83.876	52.847	17.342	1.6189e-05	35.715	206.514	-25.389	54.146	-21.393	234.110	248.827	-21.650	-16.249	60.303	111.499	-17.416	-12.495	-11.425	-7.997	135.553	-8.638	-8191	255	
3804.102	1	1	0	0	0.18582	0.0358	0.13174	0.15712	0.22263	0.14814	0.13763	0.17586	0.27031	0.019719	0.38587	0.10274	0.34166	0.067587	0.34479	0.36427	0.30833	-0.51667	-0.525	0.010417	-0.70625	-0.25208	-0.17917	-0.82917	-0.2	-0.7875	-0.7875	0.035417	-0.79167	-0.26042	-0.014583	-1.1187	34.477	294.945	106.372	195.807	305.613	63.279	132.333	-5.552	-29.024	42.641	258.806	-7.488	308.986	190.372	0.080	-29.154	0.00015926	0.00070535	0.00036325	373.33	3.3732e-06	3.5855e-06	487.16	102.19	3.7512e-06	8.8285e-06	184.31	65.368	30.645	11.647	9.5837e-06	28.325	0.0014909	0.0015848	0.00041781	490.8	1.7072e-05	1.7224e-05	610.15	135.1	1.726e-05	1.7068e-05	236.01	84.484	54.172	17.562	1.6394e-05	36.21	186.391	12.167	46.849	-21.631	121.056	139.929	-21.743	-16.416	100.469	1.739	-17.680	-12.739	-12.053	-7.780	65.396	-9.062	-8191	255	
3804.222	1	1	0	0	0.10503	0.20279	0.22369	0.30157	0.3145	0.14339	0.23193	0.072898	0.2644	0.074384	0.25509	0.21312	0.074235	0.22619	0.19091	0.091863	0.19375	-0.20208	-0.8	0.0375	-0.76458	-0.44583	-0.0625	-0.94792	0.00625	-0.62083	-0.94583	0.029167	-0.66875	-0.71875	-0.016667	-0.93125	-27.447	273.477	30.083	-1.483	16.431	122.895	244.697	306.747	0.711	107.606	-24.819	-21.178	27.111	3.590	-2.425	184.204	0.0001767	0.0012309	5.8146e-05	375.51	7.7383e-06	6.3927e-06	490.9	103.31	7.2216e-06	6.6485e-06	184.36	65.004	30.327	11.414	8.9045e-06	27.62	0.0015701	0.0015967	0.00042581	499.08	1.8003e-05	1.7325e-05	615.15	137.57	1.8042e-05	1.7163e-05	236.94	84.861	54.727	17.287	1.6368e-05	35.862	213.348	275.301	263.344	-21.694	184.341	79.807	-21.344	-15.969	65.739	-11.152	-17.596	-12.519	-12.331	-7.849	16.752	-8.840	-8191	255	
3804.294	1	1	0	0	0.20844	0.22078	0.12828	0.062975	0.16421	0.2944	0.15551	0.29274	0.21381	0.36642	0.11704	0.12376	0.11123	0.39623	0.12554	0.22459	0.1625	-0.10833	-0.8	-0.047917	-0.66667	-0.55417	0.14792	-0.79375	-0.44375	-0.30625	-0.8	-0.125	-0.64167	-0.6125	0.13958	-0.8375	299.018	9.567	290.916	200.509	263.719	18.614	133.323	-33.623	207.036	220.444	1.741	286.218	-34.191	23.708	273.880	273.422	5.0135e-05	0.00048225	0.000202	374.72	1.9373e-06	7.5013e-06	491.58	103.42	9.2195e-06	4.6164e-06	185.27	65.16	30.448	11.432	2.7932e-06	27.864	0.0015707	0.0015561	0.00041909	502.46	1.771e-05	1.6947e-05	613.48	138.14	1.7438e-05	1.6556e-05	237.07	85.373	54.209	17.191	1.6275e-05	36.255	299.714	-11.716	-22.547	-21.396	160.491	77.243	-22.079	-16.615	86.203	80.653	-17.176	-12.588	-12.198	-7.635	258.409	-8.546	-8191	255	
3804.389	1	1	0	0	0.13616	0.2028	0.27195	0.10931	0.05266	0.30319	0.032512	0.21074	0.15761	0.2444	0.13697	0.27902	0.22597	0.19625	0.021828	0.33728	0.20208	-0.4	-0.95208	-0.13542	-0.575	-0.59167	-0.08125	-0.94167	-0.45	-0.16458	-0.79583	-0.26875	-0.61042	-0.76875	-0.0020833	-0.65208	-11.983	-28.313	255.681	284.135	46.468	131.188	29.733	15.505	181.611	74.229	227.641	190.374	236.554	227.617	50.511	219.914	8.8209e-05	0.00063329	7.5523e-05	377.53	4.1739e-06	1.1534e-05	493.16	104.31	4.0916e-06	4.9017e-06	186.61	65.063	30.386	11.313	7.1839e-06	27.87	0.0015397	0.0015403	0.00042019	507.93	1.7618e-05	1.6848e-05	619.14	141.02	1.7651e-05	1.6999e-05	239.64	86.523	54.563	17.244	1.711e-05	36.692	199.474	-5.564	130.501	-21.556	96.465	126.142	-21.149	-16.339	321.258	-29.033	-17.570	-12.624	-12.080	-7.292	189.285	-8.266	-8191	255	
3804.485	1	1	0	0	0.14903	0.17171	0.1639	0.15092	0.049407	0.22393	0.10199	0.034142	0.19777	0.28825	0.094587	0.22835	0.21652	0.075694	0.12358	0.10003	0.11667	0.089583	-0.68125	-0.16458	-0.46458	-0.75208	0.175	-0.75208	-0.4125	0.09375	-0.7375	-0.22292	-0.29583	-0.78542	0.11458	-0.74167	157.949	78.905	187.676	24.417	-14.993	79.508	127.176	286.729	47.577	267.100	319.664	41.292	33.043	-22.402	139.856	186.550	0.0001242	0.00010987	0.0002165	379.42	5.0442e-06	8.659e-06	496.41	105.23	1.7508e-06	6.0229e-06	187.28	65.31	30.3	11.451	1.091e-05	27.99	0.0015707	0.0015887	0.00044825	521.22	1.8081e-05	1.753e-05	631.38	143.89	1.8263e-05	1.7608e-05	245.55	87.876	55.291	17.527	1.8501e-05	37.162	171.116	29.396	48.863	-21.575	166.799	53.054	-21.832	-16.530	321.949	93.371	-17.467	-12.624	-12.336	-7.398	244.146	-8.879	-8191	255	
3804.583	1	1	0	0	0.20184	0.13055	0.31477	0.20253	0.26004	0.24899	0.11169	0.033131	0.28609	0.16548	0.26603	0.20032	0.19914	0.1007	0.23254	0.098278	-0.16875	-0.047917	-0.77083	-0.30208	-0.11667	-1.0292	0.014583	-0.47083	-0.45208	0.077083	-0.98542	-0.52292	-0.15833	-0.77917	-0.047917	-0.66875	254.120	324.523	-0.140	284.341	19.714	-12.036	201.187	274.166	111.810	5.598	287.884	280.732	-10.778	34.627	179.458	-31.787	7.5007e-05	0.00064806	0.00026878	382.86	3.0537e-06	1.274e-05	496.82	105.49	5.4237e-07	2.8613e-06	188.21	65.449	30.801	11.456	6.0875e-06	27.82	0.0016102	0.0016264	0.0004782	523.11	1.8259e-05	1.7894e-05	640.85	144.15	1.8192e-05	1.7749e-05	248.34	87.546	55.172	17.56	1.9159e-05	36.746	178.569	94.472	84.042	-22.082	218.685	159.171	-21.836	-15.991	161.807	107.861	-17.438	-12.918	-11.690	-7.200	101.826	-8.451	-8191	255	
3804.701	1	1	0	0	0.17892	0.29285	0.17895	0.20368	0.10862	0.24115	0.31414	0.15215	0.30714	0.31929	0.3103	0.17122	0.15657	0.2322	0.28146	0.17826	-0.27708	0.064583	-0.66458	-0.44167	-0.27292	-0.80208	0.16042	-0.36875	-0.65417	0.21042	-0.74583	-0.52917	-0.05625	-0.96667	-0.10208	-0.21875	307.716	166.107	173.733	53.499	297.662	5.333	323.969	163.684	106.585	-10.000	35.562	-6.491	208.465	200.174	76.248	1.259	6.5684e-05	0.00021035	0.00034339	383.15	6.8429e-06	2.4605e-05	499.25	106.73	2.0203e-06	1.022e-05	189.31	65.932	31.122	11.396	5.0351e-06	27.982	0.0015895	0.0016454	0.00049276	522.59	1.7999e-05	1.8104e-05	644.65	143.94	1.7936e-05	1.8027e-05	250.23	87.415	55.005	17.745	1.9221e-05	36.859	261.877	138.853	2.368	-22.058	66.643	162.833	-21.713	-16.478	57.377	178.150	-17.293	-12.672	-12.110	-7.304	2.947	-8.561	-8191	255	
3804.798	1	1	0	0	0.24436	0.27136	0.22613	0.13396	0.1234	0.26111	0.20918	0.062863	0.099547	0.092816	0.20635	0.25972	0.04542	0.17604	0.021238	0.064232	-0.35208	-0.11875	-0.80625	-0.475	0.20625	-0.74375	-0.21042	-0.47083	-0.69792	0.25625	-0.65417	-0.61458	-0.097917	-0.91875	-0.070833	-0.36667	184.317	171.621	321.264	35.824	305.985	155.279	52.744	133.474	97.165	319.545	218.222	286.627	48.846	53.346	52.039	149.266	0.00011231	0.0005319	4.547e-05	386.14	3.0833e-06	8.9189e-07	503.47	105.75	4.9712e-06	1.9725e-06	189.61	66.524	30.939	11.515	5.4678e-06	28.304	0.0015612	0.0016763	0.00048779	519.85	1.7534e-05	1.8159e-05	642.32	142.13	1.7171e-05	1.8036e-05	248.08	87.013	54.151	17.87	1.8441e-05	36.783	188.136	138.385	163.353	-22.241	62.866	130.424	-21.796	-16.627	296.584	163.679	-17.513	-12.930	-11.628	-7.655	47.307	-8.798	-8191	255	
3804.869	1	1	0	0	0.13701	0.18745	0.265	0.2321	0.20862	0.070041	0.13769	0.14871	0.19631	0.38349	0.29055	0.099035	0.21987	0.20584	0.12861	0.20456	-0.38125	0.12292	-0.40625	-0.4625	0.022917	-0.86667	-0.31042	-0.2375	-0.9875	-0.054167	-0.76875	-0.7875	0.30833	-0.80208	-0.34792	-0.25625	270.294	297.466	208.669	285.762	262.695	79.259	260.841	273.304	64.174	55.075	295.038	250.009	252.215	56.461	128.842	213.138	6.0151e-05	0.00047649	6.9023e-05	385.35	3.1638e-06	4.6333e-06	500.2	106.8	1.5199e-07	4.6043e-07	189.73	66.814	30.905	11.415	1.1018e-05	28.24	0.0015137	0.0016864	0.00046793	514.41	1.7142e-05	1.8406e-05	637.13	141.73	1.7002e-05	1.8358e-05	247.08	86.815	54.377	17.803	1.7713e-05	36.213	187.253	84.100	57.255	-22.078	252.542	197.071	-21.868	-16.376	135.844	215.060	-16.993	-12.831	-11.889	-6.902	82.829	-8.871	-8191	255	
3804.990	1	1	0	0	0.21231	0.036866	0.1011	0.12095	0.18363	0.11635	0.20015	0.36758	0.11976	0.20773	0.15042	0.037719	0.35034	0.25941	0.073038	0.088276	-0.13333	0.097917	-0.54375	-0.69167	-0.0083333	-0.75417	-0.46667	-0.11875	-0.81875	-0.06875	-0.4375	-0.72917	0.066667	-0.4875	-0.54375	-0.18333	190.331	90.914	209.568	-31.140	148.458	260.022	129.515	263.230	215.866	6.653	-3.255	321.907	253.559	190.057	66.623	219.464	0.0001899	0.00026791	0.00011511	385.06	4.4834e-06	8.2144e-06	497.55	105.85	4.5954e-06	5.3792e-06	188.36	66.623	30.997	11.317	9.0434e-06	27.969	0.0015004	0.0016815	0.00044985	510.73	1.7289e-05	1.8408e-05	629.3	140.5	1.7289e-05	1.8417e-05	243.62	86.421	54.894	17.738	1.736e-05	35.986	187.306	32.963	128.251	-21.653	-8.460	315.618	-22.208	-16.087	233.160	100.213	-17.544	-12.982	-11.926	-7.139	103.035	-8.788	-8191	255	
3805.086	1	1	0	0	0.11598	0.095903	0.11325	0.39764	0.11815	0.11083	0.19229	0.67893	0.22329	0.18688	0.15426	0.20132	0.2652	0.09907	0.13637	0.24768	-0.375	0.04375	-0.085417	-0.75833	-0.13125	-0.63542	-0.34375	-0.045833	-1.0542	-0.16458	-0.041667	-0.87292	-0.079167	-0.48333	-0.53958	-0.13333	160.864	-16.648	292.357	-17.111	46.900	129.771	299.502	265.079	302.365	287.471	143.129	239.626	302.331	323.661	194.771	277.890	0.0002053	0.00057518	0.00015968	380.02	8.177e-06	8.855e-06	496.27	106.42	3.7258e-06	2.0618e-06	189	66.363	31.506	11.563	5.8123e-06	28.563	0.0015525	0.001695	0.00044369	508.26	1.801e-05	1.8502e-05	628.45	140.91	1.816e-05	1.8469e-05	244.06	86.818	56.417	17.843	1.7426e-05	36.506	143.255	251.388	267.094	-21.712	205.348	22.565	-21.893	-16.498	188.783	-11.340	-17.729	-12.791	-11.685	-7.133	130.685	-8.983	-8191	255	
3805.182	1	1	0	0	0.062609	0.33191	0.023437	0.044201	0.0097623	0.15035	0.16233	0.22423	0.058875	0.12773	0.10651	0.27035	0.1995	0.1795	0.19473	0.070313	-0.44375	-0.20417	0.072917	-0.77917	-0.16458	-0.60417	-0.7625	0.0125	-0.79375	-0.26667	-0.18542	-0.93125	-0.29583	-0.51458	-0.71458	0.20417	-0.003	-20.086	146.462	-0.042	273.604	296.070	311.364	302.180	-4.258	175.290	68.360	200.544	127.370	200.367	280.295	-29.062	0.00025292	0.0002457	0.0002161	381.44	6.0661e-06	9.9827e-06	495.34	105.51	4.4003e-06	8.9673e-06	188.7	66.968	31.177	11.617	2.798e-06	28.718	0.0016302	0.0016898	0.00044634	510.77	1.8723e-05	1.845e-05	628.95	141.31	1.8941e-05	1.8437e-05	244.38	87.75	57.403	17.975	1.7557e-05	37.209	181.593	281.272	312.264	-21.562	277.113	-13.978	-21.842	-16.207	183.079	75.358	-17.881	-12.376	-11.902	-7.268	-16.990	-8.625	-8191	255	
3805.303	1	1	0	0	0.042373	0.38953	0.092152	0.14675	0.21157	0.20504	0.11094	0.086539	0.25338	0.16294	0.20672	0.25105	0.21687	0.055528	0.079147	0.17129	-0.32917	-0.37292	-0.16042	-0.98125	-0.17708	-0.53958	-0.8625	0.1375	-0.58125	-0.51875	-0.10625	-1.0354	-0.20208	-0.19792	-0.775	-0.19583	200.339	303.533	-6.537	-33.478	73.384	-22.854	80.100	308.773	300.559	0.183	167.017	-32.421	55.433	232.124	99.284	99.099	4.5387e-05	0.0007587	0.00030031	380.94	6.9873e-06	8.6033e-06	496.39	105.03	1.9408e-06	3.853e-06	188.63	66.943	31.041	11.451	8.399e-06	28.162	0.0016825	0.0016911	0.00044918	516.63	1.9279e-05	1.8283e-05	629.12	142.58	1.9291e-05	1.842e-05	244.58	88.876	57.623	17.826	1.7732e-05	37.195	205.644	322.315	52.183	-21.553	241.974	0.465	-21.783	-16.263	104.810	181.808	-17.346	-12.725	-12.198	-6.988	51.519	-8.749	-8191	255	
3805.397	1	1	0	0	0.060144	0.090005	0.090579	0.13168	0.44613	0.086891	0.11013	0.32245	0.24807	0.2186	0.12016	0.23764	0.15396	0.34056	0.12859	0.30276	-0.26042	-0.42083	0.15	-0.69583	-0.20625	-0.14375	-0.92917	-0.3625	-0.49375	-0.62917	-0.020833	-0.67917	-0.30208	-0.28333	-0.79375	0.095833	84.724	177.872	241.884	307.913	193.798	294.317	142.830	33.183	235.704	244.747	258.331	323.293	177.931	291.585	222.485	39.953	7.6002e-05	0.00039332	0.00011651	382.83	5.1966e-06	4.6313e-06	494.69	105.42	6.7136e-06	3.1597e-06	187.75	66.418	31.1	11.567	1.2614e-05	28.177	0.0016978	0.0016878	0.00045121	522.57	1.9312e-05	1.822e-05	627.72	143.42	1.8874e-05	1.8042e-05	243.56	89.049	57.055	17.746	1.781e-05	37.451	172.265	-10.748	179.181	-21.584	148.747	62.386	-21.588	-16.543	-13.590	152.791	-17.470	-12.578	-11.861	-7.584	191.332	-8.925	-8191	255	
3805.493	1	1	0	0	0.13435	0.15043	0.078993	0.12715	0.19547	0.17204	0.42705	0.14201	0.35671	0.29941	0.12032	0.53966	0.193	0.13525	0.32802	0.30372	0.11875	-0.61667	-0.1375	-0.78333	-0.26042	-0.054167	-1.0458	-0.17917	-0.4125	-0.9375	0.09375	-0.69375	-0.5875	-0.12708	-1.025	-0.066667	208.376	86.297	-4.059	219.172	80.175	152.784	236.609	-22.413	164.389	-16.423	-21.912	118.632	185.068	244.190	60.234	-33.053	4.1495e-05	0.00047698	8.91e-05	383.84	8.2873e-06	1.162e-05	492.67	104.99	6.5276e-06	6.1616e-06	187.96	66.993	31.244	11.66	1.8478e-06	28.915	0.0016592	0.0016726	0.00045674	527.23	1.887e-05	1.8077e-05	631.56	144.68	1.8676e-05	1.803e-05	245.44	89.914	56.884	17.859	1.8321e-05	38.197	91.863	112.563	281.978	-21.600	39.590	45.675	-21.786	-16.357	75.036	63.087	-17.392	-12.471	-12.740	-7.407	191.312	-9.257	-8191	255	
3805.590	1	1	0	0	0.16014	0.14984	0.32514	0.23638	0.023837	0.22658	0.094303	0.15885	0.20643	0.23935	0.17464	0.16815	0.045247	0.068255	0.21178	0.22043	0.00625	-0.62292	-0.05625	-0.78333	-0.39792	-0.091667	-0.97917	-0.3875	-0.32708	-0.69375	0.12917	-0.93542	-0.50833	0.027083	-0.70625	-0.39167	17.837	23.460	183.232	43.691	5.637	230.272	155.013	319.220	35.285	94.335	264.474	41.540	114.083	219.678	228.938	256.281	5.3133e-05	0.00090249	0.00017152	382.69	2.1662e-06	7.6417e-06	494.53	105.31	2.4961e-06	2.8938e-06	187.93	67.72	30.94	11.857	8.9318e-06	29.377	0.0016299	0.0016545	0.0004726	527.85	1.8586e-05	1.8087e-05	636.06	144.79	1.8481e-05	1.8067e-05	248.47	90.397	56.615	18.002	1.919e-05	38.567	74.682	292.464	139.019	-21.364	1.218	214.208	-21.571	-16.432	273.832	11.366	-17.341	-12.556	-12.314	-7.078	197.851	-8.739	-8191	255	
3805.686	1	1	0	0	0.051503	0.052879	0.24302	0.47393	0.28807	0.099808	0.20642	0.10567	0.31156	0.69339	0.16076	0.22658	0.11172	0.047928	0.16093	0.16048	0.03125	-0.8875	0.10625	-0.4	-0.75833	-0.041667	-0.95625	-0.225	-0.16875	-1.1063	-0.18958	-0.59792	-0.64167	-0.064583	-0.66042	-0.66042	10.825	190.204	175.652	239.478	135.351	135.819	290.615	317.399	3.893	-30.066	111.828	108.167	279.669	142.060	222.156	271.620	9.5693e-05	0.00047683	0.00022067	383.86	7.1862e-06	9.2143e-06	494.44	104.14	4.2641e-06	6.4055e-06	187.94	67.114	31.017	11.69	1.5857e-05	28.667	0.0016308	0.0016726	0.00049815	526.39	1.8752e-05	1.8393e-05	642.18	144.02	1.8616e-05	1.8557e-05	251.66	89.902	56.886	18.093	2.0202e-05	37.916	141.153	229.194	79.583	-21.686	100.761	275.399	-21.706	-16.346	161.139	151.243	-17.617	-12.701	-12.875	-7.641	182.315	-8.960	-8191	255	
3805.782	1	1	0	0	0.11834	0.056774	0.02459	0.10825	0.22498	0.33548	0.10657	0.20953	0.28411	0.14504	0.17524	0.15508	0.30653	0.10028	0.22221	0.072354	0.23958	-0.75	0.035417	-0.625	-0.80625	0.045833	-0.65417	-0.375	-0.15417	-1.0458	-0.13958	-0.11875	-0.67292	-0.01875	-0.72917	-0.33958	221.528	80.537	251.654	77.855	265.208	243.817	72.384	120.861	41.770	38.251	-15.596	172.574	-10.231	180.980	17.074	126.888	9.7088e-05	0.00053529	0.00014156	382.05	2.4756e-06	1.2184e-05	495.4	104.19	4.6584e-06	6.2021e-06	187.73	66.642	30.912	11.587	3.8878e-06	28.502	0.001653	0.0017595	0.00052229	526.08	1.905e-05	1.9346e-05	648.9	144.16	1.8965e-05	1.9632e-05	253.18	89.492	57.156	18.491	2.075e-05	38.054	163.014	173.642	285.658	-21.948	176.442	206.114	-21.703	-16.496	-13.621	214.943	-17.342	-12.549	-12.307	-7.242	244.330	-9.029	-8191	255	
3805.878	1	1	0	0	0.16411	0.13052	0.24315	0.12505	0.19992	0.16869	0.12343	0.23917	0.16268	0.29456	0.14782	0.025278	0.24541	0.18887	0.1152	0.21152	0.27292	-0.8	-0.34375	-0.33542	-0.81042	0.15	-0.88125	-0.5625	-0.09375	-0.86042	-0.30417	-0.21042	-0.97708	-0.00625	-0.38542	-0.73125	180.973	84.600	325.293	286.138	133.421	299.455	43.009	281.829	64.616	252.049	303.608	177.407	232.275	-25.883	27.512	48.514	0.00016386	0.00075015	0.00021985	377.53	3.1487e-06	5.0684e-06	493.65	104.78	4.1855e-06	4.8296e-06	186.48	66.085	30.79	11.757	9.6484e-06	28.622	0.0016975	0.0018901	0.00054192	530.92	1.9788e-05	2.1008e-05	654.86	145.91	2.0068e-05	2.1774e-05	256.08	90.698	58.913	19.355	2.21e-05	38.728	177.567	165.521	65.856	-21.899	180.818	179.664	-21.838	-16.337	284.917	203.498	-17.515	-13.107	-12.655	-7.127	26.319	-9.198	-8191	255	
3805.999	1	1	0	0	0.068641	0.18302	0.16088	0.098875	0.24663	0.2594	0.18345	0.063237	0.15502	0.1252	0.035779	0.25996	0.040533	0.21108	0.091789	0.18761	0.425	-0.49792	-0.37708	-0.052083	-0.61875	0.05	-0.43125	-0.57917	-0.020833	-0.58125	-0.53542	-0.32708	-1.0104	-0.14375	-0.0625	-0.94375	291.400	323.896	176.550	119.012	89.556	212.605	-11.532	323.560	1.634	316.944	192.517	-22.914	234.301	308.471	306.348	306.770	0.00011176	0.0011901	0.00022062	379.68	7.8293e-06	5.4554e-06	495.54	103.25	2.7638e-06	1.0251e-05	184.24	66.084	30.65	11.552	7.6064e-06	28.348	0.0018373	0.0020961	0.00057056	538.29	2.1516e-05	2.3506e-05	662.36	147.34	2.2014e-05	2.4095e-05	258.14	91.586	61.558	20.019	2.3316e-05	39.164	178.177	115.215	295.115	-21.814	176.362	211.532	-21.591	-16.501	-9.020	189.081	-17.671	-12.907	-11.981	-7.091	322.205	-8.756	-8191	255	
3806.095	1	1	0	0	0.14341	0.24308	0.17451	0.1952	0.25101	0.28303	0.12082	0.19771	0.2218	0.28257	0.1681	0.20302	0.23838	0.056403	0.23877	0.17988	0.4375	-0.69167	-0.36667	-0.066667	-0.65625	-0.30417	-0.625	-0.69583	-0.035417	-0.69583	-0.64583	-0.079167	-0.86458	-0.41875	-0.39167	-0.78958	9.372	29.963	322.221	210.885	187.291	43.235	228.949	252.602	134.493	-4.188	175.679	216.450	197.624	258.214	162.690	215.097	0.00015664	0.00072414	0.0003384	380.04	6.7834e-06	7.7892e-06	491.44	101.83	4.645e-06	1.1493e-05	181.94	64.262	29.806	11.278	4.9319e-06	27.111	0.0020422	0.002326	0.00061506	550.56	2.4256e-05	2.5768e-05	668.45	148.51	2.4174e-05	2.5348e-05	257.73	90.949	63.069	19.853	2.3279e-05	37.802	150.254	206.195	7.376	-21.944	229.656	141.950	-21.903	-16.296	204.200	43.704	-17.702	-12.519	-12.010	-7.441	116.382	-8.915	-8191	255	
3806.166	1	1	0	0	0.098645	0.3321	0.14669	0.099609	0.12723	0.13803	0.11175	0.18501	0.15321	0.1542	0.1374	0.16083	0.21189	0.14057	0.092877	0.090308	0.29375	-0.66875	-0.4	0.10417	-1.0063	-0.19375	-0.18125	-1.0312	-0.21042	-0.54375	-0.74583	-0.25625	-0.83125	-0.45833	-0.28333	-0.76875	200.390	146.641	134.918	68.823	65.434	236.335	309.673	314.587	39.201	281.265	157.994	90.082	97.499	-29.634	176.017	53.255	0.00022338	0.0011693	0.00015943	376.04	5.1264e-06	1.4252e-05	484.53	100.53	5.5175e-06	2.8232e-06	181.08	63.391	29.501	11.196	2.3362e-06	27.321	0.0021154	0.0022481	0.00058579	538.83	2.4044e-05	2.4041e-05	652.91	145.15	2.3876e-05	2.3698e-05	252	89.109	62.26	19.297	2.1967e-05	37.777	178.097	306.478	114.860	-21.934	281.402	68.027	-21.931	-16.875	248.053	101.698	-17.804	-12.686	-11.587	-7.521	99.051	-8.852	-8191	255	
3806.263	1	1	0	0	0.17323	0.11024	0.22319	0.11855	0.067418	0.43087	0.29781	0.25019	0.023883	0.17966	0.053697	0.12292	0.10106	0.11135	0.17173	0.047238	0.35625	-0.7375	-0.81458	0.125	-0.77917	-0.34583	-0.23125	-1.175	-0.0875	-0.43958	-0.95	-0.14375	-0.65208	-0.63125	-0.041667	-0.675	261.357	184.480	61.469	302.182	237.146	118.719	38.270	-4.695	286.056	-22.017	255.949	97.124	252.436	64.623	42.807	314.825	0.00018092	0.00068551	0.00010278	374.09	5.6119e-06	6.9973e-06	481.9	100.31	5.0896e-06	5.0648e-06	180.32	63.419	29.67	11.255	5.6348e-06	27.339	0.0020976	0.002127	0.00056434	537.17	2.4015e-05	2.3118e-05	645.47	144.85	2.3867e-05	2.2685e-05	249.48	89.314	61.969	18.983	2.1453e-05	37.975	196.060	-16.516	21.953	-21.771	259.409	265.615	-21.912	-16.065	314.941	82.737	-17.876	-12.789	-12.314	-7.605	213.715	-8.773	-8191	255	
3806.382	1	1	0	0	0.24634	0.16178	0.13403	0.069518	0.13427	0.145	0.14665	0.28359	0.34323	0.011551	0.2586	0.090468	0.10068	0.11005	0.15678	0.27949	0.1875	-0.14583	-0.80833	0.13958	-0.65208	-0.25833	0.035417	-0.88542	-0.11042	-0.42917	-1.0021	-0.11042	-0.67917	-0.58958	-0.20417	-0.97917	144.242	208.890	57.113	12.217	-12.400	208.288	278.564	80.557	85.252	-8.823	315.860	317.289	-2.546	220.724	95.617	323.881	6.1286e-05	0.0010945	5.0079e-05	375.01	3.1176e-06	1.2281e-05	485.24	99.771	4.6324e-06	4.5197e-06	180.98	63.288	29.454	11.293	4.0344e-06	27.252	0.0020887	0.0020518	0.00054714	539.57	2.3487e-05	2.2068e-05	640.66	145.14	2.3209e-05	2.171e-05	247	89.653	60.674	18.731	2.0795e-05	38.064	208.383	66.504	-14.464	-21.835	110.422	324.112	-21.859	-16.287	163.052	75.746	-17.510	-12.650	-12.806	-7.481	168.229	-8.593	-8191	255	
3806.478	1	1	0	0	0.31052	0.22582	0.090698	0.16404	0.15533	0.17841	0.050923	0.3935	0.26623	0.075777	0.18647	0.2082	0.076069	0.16873	0.23282	0.14797	0.11042	-0.32083	-0.94792	-0.32917	-0.7875	-0.84792	-0.058333	-0.94167	-0.39167	-0.31458	-0.91042	-0.097917	-0.375	-0.60417	0.016667	-0.78958	256.539	242.885	-8.637	146.183	270.157	232.639	50.427	43.961	236.903	143.388	215.143	52.020	34.414	43.036	139.970	159.514	1.8709e-05	0.0004832	3.9558e-05	371.94	5.1428e-06	4.1417e-06	483.09	99.893	1.2992e-06	2.3758e-06	179.17	63.015	29.549	11.009	4.9106e-06	26.695	0.0019773	0.0019394	0.00052844	537.96	2.2079e-05	2.1075e-05	635.33	144.58	2.1858e-05	2.0723e-05	244.64	88.903	58.589	18.119	2.0397e-05	37.306	246.646	273.691	126.404	-22.241	95.365	256.711	-21.602	-16.412	133.575	-7.490	-17.613	-12.662	-12.618	-7.721	198.684	-8.516	-8191	255	
3806.574	1	1	0	0	0.25356	0.20678	0.20414	0.12439	0.13155	0.15325	0.16832	0.16017	0.026464	0.11821	0.23956	0.1731	0.31259	0.04748	0.13114	0.26165	-0.022917	-0.22083	-0.81042	-0.2625	-0.5375	-0.69792	-0.25833	-0.63958	-0.50208	0.00625	-0.78333	-0.13333	-0.10417	-0.67708	0.24167	-0.78125	76.722	195.683	79.390	194.022	29.640	87.282	266.004	275.930	95.105	217.036	279.637	163.623	-21.350	84.532	-23.122	247.436	2.6724e-05	0.00056254	0.00020938	370.8	2.7533e-06	1.3458e-05	485.48	100.34	6.8616e-06	1.1832e-06	179.69	63.692	29.447	11.238	6.2825e-06	27.419	0.0018683	0.0018567	0.00052458	534.28	2.0883e-05	2.0133e-05	636.52	144.14	2.0753e-05	1.9921e-05	245.84	88.954	57.55	18.119	2.0569e-05	37.568	296.143	268.286	111.462	-21.784	250.236	-23.354	-21.964	-16.696	35.908	-21.358	-17.457	-12.834	-11.533	-7.338	171.470	-8.520	-8191	255	
3806.670	1	1	0	0	0.12875	0.13454	0.21901	0.22771	0.13149	0.11867	0.20812	0.30018	0.14422	0.19651	0.29755	0.25521	0.39614	0.26711	0.27562	0.15555	-0.28958	-0.054167	-0.82292	-0.23333	-0.41667	-0.78125	-0.064583	-0.48125	-0.58542	-0.10208	-0.83125	-0.5125	-0.085417	-0.7125	0.03125	-0.76042	-24.155	49.241	228.937	145.561	261.388	153.175	231.840	283.212	134.443	266.108	272.240	246.687	285.615	184.498	262.903	281.802	5.6888e-05	0.00063838	0.00024995	375.18	4.3565e-06	3.6657e-06	487.14	100.74	6.7025e-06	2.5873e-06	182.34	64.566	29.74	11.504	1.0231e-05	27.68	0.0017813	0.0018046	0.00053066	531.19	2.0037e-05	1.9591e-05	641.18	143.32	2.013e-05	1.9525e-05	249.2	88.962	57.013	18.279	2.1127e-05	37.696	80.811	317.720	121.663	-21.928	31.612	137.789	-21.935	-16.683	151.073	91.174	-17.441	-12.869	-11.611	-7.411	287.320	-8.713	-8191	255	
3806.791	1	1	0	0	0.1525	0.12689	0.22328	0.2663	0.30183	0.314	0.31935	0.1066	0.14302	0.15791	0.13635	0.21161	0.20987	0.049132	0.15909	0.079158	-0.3625	-0.060417	-1.0708	-0.39792	-0.060417	-0.74792	-0.095833	-0.65625	-0.83542	0.0375	-0.81458	-0.25	-0.041667	-0.9	-0.29167	-0.77083	259.651	43.851	309.107	271.250	140.416	159.503	173.956	98.474	253.264	274.319	256.740	95.842	81.017	-3.573	182.824	165.806	0.00015951	0.00062073	2.9747e-05	375.96	6.6746e-06	6.8183e-06	487.71	101.18	3.0299e-06	2.8486e-06	182.57	64.5	29.958	11.481	4.0435e-06	27.964	0.0017514	0.0017935	0.00054424	528.82	1.984e-05	1.9803e-05	645.87	142.84	1.976e-05	1.9957e-05	251.17	88.736	56.872	18.452	2.1389e-05	37.666	129.293	263.646	124.163	-22.147	24.391	-5.540	-21.935	-16.291	142.402	241.616	-17.625	-12.782	-12.118	-7.098	323.034	-8.801	-8191	255	
3806.862	1	1	0	0	0.2297	0.3211	0.16305	0.29859	0.2233	0.037164	0.19111	0.12993	0.38998	0.041307	0.057189	0.096609	0.058942	0.10483	0.22173	0.20744	-0.31667	0.05	-0.57083	-0.53333	-0.0625	-0.72292	-0.40208	-0.25	-0.6	0.091667	-0.51042	-0.71042	-0.12083	-0.725	-0.11042	-0.37917	82.548	89.235	-9.634	15.104	117.799	120.257	217.361	122.809	96.674	50.494	-19.896	279.717	53.052	161.382	168.714	-34.315	0.00012716	0.00044185	0.00012799	375.78	3.3421e-06	1.5406e-05	487.43	101.49	6.3848e-06	9.0932e-06	182.51	64.504	30.024	11.503	4.575e-06	27.875	0.0017369	0.0018604	0.00054798	526.21	1.958e-05	2.0663e-05	647.44	141.92	1.9616e-05	2.048e-05	250.28	87.873	56.442	18.642	2.1211e-05	37.206	154.431	267.085	80.924	-21.823	109.666	147.450	-21.931	-16.454	32.342	120.919	-17.700	-12.323	-12.236	-7.668	268.851	-8.695	-8191	255	
3806.983	1	1	0	0	0.14454	0.12453	0.15859	0.3644	0.17854	0.18229	0.36036	0.015701	0.25471	0.10875	0.2572	0.16082	0.21736	0.030871	0.13949	0.12371	-0.57083	-0.18125	-0.54583	-0.68542	0.027083	-1.1708	-0.62917	-0.13958	-0.6375	-0.19167	-0.66458	-0.87292	-0.37917	-0.9375	-0.47708	-0.1375	26.316	97.539	178.901	13.034	199.448	238.579	324.987	96.217	-0.402	316.627	280.978	28.180	154.538	-16.015	118.780	287.372	0.00015836	0.00038767	0.00021924	374.54	2.8187e-06	9.8563e-06	489.06	102.6	8.1914e-06	4.2234e-06	184.02	65.004	30.343	11.535	2.1337e-06	28.075	0.0017203	0.0019272	0.00053808	523.56	1.9486e-05	2.1237e-05	645.56	142.44	1.9738e-05	2.147e-05	250.18	88.155	57.177	19.023	2.0831e-05	37.601	197.497	131.300	33.259	-21.686	271.618	163.866	-22.069	-16.641	175.467	151.464	-17.482	-12.886	-11.207	-6.817	157.958	-8.802	-8191	255	
3807.079	1	1	0	0	0.14155	0.21742	0.019462	0.096194	0.31214	0.2547	0.1751	0.38569	0.20905	0.0046558	0.12532	0.18148	0.16747	0.10254	0.072006	0.19922	-0.4	0.060417	-0.51458	-0.625	-0.027083	-0.90833	-0.63333	-0.22083	-1.0938	-0.1375	-0.24583	-0.83958	-0.097917	-0.48125	-0.33542	-0.28958	66.872	65.990	306.077	30.250	13.789	-15.558	-6.154	298.989	318.617	166.186	246.035	232.442	312.032	52.689	263.826	228.437	0.00019373	0.00038677	0.00031408	377.03	2.6423e-06	4.8922e-06	486.04	101.88	6.9561e-06	4.2198e-07	185.68	65.042	29.786	11.728	1.4237e-05	28.449	0.0017591	0.0020061	0.00053281	524.93	2.0151e-05	2.1838e-05	643.02	141.72	2.0264e-05	2.1712e-05	248.97	88.421	58.009	19.136	2.016e-05	37.717	191.949	46.885	323.958	-21.444	279.668	89.272	-21.690	-16.398	109.072	251.356	-17.370	-12.593	-11.442	-7.129	13.777	-8.375	-8191	255	
3807.175	1	1	0	0	0.18085	0.12573	0.0047927	0.087493	0.059774	0.15853	0.24973	0.15689	0.2622	0.084589	0.21073	0.25746	0.088582	0.11893	0.2451	0.19594	-0.63125	-0.18125	-0.10833	-0.86875	-0.21458	-0.80833	-0.74792	-0.12708	-0.85625	-0.29792	-0.62292	-0.825	0.064583	-0.48542	-0.43333	-0.022917	182.271	153.421	196.422	173.323	285.688	240.474	162.223	236.310	-31.206	-8.036	240.941	-30.661	243.614	-26.149	132.638	230.958	0.0002322	0.00094763	0.0003438	377.55	3.2883e-06	2.1418e-05	490.72	102.05	6.2548e-06	4.8081e-06	184.28	65.196	30.593	11.732	1.3976e-05	28.424	0.0017944	0.0019783	0.00051282	520.85	2.0461e-05	2.1223e-05	638.58	141.23	2.0765e-05	2.1193e-05	247.26	88.175	59.016	19.001	1.9854e-05	37.586	167.786	-21.411	20.796	-22.186	195.750	37.453	-22.106	-16.505	246.583	39.837	-17.442	-12.413	-11.607	-7.619	42.316	-8.750	-8191	255	
3807.271	1	1	0	0	0.15268	0.22014	0.18001	0.15729	0.18966	0.058681	0.34296	0.15675	0.10777	0.063504	0.45317	0.1212	0.06335	0.11549	0.34738	0.25616	-0.4875	-0.26875	-0.31667	-0.70833	0.083333	-0.475	-0.52083	0.010417	-0.73542	-0.52917	-0.28333	-0.9375	-0.15208	-0.45208	-0.63958	-0.022917	80.484	276.557	3.063	303.774	121.420	197.130	228.832	258.067	94.626	109.709	-18.698	34.655	262.095	144.139	323.839	248.552	0.00017164	0.0003393	2.9312e-05	373.95	5.3913e-06	1.3534e-05	491.64	101.72	5.1742e-06	4.2948e-06	184.08	65.086	30.381	11.672	4.1866e-06	28.036	0.0018426	0.0019228	0.00050236	519.97	2.1155e-05	2.072e-05	635.75	141.27	2.1244e-05	2.0705e-05	246.5	88.052	59.625	18.701	1.9723e-05	37.52	192.826	70.519	199.870	-21.597	214.448	81.252	-21.705	-16.434	183.019	-4.558	-17.255	-12.633	-12.115	-7.089	301.666	-8.639	-8191	255	
3807.390	1	1	0	0	0.3425	0.20246	0.023793	0.095881	0.25178	0.07445	0.085038	0.13349	0.12517	0.26383	0.21405	0.08392	0.3076	0.20998	0.21818	0.2366	-0.11667	-0.2	-0.04375	-0.92708	-0.072917	-0.47292	-0.82083	0.016667	-0.59583	-0.23958	0.033333	-0.66458	-0.17708	-0.54375	-0.95833	-0.11042	53.118	142.805	69.839	248.674	-5.060	308.396	124.019	277.504	69.384	-14.192	250.008	101.708	287.218	115.726	6.936	273.740	0.00010339	0.00024964	7.4708e-05	379.22	6.1908e-06	8.2634e-06	490.38	102.85	2.6859e-06	2.7413e-06	184.53	65.068	30.522	11.722	7.5725e-06	28.509	0.0018942	0.0018972	0.00049803	526.81	2.1684e-05	2.052e-05	635.73	143.28	2.1413e-05	2.0335e-05	246.41	89.405	60.032	18.684	1.9527e-05	38.238	192.830	259.447	178.754	-21.694	217.297	69.214	-22.219	-16.619	114.338	71.157	-17.412	-12.744	-12.196	-8.018	111.019	-8.794	-8191	255	
3807.462	1	1	0	0	0.39084	0.15676	0.21469	0.17528	0.31761	0.21238	0.20488	0.33421	0.32948	0.12655	0.20759	0.099099	0.055471	0.088467	0.20339	0.19803	-0.16458	-0.48125	0.12083	-0.89167	-0.058333	-0.24167	-0.84167	-0.19375	-0.58125	-0.825	-0.33542	-1.0521	-0.18958	-0.10208	-0.80833	0.0041667	-24.546	16.169	158.309	226.991	53.907	184.680	255.294	279.917	121.765	205.903	324.447	137.903	305.751	247.474	315.678	-28.759	0.0001732	0.00081147	9.0525e-05	376.91	3.1319e-06	9.6452e-06	486.69	101.94	7.7593e-06	5.0983e-06	185.07	65.183	30.658	11.646	6.078e-06	28.802	0.0018801	0.0018606	0.00049429	530.83	2.1316e-05	1.9991e-05	634.93	144.71	2.1091e-05	1.9971e-05	246.68	90.294	59.207	18.662	1.9561e-05	38.8	146.158	19.045	96.013	-21.615	26.040	42.040	-21.905	-16.245	160.828	114.631	-17.867	-12.466	-12.254	-7.172	106.565	-8.776	-8191	255	
3807.560	1	1	0	0	0.1548	0.31932	0.11725	0.13787	0.2025	0.25337	0.12181	0.079309	0.085279	0.31077	0.06559	0.22064	0.27177	0.082581	0.065739	0.086005	-0.175	-0.73958	0.00625	-0.85208	-0.30417	0.17083	-0.89167	-0.058333	-0.28958	-0.625	-0.14167	-0.72917	-0.49375	-0.20417	-1.0229	-0.22708	53.469	70.648	65.704	170.818	156.425	320.666	107.064	212.506	204.248	66.534	-14.068	294.317	304.642	0.703	-32.214	156.951	0.00015456	0.0012412	0.00015802	377.81	2.89e-06	1.5918e-05	487.67	101.81	6.7127e-06	3.4884e-06	185.36	65.581	30.385	11.649	4.9006e-06	28.135	0.0018127	0.0018217	0.00049683	534.01	2.0727e-05	1.9689e-05	636.4	144.93	2.0492e-05	1.9799e-05	247.76	90.453	58.113	18.385	1.9848e-05	38.172	229.266	21.676	146.257	-21.575	26.054	169.745	-21.538	-16.303	147.549	21.442	-17.177	-12.594	-12.832	-6.759	171.758	-8.796	-8191	255	
3807.679	1	1	0	0	0.099775	0.14936	0.26365	0.072148	0.052605	0.029347	0.11796	0.30801	0.030658	0.32416	0.19333	0.19433	0.20071	0.086998	0.38354	0.11084	0.047917	-0.60833	0.13958	-0.49167	-0.29583	0.12917	-0.71458	-0.072917	-0.039583	-0.69167	0.12083	-0.66458	-0.58542	-0.091667	-0.91667	-0.17917	-29.766	31.330	61.766	12.864	131.515	129.632	164.197	36.271	50.344	142.912	232.020	245.146	217.184	165.269	-10.481	282.257	0.00016247	0.00051505	8.6153e-05	373.76	4.6009e-06	5.5583e-06	487.56	101.71	7.7703e-06	7.6266e-06	183.64	64.916	30.499	11.59	7.069e-06	27.821	0.0017533	0.0017787	0.00050403	529.18	1.982e-05	1.9049e-05	636.29	144.02	1.9629e-05	1.9035e-05	247.41	89.139	56.804	17.986	1.9769e-05	37.421	199.607	11.549	77.351	-21.622	22.982	211.020	-21.844	-16.232	319.260	34.044	-17.747	-12.520	-12.084	-7.398	144.251	-8.587	-8191	255	
3807.775	1	1	0	0	0.18948	0.42112	0.11707	0.077377	0.25326	0.040907	0.074739	0.027261	0.10796	0.15445	0.064906	0.13901	0.18652	0.1315	0.1306	0.17935	0.33333	-0.89375	0.066667	-0.75208	-0.57708	-0.1375	-0.5875	0.01875	0.052083	-0.5875	-0.16458	-0.81458	-0.81042	-0.19167	-0.87708	-0.62708	20.220	309.961	306.775	273.664	63.839	239.583	275.563	33.784	269.682	0.027	220.081	244.238	183.735	34.412	149.501	284.129	8.7227e-05	0.00076857	0.00022619	375.12	3.9588e-06	1.4568e-05	487.08	101.81	2.9399e-06	2.8152e-06	185.11	65.92	30.698	11.648	6.7103e-06	28.235	0.0016718	0.0017034	0.00050403	520.15	1.887e-05	1.8321e-05	634	141.94	1.8578e-05	1.8376e-05	247.19	88.351	56.051	18.035	1.9894e-05	37.38	94.979	214.274	-22.360	-21.767	145.511	52.947	-21.873	-16.536	11.466	133.686	-17.678	-12.746	-12.890	-7.317	150.178	-8.606	-8191	255	
3807.871	1	1	0	0	0.082907	0.1357	0.26314	0.081949	0.087871	0.063579	0.24175	0.052392	0.081481	0.43711	0.30041	0.17764	0.2577	0.10763	0.22766	0.25357	0.23333	-0.66458	0.09375	-0.44583	-0.77083	-0.2	-0.82083	-0.74583	-0.16875	-1.1021	0.0020833	-0.47708	-0.975	-0.16042	-0.68958	-0.6625	270.446	214.816	26.570	101.799	126.075	-14.612	101.821	43.099	217.227	240.754	38.974	-4.340	-9.327	211.360	164.034	245.747	0.00013431	0.00033467	0.00012123	375.3	8.4357e-06	1.2591e-05	486.14	101.65	8.4075e-06	1.401e-05	184.25	65.754	30.452	11.65	4.0568e-06	28.285	0.0016299	0.0017139	0.00051357	516.7	1.8706e-05	1.8864e-05	636.6	140.94	1.8402e-05	1.9049e-05	249	88.198	55.974	18.316	2.0298e-05	37.59	174.186	90.917	-13.859	-21.820	218.026	214.394	-21.749	-16.664	66.129	185.607	-17.701	-12.764	-11.798	-7.406	208.481	-8.737	-8191	255	
3807.967	1	1	0	0	0.21219	0.17983	0.16279	0.15195	0.20223	0.16319	0.074401	0.06548	0.13325	0.1771	0.18417	0.14775	0.15407	0.14368	0.099567	0.34003	0.42083	-0.85	-0.14792	-0.3875	-0.89375	0.020833	-0.725	-0.62917	0.15	-0.73333	-0.3625	-0.37917	-0.81667	-0.054167	-0.31042	-0.70417	144.070	280.364	147.265	162.032	250.029	78.438	169.322	220.593	43.088	30.094	239.037	-13.605	195.690	268.448	279.997	307.707	5.3056e-05	0.00067626	0.00021572	375.07	1.4778e-06	2.0563e-05	486.41	102.09	1.8525e-06	5.6853e-06	183.95	65.453	30.226	11.538	4.3395e-06	28.024	0.0016445	0.0018157	0.00052119	517.38	1.8855e-05	2.0016e-05	639.38	141.16	1.8747e-05	2.0282e-05	249.34	88.214	56.572	18.636	2.0097e-05	37.038	231.487	109.007	40.032	-21.860	150.153	140.628	-21.852	-16.519	44.420	107.986	-17.618	-12.318	-12.231	-6.868	37.740	-8.940	-8191	255	
3808.063	1	1	0	0	0.19522	0.056426	0.19331	0.2629	0.3564	0.35218	0.18262	0.13048	0.22004	0.13348	0.19102	0.097661	0.19366	0.15718	0.2565	0.16122	0.37708	-0.67292	-0.38333	-0.25	-0.86458	-0.16667	-0.54792	-0.8875	0.0125	-0.81042	-0.53125	-0.31667	-0.79167	-0.11458	-0.47708	-1.0458	78.566	257.208	119.892	49.134	10.938	281.883	234.804	152.604	126.184	236.911	148.434	75.134	211.626	-1.843	315.682	168.231	0.00014165	0.00093401	9.1411e-05	374.91	2.335e-06	1.1609e-05	488.06	101.74	2.1554e-06	1.0631e-05	184.23	65.141	30.597	11.64	8.0822e-06	28.148	0.0016541	0.0018645	0.00051289	513.95	1.8964e-05	2.0432e-05	634.87	140.63	1.8949e-05	2.0418e-05	247.13	87.481	56.703	18.724	1.9636e-05	37.055	208.192	128.757	294.869	-21.916	295.089	179.461	-21.592	-16.460	138.727	158.721	-17.893	-12.596	-11.348	-7.463	133.586	-8.754	-8191	255	
3808.159	1	1	0	0	0.32304	0.12532	0.16483	0.21656	0.17397	0.24414	0.22995	0.092796	0.072853	0.34453	0.22061	0.10792	0.15516	0.14862	0.35922	0.1699	0.30833	-0.76458	-0.55833	-0.22708	-0.68125	-0.12292	-0.44583	-0.84583	0.066667	-0.64167	-0.68125	-0.27917	-0.85208	-0.095833	-0.15	-0.84375	314.466	173.685	323.252	260.346	151.769	158.661	237.298	289.701	205.106	155.450	306.570	-20.738	155.050	78.092	145.560	111.307	0.00019877	0.00078883	0.00011411	374.1	4.023e-06	8.558e-06	490.55	102.25	3.8715e-06	9.4545e-06	184.78	65.693	30.377	11.771	4.766e-06	28.29	0.0016936	0.0019034	0.00049928	514.13	1.9683e-05	2.1001e-05	634.01	141.11	1.9836e-05	2.0861e-05	247.08	87.937	57.799	18.902	1.9414e-05	37.374	174.711	43.496	10.617	-22.056	122.232	128.037	-22.027	-16.392	216.389	62.006	-17.916	-13.030	-11.633	-7.913	194.913	-8.558	-8191	255	
3808.256	1	1	0	0	0.14403	0.07975	0.25367	0.23636	0.073729	0.16365	0.043437	0.19173	0.10991	0.15885	0.082417	0.26767	0.34179	0.076642	0.17014	0.084918	0.45208	-0.56875	-0.60208	-0.16458	-0.86042	-0.34167	-0.19583	-0.65625	0.19792	-0.59167	-0.69792	0.13958	-0.67292	-0.31667	-0.33958	-0.89375	179.448	18.993	175.671	-15.285	280.333	128.924	323.439	256.939	-17.406	262.728	298.162	-29.786	127.279	171.322	103.375	314.739	0.00021918	0.00067076	5.1318e-05	375.55	6.4678e-06	7.1163e-06	488.31	103.01	5.2764e-06	7.4098e-06	183.96	65.954	30.502	11.736	9.3944e-06	28.344	0.0017787	0.0019032	0.00050218	515.71	2.0433e-05	2.0673e-05	633.75	140.99	2.0532e-05	2.0547e-05	246.35	88.166	59.092	18.828	1.9414e-05	37.69	196.484	29.264	222.919	-21.839	230.068	-33.531	-22.047	-16.764	230.786	85.162	-17.656	-12.922	-12.076	-7.431	75.379	-8.770	-8191	255	
3808.352	1	1	0	0	0.16375	0.30506	0.037088	0.14794	0.10485	0.16498	0.19842	0.20269	0.10966	0.062898	0.25858	0.1882	0.05047	0.36529	0.2449	0.22131	0.19167	-0.22708	-0.59375	-0.03125	-0.74792	-0.35208	-0.24792	-0.97083	-0.21042	-0.32292	-0.82917	-0.035417	-0.70208	-0.64375	-0.16042	-1.0312	121.136	194.153	217.606	2.450	40.735	193.423	204.765	167.836	242.350	90.031	181.338	270.492	57.140	200.707	134.477	306.786	0.00017575	0.00039275	0.00025194	372.92	1.0202e-06	3.0623e-07	485.4	101.75	3.413e-06	8.7455e-07	183.85	65.537	30.666	11.61	2.2272e-06	27.805	0.0018414	0.0018771	0.00049866	518.52	2.0992e-05	2.0265e-05	631.11	141.15	2.0962e-05	2.0065e-05	244.11	88.167	58.908	18.405	1.8831e-05	37.214	165.045	34.655	21.484	-21.927	301.846	207.198	-22.012	-16.101	41.773	31.676	-17.483	-12.726	-11.379	-7.660	87.518	-8.930	-8191	255	
3808.471	1	1	0	0	0.21047	0.15385	0.25959	0.23301	0.37047	0.022253	0.12331	0.25776	0.092631	0.36843	0.17549	0.067497	0.016857	0.30274	0.35194	0.15402	0.25208	-0.26875	-0.83333	-0.079167	-0.7375	-0.6875	-0.475	-0.86667	-0.13542	-0.19375	-1.1417	-0.010417	-0.57708	-0.36875	-0.1	-0.85	85.831	104.912	-26.956	277.946	156.790	19.691	138.927	48.199	235.996	18.315	216.482	49.228	35.757	255.108	-21.932	281.295	0.00014226	0.00044106	0.00012337	375.44	4.72e-06	7.5438e-06	483.73	101.25	7.8495e-06	3.726e-06	184.96	65.549	30.873	11.671	1.8907e-06	28.462	0.0018147	0.0017966	0.00048191	519.07	2.0631e-05	1.9482e-05	624.82	141.63	2.0435e-05	1.9222e-05	243.32	88.907	58.345	18.307	1.8464e-05	37.844	200.536	301.778	-34.132	-21.685	129.014	52.463	-21.677	-16.419	51.400	18.032	-17.222	-13.020	-12.356	-7.968	246.030	-8.761	-8191	255	
3808.567	1	1	0	0	0.18892	0.14808	0.33612	0.075423	0.024171	0.28008	0.17396	0.24933	0.11232	0.13927	0.14498	0.2239	0.049626	0.019833	0.27871	0.11403	0.014583	-0.425	-0.84375	0.06875	-0.42292	-0.58958	-0.1	-0.83125	-0.60625	-0.24792	-0.7875	-0.06875	-0.48958	-0.70208	0.0020833	-0.72083	74.984	21.333	61.470	133.968	285.983	5.649	134.363	94.359	273.112	283.749	260.692	239.264	57.053	22.194	148.989	-6.595	2.6147e-05	0.00030418	0.00014765	373.46	8.685e-06	5.396e-06	484.92	102.45	8.4201e-06	1.0325e-05	184.13	65.626	30.517	11.851	8.2563e-06	28.464	0.0017639	0.0017574	0.00047493	522.44	1.9796e-05	1.9027e-05	625.03	142.96	1.978e-05	1.8851e-05	243.2	89.389	57.662	18.356	1.8754e-05	38.333	272.865	295.278	122.468	-22.325	83.178	324.699	-21.710	-16.421	107.019	25.261	-17.436	-12.725	-12.484	-7.255	220.302	-8.826	-8191	255	
3808.663	1	1	0	0	0.036302	0.25366	0.10589	0.1644	0.19087	0.20725	0.24097	0.17991	0.063554	0.18315	0.10975	0.26382	0.15149	0.28135	0.072688	0.022718	-0.15	-0.15833	-0.95417	0.1	-0.12917	-0.6875	-0.22917	-0.7125	-0.32917	0.075	-0.99583	-0.31458	-0.32917	-0.69167	0.12083	-0.71875	310.368	215.898	35.784	3.105	138.119	56.298	189.321	292.508	0.561	189.244	234.236	-7.401	214.882	279.745	76.329	9.249	8.1943e-05	0.00067625	0.00011597	373.94	4.0193e-06	7.5222e-06	486.62	101.97	1.0046e-05	3.7033e-06	183.1	66.113	30.547	11.814	6.7318e-06	28.648	0.0017315	0.0017308	0.00048488	525.22	1.9542e-05	1.8901e-05	630.25	143.73	1.9588e-05	1.8927e-05	245.89	89.903	57.054	18.289	1.9612e-05	38.392	193.982	118.359	219.989	-22.104	40.467	41.946	-21.903	-16.414	75.552	108.524	-17.536	-12.733	-12.323	-7.544	191.617	-8.738	-8191	255	
3808.759	1	1	0	0	0.39508	0.068074	0.058617	0.1855	0.18431	0.27767	0.13689	0.24707	0.24547	0.21557	0.26769	0.3157	0.16615	0.065486	0.19058	0.1746	-0.0083333	-0.11042	-0.60417	0.020833	-0.19792	-0.82292	-0.0375	-0.59167	-0.37917	-0.0020833	-0.86042	-0.41042	-0.44792	-0.9375	-0.1375	-0.3375	258.907	299.166	262.907	257.756	265.265	175.969	99.575	285.123	37.133	70.173	319.931	150.149	25.897	168.601	168.534	255.688	0.00017412	0.00055501	0.00021952	375.42	4.1486e-06	5.3496e-06	486.98	102.11	1.1961e-05	1.8761e-06	183.07	65.06	29.884	11.55	1.049e-05	27.828	0.0017192	0.001737	0.00050752	526.49	1.9531e-05	1.9187e-05	636.49	143.38	1.9534e-05	1.9085e-05	247.92	89.322	57.141	18.239	2.0605e-05	37.729	156.190	21.195	123.728	-22.139	34.270	189.482	-21.945	-16.667	105.369	15.103	-17.551	-12.836	-12.294	-7.478	168.622	-8.333	-8191	255	
3808.853	1	1	0	0	0.18336	0.086069	0.12568	0.23129	0.33779	0.19461	0.16571	0.12221	0.099862	0.14344	0.066743	0.17065	0.20286	0.062942	0.38803	0.054534	-0.070833	-0.0125	-0.86458	-0.61667	-0.2	-0.63542	-0.016667	-0.26667	-0.59583	0.05	-0.75833	-0.50417	-0.09375	-1.0521	-0.21458	-0.49792	-21.546	-1.026	36.932	265.307	277.282	60.900	227.395	302.278	63.280	-21.228	214.051	271.159	85.941	299.254	293.902	201.062	8.0699e-05	0.00034386	7.3434e-05	375.75	3.6129e-06	2.0478e-05	484.54	101.9	2.9865e-06	2.2644e-06	182.84	65.24	30.643	11.76	8.3691e-06	28.206	0.0017416	0.0017907	0.00053492	525.7	1.9586e-05	1.9476e-05	640.94	142.78	1.9534e-05	1.9565e-05	249.57	89.115	57.174	18.573	2.1142e-05	37.835	118.935	144.013	246.259	-22.360	222.862	167.368	-21.737	-16.508	243.997	253.973	-17.425	-13.104	-12.049	-7.376	127.237	-8.886	-8191	255	
3808.974	1	1	0	0	0.063106	0.33767	0.026471	0.24738	0.30819	0.17725	0.18146	0.40822	0.30513	0.14964	0.26599	0.18526	0.17719	0.15245	0.14217	0.087753	-0.42917	0.035417	-0.76042	-0.50417	-0.070833	-0.96458	-0.29167	-0.47292	-0.74375	-0.045833	-0.57083	-0.34583	0.14375	-0.79167	-0.15833	-0.44792	16.574	19.119	108.205	3.295	-28.619	283.828	19.306	299.064	297.428	-26.246	252.057	323.655	247.865	42.754	31.747	34.941	8.0009e-05	0.00075413	0.00035236	375.26	5.1246e-06	1.547e-05	484.43	101.92	1.1161e-06	2.173e-06	184.12	65.149	30.778	11.757	4.2337e-06	28.517	0.0017212	0.0018337	0.00053988	522.91	1.9318e-05	2.0023e-05	641.54	142.08	1.926e-05	2.0261e-05	249.86	88.335	56.534	18.77	2.0632e-05	37.684	134.582	145.225	305.985	-22.080	-15.624	244.277	-21.738	-16.085	209.385	138.808	-17.636	-12.786	-11.864	-7.327	86.234	-8.864	-8191	255	
3809.070	1	1	0	0	0.19233	0.10183	0.28008	0.10863	0.34633	0.14269	0.2339	0.16003	0.054693	0.21553	0.11582	0.19094	0.17808	0.2933	0.11489	0.30689	-0.5	-0.18333	-0.64583	-0.68958	-0.25833	-0.78542	-0.375	-0.15833	-0.64167	0.05	-0.55625	-0.8625	-0.1125	-0.99583	-0.33542	-0.17917	305.191	153.901	35.115	308.793	291.171	200.727	298.165	313.163	53.153	27.860	-2.228	212.086	-13.594	29.706	237.495	208.902	0.00013051	0.00087257	0.0002016	374.36	3.0118e-06	9.7585e-06	484.73	101.39	1.8512e-06	2.7239e-06	181.65	65.014	30.2	11.705	9.3506e-06	28.264	0.0016794	0.0018644	0.00052248	518.33	1.9037e-05	2.0539e-05	636.98	140.68	1.9141e-05	2.071e-05	247.84	88.044	56.417	18.887	2.0265e-05	37.413	185.159	97.355	77.370	-21.922	127.518	45.594	-21.989	-16.544	105.319	189.860	-17.400	-13.003	-11.381	-7.269	315.600	-8.823	-8191	255	
3809.166	1	1	0	0	0.12937	0.040149	0.10128	0.17619	0.059876	0.070712	0.059545	0.25993	0.092118	0.087752	0.020402	0.23072	0.12008	0.25017	0.15572	0.21756	-0.30417	0.072917	-0.48542	-0.91875	-0.2375	-0.59375	-0.29583	-0.066667	-0.82917	-0.15	-0.44792	-0.65625	-0.25625	-0.93125	-0.41875	-0.052083	-22.234	161.423	224.499	-25.543	-21.129	114.744	41.921	48.882	311.504	-15.496	15.225	217.130	221.812	159.471	142.872	-14.563	0.00021877	0.00080306	0.00010021	373.96	6.2512e-06	9.895e-06	485.05	100.6	2.911e-06	6.9082e-06	180.58	64.566	29.836	11.368	9.311e-06	27.458	0.0016882	0.001921	0.00051426	514.96	1.9232e-05	2.0726e-05	630.85	138.94	1.92e-05	2.0539e-05	243.5	86.6	56.4	18.532	1.9511e-05	36.43	159.661	84.204	25.577	-22.141	215.649	118.538	-21.800	-16.394	-21.074	276.731	-17.362	-12.897	-12.530	-7.435	-12.249	-8.396	-8191	255	
3809.263	1	1	0	0	0.20529	0.16303	0.16575	0.149	0.079251	0.18985	0.12993	0.16359	0.37371	0.24059	0.27842	0.25825	0.071681	0.14357	0.092349	0.047484	-0.3875	-0.03125	-0.37292	-0.86042	0.16667	-0.56042	-0.61667	-0.12708	-0.67083	-0.020833	-0.3375	-0.88333	-0.14375	-0.6625	-0.41875	-0.0625	147.228	256.529	123.152	20.851	283.105	294.305	-12.419	193.740	76.854	76.810	312.831	302.578	121.052	49.169	116.751	311.716	0.0002852	0.00083762	0.00019832	373.14	6.8437e-06	1.1241e-05	481.3	100.43	3.9198e-06	3.278e-06	180.69	64.446	29.829	11.552	3.8751e-06	27.642	0.0017111	0.0018849	0.0004929	510.81	1.9651e-05	2.0241e-05	623.83	137.79	1.9716e-05	2.0297e-05	241.54	86.339	57.247	18.433	1.9024e-05	36.429	172.156	316.690	105.284	-21.985	187.400	40.589	-22.012	-16.574	159.008	3.034	-17.749	-12.506	-11.234	-7.095	31.085	-8.756	-8191	255	
3809.359	1	1	0	0	0.41652	0.15052	0.36871	0.23686	0.21478	0.15568	0.16365	0.10607	0.1476	0.17278	0.29262	0.14837	0.21745	0.11715	0.16655	0.245	-0.37083	-0.19375	-0.32917	-0.92708	0.039583	-0.33542	-0.8625	-0.16042	-0.81875	-0.40417	-0.15417	-0.82083	-0.35208	-0.50625	-0.71875	-0.016667	272.165	54.336	184.550	218.098	250.418	153.011	202.106	188.787	147.923	182.959	314.928	40.552	315.637	261.464	324.596	81.335	0.000152	0.00059496	4.8793e-05	373.42	5.0352e-06	8.4232e-06	482.17	99.736	7.5783e-06	8.7869e-06	181.78	63.808	30.032	11.476	8.8981e-06	27.723	0.0017473	0.0018296	0.00047997	507.71	1.9982e-05	1.965e-05	622.35	137.82	1.994e-05	1.9709e-05	240.56	85.9	57.437	18.211	1.8444e-05	36.513	153.118	238.115	57.817	-21.667	69.914	7.125	-21.560	-16.537	151.779	65.746	-17.690	-12.777	-12.275	-7.586	162.445	-8.670	-8191	255	
3809.455	1	1	0	0	0.048139	0.14537	0.065125	0.2729	0.30552	0.25669	0.11505	0.16471	0.1567	0.1819	0.12809	0.20424	0.33185	0.14124	0.20218	0.24481	-0.53958	-0.59583	-0.025	-0.86042	-0.21875	-0.52917	-0.82083	-0.10625	-0.77292	-0.34375	0.052083	-1.1521	-0.27917	-0.25833	-0.83125	-0.04375	85.371	142.774	320.211	228.031	237.510	304.222	-21.261	31.028	262.772	320.254	132.359	83.774	291.890	271.929	62.983	-10.587	3.3774e-05	0.00037349	0.00026633	371.46	4.082e-06	8.4184e-06	480.95	99.675	6.3927e-06	5.4559e-06	181.12	63.974	29.71	11.416	2.2705e-06	27.324	0.0017581	0.0017712	0.00046929	509.37	1.9898e-05	1.8943e-05	619.23	137.65	1.977e-05	1.8834e-05	237.75	85.871	56.519	17.793	1.7953e-05	36.307	142.331	33.558	-31.330	-21.580	187.741	-17.724	-22.266	-16.563	243.413	129.349	-17.508	-12.410	-11.949	-7.483	49.876	-8.848	-8191	255	
3809.551	1	1	0	0	0.29951	0.2162	0.056038	0.22105	0.15684	0.12993	0.4273	0.32467	0.12985	0.080586	0.28823	0.36049	0.072198	0.17975	0.12134	0.056959	-0.054167	-0.46042	-0.047917	-0.69792	-0.12917	-0.29167	-1.0271	-0.23542	-0.62292	-0.76667	0.022917	-0.92708	-0.48125	-0.24375	-0.89583	0.089583	210.452	86.961	231.267	201.256	190.104	253.839	291.143	34.849	-11.873	118.474	282.033	232.502	111.317	150.979	163.775	198.101	6.4376e-05	0.00039591	7.8789e-05	371.62	4.759e-06	8.9567e-06	481.11	99.189	2.8242e-06	4.8801e-06	179.99	63.715	29.505	11.148	3.808e-06	27.049	0.0017004	0.0016866	0.00045068	509.5	1.9329e-05	1.8268e-05	613.63	137.72	1.9027e-05	1.8215e-05	236.33	85.721	55.325	17.37	1.7427e-05	36.129	229.455	-1.563	-32.644	-21.489	132.931	4.371	-21.995	-16.620	20.485	47.503	-17.673	-12.298	-12.997	-7.474	261.818	-8.982	-8191	255	
3809.647	1	1	0	0	0.18655	0.16635	0.17358	0.14289	0.18738	0.15411	0.22329	0.080856	0.099766	0.19634	0.21099	0.15315	0.075223	0.16697	0.2678	0.077703	-0.00625	-0.94375	0.22917	-0.71875	-0.17292	-0.26458	-1	-0.077083	-0.39583	-0.85625	-0.15208	-0.80625	-0.22083	0.070833	-0.85	-0.26458	195.982	176.690	110.384	108.426	147.857	172.772	17.576	311.924	273.537	180.044	278.193	251.241	167.756	147.511	270.628	314.087	8.3688e-05	0.00061903	3.8621e-05	372.48	6.9188e-06	9.0947e-06	482.83	101.43	4.5813e-06	6.0085e-06	182.52	64.618	30.16	11.433	1.2324e-05	27.814	0.0016389	0.0016393	0.00044636	511.89	1.8416e-05	1.7652e-05	613.9	138.77	1.8258e-05	1.7592e-05	237.74	86.618	55.072	17.569	1.7757e-05	36.924	-1.337	116.442	206.885	-21.846	187.602	158.139	-21.812	-16.418	140.289	65.812	-17.539	-12.730	-12.253	-7.447	151.865	-8.843	-8191	255	
3809.766	1	1	0	0	0.32942	0.12758	0.28522	0.17241	0.24269	0.050589	0.13982	0.15258	0.17086	0.26502	0.14664	0.20499	0.27885	0.063474	0.26973	0.1255	-0.014583	-0.7875	0.052083	-0.70833	-0.52292	-0.17917	-0.91042	-0.40417	-0.40417	-0.975	-0.014583	-0.62917	-0.54375	-0.0625	-0.63125	-0.45	224.782	269.306	75.758	56.534	14.072	307.209	38.026	226.765	188.177	141.566	45.268	-0.432	288.736	244.055	243.212	159.184	2.3508e-05	0.00021576	5.0316e-05	370.61	2.66e-06	6.0424e-06	485.28	101.55	3.4324e-06	5.3409e-06	183.7	65.174	30.089	11.637	1.3174e-05	28.34	0.0015931	0.0016114	0.00045668	511.64	1.804e-05	1.746e-05	620.4	140.22	1.8205e-05	1.7837e-05	242.46	87.769	55.313	17.865	1.8876e-05	37.5	171.845	309.669	193.599	-21.746	72.679	18.292	-22.030	-16.665	46.304	-5.408	-17.403	-12.763	-12.068	-7.187	220.718	-8.776	-8191	255	
3809.862	1	1	0	0	0.064755	0.21649	0.037878	0.058568	0.085279	0.063323	0.065755	0.20832	0.058158	0.076743	0.2762	0.17491	0.022448	0.073828	0.052398	0.11583	0.17708	-0.85417	0.035417	-0.77292	-0.62708	0.0875	-0.76875	-0.31875	-0.33125	-0.97708	-0.08125	-0.675	-0.81458	-0.17917	-0.68333	-0.43958	-15.523	44.255	161.127	116.777	78.650	53.877	233.243	112.446	316.881	46.645	320.900	235.819	58.664	319.051	-6.941	23.541	5.0533e-05	0.00065472	0.00026432	372.47	2.2591e-06	2.2572e-06	488.36	101.05	1.9984e-06	4.9909e-06	184.2	65.171	30.31	11.675	7.5993e-06	28.092	0.0016096	0.0016343	0.0004839	513.09	1.8352e-05	1.7932e-05	630.67	140.18	1.8394e-05	1.8225e-05	245.91	87.797	55.602	17.992	1.957e-05	37.247	153.990	278.300	116.320	-21.818	-27.492	189.107	-21.782	-16.530	155.146	164.881	-16.800	-13.071	-12.108	-6.877	242.513	-8.742	-8191	255	
3809.958	1	1	0	0	0.22734	0.23201	0.17111	0.10525	0.18608	0.20373	0.24194	0.067173	0.19438	0.17175	0.11393	0.27429	0.10812	0.2058	0.064971	0.17321	0.085417	-0.88958	-0.27083	-0.23542	-0.56458	-0.15	-1.0104	-0.49167	-0.052083	-0.96667	-0.26458	-0.42083	-1.0271	-0.04375	-0.65208	-0.58958	129.282	95.982	239.057	128.747	269.741	-13.853	108.579	144.680	-30.056	295.913	18.105	262.980	6.026	147.251	7.175	272.619	7.4602e-05	0.0004202	8.8272e-05	373.51	1.5242e-06	6.6903e-06	486.87	102.21	3.1301e-06	1.1987e-05	183.53	65.015	30.252	11.831	5.7785e-06	28.067	0.0016199	0.0016915	0.00050207	512.7	1.8383e-05	1.8482e-05	634.04	140.2	1.8428e-05	1.8889e-05	247.18	87.676	56.005	18.421	2.0402e-05	37.285	285.106	47.862	35.798	-21.961	247.788	231.464	-21.676	-16.736	150.895	127.708	-17.392	-12.967	-11.998	-7.225	60.210	-8.759	-8191	255	
3810.054	1	1	0	0	0.11308	0.26699	0.17396	0.2147	0.14491	0.11954	0.1387	0.26728	0.087426	0.17976	0.095425	0.17084	0.16215	0.25913	0.22267	0.1321	0.24583	-0.60417	-0.14375	-0.27083	-0.98958	0.13125	-0.85	-0.56667	0.010417	-1.0271	-0.39375	-0.14375	-0.6375	0.022917	-0.54792	-0.70417	-14.816	232.311	144.360	54.677	104.640	-6.615	315.735	252.408	8.987	16.358	169.003	276.279	198.245	44.871	13.883	212.182	6.6489e-05	0.0013856	5.2182e-06	375.76	1.9631e-06	1.3324e-05	487.92	101.4	1.9199e-06	2.9492e-06	184.13	65.252	30.691	11.848	2.2753e-06	28.158	0.0016389	0.0018021	0.0005213	517.12	1.8814e-05	1.9787e-05	638.27	141.2	1.8831e-05	2.0103e-05	248.78	87.876	56.345	18.851	2.0257e-05	37.449	189.009	130.986	110.837	-21.843	44.305	185.962	-21.779	-16.331	145.277	-11.352	-17.932	-12.571	-12.679	-7.014	311.070	-8.677	-8191	255	
3810.151	1	1	0	0	0.14893	0.13643	0.20806	0.024018	0.21606	0.11432	0.12659	0.41979	0.26379	0.19773	0.13308	0.32895	0.078125	0.095629	0.23921	0.48108	0.25	-0.61458	-0.29167	-0.10833	-1.0187	-0.039583	-0.61667	-0.7	0.19792	-0.83542	-0.36875	-0.21458	-1.0458	-0.16042	-0.23333	-0.84375	276.233	265.063	-30.152	144.386	-6.158	163.460	-22.356	-14.594	159.411	110.074	236.524	275.480	5.512	297.995	134.856	-20.836	6.7699e-05	0.00062373	8.1881e-05	374.71	8.182e-07	1.2417e-05	490.72	101.7	3.8182e-06	4.4718e-06	183.87	65.669	30.558	11.869	7.4462e-06	28.712	0.0016556	0.00187	0.00051297	516.04	1.8996e-05	2.0507e-05	638.09	140.85	1.9076e-05	2.0777e-05	248.25	87.97	56.847	19.087	2.0022e-05	37.811	169.780	129.686	315.301	-21.616	127.448	227.434	-21.579	-16.680	130.475	172.221	-17.799	-12.635	-11.277	-7.182	157.285	-8.833	-8191	255	
3810.247	1	1	0	0	0.17916	0.17456	0.19934	0.18567	0.031497	0.22859	0.13449	0.14481	0.33302	0.12281	0.046199	0.09105	0.061427	0.02853	0.067668	0.12977	0.41667	-0.70417	-0.34583	0.12708	-0.73333	-0.070833	-0.43542	-0.78333	0.13125	-0.75	-0.32292	-0.15	-0.9	-0.40625	-0.45833	-0.64167	195.820	13.275	24.217	114.949	21.719	178.462	42.930	25.291	21.712	-27.730	225.292	198.923	102.180	163.242	128.200	214.659	0.00012643	0.00025897	0.00011342	376.6	5.6698e-06	1.0778e-05	492.52	101.6	6.1732e-06	4.5877e-06	184.04	65.226	30.162	11.819	8.3676e-06	28.253	0.0017306	0.0019558	0.00052138	520.84	2.0213e-05	2.1634e-05	643.13	141.85	2.0532e-05	2.17e-05	249.17	88.472	58.583	19.282	2.0218e-05	37.704	153.999	72.976	-30.666	-21.801	225.940	15.164	-22.019	-16.398	-29.971	198.136	-17.683	-12.566	-11.824	-7.525	33.161	-8.482	-8191	255	
3810.343	1	1	0	0	0.21288	0.27718	0.29951	0.16469	0.079233	0.12405	0.10813	0.17655	0.091517	0.07712	0.12137	0.21625	0.21071	0.13456	0.14769	0.13901	0.44167	-0.7	-0.64167	-0.027083	-0.84167	-0.32292	-0.29792	-0.8875	-0.16875	-0.58958	-0.71042	-0.05	-0.63542	-0.13542	-0.24583	-1.0979	31.951	257.409	7.725	106.578	210.382	113.060	215.530	280.458	18.057	-12.567	213.175	196.275	308.438	204.703	289.727	283.422	0.00012198	0.00081211	8.2024e-06	376.73	8.564e-06	1.634e-06	490.26	101.98	4.3228e-06	4.4361e-06	183.27	64.864	30.395	11.932	6.4931e-06	28.494	0.0018227	0.001968	0.00051885	521.03	2.1084e-05	2.168e-05	641.79	142.48	2.1452e-05	2.1693e-05	249.25	88.696	60.251	19.348	2.0548e-05	38.257	204.592	48.612	63.457	-22.011	234.179	101.041	-21.799	-16.318	206.544	306.318	-17.694	-12.623	-11.360	-7.707	-29.632	-8.876	-8191	255	
3810.464	1	1	0	0	0.032296	0.16871	0.17064	0.20553	0.15243	0.18369	0.26866	0.12212	0.22575	0.36563	0.17098	0.28016	0.14902	0.11417	0.08167	0.052612	0.2	-0.5125	-0.58125	0.12083	-0.7125	-0.33542	-0.26458	-0.68958	-0.20417	-0.52708	-0.66667	-0.04375	-0.76042	-0.31458	-0.2	-0.85417	248.064	68.696	281.675	21.238	123.414	14.994	264.328	56.895	200.472	153.595	263.773	154.856	117.149	114.015	283.885	252.925	0.00012932	0.00039537	0.00020355	376.11	4.3255e-06	1.2614e-05	489.28	101.84	4.4227e-06	9.854e-07	185.84	66.169	30.458	12.036	6.3359e-06	28.853	0.0019479	0.002006	0.00053444	528.44	2.2593e-05	2.1997e-05	646.02	144.78	2.2701e-05	2.171e-05	250.89	90.176	61.361	19.341	2.0291e-05	38.8	150.880	-15.223	117.289	-21.922	214.751	8.871	-21.526	-16.402	17.106	226.451	-17.392	-12.373	-11.294	-7.808	51.842	-8.250	-8191	255	
3810.560	1	1	0	0	0.25563	0.32023	0.21053	0.13923	0.18558	0.17448	0.12907	0.15942	0.062403	0.072761	0.32739	0.12977	0.191	0.52135	0.081268	0.1218	0.089583	-0.30625	-0.86667	0.00625	-0.41042	-0.6	-0.0875	-0.89167	-0.38333	-0.32292	-1.0187	-0.016667	-0.52083	-0.55	-0.072917	-0.95417	-28.104	295.943	242.217	254.113	10.516	247.727	265.795	168.285	84.845	-23.936	232.032	-14.476	49.418	30.957	262.088	83.646	0.00011781	0.00077378	0.00011458	373.2	5.1422e-06	7.6374e-06	489.38	102.27	1.4288e-06	5.3712e-06	185.78	65.937	30.777	12.101	3.883e-06	29.176	0.0019484	0.0019201	0.00050905	526.75	2.1817e-05	2.0632e-05	635.91	144.11	2.1627e-05	2.027e-05	247.67	90.241	60.424	19.162	1.9716e-05	39.39	178.575	-27.034	86.844	-21.598	38.463	159.351	-21.871	-16.077	156.534	309.873	-17.678	-12.686	-12.412	-7.680	78.683	-8.744	-8191	255	
3810.656	1	1	0	0	0.079044	0.12098	0.055892	0.13464	0.056744	0.088787	0.13427	0.19242	0.24622	0.058654	0.10176	0.17268	0.23506	0.065239	0.1182	0.15634	0.17917	-0.25625	-1.0479	-0.225	-0.55625	-0.55417	-0.097917	-0.86458	-0.39375	-0.29583	-0.93125	0.016667	-0.64167	-0.83125	-0.035417	-1.0979	174.249	193.885	301.330	225.128	23.664	238.575	-28.168	246.534	239.984	320.301	202.290	66.088	22.180	193.518	61.976	239.341	5.7941e-05	0.00057789	7.4859e-05	378.19	1.9991e-07	5.7454e-06	486.93	102.44	3.9385e-06	3.7634e-06	185.63	65.276	30.769	12.05	1.4683e-05	28.737	0.0019101	0.0018825	0.00050835	534.37	2.1676e-05	2.0603e-05	638.2	146.53	2.1691e-05	2.0568e-05	249.43	91.29	59.409	18.872	1.9747e-05	38.911	222.138	286.996	290.399	-21.823	137.829	244.756	-21.824	-16.313	25.295	208.084	-17.600	-13.005	-12.113	-7.618	206.157	-8.670	-8191	255	
3810.752	1	1	0	0	0.05841	0.16998	0.13914	0.19954	0.04699	0.24338	0.36093	0.17863	0.15331	0.096662	0.19507	0.18843	0.036065	0.094505	0.12627	0.18261	0.079167	-0.19375	-0.89167	-0.32292	-0.64167	-0.71667	-0.066667	-0.78125	-0.46875	-0.25417	-1.1313	-0.44375	-0.47292	-0.66667	-0.072917	-0.64792	8.352	158.843	267.229	254.418	-14.734	253.726	279.907	180.435	212.296	55.749	313.219	107.954	278.594	98.301	262.131	2.409	1.2888e-05	0.00070535	0.00017097	374.22	5.478e-06	1.0483e-05	489.12	102.67	4.2644e-06	2.9833e-06	184.26	65.786	30.819	11.985	3.104e-06	28.969	0.0018246	0.0018196	0.00050498	530.74	2.0362e-05	1.9732e-05	635.24	145.44	2.0186e-05	1.9384e-05	247.9	90.777	58.293	18.767	2.0027e-05	38.936	176.556	62.042	88.042	-22.222	42.370	-12.672	-21.749	-16.404	36.375	30.228	-17.101	-12.300	-12.174	-7.519	138.348	-8.809	-8191	255	
3810.846	1	1	0	0	0.1449	0.14147	0.22181	0.10159	0.30304	0.29345	0.14752	0.34777	0.087271	0.074617	0.094076	0.19736	0.064292	0.12497	0.19154	0.19244	-0.1	-0.17917	-1.0354	-0.48542	-0.43542	-0.81875	0.060417	-0.75	-0.625	-0.17708	-0.95208	-0.13542	-0.47708	-0.875	0.05625	-0.71042	78.364	44.376	-25.939	56.276	-12.866	199.411	294.486	238.112	14.292	133.481	-22.377	228.724	199.090	90.663	287.164	16.671	0.00010512	0.00064697	0.0001178	374.16	3.2747e-06	3.3629e-06	488.96	102.64	3.9339e-06	1.026e-05	185.96	65.638	30.834	12.122	8.4545e-06	29.375	0.0017721	0.0017864	0.00051858	530.94	2.0043e-05	1.9606e-05	641.81	145.42	2.013e-05	1.9416e-05	250.86	90.549	57.867	18.803	2.0636e-05	38.952	195.124	63.680	161.042	-22.103	318.911	58.821	-21.731	-16.509	19.902	62.517	-17.381	-12.760	-12.028	-7.377	148.937	-8.741	-8191	255	
3810.943	1	1	0	0	0.09117	0.25783	0.25673	0.29932	0.26407	0.17386	0.1973	0.16554	0.15067	0.15595	0.1013	0.16865	0.14991	0.03467	0.23444	0.30085	-0.29167	0.0375	-0.71667	-0.49583	-0.29167	-0.80417	-0.13125	-0.59375	-0.81875	0.0041667	-0.99583	-0.43125	-0.0625	-0.81458	-0.275	-0.4625	129.207	129.442	258.732	70.574	92.210	164.307	87.827	212.268	30.031	268.099	229.369	94.319	222.818	64.622	102.853	15.559	6.6007e-05	0.00083083	0.00024165	375.51	2.3487e-06	6.9814e-06	486.62	102.47	6.2925e-06	1.1248e-05	186.36	65.971	30.683	12.153	7.439e-06	29.194	0.0017294	0.0017618	0.00052731	525.93	1.9646e-05	1.9455e-05	643.41	143.71	1.9637e-05	1.9416e-05	252.81	90.043	57.456	18.883	2.1077e-05	38.859	181.874	65.403	119.798	-21.843	179.107	86.624	-21.614	-16.095	94.026	156.521	-17.963	-13.097	-12.026	-7.155	123.352	-8.370	-8191	255	
3811.040	1	1	0	0	0.12839	0.15987	0.073798	0.25072	0.15729	0.32243	0.10848	0.23551	0.053086	0.044506	0.32085	0.095578	0.1006	0.11927	0.41042	0.10307	-0.49583	0.2	-0.68333	-0.76875	0.05	-0.95208	-0.41042	-0.41042	-0.69583	-0.10417	-0.8625	-0.48542	-0.1125	-0.8625	-0.34375	-0.50417	159.247	94.007	161.310	229.093	171.492	-9.254	57.114	301.305	270.745	91.778	215.728	-1.127	273.225	238.545	203.291	252.775	3.8561e-05	0.00077063	9.5157e-05	374.63	2.8564e-06	1.0898e-05	485.56	102.18	4.001e-06	3.5617e-06	184.4	65.772	30.342	11.97	6.3752e-06	28.639	0.0017202	0.0018229	0.00054122	524.67	1.9679e-05	2.0416e-05	648.05	143.44	1.9852e-05	2.0629e-05	252.73	89.547	57.576	19.153	2.1688e-05	38.173	89.127	155.755	76.661	-21.831	257.924	202.225	-21.824	-16.173	104.921	237.747	-17.569	-12.924	-12.283	-7.473	-22.250	-8.712	-8191	255	
3811.159	1	1	0	0	0.19319	0.22078	0.12982	0.0075264	0.17821	0.2631	0.076514	0.079483	0.093645	0.10924	0.33539	0.054593	0.34727	0.16526	0.25967	0.34156	-0.44167	-0.11458	-0.71458	-0.66458	-0.033333	-1.1	-0.46667	-0.275	-0.90833	-0.10208	-0.75208	-0.72708	0.1	-1.0896	-0.51042	-0.24792	190.184	234.966	160.884	15.120	59.556	286.511	-13.638	231.496	79.325	109.716	267.093	41.965	201.794	152.442	284.617	285.359	3.2325e-05	0.0015975	0.00011638	373.69	3.5628e-06	2.2709e-05	487.5	102.09	1.6673e-06	4.9814e-06	185.4	65.954	30.753	11.95	7.9195e-06	28.758	0.0017475	0.0019531	0.00055523	525.89	1.985e-05	2.1572e-05	648.21	143.7	2.0008e-05	2.175e-05	253	89.51	58.041	19.501	2.1359e-05	38.311	159.009	173.236	109.736	-21.484	206.092	191.530	-21.876	-16.253	111.186	258.831	-17.462	-12.720	-12.001	-7.456	46.016	-8.881	-8191	255	
3811.231	1	1	0	0	0.17257	0.34147	0.17025	0.19578	0.28857	0.13866	0.1191	0.033129	0.13601	0.21079	0.082903	0.1946	0.15102	0.12016	0.16042	0.087968	-0.48542	-0.13333	-0.4	-0.82917	-0.0125	-0.79375	-0.61667	-0.22083	-0.95625	-0.24792	-0.60208	-0.72292	-0.12083	-0.82083	-0.29167	-0.34167	176.344	64.417	-24.570	302.852	288.428	37.627	146.435	234.656	150.287	169.546	301.930	21.943	184.572	195.729	256.039	243.536	0.00016553	0.00013312	0.00014613	379.14	9.4278e-07	1.0753e-05	490.18	102.6	4.7414e-06	9.543e-07	183.96	65.249	30.711	11.99	5.7316e-06	28.855	0.0017586	0.002013	0.00054007	525.78	2.014e-05	2.193e-05	644.02	142.85	2.0105e-05	2.1739e-05	249.26	88.617	58.076	19.455	2.0041e-05	38.113	173.305	180.221	91.707	-21.824	-27.111	198.582	-21.891	-16.365	204.896	53.238	-17.613	-12.421	-11.966	-7.553	5.920	-8.536	-8191	255	
3811.327	1	1	0	0	0.03576	0.11823	0.03418	0.16031	0.134	0.11578	0.12	0.17465	0.18139	0.13963	0.14781	0.14342	0.04327	0.12137	0.39576	0.38162	-0.57083	-0.13333	-0.27708	-0.85208	-0.15	-0.70417	-0.81458	-0.11458	-0.82292	-0.6125	-0.10208	-0.87917	0.016667	-0.63333	-0.67083	-0.022917	177.131	188.528	58.838	19.488	214.075	245.961	107.627	37.629	256.427	66.846	86.519	60.168	56.911	187.929	307.348	130.510	0.0001955	0.00030433	8.4003e-05	378.9	3.2985e-06	7.475e-06	485.75	102.54	1.2332e-06	7.6247e-06	185.01	65.653	30.79	12.137	2.7972e-06	28.82	0.0017609	0.0019549	0.00050686	519.06	1.9921e-05	2.0885e-05	633.62	140.82	2.0092e-05	2.0663e-05	246.32	87.905	58.121	19.195	1.9321e-05	37.817	155.717	-27.872	19.102	-21.922	-23.351	161.834	-22.001	-16.183	288.294	26.259	-17.689	-12.408	-11.311	-6.852	173.207	-8.634	-8191	255	
3811.423	1	1	0	0	0.085092	0.2714	0.020338	0.10009	0.21252	0.19004	0.10728	0.14186	0.095035	0.16009	0.084456	0.058844	0.24342	0.26507	0.034509	0.20544	-0.34583	-0.17292	-0.15208	-1.0104	-0.03125	-0.5	-0.61042	-0.12708	-1.0375	-0.49792	-0.064583	-0.81042	-0.21042	-0.68542	-0.68125	-0.13542	203.585	89.425	-3.776	169.383	189.959	76.815	133.525	296.323	316.044	201.100	33.519	281.342	191.882	126.400	196.949	314.235	0.00015236	0.00069723	0.0001143	377.1	4.1625e-06	1.0835e-05	484.11	102.46	3.046e-06	5.3453e-06	183.17	64.643	30.511	11.796	8.32e-06	28.278	0.0017874	0.0018779	0.00049513	517.61	2.0481e-05	2.0543e-05	631.38	140.8	2.0781e-05	2.0661e-05	244.91	87.708	59.424	18.941	1.9675e-05	37.578	205.594	59.104	-4.536	-21.861	262.178	199.308	-21.720	-16.509	68.163	115.466	-17.763	-12.158	-11.970	-7.580	20.152	-8.676	-8191	255	
3811.544	1	1	0	0	0.073035	0.27346	0.090928	0.14988	0.10956	0.22764	0.20803	0.41695	0.30731	0.20173	0.14395	0.25317	0.16624	0.24637	0.3713	0.062071	-0.39167	-0.59167	-0.16042	-0.77083	-0.10625	-0.50833	-1.0792	-0.06875	-0.88542	-0.42292	0.077083	-1.0792	-0.16458	-0.50625	-0.83125	-0.03125	69.176	69.914	77.409	-23.534	64.708	172.952	308.363	163.775	320.849	224.373	-33.449	223.423	64.103	-12.883	104.062	241.563	2.6334e-05	0.00047546	6.7694e-05	377.47	3.6294e-06	1.3076e-05	487.52	102.38	4.291e-06	4.4582e-06	183.92	64.786	30.372	12.044	4.1476e-06	28.466	0.0018729	0.001908	0.00050129	525.08	2.1695e-05	2.075e-05	635.22	143.81	2.1954e-05	2.1072e-05	248.17	89.847	61.265	19.315	2.0224e-05	38.735	163.124	281.574	242.742	-21.957	243.541	43.573	-22.307	-16.311	307.197	128.492	-17.809	-12.637	-11.346	-7.388	156.917	-8.793	-8191	255	
3811.640	1	1	0	0	0.029175	0.10154	0.22979	0.1953	0.13415	0.159	0.23809	0.012211	0.080147	0.27562	0.038226	0.29596	0.17782	0.27109	0.085812	0.42849	-0.10625	-0.37708	-0.16458	-1.1083	-0.27083	-0.2875	-0.7375	-0.13125	-0.22708	-0.6125	-0.25833	-0.87292	-0.34167	-0.10208	-0.78958	-0.03125	287.482	199.519	40.570	-2.533	-10.069	121.651	122.151	291.221	257.515	145.968	302.285	43.674	163.778	309.625	247.184	82.093	6.469e-05	0.00086404	3.5754e-05	376.1	3.3764e-06	1.5149e-05	488.1	102.66	7.2157e-06	1.853e-07	184.69	65.295	30.601	12.13	1.4637e-05	28.813	0.0019728	0.0019533	0.00051915	537.27	2.2674e-05	2.1232e-05	642.91	147.06	2.2558e-05	2.1345e-05	248.36	91.345	61.02	19.313	2.0231e-05	39.295	158.793	23.352	222.896	-21.967	226.599	325.703	-21.716	-16.200	54.852	46.192	-17.267	-12.371	-11.994	-7.356	145.662	-8.767	-8191	255	
3811.736	1	1	0	0	0.12521	0.13744	0.20387	0.29491	0.1379	0.16518	0.14375	0.040669	0.21211	0.24041	0.10708	0.39124	0.19486	0.044459	0.32784	0.21334	-0.34792	-0.62083	0.058333	-0.88542	-0.46667	-0.31042	-0.8375	-0.025	-0.46042	-0.9875	-0.089583	-0.77083	-0.36667	-0.21458	-0.86042	0.0020833	139.125	159.857	158.105	-9.012	25.721	18.447	159.459	229.200	246.489	269.095	85.423	14.745	128.272	63.492	203.918	77.650	3.18e-05	0.0010796	8.0823e-05	376.24	9.299e-07	8.9631e-06	490.64	102.45	6.3772e-06	4.8385e-06	183.66	65.338	30.693	12.024	7.6682e-06	28.476	0.0019254	0.00191	0.00051527	539.76	2.1775e-05	2.0544e-05	641.76	147.14	2.1483e-05	2.0656e-05	248.74	90.984	59.435	19.01	2.04e-05	38.852	229.323	315.227	9.704	-21.649	76.732	112.167	-22.035	-16.554	84.576	58.110	-17.245	-12.588	-12.208	-6.957	93.087	-8.638	-8191	255	
3811.855	1	1	0	0	0.12274	0.37784	0.072461	0.26529	0.024969	0.067773	0.07563	0.32756	0.06693	0.16516	0.10314	0.066642	0.24511	0.12292	0.2306	0.29618	-0.045833	-0.84167	0.09375	-0.775	-0.34375	0.01875	-1.1437	-0.45208	-0.43125	-0.88333	-0.070833	-0.83542	-0.5625	-0.060417	-1.0896	-0.37708	169.915	51.116	19.882	32.352	132.465	305.494	228.740	234.033	256.641	-11.811	86.881	303.986	242.483	166.536	237.028	122.104	0.00015983	0.0003761	0.00029865	375.76	6.0247e-06	5.5344e-06	486.19	101.95	8.4329e-06	8.8022e-06	183.09	64.749	30.305	11.833	4.3498e-06	28.06	0.0018244	0.0018302	0.00051344	534.03	2.0422e-05	1.9542e-05	638.43	144.63	1.9991e-05	1.9413e-05	246.32	89.087	57.362	18.437	1.9944e-05	37.869	213.838	293.956	174.906	-21.798	51.363	155.871	-21.925	-16.097	15.163	56.881	-17.464	-12.534	-12.651	-7.338	153.419	-8.774	-8191	255	
3811.927	1	1	0	0	0.073258	0.030119	0.088834	0.37359	0.28963	0.23667	0.15399	0.24736	0.12929	0.063423	0.043494	0.13115	0.11947	0.075727	0.14464	0.073612	0.0625	-0.89792	0.13958	-0.65417	-0.5	-0.20833	-1.0562	-0.59792	-0.32083	-0.98333	-0.12083	-0.67708	-0.96875	-0.01875	-0.93542	-0.25833	68.197	203.826	280.281	110.951	121.222	296.334	243.146	229.287	227.948	81.886	159.407	217.095	124.161	-32.377	137.964	32.908	0.00019962	0.00025088	0.00013837	376.73	1.8955e-06	1.0084e-05	486.25	101.59	2.3644e-06	9.2177e-07	183.34	64.941	30.576	11.959	9.6053e-06	28.389	0.001719	0.0017698	0.00051513	528.05	1.959e-05	1.8997e-05	639.54	143.19	1.9316e-05	1.9106e-05	248.66	88.821	57.242	18.636	2.1041e-05	38.28	152.831	54.490	124.083	-22.098	115.553	226.677	-21.724	-16.585	260.848	189.196	-17.665	-12.742	-11.933	-7.243	177.795	-9.041	-8191	255	
3812.025	1	1	0	0	0.074078	0.17616	0.12142	0.15552	0.06498	0.23239	0.33425	0.04247	0.084628	0.23548	0.10301	0.079638	0.1517	0.027846	0.1532	0.47133	0.2625	-0.86875	-0.225	-0.86458	-1.0021	-0.2625	-0.84583	-0.275	-0.40833	-0.77917	-0.28958	-0.71458	-0.74375	-0.25	-0.67708	-0.42917	211.329	248.893	164.782	58.693	301.198	93.290	283.262	173.701	324.615	75.207	245.581	-27.333	74.082	139.667	33.048	244.801	0.00013211	0.00086584	6.4135e-05	377.14	5.7423e-06	1.4058e-05	486.41	101.94	5.9288e-06	4.0164e-06	183.02	65.092	30.488	11.966	6.4149e-06	28.376	0.0017577	0.0018415	0.00055639	534.04	2.041e-05	2.0292e-05	652.86	144.85	2.0337e-05	2.0873e-05	254.07	89.714	58.348	19.261	2.2382e-05	38.457	159.631	57.964	67.984	-21.912	69.804	208.102	-21.487	-16.997	51.171	162.963	-17.606	-12.579	-11.764	-6.971	27.264	-8.641	-8191	255	
3812.144	1	1	0	0	0.1434	0.16469	0.10449	0.36658	0.17652	0.039728	0.12099	0.27719	0.12151	0.25402	0.23698	0.12132	0.17633	0.060701	0.0082018	0.25412	0.31458	-0.97292	-0.32917	-0.38125	-0.82708	0.079167	-0.95833	-0.50208	-0.0083333	-0.86875	-0.16875	-0.175	-0.88542	-0.022917	-0.67083	-0.75	190.280	26.999	-18.671	243.150	143.225	145.335	207.667	202.994	217.739	161.109	275.881	38.410	156.193	51.486	200.687	237.978	0.00015216	0.0010239	0.00013998	377.32	7.6893e-06	1.4861e-05	486.73	101.99	9.1334e-06	1.0002e-05	183.07	64.25	30.339	11.828	7.8856e-06	28.016	0.0017942	0.0019459	0.00057219	531.5	2.0445e-05	2.1431e-05	656.41	144.31	2.0167e-05	2.17e-05	253.49	88.85	58.074	19.41	2.1976e-05	37.757	297.087	123.050	252.160	-21.496	137.876	288.124	-21.927	-16.799	48.895	213.833	-17.715	-12.402	-12.355	-7.453	18.686	-9.075	-8191	255	
3812.240	1	1	0	0	0.36634	0.30265	0.22828	0.091953	0.15272	0.10645	0.094043	0.31076	0.20404	0.061593	0.049673	0.10223	0.44239	0.1342	0.24261	0.11588	0.125	-0.78333	-0.41458	-0.4	-0.87083	-0.066667	-0.45625	-0.5625	-0.15625	-0.95208	-0.57083	-0.36667	-0.68333	-0.1125	-0.525	-0.7375	312.881	280.771	282.008	315.849	184.046	202.330	313.932	195.605	317.254	297.046	152.664	267.648	261.222	200.947	126.900	275.895	7.8457e-05	0.00077157	0.00020265	375.63	4.6256e-06	5.6102e-06	490.3	101.86	1.0321e-06	4.4016e-06	182.13	63.683	29.893	11.723	3.3638e-06	27.599	0.0017586	0.0020062	0.0005562	525.98	2.0098e-05	2.1714e-05	645.9	142.16	1.9639e-05	2.1268e-05	246.93	86.525	56.391	18.936	1.9974e-05	36.691	145.364	119.387	-10.962	-21.822	204.841	235.840	-21.789	-16.781	116.516	117.450	-17.675	-12.672	-12.286	-7.072	-20.957	-8.651	-8191	255	
3812.336	1	1	0	0	0.143	0.026878	0.16215	0.50856	0.29004	0.099693	0.24804	0.11811	0.11767	0.22611	0.1017	0.33509	0.16836	0.0082821	0.069301	0.10203	0.3375	-0.76458	-0.32708	-0.19583	-0.88958	-0.14375	-0.55417	-1.0479	-0.0041667	-0.85417	-0.81042	-0.027083	-0.97083	-0.12292	-0.35833	-0.83542	54.467	220.108	110.397	-20.143	167.454	191.913	248.731	278.337	209.308	85.054	28.881	197.214	195.657	19.795	234.334	23.041	0.00017629	0.00027085	5.929e-05	376	1.1432e-05	1.31e-05	486.18	101.83	2.3359e-06	4.2025e-06	181.11	64.205	29.968	11.821	6.9357e-06	27.689	0.001679	0.0018935	0.00050349	514.01	1.9206e-05	2.0508e-05	630.25	139.46	1.8937e-05	2.029e-05	242.01	85.401	56.193	18.729	1.8801e-05	36.394	198.495	-13.938	29.087	-21.830	193.288	161.772	-21.689	-16.841	140.416	81.906	-17.736	-13.002	-11.476	-7.654	52.199	-8.727	-8191	255	
3812.456	1	1	0	0	0.06164	0.063288	0.22449	0.22348	0.13724	0.053443	0.068959	0.1127	0.095866	0.26517	0.12617	0.085984	0.41873	0.15246	0.069905	0.20341	0.4875	-0.61875	-0.52083	-0.047917	-0.99167	-0.29375	-0.44375	-0.89792	0.19167	-0.74792	-0.7125	-0.2625	-0.9625	-0.47917	-0.19375	-0.88958	275.739	241.749	284.578	30.742	57.409	87.411	177.764	29.709	-18.576	-30.323	105.499	229.945	275.242	265.216	146.809	297.802	0.00012818	0.00076421	0.0001408	373.57	4.2632e-06	1.1781e-05	484.62	100.73	3.9809e-06	4.216e-06	179.75	63.853	29.725	11.763	1.1869e-05	27.772	0.0016794	0.0018217	0.00047858	506.55	1.9287e-05	1.9845e-05	624.1	138.09	1.9763e-05	2.0261e-05	241.6	85.516	57.636	18.758	1.9027e-05	36.694	181.408	-23.661	15.011	-22.001	189.650	39.112	-21.859	-16.573	274.580	103.150	-18.069	-12.369	-11.920	-7.579	34.956	-8.463	-8191	255	
3812.528	1	1	0	0	0.26605	0.12255	0.31252	0.2019	0.20507	0.19421	0.19099	0.1575	0.31645	0.12467	0.073381	0.38742	0.10856	0.21203	0.11704	0.10421	0.091667	-0.48333	-0.83958	-0.075	-0.87292	-0.22292	-0.30417	-0.72917	-0.070833	-0.37083	-0.56875	-0.0125	-0.85208	-0.30833	0.058333	-0.74375	168.064	137.689	80.990	144.718	315.454	208.524	168.792	-19.251	221.723	102.593	158.397	244.855	325.216	32.653	165.497	-16.957	0.00016885	8.1311e-05	1.8427e-05	374.06	4.9793e-06	1.7734e-05	483.83	101.4	2.6552e-06	1.07e-05	180.68	63.242	29.918	11.571	1.8449e-06	27.403	0.0018049	0.0018509	0.00048848	511.47	2.0575e-05	2.0013e-05	625	138.87	2.0652e-05	1.9854e-05	240.89	85.725	58.17	18.486	1.8914e-05	36.623	170.358	204.424	1.274	-21.930	111.261	2.398	-21.952	-16.634	200.518	18.822	-17.868	-12.680	-11.338	-7.296	310.790	-8.712	-8191	255	
3812.624	1	1	0	0	0.048369	0.045835	0.16923	0.23344	0.18397	0.11554	0.19979	0.17108	0.091122	0.15128	0.21457	0.20813	0.29121	0.26534	0.17607	0.19482	0.29167	-0.070833	-0.52917	0.0875	-0.68958	-0.61875	-0.15833	-0.99375	-0.2125	-0.48958	-1.0833	-0.17708	-0.55625	-0.67292	0.058333	-1.0708	285.139	280.196	100.361	-14.461	151.972	137.410	204.300	273.386	272.724	189.474	66.171	325.462	119.713	323.192	71.359	226.509	0.00010276	0.00048718	0.00014942	373.28	2.59e-06	6.7449e-06	483.75	101.06	5.7721e-06	4.3104e-06	180.38	63.257	29.857	11.575	3.346e-06	27.576	0.0018289	0.00181	0.00048422	517.25	2.0901e-05	1.9826e-05	624.81	140.71	2.0863e-05	1.97e-05	240.54	86.999	58.357	18.454	1.877e-05	37.195	116.315	18.398	169.796	-21.674	11.537	14.488	-21.962	-16.486	146.418	55.990	-17.537	-12.560	-12.941	-7.984	-31.657	-8.515	-8191	255	
3812.720	1	1	0	0	0.3094	0.21569	0.21292	0.18623	0.099583	0.12926	0.23264	0.10792	0.12809	0.1822	0.12003	0.10815	0.21418	0.15974	0.058328	0.059372	-0.035417	-0.30625	-0.89792	-0.22292	-0.61042	-0.81667	-0.25833	-1.0354	-0.29792	-0.42292	-0.81667	-0.1375	-0.6375	-0.89167	-0.060417	-0.87708	-25.590	-29.875	226.060	152.548	151.178	106.216	316.098	273.536	173.540	55.938	34.082	244.646	12.119	56.620	98.043	292.933	1.8888e-05	0.00039001	0.00010892	375.15	1.0028e-05	5.6448e-06	485.19	101.45	4.0026e-06	2.97e-06	181.89	63.741	29.919	11.848	3.0668e-06	28.029	0.0018269	0.0018027	0.00048411	526	2.0728e-05	1.9704e-05	627.7	143.34	2.0667e-05	1.952e-05	242.62	88.274	57.972	18.598	1.8949e-05	37.777	-1.083	273.728	23.049	-21.814	68.338	188.683	-21.954	-16.395	105.798	285.376	-17.444	-12.655	-12.259	-7.337	-1.819	-8.222	-8191	255	
3812.839	1	1	0	0	0.057529	0.12178	0.21061	0.13561	0.1307	0.10194	0.14418	0.10148	0.2159	0.11767	0.1832	0.15461	0.17123	0.13222	0.34046	0.25262	-0.175	-0.21458	-0.94583	-0.1	-0.44167	-0.54375	-0.00625	-0.78333	-0.32083	-0.035417	-0.97917	0.04375	-0.45833	-0.70625	-0.08125	-0.9	12.432	58.671	128.838	55.064	299.636	-27.574	207.281	48.951	66.718	49.088	33.480	203.536	-16.173	46.965	264.846	223.912	0.00012593	3.4874e-05	0.00015589	376.1	1.2004e-06	1.4109e-05	486.35	101.86	3.6079e-06	3.4833e-06	182.4	64.675	29.915	11.922	7.221e-06	28.263	0.0017649	0.0017463	0.0004858	528.09	1.9833e-05	1.9091e-05	628.23	143.34	1.9729e-05	1.8926e-05	243.18	88.479	56.886	18.501	1.9147e-05	38.018	41.346	237.742	149.972	-21.734	25.253	239.245	-21.561	-16.652	127.440	228.182	-17.733	-12.863	-12.032	-6.804	211.408	-8.548	-8191	255	
3812.935	1	1	0	0	0.25423	0.20342	0.12354	0.12739	0.1574	0.10456	0.17926	0.030001	0.23439	0.24018	0.1714	0.23826	0.30884	0.19647	0.29926	0.25641	-0.24375	-0.23333	-0.80625	-0.37708	-0.39375	-0.92083	-0.18542	-0.77083	-0.83542	-0.10625	-1	-0.42292	-0.06875	-0.88958	-0.095833	-0.66667	27.298	287.190	21.078	280.010	261.765	7.269	212.887	164.716	91.198	125.763	27.560	235.197	308.132	179.984	84.777	-25.338	1.2349e-05	1.2549e-05	0.0003334	376.71	5.3384e-06	1.2309e-05	485.05	102.02	6.8364e-06	1.2359e-06	180.69	64.395	30.322	11.847	2.1067e-06	27.7	0.0017074	0.0017098	0.00049511	526.01	1.9171e-05	1.8732e-05	630.89	142.29	1.9323e-05	1.8547e-05	244.51	88.091	56.706	18.367	1.9991e-05	37.466	190.490	255.194	103.861	-22.019	291.435	300.214	-21.675	-16.745	34.659	166.681	-17.518	-12.426	-11.997	-7.322	291.956	-8.594	-8191	255	
3813.032	1	1	0	0	0.19144	0.16572	0.12888	0.07985	0.30018	0.086693	0.13323	0.28162	0.20052	0.11203	0.166	0.066852	0.090529	0.04256	0.075123	0.3654	-0.20208	-0.15625	-0.85	-0.47083	-0.49583	-1.2458	-0.225	-0.75833	-0.77083	-0.3	-1.0917	-0.5	-0.16042	-1.1437	-0.3125	-0.54792	207.976	255.301	309.930	285.594	49.449	197.015	174.041	325.393	66.831	294.091	297.510	244.715	-5.648	281.723	190.783	242.501	1.8998e-05	0.00011889	0.00018551	378.64	9.2695e-06	7.3982e-06	485.78	101.94	1.7638e-06	3.4241e-06	181.53	64.209	30.392	11.915	8.9726e-06	27.987	0.0017089	0.0017403	0.00051821	526.22	1.9298e-05	1.9119e-05	641.36	143.5	1.9738e-05	1.9552e-05	250.13	88.594	57.521	18.858	2.1565e-05	37.822	289.076	202.117	133.223	-21.876	12.254	127.044	-21.734	-16.594	38.482	154.473	-17.541	-12.478	-12.522	-7.677	118.893	-8.621	-8191	255	
3813.128	1	1	0	0	0.20582	0.17576	0.092006	0.2628	0.23536	0.25859	0.075455	0.079753	0.18376	0.20163	0.12442	0.35469	0.0038346	0.079439	0.13527	0.094086	-0.66667	-0.12083	-0.68958	-0.45	-0.047917	-0.80625	-0.21667	-0.51667	-0.76458	-0.17917	-0.73958	-0.63542	-0.083333	-0.92292	-0.37708	-0.60208	295.921	209.911	171.502	40.048	206.815	274.396	68.411	236.615	171.193	99.430	36.482	250.939	17.181	258.765	325.683	312.813	0.00013089	0.0006464	4.7804e-05	377.99	7.8009e-06	9.6281e-06	489.7	103.14	4.6092e-06	1.0028e-05	183.32	64.41	30.429	11.893	4.3078e-06	28.11	0.0017733	0.0018631	0.00056233	533.96	2.0326e-05	2.0919e-05	656.21	145.21	2.0544e-05	2.1193e-05	254.66	89.131	58.164	19.372	2.2509e-05	38.253	157.034	70.114	259.463	-21.794	114.873	228.179	-21.680	-16.184	65.485	151.979	-17.541	-12.914	-11.593	-7.026	115.033	-8.764	-8191	255	
3813.224	1	1	0	0	0.20836	0.16686	0.16411	0.021727	0.10055	0.15417	0.26508	0.14561	0.11436	0.15873	0.065093	0.098966	0.11843	0.16571	0.19957	0.079429	-0.61042	-0.43542	-0.88333	-0.70208	-0.0125	-1.05	-0.35208	-0.40417	-1.1896	-0.20417	-0.7875	-0.75625	0.033333	-0.69375	-0.33542	-0.21042	189.994	94.285	127.986	28.690	92.632	222.608	293.553	287.533	283.254	247.140	257.522	46.689	167.493	50.781	113.285	151.559	0.00010548	0.0013289	0.00028234	379.22	3.0519e-06	8.1375e-06	489.59	102.32	1.9004e-06	9.0292e-06	182.7	64.429	30.119	11.869	6.9426e-06	28.182	0.0018163	0.0020045	0.00057681	535.4	2.0465e-05	2.2033e-05	655.2	144.77	2.0465e-05	2.2038e-05	252.27	88.691	57.835	19.456	2.147e-05	37.776	218.304	147.055	301.113	-21.918	142.224	185.569	-22.535	-16.458	209.721	160.251	-17.451	-12.875	-11.739	-6.836	-21.947	-8.356	-8191	255	
3813.320	1	1	0	0	0.11698	0.14097	0.072811	0.20674	0.19637	0.12106	0.12843	0.157	0.12829	0.28002	0.17668	0.13702	0.06075	0.12019	0.1849	0.062224	-0.54583	0.2875	-0.43333	-0.77917	-0.13333	-1.0812	-0.66458	-0.21667	-1.1083	-0.09375	-0.60417	-0.76667	0.00625	-0.62083	-0.4125	-0.085417	-22.814	86.904	143.964	185.131	67.991	122.213	77.019	27.500	293.261	302.841	298.120	127.051	41.686	180.676	48.187	65.291	3.679e-05	0.00061546	0.00017603	378.03	8.2762e-06	1.3868e-05	487.72	101.7	7.9794e-07	7.1427e-06	181.96	64.149	30.07	11.8	3.6173e-06	27.713	0.0017585	0.0019976	0.00053956	527.96	2.0009e-05	2.1734e-05	643.96	142.47	2.0033e-05	2.1593e-05	247.71	87.251	57.493	19.232	2.0571e-05	36.895	58.531	232.725	317.993	-22.293	251.298	153.701	-21.948	-16.189	85.018	88.150	-17.481	-12.628	-11.104	-7.280	163.682	-8.614	-8191	255	
3813.416	1	1	0	0	0.051943	0.21855	0.31154	0.31737	0.14714	0.056072	0.12749	0.26369	0.11843	0.16825	0.17486	0.37407	0.082483	0.15811	0.39594	0.12588	-0.52292	-0.26042	-0.39792	-0.85	0.13333	-0.6625	-0.8	-0.16042	-0.80208	-0.42292	-0.26458	-0.96667	-0.16042	-0.72708	-0.4625	0.05	45.662	42.960	18.427	188.575	253.775	-11.053	8.990	257.040	166.111	155.722	204.927	284.671	99.299	264.009	27.084	215.158	0.00015511	0.00054772	0.0001947	378.71	8.414e-06	1.0114e-05	485.93	101.83	6.7583e-06	2.1273e-06	182.14	63.946	29.808	11.742	3.4989e-06	27.521	0.0017756	0.001988	0.00052297	524.31	2.0522e-05	2.1839e-05	641.73	142.37	2.0921e-05	2.2005e-05	248.14	87.551	59.228	19.475	2.1076e-05	37.299	155.537	153.697	29.811	-21.848	171.888	275.619	-21.901	-16.789	224.386	149.652	-17.382	-12.777	-11.676	-6.731	53.906	-8.587	-8191	255	
3813.537	1	1	0	0	0.12025	0.036306	0.26452	0.17511	0.33442	0.14357	0.23648	0.079855	0.17484	0.18975	0.30888	0.14519	0.15617	0.14403	0.070397	0.16111	-0.72292	-0.49375	-0.28542	-0.83333	-0.0083333	-0.7625	-0.99792	0.1	-0.74583	-0.575	-0.2375	-0.88125	0.03125	-0.62292	-0.8625	-0.16042	-24.212	10.833	294.742	261.960	138.130	66.483	205.690	318.842	-30.890	-19.873	239.078	-27.887	82.040	194.653	82.735	241.022	5.1011e-05	0.00016356	8.5361e-05	381.81	6.0133e-06	9.9393e-06	488.95	102.35	7.2393e-06	2.7701e-06	182.66	63.983	30.482	11.893	6.3156e-06	27.763	0.001925	0.0020615	0.00053807	531.9	2.2303e-05	2.2465e-05	646.05	143.86	2.2544e-05	2.242e-05	249.26	88.15	61.107	19.442	2.0767e-05	37.613	188.332	141.158	314.732	-22.057	226.346	122.077	-21.960	-16.769	213.365	23.480	-17.641	-12.724	-11.745	-7.059	-4.529	-8.842	-8191	255	
3813.633	1	1	0	0	0.030971	0.12248	0.0081849	0.13938	0.16889	0.11849	0.11175	0.089673	0.064589	0.21558	0.057348	0.25453	0.10431	0.16819	0.11517	0.06188	-0.53542	-0.3125	-0.15	-0.84583	-0.27292	-0.52708	-0.94583	-0.18125	-0.92708	-0.52917	-0.11458	-0.84375	-0.32917	-0.34792	-0.9625	-0.097917	315.106	307.825	172.199	162.972	217.952	165.866	293.746	193.708	157.997	-21.256	278.352	194.756	22.180	233.851	-23.595	60.233	8.1604e-05	0.00094575	0.00011179	377.11	4.3447e-06	1.1415e-05	486.55	101.92	6.2989e-06	7.8196e-06	181.16	63.881	30.124	11.801	1.0287e-05	28.015	0.0019634	0.0019872	0.00051954	528.08	2.2053e-05	2.1104e-05	637.15	142.88	2.1914e-05	2.0802e-05	244.45	87.706	59.631	18.863	1.9493e-05	37.542	127.072	267.275	-27.748	-21.722	170.027	85.769	-22.070	-16.395	282.377	53.366	-17.644	-12.272	-12.412	-7.485	55.981	-8.457	-8191	255	
3813.729	1	1	0	0	0.17108	0.072936	0.2828	0.020575	0.21894	0.12953	0.17411	0.073703	0.11709	0.18228	0.22902	0.31275	0.15753	0.12112	0.32977	0.17518	-0.44375	-0.47292	-0.016667	-0.81042	-0.19167	-0.38542	-1.0688	-0.20833	-0.81875	-0.77917	-0.24792	-1.1688	-0.36458	-0.27917	-0.80625	0.027083	108.525	193.151	80.152	296.276	262.126	169.764	169.765	-20.251	266.926	0.837	-5.314	277.727	20.772	-23.887	26.521	215.699	0.00016131	0.00032654	0.00012323	376.55	3.2397e-06	2.9792e-06	489.54	101.84	3.0372e-06	7.1081e-06	181.27	63.756	30.165	11.645	2.5713e-06	27.266	0.0018692	0.0018551	0.00049116	526.3	2.1138e-05	1.9874e-05	630.13	142.53	2.0785e-05	1.9784e-05	241.2	87.436	58.165	18.349	1.8809e-05	36.944	172.518	302.954	212.367	-21.757	12.581	117.473	-22.247	-16.572	22.589	161.908	-17.408	-12.258	-12.183	-7.493	-6.230	-8.682	-8191	255	
3813.825	1	1	0	0	0.09827	0.23373	0.22411	0.043332	0.24393	0.034133	0.19118	0.12119	0.32546	0.10146	0.15822	0.22276	0.11825	0.19993	0.10287	0.23585	-0.31667	-0.66667	-0.26458	-0.94792	-0.22708	-0.22083	-0.86875	-0.31875	-0.47708	-0.70833	0.025	-0.70208	-0.55625	-0.28542	-0.88333	-0.14375	170.250	116.914	67.563	23.456	70.945	287.461	191.974	313.438	97.113	157.226	298.790	285.914	100.332	227.528	71.854	272.912	8.8685e-05	0.00085635	0.00015541	376.74	6.1597e-06	9.4712e-07	485.56	102.36	4.9003e-06	5.1062e-06	182.66	64.129	30.831	11.717	2.1424e-06	27.82	0.0017876	0.0017924	0.00047846	527.38	2.0213e-05	1.9062e-05	627.21	143.26	2e-05	1.9138e-05	241.73	88.113	57.573	18.339	1.9e-05	37.373	236.020	315.157	8.039	-21.928	71.436	110.566	-21.489	-16.792	128.502	12.178	-17.405	-12.631	-11.639	-7.273	119.415	-8.758	-8191	255	
#DATA ENDS
